# Version 2.1 - nm, norm@500 to 1, cut digits, bergeron_He_9000_85.dat_9000
# Wavelength(nm)  Flambda(ergs/cm^s/s/nm)
300.00 1.664306
300.10 1.664153
300.20 1.663979
300.30 1.663833
300.40 1.663875
300.50 1.663917
300.60 1.663959
300.70 1.664
300.80 1.66404
300.90 1.664081
301.00 1.66412
301.10 1.66416
301.20 1.664199
301.30 1.664237
301.40 1.664275
301.50 1.664313
301.60 1.66435
301.70 1.664387
301.80 1.664424
301.90 1.66446
302.00 1.664496
302.10 1.664466
302.20 1.664428
302.30 1.664391
302.40 1.664353
302.50 1.664314
302.60 1.664276
302.70 1.664237
302.80 1.664198
302.90 1.664158
303.00 1.664118
303.10 1.664078
303.20 1.664037
303.30 1.664002
303.40 1.664013
303.50 1.664023
303.60 1.664033
303.70 1.664043
303.80 1.664052
303.90 1.664061
304.00 1.66407
304.10 1.664078
304.20 1.664086
304.30 1.664093
304.40 1.6641
304.50 1.664107
304.60 1.664081
304.70 1.664051
304.80 1.664021
304.90 1.66399
305.00 1.663959
305.10 1.663928
305.20 1.663897
305.30 1.663865
305.40 1.663833
305.50 1.6638
305.60 1.663768
305.70 1.663735
305.80 1.663701
305.90 1.663668
306.00 1.663634
306.10 1.663599
306.20 1.663565
306.30 1.66353
306.40 1.663492
306.50 1.663453
306.60 1.663414
306.70 1.663375
306.80 1.663335
306.90 1.663296
307.00 1.663255
307.10 1.663215
307.20 1.663174
307.30 1.663133
307.40 1.663092
307.50 1.66305
307.60 1.663008
307.70 1.662966
307.80 1.662923
307.90 1.66288
308.00 1.662837
308.10 1.662793
308.20 1.66275
308.30 1.662706
308.40 1.662661
308.50 1.662617
308.60 1.662572
308.70 1.662526
308.80 1.662549
308.90 1.662766
309.00 1.662695
309.10 1.662624
309.20 1.662553
309.30 1.662481
309.40 1.66241
309.50 1.662344
309.60 1.662278
309.70 1.662211
309.80 1.662144
309.90 1.662077
310.00 1.66201
310.10 1.661942
310.20 1.661875
310.30 1.661807
310.40 1.661752
310.50 1.661712
310.60 1.661671
310.70 1.66163
310.80 1.661589
310.90 1.661548
311.00 1.661339
311.10 1.66113
311.20 1.660921
311.30 1.660742
311.40 1.660649
311.50 1.660556
311.60 1.660462
311.70 1.660369
311.80 1.660275
311.90 1.66018
312.00 1.660086
312.10 1.659991
312.20 1.660101
312.30 1.660145
312.40 1.659968
312.50 1.659915
312.60 1.659923
312.70 1.65993
312.80 1.659937
312.90 1.659882
313.00 1.659762
313.10 1.659641
313.20 1.659521
313.30 1.659411
313.40 1.659334
313.50 1.659256
313.60 1.659177
313.70 1.659099
313.80 1.659021
313.90 1.658942
314.00 1.658863
314.10 1.658723
314.20 1.658583
314.30 1.658442
314.40 1.658302
314.50 1.658162
314.60 1.658021
314.70 1.65788
314.80 1.657763
314.90 1.657742
315.00 1.657748
315.10 1.657609
315.20 1.657471
315.30 1.657332
315.40 1.657193
315.50 1.657053
315.60 1.656914
315.70 1.656839
315.80 1.656765
315.90 1.65669
316.00 1.656614
316.10 1.656344
316.20 1.656074
316.30 1.656193
316.40 1.655923
316.50 1.656041
316.60 1.65577
316.70 1.655887
316.80 1.656004
316.90 1.655733
317.00 1.655462
317.10 1.655191
317.20 1.65492
317.30 1.655209
317.40 1.655386
317.50 1.655248
317.60 1.655111
317.70 1.654973
317.80 1.654835
317.90 1.6543
318.00 1.654491
318.10 1.654219
318.20 1.653948
318.30 1.653676
318.40 1.653504
318.50 1.653615
318.60 1.653427
318.70 1.65327
318.80 1.652883
318.90 1.653375
319.00 1.653301
319.10 1.653029
319.20 1.652768
319.30 1.652539
319.40 1.652311
319.50 1.652083
319.60 1.652438
319.70 1.65221
319.80 1.651981
319.90 1.651752
320.00 1.651502
320.10 1.651229
320.20 1.65135
320.30 1.651077
320.40 1.650804
320.50 1.65106
320.60 1.650802
320.70 1.650906
320.80 1.650829
320.90 1.650555
321.00 1.650281
321.10 1.650008
321.20 1.649609
321.30 1.649495
321.40 1.64938
321.50 1.649265
321.60 1.649149
321.70 1.649034
321.80 1.648969
321.90 1.648958
322.00 1.648419
322.10 1.648328
322.20 1.648236
322.30 1.648144
322.40 1.648052
322.50 1.64796
322.60 1.647868
322.70 1.647775
322.80 1.647461
322.90 1.647301
323.00 1.647141
323.10 1.646982
323.20 1.646822
323.30 1.646662
323.40 1.646502
323.50 1.646342
323.60 1.646181
323.70 1.646021
323.80 1.645861
323.90 1.6457
324.00 1.645476
324.10 1.645252
324.20 1.645029
324.30 1.644846
324.40 1.644759
324.50 1.64465
324.60 1.644541
324.70 1.644432
324.80 1.644322
324.90 1.644213
325.00 1.644103
325.10 1.643993
325.20 1.64384
325.30 1.643598
325.40 1.643355
325.50 1.6431
325.60 1.64283
325.70 1.642559
325.80 1.642289
325.90 1.642081
326.00 1.641941
326.10 1.6418
326.20 1.641659
326.30 1.641594
326.40 1.641747
326.50 1.641545
326.60 1.641343
326.70 1.641141
326.80 1.640939
326.90 1.640736
327.00 1.640534
327.10 1.640332
327.20 1.640129
327.30 1.639927
327.40 1.639724
327.50 1.639522
327.60 1.639319
327.70 1.639117
327.80 1.638914
327.90 1.638666
328.00 1.638403
328.10 1.638182
328.20 1.637962
328.30 1.637741
328.40 1.637521
328.50 1.637329
328.60 1.637144
328.70 1.636959
328.80 1.636768
328.90 1.636564
329.00 1.63636
329.10 1.636156
329.20 1.635952
329.30 1.635747
329.40 1.635543
329.50 1.635338
329.60 1.635134
329.70 1.634929
329.80 1.634725
329.90 1.63452
330.00 1.634366
330.10 1.634275
330.20 1.634183
330.30 1.634091
330.40 1.63394
330.50 1.633726
330.60 1.633511
330.70 1.633297
330.80 1.633083
330.90 1.632868
331.00 1.632653
331.10 1.632439
331.20 1.632224
331.30 1.63201
331.40 1.631795
331.50 1.631617
331.60 1.631485
331.70 1.631353
331.80 1.631106
331.90 1.630855
332.00 1.630603
332.10 1.630352
332.20 1.6301
332.30 1.629849
332.40 1.629597
332.50 1.629346
332.60 1.629095
332.70 1.628843
332.80 1.628592
332.90 1.62834
333.00 1.628089
333.10 1.627858
333.20 1.627651
333.30 1.627444
333.40 1.627237
333.50 1.62703
333.60 1.626824
333.70 1.626617
333.80 1.62641
333.90 1.626202
334.00 1.625995
334.10 1.625809
334.20 1.625648
334.30 1.625487
334.40 1.625326
334.50 1.625165
334.60 1.625004
334.70 1.624779
334.80 1.624527
334.90 1.624351
335.00 1.624174
335.10 1.623683
335.20 1.623406
335.30 1.62351
335.40 1.622974
335.50 1.622956
335.60 1.622679
335.70 1.622023
335.80 1.621747
335.90 1.621548
336.00 1.621443
336.10 1.621339
336.20 1.621234
336.30 1.621052
336.40 1.620775
336.50 1.620499
336.60 1.620222
336.70 1.619945
336.80 1.619669
336.90 1.619389
337.00 1.619106
337.10 1.618823
337.20 1.61854
337.30 1.618308
337.40 1.618151
337.50 1.617994
337.60 1.617837
337.70 1.617679
337.80 1.617522
337.90 1.617301
338.00 1.617004
338.10 1.616706
338.20 1.616409
338.30 1.616112
338.40 1.615823
338.50 1.615556
338.60 1.615289
338.70 1.615022
338.80 1.614756
338.90 1.614489
339.00 1.614222
339.10 1.613955
339.20 1.613689
339.30 1.613424
339.40 1.613162
339.50 1.612916
339.60 1.61269
339.70 1.612464
339.80 1.612238
339.90 1.612012
340.00 1.611785
340.10 1.611559
340.20 1.611333
340.30 1.611107
340.40 1.610881
340.50 1.610655
340.60 1.610428
340.70 1.610202
340.80 1.609961
340.90 1.609699
341.00 1.609431
341.10 1.609156
341.20 1.608881
341.30 1.608605
341.40 1.60833
341.50 1.608055
341.60 1.60778
341.70 1.607505
341.80 1.607212
341.90 1.606898
342.00 1.606584
342.10 1.60627
342.20 1.606163
342.30 1.605938
342.40 1.605555
342.50 1.605285
342.60 1.605015
342.70 1.604745
342.80 1.604474
342.90 1.604204
343.00 1.603929
343.10 1.603648
343.20 1.603367
343.30 1.603086
343.40 1.602808
343.50 1.602534
343.60 1.60226
343.70 1.601986
343.80 1.601712
343.90 1.601437
344.00 1.601163
344.10 1.600889
344.20 1.600616
344.30 1.600342
344.40 1.600068
344.50 1.599794
344.60 1.599907
344.70 1.599633
344.80 1.599359
344.90 1.599085
345.00 1.598426
345.10 1.598152
345.20 1.597883
345.30 1.597618
345.40 1.597353
345.50 1.597074
345.60 1.596786
345.70 1.596512
345.80 1.596239
345.90 1.595966
346.00 1.595693
346.10 1.59542
346.20 1.595147
346.30 1.594874
346.40 1.594601
346.50 1.594329
346.60 1.594056
346.70 1.593783
346.80 1.593511
346.90 1.593238
347.00 1.592965
347.10 1.592693
347.20 1.592409
347.30 1.592108
347.40 1.591807
347.50 1.591506
347.60 1.591205
347.70 1.590905
347.80 1.590604
347.90 1.590303
348.00 1.590003
348.10 1.589703
348.20 1.589402
348.30 1.589102
348.40 1.588802
348.50 1.588502
348.60 1.588202
348.70 1.588158
348.80 1.58805
348.90 1.587736
349.00 1.587422
349.10 1.587108
349.20 1.586794
349.30 1.586481
349.40 1.586167
349.50 1.585853
349.60 1.58554
349.70 1.585226
349.80 1.584913
349.90 1.5846
350.00 1.584287
350.10 1.583974
350.20 1.583661
350.30 1.583364
350.40 1.583091
350.50 1.582818
350.60 1.582545
350.70 1.582271
350.80 1.581998
350.90 1.581725
351.00 1.581452
351.10 1.581179
351.20 1.580906
351.30 1.580633
351.40 1.580348
351.50 1.580039
351.60 1.57973
351.70 1.579422
351.80 1.579113
351.90 1.578805
352.00 1.578497
352.10 1.578189
352.20 1.57773
352.30 1.577326
352.40 1.577024
352.50 1.576722
352.60 1.57642
352.70 1.576118
352.80 1.575817
352.90 1.575515
353.00 1.575214
353.10 1.574912
353.20 1.574611
353.30 1.57431
353.40 1.574009
353.50 1.573685
353.60 1.573355
353.70 1.573025
353.80 1.572695
353.90 1.572364
354.00 1.572031
354.10 1.571697
354.20 1.571364
354.30 1.57103
354.40 1.570697
354.50 1.570364
354.60 1.570031
354.70 1.569698
354.80 1.569426
354.90 1.569241
355.00 1.569057
355.10 1.568872
355.20 1.568688
355.30 1.568376
355.40 1.568065
355.50 1.567754
355.60 1.567443
355.70 1.567102
355.80 1.566748
355.90 1.566205
356.00 1.565767
356.10 1.56544
356.20 1.565113
356.30 1.564785
356.40 1.564458
356.50 1.564132
356.60 1.563805
356.70 1.563478
356.80 1.563152
356.90 1.562825
357.00 1.562499
357.10 1.562173
357.20 1.561847
357.30 1.561521
357.40 1.561193
357.50 1.560863
357.60 1.560533
357.70 1.560203
357.80 1.559883
357.90 1.559563
358.00 1.559267
358.10 1.558977
358.20 1.558687
358.30 1.558397
358.40 1.558107
358.50 1.557817
358.60 1.557528
358.70 1.557238
358.80 1.556949
358.90 1.556659
359.00 1.556357
359.10 1.556031
359.20 1.555702
359.30 1.555353
359.40 1.555004
359.50 1.554586
359.60 1.554151
359.70 1.553716
359.80 1.553535
359.90 1.553354
360.00 1.553088
360.10 1.552672
360.20 1.552256
360.30 1.551841
360.40 1.551425
360.50 1.55101
360.60 1.550914
360.70 1.550502
360.80 1.550091
360.90 1.549679
361.00 1.549491
361.10 1.549177
361.20 1.548584
361.30 1.548561
361.40 1.548061
361.50 1.547799
361.60 1.547645
361.70 1.547086
361.80 1.546672
361.90 1.546513
362.00 1.546354
362.10 1.545968
362.20 1.545565
362.30 1.545231
362.40 1.544898
362.50 1.544565
362.60 1.544231
362.70 1.543812
362.80 1.543223
362.90 1.54296
363.00 1.542697
363.10 1.542387
363.20 1.542076
363.30 1.541923
363.40 1.541222
363.50 1.540815
363.60 1.54085
363.70 1.540623
363.80 1.540037
363.90 1.53975
364.00 1.539463
364.10 1.539176
364.20 1.538889
364.30 1.538416
364.40 1.537897
364.50 1.537644
364.60 1.537384
364.70 1.537123
364.80 1.536863
364.90 1.536313
365.00 1.535763
365.10 1.535505
365.20 1.535247
365.30 1.534989
365.40 1.534731
365.50 1.534182
365.60 1.533634
365.70 1.533324
365.80 1.533014
365.90 1.532798
366.00 1.532605
366.10 1.532195
366.20 1.531786
366.30 1.531377
366.40 1.530968
366.50 1.530735
366.60 1.530484
366.70 1.530088
366.80 1.529691
366.90 1.529324
367.00 1.52901
367.10 1.528696
367.20 1.528382
367.30 1.528068
367.40 1.527754
367.50 1.527282
367.60 1.526771
367.70 1.526395
367.80 1.526018
367.90 1.525642
368.00 1.525463
368.10 1.524921
368.20 1.524613
368.30 1.524311
368.40 1.524009
368.50 1.523708
368.60 1.523406
368.70 1.523104
368.80 1.522803
368.90 1.522313
369.00 1.521992
369.10 1.521798
369.20 1.52098
369.30 1.520727
369.40 1.520473
369.50 1.52022
369.60 1.51968
369.70 1.519141
369.80 1.518779
369.90 1.518418
370.00 1.518058
370.10 1.518113
370.20 1.517593
370.30 1.517057
370.40 1.516807
370.50 1.516555
370.60 1.516303
370.70 1.51605
370.80 1.515514
370.90 1.514978
371.00 1.514726
371.10 1.514477
371.20 1.513942
371.30 1.513407
371.40 1.51331
371.50 1.512915
371.60 1.51252
371.70 1.512125
371.80 1.511731
371.90 1.511337
372.00 1.511251
372.10 1.510839
372.20 1.510495
372.30 1.510151
372.40 1.509808
372.50 1.509464
372.60 1.50912
372.70 1.508777
372.80 1.508246
372.90 1.507715
373.00 1.507466
373.10 1.507219
373.20 1.50669
373.30 1.506162
373.40 1.505913
373.50 1.505664
373.60 1.505137
373.70 1.50461
373.80 1.504483
373.90 1.504112
374.00 1.503725
374.10 1.503338
374.20 1.502951
374.30 1.502564
374.40 1.502108
374.50 1.502055
374.60 1.501679
374.70 1.501293
374.80 1.500909
374.90 1.500524
375.00 1.500092
375.10 1.499661
375.20 1.49923
375.30 1.498904
375.40 1.498578
375.50 1.498253
375.60 1.497927
375.70 1.497602
375.80 1.497277
375.90 1.496952
376.00 1.496156
376.10 1.495834
376.20 1.495518
376.30 1.495202
376.40 1.494885
376.50 1.494529
376.60 1.494114
376.70 1.493699
376.80 1.493286
376.90 1.492876
377.00 1.492467
377.10 1.492058
377.20 1.491676
377.30 1.491396
377.40 1.491115
377.50 1.490835
377.60 1.490401
377.70 1.489968
377.80 1.489534
377.90 1.489101
378.00 1.489057
378.10 1.488656
378.20 1.488247
378.30 1.487837
378.40 1.487428
378.50 1.487019
378.60 1.48661
378.70 1.486202
378.80 1.485793
378.90 1.485394
379.00 1.485011
379.10 1.48466
379.20 1.48431
379.30 1.483918
379.40 1.483484
379.50 1.483051
379.60 1.482659
379.70 1.482319
379.80 1.481932
379.90 1.481545
380.00 1.481158
380.10 1.480772
380.20 1.480386
380.30 1.48
380.40 1.479614
380.50 1.479228
380.60 1.479138
380.70 1.478726
380.80 1.478315
380.90 1.477905
381.00 1.477494
381.10 1.477053
381.20 1.476717
381.30 1.47634
381.40 1.476096
381.50 1.475596
381.60 1.475166
381.70 1.474886
381.80 1.474508
381.90 1.474003
382.00 1.473498
382.10 1.473259
382.20 1.472701
382.30 1.472462
382.40 1.472156
382.50 1.47175
382.60 1.471343
382.70 1.471023
382.80 1.470714
382.90 1.470316
383.00 1.469919
383.10 1.469522
383.20 1.469109
383.30 1.468635
383.40 1.468196
383.50 1.467808
383.60 1.467602
383.70 1.467185
383.80 1.466768
383.90 1.466352
384.00 1.465935
384.10 1.465519
384.20 1.465103
384.30 1.464688
384.40 1.464283
384.50 1.463889
384.60 1.463495
384.70 1.463102
384.80 1.46276
384.90 1.462475
385.00 1.461941
385.10 1.461421
385.20 1.461292
385.30 1.4608
385.40 1.460357
385.50 1.459966
385.60 1.459574
385.70 1.459183
385.80 1.458779
385.90 1.458328
386.00 1.457911
386.10 1.457528
386.20 1.457176
386.30 1.456824
386.40 1.456398
386.50 1.456252
386.60 1.455805
386.70 1.455442
386.80 1.454949
386.90 1.454587
387.00 1.454354
387.10 1.453616
387.20 1.453371
387.30 1.453138
387.40 1.452523
387.50 1.452387
387.60 1.452006
387.70 1.451645
387.80 1.451284
387.90 1.450924
388.00 1.450482
388.10 1.449813
388.20 1.449667
388.30 1.449248
388.40 1.448829
388.50 1.448454
388.60 1.448065
388.70 1.44732
388.80 1.44709
388.90 1.446828
389.00 1.446383
389.10 1.446098
389.20 1.445657
389.30 1.445098
389.40 1.444882
389.50 1.444455
389.60 1.443839
389.70 1.443607
389.80 1.443214
389.90 1.442822
390.00 1.44243
390.10 1.442038
390.20 1.441646
390.30 1.441236
390.40 1.440806
390.50 1.440376
390.60 1.439946
390.70 1.439516
390.80 1.439077
390.90 1.438628
391.00 1.438545
391.10 1.438056
391.20 1.43766
391.30 1.437448
391.40 1.437052
391.50 1.436656
391.60 1.43626
391.70 1.435865
391.80 1.43547
391.90 1.434916
392.00 1.434359
392.10 1.434066
392.20 1.433732
392.30 1.433173
392.40 1.432803
392.50 1.432551
392.60 1.432162
392.70 1.431596
392.80 1.431371
392.90 1.430736
393.00 1.430276
393.10 1.429862
393.20 1.429511
393.30 1.429287
393.40 1.429017
393.50 1.428291
393.60 1.428067
393.70 1.427706
393.80 1.427164
393.90 1.42694
394.00 1.426671
394.10 1.426067
394.20 1.425597
394.30 1.425219
394.40 1.42482
394.50 1.424556
394.60 1.424113
394.70 1.42366
394.80 1.423167
394.90 1.422684
395.00 1.422446
395.10 1.422076
395.20 1.421764
395.30 1.421369
395.40 1.420974
395.50 1.42049
395.60 1.419974
395.70 1.419488
395.80 1.419083
395.90 1.418678
396.00 1.4183
396.10 1.418092
396.20 1.417624
396.30 1.417089
396.40 1.416869
396.50 1.416568
396.60 1.415935
396.70 1.415715
396.80 1.415202
396.90 1.414782
397.00 1.414562
397.10 1.41385
397.20 1.413631
397.30 1.413003
397.40 1.412602
397.50 1.4122
397.60 1.411803
397.70 1.411442
397.80 1.41108
397.90 1.41072
398.00 1.410362
398.10 1.410004
398.20 1.409576
398.30 1.409069
398.40 1.408568
398.50 1.408237
398.60 1.408016
398.70 1.407575
398.80 1.407069
398.90 1.40662
399.00 1.406276
399.10 1.40608
399.20 1.405599
399.30 1.405119
399.40 1.404639
399.50 1.404159
399.60 1.403744
399.70 1.403352
399.80 1.402961
399.90 1.402569
400.00 1.40218
400.10 1.401853
400.20 1.401253
400.30 1.40086
400.40 1.400544
400.50 1.400124
400.60 1.399779
400.70 1.399564
400.80 1.398997
400.90 1.398782
401.00 1.398085
401.10 1.397871
401.20 1.397553
401.30 1.396961
401.40 1.396526
401.50 1.396187
401.60 1.395849
401.70 1.395525
401.80 1.394931
401.90 1.394488
402.00 1.394041
402.10 1.393811
402.20 1.393118
402.30 1.392906
402.40 1.392542
402.50 1.392002
402.60 1.39179
402.70 1.391099
402.80 1.390888
402.90 1.390389
403.00 1.389938
403.10 1.389775
403.20 1.389097
403.30 1.388776
403.40 1.388561
403.50 1.388199
403.60 1.387765
403.70 1.387078
403.80 1.386876
403.90 1.38646
404.00 1.385971
404.10 1.385761
404.20 1.385314
404.30 1.384866
404.40 1.384182
404.50 1.383972
404.60 1.383526
404.70 1.383079
404.80 1.382871
404.90 1.382188
405.00 1.381877
405.10 1.381432
405.20 1.380919
405.30 1.380407
405.40 1.380042
405.50 1.379676
405.60 1.379311
405.70 1.378946
405.80 1.378581
405.90 1.378216
406.00 1.377822
406.10 1.377428
406.20 1.377035
406.30 1.376641
406.40 1.376239
406.50 1.375681
406.60 1.375356
406.70 1.374826
406.80 1.374334
406.90 1.373807
407.00 1.373413
407.10 1.37302
407.20 1.372627
407.30 1.372234
407.40 1.371842
407.50 1.371449
407.60 1.371057
407.70 1.370665
407.80 1.370274
407.90 1.369881
408.00 1.369465
408.10 1.368998
408.20 1.368571
408.30 1.368204
408.40 1.367838
408.50 1.36725
408.60 1.366903
408.70 1.366556
408.80 1.366233
408.90 1.366014
409.00 1.365525
409.10 1.365035
409.20 1.364546
409.30 1.364058
409.40 1.363574
409.50 1.363236
409.60 1.362898
409.70 1.362537
409.80 1.362085
409.90 1.361641
410.00 1.361426
410.10 1.360762
410.20 1.360388
410.30 1.360085
410.40 1.359733
410.50 1.359222
410.60 1.358712
410.70 1.358246
410.80 1.357958
410.90 1.35767
411.00 1.3573
411.10 1.356901
411.20 1.356501
411.30 1.35605
411.40 1.355401
411.50 1.355067
411.60 1.354732
411.70 1.35438
411.80 1.353951
411.90 1.353477
412.00 1.35282
412.10 1.352621
412.20 1.351965
412.30 1.351845
412.40 1.351568
412.50 1.350978
412.60 1.35065
412.70 1.350202
412.80 1.349726
412.90 1.349226
413.00 1.349055
413.10 1.348582
413.20 1.34811
413.30 1.347639
413.40 1.347167
413.50 1.346755
413.60 1.346518
413.70 1.346094
413.80 1.345671
413.90 1.345247
414.00 1.344824
414.10 1.344402
414.20 1.343925
414.30 1.343321
414.40 1.34308
414.50 1.342467
414.60 1.342291
414.70 1.34187
414.80 1.341449
414.90 1.341028
415.00 1.340608
415.10 1.340188
415.20 1.339781
415.30 1.339417
415.40 1.339052
415.50 1.338685
415.60 1.338202
415.70 1.33772
415.80 1.33727
415.90 1.336922
416.00 1.336575
416.10 1.336212
416.20 1.335786
416.30 1.335359
416.40 1.334933
416.50 1.334507
416.60 1.33409
416.70 1.333667
416.80 1.333027
416.90 1.332628
417.00 1.332196
417.10 1.332011
417.20 1.331596
417.30 1.331179
417.40 1.330699
417.50 1.330219
417.60 1.329784
417.70 1.329524
417.80 1.32911
417.90 1.328696
418.00 1.328283
418.10 1.32787
418.20 1.327457
418.30 1.327038
418.40 1.326462
418.50 1.326069
418.60 1.325676
418.70 1.325284
418.80 1.324892
418.90 1.3245
419.00 1.324108
419.10 1.323716
419.20 1.323325
419.30 1.322932
419.40 1.322457
419.50 1.321983
419.60 1.321507
419.70 1.321027
419.80 1.320546
419.90 1.320082
420.00 1.31967
420.10 1.319257
420.20 1.318845
420.30 1.318433
420.40 1.318021
420.50 1.31761
420.60 1.317198
420.70 1.316787
420.80 1.316377
420.90 1.315969
421.00 1.31566
421.10 1.31535
421.20 1.315009
421.30 1.314572
421.40 1.314136
421.50 1.3137
421.60 1.313264
421.70 1.312828
421.80 1.312392
421.90 1.311964
422.00 1.311556
422.10 1.311133
422.20 1.31065
422.30 1.310167
422.40 1.309686
422.50 1.309264
422.60 1.308842
422.70 1.308421
422.80 1.308
422.90 1.307579
423.00 1.307158
423.10 1.306738
423.20 1.306318
423.30 1.305898
423.40 1.305479
423.50 1.305059
423.60 1.30464
423.70 1.304221
423.80 1.303803
423.90 1.303384
424.00 1.302966
424.10 1.302548
424.20 1.302131
424.30 1.301714
424.40 1.301686
424.50 1.301247
424.60 1.300809
424.70 1.30037
424.80 1.299932
424.90 1.299494
425.00 1.299057
425.10 1.298619
