# Version 2.1 - nm, norm@500 to 1, cut digits, bergeron_He_8000_90.dat_8000
# Wavelength(nm)  Flambda(ergs/cm^s/s/nm)
300.00 1.343904
300.10 1.344375
300.20 1.344873
300.30 1.345335
300.40 1.345559
300.50 1.345781
300.60 1.346003
300.70 1.346225
300.80 1.346446
300.90 1.346666
301.00 1.346886
301.10 1.347105
301.20 1.347324
301.30 1.347542
301.40 1.347759
301.50 1.347976
301.60 1.348192
301.70 1.348408
301.80 1.348623
301.90 1.348837
302.00 1.349051
302.10 1.349251
302.20 1.34945
302.30 1.349648
302.40 1.349845
302.50 1.350042
302.60 1.350239
302.70 1.350434
302.80 1.350629
302.90 1.350824
303.00 1.351018
303.10 1.351212
303.20 1.351405
303.30 1.351603
303.40 1.351848
303.50 1.352092
303.60 1.352336
303.70 1.352579
303.80 1.352822
303.90 1.353064
304.00 1.353306
304.10 1.353546
304.20 1.353787
304.30 1.354026
304.40 1.354265
304.50 1.354504
304.60 1.35472
304.70 1.354933
304.80 1.355146
304.90 1.355358
305.00 1.35557
305.10 1.355781
305.20 1.355991
305.30 1.356201
305.40 1.356411
305.50 1.35662
305.60 1.356828
305.70 1.357035
305.80 1.357243
305.90 1.357449
306.00 1.357655
306.10 1.35786
306.20 1.358065
306.30 1.35827
306.40 1.358488
306.50 1.358709
306.60 1.358931
306.70 1.359151
306.80 1.359371
306.90 1.359591
307.00 1.35981
307.10 1.360028
307.20 1.360246
307.30 1.360463
307.40 1.36068
307.50 1.360896
307.60 1.361111
307.70 1.361326
307.80 1.361541
307.90 1.361754
308.00 1.361968
308.10 1.36218
308.20 1.362392
308.30 1.362604
308.40 1.362815
308.50 1.363025
308.60 1.363235
308.70 1.363444
308.80 1.36362
308.90 1.363702
309.00 1.363819
309.10 1.363936
309.20 1.364052
309.30 1.364168
309.40 1.364285
309.50 1.364406
309.60 1.364527
309.70 1.364647
309.80 1.364767
309.90 1.364886
310.00 1.365005
310.10 1.365124
310.20 1.365242
310.30 1.36536
310.40 1.365526
310.50 1.365744
310.60 1.365961
310.70 1.366178
310.80 1.366395
310.90 1.366611
311.00 1.366694
311.10 1.366776
311.20 1.366859
311.30 1.366966
311.40 1.367144
311.50 1.367322
311.60 1.367499
311.70 1.367676
311.80 1.367852
311.90 1.368028
312.00 1.368203
312.10 1.368378
312.20 1.368937
312.30 1.369183
312.40 1.368967
312.50 1.36947
312.60 1.369551
312.70 1.369632
312.80 1.369712
312.90 1.369872
313.00 1.370119
313.10 1.370366
313.20 1.370611
313.30 1.370819
313.40 1.37092
313.50 1.371021
313.60 1.371121
313.70 1.371221
313.80 1.371321
313.90 1.37142
314.00 1.371519
314.10 1.371709
314.20 1.371898
314.30 1.372087
314.40 1.372276
314.50 1.372463
314.60 1.372651
314.70 1.372838
314.80 1.372749
314.90 1.372636
315.00 1.373344
315.10 1.373446
315.20 1.373547
315.30 1.373648
315.40 1.373749
315.50 1.373849
315.60 1.373949
315.70 1.373951
315.80 1.373953
315.90 1.373955
316.00 1.373957
316.10 1.374248
316.20 1.374539
316.30 1.374829
316.40 1.37454
316.50 1.374829
316.60 1.374539
316.70 1.374828
316.80 1.375115
316.90 1.375402
317.00 1.375689
317.10 1.375975
317.20 1.37626
317.30 1.376055
317.40 1.375958
317.50 1.376172
317.60 1.376385
317.70 1.376598
317.80 1.37681
317.90 1.376699
318.00 1.376523
318.10 1.376804
318.20 1.377084
318.30 1.377364
318.40 1.377494
318.50 1.377201
318.60 1.377502
318.70 1.377209
318.80 1.377315
318.90 1.377591
319.00 1.378016
319.10 1.377722
319.20 1.377593
319.30 1.377934
319.40 1.378274
319.50 1.378614
319.60 1.37861
319.70 1.378648
319.80 1.378686
319.90 1.378724
320.00 1.378873
320.10 1.379144
320.20 1.378871
320.30 1.37914
320.40 1.379409
320.50 1.379339
320.60 1.379359
320.70 1.379626
320.80 1.379758
320.90 1.379743
321.00 1.379727
321.10 1.379712
321.20 1.379544
321.30 1.379657
321.40 1.37977
321.50 1.379883
321.60 1.379995
321.70 1.380106
321.80 1.380479
321.90 1.381134
322.00 1.380782
322.10 1.380898
322.20 1.381014
322.30 1.381129
322.40 1.381244
322.50 1.381358
322.60 1.381472
322.70 1.381586
322.80 1.381465
322.90 1.381499
323.00 1.381532
323.10 1.381565
323.20 1.381597
323.30 1.38163
323.40 1.381662
323.50 1.381694
323.60 1.381725
323.70 1.381756
323.80 1.381787
323.90 1.381817
324.00 1.381851
324.10 1.381884
324.20 1.381916
324.30 1.382086
324.40 1.382423
324.50 1.382516
324.60 1.382608
324.70 1.382701
324.80 1.382792
324.90 1.382884
325.00 1.382975
325.10 1.383065
325.20 1.383099
325.30 1.383013
325.40 1.382926
325.50 1.382992
325.60 1.383245
325.70 1.383497
325.80 1.383749
325.90 1.383845
326.00 1.383772
326.10 1.383698
326.20 1.383625
326.30 1.383575
326.40 1.383591
326.50 1.383643
326.60 1.383694
326.70 1.383745
326.80 1.383796
326.90 1.383846
327.00 1.383896
327.10 1.383946
327.20 1.383996
327.30 1.384045
327.40 1.384094
327.50 1.384142
327.60 1.38419
327.70 1.384238
327.80 1.384286
327.90 1.384408
328.00 1.384558
328.10 1.384642
328.20 1.384727
328.30 1.384811
328.40 1.384895
328.50 1.384964
328.60 1.385028
328.70 1.385093
328.80 1.385158
328.90 1.385223
329.00 1.385288
329.10 1.385353
329.20 1.385418
329.30 1.385482
329.40 1.385546
329.50 1.38561
329.60 1.385673
329.70 1.385736
329.80 1.385799
329.90 1.385861
330.00 1.385879
330.10 1.385844
330.20 1.385809
330.30 1.385773
330.40 1.385768
330.50 1.385796
330.60 1.385823
330.70 1.38585
330.80 1.385877
330.90 1.385904
331.00 1.385931
331.10 1.385957
331.20 1.385983
331.30 1.386008
331.40 1.386034
331.50 1.386053
331.60 1.386064
331.70 1.386075
331.80 1.386097
331.90 1.386119
332.00 1.386141
332.10 1.386162
332.20 1.386183
332.30 1.386204
332.40 1.386225
332.50 1.386246
332.60 1.386266
332.70 1.386286
332.80 1.386305
332.90 1.386324
333.00 1.386344
333.10 1.386356
333.20 1.386359
333.30 1.386363
333.40 1.386366
333.50 1.386369
333.60 1.386371
333.70 1.386374
333.80 1.386376
333.90 1.386378
334.00 1.38638
334.10 1.386396
334.20 1.386432
334.30 1.386468
334.40 1.386503
334.50 1.386538
334.60 1.386572
334.70 1.386666
334.80 1.386749
334.90 1.38671
335.00 1.386671
335.10 1.386242
335.20 1.385931
335.30 1.38642
335.40 1.386237
335.50 1.385926
335.60 1.386001
335.70 1.386436
335.80 1.386125
335.90 1.386045
336.00 1.386247
336.10 1.386449
336.20 1.386651
336.30 1.386698
336.40 1.386557
336.50 1.386416
336.60 1.386274
336.70 1.386133
336.80 1.385992
336.90 1.385999
337.00 1.386187
337.10 1.386376
337.20 1.386563
337.30 1.386617
337.40 1.386479
337.50 1.386341
337.60 1.386203
337.70 1.386064
337.80 1.385926
337.90 1.385835
338.00 1.385802
338.10 1.385769
338.20 1.385736
338.30 1.385702
338.40 1.385672
338.50 1.385651
338.60 1.38563
338.70 1.385609
338.80 1.385588
338.90 1.385566
339.00 1.385544
339.10 1.385522
339.20 1.3855
339.30 1.385574
339.40 1.385785
339.50 1.38588
339.60 1.385835
339.70 1.38579
339.80 1.385745
339.90 1.3857
340.00 1.385654
340.10 1.385608
340.20 1.385562
340.30 1.385516
340.40 1.385469
340.50 1.385423
340.60 1.385376
340.70 1.385329
340.80 1.385386
340.90 1.385592
341.00 1.385675
341.10 1.385611
341.20 1.385546
341.30 1.385481
341.40 1.385415
341.50 1.38535
341.60 1.385284
341.70 1.385219
341.80 1.385133
341.90 1.385023
342.00 1.384913
342.10 1.384803
342.20 1.385048
342.30 1.385304
342.40 1.385187
342.50 1.385042
342.60 1.384896
342.70 1.384751
342.80 1.384606
342.90 1.38446
343.00 1.384346
343.10 1.384271
343.20 1.384196
343.30 1.38412
343.40 1.384081
343.50 1.384094
343.60 1.384107
343.70 1.38412
343.80 1.384133
343.90 1.384145
344.00 1.384124
344.10 1.384054
344.20 1.383984
344.30 1.383914
344.40 1.383944
344.50 1.384118
344.60 1.383891
344.70 1.384064
344.80 1.384237
344.90 1.383434
345.00 1.383806
345.10 1.383491
345.20 1.383382
345.30 1.383566
345.40 1.38375
345.50 1.383491
345.60 1.383022
345.70 1.383031
345.80 1.38304
345.90 1.383048
346.00 1.383056
346.10 1.383063
346.20 1.383058
346.30 1.383033
346.40 1.383007
346.50 1.382982
346.60 1.382956
346.70 1.382931
346.80 1.382905
346.90 1.382878
347.00 1.382852
347.10 1.382825
347.20 1.382779
347.30 1.382705
347.40 1.382631
347.50 1.382556
347.60 1.382481
347.70 1.382407
347.80 1.382332
347.90 1.382257
348.00 1.382181
348.10 1.382106
348.20 1.38203
348.30 1.381955
348.40 1.381879
348.50 1.381803
348.60 1.381727
348.70 1.381643
348.80 1.381555
348.90 1.381461
349.00 1.381368
349.10 1.381275
349.20 1.381181
349.30 1.381087
349.40 1.380994
349.50 1.3809
349.60 1.380806
349.70 1.380712
349.80 1.380617
349.90 1.380523
350.00 1.380429
350.10 1.380334
350.20 1.380239
350.30 1.380141
350.40 1.380037
350.50 1.379933
350.60 1.379829
350.70 1.379725
350.80 1.379621
350.90 1.379516
351.00 1.379412
351.10 1.379307
351.20 1.379203
351.30 1.379098
351.40 1.37902
351.50 1.378991
351.60 1.378961
351.70 1.378931
351.80 1.378901
351.90 1.378871
352.00 1.37884
352.10 1.378809
352.20 1.378666
352.30 1.378551
352.40 1.378493
352.50 1.378434
352.60 1.378375
352.70 1.378317
352.80 1.378258
352.90 1.378199
353.00 1.378139
353.10 1.37808
353.20 1.37802
353.30 1.377961
353.40 1.377901
353.50 1.377767
353.60 1.377614
353.70 1.377462
353.80 1.377309
353.90 1.377155
354.00 1.376997
354.10 1.37684
354.20 1.376682
354.30 1.376525
354.40 1.376367
354.50 1.376209
354.60 1.376051
354.70 1.375894
354.80 1.375825
354.90 1.375885
355.00 1.375945
355.10 1.376004
355.20 1.376063
355.30 1.375928
355.40 1.375793
355.50 1.375658
355.60 1.375523
355.70 1.37549
355.80 1.375503
355.90 1.375234
356.00 1.374968
356.10 1.374829
356.20 1.37469
356.30 1.374552
356.40 1.374413
356.50 1.374274
356.60 1.374135
356.70 1.373995
356.80 1.373856
356.90 1.373717
357.00 1.373578
357.10 1.373438
357.20 1.373299
357.30 1.373159
357.40 1.373085
357.50 1.373127
357.60 1.373169
357.70 1.373211
357.80 1.372855
357.90 1.3725
358.00 1.37237
358.10 1.372297
358.20 1.372223
358.30 1.37215
358.40 1.372076
358.50 1.372002
358.60 1.371928
358.70 1.371854
358.80 1.37178
358.90 1.371705
359.00 1.371673
359.10 1.371716
359.20 1.371704
359.30 1.371326
359.40 1.370948
359.50 1.370775
359.60 1.370654
359.70 1.370532
359.80 1.370449
359.90 1.370366
360.00 1.370278
360.10 1.370183
360.20 1.370089
360.30 1.369994
360.40 1.369899
360.50 1.369803
360.60 1.369291
360.70 1.369201
360.80 1.36911
360.90 1.369019
361.00 1.36926
361.10 1.369314
361.20 1.36895
361.30 1.368548
361.40 1.368324
361.50 1.368454
361.60 1.368017
361.70 1.368147
361.80 1.368207
361.90 1.368143
362.00 1.368078
362.10 1.367952
362.20 1.367799
362.30 1.367626
362.40 1.367452
362.50 1.367278
362.60 1.367105
362.70 1.366957
362.80 1.366595
362.90 1.366718
363.00 1.366841
363.10 1.366494
363.20 1.366143
363.30 1.36635
363.40 1.365818
363.50 1.365725
363.60 1.365851
363.70 1.365587
363.80 1.365226
363.90 1.365101
364.00 1.364977
364.10 1.364852
364.20 1.364727
364.30 1.364491
364.40 1.364227
364.50 1.364358
364.60 1.364189
364.70 1.36402
364.80 1.363852
364.90 1.363975
365.00 1.364099
365.10 1.363351
365.20 1.363475
365.30 1.363163
365.40 1.362851
365.50 1.362973
365.60 1.363096
365.70 1.362744
365.80 1.362393
365.90 1.362113
366.00 1.361849
366.10 1.361743
366.20 1.361637
366.30 1.361531
366.40 1.361425
366.50 1.36158
366.60 1.36171
366.70 1.361294
366.80 1.360878
366.90 1.360569
367.00 1.360447
367.10 1.360325
367.20 1.360203
367.30 1.360081
367.40 1.359958
367.50 1.359724
367.60 1.359461
367.70 1.359399
367.80 1.359336
367.90 1.359274
368.00 1.359076
368.10 1.359183
368.20 1.359011
368.30 1.358833
368.40 1.358655
368.50 1.358478
368.60 1.3583
368.70 1.358122
368.80 1.357945
368.90 1.357566
369.00 1.357583
369.10 1.357788
369.20 1.357062
369.30 1.356894
369.40 1.356726
369.50 1.356559
369.60 1.356669
369.70 1.35678
369.80 1.356508
369.90 1.356233
370.00 1.355958
370.10 1.35555
370.20 1.355656
370.30 1.35577
370.40 1.355448
370.50 1.35516
370.60 1.355273
370.70 1.354542
370.80 1.35465
370.90 1.354759
371.00 1.354456
371.10 1.35415
371.20 1.353839
371.30 1.353528
371.40 1.353813
371.50 1.353554
371.60 1.353295
371.70 1.353036
371.80 1.352777
371.90 1.352518
372.00 1.352873
372.10 1.352744
372.20 1.352576
372.30 1.352407
372.40 1.352238
372.50 1.352069
372.60 1.351901
372.70 1.351732
372.80 1.351422
372.90 1.351112
373.00 1.350807
373.10 1.350501
373.20 1.35061
373.30 1.350719
373.40 1.350412
373.50 1.350104
373.60 1.350213
373.70 1.34949
373.80 1.34978
373.90 1.349706
374.00 1.349399
374.10 1.349092
374.20 1.348785
374.30 1.348478
374.40 1.348275
374.50 1.348672
374.60 1.348382
374.70 1.348077
374.80 1.347771
374.90 1.347466
375.00 1.347297
375.10 1.347128
375.20 1.34696
375.30 1.34683
375.40 1.3467
375.50 1.346571
375.60 1.346441
375.70 1.346311
375.80 1.346181
375.90 1.346052
376.00 1.346148
376.10 1.345794
376.20 1.345436
376.30 1.345077
376.40 1.34472
376.50 1.344445
376.60 1.344295
376.70 1.344145
376.80 1.343999
376.90 1.343857
377.00 1.343715
377.10 1.343572
377.20 1.343417
377.30 1.343213
377.40 1.343008
377.50 1.342804
377.60 1.342623
377.70 1.342442
377.80 1.342262
377.90 1.342081
378.00 1.341689
378.10 1.341537
378.20 1.341391
378.30 1.341244
378.40 1.341098
378.50 1.340952
378.60 1.340805
378.70 1.340659
378.80 1.340512
378.90 1.340379
379.00 1.34027
379.10 1.339885
379.20 1.339501
379.30 1.339216
379.40 1.33903
379.50 1.338844
379.60 1.338721
379.70 1.338653
379.80 1.338437
379.90 1.338221
380.00 1.338006
380.10 1.33779
380.20 1.337574
380.30 1.337359
380.40 1.337143
380.50 1.336928
380.60 1.337249
380.70 1.337092
380.80 1.336935
380.90 1.336779
381.00 1.336622
381.10 1.336419
381.20 1.336018
381.30 1.335466
381.40 1.335557
381.50 1.335266
381.60 1.335079
381.70 1.334908
381.80 1.335004
381.90 1.334305
382.00 1.334401
382.10 1.3341
382.20 1.333958
382.30 1.333657
382.40 1.333414
382.50 1.333258
382.60 1.333102
382.70 1.333075
382.80 1.332971
382.90 1.332644
383.00 1.332317
383.10 1.33199
383.20 1.331677
383.30 1.331419
383.40 1.331211
383.50 1.33108
383.60 1.331212
383.70 1.330933
383.80 1.330655
383.90 1.330376
384.00 1.330098
384.10 1.32982
384.20 1.329542
384.30 1.329264
384.40 1.329053
384.50 1.328911
384.60 1.328768
384.70 1.328625
384.80 1.328559
384.90 1.328578
385.00 1.328223
385.10 1.327863
385.20 1.327546
385.30 1.32765
385.40 1.32754
385.50 1.327215
385.60 1.32689
385.70 1.326566
385.80 1.326261
385.90 1.326029
386.00 1.325846
386.10 1.325715
386.20 1.325629
386.30 1.325543
386.40 1.325157
386.50 1.324791
386.60 1.324562
386.70 1.324653
386.80 1.324162
386.90 1.324058
387.00 1.324148
387.10 1.323464
387.20 1.323554
387.30 1.32289
387.40 1.322961
387.50 1.322622
387.60 1.32249
387.70 1.322386
387.80 1.322283
387.90 1.322179
388.00 1.321954
388.10 1.32139
388.20 1.321484
388.30 1.321048
388.40 1.320611
388.50 1.320326
388.60 1.320397
388.70 1.320267
388.80 1.319876
388.90 1.319677
389.00 1.319765
389.10 1.319402
389.20 1.319174
389.30 1.318634
389.40 1.318349
389.50 1.318164
389.60 1.318181
389.70 1.318219
389.80 1.317932
389.90 1.317645
390.00 1.317358
390.10 1.317072
390.20 1.316786
390.30 1.316533
390.40 1.316318
390.50 1.316103
390.60 1.315888
390.70 1.315673
390.80 1.315443
390.90 1.315199
391.00 1.314841
391.10 1.314905
391.20 1.314814
391.30 1.314379
391.40 1.314212
391.50 1.314046
391.60 1.313879
391.70 1.313712
391.80 1.313545
391.90 1.313142
392.00 1.312733
392.10 1.312717
392.20 1.312641
392.30 1.312229
392.40 1.312057
392.50 1.31152
392.60 1.311473
392.70 1.311557
392.80 1.310889
392.90 1.311113
393.00 1.310846
393.10 1.31039
393.20 1.309791
393.30 1.309875
393.40 1.309891
393.50 1.309226
393.60 1.309309
393.70 1.308644
393.80 1.308761
393.90 1.30847
394.00 1.308146
394.10 1.307838
394.20 1.307933
394.30 1.307648
394.40 1.307047
394.50 1.307068
394.60 1.306821
394.70 1.30656
394.80 1.306239
394.90 1.305932
395.00 1.305991
395.10 1.305851
395.20 1.305605
395.30 1.305186
395.40 1.304768
395.50 1.304614
395.60 1.304557
395.70 1.304463
395.80 1.304269
395.90 1.304076
396.00 1.30384
396.10 1.303282
396.20 1.302994
396.30 1.302606
396.40 1.302687
396.50 1.302647
396.60 1.30211
396.70 1.301712
396.80 1.301834
396.90 1.301615
397.00 1.300959
397.10 1.300917
397.20 1.300549
397.30 1.30059
397.40 1.300397
397.50 1.300204
397.60 1.299994
397.70 1.2996
397.80 1.299207
397.90 1.298885
398.00 1.298755
398.10 1.298625
398.20 1.298391
398.30 1.298039
398.40 1.297694
398.50 1.297605
398.60 1.297106
398.70 1.296931
398.80 1.296876
398.90 1.296802
399.00 1.296692
399.10 1.296072
399.20 1.295757
399.30 1.295441
399.40 1.295126
399.50 1.294811
399.60 1.294592
399.70 1.294407
399.80 1.294223
399.90 1.294039
400.00 1.293857
400.10 1.293768
400.20 1.293272
400.30 1.293083
400.40 1.293009
400.50 1.292781
400.60 1.292399
400.70 1.292116
400.80 1.292164
400.90 1.291646
401.00 1.291723
401.10 1.291079
401.20 1.291001
401.30 1.290512
401.40 1.290259
401.50 1.290149
401.60 1.29004
401.70 1.28995
401.80 1.289458
401.90 1.289191
402.00 1.288919
402.10 1.288969
402.20 1.288328
402.30 1.288404
402.40 1.287764
402.50 1.28784
402.60 1.287239
402.70 1.287276
402.80 1.286995
402.90 1.286999
403.00 1.286717
403.10 1.28615
403.20 1.286226
403.30 1.285588
403.40 1.28551
403.50 1.285359
403.60 1.285101
403.70 1.284465
403.80 1.284552
403.90 1.28432
404.00 1.283979
404.10 1.284054
404.20 1.283773
404.30 1.283493
404.40 1.282859
404.50 1.282579
404.60 1.282299
404.70 1.282374
404.80 1.281761
404.90 1.281814
405.00 1.281181
405.10 1.280953
405.20 1.280825
405.30 1.280698
405.40 1.280419
405.50 1.28014
405.60 1.279861
405.70 1.279583
405.80 1.279304
405.90 1.279026
406.00 1.278821
406.10 1.278615
406.20 1.27841
406.30 1.278205
406.40 1.277987
406.50 1.277536
406.60 1.277432
406.70 1.277023
406.80 1.276669
406.90 1.276262
407.00 1.276055
407.10 1.275848
407.20 1.275641
407.30 1.275434
407.40 1.275227
407.50 1.275021
407.60 1.274814
407.70 1.274607
407.80 1.274401
407.90 1.274193
408.00 1.273949
408.10 1.273629
408.20 1.273187
408.30 1.27279
408.40 1.272393
408.50 1.272526
408.60 1.272144
408.70 1.271762
408.80 1.271441
408.90 1.271489
409.00 1.271133
409.10 1.270778
409.20 1.270423
409.30 1.270068
409.40 1.26972
409.50 1.269589
409.60 1.269457
409.70 1.269292
409.80 1.268991
409.90 1.2687
410.00 1.268751
410.10 1.268133
410.20 1.267945
410.30 1.267865
410.40 1.267711
410.50 1.26732
410.60 1.266929
410.70 1.266548
410.80 1.26621
410.90 1.265872
411.00 1.265615
411.10 1.265388
411.20 1.265161
411.30 1.264974
411.40 1.264935
411.50 1.264562
411.60 1.26419
411.70 1.263837
411.80 1.263566
411.90 1.263226
412.00 1.263296
412.10 1.262683
412.20 1.262753
412.30 1.262257
412.40 1.26221
412.50 1.261695
412.60 1.261571
412.70 1.261268
412.80 1.260922
412.90 1.260541
413.00 1.26065
413.10 1.260309
413.20 1.259969
413.30 1.259629
413.40 1.259289
413.50 1.259036
413.60 1.259045
413.70 1.258776
413.80 1.258506
413.90 1.258236
414.00 1.257967
414.10 1.257698
414.20 1.257347
414.30 1.256808
414.40 1.256809
414.50 1.256255
414.60 1.256353
414.70 1.256084
414.80 1.255815
414.90 1.255547
415.00 1.255279
415.10 1.255011
415.20 1.254712
415.30 1.254317
415.40 1.253923
415.50 1.253537
415.60 1.253415
415.70 1.253293
415.80 1.253109
415.90 1.252727
416.00 1.252345
416.10 1.251984
416.20 1.251703
416.30 1.251423
416.40 1.251143
416.50 1.250863
416.60 1.250597
416.70 1.25032
416.80 1.250388
416.90 1.249788
417.00 1.249856
417.10 1.249267
417.20 1.249001
417.30 1.248733
417.40 1.24837
417.50 1.248007
417.60 1.247711
417.70 1.247674
417.80 1.247409
417.90 1.247145
418.00 1.24688
418.10 1.246615
418.20 1.246351
418.30 1.246076
418.40 1.245567
418.50 1.245331
418.60 1.245096
418.70 1.24486
418.80 1.244625
418.90 1.244389
419.00 1.244154
419.10 1.243919
419.20 1.243684
419.30 1.243445
419.40 1.243085
419.50 1.242725
419.60 1.242408
419.70 1.242261
419.80 1.242114
419.90 1.241922
420.00 1.241588
420.10 1.241255
420.20 1.240921
420.30 1.240588
420.40 1.240255
420.50 1.239922
420.60 1.23959
420.70 1.239257
420.80 1.238925
420.90 1.238599
421.00 1.238481
421.10 1.238364
421.20 1.238199
421.30 1.23789
421.40 1.237582
421.50 1.237275
421.60 1.236967
421.70 1.23666
421.80 1.236352
421.90 1.236055
422.00 1.235788
422.10 1.235499
422.20 1.235119
422.30 1.234739
422.40 1.234364
422.50 1.234108
422.60 1.233852
422.70 1.233596
422.80 1.23334
422.90 1.233085
423.00 1.232829
423.10 1.232574
423.20 1.232319
423.30 1.232064
423.40 1.231809
423.50 1.231554
423.60 1.231299
423.70 1.231044
423.80 1.23079
423.90 1.230535
424.00 1.230281
424.10 1.230027
424.20 1.229772
424.30 1.229518
424.40 1.229194
424.50 1.228875
424.60 1.228556
424.70 1.228237
424.80 1.227919
424.90 1.227601
