# Version 2.1 - nm, norm@500 to 1, cut digits, bergeron_He_20000_90.dat_20000
# Wavelength(nm)  Flambda(ergs/cm^s/s/nm)
300.00 4.320377
300.10 4.317996
300.20 4.31564
300.30 4.313197
300.40 4.310159
300.50 4.307123
300.60 4.304091
300.70 4.301062
300.80 4.298036
300.90 4.295014
301.00 4.291994
301.10 4.288977
301.20 4.285963
301.30 4.282953
301.40 4.279945
301.50 4.276941
301.60 4.273939
301.70 4.270941
301.80 4.267945
301.90 4.264953
302.00 4.261964
302.10 4.258525
302.20 4.255041
302.30 4.25156
302.40 4.248082
302.50 4.244609
302.60 4.241139
302.70 4.237672
302.80 4.234209
302.90 4.23075
303.00 4.227295
303.10 4.223843
303.20 4.220395
303.30 4.216947
303.40 4.213474
303.50 4.210004
303.60 4.206538
303.70 4.203075
303.80 4.199617
303.90 4.196161
304.00 4.19271
304.10 4.189262
304.20 4.185818
304.30 4.182377
304.40 4.17894
304.50 4.175507
304.60 4.172001
304.70 4.168492
304.80 4.164986
304.90 4.161483
305.00 4.157984
305.10 4.154489
305.20 4.150998
305.30 4.147511
305.40 4.144027
305.50 4.140546
305.60 4.13707
305.70 4.133597
305.80 4.130127
305.90 4.126662
306.00 4.1232
306.10 4.119741
306.20 4.116287
306.30 4.112836
306.40 4.10928
306.50 4.105696
306.60 4.102117
306.70 4.09854
306.80 4.094968
306.90 4.091399
307.00 4.087835
307.10 4.084274
307.20 4.080716
307.30 4.077163
307.40 4.073613
307.50 4.070067
307.60 4.066525
307.70 4.062986
307.80 4.059452
307.90 4.055921
308.00 4.052393
308.10 4.04887
308.20 4.04535
308.30 4.041834
308.40 4.038321
308.50 4.034813
308.60 4.031308
308.70 4.027806
308.80 4.024259
308.90 4.020573
309.00 4.016851
309.10 4.013134
309.20 4.00942
309.30 4.00571
309.40 4.002003
309.50 3.998294
309.60 3.994589
309.70 3.990888
309.80 3.987191
309.90 3.983498
310.00 3.979809
310.10 3.976124
310.20 3.972443
310.30 3.968765
310.40 3.964919
310.50 3.96089
310.60 3.956866
310.70 3.952846
310.80 3.94883
310.90 3.944818
311.00 3.940845
311.10 3.936877
311.20 3.932912
311.30 3.928901
311.40 3.924752
311.50 3.920607
311.60 3.916466
311.70 3.91233
311.80 3.908199
311.90 3.904072
312.00 3.899949
312.10 3.895831
312.20 3.892041
312.30 3.887773
312.40 3.883066
312.50 3.878893
312.60 3.874625
312.70 3.870361
312.80 3.866102
312.90 3.861647
313.00 3.856981
313.10 3.852319
313.20 3.847663
313.30 3.842966
313.40 3.838145
313.50 3.83333
313.60 3.82852
313.70 3.823716
313.80 3.818917
313.90 3.814123
314.00 3.809335
314.10 3.803847
314.20 3.798366
314.30 3.792891
314.40 3.787422
314.50 3.781959
314.60 3.776503
314.70 3.771052
314.80 3.765527
314.90 3.759689
315.00 3.753764
315.10 3.747674
315.20 3.741592
315.30 3.735516
315.40 3.729447
315.50 3.723386
315.60 3.717331
315.70 3.711066
315.80 3.704808
315.90 3.698557
316.00 3.692313
316.10 3.684777
316.20 3.677249
316.30 3.668431
316.40 3.657029
316.50 3.638507
316.60 3.612231
316.70 3.584692
316.80 3.557187
316.90 3.550091
317.00 3.543004
317.10 3.535924
317.20 3.528853
317.30 3.537012
317.40 3.542147
317.50 3.538706
317.60 3.535268
317.70 3.531835
317.80 3.528404
317.90 3.506733
318.00 3.476388
318.10 3.429587
318.20 3.382844
318.30 3.336159
318.40 3.27179
318.50 3.157036
318.60 3.020962
318.70 2.704797
318.80 2.05802
318.90 2.541019
319.00 2.773363
319.10 2.910695
319.20 3.028909
319.30 3.093085
319.40 3.157181
319.50 3.221196
319.60 3.27231
319.70 3.303554
319.80 3.334757
319.90 3.365922
320.00 3.392058
320.10 3.412762
320.20 3.431404
320.30 3.44758
320.40 3.462513
320.50 3.476162
320.60 3.486709
320.70 3.496535
320.80 3.504531
320.90 3.510547
321.00 3.516555
321.10 3.522556
321.20 3.527124
321.30 3.529719
321.40 3.53231
321.50 3.534897
321.60 3.53748
321.70 3.540059
321.80 3.54197
321.90 3.543158
322.00 3.543426
322.10 3.543563
322.20 3.543698
322.30 3.543833
322.40 3.543967
322.50 3.5441
322.60 3.544232
322.70 3.544363
322.80 3.543607
322.90 3.542298
323.00 3.54099
323.10 3.539682
323.20 3.538376
323.30 3.53707
323.40 3.535766
323.50 3.534462
323.60 3.53316
323.70 3.531858
323.80 3.530557
323.90 3.529257
324.00 3.527079
324.10 3.524903
324.20 3.522729
324.30 3.520556
324.40 3.518241
324.50 3.51577
324.60 3.513302
324.70 3.510837
324.80 3.508373
324.90 3.505912
325.00 3.503454
325.10 3.500997
325.20 3.49864
325.30 3.496489
325.40 3.494341
325.50 3.491916
325.60 3.489154
325.70 3.486395
325.80 3.483638
325.90 3.480902
326.00 3.478187
326.10 3.475476
326.20 3.472766
326.30 3.47021
326.40 3.468084
326.50 3.465205
326.60 3.462328
326.70 3.459454
326.80 3.456584
326.90 3.453716
327.00 3.45085
327.10 3.447988
327.20 3.445129
327.30 3.442272
327.40 3.439419
327.50 3.436568
327.60 3.43372
327.70 3.430874
327.80 3.428032
327.90 3.424989
328.00 3.421553
328.10 3.417907
328.20 3.414265
328.30 3.410627
328.40 3.406992
328.50 3.403799
328.60 3.400711
328.70 3.397626
328.80 3.394728
328.90 3.392359
329.00 3.389992
329.10 3.387628
329.20 3.385266
329.30 3.382906
329.40 3.380548
329.50 3.378192
329.60 3.375839
329.70 3.373488
329.80 3.371139
329.90 3.368792
330.00 3.366314
330.10 3.363674
330.20 3.361036
330.30 3.358402
330.40 3.355798
330.50 3.353229
330.60 3.350662
330.70 3.348097
330.80 3.345535
330.90 3.342975
331.00 3.340418
331.10 3.337864
331.20 3.335311
331.30 3.332762
331.40 3.330214
331.50 3.327483
331.60 3.324528
331.70 3.321575
331.80 3.318865
331.90 3.316167
332.00 3.313471
332.10 3.310779
332.20 3.308089
332.30 3.305401
332.40 3.302716
332.50 3.300034
332.60 3.297355
332.70 3.294678
332.80 3.292004
332.90 3.289332
333.00 3.286663
333.10 3.28394
333.20 3.28115
333.30 3.278362
333.40 3.275578
333.50 3.272796
333.60 3.270017
333.70 3.267241
333.80 3.264468
333.90 3.261697
334.00 3.258929
334.10 3.256006
334.20 3.252895
334.30 3.249787
334.40 3.246681
334.50 3.243579
334.60 3.240481
334.70 3.237405
334.80 3.234088
334.90 3.230389
335.00 3.226693
335.10 3.223876
335.20 3.220796
335.30 3.218096
335.40 3.215166
335.50 3.21325
335.60 3.211335
335.70 3.209422
335.80 3.207511
335.90 3.205602
336.00 3.203694
336.10 3.201788
336.20 3.199883
336.30 3.197808
336.40 3.195525
336.50 3.193243
336.60 3.190964
336.70 3.188687
336.80 3.186412
336.90 3.184056
337.00 3.1816
337.10 3.179147
337.20 3.176696
337.30 3.174243
337.40 3.171788
337.50 3.169334
337.60 3.166883
337.70 3.164434
337.80 3.161988
337.90 3.159603
338.00 3.157293
338.10 3.154985
338.20 3.15268
338.30 3.150376
338.40 3.148017
338.50 3.145519
338.60 3.143023
338.70 3.14053
338.80 3.138039
338.90 3.13555
339.00 3.133064
339.10 3.13058
339.20 3.128099
339.30 3.125409
339.40 3.122416
339.50 3.119633
339.60 3.117105
339.70 3.11458
339.80 3.112056
339.90 3.109536
340.00 3.107017
340.10 3.104501
340.20 3.101988
340.30 3.099477
340.40 3.096968
340.50 3.094462
340.60 3.091958
340.70 3.089457
340.80 3.086771
340.90 3.08382
341.00 3.081007
341.10 3.078363
341.20 3.075722
341.30 3.073084
341.40 3.070448
341.50 3.067814
341.60 3.065183
341.70 3.062555
341.80 3.059834
341.90 3.056998
342.00 3.054165
342.10 3.051335
342.20 3.048162
342.30 3.04455
342.40 3.041374
342.50 3.038484
342.60 3.035596
342.70 3.032711
342.80 3.029829
342.90 3.02695
343.00 3.023958
343.10 3.02083
343.20 3.017705
343.30 3.014583
343.40 3.01127
343.50 3.007682
343.60 3.004098
343.70 3.000517
343.80 2.99694
343.90 2.993366
344.00 2.989534
344.10 2.985328
344.20 2.981126
344.30 2.976929
344.40 2.972399
344.50 2.96739
344.60 2.96261
344.70 2.958732
344.80 2.959201
344.90 2.959151
345.00 2.959717
345.10 2.959638
345.20 2.959342
345.30 2.958732
345.40 2.958123
345.50 2.957488
345.60 2.956468
345.70 2.954939
345.80 2.953412
345.90 2.951885
346.00 2.95036
346.10 2.948836
346.20 2.947151
346.30 2.945232
346.40 2.943315
346.50 2.9414
346.60 2.939487
346.70 2.937575
346.80 2.935665
346.90 2.933757
347.00 2.931851
347.10 2.929946
347.20 2.92798
347.30 2.925927
347.40 2.923875
347.50 2.921826
347.60 2.919778
347.70 2.917732
347.80 2.915688
347.90 2.913645
348.00 2.911605
348.10 2.909566
348.20 2.90753
348.30 2.905495
348.40 2.903462
348.50 2.901431
348.60 2.899402
348.70 2.89705
348.80 2.894718
348.90 2.892561
349.00 2.890406
349.10 2.888252
349.20 2.886101
349.30 2.883952
349.40 2.881805
349.50 2.87966
349.60 2.877517
349.70 2.875375
349.80 2.873236
349.90 2.871099
350.00 2.868963
350.10 2.86683
350.20 2.864699
350.30 2.862497
350.40 2.860193
350.50 2.857891
350.60 2.855592
350.70 2.853294
350.80 2.850999
350.90 2.848706
351.00 2.846415
351.10 2.844126
351.20 2.841839
351.30 2.839555
351.40 2.837309
351.50 2.835131
351.60 2.832955
351.70 2.830781
351.80 2.82861
351.90 2.82644
352.00 2.824272
352.10 2.822106
352.20 2.819815
352.30 2.817541
352.40 2.815311
352.50 2.813084
352.60 2.810858
352.70 2.808635
352.80 2.806414
352.90 2.804195
353.00 2.801977
353.10 2.799762
353.20 2.797549
353.30 2.795338
353.40 2.793129
353.50 2.790862
353.60 2.788582
353.70 2.786303
353.80 2.784027
353.90 2.781797
354.00 2.779646
354.10 2.777498
354.20 2.775351
354.30 2.773206
354.40 2.771064
354.50 2.768923
354.60 2.766784
354.70 2.764648
354.80 2.762462
354.90 2.760203
355.00 2.757947
355.10 2.755693
355.20 2.753441
355.30 2.750937
355.40 2.748434
355.50 2.745934
355.60 2.743436
355.70 2.741295
355.80 2.739313
355.90 2.736833
356.00 2.734248
356.10 2.731861
356.20 2.729477
356.30 2.727094
356.40 2.724714
356.50 2.722336
356.60 2.719961
356.70 2.717587
356.80 2.715216
356.90 2.712847
357.00 2.710481
357.10 2.708116
357.20 2.705754
357.30 2.703394
357.40 2.701013
357.50 2.698595
357.60 2.696179
357.70 2.693765
357.80 2.691337
357.90 2.688911
358.00 2.686215
358.10 2.683454
358.20 2.680695
358.30 2.677938
358.40 2.675185
358.50 2.672434
358.60 2.669686
358.70 2.66694
358.80 2.664197
358.90 2.661457
359.00 2.65852
359.10 2.655232
359.20 2.651902
359.30 2.648266
359.40 2.644635
359.50 2.641009
359.60 2.637387
359.70 2.633769
359.80 2.630025
359.90 2.626284
360.00 2.622157
360.10 2.617343
360.20 2.612534
360.30 2.607729
360.40 2.602929
360.50 2.598135
360.60 2.591415
360.70 2.583738
360.80 2.576068
360.90 2.568407
361.00 2.560433
361.10 2.549289
361.20 2.537256
361.30 2.526098
361.40 2.541461
361.50 2.555912
361.60 2.561811
361.70 2.561387
361.80 2.561444
361.90 2.562354
362.00 2.563262
362.10 2.563412
362.20 2.563111
362.30 2.562348
362.40 2.561585
362.50 2.560822
362.60 2.56006
362.70 2.559327
362.80 2.558355
362.90 2.556945
363.00 2.555536
363.10 2.554129
363.20 2.552723
363.30 2.552302
363.40 2.551143
363.50 2.551461
363.60 2.551531
363.70 2.552256
363.80 2.552162
363.90 2.552161
364.00 2.55216
364.10 2.552158
364.20 2.552156
364.30 2.551905
364.40 2.551592
364.50 2.552157
364.60 2.551732
364.70 2.551306
364.80 2.55088
364.90 2.54997
365.00 2.549061
365.10 2.547665
365.20 2.54627
365.30 2.544876
365.40 2.544456
365.50 2.54355
365.60 2.542645
365.70 2.541696
365.80 2.540748
365.90 2.539879
366.00 2.53903
366.10 2.537881
366.20 2.536733
366.30 2.535586
366.40 2.53444
366.50 2.533074
366.60 2.530726
366.70 2.529346
366.80 2.527967
366.90 2.526339
367.00 2.524268
367.10 2.5222
367.20 2.520133
367.30 2.518068
367.40 2.516005
367.50 2.513643
367.60 2.511207
367.70 2.508577
367.80 2.505949
367.90 2.503324
368.00 2.500954
368.10 2.497702
368.20 2.494208
368.30 2.490719
368.40 2.487235
368.50 2.483753
368.60 2.480275
368.70 2.476801
368.80 2.47333
368.90 2.470014
369.00 2.466226
369.10 2.462256
369.20 2.458036
369.30 2.453213
369.40 2.448394
369.50 2.44358
369.60 2.437999
369.70 2.432424
369.80 2.426999
369.90 2.421581
370.00 2.416169
370.10 2.411034
370.20 2.405947
370.30 2.400857
370.40 2.396233
370.50 2.393934
370.60 2.397336
370.70 2.401314
370.80 2.40472
370.90 2.408121
371.00 2.409218
371.10 2.41029
371.20 2.411806
371.30 2.41332
371.40 2.413938
371.50 2.415268
371.60 2.416596
371.70 2.417923
371.80 2.419247
371.90 2.42057
372.00 2.422246
372.10 2.423625
372.20 2.423886
372.30 2.424146
372.40 2.424406
372.50 2.424664
372.60 2.424923
372.70 2.425181
372.80 2.425275
372.90 2.425369
373.00 2.424547
373.10 2.423716
373.20 2.422418
373.30 2.42112
373.40 2.418426
373.50 2.415734
373.60 2.414906
373.70 2.415009
373.80 2.415054
373.90 2.415214
374.00 2.415084
374.10 2.414953
374.20 2.414823
374.30 2.414692
374.40 2.413981
374.50 2.413039
374.60 2.412211
374.70 2.411387
374.80 2.410564
374.90 2.409742
375.00 2.408457
375.10 2.407173
375.20 2.40589
375.30 2.404212
375.40 2.402537
375.50 2.400862
375.60 2.399189
375.70 2.397518
375.80 2.395848
375.90 2.394179
376.00 2.391996
376.10 2.389923
376.20 2.387852
376.30 2.385784
376.40 2.383717
376.50 2.381466
376.60 2.378938
376.70 2.376413
376.80 2.373881
376.90 2.371342
377.00 2.368806
377.10 2.366272
377.20 2.36365
377.30 2.360691
377.40 2.357736
377.50 2.354783
377.60 2.351357
377.70 2.347934
377.80 2.344515
377.90 2.341099
378.00 2.337669
378.10 2.333599
378.20 2.329526
378.30 2.325458
378.40 2.321394
378.50 2.317333
378.60 2.313277
378.70 2.309225
378.80 2.305176
378.90 2.300714
379.00 2.29548
379.10 2.290653
379.20 2.285831
379.30 2.28049
379.40 2.27463
379.50 2.268775
379.60 2.262667
379.70 2.255814
379.80 2.247614
379.90 2.239422
380.00 2.231239
380.10 2.223064
380.20 2.214897
380.30 2.206739
380.40 2.198588
380.50 2.190446
380.60 2.180013
380.70 2.171533
380.80 2.163063
380.90 2.154601
381.00 2.146148
381.10 2.142785
381.20 2.136744
381.30 2.126073
381.40 2.114741
381.50 2.103104
381.60 2.09089
381.70 2.078474
381.80 2.06943
381.90 2.068346
382.00 2.061031
382.10 2.0733
382.20 2.089825
382.30 2.106065
382.40 2.119846
382.50 2.129951
382.60 2.140045
382.70 2.148732
382.80 2.153789
382.90 2.156795
383.00 2.159798
383.10 2.162797
383.20 2.165851
383.30 2.169118
383.40 2.172391
383.50 2.175675
383.60 2.179301
383.70 2.182001
383.80 2.184699
383.90 2.187394
384.00 2.190085
384.10 2.192774
384.20 2.195459
384.30 2.198141
384.40 2.200241
384.50 2.20176
384.60 2.203276
384.70 2.204791
384.80 2.206174
384.90 2.207012
385.00 2.207747
385.10 2.208475
385.20 2.208799
385.30 2.208985
385.40 2.208708
385.50 2.20797
385.60 2.207233
385.70 2.206495
385.80 2.205673
385.90 2.20453
386.00 2.203079
386.10 2.201254
386.20 2.198769
386.30 2.196286
386.40 2.19297
386.50 2.188431
386.60 2.181994
386.70 2.172178
386.80 2.15282
386.90 2.148887
387.00 2.147776
387.10 2.146667
387.20 2.14493
387.30 2.140964
387.40 2.136162
387.50 2.129163
387.60 2.120339
387.70 2.106713
387.80 2.0931
387.90 2.079502
388.00 2.06412
388.10 2.04096
388.20 2.006095
388.30 1.963758
388.40 1.921465
388.50 1.8667
388.60 1.781736
388.70 1.650812
388.80 1.387111
388.90 1.224802
389.00 1.464242
389.10 1.624232
389.20 1.726207
389.30 1.798972
389.40 1.853409
389.50 1.901201
389.60 1.937596
389.70 1.964166
389.80 1.982789
389.90 2.001392
390.00 2.019977
390.10 2.038542
390.20 2.057087
390.30 2.070846
390.40 2.079219
390.50 2.087582
390.60 2.095937
390.70 2.104282
390.80 2.111036
390.90 2.116201
391.00 2.120689
391.10 2.124553
391.20 2.128337
391.30 2.13081
391.40 2.132124
391.50 2.133437
391.60 2.134747
391.70 2.136057
391.80 2.137364
391.90 2.138287
392.00 2.138437
392.10 2.138078
392.20 2.137653
392.30 2.136851
392.40 2.136319
392.50 2.13523
392.60 2.134143
392.70 2.132213
392.80 2.131128
392.90 2.12973
393.00 2.127751
393.10 2.125909
393.20 2.124198
393.30 2.122278
393.40 2.120225
393.50 2.117159
393.60 2.114738
393.70 2.111568
393.80 2.108401
393.90 2.105238
394.00 2.102022
394.10 2.098129
394.20 2.094094
394.30 2.090094
394.40 2.085966
394.50 2.081079
394.60 2.075363
394.70 2.069587
394.80 2.063568
394.90 2.057518
395.00 2.05023
395.10 2.042716
395.20 2.034372
395.30 2.02576
395.40 2.017156
395.50 2.006697
395.60 1.995559
395.70 1.983149
395.80 1.967282
395.90 1.951431
396.00 1.934932
396.10 1.90846
396.20 1.87315
396.30 1.832627
396.40 1.769508
396.50 1.831244
396.60 1.906814
396.70 1.922384
396.80 1.917525
396.90 1.912901
397.00 1.930484
397.10 1.953542
397.20 1.966884
397.30 1.971137
397.40 1.97299
397.50 1.974842
397.60 1.976462
397.70 1.975759
397.80 1.975057
397.90 1.97404
398.00 1.972169
398.10 1.9703
398.20 1.967898
398.30 1.964897
398.40 1.961882
398.50 1.958381
398.60 1.954793
398.70 1.95035
398.80 1.945705
398.90 1.940865
399.00 1.935661
399.10 1.930124
399.20 1.923735
399.30 1.917352
399.40 1.910975
399.50 1.904604
399.60 1.89802
399.70 1.891361
399.80 1.884708
399.90 1.878061
400.00 1.871405
400.10 1.864227
400.20 1.857143
400.30 1.849622
400.40 1.841972
400.50 1.834524
400.60 1.825566
400.70 1.816968
400.80 1.807416
400.90 1.797219
401.00 1.786034
401.10 1.775239
401.20 1.763394
401.30 1.751212
401.40 1.736824
401.50 1.721631
401.60 1.706326
401.70 1.686897
401.80 1.666515
401.90 1.642362
402.00 1.61746
402.10 1.589346
402.20 1.559504
402.30 1.526941
402.40 1.48707
402.50 1.433023
402.60 1.39421
402.70 1.456435
402.80 1.504956
402.90 1.544785
403.00 1.583215
403.10 1.618249
403.20 1.649442
403.30 1.676273
403.40 1.699823
403.50 1.719293
403.60 1.73765
403.70 1.752147
403.80 1.764353
403.90 1.774339
404.00 1.783671
404.10 1.79005
404.20 1.794731
404.30 1.799406
404.40 1.801333
404.50 1.799613
404.60 1.798723
404.70 1.800611
404.80 1.80464
404.90 1.809134
405.00 1.814177
405.10 1.818544
405.20 1.822733
405.30 1.826918
405.40 1.830892
405.50 1.834861
405.60 1.838826
405.70 1.842787
405.80 1.846744
405.90 1.850697
406.00 1.853909
406.10 1.857117
406.20 1.860322
406.30 1.863523
406.40 1.866755
406.50 1.869816
406.60 1.87262
406.70 1.87543
406.80 1.878188
406.90 1.880941
407.00 1.883233
407.10 1.885522
407.20 1.887808
407.30 1.890092
407.40 1.892374
407.50 1.894653
407.60 1.896929
407.70 1.899203
407.80 1.901475
407.90 1.903725
408.00 1.90535
408.10 1.906853
408.20 1.908137
408.30 1.909487
408.40 1.910836
408.50 1.912073
408.60 1.913292
408.70 1.914509
408.80 1.915684
408.90 1.916427
409.00 1.916831
409.10 1.917235
409.20 1.917638
409.30 1.918041
409.40 1.918444
409.50 1.918876
409.60 1.919307
409.70 1.919607
409.80 1.919383
409.90 1.919161
410.00 1.918975
410.10 1.918683
410.20 1.918118
410.30 1.917484
410.40 1.916718
410.50 1.915531
410.60 1.914344
410.70 1.913022
410.80 1.911156
410.90 1.909291
411.00 1.906838
411.10 1.904168
411.20 1.901501
411.30 1.898659
411.40 1.895068
411.50 1.890081
411.60 1.885098
411.70 1.879169
411.80 1.869447
411.90 1.858814
412.00 1.836099
412.10 1.762152
412.20 1.754033
412.30 1.7785
412.40 1.797024
412.50 1.8082
412.60 1.816045
412.70 1.82142
412.80 1.826174
412.90 1.830506
413.00 1.833022
413.10 1.834098
413.20 1.835173
413.30 1.836247
413.40 1.837319
413.50 1.838157
413.60 1.838143
413.70 1.838393
413.80 1.838643
413.90 1.838892
414.00 1.838959
414.10 1.838449
414.20 1.837849
414.30 1.836205
414.40 1.834714
414.50 1.834492
414.60 1.835786
414.70 1.837923
414.80 1.840147
414.90 1.842657
415.00 1.845163
415.10 1.847667
415.20 1.850087
415.30 1.852247
415.40 1.854404
415.50 1.856549
415.60 1.858351
415.70 1.860152
415.80 1.861838
415.90 1.863167
416.00 1.864493
416.10 1.865698
416.20 1.866421
416.30 1.867142
416.40 1.867862
416.50 1.868567
416.60 1.868793
416.70 1.868985
416.80 1.868526
416.90 1.867538
417.00 1.86691
417.10 1.86694
417.20 1.867538
417.30 1.86813
417.40 1.868552
417.50 1.868974
417.60 1.86926
417.70 1.869012
417.80 1.86911
417.90 1.869207
418.00 1.869304
418.10 1.869401
418.20 1.869497
418.30 1.869592
418.40 1.869529
418.50 1.869118
418.60 1.868709
418.70 1.868299
418.80 1.867889
418.90 1.86748
419.00 1.867071
419.10 1.866662
419.20 1.866253
419.30 1.865838
419.40 1.865209
419.50 1.864581
419.60 1.86395
419.70 1.863311
419.80 1.862673
419.90 1.86201
420.00 1.861267
420.10 1.860525
420.20 1.859784
420.30 1.859043
420.40 1.858303
420.50 1.857563
420.60 1.856824
420.70 1.856085
420.80 1.855347
420.90 1.854605
421.00 1.853724
421.10 1.852843
421.20 1.851964
421.30 1.851085
421.40 1.850206
421.50 1.849328
421.60 1.848451
421.70 1.847575
421.80 1.846699
421.90 1.845737
422.00 1.844505
422.10 1.843345
422.20 1.842472
422.30 1.8416
422.40 1.840721
422.50 1.839629
422.60 1.838538
422.70 1.837448
422.80 1.836359
422.90 1.83527
423.00 1.834182
423.10 1.833095
423.20 1.832009
423.30 1.830924
423.40 1.829839
423.50 1.828756
423.60 1.827673
423.70 1.826591
423.80 1.82551
423.90 1.824429
424.00 1.82335
424.10 1.822271
424.20 1.821193
424.30 1.820116
424.40 1.819081
424.50 1.81786
424.60 1.81664
424.70 1.815421
424.80 1.814203
424.90 1.812985
425.00 1.811769
