# Version 2.1 - nm, norm@500 to 1, cut digits, bergeron_He_12000_75.dat_12000
# Wavelength(nm)  Flambda(ergs/cm^s/s/nm)
300.00 2.612031
300.10 2.611007
300.20 2.609975
300.30 2.608947
300.40 2.607938
300.50 2.606929
300.60 2.605922
300.70 2.604915
300.80 2.603908
300.90 2.602903
301.00 2.601898
301.10 2.600894
301.20 2.599891
301.30 2.598888
301.40 2.597887
301.50 2.596886
301.60 2.595885
301.70 2.594886
301.80 2.593887
301.90 2.592889
302.00 2.591892
302.10 2.590875
302.20 2.589856
302.30 2.588837
302.40 2.58782
302.50 2.586803
302.60 2.585787
302.70 2.584772
302.80 2.583758
302.90 2.582744
303.00 2.581731
303.10 2.580719
303.20 2.579708
303.30 2.578695
303.40 2.577656
303.50 2.576618
303.60 2.575581
303.70 2.574545
303.80 2.573509
303.90 2.572475
304.00 2.571441
304.10 2.570408
304.20 2.569375
304.30 2.568344
304.40 2.567313
304.50 2.566283
304.60 2.56525
304.70 2.564218
304.80 2.563186
304.90 2.562155
305.00 2.561125
305.10 2.560095
305.20 2.559066
305.30 2.558039
305.40 2.557012
305.50 2.555985
305.60 2.55496
305.70 2.553935
305.80 2.552911
305.90 2.551888
306.00 2.550866
306.10 2.549845
306.20 2.548824
306.30 2.547804
306.40 2.546774
306.50 2.545742
306.60 2.54471
306.70 2.54368
306.80 2.54265
306.90 2.541621
307.00 2.540593
307.10 2.539565
307.20 2.538539
307.30 2.537513
307.40 2.536488
307.50 2.535463
307.60 2.53444
307.70 2.533417
307.80 2.532395
307.90 2.531374
308.00 2.530354
308.10 2.529334
308.20 2.528316
308.30 2.527298
308.40 2.526281
308.50 2.525264
308.60 2.524249
308.70 2.523234
308.80 2.522212
308.90 2.521167
309.00 2.520069
309.10 2.518971
309.20 2.517874
309.30 2.516779
309.40 2.515695
309.50 2.514681
309.60 2.513667
309.70 2.512654
309.80 2.511642
309.90 2.510631
310.00 2.509621
310.10 2.508611
310.20 2.507602
310.30 2.506594
310.40 2.505553
310.50 2.504474
310.60 2.503396
310.70 2.50232
310.80 2.501244
310.90 2.500169
311.00 2.499147
311.10 2.498127
311.20 2.497107
311.30 2.496082
311.40 2.495043
311.50 2.494004
311.60 2.492966
311.70 2.491929
311.80 2.490892
311.90 2.489857
312.00 2.488822
312.10 2.487788
312.20 2.486643
312.30 2.485533
312.40 2.484546
312.50 2.483435
312.60 2.482429
312.70 2.481425
312.80 2.480421
312.90 2.479385
313.00 2.478314
313.10 2.477244
313.20 2.476174
313.30 2.475102
313.40 2.474018
313.50 2.472935
313.60 2.471853
313.70 2.470772
313.80 2.469692
313.90 2.468613
314.00 2.467535
314.10 2.466426
314.20 2.465319
314.30 2.464213
314.40 2.463108
314.50 2.462003
314.60 2.460899
314.70 2.459797
314.80 2.458694
314.90 2.457602
315.00 2.456523
315.10 2.455379
315.20 2.454236
315.30 2.453095
315.40 2.451954
315.50 2.450814
315.60 2.449675
315.70 2.448389
315.80 2.447105
315.90 2.445821
316.00 2.444539
316.10 2.443346
316.20 2.442155
316.30 2.440787
316.40 2.439598
316.50 2.43788
316.60 2.435987
316.70 2.434449
316.80 2.432913
316.90 2.431553
317.00 2.430195
317.10 2.428839
317.20 2.427483
317.30 2.426357
317.40 2.424998
317.50 2.422977
317.60 2.420958
317.70 2.418941
317.80 2.416926
317.90 2.413105
318.00 2.407444
318.10 2.397286
318.20 2.387141
318.30 2.377008
318.40 2.358344
318.50 2.315405
318.60 2.259756
318.70 2.11112
318.80 1.976858
318.90 2.16034
319.00 2.25924
319.10 2.308844
319.20 2.34847
319.30 2.359838
319.40 2.371191
319.50 2.382529
319.60 2.389943
319.70 2.391741
319.80 2.393537
319.90 2.395329
320.00 2.396453
320.10 2.396853
320.20 2.396996
320.30 2.396809
320.40 2.39645
320.50 2.395883
320.60 2.395249
320.70 2.394614
320.80 2.393939
320.90 2.393219
321.00 2.3925
321.10 2.391781
321.20 2.390847
321.30 2.389951
321.40 2.389056
321.50 2.388162
321.60 2.387268
321.70 2.386375
321.80 2.385531
321.90 2.384741
322.00 2.383524
322.10 2.382553
322.20 2.381582
322.30 2.380612
322.40 2.379643
322.50 2.378675
322.60 2.377707
322.70 2.37674
322.80 2.375657
322.90 2.374667
323.00 2.373678
323.10 2.37269
323.20 2.371703
323.30 2.370716
323.40 2.369731
323.50 2.368746
323.60 2.367762
323.70 2.366778
323.80 2.365795
323.90 2.364813
324.00 2.363714
324.10 2.362615
324.20 2.361518
324.30 2.36044
324.40 2.359426
324.50 2.358424
324.60 2.357423
324.70 2.356423
324.80 2.355424
324.90 2.354426
325.00 2.353428
325.10 2.352431
325.20 2.351403
325.30 2.350307
325.40 2.349211
325.50 2.348149
325.60 2.347127
325.70 2.346105
325.80 2.345084
325.90 2.344053
326.00 2.343009
326.10 2.341966
326.20 2.340924
326.30 2.339917
326.40 2.33901
326.50 2.337966
326.60 2.336922
326.70 2.335879
326.80 2.334837
326.90 2.333796
327.00 2.332756
327.10 2.331717
327.20 2.330678
327.30 2.329641
327.40 2.328604
327.50 2.327568
327.60 2.326532
327.70 2.325498
327.80 2.324464
327.90 2.3234
328.00 2.322318
328.10 2.321257
328.20 2.320196
328.30 2.319136
328.40 2.318077
328.50 2.317107
328.60 2.316158
328.70 2.315209
328.80 2.314243
328.90 2.313223
329.00 2.312204
329.10 2.311186
329.20 2.310168
329.30 2.309152
329.40 2.308136
329.50 2.307121
329.60 2.306107
329.70 2.305094
329.80 2.304081
329.90 2.30307
330.00 2.302033
330.10 2.300965
330.20 2.299898
330.30 2.298832
330.40 2.29778
330.50 2.296741
330.60 2.295704
330.70 2.294667
330.80 2.293631
330.90 2.292597
331.00 2.291562
331.10 2.290529
331.20 2.289497
331.30 2.288465
331.40 2.287434
331.50 2.286421
331.60 2.28543
331.70 2.284439
331.80 2.28342
331.90 2.2824
332.00 2.281381
332.10 2.280363
332.20 2.279346
332.30 2.27833
332.40 2.277315
332.50 2.2763
332.60 2.275286
332.70 2.274273
332.80 2.273261
332.90 2.272249
333.00 2.271239
333.10 2.270199
333.20 2.269123
333.30 2.268048
333.40 2.266973
333.50 2.2659
333.60 2.264828
333.70 2.263756
333.80 2.262685
333.90 2.261615
334.00 2.260547
334.10 2.259469
334.20 2.258381
334.30 2.257293
334.40 2.256207
334.50 2.255121
334.60 2.254037
334.70 2.252834
334.80 2.251538
334.90 2.250314
335.00 2.249091
335.10 2.247774
335.20 2.246433
335.30 2.245093
335.40 2.243755
335.50 2.242771
335.60 2.242219
335.70 2.241597
335.80 2.240889
335.90 2.240146
336.00 2.23936
336.10 2.238575
336.20 2.237791
336.30 2.236925
336.40 2.23596
336.50 2.234995
336.60 2.234031
336.70 2.233068
336.80 2.232106
336.90 2.23112
337.00 2.230104
337.10 2.229089
337.20 2.228075
337.30 2.227085
337.40 2.226129
337.50 2.225175
337.60 2.224221
337.70 2.223268
337.80 2.222316
337.90 2.221335
338.00 2.220321
338.10 2.219307
338.20 2.218294
338.30 2.217282
338.40 2.216265
338.50 2.215234
338.60 2.214203
338.70 2.213173
338.80 2.212144
338.90 2.211116
339.00 2.210089
339.10 2.209063
339.20 2.208037
339.30 2.207027
339.40 2.20604
339.50 2.20504
339.60 2.204023
339.70 2.203008
339.80 2.201993
339.90 2.200979
340.00 2.199966
340.10 2.198953
340.20 2.197942
340.30 2.196931
340.40 2.195921
340.50 2.194912
340.60 2.193904
340.70 2.192896
340.80 2.191902
340.90 2.190927
341.00 2.189932
341.10 2.188914
341.20 2.187897
341.30 2.18688
341.40 2.185865
341.50 2.18485
341.60 2.183836
341.70 2.182823
341.80 2.181787
341.90 2.180725
342.00 2.179663
342.10 2.178602
342.20 2.177499
342.30 2.176401
342.40 2.175361
342.50 2.174344
342.60 2.173327
342.70 2.172312
342.80 2.171297
342.90 2.170283
343.00 2.169189
343.10 2.167999
343.20 2.166811
343.30 2.165623
343.40 2.164385
343.50 2.163075
343.60 2.161766
343.70 2.160458
343.80 2.159152
343.90 2.157847
344.00 2.156318
344.10 2.154468
344.20 2.15262
344.30 2.150773
344.40 2.148684
344.50 2.146246
344.60 2.143695
344.70 2.141411
344.80 2.140941
344.90 2.141928
345.00 2.142609
345.10 2.142852
345.20 2.142855
345.30 2.142515
345.40 2.142176
345.50 2.141815
345.60 2.141282
345.70 2.140536
345.80 2.139791
345.90 2.139046
346.00 2.138302
346.10 2.137558
346.20 2.136734
346.30 2.135795
346.40 2.134856
346.50 2.133919
346.60 2.132982
346.70 2.132045
346.80 2.13111
346.90 2.130175
347.00 2.129241
347.10 2.128308
347.20 2.127353
347.30 2.126368
347.40 2.125384
347.50 2.124401
347.60 2.123418
347.70 2.122437
347.80 2.121456
347.90 2.120475
348.00 2.119496
348.10 2.118517
348.20 2.117539
348.30 2.116562
348.40 2.115586
348.50 2.11461
348.60 2.113635
348.70 2.112644
348.80 2.111647
348.90 2.11065
349.00 2.109653
349.10 2.108657
349.20 2.107662
349.30 2.106668
349.40 2.105675
349.50 2.104682
349.60 2.10369
349.70 2.102699
349.80 2.101709
349.90 2.10072
350.00 2.099731
350.10 2.098743
350.20 2.097756
350.30 2.096769
350.40 2.09578
350.50 2.094793
350.60 2.093806
350.70 2.09282
350.80 2.091835
350.90 2.090851
351.00 2.089867
351.10 2.088885
351.20 2.087903
351.30 2.086922
351.40 2.085936
351.50 2.084941
351.60 2.083946
351.70 2.082953
351.80 2.08196
351.90 2.080969
352.00 2.079978
352.10 2.078987
352.20 2.077998
352.30 2.077002
352.40 2.075995
352.50 2.074989
352.60 2.073983
352.70 2.072979
352.80 2.071975
352.90 2.070972
353.00 2.06997
353.10 2.068968
353.20 2.067968
353.30 2.066968
353.40 2.065969
353.50 2.064987
353.60 2.06401
353.70 2.063034
353.80 2.062059
353.90 2.061084
354.00 2.060109
354.10 2.059134
354.20 2.05816
354.30 2.057188
354.40 2.056215
354.50 2.055244
354.60 2.054273
354.70 2.053304
354.80 2.052336
354.90 2.05137
355.00 2.050405
355.10 2.049441
355.20 2.048478
355.30 2.047455
355.40 2.046433
355.50 2.045412
355.60 2.044391
355.70 2.043365
355.80 2.042336
355.90 2.041444
356.00 2.040521
356.10 2.039529
356.20 2.038539
356.30 2.037549
356.40 2.03656
356.50 2.035571
356.60 2.034584
356.70 2.033597
356.80 2.032611
356.90 2.031626
357.00 2.030642
357.10 2.029658
357.20 2.028675
357.30 2.027693
357.40 2.026716
357.50 2.025747
357.60 2.024779
357.70 2.023811
357.80 2.022806
357.90 2.021801
358.00 2.020802
358.10 2.019806
358.20 2.01881
358.30 2.017815
358.40 2.016821
358.50 2.015828
358.60 2.014835
358.70 2.013844
358.80 2.012853
358.90 2.011862
359.00 2.01087
359.10 2.009873
359.20 2.008876
359.30 2.007876
359.40 2.006876
359.50 2.005783
359.60 2.004668
359.70 2.003553
359.80 2.002336
359.90 2.001121
360.00 1.999815
360.10 1.998349
360.20 1.996885
360.30 1.995421
360.40 1.993959
360.50 1.992499
360.60 1.989841
360.70 1.986701
360.80 1.983564
360.90 1.980429
361.00 1.976462
361.10 1.970129
361.20 1.962838
361.30 1.955687
361.40 1.95723
361.50 1.96564
361.60 1.969937
361.70 1.972089
361.80 1.973756
361.90 1.974563
362.00 1.975368
362.10 1.975705
362.20 1.975665
362.30 1.975165
362.40 1.974665
362.50 1.974165
362.60 1.973666
362.70 1.972994
362.80 1.972145
362.90 1.971192
363.00 1.97024
363.10 1.969035
363.20 1.967828
363.30 1.966453
363.40 1.965103
363.50 1.965092
363.60 1.964947
363.70 1.964445
363.80 1.963722
363.90 1.963087
364.00 1.962453
364.10 1.96182
364.20 1.961187
364.30 1.960436
364.40 1.959656
364.50 1.959115
364.60 1.958306
364.70 1.957497
364.80 1.956688
364.90 1.955749
365.00 1.95481
365.10 1.954004
365.20 1.953067
365.30 1.952395
365.40 1.951591
365.50 1.950788
365.60 1.949985
365.70 1.949159
365.80 1.948334
365.90 1.947552
366.00 1.946781
366.10 1.945912
366.20 1.945043
366.30 1.944176
366.40 1.943308
366.50 1.942262
366.60 1.941465
366.70 1.940606
366.80 1.939747
366.90 1.938851
367.00 1.937889
367.10 1.936927
367.20 1.935967
367.30 1.935007
367.40 1.934048
367.50 1.933131
367.60 1.932224
367.70 1.931242
367.80 1.930261
367.90 1.929281
368.00 1.928287
368.10 1.92724
368.20 1.926091
368.30 1.924943
368.40 1.923796
368.50 1.92265
368.60 1.921504
368.70 1.92036
368.80 1.919216
368.90 1.917944
369.00 1.916582
369.10 1.915257
369.20 1.913958
369.30 1.912317
369.40 1.910677
369.50 1.909039
369.60 1.907105
369.70 1.905173
369.80 1.902751
369.90 1.900326
370.00 1.897904
370.10 1.895389
370.20 1.892306
370.30 1.889222
370.40 1.885889
370.50 1.883796
370.60 1.885726
370.70 1.887698
370.80 1.888982
370.90 1.890264
371.00 1.890801
371.10 1.89133
371.20 1.891459
371.30 1.891588
371.40 1.891642
371.50 1.891434
371.60 1.891227
371.70 1.891019
371.80 1.890811
371.90 1.890604
372.00 1.890143
372.10 1.889856
372.20 1.889223
372.30 1.888591
372.40 1.887959
372.50 1.887328
372.60 1.886697
372.70 1.886066
372.80 1.885307
372.90 1.884549
373.00 1.883668
373.10 1.882786
373.20 1.88165
373.30 1.880515
373.40 1.879001
373.50 1.878375
373.60 1.877623
373.70 1.877251
373.80 1.876665
373.90 1.876254
374.00 1.875567
374.10 1.87488
374.20 1.874194
374.30 1.873508
374.40 1.872822
374.50 1.872011
374.60 1.871262
374.70 1.870515
374.80 1.869769
374.90 1.869024
375.00 1.868111
375.10 1.867199
375.20 1.866288
375.30 1.865437
375.40 1.864586
375.50 1.863736
375.60 1.862887
375.70 1.862039
375.80 1.861191
375.90 1.860344
376.00 1.859602
376.10 1.858723
376.20 1.857844
376.30 1.856966
376.40 1.856088
376.50 1.855201
376.60 1.854302
376.70 1.853404
376.80 1.852492
376.90 1.851567
377.00 1.850643
377.10 1.84972
377.20 1.848801
377.30 1.847898
377.40 1.846996
377.50 1.846095
377.60 1.845172
377.70 1.844248
377.80 1.843326
377.90 1.842404
378.00 1.841462
378.10 1.840431
378.20 1.839401
378.30 1.838372
378.40 1.837343
378.50 1.836315
378.60 1.835288
378.70 1.834262
378.80 1.833237
378.90 1.832232
379.00 1.831265
379.10 1.830103
379.20 1.828941
379.30 1.82776
379.40 1.826559
379.50 1.825359
379.60 1.82409
379.70 1.822647
379.80 1.820942
379.90 1.819239
380.00 1.817537
380.10 1.815837
380.20 1.814138
380.30 1.812441
380.40 1.810746
380.50 1.809052
380.60 1.806253
380.70 1.803143
380.80 1.800035
380.90 1.796931
381.00 1.79383
381.10 1.789543
381.20 1.784868
381.30 1.779295
381.40 1.772652
381.50 1.764998
381.60 1.756614
381.70 1.746918
381.80 1.736135
381.90 1.724806
382.00 1.723419
382.10 1.735225
382.20 1.745761
382.30 1.755004
382.40 1.762486
382.50 1.767336
382.60 1.77218
382.70 1.775829
382.80 1.777473
382.90 1.778456
383.00 1.779436
383.10 1.780416
383.20 1.781301
383.30 1.781833
383.40 1.782399
383.50 1.783014
383.60 1.783117
383.70 1.782978
383.80 1.782839
383.90 1.782701
384.00 1.782562
384.10 1.782423
384.20 1.782283
384.30 1.782144
384.40 1.781806
384.50 1.78127
384.60 1.780733
384.70 1.780197
384.80 1.779638
384.90 1.778965
385.00 1.778246
385.10 1.777523
385.20 1.776657
385.30 1.775856
385.40 1.775023
385.50 1.774157
385.60 1.773292
385.70 1.772428
385.80 1.771553
385.90 1.770635
386.00 1.76955
386.10 1.768286
386.20 1.766913
386.30 1.765541
386.40 1.763931
386.50 1.761719
386.60 1.759027
386.70 1.755577
386.80 1.753016
386.90 1.752877
387.00 1.753169
387.10 1.753548
387.20 1.75345
387.30 1.753151
387.40 1.752476
387.50 1.751467
387.60 1.750149
387.70 1.747894
387.80 1.745642
387.90 1.743391
388.00 1.740853
388.10 1.73685
388.20 1.728967
388.30 1.718478
388.40 1.707999
388.50 1.692117
388.60 1.66183
388.70 1.606449
388.80 1.48826
388.90 1.434626
389.00 1.563456
389.10 1.634981
389.20 1.67264
389.30 1.694268
389.40 1.706426
389.50 1.716025
389.60 1.721423
389.70 1.724413
389.80 1.725545
389.90 1.726677
390.00 1.727807
390.10 1.728935
390.20 1.730062
390.30 1.730528
390.40 1.730248
390.50 1.729968
390.60 1.729688
390.70 1.729408
390.80 1.728957
390.90 1.728334
391.00 1.727812
391.10 1.727153
391.20 1.726513
391.30 1.725868
391.40 1.72514
391.50 1.724412
391.60 1.723686
391.70 1.722959
391.80 1.722233
391.90 1.721436
392.00 1.720597
392.10 1.719819
392.20 1.719033
392.30 1.718157
392.40 1.717281
392.50 1.716406
392.60 1.715532
392.70 1.714658
392.80 1.71394
392.90 1.713185
393.00 1.712435
393.10 1.711628
393.20 1.710768
393.30 1.710012
393.40 1.709247
393.50 1.708378
393.60 1.70751
393.70 1.706643
393.80 1.706004
393.90 1.705138
394.00 1.704273
394.10 1.703353
394.20 1.702374
394.30 1.701453
394.40 1.70059
394.50 1.699728
394.60 1.69874
394.70 1.697735
394.80 1.696668
394.90 1.695599
395.00 1.694489
395.10 1.693279
395.20 1.691824
395.30 1.690305
395.40 1.688787
395.50 1.686816
395.60 1.684678
395.70 1.681969
395.80 1.677714
395.90 1.673463
396.00 1.668879
396.10 1.658961
396.20 1.643827
396.30 1.626035
396.40 1.597438
396.50 1.598824
396.60 1.631497
396.70 1.649943
396.80 1.657861
396.90 1.66252
397.00 1.665383
397.10 1.667906
397.20 1.669333
397.30 1.669609
397.40 1.669683
397.50 1.669758
397.60 1.6698
397.70 1.669515
397.80 1.66923
397.90 1.66886
398.00 1.66826
398.10 1.667661
398.20 1.666993
398.30 1.666248
398.40 1.6655
398.50 1.664664
398.60 1.663829
398.70 1.662922
398.80 1.661997
398.90 1.661105
399.00 1.660273
399.10 1.659196
399.20 1.65811
399.30 1.657026
399.40 1.655942
399.50 1.654859
399.60 1.653619
399.70 1.652321
399.80 1.651024
399.90 1.649728
400.00 1.648427
400.10 1.646924
400.20 1.645387
400.30 1.643667
400.40 1.641887
400.50 1.640148
400.60 1.637924
400.70 1.635786
400.80 1.633409
400.90 1.630909
401.00 1.628315
401.10 1.625804
401.20 1.622998
401.30 1.619796
401.40 1.615478
401.50 1.610776
401.60 1.606023
401.70 1.599495
401.80 1.591655
401.90 1.581578
402.00 1.570457
402.10 1.556082
402.20 1.538325
402.30 1.515819
402.40 1.487479
402.50 1.453734
402.60 1.417833
402.70 1.441612
402.80 1.478035
402.90 1.505974
403.00 1.53221
403.10 1.551851
403.20 1.56576
403.30 1.576015
403.40 1.584348
403.50 1.590321
403.60 1.595718
403.70 1.599503
403.80 1.602256
403.90 1.604048
404.00 1.605762
404.10 1.606726
404.20 1.607013
404.30 1.607299
404.40 1.606721
404.50 1.605926
404.60 1.605456
404.70 1.605418
404.80 1.605526
404.90 1.605988
405.00 1.606087
405.10 1.606095
405.20 1.606071
405.30 1.606047
405.40 1.605757
405.50 1.605466
405.60 1.605176
405.70 1.604886
405.80 1.604596
405.90 1.604306
406.00 1.603774
406.10 1.603243
406.20 1.602713
406.30 1.602182
406.40 1.601644
406.50 1.60107
406.60 1.60039
406.70 1.599843
406.80 1.599224
406.90 1.598567
407.00 1.597867
407.10 1.597167
407.20 1.596468
407.30 1.595769
407.40 1.595071
407.50 1.594374
407.60 1.593677
407.70 1.59298
407.80 1.592284
407.90 1.591586
408.00 1.590805
408.10 1.590026
408.20 1.589302
408.30 1.588593
408.40 1.587884
408.50 1.587125
408.60 1.586349
408.70 1.585572
408.80 1.584797
408.90 1.584022
409.00 1.583247
409.10 1.582473
409.20 1.5817
409.30 1.580927
409.40 1.580155
409.50 1.579383
409.60 1.578612
409.70 1.577822
409.80 1.576955
409.90 1.576092
410.00 1.575323
410.10 1.574555
410.20 1.573722
410.30 1.572873
410.40 1.572011
410.50 1.571107
410.60 1.570204
410.70 1.569295
410.80 1.568362
410.90 1.567429
411.00 1.566318
411.10 1.565141
411.20 1.563966
411.30 1.562731
411.40 1.561237
411.50 1.559077
411.60 1.556919
411.70 1.55425
411.80 1.549536
411.90 1.544159
412.00 1.534873
412.10 1.527573
412.20 1.529224
412.30 1.535061
412.40 1.540129
412.50 1.54335
412.60 1.545419
412.70 1.546202
412.80 1.546664
412.90 1.547069
413.00 1.546699
413.10 1.545868
413.20 1.545038
413.30 1.544208
413.40 1.543379
413.50 1.542481
413.60 1.541222
413.70 1.539703
413.80 1.538185
413.90 1.536668
414.00 1.535041
414.10 1.533063
414.20 1.531137
414.30 1.528709
414.40 1.526737
414.50 1.526953
414.60 1.527542
414.70 1.528244
414.80 1.528846
414.90 1.529136
415.00 1.529425
415.10 1.529714
415.20 1.529894
415.30 1.529732
415.40 1.52957
415.50 1.529404
415.60 1.529108
415.70 1.528812
415.80 1.528459
415.90 1.527926
416.00 1.527393
416.10 1.52683
416.20 1.526145
416.30 1.525461
416.40 1.524777
416.50 1.524092
416.60 1.523361
416.70 1.522615
416.80 1.521577
416.90 1.520653
417.00 1.519997
417.10 1.519311
417.20 1.518785
417.30 1.518259
417.40 1.517675
417.50 1.517091
417.60 1.516514
417.70 1.515957
417.80 1.515265
417.90 1.514573
418.00 1.513883
418.10 1.513192
418.20 1.512502
418.30 1.511812
418.40 1.511089
418.50 1.510367
418.60 1.509646
418.70 1.508925
418.80 1.508204
418.90 1.507484
419.00 1.506765
419.10 1.506046
419.20 1.505327
419.30 1.504609
419.40 1.503892
419.50 1.503175
419.60 1.502445
419.70 1.501661
419.80 1.500878
419.90 1.500107
420.00 1.499373
420.10 1.49864
420.20 1.497907
420.30 1.497175
420.40 1.496443
420.50 1.495712
420.60 1.494981
420.70 1.494251
420.80 1.493521
420.90 1.492791
421.00 1.49201
421.10 1.49123
421.20 1.490461
421.30 1.489725
421.40 1.48899
421.50 1.488255
421.60 1.487521
421.70 1.486787
421.80 1.486054
421.90 1.485304
422.00 1.484503
422.10 1.483722
422.20 1.483019
422.30 1.482317
422.40 1.481614
422.50 1.480863
422.60 1.480112
422.70 1.479362
422.80 1.478612
422.90 1.477863
423.00 1.477114
423.10 1.476366
423.20 1.475619
423.30 1.474872
423.40 1.474125
423.50 1.473379
423.60 1.472634
423.70 1.471889
423.80 1.471145
423.90 1.470401
424.00 1.469658
424.10 1.468916
424.20 1.468173
424.30 1.467432
424.40 1.466702
424.50 1.465971
424.60 1.465241
424.70 1.464511
424.80 1.463783
