# Version 2.1 - nm, norm@500 to 1, cut digits, bergeron_He_26000_90.dat_26000
# Wavelength(nm)  Flambda(ergs/cm^s/s/nm)
300.00 4.915131
300.10 4.911502
300.20 4.907854
300.30 4.904164
300.40 4.900174
300.50 4.896187
300.60 4.892206
300.70 4.888228
300.80 4.884254
300.90 4.880285
301.00 4.87632
301.10 4.872359
301.20 4.868403
301.30 4.86445
301.40 4.860502
301.50 4.856557
301.60 4.852617
301.70 4.848682
301.80 4.84475
301.90 4.840822
302.00 4.836899
302.10 4.832539
302.20 4.828134
302.30 4.823735
302.40 4.81934
302.50 4.81495
302.60 4.810564
302.70 4.806184
302.80 4.801808
302.90 4.797437
303.00 4.79307
303.10 4.788708
303.20 4.784351
303.30 4.779976
303.40 4.775403
303.50 4.770834
303.60 4.76627
303.70 4.761711
303.80 4.757157
303.90 4.752607
304.00 4.748063
304.10 4.743524
304.20 4.73899
304.30 4.734461
304.40 4.729936
304.50 4.725417
304.60 4.720865
304.70 4.716314
304.80 4.711769
304.90 4.707228
305.00 4.702692
305.10 4.698161
305.20 4.693635
305.30 4.689114
305.40 4.684597
305.50 4.680086
305.60 4.67558
305.70 4.671078
305.80 4.666582
305.90 4.66209
306.00 4.657603
306.10 4.653121
306.20 4.648644
306.30 4.644171
306.40 4.639614
306.50 4.635035
306.60 4.630461
306.70 4.625892
306.80 4.621328
306.90 4.616769
307.00 4.612215
307.10 4.607666
307.20 4.603122
307.30 4.598582
307.40 4.594048
307.50 4.589519
307.60 4.584994
307.70 4.580475
307.80 4.57596
307.90 4.57145
308.00 4.566945
308.10 4.562445
308.20 4.55795
308.30 4.55346
308.40 4.548974
308.50 4.544494
308.60 4.540018
308.70 4.535547
308.80 4.531072
308.90 4.526574
309.00 4.521821
309.10 4.517073
309.20 4.51233
309.30 4.507592
309.40 4.502844
309.50 4.498004
309.60 4.493169
309.70 4.48834
309.80 4.483515
309.90 4.478696
310.00 4.473883
310.10 4.469074
310.20 4.464271
310.30 4.459473
310.40 4.454661
310.50 4.449835
310.60 4.445013
310.70 4.440197
310.80 4.435386
310.90 4.43058
311.00 4.425392
311.10 4.420209
311.20 4.415032
311.30 4.409855
311.40 4.404669
311.50 4.399488
311.60 4.394312
311.70 4.389143
311.80 4.383979
311.90 4.378821
312.00 4.373669
312.10 4.368522
312.20 4.363368
312.30 4.357949
312.40 4.352483
312.50 4.347254
312.60 4.341886
312.70 4.336524
312.80 4.331168
312.90 4.325528
313.00 4.31958
313.10 4.313639
313.20 4.307705
313.30 4.301745
313.40 4.295704
313.50 4.289669
313.60 4.283641
313.70 4.277619
313.80 4.271605
313.90 4.265597
314.00 4.259596
314.10 4.252821
314.20 4.246053
314.30 4.239292
314.40 4.23254
314.50 4.225795
314.60 4.219058
314.70 4.212329
314.80 4.205394
314.90 4.198041
315.00 4.190894
315.10 4.183341
315.20 4.175796
315.30 4.16826
315.40 4.160734
315.50 4.153215
315.60 4.145706
315.70 4.138362
315.80 4.131027
315.90 4.1237
316.00 4.116382
316.10 4.10766
316.20 4.098949
316.30 4.089308
316.40 4.075451
316.50 4.053162
316.60 4.021049
316.70 3.98757
316.80 3.954132
316.90 3.945784
317.00 3.937446
317.10 3.929118
317.20 3.920799
317.30 3.931749
317.40 3.938854
317.50 3.93506
317.60 3.931269
317.70 3.927482
317.80 3.9237
317.90 3.899193
318.00 3.865903
318.10 3.813985
318.20 3.762131
318.30 3.710342
318.40 3.641312
318.50 3.523148
318.60 3.386464
318.70 3.111951
318.80 2.616687
318.90 2.935408
319.00 3.129915
319.10 3.259097
319.20 3.372069
319.30 3.439258
319.40 3.506362
319.50 3.573381
319.60 3.626804
319.70 3.661289
319.80 3.695731
319.90 3.73013
320.00 3.758997
320.10 3.781888
320.20 3.802985
320.30 3.821073
320.40 3.838292
320.50 3.852925
320.60 3.86571
320.70 3.877015
320.80 3.886112
320.90 3.892822
321.00 3.899523
321.10 3.906216
321.20 3.910788
321.30 3.913555
321.40 3.916318
321.50 3.919076
321.60 3.92183
321.70 3.92458
321.80 3.926605
321.90 3.927845
322.00 3.928451
322.10 3.92838
322.20 3.928308
322.30 3.928235
322.40 3.928162
322.50 3.928088
322.60 3.928013
322.70 3.927938
322.80 3.926897
322.90 3.925106
323.00 3.923316
323.10 3.921528
323.20 3.919741
323.30 3.917956
323.40 3.916172
323.50 3.91439
323.60 3.912609
323.70 3.91083
323.80 3.909052
323.90 3.907275
324.00 3.904624
324.10 3.901976
324.20 3.89933
324.30 3.896748
324.40 3.894031
324.50 3.890974
324.60 3.887921
324.70 3.884871
324.80 3.881824
324.90 3.878779
325.00 3.875738
325.10 3.8727
325.20 3.869676
325.30 3.866678
325.40 3.863683
325.50 3.860566
325.60 3.857302
325.70 3.85404
325.80 3.850782
325.90 3.847452
326.00 3.844043
326.10 3.840638
326.20 3.837237
326.30 3.833929
326.40 3.830879
326.50 3.827379
326.60 3.823881
326.70 3.820388
326.80 3.816898
326.90 3.813412
327.00 3.809929
327.10 3.80645
327.20 3.802974
327.30 3.799502
327.40 3.796033
327.50 3.792568
327.60 3.789106
327.70 3.785648
327.80 3.782194
327.90 3.778477
328.00 3.774138
328.10 3.76939
328.20 3.764647
328.30 3.75991
328.40 3.755177
328.50 3.751433
328.60 3.747924
328.70 3.744418
328.80 3.741042
328.90 3.738032
329.00 3.735024
329.10 3.732019
329.20 3.729018
329.30 3.726019
329.40 3.723023
329.50 3.72003
329.60 3.71704
329.70 3.714053
329.80 3.711069
329.90 3.708088
330.00 3.705047
330.10 3.701933
330.20 3.698822
330.30 3.695715
330.40 3.692539
330.50 3.68929
330.60 3.686045
330.70 3.682802
330.80 3.679563
330.90 3.676327
331.00 3.673095
331.10 3.669865
331.20 3.666639
331.30 3.663416
331.40 3.660196
331.50 3.65697
331.60 3.653734
331.70 3.650502
331.80 3.647229
331.90 3.643957
332.00 3.640688
332.10 3.637423
332.20 3.634162
332.30 3.630903
332.40 3.627648
332.50 3.624396
332.60 3.621147
332.70 3.617901
332.80 3.614659
332.90 3.61142
333.00 3.608184
333.10 3.604821
333.20 3.601303
333.30 3.597787
333.40 3.594276
333.50 3.590768
333.60 3.587263
333.70 3.583763
333.80 3.580265
333.90 3.576772
334.00 3.573281
334.10 3.569769
334.20 3.56623
334.30 3.562694
334.40 3.559162
334.50 3.555634
334.60 3.552109
334.70 3.548854
334.80 3.545471
334.90 3.541433
335.00 3.537401
335.10 3.533673
335.20 3.530727
335.30 3.527325
335.40 3.524386
335.50 3.52145
335.60 3.51883
335.70 3.516233
335.80 3.513722
335.90 3.511026
336.00 3.508104
336.10 3.505184
336.20 3.502267
336.30 3.499416
336.40 3.496643
336.50 3.493873
336.60 3.491105
336.70 3.488341
336.80 3.485579
336.90 3.482761
337.00 3.479875
337.10 3.476991
337.20 3.47411
337.30 3.47117
337.40 3.468142
337.50 3.465118
337.60 3.462096
337.70 3.459077
337.80 3.456062
337.90 3.453053
338.00 3.450053
338.10 3.447056
338.20 3.444062
338.30 3.441071
338.40 3.438064
338.50 3.435017
338.60 3.431972
338.70 3.42893
338.80 3.425892
338.90 3.422856
339.00 3.419823
339.10 3.416793
339.20 3.413767
339.30 3.410645
339.40 3.407386
339.50 3.404185
339.60 3.401055
339.70 3.397928
339.80 3.394804
339.90 3.391684
340.00 3.388566
340.10 3.385451
340.20 3.38234
340.30 3.379231
340.40 3.376126
340.50 3.373023
340.60 3.369924
340.70 3.366828
340.80 3.363685
340.90 3.360473
341.00 3.35723
341.10 3.353949
341.20 3.35067
341.30 3.347395
341.40 3.344123
341.50 3.340855
341.60 3.33759
341.70 3.334328
341.80 3.330976
341.90 3.327513
342.00 3.324054
342.10 3.320598
342.20 3.317047
342.30 3.313322
342.40 3.309648
342.50 3.305967
342.60 3.30229
342.70 3.298617
342.80 3.294947
342.90 3.291281
343.00 3.287691
343.10 3.284193
343.20 3.280698
343.30 3.277207
343.40 3.273495
343.50 3.269464
343.60 3.265437
343.70 3.261415
343.80 3.257396
343.90 3.253382
344.00 3.249344
344.10 3.245272
344.20 3.241203
344.30 3.237139
344.40 3.232998
344.50 3.228744
344.60 3.224657
344.70 3.220808
344.80 3.219355
344.90 3.217904
345.00 3.217528
345.10 3.216453
345.20 3.215165
345.30 3.213569
345.40 3.211975
345.50 3.210262
345.60 3.208351
345.70 3.206364
345.80 3.204379
345.90 3.202395
346.00 3.200414
346.10 3.198434
346.20 3.196316
346.30 3.194
346.40 3.191686
346.50 3.189374
346.60 3.187064
346.70 3.184756
346.80 3.182451
346.90 3.180147
347.00 3.177846
347.10 3.175547
347.20 3.173158
347.30 3.170639
347.40 3.168122
347.50 3.165608
347.60 3.163097
347.70 3.160587
347.80 3.15808
347.90 3.155575
348.00 3.153073
348.10 3.150573
348.20 3.148075
348.30 3.14558
348.40 3.143087
348.50 3.140597
348.60 3.138108
348.70 3.135709
348.80 3.133235
348.90 3.130615
349.00 3.127998
349.10 3.125383
349.20 3.122771
349.30 3.120161
349.40 3.117553
349.50 3.114948
349.60 3.112346
349.70 3.109746
349.80 3.107148
349.90 3.104553
350.00 3.101961
350.10 3.09937
350.20 3.096783
350.30 3.094163
350.40 3.091496
350.50 3.088832
350.60 3.08617
350.70 3.083511
350.80 3.080854
350.90 3.0782
351.00 3.075548
351.10 3.072899
351.20 3.070252
351.30 3.067608
351.40 3.064958
351.50 3.062296
351.60 3.059637
351.70 3.05698
351.80 3.054325
351.90 3.051674
352.00 3.049024
352.10 3.046377
352.20 3.043641
352.30 3.040912
352.40 3.038208
352.50 3.035506
352.60 3.032807
352.70 3.030111
352.80 3.027418
352.90 3.024727
353.00 3.022038
353.10 3.019352
353.20 3.016669
353.30 3.013988
353.40 3.011309
353.50 3.008734
353.60 3.006185
353.70 3.003639
353.80 3.001095
353.90 2.998496
354.00 2.995796
354.10 2.993099
354.20 2.990404
354.30 2.987711
354.40 2.985022
354.50 2.982335
354.60 2.97965
354.70 2.976968
354.80 2.974213
354.90 2.971352
355.00 2.968494
355.10 2.965638
355.20 2.962786
355.30 2.960081
355.40 2.957379
355.50 2.95468
355.60 2.951983
355.70 2.949122
355.80 2.946189
355.90 2.943241
356.00 2.940336
356.10 2.937452
356.20 2.934571
356.30 2.931693
356.40 2.928818
356.50 2.925945
356.60 2.923075
356.70 2.920208
356.80 2.917344
356.90 2.914482
357.00 2.911623
357.10 2.908767
357.20 2.905914
357.30 2.903063
357.40 2.900182
357.50 2.897246
357.60 2.894313
357.70 2.891382
357.80 2.888431
357.90 2.885482
358.00 2.882141
358.10 2.878706
358.20 2.875273
358.30 2.871844
358.40 2.868419
358.50 2.864996
358.60 2.861578
358.70 2.858162
358.80 2.85475
358.90 2.851341
359.00 2.847765
359.10 2.84389
359.20 2.839951
359.30 2.835556
359.40 2.831167
359.50 2.826951
359.60 2.822781
359.70 2.818616
359.80 2.814023
359.90 2.809434
360.00 2.804577
360.10 2.799238
360.20 2.793905
360.30 2.788577
360.40 2.783254
360.50 2.777938
360.60 2.771579
360.70 2.764802
360.80 2.758032
360.90 2.75127
361.00 2.744542
361.10 2.737184
361.20 2.729662
361.30 2.724261
361.40 2.732581
361.50 2.741396
361.60 2.744612
361.70 2.743454
361.80 2.742774
361.90 2.742941
362.00 2.743108
362.10 2.743125
362.20 2.742906
362.30 2.742334
362.40 2.741763
362.50 2.741192
362.60 2.740622
362.70 2.739696
362.80 2.738503
362.90 2.73806
363.00 2.737617
363.10 2.736442
363.20 2.735261
363.30 2.734533
363.40 2.733919
363.50 2.73366
363.60 2.733223
363.70 2.732866
363.80 2.731995
363.90 2.73134
364.00 2.730684
364.10 2.730029
364.20 2.729374
364.30 2.728674
364.40 2.727964
364.50 2.727887
364.60 2.726861
364.70 2.725836
364.80 2.724811
364.90 2.723318
365.00 2.721826
365.10 2.720335
365.20 2.718845
365.30 2.717357
365.40 2.71587
365.50 2.714736
365.60 2.713603
365.70 2.712119
365.80 2.710636
365.90 2.709155
366.00 2.707675
366.10 2.706023
366.20 2.704373
366.30 2.702725
366.40 2.701078
366.50 2.698899
366.60 2.697419
366.70 2.695419
366.80 2.69342
366.90 2.691296
367.00 2.688951
367.10 2.686608
367.20 2.684266
367.30 2.681927
367.40 2.67959
367.50 2.677029
367.60 2.674413
367.70 2.671494
367.80 2.668578
367.90 2.665665
368.00 2.662699
368.10 2.659535
368.20 2.655913
368.30 2.65229
368.40 2.648671
368.50 2.645056
368.60 2.641444
368.70 2.637835
368.80 2.63423
368.90 2.630522
369.00 2.626772
369.10 2.623061
369.20 2.618857
369.30 2.614681
369.40 2.610509
369.50 2.606341
369.60 2.601849
369.70 2.59736
369.80 2.593533
369.90 2.589716
370.00 2.585903
370.10 2.58213
370.20 2.578334
370.30 2.574542
370.40 2.571431
370.50 2.569667
370.60 2.570317
370.70 2.571702
370.80 2.572697
370.90 2.57369
371.00 2.573687
371.10 2.573672
371.20 2.573984
371.30 2.574294
371.40 2.574928
371.50 2.575319
371.60 2.575708
371.70 2.576097
371.80 2.576485
371.90 2.576872
372.00 2.57764
372.10 2.578196
372.20 2.578168
372.30 2.57814
372.40 2.578112
372.50 2.578083
372.60 2.578055
372.70 2.578025
372.80 2.577652
372.90 2.577279
373.00 2.57658
373.10 2.575878
373.20 2.574836
373.30 2.573794
373.40 2.571404
373.50 2.56969
373.60 2.568651
373.70 2.567613
373.80 2.567207
373.90 2.566885
374.00 2.566353
374.10 2.565821
374.20 2.56529
374.30 2.564758
374.40 2.563807
374.50 2.56269
374.60 2.561488
374.70 2.560289
374.80 2.559091
374.90 2.557893
375.00 2.556529
375.10 2.555166
375.20 2.553805
375.30 2.551872
375.40 2.54994
375.50 2.548011
375.60 2.546083
375.70 2.544156
375.80 2.542232
375.90 2.540309
376.00 2.538299
376.10 2.535796
376.20 2.53329
376.30 2.530786
376.40 2.528285
376.50 2.525608
376.60 2.522666
376.70 2.519727
376.80 2.516664
376.90 2.513477
377.00 2.510293
377.10 2.507112
377.20 2.503847
377.30 2.500256
377.40 2.496669
377.50 2.493085
377.60 2.48904
377.70 2.485
377.80 2.480963
377.90 2.47693
378.00 2.472705
378.10 2.467973
378.20 2.463244
378.30 2.458519
378.40 2.453799
378.50 2.449084
378.60 2.444374
378.70 2.439668
378.80 2.434966
378.90 2.429935
379.00 2.424289
379.10 2.418299
379.20 2.412314
379.30 2.406054
379.40 2.399517
379.50 2.392987
379.60 2.386155
379.70 2.378536
379.80 2.36967
379.90 2.360813
380.00 2.351964
380.10 2.343125
380.20 2.334295
380.30 2.325474
380.40 2.316662
380.50 2.307859
380.60 2.298249
380.70 2.290848
380.80 2.283455
380.90 2.276069
381.00 2.26869
381.10 2.268714
381.20 2.265951
381.30 2.258977
381.40 2.251386
381.50 2.24391
381.60 2.236571
381.70 2.229515
381.80 2.224357
381.90 2.225449
382.00 2.221384
382.10 2.226984
382.20 2.235926
382.30 2.24473
382.40 2.252697
382.50 2.259417
382.60 2.266129
382.70 2.271615
382.80 2.274945
382.90 2.277494
383.00 2.280041
383.10 2.282585
383.20 2.285159
383.30 2.287857
383.40 2.290642
383.50 2.293558
383.60 2.29653
383.70 2.299036
383.80 2.301539
383.90 2.304039
384.00 2.306536
384.10 2.30903
384.20 2.311522
384.30 2.31401
384.40 2.316209
384.50 2.318118
384.60 2.320025
384.70 2.321929
384.80 2.323644
384.90 2.324639
385.00 2.32561
385.10 2.326582
385.20 2.3272
385.30 2.327278
385.40 2.327156
385.50 2.326834
385.60 2.326512
385.70 2.32619
385.80 2.325682
385.90 2.324477
386.00 2.323273
386.10 2.32196
386.20 2.319541
386.30 2.317123
386.40 2.314071
386.50 2.309674
386.60 2.30427
386.70 2.296789
386.80 2.283974
386.90 2.278239
387.00 2.273906
387.10 2.269908
387.20 2.266133
387.30 2.260636
387.40 2.254457
387.50 2.246521
387.60 2.236239
387.70 2.221791
387.80 2.207358
387.90 2.192939
388.00 2.176899
388.10 2.153468
388.20 2.118634
388.30 2.076557
388.40 2.034523
388.50 1.981421
388.60 1.902153
388.70 1.787252
388.80 1.57981
388.90 1.443955
389.00 1.630185
389.10 1.758472
389.20 1.846579
389.30 1.912756
389.40 1.96425
389.50 2.009922
389.60 2.045571
389.70 2.072228
389.80 2.091479
389.90 2.110711
390.00 2.129922
390.10 2.149113
390.20 2.168285
390.30 2.1827
390.40 2.191762
390.50 2.200814
390.60 2.209857
390.70 2.21889
390.80 2.226139
390.90 2.231607
391.00 2.236694
391.10 2.240624
391.20 2.244357
391.30 2.246708
391.40 2.248323
391.50 2.249935
391.60 2.251546
391.70 2.253154
391.80 2.254761
391.90 2.255609
392.00 2.255568
392.10 2.255477
392.20 2.255291
392.30 2.254141
392.40 2.252992
392.50 2.251844
392.60 2.250285
392.70 2.248835
392.80 2.246776
392.90 2.244485
393.00 2.242371
393.10 2.240094
393.20 2.237614
393.30 2.234957
393.40 2.232286
393.50 2.229105
393.60 2.225413
393.70 2.222091
393.80 2.21793
393.90 2.213774
394.00 2.20963
394.10 2.205223
394.20 2.200418
394.30 2.195093
394.40 2.18985
394.50 2.183751
394.60 2.176909
394.70 2.169939
394.80 2.162475
394.90 2.154997
395.00 2.146788
395.10 2.137778
395.20 2.127861
395.30 2.117767
395.40 2.107684
395.50 2.095801
395.60 2.083261
395.70 2.06965
395.80 2.053125
395.90 2.036617
396.00 2.01974
396.10 1.997274
396.20 1.970206
396.30 1.94171
396.40 1.908638
396.50 1.953883
396.60 2.001221
396.70 2.008739
396.80 2.000885
396.90 1.995406
397.00 2.013136
397.10 2.036473
397.20 2.051121
397.30 2.057274
397.40 2.058861
397.50 2.060445
397.60 2.061773
397.70 2.060525
397.80 2.059279
397.90 2.057632
398.00 2.054902
398.10 2.052174
398.20 2.049103
398.30 2.045645
398.40 2.042167
398.50 2.037954
398.60 2.033748
398.70 2.028615
398.80 2.023253
398.90 2.017731
399.00 2.011907
399.10 2.005049
399.20 1.998089
399.30 1.991137
399.40 1.98419
399.50 1.977251
399.60 1.969992
399.70 1.962619
399.80 1.955253
399.90 1.947895
400.00 1.940545
400.10 1.933248
400.20 1.925518
400.30 1.917588
400.40 1.909675
400.50 1.901301
400.60 1.892605
400.70 1.883461
400.80 1.873313
400.90 1.862827
401.00 1.851836
401.10 1.840511
401.20 1.829037
401.30 1.816386
401.40 1.802773
401.50 1.788911
401.60 1.775008
401.70 1.759331
401.80 1.742575
401.90 1.724145
402.00 1.704973
402.10 1.683796
402.20 1.661424
402.30 1.637512
402.40 1.608968
402.50 1.571904
402.60 1.549832
402.70 1.593538
402.80 1.628103
402.90 1.655681
403.00 1.682363
403.10 1.707283
403.20 1.730215
403.30 1.750705
403.40 1.769659
403.50 1.786144
403.60 1.801907
403.70 1.815308
403.80 1.827392
403.90 1.836313
404.00 1.84489
404.10 1.851451
404.20 1.856003
404.30 1.860551
404.40 1.863708
404.50 1.863597
404.60 1.863537
404.70 1.865487
404.80 1.868717
404.90 1.872249
405.00 1.876071
405.10 1.880388
405.20 1.884779
405.30 1.889164
405.40 1.893478
405.50 1.897786
405.60 1.902091
405.70 1.90639
405.80 1.910686
405.90 1.914976
406.00 1.91874
406.10 1.922499
406.20 1.926254
406.30 1.930005
406.40 1.933726
406.50 1.937368
406.60 1.941096
406.70 1.94437
406.80 1.947631
406.90 1.95113
407.00 1.954032
407.10 1.95693
407.20 1.959826
407.30 1.962718
407.40 1.965608
407.50 1.968494
407.60 1.971377
407.70 1.974257
407.80 1.977134
407.90 1.979986
408.00 1.982102
408.10 1.984164
408.20 1.986109
408.30 1.988077
408.40 1.990042
408.50 1.991551
408.60 1.992915
408.70 1.994278
408.80 1.995595
408.90 1.996534
409.00 1.997392
409.10 1.998249
409.20 1.999105
409.30 1.99996
409.40 2.0008
409.50 2.00121
409.60 2.00162
409.70 2.002009
409.80 2.002323
409.90 2.002629
410.00 2.002739
410.10 2.002694
410.20 2.002253
410.30 2.001714
410.40 2.001026
410.50 1.999868
410.60 1.99871
410.70 1.997365
410.80 1.995264
410.90 1.993166
411.00 1.99028
411.10 1.987105
411.20 1.983933
411.30 1.980634
411.40 1.976766
411.50 1.971096
411.60 1.965431
411.70 1.958937
411.80 1.949113
411.90 1.938577
412.00 1.919631
412.10 1.871217
412.20 1.85412
412.30 1.862304
412.40 1.870809
412.50 1.877794
412.60 1.884381
412.70 1.889779
412.80 1.894876
412.90 1.899814
413.00 1.902785
413.10 1.904816
413.20 1.906845
413.30 1.908872
413.40 1.910896
413.50 1.912788
413.60 1.914197
413.70 1.915745
413.80 1.91729
413.90 1.918834
414.00 1.920113
414.10 1.920557
414.20 1.921
414.30 1.920894
414.40 1.920898
414.50 1.921218
414.60 1.922415
414.70 1.923676
414.80 1.925164
414.90 1.927377
415.00 1.929588
415.10 1.931797
415.20 1.933943
415.30 1.9359
415.40 1.937854
415.50 1.939802
415.60 1.9416
415.70 1.943397
415.80 1.945181
415.90 1.946928
416.00 1.948673
416.10 1.950271
416.20 1.951287
416.30 1.952302
416.40 1.953315
416.50 1.954309
416.60 1.954726
416.70 1.955142
416.80 1.955563
416.90 1.95514
417.00 1.954993
417.10 1.955718
417.20 1.956131
417.30 1.956549
417.40 1.957138
417.50 1.957725
417.60 1.958284
417.70 1.958719
417.80 1.958859
417.90 1.958999
418.00 1.959138
418.10 1.959277
418.20 1.959415
418.30 1.959562
418.40 1.959841
418.50 1.959662
418.60 1.959484
418.70 1.959305
418.80 1.959126
418.90 1.958947
419.00 1.958768
419.10 1.95859
419.20 1.958411
419.30 1.95822
419.40 1.957664
419.50 1.957109
419.60 1.95655
419.70 1.955979
419.80 1.955407
419.90 1.954813
420.00 1.954143
420.10 1.953474
420.20 1.952805
420.30 1.952137
420.40 1.951469
420.50 1.950801
420.60 1.950134
420.70 1.949467
420.80 1.948801
420.90 1.948127
421.00 1.947201
421.10 1.946277
421.20 1.945353
421.30 1.944429
421.40 1.943507
421.50 1.942585
421.60 1.941663
421.70 1.940742
421.80 1.939822
421.90 1.938903
422.00 1.937984
422.10 1.937033
422.20 1.935949
422.30 1.934866
422.40 1.93378
422.50 1.932599
422.60 1.931418
422.70 1.930238
422.80 1.92906
422.90 1.927882
423.00 1.926705
423.10 1.925529
423.20 1.924353
423.30 1.923179
423.40 1.922006
423.50 1.920833
423.60 1.919662
423.70 1.918491
423.80 1.917321
423.90 1.916152
424.00 1.914984
424.10 1.913817
424.20 1.912651
424.30 1.911485
424.40 1.910371
424.50 1.90905
424.60 1.907729
424.70 1.906409
424.80 1.905091
424.90 1.903773
425.00 1.902457
