# Version 2.1 - nm, norm@500 to 1, cut digits, bergeron_He_18000_80.dat_18000
# Wavelength(nm)  Flambda(ergs/cm^s/s/nm)
300.00 3.831758
300.10 3.829261
300.20 3.826711
300.30 3.824137
300.40 3.821397
300.50 3.818659
300.60 3.815924
300.70 3.813192
300.80 3.810463
300.90 3.807737
301.00 3.805013
301.10 3.802292
301.20 3.799574
301.30 3.796859
301.40 3.794147
301.50 3.791437
301.60 3.78873
301.70 3.786026
301.80 3.783324
301.90 3.780626
302.00 3.77793
302.10 3.77506
302.20 3.772173
302.30 3.76929
302.40 3.766409
302.50 3.763532
302.60 3.760657
302.70 3.757786
302.80 3.754917
302.90 3.752051
303.00 3.749189
303.10 3.746329
303.20 3.743472
303.30 3.740603
303.40 3.737598
303.50 3.734597
303.60 3.731599
303.70 3.728603
303.80 3.725611
303.90 3.722623
304.00 3.719637
304.10 3.716654
304.20 3.713675
304.30 3.710698
304.40 3.707725
304.50 3.704755
304.60 3.701783
304.70 3.698814
304.80 3.695848
304.90 3.692885
305.00 3.689925
305.10 3.686969
305.20 3.684015
305.30 3.681065
305.40 3.678117
305.50 3.675173
305.60 3.672232
305.70 3.669293
305.80 3.666358
305.90 3.663426
306.00 3.660497
306.10 3.657571
306.20 3.654648
306.30 3.651728
306.40 3.648766
306.50 3.645794
306.60 3.642825
306.70 3.639859
306.80 3.636896
306.90 3.633936
307.00 3.630979
307.10 3.628025
307.20 3.625075
307.30 3.622127
307.40 3.619182
307.50 3.616241
307.60 3.613303
307.70 3.610367
307.80 3.607435
307.90 3.604506
308.00 3.60158
308.10 3.598656
308.20 3.595736
308.30 3.592819
308.40 3.589905
308.50 3.586994
308.60 3.584086
308.70 3.581181
308.80 3.578431
308.90 3.576114
309.00 3.573147
309.10 3.570184
309.20 3.567223
309.30 3.564266
309.40 3.561288
309.50 3.558169
309.60 3.555053
309.70 3.551941
309.80 3.548832
309.90 3.545726
310.00 3.542623
310.10 3.539524
310.20 3.536428
310.30 3.533335
310.40 3.53036
310.50 3.527514
310.60 3.52467
310.70 3.521829
310.80 3.518991
310.90 3.516156
311.00 3.513058
311.10 3.509964
311.20 3.506872
311.30 3.503777
311.40 3.500666
311.50 3.497558
311.60 3.494453
311.70 3.491351
311.80 3.488252
311.90 3.485157
312.00 3.482065
312.10 3.478976
312.20 3.475286
312.30 3.471594
312.40 3.468511
312.50 3.466041
312.60 3.462574
312.70 3.459112
312.80 3.455652
312.90 3.452268
313.00 3.448964
313.10 3.445663
313.20 3.442366
313.30 3.439026
313.40 3.435558
313.50 3.432094
313.60 3.428633
313.70 3.425176
313.80 3.421723
313.90 3.418273
314.00 3.414827
314.10 3.410671
314.20 3.406519
314.30 3.402372
314.40 3.398229
314.50 3.394091
314.60 3.389957
314.70 3.385828
314.80 3.381708
314.90 3.377057
315.00 3.37182
315.10 3.366377
315.20 3.36094
315.30 3.355509
315.40 3.350084
315.50 3.344665
315.60 3.339253
315.70 3.33372
315.80 3.328194
315.90 3.322674
316.00 3.31716
316.10 3.313546
316.20 3.309937
316.30 3.308601
316.40 3.304241
316.50 3.288552
316.60 3.259289
316.70 3.235345
316.80 3.211431
316.90 3.208651
317.00 3.205873
317.10 3.203099
317.20 3.200327
317.30 3.210409
317.40 3.216967
317.50 3.21353
317.60 3.210098
317.70 3.206669
317.80 3.203244
317.90 3.181518
318.00 3.15122
318.10 3.10286
318.20 3.054559
318.30 3.006319
318.40 2.936202
318.50 2.803776
318.60 2.645342
318.70 2.259509
318.80 1.60872
318.90 2.226233
319.00 2.483398
319.10 2.637951
319.20 2.769223
319.30 2.834662
319.40 2.900019
319.50 2.965294
319.60 3.014842
319.70 3.042345
319.80 3.069813
319.90 3.097245
320.00 3.119079
320.10 3.13486
320.20 3.149041
320.30 3.159485
320.40 3.169164
320.50 3.17765
320.60 3.183475
320.70 3.188849
320.80 3.192805
320.90 3.195225
321.00 3.197642
321.10 3.200056
321.20 3.200947
321.30 3.201238
321.40 3.201528
321.50 3.201818
321.60 3.202106
321.70 3.202393
321.80 3.202061
321.90 3.201059
322.00 3.199449
322.10 3.198189
322.20 3.196929
322.30 3.195671
322.40 3.194413
322.50 3.193157
322.60 3.191901
322.70 3.190646
322.80 3.189079
322.90 3.187233
323.00 3.185389
323.10 3.183546
323.20 3.181705
323.30 3.179866
323.40 3.178028
323.50 3.176192
323.60 3.174358
323.70 3.172525
323.80 3.170694
323.90 3.168865
324.00 3.166909
324.10 3.164955
324.20 3.163003
324.30 3.161052
324.40 3.158935
324.50 3.156636
324.60 3.154339
324.70 3.152044
324.80 3.149752
324.90 3.147462
325.00 3.145174
325.10 3.142888
325.20 3.140717
325.30 3.138786
325.40 3.136858
325.50 3.134768
325.60 3.132483
325.70 3.130201
325.80 3.12792
325.90 3.12549
326.00 3.122898
326.10 3.120308
326.20 3.117721
326.30 3.115312
326.40 3.113403
326.50 3.111007
326.60 3.108614
326.70 3.106222
326.80 3.103834
326.90 3.101447
327.00 3.099063
327.10 3.096681
327.20 3.094302
327.30 3.091925
327.40 3.08955
327.50 3.087177
327.60 3.084807
327.70 3.082439
327.80 3.080074
327.90 3.077943
328.00 3.075384
328.10 3.071994
328.20 3.068608
328.30 3.065226
328.40 3.061846
328.50 3.059695
328.60 3.057833
328.70 3.055973
328.80 3.054053
328.90 3.051959
329.00 3.049867
329.10 3.047777
329.20 3.045689
329.30 3.043603
329.40 3.041519
329.50 3.039437
329.60 3.037357
329.70 3.035279
329.80 3.033203
329.90 3.031129
330.00 3.029005
330.10 3.02682
330.20 3.024638
330.30 3.022457
330.40 3.020265
330.50 3.01806
330.60 3.015858
330.70 3.013658
330.80 3.01146
330.90 3.009264
331.00 3.00707
331.10 3.004879
331.20 3.002689
331.30 3.000501
331.40 2.998316
331.50 2.996052
331.60 2.993693
331.70 2.991335
331.80 2.988924
331.90 2.986513
332.00 2.984104
332.10 2.981697
332.20 2.979293
332.30 2.976892
332.40 2.974492
332.50 2.972095
332.60 2.969701
332.70 2.967308
332.80 2.964918
332.90 2.96253
333.00 2.960145
333.10 2.957544
333.20 2.954678
333.30 2.951815
333.40 2.948955
333.50 2.946098
333.60 2.943243
333.70 2.940392
333.80 2.937544
333.90 2.934698
334.00 2.931855
334.10 2.928792
334.20 2.925458
334.30 2.922128
334.40 2.918801
334.50 2.915477
334.60 2.912157
334.70 2.908966
334.80 2.904982
334.90 2.899642
335.00 2.894307
335.10 2.888655
335.20 2.882889
335.30 2.876087
335.40 2.869662
335.50 2.873163
335.60 2.875988
335.70 2.877331
335.80 2.878302
335.90 2.878819
336.00 2.878782
336.10 2.878745
336.20 2.878707
336.30 2.878016
336.40 2.876528
336.50 2.875041
336.60 2.873556
336.70 2.872072
336.80 2.870589
336.90 2.869156
337.00 2.867783
337.10 2.866412
337.20 2.865042
337.30 2.863446
337.40 2.861526
337.50 2.859607
337.60 2.85769
337.70 2.855775
337.80 2.853862
337.90 2.851935
338.00 2.849991
338.10 2.848049
338.20 2.846109
338.30 2.84417
338.40 2.842221
338.50 2.840244
338.60 2.838269
338.70 2.836296
338.80 2.834325
338.90 2.832356
339.00 2.830389
339.10 2.828423
339.20 2.826459
339.30 2.824344
339.40 2.822009
339.50 2.819752
339.60 2.817588
339.70 2.815426
339.80 2.813267
339.90 2.811109
340.00 2.808954
340.10 2.8068
340.20 2.804649
340.30 2.802499
340.40 2.800352
340.50 2.798207
340.60 2.796064
340.70 2.793922
340.80 2.791715
340.90 2.789413
341.00 2.787046
341.10 2.784599
341.20 2.782154
341.30 2.779712
341.40 2.777272
341.50 2.774834
341.60 2.772399
341.70 2.769966
341.80 2.767351
341.90 2.764514
342.00 2.761679
342.10 2.758847
342.20 2.755615
342.30 2.752616
342.40 2.749749
342.50 2.746412
342.60 2.743077
342.70 2.739747
342.80 2.736419
342.90 2.733095
343.00 2.729692
343.10 2.726191
343.20 2.722694
343.30 2.7192
343.40 2.715263
343.50 2.710689
343.60 2.706119
343.70 2.701555
343.80 2.696995
343.90 2.69244
344.00 2.686753
344.10 2.679438
344.20 2.672131
344.30 2.664832
344.40 2.655187
344.50 2.642165
344.60 2.627328
344.70 2.608604
344.80 2.624568
344.90 2.635836
345.00 2.645889
345.10 2.651347
345.20 2.655694
345.30 2.658445
345.40 2.661193
345.50 2.663107
345.60 2.66361
345.70 2.663548
345.80 2.663484
345.90 2.663421
346.00 2.663357
346.10 2.663292
346.20 2.662779
346.30 2.66162
346.40 2.660462
346.50 2.659305
346.60 2.658148
346.70 2.656993
346.80 2.655839
346.90 2.654685
347.00 2.653532
347.10 2.652381
347.20 2.65104
347.30 2.649428
347.40 2.647817
347.50 2.646208
347.60 2.6446
347.70 2.642994
347.80 2.641389
347.90 2.639785
348.00 2.638183
348.10 2.636582
348.20 2.634983
348.30 2.633385
348.40 2.631788
348.50 2.630193
348.60 2.628599
348.70 2.627071
348.80 2.625463
348.90 2.623709
349.00 2.621957
349.10 2.620207
349.20 2.618458
349.30 2.616711
349.40 2.614966
349.50 2.613221
349.60 2.611479
349.70 2.609738
349.80 2.607999
349.90 2.606261
350.00 2.604525
350.10 2.60279
350.20 2.601057
350.30 2.599289
350.40 2.597471
350.50 2.595654
350.60 2.59384
350.70 2.592026
350.80 2.590215
350.90 2.588405
351.00 2.586597
351.10 2.58479
351.20 2.582985
351.30 2.581182
351.40 2.579441
351.50 2.577809
351.60 2.576179
351.70 2.57455
351.80 2.572922
351.90 2.571296
352.00 2.569672
352.10 2.568049
352.20 2.565837
352.30 2.563812
352.40 2.562147
352.50 2.560483
352.60 2.558821
352.70 2.557161
352.80 2.555502
352.90 2.553845
353.00 2.552189
353.10 2.550534
353.20 2.548881
353.30 2.547229
353.40 2.545579
353.50 2.544097
353.60 2.542659
353.70 2.541221
353.80 2.539785
353.90 2.538252
354.00 2.536549
354.10 2.534846
354.20 2.533146
354.30 2.531446
354.40 2.529749
354.50 2.528052
354.60 2.526358
354.70 2.524664
354.80 2.523083
354.90 2.521661
355.00 2.520241
355.10 2.518822
355.20 2.517404
355.30 2.515708
355.40 2.514015
355.50 2.512323
355.60 2.510632
355.70 2.509135
355.80 2.507724
355.90 2.506315
356.00 2.504709
356.10 2.503054
356.20 2.501401
356.30 2.49975
356.40 2.498099
356.50 2.496451
356.60 2.494803
356.70 2.493158
356.80 2.491513
356.90 2.48987
357.00 2.488229
357.10 2.486589
357.20 2.48495
357.30 2.483313
357.40 2.481512
357.50 2.479419
357.60 2.477328
357.70 2.475239
357.80 2.473855
357.90 2.472473
358.00 2.470368
358.10 2.468084
358.20 2.465802
358.30 2.463522
358.40 2.461244
358.50 2.458969
358.60 2.456695
358.70 2.454424
358.80 2.452155
358.90 2.449888
359.00 2.447379
359.10 2.444436
359.20 2.441375
359.30 2.4375
359.40 2.433628
359.50 2.429764
359.60 2.425904
359.70 2.422048
359.80 2.417158
359.90 2.412273
360.00 2.406475
360.10 2.399051
360.20 2.391636
360.30 2.384228
360.40 2.376827
360.50 2.369435
360.60 2.358688
360.70 2.34429
360.80 2.329908
360.90 2.315541
361.00 2.298426
361.10 2.268497
361.20 2.230238
361.30 2.157796
361.40 2.226437
361.50 2.287009
361.60 2.30897
361.70 2.311743
361.80 2.315495
361.90 2.320989
362.00 2.326476
362.10 2.329751
362.20 2.330938
362.30 2.329399
362.40 2.327861
362.50 2.326324
362.60 2.324788
362.70 2.321538
362.80 2.317575
362.90 2.310579
363.00 2.30359
363.10 2.296035
363.20 2.288483
363.30 2.281378
363.40 2.279836
363.50 2.286888
363.60 2.298227
363.70 2.306882
363.80 2.314002
363.90 2.318447
364.00 2.322886
364.10 2.32732
364.20 2.331749
364.30 2.336679
364.40 2.341731
364.50 2.345042
364.60 2.347539
364.70 2.350033
364.80 2.352524
364.90 2.353509
365.00 2.354492
365.10 2.353771
365.20 2.349644
365.30 2.347223
365.40 2.34934
365.50 2.352021
365.60 2.354699
365.70 2.356499
365.80 2.358296
365.90 2.359131
366.00 2.359726
366.10 2.359547
366.20 2.359368
366.30 2.359189
366.40 2.35901
366.50 2.3578
366.60 2.35764
366.70 2.356355
366.80 2.35507
366.90 2.353495
367.00 2.351404
367.10 2.349315
367.20 2.347228
367.30 2.345143
367.40 2.343059
367.50 2.340129
367.60 2.336988
367.70 2.33336
367.80 2.329736
367.90 2.326114
368.00 2.322409
368.10 2.318381
368.20 2.312748
368.30 2.307104
368.40 2.301466
368.50 2.295834
368.60 2.290207
368.70 2.284586
368.80 2.278971
368.90 2.272791
369.00 2.265454
369.10 2.258087
369.20 2.250139
369.30 2.24041
369.40 2.230692
369.50 2.220983
369.60 2.208755
369.70 2.196539
369.80 2.180431
369.90 2.1643
370.00 2.148187
370.10 2.13108
370.20 2.106779
370.30 2.082456
370.40 2.056521
370.50 2.045058
370.60 2.073536
370.70 2.106376
370.80 2.128796
370.90 2.15119
371.00 2.160115
371.10 2.168895
371.20 2.175925
371.30 2.182948
371.40 2.190359
371.50 2.197555
371.60 2.204743
371.70 2.211923
371.80 2.219095
371.90 2.226258
372.00 2.232022
372.10 2.23707
372.20 2.240421
372.30 2.243769
372.40 2.247112
372.50 2.250452
372.60 2.253788
372.70 2.25712
372.80 2.25916
372.90 2.261199
373.00 2.262184
373.10 2.263158
373.20 2.260858
373.30 2.258561
373.40 2.239979
373.50 2.232811
373.60 2.241919
373.70 2.25156
373.80 2.256823
373.90 2.26323
374.00 2.265537
374.10 2.267842
374.20 2.270143
374.30 2.272442
374.40 2.273929
374.50 2.275387
374.60 2.276072
374.70 2.276749
374.80 2.277425
374.90 2.2781
375.00 2.277962
375.10 2.277823
375.20 2.277684
375.30 2.276778
375.40 2.275872
375.50 2.274967
375.60 2.274062
375.70 2.273158
375.80 2.272255
375.90 2.271352
376.00 2.270144
376.10 2.268475
376.20 2.266804
376.30 2.265133
376.40 2.263464
376.50 2.261541
376.60 2.259236
376.70 2.256933
376.80 2.254438
376.90 2.251751
377.00 2.249067
377.10 2.246385
377.20 2.243531
377.30 2.240023
377.40 2.236519
377.50 2.233017
377.60 2.229065
377.70 2.225116
377.80 2.221172
377.90 2.217231
378.00 2.213366
378.10 2.207922
378.20 2.202467
378.30 2.197018
378.40 2.191574
378.50 2.186135
378.60 2.180702
378.70 2.175274
378.80 2.169852
378.90 2.164017
379.00 2.15741
379.10 2.150373
379.20 2.143343
379.30 2.135703
379.40 2.127452
379.50 2.119211
379.60 2.110646
379.70 2.101034
379.80 2.08933
379.90 2.077639
380.00 2.06596
380.10 2.054292
380.20 2.042637
380.30 2.030993
380.40 2.019362
380.50 2.007742
380.60 1.991666
380.70 1.974239
380.80 1.956831
380.90 1.93944
381.00 1.922068
381.10 1.903469
381.20 1.882662
381.30 1.858065
381.40 1.829257
381.50 1.794693
381.60 1.755428
381.70 1.70894
381.80 1.663734
381.90 1.626014
382.00 1.588334
382.10 1.670973
382.20 1.739846
382.30 1.792799
382.40 1.836175
382.50 1.865233
382.60 1.894261
382.70 1.917178
382.80 1.92855
382.90 1.935245
383.00 1.941932
383.10 1.948613
383.20 1.955944
383.30 1.96574
383.40 1.975321
383.50 1.984584
383.60 1.993529
383.70 2.000483
383.80 2.00743
383.90 2.014369
384.00 2.021301
384.10 2.028225
384.20 2.035142
384.30 2.042051
384.40 2.047956
384.50 2.052858
384.60 2.057755
384.70 2.062646
384.80 2.06753
384.90 2.071699
385.00 2.074568
385.10 2.077429
385.20 2.080021
385.30 2.082565
385.40 2.084364
385.50 2.08542
385.60 2.086474
385.70 2.087527
385.80 2.088506
385.90 2.089207
386.00 2.089376
386.10 2.088808
386.20 2.086159
386.30 2.083513
386.40 2.079647
386.50 2.072586
386.60 2.060506
386.70 2.031094
386.80 1.944542
386.90 1.983484
387.00 2.007098
387.10 2.017629
387.20 2.024209
387.30 2.027606
387.40 2.028813
387.50 2.028513
387.60 2.025189
387.70 2.018102
387.80 2.011021
387.90 2.003948
388.00 1.994956
388.10 1.97734
388.20 1.948779
388.30 1.911438
388.40 1.874135
388.50 1.823708
388.60 1.741369
388.70 1.610798
388.80 1.331213
388.90 1.164431
389.00 1.470849
389.10 1.628655
389.20 1.725128
389.30 1.792805
389.40 1.842572
389.50 1.886111
389.60 1.918797
389.70 1.941531
389.80 1.956633
389.90 1.971718
390.00 1.986788
390.10 2.001843
390.20 2.016881
390.30 2.027553
390.40 2.033309
390.50 2.03906
390.60 2.044804
390.70 2.050542
390.80 2.055123
390.90 2.05855
391.00 2.060475
391.10 2.062304
391.20 2.064087
391.30 2.064836
391.40 2.064604
391.50 2.064373
391.60 2.064141
391.70 2.06391
391.80 2.063678
391.90 2.063061
392.00 2.061667
392.10 2.059763
392.20 2.057937
392.30 2.056219
392.40 2.053821
392.50 2.051672
392.60 2.049154
392.70 2.04681
392.80 2.045768
392.90 2.045092
393.00 2.045094
393.10 2.044606
393.20 2.043566
393.30 2.042527
393.40 2.041489
393.50 2.040451
393.60 2.037839
393.70 2.035449
393.80 2.033307
393.90 2.030811
394.00 2.028308
394.10 2.025283
394.20 2.021782
394.30 2.017828
394.40 2.01331
394.50 2.00872
394.60 2.00227
394.70 1.995563
394.80 1.987869
394.90 1.980135
395.00 1.970773
395.10 1.96072
395.20 1.949151
395.30 1.93712
395.40 1.9251
395.50 1.908798
395.60 1.890924
395.70 1.870325
395.80 1.842334
395.90 1.814371
396.00 1.785266
396.10 1.738485
396.20 1.675885
396.30 1.602026
396.40 1.435819
396.50 1.533365
396.60 1.739138
396.70 1.786171
396.80 1.781748
396.90 1.773653
397.00 1.805802
397.10 1.856095
397.20 1.882035
397.30 1.886534
397.40 1.889202
397.50 1.891867
397.60 1.894418
397.70 1.895842
397.80 1.897263
397.90 1.898227
398.00 1.897956
398.10 1.897685
398.20 1.896725
398.30 1.894991
398.40 1.893215
398.50 1.890065
398.60 1.887027
398.70 1.882562
398.80 1.877732
398.90 1.872787
399.00 1.867622
399.10 1.861365
399.20 1.854114
399.30 1.84687
399.40 1.839633
399.50 1.832403
399.60 1.823893
399.70 1.814916
399.80 1.805947
399.90 1.796988
400.00 1.787994
400.10 1.777644
400.20 1.767671
400.30 1.755852
400.40 1.743778
400.50 1.730962
400.60 1.717627
400.70 1.703569
400.80 1.687895
400.90 1.669793
401.00 1.653816
401.10 1.641451
401.20 1.627861
401.30 1.613176
401.40 1.595877
401.50 1.577691
401.60 1.559329
401.70 1.534737
401.80 1.507673
401.90 1.475507
402.00 1.440497
402.10 1.397928
402.20 1.348854
402.30 1.291822
402.40 1.22689
402.50 1.153126
402.60 1.070478
402.70 1.123975
402.80 1.215791
402.90 1.293526
403.00 1.367456
403.10 1.426405
403.20 1.473462
403.30 1.512826
403.40 1.546993
403.50 1.575011
403.60 1.601603
403.70 1.624672
403.80 1.643839
403.90 1.658843
404.00 1.673294
404.10 1.683571
404.20 1.690151
404.30 1.696724
404.40 1.697652
404.50 1.68672
404.60 1.6808
404.70 1.686902
404.80 1.694652
404.90 1.70278
405.00 1.710306
405.10 1.717836
405.20 1.725221
405.30 1.732598
405.40 1.739266
405.50 1.745928
405.60 1.752582
405.70 1.75923
405.80 1.765871
405.90 1.772505
406.00 1.777545
406.10 1.78258
406.20 1.78761
406.30 1.792635
406.40 1.797661
406.50 1.801645
406.60 1.805782
406.70 1.809814
406.80 1.813927
406.90 1.817857
407.00 1.820529
407.10 1.823197
407.20 1.825862
407.30 1.828525
407.40 1.831184
407.50 1.833841
407.60 1.836495
407.70 1.839147
407.80 1.841795
407.90 1.844424
408.00 1.846501
408.10 1.848435
408.20 1.849641
408.30 1.850806
408.40 1.851969
408.50 1.853436
408.60 1.854097
408.70 1.854758
408.80 1.85536
408.90 1.855494
409.00 1.855629
409.10 1.855764
409.20 1.855898
409.30 1.856032
409.40 1.856154
409.50 1.855885
409.60 1.855617
409.70 1.855221
409.80 1.854316
409.90 1.853411
410.00 1.852507
410.10 1.851604
410.20 1.85042
410.30 1.849167
410.40 1.847644
410.50 1.845266
410.60 1.842891
410.70 1.840231
410.80 1.83643
410.90 1.832632
411.00 1.827806
411.10 1.822603
411.20 1.817404
411.30 1.811849
411.40 1.804751
411.50 1.794397
411.60 1.784052
411.70 1.771592
411.80 1.750645
411.90 1.726596
412.00 1.66957
412.10 1.441445
412.20 1.519154
412.30 1.580939
412.40 1.616335
412.50 1.639342
412.60 1.658874
412.70 1.672924
412.80 1.685596
412.90 1.697201
413.00 1.703928
413.10 1.706096
413.20 1.708261
413.30 1.710424
413.40 1.712584
413.50 1.714145
413.60 1.712732
413.70 1.709472
413.80 1.706214
413.90 1.70296
414.00 1.699019
414.10 1.692902
414.20 1.685413
414.30 1.670135
414.40 1.656987
414.50 1.659591
414.60 1.672017
414.70 1.683975
414.80 1.695076
414.90 1.703494
415.00 1.711902
415.10 1.720303
415.20 1.727927
415.30 1.73311
415.40 1.738289
415.50 1.743423
415.60 1.747297
415.70 1.751166
415.80 1.754939
415.90 1.758413
416.00 1.761884
416.10 1.765076
416.20 1.767162
416.30 1.769246
416.40 1.771328
416.50 1.773359
416.60 1.773816
416.70 1.774233
416.80 1.772872
416.90 1.765236
417.00 1.763535
417.10 1.769222
417.20 1.772723
417.30 1.776173
417.40 1.778085
417.50 1.779995
417.60 1.781797
417.70 1.783154
417.80 1.784035
417.90 1.784915
418.00 1.785794
418.10 1.786672
418.20 1.787549
418.30 1.788405
418.40 1.788653
418.50 1.788925
418.60 1.789196
418.70 1.789466
418.80 1.789736
418.90 1.790006
419.00 1.790275
419.10 1.790544
419.20 1.790812
419.30 1.791065
419.40 1.790819
419.50 1.790573
419.60 1.790322
419.70 1.79005
419.80 1.789778
419.90 1.789447
420.00 1.788931
420.10 1.788416
420.20 1.7879
420.30 1.787385
420.40 1.786871
420.50 1.786357
420.60 1.785842
420.70 1.785329
420.80 1.784815
420.90 1.784292
421.00 1.783444
421.10 1.782597
421.20 1.781751
421.30 1.780905
421.40 1.78006
421.50 1.779216
421.60 1.778372
421.70 1.777528
421.80 1.776686
421.90 1.775844
422.00 1.775002
422.10 1.774161
422.20 1.773321
422.30 1.772481
422.40 1.771637
422.50 1.770627
422.60 1.769618
422.70 1.768609
422.80 1.767601
422.90 1.766594
423.00 1.765588
423.10 1.764583
423.20 1.763578
423.30 1.762574
423.40 1.761571
423.50 1.760569
423.60 1.759567
423.70 1.758566
423.80 1.757566
423.90 1.756567
424.00 1.755568
424.10 1.75457
424.20 1.753573
424.30 1.752576
424.40 1.751611
424.50 1.750447
424.60 1.749283
424.70 1.74812
424.80 1.746958
