# Version 2.1 - nm, norm@500 to 1, cut digits, bergeron_He_7500_90.dat_7500
# Wavelength(nm)  Flambda(ergs/cm^s/s/nm)
300.00 1.167183
300.10 1.167572
300.20 1.167964
300.30 1.168351
300.40 1.168709
300.50 1.169067
300.60 1.169423
300.70 1.16978
300.80 1.170135
300.90 1.170489
301.00 1.170843
301.10 1.171196
301.20 1.171549
301.30 1.1719
301.40 1.172251
301.50 1.172602
301.60 1.172951
301.70 1.1733
301.80 1.173648
301.90 1.173995
302.00 1.174342
302.10 1.174689
302.20 1.175036
302.30 1.175382
302.40 1.175727
302.50 1.176071
302.60 1.176415
302.70 1.176758
302.80 1.1771
302.90 1.177442
303.00 1.177783
303.10 1.178123
303.20 1.178462
303.30 1.1788
303.40 1.179128
303.50 1.179455
303.60 1.179782
303.70 1.180108
303.80 1.180433
303.90 1.180757
304.00 1.181081
304.10 1.181404
304.20 1.181727
304.30 1.182048
304.40 1.182369
304.50 1.18269
304.60 1.183023
304.70 1.183356
304.80 1.183689
304.90 1.184022
305.00 1.184353
305.10 1.184684
305.20 1.185014
305.30 1.185344
305.40 1.185673
305.50 1.186001
305.60 1.186328
305.70 1.186655
305.80 1.186981
305.90 1.187306
306.00 1.187631
306.10 1.187955
306.20 1.188279
306.30 1.188601
306.40 1.188913
306.50 1.189222
306.60 1.18953
306.70 1.189837
306.80 1.190143
306.90 1.190449
307.00 1.190754
307.10 1.191059
307.20 1.191362
307.30 1.191666
307.40 1.191968
307.50 1.19227
307.60 1.192571
307.70 1.192872
307.80 1.193172
307.90 1.193471
308.00 1.19377
308.10 1.194068
308.20 1.194365
308.30 1.194662
308.40 1.194958
308.50 1.195254
308.60 1.195549
308.70 1.195843
308.80 1.196143
308.90 1.196462
309.00 1.196757
309.10 1.197052
309.20 1.197346
309.30 1.197639
309.40 1.197933
309.50 1.198231
309.60 1.198529
309.70 1.198827
309.80 1.199124
309.90 1.19942
310.00 1.199715
310.10 1.20001
310.20 1.200305
310.30 1.200598
310.40 1.200884
310.50 1.20116
310.60 1.201436
310.70 1.201711
310.80 1.201986
310.90 1.20226
311.00 1.202536
311.10 1.202812
311.20 1.203087
311.30 1.203361
311.40 1.203635
311.50 1.203909
311.60 1.204182
311.70 1.204454
311.80 1.204725
311.90 1.204996
312.00 1.205267
312.10 1.205537
312.20 1.205822
312.30 1.206073
312.40 1.206298
312.50 1.206632
312.60 1.206904
312.70 1.207176
312.80 1.207447
312.90 1.207709
313.00 1.207961
313.10 1.208213
313.20 1.208464
313.30 1.208721
313.40 1.208993
313.50 1.209266
313.60 1.209537
313.70 1.209808
313.80 1.210079
313.90 1.210348
314.00 1.210618
314.10 1.210879
314.20 1.21114
314.30 1.211401
314.40 1.21166
314.50 1.21192
314.60 1.212178
314.70 1.212436
314.80 1.212672
314.90 1.21287
315.00 1.213094
315.10 1.213354
315.20 1.213612
315.30 1.21387
315.40 1.214128
315.50 1.214385
315.60 1.214641
315.70 1.214897
315.80 1.215153
315.90 1.215407
316.00 1.215661
316.10 1.215915
316.20 1.216168
316.30 1.216348
316.40 1.2166
316.50 1.216851
316.60 1.217029
316.70 1.217279
316.80 1.217529
316.90 1.217778
317.00 1.218027
317.10 1.218275
317.20 1.218522
317.30 1.218754
317.40 1.218991
317.50 1.219243
317.60 1.219495
317.70 1.219746
317.80 1.219996
317.90 1.220179
318.00 1.220448
318.10 1.220654
318.20 1.22086
318.30 1.221066
318.40 1.22128
318.50 1.221521
318.60 1.221779
318.70 1.221947
318.80 1.222265
318.90 1.222424
319.00 1.222715
319.10 1.222952
319.20 1.223184
319.30 1.223403
319.40 1.223621
319.50 1.223839
319.60 1.223983
319.70 1.2242
319.80 1.224416
319.90 1.224632
320.00 1.224855
320.10 1.225087
320.20 1.225381
320.30 1.225513
320.40 1.225729
320.50 1.225974
320.60 1.226206
320.70 1.226364
320.80 1.226555
320.90 1.226783
321.00 1.227011
321.10 1.227238
321.20 1.227385
321.30 1.227599
321.40 1.227813
321.50 1.228027
321.60 1.22824
321.70 1.228453
321.80 1.228654
321.90 1.228843
322.00 1.229143
322.10 1.229343
322.20 1.229542
322.30 1.22974
322.40 1.229938
322.50 1.230136
322.60 1.230333
322.70 1.230529
322.80 1.230658
322.90 1.230865
323.00 1.231072
323.10 1.231279
323.20 1.231485
323.30 1.231691
323.40 1.231896
323.50 1.232101
323.60 1.232305
323.70 1.232509
323.80 1.232712
323.90 1.232915
324.00 1.233084
324.10 1.233252
324.20 1.233419
324.30 1.233623
324.40 1.233866
324.50 1.23404
324.60 1.234214
324.70 1.234387
324.80 1.23456
324.90 1.234732
325.00 1.234904
325.10 1.235075
325.20 1.235256
325.30 1.235458
325.40 1.235659
325.50 1.23585
325.60 1.236027
325.70 1.236204
325.80 1.236381
325.90 1.236562
326.00 1.236747
326.10 1.236932
326.20 1.237116
326.30 1.237282
326.40 1.237394
326.50 1.237569
326.60 1.237745
326.70 1.23792
326.80 1.238094
326.90 1.238268
327.00 1.238442
327.10 1.238615
327.20 1.238787
327.30 1.238959
327.40 1.239131
327.50 1.239303
327.60 1.239473
327.70 1.239644
327.80 1.239814
327.90 1.239982
328.00 1.240154
328.10 1.240334
328.20 1.240513
328.30 1.240691
328.40 1.240869
328.50 1.241032
328.60 1.24119
328.70 1.241349
328.80 1.241507
328.90 1.241666
329.00 1.241825
329.10 1.241983
329.20 1.242141
329.30 1.242299
329.40 1.242456
329.50 1.242613
329.60 1.242769
329.70 1.242925
329.80 1.243081
329.90 1.243236
330.00 1.243392
330.10 1.24355
330.20 1.243707
330.30 1.243864
330.40 1.244015
330.50 1.244159
330.60 1.244302
330.70 1.244445
330.80 1.244588
330.90 1.24473
331.00 1.244872
331.10 1.245014
331.20 1.245155
331.30 1.245295
331.40 1.245436
331.50 1.245583
331.60 1.245738
331.70 1.245893
331.80 1.246035
331.90 1.246177
332.00 1.246319
332.10 1.24646
332.20 1.2466
332.30 1.24674
332.40 1.24688
332.50 1.24702
332.60 1.247159
332.70 1.247298
332.80 1.247436
332.90 1.247574
333.00 1.247711
333.10 1.247846
333.20 1.247978
333.30 1.24811
333.40 1.248241
333.50 1.248372
333.60 1.248503
333.70 1.248633
333.80 1.248762
333.90 1.248892
334.00 1.249021
334.10 1.249147
334.20 1.249271
334.30 1.249395
334.40 1.249518
334.50 1.249641
334.60 1.249763
334.70 1.249889
334.80 1.250006
334.90 1.250104
335.00 1.250202
335.10 1.250302
335.20 1.250466
335.30 1.250528
335.40 1.250675
335.50 1.250837
335.60 1.25095
335.70 1.251018
335.80 1.251179
335.90 1.251311
336.00 1.251407
336.10 1.251502
336.20 1.251597
336.30 1.251701
336.40 1.251817
336.50 1.251933
336.60 1.252048
336.70 1.252163
336.80 1.252277
336.90 1.252392
337.00 1.252508
337.10 1.252624
337.20 1.252739
337.30 1.252855
337.40 1.252973
337.50 1.253091
337.60 1.253208
337.70 1.253325
337.80 1.253442
337.90 1.253551
338.00 1.253651
338.10 1.253751
338.20 1.253851
338.30 1.25395
338.40 1.254047
338.50 1.254138
338.60 1.254229
338.70 1.25432
338.80 1.25441
338.90 1.2545
339.00 1.254589
339.10 1.254679
339.20 1.254768
339.30 1.254862
339.40 1.254963
339.50 1.255062
339.60 1.255157
339.70 1.255253
339.80 1.255348
339.90 1.255442
340.00 1.255537
340.10 1.255631
340.20 1.255725
340.30 1.255818
340.40 1.255911
340.50 1.256004
340.60 1.256096
340.70 1.256188
340.80 1.256387
340.90 1.25674
341.00 1.256955
341.10 1.257002
341.20 1.257049
341.30 1.257096
341.40 1.257142
341.50 1.257188
341.60 1.257234
341.70 1.25728
341.80 1.257371
341.90 1.257517
342.00 1.257662
342.10 1.257808
342.20 1.257777
342.30 1.257759
342.40 1.257895
342.50 1.257996
342.60 1.258096
342.70 1.258196
342.80 1.258296
342.90 1.258396
343.00 1.258396
343.10 1.258277
343.20 1.258157
343.30 1.258037
343.40 1.258005
343.50 1.258097
343.60 1.258189
343.70 1.258281
343.80 1.258372
343.90 1.258464
344.00 1.258596
344.10 1.25879
344.20 1.258982
344.30 1.259175
344.40 1.259241
344.50 1.259125
344.60 1.258787
344.70 1.259255
344.80 1.259752
344.90 1.259666
345.00 1.25977
345.10 1.259653
345.20 1.259624
345.30 1.259722
345.40 1.259819
345.50 1.260073
345.60 1.260372
345.70 1.260457
345.80 1.260542
345.90 1.260626
346.00 1.260711
346.10 1.260795
346.20 1.260845
346.30 1.260847
346.40 1.260849
346.50 1.260851
346.60 1.260853
346.70 1.260854
346.80 1.260856
346.90 1.260856
347.00 1.260857
347.10 1.260858
347.20 1.260865
347.30 1.260883
347.40 1.2609
347.50 1.260917
347.60 1.260934
347.70 1.26095
347.80 1.260967
347.90 1.260983
348.00 1.260999
348.10 1.261014
348.20 1.26103
348.30 1.261045
348.40 1.26106
348.50 1.261075
348.60 1.261089
348.70 1.261219
348.80 1.261348
348.90 1.261425
349.00 1.261501
349.10 1.261577
349.20 1.261652
349.30 1.261728
349.40 1.261803
349.50 1.261878
349.60 1.261952
349.70 1.262026
349.80 1.2621
349.90 1.262174
350.00 1.262247
350.10 1.26232
350.20 1.262392
350.30 1.262449
350.40 1.262481
350.50 1.262514
350.60 1.262546
350.70 1.262578
350.80 1.26261
350.90 1.262641
351.00 1.262672
351.10 1.262703
351.20 1.262734
351.30 1.262765
351.40 1.26281
351.50 1.262884
351.60 1.262957
351.70 1.26303
351.80 1.263103
351.90 1.263175
352.00 1.263247
352.10 1.263319
352.20 1.263391
352.30 1.26343
352.40 1.263422
352.50 1.263414
352.60 1.263405
352.70 1.263396
352.80 1.263387
352.90 1.263378
353.00 1.263369
353.10 1.263359
353.20 1.263349
353.30 1.263339
353.40 1.263329
353.50 1.263387
353.60 1.263461
353.70 1.263535
353.80 1.263609
353.90 1.263633
354.00 1.26357
354.10 1.263507
354.20 1.263444
354.30 1.26338
354.40 1.263317
354.50 1.263253
354.60 1.263189
354.70 1.263125
354.80 1.263119
354.90 1.263195
355.00 1.263272
355.10 1.263348
355.20 1.263424
355.30 1.263518
355.40 1.263611
355.50 1.263704
355.60 1.263797
355.70 1.263677
355.80 1.263462
355.90 1.263809
356.00 1.264085
356.10 1.264093
356.20 1.2641
356.30 1.264107
356.40 1.264114
356.50 1.264121
356.60 1.264128
356.70 1.264134
356.80 1.26414
356.90 1.264146
357.00 1.264152
357.10 1.264157
357.20 1.264163
357.30 1.264168
357.40 1.264161
357.50 1.264134
357.60 1.264107
357.70 1.264079
357.80 1.263891
357.90 1.263703
358.00 1.263624
358.10 1.263572
358.20 1.263521
358.30 1.263469
358.40 1.263417
358.50 1.263365
358.60 1.263313
358.70 1.263261
358.80 1.263209
358.90 1.263156
359.00 1.263235
359.10 1.263546
359.20 1.263789
359.30 1.263571
359.40 1.263353
359.50 1.263392
359.60 1.263496
359.70 1.2636
359.80 1.263752
359.90 1.263903
360.00 1.263974
360.10 1.263901
360.20 1.263827
360.30 1.263754
360.40 1.263681
360.50 1.263607
360.60 1.263216
360.70 1.263357
360.80 1.263498
360.90 1.263638
361.00 1.263476
361.10 1.263398
361.20 1.263196
361.30 1.263615
361.40 1.262916
361.50 1.263334
361.60 1.263038
361.70 1.263455
361.80 1.263627
361.90 1.263364
362.00 1.263102
362.10 1.26311
362.20 1.26317
362.30 1.263205
362.40 1.263239
362.50 1.263273
362.60 1.263307
362.70 1.263373
362.80 1.263169
362.90 1.263024
363.00 1.26288
363.10 1.263191
363.20 1.263506
363.30 1.263012
363.40 1.263423
363.50 1.262728
363.60 1.263137
363.70 1.263056
363.80 1.262852
363.90 1.262945
364.00 1.263038
364.10 1.263131
364.20 1.263224
364.30 1.263176
364.40 1.263094
364.50 1.262408
364.60 1.262445
364.70 1.262482
364.80 1.262519
364.90 1.262375
365.00 1.262232
365.10 1.262635
365.20 1.262491
365.30 1.262347
365.40 1.26275
365.50 1.262605
365.60 1.26246
365.70 1.262266
365.80 1.262072
365.90 1.261966
366.00 1.261882
366.10 1.261995
366.20 1.262109
366.30 1.262222
366.40 1.262334
366.50 1.261701
366.60 1.262099
366.70 1.261822
366.80 1.261545
366.90 1.261401
367.00 1.261494
367.10 1.261586
367.20 1.261678
367.30 1.261769
367.40 1.26186
367.50 1.26181
367.60 1.261723
367.70 1.261605
367.80 1.261487
367.90 1.261369
368.00 1.261138
368.10 1.261517
368.20 1.261404
368.30 1.261283
368.40 1.261162
368.50 1.261041
368.60 1.26092
368.70 1.260799
368.80 1.260678
368.90 1.261045
369.00 1.261218
369.10 1.261127
369.20 1.260449
369.30 1.26048
369.40 1.260511
369.50 1.260542
369.60 1.260391
369.70 1.260241
369.80 1.260422
369.90 1.260605
370.00 1.260788
370.10 1.260721
370.20 1.260567
370.30 1.260418
370.40 1.260249
370.50 1.260127
370.60 1.26051
370.70 1.25983
370.80 1.259678
370.90 1.259527
371.00 1.259909
371.10 1.260295
371.20 1.260143
371.30 1.259991
371.40 1.259531
371.50 1.259444
371.60 1.259357
371.70 1.259269
371.80 1.259182
371.90 1.259095
372.00 1.259479
372.10 1.258802
372.20 1.258828
372.30 1.258854
372.40 1.258879
372.50 1.258905
372.60 1.25893
372.70 1.258955
372.80 1.258803
372.90 1.25865
373.00 1.258502
373.10 1.258355
373.20 1.258204
373.30 1.258054
373.40 1.258427
373.50 1.258277
373.60 1.258126
373.70 1.258498
373.80 1.258054
373.90 1.258196
374.00 1.258045
374.10 1.257894
374.20 1.257744
374.30 1.257593
374.40 1.257572
374.50 1.25729
374.60 1.257394
374.70 1.257504
374.80 1.257615
374.90 1.257725
375.00 1.2574
375.10 1.257075
375.20 1.256751
375.30 1.256674
375.40 1.256596
375.50 1.256519
375.60 1.256441
375.70 1.256363
375.80 1.256285
375.90 1.256207
376.00 1.256561
376.10 1.256571
376.20 1.256577
376.30 1.256583
376.40 1.256589
376.50 1.256468
376.60 1.256155
376.70 1.255843
376.80 1.255713
376.90 1.255766
377.00 1.255818
377.10 1.25587
377.20 1.255905
377.30 1.255878
377.40 1.255851
377.50 1.255824
377.60 1.255604
377.70 1.255384
377.80 1.255165
377.90 1.254945
378.00 1.254547
378.10 1.254469
378.20 1.254396
378.30 1.254323
378.40 1.25425
378.50 1.254177
378.60 1.254104
378.70 1.254031
378.80 1.253958
378.90 1.253942
379.00 1.254033
379.10 1.254184
379.20 1.254335
379.30 1.254243
379.40 1.253909
379.50 1.253576
379.60 1.253452
379.70 1.253593
379.80 1.253549
379.90 1.253504
380.00 1.253459
380.10 1.253414
380.20 1.253369
380.30 1.253324
380.40 1.253279
380.50 1.253234
380.60 1.252764
380.70 1.252564
380.80 1.252364
380.90 1.252164
381.00 1.251964
381.10 1.251935
381.20 1.252101
381.30 1.252002
381.40 1.251706
381.50 1.252079
381.60 1.252039
381.70 1.251643
381.80 1.25173
381.90 1.251574
382.00 1.251419
382.10 1.251264
382.20 1.251309
382.30 1.251154
382.40 1.251072
382.50 1.251099
382.60 1.251126
382.70 1.250832
382.80 1.250527
382.90 1.25057
383.00 1.250613
383.10 1.250656
383.20 1.250668
383.30 1.250564
383.40 1.250241
383.50 1.249589
383.60 1.249977
383.70 1.249848
383.80 1.249719
383.90 1.24959
384.00 1.249461
384.10 1.249332
384.20 1.249203
384.30 1.249074
384.40 1.248915
384.50 1.248725
384.60 1.248536
384.70 1.248347
384.80 1.248302
384.90 1.248546
385.00 1.24832
385.10 1.248086
385.20 1.247673
385.30 1.247524
385.40 1.24747
385.50 1.24751
385.60 1.24755
385.70 1.247589
385.80 1.247604
385.90 1.247531
386.00 1.247519
386.10 1.247539
386.20 1.247271
386.30 1.247003
386.40 1.246785
386.50 1.246878
386.60 1.246233
386.70 1.246565
386.80 1.246164
386.90 1.246252
387.00 1.246119
387.10 1.245938
387.20 1.246
387.30 1.245625
387.40 1.245955
387.50 1.245312
387.60 1.245743
387.70 1.245586
387.80 1.245429
387.90 1.245272
388.00 1.245013
388.10 1.244519
388.20 1.244853
388.30 1.244519
388.40 1.244186
388.50 1.244042
388.60 1.244071
388.70 1.244305
388.80 1.243757
388.90 1.244023
389.00 1.243443
389.10 1.243769
389.20 1.243548
389.30 1.243627
389.40 1.243482
389.50 1.24314
389.60 1.242736
389.70 1.242997
389.80 1.242849
389.90 1.242702
390.00 1.242554
390.10 1.242407
390.20 1.242259
390.30 1.242154
390.40 1.242095
390.50 1.242037
390.60 1.241979
390.70 1.24192
390.80 1.241843
390.90 1.241748
391.00 1.241383
391.10 1.241212
391.20 1.240943
391.30 1.240608
391.40 1.240609
391.50 1.24061
391.60 1.240611
391.70 1.240612
391.80 1.240613
391.90 1.240316
392.00 1.239848
392.10 1.239626
392.20 1.239513
392.30 1.239685
392.40 1.239104
392.50 1.239369
392.60 1.239377
392.70 1.239054
392.80 1.239062
392.90 1.238914
393.00 1.238787
393.10 1.238744
393.20 1.23878
393.30 1.238622
393.40 1.238421
393.50 1.237792
393.60 1.238105
393.70 1.237476
393.80 1.237831
393.90 1.237673
394.00 1.237473
394.10 1.237069
394.20 1.236919
394.30 1.236938
394.40 1.236841
394.50 1.236214
394.60 1.236111
394.70 1.236079
394.80 1.236312
394.90 1.236519
395.00 1.235893
395.10 1.235924
395.20 1.235821
395.30 1.2355
395.40 1.235179
395.50 1.235191
395.60 1.235325
395.70 1.235333
395.80 1.235002
395.90 1.234671
396.00 1.234416
396.10 1.234746
396.20 1.234588
396.30 1.234304
396.40 1.233844
396.50 1.233988
396.60 1.233528
396.70 1.233672
396.80 1.233427
396.90 1.233355
397.00 1.232734
397.10 1.232885
397.20 1.232625
397.30 1.23288
397.40 1.232841
397.50 1.232801
397.60 1.232739
397.70 1.232447
397.80 1.232154
397.90 1.231863
398.00 1.231573
398.10 1.231283
398.20 1.231194
398.30 1.23133
398.40 1.231443
398.50 1.230825
398.60 1.230929
398.70 1.230808
398.80 1.230566
398.90 1.23043
399.00 1.230493
399.10 1.229914
399.20 1.229718
399.30 1.229522
399.40 1.229326
399.50 1.229131
399.60 1.229055
399.70 1.229023
399.80 1.228991
399.90 1.228959
400.00 1.22891
400.10 1.228295
400.20 1.228593
400.30 1.228267
400.40 1.228014
400.50 1.227663
400.60 1.227382
400.70 1.227224
400.80 1.227643
400.90 1.227179
401.00 1.227327
401.10 1.226715
401.20 1.226815
401.30 1.226399
401.40 1.226278
401.50 1.226338
401.60 1.226398
401.70 1.226484
401.80 1.226061
401.90 1.225924
402.00 1.225745
402.10 1.225135
402.20 1.225428
402.30 1.224819
402.40 1.225112
402.50 1.224503
402.60 1.224796
402.70 1.224188
402.80 1.22448
402.90 1.224231
403.00 1.224073
403.10 1.223556
403.20 1.223868
403.30 1.223951
403.40 1.223531
403.50 1.223344
403.60 1.223215
403.70 1.222609
403.80 1.222914
403.90 1.222817
404.00 1.222582
404.10 1.221977
404.20 1.221819
404.30 1.221662
404.40 1.22195
404.50 1.221792
404.60 1.221634
404.70 1.22103
404.80 1.221318
404.90 1.220715
405.00 1.220811
405.10 1.220653
405.20 1.220369
405.30 1.220084
405.40 1.219926
405.50 1.219768
405.60 1.219611
405.70 1.219453
405.80 1.219295
405.90 1.219137
406.00 1.219071
406.10 1.219005
406.20 1.218939
406.30 1.218873
406.40 1.218791
406.50 1.218414
406.60 1.218475
406.70 1.218152
406.80 1.217898
406.90 1.217574
407.00 1.217416
407.10 1.217259
407.20 1.217101
407.30 1.216943
407.40 1.216786
407.50 1.216628
407.60 1.216471
407.70 1.216313
407.80 1.216156
407.90 1.215999
408.00 1.215882
408.10 1.21567
408.20 1.215302
408.30 1.214992
408.40 1.214683
408.50 1.21504
408.60 1.214748
408.70 1.214456
408.80 1.214241
408.90 1.21449
409.00 1.214231
409.10 1.213973
409.20 1.213714
409.30 1.213455
409.40 1.213206
409.50 1.213228
409.60 1.213251
409.70 1.21323
409.80 1.213039
409.90 1.212836
410.00 1.212244
410.10 1.212376
410.20 1.212201
410.30 1.211949
410.40 1.211684
410.50 1.211379
410.60 1.211073
410.70 1.210781
410.80 1.210542
410.90 1.210303
411.00 1.210166
411.10 1.210067
411.20 1.209967
411.30 1.209918
411.40 1.210054
411.50 1.20977
411.60 1.209487
411.70 1.209229
411.80 1.209072
411.90 1.20883
412.00 1.209103
412.10 1.208516
412.20 1.20793
412.30 1.208203
412.40 1.207648
412.50 1.207889
412.60 1.207304
412.70 1.207252
412.80 1.207334
412.90 1.207262
413.00 1.2068
413.10 1.206725
413.20 1.20665
413.30 1.206575
413.40 1.2065
413.50 1.206323
413.60 1.205842
413.70 1.205685
413.80 1.205529
413.90 1.205372
414.00 1.205216
414.10 1.20506
414.20 1.204801
414.30 1.20422
414.40 1.204319
414.50 1.203907
414.60 1.204278
414.70 1.204122
414.80 1.203914
414.90 1.203546
415.00 1.203178
415.10 1.20281
415.20 1.202518
415.30 1.202467
415.40 1.202415
415.50 1.202356
415.60 1.202081
415.70 1.201805
415.80 1.20159
415.90 1.201568
416.00 1.201545
416.10 1.201452
416.20 1.201077
416.30 1.200702
416.40 1.200327
416.50 1.199959
416.60 1.199804
416.70 1.199699
416.80 1.1999
416.90 1.199776
417.00 1.199589
417.10 1.199026
417.20 1.198871
417.30 1.198712
417.40 1.198434
417.50 1.198156
417.60 1.197961
417.70 1.198094
417.80 1.197939
417.90 1.197783
418.00 1.197628
418.10 1.197473
418.20 1.197318
418.30 1.19715
418.40 1.196665
418.50 1.196455
418.60 1.196245
418.70 1.196035
418.80 1.195826
418.90 1.195616
419.00 1.195406
419.10 1.195197
419.20 1.194988
419.30 1.194785
419.40 1.194802
419.50 1.194819
419.60 1.194774
419.70 1.194485
419.80 1.194195
419.90 1.193917
420.00 1.193673
420.10 1.193429
420.20 1.193185
420.30 1.192941
420.40 1.192697
420.50 1.192453
420.60 1.192209
420.70 1.191966
420.80 1.191722
420.90 1.191487
421.00 1.191513
421.10 1.19154
421.20 1.191506
421.30 1.191292
421.40 1.191079
421.50 1.190865
421.60 1.190652
421.70 1.190439
421.80 1.190225
421.90 1.190024
422.00 1.189862
422.10 1.189672
422.20 1.189366
422.30 1.189061
422.40 1.18876
422.50 1.188569
422.60 1.188379
422.70 1.188188
422.80 1.187997
422.90 1.187807
423.00 1.187616
423.10 1.187426
423.20 1.187235
423.30 1.187045
423.40 1.186854
423.50 1.186664
423.60 1.186474
423.70 1.186284
423.80 1.186094
423.90 1.185903
424.00 1.185713
424.10 1.185523
424.20 1.185333
424.30 1.185144
424.40 1.184875
424.50 1.184644
424.60 1.184413
424.70 1.184183
424.80 1.183952
424.90 1.183721
425.00 1.183491
