# Version 2.1 - nm, norm@500 to 1, cut digits, bergeron_He_7500_70.dat_7500
# Wavelength(nm)  Flambda(ergs/cm^s/s/nm)
300.00 1.076485
300.10 1.076953
300.20 1.07742
300.30 1.077884
300.40 1.078335
300.50 1.078784
300.60 1.079233
300.70 1.079681
300.80 1.080129
300.90 1.080575
301.00 1.081021
301.10 1.081465
301.20 1.081909
301.30 1.082352
301.40 1.082795
301.50 1.083236
301.60 1.083677
301.70 1.084117
301.80 1.084556
301.90 1.084994
302.00 1.085431
302.10 1.08588
302.20 1.08633
302.30 1.086779
302.40 1.087227
302.50 1.087674
302.60 1.088121
302.70 1.088567
302.80 1.089011
302.90 1.089455
303.00 1.089898
303.10 1.090341
303.20 1.090782
303.30 1.091222
303.40 1.091657
303.50 1.09209
303.60 1.092523
303.70 1.092954
303.80 1.093385
303.90 1.093815
304.00 1.094245
304.10 1.094673
304.20 1.095101
304.30 1.095528
304.40 1.095954
304.50 1.09638
304.60 1.096799
304.70 1.097217
304.80 1.097633
304.90 1.09805
305.00 1.098465
305.10 1.09888
305.20 1.099294
305.30 1.099707
305.40 1.100119
305.50 1.100531
305.60 1.100941
305.70 1.101351
305.80 1.101761
305.90 1.102169
306.00 1.102577
306.10 1.102984
306.20 1.10339
306.30 1.103795
306.40 1.104205
306.50 1.104616
306.60 1.105026
306.70 1.105435
306.80 1.105844
306.90 1.106251
307.00 1.106658
307.10 1.107065
307.20 1.10747
307.30 1.107875
307.40 1.108279
307.50 1.108682
307.60 1.109084
307.70 1.109486
307.80 1.109887
307.90 1.110287
308.00 1.110686
308.10 1.111085
308.20 1.111483
308.30 1.11188
308.40 1.112276
308.50 1.112672
308.60 1.113067
308.70 1.113461
308.80 1.113839
308.90 1.114172
309.00 1.114573
309.10 1.114974
309.20 1.115374
309.30 1.115774
309.40 1.116169
309.50 1.116543
309.60 1.116917
309.70 1.11729
309.80 1.117662
309.90 1.118034
310.00 1.118404
310.10 1.118775
310.20 1.119144
310.30 1.119513
310.40 1.119895
310.50 1.120293
310.60 1.120691
310.70 1.121087
310.80 1.121483
310.90 1.121878
311.00 1.122246
311.10 1.122614
311.20 1.122981
311.30 1.123348
311.40 1.123717
311.50 1.124084
311.60 1.124451
311.70 1.124818
311.80 1.125183
311.90 1.125548
312.00 1.125912
312.10 1.126276
312.20 1.126638
312.30 1.126968
312.40 1.127288
312.50 1.127649
312.60 1.128012
312.70 1.128374
312.80 1.128736
312.90 1.129101
313.00 1.129469
313.10 1.129837
313.20 1.130204
313.30 1.130565
313.40 1.13091
313.50 1.131254
313.60 1.131598
313.70 1.13194
313.80 1.132283
313.90 1.132624
314.00 1.132965
314.10 1.133313
314.20 1.13366
314.30 1.134007
314.40 1.134353
314.50 1.134699
314.60 1.135043
314.70 1.135387
314.80 1.135738
314.90 1.136091
315.00 1.136425
315.10 1.136767
315.20 1.137109
315.30 1.13745
315.40 1.13779
315.50 1.13813
315.60 1.138469
315.70 1.138807
315.80 1.139145
315.90 1.139482
316.00 1.139818
316.10 1.140154
316.20 1.140489
316.30 1.140824
316.40 1.141158
316.50 1.141491
316.60 1.141823
316.70 1.142155
316.80 1.142486
316.90 1.142817
317.00 1.143147
317.10 1.143476
317.20 1.143805
317.30 1.144129
317.40 1.144453
317.50 1.144782
317.60 1.145109
317.70 1.145436
317.80 1.145763
317.90 1.14605
318.00 1.146404
318.10 1.146726
318.20 1.147049
318.30 1.14737
318.40 1.147691
318.50 1.148012
318.60 1.148331
318.70 1.148651
318.80 1.148976
318.90 1.149287
319.00 1.149604
319.10 1.149921
319.20 1.150233
319.30 1.150536
319.40 1.150838
319.50 1.151139
319.60 1.151491
319.70 1.151791
319.80 1.152091
319.90 1.15239
320.00 1.152694
320.10 1.153005
320.20 1.153265
320.30 1.153624
320.40 1.15385
320.50 1.15424
320.60 1.154548
320.70 1.154855
320.80 1.155144
320.90 1.155416
321.00 1.155687
321.10 1.155957
321.20 1.156289
321.30 1.156584
321.40 1.156878
321.50 1.157172
321.60 1.157465
321.70 1.157758
321.80 1.158049
321.90 1.15834
322.00 1.158682
322.10 1.158958
322.20 1.159234
322.30 1.15951
322.40 1.159784
322.50 1.160059
322.60 1.160332
322.70 1.160606
322.80 1.160934
322.90 1.161223
323.00 1.161511
323.10 1.161798
323.20 1.162085
323.30 1.162371
323.40 1.162656
323.50 1.162941
323.60 1.163226
323.70 1.163509
323.80 1.163793
323.90 1.164075
324.00 1.164325
324.10 1.164574
324.20 1.164823
324.30 1.165088
324.40 1.165385
324.50 1.165666
324.60 1.165947
324.70 1.166227
324.80 1.166507
324.90 1.166786
325.00 1.167064
325.10 1.167342
325.20 1.167613
325.30 1.167869
325.40 1.168124
325.50 1.168378
325.60 1.168631
325.70 1.168883
325.80 1.169134
325.90 1.169403
326.00 1.16969
326.10 1.169977
326.20 1.170263
326.30 1.170533
326.40 1.17076
326.50 1.171016
326.60 1.171272
326.70 1.171527
326.80 1.171782
326.90 1.172036
327.00 1.17229
327.10 1.172543
327.20 1.172795
327.30 1.173047
327.40 1.173299
327.50 1.173549
327.60 1.1738
327.70 1.17405
327.80 1.174299
327.90 1.174573
328.00 1.174847
328.10 1.17509
328.20 1.175332
328.30 1.175573
328.40 1.175814
328.50 1.176054
328.60 1.176293
328.70 1.176532
328.80 1.176771
328.90 1.177015
329.00 1.177257
329.10 1.1775
329.20 1.177742
329.30 1.177983
329.40 1.178224
329.50 1.178464
329.60 1.178704
329.70 1.178943
329.80 1.179182
329.90 1.17942
330.00 1.179654
330.10 1.179883
330.20 1.180112
330.30 1.18034
330.40 1.18057
330.50 1.180803
330.60 1.181034
330.70 1.181266
330.80 1.181496
330.90 1.181727
331.00 1.181956
331.10 1.182186
331.20 1.182414
331.30 1.182643
331.40 1.182871
331.50 1.183091
331.60 1.183303
331.70 1.183515
331.80 1.183738
331.90 1.183962
332.00 1.184185
332.10 1.184407
332.20 1.184629
332.30 1.184851
332.40 1.185072
332.50 1.185292
332.60 1.185512
332.70 1.185732
332.80 1.185951
332.90 1.186169
333.00 1.186387
333.10 1.186603
333.20 1.186817
333.30 1.18703
333.40 1.187243
333.50 1.187455
333.60 1.187667
333.70 1.187878
333.80 1.188089
333.90 1.188299
334.00 1.188509
334.10 1.188711
334.20 1.188903
334.30 1.189095
334.40 1.189286
334.50 1.189477
334.60 1.189667
334.70 1.189887
334.80 1.19012
334.90 1.190319
335.00 1.190519
335.10 1.190673
335.20 1.190903
335.30 1.191132
335.40 1.19136
335.50 1.191463
335.60 1.191691
335.70 1.191918
335.80 1.192144
335.90 1.192357
336.00 1.192551
336.10 1.192745
336.20 1.192939
336.30 1.193127
336.40 1.19331
336.50 1.193492
336.60 1.193673
336.70 1.193854
336.80 1.194035
336.90 1.194216
337.00 1.194397
337.10 1.194578
337.20 1.194759
337.30 1.19494
337.40 1.195124
337.50 1.195308
337.60 1.195491
337.70 1.195674
337.80 1.195857
337.90 1.196047
338.00 1.196247
338.10 1.196446
338.20 1.196645
338.30 1.196844
338.40 1.197033
338.50 1.197197
338.60 1.197361
338.70 1.197525
338.80 1.197689
338.90 1.197852
339.00 1.198014
339.10 1.198176
339.20 1.198338
339.30 1.198528
339.40 1.198757
339.50 1.198957
339.60 1.199122
339.70 1.199286
339.80 1.19945
339.90 1.199613
340.00 1.199776
340.10 1.199939
340.20 1.200101
340.30 1.200263
340.40 1.200425
340.50 1.200586
340.60 1.200746
340.70 1.200907
340.80 1.201067
340.90 1.201228
341.00 1.201387
341.10 1.201545
341.20 1.201703
341.30 1.20186
341.40 1.202016
341.50 1.202173
341.60 1.202329
341.70 1.202484
341.80 1.202687
341.90 1.202947
342.00 1.203207
342.10 1.203466
342.20 1.203532
342.30 1.20352
342.40 1.203658
342.50 1.20376
342.60 1.203863
342.70 1.203965
342.80 1.204067
342.90 1.204168
343.00 1.204308
343.10 1.204494
343.20 1.20468
343.30 1.204865
343.40 1.205013
343.50 1.205107
343.60 1.205201
343.70 1.205294
343.80 1.205387
343.90 1.20548
344.00 1.205613
344.10 1.205804
344.20 1.205995
344.30 1.206185
344.40 1.206497
344.50 1.206983
344.60 1.206982
344.70 1.206904
344.80 1.206796
344.90 1.20725
345.00 1.207036
345.10 1.207518
345.20 1.207843
345.30 1.207942
345.40 1.20804
345.50 1.208289
345.60 1.208581
345.70 1.208667
345.80 1.208753
345.90 1.208839
346.00 1.208924
346.10 1.209009
346.20 1.20911
346.30 1.209234
346.40 1.209357
346.50 1.20948
346.60 1.209603
346.70 1.209725
346.80 1.209847
346.90 1.209968
347.00 1.21009
347.10 1.21021
347.20 1.210323
347.30 1.210423
347.40 1.210522
347.50 1.210621
347.60 1.21072
347.70 1.210819
347.80 1.210917
347.90 1.211015
348.00 1.211113
348.10 1.21121
348.20 1.211307
348.30 1.211404
348.40 1.211501
348.50 1.211597
348.60 1.211693
348.70 1.211839
348.80 1.211998
348.90 1.212152
349.00 1.212305
349.10 1.212458
349.20 1.21261
349.30 1.212762
349.40 1.212914
349.50 1.213065
349.60 1.213216
349.70 1.213366
349.80 1.213517
349.90 1.213666
350.00 1.213816
350.10 1.213965
350.20 1.214114
350.30 1.214215
350.40 1.214248
350.50 1.214282
350.60 1.214315
350.70 1.214347
350.80 1.21438
350.90 1.214412
351.00 1.214444
351.10 1.214476
351.20 1.214508
351.30 1.214539
351.40 1.21464
351.50 1.214866
351.60 1.215091
351.70 1.215315
351.80 1.21554
351.90 1.215763
352.00 1.215987
352.10 1.216209
352.20 1.216296
352.30 1.216375
352.40 1.216466
352.50 1.216557
352.60 1.216647
352.70 1.216737
352.80 1.216827
352.90 1.216916
353.00 1.217006
353.10 1.217094
353.20 1.217183
353.30 1.217271
353.40 1.217359
353.50 1.217435
353.60 1.217507
353.70 1.217579
353.80 1.217651
353.90 1.217721
354.00 1.217786
354.10 1.217851
354.20 1.217916
354.30 1.21798
354.40 1.218044
354.50 1.218108
354.60 1.218172
354.70 1.218236
354.80 1.218303
354.90 1.218377
355.00 1.218451
355.10 1.218524
355.20 1.218597
355.30 1.218688
355.40 1.218778
355.50 1.218868
355.60 1.218958
355.70 1.218842
355.80 1.218634
355.90 1.218969
356.00 1.219297
356.10 1.219381
356.20 1.219465
356.30 1.219549
356.40 1.219632
356.50 1.219715
356.60 1.219798
356.70 1.21988
356.80 1.219962
356.90 1.220044
357.00 1.220126
357.10 1.220207
357.20 1.220288
357.30 1.220369
357.40 1.220411
357.50 1.220384
357.60 1.220357
357.70 1.22033
357.80 1.220148
357.90 1.219966
358.00 1.219973
358.10 1.220028
358.20 1.220083
358.30 1.220137
358.40 1.220191
358.50 1.220245
358.60 1.220299
358.70 1.220352
358.80 1.220405
358.90 1.220458
359.00 1.2206
359.10 1.220899
359.20 1.221193
359.30 1.221449
359.40 1.221705
359.50 1.221524
359.60 1.221234
359.70 1.220943
359.80 1.221089
359.90 1.221234
360.00 1.221373
360.10 1.221504
360.20 1.221634
360.30 1.221764
360.40 1.221893
360.50 1.222023
360.60 1.221645
360.70 1.22178
360.80 1.221914
360.90 1.222047
361.00 1.221889
361.10 1.221812
361.20 1.222695
361.30 1.222018
361.40 1.222366
361.50 1.222174
361.60 1.222338
361.70 1.222201
361.80 1.222172
361.90 1.222336
362.00 1.2225
362.10 1.22259
362.20 1.222646
362.30 1.222677
362.40 1.222707
362.50 1.222738
362.60 1.222768
362.70 1.222829
362.80 1.22263
362.90 1.223021
363.00 1.22341
363.10 1.22323
363.20 1.223043
363.30 1.223534
363.40 1.223128
363.50 1.223254
363.60 1.223114
363.70 1.223565
363.80 1.223365
363.90 1.223452
364.00 1.223539
364.10 1.223625
364.20 1.223712
364.30 1.223663
364.40 1.223581
364.50 1.222916
364.60 1.222949
364.70 1.222982
364.80 1.223015
364.90 1.223402
365.00 1.223789
365.10 1.223646
365.20 1.223504
365.30 1.223889
365.40 1.22322
365.50 1.223604
365.60 1.223988
365.70 1.223798
365.80 1.223607
365.90 1.223501
366.00 1.223417
366.10 1.223523
366.20 1.223628
366.30 1.223734
366.40 1.223839
366.50 1.224262
366.60 1.223606
366.70 1.223732
366.80 1.223857
366.90 1.223968
367.00 1.224053
367.10 1.224138
367.20 1.224223
367.30 1.224307
367.40 1.224391
367.50 1.224338
367.60 1.224251
367.70 1.224133
367.80 1.224015
367.90 1.223897
368.00 1.22419
368.10 1.224044
368.20 1.224053
368.30 1.224069
368.40 1.224084
368.50 1.2241
368.60 1.224115
368.70 1.224129
368.80 1.224144
368.90 1.223914
369.00 1.224165
369.10 1.224644
369.20 1.223992
369.30 1.224017
369.40 1.224042
369.50 1.224068
369.60 1.224431
369.70 1.224793
369.80 1.224692
369.90 1.224586
370.00 1.224481
370.10 1.224213
370.20 1.224061
370.30 1.223913
370.40 1.224284
370.50 1.224123
370.60 1.223988
370.70 1.224352
370.80 1.224201
370.90 1.22405
371.00 1.224413
371.10 1.224781
371.20 1.22463
371.30 1.224478
371.40 1.224098
371.50 1.224199
371.60 1.224299
371.70 1.2244
371.80 1.2245
371.90 1.2246
372.00 1.22424
372.10 1.224308
372.20 1.224328
372.30 1.224347
372.40 1.224367
372.50 1.224386
372.60 1.224405
372.70 1.224424
372.80 1.224271
372.90 1.224118
373.00 1.22397
373.10 1.223822
373.20 1.224178
373.30 1.224532
373.40 1.223876
373.50 1.22423
373.60 1.224079
373.70 1.223928
373.80 1.224502
373.90 1.224634
374.00 1.224482
374.10 1.224331
374.20 1.224179
374.30 1.224028
374.40 1.224001
374.50 1.223724
374.60 1.223818
374.70 1.223919
374.80 1.224019
374.90 1.22412
375.00 1.224134
375.10 1.224149
375.20 1.224163
375.30 1.224082
375.40 1.224001
375.50 1.22392
375.60 1.223838
375.70 1.223757
375.80 1.223675
375.90 1.223594
376.00 1.223929
376.10 1.223932
376.20 1.223932
376.30 1.223931
376.40 1.223931
376.50 1.223944
376.60 1.223979
376.70 1.224013
376.80 1.223937
376.90 1.223749
377.00 1.223562
377.10 1.223375
377.20 1.22322
377.30 1.223188
377.40 1.223156
377.50 1.223123
377.60 1.22312
377.70 1.223116
377.80 1.223112
377.90 1.223107
378.00 1.222846
378.10 1.222876
378.20 1.222913
378.30 1.22295
378.40 1.222986
378.50 1.223023
378.60 1.223059
378.70 1.223095
378.80 1.223131
378.90 1.223182
379.00 1.223263
379.10 1.223009
379.20 1.222756
379.30 1.222623
379.40 1.222609
379.50 1.222596
379.60 1.222658
379.70 1.222787
379.80 1.222737
379.90 1.222687
380.00 1.222637
380.10 1.222586
380.20 1.222536
380.30 1.222485
380.40 1.222434
380.50 1.222383
380.60 1.222012
380.70 1.222032
380.80 1.222053
380.90 1.222073
381.00 1.222093
381.10 1.222057
381.20 1.22221
381.30 1.222107
381.40 1.22164
381.50 1.221496
381.60 1.221478
381.70 1.22173
381.80 1.221806
381.90 1.221649
382.00 1.221492
382.10 1.221817
382.20 1.22137
382.30 1.221213
382.40 1.221126
382.50 1.221145
382.60 1.221163
382.70 1.221338
382.80 1.22142
382.90 1.221229
383.00 1.221039
383.10 1.220849
383.20 1.220676
383.30 1.220569
383.40 1.220523
383.50 1.220571
383.60 1.220937
383.70 1.220804
383.80 1.220672
383.90 1.22054
384.00 1.220407
384.10 1.220275
384.20 1.220142
384.30 1.22001
384.40 1.219959
384.50 1.219991
384.60 1.220022
384.70 1.220053
384.80 1.220177
384.90 1.220404
385.00 1.220178
385.10 1.219943
385.20 1.219536
385.30 1.219385
385.40 1.219324
385.50 1.219354
385.60 1.219384
385.70 1.219414
385.80 1.21942
385.90 1.219341
386.00 1.219321
386.10 1.219332
386.20 1.219065
386.30 1.218798
386.40 1.219292
386.50 1.21905
386.60 1.218973
386.70 1.219049
386.80 1.218654
386.90 1.218965
387.00 1.218335
387.10 1.218645
387.20 1.218696
387.30 1.218325
387.40 1.218634
387.50 1.218422
387.60 1.218413
387.70 1.218253
387.80 1.218093
387.90 1.217932
388.00 1.217902
388.10 1.217981
388.20 1.217651
388.30 1.217616
388.40 1.217582
388.50 1.217627
388.60 1.217646
388.70 1.217862
388.80 1.217325
388.90 1.217572
389.00 1.217004
389.10 1.217309
389.20 1.217087
389.30 1.217154
389.40 1.217005
389.50 1.216978
389.60 1.216969
389.70 1.216565
389.80 1.216571
389.90 1.216577
390.00 1.216583
390.10 1.216589
390.20 1.216595
390.30 1.216567
390.40 1.216501
390.50 1.216436
390.60 1.21637
390.70 1.216304
390.80 1.21622
390.90 1.216119
391.00 1.215758
391.10 1.215583
391.20 1.215576
391.30 1.215829
391.40 1.215667
391.50 1.215506
391.60 1.215344
391.70 1.215182
391.80 1.215021
391.90 1.215046
392.00 1.215099
392.10 1.214876
392.20 1.214617
392.30 1.214309
392.40 1.214342
392.50 1.214589
392.60 1.21397
392.70 1.214265
392.80 1.214263
392.90 1.214111
393.00 1.213978
393.10 1.213927
393.20 1.213951
393.30 1.213789
393.40 1.213586
393.50 1.213706
393.60 1.213262
393.70 1.213554
393.80 1.212979
393.90 1.212817
394.00 1.212745
394.10 1.213121
394.20 1.212966
394.30 1.212974
394.40 1.212871
394.50 1.212256
394.60 1.212147
394.70 1.212106
394.80 1.21232
394.90 1.21251
395.00 1.212027
395.10 1.212185
395.20 1.212041
395.30 1.212015
395.40 1.211989
395.50 1.211801
395.60 1.211554
395.70 1.211362
395.80 1.211315
395.90 1.211268
396.00 1.21117
396.10 1.210801
396.20 1.211087
396.30 1.21113
396.40 1.210519
396.50 1.210658
396.60 1.21035
396.70 1.210478
396.80 1.210232
396.90 1.210152
397.00 1.210436
397.10 1.209826
397.20 1.21011
397.30 1.209652
397.40 1.209604
397.50 1.209556
397.60 1.209514
397.70 1.209537
397.80 1.20956
397.90 1.209499
398.00 1.209208
398.10 1.208918
398.20 1.208821
398.30 1.208942
398.40 1.20904
398.50 1.208433
398.60 1.208523
398.70 1.208396
398.80 1.208152
398.90 1.20801
399.00 1.20806
399.10 1.207509
399.20 1.207512
399.30 1.207515
399.40 1.207518
399.50 1.20752
399.60 1.207491
399.70 1.207449
399.80 1.207407
399.90 1.207366
400.00 1.207307
400.10 1.206703
400.20 1.206717
400.30 1.206654
400.40 1.206399
400.50 1.20605
400.60 1.206088
400.70 1.206363
400.80 1.205998
400.90 1.205539
401.00 1.205671
401.10 1.205945
401.20 1.205344
401.30 1.205397
401.40 1.205253
401.50 1.204976
401.60 1.20471
401.70 1.204781
401.80 1.205047
401.90 1.204635
402.00 1.204907
402.10 1.204308
402.20 1.20458
402.30 1.203981
402.40 1.204252
402.50 1.203654
402.60 1.203924
402.70 1.204195
402.80 1.203597
402.90 1.203347
403.00 1.203183
403.10 1.203539
403.20 1.202962
403.30 1.203032
403.40 1.202615
403.50 1.202423
403.60 1.202359
403.70 1.202556
403.80 1.202824
403.90 1.202228
404.00 1.202129
404.10 1.201901
404.20 1.201737
404.30 1.201573
404.40 1.20184
404.50 1.201676
404.60 1.201512
404.70 1.200919
404.80 1.201209
404.90 1.20145
405.00 1.200857
405.10 1.200754
405.20 1.200774
405.30 1.200794
405.40 1.20063
405.50 1.200466
405.60 1.200302
405.70 1.200138
405.80 1.199974
405.90 1.19981
406.00 1.199735
406.10 1.199659
406.20 1.199584
406.30 1.199508
406.40 1.199417
406.50 1.199042
406.60 1.199089
406.70 1.198765
406.80 1.198509
406.90 1.198187
407.00 1.198109
407.10 1.19803
407.20 1.197951
407.30 1.197872
407.40 1.197793
407.50 1.197714
407.60 1.197635
407.70 1.197555
407.80 1.197476
407.90 1.197395
408.00 1.197271
408.10 1.197054
408.20 1.196687
408.30 1.196376
408.40 1.196066
408.50 1.196398
408.60 1.196104
408.70 1.195811
408.80 1.195592
408.90 1.195859
409.00 1.195759
409.10 1.195659
409.20 1.195559
409.30 1.195458
409.40 1.195353
409.50 1.195065
409.60 1.194779
409.70 1.19451
409.80 1.194313
409.90 1.19413
410.00 1.19436
410.10 1.193778
410.20 1.193719
410.30 1.19379
410.40 1.193771
410.50 1.193464
410.60 1.193158
410.70 1.192932
410.80 1.193027
410.90 1.193121
411.00 1.193068
411.10 1.192959
411.20 1.192851
411.30 1.192648
411.40 1.192086
411.50 1.192094
411.60 1.192102
411.70 1.192076
411.80 1.191912
411.90 1.191666
412.00 1.191087
412.10 1.191338
412.20 1.19076
412.30 1.191011
412.40 1.190463
412.50 1.190802
412.60 1.190816
412.70 1.190614
412.80 1.190359
412.90 1.19003
413.00 1.189571
413.10 1.189487
413.20 1.189402
413.30 1.189317
413.40 1.189232
413.50 1.189049
413.60 1.188622
413.70 1.188665
413.80 1.188707
413.90 1.188749
414.00 1.188741
414.10 1.188578
414.20 1.188316
414.30 1.187742
414.40 1.187825
414.50 1.187416
414.60 1.187761
414.70 1.187597
414.80 1.187434
414.90 1.18727
415.00 1.187107
415.10 1.186944
415.20 1.186743
415.30 1.186426
415.40 1.186109
415.50 1.185802
415.60 1.185816
415.70 1.18583
415.80 1.185767
415.90 1.185465
416.00 1.185163
416.10 1.184885
416.20 1.184706
416.30 1.184526
416.40 1.184347
416.50 1.184168
416.60 1.184005
416.70 1.183891
416.80 1.184073
416.90 1.18394
417.00 1.183747
417.10 1.183191
417.20 1.183029
417.30 1.182871
417.40 1.182875
417.50 1.18288
417.60 1.18277
417.70 1.182216
417.80 1.182053
417.90 1.18189
418.00 1.181728
418.10 1.181565
418.20 1.181403
418.30 1.181259
418.40 1.181552
418.50 1.181336
418.60 1.181121
418.70 1.180906
418.80 1.18069
418.90 1.180475
419.00 1.18026
419.10 1.180045
419.20 1.17983
419.30 1.179622
419.40 1.179625
419.50 1.179628
419.60 1.179572
419.70 1.17928
419.80 1.178988
419.90 1.178726
420.00 1.178555
420.10 1.178385
420.20 1.178215
420.30 1.178044
420.40 1.177874
420.50 1.177704
420.60 1.177534
420.70 1.177364
420.80 1.177193
420.90 1.177029
421.00 1.177041
421.10 1.177053
421.20 1.177008
421.30 1.176788
421.40 1.176569
421.50 1.17635
421.60 1.176131
421.70 1.175912
421.80 1.175694
421.90 1.175487
422.00 1.175317
422.10 1.17517
422.20 1.175112
422.30 1.175053
422.40 1.174991
422.50 1.174793
422.60 1.174596
422.70 1.174398
422.80 1.174201
422.90 1.174004
423.00 1.173807
423.10 1.17361
423.20 1.173413
423.30 1.173216
423.40 1.173019
423.50 1.172822
423.60 1.172625
423.70 1.172428
423.80 1.172231
423.90 1.172035
424.00 1.171838
424.10 1.171642
424.20 1.171445
424.30 1.171249
424.40 1.170979
424.50 1.170822
424.60 1.170665
424.70 1.170508
424.80 1.170351
424.90 1.170194
425.00 1.170037
