# Version 2.1 - nm, norm@500 to 1, cut digits, bergeron_He_15000_90.dat_15000
# Wavelength(nm)  Flambda(ergs/cm^s/s/nm)
300.00 3.405147
300.10 3.402911
300.20 3.400644
300.30 3.398417
300.40 3.39644
300.50 3.394464
300.60 3.392491
300.70 3.390519
300.80 3.38855
300.90 3.386582
301.00 3.384616
301.10 3.382652
301.20 3.38069
301.30 3.378729
301.40 3.376771
301.50 3.374814
301.60 3.372859
301.70 3.370906
301.80 3.368955
301.90 3.367006
302.00 3.365059
302.10 3.36303
302.20 3.360994
302.30 3.358961
302.40 3.356929
302.50 3.354899
302.60 3.352871
302.70 3.350845
302.80 3.348821
302.90 3.346799
303.00 3.344779
303.10 3.34276
303.20 3.340744
303.30 3.338731
303.40 3.336727
303.50 3.334726
303.60 3.332727
303.70 3.330729
303.80 3.328734
303.90 3.32674
304.00 3.324748
304.10 3.322758
304.20 3.320771
304.30 3.318784
304.40 3.3168
304.50 3.314818
304.60 3.31278
304.70 3.310738
304.80 3.308697
304.90 3.306659
305.00 3.304622
305.10 3.302587
305.20 3.300555
305.30 3.298524
305.40 3.296495
305.50 3.294469
305.60 3.292444
305.70 3.290421
305.80 3.2884
305.90 3.286381
306.00 3.284364
306.10 3.282349
306.20 3.280335
306.30 3.278324
306.40 3.276215
306.50 3.274077
306.60 3.271942
306.70 3.269808
306.80 3.267677
306.90 3.265548
307.00 3.263421
307.10 3.261296
307.20 3.259173
307.30 3.257052
307.40 3.254934
307.50 3.252817
307.60 3.250702
307.70 3.24859
307.80 3.246479
307.90 3.244371
308.00 3.242264
308.10 3.24016
308.20 3.238058
308.30 3.235958
308.40 3.233859
308.50 3.231763
308.60 3.229669
308.70 3.227577
308.80 3.225487
308.90 3.223399
309.00 3.221313
309.10 3.219229
309.20 3.217147
309.30 3.215067
309.40 3.212989
309.50 3.210913
309.60 3.208839
309.70 3.206767
309.80 3.204697
309.90 3.20263
310.00 3.200564
310.10 3.1985
310.20 3.196438
310.30 3.194378
310.40 3.19232
310.50 3.190264
310.60 3.18821
310.70 3.186158
310.80 3.184108
310.90 3.18206
311.00 3.180014
311.10 3.17797
311.20 3.175928
311.30 3.173888
311.40 3.17185
311.50 3.169814
311.60 3.16778
311.70 3.165747
311.80 3.163717
311.90 3.161689
312.00 3.159662
312.10 3.157638
312.20 3.155615
312.30 3.152585
312.40 3.149306
312.50 3.14729
312.60 3.145277
312.70 3.143266
312.80 3.141256
312.90 3.139249
313.00 3.137243
313.10 3.13524
313.20 3.133238
313.30 3.131157
313.40 3.128848
313.50 3.126542
313.60 3.124238
313.70 3.121936
313.80 3.119637
313.90 3.11734
314.00 3.115045
314.10 3.112482
314.20 3.109921
314.30 3.107362
314.40 3.104807
314.50 3.102254
314.60 3.099703
314.70 3.097155
314.80 3.09476
314.90 3.09207
315.00 3.088599
315.10 3.085895
315.20 3.083193
315.30 3.080495
315.40 3.077799
315.50 3.075107
315.60 3.072416
315.70 3.069359
315.80 3.066304
315.90 3.063253
316.00 3.060205
316.10 3.05716
316.20 3.054118
316.30 3.049973
316.40 3.044725
316.50 3.038377
316.60 3.033142
316.70 3.025703
316.80 3.018273
316.90 3.014714
317.00 3.011158
317.10 3.007607
317.20 3.004059
317.30 3.002165
317.40 2.999469
317.50 2.994483
317.60 2.989504
317.70 2.98453
317.80 2.979562
317.90 2.969032
318.00 2.954636
318.10 2.930332
318.20 2.906057
318.30 2.881813
318.40 2.848079
318.50 2.787311
318.60 2.714982
318.70 2.575722
318.80 2.428896
318.90 2.549069
319.00 2.639104
319.10 2.703826
319.20 2.759895
319.30 2.791517
319.40 2.823099
319.50 2.85464
319.60 2.878233
319.70 2.890772
319.80 2.903295
319.90 2.915801
320.00 2.925576
320.10 2.932399
320.20 2.939163
320.30 2.944895
320.40 2.948669
320.50 2.951144
320.60 2.953529
320.70 2.955997
320.80 2.957685
320.90 2.958532
321.00 2.959377
321.10 2.960221
321.20 2.96016
321.30 2.959804
321.40 2.959447
321.50 2.95909
321.60 2.958732
321.70 2.958375
321.80 2.957307
321.90 2.95547
322.00 2.956048
322.10 2.954744
322.20 2.953441
322.30 2.952139
322.40 2.950839
322.50 2.949539
322.60 2.94824
322.70 2.946943
322.80 2.94549
322.90 2.944044
323.00 2.942598
323.10 2.941154
323.20 2.939711
323.30 2.938269
323.40 2.936829
323.50 2.93539
323.60 2.933952
323.70 2.932515
323.80 2.931079
323.90 2.929645
324.00 2.927837
324.10 2.92603
324.20 2.924225
324.30 2.922422
324.40 2.920621
324.50 2.918821
324.60 2.917023
324.70 2.915226
324.80 2.913432
324.90 2.911638
325.00 2.909847
325.10 2.908057
325.20 2.906269
325.30 2.904482
325.40 2.902697
325.50 2.900914
325.60 2.899133
325.70 2.897353
325.80 2.895574
325.90 2.893797
326.00 2.892022
326.10 2.890249
326.20 2.888477
326.30 2.886707
326.40 2.884938
326.50 2.883172
326.60 2.881406
326.70 2.879643
326.80 2.877881
326.90 2.87612
327.00 2.874361
327.10 2.872604
327.20 2.870848
327.30 2.869094
327.40 2.867342
327.50 2.865591
327.60 2.863842
327.70 2.862095
327.80 2.860349
327.90 2.857644
328.00 2.854802
328.10 2.853062
328.20 2.851323
328.30 2.849587
328.40 2.847851
328.50 2.846118
328.60 2.844386
328.70 2.842655
328.80 2.840927
328.90 2.839199
329.00 2.837474
329.10 2.835749
329.20 2.834027
329.30 2.832306
329.40 2.830587
329.50 2.828869
329.60 2.827152
329.70 2.825438
329.80 2.823725
329.90 2.822013
330.00 2.820303
330.10 2.818594
330.20 2.816887
330.30 2.815182
330.40 2.81339
330.50 2.811504
330.60 2.809619
330.70 2.807737
330.80 2.805856
330.90 2.803977
331.00 2.802099
331.10 2.800224
331.20 2.79835
331.30 2.796478
331.40 2.794607
331.50 2.792821
331.60 2.791137
331.70 2.789454
331.80 2.787773
331.90 2.786093
332.00 2.784415
332.10 2.782739
332.20 2.781064
332.30 2.77939
332.40 2.777718
332.50 2.776047
332.60 2.774378
332.70 2.772711
332.80 2.771045
332.90 2.76938
333.00 2.767717
333.10 2.765966
333.20 2.764106
333.30 2.762248
333.40 2.760392
333.50 2.758538
333.60 2.756685
333.70 2.754834
333.80 2.752985
333.90 2.751137
334.00 2.749292
334.10 2.747537
334.20 2.745893
334.30 2.74425
334.40 2.742609
334.50 2.74097
334.60 2.739332
334.70 2.736839
334.80 2.734083
334.90 2.73245
335.00 2.730819
335.10 2.72919
335.20 2.727562
335.30 2.725935
335.40 2.72234
335.50 2.720963
335.60 2.721063
335.70 2.719443
335.80 2.717823
335.90 2.716205
336.00 2.714589
336.10 2.712974
336.20 2.71136
336.30 2.709601
336.40 2.707664
336.50 2.705728
336.60 2.703795
336.70 2.701863
336.80 2.699934
336.90 2.698152
337.00 2.696551
337.10 2.694951
337.20 2.693353
337.30 2.691756
337.40 2.690161
337.50 2.688567
337.60 2.686975
337.70 2.685384
337.80 2.683794
337.90 2.682206
338.00 2.680619
338.10 2.679033
338.20 2.677449
338.30 2.675867
338.40 2.674222
338.50 2.672424
338.60 2.670629
338.70 2.668834
338.80 2.667042
338.90 2.665251
339.00 2.663461
339.10 2.661674
339.20 2.659888
339.30 2.658192
339.40 2.656626
339.50 2.654995
339.60 2.653284
339.70 2.651575
339.80 2.649867
339.90 2.648161
340.00 2.646457
340.10 2.644754
340.20 2.643052
340.30 2.641352
340.40 2.639654
340.50 2.637957
340.60 2.636262
340.70 2.634568
340.80 2.632936
340.90 2.631392
341.00 2.629741
341.10 2.627962
341.20 2.626183
341.30 2.624407
341.40 2.622632
341.50 2.620859
341.60 2.619087
341.70 2.617317
341.80 2.615656
341.90 2.614126
342.00 2.612597
342.10 2.61107
342.20 2.609544
342.30 2.606931
342.40 2.604606
342.50 2.603086
342.60 2.601566
342.70 2.600048
342.80 2.598532
342.90 2.597016
343.00 2.595292
343.10 2.593314
343.20 2.591337
343.30 2.589362
343.40 2.587451
343.50 2.585632
343.60 2.583814
343.70 2.581999
343.80 2.580184
343.90 2.578372
344.00 2.576497
344.10 2.574532
344.20 2.572568
344.30 2.570607
344.40 2.568456
344.50 2.566031
344.60 2.563992
344.70 2.560639
344.80 2.559201
344.90 2.559533
345.00 2.558431
345.10 2.557879
345.20 2.556946
345.30 2.555465
345.40 2.553986
345.50 2.552507
345.60 2.55103
345.70 2.549555
345.80 2.54808
345.90 2.546607
346.00 2.545135
346.10 2.543665
346.20 2.542196
346.30 2.540728
346.40 2.539261
346.50 2.537795
346.60 2.536331
346.70 2.534868
346.80 2.533407
346.90 2.531946
347.00 2.530487
347.10 2.529029
347.20 2.527521
347.30 2.525941
347.40 2.524361
347.50 2.522783
347.60 2.521207
347.70 2.519632
347.80 2.518058
347.90 2.516486
348.00 2.514915
348.10 2.513345
348.20 2.511777
348.30 2.51021
348.40 2.508645
348.50 2.507081
348.60 2.505518
348.70 2.504051
348.80 2.502566
348.90 2.50101
349.00 2.499456
349.10 2.497903
349.20 2.496351
349.30 2.494801
349.40 2.493252
349.50 2.491705
349.60 2.490159
349.70 2.488614
349.80 2.487071
349.90 2.485528
350.00 2.483988
350.10 2.482448
350.20 2.48091
350.30 2.479356
350.40 2.477778
350.50 2.476201
350.60 2.474626
350.70 2.473051
350.80 2.471479
350.90 2.469907
351.00 2.468337
351.10 2.466769
351.20 2.465202
351.30 2.463636
351.40 2.462043
351.50 2.460402
351.60 2.458763
351.70 2.457125
351.80 2.455488
351.90 2.453853
352.00 2.452219
352.10 2.450587
352.20 2.449171
352.30 2.447718
352.40 2.446175
352.50 2.444634
352.60 2.443094
352.70 2.441555
352.80 2.440018
352.90 2.438482
353.00 2.436948
353.10 2.435415
353.20 2.433883
353.30 2.432352
353.40 2.430823
353.50 2.429098
353.60 2.427325
353.70 2.425554
353.80 2.423784
353.90 2.422088
354.00 2.420522
354.10 2.418958
354.20 2.417395
354.30 2.415833
354.40 2.414273
354.50 2.412714
354.60 2.411157
354.70 2.4096
354.80 2.408126
354.90 2.406769
355.00 2.405414
355.10 2.404059
355.20 2.402706
355.30 2.400946
355.40 2.399188
355.50 2.397432
355.60 2.395677
355.70 2.394204
355.80 2.392859
355.90 2.391514
356.00 2.389977
356.10 2.388393
356.20 2.38681
356.30 2.385229
356.40 2.383649
356.50 2.38207
356.60 2.380493
356.70 2.378917
356.80 2.377343
356.90 2.37577
357.00 2.374198
357.10 2.372628
357.20 2.371059
357.30 2.369492
357.40 2.367826
357.50 2.365986
357.60 2.364147
357.70 2.36231
357.80 2.36099
357.90 2.359671
358.00 2.357955
358.10 2.356142
358.20 2.35433
358.30 2.35252
358.40 2.350712
358.50 2.348905
358.60 2.3471
358.70 2.345297
358.80 2.343495
358.90 2.341695
359.00 2.340074
359.10 2.338771
359.20 2.337373
359.30 2.335336
359.40 2.3333
359.50 2.331365
359.60 2.329456
359.70 2.32755
359.80 2.325608
359.90 2.323668
360.00 2.321618
360.10 2.319374
360.20 2.317133
360.30 2.314893
360.40 2.312655
360.50 2.31042
360.60 2.306965
360.70 2.304409
360.80 2.301855
360.90 2.299303
361.00 2.29612
361.10 2.292354
361.20 2.289575
361.30 2.283554
361.40 2.28509
361.50 2.28815
361.60 2.288512
361.70 2.28894
361.80 2.288997
361.90 2.288393
362.00 2.287789
362.10 2.287597
362.20 2.287218
362.30 2.286325
362.40 2.285434
362.50 2.284543
362.60 2.283653
362.70 2.282467
362.80 2.281209
362.90 2.279952
363.00 2.278696
363.10 2.277441
363.20 2.276187
363.30 2.274934
363.40 2.272005
363.50 2.272432
363.60 2.271182
363.70 2.270864
363.80 2.27036
363.90 2.269112
364.00 2.267866
364.10 2.26662
364.20 2.265376
364.30 2.264132
364.40 2.26289
364.50 2.261648
364.60 2.260408
364.70 2.259168
364.80 2.25793
364.90 2.256692
365.00 2.255456
365.10 2.254221
365.20 2.252986
365.30 2.251753
365.40 2.250521
365.50 2.249289
365.60 2.248059
365.70 2.24683
365.80 2.245601
365.90 2.243639
366.00 2.241494
366.10 2.240269
366.20 2.239046
366.30 2.237824
366.40 2.236602
366.50 2.235382
366.60 2.234163
366.70 2.232944
366.80 2.231727
366.90 2.230404
367.00 2.228893
367.10 2.227383
367.20 2.225874
367.30 2.224367
367.40 2.222861
367.50 2.221592
367.60 2.220384
367.70 2.218745
367.80 2.217108
367.90 2.215472
368.00 2.213923
368.10 2.21272
368.20 2.211307
368.30 2.209892
368.40 2.208478
368.50 2.207066
368.60 2.205655
368.70 2.204245
368.80 2.202836
368.90 2.201506
369.00 2.199593
369.10 2.197503
369.20 2.196304
369.30 2.194573
369.40 2.192843
369.50 2.191116
369.60 2.18993
369.70 2.188745
369.80 2.186695
369.90 2.184637
370.00 2.182581
370.10 2.179217
370.20 2.177186
370.30 2.175202
370.40 2.170789
370.50 2.168004
370.60 2.169213
370.70 2.170502
370.80 2.170134
370.90 2.169765
371.00 2.169405
371.10 2.169044
371.20 2.168676
371.30 2.168307
371.40 2.167148
371.50 2.165981
371.60 2.164816
371.70 2.163651
371.80 2.162487
371.90 2.161325
372.00 2.160163
372.10 2.159002
372.20 2.158108
372.30 2.157216
372.40 2.156324
372.50 2.155432
372.60 2.154541
372.70 2.153651
372.80 2.152496
372.90 2.151342
373.00 2.149396
373.10 2.147444
373.20 2.146293
373.30 2.145144
373.40 2.1432
373.50 2.142847
373.60 2.1417
373.70 2.140554
373.80 2.139409
373.90 2.138264
374.00 2.137121
374.10 2.135979
374.20 2.134837
374.30 2.133697
374.40 2.132557
374.50 2.131418
374.60 2.130281
374.70 2.129144
374.80 2.128008
374.90 2.126873
375.00 2.125738
375.10 2.124605
375.20 2.123473
375.30 2.122117
375.40 2.120761
375.50 2.119408
375.60 2.118055
375.70 2.116703
375.80 2.115353
375.90 2.114003
376.00 2.112879
376.10 2.111418
376.20 2.109954
376.30 2.108492
376.40 2.107031
376.50 2.105707
376.60 2.104589
376.70 2.103472
376.80 2.102174
376.90 2.100695
377.00 2.099217
377.10 2.097741
377.20 2.09624
377.30 2.094644
377.40 2.093049
377.50 2.091456
377.60 2.089673
377.70 2.087891
377.80 2.086111
377.90 2.084332
378.00 2.082825
378.10 2.081191
378.20 2.079552
378.30 2.077915
378.40 2.07628
378.50 2.074646
378.60 2.073013
378.70 2.071382
378.80 2.069752
378.90 2.067912
379.00 2.065678
379.10 2.063971
379.20 2.062266
379.30 2.060374
379.40 2.058295
379.50 2.056218
379.60 2.054022
379.70 2.051606
379.80 2.049031
379.90 2.046458
380.00 2.043887
380.10 2.041319
380.20 2.038754
380.30 2.036191
380.40 2.03363
380.50 2.031071
380.60 2.027764
380.70 2.024962
380.80 2.022162
380.90 2.019364
381.00 2.01657
381.10 2.015512
381.20 2.013777
381.30 2.011302
381.40 2.006952
381.50 2.003558
381.60 1.999568
381.70 1.994309
381.80 1.988366
381.90 1.978209
382.00 1.974136
382.10 1.985245
382.20 1.990577
382.30 1.994085
382.40 1.996804
382.50 1.998345
382.60 1.999884
382.70 2.00094
382.80 2.001203
382.90 2.001215
383.00 2.001226
383.10 2.001238
383.20 2.001202
383.30 2.000991
383.40 2.000447
383.50 1.999404
383.60 1.999921
383.70 1.999474
383.80 1.999027
383.90 1.99858
384.00 1.998133
384.10 1.997686
384.20 1.99724
384.30 1.996794
384.40 1.996226
384.50 1.995537
384.60 1.994849
384.70 1.994161
384.80 1.9934
384.90 1.992365
385.00 1.99133
385.10 1.990296
385.20 1.989262
385.30 1.98823
385.40 1.987024
385.50 1.985646
385.60 1.984269
385.70 1.982893
385.80 1.981591
385.90 1.980564
386.00 1.979011
386.10 1.976923
386.20 1.974752
386.30 1.972583
386.40 1.970627
386.50 1.967875
386.60 1.965614
386.70 1.962375
386.80 1.958028
386.90 1.957016
387.00 1.954525
387.10 1.952
387.20 1.948479
387.30 1.945552
387.40 1.940866
387.50 1.935711
387.60 1.92923
387.70 1.920864
387.80 1.912506
387.90 1.904156
388.00 1.894485
388.10 1.8801
388.20 1.855704
388.30 1.825354
388.40 1.795036
388.50 1.754291
388.60 1.688288
388.70 1.585523
388.80 1.420963
388.90 1.34464
389.00 1.493848
389.10 1.606832
389.20 1.682781
389.30 1.736321
389.40 1.775149
389.50 1.807877
389.60 1.83061
389.70 1.846466
389.80 1.855688
389.90 1.8649
390.00 1.874102
390.10 1.883295
390.20 1.892478
390.30 1.898673
390.40 1.901503
390.50 1.904331
390.60 1.907155
390.70 1.909976
390.80 1.912126
390.90 1.913605
391.00 1.91367
391.10 1.914098
391.20 1.914641
391.30 1.915153
391.40 1.915138
391.50 1.915124
391.60 1.915109
391.70 1.915095
391.80 1.915079
391.90 1.914612
392.00 1.913635
392.10 1.912659
392.20 1.911684
392.30 1.911199
392.40 1.911175
392.50 1.910201
392.60 1.909228
392.70 1.906819
392.80 1.905848
392.90 1.904878
393.00 1.903909
393.10 1.902941
393.20 1.901973
393.30 1.901006
393.40 1.900039
393.50 1.899074
393.60 1.896679
393.70 1.895715
393.80 1.894688
393.90 1.893012
394.00 1.891402
394.10 1.889761
394.20 1.887355
394.30 1.885674
394.40 1.883294
394.50 1.882339
394.60 1.879795
394.70 1.877313
394.80 1.875058
394.90 1.872798
395.00 1.870269
395.10 1.867113
395.20 1.863527
395.30 1.859812
395.40 1.856102
395.50 1.852314
395.60 1.848499
395.70 1.844144
395.80 1.838319
395.90 1.8325
396.00 1.826506
396.10 1.818457
396.20 1.809775
396.30 1.80034
396.40 1.78554
396.50 1.788269
396.60 1.805682
396.70 1.813716
396.80 1.817832
396.90 1.820397
397.00 1.823557
397.10 1.827323
397.20 1.829372
397.30 1.830989
397.40 1.831391
397.50 1.831793
397.60 1.83212
397.70 1.831695
397.80 1.831271
397.90 1.830713
398.00 1.829793
398.10 1.828874
398.20 1.827956
398.30 1.827038
398.40 1.826088
398.50 1.824099
398.60 1.822894
398.70 1.821069
398.80 1.819019
398.90 1.817007
399.00 1.815065
399.10 1.812649
399.20 1.810466
399.30 1.808284
399.40 1.806104
399.50 1.803926
399.60 1.801387
399.70 1.798715
399.80 1.796045
399.90 1.793378
400.00 1.790702
400.10 1.787678
400.20 1.785239
400.30 1.781748
400.40 1.778127
400.50 1.775246
400.60 1.770459
400.70 1.766125
400.80 1.762036
400.90 1.757469
401.00 1.752824
401.10 1.74883
401.20 1.743787
401.30 1.738944
401.40 1.732946
401.50 1.726483
401.60 1.720003
401.70 1.712809
401.80 1.704859
401.90 1.696079
402.00 1.687679
402.10 1.676172
402.20 1.664023
402.30 1.64945
402.40 1.631989
402.50 1.611291
402.60 1.584368
402.70 1.602858
402.80 1.631427
402.90 1.649046
403.00 1.665283
403.10 1.678776
403.20 1.687768
403.30 1.696363
403.40 1.703412
403.50 1.709126
403.60 1.714632
403.70 1.72002
403.80 1.723361
403.90 1.726367
404.00 1.729108
404.10 1.730186
404.20 1.732043
404.30 1.733898
404.40 1.734395
404.50 1.734892
404.60 1.735388
404.70 1.735884
404.80 1.736418
404.90 1.736873
405.00 1.738426
405.10 1.73863
405.20 1.738736
405.30 1.738842
405.40 1.739333
405.50 1.739822
405.60 1.740312
405.70 1.7408
405.80 1.741288
405.90 1.741775
406.00 1.741999
406.10 1.742223
406.20 1.742446
406.30 1.742669
406.40 1.742859
406.50 1.743342
406.60 1.743155
406.70 1.743386
406.80 1.743052
406.90 1.742609
407.00 1.742288
407.10 1.741967
407.20 1.741646
407.30 1.741325
407.40 1.741005
407.50 1.740684
407.60 1.740364
407.70 1.740043
407.80 1.739723
407.90 1.739409
408.00 1.739283
408.10 1.739013
408.20 1.738507
408.30 1.738089
408.40 1.737671
408.50 1.736937
408.60 1.736087
408.70 1.735237
408.80 1.734388
408.90 1.733601
409.00 1.733008
409.10 1.732415
409.20 1.731822
409.30 1.73123
409.40 1.730631
409.50 1.729785
409.60 1.728941
409.70 1.728097
409.80 1.727254
409.90 1.726411
410.00 1.725569
410.10 1.724728
410.20 1.723475
410.30 1.722121
410.40 1.720891
410.50 1.720053
410.60 1.719215
410.70 1.718272
410.80 1.716904
410.90 1.715537
411.00 1.714016
411.10 1.712439
411.20 1.710864
411.30 1.709215
411.40 1.707257
411.50 1.70504
411.60 1.702825
411.70 1.700235
411.80 1.696143
411.90 1.692054
412.00 1.686664
412.10 1.678995
412.20 1.67981
412.30 1.680745
412.40 1.68209
412.50 1.681647
412.60 1.682691
412.70 1.683058
412.80 1.683255
412.90 1.683267
413.00 1.683826
413.10 1.683526
413.20 1.683226
413.30 1.682927
413.40 1.682627
413.50 1.682225
413.60 1.681412
413.70 1.680599
413.80 1.679787
413.90 1.678975
414.00 1.678164
414.10 1.677354
414.20 1.675769
414.30 1.674314
414.40 1.672345
414.50 1.672828
414.60 1.673465
414.70 1.673302
414.80 1.673062
414.90 1.672578
415.00 1.672093
415.10 1.671609
415.20 1.671145
415.30 1.67074
415.40 1.670336
415.50 1.669934
415.60 1.66959
415.70 1.669246
415.80 1.668793
415.90 1.66799
416.00 1.667189
416.10 1.666387
416.20 1.665587
416.30 1.664787
416.40 1.663987
416.50 1.663188
416.60 1.66239
416.70 1.661592
416.80 1.660795
416.90 1.659998
417.00 1.659202
417.10 1.658407
417.20 1.657612
417.30 1.656817
417.40 1.656023
417.50 1.65523
417.60 1.654438
417.70 1.653646
417.80 1.652854
417.90 1.652063
418.00 1.651273
418.10 1.650483
418.20 1.649694
418.30 1.648905
418.40 1.648084
418.50 1.647159
418.60 1.646235
418.70 1.645311
418.80 1.644389
418.90 1.643466
419.00 1.642545
419.10 1.641624
419.20 1.640704
419.30 1.639789
419.40 1.639007
419.50 1.638226
419.60 1.637445
419.70 1.636665
419.80 1.635885
419.90 1.635047
420.00 1.634022
420.10 1.632999
420.20 1.631976
420.30 1.630953
420.40 1.629932
420.50 1.628911
420.60 1.627892
420.70 1.626873
420.80 1.625854
420.90 1.624844
421.00 1.624072
421.10 1.623301
421.20 1.622486
421.30 1.621538
421.40 1.62059
421.50 1.619643
421.60 1.618697
421.70 1.617752
421.80 1.616807
421.90 1.615906
422.00 1.61514
422.10 1.614296
422.20 1.61314
422.30 1.611984
422.40 1.610835
422.50 1.609884
422.60 1.608934
422.70 1.607985
422.80 1.607037
422.90 1.606089
423.00 1.605142
423.10 1.604196
423.20 1.60325
423.30 1.602305
423.40 1.601361
423.50 1.600418
423.60 1.599475
423.70 1.598533
423.80 1.597591
423.90 1.596651
424.00 1.595711
424.10 1.594772
424.20 1.593833
424.30 1.592895
424.40 1.591999
424.50 1.591125
424.60 1.590252
424.70 1.589379
424.80 1.588507
424.90 1.587635
