# Version 2.1 - nm, norm@500 to 1, cut digits, bergeron_He_4000_80.dat_4000
# Wavelength(nm)  Flambda(ergs/cm^s/s/nm)
300.00 0.02731256
300.10 0.0274061
300.20 0.02749973
300.30 0.02759391
300.40 0.02769251
300.50 0.02779096
300.60 0.02788928
300.70 0.02798747
300.80 0.02808551
300.90 0.02818342
301.00 0.0282812
301.10 0.02837883
301.20 0.02847634
301.30 0.0285737
301.40 0.02867093
301.50 0.02876803
301.60 0.02886499
301.70 0.02896181
301.80 0.0290585
301.90 0.02915506
302.00 0.02925148
302.10 0.02935319
302.20 0.02945536
302.30 0.02955738
302.40 0.02965927
302.50 0.02976101
302.60 0.02986261
302.70 0.02996408
302.80 0.0300654
302.90 0.03016658
303.00 0.03026762
303.10 0.03036852
303.20 0.03046928
303.30 0.03057039
303.40 0.0306757
303.50 0.03078086
303.60 0.03088588
303.70 0.03099076
303.80 0.03109549
303.90 0.03120007
304.00 0.03130451
304.10 0.03140881
304.20 0.03151296
304.30 0.03161697
304.40 0.03172084
304.50 0.03182456
304.60 0.031934
304.70 0.03204395
304.80 0.03215374
304.90 0.03226339
305.00 0.03237288
305.10 0.03248222
305.20 0.03259142
305.30 0.03270046
305.40 0.03280935
305.50 0.03291809
305.60 0.03302669
305.70 0.03313513
305.80 0.03324343
305.90 0.03335158
306.00 0.03345957
306.10 0.03356742
306.20 0.03367513
306.30 0.03378268
306.40 0.03389717
306.50 0.03401361
306.60 0.03412989
306.70 0.03424601
306.80 0.03436197
306.90 0.03447778
307.00 0.03459343
307.10 0.03470891
307.20 0.03482425
307.30 0.03493942
307.40 0.03505444
307.50 0.0351693
307.60 0.035284
307.70 0.03539855
307.80 0.03551294
307.90 0.03562717
308.00 0.03574125
308.10 0.03585517
308.20 0.03596894
308.30 0.03608255
308.40 0.03619601
308.50 0.03630931
308.60 0.03642246
308.70 0.03653546
308.80 0.03665041
308.90 0.03677124
309.00 0.03689056
309.10 0.03700972
309.20 0.03712872
309.30 0.03724755
309.40 0.03736673
309.50 0.03748881
309.60 0.03761073
309.70 0.03773248
309.80 0.03785407
309.90 0.03797549
310.00 0.03809675
310.10 0.03821784
310.20 0.03833877
310.30 0.03845954
310.40 0.03858202
310.50 0.03870637
310.60 0.03883055
310.70 0.03895457
310.80 0.03907842
310.90 0.0392021
311.00 0.03932788
311.10 0.0394535
311.20 0.03957895
311.30 0.03970474
311.40 0.03983185
311.50 0.03995878
311.60 0.04008554
311.70 0.04021213
311.80 0.04033855
311.90 0.04046479
312.00 0.04059087
312.10 0.04071678
312.20 0.040844
312.30 0.04097411
312.40 0.04110335
312.50 0.04122924
312.60 0.04135995
312.70 0.04149048
312.80 0.04162084
312.90 0.04175148
313.00 0.04188245
313.10 0.04201323
313.20 0.04214384
313.30 0.04227526
313.40 0.04240932
313.50 0.04254319
313.60 0.04267689
313.70 0.0428104
313.80 0.04294374
313.90 0.0430769
314.00 0.04320988
314.10 0.04334574
314.20 0.04348143
314.30 0.04361693
314.40 0.04375225
314.50 0.04388739
314.60 0.04402235
314.70 0.04415713
314.80 0.0442912
314.90 0.0444257
315.00 0.04456233
315.10 0.04470075
315.20 0.04483898
315.30 0.04497704
315.40 0.0451149
315.50 0.04525259
315.60 0.04539009
315.70 0.04553104
315.80 0.0456718
315.90 0.04581237
316.00 0.04595276
316.10 0.04609141
316.20 0.04622987
316.30 0.04637125
316.40 0.04651245
316.50 0.04665345
316.60 0.04680046
316.70 0.04694109
316.80 0.04708153
316.90 0.04722642
317.00 0.04737111
317.10 0.04751562
317.20 0.04765993
317.30 0.0478035
317.40 0.04794765
317.50 0.04809378
317.60 0.04823972
317.70 0.04838547
317.80 0.04853102
317.90 0.04867424
318.00 0.04882316
318.10 0.04897035
318.20 0.04911735
318.30 0.04926415
318.40 0.04941156
318.50 0.04956103
318.60 0.04970713
318.70 0.04985713
318.80 0.05000418
318.90 0.0501547
319.00 0.05030624
319.10 0.05045758
319.20 0.05060855
319.30 0.05075885
319.40 0.05090895
319.50 0.05105885
319.60 0.05121196
319.70 0.05136468
319.80 0.0515172
319.90 0.05166951
320.00 0.05182331
320.10 0.05197872
320.20 0.05212901
320.30 0.05228602
320.40 0.0524384
320.50 0.05259541
320.60 0.0527527
320.70 0.05290689
320.80 0.05306232
320.90 0.05321912
321.00 0.05337571
321.10 0.05353209
321.20 0.05368948
321.30 0.0538485
321.40 0.05400732
321.50 0.05416592
321.60 0.05432432
321.70 0.05448251
321.80 0.05464172
321.90 0.05480204
322.00 0.05496002
322.10 0.05512234
322.20 0.05528444
322.30 0.05544634
322.40 0.05560802
322.50 0.0557695
322.60 0.05593076
322.70 0.05609181
322.80 0.05625855
322.90 0.05642408
323.00 0.05658939
323.10 0.05675449
323.20 0.05691937
323.30 0.05708404
323.40 0.05724849
323.50 0.05741273
323.60 0.05757675
323.70 0.05774057
323.80 0.05790416
323.90 0.05806755
324.00 0.05823564
324.10 0.05840352
324.20 0.05857118
324.30 0.05873882
324.40 0.05890904
324.50 0.05908149
324.60 0.05925372
324.70 0.05942573
324.80 0.05959752
324.90 0.05976908
325.00 0.05994042
325.10 0.06011154
325.20 0.06028136
325.30 0.06044868
325.40 0.06061577
325.50 0.06078376
325.60 0.06095289
325.70 0.0611218
325.80 0.06129049
325.90 0.06146639
326.00 0.06165012
326.10 0.06183361
326.20 0.06201686
326.30 0.06219053
326.40 0.06233738
326.50 0.06251975
326.60 0.06270187
326.70 0.06288377
326.80 0.06306543
326.90 0.06324686
327.00 0.06342805
327.10 0.06360901
327.20 0.06378973
327.30 0.06397023
327.40 0.06415049
327.50 0.06433052
327.60 0.06451032
327.70 0.06468988
327.80 0.06486922
327.90 0.06505097
328.00 0.06523525
328.10 0.06541916
328.20 0.06560283
328.30 0.06578627
328.40 0.06596947
328.50 0.06614232
328.60 0.06631256
328.70 0.06648259
328.80 0.06665714
328.90 0.06684495
329.00 0.06703253
329.10 0.06721986
329.20 0.06740695
329.30 0.06759381
329.40 0.06778042
329.50 0.0679668
329.60 0.06815294
329.70 0.06833883
329.80 0.06852449
329.90 0.06870992
330.00 0.06890286
330.10 0.06910503
330.20 0.06930695
330.30 0.0695086
330.40 0.06970448
330.50 0.06989413
330.60 0.07008354
330.70 0.0702727
330.80 0.07046163
330.90 0.07065031
331.00 0.07083875
331.10 0.07102695
331.20 0.07121491
331.30 0.07140264
331.40 0.07159012
331.50 0.07178595
331.60 0.07199202
331.70 0.07219783
331.80 0.07239664
331.90 0.07259491
332.00 0.07279293
332.10 0.0729907
332.20 0.07318822
332.30 0.07338549
332.40 0.07358251
332.50 0.07377927
332.60 0.07397579
332.70 0.07417206
332.80 0.07436808
332.90 0.07456385
333.00 0.07475937
333.10 0.07495985
333.20 0.07516644
333.30 0.07537276
333.40 0.07557883
333.50 0.07578463
333.60 0.07599018
333.70 0.07619546
333.80 0.07640049
333.90 0.07660525
334.00 0.07680976
334.10 0.07701401
334.20 0.077218
334.30 0.07742173
334.40 0.07762521
334.50 0.07782842
334.60 0.07803139
334.70 0.07824176
334.80 0.07845608
334.90 0.07866269
335.00 0.07886905
335.10 0.07905479
335.20 0.07928383
335.30 0.07950568
335.40 0.07968587
335.50 0.07991409
335.60 0.08014201
335.70 0.08031458
335.80 0.08054197
335.90 0.08076288
336.00 0.08097596
336.10 0.08118877
336.20 0.08140131
336.30 0.08161564
336.40 0.08183222
336.50 0.08204853
336.60 0.08226456
336.70 0.08248033
336.80 0.08269582
336.90 0.08290784
337.00 0.08311567
337.10 0.08332324
337.20 0.08353054
337.30 0.08374499
337.40 0.08396979
337.50 0.08419432
337.60 0.08441857
337.70 0.08464253
337.80 0.08486622
337.90 0.08508975
338.00 0.08531316
338.10 0.08553629
338.20 0.08575914
338.30 0.08598171
338.40 0.08620446
338.50 0.08642804
338.60 0.08665134
338.70 0.08687436
338.80 0.0870971
338.90 0.08731956
339.00 0.08754175
339.10 0.08776365
339.20 0.08798529
339.30 0.0882074
339.40 0.08843034
339.50 0.08865573
339.60 0.08888417
339.70 0.08911233
339.80 0.0893402
339.90 0.0895678
340.00 0.0897951
340.10 0.09002213
340.20 0.09024887
340.30 0.09047533
340.40 0.09070151
340.50 0.09092741
340.60 0.09115303
340.70 0.09137836
340.80 0.09161213
340.90 0.09185813
341.00 0.09209813
341.10 0.09233088
341.20 0.09256333
341.30 0.09279549
341.40 0.09302737
341.50 0.09325896
341.60 0.09349026
341.70 0.09372128
341.80 0.09395851
341.90 0.0942034
342.00 0.09444798
342.10 0.09469226
342.20 0.09492938
342.30 0.0951708
342.40 0.09541517
342.50 0.09565243
342.60 0.09588939
342.70 0.09612606
342.80 0.09636243
342.90 0.09659851
343.00 0.09683801
343.10 0.09708174
343.20 0.09732517
343.30 0.0975683
343.40 0.09781057
343.50 0.09805171
343.60 0.09829256
343.70 0.0985331
343.80 0.09877336
343.90 0.09901331
344.00 0.09925477
344.10 0.0994985
344.20 0.09974193
344.30 0.09998507
344.40 0.1002333
344.50 0.1004889
344.60 0.100775
344.70 0.1010052
344.80 0.1012337
344.90 0.1014868
345.00 0.1017622
345.10 0.1020159
345.20 0.1022639
345.30 0.1025036
345.40 0.1027431
345.50 0.1029828
345.60 0.1032315
345.70 0.1034921
345.80 0.1037523
345.90 0.1040122
346.00 0.1042718
346.10 0.1045311
346.20 0.1047887
346.30 0.1050439
346.40 0.1052988
346.50 0.1055533
346.60 0.1058076
346.70 0.1060616
346.80 0.1063152
346.90 0.1065685
347.00 0.1068216
347.10 0.1070743
347.20 0.1073319
347.30 0.1075968
347.40 0.1078613
347.50 0.1081256
347.60 0.1083894
347.70 0.108653
347.80 0.1089163
347.90 0.1091792
348.00 0.1094418
348.10 0.1097041
348.20 0.1099661
348.30 0.1102277
348.40 0.1104891
348.50 0.1107501
348.60 0.1110108
348.70 0.1112835
348.80 0.1115571
348.90 0.1118262
349.00 0.1120951
349.10 0.1123636
349.20 0.1126318
349.30 0.1128997
349.40 0.1131672
349.50 0.1134345
349.60 0.1137014
349.70 0.113968
349.80 0.1142342
349.90 0.1145001
350.00 0.1147657
350.10 0.115031
350.20 0.115296
350.30 0.1155659
350.40 0.1158431
350.50 0.1161199
350.60 0.1163964
350.70 0.1166725
350.80 0.1169484
350.90 0.1172238
351.00 0.117499
351.10 0.1177738
351.20 0.1180483
351.30 0.1183225
351.40 0.1185996
351.50 0.1188823
351.60 0.1191647
351.70 0.1194467
351.80 0.1197284
351.90 0.1200097
352.00 0.1202907
352.10 0.1205714
352.20 0.12084
352.30 0.121116
352.40 0.1214046
352.50 0.1216928
352.60 0.1219807
352.70 0.1222682
352.80 0.1225554
352.90 0.1228423
353.00 0.1231288
353.10 0.1234149
353.20 0.1237008
353.30 0.1239862
353.40 0.1242714
353.50 0.1245585
353.60 0.1248458
353.70 0.1251328
353.80 0.1254194
353.90 0.1257067
354.00 0.1259954
354.10 0.1262837
354.20 0.1265718
354.30 0.1268594
354.40 0.1271467
354.50 0.1274337
354.60 0.1277203
354.70 0.1280066
354.80 0.128297
354.90 0.1285935
355.00 0.1288896
355.10 0.1291853
355.20 0.1294807
355.30 0.1297843
355.40 0.1300875
355.50 0.1303904
355.60 0.1306928
355.70 0.1309828
355.80 0.1312669
355.90 0.1315479
356.00 0.1318479
356.10 0.1321535
356.20 0.1324587
356.30 0.1327636
356.40 0.1330681
356.50 0.1333723
356.60 0.133676
356.70 0.1339795
356.80 0.1342825
356.90 0.1345852
357.00 0.1348876
357.10 0.1351896
357.20 0.1354912
357.30 0.1357924
357.40 0.136093
357.50 0.1363927
357.60 0.136692
357.70 0.136991
357.80 0.1373111
357.90 0.1376308
358.00 0.1379412
358.10 0.1382489
358.20 0.1385563
358.30 0.1388634
358.40 0.1391701
358.50 0.1394764
358.60 0.1397823
358.70 0.1400879
358.80 0.1403931
358.90 0.140698
359.00 0.1410046
359.10 0.1413146
359.20 0.1416247
359.30 0.141938
359.40 0.1422508
359.50 0.1425656
359.60 0.1428806
359.70 0.1431952
359.80 0.1435152
359.90 0.1438348
360.00 0.1441548
360.10 0.1444758
360.20 0.1447965
360.30 0.1451168
360.40 0.1454367
360.50 0.1457562
360.60 0.1460641
360.70 0.1463887
360.80 0.1467128
360.90 0.1470366
361.00 0.1473673
361.10 0.147688
361.20 0.1480027
361.30 0.1483297
361.40 0.1486325
361.50 0.148973
361.60 0.1492922
361.70 0.1496129
361.80 0.1499349
361.90 0.1502593
362.00 0.1505833
362.10 0.1509234
362.20 0.1512628
362.30 0.1515941
362.40 0.151925
362.50 0.1522556
362.60 0.1525857
362.70 0.1528989
362.80 0.1532076
362.90 0.1535452
363.00 0.1538824
363.10 0.1542063
363.20 0.1545296
363.30 0.1548553
363.40 0.1552283
363.50 0.1555304
363.60 0.1558674
363.70 0.1562145
363.80 0.1565402
363.90 0.1568783
364.00 0.1572159
364.10 0.1575532
364.20 0.1578901
364.30 0.1582206
364.40 0.1585492
364.50 0.1588871
364.60 0.1592342
364.70 0.159581
364.80 0.1599274
364.90 0.1602593
365.00 0.1605908
365.10 0.1609219
365.20 0.1612759
365.30 0.1616295
365.40 0.1619594
365.50 0.1623122
365.60 0.1626645
365.70 0.1629975
365.80 0.1633301
365.90 0.1636754
366.00 0.1640235
366.10 0.1643663
366.20 0.1647087
366.30 0.1650507
366.40 0.1653922
366.50 0.1657437
366.60 0.1661195
366.70 0.166466
366.80 0.1668121
366.90 0.1671588
367.00 0.167507
367.10 0.1678548
367.20 0.1682022
367.30 0.1685492
367.40 0.1688958
367.50 0.1692387
367.60 0.1695804
367.70 0.1699352
367.80 0.1702896
367.90 0.1706435
368.00 0.1709994
368.10 0.1713601
368.20 0.1717171
368.30 0.1720736
368.40 0.1724297
368.50 0.1727855
368.60 0.1731408
368.70 0.1734957
368.80 0.1738501
368.90 0.1742187
369.00 0.1745847
369.10 0.1749432
369.20 0.1753083
369.30 0.1756684
369.40 0.1760282
369.50 0.1763875
369.60 0.1767442
369.70 0.1771005
369.80 0.1774707
369.90 0.1778406
370.00 0.1782101
370.10 0.1785757
370.20 0.1789321
370.30 0.1792881
370.40 0.1796652
370.50 0.1800441
370.60 0.1803989
370.70 0.1807578
370.80 0.1811319
370.90 0.1815057
371.00 0.1818836
371.10 0.1822612
371.20 0.1826113
371.30 0.1829609
371.40 0.1833507
371.50 0.183721
371.60 0.1840909
371.70 0.1844604
371.80 0.1848294
371.90 0.185198
372.00 0.1855965
372.10 0.185945
372.20 0.186323
372.30 0.1867006
372.40 0.1870777
372.50 0.1874544
372.60 0.1878307
372.70 0.1882065
372.80 0.1885944
372.90 0.1889818
373.00 0.1893514
373.10 0.1897204
373.20 0.190109
373.30 0.1904971
373.40 0.1908625
373.50 0.1912497
373.60 0.1916143
373.70 0.1920006
373.80 0.1923893
373.90 0.192772
374.00 0.193157
374.10 0.1935416
374.20 0.1939258
374.30 0.1943095
374.40 0.1947039
374.50 0.1950713
374.60 0.1954654
374.70 0.1958596
374.80 0.1962534
374.90 0.1966468
375.00 0.1970274
375.10 0.1974077
375.20 0.1977874
375.30 0.1981794
375.40 0.1985708
375.50 0.1989619
375.60 0.1993525
375.70 0.1997426
375.80 0.2001324
375.90 0.2005216
376.00 0.2009366
376.10 0.2013271
376.20 0.2017169
376.30 0.2021063
376.40 0.2024952
376.50 0.2028907
376.60 0.203296
376.70 0.2037009
376.80 0.2040987
376.90 0.2044895
377.00 0.2048798
377.10 0.2052697
377.20 0.2056629
377.30 0.2060701
377.40 0.2064768
377.50 0.206883
377.60 0.2072844
377.70 0.2076854
377.80 0.208086
377.90 0.2084861
378.00 0.2088936
378.10 0.2093009
378.20 0.2097075
378.30 0.2101137
378.40 0.2105194
378.50 0.2109247
378.60 0.2113295
378.70 0.2117338
378.80 0.2121377
378.90 0.2125401
379.00 0.2129401
379.10 0.213346
379.20 0.2137514
379.30 0.214162
379.40 0.2145777
379.50 0.2149929
379.60 0.2153991
379.70 0.2157969
379.80 0.216212
379.90 0.2166266
380.00 0.2170407
380.10 0.2174544
380.20 0.2178676
380.30 0.2182804
380.40 0.2186926
380.50 0.2191044
380.60 0.2195088
380.70 0.2199288
380.80 0.2203483
380.90 0.2207674
381.00 0.221186
381.10 0.2216041
381.20 0.222017
381.30 0.222455
381.40 0.2228688
381.50 0.2232769
381.60 0.2236895
381.70 0.224118
381.80 0.2245605
381.90 0.2249749
382.00 0.2253888
382.10 0.2258022
382.20 0.2262237
382.30 0.2266574
382.40 0.2270844
382.50 0.2275014
382.60 0.2279179
382.70 0.2283494
382.80 0.2287854
382.90 0.2292087
383.00 0.2296315
383.10 0.2300538
383.20 0.2304796
383.30 0.2309195
383.40 0.2313521
383.50 0.2317741
383.60 0.2322094
383.70 0.2326439
383.80 0.2330778
383.90 0.2335112
384.00 0.2339442
384.10 0.2343767
384.20 0.2348087
384.30 0.2352402
384.40 0.2356736
384.50 0.2361089
384.60 0.2365436
384.70 0.2369779
384.80 0.2374073
384.90 0.2378337
385.00 0.2382852
385.10 0.2387355
385.20 0.2391532
385.30 0.2395808
385.40 0.2400147
385.50 0.2404549
385.60 0.2408946
385.70 0.2413337
385.80 0.241777
385.90 0.2422366
386.00 0.2426841
386.10 0.2431196
386.20 0.2435561
386.30 0.2439921
386.40 0.2444348
386.50 0.2448905
386.60 0.2453269
386.70 0.2457811
386.80 0.2462244
386.90 0.2466569
387.00 0.2471262
387.10 0.2475774
387.20 0.2480042
387.30 0.2484401
387.40 0.2489198
387.50 0.2493486
387.60 0.2498234
387.70 0.2502727
387.80 0.2507214
387.90 0.2511697
388.00 0.251617
388.10 0.2520762
388.20 0.2525198
388.30 0.2529778
388.40 0.2534354
388.50 0.2538888
388.60 0.2543305
388.70 0.2547909
388.80 0.2552355
388.90 0.2556813
389.00 0.2561373
389.10 0.2565922
389.20 0.2570525
389.30 0.2575198
389.40 0.2579753
389.50 0.2584291
389.60 0.2588877
389.70 0.2593632
389.80 0.2598207
389.90 0.2602776
390.00 0.2607341
390.10 0.26119
390.20 0.2616454
390.30 0.2621048
390.40 0.2625687
390.50 0.2630321
390.60 0.263495
390.70 0.2639573
390.80 0.2644307
390.90 0.264915
391.00 0.2653553
391.10 0.2658303
391.20 0.2663032
391.30 0.2667722
391.40 0.2672436
391.50 0.2677146
391.60 0.268185
391.70 0.2686548
391.80 0.2691242
391.90 0.2695922
392.00 0.2700619
392.10 0.2705358
392.20 0.2710096
392.30 0.2714809
392.40 0.271945
392.50 0.2724358
392.60 0.272901
392.70 0.2733658
392.80 0.27383
392.90 0.2743078
393.00 0.2747881
393.10 0.275264
393.20 0.2757359
393.30 0.2762176
393.40 0.2767031
393.50 0.2771955
393.60 0.2776579
393.70 0.2781175
393.80 0.2786185
393.90 0.2790971
394.00 0.2795774
394.10 0.2800632
394.20 0.2805294
394.30 0.2810035
394.40 0.2814859
394.50 0.2820018
394.60 0.2824824
394.70 0.2829621
394.80 0.2834399
394.90 0.2839175
395.00 0.2844092
395.10 0.284884
395.20 0.2853659
395.30 0.2858556
395.40 0.2863446
395.50 0.2868301
395.60 0.2873138
395.70 0.287799
395.80 0.288289
395.90 0.2887785
396.00 0.2892712
396.10 0.2897891
396.20 0.2902754
396.30 0.2907506
396.40 0.2912428
396.50 0.2917538
396.60 0.2922445
396.70 0.2927344
396.80 0.2932145
396.90 0.2937118
397.00 0.2942136
397.10 0.2946887
397.20 0.2951989
397.30 0.2957126
397.40 0.2962064
397.50 0.2966997
397.60 0.2971924
397.70 0.2976831
397.80 0.2981732
397.90 0.2986679
398.00 0.2991755
398.10 0.2996826
398.20 0.3001895
398.30 0.3006962
398.40 0.3012016
398.50 0.3016818
398.60 0.3021915
398.70 0.302697
398.80 0.3031983
398.90 0.3037032
399.00 0.3042152
399.10 0.3047068
399.20 0.3052152
399.30 0.305723
399.40 0.3062304
399.50 0.3067371
399.60 0.3072447
399.70 0.3077523
399.80 0.3082593
399.90 0.3087658
400.00 0.3092716
400.10 0.3097732
400.20 0.3102883
400.30 0.3107994
400.40 0.3113174
400.50 0.311808
400.60 0.3123398
400.70 0.3128605
400.80 0.3133805
400.90 0.3138614
401.00 0.3143713
401.10 0.3148988
401.20 0.3154083
401.30 0.3159312
401.40 0.3164481
401.50 0.3169607
401.60 0.3174731
401.70 0.3179956
401.80 0.3185038
401.90 0.31902
402.00 0.3195676
402.10 0.3200802
402.20 0.3205934
402.30 0.3211052
402.40 0.3216158
402.50 0.3221645
402.60 0.322676
402.70 0.3231841
402.80 0.3237314
402.90 0.3242399
403.00 0.3247478
403.10 0.3252933
403.20 0.3258022
403.30 0.3263451
403.40 0.3268525
403.50 0.3273745
403.60 0.3279038
403.70 0.3284402
403.80 0.3289829
403.90 0.3294901
404.00 0.3300126
404.10 0.330565
404.20 0.3310853
404.30 0.331605
404.40 0.332138
404.50 0.3326617
404.60 0.3331988
404.70 0.3337162
404.80 0.3342541
404.90 0.3347874
405.00 0.3353163
405.10 0.3358509
405.20 0.3363872
405.30 0.336923
405.40 0.3374617
405.50 0.3379999
405.60 0.3385376
405.70 0.3390746
405.80 0.3396111
405.90 0.340147
406.00 0.340684
406.10 0.3412205
406.20 0.3417564
406.30 0.3422918
406.40 0.342828
406.50 0.3433617
406.60 0.3439137
406.70 0.3444506
406.80 0.3449991
406.90 0.3455463
407.00 0.3460922
407.10 0.3466375
407.20 0.3471822
407.30 0.3477264
407.40 0.34827
407.50 0.348813
407.60 0.3493554
407.70 0.3498973
407.80 0.3504385
407.90 0.3509793
408.00 0.3515204
408.10 0.3520674
408.20 0.3526166
408.30 0.3531594
408.40 0.3537017
408.50 0.3542422
408.60 0.3548021
408.70 0.3553614
408.80 0.3559193
408.90 0.356471
409.00 0.3570231
409.10 0.3575746
409.20 0.3581256
409.30 0.3586759
409.40 0.3592256
409.50 0.3597695
409.60 0.3603128
409.70 0.3608584
409.80 0.3614147
409.90 0.361971
410.00 0.3625473
410.10 0.3631086
410.20 0.363667
410.30 0.3642242
410.40 0.3647793
410.50 0.3653285
410.60 0.3658772
410.70 0.3664171
410.80 0.3669237
410.90 0.3674298
411.00 0.3680437
411.10 0.3686969
411.20 0.3693495
411.30 0.3699606
411.40 0.3704121
411.50 0.3710093
411.60 0.3716058
411.70 0.3721928
411.80 0.3727441
411.90 0.3733314
412.00 0.3736987
412.10 0.374431
412.20 0.3747973
412.30 0.3754706
412.40 0.37592
412.50 0.3765973
412.60 0.377196
412.70 0.3777366
412.80 0.3782623
412.90 0.3790023
413.00 0.3793595
413.10 0.3799697
413.20 0.3805792
413.30 0.3811881
413.40 0.3817964
413.50 0.3823968
413.60 0.3829605
413.70 0.3835007
413.80 0.3840404
413.90 0.3845794
414.00 0.3851179
414.10 0.3856558
414.20 0.3862366
414.30 0.3869542
414.40 0.3873819
414.50 0.3880176
414.60 0.3886981
414.70 0.3892325
414.80 0.3897663
414.90 0.3902996
