# Version 2.1 - nm, norm@500 to 1, cut digits, bergeron_He_12000_90.dat_12000
# Wavelength(nm)  Flambda(ergs/cm^s/s/nm)
300.00 2.627535
300.10 2.626503
300.20 2.625467
300.30 2.624435
300.40 2.623421
300.50 2.622409
300.60 2.621397
300.70 2.620385
300.80 2.619375
300.90 2.618365
301.00 2.617356
301.10 2.616348
301.20 2.61534
301.30 2.614334
301.40 2.613328
301.50 2.612323
301.60 2.611318
301.70 2.610315
301.80 2.609312
301.90 2.60831
302.00 2.607308
302.10 2.606286
302.20 2.605263
302.30 2.60424
302.40 2.603218
302.50 2.602197
302.60 2.601177
302.70 2.600158
302.80 2.599139
302.90 2.598121
303.00 2.597104
303.10 2.596087
303.20 2.595072
303.30 2.594057
303.40 2.593046
303.50 2.592035
303.60 2.591025
303.70 2.590015
303.80 2.589007
303.90 2.587999
304.00 2.586992
304.10 2.585986
304.20 2.58498
304.30 2.583976
304.40 2.582972
304.50 2.581969
304.60 2.580934
304.70 2.579896
304.80 2.57886
304.90 2.577824
305.00 2.576789
305.10 2.575755
305.20 2.574721
305.30 2.573688
305.40 2.572657
305.50 2.571626
305.60 2.570595
305.70 2.569566
305.80 2.568537
305.90 2.567509
306.00 2.566482
306.10 2.565456
306.20 2.56443
306.30 2.563406
306.40 2.562371
306.50 2.561334
306.60 2.560297
306.70 2.559262
306.80 2.558227
306.90 2.557193
307.00 2.55616
307.10 2.555128
307.20 2.554096
307.30 2.553065
307.40 2.552035
307.50 2.551006
307.60 2.549978
307.70 2.54895
307.80 2.547924
307.90 2.546898
308.00 2.545872
308.10 2.544848
308.20 2.543825
308.30 2.542802
308.40 2.54178
308.50 2.540759
308.60 2.539738
308.70 2.538719
308.80 2.537691
308.90 2.536641
309.00 2.535614
309.10 2.534588
309.20 2.533562
309.30 2.532537
309.40 2.531509
309.50 2.530451
309.60 2.529394
309.70 2.528337
309.80 2.527282
309.90 2.526227
310.00 2.525174
310.10 2.524121
310.20 2.523069
310.30 2.522017
310.40 2.520983
310.50 2.519966
310.60 2.518951
310.70 2.517936
310.80 2.516922
310.90 2.515908
311.00 2.514882
311.10 2.513856
311.20 2.512831
311.30 2.511801
311.40 2.510756
311.50 2.509712
311.60 2.508668
311.70 2.507626
311.80 2.506584
311.90 2.505543
312.00 2.504503
312.10 2.503463
312.20 2.502312
312.30 2.501197
312.40 2.500204
312.50 2.499087
312.60 2.498077
312.70 2.497067
312.80 2.496058
312.90 2.495017
313.00 2.49394
313.10 2.492864
313.20 2.491789
313.30 2.49071
313.40 2.489621
313.50 2.488532
313.60 2.487445
313.70 2.486358
313.80 2.485272
313.90 2.484187
314.00 2.483103
314.10 2.481988
314.20 2.480875
314.30 2.479763
314.40 2.478651
314.50 2.477541
314.60 2.476431
314.70 2.475323
314.80 2.474214
314.90 2.473115
315.00 2.472031
315.10 2.470881
315.20 2.469732
315.30 2.468584
315.40 2.467436
315.50 2.46629
315.60 2.465145
315.70 2.463941
315.80 2.462738
315.90 2.461536
316.00 2.460335
316.10 2.459136
316.20 2.457937
316.30 2.456739
316.40 2.455365
316.50 2.453991
316.60 2.452797
316.70 2.451426
316.80 2.450056
316.90 2.44851
317.00 2.446965
317.10 2.445422
317.20 2.44388
317.30 2.442137
317.40 2.44034
317.50 2.438388
317.60 2.436438
317.70 2.43449
317.80 2.432544
317.90 2.430086
318.00 2.427334
318.10 2.424311
318.20 2.421292
318.30 2.418276
318.40 2.41524
318.50 2.412143
318.60 2.409232
318.70 2.406492
318.80 2.404684
318.90 2.404333
319.00 2.404668
319.10 2.405261
319.20 2.405956
319.30 2.406946
319.40 2.407935
319.50 2.408921
319.60 2.409563
319.70 2.409992
319.80 2.410421
319.90 2.410849
320.00 2.4111
320.10 2.411159
320.20 2.411125
320.30 2.410837
320.40 2.410582
320.50 2.410015
320.60 2.409461
320.70 2.408999
320.80 2.408453
320.90 2.407817
321.00 2.407182
321.10 2.406547
321.20 2.405668
321.30 2.404828
321.40 2.403988
321.50 2.403149
321.60 2.402311
321.70 2.401473
321.80 2.400656
321.90 2.399862
322.00 2.399004
322.10 2.39807
322.20 2.397137
322.30 2.396204
322.40 2.395272
322.50 2.394341
322.60 2.393411
322.70 2.392481
322.80 2.391413
322.90 2.390417
323.00 2.389423
323.10 2.388429
323.20 2.387436
323.30 2.386444
323.40 2.385452
323.50 2.384462
323.60 2.383472
323.70 2.382483
323.80 2.381494
323.90 2.380507
324.00 2.379491
324.10 2.378477
324.20 2.377463
324.30 2.376445
324.40 2.375425
324.50 2.374418
324.60 2.373411
324.70 2.372405
324.80 2.371399
324.90 2.370395
325.00 2.369391
325.10 2.368388
325.20 2.367391
325.30 2.366405
325.40 2.36542
325.50 2.364415
325.60 2.363387
325.70 2.362359
325.80 2.361332
325.90 2.360293
326.00 2.359243
326.10 2.358193
326.20 2.357144
326.30 2.356131
326.40 2.355219
326.50 2.354168
326.60 2.353117
326.70 2.352068
326.80 2.351019
326.90 2.349972
327.00 2.348925
327.10 2.347879
327.20 2.346834
327.30 2.345789
327.40 2.344746
327.50 2.343703
327.60 2.342661
327.70 2.34162
327.80 2.34058
327.90 2.339663
328.00 2.338751
328.10 2.337683
328.20 2.336615
328.30 2.335548
328.40 2.334482
328.50 2.33343
328.60 2.332382
328.70 2.331334
328.80 2.330293
328.90 2.329267
329.00 2.328241
329.10 2.327217
329.20 2.326193
329.30 2.32517
329.40 2.324147
329.50 2.323126
329.60 2.322105
329.70 2.321086
329.80 2.320067
329.90 2.319049
330.00 2.318042
330.10 2.31705
330.20 2.316058
330.30 2.315067
330.40 2.314051
330.50 2.313005
330.60 2.311961
330.70 2.310918
330.80 2.309875
330.90 2.308833
331.00 2.307792
331.10 2.306752
331.20 2.305713
331.30 2.304674
331.40 2.303637
331.50 2.302617
331.60 2.301619
331.70 2.300621
331.80 2.299595
331.90 2.298569
332.00 2.297544
332.10 2.296519
332.20 2.295495
332.30 2.294472
332.40 2.29345
332.50 2.292428
332.60 2.291408
332.70 2.290388
332.80 2.289369
332.90 2.288351
333.00 2.287333
333.10 2.286301
333.20 2.28525
333.30 2.284199
333.40 2.28315
333.50 2.282101
333.60 2.281054
333.70 2.280007
333.80 2.278961
333.90 2.277916
334.00 2.276871
334.10 2.275828
334.20 2.274785
334.30 2.273743
334.40 2.272702
334.50 2.271662
334.60 2.270623
334.70 2.269579
334.80 2.268553
334.90 2.267562
335.00 2.266572
335.10 2.265756
335.20 2.264721
335.30 2.263545
335.40 2.262512
335.50 2.26148
335.60 2.260449
335.70 2.259561
335.80 2.258532
335.90 2.257503
336.00 2.256475
336.10 2.255448
336.20 2.254422
336.30 2.253396
336.40 2.252372
336.50 2.251348
336.60 2.250325
336.70 2.249303
336.80 2.248282
336.90 2.24726
337.00 2.246237
337.10 2.245215
337.20 2.244194
337.30 2.243154
337.40 2.242087
337.50 2.241021
337.60 2.239956
337.70 2.238892
337.80 2.237828
337.90 2.236784
338.00 2.235763
338.10 2.234743
338.20 2.233723
338.30 2.232705
338.40 2.231691
338.50 2.230688
338.60 2.229685
338.70 2.228684
338.80 2.227683
338.90 2.226683
339.00 2.225684
339.10 2.224685
339.20 2.223688
339.30 2.222692
339.40 2.221698
339.50 2.220691
339.60 2.219668
339.70 2.218645
339.80 2.217623
339.90 2.216603
340.00 2.215583
340.10 2.214563
340.20 2.213545
340.30 2.212528
340.40 2.211511
340.50 2.210495
340.60 2.20948
340.70 2.208465
340.80 2.2074
340.90 2.206262
341.00 2.205192
341.10 2.204206
341.20 2.20322
341.30 2.202235
341.40 2.201251
341.50 2.200267
341.60 2.199285
341.70 2.198303
341.80 2.197281
341.90 2.196211
342.00 2.195142
342.10 2.194074
342.20 2.193116
342.30 2.192162
342.40 2.191115
342.50 2.190091
342.60 2.189067
342.70 2.188044
342.80 2.187022
342.90 2.186001
343.00 2.184968
343.10 2.183919
343.20 2.182871
343.30 2.181824
343.40 2.18081
343.50 2.179842
343.60 2.178876
343.70 2.17791
343.80 2.176944
343.90 2.17598
344.00 2.174985
344.10 2.173947
344.20 2.17291
344.30 2.171873
344.40 2.170868
344.50 2.169908
344.60 2.168826
344.70 2.167868
344.80 2.166618
344.90 2.165811
345.00 2.164821
345.10 2.163866
345.20 2.162871
345.30 2.161821
345.40 2.160771
345.50 2.15976
345.60 2.158782
345.70 2.157782
345.80 2.156782
345.90 2.155784
346.00 2.154786
346.10 2.153789
346.20 2.152788
346.30 2.151783
346.40 2.150778
346.50 2.149775
346.60 2.148772
346.70 2.147769
346.80 2.146768
346.90 2.145767
347.00 2.144768
347.10 2.143769
347.20 2.142764
347.30 2.141752
347.40 2.140741
347.50 2.139731
347.60 2.138721
347.70 2.137713
347.80 2.136705
347.90 2.135698
348.00 2.134691
348.10 2.133686
348.20 2.132681
348.30 2.131677
348.40 2.130674
348.50 2.129672
348.60 2.128671
348.70 2.127668
348.80 2.126664
348.90 2.12566
349.00 2.124656
349.10 2.123654
349.20 2.122652
349.30 2.121651
349.40 2.120651
349.50 2.119651
349.60 2.118653
349.70 2.117655
349.80 2.116658
349.90 2.115662
350.00 2.114666
350.10 2.113671
350.20 2.112678
350.30 2.111683
350.40 2.110688
350.50 2.109694
350.60 2.108701
350.70 2.107708
350.80 2.106716
350.90 2.105725
351.00 2.104735
351.10 2.103746
351.20 2.102757
351.30 2.101769
351.40 2.100776
351.50 2.099775
351.60 2.098773
351.70 2.097773
351.80 2.096774
351.90 2.095775
352.00 2.094777
352.10 2.09378
352.20 2.092784
352.30 2.091791
352.40 2.090802
352.50 2.089813
352.60 2.088826
352.70 2.087839
352.80 2.086853
352.90 2.085867
353.00 2.084883
353.10 2.083899
353.20 2.082916
353.30 2.081934
353.40 2.080952
353.50 2.079969
353.60 2.078985
353.70 2.078002
353.80 2.07702
353.90 2.076038
354.00 2.075056
354.10 2.074075
354.20 2.073094
354.30 2.072114
354.40 2.071135
354.50 2.070157
354.60 2.06918
354.70 2.068203
354.80 2.067228
354.90 2.066256
355.00 2.065284
355.10 2.064313
355.20 2.063343
355.30 2.062313
355.40 2.061284
355.50 2.060255
355.60 2.059227
355.70 2.058277
355.80 2.057362
355.90 2.05636
356.00 2.055345
356.10 2.054366
356.20 2.053388
356.30 2.052411
356.40 2.051434
356.50 2.050458
356.60 2.049483
356.70 2.048508
356.80 2.047535
356.90 2.046562
357.00 2.04559
357.10 2.044618
357.20 2.043648
357.30 2.042678
357.40 2.041706
357.50 2.04073
357.60 2.039755
357.70 2.03878
357.80 2.037767
357.90 2.036755
358.00 2.035771
358.10 2.034794
358.20 2.033817
358.30 2.032842
358.40 2.031867
358.50 2.030893
358.60 2.02992
358.70 2.028947
358.80 2.027975
358.90 2.027004
359.00 2.026022
359.10 2.025017
359.20 2.024013
359.30 2.023005
359.40 2.021998
359.50 2.020976
359.60 2.01995
359.70 2.018926
359.80 2.018012
359.90 2.017099
360.00 2.016149
360.10 2.015132
360.20 2.014115
360.30 2.0131
360.40 2.012085
360.50 2.011071
360.60 2.010006
360.70 2.009029
360.80 2.008052
360.90 2.007076
361.00 2.006052
361.10 2.005093
361.20 2.004104
361.30 2.003268
361.40 2.002159
361.50 2.001324
361.60 2.000267
361.70 1.999297
361.80 1.998356
361.90 1.997464
362.00 1.996573
362.10 1.995664
362.20 1.994747
362.30 1.993825
362.40 1.992903
362.50 1.991982
362.60 1.991062
362.70 1.99
362.80 1.989174
362.90 1.988212
363.00 1.987251
363.10 1.986281
363.20 1.98531
363.30 1.984242
363.40 1.98342
363.50 1.982329
363.60 1.981508
363.70 1.980568
363.80 1.979599
363.90 1.97864
364.00 1.977681
364.10 1.976723
364.20 1.975765
364.30 1.974826
364.40 1.973891
364.50 1.973077
364.60 1.972084
364.70 1.971092
364.80 1.9701
364.90 1.969154
365.00 1.968209
365.10 1.967265
365.20 1.966321
365.30 1.965378
365.40 1.964436
365.50 1.963495
365.60 1.962554
365.70 1.961602
365.80 1.960651
365.90 1.959722
366.00 1.958799
366.10 1.95786
366.20 1.956921
366.30 1.955983
366.40 1.955046
366.50 1.953989
366.60 1.953188
366.70 1.952223
366.80 1.951259
366.90 1.950294
367.00 1.949327
367.10 1.94836
367.20 1.947394
367.30 1.946429
367.40 1.945464
367.50 1.944542
367.60 1.94363
367.70 1.942712
367.80 1.941795
367.90 1.940878
368.00 1.939934
368.10 1.93888
368.20 1.937929
368.30 1.93698
368.40 1.936032
368.50 1.935085
368.60 1.934138
368.70 1.933192
368.80 1.932247
368.90 1.931265
369.00 1.930334
369.10 1.929433
369.20 1.928389
369.30 1.927519
369.40 1.92665
369.50 1.925781
369.60 1.924739
369.70 1.923698
369.80 1.922798
369.90 1.921899
370.00 1.921001
370.10 1.920063
370.20 1.919154
370.30 1.918248
370.40 1.917213
370.50 1.916179
370.60 1.915404
370.70 1.914371
370.80 1.913467
370.90 1.912565
371.00 1.911664
371.10 1.910764
371.20 1.909734
371.30 1.908706
371.40 1.907954
371.50 1.906975
371.60 1.905997
371.70 1.905019
371.80 1.904043
371.90 1.903067
372.00 1.902302
372.10 1.90128
372.20 1.900344
372.30 1.899409
372.40 1.898474
372.50 1.897541
372.60 1.896608
372.70 1.895676
372.80 1.894787
372.90 1.893898
373.00 1.893011
373.10 1.892125
373.20 1.891112
373.30 1.890098
373.40 1.889342
373.50 1.88833
373.60 1.88732
373.70 1.88631
373.80 1.885556
373.90 1.884547
374.00 1.883603
374.10 1.88266
374.20 1.881717
374.30 1.880776
374.40 1.87993
374.50 1.879021
374.60 1.878081
374.70 1.877143
374.80 1.876205
374.90 1.875268
375.00 1.874352
375.10 1.873437
375.20 1.872523
375.30 1.871598
375.40 1.870673
375.50 1.869749
375.60 1.868826
375.70 1.867903
375.80 1.866981
375.90 1.86606
376.00 1.865067
376.10 1.864185
376.20 1.863303
376.30 1.862423
376.40 1.861543
376.50 1.860655
376.60 1.859753
376.70 1.858853
376.80 1.857939
376.90 1.857011
377.00 1.856085
377.10 1.855159
377.20 1.854221
377.30 1.853239
377.40 1.852257
377.50 1.851275
377.60 1.850349
377.70 1.849424
377.80 1.848499
377.90 1.847575
378.00 1.846874
378.10 1.845932
378.20 1.844985
378.30 1.844038
378.40 1.843092
378.50 1.842147
378.60 1.841203
378.70 1.84026
378.80 1.839317
378.90 1.838429
379.00 1.837643
379.10 1.836674
379.20 1.835705
379.30 1.834777
379.40 1.83389
379.50 1.833003
379.60 1.832086
379.70 1.831127
379.80 1.830193
379.90 1.82926
380.00 1.828327
380.10 1.827395
380.20 1.826464
380.30 1.825534
380.40 1.824604
380.50 1.823675
380.60 1.822739
380.70 1.821838
380.80 1.820937
380.90 1.820037
381.00 1.819137
381.10 1.818183
381.20 1.817338
381.30 1.816521
381.40 1.815569
381.50 1.814617
381.60 1.813666
381.70 1.812716
381.80 1.811766
381.90 1.810818
382.00 1.80987
382.10 1.809045
382.20 1.80822
382.30 1.807274
382.40 1.806362
382.50 1.805501
382.60 1.80464
382.70 1.803741
382.80 1.802799
382.90 1.801858
383.00 1.800917
383.10 1.799977
383.20 1.799037
383.30 1.798099
383.40 1.797161
383.50 1.796224
383.60 1.795288
383.70 1.794352
383.80 1.793417
383.90 1.792483
384.00 1.791549
384.10 1.790617
384.20 1.789685
384.30 1.788753
384.40 1.787795
384.50 1.786809
384.60 1.785823
384.70 1.784839
384.80 1.783867
384.90 1.782904
385.00 1.781875
385.10 1.780849
385.20 1.779867
385.30 1.778821
385.40 1.777781
385.50 1.776747
385.60 1.775714
385.70 1.774682
385.80 1.773615
385.90 1.772416
386.00 1.771273
386.10 1.770176
386.20 1.768983
386.30 1.767791
386.40 1.766441
386.50 1.76515
386.60 1.763718
386.70 1.762389
386.80 1.760882
386.90 1.759377
387.00 1.757683
387.10 1.756061
387.20 1.754174
387.30 1.75211
387.40 1.74996
387.50 1.747545
387.60 1.74463
387.70 1.7413
387.80 1.737973
387.90 1.73465
388.00 1.731087
388.10 1.726563
388.20 1.72108
388.30 1.715016
388.40 1.708959
388.50 1.702833
388.60 1.6967
388.70 1.691161
388.80 1.686381
388.90 1.684262
389.00 1.686008
389.10 1.689439
389.20 1.69362
389.30 1.697929
389.40 1.70236
389.50 1.706561
389.60 1.710286
389.70 1.713005
389.80 1.714798
389.90 1.71659
390.00 1.718379
390.10 1.720167
390.20 1.721952
390.30 1.723058
390.40 1.723399
390.50 1.723739
390.60 1.724078
390.70 1.724417
390.80 1.72454
390.90 1.724449
391.00 1.724399
391.10 1.724083
391.20 1.723714
391.30 1.723182
391.40 1.72269
391.50 1.722197
391.60 1.721705
391.70 1.721213
391.80 1.720722
391.90 1.72015
392.00 1.719523
392.10 1.718947
392.20 1.718345
392.30 1.717548
392.40 1.716837
392.50 1.716182
392.60 1.715464
392.70 1.714665
392.80 1.713948
392.90 1.713194
393.00 1.712445
393.10 1.711639
393.20 1.710778
393.30 1.710024
393.40 1.709259
393.50 1.708391
393.60 1.707523
393.70 1.706822
393.80 1.706019
393.90 1.705152
394.00 1.704287
394.10 1.703422
394.20 1.702558
394.30 1.701695
394.40 1.700832
394.50 1.69997
394.60 1.69898
394.70 1.698019
394.80 1.697158
394.90 1.696299
395.00 1.695407
395.10 1.694354
395.20 1.693437
395.30 1.692506
395.40 1.691576
395.50 1.690565
395.60 1.689526
395.70 1.688498
395.80 1.687502
395.90 1.686506
396.00 1.685525
396.10 1.684643
396.20 1.683679
396.30 1.682747
396.40 1.681858
396.50 1.681013
396.60 1.680202
396.70 1.679582
396.80 1.678827
396.90 1.678115
397.00 1.677496
397.10 1.67684
397.20 1.676084
397.30 1.675454
397.40 1.674753
397.50 1.674052
397.60 1.673346
397.70 1.672585
397.80 1.671824
397.90 1.671085
398.00 1.670406
398.10 1.669728
398.20 1.668974
398.30 1.668136
398.40 1.667304
398.50 1.66664
398.60 1.665851
398.70 1.665015
398.80 1.66418
398.90 1.663346
399.00 1.662512
399.10 1.661679
399.20 1.660847
399.30 1.660015
399.40 1.659184
399.50 1.658353
399.60 1.657489
399.70 1.656612
399.80 1.655736
399.90 1.654861
400.00 1.653987
400.10 1.653161
400.20 1.652112
400.30 1.651216
400.40 1.650304
400.50 1.649416
400.60 1.648511
400.70 1.647578
400.80 1.646726
400.90 1.645683
401.00 1.644849
401.10 1.64382
401.20 1.642827
401.30 1.641961
401.40 1.641023
401.50 1.640042
401.60 1.639062
401.70 1.638076
401.80 1.637041
401.90 1.636064
402.00 1.635137
402.10 1.634111
402.20 1.63327
402.30 1.632267
402.40 1.631305
402.50 1.630205
402.60 1.629176
402.70 1.628586
402.80 1.628107
402.90 1.627497
403.00 1.626799
403.10 1.626233
403.20 1.625432
403.30 1.624794
403.40 1.624206
403.50 1.623551
403.60 1.622881
403.70 1.622277
403.80 1.621696
403.90 1.621017
404.00 1.620431
404.10 1.619722
404.20 1.61903
404.30 1.618338
404.40 1.617755
404.50 1.617065
404.60 1.616374
404.70 1.615576
404.80 1.614995
404.90 1.614197
405.00 1.613571
405.10 1.612883
405.20 1.612165
405.30 1.611447
405.40 1.610724
405.50 1.610002
405.60 1.60928
405.70 1.608559
405.80 1.607839
405.90 1.607119
406.00 1.606371
406.10 1.605623
406.20 1.604876
406.30 1.604129
406.40 1.603382
406.50 1.602593
406.60 1.601805
406.70 1.601018
406.80 1.600231
406.90 1.599445
407.00 1.59868
407.10 1.597917
407.20 1.597153
407.30 1.596391
407.40 1.595629
407.50 1.594867
407.60 1.594106
407.70 1.593346
407.80 1.592586
407.90 1.591826
408.00 1.591045
408.10 1.590266
408.20 1.589487
408.30 1.588708
408.40 1.58793
408.50 1.587153
408.60 1.586376
408.70 1.5856
408.80 1.584824
408.90 1.584049
409.00 1.583275
409.10 1.582501
409.20 1.581728
409.30 1.580955
409.40 1.580182
409.50 1.579411
409.60 1.57864
409.70 1.577869
409.80 1.577099
409.90 1.57633
410.00 1.575561
410.10 1.574793
410.20 1.574025
410.30 1.573258
410.40 1.572474
410.50 1.571639
410.60 1.570804
410.70 1.569983
410.80 1.569219
410.90 1.568455
411.00 1.567649
411.10 1.566826
411.20 1.566005
411.30 1.565196
411.40 1.564435
411.50 1.563674
411.60 1.562915
411.70 1.562135
411.80 1.561271
411.90 1.560429
412.00 1.559672
412.10 1.558915
412.20 1.558158
412.30 1.557403
412.40 1.556647
412.50 1.555893
412.60 1.555139
412.70 1.554385
412.80 1.553632
412.90 1.55288
413.00 1.552118
413.10 1.551325
413.20 1.550533
413.30 1.549741
413.40 1.54895
413.50 1.548168
413.60 1.547419
413.70 1.546671
413.80 1.545924
413.90 1.545177
414.00 1.544431
414.10 1.543685
414.20 1.54294
414.30 1.542195
414.40 1.541451
414.50 1.540707
414.60 1.539939
414.70 1.539093
414.80 1.538272
414.90 1.537531
415.00 1.53679
415.10 1.536049
415.20 1.53531
415.30 1.53457
415.40 1.533832
415.50 1.533093
415.60 1.532356
415.70 1.531618
415.80 1.530866
415.90 1.530062
416.00 1.529258
416.10 1.528469
416.20 1.527735
416.30 1.527001
416.40 1.526268
416.50 1.525532
416.60 1.524697
416.70 1.523866
416.80 1.523134
416.90 1.522404
417.00 1.521674
417.10 1.520944
417.20 1.520215
417.30 1.519485
417.40 1.518684
417.50 1.517885
417.60 1.5171
417.70 1.516373
417.80 1.515613
417.90 1.514854
418.00 1.514095
418.10 1.513337
418.20 1.512579
418.30 1.511823
418.40 1.51109
418.50 1.510324
418.60 1.509558
418.70 1.508793
418.80 1.508028
418.90 1.507264
419.00 1.506501
419.10 1.505738
419.20 1.504975
419.30 1.504215
419.40 1.503498
419.50 1.502781
419.60 1.502051
419.70 1.501267
419.80 1.500484
419.90 1.499708
420.00 1.498954
420.10 1.498201
420.20 1.497448
420.30 1.496696
420.40 1.495945
420.50 1.495194
420.60 1.494444
420.70 1.493694
420.80 1.492945
420.90 1.492197
421.00 1.491488
421.10 1.49078
421.20 1.490065
421.30 1.489329
421.40 1.488594
421.50 1.487859
421.60 1.487125
421.70 1.486391
421.80 1.485657
421.90 1.484908
422.00 1.484106
422.10 1.483312
422.20 1.482546
422.30 1.481781
422.40 1.481018
422.50 1.480276
422.60 1.479535
422.70 1.478795
422.80 1.478055
422.90 1.477316
423.00 1.476577
423.10 1.475839
423.20 1.475102
423.30 1.474365
423.40 1.473628
423.50 1.472892
423.60 1.472157
423.70 1.471422
423.80 1.470687
423.90 1.469953
424.00 1.46922
424.10 1.468487
424.20 1.467755
424.30 1.467023
424.40 1.4663
424.50 1.46557
424.60 1.464839
424.70 1.46411
424.80 1.463381
424.90 1.462652
