# Version 2.1 - nm, norm@500 to 1, cut digits, bergeron_He_5250_75.dat_5250
# Wavelength(nm)  Flambda(ergs/cm^s/s/nm)
300.00 0.1895121
300.10 0.1899045
300.20 0.1902966
300.30 0.19069
300.40 0.1910951
300.50 0.1914995
300.60 0.1919034
300.70 0.1923067
300.80 0.1927095
300.90 0.1931116
301.00 0.1935132
301.10 0.1939142
301.20 0.1943146
301.30 0.1947144
301.40 0.1951137
301.50 0.1955124
301.60 0.1959105
301.70 0.1963081
301.80 0.1967051
301.90 0.1971015
302.00 0.1974973
302.10 0.1979068
302.20 0.1983174
302.30 0.1987273
302.40 0.1991366
302.50 0.1995454
302.60 0.1999535
302.70 0.2003611
302.80 0.2007681
302.90 0.2011745
303.00 0.2015804
303.10 0.2019856
303.20 0.2023903
303.30 0.2027951
303.40 0.2032059
303.50 0.203616
303.60 0.2040256
303.70 0.2044345
303.80 0.2048429
303.90 0.2052507
304.00 0.205658
304.10 0.2060646
304.20 0.2064707
304.30 0.2068762
304.40 0.2072811
304.50 0.2076855
304.60 0.2081073
304.70 0.2085305
304.80 0.2089531
304.90 0.209375
305.00 0.2097964
305.10 0.2102173
305.20 0.2106375
305.30 0.2110571
305.40 0.2114761
305.50 0.2118945
305.60 0.2123123
305.70 0.2127296
305.80 0.2131462
305.90 0.2135623
306.00 0.2139777
306.10 0.2143926
306.20 0.2148069
306.30 0.2152206
306.40 0.2156479
306.50 0.2160789
306.60 0.2165092
306.70 0.216939
306.80 0.2173681
306.90 0.2177966
307.00 0.2182246
307.10 0.2186519
307.20 0.2190786
307.30 0.2195047
307.40 0.2199302
307.50 0.2203552
307.60 0.2207795
307.70 0.2212032
307.80 0.2216263
307.90 0.2220488
308.00 0.2224708
308.10 0.2228921
308.20 0.2233129
308.30 0.223733
308.40 0.2241526
308.50 0.2245715
308.60 0.2249899
308.70 0.2254077
308.80 0.2258341
308.90 0.2262862
309.00 0.2267132
309.10 0.2271397
309.20 0.2275655
309.30 0.2279908
309.40 0.228417
309.50 0.2288524
309.60 0.2292872
309.70 0.2297214
309.80 0.2301549
309.90 0.2305879
310.00 0.2310203
310.10 0.231452
310.20 0.2318831
310.30 0.2323137
310.40 0.2327466
310.50 0.2331821
310.60 0.233617
310.70 0.2340512
310.80 0.2344849
310.90 0.234918
311.00 0.2353634
311.10 0.2358083
311.20 0.2362525
311.30 0.2366946
311.40 0.2371321
311.50 0.2375689
311.60 0.2380052
311.70 0.2384408
311.80 0.2388758
311.90 0.2393103
312.00 0.2397441
312.10 0.2401773
312.20 0.2406033
312.30 0.2410515
312.40 0.2415113
312.50 0.2419215
312.60 0.2423801
312.70 0.2428381
312.80 0.2432954
312.90 0.2437424
313.00 0.2441781
313.10 0.2446133
313.20 0.2450479
313.30 0.2454858
313.40 0.2459344
313.50 0.2463823
313.60 0.2468297
313.70 0.2472764
313.80 0.2477224
313.90 0.2481679
314.00 0.2486128
314.10 0.2490667
314.20 0.2495201
314.30 0.2499728
314.40 0.2504248
314.50 0.2508763
314.60 0.2513271
314.70 0.2517773
314.80 0.2522136
314.90 0.2526494
315.00 0.2531257
315.10 0.2535808
315.20 0.2540353
315.30 0.2544892
315.40 0.2549424
315.50 0.255395
315.60 0.255847
315.70 0.2562983
315.80 0.2567491
315.90 0.2571992
316.00 0.2576487
316.10 0.2580975
316.20 0.2585458
316.30 0.2589934
316.40 0.2594764
316.50 0.2598868
316.60 0.2603326
316.70 0.2608136
316.80 0.261294
316.90 0.2617379
317.00 0.2621812
317.10 0.2626239
317.20 0.2630659
317.30 0.2635571
317.40 0.264038
317.50 0.2644915
317.60 0.2649442
317.70 0.2653964
317.80 0.265848
317.90 0.2662894
318.00 0.266747
318.10 0.267219
318.20 0.2676904
318.30 0.2681612
318.40 0.2686221
318.50 0.2690561
318.60 0.2695172
318.70 0.2699854
318.80 0.2704813
318.90 0.2709199
319.00 0.2713678
319.10 0.2718335
319.20 0.2722984
319.30 0.2727624
319.40 0.2732258
319.50 0.2736886
319.60 0.2741522
319.70 0.2746137
319.80 0.2750746
319.90 0.2755348
320.00 0.2759946
320.10 0.2764539
320.20 0.2769386
320.30 0.2774044
320.40 0.2778759
320.50 0.2783397
320.60 0.2788113
320.70 0.2792668
320.80 0.2797301
320.90 0.2802019
321.00 0.280673
321.10 0.2811435
321.20 0.2816126
321.30 0.2820882
321.40 0.2825632
321.50 0.2830376
321.60 0.2835113
321.70 0.2839844
321.80 0.2844607
321.90 0.2849406
322.00 0.2853821
322.10 0.2858603
322.20 0.2863378
322.30 0.2868146
322.40 0.2872908
322.50 0.2877664
322.60 0.2882413
322.70 0.2887156
322.80 0.2891846
322.90 0.2896611
323.00 0.2901369
323.10 0.290612
323.20 0.2910865
323.30 0.2915604
323.40 0.2920336
323.50 0.2925062
323.60 0.2929781
323.70 0.2934495
323.80 0.2939201
323.90 0.2943901
324.00 0.294868
324.10 0.2953451
324.20 0.2958217
324.30 0.296286
324.40 0.2967439
324.50 0.2972307
324.60 0.2977169
324.70 0.2982023
324.80 0.2986872
324.90 0.2991713
325.00 0.2996549
325.10 0.3001377
325.20 0.3006189
325.30 0.3010972
325.40 0.3015749
325.50 0.302054
325.60 0.302535
325.70 0.3030153
325.80 0.303495
325.90 0.3039705
326.00 0.3044416
326.10 0.304912
326.20 0.3053818
326.30 0.3058616
326.40 0.3063708
326.50 0.3068569
326.60 0.3073424
326.70 0.3078272
326.80 0.3083114
326.90 0.3087949
327.00 0.3092778
327.10 0.3097601
327.20 0.3102416
327.30 0.3107226
327.40 0.3112029
327.50 0.3116825
327.60 0.3121616
327.70 0.3126399
327.80 0.3131176
327.90 0.313617
328.00 0.3141232
328.10 0.3146086
328.20 0.3150932
328.30 0.3155773
328.40 0.3160607
328.50 0.316544
328.60 0.3170269
328.70 0.3175091
328.80 0.317994
328.90 0.3184875
329.00 0.3189803
329.10 0.3194725
329.20 0.3199641
329.30 0.320455
329.40 0.3209452
329.50 0.3214348
329.60 0.3219237
329.70 0.322412
329.80 0.3228996
329.90 0.3233866
330.00 0.3238803
330.10 0.3243824
330.20 0.3248838
330.30 0.3253846
330.40 0.3258828
330.50 0.3263781
330.60 0.3268728
330.70 0.3273668
330.80 0.3278601
330.90 0.3283528
331.00 0.3288449
331.10 0.3293363
331.20 0.329827
331.30 0.3303171
331.40 0.3308065
331.50 0.3312931
331.60 0.3317763
331.70 0.3322589
331.80 0.3327591
331.90 0.3332594
332.00 0.333759
332.10 0.334258
332.20 0.3347563
332.30 0.3352539
332.40 0.3357509
332.50 0.3362472
332.60 0.3367429
332.70 0.3372379
332.80 0.3377323
332.90 0.338226
333.00 0.338719
333.10 0.3392134
333.20 0.3397095
333.30 0.3402049
333.40 0.3406997
333.50 0.3411938
333.60 0.3416873
333.70 0.3421801
333.80 0.3426723
333.90 0.3431638
334.00 0.3436547
334.10 0.3441507
334.20 0.3446532
334.30 0.345155
334.40 0.3456561
334.50 0.3461566
334.60 0.3466564
334.70 0.3471711
334.80 0.3476917
334.90 0.3481939
335.00 0.3486955
335.10 0.3491599
335.20 0.3496878
335.30 0.3501798
335.40 0.3506663
335.50 0.3511682
335.60 0.3516933
335.70 0.3521747
335.80 0.3526667
335.90 0.3531651
336.00 0.3536716
336.10 0.3541775
336.20 0.3546827
336.30 0.3551897
336.40 0.3556989
336.50 0.3562074
336.60 0.3567152
336.70 0.3572224
336.80 0.3577289
336.90 0.3582363
337.00 0.3587448
337.10 0.3592527
337.20 0.3597599
337.30 0.3602627
337.40 0.3607595
337.50 0.3612555
337.60 0.361751
337.70 0.3622458
337.80 0.3627399
337.90 0.3632444
338.00 0.3637615
338.10 0.364278
338.20 0.3647938
338.30 0.365309
338.40 0.3658209
338.50 0.3663258
338.60 0.36683
338.70 0.3673336
338.80 0.3678366
338.90 0.3683389
339.00 0.3688405
339.10 0.3693415
339.20 0.3698418
339.30 0.3703478
339.40 0.3708623
339.50 0.3713761
339.60 0.3718892
339.70 0.3724016
339.80 0.3729133
339.90 0.3734244
340.00 0.3739348
340.10 0.3744445
340.20 0.3749536
340.30 0.375462
340.40 0.3759697
340.50 0.3764768
340.60 0.3769832
340.70 0.377489
340.80 0.3779941
340.90 0.3784987
341.00 0.3790065
341.10 0.3795184
341.20 0.3800296
341.30 0.3805402
341.40 0.3810501
341.50 0.3815593
341.60 0.3820679
341.70 0.3825758
341.80 0.3830866
341.90 0.3836009
342.00 0.3841145
342.10 0.3846275
342.20 0.3851459
342.30 0.3856397
342.40 0.3861349
342.50 0.3866502
342.60 0.3871648
342.70 0.3876787
342.80 0.388192
342.90 0.3887046
343.00 0.3892179
343.10 0.3897321
343.20 0.3902456
343.30 0.3907585
343.40 0.3912717
343.50 0.3917856
343.60 0.3922988
343.70 0.3928113
343.80 0.3933232
343.90 0.3938344
344.00 0.394347
344.10 0.394862
344.20 0.3953763
344.30 0.3958899
344.40 0.3964091
344.50 0.3969366
344.60 0.3974633
344.70 0.3979894
344.80 0.3984544
344.90 0.3989791
345.00 0.3995032
345.10 0.4000267
345.20 0.4005494
345.30 0.4010715
345.40 0.4015929
345.50 0.4020876
345.60 0.4025735
345.70 0.4030929
345.80 0.4036117
345.90 0.4041298
346.00 0.4046472
346.10 0.405164
346.20 0.4056826
346.30 0.406204
346.40 0.4067248
346.50 0.4072449
346.60 0.4077643
346.70 0.4082831
346.80 0.4088012
346.90 0.4093186
347.00 0.4098354
347.10 0.4103515
347.20 0.4108693
347.30 0.4113898
347.40 0.4119096
347.50 0.4124288
347.60 0.4129474
347.70 0.4134652
347.80 0.4139824
347.90 0.4144989
348.00 0.4150148
348.10 0.41553
348.20 0.4160445
348.30 0.4165584
348.40 0.4170717
348.50 0.4175842
348.60 0.4180961
348.70 0.4186027
348.80 0.4191155
348.90 0.4196394
349.00 0.4201627
349.10 0.4206853
349.20 0.4212073
349.30 0.4217286
349.40 0.4222492
349.50 0.4227692
349.60 0.4232884
349.70 0.4238071
349.80 0.424325
349.90 0.4248423
350.00 0.425359
350.10 0.425875
350.20 0.4263903
350.30 0.4269095
350.40 0.4274346
350.50 0.427959
350.60 0.4284827
350.70 0.4290058
350.80 0.4295282
350.90 0.4300499
351.00 0.430571
351.10 0.4310914
351.20 0.4316112
351.30 0.4321302
351.40 0.432649
351.50 0.4331676
351.60 0.4336855
351.70 0.4342028
351.80 0.4347195
351.90 0.4352354
352.00 0.4357508
352.10 0.4362654
352.20 0.4367944
352.30 0.4373226
352.40 0.4378477
352.50 0.4383721
352.60 0.4388958
352.70 0.4394189
352.80 0.4399413
352.90 0.440463
353.00 0.4409841
353.10 0.4415046
353.20 0.4420243
353.30 0.4425434
353.40 0.4430619
353.50 0.4435768
353.60 0.4440904
353.70 0.4446033
353.80 0.4451155
353.90 0.4456319
354.00 0.4461561
354.10 0.4466797
354.20 0.4472026
354.30 0.4477248
354.40 0.4482464
354.50 0.4487673
354.60 0.4492876
354.70 0.4498072
354.80 0.4503281
354.90 0.4508513
355.00 0.4513739
355.10 0.4518957
355.20 0.452417
355.30 0.4529423
355.40 0.4534669
355.50 0.4539909
355.60 0.4545143
355.70 0.4550387
355.80 0.4555632
355.90 0.4560619
356.00 0.4565765
356.10 0.4571057
356.20 0.4576342
356.30 0.4581621
356.40 0.4586893
356.50 0.4592158
356.60 0.4597417
356.70 0.4602669
356.80 0.4607915
356.90 0.4613154
357.00 0.4618386
357.10 0.4623612
357.20 0.4628831
357.30 0.4634044
357.40 0.4639218
357.50 0.4644327
357.60 0.4649431
357.70 0.4654527
357.80 0.4659843
357.90 0.4665151
358.00 0.4670405
358.10 0.4675641
358.20 0.468087
358.30 0.4686093
358.40 0.4691309
358.50 0.4696518
358.60 0.4701721
358.70 0.4706918
358.80 0.4712108
358.90 0.4717291
359.00 0.4722451
359.10 0.4727575
359.20 0.4732712
359.30 0.4737968
359.40 0.4743219
359.50 0.4748517
359.60 0.4753822
359.70 0.4759121
359.80 0.4764263
359.90 0.4769398
360.00 0.4774592
360.10 0.4779894
360.20 0.4785189
360.30 0.4790478
360.40 0.479576
360.50 0.4801035
360.60 0.4806268
360.70 0.4811481
360.80 0.4816688
360.90 0.4821888
361.00 0.4827089
361.10 0.4832121
361.20 0.4837102
361.30 0.4842359
361.40 0.484794
361.50 0.4852964
361.60 0.4858333
361.70 0.4863344
361.80 0.4868438
361.90 0.4873685
362.00 0.4878926
362.10 0.4884217
362.20 0.4889494
362.30 0.4894727
362.40 0.4899952
362.50 0.4905171
362.60 0.4910384
362.70 0.4915638
362.80 0.4920761
362.90 0.4925929
363.00 0.4931091
363.10 0.4936346
363.20 0.4941595
363.30 0.4947007
363.40 0.495191
363.50 0.4957351
363.60 0.4962785
363.70 0.4968031
363.80 0.497309
363.90 0.4978245
364.00 0.4983395
364.10 0.4988538
364.20 0.4993674
364.30 0.4999011
364.40 0.5004392
364.50 0.5009307
364.60 0.5014648
364.70 0.5019983
364.80 0.5025312
364.90 0.503039
365.00 0.5035463
365.10 0.5040798
365.20 0.5046127
365.30 0.5050911
365.40 0.5056227
365.50 0.5061537
365.60 0.506684
365.70 0.5072137
365.80 0.5077427
365.90 0.5082471
366.00 0.508745
366.10 0.5092714
366.20 0.5097972
366.30 0.5103223
366.40 0.5108468
366.50 0.5113659
366.60 0.5118977
366.70 0.5124087
366.80 0.5129191
366.90 0.5134353
367.00 0.5139623
367.10 0.5144887
367.20 0.5150144
367.30 0.5155395
367.40 0.5160639
367.50 0.5165831
367.60 0.5171005
367.70 0.5176172
367.80 0.5181333
367.90 0.5186488
368.00 0.5191636
368.10 0.51967
368.20 0.5201941
368.30 0.5207178
368.40 0.5212408
368.50 0.5217633
368.60 0.522285
368.70 0.5228061
368.80 0.5233266
368.90 0.523829
369.00 0.5243498
369.10 0.5248824
369.20 0.5253978
369.30 0.5258692
369.40 0.52634
369.50 0.5268103
369.60 0.5273111
369.70 0.5278113
369.80 0.5283781
369.90 0.5289449
370.00 0.529511
370.10 0.5298295
370.20 0.5305824
370.30 0.531345
370.40 0.5315928
370.50 0.5320853
370.60 0.5325903
370.70 0.5333498
370.80 0.5338429
370.90 0.5343355
371.00 0.5348352
371.10 0.5353343
371.20 0.535825
371.30 0.5363151
371.40 0.5368352
371.50 0.5373226
371.60 0.5378095
371.70 0.5382957
371.80 0.5387813
371.90 0.5392663
372.00 0.5398009
372.10 0.5402529
372.20 0.540828
372.30 0.5414023
372.40 0.541976
372.50 0.542549
372.60 0.5431213
372.70 0.5436929
372.80 0.5441737
372.90 0.5446538
373.00 0.5451411
373.10 0.5456279
373.20 0.5461101
373.30 0.5465918
373.40 0.5470729
373.50 0.5478111
373.60 0.5480332
373.70 0.5485125
373.80 0.548959
373.90 0.5494693
374.00 0.5500754
374.10 0.5506807
374.20 0.5512854
374.30 0.5518893
374.40 0.5522359
374.50 0.5528259
374.60 0.5533064
374.70 0.5537815
374.80 0.5542559
374.90 0.5547298
375.00 0.5552865
375.10 0.5558424
375.20 0.5563977
375.30 0.5569037
375.40 0.5574091
375.50 0.5579138
375.60 0.558418
375.70 0.5589215
375.80 0.5594244
375.90 0.5599267
376.00 0.5606363
376.10 0.561116
376.20 0.5615928
376.30 0.562069
376.40 0.5625446
376.50 0.56306
376.60 0.5636354
376.70 0.5642101
376.80 0.5647607
376.90 0.5652872
377.00 0.5658131
377.10 0.5663384
377.20 0.5668551
377.30 0.5673417
377.40 0.5678276
377.50 0.568313
377.60 0.5687797
377.70 0.5692458
377.80 0.5697113
377.90 0.5701763
378.00 0.5708253
378.10 0.5713428
378.20 0.5718555
378.30 0.5723676
378.40 0.572879
378.50 0.5733899
378.60 0.5739001
378.70 0.5744097
378.80 0.5749187
378.90 0.5754027
379.00 0.575841
379.10 0.5763379
379.20 0.5768343
379.30 0.5773333
379.40 0.577835
379.50 0.578336
379.60 0.5788499
379.70 0.5793732
379.80 0.5798567
379.90 0.5803396
380.00 0.580822
380.10 0.5813037
380.20 0.5817849
380.30 0.5822655
380.40 0.5827455
380.50 0.5832249
380.60 0.5837839
380.70 0.5843796
380.80 0.5849746
380.90 0.5855688
381.00 0.5861623
381.10 0.5864738
381.20 0.5869773
381.30 0.5874047
381.40 0.5881664
381.50 0.5886184
381.60 0.589098
381.70 0.5895728
381.80 0.5901229
381.90 0.5905536
382.00 0.5909838
382.10 0.5914135
382.20 0.592138
382.30 0.5925665
382.40 0.593035
382.50 0.5935639
382.60 0.5940922
382.70 0.5944638
382.80 0.594864
382.90 0.5954681
383.00 0.5960716
383.10 0.5966743
383.20 0.597255
383.30 0.5977549
383.40 0.5982093
383.50 0.598596
383.60 0.5988481
383.70 0.5993727
383.80 0.5998968
383.90 0.6004202
384.00 0.6009429
384.10 0.6014651
384.20 0.6019866
384.30 0.6025075
384.40 0.6030081
384.50 0.6034883
384.60 0.6039679
384.70 0.604447
384.80 0.6049962
384.90 0.6057075
385.00 0.606226
385.10 0.6067447
385.20 0.6072438
385.30 0.6076665
385.40 0.6081149
385.50 0.6085892
385.60 0.6090629
385.70 0.609536
385.80 0.610021
385.90 0.6105522
386.00 0.6110018
386.10 0.6113919
386.20 0.6120063
386.30 0.6126199
386.40 0.6130032
386.50 0.6136121
386.60 0.6141793
386.70 0.6145832
386.80 0.6149866
386.90 0.6155096
387.00 0.6159239
387.10 0.6167937
387.20 0.6171704
387.30 0.6176073
387.40 0.6180043
387.50 0.6186079
387.60 0.6192094
387.70 0.6197274
387.80 0.6202448
387.90 0.6207616
388.00 0.6212188
388.10 0.6213325
388.20 0.6218714
388.30 0.6224598
388.40 0.6230475
388.50 0.6236094
388.60 0.6240838
388.70 0.6245339
388.80 0.6249127
388.90 0.6253344
389.00 0.6259933
389.10 0.6265379
389.20 0.6271875
389.30 0.6276574
389.40 0.6280648
389.50 0.6284987
389.60 0.6289209
389.70 0.6292663
389.80 0.629829
389.90 0.6303911
390.00 0.6309525
390.10 0.6315132
390.20 0.6320733
390.30 0.6325748
390.40 0.6330104
390.50 0.6334455
390.60 0.63388
390.70 0.6343141
390.80 0.6347676
390.90 0.6352407
391.00 0.6358482
391.10 0.6364362
391.20 0.6369652
391.30 0.637344
391.40 0.6378009
391.50 0.6382572
391.60 0.638713
391.70 0.6391683
391.80 0.6396229
391.90 0.6401216
392.00 0.6406442
392.10 0.6411276
392.20 0.6416088
392.30 0.6421547
392.40 0.6427772
392.50 0.6429733
392.60 0.6438124
392.70 0.6441841
392.80 0.6445554
392.90 0.645105
393.00 0.6455198
393.10 0.6460607
393.20 0.6467152
393.30 0.6470839
393.40 0.6475055
393.50 0.6479012
393.60 0.6484088
393.70 0.6490597
393.80 0.6494049
393.90 0.6500024
394.00 0.650583
394.10 0.6509802
394.20 0.6513548
394.30 0.651779
394.40 0.65251
394.50 0.6530272
394.60 0.6534704
394.70 0.6539285
394.80 0.654444
394.90 0.6549482
395.00 0.6551298
395.10 0.6558385
395.20 0.6563817
395.30 0.6567993
395.40 0.6572164
395.50 0.6576321
395.60 0.6580469
395.70 0.6584936
395.80 0.6590272
395.90 0.6595602
396.00 0.6600649
396.10 0.6603874
396.20 0.6609705
396.30 0.6616147
396.40 0.6619675
396.50 0.6623943
396.60 0.6630491
396.70 0.6633322
396.80 0.6638516
396.90 0.6643757
397.00 0.6649082
397.10 0.6653335
397.20 0.6658101
397.30 0.6663762
397.40 0.6667569
397.50 0.6671372
397.60 0.6675253
397.70 0.6679959
397.80 0.668466
397.90 0.6689371
398.00 0.6694118
398.10 0.669886
398.20 0.6704158
398.30 0.6710082
398.40 0.6715931
398.50 0.6719528
398.60 0.6725145
398.70 0.6729627
398.80 0.6733636
398.90 0.6738573
399.00 0.6745236
399.10 0.6747117
399.20 0.6752019
399.30 0.6756915
399.40 0.6761805
399.50 0.6766689
399.60 0.6771831
399.70 0.6777064
399.80 0.6782291
399.90 0.6787512
400.00 0.6792676
400.10 0.6796193
400.20 0.6800963
400.30 0.6805923
400.40 0.6809617
400.50 0.6815876
400.60 0.6819017
400.70 0.6824573
400.80 0.6828063
400.90 0.6834335
401.00 0.6839414
401.10 0.684166
401.20 0.6848281
401.30 0.6853468
401.40 0.6858341
401.50 0.6863188
401.60 0.6867987
401.70 0.6871425
401.80 0.687685
401.90 0.688
402.00 0.6885437
402.10 0.6890748
402.20 0.6892349
402.30 0.6899786
402.40 0.6904309
402.50 0.6908137
402.60 0.6913818
402.70 0.6919018
402.80 0.6922233
402.90 0.6926329
403.00 0.6929535
403.10 0.6936279
403.20 0.6941891
403.30 0.6945252
403.40 0.6950584
403.50 0.695524
403.60 0.6959572
403.70 0.6964222
403.80 0.6969821
403.90 0.6973886
404.00 0.6978449
404.10 0.6981274
404.20 0.6986625
404.30 0.699197
404.40 0.6995309
404.50 0.7000443
404.60 0.700577
404.70 0.7008896
404.80 0.7014468
404.90 0.7019522
405.00 0.702294
405.10 0.702762
405.20 0.7031974
405.30 0.7036323
405.40 0.7040876
405.50 0.7045423
405.60 0.7049965
405.70 0.7054501
405.80 0.7059033
405.90 0.7063558
406.00 0.7067981
406.10 0.7072398
406.20 0.707681
406.30 0.7081217
406.40 0.7085818
406.50 0.7092799
406.60 0.7097991
406.70 0.7102111
406.80 0.7105411
406.90 0.7111656
407.00 0.7115978
407.10 0.7120294
407.20 0.7124605
407.30 0.7128911
407.40 0.7133212
407.50 0.7137508
407.60 0.7141799
407.70 0.7146085
407.80 0.7150366
407.90 0.7154692
408.00 0.7160629
408.10 0.7164672
408.20 0.7167911
408.30 0.7172833
408.40 0.7177748
408.50 0.7180819
408.60 0.7186249
408.70 0.7191673
408.80 0.7196651
408.90 0.7198871
409.00 0.7203604
409.10 0.7208332
409.20 0.7213054
409.30 0.721777
409.40 0.7222462
409.50 0.7226513
409.60 0.7230559
409.70 0.7234666
409.80 0.723903
409.90 0.7243402
410.00 0.7248177
410.10 0.7255335
410.20 0.7259278
410.30 0.7262416
410.40 0.7265971
410.50 0.7270856
410.60 0.7275735
410.70 0.7280651
410.80 0.7285735
410.90 0.7290813
411.00 0.7294876
411.10 0.7298561
411.20 0.7302242
411.30 0.7306653
411.40 0.7313896
411.50 0.7317847
411.60 0.7321792
411.70 0.7325931
411.80 0.7330856
411.90 0.733408
412.00 0.7338995
412.10 0.7342845
412.20 0.7348808
412.30 0.7350921
412.40 0.7354674
412.50 0.7361069
412.60 0.7366555
412.70 0.7370053
412.80 0.7373052
412.90 0.7378917
413.00 0.7381408
413.10 0.7386198
413.20 0.7390982
413.30 0.739576
413.40 0.7400533
413.50 0.7405384
413.60 0.7410226
413.70 0.7413999
413.80 0.7417767
413.90 0.742153
414.00 0.7425541
414.10 0.7430344
414.20 0.7435644
414.30 0.7438341
414.40 0.7445222
414.50 0.7447813
414.60 0.7453774
414.70 0.7456453
414.80 0.745963
414.90 0.7464392
415.00 0.7469147
415.10 0.7473897
415.20 0.7478511
415.30 0.7482705
415.40 0.7486894
415.50 0.7491068
415.60 0.7494926
415.70 0.749878
415.80 0.750281
415.90 0.750741
416.00 0.7512004
416.10 0.7516547
416.20 0.7520901
416.30 0.752525
416.40 0.7529595
416.50 0.7533944
416.60 0.7538616
416.70 0.7543345
416.80 0.7545979
416.90 0.7550438
417.00 0.7556264
417.10 0.7561834
417.20 0.7564408
417.30 0.7567055
417.40 0.7572183
417.50 0.7577304
417.60 0.7582081
