# Version 2.1 - nm, norm@500 to 1, cut digits, bergeron_He_5000_85.dat_5000
# Wavelength(nm)  Flambda(ergs/cm^s/s/nm)
300.00 0.1836721
300.10 0.1840409
300.20 0.1844072
300.30 0.1847771
300.40 0.1851735
300.50 0.1855693
300.60 0.1859645
300.70 0.1863591
300.80 0.1867532
300.90 0.1871467
301.00 0.1875397
301.10 0.1879321
301.20 0.1883239
301.30 0.1887151
301.40 0.1891059
301.50 0.189496
301.60 0.1898856
301.70 0.1902746
301.80 0.1906631
301.90 0.191051
302.00 0.1914384
302.10 0.1918404
302.20 0.1922436
302.30 0.1926463
302.40 0.1930483
302.50 0.1934498
302.60 0.1938507
302.70 0.194251
302.80 0.1946508
302.90 0.19505
303.00 0.1954486
303.10 0.1958466
303.20 0.1962441
303.30 0.196642
303.40 0.1970474
303.50 0.1974524
303.60 0.1978567
303.70 0.1982605
303.80 0.1986637
303.90 0.1990663
304.00 0.1994683
304.10 0.1998698
304.20 0.2002707
304.30 0.2006711
304.40 0.2010708
304.50 0.20147
304.60 0.2018782
304.70 0.2022868
304.80 0.2026948
304.90 0.2031022
305.00 0.2035091
305.10 0.2039154
305.20 0.2043211
305.30 0.2047263
305.40 0.2051308
305.50 0.2055348
305.60 0.2059383
305.70 0.2063411
305.80 0.2067434
305.90 0.2071451
306.00 0.2075463
306.10 0.2079468
306.20 0.2083468
306.30 0.2087463
306.40 0.2091636
306.50 0.2095858
306.60 0.2100074
306.70 0.2104285
306.80 0.2108489
306.90 0.2112687
307.00 0.211688
307.10 0.2121066
307.20 0.2125247
307.30 0.2129422
307.40 0.2133591
307.50 0.2137754
307.60 0.2141911
307.70 0.2146062
307.80 0.2150208
307.90 0.2154347
308.00 0.2158481
308.10 0.2162609
308.20 0.2166731
308.30 0.2170848
308.40 0.2174958
308.50 0.2179063
308.60 0.2183162
308.70 0.2187255
308.80 0.2191334
308.90 0.2195382
309.00 0.2199627
309.10 0.2203866
309.20 0.2208099
309.30 0.2212327
309.40 0.2216553
309.50 0.2220803
309.60 0.2225047
309.70 0.2229286
309.80 0.2233518
309.90 0.2237745
310.00 0.2241966
310.10 0.224618
310.20 0.2250389
310.30 0.2254592
310.40 0.2258894
310.50 0.2263305
310.60 0.2267708
310.70 0.2272106
310.80 0.2276498
310.90 0.2280883
311.00 0.2285127
311.10 0.2289365
311.20 0.2293598
311.30 0.2297843
311.40 0.2302139
311.50 0.2306429
311.60 0.2310713
311.70 0.231499
311.80 0.2319262
311.90 0.2323528
312.00 0.2327788
312.10 0.2332042
312.20 0.2336587
312.30 0.2340814
312.40 0.234466
312.50 0.2349156
312.60 0.2353595
312.70 0.2358027
312.80 0.2362452
312.90 0.2366862
313.00 0.2371255
313.10 0.2375642
313.20 0.2380022
313.30 0.2384406
313.40 0.238881
313.50 0.2393208
313.60 0.23976
313.70 0.2401986
313.80 0.2406366
313.90 0.2410739
314.00 0.2415107
314.10 0.2419472
314.20 0.242383
314.30 0.2428183
314.40 0.2432529
314.50 0.243687
314.60 0.2441204
314.70 0.2445533
314.80 0.2449907
314.90 0.2454271
315.00 0.2458468
315.10 0.2462897
315.20 0.246732
315.30 0.2471737
315.40 0.2476148
315.50 0.2480552
315.60 0.2484951
315.70 0.2489501
315.80 0.2494044
315.90 0.2498581
316.00 0.2503112
316.10 0.2507637
316.20 0.2512155
316.30 0.2516198
316.40 0.2520705
316.50 0.2525205
316.60 0.252923
316.70 0.2533718
316.80 0.25382
316.90 0.2542676
317.00 0.2547146
317.10 0.2551609
317.20 0.2556066
317.30 0.2560887
317.40 0.2565623
317.50 0.257013
317.60 0.257463
317.70 0.2579124
317.80 0.2583611
317.90 0.2588099
318.00 0.2592206
318.10 0.259684
318.20 0.2601468
318.30 0.2606089
318.40 0.2610644
318.50 0.2615021
318.60 0.2619633
318.70 0.2623998
318.80 0.2628404
318.90 0.2632711
319.00 0.2637741
319.10 0.2642082
319.20 0.2646444
319.30 0.2650878
319.40 0.2655305
319.50 0.2659727
319.60 0.2664707
319.70 0.2669359
319.80 0.2674005
319.90 0.2678644
320.00 0.2683111
320.10 0.2687391
320.20 0.2692282
320.30 0.2696373
320.40 0.2701002
320.50 0.2705807
320.60 0.2710532
320.70 0.2714776
320.80 0.2719233
320.90 0.2723921
321.00 0.2728603
321.10 0.2733279
321.20 0.2737438
321.30 0.2742028
321.40 0.2746613
321.50 0.2751191
321.60 0.2755763
321.70 0.2760329
321.80 0.2765111
321.90 0.2770129
322.00 0.2774464
322.10 0.2779157
322.20 0.2783845
322.30 0.2788526
322.40 0.2793201
322.50 0.2797869
322.60 0.2802531
322.70 0.2807187
322.80 0.2811357
322.90 0.2816094
323.00 0.2820825
323.10 0.2825549
323.20 0.2830267
323.30 0.2834979
323.40 0.2839684
323.50 0.2844383
323.60 0.2849075
323.70 0.2853762
323.80 0.2858441
323.90 0.2863115
324.00 0.2867805
324.10 0.2872489
324.20 0.2877167
324.30 0.288165
324.40 0.2885997
324.50 0.2890775
324.60 0.2895547
324.70 0.2900312
324.80 0.2905071
324.90 0.2909823
325.00 0.2914569
325.10 0.2919309
325.20 0.2924032
325.30 0.2928727
325.40 0.2933416
325.50 0.2938093
325.60 0.2942759
325.70 0.2947418
325.80 0.295207
325.90 0.2956734
326.00 0.2961411
326.10 0.2966081
326.20 0.2970745
326.30 0.2975356
326.40 0.2979829
326.50 0.2984616
326.60 0.2989397
326.70 0.2994171
326.80 0.2998939
326.90 0.30037
327.00 0.3008455
327.10 0.3013204
327.20 0.3017946
327.30 0.3022682
327.40 0.3027412
327.50 0.3032135
327.60 0.3036852
327.70 0.3041563
327.80 0.3046267
327.90 0.3051074
328.00 0.3055989
328.10 0.3060894
328.20 0.3065792
328.30 0.3070684
328.40 0.3075569
328.50 0.308034
328.60 0.3085079
328.70 0.3089812
328.80 0.3094561
328.90 0.3099368
329.00 0.3104168
329.10 0.3108962
329.20 0.311375
329.30 0.3118531
329.40 0.3123305
329.50 0.3128074
329.60 0.3132836
329.70 0.3137592
329.80 0.3142341
329.90 0.3147084
330.00 0.3151861
330.10 0.315668
330.20 0.3161493
330.30 0.3166299
330.40 0.3171132
330.50 0.3175993
330.60 0.3180849
330.70 0.3185697
330.80 0.3190539
330.90 0.3195375
331.00 0.3200205
331.10 0.3205027
331.20 0.3209844
331.30 0.3214654
331.40 0.3219458
331.50 0.3224311
331.60 0.3229225
331.70 0.3234133
331.80 0.3239003
331.90 0.3243866
332.00 0.3248722
332.10 0.3253571
332.20 0.3258415
332.30 0.3263251
332.40 0.3268082
332.50 0.3272906
332.60 0.3277723
332.70 0.3282534
332.80 0.3287339
332.90 0.3292138
333.00 0.329693
333.10 0.3301794
333.20 0.3306747
333.30 0.3311694
333.40 0.3316635
333.50 0.3321568
333.60 0.3326496
333.70 0.3331417
333.80 0.3336331
333.90 0.3341239
334.00 0.3346141
334.10 0.3351023
334.20 0.3355883
334.30 0.3360737
334.40 0.3365585
334.50 0.3370426
334.60 0.3375261
334.70 0.3380274
334.80 0.3385284
334.90 0.3389973
335.00 0.3394656
335.10 0.3399744
335.20 0.3404819
335.30 0.3409512
335.40 0.3414574
335.50 0.3419629
335.60 0.3424365
335.70 0.3429262
335.80 0.3434298
335.90 0.3439233
336.00 0.3444048
336.10 0.3448856
336.20 0.3453658
336.30 0.3458547
336.40 0.3463544
336.50 0.3468534
336.60 0.3473518
336.70 0.3478495
336.80 0.3483466
336.90 0.3488399
337.00 0.3493287
337.10 0.3498168
337.20 0.3503043
337.30 0.350796
337.40 0.3512939
337.50 0.3517911
337.60 0.3522877
337.70 0.3527836
337.80 0.3532789
337.90 0.3537796
338.00 0.3542871
338.10 0.3547939
338.20 0.3553
338.30 0.3558055
338.40 0.3563091
338.50 0.3568092
338.60 0.3573086
338.70 0.3578074
338.80 0.3583055
338.90 0.358803
339.00 0.3592998
339.10 0.359796
339.20 0.3602915
339.30 0.3607865
339.40 0.3612809
339.50 0.3617772
339.60 0.362276
339.70 0.362774
339.80 0.3632715
339.90 0.3637683
340.00 0.3642644
340.10 0.3647599
340.20 0.3652548
340.30 0.365749
340.40 0.3662425
340.50 0.3667355
340.60 0.3672277
340.70 0.3677194
340.80 0.368225
340.90 0.368751
341.00 0.3692651
341.10 0.3697649
341.20 0.370264
341.30 0.3707624
341.40 0.3712602
341.50 0.3717574
341.60 0.3722539
341.70 0.3727497
341.80 0.3732474
341.90 0.3737472
342.00 0.3742465
342.10 0.3747451
342.20 0.37526
342.30 0.3757545
342.40 0.3762405
342.50 0.3767461
342.60 0.377251
342.70 0.3777552
342.80 0.3782588
342.90 0.3787618
343.00 0.3792676
343.10 0.379777
343.20 0.3802858
343.30 0.380794
343.40 0.3813017
343.50 0.3818092
343.60 0.3823161
343.70 0.3828222
343.80 0.3833278
343.90 0.3838326
344.00 0.3843396
344.10 0.3848497
344.20 0.3853593
344.30 0.3858681
344.40 0.3863682
344.50 0.386856
344.60 0.3873736
344.70 0.387862
344.80 0.3883479
344.90 0.3888706
345.00 0.3893805
345.10 0.3899038
345.20 0.3904143
345.30 0.3909065
345.40 0.3913981
345.50 0.3919066
345.60 0.3924266
345.70 0.3929329
345.80 0.3934386
345.90 0.3939436
346.00 0.3944479
346.10 0.3949517
346.20 0.3954568
346.30 0.3959645
346.40 0.3964715
346.50 0.3969778
346.60 0.3974835
346.70 0.3979885
346.80 0.3984929
346.90 0.3989966
347.00 0.3994997
347.10 0.4000021
347.20 0.4005089
347.30 0.4010222
347.40 0.4015349
347.50 0.4020469
347.60 0.4025582
347.70 0.4030689
347.80 0.4035789
347.90 0.4040883
348.00 0.404597
348.10 0.4051051
348.20 0.4056126
348.30 0.4061193
348.40 0.4066255
348.50 0.4071309
348.60 0.4076358
348.70 0.4081443
348.80 0.4086568
348.90 0.4091733
349.00 0.4096892
349.10 0.4102044
349.20 0.410719
349.30 0.4112329
349.40 0.4117462
349.50 0.4122588
349.60 0.4127707
349.70 0.413282
349.80 0.4137927
349.90 0.4143027
350.00 0.414812
350.10 0.4153207
350.20 0.4158288
350.30 0.4163374
350.40 0.4168473
350.50 0.4173565
350.60 0.417865
350.70 0.4183729
350.80 0.4188802
350.90 0.4193868
351.00 0.4198927
351.10 0.4203981
351.20 0.4209027
351.30 0.4214068
351.40 0.4219141
351.50 0.422428
351.60 0.4229411
351.70 0.4234537
351.80 0.4239655
351.90 0.4244767
352.00 0.4249873
352.10 0.4254972
352.20 0.4260166
352.30 0.426534
352.40 0.4270474
352.50 0.4275602
352.60 0.4280723
352.70 0.4285837
352.80 0.4290945
352.90 0.4296047
353.00 0.4301142
353.10 0.430623
353.20 0.4311312
353.30 0.4316388
353.40 0.4321457
353.50 0.4326607
353.60 0.4331771
353.70 0.4336929
353.80 0.434208
353.90 0.4347234
354.00 0.4352396
354.10 0.4357552
354.20 0.4362702
354.30 0.4367845
354.40 0.4372981
354.50 0.4378112
354.60 0.4383235
354.70 0.4388352
354.80 0.4393474
354.90 0.4398605
355.00 0.440373
355.10 0.4408849
355.20 0.4413961
355.30 0.441907
355.40 0.4424172
355.50 0.4429268
355.60 0.4434358
355.70 0.4439488
355.80 0.4444633
355.90 0.4449882
356.00 0.4455127
356.10 0.4460317
356.20 0.44655
356.30 0.4470677
356.40 0.4475847
356.50 0.4481011
356.60 0.4486169
356.70 0.449132
356.80 0.4496464
356.90 0.4501602
357.00 0.4506733
357.10 0.4511858
357.20 0.4516977
357.30 0.4522089
357.40 0.4527203
357.50 0.4532323
357.60 0.4537437
357.70 0.4542545
357.80 0.4547674
357.90 0.4552796
358.00 0.455796
358.10 0.456313
358.20 0.4568293
358.30 0.457345
358.40 0.45786
358.50 0.4583744
358.60 0.4588881
358.70 0.4594012
358.80 0.4599136
358.90 0.4604254
359.00 0.4609307
359.10 0.4614251
359.20 0.4619227
359.30 0.462446
359.40 0.4629687
359.50 0.4634898
359.60 0.46401
359.70 0.4645296
359.80 0.4650407
359.90 0.4655511
360.00 0.4660612
360.10 0.466571
360.20 0.4670801
360.30 0.4675886
360.40 0.4680965
360.50 0.4686037
360.60 0.4691364
360.70 0.4696522
360.80 0.4701673
360.90 0.4706817
361.00 0.4711946
361.10 0.471728
361.20 0.4721946
361.30 0.4727245
361.40 0.4732249
361.50 0.4737535
361.60 0.4742944
361.70 0.4747857
361.80 0.4752878
361.90 0.4758093
362.00 0.4763301
362.10 0.4768603
362.20 0.4773829
362.30 0.477888
362.40 0.4783926
362.50 0.4788965
362.60 0.4793998
362.70 0.4799233
362.80 0.4804514
362.90 0.480967
363.00 0.481482
363.10 0.4819973
363.20 0.482512
363.30 0.4830426
363.40 0.4835589
363.50 0.4840746
363.60 0.4845541
363.70 0.4850961
363.80 0.4856177
363.90 0.4861274
364.00 0.4866365
364.10 0.487145
364.20 0.4876528
364.30 0.488169
364.40 0.4886868
364.50 0.4892038
364.60 0.4897099
364.70 0.4902154
364.80 0.4907202
364.90 0.491227
365.00 0.4917331
365.10 0.4922738
365.20 0.4927787
365.30 0.4933181
365.40 0.4938217
365.50 0.4943247
365.60 0.494827
365.70 0.4953543
365.80 0.4958809
365.90 0.4963927
366.00 0.4969003
366.10 0.4974207
366.20 0.4979404
366.30 0.4984595
366.40 0.4989779
366.50 0.4994526
366.60 0.4999561
366.70 0.5004769
366.80 0.5009971
366.90 0.5015159
367.00 0.5020325
367.10 0.5025485
367.20 0.5030639
367.30 0.5035786
367.40 0.5040927
367.50 0.504594
367.60 0.5050916
367.70 0.5056027
367.80 0.5061133
367.90 0.5066232
368.00 0.5071489
368.10 0.5076626
368.20 0.5081764
368.30 0.5086897
368.40 0.5092025
368.50 0.5097146
368.60 0.5102261
368.70 0.5107369
368.80 0.5112471
368.90 0.511784
369.00 0.5122886
369.10 0.5127726
369.20 0.5133291
369.30 0.5138314
369.40 0.5143331
369.50 0.5148342
369.60 0.5153422
369.70 0.5158495
369.80 0.5163684
369.90 0.5168868
370.00 0.5174045
370.10 0.5178894
370.20 0.5183965
370.30 0.518904
370.40 0.5194462
370.50 0.5199516
370.60 0.5204905
370.70 0.5210041
370.80 0.5215045
370.90 0.5220044
371.00 0.5225114
371.10 0.5230179
371.20 0.5235498
371.30 0.524081
371.40 0.524571
371.50 0.5250868
371.60 0.5256019
371.70 0.5261165
371.80 0.5266304
371.90 0.5271437
372.00 0.5276049
372.10 0.5281448
372.20 0.5286518
372.30 0.5291582
372.40 0.529664
372.50 0.5301691
372.60 0.5306736
372.70 0.5311775
372.80 0.5316993
372.90 0.5322204
373.00 0.5327154
373.10 0.5332094
373.20 0.5337327
373.30 0.5342554
373.40 0.5347437
373.50 0.5352651
373.60 0.5357858
373.70 0.5362723
373.80 0.5368107
373.90 0.5373107
374.00 0.537829
374.10 0.5383466
374.20 0.5388635
374.30 0.5393799
374.40 0.5398872
374.50 0.5403372
374.60 0.5408522
374.70 0.5413681
374.80 0.5418834
374.90 0.542398
375.00 0.54291
375.10 0.5434214
375.20 0.5439322
375.30 0.5444423
375.40 0.5449518
375.50 0.5454607
375.60 0.545969
375.70 0.5464767
375.80 0.5469837
375.90 0.5474901
376.00 0.547988
376.10 0.548492
376.20 0.5489954
376.30 0.5494983
376.40 0.5500005
376.50 0.5505043
376.60 0.5510111
376.70 0.5515171
376.80 0.5520243
376.90 0.5525326
377.00 0.5530403
377.10 0.5535474
377.20 0.5540543
377.30 0.554562
377.40 0.5550691
377.50 0.5555756
377.60 0.556083
377.70 0.5565899
377.80 0.5570961
377.90 0.5576018
378.00 0.5581073
378.10 0.5586179
378.20 0.5591279
378.30 0.5596373
378.40 0.5601461
378.50 0.5606542
378.60 0.5611617
378.70 0.5616687
378.80 0.562175
378.90 0.5626711
379.00 0.563149
379.10 0.5636621
379.20 0.5641745
379.30 0.5646817
379.40 0.5651837
379.50 0.5656851
379.60 0.5661949
379.70 0.5667133
379.80 0.5672147
379.90 0.5677155
380.00 0.5682157
380.10 0.5687153
380.20 0.5692143
380.30 0.5697127
380.40 0.5702105
380.50 0.5707077
380.60 0.5711936
380.70 0.5717034
380.80 0.5722126
380.90 0.5727212
381.00 0.5732291
381.10 0.5737364
381.20 0.574236
381.30 0.5747089
381.40 0.5752217
381.50 0.5757473
381.60 0.576245
381.70 0.5767092
381.80 0.5772063
381.90 0.5777088
382.00 0.5782107
382.10 0.578712
382.20 0.5792127
382.30 0.5797128
382.40 0.5802155
382.50 0.5807226
382.60 0.5812291
382.70 0.5817273
382.80 0.582223
382.90 0.5827251
383.00 0.5832265
383.10 0.5837274
383.20 0.5842293
383.30 0.5847366
383.40 0.5852471
383.50 0.5857628
383.60 0.586232
383.70 0.5867331
383.80 0.5872336
383.90 0.5877336
384.00 0.5882329
384.10 0.5887316
384.20 0.5892298
384.30 0.5897273
384.40 0.5902223
384.50 0.5907148
384.60 0.5912067
384.70 0.591698
384.80 0.5921914
384.90 0.5926963
385.00 0.593204
385.10 0.593711
385.20 0.5942071
385.30 0.5947013
385.40 0.5951991
385.50 0.5957004
385.60 0.5962011
385.70 0.5967011
385.80 0.5971935
385.90 0.5976583
386.00 0.5981379
386.10 0.5986342
386.20 0.5991507
386.30 0.5996665
386.40 0.6001266
386.50 0.6006233
386.60 0.6011275
386.70 0.6016486
386.80 0.6021221
386.90 0.6025949
387.00 0.6030907
387.10 0.6036251
387.20 0.6040898
387.30 0.6045683
387.40 0.6050973
387.50 0.6055817
387.60 0.6061033
387.70 0.6065871
387.80 0.6070704
387.90 0.6075531
388.00 0.6080357
388.10 0.6085566
388.20 0.6090182
388.30 0.6095151
388.40 0.6100115
388.50 0.6105103
388.60 0.6110012
388.70 0.6114807
388.80 0.6120077
388.90 0.6124691
389.00 0.612977
389.10 0.6134617
389.20 0.6139518
389.30 0.6144397
389.40 0.6149181
389.50 0.6154113
389.60 0.6159187
389.70 0.6163927
389.80 0.6168647
389.90 0.6173361
390.00 0.617807
390.10 0.6182773
390.20 0.618747
390.30 0.6192547
390.40 0.6198052
390.50 0.620355
390.60 0.6209042
390.70 0.6214528
390.80 0.6219151
390.90 0.6222913
391.00 0.6229356
391.10 0.6232131
391.20 0.6235392
391.30 0.624044
391.40 0.6245424
391.50 0.6250402
391.60 0.6255374
391.70 0.626034
391.80 0.6265301
391.90 0.6271795
392.00 0.6278623
392.10 0.6283352
392.20 0.6287362
392.30 0.6288308
392.40 0.6293478
392.50 0.6302134
392.60 0.6305016
392.70 0.630896
392.80 0.6314876
392.90 0.6321986
393.00 0.6325237
393.10 0.6329584
393.20 0.6335194
393.30 0.6341078
393.40 0.6346137
393.50 0.6347825
393.60 0.6355523
393.70 0.6359034
393.80 0.6364342
393.90 0.6370189
394.00 0.6375212
394.10 0.6376304
394.20 0.6382271
394.30 0.6388884
394.40 0.6392967
394.50 0.6395261
394.60 0.6402127
394.70 0.6408605
394.80 0.6413649
394.90 0.6418631
395.00 0.6422081
395.10 0.6428191
395.20 0.6433
395.30 0.6437575
395.40 0.6442144
395.50 0.6446342
395.60 0.64504
395.70 0.6454516
395.80 0.6458794
395.90 0.6463067
396.00 0.6467314
396.10 0.6471801
396.20 0.6477507
396.30 0.648482
396.40 0.6489466
396.50 0.6491195
396.60 0.6495907
396.70 0.6501739
396.80 0.6508631
396.90 0.651485
397.00 0.6517526
397.10 0.6524168
397.20 0.6525526
397.30 0.6533501
397.40 0.6537692
397.50 0.6541878
397.60 0.6546145
397.70 0.6551274
397.80 0.6556397
397.90 0.656153
398.00 0.6566701
398.10 0.6571866
398.20 0.6576472
398.30 0.6580447
398.40 0.6584472
398.50 0.6590264
398.60 0.6594052
398.70 0.6597801
398.80 0.6601722
398.90 0.6606169
399.00 0.6611595
399.10 0.6614908
399.20 0.6619702
399.30 0.6624491
399.40 0.6629275
399.50 0.6634052
399.60 0.6639311
399.70 0.6644742
399.80 0.6650168
399.90 0.6655587
400.00 0.6660873
400.10 0.6662056
400.20 0.666992
400.30 0.6673895
400.40 0.6677507
400.50 0.6685094
400.60 0.6688163
400.70 0.6693598
400.80 0.6697447
400.90 0.6701921
401.00 0.6703819
401.10 0.6711799
401.20 0.6713033
401.30 0.671966
401.40 0.6725556
401.50 0.6730835
401.60 0.6735984
401.70 0.6737107
401.80 0.6744092
401.90 0.6749316
402.00 0.6751713
402.10 0.675976
402.20 0.6762203
402.30 0.676798
402.40 0.6771039
402.50 0.677531
402.60 0.6783531
402.70 0.6785952
402.80 0.6791264
402.90 0.6795413
403.00 0.6797822
403.10 0.6801384
403.20 0.6809829
403.30 0.6815334
403.40 0.6818881
403.50 0.6822138
403.60 0.6825845
403.70 0.6833035
403.80 0.6835704
403.90 0.684213
404.00 0.6845902
404.10 0.6848264
404.20 0.6853497
404.30 0.6858723
404.40 0.6864205
404.50 0.6869159
404.60 0.6874367
404.70 0.687957
404.80 0.6882235
404.90 0.6889957
405.00 0.6891048
405.10 0.6895416
405.20 0.6900183
405.30 0.6904944
405.40 0.6910108
405.50 0.6915266
405.60 0.6920418
405.70 0.6925563
405.80 0.6930704
405.90 0.6935838
406.00 0.6940444
406.10 0.6945046
406.20 0.6949642
406.30 0.6954232
406.40 0.6958577
406.50 0.696227
406.60 0.6965932
406.70 0.6970667
406.80 0.697389
406.90 0.6981423
407.00 0.6985928
407.10 0.6990428
407.20 0.6994923
407.30 0.6999413
407.40 0.7003897
407.50 0.7008377
407.60 0.701285
407.70 0.7017319
407.80 0.7021783
407.90 0.7026189
408.00 0.702891
408.10 0.7033214
408.20 0.7038459
408.30 0.7042351
408.40 0.7046237
408.50 0.7050394
408.60 0.7054728
408.70 0.7059056
408.80 0.7063945
408.90 0.7072113
409.00 0.7076196
409.10 0.7080275
409.20 0.7084349
409.30 0.7088419
409.40 0.7092495
409.50 0.7096945
409.60 0.7101391
409.70 0.7105797
409.80 0.7110059
409.90 0.711441
410.00 0.7121786
410.10 0.7122966
410.20 0.7127399
410.30 0.713264
410.40 0.7137545
410.50 0.7141399
410.60 0.7145249
410.70 0.7149433
410.80 0.7154963
410.90 0.7160487
411.00 0.7165181
411.10 0.7169565
411.20 0.7173944
411.30 0.7178643
411.40 0.7184588
411.50 0.7188934
411.60 0.7193275
411.70 0.7197153
411.80 0.7199195
411.90 0.7202894
412.00 0.7207695
412.10 0.7213873
412.20 0.7217282
412.30 0.7221193
412.40 0.7227045
412.50 0.7230437
412.60 0.7234812
412.70 0.7239746
412.80 0.7244815
412.90 0.7248115
413.00 0.7251737
413.10 0.7255868
413.20 0.7259995
413.30 0.7264116
413.40 0.7268233
413.50 0.7273108
413.60 0.7280258
413.70 0.7284969
413.80 0.7289674
413.90 0.7294373
414.00 0.7299067
414.10 0.7303756
414.20 0.7306469
414.30 0.7308959
414.40 0.7314727
414.50 0.7318177
414.60 0.7321656
414.70 0.7326315
414.80 0.7330969
414.90 0.7335617
415.00 0.734026
415.10 0.7344898
415.20 0.7349606
415.30 0.7354546
415.40 0.7359482
415.50 0.7364391
415.60 0.7368641
415.70 0.7372887
415.80 0.7376973
415.90 0.7380569
416.00 0.738416
416.10 0.7387881
416.20 0.739213
416.30 0.7396375
416.40 0.7400615
416.50 0.7404859
416.60 0.740942
416.70 0.7414138
416.80 0.7418744
416.90 0.7423233
417.00 0.7429103
417.10 0.7432145
417.20 0.7436675
417.30 0.7441185
417.40 0.7445238
417.50 0.7449285
417.60 0.7453647
