# Version 2.1 - nm, norm@500 to 1, cut digits, bergeron_He_4250_75.dat_4250
# Wavelength(nm)  Flambda(ergs/cm^s/s/nm)
300.00 0.03474382
300.10 0.03485609
300.20 0.03496858
300.30 0.03508145
300.40 0.03519782
300.50 0.03531402
300.60 0.03543006
300.70 0.03554594
300.80 0.03566165
300.90 0.03577721
301.00 0.0358926
301.10 0.03600783
301.20 0.0361229
301.30 0.03623781
301.40 0.03635256
301.50 0.03646715
301.60 0.03658158
301.70 0.03669585
301.80 0.03680996
301.90 0.03692391
302.00 0.0370377
302.10 0.0371575
302.20 0.03727781
302.30 0.03739796
302.40 0.03751794
302.50 0.03763776
302.60 0.03775741
302.70 0.03787689
302.80 0.0379962
302.90 0.03811535
303.00 0.03823434
303.10 0.03835316
303.20 0.03847181
303.30 0.03859086
303.40 0.03871474
303.50 0.03883846
303.60 0.038962
303.70 0.03908537
303.80 0.03920858
303.90 0.03933161
304.00 0.03945447
304.10 0.03957716
304.20 0.03969968
304.30 0.03982203
304.40 0.03994421
304.50 0.04006622
304.60 0.0401943
304.70 0.0403229
304.80 0.04045131
304.90 0.04057955
305.00 0.04070762
305.10 0.0408355
305.20 0.04096321
305.30 0.04109074
305.40 0.0412181
305.50 0.04134529
305.60 0.04147229
305.70 0.04159912
305.80 0.04172578
305.90 0.04185226
306.00 0.04197857
306.10 0.04210471
306.20 0.04223067
306.30 0.04235646
306.40 0.0424899
306.50 0.04262549
306.60 0.0427609
306.70 0.04289612
306.80 0.04303116
306.90 0.04316601
307.00 0.04330068
307.10 0.04343516
307.20 0.04356946
307.30 0.04370357
307.40 0.0438375
307.50 0.04397125
307.60 0.04410481
307.70 0.04423819
307.80 0.04437139
307.90 0.04450441
308.00 0.04463724
308.10 0.04476989
308.20 0.04490236
308.30 0.04503465
308.40 0.04516676
308.50 0.04529869
308.60 0.04543043
308.70 0.045562
308.80 0.04569737
308.90 0.0458439
309.00 0.04597849
309.10 0.0461129
309.20 0.04624713
309.30 0.04638117
309.40 0.04651646
309.50 0.04666031
309.60 0.04680396
309.70 0.04694741
309.80 0.04709067
309.90 0.04723374
310.00 0.04737661
310.10 0.04751929
310.20 0.04766178
310.30 0.04780407
310.40 0.04794402
310.50 0.04808146
310.60 0.04821872
310.70 0.04835578
310.80 0.04849267
310.90 0.04862936
311.00 0.0487854
311.10 0.04894122
311.20 0.04909684
311.30 0.04925003
311.40 0.04939675
311.50 0.04954327
311.60 0.04968959
311.70 0.04983571
311.80 0.04998163
311.90 0.05012736
312.00 0.05027288
312.10 0.05041822
312.20 0.05054959
312.30 0.05069331
312.40 0.05085371
312.50 0.05098855
312.60 0.05114232
312.70 0.05129589
312.80 0.05144924
312.90 0.05160165
313.00 0.05175306
313.10 0.05190425
313.20 0.05205525
313.30 0.05220609
313.40 0.05235688
313.50 0.05250746
313.60 0.05265784
313.70 0.05280802
313.80 0.05295799
313.90 0.05310776
314.00 0.05325734
314.10 0.05341198
314.20 0.05356641
314.30 0.05372064
314.40 0.05387466
314.50 0.05402847
314.60 0.05418207
314.70 0.05433547
314.80 0.05449684
314.90 0.05467306
315.00 0.0548402
315.10 0.05499733
315.20 0.05515424
315.30 0.05531094
315.40 0.05546743
315.50 0.05562372
315.60 0.05577979
315.70 0.05593566
315.80 0.05609131
315.90 0.05624676
316.00 0.056402
316.10 0.05657823
316.20 0.05675421
316.30 0.05688764
316.40 0.05706319
316.50 0.05721737
316.60 0.05737134
316.70 0.05754622
316.80 0.05772086
316.90 0.05788473
317.00 0.05804838
317.10 0.05821182
317.20 0.05837503
317.30 0.05853163
317.40 0.05869164
317.50 0.05886175
317.60 0.05903164
317.70 0.05920131
317.80 0.05937075
317.90 0.05952637
318.00 0.05968553
318.10 0.05985726
318.20 0.06002876
318.30 0.06020003
318.40 0.06037108
318.50 0.0605419
318.60 0.06071249
318.70 0.06088285
318.80 0.06104049
318.90 0.06122291
319.00 0.0613926
319.10 0.06156206
319.20 0.06173159
319.30 0.06190171
319.40 0.0620716
319.50 0.06224126
319.60 0.06240632
319.70 0.06257554
319.80 0.06274453
319.90 0.0629133
320.00 0.06309125
320.10 0.06327914
320.20 0.0634546
320.30 0.06362364
320.40 0.06381494
320.50 0.06398537
320.60 0.06416382
320.70 0.06432967
320.80 0.06450025
320.90 0.06467595
321.00 0.06485142
321.10 0.06502666
321.20 0.06523755
321.30 0.06541695
321.40 0.06559612
321.50 0.06577505
321.60 0.06595374
321.70 0.0661322
321.80 0.06631126
321.90 0.06649097
322.00 0.06664758
322.10 0.06682958
322.20 0.06701134
322.30 0.06719286
322.40 0.06737414
322.50 0.06755519
322.60 0.06773599
322.70 0.06791656
322.80 0.06813054
322.90 0.06831558
323.00 0.06850039
323.10 0.06868495
323.20 0.06886927
323.30 0.06905335
323.40 0.06923719
323.50 0.06942079
323.60 0.06960415
323.70 0.06978727
323.80 0.06997015
323.90 0.07015279
324.00 0.07034678
324.10 0.07054052
324.20 0.070734
324.30 0.07091934
324.40 0.07109655
324.50 0.0712893
324.60 0.07148179
324.70 0.07167404
324.80 0.07186603
324.90 0.07205777
325.00 0.07224927
325.10 0.07244052
325.20 0.07263204
325.30 0.07282443
325.40 0.07301656
325.50 0.07321065
325.60 0.07340716
325.70 0.07360341
325.80 0.07379941
325.90 0.07399738
326.00 0.07419748
326.10 0.07439733
326.20 0.07459691
326.30 0.07478998
326.40 0.07496498
326.50 0.07516802
326.60 0.07537081
326.70 0.07557333
326.80 0.07577558
326.90 0.07597758
327.00 0.07617931
327.10 0.07638079
327.20 0.076582
327.30 0.07678295
327.40 0.07698365
327.50 0.07718408
327.60 0.07738426
327.70 0.07758417
327.80 0.07778383
327.90 0.07797487
328.00 0.07816797
328.10 0.07837466
328.20 0.07858109
328.30 0.07878725
328.40 0.07899315
328.50 0.0791992
328.60 0.07940509
328.70 0.07961072
328.80 0.07981736
328.90 0.08002737
329.00 0.08023712
329.10 0.08044659
329.20 0.0806558
329.30 0.08086473
329.40 0.0810734
329.50 0.0812818
329.60 0.08148994
329.70 0.0816978
329.80 0.0819054
329.90 0.08211273
330.00 0.08232323
330.10 0.08253767
330.20 0.08275182
330.30 0.0829657
330.40 0.08317929
330.50 0.08339257
330.60 0.08360557
330.70 0.08381831
330.80 0.08403077
330.90 0.08424296
331.00 0.08445488
331.10 0.08466653
331.20 0.0848779
331.30 0.08508901
331.40 0.08529985
331.50 0.08551089
331.60 0.08572225
331.70 0.08593334
331.80 0.08615445
331.90 0.0863757
332.00 0.08659667
332.10 0.08681736
332.20 0.08703777
332.30 0.0872579
332.40 0.08747774
332.50 0.08769731
332.60 0.08791659
332.70 0.0881356
332.80 0.08835433
332.90 0.08857277
333.00 0.08879095
333.10 0.08901389
333.20 0.08924272
333.30 0.08947126
333.40 0.08969951
333.50 0.08992747
333.60 0.09015514
333.70 0.09038253
333.80 0.09060962
333.90 0.09083643
334.00 0.09106294
334.10 0.09128804
334.20 0.09151145
334.30 0.09173459
334.40 0.09195743
334.50 0.09218
334.60 0.09240229
334.70 0.09263039
334.80 0.09286476
334.90 0.09309753
335.00 0.09333
335.10 0.09357516
335.20 0.093802
335.30 0.09402856
335.40 0.09425482
335.50 0.0944808
335.60 0.09470649
335.70 0.09494036
335.80 0.09518425
335.90 0.09542361
336.00 0.09565752
336.10 0.09589113
336.20 0.09612445
336.30 0.09635887
336.40 0.09659472
336.50 0.09683026
336.60 0.09706551
336.70 0.09730047
336.80 0.09753512
336.90 0.09777095
337.00 0.09800828
337.10 0.09824531
337.20 0.09848204
337.30 0.0987205
337.40 0.09896157
337.50 0.09920235
337.60 0.09944282
337.70 0.09968299
337.80 0.09992285
337.90 0.1001639
338.00 0.1004063
338.10 0.1006484
338.20 0.1008903
338.30 0.1011318
338.40 0.1013751
338.50 0.1016232
338.60 0.101871
338.70 0.1021185
338.80 0.1023656
338.90 0.1026125
339.00 0.102859
339.10 0.1031052
339.20 0.1033512
339.30 0.1035942
339.40 0.1038333
339.50 0.1040791
339.60 0.1043331
339.70 0.1045869
339.80 0.1048404
339.90 0.1050935
340.00 0.1053463
340.10 0.1055988
340.20 0.105851
340.30 0.1061029
340.40 0.1063544
340.50 0.1066057
340.60 0.1068566
340.70 0.1071072
340.80 0.1073588
340.90 0.1076119
341.00 0.1078659
341.10 0.1081211
341.20 0.108376
341.30 0.1086306
341.40 0.1088849
341.50 0.1091389
341.60 0.1093925
341.70 0.1096458
341.80 0.109902
341.90 0.1101616
342.00 0.1104209
342.10 0.1106799
342.20 0.1109281
342.30 0.1111879
342.40 0.1114565
342.50 0.1117185
342.60 0.1119801
342.70 0.1122415
342.80 0.1125025
342.90 0.1127632
343.00 0.1130252
343.10 0.1132888
343.20 0.113552
343.30 0.1138149
343.40 0.1140777
343.50 0.1143402
343.60 0.1146025
343.70 0.1148644
343.80 0.115126
343.90 0.1153873
344.00 0.1156531
344.10 0.1159257
344.20 0.1161979
344.30 0.1164698
344.40 0.1167413
344.50 0.1170125
344.60 0.1172898
344.70 0.1175434
344.80 0.1178305
344.90 0.1180835
345.00 0.1183635
345.10 0.1186327
345.20 0.118901
345.30 0.1191681
345.40 0.1194349
345.50 0.1197038
345.60 0.1199787
345.70 0.1202577
345.80 0.1205364
345.90 0.1208147
346.00 0.1210927
346.10 0.1213704
346.20 0.1216487
346.30 0.121928
346.40 0.122207
346.50 0.1224857
346.60 0.122764
346.70 0.1230419
346.80 0.1233195
346.90 0.1235968
347.00 0.1238738
347.10 0.1241504
347.20 0.1244305
347.30 0.124716
347.40 0.1250011
347.50 0.1252858
347.60 0.1255702
347.70 0.1258542
347.80 0.1261379
347.90 0.1264212
348.00 0.1267042
348.10 0.1269869
348.20 0.1272692
348.30 0.1275511
348.40 0.1278327
348.50 0.128114
348.60 0.1283949
348.70 0.1286808
348.80 0.1289703
348.90 0.1292628
349.00 0.1295549
349.10 0.1298467
349.20 0.1301382
349.30 0.1304292
349.40 0.13072
349.50 0.1310103
349.60 0.1313004
349.70 0.13159
349.80 0.1318793
349.90 0.1321683
350.00 0.1324569
350.10 0.1327452
350.20 0.1330331
350.30 0.133324
350.40 0.1336193
350.50 0.1339143
350.60 0.1342089
350.70 0.1345032
350.80 0.1347971
350.90 0.1350906
351.00 0.1353838
351.10 0.1356767
351.20 0.1359691
351.30 0.1362613
351.40 0.1365574
351.50 0.1368611
351.60 0.1371644
351.70 0.1374673
351.80 0.1377698
351.90 0.138072
352.00 0.1383738
352.10 0.1386753
352.20 0.1389644
352.30 0.1392595
352.40 0.1395653
352.50 0.1398706
352.60 0.1401756
352.70 0.1404803
352.80 0.1407845
352.90 0.1410884
353.00 0.1413919
353.10 0.1416951
353.20 0.1419979
353.30 0.1423003
353.40 0.1426024
353.50 0.1429096
353.60 0.1432178
353.70 0.1435256
353.80 0.1438331
353.90 0.1441432
354.00 0.1444582
354.10 0.1447728
354.20 0.1450871
354.30 0.1454009
354.40 0.1457144
354.50 0.1460276
354.60 0.1463403
354.70 0.1466527
354.80 0.1469655
354.90 0.1472791
355.00 0.1475924
355.10 0.1479052
355.20 0.1482177
355.30 0.1485313
355.40 0.1488444
355.50 0.1491572
355.60 0.1494695
355.70 0.1497858
355.80 0.1501036
355.90 0.1504268
356.00 0.1507517
356.10 0.151074
356.20 0.151396
356.30 0.1517176
356.40 0.1520388
356.50 0.1523597
356.60 0.1526801
356.70 0.1530002
356.80 0.1533198
356.90 0.1536391
357.00 0.153958
357.10 0.1542766
357.20 0.1545947
357.30 0.1549125
357.40 0.1552336
357.50 0.1555609
357.60 0.1558879
357.70 0.1562144
357.80 0.1565481
357.90 0.1568814
358.00 0.1572121
358.10 0.1575418
358.20 0.1578712
358.30 0.1582001
358.40 0.1585287
358.50 0.1588568
358.60 0.1591846
358.70 0.159512
358.80 0.159839
358.90 0.1601656
359.00 0.1604908
359.10 0.1608137
359.20 0.1611377
359.30 0.1614703
359.40 0.1618026
359.50 0.1621433
359.60 0.1624859
359.70 0.1628281
359.80 0.1631588
359.90 0.1634892
360.00 0.1638233
360.10 0.1641641
360.20 0.1645045
360.30 0.1648444
360.40 0.165184
360.50 0.1655232
360.60 0.1658516
360.70 0.1661909
360.80 0.1665298
360.90 0.1668683
361.00 0.1671977
361.10 0.1675471
361.20 0.1679052
361.30 0.1682339
361.40 0.1685769
361.50 0.1689228
361.60 0.1692458
361.70 0.1695892
361.80 0.1699342
361.90 0.1702824
362.00 0.1706301
362.10 0.170983
362.20 0.1713336
362.30 0.1716776
362.40 0.1720213
362.50 0.1723646
362.60 0.1727074
362.70 0.1730574
362.80 0.1734088
362.90 0.1737612
363.00 0.1741132
363.10 0.1744573
363.20 0.174801
363.30 0.1751456
363.40 0.1754982
363.50 0.1758503
363.60 0.176202
363.70 0.1765569
363.80 0.1769042
363.90 0.1772639
364.00 0.1776231
364.10 0.1779818
364.20 0.1783402
364.30 0.178688
364.40 0.1790328
364.50 0.1793854
364.60 0.1797421
364.70 0.1800984
364.80 0.1804542
364.90 0.1808165
365.00 0.1811783
365.10 0.1815397
365.20 0.1819007
365.30 0.1822612
365.40 0.1826214
365.50 0.1829811
365.60 0.1833404
365.70 0.1837007
365.80 0.1840606
365.90 0.1844175
366.00 0.1847734
366.10 0.1851382
366.20 0.1855026
366.30 0.1858666
366.40 0.1862302
366.50 0.1865978
366.60 0.1869733
366.70 0.1873366
366.80 0.1876994
366.90 0.1880656
367.00 0.1884381
367.10 0.1888102
367.20 0.1891819
367.30 0.1895531
367.40 0.1899239
367.50 0.1902915
367.60 0.1906581
367.70 0.1910242
367.80 0.1913899
367.90 0.1917552
368.00 0.1921357
368.10 0.1925111
368.20 0.1928853
368.30 0.1932593
368.40 0.1936328
368.50 0.194006
368.60 0.1943786
368.70 0.1947509
368.80 0.1951227
368.90 0.1955023
369.00 0.1958813
369.10 0.196256
369.20 0.1966205
369.30 0.1970005
369.40 0.19738
369.50 0.1977591
369.60 0.1981456
369.70 0.1985317
369.80 0.1989098
369.90 0.1992874
370.00 0.1996646
370.10 0.2000502
370.20 0.2004215
370.30 0.2007919
370.40 0.2011922
370.50 0.2015776
370.60 0.2019471
370.70 0.2023358
370.80 0.202717
370.90 0.2030978
371.00 0.203483
371.10 0.2038678
371.20 0.2042626
371.30 0.2046568
371.40 0.2050377
371.50 0.2054245
371.60 0.2058108
371.70 0.2061966
371.80 0.206582
371.90 0.2069669
372.00 0.2073677
372.10 0.2077587
372.20 0.2081515
372.30 0.2085438
372.40 0.2089356
372.50 0.209327
372.60 0.209718
372.70 0.2101085
372.80 0.210496
372.90 0.2108831
373.00 0.2112899
373.10 0.2116964
373.20 0.2120846
373.30 0.2124724
373.40 0.2128749
373.50 0.2132618
373.60 0.2136634
373.70 0.2140494
373.80 0.2144681
373.90 0.2148504
374.00 0.2152501
374.10 0.2156495
374.20 0.2160483
374.30 0.2164467
374.40 0.2168598
374.50 0.2172672
374.60 0.2176656
374.70 0.2180634
374.80 0.2184608
374.90 0.2188578
375.00 0.219263
375.10 0.2196678
375.20 0.2200721
375.30 0.2204789
375.40 0.2208851
375.50 0.2212909
375.60 0.2216963
375.70 0.2221011
375.80 0.2225055
375.90 0.2229095
376.00 0.2233248
376.10 0.2237344
376.20 0.2241435
376.30 0.2245521
376.40 0.2249603
376.50 0.2253713
376.60 0.225787
376.70 0.2262023
376.80 0.2266138
376.90 0.2270217
377.00 0.2274291
377.10 0.2278361
377.20 0.2282447
377.30 0.2286612
377.40 0.2290773
377.50 0.2294929
377.60 0.2299137
377.70 0.230334
377.80 0.2307538
377.90 0.2311732
378.00 0.231578
378.10 0.2319969
378.20 0.2324156
378.30 0.2328339
378.40 0.2332516
378.50 0.233669
378.60 0.2340858
378.70 0.2345021
378.80 0.234918
378.90 0.2353358
379.00 0.2357576
379.10 0.2361872
379.20 0.2366163
379.30 0.2370436
379.40 0.2374691
379.50 0.237894
379.60 0.2383159
379.70 0.2387357
379.80 0.2391636
379.90 0.239591
380.00 0.2400179
380.10 0.2404443
380.20 0.2408702
380.30 0.2412957
380.40 0.2417206
380.50 0.2421451
380.60 0.2425682
380.70 0.2429986
380.80 0.2434285
380.90 0.2438579
381.00 0.2442868
381.10 0.2447236
381.20 0.2451541
381.30 0.2455864
381.40 0.246011
381.50 0.246449
381.60 0.2468847
381.70 0.2473198
381.80 0.2477379
381.90 0.2481888
382.00 0.2486103
382.10 0.2490603
382.20 0.2495039
382.30 0.2499384
382.40 0.2503719
382.50 0.250804
382.60 0.2512357
382.70 0.2516687
382.80 0.2521066
382.90 0.2525472
383.00 0.2529873
383.10 0.253427
383.20 0.2538665
383.30 0.2543074
383.40 0.254749
383.50 0.255192
383.60 0.2556292
383.70 0.2560758
383.80 0.2565218
383.90 0.2569674
384.00 0.2574125
384.10 0.2578571
384.20 0.2583012
384.30 0.2587448
384.40 0.2591896
384.50 0.2596357
384.60 0.2600812
384.70 0.2605263
384.80 0.2609748
384.90 0.2614299
385.00 0.2618704
385.10 0.2623113
385.20 0.2627775
385.30 0.2632203
385.40 0.2636689
385.50 0.2641233
385.60 0.2645772
385.70 0.2650305
385.80 0.2654817
385.90 0.2659262
386.00 0.2663716
386.10 0.2668196
386.20 0.2672843
386.30 0.2677485
386.40 0.268206
386.50 0.2686513
386.60 0.2691073
386.70 0.2695628
386.80 0.2700179
386.90 0.2704724
387.00 0.270932
387.10 0.2713862
387.20 0.2718574
387.30 0.2722917
387.40 0.2727562
387.50 0.2732296
387.60 0.2736825
387.70 0.2741471
387.80 0.2746111
387.90 0.2750746
388.00 0.2755342
388.10 0.2759949
388.20 0.2764418
388.30 0.2769057
388.40 0.2773691
388.50 0.2778354
388.60 0.2783055
388.70 0.2787622
388.80 0.2792367
388.90 0.2797056
389.00 0.2802703
389.10 0.2806556
389.20 0.2810405
389.30 0.2815706
389.40 0.2819988
389.50 0.282479
389.60 0.2830259
389.70 0.283518
389.80 0.2839887
389.90 0.2844589
390.00 0.2849286
390.10 0.2853977
390.20 0.2858664
390.30 0.2863348
390.40 0.2868031
390.50 0.2872708
390.60 0.2877381
390.70 0.2882048
390.80 0.2886775
390.90 0.2891561
391.00 0.2895994
391.10 0.2899889
391.20 0.2904222
391.30 0.2909732
391.40 0.2914695
391.50 0.2919653
391.60 0.2924605
391.70 0.2929552
391.80 0.2934494
391.90 0.2938828
392.00 0.2942806
392.10 0.2947267
392.20 0.2952026
392.30 0.2957993
392.40 0.2962224
392.50 0.2966399
392.60 0.2971757
392.70 0.2977108
392.80 0.2982454
392.90 0.2986614
393.00 0.2990927
393.10 0.2996229
393.20 0.3002423
393.30 0.3006372
393.40 0.3010507
393.50 0.301598
393.60 0.3021048
393.70 0.3026343
393.80 0.303151
393.90 0.303543
394.00 0.3039646
394.10 0.3045367
394.20 0.3049355
394.30 0.3054126
394.40 0.3060366
394.50 0.3063807
394.60 0.3069851
394.70 0.3075603
394.80 0.3080277
394.90 0.3084931
395.00 0.3089412
395.10 0.309439
395.20 0.3098579
395.30 0.310319
395.40 0.3107797
395.50 0.3112712
395.60 0.3117739
395.70 0.3122815
395.80 0.3128038
395.90 0.3133255
396.00 0.3138447
396.10 0.314349
396.20 0.3148648
396.30 0.31538
396.40 0.3158946
396.50 0.3164087
396.60 0.3169222
396.70 0.3174422
396.80 0.3179595
396.90 0.3183048
397.00 0.3189237
397.10 0.3194344
397.20 0.3198561
397.30 0.3204796
397.40 0.3209086
397.50 0.3213371
397.60 0.3217719
397.70 0.3222747
397.80 0.3227769
397.90 0.3232799
398.00 0.3237858
398.10 0.3242911
398.20 0.3248422
398.30 0.3254449
398.40 0.3260425
398.50 0.3264942
398.60 0.3269149
398.70 0.3273875
398.80 0.3278754
398.90 0.3284106
399.00 0.3290341
399.10 0.3294614
399.20 0.3299667
399.30 0.3304716
399.40 0.3309758
399.50 0.3314796
399.60 0.3319886
399.70 0.3324993
399.80 0.3330094
399.90 0.3335189
400.00 0.3340321
400.10 0.3346791
400.20 0.3351024
400.30 0.3356778
400.40 0.3362409
400.50 0.3366063
400.60 0.3371837
400.70 0.3376747
400.80 0.3381653
400.90 0.3386553
401.00 0.3392067
401.10 0.339897
401.20 0.3403181
401.30 0.3408515
401.40 0.341378
401.50 0.341889
401.60 0.3423973
401.70 0.3428324
401.80 0.3434429
401.90 0.3439895
402.00 0.3443469
402.10 0.3449329
402.20 0.3455468
402.30 0.3460488
402.40 0.3466064
402.50 0.347123
402.60 0.3475011
402.70 0.3480839
402.80 0.3485636
402.90 0.3491471
403.00 0.3497561
403.10 0.3502601
403.20 0.3508859
403.30 0.3513127
403.40 0.3519135
403.50 0.3523936
403.60 0.3528368
403.70 0.3533771
403.80 0.3540034
403.90 0.3545656
404.00 0.3550772
404.10 0.3555304
404.20 0.3560025
404.30 0.3564741
404.40 0.3572159
404.50 0.3576745
404.60 0.3581445
404.70 0.3586139
404.80 0.3592346
404.90 0.3598095
405.00 0.3602953
405.10 0.3608182
405.20 0.3613771
405.30 0.3619353
405.40 0.3624868
405.50 0.3630377
405.60 0.3635881
405.70 0.3641378
405.80 0.364687
405.90 0.3652355
406.00 0.3657793
406.10 0.3663225
406.20 0.3668651
406.30 0.3674071
406.40 0.3679269
406.50 0.3684524
406.60 0.3689738
406.70 0.3694804
406.80 0.3699985
406.90 0.3706254
407.00 0.3711591
407.10 0.3716922
407.20 0.3722248
407.30 0.3727568
407.40 0.3732882
407.50 0.373819
407.60 0.3743493
407.70 0.374879
407.80 0.3754082
407.90 0.3759404
408.00 0.3765902
408.10 0.3771998
408.20 0.3777381
408.30 0.3782977
408.40 0.3788568
408.50 0.3793797
408.60 0.3798962
408.70 0.3804121
408.80 0.3809464
408.90 0.3815988
409.00 0.3821411
409.10 0.3826827
409.20 0.3832238
409.30 0.3837644
409.40 0.3843039
409.50 0.3848301
409.60 0.3853557
409.70 0.3858777
409.80 0.3863866
409.90 0.3869034
410.00 0.387693
410.10 0.3881334
410.20 0.3886992
410.30 0.3892958
410.40 0.3898819
410.50 0.3904359
410.60 0.3909894
410.70 0.3915359
410.80 0.3920565
410.90 0.3925765
411.00 0.3931475
411.10 0.3937371
411.20 0.394326
411.30 0.3948867
411.40 0.3953409
411.50 0.3959441
411.60 0.3965467
411.70 0.3971396
411.80 0.3976959
411.90 0.3982266
412.00 0.398657
412.10 0.3993363
412.20 0.3997656
412.30 0.4004468
412.40 0.4008989
412.50 0.4015664
412.60 0.4020824
412.70 0.4026488
412.80 0.4032273
412.90 0.4038947
413.00 0.4043659
413.10 0.4049579
413.20 0.4055493
413.30 0.4061401
413.40 0.4067303
413.50 0.4073173
413.60 0.4078866
413.70 0.4084317
413.80 0.4089762
413.90 0.4095202
414.00 0.4100636
414.10 0.4106064
414.20 0.4112671
414.30 0.4117841
414.40 0.4123991
414.50 0.4128789
414.60 0.4135583
414.70 0.4140976
414.80 0.414651
414.90 0.4152507
415.00 0.4158497
415.10 0.4164481
415.20 0.4170379
415.30 0.4176019
