# Version 2.1 - nm, norm@500 to 1, cut digits, bergeron_He_15000_75.dat_15000
# Wavelength(nm)  Flambda(ergs/cm^s/s/nm)
300.00 3.289901
300.10 3.287772
300.20 3.285582
300.30 3.283412
300.40 3.281364
300.50 3.279318
300.60 3.277274
300.70 3.275232
300.80 3.273192
300.90 3.271154
301.00 3.269118
301.10 3.267083
301.20 3.265051
301.30 3.263021
301.40 3.260993
301.50 3.258967
301.60 3.256942
301.70 3.25492
301.80 3.2529
301.90 3.250881
302.00 3.248865
302.10 3.246893
302.20 3.244927
302.30 3.242964
302.40 3.241002
302.50 3.239042
302.60 3.237085
302.70 3.235128
302.80 3.233174
302.90 3.231222
303.00 3.229272
303.10 3.227323
303.20 3.225376
303.30 3.223413
303.40 3.221289
303.50 3.219166
303.60 3.217046
303.70 3.214928
303.80 3.212812
303.90 3.210698
304.00 3.208586
304.10 3.206476
304.20 3.204368
304.30 3.202262
304.40 3.200159
304.50 3.198057
304.60 3.195958
304.70 3.19386
304.80 3.191765
304.90 3.189672
305.00 3.18758
305.10 3.185491
305.20 3.183404
305.30 3.181319
305.40 3.179236
305.50 3.177155
305.60 3.175076
305.70 3.172999
305.80 3.170924
305.90 3.168851
306.00 3.166781
306.10 3.164712
306.20 3.162645
306.30 3.16058
306.40 3.158518
306.50 3.156457
306.60 3.154398
306.70 3.152342
306.80 3.150287
306.90 3.148234
307.00 3.146184
307.10 3.144135
307.20 3.142088
307.30 3.140044
307.40 3.138001
307.50 3.135961
307.60 3.133922
307.70 3.131885
307.80 3.129851
307.90 3.127818
308.00 3.125787
308.10 3.123758
308.20 3.121732
308.30 3.119707
308.40 3.117684
308.50 3.115663
308.60 3.113644
308.70 3.111627
308.80 3.109612
308.90 3.107599
309.00 3.105588
309.10 3.103579
309.20 3.101572
309.30 3.099567
309.40 3.097563
309.50 3.095562
309.60 3.093563
309.70 3.091565
309.80 3.08957
309.90 3.087576
310.00 3.085584
310.10 3.083595
310.20 3.081607
310.30 3.079621
310.40 3.077637
310.50 3.075655
310.60 3.073675
310.70 3.071697
310.80 3.06972
310.90 3.067746
311.00 3.065182
311.10 3.062621
311.20 3.060062
311.30 3.05766
311.40 3.055696
311.50 3.053734
311.60 3.051775
311.70 3.049817
311.80 3.047861
311.90 3.045907
312.00 3.043955
312.10 3.042004
312.20 3.040056
312.30 3.038109
312.40 3.036165
312.50 3.034104
312.60 3.031575
312.70 3.029048
312.80 3.026524
312.90 3.024284
313.00 3.022352
313.10 3.020422
313.20 3.018493
313.30 3.016488
313.40 3.014264
313.50 3.012041
313.60 3.009821
313.70 3.007603
313.80 3.005387
313.90 3.003173
314.00 3.000962
314.10 2.998491
314.20 2.996023
314.30 2.993557
314.40 2.991094
314.50 2.988633
314.60 2.986175
314.70 2.983719
314.80 2.981411
314.90 2.979518
315.00 2.977626
315.10 2.974659
315.20 2.971695
315.30 2.968735
315.40 2.965777
315.50 2.962823
315.60 2.959871
315.70 2.95585
315.80 2.951833
315.90 2.947821
316.00 2.943813
316.10 2.94088
316.20 2.93795
316.30 2.937162
316.40 2.937443
316.50 2.929179
316.60 2.911321
316.70 2.903084
316.80 2.894856
316.90 2.89303
317.00 2.891205
317.10 2.889381
317.20 2.88756
317.30 2.891846
317.40 2.894281
317.50 2.891462
317.60 2.888646
317.70 2.885832
317.80 2.883022
317.90 2.870066
318.00 2.853342
318.10 2.824591
318.20 2.795875
318.30 2.767195
318.40 2.72113
318.50 2.62557
318.60 2.506566
318.70 2.180982
318.80 1.601306
318.90 2.219638
319.00 2.43183
319.10 2.549017
319.20 2.646044
319.30 2.686023
319.40 2.725951
319.50 2.765829
319.60 2.793499
319.70 2.805596
319.80 2.817677
319.90 2.829742
320.00 2.838669
320.10 2.844204
320.20 2.849248
320.30 2.852164
320.40 2.855178
320.50 2.855479
320.60 2.856779
320.70 2.857077
320.80 2.857126
320.90 2.856904
321.00 2.856681
321.10 2.856458
321.20 2.855675
321.30 2.854615
321.40 2.853556
321.50 2.852497
321.60 2.851439
321.70 2.850382
321.80 2.849653
321.90 2.849277
322.00 2.847641
322.10 2.84613
322.20 2.84462
322.30 2.843111
322.40 2.841604
322.50 2.840098
322.60 2.838593
322.70 2.837089
322.80 2.835512
322.90 2.833938
323.00 2.832366
323.10 2.830795
323.20 2.829225
323.30 2.827657
323.40 2.82609
323.50 2.824525
323.60 2.822961
323.70 2.821398
323.80 2.819837
323.90 2.818277
324.00 2.816538
324.10 2.8148
324.20 2.813064
324.30 2.811329
324.40 2.809596
324.50 2.807865
324.60 2.806135
324.70 2.804407
324.80 2.802681
324.90 2.800956
325.00 2.799232
325.10 2.79751
325.20 2.79579
325.30 2.794072
325.40 2.792354
325.50 2.790639
325.60 2.788925
325.70 2.787213
325.80 2.785502
325.90 2.783793
326.00 2.782085
326.10 2.780379
326.20 2.778675
326.30 2.776972
326.40 2.775271
326.50 2.773433
326.60 2.771596
326.70 2.769762
326.80 2.767929
326.90 2.766098
327.00 2.764269
327.10 2.762441
327.20 2.760615
327.30 2.758791
327.40 2.756969
327.50 2.755148
327.60 2.753329
327.70 2.751511
327.80 2.749696
327.90 2.747948
328.00 2.746079
328.10 2.743977
328.20 2.741877
328.30 2.73978
328.40 2.737684
328.50 2.736388
328.60 2.735281
328.70 2.734175
328.80 2.732925
328.90 2.731263
329.00 2.729603
329.10 2.727944
329.20 2.726287
329.30 2.724632
329.40 2.722978
329.50 2.721325
329.60 2.719674
329.70 2.718025
329.80 2.716377
329.90 2.71473
330.00 2.713085
330.10 2.711441
330.20 2.709799
330.30 2.708159
330.40 2.706434
330.50 2.704619
330.60 2.702806
330.70 2.700994
330.80 2.699184
330.90 2.697376
331.00 2.695569
331.10 2.693764
331.20 2.691961
331.30 2.69016
331.40 2.68836
331.50 2.686641
331.60 2.685021
331.70 2.683402
331.80 2.681647
331.90 2.679887
332.00 2.678129
332.10 2.676373
332.20 2.674619
332.30 2.672866
332.40 2.671114
332.50 2.669365
332.60 2.667617
332.70 2.66587
332.80 2.664125
332.90 2.662382
333.00 2.660641
333.10 2.658705
333.20 2.656531
333.30 2.654359
333.40 2.65219
333.50 2.650022
333.60 2.647857
333.70 2.645694
333.80 2.643533
333.90 2.641374
334.00 2.639217
334.10 2.63689
334.20 2.634355
334.30 2.631822
334.40 2.629291
334.50 2.626763
334.60 2.624238
334.70 2.621319
334.80 2.617774
334.90 2.614027
335.00 2.610284
335.10 2.605077
335.20 2.600666
335.30 2.595167
335.40 2.58411
335.50 2.589222
335.60 2.594091
335.70 2.596437
335.80 2.597737
335.90 2.598395
336.00 2.59827
336.10 2.598144
336.20 2.598018
336.30 2.597538
336.40 2.596624
336.50 2.59571
336.60 2.594798
336.70 2.593886
336.80 2.592974
336.90 2.591781
337.00 2.590243
337.10 2.588706
337.20 2.587171
337.30 2.585767
337.40 2.58455
337.50 2.583333
337.60 2.582118
337.70 2.580904
337.80 2.579691
337.90 2.578337
338.00 2.576811
338.10 2.575287
338.20 2.573765
338.30 2.572243
338.40 2.570723
338.50 2.569205
338.60 2.567687
338.70 2.566171
338.80 2.564657
338.90 2.563143
339.00 2.561631
339.10 2.560121
339.20 2.558611
339.30 2.557104
339.40 2.555597
339.50 2.553964
339.60 2.552175
339.70 2.550388
339.80 2.548603
339.90 2.54682
340.00 2.545038
340.10 2.543258
340.20 2.54148
340.30 2.539703
340.40 2.537928
340.50 2.536154
340.60 2.534382
340.70 2.532612
340.80 2.530959
340.90 2.529475
341.00 2.527888
341.10 2.526176
341.20 2.524466
341.30 2.522757
341.40 2.52105
341.50 2.519344
341.60 2.51764
341.70 2.515938
341.80 2.514146
341.90 2.512245
342.00 2.510346
342.10 2.508448
342.20 2.506638
342.30 2.504123
342.40 2.501635
342.50 2.499562
342.60 2.497492
342.70 2.495423
342.80 2.493357
342.90 2.491292
343.00 2.488896
343.10 2.486096
343.20 2.483299
343.30 2.480504
343.40 2.477273
343.50 2.473413
343.60 2.469558
343.70 2.465706
343.80 2.461858
343.90 2.458015
344.00 2.453311
344.10 2.447368
344.20 2.441431
344.30 2.435501
344.40 2.428099
344.50 2.418577
344.60 2.406806
344.70 2.379076
344.80 2.397176
344.90 2.411028
345.00 2.418735
345.10 2.424519
345.20 2.428844
345.30 2.431074
345.40 2.433302
345.50 2.434667
345.60 2.434887
345.70 2.43497
345.80 2.435053
345.90 2.435135
346.00 2.435217
346.10 2.435298
346.20 2.434916
346.30 2.433867
346.40 2.432818
346.50 2.43177
346.60 2.430724
346.70 2.429678
346.80 2.428632
346.90 2.427588
347.00 2.426544
347.10 2.425502
347.20 2.424364
347.30 2.423089
347.40 2.421815
347.50 2.420542
347.60 2.419271
347.70 2.418
347.80 2.416731
347.90 2.415462
348.00 2.414195
348.10 2.412928
348.20 2.411663
348.30 2.410399
348.40 2.409136
348.50 2.407873
348.60 2.406612
348.70 2.405261
348.80 2.403834
348.90 2.402339
349.00 2.400846
349.10 2.399353
349.20 2.397862
349.30 2.396373
349.40 2.394884
349.50 2.393397
349.60 2.391911
349.70 2.390427
349.80 2.388944
349.90 2.387462
350.00 2.385982
350.10 2.384502
350.20 2.383025
350.30 2.381531
350.40 2.380014
350.50 2.378499
350.60 2.376985
350.70 2.375472
350.80 2.37396
350.90 2.37245
351.00 2.370941
351.10 2.369434
351.20 2.367928
351.30 2.366423
351.40 2.364976
351.50 2.363631
351.60 2.362286
351.70 2.360943
351.80 2.359601
351.90 2.35826
352.00 2.35692
352.10 2.355582
352.20 2.354244
352.30 2.352847
352.40 2.351364
352.50 2.349881
352.60 2.348401
352.70 2.346921
352.80 2.345443
352.90 2.343966
353.00 2.34249
353.10 2.341015
353.20 2.339542
353.30 2.338071
353.40 2.3366
353.50 2.335249
353.60 2.333928
353.70 2.332608
353.80 2.33129
353.90 2.329973
354.00 2.328657
354.10 2.327342
354.20 2.326028
354.30 2.324715
354.40 2.323403
354.50 2.322092
354.60 2.320783
354.70 2.319474
354.80 2.318167
354.90 2.316861
355.00 2.315556
355.10 2.314252
355.20 2.312949
355.30 2.31204
355.40 2.311133
355.50 2.310225
355.60 2.309319
355.70 2.308142
355.80 2.306845
355.90 2.305549
356.00 2.304253
356.10 2.30296
356.20 2.301667
356.30 2.300375
356.40 2.299084
356.50 2.297794
356.60 2.296506
356.70 2.295218
356.80 2.293932
356.90 2.292647
357.00 2.291363
357.10 2.290079
357.20 2.288797
357.30 2.287516
357.40 2.286237
357.50 2.284958
357.60 2.28368
357.70 2.282403
357.80 2.281887
357.90 2.281371
358.00 2.280121
358.10 2.278688
358.20 2.277256
358.30 2.275825
358.40 2.274396
358.50 2.272968
358.60 2.271541
358.70 2.270115
358.80 2.268691
358.90 2.267268
359.00 2.265635
359.10 2.26363
359.20 2.26163
359.30 2.25966
359.40 2.257692
359.50 2.255348
359.60 2.252912
359.70 2.250478
359.80 2.24735
359.90 2.244224
360.00 2.240449
360.10 2.235518
360.20 2.230592
360.30 2.225671
360.40 2.220755
360.50 2.215845
360.60 2.205497
360.70 2.192764
360.80 2.180044
360.90 2.167338
361.00 2.152451
361.10 2.127689
361.20 2.097358
361.30 2.032935
361.40 2.079558
361.50 2.140046
361.60 2.1583
361.70 2.162013
361.80 2.166255
361.90 2.171438
362.00 2.176616
362.10 2.179408
362.20 2.180508
362.30 2.179662
362.40 2.178817
362.50 2.177972
362.60 2.177128
362.70 2.174192
362.80 2.171548
362.90 2.165502
363.00 2.159463
363.10 2.149422
363.20 2.139352
363.30 2.125052
363.40 2.109707
363.50 2.125952
363.60 2.14582
363.70 2.155962
363.80 2.161243
363.90 2.165056
364.00 2.168865
364.10 2.172669
364.20 2.176468
364.30 2.179137
364.40 2.181522
364.50 2.183572
364.60 2.185048
364.70 2.186522
364.80 2.187994
364.90 2.188401
365.00 2.188808
365.10 2.187609
365.20 2.181599
365.30 2.18281
365.40 2.187224
365.50 2.188429
365.60 2.189633
365.70 2.190617
365.80 2.1916
365.90 2.192258
366.00 2.192835
366.10 2.192814
366.20 2.192792
366.30 2.192771
366.40 2.192748
366.50 2.191634
366.60 2.190439
366.70 2.189847
366.80 2.189255
366.90 2.188242
367.00 2.186478
367.10 2.184716
367.20 2.182955
367.30 2.181196
367.40 2.179439
367.50 2.177435
367.60 2.175371
367.70 2.172522
367.80 2.169676
367.90 2.166833
368.00 2.163535
368.10 2.160011
368.20 2.155338
368.30 2.150653
368.40 2.145974
368.50 2.141299
368.60 2.136629
368.70 2.131963
368.80 2.127303
368.90 2.122897
369.00 2.117019
369.10 2.110666
369.20 2.104762
369.30 2.096825
369.40 2.088895
369.50 2.080975
369.60 2.070499
369.70 2.060034
369.80 2.047943
369.90 2.035848
370.00 2.023766
370.10 2.01035
370.20 1.986699
370.30 1.963003
370.40 1.920159
370.50 1.887971
370.60 1.937169
370.70 1.981896
370.80 2.002503
370.90 2.023088
371.00 2.029173
371.10 2.035106
371.20 2.041734
371.30 2.048355
371.40 2.054166
371.50 2.059122
371.60 2.064073
371.70 2.069018
371.80 2.073958
371.90 2.078892
372.00 2.083135
372.10 2.087534
372.20 2.090016
372.30 2.092495
372.40 2.094971
372.50 2.097444
372.60 2.099914
372.70 2.102381
372.80 2.103551
372.90 2.104719
373.00 2.105144
373.10 2.10556
373.20 2.102896
373.30 2.100234
373.40 2.076093
373.50 2.081116
373.60 2.090731
373.70 2.094209
373.80 2.09749
373.90 2.101151
374.00 2.103086
374.10 2.105019
374.20 2.10695
374.30 2.108879
374.40 2.10966
374.50 2.109678
374.60 2.110065
374.70 2.110466
374.80 2.110867
374.90 2.111267
375.00 2.110648
375.10 2.11003
375.20 2.109412
375.30 2.108722
375.40 2.108032
375.50 2.107343
375.60 2.106655
375.70 2.105966
375.80 2.105279
375.90 2.104591
376.00 2.103472
376.10 2.102353
376.20 2.101236
376.30 2.100119
376.40 2.099004
376.50 2.09768
376.60 2.096046
376.70 2.094414
376.80 2.092691
376.90 2.090879
377.00 2.089068
377.10 2.087259
377.20 2.085402
377.30 2.08336
377.40 2.08132
377.50 2.079282
377.60 2.076876
377.70 2.074473
377.80 2.072071
377.90 2.069672
378.00 2.067796
378.10 2.064645
378.20 2.061475
378.30 2.058309
378.40 2.055146
378.50 2.051987
378.60 2.04883
378.70 2.045676
378.80 2.042525
378.90 2.038943
379.00 2.034557
379.10 2.029911
379.20 2.02527
379.30 2.020499
379.40 2.015598
379.50 2.010703
379.60 2.005348
379.70 1.998835
379.80 1.990565
379.90 1.982304
380.00 1.974051
380.10 1.965807
380.20 1.95757
380.30 1.949343
380.40 1.941123
380.50 1.932912
380.60 1.920547
380.70 1.906118
380.80 1.891705
380.90 1.877306
381.00 1.862922
381.10 1.845373
381.20 1.826615
381.30 1.805178
381.40 1.780917
381.50 1.754353
381.60 1.723742
381.70 1.685051
381.80 1.633507
381.90 1.538037
382.00 1.482252
382.10 1.632408
382.20 1.701561
382.30 1.747514
382.40 1.784278
382.50 1.807301
382.60 1.830299
382.70 1.848396
382.80 1.857267
382.90 1.862419
383.00 1.867567
383.10 1.872708
383.20 1.87825
383.30 1.885316
383.40 1.892484
383.50 1.899809
383.60 1.906623
383.70 1.911565
383.80 1.916501
383.90 1.921431
384.00 1.926357
384.10 1.931277
384.20 1.936191
384.30 1.9411
384.40 1.944903
384.50 1.947603
384.60 1.950298
384.70 1.952991
384.80 1.955609
384.90 1.957644
385.00 1.959105
385.10 1.960567
385.20 1.961626
385.30 1.962071
385.40 1.962288
385.50 1.962277
385.60 1.962265
385.70 1.962254
385.80 1.962207
385.90 1.962031
386.00 1.961434
386.10 1.960268
386.20 1.957592
386.30 1.954918
386.40 1.950594
386.50 1.943978
386.60 1.933521
386.70 1.904622
386.80 1.847154
386.90 1.877642
387.00 1.889278
387.10 1.897547
387.20 1.903879
387.30 1.909851
387.40 1.915235
387.50 1.917624
387.60 1.917918
387.70 1.915505
387.80 1.913095
387.90 1.910687
388.00 1.906844
388.10 1.89799
388.20 1.879729
388.30 1.856239
388.40 1.832772
388.50 1.798055
388.60 1.735839
388.70 1.631715
388.80 1.390221
388.90 1.242612
389.00 1.534445
389.10 1.664724
389.20 1.739869
389.30 1.78893
389.40 1.821295
389.50 1.848852
389.60 1.867843
389.70 1.879151
389.80 1.885849
389.90 1.892541
390.00 1.899226
390.10 1.905903
390.20 1.912573
390.30 1.91684
390.40 1.9184
390.50 1.919958
390.60 1.921514
390.70 1.923069
390.80 1.924145
390.90 1.924742
391.00 1.924368
391.10 1.924063
391.20 1.923616
391.30 1.922633
391.40 1.92165
391.50 1.920669
391.60 1.919688
391.70 1.918708
391.80 1.917729
391.90 1.91675
392.00 1.91529
392.10 1.913109
392.20 1.911037
392.30 1.909117
392.40 1.906311
392.50 1.903708
392.60 1.900656
392.70 1.896706
392.80 1.89827
392.90 1.899464
393.00 1.900708
393.10 1.901384
393.20 1.901391
393.30 1.901116
393.40 1.900779
393.50 1.899813
393.60 1.897467
393.70 1.896503
393.80 1.89554
393.90 1.894577
394.00 1.893616
394.10 1.892326
394.20 1.890668
394.30 1.889359
394.40 1.886912
394.50 1.884695
394.60 1.882205
394.70 1.87951
394.80 1.876039
394.90 1.872516
395.00 1.867387
395.10 1.863347
395.20 1.856946
395.30 1.850209
395.40 1.843478
395.50 1.833677
395.60 1.822747
395.70 1.809307
395.80 1.789067
395.90 1.768848
396.00 1.747541
396.10 1.708867
396.20 1.653488
396.30 1.58897
396.40 1.452593
396.50 1.502144
396.60 1.685519
396.70 1.734433
396.80 1.738961
396.90 1.737568
397.00 1.760583
397.10 1.792485
397.20 1.808235
397.30 1.80989
397.40 1.810683
397.50 1.811476
397.60 1.812373
397.70 1.814339
397.80 1.816304
397.90 1.817881
398.00 1.818414
398.10 1.818947
398.20 1.8188
398.30 1.817887
398.40 1.816943
398.50 1.814995
398.60 1.812748
398.70 1.810231
398.80 1.807676
398.90 1.805003
399.00 1.802107
399.10 1.799556
399.20 1.795267
399.30 1.790983
399.40 1.786703
399.50 1.782426
399.60 1.777292
399.70 1.771844
399.80 1.766401
399.90 1.760964
400.00 1.755514
400.10 1.749496
400.20 1.74215
400.30 1.734198
400.40 1.726474
400.50 1.717942
400.60 1.707119
400.70 1.696273
400.80 1.68434
400.90 1.665978
401.00 1.655119
401.10 1.652532
401.20 1.645594
401.30 1.636393
401.40 1.62318
401.50 1.608608
401.60 1.593882
401.70 1.573711
401.80 1.551055
401.90 1.523564
402.00 1.494969
402.10 1.460826
402.20 1.421688
402.30 1.371104
402.40 1.301144
402.50 1.198429
402.60 1.030689
402.70 1.133782
402.80 1.285981
402.90 1.359742
403.00 1.425262
403.10 1.474654
403.20 1.513058
403.30 1.544686
403.40 1.572265
403.50 1.594068
403.60 1.614475
403.70 1.631741
403.80 1.647014
403.90 1.657375
404.00 1.667722
404.10 1.674367
404.20 1.678122
404.30 1.681873
404.40 1.680328
404.50 1.66975
404.60 1.664351
404.70 1.666794
404.80 1.673994
404.90 1.679502
405.00 1.685377
405.10 1.690509
405.20 1.695724
405.30 1.700934
405.40 1.704652
405.50 1.708365
405.60 1.712074
405.70 1.71578
405.80 1.719481
405.90 1.723179
406.00 1.725464
406.10 1.727747
406.20 1.730027
406.30 1.732305
406.40 1.734486
406.50 1.735581
406.60 1.737309
406.70 1.738719
406.80 1.739884
406.90 1.740602
407.00 1.741038
407.10 1.741474
407.20 1.741909
407.30 1.742343
407.40 1.742777
407.50 1.74321
407.60 1.743643
407.70 1.744075
407.80 1.744506
407.90 1.744919
408.00 1.744766
408.10 1.744473
408.20 1.744287
408.30 1.744269
408.40 1.744251
408.50 1.743622
408.60 1.743212
408.70 1.742802
408.80 1.742344
408.90 1.741492
409.00 1.740641
409.10 1.73979
409.20 1.73894
409.30 1.73809
409.40 1.737241
409.50 1.736393
409.60 1.735545
409.70 1.734698
409.80 1.733851
409.90 1.732968
410.00 1.730887
410.10 1.730043
410.20 1.728803
410.30 1.727464
410.40 1.725944
410.50 1.72385
410.60 1.721758
410.70 1.71961
410.80 1.717234
410.90 1.714859
411.00 1.712038
411.10 1.709053
411.20 1.706071
411.30 1.702657
411.40 1.69745
411.50 1.690375
411.60 1.683307
411.70 1.674212
411.80 1.656998
411.90 1.636774
412.00 1.584304
412.10 1.433937
412.20 1.480775
412.30 1.534368
412.40 1.571941
412.50 1.595194
412.60 1.611476
412.70 1.621534
412.80 1.630031
412.90 1.637735
413.00 1.639475
413.10 1.639179
413.20 1.638883
413.30 1.638587
413.40 1.638291
413.50 1.637635
413.60 1.634953
413.70 1.630412
413.80 1.625876
413.90 1.621344
414.00 1.616217
414.10 1.609198
414.20 1.60069
414.30 1.579226
414.40 1.552302
414.50 1.573296
414.60 1.588193
414.70 1.598001
414.80 1.606681
414.90 1.61181
415.00 1.616934
415.10 1.622053
415.20 1.626772
415.30 1.63024
415.40 1.633704
415.50 1.63713
415.60 1.63945
415.70 1.641767
415.80 1.644021
415.90 1.646079
416.00 1.648134
416.10 1.649914
416.20 1.650603
416.30 1.65129
416.40 1.651976
416.50 1.652636
416.60 1.652459
416.70 1.652264
416.80 1.650239
416.90 1.643016
417.00 1.643516
417.10 1.646692
417.20 1.647746
417.30 1.648797
417.40 1.649742
417.50 1.650687
417.60 1.651493
417.70 1.651744
417.80 1.65177
417.90 1.651797
418.00 1.651823
418.10 1.651849
418.20 1.651874
418.30 1.651922
418.40 1.652403
418.50 1.652012
418.60 1.65162
418.70 1.651229
418.80 1.650838
418.90 1.650447
419.00 1.650056
419.10 1.649665
419.20 1.649275
419.30 1.648873
419.40 1.648087
419.50 1.647301
419.60 1.646516
419.70 1.645731
419.80 1.644947
419.90 1.644164
420.00 1.643381
420.10 1.642599
420.20 1.641817
420.30 1.641036
420.40 1.640255
420.50 1.639475
420.60 1.638696
420.70 1.637917
420.80 1.637139
420.90 1.636348
421.00 1.635136
421.10 1.633926
421.20 1.632825
421.30 1.63205
421.40 1.631275
421.50 1.630501
421.60 1.629728
421.70 1.628955
421.80 1.628183
421.90 1.627269
422.00 1.625909
422.10 1.624668
422.20 1.623899
422.30 1.62313
422.40 1.622356
422.50 1.621406
422.60 1.620457
422.70 1.619509
422.80 1.618562
422.90 1.617615
423.00 1.616669
423.10 1.615724
423.20 1.614779
423.30 1.613835
423.40 1.612892
423.50 1.61195
423.60 1.611008
423.70 1.610067
423.80 1.609127
423.90 1.608187
424.00 1.607248
424.10 1.60631
424.20 1.605373
424.30 1.604436
424.40 1.603536
424.50 1.602541
424.60 1.601546
424.70 1.600552
424.80 1.599559
