# Version 2.1 - nm, norm@500 to 1, cut digits, bergeron_He_18000_85.dat_18000
# Wavelength(nm)  Flambda(ergs/cm^s/s/nm)
300.00 3.92086
300.10 3.918293
300.20 3.915683
300.30 3.913076
300.40 3.910471
300.50 3.907868
300.60 3.905269
300.70 3.902672
300.80 3.900077
300.90 3.897486
301.00 3.894896
301.10 3.89231
301.20 3.889726
301.30 3.887144
301.40 3.884565
301.50 3.881989
301.60 3.879415
301.70 3.876844
301.80 3.874275
301.90 3.871709
302.00 3.869145
302.10 3.866229
302.20 3.863277
302.30 3.860327
302.40 3.857381
302.50 3.854438
302.60 3.851498
302.70 3.84856
302.80 3.845626
302.90 3.842695
303.00 3.839767
303.10 3.836842
303.20 3.83392
303.30 3.830986
303.40 3.827914
303.50 3.824845
303.60 3.82178
303.70 3.818717
303.80 3.815658
303.90 3.812602
304.00 3.80955
304.10 3.8065
304.20 3.803454
304.30 3.800411
304.40 3.797371
304.50 3.794334
304.60 3.791378
304.70 3.788434
304.80 3.785493
304.90 3.782554
305.00 3.779619
305.10 3.776687
305.20 3.773758
305.30 3.770832
305.40 3.767909
305.50 3.764988
305.60 3.762071
305.70 3.759157
305.80 3.756246
305.90 3.753338
306.00 3.750433
306.10 3.747531
306.20 3.744632
306.30 3.741736
306.40 3.738779
306.50 3.735806
306.60 3.732837
306.70 3.72987
306.80 3.726907
306.90 3.723946
307.00 3.720989
307.10 3.718034
307.20 3.715083
307.30 3.712135
307.40 3.709189
307.50 3.706247
307.60 3.703308
307.70 3.700372
307.80 3.697439
307.90 3.694509
308.00 3.691582
308.10 3.688658
308.20 3.685737
308.30 3.682819
308.40 3.679904
308.50 3.676992
308.60 3.674083
308.70 3.671177
308.80 3.668079
308.90 3.664427
309.00 3.661394
309.10 3.658364
309.20 3.655337
309.30 3.652313
309.40 3.649292
309.50 3.64627
309.60 3.643252
309.70 3.640236
309.80 3.637224
309.90 3.634215
310.00 3.631209
310.10 3.628206
310.20 3.625207
310.30 3.62221
310.40 3.619115
310.50 3.615912
310.60 3.612712
310.70 3.609516
310.80 3.606324
310.90 3.603135
311.00 3.599969
311.10 3.596806
311.20 3.593647
311.30 3.590484
311.40 3.587305
311.50 3.584128
311.60 3.580956
311.70 3.577786
311.80 3.57462
311.90 3.571457
312.00 3.568297
312.10 3.565141
312.20 3.561374
312.30 3.557607
312.40 3.554455
312.50 3.550439
312.60 3.547323
312.70 3.54421
312.80 3.541101
312.90 3.537686
313.00 3.53394
313.10 3.530198
313.20 3.52646
313.30 3.52272
313.40 3.518965
313.50 3.515214
313.60 3.511467
313.70 3.507724
313.80 3.503985
313.90 3.50025
314.00 3.496519
314.10 3.492081
314.20 3.487648
314.30 3.48322
314.40 3.478797
314.50 3.474378
314.60 3.469965
314.70 3.465556
314.80 3.461209
314.90 3.456472
315.00 3.45114
315.10 3.445857
315.20 3.44058
315.30 3.435308
315.40 3.430043
315.50 3.424783
315.60 3.41953
315.70 3.414283
315.80 3.409041
315.90 3.403806
316.00 3.398576
316.10 3.394121
316.20 3.38967
316.30 3.385993
316.40 3.378484
316.50 3.362553
316.60 3.338215
316.70 3.313907
316.80 3.289629
316.90 3.28526
317.00 3.280895
317.10 3.276536
317.20 3.272181
317.30 3.280638
317.40 3.285885
317.50 3.282027
317.60 3.278174
317.70 3.274325
317.80 3.27048
317.90 3.250429
318.00 3.221411
318.10 3.174997
318.20 3.12864
318.30 3.082341
318.40 3.016901
318.50 2.896933
318.60 2.752728
318.70 2.402061
318.80 1.705832
318.90 2.310942
319.00 2.553805
319.10 2.699242
319.20 2.823293
319.30 2.886873
319.40 2.950372
319.50 3.013792
319.60 3.064206
319.70 3.092497
319.80 3.120752
319.90 3.148971
320.00 3.171679
320.10 3.188431
320.20 3.204697
320.30 3.21783
320.40 3.228087
320.50 3.238182
320.60 3.246292
320.70 3.253226
320.80 3.25854
320.90 3.262101
321.00 3.265658
321.10 3.269209
321.20 3.272301
321.30 3.273095
321.40 3.273888
321.50 3.274679
321.60 3.275468
321.70 3.276256
321.80 3.27665
321.90 3.276617
322.00 3.275253
322.10 3.274508
322.20 3.273763
322.30 3.273019
322.40 3.272275
322.50 3.271532
322.60 3.270789
322.70 3.270046
322.80 3.268789
322.90 3.267157
323.00 3.265527
323.10 3.263898
323.20 3.26227
323.30 3.260644
323.40 3.259019
323.50 3.257395
323.60 3.255773
323.70 3.254152
323.80 3.252532
323.90 3.250914
324.00 3.248908
324.10 3.246903
324.20 3.244901
324.30 3.2429
324.40 3.240815
324.50 3.238639
324.60 3.236465
324.70 3.234294
324.80 3.232124
324.90 3.229956
325.00 3.227791
325.10 3.225627
325.20 3.223361
325.30 3.220874
325.40 3.218389
325.50 3.21597
325.60 3.21363
325.70 3.211292
325.80 3.208957
325.90 3.206634
326.00 3.204325
326.10 3.202018
326.20 3.199713
326.30 3.197499
326.40 3.19554
326.50 3.193087
326.60 3.190636
326.70 3.188188
326.80 3.185742
326.90 3.183298
327.00 3.180857
327.10 3.178418
327.20 3.175982
327.30 3.173548
327.40 3.171116
327.50 3.168687
327.60 3.16626
327.70 3.163835
327.80 3.161413
327.90 3.158564
328.00 3.155184
328.10 3.151724
328.20 3.148267
328.30 3.144814
328.40 3.141365
328.50 3.139161
328.60 3.137251
328.70 3.135342
328.80 3.133373
328.90 3.131227
329.00 3.129084
329.10 3.126943
329.20 3.124803
329.30 3.122666
329.40 3.120531
329.50 3.118397
329.60 3.116266
329.70 3.114137
329.80 3.112009
329.90 3.109884
330.00 3.107708
330.10 3.105471
330.20 3.103235
330.30 3.101002
330.40 3.098757
330.50 3.0965
330.60 3.094245
330.70 3.091992
330.80 3.089741
330.90 3.087492
331.00 3.085246
331.10 3.083002
331.20 3.080759
331.30 3.078519
331.40 3.076281
331.50 3.073964
331.60 3.07155
331.70 3.069137
331.80 3.06677
331.90 3.064406
332.00 3.062045
332.10 3.059686
332.20 3.057329
332.30 3.054974
332.40 3.052622
332.50 3.050272
332.60 3.047924
332.70 3.045579
332.80 3.043236
332.90 3.040895
333.00 3.038556
333.10 3.036077
333.20 3.033425
333.30 3.030776
333.40 3.028129
333.50 3.025485
333.60 3.022843
333.70 3.020204
333.80 3.017568
333.90 3.014935
334.00 3.012304
334.10 3.009634
334.20 3.006917
334.30 3.004202
334.40 3.00149
334.50 2.998781
334.60 2.996074
334.70 2.993188
334.80 2.989766
334.90 2.98589
335.00 2.982019
335.10 2.97751
335.20 2.973684
335.30 2.970613
335.40 2.966282
335.50 2.966049
335.60 2.966327
335.70 2.965684
335.80 2.96528
335.90 2.964569
336.00 2.963485
336.10 2.962401
336.20 2.961319
336.30 2.959829
336.40 2.957844
336.50 2.95586
336.60 2.953878
336.70 2.951898
336.80 2.94992
336.90 2.948045
337.00 2.946295
337.10 2.944548
337.20 2.942801
337.30 2.940964
337.40 2.938995
337.50 2.937027
337.60 2.935061
337.70 2.933097
337.80 2.931135
337.90 2.929159
338.00 2.927166
338.10 2.925174
338.20 2.923184
338.30 2.921196
338.40 2.919154
338.50 2.916977
338.60 2.914802
338.70 2.912629
338.80 2.910458
338.90 2.908289
339.00 2.906122
339.10 2.903957
339.20 2.901794
339.30 2.899539
339.40 2.89715
339.50 2.89484
339.60 2.892625
339.70 2.890412
339.80 2.888201
339.90 2.885992
340.00 2.883785
340.10 2.881581
340.20 2.879378
340.30 2.877178
340.40 2.874979
340.50 2.872783
340.60 2.870589
340.70 2.868397
340.80 2.866138
340.90 2.863782
341.00 2.861361
341.10 2.858859
341.20 2.856359
341.30 2.853861
341.40 2.851366
341.50 2.848874
341.60 2.846383
341.70 2.843896
341.80 2.841362
341.90 2.838773
342.00 2.836187
342.10 2.833603
342.20 2.831206
342.30 2.828044
342.40 2.82483
342.50 2.822082
342.60 2.819337
342.70 2.816595
342.80 2.813856
342.90 2.811119
343.00 2.808151
343.10 2.8049
343.20 2.801652
343.30 2.798408
343.40 2.795115
343.50 2.791753
343.60 2.788394
343.70 2.785038
343.80 2.781686
343.90 2.778337
344.00 2.774238
344.10 2.76906
344.20 2.763887
344.30 2.758719
344.40 2.752628
344.50 2.745208
344.60 2.736237
344.70 2.728188
344.80 2.733193
344.90 2.73745
345.00 2.741868
345.10 2.744148
345.20 2.745732
345.30 2.746317
345.40 2.746901
345.50 2.747063
345.60 2.746467
345.70 2.74552
345.80 2.744575
345.90 2.74363
346.00 2.742686
346.10 2.741742
346.20 2.740589
346.30 2.739134
346.40 2.737681
346.50 2.736229
346.60 2.734778
346.70 2.733328
346.80 2.73188
346.90 2.730433
347.00 2.728987
347.10 2.727542
347.20 2.725975
347.30 2.724231
347.40 2.72249
347.50 2.720749
347.60 2.719011
347.70 2.717273
347.80 2.715538
347.90 2.713804
348.00 2.712071
348.10 2.71034
348.20 2.708611
348.30 2.706883
348.40 2.705156
348.50 2.703432
348.60 2.701708
348.70 2.700118
348.80 2.698432
348.90 2.696549
349.00 2.694667
349.10 2.692788
349.20 2.69091
349.30 2.689034
349.40 2.687159
349.50 2.685287
349.60 2.683416
349.70 2.681546
349.80 2.679679
349.90 2.677813
350.00 2.675948
350.10 2.674086
350.20 2.672225
350.30 2.670317
350.40 2.66834
350.50 2.666365
350.60 2.664392
350.70 2.662421
350.80 2.660452
350.90 2.658484
351.00 2.656518
351.10 2.654554
351.20 2.652592
351.30 2.650632
351.40 2.648715
351.50 2.646875
351.60 2.645037
351.70 2.6432
351.80 2.641365
351.90 2.639531
352.00 2.6377
352.10 2.63587
352.20 2.633592
352.30 2.631476
352.40 2.629663
352.50 2.627852
352.60 2.626043
352.70 2.624235
352.80 2.622429
352.90 2.620624
353.00 2.618821
353.10 2.61702
353.20 2.61522
353.30 2.613422
353.40 2.611625
353.50 2.609642
353.60 2.607612
353.70 2.605585
353.80 2.60356
353.90 2.601587
354.00 2.599707
354.10 2.597828
354.20 2.595951
354.30 2.594076
354.40 2.592203
354.50 2.590331
354.60 2.588461
354.70 2.586592
354.80 2.58478
354.90 2.583047
355.00 2.581316
355.10 2.579586
355.20 2.577858
355.30 2.575842
355.40 2.573829
355.50 2.571817
355.60 2.569807
355.70 2.568188
355.80 2.566745
355.90 2.564523
356.00 2.562247
356.10 2.560305
356.20 2.558365
356.30 2.556426
356.40 2.554489
356.50 2.552555
356.60 2.550621
356.70 2.54869
356.80 2.54676
356.90 2.544832
357.00 2.542906
357.10 2.540982
357.20 2.539059
357.30 2.537138
357.40 2.535142
357.50 2.533008
357.60 2.530877
357.70 2.528748
357.80 2.526789
357.90 2.524833
358.00 2.522487
358.10 2.520046
358.20 2.517607
358.30 2.515171
358.40 2.512737
358.50 2.510306
358.60 2.507876
358.70 2.505449
358.80 2.503025
358.90 2.500602
359.00 2.497975
359.10 2.494982
359.20 2.491934
359.30 2.488505
359.40 2.48508
359.50 2.481592
359.60 2.478092
359.70 2.474595
359.80 2.470523
359.90 2.466456
360.00 2.461853
360.10 2.456296
360.20 2.450745
360.30 2.445199
360.40 2.43966
360.50 2.434126
360.60 2.426428
360.70 2.417411
360.80 2.408403
360.90 2.399406
361.00 2.38863
361.10 2.371044
361.20 2.349329
361.30 2.313679
361.40 2.349023
361.50 2.380449
361.60 2.392168
361.70 2.39378
361.80 2.395654
361.90 2.397994
362.00 2.400331
362.10 2.40169
362.20 2.402109
362.30 2.401296
362.40 2.400484
362.50 2.399673
362.60 2.398861
362.70 2.396993
362.80 2.395153
362.90 2.391513
363.00 2.387876
363.10 2.384958
363.20 2.382051
363.30 2.379257
363.40 2.378529
363.50 2.381288
363.60 2.384625
363.70 2.388344
363.80 2.390125
363.90 2.391849
364.00 2.393571
364.10 2.39529
364.20 2.397007
364.30 2.398868
364.40 2.400764
364.50 2.401778
364.60 2.402379
364.70 2.40298
364.80 2.403579
364.90 2.403415
365.00 2.403251
365.10 2.401935
365.20 2.399468
365.30 2.398155
365.40 2.397993
365.50 2.398405
365.60 2.398816
365.70 2.39907
365.80 2.399324
365.90 2.398835
366.00 2.398161
366.10 2.397133
366.20 2.396105
366.30 2.395078
366.40 2.394052
366.50 2.392766
366.60 2.39146
366.70 2.390156
366.80 2.388853
366.90 2.38733
367.00 2.385414
367.10 2.383499
367.20 2.381587
367.30 2.379676
367.40 2.377767
367.50 2.375845
367.60 2.373921
367.70 2.371136
367.80 2.368353
367.90 2.365573
368.00 2.362527
368.10 2.359557
368.20 2.355763
368.30 2.351962
368.40 2.348164
368.50 2.344371
368.60 2.34058
368.70 2.336794
368.80 2.333012
368.90 2.329412
369.00 2.324756
369.10 2.31976
369.20 2.315087
369.30 2.308954
369.40 2.302828
369.50 2.296708
369.60 2.289313
369.70 2.281926
369.80 2.272819
369.90 2.263704
370.00 2.254598
370.10 2.244535
370.20 2.232118
370.30 2.219714
370.40 2.207323
370.50 2.20258
370.60 2.214724
370.70 2.229341
370.80 2.239808
370.90 2.250263
371.00 2.254717
371.10 2.259105
371.20 2.262324
371.30 2.265538
371.40 2.26927
371.50 2.2724
371.60 2.275525
371.70 2.278648
371.80 2.281766
371.90 2.284881
372.00 2.288294
372.10 2.290233
372.20 2.291589
372.30 2.292943
372.40 2.294295
372.50 2.295646
372.60 2.296995
372.70 2.298342
372.80 2.298208
372.90 2.298075
373.00 2.297952
373.10 2.297829
373.20 2.296597
373.30 2.295367
373.40 2.286979
373.50 2.283003
373.60 2.285631
373.70 2.288257
373.80 2.291291
373.90 2.293498
374.00 2.294193
374.10 2.294887
374.20 2.29558
374.30 2.296272
374.40 2.296414
374.50 2.296009
374.60 2.295598
374.70 2.295195
374.80 2.294793
374.90 2.29439
375.00 2.293531
375.10 2.292672
375.20 2.291813
375.30 2.290592
375.40 2.289372
375.50 2.288153
375.60 2.286935
375.70 2.285717
375.80 2.284501
375.90 2.283286
376.00 2.280996
376.10 2.279304
376.20 2.27762
376.30 2.275937
376.40 2.274255
376.50 2.272316
376.60 2.269989
376.70 2.267665
376.80 2.265272
376.90 2.26281
377.00 2.26035
377.10 2.257893
377.20 2.255349
377.30 2.252474
377.40 2.249601
377.50 2.246731
377.60 2.243434
377.70 2.24014
377.80 2.236849
377.90 2.233562
378.00 2.23007
378.10 2.225787
378.20 2.221504
378.30 2.217225
378.40 2.21295
378.50 2.208679
378.60 2.204413
378.70 2.20015
378.80 2.195892
378.90 2.191335
379.00 2.186219
379.10 2.180792
379.20 2.175371
379.30 2.169507
379.40 2.163201
379.50 2.156902
379.60 2.150523
379.70 2.143542
379.80 2.134772
379.90 2.126012
380.00 2.11726
380.10 2.108517
380.20 2.099783
380.30 2.091058
380.40 2.082342
380.50 2.073635
380.60 2.061965
380.70 2.050527
380.80 2.039101
380.90 2.027687
381.00 2.016285
381.10 2.007297
381.20 1.995852
381.30 1.979909
381.40 1.960331
381.50 1.938202
381.60 1.913897
381.70 1.886438
381.80 1.860363
381.90 1.842543
382.00 1.821584
382.10 1.866383
382.20 1.90651
382.30 1.938609
382.40 1.964897
382.50 1.982497
382.60 2.000079
382.70 2.013468
382.80 2.019965
382.90 2.024281
383.00 2.028593
383.10 2.032899
383.20 2.037531
383.30 2.043398
383.40 2.049174
383.50 2.054817
383.60 2.059422
383.70 2.063433
383.80 2.06744
383.90 2.071442
384.00 2.07544
384.10 2.079434
384.20 2.083423
384.30 2.087407
384.40 2.090671
384.50 2.093216
384.60 2.095757
384.70 2.098296
384.80 2.10083
384.90 2.103023
385.00 2.104598
385.10 2.106156
385.20 2.107048
385.30 2.108054
385.40 2.108613
385.50 2.108723
385.60 2.108833
385.70 2.108943
385.80 2.109053
385.90 2.109166
386.00 2.108676
386.10 2.107477
386.20 2.105193
386.30 2.102911
386.40 2.099696
386.50 2.095363
386.60 2.087752
386.70 2.071525
386.80 2.030169
386.90 2.042969
387.00 2.052243
387.10 2.055743
387.20 2.057447
387.30 2.056666
387.40 2.054051
387.50 2.050112
387.60 2.044397
387.70 2.034148
387.80 2.023909
387.90 2.013681
388.00 2.001903
388.10 1.982965
388.20 1.952278
388.30 1.914414
388.40 1.876589
388.50 1.825764
388.60 1.743538
388.70 1.614398
388.80 1.333166
388.90 1.154482
389.00 1.45846
389.10 1.618547
389.20 1.715979
389.30 1.783891
389.40 1.83387
389.50 1.8774
389.60 1.909901
389.70 1.932981
389.80 1.948317
389.90 1.963638
390.00 1.978943
390.10 1.994232
390.20 2.009504
390.30 2.020538
390.40 2.026801
390.50 2.033058
390.60 2.039308
390.70 2.045551
390.80 2.050418
390.90 2.053911
391.00 2.056012
391.10 2.058372
391.20 2.060583
391.30 2.061752
391.40 2.06237
391.50 2.062986
391.60 2.063602
391.70 2.064216
391.80 2.06483
391.90 2.064659
392.00 2.063606
392.10 2.062554
392.20 2.061502
392.30 2.060451
392.40 2.059401
392.50 2.057355
392.60 2.056307
392.70 2.054264
392.80 2.053218
392.90 2.051988
393.00 2.050415
393.10 2.049092
393.20 2.04796
393.30 2.045926
393.40 2.043983
393.50 2.042141
393.60 2.039317
393.70 2.037179
393.80 2.034704
393.90 2.031692
394.00 2.028716
394.10 2.025662
394.20 2.022127
394.30 2.01813
394.40 2.013562
394.50 2.00892
394.60 2.003494
394.70 1.99786
394.80 1.991424
394.90 1.98497
395.00 1.977534
395.10 1.968878
395.20 1.959496
395.30 1.949862
395.40 1.940238
395.50 1.928186
395.60 1.915245
395.70 1.90055
395.80 1.881095
395.90 1.86166
396.00 1.841434
396.10 1.809101
396.20 1.766123
396.30 1.7154
396.40 1.600757
396.50 1.677005
396.60 1.807749
396.70 1.835162
396.80 1.832332
396.90 1.82912
397.00 1.850218
397.10 1.881747
397.20 1.898544
397.30 1.903785
397.40 1.906191
397.50 1.908593
397.60 1.910784
397.70 1.910856
397.80 1.910928
397.90 1.910627
398.00 1.909321
398.10 1.908016
398.20 1.906128
398.30 1.903584
398.40 1.901046
398.50 1.898604
398.60 1.894974
398.70 1.890877
398.80 1.886776
398.90 1.882281
399.00 1.87705
399.10 1.871756
399.20 1.865293
399.30 1.858836
399.40 1.852386
399.50 1.845942
399.60 1.838899
399.70 1.831639
399.80 1.824386
399.90 1.817141
400.00 1.809892
400.10 1.802347
400.20 1.794373
400.30 1.78538
400.40 1.776159
400.50 1.767281
400.60 1.756543
400.70 1.746102
400.80 1.733927
400.90 1.721119
401.00 1.708156
401.10 1.696805
401.20 1.684397
401.30 1.671116
401.40 1.655837
401.50 1.639841
401.60 1.623745
401.70 1.603903
401.80 1.581543
401.90 1.554386
402.00 1.525032
402.10 1.489213
402.20 1.448314
402.30 1.400774
402.40 1.344803
402.50 1.272984
402.60 1.193701
402.70 1.265092
402.80 1.346805
402.90 1.410464
403.00 1.471223
403.10 1.519635
403.20 1.557624
403.30 1.588806
403.40 1.6159
403.50 1.638023
403.60 1.658913
403.70 1.676244
403.80 1.690852
403.90 1.702316
404.00 1.71261
404.10 1.719946
404.20 1.725205
404.30 1.730458
404.40 1.732931
404.50 1.728747
404.60 1.726485
404.70 1.729852
404.80 1.734811
404.90 1.74032
405.00 1.745742
405.10 1.750633
405.20 1.755447
405.30 1.760257
405.40 1.764994
405.50 1.769727
405.60 1.774455
405.70 1.779179
405.80 1.783897
405.90 1.78861
406.00 1.792228
406.10 1.795842
406.20 1.799452
406.30 1.803058
406.40 1.806712
406.50 1.810293
406.60 1.813109
406.70 1.816047
406.80 1.818779
406.90 1.821658
407.00 1.823822
407.10 1.825984
407.20 1.828143
407.30 1.8303
407.40 1.832455
407.50 1.834608
407.60 1.836758
407.70 1.838905
407.80 1.841051
407.90 1.843178
408.00 1.844795
408.10 1.846368
408.20 1.847365
408.30 1.84826
408.40 1.849155
408.50 1.850576
408.60 1.851261
408.70 1.851946
408.80 1.852571
408.90 1.852721
409.00 1.852872
409.10 1.853023
409.20 1.853174
409.30 1.853324
409.40 1.853462
409.50 1.853204
409.60 1.852946
409.70 1.852643
409.80 1.85216
409.90 1.851665
410.00 1.850762
410.10 1.85062
410.20 1.849585
410.30 1.848327
410.40 1.847012
410.50 1.845513
410.60 1.844015
410.70 1.842269
410.80 1.83953
410.90 1.836794
411.00 1.833524
411.10 1.830058
411.20 1.826595
411.30 1.822874
411.40 1.818053
411.50 1.811402
411.60 1.804757
411.70 1.796824
411.80 1.783727
411.90 1.769013
412.00 1.735134
412.10 1.600468
412.20 1.635842
412.30 1.674757
412.40 1.696045
412.50 1.707982
412.60 1.718752
412.70 1.726411
412.80 1.733289
412.90 1.739459
413.00 1.743547
413.10 1.745202
413.20 1.746856
413.30 1.748508
413.40 1.750158
413.50 1.751495
413.60 1.751359
413.70 1.750512
413.80 1.749666
413.90 1.748821
414.00 1.747546
414.10 1.744911
414.20 1.741634
414.30 1.735425
414.40 1.730117
414.50 1.730492
414.60 1.735595
414.70 1.741455
414.80 1.746934
414.90 1.751221
415.00 1.755504
415.10 1.759783
415.20 1.763761
415.30 1.766794
415.40 1.769825
415.50 1.772822
415.60 1.774837
415.70 1.77685
415.80 1.778804
415.90 1.780577
416.00 1.782348
416.10 1.783932
416.20 1.784776
416.30 1.785618
416.40 1.78646
416.50 1.787276
416.60 1.787303
416.70 1.787303
416.80 1.786445
416.90 1.78328
417.00 1.781925
417.10 1.783943
417.20 1.785293
417.30 1.786623
417.40 1.787324
417.50 1.788025
417.60 1.788714
417.70 1.789348
417.80 1.789518
417.90 1.789687
418.00 1.789856
418.10 1.790025
418.20 1.790194
418.30 1.790331
418.40 1.789635
418.50 1.789446
418.60 1.789258
418.70 1.789069
418.80 1.78888
418.90 1.788691
419.00 1.788502
419.10 1.788313
419.20 1.788124
419.30 1.787925
419.40 1.787381
419.50 1.786837
419.60 1.786291
419.70 1.785734
419.80 1.785178
419.90 1.784592
420.00 1.783913
420.10 1.783234
420.20 1.782556
420.30 1.781878
420.40 1.781201
420.50 1.780524
420.60 1.779847
420.70 1.779171
420.80 1.778496
420.90 1.777815
421.00 1.776971
421.10 1.776127
421.20 1.775253
421.30 1.774287
421.40 1.773322
421.50 1.772357
421.60 1.771393
421.70 1.77043
421.80 1.769467
421.90 1.768535
422.00 1.767697
422.10 1.76686
422.20 1.766023
422.30 1.765186
422.40 1.764344
422.50 1.763292
422.60 1.76224
422.70 1.761189
422.80 1.760139
422.90 1.75909
423.00 1.758041
423.10 1.756994
423.20 1.755947
423.30 1.754901
423.40 1.753856
423.50 1.752811
423.60 1.751767
423.70 1.750725
423.80 1.749682
423.90 1.748641
424.00 1.747601
424.10 1.746561
424.20 1.745522
424.30 1.744484
424.40 1.743488
424.50 1.742322
424.60 1.741157
424.70 1.739993
424.80 1.73883
424.90 1.737668
425.00 1.736507
