# Version 2.1 - nm, norm@500 to 1, cut digits, bergeron_He_5250_90.dat_5250
# Wavelength(nm)  Flambda(ergs/cm^s/s/nm)
300.00 0.308308
300.10 0.3088021
300.20 0.3092967
300.30 0.309792
300.40 0.3102964
300.50 0.3108
300.60 0.3113029
300.70 0.3118051
300.80 0.3123065
300.90 0.3128072
301.00 0.3133071
301.10 0.3138063
301.20 0.3143048
301.30 0.3148025
301.40 0.3152995
301.50 0.3157958
301.60 0.3162914
301.70 0.3167862
301.80 0.3172803
301.90 0.3177737
302.00 0.3182664
302.10 0.3187671
302.20 0.319268
302.30 0.3197682
302.40 0.3202677
302.50 0.3207664
302.60 0.3212644
302.70 0.3217617
302.80 0.3222582
302.90 0.322754
303.00 0.3232491
303.10 0.3237435
303.20 0.3242372
303.30 0.3247311
303.40 0.3252331
303.50 0.3257344
303.60 0.326235
303.70 0.3267348
303.80 0.3272339
303.90 0.3277323
304.00 0.32823
304.10 0.3287269
304.20 0.3292231
304.30 0.3297186
304.40 0.3302134
304.50 0.3307074
304.60 0.3312161
304.70 0.3317257
304.80 0.3322346
304.90 0.3327428
305.00 0.3332502
305.10 0.3337569
305.20 0.3342628
305.30 0.3347681
305.40 0.3352725
305.50 0.3357763
305.60 0.3362793
305.70 0.3367816
305.80 0.3372831
305.90 0.337784
306.00 0.3382841
306.10 0.3387835
306.20 0.3392821
306.30 0.3397801
306.40 0.3402899
306.50 0.3408029
306.60 0.3413151
306.70 0.3418265
306.80 0.3423372
306.90 0.3428472
307.00 0.3433564
307.10 0.3438649
307.20 0.3443727
307.30 0.3448797
307.40 0.345386
307.50 0.3458916
307.60 0.3463964
307.70 0.3469005
307.80 0.3474039
307.90 0.3479066
308.00 0.3484085
308.10 0.3489097
308.20 0.3494102
308.30 0.3499099
308.40 0.350409
308.50 0.3509073
308.60 0.3514049
308.70 0.3519017
308.80 0.3524064
308.90 0.3529343
309.00 0.3534443
309.10 0.3539536
309.20 0.3544621
309.30 0.3549699
309.40 0.3554776
309.50 0.3559885
309.60 0.3564987
309.70 0.3570081
309.80 0.3575168
309.90 0.3580248
310.00 0.358532
310.10 0.3590386
310.20 0.3595443
310.30 0.3600494
310.40 0.3605563
310.50 0.3610653
310.60 0.3615736
310.70 0.3620811
310.80 0.3625879
310.90 0.3630939
311.00 0.3636144
311.10 0.3641341
311.20 0.364653
311.30 0.3651703
311.40 0.3656839
311.50 0.3661969
311.60 0.3667091
311.70 0.3672206
311.80 0.3677313
311.90 0.3682413
312.00 0.3687506
312.10 0.3692592
312.20 0.3697616
312.30 0.3702737
312.40 0.370793
312.50 0.3712787
312.60 0.3717914
312.70 0.3723034
312.80 0.3728147
312.90 0.3733314
313.00 0.373854
313.10 0.3743758
313.20 0.374897
313.30 0.3754163
313.40 0.3759318
313.50 0.3764466
313.60 0.3769607
313.70 0.3774741
313.80 0.3779867
313.90 0.3784986
314.00 0.3790098
314.10 0.3795194
314.20 0.3800282
314.30 0.3805364
314.40 0.3810438
314.50 0.3815505
314.60 0.3820565
314.70 0.3825618
314.80 0.3830837
314.90 0.3836294
315.00 0.3841478
315.10 0.3846552
315.20 0.3851619
315.30 0.385668
315.40 0.3861732
315.50 0.3866778
315.60 0.3871817
315.70 0.3877082
315.80 0.388234
315.90 0.388759
316.00 0.3892833
316.10 0.3898068
316.20 0.3903296
316.30 0.3908168
316.40 0.3913381
316.50 0.3918238
316.60 0.3923437
316.70 0.3928629
316.80 0.3933814
316.90 0.3938991
317.00 0.394416
317.10 0.3949323
317.20 0.3954478
317.30 0.395957
317.40 0.3964675
317.50 0.3969831
317.60 0.397498
317.70 0.3980122
317.80 0.3985256
317.90 0.3990488
318.00 0.3996052
318.10 0.4001142
318.20 0.4006224
318.30 0.40113
318.40 0.4016368
318.50 0.4021429
318.60 0.4026751
318.70 0.4032039
318.80 0.4037353
318.90 0.4042213
319.00 0.4047403
319.10 0.4052764
319.20 0.4058048
319.30 0.4063128
319.40 0.40682
319.50 0.4073265
319.60 0.4078703
319.70 0.4083754
319.80 0.4088797
319.90 0.4093834
320.00 0.409899
320.10 0.4104278
320.20 0.4109298
320.30 0.4114681
320.40 0.4119742
320.50 0.4125
320.60 0.4129924
320.70 0.4135168
320.80 0.4140404
320.90 0.4145633
321.00 0.4150855
321.10 0.415607
321.20 0.4160934
321.30 0.4166196
321.40 0.4171451
321.50 0.4176698
321.60 0.4181938
321.70 0.4187171
321.80 0.4192362
321.90 0.4197509
322.00 0.4202375
322.10 0.4207646
322.20 0.421291
322.30 0.4218166
322.40 0.4223416
322.50 0.4228657
322.60 0.4233892
322.70 0.4239119
322.80 0.4243961
322.90 0.4249195
323.00 0.4254421
323.10 0.4259641
323.20 0.4264853
323.30 0.4270057
323.40 0.4275255
323.50 0.4280445
323.60 0.4285628
323.70 0.4290804
323.80 0.4295973
323.90 0.4301134
324.00 0.4306317
324.10 0.4311491
324.20 0.4316659
324.30 0.4321781
324.40 0.4326895
324.50 0.4332122
324.60 0.4337343
324.70 0.4342556
324.80 0.4347762
324.90 0.435296
325.00 0.4358151
325.10 0.4363336
325.20 0.4368504
325.30 0.4373647
325.40 0.4378783
325.50 0.4383909
325.60 0.4389025
325.70 0.4394135
325.80 0.4399237
325.90 0.440441
326.00 0.440966
326.10 0.4414903
326.20 0.4420138
326.30 0.4425336
326.40 0.4430439
326.50 0.4435676
326.60 0.4440906
326.70 0.4446129
326.80 0.4451345
326.90 0.4456554
327.00 0.4461755
327.10 0.446695
327.20 0.4472137
327.30 0.4477317
327.40 0.4482489
327.50 0.4487655
327.60 0.4492813
327.70 0.4497964
327.80 0.4503109
327.90 0.4508099
328.00 0.4513108
328.10 0.4518337
328.20 0.4523559
328.30 0.4528774
328.40 0.4533981
328.50 0.4539092
328.60 0.4544173
328.70 0.4549248
328.80 0.4554358
328.90 0.4559581
329.00 0.4564796
329.10 0.4570004
329.20 0.4575204
329.30 0.4580398
329.40 0.4585584
329.50 0.4590764
329.60 0.4595936
329.70 0.4601101
329.80 0.4606259
329.90 0.461141
330.00 0.461662
330.10 0.4621906
330.20 0.4627184
330.30 0.4632455
330.40 0.4637666
330.50 0.4642811
330.60 0.464795
330.70 0.4653081
330.80 0.4658205
330.90 0.4663322
331.00 0.4668432
331.10 0.4673535
331.20 0.4678632
331.30 0.4683721
331.40 0.4688803
331.50 0.4694001
331.60 0.4699343
331.70 0.4704678
331.80 0.4709887
331.90 0.4715084
332.00 0.4720274
332.10 0.4725457
332.20 0.4730632
332.30 0.4735801
332.40 0.4740962
332.50 0.4746117
332.60 0.4751264
332.70 0.4756405
332.80 0.4761538
332.90 0.4766664
333.00 0.4771783
333.10 0.4776936
333.20 0.4782131
333.30 0.4787319
333.40 0.47925
333.50 0.4797674
333.60 0.4802841
333.70 0.4808001
333.80 0.4813153
333.90 0.4818299
334.00 0.4823438
334.10 0.4828579
334.20 0.4833724
334.30 0.4838863
334.40 0.4843994
334.50 0.4849119
334.60 0.4854236
334.70 0.4859253
334.80 0.4864271
334.90 0.4869457
335.00 0.4874636
335.10 0.4879558
335.20 0.4884738
335.30 0.4889848
335.40 0.4895247
335.50 0.4900172
335.60 0.4905556
335.70 0.491053
335.80 0.4915668
335.90 0.4920798
336.00 0.4925921
336.10 0.4931038
336.20 0.4936148
336.30 0.4941296
336.40 0.4946495
336.50 0.4951687
336.60 0.4956871
336.70 0.4962049
336.80 0.4967219
336.90 0.4972369
337.00 0.4977496
337.10 0.4982616
337.20 0.4987729
337.30 0.4992828
337.40 0.4997907
337.50 0.500298
337.60 0.5008046
337.70 0.5013106
337.80 0.5018158
337.90 0.5023282
338.00 0.5028495
338.10 0.5033701
338.20 0.50389
338.30 0.5044091
338.40 0.5049261
338.50 0.5054388
338.60 0.5059508
338.70 0.506462
338.80 0.5069726
338.90 0.5074825
339.00 0.5079917
339.10 0.5085002
339.20 0.5090081
339.30 0.5095146
339.40 0.5100197
339.50 0.5105283
339.60 0.5110414
339.70 0.5115538
339.80 0.5120655
339.90 0.5125765
340.00 0.5130868
340.10 0.5135965
340.20 0.5141054
340.30 0.5146137
340.40 0.5151212
340.50 0.5156281
340.60 0.5161343
340.70 0.5166399
340.80 0.5171535
340.90 0.517679
341.00 0.5181964
341.10 0.5187039
341.20 0.5192108
341.30 0.519717
341.40 0.5202225
341.50 0.5207274
341.60 0.5212315
341.70 0.521735
341.80 0.5222418
341.90 0.5227527
342.00 0.5232629
342.10 0.5237724
342.20 0.5242676
342.30 0.5247631
342.40 0.5252741
342.50 0.5257876
342.60 0.5263004
342.70 0.5268125
342.80 0.5273239
342.90 0.5278346
343.00 0.5283407
343.10 0.5288415
343.20 0.5293416
343.30 0.529841
343.40 0.530345
343.50 0.5308561
343.60 0.5313665
343.70 0.5318762
343.80 0.5323852
343.90 0.5328936
344.00 0.5333992
344.10 0.5339013
344.20 0.5344026
344.30 0.5349034
344.40 0.5354094
344.50 0.5359235
344.60 0.5364022
344.70 0.5369149
344.80 0.537427
344.90 0.5379384
345.00 0.538425
345.10 0.538935
345.20 0.5394408
345.30 0.5399407
345.40 0.54044
345.50 0.5409537
345.60 0.5414749
345.70 0.5419809
345.80 0.5424861
345.90 0.5429907
346.00 0.5434947
346.10 0.5439979
346.20 0.5445005
346.30 0.5450024
346.40 0.5455037
346.50 0.5460042
346.60 0.5465041
346.70 0.5470034
346.80 0.5475019
346.90 0.5479998
347.00 0.5484971
347.10 0.5489936
347.20 0.5494943
347.30 0.550001
347.40 0.550507
347.50 0.5510124
347.60 0.5515171
347.70 0.5520211
347.80 0.5525245
347.90 0.5530272
348.00 0.5535292
348.10 0.5540305
348.20 0.5545312
348.30 0.5550312
348.40 0.5555306
348.50 0.5560293
348.60 0.5565273
348.70 0.5570192
348.80 0.5575134
348.90 0.5580134
349.00 0.5585127
349.10 0.5590113
349.20 0.5595093
349.30 0.5600067
349.40 0.5605034
349.50 0.5609994
349.60 0.5614947
349.70 0.5619894
349.80 0.5624835
349.90 0.5629769
350.00 0.5634696
350.10 0.5639617
350.20 0.5644531
350.30 0.5649531
350.40 0.5654656
350.50 0.5659775
350.60 0.5664887
350.70 0.5669992
350.80 0.567509
350.90 0.5680182
351.00 0.5685267
351.10 0.5690345
351.20 0.5695417
351.30 0.5700482
351.40 0.5705557
351.50 0.5710657
351.60 0.571575
351.70 0.5720836
351.80 0.5725915
351.90 0.5730987
352.00 0.5736053
352.10 0.5741113
352.20 0.5745494
352.30 0.5750077
352.40 0.5755059
352.50 0.5760035
352.60 0.5765004
352.70 0.5769966
352.80 0.5774922
352.90 0.5779871
353.00 0.5784814
353.10 0.578975
353.20 0.5794679
353.30 0.5799603
353.40 0.5804519
353.50 0.5808924
353.60 0.5813196
353.70 0.5817463
353.80 0.5821724
353.90 0.5826183
354.00 0.5830997
354.10 0.5835804
354.20 0.5840605
354.30 0.58454
354.40 0.5850189
354.50 0.5854971
354.60 0.5859747
354.70 0.5864516
354.80 0.5869587
354.90 0.5875092
355.00 0.5880589
355.10 0.588608
355.20 0.5891564
355.30 0.5895959
355.40 0.5900349
355.50 0.5904732
355.60 0.590911
355.70 0.591472
355.80 0.5920879
355.90 0.5927166
356.00 0.5932227
356.10 0.5936915
356.20 0.5941597
356.30 0.5946273
356.40 0.5950943
356.50 0.5955606
356.60 0.5960263
356.70 0.5964915
356.80 0.596956
356.90 0.5974199
357.00 0.5978831
357.10 0.5983458
357.20 0.5988079
357.30 0.5992693
357.40 0.5997368
357.50 0.6002155
357.60 0.6006936
357.70 0.601171
357.80 0.6015799
357.90 0.6019882
358.00 0.6024697
358.10 0.6029689
358.20 0.6034676
358.30 0.6039655
358.40 0.6044629
358.50 0.6049595
358.60 0.6054555
358.70 0.6059509
358.80 0.6064457
358.90 0.6069397
359.00 0.6074842
359.10 0.6081186
359.20 0.6087165
359.30 0.6090751
359.40 0.6094333
359.50 0.609852
359.60 0.6102853
359.70 0.6107181
359.80 0.6111971
359.90 0.6116755
360.00 0.6121483
360.10 0.6126117
360.20 0.6130745
360.30 0.6135367
360.40 0.6139983
360.50 0.6144593
360.60 0.6149548
360.70 0.61542
360.80 0.6158847
360.90 0.6163487
361.00 0.6168674
361.10 0.6176111
361.20 0.6179838
361.30 0.6183917
361.40 0.6188794
361.50 0.6193129
361.60 0.6201149
361.70 0.6205738
361.80 0.6210441
361.90 0.6215352
362.00 0.6220256
362.10 0.6224413
362.20 0.622866
362.30 0.62334
362.40 0.6238134
362.50 0.6242861
362.60 0.6247583
362.70 0.6251676
362.80 0.6258265
362.90 0.6262742
363.00 0.6267212
363.10 0.6271033
363.20 0.6274842
363.30 0.6278137
363.40 0.6286596
363.50 0.6287107
363.60 0.6294228
363.70 0.6296641
363.80 0.630316
363.90 0.6308497
364.00 0.6313827
364.10 0.6319151
364.20 0.6324467
364.30 0.6327436
364.40 0.6329814
364.50 0.6336956
364.60 0.6342218
364.70 0.6347474
364.80 0.6352723
364.90 0.6357119
365.00 0.6361509
365.10 0.6365893
365.20 0.6367651
365.30 0.6374645
365.40 0.6379012
365.50 0.6383374
365.60 0.638773
365.70 0.6391367
365.80 0.6394999
365.90 0.6399892
366.00 0.6405096
366.10 0.6410571
366.20 0.6416038
366.30 0.6421499
366.40 0.6426953
366.50 0.6429223
366.60 0.6436178
366.70 0.6440547
366.80 0.6444911
366.90 0.6449462
367.00 0.6454352
367.10 0.6459235
367.20 0.6464112
367.30 0.6468983
367.40 0.6473847
367.50 0.6476603
367.60 0.647883
367.70 0.6483473
367.80 0.6488109
367.90 0.649274
368.00 0.6498316
368.10 0.6502463
368.20 0.6507026
368.30 0.6511601
368.40 0.651617
368.50 0.6520732
368.60 0.6525289
368.70 0.652984
368.80 0.6534385
368.90 0.6539318
369.00 0.6544418
369.10 0.654938
369.20 0.6556178
369.30 0.6559464
369.40 0.6562746
369.50 0.6566023
369.60 0.6572657
369.70 0.6579283
369.80 0.6582668
369.90 0.6586016
370.00 0.6589359
370.10 0.6595632
370.20 0.6599816
370.30 0.6603901
370.40 0.660793
370.50 0.6614615
370.60 0.6618747
370.70 0.6620265
370.80 0.6626816
370.90 0.6633359
371.00 0.6637466
371.10 0.6641544
371.20 0.6645541
371.30 0.6649532
371.40 0.6654156
371.50 0.6659066
371.60 0.6663969
371.70 0.6668866
371.80 0.6673758
371.90 0.6678643
372.00 0.6683078
372.10 0.6686701
372.20 0.6691521
372.30 0.6696335
372.40 0.6701143
372.50 0.6705945
372.60 0.671074
372.70 0.671553
372.80 0.6719437
372.90 0.6723339
373.00 0.6727311
373.10 0.6731278
373.20 0.6735202
373.30 0.6739121
373.40 0.6743035
373.50 0.674945
373.60 0.6753352
373.70 0.6759753
373.80 0.6763331
373.90 0.6767529
374.00 0.6771409
374.10 0.6775284
374.20 0.6779154
374.30 0.6783019
374.40 0.678875
374.50 0.6795598
374.60 0.6799511
374.70 0.6803371
374.80 0.6807227
374.90 0.6811077
375.00 0.6815733
375.10 0.6820382
375.20 0.6825026
375.30 0.6829191
375.40 0.6833351
375.50 0.6837505
375.60 0.6841653
375.70 0.6845797
375.80 0.6849935
375.90 0.6854067
376.00 0.6860216
376.10 0.686413
376.20 0.6868017
376.30 0.6871898
376.40 0.6875774
376.50 0.6880038
376.60 0.6884886
376.70 0.6889727
376.80 0.6894335
376.90 0.6898709
377.00 0.6903078
377.10 0.690744
377.20 0.6911721
377.30 0.6915709
377.40 0.6919692
377.50 0.692367
377.60 0.6928532
377.70 0.6933389
377.80 0.6938239
377.90 0.6943083
378.00 0.6949292
378.10 0.6953582
378.20 0.6957827
378.30 0.6962066
378.40 0.69663
378.50 0.6970529
378.60 0.6974752
378.70 0.697897
378.80 0.6983182
378.90 0.6987152
379.00 0.6990677
379.10 0.6994775
379.20 0.6998867
379.30 0.7002985
379.40 0.7007129
379.50 0.7011268
379.60 0.7015533
379.70 0.7020013
379.80 0.7024573
379.90 0.7029128
380.00 0.7033676
380.10 0.7038219
380.20 0.7042756
380.30 0.7047288
380.40 0.7051813
380.50 0.7056333
380.60 0.7060607
380.70 0.7064574
380.80 0.7068536
380.90 0.7072493
381.00 0.7076444
381.10 0.7081759
381.20 0.7085596
381.30 0.7090263
381.40 0.709304
381.50 0.7096714
381.60 0.7100656
381.70 0.7105797
381.80 0.7109182
381.90 0.7115048
382.00 0.7120907
382.10 0.7124365
382.20 0.712686
382.30 0.7132701
382.40 0.7137974
382.50 0.7142398
382.60 0.7146817
382.70 0.7149714
382.80 0.7152332
382.90 0.7156379
383.00 0.7160421
383.10 0.7164457
383.20 0.7168515
383.30 0.7172663
383.40 0.7177731
383.50 0.7184176
383.60 0.7185916
383.70 0.7190306
383.80 0.719469
383.90 0.7199069
384.00 0.7203442
384.10 0.720781
384.20 0.7212172
384.30 0.7216529
384.40 0.7220689
384.50 0.7224651
384.60 0.7228608
384.70 0.723256
384.80 0.7237196
384.90 0.7243407
385.00 0.7247743
385.10 0.7251912
385.20 0.7252645
385.30 0.7258445
385.40 0.7263299
385.50 0.7267209
385.60 0.7271114
385.70 0.7275014
385.80 0.727903
385.90 0.7283496
386.00 0.7287168
386.10 0.7290263
386.20 0.7295539
386.30 0.7300809
386.40 0.7303838
386.50 0.7309063
386.60 0.7312713
386.70 0.7317115
386.80 0.7320342
386.90 0.7323566
387.00 0.7328069
387.10 0.7331283
387.20 0.7335424
387.30 0.7342244
387.40 0.7344321
387.50 0.734812
387.60 0.7351211
387.70 0.7355561
387.80 0.7359905
387.90 0.7364243
388.00 0.7369138
388.10 0.7373067
388.20 0.7376884
388.30 0.7380446
388.40 0.7384004
388.50 0.7387828
388.60 0.7393072
388.70 0.7400082
388.80 0.7403081
388.90 0.7406498
389.00 0.741
389.10 0.7414933
389.20 0.7417853
389.30 0.7421743
389.40 0.7425026
389.50 0.7428567
389.60 0.7433121
389.70 0.7439008
389.80 0.7443018
389.90 0.7447023
390.00 0.7451024
390.10 0.7455019
390.20 0.7459009
390.30 0.7462797
390.40 0.746636
390.50 0.7469918
390.60 0.7473471
390.70 0.747702
390.80 0.7480759
390.90 0.7484688
391.00 0.7489925
391.10 0.7494972
391.20 0.7499447
391.30 0.7502463
391.40 0.7506237
391.50 0.7510007
391.60 0.7513772
391.70 0.7517532
391.80 0.7521287
391.90 0.752547
392.00 0.7529887
392.10 0.7533922
392.20 0.7537938
392.30 0.7542582
392.40 0.7547728
392.50 0.7549216
392.60 0.7553651
392.70 0.7558873
392.80 0.7562616
392.90 0.7567299
393.00 0.7570673
393.10 0.7573731
393.20 0.7576658
393.30 0.7581847
393.40 0.7586216
393.50 0.7590537
393.60 0.7593066
393.70 0.7595976
393.80 0.7598679
393.90 0.7603835
394.00 0.7608828
394.10 0.7612038
394.20 0.761503
394.30 0.7618503
394.40 0.762496
394.50 0.7629339
394.60 0.7632999
394.70 0.7636805
394.80 0.7641168
394.90 0.7645423
395.00 0.7646541
395.10 0.7649643
395.20 0.7654109
395.30 0.7658982
395.40 0.766385
395.50 0.7667641
395.60 0.767103
395.70 0.767435
395.80 0.7677491
395.90 0.7680628
396.00 0.7684108
396.10 0.7689969
396.20 0.769277
396.30 0.7696769
396.40 0.7699561
396.50 0.7706798
396.60 0.7709581
396.70 0.7712476
396.80 0.7717968
396.90 0.7719792
397.00 0.7724333
397.10 0.7727834
397.20 0.7731834
397.30 0.7736703
397.40 0.7739772
397.50 0.7742837
397.60 0.7745977
397.70 0.7749921
397.80 0.775386
397.90 0.7757809
398.00 0.7761794
398.10 0.7765775
398.20 0.7769446
398.30 0.7772771
398.40 0.7776079
398.50 0.7778951
398.60 0.7783786
398.70 0.778752
398.80 0.7790793
398.90 0.7794969
399.00 0.7800823
399.10 0.7802029
399.20 0.7806172
399.30 0.781031
399.40 0.7814443
399.50 0.781857
399.60 0.7822269
399.70 0.7825805
399.80 0.7829337
399.90 0.7832865
400.00 0.7836366
400.10 0.783917
400.20 0.7844495
400.30 0.7847399
400.40 0.7850375
400.50 0.7855847
400.60 0.7858287
400.70 0.7863075
400.80 0.7865856
400.90 0.7871341
401.00 0.7875406
401.10 0.7877239
401.20 0.7883065
401.30 0.7884251
401.40 0.7887285
401.50 0.7891389
401.60 0.7895448
401.70 0.7898185
401.80 0.7902853
401.90 0.7907573
402.00 0.7910146
402.10 0.7914549
402.20 0.791926
402.30 0.7922128
402.40 0.7925922
402.50 0.792904
402.60 0.7933961
402.70 0.7934103
402.80 0.7940938
402.90 0.794432
403.00 0.7946836
403.10 0.7948488
403.20 0.7953347
403.30 0.7956018
403.40 0.7960605
403.50 0.7964535
403.60 0.7968151
403.70 0.7972077
403.80 0.7976925
403.90 0.7980282
404.00 0.7984124
404.10 0.7986277
404.20 0.7990886
404.30 0.799549
404.40 0.7998144
404.50 0.8000406
404.60 0.8004995
404.70 0.8009579
404.80 0.8010138
404.90 0.8014464
405.00 0.8018116
405.10 0.8021162
405.20 0.8024808
405.30 0.802845
405.40 0.8032291
405.50 0.8036126
405.60 0.8039957
405.70 0.8043782
405.80 0.8047604
405.90 0.805142
406.00 0.8055136
406.10 0.8058848
406.20 0.8062555
406.30 0.8066257
406.40 0.8069725
406.50 0.8072123
406.60 0.8076592
406.70 0.8080019
406.80 0.808265
406.90 0.8083921
407.00 0.8087547
407.10 0.8091169
407.20 0.8094787
407.30 0.80984
407.40 0.8102008
407.50 0.8105612
407.60 0.8109211
407.70 0.8112806
407.80 0.8116397
407.90 0.8119962
408.00 0.8122869
408.10 0.8126494
408.20 0.8131173
408.30 0.8135388
408.40 0.8139598
408.50 0.8142016
408.60 0.8145277
408.70 0.8148534
408.80 0.815152
408.90 0.8153114
409.00 0.8157151
409.10 0.8161183
409.20 0.816521
409.30 0.8169232
409.40 0.8173231
409.50 0.8176607
409.60 0.8179979
409.70 0.818341
409.80 0.8187092
409.90 0.8190661
410.00 0.8190704
410.10 0.8197105
410.20 0.8200381
410.30 0.8202875
410.40 0.8205775
410.50 0.8209967
410.60 0.8214155
410.70 0.8218044
410.80 0.8220754
410.90 0.822346
411.00 0.8226405
411.10 0.8229436
411.20 0.8232463
411.30 0.8235495
411.40 0.8238561
411.50 0.8241854
411.60 0.8245142
411.70 0.8248618
411.80 0.825286
411.90 0.8257508
412.00 0.8259679
412.10 0.8262877
412.20 0.8268128
412.30 0.8269638
412.40 0.8272743
412.50 0.8277828
412.60 0.8279684
412.70 0.8283235
412.80 0.8287206
412.90 0.8289493
413.00 0.829118
413.10 0.8294483
413.20 0.8297783
413.30 0.8301078
413.40 0.8304369
413.50 0.8307899
413.60 0.8312072
413.70 0.8315204
413.80 0.8318332
413.90 0.8321456
414.00 0.8324821
414.10 0.8328957
414.20 0.8333576
414.30 0.8335665
414.40 0.8338565
414.50 0.8343496
414.60 0.8345492
414.70 0.83496
414.80 0.8353459
414.90 0.8356541
415.00 0.835962
415.10 0.8362694
415.20 0.8365881
415.30 0.8369431
415.40 0.8372976
415.50 0.8376508
415.60 0.8379733
415.70 0.8382954
415.80 0.8386027
415.90 0.8388644
416.00 0.8391257
416.10 0.8393895
416.20 0.8396638
416.30 0.8399378
416.40 0.8402114
416.50 0.8404885
416.60 0.8408909
416.70 0.8412988
416.80 0.8415031
416.90 0.8418849
417.00 0.8423996
417.10 0.8424935
417.20 0.8428932
417.30 0.8432896
417.40 0.8435947
417.50 0.8438994
417.60 0.8441991
