# Version 2.1 - nm, norm@500 to 1, cut digits, bergeron_He_6000_85.dat_6000
# Wavelength(nm)  Flambda(ergs/cm^s/s/nm)
300.00 0.5709207
300.10 0.5715387
300.20 0.5721608
300.30 0.5727744
300.40 0.5733362
300.50 0.5738971
300.60 0.5744571
300.70 0.5750163
300.80 0.5755745
300.90 0.5761319
301.00 0.5766885
301.10 0.5772442
301.20 0.577799
301.30 0.5783529
301.40 0.578906
301.50 0.5794582
301.60 0.5800096
301.70 0.5805601
301.80 0.5811097
301.90 0.5816585
302.00 0.5822065
302.10 0.582796
302.20 0.5833894
302.30 0.5839819
302.40 0.5845734
302.50 0.585164
302.60 0.5857538
302.70 0.5863426
302.80 0.5869305
302.90 0.5875175
303.00 0.5881036
303.10 0.5886888
303.20 0.5892731
303.30 0.5898549
303.40 0.5904215
303.50 0.5909872
303.60 0.5915521
303.70 0.592116
303.80 0.5926791
303.90 0.5932414
304.00 0.5938027
304.10 0.5943632
304.20 0.5949228
304.30 0.5954816
304.40 0.5960395
304.50 0.5965966
304.60 0.5971607
304.70 0.5977249
304.80 0.5982883
304.90 0.5988507
305.00 0.5994123
305.10 0.5999731
305.20 0.6005329
305.30 0.6010919
305.40 0.6016501
305.50 0.6022074
305.60 0.6027638
305.70 0.6033194
305.80 0.6038741
305.90 0.6044279
306.00 0.6049809
306.10 0.6055331
306.20 0.6060844
306.30 0.6066349
306.40 0.6071984
306.50 0.6077652
306.60 0.6083312
306.70 0.6088963
306.80 0.6094606
306.90 0.6100239
307.00 0.6105864
307.10 0.6111481
307.20 0.6117089
307.30 0.6122688
307.40 0.6128279
307.50 0.6133861
307.60 0.6139435
307.70 0.6145
307.80 0.6150556
307.90 0.6156104
308.00 0.6161644
308.10 0.6167175
308.20 0.6172697
308.30 0.6178211
308.40 0.6183717
308.50 0.6189214
308.60 0.6194703
308.70 0.6200183
308.80 0.620551
308.90 0.6210417
309.00 0.6216417
309.10 0.6222408
309.20 0.622839
309.30 0.6234362
309.40 0.6240227
309.50 0.624547
309.60 0.6250706
309.70 0.6255934
309.80 0.6261154
309.90 0.6266365
310.00 0.6271569
310.10 0.6276765
310.20 0.6281952
310.30 0.6287132
310.40 0.6292429
310.50 0.6297853
310.60 0.6303269
310.70 0.6308677
310.80 0.6314076
310.90 0.6319467
311.00 0.6325291
311.10 0.6331105
311.20 0.6336911
311.30 0.6342578
311.40 0.6347867
311.50 0.6353149
311.60 0.6358422
311.70 0.6363688
311.80 0.6368945
311.90 0.6374194
312.00 0.6379436
312.10 0.6384669
312.20 0.6389866
312.30 0.6395756
312.40 0.6401841
312.50 0.6407038
312.60 0.6412778
312.70 0.6418509
312.80 0.6424231
312.90 0.6429802
313.00 0.6435209
313.10 0.6440608
313.20 0.6446
313.30 0.6451392
313.40 0.6456805
313.50 0.646221
313.60 0.6467606
313.70 0.6472994
313.80 0.6478374
313.90 0.6483746
314.00 0.6489109
314.10 0.6494345
314.20 0.6499573
314.30 0.6504792
314.40 0.6510004
314.50 0.6515207
314.60 0.6520403
314.70 0.6525591
314.80 0.6530752
314.90 0.6536092
315.00 0.6541684
315.10 0.6547138
315.20 0.6552583
315.30 0.6558021
315.40 0.656345
315.50 0.6568871
315.60 0.6574283
315.70 0.657909
315.80 0.6583889
315.90 0.658868
316.00 0.6593465
316.10 0.6600031
316.20 0.6606588
316.30 0.6611348
316.40 0.66161
316.50 0.6620846
316.60 0.6625584
316.70 0.6632097
316.80 0.6638601
316.90 0.6643315
317.00 0.6648021
317.10 0.6652721
317.20 0.6657413
317.30 0.6663424
317.40 0.6669158
317.50 0.6674119
317.60 0.6679071
317.70 0.6684017
317.80 0.6688954
317.90 0.6694059
318.00 0.6700755
318.10 0.6706262
318.20 0.671176
318.30 0.6717251
318.40 0.6722504
318.50 0.6727097
318.60 0.6731683
318.70 0.6736262
318.80 0.6742065
318.90 0.6748915
319.00 0.675347
319.10 0.6758018
319.20 0.6762693
319.30 0.6767737
319.40 0.6772774
319.50 0.6777804
319.60 0.6784289
319.70 0.6789302
319.80 0.6794308
319.90 0.6799306
320.00 0.6804052
320.10 0.6808527
320.20 0.6815425
320.30 0.6820943
320.40 0.6824699
320.50 0.6829841
320.60 0.6835114
320.70 0.6841284
320.80 0.6846611
320.90 0.6851027
321.00 0.6855436
321.10 0.6859838
321.20 0.6866035
321.30 0.6871351
321.40 0.687666
321.50 0.688196
321.60 0.6887253
321.70 0.6892538
321.80 0.6897706
321.90 0.6902749
322.00 0.690682
322.10 0.6911964
322.20 0.6917101
322.30 0.692223
322.40 0.6927351
322.50 0.6932464
322.60 0.693757
322.70 0.6942669
322.80 0.6949061
322.90 0.6953896
323.00 0.6958724
323.10 0.6963544
323.20 0.6968358
323.30 0.6973164
323.40 0.6977962
323.50 0.6982754
323.60 0.6987538
323.70 0.6992315
323.80 0.6997084
323.90 0.7001847
324.00 0.7007545
324.10 0.7013235
324.20 0.7018917
324.30 0.7024257
324.40 0.7028856
324.50 0.7033681
324.60 0.7038499
324.70 0.704331
324.80 0.7048114
324.90 0.705291
325.00 0.7057699
325.10 0.706248
325.20 0.7067354
325.30 0.707243
325.40 0.7077498
325.50 0.7082534
325.60 0.7087531
325.70 0.709252
325.80 0.7097503
325.90 0.7102595
326.00 0.7107807
326.10 0.7113012
326.20 0.7118209
326.30 0.7122994
326.40 0.7126622
326.50 0.7131731
326.60 0.7136831
326.70 0.7141924
326.80 0.714701
326.90 0.7152087
327.00 0.7157158
327.10 0.716222
327.20 0.7167276
327.30 0.7172323
327.40 0.7177364
327.50 0.7182396
327.60 0.7187422
327.70 0.7192439
327.80 0.719745
327.90 0.7202595
328.00 0.720772
328.10 0.7212634
328.20 0.7217542
328.30 0.7222442
328.40 0.7227335
328.50 0.7231505
328.60 0.7235501
328.70 0.7239491
328.80 0.724377
328.90 0.7248884
329.00 0.725399
329.10 0.7259089
329.20 0.726418
329.30 0.7269263
329.40 0.7274339
329.50 0.7279407
329.60 0.7284468
329.70 0.7289522
329.80 0.7294568
329.90 0.7299606
330.00 0.7304478
330.10 0.7309146
330.20 0.7313808
330.30 0.7318463
330.40 0.7323174
330.50 0.7327945
330.60 0.7332708
330.70 0.7337465
330.80 0.7342215
330.90 0.7346958
331.00 0.7351693
331.10 0.7356422
331.20 0.7361143
331.30 0.7365857
331.40 0.7370565
331.50 0.7375266
331.60 0.7379962
331.70 0.7384651
331.80 0.7389337
331.90 0.7394016
332.00 0.7398689
332.10 0.7403355
332.20 0.7408013
332.30 0.7412665
332.40 0.741731
332.50 0.7421947
332.60 0.7426578
332.70 0.7431202
332.80 0.7435819
332.90 0.744043
333.00 0.7445033
333.10 0.7449756
333.20 0.7454627
333.30 0.745949
333.40 0.7464346
333.50 0.7469196
333.60 0.7474038
333.70 0.7478872
333.80 0.74837
333.90 0.7488521
334.00 0.7493334
334.10 0.7498044
334.20 0.750263
334.30 0.7507209
334.40 0.7511781
334.50 0.7516347
334.60 0.7520905
334.70 0.7525531
334.80 0.7529961
334.90 0.7533984
335.00 0.7538001
335.10 0.7542774
335.20 0.7547823
335.30 0.7552149
335.40 0.7555594
335.50 0.7562211
335.60 0.7565643
335.70 0.7569784
335.80 0.7574791
335.90 0.7579434
336.00 0.7583634
336.10 0.7587828
336.20 0.7592016
336.30 0.7596554
336.40 0.7601519
336.50 0.7606476
336.60 0.7611427
336.70 0.761637
336.80 0.7621306
336.90 0.7625842
337.00 0.7629891
337.10 0.7633934
337.20 0.7637971
337.30 0.7642168
337.40 0.76466
337.50 0.7651025
337.60 0.7655443
337.70 0.7659855
337.80 0.766426
337.90 0.7668735
338.00 0.7673298
338.10 0.7677855
338.20 0.7682404
338.30 0.7686947
338.40 0.7691502
338.50 0.7696097
338.60 0.7700685
338.70 0.7705266
338.80 0.770984
338.90 0.7714408
339.00 0.7718969
339.10 0.7723523
339.20 0.7728071
339.30 0.7732782
339.40 0.773773
339.50 0.7742358
339.60 0.7746598
339.70 0.7750831
339.80 0.7755058
339.90 0.7759279
340.00 0.7763493
340.10 0.7767702
340.20 0.7771903
340.30 0.7776099
340.40 0.7780288
340.50 0.7784472
340.60 0.7788648
340.70 0.7792819
340.80 0.7797266
340.90 0.7802112
341.00 0.7806694
341.10 0.7810955
341.20 0.7815209
341.30 0.7819457
341.40 0.7823698
341.50 0.7827933
341.60 0.7832162
341.70 0.7836384
341.80 0.7840854
341.90 0.7845626
342.00 0.7850391
342.10 0.785515
342.20 0.785956
342.30 0.7863521
342.40 0.7867675
342.50 0.7871778
342.60 0.7875874
342.70 0.7879964
342.80 0.7884048
342.90 0.7888126
343.00 0.7892359
343.10 0.7896783
343.20 0.79012
343.30 0.7905611
343.40 0.7910052
343.50 0.791454
343.60 0.7919022
343.70 0.7923497
343.80 0.7927965
343.90 0.7932427
344.00 0.7936572
344.10 0.7940266
344.20 0.7943954
344.30 0.7947637
344.40 0.7951623
344.50 0.7956047
344.60 0.7959923
344.70 0.7965765
344.80 0.7968741
344.90 0.7974568
345.00 0.7978073
345.10 0.7982459
345.20 0.7986888
345.30 0.7991383
345.40 0.7995871
345.50 0.8000142
345.60 0.8004087
345.70 0.8007936
345.80 0.8011779
345.90 0.8015616
346.00 0.8019448
346.10 0.8023273
346.20 0.8027297
346.30 0.8031608
346.40 0.8035913
346.50 0.8040211
346.60 0.8044504
346.70 0.8048789
346.80 0.8053069
346.90 0.8057342
347.00 0.8061609
347.10 0.806587
347.20 0.8070046
347.30 0.8074102
347.40 0.8078152
347.50 0.8082196
347.60 0.8086234
347.70 0.8090266
347.80 0.8094293
347.90 0.8098313
348.00 0.8102327
348.10 0.8106335
348.20 0.8110338
348.30 0.8114334
348.40 0.8118324
348.50 0.8122309
348.60 0.8126288
348.70 0.8130322
348.80 0.8134335
348.90 0.8138291
349.00 0.8142241
349.10 0.8146184
349.20 0.8150122
349.30 0.8154055
349.40 0.8157981
349.50 0.8161901
349.60 0.8165816
349.70 0.8169725
349.80 0.8173628
349.90 0.8177525
350.00 0.8181417
350.10 0.8185302
350.20 0.8189182
350.30 0.819312
350.40 0.8197143
350.50 0.820116
350.60 0.8205171
350.70 0.8209176
350.80 0.8213176
350.90 0.8217169
351.00 0.8221157
351.10 0.8225138
351.20 0.8229114
351.30 0.8233084
351.40 0.8237009
351.50 0.8240859
351.60 0.8244704
351.70 0.8248543
351.80 0.8252376
351.90 0.8256203
352.00 0.8260025
352.10 0.8263841
352.20 0.8268706
352.30 0.8273177
352.40 0.8276916
352.50 0.8280649
352.60 0.8284377
352.70 0.8288099
352.80 0.8291816
352.90 0.8295527
353.00 0.8299232
353.10 0.8302932
353.20 0.8306627
353.30 0.8310316
353.40 0.8313999
353.50 0.8318191
353.60 0.8322506
353.70 0.8326815
353.80 0.8331117
353.90 0.8335158
354.00 0.833874
354.10 0.8342317
354.20 0.8345888
354.30 0.8349454
354.40 0.8353014
354.50 0.835657
354.60 0.8360119
354.70 0.8363664
354.80 0.8367517
354.90 0.8371816
355.00 0.8376109
355.10 0.8380396
355.20 0.8384677
355.30 0.8388502
355.40 0.8392323
355.50 0.8396137
355.60 0.8399946
355.70 0.8403726
355.80 0.840749
355.90 0.841001
356.00 0.8413016
356.10 0.841669
356.20 0.8420359
356.30 0.8424022
356.40 0.8427679
356.50 0.8431331
356.60 0.8434978
356.70 0.8438619
356.80 0.8442255
356.90 0.8445885
357.00 0.8449511
357.10 0.845313
357.20 0.8456745
357.30 0.8460354
357.40 0.8464255
357.50 0.8468682
357.60 0.8473102
357.70 0.8477515
357.80 0.8480396
357.90 0.8483272
358.00 0.8486898
358.10 0.8490707
358.20 0.849451
358.30 0.8498308
358.40 0.85021
358.50 0.8505887
358.60 0.8509668
358.70 0.8513444
358.80 0.8517214
358.90 0.8520978
359.00 0.8524363
359.10 0.8527078
359.20 0.8529902
359.30 0.8533477
359.40 0.8537047
359.50 0.8541076
359.60 0.8545216
359.70 0.854935
359.80 0.855297
359.90 0.8556584
360.00 0.8560143
360.10 0.8563607
360.20 0.8567065
360.30 0.8570519
360.40 0.8573967
360.50 0.857741
360.60 0.8581206
360.70 0.8584695
360.80 0.8588179
360.90 0.8591658
361.00 0.8593931
361.10 0.859777
361.20 0.8601843
361.30 0.8604753
361.40 0.860848
361.50 0.8611654
361.60 0.8615863
361.70 0.8619301
361.80 0.8622856
361.90 0.8626624
362.00 0.8630387
362.10 0.8633387
362.20 0.863648
362.30 0.8640078
362.40 0.8643671
362.50 0.8647258
362.60 0.865084
362.70 0.8653781
362.80 0.8656559
362.90 0.8659895
363.00 0.8663226
363.10 0.8667119
363.20 0.8671013
363.30 0.8673391
363.40 0.8678097
363.50 0.8680089
363.60 0.8684783
363.70 0.8687368
363.80 0.8690099
363.90 0.8693682
364.00 0.8697261
364.10 0.8700834
364.20 0.8704402
364.30 0.8708478
364.40 0.8712677
364.50 0.871337
364.60 0.8717529
364.70 0.8721682
364.80 0.8725829
364.90 0.8729104
365.00 0.8732375
365.10 0.87343
365.20 0.8737561
365.30 0.8740818
365.40 0.874541
365.50 0.8748656
365.60 0.8751898
365.70 0.8754405
365.80 0.8756908
365.90 0.8760703
366.00 0.8764815
366.10 0.8767895
366.20 0.877097
366.30 0.877404
366.40 0.8777106
366.50 0.8780769
366.60 0.8784047
366.70 0.8787316
366.80 0.8790581
366.90 0.8793866
367.00 0.8797193
367.10 0.8800515
367.20 0.8803832
367.30 0.8807144
367.40 0.8810451
367.50 0.8813161
367.60 0.8815718
367.70 0.8819277
367.80 0.882283
367.90 0.8826378
368.00 0.8829574
368.10 0.8833917
368.20 0.883709
368.30 0.8840239
368.40 0.8843384
368.50 0.8846523
368.60 0.8849659
368.70 0.8852789
368.80 0.8855915
368.90 0.8857874
369.00 0.8860977
369.10 0.8864878
369.20 0.8868034
369.30 0.8871099
369.40 0.8874159
369.50 0.8877215
369.60 0.8880227
369.70 0.8883234
369.80 0.8886206
369.90 0.8889172
370.00 0.8892134
370.10 0.8895365
370.20 0.8898397
370.30 0.8901416
370.40 0.8905747
370.50 0.8908723
370.60 0.8911761
370.70 0.8913524
370.80 0.8917776
370.90 0.8922021
371.00 0.8925059
371.10 0.8928079
371.20 0.8931017
371.30 0.893395
371.40 0.8937184
371.50 0.8940094
371.60 0.8943
371.70 0.8945901
371.80 0.8948797
371.90 0.895169
372.00 0.8955077
372.10 0.8957644
372.20 0.8960576
372.30 0.8963504
372.40 0.8966427
372.50 0.8969345
372.60 0.897226
372.70 0.8975169
372.80 0.8978036
372.90 0.8980899
373.00 0.8983834
373.10 0.8986765
373.20 0.8989652
373.30 0.8992536
373.40 0.8996697
373.50 0.8999571
373.60 0.9002441
373.70 0.9006587
373.80 0.9009127
373.90 0.9012303
374.00 0.9015154
374.10 0.9018001
374.20 0.9020844
374.30 0.9023683
374.40 0.9026836
374.50 0.9029285
374.60 0.9032115
374.70 0.9034956
374.80 0.9037792
374.90 0.9040624
375.00 0.9043432
375.10 0.9046236
375.20 0.9049036
375.30 0.9052194
375.40 0.9055348
375.50 0.9058497
375.60 0.9061641
375.70 0.9064781
375.80 0.9067916
375.90 0.9071047
376.00 0.9073736
376.10 0.9076621
376.20 0.9079504
376.30 0.9082382
376.40 0.9085256
376.50 0.9087832
376.60 0.9089962
376.70 0.9092089
376.80 0.9094555
376.90 0.9097358
377.00 0.9100158
377.10 0.9102953
377.20 0.9105789
377.30 0.9108789
377.40 0.9111784
377.50 0.9114776
377.60 0.9117582
377.70 0.9120385
377.80 0.9123183
377.90 0.9125977
378.00 0.9128162
378.10 0.9131134
378.20 0.9134119
378.30 0.91371
378.40 0.9140077
378.50 0.9143049
378.60 0.9146016
378.70 0.914898
378.80 0.9151939
378.90 0.9154752
379.00 0.9157298
379.10 0.9159436
379.20 0.9161569
379.30 0.9164229
379.40 0.9167413
379.50 0.9170592
379.60 0.9173902
379.70 0.9177242
379.80 0.917995
379.90 0.9182654
380.00 0.9185354
380.10 0.918805
380.20 0.9190742
380.30 0.919343
380.40 0.9196114
380.50 0.9198793
380.60 0.9199646
380.70 0.9202665
380.80 0.920568
380.90 0.920869
381.00 0.9211695
381.10 0.9214557
381.20 0.9216525
381.30 0.9218268
381.40 0.9222075
381.50 0.9224802
381.60 0.9226978
381.70 0.9228942
381.80 0.9232013
381.90 0.9234536
382.00 0.9237054
382.10 0.9240793
382.20 0.9242568
382.30 0.9245074
382.40 0.9247647
382.50 0.925032
382.60 0.925299
382.70 0.925568
382.80 0.9258316
382.90 0.9260873
383.00 0.9263426
383.10 0.9265974
383.20 0.9268382
383.30 0.9270271
383.40 0.9272944
383.50 0.9276793
383.60 0.9279911
383.70 0.9282435
383.80 0.9284956
383.90 0.9287473
384.00 0.9289986
384.10 0.9292495
384.20 0.9295
384.30 0.9297501
384.40 0.9299999
384.50 0.9302492
384.60 0.9304982
384.70 0.9307468
384.80 0.9309592
384.90 0.9310943
385.00 0.9313355
385.10 0.9315795
385.20 0.9319054
385.30 0.9321554
385.40 0.9324032
385.50 0.9326488
385.60 0.932894
385.70 0.9331388
385.80 0.9333778
385.90 0.9335964
386.00 0.9338892
386.10 0.934238
386.20 0.9344023
386.30 0.9345663
386.40 0.9348213
386.50 0.9350777
386.60 0.9354139
386.70 0.935528
386.80 0.935881
386.90 0.9359945
387.00 0.9362989
387.10 0.9365252
387.20 0.9368584
387.30 0.9369888
387.40 0.9373376
387.50 0.9375243
387.60 0.9378253
387.70 0.9380554
387.80 0.9382851
387.90 0.9385144
388.00 0.9387097
388.10 0.9388948
388.20 0.9391901
388.30 0.9394594
388.40 0.9397283
388.50 0.9399518
388.60 0.9400948
388.70 0.9403781
388.80 0.9405906
388.90 0.9408458
389.00 0.9411098
389.10 0.941284
389.20 0.9414887
389.30 0.9417928
389.40 0.9420348
389.50 0.9422241
389.60 0.9423823
389.70 0.942685
389.80 0.9429219
389.90 0.9431584
390.00 0.9433946
390.10 0.9436304
390.20 0.9438658
390.30 0.9440962
390.40 0.9443207
390.50 0.944545
390.60 0.9447689
390.70 0.9449924
390.80 0.945193
390.90 0.9453706
391.00 0.9457173
391.10 0.9459147
391.20 0.9461016
391.30 0.946282
391.40 0.9464988
391.50 0.9467154
391.60 0.9469315
391.70 0.9471474
391.80 0.9473629
391.90 0.9476588
392.00 0.9479795
392.10 0.9482009
392.20 0.9483941
392.30 0.9485028
392.40 0.9487981
392.50 0.9490393
392.60 0.949136
392.70 0.9494643
392.80 0.9495604
392.90 0.9498746
393.00 0.9501302
393.10 0.9503536
393.20 0.9505429
393.30 0.9507532
393.40 0.9509585
393.50 0.9510666
393.60 0.9513716
393.70 0.9516325
393.80 0.9517996
393.90 0.9520079
394.00 0.9522205
394.10 0.9524606
394.20 0.9526784
394.30 0.9528455
394.40 0.9530391
394.50 0.9531885
394.60 0.9534753
394.70 0.9537328
394.80 0.9538812
394.90 0.9540324
395.00 0.9542816
395.10 0.9545117
395.20 0.9547025
395.30 0.9548904
395.40 0.9550781
395.50 0.9553189
395.60 0.9555792
395.70 0.955813
395.80 0.9559762
395.90 0.9561391
396.00 0.9563187
396.10 0.9566293
396.20 0.9568299
396.30 0.9569995
396.40 0.9573133
396.50 0.9573992
396.60 0.9577123
396.70 0.9578036
396.80 0.9579852
396.90 0.9582912
397.00 0.9584665
397.10 0.9585509
397.20 0.9587869
397.30 0.9590245
397.40 0.959254
397.50 0.9594832
397.60 0.9597058
397.70 0.9598647
397.80 0.9600233
397.90 0.9602046
398.00 0.9604478
398.10 0.9606907
398.20 0.9608966
398.30 0.9610609
398.40 0.9612263
398.50 0.9614369
398.60 0.9616716
398.70 0.9618486
398.80 0.9620088
398.90 0.962177
399.00 0.9623604
399.10 0.962612
399.20 0.9627989
399.30 0.9629855
399.40 0.9631718
399.50 0.9633578
399.60 0.963543
399.70 0.9637278
399.80 0.9639122
399.90 0.9640963
400.00 0.9642808
400.10 0.9644862
400.20 0.9647264
400.30 0.9648717
400.40 0.965007
400.50 0.9651984
400.60 0.9654275
400.70 0.9656139
400.80 0.9657187
400.90 0.9660158
401.00 0.9661557
401.10 0.9663865
401.20 0.966578
401.30 0.9667377
401.40 0.9669042
401.50 0.9670799
401.60 0.9672562
401.70 0.9674566
401.80 0.9676807
401.90 0.9678052
402.00 0.9679914
402.10 0.9681496
402.20 0.9683603
402.30 0.9686401
402.40 0.9687749
402.50 0.9688753
402.60 0.9690796
402.70 0.9692363
402.80 0.9695266
402.90 0.9696843
403.00 0.9698637
403.10 0.9699548
403.20 0.970154
403.30 0.9703495
403.40 0.9705686
403.50 0.9707431
403.60 0.9709007
403.70 0.9710237
403.80 0.9712195
403.90 0.9713614
404.00 0.9715868
404.10 0.9717304
404.20 0.9719063
404.30 0.972082
404.40 0.9722772
404.50 0.9724324
404.60 0.9727164
404.70 0.9727816
404.80 0.9729749
404.90 0.9731297
405.00 0.9733807
405.10 0.9735389
405.20 0.9736808
405.30 0.9738224
405.40 0.9739948
405.50 0.974167
405.60 0.9743388
405.70 0.9745104
405.80 0.9746817
405.90 0.9748527
406.00 0.9750274
406.10 0.9752017
406.20 0.9753758
406.30 0.9755496
406.40 0.9757251
406.50 0.9758202
406.60 0.9759336
406.70 0.9761024
406.80 0.9762979
406.90 0.9765659
407.00 0.9767121
407.10 0.9768582
407.20 0.9770039
407.30 0.9771494
407.40 0.9772946
407.50 0.9774396
407.60 0.9775843
407.70 0.9777288
407.80 0.9778729
407.90 0.9780193
408.00 0.9782443
408.10 0.9784356
408.20 0.9785669
408.30 0.9787166
408.40 0.9788659
408.50 0.978985
408.60 0.9791729
408.70 0.9793606
408.80 0.9795558
408.90 0.9797851
409.00 0.9799216
409.10 0.9800578
409.20 0.9801937
409.30 0.9803295
409.40 0.9804646
409.50 0.9805887
409.60 0.9807125
409.70 0.9808531
409.80 0.9810614
409.90 0.9812674
410.00 0.9814085
410.10 0.9816387
410.20 0.9817668
410.30 0.9818692
410.40 0.9819829
410.50 0.9821328
410.60 0.9822825
410.70 0.9824265
410.80 0.9825489
410.90 0.982671
411.00 0.9828365
411.10 0.9830178
411.20 0.9831988
411.30 0.9833562
411.40 0.9834239
411.50 0.9836177
411.60 0.9838111
411.70 0.9839966
411.80 0.9841515
411.90 0.984285
412.00 0.9843339
412.10 0.9845407
412.20 0.9846419
412.30 0.9847289
412.40 0.9849639
412.50 0.9850417
412.60 0.9853146
412.70 0.9854447
412.80 0.9855389
412.90 0.9857272
413.00 0.9858031
413.10 0.9859496
413.20 0.9860959
413.30 0.9862418
413.40 0.9863876
413.50 0.9865393
413.60 0.9867093
413.70 0.9868592
413.80 0.9870089
413.90 0.9871583
414.00 0.9872824
414.10 0.987327
414.20 0.9874966
414.30 0.9876241
414.40 0.9878348
414.50 0.9879154
414.60 0.9879888
414.70 0.9881362
414.80 0.9882834
414.90 0.9884303
415.00 0.988577
415.10 0.9887234
415.20 0.9888598
415.30 0.988965
415.40 0.98907
415.50 0.9891774
415.60 0.9893693
415.70 0.989561
415.80 0.9897228
415.90 0.989791
416.00 0.9898591
416.10 0.989947
416.20 0.990115
416.30 0.9902827
416.40 0.9904501
416.50 0.9906165
416.60 0.9907592
416.70 0.9908985
416.80 0.9909399
416.90 0.9910874
417.00 0.9912721
417.10 0.9912632
417.20 0.9914045
417.30 0.9915444
417.40 0.9916497
417.50 0.9917547
417.60 0.9918837
