# Version 2.1 - nm, norm@500 to 1, cut digits, bergeron_He_7000_75.dat_7000
# Wavelength(nm)  Flambda(ergs/cm^s/s/nm)
300.00 0.9272214
300.10 0.9277843
300.20 0.9283527
300.30 0.9289131
300.40 0.9294257
300.50 0.9299374
300.60 0.9304482
300.70 0.9309581
300.80 0.9314671
300.90 0.9319753
301.00 0.9324826
301.10 0.932989
301.20 0.9334945
301.30 0.9339991
301.40 0.9345029
301.50 0.9350058
301.60 0.9355078
301.70 0.936009
301.80 0.9365093
301.90 0.9370087
302.00 0.9375072
302.10 0.9379967
302.20 0.9384844
302.30 0.9389713
302.40 0.9394574
302.50 0.9399425
302.60 0.9404269
302.70 0.9409104
302.80 0.941393
302.90 0.9418748
303.00 0.9423558
303.10 0.9428359
303.20 0.9433152
303.30 0.9437957
303.40 0.9442944
303.50 0.9447923
303.60 0.9452893
303.70 0.9457855
303.80 0.9462807
303.90 0.9467752
304.00 0.9472687
304.10 0.9477615
304.20 0.9482533
304.30 0.9487443
304.40 0.9492345
304.50 0.9497238
304.60 0.9502118
304.70 0.9506988
304.80 0.951185
304.90 0.9516704
305.00 0.9521549
305.10 0.9526386
305.20 0.9531214
305.30 0.9536035
305.40 0.9540846
305.50 0.954565
305.60 0.9550445
305.70 0.9555231
305.80 0.956001
305.90 0.956478
306.00 0.9569542
306.10 0.9574295
306.20 0.9579041
306.30 0.9583778
306.40 0.9588535
306.50 0.9593293
306.60 0.9598042
306.70 0.9602783
306.80 0.9607516
306.90 0.961224
307.00 0.9616956
307.10 0.9621665
307.20 0.9626365
307.30 0.9631056
307.40 0.963574
307.50 0.9640416
307.60 0.9645083
307.70 0.9649743
307.80 0.9654394
307.90 0.9659037
308.00 0.9663672
308.10 0.9668299
308.20 0.9672918
308.30 0.9677529
308.40 0.9682132
308.50 0.9686727
308.60 0.9691314
308.70 0.9695893
308.80 0.9700447
308.90 0.9704945
309.00 0.9709434
309.10 0.9713915
309.20 0.9718389
309.30 0.9722855
309.40 0.9727322
309.50 0.9731839
309.60 0.9736348
309.70 0.9740849
309.80 0.9745343
309.90 0.9749828
310.00 0.9754306
310.10 0.9758776
310.20 0.9763238
310.30 0.9767692
310.40 0.9772201
310.50 0.9776768
310.60 0.9781327
310.70 0.9785879
310.80 0.9790422
310.90 0.9794958
311.00 0.9799405
311.10 0.9803845
311.20 0.9808277
311.30 0.9812653
311.40 0.9816886
311.50 0.9821112
311.60 0.982533
311.70 0.9829541
311.80 0.9833744
311.90 0.983794
312.00 0.9842128
312.10 0.9846309
312.20 0.9851235
312.30 0.9856209
312.40 0.9860436
312.50 0.9863848
312.60 0.9868231
312.70 0.9872607
312.80 0.9876975
312.90 0.9881373
313.00 0.9885805
313.10 0.989023
313.20 0.9894646
313.30 0.9898968
313.40 0.9903035
313.50 0.9907095
313.60 0.9911147
313.70 0.9915193
313.80 0.9919231
313.90 0.9923262
314.00 0.9927286
314.10 0.9931631
314.20 0.9935969
314.30 0.9940299
314.40 0.9944621
314.50 0.9948937
314.60 0.9953244
314.70 0.9957544
314.80 0.9961567
314.90 0.9965667
315.00 0.9970684
315.10 0.997461
315.20 0.9978529
315.30 0.9982441
315.40 0.9986346
315.50 0.9990243
315.60 0.9994134
315.70 0.9998483
315.80 1.000282
315.90 1.000716
316.00 1.001148
316.10 1.001534
316.20 1.001919
316.30 1.002395
316.40 1.002779
316.50 1.003161
316.60 1.003636
316.70 1.004017
316.80 1.004398
316.90 1.004778
317.00 1.005157
317.10 1.005535
317.20 1.005913
317.30 1.006336
317.40 1.006752
317.50 1.007153
317.60 1.007552
317.70 1.007951
317.80 1.00835
317.90 1.0088
318.00 1.009174
318.10 1.009546
318.20 1.009917
318.30 1.010287
318.40 1.01068
318.50 1.011141
318.60 1.011553
318.70 1.011856
318.80 1.012233
318.90 1.012744
319.00 1.013043
319.10 1.013408
319.20 1.013787
319.30 1.014209
319.40 1.01463
319.50 1.01505
319.60 1.015406
319.70 1.015777
319.80 1.016148
319.90 1.016517
320.00 1.016882
320.10 1.01724
320.20 1.017725
320.30 1.018001
320.40 1.018376
320.50 1.01884
320.60 1.019202
320.70 1.019556
320.80 1.019931
320.90 1.020329
321.00 1.020727
321.10 1.021123
321.20 1.02147
321.30 1.021858
321.40 1.022245
321.50 1.022631
321.60 1.023017
321.70 1.023402
321.80 1.023761
321.90 1.024091
322.00 1.02451
322.10 1.024872
322.20 1.025234
322.30 1.025595
322.40 1.025956
322.50 1.026316
322.60 1.026675
322.70 1.027034
322.80 1.027355
322.90 1.027727
323.00 1.0281
323.10 1.028471
323.20 1.028842
323.30 1.029212
323.40 1.029582
323.50 1.02995
323.60 1.030319
323.70 1.030686
323.80 1.031053
323.90 1.031419
324.00 1.031773
324.10 1.032126
324.20 1.032478
324.30 1.032807
324.40 1.033115
324.50 1.03347
324.60 1.033823
324.70 1.034176
324.80 1.034529
324.90 1.034881
325.00 1.035232
325.10 1.035582
325.20 1.035929
325.30 1.036267
325.40 1.036605
325.50 1.036959
325.60 1.037334
325.70 1.037707
325.80 1.038081
325.90 1.038425
326.00 1.038737
326.10 1.039049
326.20 1.03936
326.30 1.039675
326.40 1.040003
326.50 1.040347
326.60 1.04069
326.70 1.041032
326.80 1.041374
326.90 1.041715
327.00 1.042056
327.10 1.042396
327.20 1.042735
327.30 1.043074
327.40 1.043412
327.50 1.043749
327.60 1.044086
327.70 1.044423
327.80 1.044758
327.90 1.045108
328.00 1.045456
328.10 1.045782
328.20 1.046108
328.30 1.046433
328.40 1.046758
328.50 1.047086
328.60 1.047414
328.70 1.047742
328.80 1.048071
328.90 1.048405
329.00 1.048738
329.10 1.04907
329.20 1.049402
329.30 1.049733
329.40 1.050063
329.50 1.050393
329.60 1.050723
329.70 1.051051
329.80 1.051379
329.90 1.051707
330.00 1.052024
330.10 1.052328
330.20 1.052631
330.30 1.052934
330.40 1.053243
330.50 1.053558
330.60 1.053873
330.70 1.054187
330.80 1.054501
330.90 1.054814
331.00 1.055126
331.10 1.055438
331.20 1.055749
331.30 1.05606
331.40 1.05637
331.50 1.05668
331.60 1.056989
331.70 1.057297
331.80 1.057606
331.90 1.057914
332.00 1.058221
332.10 1.058528
332.20 1.058835
332.30 1.059141
332.40 1.059446
332.50 1.05975
332.60 1.060055
332.70 1.060358
332.80 1.060661
332.90 1.060964
333.00 1.061265
333.10 1.061565
333.20 1.061861
333.30 1.062157
333.40 1.062453
333.50 1.062748
333.60 1.063042
333.70 1.063336
333.80 1.063629
333.90 1.063922
334.00 1.064214
334.10 1.064511
334.20 1.064813
334.30 1.065114
334.40 1.065415
334.50 1.065716
334.60 1.066016
334.70 1.066251
334.80 1.066471
334.90 1.066779
335.00 1.067086
335.10 1.067385
335.20 1.067654
335.30 1.067907
335.40 1.068237
335.50 1.068587
335.60 1.068772
335.70 1.069157
335.80 1.069424
335.90 1.069689
336.00 1.069954
336.10 1.070219
336.20 1.070483
336.30 1.070759
336.40 1.071049
336.50 1.071339
336.60 1.071628
336.70 1.071917
336.80 1.072205
336.90 1.072477
337.00 1.072728
337.10 1.072979
337.20 1.073229
337.30 1.073496
337.40 1.073787
337.50 1.074078
337.60 1.074368
337.70 1.074658
337.80 1.074947
337.90 1.075229
338.00 1.075504
338.10 1.075778
338.20 1.076051
338.30 1.076324
338.40 1.076592
338.50 1.076847
338.60 1.077102
338.70 1.077356
338.80 1.07761
338.90 1.077864
339.00 1.078117
339.10 1.078369
339.20 1.078621
339.30 1.078879
339.40 1.079145
339.50 1.07941
339.60 1.079672
339.70 1.079935
339.80 1.080197
339.90 1.080458
340.00 1.080719
340.10 1.080979
340.20 1.081239
340.30 1.081499
340.40 1.081758
340.50 1.082016
340.60 1.082274
340.70 1.082531
340.80 1.082789
340.90 1.083048
341.00 1.083298
341.10 1.083538
341.20 1.083778
341.30 1.084017
341.40 1.084255
341.50 1.084493
341.60 1.084731
341.70 1.084968
341.80 1.085215
341.90 1.085474
342.00 1.085733
342.10 1.085992
342.20 1.086229
342.30 1.08648
342.40 1.08674
342.50 1.086979
342.60 1.087218
342.70 1.087456
342.80 1.087694
342.90 1.087931
343.00 1.088179
343.10 1.08844
343.20 1.088701
343.30 1.08896
343.40 1.089208
343.50 1.089436
343.60 1.089664
343.70 1.089892
343.80 1.09012
343.90 1.090347
344.00 1.090573
344.10 1.090799
344.20 1.091025
344.30 1.09125
344.40 1.091474
344.50 1.091699
344.60 1.091894
344.70 1.092192
344.80 1.092341
344.90 1.092637
345.00 1.092813
345.10 1.093035
345.20 1.093271
345.30 1.09353
345.40 1.093788
345.50 1.094047
345.60 1.094291
345.70 1.09451
345.80 1.094728
345.90 1.094946
346.00 1.095164
346.10 1.095381
346.20 1.095598
346.30 1.095814
346.40 1.09603
346.50 1.096245
346.60 1.09646
346.70 1.096674
346.80 1.096889
346.90 1.097102
347.00 1.097315
347.10 1.097528
347.20 1.097742
347.30 1.097959
347.40 1.098175
347.50 1.09839
347.60 1.098605
347.70 1.09882
347.80 1.099034
347.90 1.099248
348.00 1.099462
348.10 1.099675
348.20 1.099887
348.30 1.100099
348.40 1.100311
348.50 1.100522
348.60 1.100733
348.70 1.100904
348.80 1.101083
348.90 1.101293
349.00 1.101503
349.10 1.101713
349.20 1.101922
349.30 1.10213
349.40 1.102339
349.50 1.102546
349.60 1.102754
349.70 1.102961
349.80 1.103167
349.90 1.103373
350.00 1.103579
350.10 1.103784
350.20 1.103989
350.30 1.104187
350.40 1.104375
350.50 1.104563
350.60 1.104751
350.70 1.104938
350.80 1.105125
350.90 1.105312
351.00 1.105498
351.10 1.105683
351.20 1.105869
351.30 1.106053
351.40 1.106242
351.50 1.106436
351.60 1.106629
351.70 1.106822
351.80 1.107015
351.90 1.107208
352.00 1.1074
352.10 1.107591
352.20 1.107765
352.30 1.107946
352.40 1.108139
352.50 1.108332
352.60 1.108524
352.70 1.108715
352.80 1.108907
352.90 1.109098
353.00 1.109288
353.10 1.109478
353.20 1.109668
353.30 1.109857
353.40 1.110046
353.50 1.110222
353.60 1.110395
353.70 1.110567
353.80 1.110738
353.90 1.110913
354.00 1.111094
354.10 1.111275
354.20 1.111455
354.30 1.111635
354.40 1.111815
354.50 1.111994
354.60 1.112173
354.70 1.112351
354.80 1.112528
354.90 1.1127
355.00 1.112873
355.10 1.113045
355.20 1.113217
355.30 1.113373
355.40 1.113528
355.50 1.113684
355.60 1.113838
355.70 1.114017
355.80 1.114207
355.90 1.114385
356.00 1.114546
356.10 1.114709
356.20 1.114871
356.30 1.115033
356.40 1.115194
356.50 1.115356
356.60 1.115516
356.70 1.115677
356.80 1.115837
356.90 1.115997
357.00 1.116156
357.10 1.116315
357.20 1.116474
357.30 1.116632
357.40 1.116788
357.50 1.116939
357.60 1.11709
357.70 1.11724
357.80 1.117404
357.90 1.117568
358.00 1.117721
358.10 1.117871
358.20 1.118021
358.30 1.11817
358.40 1.11832
358.50 1.118468
358.60 1.118617
358.70 1.118765
358.80 1.118912
358.90 1.11906
359.00 1.119208
359.10 1.119357
359.20 1.119509
359.30 1.119686
359.40 1.119863
359.50 1.120013
359.60 1.120157
359.70 1.120301
359.80 1.120437
359.90 1.120572
360.00 1.120712
360.10 1.12086
360.20 1.121008
360.30 1.121156
360.40 1.121304
360.50 1.121451
360.60 1.121675
360.70 1.1218
360.80 1.121925
360.90 1.122049
361.00 1.122179
361.10 1.12234
361.20 1.122507
361.30 1.122567
361.40 1.122789
361.50 1.122883
361.60 1.122995
361.70 1.123152
361.80 1.123308
361.90 1.12346
362.00 1.123612
362.10 1.123695
362.20 1.123792
362.30 1.123945
362.40 1.124097
362.50 1.124249
362.60 1.124401
362.70 1.124482
362.80 1.124581
362.90 1.124731
363.00 1.12488
363.10 1.12503
363.20 1.125179
363.30 1.125275
363.40 1.125391
363.50 1.125578
363.60 1.125659
363.70 1.125801
363.80 1.12596
363.90 1.126073
364.00 1.126186
364.10 1.126299
364.20 1.126412
364.30 1.126559
364.40 1.126715
364.50 1.126801
364.60 1.126923
364.70 1.127045
364.80 1.127167
364.90 1.127244
365.00 1.127321
365.10 1.127537
365.20 1.127613
365.30 1.12769
365.40 1.127904
365.50 1.12798
365.60 1.128055
365.70 1.128193
365.80 1.128331
365.90 1.12848
366.00 1.128631
366.10 1.128727
366.20 1.128823
366.30 1.128918
366.40 1.129014
366.50 1.129129
366.60 1.129209
366.70 1.129323
366.80 1.129437
366.90 1.129555
367.00 1.129681
367.10 1.129807
367.20 1.129932
367.30 1.130058
367.40 1.130182
367.50 1.130263
367.60 1.130333
367.70 1.130439
367.80 1.130545
367.90 1.13065
368.00 1.130748
368.10 1.13081
368.20 1.130929
368.30 1.131048
368.40 1.131167
368.50 1.131285
368.60 1.131404
368.70 1.131522
368.80 1.131639
368.90 1.131756
369.00 1.131829
369.10 1.131892
369.20 1.131964
369.30 1.132075
369.40 1.132186
369.50 1.132296
369.60 1.132425
369.70 1.132553
369.80 1.132637
369.90 1.132719
370.00 1.132801
370.10 1.132943
370.20 1.133008
370.30 1.133072
370.40 1.133134
370.50 1.133263
370.60 1.133394
370.70 1.133463
370.80 1.133521
370.90 1.13358
371.00 1.133711
371.10 1.133843
371.20 1.133901
371.30 1.133958
371.40 1.134143
371.50 1.134232
371.60 1.13432
371.70 1.134408
371.80 1.134496
371.90 1.134584
372.00 1.13465
372.10 1.134709
372.20 1.134789
372.30 1.13487
372.40 1.13495
372.50 1.13503
372.60 1.13511
372.70 1.135189
372.80 1.135309
372.90 1.135429
373.00 1.135489
373.10 1.135549
373.20 1.135605
373.30 1.13566
373.40 1.135716
373.50 1.135904
373.60 1.135959
373.70 1.136014
373.80 1.13611
373.90 1.136123
374.00 1.13621
374.10 1.136297
374.20 1.136384
374.30 1.13647
374.40 1.136524
374.50 1.13657
374.60 1.136657
374.70 1.136745
374.80 1.136831
374.90 1.136918
375.00 1.137014
375.10 1.137109
375.20 1.137205
375.30 1.137275
375.40 1.137344
375.50 1.137414
375.60 1.137483
375.70 1.137552
375.80 1.13762
375.90 1.137689
376.00 1.137732
376.10 1.137783
376.20 1.137833
376.30 1.137884
376.40 1.137934
376.50 1.137992
376.60 1.138063
376.70 1.138133
376.80 1.138201
376.90 1.138265
377.00 1.138329
377.10 1.138393
377.20 1.138461
377.30 1.138546
377.40 1.138631
377.50 1.138716
377.60 1.138762
377.70 1.138808
377.80 1.138854
377.90 1.138899
378.00 1.138938
378.10 1.138995
378.20 1.139051
378.30 1.139108
378.40 1.139164
378.50 1.13922
378.60 1.139276
378.70 1.139332
378.80 1.139387
378.90 1.139447
379.00 1.139514
379.10 1.139582
379.20 1.139651
379.30 1.139716
379.40 1.139779
379.50 1.139842
379.60 1.139899
379.70 1.139947
379.80 1.140003
379.90 1.140058
380.00 1.140113
380.10 1.140168
380.20 1.140222
380.30 1.140277
380.40 1.140331
380.50 1.140385
380.60 1.140431
380.70 1.140471
380.80 1.14051
380.90 1.140549
381.00 1.140588
381.10 1.140627
381.20 1.140637
381.30 1.140672
381.40 1.140716
381.50 1.14077
381.60 1.140819
381.70 1.14086
381.80 1.140892
381.90 1.140929
382.00 1.140966
382.10 1.141003
382.20 1.14104
382.30 1.141076
382.40 1.141118
382.50 1.141169
382.60 1.14122
382.70 1.141273
382.80 1.141326
382.90 1.141378
383.00 1.141429
383.10 1.14148
383.20 1.141526
383.30 1.141557
383.40 1.141589
383.50 1.141623
383.60 1.141588
383.70 1.141622
383.80 1.141657
383.90 1.141691
384.00 1.141725
384.10 1.141758
384.20 1.141792
384.30 1.141825
384.40 1.141866
384.50 1.141914
384.60 1.141962
384.70 1.14201
384.80 1.142045
384.90 1.142055
385.00 1.142105
385.10 1.142151
385.20 1.142096
385.30 1.142136
385.40 1.142179
385.50 1.142225
385.60 1.142271
385.70 1.142317
385.80 1.142351
385.90 1.14234
386.00 1.142348
386.10 1.142373
386.20 1.142404
386.30 1.142436
386.40 1.142431
386.50 1.142512
386.60 1.142522
386.70 1.14255
386.80 1.142578
386.90 1.142606
387.00 1.142578
387.10 1.142605
387.20 1.142647
387.30 1.142659
387.40 1.142684
387.50 1.142679
387.60 1.142739
387.70 1.142765
387.80 1.142792
387.90 1.142817
388.00 1.142834
388.10 1.142796
388.20 1.142831
388.30 1.142866
388.40 1.142901
388.50 1.142906
388.60 1.142882
388.70 1.142866
388.80 1.142884
388.90 1.142908
389.00 1.142967
389.10 1.142943
389.20 1.142962
389.30 1.142987
389.40 1.142963
389.50 1.14296
389.60 1.142978
389.70 1.142971
389.80 1.142985
389.90 1.142999
390.00 1.143014
390.10 1.143028
390.20 1.143041
390.30 1.143061
390.40 1.143086
390.50 1.143111
390.60 1.143136
390.70 1.143161
390.80 1.143155
390.90 1.143117
391.00 1.143081
391.10 1.143084
391.20 1.143101
391.30 1.143138
391.40 1.143138
391.50 1.143138
391.60 1.143137
391.70 1.143137
391.80 1.143136
391.90 1.143179
392.00 1.143231
392.10 1.143221
392.20 1.143214
392.30 1.143224
392.40 1.143209
392.50 1.143137
392.60 1.143155
392.70 1.143173
392.80 1.143191
392.90 1.14315
393.00 1.143206
393.10 1.143207
393.20 1.143153
393.30 1.14317
393.40 1.143193
393.50 1.143201
393.60 1.143147
393.70 1.143117
393.80 1.143133
393.90 1.143149
394.00 1.143164
394.10 1.143145
394.20 1.143109
394.30 1.143112
394.40 1.143104
394.50 1.14307
394.60 1.143089
394.70 1.143096
394.80 1.143062
394.90 1.14303
395.00 1.143077
395.10 1.143052
395.20 1.143043
395.30 1.143044
395.40 1.143044
395.50 1.143044
395.60 1.143043
395.70 1.143037
395.80 1.143016
395.90 1.142996
396.00 1.142977
396.10 1.142964
396.20 1.142917
396.30 1.142887
396.40 1.142899
396.50 1.142912
396.60 1.142924
396.70 1.142824
396.80 1.14284
396.90 1.142824
397.00 1.142812
397.10 1.142823
397.20 1.142822
397.30 1.142761
397.40 1.142738
397.50 1.142716
397.60 1.142696
397.70 1.142703
397.80 1.142709
397.90 1.142705
398.00 1.142673
398.10 1.142642
398.20 1.142602
398.30 1.142555
398.40 1.14251
398.50 1.142564
398.60 1.142526
398.70 1.142471
398.80 1.142421
398.90 1.142399
399.00 1.142429
399.10 1.142372
399.20 1.142359
399.30 1.142346
399.40 1.142333
399.50 1.14232
399.60 1.142295
399.70 1.142266
399.80 1.142237
399.90 1.142207
400.00 1.142178
400.10 1.14214
400.20 1.142072
400.30 1.142044
400.40 1.142021
400.50 1.142081
400.60 1.142005
400.70 1.141954
400.80 1.141945
400.90 1.141932
401.00 1.141896
401.10 1.141848
401.20 1.141795
401.30 1.141755
401.40 1.141734
401.50 1.141719
401.60 1.141702
401.70 1.141663
401.80 1.141598
401.90 1.141548
402.00 1.141604
402.10 1.141482
402.20 1.141501
402.30 1.141442
402.40 1.141386
402.50 1.141385
402.60 1.141401
402.70 1.141279
402.80 1.140826
402.90 1.140716
403.00 1.14072
403.10 1.141407
403.20 1.140867
403.30 1.141177
403.40 1.140847
403.50 1.140814
403.60 1.140947
403.70 1.141424
403.80 1.140878
403.90 1.140958
404.00 1.140863
404.10 1.140299
404.20 1.140301
404.30 1.140303
404.40 1.140871
404.50 1.140307
404.60 1.140874
404.70 1.140311
404.80 1.140877
404.90 1.140313
405.00 1.140636
405.10 1.140638
405.20 1.140477
405.30 1.140317
405.40 1.140318
405.50 1.140318
405.60 1.140319
405.70 1.140319
405.80 1.140319
405.90 1.140319
406.00 1.140209
406.10 1.140099
406.20 1.139989
406.30 1.13988
406.40 1.139756
406.50 1.139478
406.60 1.139755
406.70 1.139544
406.80 1.139421
406.90 1.139209
407.00 1.139208
407.10 1.139207
407.20 1.139206
407.30 1.139204
407.40 1.139203
407.50 1.139201
407.60 1.139199
407.70 1.139197
407.80 1.139195
407.90 1.139194
408.00 1.139244
408.10 1.139171
408.20 1.138903
408.30 1.138707
408.40 1.13851
408.50 1.13916
408.60 1.138986
408.70 1.138812
408.80 1.138596
408.90 1.138192
409.00 1.138273
409.10 1.138353
409.20 1.138434
409.30 1.138514
409.40 1.138586
409.50 1.13842
409.60 1.138254
409.70 1.138112
409.80 1.138064
409.90 1.138002
410.00 1.137446
410.10 1.137809
410.20 1.137781
410.30 1.137656
410.40 1.137515
410.50 1.137322
410.60 1.137129
410.70 1.137042
410.80 1.137377
410.90 1.137711
411.00 1.137624
411.10 1.13738
411.20 1.137137
411.30 1.13702
411.40 1.137385
411.50 1.137219
411.60 1.137052
411.70 1.136918
411.80 1.136911
411.90 1.136796
412.00 1.136244
412.10 1.13651
412.20 1.136231
412.30 1.136769
412.40 1.136218
412.50 1.135822
412.60 1.136048
412.70 1.135991
412.80 1.135864
412.90 1.13568
413.00 1.136278
413.10 1.136158
413.20 1.136038
413.30 1.135919
413.40 1.135799
413.50 1.135593
413.60 1.135174
413.70 1.135166
413.80 1.135158
413.90 1.13515
414.00 1.135141
414.10 1.135133
414.20 1.134995
414.30 1.134555
414.40 1.134977
414.50 1.134513
414.60 1.135089
414.70 1.13508
414.80 1.135006
414.90 1.134727
415.00 1.134449
415.10 1.134171
415.20 1.13399
415.30 1.134112
415.40 1.134235
415.50 1.134348
415.60 1.134187
415.70 1.134025
415.80 1.133856
415.90 1.133662
416.00 1.133469
416.10 1.133308
416.20 1.133276
416.30 1.133244
416.40 1.133212
416.50 1.13318
416.60 1.13317
416.70 1.133143
416.80 1.133223
416.90 1.133121
417.00 1.132577
417.10 1.133114
417.20 1.133103
417.30 1.133087
417.40 1.132919
417.50 1.132752
417.60 1.132509
417.70 1.131983
417.80 1.131971
417.90 1.13196
418.00 1.131948
418.10 1.131936
418.20 1.131924
418.30 1.131896
418.40 1.131465
418.50 1.131383
418.60 1.131302
418.70 1.13122
418.80 1.131138
418.90 1.131056
419.00 1.130974
419.10 1.130892
419.20 1.13081
419.30 1.130726
419.40 1.130558
419.50 1.130391
419.60 1.130292
419.70 1.130463
419.80 1.130634
419.90 1.130733
420.00 1.130606
420.10 1.130479
420.20 1.130352
420.30 1.130224
420.40 1.130097
420.50 1.12997
420.60 1.129842
420.70 1.129715
420.80 1.129588
420.90 1.129459
421.00 1.129298
421.10 1.129138
421.20 1.128995
421.30 1.128905
421.40 1.128815
421.50 1.128726
421.60 1.128636
421.70 1.128546
421.80 1.128456
421.90 1.128382
422.00 1.128357
422.10 1.128361
422.20 1.128481
422.30 1.128602
422.40 1.128715
422.50 1.1286
422.60 1.128485
422.70 1.12837
422.80 1.128255
422.90 1.128139
423.00 1.128024
423.10 1.127909
423.20 1.127794
423.30 1.127679
423.40 1.127563
423.50 1.127448
423.60 1.127333
423.70 1.127218
423.80 1.127102
423.90 1.126987
