# Version 2.1 - nm, norm@500 to 1, cut digits, bergeron_He_4500_80.dat_4500
# Wavelength(nm)  Flambda(ergs/cm^s/s/nm)
300.00 0.06291263
300.10 0.06310161
300.20 0.06329163
300.30 0.06348122
300.40 0.0636694
300.50 0.06385732
300.60 0.06404497
300.70 0.06423236
300.80 0.06441949
300.90 0.06460636
301.00 0.06479296
301.10 0.0649793
301.20 0.06516538
301.30 0.06535119
301.40 0.06553675
301.50 0.06572205
301.60 0.06590708
301.70 0.06609186
301.80 0.06627637
301.90 0.06646063
302.00 0.06664463
302.10 0.06683819
302.20 0.06703256
302.30 0.06722666
302.40 0.06742049
302.50 0.06761405
302.60 0.06780734
302.70 0.06800036
302.80 0.06819311
302.90 0.06838559
303.00 0.0685778
303.10 0.06876974
303.20 0.06896142
303.30 0.06915342
303.40 0.06935047
303.50 0.06954724
303.60 0.06974374
303.70 0.06993997
303.80 0.07013592
303.90 0.0703316
304.00 0.07052701
304.10 0.07072215
304.20 0.07091701
304.30 0.0711116
304.40 0.07130592
304.50 0.07149997
304.60 0.0717044
304.70 0.07190972
304.80 0.07211475
304.90 0.0723195
305.00 0.07252397
305.10 0.07272815
305.20 0.07293205
305.30 0.07313567
305.40 0.073339
305.50 0.07354205
305.60 0.07374482
305.70 0.07394731
305.80 0.07414952
305.90 0.07435145
306.00 0.0745531
306.10 0.07475447
306.20 0.07495556
306.30 0.07515638
306.40 0.07536791
306.50 0.07558244
306.60 0.07579667
306.70 0.07601061
306.80 0.07622425
306.90 0.0764376
307.00 0.07665065
307.10 0.07686341
307.20 0.07707588
307.30 0.07728805
307.40 0.07749993
307.50 0.07771152
307.60 0.07792282
307.70 0.07813383
307.80 0.07834454
307.90 0.07855497
308.00 0.07876511
308.10 0.07897495
308.20 0.07918451
308.30 0.07939378
308.40 0.07960276
308.50 0.07981146
308.60 0.08001986
308.70 0.08022798
308.80 0.08043791
308.90 0.08065352
309.00 0.08086949
309.10 0.08108516
309.20 0.08130054
309.30 0.08151563
309.40 0.0817313
309.50 0.08195209
309.60 0.08217258
309.70 0.08239276
309.80 0.08261265
309.90 0.08283223
310.00 0.08305151
310.10 0.0832705
310.20 0.08348918
310.30 0.08370757
310.40 0.08392967
310.50 0.08415582
310.60 0.08438166
310.70 0.0846072
310.80 0.08483243
310.90 0.08505734
311.00 0.08528142
311.10 0.08550518
311.20 0.08572864
311.30 0.08595316
311.40 0.08618125
311.50 0.08640902
311.60 0.08663649
311.70 0.08686365
311.80 0.0870905
311.90 0.08731704
312.00 0.08754327
312.10 0.08776919
312.20 0.08800447
312.30 0.08823899
312.40 0.08846341
312.50 0.08868438
312.60 0.08891685
312.70 0.08914901
312.80 0.08938085
312.90 0.08961341
313.00 0.08984677
313.10 0.09007982
313.20 0.09031255
313.30 0.09054626
313.40 0.09078335
313.50 0.09102011
313.60 0.09125656
313.70 0.09149269
313.80 0.09172849
313.90 0.09196398
314.00 0.09219915
314.10 0.09243828
314.20 0.09267708
314.30 0.09291556
314.40 0.09315371
314.50 0.09339155
314.60 0.09362906
314.70 0.09386626
314.80 0.09410542
314.90 0.09434467
315.00 0.09457698
315.10 0.09481948
315.20 0.09506166
315.30 0.09530351
315.40 0.09554503
315.50 0.09578623
315.60 0.09602711
315.70 0.09627304
315.80 0.09651864
315.90 0.09676391
316.00 0.09700885
316.10 0.09725883
316.20 0.09750847
316.30 0.09774706
316.40 0.09799604
316.50 0.09824469
316.60 0.0984823
316.70 0.09873029
316.80 0.09897794
316.90 0.0992306
317.00 0.09948293
317.10 0.09973491
317.20 0.09998656
317.30 0.1002297
317.40 0.1004749
317.50 0.1007264
317.60 0.1009775
317.70 0.1012283
317.80 0.1014788
317.90 0.1017362
318.00 0.1019855
318.10 0.1022395
318.20 0.1024931
318.30 0.1027463
318.40 0.1029993
318.50 0.1032518
318.60 0.1035178
318.70 0.1037771
318.80 0.1040308
318.90 0.1042799
319.00 0.1045335
319.10 0.1047946
319.20 0.1050545
319.30 0.1053116
319.40 0.1055683
319.50 0.1058248
319.60 0.1060954
319.70 0.1063567
319.80 0.1066176
319.90 0.1068782
320.00 0.1071374
320.10 0.107395
320.20 0.1076532
320.30 0.1079147
320.40 0.1081775
320.50 0.1084421
320.60 0.1087039
320.70 0.1089699
320.80 0.1092355
320.90 0.1095008
321.00 0.1097657
321.10 0.1100303
321.20 0.1102851
321.30 0.1105545
321.40 0.1108235
321.50 0.1110921
321.60 0.1113604
321.70 0.1116284
321.80 0.1118955
321.90 0.1121617
322.00 0.1124356
322.10 0.1127079
322.20 0.1129798
322.30 0.1132514
322.40 0.1135226
322.50 0.1137934
322.60 0.1140639
322.70 0.1143341
322.80 0.1146131
322.90 0.1148893
323.00 0.1151652
323.10 0.1154407
323.20 0.1157159
323.30 0.1159906
323.40 0.1162651
323.50 0.1165391
323.60 0.1168128
323.70 0.1170862
323.80 0.1173592
323.90 0.1176318
324.00 0.1179089
324.10 0.1181857
324.20 0.1184621
324.30 0.1187426
324.40 0.11903
324.50 0.1193112
324.60 0.1195921
324.70 0.1198725
324.80 0.1201526
324.90 0.1204324
325.00 0.1207118
325.10 0.1209908
325.20 0.1212718
325.30 0.1215575
325.40 0.1218429
325.50 0.1221266
325.60 0.1224085
325.70 0.1226899
325.80 0.122971
325.90 0.1232554
326.00 0.1235434
326.10 0.123831
326.20 0.1241182
326.30 0.1244063
326.40 0.1246977
326.50 0.1249914
326.60 0.1252847
326.70 0.1255777
326.80 0.1258703
326.90 0.1261624
327.00 0.1264543
327.10 0.1267457
327.20 0.1270367
327.30 0.1273274
327.40 0.1276177
327.50 0.1279076
327.60 0.1281971
327.70 0.1284863
327.80 0.1287751
327.90 0.129064
328.00 0.1293559
328.10 0.1296508
328.20 0.1299452
328.30 0.1302393
328.40 0.130533
328.50 0.1308329
328.60 0.1311339
328.70 0.1314345
328.80 0.131735
328.90 0.1320361
329.00 0.1323369
329.10 0.1326372
329.20 0.1329372
329.30 0.1332367
329.40 0.1335359
329.50 0.1338347
329.60 0.1341331
329.70 0.1344311
329.80 0.1347288
329.90 0.135026
330.00 0.1353267
330.10 0.1356315
330.20 0.135936
330.30 0.1362401
330.40 0.1365466
330.50 0.1368557
330.60 0.1371645
330.70 0.1374729
330.80 0.1377808
330.90 0.1380884
331.00 0.1383955
331.10 0.1387023
331.20 0.1390087
331.30 0.1393146
331.40 0.1396202
331.50 0.1399266
331.60 0.140234
331.70 0.1405411
331.80 0.1408556
331.90 0.1411701
332.00 0.1414841
332.10 0.1417978
332.20 0.1421111
332.30 0.1424239
332.40 0.1427364
332.50 0.1430484
332.60 0.1433601
332.70 0.1436713
332.80 0.1439822
332.90 0.1442926
333.00 0.1446027
333.10 0.1449175
333.20 0.1452383
333.30 0.1455587
333.40 0.1458786
333.50 0.1461982
333.60 0.1465173
333.70 0.1468361
333.80 0.1471544
333.90 0.1474723
334.00 0.1477898
334.10 0.1481089
334.20 0.1484301
334.30 0.1487509
334.40 0.1490712
334.50 0.1493912
334.60 0.1497107
334.70 0.1500283
334.80 0.1503483
334.90 0.1506747
335.00 0.1510007
335.10 0.1513208
335.20 0.1516506
335.30 0.1519652
335.40 0.1523037
335.50 0.1526228
335.60 0.1529485
335.70 0.1532744
335.80 0.1536017
335.90 0.1539307
336.00 0.1542619
336.10 0.1545928
336.20 0.1549231
336.30 0.1552538
336.40 0.155585
336.50 0.1559157
336.60 0.1562459
336.70 0.1565758
336.80 0.1569053
336.90 0.1572359
337.00 0.1575681
337.10 0.1579
337.20 0.1582313
337.30 0.1585646
337.40 0.1589007
337.50 0.1592363
337.60 0.1595715
337.70 0.1599063
337.80 0.1602407
337.90 0.1605767
338.00 0.1609148
338.10 0.1612525
338.20 0.1615898
338.30 0.1619266
338.40 0.1622643
338.50 0.162605
338.60 0.1629452
338.70 0.1632849
338.80 0.1636243
338.90 0.1639632
339.00 0.1643016
339.10 0.1646397
339.20 0.1649773
339.30 0.1653157
339.40 0.1656554
339.50 0.1659986
339.60 0.1663459
339.70 0.1666929
339.80 0.1670393
339.90 0.1673854
340.00 0.167731
340.10 0.1680762
340.20 0.1684209
340.30 0.1687653
340.40 0.1691091
340.50 0.1694526
340.60 0.1697956
340.70 0.1701382
340.80 0.1704846
340.90 0.1708367
341.00 0.1711885
341.10 0.1715399
341.20 0.1718909
341.30 0.1722414
341.40 0.1725915
341.50 0.1729412
341.60 0.1732904
341.70 0.1736392
341.80 0.1739912
341.90 0.1743472
342.00 0.1747028
342.10 0.1750579
342.20 0.1754128
342.30 0.1757602
342.40 0.1761104
342.50 0.1764679
342.60 0.176825
342.70 0.1771816
342.80 0.1775377
342.90 0.1778934
343.00 0.1782493
343.10 0.1786056
343.20 0.1789614
343.30 0.1793168
343.40 0.1796761
343.50 0.1800412
343.60 0.1804059
343.70 0.1807701
343.80 0.1811339
343.90 0.1814972
344.00 0.1818539
344.10 0.1822012
344.20 0.1825481
344.30 0.1828946
344.40 0.1832406
344.50 0.1835862
344.60 0.1839358
344.70 0.1844566
344.80 0.1848008
344.90 0.1851445
345.00 0.1854879
345.10 0.1858308
345.20 0.1861882
345.30 0.1865667
345.40 0.1869447
345.50 0.187337
345.60 0.1877307
345.70 0.1881009
345.80 0.1884706
345.90 0.1888398
346.00 0.1892086
346.10 0.1895769
346.20 0.1899472
346.30 0.1903205
346.40 0.1906934
346.50 0.1910659
346.60 0.1914378
346.70 0.1918093
346.80 0.1921804
346.90 0.192551
347.00 0.1929211
347.10 0.1932908
347.20 0.1936622
347.30 0.1940364
347.40 0.1944101
347.50 0.1947833
347.60 0.1951561
347.70 0.1955284
347.80 0.1959003
347.90 0.1962716
348.00 0.1966426
348.10 0.1970131
348.20 0.1973831
348.30 0.1977526
348.40 0.1981217
348.50 0.1984904
348.60 0.1988586
348.70 0.1992575
348.80 0.1996588
348.90 0.2000496
349.00 0.20044
349.10 0.2008298
349.20 0.2012192
349.30 0.2016081
349.40 0.2019965
349.50 0.2023844
349.60 0.2027719
349.70 0.2031589
349.80 0.2035454
349.90 0.2039314
350.00 0.204317
350.10 0.2047021
350.20 0.2050867
350.30 0.2054729
350.40 0.2058617
350.50 0.20625
350.60 0.2066378
350.70 0.2070252
350.80 0.2074121
350.90 0.2077985
351.00 0.2081844
351.10 0.2085698
351.20 0.2089548
351.30 0.2093393
351.40 0.2097267
351.50 0.2101195
351.60 0.2105118
351.70 0.2109036
351.80 0.211295
351.90 0.2116858
352.00 0.2120762
352.10 0.2124662
352.20 0.2128144
352.30 0.2131811
352.40 0.2135809
352.50 0.2139803
352.60 0.2143792
352.70 0.2147776
352.80 0.2151755
352.90 0.2155729
353.00 0.2159698
353.10 0.2163663
353.20 0.2167623
353.30 0.2171577
353.40 0.2175527
353.50 0.2179663
353.60 0.2183841
353.70 0.2188014
353.80 0.2192182
353.90 0.2196329
354.00 0.2200445
354.10 0.2204555
354.20 0.2208661
354.30 0.2212761
354.40 0.2216857
354.50 0.2220947
354.60 0.2225033
354.70 0.2229114
354.80 0.2233063
354.90 0.2236826
355.00 0.2240585
355.10 0.2244339
355.20 0.2248088
355.30 0.2252343
355.40 0.2256594
355.50 0.2260839
355.60 0.2265079
355.70 0.2269028
355.80 0.2272844
355.90 0.2277002
356.00 0.2281246
356.10 0.2285355
356.20 0.2289459
356.30 0.2293558
356.40 0.2297651
356.50 0.230174
356.60 0.2305824
356.70 0.2309903
356.80 0.2313977
356.90 0.2318047
357.00 0.2322111
357.10 0.232617
357.20 0.2330225
357.30 0.2334274
357.40 0.2338372
357.50 0.234256
357.60 0.2346743
357.70 0.235092
357.80 0.23557
357.90 0.2360475
358.00 0.2364735
358.10 0.2368864
358.20 0.2372987
358.30 0.2377105
358.40 0.2381219
358.50 0.2385327
358.60 0.238943
358.70 0.2393529
358.80 0.2397622
358.90 0.2401711
359.00 0.2405724
359.10 0.2409607
359.20 0.2413549
359.30 0.2417912
359.40 0.2422269
359.50 0.2426805
359.60 0.2431381
359.70 0.2435952
359.80 0.2440248
359.90 0.2444539
360.00 0.244879
360.10 0.2452977
360.20 0.2457158
360.30 0.2461334
360.40 0.2465505
360.50 0.2469671
360.60 0.2473736
360.70 0.2478136
360.80 0.2482531
360.90 0.2486921
361.00 0.2491347
361.10 0.2495714
361.20 0.2499631
361.30 0.2503835
361.40 0.2508117
361.50 0.2512558
361.60 0.2515861
361.70 0.252021
361.80 0.2524563
361.90 0.2528927
362.00 0.2533286
362.10 0.2537583
362.20 0.2541882
362.30 0.2546214
362.40 0.2550541
362.50 0.2554863
362.60 0.255918
362.70 0.256435
362.80 0.2568913
362.90 0.2573171
363.00 0.2577424
363.10 0.2581946
363.20 0.2586466
363.30 0.2591107
363.40 0.2594149
363.50 0.2599622
363.60 0.2603873
363.70 0.2607757
363.80 0.2611547
363.90 0.2616284
364.00 0.2621016
364.10 0.2625742
364.20 0.2630462
364.30 0.2634561
364.40 0.2638501
364.50 0.2643572
364.60 0.264802
364.70 0.2652463
364.80 0.2656901
364.90 0.2661084
365.00 0.2665263
365.10 0.2669436
365.20 0.2674409
365.30 0.2678573
365.40 0.2683534
365.50 0.2687687
365.60 0.2691835
365.70 0.2696197
365.80 0.2700553
365.90 0.2705229
366.00 0.2709979
366.10 0.2714399
366.20 0.2718813
366.30 0.2723222
366.40 0.2727625
366.50 0.273287
366.60 0.2736237
366.70 0.2740788
366.80 0.2745334
366.90 0.2749869
367.00 0.2754387
367.10 0.27589
367.20 0.2763407
367.30 0.2767909
367.40 0.2772406
367.50 0.277704
367.60 0.2781704
367.70 0.2786037
367.80 0.2790366
367.90 0.2794689
368.00 0.2799424
368.10 0.2804178
368.20 0.2808874
368.30 0.2813568
368.40 0.2818256
368.50 0.2822939
368.60 0.2827617
368.70 0.2832288
368.80 0.2836955
368.90 0.2841411
369.00 0.2845872
369.10 0.2850421
369.20 0.2855234
369.30 0.2859456
369.40 0.2863673
369.50 0.2867885
369.60 0.2872585
369.70 0.2877278
369.80 0.2882082
369.90 0.2886881
370.00 0.2891674
370.10 0.2896134
370.20 0.2900821
370.30 0.2905513
370.40 0.2910184
370.50 0.2914104
370.60 0.2918799
370.70 0.292429
370.80 0.2928923
370.90 0.2933551
371.00 0.2938236
371.10 0.2942916
371.20 0.2947528
371.30 0.2952134
371.40 0.2956011
371.50 0.2960789
371.60 0.2965561
371.70 0.2970328
371.80 0.2975088
371.90 0.2979844
372.00 0.2984064
372.10 0.2989101
372.20 0.299369
372.30 0.2998274
372.40 0.3002852
372.50 0.3007425
372.60 0.3011993
372.70 0.3016555
372.80 0.3021849
372.90 0.3027137
373.00 0.3031721
373.10 0.3036292
373.20 0.3040826
373.30 0.3045356
373.40 0.304988
373.50 0.3055168
373.60 0.3059681
373.70 0.3064958
373.80 0.3068404
373.90 0.3073957
374.00 0.3078832
374.10 0.3083702
374.20 0.3088566
374.30 0.3093424
374.40 0.3097512
374.50 0.3102284
374.60 0.3107152
374.70 0.3112005
374.80 0.3116852
374.90 0.3121693
375.00 0.3126131
375.10 0.3130564
375.20 0.3134992
375.30 0.3139849
375.40 0.3144702
375.50 0.3149548
375.60 0.3154389
375.70 0.3159224
375.80 0.3164054
375.90 0.3168878
376.00 0.3174706
376.10 0.3179309
376.20 0.3183894
376.30 0.3188474
376.40 0.3193048
376.50 0.3197826
376.60 0.3202909
376.70 0.3207986
376.80 0.3212841
376.90 0.3217473
377.00 0.3222101
377.10 0.3226722
377.20 0.3231391
377.30 0.3236252
377.40 0.3241107
377.50 0.3245956
377.60 0.3250779
377.70 0.3255597
377.80 0.3260409
377.90 0.3265216
378.00 0.3270336
378.10 0.3275214
378.20 0.3280079
378.30 0.3284939
378.40 0.3289793
378.50 0.3294642
378.60 0.3299484
378.70 0.3304322
378.80 0.3309154
378.90 0.3314392
379.00 0.3320388
379.10 0.3325205
379.20 0.3330016
379.30 0.3334909
379.40 0.3339883
379.50 0.334485
379.60 0.3349625
379.70 0.3354208
379.80 0.3359136
379.90 0.336406
380.00 0.3368977
380.10 0.3373889
380.20 0.3378796
380.30 0.3383696
380.40 0.3388591
380.50 0.3393481
380.60 0.3398901
380.70 0.3403844
380.80 0.3408782
380.90 0.3413714
381.00 0.3418641
381.10 0.342331
381.20 0.3428014
381.30 0.3433554
381.40 0.3438665
381.50 0.344291
381.60 0.3447704
381.70 0.3453291
381.80 0.3458787
381.90 0.346286
382.00 0.3468398
382.10 0.3473196
382.20 0.3477988
382.30 0.3483509
382.40 0.3488693
382.50 0.3493375
382.60 0.3498052
382.70 0.3503218
382.80 0.3508575
382.90 0.3513564
383.00 0.3518549
383.10 0.3523527
383.20 0.3528426
383.30 0.3533039
383.40 0.3537986
383.50 0.3543436
383.60 0.3548043
383.70 0.3553106
383.80 0.3558163
383.90 0.3563214
384.00 0.356826
384.10 0.35733
384.20 0.3578334
384.30 0.3583362
384.40 0.3588495
384.50 0.3593733
384.60 0.3598965
384.70 0.360419
384.80 0.3609336
384.90 0.3614232
385.00 0.3619188
385.10 0.362416
385.20 0.3629563
385.30 0.3634282
385.40 0.3639231
385.50 0.3644411
385.60 0.3649584
385.70 0.3654752
385.80 0.3659848
385.90 0.3664691
386.00 0.3669736
386.10 0.3674987
386.20 0.3680304
386.30 0.3685616
386.40 0.3690155
386.50 0.3695545
386.60 0.3701444
386.70 0.3705628
386.80 0.3710524
386.90 0.3715772
387.00 0.3721803
387.10 0.3727039
387.20 0.3732053
387.30 0.3737458
387.40 0.3741264
387.50 0.3746742
387.60 0.3751704
387.70 0.3756906
387.80 0.3762102
387.90 0.3767292
388.00 0.3772719
388.10 0.3778235
388.20 0.3783524
388.30 0.3788803
388.40 0.3794076
388.50 0.3798999
388.60 0.3803579
388.70 0.3809541
388.80 0.3814733
388.90 0.3819864
389.00 0.3824717
389.10 0.3829964
389.20 0.3835023
389.30 0.3840395
389.40 0.3845679
389.50 0.3850908
389.60 0.3855942
389.70 0.3860758
389.80 0.3865981
389.90 0.3871199
390.00 0.3876411
390.10 0.3881617
390.20 0.3886817
390.30 0.3892097
390.40 0.3897467
390.50 0.3902832
390.60 0.3908191
390.70 0.3913543
390.80 0.3918787
390.90 0.3923921
391.00 0.3928671
391.10 0.3934152
391.20 0.3939647
391.30 0.394505
391.40 0.3950271
391.50 0.3955485
391.60 0.3960694
391.70 0.3965897
391.80 0.3971094
391.90 0.3975961
392.00 0.3980748
392.10 0.3985967
392.20 0.399138
392.30 0.399739
392.40 0.4002013
392.50 0.4007201
392.60 0.4013512
392.70 0.4018424
392.80 0.4023331
392.90 0.4028944
393.00 0.4034283
393.10 0.4039455
393.20 0.4044493
393.30 0.4050065
393.40 0.4055638
393.50 0.4060409
393.60 0.4066145
393.70 0.4071537
393.80 0.4076449
393.90 0.4081985
394.00 0.4087433
394.10 0.4092526
394.20 0.409816
394.30 0.4103534
394.40 0.4108193
394.50 0.41137
394.60 0.4119312
394.70 0.4124763
394.80 0.4129619
394.90 0.4134481
395.00 0.4139843
395.10 0.4145339
395.20 0.4150557
395.30 0.4156061
395.40 0.4161558
395.50 0.4166796
395.60 0.4171934
395.70 0.4177206
395.80 0.4182848
395.90 0.4188483
396.00 0.4194016
396.10 0.4198799
396.20 0.4204197
396.30 0.4209404
396.40 0.4215473
396.50 0.4220171
396.60 0.4226227
396.70 0.4230985
396.80 0.4236269
396.90 0.4242653
397.00 0.4247187
397.10 0.4252985
397.20 0.4258029
397.30 0.4263241
397.40 0.4268785
397.50 0.4274324
397.60 0.4279858
397.70 0.4285402
397.80 0.429094
397.90 0.4296356
398.00 0.4301454
398.10 0.4306545
398.20 0.4311873
398.30 0.4317468
398.40 0.4323042
398.50 0.4328148
398.60 0.43343
398.70 0.4339596
398.80 0.4344578
398.90 0.4349847
399.00 0.4355653
399.10 0.4360901
399.20 0.4366436
399.30 0.4371965
399.40 0.4377488
399.50 0.4383005
399.60 0.4388318
399.70 0.4393551
399.80 0.4398779
399.90 0.4404001
400.00 0.4409242
400.10 0.4415286
400.20 0.4420404
400.30 0.4426145
400.40 0.4431869
400.50 0.4436783
400.60 0.444261
400.70 0.4447742
400.80 0.4453717
400.90 0.4458387
401.00 0.4464659
401.10 0.4469728
401.20 0.4475577
401.30 0.4481043
401.40 0.4486227
401.50 0.4491386
401.60 0.4496564
401.70 0.4502508
401.80 0.4507691
401.90 0.4513127
402.00 0.4519478
402.10 0.4524952
402.20 0.452968
402.30 0.4535235
402.40 0.4540796
402.50 0.4546423
402.60 0.4552319
402.70 0.4557784
402.80 0.4563455
402.90 0.4568856
403.00 0.4574515
403.10 0.4579112
403.20 0.4585003
403.30 0.4590847
403.40 0.4595936
403.50 0.460124
403.60 0.4606731
403.70 0.4612903
403.80 0.4618738
403.90 0.4623924
404.00 0.4629353
404.10 0.4635308
404.20 0.4640238
404.30 0.4645162
404.40 0.4651571
404.50 0.465696
404.60 0.4662522
404.70 0.4667423
404.80 0.4673202
404.90 0.4678517
405.00 0.4684984
405.10 0.4690335
405.20 0.4695487
405.30 0.4700634
405.40 0.4706365
405.50 0.471209
405.60 0.471781
405.70 0.4723522
405.80 0.4729229
405.90 0.473493
406.00 0.4740454
406.10 0.4745973
406.20 0.4751485
406.30 0.4756992
406.40 0.4762517
406.50 0.4767401
406.60 0.4773146
406.70 0.4778582
406.80 0.4784336
406.90 0.4789677
407.00 0.4795354
407.10 0.4801024
407.20 0.4806689
407.30 0.4812347
407.40 0.4818
407.50 0.4823646
407.60 0.4829286
407.70 0.483492
407.80 0.4840548
407.90 0.4846162
408.00 0.4851534
408.10 0.4857284
408.20 0.4863211
408.30 0.4868794
408.40 0.4874371
408.50 0.4879276
408.60 0.4884892
408.70 0.4890502
408.80 0.4896038
408.90 0.4901199
409.00 0.4906927
409.10 0.4912648
409.20 0.4918363
409.30 0.4924072
409.40 0.4929775
409.50 0.4935506
409.60 0.494123
409.70 0.4946853
409.80 0.4952093
409.90 0.4957358
410.00 0.4963614
410.10 0.4968635
410.20 0.4974474
410.30 0.4980513
410.40 0.4986426
410.50 0.4991954
410.60 0.4997477
410.70 0.5003051
410.80 0.5008851
410.90 0.5014645
411.00 0.5020205
411.10 0.5025675
411.20 0.5031139
411.30 0.503675
411.40 0.5042952
411.50 0.504856
411.60 0.5054162
411.70 0.5059667
411.80 0.5064801
411.90 0.5070309
412.00 0.5076063
412.10 0.5082128
412.20 0.5087554
412.30 0.5093123
412.40 0.5099248
412.50 0.5104474
412.60 0.5110102
412.70 0.5115911
412.80 0.5121762
412.90 0.5127188
413.00 0.5132733
413.10 0.513848
413.20 0.5144221
413.30 0.5149956
413.40 0.5155685
413.50 0.5161333
413.60 0.5166751
413.70 0.5172402
413.80 0.5178047
413.90 0.5183685
414.00 0.5189318
414.10 0.5194945
414.20 0.5200865
414.30 0.520648
414.40 0.5212338
414.50 0.5217604
414.60 0.5223137
414.70 0.5229351
414.80 0.5235409
414.90 0.5240987
415.00 0.5246559
415.10 0.5252125
415.20 0.5257697
415.30 0.5263304
415.40 0.5268904
415.50 0.5274508
415.60 0.528043
415.70 0.5286344
415.80 0.5292184
415.90 0.52978
416.00 0.530341
416.10 0.5309047
416.20 0.5314813
416.30 0.5320572
416.40 0.5326325
