# Version 2.1 - nm, norm@500 to 1, cut digits, bergeron_He_4500_90.dat_4500
# Wavelength(nm)  Flambda(ergs/cm^s/s/nm)
300.00 0.118917
300.10 0.1192048
300.20 0.1194923
300.30 0.1197814
300.40 0.1200839
300.50 0.120386
300.60 0.1206877
300.70 0.120989
300.80 0.1212898
300.90 0.1215902
301.00 0.1218902
301.10 0.1221897
301.20 0.1224888
301.30 0.1227875
301.40 0.1230858
301.50 0.1233837
301.60 0.1236811
301.70 0.1239781
301.80 0.1242747
301.90 0.1245709
302.00 0.1248666
302.10 0.1251718
302.20 0.1254776
302.30 0.125783
302.40 0.1260879
302.50 0.1263924
302.60 0.1266965
302.70 0.1270002
302.80 0.1273034
302.90 0.1276062
303.00 0.1279086
303.10 0.1282106
303.20 0.1285121
303.30 0.1288144
303.40 0.1291277
303.50 0.1294405
303.60 0.1297528
303.70 0.1300648
303.80 0.1303762
303.90 0.1306873
304.00 0.1309979
304.10 0.1313081
304.20 0.1316178
304.30 0.1319271
304.40 0.132236
304.50 0.1325444
304.60 0.1328629
304.70 0.1331822
304.80 0.133501
304.90 0.1338194
305.00 0.1341373
305.10 0.1344547
305.20 0.1347718
305.30 0.1350884
305.40 0.1354045
305.50 0.1357202
305.60 0.1360355
305.70 0.1363503
305.80 0.1366646
305.90 0.1369786
306.00 0.1372921
306.10 0.1376051
306.20 0.1379177
306.30 0.1382299
306.40 0.138556
306.50 0.138886
306.60 0.1392155
306.70 0.1395445
306.80 0.1398731
306.90 0.1402012
307.00 0.1405289
307.10 0.1408561
307.20 0.1411828
307.30 0.1415091
307.40 0.141835
307.50 0.1421604
307.60 0.1424853
307.70 0.1428098
307.80 0.1431338
307.90 0.1434574
308.00 0.1437805
308.10 0.1441032
308.20 0.1444254
308.30 0.1447472
308.40 0.1450685
308.50 0.1453894
308.60 0.1457099
308.70 0.1460299
308.80 0.1463544
308.90 0.1466928
309.00 0.1470235
309.10 0.1473538
309.20 0.1476836
309.30 0.148013
309.40 0.1483431
309.50 0.14868
309.60 0.1490164
309.70 0.1493524
309.80 0.1496879
309.90 0.1500229
310.00 0.1503575
310.10 0.1506916
310.20 0.1510253
310.30 0.1513585
310.40 0.1516953
310.50 0.152036
310.60 0.1523763
310.70 0.1527161
310.80 0.1530555
310.90 0.1533944
311.00 0.1537326
311.10 0.1540703
311.20 0.1544076
311.30 0.1547464
311.40 0.1550906
311.50 0.1554343
311.60 0.1557775
311.70 0.1561202
311.80 0.1564625
311.90 0.1568043
312.00 0.1571456
312.10 0.1574865
312.20 0.1578307
312.30 0.1581736
312.40 0.1585119
312.50 0.1588672
312.60 0.1592101
312.70 0.1595526
312.80 0.1598946
312.90 0.1602401
313.00 0.1605895
313.10 0.1609383
313.20 0.1612867
313.30 0.161636
313.40 0.1619886
313.50 0.1623408
313.60 0.1626925
313.70 0.1630437
313.80 0.1633945
313.90 0.1637447
314.00 0.1640945
314.10 0.1644486
314.20 0.1648022
314.30 0.1651553
314.40 0.1655079
314.50 0.1658601
314.60 0.1662117
314.70 0.1665629
314.80 0.1669157
314.90 0.1672744
315.00 0.1676328
315.10 0.1679906
315.20 0.168348
315.30 0.1687048
315.40 0.1690612
315.50 0.169417
315.60 0.1697724
315.70 0.1701288
315.80 0.1704847
315.90 0.1708401
316.00 0.1711951
316.10 0.171554
316.20 0.1719125
316.30 0.1722795
316.40 0.172637
316.50 0.1730029
316.60 0.1733594
316.70 0.1737244
316.80 0.1740889
316.90 0.1744529
317.00 0.1748164
317.10 0.1751794
317.20 0.1755419
317.30 0.1759027
317.40 0.1762646
317.50 0.1766303
317.60 0.1769955
317.70 0.1773602
317.80 0.1777244
317.90 0.1781269
318.00 0.1784092
318.10 0.178785
318.20 0.1791604
318.30 0.1795352
318.40 0.1799211
318.50 0.1803392
318.60 0.1807337
318.70 0.1810623
318.80 0.1814522
318.90 0.1817181
319.00 0.1822218
319.10 0.1825485
319.20 0.1828935
319.30 0.1832915
319.40 0.183689
319.50 0.1840859
319.60 0.1843698
319.70 0.1847657
319.80 0.1851611
319.90 0.185556
320.00 0.1859158
320.10 0.1862378
320.20 0.1866813
320.30 0.1870555
320.40 0.1873411
320.50 0.1876962
320.60 0.1881906
320.70 0.1885097
320.80 0.1888703
320.90 0.1892757
321.00 0.1896806
321.10 0.190085
321.20 0.1903712
321.30 0.1907644
321.40 0.191157
321.50 0.191549
321.60 0.1919406
321.70 0.1923316
321.80 0.1927022
321.90 0.1930509
322.00 0.193535
322.10 0.19391
322.20 0.1942844
322.30 0.1946584
322.40 0.1950319
322.50 0.1954049
322.60 0.1957773
322.70 0.1961493
322.80 0.1965878
322.90 0.1969708
323.00 0.1973533
323.10 0.1977352
323.20 0.1981167
323.30 0.1984976
323.40 0.1988781
323.50 0.199258
323.60 0.1996374
323.70 0.2000164
323.80 0.2003948
323.90 0.2007727
324.00 0.2011519
324.10 0.2015306
324.20 0.2019087
324.30 0.2023266
324.40 0.2027941
324.50 0.2031916
324.60 0.2035885
324.70 0.203985
324.80 0.2043809
324.90 0.2047762
325.00 0.2051711
325.10 0.2055654
325.20 0.2059442
325.30 0.2062906
325.40 0.2066366
325.50 0.2070192
325.60 0.2074467
325.70 0.2078736
325.80 0.2083
325.90 0.2087101
326.00 0.2091025
326.10 0.2094945
326.20 0.2098859
326.30 0.210281
326.40 0.2106872
326.50 0.2110919
326.60 0.2114959
326.70 0.2118995
326.80 0.2123025
326.90 0.2127049
327.00 0.2131069
327.10 0.2135083
327.20 0.2139092
327.30 0.2143095
327.40 0.2147093
327.50 0.2151086
327.60 0.2155074
327.70 0.2159056
327.80 0.2163033
327.90 0.2166801
328.00 0.2170581
328.10 0.2174651
328.20 0.2178715
328.30 0.2182774
328.40 0.2186828
328.50 0.2191075
328.60 0.2195363
328.70 0.2199645
328.80 0.2203852
328.90 0.2207853
329.00 0.2211849
329.10 0.2215839
329.20 0.2219825
329.30 0.2223805
329.40 0.222778
329.50 0.223175
329.60 0.2235714
329.70 0.2239673
329.80 0.2243627
329.90 0.2247576
330.00 0.2251749
330.10 0.2256196
330.20 0.2260638
330.30 0.2265073
330.40 0.2269368
330.50 0.2273509
330.60 0.2277645
330.70 0.2281776
330.80 0.2285901
330.90 0.2290021
331.00 0.2294135
331.10 0.2298244
331.20 0.2302348
331.30 0.2306446
331.40 0.2310539
331.50 0.2314523
331.60 0.2318374
331.70 0.2322219
331.80 0.2326477
331.90 0.2330746
332.00 0.233501
332.10 0.2339268
332.20 0.2343521
332.30 0.2347768
332.40 0.2352009
332.50 0.2356245
332.60 0.2360476
332.70 0.2364701
332.80 0.236892
332.90 0.2373134
333.00 0.2377342
333.10 0.2381561
333.20 0.2385792
333.30 0.2390018
333.40 0.2394239
333.50 0.2398454
333.60 0.2402664
333.70 0.2406868
333.80 0.2411067
333.90 0.241526
334.00 0.2419448
334.10 0.242363
334.20 0.2427807
334.30 0.2431978
334.40 0.2436144
334.50 0.2440305
334.60 0.244446
334.70 0.244886
334.80 0.2453289
334.90 0.2457324
335.00 0.2461353
335.10 0.2466755
335.20 0.2470877
335.30 0.2474474
335.40 0.2479384
335.50 0.2482692
335.60 0.248759
335.70 0.2491765
335.80 0.2496651
335.90 0.2501172
336.00 0.2505251
336.10 0.2509324
336.20 0.2513392
336.30 0.2517573
336.40 0.2521895
336.50 0.2526211
336.60 0.2530521
336.70 0.2534826
336.80 0.2539126
336.90 0.2543452
337.00 0.2547814
337.10 0.2552169
337.20 0.255652
337.30 0.256085
337.40 0.2565155
337.50 0.2569454
337.60 0.2573748
337.70 0.2578036
337.80 0.2582319
337.90 0.2586726
338.00 0.2591288
338.10 0.2595844
338.20 0.2600394
338.30 0.2604939
338.40 0.2609456
338.50 0.2613915
338.60 0.2618368
338.70 0.2622815
338.80 0.2627257
338.90 0.2631693
339.00 0.2636123
339.10 0.2640548
339.20 0.2644966
339.30 0.2649215
339.40 0.2653222
339.50 0.2657461
339.60 0.2661986
339.70 0.2666505
339.80 0.2671018
339.90 0.2675525
340.00 0.2680027
340.10 0.2684523
340.20 0.2689013
340.30 0.2693497
340.40 0.2697976
340.50 0.2702449
340.60 0.2706916
340.70 0.2711377
340.80 0.2715618
340.90 0.2719543
341.00 0.2723762
341.10 0.2728338
341.20 0.2732909
341.30 0.2737474
341.40 0.2742033
341.50 0.2746586
341.60 0.2751134
341.70 0.2755676
341.80 0.2760212
341.90 0.2764742
342.00 0.2769266
342.10 0.2773785
342.20 0.2777838
342.30 0.2782273
342.40 0.2787078
342.50 0.2791615
342.60 0.2796146
342.70 0.2800671
342.80 0.2805191
342.90 0.2809705
343.00 0.2814167
343.10 0.2818568
343.20 0.2822964
343.30 0.2827354
343.40 0.2831762
343.50 0.2836201
343.60 0.2840635
343.70 0.2845062
343.80 0.2849484
343.90 0.2853901
344.00 0.2858467
344.10 0.2863251
344.20 0.2868029
344.30 0.2872801
344.40 0.2877412
344.50 0.2881794
344.60 0.2886753
344.70 0.2891161
344.80 0.2895526
344.90 0.2899885
345.00 0.2905129
345.10 0.2909477
345.20 0.2913852
345.30 0.2918271
345.40 0.2922683
345.50 0.2926949
345.60 0.2931338
345.70 0.2936154
345.80 0.2940963
345.90 0.2945766
346.00 0.2950564
346.10 0.2955355
346.20 0.2960058
346.30 0.2964638
346.40 0.2969212
346.50 0.297378
346.60 0.2978342
346.70 0.2982898
346.80 0.2987449
346.90 0.2991994
347.00 0.2996533
347.10 0.3001067
347.20 0.3005656
347.30 0.3010328
347.40 0.3014993
347.50 0.3019653
347.60 0.3024307
347.70 0.3028955
347.80 0.3033597
347.90 0.3038233
348.00 0.3042864
348.10 0.3047488
348.20 0.3052107
348.30 0.305672
348.40 0.3061328
348.50 0.3065929
348.60 0.3070525
348.70 0.3075276
348.80 0.3080046
348.90 0.3084771
349.00 0.3089491
349.10 0.3094204
349.20 0.3098912
349.30 0.3103613
349.40 0.3108309
349.50 0.3112999
349.60 0.3117682
349.70 0.3122361
349.80 0.3127033
349.90 0.3131699
350.00 0.313636
350.10 0.3141014
350.20 0.3145663
350.30 0.3150327
350.40 0.3155014
350.50 0.3159696
350.60 0.3164372
350.70 0.3169041
350.80 0.3173706
350.90 0.3178364
351.00 0.3183016
351.10 0.3187663
351.20 0.3192304
351.30 0.3196939
351.40 0.3201632
351.50 0.3206435
351.60 0.3211231
351.70 0.3216022
351.80 0.3220807
351.90 0.3225585
352.00 0.3230358
352.10 0.3235125
352.20 0.3240068
352.30 0.3244947
352.40 0.3249707
352.50 0.325446
352.60 0.3259208
352.70 0.326395
352.80 0.3268686
352.90 0.3273416
353.00 0.327814
353.10 0.3282858
353.20 0.328757
353.30 0.3292277
353.40 0.3296977
353.50 0.3301861
353.60 0.3306787
353.70 0.3311706
353.80 0.3316619
353.90 0.332145
354.00 0.3326138
354.10 0.333082
354.20 0.3335496
354.30 0.3340167
354.40 0.3344831
354.50 0.334949
354.60 0.3354143
354.70 0.3358791
354.80 0.3363538
354.90 0.3368432
355.00 0.3373319
355.10 0.3378201
355.20 0.3383076
355.30 0.3387773
355.40 0.3392464
355.50 0.3397149
355.60 0.3401828
355.70 0.3407001
355.80 0.3412391
355.90 0.3416969
356.00 0.3421478
356.10 0.3426323
356.20 0.3431163
356.30 0.3435996
356.40 0.3440823
356.50 0.3445644
356.60 0.345046
356.70 0.3455269
356.80 0.3460073
356.90 0.346487
357.00 0.3469662
357.10 0.3474448
357.20 0.3479227
357.30 0.3484001
357.40 0.3488912
357.50 0.3494069
357.60 0.3499219
357.70 0.3504364
357.80 0.3508781
357.90 0.3513193
358.00 0.3518087
358.10 0.3523097
358.20 0.3528101
358.30 0.3533098
358.40 0.353809
358.50 0.3543076
358.60 0.3548055
358.70 0.3553028
358.80 0.3557996
358.90 0.3562957
359.00 0.3567888
359.10 0.357277
359.20 0.3577608
359.30 0.3582183
359.40 0.3586753
359.50 0.3591627
359.60 0.3596573
359.70 0.3601513
359.80 0.3606342
359.90 0.3611165
360.00 0.3616033
360.10 0.3620988
360.20 0.3625936
360.30 0.3630879
360.40 0.3635815
360.50 0.3640746
360.60 0.3645425
360.70 0.3650304
360.80 0.3655178
360.90 0.3660046
361.00 0.3665085
361.10 0.3669887
361.20 0.367489
361.30 0.3680834
361.40 0.3685672
361.50 0.3690503
361.60 0.3695329
361.70 0.3700149
361.80 0.3705001
361.90 0.3709916
362.00 0.3714825
362.10 0.3719491
362.20 0.3724289
362.30 0.3729433
362.40 0.3734572
362.50 0.3739704
362.60 0.3744829
362.70 0.374951
362.80 0.3754416
362.90 0.3759131
363.00 0.376384
363.10 0.3769223
363.20 0.3774607
363.30 0.3779462
363.40 0.3784181
363.50 0.3788894
363.60 0.3793602
363.70 0.3798907
363.80 0.3804356
363.90 0.3809368
364.00 0.3814375
364.10 0.3819375
364.20 0.3824369
364.30 0.3829099
364.40 0.3833759
364.50 0.3838486
364.60 0.3843561
364.70 0.384863
364.80 0.3853693
364.90 0.3858324
365.00 0.3862949
365.10 0.3868916
365.20 0.3873529
365.30 0.3878137
365.40 0.3884084
365.50 0.388868
365.60 0.389327
365.70 0.3898465
365.80 0.3903654
365.90 0.3908348
366.00 0.3912915
366.10 0.391802
366.20 0.3923118
366.30 0.3928211
366.40 0.3933297
366.50 0.393827
366.60 0.3942873
366.70 0.3948311
366.80 0.3953741
366.90 0.3959028
367.00 0.3964064
367.10 0.3969095
367.20 0.3974119
367.30 0.3979137
367.40 0.3984149
367.50 0.3988734
367.60 0.3993209
367.70 0.3998377
367.80 0.4003538
367.90 0.4008694
368.00 0.4013704
368.10 0.4019393
368.20 0.4024338
368.30 0.4029266
368.40 0.4034189
368.50 0.4039105
368.60 0.4044016
368.70 0.4048921
368.80 0.405382
368.90 0.4058705
369.00 0.4063747
369.10 0.4068828
369.20 0.4074601
369.30 0.4079417
369.40 0.4084226
369.50 0.4089031
369.60 0.4094012
369.70 0.4098988
369.80 0.4104221
369.90 0.4109451
370.00 0.4114674
370.10 0.4119001
370.20 0.4124603
370.30 0.4130233
370.40 0.413456
370.50 0.4139507
370.60 0.4144481
370.70 0.4150151
370.80 0.415506
370.90 0.4159963
371.00 0.4164931
371.10 0.4169895
371.20 0.417478
371.30 0.417966
371.40 0.4185306
371.50 0.4190322
371.60 0.4195332
371.70 0.4200335
371.80 0.4205333
371.90 0.4210325
372.00 0.4216291
372.10 0.4221436
372.20 0.4226513
372.30 0.4231584
372.40 0.4236649
372.50 0.4241708
372.60 0.4246761
372.70 0.4251808
372.80 0.4256598
372.90 0.4261382
373.00 0.4266231
373.10 0.4271075
373.20 0.4276522
373.30 0.4281963
373.40 0.4286753
373.50 0.4292181
373.60 0.4296959
373.70 0.4302375
373.80 0.4307182
373.90 0.4311903
374.00 0.4316979
374.10 0.4322049
374.20 0.4327113
374.30 0.4332171
374.40 0.4337863
374.50 0.4342847
374.60 0.4347893
374.70 0.4352945
374.80 0.4357991
374.90 0.4363032
375.00 0.4368366
375.10 0.4373695
375.20 0.4379017
375.30 0.4384151
375.40 0.4389279
375.50 0.4394401
375.60 0.4399516
375.70 0.4404626
375.80 0.440973
375.90 0.4414827
376.00 0.4420024
376.10 0.4425142
376.20 0.4430254
376.30 0.4435359
376.40 0.4440458
376.50 0.4445541
376.60 0.4450602
376.70 0.4455658
376.80 0.4460685
376.90 0.4465685
377.00 0.4470679
377.10 0.4475667
377.20 0.4480673
377.30 0.4485764
377.40 0.449085
377.50 0.4495929
377.60 0.4501214
377.70 0.4506493
377.80 0.4511765
377.90 0.4517032
378.00 0.4521684
378.10 0.4526838
378.20 0.4532
378.30 0.4537156
378.40 0.4542306
378.50 0.454745
378.60 0.4552588
378.70 0.4557719
378.80 0.4562845
378.90 0.4567924
379.00 0.4572922
379.10 0.4578007
379.20 0.4583085
379.30 0.4588238
379.40 0.4593466
379.50 0.4598687
379.60 0.4603779
379.70 0.4608766
379.80 0.4614062
379.90 0.4619353
380.00 0.4624638
380.10 0.4629916
380.20 0.4635188
380.30 0.4640454
380.40 0.4645714
380.50 0.4650967
380.60 0.4655362
380.70 0.466052
380.80 0.4665671
380.90 0.4670816
381.00 0.4675956
381.10 0.4681229
381.20 0.4686703
381.30 0.469199
381.40 0.4697203
381.50 0.4702334
381.60 0.4707324
381.70 0.4712183
381.80 0.4717973
381.90 0.472289
382.00 0.4727801
382.10 0.4732706
382.20 0.4738097
382.30 0.474299
382.40 0.4748116
382.50 0.4753592
382.60 0.4759063
382.70 0.4764354
382.80 0.4769369
382.90 0.4774301
383.00 0.4779227
383.10 0.4784147
383.20 0.4789208
383.30 0.4794813
383.40 0.4800312
383.50 0.4805658
383.60 0.4809949
383.70 0.4815156
383.80 0.4820356
383.90 0.4825551
384.00 0.4830739
384.10 0.4835921
384.20 0.4841097
384.30 0.4846268
384.40 0.4851413
384.50 0.4856535
384.60 0.486165
384.70 0.4866759
384.80 0.4872036
384.90 0.4877733
385.00 0.4882998
385.10 0.4888234
385.20 0.4892948
385.30 0.4898391
385.40 0.4903642
385.50 0.4908703
385.60 0.4913758
385.70 0.4918808
385.80 0.4923886
385.90 0.4929091
386.00 0.493426
386.10 0.4939413
386.20 0.4944758
386.30 0.4950096
386.40 0.4955355
386.50 0.4960304
386.60 0.4965283
386.70 0.497052
386.80 0.4975752
386.90 0.4980977
387.00 0.4985987
387.10 0.49912
387.20 0.4996466
387.30 0.5001609
387.40 0.5006471
387.50 0.5011506
387.60 0.5016926
387.70 0.5022104
387.80 0.5027275
387.90 0.5032441
388.00 0.503772
388.10 0.504245
388.20 0.5047863
388.30 0.5053203
388.40 0.5058537
388.50 0.5063646
388.60 0.5068496
388.70 0.5074441
388.80 0.5079118
388.90 0.5084669
389.00 0.5089711
389.10 0.5094679
389.20 0.5099853
389.30 0.5104686
389.40 0.5109959
389.50 0.5115253
389.60 0.5120644
389.70 0.5126123
389.80 0.5131332
389.90 0.5136534
390.00 0.5141731
390.10 0.5146922
390.20 0.5152106
390.30 0.5157289
390.40 0.516247
390.50 0.5167645
390.60 0.5172815
390.70 0.5177978
390.80 0.5182885
390.90 0.5187537
391.00 0.5192534
391.10 0.5197857
391.20 0.5203164
391.30 0.520838
391.40 0.5213533
391.50 0.521868
391.60 0.5223822
391.70 0.5228957
391.80 0.5234087
391.90 0.5239656
392.00 0.524526
392.10 0.5250169
392.20 0.5255103
392.30 0.5260348
392.40 0.5265613
392.50 0.5270286
392.60 0.5276339
392.70 0.528122
392.80 0.5286097
392.90 0.5291792
393.00 0.529652
393.10 0.5301715
393.20 0.5307357
393.30 0.5312204
393.40 0.5317237
393.50 0.5322062
393.60 0.5327975
393.70 0.5332799
393.80 0.5337565
393.90 0.5342956
394.00 0.5348285
394.10 0.5353386
394.20 0.5358882
394.30 0.5364286
394.40 0.5368703
394.50 0.537445
394.60 0.5379457
394.70 0.5384502
394.80 0.5389701
394.90 0.5394914
395.00 0.5400651
395.10 0.5405078
395.20 0.5410307
395.30 0.5415805
395.40 0.5421297
395.50 0.5426568
395.60 0.5431754
395.70 0.5436839
395.80 0.5441662
395.90 0.5446479
396.00 0.5451364
396.10 0.5456888
396.20 0.5462142
396.30 0.5467543
396.40 0.5472213
396.50 0.547802
396.60 0.5482678
396.70 0.5488162
396.80 0.5493271
396.90 0.549796
397.00 0.5504078
397.10 0.5508898
397.20 0.5513974
397.30 0.5519508
397.40 0.5524597
397.50 0.552968
397.60 0.5534775
397.70 0.5540044
397.80 0.5545306
397.90 0.5550469
398.00 0.5555373
398.10 0.5560271
398.20 0.556526
398.30 0.5570352
398.40 0.5575463
398.50 0.5581363
398.60 0.5586233
398.70 0.5591159
398.80 0.559619
398.90 0.56014
399.00 0.5606948
399.10 0.5611624
399.20 0.5616824
399.30 0.5622019
399.40 0.5627208
399.50 0.5632391
399.60 0.5637669
399.70 0.564298
399.80 0.5648284
399.90 0.5653582
400.00 0.5658864
400.10 0.5663802
400.20 0.5669242
400.30 0.5674461
400.40 0.5679596
400.50 0.5684813
400.60 0.568922
400.70 0.5694769
400.80 0.5700311
400.90 0.570473
401.00 0.5709998
401.10 0.5715422
401.20 0.5720209
401.30 0.5725706
401.40 0.5730829
401.50 0.5735813
401.60 0.5740814
401.70 0.5746516
401.80 0.5751205
401.90 0.5756172
402.00 0.5761603
402.10 0.5766271
402.20 0.5771464
402.30 0.5776877
402.40 0.5782531
402.50 0.578696
402.60 0.5792078
402.70 0.5797822
402.80 0.5803245
402.90 0.5808218
403.00 0.5813076
403.10 0.581837
403.20 0.5823445
403.30 0.5828201
403.40 0.5833437
403.50 0.5838914
403.60 0.5844376
403.70 0.5849567
403.80 0.5854605
403.90 0.5859211
404.00 0.5864315
404.10 0.5869882
404.20 0.5874672
404.30 0.5879456
404.40 0.5884933
404.50 0.5890105
404.60 0.5895421
404.70 0.5900731
404.80 0.590571
404.90 0.5910237
405.00 0.5915524
405.10 0.5920816
405.20 0.5926097
405.30 0.5931371
405.40 0.5936458
405.50 0.5941539
405.60 0.5946614
405.70 0.5951683
405.80 0.5956747
405.90 0.5961805
406.00 0.5966978
406.10 0.5972146
406.20 0.5977308
406.30 0.5982464
406.40 0.5987589
406.50 0.599314
406.60 0.5998318
406.70 0.6003443
406.80 0.6008545
406.90 0.6013039
407.00 0.6018214
407.10 0.6023384
407.20 0.6028548
407.30 0.6033707
407.40 0.6038859
407.50 0.6044006
407.60 0.6049147
407.70 0.6054282
407.80 0.6059412
407.90 0.606454
408.00 0.606982
408.10 0.6074523
408.20 0.6079365
408.30 0.6084808
408.40 0.6090245
408.50 0.6094915
408.60 0.610012
408.70 0.6105318
408.80 0.6110427
408.90 0.6115047
409.00 0.6120298
409.10 0.6125544
409.20 0.6130784
409.30 0.6136018
409.40 0.6141238
409.50 0.6146185
409.60 0.6151126
409.70 0.6156052
409.80 0.6160932
409.90 0.6165819
410.00 0.6171109
410.10 0.6176107
410.20 0.6181367
410.30 0.6186687
410.40 0.6191939
410.50 0.6196985
410.60 0.6202025
410.70 0.6207086
410.80 0.621225
410.90 0.6217408
411.00 0.6222526
411.10 0.6227626
411.20 0.623272
411.30 0.6237818
411.40 0.6242938
411.50 0.6247774
411.60 0.6252603
411.70 0.625755
411.80 0.6262983
411.90 0.6268303
412.00 0.6273195
412.10 0.6278081
412.20 0.6282962
412.30 0.6287877
412.40 0.6292974
412.50 0.6298701
412.60 0.6303936
412.70 0.6308774
412.80 0.6313508
412.90 0.6318793
413.00 0.6323765
413.10 0.6328846
413.20 0.6333922
413.30 0.6338992
413.40 0.6344056
413.50 0.6349021
413.60 0.635372
413.70 0.635878
413.80 0.6363835
413.90 0.6368883
414.00 0.6373989
414.10 0.6379289
414.20 0.6384457
414.30 0.6389221
414.40 0.6394817
414.50 0.6399707
414.60 0.6404653
414.70 0.6409917
414.80 0.6415114
414.90 0.6420106
415.00 0.6425093
415.10 0.6430074
415.20 0.6435059
415.30 0.6440069
415.40 0.6445073
415.50 0.6450075
415.60 0.6455169
415.70 0.6460258
415.80 0.6465343
415.90 0.647043
416.00 0.6475511
416.10 0.6480541
416.20 0.6485383
416.30 0.6490218
416.40 0.6495049
416.50 0.6499884
416.60 0.6505041
416.70 0.6510177
416.80 0.6515443
416.90 0.6520462
417.00 0.6524996
417.10 0.6530725
417.20 0.6535333
417.30 0.6539954
417.40 0.6545197
417.50 0.6550435
