# Version 2.1 - nm, norm@500 to 1, cut digits, bergeron_He_4250_80.dat_4250
# Wavelength(nm)  Flambda(ergs/cm^s/s/nm)
300.00 0.04144189
300.10 0.04156969
300.20 0.04169725
300.30 0.04182599
300.40 0.04196357
300.50 0.04210095
300.60 0.04223814
300.70 0.04237514
300.80 0.04251195
300.90 0.04264857
301.00 0.042785
301.10 0.04292124
301.20 0.04305728
301.30 0.04319314
301.40 0.04332881
301.50 0.04346429
301.60 0.04359957
301.70 0.04373467
301.80 0.04386958
301.90 0.04400431
302.00 0.04413884
302.10 0.04427799
302.20 0.04441748
302.30 0.04455677
302.40 0.04469587
302.50 0.04483478
302.60 0.04497349
302.70 0.04511201
302.80 0.04525034
302.90 0.04538847
303.00 0.04552641
303.10 0.04566416
303.20 0.04580172
303.30 0.04593992
303.40 0.04608533
303.50 0.04623054
303.60 0.04637554
303.70 0.04652035
303.80 0.04666496
303.90 0.04680937
304.00 0.04695357
304.10 0.04709758
304.20 0.04724139
304.30 0.04738499
304.40 0.0475284
304.50 0.04767161
304.60 0.04782175
304.70 0.04797247
304.80 0.04812299
304.90 0.0482733
305.00 0.0484234
305.10 0.04857329
305.20 0.04872297
305.30 0.04887245
305.40 0.04902172
305.50 0.04917079
305.60 0.04931965
305.70 0.04946831
305.80 0.04961676
305.90 0.04976501
306.00 0.04991305
306.10 0.05006089
306.20 0.05020852
306.30 0.05035595
306.40 0.05051306
306.50 0.05067291
306.60 0.05083254
306.70 0.05099195
306.80 0.05115114
306.90 0.05131011
307.00 0.05146887
307.10 0.05162741
307.20 0.05178573
307.30 0.05194383
307.40 0.05210172
307.50 0.05225939
307.60 0.05241684
307.70 0.05257408
307.80 0.0527311
307.90 0.05288791
308.00 0.0530445
308.10 0.05320088
308.20 0.05335705
308.30 0.053513
308.40 0.05366874
308.50 0.05382426
308.60 0.05397957
308.70 0.05413467
308.80 0.05428592
308.90 0.05442661
309.00 0.0545888
309.10 0.05475076
309.20 0.05491251
309.30 0.05507403
309.40 0.05523604
309.50 0.05540216
309.60 0.05556805
309.70 0.05573371
309.80 0.05589915
309.90 0.05606436
310.00 0.05622935
310.10 0.05639411
310.20 0.05655865
310.30 0.05672297
310.40 0.05689005
310.50 0.05706014
310.60 0.05723
310.70 0.05739964
310.80 0.05756904
310.90 0.05773821
311.00 0.05790563
311.10 0.05807281
311.20 0.05823977
311.30 0.05840769
311.40 0.05857872
311.50 0.05874952
311.60 0.05892009
311.70 0.05909043
311.80 0.05926053
311.90 0.05943041
312.00 0.05960006
312.10 0.05976948
312.20 0.05993332
312.30 0.06010768
312.40 0.06028982
312.50 0.06043823
312.60 0.0606128
312.70 0.06078714
312.80 0.06096123
312.90 0.06113937
313.00 0.06132188
313.10 0.06150415
313.20 0.06168618
313.30 0.06186702
313.40 0.06204495
313.50 0.06222264
313.60 0.06240009
313.70 0.0625773
313.80 0.06275427
313.90 0.06293101
314.00 0.0631075
314.10 0.0632888
314.20 0.06346985
314.30 0.06365065
314.40 0.06383121
314.50 0.06401154
314.60 0.06419161
314.70 0.06437145
314.80 0.06454112
314.90 0.06471012
315.00 0.06490896
315.10 0.06509251
315.20 0.06527582
315.30 0.06545888
315.40 0.06564169
315.50 0.06582426
315.60 0.06600658
315.70 0.06619455
315.80 0.06638227
315.90 0.06656974
316.00 0.06675696
316.10 0.06694393
316.20 0.06713065
316.30 0.06729951
316.40 0.06748574
316.50 0.06768931
316.60 0.06787503
316.70 0.06806051
316.80 0.06824573
316.90 0.06843948
317.00 0.06863298
317.10 0.06882621
317.20 0.06901919
317.30 0.06919693
317.40 0.06937884
317.50 0.06957308
317.60 0.06976705
317.70 0.06996077
317.80 0.07015423
317.90 0.07033947
318.00 0.07054526
318.10 0.07073594
318.20 0.07092637
318.30 0.07111655
318.40 0.07130874
318.50 0.07150709
318.60 0.07170969
318.70 0.07189017
318.80 0.07210681
318.90 0.07228506
319.00 0.07249492
319.10 0.0726917
319.20 0.07288951
319.30 0.0730907
319.40 0.07329163
319.50 0.0734923
319.60 0.07367298
319.70 0.07387313
319.80 0.07407301
319.90 0.07427263
320.00 0.07447788
320.10 0.07468924
320.20 0.07488801
320.30 0.0750871
320.40 0.07530108
320.50 0.07549763
320.60 0.07570763
320.70 0.07591735
320.80 0.07612269
320.90 0.07632331
321.00 0.07652366
321.10 0.07672375
321.20 0.07693909
321.30 0.07714511
321.40 0.07735086
321.50 0.07755633
321.60 0.07776154
321.70 0.07796647
321.80 0.07817103
321.90 0.07837518
322.00 0.0785965
322.10 0.07880536
322.20 0.07901395
322.30 0.07922226
322.40 0.0794303
322.50 0.07963807
322.60 0.07984556
322.70 0.08005279
322.80 0.08027293
322.90 0.08048731
323.00 0.08070141
323.10 0.08091523
323.20 0.08112877
323.30 0.08134203
323.40 0.08155501
323.50 0.08176771
323.60 0.08198014
323.70 0.08219228
323.80 0.08240415
323.90 0.08261574
324.00 0.08283397
324.10 0.08305192
324.20 0.08326958
324.30 0.08349526
324.40 0.08373001
324.50 0.08394905
324.60 0.08416779
324.70 0.08438625
324.80 0.08460443
324.90 0.08482232
325.00 0.08503992
325.10 0.08525725
325.20 0.08547721
325.30 0.08570309
325.40 0.08592868
325.50 0.08615322
325.60 0.08637656
325.70 0.08659961
325.80 0.08682237
325.90 0.08704455
326.00 0.08726611
326.10 0.08748739
326.20 0.08770838
326.30 0.08793284
326.40 0.08816769
326.50 0.08839822
326.60 0.08862845
326.70 0.08885838
326.80 0.08908801
326.90 0.08931735
327.00 0.08954639
327.10 0.08977513
327.20 0.09000358
327.30 0.09023173
327.40 0.09045958
327.50 0.09068714
327.60 0.09091441
327.70 0.09114138
327.80 0.09136806
327.90 0.09159647
328.00 0.09182824
328.10 0.09206147
328.20 0.09229441
328.30 0.09252704
328.40 0.09275937
328.50 0.09299611
328.60 0.09323365
328.70 0.09347088
328.80 0.09370819
328.90 0.09394631
329.00 0.09418412
329.10 0.09442162
329.20 0.09465882
329.30 0.09489571
329.40 0.0951323
329.50 0.09536858
329.60 0.09560456
329.70 0.09584023
329.80 0.0960756
329.90 0.09631067
330.00 0.09654922
330.10 0.09679208
330.20 0.09703463
330.30 0.09727687
330.40 0.09752188
330.50 0.09776994
330.60 0.09801767
330.70 0.09826509
330.80 0.09851219
330.90 0.09875897
331.00 0.09900544
331.10 0.09925159
331.20 0.09949742
331.30 0.09974295
331.40 0.09998815
331.50 0.100229
331.60 0.1004645
331.70 0.1006997
331.80 0.1009533
331.90 0.1012074
332.00 0.1014611
332.10 0.1017145
332.20 0.1019676
332.30 0.1022203
332.40 0.1024727
332.50 0.1027248
332.60 0.1029766
332.70 0.1032281
332.80 0.1034792
332.90 0.1037301
333.00 0.1039806
333.10 0.104233
333.20 0.1044878
333.30 0.1047422
333.40 0.1049964
333.50 0.1052502
333.60 0.1055037
333.70 0.1057569
333.80 0.1060097
333.90 0.1062623
334.00 0.1065145
334.10 0.1067711
334.20 0.1070332
334.30 0.1072949
334.40 0.1075563
334.50 0.1078174
334.60 0.1080782
334.70 0.1083421
334.80 0.1086063
334.90 0.1088652
335.00 0.1091237
335.10 0.1093689
335.20 0.1096329
335.30 0.1098935
335.40 0.1101685
335.50 0.1104198
335.60 0.1106942
335.70 0.1109479
335.80 0.11121
335.90 0.1114751
336.00 0.1117443
336.10 0.1120131
336.20 0.1122816
336.30 0.1125509
336.40 0.1128212
336.50 0.1130913
336.60 0.113361
336.70 0.1136303
336.80 0.1138994
336.90 0.1141688
337.00 0.114439
337.10 0.1147088
337.20 0.1149782
337.30 0.1152475
337.40 0.1155168
337.50 0.1157857
337.60 0.1160542
337.70 0.1163224
337.80 0.1165903
337.90 0.1168625
338.00 0.11714
338.10 0.1174172
338.20 0.117694
338.30 0.1179705
338.40 0.1182478
338.50 0.1185277
338.60 0.1188072
338.70 0.1190864
338.80 0.1193652
338.90 0.1196437
339.00 0.1199218
339.10 0.1201996
339.20 0.120477
339.30 0.1207522
339.40 0.1210244
339.50 0.1213022
339.60 0.1215868
339.70 0.1218712
339.80 0.1221551
339.90 0.1224387
340.00 0.122722
340.10 0.1230049
340.20 0.1232875
340.30 0.1235697
340.40 0.1238515
340.50 0.124133
340.60 0.1244141
340.70 0.1246949
340.80 0.1249827
340.90 0.1252806
341.00 0.1255748
341.10 0.1258646
341.20 0.126154
341.30 0.126443
341.40 0.1267317
341.50 0.12702
341.60 0.127308
341.70 0.1275956
341.80 0.1278828
341.90 0.1281697
342.00 0.1284563
342.10 0.1287424
342.20 0.1290313
342.30 0.1293253
342.40 0.1296196
342.50 0.1299168
342.60 0.1302137
342.70 0.1305102
342.80 0.1308063
342.90 0.1311021
343.00 0.131397
343.10 0.1316908
343.20 0.1319843
343.30 0.1322774
343.40 0.1325737
343.50 0.1328747
343.60 0.1331754
343.70 0.1334757
343.80 0.1337757
343.90 0.1340752
344.00 0.1343755
344.10 0.1346768
344.20 0.1349777
344.30 0.1352782
344.40 0.1355754
344.50 0.1358678
344.60 0.1361606
344.70 0.1364811
344.80 0.1367724
344.90 0.1370789
345.00 0.1373896
345.10 0.1376946
345.20 0.1379972
345.30 0.1382967
345.40 0.1385957
345.50 0.1389027
345.60 0.1392159
345.70 0.1395235
345.80 0.1398308
345.90 0.1401377
346.00 0.1404442
346.10 0.1407503
346.20 0.1410601
346.30 0.1413753
346.40 0.14169
346.50 0.1420044
346.60 0.1423184
346.70 0.1426321
346.80 0.1429453
346.90 0.1432581
347.00 0.1435706
347.10 0.1438827
347.20 0.144197
347.30 0.1445148
347.40 0.1448321
347.50 0.1451491
347.60 0.1454657
347.70 0.1457819
347.80 0.1460977
347.90 0.1464131
348.00 0.1467281
348.10 0.1470428
348.20 0.147357
348.30 0.1476709
348.40 0.1479844
348.50 0.1482975
348.60 0.1486102
348.70 0.1489303
348.80 0.1492548
348.90 0.1495822
349.00 0.1499092
349.10 0.1502358
349.20 0.1505619
349.30 0.1508877
349.40 0.1512131
349.50 0.1515381
349.60 0.1518627
349.70 0.1521869
349.80 0.1525107
349.90 0.1528341
350.00 0.1531571
350.10 0.1534797
350.20 0.1538019
350.30 0.1541273
350.40 0.1544575
350.50 0.1547872
350.60 0.1551166
350.70 0.1554455
350.80 0.1557741
350.90 0.1561022
351.00 0.1564299
351.10 0.1567573
351.20 0.1570842
351.30 0.1574108
351.40 0.1577401
351.50 0.1580747
351.60 0.1584088
351.70 0.1587426
351.80 0.159076
351.90 0.1594089
352.00 0.1597414
352.10 0.1600736
352.20 0.1604196
352.30 0.1607635
352.40 0.1611023
352.50 0.1614408
352.60 0.1617788
352.70 0.1621165
352.80 0.1624537
352.90 0.1627905
353.00 0.1631269
353.10 0.1634629
353.20 0.1637985
353.30 0.1641337
353.40 0.1644685
353.50 0.1648115
353.60 0.1651562
353.70 0.1655005
353.80 0.1658443
353.90 0.1661888
354.00 0.1665348
354.10 0.1668802
354.20 0.1672253
354.30 0.16757
354.40 0.1679142
354.50 0.1682581
354.60 0.1686015
354.70 0.1689445
354.80 0.1692897
354.90 0.1696384
355.00 0.1699866
355.10 0.1703344
355.20 0.1706817
355.30 0.1710325
355.40 0.1713828
355.50 0.1717327
355.60 0.1720822
355.70 0.172437
355.80 0.172794
355.90 0.1731482
356.00 0.1735038
356.10 0.1738605
356.20 0.1742167
356.30 0.1745725
356.40 0.1749279
356.50 0.1752829
356.60 0.1756374
356.70 0.1759915
356.80 0.1763452
356.90 0.1766984
357.00 0.1770513
357.10 0.1774037
357.20 0.1777557
357.30 0.1781072
357.40 0.1784616
357.50 0.1788212
357.60 0.1791804
357.70 0.1795392
357.80 0.1799017
357.90 0.1802638
358.00 0.1806284
358.10 0.1809934
358.20 0.1813579
358.30 0.181722
358.40 0.1820856
358.50 0.1824488
358.60 0.1828116
358.70 0.1831739
358.80 0.1835359
358.90 0.1838973
359.00 0.1842592
359.10 0.1846222
359.20 0.1849852
359.30 0.1853508
359.40 0.1857159
359.50 0.1860879
359.60 0.1864612
359.70 0.1868341
359.80 0.1872045
359.90 0.1875744
360.00 0.1879447
360.10 0.188316
360.20 0.1886868
360.30 0.1890571
360.40 0.189427
360.50 0.1897965
360.60 0.1901672
360.70 0.1905425
360.80 0.1909173
360.90 0.1912916
361.00 0.1916666
361.10 0.1920322
361.20 0.192415
361.30 0.192789
361.40 0.1931544
361.50 0.1935301
361.60 0.1939157
361.70 0.1942932
361.80 0.19467
361.90 0.1950458
362.00 0.1954212
362.10 0.195798
362.20 0.1961762
362.30 0.1965565
362.40 0.1969363
362.50 0.1973157
362.60 0.1976947
362.70 0.1980849
362.80 0.1984575
362.90 0.1988407
363.00 0.1992233
363.10 0.1996138
363.20 0.200004
363.30 0.2003942
363.40 0.2007575
363.50 0.2011604
363.60 0.2015428
363.70 0.2019247
363.80 0.2023195
363.90 0.2027088
364.00 0.2030976
364.10 0.203486
364.20 0.2038739
364.30 0.204263
364.40 0.2046521
364.50 0.2050222
364.60 0.2054116
364.70 0.2058006
364.80 0.2061892
364.90 0.2065922
365.00 0.2069947
365.10 0.2073703
365.20 0.2077587
365.30 0.2081598
365.40 0.2085473
365.50 0.2089475
365.60 0.2093472
365.70 0.2097357
365.80 0.2101237
365.90 0.2105187
366.00 0.2109151
366.10 0.2113166
366.20 0.2117176
366.30 0.2121182
366.40 0.2125183
366.50 0.2129055
366.60 0.2133187
366.70 0.2137185
366.80 0.2141178
366.90 0.2145174
367.00 0.2149181
367.10 0.2153183
367.20 0.215718
367.30 0.2161172
367.40 0.216516
367.50 0.2169188
367.60 0.2173223
367.70 0.2177252
367.80 0.2181278
367.90 0.2185298
368.00 0.2189314
368.10 0.2193274
368.20 0.2197361
368.30 0.2201444
368.40 0.2205523
368.50 0.2209597
368.60 0.2213666
368.70 0.2217731
368.80 0.2221791
368.90 0.2225949
369.00 0.2230084
369.10 0.2234162
369.20 0.2238175
369.30 0.2242302
369.40 0.2246424
369.50 0.2250541
369.60 0.2254713
369.70 0.225888
369.80 0.226302
369.90 0.2267156
370.00 0.2271286
370.10 0.2275352
370.20 0.2279519
370.30 0.2283684
370.40 0.2287846
370.50 0.229187
370.60 0.2296152
370.70 0.2300349
370.80 0.2304463
370.90 0.2308572
371.00 0.231273
371.10 0.2316883
371.20 0.2321105
371.30 0.2325322
371.40 0.2329415
371.50 0.2333628
371.60 0.2337836
371.70 0.234204
371.80 0.2346238
371.90 0.2350432
372.00 0.2354715
372.10 0.2358902
372.20 0.2363188
372.30 0.2367469
372.40 0.2371744
372.50 0.2376015
372.60 0.2380281
372.70 0.2384541
372.80 0.2388686
372.90 0.2392825
373.00 0.239714
373.10 0.2401451
373.20 0.240573
373.30 0.2410003
373.40 0.2414398
373.50 0.2418536
373.60 0.2422921
373.70 0.2427049
373.80 0.2431384
373.90 0.2435794
374.00 0.2440096
374.10 0.2444393
374.20 0.2448685
374.30 0.2452973
374.40 0.2457318
374.50 0.2461603
374.60 0.2465951
374.70 0.2470295
374.80 0.2474635
374.90 0.2478969
375.00 0.2483326
375.10 0.2487678
375.20 0.2492025
375.30 0.2496522
375.40 0.2501014
375.50 0.2505501
375.60 0.2509982
375.70 0.2514459
375.80 0.251893
375.90 0.2523396
376.00 0.2526989
376.10 0.2531604
376.20 0.2536225
376.30 0.254084
376.40 0.254545
376.50 0.2549729
376.60 0.2553515
376.70 0.2557296
376.80 0.2561398
376.90 0.2565821
377.00 0.2570238
377.10 0.2574651
377.20 0.2579142
377.30 0.2583943
377.40 0.2588739
377.50 0.2593529
377.60 0.2598065
377.70 0.2602595
377.80 0.2607121
377.90 0.2611641
378.00 0.2616203
378.10 0.2620527
378.20 0.2624843
378.30 0.2629155
378.40 0.2633461
378.50 0.2637763
378.60 0.264206
378.70 0.2646351
378.80 0.2650638
378.90 0.2655477
379.00 0.2661343
379.10 0.2665823
379.20 0.2670298
379.30 0.2674594
379.40 0.2678711
379.50 0.2682824
379.60 0.2687189
379.70 0.2691889
379.80 0.2696415
379.90 0.2700935
380.00 0.2705451
380.10 0.2709961
380.20 0.2714466
380.30 0.2718966
380.40 0.2723461
380.50 0.272795
380.60 0.2733873
380.70 0.2738514
380.80 0.2743151
380.90 0.2747782
381.00 0.2752407
381.10 0.2757028
381.20 0.2761374
381.30 0.276595
381.40 0.2770609
381.50 0.2775364
381.60 0.2780072
381.70 0.2784686
381.80 0.2789225
381.90 0.2793804
382.00 0.2798378
382.10 0.2802946
382.20 0.2807509
382.30 0.2812068
382.40 0.2816514
382.50 0.2820794
382.60 0.282507
382.70 0.2830137
382.80 0.2835459
382.90 0.284014
383.00 0.2844816
383.10 0.2849487
383.20 0.2854252
383.30 0.2859387
383.40 0.2863923
383.50 0.2867563
383.60 0.2873791
383.70 0.2878284
383.80 0.2882772
383.90 0.2887255
384.00 0.2891732
384.10 0.2896205
384.20 0.2900673
384.30 0.2905135
384.40 0.2909943
384.50 0.2915096
384.60 0.2920243
384.70 0.2925385
384.80 0.2930284
384.90 0.2934501
385.00 0.2939097
385.10 0.2943739
385.20 0.294962
385.30 0.2954113
385.40 0.2958631
385.50 0.2963176
385.60 0.2967715
385.70 0.2972249
385.80 0.2976957
385.90 0.2982332
386.00 0.2987598
386.10 0.2992727
386.20 0.2997562
386.30 0.3002391
386.40 0.3005755
386.50 0.301149
386.60 0.3015653
386.70 0.3019984
386.80 0.3024898
386.90 0.3030984
387.00 0.3035946
387.10 0.3040256
387.20 0.3044383
387.30 0.3048861
387.40 0.3055489
387.50 0.3059474
387.60 0.3064201
387.70 0.3069066
387.80 0.3073926
387.90 0.3078781
388.00 0.3083422
388.10 0.3088422
388.20 0.3094133
388.30 0.3099216
388.40 0.3104294
388.50 0.3109181
388.60 0.3113756
388.70 0.3117602
388.80 0.3122632
388.90 0.3128307
389.00 0.3132855
389.10 0.3137566
389.20 0.3143092
389.30 0.3147506
389.40 0.3151847
389.50 0.3156925
389.60 0.3162602
389.70 0.3166833
389.80 0.3171913
389.90 0.3176987
390.00 0.3182055
390.10 0.3187117
390.20 0.3192174
390.30 0.3197145
390.40 0.3202019
390.50 0.3206888
390.60 0.3211751
390.70 0.3216609
390.80 0.3221471
390.90 0.3226336
391.00 0.3232865
391.10 0.3237921
391.20 0.324287
391.30 0.3247573
391.40 0.3252431
391.50 0.3257282
391.60 0.3262129
391.70 0.326697
391.80 0.3271805
391.90 0.3276604
392.00 0.3281568
392.10 0.3286839
392.20 0.3292179
392.30 0.3297495
392.40 0.33021
392.50 0.3307434
392.60 0.3313006
392.70 0.3317774
392.80 0.3321793
392.90 0.3327959
393.00 0.3333546
393.10 0.3338813
393.20 0.3343741
393.30 0.3348874
393.40 0.3353956
393.50 0.3357646
393.60 0.3363256
393.70 0.3368111
393.80 0.3374455
393.90 0.3379554
394.00 0.3384364
394.10 0.3387833
394.20 0.339302
394.30 0.3398692
394.40 0.3404915
394.50 0.340942
394.60 0.3414013
394.70 0.3418799
394.80 0.3424326
394.90 0.3429845
395.00 0.3435322
395.10 0.3440609
395.20 0.3445506
395.30 0.3450372
395.40 0.3455234
395.50 0.3460617
395.60 0.3466189
395.70 0.347169
395.80 0.3477008
395.90 0.3482321
396.00 0.3487485
396.10 0.3491542
396.20 0.3496513
396.30 0.350269
396.40 0.3507257
396.50 0.3512968
396.60 0.3517553
396.70 0.3523283
396.80 0.3528052
396.90 0.3534044
397.00 0.3538747
397.10 0.3544413
397.20 0.355008
397.30 0.3555389
397.40 0.3560615
397.50 0.3565836
397.60 0.3571061
397.70 0.3576374
397.80 0.3581682
397.90 0.3586784
398.00 0.3591336
398.10 0.3595884
398.20 0.3600867
398.30 0.3606341
398.40 0.3611795
398.50 0.361681
398.60 0.3622059
398.70 0.3627462
398.80 0.3632877
398.90 0.3638626
399.00 0.3644999
399.10 0.3648281
399.20 0.365406
399.30 0.3659833
399.40 0.3665599
399.50 0.3671359
399.60 0.3676712
399.70 0.3681911
399.80 0.3687104
399.90 0.3692292
400.00 0.3697466
400.10 0.370239
400.20 0.3707654
400.30 0.3712676
400.40 0.3717771
400.50 0.3723182
400.60 0.3729128
400.70 0.3734947
400.80 0.3739159
400.90 0.3745323
401.00 0.3751283
401.10 0.3756563
401.20 0.3761323
401.30 0.3767403
401.40 0.3772463
401.50 0.377706
401.60 0.378171
401.70 0.3788225
401.80 0.3793745
401.90 0.3798968
402.00 0.3804696
402.10 0.3809104
402.20 0.3815923
402.30 0.3820883
402.40 0.382598
402.50 0.3831984
402.60 0.3836835
402.70 0.3841215
402.80 0.3847994
402.90 0.3853464
403.00 0.385806
403.10 0.3863952
403.20 0.3868787
403.30 0.38752
403.40 0.3880626
403.50 0.3886173
403.60 0.389169
403.70 0.3895712
403.80 0.3902647
403.90 0.3908078
404.00 0.3912756
404.10 0.391821
404.20 0.392382
404.30 0.3929423
404.40 0.3935118
404.50 0.3940612
404.60 0.3946197
404.70 0.3951776
404.80 0.3956525
404.90 0.3962917
405.00 0.3968166
405.10 0.3973727
405.20 0.397943
405.30 0.3985126
405.40 0.3990664
405.50 0.3996195
405.60 0.4001721
405.70 0.4007241
405.80 0.4012754
405.90 0.4018262
406.00 0.4023594
406.10 0.4028921
406.20 0.4034241
406.30 0.4039556
406.40 0.4044859
406.50 0.4051205
406.60 0.4056652
406.70 0.4061713
406.80 0.4067201
406.90 0.4073246
407.00 0.4078902
407.10 0.4084552
407.20 0.4090195
407.30 0.4095833
407.40 0.4101464
407.50 0.410709
407.60 0.4112709
407.70 0.4118323
407.80 0.4123931
407.90 0.4129512
408.00 0.4134427
408.10 0.4140066
408.20 0.4146213
408.30 0.4151755
408.40 0.4157291
408.50 0.4161521
408.60 0.4167517
408.70 0.4173506
408.80 0.4179406
408.90 0.4184729
409.00 0.4190364
409.10 0.4195993
409.20 0.4201616
409.30 0.4207233
409.40 0.4212859
409.50 0.4218968
409.60 0.4225071
409.70 0.4231084
409.80 0.4236753
409.90 0.4242369
410.00 0.4246404
410.10 0.4253062
410.20 0.4258623
410.30 0.4263905
410.40 0.4269399
410.50 0.4275572
410.60 0.4281739
410.70 0.4287773
410.80 0.4293293
410.90 0.4298807
411.00 0.4304375
411.10 0.4309958
411.20 0.4315536
411.30 0.4320998
411.40 0.4326044
411.50 0.4332029
411.60 0.4338008
411.70 0.434382
411.80 0.4348982
411.90 0.4354762
412.00 0.4360951
412.10 0.4367652
412.20 0.4373309
412.30 0.4378823
412.40 0.4383795
412.50 0.4389432
412.60 0.4396174
412.70 0.4401612
412.80 0.4406721
412.90 0.4412461
413.00 0.4418155
413.10 0.4423799
413.20 0.4429438
413.30 0.443507
413.40 0.4440697
413.50 0.4446481
413.60 0.4452831
413.70 0.4458913
413.80 0.4464989
413.90 0.4471058
414.00 0.4476874
414.10 0.4481903
414.20 0.4487667
414.30 0.4493506
414.40 0.449975
414.50 0.4505529
414.60 0.4511315
414.70 0.4517334
414.80 0.4523225
414.90 0.452872
415.00 0.4534209
415.10 0.4539693
415.20 0.4545317
415.30 0.4551402
415.40 0.455748
415.50 0.4563545
415.60 0.4569391
