# Version 2.1 - nm, norm@500 to 1, cut digits, bergeron_He_10000_85.dat_10000
# Wavelength(nm)  Flambda(ergs/cm^s/s/nm)
300.00 2.000467
300.10 2.000059
300.20 1.999638
300.30 1.999232
300.40 1.998925
300.50 1.998618
300.60 1.998311
300.70 1.998003
300.80 1.997696
300.90 1.997389
301.00 1.997082
301.10 1.996775
301.20 1.996467
301.30 1.99616
301.40 1.995853
301.50 1.995545
301.60 1.995238
301.70 1.994931
301.80 1.994623
301.90 1.994316
302.00 1.994008
302.10 1.993709
302.20 1.993411
302.30 1.993113
302.40 1.992815
302.50 1.992517
302.60 1.992219
302.70 1.991921
302.80 1.991623
302.90 1.991325
303.00 1.991027
303.10 1.990728
303.20 1.99043
303.30 1.990126
303.40 1.989777
303.50 1.989427
303.60 1.989077
303.70 1.988727
303.80 1.988378
303.90 1.988028
304.00 1.987678
304.10 1.987329
304.20 1.986979
304.30 1.98663
304.40 1.98628
304.50 1.985931
304.60 1.985604
304.70 1.985281
304.80 1.984957
304.90 1.984634
305.00 1.98431
305.10 1.983986
305.20 1.983663
305.30 1.983339
305.40 1.983016
305.50 1.982692
305.60 1.982368
305.70 1.982045
305.80 1.981721
305.90 1.981397
306.00 1.981074
306.10 1.98075
306.20 1.980427
306.30 1.980103
306.40 1.979756
306.50 1.979403
306.60 1.97905
306.70 1.978696
306.80 1.978343
306.90 1.97799
307.00 1.977637
307.10 1.977284
307.20 1.976931
307.30 1.976578
307.40 1.976225
307.50 1.975872
307.60 1.975519
307.70 1.975166
307.80 1.974813
307.90 1.97446
308.00 1.974107
308.10 1.973755
308.20 1.973402
308.30 1.973049
308.40 1.972697
308.50 1.972344
308.60 1.971992
308.70 1.971639
308.80 1.971293
308.90 1.970962
309.00 1.970544
309.10 1.970127
309.20 1.969709
309.30 1.969291
309.40 1.968883
309.50 1.968533
309.60 1.968182
309.70 1.967832
309.80 1.967482
309.90 1.967131
310.00 1.966781
310.10 1.966431
310.20 1.966081
310.30 1.96573
310.40 1.965354
310.50 1.964949
310.60 1.964544
310.70 1.96414
310.80 1.963735
310.90 1.963331
311.00 1.963011
311.10 1.962692
311.20 1.962373
311.30 1.962044
311.40 1.96169
311.50 1.961336
311.60 1.960983
311.70 1.960629
311.80 1.960275
311.90 1.959921
312.00 1.959568
312.10 1.959214
312.20 1.95868
312.30 1.958203
312.40 1.957921
312.50 1.957438
312.60 1.957124
312.70 1.95681
312.80 1.956496
312.90 1.956129
313.00 1.955705
313.10 1.95528
313.20 1.954856
313.30 1.954446
313.40 1.954076
313.50 1.953706
313.60 1.953336
313.70 1.952966
313.80 1.952596
313.90 1.952227
314.00 1.951857
314.10 1.951433
314.20 1.95101
314.30 1.950586
314.40 1.950163
314.50 1.94974
314.60 1.949317
314.70 1.948894
314.80 1.948451
314.90 1.947968
315.00 1.947505
315.10 1.947128
315.20 1.946751
315.30 1.946375
315.40 1.945998
315.50 1.945621
315.60 1.945245
315.70 1.944868
315.80 1.944492
315.90 1.944115
316.00 1.943739
316.10 1.943363
316.20 1.942987
316.30 1.942327
316.40 1.941951
316.50 1.941575
316.60 1.940916
316.70 1.940541
316.80 1.940166
316.90 1.939791
317.00 1.939416
317.10 1.939041
317.20 1.938666
317.30 1.938418
317.40 1.938123
317.50 1.937697
317.60 1.937271
317.70 1.936845
317.80 1.936419
317.90 1.935941
318.00 1.935327
318.10 1.934954
318.20 1.93458
318.30 1.934206
318.40 1.933833
318.50 1.933459
318.60 1.932867
318.70 1.932298
318.80 1.932121
318.90 1.931552
319.00 1.931034
319.10 1.930662
319.20 1.930263
319.30 1.929792
319.40 1.929321
319.50 1.92885
319.60 1.928774
319.70 1.928304
319.80 1.927833
319.90 1.927363
320.00 1.92694
320.10 1.926569
320.20 1.926047
320.30 1.925538
320.40 1.925056
320.50 1.924796
320.60 1.924159
320.70 1.923789
320.80 1.923418
320.90 1.923048
321.00 1.922677
321.10 1.922307
321.20 1.921739
321.30 1.921305
321.40 1.920871
321.50 1.920438
321.60 1.920004
321.70 1.919571
321.80 1.91913
321.90 1.918679
322.00 1.918426
322.10 1.917984
322.20 1.917543
322.30 1.917102
322.40 1.916662
322.50 1.916221
322.60 1.915781
322.70 1.91534
322.80 1.914731
322.90 1.914272
323.00 1.913813
323.10 1.913354
323.20 1.912895
323.30 1.912436
323.40 1.911978
323.50 1.91152
323.60 1.911062
323.70 1.910604
323.80 1.910146
323.90 1.909689
324.00 1.909234
324.10 1.90878
324.20 1.908326
324.30 1.907864
324.40 1.907398
324.50 1.90695
324.60 1.906503
324.70 1.906055
324.80 1.905608
324.90 1.905161
325.00 1.904715
325.10 1.904268
325.20 1.90383
325.30 1.903408
325.40 1.902987
325.50 1.902533
325.60 1.90204
325.70 1.901548
325.80 1.901055
325.90 1.900604
326.00 1.900199
326.10 1.899794
326.20 1.899389
326.30 1.899007
326.40 1.898691
326.50 1.898226
326.60 1.897761
326.70 1.897296
326.80 1.896832
326.90 1.896368
327.00 1.895904
327.10 1.89544
327.20 1.894977
327.30 1.894513
327.40 1.89405
327.50 1.893587
327.60 1.893125
327.70 1.892662
327.80 1.8922
327.90 1.891652
328.00 1.891089
328.10 1.890619
328.20 1.89015
328.30 1.88968
328.40 1.889211
328.50 1.888672
328.60 1.888115
328.70 1.88756
328.80 1.887035
328.90 1.8866
329.00 1.886165
329.10 1.88573
329.20 1.885295
329.30 1.884861
329.40 1.884426
329.50 1.883992
329.60 1.883558
329.70 1.883124
329.80 1.882691
329.90 1.882257
330.00 1.881801
330.10 1.881319
330.20 1.880836
330.30 1.880354
330.40 1.879874
330.50 1.879397
330.60 1.878921
330.70 1.878444
330.80 1.877968
330.90 1.877492
331.00 1.877017
331.10 1.876541
331.20 1.876066
331.30 1.875591
331.40 1.875116
331.50 1.874627
331.60 1.874119
331.70 1.873612
331.80 1.873132
331.90 1.872653
332.00 1.872174
332.10 1.871695
332.20 1.871217
332.30 1.870738
332.40 1.87026
332.50 1.869783
332.60 1.869305
332.70 1.868828
332.80 1.868351
332.90 1.867874
333.00 1.867398
333.10 1.866908
333.20 1.866402
333.30 1.865896
333.40 1.865391
333.50 1.864886
333.60 1.864381
333.70 1.863876
333.80 1.863372
333.90 1.862868
334.00 1.862364
334.10 1.861853
334.20 1.861333
334.30 1.860813
334.40 1.860293
334.50 1.859774
334.60 1.859255
334.70 1.858689
334.80 1.858185
334.90 1.857849
335.00 1.857513
335.10 1.856795
335.20 1.856193
335.30 1.85587
335.40 1.855269
335.50 1.854731
335.60 1.854383
335.70 1.853808
335.80 1.853461
335.90 1.853
336.00 1.852401
336.10 1.851802
336.20 1.851203
336.30 1.850681
336.40 1.85025
336.50 1.84982
336.60 1.84939
336.70 1.848961
336.80 1.848531
336.90 1.848024
337.00 1.847423
337.10 1.846823
337.20 1.846223
337.30 1.845661
337.40 1.845153
337.50 1.844646
337.60 1.84414
337.70 1.843633
337.80 1.843127
337.90 1.842662
338.00 1.842247
338.10 1.841832
338.20 1.841417
338.30 1.841002
338.40 1.840555
338.50 1.840026
338.60 1.839498
338.70 1.83897
338.80 1.838442
338.90 1.837915
339.00 1.837388
339.10 1.836861
339.20 1.836335
339.30 1.835787
339.40 1.835209
339.50 1.83466
339.60 1.834147
339.70 1.833634
339.80 1.833121
339.90 1.832609
340.00 1.832097
340.10 1.831585
340.20 1.831073
340.30 1.830562
340.40 1.830051
340.50 1.829541
340.60 1.82903
340.70 1.82852
340.80 1.827984
340.90 1.827411
341.00 1.826889
341.10 1.826429
341.20 1.825969
341.30 1.825509
341.40 1.825049
341.50 1.82459
341.60 1.824131
341.70 1.823672
341.80 1.823146
341.90 1.822537
342.00 1.821929
342.10 1.821321
342.20 1.820865
342.30 1.820323
342.40 1.819699
342.50 1.819206
342.60 1.818713
342.70 1.818221
342.80 1.817728
342.90 1.817236
343.00 1.816758
343.10 1.816297
343.20 1.815836
343.30 1.815375
343.40 1.814868
343.50 1.814293
343.60 1.813719
343.70 1.813145
343.80 1.812571
343.90 1.811998
344.00 1.811474
344.10 1.811021
344.20 1.810569
344.30 1.810117
344.40 1.809616
344.50 1.809045
344.60 1.808289
344.70 1.807958
344.80 1.807149
344.90 1.806818
345.00 1.806193
345.10 1.805624
345.20 1.805124
345.30 1.804723
345.40 1.804322
345.50 1.803838
345.60 1.803259
345.70 1.802692
345.80 1.802125
345.90 1.801558
346.00 1.800992
346.10 1.800426
346.20 1.79988
346.30 1.799362
346.40 1.798844
346.50 1.798327
346.60 1.79781
346.70 1.797293
346.80 1.796777
346.90 1.796261
347.00 1.795745
347.10 1.795229
347.20 1.794713
347.30 1.794194
347.40 1.793676
347.50 1.793158
347.60 1.79264
347.70 1.792123
347.80 1.791606
347.90 1.791089
348.00 1.790572
348.10 1.790056
348.20 1.78954
348.30 1.789025
348.40 1.788509
348.50 1.787994
348.60 1.78748
348.70 1.78684
348.80 1.786224
348.90 1.785699
349.00 1.785174
349.10 1.784649
349.20 1.784124
349.30 1.7836
349.40 1.783075
349.50 1.782552
349.60 1.782028
349.70 1.781505
349.80 1.780982
349.90 1.78046
350.00 1.779938
350.10 1.779416
350.20 1.778894
350.30 1.778359
350.40 1.777805
350.50 1.777252
350.60 1.776698
350.70 1.776145
350.80 1.775593
350.90 1.775041
351.00 1.774489
351.10 1.773937
351.20 1.773386
351.30 1.772835
351.40 1.772275
351.50 1.771699
351.60 1.771122
351.70 1.770547
351.80 1.769971
351.90 1.769396
352.00 1.768822
352.10 1.768247
352.20 1.76784
352.30 1.767393
352.40 1.766864
352.50 1.766334
352.60 1.765805
352.70 1.765276
352.80 1.764748
352.90 1.76422
353.00 1.763692
353.10 1.763164
353.20 1.762637
353.30 1.76211
353.40 1.761584
353.50 1.761009
353.60 1.760423
353.70 1.759837
353.80 1.759251
353.90 1.758683
354.00 1.758146
354.10 1.757609
354.20 1.757073
354.30 1.756536
354.40 1.756
354.50 1.755465
354.60 1.75493
354.70 1.754395
354.80 1.753842
354.90 1.753263
355.00 1.752684
355.10 1.752106
355.20 1.751529
355.30 1.750961
355.40 1.750393
355.50 1.749826
355.60 1.749259
355.70 1.748804
355.80 1.7484
355.90 1.747787
356.00 1.747153
356.10 1.746607
356.20 1.746061
356.30 1.745515
356.40 1.74497
356.50 1.744425
356.60 1.74388
356.70 1.743335
356.80 1.742791
356.90 1.742248
357.00 1.741704
357.10 1.741161
357.20 1.740618
357.30 1.740076
357.40 1.739521
357.50 1.738946
357.60 1.73837
357.70 1.737795
357.80 1.737227
357.90 1.73666
358.00 1.736111
358.10 1.735566
358.20 1.735022
358.30 1.734477
358.40 1.733934
358.50 1.73339
358.60 1.732847
358.70 1.732304
358.80 1.731762
358.90 1.731219
359.00 1.730668
359.10 1.7301
359.20 1.729529
359.30 1.728945
359.40 1.728361
359.50 1.727852
359.60 1.727362
359.70 1.726873
359.80 1.726245
359.90 1.725619
360.00 1.72502
360.10 1.72447
360.20 1.723921
360.30 1.723372
360.40 1.722823
360.50 1.722275
360.60 1.721918
360.70 1.721401
360.80 1.720883
360.90 1.720366
361.00 1.719693
361.10 1.718983
361.20 1.71866
361.30 1.718145
361.40 1.717607
361.50 1.716853
361.60 1.716321
361.70 1.715807
361.80 1.715258
361.90 1.71465
362.00 1.714041
362.10 1.713404
362.20 1.712821
362.30 1.712351
362.40 1.711881
362.50 1.711411
362.60 1.710941
362.70 1.710332
362.80 1.709582
362.90 1.709069
363.00 1.708557
363.10 1.70801
363.20 1.707463
363.30 1.707033
363.40 1.706201
363.50 1.705585
363.60 1.705077
363.70 1.704617
363.80 1.704062
363.90 1.703535
364.00 1.703007
364.10 1.70248
364.20 1.701954
364.30 1.701292
364.40 1.700596
364.50 1.700095
364.60 1.699589
364.70 1.699083
364.80 1.698577
364.90 1.698073
365.00 1.69757
365.10 1.696853
365.20 1.69635
365.30 1.695635
365.40 1.695133
365.50 1.694631
365.60 1.694129
365.70 1.693589
365.80 1.69305
365.90 1.69239
366.00 1.691702
366.10 1.691194
366.20 1.690687
366.30 1.690181
366.40 1.689675
366.50 1.688782
366.60 1.688284
366.70 1.687843
366.80 1.687403
366.90 1.6869
367.00 1.686285
367.10 1.68567
367.20 1.685055
367.30 1.684441
367.40 1.683827
367.50 1.683345
367.60 1.682897
367.70 1.682314
367.80 1.681731
367.90 1.681149
368.00 1.6805
368.10 1.680002
368.20 1.679421
368.30 1.678839
368.40 1.678257
368.50 1.677675
368.60 1.677094
368.70 1.676513
368.80 1.675933
368.90 1.675503
369.00 1.674929
369.10 1.674252
369.20 1.673765
369.30 1.673275
369.40 1.672786
369.50 1.672297
369.60 1.671599
369.70 1.670902
369.80 1.670334
369.90 1.669768
370.00 1.669202
370.10 1.66854
370.20 1.668049
370.30 1.667563
370.40 1.667081
370.50 1.666383
370.60 1.665893
370.70 1.665211
370.80 1.664725
370.90 1.664238
371.00 1.663756
371.10 1.663275
371.20 1.662584
371.30 1.661894
371.40 1.661524
371.50 1.660936
371.60 1.660349
371.70 1.659762
371.80 1.659176
371.90 1.65859
372.00 1.657936
372.10 1.657632
372.20 1.657015
372.30 1.656398
372.40 1.655782
372.50 1.655166
372.60 1.654551
372.70 1.653936
372.80 1.653456
372.90 1.652976
373.00 1.652297
373.10 1.651617
373.20 1.65114
373.30 1.650663
373.40 1.650187
373.50 1.649507
373.60 1.648828
373.70 1.648353
373.80 1.647967
373.90 1.647403
374.00 1.646827
374.10 1.646252
374.20 1.645676
374.30 1.645102
374.40 1.644476
374.50 1.64375
374.60 1.643174
374.70 1.642602
374.80 1.64203
374.90 1.641458
375.00 1.640987
375.10 1.640516
375.20 1.640046
375.30 1.63946
375.40 1.638875
375.50 1.63829
375.60 1.637706
375.70 1.637122
375.80 1.636538
375.90 1.635955
376.00 1.635483
376.10 1.634877
376.20 1.634271
376.30 1.633665
376.40 1.633059
376.50 1.63246
376.60 1.631869
376.70 1.631279
376.80 1.630692
376.90 1.630106
377.00 1.629522
377.10 1.628937
377.20 1.628373
377.30 1.627883
377.40 1.627393
377.50 1.626904
377.60 1.626302
377.70 1.625701
377.80 1.625101
377.90 1.6245
378.00 1.624185
378.10 1.623609
378.20 1.623026
378.30 1.622444
378.40 1.621863
378.50 1.621281
378.60 1.6207
378.70 1.62012
378.80 1.61954
378.90 1.618966
379.00 1.618405
379.10 1.617868
379.20 1.617331
379.30 1.616764
379.40 1.616167
379.50 1.61557
379.60 1.615004
379.70 1.614476
379.80 1.613913
379.90 1.613351
380.00 1.61279
380.10 1.612228
380.20 1.611668
380.30 1.611107
380.40 1.610547
380.50 1.609987
380.60 1.609251
380.70 1.608673
380.80 1.608096
380.90 1.607519
381.00 1.606942
381.10 1.606343
381.20 1.605821
381.30 1.60527
381.40 1.604816
381.50 1.604175
381.60 1.603586
381.70 1.603004
381.80 1.602555
381.90 1.601716
382.00 1.601267
382.10 1.600818
382.20 1.600058
382.30 1.599416
382.40 1.598855
382.50 1.598417
382.60 1.59798
382.70 1.597355
382.80 1.596656
382.90 1.596094
383.00 1.595531
383.10 1.59497
383.20 1.594396
383.30 1.593778
383.40 1.593185
383.50 1.592631
383.60 1.59221
383.70 1.591634
383.80 1.591059
383.90 1.590485
384.00 1.58991
384.10 1.589336
384.20 1.588763
384.30 1.58819
384.40 1.587625
384.50 1.587068
384.60 1.586512
384.70 1.585956
384.80 1.585343
384.90 1.584635
385.00 1.584141
385.10 1.583641
385.20 1.583002
385.30 1.582569
385.40 1.582031
385.50 1.581389
385.60 1.580747
385.70 1.580106
385.80 1.579521
385.90 1.579149
386.00 1.57869
386.10 1.578131
386.20 1.577461
386.30 1.576792
386.40 1.576142
386.50 1.575771
386.60 1.57518
386.70 1.57465
386.80 1.573931
386.90 1.573498
387.00 1.572884
387.10 1.572251
387.20 1.571714
387.30 1.571017
387.40 1.570575
387.50 1.569933
387.60 1.569393
387.70 1.568867
387.80 1.568341
387.90 1.567816
388.00 1.567232
388.10 1.566482
388.20 1.566114
388.30 1.565547
388.40 1.564981
388.50 1.56433
388.60 1.563632
388.70 1.563097
388.80 1.562669
388.90 1.562218
389.00 1.561439
389.10 1.561012
389.20 1.560373
389.30 1.559851
389.40 1.559242
389.50 1.558683
389.60 1.558131
389.70 1.557421
389.80 1.556876
389.90 1.556332
390.00 1.555789
390.10 1.555245
390.20 1.554702
390.30 1.554146
390.40 1.553575
390.50 1.553005
390.60 1.552434
390.70 1.551865
390.80 1.551288
390.90 1.550705
391.00 1.550066
391.10 1.549634
391.20 1.549127
391.30 1.548451
391.40 1.547908
391.50 1.547364
391.60 1.546821
391.70 1.546279
391.80 1.545736
391.90 1.545078
392.00 1.544418
392.10 1.543951
392.20 1.543455
392.30 1.542794
392.40 1.542251
392.50 1.54153
392.60 1.541049
392.70 1.540633
392.80 1.539849
392.90 1.539502
393.00 1.538914
393.10 1.53836
393.20 1.537837
393.30 1.537239
393.40 1.536625
393.50 1.535844
393.60 1.53543
393.70 1.534916
393.80 1.534254
393.90 1.533658
394.00 1.5331
394.10 1.532722
394.20 1.53213
394.30 1.531446
394.40 1.5307
394.50 1.530259
394.60 1.529688
394.70 1.529109
394.80 1.528502
394.90 1.527901
395.00 1.527481
395.10 1.526963
395.20 1.526394
395.30 1.52574
395.40 1.525087
395.50 1.524563
395.60 1.524088
395.70 1.523595
395.80 1.523054
395.90 1.522512
396.00 1.521951
396.10 1.521232
396.20 1.520645
396.30 1.52001
396.40 1.519605
396.50 1.518838
396.60 1.518434
396.70 1.517795
396.80 1.517265
396.90 1.516861
397.00 1.516097
397.10 1.515634
397.20 1.515011
397.30 1.514559
397.40 1.51391
397.50 1.513262
397.60 1.512627
397.70 1.512121
397.80 1.511616
397.90 1.511076
398.00 1.510445
398.10 1.509815
398.20 1.509262
398.30 1.508798
398.40 1.508326
398.50 1.507569
398.60 1.507094
398.70 1.506531
398.80 1.505922
398.90 1.505354
399.00 1.504864
399.10 1.504132
399.20 1.503624
399.30 1.503117
399.40 1.502609
399.50 1.502102
399.60 1.501527
399.70 1.500928
399.80 1.500328
399.90 1.499729
400.00 1.499134
400.10 1.498658
400.20 1.497983
400.30 1.497459
400.40 1.496992
400.50 1.496449
400.60 1.495831
400.70 1.495261
400.80 1.494855
400.90 1.494171
401.00 1.49378
401.10 1.493035
401.20 1.492568
401.30 1.4919
401.40 1.491348
401.50 1.490866
401.60 1.490377
401.70 1.489635
401.80 1.48917
401.90 1.488689
402.00 1.488116
402.10 1.487376
402.20 1.486988
402.30 1.486249
402.40 1.485861
402.50 1.485123
402.60 1.484736
402.70 1.483999
402.80 1.483613
402.90 1.483016
403.00 1.482456
403.10 1.481755
403.20 1.48137
403.30 1.480635
403.40 1.480176
403.50 1.47968
403.60 1.479133
403.70 1.4784
403.80 1.478023
403.90 1.477489
404.00 1.476902
404.10 1.476171
404.20 1.475615
404.30 1.475059
404.40 1.474677
404.50 1.473948
404.60 1.473567
404.70 1.472839
404.80 1.472458
404.90 1.471731
405.00 1.471276
405.10 1.470724
405.20 1.470121
405.30 1.46952
405.40 1.468968
405.50 1.468416
405.60 1.467865
405.70 1.467314
405.80 1.466764
405.90 1.466214
406.00 1.46563
406.10 1.465047
406.20 1.464465
406.30 1.463882
406.40 1.463296
406.50 1.462921
406.60 1.462201
406.70 1.461697
406.80 1.461247
406.90 1.460737
407.00 1.460156
407.10 1.459576
407.20 1.458997
407.30 1.458417
407.40 1.457838
407.50 1.45726
407.60 1.456682
407.70 1.456104
407.80 1.455527
407.90 1.454952
408.00 1.454425
408.10 1.453862
408.20 1.453327
408.30 1.452838
408.40 1.452348
408.50 1.451697
408.60 1.451104
408.70 1.450512
408.80 1.44995
408.90 1.44957
409.00 1.448991
409.10 1.448414
409.20 1.447836
409.30 1.447259
409.40 1.446682
409.50 1.446095
409.60 1.445509
409.70 1.44493
409.80 1.444381
409.90 1.443838
410.00 1.443462
410.10 1.442758
410.20 1.44216
410.30 1.441589
410.40 1.44104
410.50 1.44056
410.60 1.440081
410.70 1.439584
410.80 1.43902
410.90 1.438456
411.00 1.437862
411.10 1.437258
411.20 1.436654
411.30 1.436089
411.40 1.435673
411.50 1.435094
411.60 1.434516
411.70 1.433947
411.80 1.433418
411.90 1.432857
412.00 1.432161
412.10 1.431801
412.20 1.431106
412.30 1.430747
412.40 1.430065
412.50 1.429694
412.60 1.429001
412.70 1.428412
412.80 1.42785
412.90 1.427271
413.00 1.426932
413.10 1.426374
413.20 1.425816
413.30 1.425258
413.40 1.4247
413.50 1.424117
413.60 1.423468
413.70 1.422946
413.80 1.422425
413.90 1.421903
414.00 1.421382
414.10 1.420862
414.20 1.420302
414.30 1.419616
414.40 1.419196
414.50 1.418577
414.60 1.417933
414.70 1.417414
414.80 1.416896
414.90 1.416378
415.00 1.415861
415.10 1.415344
415.20 1.414812
415.30 1.414234
415.40 1.413655
415.50 1.413078
415.60 1.412516
415.70 1.411955
415.80 1.411391
415.90 1.41082
416.00 1.41025
416.10 1.40969
416.20 1.409171
416.30 1.408651
416.40 1.408132
416.50 1.407613
416.60 1.407101
416.70 1.406585
416.80 1.40591
416.90 1.405411
417.00 1.404888
417.10 1.40422
417.20 1.40371
417.30 1.403199
417.40 1.402642
417.50 1.402086
417.60 1.401506
417.70 1.40084
417.80 1.400333
417.90 1.399825
418.00 1.399318
418.10 1.398812
418.20 1.398305
418.30 1.397794
418.40 1.397152
418.50 1.39659
418.60 1.396028
418.70 1.395467
418.80 1.394906
418.90 1.394346
419.00 1.393786
419.10 1.393226
419.20 1.392667
419.30 1.392109
419.40 1.391559
419.50 1.39101
419.60 1.390482
419.70 1.390037
419.80 1.389593
419.90 1.38912
420.00 1.388553
420.10 1.387987
420.20 1.387421
420.30 1.386855
420.40 1.38629
420.50 1.385725
420.60 1.385161
420.70 1.384597
420.80 1.384033
420.90 1.38347
421.00 1.382929
421.10 1.382387
421.20 1.381852
421.30 1.381333
421.40 1.380814
421.50 1.380296
421.60 1.379778
421.70 1.379261
421.80 1.378744
421.90 1.378194
422.00 1.377541
422.10 1.376908
422.20 1.376357
422.30 1.375806
422.40 1.375255
422.50 1.374717
422.60 1.374179
422.70 1.373641
422.80 1.373104
422.90 1.372567
423.00 1.372031
423.10 1.371495
423.20 1.370959
423.30 1.370423
423.40 1.369888
423.50 1.369354
423.60 1.368819
423.70 1.368285
423.80 1.367752
423.90 1.367218
424.00 1.366685
424.10 1.366153
424.20 1.36562
424.30 1.365088
424.40 1.364533
424.50 1.363986
424.60 1.363439
424.70 1.362892
424.80 1.362346
424.90 1.3618
425.00 1.361255
425.10 1.36071
