# Version 2.1 - nm, norm@500 to 1, cut digits, bergeron_He_7000_70.dat_7000
# Wavelength(nm)  Flambda(ergs/cm^s/s/nm)
300.00 0.8870552
300.10 0.887567
300.20 0.8880742
300.30 0.8885861
300.40 0.889135
300.50 0.889683
300.60 0.89023
300.70 0.8907761
300.80 0.8913213
300.90 0.8918656
301.00 0.8924089
301.10 0.8929513
301.20 0.8934928
301.30 0.8940334
301.40 0.8945731
301.50 0.8951119
301.60 0.8956497
301.70 0.8961867
301.80 0.8967227
301.90 0.8972578
302.00 0.8977921
302.10 0.8983386
302.20 0.8988857
302.30 0.8994319
302.40 0.8999772
302.50 0.9005215
302.60 0.9010649
302.70 0.9016075
302.80 0.9021491
302.90 0.9026897
303.00 0.9032295
303.10 0.9037684
303.20 0.9043064
303.30 0.9048425
303.40 0.9053692
303.50 0.9058951
303.60 0.90642
303.70 0.9069441
303.80 0.9074673
303.90 0.9079896
304.00 0.908511
304.10 0.9090316
304.20 0.9095512
304.30 0.91007
304.40 0.9105879
304.50 0.911105
304.60 0.9116158
304.70 0.9121253
304.80 0.9126338
304.90 0.9131415
305.00 0.9136484
305.10 0.9141544
305.20 0.9146595
305.30 0.9151638
305.40 0.9156672
305.50 0.9161697
305.60 0.9166714
305.70 0.9171723
305.80 0.9176723
305.90 0.9181714
306.00 0.9186697
306.10 0.9191672
306.20 0.9196638
306.30 0.9201595
306.40 0.9206673
306.50 0.9211781
306.60 0.921688
306.70 0.9221971
306.80 0.9227053
306.90 0.9232127
307.00 0.9237191
307.10 0.9242248
307.20 0.9247296
307.30 0.9252335
307.40 0.9257366
307.50 0.9262388
307.60 0.9267402
307.70 0.9272407
307.80 0.9277404
307.90 0.9282392
308.00 0.9287372
308.10 0.9292344
308.20 0.9297307
308.30 0.9302261
308.40 0.9307208
308.50 0.9312146
308.60 0.9317075
308.70 0.9321997
308.80 0.9326832
308.90 0.9331437
309.00 0.9336428
309.10 0.9341411
309.20 0.9346385
309.30 0.9351351
309.40 0.935629
309.50 0.936111
309.60 0.9365922
309.70 0.9370726
309.80 0.9375521
309.90 0.9380308
310.00 0.9385087
310.10 0.9389858
310.20 0.9394621
310.30 0.9399376
310.40 0.9404256
310.50 0.9409271
310.60 0.9414278
310.70 0.9419276
310.80 0.9424266
310.90 0.9429248
311.00 0.9433797
311.10 0.9438338
311.20 0.9442871
311.30 0.9447458
311.40 0.9452211
311.50 0.9456955
311.60 0.9461692
311.70 0.9466421
311.80 0.9471141
311.90 0.9475854
312.00 0.9480558
312.10 0.9485255
312.20 0.9489666
312.30 0.9494627
312.40 0.9499996
312.50 0.9503618
312.60 0.9508601
312.70 0.9513577
312.80 0.9518543
312.90 0.9523299
313.00 0.9527826
313.10 0.9532346
313.20 0.9536857
313.30 0.9541409
313.40 0.9546088
313.50 0.9550758
313.60 0.9555421
313.70 0.9560076
313.80 0.9564723
313.90 0.9569363
314.00 0.9573994
314.10 0.9578431
314.20 0.9582861
314.30 0.9587284
314.40 0.9591699
314.50 0.9596106
314.60 0.9600506
314.70 0.9604898
314.80 0.9609631
314.90 0.9614456
315.00 0.9618311
315.10 0.9622946
315.20 0.9627574
315.30 0.9632194
315.40 0.9636806
315.50 0.964141
315.60 0.9646007
315.70 0.9650443
315.80 0.9654872
315.90 0.9659293
316.00 0.9663706
316.10 0.9667654
316.20 0.9671596
316.30 0.9676444
316.40 0.9681284
316.50 0.9685204
316.60 0.9689117
316.70 0.9693934
316.80 0.9698744
316.90 0.970309
317.00 0.9707428
317.10 0.971176
317.20 0.9716084
317.30 0.9720395
317.40 0.9724756
317.50 0.9729273
317.60 0.9733782
317.70 0.9738284
317.80 0.9742778
317.90 0.9746169
318.00 0.9751306
318.10 0.9755563
318.20 0.9759813
318.30 0.9764056
318.40 0.9768174
318.50 0.9771952
318.60 0.977666
318.70 0.9780424
318.80 0.9784271
318.90 0.978946
319.00 0.9792772
319.10 0.9797406
319.20 0.9801949
319.30 0.9806246
319.40 0.9810535
319.50 0.9814817
319.60 0.9818589
319.70 0.9822857
319.80 0.9827117
319.90 0.9831371
320.00 0.9835342
320.10 0.983901
320.20 0.9843928
320.30 0.9848037
320.40 0.9852396
320.50 0.9855858
320.60 0.9860809
320.70 0.9864435
320.80 0.9868269
320.90 0.9872326
321.00 0.9876377
321.10 0.988042
321.20 0.988574
321.30 0.9889697
321.40 0.9893647
321.50 0.9897591
321.60 0.9901527
321.70 0.9905457
321.80 0.9909694
321.90 0.9914266
322.00 0.9916994
322.10 0.9921137
322.20 0.9925273
322.30 0.9929402
322.40 0.9933524
322.50 0.9937639
322.60 0.9941747
322.70 0.9945848
322.80 0.9949406
322.90 0.9953365
323.00 0.9957317
323.10 0.9961263
323.20 0.9965201
323.30 0.9969133
323.40 0.9973058
323.50 0.9976977
323.60 0.9980888
323.70 0.9984793
323.80 0.9988691
323.90 0.9992582
324.00 0.9996658
324.10 1.000073
324.20 1.000479
324.30 1.00085
324.40 1.001187
324.50 1.001591
324.60 1.001995
324.70 1.002397
324.80 1.0028
324.90 1.003201
325.00 1.003602
325.10 1.004002
325.20 1.004384
325.30 1.00473
325.40 1.005075
325.50 1.005436
325.60 1.005818
325.70 1.006198
325.80 1.006578
325.90 1.006969
326.00 1.00737
326.10 1.007771
326.20 1.008171
326.30 1.008553
326.40 1.008889
326.50 1.009263
326.60 1.009636
326.70 1.010009
326.80 1.010381
326.90 1.010753
327.00 1.011124
327.10 1.011494
327.20 1.011863
327.30 1.012232
327.40 1.012601
327.50 1.012968
327.60 1.013335
327.70 1.013702
327.80 1.014067
327.90 1.014436
328.00 1.014807
328.10 1.015176
328.20 1.015545
328.30 1.015914
328.40 1.016281
328.50 1.016623
328.60 1.016958
328.70 1.017292
328.80 1.017635
328.90 1.018004
329.00 1.018372
329.10 1.018739
329.20 1.019106
329.30 1.019472
329.40 1.019837
329.50 1.020202
329.60 1.020566
329.70 1.02093
329.80 1.021293
329.90 1.021655
330.00 1.022013
330.10 1.022365
330.20 1.022718
330.30 1.023069
330.40 1.023421
330.50 1.023773
330.60 1.024124
330.70 1.024474
330.80 1.024824
330.90 1.025174
331.00 1.025522
331.10 1.02587
331.20 1.026218
331.30 1.026565
331.40 1.026911
331.50 1.027243
331.60 1.027559
331.70 1.027873
331.80 1.028211
331.90 1.02855
332.00 1.028888
332.10 1.029225
332.20 1.029562
332.30 1.029898
332.40 1.030234
332.50 1.030569
332.60 1.030903
332.70 1.031237
332.80 1.03157
332.90 1.031903
333.00 1.032235
333.10 1.032569
333.20 1.032904
333.30 1.033239
333.40 1.033573
333.50 1.033906
333.60 1.034239
333.70 1.034571
333.80 1.034903
333.90 1.035234
334.00 1.035565
334.10 1.035897
334.20 1.036232
334.30 1.036566
334.40 1.0369
334.50 1.037233
334.60 1.037566
334.70 1.037893
334.80 1.038211
334.90 1.038524
335.00 1.038837
335.10 1.039141
335.20 1.039416
335.30 1.039674
335.40 1.040009
335.50 1.040363
335.60 1.040717
335.70 1.040981
335.80 1.041334
335.90 1.041668
336.00 1.041979
336.10 1.04229
336.20 1.0426
336.30 1.042903
336.40 1.043198
336.50 1.043493
336.60 1.043787
336.70 1.044081
336.80 1.044374
336.90 1.044687
337.00 1.045023
337.10 1.045359
337.20 1.045694
337.30 1.046013
337.40 1.046309
337.50 1.046605
337.60 1.0469
337.70 1.047194
337.80 1.047488
337.90 1.047789
338.00 1.0481
338.10 1.04841
338.20 1.048719
338.30 1.049028
338.40 1.049332
338.50 1.049629
338.60 1.049925
338.70 1.05022
338.80 1.050515
338.90 1.050809
339.00 1.051102
339.10 1.051396
339.20 1.051688
339.30 1.051972
339.40 1.052243
339.50 1.052523
339.60 1.052815
339.70 1.053106
339.80 1.053397
339.90 1.053687
340.00 1.053977
340.10 1.054266
340.20 1.054555
340.30 1.054843
340.40 1.055131
340.50 1.055418
340.60 1.055704
340.70 1.055991
340.80 1.0563
340.90 1.056643
341.00 1.056951
341.10 1.057215
341.20 1.057479
341.30 1.057742
341.40 1.058005
341.50 1.058267
341.60 1.058528
341.70 1.058789
341.80 1.059068
341.90 1.059369
342.00 1.059669
342.10 1.059968
342.20 1.060239
342.30 1.060494
342.40 1.060769
342.50 1.061039
342.60 1.061308
342.70 1.061576
342.80 1.061844
342.90 1.062112
343.00 1.062378
343.10 1.062643
343.20 1.062908
343.30 1.063171
343.40 1.063444
343.50 1.063728
343.60 1.064013
343.70 1.064296
343.80 1.064579
343.90 1.064862
344.00 1.065139
344.10 1.065407
344.20 1.065675
344.30 1.065943
344.40 1.066195
344.50 1.066423
344.60 1.066623
344.70 1.066923
344.80 1.067227
344.90 1.067457
345.00 1.067711
345.10 1.067936
345.20 1.068177
345.30 1.068439
345.40 1.0687
345.50 1.068963
345.60 1.069231
345.70 1.069505
345.80 1.069778
345.90 1.070051
346.00 1.070323
346.10 1.070595
346.20 1.070858
346.30 1.071109
346.40 1.071358
346.50 1.071608
346.60 1.071857
346.70 1.072106
346.80 1.072354
346.90 1.072601
347.00 1.072849
347.10 1.073095
347.20 1.07334
347.30 1.07358
347.40 1.07382
347.50 1.07406
347.60 1.074299
347.70 1.074538
347.80 1.074776
347.90 1.075014
348.00 1.075252
348.10 1.075489
348.20 1.075725
348.30 1.075961
348.40 1.076197
348.50 1.076432
348.60 1.076667
348.70 1.076931
348.80 1.077188
348.90 1.077421
349.00 1.077654
349.10 1.077887
349.20 1.078119
349.30 1.078351
349.40 1.078582
349.50 1.078813
349.60 1.079044
349.70 1.079274
349.80 1.079503
349.90 1.079732
350.00 1.079961
350.10 1.080189
350.20 1.080417
350.30 1.080647
350.40 1.080879
350.50 1.08111
350.60 1.081342
350.70 1.081572
350.80 1.081803
350.90 1.082033
351.00 1.082262
351.10 1.082491
351.20 1.08272
351.30 1.082948
351.40 1.083172
351.50 1.083389
351.60 1.083605
351.70 1.083821
351.80 1.084036
351.90 1.084251
352.00 1.084466
352.10 1.08468
352.20 1.084859
352.30 1.085053
352.40 1.085274
352.50 1.085495
352.60 1.085715
352.70 1.085935
352.80 1.086154
352.90 1.086373
353.00 1.086592
353.10 1.08681
353.20 1.087028
353.30 1.087245
353.40 1.087462
353.50 1.087672
353.60 1.08788
353.70 1.088087
353.80 1.088295
353.90 1.088499
354.00 1.088699
354.10 1.088899
354.20 1.089098
354.30 1.089297
354.40 1.089495
354.50 1.089693
354.60 1.089891
354.70 1.090088
354.80 1.09029
354.90 1.090498
355.00 1.090706
355.10 1.090914
355.20 1.091121
355.30 1.091313
355.40 1.091505
355.50 1.091697
355.60 1.091888
355.70 1.092079
355.80 1.092271
355.90 1.092451
356.00 1.092639
356.10 1.092834
356.20 1.093029
356.30 1.093223
356.40 1.093417
356.50 1.09361
356.60 1.093804
356.70 1.093996
356.80 1.094189
356.90 1.09438
357.00 1.094572
357.10 1.094763
357.20 1.094954
357.30 1.095144
357.40 1.095337
357.50 1.095533
357.60 1.095728
357.70 1.095924
357.80 1.09609
357.90 1.096256
358.00 1.096444
358.10 1.096637
358.20 1.09683
358.30 1.097023
358.40 1.097215
358.50 1.097407
358.60 1.097598
358.70 1.097789
358.80 1.09798
358.90 1.09817
359.00 1.098346
359.10 1.098497
359.20 1.098652
359.30 1.09883
359.40 1.099008
359.50 1.099201
359.60 1.099398
359.70 1.099594
359.80 1.099732
359.90 1.099869
360.00 1.10002
360.10 1.100197
360.20 1.100373
360.30 1.100549
360.40 1.100725
360.50 1.1009
360.60 1.101138
360.70 1.1013
360.80 1.101462
360.90 1.101624
361.00 1.101778
361.10 1.101941
361.20 1.102109
361.30 1.102311
361.40 1.102401
361.50 1.102631
361.60 1.102745
361.70 1.102904
361.80 1.103061
361.90 1.103215
362.00 1.103368
362.10 1.103531
362.20 1.103703
362.30 1.103888
362.40 1.104072
362.50 1.104256
362.60 1.10444
362.70 1.104607
362.80 1.10477
362.90 1.104921
363.00 1.105071
363.10 1.105222
363.20 1.105373
363.30 1.10547
363.40 1.105693
363.50 1.105776
363.60 1.105998
363.70 1.106142
363.80 1.106301
363.90 1.106449
364.00 1.106597
364.10 1.106744
364.20 1.106891
364.30 1.107046
364.40 1.107204
364.50 1.107292
364.60 1.107461
364.70 1.10763
364.80 1.107799
364.90 1.107947
365.00 1.108094
365.10 1.108173
365.20 1.108389
365.30 1.108467
365.40 1.108682
365.50 1.108828
365.60 1.108973
365.70 1.109113
365.80 1.109251
365.90 1.109401
366.00 1.109553
366.10 1.109684
366.20 1.109815
366.30 1.109945
366.40 1.110076
366.50 1.110195
366.60 1.110412
366.70 1.110528
366.80 1.110643
366.90 1.110771
367.00 1.110922
367.10 1.111073
367.20 1.111224
367.30 1.111375
367.40 1.111525
367.50 1.111612
367.60 1.111684
367.70 1.111827
367.80 1.111969
367.90 1.112111
368.00 1.112238
368.10 1.112435
368.20 1.112556
368.30 1.112677
368.40 1.112796
368.50 1.112916
368.60 1.113035
368.70 1.113154
368.80 1.113272
368.90 1.11339
369.00 1.113524
369.10 1.113662
369.20 1.113871
369.30 1.113982
369.40 1.114094
369.50 1.114205
369.60 1.114334
369.70 1.114463
369.80 1.114583
369.90 1.114703
370.00 1.114822
370.10 1.114861
370.20 1.11499
370.30 1.115121
370.40 1.115319
370.50 1.115383
370.60 1.115509
370.70 1.115649
370.80 1.115775
370.90 1.115901
371.00 1.116033
371.10 1.116166
371.20 1.116224
371.30 1.116283
371.40 1.116476
371.50 1.11659
371.60 1.116704
371.70 1.116818
371.80 1.116932
371.90 1.117045
372.00 1.11715
372.10 1.117304
372.20 1.117407
372.30 1.11751
372.40 1.117613
372.50 1.117716
372.60 1.117818
372.70 1.11792
372.80 1.11804
372.90 1.11816
373.00 1.118222
373.10 1.118282
373.20 1.118405
373.30 1.118527
373.40 1.118649
373.50 1.118771
373.60 1.118827
373.70 1.119014
373.80 1.119008
373.90 1.119124
374.00 1.119245
374.10 1.119365
374.20 1.119485
374.30 1.119604
374.40 1.119658
374.50 1.119833
374.60 1.119923
374.70 1.120011
374.80 1.120098
374.90 1.120185
375.00 1.120281
375.10 1.120377
375.20 1.120472
375.30 1.120561
375.40 1.12065
375.50 1.120738
375.60 1.120826
375.70 1.120914
375.80 1.121002
375.90 1.121089
376.00 1.121261
376.10 1.121342
376.20 1.121421
376.30 1.1215
376.40 1.121579
376.50 1.121672
376.60 1.121788
376.70 1.121903
376.80 1.121993
376.90 1.122057
377.00 1.122122
377.10 1.122186
377.20 1.122254
377.30 1.12234
377.40 1.122425
377.50 1.122509
377.60 1.122612
377.70 1.122714
377.80 1.122815
377.90 1.122917
378.00 1.12299
378.10 1.123076
378.20 1.123163
378.30 1.123249
378.40 1.123335
378.50 1.123421
378.60 1.123506
378.70 1.123592
378.80 1.123677
378.90 1.123755
379.00 1.123822
379.10 1.123891
379.20 1.123959
379.30 1.124025
379.40 1.124088
379.50 1.124151
379.60 1.12425
379.70 1.124386
379.80 1.124457
379.90 1.124528
380.00 1.124598
380.10 1.124668
380.20 1.124738
380.30 1.124808
380.40 1.124878
380.50 1.124947
380.60 1.125005
380.70 1.125073
380.80 1.125141
380.90 1.125209
381.00 1.125277
381.10 1.125316
381.20 1.125382
381.30 1.125487
381.40 1.125531
381.50 1.125585
381.60 1.125677
381.70 1.1258
381.80 1.125833
381.90 1.12587
382.00 1.125907
382.10 1.126069
382.20 1.126106
382.30 1.126142
382.40 1.126184
382.50 1.126235
382.60 1.126285
382.70 1.126398
382.80 1.126516
382.90 1.126567
383.00 1.126618
383.10 1.126668
383.20 1.126715
383.30 1.126745
383.40 1.126813
383.50 1.126936
383.60 1.126904
383.70 1.126971
383.80 1.127038
383.90 1.127104
384.00 1.127171
384.10 1.127237
384.20 1.127303
384.30 1.127368
384.40 1.127425
384.50 1.127473
384.60 1.12752
384.70 1.127568
384.80 1.127602
384.90 1.127612
385.00 1.127661
385.10 1.127711
385.20 1.127776
385.30 1.127816
385.40 1.127873
385.50 1.127947
385.60 1.128021
385.70 1.128095
385.80 1.128151
385.90 1.128141
386.00 1.128192
386.10 1.128296
386.20 1.128327
386.30 1.128357
386.40 1.128445
386.50 1.128433
386.60 1.128443
386.70 1.128562
386.80 1.12862
386.90 1.128647
387.00 1.128619
387.10 1.128768
387.20 1.128776
387.30 1.128821
387.40 1.128846
387.50 1.128895
387.60 1.128906
387.70 1.128962
387.80 1.129018
387.90 1.129074
388.00 1.129114
388.10 1.129076
388.20 1.129111
388.30 1.129145
388.40 1.12918
388.50 1.129221
388.60 1.129281
388.70 1.129375
388.80 1.129403
388.90 1.129427
389.00 1.129427
389.10 1.129461
389.20 1.129479
389.30 1.129525
389.40 1.129563
389.50 1.129597
389.60 1.129643
389.70 1.129734
389.80 1.129768
389.90 1.129802
390.00 1.129836
390.10 1.129869
390.20 1.129903
390.30 1.129932
390.40 1.129957
390.50 1.129981
390.60 1.130005
390.70 1.130029
390.80 1.130056
390.90 1.130086
391.00 1.130068
391.10 1.130071
391.20 1.130087
391.30 1.130132
391.40 1.130151
391.50 1.13017
391.60 1.130189
391.70 1.130208
391.80 1.130226
391.90 1.130278
392.00 1.130349
392.10 1.13039
392.20 1.130412
392.30 1.13036
392.40 1.13043
392.50 1.13047
392.60 1.130487
392.70 1.130504
392.80 1.130521
392.90 1.13048
393.00 1.130534
393.10 1.130574
393.20 1.130598
393.30 1.130614
393.40 1.130636
393.50 1.130644
393.60 1.130661
393.70 1.130677
393.80 1.130692
393.90 1.130707
394.00 1.13072
394.10 1.130729
394.20 1.130753
394.30 1.130784
394.40 1.130775
394.50 1.130741
394.60 1.130758
394.70 1.130776
394.80 1.130795
394.90 1.130815
395.00 1.13086
395.10 1.130835
395.20 1.130825
395.30 1.130824
395.40 1.130824
395.50 1.130857
395.60 1.130902
395.70 1.13094
395.80 1.130955
395.90 1.130971
396.00 1.130985
396.10 1.130986
396.20 1.130997
396.30 1.13093
396.40 1.130903
396.50 1.130914
396.60 1.130925
396.70 1.130942
396.80 1.130957
396.90 1.130939
397.00 1.130926
397.10 1.130937
397.20 1.13096
397.30 1.130998
397.40 1.131011
397.50 1.131024
397.60 1.131036
397.70 1.131041
397.80 1.131046
397.90 1.131041
398.00 1.131008
398.10 1.130976
398.20 1.130958
398.30 1.130957
398.40 1.130957
398.50 1.13101
398.60 1.130971
398.70 1.130953
398.80 1.130949
398.90 1.130956
399.00 1.130984
399.10 1.130929
399.20 1.130941
399.30 1.130953
399.40 1.130965
399.50 1.130977
399.60 1.130976
399.70 1.13097
399.80 1.130964
399.90 1.130958
400.00 1.130951
400.10 1.130912
400.20 1.130924
400.30 1.130928
400.40 1.130904
400.50 1.130848
400.60 1.130885
400.70 1.130833
400.80 1.130823
400.90 1.130827
401.00 1.130778
401.10 1.130836
401.20 1.130782
401.30 1.130741
401.40 1.13075
401.50 1.130775
401.60 1.130797
401.70 1.130757
401.80 1.130691
401.90 1.130699
402.00 1.130698
402.10 1.130572
402.20 1.131139
402.30 1.130577
402.40 1.130786
402.50 1.130582
402.60 1.130081
402.70 1.130587
402.80 1.130589
402.90 1.131041
403.00 1.131043
403.10 1.130594
403.20 1.130059
403.30 1.130363
403.40 1.130036
403.50 1.130002
403.60 1.130131
403.70 1.130601
403.80 1.13006
403.90 1.130137
404.00 1.130042
404.10 1.130602
404.20 1.130602
404.30 1.130602
404.40 1.130043
404.50 1.130043
404.60 1.130043
404.70 1.130601
404.80 1.130075
404.90 1.130599
405.00 1.130041
405.10 1.129801
405.20 1.129641
405.30 1.129481
405.40 1.12948
405.50 1.129479
405.60 1.129478
405.70 1.129476
405.80 1.129475
405.90 1.129473
406.00 1.129586
406.10 1.129699
406.20 1.129812
406.30 1.129924
406.40 1.130016
406.50 1.129739
406.60 1.13001
406.70 1.1298
406.80 1.129676
406.90 1.129465
407.00 1.129462
407.10 1.129459
407.20 1.129455
407.30 1.129452
407.40 1.129448
407.50 1.129444
407.60 1.12944
407.70 1.129436
407.80 1.129432
407.90 1.129429
408.00 1.129475
408.10 1.129402
408.20 1.129134
408.30 1.128938
408.40 1.128743
408.50 1.129382
408.60 1.129208
408.70 1.129034
408.80 1.128819
408.90 1.128418
409.00 1.128495
409.10 1.128572
409.20 1.128649
409.30 1.128726
409.40 1.128796
409.50 1.12863
409.60 1.128464
409.70 1.128321
409.80 1.128272
409.90 1.12824
410.00 1.128745
410.10 1.128195
410.20 1.127984
410.30 1.127858
410.40 1.127802
410.50 1.127967
410.60 1.128131
410.70 1.12824
410.80 1.128129
410.90 1.128018
411.00 1.128035
411.10 1.128099
411.20 1.128163
411.30 1.128104
411.40 1.127579
411.50 1.127794
411.60 1.128008
411.70 1.12807
411.80 1.127522
411.90 1.127514
412.00 1.127505
412.10 1.127765
412.20 1.127487
412.30 1.127124
412.40 1.127468
412.50 1.127075
412.60 1.127296
412.70 1.127237
412.80 1.127108
412.90 1.126925
413.00 1.127512
413.10 1.127391
413.20 1.12727
413.30 1.12715
413.40 1.127029
413.50 1.126823
413.60 1.126407
413.70 1.126396
413.80 1.126386
413.90 1.126375
414.00 1.126364
414.10 1.126353
414.20 1.126214
414.30 1.126736
414.40 1.126192
414.50 1.126712
414.60 1.126297
414.70 1.126285
414.80 1.126273
414.90 1.126261
415.00 1.126249
415.10 1.126237
415.20 1.126177
415.30 1.125965
415.40 1.125753
415.50 1.125542
415.60 1.12538
415.70 1.125218
415.80 1.125132
415.90 1.125286
416.00 1.12544
416.10 1.125556
416.20 1.125521
416.30 1.125486
416.40 1.125452
416.50 1.125417
416.60 1.125404
416.70 1.125374
416.80 1.124834
416.90 1.12486
417.00 1.124807
417.10 1.124283
417.20 1.124269
417.30 1.124251
417.40 1.124083
417.50 1.123915
417.60 1.123852
417.70 1.124199
417.80 1.124184
417.90 1.12417
418.00 1.124155
418.10 1.12414
418.20 1.124125
418.30 1.124094
418.40 1.123666
418.50 1.123582
418.60 1.123499
418.70 1.123415
418.80 1.123331
418.90 1.123247
419.00 1.123163
419.10 1.123079
419.20 1.122995
419.30 1.122909
419.40 1.122741
419.50 1.122572
419.60 1.122471
419.70 1.122638
419.80 1.122804
419.90 1.122899
420.00 1.12277
420.10 1.122641
420.20 1.122513
420.30 1.122384
420.40 1.122255
420.50 1.122127
420.60 1.121998
420.70 1.121869
420.80 1.121741
420.90 1.121622
421.00 1.121831
421.10 1.12204
421.20 1.122174
421.30 1.122082
421.40 1.12199
421.50 1.121898
421.60 1.121806
421.70 1.121714
421.80 1.121621
421.90 1.121545
422.00 1.121516
422.10 1.121452
422.20 1.121244
422.30 1.121037
422.40 1.120834
422.50 1.120769
422.60 1.120704
422.70 1.120639
422.80 1.120574
422.90 1.120509
423.00 1.120444
423.10 1.120379
423.20 1.120313
423.30 1.120248
423.40 1.120183
