# Version 2.1 - nm, norm@500 to 1, cut digits, bergeron_He_4750_70.dat_4750
# Wavelength(nm)  Flambda(ergs/cm^s/s/nm)
300.00 0.06946007
300.10 0.06965145
300.20 0.06984296
300.30 0.07003512
300.40 0.07023317
300.50 0.07043093
300.60 0.07062841
300.70 0.07082562
300.80 0.07102255
300.90 0.0712192
301.00 0.07141558
301.10 0.07161168
301.20 0.0718075
301.30 0.07200304
301.40 0.07219832
301.50 0.07239331
301.60 0.07258803
301.70 0.07278248
301.80 0.07297666
301.90 0.07317056
302.00 0.07336418
302.10 0.07356735
302.20 0.07377133
302.30 0.07397501
302.40 0.07417841
302.50 0.07438153
302.60 0.07458436
302.70 0.07478691
302.80 0.07498917
302.90 0.07519115
303.00 0.07539285
303.10 0.07559427
303.20 0.0757954
303.30 0.07599706
303.40 0.07620566
303.50 0.07641398
303.60 0.07662201
303.70 0.07682975
303.80 0.07703719
303.90 0.07724435
304.00 0.07745122
304.10 0.07765779
304.20 0.07786408
304.30 0.07807009
304.40 0.0782758
304.50 0.07848123
304.60 0.07869498
304.70 0.07890938
304.80 0.07912349
304.90 0.0793373
305.00 0.07955082
305.10 0.07976403
305.20 0.07997695
305.30 0.08018958
305.40 0.0804019
305.50 0.08061394
305.60 0.08082567
305.70 0.08103712
305.80 0.08124827
305.90 0.08145913
306.00 0.08166969
306.10 0.08187996
306.20 0.08208994
306.30 0.08229963
306.40 0.08252021
306.50 0.08274382
306.60 0.08296712
306.70 0.08319011
306.80 0.0834128
306.90 0.08363518
307.00 0.08385725
307.10 0.08407901
307.20 0.08430047
307.30 0.08452162
307.40 0.08474246
307.50 0.084963
307.60 0.08518324
307.70 0.08540317
307.80 0.08562279
307.90 0.08584212
308.00 0.08606114
308.10 0.08627986
308.20 0.08649827
308.30 0.08671639
308.40 0.0869342
308.50 0.08715172
308.60 0.08736893
308.70 0.08758584
308.80 0.08780433
308.90 0.08802786
309.00 0.08825799
309.10 0.0884878
309.20 0.0887173
309.30 0.08894648
309.40 0.0891756
309.50 0.08940594
309.60 0.08963595
309.70 0.08986565
309.80 0.09009504
309.90 0.09032411
310.00 0.09055286
310.10 0.09078131
310.20 0.09100944
310.30 0.09123725
310.40 0.09146743
310.50 0.09170018
310.60 0.09193261
310.70 0.09216472
310.80 0.09239652
310.90 0.092628
311.00 0.0928613
311.10 0.09309428
311.20 0.09332694
311.30 0.09356076
311.40 0.09379848
311.50 0.09403588
311.60 0.09427295
311.70 0.0945097
311.80 0.09474613
311.90 0.09498223
312.00 0.09521801
312.10 0.09545347
312.20 0.09569523
312.30 0.09594116
312.40 0.09618127
312.50 0.09641081
312.60 0.09665381
312.70 0.09689648
312.80 0.09713881
312.90 0.09738031
313.00 0.09762093
313.10 0.09786122
313.20 0.09810118
313.30 0.09834246
313.40 0.0985881
313.50 0.0988334
313.60 0.09907837
313.70 0.099323
313.80 0.09956731
313.90 0.09981128
314.00 0.1000549
314.10 0.1003023
314.20 0.1005494
314.30 0.1007961
314.40 0.1010425
314.50 0.1012885
314.60 0.1015343
314.70 0.1017797
314.80 0.1020306
314.90 0.1022854
315.00 0.1025265
315.10 0.1027794
315.20 0.1030319
315.30 0.1032841
315.40 0.103536
315.50 0.1037875
315.60 0.1040387
315.70 0.1042908
315.80 0.1045427
315.90 0.1047941
316.00 0.1050453
316.10 0.1053001
316.20 0.1055546
316.30 0.1058088
316.40 0.1060626
316.50 0.106316
316.60 0.1065851
316.70 0.1068379
316.80 0.1070903
316.90 0.1073504
317.00 0.1076101
317.10 0.1078695
317.20 0.1081286
317.30 0.1083811
317.40 0.1086356
317.50 0.1088961
317.60 0.1091562
317.70 0.109416
317.80 0.1096755
317.90 0.1099408
318.00 0.1101956
318.10 0.1104595
318.20 0.110723
318.30 0.1109861
318.40 0.1112489
318.50 0.1115113
318.60 0.1117796
318.70 0.1120468
318.80 0.112305
318.90 0.1125716
319.00 0.1128361
319.10 0.1131043
319.20 0.1133718
319.30 0.1136382
319.40 0.1139042
319.50 0.1141698
319.60 0.1144407
319.70 0.1147098
319.80 0.1149785
319.90 0.1152469
320.00 0.1155172
320.10 0.1157897
320.20 0.1160503
320.30 0.1163295
320.40 0.1165962
320.50 0.1168719
320.60 0.1171466
320.70 0.1174169
320.80 0.1176887
320.90 0.1179622
321.00 0.1182353
321.10 0.1185081
321.20 0.1187831
321.30 0.1190588
321.40 0.1193342
321.50 0.1196093
321.60 0.119884
321.70 0.1201583
321.80 0.1204358
321.90 0.1207169
322.00 0.1209964
322.10 0.1212754
322.20 0.1215539
322.30 0.1218321
322.40 0.12211
322.50 0.1223875
322.60 0.1226646
322.70 0.1229413
322.80 0.1232197
322.90 0.1235057
323.00 0.1237914
323.10 0.1240766
323.20 0.1243615
323.30 0.124646
323.40 0.1249301
323.50 0.1252138
323.60 0.1254972
323.70 0.1257802
323.80 0.1260628
323.90 0.126345
324.00 0.1266309
324.10 0.1269164
324.20 0.1272015
324.30 0.1274885
324.40 0.1277799
324.50 0.1280692
324.60 0.128358
324.70 0.1286465
324.80 0.1289347
324.90 0.1292224
325.00 0.1295098
325.10 0.1297967
325.20 0.1300846
325.30 0.1303745
325.40 0.1306642
325.50 0.1309554
325.60 0.1312487
325.70 0.1315416
325.80 0.1318342
325.90 0.1321278
326.00 0.1324225
326.10 0.1327169
326.20 0.1330109
326.30 0.1333065
326.40 0.1336074
326.50 0.1339082
326.60 0.1342087
326.70 0.1345087
326.80 0.1348083
326.90 0.1351076
327.00 0.1354064
327.10 0.1357049
327.20 0.136003
327.30 0.1363007
327.40 0.136598
327.50 0.1368949
327.60 0.1371914
327.70 0.1374875
327.80 0.1377833
327.90 0.1380844
328.00 0.1383889
328.10 0.1386902
328.20 0.1389911
328.30 0.1392916
328.40 0.1395916
328.50 0.1398988
328.60 0.1402073
328.70 0.1405153
328.80 0.1408234
328.90 0.1411323
329.00 0.1414408
329.10 0.1417489
329.20 0.1420566
329.30 0.1423639
329.40 0.1426708
329.50 0.1429772
329.60 0.1432833
329.70 0.143589
329.80 0.1438943
329.90 0.1441992
330.00 0.1445078
330.10 0.144821
330.20 0.1451338
330.30 0.1454462
330.40 0.1457581
330.50 0.1460696
330.60 0.1463807
330.70 0.1466913
330.80 0.1470016
330.90 0.1473115
331.00 0.147621
331.10 0.14793
331.20 0.1482387
331.30 0.148547
331.40 0.1488548
331.50 0.1491683
331.60 0.1494887
331.70 0.1498087
331.80 0.1501285
331.90 0.1504479
332.00 0.1507669
332.10 0.1510855
332.20 0.1514036
332.30 0.1517214
332.40 0.1520387
332.50 0.1523556
332.60 0.1526722
332.70 0.1529883
332.80 0.153304
332.90 0.1536193
333.00 0.1539342
333.10 0.1542543
333.20 0.154581
333.30 0.1549073
333.40 0.1552332
333.50 0.1555586
333.60 0.1558836
333.70 0.1562082
333.80 0.1565324
333.90 0.1568562
334.00 0.1571795
334.10 0.1575089
334.20 0.1578458
334.30 0.1581823
334.40 0.1585183
334.50 0.1588539
334.60 0.1591891
334.70 0.1595164
334.80 0.1598441
334.90 0.1601856
335.00 0.1605267
335.10 0.1608585
335.20 0.1611911
335.30 0.1614911
335.40 0.1618943
335.50 0.1621543
335.60 0.1625564
335.70 0.1628477
335.80 0.1631778
335.90 0.1635074
336.00 0.1638366
336.10 0.1641654
336.20 0.1644938
336.30 0.1648324
336.40 0.1651836
336.50 0.1655343
336.60 0.1658846
336.70 0.1662344
336.80 0.1665838
336.90 0.1669203
337.00 0.167241
337.10 0.1675614
337.20 0.1678813
337.30 0.1682134
337.40 0.1685632
337.50 0.1689126
337.60 0.1692615
337.70 0.1696099
337.80 0.169958
337.90 0.1703
338.00 0.1706349
338.10 0.1709694
338.20 0.1713035
338.30 0.1716371
338.40 0.171977
338.50 0.1723329
338.60 0.1726883
338.70 0.1730433
338.80 0.1733978
338.90 0.1737519
339.00 0.1741055
339.10 0.1744587
339.20 0.1748115
339.30 0.1751521
339.40 0.1754754
339.50 0.1758132
339.60 0.1761686
339.70 0.1765236
339.80 0.1768781
339.90 0.1772322
340.00 0.1775858
340.10 0.177939
340.20 0.1782917
340.30 0.178644
340.40 0.1789959
340.50 0.1793473
340.60 0.1796982
340.70 0.1800487
340.80 0.1803854
340.90 0.1807024
341.00 0.1810385
341.10 0.181398
341.20 0.181757
341.30 0.1821156
341.40 0.1824737
341.50 0.1828313
341.60 0.1831885
341.70 0.1835453
341.80 0.1839112
341.90 0.1842882
342.00 0.1846648
342.10 0.1850409
342.20 0.1853884
342.30 0.1857428
342.40 0.1861132
342.50 0.1864637
342.60 0.1868138
342.70 0.1871634
342.80 0.1875126
342.90 0.1878613
343.00 0.1882164
343.10 0.1885792
343.20 0.1889415
343.30 0.1893034
343.40 0.1896668
343.50 0.1900325
343.60 0.1903978
343.70 0.1907626
343.80 0.1911269
343.90 0.1914908
344.00 0.1918681
344.10 0.192265
344.20 0.1926613
344.30 0.1930572
344.40 0.1934387
344.50 0.1937998
344.60 0.1941083
344.70 0.1944652
344.80 0.1948283
344.90 0.1952551
345.00 0.1955984
345.10 0.1959568
345.20 0.1963266
345.30 0.1967132
345.40 0.1970993
345.50 0.1974928
345.60 0.1978763
345.70 0.198232
345.80 0.1985871
345.90 0.1989419
346.00 0.1992962
346.10 0.19965
346.20 0.2000144
346.30 0.2003941
346.40 0.2007734
346.50 0.2011522
346.60 0.2015305
346.70 0.2019083
346.80 0.2022857
346.90 0.2026626
347.00 0.203039
347.10 0.203415
347.20 0.2037972
347.30 0.2041885
347.40 0.2045794
347.50 0.2049697
347.60 0.2053596
347.70 0.205749
347.80 0.206138
347.90 0.2065264
348.00 0.2069144
348.10 0.2073018
348.20 0.2076888
348.30 0.2080754
348.40 0.2084614
348.50 0.208847
348.60 0.2092321
348.70 0.2096048
348.80 0.2099821
348.90 0.2103715
349.00 0.2107606
349.10 0.2111491
349.20 0.2115372
349.30 0.2119247
349.40 0.2123118
349.50 0.2126985
349.60 0.2130846
349.70 0.2134703
349.80 0.2138555
349.90 0.2142402
350.00 0.2146244
350.10 0.2150082
350.20 0.2153915
350.30 0.2157805
350.40 0.2161779
350.50 0.2165748
350.60 0.2169712
350.70 0.2173672
350.80 0.2177627
350.90 0.2181576
351.00 0.2185521
351.10 0.2189461
351.20 0.2193396
351.30 0.2197327
351.40 0.2201271
351.50 0.2205243
351.60 0.220921
351.70 0.2213172
351.80 0.221713
351.90 0.2221083
352.00 0.222503
352.10 0.2228973
352.20 0.2232918
352.30 0.2236915
352.40 0.2240989
352.50 0.2245059
352.60 0.2249123
352.70 0.2253182
352.80 0.2257237
352.90 0.2261286
353.00 0.2265331
353.10 0.2269371
353.20 0.2273405
353.30 0.2277435
353.40 0.228146
353.50 0.2285397
353.60 0.2289309
353.70 0.2293216
353.80 0.2297119
353.90 0.2301105
354.00 0.2305243
354.10 0.2309376
354.20 0.2313505
354.30 0.2317628
354.40 0.2321746
354.50 0.2325859
354.60 0.2329968
354.70 0.2334071
354.80 0.2338083
354.90 0.2341967
355.00 0.2345847
355.10 0.2349721
355.20 0.2353591
355.30 0.2357872
355.40 0.2362147
355.50 0.2366417
355.60 0.2370682
355.70 0.237484
355.80 0.2378947
355.90 0.238272
356.00 0.2386707
356.10 0.2390889
356.20 0.2395066
356.30 0.2399238
356.40 0.2403405
356.50 0.2407567
356.60 0.2411724
356.70 0.2415876
356.80 0.2420023
356.90 0.2424165
357.00 0.2428302
357.10 0.2432433
357.20 0.243656
357.30 0.2440682
357.40 0.2444845
357.50 0.2449084
357.60 0.2453318
357.70 0.2457547
357.80 0.2461872
357.90 0.2466192
358.00 0.2470464
358.10 0.2474719
358.20 0.247897
358.30 0.2483215
358.40 0.2487455
358.50 0.249169
358.60 0.249592
358.70 0.2500144
358.80 0.2504364
358.90 0.2508578
359.00 0.251278
359.10 0.2516962
359.20 0.2521178
359.30 0.2525645
359.40 0.2530106
359.50 0.253413
359.60 0.253804
359.70 0.2541946
359.80 0.2546169
359.90 0.2550387
360.00 0.2554649
360.10 0.2558993
360.20 0.2563332
360.30 0.2567665
360.40 0.2571994
360.50 0.2576317
360.60 0.258076
360.70 0.2585189
360.80 0.2589613
360.90 0.2594032
361.00 0.2597923
361.10 0.260215
361.20 0.2606998
361.30 0.2611457
361.40 0.2614989
361.50 0.2619623
361.60 0.2624091
361.70 0.2628161
361.80 0.2632309
361.90 0.2636599
362.00 0.2640884
362.10 0.2645334
362.20 0.2649805
362.30 0.2654243
362.40 0.2658674
362.50 0.2663101
362.60 0.2667522
362.70 0.2671974
362.80 0.2676734
362.90 0.2680716
363.00 0.2684694
363.10 0.2689323
363.20 0.2693954
363.30 0.2698558
363.40 0.2702846
363.50 0.2706522
363.60 0.2711104
363.70 0.2715546
363.80 0.2720252
363.90 0.2724529
364.00 0.2728801
364.10 0.2733068
364.20 0.2737329
364.30 0.2741816
364.40 0.2746356
364.50 0.275095
364.60 0.2755458
364.70 0.2759961
364.80 0.2764459
364.90 0.2768971
365.00 0.2773478
365.10 0.277798
365.20 0.2782476
365.30 0.2786967
365.40 0.2791453
365.50 0.2795933
365.60 0.2800408
365.70 0.2804878
365.80 0.2809343
365.90 0.2813802
366.00 0.2818255
366.10 0.2822601
366.20 0.2826941
366.30 0.2831277
366.40 0.2835607
366.50 0.2840382
366.60 0.2844867
366.70 0.2849194
366.80 0.2853515
366.90 0.2857957
367.00 0.2862615
367.10 0.2867268
367.20 0.2871916
367.30 0.2876558
367.40 0.2881194
367.50 0.288562
367.60 0.288999
367.70 0.2894666
367.80 0.2899338
367.90 0.2904003
368.00 0.2908601
368.10 0.2912885
368.20 0.2917506
368.30 0.2922126
368.40 0.292674
368.50 0.2931348
368.60 0.2935952
368.70 0.2940549
368.80 0.2945141
368.90 0.2949777
369.00 0.2954131
369.10 0.2958389
369.20 0.2962733
369.30 0.2967405
369.40 0.2972072
369.50 0.2976734
369.60 0.2981554
369.70 0.2986368
369.80 0.2991098
369.90 0.2995822
370.00 0.3000541
370.10 0.300455
370.20 0.3009343
370.30 0.3014156
370.40 0.3018384
370.50 0.3023172
370.60 0.3027983
370.70 0.3032248
370.80 0.3037002
370.90 0.304175
371.00 0.3046555
371.10 0.3051356
371.20 0.3056088
371.30 0.3060813
371.40 0.3064982
371.50 0.3069613
371.60 0.3074239
371.70 0.3078859
371.80 0.3083473
371.90 0.3088083
372.00 0.3092616
372.10 0.3097578
372.20 0.3102287
372.30 0.310699
372.40 0.3111687
372.50 0.3116379
372.60 0.3121065
372.70 0.3125746
372.80 0.313039
372.90 0.3135028
373.00 0.3139724
373.10 0.3144415
373.20 0.3149068
373.30 0.3153717
373.40 0.3158935
373.50 0.3163572
373.60 0.3168204
373.70 0.3173404
373.80 0.3178061
373.90 0.318264
374.00 0.318725
374.10 0.3191854
374.20 0.3196453
374.30 0.3201046
374.40 0.3205778
374.50 0.3211278
374.60 0.3215891
374.70 0.3220479
374.80 0.3225061
374.90 0.3229637
375.00 0.3234763
375.10 0.3239884
375.20 0.3244998
375.30 0.3249781
375.40 0.3254558
375.50 0.325933
375.60 0.3264096
375.70 0.3268857
375.80 0.3273612
375.90 0.3278362
376.00 0.3283363
376.10 0.3288048
376.20 0.3292725
376.30 0.3297396
376.40 0.3302061
376.50 0.3306811
376.60 0.3311689
376.70 0.3316562
376.80 0.332141
376.90 0.3326232
377.00 0.3331049
377.10 0.333586
377.20 0.3340688
377.30 0.3345591
377.40 0.3350489
377.50 0.3355381
377.60 0.3360211
377.70 0.3365036
377.80 0.3369856
377.90 0.337467
378.00 0.3380129
378.10 0.3384984
378.20 0.3389818
378.30 0.3394647
378.40 0.339947
378.50 0.3404287
378.60 0.3409099
378.70 0.3413906
378.80 0.3418706
378.90 0.3423511
379.00 0.3428326
379.10 0.3433219
379.20 0.3438106
379.30 0.3443059
379.40 0.3448079
379.50 0.3453093
379.60 0.3457991
379.70 0.3462766
379.80 0.3467711
379.90 0.3472651
380.00 0.3477585
380.10 0.3482513
380.20 0.3487436
380.30 0.3492352
380.40 0.3497264
380.50 0.3502169
380.60 0.3507549
380.70 0.3512502
380.80 0.351745
380.90 0.3522392
381.00 0.3527329
381.10 0.3531694
381.20 0.3536515
381.30 0.3541584
381.40 0.3546586
381.50 0.3551514
381.60 0.3556687
381.70 0.3562102
381.80 0.3566517
381.90 0.3571803
382.00 0.3577083
382.10 0.3581807
382.20 0.3586087
382.30 0.3591349
382.40 0.3596449
382.50 0.3601309
382.60 0.3606163
382.70 0.3611033
382.80 0.3616109
382.90 0.3621366
383.00 0.3626617
383.10 0.3631862
383.20 0.3636998
383.30 0.364174
383.40 0.364663
383.50 0.3651745
383.60 0.3657007
383.70 0.3661996
383.80 0.3666979
383.90 0.3671956
384.00 0.3676928
384.10 0.3681894
384.20 0.3686855
384.30 0.3691809
384.40 0.3696869
384.50 0.3702032
384.60 0.370719
384.70 0.3712341
384.80 0.3717325
384.90 0.3721929
385.00 0.3726968
385.10 0.3732018
385.20 0.3737605
385.30 0.37428
385.40 0.3747825
385.50 0.3752678
385.60 0.3757526
385.70 0.3762369
385.80 0.376737
385.90 0.3772981
386.00 0.3778245
386.10 0.3783178
386.20 0.3788283
386.30 0.3793382
386.40 0.3798409
386.50 0.3803159
386.60 0.3808741
386.70 0.3814017
386.80 0.381875
386.90 0.3824014
387.00 0.3828817
387.10 0.3833802
387.20 0.3839127
387.30 0.3844797
387.40 0.3849493
387.50 0.3854316
387.60 0.3859541
387.70 0.3864758
387.80 0.3869969
387.90 0.3875175
388.00 0.3880425
388.10 0.3884974
388.20 0.3890134
388.30 0.3895228
388.40 0.3900315
388.50 0.3905528
388.60 0.3910919
388.70 0.3916552
388.80 0.392145
388.90 0.3926398
389.00 0.3931667
389.10 0.3936976
389.20 0.3942378
389.30 0.3947614
389.40 0.3952643
389.50 0.3957691
389.60 0.3962825
389.70 0.3968101
389.80 0.3973252
389.90 0.3978396
390.00 0.3983535
390.10 0.3988669
390.20 0.3993796
390.30 0.3998937
390.40 0.4004093
390.50 0.4009243
390.60 0.4014388
390.70 0.4019527
390.80 0.4024924
390.90 0.403058
391.00 0.4035677
391.10 0.4040745
391.20 0.4045799
391.30 0.4050934
391.40 0.4056199
391.50 0.4061458
391.60 0.4066711
391.70 0.4071958
391.80 0.4077199
391.90 0.4082668
392.00 0.4088165
392.10 0.4093311
392.20 0.4098438
392.30 0.4103432
392.40 0.4108443
392.50 0.4113967
392.60 0.4118979
392.70 0.4124349
392.80 0.4130052
392.90 0.4134793
393.00 0.4140428
393.10 0.4145605
393.20 0.4150359
393.30 0.4156031
393.40 0.4161516
393.50 0.4166389
393.60 0.4171974
393.70 0.4176871
393.80 0.4182181
393.90 0.41873
394.00 0.4192511
394.10 0.4198253
394.20 0.4203464
394.30 0.4208592
394.40 0.4213869
394.50 0.4219303
394.60 0.4224651
394.70 0.423001
394.80 0.4235425
394.90 0.4240805
395.00 0.4245381
395.10 0.4251233
395.20 0.4256508
395.30 0.4261715
395.40 0.4266917
395.50 0.4272226
395.60 0.4277571
395.70 0.4282887
395.80 0.4288134
395.90 0.4293375
396.00 0.4298618
396.10 0.4303984
396.20 0.430948
396.30 0.4314971
396.40 0.4320455
396.50 0.4325934
396.60 0.4330385
396.70 0.4335933
396.80 0.4341449
396.90 0.4346946
397.00 0.4351681
397.10 0.4357124
397.20 0.4363135
397.30 0.4368452
397.40 0.4373605
397.50 0.4378752
397.60 0.4383913
397.70 0.4389266
397.80 0.4394613
397.90 0.4399968
398.00 0.4405357
398.10 0.441074
398.20 0.4416254
398.30 0.4421915
398.40 0.4427544
398.50 0.443232
398.60 0.4437536
398.70 0.4443095
398.80 0.4448693
398.90 0.4454163
399.00 0.4459399
399.10 0.4464905
399.20 0.4470292
399.30 0.4475673
399.40 0.4481048
399.50 0.4486417
399.60 0.4491846
399.70 0.4497295
399.80 0.4502737
399.90 0.4508173
400.00 0.4513604
400.10 0.4519061
400.20 0.4524404
400.30 0.4529657
400.40 0.4534914
400.50 0.4540137
400.60 0.4545712
400.70 0.4551441
400.80 0.4556799
400.90 0.4562016
401.00 0.4566993
401.10 0.4572757
401.20 0.457865
401.30 0.458383
401.40 0.4589214
401.50 0.4594673
401.60 0.4600123
401.70 0.4605484
401.80 0.461072
401.90 0.4616157
402.00 0.4621749
402.10 0.4627177
402.20 0.4632944
402.30 0.4638173
402.40 0.4643489
402.50 0.4648699
402.60 0.4654524
402.70 0.4659919
402.80 0.4665026
402.90 0.4670522
403.00 0.4676111
403.10 0.4681298
403.20 0.4687103
403.30 0.469237
403.40 0.4698286
403.50 0.470365
403.60 0.4708869
403.70 0.4714668
403.80 0.4719459
403.90 0.4724949
404.00 0.4730581
404.10 0.4736793
404.20 0.4741818
404.30 0.4746838
404.40 0.4752967
404.50 0.4758331
404.60 0.4763823
404.70 0.476882
404.80 0.4774528
404.90 0.4779775
405.00 0.4785727
405.10 0.4791265
405.20 0.479693
405.30 0.480259
405.40 0.4808034
405.50 0.4813472
405.60 0.4818905
405.70 0.4824331
405.80 0.4829751
405.90 0.4835166
406.00 0.4840621
406.10 0.4846071
406.20 0.4851515
406.30 0.4856952
406.40 0.4862441
406.50 0.4868518
406.60 0.4873387
406.70 0.4878815
406.80 0.4884373
406.90 0.4890194
407.00 0.4895737
407.10 0.4901274
407.20 0.4906805
407.30 0.4912329
407.40 0.4917848
407.50 0.4923361
407.60 0.4928868
407.70 0.4934369
407.80 0.4939863
407.90 0.4945352
408.00 0.4950832
408.10 0.4956653
408.20 0.4962427
408.30 0.4967837
408.40 0.4973241
408.50 0.4978693
408.60 0.498424
408.70 0.4989782
408.80 0.499529
408.90 0.5000663
409.00 0.5006321
409.10 0.5011974
409.20 0.501762
409.30 0.502326
409.40 0.5028895
409.50 0.5034557
409.60 0.5040212
409.70 0.5045826
409.80 0.5051292
409.90 0.5056737
410.00 0.5061687
410.10 0.5067967
410.20 0.5073506
410.30 0.5078854
410.40 0.5084277
410.50 0.5089947
410.60 0.5095611
410.70 0.5101259
410.80 0.5106862
410.90 0.5112459
411.00 0.5118048
411.10 0.512363
411.20 0.5129206
411.30 0.5134785
411.40 0.5140393
411.50 0.5145933
411.60 0.5151468
411.70 0.5157001
411.80 0.5162542
411.90 0.5167888
412.00 0.5173417
412.10 0.5179649
412.20 0.5184458
412.30 0.5190167
412.40 0.5195713
412.50 0.5201311
412.60 0.5207545
412.70 0.5213226
412.80 0.5218764
412.90 0.5223633
413.00 0.5229413
413.10 0.5235093
413.20 0.5240767
413.30 0.5246434
413.40 0.5252096
413.50 0.5257677
413.60 0.5263048
413.70 0.526871
413.80 0.5274366
413.90 0.5280016
414.00 0.5285604
414.10 0.5291008
414.20 0.5296742
414.30 0.5302508
414.40 0.5307708
414.50 0.5314144
414.60 0.5318985
414.70 0.532482
414.80 0.5330593
414.90 0.5336183
415.00 0.5341766
415.10 0.5347344
415.20 0.5352979
415.30 0.5358809
415.40 0.5364633
415.50 0.5370438
415.60 0.5375848
415.70 0.5381252
415.80 0.5386713
415.90 0.5392364
416.00 0.539801
416.10 0.5403648
416.20 0.5409273
416.30 0.5414893
416.40 0.5420506
416.50 0.5426117
416.60 0.5431836
416.70 0.5437576
