# Version 2.1 - nm, norm@500 to 1, cut digits, bergeron_He_6000_70.dat_6000
# Wavelength(nm)  Flambda(ergs/cm^s/s/nm)
300.00 0.4568422
300.10 0.4575131
300.20 0.4581931
300.30 0.4588617
300.40 0.4594597
300.50 0.4600568
300.60 0.460653
300.70 0.4612484
300.80 0.4618428
300.90 0.4624363
301.00 0.463029
301.10 0.4636207
301.20 0.4642116
301.30 0.4648016
301.40 0.4653907
301.50 0.4659789
301.60 0.4665663
301.70 0.4671527
301.80 0.4677383
301.90 0.468323
302.00 0.4689068
302.10 0.4694974
302.20 0.470088
302.30 0.4706778
302.40 0.4712666
302.50 0.4718546
302.60 0.4724417
302.70 0.4730279
302.80 0.4736132
302.90 0.4741976
303.00 0.4747812
303.10 0.4753639
303.20 0.4759457
303.30 0.476528
303.40 0.4771208
303.50 0.4777127
303.60 0.4783037
303.70 0.4788938
303.80 0.4794831
303.90 0.4800715
304.00 0.480659
304.10 0.4812456
304.20 0.4818314
304.30 0.4824162
304.40 0.4830002
304.50 0.4835834
304.60 0.4841826
304.70 0.4847829
304.80 0.4853822
304.90 0.4859807
305.00 0.4865783
305.10 0.487175
305.20 0.4877708
305.30 0.4883657
305.40 0.4889597
305.50 0.4895529
305.60 0.4901452
305.70 0.4907366
305.80 0.4913271
305.90 0.4919167
306.00 0.4925055
306.10 0.4930934
306.20 0.4936804
306.30 0.4942665
306.40 0.4948579
306.50 0.4954501
306.60 0.4960415
306.70 0.496632
306.80 0.4972217
306.90 0.4978105
307.00 0.4983984
307.10 0.4989854
307.20 0.4995715
307.30 0.5001568
307.40 0.5007412
307.50 0.5013248
307.60 0.5019075
307.70 0.5024893
307.80 0.5030703
307.90 0.5036504
308.00 0.5042296
308.10 0.504808
308.20 0.5053856
308.30 0.5059622
308.40 0.5065381
308.50 0.507113
308.60 0.5076871
308.70 0.5082604
308.80 0.5089024
308.90 0.5097414
309.00 0.5103196
309.10 0.5108971
309.20 0.5114737
309.30 0.5120494
309.40 0.512625
309.50 0.5132047
309.60 0.5137835
309.70 0.5143614
309.80 0.5149385
309.90 0.5155147
310.00 0.5160901
310.10 0.5166646
310.20 0.5172383
310.30 0.5178112
310.40 0.5183955
310.50 0.5189922
310.60 0.5195881
310.70 0.520183
310.80 0.5207772
310.90 0.5213704
311.00 0.5219089
311.10 0.5224466
311.20 0.5229835
311.30 0.5235321
311.40 0.5241153
311.50 0.5246977
311.60 0.5252791
311.70 0.5258598
311.80 0.5264396
311.90 0.5270185
312.00 0.5275966
312.10 0.5281738
312.20 0.5287474
312.30 0.529389
312.40 0.5300497
312.50 0.5306231
312.60 0.5312498
312.70 0.5318755
312.80 0.5325003
312.90 0.5330694
313.00 0.5335783
313.10 0.5340864
313.20 0.5345938
313.30 0.5351234
313.40 0.5357177
313.50 0.5363111
313.60 0.5369037
313.70 0.5374954
313.80 0.5380862
313.90 0.5386762
314.00 0.5392653
314.10 0.5398418
314.20 0.5404174
314.30 0.5409922
314.40 0.5415662
314.50 0.5421393
314.60 0.5427115
314.70 0.543283
314.80 0.5438517
314.90 0.544438
315.00 0.545049
315.10 0.5456463
315.20 0.5462427
315.30 0.5468383
315.40 0.547433
315.50 0.5480269
315.60 0.5486199
315.70 0.5491532
315.80 0.5496859
315.90 0.5502177
316.00 0.5507487
316.10 0.5514547
316.20 0.5521597
316.30 0.5526882
316.40 0.5532159
316.50 0.5537428
316.60 0.554269
316.70 0.5549694
316.80 0.5556689
316.90 0.5561925
317.00 0.5567153
317.10 0.5572374
317.20 0.5577587
317.30 0.5584095
317.40 0.559033
317.50 0.5595805
317.60 0.5601271
317.70 0.560673
317.80 0.5612181
317.90 0.5617795
318.00 0.5624745
318.10 0.5629886
318.20 0.5635019
318.30 0.5640144
318.40 0.5645713
318.50 0.5652554
318.60 0.5658936
318.70 0.5664029
318.80 0.5670324
318.90 0.5674193
319.00 0.5679712
319.10 0.56865
319.20 0.569296
319.30 0.5698507
319.40 0.5704046
319.50 0.5709578
319.60 0.5716538
319.70 0.5722052
319.80 0.5727558
319.90 0.5733057
320.00 0.5738307
320.10 0.5743291
320.20 0.5749118
320.30 0.5753237
320.40 0.5760935
320.50 0.5766572
320.60 0.5771517
320.70 0.5776454
320.80 0.5781794
320.90 0.578757
321.00 0.5793337
321.10 0.5799096
321.20 0.5806207
321.30 0.581201
321.40 0.5817805
321.50 0.5823592
321.60 0.582937
321.70 0.583514
321.80 0.5840795
321.90 0.5846326
322.00 0.5850902
322.10 0.5856532
322.20 0.5862154
322.30 0.5867768
322.40 0.5873373
322.50 0.5878971
322.60 0.588456
322.70 0.5890142
322.80 0.5897071
322.90 0.5902692
323.00 0.5908305
323.10 0.591391
323.20 0.5919507
323.30 0.5925096
323.40 0.5930677
323.50 0.5936249
323.60 0.5941814
323.70 0.5947371
323.80 0.5952919
323.90 0.595846
324.00 0.5963727
324.10 0.5968987
324.20 0.5974239
324.30 0.5979388
324.40 0.5984667
324.50 0.5990379
324.60 0.5996084
324.70 0.600178
324.80 0.6007468
324.90 0.6013147
325.00 0.6018819
325.10 0.6024482
325.20 0.6030105
325.30 0.6035649
325.40 0.6041185
325.50 0.6046688
325.60 0.6052152
325.70 0.6057609
325.80 0.6063059
325.90 0.6068615
326.00 0.607429
326.10 0.6079956
326.20 0.6085613
326.30 0.6090866
326.40 0.6094983
326.50 0.6100553
326.60 0.6106114
326.70 0.6111667
326.80 0.6117213
326.90 0.612275
327.00 0.612828
327.10 0.6133801
327.20 0.6139315
327.30 0.6144821
327.40 0.6150319
327.50 0.6155809
327.60 0.6161292
327.70 0.6166766
327.80 0.6172233
327.90 0.6177831
328.00 0.6183409
328.10 0.6188781
328.20 0.6194144
328.30 0.61995
328.40 0.6204849
328.50 0.6210229
328.60 0.6215612
328.70 0.6220987
328.80 0.6226406
328.90 0.6231967
329.00 0.6237519
329.10 0.6243064
329.20 0.6248601
329.30 0.625413
329.40 0.6259651
329.50 0.6265165
329.60 0.627067
329.70 0.6276168
329.80 0.6281658
329.90 0.628714
330.00 0.6292822
330.10 0.6298752
330.20 0.6304673
330.30 0.6310586
330.40 0.6316163
330.50 0.6321378
330.60 0.6326585
330.70 0.6331784
330.80 0.6336976
330.90 0.6342161
331.00 0.6347338
331.10 0.6352508
331.20 0.6357671
331.30 0.6362826
331.40 0.6367973
331.50 0.6373115
331.60 0.637825
331.70 0.6383378
331.80 0.6388956
331.90 0.6394546
332.00 0.6400128
332.10 0.6405702
332.20 0.6411268
332.30 0.6416826
332.40 0.6422376
332.50 0.6427918
332.60 0.6433453
332.70 0.643898
332.80 0.6444499
332.90 0.645001
333.00 0.6455514
333.10 0.6460923
333.20 0.6466218
333.30 0.6471507
333.40 0.6476787
333.50 0.6482061
333.60 0.6487326
333.70 0.6492585
333.80 0.6497835
333.90 0.6503079
334.00 0.6508315
334.10 0.6513449
334.20 0.651846
334.30 0.6523465
334.40 0.6528462
334.50 0.6533452
334.60 0.6538435
334.70 0.6543483
334.80 0.6548829
334.90 0.6554479
335.00 0.6560122
335.10 0.6565562
335.20 0.6571022
335.30 0.6575771
335.40 0.6581606
335.50 0.6586653
335.60 0.6592473
335.70 0.6598206
335.80 0.660362
335.90 0.6608676
336.00 0.6613298
336.10 0.6617912
336.20 0.662252
336.30 0.6627471
336.40 0.6632841
336.50 0.6638204
336.60 0.6643559
336.70 0.6648906
336.80 0.6654247
336.90 0.6659538
337.00 0.6664771
337.10 0.6669997
337.20 0.6675216
337.30 0.668049
337.40 0.6685847
337.50 0.6691197
337.60 0.669654
337.70 0.6701875
337.80 0.6707202
337.90 0.6712366
338.00 0.671733
338.10 0.6722288
338.20 0.6727239
338.30 0.6732183
338.40 0.6737238
338.50 0.6742577
338.60 0.6747908
338.70 0.6753232
338.80 0.6758549
338.90 0.6763858
339.00 0.676916
339.10 0.6774454
339.20 0.6779741
339.30 0.6784408
339.40 0.6788188
339.50 0.679267
339.60 0.6798011
339.70 0.6803345
339.80 0.6808671
339.90 0.6813989
340.00 0.6819301
340.10 0.6824604
340.20 0.6829901
340.30 0.683519
340.40 0.6840471
340.50 0.6845745
340.60 0.6851012
340.70 0.6856271
340.80 0.6860883
340.90 0.6864568
341.00 0.6869027
341.10 0.6874432
341.20 0.687983
341.30 0.688522
341.40 0.6890603
341.50 0.6895979
341.60 0.6901347
341.70 0.6906707
341.80 0.6911652
341.90 0.6916092
342.00 0.6920526
342.10 0.6924954
342.20 0.693068
342.30 0.6936529
342.40 0.6941272
342.50 0.6946261
342.60 0.6951243
342.70 0.6956218
342.80 0.6961186
342.90 0.6966147
343.00 0.6971033
343.10 0.6975832
343.20 0.6980623
343.30 0.6985408
343.40 0.6990222
343.50 0.6995082
343.60 0.6999935
343.70 0.7004781
343.80 0.700962
343.90 0.7014452
344.00 0.7019582
344.10 0.7025142
344.20 0.7030694
344.30 0.7036239
344.40 0.7041472
344.50 0.7046262
344.60 0.7050439
344.70 0.705529
344.80 0.7059986
344.90 0.7066226
345.00 0.7070111
345.10 0.707486
345.20 0.7079652
345.30 0.7084508
345.40 0.7089357
345.50 0.7093992
345.60 0.7098709
345.70 0.7103908
345.80 0.71091
345.90 0.7114285
346.00 0.7119463
346.10 0.7124633
346.20 0.7129596
346.30 0.7134265
346.40 0.7138926
346.50 0.7143581
346.60 0.714823
346.70 0.7152872
346.80 0.7157507
346.90 0.7162136
347.00 0.7166759
347.10 0.7171374
347.20 0.7176151
347.30 0.7181161
347.40 0.7186164
347.50 0.7191161
347.60 0.719615
347.70 0.7201132
347.80 0.7206108
347.90 0.7211076
348.00 0.7216038
348.10 0.7220993
348.20 0.7225941
348.30 0.7230882
348.40 0.7235816
348.50 0.7240743
348.60 0.7245664
348.70 0.7250189
348.80 0.7254708
348.90 0.7259397
349.00 0.7264079
349.10 0.7268755
349.20 0.7273425
349.30 0.7278088
349.40 0.7282744
349.50 0.7287394
349.60 0.7292037
349.70 0.7296674
349.80 0.7301304
349.90 0.7305928
350.00 0.7310545
350.10 0.7315156
350.20 0.7319761
350.30 0.7324477
350.40 0.7329356
350.50 0.7334229
350.60 0.7339095
350.70 0.7343955
350.80 0.7348808
350.90 0.7353653
351.00 0.7358493
351.10 0.7363325
351.20 0.7368151
351.30 0.737297
351.40 0.7377696
351.50 0.7382263
351.60 0.7386822
351.70 0.7391376
351.80 0.7395923
351.90 0.7400463
352.00 0.7404998
352.10 0.7409526
352.20 0.7414742
352.30 0.7419733
352.40 0.7424291
352.50 0.7428843
352.60 0.7433388
352.70 0.7437928
352.80 0.7442461
352.90 0.7446987
353.00 0.7451507
353.10 0.7456021
353.20 0.7460529
353.30 0.746503
353.40 0.7469525
353.50 0.7474132
353.60 0.7478761
353.70 0.7483384
353.80 0.7488001
353.90 0.7492586
354.00 0.7497121
354.10 0.750165
354.20 0.7506172
354.30 0.7510688
354.40 0.7515197
354.50 0.75197
354.60 0.7524197
354.70 0.7528688
354.80 0.7533225
354.90 0.7537832
355.00 0.7542433
355.10 0.7547027
355.20 0.7551614
355.30 0.75564
355.40 0.756118
355.50 0.7565953
355.60 0.7570719
355.70 0.7575012
355.80 0.7579089
355.90 0.7583726
356.00 0.7588354
356.10 0.7592723
356.20 0.7597086
356.30 0.7601443
356.40 0.7605794
356.50 0.7610139
356.60 0.7614478
356.70 0.761881
356.80 0.7623137
356.90 0.7627458
357.00 0.7631772
357.10 0.7636081
357.20 0.7640383
357.30 0.764468
357.40 0.7649126
357.50 0.7653843
357.60 0.7658554
357.70 0.7663258
357.80 0.7667703
357.90 0.7672143
358.00 0.767653
358.10 0.76809
358.20 0.7685263
358.30 0.7689621
358.40 0.7693972
358.50 0.7698318
358.60 0.7702657
358.70 0.770699
358.80 0.7711318
358.90 0.7715639
359.00 0.7719933
359.10 0.7724183
359.20 0.7728531
359.30 0.7733569
359.40 0.7738601
359.50 0.774315
359.60 0.7747573
359.70 0.7751991
359.80 0.7755903
359.90 0.7759809
360.00 0.7763842
360.10 0.7768105
360.20 0.7772361
360.30 0.7776611
360.40 0.7780856
360.50 0.7785094
360.60 0.7789424
360.70 0.7793878
360.80 0.7798326
360.90 0.7802768
361.00 0.7807515
361.10 0.78111
361.20 0.7816945
361.30 0.7820151
361.40 0.7824159
361.50 0.7829237
361.60 0.7832589
361.70 0.7837653
361.80 0.7842349
361.90 0.7846395
362.00 0.7850435
362.10 0.7853726
362.20 0.7857319
362.30 0.7861783
362.40 0.7866241
362.50 0.7870693
362.60 0.7875138
362.70 0.7879968
362.80 0.7884222
362.90 0.7887838
363.00 0.7891448
363.10 0.789561
363.20 0.7899772
363.30 0.7905107
363.40 0.790807
363.50 0.7912358
363.60 0.7917303
363.70 0.7921652
363.80 0.7925848
363.90 0.7929701
364.00 0.7933549
364.10 0.7937391
364.20 0.7941228
364.30 0.7945563
364.40 0.7950019
364.50 0.7953675
364.60 0.7958089
364.70 0.7962498
364.80 0.79669
364.90 0.7970446
365.00 0.7973988
365.10 0.7978841
365.20 0.7983688
365.30 0.7987213
365.40 0.7990733
365.50 0.7995562
365.60 0.8000384
365.70 0.8004365
365.80 0.800834
365.90 0.8012627
366.00 0.8016988
366.10 0.8020978
366.20 0.8024963
366.30 0.8028942
366.40 0.8032915
366.50 0.8036877
366.60 0.8040415
366.70 0.8044934
366.80 0.8049447
366.90 0.8053623
367.00 0.8057207
367.10 0.8060786
367.20 0.8064359
367.30 0.8067928
367.40 0.8071491
367.50 0.8075624
367.60 0.8079893
367.70 0.8084385
367.80 0.8088871
367.90 0.8093351
368.00 0.8097346
368.10 0.8101923
368.20 0.8105685
368.30 0.8109428
368.40 0.8113165
368.50 0.8116897
368.60 0.8120624
368.70 0.8124346
368.80 0.8128062
368.90 0.8132169
369.00 0.8136444
369.10 0.8140581
369.20 0.8143986
369.30 0.814816
369.40 0.8152327
369.50 0.8156489
369.60 0.815975
369.70 0.8163007
369.80 0.8166915
369.90 0.8170824
370.00 0.8174727
370.10 0.8178693
370.20 0.8183239
370.30 0.8187784
370.40 0.8191004
370.50 0.8195569
370.60 0.819885
370.70 0.8203436
370.80 0.8206636
370.90 0.8209832
371.00 0.8214368
371.10 0.8218912
371.20 0.8222092
371.30 0.8225268
371.40 0.8229079
371.50 0.8233179
371.60 0.8237273
371.70 0.8241362
371.80 0.8245445
371.90 0.8249522
372.00 0.8253148
372.10 0.825596
372.20 0.8259974
372.30 0.8263983
372.40 0.8267986
372.50 0.8271984
372.60 0.8275977
372.70 0.8279964
372.80 0.8283065
372.90 0.8286162
373.00 0.8290585
373.10 0.8295016
373.20 0.8298136
373.30 0.8301251
373.40 0.8305621
373.50 0.8308726
373.60 0.8313085
373.70 0.8316181
373.80 0.8321471
373.90 0.8324871
374.00 0.8328579
374.10 0.8332282
374.20 0.8335981
374.30 0.8339674
374.40 0.8343049
374.50 0.8345731
374.60 0.834941
374.70 0.8353103
374.80 0.8356792
374.90 0.8360475
375.00 0.8364341
375.10 0.8368202
375.20 0.8372058
375.30 0.8375789
375.40 0.8379515
375.50 0.8383236
375.60 0.8386952
375.70 0.8390663
375.80 0.8394369
375.90 0.8398069
376.00 0.8400981
376.10 0.840462
376.20 0.8408262
376.30 0.8411899
376.40 0.841553
376.50 0.8419335
376.60 0.8423403
376.70 0.8427465
376.80 0.8431293
376.90 0.8434888
377.00 0.8438477
377.10 0.8442062
377.20 0.8445564
377.30 0.8448773
377.40 0.8451978
377.50 0.8455177
377.60 0.8458731
377.70 0.846228
377.80 0.8465824
377.90 0.8469363
378.00 0.8474487
378.10 0.8478006
378.20 0.848148
378.30 0.848495
378.40 0.8488414
378.50 0.8491873
378.60 0.8495328
378.70 0.8498778
378.80 0.8502223
378.90 0.8505425
379.00 0.8508181
379.10 0.851249
379.20 0.8516793
379.30 0.8520634
379.40 0.8524013
379.50 0.8527387
379.60 0.8530889
379.70 0.8534545
379.80 0.8538048
379.90 0.8541546
380.00 0.854504
380.10 0.8548528
380.20 0.8552012
380.30 0.8555491
380.40 0.8558965
380.50 0.8562434
380.60 0.8563745
380.70 0.8567508
380.80 0.8571265
380.90 0.8575017
381.00 0.8578763
381.10 0.8581818
381.20 0.858507
381.30 0.8588368
381.40 0.8592349
381.50 0.859527
381.60 0.859846
381.70 0.8602231
381.80 0.8605488
381.90 0.860941
382.00 0.8613326
382.10 0.8616034
382.20 0.8619219
382.30 0.8621919
382.40 0.8625012
382.50 0.8628695
382.60 0.8632373
382.70 0.8635685
382.80 0.8638791
382.90 0.8642096
383.00 0.8645397
383.10 0.8648693
383.20 0.865201
383.30 0.865542
383.40 0.865907
383.50 0.8663083
383.60 0.8666434
383.70 0.8669774
383.80 0.8673109
383.90 0.867644
384.00 0.8679767
384.10 0.8683088
384.20 0.8686405
384.30 0.8689717
384.40 0.8692989
384.50 0.869622
384.60 0.8699446
384.70 0.8702668
384.80 0.8705997
384.90 0.8709342
385.00 0.8711936
385.10 0.8714556
385.20 0.8718546
385.30 0.8722427
385.40 0.872596
385.50 0.8729145
385.60 0.8732326
385.70 0.8735502
385.80 0.8738506
385.90 0.8740873
386.00 0.874397
386.10 0.8747698
386.20 0.8750441
386.30 0.875318
386.40 0.8756358
386.50 0.8760062
386.60 0.8763202
386.70 0.8766303
386.80 0.8769986
386.90 0.8773078
387.00 0.8775638
387.10 0.8779307
387.20 0.8782794
387.30 0.8786631
387.40 0.8788537
387.50 0.8792317
387.60 0.879561
387.70 0.8798666
387.80 0.8801718
387.90 0.8804766
388.00 0.8807927
388.10 0.8811718
388.20 0.8814827
388.30 0.8817682
388.40 0.8820532
388.50 0.8823651
388.60 0.8826876
388.70 0.8829867
388.80 0.8832161
388.90 0.8834875
389.00 0.8838791
389.10 0.8841913
389.20 0.884413
389.30 0.8847737
389.40 0.8851507
389.50 0.8854283
389.60 0.8856041
389.70 0.8859493
389.80 0.8862809
389.90 0.8866121
390.00 0.8869428
390.10 0.8872731
390.20 0.8876029
390.30 0.8879125
390.40 0.8881995
390.50 0.8884861
390.60 0.8887722
390.70 0.889058
390.80 0.8893629
390.90 0.889687
391.00 0.8898827
391.10 0.8902079
391.20 0.8904991
391.30 0.8907319
391.40 0.8910409
391.50 0.8913495
391.60 0.8916577
391.70 0.8919654
391.80 0.8922728
391.90 0.8926232
392.00 0.8929575
392.10 0.8931942
392.20 0.893438
392.30 0.8937575
392.40 0.8940789
392.50 0.8943227
392.60 0.8946647
392.70 0.8950061
392.80 0.8952731
392.90 0.8954893
393.00 0.8958803
393.10 0.8961826
393.20 0.8963975
393.30 0.8967364
393.40 0.89706
393.50 0.8973686
393.60 0.8976419
393.70 0.8978401
393.80 0.898187
393.90 0.89841
394.00 0.8986373
394.10 0.8989455
394.20 0.8992925
394.30 0.8996306
394.40 0.8997595
394.50 0.9001314
394.60 0.9004313
394.70 0.900724
394.80 0.9009913
394.90 0.901258
395.00 0.9015207
395.10 0.9017647
395.20 0.9020286
395.30 0.9023043
395.40 0.9025797
395.50 0.9029204
395.60 0.9032849
395.70 0.9036179
395.80 0.9038663
395.90 0.9041143
396.00 0.9043723
396.10 0.9046949
396.20 0.9049094
396.30 0.9052443
396.40 0.905419
396.50 0.9057079
396.60 0.906069
396.70 0.9062543
396.80 0.9065947
396.90 0.9069124
397.00 0.9071017
397.10 0.9073873
397.20 0.9076732
397.30 0.9079236
397.40 0.908166
397.50 0.9084081
397.60 0.9086578
397.70 0.9089883
397.80 0.9093183
397.90 0.909628
398.00 0.9098836
398.10 0.9101388
398.20 0.9104003
398.30 0.910669
398.40 0.910936
398.50 0.9111593
398.60 0.9114063
398.70 0.9116688
398.80 0.9119327
398.90 0.9122301
399.00 0.9125899
399.10 0.9128578
399.20 0.9131081
399.30 0.9133581
399.40 0.9136077
399.50 0.9138569
399.60 0.9141026
399.70 0.9143468
399.80 0.9145907
399.90 0.9148342
400.00 0.9150766
400.10 0.9152942
400.20 0.9156998
400.30 0.915993
400.40 0.9162282
400.50 0.916495
400.60 0.9167356
400.70 0.9169342
400.80 0.9172331
400.90 0.9173956
401.00 0.9177315
401.10 0.9179735
401.20 0.918177
401.30 0.9185123
401.40 0.9188051
401.50 0.9190737
401.60 0.9193402
401.70 0.9195521
401.80 0.9197874
401.90 0.9200385
402.00 0.9203322
402.10 0.9205104
402.20 0.9207324
402.30 0.9210221
402.40 0.9211695
402.50 0.9214998
402.60 0.9217153
402.70 0.9221006
402.80 0.9222922
402.90 0.92257
403.00 0.9227609
403.10 0.9230812
403.20 0.9232913
403.30 0.9234979
403.40 0.9237276
403.50 0.9240144
403.60 0.9242983
403.70 0.9244336
403.80 0.9246439
403.90 0.92492
404.00 0.9252449
404.10 0.9254001
404.20 0.9256946
404.30 0.9259887
404.40 0.9261946
404.50 0.9264684
404.60 0.9266541
404.70 0.9269467
404.80 0.9271504
404.90 0.9273164
405.00 0.9275768
405.10 0.9278073
405.20 0.9280369
405.30 0.9282662
405.40 0.9285206
405.50 0.9287746
405.60 0.9290282
405.70 0.9292815
405.80 0.9295344
405.90 0.929787
406.00 0.9300149
406.10 0.9302425
406.20 0.9304697
406.30 0.9306966
406.40 0.9309239
406.50 0.9312432
406.60 0.9313678
406.70 0.9316132
406.80 0.9319013
406.90 0.9322425
407.00 0.9324629
407.10 0.9326829
407.20 0.9329026
407.30 0.933122
407.40 0.9333411
407.50 0.9335598
407.60 0.9337782
407.70 0.9339963
407.80 0.934214
407.90 0.9344319
408.00 0.9346656
408.10 0.9348662
408.20 0.9350628
408.30 0.935291
408.40 0.9355188
408.50 0.9358773
408.60 0.9360743
408.70 0.9362711
408.80 0.9364752
408.90 0.9367322
409.00 0.9369592
409.10 0.9371859
409.20 0.9374122
409.30 0.9376382
409.40 0.9378634
409.50 0.9380714
409.60 0.9382791
409.70 0.9384884
409.80 0.938705
409.90 0.9389193
410.00 0.9390698
410.10 0.939308
410.20 0.9395762
410.30 0.9398516
410.40 0.9400989
410.50 0.940258
410.60 0.9404167
410.70 0.9405868
410.80 0.9408029
410.90 0.9410187
411.00 0.9412586
411.10 0.9415071
411.20 0.9417553
411.30 0.9420039
411.40 0.9422539
411.50 0.9424556
411.60 0.9426569
411.70 0.9428505
411.80 0.9430139
411.90 0.9432599
412.00 0.9434227
412.10 0.943637
412.20 0.9439543
412.30 0.9440509
412.40 0.9443002
412.50 0.9445572
412.60 0.9446888
412.70 0.9449265
412.80 0.9451905
412.90 0.9453116
413.00 0.945605
413.10 0.9458005
413.20 0.9459958
413.30 0.9461907
413.40 0.9463854
413.50 0.9465777
413.60 0.9467677
413.70 0.9469769
413.80 0.9471858
413.90 0.9473945
414.00 0.9475905
414.10 0.9477472
414.20 0.948002
414.30 0.9481582
414.40 0.948396
414.50 0.9486491
414.60 0.9487561
414.70 0.9490133
414.80 0.9492579
414.90 0.9494634
415.00 0.9496686
415.10 0.9498735
415.20 0.9500715
415.30 0.9502483
415.40 0.9504248
415.50 0.9506018
415.60 0.9508003
415.70 0.9509984
415.80 0.9511994
415.90 0.9514099
416.00 0.9516201
416.10 0.951823
416.20 0.9519977
416.30 0.9521721
416.40 0.9523463
416.50 0.9525225
416.60 0.9527734
416.70 0.953018
416.80 0.9531866
416.90 0.9533162
417.00 0.9536156
417.10 0.9538182
417.20 0.9539663
417.30 0.9541153
417.40 0.9542992
417.50 0.9544828
417.60 0.9546758
417.70 0.9549054
