# Version 2.1 - nm, norm@500 to 1, cut digits, bergeron_He_12000_70.dat_12000
# Wavelength(nm)  Flambda(ergs/cm^s/s/nm)
300.00 2.604549
300.10 2.60353
300.20 2.602501
300.30 2.601472
300.40 2.600443
300.50 2.599414
300.60 2.598386
300.70 2.597358
300.80 2.596332
300.90 2.595306
301.00 2.594281
301.10 2.593257
301.20 2.592234
301.30 2.591212
301.40 2.59019
301.50 2.589169
301.60 2.588149
301.70 2.587129
301.80 2.586111
301.90 2.585093
302.00 2.584076
302.10 2.583059
302.20 2.582042
302.30 2.581027
302.40 2.580012
302.50 2.578998
302.60 2.577985
302.70 2.576972
302.80 2.575961
302.90 2.57495
303.00 2.573939
303.10 2.57293
303.20 2.571921
303.30 2.570911
303.40 2.569875
303.50 2.56884
303.60 2.567805
303.70 2.566772
303.80 2.565739
303.90 2.564707
304.00 2.563676
304.10 2.562645
304.20 2.561616
304.30 2.560587
304.40 2.559559
304.50 2.558532
304.60 2.557483
304.70 2.556432
304.80 2.555382
304.90 2.554333
305.00 2.553285
305.10 2.552237
305.20 2.55119
305.30 2.550145
305.40 2.5491
305.50 2.548055
305.60 2.547012
305.70 2.545969
305.80 2.544928
305.90 2.543887
306.00 2.542847
306.10 2.541807
306.20 2.540769
306.30 2.539731
306.40 2.538688
306.50 2.537643
306.60 2.536599
306.70 2.535557
306.80 2.534514
306.90 2.533473
307.00 2.532433
307.10 2.531393
307.20 2.530354
307.30 2.529316
307.40 2.528279
307.50 2.527243
307.60 2.526207
307.70 2.525172
307.80 2.524138
307.90 2.523105
308.00 2.522073
308.10 2.521041
308.20 2.520011
308.30 2.518981
308.40 2.517952
308.50 2.516923
308.60 2.515896
308.70 2.514869
308.80 2.513839
308.90 2.512798
309.00 2.511779
309.10 2.51076
309.20 2.509743
309.30 2.508726
309.40 2.507705
309.50 2.506656
309.60 2.505607
309.70 2.50456
309.80 2.503513
309.90 2.502467
310.00 2.501421
310.10 2.500377
310.20 2.499333
310.30 2.498291
310.40 2.497232
310.50 2.496157
310.60 2.495083
310.70 2.49401
310.80 2.492937
310.90 2.491866
311.00 2.490848
311.10 2.48983
311.20 2.488814
311.30 2.487792
311.40 2.486756
311.50 2.48572
311.60 2.484686
311.70 2.483652
311.80 2.482618
311.90 2.481586
312.00 2.480555
312.10 2.479524
312.20 2.478382
312.30 2.477277
312.40 2.476292
312.50 2.475185
312.60 2.474183
312.70 2.473181
312.80 2.472181
312.90 2.471148
313.00 2.47008
313.10 2.469013
313.20 2.467947
313.30 2.466878
313.40 2.465798
313.50 2.464719
313.60 2.46364
313.70 2.462563
313.80 2.461486
313.90 2.46041
314.00 2.459335
314.10 2.458231
314.20 2.457127
314.30 2.456024
314.40 2.454922
314.50 2.453821
314.60 2.452721
314.70 2.451622
314.80 2.450523
314.90 2.449434
315.00 2.448359
315.10 2.447219
315.20 2.44608
315.30 2.444941
315.40 2.443804
315.50 2.442668
315.60 2.441533
315.70 2.44034
315.80 2.439148
315.90 2.437956
316.00 2.436766
316.10 2.435225
316.20 2.433685
316.30 2.432674
316.40 2.431664
316.50 2.429776
316.60 2.427188
316.70 2.426006
316.80 2.424826
316.90 2.423646
317.00 2.422468
317.10 2.42129
317.20 2.420114
317.30 2.419192
317.40 2.41805
317.50 2.416281
317.60 2.414513
317.70 2.412748
317.80 2.410984
317.90 2.407863
318.00 2.403311
318.10 2.394666
318.20 2.386031
318.30 2.377407
318.40 2.360621
318.50 2.320607
318.60 2.265851
318.70 2.074927
318.80 1.816921
318.90 2.150112
319.00 2.267194
319.10 2.314707
319.20 2.352251
319.30 2.36156
319.40 2.370856
319.50 2.380141
319.60 2.385994
319.70 2.387236
319.80 2.388476
319.90 2.389713
320.00 2.3903
320.10 2.390181
320.20 2.390054
320.30 2.389524
320.40 2.389165
320.50 2.3886
320.60 2.387884
320.70 2.38708
320.80 2.386276
320.90 2.385473
321.00 2.384671
321.10 2.383869
321.20 2.382878
321.30 2.381926
321.40 2.380975
321.50 2.380024
321.60 2.379074
321.70 2.378125
321.80 2.377254
321.90 2.376466
322.00 2.375254
322.10 2.374285
322.20 2.373318
322.30 2.372352
322.40 2.371386
322.50 2.370421
322.60 2.369456
322.70 2.368493
322.80 2.367405
322.90 2.366389
323.00 2.365373
323.10 2.364359
323.20 2.363345
323.30 2.362332
323.40 2.36132
323.50 2.360308
323.60 2.359298
323.70 2.358288
323.80 2.357279
323.90 2.356271
324.00 2.355265
324.10 2.35426
324.20 2.353256
324.30 2.352248
324.40 2.351217
324.50 2.350178
324.60 2.34914
324.70 2.348103
324.80 2.347066
324.90 2.34603
325.00 2.344995
325.10 2.343961
325.20 2.342909
325.30 2.341816
325.40 2.340725
325.50 2.339666
325.60 2.338648
325.70 2.33763
325.80 2.336613
325.90 2.335623
326.00 2.334661
326.10 2.3337
326.20 2.33274
326.30 2.331727
326.40 2.330561
326.50 2.329543
326.60 2.328526
326.70 2.327509
326.80 2.326494
326.90 2.325479
327.00 2.324465
327.10 2.323452
327.20 2.32244
327.30 2.321429
327.40 2.320418
327.50 2.319408
327.60 2.318399
327.70 2.317391
327.80 2.316384
327.90 2.315335
328.00 2.314257
328.10 2.313199
328.20 2.312141
328.30 2.311085
328.40 2.31003
328.50 2.309063
328.60 2.308117
328.70 2.307172
328.80 2.306208
328.90 2.305192
329.00 2.304177
329.10 2.303162
329.20 2.302148
329.30 2.301135
329.40 2.300123
329.50 2.299111
329.60 2.298101
329.70 2.297091
329.80 2.296082
329.90 2.295074
330.00 2.29404
330.10 2.292976
330.20 2.291913
330.30 2.290851
330.40 2.289816
330.50 2.28881
330.60 2.287805
330.70 2.286802
330.80 2.285798
330.90 2.284796
331.00 2.283795
331.10 2.282794
331.20 2.281794
331.30 2.280795
331.40 2.279796
331.50 2.278745
331.60 2.277628
331.70 2.276512
331.80 2.275491
331.90 2.274475
332.00 2.27346
332.10 2.272445
332.20 2.271432
332.30 2.270419
332.40 2.269407
332.50 2.268395
332.60 2.267385
332.70 2.266375
332.80 2.265367
332.90 2.264359
333.00 2.263352
333.10 2.262301
333.20 2.261197
333.30 2.260094
333.40 2.258992
333.50 2.25789
333.60 2.25679
333.70 2.255691
333.80 2.254592
333.90 2.253495
334.00 2.252398
334.10 2.251236
334.20 2.249994
334.30 2.248753
334.40 2.247513
334.50 2.246275
334.60 2.245037
334.70 2.243617
334.80 2.241902
334.90 2.240084
335.00 2.238268
335.10 2.236024
335.20 2.233594
335.30 2.230954
335.40 2.228059
335.50 2.228217
335.60 2.229507
335.70 2.229859
335.80 2.230092
335.90 2.230009
336.00 2.22954
336.10 2.22907
336.20 2.228601
336.30 2.227957
336.40 2.2271
336.50 2.226243
336.60 2.225386
336.70 2.224531
336.80 2.223675
336.90 2.222784
337.00 2.221849
337.10 2.220915
337.20 2.219981
337.30 2.21904
337.40 2.218088
337.50 2.217137
337.60 2.216186
337.70 2.215237
337.80 2.214288
337.90 2.213311
338.00 2.2123
338.10 2.21129
338.20 2.210281
338.30 2.209273
338.40 2.208269
338.50 2.207276
338.60 2.206284
338.70 2.205292
338.80 2.204301
338.90 2.203312
339.00 2.202322
339.10 2.201334
339.20 2.200346
339.30 2.199361
339.40 2.198377
339.50 2.197369
339.60 2.196333
339.70 2.195297
339.80 2.194263
339.90 2.193229
340.00 2.192196
340.10 2.191164
340.20 2.190132
340.30 2.189102
340.40 2.188072
340.50 2.187044
340.60 2.186016
340.70 2.184988
340.80 2.183984
340.90 2.183012
341.00 2.182021
341.10 2.181007
341.20 2.179993
341.30 2.17898
341.40 2.177968
341.50 2.176957
341.60 2.175947
341.70 2.174937
341.80 2.173906
341.90 2.172847
342.00 2.171789
342.10 2.170732
342.20 2.169633
342.30 2.168539
342.40 2.167482
342.50 2.166418
342.60 2.165355
342.70 2.164293
342.80 2.163231
342.90 2.162171
343.00 2.161054
343.10 2.159869
343.20 2.158684
343.30 2.157501
343.40 2.156206
343.50 2.154752
343.60 2.153299
343.70 2.151848
343.80 2.150397
343.90 2.148949
344.00 2.146942
344.10 2.144133
344.20 2.141327
344.30 2.138523
344.40 2.134597
344.50 2.129056
344.60 2.122837
344.70 2.114648
344.80 2.116998
344.90 2.124171
345.00 2.12767
345.10 2.129837
345.20 2.131304
345.30 2.131766
345.40 2.132227
345.50 2.132436
345.60 2.132133
345.70 2.131538
345.80 2.130943
345.90 2.130349
346.00 2.129755
346.10 2.129161
346.20 2.128428
346.30 2.127492
346.40 2.126557
346.50 2.125624
346.60 2.12469
346.70 2.123758
346.80 2.122826
346.90 2.121895
347.00 2.120964
347.10 2.120035
347.20 2.119084
347.30 2.118103
347.40 2.117123
347.50 2.116144
347.60 2.115165
347.70 2.114187
347.80 2.11321
347.90 2.112233
348.00 2.111258
348.10 2.110283
348.20 2.109309
348.30 2.108336
348.40 2.107363
348.50 2.106392
348.60 2.105421
348.70 2.104433
348.80 2.10344
348.90 2.102447
349.00 2.101454
349.10 2.100462
349.20 2.099471
349.30 2.098481
349.40 2.097491
349.50 2.096503
349.60 2.095515
349.70 2.094528
349.80 2.093541
349.90 2.092556
350.00 2.091571
350.10 2.090587
350.20 2.089604
350.30 2.08862
350.40 2.087636
350.50 2.086652
350.60 2.08567
350.70 2.084688
350.80 2.083706
350.90 2.082726
351.00 2.081746
351.10 2.080768
351.20 2.079789
351.30 2.078812
351.40 2.07783
351.50 2.076839
351.60 2.075849
351.70 2.074859
351.80 2.073871
351.90 2.072883
352.00 2.071895
352.10 2.070909
352.20 2.069924
352.30 2.068931
352.40 2.067928
352.50 2.066926
352.60 2.065925
352.70 2.064924
352.80 2.063924
352.90 2.062925
353.00 2.061927
353.10 2.060929
353.20 2.059933
353.30 2.058937
353.40 2.057942
353.50 2.056964
353.60 2.055991
353.70 2.055019
353.80 2.054047
353.90 2.053076
354.00 2.052105
354.10 2.051134
354.20 2.050164
354.30 2.049195
354.40 2.048227
354.50 2.047259
354.60 2.046293
354.70 2.045327
354.80 2.044362
354.90 2.043401
355.00 2.04244
355.10 2.041479
355.20 2.04052
355.30 2.039566
355.40 2.038612
355.50 2.037659
355.60 2.036707
355.70 2.035787
355.80 2.034882
355.90 2.033891
356.00 2.032918
356.10 2.031988
356.20 2.031059
356.30 2.03013
356.40 2.029202
356.50 2.028275
356.60 2.027348
356.70 2.026423
356.80 2.025498
356.90 2.024573
357.00 2.02365
357.10 2.022727
357.20 2.021805
357.30 2.020883
357.40 2.019976
357.50 2.019092
357.60 2.018209
357.70 2.017326
357.80 2.016449
357.90 2.015572
358.00 2.014643
358.10 2.013702
358.20 2.012762
358.30 2.011823
358.40 2.010884
358.50 2.009946
358.60 2.009009
358.70 2.008072
358.80 2.007137
358.90 2.006202
359.00 2.00529
359.10 2.004418
359.20 2.00353
359.30 2.002532
359.40 2.001535
359.50 2.000523
359.60 1.999507
359.70 1.998493
359.80 1.997382
359.90 1.996273
360.00 1.995036
360.10 1.993574
360.20 1.992114
360.30 1.990654
360.40 1.989196
360.50 1.98774
360.60 1.984676
360.70 1.980396
360.80 1.97612
360.90 1.971848
361.00 1.965944
361.10 1.95296
361.20 1.936314
361.30 1.907512
361.40 1.917847
361.50 1.947599
361.60 1.957747
361.70 1.961509
361.80 1.964583
361.90 1.966438
362.00 1.968291
362.10 1.968836
362.20 1.968648
362.30 1.967738
362.40 1.966828
362.50 1.96592
362.60 1.965012
362.70 1.963369
362.80 1.961543
362.90 1.958999
363.00 1.956457
363.10 1.953192
363.20 1.949923
363.30 1.946009
363.40 1.943005
363.50 1.946001
363.60 1.948526
363.70 1.950191
363.80 1.951307
363.90 1.951754
364.00 1.9522
364.10 1.952646
364.20 1.953091
364.30 1.953265
364.40 1.953372
364.50 1.953368
364.60 1.953089
364.70 1.95281
364.80 1.952531
364.90 1.951857
365.00 1.951184
365.10 1.950116
365.20 1.948784
365.30 1.948113
365.40 1.94797
365.50 1.947695
365.60 1.94742
365.70 1.946953
365.80 1.946487
365.90 1.945893
366.00 1.945268
366.10 1.944593
366.20 1.943918
366.30 1.943244
366.40 1.94257
366.50 1.941797
366.60 1.941002
366.70 1.940142
366.80 1.939283
366.90 1.93842
367.00 1.937552
367.10 1.936685
367.20 1.935818
367.30 1.934952
367.40 1.934086
367.50 1.933071
367.60 1.93202
367.70 1.930969
367.80 1.929919
367.90 1.92887
368.00 1.927822
368.10 1.926518
368.20 1.925098
368.30 1.923678
368.40 1.92226
368.50 1.920843
368.60 1.919427
368.70 1.918013
368.80 1.9166
368.90 1.915155
369.00 1.913225
369.10 1.911189
369.20 1.90911
369.30 1.906355
369.40 1.903603
369.50 1.900853
369.60 1.897003
369.70 1.893157
369.80 1.887351
369.90 1.881532
370.00 1.875718
370.10 1.869064
370.20 1.85882
370.30 1.848571
370.40 1.835167
370.50 1.82845
370.60 1.84034
370.70 1.852948
370.80 1.860995
370.90 1.869034
371.00 1.872317
371.10 1.875548
371.20 1.877462
371.30 1.879374
371.40 1.880931
371.50 1.882009
371.60 1.883086
371.70 1.884161
371.80 1.885235
371.90 1.886307
372.00 1.886586
372.10 1.886844
372.20 1.886551
372.30 1.886257
372.40 1.885964
372.50 1.88567
372.60 1.885377
372.70 1.885083
372.80 1.88445
372.90 1.883818
373.00 1.882686
373.10 1.88155
373.20 1.879277
373.30 1.877007
373.40 1.872213
373.50 1.87159
373.60 1.872732
373.70 1.874
373.80 1.874643
373.90 1.875018
374.00 1.874771
374.10 1.874523
374.20 1.874276
374.30 1.874029
374.40 1.873499
374.50 1.872781
374.60 1.872092
374.70 1.871408
374.80 1.870723
374.90 1.870039
375.00 1.869293
375.10 1.868546
375.20 1.8678
375.30 1.866948
375.40 1.866096
375.50 1.865245
375.60 1.864395
375.70 1.863545
375.80 1.862696
375.90 1.861847
376.00 1.860857
376.10 1.859975
376.20 1.859095
376.30 1.858215
376.40 1.857336
376.50 1.856449
376.60 1.855549
376.70 1.854649
376.80 1.853766
376.90 1.852898
377.00 1.85203
377.10 1.851164
377.20 1.85029
377.30 1.849386
377.40 1.848483
377.50 1.847581
377.60 1.846602
377.70 1.845625
377.80 1.844648
377.90 1.843672
378.00 1.842696
378.10 1.841637
378.20 1.840578
378.30 1.839519
378.40 1.838462
378.50 1.837405
378.60 1.836349
378.70 1.835295
378.80 1.83424
378.90 1.833153
379.00 1.832005
379.10 1.830842
379.20 1.829681
379.30 1.82846
379.40 1.827181
379.50 1.825903
379.60 1.824587
379.70 1.823077
379.80 1.821048
379.90 1.819021
380.00 1.816996
380.10 1.814973
380.20 1.812951
380.30 1.810931
380.40 1.808914
380.50 1.806898
380.60 1.803352
380.70 1.798981
380.80 1.794615
380.90 1.790253
381.00 1.785895
381.10 1.778896
381.20 1.771205
381.30 1.761726
381.40 1.749142
381.50 1.73346
381.60 1.715162
381.70 1.691714
381.80 1.661983
381.90 1.62043
382.00 1.612463
382.10 1.658771
382.20 1.692448
382.30 1.717342
382.40 1.736507
382.50 1.747099
382.60 1.75768
382.70 1.76553
382.80 1.768633
382.90 1.770061
383.00 1.771487
383.10 1.772911
383.20 1.774425
383.30 1.77628
383.40 1.777979
383.50 1.779447
383.60 1.780299
383.70 1.780537
383.80 1.780775
383.90 1.781012
384.00 1.781249
384.10 1.781485
384.20 1.78172
384.30 1.781956
384.40 1.78186
384.50 1.781432
384.60 1.781006
384.70 1.780579
384.80 1.780164
384.90 1.77967
385.00 1.778949
385.10 1.778234
385.20 1.777596
385.30 1.776794
385.40 1.77596
385.50 1.775094
385.60 1.774228
385.70 1.773364
385.80 1.772488
385.90 1.77157
386.00 1.770484
386.10 1.769197
386.20 1.767551
386.30 1.765907
386.40 1.763697
386.50 1.760097
386.60 1.75444
386.70 1.74217
386.80 1.732267
386.90 1.738958
387.00 1.745472
387.10 1.749593
387.20 1.751725
387.30 1.752934
387.40 1.753367
387.50 1.753192
387.60 1.752425
387.70 1.750935
387.80 1.749447
387.90 1.74796
388.00 1.746197
388.10 1.743109
388.20 1.737413
388.30 1.729697
388.40 1.721989
388.50 1.709367
388.60 1.68413
388.70 1.632644
388.80 1.488678
388.90 1.407369
389.00 1.589537
389.10 1.661076
389.20 1.692786
389.30 1.708946
389.40 1.718072
389.50 1.725218
389.60 1.729017
389.70 1.730743
389.80 1.731313
389.90 1.731883
390.00 1.732452
390.10 1.73302
390.20 1.733587
390.30 1.733645
390.40 1.733128
390.50 1.732613
390.60 1.732097
390.70 1.731582
390.80 1.731012
390.90 1.730386
391.00 1.729832
391.10 1.72906
391.20 1.728264
391.30 1.727381
391.40 1.726498
391.50 1.725616
391.60 1.724735
391.70 1.723855
391.80 1.722975
391.90 1.721995
392.00 1.720908
392.10 1.719832
392.20 1.718775
392.30 1.717743
392.40 1.716566
392.50 1.715463
392.60 1.714207
392.70 1.712843
392.80 1.712541
392.90 1.712099
393.00 1.711592
393.10 1.711147
393.20 1.710748
393.30 1.710105
393.40 1.709443
393.50 1.708802
393.60 1.708073
393.70 1.707293
393.80 1.706664
393.90 1.705911
394.00 1.705181
394.10 1.70451
394.20 1.703645
394.30 1.702879
394.40 1.702144
394.50 1.701281
394.60 1.700293
394.70 1.69931
394.80 1.698345
394.90 1.697377
395.00 1.6963
395.10 1.695283
395.20 1.693888
395.30 1.692444
395.40 1.691001
395.50 1.689119
395.60 1.687076
395.70 1.684382
395.80 1.679926
395.90 1.675474
396.00 1.670587
396.10 1.657944
396.20 1.636357
396.30 1.608284
396.40 1.53357
396.50 1.52996
396.60 1.618204
396.70 1.6479
396.80 1.656876
396.90 1.660762
397.00 1.664282
397.10 1.668841
397.20 1.670741
397.30 1.67055
397.40 1.670831
397.50 1.671112
397.60 1.671348
397.70 1.671139
397.80 1.670931
397.90 1.670616
398.00 1.670015
398.10 1.669414
398.20 1.668744
398.30 1.667997
398.40 1.667248
398.50 1.666412
398.60 1.665576
398.70 1.664596
398.80 1.66358
398.90 1.662571
399.00 1.661574
399.10 1.660484
399.20 1.659247
399.30 1.658011
399.40 1.656776
399.50 1.655541
399.60 1.65409
399.70 1.652559
399.80 1.651029
399.90 1.649501
400.00 1.647964
400.10 1.646125
400.20 1.644192
400.30 1.641927
400.40 1.639631
400.50 1.637296
400.60 1.634299
400.70 1.6314
400.80 1.628024
400.90 1.623744
401.00 1.620734
401.10 1.619707
401.20 1.618213
401.30 1.61591
401.40 1.612064
401.50 1.607701
401.60 1.603258
401.70 1.596081
401.80 1.587401
401.90 1.575349
402.00 1.5616
402.10 1.54262
402.20 1.517274
402.30 1.4835
402.40 1.436941
402.50 1.369798
402.60 1.267308
402.70 1.331306
402.80 1.416809
402.90 1.466042
403.00 1.510088
403.10 1.539527
403.20 1.55825
403.30 1.571633
403.40 1.582317
403.50 1.589495
403.60 1.595862
403.70 1.600423
403.80 1.603606
403.90 1.605756
404.00 1.607604
404.10 1.608685
404.20 1.608752
404.30 1.608818
404.40 1.607454
404.50 1.604429
404.60 1.602991
404.70 1.603704
404.80 1.605111
404.90 1.605986
405.00 1.606634
405.10 1.606914
405.20 1.607117
405.30 1.60732
405.40 1.607062
405.50 1.606805
405.60 1.606548
405.70 1.606291
405.80 1.606034
405.90 1.605777
406.00 1.605244
406.10 1.604711
406.20 1.604179
406.30 1.603647
406.40 1.603129
406.50 1.602586
406.60 1.601957
406.70 1.601302
406.80 1.600681
406.90 1.600024
407.00 1.599322
407.10 1.598622
407.20 1.597922
407.30 1.597222
407.40 1.596523
407.50 1.595824
407.60 1.595126
407.70 1.594428
407.80 1.593731
407.90 1.593032
408.00 1.592251
408.10 1.591471
408.20 1.590746
408.30 1.590036
408.40 1.589326
408.50 1.588567
408.60 1.587789
408.70 1.587012
408.80 1.586236
408.90 1.58546
409.00 1.584685
409.10 1.583911
409.20 1.583136
409.30 1.582363
409.40 1.581588
409.50 1.580741
409.60 1.579895
409.70 1.579065
409.80 1.578294
409.90 1.577524
410.00 1.576755
410.10 1.575812
410.20 1.574943
410.30 1.574094
410.40 1.573248
410.50 1.572413
410.60 1.571578
410.70 1.570708
410.80 1.56969
410.90 1.568672
411.00 1.567539
411.10 1.566363
411.20 1.565189
411.30 1.563955
411.40 1.562456
411.50 1.56008
411.60 1.557707
411.70 1.554391
411.80 1.547302
411.90 1.538581
412.00 1.513977
412.10 1.481052
412.20 1.500695
412.30 1.523273
412.40 1.536319
412.50 1.542327
412.60 1.545421
412.70 1.54647
412.80 1.547007
412.90 1.547256
413.00 1.546588
413.10 1.545348
413.20 1.544109
413.30 1.542871
413.40 1.541634
413.50 1.540239
413.60 1.538022
413.70 1.535221
413.80 1.532423
413.90 1.529627
414.00 1.526464
414.10 1.522133
414.20 1.517436
414.30 1.509995
414.40 1.503341
414.50 1.507027
414.60 1.512002
414.70 1.516187
414.80 1.519816
414.90 1.521691
415.00 1.523565
415.10 1.525437
415.20 1.526972
415.30 1.527445
415.40 1.527917
415.50 1.528375
415.60 1.52837
415.70 1.528365
415.80 1.528266
415.90 1.527866
416.00 1.527466
416.10 1.527019
416.20 1.526383
416.30 1.525747
416.40 1.525111
416.50 1.524464
416.60 1.523428
416.70 1.522387
416.80 1.520708
416.90 1.518574
417.00 1.517746
417.10 1.518091
417.20 1.518173
417.30 1.51824
417.40 1.51787
417.50 1.5175
417.60 1.517093
417.70 1.516537
417.80 1.515912
417.90 1.515288
418.00 1.514664
418.10 1.51404
418.20 1.513416
418.30 1.512791
418.40 1.512068
418.50 1.511345
418.60 1.510623
418.70 1.509902
418.80 1.509181
418.90 1.50846
419.00 1.50774
419.10 1.507021
419.20 1.506302
419.30 1.505581
419.40 1.504793
419.50 1.504005
419.60 1.503231
419.70 1.502515
419.80 1.501799
419.90 1.501075
420.00 1.500321
420.10 1.499568
420.20 1.498815
420.30 1.498063
420.40 1.497311
420.50 1.49656
420.60 1.495809
420.70 1.495059
420.80 1.49431
420.90 1.493562
421.00 1.492853
421.10 1.492144
421.20 1.491421
421.30 1.490657
421.40 1.489893
421.50 1.489129
421.60 1.488367
421.70 1.487604
421.80 1.486842
421.90 1.486095
422.00 1.485391
422.10 1.484674
422.20 1.483909
422.30 1.483144
422.40 1.48238
422.50 1.481628
422.60 1.480877
422.70 1.480127
422.80 1.479377
422.90 1.478628
423.00 1.477879
423.10 1.477131
423.20 1.476383
423.30 1.475636
423.40 1.47489
423.50 1.474143
423.60 1.473398
423.70 1.472653
423.80 1.471909
423.90 1.471165
424.00 1.470421
424.10 1.469679
424.20 1.468936
424.30 1.468195
424.40 1.467464
424.50 1.466733
424.60 1.466003
424.70 1.465273
424.80 1.464544
424.90 1.463815
425.00 1.463087
