# Version 2.1 - nm, norm@500 to 1, cut digits, bergeron_He_6500_80.dat_6500
# Wavelength(nm)  Flambda(ergs/cm^s/s/nm)
300.00 0.7581994
300.10 0.7587075
300.20 0.7592095
300.30 0.7597186
300.40 0.7602803
300.50 0.7608411
300.60 0.7614009
300.70 0.7619599
300.80 0.7625179
300.90 0.7630751
301.00 0.7636313
301.10 0.7641866
301.20 0.764741
301.30 0.7652945
301.40 0.7658471
301.50 0.7663988
301.60 0.7669497
301.70 0.7674996
301.80 0.7680486
301.90 0.7685967
302.00 0.7691439
302.10 0.7696896
302.20 0.7702344
302.30 0.7707783
302.40 0.7713213
302.50 0.7718634
302.60 0.7724046
302.70 0.772945
302.80 0.7734844
302.90 0.774023
303.00 0.7745607
303.10 0.7750975
303.20 0.7756335
303.30 0.7761692
303.40 0.7767101
303.50 0.77725
303.60 0.7777891
303.70 0.7783273
303.80 0.7788646
303.90 0.7794011
304.00 0.7799367
304.10 0.7804714
304.20 0.7810052
304.30 0.7815382
304.40 0.7820703
304.50 0.7826015
304.60 0.7831474
304.70 0.7836941
304.80 0.78424
304.90 0.784785
305.00 0.785329
305.10 0.7858722
305.20 0.7864146
305.30 0.786956
305.40 0.7874966
305.50 0.7880363
305.60 0.7885751
305.70 0.789113
305.80 0.7896501
305.90 0.7901863
306.00 0.7907216
306.10 0.7912561
306.20 0.7917897
306.30 0.7923224
306.40 0.792846
306.50 0.7933662
306.60 0.7938856
306.70 0.7944042
306.80 0.7949219
306.90 0.7954388
307.00 0.7959548
307.10 0.79647
307.20 0.7969843
307.30 0.7974978
307.40 0.7980105
307.50 0.7985223
307.60 0.7990333
307.70 0.7995435
307.80 0.8000529
307.90 0.8005614
308.00 0.801069
308.10 0.8015759
308.20 0.8020819
308.30 0.8025871
308.40 0.8030915
308.50 0.803595
308.60 0.8040978
308.70 0.8045997
308.80 0.8051071
308.90 0.8056317
309.00 0.8061941
309.10 0.8067557
309.20 0.8073164
309.30 0.8078761
309.40 0.8084283
309.50 0.8089387
309.60 0.8094482
309.70 0.8099569
309.80 0.8104647
309.90 0.8109718
310.00 0.811478
310.10 0.8119834
310.20 0.812488
310.30 0.8129917
310.40 0.8134819
310.50 0.8139576
310.60 0.8144324
310.70 0.8149065
310.80 0.8153798
310.90 0.8158523
311.00 0.8163704
311.10 0.8168878
311.20 0.8174042
311.30 0.8179174
311.40 0.8184226
311.50 0.818927
311.60 0.8194305
311.70 0.8199333
311.80 0.8204352
311.90 0.8209363
312.00 0.8214366
312.10 0.8219361
312.20 0.8224877
312.30 0.8230211
312.40 0.8234963
312.50 0.8239495
312.60 0.82446
312.70 0.8249698
312.80 0.8254787
312.90 0.8259571
313.00 0.8264026
313.10 0.8268474
313.20 0.8272914
313.30 0.8277482
313.40 0.8282428
313.50 0.8287365
313.60 0.8292294
313.70 0.8297216
313.80 0.8302129
313.90 0.8307035
314.00 0.8311932
314.10 0.8316849
314.20 0.8321758
314.30 0.8326659
314.40 0.8331552
314.50 0.8336437
314.60 0.8341314
314.70 0.8346183
314.80 0.835094
314.90 0.8355643
315.00 0.8360613
315.10 0.8365438
315.20 0.8370255
315.30 0.8375064
315.40 0.8379866
315.50 0.838466
315.60 0.8389446
315.70 0.8394224
315.80 0.8398995
315.90 0.8403757
316.00 0.8408512
316.10 0.841326
316.20 0.8418
316.30 0.8422732
316.40 0.8428712
316.50 0.8433428
316.60 0.8436882
316.70 0.8441583
316.80 0.8446277
316.90 0.8450963
317.00 0.8455642
317.10 0.8460313
317.20 0.8464977
317.30 0.846969
317.40 0.8474527
317.50 0.847973
317.60 0.8484924
317.70 0.8490111
317.80 0.8495289
317.90 0.8499767
318.00 0.8504599
318.10 0.8509194
318.20 0.851378
318.30 0.851836
318.40 0.8522932
318.50 0.8527496
318.60 0.8531087
318.70 0.8536875
318.80 0.8541046
318.90 0.8545952
319.00 0.8550208
319.10 0.8554728
319.20 0.8559221
319.30 0.8563648
319.40 0.8568068
319.50 0.8572481
319.60 0.8577199
319.70 0.8581597
319.80 0.8585988
319.90 0.8590372
320.00 0.8594786
320.10 0.8599234
320.20 0.8604716
320.30 0.8609283
320.40 0.8615178
320.50 0.8618126
320.60 0.8623809
320.70 0.8628212
320.80 0.8632608
320.90 0.8636996
321.00 0.8641377
321.10 0.8645751
321.20 0.8650398
321.30 0.8654707
321.40 0.8659009
321.50 0.8663304
321.60 0.8667592
321.70 0.8671873
321.80 0.8676235
321.90 0.8680683
322.00 0.8685319
322.10 0.8689876
322.20 0.8694425
322.30 0.8698966
322.40 0.8703501
322.50 0.8708028
322.60 0.8712547
322.70 0.871706
322.80 0.8721787
322.90 0.8726239
323.00 0.8730683
323.10 0.873512
323.20 0.873955
323.30 0.8743973
323.40 0.8748389
323.50 0.8752797
323.60 0.8757199
323.70 0.8761593
323.80 0.876598
323.90 0.877036
324.00 0.8774555
324.10 0.8778742
324.20 0.8782923
324.30 0.8786995
324.40 0.8790996
324.50 0.8795236
324.60 0.8799469
324.70 0.8803696
324.80 0.8807916
324.90 0.8812128
325.00 0.8816334
325.10 0.8820533
325.20 0.882483
325.30 0.8829341
325.40 0.8833845
325.50 0.883818
325.60 0.8842312
325.70 0.8846437
325.80 0.8850555
325.90 0.8854933
326.00 0.8859594
326.10 0.8864248
326.20 0.8868894
326.30 0.887335
326.40 0.8877281
326.50 0.8881429
326.60 0.888557
326.70 0.8889705
326.80 0.8893833
326.90 0.8897954
327.00 0.8902068
327.10 0.8906176
327.20 0.8910277
327.30 0.8914371
327.40 0.8918459
327.50 0.892254
327.60 0.8926615
327.70 0.8930682
327.80 0.8934744
327.90 0.8939686
328.00 0.8944784
328.10 0.8948897
328.20 0.8953004
328.30 0.8957105
328.40 0.8961198
328.50 0.8965
328.60 0.8968729
328.70 0.8972451
328.80 0.8976291
328.90 0.8980479
329.00 0.8984659
329.10 0.8988833
329.20 0.8993
329.30 0.8997161
329.40 0.9001314
329.50 0.9005461
329.60 0.9009601
329.70 0.9013735
329.80 0.9017862
329.90 0.9021982
330.00 0.9025972
330.10 0.9029805
330.20 0.9033632
330.30 0.9037452
330.40 0.9041321
330.50 0.9045243
330.60 0.9049158
330.70 0.9053067
330.80 0.905697
330.90 0.9060866
331.00 0.9064756
331.10 0.906864
331.20 0.9072517
331.30 0.9076388
331.40 0.9080252
331.50 0.9084458
331.60 0.9089083
331.70 0.90937
331.80 0.909755
331.90 0.9101362
332.00 0.9105168
332.10 0.9108967
332.20 0.9112761
332.30 0.9116548
332.40 0.9120329
332.50 0.9124103
332.60 0.9127872
332.70 0.9131634
332.80 0.913539
332.90 0.913914
333.00 0.9142884
333.10 0.9146753
333.20 0.9150777
333.30 0.9154794
333.40 0.9158805
333.50 0.9162809
333.60 0.9166807
333.70 0.9170798
333.80 0.9174783
333.90 0.9178761
334.00 0.9182733
334.10 0.9186665
334.20 0.9190549
334.30 0.9194427
334.40 0.9198299
334.50 0.9202164
334.60 0.9206023
334.70 0.9209552
334.80 0.9213004
334.90 0.9216916
335.00 0.9220822
335.10 0.9223564
335.20 0.9227014
335.30 0.9231464
335.40 0.9234902
335.50 0.9238334
335.60 0.9242597
335.70 0.9246407
335.80 0.9249821
335.90 0.925348
336.00 0.925744
336.10 0.9261392
336.20 0.9265339
336.30 0.9269196
336.40 0.9272945
336.50 0.9276687
336.60 0.9280424
336.70 0.9284154
336.80 0.9287879
336.90 0.9291392
337.00 0.9294647
337.10 0.9297898
337.20 0.9301142
337.30 0.9304594
337.40 0.9308345
337.50 0.931209
337.60 0.9315829
337.70 0.9319562
337.80 0.9323289
337.90 0.9326886
338.00 0.9330326
338.10 0.933376
338.20 0.9337189
338.30 0.9340612
338.40 0.9344091
338.50 0.9347715
338.60 0.9351333
338.70 0.9354945
338.80 0.9358552
338.90 0.9362152
339.00 0.9365747
339.10 0.9369336
339.20 0.9372919
339.30 0.937642
339.40 0.9379806
339.50 0.9383319
339.60 0.9386991
339.70 0.9390656
339.80 0.9394316
339.90 0.9397969
340.00 0.9401617
340.10 0.9405258
340.20 0.9408894
340.30 0.9412524
340.40 0.9416148
340.50 0.9419766
340.60 0.9423378
340.70 0.9426984
340.80 0.9430464
340.90 0.9433764
341.00 0.9437101
341.10 0.9440484
341.20 0.9443861
341.30 0.9447233
341.40 0.9450599
341.50 0.9453959
341.60 0.9457314
341.70 0.9460663
341.80 0.9464114
341.90 0.946769
342.00 0.9471259
342.10 0.9474823
342.20 0.9477636
342.30 0.9480584
342.40 0.9484198
342.50 0.9487653
342.60 0.9491102
342.70 0.9494545
342.80 0.9497982
342.90 0.9501414
343.00 0.9504853
343.10 0.9508302
343.20 0.9511746
343.30 0.9515183
343.40 0.951858
343.50 0.9521918
343.60 0.9525251
343.70 0.9528579
343.80 0.9531901
343.90 0.9535218
344.00 0.9538384
344.10 0.9541336
344.20 0.9544283
344.30 0.9547225
344.40 0.9550162
344.50 0.9553093
344.60 0.9556888
344.70 0.955981
344.80 0.9562726
344.90 0.9566641
345.00 0.956979
345.10 0.9572691
345.20 0.9575926
345.30 0.9579643
345.40 0.9583354
345.50 0.9586542
345.60 0.9589369
345.70 0.9592589
345.80 0.9595804
345.90 0.9599014
346.00 0.9602218
346.10 0.9605417
346.20 0.960864
346.30 0.9611898
346.40 0.9615151
346.50 0.9618399
346.60 0.9621641
346.70 0.9624878
346.80 0.9628109
346.90 0.9631336
347.00 0.9634557
347.10 0.9637772
347.20 0.9640952
347.30 0.9644081
347.40 0.9647206
347.50 0.9650325
347.60 0.9653439
347.70 0.9656548
347.80 0.9659652
347.90 0.966275
348.00 0.9665844
348.10 0.9668932
348.20 0.9672015
348.30 0.9675093
348.40 0.9678166
348.50 0.9681234
348.60 0.9684296
348.70 0.9686631
348.80 0.9689153
348.90 0.9692276
349.00 0.9695393
349.10 0.9698506
349.20 0.9701613
349.30 0.9704715
349.40 0.9707812
349.50 0.9710904
349.60 0.9713991
349.70 0.9717072
349.80 0.9720149
349.90 0.972322
350.00 0.9726287
350.10 0.9729348
350.20 0.9732404
350.30 0.9735348
350.40 0.9738133
350.50 0.9740913
350.60 0.9743688
350.70 0.9746458
350.80 0.9749224
350.90 0.9751985
351.00 0.9754741
351.10 0.9757493
351.20 0.976024
351.30 0.9762982
351.40 0.976578
351.50 0.9768682
351.60 0.9771579
351.70 0.9774471
351.80 0.9777358
351.90 0.978024
352.00 0.9783118
352.10 0.978599
352.20 0.9789848
352.30 0.9793341
352.40 0.9796156
352.50 0.9798965
352.60 0.980177
352.70 0.980457
352.80 0.9807366
352.90 0.9810156
353.00 0.9812942
353.10 0.9815723
353.20 0.98185
353.30 0.9821271
353.40 0.9824039
353.50 0.9826672
353.60 0.9829268
353.70 0.9831859
353.80 0.9834447
353.90 0.9837087
354.00 0.9839826
354.10 0.984256
354.20 0.9845289
354.30 0.9848014
354.40 0.9850734
354.50 0.985345
354.60 0.9856161
354.70 0.9858867
354.80 0.9861711
354.90 0.9864756
355.00 0.9867796
355.10 0.9870831
355.20 0.9873861
355.30 0.9876623
355.40 0.987938
355.50 0.9882133
355.60 0.9884881
355.70 0.9887194
355.80 0.988931
355.90 0.989249
356.00 0.9895654
356.10 0.9898337
356.20 0.9901015
356.30 0.9903689
356.40 0.9906358
356.50 0.9909023
356.60 0.9911683
356.70 0.9914338
356.80 0.9916989
356.90 0.9919635
357.00 0.9922277
357.10 0.9924915
357.20 0.9927547
357.30 0.9930176
357.40 0.9932597
357.50 0.9934653
357.60 0.9936706
357.70 0.9938755
357.80 0.9942129
357.90 0.9945497
358.00 0.9948191
358.10 0.9950712
358.20 0.9953229
358.30 0.9955742
358.40 0.995825
358.50 0.9960754
358.60 0.9963254
358.70 0.9965749
358.80 0.996824
358.90 0.9970727
359.00 0.9973151
359.10 0.9975467
359.20 0.9977844
359.30 0.9980651
359.40 0.9983453
359.50 0.9985685
359.60 0.9987772
359.70 0.9989854
359.80 0.9992396
359.90 0.9994933
360.00 0.9997417
360.10 0.999981
360.20 1.00022
360.30 1.000458
360.40 1.000696
360.50 1.000934
360.60 1.001263
360.70 1.001529
360.80 1.001795
360.90 1.00206
361.00 1.002278
361.10 1.002504
361.20 1.002656
361.30 1.002948
361.40 1.00324
361.50 1.003455
361.60 1.003635
361.70 1.003945
361.80 1.004213
361.90 1.004409
362.00 1.004603
362.10 1.004838
362.20 1.005082
362.30 1.005325
362.40 1.005568
362.50 1.005811
362.60 1.006053
362.70 1.006295
362.80 1.006441
362.90 1.006741
363.00 1.007041
363.10 1.007271
363.20 1.0075
363.30 1.007673
363.40 1.00788
363.50 1.008087
363.60 1.008389
363.70 1.008563
363.80 1.008895
363.90 1.009109
364.00 1.009323
364.10 1.009537
364.20 1.00975
364.30 1.009938
364.40 1.010121
364.50 1.01052
364.60 1.01072
364.70 1.01092
364.80 1.011119
364.90 1.01132
365.00 1.011521
365.10 1.011722
365.20 1.012016
365.30 1.012216
365.40 1.012509
365.50 1.012708
365.60 1.012907
365.70 1.013122
365.80 1.013337
365.90 1.013522
366.00 1.013698
366.10 1.013928
366.20 1.014157
366.30 1.014386
366.40 1.014615
366.50 1.014857
366.60 1.01506
366.70 1.015286
366.80 1.015511
366.90 1.015734
367.00 1.015953
367.10 1.016171
367.20 1.016389
367.30 1.016607
367.40 1.016824
367.50 1.017004
367.60 1.017175
367.70 1.017405
367.80 1.017634
367.90 1.017863
368.00 1.018028
368.10 1.018301
368.20 1.018504
368.30 1.018704
368.40 1.018904
368.50 1.019103
368.60 1.019302
368.70 1.019501
368.80 1.019699
368.90 1.019865
369.00 1.020097
369.10 1.02036
369.20 1.020553
369.30 1.020738
369.40 1.020923
369.50 1.021107
369.60 1.021287
369.70 1.021467
369.80 1.02166
369.90 1.021853
370.00 1.022045
370.10 1.022376
370.20 1.022563
370.30 1.022744
370.40 1.022923
370.50 1.023104
370.60 1.023284
370.70 1.023473
370.80 1.023649
370.90 1.023825
371.00 1.024098
371.10 1.024372
371.20 1.024547
371.30 1.024721
371.40 1.02481
371.50 1.025005
371.60 1.025199
371.70 1.025393
371.80 1.025587
371.90 1.025781
372.00 1.026041
372.10 1.026139
372.20 1.026344
372.30 1.026548
372.40 1.026753
372.50 1.026956
372.60 1.02716
372.70 1.027363
372.80 1.027532
372.90 1.027701
373.00 1.027877
373.10 1.028052
373.20 1.028223
373.30 1.028394
373.40 1.028655
373.50 1.028825
373.60 1.028995
373.70 1.029255
373.80 1.029441
373.90 1.029593
374.00 1.029762
374.10 1.02993
374.20 1.030098
374.30 1.030265
374.40 1.0305
374.50 1.030595
374.60 1.030761
374.70 1.030929
374.80 1.031097
374.90 1.031264
375.00 1.031489
375.10 1.031714
375.20 1.031938
375.30 1.032102
375.40 1.032266
375.50 1.03243
375.60 1.032593
375.70 1.032756
375.80 1.032919
375.90 1.033081
376.00 1.033236
376.10 1.033422
376.20 1.033609
376.30 1.033794
376.40 1.03398
376.50 1.034141
376.60 1.034264
376.70 1.034387
376.80 1.034546
376.90 1.034739
377.00 1.034933
377.10 1.035126
377.20 1.035313
377.30 1.03548
377.40 1.035646
377.50 1.035812
377.60 1.035954
377.70 1.036095
377.80 1.036236
377.90 1.036377
378.00 1.036585
378.10 1.036751
378.20 1.036915
378.30 1.037079
378.40 1.037242
378.50 1.037405
378.60 1.037568
378.70 1.03773
378.80 1.037892
378.90 1.038033
379.00 1.038133
379.10 1.038356
379.20 1.038578
379.30 1.038753
379.40 1.038882
379.50 1.03901
379.60 1.039161
379.70 1.03934
379.80 1.039493
379.90 1.039645
380.00 1.039797
380.10 1.039949
380.20 1.0401
380.30 1.040251
380.40 1.040402
380.50 1.040553
380.60 1.040644
380.70 1.040807
380.80 1.04097
380.90 1.041133
381.00 1.041295
381.10 1.041398
381.20 1.041548
381.30 1.04183
381.40 1.041953
381.50 1.042116
381.60 1.042227
381.70 1.042318
381.80 1.042456
381.90 1.0426
382.00 1.042743
382.10 1.042886
382.20 1.043133
382.30 1.043275
382.40 1.043401
382.50 1.0435
382.60 1.0436
382.70 1.043729
382.80 1.043898
382.90 1.044072
383.00 1.044246
383.10 1.04442
383.20 1.044582
383.30 1.044699
383.40 1.044795
383.50 1.044861
383.60 1.045061
383.70 1.045191
383.80 1.045321
383.90 1.045451
384.00 1.045581
384.10 1.04571
384.20 1.045839
384.30 1.045968
384.40 1.046097
384.50 1.046227
384.60 1.046357
384.70 1.046486
384.80 1.04664
384.90 1.046839
385.00 1.04695
385.10 1.047061
385.20 1.047167
385.30 1.047312
385.40 1.047448
385.50 1.047575
385.60 1.047702
385.70 1.047828
385.80 1.047959
385.90 1.048108
386.00 1.048269
386.10 1.048438
386.20 1.048546
386.30 1.048654
386.40 1.048769
386.50 1.048943
386.60 1.049076
386.70 1.049122
386.80 1.049336
386.90 1.049382
387.00 1.049562
387.10 1.049687
387.20 1.04984
387.30 1.049944
387.40 1.050031
387.50 1.050159
387.60 1.050297
387.70 1.050424
387.80 1.050551
387.90 1.050678
388.00 1.050787
388.10 1.050867
388.20 1.051068
388.30 1.051162
388.40 1.051256
388.50 1.051383
388.60 1.051514
388.70 1.051662
388.80 1.051731
388.90 1.051762
389.00 1.051923
389.10 1.05208
389.20 1.052193
389.30 1.05233
389.40 1.052385
389.50 1.05248
389.60 1.052611
389.70 1.052683
389.80 1.052818
389.90 1.052954
390.00 1.053089
390.10 1.053223
390.20 1.053357
390.30 1.053471
390.40 1.053563
390.50 1.053654
390.60 1.053744
390.70 1.053835
390.80 1.053936
390.90 1.054047
391.00 1.054185
391.10 1.054285
391.20 1.05439
391.30 1.054513
391.40 1.05463
391.50 1.054748
391.60 1.054865
391.70 1.054982
391.80 1.055099
391.90 1.055196
392.00 1.055279
392.10 1.055378
392.20 1.05547
392.30 1.055542
392.40 1.055668
392.50 1.055794
392.60 1.055828
392.70 1.056024
392.80 1.056057
392.90 1.05614
393.00 1.056296
393.10 1.056403
393.20 1.05646
393.30 1.056573
393.40 1.056668
393.50 1.05681
393.60 1.056826
393.70 1.05692
393.80 1.057128
393.90 1.057158
394.00 1.057208
394.10 1.057396
394.20 1.057517
394.30 1.05759
394.40 1.057634
394.50 1.057691
394.60 1.057787
394.70 1.057889
394.80 1.05802
394.90 1.058145
395.00 1.058148
395.10 1.058251
395.20 1.058315
395.30 1.058409
395.40 1.058502
395.50 1.058614
395.60 1.058732
395.70 1.058837
395.80 1.058908
395.90 1.058978
396.00 1.059065
396.10 1.059252
396.20 1.059278
396.30 1.059369
396.40 1.059475
396.50 1.059606
396.60 1.059657
396.70 1.059743
396.80 1.059844
396.90 1.05996
397.00 1.060048
397.10 1.060046
397.20 1.06008
397.30 1.060203
397.40 1.06027
397.50 1.060338
397.60 1.060406
397.70 1.060493
397.80 1.06058
397.90 1.060668
398.00 1.060759
398.10 1.060849
398.20 1.060952
398.30 1.061069
398.40 1.061184
398.50 1.061261
398.60 1.061266
398.70 1.061352
398.80 1.061465
398.90 1.061557
399.00 1.06161
399.10 1.061607
399.20 1.061691
399.30 1.061774
399.40 1.061857
399.50 1.06194
399.60 1.062014
399.70 1.062086
399.80 1.062157
399.90 1.062228
400.00 1.062299
400.10 1.062372
400.20 1.062492
400.30 1.062598
400.40 1.062687
400.50 1.062766
400.60 1.062792
400.70 1.06281
400.80 1.06287
400.90 1.062938
401.00 1.063107
401.10 1.063129
401.20 1.063178
401.30 1.063216
401.40 1.063308
401.50 1.063414
401.60 1.063518
401.70 1.063588
401.80 1.063587
401.90 1.063647
402.00 1.063736
402.10 1.063812
402.20 1.063925
402.30 1.063931
402.40 1.063991
402.50 1.064027
402.60 1.064136
402.70 1.064211
402.80 1.064225
402.90 1.06427
403.00 1.064361
403.10 1.064421
403.20 1.06453
403.30 1.064597
403.40 1.064593
403.50 1.064671
403.60 1.06477
403.70 1.064808
403.80 1.064914
403.90 1.064912
404.00 1.064945
404.10 1.065011
404.20 1.0651
404.30 1.065189
404.40 1.065207
404.50 1.065288
404.60 1.065299
404.70 1.065387
404.80 1.065492
404.90 1.065562
405.00 1.06555
405.10 1.065604
405.20 1.06568
405.30 1.065756
405.40 1.065791
405.50 1.065826
405.60 1.065861
405.70 1.065896
405.80 1.065931
405.90 1.065965
406.00 1.066023
406.10 1.066081
406.20 1.066139
406.30 1.066197
406.40 1.066252
406.50 1.066322
406.60 1.066405
406.70 1.06646
406.80 1.06647
406.90 1.066521
407.00 1.066574
407.10 1.066627
407.20 1.066679
407.30 1.066731
407.40 1.066783
407.50 1.066835
407.60 1.066887
407.70 1.066939
407.80 1.06699
407.90 1.067041
408.00 1.067096
408.10 1.067111
408.20 1.067135
408.30 1.067202
408.40 1.067269
408.50 1.067207
408.60 1.067258
408.70 1.067309
408.80 1.067373
408.90 1.067508
409.00 1.067534
409.10 1.06756
409.20 1.067586
409.30 1.067612
409.40 1.067639
409.50 1.0677
409.60 1.067761
409.70 1.067817
409.80 1.067848
409.90 1.067879
410.00 1.067939
410.10 1.067917
410.20 1.067963
410.30 1.068026
410.40 1.068078
410.50 1.068098
410.60 1.068118
410.70 1.068138
410.80 1.068161
410.90 1.068184
411.00 1.068211
411.10 1.068239
411.20 1.068267
411.30 1.068313
411.40 1.068425
411.50 1.068431
411.60 1.068436
411.70 1.068455
411.80 1.068529
411.90 1.068559
412.00 1.068559
412.10 1.06867
412.20 1.068558
412.30 1.06861
412.40 1.068721
412.50 1.068736
412.60 1.068745
412.70 1.068792
412.80 1.068849
412.90 1.06879
413.00 1.068831
413.10 1.068869
413.20 1.068907
413.30 1.068945
413.40 1.068983
413.50 1.069001
413.60 1.068966
413.70 1.069
413.80 1.069034
413.90 1.069068
414.00 1.069111
414.10 1.069181
414.20 1.069198
414.30 1.069195
414.40 1.069162
414.50 1.069196
414.60 1.069237
414.70 1.069306
414.80 1.069358
414.90 1.069354
415.00 1.069349
415.10 1.069345
415.20 1.069349
415.30 1.069379
415.40 1.069409
415.50 1.069438
415.60 1.069445
415.70 1.069452
415.80 1.06946
415.90 1.069472
416.00 1.069484
416.10 1.069502
416.20 1.069545
416.30 1.069588
416.40 1.069631
416.50 1.069672
416.60 1.069666
416.70 1.069655
416.80 1.06965
416.90 1.069719
417.00 1.06967
417.10 1.069777
417.20 1.06977
417.30 1.069762
417.40 1.06976
417.50 1.069757
417.60 1.069751
417.70 1.069733
417.80 1.069749
417.90 1.069765
418.00 1.069781
418.10 1.069797
418.20 1.069813
418.30 1.069829
418.40 1.069859
418.50 1.069878
418.60 1.069897
418.70 1.069915
418.80 1.069934
418.90 1.069952
419.00 1.06997
419.10 1.069988
419.20 1.070006
419.30 1.070023
419.40 1.070018
419.50 1.070013
419.60 1.070012
419.70 1.070033
419.80 1.070054
419.90 1.070068
420.00 1.070061
420.10 1.070054
420.20 1.070047
420.30 1.070039
420.40 1.070032
420.50 1.070025
420.60 1.070017
420.70 1.07001
420.80 1.070002
420.90 1.069994
421.00 1.069996
421.10 1.069998
421.20 1.070004
421.30 1.070022
421.40 1.070039
