# Version 2.1 - nm, norm@500 to 1, cut digits, bergeron_He_24000_90.dat_24000
# Wavelength(nm)  Flambda(ergs/cm^s/s/nm)
300.00 4.79485
300.10 4.791294
300.20 4.787702
300.30 4.78409
300.40 4.780326
300.50 4.776566
300.60 4.77281
300.70 4.769058
300.80 4.76531
300.90 4.761565
301.00 4.757825
301.10 4.754089
301.20 4.750356
301.30 4.746628
301.40 4.742903
301.50 4.739182
301.60 4.735465
301.70 4.731752
301.80 4.728043
301.90 4.724338
302.00 4.720637
302.10 4.716452
302.20 4.712219
302.30 4.707989
302.40 4.703765
302.50 4.699544
302.60 4.695329
302.70 4.691118
302.80 4.686911
302.90 4.682709
303.00 4.678512
303.10 4.674319
303.20 4.67013
303.30 4.665932
303.40 4.661609
303.50 4.657291
303.60 4.652977
303.70 4.648669
303.80 4.644364
303.90 4.640065
304.00 4.63577
304.10 4.63148
304.20 4.627194
304.30 4.622913
304.40 4.618637
304.50 4.614365
304.60 4.610034
304.70 4.605701
304.80 4.601372
304.90 4.597048
305.00 4.592728
305.10 4.588414
305.20 4.584104
305.30 4.579798
305.40 4.575497
305.50 4.571201
305.60 4.56691
305.70 4.562623
305.80 4.558341
305.90 4.554063
306.00 4.54979
306.10 4.545522
306.20 4.541258
306.30 4.536999
306.40 4.532669
306.50 4.528321
306.60 4.523977
306.70 4.519639
306.80 4.515305
306.90 4.510975
307.00 4.506651
307.10 4.502331
307.20 4.498016
307.30 4.493705
307.40 4.489399
307.50 4.485098
307.60 4.480801
307.70 4.476509
307.80 4.472222
307.90 4.467939
308.00 4.463661
308.10 4.459387
308.20 4.455118
308.30 4.450854
308.40 4.446594
308.50 4.442339
308.60 4.438089
308.70 4.433843
308.80 4.429524
308.90 4.424992
309.00 4.420619
309.10 4.41625
309.20 4.411886
309.30 4.407527
309.40 4.403126
309.50 4.398443
309.60 4.393764
309.70 4.389091
309.80 4.384423
309.90 4.37976
310.00 4.375102
310.10 4.370449
310.20 4.365802
310.30 4.361159
310.40 4.356489
310.50 4.351789
310.60 4.347095
310.70 4.342405
310.80 4.33772
310.90 4.333041
311.00 4.328042
311.10 4.323048
311.20 4.31806
311.30 4.313088
311.40 4.308154
311.50 4.303225
311.60 4.298302
311.70 4.293385
311.80 4.288472
311.90 4.283565
312.00 4.278664
312.10 4.273768
312.20 4.268795
312.30 4.263724
312.40 4.258716
312.50 4.253445
312.60 4.248247
312.70 4.243054
312.80 4.237867
312.90 4.232477
313.00 4.226868
313.10 4.221266
313.20 4.215669
313.30 4.209994
313.40 4.204079
313.50 4.198172
313.60 4.192271
313.70 4.186377
313.80 4.180489
313.90 4.174608
314.00 4.168734
314.10 4.162279
314.20 4.155832
314.30 4.149392
314.40 4.14296
314.50 4.136535
314.60 4.130117
314.70 4.123706
314.80 4.11694
314.90 4.109671
315.00 4.102973
315.10 4.095665
315.20 4.088366
315.30 4.081075
315.40 4.073793
315.50 4.066519
315.60 4.059253
315.70 4.051913
315.80 4.04458
315.90 4.037256
316.00 4.029941
316.10 4.021883
316.20 4.013834
316.30 4.004795
316.40 3.990767
316.50 3.969263
316.60 3.937802
316.70 3.905382
316.80 3.873002
316.90 3.865077
317.00 3.857161
317.10 3.849255
317.20 3.841357
317.30 3.851505
317.40 3.858009
317.50 3.854181
317.60 3.850357
317.70 3.846537
317.80 3.842721
317.90 3.818804
318.00 3.786619
318.10 3.735529
318.20 3.684502
318.30 3.633539
318.40 3.565378
318.50 3.448206
318.60 3.312339
318.70 3.028708
318.80 2.487342
318.90 2.852302
319.00 3.054858
319.10 3.186119
319.20 3.300447
319.30 3.366938
319.40 3.433344
319.50 3.499667
319.60 3.553272
319.70 3.587315
319.80 3.621314
319.90 3.65527
320.00 3.683536
320.10 3.705653
320.20 3.726597
320.30 3.744534
320.40 3.76111
320.50 3.775521
320.60 3.788277
320.70 3.799538
320.80 3.808567
320.90 3.815183
321.00 3.82179
321.10 3.828389
321.20 3.83392
321.30 3.836566
321.40 3.839207
321.50 3.841845
321.60 3.844478
321.70 3.847107
321.80 3.849206
321.90 3.85073
322.00 3.850615
322.10 3.850744
322.20 3.850872
322.30 3.850999
322.40 3.851125
322.50 3.851251
322.60 3.851375
322.70 3.851499
322.80 3.850595
322.90 3.848892
323.00 3.847191
323.10 3.845491
323.20 3.843792
323.30 3.842095
323.40 3.840399
323.50 3.838705
323.60 3.837011
323.70 3.83532
323.80 3.833629
323.90 3.83194
324.00 3.829575
324.10 3.827212
324.20 3.824852
324.30 3.822493
324.40 3.819857
324.50 3.816921
324.60 3.813988
324.70 3.811057
324.80 3.808129
324.90 3.805205
325.00 3.802283
325.10 3.799364
325.20 3.796422
325.30 3.793429
325.40 3.79044
325.50 3.787428
325.60 3.784388
325.70 3.781352
325.80 3.778318
325.90 3.775201
326.00 3.771993
326.10 3.768788
326.20 3.765586
326.30 3.762231
326.40 3.758435
326.50 3.755099
326.60 3.751766
326.70 3.748436
326.80 3.74511
326.90 3.741787
327.00 3.738467
327.10 3.735151
327.20 3.731838
327.30 3.728529
327.40 3.725223
327.50 3.72192
327.60 3.71862
327.70 3.715324
327.80 3.712032
327.90 3.708367
328.00 3.70412
328.10 3.699659
328.20 3.695202
328.30 3.69075
328.40 3.686303
328.50 3.682583
328.60 3.679036
328.70 3.675494
328.80 3.67213
328.90 3.669271
329.00 3.666415
329.10 3.663561
329.20 3.66071
329.30 3.657862
329.40 3.655016
329.50 3.652174
329.60 3.649334
329.70 3.646497
329.80 3.643663
329.90 3.640831
330.00 3.63797
330.10 3.635072
330.20 3.632177
330.30 3.629285
330.40 3.626289
330.50 3.623181
330.60 3.620077
330.70 3.616975
330.80 3.613877
330.90 3.610781
331.00 3.607689
331.10 3.604599
331.20 3.601513
331.30 3.59843
331.40 3.59535
331.50 3.592188
331.60 3.588925
331.70 3.585666
331.80 3.582492
331.90 3.579325
332.00 3.576161
332.10 3.573
332.20 3.569842
332.30 3.566688
332.40 3.563536
332.50 3.560388
332.60 3.557243
332.70 3.554101
332.80 3.550962
332.90 3.547827
333.00 3.544694
333.10 3.541488
333.20 3.53819
333.30 3.534896
333.40 3.531606
333.50 3.528318
333.60 3.525034
333.70 3.521754
333.80 3.518476
333.90 3.515202
334.00 3.511931
334.10 3.508583
334.20 3.50514
334.30 3.5017
334.40 3.498263
334.50 3.49483
334.60 3.491401
334.70 3.487805
334.80 3.48401
334.90 3.480227
335.00 3.476447
335.10 3.472723
335.20 3.469761
335.30 3.467091
335.40 3.463689
335.50 3.461291
335.60 3.45834
335.70 3.45608
335.80 3.453578
335.90 3.450979
336.00 3.448261
336.10 3.445544
336.20 3.442831
336.30 3.440153
336.40 3.437519
336.50 3.434887
336.60 3.432257
336.70 3.42963
336.80 3.427006
336.90 3.424256
337.00 3.421351
337.10 3.41845
337.20 3.415551
337.30 3.41271
337.40 3.409949
337.50 3.407192
337.60 3.404437
337.70 3.401685
337.80 3.398935
337.90 3.396137
338.00 3.393279
338.10 3.390424
338.20 3.387571
338.30 3.384722
338.40 3.381835
338.50 3.378853
338.60 3.375875
338.70 3.372899
338.80 3.369927
338.90 3.366957
339.00 3.36399
339.10 3.361026
339.20 3.358065
339.30 3.355145
339.40 3.352282
339.50 3.34934
339.60 3.346303
339.70 3.34327
339.80 3.340239
339.90 3.337211
340.00 3.334186
340.10 3.331163
340.20 3.328144
340.30 3.325128
340.40 3.322115
340.50 3.319105
340.60 3.316098
340.70 3.313094
340.80 3.309985
340.90 3.306725
341.00 3.303529
341.10 3.30041
341.20 3.297293
341.30 3.29418
341.40 3.29107
341.50 3.287963
341.60 3.284859
341.70 3.281758
341.80 3.278555
341.90 3.275228
342.00 3.271903
342.10 3.268582
342.20 3.264691
342.30 3.260947
342.40 3.257613
342.50 3.253993
342.60 3.250377
342.70 3.246765
342.80 3.243156
342.90 3.239551
343.00 3.236057
343.10 3.232698
343.20 3.229342
343.30 3.22599
343.40 3.222432
343.50 3.218577
343.60 3.214726
343.70 3.210879
343.80 3.207035
343.90 3.203196
344.00 3.19913
344.10 3.194735
344.20 3.190345
344.30 3.185959
344.40 3.181751
344.50 3.177796
344.60 3.173845
344.70 3.169898
344.80 3.168501
344.90 3.167947
345.00 3.167027
345.10 3.166453
345.20 3.165478
345.30 3.163928
345.40 3.16238
345.50 3.161068
345.60 3.159657
345.70 3.15769
345.80 3.155725
345.90 3.153761
346.00 3.151799
346.10 3.149838
346.20 3.147766
346.30 3.145531
346.40 3.143298
346.50 3.141067
346.60 3.138838
346.70 3.136612
346.80 3.134387
346.90 3.132164
347.00 3.129944
347.10 3.127725
347.20 3.125423
347.30 3.123001
347.40 3.12058
347.50 3.118162
347.60 3.115746
347.70 3.113333
347.80 3.110922
347.90 3.108513
348.00 3.106106
348.10 3.103702
348.20 3.101299
348.30 3.098899
348.40 3.096502
348.50 3.094106
348.60 3.091713
348.70 3.089328
348.80 3.086883
348.90 3.084346
349.00 3.081812
349.10 3.07928
349.20 3.076751
349.30 3.074224
349.40 3.071699
349.50 3.069177
349.60 3.066657
349.70 3.06414
349.80 3.061625
349.90 3.059112
350.00 3.056602
350.10 3.054094
350.20 3.051588
350.30 3.049064
350.40 3.046513
350.50 3.043964
350.60 3.041417
350.70 3.038873
350.80 3.036331
350.90 3.033791
351.00 3.031254
351.10 3.02872
351.20 3.026187
351.30 3.023658
351.40 3.021108
351.50 3.01852
351.60 3.015935
351.70 3.013353
351.80 3.010773
351.90 3.008195
352.00 3.00562
352.10 3.003047
352.20 3.000769
352.30 2.998347
352.40 2.995674
352.50 2.993004
352.60 2.990335
352.70 2.98767
352.80 2.985007
352.90 2.982346
353.00 2.979688
353.10 2.977033
353.20 2.97438
353.30 2.97173
353.40 2.969082
353.50 2.966488
353.60 2.963909
353.70 2.961332
353.80 2.958758
353.90 2.956189
354.00 2.953627
354.10 2.951067
354.20 2.948509
354.30 2.945954
354.40 2.943402
354.50 2.940852
354.60 2.938304
354.70 2.935759
354.80 2.933137
354.90 2.930403
355.00 2.927672
355.10 2.924943
355.20 2.922217
355.30 2.919653
355.40 2.917091
355.50 2.914531
355.60 2.911974
355.70 2.90935
355.80 2.906697
355.90 2.903905
356.00 2.901029
356.10 2.898198
356.20 2.895369
356.30 2.892543
356.40 2.889719
356.50 2.886899
356.60 2.884081
356.70 2.881266
356.80 2.878453
356.90 2.875643
357.00 2.872836
357.10 2.870032
357.20 2.86723
357.30 2.864431
357.40 2.861644
357.50 2.858879
357.60 2.856115
357.70 2.853355
357.80 2.850339
357.90 2.847325
358.00 2.844135
358.10 2.840902
358.20 2.837672
358.30 2.834446
358.40 2.831222
358.50 2.828002
358.60 2.824785
358.70 2.821571
358.80 2.818361
358.90 2.815153
359.00 2.81166
359.10 2.807658
359.20 2.803631
359.30 2.799409
359.40 2.795191
359.50 2.791113
359.60 2.787073
359.70 2.783038
359.80 2.778855
359.90 2.774677
360.00 2.770054
360.10 2.764635
360.20 2.759222
360.30 2.753814
360.40 2.748412
360.50 2.743016
360.60 2.737207
360.70 2.730305
360.80 2.723411
360.90 2.716523
361.00 2.70911
361.10 2.700696
361.20 2.692467
361.30 2.68607
361.40 2.695771
361.50 2.705614
361.60 2.709613
361.70 2.708498
361.80 2.70789
361.90 2.708185
362.00 2.708479
362.10 2.708613
362.20 2.708436
362.30 2.707777
362.40 2.707118
362.50 2.70646
362.60 2.705802
362.70 2.7049
362.80 2.703747
362.90 2.703013
363.00 2.70228
363.10 2.701142
363.20 2.700001
363.30 2.699343
363.40 2.698804
363.50 2.698645
363.60 2.698296
363.70 2.698032
363.80 2.697221
363.90 2.696818
364.00 2.696416
364.10 2.696013
364.20 2.695611
364.30 2.695017
364.40 2.694375
364.50 2.693658
364.60 2.692931
364.70 2.692204
364.80 2.691478
364.90 2.690003
365.00 2.688529
365.10 2.687057
365.20 2.685585
365.30 2.684115
365.40 2.682646
365.50 2.681553
365.60 2.680461
365.70 2.679335
365.80 2.67821
365.90 2.676815
366.00 2.675352
366.10 2.673707
366.20 2.672064
366.30 2.670422
366.40 2.668781
366.50 2.667312
366.60 2.665857
366.70 2.66384
366.80 2.661824
366.90 2.659724
367.00 2.657473
367.10 2.655224
367.20 2.652977
367.30 2.650732
367.40 2.648489
367.50 2.6459
367.60 2.643226
367.70 2.640425
367.80 2.637627
367.90 2.634831
368.00 2.631941
368.10 2.628683
368.20 2.62513
368.30 2.621577
368.40 2.618028
368.50 2.614482
368.60 2.61094
368.70 2.607401
368.80 2.603866
368.90 2.600151
369.00 2.596268
369.10 2.592426
369.20 2.588061
369.30 2.583724
369.40 2.579392
369.50 2.575064
369.60 2.570391
369.70 2.565722
369.80 2.56156
369.90 2.557408
370.00 2.553259
370.10 2.549211
370.20 2.545279
370.30 2.54135
370.40 2.537418
370.50 2.535647
370.60 2.537175
370.70 2.539484
370.80 2.54065
370.90 2.541814
371.00 2.542277
371.10 2.542733
371.20 2.54317
371.30 2.543606
371.40 2.544387
371.50 2.544908
371.60 2.545428
371.70 2.545947
371.80 2.546465
371.90 2.546982
372.00 2.547905
372.10 2.5486
372.20 2.548676
372.30 2.548751
372.40 2.548826
372.50 2.5489
372.60 2.548974
372.70 2.549047
372.80 2.548754
372.90 2.548462
373.00 2.547822
373.10 2.547179
373.20 2.545814
373.30 2.54445
373.40 2.542729
373.50 2.540291
373.60 2.53929
373.70 2.539006
373.80 2.538521
373.90 2.537722
374.00 2.53726
374.10 2.536797
374.20 2.536335
374.30 2.535873
374.40 2.535411
374.50 2.534592
374.60 2.533416
374.70 2.532243
374.80 2.53107
374.90 2.529899
375.00 2.52855
375.10 2.527201
375.20 2.525855
375.30 2.524001
375.40 2.522149
375.50 2.520299
375.60 2.518451
375.70 2.516604
375.80 2.514758
375.90 2.512915
376.00 2.510176
376.10 2.50776
376.20 2.505348
376.30 2.502939
376.40 2.500532
376.50 2.497973
376.60 2.495187
376.70 2.492403
376.80 2.489448
376.90 2.48632
377.00 2.483196
377.10 2.480075
377.20 2.476875
377.30 2.473372
377.40 2.469873
377.50 2.466377
377.60 2.462629
377.70 2.458885
377.80 2.455145
377.90 2.451408
378.00 2.447283
378.10 2.442585
378.20 2.437893
378.30 2.433205
378.40 2.428521
378.50 2.423842
378.60 2.419168
378.70 2.414498
378.80 2.409833
378.90 2.404913
379.00 2.399515
379.10 2.393793
379.20 2.388076
379.30 2.382011
379.40 2.375597
379.50 2.369189
379.60 2.362515
379.70 2.355084
379.80 2.346332
379.90 2.337589
380.00 2.328855
380.10 2.32013
380.20 2.311414
380.30 2.302706
380.40 2.294007
380.50 2.285317
380.60 2.275249
380.70 2.267619
380.80 2.259998
380.90 2.252384
381.00 2.244777
381.10 2.244461
381.20 2.241045
381.30 2.23333
381.40 2.225218
381.50 2.216999
381.60 2.208605
381.70 2.200095
381.80 2.194187
381.90 2.19544
382.00 2.190519
382.10 2.197255
382.20 2.207821
382.30 2.217964
382.40 2.227037
382.50 2.23451
382.60 2.241976
382.70 2.248358
382.80 2.252262
382.90 2.254904
383.00 2.257544
383.10 2.26018
383.20 2.262803
383.30 2.265386
383.40 2.268212
383.50 2.271404
383.60 2.274639
383.70 2.277215
383.80 2.279788
383.90 2.282358
384.00 2.284925
384.10 2.28749
384.20 2.290051
384.30 2.292609
384.40 2.294711
384.50 2.296358
384.60 2.298003
384.70 2.299645
384.80 2.301351
384.90 2.302908
385.00 2.30374
385.10 2.304555
385.20 2.304652
385.30 2.304825
385.40 2.304706
385.50 2.304295
385.60 2.303884
385.70 2.303474
385.80 2.302899
385.90 2.301706
386.00 2.300513
386.10 2.299205
386.20 2.296719
386.30 2.294236
386.40 2.291076
386.50 2.286486
386.60 2.280823
386.70 2.272951
386.80 2.2589
386.90 2.253386
387.00 2.249532
387.10 2.246033
387.20 2.242587
387.30 2.237676
387.40 2.231359
387.50 2.22379
387.60 2.213479
387.70 2.199021
387.80 2.184578
387.90 2.17015
388.00 2.153982
388.10 2.1305
388.20 2.095903
388.30 2.053735
388.40 2.011609
388.50 1.958243
388.60 1.877929
388.70 1.759419
388.80 1.536933
388.90 1.385399
389.00 1.594024
389.10 1.729896
389.20 1.820354
389.30 1.888041
389.40 1.94021
389.50 1.986381
389.60 2.022325
389.70 2.049345
389.80 2.068681
389.90 2.087996
390.00 2.107291
390.10 2.126566
390.20 2.145822
390.30 2.160221
390.40 2.169156
390.50 2.178081
390.60 2.186996
390.70 2.195902
390.80 2.203306
390.90 2.209209
391.00 2.213968
391.10 2.217918
391.20 2.221724
391.30 2.22421
391.40 2.225795
391.50 2.227379
391.60 2.228961
391.70 2.230541
391.80 2.232119
391.90 2.233277
392.00 2.233572
392.10 2.233278
392.20 2.232908
392.30 2.23177
392.40 2.230633
392.50 2.229496
392.60 2.228361
392.70 2.226577
392.80 2.224795
392.90 2.222773
393.00 2.220952
393.10 2.218796
393.20 2.216241
393.30 2.213497
393.40 2.210739
393.50 2.20796
393.60 2.204633
393.70 2.200785
393.80 2.197115
393.90 2.193097
394.00 2.189063
394.10 2.184609
394.20 2.179905
394.30 2.175043
394.40 2.169683
394.50 2.163863
394.60 2.15774
394.70 2.151316
394.80 2.143747
394.90 2.136174
395.00 2.128232
395.10 2.11972
395.20 2.110104
395.30 2.100275
395.40 2.090455
395.50 2.078871
395.60 2.066642
395.70 2.053264
395.80 2.036758
395.90 2.020268
396.00 2.003365
396.10 1.980183
396.20 1.951769
396.30 1.920459
396.40 1.880448
396.50 1.929774
396.60 1.982867
396.70 1.991913
396.80 1.984711
396.90 1.979267
397.00 1.997002
397.10 2.020325
397.20 2.034752
397.30 2.040336
397.40 2.0419
397.50 2.043462
397.60 2.044789
397.70 2.043761
397.80 2.042734
397.90 2.04128
398.00 2.038675
398.10 2.036073
398.20 2.03312
398.30 2.029772
398.40 2.02641
398.50 2.022484
398.60 2.018213
398.70 2.013234
398.80 2.008115
398.90 2.002645
399.00 1.996519
399.10 1.989961
399.20 1.983058
399.30 1.976163
399.40 1.969274
399.50 1.962391
399.60 1.955243
399.70 1.948
399.80 1.940765
399.90 1.933536
400.00 1.926315
400.10 1.9191
400.20 1.911511
400.30 1.903524
400.40 1.895418
400.50 1.887379
400.60 1.878648
400.70 1.869607
400.80 1.859666
400.90 1.849297
401.00 1.838188
401.10 1.827446
401.20 1.815301
401.30 1.802832
401.40 1.789059
401.50 1.774831
401.60 1.76056
401.70 1.744417
401.80 1.726777
401.90 1.706903
402.00 1.686268
402.10 1.663795
402.20 1.63997
402.30 1.613693
402.40 1.582696
402.50 1.541266
402.60 1.515472
402.70 1.56442
402.80 1.601887
402.90 1.632041
403.00 1.661425
403.10 1.688809
403.20 1.713893
403.30 1.735762
403.40 1.755514
403.50 1.772701
403.60 1.789162
403.70 1.802924
403.80 1.81461
403.90 1.823819
404.00 1.832758
404.10 1.839192
404.20 1.843795
404.30 1.848393
404.40 1.851207
404.50 1.850848
404.60 1.850544
404.70 1.852685
404.80 1.855576
404.90 1.859401
405.00 1.863666
405.10 1.86802
405.20 1.872541
405.30 1.877056
405.40 1.881306
405.50 1.885552
405.60 1.889793
405.70 1.89403
405.80 1.898262
405.90 1.90249
406.00 1.906195
406.10 1.909896
406.20 1.913594
406.30 1.917287
406.40 1.920959
406.50 1.924144
406.60 1.927726
406.70 1.931089
406.80 1.934392
406.90 1.937993
407.00 1.940786
407.10 1.943577
407.20 1.946364
407.30 1.949149
407.40 1.951931
407.50 1.954709
407.60 1.957485
407.70 1.960258
407.80 1.963028
407.90 1.965772
408.00 1.967765
408.10 1.969766
408.20 1.971749
408.30 1.973716
408.40 1.975682
408.50 1.977305
408.60 1.978619
408.70 1.979931
408.80 1.981218
408.90 1.982232
409.00 1.982985
409.10 1.983737
409.20 1.984488
409.30 1.985239
409.40 1.985981
409.50 1.986487
409.60 1.986993
409.70 1.987477
409.80 1.987881
409.90 1.98826
410.00 1.987868
410.10 1.98789
410.20 1.987491
410.30 1.986987
410.40 1.986325
410.50 1.985162
410.60 1.983999
410.70 1.982637
410.80 1.980471
410.90 1.978308
411.00 1.975551
411.10 1.972577
411.20 1.969606
411.30 1.966432
411.40 1.962404
411.50 1.957064
411.60 1.95173
411.70 1.945506
411.80 1.935708
411.90 1.925036
412.00 1.90553
412.10 1.851274
412.20 1.835356
412.30 1.847478
412.40 1.858546
412.50 1.866044
412.60 1.873118
412.70 1.87856
412.80 1.883592
412.90 1.887973
413.00 1.891088
413.10 1.892849
413.20 1.894608
413.30 1.896365
413.40 1.89812
413.50 1.899827
413.60 1.901287
413.70 1.902561
413.80 1.903833
413.90 1.905104
414.00 1.906128
414.10 1.906375
414.20 1.906691
414.30 1.906646
414.40 1.90625
414.50 1.90654
414.60 1.907369
414.70 1.909068
414.80 1.910904
414.90 1.913181
415.00 1.915455
415.10 1.917727
415.20 1.919968
415.30 1.922116
415.40 1.924262
415.50 1.926395
415.60 1.928168
415.70 1.929939
415.80 1.9317
415.90 1.933436
416.00 1.93517
416.10 1.93673
416.20 1.9376
416.30 1.93847
416.40 1.939338
416.50 1.940195
416.60 1.940705
416.70 1.941215
416.80 1.941153
416.90 1.94077
417.00 1.940579
417.10 1.940945
417.20 1.941452
417.30 1.941958
417.40 1.942448
417.50 1.942938
417.60 1.943437
417.70 1.943968
417.80 1.944184
417.90 1.9444
418.00 1.944615
418.10 1.94483
418.20 1.945045
418.30 1.945246
418.40 1.945045
418.50 1.94486
418.60 1.944675
418.70 1.94449
418.80 1.944305
418.90 1.94412
419.00 1.943935
419.10 1.94375
419.20 1.943564
419.30 1.943369
419.40 1.942845
419.50 1.94232
419.60 1.941793
419.70 1.941251
419.80 1.94071
419.90 1.940131
420.00 1.939429
420.10 1.938728
420.20 1.938028
420.30 1.937328
420.40 1.936628
420.50 1.935929
420.60 1.93523
420.70 1.934532
420.80 1.933834
420.90 1.933129
421.00 1.932211
421.10 1.931294
421.20 1.930377
421.30 1.92946
421.40 1.928545
421.50 1.92763
421.60 1.926715
421.70 1.925802
421.80 1.924889
421.90 1.923976
422.00 1.923065
422.10 1.922118
422.20 1.921031
422.30 1.919944
422.40 1.918856
422.50 1.917692
422.60 1.91653
422.70 1.915369
422.80 1.914208
422.90 1.913049
423.00 1.91189
423.10 1.910732
423.20 1.909575
423.30 1.908419
423.40 1.907264
423.50 1.906109
423.60 1.904956
423.70 1.903803
423.80 1.902651
423.90 1.9015
424.00 1.90035
424.10 1.899201
424.20 1.898053
424.30 1.896906
424.40 1.895808
424.50 1.894522
424.60 1.893237
424.70 1.891954
424.80 1.890671
424.90 1.889389
425.00 1.888108
425.10 1.886829
425.20 1.88555
