# Version 2.1 - nm, norm@500 to 1, cut digits, bergeron_He_4000_70.dat_4000
# Wavelength(nm)  Flambda(ergs/cm^s/s/nm)
300.00 0.02318804
300.10 0.02326942
300.20 0.02335121
300.30 0.02343301
300.40 0.02351551
300.50 0.02359789
300.60 0.02368016
300.70 0.02376232
300.80 0.02384436
300.90 0.02392628
301.00 0.02400809
301.10 0.02408979
301.20 0.02417138
301.30 0.02425285
301.40 0.0243342
301.50 0.02441545
301.60 0.02449658
301.70 0.02457759
301.80 0.0246585
301.90 0.02473929
302.00 0.02481997
302.10 0.02490605
302.20 0.02499262
302.30 0.02507908
302.40 0.02516541
302.50 0.02525163
302.60 0.02533772
302.70 0.0254237
302.80 0.02550955
302.90 0.02559529
303.00 0.02568091
303.10 0.02576641
303.20 0.02585179
303.30 0.02593739
303.40 0.02602583
303.50 0.02611415
303.60 0.02620235
303.70 0.02629043
303.80 0.02637838
303.90 0.02646622
304.00 0.02655393
304.10 0.02664152
304.20 0.026729
304.30 0.02681635
304.40 0.02690358
304.50 0.02699069
304.60 0.02708272
304.70 0.02717518
304.80 0.02726752
304.90 0.02735973
305.00 0.02745181
305.10 0.02754377
305.20 0.0276356
305.30 0.02772731
305.40 0.02781889
305.50 0.02791034
305.60 0.02800167
305.70 0.02809287
305.80 0.02818394
305.90 0.0282749
306.00 0.02836572
306.10 0.02845642
306.20 0.028547
306.30 0.02863745
306.40 0.02873389
306.50 0.02883202
306.60 0.02893001
306.70 0.02902787
306.80 0.0291256
306.90 0.02922319
307.00 0.02932065
307.10 0.02941797
307.20 0.02951517
307.30 0.02961223
307.40 0.02970915
307.50 0.02980595
307.60 0.02990261
307.70 0.02999914
307.80 0.03009554
307.90 0.03019181
308.00 0.03028795
308.10 0.03038395
308.20 0.03047983
308.30 0.03057557
308.40 0.03067118
308.50 0.03076667
308.60 0.03086202
308.70 0.03095724
308.80 0.03105393
308.90 0.03115504
309.00 0.03125421
309.10 0.03135325
309.20 0.03145215
309.30 0.03155092
309.40 0.03165024
309.50 0.03175368
309.60 0.03185698
309.70 0.03196014
309.80 0.03206315
309.90 0.03216603
310.00 0.03226877
310.10 0.03237137
310.20 0.03247383
310.30 0.03257615
310.40 0.03267927
310.50 0.03278327
310.60 0.03288712
310.70 0.03299083
310.80 0.03309441
310.90 0.03319784
311.00 0.03330272
311.10 0.03340746
311.20 0.03351205
311.30 0.03361741
311.40 0.0337252
311.50 0.03383285
311.60 0.03394035
311.70 0.03404771
311.80 0.03415492
311.90 0.03426198
312.00 0.03436891
312.10 0.03447568
312.20 0.03458149
312.30 0.0346905
312.40 0.03480102
312.50 0.03490498
312.60 0.03501628
312.70 0.03512743
312.80 0.03523842
312.90 0.03534959
313.00 0.03546095
313.10 0.03557216
313.20 0.03568322
313.30 0.03579446
313.40 0.0359065
313.50 0.03601839
313.60 0.03613013
313.70 0.03624172
313.80 0.03635316
313.90 0.03646445
314.00 0.03657559
314.10 0.0366897
314.20 0.03680367
314.30 0.03691748
314.40 0.03703114
314.50 0.03714464
314.60 0.037258
314.70 0.0373712
314.80 0.03748463
314.90 0.0375994
315.00 0.03771445
315.10 0.0378324
315.20 0.03795018
315.30 0.03806781
315.40 0.03818529
315.50 0.0383026
315.60 0.03841976
315.70 0.03853676
315.80 0.03865361
315.90 0.0387703
316.00 0.03888684
316.10 0.03900808
316.20 0.03912916
316.30 0.03924037
316.40 0.03936114
316.50 0.03948174
316.60 0.03960219
316.70 0.03972248
316.80 0.0398426
316.90 0.03996499
317.00 0.04008721
317.10 0.04020927
317.20 0.04033117
317.30 0.04044994
317.40 0.04056993
317.50 0.04069369
317.60 0.04081728
317.70 0.04094071
317.80 0.04106398
317.90 0.04118993
318.00 0.04131107
318.10 0.04143632
318.20 0.0415614
318.30 0.04168631
318.40 0.04181169
318.50 0.04193866
318.60 0.04206299
318.70 0.04218963
318.80 0.04231707
318.90 0.04244242
319.00 0.04256274
319.10 0.0426935
319.20 0.04282318
319.30 0.04295013
319.40 0.04307692
319.50 0.04320354
319.60 0.04333493
319.70 0.04346372
319.80 0.04359235
319.90 0.04372081
320.00 0.04384955
320.10 0.0439786
320.20 0.04410856
320.30 0.04424073
320.40 0.04437495
320.50 0.04450048
320.60 0.04463303
320.70 0.04476578
320.80 0.04489835
320.90 0.04503075
321.00 0.04516298
321.10 0.04529504
321.20 0.04543011
321.30 0.04556465
321.40 0.04569901
321.50 0.0458332
321.60 0.04596721
321.70 0.04610105
321.80 0.04623591
321.90 0.04637189
322.00 0.04650471
322.10 0.04664239
322.20 0.04677989
322.30 0.0469172
322.40 0.04705434
322.50 0.0471913
322.60 0.04732808
322.70 0.04746468
322.80 0.04759383
322.90 0.04773482
323.00 0.04787563
323.10 0.04801625
323.20 0.04815669
323.30 0.04829695
323.40 0.04843702
323.50 0.04857692
323.60 0.04871663
323.70 0.04885615
323.80 0.0489955
323.90 0.04913467
324.00 0.04927755
324.10 0.04942025
324.20 0.04956277
324.30 0.04970326
324.40 0.04984295
324.50 0.04998749
324.60 0.05013183
324.70 0.05027599
324.80 0.05041996
324.90 0.05056375
325.00 0.05070735
325.10 0.05085076
325.20 0.0509955
325.30 0.05114329
325.40 0.05129089
325.50 0.05143781
325.60 0.05158396
325.70 0.05172991
325.80 0.05187568
325.90 0.05202245
326.00 0.05217034
326.10 0.05231803
326.20 0.05246553
326.30 0.05261513
326.40 0.05277106
326.50 0.0529239
326.60 0.05307653
326.70 0.05322897
326.80 0.05338121
326.90 0.05353326
327.00 0.05368511
327.10 0.05383677
327.20 0.05398823
327.30 0.05413949
327.40 0.05429056
327.50 0.05444143
327.60 0.05459211
327.70 0.0547426
327.80 0.05489289
327.90 0.0550433
328.00 0.05519596
328.10 0.05535098
328.20 0.0555058
328.30 0.05566042
328.40 0.05581485
328.50 0.05597069
328.60 0.05612671
328.70 0.05628253
328.80 0.05643924
328.90 0.05659883
329.00 0.05675823
329.10 0.05691742
329.20 0.0570764
329.30 0.05723518
329.40 0.05739376
329.50 0.05755214
329.60 0.05771031
329.70 0.05786828
329.80 0.05802605
329.90 0.05818361
330.00 0.05834328
330.10 0.05850556
330.20 0.05866764
330.30 0.05882951
330.40 0.05899291
330.50 0.059158
330.60 0.05932288
330.70 0.05948755
330.80 0.059652
330.90 0.05981625
331.00 0.05998029
331.10 0.06014412
331.20 0.06030774
331.30 0.06047115
331.40 0.06063435
331.50 0.06079861
331.60 0.06096419
331.70 0.06112957
331.80 0.06129958
331.90 0.06146959
332.00 0.06163937
332.10 0.06180894
332.20 0.06197829
332.30 0.06214743
332.40 0.06231636
332.50 0.06248507
332.60 0.06265356
332.70 0.06282185
332.80 0.06298992
332.90 0.06315777
333.00 0.06332541
333.10 0.06349574
333.20 0.0636694
333.30 0.06384283
333.40 0.06401605
333.50 0.06418904
333.60 0.06436182
333.70 0.06453438
333.80 0.06470672
333.90 0.06487884
334.00 0.06505075
334.10 0.06522426
334.20 0.06539979
334.30 0.0655751
334.40 0.06575019
334.50 0.06592505
334.60 0.06609969
334.70 0.06627542
334.80 0.06645319
334.90 0.06663171
335.00 0.06681
335.10 0.0669911
335.20 0.06716729
335.30 0.06734434
335.40 0.06752765
335.50 0.06770318
335.60 0.0678871
335.70 0.06806412
335.80 0.06824328
335.90 0.06842416
336.00 0.06860717
336.10 0.06878996
336.20 0.06897251
336.30 0.06915548
336.40 0.06933901
336.50 0.06952231
336.60 0.06970537
336.70 0.06988821
336.80 0.07007082
336.90 0.07025442
337.00 0.0704393
337.10 0.07062394
337.20 0.07080835
337.30 0.07099438
337.40 0.07118283
337.50 0.07137105
337.60 0.07155903
337.70 0.07174678
337.80 0.0719343
337.90 0.07212277
338.00 0.07231247
338.10 0.07250193
338.20 0.07269116
338.30 0.07288015
338.40 0.07306983
338.50 0.07326155
338.60 0.07345302
338.70 0.07364426
338.80 0.07383525
338.90 0.07402601
339.00 0.07421654
339.10 0.07440682
339.20 0.07459687
339.30 0.07478968
339.40 0.07498658
339.50 0.07518365
339.60 0.07538098
339.70 0.07557807
339.80 0.07577491
339.90 0.0759715
340.00 0.07616786
340.10 0.07636396
340.20 0.07655983
340.30 0.07675545
340.40 0.07695082
340.50 0.07714596
340.60 0.07734085
340.70 0.0775355
340.80 0.07773303
340.90 0.07793481
341.00 0.07813647
341.10 0.07833803
341.20 0.07853933
341.30 0.07874039
341.40 0.0789412
341.50 0.07914176
341.60 0.07934207
341.70 0.07954214
341.80 0.0797438
341.90 0.07994746
342.00 0.08015087
342.10 0.08035403
342.20 0.08055674
342.30 0.08075985
342.40 0.08096473
342.50 0.08117175
342.60 0.08137851
342.70 0.08158502
342.80 0.08179127
342.90 0.08199726
343.00 0.08220756
343.10 0.08242317
343.20 0.08263851
343.30 0.08285358
343.40 0.08306187
343.50 0.08326052
343.60 0.08345893
343.70 0.08365709
343.80 0.08385501
343.90 0.08405268
344.00 0.08425853
344.10 0.08447622
344.20 0.08469364
344.30 0.0849108
344.40 0.08513609
344.50 0.08537318
344.60 0.08557643
344.70 0.08577412
344.80 0.08596952
344.90 0.08620348
345.00 0.08639103
345.10 0.08662648
345.20 0.08685758
345.30 0.08708255
345.40 0.08730724
345.50 0.08751358
345.60 0.08771253
345.70 0.08793277
345.80 0.08815273
345.90 0.08837242
346.00 0.08859185
346.10 0.08881101
346.20 0.08903211
346.30 0.08925614
346.40 0.08947988
346.50 0.08970336
346.60 0.08992656
346.70 0.09014949
346.80 0.09037215
346.90 0.09059454
347.00 0.09081665
347.10 0.09103849
347.20 0.09126275
347.30 0.0914906
347.40 0.09171816
347.50 0.09194545
347.60 0.09217246
347.70 0.0923992
347.80 0.09262566
347.90 0.09285185
348.00 0.09307776
348.10 0.09330339
348.20 0.09352875
348.30 0.09375384
348.40 0.09397865
348.50 0.09420319
348.60 0.09442745
348.70 0.09466496
348.80 0.09490304
348.90 0.09513595
349.00 0.09536858
349.10 0.09560093
349.20 0.09583299
349.30 0.09606478
349.40 0.09629628
349.50 0.0965275
349.60 0.09675844
349.70 0.09698911
349.80 0.09721949
349.90 0.09744959
350.00 0.09767942
350.10 0.09790896
350.20 0.09813823
350.30 0.0983708
350.40 0.09860825
350.50 0.09884541
350.60 0.09908228
350.70 0.09931887
350.80 0.09955517
350.90 0.09979119
351.00 0.1000269
351.10 0.1002624
351.20 0.1004975
351.30 0.1007324
351.40 0.100972
351.50 0.1012202
351.60 0.1014682
351.70 0.1017158
351.80 0.1019631
351.90 0.1022102
352.00 0.1024569
352.10 0.1027033
352.20 0.102912
352.30 0.1031357
352.40 0.1033871
352.50 0.1036383
352.60 0.1038891
352.70 0.1041396
352.80 0.1043898
352.90 0.1046398
353.00 0.1048894
353.10 0.1051387
353.20 0.1053877
353.30 0.1056364
353.40 0.1058849
353.50 0.1061387
353.60 0.1063937
353.70 0.1066484
353.80 0.1069027
353.90 0.1071559
354.00 0.1074072
354.10 0.1076582
354.20 0.1079089
354.30 0.1081593
354.40 0.1084094
354.50 0.1086592
354.60 0.1089087
354.70 0.1091579
354.80 0.1094086
354.90 0.1096618
355.00 0.1099147
355.10 0.1101673
355.20 0.1104195
355.30 0.1106788
355.40 0.1109377
355.50 0.1111964
355.60 0.1114547
355.70 0.1117188
355.80 0.1119854
355.90 0.1122318
356.00 0.1124868
356.10 0.1127526
356.20 0.113018
356.30 0.1132832
356.40 0.113548
356.50 0.1138125
356.60 0.1140767
356.70 0.1143406
356.80 0.1146042
356.90 0.1148674
357.00 0.1151304
357.10 0.115393
357.20 0.1156553
357.30 0.1159173
357.40 0.1161837
357.50 0.1164581
357.60 0.1167321
357.70 0.1170058
357.80 0.1172509
357.90 0.1174956
358.00 0.117765
358.10 0.1180403
358.20 0.1183153
358.30 0.1185899
358.40 0.1188642
358.50 0.1191382
358.60 0.1194119
358.70 0.1196853
358.80 0.1199583
358.90 0.120231
359.00 0.1205029
359.10 0.1207736
359.20 0.1210422
359.30 0.1212978
359.40 0.1215531
359.50 0.1218292
359.60 0.1221102
359.70 0.122391
359.80 0.1226641
359.90 0.1229368
360.00 0.1232122
360.10 0.1234926
360.20 0.1237726
360.30 0.1240524
360.40 0.1243317
360.50 0.1246108
360.60 0.124897
360.70 0.1251825
360.80 0.1254676
360.90 0.1257524
361.00 0.1260531
361.10 0.1263115
361.20 0.126589
361.30 0.1268762
361.40 0.1271779
361.50 0.1274495
361.60 0.127706
361.70 0.1280066
361.80 0.1282986
361.90 0.1285754
362.00 0.1288519
362.10 0.1291384
362.20 0.1294261
362.30 0.1297117
362.40 0.129997
362.50 0.130282
362.60 0.1305666
362.70 0.1308531
362.80 0.1311582
362.90 0.131453
363.00 0.1317473
363.10 0.1320449
363.20 0.1323421
363.30 0.1326376
363.40 0.1329324
363.50 0.1332269
363.60 0.1335211
363.70 0.1338067
363.80 0.1341083
363.90 0.1344015
364.00 0.1346942
364.10 0.1349867
364.20 0.1352788
364.30 0.1355705
364.40 0.1358619
364.50 0.1361567
364.60 0.1364462
364.70 0.1367354
364.80 0.1370242
364.90 0.1373504
365.00 0.1376762
365.10 0.1379652
365.20 0.1382539
365.30 0.1385422
365.40 0.1388302
365.50 0.1391542
365.60 0.1394779
365.70 0.1397648
365.80 0.1400514
365.90 0.1403699
366.00 0.1406962
366.10 0.1409933
366.20 0.1412901
366.30 0.1415866
366.40 0.1418827
366.50 0.1421892
366.60 0.1424769
366.70 0.1428097
366.80 0.1431421
366.90 0.143462
367.00 0.14376
367.10 0.1440577
367.20 0.1443551
367.30 0.1446521
367.40 0.1449488
367.50 0.1452646
367.60 0.145585
367.70 0.1459029
367.80 0.1462205
367.90 0.1465377
368.00 0.1468469
368.10 0.1471929
368.20 0.1475079
368.30 0.1478221
368.40 0.1481359
368.50 0.1484493
368.60 0.1487623
368.70 0.149075
368.80 0.1493874
368.90 0.1496956
369.00 0.1500063
369.10 0.150319
369.20 0.1506691
369.30 0.1509912
369.40 0.1513129
369.50 0.1516342
369.60 0.1519414
369.70 0.1522482
369.80 0.1525689
369.90 0.1528894
370.00 0.1532096
370.10 0.1535497
370.20 0.1538575
370.30 0.1541641
370.40 0.1545061
370.50 0.1548473
370.60 0.155151
370.70 0.1554615
370.80 0.1557995
370.90 0.1561371
371.00 0.1564785
371.10 0.1568196
371.20 0.1571209
371.30 0.157422
371.40 0.1577739
371.50 0.1581084
371.60 0.1584426
371.70 0.1587763
371.80 0.1591097
371.90 0.1594427
372.00 0.1597523
372.10 0.1601176
372.20 0.1604523
372.30 0.1607867
372.40 0.1611206
372.50 0.1614542
372.60 0.1617874
372.70 0.1621203
372.80 0.1624506
372.90 0.1627806
373.00 0.1631144
373.10 0.1634478
373.20 0.1637787
373.30 0.1641093
373.40 0.1644743
373.50 0.1648041
373.60 0.1651335
373.70 0.1654973
373.80 0.1658086
373.90 0.1661542
374.00 0.1664994
374.10 0.1668443
374.20 0.1671888
374.30 0.1675328
374.40 0.1678765
374.50 0.1682494
374.60 0.1685941
374.70 0.1689376
374.80 0.1692808
374.90 0.1696236
375.00 0.1699707
375.10 0.1703174
375.20 0.1706637
375.30 0.1710162
375.40 0.1713682
375.50 0.1717199
375.60 0.1720712
375.70 0.172422
375.80 0.1727725
375.90 0.1731226
376.00 0.1734387
376.10 0.173795
376.20 0.1741513
376.30 0.1745071
376.40 0.1748626
376.50 0.1752181
376.60 0.1755739
376.70 0.1759292
376.80 0.1762833
376.90 0.1766361
377.00 0.1769886
377.10 0.1773406
377.20 0.1776925
377.30 0.1780447
377.40 0.1783966
377.50 0.1787481
377.60 0.1791126
377.70 0.1794767
377.80 0.1798404
377.90 0.1802037
378.00 0.1805823
378.10 0.1809434
378.20 0.1813037
378.30 0.1816635
378.40 0.182023
378.50 0.182382
378.60 0.1827407
378.70 0.1830989
378.80 0.1834568
378.90 0.1838307
379.00 0.1842347
379.10 0.1845971
379.20 0.1849592
379.30 0.18532
379.40 0.1856795
379.50 0.1860387
379.60 0.186396
379.70 0.1867555
379.80 0.1871324
379.90 0.1875089
380.00 0.1878849
380.10 0.1882605
380.20 0.1886357
380.30 0.1890105
380.40 0.1893849
380.50 0.1897588
380.60 0.1901211
380.70 0.1904935
380.80 0.1908655
380.90 0.191237
381.00 0.1916082
381.10 0.1920093
381.20 0.1923877
381.30 0.1927727
381.40 0.1931107
381.50 0.1934887
381.60 0.1938766
381.70 0.1942771
381.80 0.1946715
381.90 0.1950358
382.00 0.1953998
382.10 0.1957966
382.20 0.1961929
382.30 0.1965888
382.40 0.1969754
382.50 0.1973484
382.60 0.1977209
382.70 0.1980945
382.80 0.1984775
382.90 0.1988682
383.00 0.1992583
383.10 0.1996481
383.20 0.2000335
383.30 0.2004041
383.40 0.2007921
383.50 0.2012064
383.60 0.2016083
383.70 0.2019988
383.80 0.2023888
383.90 0.2027784
384.00 0.2031676
384.10 0.2035564
384.20 0.2039447
384.30 0.2043326
384.40 0.204726
384.50 0.205125
384.60 0.2055236
384.70 0.2059217
384.80 0.2063095
384.90 0.206677
385.00 0.207076
385.10 0.207474
385.20 0.207853
385.30 0.2082434
385.40 0.2086435
385.50 0.2090534
385.60 0.2094628
385.70 0.2098717
385.80 0.2102758
385.90 0.2106628
386.00 0.2110559
386.10 0.2114568
386.20 0.2118754
386.30 0.2122936
386.40 0.2126889
386.50 0.2130836
386.60 0.2135115
386.70 0.2138883
386.80 0.214281
386.90 0.2147057
387.00 0.2151039
387.10 0.2155099
387.20 0.2159346
387.30 0.2163236
387.40 0.2167129
387.50 0.2171379
387.60 0.21758
387.70 0.2179848
387.80 0.2183892
387.90 0.2187931
388.00 0.2191985
388.10 0.219605
388.20 0.2200311
388.30 0.2204496
388.40 0.2208676
388.50 0.2212771
388.60 0.2216741
388.70 0.2220688
388.80 0.2225015
388.90 0.222929
389.00 0.2233302
389.10 0.2237471
389.20 0.2241751
389.30 0.2246064
389.40 0.2250167
389.50 0.2254317
389.60 0.2258503
389.70 0.2262632
389.80 0.2266908
389.90 0.227118
390.00 0.2275447
390.10 0.2279709
390.20 0.2283966
390.30 0.2288203
390.40 0.2292418
390.50 0.2296628
390.60 0.2300833
390.70 0.2305034
390.80 0.2309237
390.90 0.2313444
391.00 0.2317756
391.10 0.232212
391.20 0.2326396
391.30 0.2330519
391.40 0.2334824
391.50 0.2339125
391.60 0.2343421
391.70 0.2347712
391.80 0.2351998
391.90 0.2356204
392.00 0.2360492
392.10 0.2365033
392.20 0.2369533
392.30 0.2373792
392.40 0.2378163
392.50 0.2382269
392.60 0.2386728
392.70 0.2391072
392.80 0.2395207
392.90 0.239974
393.00 0.2404207
393.10 0.2408566
393.20 0.2412823
393.30 0.2417248
393.40 0.2421631
393.50 0.2426237
393.60 0.2430553
393.70 0.2434959
393.80 0.2439304
393.90 0.2443701
394.00 0.2448131
394.10 0.2452784
394.20 0.2457252
394.30 0.2461577
394.40 0.2465624
394.50 0.2470101
394.60 0.2474775
394.70 0.2479401
394.80 0.2483863
394.90 0.2488308
395.00 0.2492413
395.10 0.2496963
395.20 0.2501514
395.30 0.2506122
395.40 0.2510724
395.50 0.2515278
395.60 0.251981
395.70 0.2524299
395.80 0.2528679
395.90 0.2533055
396.00 0.2537461
396.10 0.2542178
396.20 0.2546774
396.30 0.2551449
396.40 0.2555726
396.50 0.2560617
396.60 0.2564884
396.70 0.2569613
396.80 0.2574133
396.90 0.2578646
397.00 0.2583327
397.10 0.2587673
397.20 0.2592432
397.30 0.2597049
397.40 0.2601739
397.50 0.2606424
397.60 0.2611094
397.70 0.2615662
397.80 0.2620225
397.90 0.2624795
398.00 0.262939
398.10 0.263398
398.20 0.2638621
398.30 0.264332
398.40 0.2648016
398.50 0.2652805
398.60 0.2657445
398.70 0.2662084
398.80 0.2666733
398.90 0.2671341
399.00 0.2675879
399.10 0.2680569
399.20 0.2685238
399.30 0.2689903
399.40 0.2694563
399.50 0.2699217
399.60 0.2703928
399.70 0.2708656
399.80 0.2713379
399.90 0.2718097
400.00 0.272281
400.10 0.2727518
400.20 0.2732591
400.30 0.2737286
400.40 0.2741906
400.50 0.2746723
400.60 0.2751587
400.70 0.2756265
400.80 0.2760937
400.90 0.2766209
401.00 0.2770871
401.10 0.2775529
401.20 0.2780512
401.30 0.2785386
401.40 0.2790073
401.50 0.279471
401.60 0.2799356
401.70 0.2804446
401.80 0.2809051
401.90 0.2813849
402.00 0.2819016
402.10 0.282405
402.20 0.2828808
402.30 0.2833428
402.40 0.2838306
402.50 0.2843026
402.60 0.28478
402.70 0.2852783
402.80 0.2857954
402.90 0.2862759
403.00 0.286762
403.10 0.2872833
403.20 0.2877578
403.30 0.2882583
403.40 0.2887108
403.50 0.2892136
403.60 0.2897275
403.70 0.2901855
403.80 0.2907165
403.90 0.2912154
404.00 0.2917113
404.10 0.2921695
404.20 0.2926791
404.30 0.2931881
404.40 0.2936803
404.50 0.2941748
404.60 0.2946525
404.70 0.2951594
404.80 0.2956847
404.90 0.2961716
405.00 0.2966679
405.10 0.2971731
405.20 0.2976816
405.30 0.2981895
405.40 0.2986926
405.50 0.2991952
405.60 0.2996973
405.70 0.3001988
405.80 0.3006998
405.90 0.3012003
406.00 0.3017042
406.10 0.3022075
406.20 0.3027103
406.30 0.3032126
406.40 0.3037184
406.50 0.3042526
406.60 0.3047477
406.70 0.3052476
406.80 0.3057626
406.90 0.3062549
407.00 0.306773
407.10 0.3072906
407.20 0.3078076
407.30 0.3083241
407.40 0.30884
407.50 0.3093554
407.60 0.3098702
407.70 0.3103845
407.80 0.3108983
407.90 0.3114117
408.00 0.3119287
408.10 0.3124572
408.20 0.3129817
408.30 0.3134928
408.40 0.3140033
408.50 0.3144945
408.60 0.3150252
408.70 0.3155553
408.80 0.3160831
408.90 0.3165994
409.00 0.3171246
409.10 0.3176492
409.20 0.3181733
409.30 0.3186968
409.40 0.3192197
409.50 0.3197393
409.60 0.3202585
409.70 0.3207808
409.80 0.3213173
409.90 0.3218528
410.00 0.3223691
410.10 0.3228859
410.20 0.3234225
410.30 0.3239637
410.40 0.3245006
410.50 0.3250252
410.60 0.3255493
410.70 0.3260717
410.80 0.3265889
410.90 0.3271055
411.00 0.3276401
411.10 0.3281809
411.20 0.3287212
411.30 0.3292585
411.40 0.3297854
411.50 0.3303144
411.60 0.3308428
411.70 0.3313763
411.80 0.3319315
411.90 0.3324861
412.00 0.3330401
412.10 0.3335364
412.20 0.3340893
412.30 0.3346355
412.40 0.3351569
412.50 0.3356916
412.60 0.3362626
412.70 0.3367967
412.80 0.3373213
412.90 0.3378797
413.00 0.3384349
413.10 0.3389827
413.20 0.3395299
413.30 0.3400766
413.40 0.3406226
413.50 0.3411682
413.60 0.3417131
413.70 0.3422575
413.80 0.3428013
413.90 0.3433445
414.00 0.3438872
414.10 0.3444293
414.20 0.3449708
414.30 0.3455118
414.40 0.3460522
414.50 0.3466421
