# Version 2.1 - nm, norm@500 to 1, cut digits, bergeron_He_14000_85.dat_14000
# Wavelength(nm)  Flambda(ergs/cm^s/s/nm)
300.00 3.151528
300.10 3.150378
300.20 3.149293
300.30 3.148119
300.40 3.146349
300.50 3.144581
300.60 3.142814
300.70 3.141049
300.80 3.139285
300.90 3.137523
301.00 3.135763
301.10 3.134005
301.20 3.132248
301.30 3.130492
301.40 3.128739
301.50 3.126987
301.60 3.125236
301.70 3.123488
301.80 3.121741
301.90 3.119995
302.00 3.118251
302.10 3.116609
302.20 3.11498
302.30 3.113352
302.40 3.111726
302.50 3.110101
302.60 3.108477
302.70 3.106855
302.80 3.105235
302.90 3.103616
303.00 3.101998
303.10 3.100382
303.20 3.098767
303.30 3.097133
303.40 3.095317
303.50 3.093503
303.60 3.091691
303.70 3.08988
303.80 3.088071
303.90 3.086263
304.00 3.084458
304.10 3.082654
304.20 3.080851
304.30 3.079051
304.40 3.077252
304.50 3.075455
304.60 3.073729
304.70 3.072012
304.80 3.070297
304.90 3.068584
305.00 3.066872
305.10 3.065162
305.20 3.063453
305.30 3.061746
305.40 3.060041
305.50 3.058337
305.60 3.056634
305.70 3.054934
305.80 3.053234
305.90 3.051537
306.00 3.049841
306.10 3.048146
306.20 3.046453
306.30 3.044762
306.40 3.043013
306.50 3.041247
306.60 3.039483
306.70 3.037721
306.80 3.03596
306.90 3.034201
307.00 3.032444
307.10 3.030689
307.20 3.028934
307.30 3.027182
307.40 3.025431
307.50 3.023682
307.60 3.021935
307.70 3.020189
307.80 3.018445
307.90 3.016702
308.00 3.014961
308.10 3.013222
308.20 3.011484
308.30 3.009748
308.40 3.008014
308.50 3.006281
308.60 3.00455
308.70 3.00282
308.80 3.001036
308.90 2.999093
309.00 2.997698
309.10 2.996303
309.20 2.99491
309.30 2.993518
309.40 2.992089
309.50 2.990429
309.60 2.988771
309.70 2.987115
309.80 2.985459
309.90 2.983806
310.00 2.982153
310.10 2.980503
310.20 2.978854
310.30 2.977206
310.40 2.975429
310.50 2.973513
310.60 2.971599
310.70 2.969686
310.80 2.967776
310.90 2.965867
311.00 2.96396
311.10 2.962055
311.20 2.960151
311.30 2.958325
311.40 2.956713
311.50 2.955103
311.60 2.953494
311.70 2.951887
311.80 2.950281
311.90 2.948676
312.00 2.947073
312.10 2.945472
312.20 2.943814
312.30 2.941929
312.40 2.940046
312.50 2.938165
312.60 2.936285
312.70 2.934408
312.80 2.932532
312.90 2.930658
313.00 2.928785
313.10 2.926915
313.20 2.925046
313.30 2.923179
313.40 2.921314
313.50 2.919451
313.60 2.917589
313.70 2.915729
313.80 2.913871
313.90 2.912015
314.00 2.91016
314.10 2.908308
314.20 2.906457
314.30 2.904608
314.40 2.90276
314.50 2.900914
314.60 2.899071
314.70 2.897228
314.80 2.895388
314.90 2.892722
315.00 2.889163
315.10 2.886904
315.20 2.884648
315.30 2.882395
315.40 2.880143
315.50 2.877894
315.60 2.875647
315.70 2.873191
315.80 2.870737
315.90 2.868286
316.00 2.865838
316.10 2.864025
316.20 2.862214
316.30 2.860404
316.40 2.857333
316.50 2.853001
316.60 2.847413
316.70 2.841831
316.80 2.836255
316.90 2.833836
317.00 2.831419
317.10 2.829004
317.20 2.826592
317.30 2.824811
317.40 2.822571
317.50 2.819026
317.60 2.815484
317.70 2.811947
317.80 2.808413
317.90 2.798411
318.00 2.784664
318.10 2.76291
318.20 2.741181
318.30 2.71948
318.40 2.686449
318.50 2.621159
318.60 2.541691
318.70 2.379417
318.80 2.22967
318.90 2.36938
319.00 2.483043
319.10 2.55914
319.20 2.623163
319.30 2.653035
319.40 2.682869
319.50 2.712666
319.60 2.732869
319.70 2.742949
319.80 2.753014
319.90 2.763067
320.00 2.770424
320.10 2.774867
320.20 2.777449
320.30 2.779542
320.40 2.782737
320.50 2.783464
320.60 2.78478
320.70 2.784274
320.80 2.784062
320.90 2.78417
321.00 2.784278
321.10 2.784384
321.20 2.783828
321.30 2.782943
321.40 2.782059
321.50 2.781176
321.60 2.780293
321.70 2.779411
321.80 2.778916
321.90 2.77884
322.00 2.777272
322.10 2.775851
322.20 2.774431
322.30 2.773013
322.40 2.771596
322.50 2.77018
322.60 2.768765
322.70 2.767351
322.80 2.76585
322.90 2.764353
323.00 2.762857
323.10 2.761362
323.20 2.759869
323.30 2.758377
323.40 2.756886
323.50 2.755396
323.60 2.753908
323.70 2.752422
323.80 2.750936
323.90 2.749452
324.00 2.748399
324.10 2.747348
324.20 2.746297
324.30 2.745079
324.40 2.743387
324.50 2.741697
324.60 2.740008
324.70 2.73832
324.80 2.736634
324.90 2.73495
325.00 2.733267
325.10 2.731586
325.20 2.729906
325.30 2.728228
325.40 2.726552
325.50 2.725147
325.60 2.724075
325.70 2.723003
325.80 2.721932
325.90 2.720574
326.00 2.718905
326.10 2.717238
326.20 2.715572
326.30 2.713908
326.40 2.712245
326.50 2.710584
326.60 2.708925
326.70 2.707266
326.80 2.70561
326.90 2.703955
327.00 2.702301
327.10 2.700649
327.20 2.698999
327.30 2.69735
327.40 2.695702
327.50 2.694056
327.60 2.692412
327.70 2.690769
327.80 2.689127
327.90 2.687487
328.00 2.685849
328.10 2.684212
328.20 2.682577
328.30 2.680943
328.40 2.67931
328.50 2.677679
328.60 2.67605
328.70 2.674422
328.80 2.672847
328.90 2.67142
329.00 2.669994
329.10 2.668569
329.20 2.667146
329.30 2.665724
329.40 2.664303
329.50 2.662883
329.60 2.661465
329.70 2.660048
329.80 2.658632
329.90 2.657217
330.00 2.655715
330.10 2.654107
330.20 2.652499
330.30 2.650893
330.40 2.649289
330.50 2.647686
330.60 2.646084
330.70 2.644484
330.80 2.642886
330.90 2.641289
331.00 2.639693
331.10 2.638099
331.20 2.636506
331.30 2.634914
331.40 2.633325
331.50 2.631736
331.60 2.630149
331.70 2.628563
331.80 2.627143
331.90 2.62573
332.00 2.624318
332.10 2.622908
332.20 2.621499
332.30 2.620091
332.40 2.618684
332.50 2.617278
332.60 2.615874
332.70 2.614471
332.80 2.613069
332.90 2.611668
333.00 2.610269
333.10 2.608795
333.20 2.607229
333.30 2.605665
333.40 2.604102
333.50 2.602541
333.60 2.600981
333.70 2.599422
333.80 2.597865
333.90 2.596309
334.00 2.594754
334.10 2.593201
334.20 2.59165
334.30 2.590099
334.40 2.588551
334.50 2.587003
334.60 2.585457
334.70 2.583912
334.80 2.582016
334.90 2.579613
335.00 2.577213
335.10 2.575494
335.20 2.573958
335.30 2.572422
335.40 2.570889
335.50 2.569356
335.60 2.567825
335.70 2.566801
335.80 2.566394
335.90 2.565483
336.00 2.563956
336.10 2.562431
336.20 2.560907
336.30 2.559384
336.40 2.557863
336.50 2.556343
336.60 2.554824
336.70 2.553307
336.80 2.551791
336.90 2.550276
337.00 2.548763
337.10 2.547251
337.20 2.54574
337.30 2.544231
337.40 2.542723
337.50 2.541216
337.60 2.539711
337.70 2.538207
337.80 2.536705
337.90 2.535203
338.00 2.533704
338.10 2.532205
338.20 2.530708
338.30 2.529212
338.40 2.527717
338.50 2.526224
338.60 2.524732
338.70 2.523241
338.80 2.521752
338.90 2.520264
339.00 2.518777
339.10 2.517292
339.20 2.515808
339.30 2.514325
339.40 2.512844
339.50 2.511364
339.60 2.509885
339.70 2.508408
339.80 2.506931
339.90 2.505456
340.00 2.503983
340.10 2.502511
340.20 2.50104
340.30 2.49957
340.40 2.498102
340.50 2.496634
340.60 2.495169
340.70 2.493704
340.80 2.492241
340.90 2.490779
341.00 2.489318
341.10 2.487859
341.20 2.486401
341.30 2.484944
341.40 2.483489
341.50 2.482034
341.60 2.480581
341.70 2.47913
341.80 2.477679
341.90 2.47623
342.00 2.474782
342.10 2.473336
342.20 2.47189
342.30 2.470446
342.40 2.469003
342.50 2.467562
342.60 2.466122
342.70 2.464683
342.80 2.463245
342.90 2.461808
343.00 2.460133
343.10 2.458168
343.20 2.456204
343.30 2.454241
343.40 2.452352
343.50 2.450567
343.60 2.448784
343.70 2.447002
343.80 2.445222
343.90 2.443444
344.00 2.441594
344.10 2.439641
344.20 2.437689
344.30 2.43574
344.40 2.433574
344.50 2.431095
344.60 2.429056
344.70 2.426529
344.80 2.426239
344.90 2.425949
345.00 2.425988
345.10 2.425645
345.20 2.424866
345.30 2.423461
345.40 2.422058
345.50 2.420657
345.60 2.419401
345.70 2.418354
345.80 2.417308
345.90 2.416263
346.00 2.415219
346.10 2.414175
346.20 2.412989
346.30 2.411595
346.40 2.410203
346.50 2.408812
346.60 2.407422
346.70 2.406034
346.80 2.404646
346.90 2.40326
347.00 2.401875
347.10 2.400491
347.20 2.399168
347.30 2.397929
347.40 2.396692
347.50 2.395456
347.60 2.394221
347.70 2.392987
347.80 2.391754
347.90 2.390522
348.00 2.389291
348.10 2.388061
348.20 2.386832
348.30 2.385604
348.40 2.384377
348.50 2.383151
348.60 2.381926
348.70 2.380594
348.80 2.379172
348.90 2.37767
349.00 2.376169
349.10 2.37467
349.20 2.373171
349.30 2.371674
349.40 2.370179
349.50 2.368685
349.60 2.367192
349.70 2.3657
349.80 2.36421
349.90 2.362721
350.00 2.361233
350.10 2.359747
350.20 2.358262
350.30 2.356835
350.40 2.35549
350.50 2.354146
350.60 2.352803
350.70 2.351461
350.80 2.350121
350.90 2.348782
351.00 2.347444
351.10 2.346107
351.20 2.344771
351.30 2.343436
351.40 2.342102
351.50 2.34077
351.60 2.339439
351.70 2.338109
351.80 2.336779
351.90 2.335452
352.00 2.334125
352.10 2.332799
352.20 2.331475
352.30 2.330151
352.40 2.328829
352.50 2.327508
352.60 2.326188
352.70 2.324869
352.80 2.323551
352.90 2.322235
353.00 2.320919
353.10 2.319605
353.20 2.318291
353.30 2.316979
353.40 2.315668
353.50 2.313993
353.60 2.312229
353.70 2.310466
353.80 2.308705
353.90 2.307109
354.00 2.305806
354.10 2.304504
354.20 2.303203
354.30 2.301903
354.40 2.300604
354.50 2.299306
354.60 2.298009
354.70 2.296714
354.80 2.295419
354.90 2.294126
355.00 2.292834
355.10 2.291543
355.20 2.290252
355.30 2.288963
355.40 2.287676
355.50 2.286389
355.60 2.285103
355.70 2.283818
355.80 2.282535
355.90 2.281252
356.00 2.27986
356.10 2.278442
356.20 2.277024
356.30 2.275608
356.40 2.274194
356.50 2.27278
356.60 2.271368
356.70 2.269957
356.80 2.268547
356.90 2.267138
357.00 2.265731
357.10 2.264325
357.20 2.26292
357.30 2.261516
357.40 2.259951
357.50 2.258097
357.60 2.256246
357.70 2.254396
357.80 2.253136
357.90 2.251877
358.00 2.250468
358.10 2.249022
358.20 2.247577
358.30 2.246134
358.40 2.244692
358.50 2.243252
358.60 2.241812
358.70 2.240374
358.80 2.238937
358.90 2.237502
359.00 2.235818
359.10 2.233693
359.20 2.231684
359.30 2.230442
359.40 2.229201
359.50 2.227402
359.60 2.225464
359.70 2.223529
359.80 2.221553
359.90 2.219578
360.00 2.217479
360.10 2.215158
360.20 2.212839
360.30 2.210522
360.40 2.208207
360.50 2.205894
360.60 2.203784
360.70 2.200132
360.80 2.196483
360.90 2.192837
361.00 2.190069
361.10 2.185622
361.20 2.181826
361.30 2.175967
361.40 2.177281
361.50 2.182854
361.60 2.183504
361.70 2.184231
361.80 2.184804
361.90 2.185106
362.00 2.185408
362.10 2.185575
362.20 2.18553
362.30 2.185169
362.40 2.184808
362.50 2.184447
362.60 2.184087
362.70 2.183051
362.80 2.181848
362.90 2.181601
363.00 2.181355
363.10 2.179296
363.20 2.17722
363.30 2.175846
363.40 2.174649
363.50 2.173453
363.60 2.174171
363.70 2.172976
363.80 2.171781
363.90 2.171043
364.00 2.170305
364.10 2.169567
364.20 2.16883
364.30 2.167731
364.40 2.166541
364.50 2.165352
364.60 2.164165
364.70 2.162978
364.80 2.161792
364.90 2.160608
365.00 2.159424
365.10 2.158241
365.20 2.157059
365.30 2.155879
365.40 2.154699
365.50 2.154467
365.60 2.154235
365.70 2.153057
365.80 2.15188
365.90 2.150704
366.00 2.149529
366.10 2.148355
366.20 2.147181
366.30 2.146009
366.40 2.144838
366.50 2.143668
366.60 2.140616
366.70 2.139448
366.80 2.138282
366.90 2.137117
367.00 2.135952
367.10 2.134789
367.20 2.133626
367.30 2.132464
367.40 2.131304
367.50 2.130144
367.60 2.128985
367.70 2.127827
367.80 2.12667
367.90 2.125514
368.00 2.123425
368.10 2.121338
368.20 2.119944
368.30 2.118548
368.40 2.117154
368.50 2.115761
368.60 2.114369
368.70 2.112978
368.80 2.111589
368.90 2.110288
369.00 2.109144
369.10 2.108002
369.20 2.105004
369.30 2.103864
369.40 2.102725
369.50 2.101587
369.60 2.099528
369.70 2.097472
369.80 2.095338
369.90 2.093206
370.00 2.091075
370.10 2.089236
370.20 2.08628
370.30 2.083308
370.40 2.079445
370.50 2.07641
370.60 2.078951
370.70 2.080638
370.80 2.080431
370.90 2.080224
371.00 2.080027
371.10 2.079829
371.20 2.079622
371.30 2.079415
371.40 2.078428
371.50 2.077651
371.60 2.076874
371.70 2.076097
371.80 2.075322
371.90 2.074546
372.00 2.075263
372.10 2.074148
372.20 2.073338
372.30 2.072528
372.40 2.07172
372.50 2.070911
372.60 2.070104
372.70 2.069296
372.80 2.068186
372.90 2.067077
373.00 2.065969
373.10 2.064862
373.20 2.063755
373.30 2.06265
373.40 2.060638
373.50 2.060441
373.60 2.059339
373.70 2.058237
373.80 2.057136
373.90 2.056035
374.00 2.055388
374.10 2.054741
374.20 2.054095
374.30 2.053449
374.40 2.052352
374.50 2.051257
374.60 2.050162
374.70 2.049067
374.80 2.047974
374.90 2.046882
375.00 2.04579
375.10 2.0447
375.20 2.04361
375.30 2.042521
375.40 2.041433
375.50 2.040346
375.60 2.039259
375.70 2.038174
375.80 2.037089
375.90 2.036006
376.00 2.034923
376.10 2.033455
376.20 2.031985
376.30 2.030515
376.40 2.029048
376.50 2.027737
376.60 2.02666
376.70 2.025584
376.80 2.024509
376.90 2.023435
377.00 2.022362
377.10 2.021289
377.20 2.020101
377.30 2.018477
377.40 2.016854
377.50 2.015232
377.60 2.013779
377.70 2.012328
377.80 2.010877
377.90 2.009428
378.00 2.008134
378.10 2.006666
378.20 2.005195
378.30 2.003726
378.40 2.002258
378.50 2.000792
378.60 1.999326
378.70 1.997862
378.80 1.996399
378.90 1.994623
379.00 1.992266
379.10 1.990511
379.20 1.988757
379.30 1.98679
379.40 1.984609
379.50 1.982429
379.60 1.980705
379.70 1.979303
379.80 1.976554
379.90 1.973807
380.00 1.971063
380.10 1.968322
380.20 1.965583
380.30 1.962847
380.40 1.960113
380.50 1.957382
380.60 1.953637
380.70 1.95023
380.80 1.946827
380.90 1.943427
381.00 1.94003
381.10 1.936834
381.20 1.933738
381.30 1.929364
381.40 1.924277
381.50 1.919702
381.60 1.914806
381.70 1.908993
381.80 1.9024
381.90 1.890127
382.00 1.886537
382.10 1.899414
382.20 1.906388
382.30 1.912316
382.40 1.916886
382.50 1.919425
382.60 1.921962
382.70 1.923669
382.80 1.92436
382.90 1.924964
383.00 1.925567
383.10 1.926169
383.20 1.926633
383.30 1.92658
383.40 1.926637
383.50 1.926861
383.60 1.927658
383.70 1.927559
383.80 1.92746
383.90 1.927361
384.00 1.927261
384.10 1.927162
384.20 1.927062
384.30 1.926962
384.40 1.92681
384.50 1.926606
384.60 1.926402
384.70 1.926197
384.80 1.925826
384.90 1.925082
385.00 1.924814
385.10 1.924532
385.20 1.923533
385.30 1.922535
385.40 1.921537
385.50 1.920541
385.60 1.919545
385.70 1.918549
385.80 1.917555
385.90 1.916561
386.00 1.914966
386.10 1.91282
386.20 1.911174
386.30 1.90953
386.40 1.907801
386.50 1.905534
386.60 1.902855
386.70 1.89891
386.80 1.895815
386.90 1.894835
387.00 1.893856
387.10 1.892835
387.20 1.890212
387.30 1.887549
387.40 1.884889
387.50 1.882418
387.60 1.878426
387.70 1.871987
387.80 1.865553
387.90 1.859126
388.00 1.852211
388.10 1.841793
388.20 1.82316
388.30 1.798248
388.40 1.773361
388.50 1.738352
388.60 1.678777
388.70 1.584323
388.80 1.424574
388.90 1.3564
389.00 1.509395
389.10 1.617581
389.20 1.687303
389.30 1.734343
389.40 1.76597
389.50 1.791852
389.60 1.808574
389.70 1.820101
389.80 1.825964
389.90 1.831821
390.00 1.837671
390.10 1.843516
390.20 1.849354
390.30 1.853099
390.40 1.854488
390.50 1.855876
390.60 1.857261
390.70 1.858645
390.80 1.859797
390.90 1.860717
391.00 1.860487
391.10 1.860339
391.20 1.860491
391.30 1.860853
391.40 1.860178
391.50 1.859503
391.60 1.858828
391.70 1.858154
391.80 1.85748
391.90 1.857402
392.00 1.857377
392.10 1.85643
392.20 1.855483
392.30 1.854538
392.40 1.853593
392.50 1.852648
392.60 1.851704
392.70 1.850762
392.80 1.849819
392.90 1.848878
393.00 1.847937
393.10 1.846997
393.20 1.845984
393.30 1.844227
393.40 1.842546
393.50 1.84161
393.60 1.840674
393.70 1.839739
393.80 1.838732
393.90 1.836983
394.00 1.835309
394.10 1.833989
394.20 1.832232
394.30 1.83089
394.40 1.829827
394.50 1.827408
394.60 1.825574
394.70 1.823776
394.80 1.822107
394.90 1.820411
395.00 1.817684
395.10 1.815378
395.20 1.812349
395.30 1.808795
395.40 1.805244
395.50 1.80122
395.60 1.797023
395.70 1.792071
395.80 1.785071
395.90 1.778077
396.00 1.770753
396.10 1.759415
396.20 1.746438
396.30 1.733473
396.40 1.717302
396.50 1.721887
396.60 1.745169
396.70 1.758
396.80 1.763901
396.90 1.768592
397.00 1.772357
397.10 1.776813
397.20 1.780554
397.30 1.781311
397.40 1.781926
397.50 1.78254
397.60 1.783069
397.70 1.782739
397.80 1.78241
397.90 1.782082
398.00 1.781757
398.10 1.781432
398.20 1.78084
398.30 1.779946
398.40 1.779052
398.50 1.778159
398.60 1.776017
398.70 1.774264
398.80 1.772725
398.90 1.771415
399.00 1.770527
399.10 1.767953
399.20 1.765975
399.30 1.763998
399.40 1.762024
399.50 1.760051
399.60 1.757891
399.70 1.755664
399.80 1.753439
399.90 1.751215
400.00 1.748961
400.10 1.745655
400.20 1.743019
400.30 1.739679
400.40 1.736315
400.50 1.73205
400.60 1.728884
400.70 1.724869
400.80 1.720283
400.90 1.715234
401.00 1.71033
401.10 1.705404
401.20 1.699964
401.30 1.693742
401.40 1.686643
401.50 1.679408
401.60 1.672119
401.70 1.662843
401.80 1.653586
401.90 1.642069
402.00 1.631073
402.10 1.616573
402.20 1.601284
402.30 1.583894
402.40 1.562375
402.50 1.536364
402.60 1.503789
402.70 1.527349
402.80 1.561367
402.90 1.58335
403.00 1.603596
403.10 1.619463
403.20 1.63299
403.30 1.64295
403.40 1.652365
403.50 1.660095
403.60 1.667353
403.70 1.673649
403.80 1.677634
403.90 1.682091
404.00 1.686007
404.10 1.687382
404.20 1.68887
404.30 1.690357
404.40 1.691912
404.50 1.691778
404.60 1.692488
404.70 1.693196
404.80 1.693949
404.90 1.694611
405.00 1.694985
405.10 1.695801
405.20 1.696616
405.30 1.697429
405.40 1.697874
405.50 1.698319
405.60 1.698764
405.70 1.699208
405.80 1.699651
405.90 1.700093
406.00 1.700182
406.10 1.700271
406.20 1.70036
406.30 1.700448
406.40 1.700508
406.50 1.700058
406.60 1.700366
406.70 1.700008
406.80 1.69977
406.90 1.699402
407.00 1.699025
407.10 1.698649
407.20 1.698272
407.30 1.697896
407.40 1.69752
407.50 1.697144
407.60 1.696768
407.70 1.696393
407.80 1.696017
407.90 1.695628
408.00 1.694797
408.10 1.693967
408.20 1.693532
408.30 1.693197
408.40 1.692862
408.50 1.692167
408.60 1.691339
408.70 1.690511
408.80 1.689684
408.90 1.688858
409.00 1.688032
409.10 1.687207
409.20 1.686383
409.30 1.685559
409.40 1.684735
409.50 1.683913
409.60 1.68309
409.70 1.68213
409.80 1.680615
409.90 1.679122
410.00 1.678303
410.10 1.677484
410.20 1.676667
410.30 1.675849
410.40 1.674914
410.50 1.673604
410.60 1.672296
410.70 1.670965
410.80 1.669545
410.90 1.668125
411.00 1.666531
411.10 1.664872
411.20 1.663214
411.30 1.661472
411.40 1.659377
411.50 1.656987
411.60 1.654599
411.70 1.651782
411.80 1.64725
411.90 1.641976
412.00 1.633726
412.10 1.626601
412.20 1.626185
412.30 1.627393
412.40 1.629178
412.50 1.63168
412.60 1.633012
412.70 1.634033
412.80 1.634975
412.90 1.637001
413.00 1.63642
413.10 1.636511
413.20 1.636601
413.30 1.63669
413.40 1.63678
413.50 1.636693
413.60 1.635813
413.70 1.634653
413.80 1.633493
413.90 1.632335
414.00 1.631266
414.10 1.630478
414.20 1.628806
414.30 1.625956
414.40 1.623993
414.50 1.624501
414.60 1.625253
414.70 1.625204
414.80 1.625156
414.90 1.625108
415.00 1.625059
415.10 1.625011
415.20 1.624895
415.30 1.62457
415.40 1.624245
415.50 1.623906
415.60 1.623125
415.70 1.622344
415.80 1.621679
415.90 1.62138
416.00 1.621082
416.10 1.620688
416.20 1.619909
416.30 1.619131
416.40 1.618353
416.50 1.617576
416.60 1.6168
416.70 1.616024
416.80 1.615248
416.90 1.614474
417.00 1.613699
417.10 1.612947
417.20 1.612901
417.30 1.612833
417.40 1.61206
417.50 1.611288
417.60 1.610516
417.70 1.609745
417.80 1.608975
417.90 1.608205
418.00 1.607436
418.10 1.606667
418.20 1.605898
418.30 1.605131
418.40 1.604326
418.50 1.603402
418.60 1.60248
418.70 1.601558
418.80 1.600636
418.90 1.599716
419.00 1.598796
419.10 1.597876
419.20 1.596958
419.30 1.596044
419.40 1.595283
419.50 1.594523
419.60 1.593763
419.70 1.593004
419.80 1.592245
419.90 1.591453
420.00 1.590555
420.10 1.589657
420.20 1.58876
420.30 1.587864
420.40 1.586968
420.50 1.586074
420.60 1.585179
420.70 1.584286
420.80 1.583393
420.90 1.582505
421.00 1.581753
421.10 1.581002
421.20 1.580201
421.30 1.579247
421.40 1.578294
421.50 1.577343
421.60 1.576391
421.70 1.575441
421.80 1.574491
421.90 1.573591
422.00 1.572845
422.10 1.5721
422.20 1.571355
422.30 1.570611
422.40 1.569863
422.50 1.568977
422.60 1.568091
422.70 1.567206
422.80 1.566322
422.90 1.565438
423.00 1.564555
423.10 1.563673
423.20 1.562791
423.30 1.56191
423.40 1.56103
423.50 1.56015
423.60 1.559271
423.70 1.558393
423.80 1.557515
423.90 1.556638
424.00 1.555762
424.10 1.554886
424.20 1.554011
424.30 1.553136
424.40 1.552288
424.50 1.551273
424.60 1.550259
424.70 1.549246
424.80 1.548233
