# Version 2.1 - nm, norm@500 to 1, cut digits, bergeron_He_9500_90.dat_9500
# Wavelength(nm)  Flambda(ergs/cm^s/s/nm)
300.00 1.846336
300.10 1.846172
300.20 1.846005
300.30 1.845845
300.40 1.845726
300.50 1.845607
300.60 1.845487
300.70 1.845368
300.80 1.845248
300.90 1.845128
301.00 1.845007
301.10 1.844886
301.20 1.844765
301.30 1.844644
301.40 1.844523
301.50 1.844401
301.60 1.844279
301.70 1.844157
301.80 1.844035
301.90 1.843912
302.00 1.843789
302.10 1.843599
302.20 1.843401
302.30 1.843203
302.40 1.843004
302.50 1.842806
302.60 1.842607
302.70 1.842409
302.80 1.84221
302.90 1.842011
303.00 1.841812
303.10 1.841612
303.20 1.841413
303.30 1.841213
303.40 1.841004
303.50 1.840795
303.60 1.840586
303.70 1.840376
303.80 1.840167
303.90 1.839957
304.00 1.839748
304.10 1.839538
304.20 1.839328
304.30 1.839118
304.40 1.838908
304.50 1.838698
304.60 1.838514
304.70 1.838332
304.80 1.83815
304.90 1.837969
305.00 1.837787
305.10 1.837605
305.20 1.837422
305.30 1.83724
305.40 1.837058
305.50 1.836875
305.60 1.836692
305.70 1.836509
305.80 1.836326
305.90 1.836142
306.00 1.835959
306.10 1.835775
306.20 1.835592
306.30 1.835408
306.40 1.83522
306.50 1.835032
306.60 1.834843
306.70 1.834654
306.80 1.834465
306.90 1.834276
307.00 1.834087
307.10 1.833898
307.20 1.833708
307.30 1.833518
307.40 1.833329
307.50 1.833139
307.60 1.832948
307.70 1.832758
307.80 1.832568
307.90 1.832377
308.00 1.832187
308.10 1.831996
308.20 1.831805
308.30 1.831614
308.40 1.831423
308.50 1.831231
308.60 1.83104
308.70 1.830848
308.80 1.830542
308.90 1.829909
309.00 1.829726
309.10 1.829542
309.20 1.829359
309.30 1.829175
309.40 1.828983
309.50 1.828733
309.60 1.828484
309.70 1.828234
309.80 1.827985
309.90 1.827735
310.00 1.827486
310.10 1.827236
310.20 1.826986
310.30 1.826737
310.40 1.826524
310.50 1.826353
310.60 1.826181
310.70 1.82601
310.80 1.825838
310.90 1.825666
311.00 1.825409
311.10 1.825153
311.20 1.824896
311.30 1.824637
311.40 1.824372
311.50 1.824107
311.60 1.823841
311.70 1.823576
311.80 1.823311
311.90 1.823045
312.00 1.82278
312.10 1.822514
312.20 1.822409
312.30 1.822187
312.40 1.821776
312.50 1.821473
312.60 1.82122
312.70 1.820968
312.80 1.820716
312.90 1.820488
313.00 1.820289
313.10 1.820088
313.20 1.819888
313.30 1.81968
313.40 1.81945
313.50 1.819219
313.60 1.818989
313.70 1.818758
313.80 1.818528
313.90 1.818297
314.00 1.818066
314.10 1.817778
314.20 1.817489
314.30 1.817201
314.40 1.816913
314.50 1.816624
314.60 1.816336
314.70 1.816048
314.80 1.815758
314.90 1.815485
315.00 1.815236
315.10 1.814975
315.20 1.814715
315.30 1.814454
315.40 1.814193
315.50 1.813932
315.60 1.813671
315.70 1.813355
315.80 1.813038
315.90 1.812722
316.00 1.812405
316.10 1.812255
316.20 1.812105
316.30 1.811954
316.40 1.811472
316.50 1.811321
316.60 1.810839
316.70 1.810688
316.80 1.810537
316.90 1.810221
317.00 1.809905
317.10 1.809588
317.20 1.809272
317.30 1.809268
317.40 1.80917
317.50 1.808803
317.60 1.808436
317.70 1.80807
317.80 1.807703
317.90 1.80743
318.00 1.806999
318.10 1.806847
318.20 1.806694
318.30 1.806542
318.40 1.806304
318.50 1.805824
318.60 1.8056
318.70 1.805349
318.80 1.804869
318.90 1.804488
319.00 1.804166
319.10 1.804013
319.20 1.80383
319.30 1.803561
319.40 1.803292
319.50 1.803024
319.60 1.802566
319.70 1.802297
319.80 1.802029
319.90 1.80176
320.00 1.801547
320.10 1.801393
320.20 1.801063
320.30 1.800748
320.40 1.800465
320.50 1.799987
320.60 1.79982
320.70 1.799343
320.80 1.798944
320.90 1.798628
321.00 1.798313
321.10 1.797998
321.20 1.798142
321.30 1.797802
321.40 1.797461
321.50 1.797121
321.60 1.796781
321.70 1.79644
321.80 1.796143
321.90 1.795893
322.00 1.795192
322.10 1.794873
322.20 1.794554
322.30 1.794235
322.40 1.793916
322.50 1.793598
322.60 1.793279
322.70 1.79296
322.80 1.793105
322.90 1.792785
323.00 1.792466
323.10 1.792148
323.20 1.791829
323.30 1.79151
323.40 1.791191
323.50 1.790872
323.60 1.790554
323.70 1.790235
323.80 1.789916
323.90 1.789598
324.00 1.789338
324.10 1.789079
324.20 1.78882
324.30 1.788341
324.40 1.787647
324.50 1.787395
324.60 1.787143
324.70 1.786891
324.80 1.786638
324.90 1.786386
325.00 1.786134
325.10 1.785882
325.20 1.785569
325.30 1.785127
325.40 1.784685
325.50 1.784304
325.60 1.783996
325.70 1.783689
325.80 1.783382
325.90 1.783052
326.00 1.782698
326.10 1.782344
326.20 1.781991
326.30 1.781702
326.40 1.7816
326.50 1.781237
326.60 1.780875
326.70 1.780513
326.80 1.780151
326.90 1.779789
327.00 1.779428
327.10 1.779066
327.20 1.778705
327.30 1.778343
327.40 1.777982
327.50 1.777621
327.60 1.77726
327.70 1.776899
327.80 1.776538
327.90 1.776405
328.00 1.77628
328.10 1.775862
328.20 1.775444
328.30 1.775026
328.40 1.774608
328.50 1.774215
328.60 1.773828
328.70 1.773441
328.80 1.773077
328.90 1.772778
329.00 1.77248
329.10 1.772181
329.20 1.771882
329.30 1.771583
329.40 1.771285
329.50 1.770986
329.60 1.770688
329.70 1.770389
329.80 1.770091
329.90 1.769792
330.00 1.769422
330.10 1.768964
330.20 1.768506
330.30 1.768048
330.40 1.76764
330.50 1.767287
330.60 1.766933
330.70 1.76658
330.80 1.766227
330.90 1.765874
331.00 1.765521
331.10 1.765168
331.20 1.764816
331.30 1.764463
331.40 1.764111
331.50 1.763765
331.60 1.763429
331.70 1.763093
331.80 1.762744
331.90 1.762396
332.00 1.762047
332.10 1.761699
332.20 1.761351
332.30 1.761003
332.40 1.760655
332.50 1.760307
332.60 1.759959
332.70 1.759611
332.80 1.759263
332.90 1.758916
333.00 1.758568
333.10 1.758198
333.20 1.757801
333.30 1.757403
333.40 1.757006
333.50 1.756609
333.60 1.756212
333.70 1.755815
333.80 1.755418
333.90 1.755022
334.00 1.754625
334.10 1.754247
334.20 1.753891
334.30 1.753534
334.40 1.753178
334.50 1.752822
334.60 1.752466
334.70 1.752055
334.80 1.751623
334.90 1.751254
335.00 1.750886
335.10 1.75084
335.20 1.750387
335.30 1.750258
335.40 1.749583
335.50 1.749351
335.60 1.748898
335.70 1.74871
335.80 1.748257
335.90 1.747804
336.00 1.747352
336.10 1.7469
336.20 1.746448
336.30 1.74604
336.40 1.745687
336.50 1.745333
336.60 1.744979
336.70 1.744626
336.80 1.744273
336.90 1.743938
337.00 1.743627
337.10 1.743315
337.20 1.743004
337.30 1.742637
337.40 1.742191
337.50 1.741745
337.60 1.7413
337.70 1.740855
337.80 1.74041
337.90 1.740006
338.00 1.739652
338.10 1.739298
338.20 1.738944
338.30 1.73859
338.40 1.738231
338.50 1.737856
338.60 1.737482
338.70 1.737107
338.80 1.736733
338.90 1.736359
339.00 1.735985
339.10 1.735611
339.20 1.735238
339.30 1.734839
339.40 1.734405
339.50 1.733985
339.60 1.733581
339.70 1.733178
339.80 1.732776
339.90 1.732373
340.00 1.73197
340.10 1.731568
340.20 1.731166
340.30 1.730764
340.40 1.730362
340.50 1.72996
340.60 1.729559
340.70 1.729157
340.80 1.728744
340.90 1.728313
341.00 1.727908
341.10 1.727537
341.20 1.727166
341.30 1.726795
341.40 1.726424
341.50 1.726053
341.60 1.725683
341.70 1.725312
341.80 1.724955
341.90 1.724614
342.00 1.724273
342.10 1.723932
342.20 1.723458
342.30 1.722778
342.40 1.722284
342.50 1.721943
342.60 1.721602
342.70 1.721261
342.80 1.72092
342.90 1.72058
343.00 1.720192
343.10 1.719748
343.20 1.719304
343.30 1.71886
343.40 1.718418
343.50 1.717981
343.60 1.717543
343.70 1.717105
343.80 1.716668
343.90 1.716231
344.00 1.715852
344.10 1.715555
344.20 1.715259
344.30 1.714962
344.40 1.714609
344.50 1.714172
344.60 1.713521
344.70 1.713072
344.80 1.712651
344.90 1.712494
345.00 1.711995
345.10 1.711561
345.20 1.711129
345.30 1.710702
345.40 1.710276
345.50 1.709836
345.60 1.70939
345.70 1.708956
345.80 1.708523
345.90 1.70809
346.00 1.707657
346.10 1.707225
346.20 1.706815
346.30 1.706438
346.40 1.706061
346.50 1.705685
346.60 1.705308
346.70 1.704932
346.80 1.704556
346.90 1.70418
347.00 1.703804
347.10 1.703429
347.20 1.703036
347.30 1.702619
347.40 1.702202
347.50 1.701785
347.60 1.701368
347.70 1.700952
347.80 1.700536
347.90 1.70012
348.00 1.699704
348.10 1.699288
348.20 1.698873
348.30 1.698457
348.40 1.698042
348.50 1.697627
348.60 1.697213
348.70 1.696681
348.80 1.69617
348.90 1.695743
349.00 1.695316
349.10 1.69489
349.20 1.694464
349.30 1.694037
349.40 1.693612
349.50 1.693186
349.60 1.69276
349.70 1.692335
349.80 1.69191
349.90 1.691485
350.00 1.69106
350.10 1.690636
350.20 1.690212
350.30 1.689787
350.40 1.68936
350.50 1.688934
350.60 1.688508
350.70 1.688083
350.80 1.687657
350.90 1.687232
351.00 1.686807
351.10 1.686382
351.20 1.685958
351.30 1.685533
351.40 1.685098
351.50 1.684644
351.60 1.684189
351.70 1.683735
351.80 1.683281
351.90 1.682827
352.00 1.682374
352.10 1.681921
352.20 1.681662
352.30 1.681339
352.40 1.680891
352.50 1.680444
352.60 1.679996
352.70 1.679549
352.80 1.679103
352.90 1.678656
353.00 1.67821
353.10 1.677764
353.20 1.677318
353.30 1.676872
353.40 1.676427
353.50 1.675962
353.60 1.675492
353.70 1.675023
353.80 1.674554
353.90 1.674105
354.00 1.673692
354.10 1.673279
354.20 1.672866
354.30 1.672453
354.40 1.672041
354.50 1.671629
354.60 1.671217
354.70 1.670805
354.80 1.670372
354.90 1.669909
355.00 1.669446
355.10 1.668983
355.20 1.668521
355.30 1.66807
355.40 1.667619
355.50 1.667168
355.60 1.666718
355.70 1.666242
355.80 1.665756
355.90 1.665444
356.00 1.665073
356.10 1.664609
356.20 1.664146
356.30 1.663682
356.40 1.663219
356.50 1.662756
356.60 1.662294
356.70 1.661831
356.80 1.661369
356.90 1.660908
357.00 1.660446
357.10 1.659985
357.20 1.659524
357.30 1.659063
357.40 1.658601
357.50 1.658137
357.60 1.657673
357.70 1.657209
357.80 1.656754
357.90 1.6563
358.00 1.655865
358.10 1.655437
358.20 1.655008
358.30 1.654579
358.40 1.654151
358.50 1.653723
358.60 1.653295
358.70 1.652867
358.80 1.65244
358.90 1.652013
359.00 1.651575
359.10 1.651116
359.20 1.650656
359.30 1.650178
359.40 1.649701
359.50 1.649312
359.60 1.648945
359.70 1.648578
359.80 1.64805
359.90 1.647522
360.00 1.647027
360.10 1.646589
360.20 1.646151
360.30 1.645713
360.40 1.645276
360.50 1.644839
360.60 1.644579
360.70 1.64405
360.80 1.643521
360.90 1.642993
361.00 1.642655
361.10 1.642209
361.20 1.641526
361.30 1.641126
361.40 1.640701
361.50 1.640327
361.60 1.639602
361.70 1.639203
361.80 1.638835
361.90 1.638524
362.00 1.638212
362.10 1.637707
362.20 1.637187
362.30 1.636727
362.40 1.636267
362.50 1.635808
362.60 1.635348
362.70 1.634816
362.80 1.634139
362.90 1.633739
363.00 1.633341
363.10 1.632901
363.20 1.632462
363.30 1.632158
363.40 1.631385
363.50 1.631367
363.60 1.63072
363.70 1.630353
363.80 1.62968
363.90 1.629262
364.00 1.628844
364.10 1.628426
364.20 1.628008
364.30 1.627432
364.40 1.626817
364.50 1.626429
364.60 1.626034
364.70 1.62564
364.80 1.625246
364.90 1.624854
365.00 1.624462
365.10 1.623821
365.20 1.623429
365.30 1.622789
365.40 1.622398
365.50 1.622007
365.60 1.621617
365.70 1.621181
365.80 1.620746
365.90 1.62017
366.00 1.61956
366.10 1.619162
366.20 1.618765
366.30 1.618367
366.40 1.61797
366.50 1.617121
366.60 1.616732
366.70 1.616225
366.80 1.615717
366.90 1.615235
367.00 1.614798
367.10 1.614361
367.20 1.613925
367.30 1.613489
367.40 1.613053
367.50 1.6127
367.60 1.612368
367.70 1.611879
367.80 1.61139
367.90 1.610901
368.00 1.610335
368.10 1.609944
368.20 1.609457
368.30 1.608968
368.40 1.608479
368.50 1.60799
368.60 1.607502
368.70 1.607014
368.80 1.606527
368.90 1.606215
369.00 1.605734
369.10 1.605133
369.20 1.604753
369.30 1.604208
369.40 1.603664
369.50 1.60312
369.60 1.602736
369.70 1.602353
369.80 1.601881
369.90 1.601408
370.00 1.600935
370.10 1.600349
370.20 1.599964
370.30 1.599584
370.40 1.598955
370.50 1.598582
370.60 1.597967
370.70 1.597588
370.80 1.597206
370.90 1.596825
371.00 1.596209
371.10 1.595591
371.20 1.595211
371.30 1.594831
371.40 1.594138
371.50 1.593728
371.60 1.593318
371.70 1.592908
371.80 1.592498
371.90 1.592088
372.00 1.591374
372.10 1.590861
372.20 1.590406
372.30 1.58995
372.40 1.589495
372.50 1.589041
372.60 1.588586
372.70 1.588132
372.80 1.587755
372.90 1.587379
373.00 1.58677
373.10 1.586159
373.20 1.585785
373.30 1.585412
373.40 1.584801
373.50 1.584428
373.60 1.583818
373.70 1.583446
373.80 1.582703
373.90 1.582227
374.00 1.581855
374.10 1.581484
374.20 1.581113
374.30 1.580742
374.40 1.580193
374.50 1.579527
374.60 1.579036
374.70 1.578549
374.80 1.578062
374.90 1.577575
375.00 1.577206
375.10 1.576836
375.20 1.576467
375.30 1.575964
375.40 1.575461
375.50 1.574958
375.60 1.574456
375.70 1.573953
375.80 1.573451
375.90 1.57295
376.00 1.572578
376.10 1.57205
376.20 1.571521
376.30 1.570992
376.40 1.570464
376.50 1.569942
376.60 1.569431
376.70 1.568921
376.80 1.568467
376.90 1.568071
377.00 1.567674
377.10 1.567278
377.20 1.566852
377.30 1.566312
377.40 1.565772
377.50 1.565233
377.60 1.564708
377.70 1.564183
377.80 1.563658
377.90 1.563134
378.00 1.562941
378.10 1.562445
378.20 1.561941
378.30 1.561438
378.40 1.560934
378.50 1.560431
378.60 1.559929
378.70 1.559426
378.80 1.558924
378.90 1.55843
379.00 1.55795
379.10 1.557498
379.20 1.557046
379.30 1.556558
379.40 1.556035
379.50 1.555512
379.60 1.555026
379.70 1.554583
379.80 1.5541
379.90 1.553618
380.00 1.553136
380.10 1.552654
380.20 1.552173
380.30 1.551691
380.40 1.55121
380.50 1.55073
380.60 1.550501
380.70 1.549999
380.80 1.549497
380.90 1.548996
381.00 1.548494
381.10 1.547967
381.20 1.54753
381.30 1.546972
381.40 1.546324
381.50 1.545981
381.60 1.545605
381.70 1.545098
381.80 1.544744
381.90 1.543935
382.00 1.543581
382.10 1.543228
382.20 1.542511
382.30 1.541932
382.40 1.541447
382.50 1.541106
382.60 1.540765
382.70 1.540205
382.80 1.539559
382.90 1.539072
383.00 1.538584
383.10 1.538097
383.20 1.537649
383.30 1.537346
383.40 1.536973
383.50 1.536494
383.60 1.535719
383.70 1.535216
383.80 1.534713
383.90 1.53421
384.00 1.533708
384.10 1.533205
384.20 1.532704
384.30 1.532202
384.40 1.53171
384.50 1.531227
384.60 1.530745
384.70 1.530263
384.80 1.529825
384.90 1.529503
385.00 1.529093
385.10 1.528675
385.20 1.527988
385.30 1.527422
385.40 1.526899
385.50 1.526419
385.60 1.52594
385.70 1.525461
385.80 1.524971
385.90 1.524442
386.00 1.52394
386.10 1.523469
386.20 1.523024
386.30 1.522579
386.40 1.522071
386.50 1.521619
386.60 1.521276
386.70 1.520822
386.80 1.520147
386.90 1.519805
387.00 1.519252
387.10 1.518677
387.20 1.518336
387.30 1.517994
387.40 1.517325
387.50 1.51687
387.60 1.516157
387.70 1.515706
387.80 1.515255
387.90 1.514805
388.00 1.514393
388.10 1.513946
388.20 1.513305
388.30 1.512806
388.40 1.512306
388.50 1.511844
388.60 1.511371
388.70 1.51099
388.80 1.51042
388.90 1.509917
389.00 1.50958
389.10 1.508984
389.20 1.508467
389.30 1.507849
389.40 1.507524
389.50 1.507166
389.60 1.506683
389.70 1.506013
389.80 1.505538
389.90 1.505063
390.00 1.504588
390.10 1.504113
390.20 1.503639
390.30 1.503149
390.40 1.502642
390.50 1.502135
390.60 1.501629
390.70 1.501123
390.80 1.500608
390.90 1.500086
391.00 1.499876
391.10 1.49932
391.20 1.49872
391.30 1.49809
391.40 1.497613
391.50 1.497137
391.60 1.496661
391.70 1.496185
391.80 1.49571
391.90 1.495289
392.00 1.494843
392.10 1.494267
392.20 1.493741
392.30 1.493492
392.40 1.493015
392.50 1.492255
392.60 1.491925
392.70 1.491241
392.80 1.490836
392.90 1.490238
393.00 1.489937
393.10 1.489421
393.20 1.488702
393.30 1.488374
393.40 1.488008
393.50 1.487251
393.60 1.486924
393.70 1.486479
393.80 1.485861
393.90 1.485321
394.00 1.484824
394.10 1.484537
394.20 1.484001
394.30 1.483542
394.40 1.483067
394.50 1.482706
394.60 1.482193
394.70 1.481671
394.80 1.481116
394.90 1.480569
395.00 1.480231
395.10 1.479482
395.20 1.478954
395.30 1.478483
395.40 1.478012
395.50 1.477591
395.60 1.477189
395.70 1.476766
395.80 1.476286
395.90 1.475807
396.00 1.475304
396.10 1.474616
396.20 1.474083
396.30 1.473493
396.40 1.473172
396.50 1.472783
396.60 1.472109
396.70 1.471789
396.80 1.471218
396.90 1.470727
397.00 1.470407
397.10 1.469667
397.20 1.469347
397.30 1.468679
397.40 1.468204
397.50 1.46773
397.60 1.467259
397.70 1.466819
397.80 1.466379
397.90 1.465899
398.00 1.465312
398.10 1.464726
398.20 1.464231
398.30 1.463838
398.40 1.463446
398.50 1.463033
398.60 1.462386
398.70 1.461788
398.80 1.461226
398.90 1.460712
399.00 1.460289
399.10 1.459991
399.20 1.459451
399.30 1.458911
399.40 1.458371
399.50 1.457832
399.60 1.457347
399.70 1.456883
399.80 1.45642
399.90 1.455956
400.00 1.455495
400.10 1.455086
400.20 1.454445
400.30 1.45398
400.40 1.453582
400.50 1.453094
400.60 1.45252
400.70 1.452002
400.80 1.451674
400.90 1.451022
401.00 1.450711
401.10 1.449988
401.20 1.449589
401.30 1.448955
401.40 1.448456
401.50 1.44804
401.60 1.447624
401.70 1.447219
401.80 1.446584
401.90 1.446079
402.00 1.445571
402.10 1.445248
402.20 1.444529
402.30 1.444221
402.40 1.443783
402.50 1.443196
402.60 1.442888
402.70 1.442172
402.80 1.441865
402.90 1.441313
403.00 1.440802
403.10 1.440128
403.20 1.439831
403.30 1.439431
403.40 1.438802
403.50 1.43828
403.60 1.437818
403.70 1.437479
403.80 1.436774
403.90 1.436294
404.00 1.435752
404.10 1.435448
404.20 1.434941
404.30 1.434434
404.40 1.433725
404.50 1.433421
404.60 1.432916
404.70 1.43241
404.80 1.431714
404.90 1.4314
405.00 1.431011
405.10 1.430507
405.20 1.429946
405.30 1.429384
405.40 1.428881
405.50 1.428378
405.60 1.427876
405.70 1.427374
405.80 1.426872
405.90 1.42637
406.00 1.425911
406.10 1.425451
406.20 1.424992
406.30 1.424534
406.40 1.424068
406.50 1.423469
406.60 1.423069
406.70 1.422494
406.80 1.421952
406.90 1.421779
407.00 1.421281
407.10 1.420783
407.20 1.420285
407.30 1.419788
407.40 1.419291
407.50 1.418794
407.60 1.418298
407.70 1.417802
407.80 1.417306
407.90 1.416811
408.00 1.416334
408.10 1.415815
408.20 1.415225
408.30 1.414661
408.40 1.414098
408.50 1.413839
408.60 1.413284
408.70 1.41273
408.80 1.412212
408.90 1.411904
409.00 1.411366
409.10 1.410829
409.20 1.410291
409.30 1.409754
409.40 1.409222
409.50 1.408813
409.60 1.408405
409.70 1.407977
409.80 1.407472
409.90 1.406962
410.00 1.406276
410.10 1.405919
410.20 1.405423
410.30 1.404892
410.40 1.404386
410.50 1.403961
410.60 1.403537
410.70 1.403092
410.80 1.402568
410.90 1.402045
411.00 1.401568
411.10 1.401109
411.20 1.40065
411.30 1.400147
411.40 1.39947
411.50 1.398929
411.60 1.398387
411.70 1.397858
411.80 1.397375
411.90 1.397048
412.00 1.396566
412.10 1.396181
412.20 1.395602
412.30 1.394991
412.40 1.394638
412.50 1.394018
412.60 1.393621
412.70 1.393123
412.80 1.392599
412.90 1.392056
413.00 1.391793
413.10 1.391274
413.20 1.390755
413.30 1.390236
413.40 1.389718
413.50 1.38925
413.60 1.388908
413.70 1.388334
413.80 1.38776
413.90 1.387186
414.00 1.386636
414.10 1.38616
414.20 1.38587
414.30 1.385356
414.40 1.384687
414.50 1.384406
414.60 1.383784
414.70 1.38331
414.80 1.382836
414.90 1.382362
415.00 1.381889
415.10 1.381415
415.20 1.380925
415.30 1.38038
415.40 1.379835
415.50 1.379296
415.60 1.378907
415.70 1.378519
415.80 1.378096
415.90 1.377559
416.00 1.377023
416.10 1.376499
416.20 1.376022
416.30 1.375544
416.40 1.375067
416.50 1.374591
416.60 1.374122
416.70 1.373648
416.80 1.372989
416.90 1.372712
417.00 1.372054
417.10 1.371783
417.20 1.371316
417.30 1.370848
417.40 1.370326
417.50 1.369804
417.60 1.369256
417.70 1.368606
417.80 1.368141
417.90 1.367676
418.00 1.367212
418.10 1.366748
418.20 1.366284
418.30 1.365815
418.40 1.365201
418.50 1.364714
418.60 1.364226
418.70 1.363739
418.80 1.363252
418.90 1.362766
419.00 1.362279
419.10 1.361793
419.20 1.361308
419.30 1.360822
419.40 1.360306
419.50 1.359791
419.60 1.3593
419.70 1.358907
419.80 1.358514
419.90 1.358096
420.00 1.357597
420.10 1.357098
420.20 1.356599
420.30 1.356101
420.40 1.355603
420.50 1.355105
420.60 1.354608
420.70 1.354111
420.80 1.353614
420.90 1.353118
421.00 1.35261
421.10 1.352102
421.20 1.351601
421.30 1.351119
421.40 1.350638
421.50 1.350157
421.60 1.349677
421.70 1.349196
421.80 1.348716
421.90 1.348242
422.00 1.347786
422.10 1.347317
422.20 1.346796
422.30 1.346276
422.40 1.345757
422.50 1.34527
422.60 1.344784
422.70 1.344298
422.80 1.343812
422.90 1.343327
423.00 1.342841
423.10 1.342357
423.20 1.341872
423.30 1.341388
423.40 1.340904
423.50 1.34042
423.60 1.339937
423.70 1.339454
423.80 1.338971
423.90 1.338489
424.00 1.338007
424.10 1.337525
424.20 1.337044
424.30 1.336563
424.40 1.336051
424.50 1.33557
424.60 1.33509
424.70 1.33461
424.80 1.33413
424.90 1.333651
