# Version 2.1 - nm, norm@500 to 1, cut digits, bergeron_He_7000_85.dat_7000
# Wavelength(nm)  Flambda(ergs/cm^s/s/nm)
300.00 0.9738342
300.10 0.9743158
300.20 0.9747983
300.30 0.9752779
300.40 0.9757429
300.50 0.976207
300.60 0.9766703
300.70 0.9771328
300.80 0.9775945
300.90 0.9780553
301.00 0.9785153
301.10 0.9789744
301.20 0.9794328
301.30 0.9798903
301.40 0.980347
301.50 0.9808029
301.60 0.9812579
301.70 0.9817121
301.80 0.9821656
301.90 0.9826182
302.00 0.9830699
302.10 0.9835159
302.20 0.9839605
302.30 0.9844043
302.40 0.9848473
302.50 0.9852894
302.60 0.9857308
302.70 0.9861714
302.80 0.9866112
302.90 0.9870502
303.00 0.9874884
303.10 0.9879258
303.20 0.9883624
303.30 0.9888002
303.40 0.9892552
303.50 0.9897093
303.60 0.9901626
303.70 0.9906151
303.80 0.9910668
303.90 0.9915177
304.00 0.9919678
304.10 0.9924171
304.20 0.9928655
304.30 0.9933132
304.40 0.9937601
304.50 0.9942061
304.60 0.9946405
304.70 0.9950729
304.80 0.9955045
304.90 0.9959353
305.00 0.9963654
305.10 0.9967946
305.20 0.9972231
305.30 0.9976508
305.40 0.9980778
305.50 0.9985039
305.60 0.9989293
305.70 0.999354
305.80 0.9997778
305.90 1.000201
306.00 1.000623
306.10 1.001045
306.20 1.001466
306.30 1.001886
306.40 1.00231
306.50 1.002736
306.60 1.003161
306.70 1.003585
306.80 1.004008
306.90 1.004431
307.00 1.004852
307.10 1.005273
307.20 1.005694
307.30 1.006113
307.40 1.006532
307.50 1.00695
307.60 1.007367
307.70 1.007783
307.80 1.008199
307.90 1.008614
308.00 1.009028
308.10 1.009442
308.20 1.009854
308.30 1.010266
308.40 1.010677
308.50 1.011088
308.60 1.011498
308.70 1.011906
308.80 1.012323
308.90 1.012764
309.00 1.013164
309.10 1.013563
309.20 1.013961
309.30 1.014359
309.40 1.014756
309.50 1.015159
309.60 1.015561
309.70 1.015962
309.80 1.016362
309.90 1.016762
310.00 1.017161
310.10 1.017559
310.20 1.017956
310.30 1.018353
310.40 1.018758
310.50 1.019171
310.60 1.019583
310.70 1.019995
310.80 1.020406
310.90 1.020816
311.00 1.021201
311.10 1.021585
311.20 1.021968
311.30 1.022354
311.40 1.022747
311.50 1.023141
311.60 1.023533
311.70 1.023924
311.80 1.024315
311.90 1.024705
312.00 1.025095
312.10 1.025484
312.20 1.025856
312.30 1.02625
312.40 1.026665
312.50 1.026997
312.60 1.027428
312.70 1.027858
312.80 1.028287
312.90 1.028676
313.00 1.029021
313.10 1.029365
313.20 1.029709
313.30 1.030066
313.40 1.030465
313.50 1.030864
313.60 1.031261
313.70 1.031658
313.80 1.032054
313.90 1.03245
314.00 1.032845
314.10 1.033223
314.20 1.0336
314.30 1.033977
314.40 1.034353
314.50 1.034728
314.60 1.035103
314.70 1.035477
314.80 1.035836
314.90 1.036177
315.00 1.036545
315.10 1.036899
315.20 1.037252
315.30 1.037604
315.40 1.037956
315.50 1.038307
315.60 1.038657
315.70 1.039039
315.80 1.039419
315.90 1.039799
316.00 1.040178
316.10 1.040557
316.20 1.040934
316.30 1.041217
316.40 1.041688
316.50 1.04197
316.60 1.042439
316.70 1.042719
316.80 1.042999
316.90 1.043372
317.00 1.043745
317.10 1.044116
317.20 1.044488
317.30 1.044797
317.40 1.045128
317.50 1.045522
317.60 1.045915
317.70 1.046308
317.80 1.0467
317.90 1.047022
318.00 1.047326
318.10 1.047691
318.20 1.048056
318.30 1.048419
318.40 1.048783
318.50 1.049145
318.60 1.049483
318.70 1.049751
318.80 1.050149
318.90 1.050472
319.00 1.050762
319.10 1.051121
319.20 1.051482
319.30 1.051849
319.40 1.052216
319.50 1.052582
319.60 1.052894
319.70 1.053211
319.80 1.053526
319.90 1.053841
320.00 1.054174
320.10 1.054526
320.20 1.054824
320.30 1.055276
320.40 1.055462
320.50 1.055921
320.60 1.056278
320.70 1.056626
320.80 1.056952
320.90 1.057253
321.00 1.057554
321.10 1.057854
321.20 1.058139
321.30 1.05849
321.40 1.058841
321.50 1.059191
321.60 1.05954
321.70 1.059889
321.80 1.060226
321.90 1.06055
322.00 1.060771
322.10 1.061106
322.20 1.06144
322.30 1.061773
322.40 1.062106
322.50 1.062438
322.60 1.06277
322.70 1.063101
322.80 1.063392
322.90 1.063712
323.00 1.064031
323.10 1.06435
323.20 1.064668
323.30 1.064985
323.40 1.065302
323.50 1.065618
323.60 1.065934
323.70 1.066249
323.80 1.066564
323.90 1.066877
324.00 1.067178
324.10 1.067478
324.20 1.067778
324.30 1.068127
324.40 1.068528
324.50 1.068833
324.60 1.069139
324.70 1.069443
324.80 1.069747
324.90 1.070051
325.00 1.070354
325.10 1.070656
325.20 1.070948
325.30 1.07122
325.40 1.071491
325.50 1.071787
325.60 1.072113
325.70 1.072439
325.80 1.072763
325.90 1.07308
326.00 1.073387
326.10 1.073694
326.20 1.074
326.30 1.074311
326.40 1.074635
326.50 1.074926
326.60 1.075216
326.70 1.075505
326.80 1.075794
326.90 1.076083
327.00 1.076371
327.10 1.076658
327.20 1.076945
327.30 1.077231
327.40 1.077517
327.50 1.077802
327.60 1.078087
327.70 1.078371
327.80 1.078654
327.90 1.078976
328.00 1.079303
328.10 1.079588
328.20 1.079872
328.30 1.080155
328.40 1.080438
328.50 1.080716
328.60 1.080991
328.70 1.081267
328.80 1.081544
328.90 1.08183
329.00 1.082115
329.10 1.0824
329.20 1.082684
329.30 1.082967
329.40 1.08325
329.50 1.083533
329.60 1.083815
329.70 1.084096
329.80 1.084377
329.90 1.084657
330.00 1.084927
330.10 1.085184
330.20 1.08544
330.30 1.085696
330.40 1.085964
330.50 1.086245
330.60 1.086525
330.70 1.086804
330.80 1.087084
330.90 1.087362
331.00 1.08764
331.10 1.087918
331.20 1.088195
331.30 1.088471
331.40 1.088747
331.50 1.089005
331.60 1.089243
331.70 1.089479
331.80 1.089746
331.90 1.090013
332.00 1.090279
332.10 1.090546
332.20 1.090811
332.30 1.091076
332.40 1.091341
332.50 1.091605
332.60 1.091868
332.70 1.092131
332.80 1.092393
332.90 1.092655
333.00 1.092917
333.10 1.093177
333.20 1.093437
333.30 1.093697
333.40 1.093955
333.50 1.094214
333.60 1.094471
333.70 1.094729
333.80 1.094985
333.90 1.095242
334.00 1.095497
334.10 1.095748
334.20 1.095991
334.30 1.096234
334.40 1.096477
334.50 1.096719
334.60 1.09696
334.70 1.097235
334.80 1.097519
334.90 1.097761
335.00 1.098002
335.10 1.098285
335.20 1.098552
335.30 1.09878
335.40 1.098962
335.50 1.099165
335.60 1.099492
335.70 1.09971
335.80 1.099974
335.90 1.100218
336.00 1.100439
336.10 1.100659
336.20 1.100879
336.30 1.101105
336.40 1.101338
336.50 1.10157
336.60 1.101802
336.70 1.102034
336.80 1.102265
336.90 1.102504
337.00 1.102752
337.10 1.103001
337.20 1.103248
337.30 1.10349
337.40 1.103724
337.50 1.103958
337.60 1.104191
337.70 1.104424
337.80 1.104656
337.90 1.104892
338.00 1.105133
338.10 1.105373
338.20 1.105613
338.30 1.105852
338.40 1.106084
338.50 1.106301
338.60 1.106517
338.70 1.106732
338.80 1.106947
338.90 1.107162
339.00 1.107376
339.10 1.10759
339.20 1.107803
339.30 1.108037
339.40 1.108302
339.50 1.108548
339.60 1.108772
339.70 1.108995
339.80 1.109218
339.90 1.10944
340.00 1.109662
340.10 1.109884
340.20 1.110105
340.30 1.110325
340.40 1.110545
340.50 1.110765
340.60 1.110984
340.70 1.111203
340.80 1.111403
340.90 1.111578
341.00 1.111772
341.10 1.111991
341.20 1.112208
341.30 1.112425
341.40 1.112642
341.50 1.112859
341.60 1.113074
341.70 1.11329
341.80 1.113491
341.90 1.113673
342.00 1.113855
342.10 1.114037
342.20 1.114213
342.30 1.114463
342.40 1.114711
342.50 1.114922
342.60 1.115132
342.70 1.115343
342.80 1.115552
342.90 1.115762
343.00 1.115958
343.10 1.116139
343.20 1.11632
343.30 1.1165
343.40 1.116689
343.50 1.11689
343.60 1.11709
343.70 1.117291
343.80 1.11749
343.90 1.11769
344.00 1.117883
344.10 1.118069
344.20 1.118253
344.30 1.118438
344.40 1.118638
344.50 1.118862
344.60 1.119052
344.70 1.119195
344.80 1.119496
344.90 1.119639
345.00 1.119813
345.10 1.120034
345.20 1.120226
345.30 1.120378
345.40 1.120529
345.50 1.12073
345.60 1.120963
345.70 1.121155
345.80 1.121346
345.90 1.121537
346.00 1.121728
346.10 1.121918
346.20 1.122106
346.30 1.12229
346.40 1.122474
346.50 1.122657
346.60 1.12284
346.70 1.123023
346.80 1.123205
346.90 1.123387
347.00 1.123569
347.10 1.12375
347.20 1.123928
347.30 1.124101
347.40 1.124274
347.50 1.124447
347.60 1.124619
347.70 1.124791
347.80 1.124962
347.90 1.125133
348.00 1.125304
348.10 1.125474
348.20 1.125644
348.30 1.125814
348.40 1.125983
348.50 1.126152
348.60 1.12632
348.70 1.12648
348.80 1.126642
348.90 1.126811
349.00 1.126979
349.10 1.127148
349.20 1.127315
349.30 1.127483
349.40 1.12765
349.50 1.127817
349.60 1.127983
349.70 1.128149
349.80 1.128314
349.90 1.12848
350.00 1.128644
350.10 1.128809
350.20 1.128973
350.30 1.129136
350.40 1.129296
350.50 1.129456
350.60 1.129616
350.70 1.129776
350.80 1.129935
350.90 1.130094
351.00 1.130252
351.10 1.13041
351.20 1.130568
351.30 1.130725
351.40 1.130881
351.50 1.131034
351.60 1.131187
351.70 1.13134
351.80 1.131492
351.90 1.131644
352.00 1.131796
352.10 1.131947
352.20 1.132118
352.30 1.132282
352.40 1.132437
352.50 1.13259
352.60 1.132744
352.70 1.132897
352.80 1.13305
352.90 1.133202
353.00 1.133354
353.10 1.133506
353.20 1.133657
353.30 1.133808
353.40 1.133959
353.50 1.1341
353.60 1.134239
353.70 1.134377
353.80 1.134515
353.90 1.134657
354.00 1.134805
354.10 1.134953
354.20 1.1351
354.30 1.135247
354.40 1.135394
354.50 1.13554
354.60 1.135686
354.70 1.135832
354.80 1.135975
354.90 1.136115
355.00 1.136254
355.10 1.136393
355.20 1.136532
355.30 1.136654
355.40 1.136775
355.50 1.136896
355.60 1.137017
355.70 1.137142
355.80 1.137269
355.90 1.137407
356.00 1.137544
356.10 1.137677
356.20 1.137809
356.30 1.137941
356.40 1.138072
356.50 1.138203
356.60 1.138334
356.70 1.138465
356.80 1.138595
356.90 1.138725
357.00 1.138854
357.10 1.138984
357.20 1.139112
357.30 1.139241
357.40 1.139362
357.50 1.13947
357.60 1.139578
357.70 1.139686
357.80 1.139851
357.90 1.140016
358.00 1.140147
358.10 1.14027
358.20 1.140393
358.30 1.140515
358.40 1.140637
358.50 1.140758
358.60 1.14088
358.70 1.141001
358.80 1.141121
358.90 1.141242
359.00 1.141349
359.10 1.141434
359.20 1.141522
359.30 1.141638
359.40 1.141754
359.50 1.141893
359.60 1.142038
359.70 1.142183
359.80 1.142265
359.90 1.142346
360.00 1.142442
360.10 1.142565
360.20 1.142687
360.30 1.142809
360.40 1.142931
360.50 1.143052
360.60 1.143134
360.70 1.14326
360.80 1.143386
360.90 1.143512
361.00 1.143549
361.10 1.143661
361.20 1.14383
361.30 1.143889
361.40 1.143977
361.50 1.144065
361.60 1.144178
361.70 1.144337
361.80 1.144474
361.90 1.144572
362.00 1.144669
362.10 1.144741
362.20 1.144816
362.30 1.144908
362.40 1.144999
362.50 1.145091
362.60 1.145181
362.70 1.145331
362.80 1.145494
362.90 1.145574
363.00 1.145654
363.10 1.145741
363.20 1.145827
363.30 1.14591
363.40 1.145992
363.50 1.146075
363.60 1.146156
363.70 1.146301
363.80 1.146462
363.90 1.146543
364.00 1.146623
364.10 1.146704
364.20 1.146784
364.30 1.146864
364.40 1.146943
364.50 1.14703
364.60 1.147154
364.70 1.147278
364.80 1.147401
364.90 1.147479
365.00 1.147557
365.10 1.147635
365.20 1.147713
365.30 1.14779
365.40 1.147867
365.50 1.147944
365.60 1.14802
365.70 1.148097
365.80 1.148173
365.90 1.148248
366.00 1.148324
366.10 1.148421
366.20 1.148519
366.30 1.148616
366.40 1.148713
366.50 1.14883
366.60 1.148911
366.70 1.148974
366.80 1.149037
366.90 1.149105
367.00 1.149183
367.10 1.149261
367.20 1.149338
367.30 1.149416
367.40 1.149493
367.50 1.149565
367.60 1.149637
367.70 1.149708
367.80 1.149779
367.90 1.149849
368.00 1.14992
368.10 1.15012
368.20 1.150189
368.30 1.150256
368.40 1.150322
368.50 1.150389
368.60 1.150455
368.70 1.150521
368.80 1.150587
368.90 1.150671
369.00 1.150745
369.10 1.150809
369.20 1.150884
369.30 1.150951
369.40 1.151018
369.50 1.151084
369.60 1.151147
369.70 1.15121
369.80 1.151258
369.90 1.151305
370.00 1.151352
370.10 1.15147
370.20 1.151537
370.30 1.151602
370.40 1.151667
370.50 1.151731
370.60 1.151795
370.70 1.151866
370.80 1.151926
370.90 1.151986
371.00 1.152052
371.10 1.152119
371.20 1.152178
371.30 1.152237
371.40 1.15228
371.50 1.152346
371.60 1.152411
371.70 1.152476
371.80 1.152541
371.90 1.152606
372.00 1.152674
372.10 1.152734
372.20 1.152795
372.30 1.152855
372.40 1.152915
372.50 1.152974
372.60 1.153034
372.70 1.153093
372.80 1.153148
372.90 1.153204
373.00 1.153198
373.10 1.153192
373.20 1.15325
373.30 1.153308
373.40 1.153365
373.50 1.153423
373.60 1.15348
373.70 1.153537
373.80 1.153636
373.90 1.15365
374.00 1.153706
374.10 1.153762
374.20 1.153818
374.30 1.153874
374.40 1.153929
374.50 1.153978
374.60 1.154034
374.70 1.15409
374.80 1.154147
374.90 1.154203
375.00 1.154212
375.10 1.154221
375.20 1.15423
375.30 1.154284
375.40 1.154337
375.50 1.15439
375.60 1.154443
375.70 1.154495
375.80 1.154547
375.90 1.1546
376.00 1.154645
376.10 1.154669
376.20 1.154693
376.30 1.154717
376.40 1.154741
376.50 1.154784
376.60 1.154858
376.70 1.154931
376.80 1.154986
376.90 1.155022
377.00 1.155058
377.10 1.155093
377.20 1.155123
377.30 1.155128
377.40 1.155134
377.50 1.15514
377.60 1.155188
377.70 1.155237
377.80 1.155285
377.90 1.155333
378.00 1.155374
378.10 1.155403
378.20 1.155432
378.30 1.155461
378.40 1.15549
378.50 1.155518
378.60 1.155547
378.70 1.155575
378.80 1.155603
378.90 1.155611
379.00 1.155584
379.10 1.155656
379.20 1.155727
379.30 1.155775
379.40 1.155799
379.50 1.155822
379.60 1.155856
379.70 1.155898
379.80 1.155909
379.90 1.155919
380.00 1.15593
380.10 1.15594
380.20 1.15595
380.30 1.15596
380.40 1.15597
380.50 1.155979
380.60 1.156028
380.70 1.15607
380.80 1.156113
380.90 1.156155
381.00 1.156196
381.10 1.156157
381.20 1.156178
381.30 1.156158
381.40 1.156205
381.50 1.156263
381.60 1.156272
381.70 1.156229
381.80 1.156265
381.90 1.156305
382.00 1.156345
382.10 1.156385
382.20 1.156398
382.30 1.156373
382.40 1.156362
382.50 1.156373
382.60 1.156383
382.70 1.156416
382.80 1.156457
382.90 1.156482
383.00 1.156507
383.10 1.156531
383.20 1.156542
383.30 1.156505
383.40 1.156498
383.50 1.156535
383.60 1.1565
383.70 1.156521
383.80 1.156542
383.90 1.156562
384.00 1.156582
384.10 1.156602
384.20 1.156622
384.30 1.156642
384.40 1.156648
384.50 1.15664
384.60 1.156632
384.70 1.156624
384.80 1.156616
384.90 1.156609
385.00 1.156608
385.10 1.156609
385.20 1.156648
385.30 1.156627
385.40 1.156627
385.50 1.156647
385.60 1.156667
385.70 1.156687
385.80 1.156701
385.90 1.156693
386.00 1.156703
386.10 1.156727
386.20 1.156713
386.30 1.156699
386.40 1.156642
386.50 1.156632
386.60 1.156645
386.70 1.156677
386.80 1.156708
386.90 1.156614
387.00 1.156714
387.10 1.156619
387.20 1.156665
387.30 1.15668
387.40 1.156676
387.50 1.156636
387.60 1.156638
387.70 1.156637
387.80 1.156635
387.90 1.156633
388.00 1.156629
388.10 1.156593
388.20 1.156612
388.30 1.156611
388.40 1.15661
388.50 1.156592
388.60 1.156571
388.70 1.156558
388.80 1.156579
388.90 1.15649
389.00 1.156546
389.10 1.156525
389.20 1.156493
389.30 1.156473
389.40 1.156516
389.50 1.156513
389.60 1.156452
389.70 1.15644
389.80 1.156437
389.90 1.156434
390.00 1.156431
390.10 1.156427
390.20 1.156423
390.30 1.156412
390.40 1.156391
390.50 1.15637
390.60 1.156349
390.70 1.156328
390.80 1.156301
390.90 1.156266
391.00 1.156233
391.10 1.156239
391.20 1.156225
391.30 1.156168
391.40 1.156151
391.50 1.156134
391.60 1.156116
391.70 1.156099
391.80 1.156081
391.90 1.156064
392.00 1.156051
392.10 1.156045
392.20 1.156042
392.30 1.156013
392.40 1.155928
392.50 1.155973
392.60 1.155913
392.70 1.155895
392.80 1.155917
392.90 1.155856
393.00 1.155852
393.10 1.155822
393.20 1.155765
393.30 1.155725
393.40 1.155697
393.50 1.155709
393.60 1.155732
393.70 1.155631
393.80 1.155646
393.90 1.155605
394.00 1.155568
394.10 1.155553
394.20 1.155521
394.30 1.155474
394.40 1.155523
394.50 1.155492
394.60 1.155447
394.70 1.155405
394.80 1.155374
394.90 1.155341
395.00 1.155276
395.10 1.155255
395.20 1.155218
395.30 1.155183
395.40 1.155148
395.50 1.155105
395.60 1.155059
395.70 1.155021
395.80 1.155005
395.90 1.154988
396.00 1.154973
396.10 1.154963
396.20 1.15492
396.30 1.154893
396.40 1.15479
396.50 1.154806
396.60 1.154703
396.70 1.154725
396.80 1.154697
396.90 1.154613
397.00 1.154605
397.10 1.154521
397.20 1.154504
397.30 1.154446
397.40 1.154427
397.50 1.154409
397.60 1.154389
397.70 1.154357
397.80 1.154325
397.90 1.154283
398.00 1.154213
398.10 1.154142
398.20 1.154084
398.30 1.154039
398.40 1.153995
398.50 1.153964
398.60 1.153904
398.70 1.153853
398.80 1.153806
398.90 1.153788
399.00 1.153823
399.10 1.153764
399.20 1.153701
399.30 1.153638
399.40 1.153574
399.50 1.153511
399.60 1.153457
399.70 1.153407
399.80 1.153356
399.90 1.153306
400.00 1.153255
400.10 1.153222
400.20 1.153157
400.30 1.153132
400.40 1.153113
400.50 1.153062
400.60 1.152989
400.70 1.152941
400.80 1.152936
400.90 1.15283
401.00 1.152785
401.10 1.152734
401.20 1.152684
401.30 1.152648
401.40 1.1526
401.50 1.152545
401.60 1.152491
401.70 1.152456
401.80 1.152394
401.90 1.152347
402.00 1.152296
402.10 1.152289
402.20 1.152197
402.30 1.152092
402.40 1.152089
402.50 1.151976
402.60 1.151997
402.70 1.151877
402.80 1.151885
402.90 1.151847
403.00 1.151797
403.10 1.151678
403.20 1.151586
403.30 1.151549
403.40 1.151486
403.50 1.151448
403.60 1.151417
403.70 1.151377
403.80 1.151284
403.90 1.151239
404.00 1.151184
404.10 1.151059
404.20 1.151008
404.30 1.150957
404.40 1.150911
404.50 1.15074
404.60 1.150861
404.70 1.150867
404.80 1.150332
404.90 1.150879
405.00 1.150311
405.10 1.150399
405.20 1.15065
405.30 1.150901
405.40 1.150716
405.50 1.15053
405.60 1.150344
405.70 1.150158
405.80 1.149973
405.90 1.149787
406.00 1.149681
406.10 1.149574
406.20 1.149467
406.30 1.149361
406.40 1.14924
406.50 1.149814
406.60 1.149249
406.70 1.149039
406.80 1.148919
406.90 1.149843
407.00 1.149733
407.10 1.149622
407.20 1.149512
407.30 1.149402
407.40 1.149291
407.50 1.149181
407.60 1.149071
407.70 1.14896
407.80 1.14885
407.90 1.148744
408.00 1.148799
408.10 1.14873
408.20 1.148462
408.30 1.148268
408.40 1.148073
408.50 1.14761
408.60 1.147829
408.70 1.148048
408.80 1.14818
408.90 1.147722
409.00 1.147593
409.10 1.147464
409.20 1.147335
409.30 1.147206
409.40 1.147088
409.50 1.147321
409.60 1.147554
409.70 1.147732
409.80 1.147689
409.90 1.14763
410.00 1.14707
410.10 1.14651
410.20 1.146651
410.30 1.146966
410.40 1.147159
410.50 1.146968
410.60 1.146777
410.70 1.146603
410.80 1.146496
410.90 1.14639
411.00 1.146184
411.10 1.145942
411.20 1.145701
411.30 1.145586
411.40 1.145963
411.50 1.145799
411.60 1.145635
411.70 1.145504
411.80 1.145503
411.90 1.145391
412.00 1.145944
412.10 1.145388
412.20 1.144833
412.30 1.145385
412.40 1.14487
412.50 1.145381
412.60 1.144826
412.70 1.144616
412.80 1.144491
412.90 1.14431
413.00 1.144923
413.10 1.144806
413.20 1.14469
413.30 1.144573
413.40 1.144457
413.50 1.144253
413.60 1.143832
413.70 1.143829
413.80 1.143826
413.90 1.143823
414.00 1.14382
414.10 1.143817
414.20 1.143682
414.30 1.14313
414.40 1.143455
414.50 1.143123
414.60 1.142703
414.70 1.142699
414.80 1.142696
414.90 1.142692
415.00 1.142688
415.10 1.142684
415.20 1.14263
415.30 1.14242
415.40 1.14221
415.50 1.142002
415.60 1.141843
415.70 1.141684
415.80 1.141604
415.90 1.141771
416.00 1.141938
416.10 1.142014
416.20 1.141726
416.30 1.141438
416.40 1.14115
416.50 1.140871
416.60 1.140866
416.70 1.140844
416.80 1.141381
416.90 1.140833
417.00 1.141176
417.10 1.140838
417.20 1.140832
417.30 1.140821
417.40 1.140657
417.50 1.140492
417.60 1.140251
417.70 1.139722
417.80 1.139715
417.90 1.139709
418.00 1.139703
418.10 1.139696
418.20 1.13969
418.30 1.139667
418.40 1.139234
418.50 1.139157
418.60 1.139079
418.70 1.139002
418.80 1.138924
418.90 1.138846
419.00 1.138769
419.10 1.138691
419.20 1.138613
419.30 1.138533
419.40 1.138368
419.50 1.138203
419.60 1.138036
419.70 1.137855
419.80 1.137673
419.90 1.137531
420.00 1.137513
420.10 1.137494
420.20 1.137475
420.30 1.137455
420.40 1.137436
420.50 1.137417
420.60 1.137397
420.70 1.137377
420.80 1.137358
420.90 1.137334
421.00 1.137176
421.10 1.137018
421.20 1.136878
421.30 1.136792
421.40 1.136706
421.50 1.136621
421.60 1.136535
421.70 1.136449
421.80 1.136363
421.90 1.136169
422.00 1.13563
422.10 1.135226
422.20 1.135354
422.30 1.135483
422.40 1.135604
422.50 1.135493
422.60 1.135382
422.70 1.135271
422.80 1.13516
422.90 1.135049
423.00 1.134937
423.10 1.134826
423.20 1.134715
423.30 1.134604
423.40 1.134492
423.50 1.134381
423.60 1.13427
423.70 1.134159
423.80 1.134047
423.90 1.133936
424.00 1.133824
424.10 1.133713
424.20 1.133602
424.30 1.13349
424.40 1.13329
424.50 1.133178
424.60 1.133066
