# Version 2.1 - nm, norm@500 to 1, cut digits, bergeron_He_11000_85.dat_11000
# Wavelength(nm)  Flambda(ergs/cm^s/s/nm)
300.00 2.316607
300.10 2.315947
300.20 2.315284
300.30 2.314625
300.40 2.313988
300.50 2.313352
300.60 2.312716
300.70 2.31208
300.80 2.311444
300.90 2.310809
301.00 2.310174
301.10 2.30954
301.20 2.308906
301.30 2.308272
301.40 2.307639
301.50 2.307005
301.60 2.306373
301.70 2.30574
301.80 2.305108
301.90 2.304476
302.00 2.303845
302.10 2.303187
302.20 2.302528
302.30 2.301868
302.40 2.301209
302.50 2.30055
302.60 2.299892
302.70 2.299234
302.80 2.298577
302.90 2.297919
303.00 2.297262
303.10 2.296606
303.20 2.29595
303.30 2.295294
303.40 2.294642
303.50 2.29399
303.60 2.293338
303.70 2.292687
303.80 2.292036
303.90 2.291386
304.00 2.290735
304.10 2.290086
304.20 2.289436
304.30 2.288787
304.40 2.288138
304.50 2.28749
304.60 2.286826
304.70 2.28616
304.80 2.285494
304.90 2.284829
305.00 2.284165
305.10 2.283501
305.20 2.282837
305.30 2.282173
305.40 2.28151
305.50 2.280847
305.60 2.280185
305.70 2.279523
305.80 2.278861
305.90 2.2782
306.00 2.277539
306.10 2.276879
306.20 2.276219
306.30 2.275559
306.40 2.274881
306.50 2.274198
306.60 2.273516
306.70 2.272834
306.80 2.272152
306.90 2.27147
307.00 2.27079
307.10 2.270109
307.20 2.269429
307.30 2.268749
307.40 2.26807
307.50 2.267391
307.60 2.266712
307.70 2.266034
307.80 2.265356
307.90 2.264679
308.00 2.264002
308.10 2.263326
308.20 2.26265
308.30 2.261974
308.40 2.261299
308.50 2.260624
308.60 2.259949
308.70 2.259275
308.80 2.258586
308.90 2.257855
309.00 2.257151
309.10 2.256447
309.20 2.255744
309.30 2.255042
309.40 2.25434
309.50 2.253643
309.60 2.252946
309.70 2.25225
309.80 2.251554
309.90 2.250859
310.00 2.250164
310.10 2.24947
310.20 2.248776
310.30 2.248082
310.40 2.247386
310.50 2.246687
310.60 2.245988
310.70 2.24529
310.80 2.244592
310.90 2.243894
311.00 2.243302
311.10 2.242709
311.20 2.242117
311.30 2.241486
311.40 2.240747
311.50 2.240008
311.60 2.23927
311.70 2.238532
311.80 2.237794
311.90 2.237057
312.00 2.236321
312.10 2.235584
312.20 2.234935
312.30 2.23433
312.40 2.233649
312.50 2.232815
312.60 2.232112
312.70 2.231409
312.80 2.230706
312.90 2.230014
313.00 2.229333
313.10 2.228653
313.20 2.227972
313.30 2.227276
313.40 2.226532
313.50 2.225789
313.60 2.225047
313.70 2.224305
313.80 2.223563
313.90 2.222822
314.00 2.222081
314.10 2.221357
314.20 2.220633
314.30 2.219909
314.40 2.219186
314.50 2.218464
314.60 2.217742
314.70 2.21702
314.80 2.216268
314.90 2.215443
315.00 2.214635
315.10 2.213893
315.20 2.213152
315.30 2.212411
315.40 2.211671
315.50 2.210931
315.60 2.210191
315.70 2.209342
315.80 2.208494
315.90 2.207646
316.00 2.206799
316.10 2.206062
316.20 2.205326
316.30 2.20459
316.40 2.203636
316.50 2.202682
316.60 2.201948
316.70 2.200995
316.80 2.200044
316.90 2.199093
317.00 2.198143
317.10 2.197193
317.20 2.196245
317.30 2.195111
317.40 2.19394
317.50 2.192661
317.60 2.191383
317.70 2.190105
317.80 2.188829
317.90 2.187453
318.00 2.185936
318.10 2.184019
318.20 2.182104
318.30 2.180192
318.40 2.178309
318.50 2.176508
318.60 2.174541
318.70 2.173025
318.80 2.172094
318.90 2.171661
319.00 2.171603
319.10 2.172183
319.20 2.172703
319.30 2.173052
319.40 2.1734
319.50 2.173747
319.60 2.174089
319.70 2.174207
319.80 2.174324
319.90 2.174441
320.00 2.174364
320.10 2.174077
320.20 2.173897
320.30 2.173504
320.40 2.173131
320.50 2.172631
320.60 2.172113
320.70 2.171613
320.80 2.171113
320.90 2.170613
321.00 2.170113
321.10 2.169614
321.20 2.168897
321.30 2.168284
321.40 2.16767
321.50 2.167057
321.60 2.166444
321.70 2.165832
321.80 2.165143
321.90 2.164371
322.00 2.163806
322.10 2.163148
322.20 2.162489
322.30 2.161831
322.40 2.161174
322.50 2.160516
322.60 2.159859
322.70 2.159203
322.80 2.158385
322.90 2.157685
323.00 2.156985
323.10 2.156285
323.20 2.155585
323.30 2.154887
323.40 2.154188
323.50 2.15349
323.60 2.152793
323.70 2.152096
323.80 2.151399
323.90 2.150703
324.00 2.149935
324.10 2.149168
324.20 2.148401
324.30 2.147628
324.40 2.146877
324.50 2.146168
324.60 2.145459
324.70 2.14475
324.80 2.144042
324.90 2.143334
325.00 2.142627
325.10 2.14192
325.20 2.141204
325.30 2.140466
325.40 2.139729
325.50 2.138967
325.60 2.138175
325.70 2.137384
325.80 2.136593
325.90 2.135835
326.00 2.135112
326.10 2.13439
326.20 2.133669
326.30 2.132966
326.40 2.132313
326.50 2.131575
326.60 2.130837
326.70 2.130099
326.80 2.129363
326.90 2.128626
327.00 2.12789
327.10 2.127155
327.20 2.12642
327.30 2.125685
327.40 2.124952
327.50 2.124218
327.60 2.123485
327.70 2.122753
327.80 2.122021
327.90 2.12121
328.00 2.120372
328.10 2.119607
328.20 2.118843
328.30 2.11808
328.40 2.117317
328.50 2.116592
328.60 2.115877
328.70 2.115162
328.80 2.114442
328.90 2.113707
329.00 2.112972
329.10 2.112237
329.20 2.111503
329.30 2.11077
329.40 2.110037
329.50 2.109305
329.60 2.108573
329.70 2.107841
329.80 2.10711
329.90 2.10638
330.00 2.105632
330.10 2.104865
330.20 2.104097
330.30 2.10333
330.40 2.102566
330.50 2.101804
330.60 2.101043
330.70 2.100282
330.80 2.099522
330.90 2.098763
331.00 2.098003
331.10 2.097245
331.20 2.096487
331.30 2.095729
331.40 2.094972
331.50 2.094204
331.60 2.093423
331.70 2.092642
331.80 2.091882
331.90 2.091123
332.00 2.090365
332.10 2.089607
332.20 2.08885
332.30 2.088094
332.40 2.087338
332.50 2.086582
332.60 2.085828
332.70 2.085073
332.80 2.084319
332.90 2.083566
333.00 2.082813
333.10 2.082068
333.20 2.081333
333.30 2.080598
333.40 2.079864
333.50 2.079131
333.60 2.078397
333.70 2.077665
333.80 2.076932
333.90 2.076201
334.00 2.075469
334.10 2.074715
334.20 2.073933
334.30 2.073151
334.40 2.072369
334.50 2.071588
334.60 2.070808
334.70 2.069992
334.80 2.069162
334.90 2.068375
335.00 2.067588
335.10 2.067015
335.20 2.066173
335.30 2.065547
335.40 2.064706
335.50 2.063914
335.60 2.063269
335.70 2.062449
335.80 2.061805
335.90 2.061074
336.00 2.060237
336.10 2.0594
336.20 2.058563
336.30 2.057757
336.40 2.056986
336.50 2.056217
336.60 2.055447
336.70 2.054679
336.80 2.05391
336.90 2.053155
337.00 2.052415
337.10 2.051676
337.20 2.050938
337.30 2.05019
337.40 2.049428
337.50 2.048666
337.60 2.047905
337.70 2.047145
337.80 2.046385
337.90 2.045624
338.00 2.044861
338.10 2.044098
338.20 2.043336
338.30 2.042574
338.40 2.041809
338.50 2.041035
338.60 2.040261
338.70 2.039487
338.80 2.038715
338.90 2.037942
339.00 2.037171
339.10 2.036399
339.20 2.035629
339.30 2.034922
339.40 2.034307
339.50 2.033613
339.60 2.032825
339.70 2.032037
339.80 2.031249
339.90 2.030462
340.00 2.029676
340.10 2.02889
340.20 2.028105
340.30 2.027321
340.40 2.026537
340.50 2.025753
340.60 2.02497
340.70 2.024188
340.80 2.023477
340.90 2.022869
341.00 2.022192
341.10 2.021431
341.20 2.020671
341.30 2.019911
341.40 2.019152
341.50 2.018393
341.60 2.017635
341.70 2.016877
341.80 2.016089
341.90 2.015264
342.00 2.014439
342.10 2.013615
342.20 2.012908
342.30 2.012135
342.40 2.011299
342.50 2.010565
342.60 2.009831
342.70 2.009097
342.80 2.008364
342.90 2.007632
343.00 2.006869
343.10 2.006069
343.20 2.005269
343.30 2.00447
343.40 2.003698
343.50 2.002966
343.60 2.002235
343.70 2.001504
343.80 2.000773
343.90 2.000043
344.00 1.999288
344.10 1.998497
344.20 1.997707
344.30 1.996917
344.40 1.996128
344.50 1.995339
344.60 1.994409
344.70 1.993612
344.80 1.992834
344.90 1.992233
345.00 1.991405
345.10 1.99062
345.20 1.989837
345.30 1.989058
345.40 1.98828
345.50 1.987493
345.60 1.986728
345.70 1.986007
345.80 1.985287
345.90 1.984568
346.00 1.983849
346.10 1.983131
346.20 1.982388
346.30 1.981609
346.40 1.980831
346.50 1.980054
346.60 1.979277
346.70 1.978501
346.80 1.977725
346.90 1.97695
347.00 1.976176
347.10 1.975402
347.20 1.974632
347.30 1.973868
347.40 1.973104
347.50 1.972341
347.60 1.971579
347.70 1.970817
347.80 1.970055
347.90 1.969295
348.00 1.968534
348.10 1.967775
348.20 1.967016
348.30 1.966257
348.40 1.965499
348.50 1.964741
348.60 1.963984
348.70 1.96315
348.80 1.96233
348.90 1.961567
349.00 1.960803
349.10 1.96004
349.20 1.959278
349.30 1.958517
349.40 1.957755
349.50 1.956995
349.60 1.956235
349.70 1.955475
349.80 1.954716
349.90 1.953958
350.00 1.9532
350.10 1.952443
350.20 1.951686
350.30 1.950916
350.40 1.950126
350.50 1.949337
350.60 1.948549
350.70 1.947761
350.80 1.946974
350.90 1.946187
351.00 1.945401
351.10 1.944615
351.20 1.94383
351.30 1.943046
351.40 1.942266
351.50 1.941495
351.60 1.940724
351.70 1.939954
351.80 1.939184
351.90 1.938415
352.00 1.937646
352.10 1.936878
352.20 1.93624
352.30 1.935558
352.40 1.934795
352.50 1.934032
352.60 1.93327
352.70 1.932509
352.80 1.931748
352.90 1.930987
353.00 1.930227
353.10 1.929468
353.20 1.928709
353.30 1.927951
353.40 1.927193
353.50 1.926423
353.60 1.92565
353.70 1.924877
353.80 1.924106
353.90 1.923333
354.00 1.92256
354.10 1.921788
354.20 1.921016
354.30 1.920244
354.40 1.919473
354.50 1.918703
354.60 1.917933
354.70 1.917164
354.80 1.916397
354.90 1.915634
355.00 1.914871
355.10 1.914108
355.20 1.913346
355.30 1.912592
355.40 1.911839
355.50 1.911086
355.60 1.910334
355.70 1.909565
355.80 1.90879
355.90 1.907908
356.00 1.907086
356.10 1.906327
356.20 1.905568
356.30 1.90481
356.40 1.904053
356.50 1.903296
356.60 1.902539
356.70 1.901784
356.80 1.901028
356.90 1.900274
357.00 1.899519
357.10 1.898766
357.20 1.898013
357.30 1.89726
357.40 1.89647
357.50 1.895614
357.60 1.894759
357.70 1.893904
357.80 1.893157
357.90 1.892411
358.00 1.891653
358.10 1.890892
358.20 1.890131
358.30 1.889371
358.40 1.888612
358.50 1.887853
358.60 1.887095
358.70 1.886337
358.80 1.88558
358.90 1.884823
359.00 1.884071
359.10 1.883327
359.20 1.882583
359.30 1.881827
359.40 1.881072
359.50 1.880278
359.60 1.879475
359.70 1.878672
359.80 1.877885
359.90 1.877099
360.00 1.876311
360.10 1.875522
360.20 1.874733
360.30 1.873944
360.40 1.873156
360.50 1.872369
360.60 1.871762
360.70 1.870978
360.80 1.870194
360.90 1.86941
361.00 1.868537
361.10 1.867689
361.20 1.867141
361.30 1.866242
361.40 1.865412
361.50 1.864716
361.60 1.864081
361.70 1.863218
361.80 1.86239
361.90 1.861623
362.00 1.860856
362.10 1.860253
362.20 1.859603
362.30 1.858797
362.40 1.857991
362.50 1.857186
362.60 1.856382
362.70 1.855773
362.80 1.855047
362.90 1.854357
363.00 1.853667
363.10 1.8528
363.20 1.851932
363.30 1.851275
363.40 1.85034
363.50 1.849904
363.60 1.848886
363.70 1.848239
363.80 1.847518
363.90 1.846739
364.00 1.845962
364.10 1.845184
364.20 1.844408
364.30 1.84359
364.40 1.842762
364.50 1.842085
364.60 1.841404
364.70 1.840723
364.80 1.840043
364.90 1.8392
365.00 1.838357
365.10 1.837679
365.20 1.836838
365.30 1.835997
365.40 1.835321
365.50 1.834646
365.60 1.833971
365.70 1.833117
365.80 1.832264
365.90 1.831584
366.00 1.830948
366.10 1.83019
366.20 1.829432
366.30 1.828674
366.40 1.827917
366.50 1.826937
366.60 1.826267
366.70 1.825519
366.80 1.824771
366.90 1.824019
367.00 1.823259
367.10 1.822501
367.20 1.821743
367.30 1.820985
367.40 1.820228
367.50 1.819429
367.60 1.81862
367.70 1.817887
367.80 1.817155
367.90 1.816423
368.00 1.815641
368.10 1.814975
368.20 1.814204
368.30 1.813431
368.40 1.812658
368.50 1.811887
368.60 1.811116
368.70 1.810345
368.80 1.809575
368.90 1.808937
369.00 1.808214
369.10 1.807413
369.20 1.806758
369.30 1.805994
369.40 1.805231
369.50 1.804469
369.60 1.803652
369.70 1.802837
369.80 1.802121
369.90 1.801407
370.00 1.800694
370.10 1.799905
370.20 1.799092
370.30 1.79828
370.40 1.797631
370.50 1.796817
370.60 1.796011
370.70 1.795362
370.80 1.794553
370.90 1.793744
371.00 1.793096
371.10 1.792451
371.20 1.791644
371.30 1.790837
371.40 1.78996
371.50 1.789233
371.60 1.788507
371.70 1.787782
371.80 1.787057
371.90 1.786333
372.00 1.785466
372.10 1.784733
372.20 1.783985
372.30 1.783238
372.40 1.782492
372.50 1.781746
372.60 1.781001
372.70 1.780256
372.80 1.779458
372.90 1.778661
373.00 1.777866
373.10 1.777072
373.20 1.776435
373.30 1.775798
373.40 1.775005
373.50 1.774212
373.60 1.773577
373.70 1.772628
373.80 1.772063
373.90 1.77136
374.00 1.77057
374.10 1.769781
374.20 1.768992
374.30 1.768203
374.40 1.767455
374.50 1.766629
374.60 1.765918
374.70 1.765211
374.80 1.764504
374.90 1.763798
375.00 1.763066
375.10 1.762334
375.20 1.761603
375.30 1.760842
375.40 1.760082
375.50 1.759323
375.60 1.758564
375.70 1.757806
375.80 1.757049
375.90 1.756291
376.00 1.755357
376.10 1.754625
376.20 1.753895
376.30 1.753166
376.40 1.752437
376.50 1.751713
376.60 1.750997
376.70 1.750281
376.80 1.74953
376.90 1.748746
377.00 1.747963
377.10 1.74718
377.20 1.746408
377.30 1.745674
377.40 1.744941
377.50 1.744209
377.60 1.743486
377.70 1.742764
377.80 1.742042
377.90 1.741321
378.00 1.74052
378.10 1.739776
378.20 1.739033
378.30 1.738292
378.40 1.737551
378.50 1.73681
378.60 1.73607
378.70 1.735331
378.80 1.734592
378.90 1.73387
379.00 1.733182
379.10 1.73239
379.20 1.731599
379.30 1.730845
379.40 1.73013
379.50 1.729415
379.60 1.728622
379.70 1.72775
379.80 1.727026
379.90 1.726302
380.00 1.725579
380.10 1.724856
380.20 1.724133
380.30 1.723411
380.40 1.72269
380.50 1.721969
380.60 1.721121
380.70 1.720355
380.80 1.719589
380.90 1.718824
381.00 1.71806
381.10 1.717347
381.20 1.716694
381.30 1.715961
381.40 1.715116
381.50 1.714372
381.60 1.713667
381.70 1.71297
381.80 1.712073
381.90 1.711477
382.00 1.710581
382.10 1.709987
382.20 1.709152
382.30 1.708409
382.40 1.707687
382.50 1.706999
382.60 1.706312
382.70 1.705529
382.80 1.704708
382.90 1.703957
383.00 1.703207
383.10 1.702458
383.20 1.701714
383.30 1.700991
383.40 1.700289
383.50 1.699615
383.60 1.69874
383.70 1.697972
383.80 1.697206
383.90 1.696439
384.00 1.695674
384.10 1.694909
384.20 1.694144
384.30 1.69338
384.40 1.692627
384.50 1.691885
384.60 1.691144
384.70 1.690403
384.80 1.689634
384.90 1.688801
385.00 1.688051
385.10 1.687299
385.20 1.686493
385.30 1.685768
385.40 1.684969
385.50 1.684095
385.60 1.683221
385.70 1.682348
385.80 1.681513
385.90 1.680814
386.00 1.680029
386.10 1.679159
386.20 1.67829
386.30 1.677421
386.40 1.676259
386.50 1.675391
386.60 1.674525
386.70 1.673438
386.80 1.6725
386.90 1.671415
387.00 1.670478
387.10 1.669315
387.20 1.667955
387.30 1.66672
387.40 1.665415
387.50 1.663863
387.60 1.662449
387.70 1.660496
387.80 1.658544
387.90 1.656595
388.00 1.65452
388.10 1.651804
388.20 1.648716
388.30 1.64537
388.40 1.642028
388.50 1.638668
388.60 1.635313
388.70 1.632172
388.80 1.629441
388.90 1.628058
389.00 1.628985
389.10 1.630532
389.20 1.632446
389.30 1.634397
389.40 1.63638
389.50 1.638303
389.60 1.64
389.70 1.640952
389.80 1.641486
389.90 1.64202
390.00 1.642554
390.10 1.643086
390.20 1.643618
390.30 1.64383
390.40 1.643684
390.50 1.643538
390.60 1.643392
390.70 1.643245
390.80 1.642995
390.90 1.642642
391.00 1.642334
391.10 1.641912
391.20 1.641403
391.30 1.640699
391.40 1.640147
391.50 1.639596
391.60 1.639045
391.70 1.638495
391.80 1.637945
391.90 1.637386
392.00 1.63681
392.10 1.636223
392.20 1.635613
392.30 1.634877
392.40 1.634247
392.50 1.633684
392.60 1.632852
392.70 1.632305
392.80 1.631666
392.90 1.630981
393.00 1.630303
393.10 1.62965
393.20 1.629022
393.30 1.628335
393.40 1.627637
393.50 1.62681
393.60 1.626157
393.70 1.625441
393.80 1.624628
393.90 1.623945
394.00 1.623249
394.10 1.622493
394.20 1.621813
394.30 1.621063
394.40 1.620264
394.50 1.619702
394.60 1.618881
394.70 1.618088
394.80 1.617397
394.90 1.616704
395.00 1.615885
395.10 1.615067
395.20 1.61425
395.30 1.613433
395.40 1.612617
395.50 1.611885
395.60 1.611185
395.70 1.610454
395.80 1.60964
395.90 1.608827
396.00 1.608015
396.10 1.607203
396.20 1.606391
396.30 1.605581
396.40 1.604771
396.50 1.603962
396.60 1.603432
396.70 1.602722
396.80 1.602208
396.90 1.601567
397.00 1.601039
397.10 1.600464
397.20 1.599767
397.30 1.599225
397.40 1.598596
397.50 1.597966
397.60 1.59733
397.70 1.596626
397.80 1.595921
397.90 1.595245
398.00 1.594641
398.10 1.594038
398.20 1.593396
398.30 1.592709
398.40 1.592026
398.50 1.59144
398.60 1.590699
398.70 1.589992
398.80 1.589307
398.90 1.588655
399.00 1.588063
399.10 1.587273
399.20 1.586541
399.30 1.58581
399.40 1.585079
399.50 1.584349
399.60 1.583616
399.70 1.582882
399.80 1.582149
399.90 1.581416
400.00 1.580688
400.10 1.580109
400.20 1.579377
400.30 1.578588
400.40 1.577799
400.50 1.577011
400.60 1.576224
400.70 1.575438
400.80 1.574651
400.90 1.574139
401.00 1.573354
401.10 1.57257
401.20 1.571786
401.30 1.571003
401.40 1.570146
401.50 1.569263
401.60 1.568384
401.70 1.567603
401.80 1.566823
401.90 1.566044
402.00 1.565265
402.10 1.564486
402.20 1.563708
402.30 1.562931
402.40 1.562154
402.50 1.561378
402.60 1.560603
402.70 1.560098
402.80 1.559459
402.90 1.558929
403.00 1.55829
403.10 1.557544
403.20 1.557048
403.30 1.556484
403.40 1.55598
403.50 1.555393
403.60 1.554789
403.70 1.554266
403.80 1.553505
403.90 1.553042
404.00 1.552496
404.10 1.551728
404.20 1.551229
404.30 1.550731
404.40 1.549964
404.50 1.549466
404.60 1.548834
404.70 1.548203
404.80 1.547446
404.90 1.546942
405.00 1.546388
405.10 1.545759
405.20 1.545092
405.30 1.544425
405.40 1.543797
405.50 1.543169
405.60 1.542541
405.70 1.541915
405.80 1.541288
405.90 1.540662
406.00 1.539957
406.10 1.539252
406.20 1.538548
406.30 1.537844
406.40 1.537166
406.50 1.536649
406.60 1.535893
406.70 1.535221
406.80 1.53457
406.90 1.533897
407.00 1.533223
407.10 1.532549
407.20 1.531876
407.30 1.531203
407.40 1.530531
407.50 1.529859
407.60 1.529188
407.70 1.528517
407.80 1.527847
407.90 1.527179
408.00 1.526575
408.10 1.525942
408.20 1.525263
408.30 1.524602
408.40 1.523941
408.50 1.523218
408.60 1.522564
408.70 1.52191
408.80 1.521246
408.90 1.520527
409.00 1.519884
409.10 1.519242
409.20 1.5186
409.30 1.517959
409.40 1.517315
409.50 1.516574
409.60 1.515833
409.70 1.515118
409.80 1.514499
409.90 1.513877
410.00 1.513138
410.10 1.512401
410.20 1.511745
410.30 1.51111
410.40 1.510472
410.50 1.509821
410.60 1.509172
410.70 1.508506
410.80 1.507771
410.90 1.507037
411.00 1.506358
411.10 1.505699
411.20 1.50504
411.30 1.504367
411.40 1.503639
411.50 1.503
411.60 1.502361
411.70 1.501705
411.80 1.500975
411.90 1.500247
412.00 1.499777
412.10 1.499049
412.20 1.498322
412.30 1.497595
412.40 1.496879
412.50 1.496402
412.60 1.495676
412.70 1.495032
412.80 1.494408
412.90 1.493761
413.00 1.49305
413.10 1.492379
413.20 1.491707
413.30 1.491037
413.40 1.490366
413.50 1.489686
413.60 1.488982
413.70 1.488326
413.80 1.487671
413.90 1.487016
414.00 1.486377
414.10 1.485788
414.20 1.485168
414.30 1.484451
414.40 1.483734
414.50 1.483019
414.60 1.482559
414.70 1.481844
414.80 1.481145
414.90 1.480495
415.00 1.479845
415.10 1.479196
415.20 1.478551
415.30 1.477918
415.40 1.477286
415.50 1.476652
415.60 1.475941
415.70 1.475231
415.80 1.474542
415.90 1.473916
416.00 1.473291
416.10 1.47265
416.20 1.471943
416.30 1.471235
416.40 1.470529
416.50 1.469827
416.60 1.469248
416.70 1.468665
416.80 1.467961
416.90 1.467256
417.00 1.466553
417.10 1.465853
417.20 1.465277
417.30 1.464697
417.40 1.463995
417.50 1.463294
417.60 1.462637
417.70 1.462146
417.80 1.461488
417.90 1.460831
418.00 1.460174
418.10 1.459517
418.20 1.458861
418.30 1.458205
418.40 1.457514
418.50 1.456845
418.60 1.456176
418.70 1.455508
418.80 1.45484
418.90 1.454173
419.00 1.453506
419.10 1.452839
419.20 1.452173
419.30 1.45151
419.40 1.450906
419.50 1.450303
419.60 1.449682
419.70 1.448991
419.80 1.448301
419.90 1.447623
420.00 1.446982
420.10 1.446342
420.20 1.445703
420.30 1.445064
420.40 1.444425
420.50 1.443787
420.60 1.443149
420.70 1.442511
420.80 1.441874
420.90 1.441237
421.00 1.440552
421.10 1.439868
421.20 1.439193
421.30 1.438545
421.40 1.437898
421.50 1.437251
421.60 1.436604
421.70 1.435958
421.80 1.435313
421.90 1.434659
422.00 1.433979
422.10 1.433316
422.20 1.432714
422.30 1.432114
422.40 1.431512
422.50 1.430859
422.60 1.430207
422.70 1.429555
422.80 1.428904
422.90 1.428253
423.00 1.427602
423.10 1.426952
423.20 1.426303
423.30 1.425654
423.40 1.425005
423.50 1.424357
423.60 1.42371
423.70 1.423062
423.80 1.422416
423.90 1.421769
424.00 1.421123
424.10 1.420478
424.20 1.419833
424.30 1.419188
424.40 1.418539
424.50 1.417896
424.60 1.417252
424.70 1.41661
424.80 1.415967
424.90 1.415325
