# Version 2.1 - nm, norm@500 to 1, cut digits, bergeron_He_5000_90.dat_5000
# Wavelength(nm)  Flambda(ergs/cm^s/s/nm)
300.00 0.2317544
300.10 0.2321904
300.20 0.2326269
300.30 0.2330639
300.40 0.2335079
300.50 0.2339512
300.60 0.234394
300.70 0.234836
300.80 0.2352774
300.90 0.2357182
301.00 0.2361584
301.10 0.2365979
301.20 0.2370368
301.30 0.237475
301.40 0.2379126
301.50 0.2383496
301.60 0.2387859
301.70 0.2392217
301.80 0.2396567
301.90 0.2400912
302.00 0.240525
302.10 0.2409722
302.20 0.2414203
302.30 0.2418677
302.40 0.2423145
302.50 0.2427607
302.60 0.2432062
302.70 0.2436511
302.80 0.2440953
302.90 0.2445389
303.00 0.2449819
303.10 0.2454242
303.20 0.2458659
303.30 0.2463074
303.40 0.2467528
303.50 0.2471976
303.60 0.2476418
303.70 0.2480852
303.80 0.2485281
303.90 0.2489703
304.00 0.2494119
304.10 0.2498529
304.20 0.2502932
304.30 0.2507329
304.40 0.2511719
304.50 0.2516104
304.60 0.2520631
304.70 0.2525169
304.80 0.25297
304.90 0.2534225
305.00 0.2538743
305.10 0.2543254
305.20 0.254776
305.30 0.2552259
305.40 0.2556751
305.50 0.2561237
305.60 0.2565716
305.70 0.257019
305.80 0.2574656
305.90 0.2579117
306.00 0.2583571
306.10 0.2588018
306.20 0.2592459
306.30 0.2596894
306.40 0.2601515
306.50 0.2606187
306.60 0.2610852
306.70 0.2615511
306.80 0.2620163
306.90 0.2624808
307.00 0.2629447
307.10 0.2634079
307.20 0.2638704
307.30 0.2643323
307.40 0.2647936
307.50 0.2652541
307.60 0.2657141
307.70 0.2661733
307.80 0.266632
307.90 0.2670899
308.00 0.2675472
308.10 0.2680039
308.20 0.2684599
308.30 0.2689153
308.40 0.26937
308.50 0.2698241
308.60 0.2702775
308.70 0.2707303
308.80 0.271179
308.90 0.2716172
309.00 0.2720774
309.10 0.272537
309.20 0.272996
309.30 0.2734543
309.40 0.2739125
309.50 0.2743735
309.60 0.2748338
309.70 0.2752934
309.80 0.2757524
309.90 0.2762107
310.00 0.2766684
310.10 0.2771255
310.20 0.2775819
310.30 0.2780376
310.40 0.2784986
310.50 0.2789651
310.60 0.2794311
310.70 0.2798963
310.80 0.2803609
310.90 0.2808249
311.00 0.2813072
311.10 0.2817889
311.20 0.2822699
311.30 0.2827476
311.40 0.2832169
311.50 0.2836856
311.60 0.2841536
311.70 0.2846209
311.80 0.2850876
311.90 0.2855536
312.00 0.286019
312.10 0.2864837
312.20 0.2869129
312.30 0.2873702
312.40 0.2878688
312.50 0.2882888
312.60 0.2887641
312.70 0.2892387
312.80 0.2897126
312.90 0.2901913
313.00 0.2906752
313.10 0.2911584
313.20 0.291641
313.30 0.2921207
313.40 0.292594
313.50 0.2930666
313.60 0.2935386
313.70 0.2940099
313.80 0.2944805
313.90 0.2949505
314.00 0.2954198
314.10 0.295896
314.20 0.2963716
314.30 0.2968465
314.40 0.2973207
314.50 0.2977943
314.60 0.2982672
314.70 0.2987395
314.80 0.2991942
314.90 0.2996461
315.00 0.3001468
315.10 0.300622
315.20 0.3010966
315.30 0.3015706
315.40 0.3020438
315.50 0.3025165
315.60 0.3029884
315.70 0.3034674
315.80 0.3039458
315.90 0.3044234
316.00 0.3049005
316.10 0.3053537
316.20 0.3058064
316.30 0.3063045
316.40 0.3068019
316.50 0.3072525
316.60 0.3077026
316.70 0.308198
316.80 0.3086927
316.90 0.3091638
317.00 0.3096342
317.10 0.3101039
317.20 0.310573
317.30 0.3110618
317.40 0.3115508
317.50 0.3120418
317.60 0.3125322
317.70 0.3130219
317.80 0.313511
317.90 0.3139742
318.00 0.3144744
318.10 0.3149375
318.20 0.3154
318.30 0.3158619
318.40 0.316329
318.50 0.3168123
318.60 0.317295
318.70 0.3177769
318.80 0.3182628
318.90 0.3187389
319.00 0.3192189
319.10 0.3196982
319.20 0.3201809
319.30 0.3206744
319.40 0.3211672
319.50 0.3216594
319.60 0.3221791
319.70 0.3226699
319.80 0.32316
319.90 0.3236495
320.00 0.3241308
320.10 0.3246035
320.20 0.3250432
320.30 0.3255467
320.40 0.3260534
320.50 0.3264874
320.60 0.3269783
320.70 0.3274919
320.80 0.327994
320.90 0.3284837
321.00 0.3289728
321.10 0.3294612
321.20 0.3298867
321.30 0.330377
321.40 0.3308666
321.50 0.3313555
321.60 0.3318438
321.70 0.3323314
321.80 0.3328321
321.90 0.333347
322.00 0.3338583
322.10 0.3343476
322.20 0.3348363
322.30 0.3353243
322.40 0.3358116
322.50 0.3362983
322.60 0.3367843
322.70 0.3372696
322.80 0.3376938
322.90 0.3381917
323.00 0.338689
323.10 0.3391856
323.20 0.3396814
323.30 0.3401766
323.40 0.3406712
323.50 0.341165
323.60 0.3416582
323.70 0.3421507
323.80 0.3426425
323.90 0.3431337
324.00 0.3436267
324.10 0.344119
324.20 0.3446106
324.30 0.3450941
324.40 0.3455722
324.50 0.3460677
324.60 0.3465626
324.70 0.3470567
324.80 0.3475502
324.90 0.348043
325.00 0.3485351
325.10 0.3490266
325.20 0.3495153
325.30 0.3499989
325.40 0.3504819
325.50 0.3509759
325.60 0.3514835
325.70 0.3519905
325.80 0.3524967
325.90 0.3529916
326.00 0.3534743
326.10 0.3539563
326.20 0.3544377
326.30 0.3549157
326.40 0.3553854
326.50 0.3558887
326.60 0.3563914
326.70 0.3568934
326.80 0.3573947
326.90 0.3578953
327.00 0.3583952
327.10 0.3588945
327.20 0.3593931
327.30 0.359891
327.40 0.3603882
327.50 0.3608848
327.60 0.3613807
327.70 0.3618759
327.80 0.3623704
327.90 0.362881
328.00 0.3633877
328.10 0.3638679
328.20 0.3643474
328.30 0.3648263
328.40 0.3653046
328.50 0.3658003
328.60 0.3662995
328.70 0.3667981
328.80 0.3672982
328.90 0.3678041
329.00 0.3683092
329.10 0.3688137
329.20 0.3693175
329.30 0.3698207
329.40 0.3703231
329.50 0.3708249
329.60 0.371326
329.70 0.3718264
329.80 0.3723262
329.90 0.3728252
330.00 0.3733241
330.10 0.3738229
330.20 0.3743209
330.30 0.3748184
330.40 0.3753171
330.50 0.3758172
330.60 0.3763167
330.70 0.3768156
330.80 0.3773137
330.90 0.3778112
331.00 0.378308
331.10 0.3788042
331.20 0.3792997
331.30 0.3797945
331.40 0.3802886
331.50 0.3807905
331.60 0.381302
331.70 0.3818128
331.80 0.3823148
331.90 0.3828157
332.00 0.383316
332.10 0.3838156
332.20 0.3843146
332.30 0.3848128
332.40 0.3853104
332.50 0.3858074
332.60 0.3863037
332.70 0.3867993
332.80 0.3872942
332.90 0.3877885
333.00 0.3882821
333.10 0.3887812
333.20 0.3892873
333.30 0.3897927
333.40 0.3902974
333.50 0.3908014
333.60 0.3913047
333.70 0.3918074
333.80 0.3923094
333.90 0.3928107
334.00 0.3933114
334.10 0.3938151
334.20 0.3943227
334.30 0.3948296
334.40 0.3953358
334.50 0.3958413
334.60 0.3963462
334.70 0.3968376
334.80 0.3973297
334.90 0.3978458
335.00 0.3983611
335.10 0.3988605
335.20 0.3993613
335.30 0.3998882
335.40 0.4003467
335.50 0.4008865
335.60 0.4013949
335.70 0.4018555
335.80 0.4023524
335.90 0.4028578
336.00 0.4033737
336.10 0.403889
336.20 0.4044035
336.30 0.4049144
336.40 0.4054208
336.50 0.4059265
336.60 0.4064316
336.70 0.406936
336.80 0.4074397
336.90 0.4079425
337.00 0.4084442
337.10 0.4089452
337.20 0.4094456
337.30 0.4099476
337.40 0.4104524
337.50 0.4109564
337.60 0.4114598
337.70 0.4119625
337.80 0.4124645
337.90 0.4129686
338.00 0.4134752
338.10 0.4139813
338.20 0.4144866
338.30 0.4149913
338.40 0.4154963
338.50 0.4160032
338.60 0.4165095
338.70 0.4170151
338.80 0.41752
338.90 0.4180242
339.00 0.4185278
339.10 0.4190307
339.20 0.4195329
339.30 0.4200459
339.40 0.4205746
339.50 0.4210932
339.60 0.4215996
339.70 0.4221053
339.80 0.4226104
339.90 0.4231148
340.00 0.4236185
340.10 0.4241216
340.20 0.424624
340.30 0.4251257
340.40 0.4256268
340.50 0.4261272
340.60 0.4266269
340.70 0.427126
340.80 0.427633
340.90 0.4281515
341.00 0.4286624
341.10 0.4291642
341.20 0.4296653
341.30 0.4301658
341.40 0.4306656
341.50 0.4311647
341.60 0.4316632
341.70 0.432161
341.80 0.4326634
341.90 0.4331716
342.00 0.433679
342.10 0.4341858
342.20 0.4346975
342.30 0.4352352
342.40 0.435757
342.50 0.4362546
342.60 0.4367514
342.70 0.4372477
342.80 0.4377432
342.90 0.4382382
343.00 0.4387443
343.10 0.4392644
343.20 0.4397837
343.30 0.4403024
343.40 0.4408129
343.50 0.4413119
343.60 0.4418103
343.70 0.442308
343.80 0.442805
343.90 0.4433014
344.00 0.4438078
344.10 0.4443288
344.20 0.4448492
344.30 0.4453689
344.40 0.445872
344.50 0.4463515
344.60 0.4468462
344.70 0.4473633
344.80 0.4478796
344.90 0.4483953
345.00 0.4489103
345.10 0.4494246
345.20 0.4499318
345.30 0.4504292
345.40 0.4509258
345.50 0.4514489
345.60 0.4519809
345.70 0.4524784
345.80 0.4529752
345.90 0.4534714
346.00 0.4539669
346.10 0.4544617
346.20 0.4549644
346.30 0.4554784
346.40 0.4559918
346.50 0.4565046
346.60 0.4570166
346.70 0.457528
346.80 0.4580388
346.90 0.4585488
347.00 0.4590582
347.10 0.459567
347.20 0.4600751
347.30 0.4605827
347.40 0.4610897
347.50 0.4615959
347.60 0.4621016
347.70 0.4626065
347.80 0.4631108
347.90 0.4636145
348.00 0.4641175
348.10 0.4646198
348.20 0.4651215
348.30 0.4656225
348.40 0.4661229
348.50 0.4666226
348.60 0.4671217
348.70 0.4676356
348.80 0.4681505
348.90 0.46866
349.00 0.4691689
349.10 0.4696772
349.20 0.4701847
349.30 0.4706917
349.40 0.4711979
349.50 0.4717036
349.60 0.4722085
349.70 0.4727128
349.80 0.4732165
349.90 0.4737195
350.00 0.4742218
350.10 0.4747235
350.20 0.4752245
350.30 0.4757293
350.40 0.4762396
350.50 0.4767492
350.60 0.4772582
350.70 0.4777665
350.80 0.4782742
350.90 0.4787812
351.00 0.4792875
351.10 0.4797932
351.20 0.4802983
351.30 0.4808027
351.40 0.4813077
351.50 0.4818144
351.60 0.4823205
351.70 0.4828259
351.80 0.4833307
351.90 0.4838348
352.00 0.4843382
352.10 0.484841
352.20 0.4853621
352.30 0.4858775
352.40 0.4863823
352.50 0.4868864
352.60 0.4873898
352.70 0.4878926
352.80 0.4883947
352.90 0.4888962
353.00 0.489397
353.10 0.4898972
353.20 0.4903968
353.30 0.4908957
353.40 0.4913939
353.50 0.4919094
353.60 0.4924287
353.70 0.4929473
353.80 0.4934653
353.90 0.4939774
354.00 0.4944796
354.10 0.4949811
354.20 0.495482
354.30 0.4959823
354.40 0.4964819
354.50 0.4969809
354.60 0.4974792
354.70 0.4979769
354.80 0.4984752
354.90 0.4989748
355.00 0.4994737
355.10 0.499972
355.20 0.5004696
355.30 0.5009847
355.40 0.5014991
355.50 0.5020128
355.60 0.5025259
355.70 0.5030295
355.80 0.5035285
355.90 0.5040265
356.00 0.5045323
356.10 0.5050398
356.20 0.5055467
356.30 0.5060529
356.40 0.5065584
356.50 0.5070633
356.60 0.5075676
356.70 0.5080712
356.80 0.5085741
356.90 0.5090764
357.00 0.5095781
357.10 0.5100792
357.20 0.5105795
357.30 0.5110793
357.40 0.511582
357.50 0.5120906
357.60 0.5125984
357.70 0.5131057
357.80 0.5136049
357.90 0.5141034
358.00 0.5146074
358.10 0.5151123
358.20 0.5156166
358.30 0.5161202
358.40 0.5166232
358.50 0.5171255
358.60 0.5176272
358.70 0.5181283
358.80 0.5186287
358.90 0.5191284
359.00 0.5196211
359.10 0.5201015
359.20 0.520585
359.30 0.5210925
359.40 0.5215993
359.50 0.5221005
359.60 0.5225999
359.70 0.5230986
359.80 0.5235905
359.90 0.5240818
360.00 0.5245772
360.10 0.5250807
360.20 0.5255834
360.30 0.5260856
360.40 0.5265871
360.50 0.5270879
360.60 0.5275873
360.70 0.5280924
360.80 0.5285968
360.90 0.5291005
361.00 0.52959
361.10 0.530077
361.20 0.5306398
361.30 0.531095
361.40 0.5315744
361.50 0.5320885
361.60 0.53258
361.70 0.5330963
361.80 0.5336076
361.90 0.5341105
362.00 0.5346128
362.10 0.5351022
362.20 0.5355953
362.30 0.536101
362.40 0.536606
362.50 0.5371104
362.60 0.5376142
362.70 0.5381009
362.80 0.5385829
362.90 0.5390875
363.00 0.5395915
363.10 0.5400929
363.20 0.5405937
363.30 0.5410846
363.40 0.5415726
363.50 0.5420948
363.60 0.5425641
363.70 0.5430638
363.80 0.5435706
363.90 0.5440679
364.00 0.5445645
364.10 0.5450606
364.20 0.545556
364.30 0.5460331
364.40 0.5465052
364.50 0.5470463
364.60 0.54753
364.70 0.5480131
364.80 0.5484955
364.90 0.5489916
365.00 0.5494869
365.10 0.5499817
365.20 0.5505104
365.30 0.5509693
365.40 0.5514622
365.50 0.5519545
365.60 0.5524461
365.70 0.5529591
365.80 0.5534714
365.90 0.5539747
366.00 0.5544754
366.10 0.5549672
366.20 0.5554584
366.30 0.5559489
366.40 0.5564389
366.50 0.5569381
366.60 0.5573972
366.70 0.5578987
366.80 0.5583995
366.90 0.5588984
367.00 0.5593944
367.10 0.5598898
367.20 0.5603846
367.30 0.5608788
367.40 0.5613723
367.50 0.5618639
367.60 0.5623546
367.70 0.5628386
367.80 0.5633221
367.90 0.5638049
368.00 0.5642997
368.10 0.5647684
368.20 0.5652636
368.30 0.5657588
368.40 0.5662533
368.50 0.5667472
368.60 0.5672405
368.70 0.5677331
368.80 0.5682251
368.90 0.5687338
369.00 0.5692236
369.10 0.5697007
369.20 0.570212
369.30 0.5706922
369.40 0.5711718
369.50 0.5716508
369.60 0.5721477
369.70 0.572644
369.80 0.5731364
369.90 0.5736282
370.00 0.5741194
370.10 0.574573
370.20 0.5750689
370.30 0.5755655
370.40 0.5760628
370.50 0.5765565
370.60 0.5770529
370.70 0.5775538
370.80 0.5780433
370.90 0.5785322
371.00 0.5789951
371.10 0.5794571
371.20 0.5799442
371.30 0.5804307
371.40 0.580948
371.50 0.5814318
371.60 0.5819149
371.70 0.5823975
371.80 0.5828794
371.90 0.5833608
372.00 0.5838454
372.10 0.5843405
372.20 0.5848255
372.30 0.5853099
372.40 0.5857937
372.50 0.5862769
372.60 0.5867594
372.70 0.5872414
372.80 0.5877518
372.90 0.5882616
373.00 0.588746
373.10 0.5892295
373.20 0.5897085
373.30 0.5901868
373.40 0.5906315
373.50 0.5911417
373.60 0.5916513
373.70 0.5920942
373.80 0.5925881
373.90 0.5930443
374.00 0.593535
374.10 0.5940251
374.20 0.5945145
374.30 0.5950033
374.40 0.5954669
374.50 0.5959383
374.60 0.5964273
374.70 0.5969157
374.80 0.5974036
374.90 0.5978908
375.00 0.5983809
375.10 0.5988704
375.20 0.5993593
375.30 0.599835
375.40 0.6003102
375.50 0.6007849
375.60 0.6012589
375.70 0.6017323
375.80 0.6022051
375.90 0.6026774
376.00 0.6031966
376.10 0.6036718
376.20 0.604146
376.30 0.6046197
376.40 0.6050927
376.50 0.6055707
376.60 0.6060564
376.70 0.6065416
376.80 0.6070242
376.90 0.6075043
377.00 0.6079837
377.10 0.6084626
377.20 0.6089424
377.30 0.609427
377.40 0.609911
377.50 0.6103944
377.60 0.6108727
377.70 0.6113504
377.80 0.6118276
377.90 0.6123041
378.00 0.612775
378.10 0.6132498
378.20 0.6137241
378.30 0.6141978
378.40 0.6146709
378.50 0.6151435
378.60 0.6156155
378.70 0.6160869
378.80 0.6165577
378.90 0.6170326
379.00 0.6175156
379.10 0.6179856
379.20 0.6184551
379.30 0.6189298
379.40 0.6194097
379.50 0.619889
379.60 0.6203683
379.70 0.620847
379.80 0.6213213
379.90 0.621795
380.00 0.6222682
380.10 0.6227407
380.20 0.6232127
380.30 0.6236841
380.40 0.6241549
380.50 0.6246251
380.60 0.625069
380.70 0.6255361
380.80 0.6260027
380.90 0.6264687
381.00 0.6269341
381.10 0.6274386
381.20 0.6279196
381.30 0.6283507
381.40 0.6288209
381.50 0.6293038
381.60 0.6297806
381.70 0.6302452
381.80 0.6307001
381.90 0.631192
382.00 0.6316832
382.10 0.6320475
382.20 0.6324114
382.30 0.6330272
382.40 0.6336082
382.50 0.6341376
382.60 0.6346663
382.70 0.6350955
382.80 0.635455
382.90 0.6358563
383.00 0.6362571
383.10 0.6366575
383.20 0.6371222
383.30 0.6378303
383.40 0.6383009
383.50 0.638416
383.60 0.6394037
383.70 0.6398133
383.80 0.6402224
383.90 0.640631
384.00 0.6410391
384.10 0.6414466
384.20 0.6418537
384.30 0.6422602
384.40 0.6427327
384.50 0.6432709
384.60 0.6438086
384.70 0.6443455
384.80 0.644851
384.90 0.6452671
385.00 0.6457331
385.10 0.6462052
385.20 0.6467653
385.30 0.6470604
385.40 0.6474741
385.50 0.6480062
385.60 0.6485377
385.70 0.6490686
385.80 0.6495691
385.90 0.6499568
386.00 0.6504211
386.10 0.6509474
386.20 0.6513266
386.30 0.6517054
386.40 0.6518767
386.50 0.6525145
386.60 0.6530573
386.70 0.6536448
386.80 0.6540774
386.90 0.6543555
387.00 0.6549566
387.10 0.6555261
387.20 0.6556333
387.30 0.6560944
387.40 0.6565142
387.50 0.6571764
387.60 0.6576807
387.70 0.6581085
387.80 0.6585357
387.90 0.6589625
388.00 0.6593774
388.10 0.6601129
388.20 0.6601614
388.30 0.6605982
388.40 0.6610345
388.50 0.6615738
388.60 0.6622532
388.70 0.6629015
388.80 0.6632294
388.90 0.6634601
389.00 0.6640831
389.10 0.6642855
389.20 0.6648318
389.30 0.6653968
389.40 0.6656789
389.50 0.66612
389.60 0.6667332
389.70 0.6671393
389.80 0.667623
389.90 0.668106
390.00 0.6685885
390.10 0.6690703
390.20 0.6695516
390.30 0.6699887
390.40 0.6703761
390.50 0.670763
390.60 0.6711494
390.70 0.6715353
390.80 0.672068
390.90 0.6727473
391.00 0.6729165
391.10 0.6734506
391.20 0.6739708
391.30 0.6744352
391.40 0.6748934
391.50 0.675351
391.60 0.6758081
391.70 0.6762646
391.80 0.6767206
391.90 0.6770634
392.00 0.6773664
392.10 0.6778
392.20 0.6782545
392.30 0.6788244
392.40 0.6793011
392.50 0.6796264
392.60 0.6801778
392.70 0.6807285
392.80 0.6812787
392.90 0.6814598
393.00 0.682066
393.10 0.6826304
393.20 0.6831237
393.30 0.6833726
393.40 0.6837165
393.50 0.6842985
393.60 0.6844284
393.70 0.6853378
393.80 0.6858016
393.90 0.6860479
394.00 0.6863266
394.10 0.686911
394.20 0.6874664
394.30 0.6878274
394.40 0.6884557
394.50 0.6886504
394.60 0.6889633
394.70 0.6893079
394.80 0.6897731
394.90 0.690251
395.00 0.6910461
395.10 0.6911108
395.20 0.691553
395.30 0.6919722
395.40 0.6923909
395.50 0.6929481
395.60 0.6935561
395.70 0.6941049
395.80 0.6944948
395.90 0.6948842
396.00 0.6952711
396.10 0.6956815
396.20 0.6962117
396.30 0.6965034
396.40 0.6968418
396.50 0.6974657
396.60 0.6978983
396.70 0.6982355
396.80 0.6987402
396.90 0.6991417
397.00 0.6999014
397.10 0.7000364
397.20 0.7004966
397.30 0.7008459
397.40 0.7014115
397.50 0.7019764
397.60 0.702514
397.70 0.7027811
397.80 0.7030479
397.90 0.7033717
398.00 0.7038501
398.10 0.7043279
398.20 0.7048628
398.30 0.705462
398.40 0.7060453
398.50 0.7061378
398.60 0.7068154
398.70 0.7072789
398.80 0.7076343
398.90 0.7080415
399.00 0.7085449
399.10 0.7088407
399.20 0.709282
399.30 0.7097229
399.40 0.7101632
399.50 0.710603
399.60 0.7110003
399.70 0.7113816
399.80 0.7117624
399.90 0.7121428
400.00 0.7125272
400.10 0.7130574
400.20 0.7133443
400.30 0.7138878
400.40 0.7144408
400.50 0.7147478
400.60 0.7150203
400.70 0.7155251
400.80 0.7159748
400.90 0.7163781
401.00 0.717016
401.10 0.7173837
401.20 0.7178627
401.30 0.7180564
401.40 0.7184622
401.50 0.718952
401.60 0.7194422
401.70 0.7199634
401.80 0.7202908
401.90 0.7206523
402.00 0.7214298
402.10 0.7216209
402.20 0.7219066
402.30 0.722371
402.40 0.7228237
402.50 0.7236032
402.60 0.7238433
402.70 0.7240222
402.80 0.7245154
402.90 0.7251217
403.00 0.7256138
403.10 0.7259917
403.20 0.7262252
403.30 0.7267375
403.40 0.7270575
403.50 0.7276141
403.60 0.7282043
403.70 0.7283628
403.80 0.7285967
403.90 0.7291997
404.00 0.7295419
404.10 0.7303105
404.20 0.7305137
404.30 0.7307167
404.40 0.7312269
404.50 0.7319672
404.60 0.7321688
404.70 0.7326518
404.80 0.7328855
404.90 0.7336159
405.00 0.7336951
405.10 0.7340961
405.20 0.7345363
405.30 0.734976
405.40 0.7354553
405.50 0.7359339
405.60 0.7364121
405.70 0.7368896
405.80 0.7373667
405.90 0.7378431
406.00 0.7381552
406.10 0.7384669
406.20 0.7387782
406.30 0.7390891
406.40 0.7394352
406.50 0.7402728
406.60 0.7406048
406.70 0.7410422
406.80 0.741331
406.90 0.7414862
407.00 0.7419014
407.10 0.7423161
407.20 0.7427303
407.30 0.743144
407.40 0.7435573
407.50 0.74397
407.60 0.7443822
407.70 0.7447939
407.80 0.7452051
407.90 0.7456199
408.00 0.7461627
408.10 0.7465234
408.20 0.7468789
408.30 0.7474142
408.40 0.7479488
408.50 0.7483784
408.60 0.7487768
408.70 0.7491747
408.80 0.7495578
408.90 0.749851
409.00 0.7502252
409.10 0.7505989
409.20 0.7509722
409.30 0.751345
409.40 0.7517185
409.50 0.7521288
409.60 0.7525386
409.70 0.7529446
409.80 0.7533364
409.90 0.753737
410.00 0.7544348
410.10 0.7549809
410.20 0.7553095
410.30 0.7555834
410.40 0.7558758
410.50 0.7562278
410.60 0.7565793
410.70 0.7569637
410.80 0.7574803
410.90 0.7579963
411.00 0.7584308
411.10 0.7588349
411.20 0.7592385
411.30 0.7596735
411.40 0.760231
411.50 0.7606314
411.60 0.7610313
411.70 0.7613858
411.80 0.76156
411.90 0.761897
412.00 0.7623422
412.10 0.7629227
412.20 0.7632311
412.30 0.763589
412.40 0.7641375
412.50 0.7644444
412.60 0.7648479
412.70 0.7651377
412.80 0.7653989
412.90 0.766076
413.00 0.7664055
413.10 0.7667852
413.20 0.7671644
413.30 0.7675431
413.40 0.7679214
413.50 0.7682618
413.60 0.7685112
413.70 0.7689481
413.80 0.7693845
413.90 0.7698203
414.00 0.7702557
414.10 0.7706905
414.20 0.7709313
414.30 0.7716339
414.40 0.7716912
414.50 0.7720044
414.60 0.7727927
414.70 0.7729563
414.80 0.7731841
414.90 0.7736151
415.00 0.7740456
415.10 0.7744756
415.20 0.7749126
415.30 0.7753724
415.40 0.7758317
415.50 0.7762885
415.60 0.7766805
415.70 0.7770721
415.80 0.7774481
415.90 0.7777759
416.00 0.7781033
416.10 0.7784434
416.20 0.7788355
416.30 0.7792271
416.40 0.7796183
416.50 0.7800099
416.60 0.7804327
416.70 0.780831
416.80 0.7812981
416.90 0.7814286
417.00 0.7818296
417.10 0.7825309
417.20 0.7826858
417.30 0.7828525
417.40 0.7834128
417.50 0.7839724
417.60 0.784435
