# Version 2.1 - nm, norm@500 to 1, cut digits, bergeron_He_6000_75.dat_6000
# Wavelength(nm)  Flambda(ergs/cm^s/s/nm)
300.00 0.5021687
300.10 0.5028175
300.20 0.5034728
300.30 0.5041197
300.40 0.5047153
300.50 0.5053101
300.60 0.5059039
300.70 0.5064969
300.80 0.5070889
300.90 0.5076801
301.00 0.5082703
301.10 0.5088597
301.20 0.5094482
301.30 0.5100357
301.40 0.5106224
301.50 0.5112082
301.60 0.5117931
301.70 0.5123771
301.80 0.5129602
301.90 0.5135425
302.00 0.5141238
302.10 0.514719
302.20 0.515315
302.30 0.51591
302.40 0.5165042
302.50 0.5170974
302.60 0.5176898
302.70 0.5182812
302.80 0.5188718
302.90 0.5194614
303.00 0.5200502
303.10 0.5206381
303.20 0.5212251
303.30 0.5218126
303.40 0.5224121
303.50 0.5230107
303.60 0.5236083
303.70 0.5242051
303.80 0.524801
303.90 0.5253959
304.00 0.52599
304.10 0.5265832
304.20 0.5271755
304.30 0.5277669
304.40 0.5283574
304.50 0.528947
304.60 0.5295436
304.70 0.5301402
304.80 0.5307359
304.90 0.5313307
305.00 0.5319246
305.10 0.5325177
305.20 0.5331098
305.30 0.533701
305.40 0.5342914
305.50 0.5348808
305.60 0.5354694
305.70 0.5360571
305.80 0.5366439
305.90 0.5372299
306.00 0.5378149
306.10 0.5383991
306.20 0.5389824
306.30 0.5395648
306.40 0.5401483
306.50 0.5407315
306.60 0.5413138
306.70 0.5418952
306.80 0.5424758
306.90 0.5430555
307.00 0.5436343
307.10 0.5442123
307.20 0.5447893
307.30 0.5453656
307.40 0.5459409
307.50 0.5465154
307.60 0.547089
307.70 0.5476618
307.80 0.5482337
307.90 0.5488048
308.00 0.549375
308.10 0.5499443
308.20 0.5505128
308.30 0.5510804
308.40 0.5516472
308.50 0.5522131
308.60 0.5527782
308.70 0.5533424
308.80 0.5538954
308.90 0.5544181
309.00 0.5550486
309.10 0.5556783
309.20 0.556307
309.30 0.5569347
309.40 0.5575518
309.50 0.5581075
309.60 0.5586624
309.70 0.5592164
309.80 0.5597696
309.90 0.560322
310.00 0.5608736
310.10 0.5614243
310.20 0.5619742
310.30 0.5625233
310.40 0.5630839
310.50 0.5636571
310.60 0.5642294
310.70 0.5648009
310.80 0.5653715
310.90 0.5659413
311.00 0.5665536
311.10 0.5671651
311.20 0.5677757
311.30 0.5683725
311.40 0.5689321
311.50 0.5694908
311.60 0.5700487
311.70 0.5706057
311.80 0.5711619
311.90 0.5717173
312.00 0.5722719
312.10 0.5728256
312.20 0.5733757
312.30 0.5739943
312.40 0.574632
312.50 0.575182
312.60 0.5757856
312.70 0.5763882
312.80 0.57699
312.90 0.5775768
313.00 0.5781474
313.10 0.5787172
313.20 0.5792861
313.30 0.5798552
313.40 0.5804262
313.50 0.5809963
313.60 0.5815656
313.70 0.5821341
313.80 0.5827017
313.90 0.5832685
314.00 0.5838344
314.10 0.5843877
314.20 0.5849401
314.30 0.5854917
314.40 0.5860425
314.50 0.5865925
314.60 0.5871416
314.70 0.5876899
314.80 0.5882356
314.90 0.5887989
315.00 0.5893871
315.10 0.5899615
315.20 0.5905351
315.30 0.5911079
315.40 0.5916798
315.50 0.5922509
315.60 0.5928211
315.70 0.59342
315.80 0.5940181
315.90 0.5946152
316.00 0.5952115
316.10 0.5957186
316.20 0.5962249
316.30 0.5967304
316.40 0.5972352
316.50 0.5980918
316.60 0.5985948
316.70 0.5990971
316.80 0.5995986
316.90 0.6001873
317.00 0.6007752
317.10 0.6013621
317.20 0.6019482
317.30 0.6023752
317.40 0.6028488
317.50 0.603456
317.60 0.6040622
317.70 0.6046676
317.80 0.6052721
317.90 0.605811
318.00 0.6064841
318.10 0.6069754
318.20 0.6074659
318.30 0.6079557
318.40 0.60849
318.50 0.6091524
318.60 0.6097686
318.70 0.6102552
318.80 0.6108627
318.90 0.6112263
319.00 0.6120578
319.10 0.6125413
319.20 0.6130372
319.30 0.6135696
319.40 0.6141013
319.50 0.6146321
319.60 0.6153067
319.70 0.6158359
319.80 0.6163644
319.90 0.616892
320.00 0.6173948
320.10 0.6178708
320.20 0.6185859
320.30 0.6191648
320.40 0.6195696
320.50 0.6201113
320.60 0.6206659
320.70 0.621309
320.80 0.62191
320.90 0.6224656
321.00 0.6230203
321.10 0.6235742
321.20 0.6239219
321.30 0.6244805
321.40 0.6250383
321.50 0.6255954
321.60 0.6261516
321.70 0.6267069
321.80 0.6272508
321.90 0.6277823
322.00 0.6285583
322.10 0.6290995
322.20 0.6296399
322.30 0.6301795
322.40 0.6307183
322.50 0.6312563
322.60 0.6317936
322.70 0.63233
322.80 0.632671
322.90 0.6332417
323.00 0.6338117
323.10 0.6343808
323.20 0.6349491
323.30 0.6355166
323.40 0.6360832
323.50 0.636649
323.60 0.637214
323.70 0.6377782
323.80 0.6383416
323.90 0.6389041
324.00 0.6394093
324.10 0.6399137
324.20 0.6404174
324.30 0.6409108
324.40 0.6414172
324.50 0.6419672
324.60 0.6425164
324.70 0.6430649
324.80 0.6436125
324.90 0.6441594
325.00 0.6447054
325.10 0.6452507
325.20 0.6457918
325.30 0.6463251
325.40 0.6468576
325.50 0.6473868
325.60 0.6479122
325.70 0.6484368
325.80 0.6489606
325.90 0.6494953
326.00 0.6500419
326.10 0.6505876
326.20 0.6511325
326.30 0.6517052
326.40 0.6523583
326.50 0.6528942
326.60 0.6534293
326.70 0.6539636
326.80 0.6544972
326.90 0.6550299
327.00 0.6555619
327.10 0.6560932
327.20 0.6566236
327.30 0.6571533
327.40 0.6576822
327.50 0.6582104
327.60 0.6587378
327.70 0.6592644
327.80 0.6597902
327.90 0.6601763
328.00 0.6605701
328.10 0.6611573
328.20 0.6617437
328.30 0.6623292
328.40 0.6629139
328.50 0.6634447
328.60 0.6639623
328.70 0.6644791
328.80 0.6649932
328.90 0.6655011
329.00 0.6660082
329.10 0.6665147
329.20 0.6670204
329.30 0.6675253
329.40 0.6680295
329.50 0.668533
329.60 0.6690357
329.70 0.6695378
329.80 0.670039
329.90 0.6705396
330.00 0.6710727
330.10 0.6716458
330.20 0.6722181
330.30 0.6727896
330.40 0.6733273
330.50 0.6738286
330.60 0.6743291
330.70 0.6748289
330.80 0.675328
330.90 0.6758264
331.00 0.676324
331.10 0.6768209
331.20 0.6773171
331.30 0.6778125
331.40 0.6783073
331.50 0.6788595
331.60 0.679482
331.70 0.6801036
331.80 0.6806239
331.90 0.6811393
332.00 0.6816539
332.10 0.6821678
332.20 0.6826809
332.30 0.6831934
332.40 0.683705
332.50 0.684216
332.60 0.6847261
332.70 0.6852356
332.80 0.6857443
332.90 0.6862523
333.00 0.6867596
333.10 0.687268
333.20 0.687778
333.30 0.6882872
333.40 0.6887958
333.50 0.6893036
333.60 0.6898106
333.70 0.690317
333.80 0.6908226
333.90 0.6913274
334.00 0.6918316
334.10 0.6923255
334.20 0.6928071
334.30 0.693288
334.40 0.6937682
334.50 0.6942478
334.60 0.6947266
334.70 0.695212
334.80 0.6957274
334.90 0.6962734
335.00 0.6968186
335.10 0.6973435
335.20 0.6978704
335.30 0.6983259
335.40 0.6986944
335.50 0.699376
335.60 0.6997432
335.70 0.7004232
335.80 0.700789
335.90 0.7012248
336.00 0.7017459
336.10 0.7022662
336.20 0.7027858
336.30 0.7033047
336.40 0.7038228
336.50 0.7043402
336.60 0.7048569
336.70 0.7053728
336.80 0.705888
336.90 0.7063983
337.00 0.7069027
337.10 0.7074065
337.20 0.7079095
337.30 0.7083968
337.40 0.7088618
337.50 0.7093261
337.60 0.7097898
337.70 0.7102528
337.80 0.7107151
337.90 0.7111843
338.00 0.7116622
338.10 0.7121393
338.20 0.7126158
338.30 0.7130916
338.40 0.7135786
338.50 0.7140942
338.60 0.714609
338.70 0.7151231
338.80 0.7156365
338.90 0.7161491
339.00 0.7166611
339.10 0.7171722
339.20 0.7176827
339.30 0.718195
339.40 0.7187104
339.50 0.7192047
339.60 0.7196736
339.70 0.7201417
339.80 0.7206092
339.90 0.721076
340.00 0.7215422
340.10 0.7220077
340.20 0.7224725
340.30 0.7229366
340.40 0.7234
340.50 0.7238628
340.60 0.724325
340.70 0.7247864
340.80 0.7252655
340.90 0.7257704
341.00 0.7262661
341.10 0.7267509
341.20 0.727235
341.30 0.7277184
341.40 0.7282012
341.50 0.7286832
341.60 0.7291646
341.70 0.7296452
341.80 0.7301332
341.90 0.7306303
342.00 0.7311266
342.10 0.7316222
342.20 0.7320835
342.30 0.7325004
342.40 0.732957
342.50 0.7334383
342.60 0.7339189
342.70 0.7343988
342.80 0.734878
342.90 0.7353565
343.00 0.7358276
343.10 0.7362899
343.20 0.7367514
343.30 0.7372123
343.40 0.7376762
343.50 0.7381446
343.60 0.7386124
343.70 0.7390796
343.80 0.739546
343.90 0.7400118
344.00 0.7405075
344.10 0.7410465
344.20 0.7415847
344.30 0.7421222
344.40 0.7426285
344.50 0.7430901
344.60 0.7434901
344.70 0.7438018
344.80 0.7444101
344.90 0.7447207
345.00 0.7453883
345.10 0.745846
345.20 0.7463079
345.30 0.7467763
345.40 0.747244
345.50 0.7476903
345.60 0.7481246
345.70 0.7485783
345.80 0.7490314
345.90 0.7494839
346.00 0.7499357
346.10 0.7503869
346.20 0.7508374
346.30 0.7512872
346.40 0.7517365
346.50 0.752185
346.60 0.752633
346.70 0.7530803
346.80 0.7535269
346.90 0.7539729
347.00 0.7544183
347.10 0.7548631
347.20 0.7553158
347.30 0.7557802
347.40 0.756244
347.50 0.7567071
347.60 0.7571696
347.70 0.7576314
347.80 0.7580926
347.90 0.7585531
348.00 0.7590129
348.10 0.7594721
348.20 0.7599306
348.30 0.7603885
348.40 0.7608457
348.50 0.7613023
348.60 0.7617583
348.70 0.7621896
348.80 0.762625
348.90 0.7630776
349.00 0.7635295
349.10 0.7639808
349.20 0.7644314
349.30 0.7648814
349.40 0.7653308
349.50 0.7657795
349.60 0.7662276
349.70 0.766675
349.80 0.7671218
349.90 0.767568
350.00 0.7680135
350.10 0.7684584
350.20 0.7689027
350.30 0.7693475
350.40 0.7697935
350.50 0.7702388
350.60 0.7706835
350.70 0.7711275
350.80 0.7715709
350.90 0.7720137
351.00 0.7724559
351.10 0.7728974
351.20 0.7733383
351.30 0.7737786
351.40 0.7742189
351.50 0.7746597
351.60 0.7750998
351.70 0.7755394
351.80 0.7759783
351.90 0.7764166
352.00 0.7768542
352.10 0.7772913
352.20 0.7777976
352.30 0.7782711
352.40 0.7786867
352.50 0.7791018
352.60 0.7795163
352.70 0.7799301
352.80 0.7803434
352.90 0.7807561
353.00 0.7811681
353.10 0.7815796
353.20 0.7819905
353.30 0.7824008
353.40 0.7828106
353.50 0.783251
353.60 0.7836986
353.70 0.7841457
353.80 0.784592
353.90 0.7850353
354.00 0.7854735
354.10 0.785911
354.20 0.786348
354.30 0.7867843
354.40 0.78722
354.50 0.7876551
354.60 0.7880895
354.70 0.7885234
354.80 0.7889359
354.90 0.7893178
355.00 0.7896993
355.10 0.7900802
355.20 0.7904605
355.30 0.7909243
355.40 0.7913874
355.50 0.79185
355.60 0.7923118
355.70 0.7927261
355.80 0.7931186
355.90 0.7935675
356.00 0.7940155
356.10 0.7944375
356.20 0.7948589
356.30 0.7952797
356.40 0.7956999
356.50 0.7961195
356.60 0.7965385
356.70 0.796957
356.80 0.7973748
356.90 0.797792
357.00 0.7982086
357.10 0.7986247
357.20 0.7990401
357.30 0.799455
357.40 0.7998553
357.50 0.8002303
357.60 0.8006047
357.70 0.8009786
357.80 0.8014086
357.90 0.8018381
358.00 0.8022623
358.10 0.8026848
358.20 0.8031067
358.30 0.803528
358.40 0.8039487
358.50 0.8043688
358.60 0.8047884
358.70 0.8052073
358.80 0.8056256
358.90 0.8060433
359.00 0.8064583
359.10 0.8068689
359.20 0.8072741
359.30 0.8076466
359.40 0.8080186
359.50 0.808436
359.60 0.8088643
359.70 0.8092919
359.80 0.8096688
359.90 0.8100451
360.00 0.8104342
360.10 0.8108463
360.20 0.8112578
360.30 0.8116687
360.40 0.8120791
360.50 0.8124889
360.60 0.8128834
360.70 0.8132471
360.80 0.8136102
360.90 0.8139728
361.00 0.8143906
361.10 0.8147349
361.20 0.8153064
361.30 0.8156127
361.40 0.8159996
361.50 0.816494
361.60 0.8167663
361.70 0.8171246
361.80 0.8174944
361.90 0.8178853
362.00 0.8182757
362.10 0.8187403
362.20 0.819184
362.30 0.8195579
362.40 0.8199312
362.50 0.820304
362.60 0.8206762
362.70 0.8211343
362.80 0.8215462
362.90 0.821894
363.00 0.8222412
363.10 0.822644
363.20 0.8230468
363.30 0.8235675
363.40 0.8238497
363.50 0.8242651
363.60 0.8246132
363.70 0.82502
363.80 0.8253077
363.90 0.8257431
364.00 0.826178
364.10 0.8266122
364.20 0.8270458
364.30 0.8273605
364.40 0.8276453
364.50 0.8279974
364.60 0.8284259
364.70 0.8288538
364.80 0.8292811
364.90 0.8296223
365.00 0.829963
365.10 0.8304357
365.20 0.8307753
365.30 0.8311145
365.40 0.8315854
365.50 0.8319234
365.60 0.832261
365.70 0.8326461
365.80 0.8330307
365.90 0.8334467
366.00 0.8338701
366.10 0.8341915
366.20 0.8345124
366.30 0.8348328
366.40 0.8351528
366.50 0.8355317
366.60 0.8361354
366.70 0.8364753
366.80 0.8368147
366.90 0.8371561
367.00 0.8375017
367.10 0.8378467
367.20 0.8381912
367.30 0.8385353
367.40 0.8388788
367.50 0.8392795
367.60 0.8396941
367.70 0.8400623
367.80 0.8404299
367.90 0.8407971
368.00 0.8411294
368.10 0.841575
368.20 0.8419387
368.30 0.8423005
368.40 0.8426618
368.50 0.8430225
368.60 0.8433828
368.70 0.8437425
368.80 0.8441017
368.90 0.8445002
369.00 0.8449156
369.10 0.8453171
369.20 0.8456451
369.30 0.845964
369.40 0.8462825
369.50 0.8466005
369.60 0.8470427
369.70 0.8474844
369.80 0.8477952
369.90 0.8481042
370.00 0.8484127
370.10 0.8487478
370.20 0.8491908
370.30 0.8496336
370.40 0.8499432
370.50 0.8502627
370.60 0.8507039
370.70 0.8508939
370.80 0.8513295
370.90 0.8517645
371.00 0.8520802
371.10 0.8523942
371.20 0.8527001
371.30 0.8530055
371.40 0.8533577
371.50 0.8537084
371.60 0.8540586
371.70 0.8544083
371.80 0.8547575
371.90 0.8551062
372.00 0.8555296
372.10 0.8559807
372.20 0.8563281
372.30 0.856675
372.40 0.8570213
372.50 0.8573672
372.60 0.8577126
372.70 0.8580575
372.80 0.8583557
372.90 0.8586535
373.00 0.8590847
373.10 0.8595166
373.20 0.8598167
373.30 0.8601164
373.40 0.8604156
373.50 0.860841
373.60 0.8611393
373.70 0.8615636
373.80 0.8618293
373.90 0.8621578
374.00 0.8625173
374.10 0.8628764
374.20 0.8632349
374.30 0.8635929
374.40 0.863919
374.50 0.8641755
374.60 0.864532
374.70 0.8648902
374.80 0.8652478
374.90 0.8656049
375.00 0.8658967
375.10 0.8661881
375.20 0.866479
375.30 0.8668412
375.40 0.8672028
375.50 0.8675639
375.60 0.8679245
375.70 0.8682846
375.80 0.8686442
375.90 0.8690033
376.00 0.8692831
376.10 0.8695822
376.20 0.869881
376.30 0.8701795
376.40 0.8704774
376.50 0.8708147
376.60 0.8712109
376.70 0.8716066
376.80 0.8719497
376.90 0.8722404
377.00 0.8725307
377.10 0.8728206
377.20 0.8731307
377.30 0.873518
377.40 0.8739048
377.50 0.8742911
377.60 0.8745819
377.70 0.8748723
377.80 0.8751622
377.90 0.8754517
378.00 0.8759222
378.10 0.8762352
378.20 0.8765434
378.30 0.8768512
378.40 0.8771586
378.50 0.8774655
378.60 0.877772
378.70 0.878078
378.80 0.8783835
378.90 0.8786747
379.00 0.8789395
379.10 0.8792622
379.20 0.8795845
379.30 0.8799094
379.40 0.880237
379.50 0.8805642
379.60 0.8809042
379.70 0.8812534
379.80 0.8815638
379.90 0.8818737
380.00 0.8821832
380.10 0.8824922
380.20 0.8828008
380.30 0.883109
380.40 0.8834167
380.50 0.8837239
380.60 0.8840652
380.70 0.8843761
380.80 0.8846866
380.90 0.8849966
381.00 0.8853062
381.10 0.8856015
381.20 0.8859166
381.30 0.8862364
381.40 0.8866249
381.50 0.8869067
381.60 0.8872158
381.70 0.8875203
381.80 0.8878989
381.90 0.8881604
382.00 0.8884215
382.10 0.8888031
382.20 0.8890392
382.30 0.8894198
382.40 0.8897586
382.50 0.8900349
382.60 0.8903107
382.70 0.8905885
382.80 0.8908892
382.90 0.89121
383.00 0.8915304
383.10 0.8918502
383.20 0.8921444
383.30 0.8923429
383.40 0.8926189
383.50 0.893011
383.60 0.8933338
383.70 0.8936267
383.80 0.8939192
383.90 0.8942112
384.00 0.8945028
384.10 0.894794
384.20 0.8950848
384.30 0.8953752
384.40 0.8956772
384.50 0.8959909
384.60 0.8963042
384.70 0.896617
384.80 0.8968824
384.90 0.8970632
385.00 0.8974153
385.10 0.8977679
385.20 0.8981012
385.30 0.8983596
385.40 0.8986435
385.50 0.8989529
385.60 0.8992618
385.70 0.8995702
385.80 0.8998613
385.90 0.9000884
386.00 0.9003889
386.10 0.9007528
386.20 0.9010178
386.30 0.9012823
386.40 0.901591
386.50 0.9018552
386.60 0.9021984
386.70 0.9023222
386.80 0.9026819
386.90 0.9029821
387.00 0.9032287
387.10 0.903587
387.20 0.9038621
387.30 0.9040666
387.40 0.904422
387.50 0.9046173
387.60 0.9049379
387.70 0.9052347
387.80 0.9055311
387.90 0.905827
388.00 0.9061343
388.10 0.9062706
388.20 0.9065729
388.30 0.9068495
388.40 0.9071258
388.50 0.9074291
388.60 0.9077431
388.70 0.9080334
388.80 0.9083998
388.90 0.9085164
389.00 0.9088998
389.10 0.9090663
389.20 0.9094161
389.30 0.9097267
389.40 0.9099761
389.50 0.9102517
389.60 0.9105727
389.70 0.9108819
389.80 0.9111261
389.90 0.9113699
390.00 0.9116134
390.10 0.9118564
390.20 0.9120992
390.30 0.9123587
390.40 0.9126373
390.50 0.9129155
390.60 0.9131933
390.70 0.9134707
390.80 0.9137674
390.90 0.9140834
391.00 0.9142703
391.10 0.9145873
391.20 0.9148703
391.30 0.9150764
391.40 0.9153388
391.50 0.9156009
391.60 0.9158626
391.70 0.9161239
391.80 0.9163848
391.90 0.9167072
392.00 0.9170336
392.10 0.9172619
392.20 0.9174974
392.30 0.9178089
392.40 0.9181101
392.50 0.9183579
392.60 0.9186176
392.70 0.9187967
392.80 0.9191301
392.90 0.9194497
393.00 0.9197116
393.10 0.9199416
393.20 0.9201379
393.30 0.920355
393.40 0.9205672
393.50 0.9208681
393.60 0.9211335
393.70 0.9213235
393.80 0.921663
393.90 0.9218779
394.00 0.9220971
394.10 0.9223977
394.20 0.9227373
394.30 0.9229691
394.40 0.9231881
394.50 0.9235529
394.60 0.9237184
394.70 0.9239035
394.80 0.924163
394.90 0.9244221
395.00 0.9246771
395.10 0.9249133
395.20 0.9251695
395.30 0.9254376
395.40 0.9257054
395.50 0.9259718
395.60 0.9262376
395.70 0.9264964
395.80 0.9267372
395.90 0.9269777
396.00 0.9272281
396.10 0.9275435
396.20 0.9277503
396.30 0.9279263
396.40 0.9282448
396.50 0.9285264
396.60 0.928656
396.70 0.9289792
396.80 0.929167
396.90 0.9294777
397.00 0.9296593
397.10 0.9299376
397.20 0.9302164
397.30 0.9304594
397.40 0.9306943
397.50 0.930929
397.60 0.9311642
397.70 0.9314086
397.80 0.9316526
397.90 0.9318976
398.00 0.932146
398.10 0.932394
398.20 0.9326055
398.30 0.9327759
398.40 0.9329525
398.50 0.9333397
398.60 0.9334512
398.70 0.9336589
398.80 0.9339158
398.90 0.9342063
399.00 0.9345597
399.10 0.9345989
399.20 0.9348423
399.30 0.9350854
399.40 0.935328
399.50 0.9355704
399.60 0.9358092
399.70 0.9360465
399.80 0.9362834
399.90 0.93652
400.00 0.9367554
400.10 0.936966
400.20 0.9372109
400.30 0.9374318
400.40 0.9376601
400.50 0.9379203
400.60 0.9381541
400.70 0.9383457
400.80 0.9386767
400.90 0.9387935
401.00 0.9391099
401.10 0.9393584
401.20 0.9395549
401.30 0.9397201
401.40 0.9399512
401.50 0.9402133
401.60 0.9404733
401.70 0.9406785
401.80 0.9409072
401.90 0.9411517
402.00 0.9412285
402.10 0.9416104
402.20 0.9417972
402.30 0.9420164
402.40 0.9422494
402.50 0.9423557
402.60 0.9425646
402.70 0.9429443
402.80 0.9430203
402.90 0.9432701
403.00 0.9435631
403.10 0.9436819
403.20 0.9438856
403.30 0.9440856
403.40 0.9443089
403.50 0.9445897
403.60 0.9448676
403.70 0.944996
403.80 0.9451999
403.90 0.9454699
404.00 0.9456647
404.10 0.9459375
404.20 0.946118
404.30 0.9462982
404.40 0.9465959
404.50 0.9467656
404.60 0.9469448
404.70 0.9472316
404.80 0.947429
404.90 0.9475885
405.00 0.9478429
405.10 0.9480672
405.20 0.9482907
405.30 0.9485138
405.40 0.9487264
405.50 0.9489387
405.60 0.9491506
405.70 0.9493622
405.80 0.9495734
405.90 0.9497844
406.00 0.9499632
406.10 0.9501417
406.20 0.9503199
406.30 0.9504978
406.40 0.9506775
406.50 0.9509914
406.60 0.9511096
406.70 0.9512824
406.80 0.9514817
406.90 0.9517538
407.00 0.9519471
407.10 0.95214
407.20 0.9523327
407.30 0.952525
407.40 0.9527171
407.50 0.9529088
407.60 0.9531003
407.70 0.9532914
407.80 0.9534822
407.90 0.9536739
408.00 0.953902
408.10 0.9540968
408.20 0.9542877
408.30 0.9545103
408.40 0.9547326
408.50 0.9548746
408.60 0.955066
408.70 0.9552571
408.80 0.9554557
408.90 0.9557073
409.00 0.9559289
409.10 0.9561502
409.20 0.9563711
409.30 0.9565916
409.40 0.9568091
409.50 0.9569372
409.60 0.9570651
409.70 0.9572095
409.80 0.9574207
409.90 0.9576297
410.00 0.9577745
410.10 0.9580074
410.20 0.958205
410.30 0.9583935
410.40 0.95859
410.50 0.9588124
410.60 0.9590345
410.70 0.9592372
410.80 0.9593633
410.90 0.9594892
411.00 0.9597011
411.10 0.9599446
411.20 0.9601878
411.30 0.9603957
411.40 0.9604677
411.50 0.9606642
411.60 0.9608604
411.70 0.9610488
411.80 0.9612069
411.90 0.9614479
412.00 0.9616054
412.10 0.9618146
412.20 0.9619196
412.30 0.9621828
412.40 0.9622552
412.50 0.9625074
412.60 0.9626336
412.70 0.962802
412.80 0.9629807
412.90 0.9632337
413.00 0.9633234
413.10 0.963514
413.20 0.9637044
413.30 0.9638944
413.40 0.9640841
413.50 0.9642715
413.60 0.9644566
413.70 0.964661
413.80 0.9648651
413.90 0.9650689
414.00 0.9652601
414.10 0.9654118
414.20 0.9655385
414.30 0.9657925
414.40 0.9658406
414.50 0.9660893
414.60 0.966191
414.70 0.9664438
414.80 0.9666716
414.90 0.9668212
415.00 0.9669704
415.10 0.9671195
415.20 0.9672739
415.30 0.967446
415.40 0.9676178
415.50 0.9677901
415.60 0.9679839
415.70 0.9681775
415.80 0.9683578
415.90 0.9684966
416.00 0.9686352
416.10 0.9687799
416.20 0.96895
416.30 0.9691198
416.40 0.9692894
416.50 0.9694579
416.60 0.969603
416.70 0.9697448
416.80 0.9699931
416.90 0.9701429
417.00 0.9703294
417.10 0.9705277
417.20 0.9706712
417.30 0.9708155
417.40 0.970995
417.50 0.9711742
417.60 0.9713282
