# Version 2.1 - nm, norm@500 to 1, cut digits, bergeron_He_6000_80.dat_6000
# Wavelength(nm)  Flambda(ergs/cm^s/s/nm)
300.00 0.5400558
300.10 0.5406855
300.20 0.5413218
300.30 0.5419525
300.40 0.5425517
300.50 0.5431499
300.60 0.5437473
300.70 0.5443437
300.80 0.5449392
300.90 0.5455337
301.00 0.5461274
301.10 0.5467202
301.20 0.547312
301.30 0.547903
301.40 0.548493
301.50 0.5490822
301.60 0.5496704
301.70 0.5502578
301.80 0.5508442
301.90 0.5514297
302.00 0.5520144
302.10 0.5525926
302.20 0.5531694
302.30 0.5537452
302.40 0.5543202
302.50 0.5548943
302.60 0.5554675
302.70 0.5560398
302.80 0.5566113
302.90 0.5571819
303.00 0.5577516
303.10 0.5583204
303.20 0.5588884
303.30 0.5594569
303.40 0.5600375
303.50 0.5606171
303.60 0.5611959
303.70 0.5617738
303.80 0.5623509
303.90 0.562927
304.00 0.5635023
304.10 0.5640766
304.20 0.5646501
304.30 0.5652228
304.40 0.5657945
304.50 0.5663654
304.60 0.5669434
304.70 0.5675213
304.80 0.5680984
304.90 0.5686746
305.00 0.56925
305.10 0.5698244
305.20 0.570398
305.30 0.5709707
305.40 0.5715425
305.50 0.5721135
305.60 0.5726835
305.70 0.5732528
305.80 0.5738211
305.90 0.5743886
306.00 0.5749552
306.10 0.575521
306.20 0.5760859
306.30 0.5766499
306.40 0.5772269
306.50 0.5778072
306.60 0.5783866
306.70 0.5789652
306.80 0.5795428
306.90 0.5801196
307.00 0.5806955
307.10 0.5812705
307.20 0.5818446
307.30 0.5824179
307.40 0.5829903
307.50 0.5835619
307.60 0.5841326
307.70 0.5847024
307.80 0.5852713
307.90 0.5858394
308.00 0.5864066
308.10 0.586973
308.20 0.5875385
308.30 0.5881032
308.40 0.588667
308.50 0.5892299
308.60 0.589792
308.70 0.5903532
308.80 0.5908992
308.90 0.5914034
309.00 0.5920162
309.10 0.5926281
309.20 0.5932391
309.30 0.5938492
309.40 0.5944485
309.50 0.5949861
309.60 0.5955229
309.70 0.5960588
309.80 0.596594
309.90 0.5971283
310.00 0.5976619
310.10 0.5981946
310.20 0.5987265
310.30 0.5992576
310.40 0.5998326
310.50 0.6004552
310.60 0.6010769
310.70 0.6016977
310.80 0.6023175
310.90 0.6029365
311.00 0.6034329
311.10 0.6039286
311.20 0.6044236
311.30 0.6049409
311.40 0.6055232
311.50 0.6061046
311.60 0.6066851
311.70 0.6072648
311.80 0.6078436
311.90 0.6084216
312.00 0.6089987
312.10 0.6095749
312.20 0.6101394
312.30 0.6107406
312.40 0.6113611
312.50 0.6118737
312.60 0.6123621
312.70 0.6128498
312.80 0.6133367
312.90 0.6138555
313.00 0.6144088
313.10 0.6149613
313.20 0.6155129
313.30 0.6160648
313.40 0.6166185
313.50 0.6171715
313.60 0.6177236
313.70 0.6182749
313.80 0.6188253
313.90 0.619375
314.00 0.6199238
314.10 0.6205064
314.20 0.6210881
314.30 0.621669
314.40 0.622249
314.50 0.6228281
314.60 0.6234064
314.70 0.6239838
314.80 0.6245464
314.90 0.6250926
315.00 0.6256637
315.10 0.626221
315.20 0.6267776
315.30 0.6273333
315.40 0.6278882
315.50 0.6284422
315.60 0.6289954
315.70 0.6294884
315.80 0.6299806
315.90 0.630472
316.00 0.6309627
316.10 0.6316305
316.20 0.6322974
316.30 0.6327856
316.40 0.6332731
316.50 0.6337599
316.60 0.6342459
316.70 0.6349083
316.80 0.6355698
316.90 0.6360534
317.00 0.6365362
317.10 0.6370183
317.20 0.6374997
317.30 0.6381122
317.40 0.6386971
317.50 0.6392051
317.60 0.6397123
317.70 0.6402188
317.80 0.6407245
317.90 0.6414781
318.00 0.6419271
318.10 0.6424893
318.20 0.6430507
318.30 0.6436113
318.40 0.6441482
318.50 0.6446196
318.60 0.6450902
318.70 0.6456126
318.80 0.6461517
318.90 0.6468472
319.00 0.6473148
319.10 0.6477816
319.20 0.6482849
319.30 0.6488932
319.40 0.6495006
319.50 0.6501072
319.60 0.6504901
319.70 0.651095
319.80 0.651699
319.90 0.6523021
320.00 0.6528361
320.10 0.6532953
320.20 0.6538399
320.30 0.6542116
320.40 0.6549457
320.50 0.6554711
320.60 0.6559266
320.70 0.6563814
320.80 0.6568769
320.90 0.6574166
321.00 0.6579554
321.10 0.6584935
321.20 0.6591684
321.30 0.6597111
321.40 0.6602529
321.50 0.6607939
321.60 0.6613342
321.70 0.6618736
321.80 0.6624014
321.90 0.6629168
322.00 0.6633356
322.10 0.663861
322.20 0.6643856
322.30 0.6649095
322.40 0.6654326
322.50 0.6659549
322.60 0.6664765
322.70 0.6669972
322.80 0.6676544
322.90 0.6681793
323.00 0.6687034
323.10 0.6692267
323.20 0.6697492
323.30 0.670271
323.40 0.670792
323.50 0.6713122
323.60 0.6718316
323.70 0.6723503
323.80 0.6728682
323.90 0.6733853
324.00 0.6738748
324.10 0.6743636
324.20 0.6748517
324.30 0.6753293
324.40 0.6758202
324.50 0.6763549
324.60 0.6768889
324.70 0.677422
324.80 0.6779544
324.90 0.678486
325.00 0.6790169
325.10 0.6795469
325.20 0.6800728
325.30 0.6805908
325.40 0.6811081
325.50 0.681622
325.60 0.6821322
325.70 0.6826416
325.80 0.6831502
325.90 0.6836697
326.00 0.6842012
326.10 0.6847319
326.20 0.6852618
326.30 0.6857508
326.40 0.6861248
326.50 0.6866459
326.60 0.6871662
326.70 0.6876857
326.80 0.6882045
326.90 0.6887225
327.00 0.6892397
327.10 0.6897562
327.20 0.6902719
327.30 0.6907868
327.40 0.691301
327.50 0.6918145
327.60 0.6923272
327.70 0.6928391
327.80 0.6933503
327.90 0.6938748
328.00 0.6943973
328.10 0.694899
328.20 0.6953999
328.30 0.6959001
328.40 0.6963995
328.50 0.6969023
328.60 0.6974052
328.70 0.6979074
328.80 0.6984142
328.90 0.6989353
329.00 0.6994557
329.10 0.6999752
329.20 0.7004941
329.30 0.7010121
329.40 0.7015294
329.50 0.702046
329.60 0.7025618
329.70 0.7030768
329.80 0.7035911
329.90 0.7041046
330.00 0.7046015
330.10 0.7050783
330.20 0.7055543
330.30 0.7060297
330.40 0.7065106
330.50 0.7069974
330.60 0.7074836
330.70 0.707969
330.80 0.7084537
330.90 0.7089378
331.00 0.709421
331.10 0.7099036
331.20 0.7103855
331.30 0.7108667
331.40 0.7113471
331.50 0.7118269
331.60 0.7123062
331.70 0.7127848
331.80 0.713286
331.90 0.7137875
332.00 0.7142883
332.10 0.7147883
332.20 0.7152876
332.30 0.7157861
332.40 0.716284
332.50 0.7167811
332.60 0.7172775
332.70 0.7177731
332.80 0.718268
332.90 0.7187622
333.00 0.7192557
333.10 0.7197504
333.20 0.7202467
333.30 0.7207422
333.40 0.721237
333.50 0.7217311
333.60 0.7222245
333.70 0.7227172
333.80 0.7232091
333.90 0.7237003
334.00 0.7241908
334.10 0.7246711
334.20 0.7251389
334.30 0.7256061
334.40 0.7260726
334.50 0.7265384
334.60 0.7270035
334.70 0.7274753
334.80 0.7279772
334.90 0.72851
335.00 0.729042
335.10 0.7295535
335.20 0.7300671
335.30 0.7305088
335.40 0.730863
335.50 0.7315324
335.60 0.7318853
335.70 0.7323086
335.80 0.7328179
335.90 0.7333265
336.00 0.7338344
336.10 0.7343415
336.20 0.7348479
336.30 0.73533
336.40 0.7357827
336.50 0.7362346
336.60 0.7366859
336.70 0.7371365
336.80 0.7375864
336.90 0.738055
337.00 0.7385465
337.10 0.7390372
337.20 0.7395273
337.30 0.7400015
337.40 0.7404533
337.50 0.7409044
337.60 0.7413549
337.70 0.7418047
337.80 0.7422539
337.90 0.74271
338.00 0.7431748
338.10 0.743639
338.20 0.7441024
338.30 0.7445652
338.40 0.7450292
338.50 0.7454971
338.60 0.7459644
338.70 0.7464309
338.80 0.7468968
338.90 0.747362
339.00 0.7478265
339.10 0.7482904
339.20 0.7487536
339.30 0.7492329
339.40 0.7497358
339.50 0.7502176
339.60 0.7506738
339.70 0.7511293
339.80 0.7515841
339.90 0.7520383
340.00 0.7524918
340.10 0.7529446
340.20 0.7533968
340.30 0.7538483
340.40 0.7542992
340.50 0.7547494
340.60 0.7551989
340.70 0.7556478
340.80 0.7561145
340.90 0.756607
341.00 0.7570904
341.10 0.7575629
341.20 0.7580346
341.30 0.7585057
341.40 0.7589761
341.50 0.7594458
341.60 0.7599148
341.70 0.7603831
341.80 0.7608266
341.90 0.76124
342.00 0.7616527
342.10 0.7620649
342.20 0.7626085
342.30 0.7631645
342.40 0.7635879
342.50 0.7640061
342.60 0.7644237
342.70 0.7648408
342.80 0.7652572
342.90 0.7656729
343.00 0.7661041
343.10 0.7665543
343.20 0.7670038
343.30 0.7674526
343.40 0.7679045
343.50 0.7683609
343.60 0.7688168
343.70 0.7692719
343.80 0.7697264
343.90 0.7701802
344.00 0.7706334
344.10 0.7710859
344.20 0.7715378
344.30 0.771989
344.40 0.7724396
344.50 0.7728895
344.60 0.7732774
344.70 0.7738756
344.80 0.774174
344.90 0.7747707
345.00 0.7751292
345.10 0.7755752
345.20 0.7760256
345.30 0.7764824
345.40 0.7769385
345.50 0.7773731
345.60 0.7777956
345.70 0.7782377
345.80 0.7786792
345.90 0.7791201
346.00 0.7795603
346.10 0.7799999
346.20 0.7804388
346.30 0.7808771
346.40 0.7813148
346.50 0.7817518
346.60 0.7821882
346.70 0.782624
346.80 0.7830591
346.90 0.7834936
347.00 0.7839275
347.10 0.7843607
347.20 0.7847937
347.30 0.7852267
347.40 0.7856591
347.50 0.7860908
347.60 0.7865219
347.70 0.7869524
347.80 0.7873822
347.90 0.7878114
348.00 0.78824
348.10 0.788668
348.20 0.7890954
348.30 0.7895221
348.40 0.7899482
348.50 0.7903737
348.60 0.7907986
348.70 0.7912139
348.80 0.7916302
348.90 0.7920522
349.00 0.7924737
349.10 0.7928945
349.20 0.7933147
349.30 0.7937343
349.40 0.7941533
349.50 0.7945716
349.60 0.7949894
349.70 0.7954066
349.80 0.7958231
349.90 0.7962391
350.00 0.7966544
350.10 0.7970692
350.20 0.7974833
350.30 0.7978952
350.40 0.7983042
350.50 0.7987126
350.60 0.7991204
350.70 0.7995276
350.80 0.7999343
350.90 0.8003403
351.00 0.8007457
351.10 0.8011506
351.20 0.8015548
351.30 0.8019585
351.40 0.8023716
351.50 0.8028018
351.60 0.8032315
351.70 0.8036606
351.80 0.804089
351.90 0.8045168
352.00 0.804944
352.10 0.8053706
352.20 0.8056938
352.30 0.806054
352.40 0.8064839
352.50 0.8069131
352.60 0.8073418
352.70 0.8077698
352.80 0.8081973
352.90 0.8086241
353.00 0.8090503
353.10 0.8094759
353.20 0.8099008
353.30 0.8103252
353.40 0.810749
353.50 0.8111328
353.60 0.8115062
353.70 0.8118791
353.80 0.8122514
353.90 0.8126323
354.00 0.8130287
354.10 0.8134246
354.20 0.8138198
354.30 0.8142145
354.40 0.8146086
354.50 0.8150022
354.60 0.8153951
354.70 0.8157875
354.80 0.8161976
354.90 0.8166334
355.00 0.8170685
355.10 0.8175031
355.20 0.817937
355.30 0.8183257
355.40 0.8187139
355.50 0.8191014
355.60 0.8194885
355.70 0.8198726
355.80 0.8202551
355.90 0.8206944
356.00 0.8211172
356.10 0.82151
356.20 0.8219022
356.30 0.8222939
356.40 0.822685
356.50 0.8230755
356.60 0.8234654
356.70 0.8238548
356.80 0.8242436
356.90 0.8246319
357.00 0.8250196
357.10 0.8254067
357.20 0.8257933
357.30 0.8261793
357.40 0.8265576
357.50 0.8269228
357.60 0.8272875
357.70 0.8276515
357.80 0.8280722
357.90 0.8284922
358.00 0.8288858
358.10 0.8292723
358.20 0.8296583
358.30 0.8300437
358.40 0.8304285
358.50 0.8308128
358.60 0.8311965
358.70 0.8315797
358.80 0.8319623
358.90 0.8323444
359.00 0.8327332
359.10 0.8331345
359.20 0.8335304
359.30 0.8338935
359.40 0.8342561
359.50 0.8345857
359.60 0.8349068
359.70 0.8352273
359.80 0.8355949
359.90 0.835962
360.00 0.8363419
360.10 0.8367451
360.20 0.8371476
360.30 0.8375496
360.40 0.8379509
360.50 0.8383518
360.60 0.8387372
360.70 0.8390916
360.80 0.8394455
360.90 0.8397989
361.00 0.8402078
361.10 0.8405428
361.20 0.8408341
361.30 0.8412943
361.40 0.8417674
361.50 0.8419952
361.60 0.8423068
361.70 0.8427918
361.80 0.8432013
361.90 0.8434773
362.00 0.8437529
362.10 0.844188
362.20 0.8446232
362.30 0.8449882
362.40 0.8453527
362.50 0.8457166
362.60 0.84608
362.70 0.8463797
362.80 0.8469331
362.90 0.8472719
363.00 0.8476102
363.10 0.8478825
363.20 0.8481537
363.30 0.8486421
363.40 0.8489151
363.50 0.8493221
363.60 0.8497958
363.70 0.8500599
363.80 0.8503385
363.90 0.8507018
364.00 0.8510646
364.10 0.8514269
364.20 0.8517886
364.30 0.8522008
364.40 0.8526252
364.50 0.8529679
364.60 0.8532994
364.70 0.8536303
364.80 0.8539608
364.90 0.8542935
365.00 0.8546257
365.10 0.8550906
365.20 0.8554217
365.30 0.8557524
365.40 0.8562156
365.50 0.8565451
365.60 0.8568742
365.70 0.8572511
365.80 0.8576275
365.90 0.8579175
366.00 0.8581857
366.10 0.8585638
366.20 0.8589414
366.30 0.8593184
366.40 0.8596949
366.50 0.8600702
366.60 0.8604027
366.70 0.8607343
366.80 0.8610655
366.90 0.8613987
367.00 0.861736
367.10 0.8620729
367.20 0.8624092
367.30 0.8627451
367.40 0.8630804
367.50 0.8634733
367.60 0.8638802
367.70 0.8641712
367.80 0.8644618
367.90 0.8647519
368.00 0.8651521
368.10 0.8654624
368.20 0.8658151
368.30 0.866169
368.40 0.8665225
368.50 0.8668754
368.60 0.8672278
368.70 0.8675797
368.80 0.8679311
368.90 0.868322
369.00 0.8686146
369.10 0.8688646
369.20 0.8691833
369.30 0.8694943
369.40 0.8698049
369.50 0.870115
369.60 0.8705501
369.70 0.8709847
369.80 0.8712876
369.90 0.8715887
370.00 0.8718894
370.10 0.8722167
370.20 0.8725243
370.30 0.8728306
370.40 0.8732672
370.50 0.8735692
370.60 0.8738773
370.70 0.8743175
370.80 0.8746174
370.90 0.874917
371.00 0.8752238
371.10 0.8755301
371.20 0.8758283
371.30 0.8761261
371.40 0.8764709
371.50 0.8768142
371.60 0.8771571
371.70 0.8774994
371.80 0.8778412
371.90 0.8781826
372.00 0.8785257
372.10 0.8787869
372.20 0.879127
372.30 0.8794667
372.40 0.8798059
372.50 0.8801446
372.60 0.8804827
372.70 0.8808204
372.80 0.8811112
372.90 0.8814016
373.00 0.8816991
373.10 0.8819962
373.20 0.882289
373.30 0.8825814
373.40 0.8830008
373.50 0.8832922
373.60 0.8835832
373.70 0.884001
373.80 0.8842593
373.90 0.8845807
374.00 0.8848699
374.10 0.8851586
374.20 0.885447
374.30 0.8857348
374.40 0.886054
374.50 0.8865503
374.60 0.8868434
374.70 0.8871313
374.80 0.8874188
374.90 0.8877059
375.00 0.8879906
375.10 0.8882749
375.20 0.8885588
375.30 0.8888782
375.40 0.8891972
375.50 0.8895158
375.60 0.8898339
375.70 0.8901515
375.80 0.8904686
375.90 0.8907853
376.00 0.8910582
376.10 0.8914046
376.20 0.8917514
376.30 0.8920976
376.40 0.8924433
376.50 0.8927721
376.60 0.8930756
376.70 0.8933787
376.80 0.8936722
376.90 0.8939561
377.00 0.8942396
377.10 0.8945226
377.20 0.8948097
377.30 0.8951131
377.40 0.895416
377.50 0.8957185
377.60 0.8960027
377.70 0.8962865
377.80 0.8965698
377.90 0.8968527
378.00 0.897075
378.10 0.8973756
378.20 0.8976775
378.30 0.897979
378.40 0.89828
378.50 0.8985806
378.60 0.8988807
378.70 0.8991803
378.80 0.8994796
378.90 0.8998285
379.00 0.90027
379.10 0.9004875
379.20 0.9007046
379.30 0.9009739
379.40 0.9012954
379.50 0.9016164
379.60 0.9019503
379.70 0.9022872
379.80 0.9025614
379.90 0.9028352
380.00 0.9031085
380.10 0.9033815
380.20 0.903654
380.30 0.9039261
380.40 0.9041978
380.50 0.9044691
380.60 0.9048042
380.70 0.9051091
380.80 0.9054135
380.90 0.9057175
381.00 0.906021
381.10 0.9063102
381.20 0.9066194
381.30 0.9068873
381.40 0.9070719
381.50 0.9073477
381.60 0.9076509
381.70 0.9079495
381.80 0.9083227
381.90 0.9084562
382.00 0.9088329
382.10 0.9090875
382.20 0.9093903
382.30 0.909644
382.40 0.9099044
382.50 0.9101747
382.60 0.9104447
382.70 0.9107167
382.80 0.9110116
382.90 0.9113268
383.00 0.9116416
383.10 0.9119558
383.20 0.9122442
383.30 0.9124365
383.40 0.9127066
383.50 0.9130936
383.60 0.9131693
383.70 0.9134566
383.80 0.9137435
383.90 0.91403
384.00 0.914316
384.10 0.9146017
384.20 0.9148869
384.30 0.9151716
384.40 0.9154401
384.50 0.9156924
384.60 0.9159443
384.70 0.9161958
384.80 0.91647
384.90 0.91679
385.00 0.9170341
385.10 0.9172808
385.20 0.917609
385.30 0.9178618
385.40 0.9181124
385.50 0.9183607
385.60 0.9186087
385.70 0.9188563
385.80 0.9191275
385.90 0.9194885
386.00 0.9197688
386.10 0.9199741
386.20 0.9202337
386.30 0.9204929
386.40 0.9207964
386.50 0.9210553
386.60 0.9213936
386.70 0.9215112
386.80 0.9218661
386.90 0.9221611
387.00 0.9224024
387.10 0.9225247
387.20 0.9228539
387.30 0.9232246
387.40 0.9233998
387.50 0.9236595
387.60 0.9238438
387.70 0.9241356
387.80 0.9244271
387.90 0.924718
388.00 0.9249628
388.10 0.9251507
388.20 0.9254481
388.30 0.9257197
388.40 0.9259909
388.50 0.926217
388.60 0.9264299
388.70 0.9266713
388.80 0.9270106
388.90 0.9273416
389.00 0.9275006
389.10 0.9277995
389.20 0.9280067
389.30 0.9283127
389.40 0.928557
389.50 0.928749
389.60 0.92891
389.70 0.9292146
389.80 0.9294539
389.90 0.9296927
390.00 0.9299313
390.10 0.9301694
390.20 0.9304072
390.30 0.9306619
390.40 0.9309358
390.50 0.9312093
390.60 0.9314824
390.70 0.9317551
390.80 0.9319815
390.90 0.9321617
391.00 0.9325099
391.10 0.9327097
391.20 0.932899
391.30 0.9331001
391.40 0.933358
391.50 0.9336154
391.60 0.9338725
391.70 0.9341291
391.80 0.9343854
391.90 0.9346019
392.00 0.9347944
392.10 0.9350181
392.20 0.9352489
392.30 0.9355562
392.40 0.9358656
392.50 0.9360964
392.60 0.9363516
392.70 0.9365258
392.80 0.9368551
392.90 0.9369404
393.00 0.937198
393.10 0.9374235
393.20 0.9376254
393.30 0.9379527
393.40 0.9382647
393.50 0.9383755
393.60 0.938682
393.70 0.9389446
393.80 0.939114
393.90 0.9393243
394.00 0.9395389
394.10 0.9397809
394.20 0.9400006
394.30 0.9402695
394.40 0.9405943
394.50 0.9407459
394.60 0.9410342
394.70 0.9412933
394.80 0.941444
394.90 0.9415974
395.00 0.9418483
395.10 0.9420802
395.20 0.9423322
395.30 0.9425963
395.40 0.9428599
395.50 0.9430549
395.60 0.9432243
395.70 0.9434118
395.80 0.9436485
395.90 0.9438848
396.00 0.9441312
396.10 0.944443
396.20 0.9446454
396.30 0.944817
396.40 0.9451319
396.50 0.9452203
396.60 0.9455344
396.70 0.9457074
396.80 0.9459457
396.90 0.9461189
397.00 0.9462962
397.10 0.9465709
397.20 0.9468459
397.30 0.947085
397.40 0.947316
397.50 0.9475467
397.60 0.9477707
397.70 0.9479316
397.80 0.9480921
397.90 0.9482752
398.00 0.9485198
398.10 0.9487641
398.20 0.9489716
398.30 0.9491378
398.40 0.9493051
398.50 0.9495172
398.60 0.9497534
398.70 0.9500052
398.80 0.9502584
398.90 0.9504876
399.00 0.9506726
399.10 0.9509255
399.20 0.951114
399.30 0.9513022
399.40 0.9514901
399.50 0.9516777
399.60 0.9518991
399.70 0.9521328
399.80 0.9523661
399.90 0.952599
400.00 0.9528308
400.10 0.9530376
400.20 0.9532789
400.30 0.953426
400.40 0.9535631
400.50 0.953756
400.60 0.9539862
400.70 0.9541741
400.80 0.9544634
400.90 0.9546147
401.00 0.9549282
401.10 0.9550242
401.20 0.9551928
401.30 0.9554716
401.40 0.9556953
401.50 0.9558724
401.60 0.9560501
401.70 0.9562517
401.80 0.956477
401.90 0.9567182
402.00 0.9567907
402.10 0.9569504
402.20 0.9571623
402.30 0.9574428
402.40 0.9575793
402.50 0.9579009
402.60 0.9580945
402.70 0.9582644
402.80 0.9584458
402.90 0.9587144
403.00 0.958895
403.10 0.958988
403.20 0.9591883
403.30 0.9593849
403.40 0.959605
403.50 0.9597808
403.60 0.9599577
403.70 0.9602824
403.80 0.9604792
403.90 0.9606225
404.00 0.9607236
404.10 0.9609936
404.20 0.9611707
404.30 0.9613475
404.40 0.9615438
404.50 0.9617002
404.60 0.9619847
404.70 0.9620517
404.80 0.962246
404.90 0.9624021
405.00 0.9626537
405.10 0.9628751
405.20 0.9630955
405.30 0.9633157
405.40 0.9634892
405.50 0.9636624
405.60 0.9638353
405.70 0.9640079
405.80 0.9641802
405.90 0.9643523
406.00 0.964528
406.10 0.9647033
406.20 0.9648784
406.30 0.9650532
406.40 0.9652298
406.50 0.9653806
406.60 0.9656561
406.70 0.9658258
406.80 0.9660221
406.90 0.966077
407.00 0.9662674
407.10 0.9664574
407.20 0.9666472
407.30 0.9668366
407.40 0.9670258
407.50 0.9672146
407.60 0.9674032
407.70 0.9675914
407.80 0.9677794
407.90 0.9679681
408.00 0.9681936
408.10 0.9683855
408.20 0.9685179
408.30 0.9686685
408.40 0.9688188
408.50 0.968939
408.60 0.9691276
408.70 0.9693159
408.80 0.9695118
408.90 0.9697513
409.00 0.9699295
409.10 0.9701075
409.20 0.9702851
409.30 0.9704625
409.40 0.970638
409.50 0.9707631
409.60 0.9708879
409.70 0.9710294
409.80 0.9712381
409.90 0.9714446
410.00 0.9715865
410.10 0.971817
410.20 0.971946
410.30 0.9720495
410.40 0.9721809
410.50 0.972401
410.60 0.9726207
410.70 0.972821
410.80 0.9729442
410.90 0.9730672
411.00 0.9732332
411.10 0.973415
411.20 0.9735966
411.30 0.9737546
411.40 0.9738235
411.50 0.9740177
411.60 0.9742115
411.70 0.9743975
411.80 0.974553
411.90 0.9746872
412.00 0.9749469
412.10 0.9749969
412.20 0.9752559
412.30 0.9753439
412.40 0.975579
412.50 0.9756578
412.60 0.9759304
412.70 0.9760612
412.80 0.9761564
412.90 0.976345
413.00 0.9764318
413.10 0.9766202
413.20 0.9768083
413.30 0.9769961
413.40 0.9771836
413.50 0.9773255
413.60 0.9773439
413.70 0.9775463
413.80 0.9777484
413.90 0.9779501
414.00 0.9781391
414.10 0.9782885
414.20 0.9784127
414.30 0.978458
414.40 0.9786687
414.50 0.9787502
414.60 0.9790313
414.70 0.9791791
414.80 0.9793266
414.90 0.9794739
415.00 0.9796209
415.10 0.9797677
415.20 0.9799045
415.30 0.9800103
415.40 0.9801159
415.50 0.9802239
415.60 0.980416
415.70 0.9806077
415.80 0.980786
415.90 0.9809227
416.00 0.981059
416.10 0.9812016
416.20 0.9813697
416.30 0.9815375
416.40 0.9817051
416.50 0.9818717
416.60 0.9820146
416.70 0.9821542
416.80 0.9821965
416.90 0.9823443
417.00 0.982529
417.10 0.9827256
417.20 0.982867
417.30 0.9830071
417.40 0.9831128
417.50 0.9832182
417.60 0.9833475
