# Version 2.1 - nm, norm@500 to 1, cut digits, bergeron_He_17000_70.dat_17000
# Wavelength(nm)  Flambda(ergs/cm^s/s/nm)
300.00 3.504159
300.10 3.501909
300.20 3.499576
300.30 3.497205
300.40 3.49456
300.50 3.491918
300.60 3.489279
300.70 3.486643
300.80 3.484009
300.90 3.481378
301.00 3.47875
301.10 3.476125
301.20 3.473502
301.30 3.470882
301.40 3.468265
301.50 3.46565
301.60 3.463038
301.70 3.460429
301.80 3.457822
301.90 3.455219
302.00 3.452618
302.10 3.449922
302.20 3.447218
302.30 3.444517
302.40 3.441818
302.50 3.439123
302.60 3.43643
302.70 3.43374
302.80 3.431053
302.90 3.428369
303.00 3.425687
303.10 3.423009
303.20 3.420333
303.30 3.417658
303.40 3.414967
303.50 3.412279
303.60 3.409593
303.70 3.406911
303.80 3.404231
303.90 3.401554
304.00 3.39888
304.10 3.396209
304.20 3.39354
304.30 3.390875
304.40 3.388212
304.50 3.385551
304.60 3.382934
304.70 3.380324
304.80 3.377717
304.90 3.375112
305.00 3.37251
305.10 3.369911
305.20 3.367314
305.30 3.36472
305.40 3.362129
305.50 3.35954
305.60 3.356954
305.70 3.354371
305.80 3.35179
305.90 3.349212
306.00 3.346637
306.10 3.344064
306.20 3.341494
306.30 3.338927
306.40 3.336275
306.50 3.333599
306.60 3.330927
306.70 3.328257
306.80 3.325589
306.90 3.322925
307.00 3.320263
307.10 3.317604
307.20 3.314948
307.30 3.312295
307.40 3.309644
307.50 3.306996
307.60 3.304351
307.70 3.301709
307.80 3.299069
307.90 3.296432
308.00 3.293798
308.10 3.291167
308.20 3.288538
308.30 3.285912
308.40 3.283289
308.50 3.280668
308.60 3.27805
308.70 3.275435
308.80 3.27295
308.90 3.270831
309.00 3.268007
309.10 3.265186
309.20 3.262368
309.30 3.259553
309.40 3.256766
309.50 3.254129
309.60 3.251496
309.70 3.248865
309.80 3.246237
309.90 3.243612
310.00 3.240989
310.10 3.238369
310.20 3.235752
310.30 3.233138
310.40 3.230631
310.50 3.228239
310.60 3.225851
310.70 3.223464
310.80 3.22108
310.90 3.218699
311.00 3.215722
311.10 3.212748
311.20 3.209778
311.30 3.2069
311.40 3.20428
311.50 3.201664
311.60 3.199049
311.70 3.196438
311.80 3.193829
311.90 3.191223
312.00 3.188619
312.10 3.186018
312.20 3.183532
312.30 3.180746
312.40 3.177775
312.50 3.175652
312.60 3.173169
312.70 3.170688
312.80 3.168211
312.90 3.16557
313.00 3.162754
313.10 3.159941
313.20 3.157131
313.30 3.15429
313.40 3.151357
313.50 3.148427
313.60 3.1455
313.70 3.142576
313.80 3.139655
313.90 3.136738
314.00 3.133823
314.10 3.130754
314.20 3.127687
314.30 3.124624
314.40 3.121565
314.50 3.118508
314.60 3.115455
314.70 3.112405
314.80 3.109084
314.90 3.10547
315.00 3.102381
315.10 3.098209
315.20 3.094041
315.30 3.089878
315.40 3.08572
315.50 3.081566
315.60 3.077417
315.70 3.072175
315.80 3.066939
315.90 3.061709
316.00 3.056485
316.10 3.051267
316.20 3.046055
316.30 3.047409
316.40 3.049581
316.50 3.036188
316.60 3.003985
316.70 2.99309
316.80 2.982208
316.90 2.980735
317.00 2.979263
317.10 2.977792
317.20 2.976322
317.30 2.983813
317.40 2.988662
317.50 2.986015
317.60 2.983372
317.70 2.98073
317.80 2.978092
317.90 2.961264
318.00 2.936953
318.10 2.897403
318.20 2.857903
318.30 2.818452
318.40 2.755798
318.50 2.627088
318.60 2.468488
318.70 2.060306
318.80 1.501192
318.90 2.12783
319.00 2.3854
319.10 2.534581
319.20 2.659045
319.30 2.713583
319.40 2.768053
319.50 2.822455
319.60 2.861148
319.70 2.878046
319.80 2.894922
319.90 2.911777
320.00 2.924657
320.10 2.933239
320.20 2.94057
320.30 2.9457
320.40 2.949136
320.50 2.951609
320.60 2.953376
320.70 2.954725
320.80 2.955499
320.90 2.955649
321.00 2.955798
321.10 2.955947
321.20 2.955355
321.30 2.95434
321.40 2.953327
321.50 2.952314
321.60 2.951302
321.70 2.95029
321.80 2.949398
321.90 2.948636
322.00 2.946907
322.10 2.945274
322.20 2.943643
322.30 2.942013
322.40 2.940385
322.50 2.938758
322.60 2.937132
322.70 2.935508
322.80 2.933792
322.90 2.931975
323.00 2.930159
323.10 2.928346
323.20 2.926534
323.30 2.924724
323.40 2.922916
323.50 2.921109
323.60 2.919304
323.70 2.9175
323.80 2.915698
323.90 2.913898
324.00 2.911682
324.10 2.909468
324.20 2.907256
324.30 2.905154
324.40 2.903272
324.50 2.901292
324.60 2.899314
324.70 2.897337
324.80 2.895363
324.90 2.89339
325.00 2.89142
325.10 2.889451
325.20 2.887545
325.30 2.88577
325.40 2.883996
325.50 2.882049
325.60 2.879889
325.70 2.877731
325.80 2.875576
325.90 2.873433
326.00 2.871305
326.10 2.869178
326.20 2.867054
326.30 2.865027
326.40 2.863272
326.50 2.8612
326.60 2.85913
326.70 2.857062
326.80 2.854997
326.90 2.852933
327.00 2.850871
327.10 2.848812
327.20 2.846754
327.30 2.844698
327.40 2.842644
327.50 2.840593
327.60 2.838543
327.70 2.836495
327.80 2.834449
327.90 2.832557
328.00 2.830386
328.10 2.827675
328.20 2.824967
328.30 2.822262
328.40 2.81956
328.50 2.817657
328.60 2.815942
328.70 2.814229
328.80 2.812484
328.90 2.810646
329.00 2.808809
329.10 2.806974
329.20 2.805141
329.30 2.803309
329.40 2.801479
329.50 2.799651
329.60 2.797825
329.70 2.796
329.80 2.794177
329.90 2.792356
330.00 2.790423
330.10 2.788353
330.20 2.786285
330.30 2.784219
330.40 2.782141
330.50 2.780049
330.60 2.777959
330.70 2.775871
330.80 2.773786
330.90 2.771702
331.00 2.76962
331.10 2.76754
331.20 2.765462
331.30 2.763386
331.40 2.761313
331.50 2.759423
331.60 2.757759
331.70 2.756097
331.80 2.7538
331.90 2.75148
332.00 2.749161
332.10 2.746845
332.20 2.744531
332.30 2.74222
332.40 2.73991
332.50 2.737603
332.60 2.735299
332.70 2.732996
332.80 2.730696
332.90 2.728398
333.00 2.726103
333.10 2.723506
333.20 2.720541
333.30 2.717579
333.40 2.714621
333.50 2.711665
333.60 2.708713
333.70 2.705764
333.80 2.702817
333.90 2.699874
334.00 2.696934
334.10 2.693269
334.20 2.688719
334.30 2.684174
334.40 2.679634
334.50 2.675099
334.60 2.670569
334.70 2.665461
334.80 2.65817
334.90 2.648765
335.00 2.639371
335.10 2.626658
335.20 2.610487
335.30 2.590868
335.40 2.559056
335.50 2.584682
335.60 2.602811
335.70 2.614183
335.80 2.62354
335.90 2.630104
336.00 2.633263
336.10 2.636417
336.20 2.639567
336.30 2.641135
336.40 2.640773
336.50 2.640411
336.60 2.64005
336.70 2.639688
336.80 2.639326
336.90 2.638744
337.00 2.637894
337.10 2.637044
337.20 2.636194
337.30 2.635152
337.40 2.633832
337.50 2.632513
337.60 2.631195
337.70 2.629879
337.80 2.628563
337.90 2.62714
338.00 2.625586
338.10 2.624033
338.20 2.622481
338.30 2.620931
338.40 2.619336
338.50 2.617627
338.60 2.61592
338.70 2.614214
338.80 2.61251
338.90 2.610808
339.00 2.609107
339.10 2.607408
339.20 2.60571
339.30 2.603782
339.40 2.601521
339.50 2.599392
339.60 2.597425
339.70 2.59546
339.80 2.593497
339.90 2.591535
340.00 2.589576
340.10 2.587618
340.20 2.585662
340.30 2.583708
340.40 2.581756
340.50 2.579805
340.60 2.577857
340.70 2.57591
340.80 2.573847
340.90 2.571617
341.00 2.569396
341.10 2.567184
341.20 2.564975
341.30 2.562768
341.40 2.560563
341.50 2.55836
341.60 2.556159
341.70 2.55396
341.80 2.551634
341.90 2.54915
342.00 2.54667
342.10 2.544191
342.20 2.541913
342.30 2.539622
342.40 2.536871
342.50 2.533747
342.60 2.530626
342.70 2.527508
342.80 2.524394
342.90 2.521283
343.00 2.517669
343.10 2.513441
343.20 2.509218
343.30 2.504999
343.40 2.499918
343.50 2.493595
343.60 2.48728
343.70 2.480971
343.80 2.474669
343.90 2.468374
344.00 2.459101
344.10 2.445546
344.20 2.432006
344.30 2.418481
344.40 2.397456
344.50 2.365647
344.60 2.326302
344.70 2.238189
344.80 2.308318
344.90 2.353914
345.00 2.386037
345.10 2.403943
345.20 2.417931
345.30 2.426294
345.40 2.434647
345.50 2.440981
345.60 2.444001
345.70 2.445791
345.80 2.447578
345.90 2.449363
346.00 2.451146
346.10 2.452926
346.20 2.453619
346.30 2.452749
346.40 2.45188
346.50 2.451012
346.60 2.450144
346.70 2.449277
346.80 2.44841
346.90 2.447544
347.00 2.446679
347.10 2.445814
347.20 2.444803
347.30 2.443581
347.40 2.44236
347.50 2.44114
347.60 2.439921
347.70 2.438703
347.80 2.437486
347.90 2.43627
348.00 2.435055
348.10 2.433841
348.20 2.432628
348.30 2.431416
348.40 2.430205
348.50 2.428995
348.60 2.427786
348.70 2.426438
348.80 2.425121
348.90 2.423911
349.00 2.422701
349.10 2.421493
349.20 2.420286
349.30 2.41908
349.40 2.417874
349.50 2.41667
349.60 2.415467
349.70 2.414264
349.80 2.413063
349.90 2.411863
350.00 2.410663
350.10 2.409465
350.20 2.408267
350.30 2.407097
350.40 2.405965
350.50 2.404834
350.60 2.403704
350.70 2.402575
350.80 2.401447
350.90 2.400319
351.00 2.399193
351.10 2.398067
351.20 2.396943
351.30 2.395819
351.40 2.394738
351.50 2.393732
351.60 2.392726
351.70 2.391721
351.80 2.390717
351.90 2.389714
352.00 2.388711
352.10 2.387709
352.20 2.387188
352.30 2.38659
352.40 2.385805
352.50 2.38502
352.60 2.384236
352.70 2.383452
352.80 2.382669
352.90 2.381886
353.00 2.381104
353.10 2.380322
353.20 2.379541
353.30 2.378761
353.40 2.37798
353.50 2.377221
353.60 2.376468
353.70 2.375715
353.80 2.374963
353.90 2.37421
354.00 2.373454
354.10 2.372698
354.20 2.371943
354.30 2.371189
354.40 2.370435
354.50 2.369681
354.60 2.368928
354.70 2.368175
354.80 2.367548
354.90 2.3671
355.00 2.366652
355.10 2.366205
355.20 2.365758
355.30 2.365029
355.40 2.364301
355.50 2.363574
355.60 2.362847
355.70 2.362089
355.80 2.361318
355.90 2.36118
356.00 2.36089
356.10 2.360281
356.20 2.359672
356.30 2.359064
356.40 2.358456
356.50 2.357848
356.60 2.357241
356.70 2.356634
356.80 2.356027
356.90 2.355421
357.00 2.354815
357.10 2.354209
357.20 2.353604
357.30 2.352999
357.40 2.352275
357.50 2.351341
357.60 2.350408
357.70 2.349476
357.80 2.348746
357.90 2.348016
358.00 2.346919
358.10 2.345731
358.20 2.344543
358.30 2.343357
358.40 2.342172
358.50 2.340988
358.60 2.339805
358.70 2.338623
358.80 2.337441
358.90 2.336261
359.00 2.334832
359.10 2.332961
359.20 2.331095
359.30 2.329252
359.40 2.327411
359.50 2.324557
359.60 2.321451
359.70 2.318349
359.80 2.313219
359.90 2.308095
360.00 2.301641
360.10 2.292822
360.20 2.284013
360.30 2.275213
360.40 2.266422
360.50 2.257641
360.60 2.239429
360.70 2.212333
360.80 2.185266
360.90 2.158229
361.00 2.124325
361.10 2.058928
361.20 1.974639
361.30 1.76714
361.40 1.919876
361.50 2.079599
361.60 2.130881
361.70 2.136601
361.80 2.145298
361.90 2.159284
362.00 2.173254
362.10 2.178561
362.20 2.178163
362.30 2.171478
362.40 2.1648
362.50 2.158128
362.60 2.151464
362.70 2.138789
362.80 2.124313
362.90 2.099587
363.00 2.074887
363.10 2.037501
363.20 2.000027
363.30 1.959336
363.40 1.936202
363.50 1.969599
363.60 2.029954
363.70 2.067638
363.80 2.092813
363.90 2.10907
364.00 2.125309
364.10 2.141529
364.20 2.157732
364.30 2.17321
364.40 2.188494
364.50 2.199738
364.60 2.207964
364.70 2.21618
364.80 2.224387
364.90 2.228713
365.00 2.233035
365.10 2.22935
365.20 2.205983
365.30 2.201087
365.40 2.222004
365.50 2.234914
365.60 2.247809
365.70 2.254946
365.80 2.262074
365.90 2.266322
366.00 2.269848
366.10 2.271917
366.20 2.273983
366.30 2.276047
366.40 2.278108
366.50 2.278305
366.60 2.278296
366.70 2.277978
366.80 2.27766
366.90 2.276694
367.00 2.274577
367.10 2.272462
367.20 2.270349
367.30 2.268238
367.40 2.266129
367.50 2.262561
367.60 2.258632
367.70 2.252932
367.80 2.247238
367.90 2.24155
368.00 2.235549
368.10 2.228339
368.20 2.218275
368.30 2.208192
368.40 2.198119
368.50 2.188057
368.60 2.178006
368.70 2.167966
368.80 2.157936
368.90 2.147226
369.00 2.13379
369.10 2.119991
369.20 2.10427
369.30 2.084682
369.40 2.065115
369.50 2.045569
369.60 2.018765
369.70 1.991989
369.80 1.956302
369.90 1.920563
370.00 1.884862
370.10 1.843034
370.20 1.77273
370.30 1.702365
370.40 1.615027
370.50 1.564338
370.60 1.654085
370.70 1.763676
370.80 1.830413
370.90 1.897078
371.00 1.91571
371.10 1.933838
371.20 1.953533
371.30 1.973206
371.40 1.994435
371.50 2.011738
371.60 2.029022
371.70 2.046288
371.80 2.063534
371.90 2.080762
372.00 2.093548
372.10 2.105967
372.20 2.114114
372.30 2.122252
372.40 2.130381
372.50 2.138501
372.60 2.146611
372.70 2.154713
372.80 2.158257
372.90 2.161796
373.00 2.164204
373.10 2.166599
373.20 2.15778
373.30 2.14897
373.40 2.054257
373.50 2.056685
373.60 2.107312
373.70 2.134972
373.80 2.151115
373.90 2.165553
374.00 2.173487
374.10 2.181412
374.20 2.189328
374.30 2.197236
374.40 2.201183
374.50 2.205362
374.60 2.208014
374.70 2.210643
374.80 2.21327
374.90 2.215893
375.00 2.217045
375.10 2.218196
375.20 2.219345
375.30 2.219161
375.40 2.218976
375.50 2.218792
375.60 2.218608
375.70 2.218423
375.80 2.218239
375.90 2.218054
376.00 2.216875
376.10 2.215696
376.20 2.214518
376.30 2.213341
376.40 2.212165
376.50 2.210671
376.60 2.208699
376.70 2.206729
376.80 2.204486
376.90 2.20197
377.00 2.199457
377.10 2.196945
377.20 2.194341
377.30 2.191383
377.40 2.188427
377.50 2.185474
377.60 2.181565
377.70 2.177659
377.80 2.173758
377.90 2.16986
378.00 2.165944
378.10 2.160035
378.20 2.154113
378.30 2.148197
378.40 2.142287
378.50 2.136383
378.60 2.130484
378.70 2.124592
378.80 2.118705
378.90 2.112121
379.00 2.104237
379.10 2.09582
379.20 2.087411
379.30 2.07843
379.40 2.068876
379.50 2.059333
379.60 2.048968
379.70 2.036612
379.80 2.021424
379.90 2.006252
380.00 1.991095
380.10 1.975954
380.20 1.960829
380.30 1.945719
380.40 1.930625
380.50 1.915547
380.60 1.892568
380.70 1.865328
380.80 1.838116
380.90 1.810932
381.00 1.783777
381.10 1.747534
381.20 1.709385
381.30 1.66832
381.40 1.618786
381.50 1.56012
381.60 1.492813
381.70 1.410246
381.80 1.319287
381.90 1.211151
382.00 1.155979
382.10 1.313844
382.20 1.442338
382.30 1.539823
382.40 1.618917
382.50 1.670512
382.60 1.722053
382.70 1.763032
382.80 1.781687
382.90 1.789888
383.00 1.798079
383.10 1.806262
383.20 1.816671
383.30 1.835469
383.40 1.853689
383.50 1.871052
383.60 1.886865
383.70 1.898951
383.80 1.911024
383.90 1.923084
384.00 1.935131
384.10 1.947166
384.20 1.959187
384.30 1.971196
384.40 1.980953
384.50 1.98846
384.60 1.99596
384.70 2.003451
384.80 2.010768
384.90 2.016576
385.00 2.020755
385.10 2.024905
385.20 2.027833
385.30 2.030708
385.40 2.032647
385.50 2.033651
385.60 2.034655
385.70 2.035657
385.80 2.036496
385.90 2.03673
386.00 2.036319
386.10 2.034805
386.20 2.028654
386.30 2.022509
386.40 2.012936
386.50 1.995903
386.60 1.965776
386.70 1.87862
386.80 1.629507
386.90 1.793093
387.00 1.851468
387.10 1.883746
387.20 1.906764
387.30 1.926597
387.40 1.94165
387.50 1.953923
387.60 1.962284
387.70 1.964274
387.80 1.966262
387.90 1.968247
388.00 1.967737
388.10 1.956362
388.20 1.932071
388.30 1.899291
388.40 1.866544
388.50 1.818909
388.60 1.735186
388.70 1.598035
388.80 1.309116
388.90 1.154517
389.00 1.473202
389.10 1.636073
389.20 1.73691
389.30 1.805943
389.40 1.854406
389.50 1.895798
389.60 1.925223
389.70 1.945071
389.80 1.956929
389.90 1.968775
390.00 1.980609
390.10 1.99243
390.20 2.004239
390.30 2.012148
390.40 2.015667
390.50 2.019181
390.60 2.022692
390.70 2.026199
390.80 2.028342
390.90 2.029125
391.00 2.028719
391.10 2.028202
391.20 2.027577
391.30 2.025617
391.40 2.022618
391.50 2.019623
391.60 2.016629
391.70 2.013639
391.80 2.010652
391.90 2.00718
392.00 2.00251
392.10 1.996869
392.20 1.990997
392.30 1.983104
392.40 1.975536
392.50 1.966929
392.60 1.957757
392.70 1.94846
392.80 1.953344
392.90 1.96115
393.00 1.969194
393.10 1.975875
393.20 1.980899
393.30 1.984665
393.40 1.988263
393.50 1.988906
393.60 1.98574
393.70 1.985737
393.80 1.988432
393.90 1.990067
394.00 1.991615
394.10 1.991507
394.20 1.990497
394.30 1.989029
394.40 1.986195
394.50 1.983253
394.60 1.978716
394.70 1.973808
394.80 1.967496
394.90 1.961148
395.00 1.953283
395.10 1.944115
395.20 1.932529
395.30 1.920263
395.40 1.90801
395.50 1.888747
395.60 1.866907
395.70 1.841027
395.80 1.804194
395.90 1.767397
396.00 1.728813
396.10 1.6617
396.20 1.567304
396.30 1.458052
396.40 1.229768
396.50 1.285236
396.60 1.608497
396.70 1.708266
396.80 1.708995
396.90 1.692054
397.00 1.729307
397.10 1.819488
397.20 1.852596
397.30 1.846617
397.40 1.850916
397.50 1.85521
397.60 1.859626
397.70 1.865313
397.80 1.870994
397.90 1.875682
398.00 1.8777
398.10 1.879715
398.20 1.880338
398.30 1.879394
398.40 1.878403
398.50 1.87587
398.60 1.872879
398.70 1.868462
398.80 1.863735
398.90 1.858734
399.00 1.853222
399.10 1.845474
399.20 1.837464
399.30 1.829463
399.40 1.821469
399.50 1.813483
399.60 1.803005
399.70 1.791613
399.80 1.780233
399.90 1.768863
400.00 1.757441
400.10 1.743946
400.20 1.729104
400.30 1.711565
400.40 1.693315
400.50 1.674662
400.60 1.652389
400.70 1.630614
400.80 1.605683
400.90 1.566264
401.00 1.546176
401.10 1.550984
401.20 1.551587
401.30 1.546243
401.40 1.532366
401.50 1.515769
401.60 1.498864
401.70 1.471522
401.80 1.440476
401.90 1.402615
402.00 1.361181
402.10 1.311227
402.20 1.249756
402.30 1.176853
402.40 1.094261
402.50 1.020968
402.60 0.9613644
402.70 0.9757361
402.80 1.076084
402.90 1.168751
403.00 1.258092
403.10 1.329975
403.20 1.38733
403.30 1.436309
403.40 1.48066
403.50 1.516887
403.60 1.551044
403.70 1.580759
403.80 1.605769
403.90 1.62612
404.00 1.645365
404.10 1.65802
404.20 1.665234
404.30 1.672442
404.40 1.665777
404.50 1.62616
404.60 1.610321
404.70 1.627058
404.80 1.643803
404.90 1.660482
405.00 1.674658
405.10 1.687126
405.20 1.699143
405.30 1.711148
405.40 1.719623
405.50 1.728089
405.60 1.736546
405.70 1.744995
405.80 1.753435
405.90 1.761867
406.00 1.76781
406.10 1.773746
406.20 1.779676
406.30 1.7856
406.40 1.791414
406.50 1.795909
406.60 1.80047
406.70 1.804297
406.80 1.808058
406.90 1.81179
407.00 1.814168
407.10 1.816545
407.20 1.818918
407.30 1.821289
407.40 1.823658
407.50 1.826024
407.60 1.828387
407.70 1.830748
407.80 1.833107
407.90 1.83543
408.00 1.836685
408.10 1.838
408.20 1.838875
408.30 1.839578
408.40 1.840279
408.50 1.840794
408.60 1.840913
408.70 1.841032
408.80 1.841163
408.90 1.84121
409.00 1.840687
409.10 1.840163
409.20 1.83964
409.30 1.839117
409.40 1.838584
409.50 1.837686
409.60 1.836788
409.70 1.835802
409.80 1.834456
409.90 1.833096
410.00 1.831254
410.10 1.829548
410.20 1.827274
410.30 1.824861
410.40 1.822276
410.50 1.819146
410.60 1.816019
410.70 1.812634
410.80 1.808209
410.90 1.803787
411.00 1.797535
411.10 1.790609
411.20 1.78369
411.30 1.775997
411.40 1.765046
411.50 1.749465
411.60 1.733898
411.70 1.71393
411.80 1.676328
411.90 1.632572
412.00 1.519643
412.10 1.164301
412.20 1.323086
412.30 1.441571
412.40 1.519161
412.50 1.564868
412.60 1.596468
412.70 1.615359
412.80 1.631062
412.90 1.645069
413.00 1.648441
413.10 1.645735
413.20 1.643032
413.30 1.640331
413.40 1.637633
413.50 1.633718
413.60 1.623054
413.70 1.60645
413.80 1.589862
413.90 1.573289
414.00 1.555699
414.10 1.534852
414.20 1.507942
414.30 1.4402
414.40 1.37902
414.50 1.419966
414.60 1.470897
414.70 1.509308
414.80 1.54339
414.90 1.563856
415.00 1.584301
415.10 1.604727
415.20 1.622967
415.30 1.634338
415.40 1.645697
415.50 1.656977
415.60 1.666054
415.70 1.675123
415.80 1.683613
415.90 1.690293
416.00 1.696966
416.10 1.703045
416.20 1.70677
416.30 1.710492
416.40 1.714209
416.50 1.717815
416.60 1.717936
416.70 1.717957
416.80 1.712159
416.90 1.674014
417.00 1.678013
417.10 1.699012
417.20 1.708567
417.30 1.717973
417.40 1.722807
417.50 1.727637
417.60 1.732136
417.70 1.735295
417.80 1.737441
417.90 1.739585
418.00 1.741727
418.10 1.743866
418.20 1.746003
418.30 1.74812
418.40 1.749479
418.50 1.750271
418.60 1.751061
418.70 1.751851
418.80 1.75264
418.90 1.753428
419.00 1.754215
419.10 1.755001
419.20 1.755786
419.30 1.756541
419.40 1.756363
419.50 1.756184
419.60 1.756
419.70 1.755793
419.80 1.755586
419.90 1.755315
420.00 1.754844
420.10 1.754372
420.20 1.753902
420.30 1.753431
420.40 1.752961
420.50 1.752491
420.60 1.752021
420.70 1.751551
420.80 1.751082
420.90 1.750602
421.00 1.74977
421.10 1.748939
421.20 1.748109
421.30 1.747279
421.40 1.74645
421.50 1.745622
421.60 1.744794
421.70 1.743966
421.80 1.743139
421.90 1.742313
422.00 1.741487
422.10 1.740604
422.20 1.739489
422.30 1.738375
422.40 1.737265
422.50 1.736257
422.60 1.73525
422.70 1.734244
422.80 1.733238
422.90 1.732233
423.00 1.731228
423.10 1.730225
423.20 1.729222
423.30 1.72822
423.40 1.727219
423.50 1.726218
423.60 1.725219
423.70 1.72422
423.80 1.723221
423.90 1.722224
424.00 1.721227
424.10 1.720231
424.20 1.719236
424.30 1.718241
424.40 1.717281
424.50 1.716104
424.60 1.714928
424.70 1.713753
424.80 1.712578
424.90 1.711405
425.00 1.710233
425.10 1.709061
