# Version 2.1 - nm, norm@500 to 1, cut digits, bergeron_He_5250_70.dat_5250
# Wavelength(nm)  Flambda(ergs/cm^s/s/nm)
300.00 0.1659616
300.10 0.1663211
300.20 0.1666804
300.30 0.1670408
300.40 0.1674107
300.50 0.1677802
300.60 0.1681491
300.70 0.1685175
300.80 0.1688853
300.90 0.1692527
301.00 0.1696195
301.10 0.1699858
301.20 0.1703515
301.30 0.1707168
301.40 0.1710815
301.50 0.1714457
301.60 0.1718094
301.70 0.1721725
301.80 0.1725352
301.90 0.1728973
302.00 0.1732589
302.10 0.1736382
302.20 0.174019
302.30 0.1743992
302.40 0.1747789
302.50 0.1751581
302.60 0.1755367
302.70 0.1759148
302.80 0.1762924
302.90 0.1766694
303.00 0.1770459
303.10 0.1774218
303.20 0.1777972
303.30 0.1781726
303.40 0.1785515
303.50 0.1789299
303.60 0.1793078
303.70 0.1796851
303.80 0.1800619
303.90 0.1804381
304.00 0.1808139
304.10 0.181189
304.20 0.1815637
304.30 0.1819378
304.40 0.1823114
304.50 0.1826845
304.60 0.1830729
304.70 0.1834626
304.80 0.1838518
304.90 0.1842403
305.00 0.1846284
305.10 0.1850159
305.20 0.1854028
305.30 0.1857892
305.40 0.186175
305.50 0.1865603
305.60 0.1869451
305.70 0.1873293
305.80 0.187713
305.90 0.1880961
306.00 0.1884787
306.10 0.1888607
306.20 0.1892422
306.30 0.1896232
306.40 0.1900204
306.50 0.190422
306.60 0.1908231
306.70 0.1912236
306.80 0.1916236
306.90 0.1920229
307.00 0.1924218
307.10 0.19282
307.20 0.1932177
307.30 0.1936149
307.40 0.1940114
307.50 0.1944075
307.60 0.1948029
307.70 0.1951979
307.80 0.1955922
307.90 0.195986
308.00 0.1963793
308.10 0.196772
308.20 0.1971642
308.30 0.1975558
308.40 0.1979468
308.50 0.1983373
308.60 0.1987273
308.70 0.1991167
308.80 0.1994979
308.90 0.1998568
309.00 0.2002649
309.10 0.2006724
309.20 0.2010793
309.30 0.2014857
309.40 0.2018908
309.50 0.2022915
309.60 0.2026916
309.70 0.2030911
309.80 0.20349
309.90 0.2038884
310.00 0.2042863
310.10 0.2046836
310.20 0.2050803
310.30 0.2054765
310.40 0.2058787
310.50 0.2062876
310.60 0.2066958
310.70 0.2071035
310.80 0.2075107
310.90 0.2079173
311.00 0.208331
311.10 0.2087442
311.20 0.2091568
311.30 0.209568
311.40 0.2099761
311.50 0.2103836
311.60 0.2107906
311.70 0.211197
311.80 0.2116028
311.90 0.212008
312.00 0.2124127
312.10 0.2128169
312.20 0.2132253
312.30 0.2136361
312.40 0.2140422
312.50 0.2144689
312.60 0.2148967
312.70 0.2153239
312.80 0.2157504
312.90 0.2161699
313.00 0.2165818
313.10 0.2169931
313.20 0.2174038
313.30 0.2178158
313.40 0.2182322
313.50 0.2186481
313.60 0.2190634
313.70 0.2194782
313.80 0.2198923
313.90 0.2203059
314.00 0.220719
314.10 0.2211452
314.20 0.2215708
314.30 0.2219958
314.40 0.2224202
314.50 0.222844
314.60 0.2232673
314.70 0.22369
314.80 0.2241134
314.90 0.2245308
315.00 0.2249377
315.10 0.2253613
315.20 0.2257843
315.30 0.2262068
315.40 0.2266286
315.50 0.2270499
315.60 0.2274706
315.70 0.2278969
315.80 0.2283226
315.90 0.2287476
316.00 0.2291721
316.10 0.2295777
316.20 0.2299827
316.30 0.2304605
316.40 0.2308643
316.50 0.2312676
316.60 0.2317435
316.70 0.2321457
316.80 0.2325473
316.90 0.2329848
317.00 0.2334218
317.10 0.2338581
317.20 0.2342939
317.30 0.2347324
317.40 0.2351691
317.50 0.2356017
317.60 0.2360337
317.70 0.2364651
317.80 0.2368959
317.90 0.2373199
318.00 0.2377643
318.10 0.2381948
318.20 0.2386246
318.30 0.2390538
318.40 0.2394825
318.50 0.2399106
318.60 0.2403287
318.70 0.2407917
318.80 0.2411855
318.90 0.2416437
319.00 0.2421143
319.10 0.2425388
319.20 0.2429665
319.30 0.2434044
319.40 0.2438416
319.50 0.2442783
319.60 0.2447284
319.70 0.2451638
319.80 0.2455987
319.90 0.2460329
320.00 0.2464597
320.10 0.2468784
320.20 0.2473252
320.30 0.2477827
320.40 0.248214
320.50 0.2486375
320.60 0.2491061
320.70 0.2495213
320.80 0.249953
320.90 0.2504027
321.00 0.2508517
321.10 0.2513002
321.20 0.2517569
321.30 0.2522025
321.40 0.2526475
321.50 0.2530919
321.60 0.2535358
321.70 0.253979
321.80 0.254432
321.90 0.2548957
322.00 0.2553361
322.10 0.2557843
322.20 0.2562319
322.30 0.2566789
322.40 0.2571253
322.50 0.2575711
322.60 0.2580163
322.70 0.2584609
322.80 0.2589149
322.90 0.2593669
323.00 0.2598182
323.10 0.2602689
323.20 0.2607189
323.30 0.2611684
323.40 0.2616173
323.50 0.2620656
323.60 0.2625132
323.70 0.2629603
323.80 0.2634068
323.90 0.2638526
324.00 0.2643063
324.10 0.2647593
324.20 0.2652117
324.30 0.2656663
324.40 0.266123
324.50 0.2665736
324.60 0.2670236
324.70 0.267473
324.80 0.2679218
324.90 0.26837
325.00 0.2688176
325.10 0.2692646
325.20 0.2697162
325.30 0.2701783
325.40 0.2706398
325.50 0.271101
325.60 0.2715618
325.70 0.2720221
325.80 0.2724817
325.90 0.2729386
326.00 0.2733927
326.10 0.2738461
326.20 0.274299
326.30 0.2747605
326.40 0.2752478
326.50 0.2757095
326.60 0.2761705
326.70 0.2766309
326.80 0.2770907
326.90 0.2775499
327.00 0.2780085
327.10 0.2784665
327.20 0.2789238
327.30 0.2793806
327.40 0.2798367
327.50 0.2802922
327.60 0.2807471
327.70 0.2812014
327.80 0.2816551
327.90 0.2821262
328.00 0.2826026
328.10 0.2830617
328.20 0.2835203
328.30 0.2839783
328.40 0.2844356
328.50 0.2849094
328.60 0.2853866
328.70 0.2858632
328.80 0.2863375
328.90 0.2868064
329.00 0.2872747
329.10 0.2877424
329.20 0.2882094
329.30 0.2886759
329.40 0.2891417
329.50 0.2896069
329.60 0.2900715
329.70 0.2905354
329.80 0.2909988
329.90 0.2914615
330.00 0.2919263
330.10 0.2923937
330.20 0.2928606
330.30 0.2933268
330.40 0.2937965
330.50 0.2942702
330.60 0.2947432
330.70 0.2952156
330.80 0.2956873
330.90 0.2961585
331.00 0.296629
331.10 0.2970989
331.20 0.2975681
331.30 0.2980368
331.40 0.2985048
331.50 0.2989824
331.60 0.2994718
331.70 0.2999606
331.80 0.300441
331.90 0.3009204
332.00 0.3013991
332.10 0.3018773
332.20 0.3023548
332.30 0.3028316
332.40 0.3033079
332.50 0.3037835
332.60 0.3042585
332.70 0.3047329
332.80 0.3052066
332.90 0.3056797
333.00 0.3061522
333.10 0.3066265
333.20 0.3071031
333.30 0.3075791
333.40 0.3080545
333.50 0.3085293
333.60 0.3090034
333.70 0.3094769
333.80 0.3099498
333.90 0.310422
334.00 0.3108937
334.10 0.3113696
334.20 0.3118509
334.30 0.3123316
334.40 0.3128117
334.50 0.3132912
334.60 0.31377
334.70 0.3142603
334.80 0.3147574
334.90 0.3152434
335.00 0.3157287
335.10 0.3161862
335.20 0.316683
335.30 0.3171645
335.40 0.3176274
335.50 0.3181549
335.60 0.3186166
335.70 0.3190922
335.80 0.3195852
335.90 0.3200702
336.00 0.3205457
336.10 0.3210205
336.20 0.3214947
336.30 0.3219755
336.40 0.3224647
336.50 0.3229532
336.60 0.3234411
336.70 0.3239283
336.80 0.3244149
336.90 0.3249051
337.00 0.3253997
337.10 0.3258936
337.20 0.3263869
337.30 0.3268777
337.40 0.327365
337.50 0.3278517
337.60 0.3283378
337.70 0.3288232
337.80 0.329308
337.90 0.3297947
338.00 0.3302839
338.10 0.3307725
338.20 0.3312604
338.30 0.3317477
338.40 0.3322372
338.50 0.332733
338.60 0.3332281
338.70 0.3337225
338.80 0.3342164
338.90 0.3347095
339.00 0.3352021
339.10 0.335694
339.20 0.3361853
339.30 0.3366734
339.40 0.3371572
339.50 0.3376455
339.60 0.3381392
339.70 0.3386323
339.80 0.3391248
339.90 0.3396166
340.00 0.3401078
340.10 0.3405983
340.20 0.3410882
340.30 0.3415775
340.40 0.3420662
340.50 0.3425542
340.60 0.3430416
340.70 0.3435283
340.80 0.3440231
340.90 0.3445297
341.00 0.3450329
341.10 0.3455319
341.20 0.3460303
341.30 0.3465281
341.40 0.3470252
341.50 0.3475217
341.60 0.3480175
341.70 0.3485127
341.80 0.3490054
341.90 0.3494951
342.00 0.3499843
342.10 0.3504728
342.20 0.3509787
342.30 0.3515066
342.40 0.3520146
342.50 0.3525119
342.60 0.3530087
342.70 0.3535047
342.80 0.3540002
342.90 0.354495
343.00 0.3549863
343.10 0.3554734
343.20 0.3559599
343.30 0.3564458
343.40 0.3569402
343.50 0.3574473
343.60 0.3579537
343.70 0.3584595
343.80 0.3589646
343.90 0.3594691
344.00 0.3599729
344.10 0.3604761
344.20 0.3609786
344.30 0.3614805
344.40 0.3619818
344.50 0.3624824
344.60 0.3629459
344.70 0.3634746
344.80 0.3640041
344.90 0.3644713
345.00 0.3649758
345.10 0.3654725
345.20 0.3659769
345.30 0.3664923
345.40 0.3670071
345.50 0.3675133
345.60 0.3680125
345.70 0.3685156
345.80 0.3690181
345.90 0.36952
346.00 0.3700212
346.10 0.3705218
346.20 0.3710251
346.30 0.3715325
346.40 0.3720393
346.50 0.3725455
346.60 0.373051
346.70 0.3735559
346.80 0.3740601
346.90 0.3745637
347.00 0.3750666
347.10 0.3755689
347.20 0.3760742
347.30 0.376584
347.40 0.3770932
347.50 0.3776018
347.60 0.3781097
347.70 0.378617
347.80 0.3791236
347.90 0.3796296
348.00 0.3801349
348.10 0.3806396
348.20 0.3811436
348.30 0.381647
348.40 0.3821498
348.50 0.3826519
348.60 0.3831534
348.70 0.3836499
348.80 0.3841531
348.90 0.384668
349.00 0.3851823
349.10 0.3856959
349.20 0.3862088
349.30 0.3867211
349.40 0.3872328
349.50 0.3877438
349.60 0.3882542
349.70 0.3887639
349.80 0.3892729
349.90 0.3897814
350.00 0.3902891
350.10 0.3907963
350.20 0.3913027
350.30 0.3918112
350.40 0.3923229
350.50 0.3928339
350.60 0.3933442
350.70 0.3938539
350.80 0.3943629
350.90 0.3948714
351.00 0.3953791
351.10 0.3958862
351.20 0.3963927
351.30 0.3968986
351.40 0.3974072
351.50 0.3979211
351.60 0.3984345
351.70 0.3989472
351.80 0.3994592
351.90 0.3999706
352.00 0.4004813
352.10 0.4009915
352.20 0.4015161
352.30 0.4020375
352.40 0.4025521
352.50 0.403066
352.60 0.4035793
352.70 0.404092
352.80 0.404604
352.90 0.4051153
353.00 0.405626
353.10 0.4061361
353.20 0.4066455
353.30 0.4071543
353.40 0.4076624
353.50 0.4081823
353.60 0.4087045
353.70 0.4092261
353.80 0.4097471
353.90 0.4102652
354.00 0.410779
354.10 0.4112921
354.20 0.4118046
354.30 0.4123164
354.40 0.4128276
354.50 0.4133381
354.60 0.413848
354.70 0.4143573
354.80 0.4148704
354.90 0.4153893
355.00 0.4159076
355.10 0.4164252
355.20 0.4169421
355.30 0.4174624
355.40 0.417982
355.50 0.4185009
355.60 0.4190192
355.70 0.4195322
355.80 0.4200424
355.90 0.4205441
356.00 0.4210586
356.10 0.4215792
356.20 0.4220992
356.30 0.4226185
356.40 0.4231371
356.50 0.4236551
356.60 0.4241725
356.70 0.4246892
356.80 0.4252053
356.90 0.4257207
357.00 0.4262355
357.10 0.4267497
357.20 0.4272632
357.30 0.427776
357.40 0.4282884
357.50 0.4288003
357.60 0.4293116
357.70 0.4298223
357.80 0.4303373
357.90 0.4308517
358.00 0.4313714
358.10 0.4318921
358.20 0.4324121
358.30 0.4329314
358.40 0.4334501
358.50 0.4339682
358.60 0.4344856
358.70 0.4350023
358.80 0.4355185
358.90 0.4360339
359.00 0.4365516
359.10 0.4370737
359.20 0.4375972
359.30 0.438134
359.40 0.43867
359.50 0.4391819
359.60 0.4396872
359.70 0.4401918
359.80 0.4407198
359.90 0.4412471
360.00 0.4417729
360.10 0.4422965
360.20 0.4428194
360.30 0.4433417
360.40 0.4438634
360.50 0.4443844
360.60 0.4448761
360.70 0.4454046
360.80 0.4459325
360.90 0.4464597
361.00 0.4469609
361.10 0.447479
361.20 0.4480121
361.30 0.4485171
361.40 0.4490579
361.50 0.44957
361.60 0.4500989
361.70 0.4506069
361.80 0.4511177
361.90 0.4516341
362.00 0.4521499
362.10 0.4526747
362.20 0.4531998
362.30 0.4537217
362.40 0.4542429
362.50 0.4547634
362.60 0.4552834
362.70 0.4558059
362.80 0.4563286
362.90 0.456853
363.00 0.4573767
363.10 0.4578871
363.20 0.4583966
363.30 0.4589079
363.40 0.4594329
363.50 0.4599573
363.60 0.460481
363.70 0.4610103
363.80 0.4615266
363.90 0.462051
364.00 0.4625749
364.10 0.463098
364.20 0.4636205
364.30 0.4641354
364.40 0.4646479
364.50 0.4651735
364.60 0.4656883
364.70 0.4662024
364.80 0.4667159
364.90 0.4672589
365.00 0.4678012
365.10 0.4683153
365.20 0.4688288
365.30 0.4693416
365.40 0.4698539
365.50 0.4703929
365.60 0.4709313
365.70 0.4714466
365.80 0.4719612
365.90 0.4724664
366.00 0.4729687
366.10 0.4734902
366.20 0.4740111
366.30 0.4745313
366.40 0.4750509
366.50 0.4756026
366.60 0.4761153
366.70 0.4766408
366.80 0.4771656
366.90 0.4776897
367.00 0.478213
367.10 0.4787356
367.20 0.4792576
367.30 0.4797789
367.40 0.4802996
367.50 0.4808221
367.60 0.4813446
367.70 0.481868
367.80 0.4823908
367.90 0.4829129
368.00 0.4834401
368.10 0.4839279
368.20 0.4844517
368.30 0.4849753
368.40 0.4854982
368.50 0.4860205
368.60 0.4865422
368.70 0.4870633
368.80 0.4875837
368.90 0.4880984
369.00 0.4886306
369.10 0.489169
369.20 0.4896654
369.30 0.490189
369.40 0.490712
369.50 0.4912344
369.60 0.49177
369.70 0.4923049
369.80 0.4928217
369.90 0.4933376
370.00 0.4938529
370.10 0.4943997
370.20 0.4949099
370.30 0.4954182
370.40 0.4959524
370.50 0.4964601
370.60 0.4969659
370.70 0.4975065
370.80 0.4980344
370.90 0.4985616
371.00 0.4990697
371.10 0.4995769
371.20 0.5001022
371.30 0.500627
371.40 0.5011823
371.50 0.5017042
371.60 0.5022255
371.70 0.5027462
371.80 0.5032663
371.90 0.5037857
372.00 0.5042648
372.10 0.5047884
372.20 0.5053114
372.30 0.5058337
372.40 0.5063554
372.50 0.5068765
372.60 0.507397
372.70 0.5079168
372.80 0.5084583
372.90 0.5089991
373.00 0.5095211
373.10 0.5100424
373.20 0.510559
373.30 0.511075
373.40 0.5115904
373.50 0.5121052
373.60 0.5126193
373.70 0.5131328
373.80 0.5136654
373.90 0.5142104
374.00 0.514722
374.10 0.515233
374.20 0.5157434
374.30 0.5162531
374.40 0.516795
374.50 0.5173154
374.60 0.517838
374.70 0.5183604
374.80 0.518882
374.90 0.5194031
375.00 0.5199259
375.10 0.520448
375.20 0.5209695
375.30 0.5215177
375.40 0.5220652
375.50 0.522612
375.60 0.5231582
375.70 0.5237037
375.80 0.5242486
375.90 0.5247928
376.00 0.5250274
376.10 0.5255363
376.20 0.5260473
376.30 0.5265577
376.40 0.5270675
376.50 0.5276178
376.60 0.5282293
376.70 0.5288401
376.80 0.529366
376.90 0.5298073
377.00 0.530248
377.10 0.5306882
377.20 0.5311451
377.30 0.5316661
377.40 0.5321865
377.50 0.5327063
377.60 0.5333188
377.70 0.5339306
377.80 0.5345417
377.90 0.5351521
378.00 0.5354046
378.10 0.5359445
378.20 0.536492
378.30 0.5370389
378.40 0.5375851
378.50 0.5381307
378.60 0.5386756
378.70 0.5392198
378.80 0.5397635
378.90 0.5402816
379.00 0.540753
379.10 0.5412843
379.20 0.541815
379.30 0.5423484
379.40 0.5428844
379.50 0.5434197
379.60 0.5439682
379.70 0.5445262
379.80 0.5450436
379.90 0.5455605
380.00 0.5460767
380.10 0.5465923
380.20 0.5471073
380.30 0.5476216
380.40 0.5481354
380.50 0.5486485
380.60 0.5491968
380.70 0.5497134
380.80 0.5502295
380.90 0.5507449
381.00 0.5512596
381.10 0.5516017
381.20 0.5521395
381.30 0.5525051
381.40 0.5529871
381.50 0.553731
381.60 0.55423
381.70 0.5545349
381.80 0.5549899
381.90 0.5557051
382.00 0.5564194
382.10 0.5568818
382.20 0.5571428
382.30 0.5576041
382.40 0.5581063
382.50 0.55867
382.60 0.5592331
382.70 0.5598791
382.80 0.560511
382.90 0.5610346
383.00 0.5615575
383.10 0.5620799
383.20 0.5626043
383.30 0.5631382
383.40 0.5636258
383.50 0.5640444
383.60 0.5643256
383.70 0.5648848
383.80 0.5654433
383.90 0.5660012
384.00 0.5665584
384.10 0.567115
384.20 0.5676709
384.30 0.5682261
384.40 0.5687606
384.50 0.5692743
384.60 0.5697874
384.70 0.5702999
384.80 0.570763
384.90 0.5711381
385.00 0.571691
385.10 0.5722442
385.20 0.5727772
385.30 0.5732323
385.40 0.5737138
385.50 0.5742215
385.60 0.5747286
385.70 0.5752351
385.80 0.5757537
385.90 0.5763195
386.00 0.5768018
386.10 0.5772066
386.20 0.5776672
386.30 0.5781272
386.40 0.5788186
386.50 0.5792946
386.60 0.579695
386.70 0.5802535
386.80 0.580934
386.90 0.5814913
387.00 0.5818029
387.10 0.5824813
387.20 0.5830243
387.30 0.5833591
387.40 0.5837879
387.50 0.5844273
387.60 0.5850391
387.70 0.5854692
387.80 0.5858989
387.90 0.5863281
388.00 0.5868412
388.10 0.5873492
388.20 0.5879226
388.30 0.5885464
388.40 0.5891695
388.50 0.5896171
388.60 0.5899259
388.70 0.5907566
388.80 0.5911666
388.90 0.5916203
389.00 0.5920829
389.10 0.5926955
389.20 0.5930968
389.30 0.5935998
389.40 0.5940392
389.50 0.5945055
389.60 0.5950779
389.70 0.5957901
389.80 0.5963054
389.90 0.5968201
390.00 0.5973342
390.10 0.5978477
390.20 0.5983606
390.30 0.5988522
390.40 0.5993201
390.50 0.5997874
390.60 0.6002542
390.70 0.6007204
390.80 0.6012066
390.90 0.6017126
391.00 0.6022928
391.10 0.6026832
391.20 0.6031985
391.30 0.6039516
391.40 0.604441
391.50 0.6049299
391.60 0.6054181
391.70 0.6059058
391.80 0.6063929
391.90 0.6069248
392.00 0.6074811
392.10 0.6079974
392.20 0.6085115
392.30 0.6089294
392.40 0.6092733
392.50 0.6098896
392.60 0.610376
392.70 0.6107786
392.80 0.6111807
392.90 0.6117646
393.00 0.6122111
393.10 0.6127861
393.20 0.613477
393.30 0.6138763
393.40 0.6143296
393.50 0.6147565
393.60 0.6152974
393.70 0.6159846
393.80 0.6163386
393.90 0.6167348
394.00 0.6171353
394.10 0.6176765
394.20 0.6183216
394.30 0.6188972
394.40 0.6191943
394.50 0.6197452
394.60 0.6202206
394.70 0.6207111
394.80 0.6212601
394.90 0.6218127
395.00 0.6224763
395.10 0.6228925
395.20 0.6233294
395.30 0.6237785
395.40 0.6242271
395.50 0.6248134
395.60 0.6254502
395.70 0.626028
395.80 0.6264478
395.90 0.6268672
396.00 0.6273225
396.10 0.6280275
396.20 0.6284114
396.30 0.6289209
396.40 0.6293038
396.50 0.6297621
396.60 0.6304529
396.70 0.6307646
396.80 0.6313173
396.90 0.6318283
397.00 0.6324408
397.10 0.6328975
397.20 0.6334064
397.30 0.6340066
397.40 0.6344178
397.50 0.6348285
397.60 0.6352471
397.70 0.6357499
397.80 0.6362522
397.90 0.6367554
398.00 0.6372623
398.10 0.6377686
398.20 0.6382425
398.30 0.63868
398.40 0.6391263
398.50 0.6398714
398.60 0.6402004
398.70 0.6407318
398.80 0.6413517
398.90 0.6418807
399.00 0.6422415
399.10 0.6429072
399.20 0.6433241
399.30 0.6437405
399.40 0.6441564
399.50 0.6445718
399.60 0.6450904
399.70 0.6456468
399.80 0.6462026
399.90 0.6467577
400.00 0.647307
400.10 0.6476884
400.20 0.6481975
400.30 0.6487259
400.40 0.6491252
400.50 0.6497861
400.60 0.6501291
400.70 0.6507182
400.80 0.6510168
400.90 0.6513766
401.00 0.6518432
401.10 0.6525508
401.20 0.6528908
401.30 0.6533445
401.40 0.6538641
401.50 0.654381
401.60 0.6549036
401.70 0.6556265
401.80 0.6559399
401.90 0.6564235
402.00 0.6567794
402.10 0.6573273
402.20 0.6579073
402.30 0.658294
402.40 0.6589215
402.50 0.6591906
402.60 0.6597925
402.70 0.6603452
402.80 0.6606954
402.90 0.6613164
403.00 0.6618914
403.10 0.662195
403.20 0.6627898
403.30 0.6631549
403.40 0.663721
403.50 0.6642181
403.60 0.6646822
403.70 0.6651787
403.80 0.665772
403.90 0.6662087
404.00 0.6666963
404.10 0.6670066
404.20 0.6675745
404.30 0.6681418
404.40 0.6685045
404.50 0.6690502
404.60 0.6696156
404.70 0.6699565
404.80 0.6705468
404.90 0.6710843
405.00 0.671455
405.10 0.6719543
405.20 0.6724204
405.30 0.6728859
405.40 0.6733722
405.50 0.6738579
405.60 0.6743431
405.70 0.6748277
405.80 0.6753117
405.90 0.6757952
406.00 0.6762681
406.10 0.6767404
406.20 0.6772123
406.30 0.6776835
406.40 0.6781745
406.50 0.6787963
406.60 0.679016
406.70 0.6795967
406.80 0.6801283
406.90 0.6804769
407.00 0.6809838
407.10 0.6814902
407.20 0.6819959
407.30 0.6825012
407.40 0.6830058
407.50 0.6835098
407.60 0.6840133
407.70 0.6845162
407.80 0.6850185
407.90 0.6855168
408.00 0.6859032
408.10 0.6863648
408.20 0.6868222
408.30 0.6872024
408.40 0.6875821
408.50 0.6883179
408.60 0.6887411
408.70 0.6891638
408.80 0.6896134
408.90 0.6902245
409.00 0.6906444
409.10 0.6910639
409.20 0.6914828
409.30 0.6919013
409.40 0.6923244
409.50 0.6929137
409.60 0.6935023
409.70 0.694066
409.80 0.6945324
409.90 0.6949995
410.00 0.6955078
410.10 0.6958955
410.20 0.6963827
410.30 0.6968942
410.40 0.6973729
410.50 0.6977491
410.60 0.6981248
410.70 0.6985331
410.80 0.6990729
410.90 0.6996121
411.00 0.7000478
411.10 0.7004449
411.20 0.7008416
411.30 0.7013127
411.40 0.7020726
411.50 0.7024968
411.60 0.7029204
411.70 0.7033637
411.80 0.7038871
411.90 0.7042371
412.00 0.7047595
412.10 0.7051733
412.20 0.7058025
412.30 0.7060391
412.40 0.706443
412.50 0.7070547
412.60 0.7073275
412.70 0.707778
412.80 0.7082726
412.90 0.7090206
413.00 0.7092957
413.10 0.7098052
413.20 0.710314
413.30 0.7108223
413.40 0.71133
413.50 0.7117563
413.60 0.7119574
413.70 0.7124703
413.80 0.7129827
413.90 0.7134945
414.00 0.7140058
414.10 0.7145164
414.20 0.7150778
414.30 0.7153736
414.40 0.7157545
414.50 0.7163812
414.60 0.7166344
414.70 0.7171418
414.80 0.7176486
414.90 0.7181549
415.00 0.7186606
415.10 0.7191657
415.20 0.7196569
415.30 0.7201053
415.40 0.7205531
415.50 0.7209995
415.60 0.7214136
415.70 0.7218272
415.80 0.7222588
415.90 0.7227484
416.00 0.7232375
416.10 0.7237214
416.20 0.724186
416.30 0.72465
416.40 0.7251136
416.50 0.7255776
416.60 0.7260745
416.70 0.7265456
416.80 0.7268663
416.90 0.7273415
417.00 0.7276096
417.10 0.7281292
417.20 0.728623
417.30 0.7291133
417.40 0.7295078
417.50 0.7299018
