# Version 2.1 - nm, norm@500 to 1, cut digits, bergeron_He_8000_75.dat_8000
# Wavelength(nm)  Flambda(ergs/cm^s/s/nm)
300.00 1.283587
300.10 1.284071
300.20 1.284573
300.30 1.285049
300.40 1.285355
300.50 1.285661
300.60 1.285967
300.70 1.286271
300.80 1.286575
300.90 1.286879
301.00 1.287181
301.10 1.287483
301.20 1.287785
301.30 1.288085
301.40 1.288385
301.50 1.288684
301.60 1.288983
301.70 1.28928
301.80 1.289578
301.90 1.289874
302.00 1.29017
302.10 1.290475
302.20 1.29078
302.30 1.291085
302.40 1.291389
302.50 1.291693
302.60 1.291995
302.70 1.292297
302.80 1.292599
302.90 1.292899
303.00 1.293199
303.10 1.293499
303.20 1.293797
303.30 1.294091
303.40 1.294344
303.50 1.294597
303.60 1.294849
303.70 1.2951
303.80 1.295351
303.90 1.295601
304.00 1.295851
304.10 1.2961
304.20 1.296348
304.30 1.296596
304.40 1.296843
304.50 1.29709
304.60 1.297375
304.70 1.297664
304.80 1.297953
304.90 1.298241
305.00 1.298528
305.10 1.298814
305.20 1.2991
305.30 1.299386
305.40 1.29967
305.50 1.299954
305.60 1.300237
305.70 1.30052
305.80 1.300802
305.90 1.301083
306.00 1.301364
306.10 1.301644
306.20 1.301924
306.30 1.302202
306.40 1.302481
306.50 1.302759
306.60 1.303037
306.70 1.303314
306.80 1.303591
306.90 1.303867
307.00 1.304142
307.10 1.304416
307.20 1.30469
307.30 1.304963
307.40 1.305236
307.50 1.305508
307.60 1.305779
307.70 1.30605
307.80 1.30632
307.90 1.30659
308.00 1.306859
308.10 1.307127
308.20 1.307394
308.30 1.307661
308.40 1.307928
308.50 1.308194
308.60 1.308459
308.70 1.308723
308.80 1.308942
308.90 1.309034
309.00 1.309404
309.10 1.309773
309.20 1.310141
309.30 1.310509
309.40 1.310843
309.50 1.310972
309.60 1.311101
309.70 1.31123
309.80 1.311358
309.90 1.311485
310.00 1.311613
310.10 1.31174
310.20 1.311866
310.30 1.311992
310.40 1.312165
310.50 1.312389
310.60 1.312612
310.70 1.312834
310.80 1.313056
310.90 1.313278
311.00 1.313682
311.10 1.314086
311.20 1.314489
311.30 1.314834
311.40 1.315018
311.50 1.315202
311.60 1.315385
311.70 1.315567
311.80 1.315749
311.90 1.315931
312.00 1.316112
312.10 1.316293
312.20 1.316847
312.30 1.317098
312.40 1.316898
312.50 1.317398
312.60 1.317487
312.70 1.317576
312.80 1.317665
312.90 1.317831
313.00 1.318082
313.10 1.318332
313.20 1.318582
313.30 1.318835
313.40 1.319103
313.50 1.319369
313.60 1.319635
313.70 1.3199
313.80 1.320165
313.90 1.320429
314.00 1.320693
314.10 1.320887
314.20 1.321081
314.30 1.321275
314.40 1.321468
314.50 1.32166
314.60 1.321852
314.70 1.322043
314.80 1.322346
314.90 1.322635
315.00 1.322564
315.10 1.322673
315.20 1.322781
315.30 1.322889
315.40 1.322996
315.50 1.323103
315.60 1.32321
315.70 1.323505
315.80 1.323799
315.90 1.324093
316.00 1.324386
316.10 1.324678
316.20 1.32497
316.30 1.325261
316.40 1.324988
316.50 1.325278
316.60 1.326131
316.70 1.325857
316.80 1.325582
316.90 1.32587
317.00 1.326158
317.10 1.326445
317.20 1.326731
317.30 1.327184
317.40 1.327507
317.50 1.32746
317.60 1.327412
317.70 1.327365
317.80 1.327317
317.90 1.327953
318.00 1.328172
318.10 1.328453
318.20 1.328734
318.30 1.329014
318.40 1.329148
318.50 1.32887
318.60 1.329171
318.70 1.328893
318.80 1.329004
318.90 1.329448
319.00 1.329846
319.10 1.330122
319.20 1.330338
319.30 1.330384
319.40 1.330429
319.50 1.330475
319.60 1.330403
319.70 1.33074
319.80 1.331076
319.90 1.331412
320.00 1.331716
320.10 1.331987
320.20 1.331728
320.30 1.331997
320.40 1.332266
320.50 1.332204
320.60 1.33223
320.70 1.332498
320.80 1.332765
320.90 1.333031
321.00 1.333296
321.10 1.333561
321.20 1.333547
321.30 1.333663
321.40 1.333779
321.50 1.333894
321.60 1.33401
321.70 1.334124
321.80 1.33414
321.90 1.334047
322.00 1.334801
322.10 1.33492
322.20 1.335039
322.30 1.335157
322.40 1.335275
322.50 1.335393
322.60 1.33551
322.70 1.335626
322.80 1.33554
322.90 1.335675
323.00 1.335809
323.10 1.335943
323.20 1.336077
323.30 1.33621
323.40 1.336343
323.50 1.336475
323.60 1.336607
323.70 1.336738
323.80 1.33687
323.90 1.337
324.00 1.337038
324.10 1.337075
324.20 1.337113
324.30 1.337284
324.40 1.337617
324.50 1.337712
324.60 1.337808
324.70 1.337903
324.80 1.337997
324.90 1.338092
325.00 1.338186
325.10 1.338279
325.20 1.338436
325.30 1.338729
325.40 1.339021
325.50 1.339174
325.60 1.339156
325.70 1.339139
325.80 1.339121
325.90 1.339201
326.00 1.339387
326.10 1.339572
326.20 1.339757
326.30 1.339899
326.40 1.339919
326.50 1.340047
326.60 1.340174
326.70 1.340301
326.80 1.340428
326.90 1.340554
327.00 1.34068
327.10 1.340805
327.20 1.340931
327.30 1.341055
327.40 1.341179
327.50 1.341303
327.60 1.341427
327.70 1.34155
327.80 1.341672
327.90 1.341832
328.00 1.341982
328.10 1.342069
328.20 1.342155
328.30 1.342241
328.40 1.342326
328.50 1.342397
328.60 1.342464
328.70 1.34253
328.80 1.342597
328.90 1.342665
329.00 1.342732
329.10 1.342799
329.20 1.342866
329.30 1.342932
329.40 1.342998
329.50 1.343064
329.60 1.34313
329.70 1.343195
329.80 1.343259
329.90 1.343324
330.00 1.343463
330.10 1.343693
330.20 1.343923
330.30 1.344153
330.40 1.344286
330.50 1.344317
330.60 1.344347
330.70 1.344376
330.80 1.344406
330.90 1.344435
331.00 1.344464
331.10 1.344492
331.20 1.344521
331.30 1.344549
331.40 1.344576
331.50 1.344784
331.60 1.34521
331.70 1.345636
331.80 1.345676
331.90 1.3457
332.00 1.345724
332.10 1.345747
332.20 1.34577
332.30 1.345793
332.40 1.345816
332.50 1.345838
332.60 1.34586
332.70 1.345882
332.80 1.345904
332.90 1.345925
333.00 1.345946
333.10 1.346006
333.20 1.346114
333.30 1.346221
333.40 1.346328
333.50 1.346435
333.60 1.346541
333.70 1.346647
333.80 1.346752
333.90 1.346857
334.00 1.346962
334.10 1.347036
334.20 1.347073
334.30 1.347109
334.40 1.347145
334.50 1.347181
334.60 1.347216
334.70 1.34731
334.80 1.347392
334.90 1.347356
335.00 1.34732
335.10 1.34713
335.20 1.347331
335.30 1.347206
335.40 1.347281
335.50 1.347481
335.60 1.347681
335.70 1.347329
335.80 1.347528
335.90 1.347727
336.00 1.347925
336.10 1.348123
336.20 1.348321
336.30 1.348442
336.40 1.348473
336.50 1.348502
336.60 1.348532
336.70 1.348561
336.80 1.34859
336.90 1.348578
337.00 1.348516
337.10 1.348454
337.20 1.348392
337.30 1.348369
337.40 1.348402
337.50 1.348435
337.60 1.348468
337.70 1.3485
337.80 1.348532
337.90 1.348536
338.00 1.348504
338.10 1.348472
338.20 1.34844
338.30 1.348408
338.40 1.348412
338.50 1.348503
338.60 1.348594
338.70 1.348685
338.80 1.348775
338.90 1.348865
339.00 1.348955
339.10 1.349044
339.20 1.349133
339.30 1.34927
339.40 1.349475
339.50 1.349569
339.60 1.349525
339.70 1.349481
339.80 1.349437
339.90 1.349393
340.00 1.349348
340.10 1.349304
340.20 1.349259
340.30 1.349214
340.40 1.349169
340.50 1.349123
340.60 1.349078
340.70 1.349032
340.80 1.349087
340.90 1.349288
341.00 1.349424
341.10 1.349482
341.20 1.34954
341.30 1.349598
341.40 1.349655
341.50 1.349712
341.60 1.349769
341.70 1.349825
341.80 1.349808
341.90 1.3497
342.00 1.349593
342.10 1.349485
342.20 1.349723
342.30 1.349971
342.40 1.349923
342.50 1.349943
342.60 1.349962
342.70 1.349981
342.80 1.35
342.90 1.350018
343.00 1.349995
343.10 1.34992
343.20 1.349846
343.30 1.349771
343.40 1.349732
343.50 1.349744
343.60 1.349755
343.70 1.349767
343.80 1.349778
343.90 1.349789
344.00 1.349767
344.10 1.349698
344.20 1.349629
344.30 1.349559
344.40 1.349587
344.50 1.349756
344.60 1.349557
344.70 1.349701
344.80 1.349868
344.90 1.350035
345.00 1.349641
345.10 1.349808
345.20 1.349847
345.30 1.349706
345.40 1.349564
345.50 1.349544
345.60 1.349622
345.70 1.349629
345.80 1.349636
345.90 1.349642
346.00 1.349648
346.10 1.349654
346.20 1.349647
346.30 1.349621
346.40 1.349595
346.50 1.349568
346.60 1.349542
346.70 1.349515
346.80 1.349488
346.90 1.349461
347.00 1.349434
347.10 1.349406
347.20 1.349386
347.30 1.349376
347.40 1.349365
347.50 1.349355
347.60 1.349344
347.70 1.349334
347.80 1.349322
347.90 1.349311
348.00 1.3493
348.10 1.349288
348.20 1.349276
348.30 1.349264
348.40 1.349252
348.50 1.349239
348.60 1.349226
348.70 1.349158
348.80 1.349095
348.90 1.349064
349.00 1.349033
349.10 1.349001
349.20 1.34897
349.30 1.348938
349.40 1.348906
349.50 1.348874
349.60 1.348841
349.70 1.348809
349.80 1.348776
349.90 1.348743
350.00 1.34871
350.10 1.348677
350.20 1.348644
350.30 1.348615
350.40 1.348595
350.50 1.348574
350.60 1.348553
350.70 1.348532
350.80 1.348511
350.90 1.34849
351.00 1.348468
351.10 1.348446
351.20 1.348424
351.30 1.348402
351.40 1.348376
351.50 1.348344
351.60 1.348312
351.70 1.34828
351.80 1.348247
351.90 1.348215
352.00 1.348182
352.10 1.348149
352.20 1.348007
352.30 1.347891
352.40 1.347831
352.50 1.347771
352.60 1.347711
352.70 1.34765
352.80 1.34759
352.90 1.347529
353.00 1.347468
353.10 1.347408
353.20 1.347346
353.30 1.347285
353.40 1.347224
353.50 1.347253
353.60 1.347305
353.70 1.347357
353.80 1.347408
353.90 1.34742
354.00 1.347364
354.10 1.347308
354.20 1.347251
354.30 1.347194
354.40 1.347137
354.50 1.34708
354.60 1.347023
354.70 1.346966
354.80 1.346871
354.90 1.346722
355.00 1.346573
355.10 1.346424
355.20 1.346275
355.30 1.346347
355.40 1.34642
355.50 1.346492
355.60 1.346563
355.70 1.346327
355.80 1.345954
355.90 1.346015
356.00 1.346121
356.10 1.346043
356.20 1.345965
356.30 1.345888
356.40 1.34581
356.50 1.345732
356.60 1.345654
356.70 1.345576
356.80 1.345497
356.90 1.345419
357.00 1.34534
357.10 1.345261
357.20 1.345183
357.30 1.345104
357.40 1.345066
357.50 1.345103
357.60 1.345139
357.70 1.345175
357.80 1.344824
357.90 1.344474
358.00 1.344343
358.10 1.344267
358.20 1.344191
358.30 1.344115
358.40 1.344039
358.50 1.343963
358.60 1.343886
358.70 1.343809
358.80 1.343733
358.90 1.343656
359.00 1.34362
359.10 1.343657
359.20 1.34369
359.30 1.343693
359.40 1.343696
359.50 1.343598
359.60 1.343474
359.70 1.343351
359.80 1.343265
359.90 1.34318
360.00 1.34309
360.10 1.342992
360.20 1.342895
360.30 1.342798
360.40 1.342701
360.50 1.342603
360.60 1.342968
360.70 1.342874
360.80 1.342781
360.90 1.342687
361.00 1.342359
361.10 1.342097
361.20 1.341739
361.30 1.341861
361.40 1.34194
361.50 1.342105
361.60 1.341674
361.70 1.341796
361.80 1.341849
361.90 1.341781
362.00 1.341713
362.10 1.341585
362.20 1.341431
362.30 1.341257
362.40 1.341082
362.50 1.340908
362.60 1.340734
362.70 1.340584
362.80 1.340227
362.90 1.340341
363.00 1.340456
363.10 1.340501
363.20 1.340544
363.30 1.339963
363.40 1.340081
363.50 1.340198
363.60 1.339888
363.70 1.340053
363.80 1.339695
363.90 1.339568
364.00 1.339441
364.10 1.339314
364.20 1.339187
364.30 1.338952
364.40 1.338689
364.50 1.33881
364.60 1.338641
364.70 1.338471
364.80 1.338301
364.90 1.338416
365.00 1.33853
365.10 1.338221
365.20 1.338335
365.30 1.338025
365.40 1.338139
365.50 1.337829
365.60 1.33752
365.70 1.337556
365.80 1.337592
365.90 1.33739
366.00 1.337127
366.10 1.337018
366.20 1.336909
366.30 1.336799
366.40 1.33669
366.50 1.336836
366.60 1.336956
366.70 1.336863
366.80 1.33677
366.90 1.336665
367.00 1.33654
367.10 1.336415
367.20 1.33629
367.30 1.336165
367.40 1.336039
367.50 1.335804
367.60 1.335542
367.70 1.335475
367.80 1.335408
367.90 1.335341
368.00 1.335142
368.10 1.33524
368.20 1.335065
368.30 1.334886
368.40 1.334707
368.50 1.334528
368.60 1.334348
368.70 1.334169
368.80 1.33399
368.90 1.334148
369.00 1.334088
369.10 1.333823
369.20 1.333934
369.30 1.333764
369.40 1.333593
369.50 1.333423
369.60 1.333113
369.70 1.332803
369.80 1.332749
369.90 1.332698
370.00 1.332646
370.10 1.332401
370.20 1.332497
370.30 1.332601
370.40 1.332281
370.50 1.331994
370.60 1.332097
370.70 1.332201
370.80 1.331891
370.90 1.331581
371.00 1.331276
371.10 1.33097
371.20 1.331069
371.30 1.331167
371.40 1.330678
371.50 1.330571
371.60 1.330465
371.70 1.330358
371.80 1.330251
371.90 1.330144
372.00 1.330484
372.10 1.330351
372.20 1.33018
372.30 1.330009
372.40 1.329838
372.50 1.329666
372.60 1.329495
372.70 1.329324
372.80 1.329015
372.90 1.328706
373.00 1.328806
373.10 1.328909
373.20 1.328602
373.30 1.328296
373.40 1.328394
373.50 1.328088
373.60 1.327782
373.70 1.32788
373.80 1.327346
373.90 1.327267
374.00 1.327163
374.10 1.327059
374.20 1.326955
374.30 1.32685
374.40 1.326645
374.50 1.327024
374.60 1.326735
374.70 1.32643
374.80 1.326125
374.90 1.325821
375.00 1.325649
375.10 1.325478
375.20 1.325306
375.30 1.325173
375.40 1.325039
375.50 1.324906
375.60 1.324772
375.70 1.324638
375.80 1.324505
375.90 1.324371
376.00 1.324457
376.10 1.324278
376.20 1.324095
376.30 1.323913
376.40 1.323731
376.50 1.32356
376.60 1.323406
376.70 1.323252
376.80 1.323103
376.90 1.322957
377.00 1.322811
377.10 1.322664
377.20 1.322506
377.30 1.322299
377.40 1.322092
377.50 1.321886
377.60 1.321874
377.70 1.321863
377.80 1.321851
377.90 1.321839
378.00 1.321553
378.10 1.321397
378.20 1.321246
378.30 1.321096
378.40 1.320946
378.50 1.320795
378.60 1.320645
378.70 1.320494
378.80 1.320344
378.90 1.320206
379.00 1.320092
379.10 1.31971
379.20 1.319328
379.30 1.319169
379.40 1.319233
379.50 1.319297
379.60 1.319057
379.70 1.318482
379.80 1.318359
379.90 1.318237
380.00 1.318114
380.10 1.317991
380.20 1.317868
380.30 1.317745
380.40 1.317622
380.50 1.317499
380.60 1.317025
380.70 1.316864
380.80 1.316704
380.90 1.316543
381.00 1.316383
381.10 1.316178
381.20 1.316124
381.30 1.316011
381.40 1.316092
381.50 1.3158
381.60 1.315609
381.70 1.315435
381.80 1.31552
381.90 1.315219
382.00 1.314917
382.10 1.315003
382.20 1.314469
382.30 1.314168
382.40 1.313923
382.50 1.313763
382.60 1.313603
382.70 1.313569
382.80 1.31355
382.90 1.313403
383.00 1.313255
383.10 1.313108
383.20 1.312937
383.30 1.312676
383.40 1.312466
383.50 1.31233
383.60 1.312459
383.70 1.31228
383.80 1.312102
383.90 1.311923
384.00 1.311744
384.10 1.311566
384.20 1.311387
384.30 1.311208
384.40 1.311045
384.50 1.310898
384.60 1.31075
384.70 1.310602
384.80 1.310342
384.90 1.309891
385.00 1.309864
385.10 1.309825
385.20 1.309326
385.30 1.309033
385.40 1.308813
385.50 1.308665
385.60 1.308518
385.70 1.30837
385.80 1.308204
385.90 1.30797
386.00 1.307783
386.10 1.307647
386.20 1.307554
386.30 1.307462
386.40 1.307262
386.50 1.307157
386.60 1.30667
386.70 1.306561
386.80 1.30664
386.90 1.30653
387.00 1.306044
387.10 1.306123
387.20 1.305994
387.30 1.305527
387.40 1.305606
387.50 1.305266
387.60 1.305089
387.70 1.304792
387.80 1.304494
387.90 1.304197
388.00 1.304005
388.10 1.304014
388.20 1.304215
388.30 1.304019
388.40 1.303823
388.50 1.303461
388.60 1.303002
388.70 1.302867
388.80 1.302944
388.90 1.302274
389.00 1.302351
389.10 1.301989
389.20 1.302082
389.30 1.301969
389.40 1.301682
389.50 1.301493
389.60 1.301319
389.70 1.300828
389.80 1.300666
389.90 1.300505
390.00 1.300343
390.10 1.300181
390.20 1.300019
390.30 1.299831
390.40 1.299612
390.50 1.299394
390.60 1.299175
390.70 1.298957
390.80 1.298725
390.90 1.298478
391.00 1.298762
391.10 1.298456
391.20 1.298075
391.30 1.297643
391.40 1.297472
391.50 1.2973
391.60 1.297129
391.70 1.296957
391.80 1.296786
391.90 1.296707
392.00 1.296585
392.10 1.296241
392.20 1.295982
392.30 1.296192
392.40 1.296016
392.50 1.295356
392.60 1.295428
392.70 1.294897
392.80 1.294842
392.90 1.29505
393.00 1.29478
393.10 1.294577
393.20 1.294433
393.30 1.29414
393.40 1.293814
393.50 1.293747
393.60 1.293228
393.70 1.2933
393.80 1.292709
393.90 1.29278
394.00 1.292786
394.10 1.292304
394.20 1.292017
394.30 1.291862
394.40 1.291677
394.50 1.291688
394.60 1.291439
394.70 1.291174
394.80 1.290853
394.90 1.290545
395.00 1.290592
395.10 1.290446
395.20 1.290197
395.30 1.28978
395.40 1.289363
395.50 1.289203
395.60 1.289138
395.70 1.289037
395.80 1.288839
395.90 1.288642
396.00 1.288403
396.10 1.287947
396.20 1.288016
396.30 1.287891
396.40 1.287367
396.50 1.287311
396.60 1.28738
396.70 1.286982
396.80 1.2868
396.90 1.286223
397.00 1.28622
397.10 1.286169
397.20 1.285801
397.30 1.285831
397.40 1.285633
397.50 1.285436
397.60 1.285221
397.70 1.284828
397.80 1.284435
397.90 1.284112
398.00 1.283976
398.10 1.28384
398.20 1.283602
398.30 1.28325
398.40 1.282905
398.50 1.282808
398.60 1.28287
398.70 1.282611
398.80 1.282258
398.90 1.281987
399.00 1.28187
399.10 1.281966
399.20 1.281649
399.30 1.281332
399.40 1.281016
399.50 1.280699
399.60 1.280475
399.70 1.280286
399.80 1.280096
399.90 1.279907
400.00 1.27972
400.10 1.279624
400.20 1.279131
400.30 1.278937
400.40 1.278855
400.50 1.278623
400.60 1.278242
400.70 1.277956
400.80 1.278116
400.90 1.277593
401.00 1.277544
401.10 1.277609
401.20 1.276972
401.30 1.27686
401.40 1.27678
401.50 1.276663
401.60 1.27653
401.70 1.275895
401.80 1.275809
401.90 1.27569
402.00 1.275389
402.10 1.275453
402.20 1.274819
402.30 1.274883
402.40 1.274249
402.50 1.274313
402.60 1.273718
402.70 1.273744
402.80 1.273808
402.90 1.273454
403.00 1.27317
403.10 1.272608
403.20 1.272687
403.30 1.27259
403.40 1.272104
403.50 1.271798
403.60 1.271594
403.70 1.271599
403.80 1.270982
403.90 1.270746
404.00 1.270801
404.10 1.270467
404.20 1.270184
404.30 1.269901
404.40 1.269963
404.50 1.269681
404.60 1.269398
404.70 1.26946
404.80 1.268853
404.90 1.268895
405.00 1.268269
405.10 1.268036
405.20 1.267902
405.30 1.267767
405.40 1.2676
405.50 1.267433
405.60 1.267265
405.70 1.267098
405.80 1.266931
405.90 1.266764
406.00 1.266416
406.10 1.266068
406.20 1.26572
406.30 1.265372
406.40 1.265085
406.50 1.265077
406.60 1.264797
406.70 1.26473
406.80 1.264374
406.90 1.263968
407.00 1.263756
407.10 1.263544
407.20 1.263332
407.30 1.26312
407.40 1.262909
407.50 1.262697
407.60 1.262485
407.70 1.262274
407.80 1.262062
407.90 1.26185
408.00 1.261602
408.10 1.26128
408.20 1.261015
408.30 1.260839
408.40 1.260663
408.50 1.260165
408.60 1.260016
408.70 1.259868
408.80 1.259667
408.90 1.259145
409.00 1.258918
409.10 1.258691
409.20 1.258464
409.30 1.258238
409.40 1.258014
409.50 1.257875
409.60 1.257737
409.70 1.257565
409.80 1.257262
409.90 1.256968
410.00 1.257007
410.10 1.256394
410.20 1.256201
410.30 1.256113
410.40 1.255952
410.50 1.255561
410.60 1.25517
410.70 1.254843
410.80 1.254774
410.90 1.254705
411.00 1.254517
411.10 1.254286
411.20 1.254054
411.30 1.253747
411.40 1.253152
411.50 1.253014
411.60 1.252877
411.70 1.252711
411.80 1.252436
411.90 1.252094
412.00 1.252152
412.10 1.251544
412.20 1.251602
412.30 1.251108
412.40 1.251052
412.50 1.25054
412.60 1.250408
412.70 1.250103
412.80 1.249756
412.90 1.250011
413.00 1.249501
413.10 1.24929
413.20 1.249079
413.30 1.248868
413.40 1.248657
413.50 1.248368
413.60 1.247843
413.70 1.24757
413.80 1.247297
413.90 1.247024
414.00 1.246751
414.10 1.246478
414.20 1.246522
414.30 1.246183
414.40 1.246108
414.50 1.245638
414.60 1.245773
414.70 1.245501
414.80 1.245229
414.90 1.244956
415.00 1.244684
415.10 1.244412
415.20 1.244111
415.30 1.243716
415.40 1.243321
415.50 1.242934
415.60 1.242805
415.70 1.242676
415.80 1.242537
415.90 1.242369
416.00 1.242201
416.10 1.24201
416.20 1.241726
416.30 1.241442
416.40 1.241158
416.50 1.240875
416.60 1.240605
416.70 1.240325
416.80 1.23973
416.90 1.239785
417.00 1.23919
417.10 1.239255
417.20 1.238986
417.30 1.238713
417.40 1.238349
417.50 1.237985
417.60 1.237686
417.70 1.237639
417.80 1.23737
417.90 1.237102
418.00 1.236833
418.10 1.236565
418.20 1.236296
418.30 1.236043
418.40 1.23614
418.50 1.235829
418.60 1.235519
418.70 1.235208
418.80 1.234898
418.90 1.234588
419.00 1.234278
419.10 1.233969
419.20 1.233659
419.30 1.233355
419.40 1.233221
419.50 1.233086
419.60 1.232905
419.70 1.232534
419.80 1.232163
419.90 1.231831
420.00 1.231621
420.10 1.231411
420.20 1.2312
420.30 1.23099
420.40 1.23078
420.50 1.23057
420.60 1.23036
420.70 1.230151
420.80 1.229941
420.90 1.229727
421.00 1.229372
421.10 1.229017
421.20 1.228696
421.30 1.228476
421.40 1.228256
421.50 1.228036
421.60 1.227816
421.70 1.227596
421.80 1.227376
421.90 1.227144
422.00 1.226874
422.10 1.226581
422.20 1.2262
422.30 1.225819
422.40 1.225442
422.50 1.225182
422.60 1.224921
422.70 1.224661
422.80 1.224401
422.90 1.224141
423.00 1.223882
423.10 1.223622
423.20 1.223362
423.30 1.223103
423.40 1.222843
423.50 1.222584
423.60 1.222325
423.70 1.222066
423.80 1.221807
423.90 1.221548
424.00 1.22129
424.10 1.221031
424.20 1.220773
424.30 1.220514
424.40 1.220189
424.50 1.219931
424.60 1.219673
424.70 1.219415
424.80 1.219157
424.90 1.218899
425.00 1.218641
425.10 1.218384
