# Version 2.1 - nm, norm@500 to 1, cut digits, bergeron_He_8000_70.dat_8000
# Wavelength(nm)  Flambda(ergs/cm^s/s/nm)
300.00 1.260335
300.10 1.260824
300.20 1.261329
300.30 1.261807
300.40 1.262119
300.50 1.262429
300.60 1.262739
300.70 1.263048
300.80 1.263357
300.90 1.263665
301.00 1.263972
301.10 1.264278
301.20 1.264584
301.30 1.264889
301.40 1.265194
301.50 1.265497
301.60 1.2658
301.70 1.266103
301.80 1.266404
301.90 1.266705
302.00 1.267006
302.10 1.267315
302.20 1.267625
302.30 1.267934
302.40 1.268243
302.50 1.268551
302.60 1.268858
302.70 1.269164
302.80 1.26947
302.90 1.269775
303.00 1.270079
303.10 1.270383
303.20 1.270686
303.30 1.270994
303.40 1.271352
303.50 1.271709
303.60 1.272065
303.70 1.272421
303.80 1.272775
303.90 1.273129
304.00 1.273483
304.10 1.273835
304.20 1.274187
304.30 1.274538
304.40 1.274888
304.50 1.275238
304.60 1.275537
304.70 1.27583
304.80 1.276122
304.90 1.276413
305.00 1.276704
305.10 1.276994
305.20 1.277284
305.30 1.277573
305.40 1.277861
305.50 1.278148
305.60 1.278435
305.70 1.278721
305.80 1.279007
305.90 1.279292
306.00 1.279576
306.10 1.27986
306.20 1.280143
306.30 1.280425
306.40 1.280708
306.50 1.28099
306.60 1.281271
306.70 1.281552
306.80 1.281832
306.90 1.282111
307.00 1.28239
307.10 1.282668
307.20 1.282946
307.30 1.283222
307.40 1.283499
307.50 1.283774
307.60 1.284049
307.70 1.284324
307.80 1.284597
307.90 1.28487
308.00 1.285143
308.10 1.285415
308.20 1.285686
308.30 1.285957
308.40 1.286227
308.50 1.286496
308.60 1.286765
308.70 1.287033
308.80 1.287256
308.90 1.287353
309.00 1.287726
309.10 1.288097
309.20 1.288468
309.30 1.288838
309.40 1.289192
309.50 1.289447
309.60 1.289701
309.70 1.289955
309.80 1.290209
309.90 1.290461
310.00 1.290714
310.10 1.290965
310.20 1.291216
310.30 1.291467
310.40 1.291706
310.50 1.291933
310.60 1.292159
310.70 1.292385
310.80 1.29261
310.90 1.292835
311.00 1.29324
311.10 1.293645
311.20 1.29405
311.30 1.294397
311.40 1.294585
311.50 1.294772
311.60 1.294958
311.70 1.295144
311.80 1.29533
311.90 1.295515
312.00 1.295699
312.10 1.295883
312.20 1.295864
312.30 1.296054
312.40 1.296498
312.50 1.296998
312.60 1.297092
312.70 1.297185
312.80 1.297278
312.90 1.297448
313.00 1.297702
313.10 1.297955
313.20 1.298207
313.30 1.298463
313.40 1.298733
313.50 1.299002
313.60 1.299271
313.70 1.299539
313.80 1.299806
313.90 1.300073
314.00 1.300339
314.10 1.300537
314.20 1.300734
314.30 1.30093
314.40 1.301127
314.50 1.301322
314.60 1.301517
314.70 1.301712
314.80 1.302017
314.90 1.302308
315.00 1.302243
315.10 1.302544
315.20 1.302843
315.30 1.303142
315.40 1.303441
315.50 1.303738
315.60 1.304036
315.70 1.304332
315.80 1.304628
315.90 1.304923
316.00 1.305218
316.10 1.305512
316.20 1.305805
316.30 1.305539
316.40 1.305831
316.50 1.305564
316.60 1.305856
316.70 1.306147
316.80 1.306437
316.90 1.306727
317.00 1.307016
317.10 1.307304
317.20 1.307592
317.30 1.307406
317.40 1.307326
317.50 1.307545
317.60 1.307763
317.70 1.30798
317.80 1.308198
317.90 1.308831
318.00 1.309053
318.10 1.309335
318.20 1.309618
318.30 1.309899
318.40 1.310036
318.50 1.309765
318.60 1.310067
318.70 1.310732
318.80 1.311011
318.90 1.310354
319.00 1.310753
319.10 1.31103
319.20 1.311248
319.30 1.311298
319.40 1.311347
319.50 1.311396
319.60 1.312349
319.70 1.312397
319.80 1.312444
319.90 1.312491
320.00 1.312647
320.10 1.312918
320.20 1.313155
320.30 1.312937
320.40 1.313207
320.50 1.313477
320.60 1.314007
320.70 1.313732
320.80 1.313717
320.90 1.313985
321.00 1.314252
321.10 1.314519
321.20 1.314557
321.30 1.314864
321.40 1.31517
321.50 1.315476
321.60 1.315781
321.70 1.316085
321.80 1.3162
321.90 1.316112
322.00 1.315853
322.10 1.316109
322.20 1.316365
322.30 1.31662
322.40 1.316874
322.50 1.317128
322.60 1.317381
322.70 1.317634
322.80 1.317621
322.90 1.317758
323.00 1.317894
323.10 1.31803
323.20 1.318166
323.30 1.318301
323.40 1.318436
323.50 1.31857
323.60 1.318704
323.70 1.318838
323.80 1.318971
323.90 1.319104
324.00 1.31943
324.10 1.319755
324.20 1.320079
324.30 1.320107
324.40 1.319793
324.50 1.320022
324.60 1.320249
324.70 1.320477
324.80 1.320703
324.90 1.32093
325.00 1.321155
325.10 1.32138
325.20 1.321509
325.30 1.321433
325.40 1.321358
325.50 1.321429
325.60 1.321681
325.70 1.321932
325.80 1.322183
325.90 1.322402
326.00 1.322589
326.10 1.322775
326.20 1.322961
326.30 1.323104
326.40 1.323127
326.50 1.323256
326.60 1.323385
326.70 1.323513
326.80 1.323641
326.90 1.323769
327.00 1.323896
327.10 1.324023
327.20 1.324149
327.30 1.324275
327.40 1.324401
327.50 1.324526
327.60 1.324651
327.70 1.324775
327.80 1.324899
327.90 1.325061
328.00 1.325211
328.10 1.3253
328.20 1.325388
328.30 1.325475
328.40 1.325562
328.50 1.325635
328.60 1.325704
328.70 1.325772
328.80 1.325864
328.90 1.326021
329.00 1.326177
329.10 1.326334
329.20 1.326489
329.30 1.326645
329.40 1.3268
329.50 1.326954
329.60 1.327109
329.70 1.327262
329.80 1.327415
329.90 1.327568
330.00 1.327639
330.10 1.327611
330.20 1.327582
330.30 1.327554
330.40 1.327599
330.50 1.327724
330.60 1.327849
330.70 1.327973
330.80 1.328098
330.90 1.328221
331.00 1.328345
331.10 1.328468
331.20 1.32859
331.30 1.328712
331.40 1.328834
331.50 1.328908
331.60 1.328924
331.70 1.328939
331.80 1.329038
331.90 1.329139
332.00 1.32924
332.10 1.329341
332.20 1.329441
332.30 1.329541
332.40 1.32964
332.50 1.329739
332.60 1.329838
332.70 1.329937
332.80 1.330035
332.90 1.330132
333.00 1.33023
333.10 1.330332
333.20 1.330441
333.30 1.330549
333.40 1.330657
333.50 1.330764
333.60 1.330871
333.70 1.330978
333.80 1.331084
333.90 1.33119
334.00 1.331295
334.10 1.331371
334.20 1.331409
334.30 1.331446
334.40 1.331484
334.50 1.331521
334.60 1.331558
334.70 1.331652
334.80 1.331736
334.90 1.331702
335.00 1.331668
335.10 1.331481
335.20 1.331683
335.30 1.332431
335.40 1.332258
335.50 1.331961
335.60 1.332036
335.70 1.332459
335.80 1.332162
335.90 1.332087
336.00 1.332286
336.10 1.332483
336.20 1.33268
336.30 1.332803
336.40 1.332835
336.50 1.332866
336.60 1.332897
336.70 1.332928
336.80 1.332958
336.90 1.333058
337.00 1.333242
337.10 1.333426
337.20 1.333609
337.30 1.333731
337.40 1.333765
337.50 1.333799
337.60 1.333832
337.70 1.333866
337.80 1.333899
337.90 1.333903
338.00 1.333873
338.10 1.333843
338.20 1.333812
338.30 1.333782
338.40 1.333786
338.50 1.333878
338.60 1.333969
338.70 1.33406
338.80 1.334151
338.90 1.334241
339.00 1.334331
339.10 1.334421
339.20 1.33451
339.30 1.334647
339.40 1.334851
339.50 1.334978
339.60 1.335011
339.70 1.335043
339.80 1.335074
339.90 1.335106
340.00 1.335137
340.10 1.335168
340.20 1.335198
340.30 1.335229
340.40 1.335259
340.50 1.335288
340.60 1.335318
340.70 1.335347
340.80 1.335245
340.90 1.334952
341.00 1.334818
341.10 1.334877
341.20 1.334936
341.30 1.334994
341.40 1.335052
341.50 1.335109
341.60 1.335167
341.70 1.335224
341.80 1.335309
341.90 1.335429
342.00 1.335548
342.10 1.335667
342.20 1.335606
342.30 1.335375
342.40 1.335329
342.50 1.335349
342.60 1.335369
342.70 1.335389
342.80 1.335409
342.90 1.335428
343.00 1.335512
343.10 1.335675
343.20 1.335837
343.30 1.335999
343.40 1.336099
343.50 1.336111
343.60 1.336123
343.70 1.336135
343.80 1.336147
343.90 1.336158
344.00 1.336137
344.10 1.336069
344.20 1.336001
344.30 1.335933
344.40 1.335961
344.50 1.336129
344.60 1.335933
344.70 1.336076
344.80 1.336242
344.90 1.336407
345.00 1.336018
345.10 1.336183
345.20 1.336223
345.30 1.336084
345.40 1.335944
345.50 1.335924
345.60 1.336003
345.70 1.33601
345.80 1.336017
345.90 1.336024
346.00 1.33603
346.10 1.336037
346.20 1.336068
346.30 1.336136
346.40 1.336204
346.50 1.336272
346.60 1.336339
346.70 1.336406
346.80 1.336472
346.90 1.336539
347.00 1.336605
347.10 1.33667
347.20 1.336705
347.30 1.336695
347.40 1.336685
347.50 1.336675
347.60 1.336664
347.70 1.336653
347.80 1.336642
347.90 1.336631
348.00 1.33662
348.10 1.336608
348.20 1.336596
348.30 1.336584
348.40 1.336572
348.50 1.33656
348.60 1.336547
348.70 1.336479
348.80 1.336417
348.90 1.336386
349.00 1.336355
349.10 1.336324
349.20 1.336293
349.30 1.336261
349.40 1.33623
349.50 1.336198
349.60 1.336166
349.70 1.336133
349.80 1.336101
349.90 1.336068
350.00 1.336036
350.10 1.336003
350.20 1.33597
350.30 1.335942
350.40 1.335922
350.50 1.335901
350.60 1.33588
350.70 1.33586
350.80 1.335838
350.90 1.335817
351.00 1.335796
351.10 1.335774
351.20 1.335752
351.30 1.33573
351.40 1.335705
351.50 1.335673
351.60 1.335641
351.70 1.335609
351.80 1.335577
351.90 1.335545
352.00 1.335512
352.10 1.33548
352.20 1.335883
352.30 1.336126
352.40 1.336066
352.50 1.336006
352.60 1.335946
352.70 1.335885
352.80 1.335825
352.90 1.335764
353.00 1.335703
353.10 1.335643
353.20 1.335582
353.30 1.33552
353.40 1.335459
353.50 1.335488
353.60 1.335539
353.70 1.335589
353.80 1.335639
353.90 1.335651
354.00 1.335595
354.10 1.335539
354.20 1.335482
354.30 1.335425
354.40 1.335368
354.50 1.335311
354.60 1.335254
354.70 1.335197
354.80 1.335102
354.90 1.334954
355.00 1.334806
355.10 1.334658
355.20 1.33451
355.30 1.334581
355.40 1.334652
355.50 1.334723
355.60 1.334794
355.70 1.334821
355.80 1.33483
355.90 1.334565
356.00 1.334353
356.10 1.334276
356.20 1.334199
356.30 1.334121
356.40 1.334043
356.50 1.333966
356.60 1.333888
356.70 1.33381
356.80 1.333732
356.90 1.333654
357.00 1.333575
357.10 1.333497
357.20 1.333418
357.30 1.333339
357.40 1.333302
357.50 1.333338
357.60 1.333373
357.70 1.333408
357.80 1.333458
357.90 1.333507
358.00 1.333455
358.10 1.333379
358.20 1.333303
358.30 1.333227
358.40 1.33315
358.50 1.333074
358.60 1.332997
358.70 1.33292
358.80 1.332843
358.90 1.332766
359.00 1.33273
359.10 1.332765
359.20 1.332797
359.30 1.332799
359.40 1.332801
359.50 1.332703
359.60 1.33258
359.70 1.332456
359.80 1.33237
359.90 1.332284
360.00 1.332194
360.10 1.332097
360.20 1.332
360.30 1.331903
360.40 1.331805
360.50 1.331708
360.60 1.332068
360.70 1.331975
360.80 1.331881
360.90 1.331787
361.00 1.331461
361.10 1.331201
361.20 1.331702
361.30 1.330965
361.40 1.331043
361.50 1.331205
361.60 1.330777
361.70 1.330896
361.80 1.330948
361.90 1.33088
362.00 1.330812
362.10 1.330684
362.20 1.330531
362.30 1.330357
362.40 1.330183
362.50 1.33001
362.60 1.329836
362.70 1.330159
362.80 1.330182
362.90 1.329871
363.00 1.329561
363.10 1.3296
363.20 1.329643
363.30 1.329913
363.40 1.329393
363.50 1.329297
363.60 1.329412
363.70 1.329151
363.80 1.329641
363.90 1.329514
364.00 1.329387
364.10 1.32926
364.20 1.329132
364.30 1.328898
364.40 1.328636
364.50 1.328755
364.60 1.328586
364.70 1.328416
364.80 1.328246
364.90 1.328359
365.00 1.328471
365.10 1.328163
365.20 1.328274
365.30 1.327966
365.40 1.328077
365.50 1.32777
365.60 1.327462
365.70 1.327496
365.80 1.327531
365.90 1.327329
366.00 1.327067
366.10 1.326958
366.20 1.326848
366.30 1.326738
366.40 1.326628
366.50 1.326771
366.60 1.326889
366.70 1.326796
366.80 1.326702
366.90 1.326597
367.00 1.326472
367.10 1.326347
367.20 1.326221
367.30 1.326096
367.40 1.32597
367.50 1.325736
367.60 1.325475
367.70 1.325407
367.80 1.32534
367.90 1.325272
368.00 1.325073
368.10 1.325169
368.20 1.325102
368.30 1.325031
368.40 1.32496
368.50 1.324889
368.60 1.324818
368.70 1.324746
368.80 1.324675
368.90 1.32437
369.00 1.324379
369.10 1.324569
369.20 1.32386
369.30 1.323964
369.40 1.324067
369.50 1.32417
369.60 1.323861
369.70 1.323552
369.80 1.323497
369.90 1.323444
370.00 1.323392
370.10 1.323147
370.20 1.322836
370.30 1.32253
370.40 1.322635
370.50 1.322736
370.60 1.322837
370.70 1.322124
370.80 1.32222
370.90 1.322317
371.00 1.322016
371.10 1.321712
371.20 1.321808
371.30 1.321903
371.40 1.321417
371.50 1.32131
371.60 1.321202
371.70 1.321095
371.80 1.320987
371.90 1.320879
372.00 1.321214
372.10 1.321082
372.20 1.32091
372.30 1.320739
372.40 1.320567
372.50 1.320396
372.60 1.320224
372.70 1.320053
372.80 1.320146
372.90 1.320239
373.00 1.319939
373.10 1.319635
373.20 1.31933
373.30 1.319024
373.40 1.31912
373.50 1.319216
373.60 1.318911
373.70 1.318605
373.80 1.318876
373.90 1.318796
374.00 1.31869
374.10 1.318585
374.20 1.31848
374.30 1.318374
374.40 1.318169
374.50 1.317764
374.60 1.317654
374.70 1.31755
374.80 1.317446
374.90 1.317341
375.00 1.317169
375.10 1.316997
375.20 1.316825
375.30 1.316691
375.40 1.316556
375.50 1.316422
375.60 1.316288
375.70 1.316153
375.80 1.316018
375.90 1.315884
376.00 1.315968
376.10 1.315787
376.20 1.315605
376.30 1.315422
376.40 1.315239
376.50 1.315068
376.60 1.314914
376.70 1.314759
376.80 1.314609
376.90 1.314462
377.00 1.314315
377.10 1.314168
377.20 1.31406
377.30 1.314098
377.40 1.314136
377.50 1.314174
377.60 1.313989
377.70 1.313805
377.80 1.313621
377.90 1.313437
378.00 1.313048
378.10 1.312892
378.20 1.312741
378.30 1.31259
378.40 1.312439
378.50 1.312287
378.60 1.312136
378.70 1.311985
378.80 1.311834
378.90 1.311695
379.00 1.31158
379.10 1.311511
379.20 1.311442
379.30 1.311312
379.40 1.311123
379.50 1.310933
379.60 1.310804
379.70 1.310748
379.80 1.310624
379.90 1.3105
380.00 1.310375
380.10 1.310251
380.20 1.310127
380.30 1.310003
380.40 1.309878
380.50 1.309754
380.60 1.309282
380.70 1.309121
380.80 1.308959
380.90 1.308798
381.00 1.308636
381.10 1.308431
381.20 1.308375
381.30 1.308261
381.40 1.308338
381.50 1.308046
381.60 1.307856
381.70 1.30768
381.80 1.307763
381.90 1.307078
382.00 1.30716
382.10 1.307243
382.20 1.306712
382.30 1.306411
382.40 1.306166
382.50 1.306005
382.60 1.305844
382.70 1.305808
382.80 1.305787
382.90 1.305638
383.00 1.30549
383.10 1.305342
383.20 1.30517
383.30 1.304909
383.40 1.304699
383.50 1.304562
383.60 1.304687
383.70 1.304508
383.80 1.304328
383.90 1.304149
384.00 1.303969
384.10 1.30379
384.20 1.303611
384.30 1.303431
384.40 1.303267
384.50 1.303119
384.60 1.30297
384.70 1.302821
384.80 1.302746
384.90 1.302754
385.00 1.302401
385.10 1.302042
385.20 1.301726
385.30 1.301815
385.40 1.301785
385.50 1.301637
385.60 1.301488
385.70 1.301339
385.80 1.301172
385.90 1.300937
386.00 1.300749
386.10 1.300611
386.20 1.300517
386.30 1.300423
386.40 1.300039
386.50 1.299675
386.60 1.299443
386.70 1.299519
386.80 1.299034
386.90 1.298923
387.00 1.298999
387.10 1.299075
387.20 1.298404
387.30 1.298479
387.40 1.298002
387.50 1.298215
387.60 1.298037
387.70 1.29774
387.80 1.297443
387.90 1.297146
388.00 1.296952
388.10 1.296959
388.20 1.297155
388.30 1.296958
388.40 1.296761
388.50 1.2964
388.60 1.295943
388.70 1.295807
388.80 1.29588
388.90 1.295907
389.00 1.295287
389.10 1.295361
389.20 1.295016
389.30 1.294901
389.40 1.294614
389.50 1.294424
389.60 1.294429
389.70 1.294453
389.80 1.294165
389.90 1.293876
390.00 1.293588
390.10 1.2933
390.20 1.293012
390.30 1.292826
390.40 1.292755
390.50 1.292683
390.60 1.292611
390.70 1.29254
390.80 1.29238
390.90 1.292132
391.00 1.291679
391.10 1.291374
391.20 1.291201
391.30 1.291294
391.40 1.291121
391.50 1.290948
391.60 1.290775
391.70 1.290602
391.80 1.290429
391.90 1.290028
392.00 1.289622
392.10 1.289595
392.20 1.28951
392.30 1.2891
392.40 1.288962
392.50 1.288992
392.60 1.288825
392.70 1.288405
392.80 1.288474
392.90 1.288088
393.00 1.288203
393.10 1.287956
393.20 1.287366
393.30 1.287435
393.40 1.287438
393.50 1.286784
393.60 1.286852
393.70 1.286722
393.80 1.286332
393.90 1.2864
394.00 1.286403
394.10 1.285922
394.20 1.285635
394.30 1.285479
394.40 1.285293
394.50 1.285301
394.60 1.285051
394.70 1.284786
394.80 1.284464
394.90 1.284156
395.00 1.2842
395.10 1.284053
395.20 1.28399
395.30 1.283807
395.40 1.283624
395.50 1.283313
395.60 1.282955
395.70 1.28264
395.80 1.282441
395.90 1.282242
396.00 1.282081
396.10 1.282165
396.20 1.281874
396.30 1.281487
396.40 1.281553
396.50 1.280906
396.60 1.280972
396.70 1.280575
396.80 1.28068
396.90 1.280456
397.00 1.279811
397.10 1.279758
397.20 1.279941
397.30 1.279417
397.40 1.279219
397.50 1.279021
397.60 1.278827
397.70 1.278686
397.80 1.278545
397.90 1.278404
398.00 1.278266
398.10 1.278128
398.20 1.27789
398.30 1.277537
398.40 1.277192
398.50 1.277093
398.60 1.277151
398.70 1.276892
398.80 1.276539
398.90 1.276268
399.00 1.276149
399.10 1.275553
399.20 1.275397
399.30 1.275241
399.40 1.275085
399.50 1.274929
399.60 1.274748
399.70 1.274557
399.80 1.274366
399.90 1.274175
400.00 1.273987
400.10 1.273888
400.20 1.273397
400.30 1.273202
400.40 1.273118
400.50 1.272885
400.60 1.272504
400.70 1.272217
400.80 1.272373
400.90 1.271851
401.00 1.2718
401.10 1.271861
401.20 1.271227
401.30 1.271113
401.40 1.27103
401.50 1.270911
401.60 1.270793
401.70 1.270693
401.80 1.270205
401.90 1.269935
402.00 1.269659
402.10 1.269694
402.20 1.269153
402.30 1.269123
402.40 1.268964
402.50 1.268553
402.60 1.268613
402.70 1.267983
402.80 1.268043
402.90 1.267689
403.00 1.267405
403.10 1.267533
403.20 1.266921
403.30 1.266821
403.40 1.266876
403.50 1.266717
403.60 1.266455
403.70 1.265828
403.80 1.265899
403.90 1.265662
404.00 1.265319
404.10 1.265378
404.20 1.265095
404.30 1.264811
404.40 1.264559
404.50 1.264244
404.60 1.264303
404.70 1.263678
404.80 1.263757
404.90 1.263795
405.00 1.263171
405.10 1.262937
405.20 1.2628
405.30 1.262664
405.40 1.262381
405.50 1.262099
405.60 1.261817
405.70 1.261535
405.80 1.261253
405.90 1.260971
406.00 1.260759
406.10 1.260548
406.20 1.260337
406.30 1.260125
406.40 1.25997
406.50 1.259959
406.60 1.259678
406.70 1.259608
406.80 1.259253
406.90 1.258847
407.00 1.258634
407.10 1.25842
407.20 1.258207
407.30 1.257994
407.40 1.257781
407.50 1.257568
407.60 1.257355
407.70 1.257142
407.80 1.256929
407.90 1.256715
408.00 1.256467
408.10 1.256145
408.20 1.255879
408.30 1.255701
408.40 1.255523
408.50 1.255697
408.60 1.255314
408.70 1.254932
408.80 1.254609
408.90 1.254672
409.00 1.254444
409.10 1.254216
409.20 1.253987
409.30 1.253759
409.40 1.253527
409.50 1.25315
409.60 1.252774
409.70 1.252474
409.80 1.252477
409.90 1.252461
410.00 1.25185
410.10 1.251794
410.20 1.251502
410.30 1.251152
410.40 1.250844
410.50 1.250672
410.60 1.250499
410.70 1.250293
410.80 1.249953
410.90 1.249613
411.00 1.249351
411.10 1.249118
411.20 1.248886
411.30 1.248691
411.40 1.248646
411.50 1.248507
411.60 1.248367
411.70 1.248199
411.80 1.247923
411.90 1.247581
412.00 1.246975
412.10 1.247029
412.20 1.247083
412.30 1.24659
412.40 1.246531
412.50 1.246021
412.60 1.245886
412.70 1.245581
412.80 1.245233
412.90 1.244851
413.00 1.244973
413.10 1.244761
413.20 1.244548
413.30 1.244336
413.40 1.244124
413.50 1.243834
413.60 1.243311
413.70 1.243037
413.80 1.242763
413.90 1.242489
414.00 1.242293
414.10 1.242346
414.20 1.242241
414.30 1.241642
414.40 1.241564
414.50 1.241145
414.60 1.241225
414.70 1.240952
414.80 1.240679
414.90 1.240406
415.00 1.240133
415.10 1.23986
415.20 1.239607
415.30 1.239414
415.40 1.239221
415.50 1.239023
415.60 1.238659
415.70 1.238295
415.80 1.237978
415.90 1.237809
416.00 1.237639
416.10 1.237446
416.20 1.237161
416.30 1.236877
416.40 1.236592
416.50 1.236308
416.60 1.236037
416.70 1.235805
416.80 1.235807
416.90 1.235561
417.00 1.235266
417.10 1.235326
417.20 1.235055
417.30 1.234782
417.40 1.234417
417.50 1.234053
417.60 1.233753
417.70 1.233703
417.80 1.233433
417.90 1.233163
418.00 1.232893
418.10 1.232624
418.20 1.232354
418.30 1.232075
418.40 1.23157
418.50 1.231328
418.60 1.231086
418.70 1.230845
418.80 1.230603
418.90 1.230362
419.00 1.230121
419.10 1.229879
419.20 1.229638
419.30 1.2294
419.40 1.229264
419.50 1.229127
419.60 1.228943
419.70 1.228572
419.80 1.228202
419.90 1.227869
420.00 1.227657
420.10 1.227445
420.20 1.227234
420.30 1.227022
420.40 1.22681
420.50 1.226598
420.60 1.226387
420.70 1.226175
420.80 1.225964
420.90 1.225748
421.00 1.225393
421.10 1.225038
421.20 1.224717
421.30 1.224495
421.40 1.224273
421.50 1.224052
421.60 1.22383
421.70 1.223609
421.80 1.223388
421.90 1.223154
422.00 1.222883
422.10 1.222629
422.20 1.222446
422.30 1.222263
422.40 1.222077
422.50 1.221815
422.60 1.221554
422.70 1.221292
422.80 1.221031
422.90 1.22077
423.00 1.220508
423.10 1.220247
423.20 1.219986
423.30 1.219725
423.40 1.219465
423.50 1.219204
423.60 1.218944
423.70 1.218683
423.80 1.218423
423.90 1.218163
424.00 1.217903
424.10 1.217643
424.20 1.217383
424.30 1.217123
424.40 1.216797
424.50 1.216538
424.60 1.216278
424.70 1.216019
424.80 1.215759
424.90 1.2155
