# Version 2.1 - nm, norm@500 to 1, cut digits, bergeron_He_5500_90.dat_5500
# Wavelength(nm)  Flambda(ergs/cm^s/s/nm)
300.00 0.3982501
300.10 0.3987919
300.20 0.3993343
300.30 0.3998762
300.40 0.40042
300.50 0.4009629
300.60 0.4015051
300.70 0.4020464
300.80 0.4025869
300.90 0.4031266
301.00 0.4036655
301.10 0.4042036
301.20 0.4047409
301.30 0.4052773
301.40 0.405813
301.50 0.4063479
301.60 0.406882
301.70 0.4074153
301.80 0.4079478
301.90 0.4084795
302.00 0.4090104
302.10 0.4095505
302.20 0.410091
302.30 0.4106307
302.40 0.4111695
302.50 0.4117076
302.60 0.4122449
302.70 0.4127813
302.80 0.413317
302.90 0.4138519
303.00 0.4143859
303.10 0.4149192
303.20 0.4154517
303.30 0.4159849
303.40 0.4165311
303.50 0.4170765
303.60 0.4176211
303.70 0.4181649
303.80 0.4187079
303.90 0.4192501
304.00 0.4197914
304.10 0.420332
304.20 0.4208718
304.30 0.4214108
304.40 0.4219489
304.50 0.4224863
304.60 0.4230283
304.70 0.4235701
304.80 0.4241111
304.90 0.4246513
305.00 0.4251906
305.10 0.4257292
305.20 0.426267
305.30 0.426804
305.40 0.4273402
305.50 0.4278756
305.60 0.4284102
305.70 0.428944
305.80 0.4294771
305.90 0.4300093
306.00 0.4305408
306.10 0.4310714
306.20 0.4316013
306.30 0.4321304
306.40 0.4326733
306.50 0.4332197
306.60 0.4337653
306.70 0.4343101
306.80 0.434854
306.90 0.4353972
307.00 0.4359396
307.10 0.4364812
307.20 0.437022
307.30 0.437562
307.40 0.4381012
307.50 0.4386396
307.60 0.4391772
307.70 0.439714
307.80 0.44025
307.90 0.4407853
308.00 0.4413197
308.10 0.4418534
308.20 0.4423863
308.30 0.4429184
308.40 0.4434497
308.50 0.4439802
308.60 0.4445099
308.70 0.4450389
308.80 0.445579
308.90 0.4461521
309.00 0.4466857
309.10 0.4472186
309.20 0.4477507
309.30 0.448282
309.40 0.448814
309.50 0.4493547
309.60 0.4498947
309.70 0.4504338
309.80 0.4509722
309.90 0.4515097
310.00 0.4520465
310.10 0.4525825
310.20 0.4531177
310.30 0.4536521
310.40 0.4541907
310.50 0.454734
310.60 0.4552765
310.70 0.4558183
310.80 0.4563592
310.90 0.4568993
311.00 0.4574344
311.10 0.4579687
311.20 0.4585023
311.30 0.4590363
311.40 0.459573
311.50 0.4601089
311.60 0.4606441
311.70 0.4611785
311.80 0.4617121
311.90 0.4622449
312.00 0.4627769
312.10 0.4633082
312.20 0.463841
312.30 0.4643825
312.40 0.4649231
312.50 0.4654636
312.60 0.4660057
312.70 0.4665469
312.80 0.4670874
312.90 0.4676238
313.00 0.4681558
313.10 0.468687
313.20 0.4692174
313.30 0.4697503
313.40 0.4702916
313.50 0.470832
313.60 0.4713717
313.70 0.4719106
313.80 0.4724487
313.90 0.472986
314.00 0.4735226
314.10 0.4740564
314.20 0.4745894
314.30 0.4751217
314.40 0.4756532
314.50 0.4761839
314.60 0.4767138
314.70 0.477243
314.80 0.4777753
314.90 0.4783218
315.00 0.478872
315.10 0.4794008
315.20 0.4799289
315.30 0.4804562
315.40 0.4809828
315.50 0.4815086
315.60 0.4820336
315.70 0.4825761
315.80 0.4831178
315.90 0.4836587
316.00 0.4841989
316.10 0.4847383
316.20 0.4852769
316.30 0.4857874
316.40 0.4863245
316.50 0.4868608
316.60 0.4873691
316.70 0.4879038
316.80 0.4884378
316.90 0.488971
317.00 0.4895034
317.10 0.4900351
317.20 0.490566
317.30 0.4910971
317.40 0.4916303
317.50 0.4921712
317.60 0.4927114
317.70 0.4932507
317.80 0.4937893
317.90 0.4943304
318.00 0.4948447
318.10 0.4953822
318.20 0.4959189
318.30 0.4964548
318.40 0.4969865
318.50 0.4975074
318.60 0.4980206
318.70 0.4985669
318.80 0.4991178
318.90 0.4996116
319.00 0.5001615
319.10 0.5007046
319.20 0.5012416
319.30 0.5017623
319.40 0.5022823
319.50 0.5028015
319.60 0.5033538
319.70 0.5038856
319.80 0.5044166
319.90 0.5049469
320.00 0.5054669
320.10 0.5059758
320.20 0.5065156
320.30 0.5070584
320.40 0.507581
320.50 0.5081081
320.60 0.5086281
320.70 0.5091591
320.80 0.5096893
320.90 0.5102187
321.00 0.5107474
321.10 0.5112753
321.20 0.5118267
321.30 0.5123487
321.40 0.5128699
321.50 0.5133904
321.60 0.5139102
321.70 0.5144292
321.80 0.514955
321.90 0.5154883
322.00 0.5160309
322.10 0.5165601
322.20 0.5170886
322.30 0.5176164
322.40 0.5181434
322.50 0.5186696
322.60 0.5191951
322.70 0.5197198
322.80 0.5202645
322.90 0.5207781
323.00 0.521291
323.10 0.5218032
323.20 0.5223147
323.30 0.5228254
323.40 0.5233353
323.50 0.5238446
323.60 0.5243531
323.70 0.5248609
323.80 0.5253679
323.90 0.5258743
324.00 0.5263828
324.10 0.5268907
324.20 0.5273978
324.30 0.5280335
324.40 0.5287949
324.50 0.5292938
324.60 0.5297921
324.70 0.5302896
324.80 0.5307863
324.90 0.5312824
325.00 0.5317778
325.10 0.5322725
325.20 0.532791
325.30 0.533361
325.40 0.5339302
325.50 0.5344451
325.60 0.5348941
325.70 0.5353424
325.80 0.53579
325.90 0.5362733
326.00 0.5367952
326.10 0.5373164
326.20 0.5378369
326.30 0.5384528
326.40 0.5393412
326.50 0.5398562
326.60 0.5403704
326.70 0.5408839
326.80 0.5413967
326.90 0.5419087
327.00 0.54242
327.10 0.5429306
327.20 0.5434404
327.30 0.5439496
327.40 0.544458
327.50 0.5449657
327.60 0.5454726
327.70 0.5459789
327.80 0.5464844
327.90 0.5470595
328.00 0.5476111
328.10 0.5480414
328.20 0.548471
328.30 0.5489
328.40 0.5493284
328.50 0.5498304
328.60 0.5503491
328.70 0.5508671
328.80 0.5513848
328.90 0.551903
329.00 0.5524204
329.10 0.5529372
329.20 0.5534532
329.30 0.5539685
329.40 0.554483
329.50 0.5549969
329.60 0.55551
329.70 0.5560224
329.80 0.556534
329.90 0.557045
330.00 0.5575709
330.10 0.5581153
330.20 0.5586589
330.30 0.5592017
330.40 0.5597341
330.50 0.5602551
330.60 0.5607755
330.70 0.561295
330.80 0.5618139
330.90 0.562332
331.00 0.5628494
331.10 0.5633661
331.20 0.5638821
331.30 0.5643973
331.40 0.5649118
331.50 0.5653996
331.60 0.5658551
331.70 0.5663099
331.80 0.5668449
331.90 0.5673826
332.00 0.5679194
332.10 0.5684556
332.20 0.568991
332.30 0.5695256
332.40 0.5700595
332.50 0.5705926
332.60 0.571125
332.70 0.5716567
332.80 0.5721876
332.90 0.5727178
333.00 0.5732472
333.10 0.573759
333.20 0.5742494
333.30 0.5747391
333.40 0.5752282
333.50 0.5757165
333.60 0.5762042
333.70 0.5766911
333.80 0.5771774
333.90 0.577663
334.00 0.5781479
334.10 0.5786615
334.20 0.5792101
334.30 0.5797579
334.40 0.580305
334.50 0.5808513
334.60 0.5813969
334.70 0.5819614
334.80 0.5824701
334.90 0.5828643
335.00 0.5832581
335.10 0.5838788
335.20 0.5842583
335.30 0.5848554
335.40 0.5852336
335.50 0.5860351
335.60 0.5864725
335.70 0.5867399
335.80 0.5873574
335.90 0.5879197
336.00 0.5884149
336.10 0.5889093
336.20 0.5894031
336.30 0.5899143
336.40 0.5904468
336.50 0.5909786
336.60 0.5915096
336.70 0.5920399
336.80 0.5925695
336.90 0.5930766
337.00 0.5935564
337.10 0.5940355
337.20 0.594514
337.30 0.594981
337.40 0.5954318
337.50 0.5958821
337.60 0.5963317
337.70 0.5967806
337.80 0.5972289
337.90 0.5977325
338.00 0.5983037
338.10 0.598874
338.20 0.5994436
338.30 0.6000124
338.40 0.6005617
338.50 0.6010641
338.60 0.6015659
338.70 0.602067
338.80 0.6025674
338.90 0.6030671
339.00 0.6035661
339.10 0.6040644
339.20 0.604562
339.30 0.6050062
339.40 0.6053742
339.50 0.6058075
339.60 0.6063208
339.70 0.6068333
339.80 0.6073452
339.90 0.6078564
340.00 0.6083668
340.10 0.6088765
340.20 0.6093856
340.30 0.6098939
340.40 0.6104016
340.50 0.6109085
340.60 0.6114147
340.70 0.6119202
340.80 0.6123654
340.90 0.6127243
341.00 0.6131552
341.10 0.6136743
341.20 0.6141926
341.30 0.6147103
341.40 0.6152272
341.50 0.6157434
341.60 0.616259
341.70 0.6167738
341.80 0.6172894
341.90 0.6178062
342.00 0.6183223
342.10 0.6188377
342.20 0.6191772
342.30 0.6196188
342.40 0.6202009
342.50 0.6206965
342.60 0.6211915
342.70 0.6216857
342.80 0.6221793
342.90 0.6226722
343.00 0.6231408
343.10 0.6235801
343.20 0.6240187
343.30 0.6244567
343.40 0.6249131
343.50 0.6253964
343.60 0.625879
343.70 0.6263609
343.80 0.6268421
343.90 0.6273227
344.00 0.6278341
344.10 0.6283901
344.20 0.6289453
344.30 0.6294998
344.40 0.6299593
344.50 0.6302827
344.60 0.6307938
344.70 0.631334
344.80 0.6318964
344.90 0.6322175
345.00 0.6329022
345.10 0.6334509
345.20 0.6339407
345.30 0.6343459
345.40 0.6347505
345.50 0.6352026
345.60 0.6356961
345.70 0.6361647
345.80 0.6366326
345.90 0.6370999
346.00 0.6375665
346.10 0.6380325
346.20 0.6385103
346.30 0.6390053
346.40 0.6394997
346.50 0.6399933
346.60 0.6404863
346.70 0.6409786
346.80 0.6414702
346.90 0.6419612
347.00 0.6424515
347.10 0.6429411
347.20 0.6434194
347.30 0.643882
347.40 0.6443438
347.50 0.6448051
347.60 0.6452657
347.70 0.6457257
347.80 0.646185
347.90 0.6466437
348.00 0.6471017
348.10 0.6475592
348.20 0.648016
348.30 0.6484721
348.40 0.6489277
348.50 0.6493826
348.60 0.6498368
348.70 0.6504197
348.80 0.6509773
348.90 0.6514401
349.00 0.6519023
349.10 0.6523639
349.20 0.6528249
349.30 0.6532852
349.40 0.6537449
349.50 0.6542039
349.60 0.6546623
349.70 0.6551201
349.80 0.6555773
349.90 0.6560338
350.00 0.6564897
350.10 0.656945
350.20 0.6573996
350.30 0.6578598
350.40 0.6583282
350.50 0.6587959
350.60 0.659263
350.70 0.6597295
350.80 0.6601953
350.90 0.6606605
351.00 0.661125
351.10 0.661589
351.20 0.6620522
351.30 0.6625149
351.40 0.6629944
351.50 0.6635044
351.60 0.6640138
351.70 0.6645224
351.80 0.6650304
351.90 0.6655377
352.00 0.6660443
352.10 0.6665502
352.20 0.6670565
352.30 0.6675409
352.40 0.6679939
352.50 0.6684463
352.60 0.6688981
352.70 0.6693493
352.80 0.6697999
352.90 0.6702498
353.00 0.6706992
353.10 0.6711479
353.20 0.671596
353.30 0.6720434
353.40 0.6724903
353.50 0.6729827
353.60 0.6734859
353.70 0.6739884
353.80 0.6744903
353.90 0.6749715
354.00 0.6754165
354.10 0.6758609
354.20 0.6763047
354.30 0.6767479
354.40 0.6771905
354.50 0.6776325
354.60 0.6780739
354.70 0.6785146
354.80 0.6789396
354.90 0.6793422
355.00 0.6797443
355.10 0.6801458
355.20 0.6805467
355.30 0.6810655
355.40 0.6815835
355.50 0.6821009
355.60 0.6826176
355.70 0.6830231
355.80 0.6833785
355.90 0.6837441
356.00 0.6842048
356.10 0.6846839
356.20 0.6851625
356.30 0.6856404
356.40 0.6861176
356.50 0.6865942
356.60 0.6870701
356.70 0.6875455
356.80 0.6880201
356.90 0.6884942
357.00 0.6889675
357.10 0.6894403
357.20 0.6899124
357.30 0.6903839
357.40 0.6908205
357.50 0.6911958
357.60 0.6915706
357.70 0.6919448
357.80 0.6923323
357.90 0.6927193
358.00 0.6931715
358.10 0.6936396
358.20 0.694107
358.30 0.6945738
358.40 0.6950399
358.50 0.6955055
358.60 0.6959704
358.70 0.6964347
358.80 0.6968983
358.90 0.6973613
359.00 0.6977906
359.10 0.6981603
359.20 0.6985489
359.30 0.6990663
359.40 0.699583
359.50 0.6999775
359.60 0.7003411
359.70 0.7007041
359.80 0.7012718
359.90 0.7018387
360.00 0.7023427
360.10 0.7027355
360.20 0.7031278
360.30 0.7035196
360.40 0.7039109
360.50 0.7043016
360.60 0.7050214
360.70 0.7053638
360.80 0.7057058
360.90 0.7060472
361.00 0.7066624
361.10 0.7070343
361.20 0.7074321
361.30 0.7080429
361.40 0.7082981
361.50 0.7089283
361.60 0.7090866
361.70 0.709528
361.80 0.7099617
361.90 0.7103824
362.00 0.7108025
362.10 0.7112653
362.20 0.711722
362.30 0.7121489
362.40 0.7125752
362.50 0.7130009
362.60 0.713426
362.70 0.7138869
362.80 0.7144599
362.90 0.71489
363.00 0.7153195
363.10 0.7156814
363.20 0.7160422
363.30 0.7166251
363.40 0.7171595
363.50 0.717487
363.60 0.7179171
363.70 0.7182093
363.80 0.7187756
363.90 0.7191648
364.00 0.7195534
364.10 0.7199415
364.20 0.7203291
364.30 0.7208204
364.40 0.7213372
364.50 0.7217703
364.60 0.7221919
364.70 0.7226129
364.80 0.7230334
364.90 0.723456
365.00 0.723878
365.10 0.7242995
365.20 0.7247204
365.30 0.7251408
365.40 0.7255605
365.50 0.7259797
365.60 0.7263984
365.70 0.7269276
365.80 0.7274561
365.90 0.7277866
366.00 0.7280672
366.10 0.728469
366.20 0.7288703
366.30 0.729271
366.40 0.7296712
366.50 0.730132
366.60 0.7305536
366.70 0.7310766
366.80 0.731599
366.90 0.7320777
367.00 0.7324796
367.10 0.7328809
367.20 0.7332817
367.30 0.7336819
367.40 0.7340816
367.50 0.7345595
367.60 0.7350564
367.70 0.7353994
367.80 0.7357419
367.90 0.736084
368.00 0.7364785
368.10 0.7370743
368.20 0.7374666
368.30 0.7378563
368.40 0.7382454
368.50 0.7386341
368.60 0.7390222
368.70 0.7394097
368.80 0.7397968
368.90 0.7401573
369.00 0.740607
369.10 0.7410901
369.20 0.7414974
369.30 0.7418954
369.40 0.7422928
369.50 0.7426896
369.60 0.743082
369.70 0.7434738
369.80 0.743933
369.90 0.7443923
370.00 0.744851
370.10 0.7450595
370.20 0.7454447
370.30 0.7458373
370.40 0.746426
370.50 0.7468224
370.60 0.7472083
370.70 0.7478069
370.80 0.7481927
370.90 0.7485779
371.00 0.7489705
371.10 0.7493626
371.20 0.7497463
371.30 0.7501294
371.40 0.75042
371.50 0.7508252
371.60 0.7512299
371.70 0.751634
371.80 0.7520376
371.90 0.7524406
372.00 0.7527758
372.10 0.753215
372.20 0.7536629
372.30 0.7541103
372.40 0.754557
372.50 0.7550032
372.60 0.7554488
372.70 0.7558938
372.80 0.756269
372.90 0.7566436
373.00 0.7570255
373.10 0.7574069
373.20 0.7577839
373.30 0.7581604
373.40 0.7585364
373.50 0.7589118
373.60 0.7594821
373.70 0.7596612
373.80 0.7602058
373.90 0.7604085
374.00 0.7608789
374.10 0.7613486
374.20 0.7618177
374.30 0.7622862
374.40 0.7626083
374.50 0.7630176
374.60 0.7633909
374.70 0.763762
374.80 0.7641326
374.90 0.7645027
375.00 0.7648704
375.10 0.7652376
375.20 0.7656042
375.30 0.7660257
375.40 0.7664466
375.50 0.7668669
375.60 0.7672867
375.70 0.7677059
375.80 0.7681246
375.90 0.7685427
376.00 0.7688975
376.10 0.7692445
376.20 0.7695908
376.30 0.7699368
376.40 0.7702822
376.50 0.7706438
376.60 0.7710299
376.70 0.7714154
376.80 0.771806
376.90 0.7722016
377.00 0.7725967
377.10 0.7729912
377.20 0.7733919
377.30 0.7738171
377.40 0.7742418
377.50 0.7746659
377.60 0.7750037
377.70 0.775341
377.80 0.7756779
377.90 0.7760143
378.00 0.7764239
378.10 0.7768091
378.20 0.7771924
378.30 0.7775752
378.40 0.7779574
378.50 0.7783392
378.60 0.7787204
378.70 0.7791012
378.80 0.7794814
378.90 0.7798796
379.00 0.7803115
379.10 0.7806585
379.20 0.7810051
379.30 0.7814001
379.40 0.7818434
379.50 0.7822862
379.60 0.782641
379.70 0.7828951
379.80 0.7832645
379.90 0.7836334
380.00 0.7840018
380.10 0.7843697
380.20 0.7847371
380.30 0.785104
380.40 0.7854704
380.50 0.7858364
380.60 0.7864919
380.70 0.7868481
380.80 0.7872039
380.90 0.7875592
381.00 0.787914
381.10 0.7882044
381.20 0.7885464
381.30 0.7889948
381.40 0.7892219
381.50 0.7897687
381.60 0.7901824
381.70 0.7904593
381.80 0.7909733
381.90 0.7911198
382.00 0.7916396
382.10 0.7917854
382.20 0.7922295
382.30 0.7925611
382.40 0.7928994
382.50 0.7932479
382.60 0.7935959
382.70 0.7939459
382.80 0.7943483
382.90 0.7948002
383.00 0.7952515
383.10 0.7957023
383.20 0.7960999
383.30 0.7962996
383.40 0.796571
383.50 0.7969499
383.60 0.7973457
383.70 0.7977107
383.80 0.7980753
383.90 0.7984393
384.00 0.7988029
384.10 0.799166
384.20 0.7995285
384.30 0.7998906
384.40 0.8002504
384.50 0.8006078
384.60 0.8009647
384.70 0.8013212
384.80 0.8016947
384.90 0.8021108
385.00 0.8024835
385.10 0.8028532
385.20 0.8031411
385.30 0.8034698
385.40 0.8038106
385.50 0.8041632
385.60 0.8045153
385.70 0.804867
385.80 0.8052368
385.90 0.8056758
386.00 0.8060756
386.10 0.8064297
386.20 0.8067177
386.30 0.8070054
386.40 0.8074836
386.50 0.807918
386.60 0.8080204
386.70 0.808514
386.80 0.8090069
386.90 0.8091351
387.00 0.8097271
387.10 0.8098545
387.20 0.8103178
387.30 0.810472
387.40 0.8109595
387.50 0.8114015
387.60 0.8115576
387.70 0.811955
387.80 0.8123519
387.90 0.8127484
388.00 0.81315
388.10 0.8133333
388.20 0.8136229
388.30 0.8140073
388.40 0.8143913
388.50 0.8148265
388.60 0.8152602
388.70 0.8154253
388.80 0.8158971
388.90 0.8163787
389.00 0.8165514
389.10 0.8169614
389.20 0.817278
389.30 0.8175231
389.40 0.8178408
389.50 0.8182255
389.60 0.8186962
389.70 0.8190752
389.80 0.8193872
389.90 0.8196988
390.00 0.8200099
390.10 0.8203207
390.20 0.820631
390.30 0.8209699
390.40 0.821341
390.50 0.8217117
390.60 0.8220818
390.70 0.8224515
390.80 0.822829
390.90 0.8232144
391.00 0.8232446
391.10 0.8236887
391.20 0.8240518
391.30 0.8242483
391.40 0.8245982
391.50 0.8249476
391.60 0.8252966
391.70 0.8256451
391.80 0.8259932
391.90 0.826447
392.00 0.826868
392.10 0.8270603
392.20 0.8273052
392.30 0.8278453
392.40 0.8281433
392.50 0.828472
392.60 0.8286955
392.70 0.8290424
392.80 0.8295037
392.90 0.8298124
393.00 0.8301412
393.10 0.8304771
393.20 0.8308158
393.30 0.8310982
393.40 0.8314049
393.50 0.8318171
393.60 0.831959
393.70 0.8324157
393.80 0.832856
393.90 0.8331359
394.00 0.8334032
394.10 0.8336153
394.20 0.8339048
394.30 0.8342952
394.40 0.8345533
394.50 0.8350943
394.60 0.8354535
394.70 0.8357828
394.80 0.8360012
394.90 0.8362224
395.00 0.836577
395.10 0.8369956
395.20 0.837313
395.30 0.8376849
395.40 0.8380563
395.50 0.8383643
395.60 0.8386485
395.70 0.8389482
395.80 0.8392903
395.90 0.839632
396.00 0.8399426
396.10 0.8400624
396.20 0.8405066
396.30 0.8409503
396.40 0.8410464
396.50 0.8414892
396.60 0.8418707
396.70 0.8420357
396.80 0.8424832
396.90 0.8427095
397.00 0.8429422
397.10 0.843382
397.20 0.8436301
397.30 0.8439472
397.40 0.8442824
397.50 0.8446171
397.60 0.8449492
397.70 0.8452577
397.80 0.8455657
397.90 0.8458748
398.00 0.8461873
398.10 0.8464993
398.20 0.8467958
398.30 0.8470748
398.40 0.8473561
398.50 0.8477231
398.60 0.8480503
398.70 0.8483324
398.80 0.8486065
398.90 0.8489021
399.00 0.8492376
399.10 0.8495672
399.20 0.8499262
399.30 0.8502848
399.40 0.8506429
399.50 0.8510005
399.60 0.8513164
399.70 0.8516165
399.80 0.8519162
399.90 0.8522155
400.00 0.8525083
400.10 0.8526062
400.20 0.8529007
400.30 0.8532216
400.40 0.8536019
400.50 0.8537641
400.60 0.8541736
400.70 0.8544264
400.80 0.8548027
400.90 0.8552243
401.00 0.855386
401.10 0.855727
401.20 0.8560608
401.30 0.856286
401.40 0.8565791
401.50 0.856904
401.60 0.8572293
401.70 0.8575822
401.80 0.8578959
401.90 0.8581436
402.00 0.8585613
402.10 0.8587843
402.20 0.8590753
402.30 0.8594717
402.40 0.8596472
402.50 0.8601068
402.60 0.8603703
402.70 0.8605974
402.80 0.8608421
402.90 0.8610865
403.00 0.8614984
403.10 0.8615743
403.20 0.8621685
403.30 0.8622566
403.40 0.8624942
403.50 0.8628374
403.60 0.8631776
403.70 0.8633637
403.80 0.8639563
403.90 0.8640982
404.00 0.8642779
404.10 0.86466
404.20 0.8648996
404.30 0.8651388
404.40 0.8655595
404.50 0.8659494
404.60 0.866021
404.70 0.8664252
404.80 0.8666819
404.90 0.8668996
405.00 0.8673257
405.10 0.8676099
405.20 0.8678932
405.30 0.8681761
405.40 0.8684666
405.50 0.8687566
405.60 0.8690463
405.70 0.8693356
405.80 0.8696244
405.90 0.8699129
406.00 0.8702165
406.10 0.8705196
406.20 0.8708223
406.30 0.8711246
406.40 0.8714046
406.50 0.8715555
406.60 0.8718665
406.70 0.8720558
406.80 0.8723992
406.90 0.8725787
407.00 0.872874
407.10 0.8731689
407.20 0.8734634
407.30 0.8737575
407.40 0.8740513
407.50 0.8743446
407.60 0.8746375
407.70 0.8749301
407.80 0.8752222
407.90 0.8755138
408.00 0.8758005
408.10 0.8761074
408.20 0.8764386
408.30 0.876755
408.40 0.8770709
408.50 0.8771694
408.60 0.877418
408.70 0.8776663
408.80 0.8779222
408.90 0.8782277
409.00 0.8784864
409.10 0.8787447
409.20 0.8790027
409.30 0.8792603
409.40 0.879521
409.50 0.8798957
409.60 0.8802698
409.70 0.8806026
409.80 0.8807712
409.90 0.88095
410.00 0.8814649
410.10 0.8815754
410.20 0.8818611
410.30 0.8821902
410.40 0.8824902
410.50 0.8826989
410.60 0.8829072
410.70 0.8831446
410.80 0.8834994
410.90 0.8838538
411.00 0.8841026
411.10 0.8843122
411.20 0.8845215
411.30 0.8847679
411.40 0.8851594
411.50 0.8854119
411.60 0.8856639
411.70 0.8859079
411.80 0.8861207
411.90 0.8863652
412.00 0.8867379
412.10 0.8868694
412.20 0.887161
412.30 0.8874818
412.40 0.8876061
412.50 0.8879307
412.60 0.8881866
412.70 0.8884912
412.80 0.8888077
412.90 0.8889763
413.00 0.8893283
413.10 0.889595
413.20 0.8898613
413.30 0.8901273
413.40 0.8903929
413.50 0.8906519
413.60 0.8908979
413.70 0.891184
413.80 0.8914697
413.90 0.8917549
414.00 0.8920208
414.10 0.8922258
414.20 0.8924687
414.30 0.8928002
414.40 0.8928773
414.50 0.8932325
414.60 0.8935638
414.70 0.8937669
414.80 0.8939887
414.90 0.8942703
415.00 0.8945516
415.10 0.8948326
415.20 0.8951078
415.30 0.8953661
415.40 0.895624
415.50 0.8958813
415.60 0.896129
415.70 0.8963763
415.80 0.8966099
415.90 0.8968009
416.00 0.8969915
416.10 0.8971935
416.20 0.8974417
416.30 0.8976895
416.40 0.8979369
416.50 0.8981873
416.60 0.8985414
416.70 0.8988716
416.80 0.8989378
416.90 0.8992875
417.00 0.8994598
417.10 0.8996787
417.20 0.9000305
417.30 0.9003783
417.40 0.9006103
417.50 0.9008421
417.60 0.9010478
417.70 0.9011548
