# Version 2.1 - nm, norm@500 to 1, cut digits, bergeron_He_4750_75.dat_4750
# Wavelength(nm)  Flambda(ergs/cm^s/s/nm)
300.00 0.07867233
300.10 0.0788845
300.20 0.07909684
300.30 0.07931006
300.40 0.0795308
300.50 0.07975123
300.60 0.07997134
300.70 0.08019115
300.80 0.08041065
300.90 0.08062984
301.00 0.08084872
301.10 0.08106729
301.20 0.08128555
301.30 0.08150351
301.40 0.08172116
301.50 0.0819385
301.60 0.08215553
301.70 0.08237226
301.80 0.08258869
301.90 0.08280481
302.00 0.08302062
302.10 0.08324512
302.20 0.0834703
302.30 0.08369517
302.40 0.08391972
302.50 0.08414395
302.60 0.08436787
302.70 0.08459147
302.80 0.08481477
302.90 0.08503774
303.00 0.08526041
303.10 0.08548276
303.20 0.0857048
303.30 0.0859275
303.40 0.08615858
303.50 0.08638933
303.60 0.08661977
303.70 0.08684988
303.80 0.08707967
303.90 0.08730913
304.00 0.08753828
304.10 0.08776711
304.20 0.08799561
304.30 0.0882238
304.40 0.08845167
304.50 0.08867922
304.60 0.0889157
304.70 0.08915287
304.80 0.08938971
304.90 0.08962623
305.00 0.08986241
305.10 0.09009826
305.20 0.09033379
305.30 0.09056899
305.40 0.09080386
305.50 0.09103841
305.60 0.09127262
305.70 0.09150652
305.80 0.09174008
305.90 0.09197332
306.00 0.09220624
306.10 0.09243883
306.20 0.0926711
306.30 0.09290305
306.40 0.09314701
306.50 0.0933943
306.60 0.09364126
306.70 0.09388787
306.80 0.09413415
306.90 0.09438008
307.00 0.09462567
307.10 0.09487092
307.20 0.09511583
307.30 0.09536041
307.40 0.09560464
307.50 0.09584854
307.60 0.0960921
307.70 0.09633532
307.80 0.09657821
307.90 0.09682076
308.00 0.09706298
308.10 0.09730486
308.20 0.0975464
308.30 0.09778762
308.40 0.09802849
308.50 0.09826904
308.60 0.09850926
308.70 0.09874914
308.80 0.09899108
308.90 0.0992395
309.00 0.09948942
309.10 0.099739
309.20 0.09998823
309.30 0.1002371
309.40 0.1004864
309.50 0.1007398
309.60 0.1009928
309.70 0.1012456
309.80 0.1014979
309.90 0.1017499
310.00 0.1020016
310.10 0.1022529
310.20 0.1025039
310.30 0.1027545
310.40 0.1030086
310.50 0.1032666
310.60 0.1035241
310.70 0.1037814
310.80 0.1040382
310.90 0.1042948
311.00 0.1045518
311.10 0.1048084
311.20 0.1050647
311.30 0.1053224
311.40 0.1055849
311.50 0.1058471
311.60 0.1061089
311.70 0.1063703
311.80 0.1066314
311.90 0.1068921
312.00 0.1071525
312.10 0.1074125
312.20 0.1076681
312.30 0.1079279
312.40 0.1081925
312.50 0.1084519
312.60 0.1087173
312.70 0.1089825
312.80 0.1092472
312.90 0.1095136
313.00 0.1097817
313.10 0.1100494
313.20 0.1103168
313.30 0.1105843
313.40 0.1108531
313.50 0.1111215
313.60 0.1113895
313.70 0.1116572
313.80 0.1119245
313.90 0.1121914
314.00 0.112458
314.10 0.1127308
314.20 0.1130032
314.30 0.1132753
314.40 0.113547
314.50 0.1138183
314.60 0.1140893
314.70 0.1143599
314.80 0.114632
314.90 0.1149032
315.00 0.115168
315.10 0.1154456
315.20 0.1157228
315.30 0.1159996
315.40 0.116276
315.50 0.1165521
315.60 0.1168278
315.70 0.1171044
315.80 0.1173806
315.90 0.1176564
316.00 0.1179319
316.10 0.1182107
316.20 0.1184892
316.30 0.1187673
316.40 0.1190525
316.50 0.1193298
316.60 0.1196143
316.70 0.1198909
316.80 0.1201671
316.90 0.1204504
317.00 0.1207334
317.10 0.1210159
317.20 0.1212981
317.30 0.121582
317.40 0.1218656
317.50 0.1221493
317.60 0.1224326
317.70 0.1227156
317.80 0.1229981
317.90 0.1232827
318.00 0.1235772
318.10 0.1238634
318.20 0.1241492
318.30 0.1244346
318.40 0.1247196
318.50 0.1250043
318.60 0.1252905
318.70 0.1255818
318.80 0.12588
318.90 0.1261632
319.00 0.1264533
319.10 0.126743
319.20 0.1270339
319.30 0.1273287
319.40 0.1276231
319.50 0.1279171
319.60 0.1282021
319.70 0.1284953
319.80 0.1287882
319.90 0.1290806
320.00 0.1293734
320.10 0.1296666
320.20 0.1299665
320.30 0.1302659
320.40 0.1305549
320.50 0.1308539
320.60 0.1311559
320.70 0.1314468
320.80 0.1317424
320.90 0.1320434
321.00 0.132344
321.10 0.1326442
321.20 0.1329475
321.30 0.1332476
321.40 0.1335473
321.50 0.1338465
321.60 0.1341454
321.70 0.1344439
321.80 0.1347424
321.90 0.1350409
322.00 0.1353479
322.10 0.1356531
322.20 0.1359578
322.30 0.1362621
322.40 0.136566
322.50 0.1368695
322.60 0.1371727
322.70 0.1374754
322.80 0.1377811
322.90 0.1380913
323.00 0.1384012
323.10 0.1387106
323.20 0.1390195
323.30 0.1393281
323.40 0.1396363
323.50 0.1399441
323.60 0.1402514
323.70 0.1405584
323.80 0.1408649
323.90 0.141171
324.00 0.141482
324.10 0.1417926
324.20 0.1421027
324.30 0.1424139
324.40 0.1427279
324.50 0.1430405
324.60 0.1433527
324.70 0.1436644
324.80 0.1439757
324.90 0.1442867
325.00 0.1445972
325.10 0.1449073
325.20 0.1452161
325.30 0.1455227
325.40 0.1458289
325.50 0.1461497
325.60 0.1464884
325.70 0.1468267
325.80 0.1471646
325.90 0.1474898
326.00 0.1478014
326.10 0.1481127
326.20 0.1484235
326.30 0.148746
326.40 0.1491027
326.50 0.1494289
326.60 0.1497546
326.70 0.15008
326.80 0.1504048
326.90 0.1507293
327.00 0.1510533
327.10 0.151377
327.20 0.1517002
327.30 0.1520229
327.40 0.1523453
327.50 0.1526672
327.60 0.1529887
327.70 0.1533098
327.80 0.1536304
327.90 0.1539474
328.00 0.154267
328.10 0.1545942
328.20 0.1549209
328.30 0.1552473
328.40 0.1555732
328.50 0.1559079
328.60 0.1562443
328.70 0.1565802
328.80 0.1569139
328.90 0.157242
329.00 0.1575696
329.10 0.1578969
329.20 0.1582236
329.30 0.15855
329.40 0.158876
329.50 0.1592015
329.60 0.1595266
329.70 0.1598513
329.80 0.1601755
329.90 0.1604993
330.00 0.1608368
330.10 0.161191
330.20 0.1615447
330.30 0.161898
330.40 0.1622441
330.50 0.1625825
330.60 0.1629205
330.70 0.163258
330.80 0.1635951
330.90 0.1639318
331.00 0.164268
331.10 0.1646038
331.20 0.1649391
331.30 0.165274
331.40 0.1656085
331.50 0.165945
331.60 0.166284
331.70 0.1666226
331.80 0.1669666
331.90 0.1673103
332.00 0.1676536
332.10 0.1679964
332.20 0.1683388
332.30 0.1686807
332.40 0.1690222
332.50 0.1693633
332.60 0.1697039
332.70 0.1700441
332.80 0.1703838
332.90 0.1707232
333.00 0.171062
333.10 0.1714092
333.20 0.1717665
333.30 0.1721234
333.40 0.1724799
333.50 0.1728359
333.60 0.1731914
333.70 0.1735465
333.80 0.1739011
333.90 0.1742553
334.00 0.174609
334.10 0.1749683
334.20 0.1753345
334.30 0.1757003
334.40 0.1760656
334.50 0.1764304
334.60 0.1767948
334.70 0.1771216
334.80 0.1774328
334.90 0.1777871
335.00 0.178141
335.10 0.1784759
335.20 0.1788375
335.30 0.1792722
335.40 0.1795828
335.50 0.1799932
335.60 0.1803029
335.70 0.1806389
335.80 0.1809978
335.90 0.1813562
336.00 0.1817142
336.10 0.1820717
336.20 0.1824288
336.30 0.1827953
336.40 0.1831736
336.50 0.1835514
336.60 0.1839287
336.70 0.1843055
336.80 0.1846819
336.90 0.1850458
337.00 0.1853945
337.10 0.1857428
337.20 0.1860907
337.30 0.1864504
337.40 0.1868271
337.50 0.1872035
337.60 0.1875793
337.70 0.1879547
337.80 0.1883295
337.90 0.1886919
338.00 0.1890392
338.10 0.189386
338.20 0.1897323
338.30 0.1900783
338.40 0.1904324
338.50 0.1908073
338.60 0.1911817
338.70 0.1915557
338.80 0.1919292
338.90 0.1923022
339.00 0.1926747
339.10 0.1930468
339.20 0.1934184
339.30 0.1938091
339.40 0.1942274
339.50 0.1946262
339.60 0.1950012
339.70 0.1953758
339.80 0.1957499
339.90 0.1961235
340.00 0.1964967
340.10 0.1968694
340.20 0.1972416
340.30 0.1976133
340.40 0.1979846
340.50 0.1983554
340.60 0.1987257
340.70 0.1990956
340.80 0.1994551
340.90 0.1998
341.00 0.200162
341.10 0.2005452
341.20 0.2009279
341.30 0.2013101
341.40 0.2016918
341.50 0.2020731
341.60 0.2024538
341.70 0.2028341
341.80 0.2032211
341.90 0.2036165
342.00 0.2040114
342.10 0.2044058
342.20 0.2048254
342.30 0.2052031
342.40 0.2055669
342.50 0.2059628
342.60 0.2063582
342.70 0.206753
342.80 0.2071474
342.90 0.2075413
343.00 0.2079309
343.10 0.2083153
343.20 0.2086992
343.30 0.2090826
343.40 0.2094677
343.50 0.2098552
343.60 0.2102422
343.70 0.2106288
343.80 0.2110149
343.90 0.2114004
344.00 0.2117855
344.10 0.2121702
344.20 0.2125543
344.30 0.2129379
344.40 0.2133211
344.50 0.2137038
344.60 0.2141379
344.70 0.2145196
344.80 0.2149008
344.90 0.2152816
345.00 0.2157363
345.10 0.2161161
345.20 0.2164981
345.30 0.2168837
345.40 0.2172689
345.50 0.2176417
345.60 0.2180249
345.70 0.2184437
345.80 0.2188619
345.90 0.2192797
346.00 0.219697
346.10 0.2201137
346.20 0.220523
346.30 0.220922
346.40 0.2213205
346.50 0.2217185
346.60 0.222116
346.70 0.222513
346.80 0.2229095
346.90 0.2233055
347.00 0.223701
347.10 0.224096
347.20 0.2244957
347.30 0.2249022
347.40 0.2253083
347.50 0.2257138
347.60 0.2261188
347.70 0.2265234
347.80 0.2269274
347.90 0.2273309
348.00 0.2277339
348.10 0.2281364
348.20 0.2285385
348.30 0.22894
348.40 0.229341
348.50 0.2297415
348.60 0.2301415
348.70 0.2305546
348.80 0.2309725
348.90 0.2313916
349.00 0.2318101
349.10 0.2322281
349.20 0.2326456
349.30 0.2330626
349.40 0.2334791
349.50 0.233895
349.60 0.2343105
349.70 0.2347254
349.80 0.2351398
349.90 0.2355537
350.00 0.2359671
350.10 0.23638
350.20 0.2367924
350.30 0.2372071
350.40 0.2376256
350.50 0.2380436
350.60 0.238461
350.70 0.2388779
350.80 0.2392944
350.90 0.2397103
351.00 0.2401257
351.10 0.2405405
351.20 0.2409549
351.30 0.2413687
351.40 0.2417835
351.50 0.2422003
351.60 0.2426166
351.70 0.2430324
351.80 0.2434477
351.90 0.2438625
352.00 0.2442767
352.10 0.2446905
352.20 0.245119
352.30 0.2455464
352.40 0.24597
352.50 0.246393
352.60 0.2468154
352.70 0.2472374
352.80 0.2476589
352.90 0.2480798
353.00 0.2485002
353.10 0.2489201
353.20 0.2493395
353.30 0.2497583
353.40 0.2501767
353.50 0.2506021
353.60 0.2510289
353.70 0.2514551
353.80 0.2518808
353.90 0.2523093
354.00 0.2527429
354.10 0.253176
354.20 0.2536086
354.30 0.2540406
354.40 0.2544722
354.50 0.2549032
354.60 0.2553336
354.70 0.2557636
354.80 0.2561909
354.90 0.2566147
355.00 0.257038
355.10 0.2574608
355.20 0.2578831
355.30 0.258318
355.40 0.2587524
355.50 0.2591862
355.60 0.2596195
355.70 0.2600399
355.80 0.2604542
355.90 0.2608952
356.00 0.2613487
356.10 0.2617928
356.20 0.2622365
356.30 0.2626795
356.40 0.2631221
356.50 0.2635641
356.60 0.2640056
356.70 0.2644465
356.80 0.2648869
356.90 0.2653267
357.00 0.2657661
357.10 0.2662049
357.20 0.2666431
357.30 0.2670809
357.40 0.2675212
357.50 0.2679665
357.60 0.2684112
357.70 0.2688554
357.80 0.2692921
357.90 0.2697283
358.00 0.2701711
358.10 0.2706152
358.20 0.2710587
358.30 0.2715017
358.40 0.2719442
358.50 0.2723861
358.60 0.2728275
358.70 0.2732683
358.80 0.2737087
358.90 0.2741485
359.00 0.2745817
359.10 0.2750036
359.20 0.2754284
359.30 0.2758746
359.40 0.2763203
359.50 0.2767848
359.60 0.2772534
359.70 0.2777216
359.80 0.2781388
359.90 0.2785556
360.00 0.278984
360.10 0.2794334
360.20 0.2798822
360.30 0.2803305
360.40 0.2807782
360.50 0.2812254
360.60 0.2817562
360.70 0.2822065
360.80 0.2826561
360.90 0.2831053
361.00 0.2835583
361.10 0.283973
361.20 0.2844045
361.30 0.2849148
361.40 0.2853325
361.50 0.2857497
361.60 0.2862812
361.70 0.2866973
361.80 0.2871323
361.90 0.2876011
362.00 0.2880694
362.10 0.2885451
362.20 0.2890102
362.30 0.2894532
362.40 0.2898958
362.50 0.2903378
362.60 0.2907792
362.70 0.2912469
362.80 0.2917207
362.90 0.2921844
363.00 0.2926476
363.10 0.293111
363.20 0.2935739
363.30 0.2939925
363.40 0.2944282
363.50 0.2949202
363.60 0.2953832
363.70 0.2958331
363.80 0.2962508
363.90 0.2967365
364.00 0.2972217
364.10 0.2977062
364.20 0.2981902
364.30 0.2986088
364.40 0.2990109
364.50 0.2995319
364.60 0.3000061
364.70 0.3004797
364.80 0.3009528
364.90 0.3014087
365.00 0.301864
365.10 0.3023187
365.20 0.3027729
365.30 0.3032266
365.40 0.3036797
365.50 0.3041323
365.60 0.3045843
365.70 0.3050818
365.80 0.3055786
365.90 0.3060432
366.00 0.3064992
366.10 0.3069655
366.20 0.3074311
366.30 0.3078963
366.40 0.3083608
366.50 0.3087903
366.60 0.3092987
366.70 0.3097651
366.80 0.3102308
366.90 0.310699
367.00 0.3111719
367.10 0.3116442
367.20 0.312116
367.30 0.3125872
367.40 0.3130578
367.50 0.3135596
367.60 0.3140686
367.70 0.3145414
367.80 0.3150135
367.90 0.3154851
368.00 0.3159386
368.10 0.3164256
368.20 0.3168935
368.30 0.3173603
368.40 0.3178266
368.50 0.3182923
368.60 0.3187575
368.70 0.3192221
368.80 0.3196862
368.90 0.3202045
369.00 0.3206764
369.10 0.3211122
369.20 0.3216058
369.30 0.3220928
369.40 0.3225793
369.50 0.3230651
369.60 0.3235471
369.70 0.3240286
369.80 0.3245068
369.90 0.3249845
370.00 0.3254615
370.10 0.325961
370.20 0.3264436
370.30 0.3269249
370.40 0.3273492
370.50 0.3278308
370.60 0.328309
370.70 0.3287416
370.80 0.3292713
370.90 0.3298003
371.00 0.3302814
371.10 0.3307615
371.20 0.3312344
371.30 0.3317068
371.40 0.3322043
371.50 0.3326743
371.60 0.3331438
371.70 0.3336128
371.80 0.3340812
371.90 0.3345491
372.00 0.3350893
372.10 0.335607
372.20 0.3360776
372.30 0.3365476
372.40 0.3370171
372.50 0.337486
372.60 0.3379544
372.70 0.3384222
372.80 0.33894
372.90 0.3394573
373.00 0.3399271
373.10 0.3403959
373.20 0.3409149
373.30 0.3414333
373.40 0.3418971
373.50 0.3424143
373.60 0.342877
373.70 0.343393
373.80 0.3438278
373.90 0.3443158
374.00 0.3448032
374.10 0.34529
374.20 0.3457762
374.30 0.3462619
374.40 0.3467471
374.50 0.3472774
374.60 0.3477641
374.70 0.3482492
374.80 0.3487337
374.90 0.3492176
375.00 0.3497083
375.10 0.3501983
375.20 0.3506878
375.30 0.3511868
375.40 0.3516853
375.50 0.3521832
375.60 0.3526805
375.70 0.3531772
375.80 0.3536734
375.90 0.3541689
376.00 0.3547173
376.10 0.3552006
376.20 0.3556827
376.30 0.3561642
376.40 0.3566452
376.50 0.3571355
376.60 0.3576401
376.70 0.3581441
376.80 0.3586462
376.90 0.3591464
377.00 0.359646
377.10 0.3601451
377.20 0.3606439
377.30 0.3611434
377.40 0.3616423
377.50 0.3621406
377.60 0.3626363
377.70 0.3631313
377.80 0.3636258
377.90 0.3641196
378.00 0.3646464
378.10 0.3651478
378.20 0.3656479
378.30 0.3661474
378.40 0.3666463
378.50 0.3671447
378.60 0.3676425
378.70 0.3681396
378.80 0.3686363
378.90 0.3691348
379.00 0.3696376
379.10 0.3701537
379.20 0.3706691
379.30 0.3711827
379.40 0.3716943
379.50 0.3722053
379.60 0.3727136
379.70 0.3732174
379.80 0.373718
379.90 0.374218
380.00 0.3747174
380.10 0.3752163
380.20 0.3757145
380.30 0.3762122
380.40 0.3767094
380.50 0.3772059
380.60 0.3777126
380.70 0.3782212
380.80 0.3787292
380.90 0.3792366
381.00 0.3797434
381.10 0.3802555
381.20 0.3807585
381.30 0.3813103
381.40 0.3817897
381.50 0.3823309
381.60 0.3828527
381.70 0.3833336
381.80 0.383824
381.90 0.3843443
382.00 0.384864
382.10 0.3853316
382.20 0.385881
382.30 0.386399
382.40 0.3869091
382.50 0.387408
382.60 0.3879063
382.70 0.3884229
382.80 0.3889486
382.90 0.3894623
383.00 0.3899754
383.10 0.3904879
383.20 0.3910038
383.30 0.3915345
383.40 0.3920338
383.50 0.3924863
383.60 0.3930607
383.70 0.3935687
383.80 0.394076
383.90 0.3945828
384.00 0.395089
384.10 0.3955946
384.20 0.3960996
384.30 0.3966041
384.40 0.3971203
384.50 0.3976483
384.60 0.3981758
384.70 0.3987026
384.80 0.3992235
384.90 0.3997351
385.00 0.4002672
385.10 0.4007987
385.20 0.4013193
385.30 0.4018304
385.40 0.402347
385.50 0.4028691
385.60 0.4033905
385.70 0.4039113
385.80 0.4044272
385.90 0.4049258
386.00 0.4054276
386.10 0.4059348
386.20 0.4064638
386.30 0.4069921
386.40 0.4074995
386.50 0.4079934
386.60 0.4085143
386.70 0.4090568
386.80 0.4095987
386.90 0.4101399
387.00 0.410663
387.10 0.4111028
387.20 0.4116471
387.30 0.4121811
387.40 0.4127174
387.50 0.4132162
387.60 0.4137888
387.70 0.4143002
387.80 0.4148111
387.90 0.4153214
388.00 0.4158253
388.10 0.4163392
388.20 0.4169113
388.30 0.4174244
388.40 0.4179369
388.50 0.4184694
388.60 0.419016
388.70 0.4195162
388.80 0.420047
388.90 0.4205763
389.00 0.4211002
389.10 0.4216177
389.20 0.4221394
389.30 0.4226762
389.40 0.4231707
389.50 0.4236798
389.60 0.4242231
389.70 0.4247882
389.80 0.4253104
389.90 0.425832
390.00 0.426353
390.10 0.4268734
390.20 0.4273933
390.30 0.4279201
390.40 0.4284548
390.50 0.4289889
390.60 0.4295224
390.70 0.4300553
390.80 0.4305728
390.90 0.4310749
391.00 0.4316358
391.10 0.4321305
391.20 0.4326417
391.30 0.433196
391.40 0.4337268
391.50 0.434257
391.60 0.4347866
391.70 0.4353155
391.80 0.4358439
391.90 0.436363
392.00 0.4368839
392.10 0.4374228
392.20 0.4379671
392.30 0.4385229
392.40 0.4390288
392.50 0.4395183
392.60 0.4400915
392.70 0.44063
392.80 0.4411361
392.90 0.4416678
393.00 0.4422194
393.10 0.4427369
393.20 0.4432227
393.30 0.4437746
393.40 0.4443288
393.50 0.4448301
393.60 0.4454222
393.70 0.4459231
393.80 0.4464278
393.90 0.4469761
394.00 0.4475243
394.10 0.448057
394.20 0.4485661
394.30 0.4491269
394.40 0.4497023
394.50 0.450183
394.60 0.4507098
394.70 0.4512447
394.80 0.4518123
394.90 0.4523768
395.00 0.4528705
395.10 0.4533904
395.20 0.4539314
395.30 0.454485
395.40 0.4550379
395.50 0.4555608
395.60 0.4560722
395.70 0.4565947
395.80 0.4571484
395.90 0.4577014
396.00 0.4582464
396.10 0.4587336
396.20 0.459268
396.30 0.4598534
396.40 0.4603698
396.50 0.4609346
396.60 0.4614343
396.70 0.462021
396.80 0.462548
396.90 0.463091
397.00 0.4636015
397.10 0.4641622
397.20 0.4646386
397.30 0.4652064
397.40 0.4657503
397.50 0.4662937
397.60 0.4668362
397.70 0.4673764
397.80 0.4679161
397.90 0.4684566
398.00 0.4690005
398.10 0.4695438
398.20 0.4700858
398.30 0.4706263
398.40 0.4711647
398.50 0.4716562
398.60 0.47221
398.70 0.4727532
398.80 0.4732875
398.90 0.4738208
399.00 0.4743525
399.10 0.4749397
399.20 0.4754804
399.30 0.4760206
399.40 0.4765601
399.50 0.4770991
399.60 0.4776402
399.70 0.4781818
399.80 0.4787228
399.90 0.4792632
400.00 0.4798035
400.10 0.480358
400.20 0.480915
400.30 0.4814655
400.40 0.4820031
400.50 0.4825175
400.60 0.483045
400.70 0.4835995
400.80 0.4841623
400.90 0.4846537
401.00 0.4852627
401.10 0.4857737
401.20 0.4862966
401.30 0.4868227
401.40 0.487372
401.50 0.4879234
401.60 0.4884741
401.70 0.489019
401.80 0.4895728
401.90 0.4901217
402.00 0.4906642
402.10 0.4912332
402.20 0.4917564
402.30 0.4922979
402.40 0.4928596
402.50 0.4934113
402.60 0.4939328
402.70 0.4944968
402.80 0.4950386
402.90 0.4955613
403.00 0.4961019
403.10 0.4966604
403.20 0.4971771
403.30 0.4977124
403.40 0.4982566
403.50 0.4988162
403.60 0.4993817
403.70 0.4999803
403.80 0.5004936
403.90 0.5010309
404.00 0.5015674
404.10 0.50212
404.20 0.5026535
404.30 0.5031863
404.40 0.5037813
404.50 0.5042962
404.60 0.5048732
404.70 0.5054037
404.80 0.5059118
404.90 0.5064629
405.00 0.507063
405.10 0.5075982
405.20 0.5081323
405.30 0.5086657
405.40 0.5092225
405.50 0.5097787
405.60 0.5103343
405.70 0.5108893
405.80 0.5114437
405.90 0.5119975
406.00 0.5125524
406.10 0.5131068
406.20 0.5136606
406.30 0.5142137
406.40 0.5147603
406.50 0.515264
406.60 0.5158266
406.70 0.5163623
406.80 0.5169244
406.90 0.5174959
407.00 0.518049
407.10 0.5186016
407.20 0.5191536
407.30 0.5197049
407.40 0.5202557
407.50 0.5208059
407.60 0.5213554
407.70 0.5219044
407.80 0.5224527
407.90 0.523
408.00 0.523533
408.10 0.5240881
408.20 0.5246463
408.30 0.5251822
408.40 0.5257175
408.50 0.5263044
408.60 0.5268566
408.70 0.5274082
408.80 0.5279499
408.90 0.52844
409.00 0.5290094
409.10 0.5295781
409.20 0.5301461
409.30 0.5307136
409.40 0.5312794
409.50 0.5318117
409.60 0.5323433
409.70 0.5328813
409.80 0.533446
409.90 0.5340088
410.00 0.5345296
410.10 0.535088
410.20 0.5356328
410.30 0.5361738
410.40 0.5367191
410.50 0.537279
410.60 0.5378384
410.70 0.5383989
410.80 0.5389661
410.90 0.5395326
411.00 0.5400825
411.10 0.5406259
411.20 0.5411687
411.30 0.5417169
411.40 0.5422878
411.50 0.5428396
411.60 0.5433909
411.70 0.5439382
411.80 0.5444716
411.90 0.5450222
412.00 0.545643
412.10 0.5461747
412.20 0.5467058
412.30 0.5472257
412.40 0.5477917
412.50 0.5483712
412.60 0.5489252
412.70 0.5494822
412.80 0.5500396
412.90 0.5506068
413.00 0.5511307
413.10 0.5516852
413.20 0.552239
413.30 0.5527922
413.40 0.5533449
413.50 0.5538978
413.60 0.5544562
413.70 0.5550224
413.80 0.555588
413.90 0.5561529
414.00 0.5567067
414.10 0.5572266
414.20 0.557767
414.30 0.5583646
414.40 0.5588915
414.50 0.5594818
414.60 0.5600031
414.70 0.5605632
414.80 0.5611227
414.90 0.5616816
415.00 0.5622399
415.10 0.5627976
415.20 0.5633515
415.30 0.5638946
415.40 0.5644371
415.50 0.5649798
415.60 0.56555
415.70 0.5661195
415.80 0.5666856
415.90 0.5672419
416.00 0.5677977
416.10 0.5683537
416.20 0.5689129
416.30 0.5694714
416.40 0.5700293
416.50 0.5705864
416.60 0.5711351
416.70 0.5716845
416.80 0.5721924
416.90 0.572779
417.00 0.5733118
417.10 0.5738698
