# Version 2.1 - nm, norm@500 to 1, cut digits, bergeron_He_7000_80.dat_7000
# Wavelength(nm)  Flambda(ergs/cm^s/s/nm)
300.00 0.9562853
300.10 0.9567707
300.20 0.9572556
300.30 0.9577407
300.40 0.9582322
300.50 0.9587228
300.60 0.9592126
300.70 0.9597016
300.80 0.9601896
300.90 0.9606768
301.00 0.9611632
301.10 0.9616487
301.20 0.9621333
301.30 0.9626171
301.40 0.9631
301.50 0.9635821
301.60 0.9640633
301.70 0.9645437
301.80 0.9650232
301.90 0.9655019
302.00 0.9659797
302.10 0.9664447
302.20 0.9669076
302.30 0.9673696
302.40 0.9678308
302.50 0.9682912
302.60 0.9687508
302.70 0.9692095
302.80 0.9696675
302.90 0.9701246
303.00 0.9705809
303.10 0.9710364
303.20 0.9714911
303.30 0.971947
303.40 0.9724206
303.50 0.9728934
303.60 0.9733653
303.70 0.9738364
303.80 0.9743066
303.90 0.974776
304.00 0.9752446
304.10 0.9757124
304.20 0.9761794
304.30 0.9766455
304.40 0.9771108
304.50 0.9775753
304.60 0.9780333
304.70 0.9784898
304.80 0.9789456
304.90 0.9794005
305.00 0.9798546
305.10 0.980308
305.20 0.9807605
305.30 0.9812122
305.40 0.9816631
305.50 0.9821132
305.60 0.9825625
305.70 0.9830111
305.80 0.9834588
305.90 0.9839057
306.00 0.9843518
306.10 0.9847972
306.20 0.9852417
306.30 0.9856855
306.40 0.9861295
306.50 0.9865729
306.60 0.9870156
306.70 0.9874576
306.80 0.9878987
306.90 0.988339
307.00 0.9887786
307.10 0.9892174
307.20 0.9896554
307.30 0.9900926
307.40 0.990529
307.50 0.9909647
307.60 0.9913996
307.70 0.9918337
307.80 0.992267
307.90 0.9926996
308.00 0.9931314
308.10 0.9935624
308.20 0.9939927
308.30 0.9944222
308.40 0.9948509
308.50 0.9952789
308.60 0.9957061
308.70 0.9961325
308.80 0.9965627
308.90 0.9970049
309.00 0.9974463
309.10 0.997887
309.20 0.9983268
309.30 0.9987659
309.40 0.9992024
309.50 0.9996265
309.60 1.00005
309.70 1.000472
309.80 1.000894
309.90 1.001315
310.00 1.001736
310.10 1.002155
310.20 1.002574
310.30 1.002992
310.40 1.003408
310.50 1.003822
310.60 1.004236
310.70 1.004649
310.80 1.005061
310.90 1.005472
311.00 1.005858
311.10 1.006243
311.20 1.006628
311.30 1.007021
311.40 1.007437
311.50 1.007852
311.60 1.008267
311.70 1.008681
311.80 1.009094
311.90 1.009507
312.00 1.009918
312.10 1.01033
312.20 1.01072
312.30 1.011115
312.40 1.011531
312.50 1.012046
312.60 1.012426
312.70 1.012805
312.80 1.013184
312.90 1.013569
313.00 1.01396
313.10 1.014351
313.20 1.014741
313.30 1.015133
313.40 1.015533
313.50 1.015932
313.60 1.016331
313.70 1.016728
313.80 1.017125
313.90 1.017522
314.00 1.017917
314.10 1.018321
314.20 1.018724
314.30 1.019126
314.40 1.019527
314.50 1.019928
314.60 1.020328
314.70 1.020727
314.80 1.021105
314.90 1.021448
315.00 1.021816
315.10 1.022203
315.20 1.022588
315.30 1.022973
315.40 1.023357
315.50 1.02374
315.60 1.024122
315.70 1.024504
315.80 1.024886
315.90 1.025266
316.00 1.025646
316.10 1.026025
316.20 1.026404
316.30 1.026875
316.40 1.027252
316.50 1.027628
316.60 1.027911
316.70 1.028286
316.80 1.02866
316.90 1.029034
317.00 1.029407
317.10 1.029779
317.20 1.030151
317.30 1.030568
317.40 1.030967
317.50 1.031318
317.60 1.031668
317.70 1.032018
317.80 1.032367
317.90 1.032812
318.00 1.033179
318.10 1.033545
318.20 1.03391
318.30 1.034274
318.40 1.034638
318.50 1.035001
318.60 1.035339
318.70 1.035793
318.80 1.036191
318.90 1.036514
319.00 1.036806
319.10 1.037165
319.20 1.037526
319.30 1.037894
319.40 1.038261
319.50 1.038628
319.60 1.038953
319.70 1.039318
319.80 1.039683
319.90 1.040047
320.00 1.040405
320.10 1.040758
320.20 1.041137
320.30 1.041508
320.40 1.041877
320.50 1.042208
320.60 1.04251
320.70 1.042859
320.80 1.043207
320.90 1.043555
321.00 1.043901
321.10 1.044247
321.20 1.044729
321.30 1.04505
321.40 1.045369
321.50 1.045688
321.60 1.046006
321.70 1.046324
321.80 1.046703
321.90 1.047149
322.00 1.047383
322.10 1.04774
322.20 1.048097
322.30 1.048453
322.40 1.048808
322.50 1.049163
322.60 1.049517
322.70 1.04987
322.80 1.050177
322.90 1.050513
323.00 1.050848
323.10 1.051183
323.20 1.051517
323.30 1.051851
323.40 1.052183
323.50 1.052516
323.60 1.052847
323.70 1.053178
323.80 1.053509
323.90 1.053838
324.00 1.054139
324.10 1.05444
324.20 1.054739
324.30 1.055088
324.40 1.055499
324.50 1.055826
324.60 1.056153
324.70 1.05648
324.80 1.056805
324.90 1.057131
325.00 1.057455
325.10 1.057779
325.20 1.058106
325.30 1.05844
325.40 1.058772
325.50 1.059082
325.60 1.059363
325.70 1.059644
325.80 1.059925
325.90 1.060238
326.00 1.060587
326.10 1.060935
326.20 1.061283
326.30 1.061624
326.40 1.061948
326.50 1.062263
326.60 1.062577
326.70 1.06289
326.80 1.063204
326.90 1.063516
327.00 1.063828
327.10 1.064139
327.20 1.06445
327.30 1.06476
327.40 1.06507
327.50 1.065379
327.60 1.065687
327.70 1.065995
327.80 1.066302
327.90 1.066554
328.00 1.066805
328.10 1.067127
328.20 1.067449
328.30 1.067769
328.40 1.06809
328.50 1.068374
328.60 1.068649
328.70 1.068924
328.80 1.069206
328.90 1.069506
329.00 1.069805
329.10 1.070104
329.20 1.070403
329.30 1.070701
329.40 1.070998
329.50 1.071295
329.60 1.071591
329.70 1.071887
329.80 1.072182
329.90 1.072476
330.00 1.072773
330.10 1.073073
330.20 1.073372
330.30 1.073671
330.40 1.073968
330.50 1.074264
330.60 1.074559
330.70 1.074854
330.80 1.075148
330.90 1.075442
331.00 1.075735
331.10 1.076027
331.20 1.076319
331.30 1.07661
331.40 1.076901
331.50 1.077168
331.60 1.077405
331.70 1.077641
331.80 1.077931
331.90 1.078223
332.00 1.078514
332.10 1.078805
332.20 1.079095
332.30 1.079384
332.40 1.079673
332.50 1.079962
332.60 1.08025
332.70 1.080537
332.80 1.080824
332.90 1.08111
333.00 1.081396
333.10 1.08167
333.20 1.081929
333.30 1.082188
333.40 1.082446
333.50 1.082703
333.60 1.082961
333.70 1.083217
333.80 1.083474
333.90 1.083729
334.00 1.083984
334.10 1.084247
334.20 1.084517
334.30 1.084788
334.40 1.085058
334.50 1.085327
334.60 1.085596
334.70 1.085884
334.80 1.086168
334.90 1.086409
335.00 1.08665
335.10 1.086932
335.20 1.087198
335.30 1.087426
335.40 1.087774
335.50 1.087955
335.60 1.088301
335.70 1.088519
335.80 1.088782
335.90 1.089044
336.00 1.089306
336.10 1.089567
336.20 1.089827
336.30 1.090088
336.40 1.090347
336.50 1.090606
336.60 1.090865
336.70 1.091123
336.80 1.091381
336.90 1.091634
337.00 1.091882
337.10 1.092129
337.20 1.092376
337.30 1.092617
337.40 1.09285
337.50 1.093083
337.60 1.093315
337.70 1.093547
337.80 1.093779
337.90 1.094014
338.00 1.094253
338.10 1.094493
338.20 1.094732
338.30 1.09497
338.40 1.095212
338.50 1.095465
338.60 1.095716
338.70 1.095968
338.80 1.096219
338.90 1.096469
339.00 1.096719
339.10 1.096969
339.20 1.097218
339.30 1.097472
339.40 1.097736
339.50 1.097986
339.60 1.098221
339.70 1.098456
339.80 1.09869
339.90 1.098924
340.00 1.099157
340.10 1.09939
340.20 1.099622
340.30 1.099854
340.40 1.100086
340.50 1.100317
340.60 1.100547
340.70 1.100777
340.80 1.100984
340.90 1.101158
341.00 1.101361
341.10 1.101598
341.20 1.101835
341.30 1.102071
341.40 1.102307
341.50 1.102542
341.60 1.102777
341.70 1.103011
341.80 1.103239
341.90 1.103458
342.00 1.103677
342.10 1.103895
342.20 1.1041
342.30 1.104257
342.40 1.104447
342.50 1.104683
342.60 1.10492
342.70 1.105155
342.80 1.105391
342.90 1.105625
343.00 1.105853
343.10 1.106073
343.20 1.106292
343.30 1.10651
343.40 1.106721
343.50 1.106921
343.60 1.10712
343.70 1.107319
343.80 1.107518
343.90 1.107716
344.00 1.107924
344.10 1.108148
344.20 1.108371
344.30 1.108594
344.40 1.108816
344.50 1.109038
344.60 1.109227
344.70 1.10937
344.80 1.109669
344.90 1.10981
345.00 1.109984
345.10 1.110203
345.20 1.110416
345.30 1.11062
345.40 1.110823
345.50 1.111051
345.60 1.111282
345.70 1.111473
345.80 1.111663
345.90 1.111853
346.00 1.112042
346.10 1.112231
346.20 1.112424
346.30 1.112623
346.40 1.112821
346.50 1.113019
346.60 1.113216
346.70 1.113413
346.80 1.113609
346.90 1.113805
347.00 1.114001
347.10 1.114196
347.20 1.114391
347.30 1.114584
347.40 1.114777
347.50 1.114969
347.60 1.115162
347.70 1.115353
347.80 1.115544
347.90 1.115735
348.00 1.115926
348.10 1.116116
348.20 1.116305
348.30 1.116495
348.40 1.116683
348.50 1.116872
348.60 1.11706
348.70 1.117223
348.80 1.117392
348.90 1.11758
349.00 1.117768
349.10 1.117955
349.20 1.118142
349.30 1.118328
349.40 1.118514
349.50 1.1187
349.60 1.118885
349.70 1.11907
349.80 1.119255
349.90 1.119439
350.00 1.119622
350.10 1.119806
350.20 1.119989
350.30 1.120167
350.40 1.12034
350.50 1.120513
350.60 1.120685
350.70 1.120856
350.80 1.121028
350.90 1.121199
351.00 1.121369
351.10 1.12154
351.20 1.121709
351.30 1.121879
351.40 1.122042
351.50 1.122194
351.60 1.122345
351.70 1.122497
351.80 1.122647
351.90 1.122798
352.00 1.122948
352.10 1.123098
352.20 1.123266
352.30 1.123435
352.40 1.1236
352.50 1.123766
352.60 1.12393
352.70 1.124095
352.80 1.124259
352.90 1.124423
353.00 1.124586
353.10 1.124749
353.20 1.124912
353.30 1.125074
353.40 1.125236
353.50 1.125405
353.60 1.125576
353.70 1.125747
353.80 1.125917
353.90 1.126079
354.00 1.126225
354.10 1.126371
354.20 1.126517
354.30 1.126663
354.40 1.126808
354.50 1.126952
354.60 1.127097
354.70 1.127241
354.80 1.127396
354.90 1.127568
355.00 1.127739
355.10 1.12791
355.20 1.128081
355.30 1.128235
355.40 1.12839
355.50 1.128543
355.60 1.128697
355.70 1.128831
355.80 1.128956
355.90 1.129092
356.00 1.129237
356.10 1.129378
356.20 1.129518
356.30 1.129659
356.40 1.129799
356.50 1.129938
356.60 1.130077
356.70 1.130216
356.80 1.130355
356.90 1.130493
357.00 1.130631
357.10 1.130769
357.20 1.130906
357.30 1.131043
357.40 1.131185
357.50 1.131335
357.60 1.131485
357.70 1.131634
357.80 1.131797
357.90 1.13196
358.00 1.13209
358.10 1.132211
358.20 1.132332
358.30 1.132452
358.40 1.132572
358.50 1.132692
358.60 1.132812
358.70 1.132931
358.80 1.13305
358.90 1.133169
359.00 1.133298
359.10 1.133446
359.20 1.13359
359.30 1.133704
359.40 1.133818
359.50 1.133955
359.60 1.134098
359.70 1.134241
359.80 1.134376
359.90 1.13451
360.00 1.134639
360.10 1.13476
360.20 1.134881
360.30 1.135001
360.40 1.135121
360.50 1.13524
360.60 1.135321
360.70 1.135445
360.80 1.135569
360.90 1.135692
361.00 1.135821
361.10 1.135982
361.20 1.136148
361.30 1.136206
361.40 1.136293
361.50 1.136436
361.60 1.136607
361.70 1.136692
361.80 1.136781
361.90 1.136877
362.00 1.136973
362.10 1.137123
362.20 1.137271
362.30 1.137392
362.40 1.137513
362.50 1.137633
362.60 1.137754
362.70 1.137828
362.80 1.137926
362.90 1.138075
363.00 1.138224
363.10 1.138309
363.20 1.138393
363.30 1.138475
363.40 1.138555
363.50 1.138777
363.60 1.138857
363.70 1.138921
363.80 1.139016
363.90 1.139129
364.00 1.139242
364.10 1.139354
364.20 1.139466
364.30 1.139551
364.40 1.139628
364.50 1.139713
364.60 1.139835
364.70 1.139957
364.80 1.140078
364.90 1.140154
365.00 1.14023
365.10 1.140376
365.20 1.140522
365.30 1.140598
365.40 1.140673
365.50 1.140748
365.60 1.140822
365.70 1.14096
365.80 1.141098
365.90 1.141184
366.00 1.141258
366.10 1.141353
366.20 1.141449
366.30 1.141544
366.40 1.141638
366.50 1.141753
366.60 1.141833
366.70 1.141947
366.80 1.14206
366.90 1.14216
367.00 1.142236
367.10 1.142312
367.20 1.142387
367.30 1.142462
367.40 1.142537
367.50 1.142608
367.60 1.142677
367.70 1.142783
367.80 1.142888
367.90 1.142993
368.00 1.143091
368.10 1.143152
368.20 1.143235
368.30 1.143318
368.40 1.143401
368.50 1.143483
368.60 1.143565
368.70 1.143647
368.80 1.143729
368.90 1.143823
369.00 1.143895
369.10 1.143957
369.20 1.14403
369.30 1.14414
369.40 1.144251
369.50 1.144361
369.60 1.144422
369.70 1.144483
369.80 1.144565
369.90 1.144647
370.00 1.144729
370.10 1.14474
370.20 1.144868
370.30 1.144999
370.40 1.145062
370.50 1.145124
370.60 1.145186
370.70 1.145254
370.80 1.145313
370.90 1.14537
371.00 1.145435
371.10 1.145499
371.20 1.145624
371.30 1.145748
371.40 1.14579
371.50 1.145853
371.60 1.145917
371.70 1.14598
371.80 1.146043
371.90 1.146106
372.00 1.146171
372.10 1.146229
372.20 1.14631
372.30 1.146391
372.40 1.146471
372.50 1.146551
372.60 1.14663
372.70 1.14671
372.80 1.146763
372.90 1.146816
373.00 1.146876
373.10 1.146935
373.20 1.146991
373.30 1.147047
373.40 1.147102
373.50 1.147158
373.60 1.147213
373.70 1.147267
373.80 1.147364
373.90 1.147376
374.00 1.14743
374.10 1.147484
374.20 1.147538
374.30 1.147591
374.40 1.147644
374.50 1.147691
374.60 1.147778
374.70 1.147866
374.80 1.147953
374.90 1.14804
375.00 1.148092
375.10 1.148143
375.20 1.148195
375.30 1.148246
375.40 1.148297
375.50 1.148348
375.60 1.148398
375.70 1.148448
375.80 1.148499
375.90 1.148548
376.00 1.148591
376.10 1.148642
376.20 1.148693
376.30 1.148743
376.40 1.148794
376.50 1.148834
376.60 1.14886
376.70 1.148885
376.80 1.14893
376.90 1.148995
377.00 1.149059
377.10 1.149123
377.20 1.149183
377.30 1.149228
377.40 1.149273
377.50 1.149317
377.60 1.149363
377.70 1.149409
377.80 1.149455
377.90 1.149501
378.00 1.14954
378.10 1.149582
378.20 1.149624
378.30 1.149666
378.40 1.149707
378.50 1.149748
378.60 1.14979
378.70 1.149831
378.80 1.149871
378.90 1.149888
379.00 1.149859
379.10 1.149928
379.20 1.149997
379.30 1.150042
379.40 1.150064
379.50 1.150085
379.60 1.150117
379.70 1.150163
379.80 1.150203
379.90 1.150243
380.00 1.150283
380.10 1.150322
380.20 1.150362
380.30 1.150401
380.40 1.15044
380.50 1.150479
380.60 1.150396
380.70 1.150436
380.80 1.150476
380.90 1.150516
381.00 1.150555
381.10 1.150594
381.20 1.150605
381.30 1.15064
381.40 1.150684
381.50 1.150739
381.60 1.15079
381.70 1.150797
381.80 1.150735
381.90 1.150773
382.00 1.15081
382.10 1.150848
382.20 1.150885
382.30 1.150922
382.40 1.150947
382.50 1.150955
382.60 1.150963
382.70 1.150994
382.80 1.151033
382.90 1.151055
383.00 1.151077
383.10 1.151099
383.20 1.151123
383.30 1.151155
383.40 1.151188
383.50 1.151222
383.60 1.151185
383.70 1.151204
383.80 1.151222
383.90 1.15124
384.00 1.151258
384.10 1.151276
384.20 1.151293
384.30 1.151311
384.40 1.151329
384.50 1.151349
384.60 1.151368
384.70 1.151387
384.80 1.1514
384.90 1.15141
385.00 1.151461
385.10 1.151508
385.20 1.151453
385.30 1.151494
385.40 1.151523
385.50 1.151541
385.60 1.151558
385.70 1.151576
385.80 1.151587
385.90 1.151577
386.00 1.151585
386.10 1.151607
386.20 1.151591
386.30 1.151574
386.40 1.151641
386.50 1.151629
386.60 1.151639
386.70 1.151668
386.80 1.151572
386.90 1.151601
387.00 1.151632
387.10 1.151601
387.20 1.151645
387.30 1.151657
387.40 1.151683
387.50 1.151679
387.60 1.151616
387.70 1.151643
387.80 1.15167
387.90 1.151697
388.00 1.151714
388.10 1.151676
388.20 1.151693
388.30 1.15169
388.40 1.151687
388.50 1.151667
388.60 1.151643
388.70 1.15174
388.80 1.151646
388.90 1.151671
389.00 1.151673
389.10 1.151709
389.20 1.151675
389.30 1.151653
389.40 1.151693
389.50 1.151687
389.60 1.151625
389.70 1.151611
389.80 1.151605
389.90 1.151599
390.00 1.151594
390.10 1.151588
390.20 1.151582
390.30 1.151579
390.40 1.151581
390.50 1.151583
390.60 1.151584
390.70 1.151586
390.80 1.151603
390.90 1.151635
391.00 1.151602
391.10 1.151547
391.20 1.151518
391.30 1.151546
391.40 1.151527
391.50 1.151507
391.60 1.151487
391.70 1.151468
391.80 1.151448
391.90 1.151428
392.00 1.151413
392.10 1.151404
392.20 1.151399
392.30 1.151409
392.40 1.151402
392.50 1.151444
392.60 1.151343
392.70 1.151362
392.80 1.151381
392.90 1.151318
393.00 1.151311
393.10 1.15132
393.20 1.151341
393.30 1.151299
393.40 1.151268
393.50 1.151278
393.60 1.151224
393.70 1.151195
393.80 1.151207
393.90 1.151165
394.00 1.151125
394.10 1.151108
394.20 1.151073
394.30 1.151077
394.40 1.15107
394.50 1.151037
394.60 1.15099
394.70 1.150957
394.80 1.150979
394.90 1.150997
395.00 1.15093
395.10 1.150906
395.20 1.150867
395.30 1.15083
395.40 1.150793
395.50 1.150783
395.60 1.150783
395.70 1.150778
395.80 1.150759
395.90 1.15074
396.00 1.150709
396.10 1.150607
396.20 1.150621
396.30 1.150635
396.40 1.15053
396.50 1.150544
396.60 1.150557
396.70 1.150458
396.80 1.150476
396.90 1.150449
397.00 1.15045
397.10 1.150364
397.20 1.150344
397.30 1.150283
397.40 1.150262
397.50 1.150241
397.60 1.150219
397.70 1.150185
397.80 1.150151
397.90 1.150117
398.00 1.150087
398.10 1.150056
398.20 1.150018
398.30 1.149972
398.40 1.149925
398.50 1.149891
398.60 1.149829
398.70 1.149814
398.80 1.149813
398.90 1.149793
399.00 1.149738
399.10 1.149679
399.20 1.149641
399.30 1.149602
399.40 1.149564
399.50 1.149525
399.60 1.149494
399.70 1.149466
399.80 1.149438
399.90 1.14941
400.00 1.149382
400.10 1.149346
400.20 1.149279
400.30 1.149214
400.40 1.149147
400.50 1.149175
400.60 1.1491
400.70 1.14905
400.80 1.149043
400.90 1.148934
401.00 1.148887
401.10 1.148833
401.20 1.148782
401.30 1.148743
401.40 1.148724
401.50 1.14871
401.60 1.148694
401.70 1.148657
401.80 1.148592
401.90 1.148543
402.00 1.14849
402.10 1.14848
402.20 1.148386
402.30 1.148328
402.40 1.148273
402.50 1.148273
402.60 1.148183
402.70 1.14817
402.80 1.14806
402.90 1.148019
403.00 1.147967
403.10 1.147961
403.20 1.147867
403.30 1.147828
403.40 1.147582
403.50 1.147599
403.60 1.147641
403.70 1.147072
403.80 1.147669
403.90 1.147751
404.00 1.147658
404.10 1.14709
404.20 1.147094
404.30 1.147098
404.40 1.147672
404.50 1.147105
404.60 1.147108
404.70 1.147112
404.80 1.146578
404.90 1.147118
405.00 1.146552
405.10 1.146636
405.20 1.146882
405.30 1.147129
405.40 1.146942
405.50 1.146755
405.60 1.146568
405.70 1.146381
405.80 1.146194
405.90 1.146007
406.00 1.146126
406.10 1.146245
406.20 1.146364
406.30 1.146483
406.40 1.146581
406.50 1.146017
406.60 1.146018
406.70 1.146372
406.80 1.146249
406.90 1.146034
407.00 1.145922
407.10 1.14581
407.20 1.145698
407.30 1.145586
407.40 1.145473
407.50 1.145361
407.60 1.145249
407.70 1.145137
407.80 1.145024
407.90 1.144917
408.00 1.144969
408.10 1.144898
408.20 1.144921
408.30 1.14509
408.40 1.145259
408.50 1.144895
408.60 1.144722
408.70 1.144549
408.80 1.144474
408.90 1.144993
409.00 1.144862
409.10 1.14473
409.20 1.144599
409.30 1.144468
409.40 1.144336
409.50 1.14417
409.60 1.144005
409.70 1.143864
409.80 1.143818
409.90 1.143757
410.00 1.143199
410.10 1.143567
410.20 1.143541
410.30 1.143417
410.40 1.143277
410.50 1.143084
410.60 1.142892
410.70 1.142806
410.80 1.143146
410.90 1.143485
411.00 1.143399
411.10 1.143156
411.20 1.142913
411.30 1.142796
411.40 1.143167
411.50 1.143001
411.60 1.142836
411.70 1.142702
411.80 1.142698
411.90 1.142583
412.00 1.142029
412.10 1.142299
412.20 1.14202
412.30 1.141654
412.40 1.142011
412.50 1.141614
412.60 1.141844
412.70 1.141789
412.80 1.141662
412.90 1.141437
413.00 1.141041
413.10 1.14114
413.20 1.141239
413.30 1.141338
413.40 1.141436
413.50 1.141404
413.60 1.140983
413.70 1.140977
413.80 1.140971
413.90 1.140965
414.00 1.140959
414.10 1.140952
414.20 1.140815
414.30 1.140264
414.40 1.140584
414.50 1.140251
414.60 1.139832
414.70 1.139825
414.80 1.139818
414.90 1.139811
415.00 1.139804
415.10 1.139797
415.20 1.139741
415.30 1.139529
415.40 1.139318
415.50 1.139108
415.60 1.138947
415.70 1.138787
415.80 1.138704
415.90 1.138867
416.00 1.139029
416.10 1.139153
416.20 1.139123
416.30 1.139092
416.40 1.139062
416.50 1.139016
416.60 1.138469
416.70 1.138004
416.80 1.138452
416.90 1.137906
417.00 1.138434
417.10 1.137904
417.20 1.137895
417.30 1.137882
417.40 1.137715
417.50 1.137549
417.60 1.13749
417.70 1.137844
417.80 1.137656
417.90 1.137468
418.00 1.13728
418.10 1.137092
418.20 1.136904
418.30 1.136706
418.40 1.136274
418.50 1.136194
418.60 1.136114
418.70 1.136034
418.80 1.135954
418.90 1.135874
419.00 1.135794
419.10 1.135714
419.20 1.135633
419.30 1.135562
419.40 1.135771
419.50 1.135979
419.60 1.136109
419.70 1.135926
419.80 1.135743
419.90 1.135574
420.00 1.135448
420.10 1.135322
420.20 1.135196
420.30 1.13507
420.40 1.134944
420.50 1.134818
420.60 1.134692
420.70 1.134566
420.80 1.13444
420.90 1.134313
421.00 1.134153
421.10 1.133994
421.20 1.133852
421.30 1.133764
421.40 1.133676
421.50 1.133588
421.60 1.1335
421.70 1.133412
421.80 1.133324
421.90 1.133251
422.00 1.133228
422.10 1.133169
422.20 1.132962
422.30 1.132756
422.40 1.132553
422.50 1.13244
422.60 1.132327
422.70 1.132213
422.80 1.1321
422.90 1.131987
423.00 1.131874
423.10 1.131761
423.20 1.131647
423.30 1.131534
423.40 1.131421
423.50 1.131307
423.60 1.131194
423.70 1.131081
423.80 1.130967
423.90 1.130854
424.00 1.13074
424.10 1.130627
424.20 1.130514
424.30 1.1304
