# Version 2.1 - nm, norm@500 to 1, cut digits, bergeron_He_3750_70.dat_3750
# Wavelength(nm)  Flambda(ergs/cm^s/s/nm)
300.00 0.01686468
300.10 0.01692631
300.20 0.01698809
300.30 0.01705014
300.40 0.0171145
300.50 0.01717878
300.60 0.01724297
300.70 0.01730706
300.80 0.01737107
300.90 0.01743499
301.00 0.01749882
301.10 0.01756256
301.20 0.01762622
301.30 0.01768978
301.40 0.01775326
301.50 0.01781665
301.60 0.01787995
301.70 0.01794316
301.80 0.01800628
301.90 0.01806932
302.00 0.01813227
302.10 0.01819878
302.20 0.01826561
302.30 0.01833234
302.40 0.01839899
302.50 0.01846553
302.60 0.01853199
302.70 0.01859836
302.80 0.01866463
302.90 0.01873081
303.00 0.0187969
303.10 0.0188629
303.20 0.01892881
303.30 0.01899498
303.40 0.01906419
303.50 0.01913331
303.60 0.01920233
303.70 0.01927126
303.80 0.01934009
303.90 0.01940883
304.00 0.01947748
304.10 0.01954602
304.20 0.01961448
304.30 0.01968284
304.40 0.01975111
304.50 0.01981928
304.60 0.01989146
304.70 0.01996399
304.80 0.02003643
304.90 0.02010876
305.00 0.020181
305.10 0.02025314
305.20 0.02032518
305.30 0.02039711
305.40 0.02046896
305.50 0.0205407
305.60 0.02061234
305.70 0.02068389
305.80 0.02075534
305.90 0.02082669
306.00 0.02089794
306.10 0.0209691
306.20 0.02104016
306.30 0.02111112
306.40 0.02118705
306.50 0.0212644
306.60 0.02134164
306.70 0.02141877
306.80 0.0214958
306.90 0.02157273
307.00 0.02164955
307.10 0.02172626
307.20 0.02180287
307.30 0.02187938
307.40 0.02195578
307.50 0.02203208
307.60 0.02210828
307.70 0.02218437
307.80 0.02226036
307.90 0.02233624
308.00 0.02241202
308.10 0.0224877
308.20 0.02256327
308.30 0.02263875
308.40 0.02271412
308.50 0.02278938
308.60 0.02286455
308.70 0.02293961
308.80 0.02301314
308.90 0.02308251
309.00 0.02316364
309.10 0.02324465
309.20 0.02332556
309.30 0.02340636
309.40 0.02348713
309.50 0.0235683
309.60 0.02364936
309.70 0.02373032
309.80 0.02381116
309.90 0.0238919
310.00 0.02397252
310.10 0.02405304
310.20 0.02413345
310.30 0.02421375
310.40 0.02429585
310.50 0.02437992
310.60 0.02446388
310.70 0.02454772
310.80 0.02463144
310.90 0.02471506
311.00 0.02479999
311.10 0.02488481
311.20 0.02496952
311.30 0.02505435
311.40 0.02513974
311.50 0.02522501
311.60 0.02531017
311.70 0.02539522
311.80 0.02548015
311.90 0.02556497
312.00 0.02564968
312.10 0.02573427
312.20 0.02581934
312.30 0.02590668
312.40 0.02599391
312.50 0.02608035
312.60 0.026164
312.70 0.02624753
312.80 0.02633096
312.90 0.02641799
313.00 0.02650894
313.10 0.02659976
313.20 0.02669046
313.30 0.02678042
313.40 0.02686847
313.50 0.0269564
313.60 0.02704421
313.70 0.02713191
313.80 0.02721949
313.90 0.02730695
314.00 0.0273943
314.10 0.02748565
314.20 0.02757688
314.30 0.02766799
314.40 0.02775897
314.50 0.02784984
314.60 0.02794058
314.70 0.02803121
314.80 0.02812763
314.90 0.02823089
315.00 0.02832335
315.10 0.02841762
315.20 0.02851176
315.30 0.02860578
315.40 0.02869967
315.50 0.02879344
315.60 0.02888708
315.70 0.0289806
315.80 0.02907399
315.90 0.02916726
316.00 0.02926041
316.10 0.02935343
316.20 0.02944633
316.30 0.02953911
316.40 0.02964188
316.50 0.0297344
316.60 0.02983691
316.70 0.02992918
316.80 0.03002133
316.90 0.0301184
317.00 0.03021534
317.10 0.03031216
317.20 0.03040884
317.30 0.03050534
317.40 0.03060235
317.50 0.03070104
317.60 0.03079959
317.70 0.03089802
317.80 0.03099631
317.90 0.03110872
318.00 0.031209
318.10 0.03130953
318.20 0.03140992
318.30 0.03151019
318.40 0.03161032
318.50 0.03171032
318.60 0.03180499
318.70 0.03190773
318.80 0.0320183
318.90 0.03212374
319.00 0.03221093
319.10 0.03232009
319.20 0.03242696
319.30 0.03252758
319.40 0.03262806
319.50 0.03272842
319.60 0.03284313
319.70 0.03294846
319.80 0.03305364
319.90 0.0331587
320.00 0.03326029
320.10 0.03335817
320.20 0.0334651
320.30 0.03357762
320.40 0.03367312
320.50 0.03377835
320.60 0.03388976
320.70 0.03399668
320.80 0.03410347
320.90 0.03421012
321.00 0.03431662
321.10 0.03442299
321.20 0.03454079
321.30 0.03464834
321.40 0.03475574
321.50 0.034863
321.60 0.03497012
321.70 0.0350771
321.80 0.03518566
321.90 0.03529592
322.00 0.03540215
322.10 0.03551377
322.20 0.03562525
322.30 0.03573658
322.40 0.03584777
322.50 0.03595882
322.60 0.03606972
322.70 0.03618047
322.80 0.03630159
322.90 0.03641546
323.00 0.03652917
323.10 0.03664274
323.20 0.03675616
323.30 0.03686944
323.40 0.03698256
323.50 0.03709554
323.60 0.03720838
323.70 0.03732107
323.80 0.03743361
323.90 0.037546
324.00 0.03766217
324.10 0.03777819
324.20 0.03789407
324.30 0.03801216
324.40 0.0381337
324.50 0.03825169
324.60 0.03836952
324.70 0.03848721
324.80 0.03860474
324.90 0.03872212
325.00 0.03883935
325.10 0.03895642
325.20 0.03907527
325.30 0.03919802
325.40 0.03932062
325.50 0.03944213
325.60 0.03956233
325.70 0.03968238
325.80 0.03980228
325.90 0.03992226
326.00 0.04004234
326.10 0.04016227
326.20 0.04028205
326.30 0.04040342
326.40 0.04052961
326.50 0.04065533
326.60 0.04078089
326.70 0.04090628
326.80 0.04103152
326.90 0.04115659
327.00 0.0412815
327.10 0.04140625
327.20 0.04153085
327.30 0.04165528
327.40 0.04177955
327.50 0.04190366
327.60 0.04202762
327.70 0.04215141
327.80 0.04227504
327.90 0.04239714
328.00 0.04252115
328.10 0.04264939
328.20 0.04277746
328.30 0.04290536
328.40 0.04303311
328.50 0.04316037
328.60 0.0432874
328.70 0.04341426
328.80 0.04354242
328.90 0.04367455
329.00 0.04380651
329.10 0.0439383
329.20 0.04406993
329.30 0.04420139
329.40 0.04433267
329.50 0.04446379
329.60 0.04459475
329.70 0.04472554
329.80 0.04485616
329.90 0.04498661
330.00 0.04511982
330.10 0.04525642
330.20 0.04539285
330.30 0.04552911
330.40 0.04566499
330.50 0.0458005
330.60 0.04593583
330.70 0.04607099
330.80 0.04620597
330.90 0.04634079
331.00 0.04647544
331.10 0.04660991
331.20 0.04674421
331.30 0.04687834
331.40 0.0470123
331.50 0.04714977
331.60 0.04729155
331.70 0.04743315
331.80 0.04757484
331.90 0.04771636
332.00 0.04785771
332.10 0.04799887
332.20 0.04813986
332.30 0.04828067
332.40 0.0484213
332.50 0.04856176
332.60 0.04870203
332.70 0.04884213
332.80 0.04898205
332.90 0.0491218
333.00 0.04926136
333.10 0.04940279
333.20 0.04954652
333.30 0.04969007
333.40 0.04983344
333.50 0.04997663
333.60 0.05011964
333.70 0.05026247
333.80 0.05040512
333.90 0.05054758
334.00 0.05068987
334.10 0.05083471
334.20 0.05098268
334.30 0.05113047
334.40 0.05127807
334.50 0.05142549
334.60 0.05157272
334.70 0.051718
334.80 0.05186321
334.90 0.05201152
335.00 0.05215964
335.10 0.05230145
335.20 0.05245059
335.30 0.05261756
335.40 0.05276631
335.50 0.05291487
335.60 0.05306325
335.70 0.05321144
335.80 0.05335944
335.90 0.05350928
336.00 0.0536614
336.10 0.05381333
336.20 0.05396506
336.30 0.05411863
336.40 0.05427446
336.50 0.0544301
336.60 0.05458554
336.70 0.05474079
336.80 0.05489585
336.90 0.05504988
337.00 0.05520269
337.10 0.05535531
337.20 0.05550775
337.30 0.05566249
337.40 0.05582063
337.50 0.05597857
337.60 0.05613632
337.70 0.05629387
337.80 0.05645123
337.90 0.0566093
338.00 0.05676829
338.10 0.05692709
338.20 0.05708568
338.30 0.05724408
338.40 0.0574038
338.50 0.05756704
338.60 0.05773007
338.70 0.05789291
338.80 0.05805554
338.90 0.05821796
339.00 0.05838019
339.10 0.05854221
339.20 0.05870404
339.30 0.05886621
339.40 0.05902896
339.50 0.05919311
339.60 0.05935901
339.70 0.0595247
339.80 0.05969019
339.90 0.05985547
340.00 0.06002055
340.10 0.06018542
340.20 0.06035009
340.30 0.06051455
340.40 0.06067882
340.50 0.06084287
340.60 0.06100673
340.70 0.06117038
340.80 0.06133603
340.90 0.06150466
341.00 0.06167417
341.10 0.06184482
341.20 0.06201525
341.30 0.06218548
341.40 0.0623555
341.50 0.0625253
341.60 0.0626949
341.70 0.06286429
341.80 0.06303628
341.90 0.06321149
342.00 0.06338649
342.10 0.06356128
342.20 0.06373676
342.30 0.06391196
342.40 0.06408614
342.50 0.06426028
342.60 0.06443422
342.70 0.06460794
342.80 0.06478144
342.90 0.06495474
343.00 0.06512881
343.10 0.06530388
343.20 0.06547873
343.30 0.06565337
343.40 0.06582984
343.50 0.06600904
343.60 0.06618801
343.70 0.06636677
343.80 0.06654531
343.90 0.06672363
344.00 0.06690231
344.10 0.06708162
344.20 0.06726071
344.30 0.06743958
344.40 0.06761998
344.50 0.06780268
344.60 0.06798208
344.70 0.06817243
344.80 0.06834636
344.90 0.06853626
345.00 0.06871631
345.10 0.06890618
345.20 0.06909355
345.30 0.06927745
345.40 0.06946112
345.50 0.06964675
345.60 0.06983392
345.70 0.07001959
345.80 0.07020503
345.90 0.07039025
346.00 0.07057524
346.10 0.07076
346.20 0.07094708
346.30 0.07113759
346.40 0.07132786
346.50 0.07151791
346.60 0.07170772
346.70 0.0718973
346.80 0.07208665
346.90 0.07227577
347.00 0.07246466
347.10 0.07265332
347.20 0.07284472
347.30 0.07304014
347.40 0.07323532
347.50 0.07343027
347.60 0.07362497
347.70 0.07381945
347.80 0.07401369
347.90 0.07420769
348.00 0.07440145
348.10 0.07459499
348.20 0.07478828
348.30 0.07498135
348.40 0.07517418
348.50 0.07536677
348.60 0.07555913
348.70 0.07575056
348.80 0.07594649
348.90 0.0761493
349.00 0.07635188
349.10 0.07655421
349.20 0.0767563
349.30 0.07695814
349.40 0.07715974
349.50 0.07736109
349.60 0.0775622
349.70 0.07776307
349.80 0.0779637
349.90 0.07816408
350.00 0.07836423
350.10 0.07856413
350.20 0.07876379
350.30 0.07896594
350.40 0.07917178
350.50 0.07937737
350.60 0.07958271
350.70 0.07978781
350.80 0.07999266
350.90 0.08019726
351.00 0.08040162
351.10 0.08060573
351.20 0.0808096
351.30 0.08101322
351.40 0.08121943
351.50 0.08143043
351.60 0.08164118
351.70 0.08185168
351.80 0.08206192
351.90 0.08227192
352.00 0.08248165
352.10 0.08269114
352.20 0.08289674
352.30 0.0831056
352.40 0.08331984
352.50 0.08353382
352.60 0.08374755
352.70 0.08396101
352.80 0.08417423
352.90 0.08438718
353.00 0.08459989
353.10 0.08481234
353.20 0.08502453
353.30 0.08523647
353.40 0.08544816
353.50 0.08566505
353.60 0.08588305
353.70 0.08610079
353.80 0.08631826
353.90 0.08653668
354.00 0.08675698
354.10 0.08697702
354.20 0.08719679
354.30 0.0874163
354.40 0.08763555
354.50 0.08785454
354.60 0.08807327
354.70 0.08829173
354.80 0.08851231
354.90 0.08873602
355.00 0.08895947
355.10 0.08918266
355.20 0.08940558
355.30 0.08963084
355.40 0.08985584
355.50 0.09008057
355.60 0.09030503
355.70 0.0905292
355.80 0.0907531
355.90 0.09097042
356.00 0.09119658
356.10 0.09142754
356.20 0.09165823
356.30 0.09188864
356.40 0.09211879
356.50 0.09234866
356.60 0.09257825
356.70 0.09280758
356.80 0.09303663
356.90 0.09326541
357.00 0.09349393
357.10 0.09372217
357.20 0.09395014
357.30 0.09417784
357.40 0.0944081
357.50 0.09464312
357.60 0.09487786
357.70 0.09511232
357.80 0.09534693
357.90 0.09558127
358.00 0.09581797
358.10 0.09605505
358.20 0.09629185
358.30 0.09652838
358.40 0.09676462
358.50 0.09700059
358.60 0.09723628
358.70 0.09747169
358.80 0.09770682
358.90 0.09794168
359.00 0.09817877
359.10 0.09842003
359.20 0.09866112
359.30 0.0989026
359.40 0.09914381
359.50 0.09938528
359.60 0.09962661
359.70 0.09986766
359.80 0.1001086
359.90 0.1003492
360.00 0.100592
360.10 0.1008388
360.20 0.1010852
360.30 0.1013314
360.40 0.1015773
360.50 0.1018229
360.60 0.1020659
360.70 0.102313
360.80 0.1025598
360.90 0.1028063
361.00 0.1030533
361.10 0.103299
361.20 0.1035438
361.30 0.1038001
361.40 0.1040382
361.50 0.10429
361.60 0.1045422
361.70 0.1047942
361.80 0.1050454
361.90 0.1052956
362.00 0.1055454
362.10 0.1057977
362.20 0.1060518
362.30 0.106308
362.40 0.106564
362.50 0.1068197
362.60 0.1070751
362.70 0.1073271
362.80 0.1075741
362.90 0.1078363
363.00 0.1080982
363.10 0.1083545
363.20 0.1086105
363.30 0.1088594
363.40 0.1091256
363.50 0.1093837
363.60 0.1096454
363.70 0.1099017
363.80 0.1101679
363.90 0.110428
364.00 0.1106877
364.10 0.1109472
364.20 0.1112063
364.30 0.1114671
364.40 0.1117281
364.50 0.1119903
364.60 0.1122581
364.70 0.1125255
364.80 0.1127926
364.90 0.113058
365.00 0.113323
365.10 0.1135802
365.20 0.1138446
365.30 0.1141163
365.40 0.1143802
365.50 0.1146513
365.60 0.1149221
365.70 0.1151898
365.80 0.1154572
365.90 0.1157292
366.00 0.1160021
366.10 0.116273
366.20 0.1165437
366.30 0.116814
366.40 0.117084
366.50 0.1173569
366.60 0.1176279
366.70 0.1179005
366.80 0.1181728
366.90 0.1184465
367.00 0.1187229
367.10 0.1189989
367.20 0.1192747
367.30 0.1195501
367.40 0.1198252
367.50 0.1201014
367.60 0.1203776
367.70 0.1206552
367.80 0.1209326
367.90 0.1212096
368.00 0.1214926
368.10 0.1217672
368.20 0.1220496
368.30 0.1223318
368.40 0.1226137
368.50 0.1228952
368.60 0.1231765
368.70 0.1234574
368.80 0.123738
368.90 0.1240272
369.00 0.1243107
369.10 0.1245884
369.20 0.1248812
369.30 0.1251652
369.40 0.1254488
369.50 0.1257322
369.60 0.1260184
369.70 0.1263042
369.80 0.1265963
369.90 0.126888
370.00 0.1271795
370.10 0.1274663
370.20 0.1277522
370.30 0.1280379
370.40 0.1283378
370.50 0.1286228
370.60 0.1289222
370.70 0.1292102
370.80 0.1294998
370.90 0.1297891
371.00 0.1300889
371.10 0.1303885
371.20 0.1306767
371.30 0.1309646
371.40 0.1312657
371.50 0.1315641
371.60 0.1318622
371.70 0.1321599
371.80 0.1324573
371.90 0.1327544
372.00 0.1330528
372.10 0.1333471
372.20 0.1336485
372.30 0.1339494
372.40 0.1342501
372.50 0.1345504
372.60 0.1348504
372.70 0.13515
372.80 0.1354547
372.90 0.135759
373.00 0.1360595
373.10 0.1363596
373.20 0.1366648
373.30 0.1369696
373.40 0.1372741
373.50 0.1375855
373.60 0.1378893
373.70 0.1382
373.80 0.1385063
373.90 0.1388059
374.00 0.1391155
374.10 0.1394248
374.20 0.1397338
374.30 0.1400424
374.40 0.1403561
374.50 0.1406692
374.60 0.1409813
374.70 0.1412931
374.80 0.1416045
374.90 0.1419156
375.00 0.1422289
375.10 0.1425419
375.20 0.1428546
375.30 0.1431792
375.40 0.1435035
375.50 0.1438274
375.60 0.1441509
375.70 0.1444741
375.80 0.1447969
375.90 0.1451193
376.00 0.1453259
376.10 0.1456531
376.20 0.1459812
376.30 0.1463089
376.40 0.1466362
376.50 0.146959
376.60 0.1472751
376.70 0.1475908
376.80 0.1479089
376.90 0.1482294
377.00 0.1485496
377.10 0.1488694
377.20 0.149189
377.30 0.149509
377.40 0.1498286
377.50 0.1501479
377.60 0.1505009
377.70 0.1508535
377.80 0.1512057
377.90 0.1515575
378.00 0.1518747
378.10 0.1522038
378.20 0.1525332
378.30 0.1528623
378.40 0.1531909
378.50 0.1535192
378.60 0.1538472
378.70 0.1541748
378.80 0.154502
378.90 0.1548322
379.00 0.1551685
379.10 0.1554814
379.20 0.155794
379.30 0.1561135
379.40 0.1564399
379.50 0.1567659
379.60 0.1571173
379.70 0.1574975
379.80 0.1578418
379.90 0.1581857
380.00 0.1585292
380.10 0.1588724
380.20 0.1592151
380.30 0.1595575
380.40 0.1598995
380.50 0.1602411
380.60 0.1606062
380.70 0.1609349
380.80 0.1612633
380.90 0.1615912
381.00 0.1619188
381.10 0.1622698
381.20 0.1626321
381.30 0.1629707
381.40 0.1632616
381.50 0.1636044
381.60 0.1639626
381.70 0.1643542
381.80 0.164716
381.90 0.1650465
382.00 0.1653767
382.10 0.1657759
382.20 0.1660637
382.30 0.1663927
382.40 0.1667443
382.50 0.1671298
382.60 0.1675149
382.70 0.1678787
382.80 0.1682143
382.90 0.1685453
383.00 0.1688758
383.10 0.1692061
383.20 0.1695441
383.30 0.1699129
383.40 0.1702953
383.50 0.1706986
383.60 0.1710635
383.70 0.1714277
383.80 0.1717914
383.90 0.1721548
384.00 0.1725177
384.10 0.1728803
384.20 0.1732425
384.30 0.1736042
384.40 0.1739635
384.50 0.1743203
384.60 0.1746767
384.70 0.1750327
384.80 0.1753948
384.90 0.1757576
385.00 0.176077
385.10 0.1763977
385.20 0.1767974
385.30 0.1771906
385.40 0.1775636
385.50 0.1779165
385.60 0.1782689
385.70 0.178621
385.80 0.1789797
385.90 0.1793643
386.00 0.1797511
386.10 0.1801391
386.20 0.1805179
386.30 0.1808963
386.40 0.1812736
386.50 0.1816549
386.60 0.1819697
386.70 0.1823498
386.80 0.1827296
386.90 0.1831089
387.00 0.183525
387.10 0.1839034
387.20 0.184234
387.30 0.1846591
387.40 0.1849355
387.50 0.1853198
387.60 0.1858179
387.70 0.1861938
387.80 0.1865694
387.90 0.1869445
388.00 0.1873189
388.10 0.187703
388.20 0.188069
388.30 0.1884414
388.40 0.1888134
388.50 0.1891858
388.60 0.1895746
388.70 0.1900077
388.80 0.1903043
388.90 0.1907507
389.00 0.1910846
389.10 0.1915481
389.20 0.1919184
389.30 0.1922901
389.40 0.192671
389.50 0.1930393
389.60 0.1933925
389.70 0.1937705
389.80 0.19417
389.90 0.1945691
390.00 0.1949678
390.10 0.195366
390.20 0.1957638
390.30 0.1961663
390.40 0.1965741
390.50 0.1969814
390.60 0.1973882
390.70 0.1977947
390.80 0.1981719
390.90 0.19852
391.00 0.1989439
391.10 0.1993566
391.20 0.1997736
391.30 0.2001839
391.40 0.2005666
391.50 0.2009489
391.60 0.2013307
391.70 0.2017122
391.80 0.2020932
391.90 0.2025362
392.00 0.2029853
392.10 0.2033382
392.20 0.2037099
392.30 0.2041647
392.40 0.204516
392.50 0.2049628
392.60 0.2053842
392.70 0.2057822
392.80 0.2062257
392.90 0.2066396
393.00 0.207023
393.10 0.2073997
393.20 0.2077735
393.30 0.2081918
393.40 0.208628
393.50 0.2090612
393.60 0.2095065
393.70 0.2098724
393.80 0.2102767
393.90 0.2106923
394.00 0.2111173
394.10 0.2115626
394.20 0.2119186
394.30 0.212326
394.40 0.2127598
394.50 0.2131297
394.60 0.2136033
394.70 0.214067
394.80 0.2144953
394.90 0.2149194
395.00 0.2152443
395.10 0.2157414
395.20 0.2161541
395.30 0.2165516
395.40 0.2169487
395.50 0.2173601
395.60 0.2177766
395.70 0.2181934
395.80 0.2186119
395.90 0.2190299
396.00 0.2194567
396.10 0.2199453
396.20 0.2203506
396.30 0.2207903
396.40 0.2211947
396.50 0.2216197
396.60 0.2221085
396.70 0.2224957
396.80 0.2228959
396.90 0.2233196
397.00 0.2238242
397.10 0.2242469
397.20 0.2246127
397.30 0.2250509
397.40 0.2255025
397.50 0.2259537
397.60 0.2264026
397.70 0.2268339
397.80 0.2272648
397.90 0.2276962
398.00 0.22813
398.10 0.2285633
398.20 0.2290096
398.30 0.2294704
398.40 0.2299282
398.50 0.2303035
398.60 0.2307209
398.70 0.2311726
398.80 0.2316287
398.90 0.2320823
399.00 0.2325316
399.10 0.2329739
399.20 0.2334113
399.30 0.2338482
399.40 0.2342846
399.50 0.2347206
399.60 0.2351663
399.70 0.2356153
399.80 0.2360639
399.90 0.236512
400.00 0.2369601
400.10 0.2374259
400.20 0.2378577
400.30 0.2383319
400.40 0.2388123
400.50 0.2392568
400.60 0.2396784
400.70 0.2401266
400.80 0.2406205
400.90 0.2410047
401.00 0.2414554
401.10 0.241983
401.20 0.2424414
401.30 0.2428322
401.40 0.2432801
401.50 0.2437642
401.60 0.2442469
401.70 0.2447049
401.80 0.2451336
401.90 0.2455786
402.00 0.2460188
402.10 0.2465049
402.20 0.2470249
402.30 0.2474054
402.40 0.2478953
402.50 0.2483915
402.60 0.2487883
402.70 0.2492694
402.80 0.2497701
402.90 0.2502203
403.00 0.2506575
403.10 0.2511442
403.20 0.2516601
403.30 0.2521103
403.40 0.2525314
403.50 0.2530373
403.60 0.2535591
403.70 0.2540038
403.80 0.2543941
403.90 0.2549033
404.00 0.2553832
404.10 0.2558588
404.20 0.2563523
404.30 0.2568453
404.40 0.2572927
404.50 0.2577059
404.60 0.2581974
404.70 0.2586884
404.80 0.2591969
404.90 0.2596688
405.00 0.260149
405.10 0.2606472
405.20 0.2611356
405.30 0.2616235
405.40 0.2620904
405.50 0.2625567
405.60 0.2630226
405.70 0.2634879
405.80 0.2639528
405.90 0.2644172
406.00 0.2649053
406.10 0.2653929
406.20 0.2658799
406.30 0.2663665
406.40 0.2668585
406.50 0.2673789
406.60 0.2679197
406.70 0.2684082
406.80 0.268898
406.90 0.2693793
407.00 0.2698707
407.10 0.2703617
407.20 0.2708522
407.30 0.2713421
407.40 0.2718315
407.50 0.2723204
407.60 0.2728088
407.70 0.2732967
407.80 0.2737841
407.90 0.2742703
408.00 0.2747345
408.10 0.2752002
408.20 0.275694
408.30 0.2761924
408.40 0.2766903
408.50 0.2772114
408.60 0.2777057
408.70 0.2781994
408.80 0.2787
408.90 0.2792438
409.00 0.279735
409.10 0.2802257
409.20 0.2807158
409.30 0.2812055
409.40 0.2816963
409.50 0.2822419
409.60 0.2827869
409.70 0.2833173
409.80 0.2837906
409.90 0.2842662
410.00 0.2848297
410.10 0.2852932
410.20 0.2858014
410.30 0.2863203
410.40 0.2868328
410.50 0.2873259
410.60 0.2878185
410.70 0.2883204
410.80 0.2888606
410.90 0.2894002
411.00 0.2899143
411.10 0.2904186
411.20 0.2909223
411.30 0.29144
411.40 0.2920121
411.50 0.2925044
411.60 0.2929963
411.70 0.2934923
411.80 0.294007
411.90 0.2945092
412.00 0.2950824
412.10 0.2956253
412.20 0.2961079
412.30 0.2966826
412.40 0.2971529
412.50 0.2977188
412.60 0.2982546
412.70 0.2987645
412.80 0.2992675
412.90 0.2997625
413.00 0.3003472
413.10 0.3008614
413.20 0.3013751
413.30 0.3018883
413.40 0.302401
413.50 0.3029295
413.60 0.3035092
413.70 0.3040432
413.80 0.3045767
413.90 0.3051096
414.00 0.3056349
