# Version 2.1 - nm, norm@500 to 1, cut digits, bergeron_He_6500_70.dat_6500
# Wavelength(nm)  Flambda(ergs/cm^s/s/nm)
300.00 0.6808789
300.10 0.6814209
300.20 0.681955
300.30 0.6824981
300.40 0.6831065
300.50 0.683714
300.60 0.6843206
300.70 0.6849262
300.80 0.6855308
300.90 0.6861345
301.00 0.6867372
301.10 0.687339
301.20 0.6879398
301.30 0.6885396
301.40 0.6891386
301.50 0.6897365
301.60 0.6903336
301.70 0.6909297
301.80 0.6915248
301.90 0.692119
302.00 0.6927123
302.10 0.6933279
302.20 0.6939452
302.30 0.6945614
302.40 0.6951768
302.50 0.6957911
302.60 0.6964045
302.70 0.6970169
302.80 0.6976284
302.90 0.6982389
303.00 0.6988484
303.10 0.699457
303.20 0.7000647
303.30 0.70067
303.40 0.7012624
303.50 0.7018538
303.60 0.7024443
303.70 0.7030338
303.80 0.7036225
303.90 0.7042102
304.00 0.7047969
304.10 0.7053828
304.20 0.7059677
304.30 0.7065517
304.40 0.7071348
304.50 0.707717
304.60 0.7083071
304.70 0.7088972
304.80 0.7094864
304.90 0.7100747
305.00 0.7106621
305.10 0.7112485
305.20 0.711834
305.30 0.7124186
305.40 0.7130023
305.50 0.713585
305.60 0.7141669
305.70 0.7147478
305.80 0.7153278
305.90 0.7159069
306.00 0.7164851
306.10 0.7170624
306.20 0.7176388
306.30 0.7182143
306.40 0.7187943
306.50 0.7193751
306.60 0.7199549
306.70 0.7205339
306.80 0.7211119
306.90 0.7216891
307.00 0.7222653
307.10 0.7228406
307.20 0.723415
307.30 0.7239886
307.40 0.7245612
307.50 0.7251329
307.60 0.7257037
307.70 0.7262737
307.80 0.7268427
307.90 0.7274109
308.00 0.7279781
308.10 0.7285445
308.20 0.72911
308.30 0.7296746
308.40 0.7302383
308.50 0.7308011
308.60 0.731363
308.70 0.7319241
308.80 0.7324822
308.90 0.7330338
309.00 0.7335692
309.10 0.7341038
309.20 0.7346376
309.30 0.7351705
309.40 0.735711
309.50 0.7363018
309.60 0.7368917
309.70 0.7374806
309.80 0.7380687
309.90 0.7386558
310.00 0.739242
310.10 0.7398274
310.20 0.7404118
310.30 0.7409953
310.40 0.7415624
310.50 0.7421118
310.60 0.7426604
310.70 0.7432081
310.80 0.7437549
310.90 0.7443009
311.00 0.744845
311.10 0.7453883
311.20 0.7459308
311.30 0.7464772
311.40 0.7470365
311.50 0.747595
311.60 0.7481526
311.70 0.7487093
311.80 0.7492652
311.90 0.7498202
312.00 0.7503743
312.10 0.7509276
312.20 0.7515264
312.30 0.7520848
312.40 0.7525861
312.50 0.7530659
312.60 0.7536019
312.70 0.754137
312.80 0.7546713
312.90 0.755233
313.00 0.7558243
313.10 0.7564146
313.20 0.7570041
313.30 0.757584
313.40 0.7581383
313.50 0.7586916
313.60 0.7592442
313.70 0.7597958
313.80 0.7603466
313.90 0.7608966
314.00 0.7614457
314.10 0.7619621
314.20 0.7624778
314.30 0.7629926
314.40 0.7635067
314.50 0.7640199
314.60 0.7645324
314.70 0.765044
314.80 0.7656275
314.90 0.7662885
315.00 0.7668097
315.10 0.7673167
315.20 0.7678229
315.30 0.7683283
315.40 0.7688329
315.50 0.7693367
315.60 0.7698397
315.70 0.7704038
315.80 0.770967
315.90 0.7715293
316.00 0.7720908
316.10 0.7725897
316.20 0.7730878
316.30 0.7737084
316.40 0.7742049
316.50 0.7748237
316.60 0.7753185
316.70 0.7758125
316.80 0.7763058
316.90 0.7768597
317.00 0.7774128
317.10 0.7779649
317.20 0.7785163
317.30 0.7790112
317.40 0.7795181
317.50 0.780061
317.60 0.7806029
317.70 0.7811441
317.80 0.7816844
317.90 0.782156
318.00 0.7826782
318.10 0.7832221
318.20 0.7837651
318.30 0.7843073
318.40 0.7848329
318.50 0.7853126
318.60 0.7858548
318.70 0.786333
318.80 0.7867377
318.90 0.7872872
319.00 0.7879425
319.10 0.7884176
319.20 0.7889065
319.30 0.7894364
319.40 0.7899655
319.50 0.7904938
319.60 0.7910378
319.70 0.7915644
319.80 0.7920902
319.90 0.7926152
320.00 0.7931125
320.10 0.7935798
320.20 0.7940408
320.30 0.7946277
320.40 0.7949967
320.50 0.7955571
320.60 0.7961455
320.70 0.7966083
320.80 0.7970991
320.90 0.7976203
321.00 0.7981406
321.10 0.7986602
321.20 0.7991885
321.30 0.7996831
321.40 0.8001769
321.50 0.80067
321.60 0.8011623
321.70 0.8016538
321.80 0.8021334
321.90 0.8026
322.00 0.8031004
322.10 0.8036071
322.20 0.8041131
322.30 0.8046182
322.40 0.8051226
322.50 0.8056262
322.60 0.806129
322.70 0.806631
322.80 0.8071508
322.90 0.8076593
323.00 0.808167
323.10 0.808674
323.20 0.8091802
323.30 0.8096855
323.40 0.8101901
323.50 0.8106939
323.60 0.811197
323.70 0.8116993
323.80 0.8122008
323.90 0.8127015
324.00 0.813205
324.10 0.8137077
324.20 0.8142097
324.30 0.8146845
324.40 0.8151336
324.50 0.8156359
324.60 0.8161374
324.70 0.8166382
324.80 0.8171382
324.90 0.8176374
325.00 0.8181358
325.10 0.8186335
325.20 0.8191224
325.30 0.8195933
325.40 0.8200636
325.50 0.8205437
325.60 0.8210359
325.70 0.8215274
325.80 0.8220181
325.90 0.8225063
326.00 0.8229916
326.10 0.8234762
326.20 0.82396
326.30 0.8244252
326.40 0.8248388
326.50 0.8253215
326.60 0.8258035
326.70 0.8262847
326.80 0.8267652
326.90 0.8272449
327.00 0.8277239
327.10 0.8282022
327.20 0.8286797
327.30 0.8291565
327.40 0.8296325
327.50 0.8301078
327.60 0.8305824
327.70 0.8310562
327.80 0.8315293
327.90 0.8319592
328.00 0.8323863
328.10 0.8328665
328.20 0.833346
328.30 0.8338247
328.40 0.8343027
328.50 0.8348164
328.60 0.8353378
328.70 0.8358585
328.80 0.8363621
328.90 0.8368189
329.00 0.8372749
329.10 0.8377302
329.20 0.8381849
329.30 0.8386388
329.40 0.839092
329.50 0.8395445
329.60 0.8399964
329.70 0.8404475
329.80 0.8408979
329.90 0.8413476
330.00 0.8418015
330.10 0.8422608
330.20 0.8427193
330.30 0.8431772
330.40 0.8436419
330.50 0.844114
330.60 0.8445855
330.70 0.8450562
330.80 0.8455261
330.90 0.8459954
331.00 0.8464639
331.10 0.8469317
331.20 0.8473988
331.30 0.8478652
331.40 0.8483309
331.50 0.8487619
331.60 0.8491509
331.70 0.8495392
331.80 0.8500024
331.90 0.850468
332.00 0.850933
332.10 0.8513972
332.20 0.8518607
332.30 0.8523235
332.40 0.8527855
332.50 0.8532469
332.60 0.8537076
332.70 0.8541675
332.80 0.8546268
332.90 0.8550853
333.00 0.8555431
333.10 0.8559935
333.20 0.8564351
333.30 0.8568759
333.40 0.857316
333.50 0.8577555
333.60 0.8581943
333.70 0.8586324
333.80 0.8590698
333.90 0.8595066
334.00 0.8599426
334.10 0.8603813
334.20 0.8608234
334.30 0.8612648
334.40 0.8617055
334.50 0.8621456
334.60 0.8625849
334.70 0.8629753
334.80 0.8633724
334.90 0.863864
335.00 0.8643549
335.10 0.8647148
335.20 0.8651867
335.30 0.8654879
335.40 0.8660681
335.50 0.8664283
335.60 0.8668701
335.70 0.8673167
335.80 0.8677844
335.90 0.8682269
336.00 0.8686386
336.10 0.8690497
336.20 0.8694602
336.30 0.8698781
336.40 0.8703055
336.50 0.8707321
336.60 0.8711581
336.70 0.8715835
336.80 0.8720082
336.90 0.8724441
337.00 0.872894
337.10 0.8733432
337.20 0.8737917
337.30 0.8742313
337.40 0.8746583
337.50 0.8750846
337.60 0.8755103
337.70 0.8759353
337.80 0.8763596
337.90 0.8767737
338.00 0.8771754
338.10 0.8775765
338.20 0.877977
338.30 0.8783768
338.40 0.878784
338.50 0.8792102
338.60 0.8796357
338.70 0.8800606
338.80 0.8804848
338.90 0.8809084
339.00 0.8813313
339.10 0.8817536
339.20 0.8821752
339.30 0.8825689
339.40 0.8829228
339.50 0.8833041
339.60 0.8837187
339.70 0.8841327
339.80 0.8845461
339.90 0.8849589
340.00 0.885371
340.10 0.8857825
340.20 0.8861933
340.30 0.8866035
340.40 0.887013
340.50 0.887422
340.60 0.8878303
340.70 0.8882379
340.80 0.8886198
340.90 0.8889647
341.00 0.8893371
341.10 0.8897432
341.20 0.8901486
341.30 0.8905533
341.40 0.8909575
341.50 0.891361
341.60 0.8917639
341.70 0.8921662
341.80 0.8925769
341.90 0.8929981
342.00 0.8934186
342.10 0.8938385
342.20 0.89428
342.30 0.894695
342.40 0.8950845
342.50 0.8954791
342.60 0.8958731
342.70 0.8962664
342.80 0.8966592
342.90 0.8970513
343.00 0.8974283
343.10 0.8977868
343.20 0.8981448
343.30 0.8985023
343.40 0.8988842
343.50 0.8993015
343.60 0.8997182
343.70 0.9001342
343.80 0.9005496
343.90 0.9009644
344.00 0.9013572
344.10 0.9017186
344.20 0.9020795
344.30 0.9024398
344.40 0.9028209
344.50 0.903232
344.60 0.9036798
344.70 0.9039911
344.80 0.9042966
344.90 0.904809
345.00 0.9050709
345.10 0.9054783
345.20 0.905876
345.30 0.9062599
345.40 0.9066431
345.50 0.9070645
345.60 0.9074922
345.70 0.9078616
345.80 0.9082303
345.90 0.9085985
346.00 0.9089661
346.10 0.9093332
346.20 0.9097052
346.30 0.9100848
346.40 0.9104638
346.50 0.9108422
346.60 0.9112201
346.70 0.9115973
346.80 0.911974
346.90 0.91235
347.00 0.9127255
347.10 0.9131004
347.20 0.9134721
347.30 0.9138394
347.40 0.9142061
347.50 0.9145723
347.60 0.9149379
347.70 0.9153029
347.80 0.9156673
347.90 0.9160312
348.00 0.9163945
348.10 0.9167573
348.20 0.9171194
348.30 0.917481
348.40 0.9178421
348.50 0.9182026
348.60 0.9185625
348.70 0.9189335
348.80 0.919304
348.90 0.9196685
349.00 0.9200325
349.10 0.920396
349.20 0.9207588
349.30 0.9211211
349.40 0.9214829
349.50 0.921844
349.60 0.9222046
349.70 0.9225647
349.80 0.9229241
349.90 0.9232831
350.00 0.9236414
350.10 0.9239992
350.20 0.9243564
350.30 0.9247085
350.40 0.9250533
350.50 0.9253977
350.60 0.9257414
350.70 0.9260846
350.80 0.9264273
350.90 0.9267695
351.00 0.9271111
351.10 0.9274521
351.20 0.9277926
351.30 0.9281326
351.40 0.9284778
351.50 0.9288326
351.60 0.9291869
351.70 0.9295406
351.80 0.9298937
351.90 0.9302463
352.00 0.9305984
352.10 0.9309499
352.20 0.9312299
352.30 0.9315313
352.40 0.9318751
352.50 0.9322184
352.60 0.9325611
352.70 0.9329033
352.80 0.9332449
352.90 0.933586
353.00 0.9339266
353.10 0.9342666
353.20 0.9346062
353.30 0.9349451
353.40 0.9352836
353.50 0.9356391
353.60 0.9359985
353.70 0.9363574
353.80 0.9367157
353.90 0.937063
354.00 0.9373913
354.10 0.937719
354.20 0.9380462
354.30 0.9383729
354.40 0.9386991
354.50 0.9390248
354.60 0.93935
354.70 0.9396746
354.80 0.9399948
354.90 0.9403088
355.00 0.9406223
355.10 0.9409352
355.20 0.9412477
355.30 0.9415792
355.40 0.9419102
355.50 0.9422407
355.60 0.9425706
355.70 0.9428844
355.80 0.9431906
355.90 0.943571
356.00 0.9439287
356.10 0.9442472
356.20 0.9445652
356.30 0.9448827
356.40 0.9451996
356.50 0.9455161
356.60 0.9458321
356.70 0.9461475
356.80 0.9464625
356.90 0.9467769
357.00 0.9470909
357.10 0.9474044
357.20 0.9477173
357.30 0.9480298
357.40 0.9483488
357.50 0.9486798
357.60 0.9490103
357.70 0.9493403
357.80 0.9495978
357.90 0.9498549
358.00 0.9501601
358.10 0.950477
358.20 0.9507933
358.30 0.9511091
358.40 0.9514245
358.50 0.9517393
358.60 0.9520536
358.70 0.9523675
358.80 0.9526808
358.90 0.9529936
359.00 0.9533114
359.10 0.9536382
359.20 0.9539597
359.30 0.9542487
359.40 0.9545372
359.50 0.9548243
359.60 0.9551108
359.70 0.9553967
359.80 0.9557317
359.90 0.9560662
360.00 0.9563949
360.10 0.9567138
360.20 0.9570323
360.30 0.9573502
360.40 0.9576677
360.50 0.9579846
360.60 0.9581484
360.70 0.9584703
360.80 0.9587916
360.90 0.9591125
361.00 0.9593695
361.10 0.9597089
361.20 0.9599548
361.30 0.9603304
361.40 0.9605638
361.50 0.9608911
361.60 0.9611557
361.70 0.9614727
361.80 0.9617753
361.90 0.962053
362.00 0.9623303
362.10 0.9625875
362.20 0.9628542
362.30 0.9631469
362.40 0.9634391
362.50 0.9637308
362.60 0.964022
362.70 0.9643841
362.80 0.9646228
362.90 0.9649298
363.00 0.9652364
363.10 0.9655588
363.20 0.9658809
363.30 0.9660805
363.40 0.9662959
363.50 0.9666976
363.60 0.9669122
363.70 0.9671885
363.80 0.9675265
363.90 0.967793
364.00 0.9680591
364.10 0.9683247
364.20 0.9685899
364.30 0.9688783
364.40 0.9691721
364.50 0.9693916
364.60 0.9697228
364.70 0.9700536
364.80 0.9703838
364.90 0.9705929
365.00 0.9708017
365.10 0.9711951
365.20 0.971403
365.30 0.9717029
365.40 0.9720024
365.50 0.972209
365.60 0.9724153
365.70 0.9727219
365.80 0.9730279
365.90 0.9733186
366.00 0.9736051
366.10 0.9738871
366.20 0.9741687
366.30 0.9744498
366.40 0.9747305
366.50 0.9749821
366.60 0.9751921
366.70 0.975494
366.80 0.9757955
366.90 0.9760813
367.00 0.9763399
367.10 0.976598
367.20 0.9768557
367.30 0.977113
367.40 0.9773699
367.50 0.977645
367.60 0.9779244
367.70 0.9781606
367.80 0.9783964
367.90 0.9786319
368.00 0.9788956
368.10 0.979265
368.20 0.9795211
368.30 0.9797756
368.40 0.9800297
368.50 0.9802834
368.60 0.9805367
368.70 0.9807896
368.80 0.9810421
368.90 0.9812449
369.00 0.981483
369.10 0.9817514
369.20 0.9819514
369.30 0.9822033
369.40 0.9824548
369.50 0.9827059
369.60 0.9829827
369.70 0.9832589
369.80 0.9835074
369.90 0.9837552
370.00 0.9840025
370.10 0.9843718
370.20 0.9845647
370.30 0.9847525
370.40 0.9850325
370.50 0.9853049
370.60 0.9854915
370.70 0.9858662
370.80 0.9860485
370.90 0.9862304
371.00 0.9865083
371.10 0.9867866
371.20 0.9870565
371.30 0.9873259
371.40 0.9874476
371.50 0.9877147
371.60 0.9879815
371.70 0.9882478
371.80 0.9885136
371.90 0.988779
372.00 0.9889175
372.10 0.9891494
372.20 0.9893894
372.30 0.9896291
372.40 0.9898683
372.50 0.9901071
372.60 0.9903456
372.70 0.9905836
372.80 0.9908469
372.90 0.9911097
373.00 0.99138
373.10 0.9916499
373.20 0.9918269
373.30 0.9920035
373.40 0.9923567
373.50 0.9925326
373.60 0.9927081
373.70 0.9930599
373.80 0.9932512
373.90 0.9934092
374.00 0.9936715
374.10 0.9939333
374.20 0.9941948
374.30 0.9944558
374.40 0.9946944
374.50 0.9947964
374.60 0.9950546
374.70 0.9953161
374.80 0.9955771
374.90 0.9958377
375.00 0.9960666
375.10 0.9962952
375.20 0.9965234
375.30 0.9967428
375.40 0.9969619
375.50 0.9971806
375.60 0.997399
375.70 0.9976169
375.80 0.9978345
375.90 0.9980518
376.00 0.9982118
376.10 0.9984401
376.20 0.9986687
376.30 0.998897
376.40 0.9991248
376.50 0.999337
376.60 0.9995259
376.70 0.9997145
376.80 0.999928
376.90 1.000166
377.00 1.000404
377.10 1.000642
377.20 1.000877
377.30 1.001102
377.40 1.001327
377.50 1.001551
377.60 1.001735
377.70 1.001919
377.80 1.002102
377.90 1.002285
378.00 1.00252
378.10 1.002729
378.20 1.002938
378.30 1.003145
378.40 1.003353
378.50 1.00356
378.60 1.003767
378.70 1.003973
378.80 1.004179
378.90 1.004395
379.00 1.004628
379.10 1.004853
379.20 1.005078
379.30 1.005285
379.40 1.005473
379.50 1.005662
379.60 1.00585
379.70 1.006045
379.80 1.006265
379.90 1.006483
380.00 1.006702
380.10 1.00692
380.20 1.007137
380.30 1.007355
380.40 1.007571
380.50 1.007788
380.60 1.007901
380.70 1.008106
380.80 1.008311
380.90 1.008516
381.00 1.00872
381.10 1.008934
381.20 1.009152
381.30 1.009296
381.40 1.009562
381.50 1.009728
381.60 1.0099
381.70 1.010064
381.80 1.01025
381.90 1.010482
382.00 1.010713
382.10 1.01086
382.20 1.011108
382.30 1.011254
382.40 1.011429
382.50 1.011648
382.60 1.011867
382.70 1.012061
382.80 1.012232
382.90 1.012409
383.00 1.012586
383.10 1.012763
383.20 1.012947
383.30 1.01316
383.40 1.013365
383.50 1.013555
383.60 1.013761
383.70 1.013939
383.80 1.014116
383.90 1.014293
384.00 1.01447
384.10 1.014647
384.20 1.014823
384.30 1.014999
384.40 1.015173
384.50 1.015345
384.60 1.015517
384.70 1.015688
384.80 1.015875
384.90 1.016101
385.00 1.016287
385.10 1.016471
385.20 1.016581
385.30 1.016728
385.40 1.016905
385.50 1.017113
385.60 1.01732
385.70 1.017527
385.80 1.017722
385.90 1.017872
386.00 1.018036
386.10 1.018213
386.20 1.018388
386.30 1.018562
386.40 1.018713
386.50 1.018889
386.60 1.019065
386.70 1.019198
386.80 1.019454
386.90 1.019627
387.00 1.019763
387.10 1.019977
387.20 1.020133
387.30 1.020244
387.40 1.020372
387.50 1.020624
387.60 1.020773
387.70 1.020944
387.80 1.021115
387.90 1.021285
388.00 1.021468
388.10 1.021651
388.20 1.02174
388.30 1.021889
388.40 1.022037
388.50 1.0222
388.60 1.022379
388.70 1.022647
388.80 1.022779
388.90 1.022916
389.00 1.023079
389.10 1.023237
389.20 1.023352
389.30 1.02352
389.40 1.023662
389.50 1.02381
389.60 1.023982
389.70 1.02419
389.80 1.024354
389.90 1.024519
390.00 1.024683
390.10 1.024847
390.20 1.02501
390.30 1.025171
390.40 1.02533
390.50 1.025488
390.60 1.025646
390.70 1.025804
390.80 1.02594
390.90 1.026053
391.00 1.026213
391.10 1.026393
391.20 1.026562
391.30 1.026699
391.40 1.026845
391.50 1.026991
391.60 1.027137
391.70 1.027282
391.80 1.027427
391.90 1.02754
392.00 1.027654
392.10 1.027824
392.20 1.028005
392.30 1.028215
392.40 1.028343
392.50 1.02847
392.60 1.028614
392.70 1.02873
392.80 1.028846
392.90 1.028983
393.00 1.029139
393.10 1.029302
393.20 1.029467
393.30 1.029581
393.40 1.029718
393.50 1.029851
393.60 1.029999
393.70 1.03021
393.80 1.030308
393.90 1.030421
394.00 1.030546
394.10 1.030733
394.20 1.030855
394.30 1.030999
394.40 1.031135
394.50 1.031194
394.60 1.031379
394.70 1.031553
394.80 1.031684
394.90 1.031815
395.00 1.03195
395.10 1.032031
395.20 1.032185
395.30 1.032331
395.40 1.032477
395.50 1.032603
395.60 1.032722
395.70 1.032841
395.80 1.032963
395.90 1.033084
396.00 1.033217
396.10 1.033425
396.20 1.033532
396.30 1.033681
396.40 1.033787
396.50 1.033919
396.60 1.033999
396.70 1.034215
396.80 1.034317
396.90 1.034433
397.00 1.034522
397.10 1.034653
397.20 1.034871
397.30 1.035008
397.40 1.035125
397.50 1.035243
397.60 1.035357
397.70 1.035445
397.80 1.035532
397.90 1.035636
398.00 1.035783
398.10 1.035929
398.20 1.036062
398.30 1.036179
398.40 1.036294
398.50 1.036372
398.60 1.0365
398.70 1.036621
398.80 1.036734
398.90 1.036866
399.00 1.037035
399.10 1.037192
399.20 1.037312
399.30 1.037431
399.40 1.03755
399.50 1.037668
399.60 1.037777
399.70 1.037882
399.80 1.037987
399.90 1.038091
400.00 1.038194
400.10 1.038268
400.20 1.038387
400.30 1.038493
400.40 1.038582
400.50 1.038815
400.60 1.038899
400.70 1.038995
400.80 1.039076
400.90 1.039145
401.00 1.039312
401.10 1.039438
401.20 1.039505
401.30 1.039577
401.40 1.03971
401.50 1.039872
401.60 1.040031
401.70 1.040101
401.80 1.040222
401.90 1.040315
402.00 1.040403
402.10 1.040479
402.20 1.040592
402.30 1.040687
402.40 1.040812
402.50 1.040848
402.60 1.040964
402.70 1.041183
402.80 1.041198
402.90 1.041305
403.00 1.041471
403.10 1.041547
403.20 1.041654
403.30 1.041721
403.40 1.041838
403.50 1.041948
403.60 1.042046
403.70 1.042085
403.80 1.042192
403.90 1.042277
404.00 1.042374
404.10 1.04259
404.20 1.042678
404.30 1.042766
404.40 1.042868
404.50 1.042866
404.60 1.043028
404.70 1.043115
404.80 1.04322
404.90 1.043289
405.00 1.043396
405.10 1.043483
405.20 1.043558
405.30 1.043633
405.40 1.043743
405.50 1.043853
405.60 1.043963
405.70 1.044073
405.80 1.044183
405.90 1.044292
406.00 1.04438
406.10 1.044467
406.20 1.044555
406.30 1.044642
406.40 1.044725
406.50 1.044795
406.60 1.044876
406.70 1.044978
406.80 1.045046
406.90 1.045142
407.00 1.045224
407.10 1.045306
407.20 1.045387
407.30 1.045469
407.40 1.04555
407.50 1.045631
407.60 1.045712
407.70 1.045792
407.80 1.045873
407.90 1.045952
408.00 1.046006
408.10 1.046095
408.20 1.046193
408.30 1.046259
408.40 1.046325
408.50 1.046412
408.60 1.046513
408.70 1.046614
408.80 1.046704
408.90 1.046721
409.00 1.046804
409.10 1.046886
409.20 1.046968
409.30 1.04705
409.40 1.047131
409.50 1.047191
409.60 1.047251
409.70 1.047319
409.80 1.047417
409.90 1.047514
410.00 1.047572
410.10 1.047673
410.20 1.047742
410.30 1.047804
410.40 1.047867
410.50 1.047934
410.60 1.048001
410.70 1.048071
410.80 1.048152
410.90 1.048234
411.00 1.048306
411.10 1.048375
411.20 1.048443
411.30 1.048521
411.40 1.048632
411.50 1.048689
411.60 1.048745
411.70 1.048805
411.80 1.048877
411.90 1.048978
412.00 1.04905
412.10 1.049158
412.20 1.049194
412.30 1.049244
412.40 1.049352
412.50 1.049366
412.60 1.049375
412.70 1.049466
412.80 1.049577
412.90 1.049567
413.00 1.049753
413.10 1.049819
413.20 1.049884
413.30 1.049949
413.40 1.050014
413.50 1.050054
413.60 1.050027
413.70 1.050096
413.80 1.050164
413.90 1.050233
414.00 1.050301
414.10 1.050369
414.20 1.050472
414.30 1.050525
414.40 1.050492
414.50 1.050657
414.60 1.050707
414.70 1.050774
414.80 1.050832
414.90 1.050863
415.00 1.050894
415.10 1.050924
415.20 1.050965
415.30 1.051038
415.40 1.051111
415.50 1.051183
415.60 1.05124
415.70 1.051297
415.80 1.051354
415.90 1.051411
416.00 1.051468
416.10 1.051522
416.20 1.051563
416.30 1.051604
416.40 1.051645
416.50 1.051686
416.60 1.05175
416.70 1.051807
416.80 1.051884
416.90 1.051868
417.00 1.05196
417.10 1.052063
417.20 1.052055
417.30 1.052048
417.40 1.052094
417.50 1.05214
417.60 1.052197
417.70 1.052295
417.80 1.052333
417.90 1.052371
418.00 1.052409
418.10 1.052446
418.20 1.052484
418.30 1.052521
418.40 1.052556
418.50 1.052604
418.60 1.052651
418.70 1.052698
418.80 1.052745
418.90 1.052792
419.00 1.052839
419.10 1.052885
419.20 1.052932
419.30 1.052978
419.40 1.053021
419.50 1.053063
419.60 1.053101
419.70 1.05312
419.80 1.053138
419.90 1.053163
420.00 1.053209
420.10 1.053256
