# Version 2.1 - nm, norm@500 to 1, cut digits, bergeron_He_9500_75.dat_9500
# Wavelength(nm)  Flambda(ergs/cm^s/s/nm)
300.00 1.816435
300.10 1.816278
300.20 1.816114
300.30 1.815957
300.40 1.81584
300.50 1.815722
300.60 1.815605
300.70 1.815487
300.80 1.815369
300.90 1.815251
301.00 1.815132
301.10 1.815014
301.20 1.814895
301.30 1.814775
301.40 1.814656
301.50 1.814536
301.60 1.814416
301.70 1.814296
301.80 1.814176
301.90 1.814055
302.00 1.813934
302.10 1.813797
302.20 1.813658
302.30 1.813519
302.40 1.81338
302.50 1.81324
302.60 1.8131
302.70 1.81296
302.80 1.81282
302.90 1.812679
303.00 1.812539
303.10 1.812398
303.20 1.812257
303.30 1.812115
303.40 1.811967
303.50 1.811819
303.60 1.811671
303.70 1.811522
303.80 1.811374
303.90 1.811225
304.00 1.811076
304.10 1.810927
304.20 1.810777
304.30 1.810628
304.40 1.810478
304.50 1.810328
304.60 1.810186
304.70 1.810046
304.80 1.809905
304.90 1.809764
305.00 1.809622
305.10 1.809481
305.20 1.809339
305.30 1.809197
305.40 1.809055
305.50 1.808913
305.60 1.80877
305.70 1.808628
305.80 1.808485
305.90 1.808342
306.00 1.808198
306.10 1.808055
306.20 1.807911
306.30 1.807767
306.40 1.80759
306.50 1.807404
306.60 1.807217
306.70 1.807029
306.80 1.806842
306.90 1.806655
307.00 1.806467
307.10 1.80628
307.20 1.806092
307.30 1.805904
307.40 1.805716
307.50 1.805528
307.60 1.805339
307.70 1.805151
307.80 1.804962
307.90 1.804773
308.00 1.804584
308.10 1.804395
308.20 1.804206
308.30 1.804017
308.40 1.803827
308.50 1.803638
308.60 1.803448
308.70 1.803258
308.80 1.803097
308.90 1.803015
309.00 1.802834
309.10 1.802652
309.20 1.802469
309.30 1.802287
309.40 1.802105
309.50 1.801929
309.60 1.801752
309.70 1.801575
309.80 1.801398
309.90 1.801221
310.00 1.801044
310.10 1.800867
310.20 1.800689
310.30 1.800512
310.40 1.800337
310.50 1.800166
310.60 1.799995
310.70 1.799824
310.80 1.799653
310.90 1.799482
311.00 1.799227
311.10 1.798972
311.20 1.798718
311.30 1.79848
311.40 1.798291
311.50 1.798103
311.60 1.797914
311.70 1.797724
311.80 1.797535
311.90 1.797346
312.00 1.797156
312.10 1.796966
312.20 1.796584
312.30 1.796327
312.40 1.796292
312.50 1.795991
312.60 1.79574
312.70 1.795489
312.80 1.795238
312.90 1.795012
313.00 1.794813
313.10 1.794613
313.20 1.794414
313.30 1.794207
313.40 1.793977
313.50 1.793748
313.60 1.793519
313.70 1.793289
313.80 1.79306
313.90 1.79283
314.00 1.792601
314.10 1.7924
314.20 1.792199
314.30 1.791998
314.40 1.791797
314.50 1.791596
314.60 1.791395
314.70 1.791194
314.80 1.790968
314.90 1.790697
315.00 1.79045
315.10 1.79019
315.20 1.789931
315.30 1.789671
315.40 1.789411
315.50 1.789152
315.60 1.788892
315.70 1.788742
315.80 1.788591
315.90 1.78844
316.00 1.788289
316.10 1.788138
316.20 1.787987
316.30 1.787509
316.40 1.787358
316.50 1.78688
316.60 1.786729
316.70 1.786577
316.80 1.786425
316.90 1.786111
317.00 1.785796
317.10 1.785482
317.20 1.785167
317.30 1.78516
317.40 1.78506
317.50 1.784696
317.60 1.784332
317.70 1.783968
317.80 1.783604
317.90 1.783333
318.00 1.783508
318.10 1.783194
318.20 1.782879
318.30 1.782565
318.40 1.782292
318.50 1.782139
318.60 1.781734
318.70 1.781355
318.80 1.781426
318.90 1.781048
319.00 1.780727
319.10 1.780573
319.20 1.780389
319.30 1.780121
319.40 1.779853
319.50 1.779585
319.60 1.779131
319.70 1.778863
319.80 1.778595
319.90 1.778328
320.00 1.778114
320.10 1.777959
320.20 1.777631
320.30 1.777509
320.40 1.777035
320.50 1.777007
320.60 1.776547
320.70 1.776391
320.80 1.776159
320.90 1.775845
321.00 1.775531
321.10 1.775217
321.20 1.774751
321.30 1.774521
321.40 1.774292
321.50 1.774063
321.60 1.773833
321.70 1.773604
321.80 1.773365
321.90 1.773115
322.00 1.77305
322.10 1.772732
322.20 1.772414
322.30 1.772096
322.40 1.771779
322.50 1.771461
322.60 1.771143
322.70 1.770825
322.80 1.770351
322.90 1.770088
323.00 1.769826
323.10 1.769564
323.20 1.769302
323.30 1.76904
323.40 1.768777
323.50 1.768515
323.60 1.768253
323.70 1.767991
323.80 1.767728
323.90 1.767466
324.00 1.767207
324.10 1.766947
324.20 1.766688
324.30 1.76642
324.40 1.766109
324.50 1.765781
324.60 1.765453
324.70 1.765124
324.80 1.764796
324.90 1.764468
325.00 1.76414
325.10 1.763811
325.20 1.763517
325.30 1.763293
325.40 1.763068
325.50 1.762807
325.60 1.7625
325.70 1.762193
325.80 1.761886
325.90 1.761557
326.00 1.761205
326.10 1.760852
326.20 1.7605
326.30 1.760211
326.40 1.760106
326.50 1.759787
326.60 1.759468
326.70 1.75915
326.80 1.758831
326.90 1.758513
327.00 1.758194
327.10 1.757876
327.20 1.757558
327.30 1.757239
327.40 1.756921
327.50 1.756603
327.60 1.756285
327.70 1.755967
327.80 1.755649
327.90 1.755536
328.00 1.755467
328.10 1.755181
328.20 1.754896
328.30 1.75461
328.40 1.754324
328.50 1.753957
328.60 1.753571
328.70 1.753185
328.80 1.752822
328.90 1.752523
329.00 1.752224
329.10 1.751925
329.20 1.751626
329.30 1.751327
329.40 1.751028
329.50 1.750729
329.60 1.75043
329.70 1.750132
329.80 1.749833
329.90 1.749534
330.00 1.749165
330.10 1.748709
330.20 1.748253
330.30 1.747798
330.40 1.747418
330.50 1.747119
330.60 1.74682
330.70 1.746522
330.80 1.746223
330.90 1.745925
331.00 1.745627
331.10 1.745328
331.20 1.74503
331.30 1.744732
331.40 1.744434
331.50 1.744118
331.60 1.743782
331.70 1.743445
331.80 1.743098
331.90 1.742749
332.00 1.742401
332.10 1.742053
332.20 1.741705
332.30 1.741357
332.40 1.74101
332.50 1.740662
332.60 1.740314
332.70 1.739967
332.80 1.73962
332.90 1.739272
333.00 1.738925
333.10 1.738582
333.20 1.738245
333.30 1.737907
333.40 1.737569
333.50 1.737232
333.60 1.736895
333.70 1.736557
333.80 1.73622
333.90 1.735883
334.00 1.735546
334.10 1.735245
334.20 1.734986
334.30 1.734727
334.40 1.734468
334.50 1.734209
334.60 1.73395
334.70 1.733594
334.80 1.733162
334.90 1.732794
335.00 1.732426
335.10 1.731924
335.20 1.731763
335.30 1.731282
335.40 1.73112
335.50 1.730378
335.60 1.730217
335.70 1.729794
335.80 1.729633
335.90 1.729341
336.00 1.72889
336.10 1.728439
336.20 1.727989
336.30 1.727582
336.40 1.727228
336.50 1.726875
336.60 1.726521
336.70 1.726167
336.80 1.725814
336.90 1.725479
337.00 1.725167
337.10 1.724855
337.20 1.724542
337.30 1.724215
337.40 1.723867
337.50 1.723519
337.60 1.723171
337.70 1.722823
337.80 1.722475
337.90 1.722124
338.00 1.72177
338.10 1.721416
338.20 1.721062
338.30 1.720708
338.40 1.720348
338.50 1.719973
338.60 1.719599
338.70 1.719224
338.80 1.71885
338.90 1.718476
339.00 1.718102
339.10 1.717728
339.20 1.717355
339.30 1.716957
339.40 1.716524
339.50 1.716124
339.60 1.715764
339.70 1.715405
339.80 1.715046
339.90 1.714687
340.00 1.714328
340.10 1.71397
340.20 1.713611
340.30 1.713253
340.40 1.712894
340.50 1.712536
340.60 1.712178
340.70 1.71182
340.80 1.711433
340.90 1.711002
341.00 1.710598
341.10 1.710226
341.20 1.709855
341.30 1.709484
341.40 1.709113
341.50 1.708742
341.60 1.708371
341.70 1.708
341.80 1.707643
341.90 1.707301
342.00 1.706959
342.10 1.706618
342.20 1.706424
342.30 1.706027
342.40 1.705535
342.50 1.705193
342.60 1.704851
342.70 1.704509
342.80 1.704167
342.90 1.703826
343.00 1.703438
343.10 1.702994
343.20 1.702551
343.30 1.702108
343.40 1.701705
343.50 1.70136
343.60 1.701015
343.70 1.70067
343.80 1.700325
343.90 1.69998
344.00 1.699598
344.10 1.699162
344.20 1.698726
344.30 1.69829
344.40 1.697854
344.50 1.697419
344.60 1.697308
344.70 1.696873
344.80 1.696438
344.90 1.696003
345.00 1.695794
345.10 1.695359
345.20 1.694928
345.30 1.694502
345.40 1.694075
345.50 1.693636
345.60 1.693228
345.70 1.692886
345.80 1.692544
345.90 1.692202
346.00 1.69186
346.10 1.691519
346.20 1.69114
346.30 1.690708
346.40 1.690276
346.50 1.689844
346.60 1.689413
346.70 1.688982
346.80 1.688551
346.90 1.68812
347.00 1.687689
347.10 1.687259
347.20 1.686849
347.30 1.686469
347.40 1.686089
347.50 1.685709
347.60 1.68533
347.70 1.68495
347.80 1.684571
347.90 1.684192
348.00 1.683813
348.10 1.683434
348.20 1.683056
348.30 1.682677
348.40 1.682299
348.50 1.681921
348.60 1.681542
348.70 1.681021
348.80 1.680527
348.90 1.680136
349.00 1.679745
349.10 1.679354
349.20 1.678963
349.30 1.678573
349.40 1.678183
349.50 1.677793
349.60 1.677403
349.70 1.677013
349.80 1.676624
349.90 1.676234
350.00 1.675845
350.10 1.675456
350.20 1.675067
350.30 1.674683
350.40 1.674305
350.50 1.673926
350.60 1.673549
350.70 1.673171
350.80 1.672793
350.90 1.672416
351.00 1.672038
351.10 1.671661
351.20 1.671284
351.30 1.670907
351.40 1.670503
351.50 1.670048
351.60 1.669594
351.70 1.66914
351.80 1.668686
351.90 1.668233
352.00 1.667779
352.10 1.667326
352.20 1.667065
352.30 1.66674
352.40 1.666292
352.50 1.665845
352.60 1.665397
352.70 1.66495
352.80 1.664504
352.90 1.664057
353.00 1.663611
353.10 1.663165
353.20 1.662719
353.30 1.662274
353.40 1.661828
353.50 1.661458
353.60 1.661107
353.70 1.660755
353.80 1.660404
353.90 1.66003
354.00 1.659616
354.10 1.659203
354.20 1.658789
354.30 1.658376
354.40 1.657963
354.50 1.65755
354.60 1.657138
354.70 1.656725
354.80 1.656292
354.90 1.655829
355.00 1.655366
355.10 1.654904
355.20 1.654441
355.30 1.65399
355.40 1.653539
355.50 1.653089
355.60 1.652638
355.70 1.652316
355.80 1.652051
355.90 1.651548
356.00 1.65102
356.10 1.650592
356.20 1.650164
356.30 1.649737
356.40 1.649309
356.50 1.648882
356.60 1.648455
356.70 1.648029
356.80 1.647602
356.90 1.647176
357.00 1.64675
357.10 1.646324
357.20 1.645899
357.30 1.645474
357.40 1.645089
357.50 1.644777
357.60 1.644465
357.70 1.644153
357.80 1.643698
357.90 1.643243
358.00 1.642808
358.10 1.642378
358.20 1.641949
358.30 1.64152
358.40 1.641091
358.50 1.640662
358.60 1.640233
358.70 1.639805
358.80 1.639377
358.90 1.638949
359.00 1.63851
359.10 1.638052
359.20 1.637591
359.30 1.637114
359.40 1.636637
359.50 1.636246
359.60 1.635877
359.70 1.635508
359.80 1.634982
359.90 1.634455
360.00 1.63396
360.10 1.633522
360.20 1.633083
360.30 1.632645
360.40 1.632207
360.50 1.63177
360.60 1.631552
360.70 1.63115
360.80 1.630747
360.90 1.630345
361.00 1.629762
361.10 1.629416
361.20 1.628959
361.30 1.628558
361.40 1.628131
361.50 1.627755
361.60 1.627035
361.70 1.626634
361.80 1.626195
361.90 1.625686
362.00 1.625177
362.10 1.624911
362.20 1.624613
362.30 1.624153
362.40 1.623692
362.50 1.623233
362.60 1.622773
362.70 1.622241
362.80 1.622063
362.90 1.621663
363.00 1.621263
363.10 1.620822
363.20 1.620382
363.30 1.61958
363.40 1.619307
363.50 1.618787
363.60 1.618391
363.70 1.618049
363.80 1.617598
363.90 1.617179
364.00 1.61676
364.10 1.616341
364.20 1.615922
364.30 1.615348
364.40 1.614734
364.50 1.614345
364.60 1.613949
364.70 1.613553
364.80 1.613158
364.90 1.612764
365.00 1.61237
365.10 1.611732
365.20 1.611339
365.30 1.610946
365.40 1.610309
365.50 1.609917
365.60 1.609525
365.70 1.609089
365.80 1.608652
365.90 1.608295
366.00 1.607958
366.10 1.607439
366.20 1.60692
366.30 1.606402
366.40 1.605883
366.50 1.605513
366.60 1.605128
366.70 1.604621
366.80 1.604114
366.90 1.603632
367.00 1.603194
367.10 1.602756
367.20 1.602319
367.30 1.601882
367.40 1.601445
367.50 1.60109
367.60 1.600756
367.70 1.600266
367.80 1.599777
367.90 1.599289
368.00 1.598724
368.10 1.598332
368.20 1.597907
368.30 1.597481
368.40 1.597055
368.50 1.596629
368.60 1.596204
368.70 1.595779
368.80 1.595354
368.90 1.594771
369.00 1.594331
369.10 1.593996
369.20 1.593617
369.30 1.593074
369.40 1.59253
369.50 1.591987
369.60 1.591601
369.70 1.591216
369.80 1.590743
369.90 1.59027
370.00 1.589797
370.10 1.589213
370.20 1.588826
370.30 1.588444
370.40 1.588067
370.50 1.587442
370.60 1.587055
370.70 1.586448
370.80 1.586065
370.90 1.585682
371.00 1.585304
371.10 1.584926
371.20 1.584308
371.30 1.583691
371.40 1.583472
371.50 1.58306
371.60 1.582649
371.70 1.582237
371.80 1.581826
371.90 1.581415
372.00 1.580704
372.10 1.580192
372.20 1.579735
372.30 1.579279
372.40 1.578824
372.50 1.578368
372.60 1.577913
372.70 1.577458
372.80 1.577079
372.90 1.576701
373.00 1.576094
373.10 1.575485
373.20 1.575109
373.30 1.574734
373.40 1.574359
373.50 1.57375
373.60 1.573375
373.70 1.572767
373.80 1.572495
373.90 1.572019
374.00 1.571529
374.10 1.571039
374.20 1.570549
374.30 1.570059
374.40 1.569803
374.50 1.569314
374.60 1.568822
374.70 1.568335
374.80 1.567847
374.90 1.56736
375.00 1.566989
375.10 1.566617
375.20 1.566246
375.30 1.565743
375.40 1.56524
375.50 1.564737
375.60 1.564234
375.70 1.563732
375.80 1.56323
375.90 1.562729
376.00 1.562355
376.10 1.561927
376.20 1.561499
376.30 1.561071
376.40 1.560643
376.50 1.560182
376.60 1.559671
376.70 1.55916
376.80 1.558652
376.90 1.558147
377.00 1.557641
377.10 1.557136
377.20 1.556655
377.30 1.556258
377.40 1.555862
377.50 1.555466
377.60 1.55504
377.70 1.554615
377.80 1.55419
377.90 1.553765
378.00 1.553181
378.10 1.552726
378.20 1.552275
378.30 1.551824
378.40 1.551374
378.50 1.550923
378.60 1.550473
378.70 1.550023
378.80 1.549574
378.90 1.549113
379.00 1.548632
379.10 1.548179
379.20 1.547726
379.30 1.547238
379.40 1.546715
379.50 1.546192
379.60 1.545705
379.70 1.545261
379.80 1.544778
379.90 1.544295
380.00 1.543813
380.10 1.54333
380.20 1.542848
380.30 1.542367
380.40 1.541885
380.50 1.541404
380.60 1.541171
380.70 1.540669
380.80 1.540166
380.90 1.539665
381.00 1.539163
381.10 1.538637
381.20 1.538198
381.30 1.537725
381.40 1.537364
381.50 1.536788
381.60 1.536271
381.70 1.53588
381.80 1.535407
381.90 1.534827
382.00 1.534247
382.10 1.533892
382.20 1.533625
382.30 1.533047
382.40 1.532501
382.50 1.532004
382.60 1.531508
382.70 1.531085
382.80 1.530671
382.90 1.530183
383.00 1.529695
383.10 1.529207
383.20 1.528707
383.30 1.528155
383.40 1.527632
383.50 1.527152
383.60 1.526831
383.70 1.526386
383.80 1.525941
383.90 1.525497
384.00 1.525052
384.10 1.524608
384.20 1.524164
384.30 1.523721
384.40 1.523257
384.50 1.522774
384.60 1.522291
384.70 1.521808
384.80 1.521261
384.90 1.520603
385.00 1.520191
385.10 1.519788
385.20 1.519528
385.30 1.518962
385.40 1.51844
385.50 1.517959
385.60 1.517479
385.70 1.516999
385.80 1.516509
385.90 1.51598
386.00 1.515478
386.10 1.515006
386.20 1.514559
386.30 1.514113
386.40 1.513605
386.50 1.513153
386.60 1.512807
386.70 1.512352
386.80 1.511679
386.90 1.511334
387.00 1.510782
387.10 1.510219
387.20 1.509864
387.30 1.50952
387.40 1.508853
387.50 1.50859
387.60 1.508121
387.70 1.507669
387.80 1.507217
387.90 1.506766
388.00 1.506246
388.10 1.505536
388.20 1.505265
388.30 1.504765
388.40 1.504265
388.50 1.503802
388.60 1.503328
388.70 1.502945
388.80 1.502214
388.90 1.501846
389.00 1.501325
389.10 1.500938
389.20 1.500421
389.30 1.499804
389.40 1.499476
389.50 1.499116
389.60 1.498632
389.70 1.497965
389.80 1.497489
389.90 1.497013
390.00 1.496537
390.10 1.496062
390.20 1.495587
390.30 1.495097
390.40 1.49459
390.50 1.494083
390.60 1.493576
390.70 1.49307
390.80 1.492676
390.90 1.492396
391.00 1.491819
391.10 1.491263
391.20 1.490785
391.30 1.490463
391.40 1.489985
391.50 1.489508
391.60 1.489031
391.70 1.488555
391.80 1.488079
391.90 1.487656
392.00 1.487209
392.10 1.486634
392.20 1.486044
392.30 1.48543
392.40 1.484976
392.50 1.484621
392.60 1.484288
392.70 1.483606
392.80 1.4832
392.90 1.482947
393.00 1.482417
393.10 1.481926
393.20 1.48147
393.30 1.480928
393.40 1.480367
393.50 1.479956
393.60 1.479542
393.70 1.478954
393.80 1.478643
393.90 1.478103
394.00 1.477544
394.10 1.476995
394.20 1.476672
394.30 1.476136
394.40 1.475422
394.50 1.475059
394.60 1.474546
394.70 1.474065
394.80 1.473702
394.90 1.473329
395.00 1.472644
395.10 1.472256
395.20 1.471729
395.30 1.471256
395.40 1.470784
395.50 1.470362
395.60 1.469958
395.70 1.469533
395.80 1.469053
395.90 1.468573
396.00 1.468069
396.10 1.467384
396.20 1.466852
396.30 1.466544
396.40 1.465939
396.50 1.465548
396.60 1.464949
396.70 1.464553
396.80 1.463983
396.90 1.463491
397.00 1.463168
397.10 1.462777
397.20 1.462202
397.30 1.461857
397.40 1.461382
397.50 1.460906
397.60 1.460421
397.70 1.459833
397.80 1.459245
397.90 1.458698
398.00 1.45826
398.10 1.457822
398.20 1.457404
398.30 1.45701
398.40 1.456605
398.50 1.455874
398.60 1.455467
398.70 1.454959
398.80 1.454397
398.90 1.453883
399.00 1.453458
399.10 1.453157
399.20 1.452617
399.30 1.452077
399.40 1.451538
399.50 1.450999
399.60 1.450514
399.70 1.450049
399.80 1.449585
399.90 1.44912
400.00 1.448658
400.10 1.448248
400.20 1.447895
400.30 1.447422
400.40 1.44686
400.50 1.446255
400.60 1.44583
400.70 1.445515
400.80 1.444903
400.90 1.444589
401.00 1.443869
401.10 1.443554
401.20 1.443153
401.30 1.442521
401.40 1.442022
401.50 1.441604
401.60 1.441186
401.70 1.44078
401.80 1.440147
401.90 1.439642
402.00 1.439133
402.10 1.438806
402.20 1.438091
402.30 1.437779
402.40 1.43734
402.50 1.436754
402.60 1.436443
402.70 1.43573
402.80 1.435419
402.90 1.434868
403.00 1.434357
403.10 1.434087
403.20 1.433385
403.30 1.432983
403.40 1.432356
403.50 1.431834
403.60 1.431371
403.70 1.43103
403.80 1.430728
403.90 1.430247
404.00 1.429705
404.10 1.428998
404.20 1.42849
404.30 1.427984
404.40 1.427677
404.50 1.42717
404.60 1.426664
404.70 1.426358
404.80 1.425665
404.90 1.425348
405.00 1.424644
405.10 1.424168
405.20 1.423749
405.30 1.423331
405.40 1.422827
405.50 1.422324
405.60 1.421821
405.70 1.421319
405.80 1.420816
405.90 1.420315
406.00 1.419854
406.10 1.419394
406.20 1.418934
406.30 1.418474
406.40 1.418008
406.50 1.417705
406.60 1.417008
406.70 1.416558
406.80 1.41617
406.90 1.415714
407.00 1.415215
407.10 1.414717
407.20 1.414219
407.30 1.413722
407.40 1.413225
407.50 1.412728
407.60 1.412231
407.70 1.411735
407.80 1.411239
407.90 1.410744
408.00 1.410267
408.10 1.409943
408.20 1.40955
408.30 1.408987
408.40 1.408425
408.50 1.408161
408.60 1.407607
408.70 1.407054
408.80 1.406535
408.90 1.406224
409.00 1.405687
409.10 1.405149
409.20 1.404612
409.30 1.404076
409.40 1.403543
409.50 1.403133
409.60 1.402723
409.70 1.402294
409.80 1.401789
409.90 1.40129
410.00 1.400984
410.10 1.400301
410.20 1.399739
410.30 1.399208
410.40 1.398703
410.50 1.398276
410.60 1.39785
410.70 1.397405
410.80 1.396881
410.90 1.396358
411.00 1.39588
411.10 1.39542
411.20 1.39496
411.30 1.394523
411.40 1.394169
411.50 1.393628
411.60 1.393087
411.70 1.392558
411.80 1.392074
411.90 1.391552
412.00 1.391261
412.10 1.390586
412.20 1.390296
412.30 1.389687
412.40 1.389332
412.50 1.388713
412.60 1.388314
412.70 1.387815
412.80 1.387292
412.90 1.386749
413.00 1.386483
413.10 1.385963
413.20 1.385444
413.30 1.384926
413.40 1.384407
413.50 1.383938
413.60 1.383617
413.70 1.383139
413.80 1.382661
413.90 1.382184
414.00 1.381707
414.10 1.38123
414.20 1.380708
414.30 1.380079
414.40 1.379755
414.50 1.379119
414.60 1.37885
414.70 1.378375
414.80 1.3779
414.90 1.377426
415.00 1.376951
415.10 1.376478
415.20 1.375987
415.30 1.375442
415.40 1.374898
415.50 1.374359
415.60 1.373968
415.70 1.373578
415.80 1.373153
415.90 1.372617
416.00 1.372081
416.10 1.371557
416.20 1.371079
416.30 1.370601
416.40 1.370124
416.50 1.369646
416.60 1.369177
416.70 1.368702
416.80 1.368266
416.90 1.367765
417.00 1.367109
417.10 1.366835
417.20 1.366367
417.30 1.365898
417.40 1.365376
417.50 1.364855
417.60 1.364371
417.70 1.364033
417.80 1.363568
417.90 1.363102
418.00 1.362637
418.10 1.362172
418.20 1.361707
418.30 1.361237
418.40 1.360625
418.50 1.360137
418.60 1.359649
418.70 1.359161
418.80 1.358674
418.90 1.358187
419.00 1.3577
419.10 1.357214
419.20 1.356728
419.30 1.356241
419.40 1.355726
419.50 1.355211
419.60 1.35472
419.70 1.354325
419.80 1.35393
419.90 1.35351
420.00 1.35301
420.10 1.352511
420.20 1.352013
420.30 1.351514
420.40 1.351016
420.50 1.350518
420.60 1.350021
420.70 1.349523
420.80 1.349027
420.90 1.348534
421.00 1.348158
421.10 1.347783
421.20 1.347381
421.30 1.346899
421.40 1.346417
421.50 1.345935
421.60 1.345454
421.70 1.344973
421.80 1.344493
421.90 1.344018
422.00 1.343561
422.10 1.343091
422.20 1.34257
422.30 1.34205
422.40 1.341531
422.50 1.341044
422.60 1.340557
422.70 1.340071
422.80 1.339584
422.90 1.339099
423.00 1.338613
423.10 1.338128
423.20 1.337643
423.30 1.337158
423.40 1.336674
423.50 1.33619
423.60 1.335706
423.70 1.335223
423.80 1.33474
423.90 1.334257
424.00 1.333774
424.10 1.333292
424.20 1.33281
424.30 1.332329
424.40 1.332179
424.50 1.331698
424.60 1.331217
424.70 1.330737
424.80 1.330256
424.90 1.329776
