# Version 2.1 - nm, norm@500 to 1, cut digits, bergeron_He_3500_80.dat_3500
# Wavelength(nm)  Flambda(ergs/cm^s/s/nm)
300.00 0.01141955
300.10 0.01146681
300.20 0.01151429
300.30 0.01156188
300.40 0.0116106
300.50 0.01165925
300.60 0.01170783
300.70 0.01175635
300.80 0.01180479
300.90 0.01185317
301.00 0.01190149
301.10 0.01194973
301.20 0.01199791
301.30 0.01204603
301.40 0.01209408
301.50 0.01214206
301.60 0.01218997
301.70 0.01223782
301.80 0.0122856
301.90 0.01233332
302.00 0.01238097
302.10 0.01243192
302.20 0.01248317
302.30 0.01253436
302.40 0.01258547
302.50 0.01263652
302.60 0.01268749
302.70 0.0127384
302.80 0.01278923
302.90 0.01283999
303.00 0.01289069
303.10 0.01294131
303.20 0.01299187
303.30 0.01304262
303.40 0.01309572
303.50 0.01314875
303.60 0.0132017
303.70 0.01325458
303.80 0.01330739
303.90 0.01336013
304.00 0.01341279
304.10 0.01346538
304.20 0.0135179
304.30 0.01357035
304.40 0.01362273
304.50 0.01367503
304.60 0.0137308
304.70 0.01378689
304.80 0.01384291
304.90 0.01389884
305.00 0.0139547
305.10 0.01401049
305.20 0.0140662
305.30 0.01412183
305.40 0.01417738
305.50 0.01423287
305.60 0.01428827
305.70 0.0143436
305.80 0.01439885
305.90 0.01445403
306.00 0.01450914
306.10 0.01456416
306.20 0.01461912
306.30 0.014674
306.40 0.01473308
306.50 0.01479336
306.60 0.01485356
306.70 0.01491368
306.80 0.01497371
306.90 0.01503367
307.00 0.01509354
307.10 0.01515333
307.20 0.01521304
307.30 0.01527267
307.40 0.01533222
307.50 0.01539169
307.60 0.01545108
307.70 0.01551038
307.80 0.01556961
307.90 0.01562876
308.00 0.01568782
308.10 0.01574681
308.20 0.01580572
308.30 0.01586455
308.40 0.01592329
308.50 0.01598196
308.60 0.01604055
308.70 0.01609906
308.80 0.0161582
308.90 0.01621926
309.00 0.01628183
309.10 0.01634432
309.20 0.01640672
309.30 0.01646904
309.40 0.01653152
309.50 0.01659545
309.60 0.0166593
309.70 0.01672305
309.80 0.01678673
309.90 0.01685031
310.00 0.01691381
310.10 0.01697723
310.20 0.01704056
310.30 0.01710381
310.40 0.01716821
310.50 0.01723389
310.60 0.01729948
310.70 0.01736498
310.80 0.01743039
310.90 0.01749571
311.00 0.01756189
311.10 0.01762798
311.20 0.01769399
311.30 0.0177604
311.40 0.01782814
311.50 0.01789578
311.60 0.01796334
311.70 0.01803081
311.80 0.01809819
311.90 0.01816547
312.00 0.01823267
312.10 0.01829978
312.20 0.01836617
312.30 0.01843446
312.40 0.01850378
312.50 0.01857359
312.60 0.01864281
312.70 0.01871195
312.80 0.01878099
312.90 0.01885047
313.00 0.01892044
313.10 0.01899031
313.20 0.01906009
313.30 0.01913037
313.40 0.01920224
313.50 0.01927401
313.60 0.01934568
313.70 0.01941726
313.80 0.01948875
313.90 0.01956014
314.00 0.01963143
314.10 0.01970452
314.20 0.01977751
314.30 0.0198504
314.40 0.0199232
314.50 0.0199959
314.60 0.0200685
314.70 0.02014101
314.80 0.02021441
314.90 0.02028961
315.00 0.02036373
315.10 0.02043865
315.20 0.02051347
315.30 0.0205882
315.40 0.02066283
315.50 0.02073735
315.60 0.02081178
315.70 0.02088796
315.80 0.02096404
315.90 0.02104002
316.00 0.0211159
316.10 0.02119352
316.20 0.02127104
316.30 0.02134723
316.40 0.02142455
316.50 0.02150176
316.60 0.0215801
316.70 0.02165834
316.80 0.02173647
316.90 0.02181511
317.00 0.02189365
317.10 0.02197208
317.20 0.02205041
317.30 0.02213048
317.40 0.02221059
317.50 0.022291
317.60 0.02237131
317.70 0.02245151
317.80 0.02253161
317.90 0.02261181
318.00 0.02269329
318.10 0.02277433
318.20 0.02285526
318.30 0.02293608
318.40 0.02301727
318.50 0.0230997
318.60 0.02318202
318.70 0.02326424
318.80 0.02334779
318.90 0.02343076
319.00 0.02351327
319.10 0.02359747
319.20 0.02368156
319.30 0.02376554
319.40 0.02384942
319.50 0.02393319
319.60 0.0240192
319.70 0.02410275
319.80 0.02418619
319.90 0.02426952
320.00 0.02435734
320.10 0.02445002
320.20 0.02453628
320.30 0.02461205
320.40 0.0246996
320.50 0.02478943
320.60 0.02488202
320.70 0.02496206
320.80 0.02504772
320.90 0.02513948
321.00 0.02523112
321.10 0.02532264
321.20 0.0254132
321.30 0.02550032
321.40 0.02558733
321.50 0.02567423
321.60 0.02576101
321.70 0.02584768
321.80 0.02593885
321.90 0.02603488
322.00 0.02612281
322.10 0.02621558
322.20 0.02630823
322.30 0.02640075
322.40 0.02649316
322.50 0.02658544
322.60 0.02667761
322.70 0.02676965
322.80 0.02686193
322.90 0.02695621
323.00 0.02705037
323.10 0.02714441
323.20 0.02723833
323.30 0.02733212
323.40 0.0274258
323.50 0.02751935
323.60 0.02761278
323.70 0.02770609
323.80 0.02779928
323.90 0.02789235
324.00 0.02798778
324.10 0.02808309
324.20 0.02817827
324.30 0.02827524
324.40 0.02837501
324.50 0.0284719
324.60 0.02856866
324.70 0.0286653
324.80 0.02876182
324.90 0.02885821
325.00 0.02895448
325.10 0.02905063
325.20 0.02914906
325.30 0.02925249
325.40 0.02935579
325.50 0.02945698
325.60 0.02955565
325.70 0.02965418
325.80 0.02975259
325.90 0.02985282
326.00 0.02995503
326.10 0.03005711
326.20 0.03015906
326.30 0.03026293
326.40 0.03037251
326.50 0.03047613
326.60 0.03057962
326.70 0.03068298
326.80 0.0307862
326.90 0.03088929
327.00 0.03099225
327.10 0.03109508
327.20 0.03119778
327.30 0.03130034
327.40 0.03140278
327.50 0.03150508
327.60 0.03160725
327.70 0.0317093
327.80 0.03181121
327.90 0.03191872
328.00 0.03203001
328.10 0.03213838
328.20 0.03224661
328.30 0.03235471
328.40 0.03246266
328.50 0.03257104
328.60 0.03267941
328.70 0.03278764
328.80 0.03289647
328.90 0.03300725
329.00 0.03311788
329.10 0.03322837
329.20 0.03333873
329.30 0.03344894
329.40 0.03355901
329.50 0.03366895
329.60 0.03377874
329.70 0.03388839
329.80 0.03399791
329.90 0.03410728
330.00 0.03421944
330.10 0.03433502
330.20 0.03445045
330.30 0.03456574
330.40 0.0346812
330.50 0.03479684
330.60 0.03491234
330.70 0.0350277
330.80 0.03514291
330.90 0.03525797
331.00 0.03537289
331.10 0.03548767
331.20 0.03560229
331.30 0.03571678
331.40 0.03583112
331.50 0.03594481
331.60 0.03605773
331.70 0.03617052
331.80 0.03629048
331.90 0.03641059
332.00 0.03653055
332.10 0.03665037
332.20 0.03677003
332.30 0.03688954
332.40 0.0370089
332.50 0.03712811
332.60 0.03724716
332.70 0.03736607
332.80 0.03748483
332.90 0.03760344
333.00 0.03772191
333.10 0.03784255
333.20 0.0379659
333.30 0.03808909
333.40 0.03821213
333.50 0.03833502
333.60 0.03845775
333.70 0.03858032
333.80 0.03870275
333.90 0.03882501
334.00 0.03894713
334.10 0.0390714
334.20 0.03919834
334.30 0.03932513
334.40 0.03945175
334.50 0.03957821
334.60 0.03970452
334.70 0.03982966
334.80 0.03995465
334.90 0.0400813
335.00 0.04020778
335.10 0.04032804
335.20 0.04045705
335.30 0.04059081
335.40 0.04071677
335.50 0.04084802
335.60 0.04097366
335.70 0.04109968
335.80 0.04122773
335.90 0.04135807
336.00 0.04149123
336.10 0.04162424
336.20 0.04175707
336.30 0.04189056
336.40 0.04202487
336.50 0.04215902
336.60 0.042293
336.70 0.04242681
336.80 0.04256046
336.90 0.04269243
337.00 0.04282239
337.10 0.04295218
337.20 0.04308182
337.30 0.04321459
337.40 0.04335194
337.50 0.04348911
337.60 0.04362611
337.70 0.04376295
337.80 0.04389961
337.90 0.04403618
338.00 0.04417267
338.10 0.044309
338.20 0.04444515
338.30 0.04458114
338.40 0.04471828
338.50 0.04485847
338.60 0.0449985
338.70 0.04513835
338.80 0.04527803
338.90 0.04541753
339.00 0.04555687
339.10 0.04569603
339.20 0.04583501
339.30 0.04597727
339.40 0.0461243
339.50 0.04627007
339.60 0.04641437
339.70 0.04655849
339.80 0.04670243
339.90 0.04684619
340.00 0.04698978
340.10 0.04713319
340.20 0.04727642
340.30 0.04741948
340.40 0.04756236
340.50 0.04770506
340.60 0.04784759
340.70 0.04798995
340.80 0.04813751
340.90 0.04829265
341.00 0.04844475
341.10 0.04859321
341.20 0.04874148
341.30 0.04888957
341.40 0.04903748
341.50 0.0491852
341.60 0.04933275
341.70 0.04948011
341.80 0.0496282
341.90 0.04977721
342.00 0.04992604
342.10 0.05007468
342.20 0.05022956
342.30 0.05038698
342.40 0.05053926
342.50 0.0506925
342.60 0.05084554
342.70 0.0509984
342.80 0.05115107
342.90 0.05130355
343.00 0.05145759
343.10 0.05161359
343.20 0.05176939
343.30 0.051925
343.40 0.05208118
343.50 0.05223827
343.60 0.05239516
343.70 0.05255187
343.80 0.05270838
343.90 0.0528647
344.00 0.05302083
344.10 0.05317677
344.20 0.05333252
344.30 0.05348809
344.40 0.0536477
344.50 0.05381323
344.60 0.05396211
344.70 0.05412673
344.80 0.05429219
344.90 0.0544466
345.00 0.05461723
345.10 0.05478157
345.20 0.05494537
345.30 0.05510847
345.40 0.05527138
345.50 0.05542663
345.60 0.05558111
345.70 0.0557477
345.80 0.05591408
345.90 0.05608026
346.00 0.05624624
346.10 0.05641201
346.20 0.05657871
346.30 0.05674682
346.40 0.05691472
346.50 0.05708242
346.60 0.05724992
346.70 0.05741721
346.80 0.0575843
346.90 0.05775119
347.00 0.05791788
347.10 0.05808437
347.20 0.05825375
347.30 0.05842738
347.40 0.0586008
347.50 0.05877402
347.60 0.05894702
347.70 0.05911981
347.80 0.0592924
347.90 0.05946478
348.00 0.05963695
348.10 0.05980891
348.20 0.05998067
348.30 0.06015222
348.40 0.06032356
348.50 0.06049469
348.60 0.06066562
348.70 0.06085079
348.80 0.06103606
348.90 0.06121502
349.00 0.06139377
349.10 0.0615723
349.20 0.06175061
349.30 0.06192872
349.40 0.0621066
349.50 0.06228428
349.60 0.06246174
349.70 0.06263899
349.80 0.06281602
349.90 0.06299284
350.00 0.06316945
350.10 0.06334585
350.20 0.06352204
350.30 0.06370237
350.40 0.06388877
350.50 0.06407493
350.60 0.06426088
350.70 0.0644466
350.80 0.0646321
350.90 0.06481738
351.00 0.06500244
351.10 0.06518728
351.20 0.06537189
351.30 0.06555629
351.40 0.06574138
351.50 0.0659279
351.60 0.06611419
351.70 0.06630026
351.80 0.06648611
351.90 0.06667173
352.00 0.06685714
352.10 0.06704232
352.20 0.06722994
352.30 0.06742011
352.40 0.06761361
352.50 0.06780688
352.60 0.06799991
352.70 0.06819272
352.80 0.0683853
352.90 0.06857765
353.00 0.06876977
353.10 0.06896166
353.20 0.06915332
353.30 0.06934475
353.40 0.06953596
353.50 0.06973045
353.60 0.06992558
353.70 0.07012048
353.80 0.07031514
353.90 0.07051208
354.00 0.07071321
354.10 0.07091411
354.20 0.07111477
354.30 0.07131519
354.40 0.07151537
354.50 0.07171532
354.60 0.07191503
354.70 0.0721145
354.80 0.07231338
354.90 0.07251149
355.00 0.07270936
355.10 0.07290701
355.20 0.07310442
355.30 0.07330712
355.40 0.07350958
355.50 0.07371181
355.60 0.0739138
355.70 0.07412019
355.80 0.07432842
355.90 0.07453378
356.00 0.0747423
356.10 0.07495258
356.20 0.07516262
356.30 0.07537241
356.40 0.07558195
356.50 0.07579124
356.60 0.07600029
356.70 0.07620909
356.80 0.07641765
356.90 0.07662596
357.00 0.07683402
357.10 0.07704184
357.20 0.07724941
357.30 0.07745674
357.40 0.07766436
357.50 0.07787266
357.60 0.07808071
357.70 0.07828852
357.80 0.07850647
357.90 0.07872417
358.00 0.07894107
358.10 0.07915759
358.20 0.07937385
358.30 0.07958986
358.40 0.07980562
358.50 0.08002112
358.60 0.08023637
358.70 0.08045137
358.80 0.08066612
358.90 0.08088061
359.00 0.08109691
359.10 0.08131661
359.20 0.08153564
359.30 0.08175164
359.40 0.08196739
359.50 0.08219128
359.60 0.08241701
359.70 0.08264247
359.80 0.08286253
359.90 0.08308233
360.00 0.08330409
360.10 0.08352951
360.20 0.08375467
360.30 0.08397957
360.40 0.08420421
360.50 0.08442858
360.60 0.08465316
360.70 0.08488005
360.80 0.08510668
360.90 0.08533304
361.00 0.08555768
361.10 0.08578397
361.20 0.0860064
361.30 0.08624865
361.40 0.08646523
361.50 0.08669847
361.60 0.08693238
361.70 0.08716602
361.80 0.08739834
361.90 0.0876285
362.00 0.0878584
362.10 0.08808413
362.20 0.08831231
362.30 0.0885468
362.40 0.08878102
362.50 0.08901496
362.60 0.08924864
362.70 0.08948422
362.80 0.08972941
362.90 0.0899677
363.00 0.09020571
363.10 0.09043691
363.20 0.09066777
363.30 0.09091596
363.40 0.091145
363.50 0.09139237
363.60 0.09162087
363.70 0.09186356
363.80 0.09211421
363.90 0.09235515
364.00 0.09259581
364.10 0.09283619
364.20 0.0930763
364.30 0.09331377
364.40 0.09355039
364.50 0.09379789
364.60 0.09404119
364.70 0.0942842
364.80 0.09452693
364.90 0.09477959
365.00 0.09503196
365.10 0.09527482
365.20 0.0955174
365.30 0.0957689
365.40 0.09602012
365.50 0.09626185
365.60 0.0965033
365.70 0.09675951
365.80 0.09701542
365.90 0.09726066
366.00 0.09750302
366.10 0.09775603
366.20 0.09800876
366.30 0.09826119
366.40 0.09851334
366.50 0.09877053
366.60 0.09903055
366.70 0.09928107
366.80 0.0995313
366.90 0.099784
367.00 0.1000413
367.10 0.1002983
367.20 0.100555
367.30 0.1008115
367.40 0.1010676
367.50 0.1013254
367.60 0.1015834
367.70 0.1018438
367.80 0.1021039
367.90 0.1023637
368.00 0.1026236
368.10 0.1028821
368.20 0.1031468
368.30 0.1034113
368.40 0.1036754
368.50 0.1039393
368.60 0.1042029
368.70 0.1044661
368.80 0.1047291
368.90 0.1049928
369.00 0.1052556
369.10 0.1055174
369.20 0.1057879
369.30 0.1060549
369.40 0.1063216
369.50 0.1065879
369.60 0.1068524
369.70 0.1071166
369.80 0.1073888
369.90 0.1076607
370.00 0.1079324
370.10 0.1082121
370.20 0.1084767
370.30 0.1087407
370.40 0.1090219
370.50 0.1092944
370.60 0.1095661
370.70 0.1098324
370.80 0.110111
370.90 0.1103893
371.00 0.1106618
371.10 0.1109338
371.20 0.1112112
371.30 0.1114882
371.40 0.1117683
371.50 0.1120496
371.60 0.1123306
371.70 0.1126112
371.80 0.1128916
371.90 0.1131716
372.00 0.1134464
372.10 0.1137277
372.20 0.1140095
372.30 0.1142909
372.40 0.1145721
372.50 0.1148529
372.60 0.1151334
372.70 0.1154136
372.80 0.1157035
372.90 0.1159931
373.00 0.116277
373.10 0.1165606
373.20 0.116851
373.30 0.117141
373.40 0.1174307
373.50 0.1177113
373.60 0.1179915
373.70 0.1182978
373.80 0.1185807
373.90 0.1188743
374.00 0.1191664
374.10 0.1194582
374.20 0.1197497
374.30 0.1200408
374.40 0.1203273
374.50 0.1206271
374.60 0.1209228
374.70 0.1212179
374.80 0.1215126
374.90 0.1218071
375.00 0.1221032
375.10 0.122399
375.20 0.1226945
375.30 0.1229929
375.40 0.123291
375.50 0.1235888
375.60 0.1238862
375.70 0.1241833
375.80 0.1244801
375.90 0.1247766
376.00 0.1250888
376.10 0.1253894
376.20 0.1256896
376.30 0.1259895
376.40 0.1262891
376.50 0.1265924
376.60 0.1269015
376.70 0.1272103
376.80 0.1275183
376.90 0.1278256
377.00 0.1281325
377.10 0.1284391
377.20 0.1287459
377.30 0.129054
377.40 0.1293618
377.50 0.1296692
377.60 0.1299789
377.70 0.1302882
377.80 0.1305972
377.90 0.1309059
378.00 0.1312141
378.10 0.1315305
378.20 0.1318467
378.30 0.1321625
378.40 0.1324779
378.50 0.132793
378.60 0.1331077
378.70 0.1334221
378.80 0.1337362
378.90 0.1340529
379.00 0.1343749
379.10 0.1346938
379.20 0.1350124
379.30 0.1353315
379.40 0.1356511
379.50 0.1359703
379.60 0.1362877
379.70 0.136605
379.80 0.1369309
379.90 0.1372565
380.00 0.1375817
380.10 0.1379065
380.20 0.138231
380.30 0.1385551
380.40 0.1388789
380.50 0.1392023
380.60 0.1395309
380.70 0.1398583
380.80 0.1401853
380.90 0.140512
381.00 0.1408383
381.10 0.1411662
381.20 0.1414909
381.30 0.1418261
381.40 0.142155
381.50 0.1424874
381.60 0.1428212
381.70 0.1431541
381.80 0.1434848
381.90 0.143814
382.00 0.1441428
382.10 0.1444881
382.20 0.1448128
382.30 0.1451489
382.40 0.1454852
382.50 0.1458218
382.60 0.146158
382.70 0.1464952
382.80 0.1468352
382.90 0.1471765
383.00 0.1475174
383.10 0.1478579
383.20 0.1481978
383.30 0.1485362
383.40 0.14888
383.50 0.149232
383.60 0.1495764
383.70 0.1499228
383.80 0.1502688
383.90 0.1506145
384.00 0.1509597
384.10 0.1513046
384.20 0.1516491
384.30 0.1519932
384.40 0.1523387
384.50 0.1526856
384.60 0.1530321
384.70 0.1533783
384.80 0.1537279
384.90 0.1540858
385.00 0.1544326
385.10 0.1547795
385.20 0.15514
385.30 0.1554879
385.40 0.1558392
385.50 0.1561938
385.60 0.1565481
385.70 0.1569019
385.80 0.1572574
385.90 0.1576197
386.00 0.1579762
386.10 0.1583274
386.20 0.1586843
386.30 0.1590408
386.40 0.1594018
386.50 0.159761
386.60 0.1601268
386.70 0.1604835
386.80 0.160848
386.90 0.1612162
387.00 0.1615681
387.10 0.1619355
387.20 0.1623024
387.30 0.1626692
387.40 0.1630342
387.50 0.1633986
387.60 0.1637994
387.70 0.1641644
387.80 0.164529
387.90 0.1648933
388.00 0.1652425
388.10 0.1656169
388.20 0.1660149
388.30 0.1663433
388.40 0.1666712
388.50 0.1670541
388.60 0.1675115
388.70 0.1678052
388.80 0.1681815
388.90 0.1686027
389.00 0.1689453
389.10 0.1692993
389.20 0.1697101
389.30 0.1700724
389.40 0.1704836
389.50 0.1708584
389.60 0.1712116
389.70 0.1716543
389.80 0.1720337
389.90 0.1724128
390.00 0.1727914
390.10 0.1731696
390.20 0.1735474
390.30 0.1739191
390.40 0.1742842
390.50 0.1746488
390.60 0.175013
390.70 0.1753768
390.80 0.1757409
390.90 0.1761052
391.00 0.1765855
391.10 0.176963
391.20 0.1773331
391.30 0.1776986
391.40 0.178089
391.50 0.1784789
391.60 0.1788684
391.70 0.1792575
391.80 0.1796462
391.90 0.1800196
392.00 0.1803906
392.10 0.1807829
392.20 0.1811799
392.30 0.1816296
392.40 0.1820721
392.50 0.1824771
392.60 0.1827827
392.70 0.1832472
392.80 0.183552
392.90 0.1840064
393.00 0.1844205
393.10 0.1848122
393.20 0.1851803
393.30 0.1855627
393.40 0.1859811
393.50 0.1863818
393.60 0.1867972
393.70 0.1871601
393.80 0.1876267
393.90 0.1880065
394.00 0.1883891
394.10 0.1887904
394.20 0.1891762
394.30 0.1895957
394.40 0.1900538
394.50 0.1903919
394.60 0.1908244
394.70 0.1912516
394.80 0.1916609
394.90 0.1920697
395.00 0.1924755
395.10 0.192868
395.20 0.1932742
395.30 0.1936886
395.40 0.1941026
395.50 0.1945154
395.60 0.1949277
395.70 0.1953482
395.80 0.195792
395.90 0.1962354
396.00 0.1966639
396.10 0.1969914
396.20 0.1974398
396.30 0.1978454
396.40 0.1982929
396.50 0.1987145
396.60 0.1991864
396.70 0.1995351
396.80 0.1999923
396.90 0.2004333
397.00 0.2007845
397.10 0.2012027
397.20 0.2016559
397.30 0.20217
397.40 0.2025575
397.50 0.2029446
397.60 0.2033369
397.70 0.2037855
397.80 0.2042336
397.90 0.2046824
398.00 0.2051335
398.10 0.2055841
398.20 0.2060129
398.30 0.2064173
398.40 0.2068238
398.50 0.2073151
398.60 0.2077358
398.70 0.2081351
398.80 0.2085352
398.90 0.2089585
399.00 0.2094254
399.10 0.2098341
399.20 0.2102948
399.30 0.210755
399.40 0.2112147
399.50 0.2116739
399.60 0.2121028
399.70 0.2125202
399.80 0.2129372
399.90 0.2133537
400.00 0.2137718
400.10 0.2142553
400.20 0.2146762
400.30 0.2150968
400.40 0.2155346
400.50 0.2159779
400.60 0.2164702
400.70 0.2169743
400.80 0.2174365
400.90 0.2177618
401.00 0.2182083
401.10 0.2187417
401.20 0.2192149
401.30 0.2196932
401.40 0.22015
401.50 0.2206048
401.60 0.2210563
401.70 0.2214147
401.80 0.2219088
401.90 0.2223269
402.00 0.2227475
402.10 0.2232281
402.20 0.2237445
402.30 0.2241562
402.40 0.2246199
402.50 0.2250595
402.60 0.2255703
402.70 0.2260481
402.80 0.2264659
402.90 0.2269135
403.00 0.227406
403.10 0.2278678
403.20 0.2283732
403.30 0.2287248
403.40 0.2292109
403.50 0.2297213
403.60 0.2302192
403.70 0.2306584
403.80 0.2311623
403.90 0.2315612
404.00 0.2319942
404.10 0.2324588
404.20 0.2329454
404.30 0.2334314
404.40 0.2339305
404.50 0.2343268
404.60 0.2348864
404.70 0.2353704
404.80 0.2357257
404.90 0.2363368
405.00 0.2367227
405.10 0.2371729
405.20 0.2376438
405.30 0.2381141
405.40 0.2385946
405.50 0.2390746
405.60 0.2395542
405.70 0.2400332
405.80 0.2405117
405.90 0.2409897
406.00 0.2414708
406.10 0.2419514
406.20 0.2424316
406.30 0.2429112
406.40 0.2434021
406.50 0.2438862
406.60 0.2443962
406.70 0.2448609
406.80 0.2453785
406.90 0.2459091
407.00 0.2463964
407.10 0.2468832
407.20 0.2473695
407.30 0.2478553
407.40 0.2483405
407.50 0.2488253
407.60 0.2493095
407.70 0.2497933
407.80 0.2502765
407.90 0.2507605
408.00 0.2512828
408.10 0.2517494
408.20 0.2521993
408.30 0.2526998
408.40 0.2531999
408.50 0.2536859
408.60 0.2542238
408.70 0.254761
408.80 0.2552808
408.90 0.2556967
409.00 0.2562201
409.10 0.2567429
409.20 0.2572652
409.30 0.257787
409.40 0.2583074
409.50 0.2588025
409.60 0.2592971
409.70 0.2597885
409.80 0.2602685
409.90 0.2607512
410.00 0.2613335
410.10 0.2618148
410.20 0.2623107
410.30 0.26281
410.40 0.263308
410.50 0.2638033
410.60 0.264298
410.70 0.2647973
410.80 0.2653168
410.90 0.2658358
411.00 0.2663626
411.10 0.2668919
411.20 0.2674208
411.30 0.2679415
411.40 0.268433
411.50 0.2689691
411.60 0.2695046
411.70 0.2700369
411.80 0.2705577
411.90 0.2710925
412.00 0.2715399
412.10 0.2721315
412.20 0.2725779
412.30 0.2731474
412.40 0.2736346
412.50 0.2741824
412.60 0.2746681
412.70 0.2751975
412.80 0.2757374
412.90 0.276288
413.00 0.2768663
413.10 0.2773893
413.20 0.2779117
413.30 0.2784337
413.40 0.278955
413.50 0.2794645
413.60 0.2799479
