# Version 2.1 - nm, norm@500 to 1, cut digits, bergeron_He_9000_90.dat_9000
# Wavelength(nm)  Flambda(ergs/cm^s/s/nm)
300.00 1.682068
300.10 1.681911
300.20 1.681733
300.30 1.681577
300.40 1.681567
300.50 1.681557
300.60 1.681546
300.70 1.681535
300.80 1.681523
300.90 1.681511
301.00 1.681499
301.10 1.681487
301.20 1.681474
301.30 1.681461
301.40 1.681447
301.50 1.681433
301.60 1.681419
301.70 1.681404
301.80 1.681389
301.90 1.681374
302.00 1.681358
302.10 1.681382
302.20 1.68141
302.30 1.681437
302.40 1.681464
302.50 1.68149
302.60 1.681516
302.70 1.681542
302.80 1.681567
302.90 1.681592
303.00 1.681616
303.10 1.68164
303.20 1.681664
303.30 1.681679
303.40 1.681617
303.50 1.681556
303.60 1.681494
303.70 1.681432
303.80 1.68137
303.90 1.681307
304.00 1.681244
304.10 1.681181
304.20 1.681118
304.30 1.681054
304.40 1.68099
304.50 1.680926
304.60 1.680891
304.70 1.680859
304.80 1.680827
304.90 1.680795
305.00 1.680762
305.10 1.680729
305.20 1.680696
305.30 1.680662
305.40 1.680628
305.50 1.680593
305.60 1.680559
305.70 1.680524
305.80 1.680488
305.90 1.680453
306.00 1.680417
306.10 1.680381
306.20 1.680344
306.30 1.680307
306.40 1.680241
306.50 1.680167
306.60 1.680092
306.70 1.680017
306.80 1.679941
306.90 1.679865
307.00 1.679789
307.10 1.679713
307.20 1.679637
307.30 1.67956
307.40 1.679483
307.50 1.679406
307.60 1.679328
307.70 1.67925
307.80 1.679172
307.90 1.679094
308.00 1.679015
308.10 1.678937
308.20 1.678858
308.30 1.678778
308.40 1.678699
308.50 1.678619
308.60 1.678539
308.70 1.678459
308.80 1.678456
308.90 1.678673
309.00 1.678601
309.10 1.678528
309.20 1.678455
309.30 1.678381
309.40 1.678297
309.50 1.678145
309.60 1.677992
309.70 1.677839
309.80 1.677687
309.90 1.677534
310.00 1.677381
310.10 1.677227
310.20 1.677074
310.30 1.676921
310.40 1.676821
310.50 1.67678
310.60 1.676738
310.70 1.676697
310.80 1.676655
310.90 1.676612
311.00 1.676618
311.10 1.676623
311.20 1.676628
311.30 1.676607
311.40 1.676512
311.50 1.676417
311.60 1.676322
311.70 1.676226
311.80 1.67613
311.90 1.676034
312.00 1.675938
312.10 1.675841
312.20 1.675549
312.30 1.675191
312.40 1.675011
312.50 1.674958
312.60 1.674965
312.70 1.674971
312.80 1.674978
312.90 1.674922
313.00 1.6748
313.10 1.674678
313.20 1.674556
313.30 1.674445
313.40 1.674366
313.50 1.674287
313.60 1.674208
313.70 1.674128
313.80 1.674049
313.90 1.673969
314.00 1.673888
314.10 1.673747
314.20 1.673605
314.30 1.673463
314.40 1.673321
314.50 1.673179
314.60 1.673036
314.70 1.672894
314.80 1.672776
314.90 1.672497
315.00 1.671969
315.10 1.671961
315.20 1.671952
315.30 1.671943
315.40 1.671934
315.50 1.671925
315.60 1.671915
315.70 1.671643
315.80 1.67137
315.90 1.671098
316.00 1.670826
316.10 1.670946
316.20 1.671065
316.30 1.670792
316.40 1.670911
316.50 1.670247
316.60 1.669974
316.70 1.670092
316.80 1.67021
316.90 1.669937
317.00 1.669663
317.10 1.66939
317.20 1.669117
317.30 1.66896
317.40 1.668808
317.50 1.66867
317.60 1.668532
317.70 1.668393
317.80 1.668254
317.90 1.668226
318.00 1.668684
318.10 1.66841
318.20 1.668136
318.30 1.667862
318.40 1.667688
318.50 1.6678
318.60 1.667611
318.70 1.667337
318.80 1.667062
318.90 1.666903
319.00 1.666814
319.10 1.666924
319.20 1.666946
319.30 1.666716
319.40 1.666485
319.50 1.666255
319.60 1.665899
319.70 1.665872
319.80 1.665844
319.90 1.665816
320.00 1.665669
320.10 1.665394
320.20 1.665094
320.30 1.665011
320.40 1.664965
320.50 1.66469
320.60 1.6642
320.70 1.664306
320.80 1.664229
320.90 1.663953
321.00 1.663677
321.10 1.663402
321.20 1.663726
321.30 1.663479
321.40 1.663232
321.50 1.662985
321.60 1.662738
321.70 1.662491
321.80 1.662357
321.90 1.662347
322.00 1.661804
322.10 1.661712
322.20 1.66162
322.30 1.661528
322.40 1.661436
322.50 1.661343
322.60 1.66125
322.70 1.661157
322.80 1.660841
322.90 1.66068
323.00 1.66052
323.10 1.660359
323.20 1.660199
323.30 1.660038
323.40 1.659877
323.50 1.659716
323.60 1.659554
323.70 1.659393
323.80 1.659232
323.90 1.65907
324.00 1.658845
324.10 1.65862
324.20 1.658394
324.30 1.65821
324.40 1.658079
324.50 1.657879
324.60 1.657678
324.70 1.657477
324.80 1.657277
324.90 1.657076
325.00 1.656875
325.10 1.656674
325.20 1.656459
325.30 1.656216
325.40 1.655972
325.50 1.655715
325.60 1.655444
325.70 1.655172
325.80 1.6549
325.90 1.654691
326.00 1.65455
326.10 1.654409
326.20 1.654268
326.30 1.654204
326.40 1.654359
326.50 1.654156
326.60 1.653953
326.70 1.65375
326.80 1.653547
326.90 1.653344
327.00 1.653141
327.10 1.652938
327.20 1.652735
327.30 1.652531
327.40 1.652328
327.50 1.652125
327.60 1.651921
327.70 1.651718
327.80 1.651514
327.90 1.651264
328.00 1.651
328.10 1.650779
328.20 1.650557
328.30 1.650336
328.40 1.650114
328.50 1.649922
328.60 1.649736
328.70 1.64955
328.80 1.649359
328.90 1.649154
329.00 1.648949
329.10 1.648744
329.20 1.648539
329.30 1.648333
329.40 1.648128
329.50 1.647923
329.60 1.647717
329.70 1.647512
329.80 1.647306
329.90 1.647101
330.00 1.646865
330.10 1.646592
330.20 1.64632
330.30 1.646047
330.40 1.645802
330.50 1.645587
330.60 1.645372
330.70 1.645157
330.80 1.644942
330.90 1.644727
331.00 1.644512
331.10 1.644297
331.20 1.644082
331.30 1.643867
331.40 1.643651
331.50 1.643345
331.60 1.642926
331.70 1.642508
331.80 1.6423
331.90 1.642101
332.00 1.641902
332.10 1.641702
332.20 1.641503
332.30 1.641304
332.40 1.641104
332.50 1.640904
332.60 1.640705
332.70 1.640505
332.80 1.640305
332.90 1.640105
333.00 1.639906
333.10 1.639671
333.20 1.639393
333.30 1.639115
333.40 1.638837
333.50 1.638559
333.60 1.638282
333.70 1.638004
333.80 1.637726
333.90 1.637449
334.00 1.637171
334.10 1.636946
334.20 1.636786
334.30 1.636625
334.40 1.636465
334.50 1.636304
334.60 1.636143
334.70 1.635917
334.80 1.635665
334.90 1.635489
335.00 1.635313
335.10 1.634819
335.20 1.634542
335.30 1.634037
335.40 1.634109
335.50 1.634092
335.60 1.633554
335.70 1.633155
335.80 1.632877
335.90 1.6326
336.00 1.632323
336.10 1.632046
336.20 1.631769
336.30 1.631544
336.40 1.631382
336.50 1.631221
336.60 1.631059
336.70 1.630897
336.80 1.630735
336.90 1.630518
337.00 1.630234
337.10 1.62995
337.20 1.629666
337.30 1.629387
337.40 1.629115
337.50 1.628842
337.60 1.62857
337.70 1.628298
337.80 1.628026
337.90 1.627742
338.00 1.627444
338.10 1.627146
338.20 1.626848
338.30 1.62655
338.40 1.626261
338.50 1.625994
338.60 1.625727
338.70 1.62546
338.80 1.625193
338.90 1.624925
339.00 1.624658
339.10 1.624391
339.20 1.624124
339.30 1.623859
339.40 1.623597
339.50 1.623351
339.60 1.623125
339.70 1.622899
339.80 1.622673
339.90 1.622447
340.00 1.622221
340.10 1.621995
340.20 1.621769
340.30 1.621543
340.40 1.621316
340.50 1.62109
340.60 1.620864
340.70 1.620638
340.80 1.620397
340.90 1.620135
341.00 1.619867
341.10 1.619591
341.20 1.619315
341.30 1.619039
341.40 1.618764
341.50 1.618488
341.60 1.618213
341.70 1.617937
341.80 1.617644
341.90 1.617329
342.00 1.617014
342.10 1.616699
342.20 1.616259
342.30 1.616085
342.40 1.615939
342.50 1.615556
342.60 1.615173
342.70 1.614791
342.80 1.614409
342.90 1.614027
343.00 1.61369
343.10 1.613409
343.20 1.613128
343.30 1.612847
343.40 1.612569
343.50 1.612294
343.60 1.61202
343.70 1.611746
343.80 1.611472
343.90 1.611198
344.00 1.610924
344.10 1.61065
344.20 1.610376
344.30 1.610102
344.40 1.609828
344.50 1.609554
344.60 1.60967
344.70 1.609082
344.80 1.609122
344.90 1.608535
345.00 1.608186
345.10 1.607912
345.20 1.607642
345.30 1.607378
345.40 1.607113
345.50 1.606833
345.60 1.606545
345.70 1.606272
345.80 1.605999
345.90 1.605725
346.00 1.605452
346.10 1.605179
346.20 1.604879
346.30 1.604541
346.40 1.604203
346.50 1.603865
346.60 1.603527
346.70 1.603189
346.80 1.602851
346.90 1.602514
347.00 1.602176
347.10 1.601839
347.20 1.601516
347.30 1.601215
347.40 1.600915
347.50 1.600614
347.60 1.600313
347.70 1.600012
347.80 1.599712
347.90 1.599411
348.00 1.599111
348.10 1.598811
348.20 1.59851
348.30 1.59821
348.40 1.59791
348.50 1.59761
348.60 1.59731
348.70 1.597268
348.80 1.597162
348.90 1.596848
349.00 1.596534
349.10 1.59622
349.20 1.595906
349.30 1.595592
349.40 1.595278
349.50 1.594964
349.60 1.594651
349.70 1.594337
349.80 1.594024
349.90 1.593711
350.00 1.593397
350.10 1.593084
350.20 1.592771
350.30 1.592451
350.40 1.59212
350.50 1.591789
350.60 1.591459
350.70 1.591128
350.80 1.590798
350.90 1.590467
351.00 1.590137
351.10 1.589807
351.20 1.589477
351.30 1.589147
351.40 1.588825
351.50 1.588517
351.60 1.588208
351.70 1.5879
351.80 1.587592
351.90 1.587284
352.00 1.586976
352.10 1.586668
352.20 1.586208
352.30 1.585803
352.40 1.585502
352.50 1.5852
352.60 1.584898
352.70 1.584597
352.80 1.584296
352.90 1.583994
353.00 1.583693
353.10 1.583392
353.20 1.583091
353.30 1.58279
353.40 1.582489
353.50 1.582165
353.60 1.581835
353.70 1.581506
353.80 1.581176
353.90 1.580845
354.00 1.580511
354.10 1.580177
354.20 1.579844
354.30 1.579511
354.40 1.579177
354.50 1.578844
354.60 1.578511
354.70 1.578178
354.80 1.577849
354.90 1.577524
355.00 1.5772
355.10 1.576876
355.20 1.576552
355.30 1.576241
355.40 1.57593
355.50 1.575619
355.60 1.575309
355.70 1.574968
355.80 1.574615
355.90 1.574468
356.00 1.57425
356.10 1.573923
356.20 1.573595
356.30 1.573268
356.40 1.572941
356.50 1.572614
356.60 1.572287
356.70 1.571961
356.80 1.571634
356.90 1.571308
357.00 1.570981
357.10 1.570655
357.20 1.570329
357.30 1.570003
357.40 1.569676
357.50 1.569345
357.60 1.569015
357.70 1.568685
357.80 1.568087
357.90 1.567489
358.00 1.567138
358.10 1.566848
358.20 1.566559
358.30 1.566269
358.40 1.56598
358.50 1.565691
358.60 1.565402
358.70 1.565113
358.80 1.564824
358.90 1.564535
359.00 1.564233
359.10 1.563907
359.20 1.563578
359.30 1.563229
359.40 1.562881
359.50 1.562462
359.60 1.562026
359.70 1.561591
359.80 1.561182
359.90 1.560773
360.00 1.560402
360.10 1.560098
360.20 1.559795
360.30 1.559491
360.40 1.559188
360.50 1.558885
360.60 1.558243
360.70 1.557982
360.80 1.557721
360.90 1.557459
361.00 1.556982
361.10 1.556788
361.20 1.55646
361.30 1.556199
361.40 1.555908
361.50 1.555318
361.60 1.555033
361.70 1.554773
361.80 1.554465
361.90 1.554074
362.00 1.553683
362.10 1.55325
362.20 1.552847
362.30 1.552514
362.40 1.552181
362.50 1.551848
362.60 1.551515
362.70 1.551096
362.80 1.551101
362.90 1.550542
363.00 1.549984
363.10 1.549671
363.20 1.549361
363.30 1.549211
363.40 1.548506
363.50 1.5481
363.60 1.547841
363.70 1.547649
363.80 1.547325
363.90 1.546897
364.00 1.54647
364.10 1.546043
364.20 1.545616
364.30 1.545378
364.40 1.545186
364.50 1.544932
364.60 1.544476
364.70 1.544021
364.80 1.543566
364.90 1.543309
365.00 1.543052
365.10 1.542795
365.20 1.542244
365.30 1.541988
365.40 1.541437
365.50 1.541181
365.60 1.540924
365.70 1.540615
365.80 1.540305
365.90 1.53983
366.00 1.539314
366.10 1.539048
366.20 1.538782
366.30 1.538517
366.40 1.538251
366.50 1.537452
366.60 1.537196
366.70 1.5368
366.80 1.536403
366.90 1.536037
367.00 1.535724
367.10 1.53541
367.20 1.535097
367.30 1.534784
367.40 1.534471
367.50 1.533998
367.60 1.533486
367.70 1.53311
367.80 1.532734
367.90 1.532358
368.00 1.53218
368.10 1.531637
368.20 1.531331
368.30 1.53103
368.40 1.530729
368.50 1.530428
368.60 1.530127
368.70 1.529826
368.80 1.529525
368.90 1.529034
369.00 1.52846
369.10 1.52795
369.20 1.527701
369.30 1.527449
369.40 1.527196
369.50 1.526944
369.60 1.526403
369.70 1.525863
369.80 1.525501
369.90 1.525141
370.00 1.524781
370.10 1.524287
370.20 1.52403
370.30 1.523778
370.40 1.523533
370.50 1.522989
370.60 1.52246
370.70 1.522209
370.80 1.521956
370.90 1.521702
371.00 1.521171
371.10 1.520637
371.20 1.520384
371.30 1.520131
371.40 1.519509
371.50 1.51922
371.60 1.518931
371.70 1.518642
371.80 1.518354
371.90 1.518065
372.00 1.517416
372.10 1.517005
372.20 1.516662
372.30 1.516318
372.40 1.515975
372.50 1.515632
372.60 1.515289
372.70 1.514947
372.80 1.514415
372.90 1.513883
373.00 1.513635
373.10 1.51339
373.20 1.51286
373.30 1.512331
373.40 1.512084
373.50 1.511836
373.60 1.511589
373.70 1.51078
373.80 1.510655
373.90 1.510286
374.00 1.509898
374.10 1.509512
374.20 1.509125
374.30 1.508738
374.40 1.508282
374.50 1.508232
374.60 1.507856
374.70 1.507471
374.80 1.507086
374.90 1.506702
375.00 1.50627
375.10 1.505839
375.20 1.505407
375.30 1.505003
375.40 1.504599
375.50 1.504194
375.60 1.503791
375.70 1.503387
375.80 1.502983
375.90 1.50258
376.00 1.50233
376.10 1.501896
376.20 1.501459
376.30 1.501023
376.40 1.500587
376.50 1.500236
376.60 1.500011
376.70 1.499787
376.80 1.499469
376.90 1.49906
377.00 1.49865
377.10 1.498241
377.20 1.497824
377.30 1.497373
377.40 1.496922
377.50 1.496472
377.60 1.496158
377.70 1.495844
377.80 1.495529
377.90 1.495215
378.00 1.494711
378.10 1.494297
378.20 1.493888
378.30 1.493479
378.40 1.49307
378.50 1.492661
378.60 1.492252
378.70 1.491844
378.80 1.491436
378.90 1.491037
379.00 1.490654
379.10 1.490304
379.20 1.489955
379.30 1.489563
379.40 1.489129
379.50 1.488696
379.60 1.488305
379.70 1.487966
379.80 1.487579
379.90 1.487192
380.00 1.486806
380.10 1.48642
380.20 1.486034
380.30 1.485648
380.40 1.485263
380.50 1.484878
380.60 1.484298
380.70 1.48401
380.80 1.483722
380.90 1.483435
381.00 1.483147
381.10 1.482706
381.20 1.482131
381.30 1.481893
381.40 1.481309
381.50 1.481085
381.60 1.48064
381.70 1.480004
381.80 1.479628
381.90 1.47939
382.00 1.479153
382.10 1.478648
382.20 1.47825
382.30 1.477745
382.40 1.477279
382.50 1.476872
382.60 1.476466
382.70 1.476148
382.80 1.475839
382.90 1.475443
383.00 1.475046
383.10 1.47465
383.20 1.474237
383.30 1.473763
383.40 1.473323
383.50 1.472936
383.60 1.472732
383.70 1.472316
383.80 1.471899
383.90 1.471483
384.00 1.471067
384.10 1.470651
384.20 1.470235
384.30 1.46982
384.40 1.469416
384.50 1.469022
384.60 1.468629
384.70 1.468236
384.80 1.467895
384.90 1.467612
385.00 1.467077
385.10 1.466556
385.20 1.46643
385.30 1.465937
385.40 1.465495
385.50 1.465104
385.60 1.464713
385.70 1.464322
385.80 1.463919
385.90 1.463468
386.00 1.46305
386.10 1.462668
386.20 1.462317
386.30 1.461966
386.40 1.46154
386.50 1.461181
386.60 1.460949
386.70 1.460194
386.80 1.459963
386.90 1.459732
387.00 1.459253
387.10 1.458747
387.20 1.458373
387.30 1.457777
387.40 1.457669
387.50 1.457304
387.60 1.456634
387.70 1.456274
387.80 1.455914
387.90 1.455554
388.00 1.45524
388.10 1.454883
388.20 1.454299
388.30 1.45388
388.40 1.453462
388.50 1.453087
388.60 1.452699
388.70 1.452421
388.80 1.451918
388.90 1.451496
389.00 1.451268
389.10 1.450735
389.20 1.450519
389.30 1.450159
389.40 1.44968
389.50 1.449268
389.60 1.448867
389.70 1.448247
389.80 1.447855
389.90 1.447463
390.00 1.447072
390.10 1.44668
390.20 1.446289
390.30 1.44588
390.40 1.44545
390.50 1.44502
390.60 1.44459
390.70 1.444161
390.80 1.443722
390.90 1.443273
391.00 1.443193
391.10 1.442704
391.20 1.442308
391.30 1.442058
391.40 1.441578
391.50 1.441097
391.60 1.440617
391.70 1.440137
391.80 1.439657
391.90 1.439282
392.00 1.439011
392.10 1.438718
392.20 1.438386
392.30 1.437826
392.40 1.437429
392.50 1.437206
392.60 1.436474
392.70 1.436251
392.80 1.435863
392.90 1.435391
393.00 1.434931
393.10 1.434517
393.20 1.434145
393.30 1.433669
393.40 1.433171
393.50 1.432949
393.60 1.432531
393.70 1.431999
393.80 1.4318
393.90 1.431326
394.00 1.430829
394.10 1.430344
394.20 1.430131
394.30 1.429661
394.40 1.42944
394.50 1.428716
394.60 1.428273
394.70 1.427869
394.80 1.427607
394.90 1.427331
395.00 1.426682
395.10 1.426389
395.20 1.425929
395.30 1.425534
395.40 1.42514
395.50 1.424805
395.60 1.424492
395.70 1.424112
395.80 1.42355
395.90 1.422988
396.00 1.422467
396.10 1.422262
396.20 1.421793
396.30 1.421258
396.40 1.42104
396.50 1.420741
396.60 1.420106
396.70 1.419888
396.80 1.419375
396.90 1.418955
397.00 1.418738
397.10 1.418023
397.20 1.417806
397.30 1.417177
397.40 1.416776
397.50 1.416376
397.60 1.415979
397.70 1.415618
397.80 1.415258
397.90 1.414899
398.00 1.414541
398.10 1.414184
398.20 1.413756
398.30 1.413249
398.40 1.412747
398.50 1.412418
398.60 1.411812
398.70 1.411426
398.80 1.411121
398.90 1.410803
399.00 1.41046
399.10 1.409784
399.20 1.409416
399.30 1.409049
399.40 1.408682
399.50 1.408314
399.60 1.40793
399.70 1.407539
399.80 1.407148
399.90 1.406757
400.00 1.406357
400.10 1.405654
400.20 1.405441
400.30 1.404894
400.40 1.404385
400.50 1.404314
400.60 1.403791
400.70 1.403335
400.80 1.402701
400.90 1.402489
401.00 1.401819
401.10 1.401578
401.20 1.401262
401.30 1.400668
401.40 1.400233
401.50 1.399896
401.60 1.39956
401.70 1.399237
401.80 1.398641
401.90 1.398199
402.00 1.397752
402.10 1.397525
402.20 1.396893
402.30 1.39662
402.40 1.396256
402.50 1.395716
402.60 1.395507
402.70 1.394814
402.80 1.394604
402.90 1.394105
403.00 1.393655
403.10 1.393494
403.20 1.392814
403.30 1.392495
403.40 1.391904
403.50 1.39144
403.60 1.391046
403.70 1.390799
403.80 1.390599
403.90 1.390183
404.00 1.389695
404.10 1.389007
404.20 1.38856
404.30 1.388113
404.40 1.387906
404.50 1.387459
404.60 1.387013
404.70 1.386806
404.80 1.386135
404.90 1.385915
405.00 1.385606
405.10 1.385161
405.20 1.384648
405.30 1.384135
405.40 1.383691
405.50 1.383247
405.60 1.382803
405.70 1.38236
405.80 1.381916
405.90 1.381474
406.00 1.38108
406.10 1.380687
406.20 1.380294
406.30 1.379902
406.40 1.379501
406.50 1.379296
406.60 1.378618
406.70 1.378236
406.80 1.377929
406.90 1.37754
407.00 1.3771
407.10 1.37666
407.20 1.37622
407.30 1.375781
407.40 1.375342
407.50 1.374903
407.60 1.374464
407.70 1.374026
407.80 1.373588
407.90 1.373151
408.00 1.372735
408.10 1.372504
408.20 1.372189
408.30 1.37167
408.40 1.371152
408.50 1.370992
408.60 1.370483
408.70 1.369975
408.80 1.369509
408.90 1.369292
409.00 1.368802
409.10 1.368313
409.20 1.367824
409.30 1.367335
409.40 1.366852
409.50 1.366514
409.60 1.366178
409.70 1.365818
409.80 1.365367
409.90 1.364923
410.00 1.36471
410.10 1.364044
410.20 1.36367
410.30 1.36337
410.40 1.363018
410.50 1.362508
410.60 1.361997
410.70 1.361494
410.80 1.361019
410.90 1.360545
411.00 1.360125
411.10 1.359727
411.20 1.359328
411.30 1.358956
411.40 1.358685
411.50 1.358188
411.60 1.357692
411.70 1.357209
411.80 1.356781
411.90 1.356539
412.00 1.356111
412.10 1.355799
412.20 1.355257
412.30 1.354678
412.40 1.35442
412.50 1.354208
412.60 1.353552
412.70 1.353182
412.80 1.352885
412.90 1.352505
413.00 1.351916
413.10 1.351535
413.20 1.351154
413.30 1.350774
413.40 1.350393
413.50 1.349959
413.60 1.349361
413.70 1.348938
413.80 1.348515
413.90 1.348092
414.00 1.34767
414.10 1.347247
414.20 1.346771
414.30 1.346577
414.40 1.345927
414.50 1.345734
414.60 1.34514
414.70 1.344719
414.80 1.344299
414.90 1.343879
415.00 1.343459
415.10 1.343039
415.20 1.342633
415.30 1.34227
415.40 1.341907
415.50 1.34154
415.60 1.341057
415.70 1.340575
415.80 1.340125
415.90 1.339779
416.00 1.339433
416.10 1.339071
416.20 1.338645
416.30 1.338219
416.40 1.337793
416.50 1.337368
416.60 1.336952
416.70 1.336529
416.80 1.335888
416.90 1.335489
417.00 1.335057
417.10 1.334875
417.20 1.33446
417.30 1.334044
417.40 1.333564
417.50 1.333084
417.60 1.332573
417.70 1.331941
417.80 1.331528
417.90 1.331116
418.00 1.330703
418.10 1.330291
418.20 1.329879
418.30 1.329478
418.40 1.32932
418.50 1.328879
418.60 1.328438
418.70 1.327998
418.80 1.327558
418.90 1.327119
419.00 1.326679
419.10 1.32624
419.20 1.325801
419.30 1.325361
419.40 1.324887
419.50 1.324413
419.60 1.323968
419.70 1.323637
419.80 1.323308
419.90 1.322958
420.00 1.322546
420.10 1.322134
420.20 1.321722
420.30 1.32131
420.40 1.320899
420.50 1.320488
420.60 1.320077
420.70 1.319667
420.80 1.319256
420.90 1.318845
421.00 1.318377
421.10 1.31791
421.20 1.317451
421.30 1.317015
421.40 1.316579
421.50 1.316143
421.60 1.315707
421.70 1.315272
421.80 1.314837
421.90 1.314409
422.00 1.314002
422.10 1.31358
422.20 1.313096
422.30 1.312613
422.40 1.312132
422.50 1.311711
422.60 1.31129
422.70 1.310869
422.80 1.310449
422.90 1.310028
423.00 1.309608
423.10 1.309188
423.20 1.308769
423.30 1.30835
423.40 1.307931
423.50 1.307512
423.60 1.307093
423.70 1.306675
423.80 1.306257
423.90 1.305839
424.00 1.305421
424.10 1.305004
424.20 1.304587
424.30 1.30417
424.40 1.303713
424.50 1.303318
424.60 1.302924
424.70 1.30253
424.80 1.302136
424.90 1.301743
425.00 1.30135
425.10 1.300957
