# Version 2.1 - nm, norm@500 to 1, cut digits, bergeron_He_24000_70.dat_24000
# Wavelength(nm)  Flambda(ergs/cm^s/s/nm)
300.00 4.010621
300.10 4.007212
300.20 4.003652
300.30 4.000081
300.40 3.996417
300.50 3.992757
300.60 3.989101
300.70 3.985449
300.80 3.981801
300.90 3.978157
301.00 3.974517
301.10 3.970881
301.20 3.967249
301.30 3.96362
301.40 3.959996
301.50 3.956375
301.60 3.952759
301.70 3.949146
301.80 3.945538
301.90 3.941933
302.00 3.938332
302.10 3.934513
302.20 3.930672
302.30 3.926837
302.40 3.923005
302.50 3.919177
302.60 3.915354
302.70 3.911535
302.80 3.90772
302.90 3.903909
303.00 3.900103
303.10 3.8963
303.20 3.892502
303.30 3.888712
303.40 3.884961
303.50 3.881213
303.60 3.87747
303.70 3.873731
303.80 3.869997
303.90 3.866266
304.00 3.862539
304.10 3.858816
304.20 3.855098
304.30 3.851383
304.40 3.847673
304.50 3.843966
304.60 3.840254
304.70 3.836544
304.80 3.832839
304.90 3.829138
305.00 3.82544
305.10 3.821747
305.20 3.818058
305.30 3.814372
305.40 3.810691
305.50 3.807014
305.60 3.803341
305.70 3.799671
305.80 3.796006
305.90 3.792345
306.00 3.788687
306.10 3.785034
306.20 3.781385
306.30 3.777739
306.40 3.77411
306.50 3.770489
306.60 3.766871
306.70 3.763258
306.80 3.759648
306.90 3.756042
307.00 3.75244
307.10 3.748842
307.20 3.745248
307.30 3.741658
307.40 3.738072
307.50 3.734489
307.60 3.730911
307.70 3.727336
307.80 3.723765
307.90 3.720198
308.00 3.716635
308.10 3.713076
308.20 3.70952
308.30 3.705969
308.40 3.702421
308.50 3.698877
308.60 3.695337
308.70 3.6918
308.80 3.688324
308.90 3.685011
309.00 3.681429
309.10 3.677849
309.20 3.674274
309.30 3.670703
309.40 3.667134
309.50 3.663563
309.60 3.659996
309.70 3.656433
309.80 3.652873
309.90 3.649317
310.00 3.645765
310.10 3.642217
310.20 3.638673
310.30 3.635133
310.40 3.631563
310.50 3.627961
310.60 3.624363
310.70 3.62077
310.80 3.61718
310.90 3.613593
311.00 3.61004
311.10 3.606491
311.20 3.602945
311.30 3.599394
311.40 3.595816
311.50 3.592243
311.60 3.588674
311.70 3.585108
311.80 3.581546
311.90 3.577988
312.00 3.574434
312.10 3.570884
312.20 3.567589
312.30 3.563785
312.40 3.559605
312.50 3.557021
312.60 3.553216
312.70 3.549415
312.80 3.545618
312.90 3.541913
313.00 3.538305
313.10 3.534701
313.20 3.531101
313.30 3.527448
313.40 3.523638
313.50 3.519832
313.60 3.51603
313.70 3.512232
313.80 3.508439
313.90 3.504649
314.00 3.500864
314.10 3.496742
314.20 3.492624
314.30 3.488512
314.40 3.484403
314.50 3.4803
314.60 3.4762
314.70 3.472105
314.80 3.468131
314.90 3.463726
315.00 3.458499
315.10 3.45313
315.20 3.447768
315.30 3.442413
315.40 3.437063
315.50 3.431719
315.60 3.426381
315.70 3.419469
315.80 3.412565
315.90 3.405669
316.00 3.398781
316.10 3.39051
316.20 3.382248
316.30 3.386223
316.40 3.389637
316.50 3.371954
316.60 3.327112
316.70 3.315033
316.80 3.302968
316.90 3.301161
317.00 3.299355
317.10 3.297551
317.20 3.295749
317.30 3.305098
317.40 3.311128
317.50 3.307748
317.60 3.304372
317.70 3.300999
317.80 3.297629
317.90 3.277457
318.00 3.248913
318.10 3.202363
318.20 3.15587
318.30 3.109435
318.40 3.040527
318.50 2.907621
318.60 2.75124
318.70 2.436993
318.80 2.121553
318.90 2.47866
319.00 2.681696
319.10 2.818711
319.20 2.935356
319.30 2.994402
319.40 3.053373
319.50 3.11227
319.60 3.15516
319.70 3.174774
319.80 3.194363
319.90 3.213926
320.00 3.229116
320.10 3.23958
320.20 3.248157
320.30 3.254049
320.40 3.258409
320.50 3.261139
320.60 3.263476
320.70 3.264685
320.80 3.265243
320.90 3.265098
321.00 3.264953
321.10 3.264807
321.20 3.263901
321.30 3.262428
321.40 3.260957
321.50 3.259488
321.60 3.258019
321.70 3.256551
321.80 3.255166
321.90 3.253869
322.00 3.251779
322.10 3.249627
322.20 3.247477
322.30 3.245328
322.40 3.243183
322.50 3.241039
322.60 3.238897
322.70 3.236757
322.80 3.233517
322.90 3.231135
323.00 3.228756
323.10 3.22638
323.20 3.224005
323.30 3.221633
323.40 3.219264
323.50 3.216896
323.60 3.214531
323.70 3.212168
323.80 3.209808
323.90 3.207449
324.00 3.204903
324.10 3.20236
324.20 3.199819
324.30 3.197427
324.40 3.195146
324.50 3.192529
324.60 3.189916
324.70 3.187305
324.80 3.184697
324.90 3.182091
325.00 3.179488
325.10 3.176888
325.20 3.174262
325.30 3.171578
325.40 3.168897
325.50 3.16631
325.60 3.163837
325.70 3.161367
325.80 3.158899
325.90 3.156329
326.00 3.153649
326.10 3.150972
326.20 3.148297
326.30 3.145818
326.40 3.143891
326.50 3.141247
326.60 3.138606
326.70 3.135967
326.80 3.133331
326.90 3.130698
327.00 3.128067
327.10 3.125439
327.20 3.122813
327.30 3.12019
327.40 3.11757
327.50 3.114953
327.60 3.112338
327.70 3.109725
327.80 3.107115
327.90 3.10485
328.00 3.102055
328.10 3.098161
328.20 3.094271
328.30 3.090385
328.40 3.086503
328.50 3.084479
328.60 3.082892
328.70 3.081307
328.80 3.079489
328.90 3.077007
329.00 3.074528
329.10 3.072051
329.20 3.069577
329.30 3.067105
329.40 3.064636
329.50 3.062169
329.60 3.059704
329.70 3.057242
329.80 3.054782
329.90 3.052325
330.00 3.049911
330.10 3.047549
330.20 3.04519
330.30 3.042833
330.40 3.040325
330.50 3.037655
330.60 3.034988
330.70 3.032323
330.80 3.02966
330.90 3.027001
331.00 3.024344
331.10 3.02169
331.20 3.019038
331.30 3.016389
331.40 3.013743
331.50 3.011105
331.60 3.008477
331.70 3.005851
331.80 3.002931
331.90 3.000001
332.00 2.997074
332.10 2.994149
332.20 2.991228
332.30 2.98831
332.40 2.985395
332.50 2.982483
332.60 2.979573
332.70 2.976667
332.80 2.973764
332.90 2.970863
333.00 2.967966
333.10 2.96458
333.20 2.960597
333.30 2.956619
333.40 2.952644
333.50 2.948674
333.60 2.944709
333.70 2.940747
333.80 2.93679
333.90 2.932836
334.00 2.928888
334.10 2.923986
334.20 2.917922
334.30 2.911865
334.40 2.905815
334.50 2.899771
334.60 2.893734
334.70 2.886203
334.80 2.875629
334.90 2.863316
335.00 2.851018
335.10 2.838454
335.20 2.826368
335.30 2.813407
335.40 2.799991
335.50 2.812523
335.60 2.822325
335.70 2.830068
335.80 2.837258
335.90 2.842998
336.00 2.846969
336.10 2.850936
336.20 2.854897
336.30 2.856973
336.40 2.856748
336.50 2.856524
336.60 2.856299
336.70 2.856074
336.80 2.855849
336.90 2.855398
337.00 2.854674
337.10 2.853949
337.20 2.853225
337.30 2.852171
337.40 2.850645
337.50 2.84912
337.60 2.847596
337.70 2.846073
337.80 2.844552
337.90 2.842958
338.00 2.841276
338.10 2.839596
338.20 2.837917
338.30 2.836239
338.40 2.834405
338.50 2.832184
338.60 2.829965
338.70 2.827749
338.80 2.825534
338.90 2.823322
339.00 2.821111
339.10 2.818903
339.20 2.816697
339.30 2.814312
339.40 2.811669
339.50 2.809105
339.60 2.806638
339.70 2.804173
339.80 2.80171
339.90 2.79925
340.00 2.796792
340.10 2.794336
340.20 2.791883
340.30 2.789433
340.40 2.786984
340.50 2.784539
340.60 2.782095
340.70 2.779654
340.80 2.776946
340.90 2.773852
341.00 2.770936
341.10 2.768237
341.20 2.76554
341.30 2.762845
341.40 2.760154
341.50 2.757465
341.60 2.754778
341.70 2.752095
341.80 2.74919
341.90 2.746015
342.00 2.742844
342.10 2.739676
342.20 2.736348
342.30 2.732637
342.40 2.728854
342.50 2.724875
342.60 2.7209
342.70 2.716929
342.80 2.712963
342.90 2.709001
343.00 2.704428
343.10 2.699111
343.20 2.693799
343.30 2.688493
343.40 2.681889
343.50 2.673416
343.60 2.664953
343.70 2.656499
343.80 2.648055
343.90 2.63962
344.00 2.627373
344.10 2.609646
344.20 2.591939
344.30 2.574251
344.40 2.551299
344.50 2.520771
344.60 2.48776
344.70 2.447944
344.80 2.485506
344.90 2.514236
345.00 2.545343
345.10 2.563009
345.20 2.577594
345.30 2.58776
345.40 2.597913
345.50 2.606038
345.60 2.610474
345.70 2.613151
345.80 2.615825
345.90 2.618495
346.00 2.621161
346.10 2.623824
346.20 2.625
346.30 2.624041
346.40 2.623082
346.50 2.622124
346.60 2.621167
346.70 2.62021
346.80 2.619254
346.90 2.618298
347.00 2.617344
347.10 2.616389
347.20 2.615183
347.30 2.613615
347.40 2.612047
347.50 2.610481
347.60 2.608917
347.70 2.607353
347.80 2.605792
347.90 2.604231
348.00 2.602672
348.10 2.601114
348.20 2.599558
348.30 2.598003
348.40 2.596449
348.50 2.594897
348.60 2.593346
348.70 2.591843
348.80 2.590232
348.90 2.588443
349.00 2.586656
349.10 2.58487
349.20 2.583086
349.30 2.581303
349.40 2.579522
349.50 2.577743
349.60 2.575965
349.70 2.574189
349.80 2.572414
349.90 2.570642
350.00 2.56887
350.10 2.567101
350.20 2.565332
350.30 2.563622
350.40 2.561996
350.50 2.56037
350.60 2.558746
350.70 2.557123
350.80 2.555502
350.90 2.553882
351.00 2.552264
351.10 2.550647
351.20 2.549031
351.30 2.547417
351.40 2.545907
351.50 2.544579
351.60 2.543252
351.70 2.541927
351.80 2.540602
351.90 2.539279
352.00 2.537957
352.10 2.536636
352.20 2.535207
352.30 2.533895
352.40 2.532766
352.50 2.531637
352.60 2.530509
352.70 2.529383
352.80 2.528257
352.90 2.527132
353.00 2.526008
353.10 2.524884
353.20 2.523762
353.30 2.52264
353.40 2.52152
353.50 2.520636
353.60 2.519811
353.70 2.518987
353.80 2.518164
353.90 2.517375
354.00 2.516647
354.10 2.515919
354.20 2.515192
354.30 2.514465
354.40 2.513739
354.50 2.513013
354.60 2.512287
354.70 2.511562
354.80 2.510883
354.90 2.510269
355.00 2.509655
355.10 2.509042
355.20 2.508429
355.30 2.507834
355.40 2.50724
355.50 2.506647
355.60 2.506053
355.70 2.505678
355.80 2.505401
355.90 2.504717
356.00 2.504087
356.10 2.503653
356.20 2.503218
356.30 2.502784
356.40 2.50235
356.50 2.501916
356.60 2.501482
356.70 2.501048
356.80 2.500614
356.90 2.50018
357.00 2.499746
357.10 2.499313
357.20 2.498879
357.30 2.498446
357.40 2.498038
357.50 2.497677
357.60 2.497315
357.70 2.496954
357.80 2.496348
357.90 2.495743
358.00 2.494706
358.10 2.493562
358.20 2.492419
358.30 2.491277
358.40 2.490135
358.50 2.488995
358.60 2.487855
358.70 2.486717
358.80 2.485579
358.90 2.484442
359.00 2.482938
359.10 2.480782
359.20 2.478585
359.30 2.476096
359.40 2.47361
359.50 2.470046
359.60 2.466215
359.70 2.462388
359.80 2.456139
359.90 2.449896
360.00 2.441734
360.10 2.430158
360.20 2.418594
360.30 2.407042
360.40 2.395503
360.50 2.383976
360.60 2.358496
360.70 2.323641
360.80 2.288824
360.90 2.254046
361.00 2.212163
361.10 2.142949
361.20 2.061832
361.30 1.937509
361.40 2.05176
361.50 2.175159
361.60 2.22859
361.70 2.230758
361.80 2.237673
361.90 2.253019
362.00 2.268349
362.10 2.274178
362.20 2.273528
362.30 2.265585
362.40 2.25765
362.50 2.249723
362.60 2.241806
362.70 2.228903
362.80 2.214345
362.90 2.197581
363.00 2.180836
363.10 2.161178
363.20 2.141511
363.30 2.127372
363.40 2.122201
363.50 2.137655
363.60 2.165499
363.70 2.187053
363.80 2.203869
363.90 2.217453
364.00 2.231022
364.10 2.244576
364.20 2.258115
364.30 2.273979
364.40 2.290411
364.50 2.306022
364.60 2.317541
364.70 2.329048
364.80 2.340541
364.90 2.348027
365.00 2.355505
365.10 2.355466
365.20 2.346673
365.30 2.344555
365.40 2.356181
365.50 2.367794
365.60 2.379394
365.70 2.390188
365.80 2.400969
365.90 2.408718
366.00 2.415703
366.10 2.41948
366.20 2.423253
366.30 2.42702
366.40 2.430784
366.50 2.43309
366.60 2.43428
366.70 2.434206
366.80 2.434131
366.90 2.433017
367.00 2.430058
367.10 2.427101
367.20 2.424148
367.30 2.421197
367.40 2.41825
367.50 2.412949
367.60 2.407064
367.70 2.398612
367.80 2.39017
367.90 2.381736
368.00 2.373094
368.10 2.362058
368.20 2.347158
368.30 2.332238
368.40 2.317334
368.50 2.302445
368.60 2.287573
368.70 2.272717
368.80 2.257876
368.90 2.242169
369.00 2.223306
369.10 2.204063
369.20 2.183109
369.30 2.158282
369.40 2.13348
369.50 2.108706
369.60 2.077595
369.70 2.046517
369.80 2.014433
369.90 1.982373
370.00 1.950346
370.10 1.91634
370.20 1.877171
370.30 1.838042
370.40 1.798979
370.50 1.780742
370.60 1.823594
370.70 1.877395
370.80 1.919839
370.90 1.962238
371.00 1.981711
371.10 2.000931
371.20 2.01752
371.30 2.034091
371.40 2.055411
371.50 2.075761
371.60 2.096089
371.70 2.116395
371.80 2.136678
371.90 2.15694
372.00 2.174591
372.10 2.19178
372.20 2.204516
372.30 2.217238
372.40 2.229946
372.50 2.242641
372.60 2.255321
372.70 2.267987
372.80 2.274732
372.90 2.281469
373.00 2.28629
373.10 2.291086
373.20 2.283072
373.30 2.275066
373.40 2.218018
373.50 2.19491
373.60 2.218034
373.70 2.245514
373.80 2.267019
373.90 2.290042
374.00 2.303923
374.10 2.317789
374.20 2.331639
374.30 2.345474
374.40 2.354138
374.50 2.361921
374.60 2.367226
374.70 2.372514
374.80 2.377795
374.90 2.38307
375.00 2.386017
375.10 2.38896
375.20 2.3919
375.30 2.39243
375.40 2.392959
375.50 2.393487
375.60 2.394015
375.70 2.394541
375.80 2.395067
375.90 2.395592
376.00 2.395096
376.10 2.393661
376.20 2.392218
376.30 2.390775
376.40 2.389334
376.50 2.387421
376.60 2.384802
376.70 2.382185
376.80 2.37915
376.90 2.375698
377.00 2.372249
377.10 2.368804
377.20 2.365105
377.30 2.360445
377.40 2.355789
377.50 2.351137
377.60 2.344975
377.70 2.33882
377.80 2.33267
377.90 2.326526
378.00 2.320074
378.10 2.310947
378.20 2.301806
378.30 2.292675
378.40 2.283554
378.50 2.274441
378.60 2.265338
378.70 2.256244
378.80 2.24716
378.90 2.237231
379.00 2.225729
379.10 2.213412
379.20 2.201109
379.30 2.187901
379.40 2.173789
379.50 2.159691
379.60 2.144821
379.70 2.128012
379.80 2.108322
379.90 2.088653
380.00 2.069004
380.10 2.049376
380.20 2.029767
380.30 2.01018
380.40 1.990612
380.50 1.971065
380.60 1.943604
380.70 1.913462
380.80 1.883351
380.90 1.853271
381.00 1.823223
381.10 1.787812
381.20 1.751927
381.30 1.715761
381.40 1.678643
381.50 1.638189
381.60 1.596144
381.70 1.552343
381.80 1.511975
381.90 1.47611
382.00 1.449428
382.10 1.511125
382.20 1.572301
382.30 1.627401
382.40 1.67732
382.50 1.719505
382.60 1.761645
382.70 1.797136
382.80 1.81527
382.90 1.823515
383.00 1.831752
383.10 1.83998
383.20 1.850752
383.30 1.871113
383.40 1.891573
383.50 1.912189
383.60 1.932427
383.70 1.949034
383.80 1.965623
383.90 1.982195
384.00 1.99875
384.10 2.015286
384.20 2.031806
384.30 2.048308
384.40 2.062332
384.50 2.073884
384.60 2.085423
384.70 2.09695
384.80 2.108018
384.90 2.116549
385.00 2.1235
385.10 2.130418
385.20 2.135426
385.30 2.139641
385.40 2.142936
385.50 2.145313
385.60 2.147687
385.70 2.150058
385.80 2.152338
385.90 2.154279
386.00 2.154426
386.10 2.152207
386.20 2.144184
386.30 2.136168
386.40 2.123705
386.50 2.098631
386.60 2.057795
386.70 1.964147
386.80 1.756691
386.90 1.831742
387.00 1.894966
387.10 1.940294
387.20 1.979725
387.30 2.011517
387.40 2.033518
387.50 2.050901
387.60 2.064786
387.70 2.069085
387.80 2.073379
387.90 2.077668
388.00 2.078483
388.10 2.06489
388.20 2.035745
388.30 1.996065
388.40 1.956424
388.50 1.901605
388.60 1.811994
388.70 1.683779
388.80 1.486159
388.90 1.404747
389.00 1.584886
389.10 1.715138
389.20 1.812096
389.30 1.886453
389.40 1.944154
389.50 1.9946
389.60 2.032653
389.70 2.059558
389.80 2.076673
389.90 2.093771
390.00 2.110851
390.10 2.127913
390.20 2.144957
390.30 2.156433
390.40 2.161641
390.50 2.166843
390.60 2.17204
390.70 2.177231
390.80 2.180501
390.90 2.181852
391.00 2.18213
391.10 2.181014
391.20 2.179693
391.30 2.176523
391.40 2.172144
391.50 2.16777
391.60 2.1634
391.70 2.159034
391.80 2.154672
391.90 2.150573
392.00 2.146224
392.10 2.141059
392.20 2.135713
392.30 2.129105
392.40 2.123139
392.50 2.118185
392.60 2.111695
392.70 2.106185
392.80 2.105725
392.90 2.108792
393.00 2.112698
393.10 2.116956
393.20 2.121518
393.30 2.125112
393.40 2.128641
393.50 2.130519
393.60 2.129987
393.70 2.130384
393.80 2.132139
393.90 2.134281
394.00 2.136236
394.10 2.135934
394.20 2.135214
394.30 2.13338
394.40 2.130135
394.50 2.126433
394.60 2.11977
394.70 2.112429
394.80 2.102523
394.90 2.092572
395.00 2.080819
395.10 2.06768
395.20 2.049982
395.30 2.031328
395.40 2.012692
395.50 1.98435
395.60 1.95244
395.70 1.916482
395.80 1.86953
395.90 1.822625
396.00 1.773987
396.10 1.701216
396.20 1.611807
396.30 1.515796
396.40 1.38156
396.50 1.419625
396.60 1.649209
396.70 1.751804
396.80 1.748203
396.90 1.724896
397.00 1.770241
397.10 1.890409
397.20 1.937292
397.30 1.92681
397.40 1.931155
397.50 1.935495
397.60 1.940341
397.70 1.950335
397.80 1.960319
397.90 1.968553
398.00 1.972077
398.10 1.975597
398.20 1.976859
398.30 1.975579
398.40 1.974212
398.50 1.969989
398.60 1.965382
398.70 1.958847
398.80 1.951872
398.90 1.944282
399.00 1.935546
399.10 1.925219
399.20 1.913371
399.30 1.901535
399.40 1.889711
399.50 1.877898
399.60 1.863425
399.70 1.84798
399.80 1.832549
399.90 1.817134
400.00 1.801687
400.10 1.784756
400.20 1.767092
400.30 1.748424
400.40 1.72973
400.50 1.711011
400.60 1.690956
400.70 1.671412
400.80 1.649922
400.90 1.622452
401.00 1.60419
401.10 1.596478
401.20 1.587852
401.30 1.577167
401.40 1.562212
401.50 1.545849
401.60 1.529317
401.70 1.506821
401.80 1.481823
401.90 1.453733
402.00 1.42414
402.10 1.392051
402.20 1.357376
402.30 1.321907
402.40 1.286386
402.50 1.256809
402.60 1.220252
402.70 1.230875
402.80 1.274814
402.90 1.317339
403.00 1.359479
403.10 1.399525
403.20 1.437572
403.30 1.474199
403.40 1.509828
403.50 1.542479
403.60 1.574211
403.70 1.603479
403.80 1.630662
403.90 1.653093
404.00 1.674709
404.10 1.690195
404.20 1.697867
404.30 1.705531
404.40 1.695044
404.50 1.650833
404.60 1.626582
404.70 1.641055
404.80 1.664009
404.90 1.686236
405.00 1.705195
405.10 1.721841
405.20 1.737923
405.30 1.75399
405.40 1.76677
405.50 1.779537
405.60 1.792291
405.70 1.805033
405.80 1.817761
405.90 1.830477
406.00 1.840028
406.10 1.849568
406.20 1.859099
406.30 1.868621
406.40 1.878089
406.50 1.886003
406.60 1.893798
406.70 1.90085
406.80 1.90779
406.90 1.915023
407.00 1.919855
407.10 1.924682
407.20 1.929505
407.30 1.934322
407.40 1.939135
407.50 1.943942
407.60 1.948745
407.70 1.953542
407.80 1.958335
407.90 1.96306
408.00 1.965748
408.10 1.968705
408.20 1.971177
408.30 1.973253
408.40 1.975327
408.50 1.97718
408.60 1.978056
408.70 1.978931
408.80 1.979771
408.90 1.980179
409.00 1.980104
409.10 1.980029
409.20 1.979953
409.30 1.979878
409.40 1.979768
409.50 1.978567
409.60 1.977367
409.70 1.976031
409.80 1.974152
409.90 1.972263
410.00 1.970016
410.10 1.966851
410.20 1.963387
410.30 1.95985
410.40 1.95584
410.50 1.950328
410.60 1.944822
410.70 1.938844
410.80 1.930964
410.90 1.923091
411.00 1.912116
411.10 1.900002
411.20 1.8879
411.30 1.874897
411.40 1.857974
411.50 1.831778
411.60 1.805606
411.70 1.773754
411.80 1.719121
411.90 1.656938
412.00 1.526421
412.10 1.276693
412.20 1.34823
412.30 1.447412
412.40 1.526541
412.50 1.580887
412.60 1.619313
412.70 1.642216
412.80 1.661226
412.90 1.677844
413.00 1.681683
413.10 1.676732
413.20 1.671785
413.30 1.666843
413.40 1.661905
413.50 1.65563
413.60 1.642812
413.70 1.626262
413.80 1.609727
413.90 1.593208
414.00 1.576121
414.10 1.557203
414.20 1.535268
414.30 1.499672
414.40 1.469679
414.50 1.47376
414.60 1.497529
414.70 1.523318
414.80 1.5485
414.90 1.571817
415.00 1.595111
415.10 1.618382
415.20 1.640253
415.30 1.657741
415.40 1.675212
415.50 1.692597
415.60 1.707704
415.70 1.722798
415.80 1.737257
415.90 1.749745
416.00 1.762221
416.10 1.773654
416.20 1.780961
416.30 1.788261
416.40 1.795554
416.50 1.802681
416.60 1.804699
416.70 1.806533
416.80 1.799938
416.90 1.770626
417.00 1.761663
417.10 1.779326
417.20 1.793487
417.30 1.807516
417.40 1.817701
417.50 1.827877
417.60 1.83736
417.70 1.84407
417.80 1.849557
417.90 1.85504
418.00 1.860517
418.10 1.865988
418.20 1.871454
418.30 1.876869
418.40 1.880483
418.50 1.8831
418.60 1.885715
418.70 1.888327
418.80 1.890936
418.90 1.893542
419.00 1.896146
419.10 1.898747
419.20 1.901346
419.30 1.90389
419.40 1.904769
419.50 1.905647
419.60 1.906466
419.70 1.907051
419.80 1.907635
419.90 1.908067
420.00 1.908023
420.10 1.907979
420.20 1.907934
420.30 1.90789
420.40 1.907845
420.50 1.9078
420.60 1.907755
420.70 1.90771
420.80 1.907664
420.90 1.907606
421.00 1.907151
421.10 1.906697
421.20 1.906175
421.30 1.905449
421.40 1.904723
421.50 1.903998
421.60 1.903273
421.70 1.902549
421.80 1.901825
421.90 1.901059
422.00 1.900159
422.10 1.899258
422.20 1.898359
422.30 1.89746
422.40 1.896552
422.50 1.89534
422.60 1.894128
422.70 1.892917
422.80 1.891708
422.90 1.890499
423.00 1.889291
423.10 1.888084
423.20 1.886879
423.30 1.885674
423.40 1.884469
423.50 1.883266
423.60 1.882064
423.70 1.880863
423.80 1.879662
423.90 1.878463
424.00 1.877264
424.10 1.876067
424.20 1.87487
424.30 1.873674
424.40 1.872541
424.50 1.871223
424.60 1.869905
424.70 1.868589
424.80 1.867274
424.90 1.865959
425.00 1.864646
