# Version 2.1 - nm, norm@500 to 1, cut digits, bergeron_He_8000_85.dat_8000
# Wavelength(nm)  Flambda(ergs/cm^s/s/nm)
300.00 1.328877
300.10 1.328942
300.20 1.328979
300.30 1.32905
300.40 1.32935
300.50 1.329649
300.60 1.329948
300.70 1.330246
300.80 1.330543
300.90 1.330839
301.00 1.331135
301.10 1.33143
301.20 1.331725
301.30 1.332018
301.40 1.332311
301.50 1.332604
301.60 1.332895
301.70 1.333186
301.80 1.333477
301.90 1.333766
302.00 1.334055
302.10 1.334354
302.20 1.334653
302.30 1.334951
302.40 1.335248
302.50 1.335545
302.60 1.335841
302.70 1.336136
302.80 1.336431
302.90 1.336725
303.00 1.337019
303.10 1.337311
303.20 1.337603
303.30 1.33788
303.40 1.338023
303.50 1.338166
303.60 1.338308
303.70 1.33845
303.80 1.338592
303.90 1.338732
304.00 1.338873
304.10 1.339013
304.20 1.339152
304.30 1.339291
304.40 1.33943
304.50 1.339568
304.60 1.339837
304.70 1.340121
304.80 1.340403
304.90 1.340686
305.00 1.340967
305.10 1.341248
305.20 1.341528
305.30 1.341807
305.40 1.342086
305.50 1.342364
305.60 1.342642
305.70 1.342918
305.80 1.343194
305.90 1.34347
306.00 1.343745
306.10 1.344019
306.20 1.344293
306.30 1.344566
306.40 1.3448
306.50 1.345023
306.60 1.345245
306.70 1.345466
306.80 1.345687
306.90 1.345907
307.00 1.346127
307.10 1.346346
307.20 1.346565
307.30 1.346782
307.40 1.347
307.50 1.347217
307.60 1.347433
307.70 1.347649
307.80 1.347864
307.90 1.348078
308.00 1.348292
308.10 1.348506
308.20 1.348719
308.30 1.348931
308.40 1.349143
308.50 1.349354
308.60 1.349565
308.70 1.349775
308.80 1.349952
308.90 1.350035
309.00 1.350154
309.10 1.350272
309.20 1.35039
309.30 1.350508
309.40 1.350643
309.50 1.35089
309.60 1.351136
309.70 1.351382
309.80 1.351627
309.90 1.351872
310.00 1.352116
310.10 1.352359
310.20 1.352602
310.30 1.352844
310.40 1.35297
310.50 1.352971
310.60 1.352971
310.70 1.35297
310.80 1.35297
310.90 1.352969
311.00 1.353372
311.10 1.353774
311.20 1.354176
311.30 1.354519
311.40 1.354697
311.50 1.354875
311.60 1.355052
311.70 1.355229
311.80 1.355406
311.90 1.355582
312.00 1.355757
312.10 1.355932
312.20 1.355898
312.30 1.356079
312.40 1.356522
312.50 1.355907
312.60 1.356306
312.70 1.356705
312.80 1.357103
312.90 1.357294
313.00 1.357262
313.10 1.35723
313.20 1.357198
313.30 1.357243
313.40 1.357507
313.50 1.35777
313.60 1.358033
313.70 1.358296
313.80 1.358557
313.90 1.358818
314.00 1.359079
314.10 1.359269
314.20 1.359458
314.30 1.359647
314.40 1.359836
314.50 1.360024
314.60 1.360211
314.70 1.360398
314.80 1.360311
314.90 1.359824
315.00 1.359745
315.10 1.360041
315.20 1.360337
315.30 1.360632
315.40 1.360927
315.50 1.361221
315.60 1.361514
315.70 1.361518
315.80 1.361522
315.90 1.361525
316.00 1.361528
316.10 1.361819
316.20 1.362109
316.30 1.362399
316.40 1.362113
316.50 1.362401
316.60 1.362115
316.70 1.362403
316.80 1.36269
316.90 1.362976
317.00 1.363262
317.10 1.363547
317.20 1.363832
317.30 1.363629
317.40 1.363535
317.50 1.363749
317.60 1.363962
317.70 1.364174
317.80 1.364386
317.90 1.364277
318.00 1.364105
318.10 1.364385
318.20 1.364665
318.30 1.364943
318.40 1.365222
318.50 1.365499
318.60 1.365482
318.70 1.365758
318.80 1.366034
318.90 1.365347
319.00 1.365747
319.10 1.366022
319.20 1.366236
319.30 1.366276
319.40 1.366316
319.50 1.366356
319.60 1.366276
319.70 1.366614
319.80 1.36695
319.90 1.367286
320.00 1.36732
320.10 1.367028
320.20 1.366969
320.30 1.367521
320.40 1.367003
320.50 1.367271
320.60 1.367807
320.70 1.367514
320.80 1.367489
320.90 1.367755
321.00 1.36802
321.10 1.368285
321.20 1.368264
321.30 1.368377
321.40 1.36849
321.50 1.368602
321.60 1.368714
321.70 1.368826
321.80 1.368836
321.90 1.368736
322.00 1.369499
322.10 1.369615
322.20 1.36973
322.30 1.369845
322.40 1.36996
322.50 1.370074
322.60 1.370188
322.70 1.370301
322.80 1.370182
322.90 1.370216
323.00 1.37025
323.10 1.370283
323.20 1.370316
323.30 1.370349
323.40 1.370381
323.50 1.370414
323.60 1.370445
323.70 1.370477
323.80 1.370508
323.90 1.370539
324.00 1.370866
324.10 1.371192
324.20 1.371518
324.30 1.371539
324.40 1.371144
324.50 1.371237
324.60 1.371329
324.70 1.371421
324.80 1.371513
324.90 1.371604
325.00 1.371695
325.10 1.371786
325.20 1.371942
325.30 1.372236
325.40 1.372529
325.50 1.37268
325.60 1.372657
325.70 1.372634
325.80 1.372612
325.90 1.372565
326.00 1.372493
326.10 1.372421
326.20 1.372349
326.30 1.372523
326.40 1.373397
326.50 1.373449
326.60 1.3735
326.70 1.37355
326.80 1.373601
326.90 1.373651
327.00 1.3737
327.10 1.37375
327.20 1.373799
327.30 1.373848
327.40 1.373896
327.50 1.373944
327.60 1.373992
327.70 1.37404
327.80 1.374087
327.90 1.374208
328.00 1.374357
328.10 1.374441
328.20 1.374525
328.30 1.374608
328.40 1.374691
328.50 1.374516
328.60 1.37428
328.70 1.374045
328.80 1.373887
328.90 1.373953
329.00 1.374019
329.10 1.374084
329.20 1.374148
329.30 1.374213
329.40 1.374277
329.50 1.374341
329.60 1.374404
329.70 1.374467
329.80 1.37453
329.90 1.374593
330.00 1.374731
330.10 1.374963
330.20 1.375194
330.30 1.375425
330.40 1.375558
330.50 1.375585
330.60 1.375613
330.70 1.37564
330.80 1.375667
330.90 1.375693
331.00 1.37572
331.10 1.375746
331.20 1.375771
331.30 1.375797
331.40 1.375822
331.50 1.375841
331.60 1.375852
331.70 1.375863
331.80 1.375884
331.90 1.375906
332.00 1.375928
332.10 1.375949
332.20 1.375971
332.30 1.375991
332.40 1.376012
332.50 1.376032
332.60 1.376052
332.70 1.376072
332.80 1.376091
332.90 1.37611
333.00 1.376129
333.10 1.376141
333.20 1.376145
333.30 1.376148
333.40 1.376152
333.50 1.376154
333.60 1.376157
333.70 1.376159
333.80 1.376162
333.90 1.376163
334.00 1.376165
334.10 1.376182
334.20 1.376217
334.30 1.376253
334.40 1.376288
334.50 1.376322
334.60 1.376356
334.70 1.37645
334.80 1.376532
334.90 1.376493
335.00 1.376455
335.10 1.376259
335.20 1.376463
335.30 1.376333
335.40 1.376408
335.50 1.37661
335.60 1.376812
335.70 1.376451
335.80 1.376653
335.90 1.376739
336.00 1.376684
336.10 1.376629
336.20 1.376574
336.30 1.376557
336.40 1.376587
336.50 1.376616
336.60 1.376645
336.70 1.376673
336.80 1.376702
336.90 1.376688
337.00 1.376624
337.10 1.37656
337.20 1.376495
337.30 1.376471
337.40 1.376503
337.50 1.376536
337.60 1.376568
337.70 1.376599
337.80 1.376631
337.90 1.376633
338.00 1.3766
338.10 1.376566
338.20 1.376532
338.30 1.376498
338.40 1.376468
338.50 1.376447
338.60 1.376426
338.70 1.376404
338.80 1.376382
338.90 1.37636
339.00 1.376338
339.10 1.376315
339.20 1.376293
339.30 1.376365
339.40 1.376574
339.50 1.376668
339.60 1.376623
339.70 1.376578
339.80 1.376532
339.90 1.376487
340.00 1.376441
340.10 1.376395
340.20 1.376348
340.30 1.376302
340.40 1.376255
340.50 1.376209
340.60 1.376162
340.70 1.376114
340.80 1.37617
340.90 1.376374
341.00 1.376456
341.10 1.376391
341.20 1.376326
341.30 1.376261
341.40 1.376196
341.50 1.37613
341.60 1.376065
341.70 1.375999
341.80 1.376017
341.90 1.37614
342.00 1.376261
342.10 1.376383
342.20 1.376318
342.30 1.37608
342.40 1.376031
342.50 1.376051
342.60 1.37607
342.70 1.37609
342.80 1.376109
342.90 1.376128
343.00 1.376104
343.10 1.376028
343.20 1.375952
343.30 1.375876
343.40 1.375836
343.50 1.375848
343.60 1.37586
343.70 1.375871
343.80 1.375883
343.90 1.375894
344.00 1.375871
344.10 1.375801
344.20 1.375731
344.30 1.37566
344.40 1.375689
344.50 1.37586
344.60 1.375634
344.70 1.375344
344.80 1.375031
344.90 1.375177
345.00 1.375545
345.10 1.375232
345.20 1.375121
345.30 1.375304
345.40 1.375485
345.50 1.375227
345.60 1.37476
345.70 1.374768
345.80 1.374775
345.90 1.374782
346.00 1.374789
346.10 1.374796
346.20 1.374789
346.30 1.374763
346.40 1.374737
346.50 1.37471
346.60 1.374684
346.70 1.374657
346.80 1.37463
346.90 1.374603
347.00 1.374576
347.10 1.374548
347.20 1.374501
347.30 1.374427
347.40 1.374352
347.50 1.374277
347.60 1.374201
347.70 1.374126
347.80 1.374051
347.90 1.373975
348.00 1.373899
348.10 1.373823
348.20 1.373747
348.30 1.373671
348.40 1.373595
348.50 1.373518
348.60 1.373442
348.70 1.373357
348.80 1.373294
348.90 1.373263
349.00 1.373233
349.10 1.373202
349.20 1.373171
349.30 1.373139
349.40 1.373108
349.50 1.373076
349.60 1.373044
349.70 1.373012
349.80 1.37298
349.90 1.372948
350.00 1.372915
350.10 1.372882
350.20 1.372849
350.30 1.372787
350.40 1.372682
350.50 1.372577
350.60 1.372473
350.70 1.372368
350.80 1.372263
350.90 1.372157
351.00 1.372052
351.10 1.371947
351.20 1.371841
351.30 1.371736
351.40 1.371657
351.50 1.371626
351.60 1.371595
351.70 1.371564
351.80 1.371532
351.90 1.3715
352.00 1.371469
352.10 1.371437
352.20 1.371293
352.30 1.371177
352.40 1.371117
352.50 1.371058
352.60 1.370998
352.70 1.370938
352.80 1.370878
352.90 1.370818
353.00 1.370757
353.10 1.370697
353.20 1.370636
353.30 1.370575
353.40 1.370514
353.50 1.37038
353.60 1.370227
353.70 1.370074
353.80 1.369921
353.90 1.369803
354.00 1.369748
354.10 1.369692
354.20 1.369637
354.30 1.369581
354.40 1.369525
354.50 1.369469
354.60 1.369413
354.70 1.369356
354.80 1.369262
354.90 1.369112
355.00 1.368962
355.10 1.368812
355.20 1.368662
355.30 1.368527
355.40 1.368391
355.50 1.368255
355.60 1.36812
355.70 1.368086
355.80 1.368097
355.90 1.367828
356.00 1.367613
356.10 1.367537
356.20 1.36746
356.30 1.367383
356.40 1.367307
356.50 1.36723
356.60 1.367153
356.70 1.367075
356.80 1.366998
356.90 1.366921
357.00 1.366843
357.10 1.366765
357.20 1.366687
357.30 1.366609
357.40 1.366477
357.50 1.366249
357.60 1.366021
357.70 1.365793
357.80 1.365847
357.90 1.365901
358.00 1.365852
358.10 1.365777
358.20 1.365702
358.30 1.365627
358.40 1.365552
358.50 1.365476
358.60 1.365401
358.70 1.365325
358.80 1.36525
358.90 1.365174
359.00 1.364996
359.10 1.364636
359.20 1.364324
359.30 1.36433
359.40 1.364336
359.50 1.364239
359.60 1.364116
359.70 1.363993
359.80 1.363909
359.90 1.363824
360.00 1.363736
360.10 1.363639
360.20 1.363543
360.30 1.363447
360.40 1.363351
360.50 1.363254
360.60 1.362744
360.70 1.362652
360.80 1.36256
360.90 1.362468
361.00 1.362705
361.10 1.362756
361.20 1.362394
361.30 1.361993
361.40 1.361768
361.50 1.361896
361.60 1.361459
361.70 1.361587
361.80 1.361644
361.90 1.361579
362.00 1.361513
362.10 1.361386
362.20 1.361232
362.30 1.361058
362.40 1.360883
362.50 1.360709
362.60 1.360534
362.70 1.360386
362.80 1.360025
362.90 1.360145
363.00 1.360265
363.10 1.359919
363.20 1.359569
363.30 1.359772
363.40 1.359242
363.50 1.359148
363.60 1.359271
363.70 1.359007
363.80 1.358647
363.90 1.358521
364.00 1.358395
364.10 1.35827
364.20 1.358144
364.30 1.358293
364.40 1.358511
364.50 1.357774
364.60 1.357893
364.70 1.358011
364.80 1.358129
364.90 1.357817
365.00 1.357505
365.10 1.357625
365.20 1.357313
365.30 1.357001
365.40 1.357121
365.50 1.356809
365.60 1.356498
365.70 1.356539
365.80 1.356579
365.90 1.356376
366.00 1.356113
366.10 1.356005
366.20 1.355897
366.30 1.355789
366.40 1.355682
366.50 1.355834
366.60 1.355104
366.70 1.355013
366.80 1.354923
366.90 1.35482
367.00 1.354697
367.10 1.354574
367.20 1.35445
367.30 1.354327
367.40 1.354203
367.50 1.353968
367.60 1.353704
367.70 1.35364
367.80 1.353576
367.90 1.353512
368.00 1.353313
368.10 1.353417
368.20 1.353244
368.30 1.353065
368.40 1.352886
368.50 1.352708
368.60 1.352529
368.70 1.35235
368.80 1.352172
368.90 1.351794
369.00 1.351808
369.10 1.35201
369.20 1.351287
369.30 1.351118
369.40 1.350949
369.50 1.35078
369.60 1.350887
369.70 1.350995
369.80 1.350723
369.90 1.350448
370.00 1.350172
370.10 1.350578
370.20 1.350292
370.30 1.349983
370.40 1.349657
370.50 1.349777
370.60 1.349478
370.70 1.349588
370.80 1.349277
370.90 1.348966
371.00 1.348659
371.10 1.348352
371.20 1.348457
371.30 1.348562
371.40 1.348068
371.50 1.347964
371.60 1.347859
371.70 1.347755
371.80 1.34765
371.90 1.347545
372.00 1.347065
372.10 1.346935
372.20 1.346765
372.30 1.346595
372.40 1.346426
372.50 1.346256
372.60 1.346086
372.70 1.345917
372.80 1.346019
372.90 1.346121
373.00 1.345819
373.10 1.345513
373.20 1.345206
373.30 1.344898
373.40 1.345003
373.50 1.344696
373.60 1.344388
373.70 1.344493
373.80 1.343954
373.90 1.343879
374.00 1.343778
374.10 1.343676
374.20 1.343575
374.30 1.343473
374.40 1.343269
374.50 1.342859
374.60 1.342753
374.70 1.342653
374.80 1.342553
374.90 1.342453
375.00 1.342283
375.10 1.342112
375.20 1.341942
375.30 1.341811
375.40 1.34168
375.50 1.341548
375.60 1.341417
375.70 1.341286
375.80 1.341154
375.90 1.341023
376.00 1.340309
376.10 1.340123
376.20 1.339943
376.30 1.339762
376.40 1.339581
376.50 1.339412
376.60 1.339261
376.70 1.339109
376.80 1.338962
376.90 1.338818
377.00 1.338674
377.10 1.338531
377.20 1.338374
377.30 1.338168
377.40 1.337963
377.50 1.337757
377.60 1.337575
377.70 1.337394
377.80 1.337212
377.90 1.33703
378.00 1.336638
378.10 1.336484
378.20 1.336337
378.30 1.336189
378.40 1.336041
378.50 1.335893
378.60 1.335745
378.70 1.335597
378.80 1.335449
378.90 1.335314
379.00 1.335204
379.10 1.33514
379.20 1.335076
379.30 1.334951
379.40 1.334763
379.50 1.334575
379.60 1.334182
379.70 1.333601
379.80 1.333482
379.90 1.333362
380.00 1.333242
380.10 1.333123
380.20 1.333003
380.30 1.332883
380.40 1.332763
380.50 1.332643
380.60 1.332165
380.70 1.332007
380.80 1.331849
380.90 1.33169
381.00 1.331532
381.10 1.331329
381.20 1.33128
381.30 1.331021
381.40 1.330608
381.50 1.330721
381.60 1.33051
381.70 1.330018
381.80 1.329907
381.90 1.33
382.00 1.329303
382.10 1.329396
382.20 1.329016
382.30 1.329108
382.40 1.328993
382.50 1.328567
382.60 1.328141
382.70 1.32797
382.80 1.327956
382.90 1.327811
383.00 1.327667
383.10 1.327522
383.20 1.327354
383.30 1.327094
383.40 1.326885
383.50 1.326752
383.60 1.326107
383.70 1.325931
383.80 1.325755
383.90 1.325579
384.00 1.325403
384.10 1.325227
384.20 1.325051
384.30 1.324875
384.40 1.324715
384.50 1.32457
384.60 1.324426
384.70 1.324281
384.80 1.324023
384.90 1.323568
385.00 1.323547
385.10 1.323513
385.20 1.323011
385.30 1.322718
385.40 1.3225
385.50 1.322355
385.60 1.322211
385.70 1.322066
385.80 1.321903
385.90 1.321671
386.00 1.321486
386.10 1.321353
386.20 1.321265
386.30 1.321177
386.40 1.320791
386.50 1.320425
386.60 1.320195
386.70 1.320282
386.80 1.319792
386.90 1.319686
387.00 1.319773
387.10 1.319111
387.20 1.319178
387.30 1.319264
387.40 1.318782
387.50 1.318669
387.60 1.31811
387.70 1.318004
387.80 1.317899
387.90 1.317793
388.00 1.317567
388.10 1.317005
388.20 1.317216
388.30 1.317023
388.40 1.316829
388.50 1.316466
388.60 1.316005
388.70 1.315874
388.80 1.315958
388.90 1.315282
389.00 1.315366
389.10 1.315003
389.20 1.315105
389.30 1.314995
389.40 1.314709
389.50 1.314523
389.60 1.314352
389.70 1.313858
389.80 1.313699
389.90 1.31354
390.00 1.313382
390.10 1.313223
390.20 1.313064
390.30 1.312879
390.40 1.312662
390.50 1.312445
390.60 1.312229
390.70 1.312013
390.80 1.311782
390.90 1.311536
391.00 1.311079
391.10 1.310774
391.20 1.310606
391.30 1.310651
391.40 1.310357
391.50 1.310064
391.60 1.30977
391.70 1.309476
391.80 1.309183
391.90 1.309043
392.00 1.308925
392.10 1.308581
392.20 1.308323
392.30 1.30829
392.40 1.307664
392.50 1.307705
392.60 1.307785
392.70 1.307119
392.80 1.3072
392.90 1.306674
393.00 1.306405
393.10 1.306204
393.20 1.306065
393.30 1.305773
393.40 1.305633
393.50 1.305527
393.60 1.305319
393.70 1.304944
393.80 1.305057
393.90 1.304765
394.00 1.304441
394.10 1.303956
394.20 1.30367
394.30 1.303519
394.40 1.303337
394.50 1.303355
394.60 1.303108
394.70 1.302845
394.80 1.302524
394.90 1.302216
395.00 1.302271
395.10 1.302129
395.20 1.301883
395.30 1.301464
395.40 1.301046
395.50 1.300889
395.60 1.30083
395.70 1.300734
395.80 1.300539
395.90 1.300344
396.00 1.300107
396.10 1.29955
396.20 1.29926
396.30 1.298872
396.40 1.29895
396.50 1.298908
396.60 1.298372
396.70 1.298449
396.80 1.298092
396.90 1.297871
397.00 1.297218
397.10 1.297173
397.20 1.296804
397.30 1.296842
397.40 1.296648
397.50 1.296454
397.60 1.296242
397.70 1.295848
397.80 1.295454
397.90 1.295132
398.00 1.295
398.10 1.294869
398.20 1.294633
398.30 1.29428
398.40 1.293936
398.50 1.293844
398.60 1.293914
398.70 1.293657
398.80 1.293304
398.90 1.293035
399.00 1.292923
399.10 1.29232
399.20 1.29217
399.30 1.292019
399.40 1.291869
399.50 1.291719
399.60 1.291542
399.70 1.291356
399.80 1.29117
399.90 1.290983
400.00 1.290783
400.10 1.290138
400.20 1.289998
400.30 1.289795
400.40 1.289435
400.50 1.288998
400.60 1.289334
400.70 1.289049
400.80 1.288502
400.90 1.288576
401.00 1.287933
401.10 1.288007
401.20 1.287365
401.30 1.287258
401.40 1.287183
401.50 1.287071
401.60 1.286943
401.70 1.286302
401.80 1.286222
401.90 1.286108
402.00 1.285808
402.10 1.285168
402.20 1.285241
402.30 1.285011
402.40 1.284675
402.50 1.284747
402.60 1.284109
402.70 1.284181
402.80 1.283543
402.90 1.28319
403.00 1.282908
403.10 1.283051
403.20 1.282431
403.30 1.282339
403.40 1.282406
403.50 1.282253
403.60 1.281994
403.70 1.281359
403.80 1.281442
403.90 1.281209
404.00 1.280867
404.10 1.280233
404.20 1.280304
404.30 1.280375
404.40 1.279742
404.50 1.279461
404.60 1.279181
404.70 1.279251
404.80 1.27864
404.90 1.27869
405.00 1.278059
405.10 1.277829
405.20 1.277699
405.30 1.277569
405.40 1.277289
405.50 1.277009
405.60 1.276729
405.70 1.27645
405.80 1.27617
405.90 1.275891
406.00 1.275684
406.10 1.275477
406.20 1.275271
406.30 1.275064
406.40 1.274845
406.50 1.274393
406.60 1.274287
406.70 1.273878
406.80 1.273523
406.90 1.27381
407.00 1.273531
407.10 1.273253
407.20 1.272975
407.30 1.272697
407.40 1.272419
407.50 1.272141
407.60 1.271863
407.70 1.271586
407.80 1.271308
407.90 1.271032
408.00 1.270787
408.10 1.270467
408.20 1.270204
408.30 1.270032
408.40 1.26986
408.50 1.269359
408.60 1.269215
408.70 1.269071
408.80 1.268875
408.90 1.268349
409.00 1.268125
409.10 1.267902
409.20 1.267678
409.30 1.267454
409.40 1.267226
409.50 1.26685
409.60 1.266474
409.70 1.266176
409.80 1.26619
409.90 1.266185
410.00 1.265567
410.10 1.26552
410.20 1.265231
410.30 1.264882
410.40 1.264576
410.50 1.26441
410.60 1.264243
410.70 1.264042
410.80 1.263703
410.90 1.263364
411.00 1.263105
411.10 1.262877
411.20 1.262649
411.30 1.262343
411.40 1.261744
411.50 1.261611
411.60 1.261478
411.70 1.261318
411.80 1.261045
411.90 1.260704
412.00 1.260092
412.10 1.260158
412.20 1.260224
412.30 1.259729
412.40 1.259679
412.50 1.259165
412.60 1.259038
412.70 1.258735
412.80 1.258388
412.90 1.258006
413.00 1.258111
413.10 1.25777
413.20 1.257428
413.30 1.257087
413.40 1.256747
413.50 1.256493
413.60 1.256499
413.70 1.256228
413.80 1.255957
413.90 1.255686
414.00 1.255415
414.10 1.255145
414.20 1.254794
414.30 1.254188
414.40 1.254119
414.50 1.253648
414.60 1.253793
414.70 1.253524
414.80 1.253254
414.90 1.252984
415.00 1.252715
415.10 1.252445
415.20 1.252146
415.30 1.251751
415.40 1.251356
415.50 1.250969
415.60 1.250845
415.70 1.250721
415.80 1.250535
415.90 1.250152
416.00 1.24977
416.10 1.249408
416.20 1.249127
416.30 1.248845
416.40 1.248564
416.50 1.248283
416.60 1.248016
416.70 1.247788
416.80 1.247802
416.90 1.24756
417.00 1.247268
417.10 1.24668
417.20 1.246413
417.30 1.24615
417.40 1.24602
417.50 1.24589
417.60 1.245667
417.70 1.24508
417.80 1.244814
417.90 1.244548
418.00 1.244282
418.10 1.244016
418.20 1.24375
418.30 1.2435
418.40 1.243607
418.50 1.243298
418.60 1.242989
418.70 1.242681
418.80 1.242372
418.90 1.242064
419.00 1.241756
419.10 1.241448
419.20 1.241141
419.30 1.240839
419.40 1.240709
419.50 1.24058
419.60 1.240403
419.70 1.240033
419.80 1.239663
419.90 1.239317
420.00 1.239046
420.10 1.238776
420.20 1.238505
420.30 1.238235
420.40 1.237965
420.50 1.237695
420.60 1.237426
420.70 1.237156
420.80 1.236886
420.90 1.236614
421.00 1.236261
421.10 1.235907
421.20 1.235588
421.30 1.235372
421.40 1.235155
421.50 1.234939
421.60 1.234723
421.70 1.234507
421.80 1.234291
421.90 1.234062
422.00 1.233794
422.10 1.233504
422.20 1.233123
422.30 1.232743
422.40 1.232366
422.50 1.232076
422.60 1.231786
422.70 1.231496
422.80 1.231206
422.90 1.230917
423.00 1.230628
423.10 1.230338
423.20 1.230049
423.30 1.22976
423.40 1.229472
423.50 1.229183
423.60 1.228894
423.70 1.228606
423.80 1.228318
423.90 1.22803
424.00 1.227742
424.10 1.227454
424.20 1.227166
424.30 1.226879
424.40 1.227168
424.50 1.226848
424.60 1.226529
424.70 1.226209
424.80 1.225889
424.90 1.22557
425.00 1.225251
