# Version 2.1 - nm, norm@500 to 1, cut digits, bergeron_He_8500_85.dat_8500
# Wavelength(nm)  Flambda(ergs/cm^s/s/nm)
300.00 1.497093
300.10 1.497219
300.20 1.497347
300.30 1.497476
300.40 1.497623
300.50 1.497769
300.60 1.497914
300.70 1.498059
300.80 1.498204
300.90 1.498348
301.00 1.498492
301.10 1.498635
301.20 1.498777
301.30 1.498919
301.40 1.49906
301.50 1.499201
301.60 1.499342
301.70 1.499482
301.80 1.499621
301.90 1.49976
302.00 1.499898
302.10 1.500028
302.20 1.500156
302.30 1.500283
302.40 1.500411
302.50 1.500537
302.60 1.500663
302.70 1.500789
302.80 1.500914
302.90 1.501039
303.00 1.501163
303.10 1.501287
303.20 1.50141
303.30 1.501538
303.40 1.501715
303.50 1.501891
303.60 1.502067
303.70 1.502242
303.80 1.502417
303.90 1.502591
304.00 1.502765
304.10 1.502938
304.20 1.50311
304.30 1.503282
304.40 1.503453
304.50 1.503624
304.60 1.503704
304.70 1.503773
304.80 1.503842
304.90 1.503911
305.00 1.503979
305.10 1.504047
305.20 1.504114
305.30 1.504181
305.40 1.504248
305.50 1.504314
305.60 1.50438
305.70 1.504445
305.80 1.50451
305.90 1.504574
306.00 1.504638
306.10 1.504702
306.20 1.504765
306.30 1.504828
306.40 1.504932
306.50 1.505047
306.60 1.505162
306.70 1.505277
306.80 1.505391
306.90 1.505504
307.00 1.505617
307.10 1.50573
307.20 1.505842
307.30 1.505954
307.40 1.506065
307.50 1.506176
307.60 1.506286
307.70 1.506396
307.80 1.506505
307.90 1.506614
308.00 1.506723
308.10 1.506831
308.20 1.506938
308.30 1.507045
308.40 1.507152
308.50 1.507258
308.60 1.507364
308.70 1.507469
308.80 1.507495
308.90 1.507298
309.00 1.507331
309.10 1.507363
309.20 1.507395
309.30 1.507427
309.40 1.507474
309.50 1.507612
309.60 1.50775
309.70 1.507887
309.80 1.508024
309.90 1.508161
310.00 1.508297
310.10 1.508432
310.20 1.508567
310.30 1.508702
310.40 1.508815
310.50 1.508906
310.60 1.508997
310.70 1.509087
310.80 1.509176
310.90 1.509266
311.00 1.50933
311.10 1.509394
311.20 1.509457
311.30 1.509501
311.40 1.509491
311.50 1.50948
311.60 1.509468
311.70 1.509457
311.80 1.509445
311.90 1.509433
312.00 1.50942
312.10 1.509407
312.20 1.509683
312.30 1.510049
312.40 1.510148
312.50 1.509388
312.60 1.509452
312.70 1.509516
312.80 1.509579
312.90 1.509692
313.00 1.50986
313.10 1.510026
313.20 1.510192
313.30 1.510303
313.40 1.510258
313.50 1.510213
313.60 1.510167
313.70 1.510121
313.80 1.510075
313.90 1.510029
314.00 1.509983
314.10 1.510124
314.20 1.510265
314.30 1.510406
314.40 1.510546
314.50 1.510686
314.60 1.510825
314.70 1.510963
314.80 1.510816
314.90 1.510469
315.00 1.510784
315.10 1.510768
315.20 1.510751
315.30 1.510734
315.40 1.510717
315.50 1.5107
315.60 1.510682
315.70 1.510664
315.80 1.510646
315.90 1.510627
316.00 1.510608
316.10 1.511058
316.20 1.511506
316.30 1.511018
316.40 1.510998
316.50 1.510977
316.60 1.511423
316.70 1.511402
316.80 1.51138
316.90 1.511358
317.00 1.511336
317.10 1.511314
317.20 1.511291
317.30 1.511407
317.40 1.511471
317.50 1.511391
317.60 1.51131
317.70 1.51123
317.80 1.511149
317.90 1.511417
318.00 1.51134
318.10 1.511315
318.20 1.511289
318.30 1.511263
318.40 1.511237
318.50 1.511211
318.60 1.511544
318.70 1.511056
318.80 1.511811
318.90 1.511001
319.00 1.511075
319.10 1.511047
319.20 1.511033
319.30 1.511057
319.40 1.511082
319.50 1.511106
319.60 1.510917
319.70 1.510941
319.80 1.510964
319.90 1.510987
320.00 1.510985
320.10 1.510954
320.20 1.511398
320.30 1.511366
320.40 1.511334
320.50 1.511302
320.60 1.511707
320.70 1.511674
320.80 1.511641
320.90 1.511608
321.00 1.511575
321.10 1.511541
321.20 1.511316
321.30 1.511316
321.40 1.511317
321.50 1.511316
321.60 1.511316
321.70 1.511315
321.80 1.511157
321.90 1.510828
322.00 1.511259
322.10 1.511218
322.20 1.511177
322.30 1.511136
322.40 1.511095
322.50 1.511053
322.60 1.511011
322.70 1.510969
322.80 1.510746
322.90 1.510767
323.00 1.510788
323.10 1.510808
323.20 1.510828
323.30 1.510847
323.40 1.510867
323.50 1.510886
323.60 1.510904
323.70 1.510923
323.80 1.510941
323.90 1.510959
324.00 1.510741
324.10 1.510524
324.20 1.510306
324.30 1.510199
324.40 1.51028
324.50 1.51022
324.60 1.510161
324.70 1.510101
324.80 1.510041
324.90 1.50998
325.00 1.50992
325.10 1.509859
325.20 1.509816
325.30 1.509813
325.40 1.509809
325.50 1.509789
325.60 1.509751
325.70 1.509713
325.80 1.509675
325.90 1.509611
326.00 1.509519
326.10 1.509428
326.20 1.509336
326.30 1.50939
326.40 1.50986
326.50 1.509781
326.60 1.509703
326.70 1.509624
326.80 1.509545
326.90 1.509466
327.00 1.509387
327.10 1.509307
327.20 1.509228
327.30 1.509148
327.40 1.509068
327.50 1.508987
327.60 1.508907
327.70 1.508826
327.80 1.508746
327.90 1.508668
328.00 1.508634
328.10 1.508651
328.20 1.508668
328.30 1.508685
328.40 1.508701
328.50 1.508554
328.60 1.508368
328.70 1.508182
328.80 1.508035
328.90 1.507997
329.00 1.507959
329.10 1.507921
329.20 1.507882
329.30 1.507843
329.40 1.507804
329.50 1.507765
329.60 1.507725
329.70 1.507685
329.80 1.507645
329.90 1.507605
330.00 1.507464
330.10 1.5072
330.20 1.506935
330.30 1.506671
330.40 1.506507
330.50 1.506449
330.60 1.506392
330.70 1.506334
330.80 1.506277
330.90 1.506219
331.00 1.506161
331.10 1.506102
331.20 1.506044
331.30 1.505985
331.40 1.505926
331.50 1.505946
331.60 1.506063
331.70 1.50618
331.80 1.506098
331.90 1.506008
332.00 1.505918
332.10 1.505828
332.20 1.505737
332.30 1.505647
332.40 1.505556
332.50 1.505465
332.60 1.505373
332.70 1.505282
332.80 1.505191
332.90 1.505099
333.00 1.505007
333.10 1.504892
333.20 1.504747
333.30 1.504602
333.40 1.504458
333.50 1.504313
333.60 1.504168
333.70 1.504023
333.80 1.503877
333.90 1.503732
334.00 1.503587
334.10 1.503479
334.20 1.503417
334.30 1.503355
334.40 1.503293
334.50 1.503231
334.60 1.503168
334.70 1.503091
334.80 1.502928
334.90 1.502667
335.00 1.502407
335.10 1.502852
335.20 1.502789
335.30 1.50235
335.40 1.502286
335.50 1.502222
335.60 1.502158
335.70 1.50228
335.80 1.501801
335.90 1.501508
336.00 1.501443
336.10 1.501378
336.20 1.501313
336.30 1.501248
336.40 1.501182
336.50 1.501116
336.60 1.50105
336.70 1.500984
336.80 1.500918
336.90 1.500848
337.00 1.500773
337.10 1.500698
337.20 1.500623
337.30 1.500497
337.40 1.500297
337.50 1.500097
337.60 1.499898
337.70 1.499698
337.80 1.499498
337.90 1.499346
338.00 1.499253
338.10 1.499159
338.20 1.499066
338.30 1.498972
338.40 1.498862
338.50 1.498712
338.60 1.498562
338.70 1.498412
338.80 1.498262
338.90 1.498112
339.00 1.497962
339.10 1.497812
339.20 1.497661
339.30 1.497551
339.40 1.497497
339.50 1.497407
339.60 1.497272
339.70 1.497137
339.80 1.497002
339.90 1.496866
340.00 1.496731
340.10 1.496595
340.20 1.49646
340.30 1.496324
340.40 1.496188
340.50 1.496052
340.60 1.495916
340.70 1.49578
340.80 1.495677
340.90 1.495621
341.00 1.495512
341.10 1.495339
341.20 1.495166
341.30 1.494993
341.40 1.49482
341.50 1.494647
341.60 1.494473
341.70 1.4943
341.80 1.494151
341.90 1.49403
342.00 1.49391
342.10 1.493789
342.20 1.493917
342.30 1.493903
342.40 1.493644
342.50 1.493441
342.60 1.493238
342.70 1.493036
342.80 1.492833
342.90 1.49263
343.00 1.492481
343.10 1.492398
343.20 1.492315
343.30 1.492232
343.40 1.492098
343.50 1.49189
343.60 1.491682
343.70 1.491474
343.80 1.491267
343.90 1.491059
344.00 1.490905
344.10 1.490829
344.20 1.490753
344.30 1.490676
344.40 1.490599
344.50 1.490523
344.60 1.490142
344.70 1.490046
344.80 1.489969
344.90 1.489891
345.00 1.489975
345.10 1.489505
345.20 1.4892
345.30 1.489133
345.40 1.489066
345.50 1.48898
345.60 1.488831
345.70 1.488622
345.80 1.488413
345.90 1.488204
346.00 1.487996
346.10 1.487787
346.20 1.487599
346.30 1.487443
346.40 1.487286
346.50 1.487129
346.60 1.486972
346.70 1.486815
346.80 1.486658
346.90 1.486501
347.00 1.486344
347.10 1.486186
347.20 1.486025
347.30 1.485858
347.40 1.48569
347.50 1.485523
347.60 1.485356
347.70 1.485188
347.80 1.485021
347.90 1.484853
348.00 1.484686
348.10 1.484518
348.20 1.48435
348.30 1.484183
348.40 1.484015
348.50 1.483847
348.60 1.483679
348.70 1.483425
348.80 1.483184
348.90 1.483001
349.00 1.482817
349.10 1.482633
349.20 1.482449
349.30 1.482265
349.40 1.482081
349.50 1.481897
349.60 1.481713
349.70 1.481528
349.80 1.481344
349.90 1.48116
350.00 1.480976
350.10 1.480792
350.20 1.480607
350.30 1.480435
350.40 1.48028
350.50 1.480125
350.60 1.479969
350.70 1.479814
350.80 1.479658
350.90 1.479503
351.00 1.479347
351.10 1.479192
351.20 1.479036
351.30 1.47888
351.40 1.478697
351.50 1.478465
351.60 1.478233
351.70 1.478001
351.80 1.477769
351.90 1.477537
352.00 1.477305
352.10 1.477073
352.20 1.477206
352.30 1.477231
352.40 1.477042
352.50 1.476853
352.60 1.476663
352.70 1.476474
352.80 1.476285
352.90 1.476095
353.00 1.475906
353.10 1.475717
353.20 1.475527
353.30 1.475338
353.40 1.475148
353.50 1.474848
353.60 1.474519
353.70 1.474191
353.80 1.473863
353.90 1.473593
354.00 1.473429
354.10 1.473263
354.20 1.473098
354.30 1.472933
354.40 1.472768
354.50 1.472603
354.60 1.472438
354.70 1.472272
354.80 1.472111
354.90 1.471955
355.00 1.4718
355.10 1.471644
355.20 1.471488
355.30 1.471176
355.40 1.470864
355.50 1.470552
355.60 1.47024
355.70 1.470011
355.80 1.469819
355.90 1.469874
356.00 1.469803
356.10 1.469591
356.20 1.469379
356.30 1.469167
356.40 1.468955
356.50 1.468743
356.60 1.46853
356.70 1.468318
356.80 1.468106
356.90 1.467894
357.00 1.467682
357.10 1.46747
357.20 1.467258
357.30 1.467046
357.40 1.46685
357.50 1.466683
357.60 1.466517
357.70 1.46635
357.80 1.465862
357.90 1.465375
358.00 1.465127
358.10 1.464938
358.20 1.464749
358.30 1.464559
358.40 1.46437
358.50 1.464181
358.60 1.463992
358.70 1.463803
358.80 1.463613
358.90 1.463424
359.00 1.463244
359.10 1.46308
359.20 1.462912
359.30 1.46272
359.40 1.462528
359.50 1.462253
359.60 1.461957
359.70 1.46166
359.80 1.461396
359.90 1.461131
360.00 1.460911
360.10 1.460772
360.20 1.460633
360.30 1.460493
360.40 1.460354
360.50 1.460214
360.60 1.459605
360.70 1.459335
360.80 1.459066
360.90 1.458796
361.00 1.458794
361.10 1.458641
361.20 1.458152
361.30 1.458062
361.40 1.457936
361.50 1.457881
361.60 1.457333
361.70 1.457242
361.80 1.457096
361.90 1.456849
362.00 1.456602
362.10 1.456305
362.20 1.456043
362.30 1.455865
362.40 1.455687
362.50 1.455508
362.60 1.45533
362.70 1.455048
362.80 1.454562
362.90 1.454467
363.00 1.454372
363.10 1.45422
363.20 1.454067
363.30 1.453397
363.40 1.453482
363.50 1.453214
363.60 1.452769
363.70 1.452717
363.80 1.452232
363.90 1.452107
364.00 1.451982
364.10 1.451857
364.20 1.451732
364.30 1.451382
364.40 1.450977
364.50 1.45089
364.60 1.450562
364.70 1.450234
364.80 1.449907
364.90 1.449815
365.00 1.449723
365.10 1.44928
365.20 1.449188
365.30 1.448745
365.40 1.448653
365.50 1.448211
365.60 1.447769
365.70 1.447613
365.80 1.447458
365.90 1.447415
366.00 1.4474
366.10 1.447124
366.20 1.446848
366.30 1.446572
366.40 1.446297
366.50 1.446233
366.60 1.445451
366.70 1.44519
366.80 1.444929
366.90 1.444704
367.00 1.444541
367.10 1.444379
367.20 1.444216
367.30 1.444054
367.40 1.443891
367.50 1.443538
367.60 1.443138
367.70 1.442899
367.80 1.442661
367.90 1.442422
368.00 1.442075
368.10 1.441974
368.20 1.441736
368.30 1.441496
368.40 1.441256
368.50 1.441016
368.60 1.440775
368.70 1.440535
368.80 1.440295
368.90 1.43986
369.00 1.439688
369.10 1.439667
369.20 1.438894
369.30 1.438801
369.40 1.438708
369.50 1.438615
369.60 1.438177
369.70 1.43774
369.80 1.437515
369.90 1.437293
370.00 1.43707
370.10 1.436687
370.20 1.436587
370.30 1.436493
370.40 1.436049
370.50 1.435964
370.60 1.435538
370.70 1.435445
370.80 1.435009
370.90 1.434574
371.00 1.43448
371.10 1.43439
371.20 1.433956
371.30 1.433521
371.40 1.433613
371.50 1.433346
371.60 1.43308
371.70 1.432813
371.80 1.432547
371.90 1.43228
372.00 1.431709
372.10 1.431422
372.20 1.431216
372.30 1.43101
372.40 1.430803
372.50 1.430597
372.60 1.430391
372.70 1.430185
372.80 1.429753
372.90 1.429321
373.00 1.429227
373.10 1.429137
373.20 1.428707
373.30 1.428277
373.40 1.428184
373.50 1.42809
373.60 1.427661
373.70 1.427232
373.80 1.427284
373.90 1.427044
374.00 1.426783
374.10 1.426521
374.20 1.42626
374.30 1.425999
374.40 1.425655
374.50 1.425144
374.60 1.424879
374.70 1.42462
374.80 1.424361
374.90 1.424102
375.00 1.423786
375.10 1.42347
375.20 1.423155
375.30 1.422871
375.40 1.422587
375.50 1.422304
375.60 1.42202
375.70 1.421737
375.80 1.421453
375.90 1.42117
376.00 1.42107
376.10 1.420891
376.20 1.420712
376.30 1.420533
376.40 1.420354
376.50 1.420127
376.60 1.419828
376.70 1.419529
376.80 1.419233
376.90 1.418941
377.00 1.418649
377.10 1.418357
377.20 1.418054
377.30 1.417712
377.40 1.41737
377.50 1.417028
377.60 1.416706
377.70 1.416384
377.80 1.416062
377.90 1.41574
378.00 1.415886
378.10 1.415603
378.20 1.415309
378.30 1.415015
378.40 1.414721
378.50 1.414427
378.60 1.414133
378.70 1.41384
378.80 1.413546
378.90 1.413263
379.00 1.413
379.10 1.412776
379.20 1.412551
379.30 1.412276
379.40 1.411951
379.50 1.411627
379.60 1.411353
379.70 1.411123
379.80 1.410775
379.90 1.410426
380.00 1.410078
380.10 1.409731
380.20 1.409383
380.30 1.409035
380.40 1.408688
380.50 1.408341
380.60 1.408427
380.70 1.408127
380.80 1.407828
380.90 1.407528
381.00 1.407229
381.10 1.406893
381.20 1.406683
381.30 1.406303
381.40 1.405796
381.50 1.405719
381.60 1.405594
381.70 1.405284
381.80 1.404548
381.90 1.404454
382.00 1.40436
382.10 1.403945
382.20 1.403659
382.30 1.403245
382.40 1.402878
382.50 1.402581
382.60 1.402284
382.70 1.402092
382.80 1.401912
382.90 1.401627
383.00 1.401341
383.10 1.401055
383.20 1.40075
383.30 1.400371
383.40 1.400034
383.50 1.399758
383.60 1.399702
383.70 1.399391
383.80 1.399081
383.90 1.39877
384.00 1.39846
384.10 1.398149
384.20 1.397839
384.30 1.397529
384.40 1.397232
384.50 1.396948
384.60 1.396664
384.70 1.39638
384.80 1.396158
384.90 1.396005
385.00 1.395551
385.10 1.395115
385.20 1.395149
385.30 1.394744
385.40 1.394401
385.50 1.394118
385.60 1.393835
385.70 1.393552
385.80 1.393254
385.90 1.3929
386.00 1.392585
386.10 1.392312
386.20 1.392076
386.30 1.391839
386.40 1.391361
386.50 1.390899
386.60 1.390548
386.70 1.390454
386.80 1.390361
386.90 1.389642
387.00 1.389549
387.10 1.389456
387.20 1.388738
387.30 1.388645
387.40 1.38809
387.50 1.388112
387.60 1.387807
387.70 1.387403
387.80 1.386998
387.90 1.386594
388.00 1.386277
388.10 1.386127
388.20 1.386136
388.30 1.385816
388.40 1.385497
388.50 1.38504
388.60 1.384503
388.70 1.384234
388.80 1.384141
388.90 1.384009
389.00 1.383336
389.10 1.383244
389.20 1.382801
389.30 1.382551
389.40 1.382157
389.50 1.381845
389.60 1.381695
389.70 1.381562
389.80 1.381168
389.90 1.380773
390.00 1.380379
390.10 1.379985
390.20 1.379592
390.30 1.379283
390.40 1.379071
390.50 1.378859
390.60 1.378646
390.70 1.378434
390.80 1.378148
390.90 1.377789
391.00 1.377258
391.10 1.376851
391.20 1.376555
391.30 1.376481
391.40 1.376185
391.50 1.375889
391.60 1.375593
391.70 1.375297
391.80 1.375002
391.90 1.374515
392.00 1.374025
392.10 1.373851
392.20 1.37363
392.30 1.373137
392.40 1.372871
392.50 1.372746
392.60 1.372456
392.70 1.371955
392.80 1.371863
392.90 1.371277
393.00 1.370902
393.10 1.370582
393.20 1.370311
393.30 1.369917
393.40 1.369646
393.50 1.369404
393.60 1.369078
393.70 1.369054
393.80 1.368552
393.90 1.368159
394.00 1.367826
394.10 1.367791
394.20 1.367403
394.30 1.367124
394.40 1.36677
394.50 1.366078
394.60 1.366057
394.70 1.365953
394.80 1.365536
394.90 1.365131
395.00 1.36502
395.10 1.364329
395.20 1.363951
395.30 1.363651
395.40 1.363352
395.50 1.363123
395.60 1.36292
395.70 1.362687
395.80 1.362374
395.90 1.362062
396.00 1.361715
396.10 1.361189
396.20 1.361098
396.30 1.360846
396.40 1.36016
396.50 1.359972
396.60 1.359487
396.70 1.359292
396.80 1.358849
396.90 1.358576
397.00 1.358426
397.10 1.358237
397.20 1.357784
397.30 1.357662
397.40 1.357351
397.50 1.357041
397.60 1.356716
397.70 1.356244
397.80 1.355772
397.90 1.355357
398.00 1.355098
398.10 1.354839
398.20 1.35461
398.30 1.354413
398.40 1.354202
398.50 1.353522
398.60 1.353305
398.70 1.352946
398.80 1.352507
398.90 1.352138
399.00 1.351895
399.10 1.35183
399.20 1.351422
399.30 1.351014
399.40 1.350607
399.50 1.3502
399.60 1.34987
399.70 1.349568
399.80 1.349267
399.90 1.348966
400.00 1.348667
400.10 1.348443
400.20 1.34789
400.30 1.347586
400.40 1.347374
400.50 1.347038
400.60 1.346579
400.70 1.346198
400.80 1.346188
400.90 1.345611
401.00 1.345427
401.10 1.345338
401.20 1.344667
401.30 1.344432
401.40 1.344222
401.50 1.343983
401.60 1.343731
401.70 1.343062
401.80 1.342848
401.90 1.342607
402.00 1.342216
402.10 1.342127
402.20 1.34146
402.30 1.341371
402.40 1.340705
402.50 1.340616
402.60 1.340527
402.70 1.339862
402.80 1.339773
402.90 1.339339
403.00 1.338962
403.10 1.338356
403.20 1.338281
403.30 1.33806
403.40 1.337516
403.50 1.337122
403.60 1.336813
403.70 1.336677
403.80 1.336035
403.90 1.336025
404.00 1.335839
404.10 1.335178
404.20 1.334804
404.30 1.33443
404.40 1.334342
404.50 1.333969
404.60 1.333595
404.70 1.333508
404.80 1.332865
404.90 1.332761
405.00 1.332551
405.10 1.332179
405.20 1.331725
405.30 1.331271
405.40 1.330994
405.50 1.330717
405.60 1.33044
405.70 1.330163
405.80 1.329887
405.90 1.32961
406.00 1.329184
406.10 1.328758
406.20 1.328332
406.30 1.327906
406.40 1.32753
406.50 1.327387
406.60 1.327017
406.70 1.326824
406.80 1.326393
406.90 1.325919
407.00 1.325606
407.10 1.325294
407.20 1.324982
407.30 1.32467
407.40 1.324358
407.50 1.324046
407.60 1.323734
407.70 1.323423
407.80 1.323111
407.90 1.322799
408.00 1.322458
408.10 1.322056
408.20 1.321701
408.30 1.321419
408.40 1.321138
408.50 1.320589
408.60 1.320331
408.70 1.320073
408.80 1.319772
408.90 1.319204
409.00 1.318881
409.10 1.318558
409.20 1.318235
409.30 1.317913
409.40 1.317593
409.50 1.317344
409.60 1.317095
409.70 1.316819
409.80 1.316433
409.90 1.31604
410.00 1.315398
410.10 1.31522
410.20 1.314845
410.30 1.314421
410.40 1.314034
410.50 1.313759
410.60 1.313484
410.70 1.313181
410.80 1.312767
410.90 1.312352
411.00 1.312003
411.10 1.311679
411.20 1.311355
411.30 1.311062
411.40 1.310895
411.50 1.310648
411.60 1.310402
411.70 1.310133
411.80 1.309773
411.90 1.309357
412.00 1.308722
412.10 1.3085
412.20 1.308003
412.30 1.307919
412.40 1.307305
412.50 1.307279
412.60 1.307038
412.70 1.306655
412.80 1.306235
412.90 1.305767
413.00 1.305213
413.10 1.304908
413.20 1.304602
413.30 1.304297
413.40 1.303992
413.50 1.303736
413.60 1.303605
413.70 1.303248
413.80 1.302891
413.90 1.302535
414.00 1.302179
414.10 1.301823
414.20 1.301401
414.30 1.300828
414.40 1.300691
414.50 1.300105
414.60 1.300046
414.70 1.299691
414.80 1.299336
414.90 1.298982
415.00 1.298627
415.10 1.298273
415.20 1.297935
415.30 1.297648
415.40 1.297362
415.50 1.297071
415.60 1.296641
415.70 1.296211
415.80 1.295821
415.90 1.295553
416.00 1.295286
416.10 1.295
416.20 1.294637
416.30 1.294274
416.40 1.293911
416.50 1.293549
416.60 1.293198
416.70 1.292839
416.80 1.292218
416.90 1.292137
417.00 1.291517
417.10 1.291444
417.20 1.291094
417.30 1.290741
417.40 1.290313
417.50 1.289884
417.60 1.28951
417.70 1.289345
417.80 1.288996
417.90 1.288647
418.00 1.288299
418.10 1.28795
418.20 1.287602
418.30 1.287246
418.40 1.2867
418.50 1.286375
418.60 1.286051
418.70 1.285726
418.80 1.285402
418.90 1.285078
419.00 1.284754
419.10 1.28443
419.20 1.284106
419.30 1.28378
419.40 1.283356
419.50 1.282932
419.60 1.282542
419.70 1.28229
419.80 1.282038
419.90 1.281763
420.00 1.281412
420.10 1.281062
420.20 1.280712
420.30 1.280362
420.40 1.280012
420.50 1.279662
420.60 1.279313
420.70 1.278964
420.80 1.278615
420.90 1.278264
421.00 1.277847
421.10 1.27743
421.20 1.277041
421.30 1.276735
421.40 1.27643
421.50 1.276125
421.60 1.27582
421.70 1.275515
421.80 1.275211
421.90 1.274896
422.00 1.27455
422.10 1.274185
422.20 1.273747
422.30 1.273309
422.40 1.272875
422.50 1.272537
422.60 1.2722
422.70 1.271863
422.80 1.271526
422.90 1.271189
423.00 1.270852
423.10 1.270515
423.20 1.270179
423.30 1.269843
423.40 1.269507
423.50 1.269171
423.60 1.268836
423.70 1.2685
423.80 1.268165
423.90 1.26783
424.00 1.267495
424.10 1.26716
424.20 1.266825
424.30 1.266491
424.40 1.2661
424.50 1.265713
424.60 1.265327
424.70 1.264941
424.80 1.264555
424.90 1.264169
425.00 1.263783
