# Version 2.1 - nm, norm@500 to 1, cut digits, bergeron_He_4250_90.dat_4250
# Wavelength(nm)  Flambda(ergs/cm^s/s/nm)
300.00 0.08106083
300.10 0.081286
300.20 0.0815114
300.30 0.08173745
300.40 0.0819696
300.50 0.08220142
300.60 0.08243292
300.70 0.08266409
300.80 0.08289493
300.90 0.08312545
301.00 0.08335565
301.10 0.08358552
301.20 0.08381506
301.30 0.08404429
301.40 0.08427319
301.50 0.08450177
301.60 0.08473002
301.70 0.08495796
301.80 0.08518557
301.90 0.08541287
302.00 0.08563984
302.10 0.08587825
302.20 0.08611762
302.30 0.08635665
302.40 0.08659536
302.50 0.08683372
302.60 0.08707176
302.70 0.08730946
302.80 0.08754682
302.90 0.08778386
303.00 0.08802056
303.10 0.08825693
303.20 0.08849297
303.30 0.08872965
303.40 0.0889747
303.50 0.08921941
303.60 0.08946378
303.70 0.0897078
303.80 0.08995149
303.90 0.09019483
304.00 0.09043784
304.10 0.09068051
304.20 0.09092283
304.30 0.09116482
304.40 0.09140648
304.50 0.09164779
304.60 0.09189777
304.70 0.09214841
304.80 0.09239869
304.90 0.09264863
305.00 0.09289822
305.10 0.09314746
305.20 0.09339636
305.30 0.09364491
305.40 0.09389312
305.50 0.09414098
305.60 0.09438849
305.70 0.09463566
305.80 0.09488249
305.90 0.09512898
306.00 0.09537512
306.10 0.09562092
306.20 0.09586638
306.30 0.0961115
306.40 0.09636919
306.50 0.09663038
306.60 0.09689121
306.70 0.09715168
306.80 0.09741179
306.90 0.09767154
307.00 0.09793093
307.10 0.09818996
307.20 0.09844864
307.30 0.09870696
307.40 0.09896492
307.50 0.09922252
307.60 0.09947977
307.70 0.09973666
307.80 0.0999932
307.90 0.1002494
308.00 0.1005052
308.10 0.1007607
308.20 0.1010158
308.30 0.1012706
308.40 0.101525
308.50 0.1017791
308.60 0.1020328
308.70 0.1022862
308.80 0.1025433
308.90 0.1028118
309.00 0.1030749
309.10 0.1033377
309.20 0.1036002
309.30 0.1038623
309.40 0.1041251
309.50 0.1043943
309.60 0.1046631
309.70 0.1049316
309.80 0.1051996
309.90 0.1054674
310.00 0.1057347
310.10 0.1060017
310.20 0.1062683
310.30 0.1065346
310.40 0.1068034
310.50 0.107075
310.60 0.1073462
310.70 0.1076171
310.80 0.1078876
310.90 0.1081577
311.00 0.1084294
311.10 0.1087008
311.20 0.1089719
311.30 0.1092446
311.40 0.1095227
311.50 0.1098005
311.60 0.1100778
311.70 0.1103548
311.80 0.1106314
311.90 0.1109077
312.00 0.1111835
312.10 0.111459
312.20 0.1117337
312.30 0.112
312.40 0.1122645
312.50 0.1125644
312.60 0.1128394
312.70 0.1131141
312.80 0.1133883
312.90 0.1136675
313.00 0.1139519
313.10 0.114236
313.20 0.1145197
313.30 0.1148033
313.40 0.1150877
313.50 0.1153716
313.60 0.1156552
313.70 0.1159384
313.80 0.1162212
313.90 0.1165036
314.00 0.1167856
314.10 0.1170733
314.20 0.1173606
314.30 0.1176475
314.40 0.117934
314.50 0.1182201
314.60 0.1185059
314.70 0.1187912
314.80 0.1190728
314.90 0.1193532
315.00 0.119643
315.10 0.1199365
315.20 0.1202296
315.30 0.1205223
315.40 0.1208147
315.50 0.1211066
315.60 0.1213982
315.70 0.1216916
315.80 0.1219846
315.90 0.1222772
316.00 0.1225694
316.10 0.1228545
316.20 0.1231392
316.30 0.1234369
316.40 0.1237343
316.50 0.1240312
316.60 0.1243278
316.70 0.1246239
316.80 0.1249197
316.90 0.125215
317.00 0.12551
317.10 0.1258045
317.20 0.1260987
317.30 0.1264023
317.40 0.1267051
317.50 0.1270065
317.60 0.1273076
317.70 0.1276082
317.80 0.1279085
317.90 0.1282124
318.00 0.1285113
318.10 0.1288151
318.20 0.1291185
318.30 0.1294216
318.40 0.1297242
318.50 0.1300264
318.60 0.1303316
318.70 0.1306198
318.80 0.1309366
318.90 0.1312478
319.00 0.1315348
319.10 0.1318477
319.20 0.132159
319.30 0.1324663
319.40 0.1327731
319.50 0.1330796
319.60 0.1333806
319.70 0.1336931
319.80 0.1340053
319.90 0.134317
320.00 0.1346273
320.10 0.1349362
320.20 0.1352402
320.30 0.1355526
320.40 0.1358549
320.50 0.1361673
320.60 0.1365002
320.70 0.1368066
320.80 0.1371156
320.90 0.1374277
321.00 0.1377393
321.10 0.1380505
321.20 0.1383803
321.30 0.138699
321.40 0.1390173
321.50 0.1393352
321.60 0.1396526
321.70 0.1399696
321.80 0.1402859
321.90 0.1406013
322.00 0.1409078
322.10 0.141229
322.20 0.1415497
322.30 0.14187
322.40 0.1421899
322.50 0.1425094
322.60 0.1428285
322.70 0.1431471
322.80 0.1434807
322.90 0.1438056
323.00 0.1441302
323.10 0.1444542
323.20 0.1447779
323.30 0.1451011
323.40 0.1454239
323.50 0.1457463
323.60 0.1460683
323.70 0.1463898
323.80 0.1467109
323.90 0.1470316
324.00 0.1473579
324.10 0.1476837
324.20 0.1480091
324.30 0.1483365
324.40 0.1486701
324.50 0.1490033
324.60 0.1493361
324.70 0.1496684
324.80 0.1500003
324.90 0.1503318
325.00 0.1506628
325.10 0.1509934
325.20 0.151324
325.30 0.1516552
325.40 0.151986
325.50 0.152318
325.60 0.1526517
325.70 0.152985
325.80 0.1533179
325.90 0.1536525
326.00 0.1539892
326.10 0.1543254
326.20 0.1546611
326.30 0.1549939
326.40 0.1553188
326.50 0.1556624
326.60 0.1560055
326.70 0.1563482
326.80 0.1566905
326.90 0.1570323
327.00 0.1573736
327.10 0.1577145
327.20 0.1580549
327.30 0.1583949
327.40 0.1587345
327.50 0.1590736
327.60 0.1594123
327.70 0.1597505
327.80 0.1600883
327.90 0.1604263
328.00 0.1607666
328.10 0.1611093
328.20 0.1614515
328.30 0.1617932
328.40 0.1621346
328.50 0.1624826
328.60 0.1628318
328.70 0.1631806
328.80 0.1635301
328.90 0.1638824
329.00 0.1642342
329.10 0.1645856
329.20 0.1649365
329.30 0.1652869
329.40 0.1656369
329.50 0.1659865
329.60 0.1663355
329.70 0.1666842
329.80 0.1670323
329.90 0.1673801
330.00 0.1677294
330.10 0.1680807
330.20 0.1684315
330.30 0.168782
330.40 0.1691353
330.50 0.1694919
330.60 0.169848
330.70 0.1702037
330.80 0.1705589
330.90 0.1709136
331.00 0.1712679
331.10 0.1716217
331.20 0.1719751
331.30 0.172328
331.40 0.1726805
331.50 0.1730346
331.60 0.173391
331.70 0.173747
331.80 0.1741111
331.90 0.1744751
332.00 0.1748387
332.10 0.1752017
332.20 0.1755643
332.30 0.1759265
332.40 0.1762882
332.50 0.1766494
332.60 0.1770101
332.70 0.1773704
332.80 0.1777302
332.90 0.1780895
333.00 0.1784484
333.10 0.1788118
333.20 0.1791807
333.30 0.1795492
333.40 0.1799172
333.50 0.1802847
333.60 0.1806518
333.70 0.1810183
333.80 0.1813845
333.90 0.1817501
334.00 0.1821153
334.10 0.1824814
334.20 0.1828488
334.30 0.1832158
334.40 0.1835823
334.50 0.1839483
334.60 0.1843139
334.70 0.1846828
334.80 0.1850564
334.90 0.18543
335.00 0.1858031
335.10 0.1861762
335.20 0.1865429
335.30 0.1869091
335.40 0.1872898
335.50 0.187664
335.60 0.1880288
335.70 0.1883985
335.80 0.1887743
335.90 0.1891522
336.00 0.189533
336.10 0.1899133
336.20 0.190293
336.30 0.1906714
336.40 0.1910483
336.50 0.1914246
336.60 0.1918005
336.70 0.1921759
336.80 0.1925508
336.90 0.1929292
337.00 0.1933119
337.10 0.1936942
337.20 0.194076
337.30 0.1944566
337.40 0.1948359
337.50 0.1952147
337.60 0.1955929
337.70 0.1959707
337.80 0.1963481
337.90 0.1967285
338.00 0.197113
338.10 0.197497
338.20 0.1978804
338.30 0.1982634
338.40 0.198648
338.50 0.1990371
338.60 0.1994257
338.70 0.1998139
338.80 0.2002015
338.90 0.2005887
339.00 0.2009753
339.10 0.2013615
339.20 0.2017472
339.30 0.2021354
339.40 0.2025275
339.50 0.2029207
339.60 0.2033152
339.70 0.2037092
339.80 0.2041027
339.90 0.2044957
340.00 0.2048883
340.10 0.2052803
340.20 0.2056718
340.30 0.2060629
340.40 0.2064534
340.50 0.2068435
340.60 0.207233
340.70 0.2076221
340.80 0.2080093
340.90 0.2083939
341.00 0.2087853
341.10 0.2091848
341.20 0.2095838
341.30 0.2099823
341.40 0.2103804
341.50 0.2107779
341.60 0.2111749
341.70 0.2115714
341.80 0.2119695
341.90 0.2123696
342.00 0.2127692
342.10 0.2131682
342.20 0.2135653
342.30 0.2139655
342.40 0.2143673
342.50 0.2147681
342.60 0.2151684
342.70 0.2155681
342.80 0.2159674
342.90 0.2163662
343.00 0.2167674
343.10 0.2171715
343.20 0.2175752
343.30 0.2179784
343.40 0.2183816
343.50 0.2187853
343.60 0.2191884
343.70 0.219591
343.80 0.2199932
343.90 0.2203948
344.00 0.2207998
344.10 0.2212099
344.20 0.2216194
344.30 0.2220284
344.40 0.2224346
344.50 0.222837
344.60 0.2232522
344.70 0.2236535
344.80 0.2240549
344.90 0.2244665
345.00 0.2248863
345.10 0.2252856
345.20 0.2256858
345.30 0.2260875
345.40 0.2264886
345.50 0.2269419
345.60 0.227408
345.70 0.2278005
345.80 0.2281925
345.90 0.228584
346.00 0.2289751
346.10 0.2293656
346.20 0.229771
346.30 0.2301978
346.40 0.2306241
346.50 0.2310499
346.60 0.2314752
346.70 0.2318999
346.80 0.2323241
346.90 0.2327478
347.00 0.2331709
347.10 0.2335936
347.20 0.234018
347.30 0.2344453
347.40 0.234872
347.50 0.2352982
347.60 0.2357239
347.70 0.236149
347.80 0.2365737
347.90 0.2369978
348.00 0.2374213
348.10 0.2378444
348.20 0.2382669
348.30 0.2386889
348.40 0.2391103
348.50 0.2395313
348.60 0.2399517
348.70 0.2403207
348.80 0.2407074
348.90 0.2411427
349.00 0.2415775
349.10 0.2420117
349.20 0.2424454
349.30 0.2428786
349.40 0.2433112
349.50 0.2437433
349.60 0.2441748
349.70 0.2446059
349.80 0.2450364
349.90 0.2454663
350.00 0.2458958
350.10 0.2463247
350.20 0.246753
350.30 0.2471831
350.40 0.2476157
350.50 0.2480478
350.60 0.2484794
350.70 0.2489105
350.80 0.249341
350.90 0.249771
351.00 0.2502004
351.10 0.2506294
351.20 0.2510578
351.30 0.2514856
351.40 0.2519069
351.50 0.2523169
351.60 0.2527264
351.70 0.2531353
351.80 0.2535438
351.90 0.2539518
352.00 0.2543592
352.10 0.2547662
352.20 0.2551994
352.30 0.2556415
352.40 0.2560921
352.50 0.2565422
352.60 0.2569917
352.70 0.2574407
352.80 0.2578892
352.90 0.2583371
353.00 0.2587844
353.10 0.2592312
353.20 0.2596775
353.30 0.2601232
353.40 0.2605683
353.50 0.2610037
353.60 0.2614363
353.70 0.2618684
353.80 0.2622999
353.90 0.2627378
354.00 0.2631877
354.10 0.263637
354.20 0.2640858
354.30 0.264534
354.40 0.2649816
354.50 0.2654288
354.60 0.2658753
354.70 0.2663213
354.80 0.2667605
354.90 0.2671901
355.00 0.2676191
355.10 0.2680476
355.20 0.2684756
355.30 0.2689164
355.40 0.2693568
355.50 0.2697966
355.60 0.2702358
355.70 0.2707067
355.80 0.2711916
355.90 0.2715829
356.00 0.2719987
356.10 0.2724616
356.20 0.272924
356.30 0.2733857
356.40 0.273847
356.50 0.2743076
356.60 0.2747677
356.70 0.2752272
356.80 0.2756862
356.90 0.2761446
357.00 0.2766025
357.10 0.2770598
357.20 0.2775166
357.30 0.2779728
357.40 0.278411
357.50 0.2788178
357.60 0.2792241
357.70 0.2796299
357.80 0.2801407
357.90 0.2806509
358.00 0.2811088
358.10 0.2815533
358.20 0.2819972
358.30 0.2824406
358.40 0.2828835
358.50 0.2833258
358.60 0.2837676
358.70 0.2842088
358.80 0.2846496
358.90 0.2850897
359.00 0.2855493
359.10 0.2860436
359.20 0.2865337
359.30 0.2869989
359.40 0.2874635
359.50 0.2879031
359.60 0.288336
359.70 0.2887684
359.80 0.2892362
359.90 0.2897034
360.00 0.2901663
360.10 0.2906219
360.20 0.2910769
360.30 0.2915314
360.40 0.2919853
360.50 0.2924387
360.60 0.2929185
360.70 0.293375
360.80 0.2938309
360.90 0.2942863
361.00 0.2947835
361.10 0.2952248
361.20 0.2956328
361.30 0.2961682
361.40 0.2967134
361.50 0.297073
361.60 0.2976641
361.70 0.298115
361.80 0.2985746
361.90 0.29905
362.00 0.2995249
362.10 0.2999423
362.20 0.3003666
362.30 0.3008286
362.40 0.30129
362.50 0.3017509
362.60 0.3022113
362.70 0.3027367
362.80 0.3032269
362.90 0.3036682
363.00 0.3041089
363.10 0.3045917
363.20 0.3050744
363.30 0.3054432
363.40 0.3059865
363.50 0.3065291
363.60 0.3068681
363.70 0.3073644
363.80 0.307849
363.90 0.3083072
364.00 0.3087648
364.10 0.3092219
364.20 0.3096784
364.30 0.310173
364.40 0.3106765
364.50 0.3111189
364.60 0.311619
364.70 0.3121186
364.80 0.3126175
364.90 0.313051
365.00 0.3134839
365.10 0.3140169
365.20 0.3144487
365.30 0.3149805
365.40 0.3154112
365.50 0.3159419
365.60 0.3164719
365.70 0.3169374
365.80 0.3174024
365.90 0.3178911
366.00 0.3183853
366.10 0.3188511
366.20 0.3193162
366.30 0.3197809
366.40 0.3202449
366.50 0.320708
366.60 0.3211385
366.70 0.3216439
366.80 0.3221486
366.90 0.3226404
367.00 0.3231098
367.10 0.3235786
367.20 0.3240468
367.30 0.3245145
367.40 0.3249816
367.50 0.3254634
367.60 0.3259484
367.70 0.3264503
367.80 0.3269516
367.90 0.3274523
368.00 0.3279159
368.10 0.3284237
368.20 0.3288949
368.30 0.3293646
368.40 0.3298338
368.50 0.3303025
368.60 0.3307706
368.70 0.3312381
368.80 0.3317051
368.90 0.3321925
369.00 0.332676
369.10 0.3331488
369.20 0.3337626
369.30 0.3342378
369.40 0.3347126
369.50 0.3351867
369.60 0.3356896
369.70 0.336192
369.80 0.3366472
369.90 0.3371014
370.00 0.3375551
370.10 0.3380133
370.20 0.3385159
370.30 0.3390182
370.40 0.3395218
370.50 0.3400229
370.60 0.3405235
370.70 0.3410283
370.80 0.3415242
370.90 0.3420195
371.00 0.3425211
371.10 0.3430221
371.20 0.3435157
371.30 0.3440087
371.40 0.3444672
371.50 0.3449699
371.60 0.345472
371.70 0.3459735
371.80 0.3464744
371.90 0.3469748
372.00 0.3474047
372.10 0.3477718
372.20 0.3482954
372.30 0.3488183
372.40 0.3493407
372.50 0.3498624
372.60 0.3503835
372.70 0.350904
372.80 0.3513884
372.90 0.3518722
373.00 0.3523621
373.10 0.3528514
373.20 0.3533369
373.30 0.3538217
373.40 0.354306
373.50 0.3547897
373.60 0.3552729
373.70 0.3557554
373.80 0.3563095
373.90 0.3567189
374.00 0.3572477
374.10 0.357776
374.20 0.3583036
374.30 0.3588306
374.40 0.3592373
374.50 0.3597777
374.60 0.3602594
374.70 0.3607379
374.80 0.3612159
374.90 0.3616932
375.00 0.3622002
375.10 0.3627066
375.20 0.3632124
375.30 0.3637266
375.40 0.3642403
375.50 0.3647534
375.60 0.3652658
375.70 0.3657777
375.80 0.366289
375.90 0.3667997
376.00 0.3671685
376.10 0.3676747
376.20 0.3681816
376.30 0.368688
376.40 0.3691938
376.50 0.3697058
376.60 0.3702273
376.70 0.3707482
376.80 0.3712625
376.90 0.3717702
377.00 0.3722774
377.10 0.3727839
377.20 0.3732902
377.30 0.3737972
377.40 0.3743036
377.50 0.3748094
377.60 0.3753066
377.70 0.3758032
377.80 0.3762993
377.90 0.3767947
378.00 0.3773785
378.10 0.3778764
378.20 0.3783716
378.30 0.3788663
378.40 0.3793603
378.50 0.3798538
378.60 0.3803467
378.70 0.380839
378.80 0.3813307
378.90 0.3818219
379.00 0.3823125
379.10 0.3828579
379.20 0.3834026
379.30 0.3839347
379.40 0.3844541
379.50 0.384973
379.60 0.3854532
379.70 0.3858968
379.80 0.386418
379.90 0.3869386
380.00 0.3874586
380.10 0.3879779
380.20 0.3884967
380.30 0.3890149
380.40 0.3895325
380.50 0.3900495
380.60 0.3905087
380.70 0.3910191
380.80 0.3915289
380.90 0.3920381
381.00 0.3925467
381.10 0.3930338
381.20 0.3935715
381.30 0.3940638
381.40 0.3945719
381.50 0.3951217
381.60 0.3956781
381.70 0.3962256
381.80 0.3966114
381.90 0.3972318
382.00 0.3976677
382.10 0.3981949
382.20 0.398795
382.30 0.3992292
382.40 0.3997066
382.50 0.4002489
382.60 0.4007907
382.70 0.4013343
382.80 0.4018652
382.90 0.4023808
383.00 0.4028957
383.10 0.4034101
383.20 0.4039203
383.30 0.4044161
383.40 0.4049419
383.50 0.4055129
383.60 0.4059157
383.70 0.4064488
383.80 0.4069812
383.90 0.4075131
384.00 0.4080443
384.10 0.4085749
384.20 0.4091049
384.30 0.4096343
384.40 0.4101521
384.50 0.4106582
384.60 0.4111637
384.70 0.4116687
384.80 0.412155
384.90 0.4126238
385.00 0.4131867
385.10 0.4137465
385.20 0.4142256
385.30 0.4147448
385.40 0.4152756
385.50 0.415818
385.60 0.4163598
385.70 0.4169009
385.80 0.4174376
385.90 0.4179591
386.00 0.4184306
386.10 0.4188638
386.20 0.4194112
386.30 0.4199579
386.40 0.4204777
386.50 0.4210253
386.60 0.4215285
386.70 0.4220734
386.80 0.4225727
386.90 0.4230716
387.00 0.4236684
387.10 0.424166
387.20 0.4246852
387.30 0.4251595
387.40 0.4256531
387.50 0.4262808
387.60 0.4267867
387.70 0.4272808
387.80 0.4277744
387.90 0.4282674
388.00 0.4287842
388.10 0.4293617
388.20 0.4299609
388.30 0.4304741
388.40 0.4309868
388.50 0.4315149
388.60 0.4320601
388.70 0.4325406
388.80 0.4330181
388.90 0.4335164
389.00 0.4340431
389.10 0.4346371
389.20 0.4352159
389.30 0.4357472
389.40 0.4362496
389.50 0.4367584
389.60 0.4372939
389.70 0.4378669
389.80 0.4383933
389.90 0.4389191
390.00 0.4394443
390.10 0.4399689
390.20 0.440493
390.30 0.4410142
390.40 0.4415324
390.50 0.4420501
390.60 0.4425671
390.70 0.4430835
390.80 0.4435756
390.90 0.4440434
391.00 0.444562
391.10 0.4451013
391.20 0.4456782
391.30 0.4462959
391.40 0.4467979
391.50 0.4472993
391.60 0.4478002
391.70 0.4483005
391.80 0.4488002
391.90 0.449341
392.00 0.4499039
392.10 0.4504302
392.20 0.4509678
392.30 0.4515373
392.40 0.4520253
392.50 0.4525249
392.60 0.4531651
392.70 0.4536305
392.80 0.4541519
392.90 0.4547579
393.00 0.455266
393.10 0.455781
393.20 0.4563064
393.30 0.4568552
393.40 0.4573766
393.50 0.4578689
393.60 0.4583997
393.70 0.4589656
393.80 0.459417
393.90 0.4599622
394.00 0.4605121
394.10 0.4610927
394.20 0.4616479
394.30 0.4621834
394.40 0.4626805
394.50 0.4632371
394.60 0.4637727
394.70 0.464312
394.80 0.4648667
394.90 0.4654191
395.00 0.4659246
395.10 0.4664915
395.20 0.4669916
395.30 0.4674827
395.40 0.4679732
395.50 0.4684929
395.60 0.469023
395.70 0.4695638
395.80 0.4701347
395.90 0.470705
396.00 0.4712584
396.10 0.4716852
396.20 0.4722166
396.30 0.4727704
396.40 0.473386
396.50 0.4738579
396.60 0.4744444
396.70 0.4750072
396.80 0.4755157
396.90 0.4760703
397.00 0.4764946
397.10 0.4771057
397.20 0.4776981
397.30 0.478188
397.40 0.4786956
397.50 0.4792026
397.60 0.4797122
397.70 0.4802533
397.80 0.4807938
397.90 0.4813352
398.00 0.48188
398.10 0.4824243
398.20 0.4829572
398.30 0.4834775
398.40 0.4839977
398.50 0.4845349
398.60 0.4851653
398.70 0.48571
398.80 0.4862242
398.90 0.4867351
399.00 0.4872405
399.10 0.4879085
399.20 0.4884366
399.30 0.4889642
399.40 0.4894912
399.50 0.4900177
399.60 0.490555
399.70 0.491096
399.80 0.4916363
399.90 0.4921761
400.00 0.492715
400.10 0.4932426
400.20 0.4937252
400.30 0.4942641
400.40 0.4948113
400.50 0.495311
400.60 0.4959477
400.70 0.4964524
400.80 0.4970176
400.90 0.4975775
401.00 0.4981026
401.10 0.4986101
401.20 0.4991102
401.30 0.4996279
401.40 0.5001747
401.50 0.5007273
401.60 0.5012782
401.70 0.5017964
401.80 0.5024063
401.90 0.5029432
402.00 0.5034378
402.10 0.5039935
402.20 0.5045942
402.30 0.5050804
402.40 0.5055708
402.50 0.5061401
402.60 0.5067433
402.70 0.5072926
402.80 0.5078679
402.90 0.5083764
403.00 0.5088678
403.10 0.5094248
403.20 0.5100205
403.30 0.5105292
403.40 0.5109996
403.50 0.5115823
403.60 0.512186
403.70 0.5126877
403.80 0.5132793
403.90 0.5137731
404.00 0.5142534
404.10 0.5147962
404.20 0.515363
404.30 0.5159291
404.40 0.5165095
404.50 0.5170594
404.60 0.5175417
404.70 0.5180234
404.80 0.5186104
404.90 0.519149
405.00 0.5196985
405.10 0.520272
405.20 0.5208327
405.30 0.5213927
405.40 0.5219248
405.50 0.5224564
405.60 0.5229874
405.70 0.5235178
405.80 0.5240476
405.90 0.5245768
406.00 0.5251375
406.10 0.5256976
406.20 0.526257
406.30 0.5268159
406.40 0.5273658
406.50 0.5278234
406.60 0.5284544
406.70 0.5289654
406.80 0.5294656
406.90 0.5299694
407.00 0.5305191
407.10 0.5310683
407.20 0.5316169
407.30 0.5321648
407.40 0.5327122
407.50 0.5332589
407.60 0.5338051
407.70 0.5343506
407.80 0.5348956
407.90 0.5354396
408.00 0.5359701
408.10 0.5365027
408.20 0.5370726
408.30 0.5376486
408.40 0.538224
408.50 0.5386694
408.60 0.5392402
408.70 0.5398104
408.80 0.5403695
408.90 0.5408658
409.00 0.5414329
409.10 0.5419993
409.20 0.5425651
409.30 0.5431304
409.40 0.5436938
409.50 0.5442201
409.60 0.5447459
409.70 0.5452749
409.80 0.545819
409.90 0.5463615
410.00 0.5468701
410.10 0.5474014
410.20 0.5479421
410.30 0.5484846
410.40 0.5490337
410.50 0.5496046
410.60 0.5501748
410.70 0.5507315
410.80 0.5512361
410.90 0.5517402
411.00 0.5523045
411.10 0.5528907
411.20 0.5534762
411.30 0.554053
411.40 0.5545961
411.50 0.5551107
411.60 0.5556248
411.70 0.5561399
411.80 0.5566613
411.90 0.557182
412.00 0.5578603
412.10 0.5583798
412.20 0.5588988
412.30 0.5594212
412.40 0.5599578
412.50 0.5604748
412.60 0.5611041
412.70 0.56165
412.80 0.5621747
412.90 0.5626969
413.00 0.5632248
413.10 0.5637636
413.20 0.5643017
413.30 0.5648393
413.40 0.5653762
413.50 0.5659142
413.60 0.5664593
413.70 0.5670088
413.80 0.5675578
413.90 0.5681061
414.00 0.5686632
414.10 0.5692495
414.20 0.5698164
414.30 0.5703232
414.40 0.5708294
414.50 0.5714842
414.60 0.5719965
414.70 0.572501
414.80 0.5730237
414.90 0.5736051
415.00 0.5741858
415.10 0.5747659
415.20 0.5753378
415.30 0.5758849
415.40 0.5764315
415.50 0.5769761
415.60 0.5774782
415.70 0.5779798
415.80 0.57849
415.90 0.5790285
416.00 0.5795665
416.10 0.5801117
416.20 0.5806876
416.30 0.5812629
416.40 0.5818375
416.50 0.5824092
416.60 0.5829029
416.70 0.5834076
416.80 0.5840463
416.90 0.5845351
417.00 0.5851027
417.10 0.5856741
