# Version 2.1 - nm, norm@500 to 1, cut digits, bergeron_He_3750_90.dat_3750
# Wavelength(nm)  Flambda(ergs/cm^s/s/nm)
300.00 0.03340607
300.10 0.03352174
300.20 0.0336375
300.30 0.03375391
300.40 0.03387556
300.50 0.03399703
300.60 0.03411834
300.70 0.03423948
300.80 0.03436045
300.90 0.03448125
301.00 0.03460188
301.10 0.03472235
301.20 0.03484265
301.30 0.03496278
301.40 0.03508274
301.50 0.03520254
301.60 0.03532217
301.70 0.03544163
301.80 0.03556093
301.90 0.03568006
302.00 0.03579902
302.10 0.03592403
302.20 0.03604956
302.30 0.03617491
302.40 0.03630008
302.50 0.03642508
302.60 0.03654991
302.70 0.03667457
302.80 0.03679905
302.90 0.03692337
303.00 0.03704751
303.10 0.03717147
303.20 0.03729527
303.30 0.03741956
303.40 0.03754966
303.50 0.03767958
303.60 0.03780932
303.70 0.03793888
303.80 0.03806826
303.90 0.03819746
304.00 0.03832649
304.10 0.03845534
304.20 0.038584
304.30 0.0387125
304.40 0.03884081
304.50 0.03896895
304.60 0.03910397
304.70 0.03923959
304.80 0.03937502
304.90 0.03951027
305.00 0.03964533
305.10 0.03978021
305.20 0.0399149
305.30 0.0400494
305.40 0.04018372
305.50 0.04031786
305.60 0.04045181
305.70 0.04058558
305.80 0.04071916
305.90 0.04085256
306.00 0.04098578
306.10 0.04111882
306.20 0.04125167
306.30 0.04138434
306.40 0.04152524
306.50 0.04166845
306.60 0.04181147
306.70 0.04195429
306.80 0.04209691
306.90 0.04223935
307.00 0.04238158
307.10 0.04252363
307.20 0.04266547
307.30 0.04280713
307.40 0.04294859
307.50 0.04308986
307.60 0.04323094
307.70 0.04337182
307.80 0.04351251
307.90 0.04365301
308.00 0.04379332
308.10 0.04393344
308.20 0.04407336
308.30 0.0442131
308.40 0.04435264
308.50 0.044492
308.60 0.04463116
308.70 0.04477014
308.80 0.04491037
308.90 0.04505453
309.00 0.04520181
309.10 0.04534889
309.20 0.04549577
309.30 0.04564245
309.40 0.04578941
309.50 0.04593912
309.60 0.04608862
309.70 0.04623791
309.80 0.04638701
309.90 0.0465359
310.00 0.04668459
310.10 0.04683308
310.20 0.04698137
310.30 0.04712946
310.40 0.04727993
310.50 0.047433
310.60 0.04758585
310.70 0.04773851
310.80 0.04789095
310.90 0.04804319
311.00 0.04819495
311.10 0.04834651
311.20 0.04849787
311.30 0.04865053
311.40 0.04880731
311.50 0.04896388
311.60 0.04912023
311.70 0.04927638
311.80 0.04943231
311.90 0.04958803
312.00 0.04974355
312.10 0.04989885
312.20 0.05005338
312.30 0.05021196
312.40 0.05037197
312.50 0.05053253
312.60 0.05069185
312.70 0.05085095
312.80 0.05100984
312.90 0.05116931
313.00 0.05132945
313.10 0.05148936
313.20 0.05164907
313.30 0.05180961
313.40 0.05197295
313.50 0.05213608
313.60 0.05229898
313.70 0.05246166
313.80 0.05262413
313.90 0.05278638
314.00 0.05294841
314.10 0.05311409
314.20 0.05327955
314.30 0.05344478
314.40 0.05360979
314.50 0.05377459
314.60 0.05393916
314.70 0.05410351
314.80 0.05426918
314.90 0.05443725
315.00 0.0546032
315.10 0.05477229
315.20 0.05494115
315.30 0.05510979
315.40 0.0552782
315.50 0.05544639
315.60 0.05561435
315.70 0.0557863
315.80 0.05595801
315.90 0.0561295
316.00 0.05630075
316.10 0.05647358
316.20 0.05664618
316.30 0.05681495
316.40 0.05698709
316.50 0.05716259
316.60 0.05733427
316.70 0.0575093
316.80 0.0576841
316.90 0.05785867
317.00 0.05803301
317.10 0.05820711
317.20 0.05838098
317.30 0.05855737
317.40 0.05873426
317.50 0.05891301
317.60 0.05909152
317.70 0.0592698
317.80 0.05944784
317.90 0.05962551
318.00 0.05980581
318.10 0.05998469
318.20 0.06016333
318.30 0.06034174
318.40 0.06052083
318.50 0.06070231
318.60 0.0608817
318.70 0.06106376
318.80 0.06124487
318.90 0.06143104
319.00 0.06161315
319.10 0.06179319
319.20 0.06197436
319.30 0.06215917
319.40 0.06234375
319.50 0.06252808
319.60 0.06271276
319.70 0.06289846
319.80 0.06308392
319.90 0.06326913
320.00 0.06345575
320.10 0.06364391
320.20 0.06383124
320.30 0.06401948
320.40 0.06420969
320.50 0.06439406
320.60 0.06458266
320.70 0.06477283
320.80 0.06496359
320.90 0.065155
321.00 0.06534616
321.10 0.06553707
321.20 0.06572611
321.30 0.0659187
321.40 0.06611105
321.50 0.06630314
321.60 0.06649498
321.70 0.06668656
321.80 0.06688088
321.90 0.06707817
322.00 0.06727144
322.10 0.06746817
322.20 0.06766464
322.30 0.06786086
322.40 0.06805682
322.50 0.06825253
322.60 0.06844798
322.70 0.06864317
322.80 0.06884308
322.90 0.06904576
323.00 0.06924816
323.10 0.06945031
323.20 0.06965219
323.30 0.0698538
323.40 0.07005516
323.50 0.07025625
323.60 0.07045708
323.70 0.07065765
323.80 0.07085796
323.90 0.07105801
324.00 0.07125195
324.10 0.07144565
324.20 0.07163909
324.30 0.07183886
324.40 0.0720515
324.50 0.07225785
324.60 0.07246393
324.70 0.07266974
324.80 0.07287528
324.90 0.07308056
325.00 0.07328557
325.10 0.07349032
325.20 0.0736982
325.30 0.07391302
325.40 0.07412756
325.50 0.07434016
325.60 0.07455047
325.70 0.0747605
325.80 0.07497025
325.90 0.07518017
326.00 0.07539027
326.10 0.0756001
326.20 0.07580966
326.30 0.07602205
326.40 0.07624298
326.50 0.07646076
326.60 0.07667825
326.70 0.07689547
326.80 0.0771124
326.90 0.07732905
327.00 0.07754543
327.10 0.07776152
327.20 0.07797734
327.30 0.07819288
327.40 0.07840814
327.50 0.07862313
327.60 0.07883783
327.70 0.07905226
327.80 0.07926642
327.90 0.07947894
328.00 0.07968961
328.10 0.07989985
328.20 0.08010982
328.30 0.08031952
328.40 0.08052894
328.50 0.08075676
328.60 0.08098865
328.70 0.08122025
328.80 0.08145023
328.90 0.08167617
329.00 0.08190181
329.10 0.08212717
329.20 0.08235224
329.30 0.08257702
329.40 0.08280151
329.50 0.08302572
329.60 0.08324964
329.70 0.08347327
329.80 0.08369661
329.90 0.08391967
330.00 0.08414639
330.10 0.08437765
330.20 0.08460861
330.30 0.08483927
330.40 0.08506898
330.50 0.08529768
330.60 0.08552608
330.70 0.08575419
330.80 0.08598201
330.90 0.08620954
331.00 0.08643678
331.10 0.08666373
331.20 0.08689039
331.30 0.08711676
331.40 0.08734284
331.50 0.08757323
331.60 0.08780896
331.70 0.08804439
331.80 0.08828562
331.90 0.0885268
332.00 0.08876767
332.10 0.08900824
332.20 0.08924851
332.30 0.08948846
332.40 0.08972811
332.50 0.08996746
332.60 0.09020651
332.70 0.09044525
332.80 0.09068368
332.90 0.09092182
333.00 0.09115965
333.10 0.09139965
333.20 0.09164236
333.30 0.09188477
333.40 0.09212687
333.50 0.09236866
333.60 0.09261014
333.70 0.09285132
333.80 0.0930922
333.90 0.09333277
334.00 0.09357303
334.10 0.09381492
334.20 0.09405886
334.30 0.0943025
334.40 0.09454582
334.50 0.09478884
334.60 0.09503155
334.70 0.09527802
334.80 0.0955332
334.90 0.09579388
335.00 0.09605423
335.10 0.09627141
335.20 0.09653357
335.30 0.09679541
335.40 0.09705691
335.50 0.09731011
335.60 0.09751516
335.70 0.09777572
335.80 0.09803595
335.90 0.09829585
336.00 0.09855542
336.10 0.09881467
336.20 0.09907359
336.30 0.09933219
336.40 0.09959046
336.50 0.0998484
336.60 0.100106
336.70 0.1003633
336.80 0.1006203
336.90 0.1008755
337.00 0.1011287
337.10 0.1013816
337.20 0.1016342
337.30 0.1018886
337.40 0.1021458
337.50 0.1024026
337.60 0.1026591
337.70 0.1029153
337.80 0.1031712
337.90 0.1034324
338.00 0.1037002
338.10 0.1039676
338.20 0.1042347
338.30 0.1045014
338.40 0.1047669
338.50 0.1050297
338.60 0.1052921
338.70 0.1055543
338.80 0.1058161
338.90 0.1060776
339.00 0.1063387
339.10 0.1065995
339.20 0.10686
339.30 0.1071313
339.40 0.1074181
339.50 0.1076976
339.60 0.1079685
339.70 0.108239
339.80 0.1085092
339.90 0.1087791
340.00 0.1090486
340.10 0.1093178
340.20 0.1095867
340.30 0.1098552
340.40 0.1101234
340.50 0.1103912
340.60 0.1106587
340.70 0.1109259
340.80 0.111199
340.90 0.1114806
341.00 0.1117622
341.10 0.1120439
341.20 0.1123252
341.30 0.1126062
341.40 0.1128869
341.50 0.1131672
341.60 0.1134471
341.70 0.1137267
341.80 0.1140066
341.90 0.1142868
342.00 0.1145668
342.10 0.1148463
342.20 0.1151176
342.30 0.1153939
342.40 0.1156778
342.50 0.1159595
342.60 0.1162409
342.70 0.1165219
342.80 0.1168026
342.90 0.1170829
343.00 0.1173626
343.10 0.1176415
343.20 0.1179201
343.30 0.1181983
343.40 0.1184839
343.50 0.1187801
343.60 0.119076
343.70 0.1193715
343.80 0.1196666
343.90 0.1199614
344.00 0.1202496
344.10 0.1205285
344.20 0.120807
344.30 0.1210852
344.40 0.1213693
344.50 0.1216619
344.60 0.1219898
344.70 0.122253
344.80 0.1225733
344.90 0.1228645
345.00 0.1231197
345.10 0.1234102
345.20 0.1237023
345.30 0.1239969
345.40 0.1242912
345.50 0.1246027
345.60 0.1249215
345.70 0.1252198
345.80 0.1255177
345.90 0.1258153
346.00 0.1261126
346.10 0.1264094
346.20 0.1267092
346.30 0.1270133
346.40 0.1273171
346.50 0.1276204
346.60 0.1279235
346.70 0.1282261
346.80 0.1285284
346.90 0.1288302
347.00 0.1291318
347.10 0.1294329
347.20 0.1297366
347.30 0.1300439
347.40 0.1303509
347.50 0.1306575
347.60 0.1309637
347.70 0.1312695
347.80 0.131575
347.90 0.1318801
348.00 0.1321849
348.10 0.1324892
348.20 0.1327932
348.30 0.1330968
348.40 0.1334001
348.50 0.1337029
348.60 0.1340054
348.70 0.1343188
348.80 0.1346354
348.90 0.1349515
349.00 0.1352673
349.10 0.1355827
349.20 0.1358977
349.30 0.1362123
349.40 0.1365265
349.50 0.1368404
349.60 0.1371538
349.70 0.1374669
349.80 0.1377796
349.90 0.138092
350.00 0.1384039
350.10 0.1387155
350.20 0.1390267
350.30 0.1393426
350.40 0.1396654
350.50 0.1399878
350.60 0.1403098
350.70 0.1406314
350.80 0.1409526
350.90 0.1412734
351.00 0.1415939
351.10 0.141914
351.20 0.1422336
351.30 0.1425529
351.40 0.1428738
351.50 0.1431977
351.60 0.1435212
351.70 0.1438443
351.80 0.144167
351.90 0.1444894
352.00 0.1448113
352.10 0.1451329
352.20 0.1454755
352.30 0.1458146
352.40 0.1461453
352.50 0.1464756
352.60 0.1468055
352.70 0.147135
352.80 0.1474641
352.90 0.1477928
353.00 0.1481211
353.10 0.148449
353.20 0.1487765
353.30 0.1491037
353.40 0.1494304
353.50 0.1497594
353.60 0.1500887
353.70 0.1504176
353.80 0.1507461
353.90 0.1510776
354.00 0.1514149
354.10 0.1517518
354.20 0.1520882
354.30 0.1524243
354.40 0.15276
354.50 0.1530952
354.60 0.1534301
354.70 0.1537645
354.80 0.1541011
354.90 0.154441
355.00 0.1547804
355.10 0.1551195
355.20 0.1554581
355.30 0.1558062
355.40 0.1561539
355.50 0.1565011
355.60 0.156848
355.70 0.1571803
355.80 0.1575059
355.90 0.1578644
356.00 0.1582286
356.10 0.158579
356.20 0.158929
356.30 0.1592786
356.40 0.1596278
356.50 0.1599765
356.60 0.1603249
356.70 0.1606728
356.80 0.1610203
356.90 0.1613674
357.00 0.1617141
357.10 0.1620603
357.20 0.1624062
357.30 0.1627516
357.40 0.1630963
357.50 0.1634399
357.60 0.1637831
357.70 0.1641259
357.80 0.1644676
357.90 0.164809
358.00 0.1651642
358.10 0.1655226
358.20 0.1658806
358.30 0.1662381
358.40 0.1665952
358.50 0.1669519
358.60 0.1673082
358.70 0.167664
358.80 0.1680194
358.90 0.1683744
359.00 0.1687295
359.10 0.1690851
359.20 0.1694409
359.30 0.1698002
359.40 0.1701591
359.50 0.1705203
359.60 0.1708817
359.70 0.1712426
359.80 0.1716098
359.90 0.1719765
360.00 0.1723437
360.10 0.1727121
360.20 0.17308
360.30 0.1734476
360.40 0.1738147
360.50 0.1741814
360.60 0.1745346
360.70 0.174907
360.80 0.175279
360.90 0.1756506
361.00 0.1759948
361.10 0.1763738
361.20 0.1767593
361.30 0.1771127
361.40 0.1774793
361.50 0.177851
361.60 0.1781943
361.70 0.1785898
361.80 0.1789769
361.90 0.1793492
362.00 0.1797211
362.10 0.1800812
362.20 0.1804423
362.30 0.1808106
362.40 0.1811785
362.50 0.181546
362.60 0.1819131
362.70 0.1823005
362.80 0.1826789
362.90 0.1830666
363.00 0.1834539
363.10 0.1838256
363.20 0.1841967
363.30 0.1845706
363.40 0.1849449
363.50 0.185346
363.60 0.1857058
363.70 0.1860772
363.80 0.1864513
363.90 0.1868395
364.00 0.1872273
364.10 0.1876146
364.20 0.1880015
364.30 0.188381
364.40 0.1887584
364.50 0.1891462
364.60 0.1895271
364.70 0.1899075
364.80 0.1902875
364.90 0.1906686
365.00 0.1910493
365.10 0.1914565
365.20 0.1918363
365.30 0.1922426
365.40 0.1926215
365.50 0.193
365.60 0.193378
365.70 0.1937848
365.80 0.1941912
365.90 0.194569
366.00 0.1949392
366.10 0.1953331
366.20 0.1957264
366.30 0.1961193
366.40 0.1965117
366.50 0.1969156
366.60 0.1972942
366.70 0.1976924
366.80 0.1980901
366.90 0.1984886
367.00 0.1988887
367.10 0.1992884
367.20 0.1996876
367.30 0.2000863
367.40 0.2004846
367.50 0.2008786
367.60 0.2012713
367.70 0.2016651
367.80 0.2020584
367.90 0.2024512
368.00 0.2028492
368.10 0.2032638
368.20 0.2036673
368.30 0.2040702
368.40 0.2044727
368.50 0.2048747
368.60 0.2052762
368.70 0.2056772
368.80 0.2060778
368.90 0.2064633
369.00 0.2068652
369.10 0.2072774
369.20 0.2076973
369.30 0.2080939
369.40 0.20849
369.50 0.2088856
369.60 0.2092957
369.70 0.2097054
369.80 0.2101171
369.90 0.2105284
370.00 0.2109392
370.10 0.2113496
370.20 0.2117595
370.30 0.2121689
370.40 0.2125778
370.50 0.2129863
370.60 0.2133942
370.70 0.213807
370.80 0.2142374
370.90 0.2146673
371.00 0.2150762
371.10 0.2154845
371.20 0.215887
371.30 0.2162891
371.40 0.2167342
371.50 0.2171506
371.60 0.2175664
371.70 0.2179817
371.80 0.2183966
371.90 0.218811
372.00 0.2192177
372.10 0.2196186
372.20 0.2200449
372.30 0.2204708
372.40 0.2208962
372.50 0.221321
372.60 0.2217454
372.70 0.2221693
372.80 0.2225901
372.90 0.2230103
373.00 0.2234354
373.10 0.2238601
373.20 0.2242816
373.30 0.2247026
373.40 0.2250973
373.50 0.2255431
373.60 0.2259627
373.70 0.2263817
373.80 0.226818
373.90 0.2272184
374.00 0.2276489
374.10 0.2280789
374.20 0.2285083
374.30 0.2289373
374.40 0.2293594
374.50 0.2298132
374.60 0.2302428
374.70 0.2306712
374.80 0.2310991
374.90 0.2315265
375.00 0.2319648
375.10 0.2324027
375.20 0.23284
375.30 0.2332768
375.40 0.2337131
375.50 0.2341489
375.60 0.2345843
375.70 0.2350191
375.80 0.2354534
375.90 0.2358873
376.00 0.2363151
376.10 0.2367534
376.20 0.2371914
376.30 0.2376289
376.40 0.2380659
376.50 0.2385009
376.60 0.238933
376.70 0.2393646
376.80 0.2397997
376.90 0.2402381
377.00 0.2406761
377.10 0.2411135
377.20 0.241554
377.30 0.2420075
377.40 0.2424605
377.50 0.242913
377.60 0.2433537
377.70 0.243794
377.80 0.2442337
377.90 0.244673
378.00 0.2451297
378.10 0.245576
378.20 0.2460215
378.30 0.2464665
378.40 0.2469109
378.50 0.2473549
378.60 0.2477984
378.70 0.2482413
378.80 0.2486838
378.90 0.2491326
379.00 0.2495938
379.10 0.2500418
379.20 0.2504893
379.30 0.2509366
379.40 0.2513838
379.50 0.2518304
379.60 0.2522796
379.70 0.2527331
379.80 0.2531876
379.90 0.2536415
380.00 0.2540949
380.10 0.2545479
380.20 0.2550003
380.30 0.2554522
380.40 0.2559036
380.50 0.2563544
380.60 0.2568566
380.70 0.2573073
380.80 0.2577575
380.90 0.2582072
381.00 0.2586564
381.10 0.2591079
381.20 0.2595657
381.30 0.2600217
381.40 0.2604991
381.50 0.2609699
381.60 0.2614295
381.70 0.2618784
381.80 0.2623526
381.90 0.2628061
382.00 0.2632591
382.10 0.2637362
382.20 0.264203
382.30 0.2646544
382.40 0.265111
382.50 0.2655756
382.60 0.2660396
382.70 0.266505
382.80 0.2669717
382.90 0.2674374
383.00 0.2679027
383.10 0.2683674
383.20 0.2688352
383.30 0.2693161
383.40 0.2697854
383.50 0.2702377
383.60 0.2707375
383.70 0.271207
383.80 0.2716759
383.90 0.2721443
384.00 0.2726122
384.10 0.2730796
384.20 0.2735465
384.30 0.2740128
384.40 0.274486
384.50 0.274966
384.60 0.2754455
384.70 0.2759245
384.80 0.2764026
384.90 0.2768805
385.00 0.2773606
385.10 0.2778399
385.20 0.2783109
385.30 0.2787803
385.40 0.2792524
385.50 0.2797272
385.60 0.2802013
385.70 0.280675
385.80 0.2811486
385.90 0.2816234
386.00 0.2821123
386.10 0.2826139
386.20 0.2830996
386.30 0.2835849
386.40 0.2840391
386.50 0.2845459
386.60 0.28501
386.70 0.285499
386.80 0.2859634
386.90 0.2864633
387.00 0.2869327
387.10 0.2874315
387.20 0.2879248
387.30 0.2883807
387.40 0.2888876
387.50 0.2893833
387.60 0.2898769
387.70 0.2903605
387.80 0.2908435
387.90 0.291326
388.00 0.2918034
388.10 0.2922983
388.20 0.2927886
388.30 0.2932729
388.40 0.2937567
388.50 0.2942516
388.60 0.2947625
388.70 0.295252
388.80 0.2957438
388.90 0.2962298
389.00 0.2967098
389.10 0.2972165
389.20 0.2977004
389.30 0.2981971
389.40 0.2986755
389.50 0.2991714
389.60 0.2996905
389.70 0.3001936
389.80 0.3006907
389.90 0.3011873
390.00 0.3016833
390.10 0.3021788
390.20 0.3026737
390.30 0.3031705
390.40 0.3036694
390.50 0.3041677
390.60 0.3046655
390.70 0.3051628
390.80 0.3056519
390.90 0.3061328
391.00 0.3066556
391.10 0.3071598
391.20 0.3076579
391.30 0.3081489
391.40 0.3086556
391.50 0.3091618
391.60 0.3096674
391.70 0.3101724
391.80 0.3106769
391.90 0.3111776
392.00 0.311679
392.10 0.3121874
392.20 0.3126921
392.30 0.3131825
392.40 0.3136892
392.50 0.314211
392.60 0.3147033
392.70 0.3152334
392.80 0.3157327
392.90 0.3162223
393.00 0.3167292
393.10 0.3172384
393.20 0.3177503
393.30 0.318262
393.40 0.3187705
393.50 0.3193063
393.60 0.3197957
393.70 0.3203283
393.80 0.320814
393.90 0.3213454
394.00 0.3218743
394.10 0.3223866
394.20 0.3229034
394.30 0.323401
394.40 0.3239003
394.50 0.3244135
394.60 0.3249448
394.70 0.3254716
394.80 0.3259831
394.90 0.3264943
395.00 0.327013
395.10 0.3275242
395.20 0.3280469
395.30 0.3285697
395.40 0.3290918
395.50 0.3296016
395.60 0.3301066
395.70 0.3306167
395.80 0.3311416
395.90 0.331666
396.00 0.3321879
396.10 0.3327008
396.20 0.333242
396.30 0.3337765
396.40 0.3342937
396.50 0.3348103
396.60 0.3353264
396.70 0.3358491
396.80 0.3363876
396.90 0.3368918
397.00 0.3374284
397.10 0.3379416
397.20 0.3384703
397.30 0.3390154
397.40 0.3395312
397.50 0.3400465
397.60 0.3405633
397.70 0.3411005
397.80 0.3416372
397.90 0.3421702
398.00 0.3426946
398.10 0.3432184
398.20 0.3437462
398.30 0.3442786
398.40 0.3448103
398.50 0.345333
398.60 0.3458797
398.70 0.3464126
398.80 0.3469393
398.90 0.3474661
399.00 0.3479937
399.10 0.3485148
399.20 0.3490535
399.30 0.3495915
399.40 0.350129
399.50 0.3506658
399.60 0.3511995
399.70 0.3517316
399.80 0.3522631
399.90 0.352794
400.00 0.3533249
400.10 0.353873
400.20 0.3544172
400.30 0.3549542
400.40 0.3554851
400.50 0.3560483
400.60 0.3565723
400.70 0.35711
400.80 0.3576514
400.90 0.358203
401.00 0.3587108
401.10 0.3592671
401.20 0.3597941
401.30 0.3603589
401.40 0.3609
401.50 0.3614298
401.60 0.3619593
401.70 0.3624981
401.80 0.3630704
401.90 0.3636239
402.00 0.364129
402.10 0.3646805
402.20 0.3652327
402.30 0.3657835
402.40 0.3663328
402.50 0.3668819
402.60 0.36743
402.70 0.367979
402.80 0.3685046
402.90 0.3690384
403.00 0.3695849
403.10 0.3701662
403.20 0.3707109
403.30 0.3712403
403.40 0.3718031
403.50 0.3723484
403.60 0.3728864
403.70 0.3734294
403.80 0.374015
403.90 0.3745552
404.00 0.3751013
404.10 0.3756372
404.20 0.3761986
404.30 0.3767595
404.40 0.3773118
404.50 0.3778575
404.60 0.3784165
404.70 0.3789531
404.80 0.3795326
404.90 0.3800682
405.00 0.3806494
405.10 0.3811997
405.20 0.3817459
405.30 0.3822914
405.40 0.382853
405.50 0.383414
405.60 0.3839743
405.70 0.3845341
405.80 0.3850933
405.90 0.3856519
406.00 0.3862071
406.10 0.3867617
406.20 0.3873157
406.30 0.3878692
406.40 0.3884214
406.50 0.388982
406.60 0.3895599
406.70 0.3901173
406.80 0.3906714
406.90 0.3912423
407.00 0.3918088
407.10 0.3923747
407.20 0.39294
407.30 0.3935047
407.40 0.3940688
407.50 0.3946323
407.60 0.3951952
407.70 0.3957574
407.80 0.3963191
407.90 0.3968802
408.00 0.3974401
408.10 0.3979995
408.20 0.3985619
408.30 0.3991245
408.40 0.3996864
408.50 0.4002547
408.60 0.4008328
408.70 0.4014103
408.80 0.4019836
408.90 0.4025339
409.00 0.4031034
409.10 0.4036724
409.20 0.4042407
409.30 0.4048085
409.40 0.4053758
409.50 0.4059497
409.60 0.4065229
409.70 0.4070951
409.80 0.4076651
409.90 0.408235
410.00 0.408824
410.10 0.4094076
410.20 0.409978
410.30 0.4105448
410.40 0.4111122
410.50 0.411683
410.60 0.4122532
410.70 0.4128239
410.80 0.4133983
410.90 0.413972
411.00 0.4145512
411.10 0.4151321
411.20 0.4157123
411.30 0.416288
411.40 0.4168478
411.50 0.4174245
411.60 0.4180007
411.70 0.4185773
411.80 0.4191575
411.90 0.4197498
412.00 0.42035
412.10 0.4209178
412.20 0.4215061
412.30 0.4220665
412.40 0.4227173
412.50 0.4231001
412.60 0.423799
412.70 0.4244307
412.80 0.425045
412.90 0.4255022
413.00 0.4262868
413.10 0.4268319
413.20 0.4273765
413.30 0.4279205
413.40 0.4284639
413.50 0.4290318
413.60 0.4296654
413.70 0.4301921
413.80 0.4307182
413.90 0.4312437
414.00 0.4317938
414.10 0.432423
414.20 0.4331017
414.30 0.4338968
414.40 0.4343566
414.50 0.4347644
414.60 0.4355587
414.70 0.4361839
414.80 0.4367834
414.90 0.437303
415.00 0.437822
415.10 0.4383405
415.20 0.4389015
415.30 0.4395982
415.40 0.4402942
415.50 0.4409846
