# Version 2.1 - nm, norm@500 to 1, cut digits, bergeron_He_4750_90.dat_4750
# Wavelength(nm)  Flambda(ergs/cm^s/s/nm)
300.00 0.1688145
300.10 0.1692033
300.20 0.1695954
300.30 0.1699846
300.40 0.1703578
300.50 0.1707304
300.60 0.1711024
300.70 0.1714739
300.80 0.1718449
300.90 0.1722154
301.00 0.1725854
301.10 0.1729548
301.20 0.1733236
301.30 0.173692
301.40 0.1740598
301.50 0.1744271
301.60 0.1747939
301.70 0.1751601
301.80 0.1755259
301.90 0.1758911
302.00 0.1762558
302.10 0.1766338
302.20 0.1770128
302.30 0.1773912
302.40 0.1777692
302.50 0.1781466
302.60 0.1785234
302.70 0.1788997
302.80 0.1792755
302.90 0.1796508
303.00 0.1800255
303.10 0.1803997
303.20 0.1807733
303.30 0.1811477
303.40 0.1815333
303.50 0.1819183
303.60 0.1823027
303.70 0.1826867
303.80 0.18307
303.90 0.1834529
304.00 0.1838351
304.10 0.1842169
304.20 0.1845981
304.30 0.1849787
304.40 0.1853589
304.50 0.1857384
304.60 0.1861251
304.70 0.186512
304.80 0.1868984
304.90 0.1872842
305.00 0.1876695
305.10 0.1880543
305.20 0.1884385
305.30 0.1888222
305.40 0.1892053
305.50 0.1895879
305.60 0.1899699
305.70 0.1903514
305.80 0.1907323
305.90 0.1911128
306.00 0.1914926
306.10 0.191872
306.20 0.1922508
306.30 0.1926291
306.40 0.193024
306.50 0.1934234
306.60 0.1938223
306.70 0.1942207
306.80 0.1946185
306.90 0.1950157
307.00 0.1954124
307.10 0.1958085
307.20 0.196204
307.30 0.196599
307.40 0.1969935
307.50 0.1973874
307.60 0.1977807
307.70 0.1981735
307.80 0.1985657
307.90 0.1989574
308.00 0.1993485
308.10 0.1997391
308.20 0.2001291
308.30 0.2005186
308.40 0.2009075
308.50 0.2012959
308.60 0.2016837
308.70 0.202071
308.80 0.2024595
308.90 0.2028525
309.00 0.2032644
309.10 0.2036757
309.20 0.2040864
309.30 0.2044965
309.40 0.2049046
309.50 0.2053034
309.60 0.2057015
309.70 0.2060991
309.80 0.2064962
309.90 0.2068927
310.00 0.2072887
310.10 0.2076841
310.20 0.2080789
310.30 0.2084732
310.40 0.208877
310.50 0.209291
310.60 0.2097045
310.70 0.2101174
310.80 0.2105298
310.90 0.2109416
311.00 0.2113285
311.10 0.2117148
311.20 0.2121007
311.30 0.2124922
311.40 0.2129008
311.50 0.2133088
311.60 0.2137163
311.70 0.2141232
311.80 0.2145295
311.90 0.2149353
312.00 0.2153405
312.10 0.2157451
312.20 0.2161701
312.30 0.2166202
312.40 0.2170555
312.50 0.2174147
312.60 0.2178303
312.70 0.2182453
312.80 0.2186597
312.90 0.2190714
313.00 0.21948
313.10 0.2198882
313.20 0.2202957
313.30 0.2207075
313.40 0.2211322
313.50 0.2215563
313.60 0.2219798
313.70 0.2224027
313.80 0.222825
313.90 0.2232468
314.00 0.223668
314.10 0.2240867
314.20 0.2245048
314.30 0.2249223
314.40 0.2253393
314.50 0.2257556
314.60 0.2261715
314.70 0.2265867
314.80 0.2269833
314.90 0.2273818
315.00 0.2278381
315.10 0.2282647
315.20 0.2286906
315.30 0.229116
315.40 0.2295408
315.50 0.229965
315.60 0.2303886
315.70 0.2308117
315.80 0.2312341
315.90 0.231656
316.00 0.2320773
316.10 0.232498
316.20 0.2329181
316.30 0.2332747
316.40 0.2337567
316.50 0.2341122
316.60 0.2345929
316.70 0.2350102
316.80 0.2354269
316.90 0.235843
317.00 0.2362585
317.10 0.2366735
317.20 0.2370879
317.30 0.2375139
317.40 0.2379426
317.50 0.2383796
317.60 0.238816
317.70 0.2392519
317.80 0.2396871
317.90 0.2401106
318.00 0.2405365
318.10 0.2409769
318.20 0.2414166
318.30 0.2418557
318.40 0.2422862
318.50 0.2426931
318.60 0.2431156
318.70 0.2435834
318.80 0.2440133
318.90 0.2443931
319.00 0.2448591
319.10 0.2453245
319.20 0.2457815
319.30 0.2462162
319.40 0.2466502
319.50 0.2470837
319.60 0.2475107
319.70 0.247943
319.80 0.2483747
319.90 0.2488058
320.00 0.2492209
320.10 0.2496186
320.20 0.2500386
320.30 0.2505034
320.40 0.2509117
320.50 0.2514176
320.60 0.2518444
320.70 0.2522387
320.80 0.2526619
320.90 0.2531163
321.00 0.2535701
321.10 0.2540233
321.20 0.2544587
321.30 0.2548917
321.40 0.2553241
321.50 0.2557559
321.60 0.2561871
321.70 0.2566177
321.80 0.2570805
321.90 0.2575782
322.00 0.2579757
322.10 0.2584199
322.20 0.2588634
322.30 0.2593063
322.40 0.2597487
322.50 0.2601904
322.60 0.2606315
322.70 0.2610721
322.80 0.2615033
322.90 0.2619532
323.00 0.2624025
323.10 0.2628511
323.20 0.2632992
323.30 0.2637466
323.40 0.2641935
323.50 0.2646397
323.60 0.2650854
323.70 0.2655304
323.80 0.2659749
323.90 0.2664187
324.00 0.2668641
324.10 0.2673089
324.20 0.2677531
324.30 0.2681982
324.40 0.2686481
324.50 0.2690985
324.60 0.2695483
324.70 0.2699975
324.80 0.2704461
324.90 0.2708941
325.00 0.2713415
325.10 0.2717883
325.20 0.2722375
325.30 0.2726925
325.40 0.273147
325.50 0.2736042
325.60 0.2740649
325.70 0.274525
325.80 0.2749845
325.90 0.275439
326.00 0.2758882
326.10 0.2763368
326.20 0.2767848
326.30 0.2772183
326.40 0.2776118
326.50 0.2780768
326.60 0.2785411
326.70 0.2790049
326.80 0.279468
326.90 0.2799305
327.00 0.2803924
327.10 0.2808537
327.20 0.2813143
327.30 0.2817744
327.40 0.2822338
327.50 0.2826926
327.60 0.2831508
327.70 0.2836084
327.80 0.2840654
327.90 0.2844927
328.00 0.284916
328.10 0.285373
328.20 0.2858295
328.30 0.2862853
328.40 0.2867406
328.50 0.2872185
328.60 0.2877012
328.70 0.2881832
328.80 0.2886581
328.90 0.2891139
329.00 0.2895691
329.10 0.2900237
329.20 0.2904776
329.30 0.290931
329.40 0.2913838
329.50 0.2918359
329.60 0.2922875
329.70 0.2927384
329.80 0.2931888
329.90 0.2936385
330.00 0.294094
330.10 0.2945568
330.20 0.2950188
330.30 0.2954803
330.40 0.2959456
330.50 0.296415
330.60 0.2968838
330.70 0.297352
330.80 0.2978195
330.90 0.2982865
331.00 0.2987528
331.10 0.2992185
331.20 0.2996836
331.30 0.3001481
331.40 0.3006119
331.50 0.3010752
331.60 0.301538
331.70 0.3020002
331.80 0.3024702
331.90 0.30294
332.00 0.3034091
332.10 0.3038776
332.20 0.3043455
332.30 0.3048128
332.40 0.3052795
332.50 0.3057455
332.60 0.306211
332.70 0.3066758
332.80 0.30714
332.90 0.3076036
333.00 0.3080665
333.10 0.308534
333.20 0.3090072
333.30 0.3094798
333.40 0.3099517
333.50 0.310423
333.60 0.3108936
333.70 0.3113637
333.80 0.3118331
333.90 0.3123019
334.00 0.3127701
334.10 0.3132394
334.20 0.3137102
334.30 0.3141803
334.40 0.3146497
334.50 0.3151186
334.60 0.3155869
334.70 0.3160999
334.80 0.3166215
334.90 0.3170757
335.00 0.3175293
335.10 0.3180022
335.20 0.3184854
335.30 0.3189315
335.40 0.3193995
335.50 0.3198809
335.60 0.3203616
335.70 0.3208668
335.80 0.3212904
335.90 0.3217385
336.00 0.3222168
336.10 0.3226944
336.20 0.3231714
336.30 0.3236478
336.40 0.3241235
336.50 0.3245986
336.60 0.3250731
336.70 0.325547
336.80 0.3260203
336.90 0.3265023
337.00 0.3269952
337.10 0.3274875
337.20 0.3279791
337.30 0.3284633
337.40 0.3289373
337.50 0.3294106
337.60 0.3298834
337.70 0.3303555
337.80 0.330827
337.90 0.3313058
338.00 0.3317939
338.10 0.3322813
338.20 0.3327681
338.30 0.3332542
338.40 0.3337395
338.50 0.3342235
338.60 0.3347069
338.70 0.3351896
338.80 0.3356718
338.90 0.3361533
339.00 0.3366341
339.10 0.3371144
339.20 0.337594
339.30 0.3380698
339.40 0.3385404
339.50 0.3390185
339.60 0.339506
339.70 0.3399929
339.80 0.3404791
339.90 0.3409647
340.00 0.3414496
340.10 0.3419339
340.20 0.3424176
340.30 0.3429007
340.40 0.3433832
340.50 0.343865
340.60 0.3443462
340.70 0.3448267
340.80 0.3452993
340.90 0.3457606
341.00 0.3462337
341.10 0.3467212
341.20 0.347208
341.30 0.3476943
341.40 0.3481799
341.50 0.3486648
341.60 0.3491492
341.70 0.3496329
341.80 0.3501149
341.90 0.350595
342.00 0.3510744
342.10 0.3515533
342.20 0.3520562
342.30 0.3525689
342.40 0.353062
342.50 0.3535588
342.60 0.354055
342.70 0.3545505
342.80 0.3550454
342.90 0.3555397
343.00 0.3560281
343.10 0.3565095
343.20 0.3569903
343.30 0.3574705
343.40 0.3579529
343.50 0.3584387
343.60 0.3589239
343.70 0.3594085
343.80 0.3598924
343.90 0.3603757
344.00 0.3608584
344.10 0.3613405
344.20 0.3618219
344.30 0.3623028
344.40 0.362783
344.50 0.3632626
344.60 0.363785
344.70 0.3642634
344.80 0.3647411
344.90 0.3652685
345.00 0.3657571
345.10 0.366233
345.20 0.3667193
345.30 0.3672211
345.40 0.3677222
345.50 0.3682214
345.60 0.3687157
345.70 0.3692054
345.80 0.3696944
345.90 0.3701829
346.00 0.3706707
346.10 0.3711579
346.20 0.3716502
346.30 0.3721501
346.40 0.3726494
346.50 0.373148
346.60 0.3736461
346.70 0.3741434
346.80 0.3746402
346.90 0.3751363
347.00 0.3756318
347.10 0.3761266
347.20 0.3766219
347.30 0.3771182
347.40 0.3776139
347.50 0.3781089
347.60 0.3786033
347.70 0.3790971
347.80 0.3795902
347.90 0.3800827
348.00 0.3805746
348.10 0.3810658
348.20 0.3815564
348.30 0.3820464
348.40 0.3825358
348.50 0.3830245
348.60 0.3835127
348.70 0.3839876
348.80 0.3844721
348.90 0.3849764
349.00 0.3854801
349.10 0.3859831
349.20 0.3864854
349.30 0.3869871
349.40 0.3874882
349.50 0.3879887
349.60 0.3884885
349.70 0.3889876
349.80 0.3894862
349.90 0.3899841
350.00 0.3904814
350.10 0.390978
350.20 0.391474
350.30 0.3919719
350.40 0.3924727
350.50 0.3929728
350.60 0.3934723
350.70 0.3939712
350.80 0.3944695
350.90 0.3949671
351.00 0.3954641
351.10 0.3959604
351.20 0.3964562
351.30 0.3969513
351.40 0.3974474
351.50 0.3979459
351.60 0.3984438
351.70 0.3989411
351.80 0.3994377
351.90 0.3999337
352.00 0.400429
352.10 0.4009238
352.20 0.4013819
352.30 0.4018573
352.40 0.4023635
352.50 0.402869
352.60 0.4033738
352.70 0.4038781
352.80 0.4043816
352.90 0.4048846
353.00 0.4053869
353.10 0.4058886
353.20 0.4063897
353.30 0.4068901
353.40 0.4073899
353.50 0.4078868
353.60 0.4083825
353.70 0.4088776
353.80 0.409372
353.90 0.4098719
354.00 0.4103819
354.10 0.4108913
354.20 0.4114
354.30 0.4119081
354.40 0.4124156
354.50 0.4129224
354.60 0.4134286
354.70 0.4139341
354.80 0.4144342
354.90 0.4149266
355.00 0.4154185
355.10 0.4159097
355.20 0.4164003
355.30 0.4169071
355.40 0.4174133
355.50 0.4179188
355.60 0.4184237
355.70 0.4189191
355.80 0.4194099
355.90 0.4198947
356.00 0.4203958
356.10 0.420903
356.20 0.4214095
356.30 0.4219154
356.40 0.4224207
356.50 0.4229253
356.60 0.4234293
356.70 0.4239327
356.80 0.4244354
356.90 0.4249376
357.00 0.425439
357.10 0.4259399
357.20 0.4264401
357.30 0.4269397
357.40 0.4274373
357.50 0.4279319
357.60 0.4284258
357.70 0.4289191
357.80 0.42944
357.90 0.4299602
358.00 0.4304672
358.10 0.4309705
358.20 0.431473
358.30 0.431975
358.40 0.4324763
358.50 0.4329771
358.60 0.4334771
358.70 0.4339766
358.80 0.4344754
358.90 0.4349737
359.00 0.4354732
359.10 0.4359757
359.20 0.4364788
359.30 0.43699
359.40 0.4375005
359.50 0.4380207
359.60 0.4385428
359.70 0.4390643
359.80 0.4395577
359.90 0.4400505
360.00 0.4405513
360.10 0.4410667
360.20 0.4415815
360.30 0.4420956
360.40 0.4426091
360.50 0.443122
360.60 0.4435419
360.70 0.4440466
360.80 0.4445507
360.90 0.4450542
361.00 0.4455981
361.10 0.4461145
361.20 0.4466295
361.30 0.4470774
361.40 0.4476453
361.50 0.4481257
361.60 0.448618
361.70 0.4491406
361.80 0.449656
361.90 0.4501592
362.00 0.4506618
362.10 0.4511504
362.20 0.451644
362.30 0.4521526
362.40 0.4526606
362.50 0.453168
362.60 0.4536748
362.70 0.4541613
362.80 0.4546662
362.90 0.4551774
363.00 0.4556879
363.10 0.4561791
363.20 0.4566694
363.30 0.4572346
363.40 0.4576987
363.50 0.4582576
363.60 0.4587204
363.70 0.4592462
363.80 0.4597872
363.90 0.4602822
364.00 0.4607767
364.10 0.4612705
364.20 0.4617637
364.30 0.4622502
364.40 0.4627347
364.50 0.4632475
364.60 0.4637807
364.70 0.4643133
364.80 0.4648453
364.90 0.4653477
365.00 0.4658494
365.10 0.4663033
365.20 0.4668039
365.30 0.4673038
365.40 0.4678503
365.50 0.468349
365.60 0.468847
365.70 0.4693616
365.80 0.4698755
365.90 0.4703584
366.00 0.4708331
366.10 0.4713382
366.20 0.4718428
366.30 0.4723467
366.40 0.47285
366.50 0.4733878
366.60 0.4738876
366.70 0.4744102
366.80 0.4749321
366.90 0.4754452
367.00 0.4759434
367.10 0.4764409
367.20 0.4769379
367.30 0.4774342
367.40 0.4779299
367.50 0.478443
367.60 0.4789598
367.70 0.4794597
367.80 0.4799589
367.90 0.4804576
368.00 0.4809899
368.10 0.4814657
368.20 0.481971
368.30 0.4824763
368.40 0.4829811
368.50 0.4834852
368.60 0.4839888
368.70 0.4844917
368.80 0.484994
368.90 0.485518
369.00 0.4860338
369.10 0.486537
369.20 0.4870207
369.30 0.487527
369.40 0.4880327
369.50 0.4885377
369.60 0.4890536
369.70 0.4895688
369.80 0.4900762
369.90 0.4905829
370.00 0.491089
370.10 0.4916378
370.20 0.4921551
370.30 0.4926705
370.40 0.493138
370.50 0.4936532
370.60 0.494122
370.70 0.4946418
370.80 0.4951502
370.90 0.495658
371.00 0.4961729
371.10 0.4966872
371.20 0.4971932
371.30 0.4976985
371.40 0.4981767
371.50 0.4986907
371.60 0.4992041
371.70 0.4997168
371.80 0.5002289
371.90 0.5007404
372.00 0.5012466
372.10 0.5017573
372.20 0.5022609
372.30 0.5027639
372.40 0.5032663
372.50 0.5037681
372.60 0.5042693
372.70 0.5047698
372.80 0.505266
372.90 0.5057615
373.00 0.506264
373.10 0.506766
373.20 0.5072635
373.30 0.5077604
373.40 0.5083019
373.50 0.5087976
373.60 0.5092927
373.70 0.5098323
373.80 0.5103177
373.90 0.5108194
374.00 0.5113345
374.10 0.5118491
374.20 0.512363
374.30 0.5128763
374.40 0.5133328
374.50 0.5138473
374.60 0.5143617
374.70 0.5148745
374.80 0.5153867
374.90 0.5158982
375.00 0.5163998
375.10 0.5169007
375.20 0.517401
375.30 0.5179049
375.40 0.5184083
375.50 0.518911
375.60 0.5194132
375.70 0.5199147
375.80 0.5204156
375.90 0.5209159
376.00 0.5214331
376.10 0.5219324
376.20 0.5224309
376.30 0.5229289
376.40 0.5234262
376.50 0.5239318
376.60 0.5244502
376.70 0.524968
376.80 0.52547
376.90 0.5259563
377.00 0.526442
377.10 0.5269271
377.20 0.5274192
377.30 0.5279394
377.40 0.528459
377.50 0.5289779
377.60 0.5294856
377.70 0.5299925
377.80 0.5304989
377.90 0.5310047
378.00 0.5314536
378.10 0.5319567
378.20 0.5324605
378.30 0.5329638
378.40 0.5334665
378.50 0.5339686
378.60 0.53447
378.70 0.5349709
378.80 0.5354712
378.90 0.5359701
379.00 0.5364671
379.10 0.5369908
379.20 0.5375139
379.30 0.538029
379.40 0.5385362
379.50 0.5390427
379.60 0.5395266
379.70 0.5399902
379.80 0.540503
379.90 0.5410151
380.00 0.5415267
380.10 0.5420376
380.20 0.5425479
380.30 0.5430576
380.40 0.5435667
380.50 0.5440752
380.60 0.5445486
380.70 0.5450529
380.80 0.5455567
380.90 0.5460599
381.00 0.5465625
381.10 0.5470349
381.20 0.5475116
381.30 0.5480701
381.40 0.5485553
381.50 0.549067
381.60 0.5495785
381.70 0.5500792
381.80 0.5505851
381.90 0.5510312
382.00 0.5515632
382.10 0.5520513
382.20 0.5525216
382.30 0.5530517
382.40 0.5535714
382.50 0.5540756
382.60 0.5545793
382.70 0.5550433
382.80 0.5555089
382.90 0.5560202
383.00 0.5565309
383.10 0.5570409
383.20 0.5575516
383.30 0.5580663
383.40 0.5585768
383.50 0.5590811
383.60 0.5595459
383.70 0.5600437
383.80 0.5605409
383.90 0.5610374
384.00 0.5615334
384.10 0.5620289
384.20 0.5625237
384.30 0.5630179
384.40 0.5635158
384.50 0.5640175
384.60 0.5645186
384.70 0.5650191
384.80 0.5655186
384.90 0.5660202
385.00 0.5665289
385.10 0.5670365
385.20 0.567516
385.30 0.5679971
385.40 0.5684855
385.50 0.5689812
385.60 0.5694764
385.70 0.5699709
385.80 0.5704655
385.90 0.5709616
386.00 0.5714814
386.10 0.5720197
386.20 0.5725064
386.30 0.5729926
386.40 0.5735052
386.50 0.5739964
386.60 0.5744335
386.70 0.5749792
386.80 0.5754399
386.90 0.5759843
387.00 0.5764524
387.10 0.5769115
387.20 0.5774517
387.30 0.577912
387.40 0.5784294
387.50 0.5789017
387.60 0.5794414
387.70 0.579939
387.80 0.580436
387.90 0.5809324
388.00 0.5814247
388.10 0.5818749
388.20 0.5823985
388.30 0.5828946
388.40 0.58339
388.50 0.5838886
388.60 0.58439
388.70 0.5848844
388.80 0.5853323
388.90 0.5858645
389.00 0.5863208
389.10 0.5868267
389.20 0.5873145
389.30 0.5878134
389.40 0.5883212
389.50 0.5888119
389.60 0.5892781
389.70 0.589759
389.80 0.5902604
389.90 0.5907612
390.00 0.5912615
390.10 0.5917611
390.20 0.5922601
390.30 0.5927572
390.40 0.5932521
390.50 0.5937464
390.60 0.5942402
390.70 0.5947333
390.80 0.5952237
390.90 0.5957113
391.00 0.5961661
391.10 0.5966611
391.20 0.5971513
391.30 0.5976326
391.40 0.5981225
391.50 0.5986117
391.60 0.5991004
391.70 0.5995885
391.80 0.600076
391.90 0.6005866
392.00 0.6010985
392.10 0.6015725
392.20 0.6020508
392.30 0.6025502
392.40 0.6030254
392.50 0.6035672
392.60 0.6039955
392.70 0.6045051
392.80 0.6050141
392.90 0.605494
393.00 0.6059671
393.10 0.6064615
393.20 0.6069752
393.30 0.6074405
393.40 0.6079171
393.50 0.6084107
393.60 0.6089181
393.70 0.6094219
393.80 0.6099213
393.90 0.6103833
394.00 0.6108459
394.10 0.6113393
394.20 0.6118524
394.30 0.6123412
394.40 0.6128443
394.50 0.6132765
394.60 0.6137796
394.70 0.6142748
394.80 0.6147425
394.90 0.6152121
395.00 0.6157528
395.10 0.616195
395.20 0.6166795
395.30 0.6171818
395.40 0.6176836
395.50 0.6181647
395.60 0.6186378
395.70 0.619117
395.80 0.6196137
395.90 0.6201097
396.00 0.620603
396.10 0.6210786
396.20 0.6215679
396.30 0.6220566
396.40 0.6225448
396.50 0.6230323
396.60 0.6235194
396.70 0.6239861
396.80 0.6244584
396.90 0.624945
397.00 0.6254057
397.10 0.6258899
397.20 0.6263744
397.30 0.626834
397.40 0.6273216
397.50 0.6278085
397.60 0.6282965
397.70 0.6287999
397.80 0.6293027
397.90 0.6297989
398.00 0.630278
398.10 0.6307565
398.20 0.6312284
398.30 0.6316928
398.40 0.632157
398.50 0.6326333
398.60 0.6331526
398.70 0.6336268
398.80 0.6340853
398.90 0.6345591
399.00 0.6350619
399.10 0.6355276
399.20 0.6360073
399.30 0.6364864
399.40 0.6369649
399.50 0.6374429
399.60 0.6379272
399.70 0.6384137
399.80 0.6388995
399.90 0.6393848
400.00 0.639869
400.10 0.6403363
400.20 0.640796
400.30 0.6412633
400.40 0.6417508
400.50 0.6422554
400.60 0.6427436
400.70 0.6432077
400.80 0.6436712
400.90 0.6441342
401.00 0.6445967
401.10 0.6451369
401.20 0.6455798
401.30 0.6460531
401.40 0.6465404
401.50 0.6470291
401.60 0.6475163
401.70 0.6479749
401.80 0.6484146
401.90 0.6488957
402.00 0.6493495
402.10 0.6498585
402.20 0.6503347
402.30 0.6507931
402.40 0.6512851
402.50 0.6517567
402.60 0.6522354
402.70 0.6527413
402.80 0.6531939
402.90 0.653646
403.00 0.6540976
403.10 0.6546262
403.20 0.6550999
403.30 0.6555498
403.40 0.6560418
403.50 0.6564987
403.60 0.6569499
403.70 0.6574758
403.80 0.6579467
403.90 0.658411
404.00 0.6588833
404.10 0.6593388
404.20 0.6598224
404.30 0.6603056
404.40 0.6607286
404.50 0.6611931
404.60 0.6617131
404.70 0.6621555
404.80 0.6626221
404.90 0.6631157
405.00 0.6635615
405.10 0.6640188
405.20 0.664486
405.30 0.6649527
405.40 0.6654298
405.50 0.6659063
405.60 0.6663823
405.70 0.6668578
405.80 0.6673326
405.90 0.667807
406.00 0.6682779
406.10 0.6687483
406.20 0.6692182
406.30 0.6696875
406.40 0.6701552
406.50 0.6706244
406.60 0.6710739
406.70 0.6715391
406.80 0.6720122
406.90 0.6724682
407.00 0.6729365
407.10 0.6734044
407.20 0.6738716
407.30 0.6743384
407.40 0.6748046
407.50 0.6752703
407.60 0.6757354
407.70 0.6762
407.80 0.676664
407.90 0.6771273
408.00 0.6775814
408.10 0.6780291
408.20 0.6784986
408.30 0.6789788
408.40 0.6794585
408.50 0.6799491
408.60 0.6803999
408.70 0.6808501
408.80 0.6812995
408.90 0.6817498
409.00 0.6822117
409.10 0.6826731
409.20 0.683134
409.30 0.6835943
409.40 0.6840542
409.50 0.6845168
409.60 0.6849788
409.70 0.6854403
409.80 0.6859011
409.90 0.6863616
410.00 0.6868275
410.10 0.6873043
410.20 0.6877634
410.30 0.6882176
410.40 0.6886769
410.50 0.6891532
410.60 0.689629
410.70 0.6900993
410.80 0.6905493
410.90 0.6909989
411.00 0.691461
411.10 0.6919273
411.20 0.6923931
411.30 0.6928507
411.40 0.6932784
411.50 0.6937304
411.60 0.6941818
411.70 0.6946387
411.80 0.6951188
411.90 0.6955835
412.00 0.6960625
412.10 0.6964668
412.20 0.6969447
412.30 0.6974259
412.40 0.697849
412.50 0.6983118
412.60 0.6987665
412.70 0.6992313
412.80 0.6996982
412.90 0.7001497
413.00 0.7005693
413.10 0.7010213
413.20 0.7014729
413.30 0.7019239
413.40 0.7023744
413.50 0.7028353
413.60 0.703327
413.70 0.7037786
413.80 0.7042296
413.90 0.7046801
414.00 0.7051345
414.10 0.7056024
414.20 0.706052
414.30 0.7065188
414.40 0.7069117
414.50 0.7073707
414.60 0.7078515
414.70 0.7082795
414.80 0.7087159
414.90 0.7091795
415.00 0.7096427
415.10 0.7101053
415.20 0.7105656
415.30 0.7110201
415.40 0.7114741
415.50 0.7119272
415.60 0.7123692
415.70 0.7128106
415.80 0.7132533
415.90 0.7137012
416.00 0.7141486
416.10 0.7145945
416.20 0.7150362
416.30 0.7154774
416.40 0.7159181
416.50 0.7163587
416.60 0.7168135
416.70 0.7172711
416.80 0.7177225
416.90 0.7181727
417.00 0.7186374
417.10 0.7190799
417.20 0.7195316
417.30 0.7199827
417.40 0.7204301
417.50 0.7208769
417.60 0.7213132
