# Version 2.1 - nm, norm@500 to 1, cut digits, bergeron_He_4500_85.dat_4500
# Wavelength(nm)  Flambda(ergs/cm^s/s/nm)
300.00 0.08485101
300.10 0.08508647
300.20 0.0853227
300.30 0.08555903
300.40 0.08579785
300.50 0.08603634
300.60 0.08627449
300.70 0.08651231
300.80 0.08674979
300.90 0.08698693
301.00 0.08722374
301.10 0.08746022
301.20 0.08769636
301.30 0.08793218
301.40 0.08816766
301.50 0.0884028
301.60 0.08863762
301.70 0.08887211
301.80 0.08910626
301.90 0.08934009
302.00 0.08957358
302.10 0.08981631
302.20 0.09005976
302.30 0.09030287
302.40 0.09054564
302.50 0.09078806
302.60 0.09103015
302.70 0.09127189
302.80 0.0915133
302.90 0.09175437
303.00 0.0919951
303.10 0.09223549
303.20 0.09247555
303.30 0.0927164
303.40 0.09296713
303.50 0.09321752
303.60 0.09346755
303.70 0.09371723
303.80 0.09396657
303.90 0.09421555
304.00 0.09446419
304.10 0.09471248
304.20 0.09496042
304.30 0.09520802
304.40 0.09545527
304.50 0.09570218
304.60 0.09595753
304.70 0.0962135
304.80 0.09646911
304.90 0.09672437
305.00 0.09697927
305.10 0.09723382
305.20 0.09748801
305.30 0.09774185
305.40 0.09799534
305.50 0.09824847
305.60 0.09850125
305.70 0.09875368
305.80 0.09900575
305.90 0.09925748
306.00 0.09950886
306.10 0.09975988
306.20 0.1000106
306.30 0.1002609
306.40 0.1005243
306.50 0.1007913
306.60 0.101058
306.70 0.1013242
306.80 0.1015902
306.90 0.1018557
307.00 0.1021209
307.10 0.1023857
307.20 0.1026501
307.30 0.1029142
307.40 0.1031779
307.50 0.1034413
307.60 0.1037043
307.70 0.1039669
307.80 0.1042292
307.90 0.1044911
308.00 0.1047526
308.10 0.1050138
308.20 0.1052746
308.30 0.105535
308.40 0.1057951
308.50 0.1060549
308.60 0.1063142
308.70 0.1065733
308.80 0.1068383
308.90 0.1071213
309.00 0.107392
309.10 0.1076623
309.20 0.1079323
309.30 0.1082018
309.40 0.1084717
309.50 0.1087447
309.60 0.1090173
309.70 0.1092896
309.80 0.1095615
309.90 0.1098331
310.00 0.1101042
310.10 0.110375
310.20 0.1106454
310.30 0.1109155
310.40 0.1111893
310.50 0.1114674
310.60 0.111745
310.70 0.1120223
310.80 0.1122992
310.90 0.1125757
311.00 0.1128544
311.10 0.1131327
311.20 0.1134106
311.30 0.1136894
311.40 0.1139712
311.50 0.1142526
311.60 0.1145337
311.70 0.1148143
311.80 0.1150946
311.90 0.1153745
312.00 0.115654
312.10 0.1159331
312.20 0.1162103
312.30 0.1164943
312.40 0.1167813
312.50 0.1170741
312.60 0.1173592
312.70 0.1176438
312.80 0.1179281
312.90 0.1182139
313.00 0.1185015
313.10 0.1187886
313.20 0.1190753
313.30 0.1193622
313.40 0.1196503
313.50 0.1199381
313.60 0.1202254
313.70 0.1205124
313.80 0.120799
313.90 0.1210851
314.00 0.1213709
314.10 0.1216641
314.20 0.1219568
314.30 0.1222492
314.40 0.1225412
314.50 0.1228327
314.60 0.1231239
314.70 0.1234147
314.80 0.1237062
314.90 0.1240042
315.00 0.1243055
315.10 0.1246013
315.20 0.1248967
315.30 0.1251917
315.40 0.1254863
315.50 0.1257805
315.60 0.1260743
315.70 0.1263757
315.80 0.1266768
315.90 0.1269774
316.00 0.1272776
316.10 0.1275726
316.20 0.1278673
316.30 0.1281711
316.40 0.1284745
316.50 0.1287775
316.60 0.1290801
316.70 0.1293823
316.80 0.1296841
316.90 0.1299855
317.00 0.1302864
317.10 0.130587
317.20 0.1308872
317.30 0.1311891
317.40 0.1314922
317.50 0.1317992
317.60 0.1321058
317.70 0.132412
317.80 0.1327178
317.90 0.1330351
318.00 0.1333386
318.10 0.1336493
318.20 0.1339597
318.30 0.1342696
318.40 0.1345779
318.50 0.1348823
318.60 0.1351838
318.70 0.1354996
318.80 0.1358056
318.90 0.1361216
319.00 0.1364382
319.10 0.1367496
319.20 0.1370613
319.30 0.1373749
319.40 0.1376881
319.50 0.1380009
319.60 0.1383197
319.70 0.1386316
319.80 0.1389431
319.90 0.1392542
320.00 0.1395679
320.10 0.1398845
320.20 0.1402018
320.30 0.1405254
320.40 0.1408444
320.50 0.1411555
320.60 0.1414797
320.70 0.1417938
320.80 0.1421119
320.90 0.1424344
321.00 0.1427565
321.10 0.1430782
321.20 0.1434023
321.30 0.1437226
321.40 0.1440424
321.50 0.1443619
321.60 0.1446809
321.70 0.1449995
321.80 0.1453206
321.90 0.1456444
322.00 0.1459753
322.10 0.1463022
322.20 0.1466287
322.30 0.1469548
322.40 0.1472804
322.50 0.1476055
322.60 0.1479303
322.70 0.1482546
322.80 0.1485817
322.90 0.1489142
323.00 0.1492462
323.10 0.1495779
323.20 0.149909
323.30 0.1502397
323.40 0.15057
323.50 0.1508999
323.60 0.1512293
323.70 0.1515583
323.80 0.1518868
323.90 0.1522149
324.00 0.1525474
324.10 0.1528794
324.20 0.153211
324.30 0.1535473
324.40 0.1538908
324.50 0.1542259
324.60 0.1545606
324.70 0.1548949
324.80 0.1552287
324.90 0.1555621
325.00 0.155895
325.10 0.1562275
325.20 0.1565625
325.30 0.1569034
325.40 0.1572439
325.50 0.1575851
325.60 0.1579272
325.70 0.1582689
325.80 0.1586101
325.90 0.1589508
326.00 0.1592909
326.10 0.1596306
326.20 0.1599698
326.30 0.1603106
326.40 0.1606568
326.50 0.1610059
326.60 0.1613546
326.70 0.1617028
326.80 0.1620506
326.90 0.1623979
327.00 0.1627447
327.10 0.1630911
327.20 0.1634371
327.30 0.1637826
327.40 0.1641276
327.50 0.1644722
327.60 0.1648163
327.70 0.16516
327.80 0.1655033
327.90 0.1658416
328.00 0.1661839
328.10 0.1665372
328.20 0.16689
328.30 0.1672424
328.40 0.1675943
328.50 0.1679446
328.60 0.1682942
328.70 0.1686433
328.80 0.1689946
328.90 0.1693527
329.00 0.1697104
329.10 0.1700676
329.20 0.1704243
329.30 0.1707806
329.40 0.1711364
329.50 0.1714918
329.60 0.1718467
329.70 0.1722011
329.80 0.1725551
329.90 0.1729086
330.00 0.1732639
330.10 0.1736215
330.20 0.1739787
330.30 0.1743354
330.40 0.174694
330.50 0.1750547
330.60 0.1754149
330.70 0.1757746
330.80 0.1761338
330.90 0.1764926
331.00 0.1768509
331.10 0.1772088
331.20 0.1775662
331.30 0.1779231
331.40 0.1782796
331.50 0.1786485
331.60 0.1790327
331.70 0.1794164
331.80 0.1797875
331.90 0.1801576
332.00 0.1805272
332.10 0.1808963
332.20 0.1812649
332.30 0.1816331
332.40 0.1820008
332.50 0.182368
332.60 0.1827347
332.70 0.183101
332.80 0.1834668
332.90 0.1838321
333.00 0.1841969
333.10 0.1845661
333.20 0.1849406
333.30 0.1853147
333.40 0.1856882
333.50 0.1860613
333.60 0.1864339
333.70 0.186806
333.80 0.1871776
333.90 0.1875488
334.00 0.1879195
334.10 0.1882923
334.20 0.1886677
334.30 0.1890427
334.40 0.1894172
334.50 0.1897912
334.60 0.1901648
334.70 0.1905418
334.80 0.1909082
334.90 0.1912526
335.00 0.1915965
335.10 0.191981
335.20 0.1923803
335.30 0.1927405
335.40 0.1931601
335.50 0.1935365
335.60 0.1938483
335.70 0.1943304
335.80 0.1946413
335.90 0.1949901
336.00 0.1953854
336.10 0.1957802
336.20 0.1961744
336.30 0.1965682
336.40 0.1969615
336.50 0.1973542
336.60 0.1977465
336.70 0.1981382
336.80 0.1985295
336.90 0.198918
337.00 0.1993032
337.10 0.1996879
337.20 0.2000722
337.30 0.2004594
337.40 0.2008511
337.50 0.2012423
337.60 0.201633
337.70 0.2020231
337.80 0.2024128
337.90 0.2027934
338.00 0.2031631
338.10 0.2035323
338.20 0.203901
338.30 0.2042692
338.40 0.2046489
338.50 0.2050576
338.60 0.2054657
338.70 0.2058733
338.80 0.2062803
338.90 0.2066869
339.00 0.2070929
339.10 0.2074984
339.20 0.2079034
339.30 0.2083016
339.40 0.2086903
339.50 0.2090846
339.60 0.2094861
339.70 0.2098871
339.80 0.2102875
339.90 0.2106875
340.00 0.2110869
340.10 0.2114859
340.20 0.2118843
340.30 0.2122822
340.40 0.2126797
340.50 0.2130766
340.60 0.213473
340.70 0.2138689
340.80 0.2142587
340.90 0.2146399
341.00 0.2150253
341.10 0.2154161
341.20 0.2158064
341.30 0.2161961
341.40 0.2165854
341.50 0.2169742
341.60 0.2173625
341.70 0.2177503
341.80 0.2181501
341.90 0.2185648
342.00 0.2189789
342.10 0.2193925
342.20 0.2197795
342.30 0.2202058
342.40 0.2206401
342.50 0.2210342
342.60 0.2214278
342.70 0.2218209
342.80 0.2222135
342.90 0.2226056
343.00 0.2230177
343.10 0.2234541
343.20 0.22389
343.30 0.2243254
343.40 0.2247514
343.50 0.2251642
343.60 0.2255764
343.70 0.2259881
343.80 0.2263993
343.90 0.22681
344.00 0.2272146
344.10 0.2276108
344.20 0.2280064
344.30 0.2284015
344.40 0.2288128
344.50 0.2292474
344.60 0.2296191
344.70 0.2300487
344.80 0.2304817
344.90 0.2309143
345.00 0.2312509
345.10 0.2316824
345.20 0.2321053
345.30 0.2325161
345.40 0.2329264
345.50 0.2333701
345.60 0.2338318
345.70 0.2342601
345.80 0.2346878
345.90 0.235115
346.00 0.2355417
346.10 0.2359678
346.20 0.2363869
346.30 0.2367959
346.40 0.2372044
346.50 0.2376125
346.60 0.23802
346.70 0.238427
346.80 0.2388334
346.90 0.2392394
347.00 0.2396449
347.10 0.2400499
347.20 0.2404686
347.30 0.2409073
347.40 0.2413454
347.50 0.241783
347.60 0.24222
347.70 0.2426565
347.80 0.2430925
347.90 0.2435279
348.00 0.2439628
348.10 0.2443972
348.20 0.244831
348.30 0.2452642
348.40 0.245697
348.50 0.2461291
348.60 0.2465608
348.70 0.2469132
348.80 0.2472859
348.90 0.2477237
349.00 0.248161
349.10 0.2485978
349.20 0.2490341
349.30 0.2494698
349.40 0.2499049
349.50 0.2503395
349.60 0.2507736
349.70 0.2512072
349.80 0.2516402
349.90 0.2520726
350.00 0.2525046
350.10 0.252936
350.20 0.2533668
350.30 0.2538
350.40 0.2542366
350.50 0.2546727
350.60 0.2551083
350.70 0.2555434
350.80 0.2559779
350.90 0.2564118
351.00 0.2568452
351.10 0.2572781
351.20 0.2577105
351.30 0.2581423
351.40 0.258576
351.50 0.2590135
351.60 0.2594504
351.70 0.2598867
351.80 0.2603226
351.90 0.2607579
352.00 0.2611926
352.10 0.2616268
352.20 0.2620987
352.30 0.2625646
352.40 0.2630162
352.50 0.2634672
352.60 0.2639177
352.70 0.2643676
352.80 0.264817
352.90 0.2652658
353.00 0.265714
353.10 0.2661617
353.20 0.2666089
353.30 0.2670555
353.40 0.2675016
353.50 0.2679413
353.60 0.268379
353.70 0.2688161
353.80 0.2692528
353.90 0.2696934
354.00 0.2701415
354.10 0.2705891
354.20 0.2710361
354.30 0.2714826
354.40 0.2719285
354.50 0.2723739
354.60 0.2728188
354.70 0.2732631
354.80 0.2737033
354.90 0.274138
355.00 0.2745722
355.10 0.2750058
355.20 0.2754389
355.30 0.2759205
355.40 0.2764014
355.50 0.2768818
355.60 0.2773616
355.70 0.277808
355.80 0.2782389
355.90 0.2786535
356.00 0.2791017
356.10 0.2795649
356.20 0.2800276
356.30 0.2804898
356.40 0.2809514
356.50 0.2814124
356.60 0.2818728
356.70 0.2823327
356.80 0.2827921
356.90 0.2832509
357.00 0.2837091
357.10 0.2841667
357.20 0.2846239
357.30 0.2850804
357.40 0.2855246
357.50 0.2859474
357.60 0.2863697
357.70 0.2867915
357.80 0.2873144
357.90 0.2878367
358.00 0.2883071
358.10 0.2887641
358.20 0.2892206
358.30 0.2896765
358.40 0.2901319
358.50 0.2905867
358.60 0.291041
358.70 0.2914947
358.80 0.2919479
358.90 0.2924005
359.00 0.2928481
359.10 0.2932873
359.20 0.2937308
359.30 0.2942071
359.40 0.2946827
359.50 0.2951571
359.60 0.2956307
359.70 0.2961037
359.80 0.2965585
359.90 0.2970127
360.00 0.2974725
360.10 0.2979429
360.20 0.2984127
360.30 0.2988819
360.40 0.2993506
360.50 0.2998187
360.60 0.3003291
360.70 0.3007912
360.80 0.3012527
360.90 0.3017137
361.00 0.302138
361.10 0.302568
361.20 0.3030887
361.30 0.3035696
361.40 0.3040498
361.50 0.3044706
361.60 0.3049851
361.70 0.3054048
361.80 0.3058603
361.90 0.30638
362.00 0.3068991
362.10 0.3073564
362.20 0.3078094
362.30 0.3082824
362.40 0.3087549
362.50 0.3092269
362.60 0.3096982
362.70 0.3101433
362.80 0.3106546
362.90 0.3111377
363.00 0.3116201
363.10 0.3120488
363.20 0.3124765
363.30 0.3130075
363.40 0.3134181
363.50 0.3139738
363.60 0.3143833
363.70 0.3149216
363.80 0.3153462
363.90 0.3158303
364.00 0.3163137
364.10 0.3167966
364.20 0.3172789
364.30 0.3177515
364.40 0.3182211
364.50 0.318777
364.60 0.3192273
364.70 0.3196771
364.80 0.3201263
364.90 0.3206012
365.00 0.3210755
365.10 0.3216214
365.20 0.3220224
365.30 0.3225671
365.40 0.322967
365.50 0.3235105
365.60 0.3240534
365.70 0.3245302
365.80 0.3250064
365.90 0.3254705
366.00 0.3259311
366.10 0.3264233
366.20 0.3269149
366.30 0.3274059
366.40 0.3278963
366.50 0.3283311
366.60 0.328874
366.70 0.3293451
366.80 0.3298156
366.90 0.3302923
367.00 0.3307804
367.10 0.3312679
367.20 0.3317549
367.30 0.3322412
367.40 0.332727
367.50 0.3331858
367.60 0.3336374
367.70 0.3341301
367.80 0.3346222
367.90 0.3351137
368.00 0.3356122
368.10 0.3361329
368.20 0.3366203
368.30 0.3371069
368.40 0.3375928
368.50 0.3380782
368.60 0.338563
368.70 0.3390472
368.80 0.3395309
368.90 0.3400465
369.00 0.3405133
369.10 0.3409531
369.20 0.3414805
369.30 0.341954
369.40 0.342427
369.50 0.3428994
369.60 0.3434146
369.70 0.3439293
369.80 0.344428
369.90 0.3449259
370.00 0.3454233
370.10 0.3458577
370.20 0.3463706
370.30 0.3468851
370.40 0.3473991
370.50 0.3479125
370.60 0.3484253
370.70 0.3488044
370.80 0.3493126
370.90 0.3498202
371.00 0.350334
371.10 0.3508474
371.20 0.3513531
371.30 0.3518583
371.40 0.3523374
371.50 0.3528228
371.60 0.3533077
371.70 0.3537919
371.80 0.3542756
371.90 0.3547587
372.00 0.3552699
372.10 0.3557739
372.20 0.3562772
372.30 0.35678
372.40 0.3572822
372.50 0.3577837
372.60 0.3582847
372.70 0.3587851
372.80 0.3592815
372.90 0.3597773
373.00 0.3602793
373.10 0.3607808
373.20 0.3612783
373.30 0.3617752
373.40 0.3622715
373.50 0.3627672
373.60 0.3632623
373.70 0.3637568
373.80 0.3642938
373.90 0.3647442
374.00 0.3652714
374.10 0.365798
374.20 0.3663239
374.30 0.3668493
374.40 0.3673397
374.50 0.3678229
374.60 0.3683137
374.70 0.3688041
374.80 0.3692939
374.90 0.3697832
375.00 0.3703158
375.10 0.3708477
375.20 0.3713791
375.30 0.3718838
375.40 0.3723879
375.50 0.3728914
375.60 0.3733943
375.70 0.3738967
375.80 0.3743984
375.90 0.3748996
376.00 0.375374
376.10 0.3758853
376.20 0.3763965
376.30 0.376907
376.40 0.3774169
376.50 0.3779231
376.60 0.3784242
376.70 0.3789247
376.80 0.3794374
376.90 0.3799623
377.00 0.3804866
377.10 0.3810103
377.20 0.3815227
377.30 0.3819942
377.40 0.3824652
377.50 0.3829356
377.60 0.3834663
377.70 0.3839963
377.80 0.3845257
377.90 0.3850545
378.00 0.3855527
378.10 0.3860648
378.20 0.3865769
378.30 0.3870884
378.40 0.3875994
378.50 0.3881097
378.60 0.3886194
378.70 0.3891285
378.80 0.3896371
378.90 0.3901385
379.00 0.3906273
379.10 0.391171
379.20 0.3917141
379.30 0.3922272
379.40 0.3927104
379.50 0.3931931
379.60 0.3937137
379.70 0.3942766
379.80 0.394783
379.90 0.3952889
380.00 0.3957942
380.10 0.3962988
380.20 0.3968029
380.30 0.3973065
380.40 0.3978094
380.50 0.3983117
380.60 0.3989307
380.70 0.3994454
380.80 0.3999594
380.90 0.4004728
381.00 0.4009857
381.10 0.4014377
381.20 0.4019186
381.30 0.4024643
381.40 0.4030281
381.50 0.4034948
381.60 0.4040009
381.70 0.4045741
381.80 0.4051151
381.90 0.4055627
382.00 0.4061416
382.10 0.406588
382.20 0.4071919
382.30 0.4077031
382.40 0.4082115
382.50 0.4087163
382.60 0.4092205
382.70 0.4097689
382.80 0.4103283
382.90 0.4108482
383.00 0.4113675
383.10 0.4118863
383.20 0.4124025
383.30 0.4129109
383.40 0.4134287
383.50 0.4139608
383.60 0.4144655
383.70 0.4149899
383.80 0.4155138
383.90 0.416037
384.00 0.4165596
384.10 0.4170817
384.20 0.4176031
384.30 0.4181239
384.40 0.4186396
384.50 0.41915
384.60 0.4196598
384.70 0.420169
384.80 0.4206837
384.90 0.4212096
385.00 0.4217151
385.10 0.4222197
385.20 0.4227467
385.30 0.4233168
385.40 0.4238541
385.50 0.4243586
385.60 0.4248625
385.70 0.4253659
385.80 0.4258755
385.90 0.4264104
386.00 0.4269335
386.10 0.4274461
386.20 0.427972
386.30 0.4284972
386.40 0.4290637
386.50 0.4295937
386.60 0.4301042
386.70 0.4306217
386.80 0.4311708
386.90 0.4317192
387.00 0.4322091
387.10 0.4327563
387.20 0.4332835
387.30 0.4338489
387.40 0.4342976
387.50 0.4348328
387.60 0.4353818
387.70 0.4359253
387.80 0.4364682
387.90 0.4370105
388.00 0.4375472
388.10 0.4380102
388.20 0.4385823
388.30 0.4390856
388.40 0.4395885
388.50 0.4401097
388.60 0.440646
388.70 0.4412446
388.80 0.441719
388.90 0.4422075
389.00 0.4427847
389.10 0.4433174
389.20 0.4438499
389.30 0.4443749
389.40 0.4448625
389.50 0.4454045
389.60 0.4460039
389.70 0.4465178
389.80 0.4470426
389.90 0.4475667
390.00 0.4480902
390.10 0.4486132
390.20 0.4491355
390.30 0.4496623
390.40 0.450194
390.50 0.4507252
390.60 0.4512557
390.70 0.4517856
390.80 0.4523262
390.90 0.4528774
391.00 0.4534326
391.10 0.4539335
391.20 0.4544585
391.30 0.4550307
391.40 0.4555518
391.50 0.4560724
391.60 0.4565924
391.70 0.4571117
391.80 0.4576305
391.90 0.4581807
392.00 0.458742
392.10 0.4592666
392.20 0.4597987
392.30 0.4603709
392.40 0.4608985
392.50 0.4613337
392.60 0.4619102
392.70 0.4624641
392.80 0.462977
392.90 0.4634748
393.00 0.4640342
393.10 0.4646011
393.20 0.4651706
393.30 0.4656805
393.40 0.4661848
393.50 0.4666849
393.60 0.4672715
393.70 0.467793
393.80 0.4683452
393.90 0.4688515
394.00 0.4693623
394.10 0.4699025
394.20 0.4704184
394.30 0.4709872
394.40 0.471503
394.50 0.472058
394.60 0.4725782
394.70 0.4731049
394.80 0.4736581
394.90 0.4742105
395.00 0.4747584
395.10 0.4752855
395.20 0.4758342
395.30 0.4763957
395.40 0.4769566
395.50 0.4774794
395.60 0.4779877
395.70 0.4785018
395.80 0.4790326
395.90 0.4795628
396.00 0.4800902
396.10 0.480609
396.20 0.4811632
396.30 0.4817498
396.40 0.4822813
396.50 0.4828551
396.60 0.4833854
396.70 0.4839247
396.80 0.484475
396.90 0.4849574
397.00 0.4855434
397.10 0.4860107
397.20 0.4865596
397.30 0.4871001
397.40 0.4876596
397.50 0.4882185
397.60 0.4887743
397.70 0.4893051
397.80 0.4898353
397.90 0.4903663
398.00 0.4909009
398.10 0.4914348
398.20 0.4919755
398.30 0.4925238
398.40 0.4930701
398.50 0.4935683
398.60 0.4940923
398.70 0.4946331
398.80 0.4951752
398.90 0.4957225
399.00 0.4962798
399.10 0.4968283
399.20 0.4973825
399.30 0.4979362
399.40 0.4984892
399.50 0.4990416
399.60 0.4995697
399.70 0.5000886
399.80 0.5006069
399.90 0.5011245
400.00 0.5016436
400.10 0.502225
400.20 0.5027761
400.30 0.5033138
400.40 0.5038689
400.50 0.5044457
400.60 0.5049265
400.70 0.5055134
400.80 0.5060236
400.90 0.5065494
401.00 0.5071589
401.10 0.5076799
401.20 0.5081513
401.30 0.5086776
401.40 0.5092163
401.50 0.5097585
401.60 0.5103009
401.70 0.5108725
401.80 0.5114023
401.90 0.5119868
402.00 0.5125019
402.10 0.5130543
402.20 0.5136474
402.30 0.5141761
402.40 0.5147153
402.50 0.515242
402.60 0.5158361
402.70 0.5162728
402.80 0.516906
402.90 0.5174436
403.00 0.517957
403.10 0.5184461
403.20 0.5190421
403.30 0.5196037
403.40 0.5201241
403.50 0.5206823
403.60 0.5212469
403.70 0.521747
403.80 0.5223388
403.90 0.5228844
404.00 0.5234156
404.10 0.5238961
404.20 0.5244614
404.30 0.525026
404.40 0.5255472
404.50 0.5260946
404.60 0.5266574
404.70 0.5271608
404.80 0.5277463
404.90 0.5282833
405.00 0.5288096
405.10 0.5293364
405.20 0.5298704
405.30 0.5304038
405.40 0.5309618
405.50 0.5315191
405.60 0.5320758
405.70 0.5326319
405.80 0.5331873
405.90 0.5337422
406.00 0.5342779
406.10 0.534813
406.20 0.5353475
406.30 0.5358814
406.40 0.5364141
406.50 0.5369443
406.60 0.537551
406.70 0.5381155
406.80 0.5386686
406.90 0.5391655
407.00 0.5397137
407.10 0.5402613
407.20 0.5408084
407.30 0.5413548
407.40 0.5419006
407.50 0.5424458
407.60 0.5429904
407.70 0.5435344
407.80 0.5440778
407.90 0.544621
408.00 0.5451752
408.10 0.545738
408.20 0.5462758
408.30 0.5467978
408.40 0.5473192
408.50 0.5478408
408.60 0.5484101
408.70 0.5489789
408.80 0.5495423
408.90 0.5500729
409.00 0.5506209
409.10 0.5511682
409.20 0.551715
409.30 0.5522611
409.40 0.5528065
409.50 0.5533475
409.60 0.5538879
409.70 0.5544242
409.80 0.5549456
409.90 0.5554695
410.00 0.5560876
410.10 0.5565792
410.20 0.5571394
410.30 0.5577161
410.40 0.5582782
410.50 0.558795
410.60 0.5593113
410.70 0.5598357
410.80 0.5603941
410.90 0.5609519
411.00 0.5615156
411.10 0.562081
411.20 0.5626459
411.30 0.5631981
411.40 0.5637025
411.50 0.5642316
411.60 0.5647602
411.70 0.565298
411.80 0.5658745
411.90 0.5664504
412.00 0.5670256
412.10 0.567487
412.20 0.568061
412.30 0.5686195
412.40 0.5691187
412.50 0.5696745
412.60 0.5702865
412.70 0.5708207
412.80 0.571335
412.90 0.5719185
413.00 0.5724861
413.10 0.5730144
413.20 0.5735421
413.30 0.5740692
413.40 0.5745957
413.50 0.575125
413.60 0.5756728
413.70 0.5762377
413.80 0.5768021
413.90 0.5773658
414.00 0.5779154
414.10 0.5784218
414.20 0.5789412
414.30 0.5795025
414.40 0.5800632
414.50 0.5806156
414.60 0.5811829
414.70 0.5817418
414.80 0.5822934
414.90 0.5828231
415.00 0.5833523
415.10 0.5838809
415.20 0.584415
415.30 0.5849677
415.40 0.5855198
415.50 0.5860715
415.60 0.586628
415.70 0.587184
415.80 0.5877315
415.90 0.588254
416.00 0.5887759
416.10 0.5893069
416.20 0.5898762
416.30 0.5904449
416.40 0.5910129
416.50 0.5915798
416.60 0.5921274
416.70 0.5926743
416.80 0.5932241
416.90 0.5937665
417.00 0.5943026
417.10 0.5948562
