# Version 2.1 - nm, norm@500 to 1, cut digits, bergeron_He_13000_70.dat_13000
# Wavelength(nm)  Flambda(ergs/cm^s/s/nm)
300.00 2.857323
300.10 2.855916
300.20 2.854481
300.30 2.853053
300.40 2.85166
300.50 2.850269
300.60 2.848879
300.70 2.84749
300.80 2.846103
300.90 2.844716
301.00 2.843331
301.10 2.841947
301.20 2.840564
301.30 2.839183
301.40 2.837802
301.50 2.836423
301.60 2.835045
301.70 2.833669
301.80 2.832293
301.90 2.830919
302.00 2.829546
302.10 2.82815
302.20 2.826753
302.30 2.825357
302.40 2.823962
302.50 2.822569
302.60 2.821177
302.70 2.819786
302.80 2.818396
302.90 2.817008
303.00 2.81562
303.10 2.814234
303.20 2.812849
303.30 2.811463
303.40 2.810051
303.50 2.808641
303.60 2.807233
303.70 2.805825
303.80 2.804419
303.90 2.803014
304.00 2.80161
304.10 2.800207
304.20 2.798806
304.30 2.797406
304.40 2.796007
304.50 2.79461
304.60 2.793209
304.70 2.791809
304.80 2.790411
304.90 2.789014
305.00 2.787618
305.10 2.786223
305.20 2.784829
305.30 2.783437
305.40 2.782046
305.50 2.780656
305.60 2.779267
305.70 2.77788
305.80 2.776494
305.90 2.775109
306.00 2.773725
306.10 2.772342
306.20 2.770961
306.30 2.769581
306.40 2.768184
306.50 2.766784
306.60 2.765385
306.70 2.763987
306.80 2.76259
306.90 2.761194
307.00 2.7598
307.10 2.758407
307.20 2.757015
307.30 2.755624
307.40 2.754235
307.50 2.752847
307.60 2.75146
307.70 2.750074
307.80 2.74869
307.90 2.747306
308.00 2.745924
308.10 2.744543
308.20 2.743164
308.30 2.741785
308.40 2.740408
308.50 2.739032
308.60 2.737657
308.70 2.736284
308.80 2.734871
308.90 2.733343
309.00 2.731951
309.10 2.730561
309.20 2.729172
309.30 2.727784
309.40 2.726398
309.50 2.725015
309.60 2.723633
309.70 2.722252
309.80 2.720873
309.90 2.719494
310.00 2.718117
310.10 2.716741
310.20 2.715367
310.30 2.713993
310.40 2.712626
310.50 2.711266
310.60 2.709907
310.70 2.708549
310.80 2.707192
310.90 2.705836
311.00 2.704419
311.10 2.703003
311.20 2.701589
311.30 2.700178
311.40 2.698776
311.50 2.697376
311.60 2.695976
311.70 2.694578
311.80 2.693181
311.90 2.691786
312.00 2.690392
312.10 2.688998
312.20 2.68754
312.30 2.686086
312.40 2.684698
312.50 2.683343
312.60 2.681948
312.70 2.680554
312.80 2.679161
312.90 2.677751
313.00 2.676323
313.10 2.674895
313.20 2.67347
313.30 2.672046
313.40 2.670628
313.50 2.669211
313.60 2.667795
313.70 2.66638
313.80 2.664966
313.90 2.663554
314.00 2.662143
314.10 2.660678
314.20 2.659214
314.30 2.657751
314.40 2.656289
314.50 2.654829
314.60 2.65337
314.70 2.651912
314.80 2.650495
314.90 2.649008
315.00 2.647326
315.10 2.645744
315.20 2.644164
315.30 2.642585
315.40 2.641007
315.50 2.639431
315.60 2.637856
315.70 2.636039
315.80 2.634223
315.90 2.63241
316.00 2.630598
316.10 2.628203
316.20 2.625812
316.30 2.624735
316.40 2.62395
316.50 2.620399
316.60 2.614232
316.70 2.61229
316.80 2.610351
316.90 2.608849
317.00 2.607348
317.10 2.605849
317.20 2.604351
317.30 2.604209
317.40 2.603571
317.50 2.601523
317.60 2.599478
317.70 2.597435
317.80 2.595393
317.90 2.590341
318.00 2.582724
318.10 2.569349
318.20 2.55599
318.30 2.542648
318.40 2.517816
318.50 2.460286
318.60 2.383358
318.70 2.126818
318.80 1.72555
318.90 2.215424
319.00 2.368693
319.10 2.439282
319.20 2.495841
319.30 2.512678
319.40 2.529493
319.50 2.546286
319.60 2.557421
319.70 2.560353
319.80 2.563281
319.90 2.566205
320.00 2.568116
320.10 2.568932
320.20 2.569253
320.30 2.569372
320.40 2.569076
320.50 2.568524
320.60 2.567984
320.70 2.567233
320.80 2.566382
320.90 2.56542
321.00 2.564459
321.10 2.563499
321.20 2.562644
321.30 2.561538
321.40 2.560433
321.50 2.559329
321.60 2.558226
321.70 2.557123
321.80 2.555971
321.90 2.554763
322.00 2.553359
322.10 2.552123
322.20 2.550889
322.30 2.549656
322.40 2.548423
322.50 2.547192
322.60 2.545962
322.70 2.544733
322.80 2.543695
322.90 2.542418
323.00 2.541142
323.10 2.539868
323.20 2.538594
323.30 2.537321
323.40 2.53605
323.50 2.534779
323.60 2.53351
323.70 2.532241
323.80 2.530974
323.90 2.529708
324.00 2.528444
324.10 2.527181
324.20 2.525919
324.30 2.524674
324.40 2.523433
324.50 2.522149
324.60 2.520867
324.70 2.519586
324.80 2.518306
324.90 2.517027
325.00 2.515749
325.10 2.514472
325.20 2.513202
325.30 2.511946
325.40 2.51069
325.50 2.509431
325.60 2.508167
325.70 2.506904
325.80 2.505643
325.90 2.504374
326.00 2.503098
326.10 2.501823
326.20 2.50055
326.30 2.499266
326.40 2.497952
326.50 2.496686
326.60 2.495421
326.70 2.494157
326.80 2.492895
326.90 2.491633
327.00 2.490372
327.10 2.489113
327.20 2.487855
327.30 2.486597
327.40 2.485341
327.50 2.484086
327.60 2.482832
327.70 2.481578
327.80 2.480326
327.90 2.479076
328.00 2.477762
328.10 2.476369
328.20 2.474977
328.30 2.473586
328.40 2.472197
328.50 2.470961
328.60 2.469761
328.70 2.468563
328.80 2.467352
328.90 2.466103
329.00 2.464856
329.10 2.463609
329.20 2.462363
329.30 2.461119
329.40 2.459875
329.50 2.458632
329.60 2.457391
329.70 2.45615
329.80 2.454911
329.90 2.453673
330.00 2.452414
330.10 2.451131
330.20 2.449849
330.30 2.448568
330.40 2.447296
330.50 2.446033
330.60 2.444771
330.70 2.443511
330.80 2.442251
330.90 2.440993
331.00 2.439735
331.10 2.438479
331.20 2.437224
331.30 2.435969
331.40 2.434716
331.50 2.433463
331.60 2.432209
331.70 2.430955
331.80 2.429649
331.90 2.428342
332.00 2.427036
332.10 2.425732
332.20 2.424428
332.30 2.423126
332.40 2.421824
332.50 2.420524
332.60 2.419225
332.70 2.417927
332.80 2.41663
332.90 2.415334
333.00 2.41404
333.10 2.412676
333.20 2.411228
333.30 2.409782
333.40 2.408336
333.50 2.406892
333.60 2.405449
333.70 2.404008
333.80 2.402568
333.90 2.401129
334.00 2.399691
334.10 2.398039
334.20 2.396125
334.30 2.394213
334.40 2.392303
334.50 2.390395
334.60 2.388489
334.70 2.386348
334.80 2.38364
334.90 2.380528
335.00 2.37742
335.10 2.37364
335.20 2.369497
335.30 2.364833
335.40 2.358202
335.50 2.36101
335.60 2.364623
335.70 2.366315
335.80 2.367623
335.90 2.368347
336.00 2.368359
336.10 2.368371
336.20 2.368382
336.30 2.368006
336.40 2.367157
336.50 2.366308
336.60 2.36546
336.70 2.364613
336.80 2.363767
336.90 2.362842
337.00 2.361821
337.10 2.360802
337.20 2.359783
337.30 2.358732
337.40 2.357635
337.50 2.356539
337.60 2.355444
337.70 2.35435
337.80 2.353256
337.90 2.352118
338.00 2.350924
338.10 2.349732
338.20 2.34854
338.30 2.34735
338.40 2.346153
338.50 2.344939
338.60 2.343726
338.70 2.342514
338.80 2.341303
338.90 2.340093
339.00 2.338884
339.10 2.337677
339.20 2.33647
339.30 2.335247
339.40 2.334
339.50 2.332749
339.60 2.331492
339.70 2.330236
339.80 2.32898
339.90 2.327727
340.00 2.326474
340.10 2.325222
340.20 2.323971
340.30 2.322721
340.40 2.321473
340.50 2.320225
340.60 2.318979
340.70 2.317733
340.80 2.316494
340.90 2.315263
341.00 2.314004
341.10 2.31271
341.20 2.311418
341.30 2.310126
341.40 2.308835
341.50 2.307546
341.60 2.306258
341.70 2.30497
341.80 2.303656
341.90 2.302309
342.00 2.300963
342.10 2.299618
342.20 2.298274
342.30 2.296931
342.40 2.295555
342.50 2.294132
342.60 2.292709
342.70 2.291288
342.80 2.289868
342.90 2.288449
343.00 2.286931
343.10 2.285292
343.20 2.283653
343.30 2.282017
343.40 2.280085
343.50 2.277727
343.60 2.275371
343.70 2.273018
343.80 2.270667
343.90 2.268319
344.00 2.264903
344.10 2.259952
344.20 2.255006
344.30 2.250065
344.40 2.243188
344.50 2.233527
344.60 2.222497
344.70 2.2053
344.80 2.21436
344.90 2.228328
345.00 2.235584
345.10 2.240169
345.20 2.243628
345.30 2.24547
345.40 2.24731
345.50 2.248582
345.60 2.248807
345.70 2.248523
345.80 2.24824
345.90 2.247956
346.00 2.247673
346.10 2.247389
346.20 2.246789
346.30 2.245735
346.40 2.244682
346.50 2.243629
346.60 2.242578
346.70 2.241527
346.80 2.240477
346.90 2.239428
347.00 2.23838
347.10 2.237333
347.20 2.236255
347.30 2.235132
347.40 2.234011
347.50 2.23289
347.60 2.23177
347.70 2.230652
347.80 2.229534
347.90 2.228417
348.00 2.227301
348.10 2.226186
348.20 2.225071
348.30 2.223958
348.40 2.222846
348.50 2.221734
348.60 2.220624
348.70 2.219389
348.80 2.21815
348.90 2.216958
349.00 2.215768
349.10 2.214578
349.20 2.21339
349.30 2.212203
349.40 2.211016
349.50 2.209831
349.60 2.208646
349.70 2.207463
349.80 2.20628
349.90 2.205099
350.00 2.203918
350.10 2.202739
350.20 2.201561
350.30 2.200377
350.40 2.199186
350.50 2.197996
350.60 2.196806
350.70 2.195618
350.80 2.194431
350.90 2.193245
351.00 2.192059
351.10 2.190875
351.20 2.189692
351.30 2.18851
351.40 2.18734
351.50 2.18619
351.60 2.185042
351.70 2.183894
351.80 2.182748
351.90 2.181602
352.00 2.180457
352.10 2.179314
352.20 2.178086
352.30 2.176891
352.40 2.175757
352.50 2.174624
352.60 2.173491
352.70 2.17236
352.80 2.17123
352.90 2.1701
353.00 2.168972
353.10 2.167844
353.20 2.166718
353.30 2.165592
353.40 2.164467
353.50 2.163347
353.60 2.162229
353.70 2.161111
353.80 2.159995
353.90 2.158898
354.00 2.157834
354.10 2.156772
354.20 2.15571
354.30 2.154649
354.40 2.153589
354.50 2.15253
354.60 2.151472
354.70 2.150414
354.80 2.14938
354.90 2.148379
355.00 2.147379
355.10 2.146379
355.20 2.145381
355.30 2.144388
355.40 2.143396
355.50 2.142404
355.60 2.141414
355.70 2.140413
355.80 2.139408
355.90 2.13848
356.00 2.137565
356.10 2.13662
356.20 2.135675
356.30 2.134731
356.40 2.133788
356.50 2.132846
356.60 2.131904
356.70 2.130963
356.80 2.130022
356.90 2.129083
357.00 2.128144
357.10 2.127206
357.20 2.126268
357.30 2.125331
357.40 2.124402
357.50 2.123486
357.60 2.12257
357.70 2.121655
357.80 2.120676
357.90 2.119698
358.00 2.118748
358.10 2.117804
358.20 2.116862
358.30 2.11592
358.40 2.114978
358.50 2.114038
358.60 2.113098
358.70 2.112159
358.80 2.111221
358.90 2.110283
359.00 2.109297
359.10 2.108224
359.20 2.107151
359.30 2.106075
359.40 2.105
359.50 2.103784
359.60 2.102534
359.70 2.101284
359.80 2.099775
359.90 2.098267
360.00 2.09643
360.10 2.094009
360.20 2.09159
360.30 2.089173
360.40 2.086759
360.50 2.084347
360.60 2.078778
360.70 2.070392
360.80 2.062016
360.90 2.053648
361.00 2.042563
361.10 2.019453
361.20 1.989929
361.30 1.933927
361.40 1.965475
361.50 2.020033
361.60 2.037121
361.70 2.041683
361.80 2.045979
361.90 2.04981
362.00 2.053635
362.10 2.055099
362.20 2.055022
362.30 2.053254
362.40 2.051487
362.50 2.049722
362.60 2.047959
362.70 2.044855
362.80 2.041142
362.90 2.035938
363.00 2.03074
363.10 2.023378
363.20 2.016001
363.30 2.005681
363.40 1.995628
363.50 2.008333
363.60 2.018926
363.70 2.024361
363.80 2.028613
363.90 2.030961
364.00 2.033306
364.10 2.035648
364.20 2.037988
364.30 2.040003
364.40 2.041936
364.50 2.043252
364.60 2.044173
364.70 2.045093
364.80 2.046012
364.90 2.045877
365.00 2.045741
365.10 2.044402
365.20 2.041313
365.30 2.04118
365.40 2.042358
365.50 2.043315
365.60 2.044272
365.70 2.044741
365.80 2.045209
365.90 2.045183
366.00 2.045034
366.10 2.044612
366.20 2.044191
366.30 2.043769
366.40 2.043348
366.50 2.042712
366.60 2.042036
366.70 2.041169
366.80 2.040303
366.90 2.039363
367.00 2.03829
367.10 2.037219
367.20 2.036148
367.30 2.035079
367.40 2.03401
367.50 2.032719
367.60 2.031373
367.70 2.0297
367.80 2.028029
367.90 2.02636
368.00 2.024697
368.10 2.022851
368.20 2.020181
368.30 2.017505
368.40 2.014832
368.50 2.012161
368.60 2.009493
368.70 2.006828
368.80 2.004165
368.90 2.001107
369.00 1.997308
369.10 1.993504
369.20 1.988972
369.30 1.983259
369.40 1.977552
369.50 1.971851
369.60 1.963983
369.70 1.956123
369.80 1.945062
369.90 1.933982
370.00 1.922913
370.10 1.910642
370.20 1.89134
370.30 1.872017
370.40 1.84144
370.50 1.820459
370.60 1.856525
370.70 1.886696
370.80 1.9031
370.90 1.919487
371.00 1.925903
371.10 1.932212
371.20 1.936756
371.30 1.941294
371.40 1.9458
371.50 1.949438
371.60 1.953071
371.70 1.956701
371.80 1.960326
371.90 1.963948
372.00 1.966192
372.10 1.967996
372.20 1.968834
372.30 1.969671
372.40 1.970507
372.50 1.971342
372.60 1.972176
372.70 1.973008
372.80 1.972681
372.90 1.972354
373.00 1.971513
373.10 1.970666
373.20 1.967201
373.30 1.963739
373.40 1.949293
373.50 1.949505
373.60 1.953688
373.70 1.957657
373.80 1.960539
373.90 1.963078
374.00 1.963801
374.10 1.964524
374.20 1.965245
374.30 1.965966
374.40 1.965956
374.50 1.965937
374.60 1.965465
374.70 1.964989
374.80 1.964513
374.90 1.964038
375.00 1.963336
375.10 1.962635
375.20 1.961935
375.30 1.961037
375.40 1.960141
375.50 1.959244
375.60 1.958349
375.70 1.957454
375.80 1.95656
375.90 1.955667
376.00 1.954831
376.10 1.953794
376.20 1.952755
376.30 1.951718
376.40 1.950681
376.50 1.949645
376.60 1.948609
376.70 1.947575
376.80 1.946493
376.90 1.945365
377.00 1.944237
377.10 1.943111
377.20 1.941978
377.30 1.940821
377.40 1.939665
377.50 1.93851
377.60 1.937261
377.70 1.936013
377.80 1.934766
377.90 1.93352
378.00 1.932165
378.10 1.930623
378.20 1.929083
378.30 1.927544
378.40 1.926006
378.50 1.92447
378.60 1.922935
378.70 1.921402
378.80 1.91987
378.90 1.918204
379.00 1.916289
379.10 1.914304
379.20 1.91232
379.30 1.910203
379.40 1.907954
379.50 1.905707
379.60 1.903278
379.70 1.900321
379.80 1.896417
379.90 1.892516
380.00 1.888619
380.10 1.884726
380.20 1.880837
380.30 1.876952
380.40 1.87307
380.50 1.869193
380.60 1.86223
380.70 1.853427
380.80 1.844633
380.90 1.835848
381.00 1.827072
381.10 1.813682
381.20 1.799296
381.30 1.782389
381.40 1.761278
381.50 1.735781
381.60 1.706394
381.70 1.669705
381.80 1.62505
381.90 1.547171
382.00 1.524364
382.10 1.622399
382.20 1.679101
382.30 1.719452
382.40 1.751314
382.50 1.770479
382.60 1.789624
382.70 1.804147
382.80 1.810217
382.90 1.81303
383.00 1.815839
383.10 1.818645
383.20 1.821882
383.30 1.826747
383.40 1.831324
383.50 1.835471
383.60 1.83894
383.70 1.84088
383.80 1.842818
383.90 1.844753
384.00 1.846687
384.10 1.848618
384.20 1.850547
384.30 1.852473
384.40 1.853621
384.50 1.853991
384.60 1.854361
384.70 1.85473
384.80 1.855011
384.90 1.854879
385.00 1.854592
385.10 1.854305
385.20 1.853909
385.30 1.853346
385.40 1.852652
385.50 1.851829
385.60 1.851006
385.70 1.850183
385.80 1.849308
385.90 1.848235
386.00 1.847012
386.10 1.845541
386.20 1.843074
386.30 1.84061
386.40 1.837358
386.50 1.831712
386.60 1.82187
386.70 1.796048
386.80 1.761719
386.90 1.781131
387.00 1.797
387.10 1.806826
387.20 1.812669
387.30 1.817376
387.40 1.820254
387.50 1.821676
387.60 1.822004
387.70 1.820627
387.80 1.819252
387.90 1.817878
388.00 1.815934
388.10 1.811566
388.20 1.802772
388.30 1.790723
388.40 1.778686
388.50 1.759925
388.60 1.723534
388.70 1.654671
388.80 1.468348
388.90 1.359127
389.00 1.595786
389.10 1.685323
389.20 1.731907
389.30 1.75939
389.40 1.774869
389.50 1.787208
389.60 1.794323
389.70 1.798227
389.80 1.799884
389.90 1.80154
390.00 1.803194
390.10 1.804846
390.20 1.806496
390.30 1.807242
390.40 1.806971
390.50 1.8067
390.60 1.80643
390.70 1.806159
390.80 1.805669
390.90 1.804961
391.00 1.804287
391.10 1.803365
391.20 1.802443
391.30 1.801373
391.40 1.800135
391.50 1.798898
391.60 1.797662
391.70 1.796427
391.80 1.795194
391.90 1.793943
392.00 1.792552
392.10 1.79098
392.20 1.789411
392.30 1.787726
392.40 1.78591
392.50 1.783984
392.60 1.781527
392.70 1.77877
392.80 1.7796
392.90 1.780083
393.00 1.780283
393.10 1.780349
393.20 1.780249
393.30 1.780005
393.40 1.779747
393.50 1.779137
393.60 1.778269
393.70 1.777879
393.80 1.777438
393.90 1.776911
394.00 1.776379
394.10 1.775728
394.20 1.775018
394.30 1.774213
394.40 1.773313
394.50 1.772414
394.60 1.771307
394.70 1.770154
394.80 1.768828
394.90 1.767492
395.00 1.765818
395.10 1.764212
395.20 1.761983
395.30 1.759632
395.40 1.757283
395.50 1.753509
395.60 1.749212
395.70 1.743688
395.80 1.734841
395.90 1.726002
396.00 1.716357
396.10 1.69323
396.20 1.655941
396.30 1.609082
396.40 1.486908
396.50 1.495304
396.60 1.646632
396.70 1.690062
396.80 1.699502
396.90 1.701956
397.00 1.710356
397.10 1.724916
397.20 1.730355
397.30 1.728981
397.40 1.72997
397.50 1.730958
397.60 1.731914
397.70 1.732548
397.80 1.733181
397.90 1.733567
398.00 1.733288
398.10 1.733009
398.20 1.732452
398.30 1.731582
398.40 1.730705
398.50 1.729554
398.60 1.728465
398.70 1.727139
398.80 1.725749
398.90 1.724306
399.00 1.722763
399.10 1.721061
399.20 1.719023
399.30 1.716986
399.40 1.714952
399.50 1.712919
399.60 1.710354
399.70 1.707595
399.80 1.704837
399.90 1.702082
400.00 1.699307
400.10 1.695794
400.20 1.69222
400.30 1.688067
400.40 1.683771
400.50 1.679319
400.60 1.673806
400.70 1.668064
400.80 1.661298
400.90 1.65128
401.00 1.645087
401.10 1.645641
401.20 1.64354
401.30 1.639661
401.40 1.633083
401.50 1.625632
401.60 1.618045
401.70 1.605833
401.80 1.591315
401.90 1.572307
402.00 1.551174
402.10 1.523224
402.20 1.487715
402.30 1.442411
402.40 1.382311
402.50 1.295771
402.60 1.120175
402.70 1.236904
402.80 1.359757
402.90 1.425647
403.00 1.48486
403.10 1.526272
403.20 1.555276
403.30 1.577275
403.40 1.595588
403.50 1.608992
403.60 1.621204
403.70 1.630421
403.80 1.637486
403.90 1.64257
404.00 1.647187
404.10 1.650068
404.20 1.651037
404.30 1.652006
404.40 1.649048
404.50 1.640831
404.60 1.636634
404.70 1.639477
404.80 1.64361
404.90 1.647291
405.00 1.650059
405.10 1.652016
405.20 1.653803
405.30 1.655588
405.40 1.656251
405.50 1.656913
405.60 1.657574
405.70 1.658235
405.80 1.658894
405.90 1.659553
406.00 1.659483
406.10 1.659414
406.20 1.659344
406.30 1.659274
406.40 1.6592
406.50 1.659029
406.60 1.658697
406.70 1.658301
406.80 1.657899
406.90 1.657404
407.00 1.656801
407.10 1.656199
407.20 1.655597
407.30 1.654995
407.40 1.654393
407.50 1.653792
407.60 1.653192
407.70 1.652592
407.80 1.651992
407.90 1.651389
408.00 1.650675
408.10 1.650031
408.20 1.64931
408.30 1.648502
408.40 1.647695
408.50 1.646888
408.60 1.646082
408.70 1.645277
408.80 1.644472
408.90 1.643652
409.00 1.642781
409.10 1.641911
409.20 1.641042
409.30 1.640173
409.40 1.639305
409.50 1.638443
409.60 1.637582
409.70 1.636701
409.80 1.635743
409.90 1.634784
410.00 1.633818
410.10 1.632877
410.20 1.631835
410.30 1.630769
410.40 1.629687
410.50 1.628551
410.60 1.627416
410.70 1.626253
410.80 1.624971
410.90 1.62369
411.00 1.622125
411.10 1.620456
411.20 1.618788
411.30 1.616973
411.40 1.614523
411.50 1.610694
411.60 1.606868
411.70 1.601554
411.80 1.590279
411.90 1.576299
412.00 1.533072
412.10 1.437138
412.20 1.486074
412.30 1.534102
412.40 1.561289
412.50 1.574926
412.60 1.582488
412.70 1.585732
412.80 1.587895
412.90 1.589567
413.00 1.588833
413.10 1.586843
413.20 1.584854
413.30 1.582867
413.40 1.580881
413.50 1.578644
413.60 1.575028
413.70 1.57026
413.80 1.565496
413.90 1.560737
414.00 1.555451
414.10 1.548489
414.20 1.540676
414.30 1.525448
414.40 1.507006
414.50 1.519782
414.60 1.530473
414.70 1.538643
414.80 1.54594
414.90 1.550492
415.00 1.55504
415.10 1.559583
415.20 1.563522
415.30 1.565563
415.40 1.567601
415.50 1.569606
415.60 1.570607
415.70 1.571607
415.80 1.572451
415.90 1.572805
416.00 1.573158
416.10 1.57337
416.20 1.573018
416.30 1.572666
416.40 1.572314
416.50 1.57194
416.60 1.57085
416.70 1.569732
416.80 1.567152
416.90 1.561913
417.00 1.560847
417.10 1.56262
417.20 1.563631
417.30 1.564619
417.40 1.564875
417.50 1.565131
417.60 1.565272
417.70 1.564947
417.80 1.564476
417.90 1.564006
418.00 1.563536
418.10 1.563067
418.20 1.562597
418.30 1.56212
418.40 1.561378
418.50 1.56065
418.60 1.559922
418.70 1.559195
418.80 1.558469
418.90 1.557743
419.00 1.557017
419.10 1.556292
419.20 1.555568
419.30 1.554842
419.40 1.554042
419.50 1.553243
419.60 1.552444
419.70 1.551649
419.80 1.550853
419.90 1.550053
420.00 1.549234
420.10 1.548415
420.20 1.547598
420.30 1.54678
420.40 1.545964
420.50 1.545148
420.60 1.544332
420.70 1.543517
420.80 1.542703
420.90 1.54189
421.00 1.541099
421.10 1.540308
421.20 1.539503
421.30 1.538655
421.40 1.537807
421.50 1.53696
421.60 1.536114
421.70 1.535269
421.80 1.534424
421.90 1.533589
422.00 1.532781
422.10 1.53197
422.20 1.531142
422.30 1.530313
422.40 1.529485
422.50 1.528646
422.60 1.527807
422.70 1.526968
422.80 1.526131
422.90 1.525294
423.00 1.524457
423.10 1.523621
423.20 1.522786
423.30 1.521951
423.40 1.521117
423.50 1.520284
423.60 1.519451
423.70 1.518619
423.80 1.517788
423.90 1.516957
424.00 1.516126
424.10 1.515297
424.20 1.514468
424.30 1.513639
424.40 1.512835
424.50 1.511991
424.60 1.511149
424.70 1.510306
424.80 1.509465
424.90 1.508624
425.00 1.507783
