# Version 2.1 - nm, norm@500 to 1, cut digits, bergeron_He_11000_70.dat_11000
# Wavelength(nm)  Flambda(ergs/cm^s/s/nm)
300.00 2.308676
300.10 2.308018
300.20 2.307354
300.30 2.306694
300.40 2.306056
300.50 2.305419
300.60 2.304782
300.70 2.304145
300.80 2.303508
300.90 2.302872
301.00 2.302236
301.10 2.301601
301.20 2.300966
301.30 2.300331
301.40 2.299697
301.50 2.299063
301.60 2.298429
301.70 2.297795
301.80 2.297162
301.90 2.296529
302.00 2.295897
302.10 2.295239
302.20 2.294578
302.30 2.293918
302.40 2.293258
302.50 2.292599
302.60 2.29194
302.70 2.291281
302.80 2.290623
302.90 2.289965
303.00 2.289307
303.10 2.28865
303.20 2.287993
303.30 2.287337
303.40 2.286684
303.50 2.286031
303.60 2.285378
303.70 2.284726
303.80 2.284075
303.90 2.283423
304.00 2.282772
304.10 2.282122
304.20 2.281472
304.30 2.280822
304.40 2.280172
304.50 2.279523
304.60 2.278858
304.70 2.278192
304.80 2.277526
304.90 2.27686
305.00 2.276195
305.10 2.27553
305.20 2.274866
305.30 2.274202
305.40 2.273538
305.50 2.272875
305.60 2.272212
305.70 2.271549
305.80 2.270887
305.90 2.270225
306.00 2.269564
306.10 2.268903
306.20 2.268242
306.30 2.267582
306.40 2.266889
306.50 2.266187
306.60 2.265485
306.70 2.264784
306.80 2.264083
306.90 2.263382
307.00 2.262682
307.10 2.261982
307.20 2.261283
307.30 2.260584
307.40 2.259886
307.50 2.259188
307.60 2.25849
307.70 2.257793
307.80 2.257096
307.90 2.2564
308.00 2.255704
308.10 2.255009
308.20 2.254314
308.30 2.253619
308.40 2.252925
308.50 2.252231
308.60 2.251538
308.70 2.250845
308.80 2.250237
308.90 2.249869
309.00 2.249165
309.10 2.248461
309.20 2.247758
309.30 2.247055
309.40 2.246353
309.50 2.245656
309.60 2.24496
309.70 2.244263
309.80 2.243567
309.90 2.242872
310.00 2.242177
310.10 2.241482
310.20 2.240788
310.30 2.240094
310.40 2.239398
310.50 2.238699
310.60 2.238
310.70 2.237302
310.80 2.236604
310.90 2.235906
311.00 2.235192
311.10 2.234478
311.20 2.233765
311.30 2.233058
311.40 2.232369
311.50 2.23168
311.60 2.230992
311.70 2.230304
311.80 2.229616
311.90 2.228929
312.00 2.228242
312.10 2.227556
312.20 2.226722
312.30 2.225892
312.40 2.225212
312.50 2.224379
312.60 2.223676
312.70 2.222974
312.80 2.222271
312.90 2.22158
313.00 2.220899
313.10 2.220218
313.20 2.219538
313.30 2.218858
313.40 2.218176
313.50 2.217495
313.60 2.216814
313.70 2.216134
313.80 2.215453
313.90 2.214774
314.00 2.214095
314.10 2.21337
314.20 2.212647
314.30 2.211923
314.40 2.211201
314.50 2.210478
314.60 2.209757
314.70 2.209035
314.80 2.208284
314.90 2.20746
315.00 2.206653
315.10 2.205911
315.20 2.20517
315.30 2.20443
315.40 2.20369
315.50 2.20295
315.60 2.202211
315.70 2.201473
315.80 2.200735
315.90 2.199998
316.00 2.199261
316.10 2.198306
316.20 2.197352
316.30 2.196617
316.40 2.195664
316.50 2.19493
316.60 2.193979
316.70 2.193028
316.80 2.192079
316.90 2.191238
317.00 2.190398
317.10 2.189559
317.20 2.188721
317.30 2.187839
317.40 2.186882
317.50 2.185708
317.60 2.184535
317.70 2.183363
317.80 2.182192
317.90 2.180251
318.00 2.17766
318.10 2.172735
318.20 2.167815
318.30 2.162902
318.40 2.153268
318.50 2.130203
318.60 2.098284
318.70 2.003461
318.80 1.921329
318.90 2.050249
319.00 2.105794
319.10 2.130818
319.20 2.150467
319.30 2.154892
319.40 2.159311
319.50 2.163725
319.60 2.166661
319.70 2.166999
319.80 2.167337
319.90 2.167673
320.00 2.167709
320.10 2.167419
320.20 2.167234
320.30 2.166839
320.40 2.166039
320.50 2.165834
320.60 2.165017
320.70 2.164516
320.80 2.163963
320.90 2.163356
321.00 2.162749
321.10 2.162142
321.20 2.161352
321.30 2.160665
321.40 2.159978
321.50 2.159292
321.60 2.158606
321.70 2.15792
321.80 2.15733
321.90 2.156843
322.00 2.15583
322.10 2.155119
322.20 2.154409
322.30 2.153699
322.40 2.152989
322.50 2.15228
322.60 2.151572
322.70 2.150863
322.80 2.15002
322.90 2.14932
323.00 2.148621
323.10 2.147922
323.20 2.147223
323.30 2.146525
323.40 2.145827
323.50 2.14513
323.60 2.144434
323.70 2.143737
323.80 2.143041
323.90 2.142346
324.00 2.141579
324.10 2.140813
324.20 2.140047
324.30 2.139276
324.40 2.138526
324.50 2.137818
324.60 2.13711
324.70 2.136402
324.80 2.135694
324.90 2.134988
325.00 2.134281
325.10 2.133575
325.20 2.13286
325.30 2.132123
325.40 2.131387
325.50 2.130626
325.60 2.129836
325.70 2.129046
325.80 2.128257
325.90 2.1275
326.00 2.126779
326.10 2.126058
326.20 2.125337
326.30 2.124635
326.40 2.123983
326.50 2.123218
326.60 2.122453
326.70 2.121688
326.80 2.120924
326.90 2.120161
327.00 2.119398
327.10 2.118636
327.20 2.117874
327.30 2.117113
327.40 2.116353
327.50 2.115592
327.60 2.114833
327.70 2.114074
327.80 2.113315
327.90 2.112681
328.00 2.112061
328.10 2.111298
328.20 2.110535
328.30 2.109773
328.40 2.109011
328.50 2.108288
328.60 2.107574
328.70 2.10686
328.80 2.106133
328.90 2.105364
329.00 2.104596
329.10 2.103829
329.20 2.103062
329.30 2.102296
329.40 2.10153
329.50 2.100765
329.60 2.100001
329.70 2.099237
329.80 2.098473
329.90 2.09771
330.00 2.096946
330.10 2.09618
330.20 2.095414
330.30 2.094649
330.40 2.093904
330.50 2.09318
330.60 2.092456
330.70 2.091733
330.80 2.091011
330.90 2.090289
331.00 2.089568
331.10 2.088847
331.20 2.088126
331.30 2.087406
331.40 2.086687
331.50 2.08594
331.60 2.08516
331.70 2.084381
331.80 2.083622
331.90 2.082865
332.00 2.082108
332.10 2.081352
332.20 2.080597
332.30 2.079842
332.40 2.079087
332.50 2.078333
332.60 2.07758
332.70 2.076827
332.80 2.076075
332.90 2.075323
333.00 2.074571
333.10 2.07381
333.20 2.073037
333.30 2.072265
333.40 2.071492
333.50 2.070721
333.60 2.06995
333.70 2.06918
333.80 2.06841
333.90 2.067641
334.00 2.066872
334.10 2.066098
334.20 2.065317
334.30 2.064537
334.40 2.063757
334.50 2.062978
334.60 2.0622
334.70 2.061386
334.80 2.060498
334.90 2.059564
335.00 2.058631
335.10 2.057553
335.20 2.056519
335.30 2.055399
335.40 2.054174
335.50 2.053385
335.60 2.05313
335.70 2.052788
335.80 2.052339
335.90 2.051803
336.00 2.051162
336.10 2.05052
336.20 2.049879
336.30 2.04921
336.40 2.048506
336.50 2.047802
336.60 2.047099
336.70 2.046396
336.80 2.045694
336.90 2.044975
337.00 2.044237
337.10 2.0435
337.20 2.042762
337.30 2.042016
337.40 2.041256
337.50 2.040496
337.60 2.039737
337.70 2.038978
337.80 2.03822
337.90 2.03746
338.00 2.036699
338.10 2.035938
338.20 2.035178
338.30 2.034418
338.40 2.033667
338.50 2.032937
338.60 2.032208
338.70 2.031479
338.80 2.03075
338.90 2.030023
339.00 2.029295
339.10 2.028568
339.20 2.027842
339.30 2.027082
339.40 2.026274
339.50 2.025489
339.60 2.024732
339.70 2.023974
339.80 2.023218
339.90 2.022462
340.00 2.021706
340.10 2.020951
340.20 2.020197
340.30 2.019443
340.40 2.01869
340.50 2.017937
340.60 2.017185
340.70 2.016433
340.80 2.015662
340.90 2.014862
341.00 2.014081
341.10 2.013322
341.20 2.012564
341.30 2.011806
341.40 2.011048
341.50 2.010291
341.60 2.009535
341.70 2.008779
341.80 2.007993
341.90 2.00717
342.00 2.006347
342.10 2.005525
342.20 2.00482
342.30 2.004049
342.40 2.00319
342.50 2.002395
342.60 2.0016
342.70 2.000806
342.80 2.000013
342.90 1.99922
343.00 1.998425
343.10 1.997627
343.20 1.99683
343.30 1.996033
343.40 1.995188
343.50 1.994273
343.60 1.993358
343.70 1.992445
343.80 1.991532
343.90 1.99062
344.00 1.98957
344.10 1.988321
344.20 1.987074
344.30 1.985828
344.40 1.984168
344.50 1.981914
344.60 1.979728
344.70 1.977304
344.80 1.977102
344.90 1.978156
345.00 1.978691
345.10 1.979009
345.20 1.979132
345.30 1.978975
345.40 1.978817
345.50 1.978531
345.60 1.978
345.70 1.977343
345.80 1.976686
345.90 1.976029
346.00 1.975373
346.10 1.974717
346.20 1.974027
346.30 1.973287
346.40 1.972548
346.50 1.971809
346.60 1.971071
346.70 1.970333
346.80 1.969596
346.90 1.968859
347.00 1.968123
347.10 1.967387
347.20 1.966641
347.30 1.965879
347.40 1.965117
347.50 1.964356
347.60 1.963596
347.70 1.962836
347.80 1.962076
347.90 1.961317
348.00 1.960559
348.10 1.959801
348.20 1.959044
348.30 1.958288
348.40 1.957532
348.50 1.956776
348.60 1.956021
348.70 1.955189
348.80 1.954372
348.90 1.95361
349.00 1.952849
349.10 1.952088
349.20 1.951328
349.30 1.950568
349.40 1.949809
349.50 1.949051
349.60 1.948293
349.70 1.947535
349.80 1.946779
349.90 1.946022
350.00 1.945266
350.10 1.944511
350.20 1.943756
350.30 1.942988
350.40 1.942201
350.50 1.941414
350.60 1.940628
350.70 1.939842
350.80 1.939057
350.90 1.938273
351.00 1.937489
351.10 1.936706
351.20 1.935923
351.30 1.935141
351.40 1.934363
351.50 1.933594
351.60 1.932826
351.70 1.932058
351.80 1.93129
351.90 1.930523
352.00 1.929757
352.10 1.928991
352.20 1.928353
352.30 1.927673
352.40 1.926912
352.50 1.926152
352.60 1.925392
352.70 1.924632
352.80 1.923874
352.90 1.923115
353.00 1.922357
353.10 1.9216
353.20 1.920843
353.30 1.920087
353.40 1.919332
353.50 1.918564
353.60 1.917793
353.70 1.917023
353.80 1.916253
353.90 1.915483
354.00 1.914712
354.10 1.913942
354.20 1.913172
354.30 1.912403
354.40 1.911634
354.50 1.910866
354.60 1.910099
354.70 1.909332
354.80 1.908567
354.90 1.907806
355.00 1.907045
355.10 1.906285
355.20 1.905525
355.30 1.904693
355.40 1.903862
355.50 1.903031
355.60 1.902201
355.70 1.90141
355.80 1.900637
355.90 1.89998
356.00 1.899264
356.10 1.898484
356.20 1.897703
356.30 1.896924
356.40 1.896145
356.50 1.895366
356.60 1.894589
356.70 1.893811
356.80 1.893035
356.90 1.892259
357.00 1.891483
357.10 1.890708
357.20 1.889934
357.30 1.88916
357.40 1.888394
357.50 1.887643
357.60 1.886892
357.70 1.886141
357.80 1.885397
357.90 1.884653
358.00 1.883897
358.10 1.883138
358.20 1.88238
358.30 1.881622
358.40 1.880865
358.50 1.880108
358.60 1.879352
358.70 1.878597
358.80 1.877842
358.90 1.877087
359.00 1.876283
359.10 1.87539
359.20 1.874515
359.30 1.873762
359.40 1.873009
359.50 1.872218
359.60 1.871418
359.70 1.870618
359.80 1.869834
359.90 1.86905
360.00 1.868198
360.10 1.867223
360.20 1.866249
360.30 1.865276
360.40 1.864303
360.50 1.863332
360.60 1.861967
360.70 1.860013
360.80 1.85806
360.90 1.85611
361.00 1.853417
361.10 1.848448
361.20 1.84241
361.30 1.834908
361.40 1.835546
361.50 1.842758
361.60 1.846422
361.70 1.848402
361.80 1.849815
361.90 1.850224
362.00 1.850632
362.10 1.85045
362.20 1.850029
362.30 1.849445
362.40 1.848862
362.50 1.848279
362.60 1.847696
362.70 1.846948
362.80 1.846078
362.90 1.845225
363.00 1.844373
363.10 1.843359
363.20 1.842344
363.30 1.84133
363.40 1.8404
363.50 1.839965
363.60 1.839613
363.70 1.839151
363.80 1.838909
363.90 1.838369
364.00 1.837829
364.10 1.83729
364.20 1.836751
364.30 1.836128
364.40 1.835486
364.50 1.834811
364.60 1.834241
364.70 1.833671
364.80 1.833102
364.90 1.832261
365.00 1.831421
365.10 1.830745
365.20 1.830069
365.30 1.829394
365.40 1.82872
365.50 1.828046
365.60 1.827372
365.70 1.826669
365.80 1.825967
365.90 1.825318
366.00 1.824683
366.10 1.823926
366.20 1.82317
366.30 1.822414
366.40 1.821659
366.50 1.821003
366.60 1.820337
366.70 1.81959
366.80 1.818844
366.90 1.818115
367.00 1.817415
367.10 1.816716
367.20 1.816018
367.30 1.81532
367.40 1.814622
367.50 1.813837
367.60 1.813029
367.70 1.812298
367.80 1.811567
367.90 1.810837
368.00 1.810056
368.10 1.809073
368.20 1.808257
368.30 1.807444
368.40 1.806631
368.50 1.805819
368.60 1.805008
368.70 1.804197
368.80 1.803387
368.90 1.802517
369.00 1.80154
369.10 1.800564
369.20 1.799589
369.30 1.798401
369.40 1.797215
369.50 1.796029
369.60 1.794739
369.70 1.793451
369.80 1.791454
369.90 1.789452
370.00 1.787451
370.10 1.785137
370.20 1.782103
370.30 1.779073
370.40 1.7762
370.50 1.774582
370.60 1.775507
370.70 1.777437
370.80 1.779004
370.90 1.780568
371.00 1.781053
371.10 1.781525
371.20 1.781668
371.30 1.78181
371.40 1.781727
371.50 1.781416
371.60 1.781104
371.70 1.780793
371.80 1.780481
371.90 1.78017
372.00 1.779714
372.10 1.779208
372.20 1.778567
372.30 1.777926
372.40 1.777286
372.50 1.776646
372.60 1.776007
372.70 1.775368
372.80 1.774728
372.90 1.774088
373.00 1.773296
373.10 1.772503
373.20 1.771397
373.30 1.770292
373.40 1.769343
373.50 1.768552
373.60 1.768231
373.70 1.767753
373.80 1.767256
373.90 1.766798
374.00 1.766244
374.10 1.765689
374.20 1.765135
374.30 1.764581
374.40 1.763833
374.50 1.763311
374.60 1.762609
374.70 1.761902
374.80 1.761195
374.90 1.760489
375.00 1.759757
375.10 1.759025
375.20 1.758294
375.30 1.757579
375.40 1.756863
375.50 1.756149
375.60 1.755435
375.70 1.754721
375.80 1.754008
375.90 1.753295
376.00 1.752668
376.10 1.751939
376.20 1.751209
376.30 1.75048
376.40 1.749751
376.50 1.749027
376.60 1.748311
376.70 1.747594
376.80 1.746844
376.90 1.746061
377.00 1.745278
377.10 1.744495
377.20 1.743723
377.30 1.74299
377.40 1.742257
377.50 1.741525
377.60 1.740802
377.70 1.74008
377.80 1.739358
377.90 1.738637
378.00 1.737837
378.10 1.737057
378.20 1.73628
378.30 1.735503
378.40 1.734727
378.50 1.733952
378.60 1.733177
378.70 1.732402
378.80 1.731628
378.90 1.730885
379.00 1.730196
379.10 1.729405
379.20 1.728614
379.30 1.727813
379.40 1.727
379.50 1.726187
379.60 1.725337
379.70 1.724397
379.80 1.723342
379.90 1.722288
380.00 1.721234
380.10 1.720182
380.20 1.71913
380.30 1.71808
380.40 1.71703
380.50 1.715981
380.60 1.714421
380.70 1.712631
380.80 1.710843
380.90 1.709057
381.00 1.707272
381.10 1.704499
381.20 1.701412
381.30 1.69748
381.40 1.692514
381.50 1.686248
381.60 1.679017
381.70 1.669881
381.80 1.658833
381.90 1.647647
382.00 1.645739
382.10 1.65608
382.20 1.666351
382.30 1.675029
382.40 1.681712
382.50 1.685412
382.60 1.689107
382.70 1.691659
382.80 1.692508
382.90 1.692942
383.00 1.693375
383.10 1.693807
383.20 1.694169
383.30 1.694269
383.40 1.69423
383.50 1.693982
383.60 1.694027
383.70 1.693573
383.80 1.69312
383.90 1.692667
384.00 1.692214
384.10 1.691762
384.20 1.691309
384.30 1.690857
384.40 1.690329
384.50 1.689725
384.60 1.689122
384.70 1.688518
384.80 1.68793
384.90 1.68732
385.00 1.686569
385.10 1.685817
385.20 1.685082
385.30 1.684506
385.40 1.683815
385.50 1.68301
385.60 1.682206
385.70 1.681402
385.80 1.68062
385.90 1.679921
386.00 1.679136
386.10 1.678246
386.20 1.677151
386.30 1.676057
386.40 1.674642
386.50 1.672974
386.60 1.670864
386.70 1.668323
386.80 1.666731
386.90 1.667108
387.00 1.66771
387.10 1.668159
387.20 1.668002
387.30 1.66789
387.40 1.667388
387.50 1.666742
387.60 1.665822
387.70 1.664672
387.80 1.663524
387.90 1.662376
388.00 1.661078
388.10 1.659144
388.20 1.655762
388.30 1.651327
388.40 1.646897
388.50 1.639909
388.60 1.625786
388.70 1.596987
388.80 1.520977
388.90 1.484057
389.00 1.573816
389.10 1.612104
389.20 1.629391
389.30 1.638547
389.40 1.643016
389.50 1.646324
389.60 1.647807
389.70 1.648538
389.80 1.648473
389.90 1.648408
390.00 1.648343
390.10 1.648278
390.20 1.648213
390.30 1.647917
390.40 1.647361
390.50 1.646805
390.60 1.646249
390.70 1.645694
390.80 1.645157
390.90 1.644638
391.00 1.643921
391.10 1.643219
391.20 1.642569
391.30 1.642001
391.40 1.641304
391.50 1.640608
391.60 1.639913
391.70 1.639217
391.80 1.638523
391.90 1.637762
392.00 1.636976
392.10 1.636264
392.20 1.635584
392.30 1.634991
392.40 1.634158
392.50 1.633374
392.60 1.632776
392.70 1.631944
392.80 1.631396
392.90 1.630619
393.00 1.629939
393.10 1.629286
393.20 1.628656
393.30 1.627969
393.40 1.627269
393.50 1.626671
393.60 1.625898
393.70 1.625276
393.80 1.62454
393.90 1.623856
394.00 1.62316
394.10 1.622403
394.20 1.621723
394.30 1.620971
394.40 1.620173
394.50 1.619609
394.60 1.618788
394.70 1.617968
394.80 1.617148
394.90 1.616329
395.00 1.615511
395.10 1.614693
395.20 1.613803
395.30 1.612896
395.40 1.611989
395.50 1.610819
395.60 1.609551
395.70 1.608053
395.80 1.605927
395.90 1.603803
396.00 1.601494
396.10 1.595921
396.20 1.586641
396.30 1.574971
396.40 1.552095
396.50 1.549328
396.60 1.572298
396.70 1.585914
396.80 1.591392
396.90 1.594349
397.00 1.595677
397.10 1.596487
397.20 1.59702
397.30 1.597001
397.40 1.596719
397.50 1.596436
397.60 1.596142
397.70 1.595731
397.80 1.59532
397.90 1.594856
398.00 1.594251
398.10 1.593647
398.20 1.593004
398.30 1.592317
398.40 1.591627
398.50 1.590828
398.60 1.590246
398.70 1.589507
398.80 1.58871
398.90 1.587913
399.00 1.587118
399.10 1.586322
399.20 1.585528
399.30 1.584734
399.40 1.58394
399.50 1.583147
399.60 1.58227
399.70 1.581362
399.80 1.580455
399.90 1.579549
400.00 1.57864
400.10 1.577642
400.20 1.576797
400.30 1.575665
400.40 1.574448
400.50 1.573348
400.60 1.571894
400.70 1.570566
400.80 1.56914
400.90 1.567408
401.00 1.566156
401.10 1.565032
401.20 1.563643
401.30 1.56214
401.40 1.559986
401.50 1.557606
401.60 1.555194
401.70 1.551717
401.80 1.547459
401.90 1.541415
402.00 1.534645
402.10 1.524973
402.20 1.51166
402.30 1.493745
402.40 1.468828
402.50 1.437945
402.60 1.40776
402.70 1.423069
402.80 1.456638
402.90 1.480769
403.00 1.502862
403.10 1.517685
403.20 1.526801
403.30 1.533058
403.40 1.537767
403.50 1.540741
403.60 1.543312
403.70 1.544757
403.80 1.545906
403.90 1.546507
404.00 1.546893
404.10 1.547042
404.20 1.546811
404.30 1.54658
404.40 1.546081
404.50 1.54545
404.60 1.544953
404.70 1.544589
404.80 1.54464
404.90 1.544394
405.00 1.544049
405.10 1.543705
405.20 1.543322
405.30 1.54294
405.40 1.5424
405.50 1.54186
405.60 1.541321
405.70 1.540782
405.80 1.540244
405.90 1.539706
406.00 1.539107
406.10 1.538509
406.20 1.537911
406.30 1.537313
406.40 1.536711
406.50 1.536219
406.60 1.535464
406.70 1.534791
406.80 1.53414
406.90 1.53373
407.00 1.533055
407.10 1.532381
407.20 1.531707
407.30 1.531034
407.40 1.530362
407.50 1.529689
407.60 1.529018
407.70 1.528346
407.80 1.527676
407.90 1.527007
408.00 1.526402
408.10 1.525769
408.20 1.525089
408.30 1.524428
408.40 1.523766
408.50 1.523043
408.60 1.522388
408.70 1.521734
408.80 1.521103
408.90 1.520599
409.00 1.519905
409.10 1.519212
409.20 1.51852
409.30 1.517828
409.40 1.517135
409.50 1.516394
409.60 1.515654
409.70 1.514938
409.80 1.514318
409.90 1.513696
410.00 1.512957
410.10 1.51222
410.20 1.511563
410.30 1.510928
410.40 1.510269
410.50 1.509533
410.60 1.508798
410.70 1.508063
410.80 1.507329
410.90 1.506595
411.00 1.505755
411.10 1.504877
411.20 1.503999
411.30 1.503107
411.40 1.502138
411.50 1.500589
411.60 1.499041
411.70 1.497169
411.80 1.493998
411.90 1.49042
412.00 1.484172
412.10 1.479984
412.20 1.482218
412.30 1.48635
412.40 1.489318
412.50 1.490866
412.60 1.491607
412.70 1.491655
412.80 1.49153
412.90 1.491278
413.00 1.490789
413.10 1.490017
413.20 1.489245
413.30 1.488474
413.40 1.487703
413.50 1.48689
413.60 1.485816
413.70 1.484461
413.80 1.483107
413.90 1.481754
414.00 1.48028
414.10 1.47842
414.20 1.476532
414.30 1.474295
414.40 1.472923
414.50 1.472962
414.60 1.473847
414.70 1.474658
414.80 1.475316
414.90 1.475491
415.00 1.475667
415.10 1.475842
415.20 1.475899
415.30 1.475582
415.40 1.475265
415.50 1.474942
415.60 1.474414
415.70 1.473885
415.80 1.473354
415.90 1.472811
416.00 1.472269
416.10 1.471706
416.20 1.471059
416.30 1.470413
416.40 1.469767
416.50 1.46912
416.60 1.468415
416.70 1.46771
416.80 1.466755
416.90 1.466051
417.00 1.465348
417.10 1.464904
417.20 1.464452
417.30 1.463999
417.40 1.463474
417.50 1.46295
417.60 1.462391
417.70 1.461693
417.80 1.461077
417.90 1.460461
418.00 1.459846
418.10 1.459231
418.20 1.458616
418.30 1.457999
418.40 1.457315
418.50 1.456673
418.60 1.456031
418.70 1.45539
418.80 1.454749
418.90 1.454108
419.00 1.453468
419.10 1.452829
419.20 1.452189
419.30 1.451549
419.40 1.450857
419.50 1.450165
419.60 1.449491
419.70 1.448884
419.80 1.448277
419.90 1.447657
420.00 1.446992
420.10 1.446327
420.20 1.445663
420.30 1.445
420.40 1.444336
420.50 1.443674
420.60 1.443011
420.70 1.44235
420.80 1.441688
420.90 1.441029
421.00 1.440433
421.10 1.439838
421.20 1.439229
421.30 1.438581
421.40 1.437934
421.50 1.437286
421.60 1.43664
421.70 1.435993
421.80 1.435348
421.90 1.434694
422.00 1.434014
422.10 1.433335
422.20 1.432656
422.30 1.431977
422.40 1.4313
422.50 1.43066
422.60 1.43002
422.70 1.42938
422.80 1.428741
422.90 1.428103
423.00 1.427465
423.10 1.426827
423.20 1.42619
423.30 1.425553
423.40 1.424916
423.50 1.42428
423.60 1.423645
423.70 1.42301
423.80 1.422375
423.90 1.421741
424.00 1.421107
424.10 1.420474
424.20 1.419841
424.30 1.419208
424.40 1.418568
424.50 1.417924
424.60 1.417281
424.70 1.416638
424.80 1.415996
424.90 1.415354
425.00 1.414712
425.10 1.414071
