# Version 2.1 - nm, norm@500 to 1, cut digits, bergeron_He_14000_90.dat_14000
# Wavelength(nm)  Flambda(ergs/cm^s/s/nm)
300.00 3.169245
300.10 3.168089
300.20 3.166999
300.30 3.16582
300.40 3.16404
300.50 3.162262
300.60 3.160486
300.70 3.158711
300.80 3.156938
300.90 3.155166
301.00 3.153396
301.10 3.151628
301.20 3.149862
301.30 3.148097
301.40 3.146334
301.50 3.144572
301.60 3.142812
301.70 3.141054
301.80 3.139297
301.90 3.137542
302.00 3.135789
302.10 3.134138
302.20 3.1325
302.30 3.130863
302.40 3.129228
302.50 3.127594
302.60 3.125962
302.70 3.124331
302.80 3.122702
302.90 3.121074
303.00 3.119448
303.10 3.117823
303.20 3.1162
303.30 3.114557
303.40 3.112731
303.50 3.110907
303.60 3.109084
303.70 3.107264
303.80 3.105444
303.90 3.103627
304.00 3.101811
304.10 3.099998
304.20 3.098185
304.30 3.096375
304.40 3.094566
304.50 3.092759
304.60 3.091024
304.70 3.089298
304.80 3.087573
304.90 3.08585
305.00 3.084129
305.10 3.08241
305.20 3.080692
305.30 3.078975
305.40 3.077261
305.50 3.075547
305.60 3.073836
305.70 3.072126
305.80 3.070417
305.90 3.06871
306.00 3.067005
306.10 3.065301
306.20 3.063599
306.30 3.061898
306.40 3.060225
306.50 3.05856
306.60 3.056897
306.70 3.055235
306.80 3.053575
306.90 3.051916
307.00 3.050259
307.10 3.048603
307.20 3.046949
307.30 3.045296
307.40 3.043645
307.50 3.041996
307.60 3.040348
307.70 3.038701
307.80 3.037056
307.90 3.035412
308.00 3.03377
308.10 3.032129
308.20 3.03049
308.30 3.028853
308.40 3.027217
308.50 3.025582
308.60 3.023949
308.70 3.022317
308.80 3.020602
308.90 3.018646
309.00 3.016693
309.10 3.014741
309.20 3.012791
309.30 3.010844
309.40 3.008936
309.50 3.007267
309.60 3.0056
309.70 3.003934
309.80 3.00227
309.90 3.000607
310.00 2.998946
310.10 2.997286
310.20 2.995628
310.30 2.993971
310.40 2.992185
310.50 2.990258
310.60 2.988333
310.70 2.986409
310.80 2.984488
310.90 2.982568
311.00 2.980651
311.10 2.978735
311.20 2.976821
311.30 2.974984
311.40 2.973363
311.50 2.971744
311.60 2.970127
311.70 2.968511
311.80 2.966896
311.90 2.965283
312.00 2.963671
312.10 2.962061
312.20 2.960394
312.30 2.958499
312.40 2.956605
312.50 2.954713
312.60 2.952823
312.70 2.950935
312.80 2.949048
312.90 2.947163
313.00 2.945281
313.10 2.943399
313.20 2.94152
313.30 2.939643
313.40 2.937767
313.50 2.935893
313.60 2.934021
313.70 2.932151
313.80 2.930282
313.90 2.928416
314.00 2.926551
314.10 2.924688
314.20 2.922826
314.30 2.920967
314.40 2.919109
314.50 2.917253
314.60 2.915398
314.70 2.913546
314.80 2.911695
314.90 2.909846
315.00 2.907999
315.10 2.905726
315.20 2.903455
315.30 2.901187
315.40 2.898921
315.50 2.896657
315.60 2.894395
315.70 2.891923
315.80 2.889454
315.90 2.886987
316.00 2.884522
316.10 2.882697
316.20 2.880874
316.30 2.87778
316.40 2.874689
316.50 2.870331
316.60 2.865977
316.70 2.862898
316.80 2.859822
316.90 2.856749
317.00 2.85368
317.10 2.850614
317.20 2.847552
317.30 2.845757
317.40 2.843193
317.50 2.838437
317.60 2.833686
317.70 2.828941
317.80 2.824201
317.90 2.815793
318.00 2.804129
318.10 2.787265
318.20 2.770422
318.30 2.753599
318.40 2.730919
318.50 2.691546
318.60 2.648961
318.70 2.586745
318.80 2.543401
318.90 2.571982
319.00 2.612865
319.10 2.649995
319.20 2.682506
319.30 2.701973
319.40 2.721415
319.50 2.740832
319.60 2.755159
319.70 2.763323
319.80 2.771477
319.90 2.77962
320.00 2.785403
320.10 2.788634
320.20 2.793073
320.30 2.795181
320.40 2.798398
320.50 2.799132
320.60 2.798575
320.70 2.799306
320.80 2.799739
320.90 2.799849
321.00 2.799959
321.10 2.800067
321.20 2.799509
321.30 2.79862
321.40 2.797732
321.50 2.796845
321.60 2.795958
321.70 2.795071
321.80 2.794574
321.90 2.794499
322.00 2.793081
322.10 2.791958
322.20 2.790835
322.30 2.789714
322.40 2.788593
322.50 2.787473
322.60 2.786354
322.70 2.785235
322.80 2.783883
322.90 2.782375
323.00 2.78087
323.10 2.779365
323.20 2.777862
323.30 2.77636
323.40 2.77486
323.50 2.773361
323.60 2.771863
323.70 2.770366
323.80 2.768871
323.90 2.767377
324.00 2.765669
324.10 2.763963
324.20 2.762258
324.30 2.760555
324.40 2.758996
324.50 2.757592
324.60 2.756189
324.70 2.754788
324.80 2.753388
324.90 2.751989
325.00 2.750591
325.10 2.749194
325.20 2.747704
325.30 2.746015
325.40 2.744328
325.50 2.742642
325.60 2.740957
325.70 2.739275
325.80 2.737593
325.90 2.736186
326.00 2.735076
326.10 2.733966
326.20 2.732857
326.30 2.731602
326.40 2.729928
326.50 2.728256
326.60 2.726586
326.70 2.724917
326.80 2.72325
326.90 2.721584
327.00 2.719919
327.10 2.718257
327.20 2.716595
327.30 2.714936
327.40 2.713277
327.50 2.711621
327.60 2.709965
327.70 2.708312
327.80 2.70666
327.90 2.705009
328.00 2.70336
328.10 2.701712
328.20 2.700066
328.30 2.698421
328.40 2.696778
328.50 2.695137
328.60 2.693497
328.70 2.691858
328.80 2.690273
328.90 2.688836
329.00 2.687401
329.10 2.685967
329.20 2.684535
329.30 2.683103
329.40 2.681673
329.50 2.680245
329.60 2.678817
329.70 2.677391
329.80 2.675965
329.90 2.674541
330.00 2.67303
330.10 2.67141
330.20 2.669793
330.30 2.668176
330.40 2.666561
330.50 2.664948
330.60 2.663336
330.70 2.661726
330.80 2.660117
330.90 2.658509
331.00 2.656903
331.10 2.655298
331.20 2.653695
331.30 2.652093
331.40 2.650493
331.50 2.648894
331.60 2.647297
331.70 2.645701
331.80 2.644271
331.90 2.642849
332.00 2.641428
332.10 2.640008
332.20 2.63859
332.30 2.637173
332.40 2.635757
332.50 2.634342
332.60 2.632929
332.70 2.631516
332.80 2.630105
332.90 2.628696
333.00 2.627287
333.10 2.625803
333.20 2.624227
333.30 2.622653
333.40 2.62108
333.50 2.619508
333.60 2.617938
333.70 2.616369
333.80 2.614802
333.90 2.613236
334.00 2.611671
334.10 2.610108
334.20 2.608546
334.30 2.606986
334.40 2.605427
334.50 2.603869
334.60 2.602313
334.70 2.600759
334.80 2.599205
334.90 2.597653
335.00 2.596103
335.10 2.594553
335.20 2.593005
335.30 2.591459
335.40 2.589914
335.50 2.58837
335.60 2.586828
335.70 2.585287
335.80 2.583748
335.90 2.582209
336.00 2.580673
336.10 2.579137
336.20 2.577603
336.30 2.57607
336.40 2.574539
336.50 2.573009
336.60 2.57148
336.70 2.569953
336.80 2.568427
336.90 2.566903
337.00 2.56538
337.10 2.563858
337.20 2.562337
337.30 2.560818
337.40 2.559301
337.50 2.557784
337.60 2.556269
337.70 2.554755
337.80 2.553243
337.90 2.551732
338.00 2.550222
338.10 2.548714
338.20 2.547207
338.30 2.545701
338.40 2.544197
338.50 2.542694
338.60 2.541192
338.70 2.539692
338.80 2.538193
338.90 2.536695
339.00 2.535199
339.10 2.533704
339.20 2.53221
339.30 2.530718
339.40 2.529227
339.50 2.527737
339.60 2.526249
339.70 2.524762
339.80 2.523276
339.90 2.521791
340.00 2.520308
340.10 2.518826
340.20 2.517346
340.30 2.515866
340.40 2.514388
340.50 2.512912
340.60 2.511436
340.70 2.509962
340.80 2.508489
340.90 2.507018
341.00 2.505548
341.10 2.504079
341.20 2.502611
341.30 2.501145
341.40 2.49968
341.50 2.498216
341.60 2.496754
341.70 2.495293
341.80 2.493833
341.90 2.492374
342.00 2.490917
342.10 2.489461
342.20 2.488006
342.30 2.486553
342.40 2.4851
342.50 2.483649
342.60 2.4822
342.70 2.480751
342.80 2.479304
342.90 2.477858
343.00 2.476414
343.10 2.47497
343.20 2.473528
343.30 2.472088
343.40 2.470648
343.50 2.46921
343.60 2.467773
343.70 2.466337
343.80 2.464902
343.90 2.463469
344.00 2.461816
344.10 2.459848
344.20 2.457881
344.30 2.455917
344.40 2.454174
344.50 2.45275
344.60 2.451326
344.70 2.449904
344.80 2.448483
344.90 2.447064
345.00 2.445645
345.10 2.444228
345.20 2.443108
345.30 2.442415
345.40 2.441722
345.50 2.440705
345.60 2.439293
345.70 2.437882
345.80 2.436472
345.90 2.435064
346.00 2.433656
346.10 2.43225
346.20 2.430845
346.30 2.429442
346.40 2.428039
346.50 2.426638
346.60 2.425238
346.70 2.423839
346.80 2.422441
346.90 2.421045
347.00 2.41965
347.10 2.418256
347.20 2.416863
347.30 2.415471
347.40 2.414081
347.50 2.412692
347.60 2.411304
347.70 2.409917
347.80 2.408531
347.90 2.407147
348.00 2.405764
348.10 2.404382
348.20 2.403001
348.30 2.401621
348.40 2.400243
348.50 2.398865
348.60 2.397489
348.70 2.396114
348.80 2.394741
348.90 2.393368
349.00 2.391997
349.10 2.390627
349.20 2.389258
349.30 2.38789
349.40 2.386523
349.50 2.385158
349.60 2.383793
349.70 2.38243
349.80 2.381068
349.90 2.379707
350.00 2.378348
350.10 2.376989
350.20 2.375632
350.30 2.374199
350.40 2.372656
350.50 2.371115
350.60 2.369575
350.70 2.368036
350.80 2.366499
350.90 2.364964
351.00 2.363429
351.10 2.361896
351.20 2.360364
351.30 2.358834
351.40 2.357372
351.50 2.356031
351.60 2.354691
351.70 2.353352
351.80 2.352014
351.90 2.350678
352.00 2.349343
352.10 2.348008
352.20 2.346675
352.30 2.345343
352.40 2.344012
352.50 2.342682
352.60 2.341354
352.70 2.340026
352.80 2.3387
352.90 2.337375
353.00 2.336051
353.10 2.334728
353.20 2.333406
353.30 2.332085
353.40 2.330765
353.50 2.329447
353.60 2.32813
353.70 2.326813
353.80 2.325498
353.90 2.324102
354.00 2.322562
354.10 2.321024
354.20 2.319487
354.30 2.317951
354.40 2.316416
354.50 2.314883
354.60 2.313352
354.70 2.311821
354.80 2.310385
354.90 2.309083
355.00 2.307782
355.10 2.306483
355.20 2.305184
355.30 2.303887
355.40 2.30259
355.50 2.301295
355.60 2.300001
355.70 2.298708
355.80 2.297416
355.90 2.296125
356.00 2.294724
356.10 2.293296
356.20 2.29187
356.30 2.290445
356.40 2.289021
356.50 2.287598
356.60 2.286176
356.70 2.284756
356.80 2.283337
356.90 2.281919
357.00 2.280503
357.10 2.279087
357.20 2.277673
357.30 2.27626
357.40 2.274898
357.50 2.273626
357.60 2.272354
357.70 2.271084
357.80 2.269815
357.90 2.268546
358.00 2.267127
358.10 2.265671
358.20 2.264216
358.30 2.262762
358.40 2.26131
358.50 2.259859
358.60 2.258409
358.70 2.25696
358.80 2.255513
358.90 2.254066
359.00 2.252371
359.10 2.250231
359.20 2.248208
359.30 2.246957
359.40 2.245707
359.50 2.243894
359.60 2.241943
359.70 2.239994
359.80 2.238749
359.90 2.237505
360.00 2.23613
360.10 2.234523
360.20 2.232917
360.30 2.231312
360.40 2.229709
360.50 2.228107
360.60 2.224733
360.70 2.22301
360.80 2.221289
360.90 2.21957
361.00 2.218027
361.10 2.215714
361.20 2.21362
361.30 2.210444
361.40 2.20922
361.50 2.209947
361.60 2.210673
361.70 2.209451
361.80 2.208503
361.90 2.208042
362.00 2.207582
362.10 2.206514
362.20 2.205449
362.30 2.204657
362.40 2.203866
362.50 2.203075
362.60 2.202285
362.70 2.201156
362.80 2.199943
362.90 2.19873
363.00 2.197519
363.10 2.196309
363.20 2.1951
363.30 2.193891
363.40 2.192684
363.50 2.191478
363.60 2.190272
363.70 2.190138
363.80 2.189789
363.90 2.188586
364.00 2.187383
364.10 2.186182
364.20 2.184982
364.30 2.183782
364.40 2.182584
364.50 2.181387
364.60 2.18019
364.70 2.178995
364.80 2.1778
364.90 2.17565
365.00 2.173503
365.10 2.172312
365.20 2.171123
365.30 2.169934
365.40 2.168747
365.50 2.16756
365.60 2.166374
365.70 2.16519
365.80 2.164006
365.90 2.162823
366.00 2.161642
366.10 2.160461
366.20 2.159281
366.30 2.158102
366.40 2.156925
366.50 2.155748
366.60 2.154572
366.70 2.153397
366.80 2.152223
366.90 2.150927
367.00 2.149415
367.10 2.147905
367.20 2.146395
367.30 2.144887
367.40 2.14338
367.50 2.142146
367.60 2.140981
367.70 2.139816
367.80 2.138653
367.90 2.13749
368.00 2.136329
368.10 2.135168
368.20 2.134009
368.30 2.13285
368.40 2.131692
368.50 2.130536
368.60 2.12938
368.70 2.128225
368.80 2.127071
368.90 2.125918
369.00 2.123939
369.10 2.121755
369.20 2.120596
369.30 2.119448
369.40 2.1183
369.50 2.117154
369.60 2.116008
369.70 2.114864
369.80 2.113222
369.90 2.111576
370.00 2.109932
370.10 2.108435
370.20 2.107297
370.30 2.106159
370.40 2.103165
370.50 2.10203
370.60 2.100896
370.70 2.101616
370.80 2.100482
370.90 2.09935
371.00 2.098218
371.10 2.097088
371.20 2.095958
371.30 2.094829
371.40 2.093701
371.50 2.092574
371.60 2.091448
371.70 2.090323
371.80 2.089199
371.90 2.088075
372.00 2.086953
372.10 2.085831
372.20 2.08471
372.30 2.083591
372.40 2.082472
372.50 2.081354
372.60 2.080237
372.70 2.079121
372.80 2.078005
372.90 2.076891
373.00 2.075778
373.10 2.074665
373.20 2.073553
373.30 2.072443
373.40 2.069506
373.50 2.068398
373.60 2.067291
373.70 2.066185
373.80 2.065079
373.90 2.063975
374.00 2.062871
374.10 2.061769
374.20 2.060667
374.30 2.059566
374.40 2.058466
374.50 2.057367
374.60 2.056268
374.70 2.055171
374.80 2.054074
374.90 2.052979
375.00 2.051884
375.10 2.05079
375.20 2.049697
375.30 2.048347
375.40 2.046997
375.50 2.045649
375.60 2.044302
375.70 2.042956
375.80 2.041612
375.90 2.040268
376.00 2.039183
376.10 2.038099
376.20 2.037015
376.30 2.035933
376.40 2.034851
376.50 2.03377
376.60 2.03269
376.70 2.031611
376.80 2.030324
376.90 2.028829
377.00 2.027335
377.10 2.025843
377.20 2.024439
377.30 2.023366
377.40 2.022294
377.50 2.021223
377.60 2.020152
377.70 2.019083
377.80 2.018014
377.90 2.016946
378.00 2.015879
378.10 2.014404
378.20 2.012927
378.30 2.011451
378.40 2.009976
378.50 2.008503
378.60 2.007031
378.70 2.00556
378.80 2.00409
378.90 2.002766
379.00 2.001709
379.10 1.999944
379.20 1.998181
379.30 1.996774
379.40 1.995721
379.50 1.99467
379.60 1.993025
379.70 1.990667
379.80 1.988975
379.90 1.987284
380.00 1.985594
380.10 1.983906
380.20 1.98222
380.30 1.980535
380.40 1.978851
380.50 1.977169
380.60 1.975804
380.70 1.973968
380.80 1.972133
380.90 1.9703
381.00 1.968468
381.10 1.967435
381.20 1.965624
381.30 1.96362
381.40 1.962276
381.50 1.96035
381.60 1.958197
381.70 1.955557
381.80 1.953239
381.90 1.947851
382.00 1.945959
382.10 1.949301
382.20 1.94985
382.30 1.950573
382.40 1.951073
382.50 1.951241
382.60 1.951409
382.70 1.951018
382.80 1.950202
382.90 1.949588
383.00 1.948975
383.10 1.948362
383.20 1.947665
383.30 1.946649
383.40 1.945633
383.50 1.944619
383.60 1.943625
383.70 1.94284
383.80 1.942056
383.90 1.941272
384.00 1.940489
384.10 1.939706
384.20 1.938923
384.30 1.938142
384.40 1.937247
384.50 1.936239
384.60 1.935233
384.70 1.934227
384.80 1.933222
384.90 1.932217
385.00 1.931213
385.10 1.930211
385.20 1.929209
385.30 1.928207
385.40 1.927007
385.50 1.925608
385.60 1.92421
385.70 1.922813
385.80 1.921291
385.90 1.919296
386.00 1.917802
386.10 1.916749
386.20 1.915097
386.30 1.913447
386.40 1.911711
386.50 1.909433
386.60 1.906742
386.70 1.904478
386.80 1.903068
386.90 1.900383
387.00 1.897701
387.10 1.895021
387.20 1.892811
387.30 1.889626
387.40 1.884859
387.50 1.881122
387.60 1.875238
387.70 1.867917
387.80 1.860604
387.90 1.853297
388.00 1.845265
388.10 1.833253
388.20 1.813077
388.30 1.788014
388.40 1.762976
388.50 1.730341
388.60 1.680394
388.70 1.611068
388.80 1.529744
388.90 1.502015
389.00 1.562239
389.10 1.628453
389.20 1.682054
389.30 1.723201
389.40 1.753323
389.50 1.778918
389.60 1.796876
389.70 1.808889
389.80 1.815942
389.90 1.822988
390.00 1.830027
390.10 1.837058
390.20 1.844082
390.30 1.848621
390.40 1.850364
390.50 1.852104
390.60 1.853843
390.70 1.85558
390.80 1.856914
390.90 1.857848
391.00 1.857842
391.10 1.858509
391.20 1.858835
391.30 1.858146
391.40 1.857751
391.50 1.857356
391.60 1.856961
391.70 1.856566
391.80 1.856171
391.90 1.856246
392.00 1.856228
392.10 1.855281
392.20 1.854335
392.30 1.85339
392.40 1.852446
392.50 1.851502
392.60 1.850559
392.70 1.849616
392.80 1.848675
392.90 1.847734
393.00 1.846794
393.10 1.845854
393.20 1.844915
393.30 1.843977
393.40 1.84304
393.50 1.842103
393.60 1.841167
393.70 1.839041
393.80 1.837655
393.90 1.836723
394.00 1.83579
394.10 1.834468
394.20 1.832705
394.30 1.83136
394.40 1.830296
394.50 1.827867
394.60 1.826941
394.70 1.825858
394.80 1.824183
394.90 1.822481
395.00 1.819741
395.10 1.817425
395.20 1.815231
395.30 1.81272
395.40 1.810211
395.50 1.807417
395.60 1.804519
395.70 1.801468
395.80 1.798002
395.90 1.794539
396.00 1.790953
396.10 1.786282
396.20 1.782136
396.30 1.777774
396.40 1.772825
396.50 1.773308
396.60 1.778081
396.70 1.781273
396.80 1.783791
396.90 1.784811
397.00 1.785528
397.10 1.787321
397.20 1.78732
397.30 1.787947
397.40 1.788061
397.50 1.788176
397.60 1.78825
397.70 1.787921
397.80 1.787593
397.90 1.787111
398.00 1.786213
398.10 1.785316
398.20 1.78442
398.30 1.783524
398.40 1.782628
398.50 1.781734
398.60 1.78084
398.70 1.779424
398.80 1.777878
398.90 1.776562
399.00 1.775671
399.10 1.773117
399.20 1.771496
399.30 1.769876
399.40 1.768257
399.50 1.76664
399.60 1.765063
399.70 1.763502
399.80 1.761941
399.90 1.760383
400.00 1.758809
400.10 1.756706
400.20 1.753908
400.30 1.752027
400.40 1.749896
400.50 1.746518
400.60 1.744488
400.70 1.742031
400.80 1.739148
400.90 1.736439
401.00 1.732663
401.10 1.729701
401.20 1.726529
401.30 1.722964
401.40 1.719171
401.50 1.715389
401.60 1.711589
401.70 1.707095
401.80 1.701548
401.90 1.696386
402.00 1.690845
402.10 1.685393
402.20 1.679626
402.30 1.672466
402.40 1.665505
402.50 1.656892
402.60 1.645155
402.70 1.652106
402.80 1.662273
402.90 1.668665
403.00 1.674894
403.10 1.681743
403.20 1.685753
403.30 1.689735
403.40 1.692654
403.50 1.695415
403.60 1.698161
403.70 1.700188
403.80 1.702523
403.90 1.703454
404.00 1.704801
404.10 1.706181
404.20 1.706896
404.30 1.707609
404.40 1.707614
404.50 1.708256
404.60 1.708189
404.70 1.707345
404.80 1.708101
404.90 1.708766
405.00 1.707922
405.10 1.707966
405.20 1.708231
405.30 1.708495
405.40 1.708169
405.50 1.707843
405.60 1.707517
405.70 1.707191
405.80 1.706865
405.90 1.70654
406.00 1.706321
406.10 1.706102
406.20 1.705883
406.30 1.705665
406.40 1.705427
406.50 1.704588
406.60 1.70375
406.70 1.703393
406.80 1.703157
406.90 1.702781
407.00 1.702098
407.10 1.701416
407.20 1.700734
407.30 1.700052
407.40 1.699371
407.50 1.698691
407.60 1.698011
407.70 1.697331
407.80 1.696652
407.90 1.695969
408.00 1.695137
408.10 1.694307
408.20 1.693875
408.30 1.693543
408.40 1.693211
408.50 1.692516
408.60 1.691688
408.70 1.69086
408.80 1.690033
408.90 1.689207
409.00 1.688381
409.10 1.687555
409.20 1.686731
409.30 1.685907
409.40 1.685067
409.50 1.683707
409.60 1.682349
409.70 1.681099
409.80 1.680279
409.90 1.679459
410.00 1.67864
410.10 1.677821
410.20 1.677003
410.30 1.676186
410.40 1.67525
410.50 1.673936
410.60 1.672624
410.70 1.671413
410.80 1.670599
410.90 1.669786
411.00 1.668662
411.10 1.667423
411.20 1.666185
411.30 1.665034
411.40 1.664193
411.50 1.662321
411.60 1.660451
411.70 1.658495
411.80 1.656188
411.90 1.654183
412.00 1.651879
412.10 1.649953
412.20 1.648778
412.30 1.649476
412.40 1.648676
412.50 1.647877
412.60 1.647079
412.70 1.646746
412.80 1.64653
412.90 1.64618
413.00 1.645454
413.10 1.644953
413.20 1.644453
413.30 1.643953
413.40 1.643454
413.50 1.642895
413.60 1.642101
413.70 1.641307
413.80 1.640514
413.90 1.639722
414.00 1.638929
414.10 1.638138
414.20 1.637347
414.30 1.636408
414.40 1.634284
414.50 1.634978
414.60 1.634189
414.70 1.633401
414.80 1.632614
414.90 1.631827
415.00 1.631041
415.10 1.630255
415.20 1.62947
415.30 1.628685
415.40 1.627901
415.50 1.627117
415.60 1.626334
415.70 1.625552
415.80 1.62477
415.90 1.623989
416.00 1.623208
416.10 1.622428
416.20 1.621649
416.30 1.62087
416.40 1.620091
416.50 1.619313
416.60 1.618536
416.70 1.617759
416.80 1.616983
416.90 1.616208
417.00 1.615433
417.10 1.614658
417.20 1.613884
417.30 1.613111
417.40 1.612338
417.50 1.611566
417.60 1.610794
417.70 1.610015
417.80 1.609002
417.90 1.607989
418.00 1.606976
418.10 1.605965
418.20 1.604954
418.30 1.603952
418.40 1.603185
418.50 1.602419
418.60 1.601654
418.70 1.600889
418.80 1.600124
418.90 1.59936
419.00 1.598597
419.10 1.597834
419.20 1.597072
419.30 1.59631
419.40 1.595549
419.50 1.594789
419.60 1.593931
419.70 1.592683
419.80 1.591436
419.90 1.590273
420.00 1.589375
420.10 1.588477
420.20 1.587579
420.30 1.586683
420.40 1.585787
420.50 1.584892
420.60 1.583997
420.70 1.583103
420.80 1.58221
420.90 1.581322
421.00 1.580571
421.10 1.57982
421.20 1.579019
421.30 1.578065
421.40 1.577111
421.50 1.576158
421.60 1.575206
421.70 1.574255
421.80 1.573305
421.90 1.572404
422.00 1.571659
422.10 1.570914
422.20 1.57017
422.30 1.569426
422.40 1.568679
422.50 1.567792
422.60 1.566906
422.70 1.566021
422.80 1.565136
422.90 1.564252
423.00 1.563369
423.10 1.562486
423.20 1.561604
423.30 1.560723
423.40 1.559842
423.50 1.558962
423.60 1.558083
423.70 1.557204
423.80 1.556326
423.90 1.555448
424.00 1.554572
424.10 1.553696
424.20 1.55282
424.30 1.551945
424.40 1.551097
424.50 1.550081
424.60 1.549065
424.70 1.548051
424.80 1.547037
