# Version 2.1 - nm, norm@500 to 1, cut digits, bergeron_He_13000_85.dat_13000
# Wavelength(nm)  Flambda(ergs/cm^s/s/nm)
300.00 2.902557
300.10 2.901219
300.20 2.899881
300.30 2.898541
300.40 2.897184
300.50 2.895828
300.60 2.894473
300.70 2.89312
300.80 2.891767
300.90 2.890416
301.00 2.889066
301.10 2.887717
301.20 2.886369
301.30 2.885023
301.40 2.883677
301.50 2.882333
301.60 2.88099
301.70 2.879647
301.80 2.878307
301.90 2.876967
302.00 2.875628
302.10 2.874238
302.20 2.872844
302.30 2.871451
302.40 2.870059
302.50 2.868668
302.60 2.867279
302.70 2.865891
302.80 2.864504
302.90 2.863118
303.00 2.861733
303.10 2.86035
303.20 2.858967
303.30 2.857586
303.40 2.856205
303.50 2.854824
303.60 2.853445
303.70 2.852067
303.80 2.850691
303.90 2.849315
304.00 2.847941
304.10 2.846568
304.20 2.845196
304.30 2.843825
304.40 2.842455
304.50 2.841087
304.60 2.839716
304.70 2.838346
304.80 2.836977
304.90 2.835609
305.00 2.834243
305.10 2.832877
305.20 2.831513
305.30 2.83015
305.40 2.828788
305.50 2.827427
305.60 2.826068
305.70 2.824709
305.80 2.823352
305.90 2.821996
306.00 2.820641
306.10 2.819288
306.20 2.817935
306.30 2.816584
306.40 2.815195
306.50 2.813797
306.60 2.812399
306.70 2.811003
306.80 2.809608
306.90 2.808214
307.00 2.806822
307.10 2.805431
307.20 2.80404
307.30 2.802652
307.40 2.801264
307.50 2.799877
307.60 2.798492
307.70 2.797108
307.80 2.795725
307.90 2.794344
308.00 2.792963
308.10 2.791584
308.20 2.790206
308.30 2.788829
308.40 2.787454
308.50 2.786079
308.60 2.784706
308.70 2.783334
308.80 2.781979
308.90 2.780672
309.00 2.779256
309.10 2.777841
309.20 2.776428
309.30 2.775016
309.40 2.77361
309.50 2.772234
309.60 2.77086
309.70 2.769487
309.80 2.768116
309.90 2.766745
310.00 2.765376
310.10 2.764008
310.20 2.762641
310.30 2.761275
310.40 2.759901
310.50 2.758516
310.60 2.757133
310.70 2.755751
310.80 2.75437
310.90 2.752991
311.00 2.751549
311.10 2.750108
311.20 2.748668
311.30 2.747242
311.40 2.745849
311.50 2.744458
311.60 2.743067
311.70 2.741678
311.80 2.74029
311.90 2.738904
312.00 2.737518
312.10 2.736134
312.20 2.734829
312.30 2.733501
312.40 2.732089
312.50 2.73071
312.60 2.729289
312.70 2.72787
312.80 2.726452
312.90 2.725017
313.00 2.723563
313.10 2.72211
313.20 2.720659
313.30 2.71921
313.40 2.717767
313.50 2.716324
313.60 2.714883
313.70 2.713443
313.80 2.712004
313.90 2.710567
314.00 2.709131
314.10 2.707639
314.20 2.706149
314.30 2.70466
314.40 2.703172
314.50 2.701686
314.60 2.700201
314.70 2.698718
314.80 2.697175
314.90 2.695559
315.00 2.69405
315.10 2.69239
315.20 2.690732
315.30 2.689075
315.40 2.68742
315.50 2.685766
315.60 2.684114
315.70 2.68234
315.80 2.680567
315.90 2.678796
316.00 2.677026
316.10 2.675184
316.20 2.673344
316.30 2.671357
316.40 2.669224
316.50 2.666798
316.60 2.663929
316.70 2.661212
316.80 2.658498
316.90 2.656451
317.00 2.654406
317.10 2.652364
317.20 2.650323
317.30 2.648314
317.40 2.64591
317.50 2.642378
317.60 2.63885
317.70 2.635327
317.80 2.631807
317.90 2.625323
318.00 2.6165
318.10 2.601443
318.20 2.586404
318.30 2.571383
318.40 2.549628
318.50 2.508695
318.60 2.462075
318.70 2.391761
318.80 2.348244
318.90 2.388194
319.00 2.440488
319.10 2.483243
319.20 2.519443
319.30 2.53711
319.40 2.554753
319.50 2.572375
319.60 2.584875
319.70 2.590169
319.80 2.595456
319.90 2.600735
320.00 2.604435
320.10 2.606427
320.20 2.608196
320.30 2.60913
320.40 2.609784
320.50 2.610206
320.60 2.610177
320.70 2.610136
320.80 2.609818
320.90 2.6092
321.00 2.608582
321.10 2.607965
321.20 2.607333
321.30 2.606406
321.40 2.60548
321.50 2.604555
321.60 2.60363
321.70 2.602706
321.80 2.601728
321.90 2.600692
322.00 2.599604
322.10 2.598452
322.20 2.597302
322.30 2.596152
322.40 2.595003
322.50 2.593855
322.60 2.592708
322.70 2.591562
322.80 2.590295
322.90 2.58907
323.00 2.587846
323.10 2.586622
323.20 2.5854
323.30 2.584179
323.40 2.582959
323.50 2.58174
323.60 2.580522
323.70 2.579305
323.80 2.578089
323.90 2.576874
324.00 2.575586
324.10 2.574299
324.20 2.573013
324.30 2.571744
324.40 2.570479
324.50 2.569171
324.60 2.567865
324.70 2.566559
324.80 2.565255
324.90 2.563951
325.00 2.562649
325.10 2.561348
325.20 2.560054
325.30 2.558773
325.40 2.557493
325.50 2.55621
325.60 2.554922
325.70 2.553635
325.80 2.55235
325.90 2.551025
326.00 2.549659
326.10 2.548294
326.20 2.54693
326.30 2.54563
326.40 2.544513
326.50 2.543184
326.60 2.541857
326.70 2.540531
326.80 2.539206
326.90 2.537882
327.00 2.536559
327.10 2.535238
327.20 2.533917
327.30 2.532598
327.40 2.53128
327.50 2.529963
327.60 2.528647
327.70 2.527332
327.80 2.526019
327.90 2.524725
328.00 2.523414
328.10 2.522054
328.20 2.520695
328.30 2.519338
328.40 2.517982
328.50 2.516671
328.60 2.515371
328.70 2.514073
328.80 2.512776
328.90 2.511481
329.00 2.510186
329.10 2.508893
329.20 2.507601
329.30 2.50631
329.40 2.50502
329.50 2.503731
329.60 2.502443
329.70 2.501156
329.80 2.499871
329.90 2.498586
330.00 2.497322
330.10 2.496084
330.20 2.494846
330.30 2.49361
330.40 2.492338
330.50 2.491027
330.60 2.489717
330.70 2.488408
330.80 2.4871
330.90 2.485794
331.00 2.484489
331.10 2.483184
331.20 2.481881
331.30 2.480579
331.40 2.479278
331.50 2.477988
331.60 2.47671
331.70 2.475434
331.80 2.474142
331.90 2.472851
332.00 2.47156
332.10 2.470271
332.20 2.468983
332.30 2.467696
332.40 2.466411
332.50 2.465126
332.60 2.463842
332.70 2.46256
332.80 2.461278
332.90 2.459998
333.00 2.458719
333.10 2.457436
333.20 2.456148
333.30 2.454861
333.40 2.453576
333.50 2.452291
333.60 2.451008
333.70 2.449725
333.80 2.448444
333.90 2.447164
334.00 2.445885
334.10 2.444583
334.20 2.443253
334.30 2.441925
334.40 2.440597
334.50 2.439271
334.60 2.437945
334.70 2.436676
334.80 2.435412
334.90 2.434059
335.00 2.432707
335.10 2.4316
335.20 2.430281
335.30 2.428905
335.40 2.427456
335.50 2.426273
335.60 2.425091
335.70 2.423765
335.80 2.422584
335.90 2.421376
336.00 2.420132
336.10 2.418889
336.20 2.417647
336.30 2.416396
336.40 2.415134
336.50 2.413874
336.60 2.412614
336.70 2.411356
336.80 2.410099
336.90 2.408851
337.00 2.407616
337.10 2.406381
337.20 2.405148
337.30 2.40389
337.40 2.402597
337.50 2.401304
337.60 2.400013
337.70 2.398723
337.80 2.397433
337.90 2.396177
338.00 2.394961
338.10 2.393746
338.20 2.392531
338.30 2.391318
338.40 2.39009
338.50 2.388824
338.60 2.387558
338.70 2.386294
338.80 2.385031
338.90 2.38377
339.00 2.382509
339.10 2.381249
339.20 2.37999
339.30 2.378727
339.40 2.377457
339.50 2.376191
339.60 2.37493
339.70 2.37367
339.80 2.372411
339.90 2.371153
340.00 2.369896
340.10 2.368641
340.20 2.367386
340.30 2.366132
340.40 2.36488
340.50 2.363628
340.60 2.362378
340.70 2.361128
340.80 2.359877
340.90 2.358623
341.00 2.357355
341.10 2.356068
341.20 2.354783
341.30 2.353499
341.40 2.352216
341.50 2.350934
341.60 2.349653
341.70 2.348373
341.80 2.347105
341.90 2.345852
342.00 2.3446
342.10 2.343348
342.20 2.342074
342.30 2.340852
342.40 2.339627
342.50 2.338346
342.60 2.337066
342.70 2.335787
342.80 2.334509
342.90 2.333232
343.00 2.331918
343.10 2.330559
343.20 2.329201
343.30 2.327845
343.40 2.326489
343.50 2.325135
343.60 2.323781
343.70 2.322429
343.80 2.321079
343.90 2.319729
344.00 2.318355
344.10 2.316945
344.20 2.315536
344.30 2.314129
344.40 2.312697
344.50 2.311229
344.60 2.309815
344.70 2.308344
344.80 2.307142
344.90 2.306297
345.00 2.305363
345.10 2.3044
345.20 2.303389
345.30 2.302307
345.40 2.301227
345.50 2.300141
345.60 2.299036
345.70 2.297913
345.80 2.29679
345.90 2.295669
346.00 2.294549
346.10 2.29343
346.20 2.292287
346.30 2.291112
346.40 2.289938
346.50 2.288765
346.60 2.287592
346.70 2.286421
346.80 2.28525
346.90 2.284081
347.00 2.282913
347.10 2.281745
347.20 2.280566
347.30 2.279371
347.40 2.278176
347.50 2.276982
347.60 2.27579
347.70 2.274598
347.80 2.273408
347.90 2.272218
348.00 2.271029
348.10 2.269842
348.20 2.268655
348.30 2.267469
348.40 2.266285
348.50 2.265101
348.60 2.263918
348.70 2.262785
348.80 2.261628
348.90 2.260413
349.00 2.259199
349.10 2.257986
349.20 2.256774
349.30 2.255563
349.40 2.254353
349.50 2.253144
349.60 2.251936
349.70 2.250729
349.80 2.249524
349.90 2.248319
350.00 2.247115
350.10 2.245912
350.20 2.24471
350.30 2.243503
350.40 2.242288
350.50 2.241075
350.60 2.239862
350.70 2.23865
350.80 2.23744
350.90 2.23623
351.00 2.235021
351.10 2.233814
351.20 2.232607
351.30 2.231401
351.40 2.230208
351.50 2.229036
351.60 2.227865
351.70 2.226694
351.80 2.225525
351.90 2.224357
352.00 2.223189
352.10 2.222023
352.20 2.220771
352.30 2.219536
352.40 2.218338
352.50 2.217141
352.60 2.215945
352.70 2.214751
352.80 2.213557
352.90 2.212364
353.00 2.211172
353.10 2.209982
353.20 2.208792
353.30 2.207603
353.40 2.206415
353.50 2.205222
353.60 2.204028
353.70 2.202836
353.80 2.201644
353.90 2.200453
354.00 2.199263
354.10 2.198074
354.20 2.196886
354.30 2.195699
354.40 2.194512
354.50 2.193327
354.60 2.192143
354.70 2.19096
354.80 2.189778
354.90 2.188598
355.00 2.187418
355.10 2.18624
355.20 2.185062
355.30 2.183887
355.40 2.182713
355.50 2.181539
355.60 2.180367
355.70 2.179158
355.80 2.177933
355.90 2.176709
356.00 2.175513
356.10 2.174323
356.20 2.173135
356.30 2.171948
356.40 2.170762
356.50 2.169576
356.60 2.168392
356.70 2.167209
356.80 2.166026
356.90 2.164845
357.00 2.163664
357.10 2.162485
357.20 2.161307
357.30 2.160129
357.40 2.158941
357.50 2.157733
357.60 2.156527
357.70 2.155321
357.80 2.154117
357.90 2.152913
358.00 2.151675
358.10 2.150429
358.20 2.149184
358.30 2.147941
358.40 2.146698
358.50 2.145456
358.60 2.144216
358.70 2.142976
358.80 2.141738
358.90 2.1405
359.00 2.139242
359.10 2.137948
359.20 2.136655
359.30 2.135367
359.40 2.134081
359.50 2.132743
359.60 2.131393
359.70 2.130044
359.80 2.1286
359.90 2.127157
360.00 2.12564
360.10 2.123991
360.20 2.122344
360.30 2.120697
360.40 2.119053
360.50 2.11741
360.60 2.115467
360.70 2.113439
360.80 2.111413
360.90 2.109389
361.00 2.107235
361.10 2.10494
361.20 2.102839
361.30 2.100812
361.40 2.100024
361.50 2.100531
361.60 2.10064
361.70 2.100612
361.80 2.100463
361.90 2.100099
362.00 2.099735
362.10 2.099237
362.20 2.098641
362.30 2.097929
362.40 2.097217
362.50 2.096505
362.60 2.095794
362.70 2.094979
362.80 2.09425
362.90 2.09332
363.00 2.09239
363.10 2.091342
363.20 2.090293
363.30 2.089163
363.40 2.087901
363.50 2.087314
363.60 2.086278
363.70 2.085368
363.80 2.084321
363.90 2.083282
364.00 2.082245
364.10 2.081207
364.20 2.080171
364.30 2.07915
364.40 2.078133
364.50 2.076994
364.60 2.075929
364.70 2.074865
364.80 2.073801
364.90 2.072665
365.00 2.071529
365.10 2.070395
365.20 2.069261
365.30 2.068128
365.40 2.067219
365.50 2.066088
365.60 2.064957
365.70 2.063828
365.80 2.0627
365.90 2.061671
366.00 2.060668
366.10 2.059542
366.20 2.058418
366.30 2.057294
366.40 2.056171
366.50 2.055049
366.60 2.053928
366.70 2.052808
366.80 2.051689
366.90 2.050585
367.00 2.049507
367.10 2.04843
367.20 2.047354
367.30 2.046279
367.40 2.045205
367.50 2.044002
367.60 2.042768
367.70 2.041658
367.80 2.040547
367.90 2.039438
368.00 2.03833
368.10 2.037223
368.20 2.036088
368.30 2.034954
368.40 2.033821
368.50 2.032688
368.60 2.031557
368.70 2.030426
368.80 2.029297
368.90 2.028178
369.00 2.026983
369.10 2.025765
369.20 2.024666
369.30 2.023425
369.40 2.022184
369.50 2.020945
369.60 2.019744
369.70 2.018543
369.80 2.017335
369.90 2.016127
370.00 2.01492
370.10 2.013539
370.20 2.012122
370.30 2.010711
370.40 2.008985
370.50 2.007557
370.60 2.007227
370.70 2.006803
370.80 2.006043
370.90 2.005283
371.00 2.00442
371.10 2.003556
371.20 2.002584
371.30 2.001612
371.40 2.000794
371.50 1.999837
371.60 1.998881
371.70 1.997926
371.80 1.996971
371.90 1.996017
372.00 1.995006
372.10 1.994087
372.20 1.993087
372.30 1.992088
372.40 1.99109
372.50 1.990092
372.60 1.989095
372.70 1.988099
372.80 1.987033
372.90 1.985967
373.00 1.985008
373.10 1.984052
373.20 1.982988
373.30 1.981926
373.40 1.980652
373.50 1.979804
373.60 1.978851
373.70 1.977898
373.80 1.97684
373.90 1.975783
374.00 1.974779
374.10 1.973777
374.20 1.972775
374.30 1.971774
374.40 1.970721
374.50 1.969668
374.60 1.968669
374.70 1.967672
374.80 1.966675
374.90 1.965679
375.00 1.96463
375.10 1.963583
375.20 1.962536
375.30 1.961491
375.40 1.960446
375.50 1.959402
375.60 1.958359
375.70 1.957316
375.80 1.956275
375.90 1.955234
376.00 1.954194
376.10 1.953155
376.20 1.952117
376.30 1.951079
376.40 1.950043
376.50 1.948978
376.60 1.947871
376.70 1.946765
376.80 1.945696
376.90 1.944664
377.00 1.943632
377.10 1.942601
377.20 1.941544
377.30 1.940385
377.40 1.939227
377.50 1.93807
377.60 1.936954
377.70 1.935838
377.80 1.934723
377.90 1.933608
378.00 1.932531
378.10 1.931343
378.20 1.930154
378.30 1.928965
378.40 1.927778
378.50 1.926592
378.60 1.925407
378.70 1.924222
378.80 1.923039
378.90 1.921862
379.00 1.920695
379.10 1.919434
379.20 1.918174
379.30 1.916873
379.40 1.91553
379.50 1.914188
379.60 1.912842
379.70 1.91143
379.80 1.909798
379.90 1.908168
380.00 1.906539
380.10 1.904911
380.20 1.903285
380.30 1.901661
380.40 1.900037
380.50 1.898416
380.60 1.89663
380.70 1.894703
380.80 1.892778
380.90 1.890855
381.00 1.888934
381.10 1.887177
381.20 1.885365
381.30 1.883323
381.40 1.881068
381.50 1.878827
381.60 1.876474
381.70 1.873958
381.80 1.871258
381.90 1.867532
382.00 1.866656
382.10 1.868626
382.20 1.869861
382.30 1.870609
382.40 1.871191
382.50 1.871528
382.60 1.871864
382.70 1.871974
382.80 1.871791
382.90 1.871569
383.00 1.871346
383.10 1.871123
383.20 1.870835
383.30 1.870305
383.40 1.869828
383.50 1.869429
383.60 1.868889
383.70 1.86826
383.80 1.867632
383.90 1.867004
384.00 1.866376
384.10 1.865749
384.20 1.865122
384.30 1.864495
384.40 1.863791
384.50 1.863009
384.60 1.862227
384.70 1.861446
384.80 1.860626
384.90 1.859689
385.00 1.858809
385.10 1.857928
385.20 1.856964
385.30 1.856
385.40 1.854967
385.50 1.853865
385.60 1.852764
385.70 1.851664
385.80 1.850545
385.90 1.849353
386.00 1.848138
386.10 1.846882
386.20 1.845465
386.30 1.844049
386.40 1.84252
386.50 1.840872
386.60 1.839271
386.70 1.837328
386.80 1.835585
386.90 1.833992
387.00 1.832193
387.10 1.83045
387.20 1.828352
387.30 1.826186
387.40 1.823516
387.50 1.820673
387.60 1.817163
387.70 1.812032
387.80 1.806905
387.90 1.801784
388.00 1.796008
388.10 1.787084
388.20 1.771983
388.30 1.752394
388.40 1.732826
388.50 1.705807
388.60 1.661528
388.70 1.597851
388.80 1.518872
388.90 1.494125
389.00 1.557943
389.10 1.622944
389.20 1.671682
389.30 1.706834
389.40 1.730438
389.50 1.75008
389.60 1.762972
389.70 1.770785
389.80 1.774957
389.90 1.779124
390.00 1.783287
390.10 1.787445
390.20 1.791599
390.30 1.79414
390.40 1.794866
390.50 1.795591
390.60 1.796315
390.70 1.797038
390.80 1.797433
390.90 1.797501
391.00 1.797245
391.10 1.797079
391.20 1.796865
391.30 1.796376
391.40 1.795781
391.50 1.795187
391.60 1.794592
391.70 1.793998
391.80 1.793405
391.90 1.792745
392.00 1.792006
392.10 1.791259
392.20 1.790527
392.30 1.789778
392.40 1.788876
392.50 1.788147
392.60 1.787236
392.70 1.786326
392.80 1.785416
392.90 1.784543
393.00 1.783737
393.10 1.782819
393.20 1.781786
393.30 1.78088
393.40 1.779974
393.50 1.778915
393.60 1.777974
393.70 1.77688
393.80 1.77596
393.90 1.774868
394.00 1.773765
394.10 1.772611
394.20 1.771518
394.30 1.770356
394.40 1.769212
394.50 1.767965
394.60 1.766537
394.70 1.765112
394.80 1.763694
394.90 1.762275
395.00 1.760747
395.10 1.758969
395.20 1.757018
395.30 1.755016
395.40 1.753016
395.50 1.750478
395.60 1.747744
395.70 1.744675
395.80 1.740697
395.90 1.736723
396.00 1.732636
396.10 1.727211
396.20 1.721331
396.30 1.715533
396.40 1.710901
396.50 1.711312
396.60 1.716748
396.70 1.721644
396.80 1.725062
396.90 1.727704
397.00 1.729581
397.10 1.730905
397.20 1.731937
397.30 1.732488
397.40 1.732561
397.50 1.732634
397.60 1.732664
397.70 1.732258
397.80 1.731853
397.90 1.731394
398.00 1.730792
398.10 1.73019
398.20 1.729463
398.30 1.728594
398.40 1.727727
398.50 1.72686
398.60 1.725993
398.70 1.724945
398.80 1.723852
398.90 1.722742
399.00 1.721603
399.10 1.720512
399.20 1.71918
399.30 1.71785
399.40 1.71652
399.50 1.715192
399.60 1.713688
399.70 1.712119
399.80 1.710552
399.90 1.708986
400.00 1.707418
400.10 1.705709
400.20 1.703736
400.30 1.701727
400.40 1.699707
400.50 1.697634
400.60 1.69527
400.70 1.692853
400.80 1.690237
400.90 1.687303
401.00 1.684297
401.10 1.681196
401.20 1.677855
401.30 1.674163
401.40 1.66995
401.50 1.665574
401.60 1.661177
401.70 1.655966
401.80 1.650353
401.90 1.644031
402.00 1.637252
402.10 1.630025
402.20 1.62219
402.30 1.613782
402.40 1.604982
402.50 1.59639
402.60 1.585687
402.70 1.593158
402.80 1.602332
402.90 1.610546
403.00 1.618606
403.10 1.625781
403.20 1.631908
403.30 1.637131
403.40 1.641811
403.50 1.645551
403.60 1.649025
403.70 1.651715
403.80 1.654064
403.90 1.655725
404.00 1.657237
404.10 1.658257
404.20 1.658889
404.30 1.65952
404.40 1.659804
404.50 1.659874
404.60 1.65996
404.70 1.660045
404.80 1.659975
404.90 1.660034
405.00 1.659963
405.10 1.659919
405.20 1.659874
405.30 1.659829
405.40 1.659582
405.50 1.659335
405.60 1.659088
405.70 1.658841
405.80 1.658594
405.90 1.658347
406.00 1.657928
406.10 1.65751
406.20 1.657092
406.30 1.656674
406.40 1.656262
406.50 1.6557
406.60 1.655243
406.70 1.654687
406.80 1.654084
406.90 1.653435
407.00 1.652766
407.10 1.652097
407.20 1.651429
407.30 1.650761
407.40 1.650094
407.50 1.649427
407.60 1.648761
407.70 1.648095
407.80 1.647429
407.90 1.64676
408.00 1.645953
408.10 1.645146
408.20 1.644387
408.30 1.643639
408.40 1.642892
408.50 1.642104
408.60 1.6413
408.70 1.640497
408.80 1.639695
408.90 1.638884
409.00 1.638049
409.10 1.637214
409.20 1.63638
409.30 1.635547
409.40 1.634713
409.50 1.633852
409.60 1.632992
409.70 1.632129
409.80 1.631251
409.90 1.630371
410.00 1.629404
410.10 1.62861
410.20 1.627651
410.30 1.626651
410.40 1.62566
410.50 1.624694
410.60 1.623729
410.70 1.622743
410.80 1.621668
410.90 1.620594
411.00 1.619438
411.10 1.618253
411.20 1.617068
411.30 1.615844
411.40 1.61445
411.50 1.612736
411.60 1.611025
411.70 1.60922
411.80 1.607039
411.90 1.604878
412.00 1.602438
412.10 1.600438
412.20 1.599487
412.30 1.599005
412.40 1.598833
412.50 1.59888
412.60 1.598852
412.70 1.598768
412.80 1.598671
412.90 1.598606
413.00 1.598224
413.10 1.597692
413.20 1.59716
413.30 1.596628
413.40 1.596097
413.50 1.595554
413.60 1.59491
413.70 1.594095
413.80 1.593282
413.90 1.592469
414.00 1.591625
414.10 1.590683
414.20 1.58968
414.30 1.588654
414.40 1.587455
414.50 1.587151
414.60 1.586607
414.70 1.586101
414.80 1.585574
414.90 1.584982
415.00 1.584391
415.10 1.5838
415.20 1.583193
415.30 1.582538
415.40 1.581884
415.50 1.581228
415.60 1.580529
415.70 1.57983
415.80 1.57913
415.90 1.578427
416.00 1.577725
416.10 1.577012
416.20 1.576254
416.30 1.575497
416.40 1.57474
416.50 1.573982
416.60 1.573141
416.70 1.572303
416.80 1.571548
416.90 1.570795
417.00 1.570041
417.10 1.569286
417.20 1.568449
417.30 1.567614
417.40 1.566863
417.50 1.566113
417.60 1.565363
417.70 1.564612
417.80 1.563806
417.90 1.563001
418.00 1.562197
418.10 1.561393
418.20 1.56059
418.30 1.559789
418.40 1.559026
418.50 1.558207
418.60 1.557389
418.70 1.556572
418.80 1.555755
418.90 1.554939
419.00 1.554124
419.10 1.553309
419.20 1.552495
419.30 1.551681
419.40 1.550882
419.50 1.550083
419.60 1.549285
419.70 1.54849
419.80 1.547696
419.90 1.546892
420.00 1.546056
420.10 1.545221
420.20 1.544387
420.30 1.543554
420.40 1.542721
420.50 1.541889
420.60 1.541057
420.70 1.540226
420.80 1.539396
420.90 1.538567
421.00 1.537776
421.10 1.536985
421.20 1.536187
421.30 1.535362
421.40 1.534538
421.50 1.533715
421.60 1.532892
421.70 1.53207
421.80 1.531249
421.90 1.530431
422.00 1.529624
422.10 1.528813
422.20 1.527984
422.30 1.527155
422.40 1.526327
422.50 1.525496
422.60 1.524665
422.70 1.523834
422.80 1.523005
422.90 1.522176
423.00 1.521347
423.10 1.520519
423.20 1.519692
423.30 1.518865
423.40 1.518039
423.50 1.517214
423.60 1.516389
423.70 1.515564
423.80 1.514741
423.90 1.513918
424.00 1.513095
424.10 1.512274
424.20 1.511452
424.30 1.510632
424.40 1.509835
424.50 1.509024
424.60 1.508213
424.70 1.507403
424.80 1.506594
424.90 1.505785
425.00 1.504977
