# Version 2.1 - nm, norm@500 to 1, cut digits, bergeron_He_15000_85.dat_15000
# Wavelength(nm)  Flambda(ergs/cm^s/s/nm)
300.00 3.376079
300.10 3.37467
300.20 3.373301
300.30 3.371837
300.40 3.369734
300.50 3.367632
300.60 3.365533
300.70 3.363436
300.80 3.36134
300.90 3.359247
301.00 3.357156
301.10 3.355067
301.20 3.35298
301.30 3.350895
301.40 3.348812
301.50 3.346731
301.60 3.344652
301.70 3.342575
301.80 3.3405
301.90 3.338427
302.00 3.336356
302.10 3.334331
302.20 3.332312
302.30 3.330295
302.40 3.32828
302.50 3.326268
302.60 3.324257
302.70 3.322248
302.80 3.320241
302.90 3.318236
303.00 3.316232
303.10 3.314231
303.20 3.312232
303.30 3.310235
303.40 3.308249
303.50 3.306264
303.60 3.304282
303.70 3.302301
303.80 3.300322
303.90 3.298345
304.00 3.29637
304.10 3.294397
304.20 3.292426
304.30 3.290457
304.40 3.288489
304.50 3.286523
304.60 3.284385
304.70 3.28223
304.80 3.280076
304.90 3.277925
305.00 3.275776
305.10 3.273629
305.20 3.271484
305.30 3.269341
305.40 3.267201
305.50 3.265062
305.60 3.262926
305.70 3.260791
305.80 3.258659
305.90 3.256529
306.00 3.254401
306.10 3.252275
306.20 3.250151
306.30 3.248029
306.40 3.245983
306.50 3.24396
306.60 3.24194
306.70 3.239921
306.80 3.237904
306.90 3.23589
307.00 3.233877
307.10 3.231866
307.20 3.229857
307.30 3.22785
307.40 3.225845
307.50 3.223842
307.60 3.221841
307.70 3.219842
307.80 3.217844
307.90 3.215849
308.00 3.213855
308.10 3.211864
308.20 3.209874
308.30 3.207886
308.40 3.2059
308.50 3.203916
308.60 3.201934
308.70 3.199954
308.80 3.197951
308.90 3.195881
309.00 3.193813
309.10 3.191747
309.20 3.189683
309.30 3.18762
309.40 3.18556
309.50 3.183502
309.60 3.181446
309.70 3.179392
309.80 3.177339
309.90 3.175289
310.00 3.173241
310.10 3.171195
310.20 3.16915
310.30 3.167108
310.40 3.165068
310.50 3.163029
310.60 3.160993
310.70 3.158959
310.80 3.156926
310.90 3.154896
311.00 3.152261
311.10 3.149628
311.20 3.146999
311.30 3.144529
311.40 3.14251
311.50 3.140493
311.60 3.138477
311.70 3.136464
311.80 3.134452
311.90 3.132443
312.00 3.130435
312.10 3.128429
312.20 3.126426
312.30 3.124424
312.40 3.122424
312.50 3.120305
312.60 3.117705
312.70 3.115108
312.80 3.112514
312.90 3.110212
313.00 3.108225
313.10 3.10624
313.20 3.104256
313.30 3.102195
313.40 3.099908
313.50 3.097623
313.60 3.095341
313.70 3.093061
313.80 3.090783
313.90 3.088507
314.00 3.086234
314.10 3.083694
314.20 3.081157
314.30 3.078623
314.40 3.076092
314.50 3.073563
314.60 3.071036
314.70 3.068512
314.80 3.06614
314.90 3.063475
315.00 3.060037
315.10 3.05699
315.20 3.053946
315.30 3.050906
315.40 3.047869
315.50 3.044835
315.60 3.041805
315.70 3.038777
315.80 3.035753
315.90 3.032732
316.00 3.029715
316.10 3.0267
316.20 3.023689
316.30 3.021777
316.40 3.01658
316.50 3.010294
316.60 3.000732
316.70 2.991182
316.80 2.981643
316.90 2.978669
317.00 2.975699
317.10 2.972731
317.20 2.969767
317.30 2.9704
317.40 2.969849
317.50 2.965935
317.60 2.962026
317.70 2.95812
317.80 2.95422
317.90 2.942364
318.00 2.924069
318.10 2.895672
318.20 2.867309
318.30 2.838982
318.40 2.79592
318.50 2.710901
318.60 2.608287
318.70 2.36765
318.80 2.02845
318.90 2.342461
319.00 2.5062
319.10 2.608048
319.20 2.694004
319.30 2.735013
319.40 2.775969
319.50 2.816874
319.60 2.845852
319.70 2.860539
319.80 2.875208
319.90 2.889858
320.00 2.901227
320.10 2.909049
320.20 2.916298
320.30 2.920472
320.40 2.923565
320.50 2.927507
320.60 2.929993
320.70 2.931366
320.80 2.93248
320.90 2.933316
321.00 2.93415
321.10 2.934982
321.20 2.934824
321.30 2.934101
321.40 2.933378
321.50 2.932655
321.60 2.931932
321.70 2.93121
321.80 2.930647
321.90 2.930257
322.00 2.928711
322.10 2.927419
322.20 2.926128
322.30 2.924838
322.40 2.923549
322.50 2.922261
322.60 2.920974
322.70 2.919688
322.80 2.9182
322.90 2.91658
323.00 2.914961
323.10 2.913343
323.20 2.911727
323.30 2.910113
323.40 2.9085
323.50 2.906888
323.60 2.905278
323.70 2.903669
323.80 2.902061
323.90 2.900455
324.00 2.898665
324.10 2.896877
324.20 2.89509
324.30 2.893305
324.40 2.891521
324.50 2.88974
324.60 2.887959
324.70 2.886181
324.80 2.884404
324.90 2.882629
325.00 2.880855
325.10 2.879083
325.20 2.877312
325.30 2.875544
325.40 2.873777
325.50 2.872011
325.60 2.870247
325.70 2.868485
325.80 2.866724
325.90 2.864965
326.00 2.863208
326.10 2.861452
326.20 2.859698
326.30 2.857946
326.40 2.856195
326.50 2.854445
326.60 2.852698
326.70 2.850952
326.80 2.849207
326.90 2.847464
327.00 2.845723
327.10 2.843983
327.20 2.842245
327.30 2.840508
327.40 2.838774
327.50 2.83704
327.60 2.835308
327.70 2.833578
327.80 2.83185
327.90 2.830123
328.00 2.8282
328.10 2.826037
328.20 2.823876
328.30 2.821717
328.40 2.81956
328.50 2.817761
328.60 2.816046
328.70 2.814333
328.80 2.812621
328.90 2.810911
329.00 2.809203
329.10 2.807496
329.20 2.80579
329.30 2.804087
329.40 2.802384
329.50 2.800683
329.60 2.798984
329.70 2.797287
329.80 2.795591
329.90 2.793896
330.00 2.792203
330.10 2.790512
330.20 2.788822
330.30 2.787133
330.40 2.785359
330.50 2.783491
330.60 2.781626
330.70 2.779762
330.80 2.7779
330.90 2.776039
331.00 2.774181
331.10 2.772324
331.20 2.770469
331.30 2.768615
331.40 2.766764
331.50 2.764995
331.60 2.763328
331.70 2.761662
331.80 2.759997
331.90 2.758334
332.00 2.756673
332.10 2.755013
332.20 2.753355
332.30 2.751698
332.40 2.750042
332.50 2.748388
332.60 2.746736
332.70 2.745085
332.80 2.743436
332.90 2.741788
333.00 2.740141
333.10 2.738407
333.20 2.736566
333.30 2.734727
333.40 2.732889
333.50 2.731053
333.60 2.729219
333.70 2.727387
333.80 2.725556
333.90 2.723727
334.00 2.721899
334.10 2.720015
334.20 2.71806
334.30 2.716107
334.40 2.714155
334.50 2.712206
334.60 2.710259
334.70 2.70846
334.80 2.706536
334.90 2.704173
335.00 2.701813
335.10 2.699604
335.20 2.697018
335.30 2.694872
335.40 2.692047
335.50 2.69166
335.60 2.690057
335.70 2.688892
335.80 2.688264
335.90 2.687198
336.00 2.685599
336.10 2.684001
336.20 2.682404
336.30 2.680809
336.40 2.679216
336.50 2.677624
336.60 2.676033
336.70 2.674444
336.80 2.672856
336.90 2.671269
337.00 2.669684
337.10 2.6681
337.20 2.666518
337.30 2.664937
337.40 2.663358
337.50 2.66178
337.60 2.660203
337.70 2.658628
337.80 2.657054
337.90 2.655482
338.00 2.653911
338.10 2.652341
338.20 2.650773
338.30 2.649206
338.40 2.647578
338.50 2.645798
338.60 2.64402
338.70 2.642244
338.80 2.640469
338.90 2.638696
339.00 2.636924
339.10 2.635154
339.20 2.633386
339.30 2.631707
339.40 2.630157
339.50 2.628542
339.60 2.626848
339.70 2.625156
339.80 2.623466
339.90 2.621776
340.00 2.620089
340.10 2.618403
340.20 2.616718
340.30 2.615035
340.40 2.613354
340.50 2.611674
340.60 2.609996
340.70 2.608319
340.80 2.606703
340.90 2.605174
341.00 2.60354
341.10 2.601778
341.20 2.600018
341.30 2.598259
341.40 2.596502
341.50 2.594746
341.60 2.592992
341.70 2.59124
341.80 2.589396
341.90 2.58744
342.00 2.585485
342.10 2.583533
342.20 2.581671
342.30 2.580162
342.40 2.578527
342.50 2.576708
342.60 2.57489
342.70 2.573074
342.80 2.57126
342.90 2.569447
343.00 2.567569
343.10 2.565612
343.20 2.563656
343.30 2.561702
343.40 2.559557
343.50 2.557137
343.60 2.55472
343.70 2.552305
343.80 2.549892
343.90 2.547482
344.00 2.545074
344.10 2.542669
344.20 2.540266
344.30 2.537865
344.40 2.535087
344.50 2.531767
344.60 2.527314
344.70 2.522109
344.80 2.52263
344.90 2.52481
345.00 2.525568
345.10 2.525025
345.20 2.524616
345.30 2.524397
345.40 2.524178
345.50 2.5234
345.60 2.522065
345.70 2.520912
345.80 2.51976
345.90 2.518609
346.00 2.517459
346.10 2.51631
346.20 2.515036
346.30 2.513584
346.40 2.512133
346.50 2.510683
346.60 2.509235
346.70 2.507787
346.80 2.506341
346.90 2.504896
347.00 2.503453
347.10 2.502011
347.20 2.50057
347.30 2.49913
347.40 2.497691
347.50 2.496254
347.60 2.494818
347.70 2.493383
347.80 2.491949
347.90 2.490517
348.00 2.489086
348.10 2.487656
348.20 2.486227
348.30 2.4848
348.40 2.483374
348.50 2.481949
348.60 2.480525
348.70 2.479102
348.80 2.477632
348.90 2.476092
349.00 2.474553
349.10 2.473015
349.20 2.471479
349.30 2.469944
349.40 2.468411
349.50 2.466879
349.60 2.465348
349.70 2.463819
349.80 2.462291
349.90 2.460764
350.00 2.459239
350.10 2.457715
350.20 2.456192
350.30 2.454653
350.40 2.453091
350.50 2.45153
350.60 2.44997
350.70 2.448411
350.80 2.446854
350.90 2.445299
351.00 2.443744
351.10 2.442191
351.20 2.44064
351.30 2.43909
351.40 2.437513
351.50 2.435888
351.60 2.434265
351.70 2.432643
351.80 2.431023
351.90 2.429404
352.00 2.427786
352.10 2.42617
352.20 2.424769
352.30 2.42333
352.40 2.421803
352.50 2.420277
352.60 2.418752
352.70 2.417229
352.80 2.415707
352.90 2.414187
353.00 2.412667
353.10 2.411149
353.20 2.409633
353.30 2.408118
353.40 2.406604
353.50 2.404896
353.60 2.40314
353.70 2.401387
353.80 2.399635
353.90 2.397956
354.00 2.396406
354.10 2.394857
354.20 2.393309
354.30 2.391763
354.40 2.390219
354.50 2.388675
354.60 2.387133
354.70 2.385593
354.80 2.384133
354.90 2.38279
355.00 2.381448
355.10 2.380107
355.20 2.378767
355.30 2.377024
355.40 2.375284
355.50 2.373545
355.60 2.371808
355.70 2.37035
355.80 2.369017
355.90 2.367686
356.00 2.366165
356.10 2.364596
356.20 2.363029
356.30 2.361464
356.40 2.359899
356.50 2.358337
356.60 2.356775
356.70 2.355215
356.80 2.353656
356.90 2.352099
357.00 2.350543
357.10 2.348989
357.20 2.347435
357.30 2.345884
357.40 2.344235
357.50 2.342413
357.60 2.340592
357.70 2.338773
357.80 2.337466
357.90 2.33616
358.00 2.334462
358.10 2.332666
358.20 2.330873
358.30 2.329081
358.40 2.327291
358.50 2.325502
358.60 2.323715
358.70 2.321929
358.80 2.320146
358.90 2.318363
359.00 2.316484
359.10 2.314431
359.20 2.312385
359.30 2.310368
359.40 2.308354
359.50 2.305954
359.60 2.30346
359.70 2.300968
359.80 2.298405
359.90 2.295845
360.00 2.293068
360.10 2.289905
360.20 2.286744
360.30 2.283587
360.40 2.280432
360.50 2.277281
360.60 2.273097
360.70 2.268465
360.80 2.263837
360.90 2.259214
361.00 2.254725
361.10 2.248202
361.20 2.241539
361.30 2.227525
361.40 2.233432
361.50 2.247557
361.60 2.250912
361.70 2.252182
361.80 2.253254
361.90 2.253972
362.00 2.254688
362.10 2.255694
362.20 2.2562
362.30 2.255687
362.40 2.255175
362.50 2.254664
362.60 2.254152
362.70 2.253982
362.80 2.25348
362.90 2.252239
363.00 2.250998
363.10 2.248254
363.20 2.245497
363.30 2.243957
363.40 2.241061
363.50 2.241489
363.60 2.243575
363.70 2.244184
363.80 2.244424
363.90 2.24398
364.00 2.243535
364.10 2.243091
364.20 2.242647
364.30 2.241574
364.40 2.240343
364.50 2.240766
364.60 2.239537
364.70 2.238309
364.80 2.237082
364.90 2.235856
365.00 2.234631
365.10 2.233407
365.20 2.232184
365.30 2.230962
365.40 2.229741
365.50 2.229342
365.60 2.228943
365.70 2.227725
365.80 2.226507
365.90 2.22529
366.00 2.224074
366.10 2.222859
366.20 2.221645
366.30 2.220432
366.40 2.219221
366.50 2.21801
366.60 2.2168
366.70 2.215591
366.80 2.214383
366.90 2.213071
367.00 2.211572
367.10 2.210074
367.20 2.208578
367.30 2.207083
367.40 2.20559
367.50 2.204331
367.60 2.203132
367.70 2.201507
367.80 2.199883
367.90 2.198261
368.00 2.196725
368.10 2.193932
368.20 2.192091
368.30 2.190265
368.40 2.18844
368.50 2.186618
368.60 2.184796
368.70 2.182977
368.80 2.181159
368.90 2.179571
369.00 2.176966
369.10 2.174007
369.20 2.172811
369.30 2.170026
369.40 2.167244
369.50 2.164464
369.60 2.162494
369.70 2.160526
369.80 2.157203
369.90 2.15387
370.00 2.15054
370.10 2.146293
370.20 2.140326
370.30 2.134371
370.40 2.126854
370.50 2.120791
370.60 2.127594
370.70 2.134508
370.80 2.137327
370.90 2.140141
371.00 2.140613
371.10 2.141061
371.20 2.141492
371.30 2.141922
371.40 2.142695
371.50 2.142429
371.60 2.142164
371.70 2.141899
371.80 2.141633
371.90 2.141368
372.00 2.141811
372.10 2.14066
372.20 2.140301
372.30 2.139943
372.40 2.139585
372.50 2.139227
372.60 2.138869
372.70 2.138511
372.80 2.138149
372.90 2.137788
373.00 2.136649
373.10 2.135504
373.20 2.13436
373.30 2.133217
373.40 2.12814
373.50 2.128574
373.60 2.129006
373.70 2.128652
373.80 2.127857
373.90 2.127945
374.00 2.127199
374.10 2.126454
374.20 2.125709
374.30 2.124965
374.40 2.12383
374.50 2.122696
374.60 2.121951
374.70 2.12121
374.80 2.12047
374.90 2.11973
375.00 2.1186
375.10 2.11747
375.20 2.116342
375.30 2.115214
375.40 2.114087
375.50 2.112961
375.60 2.111836
375.70 2.110712
375.80 2.109589
375.90 2.108467
376.00 2.107345
376.10 2.10589
376.20 2.104433
376.30 2.102977
376.40 2.101523
376.50 2.099991
376.60 2.098342
376.70 2.096695
376.80 2.095136
376.90 2.093664
377.00 2.092194
377.10 2.090725
377.20 2.089232
377.30 2.087644
377.40 2.086058
377.50 2.084474
377.60 2.082701
377.70 2.080929
377.80 2.07916
377.90 2.077391
378.00 2.075892
378.10 2.073739
378.20 2.071577
378.30 2.069418
378.40 2.06726
378.50 2.065104
378.60 2.062951
378.70 2.060799
378.80 2.058649
378.90 2.056081
379.00 2.052733
379.10 2.050429
379.20 2.048127
379.30 2.045454
379.40 2.042409
379.50 2.039367
379.60 2.036091
379.70 2.032337
379.80 2.028121
379.90 2.02391
380.00 2.019703
380.10 2.0155
380.20 2.011301
380.30 2.007106
380.40 2.002916
380.50 1.998729
380.60 1.994343
380.70 1.988823
380.80 1.983309
380.90 1.9778
381.00 1.972296
381.10 1.968429
381.20 1.963685
381.30 1.957783
381.40 1.950373
381.50 1.941621
381.60 1.932422
381.70 1.92168
381.80 1.906849
381.90 1.881783
382.00 1.870274
382.10 1.904608
382.20 1.921784
382.30 1.934288
382.40 1.944041
382.50 1.949678
382.60 1.955308
382.70 1.959261
382.80 1.961176
382.90 1.962943
383.00 1.964707
383.10 1.966469
383.20 1.968164
383.30 1.969612
383.40 1.970921
383.50 1.972025
383.60 1.972664
383.70 1.9736
383.80 1.974534
383.90 1.975466
384.00 1.976398
384.10 1.977328
384.20 1.978257
384.30 1.979185
384.40 1.979825
384.50 1.980179
384.60 1.980533
384.70 1.980885
384.80 1.980947
384.90 1.980363
385.00 1.980605
385.10 1.980821
385.20 1.980145
385.30 1.979868
385.40 1.979215
385.50 1.978188
385.60 1.977163
385.70 1.976137
385.80 1.975113
385.90 1.97409
386.00 1.973067
386.10 1.971994
386.20 1.970405
386.30 1.968817
386.40 1.965686
386.50 1.962955
386.60 1.959241
386.70 1.951993
386.80 1.943652
386.90 1.945945
387.00 1.945305
387.10 1.9443
387.20 1.942236
387.30 1.940794
387.40 1.937988
387.50 1.934607
387.60 1.929299
387.70 1.922466
387.80 1.915639
387.90 1.908819
388.00 1.900739
388.10 1.887808
388.20 1.865568
388.30 1.836892
388.40 1.808246
388.50 1.768344
388.60 1.700327
388.70 1.587848
388.80 1.364083
388.90 1.241806
389.00 1.48369
389.10 1.618184
389.20 1.700585
389.30 1.754691
389.40 1.79163
389.50 1.823124
389.60 1.845261
389.70 1.859506
389.80 1.867638
389.90 1.875761
390.00 1.883875
390.10 1.891981
390.20 1.900079
390.30 1.905542
390.40 1.908042
390.50 1.910538
390.60 1.913032
390.70 1.915523
390.80 1.917089
390.90 1.91773
391.00 1.918999
391.10 1.91941
391.20 1.919528
391.30 1.918884
391.40 1.91862
391.50 1.918355
391.60 1.918091
391.70 1.917827
391.80 1.917562
391.90 1.916963
392.00 1.915985
392.10 1.915007
392.20 1.914031
392.30 1.913055
392.40 1.91208
392.50 1.911106
392.60 1.910133
392.70 1.907737
392.80 1.908188
392.90 1.907217
393.00 1.906246
393.10 1.905277
393.20 1.904244
393.30 1.902567
393.40 1.900954
393.50 1.899988
393.60 1.898156
393.70 1.896643
393.80 1.895616
393.90 1.893947
394.00 1.892137
394.10 1.889633
394.20 1.887958
394.30 1.886028
394.40 1.884159
394.50 1.88191
394.60 1.879382
394.70 1.876644
394.80 1.873111
394.90 1.869614
395.00 1.866898
395.10 1.862564
395.20 1.858274
395.30 1.853676
395.40 1.849081
395.50 1.842998
395.60 1.836367
395.70 1.828664
395.80 1.818052
395.90 1.80745
396.00 1.796501
396.10 1.780539
396.20 1.760773
396.30 1.738574
396.40 1.700838
396.50 1.714284
396.60 1.767746
396.70 1.785471
396.80 1.79136
396.90 1.795435
397.00 1.803996
397.10 1.813522
397.20 1.819799
397.30 1.822593
397.40 1.823423
397.50 1.824252
397.60 1.825012
397.70 1.825078
397.80 1.825144
397.90 1.824944
398.00 1.824027
398.10 1.823111
398.20 1.822195
398.30 1.82128
398.40 1.820334
398.50 1.818358
398.60 1.816075
398.70 1.814417
398.80 1.812944
398.90 1.810954
399.00 1.808005
399.10 1.805551
399.20 1.802752
399.30 1.799956
399.40 1.797162
399.50 1.794371
399.60 1.790828
399.70 1.787011
399.80 1.783197
399.90 1.779386
400.00 1.775572
400.10 1.771522
400.20 1.767452
400.30 1.762697
400.40 1.75749
400.50 1.752087
400.60 1.745854
400.70 1.739517
400.80 1.733555
400.90 1.725865
401.00 1.718906
401.10 1.711871
401.20 1.704899
401.30 1.696766
401.40 1.687233
401.50 1.677319
401.60 1.667342
401.70 1.655008
401.80 1.64148
401.90 1.625961
402.00 1.609528
402.10 1.590271
402.20 1.568429
402.30 1.539654
402.40 1.503512
402.50 1.454401
402.60 1.391199
402.70 1.438075
402.80 1.50497
402.90 1.542606
403.00 1.576287
403.10 1.601293
403.20 1.621239
403.30 1.637036
403.40 1.651287
403.50 1.662823
403.60 1.673639
403.70 1.68269
403.80 1.690136
403.90 1.696176
404.00 1.701127
404.10 1.704887
404.20 1.7074
404.30 1.709911
404.40 1.711139
404.50 1.710902
404.60 1.711397
404.70 1.71323
404.80 1.713801
404.90 1.715553
405.00 1.717093
405.10 1.718825
405.20 1.72084
405.30 1.722853
405.40 1.724228
405.50 1.725601
405.60 1.726973
405.70 1.728343
405.80 1.729712
405.90 1.731079
406.00 1.732101
406.10 1.733122
406.20 1.734141
406.30 1.735159
406.40 1.73612
406.50 1.736929
406.60 1.73773
406.70 1.738368
406.80 1.738549
406.90 1.738509
407.00 1.738582
407.10 1.738655
407.20 1.738727
407.30 1.738799
407.40 1.738871
407.50 1.738943
407.60 1.739014
407.70 1.739085
407.80 1.739155
407.90 1.73922
408.00 1.739087
408.10 1.738811
408.20 1.738302
408.30 1.73788
408.40 1.737457
408.50 1.736722
408.60 1.736327
408.70 1.735932
408.80 1.735487
408.90 1.734699
409.00 1.734102
409.10 1.733506
409.20 1.73291
409.30 1.732315
409.40 1.731713
409.50 1.730867
409.60 1.730022
409.70 1.729177
409.80 1.728334
409.90 1.727452
410.00 1.725343
410.10 1.724501
410.20 1.723661
410.30 1.722821
410.40 1.721878
410.50 1.720611
410.60 1.719345
410.70 1.717955
410.80 1.716066
410.90 1.714179
411.00 1.712255
411.10 1.710319
411.20 1.708385
411.30 1.706229
411.40 1.703168
411.50 1.699593
411.60 1.696022
411.70 1.691708
411.80 1.684418
411.90 1.676488
412.00 1.660811
412.10 1.634815
412.20 1.639832
412.30 1.646593
412.40 1.651328
412.50 1.656419
412.60 1.660219
412.70 1.663141
412.80 1.665842
412.90 1.667783
413.00 1.668519
413.10 1.668987
413.20 1.669454
413.30 1.66992
413.40 1.670386
413.50 1.670597
413.60 1.669789
413.70 1.668982
413.80 1.668175
413.90 1.667369
414.00 1.666257
414.10 1.664173
414.20 1.662397
414.30 1.658783
414.40 1.653639
414.50 1.656259
414.60 1.658527
414.70 1.660279
414.80 1.661723
414.90 1.662196
415.00 1.662669
415.10 1.663141
415.20 1.663498
415.30 1.663489
415.40 1.663481
415.50 1.663475
415.60 1.663585
415.70 1.663695
415.80 1.663687
415.90 1.663304
416.00 1.662921
416.10 1.662577
416.20 1.662386
416.30 1.662194
416.40 1.662003
416.50 1.661793
416.60 1.660996
416.70 1.660198
416.80 1.659402
416.90 1.657344
417.00 1.656549
417.10 1.657016
417.20 1.656221
417.30 1.655441
417.40 1.655093
417.50 1.654745
417.60 1.654308
417.70 1.653522
417.80 1.65294
417.90 1.652359
418.00 1.651778
418.10 1.651197
418.20 1.650616
418.30 1.65003
418.40 1.649241
418.50 1.648453
418.60 1.647666
418.70 1.646879
418.80 1.646092
418.90 1.645306
419.00 1.644521
419.10 1.643737
419.20 1.642952
419.30 1.642169
419.40 1.641386
419.50 1.640603
419.60 1.639821
419.70 1.63904
419.80 1.638259
419.90 1.63745
420.00 1.636548
420.10 1.635648
420.20 1.634748
420.30 1.633848
420.40 1.632949
420.50 1.632051
420.60 1.631154
420.70 1.630257
420.80 1.629361
420.90 1.628469
421.00 1.627696
421.10 1.626923
421.20 1.626106
421.30 1.625158
421.40 1.62421
421.50 1.623264
421.60 1.622318
421.70 1.621372
421.80 1.620428
421.90 1.619526
422.00 1.618759
422.10 1.617914
422.20 1.616759
422.30 1.615606
422.40 1.614459
422.50 1.613509
422.60 1.612559
422.70 1.61161
422.80 1.610662
422.90 1.609714
423.00 1.608767
423.10 1.607821
423.20 1.606875
423.30 1.605931
423.40 1.604987
423.50 1.604043
423.60 1.603101
423.70 1.602159
423.80 1.601218
423.90 1.600277
424.00 1.599338
424.10 1.598399
424.20 1.59746
424.30 1.596523
424.40 1.595623
424.50 1.594625
424.60 1.593628
424.70 1.592632
424.80 1.591637
424.90 1.590642
425.00 1.589648
425.10 1.588655
