# Version 2.1 - nm, norm@500 to 1, cut digits, bergeron_He_5500_70.dat_5500
# Wavelength(nm)  Flambda(ergs/cm^s/s/nm)
300.00 0.2468864
300.10 0.2473398
300.20 0.2477925
300.30 0.2482471
300.40 0.248719
300.50 0.2491903
300.60 0.2496609
300.70 0.2501308
300.80 0.2506
300.90 0.2510685
301.00 0.2515364
301.10 0.2520035
301.20 0.2524701
301.30 0.2529359
301.40 0.253401
301.50 0.2538655
301.60 0.2543293
301.70 0.2547925
301.80 0.255255
301.90 0.2557168
302.00 0.2561779
302.10 0.2566523
302.20 0.2571275
302.30 0.2576021
302.40 0.2580759
302.50 0.2585491
302.60 0.2590216
302.70 0.2594934
302.80 0.2599646
302.90 0.2604351
303.00 0.2609048
303.10 0.261374
303.20 0.2618424
303.30 0.2623113
303.40 0.2627903
303.50 0.2632686
303.60 0.2637461
303.70 0.264223
303.80 0.2646993
303.90 0.2651748
304.00 0.2656496
304.10 0.2661238
304.20 0.2665973
304.30 0.2670701
304.40 0.2675422
304.50 0.2680136
304.60 0.2684972
304.70 0.2689815
304.80 0.2694652
304.90 0.2699481
305.00 0.2704304
305.10 0.2709119
305.20 0.2713928
305.30 0.2718729
305.40 0.2723524
305.50 0.2728312
305.60 0.2733094
305.70 0.2737868
305.80 0.2742635
305.90 0.2747396
306.00 0.275215
306.10 0.2756897
306.20 0.2761637
306.30 0.2766371
306.40 0.2771262
306.50 0.2776195
306.60 0.2781121
306.70 0.278604
306.80 0.2790952
306.90 0.2795857
307.00 0.2800755
307.10 0.2805646
307.20 0.281053
307.30 0.2815407
307.40 0.2820277
307.50 0.282514
307.60 0.2829997
307.70 0.2834846
307.80 0.2839689
307.90 0.2844524
308.00 0.2849353
308.10 0.2854175
308.20 0.285899
308.30 0.2863798
308.40 0.2868599
308.50 0.2873394
308.60 0.2878182
308.70 0.2882963
308.80 0.2887677
308.90 0.2892217
309.00 0.2897225
309.10 0.2902226
309.20 0.290722
309.30 0.2912206
309.40 0.2917175
309.50 0.2922071
309.60 0.292696
309.70 0.2931843
309.80 0.2936718
309.90 0.2941586
310.00 0.2946448
310.10 0.2951303
310.20 0.2956151
310.30 0.2960992
310.40 0.2965892
310.50 0.2970858
310.60 0.2975817
310.70 0.2980768
310.80 0.2985713
310.90 0.2990651
311.00 0.2995575
311.10 0.3000492
311.20 0.3005402
311.30 0.3010338
311.40 0.3015359
311.50 0.3020373
311.60 0.302538
311.70 0.3030379
311.80 0.3035372
311.90 0.3040358
312.00 0.3045337
312.10 0.3050308
312.20 0.3055301
312.30 0.3060274
312.40 0.3065208
312.50 0.3070276
312.60 0.3075277
312.70 0.3080271
312.80 0.3085258
312.90 0.3090226
313.00 0.3095175
313.10 0.3100116
313.20 0.3105051
313.30 0.311001
313.40 0.311505
313.50 0.3120082
313.60 0.3125108
313.70 0.3130126
313.80 0.3135138
313.90 0.3140142
314.00 0.314514
314.10 0.3150201
314.20 0.3155255
314.30 0.3160303
314.40 0.3165343
314.50 0.3170376
314.60 0.3175402
314.70 0.3180421
314.80 0.3185456
314.90 0.3190554
315.00 0.319565
315.10 0.3200736
315.20 0.3205815
315.30 0.3210887
315.40 0.3215952
315.50 0.322101
315.60 0.3226061
315.70 0.3231058
315.80 0.3236049
315.90 0.3241033
316.00 0.324601
316.10 0.3251117
316.20 0.3256218
316.30 0.3261311
316.40 0.3266397
316.50 0.3271477
316.60 0.3276549
316.70 0.3281614
316.80 0.3286672
316.90 0.3291723
317.00 0.3296767
317.10 0.3301804
317.20 0.3306834
317.30 0.3311976
317.40 0.3317101
317.50 0.3322189
317.60 0.3327271
317.70 0.3332345
317.80 0.3337412
317.90 0.3342479
318.00 0.3347609
318.10 0.3352712
318.20 0.3357808
318.30 0.3362896
318.40 0.3368013
318.50 0.3373223
318.60 0.3378285
318.70 0.3383481
318.80 0.3388535
318.90 0.3393852
319.00 0.3399096
319.10 0.3403993
319.20 0.3408953
319.30 0.3414102
319.40 0.3419243
319.50 0.3424378
319.60 0.342956
319.70 0.3434823
319.80 0.3440079
319.90 0.3445327
320.00 0.3450502
320.10 0.3455598
320.20 0.3460745
320.30 0.3465888
320.40 0.3471124
320.50 0.3476031
320.60 0.3481103
320.70 0.3486424
320.80 0.3491675
320.90 0.3496848
321.00 0.3502014
321.10 0.3507174
321.20 0.3512325
321.30 0.3517518
321.40 0.3522705
321.50 0.3527884
321.60 0.3533056
321.70 0.3538221
321.80 0.3543295
321.90 0.3548272
322.00 0.355363
322.10 0.3558814
322.20 0.3563991
322.30 0.3569161
322.40 0.3574324
322.50 0.3579479
322.60 0.3584628
322.70 0.358977
322.80 0.3594896
322.90 0.3600124
323.00 0.3605345
323.10 0.3610559
323.20 0.3615765
323.30 0.3620964
323.40 0.3626157
323.50 0.3631342
323.60 0.363652
323.70 0.3641691
323.80 0.3646855
323.90 0.3652012
324.00 0.3657328
324.10 0.3662637
324.20 0.3667939
324.30 0.3673188
324.40 0.3678359
324.50 0.3683587
324.60 0.3688807
324.70 0.3694021
324.80 0.3699227
324.90 0.3704427
325.00 0.3709619
325.10 0.3714804
325.20 0.3719973
325.30 0.3725117
325.40 0.3730254
325.50 0.3735459
325.60 0.374075
325.70 0.3746034
325.80 0.375131
325.90 0.3756541
326.00 0.3761723
326.10 0.3766898
326.20 0.3772065
326.30 0.377731
326.40 0.3782787
326.50 0.3788079
326.60 0.3793365
326.70 0.3798643
326.80 0.3803915
326.90 0.3809179
327.00 0.3814436
327.10 0.3819686
327.20 0.3824928
327.30 0.3830164
327.40 0.3835392
327.50 0.3840614
327.60 0.3845828
327.70 0.3851035
327.80 0.3856235
327.90 0.3861385
328.00 0.3866552
328.10 0.3871799
328.20 0.3877039
328.30 0.3882271
328.40 0.3887497
328.50 0.3892856
328.60 0.389824
328.70 0.3903618
328.80 0.390897
328.90 0.3914262
329.00 0.3919547
329.10 0.3924825
329.20 0.3930095
329.30 0.3935359
329.40 0.3940615
329.50 0.3945865
329.60 0.3951107
329.70 0.3956342
329.80 0.396157
329.90 0.3966791
330.00 0.3972072
330.10 0.3977427
330.20 0.3982775
330.30 0.3988115
330.40 0.3993438
330.50 0.3998742
330.60 0.400404
330.70 0.400933
330.80 0.4014613
330.90 0.4019888
331.00 0.4025157
331.10 0.4030419
331.20 0.4035673
331.30 0.4040921
331.40 0.4046161
331.50 0.4051381
331.60 0.4056577
331.70 0.4061766
331.80 0.4067119
331.90 0.4072472
332.00 0.4077818
332.10 0.4083157
332.20 0.4088488
332.30 0.4093813
332.40 0.409913
332.50 0.410444
332.60 0.4109743
332.70 0.4115039
332.80 0.4120328
332.90 0.412561
333.00 0.4130885
333.10 0.4136193
333.20 0.4141543
333.30 0.4146887
333.40 0.4152223
333.50 0.4157553
333.60 0.4162875
333.70 0.416819
333.80 0.4173497
333.90 0.4178798
334.00 0.4184092
334.10 0.4189386
334.20 0.4194682
334.30 0.4199971
334.40 0.4205252
334.50 0.4210527
334.60 0.4215795
334.70 0.4221169
334.80 0.4226533
334.90 0.4231689
335.00 0.4236838
335.10 0.4242391
335.20 0.4247698
335.30 0.4252838
335.40 0.4258376
335.50 0.4263417
335.60 0.426894
335.70 0.4274126
335.80 0.4279391
335.90 0.4284703
336.00 0.4290076
336.10 0.4295441
336.20 0.4300799
336.30 0.4306168
336.40 0.4311552
336.50 0.431693
336.60 0.43223
336.70 0.4327662
336.80 0.4333018
336.90 0.4338314
337.00 0.4343537
337.10 0.4348753
337.20 0.4353962
337.30 0.4359235
337.40 0.4364601
337.50 0.4369961
337.60 0.4375313
337.70 0.4380658
337.80 0.4385996
337.90 0.4391333
338.00 0.4396672
338.10 0.4402003
338.20 0.4407327
338.30 0.4412644
338.40 0.4417965
338.50 0.4423307
338.60 0.4428642
338.70 0.443397
338.80 0.4439291
338.90 0.4444604
339.00 0.4449911
339.10 0.4455211
339.20 0.4460503
339.30 0.4465844
339.40 0.4471258
339.50 0.4476655
339.60 0.4482034
339.70 0.4487406
339.80 0.4492771
339.90 0.4498129
340.00 0.450348
340.10 0.4508823
340.20 0.451416
340.30 0.451949
340.40 0.4524812
340.50 0.4530128
340.60 0.4535436
340.70 0.4540738
340.80 0.454604
340.90 0.4551348
341.00 0.4556683
341.10 0.4562054
341.20 0.4567418
341.30 0.4572774
341.40 0.4578124
341.50 0.4583466
341.60 0.4588801
341.70 0.459413
341.80 0.4599439
341.90 0.4604725
342.00 0.4610005
342.10 0.4615278
342.20 0.4620596
342.30 0.462603
342.40 0.4631405
342.50 0.4636731
342.60 0.4642049
342.70 0.4647361
342.80 0.4652666
342.90 0.4657964
343.00 0.46633
343.10 0.4668683
343.20 0.467406
343.30 0.4679429
343.40 0.4684665
343.50 0.4689712
343.60 0.4694753
343.70 0.4699787
343.80 0.4704815
343.90 0.4709835
344.00 0.4715008
344.10 0.4720403
344.20 0.4725791
344.30 0.4731172
344.40 0.4737021
344.50 0.4743547
344.60 0.4746379
344.70 0.4755206
344.80 0.4759393
344.90 0.4763574
345.00 0.4770478
345.10 0.4774646
345.20 0.4779167
345.30 0.4784197
345.40 0.478922
345.50 0.4794722
345.60 0.480064
345.70 0.4806307
345.80 0.4811966
345.90 0.4817618
346.00 0.4823262
346.10 0.48289
346.20 0.4834467
346.30 0.4839936
346.40 0.4845399
346.50 0.4850854
346.60 0.4856303
346.70 0.4861744
346.80 0.4867178
346.90 0.4872605
347.00 0.4878025
347.10 0.4883438
347.20 0.4888797
347.30 0.4894081
347.40 0.4899357
347.50 0.4904627
347.60 0.490989
347.70 0.4915146
347.80 0.4920396
347.90 0.4925638
348.00 0.4930874
348.10 0.4936102
348.20 0.4941324
348.30 0.494654
348.40 0.4951748
348.50 0.495695
348.60 0.4962144
348.70 0.4966323
348.80 0.4970769
348.90 0.4976059
349.00 0.4981342
349.10 0.4986618
349.20 0.4991887
349.30 0.4997149
349.40 0.5002404
349.50 0.5007653
349.60 0.5012895
349.70 0.5018129
349.80 0.5023358
349.90 0.5028579
350.00 0.5033793
350.10 0.5039001
350.20 0.5044202
350.30 0.5049581
350.40 0.5055219
350.50 0.5060849
350.60 0.5066472
350.70 0.5072088
350.80 0.5077697
350.90 0.5083299
351.00 0.5088893
351.10 0.509448
351.20 0.510006
351.30 0.5105633
351.40 0.5110945
351.50 0.51158
351.60 0.5120649
351.70 0.5125492
351.80 0.5130329
351.90 0.5135159
352.00 0.5139982
352.10 0.51448
352.20 0.5150693
352.30 0.5156482
352.40 0.5161955
352.50 0.516742
352.60 0.5172878
352.70 0.517833
352.80 0.5183774
352.90 0.5189211
353.00 0.5194642
353.10 0.5200065
353.20 0.5205481
353.30 0.5210891
353.40 0.5216293
353.50 0.5221361
353.60 0.5226339
353.70 0.5231312
353.80 0.5236278
353.90 0.5241392
354.00 0.5246773
354.10 0.5252148
354.20 0.5257516
354.30 0.5262877
354.40 0.5268231
354.50 0.5273579
354.60 0.5278919
354.70 0.5284253
354.80 0.5289426
354.90 0.5294373
355.00 0.5299314
355.10 0.5304248
355.20 0.5309175
355.30 0.531428
355.40 0.5319378
355.50 0.532447
355.60 0.5329555
355.70 0.5335503
355.80 0.5341835
355.90 0.5347595
356.00 0.5352638
356.10 0.5357748
356.20 0.5362852
356.30 0.5367948
356.40 0.5373039
356.50 0.5378123
356.60 0.53832
356.70 0.538827
356.80 0.5393335
356.90 0.5398392
357.00 0.5403443
357.10 0.5408488
357.20 0.5413526
357.30 0.5418558
357.40 0.5423914
357.50 0.5429852
357.60 0.5435783
357.70 0.5441706
357.80 0.5446481
357.90 0.5451251
358.00 0.5456349
358.10 0.5461525
358.20 0.5466694
358.30 0.5471856
358.40 0.5477012
358.50 0.5482161
358.60 0.5487303
358.70 0.5492439
358.80 0.5497568
358.90 0.5502691
359.00 0.5508309
359.10 0.5514812
359.20 0.5521015
359.30 0.5525262
359.40 0.5529503
359.50 0.553519
359.60 0.5541233
359.70 0.5547268
359.80 0.5552237
359.90 0.55572
360.00 0.5562108
360.10 0.5566924
360.20 0.5571733
360.30 0.5576536
360.40 0.5581333
360.50 0.5586124
360.60 0.5594237
360.70 0.5598539
360.80 0.5602835
360.90 0.5607126
361.00 0.5611465
361.10 0.56169
361.20 0.5623634
361.30 0.5628955
361.40 0.5633847
361.50 0.5639575
361.60 0.5643697
361.70 0.5648991
361.80 0.5654207
361.90 0.5659291
362.00 0.5664368
362.10 0.5669876
362.20 0.567532
362.30 0.5680464
362.40 0.5685601
362.50 0.5690731
362.60 0.5695855
362.70 0.570134
362.80 0.5707955
362.90 0.5713126
363.00 0.5718292
363.10 0.5722774
363.20 0.5727244
363.30 0.5733955
363.40 0.5737052
363.50 0.574431
363.60 0.5747395
363.70 0.5753251
363.80 0.5759792
363.90 0.5764544
364.00 0.5769289
364.10 0.5774029
364.20 0.5778763
364.30 0.5784543
364.40 0.579058
364.50 0.5795771
364.60 0.5800846
364.70 0.5805914
364.80 0.5810976
364.90 0.5816059
365.00 0.5821135
365.10 0.582414
365.20 0.5829205
365.30 0.5834263
365.40 0.5841376
365.50 0.584642
365.60 0.5851458
365.70 0.5855742
365.80 0.5860019
365.90 0.586562
366.00 0.5871546
366.10 0.5876411
366.20 0.5881269
366.30 0.5886122
366.40 0.5890968
366.50 0.5896426
366.60 0.5901487
366.70 0.5906021
366.80 0.5910549
366.90 0.5915461
367.00 0.5921057
367.10 0.5926647
367.20 0.5932229
367.30 0.5937805
367.40 0.5943374
367.50 0.5947333
367.60 0.5950886
367.70 0.595622
367.80 0.5961547
367.90 0.5966868
368.00 0.5972503
368.10 0.5979313
368.20 0.5984068
368.30 0.5988796
368.40 0.5993518
368.50 0.5998234
368.60 0.6002944
368.70 0.6007648
368.80 0.6012346
368.90 0.6016775
369.00 0.6022105
369.10 0.6027771
369.20 0.6032671
369.30 0.6037476
369.40 0.6042274
369.50 0.6047067
369.60 0.6053818
369.70 0.6060561
369.80 0.6064922
369.90 0.6069254
370.00 0.607358
370.10 0.607958
370.20 0.6084382
370.30 0.6089124
370.40 0.6093941
370.50 0.6098571
370.60 0.6105299
370.70 0.6108113
370.80 0.6112786
370.90 0.6117452
371.00 0.6124181
371.10 0.6130923
371.20 0.6135569
371.30 0.614021
371.40 0.6143916
371.50 0.6148778
371.60 0.6153634
371.70 0.6158484
371.80 0.6163328
371.90 0.6168165
372.00 0.6172318
372.10 0.6177519
372.20 0.6182808
372.30 0.6188091
372.40 0.6193367
372.50 0.6198637
372.60 0.62039
372.70 0.6209157
372.80 0.6213707
372.90 0.6218252
373.00 0.622287
373.10 0.6227482
373.20 0.6234025
373.30 0.6240559
373.40 0.6243139
373.50 0.624966
373.60 0.625223
373.70 0.6258737
373.80 0.6261913
373.90 0.6267792
374.00 0.6273294
374.10 0.6278789
374.20 0.6284278
374.30 0.628976
374.40 0.6293763
374.50 0.6298646
374.60 0.6303165
374.70 0.6307661
374.80 0.6312152
374.90 0.6316637
375.00 0.6322401
375.10 0.6328158
375.20 0.6333908
375.30 0.6338907
375.40 0.63439
375.50 0.6348886
375.60 0.6353866
375.70 0.635884
375.80 0.6363808
375.90 0.6368769
376.00 0.6373091
376.10 0.6378173
376.20 0.6383255
376.30 0.6388331
376.40 0.6393401
376.50 0.6398294
376.60 0.6402926
376.70 0.6407552
376.80 0.6412228
376.90 0.6416955
377.00 0.6421675
377.10 0.642639
377.20 0.6431166
377.30 0.6436189
377.40 0.6441205
377.50 0.6446216
377.60 0.6451194
377.70 0.6456166
377.80 0.6461131
377.90 0.6466091
378.00 0.6471453
378.10 0.6476065
378.20 0.6480657
378.30 0.6485244
378.40 0.6489825
378.50 0.64944
378.60 0.649897
378.70 0.6503534
378.80 0.6508092
378.90 0.651283
379.00 0.6517909
379.10 0.6522131
379.20 0.6526347
379.30 0.6531051
379.40 0.6536243
379.50 0.6541428
379.60 0.6547009
379.70 0.655292
379.80 0.6557825
379.90 0.6562724
380.00 0.6567618
380.10 0.6572505
380.20 0.6577386
380.30 0.6582261
380.40 0.6587129
380.50 0.6591992
380.60 0.6595521
380.70 0.6599824
380.80 0.6604122
380.90 0.6608415
381.00 0.6612702
381.10 0.6618706
381.20 0.6624283
381.30 0.662951
381.40 0.6632504
381.50 0.6638724
381.60 0.6643602
381.70 0.6647096
381.80 0.6652984
381.90 0.6658935
382.00 0.6661107
382.10 0.6667045
382.20 0.6672223
382.30 0.6676265
382.40 0.6680887
382.50 0.6686382
382.60 0.669187
382.70 0.6696774
382.80 0.6701088
382.90 0.6705464
383.00 0.6709835
383.10 0.67142
383.20 0.6718648
383.30 0.6723422
383.40 0.6728089
383.50 0.67326
383.60 0.6737326
383.70 0.6742188
383.80 0.6747044
383.90 0.6751894
384.00 0.6756738
384.10 0.6761577
384.20 0.6766409
384.30 0.6771235
384.40 0.6775792
384.50 0.6780078
384.60 0.6784359
384.70 0.6788635
384.80 0.6793083
384.90 0.679796
385.00 0.6802397
385.10 0.680694
385.20 0.6814095
385.30 0.6818087
385.40 0.682263
385.50 0.6827724
385.60 0.6832812
385.70 0.6837894
385.80 0.6842522
385.90 0.684546
386.00 0.6849084
386.10 0.6853455
386.20 0.6858455
386.30 0.6863449
386.40 0.6869654
386.50 0.6874704
386.60 0.6879163
386.70 0.6882047
386.80 0.6887686
386.90 0.6893318
387.00 0.6896279
387.10 0.6901899
387.20 0.6907235
387.30 0.690945
387.40 0.6915029
387.50 0.6920149
387.60 0.6926044
387.70 0.693071
387.80 0.6935371
387.90 0.6940026
388.00 0.6944734
388.10 0.6947237
388.20 0.6950811
388.30 0.6955344
388.40 0.6959871
388.50 0.6964914
388.60 0.6970976
388.70 0.6975901
388.80 0.6981311
388.90 0.6983407
389.00 0.6989208
389.10 0.6993993
389.20 0.6997834
389.30 0.7001604
389.40 0.7007315
389.50 0.7011738
389.60 0.7014725
389.70 0.7019624
389.80 0.7024648
389.90 0.7029665
390.00 0.7034677
390.10 0.7039682
390.20 0.7044681
390.30 0.704939
390.40 0.7053772
390.50 0.7058148
390.60 0.7062519
390.70 0.7066885
390.80 0.7071329
390.90 0.7075852
391.00 0.708039
391.10 0.7085503
391.20 0.7089798
391.30 0.7092692
391.40 0.7097451
391.50 0.7102205
391.60 0.7106953
391.70 0.7111695
391.80 0.7116432
391.90 0.712038
392.00 0.7123866
392.10 0.7127982
392.20 0.7132487
392.30 0.7138563
392.40 0.7142192
392.50 0.7146133
392.60 0.715142
392.70 0.7156701
392.80 0.7161976
392.90 0.716571
393.00 0.7169646
393.10 0.7173655
393.20 0.717785
393.30 0.7183096
393.40 0.7188425
393.50 0.7193199
393.60 0.7195244
393.70 0.7200467
393.80 0.7205523
393.90 0.720896
394.00 0.7212784
394.10 0.7218564
394.20 0.7222094
394.30 0.7226643
394.40 0.7233102
394.50 0.7235924
394.60 0.7240157
394.70 0.7244427
394.80 0.7248857
394.90 0.7253264
395.00 0.7257446
395.10 0.7262274
395.20 0.726608
395.30 0.7270435
395.40 0.7274785
395.50 0.7279538
395.60 0.7284437
395.70 0.7289103
395.80 0.7293155
395.90 0.7297201
396.00 0.7301317
396.10 0.7306245
396.20 0.7311323
396.30 0.7316395
396.40 0.7317958
396.50 0.732302
396.60 0.7328076
396.70 0.7333218
396.80 0.7336904
396.90 0.7341198
397.00 0.7344135
397.10 0.7349163
397.20 0.7355744
397.30 0.7359529
397.40 0.7363498
397.50 0.7367461
397.60 0.7371508
397.70 0.737644
397.80 0.7381365
397.90 0.7385966
398.00 0.7389701
398.10 0.7393431
398.20 0.7397672
398.30 0.740249
398.40 0.7407285
398.50 0.7411567
398.60 0.7415445
398.70 0.7418868
398.80 0.7422211
398.90 0.7426666
399.00 0.7433187
399.10 0.7437087
399.20 0.7441283
399.30 0.7445474
399.40 0.744966
399.50 0.7453841
399.60 0.7458134
399.70 0.7462466
399.80 0.7466793
399.90 0.7471114
400.00 0.7475427
400.10 0.7479625
400.20 0.748285
400.30 0.748768
400.40 0.7492082
400.50 0.7494282
400.60 0.7500229
400.70 0.7505056
400.80 0.7507051
400.90 0.7511269
401.00 0.7516884
401.10 0.7520886
401.20 0.7524813
401.30 0.75302
401.40 0.7534576
401.50 0.7538411
401.60 0.7542249
401.70 0.7546366
401.80 0.7550087
401.90 0.7554923
402.00 0.7557911
402.10 0.7564118
402.20 0.7567163
402.30 0.7572158
402.40 0.7575559
402.50 0.7579669
402.60 0.7582877
402.70 0.7589112
402.80 0.7590433
402.90 0.7595142
403.00 0.7599846
403.10 0.7604544
403.20 0.7607778
403.30 0.7611815
403.40 0.7615459
403.50 0.7619465
403.60 0.7623719
403.70 0.7629238
403.80 0.7632441
403.90 0.763633
404.00 0.7640082
404.10 0.7644477
404.20 0.7649117
404.30 0.7653752
404.40 0.7658534
404.50 0.7663004
404.60 0.7665942
404.70 0.7668875
404.80 0.7675359
404.90 0.7678087
405.00 0.7682919
405.10 0.7686319
405.20 0.7689709
405.30 0.7693095
405.40 0.7697673
405.50 0.7702245
405.60 0.7706811
405.70 0.7711373
405.80 0.7715929
405.90 0.7720479
406.00 0.7724067
406.10 0.772765
406.20 0.7731229
406.30 0.7734803
406.40 0.7738485
406.50 0.7743528
406.60 0.7747187
406.70 0.7749617
406.80 0.7753603
406.90 0.7759277
407.00 0.776344
407.10 0.7767597
407.20 0.7771749
407.30 0.7775896
407.40 0.7780038
407.50 0.7784175
407.60 0.7788307
407.70 0.7792434
407.80 0.7796556
407.90 0.7800652
408.00 0.7804055
408.10 0.7807663
408.20 0.7811515
408.30 0.7815217
408.40 0.7818914
408.50 0.7823714
408.60 0.782787
408.70 0.7832021
408.80 0.7836123
408.90 0.7839862
409.00 0.7843607
409.10 0.7847348
409.20 0.7851084
409.30 0.7854815
409.40 0.7858559
409.50 0.786284
409.60 0.7867116
409.70 0.7871275
409.80 0.7874986
409.90 0.7878657
410.00 0.7881172
410.10 0.788551
410.20 0.7889435
410.30 0.7893253
410.40 0.7897033
410.50 0.7900707
410.60 0.7904377
410.70 0.7908124
410.80 0.7912197
410.90 0.7916266
411.00 0.7920615
411.10 0.7925066
411.20 0.7929511
411.30 0.7933404
411.40 0.7935182
411.50 0.7939365
411.60 0.7943544
411.70 0.7947735
411.80 0.795199
411.90 0.7956239
412.00 0.7960484
412.10 0.7964724
412.20 0.7965719
412.30 0.7969991
412.40 0.797441
412.50 0.7978166
412.60 0.7981227
412.70 0.7985786
412.80 0.7990715
412.90 0.7993861
413.00 0.7998043
413.10 0.8001851
413.20 0.8005654
413.30 0.8009452
413.40 0.8013246
413.50 0.8016843
413.60 0.8019992
413.70 0.8024155
413.80 0.8028314
413.90 0.8032467
414.00 0.8036615
414.10 0.8040758
414.20 0.8044897
414.30 0.8045824
414.40 0.8049954
414.50 0.8054005
414.60 0.8058199
414.70 0.8062315
414.80 0.8066233
414.90 0.806954
415.00 0.8072842
415.10 0.807614
415.20 0.8079619
415.30 0.8083682
415.40 0.808774
415.50 0.8091795
415.60 0.8095896
415.70 0.8099993
415.80 0.8103927
415.90 0.8107357
416.00 0.8110784
416.10 0.8114266
416.20 0.8117987
416.30 0.8121704
416.40 0.8125416
416.50 0.8129133
416.60 0.8133159
416.70 0.8137181
416.80 0.814123
416.90 0.8145209
417.00 0.8147396
417.10 0.8150055
417.20 0.8154054
417.30 0.8158046
417.40 0.8161951
417.50 0.8165853
417.60 0.8169806
