# Version 2.1 - nm, norm@500 to 1, cut digits, bergeron_He_3750_85.dat_3750
# Wavelength(nm)  Flambda(ergs/cm^s/s/nm)
300.00 0.02274358
300.10 0.02282797
300.20 0.02291254
300.30 0.02299743
300.40 0.0230851
300.50 0.02317266
300.60 0.02326009
300.70 0.0233474
300.80 0.02343459
300.90 0.02352166
301.00 0.0236086
301.10 0.02369543
301.20 0.02378214
301.30 0.02386872
301.40 0.02395519
301.50 0.02404153
301.60 0.02412776
301.70 0.02421387
301.80 0.02429985
301.90 0.02438572
302.00 0.02447147
302.10 0.02456209
302.20 0.02465313
302.30 0.02474406
302.40 0.02483485
302.50 0.02492552
302.60 0.02501607
302.70 0.02510649
302.80 0.02519678
302.90 0.02528695
303.00 0.025377
303.10 0.02546692
303.20 0.02555672
303.30 0.02564684
303.40 0.02574083
303.50 0.0258347
303.60 0.02592843
303.70 0.02602204
303.80 0.02611551
303.90 0.02620886
304.00 0.02630208
304.10 0.02639517
304.20 0.02648813
304.30 0.02658097
304.40 0.02667368
304.50 0.02676626
304.60 0.0268644
304.70 0.02696303
304.80 0.02706154
304.90 0.0271599
305.00 0.02725814
305.10 0.02735624
305.20 0.0274542
305.30 0.02755203
305.40 0.02764972
305.50 0.02774729
305.60 0.02784471
305.70 0.02794201
305.80 0.02803917
305.90 0.0281362
306.00 0.02823309
306.10 0.02832986
306.20 0.02842649
306.30 0.02852299
306.40 0.02862637
306.50 0.02873171
306.60 0.02883691
306.70 0.02894196
306.80 0.02904688
306.90 0.02915164
307.00 0.02925627
307.10 0.02936075
307.20 0.02946509
307.30 0.02956929
307.40 0.02967335
307.50 0.02977726
307.60 0.02988104
307.70 0.02998467
307.80 0.03008816
307.90 0.03019151
308.00 0.03029472
308.10 0.03039779
308.20 0.03050072
308.30 0.03060351
308.40 0.03070616
308.50 0.03080867
308.60 0.03091105
308.70 0.03101328
308.80 0.03111633
308.90 0.03122197
309.00 0.03133021
309.10 0.0314383
309.20 0.03154624
309.30 0.03165403
309.40 0.03176207
309.50 0.03187229
309.60 0.03198236
309.70 0.03209229
309.80 0.03220206
309.90 0.03231169
310.00 0.03242117
310.10 0.0325305
310.20 0.03263969
310.30 0.03274872
310.40 0.03285991
310.50 0.03297345
310.60 0.03308684
310.70 0.03320007
310.80 0.03331315
310.90 0.03342607
311.00 0.03353984
311.10 0.03365345
311.20 0.0337669
311.30 0.03388093
311.40 0.03399688
311.50 0.03411268
311.60 0.03422831
311.70 0.0343438
311.80 0.03445912
311.90 0.0345743
312.00 0.03468931
312.10 0.03480418
312.20 0.03491887
312.30 0.03503332
312.40 0.03514762
312.50 0.03527147
312.60 0.03538839
312.70 0.03550516
312.80 0.03562177
312.90 0.03573961
313.00 0.03585879
313.10 0.03597781
313.20 0.03609667
313.30 0.03621649
313.40 0.03633934
313.50 0.03646203
313.60 0.03658455
313.70 0.03670691
313.80 0.0368291
313.90 0.03695114
314.00 0.03707301
314.10 0.03719619
314.20 0.0373192
314.30 0.03744206
314.40 0.03756475
314.50 0.03768727
314.60 0.03780963
314.70 0.03793183
314.80 0.03805477
314.90 0.03818109
315.00 0.03830829
315.10 0.0384348
315.20 0.03856114
315.30 0.03868731
315.40 0.03881331
315.50 0.03893915
315.60 0.03906481
315.70 0.03919404
315.80 0.03932308
315.90 0.03945196
316.00 0.03958067
316.10 0.03970698
316.20 0.03983312
316.30 0.03996354
316.40 0.04009379
316.50 0.04022387
316.60 0.04035377
316.70 0.0404835
316.80 0.04061306
316.90 0.04074466
317.00 0.04087609
317.10 0.04100735
317.20 0.04113843
317.30 0.041275
317.40 0.04141066
317.50 0.04154408
317.60 0.04167733
317.70 0.0418104
317.80 0.0419433
317.90 0.04207906
318.00 0.04221437
318.10 0.04235047
318.20 0.04248639
318.30 0.04262214
318.40 0.0427577
318.50 0.04289309
318.60 0.04302602
318.70 0.04316236
318.80 0.04329984
318.90 0.04343932
319.00 0.04357722
319.10 0.0437159
319.20 0.04385451
319.30 0.04399324
319.40 0.04413179
319.50 0.04427016
319.60 0.044416
319.70 0.0445563
319.80 0.04469642
319.90 0.04483635
320.00 0.04497689
320.10 0.04511808
320.20 0.04525926
320.30 0.04540027
320.40 0.04554611
320.50 0.04568743
320.60 0.04583203
320.70 0.04597644
320.80 0.04612066
320.90 0.04626469
321.00 0.04640854
321.10 0.04655219
321.20 0.04670176
321.30 0.04684861
321.40 0.04699528
321.50 0.04714175
321.60 0.04728803
321.70 0.04743411
321.80 0.04757941
321.90 0.04772388
322.00 0.04787381
322.10 0.04802432
322.20 0.04817464
322.30 0.04832475
322.40 0.04847468
322.50 0.0486244
322.60 0.04877394
322.70 0.04892327
322.80 0.04907687
322.90 0.0492306
323.00 0.04938413
323.10 0.04953747
323.20 0.0496906
323.30 0.04984354
323.40 0.04999627
323.50 0.05014881
323.60 0.05030115
323.70 0.05045329
323.80 0.05060524
323.90 0.05075698
324.00 0.05091145
324.10 0.05106572
324.20 0.05121979
324.30 0.05137619
324.40 0.05153745
324.50 0.05169618
324.60 0.05185471
324.70 0.05201303
324.80 0.05217115
324.90 0.05232907
325.00 0.05248678
325.10 0.05264428
325.20 0.05280185
325.30 0.05295978
325.40 0.05311751
325.50 0.05327702
325.60 0.05343875
325.70 0.05360027
325.80 0.05376159
325.90 0.05392384
326.00 0.05408713
326.10 0.05425021
326.20 0.05441308
326.30 0.0545765
326.40 0.05474187
326.50 0.05490949
326.60 0.0550769
326.70 0.05524409
326.80 0.05541106
326.90 0.05557782
327.00 0.05574437
327.10 0.0559107
327.20 0.05607682
327.30 0.05624272
327.40 0.05640841
327.50 0.05657389
327.60 0.05673916
327.70 0.05690421
327.80 0.05706906
327.90 0.05723821
328.00 0.05741033
328.10 0.05758015
328.20 0.05774975
328.30 0.05791913
328.40 0.0580883
328.50 0.05826104
328.60 0.05843445
328.70 0.05860763
328.80 0.05878143
328.90 0.05895737
329.00 0.05913308
329.10 0.05930857
329.20 0.05948384
329.30 0.05965888
329.40 0.0598337
329.50 0.0600083
329.60 0.06018267
329.70 0.06035682
329.80 0.06053075
329.90 0.06070446
330.00 0.06087961
330.10 0.0610566
330.20 0.06123335
330.30 0.06140988
330.40 0.06158904
330.50 0.06177107
330.60 0.06195286
330.70 0.06213443
330.80 0.06231576
330.90 0.06249686
331.00 0.06267773
331.10 0.06285837
331.20 0.06303879
331.30 0.06321897
331.40 0.06339892
331.50 0.06358004
331.60 0.06376263
331.70 0.06394499
331.80 0.06413289
331.90 0.0643208
332.00 0.06450846
332.10 0.06469589
332.20 0.06488308
332.30 0.06507003
332.40 0.06525675
332.50 0.06544323
332.60 0.06562947
332.70 0.06581548
332.80 0.06600125
332.90 0.06618679
333.00 0.06637209
333.10 0.06656021
333.20 0.06675183
333.30 0.06694321
333.40 0.06713434
333.50 0.06732523
333.60 0.06751588
333.70 0.06770629
333.80 0.06789646
333.90 0.06808639
334.00 0.06827608
334.10 0.06846828
334.20 0.0686636
334.30 0.06885867
334.40 0.0690535
334.50 0.06924808
334.60 0.06944241
334.70 0.06963701
334.80 0.0698331
334.90 0.07003055
335.00 0.07022776
335.10 0.07042218
335.20 0.07061768
335.30 0.07081393
335.40 0.07101587
335.50 0.07121162
335.60 0.07141305
335.70 0.07161087
335.80 0.07181278
335.90 0.07201444
336.00 0.07221585
336.10 0.072417
336.20 0.07261791
336.30 0.07281974
336.40 0.07302276
336.50 0.07322552
336.60 0.07342803
336.70 0.07363029
336.80 0.0738323
336.90 0.07403616
337.00 0.07424233
337.10 0.07444825
337.20 0.07465391
337.30 0.07486023
337.40 0.0750676
337.50 0.07527471
337.60 0.07548156
337.70 0.07568815
337.80 0.07589449
337.90 0.07610245
338.00 0.07631245
338.10 0.07652219
338.20 0.07673167
338.30 0.07694088
338.40 0.07715166
338.50 0.07736662
338.60 0.07758131
338.70 0.07779573
338.80 0.07800989
338.90 0.07822378
339.00 0.0784374
339.10 0.07865076
339.20 0.07886385
339.30 0.07906735
339.40 0.07925717
339.50 0.07946028
339.60 0.07967967
339.70 0.0798988
339.80 0.08011765
339.90 0.08033622
340.00 0.08055453
340.10 0.08077257
340.20 0.08099034
340.30 0.08120783
340.40 0.08142506
340.50 0.08164202
340.60 0.08185871
340.70 0.08207513
340.80 0.08229507
340.90 0.08252017
341.00 0.08274685
341.10 0.08297549
341.20 0.08320386
341.30 0.08343194
341.40 0.08365974
341.50 0.08388726
341.60 0.0841145
341.70 0.08434146
341.80 0.08456486
341.90 0.08478399
342.00 0.08500284
342.10 0.08522143
342.20 0.08546209
342.30 0.08570656
342.40 0.08593238
342.50 0.08616213
342.60 0.08639159
342.70 0.08662078
342.80 0.08684968
342.90 0.0870783
343.00 0.08730737
343.10 0.08753706
343.20 0.08776647
343.30 0.08799559
343.40 0.08822301
343.50 0.08844809
343.60 0.08867289
343.70 0.08889742
343.80 0.08912166
343.90 0.08934564
344.00 0.08957961
344.10 0.08982807
344.20 0.09007623
344.30 0.09032408
344.40 0.09055626
344.50 0.09076603
344.60 0.09101975
344.70 0.09126829
344.80 0.09151279
344.90 0.09172147
345.00 0.09197585
345.10 0.09222134
345.20 0.09245783
345.30 0.09268155
345.40 0.09290499
345.50 0.09313252
345.60 0.09336978
345.70 0.09361352
345.80 0.09385695
345.90 0.09410009
346.00 0.09434293
346.10 0.09458548
346.20 0.09483077
346.30 0.09508014
346.40 0.09532921
346.50 0.09557797
346.60 0.09582643
346.70 0.09607459
346.80 0.09632245
346.90 0.09657
347.00 0.09681725
347.10 0.09706421
347.20 0.09731485
347.30 0.09757094
347.40 0.09782672
347.50 0.09808219
347.60 0.09833735
347.70 0.0985922
347.80 0.09884674
347.90 0.09910097
348.00 0.09935489
348.10 0.0996085
348.20 0.09986181
348.30 0.1001148
348.40 0.1003675
348.50 0.1006199
348.60 0.100872
348.70 0.1010944
348.80 0.1013281
348.90 0.1015915
349.00 0.1018547
349.10 0.1021175
349.20 0.10238
349.30 0.1026422
349.40 0.1029041
349.50 0.1031656
349.60 0.1034269
349.70 0.1036878
349.80 0.1039484
349.90 0.1042087
350.00 0.1044687
350.10 0.1047284
350.20 0.1049877
350.30 0.1052505
350.40 0.1055182
350.50 0.1057857
350.60 0.1060528
350.70 0.1063196
350.80 0.1065861
350.90 0.1068523
351.00 0.1071181
351.10 0.1073836
351.20 0.1076488
351.30 0.1079137
351.40 0.1081791
351.50 0.1084457
351.60 0.108712
351.70 0.108978
351.80 0.1092436
351.90 0.109509
352.00 0.109774
352.10 0.1100386
352.20 0.1103121
352.30 0.1105873
352.40 0.1108639
352.50 0.1111402
352.60 0.1114161
352.70 0.1116917
352.80 0.111967
352.90 0.1122419
353.00 0.1125165
353.10 0.1127908
353.20 0.1130647
353.30 0.1133384
353.40 0.1136117
353.50 0.1138842
353.60 0.1141563
353.70 0.1144281
353.80 0.1146995
353.90 0.1149754
354.00 0.1152594
354.10 0.1155431
354.20 0.1158265
354.30 0.1161095
354.40 0.1163922
354.50 0.1166745
354.60 0.1169565
354.70 0.1172382
354.80 0.1175216
354.90 0.1178078
355.00 0.1180935
355.10 0.118379
355.20 0.1186641
355.30 0.1189406
355.40 0.1192168
355.50 0.1194927
355.60 0.1197683
355.70 0.120057
355.80 0.1203515
355.90 0.1206508
356.00 0.120946
356.10 0.1212376
356.20 0.1215288
356.30 0.1218197
356.40 0.1221102
356.50 0.1224004
356.60 0.1226903
356.70 0.1229798
356.80 0.123269
356.90 0.1235578
357.00 0.1238463
357.10 0.1241344
357.20 0.1244222
357.30 0.1247097
357.40 0.1250026
357.50 0.1253056
357.60 0.1256081
357.70 0.1259104
357.80 0.126219
357.90 0.1265273
358.00 0.1268302
358.10 0.1271315
358.20 0.1274324
358.30 0.127733
358.40 0.1280332
358.50 0.128333
358.60 0.1286325
358.70 0.1289317
358.80 0.1292305
358.90 0.1295289
359.00 0.1298274
359.10 0.1301263
359.20 0.1304267
359.30 0.1307385
359.40 0.13105
359.50 0.1313489
359.60 0.1316444
359.70 0.1319396
359.80 0.1322567
359.90 0.1325734
360.00 0.1328874
360.10 0.1331969
360.20 0.133506
360.30 0.1338147
360.40 0.134123
360.50 0.134431
360.60 0.1347072
360.70 0.1350256
360.80 0.1353437
360.90 0.1356614
361.00 0.1359691
361.10 0.1362701
361.20 0.1366417
361.30 0.1369204
361.40 0.1372261
361.50 0.1375586
361.60 0.1378472
361.70 0.1381789
361.80 0.1385069
361.90 0.1388283
362.00 0.1391494
362.10 0.1394536
362.20 0.1397622
362.30 0.1400864
362.40 0.1404101
362.50 0.1407335
362.60 0.1410565
362.70 0.1413593
362.80 0.1417245
362.90 0.142016
363.00 0.1423073
363.10 0.1426291
363.20 0.1429509
363.30 0.1432892
363.40 0.1436314
363.50 0.1439395
363.60 0.144264
363.70 0.1445882
363.80 0.144912
363.90 0.1452482
364.00 0.1455841
364.10 0.1459195
364.20 0.1462545
364.30 0.1465849
364.40 0.1469139
364.50 0.147239
364.60 0.1475585
364.70 0.1478775
364.80 0.1481962
364.90 0.1485492
365.00 0.1489019
365.10 0.1492207
365.20 0.1495725
365.30 0.1498906
365.40 0.1502417
365.50 0.150559
365.60 0.150876
365.70 0.1512168
365.80 0.1515572
365.90 0.1518837
366.00 0.1522066
366.10 0.1525474
366.20 0.1528879
366.30 0.153228
366.40 0.1535676
366.50 0.1539066
366.60 0.1542902
366.70 0.1546321
366.80 0.1549735
366.90 0.1553154
367.00 0.1556584
367.10 0.156001
367.20 0.1563433
367.30 0.1566851
367.40 0.1570265
367.50 0.1573484
367.60 0.1576651
367.70 0.1580122
367.80 0.1583589
367.90 0.1587052
368.00 0.1590632
368.10 0.1593995
368.20 0.1597512
368.30 0.1601028
368.40 0.160454
368.50 0.1608048
368.60 0.1611552
368.70 0.1615052
368.80 0.1618548
368.90 0.1622148
369.00 0.1625667
369.10 0.1629116
369.20 0.1632845
369.30 0.1636309
369.40 0.1639769
369.50 0.1643226
369.60 0.1646872
369.70 0.1650515
369.80 0.1654019
369.90 0.1657518
370.00 0.1661012
370.10 0.1664486
370.20 0.1668128
370.30 0.1671769
370.40 0.1675726
370.50 0.1679034
370.60 0.1682678
370.70 0.1686334
370.80 0.1689931
370.90 0.1693524
371.00 0.1697157
371.10 0.1700787
371.20 0.1704367
371.30 0.1707944
371.40 0.1711937
371.50 0.1715576
371.60 0.1719212
371.70 0.1722843
371.80 0.172647
371.90 0.1730093
372.00 0.1733617
372.10 0.1737274
372.20 0.1740943
372.30 0.1744607
372.40 0.1748267
372.50 0.1751923
372.60 0.1755575
372.70 0.1759223
372.80 0.1763056
372.90 0.1766884
373.00 0.1770756
373.10 0.1774624
373.20 0.1778144
373.30 0.178166
373.40 0.1785491
373.50 0.1789318
373.60 0.179314
373.70 0.1796958
373.80 0.1800572
373.90 0.1804581
374.00 0.1808226
374.10 0.1811868
374.20 0.1815506
374.30 0.1819139
374.40 0.1823324
374.50 0.1827299
374.60 0.1831088
374.70 0.1834875
374.80 0.1838657
374.90 0.1842436
375.00 0.1846303
375.10 0.1850166
375.20 0.1854024
375.30 0.1857818
375.40 0.1861608
375.50 0.1865393
375.60 0.1869175
375.70 0.1872951
375.80 0.1876724
375.90 0.1880492
376.00 0.1884476
376.10 0.1888407
376.20 0.1892333
376.30 0.1896255
376.40 0.1900172
376.50 0.1904107
376.60 0.190807
376.70 0.1912029
376.80 0.1915982
376.90 0.1919928
377.00 0.192387
377.10 0.1927808
377.20 0.1931723
377.30 0.1935566
377.40 0.1939405
377.50 0.1943239
377.60 0.1947228
377.70 0.1951213
377.80 0.1955193
377.90 0.1959169
378.00 0.1962959
378.10 0.1966958
378.20 0.1970956
378.30 0.197495
378.40 0.197894
378.50 0.1982925
378.60 0.1986906
378.70 0.1990882
378.80 0.1994854
378.90 0.1998992
379.00 0.2003442
379.10 0.2007337
379.20 0.2011228
379.30 0.2015234
379.40 0.2019355
379.50 0.2023471
379.60 0.2027587
379.70 0.2031703
379.80 0.203581
379.90 0.2039912
380.00 0.204401
380.10 0.2048103
380.20 0.2052192
380.30 0.2056276
380.40 0.2060355
380.50 0.206443
380.60 0.2068533
380.70 0.2072607
380.80 0.2076678
380.90 0.2080743
381.00 0.2084805
381.10 0.208907
381.20 0.2093092
381.30 0.2097013
381.40 0.2101257
381.50 0.2105484
381.60 0.210963
381.70 0.2113686
381.80 0.2118184
381.90 0.212226
382.00 0.212633
382.10 0.2130396
382.20 0.2134702
382.30 0.2138759
382.40 0.2142902
382.50 0.2147177
382.60 0.2151447
382.70 0.2155828
382.80 0.2160136
382.90 0.2164241
383.00 0.2168342
383.10 0.2172437
383.20 0.2176626
383.30 0.2181178
383.40 0.2185525
383.50 0.218957
383.60 0.2193759
383.70 0.2198109
383.80 0.2202454
383.90 0.2206794
384.00 0.2211129
384.10 0.2215459
384.20 0.2219785
384.30 0.2224105
384.40 0.2228421
384.50 0.2232732
384.60 0.2237039
384.70 0.224134
384.80 0.2245517
384.90 0.2249512
385.00 0.225401
385.10 0.2258499
385.20 0.226279
385.30 0.226709
385.40 0.2271442
385.50 0.2275845
385.60 0.2280243
385.70 0.2284637
385.80 0.2289029
385.90 0.2293432
386.00 0.229779
386.10 0.2302104
386.20 0.2306439
386.30 0.2310768
386.40 0.2315284
386.50 0.2319649
386.60 0.2324226
386.70 0.2328378
386.80 0.233312
386.90 0.2337262
387.00 0.2341742
387.10 0.2346187
387.20 0.2350892
387.30 0.2355032
387.40 0.2359728
387.50 0.2364128
387.60 0.2368528
387.70 0.2373077
387.80 0.2377621
387.90 0.2382159
388.00 0.2386637
388.10 0.23907
388.20 0.2395375
388.30 0.2399947
388.40 0.2404515
388.50 0.2409038
388.60 0.2413459
388.70 0.241783
388.80 0.242246
388.90 0.2427096
389.00 0.2431783
389.10 0.2436232
389.20 0.2440552
389.30 0.2445055
389.40 0.2449817
389.50 0.2454532
389.60 0.2459086
389.70 0.2463423
389.80 0.2468034
389.90 0.247264
390.00 0.247724
390.10 0.2481836
390.20 0.2486426
390.30 0.2491019
390.40 0.2495615
390.50 0.2500206
390.60 0.2504792
390.70 0.2509373
390.80 0.251398
390.90 0.2518614
391.00 0.2523435
391.10 0.2528073
391.20 0.2532782
391.30 0.2537592
391.40 0.25422
391.50 0.2546802
391.60 0.2551399
391.70 0.2555991
391.80 0.2560578
391.90 0.2565191
392.00 0.2569859
392.10 0.257456
392.20 0.2579332
392.30 0.2584395
392.40 0.2588982
392.50 0.2593656
392.60 0.2598106
392.70 0.2603129
392.80 0.2607569
392.90 0.2612594
393.00 0.2617392
393.10 0.2622051
393.20 0.2626599
393.30 0.263159
393.40 0.2636437
393.50 0.2640906
393.60 0.2645903
393.70 0.2650714
393.80 0.2655313
393.90 0.2660272
394.00 0.2665157
394.10 0.2669612
394.20 0.267436
394.30 0.2679288
394.40 0.2684366
394.50 0.2688774
394.60 0.2693795
394.70 0.269879
394.80 0.2703706
394.90 0.2708611
395.00 0.2713338
395.10 0.2718173
395.20 0.2723034
395.30 0.2727962
395.40 0.2732884
395.50 0.2737759
395.60 0.2742614
395.70 0.2747468
395.80 0.275233
395.90 0.2757186
396.00 0.2762036
396.10 0.2766868
396.20 0.2771705
396.30 0.2776767
396.40 0.2781777
396.50 0.2786506
396.60 0.2791414
396.70 0.2796285
396.80 0.2801026
396.90 0.280617
397.00 0.281136
397.10 0.2816056
397.20 0.2821066
397.30 0.2825794
397.40 0.2830926
397.50 0.2836052
397.60 0.2841158
397.70 0.2846112
397.80 0.285106
397.90 0.2856015
398.00 0.2860998
398.10 0.2865976
398.20 0.2870961
398.30 0.2875954
398.40 0.2880943
398.50 0.2885961
398.60 0.2891092
398.70 0.2896082
398.80 0.2901022
398.90 0.290604
399.00 0.2911206
399.10 0.291592
399.20 0.2920989
399.30 0.2926052
399.40 0.293111
399.50 0.2936163
399.60 0.2941298
399.70 0.2946461
399.80 0.2951619
399.90 0.295677
400.00 0.296191
400.10 0.2966842
400.20 0.2971873
400.30 0.297698
400.40 0.2982073
400.50 0.2987603
400.60 0.2992631
400.70 0.2997786
400.80 0.300268
400.90 0.3008004
401.00 0.3012996
401.10 0.3018276
401.20 0.3023408
401.30 0.3028578
401.40 0.3033806
401.50 0.303904
401.60 0.3044256
401.70 0.3049102
401.80 0.3054491
401.90 0.3059576
402.00 0.3064632
402.10 0.3070061
402.20 0.3075349
402.30 0.3080682
402.40 0.3085515
402.50 0.3090868
402.60 0.3096124
402.70 0.3101512
402.80 0.3106826
402.90 0.3111915
403.00 0.3116944
403.10 0.3122186
403.20 0.3127406
403.30 0.3132586
403.40 0.3137999
403.50 0.3143222
403.60 0.3148399
403.70 0.315385
403.80 0.3159039
403.90 0.3164292
404.00 0.3169577
404.10 0.3174847
404.20 0.3180355
404.30 0.3185857
404.40 0.3190957
404.50 0.3196299
404.60 0.3201512
404.70 0.3207262
404.80 0.3212398
404.90 0.321766
405.00 0.3222807
405.10 0.322819
405.20 0.3233563
405.30 0.323893
405.40 0.3244369
405.50 0.3249802
405.60 0.3255229
405.70 0.3260651
405.80 0.3266067
405.90 0.3271477
406.00 0.3276815
406.10 0.3282147
406.20 0.3287474
406.30 0.3292795
406.40 0.3298118
406.50 0.3303566
406.60 0.3309187
406.70 0.331472
406.80 0.332002
406.90 0.3325478
407.00 0.3330986
407.10 0.3336489
407.20 0.3341986
407.30 0.3347477
407.40 0.3352962
407.50 0.3358442
407.60 0.3363915
407.70 0.3369383
407.80 0.3374845
407.90 0.3380299
408.00 0.338565
408.10 0.3391198
408.20 0.3396842
408.30 0.3402305
408.40 0.3407762
408.50 0.3413346
408.60 0.3418866
408.70 0.342438
408.80 0.3429906
408.90 0.3435521
409.00 0.3440986
409.10 0.3446446
409.20 0.3451899
409.30 0.3457347
409.40 0.3462795
409.50 0.3468415
409.60 0.3474028
409.70 0.3479641
409.80 0.3485266
409.90 0.3490881
410.00 0.3496372
410.10 0.350216
410.20 0.3507733
410.30 0.3513248
410.40 0.3518817
410.50 0.352457
410.60 0.3530316
410.70 0.3536017
410.80 0.3541552
410.90 0.3547081
411.00 0.3552649
411.10 0.3558227
411.20 0.3563799
411.30 0.3569434
411.40 0.357533
411.50 0.3581018
411.60 0.3586699
411.70 0.3592361
411.80 0.3597961
411.90 0.3603659
412.00 0.3609247
412.10 0.361496
412.20 0.3620929
412.30 0.362645
412.40 0.3632271
412.50 0.3637621
412.60 0.3643697
412.70 0.3649351
412.80 0.3654895
412.90 0.3660556
413.00 0.3666593
413.10 0.3672265
413.20 0.3677931
413.30 0.3683591
413.40 0.3689245
413.50 0.3694924
413.60 0.3700742
413.70 0.370662
413.80 0.3712491
413.90 0.3718357
414.00 0.3724185
414.10 0.3729909
414.20 0.3735689
414.30 0.3741141
414.40 0.3747106
414.50 0.3752993
414.60 0.3758955
414.70 0.3764643
414.80 0.3770356
