# Version 2.1 - nm, norm@500 to 1, cut digits, bergeron_He_15000_70.dat_15000
# Wavelength(nm)  Flambda(ergs/cm^s/s/nm)
300.00 3.237231
300.10 3.235152
300.20 3.232997
300.30 3.230862
300.40 3.228847
300.50 3.226835
300.60 3.224824
300.70 3.222815
300.80 3.220809
300.90 3.218804
301.00 3.216801
301.10 3.2148
301.20 3.212801
301.30 3.210804
301.40 3.208809
301.50 3.206816
301.60 3.204825
301.70 3.202835
301.80 3.200848
301.90 3.198863
302.00 3.196879
302.10 3.194777
302.20 3.192663
302.30 3.190551
302.40 3.188441
302.50 3.186333
302.60 3.184228
302.70 3.182124
302.80 3.180023
302.90 3.177923
303.00 3.175826
303.10 3.173731
303.20 3.171638
303.30 3.169547
303.40 3.167458
303.50 3.165371
303.60 3.163286
303.70 3.161203
303.80 3.159122
303.90 3.157043
304.00 3.154967
304.10 3.152892
304.20 3.15082
304.30 3.148749
304.40 3.146681
304.50 3.144614
304.60 3.14255
304.70 3.140487
304.80 3.138427
304.90 3.136369
305.00 3.134312
305.10 3.132258
305.20 3.130206
305.30 3.128156
305.40 3.126107
305.50 3.124061
305.60 3.122017
305.70 3.119975
305.80 3.117935
305.90 3.115896
306.00 3.11386
306.10 3.111826
306.20 3.109794
306.30 3.107764
306.40 3.105735
306.50 3.103709
306.60 3.101685
306.70 3.099662
306.80 3.097642
306.90 3.095624
307.00 3.093607
307.10 3.091593
307.20 3.089581
307.30 3.08757
307.40 3.085562
307.50 3.083555
307.60 3.081551
307.70 3.079548
307.80 3.077547
307.90 3.075549
308.00 3.073552
308.10 3.071557
308.20 3.069564
308.30 3.067573
308.40 3.065584
308.50 3.063597
308.60 3.061612
308.70 3.059629
308.80 3.057189
308.90 3.05345
309.00 3.051474
309.10 3.0495
309.20 3.047528
309.30 3.045558
309.40 3.043589
309.50 3.041623
309.60 3.039658
309.70 3.037696
309.80 3.035735
309.90 3.033776
310.00 3.031819
310.10 3.029864
310.20 3.027911
310.30 3.02596
310.40 3.02401
310.50 3.022063
310.60 3.020117
310.70 3.018173
310.80 3.016231
310.90 3.014291
311.00 3.012353
311.10 3.010417
311.20 3.008483
311.30 3.006487
311.40 3.004316
311.50 3.002147
311.60 2.999979
311.70 2.997814
311.80 2.995652
311.90 2.993491
312.00 2.991332
312.10 2.989176
312.20 2.98707
312.30 2.985157
312.40 2.983246
312.50 2.981221
312.60 2.978732
312.70 2.976245
312.80 2.973761
312.90 2.971559
313.00 2.96966
313.10 2.967764
313.20 2.965869
313.30 2.963899
313.40 2.961711
313.50 2.959525
313.60 2.957342
313.70 2.95516
313.80 2.952981
313.90 2.950804
314.00 2.948629
314.10 2.946475
314.20 2.944323
314.30 2.942173
314.40 2.940025
314.50 2.937879
314.60 2.935736
314.70 2.933594
314.80 2.931527
314.90 2.928973
315.00 2.925673
315.10 2.922751
315.20 2.919831
315.30 2.916915
315.40 2.914003
315.50 2.911093
315.60 2.908186
315.70 2.904752
315.80 2.901321
315.90 2.897895
316.00 2.894471
316.10 2.890523
316.20 2.886579
316.30 2.885811
316.40 2.887158
316.50 2.880053
316.60 2.860291
316.70 2.854266
316.80 2.848248
316.90 2.84645
317.00 2.844655
317.10 2.842861
317.20 2.841069
317.30 2.845317
317.40 2.847863
317.50 2.845576
317.60 2.843292
317.70 2.84101
317.80 2.838731
317.90 2.827303
318.00 2.81203
318.10 2.785693
318.20 2.759388
318.30 2.733115
318.40 2.689103
318.50 2.594596
318.60 2.475548
318.70 2.140372
318.80 1.554749
318.90 2.208324
319.00 2.421167
319.10 2.534977
319.20 2.628534
319.30 2.664771
319.40 2.700963
319.50 2.737109
319.60 2.762194
319.70 2.771967
319.80 2.781727
319.90 2.791475
320.00 2.79818
320.10 2.801594
320.20 2.805516
320.30 2.808409
320.40 2.809335
320.50 2.809642
320.60 2.810443
320.70 2.809719
320.80 2.809242
320.90 2.809033
321.00 2.808823
321.10 2.808613
321.20 2.807756
321.30 2.806363
321.40 2.804972
321.50 2.803581
321.60 2.802192
321.70 2.800804
321.80 2.79991
321.90 2.79955
322.00 2.797943
322.10 2.79646
322.20 2.794978
322.30 2.793497
322.40 2.792018
322.50 2.79054
322.60 2.789063
322.70 2.787587
322.80 2.785992
322.90 2.784266
323.00 2.782543
323.10 2.78082
323.20 2.7791
323.30 2.777381
323.40 2.775664
323.50 2.773948
323.60 2.772234
323.70 2.770521
323.80 2.76881
323.90 2.767101
324.00 2.765393
324.10 2.763687
324.20 2.761982
324.30 2.760279
324.40 2.758577
324.50 2.756877
324.60 2.755179
324.70 2.753482
324.80 2.751787
324.90 2.750093
325.00 2.748401
325.10 2.746711
325.20 2.745022
325.30 2.743334
325.40 2.741648
325.50 2.739964
325.60 2.738281
325.70 2.7366
325.80 2.73492
325.90 2.733242
326.00 2.731566
326.10 2.729891
326.20 2.728217
326.30 2.726545
326.40 2.724875
326.50 2.723206
326.60 2.721539
326.70 2.719873
326.80 2.718208
326.90 2.716546
327.00 2.714884
327.10 2.713225
327.20 2.711567
327.30 2.70991
327.40 2.708255
327.50 2.706601
327.60 2.704949
327.70 2.703298
327.80 2.701649
327.90 2.700002
328.00 2.698165
328.10 2.696097
328.20 2.694031
328.30 2.691967
328.40 2.689905
328.50 2.688634
328.60 2.68755
328.70 2.686467
328.80 2.685241
328.90 2.683608
329.00 2.681977
329.10 2.680347
329.20 2.678719
329.30 2.677093
329.40 2.675467
329.50 2.673844
329.60 2.672221
329.70 2.670601
329.80 2.668981
329.90 2.667364
330.00 2.665747
330.10 2.664132
330.20 2.662519
330.30 2.660907
330.40 2.659212
330.50 2.657428
330.60 2.655645
330.70 2.653863
330.80 2.652084
330.90 2.650306
331.00 2.64853
331.10 2.646755
331.20 2.644982
331.30 2.643211
331.40 2.641441
331.50 2.639752
331.60 2.63816
331.70 2.63657
331.80 2.634708
331.90 2.632836
332.00 2.630966
332.10 2.629098
332.20 2.627231
332.30 2.625366
332.40 2.623504
332.50 2.621642
332.60 2.619783
332.70 2.617925
332.80 2.61607
332.90 2.614215
333.00 2.612363
333.10 2.610296
333.20 2.607967
333.30 2.605641
333.40 2.603317
333.50 2.600995
333.60 2.598675
333.70 2.596358
333.80 2.594043
333.90 2.59173
334.00 2.58942
334.10 2.586742
334.20 2.583616
334.30 2.580492
334.40 2.577372
334.50 2.574256
334.60 2.571142
334.70 2.567106
334.80 2.561659
334.90 2.555809
335.00 2.549965
335.10 2.542685
335.20 2.534578
335.30 2.524973
335.40 2.500897
335.50 2.516324
335.60 2.52915
335.70 2.535341
335.80 2.539461
335.90 2.542309
336.00 2.543607
336.10 2.544903
336.20 2.546198
336.30 2.546508
336.40 2.545617
336.50 2.544727
336.60 2.543838
336.70 2.542949
336.80 2.542061
336.90 2.541309
337.00 2.540724
337.10 2.540138
337.20 2.539553
337.30 2.538591
337.40 2.537086
337.50 2.535583
337.60 2.534081
337.70 2.532581
337.80 2.531081
337.90 2.529745
338.00 2.528607
338.10 2.52747
338.20 2.526335
338.30 2.5252
338.40 2.523901
338.50 2.522202
338.60 2.520505
338.70 2.518809
338.80 2.517115
338.90 2.515422
339.00 2.513731
339.10 2.512041
339.20 2.510353
339.30 2.508752
339.40 2.507274
339.50 2.505733
339.60 2.504117
339.70 2.502502
339.80 2.500889
339.90 2.499277
340.00 2.497667
340.10 2.496058
340.20 2.494451
340.30 2.492845
340.40 2.491241
340.50 2.489637
340.60 2.488036
340.70 2.486436
340.80 2.484894
340.90 2.483437
341.00 2.481776
341.10 2.479866
341.20 2.477958
341.30 2.476052
341.40 2.474148
341.50 2.472246
341.60 2.470345
341.70 2.468447
341.80 2.466562
341.90 2.464693
342.00 2.462826
342.10 2.460961
342.20 2.459183
342.30 2.457746
342.40 2.455939
342.50 2.453597
342.60 2.451257
342.70 2.44892
342.80 2.446585
342.90 2.444252
343.00 2.441528
343.10 2.438326
343.20 2.435126
343.30 2.43193
343.40 2.42824
343.50 2.423838
343.60 2.41944
343.70 2.415047
343.80 2.410659
343.90 2.406275
344.00 2.399819
344.10 2.390383
344.20 2.380958
344.30 2.371543
344.40 2.358847
344.50 2.341432
344.60 2.321346
344.70 2.267823
344.80 2.305173
344.90 2.333941
345.00 2.349867
345.10 2.360942
345.20 2.369367
345.30 2.37399
345.40 2.378608
345.50 2.382058
345.60 2.383537
345.70 2.384224
345.80 2.38491
345.90 2.385594
346.00 2.386278
346.10 2.38696
346.20 2.387013
346.30 2.386164
346.40 2.385316
346.50 2.384468
346.60 2.38362
346.70 2.382774
346.80 2.381927
346.90 2.381082
347.00 2.380237
347.10 2.379392
347.20 2.378382
347.30 2.377132
347.40 2.375883
347.50 2.374636
347.60 2.373389
347.70 2.372144
347.80 2.370899
347.90 2.369656
348.00 2.368413
348.10 2.367172
348.20 2.365932
348.30 2.364692
348.40 2.363454
348.50 2.362217
348.60 2.360981
348.70 2.359655
348.80 2.358302
348.90 2.356951
349.00 2.3556
349.10 2.354251
349.20 2.352903
349.30 2.351556
349.40 2.35021
349.50 2.348865
349.60 2.347522
349.70 2.346179
349.80 2.344838
349.90 2.343498
350.00 2.342159
350.10 2.340821
350.20 2.339484
350.30 2.338149
350.40 2.336814
350.50 2.335481
350.60 2.334149
350.70 2.332818
350.80 2.331488
350.90 2.33016
351.00 2.328832
351.10 2.327506
351.20 2.326181
351.30 2.324856
351.40 2.323533
351.50 2.322211
351.60 2.320891
351.70 2.319571
351.80 2.318253
351.90 2.316935
352.00 2.315619
352.10 2.314304
352.20 2.31299
352.30 2.311797
352.40 2.310779
352.50 2.309761
352.60 2.308745
352.70 2.307729
352.80 2.306714
352.90 2.305699
353.00 2.304685
353.10 2.303673
353.20 2.30266
353.30 2.301649
353.40 2.300639
353.50 2.299701
353.60 2.298781
353.70 2.297862
353.80 2.296944
353.90 2.296026
354.00 2.295106
354.10 2.294187
354.20 2.293269
354.30 2.292351
354.40 2.291434
354.50 2.290518
354.60 2.289602
354.70 2.288687
354.80 2.287775
354.90 2.286867
355.00 2.285959
355.10 2.285053
355.20 2.284146
355.30 2.28325
355.40 2.282354
355.50 2.281458
355.60 2.280564
355.70 2.279402
355.80 2.278121
355.90 2.276841
356.00 2.276024
356.10 2.275324
356.20 2.274624
356.30 2.273924
356.40 2.273225
356.50 2.272527
356.60 2.271828
356.70 2.271131
356.80 2.270433
356.90 2.269736
357.00 2.26904
357.10 2.268344
357.20 2.267648
357.30 2.266953
357.40 2.266051
357.50 2.264784
357.60 2.263517
357.70 2.262252
357.80 2.261739
357.90 2.261226
358.00 2.260366
358.10 2.25942
358.20 2.258474
358.30 2.25753
358.40 2.256586
358.50 2.255642
358.60 2.2547
358.70 2.253758
358.80 2.252816
358.90 2.251876
359.00 2.250558
359.10 2.248569
359.20 2.246677
359.30 2.245427
359.40 2.244177
359.50 2.241993
359.60 2.239578
359.70 2.237165
359.80 2.234064
359.90 2.230966
360.00 2.227007
360.10 2.221517
360.20 2.216032
360.30 2.210553
360.40 2.205079
360.50 2.199611
360.60 2.187317
360.70 2.169028
360.80 2.150759
360.90 2.13251
361.00 2.109981
361.10 2.067858
361.20 2.015897
361.30 1.89678
361.40 1.980619
361.50 2.082498
361.60 2.113808
361.70 2.1183
361.80 2.12416
361.90 2.132452
362.00 2.140735
362.10 2.144133
362.20 2.144208
362.30 2.14055
362.40 2.136896
362.50 2.133246
362.60 2.129599
362.70 2.123463
362.80 2.117113
362.90 2.105555
363.00 2.094009
363.10 2.072439
363.20 2.05079
363.30 2.016706
363.40 1.982751
363.50 2.019291
363.60 2.065394
363.70 2.086564
363.80 2.099095
363.90 2.107072
364.00 2.11504
364.10 2.122998
364.20 2.130948
364.30 2.137978
364.40 2.144772
364.50 2.150018
364.60 2.154127
364.70 2.158231
364.80 2.16233
364.90 2.164323
365.00 2.166314
365.10 2.165127
365.20 2.15125
365.30 2.154036
365.40 2.164743
365.50 2.169102
365.60 2.173456
365.70 2.176583
365.80 2.179705
365.90 2.182186
366.00 2.184504
366.10 2.18525
366.20 2.185995
366.30 2.186739
366.40 2.187481
366.50 2.186423
366.60 2.186805
366.70 2.186209
366.80 2.185612
366.90 2.184599
367.00 2.182843
367.10 2.181089
367.20 2.179337
367.30 2.177586
367.40 2.175837
367.50 2.173844
367.60 2.171792
367.70 2.16814
367.80 2.164491
367.90 2.160846
368.00 2.156917
368.10 2.15188
368.20 2.145408
368.30 2.138928
368.40 2.132454
368.50 2.125987
368.60 2.119527
368.70 2.113074
368.80 2.106627
368.90 2.099095
369.00 2.090111
369.10 2.081256
369.20 2.070738
369.30 2.05824
369.40 2.045754
369.50 2.033282
369.60 2.015999
369.70 1.998735
369.80 1.978035
369.90 1.957322
370.00 1.936631
370.10 1.912693
370.20 1.870847
370.30 1.828946
370.40 1.748433
370.50 1.683617
370.60 1.779745
370.70 1.864626
370.80 1.902667
370.90 1.940667
371.00 1.951483
371.10 1.962012
371.20 1.973943
371.30 1.98586
371.40 1.997929
371.50 2.007417
371.60 2.016895
371.70 2.026362
371.80 2.035818
371.90 2.045264
372.00 2.053444
372.10 2.059981
372.20 2.064475
372.30 2.068963
372.40 2.073447
372.50 2.077925
372.60 2.082398
372.70 2.086866
372.80 2.088776
372.90 2.090684
373.00 2.091863
373.10 2.093034
373.20 2.088114
373.30 2.0832
373.40 2.025934
373.50 2.040775
373.60 2.060148
373.70 2.071167
373.80 2.078435
373.90 2.0856
374.00 2.089779
374.10 2.093954
374.20 2.098124
374.30 2.102289
374.40 2.104939
374.50 2.10755
374.60 2.108332
374.70 2.109096
374.80 2.109858
374.90 2.110619
375.00 2.110998
375.10 2.111377
375.20 2.111754
375.30 2.111058
375.40 2.110363
375.50 2.109668
375.60 2.108973
375.70 2.108279
375.80 2.107585
375.90 2.106892
376.00 2.105771
376.10 2.104651
376.20 2.103533
376.30 2.102415
376.40 2.101298
376.50 2.099976
376.60 2.098346
376.70 2.096718
376.80 2.095175
376.90 2.093716
377.00 2.092258
377.10 2.090802
377.20 2.089225
377.30 2.087192
377.40 2.08516
377.50 2.083131
377.60 2.080414
377.70 2.077701
377.80 2.07499
377.90 2.072281
378.00 2.070219
378.10 2.06658
378.20 2.062919
378.30 2.059262
378.40 2.055608
378.50 2.051958
378.60 2.048312
378.70 2.044669
378.80 2.041029
378.90 2.037142
379.00 2.032794
379.10 2.0276
379.20 2.02241
379.30 2.016913
379.40 2.011108
379.50 2.005309
379.60 1.999436
379.70 1.992649
379.80 1.982856
379.90 1.973073
380.00 1.9633
380.10 1.953537
380.20 1.943784
380.30 1.93404
380.40 1.924307
380.50 1.914584
380.60 1.89915
380.70 1.880567
380.80 1.862003
380.90 1.843459
381.00 1.824934
381.10 1.799392
381.20 1.772056
381.30 1.743203
381.40 1.708361
381.50 1.667952
381.60 1.621404
381.70 1.562485
381.80 1.484898
381.90 1.336579
382.00 1.253084
382.10 1.481118
382.20 1.584633
382.30 1.652571
382.40 1.70697
382.50 1.741122
382.60 1.775238
382.70 1.802665
382.80 1.815509
382.90 1.821289
383.00 1.827063
383.10 1.83283
383.20 1.839856
383.30 1.851627
383.40 1.862819
383.50 1.873152
383.60 1.882974
383.70 1.890135
383.80 1.897288
383.90 1.904433
384.00 1.911571
384.10 1.918701
384.20 1.925823
384.30 1.932937
384.40 1.938325
384.50 1.941987
384.60 1.945645
384.70 1.9493
384.80 1.953018
384.90 1.956099
385.00 1.957534
385.10 1.95897
385.20 1.960348
385.30 1.961501
385.40 1.962066
385.50 1.962043
385.60 1.962021
385.70 1.961998
385.80 1.961941
385.90 1.961756
386.00 1.960651
386.10 1.958473
386.20 1.95472
386.30 1.950971
386.40 1.944029
386.50 1.933004
386.60 1.915432
386.70 1.863503
386.80 1.743391
386.90 1.811751
387.00 1.841048
387.10 1.861243
387.20 1.875732
387.30 1.890283
387.40 1.900898
387.50 1.907641
387.60 1.912825
387.70 1.912895
387.80 1.912963
387.90 1.913032
388.00 1.911506
388.10 1.904012
388.20 1.887574
388.30 1.865218
388.40 1.842885
388.50 1.809544
388.60 1.749365
388.70 1.644841
388.80 1.401764
388.90 1.256203
389.00 1.550448
389.10 1.679949
389.20 1.754251
389.30 1.802754
389.40 1.834745
389.50 1.861513
389.60 1.879353
389.70 1.890354
389.80 1.896489
389.90 1.902618
390.00 1.90874
390.10 1.914855
390.20 1.920964
390.30 1.924787
390.40 1.926035
390.50 1.927282
390.60 1.928528
390.70 1.929772
390.80 1.930291
390.90 1.930086
391.00 1.92931
391.10 1.928323
391.20 1.927338
391.30 1.92592
391.40 1.924015
391.50 1.922112
391.60 1.920211
391.70 1.918311
391.80 1.916413
391.90 1.914343
392.00 1.911879
392.10 1.909117
392.20 1.906098
392.30 1.901393
392.40 1.897557
392.50 1.892136
392.60 1.884754
392.70 1.877449
392.80 1.88335
392.90 1.887555
393.00 1.890966
393.10 1.89372
393.20 1.895649
393.30 1.896737
393.40 1.897639
393.50 1.896674
393.60 1.894874
393.70 1.895737
393.80 1.896576
393.90 1.896295
394.00 1.89615
394.10 1.896353
394.20 1.895391
394.30 1.894429
394.40 1.893357
394.50 1.891149
394.60 1.888673
394.70 1.885994
394.80 1.882548
394.90 1.879093
395.00 1.875122
395.10 1.869954
395.20 1.86361
395.30 1.856933
395.40 1.850263
395.50 1.83895
395.60 1.825929
395.70 1.810333
395.80 1.787757
395.90 1.765203
396.00 1.741066
396.10 1.693349
396.20 1.625772
396.30 1.54535
396.40 1.363395
396.50 1.403936
396.60 1.647569
396.70 1.717236
396.80 1.722472
396.90 1.715629
397.00 1.741212
397.10 1.790653
397.20 1.8083
397.30 1.805063
397.40 1.807104
397.50 1.809143
397.60 1.811298
397.70 1.814657
397.80 1.818012
397.90 1.820727
398.00 1.821721
398.10 1.822713
398.20 1.822808
398.30 1.821893
398.40 1.820948
398.50 1.819009
398.60 1.81782
398.70 1.815169
398.80 1.812087
398.90 1.808733
399.00 1.804873
399.10 1.800956
399.20 1.796095
399.30 1.791238
399.40 1.786387
399.50 1.781539
399.60 1.775465
399.70 1.768941
399.80 1.762423
399.90 1.755912
400.00 1.749331
400.10 1.740323
400.20 1.73223
400.30 1.722272
400.40 1.712022
400.50 1.701678
400.60 1.687248
400.70 1.673228
400.80 1.656818
400.90 1.62772
401.00 1.613539
401.10 1.622053
401.20 1.6211
401.30 1.614115
401.40 1.601736
401.50 1.587813
401.60 1.573691
401.70 1.552735
401.80 1.528
401.90 1.498196
402.00 1.465285
402.10 1.426432
402.20 1.378237
402.30 1.316857
402.40 1.233579
402.50 1.116806
402.60 0.9293713
402.70 1.032454
402.80 1.211647
402.90 1.300959
403.00 1.380567
403.10 1.438896
403.20 1.483545
403.30 1.519835
403.40 1.551527
403.50 1.577578
403.60 1.602122
403.70 1.621577
403.80 1.63934
403.90 1.651793
404.00 1.663633
404.10 1.672789
404.20 1.676495
404.30 1.680196
404.40 1.67466
404.50 1.652025
404.60 1.641514
404.70 1.649747
404.80 1.660891
404.90 1.671348
405.00 1.680191
405.10 1.687565
405.20 1.694556
405.30 1.701541
405.40 1.705851
405.50 1.710157
405.60 1.714459
405.70 1.718756
405.80 1.723048
405.90 1.727336
406.00 1.730101
406.10 1.732864
406.20 1.735623
406.30 1.738379
406.40 1.741024
406.50 1.742094
406.60 1.743791
406.70 1.745572
406.80 1.747211
406.90 1.748292
407.00 1.748838
407.10 1.749383
407.20 1.749928
407.30 1.750472
407.40 1.751015
407.50 1.751557
407.60 1.752099
407.70 1.752639
407.80 1.75318
407.90 1.753698
408.00 1.753533
408.10 1.753229
408.20 1.753032
408.30 1.753
408.40 1.752968
408.50 1.752333
408.60 1.751914
408.70 1.751495
408.80 1.751028
408.90 1.750172
409.00 1.749316
409.10 1.748461
409.20 1.747607
409.30 1.746753
409.40 1.7459
409.50 1.745047
409.60 1.744195
409.70 1.743227
409.80 1.741796
409.90 1.740383
410.00 1.739535
410.10 1.737638
410.20 1.736188
410.30 1.734851
410.40 1.733335
410.50 1.731252
410.60 1.72917
410.70 1.726932
410.80 1.72406
410.90 1.721192
411.00 1.717475
411.10 1.713448
411.20 1.709424
411.30 1.705187
411.40 1.699947
411.50 1.69029
411.60 1.680642
411.70 1.668399
411.80 1.645754
411.90 1.618142
412.00 1.543188
412.10 1.307274
412.20 1.410934
412.30 1.496421
412.40 1.552472
412.50 1.584748
412.60 1.605287
412.70 1.616116
412.80 1.624513
412.90 1.632126
413.00 1.63325
413.10 1.630492
413.20 1.627735
413.30 1.624982
413.40 1.62223
413.50 1.618843
413.60 1.61214
413.70 1.603016
413.80 1.5939
413.90 1.584793
414.00 1.57488
414.10 1.562397
414.20 1.546818
414.30 1.503666
414.40 1.447988
414.50 1.495073
414.60 1.526011
414.70 1.544346
414.80 1.560891
414.90 1.571816
415.00 1.58273
415.10 1.593633
415.20 1.603379
415.30 1.609486
415.40 1.615587
415.50 1.621647
415.60 1.626575
415.70 1.631498
415.80 1.636013
415.90 1.63925
416.00 1.642484
416.10 1.64538
416.20 1.646933
416.30 1.648484
416.40 1.650033
416.50 1.651511
416.60 1.650718
416.70 1.649926
416.80 1.64649
416.90 1.630006
417.00 1.632299
417.10 1.638395
417.20 1.642472
417.30 1.64649
417.40 1.648705
417.50 1.650918
417.60 1.652736
417.70 1.652992
417.80 1.653615
417.90 1.654237
418.00 1.654859
418.10 1.655479
418.20 1.656099
418.30 1.656722
418.40 1.657219
418.50 1.656952
418.60 1.656685
418.70 1.656417
418.80 1.65615
418.90 1.655884
419.00 1.655617
419.10 1.65535
419.20 1.655083
419.30 1.654814
419.40 1.65445
419.50 1.654086
419.60 1.653637
419.70 1.652849
419.80 1.652062
419.90 1.651275
420.00 1.650489
420.10 1.649703
420.20 1.648918
420.30 1.648134
420.40 1.64735
420.50 1.646566
420.60 1.645783
420.70 1.645001
420.80 1.644219
420.90 1.643438
421.00 1.642657
421.10 1.641877
421.20 1.641055
421.30 1.640106
421.40 1.639158
421.50 1.63821
421.60 1.637263
421.70 1.636317
421.80 1.635372
421.90 1.634468
422.00 1.633693
422.10 1.632844
422.20 1.631697
422.30 1.63055
422.40 1.629409
422.50 1.628458
422.60 1.627508
422.70 1.626559
422.80 1.62561
422.90 1.624662
423.00 1.623715
423.10 1.622768
423.20 1.621822
423.30 1.620877
423.40 1.619932
423.50 1.618989
423.60 1.618046
423.70 1.617103
423.80 1.616162
423.90 1.615221
424.00 1.61428
424.10 1.613341
424.20 1.612402
424.30 1.611464
424.40 1.610562
424.50 1.609566
424.60 1.608571
424.70 1.607577
424.80 1.606583
424.90 1.60559
425.00 1.604598
