# Version 2.1 - nm, norm@500 to 1, cut digits, bergeron_He_14000_80.dat_14000
# Wavelength(nm)  Flambda(ergs/cm^s/s/nm)
300.00 3.128802
300.10 3.127678
300.20 3.1266
300.30 3.125434
300.40 3.123676
300.50 3.12192
300.60 3.120166
300.70 3.118413
300.80 3.116662
300.90 3.114913
301.00 3.113165
301.10 3.111419
301.20 3.109674
301.30 3.107931
301.40 3.10619
301.50 3.10445
301.60 3.102712
301.70 3.100976
301.80 3.099241
301.90 3.097508
302.00 3.095776
302.10 3.093952
302.20 3.09212
302.30 3.090289
302.40 3.08846
302.50 3.086633
302.60 3.084807
302.70 3.082983
302.80 3.081161
302.90 3.079341
303.00 3.077522
303.10 3.075705
303.20 3.07389
303.30 3.0721
303.40 3.070522
303.50 3.068946
303.60 3.067371
303.70 3.065797
303.80 3.064225
303.90 3.062654
304.00 3.061085
304.10 3.059517
304.20 3.05795
304.30 3.056385
304.40 3.054821
304.50 3.053259
304.60 3.051433
304.70 3.049579
304.80 3.047728
304.90 3.045878
305.00 3.04403
305.10 3.042183
305.20 3.040339
305.30 3.038496
305.40 3.036655
305.50 3.034815
305.60 3.032978
305.70 3.031142
305.80 3.029308
305.90 3.027476
306.00 3.025645
306.10 3.023816
306.20 3.021989
306.30 3.020164
306.40 3.018395
306.50 3.016643
306.60 3.014894
306.70 3.013146
306.80 3.011399
306.90 3.009655
307.00 3.007912
307.10 3.00617
307.20 3.00443
307.30 3.002692
307.40 3.000956
307.50 2.999221
307.60 2.997487
307.70 2.995756
307.80 2.994026
307.90 2.992297
308.00 2.99057
308.10 2.988845
308.20 2.987121
308.30 2.985399
308.40 2.983679
308.50 2.98196
308.60 2.980243
308.70 2.978527
308.80 2.9773
308.90 2.977461
309.00 2.975534
309.10 2.973609
309.20 2.971686
309.30 2.969764
309.40 2.967883
309.50 2.966237
309.60 2.964592
309.70 2.962949
309.80 2.961307
309.90 2.959667
310.00 2.958028
310.10 2.95639
310.20 2.954755
310.30 2.95312
310.40 2.951358
310.50 2.949457
310.60 2.947558
310.70 2.945661
310.80 2.943766
310.90 2.941873
311.00 2.939981
311.10 2.938091
311.20 2.936203
311.30 2.934392
311.40 2.932793
311.50 2.931196
311.60 2.9296
311.70 2.928006
311.80 2.926413
311.90 2.924821
312.00 2.923231
312.10 2.921643
312.20 2.919999
312.30 2.918129
312.40 2.916261
312.50 2.914395
312.60 2.912531
312.70 2.910668
312.80 2.908808
312.90 2.906949
313.00 2.905091
313.10 2.903236
313.20 2.901382
313.30 2.89953
313.40 2.89768
313.50 2.895832
313.60 2.893986
313.70 2.892141
313.80 2.890298
313.90 2.888457
314.00 2.886617
314.10 2.884779
314.20 2.882943
314.30 2.881109
314.40 2.879277
314.50 2.877446
314.60 2.875617
314.70 2.87379
314.80 2.871964
314.90 2.87014
315.00 2.868318
315.10 2.865656
315.20 2.862995
315.30 2.860338
315.40 2.857684
315.50 2.855032
315.60 2.852383
315.70 2.849947
315.80 2.847513
315.90 2.845082
316.00 2.842653
316.10 2.840855
316.20 2.839058
316.30 2.837263
316.40 2.834217
316.50 2.82992
316.60 2.821873
316.70 2.816338
316.80 2.810809
316.90 2.808411
317.00 2.806015
317.10 2.803621
317.20 2.80123
317.30 2.80233
317.40 2.802228
317.50 2.798709
317.60 2.795195
317.70 2.791685
317.80 2.788178
317.90 2.779889
318.00 2.766778
318.10 2.743956
318.20 2.721162
318.30 2.698396
318.40 2.661176
318.50 2.582808
318.60 2.485413
318.70 2.233974
318.80 1.906656
318.90 2.252002
319.00 2.424655
319.10 2.520742
319.20 2.600156
319.30 2.632393
319.40 2.664588
319.50 2.696743
319.60 2.717963
319.70 2.727306
319.80 2.736637
319.90 2.745956
320.00 2.752325
320.10 2.755505
320.20 2.759875
320.30 2.761214
320.40 2.762669
320.50 2.763389
320.60 2.764693
320.70 2.764189
320.80 2.763685
320.90 2.763182
321.00 2.762678
321.10 2.762175
321.20 2.76363
321.30 2.76233
321.40 2.761032
321.50 2.759735
321.60 2.758439
321.70 2.757144
321.80 2.756434
321.90 2.756359
322.00 2.754803
322.10 2.753394
322.20 2.751986
322.30 2.750579
322.40 2.749173
322.50 2.747769
322.60 2.746365
322.70 2.744963
322.80 2.743474
322.90 2.741989
323.00 2.740505
323.10 2.739023
323.20 2.737541
323.30 2.736061
323.40 2.734583
323.50 2.733105
323.60 2.731629
323.70 2.730154
323.80 2.728681
323.90 2.727209
324.00 2.725525
324.10 2.723844
324.20 2.722164
324.30 2.720485
324.40 2.718949
324.50 2.717565
324.60 2.716183
324.70 2.714802
324.80 2.713422
324.90 2.712043
325.00 2.710666
325.10 2.709289
325.20 2.707821
325.30 2.706157
325.40 2.704494
325.50 2.702832
325.60 2.701172
325.70 2.699514
325.80 2.697857
325.90 2.696201
326.00 2.694548
326.10 2.692895
326.20 2.691244
326.30 2.689595
326.40 2.687947
326.50 2.686463
326.60 2.68498
326.70 2.683499
326.80 2.682019
326.90 2.68054
327.00 2.679062
327.10 2.677586
327.20 2.676111
327.30 2.674637
327.40 2.673165
327.50 2.671694
327.60 2.670224
327.70 2.668756
327.80 2.667289
327.90 2.665746
328.00 2.663894
328.10 2.661768
328.20 2.659644
328.30 2.657522
328.40 2.655402
328.50 2.654221
328.60 2.653261
328.70 2.652301
328.80 2.651172
328.90 2.64956
329.00 2.64795
329.10 2.646341
329.20 2.644733
329.30 2.643127
329.40 2.641523
329.50 2.639919
329.60 2.638318
329.70 2.636718
329.80 2.635119
329.90 2.633522
330.00 2.632187
330.10 2.631173
330.20 2.630159
330.30 2.629146
330.40 2.627856
330.50 2.626266
330.60 2.624678
330.70 2.62309
330.80 2.621505
330.90 2.61992
331.00 2.618338
331.10 2.616756
331.20 2.615176
331.30 2.613598
331.40 2.612021
331.50 2.610445
331.60 2.608871
331.70 2.607298
331.80 2.605727
331.90 2.604157
332.00 2.602588
332.10 2.601021
332.20 2.599456
332.30 2.597891
332.40 2.596328
332.50 2.594767
332.60 2.593207
332.70 2.591648
332.80 2.590091
332.90 2.588535
333.00 2.586981
333.10 2.585428
333.20 2.583876
333.30 2.582326
333.40 2.580777
333.50 2.579229
333.60 2.577683
333.70 2.576139
333.80 2.574595
333.90 2.573053
334.00 2.571513
334.10 2.569805
334.20 2.567893
334.30 2.565983
334.40 2.564074
334.50 2.562167
334.60 2.560263
334.70 2.558528
334.80 2.556649
334.90 2.554268
335.00 2.55189
335.10 2.550188
335.20 2.548667
335.30 2.546868
335.40 2.543397
335.50 2.54216
335.60 2.542595
335.70 2.541581
335.80 2.541181
335.90 2.54053
336.00 2.539574
336.10 2.538618
336.20 2.537663
336.30 2.536459
336.40 2.534952
336.50 2.533445
336.60 2.53194
336.70 2.530436
336.80 2.528934
336.90 2.527433
337.00 2.525933
337.10 2.524435
337.20 2.522938
337.30 2.521594
337.40 2.520469
337.50 2.519345
337.60 2.518223
337.70 2.517101
337.80 2.51598
337.90 2.514693
338.00 2.513206
338.10 2.511719
338.20 2.510234
338.30 2.50875
338.40 2.507268
338.50 2.505787
338.60 2.504307
338.70 2.502828
338.80 2.501351
338.90 2.499875
339.00 2.4984
339.10 2.496927
339.20 2.495455
339.30 2.493984
339.40 2.492515
339.50 2.491047
339.60 2.48958
339.70 2.488114
339.80 2.48665
339.90 2.485187
340.00 2.483726
340.10 2.482265
340.20 2.480806
340.30 2.479348
340.40 2.477892
340.50 2.476437
340.60 2.474983
340.70 2.47353
340.80 2.472079
340.90 2.470628
341.00 2.46918
341.10 2.467732
341.20 2.466286
341.30 2.464841
341.40 2.463397
341.50 2.461955
341.60 2.460513
341.70 2.459073
341.80 2.457407
341.90 2.455465
342.00 2.453524
342.10 2.451585
342.20 2.449749
342.30 2.448318
342.40 2.446741
342.50 2.444953
342.60 2.443168
342.70 2.441383
342.80 2.439601
342.90 2.43782
343.00 2.436202
343.10 2.434782
343.20 2.433363
343.30 2.431946
343.40 2.430093
343.50 2.427615
343.60 2.425139
343.70 2.422666
343.80 2.420195
343.90 2.417727
344.00 2.415044
344.10 2.41205
344.20 2.40906
344.30 2.406073
344.40 2.402872
344.50 2.399363
344.60 2.39461
344.70 2.39
344.80 2.389827
344.90 2.393664
345.00 2.396251
345.10 2.39697
345.20 2.397116
345.30 2.396438
345.40 2.395762
345.50 2.395675
345.60 2.395769
345.70 2.395083
345.80 2.394397
345.90 2.393712
346.00 2.393028
346.10 2.392343
346.20 2.391373
346.30 2.389992
346.40 2.388613
346.50 2.387234
346.60 2.385857
346.70 2.384481
346.80 2.383106
346.90 2.381732
347.00 2.38036
347.10 2.378988
347.20 2.377676
347.30 2.376449
347.40 2.375223
347.50 2.373998
347.60 2.372774
347.70 2.371551
347.80 2.37033
347.90 2.369109
348.00 2.367889
348.10 2.36667
348.20 2.365452
348.30 2.364235
348.40 2.363019
348.50 2.361804
348.60 2.360591
348.70 2.359271
348.80 2.357918
348.90 2.356567
349.00 2.355216
349.10 2.353867
349.20 2.352519
349.30 2.351172
349.40 2.349827
349.50 2.348482
349.60 2.347139
349.70 2.345797
349.80 2.344456
349.90 2.343116
350.00 2.341777
350.10 2.34044
350.20 2.339103
350.30 2.337692
350.40 2.336173
350.50 2.334655
350.60 2.333139
350.70 2.331624
350.80 2.33011
350.90 2.328598
351.00 2.327087
351.10 2.325577
351.20 2.324069
351.30 2.322562
351.40 2.321122
351.50 2.319802
351.60 2.318482
351.70 2.317164
351.80 2.315847
351.90 2.314531
352.00 2.313216
352.10 2.311902
352.20 2.31059
352.30 2.309278
352.40 2.307968
352.50 2.306658
352.60 2.30535
352.70 2.304043
352.80 2.302737
352.90 2.301432
353.00 2.300129
353.10 2.298826
353.20 2.297524
353.30 2.296224
353.40 2.294925
353.50 2.293626
353.60 2.292329
353.70 2.291033
353.80 2.289738
353.90 2.288364
354.00 2.286848
354.10 2.285332
354.20 2.283819
354.30 2.282306
354.40 2.280795
354.50 2.279285
354.60 2.277777
354.70 2.27627
354.80 2.274856
354.90 2.273574
355.00 2.272293
355.10 2.271014
355.20 2.269735
355.30 2.268457
355.40 2.267181
355.50 2.265906
355.60 2.264632
355.70 2.263358
355.80 2.262086
355.90 2.260815
356.00 2.259436
356.10 2.25803
356.20 2.256625
356.30 2.255222
356.40 2.253819
356.50 2.252418
356.60 2.251019
356.70 2.24962
356.80 2.248223
356.90 2.246827
357.00 2.245432
357.10 2.244038
357.20 2.242646
357.30 2.241254
357.40 2.239913
357.50 2.23866
357.60 2.237408
357.70 2.236157
357.80 2.234908
357.90 2.233659
358.00 2.232111
358.10 2.23049
358.20 2.22887
358.30 2.227251
358.40 2.225634
358.50 2.224019
358.60 2.222405
358.70 2.220792
358.80 2.219181
358.90 2.217571
359.00 2.216097
359.10 2.214863
359.20 2.21363
359.30 2.212398
359.40 2.211167
359.50 2.208827
359.60 2.206213
359.70 2.203601
359.80 2.201641
359.90 2.199684
360.00 2.197344
360.10 2.194321
360.20 2.191302
360.30 2.188286
360.40 2.185272
360.50 2.182262
360.60 2.17754
360.70 2.171993
360.80 2.166451
360.90 2.160915
361.00 2.154469
361.10 2.144416
361.20 2.133396
361.30 2.119526
361.40 2.12652
361.50 2.144837
361.60 2.151175
361.70 2.153822
361.80 2.156164
361.90 2.157967
362.00 2.159768
362.10 2.160237
362.20 2.160347
362.30 2.160413
362.40 2.160478
362.50 2.160543
362.60 2.160607
362.70 2.159667
362.80 2.158476
362.90 2.157287
363.00 2.156098
363.10 2.15405
363.20 2.151996
363.30 2.148736
363.40 2.144228
363.50 2.146372
363.60 2.149938
363.70 2.150758
363.80 2.150419
363.90 2.15014
364.00 2.149861
364.10 2.149581
364.20 2.149302
364.30 2.149143
364.40 2.149014
364.50 2.149724
364.60 2.148544
364.70 2.147366
364.80 2.146189
364.90 2.145956
365.00 2.145722
365.10 2.144547
365.20 2.14149
365.30 2.141259
365.40 2.141027
365.50 2.140795
365.60 2.140562
365.70 2.139392
365.80 2.138222
365.90 2.137054
366.00 2.135886
366.10 2.13518
366.20 2.134473
366.30 2.133768
366.40 2.133063
366.50 2.131931
366.60 2.130768
366.70 2.129606
366.80 2.128445
366.90 2.127285
367.00 2.126126
367.10 2.124967
367.20 2.12381
367.30 2.122654
367.40 2.121499
367.50 2.119518
367.60 2.117333
367.70 2.115693
367.80 2.114055
367.90 2.112418
368.00 2.11088
368.10 2.109733
368.20 2.107626
368.30 2.105512
368.40 2.1034
368.50 2.101289
368.60 2.099181
368.70 2.097074
368.80 2.09497
368.90 2.093216
369.00 2.090452
369.10 2.087284
369.20 2.084292
369.30 2.081936
369.40 2.079583
369.50 2.077232
369.60 2.073366
369.70 2.069504
369.80 2.065411
369.90 2.06132
370.00 2.057233
370.10 2.054011
370.20 2.047463
370.30 2.040866
370.40 2.029785
370.50 2.022108
370.60 2.031935
370.70 2.041889
370.80 2.045328
370.90 2.048764
371.00 2.050426
371.10 2.052069
371.20 2.052776
371.30 2.053481
371.40 2.054823
371.50 2.05541
371.60 2.055997
371.70 2.056582
371.80 2.057166
371.90 2.05775
372.00 2.058992
372.10 2.05918
372.20 2.05898
372.30 2.058779
372.40 2.058579
372.50 2.058378
372.60 2.058177
372.70 2.057976
372.80 2.057771
372.90 2.057565
373.00 2.056471
373.10 2.055369
373.20 2.054268
373.30 2.053167
373.40 2.048467
373.50 2.04827
373.60 2.049871
373.70 2.048774
373.80 2.049474
373.90 2.048378
374.00 2.04818
374.10 2.047982
374.20 2.047784
374.30 2.047585
374.40 2.046492
374.50 2.045399
374.60 2.044751
374.70 2.044107
374.80 2.043465
374.90 2.042822
375.00 2.041733
375.10 2.040644
375.20 2.039557
375.30 2.038724
375.40 2.037893
375.50 2.037062
375.60 2.036231
375.70 2.035402
375.80 2.034572
375.90 2.033744
376.00 2.032662
376.10 2.031581
376.20 2.030502
376.30 2.029422
376.40 2.028344
376.50 2.027023
376.60 2.025336
376.70 2.023651
376.80 2.022272
376.90 2.021199
377.00 2.020127
377.10 2.019056
377.20 2.01787
377.30 2.016252
377.40 2.014634
377.50 2.013018
377.60 2.01157
377.70 2.010122
377.80 2.008676
377.90 2.007231
378.00 2.00594
378.10 2.004074
378.20 2.002202
378.30 2.000332
378.40 1.998463
378.50 1.996597
378.60 1.994731
378.70 1.992868
378.80 1.991006
378.90 1.988976
379.00 1.986632
379.10 1.984187
379.20 1.981744
379.30 1.979158
379.40 1.976427
379.50 1.973699
379.60 1.970477
379.70 1.966506
379.80 1.962507
379.90 1.958512
380.00 1.954521
380.10 1.950534
380.20 1.946551
380.30 1.942572
380.40 1.938597
380.50 1.934626
380.60 1.927752
380.70 1.920836
380.80 1.913927
380.90 1.907024
381.00 1.900129
381.10 1.893732
381.20 1.88643
381.30 1.876857
381.40 1.866859
381.50 1.856153
381.60 1.844133
381.70 1.829748
381.80 1.811254
381.90 1.781051
382.00 1.769799
382.10 1.810989
382.20 1.833236
382.30 1.84945
382.40 1.862529
382.50 1.870923
382.60 1.879308
382.70 1.885777
382.80 1.889037
382.90 1.891243
383.00 1.893446
383.10 1.895646
383.20 1.897968
383.30 1.900753
383.40 1.903001
383.50 1.904447
383.60 1.907068
383.70 1.90832
383.80 1.90957
383.90 1.910819
384.00 1.912067
384.10 1.913312
384.20 1.914557
384.30 1.915799
384.40 1.916516
384.50 1.916706
384.60 1.916896
384.70 1.917085
384.80 1.917439
384.90 1.917978
385.00 1.917709
385.10 1.917425
385.20 1.916833
385.30 1.916696
385.40 1.916327
385.50 1.915727
385.60 1.915127
385.70 1.914527
385.80 1.913845
385.90 1.912854
386.00 1.911863
386.10 1.910755
386.20 1.908467
386.30 1.90618
386.40 1.904134
386.50 1.901187
386.60 1.896697
386.70 1.887324
386.80 1.879219
386.90 1.880763
387.00 1.881886
387.10 1.882588
387.20 1.882829
387.30 1.882318
387.40 1.881346
387.50 1.880375
387.60 1.877033
387.70 1.872725
387.80 1.868422
387.90 1.864123
388.00 1.858899
388.10 1.850221
388.20 1.833048
388.30 1.810967
388.40 1.788908
388.50 1.756904
388.60 1.700098
388.70 1.601585
388.80 1.401261
388.90 1.297966
389.00 1.517048
389.10 1.641052
389.20 1.710976
389.30 1.754196
389.40 1.783004
389.50 1.806577
389.60 1.821648
389.70 1.831523
389.80 1.836482
389.90 1.841437
390.00 1.846386
390.10 1.851329
390.20 1.856268
390.30 1.859214
390.40 1.859918
390.50 1.860622
390.60 1.861324
390.70 1.862026
390.80 1.862828
390.90 1.863731
391.00 1.863494
391.10 1.863337
391.20 1.863014
391.30 1.86219
391.40 1.861512
391.50 1.860834
391.60 1.860156
391.70 1.859479
391.80 1.858803
391.90 1.857998
392.00 1.857051
392.10 1.856104
392.20 1.855157
392.30 1.854211
392.40 1.853267
392.50 1.852322
392.60 1.849751
392.70 1.848809
392.80 1.847867
392.90 1.848553
393.00 1.847612
393.10 1.846672
393.20 1.845733
393.30 1.844794
393.40 1.843857
393.50 1.84292
393.60 1.840991
393.70 1.839429
393.80 1.838494
393.90 1.837561
394.00 1.836628
394.10 1.835311
394.20 1.83356
394.30 1.83222
394.40 1.829678
394.50 1.82875
394.60 1.826923
394.70 1.824976
394.80 1.822575
394.90 1.820168
395.00 1.817456
395.10 1.814034
395.20 1.810542
395.30 1.807011
395.40 1.803482
395.50 1.798056
395.60 1.791932
395.70 1.784499
395.80 1.773521
395.90 1.762555
396.00 1.751099
396.10 1.73148
396.20 1.703426
396.30 1.673027
396.40 1.623387
396.50 1.640249
396.60 1.711703
396.70 1.736922
396.80 1.744849
396.90 1.749664
397.00 1.759611
397.10 1.769336
397.20 1.776049
397.30 1.77803
397.40 1.778634
397.50 1.779238
397.60 1.779807
397.70 1.780038
397.80 1.780268
397.90 1.780347
398.00 1.780018
398.10 1.779689
398.20 1.779095
398.30 1.778202
398.40 1.77731
398.50 1.776418
398.60 1.774286
398.70 1.772541
398.80 1.771009
398.90 1.769702
399.00 1.768815
399.10 1.766223
399.20 1.763894
399.30 1.761566
399.40 1.759241
399.50 1.756917
399.60 1.75394
399.70 1.750723
399.80 1.747508
399.90 1.744297
400.00 1.741087
400.10 1.737804
400.20 1.734086
400.30 1.729809
400.40 1.725851
400.50 1.721167
400.60 1.715319
400.70 1.709774
400.80 1.703515
400.90 1.696419
401.00 1.68869
401.10 1.683807
401.20 1.677191
401.30 1.669524
401.40 1.659989
401.50 1.649936
401.60 1.639774
401.70 1.625797
401.80 1.610454
401.90 1.592833
402.00 1.574168
402.10 1.55227
402.20 1.527241
402.30 1.496138
402.40 1.455008
402.50 1.397211
402.60 1.316937
402.70 1.376168
402.80 1.451128
402.90 1.492895
403.00 1.530942
403.10 1.560024
403.20 1.582977
403.30 1.601184
403.40 1.617621
403.50 1.630952
403.60 1.643334
403.70 1.652409
403.80 1.66101
403.90 1.666307
404.00 1.671713
404.10 1.675268
404.20 1.677511
404.30 1.679752
404.40 1.678922
404.50 1.678092
404.60 1.677262
404.70 1.677966
404.80 1.680289
404.90 1.682432
405.00 1.684004
405.10 1.686015
405.20 1.687912
405.30 1.689808
405.40 1.69101
405.50 1.692212
405.60 1.693411
405.70 1.69461
405.80 1.695807
405.90 1.697003
406.00 1.697392
406.10 1.697781
406.20 1.69817
406.30 1.698557
406.40 1.698908
406.50 1.699591
406.60 1.699514
406.70 1.699911
406.80 1.699668
406.90 1.699296
407.00 1.698916
407.10 1.698536
407.20 1.698156
407.30 1.697776
407.40 1.697396
407.50 1.697017
407.60 1.696637
407.70 1.696258
407.80 1.695879
407.90 1.695511
408.00 1.695504
408.10 1.695332
408.20 1.694501
408.30 1.693671
408.40 1.692842
408.50 1.692013
408.60 1.691185
408.70 1.690358
408.80 1.689531
408.90 1.688705
409.00 1.687879
409.10 1.687054
409.20 1.68623
409.30 1.685406
409.40 1.684582
409.50 1.68376
409.60 1.682938
409.70 1.682116
409.80 1.681295
409.90 1.680475
410.00 1.679656
410.10 1.678836
410.20 1.677552
410.30 1.676152
410.40 1.674775
410.50 1.673469
410.60 1.672165
410.70 1.670838
410.80 1.669423
410.90 1.668009
411.00 1.66642
411.10 1.664768
411.20 1.663118
411.30 1.661129
411.40 1.657769
411.50 1.653821
411.60 1.649876
411.70 1.645083
411.80 1.636884
411.90 1.627213
412.00 1.605724
412.10 1.576126
412.20 1.579055
412.30 1.590895
412.40 1.601401
412.50 1.609208
412.60 1.6158
412.70 1.619701
412.80 1.622928
412.90 1.626758
413.00 1.627526
413.10 1.627321
413.20 1.627117
413.30 1.626913
413.40 1.626709
413.50 1.626388
413.60 1.625426
413.70 1.623907
413.80 1.622389
413.90 1.620873
414.00 1.619006
414.10 1.616029
414.20 1.612703
414.30 1.608123
414.40 1.601209
414.50 1.605515
414.60 1.60825
414.70 1.610393
414.80 1.612184
414.90 1.612865
415.00 1.613545
415.10 1.614224
415.20 1.614879
415.30 1.615462
415.40 1.616043
415.50 1.616615
415.60 1.616879
415.70 1.617142
415.80 1.61727
415.90 1.616969
416.00 1.616669
416.10 1.616413
416.20 1.616331
416.30 1.616249
416.40 1.616167
416.50 1.616064
416.60 1.615288
416.70 1.614513
416.80 1.612294
416.90 1.61152
417.00 1.610748
417.10 1.609997
417.20 1.609946
417.30 1.609889
417.40 1.609627
417.50 1.609365
417.60 1.609001
417.70 1.608238
417.80 1.607707
417.90 1.607178
418.00 1.606648
418.10 1.606119
418.20 1.60559
418.30 1.605054
418.40 1.604287
418.50 1.603521
418.60 1.602755
418.70 1.601989
418.80 1.601224
418.90 1.60046
419.00 1.599696
419.10 1.598933
419.20 1.59817
419.30 1.597408
419.40 1.596646
419.50 1.595885
419.60 1.595124
419.70 1.594364
419.80 1.593605
419.90 1.592812
420.00 1.591915
420.10 1.591018
420.20 1.590121
420.30 1.589225
420.40 1.58833
420.50 1.587436
420.60 1.586542
420.70 1.585649
420.80 1.584757
420.90 1.583869
421.00 1.583117
421.10 1.582365
421.20 1.581564
421.30 1.580611
421.40 1.579659
421.50 1.578708
421.60 1.577758
421.70 1.576809
421.80 1.57586
421.90 1.57496
422.00 1.574214
422.10 1.573468
422.20 1.572723
422.30 1.571978
422.40 1.571227
422.50 1.57027
422.60 1.569314
422.70 1.568359
422.80 1.567404
422.90 1.56645
423.00 1.565497
423.10 1.564545
423.20 1.563593
423.30 1.562642
423.40 1.561692
423.50 1.560742
423.60 1.559793
423.70 1.558845
423.80 1.557898
423.90 1.556951
424.00 1.556005
424.10 1.55506
424.20 1.554115
424.30 1.553172
424.40 1.552275
424.50 1.551403
424.60 1.550532
424.70 1.549661
424.80 1.548791
424.90 1.547922
