# Version 2.1 - nm, norm@500 to 1, cut digits, bergeron_He_24000_80.dat_24000
# Wavelength(nm)  Flambda(ergs/cm^s/s/nm)
300.00 4.392169
300.10 4.389266
300.20 4.386343
300.30 4.383322
300.40 4.379636
300.50 4.375954
300.60 4.372276
300.70 4.368602
300.80 4.364931
300.90 4.361265
301.00 4.357603
301.10 4.353944
301.20 4.35029
301.30 4.346639
301.40 4.342992
301.50 4.339349
301.60 4.33571
301.70 4.332075
301.80 4.328444
301.90 4.324816
302.00 4.321193
302.10 4.317253
302.20 4.313281
302.30 4.309314
302.40 4.305352
302.50 4.301393
302.60 4.297439
302.70 4.29349
302.80 4.289544
302.90 4.285603
303.00 4.281666
303.10 4.277733
303.20 4.273805
303.30 4.269865
303.40 4.265795
303.50 4.261728
303.60 4.257666
303.70 4.253608
303.80 4.249555
303.90 4.245506
304.00 4.241462
304.10 4.237422
304.20 4.233386
304.30 4.229355
304.40 4.225328
304.50 4.221305
304.60 4.217306
304.70 4.213312
304.80 4.209324
304.90 4.205339
305.00 4.201359
305.10 4.197383
305.20 4.193411
305.30 4.189444
305.40 4.185481
305.50 4.181522
305.60 4.177568
305.70 4.173617
305.80 4.169672
305.90 4.16573
306.00 4.161793
306.10 4.157859
306.20 4.153931
306.30 4.150006
306.40 4.146038
306.50 4.14206
306.60 4.138086
306.70 4.134117
306.80 4.130151
306.90 4.126191
307.00 4.122234
307.10 4.118282
307.20 4.114334
307.30 4.11039
307.40 4.10645
307.50 4.102515
307.60 4.098584
307.70 4.094657
307.80 4.090735
307.90 4.086816
308.00 4.082902
308.10 4.078993
308.20 4.075087
308.30 4.071185
308.40 4.067288
308.50 4.063395
308.60 4.059506
308.70 4.055622
308.80 4.051832
308.90 4.048306
309.00 4.044283
309.10 4.040263
309.20 4.036249
309.30 4.032238
309.40 4.028231
309.50 4.02422
309.60 4.020214
309.70 4.016212
309.80 4.012214
309.90 4.008221
310.00 4.004232
310.10 4.000247
310.20 3.996267
310.30 3.992291
310.40 3.988202
310.50 3.983989
310.60 3.979781
310.70 3.975578
310.80 3.971379
310.90 3.967185
311.00 3.963134
311.10 3.959087
311.20 3.955044
311.30 3.950977
311.40 3.946834
311.50 3.942694
311.60 3.93856
311.70 3.93443
311.80 3.930304
311.90 3.926183
312.00 3.922066
312.10 3.917954
312.20 3.913609
312.30 3.909062
312.40 3.904706
312.50 3.900737
312.60 3.896449
312.70 3.892167
312.80 3.887889
312.90 3.883465
313.00 3.878883
313.10 3.874307
313.20 3.869735
313.30 3.865119
313.40 3.860369
313.50 3.855624
313.60 3.850885
313.70 3.846151
313.80 3.841422
313.90 3.836698
314.00 3.83198
314.10 3.82627
314.20 3.820567
314.30 3.81487
314.40 3.80918
314.50 3.803496
314.60 3.797819
314.70 3.792148
314.80 3.786235
314.90 3.779865
315.00 3.773769
315.10 3.766454
315.20 3.759147
315.30 3.751848
315.40 3.744558
315.50 3.737277
315.60 3.730004
315.70 3.722739
315.80 3.715483
315.90 3.708235
316.00 3.700996
316.10 3.695395
316.20 3.689801
316.30 3.689096
316.40 3.684595
316.50 3.662758
316.60 3.619827
316.70 3.587775
316.80 3.555761
316.90 3.552437
317.00 3.549115
317.10 3.545797
317.20 3.542483
317.30 3.556984
317.40 3.566657
317.50 3.562641
317.60 3.558629
317.70 3.554622
317.80 3.550619
317.90 3.522235
318.00 3.483841
318.10 3.423712
318.20 3.363658
318.30 3.303679
318.40 3.219968
318.50 3.068647
318.60 2.891653
318.70 2.534
318.80 2.125787
318.90 2.484276
319.00 2.720487
319.10 2.882448
319.20 3.021982
319.30 3.098125
319.40 3.174172
319.50 3.250123
319.60 3.308579
319.70 3.342479
319.80 3.376336
319.90 3.41015
320.00 3.437885
320.10 3.459048
320.20 3.477984
320.30 3.492445
320.40 3.505918
320.50 3.515885
320.60 3.524065
320.70 3.531368
320.80 3.537016
320.90 3.540874
321.00 3.544726
321.10 3.548574
321.20 3.550221
321.30 3.550741
321.40 3.551259
321.50 3.551776
321.60 3.552292
321.70 3.552806
321.80 3.552693
321.90 3.551902
322.00 3.550103
322.10 3.54868
322.20 3.547258
322.30 3.545837
322.40 3.544417
322.50 3.542998
322.60 3.54158
322.70 3.540164
322.80 3.538351
322.90 3.536067
323.00 3.533786
323.10 3.531506
323.20 3.529229
323.30 3.526954
323.40 3.524681
323.50 3.52241
323.60 3.520141
323.70 3.517875
323.80 3.51561
323.90 3.513348
324.00 3.510903
324.10 3.50846
324.20 3.50602
324.30 3.50331
324.40 3.500159
324.50 3.49737
324.60 3.494584
324.70 3.491801
324.80 3.489021
324.90 3.486243
325.00 3.483468
325.10 3.480696
325.20 3.477899
325.30 3.475046
325.40 3.472196
325.50 3.469206
325.60 3.466043
325.70 3.462884
325.80 3.459728
325.90 3.456721
326.00 3.453874
326.10 3.45103
326.20 3.44819
326.30 3.44533
326.40 3.44241
326.50 3.43939
326.60 3.436373
326.70 3.433359
326.80 3.430348
326.90 3.42734
327.00 3.424335
327.10 3.421333
327.20 3.418334
327.30 3.415338
327.40 3.412345
327.50 3.409355
327.60 3.406368
327.70 3.403385
327.80 3.400404
327.90 3.397389
328.00 3.393703
328.10 3.389243
328.20 3.384789
328.30 3.380339
328.40 3.375894
328.50 3.373157
328.60 3.370821
328.70 3.368487
328.80 3.366096
328.90 3.36354
329.00 3.360986
329.10 3.358434
329.20 3.355885
329.30 3.353339
329.40 3.350795
329.50 3.348253
329.60 3.345714
329.70 3.343177
329.80 3.340643
329.90 3.338111
330.00 3.335471
330.10 3.332697
330.20 3.329927
330.30 3.327159
330.40 3.324365
330.50 3.321542
330.60 3.318723
330.70 3.315906
330.80 3.313092
330.90 3.310281
331.00 3.307472
331.10 3.304666
331.20 3.301864
331.30 3.299064
331.40 3.296266
331.50 3.293299
331.60 3.290123
331.70 3.286951
331.80 3.283871
331.90 3.280798
332.00 3.277729
332.10 3.274662
332.20 3.271599
332.30 3.268538
332.40 3.265481
332.50 3.262427
332.60 3.259376
332.70 3.256327
332.80 3.253282
332.90 3.250241
333.00 3.247202
333.10 3.243906
333.20 3.240297
333.30 3.236692
333.40 3.23309
333.50 3.229492
333.60 3.225897
333.70 3.222307
333.80 3.21872
333.90 3.215137
334.00 3.211557
334.10 3.207632
334.20 3.203282
334.30 3.198937
334.40 3.194597
334.50 3.190262
334.60 3.185931
334.70 3.181437
334.80 3.176069
334.90 3.169739
335.00 3.163416
335.10 3.158544
335.20 3.154244
335.30 3.149948
335.40 3.146261
335.50 3.146435
335.60 3.146368
335.70 3.146324
335.80 3.146376
335.90 3.146211
336.00 3.145781
336.10 3.145351
336.20 3.144921
336.30 3.143843
336.40 3.141974
336.50 3.140107
336.60 3.138241
336.70 3.136377
336.80 3.134515
336.90 3.132761
337.00 3.131139
337.10 3.129518
337.20 3.127898
337.30 3.126052
337.40 3.123879
337.50 3.121709
337.60 3.11954
337.70 3.117373
337.80 3.115208
337.90 3.112941
338.00 3.110546
338.10 3.108154
338.20 3.105765
338.30 3.103377
338.40 3.100966
338.50 3.098494
338.60 3.096025
338.70 3.093557
338.80 3.091092
338.90 3.08863
339.00 3.086169
339.10 3.083711
339.20 3.081256
339.30 3.078669
339.40 3.075894
339.50 3.073131
339.60 3.070383
339.70 3.067637
339.80 3.064895
339.90 3.062155
340.00 3.059417
340.10 3.056683
340.20 3.053951
340.30 3.051222
340.40 3.048495
340.50 3.045771
340.60 3.04305
340.70 3.040331
340.80 3.037411
340.90 3.034199
341.00 3.031056
341.10 3.027996
341.20 3.024939
341.30 3.021885
341.40 3.018835
341.50 3.015787
341.60 3.012742
341.70 3.009701
341.80 3.00645
341.90 3.002943
342.00 2.99944
342.10 2.99594
342.20 2.99233
342.30 2.987985
342.40 2.983712
342.50 2.979641
342.60 2.975574
342.70 2.971511
342.80 2.967452
342.90 2.963398
343.00 2.959057
343.10 2.954364
343.20 2.949677
343.30 2.944994
343.40 2.939707
343.50 2.933549
343.60 2.927397
343.70 2.921251
343.80 2.915112
343.90 2.90898
344.00 2.901852
344.10 2.893289
344.20 2.884735
344.30 2.87619
344.40 2.86653
344.50 2.85526
344.60 2.844191
344.70 2.834797
344.80 2.841052
344.90 2.847687
345.00 2.857101
345.10 2.862739
345.20 2.867147
345.30 2.869794
345.40 2.872436
345.50 2.874714
345.60 2.875859
345.70 2.876012
345.80 2.876165
345.90 2.876317
346.00 2.876468
346.10 2.876619
346.20 2.876175
346.30 2.874876
346.40 2.873578
346.50 2.872282
346.60 2.870986
346.70 2.869691
346.80 2.868398
346.90 2.867105
347.00 2.865814
347.10 2.864523
347.20 2.862985
347.30 2.861091
347.40 2.859198
347.50 2.857307
347.60 2.855418
347.70 2.853531
347.80 2.851645
347.90 2.849761
348.00 2.847879
348.10 2.845998
348.20 2.844119
348.30 2.842242
348.40 2.840366
348.50 2.838492
348.60 2.83662
348.70 2.834935
348.80 2.83309
348.90 2.830931
349.00 2.828774
349.10 2.826619
349.20 2.824466
349.30 2.822316
349.40 2.820167
349.50 2.81802
349.60 2.815875
349.70 2.813732
349.80 2.811591
349.90 2.809452
350.00 2.807315
350.10 2.80518
350.20 2.803047
350.30 2.800871
350.40 2.798633
350.50 2.796396
350.60 2.794162
350.70 2.791929
350.80 2.789699
350.90 2.787471
351.00 2.785245
351.10 2.783021
351.20 2.780799
351.30 2.778579
351.40 2.776336
351.50 2.77405
351.60 2.771766
351.70 2.769484
351.80 2.767204
351.90 2.764926
352.00 2.762651
352.10 2.760378
352.20 2.75874
352.30 2.756927
352.40 2.75476
352.50 2.752595
352.60 2.750432
352.70 2.748272
352.80 2.746113
352.90 2.743956
353.00 2.741801
353.10 2.739648
353.20 2.737498
353.30 2.735349
353.40 2.733202
353.50 2.731223
353.60 2.729287
353.70 2.727353
353.80 2.725421
353.90 2.723457
354.00 2.721434
354.10 2.719414
354.20 2.717395
354.30 2.715378
354.40 2.713363
354.50 2.71135
354.60 2.709338
354.70 2.707329
354.80 2.705358
354.90 2.703443
355.00 2.70153
355.10 2.699618
355.20 2.697708
355.30 2.69579
355.40 2.693874
355.50 2.691961
355.60 2.690048
355.70 2.687904
355.80 2.685657
355.90 2.683678
356.00 2.68179
356.10 2.67981
356.20 2.677832
356.30 2.675855
356.40 2.67388
356.50 2.671907
356.60 2.669935
356.70 2.667966
356.80 2.665998
356.90 2.664032
357.00 2.662068
357.10 2.660106
357.20 2.658145
357.30 2.656186
357.40 2.654125
357.50 2.651882
357.60 2.649641
357.70 2.647402
357.80 2.645152
357.90 2.642903
358.00 2.640234
358.10 2.637463
358.20 2.634693
358.30 2.631927
358.40 2.629163
358.50 2.626402
358.60 2.623643
358.70 2.620887
358.80 2.618134
358.90 2.615384
359.00 2.612149
359.10 2.608051
359.20 2.603926
359.30 2.599589
359.40 2.595257
359.50 2.590356
359.60 2.585317
359.70 2.580284
359.80 2.573767
359.90 2.567257
360.00 2.559605
360.10 2.54992
360.20 2.540246
360.30 2.530582
360.40 2.520928
360.50 2.511285
360.60 2.496133
360.70 2.477643
360.80 2.459172
360.90 2.440722
361.00 2.419336
361.10 2.38935
361.20 2.356682
361.30 2.319448
361.40 2.369328
361.50 2.41857
361.60 2.440382
361.70 2.441522
361.80 2.444448
361.90 2.450545
362.00 2.456635
362.10 2.460906
362.20 2.463184
362.30 2.462732
362.40 2.462279
362.50 2.461827
362.60 2.461374
362.70 2.45974
362.80 2.457193
362.90 2.455018
363.00 2.452846
363.10 2.449626
363.20 2.446398
363.30 2.445498
363.40 2.445797
363.50 2.450203
363.60 2.456246
363.70 2.461553
363.80 2.465851
363.90 2.469376
364.00 2.472897
364.10 2.476413
364.20 2.479926
364.30 2.484265
364.40 2.488807
364.50 2.493202
364.60 2.495905
364.70 2.498604
364.80 2.5013
364.90 2.50319
365.00 2.505079
365.10 2.504521
365.20 2.503557
365.30 2.503
365.40 2.504476
365.50 2.506763
365.60 2.509047
365.70 2.510996
365.80 2.512942
365.90 2.514035
366.00 2.514912
366.10 2.514932
366.20 2.514951
366.30 2.51497
366.40 2.514988
366.50 2.514513
366.60 2.513957
366.70 2.512586
366.80 2.511217
366.90 2.509378
367.00 2.506706
367.10 2.504036
367.20 2.501369
367.30 2.498705
367.40 2.496043
367.50 2.492281
367.60 2.488247
367.70 2.483301
367.80 2.478361
367.90 2.473425
368.00 2.46841
368.10 2.462311
368.20 2.454482
368.30 2.446645
368.40 2.438817
368.50 2.430997
368.60 2.423185
368.70 2.415381
368.80 2.407585
368.90 2.399054
369.00 2.389349
369.10 2.379689
369.20 2.369555
369.30 2.357658
369.40 2.345773
369.50 2.333901
369.60 2.31959
369.70 2.305294
369.80 2.291809
369.90 2.278346
370.00 2.264897
370.10 2.250407
370.20 2.236092
370.30 2.221821
370.40 2.208363
370.50 2.204146
370.60 2.219854
370.70 2.23823
370.80 2.253129
370.90 2.268013
371.00 2.275192
371.10 2.282285
371.20 2.28968
371.30 2.297066
371.40 2.305589
371.50 2.313723
371.60 2.321849
371.70 2.329965
371.80 2.338072
371.90 2.34617
372.00 2.354081
372.10 2.361777
372.20 2.367169
372.30 2.372556
372.40 2.377936
372.50 2.38331
372.60 2.388678
372.70 2.39404
372.80 2.397031
372.90 2.400019
373.00 2.402269
373.10 2.404508
373.20 2.40361
373.30 2.402712
373.40 2.393638
373.50 2.387687
373.60 2.390687
373.70 2.396016
373.80 2.401436
373.90 2.407432
374.00 2.411772
374.10 2.416107
374.20 2.420437
374.30 2.424762
374.40 2.42734
374.50 2.429121
374.60 2.430723
374.70 2.432333
374.80 2.43394
374.90 2.435546
375.00 2.435791
375.10 2.436036
375.20 2.43628
375.30 2.435532
375.40 2.434785
375.50 2.434039
375.60 2.433293
375.70 2.432547
375.80 2.431801
375.90 2.431057
376.00 2.429764
376.10 2.427644
376.20 2.425518
376.30 2.423394
376.40 2.421271
376.50 2.418851
376.60 2.415983
376.70 2.413117
376.80 2.409798
376.90 2.406025
377.00 2.402256
377.10 2.398491
377.20 2.394603
377.30 2.390245
377.40 2.385892
377.50 2.381542
377.60 2.375977
377.70 2.370418
377.80 2.364864
377.90 2.359315
378.00 2.354008
378.10 2.346547
378.20 2.339069
378.30 2.331599
378.40 2.324136
378.50 2.31668
378.60 2.309232
378.70 2.301792
378.80 2.294359
378.90 2.286168
379.00 2.276564
379.10 2.266902
379.20 2.25725
379.30 2.246722
379.40 2.235319
379.50 2.223928
379.60 2.212326
379.70 2.199642
379.80 2.184108
379.90 2.168591
380.00 2.153089
380.10 2.137604
380.20 2.122134
380.30 2.106681
380.40 2.091243
380.50 2.075821
380.60 2.055987
380.70 2.034647
380.80 2.013329
380.90 1.992034
381.00 1.970761
381.10 1.94917
381.20 1.925858
381.30 1.899941
381.40 1.874809
381.50 1.848196
381.60 1.821081
381.70 1.794218
381.80 1.773335
381.90 1.766079
382.00 1.746926
382.10 1.78059
382.20 1.820759
382.30 1.858434
382.40 1.891878
382.50 1.919001
382.60 1.946096
382.70 1.968583
382.80 1.981556
382.90 1.990187
383.00 1.99881
383.10 2.007423
383.20 2.016573
383.30 2.027769
383.40 2.03891
383.50 2.049974
383.60 2.062428
383.70 2.072235
383.80 2.082031
383.90 2.091817
384.00 2.101592
384.10 2.111357
384.20 2.121112
384.30 2.130856
384.40 2.139536
384.50 2.147153
384.60 2.154762
384.70 2.162363
384.80 2.169737
384.90 2.175686
385.00 2.180529
385.10 2.18538
385.20 2.189866
385.30 2.193184
385.40 2.196061
385.50 2.198498
385.60 2.200932
385.70 2.203364
385.80 2.20558
385.90 2.206995
386.00 2.207905
386.10 2.20807
386.20 2.205803
386.30 2.203537
386.40 2.199138
386.50 2.190564
386.60 2.176676
386.70 2.149232
386.80 2.085352
386.90 2.090257
387.00 2.102334
387.10 2.113583
387.20 2.12413
387.30 2.130871
387.40 2.133896
387.50 2.134723
387.60 2.132544
387.70 2.124401
387.80 2.116267
387.90 2.108141
388.00 2.097626
388.10 2.076704
388.20 2.042878
388.30 1.999537
388.40 1.95624
388.50 1.899505
388.60 1.811293
388.70 1.68233
388.80 1.472508
388.90 1.383366
389.00 1.558622
389.10 1.694343
389.20 1.790369
389.30 1.862421
389.40 1.918377
389.50 1.96812
389.60 2.007034
389.70 2.035349
389.80 2.054842
389.90 2.074314
390.00 2.093766
390.10 2.113198
390.20 2.132609
390.30 2.146754
390.40 2.154971
390.50 2.163179
390.60 2.171378
390.70 2.179568
390.80 2.185913
390.90 2.190415
391.00 2.194058
391.10 2.197071
391.20 2.199817
391.30 2.200938
391.40 2.201349
391.50 2.201759
391.60 2.202169
391.70 2.202578
391.80 2.202986
391.90 2.202984
392.00 2.202257
392.10 2.201133
392.20 2.199903
392.30 2.197944
392.40 2.196321
392.50 2.194412
392.60 2.192009
392.70 2.189484
392.80 2.187666
392.90 2.186291
393.00 2.18443
393.10 2.182684
393.20 2.181047
393.30 2.179237
393.40 2.177315
393.50 2.174413
393.60 2.171187
393.70 2.167554
393.80 2.164416
393.90 2.160518
394.00 2.156571
394.10 2.15185
394.20 2.146857
394.30 2.14139
394.40 2.135176
394.50 2.127694
394.60 2.118825
394.70 2.109519
394.80 2.098545
394.90 2.087546
395.00 2.075274
395.10 2.061341
395.20 2.045283
395.30 2.028859
395.40 2.012451
395.50 1.990599
395.60 1.966751
395.70 1.939671
395.80 1.903822
395.90 1.868008
396.00 1.830882
396.10 1.774835
396.20 1.704431
396.30 1.626258
396.40 1.511433
396.50 1.615441
396.60 1.790421
396.70 1.839726
396.80 1.829043
396.90 1.815404
397.00 1.859196
397.10 1.924814
397.20 1.959258
397.30 1.966626
397.40 1.968879
397.50 1.97113
397.60 1.973371
397.70 1.975543
397.80 1.977713
397.90 1.979159
398.00 1.978654
398.10 1.97815
398.20 1.976756
398.30 1.974361
398.40 1.971916
398.50 1.967771
398.60 1.96325
398.70 1.957517
398.80 1.95152
398.90 1.944984
399.00 1.937442
399.10 1.928895
399.20 1.919491
399.30 1.910096
399.40 1.90071
399.50 1.891334
399.60 1.880722
399.70 1.869659
399.80 1.858608
399.90 1.847567
400.00 1.836496
400.10 1.824101
400.20 1.811674
400.30 1.798273
400.40 1.784795
400.50 1.770663
400.60 1.755532
400.70 1.73978
400.80 1.723239
400.90 1.704816
401.00 1.687485
401.10 1.671399
401.20 1.654365
401.30 1.636238
401.40 1.616087
401.50 1.595327
401.60 1.57444
401.70 1.548813
401.80 1.521807
401.90 1.492155
402.00 1.461648
402.10 1.430259
402.20 1.399726
402.30 1.367843
402.40 1.334153
402.50 1.295398
402.60 1.258812
402.70 1.290765
402.80 1.330942
402.90 1.370678
403.00 1.410441
403.10 1.450566
403.20 1.489022
403.30 1.525253
403.40 1.559086
403.50 1.588763
403.60 1.617299
403.70 1.642778
403.80 1.66517
403.90 1.683252
404.00 1.700418
404.10 1.712661
404.20 1.72012
404.30 1.727572
404.40 1.729011
404.50 1.718233
404.60 1.710089
404.70 1.713552
404.80 1.722972
404.90 1.733051
405.00 1.743156
405.10 1.753267
405.20 1.763265
405.30 1.773253
405.40 1.782397
405.50 1.791532
405.60 1.800658
405.70 1.809775
405.80 1.818882
405.90 1.827981
406.00 1.835297
406.10 1.842605
406.20 1.849907
406.30 1.857201
406.40 1.864438
406.50 1.87057
406.60 1.877183
406.70 1.883234
406.80 1.888972
406.90 1.89458
407.00 1.899089
407.10 1.903593
407.20 1.908093
407.30 1.912588
407.40 1.917078
407.50 1.921564
407.60 1.926045
407.70 1.930522
407.80 1.934994
407.90 1.939427
408.00 1.942753
408.10 1.945873
408.20 1.948457
408.30 1.951109
408.40 1.953758
408.50 1.955726
408.60 1.957469
408.70 1.95921
408.80 1.960817
408.90 1.961411
409.00 1.962196
409.10 1.96298
409.20 1.963763
409.30 1.964545
409.40 1.965308
409.50 1.965493
409.60 1.965676
409.70 1.96575
409.80 1.965387
409.90 1.965006
410.00 1.964047
410.10 1.96309
410.20 1.961528
410.30 1.959816
410.40 1.957778
410.50 1.954705
410.60 1.951635
410.70 1.948157
410.80 1.943041
410.90 1.93793
411.00 1.930945
411.10 1.923272
411.20 1.915607
411.30 1.907429
411.40 1.897046
411.50 1.882304
411.60 1.867576
411.70 1.849923
411.80 1.820535
411.90 1.787272
412.00 1.719246
412.10 1.526305
412.20 1.525245
412.30 1.587122
412.40 1.633941
412.50 1.665586
412.60 1.691655
412.70 1.71109
412.80 1.728854
412.90 1.745188
413.00 1.753364
413.10 1.756934
413.20 1.760499
413.30 1.764061
413.40 1.76762
413.50 1.770557
413.60 1.770668
413.70 1.769653
413.80 1.768639
413.90 1.767626
414.00 1.765968
414.10 1.762266
414.20 1.757732
414.30 1.750685
414.40 1.743645
414.50 1.741686
414.60 1.747167
414.70 1.754847
414.80 1.762785
414.90 1.771553
415.00 1.780313
415.10 1.789064
415.20 1.797526
415.30 1.805093
415.40 1.812652
415.50 1.820181
415.60 1.826965
415.70 1.833743
415.80 1.840362
415.90 1.846497
416.00 1.852626
416.10 1.858339
416.20 1.862406
416.30 1.866469
416.40 1.870527
416.50 1.874518
416.60 1.876433
416.70 1.878309
416.80 1.878611
416.90 1.874735
417.00 1.872952
417.10 1.876683
417.20 1.880774
417.30 1.884843
417.40 1.888343
417.50 1.891841
417.60 1.8952
417.70 1.897997
417.80 1.900198
417.90 1.902397
418.00 1.904594
418.10 1.906788
418.20 1.90898
418.30 1.911148
418.40 1.912525
418.50 1.913698
418.60 1.914869
418.70 1.916039
418.80 1.917208
418.90 1.918375
419.00 1.919541
419.10 1.920705
419.20 1.921869
419.30 1.923014
419.40 1.923624
419.50 1.924233
419.60 1.924744
419.70 1.924868
419.80 1.924992
419.90 1.925054
420.00 1.924921
420.10 1.924788
420.20 1.924655
420.30 1.924522
420.40 1.924388
420.50 1.924255
420.60 1.924122
420.70 1.923988
420.80 1.923854
420.90 1.92371
421.00 1.923237
421.10 1.922764
421.20 1.922247
421.30 1.921597
421.40 1.920946
421.50 1.920296
421.60 1.919647
421.70 1.918998
421.80 1.918349
421.90 1.917638
422.00 1.91673
422.10 1.91586
422.20 1.915145
422.30 1.91443
422.40 1.913704
422.50 1.912614
422.60 1.911525
422.70 1.910436
422.80 1.909348
422.90 1.908261
423.00 1.907175
423.10 1.90609
423.20 1.905006
423.30 1.903922
423.40 1.902839
423.50 1.901757
423.60 1.900676
423.70 1.899595
423.80 1.898516
423.90 1.897437
424.00 1.896359
424.10 1.895282
424.20 1.894205
424.30 1.89313
424.40 1.892088
424.50 1.890831
424.60 1.889576
424.70 1.888321
424.80 1.887068
424.90 1.885815
