# Version 2.1 - nm, norm@500 to 1, cut digits, bergeron_He_10000_70.dat_10000
# Wavelength(nm)  Flambda(ergs/cm^s/s/nm)
300.00 1.992799
300.10 1.992593
300.20 1.992396
300.30 1.992184
300.40 1.991874
300.50 1.991564
300.60 1.991254
300.70 1.990944
300.80 1.990633
300.90 1.990323
301.00 1.990013
301.10 1.989703
301.20 1.989392
301.30 1.989082
301.40 1.988772
301.50 1.988461
301.60 1.988151
301.70 1.98784
301.80 1.98753
301.90 1.987219
302.00 1.986909
302.10 1.986607
302.20 1.986306
302.30 1.986005
302.40 1.985704
302.50 1.985403
302.60 1.985102
302.70 1.984801
302.80 1.984499
302.90 1.984198
303.00 1.983897
303.10 1.983596
303.20 1.983294
303.30 1.982993
303.40 1.982691
303.50 1.982389
303.60 1.982086
303.70 1.981784
303.80 1.981482
303.90 1.981179
304.00 1.980877
304.10 1.980575
304.20 1.980272
304.30 1.97997
304.40 1.979667
304.50 1.979365
304.60 1.97904
304.70 1.978714
304.80 1.978387
304.90 1.97806
305.00 1.977734
305.10 1.977407
305.20 1.97708
305.30 1.976753
305.40 1.976427
305.50 1.9761
305.60 1.975773
305.70 1.975447
305.80 1.97512
305.90 1.974793
306.00 1.974467
306.10 1.97414
306.20 1.973813
306.30 1.973486
306.40 1.973156
306.50 1.972824
306.60 1.972493
306.70 1.972161
306.80 1.971829
306.90 1.971498
307.00 1.971166
307.10 1.970834
307.20 1.970503
307.30 1.970171
307.40 1.96984
307.50 1.969508
307.60 1.969177
307.70 1.968845
307.80 1.968514
307.90 1.968182
308.00 1.967851
308.10 1.967519
308.20 1.967188
308.30 1.966856
308.40 1.966525
308.50 1.966194
308.60 1.965862
308.70 1.965531
308.80 1.965199
308.90 1.964865
309.00 1.964445
309.10 1.964025
309.20 1.963604
309.30 1.963184
309.40 1.962774
309.50 1.96242
309.60 1.962067
309.70 1.961713
309.80 1.96136
309.90 1.961006
310.00 1.960653
310.10 1.9603
310.20 1.959947
310.30 1.959593
310.40 1.959266
310.50 1.958965
310.60 1.958664
310.70 1.958363
310.80 1.958063
310.90 1.957762
311.00 1.957283
311.10 1.956804
311.20 1.956326
311.30 1.955879
311.40 1.955522
311.50 1.955165
311.60 1.954808
311.70 1.954452
311.80 1.954095
311.90 1.953738
312.00 1.953382
312.10 1.953025
312.20 1.952779
312.30 1.952332
312.40 1.951725
312.50 1.951787
312.60 1.951314
312.70 1.950842
312.80 1.95037
312.90 1.949985
313.00 1.949695
313.10 1.949404
313.20 1.949114
313.30 1.948781
313.40 1.948329
313.50 1.947877
313.60 1.947425
313.70 1.946973
313.80 1.946522
313.90 1.94607
314.00 1.945619
314.10 1.945267
314.20 1.944915
314.30 1.944563
314.40 1.944212
314.50 1.94386
314.60 1.943508
314.70 1.943156
314.80 1.942765
314.90 1.94228
315.00 1.941815
315.10 1.941435
315.20 1.941055
315.30 1.940676
315.40 1.940296
315.50 1.939916
315.60 1.939537
315.70 1.939157
315.80 1.938778
315.90 1.938399
316.00 1.93802
316.10 1.937641
316.20 1.937262
316.30 1.936883
316.40 1.936222
316.50 1.936126
316.60 1.935747
316.70 1.935369
316.80 1.93499
316.90 1.934612
317.00 1.934234
317.10 1.933856
317.20 1.933478
317.30 1.932903
317.40 1.932367
317.50 1.931938
317.60 1.93151
317.70 1.931081
317.80 1.930653
317.90 1.930173
318.00 1.930117
318.10 1.92974
318.20 1.929363
318.30 1.928986
318.40 1.928537
318.50 1.927882
318.60 1.927445
318.70 1.927069
318.80 1.926887
318.90 1.926317
319.00 1.925797
319.10 1.925421
319.20 1.92502
319.30 1.924546
319.40 1.924073
319.50 1.9236
319.60 1.923519
319.70 1.923046
319.80 1.922573
319.90 1.9221
320.00 1.921675
320.10 1.9213
320.20 1.920776
320.30 1.920431
320.40 1.919782
320.50 1.919518
320.60 1.919297
320.70 1.918649
320.80 1.918133
320.90 1.91776
321.00 1.917386
321.10 1.917013
321.20 1.916443
321.30 1.916007
321.40 1.91557
321.50 1.915135
321.60 1.914699
321.70 1.914263
321.80 1.913996
321.90 1.913911
322.00 1.913109
322.10 1.912665
322.20 1.912222
322.30 1.911779
322.40 1.911335
322.50 1.910893
322.60 1.91045
322.70 1.910007
322.80 1.909938
322.90 1.909476
323.00 1.909015
323.10 1.908553
323.20 1.908092
323.30 1.907631
323.40 1.90717
323.50 1.906709
323.60 1.906248
323.70 1.905788
323.80 1.905328
323.90 1.904868
324.00 1.904411
324.10 1.903954
324.20 1.903497
324.30 1.903033
324.40 1.902564
324.50 1.902114
324.60 1.901664
324.70 1.901215
324.80 1.900765
324.90 1.900316
325.00 1.899866
325.10 1.899418
325.20 1.898977
325.30 1.898552
325.40 1.898128
325.50 1.897732
325.60 1.897371
325.70 1.89701
325.80 1.896649
325.90 1.896205
326.00 1.895671
326.10 1.895137
326.20 1.894604
326.30 1.894126
326.40 1.893806
326.50 1.893339
326.60 1.892871
326.70 1.892405
326.80 1.891938
326.90 1.891471
327.00 1.891005
327.10 1.890539
327.20 1.890073
327.30 1.889608
327.40 1.889142
327.50 1.888677
327.60 1.888212
327.70 1.887748
327.80 1.887283
327.90 1.886978
328.00 1.886693
328.10 1.886221
328.20 1.885749
328.30 1.885277
328.40 1.884806
328.50 1.884264
328.60 1.883706
328.70 1.883149
328.80 1.882622
328.90 1.882184
329.00 1.881746
329.10 1.881309
329.20 1.880871
329.30 1.880434
329.40 1.879997
329.50 1.87956
329.60 1.879123
329.70 1.878687
329.80 1.87825
329.90 1.877814
330.00 1.877356
330.10 1.876871
330.20 1.876386
330.30 1.875901
330.40 1.875419
330.50 1.87494
330.60 1.874461
330.70 1.873983
330.80 1.873504
330.90 1.873026
331.00 1.872548
331.10 1.87207
331.20 1.871593
331.30 1.871116
331.40 1.870639
331.50 1.870147
331.60 1.869638
331.70 1.869128
331.80 1.868646
331.90 1.868164
332.00 1.867683
332.10 1.867202
332.20 1.866722
332.30 1.866241
332.40 1.865761
332.50 1.865281
332.60 1.864801
332.70 1.864322
332.80 1.863843
332.90 1.863364
333.00 1.862885
333.10 1.862416
333.20 1.861959
333.30 1.861502
333.40 1.861045
333.50 1.860589
333.60 1.860133
333.70 1.859677
333.80 1.859221
333.90 1.858765
334.00 1.85831
334.10 1.857825
334.20 1.857302
334.30 1.85678
334.40 1.856259
334.50 1.855737
334.60 1.855216
334.70 1.854867
334.80 1.854566
334.90 1.854035
335.00 1.853504
335.10 1.852858
335.20 1.852505
335.30 1.851877
335.40 1.851526
335.50 1.851111
335.60 1.850509
335.70 1.850133
335.80 1.849531
335.90 1.848987
336.00 1.848511
336.10 1.848035
336.20 1.84756
336.30 1.847066
336.40 1.84655
336.50 1.846034
336.60 1.845518
336.70 1.845003
336.80 1.844488
336.90 1.843989
337.00 1.843509
337.10 1.84303
337.20 1.842551
337.30 1.84206
337.40 1.84155
337.50 1.841041
337.60 1.840532
337.70 1.840023
337.80 1.839515
337.90 1.839004
338.00 1.83849
338.10 1.837977
338.20 1.837463
338.30 1.83695
338.40 1.836449
338.50 1.835974
338.60 1.835499
338.70 1.835025
338.80 1.83455
338.90 1.834076
339.00 1.833603
339.10 1.833129
339.20 1.832656
339.30 1.832139
339.40 1.831559
339.50 1.831009
339.60 1.830493
339.70 1.829978
339.80 1.829463
339.90 1.828949
340.00 1.828434
340.10 1.827921
340.20 1.827407
340.30 1.826893
340.40 1.82638
340.50 1.825867
340.60 1.825355
340.70 1.824843
340.80 1.824406
340.90 1.824079
341.00 1.823664
341.10 1.82314
341.20 1.822617
341.30 1.822094
341.40 1.821571
341.50 1.821049
341.60 1.820527
341.70 1.820005
341.80 1.819495
341.90 1.818998
342.00 1.818502
342.10 1.818006
342.20 1.817398
342.30 1.81689
342.40 1.816469
342.50 1.815974
342.60 1.815478
342.70 1.814983
342.80 1.814488
342.90 1.813994
343.00 1.81346
343.10 1.812877
343.20 1.812295
343.30 1.811713
343.40 1.811167
343.50 1.81067
343.60 1.810174
343.70 1.809678
343.80 1.809182
343.90 1.808687
344.00 1.808159
344.10 1.807585
344.20 1.807011
344.30 1.806437
344.40 1.805962
344.50 1.805626
344.60 1.805011
344.70 1.804676
344.80 1.803867
344.90 1.803532
345.00 1.802907
345.10 1.802336
345.20 1.801833
345.30 1.801429
345.40 1.801025
345.50 1.800539
345.60 1.799959
345.70 1.799389
345.80 1.798821
345.90 1.798252
346.00 1.797684
346.10 1.797117
346.20 1.796569
346.30 1.796049
346.40 1.795529
346.50 1.79501
346.60 1.794491
346.70 1.793972
346.80 1.793454
346.90 1.792936
347.00 1.792418
347.10 1.7919
347.20 1.791382
347.30 1.790861
347.40 1.790341
347.50 1.789821
347.60 1.789301
347.70 1.788782
347.80 1.788263
347.90 1.787744
348.00 1.787225
348.10 1.786707
348.20 1.786189
348.30 1.785672
348.40 1.785154
348.50 1.784637
348.60 1.784121
348.70 1.783742
348.80 1.783315
348.90 1.782756
349.00 1.782198
349.10 1.78164
349.20 1.781082
349.30 1.780525
349.40 1.779968
349.50 1.779412
349.60 1.778855
349.70 1.778299
349.80 1.777744
349.90 1.777189
350.00 1.776634
350.10 1.77608
350.20 1.775525
350.30 1.774988
350.40 1.774474
350.50 1.77396
350.60 1.773447
350.70 1.772934
350.80 1.772421
350.90 1.771909
351.00 1.771396
351.10 1.770885
351.20 1.770373
351.30 1.769862
351.40 1.769349
351.50 1.768832
351.60 1.768315
351.70 1.767799
351.80 1.767283
351.90 1.766767
352.00 1.766252
352.10 1.765737
352.20 1.765058
352.30 1.764428
352.40 1.763897
352.50 1.763365
352.60 1.762834
352.70 1.762304
352.80 1.761773
352.90 1.761243
353.00 1.760714
353.10 1.760184
353.20 1.759655
353.30 1.759126
353.40 1.758598
353.50 1.758103
353.60 1.757617
353.70 1.757131
353.80 1.756646
353.90 1.756123
354.00 1.755533
354.10 1.754944
354.20 1.754355
354.30 1.753767
354.40 1.753178
354.50 1.752591
354.60 1.752004
354.70 1.751417
354.80 1.750874
354.90 1.750396
355.00 1.749917
355.10 1.749439
355.20 1.748961
355.30 1.748392
355.40 1.747822
355.50 1.747254
355.60 1.746685
355.70 1.746095
355.80 1.745497
355.90 1.745047
356.00 1.744571
356.10 1.744023
356.20 1.743475
356.30 1.742927
356.40 1.74238
356.50 1.741833
356.60 1.741286
356.70 1.74074
356.80 1.740194
356.90 1.739649
357.00 1.739103
357.10 1.738558
357.20 1.738014
357.30 1.73747
357.40 1.736913
357.50 1.736336
357.60 1.735759
357.70 1.735182
357.80 1.734613
357.90 1.734044
358.00 1.733493
358.10 1.732947
358.20 1.7324
358.30 1.731854
358.40 1.731309
358.50 1.730764
358.60 1.730219
358.70 1.729674
358.80 1.72913
358.90 1.728586
359.00 1.728104
359.10 1.72773
359.20 1.727329
359.30 1.726742
359.40 1.726157
359.50 1.725521
359.60 1.724873
359.70 1.724225
359.80 1.723762
359.90 1.7233
360.00 1.722805
360.10 1.722253
360.20 1.721702
360.30 1.721151
360.40 1.720601
360.50 1.72005
360.60 1.719257
360.70 1.718737
360.80 1.718218
360.90 1.717699
361.00 1.717303
361.10 1.716747
361.20 1.715989
361.30 1.715644
361.40 1.714954
361.50 1.714437
361.60 1.714076
361.70 1.713559
361.80 1.713009
361.90 1.712399
362.00 1.71179
362.10 1.711151
362.20 1.710533
362.30 1.709966
362.40 1.709399
362.50 1.708833
362.60 1.708267
362.70 1.707877
362.80 1.707316
362.90 1.706802
363.00 1.706288
363.10 1.705739
363.20 1.705191
363.30 1.704758
363.40 1.703926
363.50 1.703309
363.60 1.702799
363.70 1.702337
363.80 1.70178
363.90 1.701251
364.00 1.700721
364.10 1.700193
364.20 1.699664
364.30 1.699001
364.40 1.698305
364.50 1.697802
364.60 1.697294
364.70 1.696786
364.80 1.696278
364.90 1.695773
365.00 1.695267
365.10 1.69455
365.20 1.694045
365.30 1.693541
365.40 1.692825
365.50 1.692321
365.60 1.691818
365.70 1.691276
365.80 1.690735
365.90 1.690075
366.00 1.689385
366.10 1.688876
366.20 1.688368
366.30 1.687859
366.40 1.687351
366.50 1.686875
366.60 1.686379
366.70 1.685777
366.80 1.685176
366.90 1.684596
367.00 1.684055
367.10 1.683514
367.20 1.682974
367.30 1.682433
367.40 1.681894
367.50 1.681239
367.60 1.680557
367.70 1.679972
367.80 1.679388
367.90 1.678804
368.00 1.678363
368.10 1.678071
368.20 1.677489
368.30 1.676905
368.40 1.676322
368.50 1.675739
368.60 1.675156
368.70 1.674574
368.80 1.673992
368.90 1.673293
369.00 1.672753
369.10 1.672304
369.20 1.671817
369.30 1.671187
369.40 1.670558
369.50 1.66993
369.60 1.669437
369.70 1.668945
369.80 1.668378
369.90 1.66781
370.00 1.667243
370.10 1.666579
370.20 1.666087
370.30 1.665598
370.40 1.665114
370.50 1.664416
370.60 1.663924
370.70 1.663242
370.80 1.662753
370.90 1.662264
371.00 1.661577
371.10 1.660887
371.20 1.6604
371.30 1.659913
371.40 1.659542
371.50 1.658953
371.60 1.658365
371.70 1.657777
371.80 1.657189
371.90 1.656602
372.00 1.655947
372.10 1.655639
372.20 1.655021
372.30 1.654404
372.40 1.653787
372.50 1.65317
372.60 1.652554
372.70 1.651938
372.80 1.651455
372.90 1.650974
373.00 1.650496
373.10 1.650019
373.20 1.649337
373.30 1.648656
373.40 1.648178
373.50 1.647498
373.60 1.64702
373.70 1.646341
373.80 1.645952
373.90 1.645387
374.00 1.64481
374.10 1.644233
374.20 1.643656
374.30 1.64308
374.40 1.642454
374.50 1.64212
374.60 1.641553
374.70 1.640979
374.80 1.640405
374.90 1.639832
375.00 1.639225
375.10 1.638619
375.20 1.638013
375.30 1.637426
375.40 1.63684
375.50 1.636254
375.60 1.635668
375.70 1.635083
375.80 1.634498
375.90 1.633914
376.00 1.63344
376.10 1.63292
376.20 1.632399
376.30 1.631879
376.40 1.631359
376.50 1.630811
376.60 1.630219
376.70 1.629628
376.80 1.629039
376.90 1.628452
377.00 1.627866
377.10 1.62728
377.20 1.626714
377.30 1.626223
377.40 1.625731
377.50 1.62524
377.60 1.624637
377.70 1.624035
377.80 1.623433
377.90 1.622832
378.00 1.622128
378.10 1.621587
378.20 1.621049
378.30 1.620511
378.40 1.619974
378.50 1.619437
378.60 1.618901
378.70 1.618365
378.80 1.617829
378.90 1.617284
379.00 1.616721
379.10 1.616183
379.20 1.615644
379.30 1.615076
379.40 1.614477
379.50 1.61388
379.60 1.613312
379.70 1.612783
379.80 1.612219
379.90 1.611656
380.00 1.611093
380.10 1.61053
380.20 1.609968
380.30 1.609406
380.40 1.608845
380.50 1.608284
380.60 1.607548
380.70 1.606969
380.80 1.60639
380.90 1.605812
381.00 1.605234
381.10 1.604635
381.20 1.604111
381.30 1.603558
381.40 1.603102
381.50 1.60246
381.60 1.60187
381.70 1.601388
381.80 1.600836
381.90 1.600192
382.00 1.599547
382.10 1.599096
382.20 1.598414
382.30 1.597964
382.40 1.597465
382.50 1.596894
382.60 1.596322
382.70 1.595814
382.80 1.595313
382.90 1.594749
383.00 1.594186
383.10 1.593622
383.20 1.593047
383.30 1.592428
383.40 1.591835
383.50 1.591279
383.60 1.590477
383.70 1.589951
383.80 1.589425
383.90 1.5889
384.00 1.588375
384.10 1.58785
384.20 1.587326
384.30 1.586802
384.40 1.586216
384.50 1.585569
384.60 1.584922
384.70 1.584276
384.80 1.583686
384.90 1.583266
385.00 1.58277
385.10 1.582268
385.20 1.581538
385.30 1.58091
385.40 1.580319
385.50 1.579764
385.60 1.57921
385.70 1.578657
385.80 1.578095
385.90 1.577498
386.00 1.576926
386.10 1.57638
386.20 1.575856
386.30 1.575332
386.40 1.574755
386.50 1.574226
386.60 1.573789
386.70 1.572975
386.80 1.572539
386.90 1.572009
387.00 1.571291
387.10 1.570855
387.20 1.570317
387.30 1.569619
387.40 1.569175
387.50 1.568533
387.60 1.567991
387.70 1.567464
387.80 1.566937
387.90 1.56641
388.00 1.565825
388.10 1.565075
388.20 1.564705
388.30 1.564137
388.40 1.563569
388.50 1.563033
388.60 1.562488
388.70 1.561684
388.80 1.561254
388.90 1.560801
389.00 1.560022
389.10 1.559593
389.20 1.558954
389.30 1.55843
389.40 1.55782
389.50 1.55726
389.60 1.556708
389.70 1.555997
389.80 1.555452
389.90 1.554906
390.00 1.554361
390.10 1.553817
390.20 1.553272
390.30 1.552715
390.40 1.552143
390.50 1.551572
390.60 1.551001
390.70 1.55043
390.80 1.549852
390.90 1.549268
391.00 1.54895
391.10 1.548337
391.20 1.547687
391.30 1.547011
391.40 1.546466
391.50 1.545922
391.60 1.545377
391.70 1.544834
391.80 1.54429
391.90 1.543793
392.00 1.543275
392.10 1.542647
392.20 1.542005
392.30 1.541344
392.40 1.54082
392.50 1.540381
392.60 1.539844
392.70 1.539178
392.80 1.538642
392.90 1.538045
393.00 1.537457
393.10 1.536902
393.20 1.536378
393.30 1.535779
393.40 1.535164
393.50 1.534748
393.60 1.534192
393.70 1.533553
393.80 1.533155
393.90 1.532558
394.00 1.531946
394.10 1.531255
394.20 1.530663
394.30 1.530136
394.40 1.529595
394.50 1.529153
394.60 1.52858
394.70 1.528
394.80 1.527392
394.90 1.526791
395.00 1.526369
395.10 1.525596
395.20 1.525012
395.30 1.524476
395.40 1.52394
395.50 1.523447
395.60 1.52297
395.70 1.522445
395.80 1.521789
395.90 1.521134
396.00 1.520508
396.10 1.520109
396.20 1.519521
396.30 1.518886
396.40 1.518479
396.50 1.517713
396.60 1.517306
396.70 1.516667
396.80 1.516135
396.90 1.515407
397.00 1.514966
397.10 1.514501
397.20 1.513878
397.30 1.513424
397.40 1.512775
397.50 1.512126
397.60 1.511491
397.70 1.510984
397.80 1.510477
397.90 1.509937
398.00 1.509305
398.10 1.508674
398.20 1.508121
398.30 1.507655
398.40 1.507181
398.50 1.506425
398.60 1.505948
398.70 1.505385
398.80 1.504775
398.90 1.504206
399.00 1.503715
399.10 1.50333
399.20 1.50274
399.30 1.502149
399.40 1.501559
399.50 1.50097
399.60 1.500372
399.70 1.499772
399.80 1.499172
399.90 1.498572
400.00 1.497977
400.10 1.497499
400.20 1.497071
400.30 1.49654
400.40 1.495932
400.50 1.495286
400.60 1.494668
400.70 1.494098
400.80 1.493751
400.90 1.493063
401.00 1.492612
401.10 1.491868
401.20 1.4914
401.30 1.490732
401.40 1.490178
401.50 1.489695
401.60 1.489213
401.70 1.488741
401.80 1.488072
401.90 1.487515
402.00 1.486941
402.10 1.486551
402.20 1.485812
402.30 1.485273
402.40 1.484683
402.50 1.484294
402.60 1.483557
402.70 1.483168
402.80 1.482432
402.90 1.481835
403.00 1.481273
403.10 1.48092
403.20 1.480194
403.30 1.479727
403.40 1.479065
403.50 1.478494
403.60 1.477975
403.70 1.47756
403.80 1.476834
403.90 1.4763
404.00 1.475712
404.10 1.475327
404.20 1.47477
404.30 1.474213
404.40 1.473484
404.50 1.473101
404.60 1.472373
404.70 1.47199
404.80 1.471272
404.90 1.47088
405.00 1.470154
405.10 1.469624
405.20 1.469145
405.30 1.468665
405.40 1.468112
405.50 1.46756
405.60 1.467008
405.70 1.466456
405.80 1.465905
405.90 1.465354
406.00 1.46477
406.10 1.464186
406.20 1.463603
406.30 1.46302
406.40 1.462433
406.50 1.4618
406.60 1.461336
406.70 1.460724
406.80 1.460139
406.90 1.459528
407.00 1.458981
407.10 1.458435
407.20 1.457889
407.30 1.457343
407.40 1.456798
407.50 1.456253
407.60 1.455708
407.70 1.455164
407.80 1.45462
407.90 1.454077
408.00 1.453549
408.10 1.452985
408.20 1.45245
408.30 1.451959
408.40 1.451468
408.50 1.450817
408.60 1.450224
408.70 1.449631
408.80 1.449069
408.90 1.448686
409.00 1.448107
409.10 1.447529
409.20 1.446951
409.30 1.446373
409.40 1.445795
409.50 1.445208
409.60 1.444621
409.70 1.444042
409.80 1.443492
409.90 1.442948
410.00 1.44257
410.10 1.441867
410.20 1.441373
410.30 1.440933
410.40 1.440456
410.50 1.439864
410.60 1.439273
410.70 1.438688
410.80 1.438123
410.90 1.437558
411.00 1.437033
411.10 1.436523
411.20 1.436014
411.30 1.435467
411.40 1.434772
411.50 1.434193
411.60 1.433614
411.70 1.433045
411.80 1.432515
411.90 1.431953
412.00 1.43159
412.10 1.430895
412.20 1.430533
412.30 1.429839
412.40 1.429158
412.50 1.428785
412.60 1.428092
412.70 1.427504
412.80 1.426941
412.90 1.42668
413.00 1.426021
413.10 1.425461
413.20 1.424903
413.30 1.424344
413.40 1.423786
413.50 1.423202
413.60 1.422554
413.70 1.422031
413.80 1.421509
413.90 1.420987
414.00 1.420465
414.10 1.419943
414.20 1.419383
414.30 1.41873
414.40 1.418342
414.50 1.417657
414.60 1.417302
414.70 1.416618
414.80 1.415975
414.90 1.415456
415.00 1.414938
415.10 1.41442
415.20 1.413887
415.30 1.413309
415.40 1.41273
415.50 1.412152
415.60 1.41159
415.70 1.411028
415.80 1.41049
415.90 1.410026
416.00 1.409563
416.10 1.409072
416.20 1.408474
416.30 1.407875
416.40 1.407277
416.50 1.406682
416.60 1.406169
416.70 1.405652
416.80 1.405168
416.90 1.404628
417.00 1.403955
417.10 1.403611
417.20 1.4031
417.30 1.402588
417.40 1.402031
417.50 1.401473
417.60 1.400894
417.70 1.400226
417.80 1.399664
417.90 1.399102
418.00 1.39854
418.10 1.397979
418.20 1.397418
418.30 1.396866
418.40 1.396534
418.50 1.395971
418.60 1.395409
418.70 1.394848
418.80 1.394286
418.90 1.393726
419.00 1.393165
419.10 1.392605
419.20 1.392045
419.30 1.391486
419.40 1.390936
419.50 1.390386
419.60 1.389836
419.70 1.389282
419.80 1.388728
419.90 1.388179
420.00 1.387643
420.10 1.387108
420.20 1.386573
420.30 1.386039
420.40 1.385504
420.50 1.38497
420.60 1.384437
420.70 1.383904
420.80 1.383371
420.90 1.382838
421.00 1.382296
421.10 1.381754
421.20 1.381217
421.30 1.380698
421.40 1.380179
421.50 1.37966
421.60 1.379141
421.70 1.378623
421.80 1.378105
421.90 1.377555
422.00 1.376902
422.10 1.37627
422.20 1.375718
422.30 1.375166
422.40 1.374615
422.50 1.374076
422.60 1.373538
422.70 1.373
422.80 1.372462
422.90 1.371925
423.00 1.371388
423.10 1.370851
423.20 1.370315
423.30 1.369779
423.40 1.369243
423.50 1.368708
423.60 1.368173
423.70 1.367638
423.80 1.367104
423.90 1.36657
424.00 1.366036
424.10 1.365503
424.20 1.36497
424.30 1.364438
424.40 1.363883
424.50 1.363367
424.60 1.362851
424.70 1.362336
424.80 1.361821
424.90 1.361306
425.00 1.360792
425.10 1.360278
