# Version 2.1 - nm, norm@500 to 1, cut digits, bergeron_He_4000_90.dat_4000
# Wavelength(nm)  Flambda(ergs/cm^s/s/nm)
300.00 0.05322663
300.10 0.05339472
300.20 0.0535632
300.30 0.05373192
300.40 0.05390363
300.50 0.05407509
300.60 0.05424632
300.70 0.05441731
300.80 0.05458806
300.90 0.05475857
301.00 0.05492884
301.10 0.05509887
301.20 0.05526867
301.30 0.05543822
301.40 0.05560754
301.50 0.05577663
301.60 0.05594548
301.70 0.05611409
301.80 0.05628246
301.90 0.0564506
302.00 0.05661851
302.10 0.05679775
302.20 0.05697804
302.30 0.05715807
302.40 0.05733785
302.50 0.05751738
302.60 0.05769667
302.70 0.0578757
302.80 0.05805448
302.90 0.05823302
303.00 0.05841131
303.10 0.05858934
303.20 0.05876714
303.30 0.05894499
303.40 0.05912536
303.50 0.05930547
303.60 0.05948534
303.70 0.05966496
303.80 0.05984433
303.90 0.06002345
304.00 0.06020232
304.10 0.06038094
304.20 0.06055931
304.30 0.06073744
304.40 0.06091532
304.50 0.06109296
304.60 0.06128126
304.70 0.06147052
304.80 0.06165952
304.90 0.06184825
305.00 0.06203673
305.10 0.06222495
305.20 0.0624129
305.30 0.0626006
305.40 0.06278803
305.50 0.06297521
305.60 0.06316213
305.70 0.06334879
305.80 0.06353519
305.90 0.06372134
306.00 0.06390723
306.10 0.06409286
306.20 0.06427824
306.30 0.06446336
306.40 0.06465814
306.50 0.0648556
306.60 0.0650528
306.70 0.06524972
306.80 0.06544638
306.90 0.06564276
307.00 0.06583887
307.10 0.06603472
307.20 0.06623029
307.30 0.0664256
307.40 0.06662064
307.50 0.06681541
307.60 0.06700991
307.70 0.06720415
307.80 0.06739812
307.90 0.06759182
308.00 0.06778526
308.10 0.06797843
308.20 0.06817134
308.30 0.06836398
308.40 0.06855636
308.50 0.06874848
308.60 0.06894033
308.70 0.06913192
308.80 0.06932616
308.90 0.06952841
309.00 0.06973039
309.10 0.06993209
309.20 0.07013352
309.30 0.07033467
309.40 0.07053641
309.50 0.07074312
309.60 0.07094956
309.70 0.07115572
309.80 0.07136159
309.90 0.07156718
310.00 0.0717725
310.10 0.07197753
310.20 0.07218229
310.30 0.07238676
310.40 0.07259404
310.50 0.07280438
310.60 0.07301443
310.70 0.0732242
310.80 0.07343368
310.90 0.07364288
311.00 0.07385368
311.10 0.07406419
311.20 0.07427441
311.30 0.07448524
311.40 0.07469831
311.50 0.07491108
311.60 0.07512357
311.70 0.07533577
311.80 0.07554768
311.90 0.07575931
312.00 0.07597064
312.10 0.07618169
312.20 0.0763841
312.30 0.07659147
312.40 0.07680824
312.50 0.07703016
312.60 0.07724945
312.70 0.07746844
312.80 0.07768713
312.90 0.07790508
313.00 0.07812225
313.10 0.07833912
313.20 0.0785557
313.30 0.07877241
313.40 0.07899001
313.50 0.07920733
313.60 0.07942434
313.70 0.07964107
313.80 0.0798575
313.90 0.08007364
314.00 0.08028949
314.10 0.0805163
314.20 0.08074281
314.30 0.08096901
314.40 0.08119491
314.50 0.08142051
314.60 0.0816458
314.70 0.08187079
314.80 0.08209492
314.90 0.08231042
315.00 0.0825183
315.10 0.08274381
315.20 0.08296902
315.30 0.08319393
315.40 0.08341853
315.50 0.08364283
315.60 0.08386684
315.70 0.08410118
315.80 0.08433522
315.90 0.08456894
316.00 0.08480235
316.10 0.08502483
316.20 0.085247
316.30 0.0854901
316.40 0.08571167
316.50 0.08595413
316.60 0.08617509
316.70 0.08641692
316.80 0.08665842
316.90 0.08688903
317.00 0.08711934
317.10 0.08734934
317.20 0.08757903
317.30 0.0878146
317.40 0.08805144
317.50 0.08829251
317.60 0.08853326
317.70 0.08877369
317.80 0.0890138
317.90 0.08923412
318.00 0.08948195
318.10 0.08971934
318.20 0.0899564
318.30 0.09019316
318.40 0.0904296
318.50 0.09066572
318.60 0.09090697
318.70 0.09116335
318.80 0.09137972
318.90 0.09163337
319.00 0.09188334
319.10 0.09211756
319.20 0.09235302
319.30 0.09259256
319.40 0.09283179
319.50 0.09307069
319.60 0.09332995
319.70 0.0935792
319.80 0.09382812
319.90 0.0940767
320.00 0.09431686
320.10 0.09454791
320.20 0.0947966
320.30 0.09503973
320.40 0.09530706
320.50 0.09554098
320.60 0.09579111
320.70 0.09604091
320.80 0.09629038
320.90 0.09653952
321.00 0.09678834
321.10 0.09703682
321.20 0.09730058
321.30 0.09755302
321.40 0.09780513
321.50 0.0980569
321.60 0.09830835
321.70 0.09855946
321.80 0.0988067
321.90 0.09904978
322.00 0.09931882
322.10 0.09957775
322.20 0.09983633
322.30 0.1000946
322.40 0.1003525
322.50 0.10061
322.60 0.1008673
322.70 0.1011242
322.80 0.1013529
322.90 0.1016155
323.00 0.1018778
323.10 0.1021397
323.20 0.1024013
323.30 0.1026626
323.40 0.1029235
323.50 0.103184
323.60 0.1034443
323.70 0.1037041
323.80 0.1039637
323.90 0.1042229
324.00 0.1044937
324.10 0.1047642
324.20 0.1050343
324.30 0.1052978
324.40 0.1055532
324.50 0.1058191
324.60 0.1060847
324.70 0.1063499
324.80 0.1066148
324.90 0.1068794
325.00 0.1071436
325.10 0.1074074
325.20 0.1076729
325.30 0.1079421
325.40 0.108211
325.50 0.1084832
325.60 0.1087594
325.70 0.1090354
325.80 0.1093109
325.90 0.1095854
326.00 0.1098589
326.10 0.1101321
326.20 0.1104049
326.30 0.1106711
326.40 0.1109195
326.50 0.1111999
326.60 0.1114798
326.70 0.1117594
326.80 0.1120387
326.90 0.1123176
327.00 0.1125961
327.10 0.1128742
327.20 0.113152
327.30 0.1134295
327.40 0.1137065
327.50 0.1139832
327.60 0.1142596
327.70 0.1145356
327.80 0.1148112
327.90 0.1150863
328.00 0.1153627
328.10 0.1156408
328.20 0.1159185
328.30 0.1161959
328.40 0.1164729
328.50 0.1167552
328.60 0.1170385
328.70 0.1173215
328.80 0.1176062
328.90 0.1178969
329.00 0.1181871
329.10 0.118477
329.20 0.1187666
329.30 0.1190557
329.40 0.1193445
329.50 0.1196329
329.60 0.1199209
329.70 0.1202086
329.80 0.1204959
329.90 0.1207828
330.00 0.1210709
330.10 0.1213606
330.20 0.1216499
330.30 0.1219389
330.40 0.1222295
330.50 0.122522
330.60 0.122814
330.70 0.1231057
330.80 0.123397
330.90 0.123688
331.00 0.1239786
331.10 0.1242687
331.20 0.1245586
331.30 0.124848
331.40 0.1251371
331.50 0.1254294
331.60 0.1257259
331.70 0.1260219
331.80 0.1263252
331.90 0.1266284
332.00 0.1269313
332.10 0.1272337
332.20 0.1275358
332.30 0.1278374
332.40 0.1281387
332.50 0.1284396
332.60 0.1287402
332.70 0.1290403
332.80 0.12934
332.90 0.1296394
333.00 0.1299384
333.10 0.1302397
333.20 0.1305438
333.30 0.1308476
333.40 0.131151
333.50 0.131454
333.60 0.1317566
333.70 0.1320588
333.80 0.1323606
333.90 0.1326621
334.00 0.1329631
334.10 0.1332667
334.20 0.1335733
334.30 0.1338795
334.40 0.1341854
334.50 0.1344909
334.60 0.1347959
334.70 0.1351076
334.80 0.1354232
334.90 0.1357324
335.00 0.1360411
335.10 0.136363
335.20 0.1366595
335.30 0.1369933
335.40 0.1372889
335.50 0.1375889
335.60 0.1379167
335.70 0.1382197
335.80 0.1385326
335.90 0.1388494
336.00 0.139171
336.10 0.1394921
336.20 0.1398128
336.30 0.1401317
336.40 0.1404485
336.50 0.1407649
336.60 0.1410809
336.70 0.1413965
336.80 0.1417117
336.90 0.1420302
337.00 0.142353
337.10 0.1426754
337.20 0.1429973
337.30 0.1433191
337.40 0.1436408
337.50 0.1439621
337.60 0.144283
337.70 0.1446035
337.80 0.1449236
337.90 0.1452456
338.00 0.1455701
338.10 0.1458942
338.20 0.1462178
338.30 0.1465411
338.40 0.1468651
338.50 0.1471913
338.60 0.1475171
338.70 0.1478425
338.80 0.1481675
338.90 0.1484921
339.00 0.1488163
339.10 0.1491401
339.20 0.1494634
339.30 0.1497953
339.40 0.1501394
339.50 0.1504793
339.60 0.150814
339.70 0.1511484
339.80 0.1514823
339.90 0.1518158
340.00 0.1521489
340.10 0.1524815
340.20 0.1528138
340.30 0.1531456
340.40 0.153477
340.50 0.153808
340.60 0.1541386
340.70 0.1544688
340.80 0.154802
340.90 0.1551398
341.00 0.1554774
341.10 0.1558149
341.20 0.156152
341.30 0.1564887
341.40 0.1568249
341.50 0.1571608
341.60 0.1574962
341.70 0.1578312
341.80 0.1581698
341.90 0.158513
342.00 0.1588558
342.10 0.1591982
342.20 0.1595256
342.30 0.1598593
342.40 0.1602066
342.50 0.1605501
342.60 0.1608933
342.70 0.161236
342.80 0.1615783
342.90 0.1619202
343.00 0.1622665
343.10 0.1626181
343.20 0.1629694
343.30 0.1633202
343.40 0.1636699
343.50 0.1640183
343.60 0.1643663
343.70 0.1647138
343.80 0.1650609
343.90 0.1654076
344.00 0.1657563
344.10 0.1661081
344.20 0.1664594
344.30 0.1668103
344.40 0.1671608
344.50 0.1675108
344.60 0.1678604
344.70 0.1682096
344.80 0.1685583
344.90 0.1689066
345.00 0.1692618
345.10 0.169627
345.20 0.1699845
345.30 0.1703311
345.40 0.1706772
345.50 0.1710383
345.60 0.1714086
345.70 0.1717652
345.80 0.1721214
345.90 0.1724772
346.00 0.1728325
346.10 0.1731874
346.20 0.1735458
346.30 0.1739092
346.40 0.1742722
346.50 0.1746348
346.60 0.1749969
346.70 0.1753585
346.80 0.1757197
346.90 0.1760805
347.00 0.1764408
347.10 0.1768007
347.20 0.1771642
347.30 0.177533
347.40 0.1779013
347.50 0.1782692
347.60 0.1786367
347.70 0.1790037
347.80 0.1793702
347.90 0.1797363
348.00 0.1801019
348.10 0.1804671
348.20 0.1808319
348.30 0.1811962
348.40 0.18156
348.50 0.1819234
348.60 0.1822863
348.70 0.1826476
348.80 0.1830148
348.90 0.1833911
349.00 0.1837669
349.10 0.1841423
349.20 0.1845172
349.30 0.1848917
349.40 0.1852656
349.50 0.1856392
349.60 0.1860123
349.70 0.1863849
349.80 0.186757
349.90 0.1871288
350.00 0.1875
350.10 0.1878708
350.20 0.1882412
350.30 0.1886156
350.40 0.188996
350.50 0.1893759
350.60 0.1897554
350.70 0.1901344
350.80 0.190513
350.90 0.1908911
351.00 0.1912687
351.10 0.1916459
351.20 0.1920226
351.30 0.1923989
351.40 0.1927775
351.50 0.1931606
351.60 0.1935432
351.70 0.1939253
351.80 0.194307
351.90 0.1946882
352.00 0.195069
352.10 0.1954493
352.20 0.1958421
352.30 0.1962342
352.40 0.1966233
352.50 0.197012
352.60 0.1974001
352.70 0.1977878
352.80 0.1981751
352.90 0.1985618
353.00 0.1989481
353.10 0.199334
353.20 0.1997193
353.30 0.2001042
353.40 0.2004886
353.50 0.2008786
353.60 0.2012696
353.70 0.2016602
353.80 0.2020503
353.90 0.2024412
354.00 0.202834
354.10 0.2032263
354.20 0.2036181
354.30 0.2040094
354.40 0.2044003
354.50 0.2047907
354.60 0.2051806
354.70 0.20557
354.80 0.2059621
354.90 0.206358
355.00 0.2067535
355.10 0.2071485
355.20 0.207543
355.30 0.207941
355.40 0.2083386
355.50 0.2087358
355.60 0.2091324
355.70 0.2095317
355.80 0.209932
355.90 0.2103393
356.00 0.2107482
356.10 0.2111537
356.20 0.2115588
356.30 0.2119633
356.40 0.2123674
356.50 0.212771
356.60 0.2131741
356.70 0.2135767
356.80 0.2139788
356.90 0.2143805
357.00 0.2147816
357.10 0.2151823
357.20 0.2155825
357.30 0.2159822
357.40 0.2163829
357.50 0.2167858
357.60 0.2171881
357.70 0.21759
357.80 0.2179959
357.90 0.2184012
358.00 0.2188135
358.10 0.2192271
358.20 0.2196403
358.30 0.2200529
358.40 0.220465
358.50 0.2208767
358.60 0.2212878
358.70 0.2216985
358.80 0.2221087
358.90 0.2225183
359.00 0.222927
359.10 0.2233342
359.20 0.2237417
359.30 0.2241534
359.40 0.2245646
359.50 0.2249785
359.60 0.2253926
359.70 0.2258063
359.80 0.2262273
359.90 0.2266477
360.00 0.2270666
360.10 0.227483
360.20 0.2278989
360.30 0.2283144
360.40 0.2287293
360.50 0.2291437
360.60 0.2295453
360.70 0.2299645
360.80 0.2303832
360.90 0.2308014
361.00 0.2312321
361.10 0.2316543
361.20 0.2320683
361.30 0.2324862
361.40 0.2329263
361.50 0.2333333
361.60 0.2337665
361.70 0.2341889
361.80 0.2346129
361.90 0.2350402
362.00 0.2354671
362.10 0.23588
362.20 0.2362967
362.30 0.2367265
362.40 0.2371558
362.50 0.2375846
362.60 0.2380128
362.70 0.2384416
362.80 0.2388619
362.90 0.2392915
363.00 0.2397206
363.10 0.2401473
363.20 0.2405734
363.30 0.2410028
363.40 0.2414326
363.50 0.241862
363.60 0.2422908
363.70 0.2427156
363.80 0.243163
363.90 0.2435942
364.00 0.2440248
364.10 0.2444549
364.20 0.2448845
364.30 0.2453176
364.40 0.2457513
364.50 0.2461653
364.60 0.2466031
364.70 0.2470404
364.80 0.2474772
364.90 0.2479154
365.00 0.2483531
365.10 0.2487743
365.20 0.2492269
365.30 0.2496471
365.40 0.2500986
365.50 0.2505337
365.60 0.2509682
365.70 0.2514081
365.80 0.2518474
365.90 0.25229
366.00 0.2527331
366.10 0.2531709
366.20 0.2536081
366.30 0.2540448
366.40 0.254481
366.50 0.2549139
366.60 0.2553806
366.70 0.2558153
366.80 0.2562494
366.90 0.256687
367.00 0.2571309
367.10 0.2575743
367.20 0.2580172
367.30 0.2584596
367.40 0.2589015
367.50 0.259352
367.60 0.2598042
367.70 0.2602495
367.80 0.2606942
367.90 0.2611385
368.00 0.2615905
368.10 0.2620377
368.20 0.2624862
368.30 0.2629343
368.40 0.2633818
368.50 0.2638288
368.60 0.2642753
368.70 0.2647212
368.80 0.2651667
368.90 0.2656202
369.00 0.266081
369.10 0.2665393
369.20 0.2669926
369.30 0.2674394
369.40 0.2678856
369.50 0.2683313
369.60 0.268789
369.70 0.2692462
369.80 0.2696963
369.90 0.2701458
370.00 0.2705948
370.10 0.2710505
370.20 0.2715082
370.30 0.2719652
370.40 0.2724223
370.50 0.2728774
370.60 0.2733336
370.70 0.2737939
370.80 0.2742452
370.90 0.274696
371.00 0.2751523
371.10 0.2756081
371.20 0.2760726
371.30 0.2765366
371.40 0.2769839
371.50 0.2774476
371.60 0.2779108
371.70 0.2783734
371.80 0.2788355
371.90 0.2792971
372.00 0.2797665
372.10 0.2802293
372.20 0.2806915
372.30 0.2811532
372.40 0.2816144
372.50 0.282075
372.60 0.2825351
372.70 0.2829947
372.80 0.2834658
372.90 0.2839365
373.00 0.2843976
373.10 0.2848581
373.20 0.2853302
373.30 0.2858018
373.40 0.2862576
373.50 0.286728
373.60 0.287198
373.70 0.2876522
373.80 0.2881268
373.90 0.2885894
374.00 0.2890647
374.10 0.2895396
374.20 0.2900138
374.30 0.2904875
374.40 0.2909569
374.50 0.2914123
374.60 0.2918856
374.70 0.2923587
374.80 0.2928313
374.90 0.2933033
375.00 0.2937707
375.10 0.2942375
375.20 0.2947039
375.30 0.2951797
375.40 0.295655
375.50 0.2961297
375.60 0.2966039
375.70 0.2970775
375.80 0.2975506
375.90 0.2980231
376.00 0.2985186
376.10 0.2989942
376.20 0.2994691
376.30 0.2999434
376.40 0.3004172
376.50 0.3008851
376.60 0.3013446
376.70 0.3018035
376.80 0.3022662
376.90 0.3027327
377.00 0.3031986
377.10 0.303664
377.20 0.3041341
377.30 0.3046231
377.40 0.3051116
377.50 0.3055995
377.60 0.3060848
377.70 0.3065696
377.80 0.3070538
377.90 0.3075374
378.00 0.308052
378.10 0.3085428
378.20 0.3090322
378.30 0.3095211
378.40 0.3100094
378.50 0.3104972
378.60 0.3109844
378.70 0.311471
378.80 0.3119571
378.90 0.312445
379.00 0.3129368
379.10 0.3134806
379.20 0.3140237
379.30 0.3144977
379.40 0.3149027
379.50 0.3153072
379.60 0.3157802
379.70 0.3163357
379.80 0.3168135
379.90 0.3172907
380.00 0.3177674
380.10 0.3182436
380.20 0.3187192
380.30 0.3191943
380.40 0.3196688
380.50 0.3201428
380.60 0.3208335
380.70 0.3213305
380.80 0.3218271
380.90 0.322323
381.00 0.3228184
381.10 0.323197
381.20 0.3236157
381.30 0.3241718
381.40 0.3246855
381.50 0.3251135
381.60 0.3255958
381.70 0.3261566
381.80 0.3267083
381.90 0.3272648
382.00 0.3275298
382.10 0.3280852
382.20 0.32864
382.30 0.3291941
382.40 0.3296951
382.50 0.3301169
382.60 0.3305381
382.70 0.3311012
382.80 0.3317138
382.90 0.3322154
383.00 0.3327165
383.10 0.3332169
383.20 0.3337095
383.30 0.3341739
383.40 0.33463
383.50 0.3350739
383.60 0.3355377
383.70 0.3360466
383.80 0.3365549
383.90 0.3370626
384.00 0.3375697
384.10 0.3380763
384.20 0.3385823
384.30 0.3390877
384.40 0.3395867
384.50 0.3400793
384.60 0.3405714
384.70 0.3410629
384.80 0.3415536
384.90 0.3420674
385.00 0.3426272
385.10 0.343182
385.20 0.3436207
385.30 0.3441681
385.40 0.3446852
385.50 0.3451722
385.60 0.3456586
385.70 0.3461445
385.80 0.3466303
385.90 0.3471174
386.00 0.3476749
386.10 0.3482892
386.20 0.3487682
386.30 0.3492465
386.40 0.3498182
386.50 0.3503008
386.60 0.3508087
386.70 0.3513369
386.80 0.3518645
386.90 0.3523915
387.00 0.3527125
387.10 0.3532384
387.20 0.3538203
387.30 0.3542886
387.40 0.3548109
387.50 0.3552979
387.60 0.3558594
387.70 0.3563818
387.80 0.3569036
387.90 0.3574249
388.00 0.3579352
388.10 0.3585016
388.20 0.3589133
388.30 0.3594434
388.40 0.3599729
388.50 0.3605109
388.60 0.3610693
388.70 0.3615398
388.80 0.3620478
388.90 0.3625632
389.00 0.3631186
389.10 0.363578
389.20 0.3640863
389.30 0.3646256
389.40 0.3651561
389.50 0.3656812
389.60 0.366187
389.70 0.3666711
389.80 0.3671957
389.90 0.3677196
390.00 0.368243
390.10 0.3687657
390.20 0.3692879
390.30 0.369818
390.40 0.370357
390.50 0.3708954
390.60 0.3714333
390.70 0.3719705
390.80 0.3724577
390.90 0.3728949
391.00 0.3736108
391.10 0.3740934
391.20 0.3745914
391.30 0.3751228
391.40 0.3756238
391.50 0.3761243
391.60 0.3766242
391.70 0.3771235
391.80 0.3776223
391.90 0.37816
392.00 0.3787188
392.10 0.3792427
392.20 0.3797858
392.30 0.3803411
392.40 0.3807225
392.50 0.3813738
392.60 0.381868
392.70 0.3823616
392.80 0.3828547
392.90 0.3835551
393.00 0.3840909
393.10 0.3845633
393.20 0.384985
393.30 0.3856124
393.40 0.3862337
393.50 0.3866873
393.60 0.3872044
393.70 0.3876923
393.80 0.3881921
393.90 0.3888157
394.00 0.3894045
394.10 0.3897665
394.20 0.3902621
394.30 0.3908854
394.40 0.3913718
394.50 0.391924
394.60 0.3924869
394.70 0.3930467
394.80 0.3935972
394.90 0.3941419
395.00 0.3945481
395.10 0.3951947
395.20 0.3957236
395.30 0.3962312
395.40 0.3967383
395.50 0.3972923
395.60 0.3978633
395.70 0.3984094
395.80 0.3988898
395.90 0.3993696
396.00 0.3998767
396.10 0.40058
396.20 0.4010538
396.30 0.4015271
396.40 0.4020471
396.50 0.4027421
396.60 0.4032136
396.70 0.4036918
396.80 0.4042768
396.90 0.4047397
397.00 0.4053168
397.10 0.4057857
397.20 0.4064343
397.30 0.4070389
397.40 0.4075102
397.50 0.407981
397.60 0.408459
397.70 0.409015
397.80 0.4095703
397.90 0.4101265
398.00 0.410686
398.10 0.4112449
398.20 0.4118047
398.30 0.4123656
398.40 0.4129274
398.50 0.4135427
398.60 0.4139765
398.70 0.4144941
398.80 0.4150488
398.90 0.4156127
399.00 0.4161944
399.10 0.4165904
399.20 0.4171759
399.30 0.4177607
399.40 0.4183449
399.50 0.4189285
399.60 0.4194696
399.70 0.4199946
399.80 0.420519
399.90 0.4210429
400.00 0.4215686
400.10 0.4221738
400.20 0.4228199
400.30 0.4233531
400.40 0.4238742
400.50 0.4244617
400.60 0.424829
400.70 0.4254101
400.80 0.4258941
400.90 0.426606
401.00 0.4271152
401.10 0.4275856
401.20 0.4281425
401.30 0.4286337
401.40 0.4291894
401.50 0.4297558
401.60 0.4303225
401.70 0.4309176
401.80 0.4315407
401.90 0.4320451
402.00 0.4326131
402.10 0.4331666
402.20 0.4337384
402.30 0.4341981
402.40 0.4347137
402.50 0.4351881
402.60 0.4357856
402.70 0.4363264
402.80 0.4370254
402.90 0.4375668
403.00 0.4381338
403.10 0.4385956
403.20 0.4391854
403.30 0.4397706
403.40 0.4403836
403.50 0.4409433
403.60 0.4414828
403.70 0.4419809
403.80 0.4425652
403.90 0.4430852
404.00 0.4435546
404.10 0.4442255
404.20 0.4447852
404.30 0.4453442
404.40 0.4457846
404.50 0.4464604
404.60 0.446888
404.70 0.4475742
404.80 0.4481529
404.90 0.4486856
405.00 0.4491291
405.10 0.4496838
405.20 0.4502928
405.30 0.4509012
405.40 0.4514536
405.50 0.4520054
405.60 0.4525565
405.70 0.4531071
405.80 0.4536571
405.90 0.4542065
406.00 0.45476
406.10 0.4553128
406.20 0.4558651
406.30 0.4564168
406.40 0.4569703
406.50 0.4574928
406.60 0.458164
406.70 0.4587086
406.80 0.4592846
406.90 0.4596916
407.00 0.4602601
407.10 0.460828
407.20 0.4613952
407.30 0.4619619
407.40 0.4625279
407.50 0.4630933
407.60 0.4636581
407.70 0.4642223
407.80 0.4647859
407.90 0.4653503
408.00 0.4659582
408.10 0.4665258
408.20 0.4670885
408.30 0.4676891
408.40 0.468289
408.50 0.4687922
408.60 0.4693545
408.70 0.4699162
408.80 0.4704866
408.90 0.471109
409.00 0.4716579
409.10 0.4722062
409.20 0.4727539
409.30 0.473301
409.40 0.4738484
409.50 0.474422
409.60 0.4749949
409.70 0.4755696
409.80 0.4761529
409.90 0.4767331
410.00 0.477236
410.10 0.4778446
410.20 0.4784105
410.30 0.4789652
410.40 0.4795293
410.50 0.4801243
410.60 0.4807187
410.70 0.4813098
410.80 0.4818902
410.90 0.4824699
411.00 0.4830265
411.10 0.4835742
411.20 0.4841213
411.30 0.484683
411.40 0.485303
411.50 0.4858643
411.60 0.4864251
411.70 0.4869762
411.80 0.4874906
411.90 0.4879794
412.00 0.4886178
412.10 0.489193
412.20 0.4896427
412.30 0.490325
412.40 0.4909329
412.50 0.491354
412.60 0.4920063
412.70 0.4925665
412.80 0.4931033
412.90 0.4937386
413.00 0.4944073
413.10 0.4949576
413.20 0.4955073
413.30 0.4960564
413.40 0.4966049
413.50 0.4971504
413.60 0.4976928
413.70 0.4982583
413.80 0.4988231
413.90 0.4993874
414.00 0.4999659
414.10 0.5005908
414.20 0.5011557
414.30 0.5017793
414.40 0.5023528
414.50 0.5030189
414.60 0.5034585
414.70 0.5040796
414.80 0.5046852
414.90 0.5052433
415.00 0.5058009
415.10 0.5063578
415.20 0.5069246
415.30 0.5075238
415.40 0.5081224
415.50 0.5087189
415.60 0.5092669
415.70 0.5098142
415.80 0.5103648
415.90 0.5109266
416.00 0.5114878
416.10 0.5120517
416.20 0.5126284
416.30 0.5132044
