# Version 2.1 - nm, norm@500 to 1, cut digits, bergeron_He_7000_90.dat_7000
# Wavelength(nm)  Flambda(ergs/cm^s/s/nm)
300.00 0.9853074
300.10 0.985786
300.20 0.9862668
300.30 0.9867431
300.40 0.9871942
300.50 0.9876445
300.60 0.9880939
300.70 0.9885426
300.80 0.9889904
300.90 0.9894374
301.00 0.9898836
301.10 0.9903289
301.20 0.9907735
301.30 0.9912173
301.40 0.9916602
301.50 0.9921023
301.60 0.9925437
301.70 0.9929842
301.80 0.993424
301.90 0.9938629
302.00 0.994301
302.10 0.9947442
302.20 0.9951871
302.30 0.9956293
302.40 0.9960707
302.50 0.9965112
302.60 0.996951
302.70 0.9973899
302.80 0.9978281
302.90 0.9982655
303.00 0.998702
303.10 0.9991378
303.20 0.9995728
303.30 1.000007
303.40 1.000444
303.50 1.00088
303.60 1.001315
303.70 1.001749
303.80 1.002182
303.90 1.002615
304.00 1.003047
304.10 1.003478
304.20 1.003908
304.30 1.004337
304.40 1.004766
304.50 1.005194
304.60 1.005615
304.70 1.006035
304.80 1.006454
304.90 1.006872
305.00 1.007289
305.10 1.007706
305.20 1.008122
305.30 1.008537
305.40 1.008951
305.50 1.009365
305.60 1.009778
305.70 1.01019
305.80 1.010601
305.90 1.011012
306.00 1.011421
306.10 1.011831
306.20 1.012239
306.30 1.012646
306.40 1.013061
306.50 1.013477
306.60 1.013892
306.70 1.014307
306.80 1.014721
306.90 1.015134
307.00 1.015546
307.10 1.015958
307.20 1.016368
307.30 1.016778
307.40 1.017188
307.50 1.017596
307.60 1.018004
307.70 1.018411
307.80 1.018817
307.90 1.019223
308.00 1.019628
308.10 1.020032
308.20 1.020435
308.30 1.020838
308.40 1.02124
308.50 1.021641
308.60 1.022041
308.70 1.022441
308.80 1.02281
308.90 1.023092
309.00 1.023491
309.10 1.023889
309.20 1.024286
309.30 1.024682
309.40 1.025079
309.50 1.02548
309.60 1.025881
309.70 1.026281
309.80 1.02668
309.90 1.027079
310.00 1.027477
310.10 1.027874
310.20 1.02827
310.30 1.028666
310.40 1.029052
310.50 1.029429
310.60 1.029804
310.70 1.030179
310.80 1.030553
310.90 1.030927
311.00 1.031311
311.10 1.031694
311.20 1.032076
311.30 1.032461
311.40 1.032854
311.50 1.033246
311.60 1.033637
311.70 1.034028
311.80 1.034418
311.90 1.034807
312.00 1.035195
312.10 1.035583
312.20 1.035955
312.30 1.036262
312.40 1.036568
312.50 1.037072
312.60 1.037398
312.70 1.037724
312.80 1.038048
312.90 1.038404
313.00 1.038794
313.10 1.039183
313.20 1.039571
313.30 1.039955
313.40 1.040327
313.50 1.040698
313.60 1.041068
313.70 1.041438
313.80 1.041807
313.90 1.042175
314.00 1.042543
314.10 1.042896
314.20 1.043248
314.30 1.043599
314.40 1.04395
314.50 1.0443
314.60 1.044649
314.70 1.044998
314.80 1.045401
314.90 1.045807
315.00 1.046046
315.10 1.04643
315.20 1.046814
315.30 1.047198
315.40 1.047581
315.50 1.047963
315.60 1.048344
315.70 1.048677
315.80 1.049009
315.90 1.049341
316.00 1.049673
316.10 1.050051
316.20 1.050428
316.30 1.05071
316.40 1.051086
316.50 1.051461
316.60 1.051741
316.70 1.052115
316.80 1.052488
316.90 1.052814
317.00 1.053139
317.10 1.053463
317.20 1.053787
317.30 1.054203
317.40 1.05459
317.50 1.054896
317.60 1.055201
317.70 1.055505
317.80 1.055809
317.90 1.056131
318.00 1.056609
318.10 1.056927
318.20 1.057244
318.30 1.057561
318.40 1.057889
318.50 1.058252
318.60 1.058589
318.70 1.058856
318.80 1.059254
318.90 1.059576
319.00 1.059866
319.10 1.060225
319.20 1.060572
319.30 1.06089
319.40 1.061208
319.50 1.061525
319.60 1.061824
319.70 1.062189
319.80 1.062553
319.90 1.062916
320.00 1.06323
320.10 1.063489
320.20 1.063923
320.30 1.064191
320.40 1.06456
320.50 1.064835
320.60 1.065192
320.70 1.06554
320.80 1.065865
320.90 1.066166
321.00 1.066466
321.10 1.066766
321.20 1.067042
321.30 1.067362
321.40 1.06768
321.50 1.067999
321.60 1.068316
321.70 1.068633
321.80 1.068953
321.90 1.069277
322.00 1.069668
322.10 1.06998
322.20 1.070291
322.30 1.070602
322.40 1.070912
322.50 1.071221
322.60 1.07153
322.70 1.071838
322.80 1.072113
322.90 1.072416
323.00 1.072719
323.10 1.073021
323.20 1.073323
323.30 1.073624
323.40 1.073925
323.50 1.074225
323.60 1.074524
323.70 1.074823
323.80 1.075122
323.90 1.075419
324.00 1.07572
324.10 1.07602
324.20 1.076319
324.30 1.076608
324.40 1.07689
324.50 1.077195
324.60 1.077501
324.70 1.077805
324.80 1.078109
324.90 1.078413
325.00 1.078715
325.10 1.079018
325.20 1.07931
325.30 1.079581
325.40 1.079852
325.50 1.080148
325.60 1.080474
325.70 1.0808
325.80 1.081125
325.90 1.081421
326.00 1.081686
326.10 1.081951
326.20 1.082215
326.30 1.082494
326.40 1.082818
326.50 1.083109
326.60 1.083399
326.70 1.083689
326.80 1.083978
326.90 1.084267
327.00 1.084554
327.10 1.084842
327.20 1.085129
327.30 1.085415
327.40 1.085701
327.50 1.085986
327.60 1.086271
327.70 1.086555
327.80 1.086838
327.90 1.087077
328.00 1.087311
328.10 1.087596
328.20 1.08788
328.30 1.088164
328.40 1.088447
328.50 1.088724
328.60 1.089
328.70 1.089275
328.80 1.089549
328.90 1.08982
329.00 1.090091
329.10 1.090361
329.20 1.09063
329.30 1.090899
329.40 1.091168
329.50 1.091436
329.60 1.091703
329.70 1.09197
329.80 1.092236
329.90 1.092502
330.00 1.092764
330.10 1.093021
330.20 1.093277
330.30 1.093533
330.40 1.093793
330.50 1.094059
330.60 1.094323
330.70 1.094588
330.80 1.094851
330.90 1.095114
331.00 1.095377
331.10 1.095639
331.20 1.095901
331.30 1.096162
331.40 1.096422
331.50 1.096672
331.60 1.09691
331.70 1.097147
331.80 1.097401
331.90 1.097656
332.00 1.09791
332.10 1.098164
332.20 1.098417
332.30 1.098669
332.40 1.098922
332.50 1.099173
332.60 1.099424
332.70 1.099675
332.80 1.099925
332.90 1.100175
333.00 1.100424
333.10 1.10067
333.20 1.100913
333.30 1.101156
333.40 1.101398
333.50 1.10164
333.60 1.101881
333.70 1.102122
333.80 1.102362
333.90 1.102601
334.00 1.102841
334.10 1.103082
334.20 1.103326
334.30 1.103569
334.40 1.103812
334.50 1.104055
334.60 1.104297
334.70 1.104571
334.80 1.104856
334.90 1.105098
335.00 1.10534
335.10 1.105456
335.20 1.105723
335.30 1.105951
335.40 1.106239
335.50 1.106483
335.60 1.106664
335.70 1.106883
335.80 1.107147
335.90 1.107392
336.00 1.107613
336.10 1.107834
336.20 1.108054
336.30 1.10828
336.40 1.108514
336.50 1.108746
336.60 1.108979
336.70 1.109211
336.80 1.109442
336.90 1.109663
337.00 1.109871
337.10 1.110079
337.20 1.110286
337.30 1.110504
337.40 1.110739
337.50 1.110973
337.60 1.111206
337.70 1.11144
337.80 1.111672
337.90 1.111895
338.00 1.112104
338.10 1.112313
338.20 1.112521
338.30 1.112729
338.40 1.112939
338.50 1.113156
338.60 1.113373
338.70 1.113589
338.80 1.113804
338.90 1.114019
339.00 1.114234
339.10 1.114448
339.20 1.114662
339.30 1.114897
339.40 1.115162
339.50 1.115404
339.60 1.115615
339.70 1.115827
339.80 1.116037
339.90 1.116248
340.00 1.116458
340.10 1.116667
340.20 1.116877
340.30 1.117085
340.40 1.117293
340.50 1.117501
340.60 1.117709
340.70 1.117915
340.80 1.118109
340.90 1.118284
341.00 1.11847
341.10 1.118669
341.20 1.118867
341.30 1.119064
341.40 1.119261
341.50 1.119458
341.60 1.119655
341.70 1.119851
341.80 1.120041
341.90 1.120224
342.00 1.120407
342.10 1.120589
342.20 1.120846
342.30 1.121085
342.40 1.121254
342.50 1.121439
342.60 1.121623
342.70 1.121807
342.80 1.12199
342.90 1.122173
343.00 1.122356
343.10 1.122538
343.20 1.122719
343.30 1.1229
343.40 1.123089
343.50 1.123291
343.60 1.123493
343.70 1.123694
343.80 1.123894
343.90 1.124094
344.00 1.124289
344.10 1.124474
344.20 1.12466
344.30 1.124845
344.40 1.125014
344.50 1.125158
344.60 1.125462
344.70 1.125605
344.80 1.125749
344.90 1.125892
345.00 1.126067
345.10 1.126289
345.20 1.126482
345.30 1.126634
345.40 1.126786
345.50 1.126987
345.60 1.12721
345.70 1.127377
345.80 1.127543
345.90 1.127708
346.00 1.127874
346.10 1.128038
346.20 1.128212
346.30 1.128397
346.40 1.128581
346.50 1.128766
346.60 1.12895
346.70 1.129133
346.80 1.129316
346.90 1.129499
347.00 1.129681
347.10 1.129863
347.20 1.130038
347.30 1.130201
347.40 1.130364
347.50 1.130527
347.60 1.130689
347.70 1.130851
347.80 1.131013
347.90 1.131174
348.00 1.131335
348.10 1.131496
348.20 1.131656
348.30 1.131816
348.40 1.131975
348.50 1.132134
348.60 1.132293
348.70 1.132451
348.80 1.132609
348.90 1.132769
349.00 1.132928
349.10 1.133087
349.20 1.133245
349.30 1.133403
349.40 1.133561
349.50 1.133718
349.60 1.133875
349.70 1.134031
349.80 1.134188
349.90 1.134343
350.00 1.134499
350.10 1.134654
350.20 1.134809
350.30 1.134961
350.40 1.135108
350.50 1.135255
350.60 1.135402
350.70 1.135549
350.80 1.135695
350.90 1.135841
351.00 1.135986
351.10 1.136131
351.20 1.136276
351.30 1.136421
351.40 1.136569
351.50 1.136723
351.60 1.136877
351.70 1.137031
351.80 1.137184
351.90 1.137337
352.00 1.13749
352.10 1.137642
352.20 1.137813
352.30 1.137974
352.40 1.138116
352.50 1.138257
352.60 1.138399
352.70 1.13854
352.80 1.13868
352.90 1.13882
353.00 1.13896
353.10 1.1391
353.20 1.139239
353.30 1.139378
353.40 1.139517
353.50 1.139657
353.60 1.139796
353.70 1.139936
353.80 1.140075
353.90 1.140212
354.00 1.140344
354.10 1.140476
354.20 1.140607
354.30 1.140739
354.40 1.14087
354.50 1.141
354.60 1.141131
354.70 1.141261
354.80 1.141381
354.90 1.141488
355.00 1.141594
355.10 1.1417
355.20 1.141806
355.30 1.141929
355.40 1.142051
355.50 1.142173
355.60 1.142295
355.70 1.142421
355.80 1.142549
355.90 1.142688
356.00 1.142819
356.10 1.142942
356.20 1.143065
356.30 1.143188
356.40 1.14331
356.50 1.143432
356.60 1.143554
356.70 1.143675
356.80 1.143796
356.90 1.143917
357.00 1.144037
357.10 1.144157
357.20 1.144277
357.30 1.144396
357.40 1.144512
357.50 1.144621
357.60 1.14473
357.70 1.144839
357.80 1.145005
357.90 1.145172
358.00 1.145293
358.10 1.145403
358.20 1.145513
358.30 1.145622
358.40 1.145731
358.50 1.145839
358.60 1.145948
358.70 1.146056
358.80 1.146164
358.90 1.146271
359.00 1.146371
359.10 1.146456
359.20 1.146546
359.30 1.146663
359.40 1.14678
359.50 1.146879
359.60 1.146973
359.70 1.147067
359.80 1.147205
359.90 1.147342
360.00 1.147465
360.10 1.147562
360.20 1.147658
360.30 1.147755
360.40 1.14785
360.50 1.147946
360.60 1.148029
360.70 1.148156
360.80 1.148283
360.90 1.14841
361.00 1.148449
361.10 1.148562
361.20 1.148732
361.30 1.148792
361.40 1.148881
361.50 1.14897
361.60 1.149058
361.70 1.149147
361.80 1.149239
361.90 1.149337
362.00 1.149436
362.10 1.149509
362.20 1.149586
362.30 1.149679
362.40 1.149771
362.50 1.149864
362.60 1.149956
362.70 1.150106
362.80 1.150271
362.90 1.150353
363.00 1.150434
363.10 1.150521
363.20 1.150609
363.30 1.150693
363.40 1.150777
363.50 1.15086
363.60 1.150943
363.70 1.15101
363.80 1.151108
363.90 1.15119
364.00 1.151272
364.10 1.151354
364.20 1.151435
364.30 1.151516
364.40 1.151597
364.50 1.151685
364.60 1.151763
364.70 1.151841
364.80 1.151918
364.90 1.151998
365.00 1.152077
365.10 1.152156
365.20 1.152235
365.30 1.152313
365.40 1.152392
365.50 1.15247
365.60 1.152547
365.70 1.152625
365.80 1.152702
365.90 1.152779
366.00 1.152856
366.10 1.152955
366.20 1.153054
366.30 1.153152
366.40 1.15325
366.50 1.15323
366.60 1.153311
366.70 1.153429
366.80 1.153546
366.90 1.15364
367.00 1.153694
367.10 1.153748
367.20 1.153801
367.30 1.153854
367.40 1.153907
367.50 1.153976
367.60 1.154049
367.70 1.154121
367.80 1.154194
367.90 1.154266
368.00 1.154337
368.10 1.154402
368.20 1.15447
368.30 1.154538
368.40 1.154606
368.50 1.154674
368.60 1.154742
368.70 1.154809
368.80 1.154876
368.90 1.154961
369.00 1.155038
369.10 1.155103
369.20 1.155178
369.30 1.155247
369.40 1.155315
369.50 1.155383
369.60 1.155447
369.70 1.155511
369.80 1.15556
369.90 1.155608
370.00 1.155657
370.10 1.155643
370.20 1.155707
370.30 1.155773
370.40 1.155839
370.50 1.155905
370.60 1.15597
370.70 1.156042
370.80 1.156104
370.90 1.156165
371.00 1.156233
371.10 1.156301
371.20 1.156361
371.30 1.156422
371.40 1.156457
371.50 1.156498
371.60 1.15654
371.70 1.156581
371.80 1.156622
371.90 1.156663
372.00 1.156732
372.10 1.156793
372.20 1.156832
372.30 1.156871
372.40 1.15691
372.50 1.156948
372.60 1.156986
372.70 1.157024
372.80 1.157081
372.90 1.157138
373.00 1.157201
373.10 1.157264
373.20 1.157324
373.30 1.157383
373.40 1.157442
373.50 1.157501
373.60 1.157492
373.70 1.157482
373.80 1.157583
373.90 1.157598
374.00 1.157656
374.10 1.157713
374.20 1.157771
374.30 1.157828
374.40 1.157885
374.50 1.157935
374.60 1.157959
374.70 1.157983
374.80 1.158007
374.90 1.158031
375.00 1.158086
375.10 1.158141
375.20 1.158197
375.30 1.158232
375.40 1.158268
375.50 1.158303
375.60 1.158338
375.70 1.158373
375.80 1.158408
375.90 1.158442
376.00 1.158489
376.10 1.158514
376.20 1.15854
376.30 1.158565
376.40 1.15859
376.50 1.158616
376.60 1.158645
376.70 1.158674
376.80 1.158708
376.90 1.158745
377.00 1.158782
377.10 1.15882
377.20 1.15885
377.30 1.158857
377.40 1.158865
377.50 1.158871
377.60 1.158893
377.70 1.158914
377.80 1.158935
377.90 1.158955
378.00 1.158981
378.10 1.159012
378.20 1.159042
378.30 1.159072
378.40 1.159103
378.50 1.159132
378.60 1.159162
378.70 1.159192
378.80 1.159221
378.90 1.159265
379.00 1.159337
379.10 1.159358
379.20 1.159378
379.30 1.15938
379.40 1.159363
379.50 1.159345
379.60 1.159355
379.70 1.159402
379.80 1.15943
379.90 1.159458
380.00 1.159486
380.10 1.159514
380.20 1.159541
380.30 1.159568
380.40 1.159595
380.50 1.159622
380.60 1.15953
380.70 1.159544
380.80 1.159558
380.90 1.159572
381.00 1.159586
381.10 1.159629
381.20 1.159643
381.30 1.159683
381.40 1.159708
381.50 1.1597
381.60 1.159715
381.70 1.159759
381.80 1.159796
381.90 1.159708
382.00 1.15975
382.10 1.159791
382.20 1.159806
382.30 1.159782
382.40 1.159773
382.50 1.159785
382.60 1.159797
382.70 1.159831
382.80 1.159859
382.90 1.159855
383.00 1.159851
383.10 1.159847
383.20 1.159851
383.30 1.159887
383.40 1.159887
383.50 1.159834
383.60 1.159927
383.70 1.159933
383.80 1.159938
383.90 1.159943
384.00 1.159948
384.10 1.159952
384.20 1.159957
384.30 1.159961
384.40 1.15996
384.50 1.159954
384.60 1.159947
384.70 1.159941
384.80 1.159934
384.90 1.159928
385.00 1.159929
385.10 1.159926
385.20 1.159875
385.30 1.15992
385.40 1.159939
385.50 1.159931
385.60 1.159923
385.70 1.159915
385.80 1.159907
385.90 1.1599
386.00 1.159867
386.10 1.159815
386.20 1.159852
386.30 1.159888
386.40 1.159857
386.50 1.159848
386.60 1.159863
386.70 1.159801
386.80 1.159803
386.90 1.159835
387.00 1.159811
387.10 1.159844
387.20 1.159765
387.30 1.159782
387.40 1.159812
387.50 1.159811
387.60 1.159745
387.70 1.159745
387.80 1.159745
387.90 1.159744
388.00 1.159741
388.10 1.159707
388.20 1.159708
388.30 1.159669
388.40 1.159629
388.50 1.159626
388.60 1.159657
388.70 1.159556
388.80 1.159579
388.90 1.159608
389.00 1.159549
389.10 1.159529
389.20 1.159499
389.30 1.15948
389.40 1.159525
389.50 1.159524
389.60 1.159464
389.70 1.159446
389.80 1.159424
389.90 1.159401
390.00 1.159378
390.10 1.159355
390.20 1.159331
390.30 1.15931
390.40 1.159291
390.50 1.159272
390.60 1.159253
390.70 1.159233
390.80 1.159207
390.90 1.159174
391.00 1.159142
391.10 1.15915
391.20 1.159137
391.30 1.159082
391.40 1.159066
391.50 1.15905
391.60 1.159035
391.70 1.159019
391.80 1.159003
391.90 1.158987
392.00 1.158954
392.10 1.158896
392.20 1.158846
392.30 1.158861
392.40 1.158852
392.50 1.158783
392.60 1.158806
392.70 1.158707
392.80 1.158731
392.90 1.158672
393.00 1.158669
393.10 1.15864
393.20 1.158585
393.30 1.158547
393.40 1.15852
393.50 1.158534
393.60 1.158484
393.70 1.158459
393.80 1.158475
393.90 1.158436
394.00 1.158383
394.10 1.158265
394.20 1.158234
394.30 1.158243
394.40 1.15824
394.50 1.158211
394.60 1.158167
394.70 1.158127
394.80 1.158097
394.90 1.158066
395.00 1.158003
395.10 1.157983
395.20 1.157947
395.30 1.157914
395.40 1.157881
395.50 1.157839
395.60 1.157795
395.70 1.157748
395.80 1.157695
395.90 1.157642
396.00 1.157594
396.10 1.157586
396.20 1.157544
396.30 1.157519
396.40 1.157417
396.50 1.157435
396.60 1.157333
396.70 1.157357
396.80 1.157331
396.90 1.157248
397.00 1.157242
397.10 1.157159
397.20 1.157144
397.30 1.157077
397.40 1.157022
397.50 1.156968
397.60 1.156915
397.70 1.156885
397.80 1.156855
397.90 1.156826
398.00 1.156799
398.10 1.156773
398.20 1.156716
398.30 1.156624
398.40 1.156534
398.50 1.156504
398.60 1.156446
398.70 1.156396
398.80 1.156351
398.90 1.156303
399.00 1.156252
399.10 1.156197
399.20 1.156163
399.30 1.156129
399.40 1.156094
399.50 1.15606
399.60 1.156015
399.70 1.155966
399.80 1.155917
399.90 1.155868
400.00 1.155819
400.10 1.155787
400.20 1.155724
400.30 1.155663
400.40 1.155599
400.50 1.155515
400.60 1.155443
400.70 1.155397
400.80 1.155394
400.90 1.155289
401.00 1.155239
401.10 1.155196
401.20 1.155148
401.30 1.155113
401.40 1.155067
401.50 1.155014
401.60 1.154958
401.70 1.154834
401.80 1.15475
401.90 1.154705
402.00 1.154656
402.10 1.15465
402.20 1.154559
402.30 1.154505
402.40 1.154454
402.50 1.154343
402.60 1.154366
402.70 1.154247
402.80 1.154199
402.90 1.154104
403.00 1.154056
403.10 1.154054
403.20 1.153964
403.30 1.153929
403.40 1.153867
403.50 1.153776
403.60 1.153685
403.70 1.153646
403.80 1.153555
403.90 1.153512
404.00 1.153459
404.10 1.153334
404.20 1.153285
404.30 1.153236
404.40 1.153139
404.50 1.153137
404.60 1.15303
404.70 1.153038
404.80 1.152944
404.90 1.152823
405.00 1.152822
405.10 1.152706
405.20 1.152549
405.30 1.152392
405.40 1.1524
405.50 1.152407
405.60 1.152414
405.70 1.152421
405.80 1.152428
405.90 1.152435
406.00 1.152329
406.10 1.152224
406.20 1.152118
406.30 1.152012
406.40 1.151893
406.50 1.151615
406.60 1.151905
406.70 1.151696
406.80 1.151577
406.90 1.151364
407.00 1.151256
407.10 1.151147
407.20 1.151038
407.30 1.15093
407.40 1.150821
407.50 1.150712
407.60 1.150603
407.70 1.150495
407.80 1.150386
407.90 1.150282
408.00 1.150339
408.10 1.150273
408.20 1.150301
408.30 1.150478
408.40 1.150654
408.50 1.15029
408.60 1.150119
408.70 1.149949
408.80 1.149878
408.90 1.150409
409.00 1.150281
409.10 1.150153
409.20 1.150025
409.30 1.149897
409.40 1.149768
409.50 1.149605
409.60 1.149443
409.70 1.149304
409.80 1.149263
409.90 1.149206
410.00 1.148645
410.10 1.149023
410.20 1.149002
410.30 1.148881
410.40 1.148744
410.50 1.148554
410.60 1.148364
410.70 1.148191
410.80 1.148086
410.90 1.147981
411.00 1.148009
411.10 1.148085
411.20 1.148161
411.30 1.14811
411.40 1.147564
411.50 1.147401
411.60 1.147238
411.70 1.147108
411.80 1.14711
411.90 1.146999
412.00 1.147557
412.10 1.147001
412.20 1.147558
412.30 1.147002
412.40 1.146486
412.50 1.147002
412.60 1.146446
412.70 1.146583
412.80 1.146892
412.90 1.147002
413.00 1.146552
413.10 1.146437
413.20 1.146322
413.30 1.146207
413.40 1.146092
413.50 1.14589
413.60 1.145468
413.70 1.145468
413.80 1.145467
413.90 1.145466
414.00 1.145465
414.10 1.145464
414.20 1.14533
414.30 1.144887
414.40 1.145327
414.50 1.144775
414.60 1.145324
414.70 1.144771
414.80 1.144351
414.90 1.14435
415.00 1.144348
415.10 1.144346
415.20 1.144294
415.30 1.144085
415.40 1.143876
415.50 1.14368
415.60 1.143916
415.70 1.144151
415.80 1.144283
415.90 1.144093
416.00 1.143903
416.10 1.143746
416.20 1.143721
416.30 1.143695
416.40 1.143669
416.50 1.143628
416.60 1.143079
416.70 1.142612
416.80 1.143072
416.90 1.142524
417.00 1.143064
417.10 1.142533
417.20 1.142529
417.30 1.14252
417.40 1.142357
417.50 1.142193
417.60 1.141953
417.70 1.141423
417.80 1.141418
417.90 1.141414
418.00 1.14141
418.10 1.141405
418.20 1.141401
418.30 1.14138
418.40 1.140947
418.50 1.140871
418.60 1.140795
418.70 1.14072
418.80 1.140644
418.90 1.140568
419.00 1.140492
419.10 1.140415
419.20 1.140339
419.30 1.14026
419.40 1.140097
419.50 1.139934
419.60 1.139767
419.70 1.139587
419.80 1.139407
419.90 1.139266
420.00 1.139249
420.10 1.139232
420.20 1.139215
420.30 1.139198
420.40 1.139181
420.50 1.139163
420.60 1.139145
420.70 1.139128
420.80 1.13911
420.90 1.139088
421.00 1.138931
421.10 1.138774
421.20 1.138597
421.30 1.138361
421.40 1.138125
421.50 1.137889
421.60 1.137653
421.70 1.137418
421.80 1.137182
421.90 1.136999
422.00 1.136981
422.10 1.136993
422.20 1.137124
422.30 1.137256
422.40 1.137378
422.50 1.137215
422.60 1.137051
422.70 1.136888
422.80 1.136725
422.90 1.136562
423.00 1.136399
423.10 1.136236
423.20 1.136073
423.30 1.13591
423.40 1.135747
423.50 1.135584
423.60 1.135421
423.70 1.135258
423.80 1.135095
423.90 1.134932
424.00 1.134769
424.10 1.134607
424.20 1.134444
424.30 1.134281
424.40 1.13509
424.50 1.134873
424.60 1.134657
424.70 1.134441
