# Version 2.1 - nm, norm@500 to 1, cut digits, bergeron_He_11000_90.dat_11000
# Wavelength(nm)  Flambda(ergs/cm^s/s/nm)
300.00 2.319915
300.10 2.319254
300.20 2.318591
300.30 2.317928
300.40 2.317262
300.50 2.316597
300.60 2.315933
300.70 2.315268
300.80 2.314604
300.90 2.313941
301.00 2.313278
301.10 2.312615
301.20 2.311952
301.30 2.31129
301.40 2.310628
301.50 2.309967
301.60 2.309306
301.70 2.308645
301.80 2.307985
301.90 2.307325
302.00 2.306666
302.10 2.306006
302.20 2.305346
302.30 2.304686
302.40 2.304027
302.50 2.303368
302.60 2.30271
302.70 2.302052
302.80 2.301394
302.90 2.300737
303.00 2.30008
303.10 2.299423
303.20 2.298767
303.30 2.298111
303.40 2.297459
303.50 2.296807
303.60 2.296155
303.70 2.295504
303.80 2.294853
303.90 2.294202
304.00 2.293552
304.10 2.292902
304.20 2.292252
304.30 2.291603
304.40 2.290954
304.50 2.290306
304.60 2.289641
304.70 2.288976
304.80 2.28831
304.90 2.287645
305.00 2.28698
305.10 2.286316
305.20 2.285652
305.30 2.284988
305.40 2.284325
305.50 2.283662
305.60 2.283
305.70 2.282338
305.80 2.281676
305.90 2.281015
306.00 2.280354
306.10 2.279693
306.20 2.279033
306.30 2.278373
306.40 2.27768
306.50 2.276978
306.60 2.276276
306.70 2.275575
306.80 2.274874
306.90 2.274173
307.00 2.273473
307.10 2.272773
307.20 2.272074
307.30 2.271375
307.40 2.270677
307.50 2.269979
307.60 2.269281
307.70 2.268584
307.80 2.267887
307.90 2.267191
308.00 2.266495
308.10 2.2658
308.20 2.265105
308.30 2.26441
308.40 2.263716
308.50 2.263022
308.60 2.262329
308.70 2.261636
308.80 2.260934
308.90 2.260202
309.00 2.259593
309.10 2.258984
309.20 2.258376
309.30 2.257768
309.40 2.257147
309.50 2.25645
309.60 2.255753
309.70 2.255057
309.80 2.254361
309.90 2.253665
310.00 2.25297
310.10 2.252275
310.20 2.251581
310.30 2.250887
310.40 2.250151
310.50 2.249368
310.60 2.248586
310.70 2.247804
310.80 2.247023
310.90 2.246243
311.00 2.24565
311.10 2.245058
311.20 2.244466
311.30 2.243836
311.40 2.243096
311.50 2.242357
311.60 2.241618
311.70 2.24088
311.80 2.240143
311.90 2.239406
312.00 2.238669
312.10 2.237933
312.20 2.237284
312.30 2.236678
312.40 2.235998
312.50 2.235164
312.60 2.23446
312.70 2.233757
312.80 2.233055
312.90 2.232363
313.00 2.231682
313.10 2.231001
313.20 2.230321
313.30 2.229625
313.40 2.228881
313.50 2.228138
313.60 2.227395
313.70 2.226653
313.80 2.225911
313.90 2.22517
314.00 2.224429
314.10 2.223705
314.20 2.222981
314.30 2.222257
314.40 2.221534
314.50 2.220811
314.60 2.220089
314.70 2.219368
314.80 2.218615
314.90 2.21779
315.00 2.216982
315.10 2.21624
315.20 2.215498
315.30 2.214757
315.40 2.214017
315.50 2.213277
315.60 2.212537
315.70 2.211798
315.80 2.21106
315.90 2.210322
316.00 2.209584
316.10 2.208847
316.20 2.20811
316.30 2.207374
316.40 2.206419
316.50 2.205684
316.60 2.20473
316.70 2.203996
316.80 2.203263
316.90 2.20242
317.00 2.201578
317.10 2.200737
317.20 2.199897
317.30 2.199264
317.40 2.198569
317.50 2.197697
317.60 2.196825
317.70 2.195954
317.80 2.195084
317.90 2.194276
318.00 2.193336
318.10 2.192501
318.20 2.191666
318.30 2.190832
318.40 2.189971
318.50 2.18903
318.60 2.188259
318.70 2.187471
318.80 2.186532
318.90 2.186091
319.00 2.185313
319.10 2.184808
319.20 2.184257
319.30 2.183574
319.40 2.182892
319.50 2.18221
319.60 2.181809
319.70 2.181128
319.80 2.180447
319.90 2.179767
320.00 2.179172
320.10 2.17867
320.20 2.177948
320.30 2.177555
320.40 2.176753
320.50 2.176123
320.60 2.175631
320.70 2.174916
320.80 2.174253
320.90 2.173646
321.00 2.17304
321.10 2.172434
321.20 2.171642
321.30 2.170954
321.40 2.170267
321.50 2.16958
321.60 2.168894
321.70 2.168208
321.80 2.16748
321.90 2.166708
322.00 2.166116
322.10 2.165405
322.20 2.164694
322.30 2.163983
322.40 2.163273
322.50 2.162563
322.60 2.161854
322.70 2.161145
322.80 2.160712
322.90 2.159974
323.00 2.159236
323.10 2.158499
323.20 2.157762
323.30 2.157026
323.40 2.15629
323.50 2.155555
323.60 2.15482
323.70 2.154086
323.80 2.153352
323.90 2.152619
324.00 2.151851
324.10 2.151083
324.20 2.150316
324.30 2.149544
324.40 2.148793
324.50 2.148083
324.60 2.147374
324.70 2.146666
324.80 2.145958
324.90 2.14525
325.00 2.144543
325.10 2.143836
325.20 2.14312
325.30 2.142382
325.40 2.141645
325.50 2.140883
325.60 2.140091
325.70 2.1393
325.80 2.138509
325.90 2.137751
326.00 2.137028
326.10 2.136306
326.20 2.135585
326.30 2.134882
326.40 2.134229
326.50 2.133463
326.60 2.132696
326.70 2.13193
326.80 2.131165
326.90 2.1304
327.00 2.129636
327.10 2.128873
327.20 2.12811
327.30 2.127347
327.40 2.126585
327.50 2.125823
327.60 2.125062
327.70 2.124302
327.80 2.123542
327.90 2.122907
328.00 2.122288
328.10 2.121523
328.20 2.120759
328.30 2.119995
328.40 2.119232
328.50 2.118507
328.60 2.117792
328.70 2.117078
328.80 2.116349
328.90 2.115579
329.00 2.114809
329.10 2.114041
329.20 2.113272
329.30 2.112504
329.40 2.111737
329.50 2.110971
329.60 2.110204
329.70 2.109439
329.80 2.108674
329.90 2.107909
330.00 2.107143
330.10 2.106376
330.20 2.105608
330.30 2.104842
330.40 2.104095
330.50 2.10337
330.60 2.102645
330.70 2.101921
330.80 2.101197
330.90 2.100474
331.00 2.099752
331.10 2.099029
331.20 2.098308
331.30 2.097587
331.40 2.096866
331.50 2.096118
331.60 2.095336
331.70 2.094555
331.80 2.093795
331.90 2.093036
332.00 2.092278
332.10 2.09152
332.20 2.090763
332.30 2.090006
332.40 2.08925
332.50 2.088495
332.60 2.08774
332.70 2.086985
332.80 2.086231
332.90 2.085478
333.00 2.084725
333.10 2.083962
333.20 2.083187
333.30 2.082413
333.40 2.081639
333.50 2.080865
333.60 2.080093
333.70 2.07932
333.80 2.078549
333.90 2.077778
334.00 2.077007
334.10 2.076231
334.20 2.075449
334.30 2.074667
334.40 2.073885
334.50 2.073104
334.60 2.072324
334.70 2.071678
334.80 2.071071
334.90 2.070283
335.00 2.069496
335.10 2.06862
335.20 2.067974
335.30 2.067112
335.40 2.066467
335.50 2.065773
335.60 2.064786
335.70 2.063966
335.80 2.063323
335.90 2.062636
336.00 2.061895
336.10 2.061156
336.20 2.060416
336.30 2.059663
336.40 2.058893
336.50 2.058122
336.60 2.057353
336.70 2.056584
336.80 2.055816
336.90 2.05506
337.00 2.05432
337.10 2.053581
337.20 2.052842
337.30 2.052067
337.40 2.05124
337.50 2.050414
337.60 2.049588
337.70 2.048763
337.80 2.047939
337.90 2.047142
338.00 2.046379
338.10 2.045616
338.20 2.044854
338.30 2.044092
338.40 2.04334
338.50 2.042609
338.60 2.041878
338.70 2.041148
338.80 2.040418
338.90 2.039689
339.00 2.03896
339.10 2.038232
339.20 2.037504
339.30 2.036742
339.40 2.035932
339.50 2.035132
339.60 2.034343
339.70 2.033555
339.80 2.032768
339.90 2.031981
340.00 2.031194
340.10 2.030409
340.20 2.029623
340.30 2.028839
340.40 2.028055
340.50 2.027271
340.60 2.026488
340.70 2.025706
340.80 2.024995
340.90 2.024387
341.00 2.02371
341.10 2.022949
341.20 2.022189
341.30 2.021429
341.40 2.02067
341.50 2.019912
341.60 2.019153
341.70 2.018396
341.80 2.017608
341.90 2.016782
342.00 2.015957
342.10 2.015132
342.20 2.014426
342.30 2.013653
342.40 2.012817
342.50 2.012083
342.60 2.011349
342.70 2.010615
342.80 2.009882
342.90 2.00915
343.00 2.008387
343.10 2.007586
343.20 2.006786
343.30 2.005987
343.40 2.00519
343.50 2.004396
343.60 2.003602
343.70 2.002809
343.80 2.002016
343.90 2.001224
344.00 2.000471
344.10 1.999773
344.20 1.999076
344.30 1.998379
344.40 1.997644
344.50 1.996856
344.60 1.995925
344.70 1.995128
344.80 1.99435
344.90 1.993555
345.00 1.992921
345.10 1.992136
345.20 1.991353
345.30 1.990574
345.40 1.989795
345.50 1.989009
345.60 1.988218
345.70 1.987436
345.80 1.986655
345.90 1.985874
346.00 1.985094
346.10 1.984315
346.20 1.983551
346.30 1.982809
346.40 1.982068
346.50 1.981327
346.60 1.980587
346.70 1.979848
346.80 1.979109
346.90 1.97837
347.00 1.977632
347.10 1.976894
347.20 1.976136
347.30 1.975347
347.40 1.974558
347.50 1.97377
347.60 1.972983
347.70 1.972196
347.80 1.97141
347.90 1.970624
348.00 1.969839
348.10 1.969055
348.20 1.968271
348.30 1.967487
348.40 1.966705
348.50 1.965922
348.60 1.965141
348.70 1.964504
348.80 1.963833
348.90 1.963045
349.00 1.962257
349.10 1.96147
349.20 1.960684
349.30 1.959898
349.40 1.959113
349.50 1.958328
349.60 1.957544
349.70 1.956761
349.80 1.955978
349.90 1.955195
350.00 1.954414
350.10 1.953633
350.20 1.952852
350.30 1.952081
350.40 1.951324
350.50 1.950567
350.60 1.949811
350.70 1.949056
350.80 1.948301
350.90 1.947546
351.00 1.946792
351.10 1.946039
351.20 1.945286
351.30 1.944534
351.40 1.943775
351.50 1.943003
351.60 1.942232
351.70 1.941462
351.80 1.940692
351.90 1.939922
352.00 1.939154
352.10 1.938385
352.20 1.937532
352.30 1.936711
352.40 1.935948
352.50 1.935185
352.60 1.934423
352.70 1.933661
352.80 1.9329
352.90 1.93214
353.00 1.93138
353.10 1.930621
353.20 1.929862
353.30 1.929104
353.40 1.928346
353.50 1.927576
353.60 1.926803
353.70 1.92603
353.80 1.925259
353.90 1.924486
354.00 1.923713
354.10 1.922941
354.20 1.922169
354.30 1.921397
354.40 1.920626
354.50 1.919856
354.60 1.919086
354.70 1.918317
354.80 1.91755
354.90 1.916786
355.00 1.916023
355.10 1.915261
355.20 1.914499
355.30 1.913745
355.40 1.912992
355.50 1.912239
355.60 1.911487
355.70 1.910718
355.80 1.909943
355.90 1.90906
356.00 1.908238
356.10 1.907479
356.20 1.906721
356.30 1.905963
356.40 1.905205
356.50 1.904448
356.60 1.903692
356.70 1.902936
356.80 1.902181
356.90 1.901426
357.00 1.900672
357.10 1.899918
357.20 1.899165
357.30 1.898413
357.40 1.897623
357.50 1.896766
357.60 1.89591
357.70 1.895055
357.80 1.894309
357.90 1.893563
358.00 1.892804
358.10 1.892043
358.20 1.891283
358.30 1.890523
358.40 1.889763
358.50 1.889004
358.60 1.888246
358.70 1.887488
358.80 1.886731
358.90 1.885974
359.00 1.885222
359.10 1.884479
359.20 1.883734
359.30 1.882978
359.40 1.882223
359.50 1.881429
359.60 1.880626
359.70 1.879823
359.80 1.879036
359.90 1.878249
360.00 1.877485
360.10 1.876758
360.20 1.876032
360.30 1.875306
360.40 1.874581
360.50 1.873857
360.60 1.872912
360.70 1.872128
360.80 1.871344
360.90 1.87056
361.00 1.869903
361.10 1.869176
361.20 1.868291
361.30 1.867594
361.40 1.866881
361.50 1.866202
361.60 1.865291
361.70 1.864596
361.80 1.863875
361.90 1.863108
362.00 1.862341
362.10 1.861551
362.20 1.860779
362.30 1.860046
362.40 1.859313
362.50 1.858581
362.60 1.85785
362.70 1.85707
362.80 1.856195
362.90 1.855505
363.00 1.854815
363.10 1.853948
363.20 1.85308
363.30 1.852423
363.40 1.851487
363.50 1.850719
363.60 1.850034
363.70 1.849386
363.80 1.848665
363.90 1.847887
364.00 1.847109
364.10 1.846332
364.20 1.845555
364.30 1.844737
364.40 1.843908
364.50 1.84323
364.60 1.842439
364.70 1.841649
364.80 1.840859
364.90 1.840181
365.00 1.839503
365.10 1.838661
365.20 1.837984
365.30 1.837143
365.40 1.836467
365.50 1.835627
365.60 1.834787
365.70 1.834083
365.80 1.83338
365.90 1.832584
366.00 1.831765
366.10 1.831006
366.20 1.830248
366.30 1.829491
366.40 1.828734
366.50 1.828077
366.60 1.827411
366.70 1.826663
366.80 1.825915
366.90 1.825163
367.00 1.824403
367.10 1.823644
367.20 1.822886
367.30 1.822128
367.40 1.821371
367.50 1.820572
367.60 1.819762
367.70 1.818944
367.80 1.818126
367.90 1.817309
368.00 1.816621
368.10 1.815797
368.20 1.815063
368.30 1.814333
368.40 1.813603
368.50 1.812874
368.60 1.812145
368.70 1.811417
368.80 1.810689
368.90 1.80987
369.00 1.809032
369.10 1.808231
369.20 1.807576
369.30 1.806812
369.40 1.806049
369.50 1.805287
369.60 1.80447
369.70 1.803654
369.80 1.802939
369.90 1.802225
370.00 1.801512
370.10 1.800723
370.20 1.799909
370.30 1.799098
370.40 1.798449
370.50 1.797635
370.60 1.796981
370.70 1.79618
370.80 1.795371
370.90 1.794562
371.00 1.793914
371.10 1.793269
371.20 1.792462
371.30 1.791655
371.40 1.790777
371.50 1.790051
371.60 1.789325
371.70 1.7886
371.80 1.787875
371.90 1.787151
372.00 1.786283
372.10 1.78555
372.20 1.784803
372.30 1.784056
372.40 1.783309
372.50 1.782563
372.60 1.781818
372.70 1.781073
372.80 1.780276
372.90 1.779478
373.00 1.778841
373.10 1.778205
373.20 1.77741
373.30 1.776616
373.40 1.775822
373.50 1.775187
373.60 1.774395
373.70 1.773445
373.80 1.77288
373.90 1.772178
374.00 1.771388
374.10 1.770598
374.20 1.769809
374.30 1.769021
374.40 1.768272
374.50 1.767445
374.60 1.766735
374.70 1.766028
374.80 1.765321
374.90 1.764615
375.00 1.763883
375.10 1.763151
375.20 1.76242
375.30 1.761659
375.40 1.760899
375.50 1.76014
375.60 1.759381
375.70 1.758623
375.80 1.757865
375.90 1.757108
376.00 1.756173
376.10 1.755441
376.20 1.754711
376.30 1.753982
376.40 1.753253
376.50 1.752529
376.60 1.751813
376.70 1.751097
376.80 1.750346
376.90 1.749562
377.00 1.748779
377.10 1.747995
377.20 1.747223
377.30 1.74649
377.40 1.745757
377.50 1.745025
377.60 1.744302
377.70 1.743579
377.80 1.742858
377.90 1.742136
378.00 1.741335
378.10 1.740591
378.20 1.739848
378.30 1.739107
378.40 1.738365
378.50 1.737625
378.60 1.736885
378.70 1.736145
378.80 1.735406
378.90 1.734685
379.00 1.733997
379.10 1.733205
379.20 1.732413
379.30 1.73161
379.40 1.730796
379.50 1.729983
379.60 1.729233
379.70 1.728556
379.80 1.727795
379.90 1.727034
380.00 1.726273
380.10 1.725513
380.20 1.724754
380.30 1.723995
380.40 1.723237
380.50 1.722479
380.60 1.721934
380.70 1.721168
380.80 1.720402
380.90 1.719637
381.00 1.718872
381.10 1.718159
381.20 1.717372
381.30 1.716528
381.40 1.715928
381.50 1.715183
381.60 1.714378
381.70 1.713558
381.80 1.712884
381.90 1.712138
382.00 1.711392
382.10 1.710497
382.20 1.709963
382.30 1.70922
382.40 1.708457
382.50 1.707667
382.60 1.706877
382.70 1.706039
382.80 1.705218
382.90 1.704467
383.00 1.703717
383.10 1.702968
383.20 1.702224
383.30 1.701502
383.40 1.700799
383.50 1.700126
383.60 1.69925
383.70 1.698483
383.80 1.697716
383.90 1.69695
384.00 1.696184
384.10 1.695419
384.20 1.694654
384.30 1.69389
384.40 1.693102
384.50 1.692291
384.60 1.691481
384.70 1.690671
384.80 1.689847
384.90 1.689014
385.00 1.688264
385.10 1.687512
385.20 1.686707
385.30 1.685982
385.40 1.685182
385.50 1.684308
385.60 1.683434
385.70 1.682562
385.80 1.681726
385.90 1.681027
386.00 1.680243
386.10 1.679362
386.20 1.678379
386.30 1.677396
386.40 1.676471
386.50 1.675603
386.60 1.674737
386.70 1.673871
386.80 1.672711
386.90 1.671847
387.00 1.670828
387.10 1.669826
387.20 1.668751
387.30 1.667801
387.40 1.666578
387.50 1.66537
387.60 1.664272
387.70 1.663047
387.80 1.661824
387.90 1.660601
388.00 1.659385
388.10 1.658265
388.20 1.656978
388.30 1.655754
388.40 1.654531
388.50 1.653349
388.60 1.652296
388.70 1.651446
388.80 1.650305
388.90 1.649457
389.00 1.649051
389.10 1.648463
389.20 1.648039
389.30 1.64773
389.40 1.647479
389.50 1.647283
389.60 1.647156
389.70 1.646956
389.80 1.646702
389.90 1.646449
390.00 1.646195
390.10 1.645941
390.20 1.645688
390.30 1.645376
390.40 1.644998
390.50 1.64462
390.60 1.644242
390.70 1.643865
390.80 1.643418
390.90 1.642903
391.00 1.642264
391.10 1.641843
391.20 1.641416
391.30 1.640896
391.40 1.640297
391.50 1.639699
391.60 1.6391
391.70 1.638503
391.80 1.637905
391.90 1.637322
392.00 1.636747
392.10 1.63616
392.20 1.635551
392.30 1.634814
392.40 1.634185
392.50 1.633623
392.60 1.633076
392.70 1.632295
392.80 1.631699
392.90 1.630922
393.00 1.630243
393.10 1.629591
393.20 1.628963
393.30 1.628277
393.40 1.62765
393.50 1.627036
393.60 1.626383
393.70 1.625667
393.80 1.624855
393.90 1.624171
394.00 1.623517
394.10 1.622936
394.20 1.622112
394.30 1.621413
394.40 1.620751
394.50 1.619929
394.60 1.619266
394.70 1.618598
394.80 1.617907
394.90 1.617223
395.00 1.616677
395.10 1.615859
395.20 1.615114
395.30 1.614389
395.40 1.613664
395.50 1.612957
395.60 1.612256
395.70 1.611548
395.80 1.610822
395.90 1.610097
396.00 1.609395
396.10 1.60887
396.20 1.608198
396.30 1.607489
396.40 1.606678
396.50 1.605868
396.60 1.605338
396.70 1.604529
396.80 1.603834
396.90 1.603191
397.00 1.602384
397.10 1.601809
397.20 1.601049
397.30 1.600291
397.40 1.599661
397.50 1.599031
397.60 1.598395
397.70 1.59769
397.80 1.596986
397.90 1.596282
398.00 1.595579
398.10 1.594877
398.20 1.594182
398.30 1.593495
398.40 1.592806
398.50 1.592006
398.60 1.591425
398.70 1.590777
398.80 1.590092
398.90 1.589368
399.00 1.588572
399.10 1.588058
399.20 1.587326
399.30 1.586594
399.40 1.585863
399.50 1.585132
399.60 1.584442
399.70 1.583766
399.80 1.583091
399.90 1.582417
400.00 1.581739
400.10 1.580949
400.20 1.580351
400.30 1.579731
400.40 1.57905
400.50 1.578341
400.60 1.577553
400.70 1.576766
400.80 1.576205
400.90 1.575467
401.00 1.574681
401.10 1.57417
401.20 1.573385
401.30 1.572601
401.40 1.571891
401.50 1.57121
401.60 1.570532
401.70 1.56996
401.80 1.569235
401.90 1.568454
402.00 1.567684
402.10 1.567166
402.20 1.566387
402.30 1.565608
402.40 1.565016
402.50 1.564325
402.60 1.563548
402.70 1.563043
402.80 1.562267
402.90 1.5616
403.00 1.56096
403.10 1.560213
403.20 1.559445
403.30 1.55888
403.40 1.558164
403.50 1.557392
403.60 1.556642
403.70 1.556119
403.80 1.555353
403.90 1.554736
404.00 1.554078
404.10 1.553309
404.20 1.552675
404.30 1.552042
404.40 1.551275
404.50 1.550508
404.60 1.549876
404.70 1.549244
404.80 1.548487
404.90 1.547983
405.00 1.547218
405.10 1.546531
405.20 1.545864
405.30 1.545197
405.40 1.544479
405.50 1.543762
405.60 1.543045
405.70 1.542329
405.80 1.541614
405.90 1.540899
406.00 1.540247
406.10 1.539596
406.20 1.538946
406.30 1.538296
406.40 1.537643
406.50 1.536886
406.60 1.536263
406.70 1.535641
406.80 1.534886
406.90 1.534134
407.00 1.53346
407.10 1.532787
407.20 1.532114
407.30 1.531441
407.40 1.530769
407.50 1.530097
407.60 1.529426
407.70 1.528755
407.80 1.528085
407.90 1.527413
408.00 1.526664
408.10 1.525916
408.20 1.525237
408.30 1.524576
408.40 1.523916
408.50 1.523193
408.60 1.522539
408.70 1.521885
408.80 1.521221
408.90 1.520502
409.00 1.519859
409.10 1.519217
409.20 1.518576
409.30 1.517935
409.40 1.517291
409.50 1.51655
409.60 1.51581
409.70 1.515094
409.80 1.514475
409.90 1.513854
410.00 1.513115
410.10 1.512377
410.20 1.511722
410.30 1.511087
410.40 1.510449
410.50 1.509799
410.60 1.50915
410.70 1.508484
410.80 1.507749
410.90 1.507015
411.00 1.506336
411.10 1.505677
411.20 1.505019
411.30 1.504346
411.40 1.503617
411.50 1.502978
411.60 1.50234
411.70 1.501684
411.80 1.500954
411.90 1.500226
412.00 1.499757
412.10 1.499029
412.20 1.498302
412.30 1.497575
412.40 1.496858
412.50 1.496382
412.60 1.495657
412.70 1.494932
412.80 1.494208
412.90 1.493494
413.00 1.493031
413.10 1.49236
413.20 1.491689
413.30 1.491018
413.40 1.490348
413.50 1.489668
413.60 1.488963
413.70 1.488308
413.80 1.487653
413.90 1.486998
414.00 1.486329
414.10 1.485611
414.20 1.484894
414.30 1.484177
414.40 1.483461
414.50 1.483001
414.60 1.482286
414.70 1.481571
414.80 1.480872
414.90 1.480222
415.00 1.479573
415.10 1.478924
415.20 1.47826
415.30 1.477548
415.40 1.476837
415.50 1.476129
415.60 1.47551
415.70 1.474892
415.80 1.474272
415.90 1.473647
416.00 1.473022
416.10 1.472381
416.20 1.471673
416.30 1.470966
416.40 1.47026
416.50 1.469558
416.60 1.468979
416.70 1.468397
416.80 1.467693
416.90 1.466989
417.00 1.466285
417.10 1.465586
417.20 1.46501
417.30 1.46443
417.40 1.463729
417.50 1.463028
417.60 1.462327
417.70 1.461628
417.80 1.460971
417.90 1.460314
418.00 1.459657
418.10 1.459001
418.20 1.458345
418.30 1.457688
418.40 1.457005
418.50 1.456363
418.60 1.455722
418.70 1.455081
418.80 1.454441
418.90 1.453801
419.00 1.453162
419.10 1.452523
419.20 1.451884
419.30 1.451244
419.40 1.450553
419.50 1.449861
419.60 1.44917
419.70 1.44848
419.80 1.44779
419.90 1.447112
420.00 1.446472
420.10 1.445832
420.20 1.445193
420.30 1.444554
420.40 1.443916
420.50 1.443278
420.60 1.44264
420.70 1.442003
420.80 1.441366
420.90 1.440729
421.00 1.440045
421.10 1.439361
421.20 1.438686
421.30 1.438039
421.40 1.437392
421.50 1.436745
421.60 1.436099
421.70 1.435453
421.80 1.434808
421.90 1.434155
422.00 1.433475
422.10 1.432811
422.20 1.432211
422.30 1.43161
422.40 1.431009
422.50 1.430356
422.60 1.429704
422.70 1.429053
422.80 1.428402
422.90 1.427751
423.00 1.427101
423.10 1.426451
423.20 1.425802
423.30 1.425154
423.40 1.424505
423.50 1.423857
423.60 1.42321
423.70 1.422563
423.80 1.421917
423.90 1.42127
424.00 1.420625
424.10 1.41998
424.20 1.419335
424.30 1.418691
424.40 1.418042
424.50 1.417399
424.60 1.416756
424.70 1.416113
424.80 1.415471
424.90 1.41483
