# Version 2.1 - nm, norm@500 to 1, cut digits, bergeron_He_22000_90.dat_22000
# Wavelength(nm)  Flambda(ergs/cm^s/s/nm)
300.00 4.586902
300.10 4.583863
300.20 4.580809
300.30 4.577703
300.40 4.574224
300.50 4.570749
300.60 4.567277
300.70 4.563809
300.80 4.560345
300.90 4.556884
301.00 4.553427
301.10 4.549973
301.20 4.546523
301.30 4.543076
301.40 4.539634
301.50 4.536194
301.60 4.532758
301.70 4.529326
301.80 4.525898
301.90 4.522473
302.00 4.519051
302.10 4.515242
302.20 4.511393
302.30 4.507548
302.40 4.503707
302.50 4.499871
302.60 4.496038
302.70 4.49221
302.80 4.488385
302.90 4.484565
303.00 4.480749
303.10 4.476937
303.20 4.473129
303.30 4.46931
303.40 4.465369
303.50 4.461432
303.60 4.457498
303.70 4.453569
303.80 4.449645
303.90 4.445724
304.00 4.441808
304.10 4.437896
304.20 4.433988
304.30 4.430084
304.40 4.426184
304.50 4.422289
304.60 4.418329
304.70 4.414367
304.80 4.410408
304.90 4.406454
305.00 4.402504
305.10 4.398558
305.20 4.394616
305.30 4.390679
305.40 4.386746
305.50 4.382817
305.60 4.378892
305.70 4.374971
305.80 4.371055
305.90 4.367143
306.00 4.363235
306.10 4.359331
306.20 4.355431
306.30 4.351536
306.40 4.347556
306.50 4.343553
306.60 4.339555
306.70 4.335562
306.80 4.331572
306.90 4.327587
307.00 4.323606
307.10 4.31963
307.20 4.315658
307.30 4.31169
307.40 4.307726
307.50 4.303766
307.60 4.299811
307.70 4.29586
307.80 4.291913
307.90 4.28797
308.00 4.284032
308.10 4.280098
308.20 4.276168
308.30 4.272242
308.40 4.26832
308.50 4.264403
308.60 4.26049
308.70 4.25658
308.80 4.25249
308.90 4.247877
309.00 4.243923
309.10 4.239973
309.20 4.236027
309.30 4.232086
309.40 4.228096
309.50 4.223793
309.60 4.219495
309.70 4.215201
309.80 4.210912
309.90 4.206628
310.00 4.202348
310.10 4.198073
310.20 4.193802
310.30 4.189536
310.40 4.185212
310.50 4.180823
310.60 4.176439
310.70 4.172059
310.80 4.167685
310.90 4.163315
311.00 4.158783
311.10 4.154256
311.20 4.149733
311.30 4.145201
311.40 4.140629
311.50 4.136063
311.60 4.131501
311.70 4.126945
311.80 4.122393
311.90 4.117847
312.00 4.113305
312.10 4.108769
312.20 4.104044
312.30 4.099313
312.40 4.094779
312.50 4.089376
312.60 4.084298
312.70 4.079227
312.80 4.074161
312.90 4.06911
313.00 4.064076
313.10 4.059047
313.20 4.054023
313.30 4.048862
313.40 4.043299
313.50 4.037741
313.60 4.03219
313.70 4.026646
313.80 4.021107
313.90 4.015575
314.00 4.010049
314.10 4.003981
314.20 3.997919
314.30 3.991865
314.40 3.985817
314.50 3.979777
314.60 3.973743
314.70 3.967716
314.80 3.961854
314.90 3.955639
315.00 3.948558
315.10 3.941734
315.20 3.934918
315.30 3.92811
315.40 3.92131
315.50 3.914517
315.60 3.907732
315.70 3.901049
315.80 3.894373
315.90 3.887705
316.00 3.881044
316.10 3.872992
316.20 3.86495
316.30 3.85524
316.40 3.842189
316.50 3.821897
316.60 3.792703
316.70 3.761873
316.80 3.731081
316.90 3.723436
317.00 3.7158
317.10 3.708174
317.20 3.700556
317.30 3.710354
317.40 3.716649
317.50 3.713006
317.60 3.709367
317.70 3.705731
317.80 3.7021
317.90 3.678656
318.00 3.647474
318.10 3.597652
318.20 3.547892
318.30 3.498193
318.40 3.430916
318.50 3.313545
318.60 3.176123
318.70 2.875492
318.80 2.2846
318.90 2.700154
319.00 2.918809
319.10 3.054831
319.20 3.172607
319.30 3.238822
319.40 3.304954
319.50 3.371002
319.60 3.42443
319.70 3.457606
319.80 3.490741
319.90 3.523833
320.00 3.551496
320.10 3.573292
320.20 3.593283
320.30 3.610629
320.40 3.627006
320.50 3.641294
320.60 3.652951
320.70 3.664267
320.80 3.67322
320.90 3.67962
321.00 3.686011
321.10 3.692394
321.20 3.697006
321.30 3.699766
321.40 3.702522
321.50 3.705274
321.60 3.708021
321.70 3.710765
321.80 3.712834
321.90 3.714174
322.00 3.715281
322.10 3.715388
322.20 3.715494
322.30 3.715599
322.40 3.715704
322.50 3.715807
322.60 3.71591
322.70 3.716012
322.80 3.716231
322.90 3.714692
323.00 3.713154
323.10 3.711617
323.20 3.710081
323.30 3.708547
323.40 3.707013
323.50 3.705481
323.60 3.70395
323.70 3.70242
323.80 3.700892
323.90 3.699364
324.00 3.697081
324.10 3.6948
324.20 3.692521
324.30 3.690244
324.40 3.687782
324.50 3.685119
324.60 3.682458
324.70 3.6798
324.80 3.677145
324.90 3.674492
325.00 3.671842
325.10 3.669195
325.20 3.666556
325.30 3.663934
325.40 3.661314
325.50 3.658504
325.60 3.65546
325.70 3.652418
325.80 3.64938
325.90 3.646488
326.00 3.643752
326.10 3.641019
326.20 3.638289
326.30 3.635474
326.40 3.632414
326.50 3.62925
326.60 3.626089
326.70 3.622931
326.80 3.619777
326.90 3.616625
327.00 3.613477
327.10 3.610332
327.20 3.60719
327.30 3.604052
327.40 3.600916
327.50 3.597784
327.60 3.594655
327.70 3.591529
327.80 3.588406
327.90 3.585248
328.00 3.5816
328.10 3.577402
328.20 3.573208
328.30 3.569019
328.40 3.564834
328.50 3.561336
328.60 3.558002
328.70 3.554671
328.80 3.55151
328.90 3.548825
329.00 3.546143
329.10 3.543464
329.20 3.540787
329.30 3.538113
329.40 3.535441
329.50 3.532772
329.60 3.530106
329.70 3.527442
329.80 3.524781
329.90 3.522122
330.00 3.519468
330.10 3.516819
330.20 3.514172
330.30 3.511528
330.40 3.508778
330.50 3.505912
330.60 3.503049
330.70 3.500189
330.80 3.497332
330.90 3.494478
331.00 3.491626
331.10 3.488778
331.20 3.485932
331.30 3.483088
331.40 3.480248
331.50 3.477375
331.60 3.474461
331.70 3.47155
331.80 3.468558
331.90 3.465567
332.00 3.462578
332.10 3.459592
332.20 3.45661
332.30 3.45363
332.40 3.450653
332.50 3.447679
332.60 3.444708
332.70 3.44174
332.80 3.438775
332.90 3.435813
333.00 3.432854
333.10 3.429802
333.20 3.426635
333.30 3.423472
333.40 3.420312
333.50 3.417155
333.60 3.414001
333.70 3.41085
333.80 3.407703
333.90 3.404558
334.00 3.401417
334.10 3.398249
334.20 3.395047
334.30 3.391849
334.40 3.388654
334.50 3.385462
334.60 3.382273
334.70 3.378747
334.80 3.374973
334.90 3.371435
335.00 3.367901
335.10 3.364128
335.20 3.361125
335.30 3.358574
335.40 3.355577
335.50 3.353577
335.60 3.350585
335.70 3.34859
335.80 3.346596
335.90 3.34438
336.00 3.341894
336.10 3.339411
336.20 3.33693
336.30 3.334451
336.40 3.331975
336.50 3.329501
336.60 3.327029
336.70 3.32456
336.80 3.322093
336.90 3.319521
337.00 3.31682
337.10 3.314122
337.20 3.311426
337.30 3.308761
337.40 3.306141
337.50 3.303523
337.60 3.300908
337.70 3.298295
337.80 3.295684
337.90 3.293116
338.00 3.290599
338.10 3.288084
338.20 3.285571
338.30 3.283061
338.40 3.280462
338.50 3.277645
338.60 3.27483
338.70 3.272019
338.80 3.269209
338.90 3.266403
339.00 3.2636
339.10 3.260799
339.20 3.258001
339.30 3.255158
339.40 3.252249
339.50 3.249387
339.60 3.246581
339.70 3.243778
339.80 3.240978
339.90 3.23818
340.00 3.235385
340.10 3.232593
340.20 3.229803
340.30 3.227017
340.40 3.224233
340.50 3.221451
340.60 3.218673
340.70 3.215897
340.80 3.213084
340.90 3.210217
341.00 3.207308
341.10 3.204346
341.20 3.201388
341.30 3.198432
341.40 3.195479
341.50 3.192529
341.60 3.189581
341.70 3.186637
341.80 3.183572
341.90 3.180359
342.00 3.17715
342.10 3.173943
342.20 3.170532
342.30 3.167104
342.40 3.163788
342.50 3.160341
342.60 3.156898
342.70 3.153458
342.80 3.150021
342.90 3.146588
343.00 3.143241
343.10 3.139998
343.20 3.136758
343.30 3.133522
343.40 3.130088
343.50 3.12637
343.60 3.122656
343.70 3.118946
343.80 3.115239
343.90 3.111536
344.00 3.107546
344.10 3.103143
344.20 3.098744
344.30 3.094349
344.40 3.090056
344.50 3.085906
344.60 3.081761
344.70 3.078114
344.80 3.07727
344.90 3.076919
345.00 3.0771
345.10 3.076725
345.20 3.076034
345.30 3.074886
345.40 3.073739
345.50 3.072309
345.60 3.070595
345.70 3.068975
345.80 3.067356
345.90 3.065738
346.00 3.064122
346.10 3.062507
346.20 3.060677
346.30 3.058537
346.40 3.056398
346.50 3.054262
346.60 3.052127
346.70 3.049995
346.80 3.047864
346.90 3.045735
347.00 3.043608
347.10 3.041484
347.20 3.039305
347.30 3.037049
347.40 3.034795
347.50 3.032542
347.60 3.030292
347.70 3.028044
347.80 3.025798
347.90 3.023555
348.00 3.021313
348.10 3.019073
348.20 3.016835
348.30 3.0146
348.40 3.012367
348.50 3.010135
348.60 3.007906
348.70 3.005542
348.80 3.003166
348.90 3.000832
349.00 2.998501
349.10 2.996171
349.20 2.993844
349.30 2.991519
349.40 2.989196
349.50 2.986875
349.60 2.984557
349.70 2.98224
349.80 2.979926
349.90 2.977614
350.00 2.975304
350.10 2.972996
350.20 2.970691
350.30 2.968332
350.40 2.965896
350.50 2.963462
350.60 2.961031
350.70 2.958602
350.80 2.956175
350.90 2.953751
351.00 2.951328
351.10 2.948909
351.20 2.946491
351.30 2.944076
351.40 2.941666
351.50 2.939264
351.60 2.936865
351.70 2.934468
351.80 2.932073
351.90 2.92968
352.00 2.92729
352.10 2.924902
352.20 2.922624
352.30 2.920258
352.40 2.917748
352.50 2.915239
352.60 2.912734
352.70 2.91023
352.80 2.90773
352.90 2.905231
353.00 2.902735
353.10 2.900241
353.20 2.897749
353.30 2.89526
353.40 2.892774
353.50 2.890322
353.60 2.887882
353.70 2.885444
353.80 2.883008
353.90 2.880577
354.00 2.878152
354.10 2.875729
354.20 2.873309
354.30 2.87089
354.40 2.868475
354.50 2.866061
354.60 2.86365
354.70 2.86124
354.80 2.858829
354.90 2.856413
355.00 2.853999
355.10 2.851587
355.20 2.849177
355.30 2.846752
355.40 2.844328
355.50 2.841907
355.60 2.839488
355.70 2.836852
355.80 2.83412
355.90 2.831232
356.00 2.828495
356.10 2.825868
356.20 2.823244
356.30 2.820622
356.40 2.818003
356.50 2.815386
356.60 2.812772
356.70 2.81016
356.80 2.807551
356.90 2.804944
357.00 2.80234
357.10 2.799738
357.20 2.797139
357.30 2.794542
357.40 2.791943
357.50 2.78934
357.60 2.786739
357.70 2.78414
357.80 2.781393
357.90 2.778648
358.00 2.775654
358.10 2.7726
358.20 2.76955
358.30 2.766502
358.40 2.763457
358.50 2.760415
358.60 2.757376
358.70 2.75434
358.80 2.751307
358.90 2.748277
359.00 2.744948
359.10 2.741086
359.20 2.737241
359.30 2.733486
359.40 2.729735
359.50 2.725793
359.60 2.721806
359.70 2.717823
359.80 2.713695
359.90 2.70957
360.00 2.705118
360.10 2.700083
360.20 2.695052
360.30 2.690026
360.40 2.685006
360.50 2.679991
360.60 2.672939
360.70 2.665654
360.80 2.658377
360.90 2.651108
361.00 2.643173
361.10 2.633506
361.20 2.624142
361.30 2.615493
361.40 2.627361
361.50 2.639473
361.60 2.644309
361.70 2.643702
361.80 2.643509
361.90 2.64405
362.00 2.644589
362.10 2.644951
362.20 2.644896
362.30 2.644184
362.40 2.643472
362.50 2.64276
362.60 2.642049
362.70 2.641214
362.80 2.640136
362.90 2.639103
363.00 2.638072
363.10 2.637007
363.20 2.635942
363.30 2.635416
363.40 2.634389
363.50 2.634209
363.60 2.634453
363.70 2.634413
363.80 2.634092
363.90 2.633851
364.00 2.63361
364.10 2.633369
364.20 2.633128
364.30 2.632672
364.40 2.632163
364.50 2.632411
364.60 2.631806
364.70 2.631201
364.80 2.630596
364.90 2.629575
365.00 2.628554
365.10 2.627114
365.20 2.625676
365.30 2.624238
365.40 2.622802
365.50 2.622204
365.60 2.621607
365.70 2.620553
365.80 2.619501
365.90 2.618145
366.00 2.616715
366.10 2.615285
366.20 2.613857
366.30 2.61243
366.40 2.611004
366.50 2.60958
366.60 2.608156
366.70 2.606419
366.80 2.604683
366.90 2.602793
367.00 2.600628
367.10 2.598465
367.20 2.596304
367.30 2.594145
367.40 2.591988
367.50 2.589324
367.60 2.586536
367.70 2.583823
367.80 2.581113
367.90 2.578405
368.00 2.575548
368.10 2.572106
368.20 2.568547
368.30 2.564991
368.40 2.561439
368.50 2.55789
368.60 2.554344
368.70 2.550802
368.80 2.547264
368.90 2.543448
369.00 2.539304
369.10 2.535207
369.20 2.531345
369.30 2.526694
369.40 2.522047
369.50 2.517406
369.60 2.512378
369.70 2.507354
369.80 2.502679
369.90 2.498013
370.00 2.49335
370.10 2.488863
370.20 2.48426
370.30 2.479656
370.40 2.47588
370.50 2.474065
370.60 2.476384
370.70 2.479158
370.80 2.481464
370.90 2.483766
371.00 2.484081
371.10 2.484375
371.20 2.485459
371.30 2.486542
371.40 2.487665
371.50 2.48859
371.60 2.489513
371.70 2.490435
371.80 2.491355
371.90 2.492274
372.00 2.493497
372.10 2.494465
372.20 2.49474
372.30 2.495014
372.40 2.495287
372.50 2.495559
372.60 2.495831
372.70 2.496103
372.80 2.495965
372.90 2.495827
373.00 2.495301
373.10 2.494771
373.20 2.493434
373.30 2.492098
373.40 2.48956
373.50 2.487025
373.60 2.486495
373.70 2.485965
373.80 2.485786
373.90 2.485707
374.00 2.485377
374.10 2.485047
374.20 2.484718
374.30 2.484388
374.40 2.484059
374.50 2.48333
374.60 2.482202
374.70 2.481077
374.80 2.479953
374.90 2.47883
375.00 2.477508
375.10 2.476187
375.20 2.474867
375.30 2.473095
375.40 2.471324
375.50 2.469555
375.60 2.467787
375.70 2.46602
375.80 2.464256
375.90 2.462492
376.00 2.460399
376.10 2.45806
376.20 2.45572
376.30 2.453383
376.40 2.451048
376.50 2.448583
376.60 2.445923
376.70 2.443265
376.80 2.440463
376.90 2.437517
377.00 2.434573
377.10 2.431632
377.20 2.428628
377.30 2.425383
377.40 2.422141
377.50 2.418902
377.60 2.415233
377.70 2.411569
377.80 2.407907
377.90 2.404249
378.00 2.400784
378.10 2.396268
378.20 2.391743
378.30 2.387223
378.40 2.382706
378.50 2.378194
378.60 2.373687
378.70 2.369184
378.80 2.364686
378.90 2.360116
379.00 2.35541
379.10 2.349498
379.20 2.343592
379.30 2.337516
379.40 2.331271
379.50 2.325033
379.60 2.318716
379.70 2.311789
379.80 2.303026
379.90 2.294271
380.00 2.285526
380.10 2.276789
380.20 2.268061
380.30 2.259342
380.40 2.250632
380.50 2.241931
380.60 2.231763
380.70 2.223751
380.80 2.215746
380.90 2.20775
381.00 2.199762
381.10 2.197645
381.20 2.192836
381.30 2.183609
381.40 2.17443
381.50 2.16462
381.60 2.154672
381.70 2.144816
381.80 2.137612
381.90 2.138409
382.00 2.133074
382.10 2.141534
382.20 2.154119
382.30 2.167149
382.40 2.178474
382.50 2.18725
382.60 2.196016
382.70 2.203448
382.80 2.207884
382.90 2.21082
383.00 2.213754
383.10 2.216684
383.20 2.219637
383.30 2.222685
383.40 2.225787
383.50 2.228972
383.60 2.231971
383.70 2.234811
383.80 2.237648
383.90 2.240482
384.00 2.243313
384.10 2.24614
384.20 2.248964
384.30 2.251785
384.40 2.25402
384.50 2.255669
384.60 2.257316
384.70 2.258962
384.80 2.260567
384.90 2.261784
385.00 2.262553
385.10 2.263308
385.20 2.263579
385.30 2.263934
385.40 2.263875
385.50 2.263402
385.60 2.26293
385.70 2.262458
385.80 2.261838
385.90 2.260666
386.00 2.259229
386.10 2.257444
386.20 2.254828
386.30 2.252214
386.40 2.249027
386.50 2.244624
386.60 2.239017
386.70 2.229819
386.80 2.213528
386.90 2.208088
387.00 2.204874
387.10 2.202616
387.20 2.19967
387.30 2.19583
387.40 2.189674
387.50 2.182033
387.60 2.17259
387.70 2.158262
387.80 2.143948
387.90 2.129649
388.00 2.113598
388.10 2.090159
388.20 2.05514
388.30 2.012635
388.40 1.970174
388.50 1.915856
388.60 1.833053
388.70 1.708331
388.80 1.467571
388.90 1.311751
389.00 1.531959
389.10 1.679134
389.20 1.775298
389.30 1.8456
389.40 1.899122
389.50 1.946177
389.60 1.982344
389.70 2.009624
389.80 2.028999
389.90 2.048353
390.00 2.067687
390.10 2.087002
390.20 2.106296
390.30 2.120725
390.40 2.129679
390.50 2.138624
390.60 2.147559
390.70 2.156485
390.80 2.163701
390.90 2.169211
391.00 2.174156
391.10 2.178014
391.20 2.181654
391.30 2.183948
391.40 2.18563
391.50 2.187311
391.60 2.18899
391.70 2.190667
391.80 2.192342
391.90 2.193342
392.00 2.193418
392.10 2.193244
392.20 2.192985
392.30 2.191867
392.40 2.190789
392.50 2.190233
392.60 2.188519
392.70 2.187277
392.80 2.185566
392.90 2.183459
393.00 2.181578
393.10 2.179567
393.20 2.177407
393.30 2.175215
393.40 2.172942
393.50 2.169988
393.60 2.1667
393.70 2.163516
393.80 2.159828
393.90 2.156209
394.00 2.152506
394.10 2.148021
394.20 2.143643
394.30 2.139036
394.40 2.134378
394.50 2.128681
394.60 2.122787
394.70 2.116664
394.80 2.109667
394.90 2.102649
395.00 2.094714
395.10 2.086461
395.20 2.077191
395.30 2.067746
395.40 2.058312
395.50 2.047156
395.60 2.035372
395.70 2.022255
395.80 2.005518
395.90 1.988797
396.00 1.971627
396.10 1.946931
396.20 1.914598
396.30 1.87874
396.40 1.829035
396.50 1.884938
396.60 1.948073
396.70 1.960113
396.80 1.95341
396.90 1.947951
397.00 1.966414
397.10 1.990249
397.20 2.004459
397.30 2.010165
397.40 2.011603
397.50 2.013039
397.60 2.014277
397.70 2.013515
397.80 2.012753
397.90 2.011584
398.00 2.009312
398.10 2.007043
398.20 2.00428
398.30 2.000962
398.40 1.997636
398.50 1.993924
398.60 1.989983
398.70 1.985163
398.80 1.980149
398.90 1.974905
399.00 1.969232
399.10 1.962808
399.20 1.95603
399.30 1.949258
399.40 1.942493
399.50 1.935734
399.60 1.928743
399.70 1.921671
399.80 1.914606
399.90 1.907548
400.00 1.900485
400.10 1.893086
400.20 1.886064
400.30 1.878133
400.40 1.870025
400.50 1.861769
400.60 1.85334
400.70 1.844056
400.80 1.834527
400.90 1.823408
401.00 1.812321
401.10 1.801316
401.20 1.789423
401.30 1.776425
401.40 1.762077
401.50 1.747323
401.60 1.732487
401.70 1.714563
401.80 1.694966
401.90 1.673234
402.00 1.65062
402.10 1.624929
402.20 1.59911
402.30 1.56986
402.40 1.535334
402.50 1.487767
402.60 1.457714
402.70 1.512498
402.80 1.554487
402.90 1.58858
403.00 1.62188
403.10 1.65267
403.20 1.68082
403.30 1.705376
403.40 1.727028
403.50 1.745561
403.60 1.763231
403.70 1.777468
403.80 1.789936
403.90 1.799568
404.00 1.808713
404.10 1.815731
404.20 1.82031
404.30 1.824883
404.40 1.827089
404.50 1.826497
404.60 1.825936
404.70 1.828106
404.80 1.831458
404.90 1.835852
405.00 1.840591
405.10 1.845139
405.20 1.849581
405.30 1.854018
405.40 1.858208
405.50 1.862393
405.60 1.866573
405.70 1.87075
405.80 1.874922
405.90 1.87909
406.00 1.882806
406.10 1.886518
406.20 1.890227
406.30 1.893932
406.40 1.897561
406.50 1.900463
406.60 1.904084
406.70 1.907331
406.80 1.910354
406.90 1.913882
407.00 1.91652
407.10 1.919155
407.20 1.921788
407.30 1.924418
407.40 1.927044
407.50 1.929669
407.60 1.93229
407.70 1.934908
407.80 1.937524
407.90 1.940118
408.00 1.942104
408.10 1.944173
408.20 1.945991
408.30 1.94766
408.40 1.949328
408.50 1.950421
408.60 1.951785
408.70 1.953147
408.80 1.954506
408.90 1.955704
409.00 1.956416
409.10 1.957127
409.20 1.957837
409.30 1.958547
409.40 1.959248
409.50 1.959705
409.60 1.960161
409.70 1.960519
409.80 1.960483
409.90 1.960458
410.00 1.960794
410.10 1.960392
410.20 1.959962
410.30 1.959526
410.40 1.958913
410.50 1.957741
410.60 1.956569
410.70 1.955227
410.80 1.953202
410.90 1.951179
411.00 1.94857
411.10 1.945748
411.20 1.942928
411.30 1.93992
411.40 1.936104
411.50 1.930729
411.60 1.925358
411.70 1.919097
411.80 1.909261
411.90 1.898248
412.00 1.87723
412.10 1.813753
412.20 1.79905
412.30 1.816572
412.40 1.831835
412.50 1.841507
412.60 1.849061
412.70 1.85476
412.80 1.859991
412.90 1.864588
413.00 1.867432
413.10 1.868999
413.20 1.870564
413.30 1.872128
413.40 1.873689
413.50 1.875028
413.60 1.875628
413.70 1.876682
413.80 1.877734
413.90 1.878786
414.00 1.879522
414.10 1.879267
414.20 1.878855
414.30 1.8786
414.40 1.877693
414.50 1.877489
414.60 1.878537
414.70 1.880558
414.80 1.882693
414.90 1.885197
415.00 1.887698
415.10 1.890196
415.20 1.892602
415.30 1.894721
415.40 1.896838
415.50 1.898945
415.60 1.900817
415.70 1.902686
415.80 1.904498
415.90 1.906135
416.00 1.90777
416.10 1.909265
416.20 1.910205
416.30 1.911145
416.40 1.912084
416.50 1.913004
416.60 1.913374
416.70 1.913754
416.80 1.913808
416.90 1.913157
417.00 1.912768
417.10 1.91329
417.20 1.913658
417.30 1.914035
417.40 1.914706
417.50 1.915376
417.60 1.915947
417.70 1.916125
417.80 1.916275
417.90 1.916426
418.00 1.916576
418.10 1.916726
418.20 1.916875
418.30 1.917016
418.40 1.916881
418.50 1.916658
418.60 1.916436
418.70 1.916213
418.80 1.915991
418.90 1.915768
419.00 1.915545
419.10 1.915323
419.20 1.9151
419.30 1.91487
419.40 1.914407
419.50 1.913943
419.60 1.913433
419.70 1.912736
419.80 1.912039
419.90 1.911351
420.00 1.910689
420.10 1.910028
420.20 1.909367
420.30 1.908707
420.40 1.908047
420.50 1.907387
420.60 1.906728
420.70 1.906069
420.80 1.905411
420.90 1.904746
421.00 1.903841
421.10 1.902937
421.20 1.902033
421.30 1.90113
421.40 1.900228
421.50 1.899327
421.60 1.898426
421.70 1.897526
421.80 1.896626
421.90 1.895653
422.00 1.894447
422.10 1.893303
422.20 1.892406
422.30 1.89151
422.40 1.890607
422.50 1.889459
422.60 1.888312
422.70 1.887165
422.80 1.88602
422.90 1.884875
423.00 1.883731
423.10 1.882589
423.20 1.881446
423.30 1.880305
423.40 1.879165
423.50 1.878026
423.60 1.876887
423.70 1.875749
423.80 1.874612
423.90 1.873477
424.00 1.872341
424.10 1.871207
424.20 1.870074
424.30 1.868941
424.40 1.867859
424.50 1.866602
424.60 1.865347
424.70 1.864093
424.80 1.86284
424.90 1.861588
425.00 1.860337
