# Version 2.1 - nm, norm@500 to 1, cut digits, bergeron_He_8500_80.dat_8500
# Wavelength(nm)  Flambda(ergs/cm^s/s/nm)
300.00 1.477575
300.10 1.477711
300.20 1.477841
300.30 1.477973
300.40 1.478123
300.50 1.478271
300.60 1.47842
300.70 1.478568
300.80 1.478715
300.90 1.478862
301.00 1.479008
301.10 1.479154
301.20 1.479299
301.30 1.479444
301.40 1.479588
301.50 1.479732
301.60 1.479875
301.70 1.480018
301.80 1.48016
301.90 1.480302
302.00 1.480443
302.10 1.480647
302.20 1.480857
302.30 1.481067
302.40 1.481276
302.50 1.481485
302.60 1.481692
302.70 1.4819
302.80 1.482106
302.90 1.482313
303.00 1.482518
303.10 1.482723
303.20 1.482927
303.30 1.48312
303.40 1.483216
303.50 1.483312
303.60 1.483407
303.70 1.483502
303.80 1.483596
303.90 1.48369
304.00 1.483783
304.10 1.483876
304.20 1.483969
304.30 1.484061
304.40 1.484153
304.50 1.484244
304.60 1.484368
304.70 1.484496
304.80 1.484623
304.90 1.48475
305.00 1.484877
305.10 1.485002
305.20 1.485128
305.30 1.485253
305.40 1.485377
305.50 1.485501
305.60 1.485624
305.70 1.485747
305.80 1.48587
305.90 1.485992
306.00 1.486113
306.10 1.486235
306.20 1.486355
306.30 1.486475
306.40 1.486594
306.50 1.486711
306.60 1.486828
306.70 1.486945
306.80 1.487061
306.90 1.487177
307.00 1.487292
307.10 1.487407
307.20 1.487522
307.30 1.487636
307.40 1.487749
307.50 1.487862
307.60 1.487974
307.70 1.488086
307.80 1.488198
307.90 1.488309
308.00 1.48842
308.10 1.48853
308.20 1.48864
308.30 1.488749
308.40 1.488858
308.50 1.488966
308.60 1.489074
308.70 1.489182
308.80 1.489412
308.90 1.48999
309.00 1.490025
309.10 1.49006
309.20 1.490094
309.30 1.490128
309.40 1.490163
309.50 1.490202
309.60 1.490241
309.70 1.49028
309.80 1.490319
309.90 1.490357
310.00 1.490394
310.10 1.490432
310.20 1.490468
310.30 1.490505
310.40 1.490569
310.50 1.490662
310.60 1.490755
310.70 1.490847
310.80 1.490939
310.90 1.491031
311.00 1.491098
311.10 1.491164
311.20 1.49123
311.30 1.491304
311.40 1.491402
311.50 1.4915
311.60 1.491597
311.70 1.491694
311.80 1.49179
311.90 1.491886
312.00 1.491981
312.10 1.492076
312.20 1.492436
312.30 1.492801
312.40 1.492902
312.50 1.4931
312.60 1.493166
312.70 1.493231
312.80 1.493295
312.90 1.493302
313.00 1.493245
313.10 1.493188
313.20 1.493131
313.30 1.493111
313.40 1.493199
313.50 1.493286
313.60 1.493373
313.70 1.49346
313.80 1.493546
313.90 1.493632
314.00 1.493717
314.10 1.493738
314.20 1.493758
314.30 1.493778
314.40 1.493798
314.50 1.493817
314.60 1.493836
314.70 1.493855
314.80 1.493933
314.90 1.494215
315.00 1.494529
315.10 1.494515
315.20 1.4945
315.30 1.494485
315.40 1.49447
315.50 1.494455
315.60 1.494439
315.70 1.494423
315.80 1.494406
315.90 1.49439
316.00 1.494373
316.10 1.494356
316.20 1.494338
316.30 1.494784
316.40 1.494766
316.50 1.494747
316.60 1.495191
316.70 1.495171
316.80 1.495152
316.90 1.495132
317.00 1.495112
317.10 1.495091
317.20 1.49507
317.30 1.495187
317.40 1.495253
317.50 1.495175
317.60 1.495097
317.70 1.495018
317.80 1.49494
317.90 1.495207
318.00 1.495133
318.10 1.495109
318.20 1.495086
318.30 1.495062
318.40 1.495157
318.50 1.495589
318.60 1.495665
318.70 1.495639
318.80 1.495614
318.90 1.495588
319.00 1.495799
319.10 1.495772
319.20 1.495759
319.30 1.495785
319.40 1.49581
319.50 1.495836
319.60 1.495649
319.70 1.495674
319.80 1.495698
319.90 1.495722
320.00 1.495721
320.10 1.495691
320.20 1.495633
320.30 1.495831
320.40 1.496072
320.50 1.49577
320.60 1.495541
320.70 1.49551
320.80 1.495587
320.90 1.495781
321.00 1.495974
321.10 1.496167
321.20 1.496063
321.30 1.496064
321.40 1.496065
321.50 1.496066
321.60 1.496067
321.70 1.496067
321.80 1.495911
321.90 1.495587
322.00 1.496015
322.10 1.495976
322.20 1.495936
322.30 1.495897
322.40 1.495857
322.50 1.495816
322.60 1.495776
322.70 1.495735
322.80 1.495516
322.90 1.495537
323.00 1.495559
323.10 1.49558
323.20 1.495601
323.30 1.495621
323.40 1.495642
323.50 1.495662
323.60 1.495681
323.70 1.4957
323.80 1.495719
323.90 1.495738
324.00 1.49576
324.10 1.495781
324.20 1.495802
324.30 1.495872
324.40 1.495952
324.50 1.495894
324.60 1.495835
324.70 1.495776
324.80 1.495717
324.90 1.495658
325.00 1.495599
325.10 1.495539
325.20 1.495497
325.30 1.495494
325.40 1.495491
325.50 1.495472
325.60 1.495435
325.70 1.495398
325.80 1.49536
325.90 1.495297
326.00 1.495207
326.10 1.495117
326.20 1.495027
326.30 1.494901
326.40 1.494676
326.50 1.494659
326.60 1.494642
326.70 1.494625
326.80 1.494608
326.90 1.49459
327.00 1.494572
327.10 1.494554
327.20 1.494535
327.30 1.494517
327.40 1.494498
327.50 1.494478
327.60 1.494459
327.70 1.494439
327.80 1.494419
327.90 1.494373
328.00 1.49434
328.10 1.494358
328.20 1.494375
328.30 1.494392
328.40 1.494409
328.50 1.494263
328.60 1.49408
328.70 1.493896
328.80 1.493751
328.90 1.493714
329.00 1.493676
329.10 1.493639
329.20 1.493601
329.30 1.493563
329.40 1.493525
329.50 1.493486
329.60 1.493448
329.70 1.493409
329.80 1.49337
329.90 1.49333
330.00 1.493288
330.10 1.49324
330.20 1.493193
330.30 1.493146
330.40 1.493094
330.50 1.493037
330.60 1.49298
330.70 1.492923
330.80 1.492866
330.90 1.492808
331.00 1.492751
331.10 1.492693
331.20 1.492635
331.30 1.492577
331.40 1.492518
331.50 1.492538
331.60 1.492654
331.70 1.49277
331.80 1.492689
331.90 1.4926
332.00 1.492511
332.10 1.492421
332.20 1.492331
332.30 1.492241
332.40 1.492151
332.50 1.492061
332.60 1.491971
332.70 1.49188
332.80 1.49179
332.90 1.491699
333.00 1.491608
333.10 1.491531
333.20 1.491471
333.30 1.491411
333.40 1.491351
333.50 1.49129
333.60 1.49123
333.70 1.491169
333.80 1.491108
333.90 1.491047
334.00 1.490986
334.10 1.490924
334.20 1.490862
334.30 1.4908
334.40 1.490738
334.50 1.490676
334.60 1.490613
334.70 1.490536
334.80 1.490374
334.90 1.490116
335.00 1.489857
335.10 1.490112
335.20 1.489636
335.30 1.489799
335.40 1.489735
335.50 1.489671
335.60 1.489607
335.70 1.48909
335.80 1.489026
335.90 1.488961
336.00 1.488897
336.10 1.488832
336.20 1.488767
336.30 1.488702
336.40 1.488636
336.50 1.488571
336.60 1.488505
336.70 1.488439
336.80 1.488373
336.90 1.488303
337.00 1.488228
337.10 1.488153
337.20 1.488078
337.30 1.488009
337.40 1.487947
337.50 1.487885
337.60 1.487823
337.70 1.487761
337.80 1.487698
337.90 1.487551
338.00 1.4873
338.10 1.487049
338.20 1.486799
338.30 1.486548
338.40 1.486353
338.50 1.486295
338.60 1.486238
338.70 1.486179
338.80 1.486121
338.90 1.486063
339.00 1.486004
339.10 1.485945
339.20 1.485886
339.30 1.485829
339.40 1.485775
339.50 1.485685
339.60 1.48555
339.70 1.485415
339.80 1.48528
339.90 1.485145
340.00 1.48501
340.10 1.484874
340.20 1.484739
340.30 1.484603
340.40 1.484468
340.50 1.484332
340.60 1.484196
340.70 1.484061
340.80 1.483957
340.90 1.483901
341.00 1.483793
341.10 1.48362
341.20 1.483448
341.30 1.483275
341.40 1.483103
341.50 1.48293
341.60 1.482757
341.70 1.482585
341.80 1.482436
341.90 1.482315
342.00 1.482195
342.10 1.482074
342.20 1.4822
342.30 1.482186
342.40 1.481982
342.50 1.481913
342.60 1.481844
342.70 1.481774
342.80 1.481704
342.90 1.481634
343.00 1.48147
343.10 1.481192
343.20 1.480913
343.30 1.480635
343.40 1.48044
343.50 1.480364
343.60 1.480288
343.70 1.480212
343.80 1.480135
343.90 1.480059
344.00 1.479982
344.10 1.479905
344.20 1.479828
344.30 1.479751
344.40 1.479674
344.50 1.479597
344.60 1.479199
344.70 1.479121
344.80 1.479043
344.90 1.478595
345.00 1.478428
345.10 1.47835
345.20 1.478276
345.30 1.478208
345.40 1.47814
345.50 1.478054
345.60 1.477905
345.70 1.477696
345.80 1.477488
345.90 1.47728
346.00 1.477072
346.10 1.476863
346.20 1.476676
346.30 1.47652
346.40 1.476363
346.50 1.476206
346.60 1.476049
346.70 1.475892
346.80 1.475735
346.90 1.475578
347.00 1.475421
347.10 1.475264
347.20 1.475124
347.30 1.475009
347.40 1.474895
347.50 1.47478
347.60 1.474665
347.70 1.47455
347.80 1.474435
347.90 1.47432
348.00 1.474204
348.10 1.474089
348.20 1.473973
348.30 1.473858
348.40 1.473742
348.50 1.473626
348.60 1.47351
348.70 1.473269
348.80 1.473028
348.90 1.472844
349.00 1.47266
349.10 1.472476
349.20 1.472292
349.30 1.472108
349.40 1.471924
349.50 1.47174
349.60 1.471556
349.70 1.471371
349.80 1.471187
349.90 1.471003
350.00 1.470819
350.10 1.470634
350.20 1.47045
350.30 1.470277
350.40 1.470122
350.50 1.469966
350.60 1.469811
350.70 1.469655
350.80 1.469499
350.90 1.469343
351.00 1.469188
351.10 1.469032
351.20 1.468876
351.30 1.46872
351.40 1.468572
351.50 1.468441
351.60 1.46831
351.70 1.468179
351.80 1.468047
351.90 1.467916
352.00 1.467784
352.10 1.467653
352.20 1.467341
352.30 1.467068
352.40 1.466879
352.50 1.466689
352.60 1.4665
352.70 1.466311
352.80 1.466121
352.90 1.465932
353.00 1.465743
353.10 1.465553
353.20 1.465364
353.30 1.465174
353.40 1.464985
353.50 1.464819
353.60 1.464659
353.70 1.464499
353.80 1.464338
353.90 1.464176
354.00 1.464011
354.10 1.463845
354.20 1.463679
354.30 1.463514
354.40 1.463348
354.50 1.463182
354.60 1.463016
354.70 1.46285
354.80 1.462688
354.90 1.462532
355.00 1.462375
355.10 1.462219
355.20 1.462063
355.30 1.461751
355.40 1.46144
355.50 1.461128
355.60 1.460817
355.70 1.460588
355.80 1.460396
355.90 1.460449
356.00 1.460376
356.10 1.460164
356.20 1.459951
356.30 1.459739
356.40 1.459527
356.50 1.459315
356.60 1.459102
356.70 1.45889
356.80 1.458678
356.90 1.458466
357.00 1.458253
357.10 1.458041
357.20 1.457829
357.30 1.457617
357.40 1.457421
357.50 1.457253
357.60 1.457086
357.70 1.456919
357.80 1.456763
357.90 1.456607
358.00 1.456424
358.10 1.456234
358.20 1.456044
358.30 1.455855
358.40 1.455665
358.50 1.455475
358.60 1.455285
358.70 1.455095
358.80 1.454905
358.90 1.454715
359.00 1.454418
359.10 1.45393
359.20 1.453482
359.30 1.453289
359.40 1.453097
359.50 1.453027
359.60 1.452987
359.70 1.452948
359.80 1.452683
359.90 1.452418
360.00 1.45215
360.10 1.451877
360.20 1.451603
360.30 1.451329
360.40 1.451056
360.50 1.450783
360.60 1.450889
360.70 1.450619
360.80 1.45035
360.90 1.45008
361.00 1.450076
361.10 1.449922
361.20 1.449435
361.30 1.449344
361.40 1.449216
361.50 1.44916
361.60 1.448614
361.70 1.448522
361.80 1.448374
361.90 1.448127
362.00 1.44788
362.10 1.447583
362.20 1.447322
362.30 1.447143
362.40 1.446963
362.50 1.446784
362.60 1.446605
362.70 1.446323
362.80 1.445839
362.90 1.445743
363.00 1.445647
363.10 1.445494
363.20 1.44534
363.30 1.445375
363.40 1.444755
363.50 1.444487
363.60 1.444394
363.70 1.443989
363.80 1.444208
363.90 1.443914
364.00 1.443621
364.10 1.443328
364.20 1.443035
364.30 1.442964
364.40 1.442948
364.50 1.442163
364.60 1.442068
364.70 1.441972
364.80 1.441876
364.90 1.441434
365.00 1.440992
365.10 1.440899
365.20 1.440805
365.30 1.440712
365.40 1.440618
365.50 1.440177
365.60 1.439736
365.70 1.439579
365.80 1.439422
365.90 1.439069
366.00 1.438668
366.10 1.438562
366.20 1.438456
366.30 1.43835
366.40 1.438244
366.50 1.437507
366.60 1.437413
366.70 1.437151
366.80 1.43689
366.90 1.436664
367.00 1.4365
367.10 1.436337
367.20 1.436173
367.30 1.436009
367.40 1.435845
367.50 1.435493
367.60 1.435093
367.70 1.434854
367.80 1.434615
367.90 1.434377
368.00 1.434372
368.10 1.433935
368.20 1.433689
368.30 1.433448
368.40 1.433207
368.50 1.432967
368.60 1.432726
368.70 1.432485
368.80 1.432245
368.90 1.43225
369.00 1.432018
369.10 1.431618
369.20 1.431527
369.30 1.431205
369.40 1.430883
369.50 1.430562
369.60 1.430463
369.70 1.430365
369.80 1.430142
369.90 1.429919
370.00 1.429695
370.10 1.429312
370.20 1.428875
370.30 1.428442
370.40 1.42835
370.50 1.428255
370.60 1.428159
370.70 1.428064
370.80 1.427629
370.90 1.427195
371.00 1.427099
371.10 1.427007
371.20 1.426573
371.30 1.42614
371.40 1.426228
371.50 1.425961
371.60 1.425693
371.70 1.425426
371.80 1.42516
371.90 1.424893
372.00 1.424323
372.10 1.424036
372.20 1.423829
372.30 1.423622
372.40 1.423415
372.50 1.423207
372.60 1.423
372.70 1.422793
372.80 1.422362
372.90 1.421931
373.00 1.421835
373.10 1.421743
373.20 1.421647
373.30 1.421551
373.40 1.420789
373.50 1.420694
373.60 1.420598
373.70 1.420501
373.80 1.419887
373.90 1.419646
374.00 1.419384
374.10 1.419122
374.20 1.41886
374.30 1.418599
374.40 1.418255
374.50 1.41839
374.60 1.418141
374.70 1.417881
374.80 1.417621
374.90 1.417361
375.00 1.417045
375.10 1.416729
375.20 1.416413
375.30 1.416129
375.40 1.415844
375.50 1.41556
375.60 1.415276
375.70 1.414992
375.80 1.414708
375.90 1.414424
376.00 1.414322
376.10 1.414
376.20 1.413677
376.30 1.413354
376.40 1.413031
376.50 1.412717
376.60 1.412418
376.70 1.412119
376.80 1.411899
376.90 1.411759
377.00 1.411619
377.10 1.411478
377.20 1.411295
377.30 1.410953
377.40 1.410611
377.50 1.410269
377.60 1.409947
377.70 1.409624
377.80 1.409302
377.90 1.40898
378.00 1.409122
378.10 1.408838
378.20 1.408543
378.30 1.408249
378.40 1.407954
378.50 1.40766
378.60 1.407366
378.70 1.407072
378.80 1.406778
378.90 1.406494
379.00 1.406231
379.10 1.406005
379.20 1.40578
379.30 1.405504
379.40 1.405179
379.50 1.404854
379.60 1.40458
379.70 1.404365
379.80 1.404095
379.90 1.403825
380.00 1.403555
380.10 1.403285
380.20 1.403016
380.30 1.402746
380.40 1.402476
380.50 1.402207
380.60 1.401649
380.70 1.401349
380.80 1.40105
380.90 1.40075
381.00 1.40045
381.10 1.400514
381.20 1.400258
381.30 1.400161
381.40 1.399541
381.50 1.399135
381.60 1.398811
381.70 1.398666
381.80 1.398405
381.90 1.398309
382.00 1.398212
382.10 1.39748
382.20 1.397511
382.30 1.397097
382.40 1.39673
382.50 1.396433
382.60 1.396135
382.70 1.395942
382.80 1.39576
382.90 1.395473
383.00 1.395187
383.10 1.3949
383.20 1.394595
383.30 1.394216
383.40 1.393878
383.50 1.393602
383.60 1.393543
383.70 1.393231
383.80 1.39292
383.90 1.392609
384.00 1.392298
384.10 1.391988
384.20 1.391677
384.30 1.391366
384.40 1.391069
384.50 1.390784
384.60 1.390499
384.70 1.390215
384.80 1.389991
384.90 1.389836
385.00 1.389383
385.10 1.388947
385.20 1.388978
385.30 1.388574
385.40 1.38823
385.50 1.387946
385.60 1.387663
385.70 1.387379
385.80 1.387081
385.90 1.386726
386.00 1.386411
386.10 1.386137
386.20 1.3859
386.30 1.385662
386.40 1.385337
386.50 1.385089
386.60 1.384993
386.70 1.384742
386.80 1.384181
386.90 1.384085
387.00 1.383695
387.10 1.383274
387.20 1.383178
387.30 1.383083
387.40 1.382529
387.50 1.382273
387.60 1.381657
387.70 1.381407
387.80 1.381157
387.90 1.380907
388.00 1.380711
388.10 1.380465
388.20 1.379949
388.30 1.379629
388.40 1.379309
388.50 1.379041
388.60 1.378932
388.70 1.378662
388.80 1.378566
388.90 1.377857
389.00 1.377762
389.10 1.377666
389.20 1.377225
389.30 1.376973
389.40 1.37658
389.50 1.376266
389.60 1.376115
389.70 1.376016
389.80 1.375725
389.90 1.375434
390.00 1.375144
390.10 1.374854
390.20 1.374563
390.30 1.374251
390.40 1.373915
390.50 1.373578
390.60 1.373242
390.70 1.372906
390.80 1.372558
390.90 1.372199
391.00 1.371749
391.10 1.371636
391.20 1.371399
391.30 1.370888
391.40 1.370592
391.50 1.370295
391.60 1.369998
391.70 1.369702
391.80 1.369405
391.90 1.369185
392.00 1.36893
392.10 1.368493
392.20 1.368124
392.30 1.368143
392.40 1.367843
392.50 1.367251
392.60 1.367051
392.70 1.366957
392.80 1.366261
392.90 1.366278
393.00 1.365902
393.10 1.365581
393.20 1.365309
393.30 1.364914
393.40 1.364493
393.50 1.364399
393.60 1.364072
393.70 1.363611
393.80 1.363544
393.90 1.36315
394.00 1.36273
394.10 1.362324
394.20 1.362239
394.30 1.361851
394.40 1.361756
394.50 1.361066
394.60 1.360709
394.70 1.360397
394.80 1.360254
394.90 1.360094
395.00 1.359492
395.10 1.359312
395.20 1.358933
395.30 1.358633
395.40 1.358332
395.50 1.358101
395.60 1.357897
395.70 1.357662
395.80 1.357349
395.90 1.357035
396.00 1.356688
396.10 1.356163
396.20 1.356069
396.30 1.355816
396.40 1.355236
396.50 1.355039
396.60 1.354945
396.70 1.354469
396.80 1.354169
396.90 1.354075
397.00 1.353393
397.10 1.353202
397.20 1.35275
397.30 1.352625
397.40 1.352313
397.50 1.352002
397.60 1.351695
397.70 1.351432
397.80 1.351168
397.90 1.350849
398.00 1.350379
398.10 1.34991
398.20 1.349568
398.30 1.349369
398.40 1.34917
398.50 1.348942
398.60 1.348387
398.70 1.348091
398.80 1.347892
398.90 1.347676
399.00 1.347432
399.10 1.346793
399.20 1.346519
399.30 1.346245
399.40 1.345971
399.50 1.345697
399.60 1.345402
399.70 1.345099
399.80 1.344797
399.90 1.344495
400.00 1.344195
400.10 1.343969
400.20 1.343417
400.30 1.343112
400.40 1.342899
400.50 1.342562
400.60 1.342103
400.70 1.341722
400.80 1.341707
400.90 1.341132
401.00 1.340946
401.10 1.340854
401.20 1.340186
401.30 1.339948
401.40 1.339737
401.50 1.339496
401.60 1.339242
401.70 1.338576
401.80 1.33836
401.90 1.338118
402.00 1.337747
402.10 1.337635
402.20 1.33697
402.30 1.336878
402.40 1.336605
402.50 1.336122
402.60 1.336031
402.70 1.335367
402.80 1.335276
402.90 1.334842
403.00 1.334465
403.10 1.334431
403.20 1.333782
403.30 1.333559
403.40 1.333464
403.50 1.333192
403.60 1.332834
403.70 1.332174
403.80 1.332093
403.90 1.331756
404.00 1.331333
404.10 1.331242
404.20 1.330867
404.30 1.330493
404.40 1.330144
404.50 1.329744
404.60 1.32937
404.70 1.328996
404.80 1.328906
404.90 1.328249
405.00 1.328159
405.10 1.327826
405.20 1.327574
405.30 1.327323
405.40 1.32695
405.50 1.326578
405.60 1.326206
405.70 1.325834
405.80 1.325462
405.90 1.32509
406.00 1.324777
406.10 1.324464
406.20 1.324152
406.30 1.323839
406.40 1.323516
406.50 1.323426
406.60 1.322776
406.70 1.322476
406.80 1.322263
406.90 1.321956
407.00 1.321642
407.10 1.321329
407.20 1.321016
407.30 1.320703
407.40 1.32039
407.50 1.320077
407.60 1.319764
407.70 1.319451
407.80 1.319139
407.90 1.318826
408.00 1.318484
408.10 1.318081
408.20 1.317726
408.30 1.317443
408.40 1.31716
408.50 1.316613
408.60 1.316353
408.70 1.316093
408.80 1.315791
408.90 1.315224
409.00 1.3149
409.10 1.314577
409.20 1.314253
409.30 1.31393
409.40 1.313609
409.50 1.313358
409.60 1.313108
409.70 1.31283
409.80 1.312444
409.90 1.312066
410.00 1.311962
410.10 1.311322
410.20 1.311027
410.30 1.310819
410.40 1.310594
410.50 1.310318
410.60 1.310041
410.70 1.309737
410.80 1.309322
410.90 1.308907
411.00 1.308558
411.10 1.308232
411.20 1.307907
411.30 1.307613
411.40 1.307437
411.50 1.306996
411.60 1.306554
411.70 1.306129
411.80 1.305768
411.90 1.305353
412.00 1.305265
412.10 1.305042
412.20 1.304545
412.30 1.304005
412.40 1.303825
412.50 1.303271
412.60 1.303028
412.70 1.302814
412.80 1.302606
412.90 1.302301
413.00 1.301748
413.10 1.301442
413.20 1.301135
413.30 1.300829
413.40 1.300523
413.50 1.300152
413.60 1.299621
413.70 1.299399
413.80 1.299177
413.90 1.298956
414.00 1.298702
414.10 1.298345
414.20 1.297923
414.30 1.297351
414.40 1.297211
414.50 1.296627
414.60 1.296564
414.70 1.296208
414.80 1.295853
414.90 1.295498
415.00 1.295143
415.10 1.294788
415.20 1.294449
415.30 1.294161
415.40 1.293873
415.50 1.293581
415.60 1.293151
415.70 1.292721
415.80 1.29233
415.90 1.292061
416.00 1.291793
416.10 1.291505
416.20 1.291141
416.30 1.290778
416.40 1.290415
416.50 1.290052
416.60 1.2897
416.70 1.28934
416.80 1.289255
416.90 1.288637
417.00 1.288552
417.10 1.287942
417.20 1.287591
417.30 1.287244
417.40 1.287003
417.50 1.286763
417.60 1.286447
417.70 1.285842
417.80 1.285581
417.90 1.28532
418.00 1.285059
418.10 1.284798
418.20 1.284537
418.30 1.284265
418.40 1.283721
418.50 1.283395
418.60 1.283069
418.70 1.282743
418.80 1.282418
418.90 1.282093
419.00 1.281767
419.10 1.281442
419.20 1.281118
419.30 1.28079
419.40 1.280366
419.50 1.279942
419.60 1.279552
419.70 1.279298
419.80 1.279044
419.90 1.278767
420.00 1.278415
420.10 1.278064
420.20 1.277713
420.30 1.277362
420.40 1.277012
420.50 1.276661
420.60 1.276311
420.70 1.275961
420.80 1.275611
420.90 1.275259
421.00 1.274842
421.10 1.274424
421.20 1.274035
421.30 1.273728
421.40 1.273422
421.50 1.273116
421.60 1.272809
421.70 1.272503
421.80 1.272198
421.90 1.271882
422.00 1.271534
422.10 1.271169
422.20 1.270731
422.30 1.270293
422.40 1.269859
422.50 1.26952
422.60 1.269182
422.70 1.268844
422.80 1.268506
422.90 1.268168
423.00 1.26783
423.10 1.267493
423.20 1.267156
423.30 1.266819
423.40 1.266482
423.50 1.266145
423.60 1.265808
423.70 1.265472
423.80 1.265136
423.90 1.2648
424.00 1.264464
424.10 1.264128
424.20 1.263793
424.30 1.263457
424.40 1.263068
424.50 1.262732
424.60 1.262398
424.70 1.262063
424.80 1.261728
424.90 1.261394
425.00 1.26106
425.10 1.260726
