# Version 2.1 - nm, norm@500 to 1, cut digits, bergeron_He_4000_75.dat_4000
# Wavelength(nm)  Flambda(ergs/cm^s/s/nm)
300.00 0.0238758
300.10 0.0239608
300.20 0.02404622
300.30 0.02413165
300.40 0.02421783
300.50 0.02430389
300.60 0.02438983
300.70 0.02447566
300.80 0.02456136
300.90 0.02464694
301.00 0.0247324
301.10 0.02481774
301.20 0.02490297
301.30 0.02498807
301.40 0.02507306
301.50 0.02515793
301.60 0.02524268
301.70 0.02532732
301.80 0.02541183
301.90 0.02549623
302.00 0.02558051
302.10 0.02566936
302.20 0.0257586
302.30 0.02584771
302.40 0.0259367
302.50 0.02602557
302.60 0.02611432
302.70 0.02620294
302.80 0.02629144
302.90 0.02637982
303.00 0.02646807
303.10 0.02655621
303.20 0.02664422
303.30 0.02673263
303.40 0.02682558
303.50 0.0269184
303.60 0.02701109
303.70 0.02710366
303.80 0.02719609
303.90 0.02728841
304.00 0.02738059
304.10 0.02747264
304.20 0.02756457
304.30 0.02765638
304.40 0.02774805
304.50 0.0278396
304.60 0.02793555
304.70 0.02803186
304.80 0.02812805
304.90 0.0282241
305.00 0.02832002
305.10 0.02841581
305.20 0.02851146
305.30 0.02860699
305.40 0.02870238
305.50 0.02879764
305.60 0.02889278
305.70 0.02898778
305.80 0.02908265
305.90 0.02917739
306.00 0.029272
306.10 0.02936648
306.20 0.02946083
306.30 0.02955505
306.40 0.02965553
306.50 0.02975778
306.60 0.02985989
306.70 0.02996186
306.80 0.03006369
306.90 0.03016539
307.00 0.03026694
307.10 0.03036835
307.20 0.03046963
307.30 0.03057077
307.40 0.03067177
307.50 0.03077263
307.60 0.03087335
307.70 0.03097394
307.80 0.03107439
307.90 0.0311747
308.00 0.03127488
308.10 0.03137492
308.20 0.03147482
308.30 0.03157459
308.40 0.03167422
308.50 0.03177371
308.60 0.03187307
308.70 0.0319723
308.80 0.03207276
308.90 0.03217699
309.00 0.03228229
309.10 0.03238745
309.20 0.03249246
309.30 0.03259734
309.40 0.03270242
309.50 0.0328095
309.60 0.03291643
309.70 0.03302322
309.80 0.03312987
309.90 0.03323637
310.00 0.03334273
310.10 0.03344894
310.20 0.03355501
310.30 0.03366093
310.40 0.0337688
310.50 0.03387879
310.60 0.03398863
310.70 0.03409832
310.80 0.03420787
310.90 0.03431726
311.00 0.03442638
311.10 0.03453535
311.20 0.03464418
311.30 0.03475395
311.40 0.03486667
311.50 0.03497923
311.60 0.03509165
311.70 0.03520391
311.80 0.03531602
311.90 0.03542799
312.00 0.0355398
312.10 0.03565146
312.20 0.0357645
312.30 0.03587811
312.40 0.03599021
312.50 0.03610033
312.60 0.03621648
312.70 0.03633248
312.80 0.03644832
312.90 0.03656346
313.00 0.03667784
313.10 0.03679206
313.20 0.03690614
313.30 0.03702125
313.40 0.0371396
313.50 0.03725779
313.60 0.03737582
313.70 0.0374937
313.80 0.03761141
313.90 0.03772897
314.00 0.03784637
314.10 0.03796521
314.20 0.03808389
314.30 0.03820241
314.40 0.03832077
314.50 0.03843897
314.60 0.03855702
314.70 0.0386749
314.80 0.03879554
314.90 0.03892051
315.00 0.03904121
315.10 0.03916248
315.20 0.03928358
315.30 0.03940452
315.40 0.0395253
315.50 0.03964591
315.60 0.03976637
315.70 0.03988997
315.80 0.04001341
315.90 0.04013669
316.00 0.0402598
316.10 0.04038472
316.20 0.04050948
316.30 0.04063407
316.40 0.0407585
316.50 0.04088276
316.60 0.04100686
316.70 0.04113474
316.80 0.04126244
316.90 0.04138801
317.00 0.04151341
317.10 0.04163864
317.20 0.04176371
317.30 0.04189541
317.40 0.04202612
317.50 0.04215436
317.60 0.04228243
317.70 0.04241032
317.80 0.04253805
317.90 0.04266576
318.00 0.04279166
318.10 0.04292304
318.20 0.04305425
318.30 0.04318528
318.40 0.04331664
318.50 0.04344928
318.60 0.04358072
318.70 0.04370912
318.80 0.04384356
318.90 0.04397317
319.00 0.04410983
319.10 0.04424142
319.20 0.04437364
319.30 0.04450798
319.40 0.04464214
319.50 0.04477613
319.60 0.04490584
319.70 0.04504153
319.80 0.04517703
319.90 0.04531236
320.00 0.04544875
320.10 0.04558632
320.20 0.0457199
320.30 0.04585689
320.40 0.04599546
320.50 0.04613076
320.60 0.04626558
320.70 0.04640591
320.80 0.04654514
320.90 0.04668318
321.00 0.04682105
321.10 0.04695873
321.20 0.04709867
321.30 0.04723902
321.40 0.04737919
321.50 0.04751917
321.60 0.04765897
321.70 0.04779858
321.80 0.04793857
321.90 0.04807899
322.00 0.04822332
322.10 0.0483669
322.20 0.04851029
322.30 0.04865349
322.40 0.04879651
322.50 0.04893933
322.60 0.04908198
322.70 0.04922443
322.80 0.049368
322.90 0.04951528
323.00 0.04966236
323.10 0.04980926
323.20 0.04995596
323.30 0.05010247
323.40 0.05024879
323.50 0.05039492
323.60 0.05054086
323.70 0.05068661
323.80 0.05083217
323.90 0.05097754
324.00 0.05112537
324.10 0.051273
324.20 0.05142045
324.30 0.0515688
324.40 0.05172018
324.50 0.05187148
324.60 0.05202259
324.70 0.05217349
324.80 0.05232421
324.90 0.05247472
325.00 0.05262505
325.10 0.05277517
325.20 0.05292595
325.30 0.05307831
325.40 0.05323048
325.50 0.05338311
325.60 0.05353636
325.70 0.05368942
325.80 0.05384228
325.90 0.05399643
326.00 0.054152
326.10 0.05430738
326.20 0.05446255
326.30 0.0546176
326.40 0.05477268
326.50 0.05493279
326.60 0.05509269
326.70 0.05525239
326.80 0.05541188
326.90 0.05557117
327.00 0.05573025
327.10 0.05588913
327.20 0.0560478
327.30 0.05620627
327.40 0.05636453
327.50 0.05652259
327.60 0.05668045
327.70 0.0568381
327.80 0.05699555
327.90 0.05715319
328.00 0.05731346
328.10 0.05747646
328.20 0.05763924
328.30 0.05780182
328.40 0.05796419
328.50 0.05812696
328.60 0.05828966
328.70 0.05845216
328.80 0.05861583
328.90 0.05878325
329.00 0.05895046
329.10 0.05911745
329.20 0.05928423
329.30 0.0594508
329.40 0.05961715
329.50 0.05978329
329.60 0.05994921
329.70 0.06011493
329.80 0.06028043
329.90 0.06044572
330.00 0.06061306
330.10 0.06078293
330.20 0.06095259
330.30 0.06112204
330.40 0.06129286
330.50 0.06146518
330.60 0.06163729
330.70 0.06180917
330.80 0.06198084
330.90 0.06215229
331.00 0.06232352
331.10 0.06249453
331.20 0.06266532
331.30 0.0628359
331.40 0.06300626
331.50 0.06317768
331.60 0.06335046
331.70 0.06352301
331.80 0.06370092
331.90 0.06387884
332.00 0.06405653
332.10 0.06423399
332.20 0.06441123
332.30 0.06458825
332.40 0.06476504
332.50 0.06494161
332.60 0.06511795
332.70 0.06529407
332.80 0.06546996
332.90 0.06564563
333.00 0.06582108
333.10 0.06599944
333.20 0.06618138
333.30 0.06636309
333.40 0.06654457
333.50 0.06672583
333.60 0.06690685
333.70 0.06708764
333.80 0.06726821
333.90 0.06744855
334.00 0.06762866
334.10 0.06781088
334.20 0.06799572
334.30 0.06818034
334.40 0.06836472
334.50 0.06854887
334.60 0.06873278
334.70 0.06891614
334.80 0.06909982
334.90 0.06928465
335.00 0.06946924
335.10 0.06965569
335.20 0.06984291
335.30 0.07002989
335.40 0.07021663
335.50 0.07041456
335.60 0.07059205
335.70 0.07078336
335.80 0.07098669
335.90 0.07118189
336.00 0.07136721
336.10 0.0715523
336.20 0.07173715
336.30 0.07192439
336.40 0.0721146
336.50 0.07230458
336.60 0.07249431
336.70 0.0726838
336.80 0.07287306
336.90 0.07306622
337.00 0.0732642
337.10 0.07346192
337.20 0.0736594
337.30 0.07385829
337.40 0.07405932
337.50 0.07426009
337.60 0.07446061
337.70 0.07466088
337.80 0.0748609
337.90 0.07505958
338.00 0.07525667
338.10 0.07545352
338.20 0.07565012
338.30 0.07584647
338.40 0.07604263
338.50 0.07623867
338.60 0.07643447
338.70 0.07663003
338.80 0.07682534
338.90 0.07702041
339.00 0.07721523
339.10 0.07740981
339.20 0.07760415
339.30 0.07780051
339.40 0.07799988
339.50 0.07820239
339.60 0.07840878
339.70 0.07861491
339.80 0.07882079
339.90 0.07902641
340.00 0.07923177
340.10 0.07943688
340.20 0.07964174
340.30 0.07984634
340.40 0.08005068
340.50 0.08025477
340.60 0.08045861
340.70 0.0806622
340.80 0.08087672
340.90 0.08110706
341.00 0.08132697
341.10 0.0815342
341.20 0.08174118
341.30 0.0819479
341.40 0.08215437
341.50 0.08236058
341.60 0.08256653
341.70 0.08277223
341.80 0.08298529
341.90 0.08320739
342.00 0.08342922
342.10 0.08365077
342.20 0.08385179
342.30 0.08406965
342.40 0.0842991
342.50 0.08451007
342.60 0.08472078
342.70 0.08493123
342.80 0.08514142
342.90 0.08535134
343.00 0.08556408
343.10 0.0857803
343.20 0.08599625
343.30 0.08621193
343.40 0.08642844
343.50 0.08664624
343.60 0.08686378
343.70 0.08708105
343.80 0.08729806
343.90 0.08751479
344.00 0.08773811
344.10 0.08797101
344.20 0.08820363
344.30 0.08843595
344.40 0.08866116
344.50 0.08887627
344.60 0.08911675
344.70 0.08933297
344.80 0.0895456
344.90 0.08976129
345.00 0.08996144
345.10 0.09020816
345.20 0.09044244
345.30 0.09065898
345.40 0.09087526
345.50 0.09111374
345.60 0.09136197
345.70 0.09158487
345.80 0.0918075
345.90 0.09202986
346.00 0.09225194
346.10 0.09247375
346.20 0.0927016
346.30 0.09293826
346.40 0.09317462
346.50 0.0934107
346.60 0.09364649
346.70 0.09388199
346.80 0.0941172
346.90 0.09435213
347.00 0.09458677
347.10 0.09482112
347.20 0.09505618
347.30 0.09529238
347.40 0.0955283
347.50 0.09576392
347.60 0.09599926
347.70 0.09623431
347.80 0.09646908
347.90 0.09670355
348.00 0.09693775
348.10 0.09717166
348.20 0.09740528
348.30 0.09763862
348.40 0.09787168
348.50 0.09810445
348.60 0.09833694
348.70 0.09856952
348.80 0.09880786
348.90 0.09905443
349.00 0.0993007
349.10 0.09954668
349.20 0.09979235
349.30 0.1000377
349.40 0.1002828
349.50 0.1005276
349.60 0.1007721
349.70 0.1010163
349.80 0.1012602
349.90 0.1015038
350.00 0.1017471
350.10 0.1019901
350.20 0.1022328
350.30 0.1024786
350.40 0.1027291
350.50 0.1029793
350.60 0.1032292
350.70 0.1034788
350.80 0.103728
350.90 0.103977
351.00 0.1042257
351.10 0.104474
351.20 0.1047221
351.30 0.1049699
351.40 0.105218
351.50 0.1054671
351.60 0.1057159
351.70 0.1059643
351.80 0.1062125
351.90 0.1064603
352.00 0.1067079
352.10 0.1069551
352.20 0.1072333
352.30 0.1075048
352.40 0.107762
352.50 0.1080188
352.60 0.1082753
352.70 0.1085316
352.80 0.1087875
352.90 0.1090431
353.00 0.1092984
353.10 0.1095534
353.20 0.1098081
353.30 0.1100625
353.40 0.1103166
353.50 0.1105797
353.60 0.1108449
353.70 0.1111097
353.80 0.1113742
353.90 0.1116375
354.00 0.1118988
354.10 0.1121598
354.20 0.1124205
354.30 0.1126809
354.40 0.1129409
354.50 0.1132007
354.60 0.1134601
354.70 0.1137193
354.80 0.1139859
354.90 0.1142634
355.00 0.1145406
355.10 0.1148174
355.20 0.1150939
355.30 0.1153635
355.40 0.1156327
355.50 0.1159016
355.60 0.1161702
355.70 0.1164305
355.80 0.1166868
355.90 0.1169475
356.00 0.1172218
356.10 0.1174972
356.20 0.1177723
356.30 0.118047
356.40 0.1183214
356.50 0.1185955
356.60 0.1188693
356.70 0.1191427
356.80 0.1194158
356.90 0.1196886
357.00 0.1199611
357.10 0.1202332
357.20 0.120505
357.30 0.1207765
357.40 0.1210518
357.50 0.121334
357.60 0.1216159
357.70 0.1218975
357.80 0.1221663
357.90 0.1224348
358.00 0.1227175
358.10 0.1230034
358.20 0.123289
358.30 0.1235743
358.40 0.1238592
358.50 0.1241438
358.60 0.124428
358.70 0.1247119
358.80 0.1249955
358.90 0.1252787
359.00 0.1255635
359.10 0.1258511
359.20 0.1261364
359.30 0.126408
359.40 0.1266793
359.50 0.1269744
359.60 0.1272751
359.70 0.1275755
359.80 0.1278517
359.90 0.1281276
360.00 0.1284093
360.10 0.1287014
360.20 0.1289932
360.30 0.1292847
360.40 0.1295758
360.50 0.1298666
360.60 0.1301729
360.70 0.1304654
360.80 0.1307577
360.90 0.1310495
361.00 0.131327
361.10 0.1316226
361.20 0.1319134
361.30 0.1322161
361.40 0.1325396
361.50 0.1328324
361.60 0.133094
361.70 0.1334134
361.80 0.1337185
361.90 0.1339984
362.00 0.134278
362.10 0.1345762
362.20 0.134881
362.30 0.1351898
362.40 0.1354982
362.50 0.1358062
362.60 0.1361139
362.70 0.1364159
362.80 0.1367012
362.90 0.1370143
363.00 0.1373271
363.10 0.137635
363.20 0.1379425
363.30 0.1382428
363.40 0.138541
363.50 0.138809
363.60 0.1391215
363.70 0.1394336
363.80 0.1397753
363.90 0.1400825
364.00 0.1403892
364.10 0.1406957
364.20 0.1410017
364.30 0.1412923
364.40 0.1415788
364.50 0.1419215
364.60 0.1422193
364.70 0.1425166
364.80 0.1428137
364.90 0.1431215
365.00 0.143429
365.10 0.1437657
365.20 0.1440725
365.30 0.1444085
365.40 0.1447145
365.50 0.1450201
365.60 0.1453254
365.70 0.1456492
365.80 0.1459726
365.90 0.1462884
366.00 0.1466021
366.10 0.1469135
366.20 0.1472245
366.30 0.1475352
366.40 0.1478455
366.50 0.1481999
366.60 0.1485354
366.70 0.1488555
366.80 0.1491751
366.90 0.1494947
367.00 0.1498146
367.10 0.1501341
367.20 0.1504532
367.30 0.150772
367.40 0.1510904
367.50 0.1514006
367.60 0.1517084
367.70 0.1520415
367.80 0.1523743
367.90 0.1527067
368.00 0.1530432
368.10 0.1533359
368.20 0.153665
368.30 0.1539942
368.40 0.1543231
368.50 0.1546515
368.60 0.1549796
368.70 0.1553073
368.80 0.1556346
368.90 0.155963
369.00 0.1562952
369.10 0.1566275
369.20 0.157011
369.30 0.1573319
369.40 0.1576525
369.50 0.1579726
369.60 0.1583192
369.70 0.1586654
369.80 0.1590018
369.90 0.1593376
370.00 0.1596731
370.10 0.1599976
370.20 0.1603435
370.30 0.1606895
370.40 0.1609775
370.50 0.1613227
370.60 0.1616676
370.70 0.1620164
370.80 0.1623583
370.90 0.1626998
371.00 0.1630452
371.10 0.1633902
371.20 0.1637305
371.30 0.1640705
371.40 0.1644269
371.50 0.1647652
371.60 0.1651032
371.70 0.1654408
371.80 0.165778
371.90 0.1661148
372.00 0.1664788
372.10 0.1667974
372.20 0.1671454
372.30 0.1674931
372.40 0.1678404
372.50 0.1681873
372.60 0.1685338
372.70 0.1688799
372.80 0.1692423
372.90 0.1696043
373.00 0.1699421
373.10 0.1702793
373.20 0.1706424
373.30 0.171005
373.40 0.1713389
373.50 0.1717007
373.60 0.1720621
373.70 0.1723948
373.80 0.172766
373.90 0.1731156
374.00 0.1734754
374.10 0.1738347
374.20 0.1741937
374.30 0.1745523
374.40 0.1748822
374.50 0.1752626
374.60 0.1756221
374.70 0.1759802
374.80 0.1763378
374.90 0.1766951
375.00 0.1770508
375.10 0.1774061
375.20 0.177761
375.30 0.1781235
375.40 0.1784856
375.50 0.1788473
375.60 0.1792086
375.70 0.1795695
375.80 0.17993
375.90 0.18029
376.00 0.1806927
376.10 0.1810598
376.20 0.1814262
376.30 0.1817922
376.40 0.1821578
376.50 0.1825229
376.60 0.1828875
376.70 0.1832517
376.80 0.1836187
376.90 0.1839885
377.00 0.1843578
377.10 0.1847268
377.20 0.1850956
377.30 0.1854648
377.40 0.1858336
377.50 0.186202
377.60 0.1865736
377.70 0.1869449
377.80 0.1873157
377.90 0.1876862
378.00 0.1880845
378.10 0.1884595
378.20 0.1888334
378.30 0.189207
378.40 0.18958
378.50 0.1899527
378.60 0.190325
378.70 0.1906968
378.80 0.1910682
378.90 0.1914455
379.00 0.1918339
379.10 0.192217
379.20 0.1925997
379.30 0.1929794
379.40 0.1933562
379.50 0.1937327
379.60 0.1941204
379.70 0.1945211
379.80 0.1949056
379.90 0.1952897
380.00 0.1956733
380.10 0.1960565
380.20 0.1964393
380.30 0.1968217
380.40 0.1972036
380.50 0.1975851
380.60 0.1979577
380.70 0.1983498
380.80 0.1987415
380.90 0.1991327
381.00 0.1995235
381.10 0.1999293
381.20 0.2003241
381.30 0.2006954
381.40 0.2010751
381.50 0.2014713
381.60 0.2018674
381.70 0.2022706
381.80 0.202649
381.90 0.203058
382.00 0.2034666
382.10 0.2038477
382.20 0.2042608
382.30 0.204641
382.40 0.2050328
382.50 0.2054422
382.60 0.2058511
382.70 0.2062526
382.80 0.2066469
382.90 0.2070419
383.00 0.2074365
383.10 0.2078307
383.20 0.2082252
383.30 0.2086222
383.40 0.2090165
383.50 0.2094068
383.60 0.2098279
383.70 0.2102353
383.80 0.2106421
383.90 0.2110485
384.00 0.2114545
384.10 0.21186
384.20 0.2122651
384.30 0.2126697
384.40 0.2130785
384.50 0.2134914
384.60 0.2139039
384.70 0.2143159
384.80 0.214722
384.90 0.2151177
385.00 0.2155327
385.10 0.2159464
385.20 0.2163327
385.30 0.2167342
385.40 0.2171454
385.50 0.2175662
385.60 0.2179866
385.70 0.2184064
385.80 0.2188249
385.90 0.2192395
386.00 0.2196533
386.10 0.2200669
386.20 0.2204852
386.30 0.2209032
386.40 0.2213171
386.50 0.2217189
386.60 0.222149
386.70 0.222563
386.80 0.2229766
386.90 0.2233897
387.00 0.2238076
387.10 0.2242198
387.20 0.2246829
387.30 0.2250956
387.40 0.225505
387.50 0.2259115
387.60 0.2263322
387.70 0.2267679
387.80 0.2272032
387.90 0.227638
388.00 0.2280591
388.10 0.2284646
388.20 0.2288887
388.30 0.2293204
388.40 0.2297515
388.50 0.2301832
388.60 0.2306192
388.70 0.231037
388.80 0.23146
388.90 0.2318966
389.00 0.2323322
389.10 0.2327661
389.20 0.2331953
389.30 0.2336168
389.40 0.2340318
389.50 0.2344603
389.60 0.2349042
389.70 0.2353332
389.80 0.2357701
389.90 0.2362066
390.00 0.2366427
390.10 0.2370782
390.20 0.2375133
390.30 0.2379515
390.40 0.2383935
390.50 0.2388349
390.60 0.2392759
390.70 0.2397164
390.80 0.240153
390.90 0.2405858
391.00 0.2410273
391.10 0.2414813
391.20 0.2419311
391.30 0.2423705
391.40 0.2428145
391.50 0.2432581
391.60 0.2437012
391.70 0.2441438
391.80 0.244586
391.90 0.2450102
392.00 0.2454344
392.10 0.2458883
392.20 0.2463444
392.30 0.2468034
392.40 0.2472365
392.50 0.2476947
392.60 0.2481329
392.70 0.2485797
392.80 0.2490426
392.90 0.2495069
393.00 0.2499519
393.10 0.2503892
393.20 0.2508208
393.30 0.2512813
393.40 0.2517395
393.50 0.2522078
393.60 0.252633
393.70 0.2531228
393.80 0.2535761
393.90 0.2540336
394.00 0.2544896
394.10 0.2549325
394.20 0.2553716
394.30 0.2558357
394.40 0.2563113
394.50 0.2567408
394.60 0.2572066
394.70 0.2576691
394.80 0.2581205
394.90 0.2585718
395.00 0.2590395
395.10 0.2595037
395.20 0.2599533
395.30 0.2604153
395.40 0.2608768
395.50 0.2613401
395.60 0.2618038
395.70 0.2622691
395.80 0.2627399
395.90 0.2632102
396.00 0.2636811
396.10 0.26416
396.20 0.2646313
396.30 0.2651089
396.40 0.265554
396.50 0.2660068
396.60 0.266493
396.70 0.2669759
396.80 0.2674412
396.90 0.2679191
397.00 0.2683713
397.10 0.2688631
397.20 0.2693272
397.30 0.2697855
397.40 0.270264
397.50 0.2707419
397.60 0.2712184
397.70 0.2716849
397.80 0.2721509
397.90 0.2726224
398.00 0.2731096
398.10 0.2735962
398.20 0.2740775
398.30 0.2745528
398.40 0.2750277
398.50 0.2755027
398.60 0.2759988
398.70 0.2764761
398.80 0.2769464
398.90 0.2774222
399.00 0.2779088
399.10 0.2783721
399.20 0.2788588
399.30 0.2793448
399.40 0.2798304
399.50 0.2803155
399.60 0.2808055
399.70 0.281297
399.80 0.281788
399.90 0.2822784
400.00 0.2827676
400.10 0.2832344
400.20 0.2837169
400.30 0.2842072
400.40 0.2846892
400.50 0.2851996
400.60 0.2856728
400.70 0.2861706
400.80 0.2866499
400.90 0.28713
401.00 0.2876544
401.10 0.2881139
401.20 0.288599
401.30 0.289096
401.40 0.2896032
401.50 0.2901131
401.60 0.290621
401.70 0.2910795
401.80 0.2915974
401.90 0.2921012
402.00 0.2925892
402.10 0.2930602
402.20 0.2935692
402.30 0.2940822
402.40 0.2945841
402.50 0.2950654
402.60 0.2955715
402.70 0.2960892
402.80 0.2965759
402.90 0.2970816
403.00 0.2975673
403.10 0.2980816
403.20 0.2985853
403.30 0.2990732
403.40 0.2995925
403.50 0.3001025
403.60 0.3006082
403.70 0.3011272
403.80 0.3016284
403.90 0.3021402
404.00 0.3026401
404.10 0.3031467
404.20 0.3036503
404.30 0.3041533
404.40 0.3046448
404.50 0.3051819
404.60 0.3056833
404.70 0.3062083
404.80 0.3067042
404.90 0.3072084
405.00 0.3077417
405.10 0.3082477
405.20 0.3087494
405.30 0.3092505
405.40 0.3097716
405.50 0.3102923
405.60 0.3108124
405.70 0.3113319
405.80 0.3118509
405.90 0.3123693
406.00 0.3128912
406.10 0.3134126
406.20 0.3139335
406.30 0.3144537
406.40 0.3149724
406.50 0.3154581
406.60 0.315983
406.70 0.316509
406.80 0.3170255
406.90 0.317544
407.00 0.3180708
407.10 0.318597
407.20 0.3191226
407.30 0.3196477
407.40 0.3201722
407.50 0.3206962
407.60 0.3212196
407.70 0.3217425
407.80 0.3222648
407.90 0.3227872
408.00 0.32333
408.10 0.3238745
408.20 0.3244025
408.30 0.3249236
408.40 0.3254441
408.50 0.3259896
408.60 0.3265185
408.70 0.3270468
408.80 0.3275768
408.90 0.3281194
409.00 0.3286486
409.10 0.3291773
409.20 0.3297055
409.30 0.3302331
409.40 0.3307605
409.50 0.3312989
409.60 0.3318368
409.70 0.3323776
409.80 0.3329316
409.90 0.3334841
410.00 0.3340066
410.10 0.3345492
410.20 0.3350853
410.30 0.3356193
410.40 0.3361561
410.50 0.3367025
410.60 0.3372484
410.70 0.3377923
410.80 0.3383299
410.90 0.3388669
411.00 0.3394143
411.10 0.3399651
411.20 0.3405153
411.30 0.3410577
411.40 0.3415724
411.50 0.3421326
411.60 0.3426922
411.70 0.3432461
411.80 0.343779
411.90 0.3443114
412.00 0.3448897
412.10 0.345421
412.20 0.3459516
412.30 0.3465318
412.40 0.3470796
412.50 0.3476332
412.60 0.3481616
412.70 0.3487104
412.80 0.3492639
412.90 0.3498128
413.00 0.3503977
413.10 0.3509546
413.20 0.3515108
413.30 0.3520665
413.40 0.3526216
413.50 0.3531757
413.60 0.3537287
413.70 0.3542855
413.80 0.3548418
413.90 0.3553975
414.00 0.3559554
414.10 0.3565215
414.20 0.3570759
414.30 0.3576408
414.40 0.3581959
414.50 0.3587624
414.60 0.359297
414.70 0.3598595
