# Version 2.1 - nm, norm@500 to 1, cut digits, bergeron_He_18000_90.dat_18000
# Wavelength(nm)  Flambda(ergs/cm^s/s/nm)
300.00 3.999846
300.10 3.99778
300.20 3.995744
300.30 3.993628
300.40 3.99097
300.50 3.988314
300.60 3.985661
300.70 3.98301
300.80 3.980362
300.90 3.977717
301.00 3.975075
301.10 3.972435
301.20 3.969797
301.30 3.967163
301.40 3.964531
301.50 3.961901
301.60 3.959274
301.70 3.95665
301.80 3.954029
301.90 3.95141
302.00 3.948793
302.10 3.945818
302.20 3.942805
302.30 3.939796
302.40 3.93679
302.50 3.933787
302.60 3.930787
302.70 3.92779
302.80 3.924796
302.90 3.921805
303.00 3.918818
303.10 3.915833
303.20 3.912852
303.30 3.909871
303.40 3.906876
303.50 3.903885
303.60 3.900896
303.70 3.89791
303.80 3.894928
303.90 3.891948
304.00 3.888972
304.10 3.885999
304.20 3.883029
304.30 3.880061
304.40 3.877097
304.50 3.874136
304.60 3.871217
304.70 3.868304
304.80 3.865395
304.90 3.862489
305.00 3.859585
305.10 3.856685
305.20 3.853787
305.30 3.850893
305.40 3.848001
305.50 3.845113
305.60 3.842227
305.70 3.839344
305.80 3.836465
305.90 3.833588
306.00 3.830714
306.10 3.827843
306.20 3.824975
306.30 3.82211
306.40 3.819112
306.50 3.816077
306.60 3.813045
306.70 3.810016
306.80 3.80699
306.90 3.803967
307.00 3.800948
307.10 3.797931
307.20 3.794918
307.30 3.791908
307.40 3.788901
307.50 3.785897
307.60 3.782896
307.70 3.779898
307.80 3.776904
307.90 3.773912
308.00 3.770924
308.10 3.767938
308.20 3.764956
308.30 3.761977
308.40 3.759
308.50 3.756027
308.60 3.753057
308.70 3.75009
308.80 3.746927
308.90 3.7432
309.00 3.740104
309.10 3.73701
309.20 3.73392
309.30 3.730833
309.40 3.727748
309.50 3.724664
309.60 3.721582
309.70 3.718504
309.80 3.715428
309.90 3.712356
310.00 3.709288
310.10 3.706222
310.20 3.70316
310.30 3.7001
310.40 3.69694
310.50 3.693671
310.60 3.690405
310.70 3.687143
310.80 3.683884
310.90 3.680628
311.00 3.677397
311.10 3.674169
311.20 3.670944
311.30 3.667669
311.40 3.664245
311.50 3.660825
311.60 3.657409
311.70 3.653996
311.80 3.650587
311.90 3.647181
312.00 3.643779
312.10 3.640381
312.20 3.637199
312.30 3.633444
312.40 3.629337
312.50 3.626757
312.60 3.623145
312.70 3.619538
312.80 3.615935
312.90 3.612227
313.00 3.608405
313.10 3.604588
313.20 3.600775
313.30 3.596902
313.40 3.592852
313.50 3.588806
313.60 3.584764
313.70 3.580728
313.80 3.576695
313.90 3.572667
314.00 3.568643
314.10 3.564322
314.20 3.560006
314.30 3.555695
314.40 3.551389
314.50 3.547087
314.60 3.54279
314.70 3.538498
314.80 3.533689
314.90 3.528318
315.00 3.523947
315.10 3.518822
315.20 3.513703
315.30 3.508589
315.40 3.503481
315.50 3.498379
315.60 3.493283
315.70 3.488323
315.80 3.483369
315.90 3.47842
316.00 3.473477
316.10 3.467366
316.20 3.461261
316.30 3.454381
316.40 3.445166
316.50 3.430495
316.60 3.410378
316.70 3.389507
316.80 3.368662
316.90 3.362641
317.00 3.356628
317.10 3.350621
317.20 3.344622
317.30 3.349658
317.40 3.352358
317.50 3.348425
317.60 3.344496
317.70 3.340572
317.80 3.336652
317.90 3.318257
318.00 3.293105
318.10 3.252769
318.20 3.212482
318.30 3.172245
318.40 3.116109
318.50 3.014678
318.60 2.894138
318.70 2.601896
318.80 1.967285
318.90 2.485024
319.00 2.688634
319.10 2.809866
319.20 2.91411
319.30 2.970337
319.40 3.026493
319.50 3.082578
319.60 3.125813
319.70 3.152204
319.80 3.178562
319.90 3.204885
320.00 3.226762
320.10 3.243832
320.20 3.258881
320.30 3.272264
320.40 3.284243
320.50 3.294073
320.60 3.302795
320.70 3.309863
320.80 3.315644
320.90 3.320035
321.00 3.324419
321.10 3.328798
321.20 3.33248
321.30 3.333814
321.40 3.335146
321.50 3.336476
321.60 3.337804
321.70 3.339129
321.80 3.340291
321.90 3.341277
322.00 3.341589
322.10 3.341202
322.20 3.340816
322.30 3.340429
322.40 3.340042
322.50 3.339654
322.60 3.339267
322.70 3.33888
322.80 3.337859
322.90 3.336458
323.00 3.335058
323.10 3.333659
323.20 3.332262
323.30 3.330865
323.40 3.32947
323.50 3.328076
323.60 3.326683
323.70 3.325291
323.80 3.3239
323.90 3.32251
324.00 3.320459
324.10 3.31841
324.20 3.316363
324.30 3.314319
324.40 3.312188
324.50 3.309965
324.60 3.307744
324.70 3.305525
324.80 3.303308
324.90 3.301093
325.00 3.298881
325.10 3.29667
325.20 3.29452
325.30 3.292494
325.40 3.290471
325.50 3.288282
325.60 3.285891
325.70 3.283502
325.80 3.281115
325.90 3.278742
326.00 3.276382
326.10 3.274024
326.20 3.271668
326.30 3.269406
326.40 3.267403
326.50 3.264896
326.60 3.262392
326.70 3.259891
326.80 3.257391
326.90 3.254895
327.00 3.2524
327.10 3.249909
327.20 3.247419
327.30 3.244932
327.40 3.242448
327.50 3.239966
327.60 3.237486
327.70 3.235009
327.80 3.232534
327.90 3.230302
328.00 3.227768
328.10 3.224548
328.20 3.221331
328.30 3.218118
328.40 3.214908
328.50 3.212052
328.60 3.209281
328.70 3.206513
328.80 3.203927
328.90 3.201857
329.00 3.199788
329.10 3.197722
329.20 3.195657
329.30 3.193594
329.40 3.191533
329.50 3.189475
329.60 3.187418
329.70 3.185362
329.80 3.183309
329.90 3.181258
330.00 3.1791
330.10 3.176813
330.20 3.174528
330.30 3.172244
330.40 3.16995
330.50 3.167642
330.60 3.165337
330.70 3.163034
330.80 3.160733
330.90 3.158434
331.00 3.156138
331.10 3.153843
331.20 3.151551
331.30 3.149261
331.40 3.146973
331.50 3.144605
331.60 3.142137
331.70 3.139672
331.80 3.137252
331.90 3.134836
332.00 3.132423
332.10 3.130011
332.20 3.127603
332.30 3.125196
332.40 3.122792
332.50 3.12039
332.60 3.117991
332.70 3.115593
332.80 3.113199
332.90 3.110806
333.00 3.108416
333.10 3.106009
333.20 3.103581
333.30 3.101156
333.40 3.098733
333.50 3.096312
333.60 3.093894
333.70 3.091478
333.80 3.089064
333.90 3.086653
334.00 3.084244
334.10 3.081774
334.20 3.07923
334.30 3.076688
334.40 3.074148
334.50 3.071612
334.60 3.069077
334.70 3.066255
334.80 3.063195
334.90 3.060301
335.00 3.05741
335.10 3.053656
335.20 3.051138
335.30 3.048762
335.40 3.045727
335.50 3.043912
335.60 3.042098
335.70 3.040598
335.80 3.039481
335.90 3.038053
336.00 3.036245
336.10 3.034438
336.20 3.032633
336.30 3.030726
336.40 3.028694
336.50 3.026664
336.60 3.024636
336.70 3.02261
336.80 3.020585
336.90 3.018512
337.00 3.01638
337.10 3.01425
337.20 3.012122
337.30 3.009946
337.40 3.007701
337.50 3.005458
337.60 3.003217
337.70 3.000979
337.80 2.998742
337.90 2.996595
338.00 2.994557
338.10 2.99252
338.20 2.990486
338.30 2.988453
338.40 2.986365
338.50 2.98414
338.60 2.981917
338.70 2.979695
338.80 2.977476
338.90 2.975259
339.00 2.973044
339.10 2.970831
339.20 2.96862
339.30 2.966316
339.40 2.963875
339.50 2.961514
339.60 2.95925
339.70 2.956988
339.80 2.954729
339.90 2.952471
340.00 2.950216
340.10 2.947962
340.20 2.945711
340.30 2.943462
340.40 2.941215
340.50 2.938971
340.60 2.936728
340.70 2.934487
340.80 2.932179
340.90 2.929772
341.00 2.927374
341.10 2.924985
341.20 2.922599
341.30 2.920215
341.40 2.917834
341.50 2.915454
341.60 2.913077
341.70 2.910702
341.80 2.908348
341.90 2.906017
342.00 2.903688
342.10 2.901362
342.20 2.898495
342.30 2.895366
342.40 2.892741
342.50 2.890157
342.60 2.887576
342.70 2.884997
342.80 2.88242
342.90 2.879846
343.00 2.877232
343.10 2.874568
343.20 2.871907
343.30 2.869248
343.40 2.866452
343.50 2.863458
343.60 2.860466
343.70 2.857477
343.80 2.854492
343.90 2.851509
344.00 2.848258
344.10 2.844621
344.20 2.840988
344.30 2.837358
344.40 2.833462
344.50 2.82918
344.60 2.824634
344.70 2.819703
344.80 2.820108
344.90 2.821761
345.00 2.822603
345.10 2.822281
345.20 2.821784
345.30 2.821037
345.40 2.820289
345.50 2.819711
345.60 2.818912
345.70 2.8175
345.80 2.816089
345.90 2.814678
346.00 2.813269
346.10 2.811862
346.20 2.810259
346.30 2.808375
346.40 2.806493
346.50 2.804613
346.60 2.802734
346.70 2.800857
346.80 2.798982
346.90 2.797109
347.00 2.795237
347.10 2.793367
347.20 2.791496
347.30 2.789623
347.40 2.787752
347.50 2.785882
347.60 2.784014
347.70 2.782148
347.80 2.780284
347.90 2.778421
348.00 2.77656
348.10 2.7747
348.20 2.772843
348.30 2.770987
348.40 2.769132
348.50 2.767279
348.60 2.765428
348.70 2.763779
348.80 2.762019
348.90 2.760007
349.00 2.757998
349.10 2.75599
349.20 2.753984
349.30 2.75198
349.40 2.749978
349.50 2.747978
349.60 2.745979
349.70 2.743982
349.80 2.741988
349.90 2.739995
350.00 2.738003
350.10 2.736014
350.20 2.734026
350.30 2.732026
350.40 2.730005
350.50 2.727987
350.60 2.72597
350.70 2.723955
350.80 2.721942
350.90 2.719931
351.00 2.717922
351.10 2.715914
351.20 2.713909
351.30 2.711905
351.40 2.709946
351.50 2.708065
351.60 2.706185
351.70 2.704308
351.80 2.702431
351.90 2.700557
352.00 2.698684
352.10 2.696813
352.20 2.694486
352.30 2.69228
352.40 2.690318
352.50 2.688358
352.60 2.6864
352.70 2.684443
352.80 2.682489
352.90 2.680536
353.00 2.678585
353.10 2.676636
353.20 2.674688
353.30 2.672742
353.40 2.670798
353.50 2.66875
353.60 2.666677
353.70 2.664606
353.80 2.662537
353.90 2.660472
354.00 2.658411
354.10 2.656352
354.20 2.654295
354.30 2.65224
354.40 2.650186
354.50 2.648135
354.60 2.646086
354.70 2.644038
354.80 2.641989
354.90 2.639937
355.00 2.637887
355.10 2.635839
355.20 2.633793
355.30 2.632023
355.40 2.630254
355.50 2.628488
355.60 2.626722
355.70 2.624424
355.80 2.621888
355.90 2.619737
356.00 2.617786
356.10 2.615718
356.20 2.613652
356.30 2.611588
356.40 2.609525
356.50 2.607465
356.60 2.605406
356.70 2.60335
356.80 2.601295
356.90 2.599242
357.00 2.597191
357.10 2.595142
357.20 2.593094
357.30 2.591049
357.40 2.588957
357.50 2.58678
357.60 2.584605
357.70 2.582433
357.80 2.579878
357.90 2.577327
358.00 2.574917
358.10 2.572544
358.20 2.570173
358.30 2.567805
358.40 2.565439
358.50 2.563075
358.60 2.560714
358.70 2.558354
358.80 2.555997
358.90 2.553642
359.00 2.551037
359.10 2.547984
359.20 2.544943
359.30 2.541967
359.40 2.538993
359.50 2.535885
359.60 2.532747
359.70 2.529611
359.80 2.526374
359.90 2.52314
360.00 2.519678
360.10 2.515807
360.20 2.511941
360.30 2.508078
360.40 2.504219
360.50 2.500364
360.60 2.494922
360.70 2.489029
360.80 2.483143
360.90 2.477263
361.00 2.469922
361.10 2.459508
361.20 2.448687
361.30 2.432949
361.40 2.448493
361.50 2.462821
361.60 2.467849
361.70 2.468278
361.80 2.468733
361.90 2.469236
362.00 2.469737
362.10 2.470072
362.20 2.469956
362.30 2.469116
362.40 2.468276
362.50 2.467436
362.60 2.466597
362.70 2.465342
362.80 2.463983
362.90 2.462034
363.00 2.460087
363.10 2.45819
363.20 2.456295
363.30 2.453649
363.40 2.453484
363.50 2.453318
363.60 2.454336
363.70 2.454957
363.80 2.455184
363.90 2.45496
364.00 2.454736
364.10 2.454512
364.20 2.454287
364.30 2.454213
364.40 2.454175
364.50 2.454014
364.60 2.45345
364.70 2.452886
364.80 2.452323
364.90 2.451566
365.00 2.45081
365.10 2.448881
365.20 2.446954
365.30 2.445614
365.40 2.444276
365.50 2.443524
365.60 2.442773
365.70 2.441969
365.80 2.441165
365.90 2.439937
366.00 2.438604
366.10 2.437559
366.20 2.436514
366.30 2.435471
366.40 2.434428
366.50 2.43312
366.60 2.430628
366.70 2.429303
366.80 2.427978
366.90 2.426504
367.00 2.424764
367.10 2.423026
367.20 2.421289
367.30 2.419554
367.40 2.41782
367.50 2.415906
367.60 2.413949
367.70 2.411722
367.80 2.409498
367.90 2.407276
368.00 2.405238
368.10 2.402791
368.20 2.399974
368.30 2.39716
368.40 2.394348
368.50 2.391538
368.60 2.388732
368.70 2.385928
368.80 2.383127
368.90 2.380131
369.00 2.376908
369.10 2.373716
369.20 2.371264
369.30 2.367303
369.40 2.363347
369.50 2.359394
369.60 2.354698
369.70 2.350008
369.80 2.344724
369.90 2.339439
370.00 2.334159
370.10 2.328944
370.20 2.323128
370.30 2.317309
370.40 2.311508
370.50 2.308451
370.60 2.312859
370.70 2.317958
370.80 2.321803
370.90 2.325643
371.00 2.326702
371.10 2.327732
371.20 2.328738
371.30 2.329742
371.40 2.330405
371.50 2.331261
371.60 2.332116
371.70 2.33297
371.80 2.333823
371.90 2.334675
372.00 2.335217
372.10 2.335577
372.20 2.335451
372.30 2.335325
372.40 2.335199
372.50 2.335073
372.60 2.334947
372.70 2.33482
372.80 2.334128
372.90 2.333436
373.00 2.33275
373.10 2.332065
373.20 2.330815
373.30 2.329566
373.40 2.324952
373.50 2.322586
373.60 2.322464
373.70 2.322341
373.80 2.322709
373.90 2.323215
374.00 2.322532
374.10 2.321849
374.20 2.321167
374.30 2.320485
374.40 2.319944
374.50 2.319123
374.60 2.318162
374.70 2.317204
374.80 2.316247
374.90 2.31529
375.00 2.314055
375.10 2.312822
375.20 2.311589
375.30 2.31004
375.40 2.308492
375.50 2.306946
375.60 2.305401
375.70 2.303857
375.80 2.302315
375.90 2.300773
376.00 2.298454
376.10 2.296744
376.20 2.295041
376.30 2.29334
376.40 2.291641
376.50 2.289831
376.60 2.287854
376.70 2.285879
376.80 2.283644
376.90 2.281149
377.00 2.278656
377.10 2.276165
377.20 2.27373
377.30 2.271498
377.40 2.269268
377.50 2.26704
377.60 2.264169
377.70 2.261302
377.80 2.258437
377.90 2.255575
378.00 2.253382
378.10 2.250058
378.20 2.246716
378.30 2.243378
378.40 2.240042
378.50 2.23671
378.60 2.233381
378.70 2.230055
378.80 2.226733
378.90 2.223316
379.00 2.219723
379.10 2.215504
379.20 2.211289
379.30 2.207022
379.40 2.202703
379.50 2.198389
379.60 2.19388
379.70 2.188762
379.80 2.182463
379.90 2.176171
380.00 2.169886
380.10 2.163606
380.20 2.157333
380.30 2.151067
380.40 2.144806
380.50 2.138552
380.60 2.129719
380.70 2.122958
380.80 2.116203
380.90 2.109455
381.00 2.102714
381.10 2.099591
381.20 2.094408
381.30 2.085082
381.40 2.074011
381.50 2.061899
381.60 2.049151
381.70 2.035313
381.80 2.022004
381.90 2.013973
382.00 2.004877
382.10 2.024724
382.20 2.044977
382.30 2.061035
382.40 2.074172
382.50 2.082941
382.60 2.091701
382.70 2.098931
382.80 2.102754
382.90 2.104889
383.00 2.107022
383.10 2.109153
383.20 2.111344
383.30 2.113773
383.40 2.116003
383.50 2.117939
383.60 2.120277
383.70 2.121972
383.80 2.123665
383.90 2.125356
384.00 2.127045
384.10 2.128732
384.20 2.130417
384.30 2.132099
384.40 2.133249
384.50 2.133866
384.60 2.134483
384.70 2.135098
384.80 2.135608
384.90 2.135773
385.00 2.136023
385.10 2.136283
385.20 2.136441
385.30 2.135868
385.40 2.135149
385.50 2.134287
385.60 2.133426
385.70 2.132565
385.80 2.131653
385.90 2.130548
386.00 2.129072
386.10 2.127183
386.20 2.124866
386.30 2.122552
386.40 2.119287
386.50 2.115314
386.60 2.109755
386.70 2.100033
386.80 2.080909
386.90 2.081663
387.00 2.082937
387.10 2.081861
387.20 2.08003
387.30 2.076531
387.40 2.071302
387.50 2.064831
387.60 2.056439
387.70 2.04419
387.80 2.031952
387.90 2.019727
388.00 2.006054
388.10 1.985992
388.20 1.954251
388.30 1.914705
388.40 1.875199
388.50 1.823431
388.60 1.741113
388.70 1.609562
388.80 1.332243
388.90 1.150857
389.00 1.43623
389.10 1.598361
389.20 1.698101
389.30 1.768084
389.40 1.819558
389.50 1.864249
389.60 1.897387
389.70 1.921048
389.80 1.937049
389.90 1.953032
390.00 1.968999
390.10 1.984949
390.20 2.000883
390.30 2.012528
390.40 2.019345
390.50 2.026155
390.60 2.032958
390.70 2.039754
390.80 2.044942
390.90 2.048523
391.00 2.051844
391.10 2.054767
391.20 2.057433
391.30 2.058806
391.40 2.059796
391.50 2.060786
391.60 2.061774
391.70 2.062761
391.80 2.063746
391.90 2.063773
392.00 2.063073
392.10 2.062901
392.20 2.062651
392.30 2.061599
392.40 2.060549
392.50 2.059499
392.60 2.05845
392.70 2.057402
392.80 2.05534
392.90 2.054294
393.00 2.053249
393.10 2.05186
393.20 2.050103
393.30 2.048555
393.40 2.046801
393.50 2.045003
393.60 2.042336
393.70 2.040176
393.80 2.037717
393.90 2.03517
394.00 2.032469
394.10 2.028754
394.20 2.025681
394.30 2.022319
394.40 2.019339
394.50 2.015549
394.60 2.01116
394.70 2.006611
394.80 2.00145
394.90 1.996291
395.00 1.990961
395.10 1.984571
395.20 1.977672
395.30 1.970802
395.40 1.963938
395.50 1.955722
395.60 1.947012
395.70 1.937256
395.80 1.924657
395.90 1.912071
396.00 1.899009
396.10 1.878219
396.20 1.849863
396.30 1.816828
396.40 1.751518
396.50 1.797793
396.60 1.869856
396.70 1.885591
396.80 1.884719
396.90 1.884186
397.00 1.895943
397.10 1.912351
397.20 1.921916
397.30 1.925471
397.40 1.926994
397.50 1.928516
397.60 1.929843
397.70 1.929223
397.80 1.928604
397.90 1.9277
398.00 1.926026
398.10 1.924353
398.20 1.922443
398.30 1.920265
398.40 1.918058
398.50 1.914822
398.60 1.911702
398.70 1.908391
398.80 1.905025
398.90 1.901231
399.00 1.896638
399.10 1.892376
399.20 1.887375
399.30 1.882379
399.40 1.877388
399.50 1.872401
399.60 1.867024
399.70 1.861506
399.80 1.855993
399.90 1.850486
400.00 1.844963
400.10 1.838779
400.20 1.832722
400.30 1.826318
400.40 1.820006
400.50 1.813207
400.60 1.805726
400.70 1.798491
400.80 1.790553
400.90 1.781227
401.00 1.772456
401.10 1.763078
401.20 1.754127
401.30 1.743592
401.40 1.731627
401.50 1.719262
401.60 1.706807
401.70 1.691041
401.80 1.673243
401.90 1.652156
402.00 1.630481
402.10 1.603346
402.20 1.573619
402.30 1.539282
402.40 1.497775
402.50 1.441787
402.60 1.386794
402.70 1.448073
402.80 1.507138
402.90 1.551302
403.00 1.593399
403.10 1.628137
403.20 1.655008
403.30 1.678604
403.40 1.697945
403.50 1.71386
403.60 1.728943
403.70 1.740417
403.80 1.750371
403.90 1.758223
404.00 1.765366
404.10 1.770505
404.20 1.773938
404.30 1.777368
404.40 1.779359
404.50 1.778001
404.60 1.777123
404.70 1.779588
404.80 1.782667
404.90 1.786419
405.00 1.789485
405.10 1.79269
405.20 1.795889
405.30 1.799085
405.40 1.801847
405.50 1.804605
405.60 1.807361
405.70 1.810114
405.80 1.812864
405.90 1.815611
406.00 1.817963
406.10 1.820313
406.20 1.82266
406.30 1.825004
406.40 1.827344
406.50 1.828961
406.60 1.83113
406.70 1.833245
406.80 1.834928
406.90 1.837003
407.00 1.838367
407.10 1.83973
407.20 1.841091
407.30 1.84245
407.40 1.843808
407.50 1.845165
407.60 1.846519
407.70 1.847873
407.80 1.849224
407.90 1.850553
408.00 1.851187
408.10 1.851981
408.20 1.852767
408.30 1.853388
408.40 1.854008
408.50 1.85445
408.60 1.854839
408.70 1.855228
408.80 1.855592
408.90 1.855718
409.00 1.855708
409.10 1.855698
409.20 1.855688
409.30 1.855677
409.40 1.855669
409.50 1.855752
409.60 1.855835
409.70 1.855805
409.80 1.855329
409.90 1.85484
410.00 1.853935
410.10 1.853807
410.20 1.853058
410.30 1.852155
410.40 1.851179
410.50 1.849972
410.60 1.848765
410.70 1.847471
410.80 1.845821
410.90 1.844172
411.00 1.841923
411.10 1.839454
411.20 1.836987
411.30 1.83452
411.40 1.831997
411.50 1.827842
411.60 1.823691
411.70 1.818811
411.80 1.811009
411.90 1.801831
412.00 1.782522
412.10 1.716941
412.20 1.727388
412.30 1.746868
412.40 1.760015
412.50 1.767433
412.60 1.772484
412.70 1.775666
412.80 1.778378
412.90 1.781253
413.00 1.782505
413.10 1.783097
413.20 1.783689
413.30 1.78428
413.40 1.78487
413.50 1.785359
413.60 1.785275
413.70 1.78464
413.80 1.784006
413.90 1.783373
414.00 1.782685
414.10 1.781824
414.20 1.780416
414.30 1.777369
414.40 1.775054
414.50 1.775725
414.60 1.777274
414.70 1.779146
414.80 1.781071
414.90 1.783166
415.00 1.785259
415.10 1.78735
415.20 1.789205
415.30 1.790322
415.40 1.791437
415.50 1.792541
415.60 1.793301
415.70 1.794061
415.80 1.794788
415.90 1.795413
416.00 1.796036
416.10 1.796536
416.20 1.796539
416.30 1.796542
416.40 1.796544
416.50 1.796548
416.60 1.796587
416.70 1.796599
416.80 1.795737
416.90 1.793908
417.00 1.793115
417.10 1.793182
417.20 1.793221
417.30 1.793262
417.40 1.793354
417.50 1.793447
417.60 1.793502
417.70 1.7934
417.80 1.79299
417.90 1.79258
418.00 1.79217
418.10 1.79176
418.20 1.791351
418.30 1.790928
418.40 1.790142
418.50 1.789578
418.60 1.789014
418.70 1.78845
418.80 1.787886
418.90 1.787323
419.00 1.786761
419.10 1.786198
419.20 1.785636
419.30 1.785066
419.40 1.784214
419.50 1.783364
419.60 1.782514
419.70 1.781665
419.80 1.780816
419.90 1.779968
420.00 1.77912
420.10 1.778273
420.20 1.777427
420.30 1.776581
420.40 1.775736
420.50 1.774892
420.60 1.774048
420.70 1.773205
420.80 1.772362
420.90 1.77152
421.00 1.770678
421.10 1.769838
421.20 1.768966
421.30 1.768
421.40 1.767036
421.50 1.766072
421.60 1.765109
421.70 1.764146
421.80 1.763184
421.90 1.762253
422.00 1.761418
422.10 1.760528
422.20 1.759417
422.30 1.758307
422.40 1.7572
422.50 1.756147
422.60 1.755095
422.70 1.754043
422.80 1.752992
422.90 1.751942
423.00 1.750893
423.10 1.749845
423.20 1.748797
423.30 1.747751
423.40 1.746705
423.50 1.745659
423.60 1.744615
423.70 1.743571
423.80 1.742529
423.90 1.741487
424.00 1.740445
424.10 1.739405
424.20 1.738365
424.30 1.737326
424.40 1.735464
424.50 1.734384
424.60 1.733304
424.70 1.732225
424.80 1.731147
424.90 1.730069
