# Version 2.1 - nm, norm@500 to 1, cut digits, bergeron_He_13000_80.dat_13000
# Wavelength(nm)  Flambda(ergs/cm^s/s/nm)
300.00 2.890475
300.10 2.889147
300.20 2.887814
300.30 2.886477
300.40 2.885106
300.50 2.883736
300.60 2.882368
300.70 2.881
300.80 2.879634
300.90 2.878269
301.00 2.876905
301.10 2.875543
301.20 2.874181
301.30 2.872821
301.40 2.871462
301.50 2.870104
301.60 2.868747
301.70 2.867392
301.80 2.866037
301.90 2.864684
302.00 2.863332
302.10 2.861946
302.20 2.860557
302.30 2.85917
302.40 2.857784
302.50 2.856398
302.60 2.855015
302.70 2.853632
302.80 2.85225
302.90 2.85087
303.00 2.849491
303.10 2.848113
303.20 2.846736
303.30 2.845358
303.40 2.843956
303.50 2.842555
303.60 2.841155
303.70 2.839757
303.80 2.838359
303.90 2.836963
304.00 2.835569
304.10 2.834175
304.20 2.832782
304.30 2.831391
304.40 2.830001
304.50 2.828613
304.60 2.827229
304.70 2.825847
304.80 2.824466
304.90 2.823087
305.00 2.821708
305.10 2.820331
305.20 2.818955
305.30 2.817581
305.40 2.816207
305.50 2.814835
305.60 2.813464
305.70 2.812094
305.80 2.810725
305.90 2.809357
306.00 2.807991
306.10 2.806626
306.20 2.805262
306.30 2.803899
306.40 2.802512
306.50 2.80112
306.60 2.799729
306.70 2.798338
306.80 2.79695
306.90 2.795562
307.00 2.794175
307.10 2.79279
307.20 2.791406
307.30 2.790023
307.40 2.788642
307.50 2.787261
307.60 2.785882
307.70 2.784504
307.80 2.783127
307.90 2.781752
308.00 2.780377
308.10 2.779004
308.20 2.777632
308.30 2.776261
308.40 2.774892
308.50 2.773523
308.60 2.772156
308.70 2.77079
308.80 2.769441
308.90 2.76814
309.00 2.76673
309.10 2.765321
309.20 2.763914
309.30 2.762508
309.40 2.761104
309.50 2.759703
309.60 2.758303
309.70 2.756904
309.80 2.755507
309.90 2.75411
310.00 2.752715
310.10 2.751322
310.20 2.749929
310.30 2.748538
310.40 2.747153
310.50 2.745775
310.60 2.744398
310.70 2.743022
310.80 2.741648
310.90 2.740274
311.00 2.738921
311.10 2.737568
311.20 2.736216
311.30 2.734847
311.40 2.733427
311.50 2.732008
311.60 2.73059
311.70 2.729174
311.80 2.727759
311.90 2.726345
312.00 2.724932
312.10 2.723521
312.20 2.722195
312.30 2.720873
312.40 2.719467
312.50 2.718094
312.60 2.71668
312.70 2.715267
312.80 2.713856
312.90 2.712427
313.00 2.71098
313.10 2.709534
313.20 2.708089
313.30 2.706647
313.40 2.70521
313.50 2.703774
313.60 2.702339
313.70 2.700906
313.80 2.699474
313.90 2.698043
314.00 2.696613
314.10 2.695129
314.20 2.693645
314.30 2.692163
314.40 2.690682
314.50 2.689203
314.60 2.687725
314.70 2.686248
314.80 2.684712
314.90 2.683104
315.00 2.681602
315.10 2.67995
315.20 2.678299
315.30 2.67665
315.40 2.675002
315.50 2.673356
315.60 2.671712
315.70 2.669871
315.80 2.668033
315.90 2.666196
316.00 2.664361
316.10 2.662528
316.20 2.660696
316.30 2.659014
316.40 2.657186
316.50 2.654329
316.60 2.650738
316.70 2.647593
316.80 2.644451
316.90 2.642635
317.00 2.640821
317.10 2.639009
317.20 2.637199
317.30 2.636042
317.40 2.634416
317.50 2.63145
317.60 2.628488
317.70 2.625529
317.80 2.622574
317.90 2.61612
318.00 2.606978
318.10 2.590607
318.20 2.574256
318.30 2.557926
318.40 2.530524
318.50 2.47161
318.60 2.398177
318.70 2.228633
318.80 2.078412
318.90 2.251874
319.00 2.372331
319.10 2.442449
319.20 2.499752
319.30 2.520782
319.40 2.541786
319.50 2.562762
319.60 2.576908
319.70 2.581867
319.80 2.586819
319.90 2.591765
320.00 2.595216
320.10 2.597052
320.20 2.598448
320.30 2.599374
320.40 2.599736
320.50 2.599666
320.60 2.599412
320.70 2.599082
320.80 2.598581
320.90 2.597893
321.00 2.597206
321.10 2.596519
321.20 2.595839
321.30 2.594867
321.40 2.593895
321.50 2.592924
321.60 2.591954
321.70 2.590984
321.80 2.589892
321.90 2.588668
322.00 2.587566
322.10 2.586385
322.20 2.585204
322.30 2.584024
322.40 2.582845
322.50 2.581667
322.60 2.58049
322.70 2.579314
322.80 2.578021
322.90 2.576752
323.00 2.575483
323.10 2.574215
323.20 2.572949
323.30 2.571684
323.40 2.570419
323.50 2.569156
323.60 2.567894
323.70 2.566633
323.80 2.565373
323.90 2.564114
324.00 2.562832
324.10 2.561551
324.20 2.560272
324.30 2.559009
324.40 2.55775
324.50 2.556449
324.60 2.555149
324.70 2.55385
324.80 2.552552
324.90 2.551255
325.00 2.549959
325.10 2.548664
325.20 2.547377
325.30 2.546102
325.40 2.544829
325.50 2.54352
325.60 2.542169
325.70 2.540818
325.80 2.539469
325.90 2.538146
326.00 2.536853
326.10 2.53556
326.20 2.534269
326.30 2.532967
326.40 2.531635
326.50 2.530333
326.60 2.529031
326.70 2.527731
326.80 2.526432
326.90 2.525134
327.00 2.523836
327.10 2.522541
327.20 2.521246
327.30 2.519952
327.40 2.51866
327.50 2.517368
327.60 2.516078
327.70 2.514788
327.80 2.5135
327.90 2.512095
328.00 2.510644
328.10 2.509291
328.20 2.507939
328.30 2.506588
328.40 2.505239
328.50 2.503935
328.60 2.502642
328.70 2.50135
328.80 2.500066
328.90 2.4988
329.00 2.497535
329.10 2.496272
329.20 2.495009
329.30 2.493748
329.40 2.492487
329.50 2.491228
329.60 2.489969
329.70 2.488712
329.80 2.487456
329.90 2.486201
330.00 2.484925
330.10 2.483624
330.20 2.482325
330.30 2.481027
330.40 2.479725
330.50 2.478421
330.60 2.477118
330.70 2.475816
330.80 2.474515
330.90 2.473215
331.00 2.471916
331.10 2.470618
331.20 2.469322
331.30 2.468026
331.40 2.466732
331.50 2.465448
331.60 2.464177
331.70 2.462907
331.80 2.461622
331.90 2.460337
332.00 2.459054
332.10 2.457771
332.20 2.45649
332.30 2.455209
332.40 2.45393
332.50 2.452652
332.60 2.451375
332.70 2.450099
332.80 2.448824
332.90 2.44755
333.00 2.446277
333.10 2.444977
333.20 2.443642
333.30 2.442309
333.40 2.440977
333.50 2.439646
333.60 2.438316
333.70 2.436988
333.80 2.43566
333.90 2.434334
334.00 2.433009
334.10 2.431665
334.20 2.430298
334.30 2.428932
334.40 2.427568
334.50 2.426204
334.60 2.424842
334.70 2.423442
334.80 2.421994
334.90 2.420548
335.00 2.419103
335.10 2.41766
335.20 2.416217
335.30 2.414514
335.40 2.41291
335.50 2.411931
335.60 2.411149
335.70 2.410047
335.80 2.409135
335.90 2.408136
336.00 2.407029
336.10 2.405924
336.20 2.404819
336.30 2.403667
336.40 2.402455
336.50 2.401245
336.60 2.400035
336.70 2.398827
336.80 2.39762
336.90 2.396403
337.00 2.395174
337.10 2.393946
337.20 2.392719
337.30 2.391503
337.40 2.390303
337.50 2.389104
337.60 2.387907
337.70 2.38671
337.80 2.385514
337.90 2.384289
338.00 2.383029
338.10 2.381769
338.20 2.380511
338.30 2.379254
338.40 2.378005
338.50 2.376774
338.60 2.375544
338.70 2.374316
338.80 2.373088
338.90 2.371861
339.00 2.370636
339.10 2.369411
339.20 2.368188
339.30 2.366948
339.40 2.365684
339.50 2.364424
339.60 2.36317
339.70 2.361916
339.80 2.360663
339.90 2.359411
340.00 2.358161
340.10 2.356911
340.20 2.355663
340.30 2.354415
340.40 2.353169
340.50 2.351924
340.60 2.350679
340.70 2.349436
340.80 2.348191
340.90 2.346943
341.00 2.345681
341.10 2.344401
341.20 2.343122
341.30 2.341844
341.40 2.340568
341.50 2.339292
341.60 2.338017
341.70 2.336744
341.80 2.335456
341.90 2.334149
342.00 2.332844
342.10 2.33154
342.20 2.330224
342.30 2.328863
342.40 2.32752
342.50 2.326204
342.60 2.324888
342.70 2.323574
342.80 2.32226
342.90 2.320948
343.00 2.319562
343.10 2.318086
343.20 2.316612
343.30 2.315138
343.40 2.313614
343.50 2.312017
343.60 2.310422
343.70 2.308827
343.80 2.307235
343.90 2.305644
344.00 2.303875
344.10 2.30185
344.20 2.299828
344.30 2.297807
344.40 2.295661
344.50 2.293334
344.60 2.291155
344.70 2.288453
344.80 2.28779
344.90 2.288437
345.00 2.288548
345.10 2.288337
345.20 2.287978
345.30 2.287405
345.40 2.286833
345.50 2.286244
345.60 2.285511
345.70 2.284601
345.80 2.283691
345.90 2.282782
346.00 2.281873
346.10 2.280966
346.20 2.279971
346.30 2.278852
346.40 2.277733
346.50 2.276615
346.60 2.275498
346.70 2.274382
346.80 2.273267
346.90 2.272153
347.00 2.271039
347.10 2.269927
347.20 2.268783
347.30 2.267594
347.40 2.266405
347.50 2.265218
347.60 2.264032
347.70 2.262846
347.80 2.261662
347.90 2.260478
348.00 2.259296
348.10 2.258114
348.20 2.256934
348.30 2.255754
348.40 2.254576
348.50 2.253398
348.60 2.252222
348.70 2.251095
348.80 2.24995
348.90 2.248757
349.00 2.247566
349.10 2.246375
349.20 2.245186
349.30 2.243997
349.40 2.242809
349.50 2.241623
349.60 2.240437
349.70 2.239253
349.80 2.238069
349.90 2.236886
350.00 2.235705
350.10 2.234524
350.20 2.233344
350.30 2.232153
350.40 2.230944
350.50 2.229737
350.60 2.22853
350.70 2.227325
350.80 2.22612
350.90 2.224917
351.00 2.223714
351.10 2.222512
351.20 2.221312
351.30 2.220112
351.40 2.218914
351.50 2.217715
351.60 2.216518
351.70 2.215322
351.80 2.214126
351.90 2.212932
352.00 2.211739
352.10 2.210547
352.20 2.209442
352.30 2.208298
352.40 2.207086
352.50 2.205875
352.60 2.204665
352.70 2.203456
352.80 2.202248
352.90 2.201041
353.00 2.199835
353.10 2.19863
353.20 2.197426
353.30 2.196223
353.40 2.19502
353.50 2.193829
353.60 2.192642
353.70 2.191455
353.80 2.19027
353.90 2.189085
354.00 2.187901
354.10 2.186718
354.20 2.185536
354.30 2.184355
354.40 2.183175
354.50 2.181996
354.60 2.180818
354.70 2.179641
354.80 2.178465
354.90 2.177291
355.00 2.176118
355.10 2.174945
355.20 2.173774
355.30 2.172605
355.40 2.171437
355.50 2.170269
355.60 2.169103
355.70 2.1679
355.80 2.166682
355.90 2.165464
356.00 2.164261
356.10 2.163062
356.20 2.161864
356.30 2.160666
356.40 2.15947
356.50 2.158275
356.60 2.157081
356.70 2.155887
356.80 2.154695
356.90 2.153504
357.00 2.152314
357.10 2.151124
357.20 2.149936
357.30 2.148749
357.40 2.147557
357.50 2.146356
357.60 2.145155
357.70 2.143956
357.80 2.142758
357.90 2.141561
358.00 2.140329
358.10 2.13909
358.20 2.137852
358.30 2.136614
358.40 2.135378
358.50 2.134143
358.60 2.132909
358.70 2.131676
358.80 2.130444
358.90 2.129213
359.00 2.127962
359.10 2.126674
359.20 2.125376
359.30 2.123996
359.40 2.122618
359.50 2.121203
359.60 2.119779
359.70 2.118356
359.80 2.116746
359.90 2.115139
360.00 2.113352
360.10 2.111246
360.20 2.109141
360.30 2.107039
360.40 2.104939
360.50 2.102841
360.60 2.099838
360.70 2.096121
360.80 2.092409
360.90 2.088699
361.00 2.084601
361.10 2.079198
361.20 2.073421
361.30 2.067796
361.40 2.069138
361.50 2.075944
361.60 2.079149
361.70 2.080932
361.80 2.082324
361.90 2.083023
362.00 2.08372
362.10 2.084064
362.20 2.084098
362.30 2.083736
362.40 2.083375
362.50 2.083014
362.60 2.082653
362.70 2.082036
362.80 2.081412
362.90 2.080488
363.00 2.079565
363.10 2.078321
363.20 2.077074
363.30 2.075463
363.40 2.073706
363.50 2.07385
363.60 2.073714
363.70 2.073182
363.80 2.072662
363.90 2.071841
364.00 2.071021
364.10 2.070202
364.20 2.069383
364.30 2.068508
364.40 2.06762
364.50 2.06671
364.60 2.065798
364.70 2.064886
364.80 2.063976
364.90 2.062955
365.00 2.061936
365.10 2.060807
365.20 2.059678
365.30 2.058772
365.40 2.057866
365.50 2.056961
365.60 2.056057
365.70 2.055033
365.80 2.05401
365.90 2.053005
366.00 2.052006
366.10 2.050993
366.20 2.049982
366.30 2.048971
366.40 2.04796
366.50 2.047068
366.60 2.045954
366.70 2.044838
366.80 2.043723
366.90 2.042623
367.00 2.04155
367.10 2.040477
367.20 2.039405
367.30 2.038334
367.40 2.037264
367.50 2.036066
367.60 2.034837
367.70 2.033616
367.80 2.032395
367.90 2.031176
368.00 2.02998
368.10 2.028877
368.20 2.027493
368.30 2.026107
368.40 2.024722
368.50 2.023338
368.60 2.021956
368.70 2.020575
368.80 2.019195
368.90 2.017779
369.00 2.016225
369.10 2.014653
369.20 2.012908
369.30 2.011168
369.40 2.009431
369.50 2.007695
369.60 2.005748
369.70 2.003804
369.80 2.001614
369.90 1.999424
370.00 1.997236
370.10 1.994955
370.20 1.992157
370.30 1.989359
370.40 1.985401
370.50 1.982437
370.60 1.984903
370.70 1.986769
370.80 1.98762
370.90 1.98847
371.00 1.988485
371.10 1.98849
371.20 1.988378
371.30 1.988266
371.40 1.988105
371.50 1.987752
371.60 1.987399
371.70 1.987046
371.80 1.986693
371.90 1.98634
372.00 1.985737
372.10 1.985279
372.20 1.984638
372.30 1.983998
372.40 1.983358
372.50 1.982719
372.60 1.98208
372.70 1.981442
372.80 1.98059
372.90 1.979739
373.00 1.978786
373.10 1.977832
373.20 1.976666
373.30 1.975501
373.40 1.97402
373.50 1.973386
373.60 1.972753
373.70 1.97212
373.80 1.971368
373.90 1.970644
374.00 1.969854
374.10 1.969065
374.20 1.968276
374.30 1.967488
374.40 1.9667
374.50 1.966013
374.60 1.965125
374.70 1.964235
374.80 1.963345
374.90 1.962455
375.00 1.961479
375.10 1.960503
375.20 1.959528
375.30 1.958544
375.40 1.95756
375.50 1.956578
375.60 1.955596
375.70 1.954615
375.80 1.953634
375.90 1.952655
376.00 1.951823
376.10 1.950787
376.20 1.94975
376.30 1.948714
376.40 1.947679
376.50 1.946615
376.60 1.94551
376.70 1.944406
376.80 1.943314
376.90 1.942234
377.00 1.941155
377.10 1.940078
377.20 1.938997
377.30 1.937905
377.40 1.936814
377.50 1.935723
377.60 1.934563
377.70 1.933404
377.80 1.932245
377.90 1.931088
378.00 1.929784
378.10 1.928475
378.20 1.927168
378.30 1.925863
378.40 1.924559
378.50 1.923256
378.60 1.921954
378.70 1.920653
378.80 1.919354
378.90 1.917995
379.00 1.916526
379.10 1.91494
379.20 1.913356
379.30 1.911729
379.40 1.91006
379.50 1.908392
379.60 1.906646
379.70 1.904664
379.80 1.902242
379.90 1.899822
380.00 1.897405
380.10 1.89499
380.20 1.892577
380.30 1.890167
380.40 1.887759
380.50 1.885353
380.60 1.881977
380.70 1.878118
380.80 1.874264
380.90 1.870413
381.00 1.866566
381.10 1.862156
381.20 1.857498
381.30 1.852146
381.40 1.846111
381.50 1.839631
381.60 1.83284
381.70 1.825433
381.80 1.817037
381.90 1.805358
382.00 1.803806
382.10 1.815802
382.20 1.824551
382.30 1.831676
382.40 1.837575
382.50 1.841641
382.60 1.845702
382.70 1.848962
382.80 1.85069
382.90 1.851789
383.00 1.852886
383.10 1.853982
383.20 1.855016
383.30 1.855824
383.40 1.856553
383.50 1.857161
383.60 1.857494
383.70 1.857609
383.80 1.857724
383.90 1.857838
384.00 1.857952
384.10 1.858066
384.20 1.858179
384.30 1.858292
384.40 1.858144
384.50 1.857736
384.60 1.857328
384.70 1.856921
384.80 1.856494
384.90 1.85595
385.00 1.855328
385.10 1.854707
385.20 1.85403
385.30 1.85327
385.40 1.852432
385.50 1.851518
385.60 1.850604
385.70 1.849691
385.80 1.84872
385.90 1.84753
386.00 1.846316
386.10 1.845049
386.20 1.843483
386.30 1.841917
386.40 1.840171
386.50 1.837835
386.60 1.83515
386.70 1.831586
386.80 1.828715
386.90 1.82777
387.00 1.826978
387.10 1.82633
387.20 1.825579
387.30 1.824631
387.40 1.823148
387.50 1.821421
387.60 1.819032
387.70 1.815148
387.80 1.811268
387.90 1.807392
388.00 1.802892
388.10 1.79563
388.20 1.782233
388.30 1.764348
388.40 1.746481
388.50 1.720454
388.60 1.673701
388.70 1.595056
388.80 1.454184
388.90 1.395433
389.00 1.53532
389.10 1.630849
389.20 1.687551
389.30 1.722983
389.40 1.74496
389.50 1.762875
389.60 1.77394
389.70 1.780341
389.80 1.783524
389.90 1.786704
390.00 1.789881
390.10 1.793054
390.20 1.796224
390.30 1.798074
390.40 1.798439
390.50 1.798803
390.60 1.799167
390.70 1.79953
390.80 1.799579
390.90 1.799313
391.00 1.799082
391.10 1.798631
391.20 1.798136
391.30 1.797476
391.40 1.796814
391.50 1.796153
391.60 1.795493
391.70 1.794832
391.80 1.794173
391.90 1.793393
392.00 1.792511
392.10 1.79168
392.20 1.790842
392.30 1.78993
392.40 1.789017
392.50 1.788106
392.60 1.787195
392.70 1.786094
392.80 1.785376
392.90 1.784503
393.00 1.783696
393.10 1.782843
393.20 1.781927
393.30 1.780926
393.40 1.779934
393.50 1.779029
393.60 1.778009
393.70 1.777032
393.80 1.77593
393.90 1.774934
394.00 1.773919
394.10 1.772765
394.20 1.771673
394.30 1.770513
394.40 1.76937
394.50 1.768125
394.60 1.766699
394.70 1.765258
394.80 1.763756
394.90 1.762249
395.00 1.760542
395.10 1.758768
395.20 1.756527
395.30 1.754161
395.40 1.751798
395.50 1.748554
395.60 1.744987
395.70 1.740626
395.80 1.734117
395.90 1.727615
396.00 1.720758
396.10 1.708663
396.20 1.692287
396.30 1.674278
396.40 1.652322
396.50 1.658324
396.60 1.687848
396.70 1.704822
396.80 1.712489
396.90 1.717537
397.00 1.721766
397.10 1.725891
397.20 1.728538
397.30 1.729598
397.40 1.729962
397.50 1.730326
397.60 1.730643
397.70 1.730501
397.80 1.730359
397.90 1.73011
398.00 1.729573
398.10 1.729037
398.20 1.728381
398.30 1.727589
398.40 1.726796
398.50 1.72593
398.60 1.724918
398.70 1.72377
398.80 1.722603
398.90 1.721446
399.00 1.720309
399.10 1.718833
399.20 1.717335
399.30 1.715838
399.40 1.714342
399.50 1.712848
399.60 1.711101
399.70 1.709262
399.80 1.707425
399.90 1.705589
400.00 1.703747
400.10 1.701618
400.20 1.699279
400.30 1.696702
400.40 1.694108
400.50 1.691252
400.60 1.68811
400.70 1.684878
400.80 1.681228
400.90 1.677116
401.00 1.672997
401.10 1.669082
401.20 1.664504
401.30 1.659323
401.40 1.652886
401.50 1.646027
401.60 1.63911
401.70 1.630132
401.80 1.619942
401.90 1.607807
402.00 1.594749
402.10 1.579414
402.20 1.561452
402.30 1.54024
402.40 1.514569
402.50 1.484626
402.60 1.44914
402.70 1.475325
402.80 1.510343
402.90 1.535979
403.00 1.560117
403.10 1.579217
403.20 1.594258
403.30 1.60645
403.40 1.616847
403.50 1.624852
403.60 1.632234
403.70 1.63774
403.80 1.642302
403.90 1.645601
404.00 1.648618
404.10 1.650587
404.20 1.651577
404.30 1.652566
404.40 1.65257
404.50 1.652195
404.60 1.65192
404.70 1.652005
404.80 1.652672
404.90 1.653254
405.00 1.653928
405.10 1.6545
405.20 1.655032
405.30 1.655563
405.40 1.655704
405.50 1.655845
405.60 1.655986
405.70 1.656126
405.80 1.656266
405.90 1.656405
406.00 1.656166
406.10 1.655927
406.20 1.655687
406.30 1.655448
406.40 1.65521
406.50 1.654825
406.60 1.654367
406.70 1.653922
406.80 1.653457
406.90 1.652915
407.00 1.652299
407.10 1.651683
407.20 1.651068
407.30 1.650453
407.40 1.649839
407.50 1.649225
407.60 1.648611
407.70 1.647998
407.80 1.647385
407.90 1.646766
408.00 1.645959
408.10 1.645241
408.20 1.644524
408.30 1.643718
408.40 1.642914
408.50 1.642109
408.60 1.641367
408.70 1.640625
408.80 1.639877
408.90 1.639058
409.00 1.638189
409.10 1.637321
409.20 1.636453
409.30 1.635586
409.40 1.634719
409.50 1.633859
409.60 1.632999
409.70 1.632136
409.80 1.631259
409.90 1.630379
410.00 1.629413
410.10 1.628473
410.20 1.62754
410.30 1.62661
410.40 1.625644
410.50 1.624564
410.60 1.623485
410.70 1.622393
410.80 1.621249
410.90 1.620106
411.00 1.618753
411.10 1.617322
411.20 1.615892
411.30 1.614384
411.40 1.61253
411.50 1.609836
411.60 1.607146
411.70 1.603968
411.80 1.598837
411.90 1.59319
412.00 1.584069
412.10 1.576
412.20 1.575062
412.30 1.57878
412.40 1.583045
412.50 1.586625
412.60 1.5892
412.70 1.590663
412.80 1.591847
412.90 1.592953
413.00 1.592922
413.10 1.59246
413.20 1.591998
413.30 1.591536
413.40 1.591075
413.50 1.590516
413.60 1.589486
413.70 1.5882
413.80 1.586916
413.90 1.585632
414.00 1.584267
414.10 1.582641
414.20 1.580913
414.30 1.578482
414.40 1.576259
414.50 1.576913
414.60 1.57739
414.70 1.57766
414.80 1.577867
414.90 1.577878
415.00 1.577889
415.10 1.5779
415.20 1.577866
415.30 1.577693
415.40 1.577519
415.50 1.577341
415.60 1.577011
415.70 1.576681
415.80 1.576316
415.90 1.575839
416.00 1.575362
416.10 1.574853
416.20 1.574219
416.30 1.573586
416.40 1.572952
416.50 1.572316
416.60 1.571561
416.70 1.570794
416.80 1.569784
416.90 1.568869
417.00 1.568208
417.10 1.567628
417.20 1.566962
417.30 1.566297
417.40 1.565666
417.50 1.565036
417.60 1.564411
417.70 1.563803
417.80 1.563083
417.90 1.562363
418.00 1.561644
418.10 1.560925
418.20 1.560207
418.30 1.559488
418.40 1.558734
418.50 1.557952
418.60 1.557172
418.70 1.556391
418.80 1.555612
418.90 1.554832
419.00 1.554054
419.10 1.553276
419.20 1.552498
419.30 1.551721
419.40 1.550922
419.50 1.550123
419.60 1.549326
419.70 1.548531
419.80 1.547736
419.90 1.546937
420.00 1.546118
420.10 1.5453
420.20 1.544483
420.30 1.543666
420.40 1.54285
420.50 1.542035
420.60 1.54122
420.70 1.540406
420.80 1.539592
420.90 1.538778
421.00 1.537927
421.10 1.537077
421.20 1.536234
421.30 1.535409
421.40 1.534586
421.50 1.533763
421.60 1.532941
421.70 1.532119
421.80 1.531298
421.90 1.530481
422.00 1.529674
422.10 1.528864
422.20 1.528035
422.30 1.527207
422.40 1.52638
422.50 1.525557
422.60 1.524735
422.70 1.523913
422.80 1.523093
422.90 1.522272
423.00 1.521453
423.10 1.520633
423.20 1.519815
423.30 1.518997
423.40 1.51818
423.50 1.517363
423.60 1.516547
423.70 1.515732
423.80 1.514917
423.90 1.514102
424.00 1.513289
424.10 1.512476
424.20 1.511663
424.30 1.510851
424.40 1.51006
424.50 1.509233
424.60 1.508407
424.70 1.507581
424.80 1.506755
424.90 1.50593
425.00 1.505106
