# Version 2.1 - nm, norm@500 to 1, cut digits, bergeron_He_9500_85.dat_9500
# Wavelength(nm)  Flambda(ergs/cm^s/s/nm)
300.00 1.832148
300.10 1.83199
300.20 1.831825
300.30 1.831661
300.40 1.831501
300.50 1.831341
300.60 1.83118
300.70 1.83102
300.80 1.830859
300.90 1.830698
301.00 1.830537
301.10 1.830376
301.20 1.830214
301.30 1.830053
301.40 1.829891
301.50 1.829729
301.60 1.829566
301.70 1.829404
301.80 1.829241
301.90 1.829078
302.00 1.828915
302.10 1.828774
302.20 1.828635
302.30 1.828495
302.40 1.828356
302.50 1.828216
302.60 1.828075
302.70 1.827935
302.80 1.827795
302.90 1.827654
303.00 1.827513
303.10 1.827372
303.20 1.82723
303.30 1.827088
303.40 1.82694
303.50 1.826791
303.60 1.826643
303.70 1.826494
303.80 1.826345
303.90 1.826196
304.00 1.826046
304.10 1.825896
304.20 1.825747
304.30 1.825597
304.40 1.825446
304.50 1.825296
304.60 1.825119
304.70 1.824939
304.80 1.824758
304.90 1.824578
305.00 1.824397
305.10 1.824217
305.20 1.824036
305.30 1.823855
305.40 1.823673
305.50 1.823492
305.60 1.823311
305.70 1.823129
305.80 1.822947
305.90 1.822765
306.00 1.822583
306.10 1.822401
306.20 1.822218
306.30 1.822036
306.40 1.82185
306.50 1.821662
306.60 1.821475
306.70 1.821288
306.80 1.8211
306.90 1.820912
307.00 1.820725
307.10 1.820537
307.20 1.820348
307.30 1.82016
307.40 1.819972
307.50 1.819783
307.60 1.819594
307.70 1.819405
307.80 1.819216
307.90 1.819027
308.00 1.818838
308.10 1.818649
308.20 1.818459
308.30 1.818269
308.40 1.81808
308.50 1.81789
308.60 1.8177
308.70 1.817509
308.80 1.817348
308.90 1.817267
309.00 1.817085
309.10 1.816903
309.20 1.81672
309.30 1.816537
309.40 1.816346
309.50 1.816098
309.60 1.81585
309.70 1.815602
309.80 1.815353
309.90 1.815105
310.00 1.814857
310.10 1.814609
310.20 1.81436
310.30 1.814112
310.40 1.813901
310.50 1.81373
310.60 1.813559
310.70 1.813389
310.80 1.813218
310.90 1.813046
311.00 1.812791
311.10 1.812536
311.20 1.812281
311.30 1.812023
311.40 1.81176
311.50 1.811496
311.60 1.811232
311.70 1.810968
311.80 1.810704
311.90 1.81044
312.00 1.810177
312.10 1.809913
312.20 1.809808
312.30 1.809587
312.40 1.809179
312.50 1.809552
312.60 1.8093
312.70 1.809049
312.80 1.808797
312.90 1.808494
313.00 1.808136
313.10 1.807777
313.20 1.807419
313.30 1.807094
313.40 1.806865
313.50 1.806636
313.60 1.806406
313.70 1.806177
313.80 1.805948
313.90 1.805718
314.00 1.805489
314.10 1.805288
314.20 1.805088
314.30 1.804887
314.40 1.804686
314.50 1.804485
314.60 1.804285
314.70 1.804083
314.80 1.803858
314.90 1.803587
315.00 1.803339
315.10 1.803079
315.20 1.80282
315.30 1.80256
315.40 1.8023
315.50 1.80204
315.60 1.80178
315.70 1.801465
315.80 1.80115
315.90 1.800835
316.00 1.800521
316.10 1.800371
316.20 1.80022
316.30 1.80007
316.40 1.79959
316.50 1.79944
316.60 1.798961
316.70 1.79881
316.80 1.798659
316.90 1.798344
317.00 1.79803
317.10 1.797715
317.20 1.7974
317.30 1.797395
317.40 1.797297
317.50 1.796932
317.60 1.796567
317.70 1.796202
317.80 1.795838
317.90 1.795566
318.00 1.795746
318.10 1.795431
318.20 1.795116
318.30 1.794801
318.40 1.794528
318.50 1.794376
318.60 1.79397
318.70 1.79359
318.80 1.793665
318.90 1.793188
319.00 1.792964
319.10 1.79281
319.20 1.792627
319.30 1.79236
319.40 1.792092
319.50 1.791824
319.60 1.791368
319.70 1.7911
319.80 1.790832
319.90 1.790564
320.00 1.790197
320.10 1.789722
320.20 1.789581
320.30 1.789105
320.40 1.789272
320.50 1.788797
320.60 1.78863
320.70 1.788156
320.80 1.787758
320.90 1.787444
321.00 1.787129
321.10 1.786815
321.20 1.786957
321.30 1.786618
321.40 1.786279
321.50 1.78594
321.60 1.785601
321.70 1.785262
321.80 1.784966
321.90 1.784716
322.00 1.784654
322.10 1.784336
322.20 1.784018
322.30 1.7837
322.40 1.783382
322.50 1.783064
322.60 1.782746
322.70 1.782428
322.80 1.781952
322.90 1.78169
323.00 1.781428
323.10 1.781167
323.20 1.780905
323.30 1.780643
323.40 1.780381
323.50 1.780119
323.60 1.779857
323.70 1.779595
323.80 1.779333
323.90 1.779071
324.00 1.778645
324.10 1.778218
324.20 1.777792
324.30 1.7774
324.40 1.777127
324.50 1.776875
324.60 1.776623
324.70 1.776372
324.80 1.77612
324.90 1.775868
325.00 1.775616
325.10 1.775364
325.20 1.775052
325.30 1.774612
325.40 1.774171
325.50 1.773791
325.60 1.773485
325.70 1.773178
325.80 1.772871
325.90 1.772543
326.00 1.77219
326.10 1.771837
326.20 1.771484
326.30 1.771197
326.40 1.771093
326.50 1.770775
326.60 1.770456
326.70 1.770138
326.80 1.769819
326.90 1.769501
327.00 1.769183
327.10 1.768864
327.20 1.768546
327.30 1.768228
327.40 1.76791
327.50 1.767592
327.60 1.767274
327.70 1.766956
327.80 1.766638
327.90 1.766241
328.00 1.765848
328.10 1.765563
328.20 1.765278
328.30 1.764993
328.40 1.764709
328.50 1.764342
328.60 1.763955
328.70 1.763569
328.80 1.763206
328.90 1.762908
329.00 1.762609
329.10 1.762311
329.20 1.762012
329.30 1.761714
329.40 1.761416
329.50 1.761118
329.60 1.760819
329.70 1.760521
329.80 1.760223
329.90 1.759925
330.00 1.759555
330.10 1.759099
330.20 1.758642
330.30 1.758186
330.40 1.757806
330.50 1.757508
330.60 1.75721
330.70 1.756912
330.80 1.756614
330.90 1.756316
331.00 1.756018
331.10 1.75572
331.20 1.755423
331.30 1.755125
331.40 1.754827
331.50 1.754512
331.60 1.754176
331.70 1.75384
331.80 1.753492
331.90 1.753144
332.00 1.752796
332.10 1.752448
332.20 1.7521
332.30 1.751752
332.40 1.751405
332.50 1.751057
332.60 1.75071
332.70 1.750362
332.80 1.750015
332.90 1.749668
333.00 1.749321
333.10 1.748951
333.20 1.748554
333.30 1.748158
333.40 1.747761
333.50 1.747365
333.60 1.746969
333.70 1.746573
333.80 1.746177
333.90 1.745781
334.00 1.745385
334.10 1.745008
334.20 1.744652
334.30 1.744296
334.40 1.74394
334.50 1.743584
334.60 1.743229
334.70 1.743074
334.80 1.742975
334.90 1.742607
335.00 1.742239
335.10 1.741605
335.20 1.741152
335.30 1.741022
335.40 1.74057
335.50 1.740191
335.60 1.739666
335.70 1.739477
335.80 1.739025
335.90 1.73864
336.00 1.738334
336.10 1.738029
336.20 1.737724
336.30 1.737397
336.40 1.737043
336.50 1.73669
336.60 1.736337
336.70 1.735983
336.80 1.73563
336.90 1.735231
337.00 1.734776
337.10 1.734321
337.20 1.733866
337.30 1.733455
337.40 1.733107
337.50 1.73276
337.60 1.732412
337.70 1.732065
337.80 1.731718
337.90 1.731368
338.00 1.731014
338.10 1.73066
338.20 1.730307
338.30 1.729953
338.40 1.729594
338.50 1.72922
338.60 1.728846
338.70 1.728472
338.80 1.728098
338.90 1.727724
339.00 1.72735
339.10 1.726977
339.20 1.726604
339.30 1.726206
339.40 1.725772
339.50 1.725372
339.60 1.725014
339.70 1.724655
339.80 1.724296
339.90 1.723938
340.00 1.723579
340.10 1.723221
340.20 1.722863
340.30 1.722505
340.40 1.722147
340.50 1.72179
340.60 1.721432
340.70 1.721074
340.80 1.720687
340.90 1.720256
341.00 1.71982
341.10 1.719378
341.20 1.718936
341.30 1.718495
341.40 1.718053
341.50 1.717612
341.60 1.717171
341.70 1.716731
341.80 1.716335
341.90 1.715994
342.00 1.715654
342.10 1.715313
342.20 1.715122
342.30 1.714724
342.40 1.714232
342.50 1.713891
342.60 1.71355
342.70 1.713209
342.80 1.712868
342.90 1.712527
343.00 1.71214
343.10 1.711696
343.20 1.711252
343.30 1.710809
343.40 1.710368
343.50 1.709931
343.60 1.709494
343.70 1.709057
343.80 1.70862
343.90 1.708184
344.00 1.707805
344.10 1.707508
344.20 1.707211
344.30 1.706914
344.40 1.70656
344.50 1.706125
344.60 1.705476
344.70 1.705318
344.80 1.704606
344.90 1.704449
345.00 1.703951
345.10 1.703516
345.20 1.703085
345.30 1.702659
345.40 1.702233
345.50 1.701794
345.60 1.701386
345.70 1.701045
345.80 1.700704
345.90 1.700364
346.00 1.700023
346.10 1.699682
346.20 1.699304
346.30 1.698873
346.40 1.698441
346.50 1.698009
346.60 1.697578
346.70 1.697147
346.80 1.696716
346.90 1.696286
347.00 1.695855
347.10 1.695425
347.20 1.695
347.30 1.694584
347.40 1.694167
347.50 1.693751
347.60 1.693335
347.70 1.692919
347.80 1.692503
347.90 1.692088
348.00 1.691672
348.10 1.691257
348.20 1.690842
348.30 1.690428
348.40 1.690013
348.50 1.689599
348.60 1.689185
348.70 1.688959
348.80 1.688686
348.90 1.68826
349.00 1.687833
349.10 1.687407
349.20 1.686981
349.30 1.686555
349.40 1.686129
349.50 1.685704
349.60 1.685279
349.70 1.684854
349.80 1.684429
349.90 1.684005
350.00 1.68358
350.10 1.683156
350.20 1.682732
350.30 1.682308
350.40 1.681882
350.50 1.681456
350.60 1.68103
350.70 1.680605
350.80 1.68018
350.90 1.679755
351.00 1.679331
351.10 1.678906
351.20 1.678482
351.30 1.678058
351.40 1.677649
351.50 1.677266
351.60 1.676884
351.70 1.676502
351.80 1.676119
351.90 1.675737
352.00 1.675356
352.10 1.674974
352.20 1.674401
352.30 1.673886
352.40 1.673484
352.50 1.673083
352.60 1.672682
352.70 1.672281
352.80 1.67188
352.90 1.671479
353.00 1.671079
353.10 1.670679
353.20 1.670279
353.30 1.669879
353.40 1.669479
353.50 1.669024
353.60 1.668554
353.70 1.668085
353.80 1.667617
353.90 1.667168
354.00 1.666755
354.10 1.666342
354.20 1.66593
354.30 1.665517
354.40 1.665105
354.50 1.664693
354.60 1.664281
354.70 1.663869
354.80 1.663436
354.90 1.662974
355.00 1.662511
355.10 1.662049
355.20 1.661587
355.30 1.661136
355.40 1.660685
355.50 1.660235
355.60 1.659785
355.70 1.659464
355.80 1.659201
355.90 1.658698
356.00 1.658169
356.10 1.657742
356.20 1.657315
356.30 1.656888
356.40 1.656461
356.50 1.656034
356.60 1.655608
356.70 1.655182
356.80 1.654756
356.90 1.65433
357.00 1.653905
357.10 1.653479
357.20 1.653054
357.30 1.652629
357.40 1.652191
357.50 1.651727
357.60 1.651263
357.70 1.6508
357.80 1.650345
357.90 1.64989
358.00 1.649456
358.10 1.649027
358.20 1.648598
358.30 1.64817
358.40 1.647741
358.50 1.647313
358.60 1.646885
358.70 1.646458
358.80 1.64603
358.90 1.645603
359.00 1.645165
359.10 1.644707
359.20 1.644247
359.30 1.64377
359.40 1.643293
359.50 1.642903
359.60 1.642535
359.70 1.642168
359.80 1.641641
359.90 1.641114
360.00 1.640619
360.10 1.640181
360.20 1.639743
360.30 1.639306
360.40 1.638869
360.50 1.638431
360.60 1.638171
360.70 1.637643
360.80 1.637114
360.90 1.636587
361.00 1.636248
361.10 1.635803
361.20 1.635627
361.30 1.634923
361.40 1.634321
361.50 1.633921
361.60 1.633703
361.70 1.633303
361.80 1.632864
361.90 1.632355
362.00 1.631846
362.10 1.631302
362.20 1.630784
362.30 1.630324
362.40 1.629864
362.50 1.629405
362.60 1.628946
362.70 1.628692
362.80 1.628239
362.90 1.62784
363.00 1.627441
363.10 1.627001
363.20 1.626561
363.30 1.625757
363.40 1.625486
363.50 1.624966
363.60 1.62457
363.70 1.624231
363.80 1.62378
363.90 1.623362
364.00 1.622944
364.10 1.622525
364.20 1.622108
364.30 1.621532
364.40 1.620918
364.50 1.62053
364.60 1.620135
364.70 1.61974
364.80 1.619346
364.90 1.618953
365.00 1.618561
365.10 1.617921
365.20 1.617529
365.30 1.616891
365.40 1.616499
365.50 1.616108
365.60 1.615717
365.70 1.615281
365.80 1.614846
365.90 1.614271
366.00 1.613663
366.10 1.613264
366.20 1.612866
366.30 1.612468
366.40 1.612071
366.50 1.61171
366.60 1.610836
366.70 1.610514
366.80 1.610193
366.90 1.60983
367.00 1.609392
367.10 1.608955
367.20 1.608518
367.30 1.608082
367.40 1.607645
367.50 1.607075
367.60 1.606472
367.70 1.605983
367.80 1.605494
367.90 1.605006
368.00 1.604684
368.10 1.604055
368.20 1.603626
368.30 1.603201
368.40 1.602776
368.50 1.602351
368.60 1.601927
368.70 1.601502
368.80 1.601078
368.90 1.600495
369.00 1.600055
369.10 1.599723
369.20 1.599345
369.30 1.598801
369.40 1.598257
369.50 1.597714
369.60 1.597329
369.70 1.596945
369.80 1.596473
369.90 1.596
370.00 1.595528
370.10 1.594943
370.20 1.594557
370.30 1.594176
370.40 1.593549
370.50 1.593174
370.60 1.592561
370.70 1.592181
370.80 1.591799
370.90 1.591417
371.00 1.590802
371.10 1.590186
371.20 1.589805
371.30 1.589424
371.40 1.589179
371.50 1.588679
371.60 1.588179
371.70 1.58768
371.80 1.587181
371.90 1.586682
372.00 1.586105
372.10 1.585932
372.20 1.585397
372.30 1.584863
372.40 1.584328
372.50 1.583794
372.60 1.583261
372.70 1.582727
372.80 1.58235
372.90 1.581973
373.00 1.581601
373.10 1.581229
373.20 1.580618
373.30 1.580008
373.40 1.579634
373.50 1.57926
373.60 1.578887
373.70 1.578042
373.80 1.577773
373.90 1.577297
374.00 1.576807
374.10 1.576317
374.20 1.575828
374.30 1.575338
374.40 1.575084
374.50 1.574596
374.60 1.574105
374.70 1.573617
374.80 1.57313
374.90 1.572644
375.00 1.572117
375.10 1.571591
375.20 1.571066
375.30 1.57063
375.40 1.570194
375.50 1.569758
375.60 1.569323
375.70 1.568887
375.80 1.568452
375.90 1.568018
376.00 1.567645
376.10 1.567117
376.20 1.566589
376.30 1.56606
376.40 1.565532
376.50 1.565011
376.60 1.564501
376.70 1.56399
376.80 1.563536
376.90 1.563139
377.00 1.562742
377.10 1.562346
377.20 1.561919
377.30 1.56138
377.40 1.56084
377.50 1.560302
377.60 1.559877
377.70 1.559453
377.80 1.559029
377.90 1.558605
378.00 1.558021
378.10 1.557567
378.20 1.557116
378.30 1.556666
378.40 1.556216
378.50 1.555767
378.60 1.555317
378.70 1.554868
378.80 1.554419
378.90 1.55396
379.00 1.553479
379.10 1.553027
379.20 1.552574
379.30 1.552087
379.40 1.551564
379.50 1.551041
379.60 1.550555
379.70 1.550112
379.80 1.549629
379.90 1.549146
380.00 1.548664
380.10 1.548182
380.20 1.547701
380.30 1.547219
380.40 1.546738
380.50 1.546258
380.60 1.545614
380.70 1.545215
380.80 1.544817
380.90 1.544419
381.00 1.544021
381.10 1.543494
381.20 1.542854
381.30 1.542498
381.40 1.541852
381.50 1.541508
381.60 1.541131
381.70 1.540624
381.80 1.539817
381.90 1.539462
382.00 1.539108
382.10 1.538528
382.20 1.538129
382.30 1.537775
382.40 1.537364
382.50 1.536868
382.60 1.536372
382.70 1.535732
382.80 1.535086
382.90 1.534599
383.00 1.534112
383.10 1.533625
383.20 1.533177
383.30 1.532872
383.40 1.532498
383.50 1.532019
383.60 1.531252
383.70 1.530808
383.80 1.530364
383.90 1.52992
384.00 1.529476
384.10 1.529033
384.20 1.52859
384.30 1.528147
384.40 1.527684
384.50 1.527201
384.60 1.526719
384.70 1.526237
384.80 1.525689
384.90 1.52503
385.00 1.52462
385.10 1.524202
385.20 1.523622
385.30 1.523282
385.40 1.522872
385.50 1.522392
385.60 1.521912
385.70 1.521433
385.80 1.520943
385.90 1.520414
386.00 1.519912
386.10 1.519441
386.20 1.518995
386.30 1.51855
386.40 1.518042
386.50 1.51759
386.60 1.516915
386.70 1.516461
386.80 1.516117
386.90 1.515664
387.00 1.514991
387.10 1.514648
387.20 1.514184
387.30 1.513534
387.40 1.513181
387.50 1.512595
387.60 1.512127
387.70 1.511676
387.80 1.511225
387.90 1.510774
388.00 1.510362
388.10 1.509914
388.20 1.509275
388.30 1.508775
388.40 1.508276
388.50 1.507813
388.60 1.50734
388.70 1.506958
388.80 1.506389
388.90 1.505886
389.00 1.505548
389.10 1.504953
389.20 1.504625
389.30 1.504176
389.40 1.503626
389.50 1.503134
389.60 1.50265
389.70 1.501982
389.80 1.501507
389.90 1.501031
390.00 1.500556
390.10 1.500082
390.20 1.499607
390.30 1.499118
390.40 1.498611
390.50 1.498104
390.60 1.497598
390.70 1.497092
390.80 1.4967
390.90 1.496421
391.00 1.495844
391.10 1.495288
391.20 1.494811
391.30 1.49449
391.40 1.494013
391.50 1.493536
391.60 1.49306
391.70 1.492584
391.80 1.492108
391.90 1.491499
392.00 1.490886
392.10 1.490497
392.20 1.490074
392.30 1.48946
392.40 1.488984
392.50 1.488653
392.60 1.487894
392.70 1.487564
392.80 1.487234
392.90 1.486556
393.00 1.486027
393.10 1.485536
393.20 1.485081
393.30 1.484539
393.40 1.484084
393.50 1.483649
393.60 1.483156
393.70 1.482567
393.80 1.482258
393.90 1.481718
394.00 1.481221
394.10 1.480933
394.20 1.480397
394.30 1.479938
394.40 1.479427
394.50 1.478677
394.60 1.4784
394.70 1.478065
394.80 1.47751
394.90 1.476964
395.00 1.476625
395.10 1.475877
395.20 1.47535
395.30 1.474879
395.40 1.474407
395.50 1.473986
395.60 1.473583
395.70 1.47316
395.80 1.47268
395.90 1.4722
396.00 1.471697
396.10 1.471011
396.20 1.470478
396.30 1.470173
396.40 1.469567
396.50 1.469177
396.60 1.468578
396.70 1.468183
396.80 1.467613
396.90 1.467122
397.00 1.466801
397.10 1.46641
397.20 1.465741
397.30 1.465074
397.40 1.4646
397.50 1.464125
397.60 1.463654
397.70 1.463213
397.80 1.462773
397.90 1.462333
398.00 1.461896
398.10 1.461458
398.20 1.460962
398.30 1.460398
398.40 1.45984
398.50 1.459427
398.60 1.459106
398.70 1.458599
398.80 1.458036
398.90 1.457523
399.00 1.457099
399.10 1.456394
399.20 1.455949
399.30 1.455504
399.40 1.45506
399.50 1.454615
399.60 1.454156
399.70 1.453692
399.80 1.453228
399.90 1.452764
400.00 1.452293
400.10 1.451567
400.20 1.451253
400.30 1.450658
400.40 1.450096
400.50 1.449901
400.60 1.449327
400.70 1.448809
400.80 1.448141
400.90 1.447829
401.00 1.447132
401.10 1.446795
401.20 1.446395
401.30 1.445762
401.40 1.445263
401.50 1.444846
401.60 1.44443
401.70 1.444025
401.80 1.443391
401.90 1.442886
402.00 1.442377
402.10 1.442053
402.20 1.441336
402.30 1.441026
402.40 1.440588
402.50 1.440001
402.60 1.439692
402.70 1.438977
402.80 1.438669
402.90 1.438117
403.00 1.437607
403.10 1.436934
403.20 1.436636
403.30 1.436235
403.40 1.435607
403.50 1.435085
403.60 1.434623
403.70 1.434283
403.80 1.433579
403.90 1.433099
404.00 1.432789
404.10 1.432252
404.20 1.431745
404.30 1.431238
404.40 1.430933
404.50 1.430226
404.60 1.429921
404.70 1.429215
404.80 1.428911
404.90 1.428205
405.00 1.427902
405.10 1.427426
405.20 1.427008
405.30 1.426591
405.40 1.426087
405.50 1.425584
405.60 1.425082
405.70 1.424579
405.80 1.424077
405.90 1.423576
406.00 1.423116
406.10 1.422656
406.20 1.422197
406.30 1.421738
406.40 1.421272
406.50 1.420673
406.60 1.420272
406.70 1.419699
406.80 1.419156
406.90 1.418583
407.00 1.418085
407.10 1.417587
407.20 1.417089
407.30 1.416592
407.40 1.416095
407.50 1.415599
407.60 1.415102
407.70 1.414607
407.80 1.414111
407.90 1.413616
408.00 1.41314
408.10 1.412818
408.20 1.412426
408.30 1.411863
408.40 1.411301
408.50 1.411039
408.60 1.410485
408.70 1.409932
408.80 1.409413
408.90 1.409104
409.00 1.408567
409.10 1.408029
409.20 1.407492
409.30 1.406955
409.40 1.406423
409.50 1.406014
409.60 1.405605
409.70 1.405177
409.80 1.404672
409.90 1.404162
410.00 1.403477
410.10 1.403119
410.20 1.402623
410.30 1.402092
410.40 1.401587
410.50 1.401161
410.60 1.400736
410.70 1.400291
410.80 1.399767
410.90 1.399244
411.00 1.398767
411.10 1.398308
411.20 1.397848
411.30 1.397345
411.40 1.396674
411.50 1.39627
411.60 1.395867
411.70 1.395448
411.80 1.394964
411.90 1.394442
412.00 1.393765
412.10 1.393477
412.20 1.392801
412.30 1.392513
412.40 1.391852
412.50 1.39155
412.60 1.390876
412.70 1.390443
412.80 1.39007
412.90 1.389628
413.00 1.389011
413.10 1.388568
413.20 1.388126
413.30 1.387684
413.40 1.387242
413.50 1.386754
413.60 1.38613
413.70 1.385652
413.80 1.385175
413.90 1.384698
414.00 1.384222
414.10 1.383745
414.20 1.383223
414.30 1.382939
414.40 1.382272
414.50 1.381988
414.60 1.381368
414.70 1.380893
414.80 1.380419
414.90 1.379945
415.00 1.379471
415.10 1.378998
415.20 1.378508
415.30 1.377963
415.40 1.377418
415.50 1.376879
415.60 1.37649
415.70 1.376101
415.80 1.375677
415.90 1.375141
416.00 1.374605
416.10 1.374081
416.20 1.373603
416.30 1.373126
416.40 1.372648
416.50 1.372172
416.60 1.371703
416.70 1.371229
416.80 1.370571
416.90 1.370292
417.00 1.369635
417.10 1.369363
417.20 1.368896
417.30 1.368427
417.40 1.367905
417.50 1.367384
417.60 1.366836
417.70 1.366187
417.80 1.365722
417.90 1.365257
418.00 1.364792
418.10 1.364328
418.20 1.363864
418.30 1.363394
418.40 1.362792
418.50 1.362345
418.60 1.361898
418.70 1.361452
418.80 1.361005
418.90 1.36056
419.00 1.360114
419.10 1.359669
419.20 1.359224
419.30 1.358777
419.40 1.358261
419.50 1.357746
419.60 1.35723
419.70 1.356709
419.80 1.35619
419.90 1.355683
420.00 1.355221
420.10 1.354759
420.20 1.354297
420.30 1.353835
420.40 1.353373
420.50 1.352912
420.60 1.352451
420.70 1.351991
420.80 1.351531
420.90 1.351069
421.00 1.350561
421.10 1.350053
421.20 1.349552
421.30 1.34907
421.40 1.348589
421.50 1.348108
421.60 1.347627
421.70 1.347147
421.80 1.346666
421.90 1.346192
422.00 1.345735
422.10 1.345266
422.20 1.344746
422.30 1.344225
422.40 1.343706
422.50 1.34322
422.60 1.342733
422.70 1.342247
422.80 1.341761
422.90 1.341276
423.00 1.34079
423.10 1.340305
423.20 1.339821
423.30 1.339336
423.40 1.338852
423.50 1.338369
423.60 1.337885
423.70 1.337402
423.80 1.336919
423.90 1.336437
424.00 1.335955
424.10 1.335473
424.20 1.334991
424.30 1.33451
424.40 1.333998
424.50 1.333517
424.60 1.333037
424.70 1.332557
424.80 1.332077
424.90 1.331597
425.00 1.331118
