# Version 2.1 - nm, norm@500 to 1, cut digits, bergeron_He_20000_75.dat_20000
# Wavelength(nm)  Flambda(ergs/cm^s/s/nm)
300.00 3.96992
300.10 3.967341
300.20 3.964698
300.30 3.961984
300.40 3.958771
300.50 3.955562
300.60 3.952357
300.70 3.949155
300.80 3.945956
300.90 3.942761
301.00 3.939569
301.10 3.93638
301.20 3.933195
301.30 3.930013
301.40 3.926835
301.50 3.92366
301.60 3.920488
301.70 3.917319
301.80 3.914154
301.90 3.910992
302.00 3.907834
302.10 3.904403
302.20 3.900946
302.30 3.897492
302.40 3.894042
302.50 3.890596
302.60 3.887153
302.70 3.883714
302.80 3.880279
302.90 3.876847
303.00 3.873419
303.10 3.869995
303.20 3.866575
303.30 3.863154
303.40 3.859698
303.50 3.856246
303.60 3.852797
303.70 3.849353
303.80 3.845912
303.90 3.842474
304.00 3.839041
304.10 3.835611
304.20 3.832185
304.30 3.828762
304.40 3.825343
304.50 3.821928
304.60 3.81844
304.70 3.814948
304.80 3.81146
304.90 3.807975
305.00 3.804494
305.10 3.801017
305.20 3.797543
305.30 3.794074
305.40 3.790608
305.50 3.787146
305.60 3.783687
305.70 3.780232
305.80 3.776781
305.90 3.773334
306.00 3.76989
306.10 3.76645
306.20 3.763014
306.30 3.759581
306.40 3.756177
306.50 3.752783
306.60 3.749393
306.70 3.746007
306.80 3.742625
306.90 3.739246
307.00 3.73587
307.10 3.732499
307.20 3.72913
307.30 3.725766
307.40 3.722405
307.50 3.719047
307.60 3.715694
307.70 3.712343
307.80 3.708997
307.90 3.705654
308.00 3.702314
308.10 3.698978
308.20 3.695646
308.30 3.692317
308.40 3.688991
308.50 3.68567
308.60 3.682351
308.70 3.679037
308.80 3.675691
308.90 3.672249
309.00 3.669047
309.10 3.665848
309.20 3.662653
309.30 3.659461
309.40 3.656233
309.50 3.652767
309.60 3.649304
309.70 3.645845
309.80 3.64239
309.90 3.638939
310.00 3.635491
310.10 3.632047
310.20 3.628606
310.30 3.62517
310.40 3.621799
310.50 3.6185
310.60 3.615204
310.70 3.611912
310.80 3.608623
310.90 3.605337
311.00 3.60196
311.10 3.598587
311.20 3.595217
311.30 3.591822
311.40 3.588353
311.50 3.584888
311.60 3.581426
311.70 3.577967
311.80 3.574513
311.90 3.571062
312.00 3.567615
312.10 3.564172
312.20 3.560308
312.30 3.55621
312.40 3.55248
312.50 3.549925
312.60 3.546249
312.70 3.542577
312.80 3.538909
312.90 3.535176
313.00 3.531374
313.10 3.527575
313.20 3.52378
313.30 3.519971
313.40 3.516113
313.50 3.51226
313.60 3.508411
313.70 3.504566
313.80 3.500725
313.90 3.496888
314.00 3.493055
314.10 3.488658
314.20 3.484265
314.30 3.479877
314.40 3.475494
314.50 3.471115
314.60 3.466742
314.70 3.462374
314.80 3.457713
314.90 3.45213
315.00 3.44646
315.10 3.440415
315.20 3.434376
315.30 3.428345
315.40 3.42232
315.50 3.416302
315.60 3.410291
315.70 3.403647
315.80 3.39701
315.90 3.390381
316.00 3.38376
316.10 3.377785
316.20 3.371817
316.30 3.373515
316.40 3.373296
316.50 3.353955
316.60 3.312343
316.70 3.288608
316.80 3.264902
316.90 3.262842
317.00 3.260783
317.10 3.258727
317.20 3.256673
317.30 3.269928
317.40 3.278725
317.50 3.274875
317.60 3.27103
317.70 3.26719
317.80 3.263353
317.90 3.238855
318.00 3.204804
318.10 3.14884
318.20 3.092945
318.30 3.037119
318.40 2.955245
318.50 2.799184
318.60 2.613062
318.70 2.206024
318.80 1.78668
318.90 2.216128
319.00 2.480422
319.10 2.650679
319.20 2.795734
319.30 2.869532
319.40 2.943237
319.50 3.01685
319.60 3.072172
319.70 3.10099
319.80 3.129771
319.90 3.158515
320.00 3.181175
320.10 3.197258
320.20 3.211739
320.30 3.222318
320.40 3.231751
320.50 3.238562
320.60 3.244369
320.70 3.248554
320.80 3.251691
320.90 3.253695
321.00 3.255695
321.10 3.257693
321.20 3.258202
321.30 3.257886
321.40 3.25757
321.50 3.257254
321.60 3.256938
321.70 3.256621
321.80 3.255885
321.90 3.254695
322.00 3.252913
322.10 3.251352
322.20 3.249793
322.30 3.248236
322.40 3.246679
322.50 3.245124
322.60 3.243571
322.70 3.242018
322.80 3.24022
322.90 3.238104
323.00 3.235991
323.10 3.233879
323.20 3.23177
323.30 3.229662
323.40 3.227557
323.50 3.225454
323.60 3.223352
323.70 3.221253
323.80 3.219155
323.90 3.21706
324.00 3.214749
324.10 3.21244
324.20 3.210134
324.30 3.207914
324.40 3.205651
324.50 3.203081
324.60 3.200514
324.70 3.197949
324.80 3.195387
324.90 3.192827
325.00 3.19027
325.10 3.187715
325.20 3.185218
325.30 3.18284
325.40 3.180464
325.50 3.178005
325.60 3.175447
325.70 3.172891
325.80 3.170337
325.90 3.167803
326.00 3.165291
326.10 3.162781
326.20 3.160273
326.30 3.157916
326.40 3.155981
326.50 3.153388
326.60 3.150798
326.70 3.14821
326.80 3.145625
326.90 3.143042
327.00 3.140462
327.10 3.137885
327.20 3.13531
327.30 3.132738
327.40 3.130168
327.50 3.1276
327.60 3.125036
327.70 3.122474
327.80 3.119914
327.90 3.117671
328.00 3.114849
328.10 3.110906
328.20 3.106966
328.30 3.103031
328.40 3.0991
328.50 3.096826
328.60 3.094941
328.70 3.093059
328.80 3.091073
328.90 3.088794
329.00 3.086517
329.10 3.084242
329.20 3.08197
329.30 3.079699
329.40 3.077431
329.50 3.075165
329.60 3.072901
329.70 3.07064
329.80 3.06838
329.90 3.066123
330.00 3.063781
330.10 3.061334
330.20 3.05889
330.30 3.056449
330.40 3.053987
330.50 3.051503
330.60 3.049022
330.70 3.046543
330.80 3.044067
330.90 3.041593
331.00 3.039121
331.10 3.036652
331.20 3.034185
331.30 3.031721
331.40 3.029259
331.50 3.026874
331.60 3.024582
331.70 3.022293
331.80 3.019546
331.90 3.016783
332.00 3.014023
332.10 3.011265
332.20 3.00851
332.30 3.005758
332.40 3.003009
332.50 3.000262
332.60 2.997519
332.70 2.994778
332.80 2.992039
332.90 2.989304
333.00 2.986571
333.10 2.983486
333.20 2.97997
333.30 2.976458
333.40 2.97295
333.50 2.969445
333.60 2.965944
333.70 2.962446
333.80 2.958952
333.90 2.955462
334.00 2.951976
334.10 2.947892
334.20 2.943079
334.30 2.938272
334.40 2.93347
334.50 2.928672
334.60 2.923881
334.70 2.917996
334.80 2.909991
334.90 2.900865
335.00 2.891751
335.10 2.881993
335.20 2.873455
335.30 2.86416
335.40 2.854648
335.50 2.862873
335.60 2.86882
335.70 2.873032
335.80 2.87755
335.90 2.880916
336.00 2.882877
336.10 2.884836
336.20 2.886792
336.30 2.887432
336.40 2.886468
336.50 2.885504
336.60 2.884542
336.70 2.883579
336.80 2.882618
336.90 2.881695
337.00 2.88082
337.10 2.879946
337.20 2.879072
337.30 2.877857
337.40 2.876151
337.50 2.874447
337.60 2.872744
337.70 2.871043
337.80 2.869344
337.90 2.867548
338.00 2.865635
338.10 2.863723
338.20 2.861814
338.30 2.859906
338.40 2.857917
338.50 2.855727
338.60 2.853538
338.70 2.851352
338.80 2.849168
338.90 2.846986
339.00 2.844806
339.10 2.842628
339.20 2.840452
339.30 2.838252
339.40 2.836014
339.50 2.833688
339.60 2.831255
339.70 2.828825
339.80 2.826397
339.90 2.823971
340.00 2.821548
340.10 2.819127
340.20 2.816708
340.30 2.814292
340.40 2.811878
340.50 2.809467
340.60 2.807057
340.70 2.804651
340.80 2.802097
340.90 2.799332
341.00 2.79658
341.10 2.793843
341.20 2.791109
341.30 2.788377
341.40 2.785648
341.50 2.782922
341.60 2.780199
341.70 2.777478
341.80 2.774558
341.90 2.771392
342.00 2.768231
342.10 2.765072
342.20 2.761679
342.30 2.758267
342.40 2.754757
342.50 2.750774
342.60 2.746796
342.70 2.742821
342.80 2.738851
342.90 2.734885
343.00 2.730537
343.10 2.725724
343.20 2.720915
343.30 2.716112
343.40 2.710413
343.50 2.703424
343.60 2.696442
343.70 2.689468
343.80 2.682502
343.90 2.675543
344.00 2.666049
344.10 2.652906
344.20 2.639777
344.30 2.626664
344.40 2.609261
344.50 2.585689
344.60 2.560133
344.70 2.529657
344.80 2.557674
344.90 2.578895
345.00 2.602055
345.10 2.614486
345.20 2.624754
345.30 2.631917
345.40 2.639072
345.50 2.64463
345.60 2.647447
345.70 2.649122
345.80 2.650793
345.90 2.652463
346.00 2.65413
346.10 2.655794
346.20 2.656365
346.30 2.655363
346.40 2.654362
346.50 2.653362
346.60 2.652363
346.70 2.651364
346.80 2.650366
346.90 2.649369
347.00 2.648373
347.10 2.647377
347.20 2.646164
347.30 2.644641
347.40 2.643118
347.50 2.641597
347.60 2.640078
347.70 2.638559
347.80 2.637042
347.90 2.635527
348.00 2.634012
348.10 2.632499
348.20 2.630987
348.30 2.629477
348.40 2.627967
348.50 2.626459
348.60 2.624953
348.70 2.622856
348.80 2.620779
348.90 2.618997
349.00 2.617217
349.10 2.615438
349.20 2.613661
349.30 2.611886
349.40 2.610112
349.50 2.60834
349.60 2.606569
349.70 2.6048
349.80 2.603033
349.90 2.601267
350.00 2.599503
350.10 2.59774
350.20 2.595979
350.30 2.594256
350.40 2.592588
350.50 2.59092
350.60 2.589255
350.70 2.58759
350.80 2.585927
350.90 2.584266
351.00 2.582606
351.10 2.580948
351.20 2.579291
351.30 2.577635
351.40 2.575999
351.50 2.574395
351.60 2.572792
351.70 2.571191
351.80 2.569591
351.90 2.567992
352.00 2.566395
352.10 2.5648
352.20 2.56333
352.30 2.561875
352.40 2.560421
352.50 2.558968
352.60 2.557517
352.70 2.556067
352.80 2.554618
352.90 2.553171
353.00 2.551724
353.10 2.550279
353.20 2.548835
353.30 2.547393
353.40 2.545951
353.50 2.544695
353.60 2.543486
353.70 2.542278
353.80 2.541071
353.90 2.539864
354.00 2.538657
354.10 2.537451
354.20 2.536246
354.30 2.535042
354.40 2.533838
354.50 2.532636
354.60 2.531435
354.70 2.530234
354.80 2.529036
354.90 2.527841
355.00 2.526647
355.10 2.525454
355.20 2.524262
355.30 2.523076
355.40 2.521891
355.50 2.520706
355.60 2.519523
355.70 2.518478
355.80 2.517496
355.90 2.516358
356.00 2.515112
356.10 2.513909
356.20 2.512707
356.30 2.511505
356.40 2.510305
356.50 2.509106
356.60 2.507907
356.70 2.50671
356.80 2.505513
356.90 2.504318
357.00 2.503123
357.10 2.501929
357.20 2.500737
357.30 2.499545
357.40 2.498386
357.50 2.497286
357.60 2.496187
357.70 2.495089
357.80 2.493694
357.90 2.492301
358.00 2.49045
358.10 2.488487
358.20 2.486526
358.30 2.484567
358.40 2.482609
358.50 2.480653
358.60 2.478699
358.70 2.476747
358.80 2.474797
358.90 2.472848
359.00 2.470466
359.10 2.467314
359.20 2.46412
359.30 2.460626
359.40 2.457135
359.50 2.452804
359.60 2.448266
359.70 2.443732
359.80 2.437517
359.90 2.431307
360.00 2.423417
360.10 2.412535
360.20 2.401665
360.30 2.390807
360.40 2.37996
360.50 2.369125
360.60 2.349686
360.70 2.322864
360.80 2.296071
360.90 2.269308
361.00 2.236628
361.10 2.180205
361.20 2.111244
361.30 2.000317
361.40 2.110375
361.50 2.21523
361.60 2.256781
361.70 2.260413
361.80 2.26695
361.90 2.278647
362.00 2.29033
362.10 2.295981
362.20 2.297175
362.30 2.293134
362.40 2.289096
362.50 2.285063
362.60 2.281034
362.70 2.273291
362.80 2.264384
362.90 2.252041
363.00 2.239711
363.10 2.226545
363.20 2.213384
363.30 2.203975
363.40 2.201312
363.50 2.213148
363.60 2.233664
363.70 2.249652
363.80 2.262566
363.90 2.272344
364.00 2.28211
364.10 2.291865
364.20 2.301609
364.30 2.312381
364.40 2.3234
364.50 2.333745
364.60 2.341082
364.70 2.348411
364.80 2.355731
364.90 2.359715
365.00 2.363694
365.10 2.362878
365.20 2.357754
365.30 2.355028
365.40 2.361391
365.50 2.368224
365.60 2.375049
365.70 2.381129
365.80 2.387201
365.90 2.391186
366.00 2.394646
366.10 2.396147
366.20 2.397646
366.30 2.399143
366.40 2.400638
366.50 2.401406
366.60 2.401066
366.70 2.400117
366.80 2.399168
366.90 2.39766
367.00 2.39516
367.10 2.392662
367.20 2.390167
367.30 2.387674
367.40 2.385183
367.50 2.381126
367.60 2.376681
367.70 2.370666
367.80 2.364657
367.90 2.358654
368.00 2.352658
368.10 2.344852
368.20 2.334465
368.30 2.324067
368.40 2.31368
368.50 2.303304
368.60 2.292939
368.70 2.282585
368.80 2.272242
368.90 2.260963
369.00 2.24703
369.10 2.232866
369.20 2.217475
369.30 2.198796
369.40 2.180137
369.50 2.161498
369.60 2.137075
369.70 2.112678
369.80 2.084569
369.90 2.056452
370.00 2.028366
370.10 1.998215
370.20 1.962201
370.30 1.926219
370.40 1.889391
370.50 1.874208
370.60 1.916175
370.70 1.966321
370.80 2.004074
370.90 2.041787
371.00 2.058613
371.10 2.07521
371.20 2.089307
371.30 2.103389
371.40 2.119538
371.50 2.13511
371.60 2.150666
371.70 2.166204
371.80 2.181725
371.90 2.19723
372.00 2.210716
372.10 2.222703
372.20 2.231188
372.30 2.239663
372.40 2.248129
372.50 2.256585
372.60 2.265032
372.70 2.27347
372.80 2.277736
372.90 2.281997
373.00 2.284938
373.10 2.287862
373.20 2.283427
373.30 2.278996
373.40 2.243889
373.50 2.228499
373.60 2.243774
373.70 2.263147
373.80 2.276588
373.90 2.291783
374.00 2.299231
374.10 2.30667
374.20 2.314101
374.30 2.321524
374.40 2.325977
374.50 2.329926
374.60 2.332791
374.70 2.335649
374.80 2.338504
374.90 2.341356
375.00 2.342528
375.10 2.3437
375.20 2.34487
375.30 2.344656
375.40 2.344443
375.50 2.34423
375.60 2.344016
375.70 2.343802
375.80 2.343588
375.90 2.343374
376.00 2.342128
376.10 2.340493
376.20 2.338856
376.30 2.33722
376.40 2.335586
376.50 2.333489
376.60 2.330697
376.70 2.327908
376.80 2.324849
376.90 2.32152
377.00 2.318194
377.10 2.314872
377.20 2.311405
377.30 2.307385
377.40 2.30337
377.50 2.299358
377.60 2.293857
377.70 2.288361
377.80 2.282871
377.90 2.277387
378.00 2.271873
378.10 2.26418
378.20 2.256473
378.30 2.248774
378.40 2.241083
378.50 2.233399
378.60 2.225723
378.70 2.218055
378.80 2.210395
378.90 2.202015
379.00 2.192292
379.10 2.18154
379.20 2.170798
379.30 2.15942
379.40 2.147408
379.50 2.135407
379.60 2.122701
379.70 2.108079
379.80 2.090276
379.90 2.072492
380.00 2.054726
380.10 2.036978
380.20 2.019249
380.30 2.001538
380.40 1.983845
380.50 1.966171
380.60 1.940849
380.70 1.912596
380.80 1.884373
380.90 1.856179
381.00 1.828014
381.10 1.793533
381.20 1.757258
381.30 1.718368
381.40 1.676274
381.50 1.629051
381.60 1.579477
381.70 1.527112
381.80 1.479591
381.90 1.446858
382.00 1.41241
382.10 1.486015
382.20 1.562515
382.30 1.630285
382.40 1.688923
382.50 1.733915
382.60 1.77886
382.70 1.815737
382.80 1.834749
382.90 1.844958
383.00 1.855155
383.10 1.865341
383.20 1.877111
383.30 1.894859
383.40 1.912548
383.50 1.930157
383.60 1.946925
383.70 1.960195
383.80 1.973451
383.90 1.986693
384.00 1.99992
384.10 2.013134
384.20 2.026334
384.30 2.039519
384.40 2.050712
384.50 2.059913
384.60 2.069105
384.70 2.078288
384.80 2.086992
384.90 2.093709
385.00 2.100016
385.10 2.106263
385.20 2.110121
385.30 2.114266
385.40 2.117491
385.50 2.119797
385.60 2.122101
385.70 2.124403
385.80 2.12662
385.90 2.128526
386.00 2.129231
386.10 2.128383
386.20 2.123976
386.30 2.119572
386.40 2.111961
386.50 2.097073
386.60 2.072342
386.70 2.011493
386.80 1.850846
386.90 1.911524
387.00 1.960991
387.10 1.990976
387.20 2.012961
387.30 2.029656
387.40 2.039605
387.50 2.046238
387.60 2.050502
387.70 2.046896
387.80 2.043293
387.90 2.039693
388.00 2.033525
388.10 2.015839
388.20 1.983046
388.30 1.940081
388.40 1.897161
388.50 1.838298
388.60 1.742046
388.70 1.596484
388.80 1.343268
388.90 1.238356
389.00 1.464502
389.10 1.623748
389.20 1.732334
389.30 1.811822
389.40 1.871786
389.50 1.924036
389.60 1.96319
389.70 1.991183
389.80 2.009457
389.90 2.027712
390.00 2.045948
390.10 2.064165
390.20 2.082364
390.30 2.095144
390.40 2.101825
390.50 2.1085
390.60 2.115167
390.70 2.121827
390.80 2.126737
390.90 2.129898
391.00 2.132283
391.10 2.133624
391.20 2.13469
391.30 2.134001
391.40 2.132493
391.50 2.130988
391.60 2.129483
391.70 2.12798
391.80 2.126478
391.90 2.124807
392.00 2.122394
392.10 2.119154
392.20 2.115858
392.30 2.111962
392.40 2.108105
392.50 2.105127
392.60 2.100741
392.70 2.096649
392.80 2.095582
392.90 2.096266
393.00 2.097838
393.10 2.099295
393.20 2.100554
393.30 2.101137
393.40 2.101571
393.50 2.101328
393.60 2.098931
393.70 2.097546
393.80 2.096443
393.90 2.094967
394.00 2.09353
394.10 2.091487
394.20 2.08834
394.30 2.084453
394.40 2.079781
394.50 2.073457
394.60 2.065992
394.70 2.057986
394.80 2.047924
394.90 2.037802
395.00 2.025401
395.10 2.012344
395.20 1.996102
395.30 1.97912
395.40 1.962156
395.50 1.93796
395.60 1.911108
395.70 1.880048
395.80 1.837572
395.90 1.795139
396.00 1.750851
396.10 1.678937
396.20 1.584131
396.30 1.476907
396.40 1.297353
396.50 1.392394
396.60 1.662212
396.70 1.748307
396.80 1.741744
396.90 1.723314
397.00 1.771951
397.10 1.863512
397.20 1.904708
397.30 1.905683
397.40 1.909555
397.50 1.913423
397.60 1.917369
397.70 1.922131
397.80 1.926887
397.90 1.930717
398.00 1.93205
398.10 1.933382
398.20 1.93332
398.30 1.93169
398.40 1.930006
398.50 1.926563
398.60 1.922406
398.70 1.916816
398.80 1.910939
398.90 1.90429
399.00 1.896206
399.10 1.888015
399.20 1.877879
399.30 1.867754
399.40 1.857639
399.50 1.847533
399.60 1.835314
399.70 1.822321
399.80 1.809341
399.90 1.796373
400.00 1.783357
400.10 1.768352
400.20 1.752402
400.30 1.735583
400.40 1.71866
400.50 1.701309
400.60 1.682326
400.70 1.663194
400.80 1.642264
400.90 1.617211
401.00 1.597374
401.10 1.583294
401.20 1.568792
401.30 1.552832
401.40 1.53243
401.50 1.510543
401.60 1.488452
401.70 1.4591
401.80 1.426438
401.90 1.389334
402.00 1.349969
402.10 1.307904
402.20 1.263288
402.30 1.217268
402.40 1.174381
402.50 1.135837
402.60 1.097626
402.70 1.113448
402.80 1.161299
402.90 1.216969
403.00 1.27337
403.10 1.328143
403.20 1.379974
403.30 1.427
403.40 1.470582
403.50 1.508177
403.60 1.544069
403.70 1.574934
403.80 1.602259
403.90 1.624593
404.00 1.645608
404.10 1.660184
404.20 1.668742
404.30 1.677291
404.40 1.674261
404.50 1.647146
404.60 1.631511
404.70 1.64201
404.80 1.658843
404.90 1.67466
405.00 1.688726
405.10 1.701798
405.20 1.714569
405.30 1.727327
405.40 1.73813
405.50 1.748922
405.60 1.759703
405.70 1.770474
405.80 1.781233
405.90 1.791982
406.00 1.799984
406.10 1.807978
406.20 1.815964
406.30 1.823942
406.40 1.831878
406.50 1.838877
406.60 1.845293
406.70 1.851478
406.80 1.857501
406.90 1.862783
407.00 1.86711
407.10 1.871432
407.20 1.87575
407.30 1.880063
407.40 1.884372
407.50 1.888677
407.60 1.892977
407.70 1.897273
407.80 1.901564
407.90 1.905807
408.00 1.908646
408.10 1.911111
408.20 1.913154
408.30 1.91546
408.40 1.917764
408.50 1.919231
408.60 1.920409
408.70 1.921586
408.80 1.922721
408.90 1.923397
409.00 1.923629
409.10 1.92386
409.20 1.924091
409.30 1.924321
409.40 1.924532
409.50 1.92413
409.60 1.923729
409.70 1.92322
409.80 1.922282
409.90 1.921344
410.00 1.920407
410.10 1.918205
410.20 1.916068
410.30 1.913949
410.40 1.911457
410.50 1.907784
410.60 1.904114
410.70 1.900015
410.80 1.894188
410.90 1.888367
411.00 1.880498
411.10 1.871878
411.20 1.863265
411.30 1.854007
411.40 1.841952
411.50 1.823736
411.60 1.805538
411.70 1.783057
411.80 1.74341
411.90 1.69763
412.00 1.591861
412.10 1.279036
412.20 1.355827
412.30 1.465597
412.40 1.539183
412.50 1.584573
412.60 1.619168
412.70 1.642489
412.80 1.662979
412.90 1.681145
413.00 1.68933
413.10 1.689997
413.20 1.690663
413.30 1.691328
413.40 1.691993
413.50 1.691426
413.60 1.685092
413.70 1.67607
413.80 1.667057
413.90 1.658052
414.00 1.648072
414.10 1.634989
414.20 1.619506
414.30 1.592909
414.40 1.56946
414.50 1.571802
414.60 1.591332
414.70 1.61247
414.80 1.632741
414.90 1.650314
415.00 1.667869
415.10 1.685408
415.20 1.701576
415.30 1.713442
415.40 1.725297
415.50 1.737078
415.60 1.746842
415.70 1.756596
415.80 1.765899
415.90 1.773792
416.00 1.781678
416.10 1.788941
416.20 1.793738
416.30 1.798531
416.40 1.803319
416.50 1.807999
416.60 1.809338
416.70 1.81061
416.80 1.807715
416.90 1.790863
417.00 1.785581
417.10 1.79716
417.20 1.806203
417.30 1.815134
417.40 1.82074
417.50 1.826339
417.60 1.831516
417.70 1.834996
417.80 1.837776
417.90 1.840552
418.00 1.843326
418.10 1.846097
418.20 1.848865
418.30 1.851604
418.40 1.853375
418.50 1.854786
418.60 1.856194
418.70 1.857601
418.80 1.859007
418.90 1.860411
419.00 1.861813
419.10 1.863214
419.20 1.864613
419.30 1.865981
419.40 1.866374
419.50 1.866766
419.60 1.867147
419.70 1.867481
419.80 1.867816
419.90 1.868026
420.00 1.867846
420.10 1.867666
420.20 1.867485
420.30 1.867304
420.40 1.867124
420.50 1.866943
420.60 1.866763
420.70 1.866582
420.80 1.866401
420.90 1.866207
421.00 1.86558
421.10 1.864953
421.20 1.864313
421.30 1.863633
421.40 1.862954
421.50 1.862275
421.60 1.861597
421.70 1.860919
421.80 1.860242
421.90 1.859515
422.00 1.858634
422.10 1.857754
422.20 1.856874
422.30 1.855994
422.40 1.85511
422.50 1.854051
422.60 1.852993
422.70 1.851936
422.80 1.85088
422.90 1.849824
423.00 1.848769
423.10 1.847715
423.20 1.846662
423.30 1.84561
423.40 1.844558
423.50 1.843507
423.60 1.842457
423.70 1.841408
423.80 1.840359
423.90 1.839311
424.00 1.838264
424.10 1.837218
424.20 1.836173
424.30 1.835128
424.40 1.834117
424.50 1.832895
424.60 1.831674
424.70 1.830454
424.80 1.829235
424.90 1.828017
425.00 1.826799
