# Version 2.1 - nm, norm@500 to 1, cut digits, bergeron_He_3750_80.dat_3750
# Wavelength(nm)  Flambda(ergs/cm^s/s/nm)
300.00 0.01783971
300.10 0.01790804
300.20 0.01797672
300.30 0.01804553
300.40 0.01811574
300.50 0.01818585
300.60 0.01825586
300.70 0.01832578
300.80 0.01839559
300.90 0.01846532
301.00 0.01853494
301.10 0.01860447
301.20 0.0186739
301.30 0.01874324
301.40 0.01881248
301.50 0.01888162
301.60 0.01895067
301.70 0.01901962
301.80 0.01908848
301.90 0.01915724
302.00 0.0192259
302.10 0.01929791
302.20 0.0193702
302.30 0.01944239
302.40 0.01951448
302.50 0.01958647
302.60 0.01965836
302.70 0.01973015
302.80 0.01980184
302.90 0.01987343
303.00 0.01994493
303.10 0.02001632
303.20 0.02008762
303.30 0.02015934
303.40 0.02023564
303.50 0.02031184
303.60 0.02038794
303.70 0.02046393
303.80 0.02053981
303.90 0.02061559
304.00 0.02069127
304.10 0.02076684
304.20 0.02084231
304.30 0.02091768
304.40 0.02099294
304.50 0.0210681
304.60 0.02114675
304.70 0.0212257
304.80 0.02130454
304.90 0.02138327
305.00 0.02146189
305.10 0.02154041
305.20 0.02161882
305.30 0.02169712
305.40 0.02177531
305.50 0.0218534
305.60 0.02193138
305.70 0.02200925
305.80 0.02208702
305.90 0.02216468
306.00 0.02224223
306.10 0.02231968
306.20 0.02239702
306.30 0.02247426
306.40 0.02255715
306.50 0.02264166
306.60 0.02272604
306.70 0.02281031
306.80 0.02289447
306.90 0.02297851
307.00 0.02306244
307.10 0.02314625
307.20 0.02322995
307.30 0.02331354
307.40 0.02339701
307.50 0.02348037
307.60 0.02356361
307.70 0.02364674
307.80 0.02372976
307.90 0.02381267
308.00 0.02389546
308.10 0.02397814
308.20 0.02406071
308.30 0.02414317
308.40 0.02422551
308.50 0.02430774
308.60 0.02438987
308.70 0.02447187
308.80 0.02455653
308.90 0.02464894
309.00 0.02473502
309.10 0.02482098
309.20 0.02490683
309.30 0.02499257
309.40 0.02507881
309.50 0.02516878
309.60 0.02525863
309.70 0.02534836
309.80 0.02543796
309.90 0.02552745
310.00 0.02561681
310.10 0.02570606
310.20 0.02579518
310.30 0.02588418
310.40 0.02597405
310.50 0.02606486
310.60 0.02615555
310.70 0.02624612
310.80 0.02633657
310.90 0.02642689
311.00 0.02651789
311.10 0.02660876
311.20 0.0266995
311.30 0.02679085
311.40 0.02688412
311.50 0.02697728
311.60 0.0270703
311.70 0.0271632
311.80 0.02725598
311.90 0.02734863
312.00 0.02744116
312.10 0.02753356
312.20 0.02762815
312.30 0.02772643
312.40 0.02782323
312.50 0.02791308
312.60 0.02800919
312.70 0.02810517
312.80 0.02820103
312.90 0.02829716
313.00 0.02839361
313.10 0.02848992
313.20 0.02858611
313.30 0.02868311
313.40 0.02878267
313.50 0.02888209
313.60 0.02898139
313.70 0.02908054
313.80 0.02917957
313.90 0.02927847
314.00 0.02937723
314.10 0.02947788
314.20 0.0295784
314.30 0.02967879
314.40 0.02977904
314.50 0.02987916
314.60 0.02997915
314.70 0.030079
314.80 0.03017968
314.90 0.03028225
315.00 0.03038393
315.10 0.03048585
315.20 0.03058764
315.30 0.03068929
315.40 0.03079081
315.50 0.03089219
315.60 0.03099344
315.70 0.03109851
315.80 0.03120344
315.90 0.03130823
316.00 0.03141289
316.10 0.0315174
316.20 0.03162178
316.30 0.03172602
316.40 0.03183012
316.50 0.03193999
316.60 0.03203791
316.70 0.03214749
316.80 0.03225694
316.90 0.03236329
317.00 0.0324695
317.10 0.03257557
317.20 0.0326815
317.30 0.03278929
317.40 0.03289728
317.50 0.03300611
317.60 0.03311479
317.70 0.03322334
317.80 0.03333174
317.90 0.03344177
318.00 0.03355817
318.10 0.03366867
318.20 0.03377903
318.30 0.03388925
318.40 0.03400008
318.50 0.03411292
318.60 0.03422106
318.70 0.03432953
318.80 0.03445067
318.90 0.03455419
319.00 0.03467491
319.10 0.03478686
319.20 0.03489909
319.30 0.03501238
319.40 0.03512552
319.50 0.03523851
319.60 0.03535724
319.70 0.035473
319.80 0.0355886
319.90 0.03570405
320.00 0.03581711
320.10 0.03592758
320.20 0.03604504
320.30 0.03616517
320.40 0.0362752
320.50 0.03639661
320.60 0.0365151
320.70 0.03663044
320.80 0.03674701
320.90 0.03686492
321.00 0.03698267
321.10 0.03710028
321.20 0.03722236
321.30 0.03734401
321.40 0.0374655
321.50 0.03758683
321.60 0.037708
321.70 0.03782901
321.80 0.0379473
321.90 0.03806266
322.00 0.03818431
322.10 0.03830819
322.20 0.0384319
322.30 0.03855546
322.40 0.03867885
322.50 0.03880208
322.60 0.03892515
322.70 0.03904807
322.80 0.03917345
322.90 0.03929942
323.00 0.03942522
323.10 0.03955086
323.20 0.03967634
323.30 0.03980165
323.40 0.03992681
323.50 0.0400518
323.60 0.04017662
323.70 0.04030129
323.80 0.04042579
323.90 0.04055014
324.00 0.04067887
324.10 0.04080744
324.20 0.04093584
324.30 0.04106544
324.40 0.04119737
324.50 0.04132765
324.60 0.04145776
324.70 0.0415877
324.80 0.04171748
324.90 0.04184709
325.00 0.04197653
325.10 0.0421058
325.20 0.04223522
325.30 0.04236516
325.40 0.04249493
325.50 0.04262665
325.60 0.04276077
325.70 0.04289473
325.80 0.04302851
325.90 0.04316264
326.00 0.04329716
326.10 0.04343151
326.20 0.04356568
326.30 0.0436992
326.40 0.04383115
326.50 0.04397025
326.60 0.04410917
326.70 0.04424791
326.80 0.04438648
326.90 0.04452486
327.00 0.04466307
327.10 0.0448011
327.20 0.04493896
327.30 0.04507664
327.40 0.04521414
327.50 0.04535146
327.60 0.04548861
327.70 0.04562559
327.80 0.04576238
327.90 0.04589699
328.00 0.04603396
328.10 0.04617653
328.20 0.04631891
328.30 0.04646111
328.40 0.04660313
328.50 0.04674476
328.60 0.04688615
328.70 0.04702736
328.80 0.0471696
328.90 0.04731511
329.00 0.04746043
329.10 0.04760557
329.20 0.04775052
329.30 0.04789529
329.40 0.04803987
329.50 0.04818427
329.60 0.04832849
329.70 0.04847252
329.80 0.04861636
329.90 0.04876003
330.00 0.04890573
330.10 0.04905396
330.20 0.049202
330.30 0.04934985
330.40 0.04949913
330.50 0.04964995
330.60 0.04980058
330.70 0.04995102
330.80 0.05010128
330.90 0.05025134
331.00 0.0504012
331.10 0.05055088
331.20 0.05070037
331.30 0.05084967
331.40 0.05099878
331.50 0.0511486
331.60 0.05129933
331.70 0.05144987
331.80 0.05160643
331.90 0.05176304
332.00 0.05191945
332.10 0.05207567
332.20 0.05223169
332.30 0.05238751
332.40 0.05254314
332.50 0.05269857
332.60 0.0528538
332.70 0.05300884
332.80 0.05316368
332.90 0.05331832
333.00 0.05347277
333.10 0.05362958
333.20 0.0537893
333.30 0.05394883
333.40 0.05410815
333.50 0.05426727
333.60 0.05442619
333.70 0.05458491
333.80 0.05474343
333.90 0.05490176
334.00 0.05505988
334.10 0.05522019
334.20 0.05538321
334.30 0.05554602
334.40 0.05570864
334.50 0.05587104
334.60 0.05603325
334.70 0.05619415
334.80 0.05635538
334.90 0.05651911
335.00 0.05668264
335.10 0.05684359
335.20 0.05700984
335.30 0.0571793
335.40 0.05734645
335.50 0.05751076
335.60 0.05767749
335.70 0.05784033
335.80 0.05801059
335.90 0.05817944
336.00 0.05834665
336.10 0.05851365
336.20 0.05868043
336.30 0.05884897
336.40 0.0590197
336.50 0.05919022
336.60 0.05936052
336.70 0.05953061
336.80 0.05970048
336.90 0.05987078
337.00 0.06004164
337.10 0.06021229
337.20 0.06038273
337.30 0.06055508
337.40 0.06073029
337.50 0.06090528
337.60 0.06108005
337.70 0.06125461
337.80 0.06142895
337.90 0.06160329
338.00 0.06177767
338.10 0.06195185
338.20 0.0621258
338.30 0.06229954
338.40 0.06247485
338.50 0.06265432
338.60 0.06283357
338.70 0.0630126
338.80 0.06319141
338.90 0.06336999
339.00 0.06354835
339.10 0.0637265
339.20 0.06390441
339.30 0.06408415
339.40 0.06426658
339.50 0.06444971
339.60 0.06463371
339.70 0.06481749
339.80 0.06500105
339.90 0.06518437
340.00 0.06536747
340.10 0.06555034
340.20 0.06573299
340.30 0.06591541
340.40 0.0660976
340.50 0.06627957
340.60 0.06646132
340.70 0.06664284
340.80 0.06682757
340.90 0.06701702
341.00 0.0672059
341.10 0.06739414
341.20 0.06758214
341.30 0.06776991
341.40 0.06795745
341.50 0.06814475
341.60 0.06833183
341.70 0.06851867
341.80 0.06870733
341.90 0.06889826
342.00 0.06908895
342.10 0.06927941
342.20 0.06946897
342.30 0.06965991
342.40 0.06985221
342.50 0.07004507
342.60 0.07023769
342.70 0.07043007
342.80 0.07062222
342.90 0.07081413
343.00 0.07100743
343.10 0.0712025
343.20 0.07139732
343.30 0.0715919
343.40 0.07178825
343.50 0.07198722
343.60 0.07218595
343.70 0.07238444
343.80 0.07258268
343.90 0.07278068
344.00 0.07297844
344.10 0.07317595
344.20 0.07337323
344.30 0.07357026
344.40 0.07376909
344.50 0.07397063
344.60 0.07417396
344.70 0.07437002
344.80 0.0745758
344.90 0.07477611
345.00 0.07497666
345.10 0.07518169
345.20 0.07538647
345.30 0.075591
345.40 0.07579529
345.50 0.07599932
345.60 0.07620378
345.70 0.07640897
345.80 0.0766139
345.90 0.07681859
346.00 0.07702302
346.10 0.07722721
346.20 0.07743412
346.30 0.07764505
346.40 0.07785572
346.50 0.07806613
346.60 0.07827629
346.70 0.07848619
346.80 0.07869584
346.90 0.07890523
347.00 0.07911437
347.10 0.07932326
347.20 0.07953479
347.30 0.07975025
347.40 0.07996544
347.50 0.08018037
347.60 0.08039504
347.70 0.08060945
347.80 0.0808236
347.90 0.08103749
348.00 0.08125112
348.10 0.0814645
348.20 0.08167761
348.30 0.08189047
348.40 0.08210306
348.50 0.08231541
348.60 0.08252749
348.70 0.08274513
348.80 0.08296592
348.90 0.08318869
349.00 0.08341119
349.10 0.08363342
349.20 0.08385538
349.30 0.08407708
349.40 0.0842985
349.50 0.08451966
349.60 0.08474056
349.70 0.08496118
349.80 0.08518155
349.90 0.08540164
350.00 0.08562147
350.10 0.08584104
350.20 0.08606034
350.30 0.08628324
350.40 0.08651144
350.50 0.08673937
350.60 0.08696702
350.70 0.0871944
350.80 0.08742151
350.90 0.08764834
351.00 0.0878749
351.10 0.08810119
351.20 0.0883272
351.30 0.08855294
351.40 0.08878041
351.50 0.08901115
351.60 0.08924162
351.70 0.08947181
351.80 0.08970172
351.90 0.08993135
352.00 0.09016071
352.10 0.0903898
352.20 0.09062586
352.30 0.09086257
352.40 0.09109918
352.50 0.0913355
352.60 0.09157154
352.70 0.09180729
352.80 0.09204276
352.90 0.09227795
353.00 0.09251286
353.10 0.09274749
353.20 0.09298184
353.30 0.09321591
353.40 0.0934497
353.50 0.09368281
353.60 0.09391555
353.70 0.094148
353.80 0.09438018
353.90 0.09461584
354.00 0.0948579
354.10 0.09509967
354.20 0.09534115
354.30 0.09558234
354.40 0.09582325
354.50 0.09606387
354.60 0.0963042
354.70 0.09654424
354.80 0.09678578
354.90 0.09702959
355.00 0.0972731
355.10 0.09751633
355.20 0.09775927
355.30 0.09800882
355.40 0.09825808
355.50 0.09850705
355.60 0.09875571
355.70 0.09901604
355.80 0.09928143
355.90 0.09955115
356.00 0.09981031
356.10 0.1000645
356.20 0.1003185
356.30 0.1005721
356.40 0.1008255
356.50 0.1010785
356.60 0.1013312
356.70 0.1015837
356.80 0.1018358
356.90 0.1020877
357.00 0.1023392
357.10 0.1025904
357.20 0.1028414
357.30 0.103092
357.40 0.1033407
357.50 0.1035861
357.60 0.1038312
357.70 0.104076
357.80 0.1043541
357.90 0.1046318
358.00 0.1048953
358.10 0.105155
358.20 0.1054145
358.30 0.1056736
358.40 0.1059324
358.50 0.1061909
358.60 0.106449
358.70 0.1067069
358.80 0.1069645
358.90 0.1072218
359.00 0.1074834
359.10 0.1077528
359.20 0.1080201
359.30 0.1082748
359.40 0.1085292
359.50 0.1087934
359.60 0.1090598
359.70 0.1093259
359.80 0.1095769
359.90 0.1098275
360.00 0.1100883
360.10 0.1103671
360.20 0.1106456
360.30 0.1109238
360.40 0.1112017
360.50 0.1114792
360.60 0.1117257
360.70 0.1120049
360.80 0.1122838
360.90 0.1125624
361.00 0.1128348
361.10 0.1130894
361.20 0.1133191
361.30 0.1136554
361.40 0.1139051
361.50 0.1141999
361.60 0.1144663
361.70 0.1147649
361.80 0.1150474
361.90 0.1153016
362.00 0.1155554
362.10 0.115856
362.20 0.1161537
362.30 0.1164258
362.40 0.1166976
362.50 0.116969
362.60 0.1172402
362.70 0.1175425
362.80 0.1178075
362.90 0.1181003
363.00 0.1183928
363.10 0.1186558
363.20 0.1189183
363.30 0.1191874
363.40 0.1194579
363.50 0.1197729
363.60 0.1200652
363.70 0.1203372
363.80 0.1206487
363.90 0.1209229
364.00 0.1211968
364.10 0.1214704
364.20 0.1217437
364.30 0.1220619
364.40 0.1223911
364.50 0.1226839
364.60 0.1229716
364.70 0.123259
364.80 0.123546
364.90 0.1238339
365.00 0.1241214
365.10 0.1244087
365.20 0.1246512
365.30 0.1249821
365.40 0.1252683
365.50 0.1255542
365.60 0.1258397
365.70 0.126133
365.80 0.1264259
365.90 0.1267435
366.00 0.127067
366.10 0.1273665
366.20 0.1276656
366.30 0.1279644
366.40 0.1282629
366.50 0.1284802
366.60 0.1288533
366.70 0.1291498
366.80 0.129446
366.90 0.1297409
367.00 0.1300337
367.10 0.1303262
367.20 0.1306184
367.30 0.1309102
367.40 0.1312017
367.50 0.1315145
367.60 0.1318322
367.70 0.1321292
367.80 0.1324258
367.90 0.132722
368.00 0.1330317
368.10 0.1333919
368.20 0.1336976
368.30 0.1340024
368.40 0.1343069
368.50 0.134611
368.60 0.1349148
368.70 0.1352182
368.80 0.1355213
368.90 0.1358564
369.00 0.1361833
369.10 0.1364935
369.20 0.1367708
369.30 0.1370728
369.40 0.1373745
369.50 0.1376758
369.60 0.1379893
369.70 0.1383025
369.80 0.1386253
369.90 0.1389478
370.00 0.13927
370.10 0.1395602
370.20 0.1399152
370.30 0.1402713
370.40 0.1405406
370.50 0.1408539
370.60 0.1411646
370.70 0.1415235
370.80 0.1418326
370.90 0.1421415
371.00 0.1424537
371.10 0.1427657
371.20 0.1431162
371.30 0.1434663
371.40 0.1437945
371.50 0.1441164
371.60 0.1444379
371.70 0.1447591
371.80 0.1450799
371.90 0.1454003
372.00 0.1456683
372.10 0.1460174
372.20 0.1463519
372.30 0.1466861
372.40 0.1470199
372.50 0.1473533
372.60 0.1476863
372.70 0.1480189
372.80 0.1483209
372.90 0.1486225
373.00 0.1489699
373.10 0.1493173
373.20 0.1496622
373.30 0.1500068
373.40 0.1503509
373.50 0.1506522
373.60 0.1509532
373.70 0.1512962
373.80 0.1516654
373.90 0.1519811
374.00 0.152323
374.10 0.1526645
374.20 0.1530055
374.30 0.1533462
374.40 0.1536865
374.50 0.1540224
374.60 0.1543628
374.70 0.1547031
374.80 0.1550429
374.90 0.1553823
375.00 0.1557203
375.10 0.156058
375.20 0.1563952
375.30 0.1567441
375.40 0.1570925
375.50 0.1574406
375.60 0.1577883
375.70 0.1581356
375.80 0.1584825
375.90 0.158829
376.00 0.159159
376.10 0.1595117
376.20 0.1598642
376.30 0.1602164
376.40 0.1605681
376.50 0.1609176
376.60 0.1612638
376.70 0.1616096
376.80 0.1619533
376.90 0.1622947
377.00 0.1626357
377.10 0.1629763
377.20 0.1633194
377.30 0.1636732
377.40 0.1640266
377.50 0.1643796
377.60 0.1647438
377.70 0.1651075
377.80 0.1654708
377.90 0.1658337
378.00 0.1661778
378.10 0.1665398
378.20 0.1669019
378.30 0.1672636
378.40 0.1676249
378.50 0.1679858
378.60 0.1683463
378.70 0.1687064
378.80 0.1690661
378.90 0.169418
379.00 0.1697559
379.10 0.1701276
379.20 0.1704989
379.30 0.170865
379.40 0.1712258
379.50 0.1715863
379.60 0.1719595
379.70 0.172347
379.80 0.1727154
379.90 0.1730835
380.00 0.1734511
380.10 0.1738184
380.20 0.1741852
380.30 0.1745516
380.40 0.1749176
380.50 0.1752832
380.60 0.1756265
380.70 0.1759983
380.80 0.1763697
380.90 0.1767406
381.00 0.1771112
381.10 0.1775276
381.20 0.177921
381.30 0.1782777
381.40 0.178624
381.50 0.1790308
381.60 0.1794284
381.70 0.1797962
381.80 0.1801862
381.90 0.1805383
382.00 0.1808899
382.10 0.1812817
382.20 0.1816892
382.30 0.1820396
382.40 0.1824104
382.50 0.1828121
382.60 0.1832133
382.70 0.1835765
382.80 0.1839336
382.90 0.1843269
383.00 0.1847197
383.10 0.185112
383.20 0.1855043
383.30 0.1858971
383.40 0.1862778
383.50 0.1866406
383.60 0.1869904
383.70 0.1873908
383.80 0.1877907
383.90 0.1881902
384.00 0.1885893
384.10 0.188988
384.20 0.1893862
384.30 0.1897839
384.40 0.190176
384.50 0.1905623
384.60 0.1909482
384.70 0.1913337
384.80 0.1917146
384.90 0.192097
385.00 0.1925113
385.10 0.1929236
385.20 0.1932825
385.30 0.1936678
385.40 0.1940608
385.50 0.1944615
385.60 0.1948616
385.70 0.1952614
385.80 0.195663
385.90 0.1960729
386.00 0.1964804
386.10 0.196884
386.20 0.1972723
386.30 0.1976602
386.40 0.1980775
386.50 0.1984975
386.60 0.198905
386.70 0.199277
386.80 0.1996685
386.90 0.2000793
387.00 0.2005133
387.10 0.2008857
387.20 0.2013207
387.30 0.2017041
387.40 0.2021111
387.50 0.2025323
387.60 0.202916
387.70 0.2033429
387.80 0.2037693
387.90 0.2041953
388.00 0.2046053
388.10 0.205002
388.20 0.2054244
388.30 0.205842
388.40 0.2062591
388.50 0.2066614
388.60 0.2070465
388.70 0.2075038
388.80 0.2079068
388.90 0.2083135
389.00 0.2087062
389.10 0.2091448
389.20 0.2095389
389.30 0.2099667
389.40 0.2103793
389.50 0.2107932
389.60 0.2112134
389.70 0.2116441
389.80 0.2120654
389.90 0.2124864
390.00 0.2129068
390.10 0.2133268
390.20 0.2137463
390.30 0.2141668
390.40 0.2145884
390.50 0.2150095
390.60 0.2154302
390.70 0.2158504
390.80 0.2162897
390.90 0.216748
391.00 0.2171651
391.10 0.2175799
391.20 0.2179937
391.30 0.2184196
391.40 0.2188617
391.50 0.2193034
391.60 0.2197446
391.70 0.2201853
391.80 0.2206255
391.90 0.2210427
392.00 0.2214457
392.10 0.221866
392.20 0.2222966
392.30 0.2227708
392.40 0.223181
392.50 0.223629
392.60 0.2240911
392.70 0.2244759
392.80 0.224937
392.90 0.2253895
393.00 0.2258048
393.10 0.2262316
393.20 0.226673
393.30 0.2271317
393.40 0.2275765
393.50 0.2280381
393.60 0.2284283
393.70 0.228885
393.80 0.2293413
393.90 0.229797
394.00 0.2302451
394.10 0.2306616
394.20 0.2311246
394.30 0.231562
394.40 0.2319911
394.50 0.2324318
394.60 0.2329085
394.70 0.2333771
394.80 0.2338163
394.90 0.2342552
395.00 0.2347058
395.10 0.235177
395.20 0.2356254
395.30 0.2360737
395.40 0.2365215
395.50 0.2369592
395.60 0.2373929
395.70 0.2378371
395.80 0.238311
395.90 0.2387843
396.00 0.2392535
396.10 0.2396884
396.20 0.240133
396.30 0.2405771
396.40 0.2410207
396.50 0.2415269
396.60 0.2419817
396.70 0.2424298
396.80 0.2428756
396.90 0.2433274
397.00 0.2437831
397.10 0.2442859
397.20 0.2447222
397.30 0.245224
397.40 0.2456899
397.50 0.2461552
397.60 0.2466197
397.70 0.2470795
397.80 0.2475389
397.90 0.2479988
398.00 0.2484614
398.10 0.2489234
398.20 0.2493824
398.30 0.2498382
398.40 0.2502951
398.50 0.2508002
398.60 0.2512539
398.70 0.2517263
398.80 0.2522076
398.90 0.252688
399.00 0.2531672
399.10 0.2536143
399.20 0.2540835
399.30 0.2545522
399.40 0.2550204
399.50 0.2554881
399.60 0.2559699
399.70 0.2564567
399.80 0.2569429
399.90 0.2574286
400.00 0.2579124
400.10 0.2583523
400.20 0.2588577
400.30 0.2593291
400.40 0.2598124
400.50 0.2602775
400.60 0.2607527
400.70 0.2612492
400.80 0.2617522
400.90 0.2621989
401.00 0.262669
401.10 0.2631763
401.20 0.2636558
401.30 0.2641455
401.40 0.2646375
401.50 0.2651312
401.60 0.2656243
401.70 0.2661127
401.80 0.2666082
401.90 0.2670998
402.00 0.2675862
402.10 0.2680203
402.20 0.2685647
402.30 0.2690502
402.40 0.2695284
402.50 0.2700451
402.60 0.2705148
402.70 0.2710178
402.80 0.2715034
402.90 0.2719738
403.00 0.2724584
403.10 0.272957
403.20 0.2734954
403.30 0.2739756
403.40 0.2744627
403.50 0.2749619
403.60 0.2754658
403.70 0.2759956
403.80 0.2764595
403.90 0.2769823
404.00 0.2774931
404.10 0.2779866
404.20 0.2784649
404.30 0.2789427
404.40 0.2794693
404.50 0.2800052
404.60 0.2804815
404.70 0.2809933
404.80 0.2815236
404.90 0.2820154
405.00 0.2824736
405.10 0.2829941
405.20 0.2835239
405.30 0.2840531
405.40 0.2845612
405.50 0.2850687
405.60 0.2855758
405.70 0.2860822
405.80 0.2865882
405.90 0.2870936
406.00 0.2876024
406.10 0.2881106
406.20 0.2886183
406.30 0.2891255
406.40 0.2896342
406.50 0.2901524
406.60 0.2906882
406.70 0.2912028
406.80 0.2917022
406.90 0.29221
407.00 0.292731
407.10 0.2932514
407.20 0.2937713
407.30 0.2942906
407.40 0.2948094
407.50 0.2953277
407.60 0.2958454
407.70 0.2963625
407.80 0.2968792
407.90 0.2973964
408.00 0.29795
408.10 0.2984699
408.20 0.2989856
408.30 0.299533
408.40 0.3000798
408.50 0.3005457
408.60 0.3010855
408.70 0.3016247
408.80 0.3021596
408.90 0.3026696
409.00 0.3032007
409.10 0.3037313
409.20 0.3042612
409.30 0.3047907
409.40 0.3053202
409.50 0.3058695
409.60 0.3064182
409.70 0.3069633
409.80 0.3074956
409.90 0.3080274
410.00 0.3085608
410.10 0.3090555
410.20 0.3095834
410.30 0.3101192
410.40 0.3106561
410.50 0.311198
410.60 0.3117393
410.70 0.3122836
410.80 0.3128415
410.90 0.3133988
411.00 0.313945
411.10 0.3144867
411.20 0.3150279
411.30 0.3155613
411.40 0.3160672
411.50 0.3166299
411.60 0.3171921
411.70 0.3177502
411.80 0.3182939
411.90 0.318837
412.00 0.3193796
412.10 0.3199216
412.20 0.3204631
412.30 0.3210075
412.40 0.3215644
412.50 0.3220841
412.60 0.3226233
412.70 0.32319
412.80 0.3237632
412.90 0.324328
413.00 0.3248736
413.10 0.3254182
413.20 0.3259623
413.30 0.3265058
413.40 0.3270487
413.50 0.3275952
413.60 0.3281589
413.70 0.3287265
413.80 0.3292935
413.90 0.3298599
414.00 0.3304174
414.10 0.3309481
414.20 0.3315197
414.30 0.3320769
