# Version 2.1 - nm, norm@500 to 1, cut digits, bergeron_He_13000_75.dat_13000
# Wavelength(nm)  Flambda(ergs/cm^s/s/nm)
300.00 2.87552
300.10 2.874201
300.20 2.872874
300.30 2.871541
300.40 2.870158
300.50 2.868777
300.60 2.867396
300.70 2.866017
300.80 2.864639
300.90 2.863262
301.00 2.861886
301.10 2.860512
301.20 2.859139
301.30 2.857767
301.40 2.856396
301.50 2.855026
301.60 2.853658
301.70 2.85229
301.80 2.850924
301.90 2.849559
302.00 2.848196
302.10 2.846792
302.20 2.845386
302.30 2.84398
302.40 2.842576
302.50 2.841173
302.60 2.839772
302.70 2.838371
302.80 2.836972
302.90 2.835574
303.00 2.834178
303.10 2.832782
303.20 2.831388
303.30 2.829994
303.40 2.8286
303.50 2.827206
303.60 2.825814
303.70 2.824423
303.80 2.823033
303.90 2.821645
304.00 2.820257
304.10 2.818871
304.20 2.817486
304.30 2.816102
304.40 2.81472
304.50 2.813338
304.60 2.811947
304.70 2.810555
304.80 2.809164
304.90 2.807774
305.00 2.806386
305.10 2.804999
305.20 2.803613
305.30 2.802228
305.40 2.800845
305.50 2.799463
305.60 2.798082
305.70 2.796702
305.80 2.795323
305.90 2.793946
306.00 2.79257
306.10 2.791195
306.20 2.789821
306.30 2.788448
306.40 2.787056
306.50 2.785658
306.60 2.784262
306.70 2.782867
306.80 2.781473
306.90 2.78008
307.00 2.778689
307.10 2.777298
307.20 2.775909
307.30 2.774521
307.40 2.773135
307.50 2.77175
307.60 2.770365
307.70 2.768982
307.80 2.767601
307.90 2.76622
308.00 2.764841
308.10 2.763463
308.20 2.762086
308.30 2.76071
308.40 2.759336
308.50 2.757962
308.60 2.75659
308.70 2.755219
308.80 2.753869
308.90 2.752575
309.00 2.751173
309.10 2.749772
309.20 2.748373
309.30 2.746975
309.40 2.745579
309.50 2.744185
309.60 2.742793
309.70 2.741403
309.80 2.740013
309.90 2.738625
310.00 2.737238
310.10 2.735852
310.20 2.734467
310.30 2.733084
310.40 2.731707
310.50 2.730336
310.60 2.728967
310.70 2.727599
310.80 2.726233
310.90 2.724867
311.00 2.72344
311.10 2.722013
311.20 2.720588
311.30 2.719176
311.40 2.717798
311.50 2.71642
311.60 2.715044
311.70 2.713669
311.80 2.712295
311.90 2.710923
312.00 2.709552
312.10 2.708181
312.20 2.706739
312.30 2.705274
312.40 2.703876
312.50 2.702511
312.60 2.701106
312.70 2.699701
312.80 2.698298
312.90 2.696877
313.00 2.695438
313.10 2.694001
313.20 2.692564
313.30 2.691131
313.40 2.689702
313.50 2.688274
313.60 2.686848
313.70 2.685423
313.80 2.683999
313.90 2.682576
314.00 2.681155
314.10 2.679679
314.20 2.678204
314.30 2.67673
314.40 2.675258
314.50 2.673787
314.60 2.672317
314.70 2.670849
314.80 2.669421
314.90 2.668019
315.00 2.666526
315.10 2.664883
315.20 2.663241
315.30 2.661601
315.40 2.659963
315.50 2.658326
315.60 2.656691
315.70 2.654787
315.80 2.652886
315.90 2.650986
316.00 2.649088
316.10 2.647118
316.20 2.64515
316.30 2.643918
316.40 2.64254
316.50 2.639259
316.60 2.63437
316.70 2.631536
316.80 2.628705
316.90 2.62712
317.00 2.625535
317.10 2.623953
317.20 2.622371
317.30 2.621892
317.40 2.620894
317.50 2.618423
317.60 2.615954
317.70 2.613489
317.80 2.611025
317.90 2.605179
318.00 2.596647
318.10 2.581379
318.20 2.56613
318.30 2.5509
318.40 2.523642
318.50 2.462154
318.60 2.381908
318.70 2.144729
318.80 1.841081
318.90 2.203394
319.00 2.360755
319.10 2.436252
319.20 2.497181
319.30 2.51687
319.40 2.536533
319.50 2.556172
319.60 2.569078
319.70 2.573094
319.80 2.577104
319.90 2.581109
320.00 2.58379
320.10 2.585041
320.20 2.586002
320.30 2.586478
320.40 2.586551
320.50 2.586195
320.60 2.585804
320.70 2.585191
320.80 2.584475
320.90 2.583648
321.00 2.582822
321.10 2.581997
321.20 2.581221
321.30 2.580156
321.40 2.579092
321.50 2.578028
321.60 2.576965
321.70 2.575903
321.80 2.574767
321.90 2.57355
322.00 2.572437
322.10 2.571227
322.20 2.570018
322.30 2.56881
322.40 2.567603
322.50 2.566397
322.60 2.565192
322.70 2.563988
322.80 2.562678
322.90 2.561391
323.00 2.560106
323.10 2.558821
323.20 2.557537
323.30 2.556255
323.40 2.554973
323.50 2.553693
323.60 2.552413
323.70 2.551135
323.80 2.549858
323.90 2.548582
324.00 2.547308
324.10 2.546035
324.20 2.544764
324.30 2.543508
324.40 2.542258
324.50 2.540964
324.60 2.539672
324.70 2.538381
324.80 2.537091
324.90 2.535802
325.00 2.534515
325.10 2.533228
325.20 2.531917
325.30 2.530554
325.40 2.529192
325.50 2.52787
325.60 2.526597
325.70 2.525324
325.80 2.524053
325.90 2.522775
326.00 2.521489
326.10 2.520204
326.20 2.518921
326.30 2.517628
326.40 2.516304
326.50 2.515009
326.60 2.513716
326.70 2.512423
326.80 2.511132
326.90 2.509842
327.00 2.508553
327.10 2.507265
327.20 2.505978
327.30 2.504693
327.40 2.503408
327.50 2.502124
327.60 2.500842
327.70 2.499561
327.80 2.49828
327.90 2.497011
328.00 2.495688
328.10 2.494284
328.20 2.492882
328.30 2.491481
328.40 2.490081
328.50 2.488836
328.60 2.487627
328.70 2.48642
328.80 2.4852
328.90 2.483942
329.00 2.482685
329.10 2.481429
329.20 2.480174
329.30 2.47892
329.40 2.477667
329.50 2.476415
329.60 2.475164
329.70 2.473915
329.80 2.472666
329.90 2.471418
330.00 2.47015
330.10 2.468858
330.20 2.467566
330.30 2.466275
330.40 2.464994
330.50 2.463722
330.60 2.46245
330.70 2.461181
330.80 2.459912
330.90 2.458644
331.00 2.457377
331.10 2.456111
331.20 2.454847
331.30 2.453583
331.40 2.452321
331.50 2.451058
331.60 2.449794
331.70 2.448532
331.80 2.447216
331.90 2.4459
332.00 2.444584
332.10 2.44327
332.20 2.441957
332.30 2.440644
332.40 2.439334
332.50 2.438024
332.60 2.436715
332.70 2.435407
332.80 2.434101
332.90 2.432796
333.00 2.431492
333.10 2.430154
333.20 2.428775
333.30 2.427397
333.40 2.42602
333.50 2.424645
333.60 2.42327
333.70 2.421897
333.80 2.420525
333.90 2.419155
334.00 2.417785
334.10 2.416322
334.20 2.414745
334.30 2.413169
334.40 2.411595
334.50 2.410022
334.60 2.408451
334.70 2.406826
334.80 2.404994
334.90 2.402959
335.00 2.400925
335.10 2.398753
335.20 2.396538
335.30 2.394123
335.40 2.391195
335.50 2.390911
335.60 2.391506
335.70 2.391527
335.80 2.391144
335.90 2.390615
336.00 2.389908
336.10 2.3892
336.20 2.388493
336.30 2.387641
336.40 2.386611
336.50 2.385581
336.60 2.384553
336.70 2.383525
336.80 2.382498
336.90 2.381412
337.00 2.380255
337.10 2.379099
337.20 2.377944
337.30 2.376791
337.40 2.375642
337.50 2.374494
337.60 2.373347
337.70 2.372201
337.80 2.371055
337.90 2.369884
338.00 2.368681
338.10 2.367479
338.20 2.366279
338.30 2.365079
338.40 2.363864
338.50 2.362612
338.60 2.361361
338.70 2.360111
338.80 2.358862
338.90 2.357614
339.00 2.356367
339.10 2.355121
339.20 2.353876
339.30 2.35268
339.40 2.351554
339.50 2.350365
339.60 2.349098
339.70 2.347832
339.80 2.346567
339.90 2.345304
340.00 2.344041
340.10 2.34278
340.20 2.341519
340.30 2.34026
340.40 2.339002
340.50 2.337745
340.60 2.336489
340.70 2.335234
340.80 2.333985
340.90 2.332745
341.00 2.33149
341.10 2.330218
341.20 2.328947
341.30 2.327677
341.40 2.326408
341.50 2.32514
341.60 2.323873
341.70 2.322607
341.80 2.3213
341.90 2.319943
342.00 2.318586
342.10 2.317231
342.20 2.315877
342.30 2.314524
342.40 2.313155
342.50 2.311762
342.60 2.310371
342.70 2.308981
342.80 2.307592
342.90 2.306204
343.00 2.304753
343.10 2.303225
343.20 2.301698
343.30 2.300172
343.40 2.298435
343.50 2.296392
343.60 2.294351
343.70 2.292312
343.80 2.290275
343.90 2.28824
344.00 2.285732
344.10 2.282544
344.20 2.27936
344.30 2.276178
344.40 2.272392
344.50 2.267733
344.60 2.262668
344.70 2.256155
344.80 2.257705
344.90 2.262781
345.00 2.265347
345.10 2.266992
345.20 2.268139
345.30 2.268573
345.40 2.269005
345.50 2.269183
345.60 2.268853
345.70 2.268237
345.80 2.267621
345.90 2.267005
346.00 2.266389
346.10 2.265774
346.20 2.264975
346.30 2.263912
346.40 2.26285
346.50 2.261788
346.60 2.260728
346.70 2.259668
346.80 2.258609
346.90 2.257551
347.00 2.256494
347.10 2.255438
347.20 2.254337
347.30 2.253172
347.40 2.252008
347.50 2.250844
347.60 2.249682
347.70 2.248521
347.80 2.247361
347.90 2.246201
348.00 2.245043
348.10 2.243886
348.20 2.242729
348.30 2.241574
348.40 2.240419
348.50 2.239266
348.60 2.238113
348.70 2.236997
348.80 2.235853
348.90 2.234652
349.00 2.233452
349.10 2.232253
349.20 2.231055
349.30 2.229858
349.40 2.228662
349.50 2.227466
349.60 2.226272
349.70 2.225079
349.80 2.223887
349.90 2.222696
350.00 2.221506
350.10 2.220317
350.20 2.219129
350.30 2.217936
350.40 2.216735
350.50 2.215535
350.60 2.214336
350.70 2.213139
350.80 2.211942
350.90 2.210746
351.00 2.209551
351.10 2.208357
351.20 2.207165
351.30 2.205973
351.40 2.204782
351.50 2.203591
351.60 2.202401
351.70 2.201213
351.80 2.200025
351.90 2.198838
352.00 2.197653
352.10 2.196468
352.20 2.19537
352.30 2.194235
352.40 2.19303
352.50 2.191827
352.60 2.190624
352.70 2.189423
352.80 2.188223
352.90 2.187023
353.00 2.185825
353.10 2.184628
353.20 2.183431
353.30 2.182236
353.40 2.181042
353.50 2.179858
353.60 2.178678
353.70 2.177499
353.80 2.176322
353.90 2.175144
354.00 2.173968
354.10 2.172793
354.20 2.171618
354.30 2.170445
354.40 2.169272
354.50 2.168101
354.60 2.16693
354.70 2.165761
354.80 2.164593
354.90 2.163426
355.00 2.16226
355.10 2.161095
355.20 2.159931
355.30 2.15877
355.40 2.157609
355.50 2.156449
355.60 2.15529
355.70 2.154164
355.80 2.153053
355.90 2.151907
356.00 2.150749
356.10 2.149606
356.20 2.148463
356.30 2.147321
356.40 2.14618
356.50 2.14504
356.60 2.143901
356.70 2.142763
356.80 2.141626
356.90 2.14049
357.00 2.139355
357.10 2.138221
357.20 2.137088
357.30 2.135955
357.40 2.134825
357.50 2.1337
357.60 2.132575
357.70 2.131451
357.80 2.130364
357.90 2.129278
358.00 2.128127
358.10 2.12696
358.20 2.125795
358.30 2.12463
358.40 2.123467
358.50 2.122304
358.60 2.121142
358.70 2.119982
358.80 2.118822
358.90 2.117663
359.00 2.116498
359.10 2.115319
359.20 2.114129
359.30 2.112854
359.40 2.111581
359.50 2.110193
359.60 2.108776
359.70 2.10736
359.80 2.105674
359.90 2.103989
360.00 2.102065
360.10 2.099718
360.20 2.097372
360.30 2.095029
360.40 2.092688
360.50 2.090349
360.60 2.086077
360.70 2.080069
360.80 2.074068
360.90 2.068073
361.00 2.060642
361.10 2.047976
361.20 2.033191
361.30 2.013131
361.40 2.023154
361.50 2.04725
361.60 2.056436
361.70 2.060011
361.80 2.063054
361.90 2.065153
362.00 2.06725
362.10 2.068373
362.20 2.068771
362.30 2.068316
362.40 2.067861
362.50 2.067406
362.60 2.066951
362.70 2.065825
362.80 2.064364
362.90 2.062561
363.00 2.06076
363.10 2.058108
363.20 2.055451
363.30 2.051568
363.40 2.047994
363.50 2.051311
363.60 2.053847
363.70 2.054875
363.80 2.055692
363.90 2.055777
364.00 2.055861
364.10 2.055944
364.20 2.056027
364.30 2.056026
364.40 2.056003
364.50 2.055766
364.60 2.055372
364.70 2.054978
364.80 2.054585
364.90 2.0539
365.00 2.053215
365.10 2.052091
365.20 2.050747
365.30 2.050284
365.40 2.050042
365.50 2.049579
365.60 2.049117
365.70 2.048595
365.80 2.048074
365.90 2.047366
366.00 2.046613
366.10 2.045818
366.20 2.045023
366.30 2.044229
366.40 2.043436
366.50 2.04256
366.60 2.041667
366.70 2.040719
366.80 2.039771
366.90 2.038765
367.00 2.037654
367.10 2.036544
367.20 2.035435
367.30 2.034327
367.40 2.03322
367.50 2.032017
367.60 2.030791
367.70 2.029401
367.80 2.028012
367.90 2.026624
368.00 2.025186
368.10 2.02355
368.20 2.021631
368.30 2.01971
368.40 2.017792
368.50 2.015875
368.60 2.01396
368.70 2.012047
368.80 2.010136
368.90 2.007967
369.00 2.005427
369.10 2.002912
369.20 2.00009
369.30 1.996855
369.40 1.993622
369.50 1.990393
369.60 1.986216
369.70 1.982042
369.80 1.976804
369.90 1.97156
370.00 1.966322
370.10 1.960641
370.20 1.952739
370.30 1.944834
370.40 1.933043
370.50 1.925571
370.60 1.937418
370.70 1.947834
370.80 1.953688
370.90 1.959535
371.00 1.96205
371.10 1.964527
371.20 1.966225
371.30 1.96792
371.40 1.969375
371.50 1.970494
371.60 1.971611
371.70 1.972726
371.80 1.97384
371.90 1.974953
372.00 1.97564
372.10 1.976244
372.20 1.976242
372.30 1.97624
372.40 1.976237
372.50 1.976234
372.60 1.97623
372.70 1.976227
372.80 1.975692
372.90 1.975158
373.00 1.974314
373.10 1.973468
373.20 1.971567
373.30 1.969668
373.40 1.96535
373.50 1.96514
373.60 1.96556
373.70 1.965874
373.80 1.966241
373.90 1.966502
374.00 1.966342
374.10 1.966183
374.20 1.966023
374.30 1.965863
374.40 1.965337
374.50 1.964805
374.60 1.964125
374.70 1.963444
374.80 1.962763
374.90 1.962082
375.00 1.961314
375.10 1.960547
375.20 1.95978
375.30 1.958855
375.40 1.95793
375.50 1.957006
375.60 1.956083
375.70 1.955161
375.80 1.954239
375.90 1.953319
376.00 1.95228
376.10 1.951286
376.20 1.950294
376.30 1.949303
376.40 1.948313
376.50 1.947276
376.60 1.946171
376.70 1.945067
376.80 1.943974
376.90 1.942895
377.00 1.941816
377.10 1.940738
377.20 1.939644
377.30 1.938488
377.40 1.937332
377.50 1.936178
377.60 1.934973
377.70 1.93377
377.80 1.932568
377.90 1.931366
378.00 1.930037
378.10 1.928587
378.20 1.92714
378.30 1.925694
378.40 1.924249
378.50 1.922806
378.60 1.921363
378.70 1.919922
378.80 1.918483
378.90 1.916981
379.00 1.915364
379.10 1.913537
379.20 1.911711
379.30 1.909768
379.40 1.907709
379.50 1.905652
379.60 1.903538
379.70 1.90111
379.80 1.897832
379.90 1.894556
380.00 1.891284
380.10 1.888015
380.20 1.884749
380.30 1.881486
380.40 1.878226
380.50 1.87497
380.60 1.869522
380.70 1.863016
380.80 1.856516
380.90 1.850023
381.00 1.843537
381.10 1.834737
381.20 1.825217
381.30 1.814136
381.40 1.801117
381.50 1.786312
381.60 1.769949
381.70 1.750745
381.80 1.728482
381.90 1.693661
382.00 1.687644
382.10 1.728181
382.20 1.755412
382.30 1.776588
382.40 1.793677
382.50 1.804655
382.60 1.815621
382.70 1.824089
382.80 1.828122
382.90 1.830528
383.00 1.832931
383.10 1.835331
383.20 1.837743
383.30 1.840206
383.40 1.842554
383.50 1.84473
383.60 1.846738
383.70 1.847746
383.80 1.848753
383.90 1.849758
384.00 1.850762
384.10 1.851764
384.20 1.852766
384.30 1.853766
384.40 1.854292
384.50 1.854346
384.60 1.8544
384.70 1.854453
384.80 1.854486
384.90 1.854301
385.00 1.853847
385.10 1.853391
385.20 1.852809
385.30 1.852249
385.40 1.851557
385.50 1.850735
385.60 1.849913
385.70 1.849092
385.80 1.848218
385.90 1.847145
386.00 1.845991
386.10 1.844692
386.20 1.842749
386.30 1.840807
386.40 1.838291
386.50 1.83456
386.60 1.828915
386.70 1.81835
386.80 1.808678
386.90 1.811175
387.00 1.814988
387.10 1.818051
387.20 1.819926
387.30 1.821253
387.40 1.821865
387.50 1.821591
387.60 1.820421
387.70 1.817871
387.80 1.815323
387.90 1.812778
388.00 1.80962
388.10 1.803842
388.20 1.793108
388.30 1.778525
388.40 1.763956
388.50 1.74146
388.60 1.699181
388.70 1.621342
388.80 1.447868
388.90 1.358991
389.00 1.557774
389.10 1.659887
389.20 1.712257
389.30 1.742169
389.40 1.760733
389.50 1.775662
389.60 1.784526
389.70 1.789559
389.80 1.791861
389.90 1.79416
390.00 1.796457
390.10 1.798751
390.20 1.801043
390.30 1.80226
390.40 1.802267
390.50 1.802273
390.60 1.80228
390.70 1.802286
390.80 1.802099
390.90 1.80172
391.00 1.801213
391.10 1.800571
391.20 1.799926
391.30 1.799173
391.40 1.798318
391.50 1.797463
391.60 1.796609
391.70 1.795756
391.80 1.794903
391.90 1.793937
392.00 1.792882
392.10 1.791885
392.20 1.790867
392.30 1.789727
392.40 1.788679
392.50 1.787397
392.60 1.786167
392.70 1.784658
392.80 1.784225
392.90 1.783675
393.00 1.783071
393.10 1.782454
393.20 1.781807
393.30 1.780995
393.40 1.780176
393.50 1.779272
393.60 1.778368
393.70 1.777602
393.80 1.776751
393.90 1.775849
394.00 1.77492
394.10 1.773813
394.20 1.772817
394.30 1.771788
394.40 1.770752
394.50 1.769508
394.60 1.76819
394.70 1.766853
394.80 1.76544
394.90 1.764019
395.00 1.762315
395.10 1.760545
395.20 1.758213
395.30 1.755732
395.40 1.753254
395.50 1.749655
395.60 1.745644
395.70 1.740523
395.80 1.732396
395.90 1.724276
396.00 1.715522
396.10 1.696533
396.20 1.667438
396.30 1.632493
396.40 1.563624
396.50 1.576847
396.60 1.662732
396.70 1.694364
396.80 1.703942
396.90 1.708871
397.00 1.715815
397.10 1.723949
397.20 1.728189
397.30 1.728838
397.40 1.729312
397.50 1.729786
397.60 1.730233
397.70 1.730416
397.80 1.730599
397.90 1.73064
398.00 1.7303
398.10 1.72996
398.20 1.729407
398.30 1.728615
398.40 1.727816
398.50 1.726807
398.60 1.725758
398.70 1.724551
398.80 1.723309
398.90 1.722009
399.00 1.7206
399.10 1.719109
399.20 1.717403
399.30 1.715698
399.40 1.713995
399.50 1.712293
399.60 1.710209
399.70 1.707985
399.80 1.705763
399.90 1.703543
400.00 1.701311
400.10 1.698627
400.20 1.695888
400.30 1.692692
400.40 1.689458
400.50 1.68614
400.60 1.681913
400.70 1.677691
400.80 1.672972
400.90 1.667087
401.00 1.662155
401.10 1.65897
401.20 1.654561
401.30 1.649039
401.40 1.641614
401.50 1.633579
401.60 1.625445
401.70 1.613861
401.80 1.600444
401.90 1.58378
402.00 1.565579
402.10 1.542929
402.20 1.515312
402.30 1.480682
402.40 1.435713
402.50 1.37207
402.60 1.276644
402.70 1.34464
402.80 1.422407
402.90 1.469751
403.00 1.513126
403.10 1.545039
403.20 1.568319
403.30 1.586561
403.40 1.601811
403.50 1.613198
403.60 1.623626
403.70 1.631415
403.80 1.637425
403.90 1.641828
404.00 1.645854
404.10 1.648501
404.20 1.649482
404.30 1.650462
404.40 1.649173
404.50 1.646318
404.60 1.644518
404.70 1.645229
404.80 1.647008
404.90 1.648976
405.00 1.650525
405.10 1.651846
405.20 1.653074
405.30 1.654301
405.40 1.654735
405.50 1.655169
405.60 1.655602
405.70 1.656034
405.80 1.656466
405.90 1.656897
406.00 1.656798
406.10 1.656698
406.20 1.656599
406.30 1.656499
406.40 1.656378
406.50 1.656053
406.60 1.655725
406.70 1.655277
406.80 1.65481
406.90 1.654443
407.00 1.653825
407.10 1.653208
407.20 1.65259
407.30 1.651974
407.40 1.651357
407.50 1.650741
407.60 1.650126
407.70 1.649511
407.80 1.648896
407.90 1.648279
408.00 1.647567
408.10 1.646837
408.20 1.646076
408.30 1.645327
408.40 1.644579
408.50 1.643789
408.60 1.642985
408.70 1.642181
408.80 1.641378
408.90 1.640567
409.00 1.639731
409.10 1.638896
409.20 1.638061
409.30 1.637227
409.40 1.636391
409.50 1.635469
409.60 1.634546
409.70 1.633634
409.80 1.632756
409.90 1.631876
410.00 1.630911
410.10 1.62997
410.20 1.628983
410.30 1.627984
410.40 1.626953
410.50 1.625817
410.60 1.624681
410.70 1.623531
410.80 1.622318
410.90 1.621106
411.00 1.619628
411.10 1.618053
411.20 1.616479
411.30 1.614797
411.40 1.612639
411.50 1.609221
411.60 1.605806
411.70 1.601345
411.80 1.592691
411.90 1.582419
412.00 1.557525
412.10 1.522759
412.20 1.531134
412.30 1.552205
412.40 1.567948
412.50 1.577165
412.60 1.583052
412.70 1.585922
412.80 1.588036
412.90 1.589862
413.00 1.589863
413.10 1.588854
413.20 1.587847
413.30 1.58684
413.40 1.585833
413.50 1.584661
413.60 1.582668
413.70 1.580188
413.80 1.57771
413.90 1.575234
414.00 1.572493
414.10 1.568909
414.20 1.565082
414.30 1.558785
414.40 1.552118
414.50 1.556024
414.60 1.559536
414.70 1.562197
414.80 1.564611
414.90 1.566244
415.00 1.567876
415.10 1.569506
415.20 1.570918
415.30 1.571646
415.40 1.572374
415.50 1.573087
415.60 1.573365
415.70 1.573644
415.80 1.573821
415.90 1.573678
416.00 1.573535
416.10 1.573327
416.20 1.572855
416.30 1.572384
416.40 1.571913
416.50 1.571431
416.60 1.570593
416.70 1.569744
416.80 1.568299
416.90 1.566368
417.00 1.565612
417.10 1.565584
417.20 1.565424
417.30 1.565259
417.40 1.564925
417.50 1.564592
417.60 1.564234
417.70 1.563768
417.80 1.56316
417.90 1.562552
418.00 1.561944
418.10 1.561337
418.20 1.560731
418.30 1.56012
418.40 1.559374
418.50 1.558629
418.60 1.557885
418.70 1.557141
418.80 1.556397
418.90 1.555654
419.00 1.554912
419.10 1.55417
419.20 1.553428
419.30 1.552686
419.40 1.551886
419.50 1.551088
419.60 1.55029
419.70 1.549495
419.80 1.548701
419.90 1.547901
420.00 1.547082
420.10 1.546264
420.20 1.545447
420.30 1.54463
420.40 1.543814
420.50 1.542999
420.60 1.542184
420.70 1.541369
420.80 1.540556
420.90 1.539743
421.00 1.538952
421.10 1.538162
421.20 1.537363
421.30 1.536539
421.40 1.535716
421.50 1.534893
421.60 1.534071
421.70 1.533249
421.80 1.532428
421.90 1.531591
422.00 1.530704
422.10 1.529829
422.20 1.529
422.30 1.528172
422.40 1.527345
422.50 1.526514
422.60 1.525684
422.70 1.524854
422.80 1.524025
422.90 1.523196
423.00 1.522368
423.10 1.521541
423.20 1.520714
423.30 1.519888
423.40 1.519063
423.50 1.518238
423.60 1.517414
423.70 1.51659
423.80 1.515767
423.90 1.514945
424.00 1.514123
424.10 1.513302
424.20 1.512481
424.30 1.511661
424.40 1.510864
424.50 1.510037
424.60 1.509211
424.70 1.508385
424.80 1.50756
424.90 1.506736
