# Version 2.1 - nm, norm@500 to 1, cut digits, bergeron_He_8500_70.dat_8500
# Wavelength(nm)  Flambda(ergs/cm^s/s/nm)
300.00 1.445629
300.10 1.44577
300.20 1.445905
300.30 1.446049
300.40 1.446262
300.50 1.446474
300.60 1.446686
300.70 1.446897
300.80 1.447107
300.90 1.447317
301.00 1.447526
301.10 1.447735
301.20 1.447943
301.30 1.44815
301.40 1.448357
301.50 1.448563
301.60 1.448769
301.70 1.448974
301.80 1.449178
301.90 1.449382
302.00 1.449585
302.10 1.449798
302.20 1.450011
302.30 1.450224
302.40 1.450435
302.50 1.450647
302.60 1.450858
302.70 1.451068
302.80 1.451277
302.90 1.451486
303.00 1.451695
303.10 1.451903
303.20 1.45211
303.30 1.452314
303.40 1.452496
303.50 1.452677
303.60 1.452858
303.70 1.453038
303.80 1.453218
303.90 1.453397
304.00 1.453576
304.10 1.453754
304.20 1.453931
304.30 1.454108
304.40 1.454285
304.50 1.45446
304.60 1.454645
304.70 1.454831
304.80 1.455015
304.90 1.4552
305.00 1.455383
305.10 1.455566
305.20 1.455749
305.30 1.455931
305.40 1.456112
305.50 1.456293
305.60 1.456474
305.70 1.456654
305.80 1.456833
305.90 1.457012
306.00 1.45719
306.10 1.457367
306.20 1.457545
306.30 1.457721
306.40 1.457855
306.50 1.457975
306.60 1.458095
306.70 1.458214
306.80 1.458333
306.90 1.458452
307.00 1.45857
307.10 1.458687
307.20 1.458804
307.30 1.458921
307.40 1.459037
307.50 1.459153
307.60 1.459268
307.70 1.459383
307.80 1.459497
307.90 1.459611
308.00 1.459724
308.10 1.459837
308.20 1.45995
308.30 1.460062
308.40 1.460174
308.50 1.460285
308.60 1.460395
308.70 1.460506
308.80 1.460737
308.90 1.461311
309.00 1.46135
309.10 1.461388
309.20 1.461426
309.30 1.461464
309.40 1.461516
309.50 1.461658
309.60 1.4618
309.70 1.461941
309.80 1.462081
309.90 1.462221
310.00 1.462361
310.10 1.4625
310.20 1.462638
310.30 1.462776
310.40 1.462894
310.50 1.46299
310.60 1.463085
310.70 1.463179
310.80 1.463274
310.90 1.463368
311.00 1.463437
311.10 1.463506
311.20 1.463575
311.30 1.463679
311.40 1.463883
311.50 1.464086
311.60 1.464289
311.70 1.464492
311.80 1.464694
311.90 1.464895
312.00 1.465096
312.10 1.465296
312.20 1.465268
312.30 1.465163
312.40 1.465265
312.50 1.465464
312.60 1.465532
312.70 1.4656
312.80 1.465667
312.90 1.465783
313.00 1.465952
313.10 1.46612
313.20 1.466288
313.30 1.466435
313.40 1.466524
313.50 1.466613
313.60 1.466702
313.70 1.46679
313.80 1.466878
313.90 1.466965
314.00 1.467052
314.10 1.467075
314.20 1.467098
314.30 1.467121
314.40 1.467143
314.50 1.467165
314.60 1.467187
314.70 1.467208
314.80 1.467289
314.90 1.467569
315.00 1.467882
315.10 1.467871
315.20 1.467859
315.30 1.467847
315.40 1.467835
315.50 1.467823
315.60 1.46781
315.70 1.468026
315.80 1.468242
315.90 1.468457
316.00 1.468672
316.10 1.468657
316.20 1.468642
316.30 1.468627
316.40 1.469068
316.50 1.469052
316.60 1.46858
316.70 1.469019
316.80 1.469458
316.90 1.46944
317.00 1.469423
317.10 1.469405
317.20 1.469387
317.30 1.469504
317.40 1.469626
317.50 1.469764
317.60 1.469902
317.70 1.47004
317.80 1.470177
317.90 1.469847
318.00 1.469525
318.10 1.46973
318.20 1.469935
318.30 1.470138
318.40 1.470283
318.50 1.470261
318.60 1.470004
318.70 1.470116
318.80 1.469958
318.90 1.47007
319.00 1.470145
319.10 1.470121
319.20 1.470172
319.30 1.470437
319.40 1.470701
319.50 1.470965
319.60 1.470906
319.70 1.470932
319.80 1.470957
319.90 1.470983
320.00 1.470983
320.10 1.470956
320.20 1.4709
320.30 1.471097
320.40 1.471336
320.50 1.47104
320.60 1.470816
320.70 1.470788
320.80 1.470865
320.90 1.471058
321.00 1.47125
321.10 1.471441
321.20 1.47134
321.30 1.471343
321.40 1.471346
321.50 1.471348
321.60 1.471351
321.70 1.471353
321.80 1.471487
321.90 1.471764
322.00 1.471363
322.10 1.471436
322.20 1.471508
322.30 1.47158
322.40 1.471651
322.50 1.471722
322.60 1.471792
322.70 1.471863
322.80 1.471704
322.90 1.471727
323.00 1.471749
323.10 1.471771
323.20 1.471793
323.30 1.471814
323.40 1.471835
323.50 1.471856
323.60 1.471876
323.70 1.471896
323.80 1.471916
323.90 1.471935
324.00 1.471958
324.10 1.47198
324.20 1.472002
324.30 1.472071
324.40 1.472203
324.50 1.472252
324.60 1.472302
324.70 1.472351
324.80 1.4724
324.90 1.472448
325.00 1.472497
325.10 1.472544
325.20 1.472576
325.30 1.472573
325.40 1.47257
325.50 1.472553
325.60 1.472517
325.70 1.47248
325.80 1.472444
325.90 1.472383
326.00 1.472294
326.10 1.472206
326.20 1.472117
326.30 1.472171
326.40 1.472631
326.50 1.472614
326.60 1.472598
326.70 1.472581
326.80 1.472564
326.90 1.472546
327.00 1.472528
327.10 1.47251
327.20 1.472492
327.30 1.472474
327.40 1.472455
327.50 1.472436
327.60 1.472417
327.70 1.472397
327.80 1.472378
327.90 1.472332
328.00 1.4723
328.10 1.472317
328.20 1.472334
328.30 1.472351
328.40 1.472368
328.50 1.472224
328.60 1.472043
328.70 1.471863
328.80 1.471738
328.90 1.471773
329.00 1.471808
329.10 1.471842
329.20 1.471876
329.30 1.47191
329.40 1.471943
329.50 1.471976
329.60 1.472009
329.70 1.472041
329.80 1.472074
329.90 1.472106
330.00 1.472102
330.10 1.472055
330.20 1.472008
330.30 1.471961
330.40 1.471909
330.50 1.471853
330.60 1.471796
330.70 1.471739
330.80 1.471682
330.90 1.471625
331.00 1.471568
331.10 1.47151
331.20 1.471453
331.30 1.471395
331.40 1.471337
331.50 1.471206
331.60 1.470986
331.70 1.470766
331.80 1.470732
331.90 1.470706
332.00 1.470679
332.10 1.470652
332.20 1.470625
332.30 1.470597
332.40 1.470569
332.50 1.470541
332.60 1.470513
332.70 1.470485
332.80 1.470456
332.90 1.470427
333.00 1.470398
333.10 1.470355
333.20 1.470296
333.30 1.470236
333.40 1.470177
333.50 1.470117
333.60 1.470057
333.70 1.469996
333.80 1.469936
333.90 1.469875
334.00 1.469814
334.10 1.469753
334.20 1.469691
334.30 1.46963
334.40 1.469568
334.50 1.469506
334.60 1.469444
334.70 1.469721
334.80 1.470023
334.90 1.469767
335.00 1.469511
335.10 1.469131
335.20 1.469068
335.30 1.469451
335.40 1.469388
335.50 1.469324
335.60 1.469259
335.70 1.46956
335.80 1.469495
335.90 1.46943
336.00 1.469365
336.10 1.4693
336.20 1.469234
336.30 1.469168
336.40 1.469102
336.50 1.469036
336.60 1.46897
336.70 1.468904
336.80 1.468837
336.90 1.468767
337.00 1.468692
337.10 1.468617
337.20 1.468541
337.30 1.468416
337.40 1.468219
337.50 1.468022
337.60 1.467825
337.70 1.467628
337.80 1.467431
337.90 1.467351
338.00 1.467413
338.10 1.467474
338.20 1.467535
338.30 1.467596
338.40 1.467596
338.50 1.467448
338.60 1.467299
338.70 1.46715
338.80 1.467002
338.90 1.466853
339.00 1.466704
339.10 1.466555
339.20 1.466406
339.30 1.466295
339.40 1.466241
339.50 1.466178
339.60 1.466104
339.70 1.466031
339.80 1.465957
339.90 1.465883
340.00 1.465809
340.10 1.465734
340.20 1.46566
340.30 1.465585
340.40 1.46551
340.50 1.465435
340.60 1.46536
340.70 1.465285
340.80 1.465217
340.90 1.46516
341.00 1.465095
341.10 1.465022
341.20 1.464948
341.30 1.464874
341.40 1.4648
341.50 1.464726
341.60 1.464651
341.70 1.464577
341.80 1.464481
341.90 1.464361
342.00 1.46424
342.10 1.464119
342.20 1.463851
342.30 1.463893
342.40 1.463968
342.50 1.463767
342.60 1.463565
342.70 1.463364
342.80 1.463163
342.90 1.462961
343.00 1.462813
343.10 1.462729
343.20 1.462645
343.30 1.46256
343.40 1.462479
343.50 1.462402
343.60 1.462325
343.70 1.462247
343.80 1.46217
343.90 1.462092
344.00 1.462015
344.10 1.461937
344.20 1.461859
344.30 1.46178
344.40 1.461702
344.50 1.461623
344.60 1.461229
344.70 1.46115
344.80 1.461072
344.90 1.460993
345.00 1.460461
345.10 1.460382
345.20 1.460307
345.30 1.460238
345.40 1.460169
345.50 1.460081
345.60 1.459984
345.70 1.459904
345.80 1.459824
345.90 1.459744
346.00 1.459663
346.10 1.459583
346.20 1.459471
346.30 1.459314
346.40 1.459157
346.50 1.459
346.60 1.458842
346.70 1.458685
346.80 1.458528
346.90 1.45837
347.00 1.458213
347.10 1.458055
347.20 1.457915
347.30 1.4578
347.40 1.457684
347.50 1.457568
347.60 1.457452
347.70 1.457337
347.80 1.45722
347.90 1.457104
348.00 1.456988
348.10 1.456872
348.20 1.456755
348.30 1.456639
348.40 1.456522
348.50 1.456405
348.60 1.456288
348.70 1.456049
348.80 1.455829
348.90 1.455696
349.00 1.455562
349.10 1.455428
349.20 1.455294
349.30 1.455159
349.40 1.455025
349.50 1.454891
349.60 1.454756
349.70 1.454622
349.80 1.454487
349.90 1.454353
350.00 1.454218
350.10 1.454083
350.20 1.453948
350.30 1.453804
350.40 1.453648
350.50 1.453492
350.60 1.453336
350.70 1.453179
350.80 1.453023
350.90 1.452866
351.00 1.45271
351.10 1.452553
351.20 1.452397
351.30 1.45224
351.40 1.452092
351.50 1.45196
351.60 1.451828
351.70 1.451695
351.80 1.451563
351.90 1.451431
352.00 1.451298
352.10 1.451165
352.20 1.4513
352.30 1.45132
352.40 1.45113
352.50 1.45094
352.60 1.45075
352.70 1.45056
352.80 1.45037
352.90 1.45018
353.00 1.449991
353.10 1.449801
353.20 1.449611
353.30 1.449421
353.40 1.449231
353.50 1.449064
353.60 1.448903
353.70 1.448742
353.80 1.44858
353.90 1.448417
354.00 1.448251
354.10 1.448084
354.20 1.447918
354.30 1.447751
354.40 1.447585
354.50 1.447418
354.60 1.447251
354.70 1.447085
354.80 1.446922
354.90 1.446764
355.00 1.446607
355.10 1.44645
355.20 1.446292
355.30 1.44615
355.40 1.446008
355.50 1.445865
355.60 1.445723
355.70 1.445546
355.80 1.445353
355.90 1.445401
356.00 1.445326
356.10 1.445113
356.20 1.4449
356.30 1.444687
356.40 1.444474
356.50 1.444262
356.60 1.444049
356.70 1.443836
356.80 1.443623
356.90 1.443411
357.00 1.443198
357.10 1.442985
357.20 1.442772
357.30 1.44256
357.40 1.442363
357.50 1.442195
357.60 1.442026
357.70 1.441858
357.80 1.441701
357.90 1.441544
358.00 1.44136
358.10 1.441169
358.20 1.440978
358.30 1.440788
358.40 1.440597
358.50 1.440406
358.60 1.440216
358.70 1.440025
358.80 1.439834
358.90 1.439644
359.00 1.439462
359.10 1.439296
359.20 1.439126
359.30 1.438933
359.40 1.438739
359.50 1.438666
359.60 1.438623
359.70 1.43858
359.80 1.438315
359.90 1.438051
360.00 1.43783
360.10 1.437688
360.20 1.437545
360.30 1.437403
360.40 1.43726
360.50 1.437118
360.60 1.43658
360.70 1.436486
360.80 1.436392
360.90 1.436297
361.00 1.43595
361.10 1.435545
361.20 1.435761
361.30 1.435247
361.40 1.435537
361.50 1.435058
361.60 1.434935
361.70 1.43484
361.80 1.43469
361.90 1.434442
362.00 1.434195
362.10 1.433899
362.20 1.433636
362.30 1.433456
362.40 1.433275
362.50 1.433094
362.60 1.432914
362.70 1.432631
362.80 1.43215
362.90 1.432051
363.00 1.431953
363.10 1.431797
363.20 1.431642
363.30 1.431672
363.40 1.431058
363.50 1.430789
363.60 1.430693
363.70 1.430674
363.80 1.430501
363.90 1.430208
364.00 1.429915
364.10 1.429622
364.20 1.429329
364.30 1.429255
364.40 1.429235
364.50 1.429143
364.60 1.428816
364.70 1.428489
364.80 1.428162
364.90 1.428066
365.00 1.427969
365.10 1.427873
365.20 1.427433
365.30 1.427337
365.40 1.426898
365.50 1.426801
365.60 1.426704
365.70 1.426545
365.80 1.426386
365.90 1.426034
366.00 1.425634
366.10 1.425525
366.20 1.425416
366.30 1.425308
366.40 1.425199
366.50 1.425141
366.60 1.424371
366.70 1.424366
366.80 1.424361
366.90 1.424254
367.00 1.423966
367.10 1.423679
367.20 1.423391
367.30 1.423103
367.40 1.422816
367.50 1.42274
367.60 1.422717
367.70 1.422477
367.80 1.422237
367.90 1.421997
368.00 1.42165
368.10 1.421544
368.20 1.421305
368.30 1.421063
368.40 1.420821
368.50 1.420579
368.60 1.420337
368.70 1.420096
368.80 1.419854
368.90 1.419854
369.00 1.419621
369.10 1.419222
369.20 1.419127
369.30 1.418806
369.40 1.418484
369.50 1.418162
369.60 1.418061
369.70 1.417959
369.80 1.417735
369.90 1.41751
370.00 1.417285
370.10 1.416903
370.20 1.416798
370.30 1.416699
370.40 1.416258
370.50 1.416167
370.60 1.415744
370.70 1.415645
370.80 1.415543
370.90 1.415441
371.00 1.415015
371.10 1.414586
371.20 1.414483
371.30 1.414381
371.40 1.413848
371.50 1.413703
371.60 1.413559
371.70 1.413414
371.80 1.413269
371.90 1.413125
372.00 1.41256
372.10 1.412272
372.20 1.412063
372.30 1.411854
372.40 1.411645
372.50 1.411436
372.60 1.411227
372.70 1.411018
372.80 1.410915
372.90 1.410812
373.00 1.410389
373.10 1.409963
373.20 1.409863
373.30 1.409764
373.40 1.409337
373.50 1.409237
373.60 1.40881
373.70 1.40871
373.80 1.4081
373.90 1.407857
374.00 1.407758
374.10 1.407658
374.20 1.407559
374.30 1.407459
374.40 1.407114
374.50 1.406607
374.60 1.406341
374.70 1.40608
374.80 1.405819
374.90 1.405558
375.00 1.405458
375.10 1.405358
375.20 1.405258
375.30 1.404973
375.40 1.404688
375.50 1.404402
375.60 1.404117
375.70 1.403832
375.80 1.403548
375.90 1.403263
376.00 1.403156
376.10 1.402835
376.20 1.402511
376.30 1.402187
376.40 1.401864
376.50 1.401639
376.60 1.401561
376.70 1.401483
376.80 1.401297
376.90 1.401004
377.00 1.40071
377.10 1.400417
377.20 1.400113
377.30 1.399771
377.40 1.399429
377.50 1.399087
377.60 1.398903
377.70 1.39872
377.80 1.398536
377.90 1.398352
378.00 1.397946
378.10 1.39772
378.20 1.397498
378.30 1.397277
378.40 1.397055
378.50 1.396834
378.60 1.396613
378.70 1.396391
378.80 1.39617
378.90 1.395933
379.00 1.395668
379.10 1.39544
379.20 1.395213
379.30 1.394936
379.40 1.394611
379.50 1.394285
379.60 1.394009
379.70 1.393793
379.80 1.393521
379.90 1.39325
380.00 1.392979
380.10 1.392707
380.20 1.392436
380.30 1.392165
380.40 1.391894
380.50 1.391623
380.60 1.3917
380.70 1.391399
380.80 1.391098
380.90 1.390797
381.00 1.390496
381.10 1.390159
381.20 1.389945
381.30 1.389683
381.40 1.389578
381.50 1.389171
381.60 1.388847
381.70 1.388699
381.80 1.388436
381.90 1.388022
382.00 1.387608
382.10 1.387508
382.20 1.387533
382.30 1.38712
382.40 1.386752
382.50 1.386454
382.60 1.386155
382.70 1.385959
382.80 1.385774
382.90 1.385486
383.00 1.385198
383.10 1.384911
383.20 1.384604
383.30 1.384225
383.40 1.383887
383.50 1.383609
383.60 1.383553
383.70 1.383322
383.80 1.383092
383.90 1.382862
384.00 1.382631
384.10 1.382401
384.20 1.382171
384.30 1.381941
384.40 1.381683
384.50 1.381396
384.60 1.38111
384.70 1.380824
384.80 1.380447
384.90 1.379915
385.00 1.379728
385.10 1.379529
385.20 1.379107
385.30 1.379016
385.40 1.378828
385.50 1.378543
385.60 1.378258
385.70 1.377973
385.80 1.377673
385.90 1.377318
386.00 1.377001
386.10 1.376726
386.20 1.376486
386.30 1.376246
386.40 1.37592
386.50 1.37567
386.60 1.37557
386.70 1.375317
386.80 1.374759
386.90 1.374659
387.00 1.374558
387.10 1.373863
387.20 1.373748
387.30 1.373648
387.40 1.373097
387.50 1.373109
387.60 1.372835
387.70 1.372583
387.80 1.37233
387.90 1.372078
388.00 1.371731
388.10 1.371117
388.20 1.371117
388.30 1.370795
388.40 1.370474
388.50 1.370204
388.60 1.369919
388.70 1.36976
388.80 1.369341
388.90 1.369014
389.00 1.368914
389.10 1.368459
389.20 1.368373
389.30 1.368119
389.40 1.367726
389.50 1.367411
389.60 1.367109
389.70 1.366587
389.80 1.366397
389.90 1.366207
390.00 1.366017
390.10 1.365828
390.20 1.365638
390.30 1.365379
390.40 1.365041
390.50 1.364704
390.60 1.364367
390.70 1.36403
390.80 1.363682
390.90 1.363322
391.00 1.363392
391.10 1.362985
391.20 1.362517
391.30 1.362054
391.40 1.361855
391.50 1.361657
391.60 1.361458
391.70 1.361259
391.80 1.36106
391.90 1.360628
392.00 1.36014
392.10 1.359961
392.20 1.359736
392.30 1.359245
392.40 1.358975
392.50 1.358844
392.60 1.358552
392.70 1.358157
392.80 1.357954
392.90 1.357483
393.00 1.357422
393.10 1.357266
393.20 1.356992
393.30 1.356597
393.40 1.356176
393.50 1.355965
393.60 1.35575
393.70 1.355289
393.80 1.355217
393.90 1.354823
394.00 1.354489
394.10 1.354445
394.20 1.354056
394.30 1.353774
394.40 1.353468
394.50 1.353321
394.60 1.352963
394.70 1.352593
394.80 1.352177
394.90 1.351771
395.00 1.351654
395.10 1.35138
395.20 1.351176
395.30 1.350874
395.40 1.350571
395.50 1.350164
395.60 1.349719
395.70 1.349309
395.80 1.348994
395.90 1.34868
396.00 1.348396
396.10 1.348312
396.20 1.347923
396.30 1.347848
396.40 1.347357
396.50 1.347164
396.60 1.346681
396.70 1.346481
396.80 1.346038
396.90 1.345762
397.00 1.345606
397.10 1.345412
397.20 1.34496
397.30 1.344831
397.40 1.344518
397.50 1.344206
397.60 1.343897
397.70 1.343631
397.80 1.343365
397.90 1.3431
398.00 1.342837
398.10 1.342575
398.20 1.34223
398.30 1.341792
398.40 1.34136
398.50 1.34113
398.60 1.341028
398.70 1.340667
398.80 1.340229
398.90 1.339858
399.00 1.339612
399.10 1.339538
399.20 1.33913
399.30 1.338722
399.40 1.338315
399.50 1.337907
399.60 1.337575
399.70 1.337271
399.80 1.336967
399.90 1.336663
400.00 1.336362
400.10 1.336133
400.20 1.336154
400.30 1.335848
400.40 1.335631
400.50 1.335293
400.60 1.334834
400.70 1.334452
400.80 1.334333
400.90 1.333859
401.00 1.33367
401.10 1.333189
401.20 1.332908
401.30 1.332668
401.40 1.332454
401.50 1.33221
401.60 1.331967
401.70 1.331739
401.80 1.331194
401.90 1.330827
402.00 1.330456
402.10 1.330339
402.20 1.329751
402.30 1.329581
402.40 1.329305
402.50 1.328824
402.60 1.328728
402.70 1.328631
402.80 1.327972
402.90 1.327763
403.00 1.327667
403.10 1.32712
403.20 1.327037
403.30 1.326811
403.40 1.32627
403.50 1.325875
403.60 1.325563
403.70 1.325421
403.80 1.324784
403.90 1.324764
404.00 1.324573
404.10 1.323918
404.20 1.323822
404.30 1.323726
404.40 1.323072
404.50 1.322976
404.60 1.322601
404.70 1.322226
404.80 1.322131
404.90 1.321478
405.00 1.321263
405.10 1.321048
405.20 1.320794
405.30 1.32054
405.40 1.320166
405.50 1.319793
405.60 1.31942
405.70 1.319047
405.80 1.318675
405.90 1.318302
406.00 1.317988
406.10 1.317673
406.20 1.317359
406.30 1.317044
406.40 1.316775
406.50 1.316765
406.60 1.31653
406.70 1.316056
406.80 1.315625
406.90 1.315152
407.00 1.314837
407.10 1.314521
407.20 1.314207
407.30 1.313892
407.40 1.313577
407.50 1.313263
407.60 1.312948
407.70 1.312634
407.80 1.31232
407.90 1.312014
408.00 1.311971
408.10 1.311808
408.20 1.311451
408.30 1.311166
408.40 1.310881
408.50 1.310335
408.60 1.310073
408.70 1.30981
408.80 1.309507
408.90 1.308942
409.00 1.308616
409.10 1.308291
409.20 1.307966
409.30 1.307641
409.40 1.307318
409.50 1.307065
409.60 1.306811
409.70 1.306532
409.80 1.306145
409.90 1.305766
410.00 1.305657
410.10 1.305473
410.20 1.305097
410.30 1.304673
410.40 1.304284
410.50 1.304005
410.60 1.303727
410.70 1.303421
410.80 1.303006
410.90 1.302591
411.00 1.30224
411.10 1.301913
411.20 1.301586
411.30 1.30129
411.40 1.301117
411.50 1.300866
411.60 1.300615
411.70 1.300342
411.80 1.29998
411.90 1.299564
412.00 1.299471
412.10 1.298841
412.20 1.298749
412.30 1.298211
412.40 1.298026
412.50 1.297474
412.60 1.297228
412.70 1.29701
412.80 1.296799
412.90 1.296493
413.00 1.295941
413.10 1.295633
413.20 1.295324
413.30 1.295016
413.40 1.294708
413.50 1.294447
413.60 1.294308
413.70 1.29395
413.80 1.293591
413.90 1.293233
414.00 1.292875
414.10 1.292517
414.20 1.292095
414.30 1.292004
414.40 1.29138
414.50 1.291289
414.60 1.29073
414.70 1.290373
414.80 1.290049
414.90 1.289825
415.00 1.289601
415.10 1.289378
415.20 1.289099
415.30 1.288643
415.40 1.288188
415.50 1.287739
415.60 1.287498
415.70 1.287258
415.80 1.28701
415.90 1.286739
416.00 1.286468
416.10 1.286178
416.20 1.285813
416.30 1.285448
416.40 1.285084
416.50 1.28472
416.60 1.284366
416.70 1.284005
416.80 1.283697
416.90 1.283299
417.00 1.283209
417.10 1.282602
417.20 1.28225
417.30 1.281901
417.40 1.281657
417.50 1.281414
417.60 1.281096
417.70 1.280494
417.80 1.28023
417.90 1.279966
418.00 1.279702
418.10 1.279438
418.20 1.279175
418.30 1.278901
418.40 1.278358
418.50 1.27803
418.60 1.277703
418.70 1.277376
418.80 1.277048
418.90 1.276721
419.00 1.276395
419.10 1.276068
419.20 1.275742
419.30 1.275418
419.40 1.275177
419.50 1.274936
419.60 1.274657
419.70 1.274225
419.80 1.273793
419.90 1.273392
420.00 1.27309
420.10 1.272789
420.20 1.272487
420.30 1.272186
420.40 1.271884
420.50 1.271583
420.60 1.271282
420.70 1.270981
420.80 1.27068
420.90 1.270376
421.00 1.269958
421.10 1.269541
421.20 1.26915
421.30 1.268842
421.40 1.268533
421.50 1.268225
421.60 1.267916
421.70 1.267608
421.80 1.2673
421.90 1.266983
422.00 1.266634
422.10 1.266267
422.20 1.265829
422.30 1.265391
422.40 1.264958
422.50 1.264643
422.60 1.264329
422.70 1.264015
422.80 1.263702
422.90 1.263388
423.00 1.263075
423.10 1.262761
423.20 1.262448
423.30 1.262135
423.40 1.261823
423.50 1.26151
423.60 1.261197
423.70 1.260885
423.80 1.260573
423.90 1.260261
424.00 1.259949
424.10 1.259637
424.20 1.259326
424.30 1.259014
424.40 1.258643
424.50 1.258306
424.60 1.25797
424.70 1.257633
424.80 1.257297
424.90 1.256961
425.00 1.256625
425.10 1.256289
