# Version 2.1 - nm, norm@500 to 1, cut digits, bergeron_He_4750_85.dat_4750
# Wavelength(nm)  Flambda(ergs/cm^s/s/nm)
300.00 0.1260774
300.10 0.1263866
300.20 0.1266965
300.30 0.1270065
300.40 0.1273193
300.50 0.1276316
300.60 0.1279436
300.70 0.128255
300.80 0.1285661
300.90 0.1288767
301.00 0.1291868
301.10 0.1294966
301.20 0.1298058
301.30 0.1301147
301.40 0.1304231
301.50 0.130731
301.60 0.1310385
301.70 0.1313456
301.80 0.1316523
301.90 0.1319585
302.00 0.1322643
302.10 0.1325829
302.20 0.1329025
302.30 0.1332216
302.40 0.1335403
302.50 0.1338586
302.60 0.1341764
302.70 0.1344937
302.80 0.1348106
302.90 0.1351271
303.00 0.1354431
303.10 0.1357587
303.20 0.1360738
303.30 0.1363894
303.40 0.136713
303.50 0.1370361
303.60 0.1373588
303.70 0.137681
303.80 0.1380028
303.90 0.1383241
304.00 0.138645
304.10 0.1389654
304.20 0.1392854
304.30 0.1396049
304.40 0.1399239
304.50 0.1402425
304.60 0.1405733
304.70 0.140905
304.80 0.1412362
304.90 0.1415669
305.00 0.1418972
305.10 0.142227
305.20 0.1425564
305.30 0.1428853
305.40 0.1432137
305.50 0.1435417
305.60 0.1438692
305.70 0.1441963
305.80 0.1445229
305.90 0.144849
306.00 0.1451747
306.10 0.1455
306.20 0.1458247
306.30 0.146149
306.40 0.1464881
306.50 0.1468312
306.60 0.1471738
306.70 0.1475159
306.80 0.1478576
306.90 0.1481988
307.00 0.1485395
307.10 0.1488797
307.20 0.1492195
307.30 0.1495587
307.40 0.1498975
307.50 0.1502359
307.60 0.1505737
307.70 0.1509111
307.80 0.1512481
307.90 0.1515845
308.00 0.1519205
308.10 0.152256
308.20 0.1525911
308.30 0.1529257
308.40 0.1532598
308.50 0.1535934
308.60 0.1539266
308.70 0.1542593
308.80 0.1545928
308.90 0.1549291
309.00 0.1552811
309.10 0.1556327
309.20 0.1559837
309.30 0.1563343
309.40 0.1566828
309.50 0.157021
309.60 0.1573587
309.70 0.157696
309.80 0.1580328
309.90 0.1583692
310.00 0.158705
310.10 0.1590404
310.20 0.1593754
310.30 0.1597099
310.40 0.1600607
310.50 0.1604294
310.60 0.1607975
310.70 0.1611652
310.80 0.1615323
310.90 0.1618989
311.00 0.16223
311.10 0.1625605
311.20 0.1628907
311.30 0.1632278
311.40 0.1635859
311.50 0.1639434
311.60 0.1643005
311.70 0.164657
311.80 0.1650131
311.90 0.1653687
312.00 0.1657237
312.10 0.1660783
312.20 0.1664749
312.30 0.1668615
312.40 0.1672027
312.50 0.1675853
312.60 0.1679111
312.70 0.1682365
312.80 0.1685614
312.90 0.168907
313.00 0.169275
313.10 0.1696425
313.20 0.1700095
313.30 0.170377
313.40 0.1707465
313.50 0.1711156
313.60 0.1714842
313.70 0.1718522
313.80 0.1722198
313.90 0.1725868
314.00 0.1729534
314.10 0.1733242
314.20 0.1736946
314.30 0.1740644
314.40 0.1744338
314.50 0.1748026
314.60 0.175171
314.70 0.1755388
314.80 0.175914
314.90 0.1762814
315.00 0.1766161
315.10 0.1769884
315.20 0.1773603
315.30 0.1777316
315.40 0.1781024
315.50 0.1784727
315.60 0.1788425
315.70 0.1792228
315.80 0.1796025
315.90 0.1799817
316.00 0.1803604
316.10 0.1807058
316.20 0.1810507
316.30 0.1813952
316.40 0.1818046
316.50 0.1821481
316.60 0.1825565
316.70 0.182899
316.80 0.183241
316.90 0.1836152
317.00 0.1839888
317.10 0.184362
317.20 0.1847347
317.30 0.1851424
317.40 0.1855405
317.50 0.1859124
317.60 0.1862838
317.70 0.1866546
317.80 0.187025
317.90 0.1874197
318.00 0.1878243
318.10 0.1881923
318.20 0.1885599
318.30 0.188927
318.40 0.1893019
318.50 0.1897003
318.60 0.1901317
318.70 0.1905097
318.80 0.1908871
318.90 0.191193
319.00 0.1916674
319.10 0.1919982
319.20 0.1923442
319.30 0.1927343
319.40 0.1931238
319.50 0.1935129
319.60 0.1939177
319.70 0.1943057
319.80 0.1946932
319.90 0.1950801
320.00 0.1954685
320.10 0.1958584
320.20 0.1962449
320.30 0.1966087
320.40 0.1970354
320.50 0.197385
320.60 0.1978004
320.70 0.1981872
320.80 0.1985735
320.90 0.1989593
321.00 0.1993446
321.10 0.1997293
321.20 0.2001338
321.30 0.2005369
321.40 0.2009394
321.50 0.2013414
321.60 0.2017428
321.70 0.2021437
321.80 0.2025381
321.90 0.2029254
322.00 0.2033225
322.10 0.2037152
322.20 0.2041074
322.30 0.204499
322.40 0.2048902
322.50 0.2052808
322.60 0.2056709
322.70 0.2060604
322.80 0.206464
322.90 0.2068613
323.00 0.207258
323.10 0.2076542
323.20 0.2080499
323.30 0.208445
323.40 0.2088397
323.50 0.2092337
323.60 0.2096273
323.70 0.2100204
323.80 0.2104129
323.90 0.2108049
324.00 0.2112093
324.10 0.2116132
324.20 0.2120166
324.30 0.212447
324.40 0.2129051
324.50 0.2133082
324.60 0.2137108
324.70 0.2141128
324.80 0.2145143
324.90 0.2149153
325.00 0.2153157
325.10 0.2157156
325.20 0.2161245
325.30 0.2165532
325.40 0.2169812
325.50 0.2173949
325.60 0.2177912
325.70 0.218187
325.80 0.2185823
325.90 0.2189901
326.00 0.2194115
326.10 0.2198323
326.20 0.2202525
326.30 0.2206552
326.40 0.2210086
326.50 0.221424
326.60 0.221839
326.70 0.2222533
326.80 0.2226672
326.90 0.2230805
327.00 0.2234932
327.10 0.2239054
327.20 0.224317
327.30 0.2247281
327.40 0.2251387
327.50 0.2255487
327.60 0.2259582
327.70 0.2263671
327.80 0.2267755
327.90 0.2272055
328.00 0.2276408
328.10 0.2280535
328.20 0.2284657
328.30 0.2288774
328.40 0.2292885
328.50 0.2297249
328.60 0.2301669
328.70 0.2306083
328.80 0.2310422
328.90 0.2314562
329.00 0.2318696
329.10 0.2322825
329.20 0.2326948
329.30 0.2331066
329.40 0.2335179
329.50 0.2339286
329.60 0.2343388
329.70 0.2347484
329.80 0.2351575
329.90 0.235566
330.00 0.2359856
330.10 0.2364188
330.20 0.2368514
330.30 0.2372834
330.40 0.237716
330.50 0.2381492
330.60 0.2385818
330.70 0.2390139
330.80 0.2394454
330.90 0.2398764
331.00 0.2403067
331.10 0.2407365
331.20 0.2411658
331.30 0.2415945
331.40 0.2420226
331.50 0.2424509
331.60 0.2428796
331.70 0.2433078
331.80 0.2437429
331.90 0.2441778
332.00 0.2446121
332.10 0.2450458
332.20 0.245479
332.30 0.2459116
332.40 0.2463436
332.50 0.2467751
332.60 0.247206
332.70 0.2476364
332.80 0.2480661
332.90 0.2484954
333.00 0.248924
333.10 0.2493529
333.20 0.2497822
333.30 0.2502109
333.40 0.2506391
333.50 0.2510667
333.60 0.2514938
333.70 0.2519203
333.80 0.2523462
333.90 0.2527716
334.00 0.2531964
334.10 0.2536348
334.20 0.2540898
334.30 0.2545443
334.40 0.2549981
334.50 0.2554514
334.60 0.2559041
334.70 0.2563372
334.80 0.2567541
334.90 0.2571811
335.00 0.2576076
335.10 0.258072
335.20 0.2585018
335.30 0.258931
335.40 0.2593597
335.50 0.2597877
335.60 0.2602153
335.70 0.2606685
335.80 0.261153
335.90 0.2616108
336.00 0.2620361
336.10 0.2624608
336.20 0.2628849
336.30 0.2633172
336.40 0.2637596
336.50 0.2642013
336.60 0.2646426
336.70 0.2650832
336.80 0.2655233
336.90 0.2659773
337.00 0.2664484
337.10 0.266919
337.20 0.2673889
337.30 0.2678467
337.40 0.2682873
337.50 0.2687273
337.60 0.2691667
337.70 0.2696056
337.80 0.2700439
337.90 0.2704833
338.00 0.2709241
338.10 0.2713643
338.20 0.2718039
338.30 0.272243
338.40 0.2726872
338.50 0.2731449
338.60 0.273602
338.70 0.2740586
338.80 0.2745145
338.90 0.2749699
339.00 0.2754247
339.10 0.2758789
339.20 0.2763325
339.30 0.2767952
339.40 0.2772712
339.50 0.277738
339.60 0.2781938
339.70 0.2786489
339.80 0.2791035
339.90 0.2795575
340.00 0.2800109
340.10 0.2804637
340.20 0.2809159
340.30 0.2813676
340.40 0.2818187
340.50 0.2822692
340.60 0.2827191
340.70 0.2831685
340.80 0.283625
340.90 0.2840921
341.00 0.2845529
341.10 0.2850062
341.20 0.2854589
341.30 0.2859109
341.40 0.2863625
341.50 0.2868134
341.60 0.2872638
341.70 0.2877136
341.80 0.2881702
341.90 0.2886353
342.00 0.2890999
342.10 0.2895638
342.20 0.2900127
342.30 0.2904707
342.40 0.2909426
342.50 0.2914107
342.60 0.2918781
342.70 0.292345
342.80 0.2928112
342.90 0.2932769
343.00 0.2937414
343.10 0.2942045
343.20 0.2946671
343.30 0.2951291
343.40 0.2955893
343.50 0.2960472
343.60 0.2965045
343.70 0.2969613
343.80 0.2974174
343.90 0.297873
344.00 0.2983317
344.10 0.2987954
344.20 0.2992584
344.30 0.2997209
344.40 0.3001941
344.50 0.300683
344.60 0.3011287
344.70 0.3016137
344.80 0.3021007
344.90 0.3025872
345.00 0.303008
345.10 0.3034933
345.20 0.3039664
345.30 0.3044222
345.40 0.3048774
345.50 0.3053334
345.60 0.3058007
345.70 0.3062824
345.80 0.3067634
345.90 0.3072439
346.00 0.3077237
346.10 0.308203
346.20 0.3086816
346.30 0.3091596
346.40 0.3096371
346.50 0.3101139
346.60 0.3105901
346.70 0.3110658
346.80 0.3115408
346.90 0.3120152
347.00 0.312489
347.10 0.3129623
347.20 0.3134352
347.30 0.313908
347.40 0.3143802
347.50 0.3148518
347.60 0.3153227
347.70 0.3157931
347.80 0.316263
347.90 0.3167322
348.00 0.3172008
348.10 0.3176688
348.20 0.3181363
348.30 0.3186031
348.40 0.3190694
348.50 0.3195351
348.60 0.3200001
348.70 0.3205187
348.80 0.3210331
348.90 0.3215172
349.00 0.3220007
349.10 0.3224836
349.20 0.3229659
349.30 0.3234475
349.40 0.3239286
349.50 0.3244091
349.60 0.3248889
349.70 0.3253682
349.80 0.3258468
349.90 0.3263249
350.00 0.3268023
350.10 0.3272792
350.20 0.3277554
350.30 0.328233
350.40 0.3287128
350.50 0.329192
350.60 0.3296706
350.70 0.3301486
350.80 0.330626
350.90 0.3311028
351.00 0.331579
351.10 0.3320546
351.20 0.3325296
351.30 0.3330041
351.40 0.33348
351.50 0.3339592
351.60 0.3344378
351.70 0.3349157
351.80 0.3353931
351.90 0.3358699
352.00 0.3363461
352.10 0.3368217
352.20 0.3373358
352.30 0.3378427
352.40 0.3383333
352.50 0.3388234
352.60 0.3393128
352.70 0.3398016
352.80 0.3402898
352.90 0.3407773
353.00 0.3412643
353.10 0.3417507
353.20 0.3422365
353.30 0.3427216
353.40 0.3432062
353.50 0.3436961
353.60 0.344187
353.70 0.3446772
353.80 0.3451669
353.90 0.345654
354.00 0.3461371
354.10 0.3466195
354.20 0.3471014
354.30 0.3475827
354.40 0.3480634
354.50 0.3485434
354.60 0.3490229
354.70 0.3495018
354.80 0.3499939
354.90 0.3505051
355.00 0.3510158
355.10 0.3515257
355.20 0.3520351
355.30 0.352512
355.40 0.3529883
355.50 0.3534641
355.60 0.3539392
355.70 0.3544403
355.80 0.3549526
355.90 0.3554746
356.00 0.355979
356.10 0.3564739
356.20 0.3569683
356.30 0.357462
356.40 0.3579552
356.50 0.3584477
356.60 0.3589396
356.70 0.3594309
356.80 0.3599216
356.90 0.3604117
357.00 0.3609012
357.10 0.3613901
357.20 0.3618784
357.30 0.3623661
357.40 0.3628579
357.50 0.3633575
357.60 0.3638564
357.70 0.3643548
357.80 0.3648498
357.90 0.3653441
358.00 0.3658443
358.10 0.3663454
358.20 0.366846
358.30 0.3673459
358.40 0.3678452
358.50 0.3683439
358.60 0.368842
358.70 0.3693395
358.80 0.3698363
358.90 0.3703326
359.00 0.370822
359.10 0.3712997
359.20 0.3717787
359.30 0.3722695
359.40 0.3727597
359.50 0.3732718
359.60 0.3737887
359.70 0.3743051
359.80 0.3747879
359.90 0.3752702
360.00 0.3757612
360.10 0.3762684
360.20 0.3767749
360.30 0.3772808
360.40 0.3777861
360.50 0.3782908
360.60 0.378755
360.70 0.3792759
360.80 0.3797963
360.90 0.380316
361.00 0.3807664
361.10 0.3812781
361.20 0.3817597
361.30 0.3822719
361.40 0.3828136
361.50 0.3832543
361.60 0.3837767
361.70 0.3842663
361.80 0.3847706
361.90 0.3853014
362.00 0.3858314
362.10 0.3863227
362.20 0.3868142
362.30 0.3873239
362.40 0.387833
362.50 0.3883415
362.60 0.3888493
362.70 0.3893332
362.80 0.3898605
362.90 0.3903394
363.00 0.3908177
363.10 0.3913291
363.20 0.3918401
363.30 0.3923659
363.40 0.3928701
363.50 0.3933241
363.60 0.3938519
363.70 0.3943901
363.80 0.3948561
363.90 0.3953703
364.00 0.3958838
364.10 0.3963967
364.20 0.396909
364.30 0.3974081
364.40 0.3979034
364.50 0.3983834
364.60 0.3988862
364.70 0.3993883
364.80 0.3998898
364.90 0.4004095
365.00 0.4009285
365.10 0.401447
365.20 0.4019648
365.30 0.402482
365.40 0.4029986
365.50 0.4035145
365.60 0.4040298
365.70 0.4045222
365.80 0.405014
365.90 0.4055013
366.00 0.4059869
366.10 0.4065106
366.20 0.4070337
366.30 0.4075561
366.40 0.4080779
366.50 0.4085836
366.60 0.4090512
366.70 0.4095671
366.80 0.4100825
366.90 0.4105964
367.00 0.4111083
367.10 0.4116197
367.20 0.4121304
367.30 0.4126405
367.40 0.41315
367.50 0.4136762
367.60 0.4142062
367.70 0.4146958
367.80 0.4151848
367.90 0.4156732
368.00 0.4162121
368.10 0.4167532
368.20 0.4172622
368.30 0.4177707
368.40 0.4182787
368.50 0.418786
368.60 0.4192927
368.70 0.4197988
368.80 0.4203043
368.90 0.4207932
369.00 0.4212989
369.10 0.4218154
369.20 0.4223642
369.30 0.4228729
369.40 0.423381
369.50 0.4238884
369.60 0.4244234
369.70 0.4249578
369.80 0.4254543
369.90 0.4259498
370.00 0.4264447
370.10 0.4270065
370.20 0.4274961
370.30 0.4279827
370.40 0.4284687
370.50 0.4290497
370.60 0.4295345
370.70 0.4300258
370.80 0.4305534
370.90 0.4310803
371.00 0.4315666
371.10 0.4320521
371.20 0.4325771
371.30 0.4331015
371.40 0.4336255
371.50 0.4341531
371.60 0.4346802
371.70 0.4352066
371.80 0.4357323
371.90 0.4362574
372.00 0.4367076
372.10 0.4372173
372.20 0.4377399
372.30 0.4382618
372.40 0.4387832
372.50 0.4393039
372.60 0.439824
372.70 0.4403435
372.80 0.4408586
372.90 0.4413731
373.00 0.4418944
373.10 0.4424152
373.20 0.4429316
373.30 0.4434473
373.40 0.4439155
373.50 0.444477
373.60 0.444944
373.70 0.4455043
373.80 0.4460346
373.90 0.446529
374.00 0.4470405
374.10 0.4475514
374.20 0.4480616
374.30 0.4485713
374.40 0.449092
374.50 0.4495819
374.60 0.4501141
374.70 0.4506466
374.80 0.4511785
374.90 0.4517097
375.00 0.452215
375.10 0.4527198
375.20 0.4532239
375.30 0.4537408
375.40 0.454257
375.50 0.4547726
375.60 0.4552876
375.70 0.455802
375.80 0.4563158
375.90 0.456829
376.00 0.4574128
376.10 0.4579179
376.20 0.4584216
376.30 0.4589247
376.40 0.4594273
376.50 0.4599371
376.60 0.4604583
376.70 0.4609789
376.80 0.4615042
376.90 0.4620342
377.00 0.4625636
377.10 0.4630924
377.20 0.4636149
377.30 0.4641155
377.40 0.4646155
377.50 0.465115
377.60 0.4656486
377.70 0.4661817
377.80 0.4667141
377.90 0.4672459
378.00 0.4677344
378.10 0.4682612
378.20 0.4687884
378.30 0.4693151
378.40 0.4698411
378.50 0.4703664
378.60 0.4708912
378.70 0.4714153
378.80 0.4719389
378.90 0.4724521
379.00 0.4729469
379.10 0.4734642
379.20 0.4739808
379.30 0.4744961
379.40 0.4750103
379.50 0.4755239
379.60 0.4760375
379.70 0.4765535
379.80 0.477077
379.90 0.4775999
380.00 0.4781221
380.10 0.4786437
380.20 0.4791647
380.30 0.4796851
380.40 0.4802049
380.50 0.4807241
380.60 0.4812448
380.70 0.4817737
380.80 0.4823019
380.90 0.4828295
381.00 0.4833565
381.10 0.4838367
381.20 0.4843439
381.30 0.48488
381.40 0.4854138
381.50 0.485945
381.60 0.4864644
381.70 0.4869706
381.80 0.4874521
381.90 0.4880063
382.00 0.4885598
382.10 0.4890678
382.20 0.4896111
382.30 0.4901179
382.40 0.4906252
382.50 0.4911337
382.60 0.4916416
382.70 0.4921803
382.80 0.4927245
382.90 0.4932388
383.00 0.4937525
383.10 0.4942656
383.20 0.4947822
383.30 0.4953133
383.40 0.4958342
383.50 0.4963401
383.60 0.4968653
383.70 0.4973929
383.80 0.4979198
383.90 0.4984461
384.00 0.4989718
384.10 0.4994969
384.20 0.5000213
384.30 0.5005452
384.40 0.5010594
384.50 0.501564
384.60 0.5020681
384.70 0.5025716
384.80 0.503087
384.90 0.5036403
385.00 0.5041763
385.10 0.5047119
385.20 0.5052343
385.30 0.5057346
385.40 0.5062444
385.50 0.5067636
385.60 0.5072822
385.70 0.5078003
385.80 0.5083161
385.90 0.5088253
386.00 0.5093537
386.10 0.5098985
386.20 0.5104155
386.30 0.5109318
386.40 0.5114712
386.50 0.5119604
386.60 0.5125255
386.70 0.5130061
386.80 0.513508
386.90 0.5140532
387.00 0.5145627
387.10 0.5150847
387.20 0.5156278
387.30 0.5161269
387.40 0.5166449
387.50 0.5172065
387.60 0.517672
387.70 0.5182122
387.80 0.5187518
387.90 0.5192907
388.00 0.5198087
388.10 0.5203293
388.20 0.5208308
388.30 0.5213635
388.40 0.5218956
388.50 0.5224139
388.60 0.5229195
388.70 0.5233997
388.80 0.5239556
388.90 0.5244993
389.00 0.5250182
389.10 0.525502
389.20 0.5260536
389.30 0.5265856
389.40 0.5270694
389.50 0.5275707
389.60 0.5280998
389.70 0.5286287
389.80 0.5291503
389.90 0.5296714
390.00 0.5301918
390.10 0.5307116
390.20 0.5312308
390.30 0.5317523
390.40 0.5322765
390.50 0.5328001
390.60 0.5333231
390.70 0.5338455
390.80 0.534358
390.90 0.5348606
391.00 0.5354392
391.10 0.5359563
391.20 0.5364772
391.30 0.5370016
391.40 0.5375121
391.50 0.5380221
391.60 0.5385314
391.70 0.5390402
391.80 0.5395484
391.90 0.5400632
392.00 0.5405915
392.10 0.5411284
392.20 0.5416566
392.30 0.5421475
392.40 0.542681
392.50 0.5432076
392.60 0.5437245
392.70 0.5442706
392.80 0.5447587
392.90 0.5453015
393.00 0.5458372
393.10 0.5463661
393.20 0.5468843
393.30 0.5473694
393.40 0.5478701
393.50 0.5484271
393.60 0.5489465
393.70 0.5494812
393.80 0.5499596
393.90 0.5504836
394.00 0.5510082
394.10 0.5515447
394.20 0.552079
394.30 0.5526094
394.40 0.5530918
394.50 0.5535847
394.60 0.5541042
394.70 0.5546255
394.80 0.5551553
394.90 0.5556843
395.00 0.5562087
395.10 0.5567118
395.20 0.5572371
395.30 0.5577755
395.40 0.5583133
395.50 0.5588247
395.60 0.5593258
395.70 0.5598354
395.80 0.5603688
395.90 0.5609016
396.00 0.5614247
396.10 0.561888
396.20 0.56244
396.30 0.5629351
396.40 0.5634587
396.50 0.5640089
396.60 0.5644751
396.70 0.5650036
396.80 0.5655039
396.90 0.5660868
397.00 0.566609
397.10 0.5670862
397.20 0.5676191
397.30 0.568133
397.40 0.5686568
397.50 0.56918
397.60 0.5697013
397.70 0.5702089
397.80 0.5707159
397.90 0.5712239
398.00 0.5717354
398.10 0.5722463
398.20 0.5727642
398.30 0.5732899
398.40 0.5738154
398.50 0.5743535
398.60 0.5748715
398.70 0.5753895
398.80 0.575909
398.90 0.576423
399.00 0.5769275
399.10 0.5774527
399.20 0.5779752
399.30 0.5784972
399.40 0.5790185
399.50 0.5795392
399.60 0.5800549
399.70 0.5805683
399.80 0.5810811
399.90 0.5815933
400.00 0.5821054
400.10 0.5826339
400.20 0.5831299
400.30 0.5836567
400.40 0.5841737
400.50 0.5846355
400.60 0.5851856
400.70 0.5857105
400.80 0.5862348
400.90 0.5867586
401.00 0.5872768
401.10 0.5877227
401.20 0.5882895
401.30 0.5887805
401.40 0.5892869
401.50 0.5898071
401.60 0.5903267
401.70 0.5908458
401.80 0.5913451
401.90 0.5918449
402.00 0.5923984
402.10 0.5928916
402.20 0.5934289
402.30 0.5939476
402.40 0.5944459
402.50 0.5949525
402.60 0.595488
402.70 0.5959795
402.80 0.5964921
402.90 0.5970041
403.00 0.5975155
403.10 0.5980263
403.20 0.5985608
403.30 0.5990705
403.40 0.5995606
403.50 0.6000979
403.60 0.600645
403.70 0.6011598
403.80 0.6016107
403.90 0.6021352
404.00 0.602668
404.10 0.6031833
404.20 0.6036878
404.30 0.6041917
404.40 0.6047096
404.50 0.6051978
404.60 0.6056999
404.70 0.6062816
404.80 0.6067282
404.90 0.607283
405.00 0.6077881
405.10 0.6082822
405.20 0.6087809
405.30 0.6092791
405.40 0.6098033
405.50 0.6103269
405.60 0.6108499
405.70 0.6113723
405.80 0.6118942
405.90 0.6124154
406.00 0.6129143
406.10 0.6134127
406.20 0.6139105
406.30 0.6144078
406.40 0.6149043
406.50 0.6154334
406.60 0.6159419
406.70 0.616442
406.80 0.616944
406.90 0.6175143
407.00 0.6180186
407.10 0.6185223
407.20 0.6190255
407.30 0.6195281
407.40 0.6200301
407.50 0.6205316
407.60 0.6210325
407.70 0.6215328
407.80 0.6220325
407.90 0.6225322
408.00 0.6230452
408.10 0.623591
408.20 0.6241182
408.30 0.6246071
408.40 0.6250954
408.50 0.6256325
408.60 0.6261419
408.70 0.6266507
408.80 0.6271587
408.90 0.6276639
409.00 0.6281698
409.10 0.6286751
409.20 0.6291798
409.30 0.6296839
409.40 0.6301872
409.50 0.6306811
409.60 0.6311744
409.70 0.6316726
409.80 0.6321922
409.90 0.6327115
410.00 0.6332362
410.10 0.6337074
410.20 0.6342121
410.30 0.6347248
410.40 0.6352365
410.50 0.6357465
410.60 0.6362559
410.70 0.6367647
410.80 0.6372729
410.90 0.6377805
411.00 0.6382851
411.10 0.6387881
411.20 0.6392906
411.30 0.6397891
411.40 0.6402738
411.50 0.6407838
411.60 0.6412932
411.70 0.6418006
411.80 0.6423011
411.90 0.6427933
412.00 0.6433314
412.10 0.6438495
412.20 0.6443285
412.30 0.6448048
412.40 0.6453485
412.50 0.6458585
412.60 0.646316
412.70 0.6468281
412.80 0.6473534
412.90 0.6478626
413.00 0.6483385
413.10 0.6488483
413.20 0.6493574
413.30 0.649866
413.40 0.650374
413.50 0.6508769
413.60 0.6513625
413.70 0.6518523
413.80 0.6523417
413.90 0.6528305
414.00 0.6533279
414.10 0.6538539
414.20 0.6543609
414.30 0.6548857
414.40 0.6553335
414.50 0.6558501
414.60 0.6563894
414.70 0.6568737
414.80 0.6573621
414.90 0.6578644
415.00 0.6583662
415.10 0.6588674
415.20 0.6593651
415.30 0.6598532
415.40 0.6603407
415.50 0.660828
415.60 0.6613267
415.70 0.6618247
415.80 0.6623241
415.90 0.6628289
416.00 0.663333
416.10 0.6638357
416.20 0.6643339
416.30 0.6648316
416.40 0.6653287
416.50 0.6658257
416.60 0.6663375
416.70 0.6668464
416.80 0.6673289
416.90 0.6678322
417.00 0.6683136
417.10 0.6688124
417.20 0.6693208
417.30 0.6698278
417.40 0.670305
417.50 0.6707817
417.60 0.6712655
