# Version 2.1 - nm, norm@500 to 1, cut digits, bergeron_He_14000_70.dat_14000
# Wavelength(nm)  Flambda(ergs/cm^s/s/nm)
300.00 3.065761
300.10 3.063791
300.20 3.06175
300.30 3.059752
300.40 3.058032
300.50 3.056314
300.60 3.054598
300.70 3.052882
300.80 3.051169
300.90 3.049457
301.00 3.047747
301.10 3.046038
301.20 3.044331
301.30 3.042626
301.40 3.040922
301.50 3.03922
301.60 3.037519
301.70 3.03582
301.80 3.034122
301.90 3.032426
302.00 3.030732
302.10 3.028947
302.20 3.027154
302.30 3.025362
302.40 3.023572
302.50 3.021783
302.60 3.019997
302.70 3.018212
302.80 3.016428
302.90 3.014647
303.00 3.012867
303.10 3.011089
303.20 3.009312
303.30 3.007538
303.40 3.005775
303.50 3.004014
303.60 3.002255
303.70 3.000497
303.80 2.998741
303.90 2.996986
304.00 2.995233
304.10 2.993482
304.20 2.991733
304.30 2.989985
304.40 2.988238
304.50 2.986494
304.60 2.984819
304.70 2.983152
304.80 2.981488
304.90 2.979825
305.00 2.978163
305.10 2.976503
305.20 2.974845
305.30 2.973188
305.40 2.971533
305.50 2.969879
305.60 2.968226
305.70 2.966576
305.80 2.964926
305.90 2.963279
306.00 2.961632
306.10 2.959988
306.20 2.958344
306.30 2.956703
306.40 2.954922
306.50 2.953101
306.60 2.951282
306.70 2.949465
306.80 2.947649
306.90 2.945835
307.00 2.944023
307.10 2.942213
307.20 2.940404
307.30 2.938597
307.40 2.936792
307.50 2.934988
307.60 2.933187
307.70 2.931387
307.80 2.929588
307.90 2.927792
308.00 2.925997
308.10 2.924204
308.20 2.922412
308.30 2.920622
308.40 2.918834
308.50 2.917048
308.60 2.915263
308.70 2.91348
308.80 2.911672
308.90 2.909787
309.00 2.908435
309.10 2.907084
309.20 2.905734
309.30 2.904385
309.40 2.902963
309.50 2.901088
309.60 2.899214
309.70 2.897342
309.80 2.895472
309.90 2.893603
310.00 2.891737
310.10 2.889872
310.20 2.888009
310.30 2.886148
310.40 2.884513
310.50 2.883121
310.60 2.881731
310.70 2.880342
310.80 2.878954
310.90 2.877568
311.00 2.875718
311.10 2.873869
311.20 2.872022
311.30 2.870178
311.40 2.868334
311.50 2.866493
311.60 2.864654
311.70 2.862816
311.80 2.86098
311.90 2.859146
312.00 2.857313
312.10 2.855482
312.20 2.853653
312.30 2.851826
312.40 2.850001
312.50 2.848177
312.60 2.846355
312.70 2.844535
312.80 2.842716
312.90 2.8409
313.00 2.839085
313.10 2.837271
313.20 2.83546
313.30 2.83374
313.40 2.832277
313.50 2.830816
313.60 2.829356
313.70 2.827897
313.80 2.82644
313.90 2.824984
314.00 2.823529
314.10 2.821409
314.20 2.81929
314.30 2.817175
314.40 2.815061
314.50 2.812949
314.60 2.810839
314.70 2.808732
314.80 2.80671
314.90 2.804928
315.00 2.803147
315.10 2.800955
315.20 2.798764
315.30 2.796576
315.40 2.794391
315.50 2.792207
315.60 2.790026
315.70 2.78764
315.80 2.785258
315.90 2.782877
316.00 2.780499
316.10 2.776275
316.20 2.772055
316.30 2.772765
316.40 2.773474
316.50 2.766802
316.60 2.755224
316.70 2.751028
316.80 2.746836
316.90 2.745716
317.00 2.744597
317.10 2.743479
317.20 2.742362
317.30 2.743446
317.40 2.743648
317.50 2.741347
317.60 2.739047
317.70 2.73675
317.80 2.734456
317.90 2.72632
318.00 2.714244
318.10 2.694886
318.20 2.675552
318.30 2.656242
318.40 2.622265
318.50 2.546547
318.60 2.448836
318.70 2.150911
318.80 1.644214
318.90 2.227817
319.00 2.413638
319.10 2.506726
319.20 2.582434
319.30 2.608945
319.40 2.635422
319.50 2.661865
319.60 2.679201
319.70 2.685177
319.80 2.691146
319.90 2.697106
320.00 2.701124
320.10 2.703043
320.20 2.704307
320.30 2.705624
320.40 2.704656
320.50 2.705366
320.60 2.704254
320.70 2.703766
320.80 2.703277
320.90 2.702789
321.00 2.702301
321.10 2.701813
321.20 2.700859
321.30 2.699591
321.40 2.698324
321.50 2.697058
321.60 2.695793
321.70 2.694529
321.80 2.693069
321.90 2.691396
322.00 2.689878
322.10 2.688503
322.20 2.68713
322.30 2.685758
322.40 2.684387
322.50 2.683017
322.60 2.681648
322.70 2.680281
322.80 2.678828
322.90 2.677379
323.00 2.675931
323.10 2.674484
323.20 2.673039
323.30 2.671595
323.40 2.670152
323.50 2.668711
323.60 2.66727
323.70 2.665831
323.80 2.664394
323.90 2.662957
324.00 2.661941
324.10 2.660926
324.20 2.659912
324.30 2.658735
324.40 2.657096
324.50 2.655459
324.60 2.653823
324.70 2.652188
324.80 2.650555
324.90 2.648924
325.00 2.647294
325.10 2.645666
325.20 2.644039
325.30 2.642414
325.40 2.64079
325.50 2.639431
325.60 2.638395
325.70 2.63736
325.80 2.636326
325.90 2.635012
326.00 2.633396
326.10 2.631781
326.20 2.630168
326.30 2.628556
326.40 2.626946
326.50 2.625496
326.60 2.624047
326.70 2.6226
326.80 2.621154
326.90 2.61971
327.00 2.618266
327.10 2.616824
327.20 2.615384
327.30 2.613944
327.40 2.612506
327.50 2.611069
327.60 2.609633
327.70 2.608199
327.80 2.606765
327.90 2.605258
328.00 2.603447
328.10 2.601367
328.20 2.599289
328.30 2.597214
328.40 2.59514
328.50 2.593987
328.60 2.593052
328.70 2.592116
328.80 2.591015
328.90 2.58944
329.00 2.587866
329.10 2.586293
329.20 2.584722
329.30 2.583153
329.40 2.581584
329.50 2.580018
329.60 2.578452
329.70 2.576889
329.80 2.575326
329.90 2.573765
330.00 2.572462
330.10 2.571473
330.20 2.570485
330.30 2.569497
330.40 2.568238
330.50 2.566684
330.60 2.565131
330.70 2.56358
330.80 2.562031
330.90 2.560482
331.00 2.558936
331.10 2.55739
331.20 2.555846
331.30 2.554303
331.40 2.552762
331.50 2.551222
331.60 2.549684
331.70 2.548146
331.80 2.546611
331.90 2.545076
332.00 2.543543
332.10 2.542012
332.20 2.540482
332.30 2.538953
332.40 2.537425
332.50 2.535899
332.60 2.534375
332.70 2.532851
332.80 2.53133
332.90 2.529809
333.00 2.52829
333.10 2.526572
333.20 2.524612
333.30 2.522654
333.40 2.520698
333.50 2.518743
333.60 2.516791
333.70 2.51484
333.80 2.512891
333.90 2.510944
334.00 2.508999
334.10 2.506758
334.20 2.504155
334.30 2.501555
334.40 2.498958
334.50 2.496363
334.60 2.493771
334.70 2.490724
334.80 2.486958
334.90 2.482958
335.00 2.478962
335.10 2.472787
335.20 2.466926
335.30 2.460305
335.40 2.44652
335.50 2.45409
335.60 2.461377
335.70 2.465212
335.80 2.467022
335.90 2.468337
336.00 2.46905
336.10 2.469762
336.20 2.470472
336.30 2.470528
336.40 2.469785
336.50 2.469043
336.60 2.468301
336.70 2.467559
336.80 2.466818
336.90 2.465994
337.00 2.465067
337.10 2.464142
337.20 2.463217
337.30 2.462222
337.40 2.461125
337.50 2.46003
337.60 2.458936
337.70 2.457842
337.80 2.456749
337.90 2.455494
338.00 2.454042
338.10 2.45259
338.20 2.45114
338.30 2.449691
338.40 2.448244
338.50 2.446797
338.60 2.445352
338.70 2.443908
338.80 2.442466
338.90 2.441025
339.00 2.439585
339.10 2.438146
339.20 2.436709
339.30 2.435273
339.40 2.433838
339.50 2.432404
339.60 2.430972
339.70 2.429541
339.80 2.428111
339.90 2.426683
340.00 2.425255
340.10 2.423829
340.20 2.422405
340.30 2.420981
340.40 2.419559
340.50 2.418138
340.60 2.416718
340.70 2.4153
340.80 2.413883
340.90 2.412467
341.00 2.410933
341.10 2.409255
341.20 2.407578
341.30 2.405903
341.40 2.40423
341.50 2.402558
341.60 2.400887
341.70 2.399219
341.80 2.39767
341.90 2.396268
342.00 2.394867
342.10 2.393467
342.20 2.392068
342.30 2.390671
342.40 2.38913
342.50 2.387382
342.60 2.385637
342.70 2.383893
342.80 2.38215
342.90 2.38041
343.00 2.378362
343.10 2.37594
343.20 2.37352
343.30 2.371103
343.40 2.368255
343.50 2.364789
343.60 2.361325
343.70 2.357866
343.80 2.35441
343.90 2.350958
344.00 2.345803
344.10 2.338197
344.20 2.3306
344.30 2.323012
344.40 2.313303
344.50 2.300543
344.60 2.286045
344.70 2.254394
344.80 2.27355
344.90 2.29491
345.00 2.305471
345.10 2.313444
345.20 2.319597
345.30 2.32314
345.40 2.326679
345.50 2.32891
345.60 2.329296
345.70 2.329323
345.80 2.329349
345.90 2.329375
346.00 2.329401
346.10 2.329426
346.20 2.329058
346.30 2.328124
346.40 2.32719
346.50 2.326258
346.60 2.325326
346.70 2.324394
346.80 2.323464
346.90 2.322534
347.00 2.321605
347.10 2.320676
347.20 2.319638
347.30 2.318442
347.40 2.317247
347.50 2.316052
347.60 2.314859
347.70 2.313667
347.80 2.312476
347.90 2.311285
348.00 2.310096
348.10 2.308908
348.20 2.30772
348.30 2.306534
348.40 2.305349
348.50 2.304164
348.60 2.302981
348.70 2.301694
348.80 2.300374
348.90 2.299056
349.00 2.297738
349.10 2.296422
349.20 2.295107
349.30 2.293793
349.40 2.29248
349.50 2.291169
349.60 2.289858
349.70 2.288549
349.80 2.28724
349.90 2.285933
350.00 2.284627
350.10 2.283322
350.20 2.282018
350.30 2.280716
350.40 2.279414
350.50 2.278113
350.60 2.276814
350.70 2.275516
350.80 2.274219
350.90 2.272923
351.00 2.271628
351.10 2.270334
351.20 2.269041
351.30 2.26775
351.40 2.266459
351.50 2.26517
351.60 2.263881
351.70 2.262594
351.80 2.261308
351.90 2.260023
352.00 2.258739
352.10 2.257456
352.20 2.256175
352.30 2.254964
352.40 2.253855
352.50 2.252747
352.60 2.251641
352.70 2.250534
352.80 2.249429
352.90 2.248325
353.00 2.247222
353.10 2.246119
353.20 2.245018
353.30 2.243917
353.40 2.242817
353.50 2.241582
353.60 2.240315
353.70 2.239048
353.80 2.237782
353.90 2.236597
354.00 2.235553
354.10 2.23451
354.20 2.233468
354.30 2.232427
354.40 2.231386
354.50 2.230347
354.60 2.229308
354.70 2.22827
354.80 2.227325
354.90 2.226513
355.00 2.225703
355.10 2.224892
355.20 2.224082
355.30 2.223283
355.40 2.222485
355.50 2.221687
355.60 2.22089
355.70 2.219781
355.80 2.218534
355.90 2.217287
356.00 2.216365
356.10 2.215524
356.20 2.214683
356.30 2.213844
356.40 2.213004
356.50 2.212166
356.60 2.211328
356.70 2.21049
356.80 2.209653
356.90 2.208817
357.00 2.207981
357.10 2.207146
357.20 2.206312
357.30 2.205478
357.40 2.2045
357.50 2.203267
357.60 2.202035
357.70 2.200804
357.80 2.200449
357.90 2.200094
358.00 2.199187
358.10 2.198143
358.20 2.1971
358.30 2.196057
358.40 2.195016
358.50 2.193975
358.60 2.192935
358.70 2.191896
358.80 2.190857
358.90 2.18982
359.00 2.188717
359.10 2.187498
359.20 2.186281
359.30 2.185064
359.40 2.183848
359.50 2.182633
359.60 2.181419
359.70 2.180207
359.80 2.177553
359.90 2.174902
360.00 2.171881
360.10 2.168198
360.20 2.164519
360.30 2.160844
360.40 2.157172
360.50 2.153505
360.60 2.144063
360.70 2.130566
360.80 2.117084
360.90 2.103617
361.00 2.08608
361.10 2.052911
361.20 2.01107
361.30 1.929181
361.40 1.985361
361.50 2.06165
361.60 2.085908
361.70 2.090404
361.80 2.095509
361.90 2.101699
362.00 2.107882
362.10 2.110273
362.20 2.110185
362.30 2.107374
362.40 2.104565
362.50 2.10176
362.60 2.098957
362.70 2.09435
362.80 2.088828
362.90 2.081162
363.00 2.073505
363.10 2.060471
363.20 2.047398
363.30 2.027086
363.40 2.003584
363.50 2.030449
363.60 2.055421
363.70 2.067328
363.80 2.075499
363.90 2.080117
364.00 2.084729
364.10 2.089337
364.20 2.093938
364.30 2.098063
364.40 2.102065
364.50 2.106512
364.60 2.109051
364.70 2.111587
364.80 2.114119
364.90 2.114811
365.00 2.115502
365.10 2.114343
365.20 2.107644
365.30 2.108336
365.40 2.112718
365.50 2.11525
365.60 2.117779
365.70 2.119971
365.80 2.122159
365.90 2.123304
366.00 2.124188
366.10 2.123931
366.20 2.123674
366.30 2.123416
366.40 2.123159
366.50 2.123879
366.60 2.12274
366.70 2.122276
366.80 2.121812
366.90 2.120981
367.00 2.119497
367.10 2.118013
367.20 2.116531
367.30 2.11505
367.40 2.113571
367.50 2.111544
367.60 2.109383
367.70 2.106797
367.80 2.104214
367.90 2.101633
368.00 2.099342
368.10 2.096406
368.20 2.091944
368.30 2.087476
368.40 2.083012
368.50 2.078552
368.60 2.074098
368.70 2.069647
368.80 2.065202
368.90 2.059629
369.00 2.053222
369.10 2.047114
369.20 2.040533
369.30 2.030998
369.40 2.021473
369.50 2.011959
369.60 1.999206
369.70 1.986467
369.80 1.970333
369.90 1.954182
370.00 1.938048
370.10 1.921086
370.20 1.892284
370.30 1.863414
370.40 1.810176
370.50 1.765208
370.60 1.833348
370.70 1.887801
370.80 1.913527
370.90 1.939224
371.00 1.948241
371.10 1.95708
371.20 1.964921
371.30 1.972753
371.40 1.980011
371.50 1.986923
371.60 1.993828
371.70 2.000724
371.80 2.007613
371.90 2.014495
372.00 2.019087
372.10 2.023085
372.20 2.025555
372.30 2.028022
372.40 2.030486
372.50 2.032947
372.60 2.035405
372.70 2.03786
372.80 2.038531
372.90 2.0392
373.00 2.039005
373.10 2.038802
373.20 2.035056
373.30 2.031314
373.40 1.999305
373.50 2.005298
373.60 2.013933
373.70 2.021676
373.80 2.026049
373.90 2.031849
374.00 2.034285
374.10 2.036718
374.20 2.039149
374.30 2.041576
374.40 2.042683
374.50 2.04291
374.60 2.043126
374.70 2.043355
374.80 2.043583
374.90 2.043811
375.00 2.043305
375.10 2.042799
375.20 2.042294
375.30 2.041456
375.40 2.040618
375.50 2.039781
375.60 2.038944
375.70 2.038108
375.80 2.037273
375.90 2.036438
376.00 2.035355
376.10 2.034273
376.20 2.033192
376.30 2.032111
376.40 2.031032
376.50 2.029953
376.60 2.028875
376.70 2.027798
376.80 2.026519
376.90 2.02504
377.00 2.023562
377.10 2.022085
377.20 2.020581
377.30 2.018971
377.40 2.017362
377.50 2.015755
377.60 2.013936
377.70 2.012119
377.80 2.010303
377.90 2.00849
378.00 2.006977
378.10 2.004534
378.20 2.002078
378.30 1.999625
378.40 1.997174
378.50 1.994726
378.60 1.99228
378.70 1.989836
378.80 1.987395
378.90 1.984997
379.00 1.982679
379.10 1.978891
379.20 1.975106
379.30 1.971314
379.40 1.967514
379.50 1.963718
379.60 1.95988
379.70 1.9554
379.80 1.948761
379.90 1.942128
380.00 1.935502
380.10 1.928883
380.20 1.92227
380.30 1.915664
380.40 1.909065
380.50 1.902472
380.60 1.891058
380.70 1.876929
380.80 1.862815
380.90 1.848716
381.00 1.834631
381.10 1.814586
381.20 1.793901
381.30 1.77032
381.40 1.741571
381.50 1.708367
381.60 1.670364
381.70 1.623154
381.80 1.563978
381.90 1.449647
382.00 1.394525
382.10 1.562198
382.20 1.640378
382.30 1.693629
382.40 1.736461
382.50 1.763714
382.60 1.790938
382.70 1.812247
382.80 1.821647
382.90 1.825788
383.00 1.829924
383.10 1.834055
383.20 1.839061
383.30 1.847366
383.40 1.85531
383.50 1.862718
383.60 1.870595
383.70 1.874911
383.80 1.879223
383.90 1.883529
384.00 1.887832
384.10 1.892129
384.20 1.896422
384.30 1.900709
384.40 1.903911
384.50 1.906029
384.60 1.908143
384.70 1.910256
384.80 1.91212
384.90 1.912884
385.00 1.913317
385.10 1.91372
385.20 1.913519
385.30 1.914211
385.40 1.914253
385.50 1.913646
385.60 1.91304
385.70 1.912434
385.80 1.911748
385.90 1.910757
386.00 1.909767
386.10 1.908548
386.20 1.905009
386.30 1.901473
386.40 1.896356
386.50 1.88824
386.60 1.873762
386.70 1.8349
386.80 1.764792
386.90 1.802145
387.00 1.825271
387.10 1.841509
387.20 1.851771
387.30 1.860918
387.40 1.867718
387.50 1.871858
387.60 1.874355
387.70 1.873388
387.80 1.872422
387.90 1.871456
388.00 1.869693
388.10 1.864122
388.20 1.852347
388.30 1.835313
388.40 1.818296
388.50 1.792386
388.60 1.744325
388.70 1.655642
388.80 1.441574
388.90 1.312759
389.00 1.577152
389.10 1.690507
389.20 1.751492
389.30 1.788455
389.40 1.811699
389.50 1.830717
389.60 1.842931
389.70 1.850886
389.80 1.854349
389.90 1.857807
390.00 1.861262
390.10 1.864713
390.20 1.868161
390.30 1.870148
390.40 1.870491
390.50 1.870833
390.60 1.871175
390.70 1.871516
390.80 1.871207
390.90 1.87025
391.00 1.869294
391.10 1.868338
391.20 1.867383
391.30 1.866176
391.40 1.864687
391.50 1.863199
391.60 1.861712
391.70 1.860226
391.80 1.858742
391.90 1.856805
392.00 1.854681
392.10 1.853042
392.20 1.851222
392.30 1.847832
392.40 1.844693
392.50 1.84196
392.60 1.837026
392.70 1.832656
392.80 1.835715
392.90 1.837786
393.00 1.839397
393.10 1.840352
393.20 1.84061
393.30 1.841267
393.40 1.84178
393.50 1.840844
393.60 1.839909
393.70 1.840126
393.80 1.8397
393.90 1.83956
394.00 1.839349
394.10 1.838415
394.20 1.837483
394.30 1.836551
394.40 1.83562
394.50 1.834689
394.60 1.832875
394.70 1.831097
394.80 1.829444
394.90 1.827764
395.00 1.825081
395.10 1.821701
395.20 1.817842
395.30 1.813841
395.40 1.809844
395.50 1.802957
395.60 1.795006
395.70 1.784956
395.80 1.769218
395.90 1.753496
396.00 1.736709
396.10 1.702059
396.20 1.648624
396.30 1.584019
396.40 1.428292
396.50 1.455266
396.60 1.654024
396.70 1.711318
396.80 1.718328
396.90 1.717482
397.00 1.733499
397.10 1.763873
397.20 1.774779
397.30 1.772124
397.40 1.773685
397.50 1.775245
397.60 1.77688
397.70 1.779301
397.80 1.781719
397.90 1.78354
398.00 1.783755
398.10 1.783969
398.20 1.783662
398.30 1.782766
398.40 1.781835
398.50 1.779748
398.60 1.778533
398.70 1.776629
398.80 1.774473
398.90 1.772361
399.00 1.770326
399.10 1.767669
399.20 1.764301
399.30 1.760937
399.40 1.757576
399.50 1.754218
399.60 1.750035
399.70 1.745551
399.80 1.74107
399.90 1.736594
400.00 1.732053
400.10 1.725268
400.20 1.719571
400.30 1.712474
400.40 1.705545
400.50 1.698725
400.60 1.689618
400.70 1.679569
400.80 1.669383
400.90 1.649926
401.00 1.639612
401.10 1.643611
401.20 1.641422
401.30 1.635371
401.40 1.625571
401.50 1.614573
401.60 1.603398
401.70 1.586158
401.80 1.566557
401.90 1.541505
402.00 1.514028
402.10 1.479227
402.20 1.43655
402.30 1.383296
402.40 1.312988
402.50 1.211079
402.60 1.003834
402.70 1.137412
402.80 1.290132
402.90 1.367728
403.00 1.437586
403.10 1.487968
403.20 1.525418
403.30 1.554955
403.40 1.581373
403.50 1.60137
403.60 1.619657
403.70 1.63411
403.80 1.645697
403.90 1.655179
404.00 1.663607
404.10 1.670102
404.20 1.671538
404.30 1.672972
404.40 1.668994
404.50 1.654002
404.60 1.647165
404.70 1.651616
404.80 1.660039
404.90 1.666514
405.00 1.671909
405.10 1.676665
405.20 1.681196
405.30 1.685723
405.40 1.687889
405.50 1.690053
405.60 1.692215
405.70 1.694375
405.80 1.696532
405.90 1.698687
406.00 1.699955
406.10 1.701222
406.20 1.702487
406.30 1.703751
406.40 1.704951
406.50 1.704488
406.60 1.705509
406.70 1.706346
406.80 1.706671
406.90 1.706733
407.00 1.70649
407.10 1.706246
407.20 1.706002
407.30 1.705759
407.40 1.705515
407.50 1.705272
407.60 1.705028
407.70 1.704785
407.80 1.704541
407.90 1.704304
408.00 1.704278
408.10 1.704089
408.20 1.703254
408.30 1.70242
408.40 1.701587
408.50 1.700754
408.60 1.699921
408.70 1.69909
408.80 1.698258
408.90 1.697428
409.00 1.696598
409.10 1.695769
409.20 1.69494
409.30 1.694112
409.40 1.693284
409.50 1.692457
409.60 1.691631
409.70 1.69067
409.80 1.689169
409.90 1.68769
410.00 1.686866
410.10 1.686044
410.20 1.684764
410.30 1.683372
410.40 1.682002
410.50 1.680701
410.60 1.679402
410.70 1.677963
410.80 1.675964
410.90 1.673967
411.00 1.671628
411.10 1.669163
411.20 1.6667
411.30 1.663822
411.40 1.659239
411.50 1.653292
411.60 1.64735
411.70 1.639243
411.80 1.622467
411.90 1.60164
412.00 1.542808
412.10 1.375595
412.20 1.452863
412.30 1.521699
412.40 1.563779
412.50 1.586849
412.60 1.600552
412.70 1.607172
412.80 1.612019
412.90 1.617013
413.00 1.615817
413.10 1.613316
413.20 1.610817
413.30 1.608321
413.40 1.605827
413.50 1.603078
413.60 1.598553
413.70 1.591663
413.80 1.584779
413.90 1.577901
414.00 1.570427
414.10 1.561048
414.20 1.549438
414.30 1.522568
414.40 1.486829
414.50 1.514988
414.60 1.53378
414.70 1.545934
414.80 1.557044
414.90 1.56488
415.00 1.572709
415.10 1.58053
415.20 1.587461
415.30 1.591591
415.40 1.595718
415.50 1.5998
415.60 1.602609
415.70 1.605415
415.80 1.60781
415.90 1.608911
416.00 1.610011
416.10 1.611008
416.20 1.611598
416.30 1.612187
416.40 1.612776
416.50 1.613323
416.60 1.612549
416.70 1.611669
416.80 1.607923
416.90 1.59857
417.00 1.597869
417.10 1.60169
417.20 1.603753
417.30 1.605789
417.40 1.607018
417.50 1.608246
417.60 1.609315
417.70 1.609736
417.80 1.609671
417.90 1.609606
418.00 1.609541
418.10 1.609476
418.20 1.609411
418.30 1.609324
418.40 1.608592
418.50 1.607976
418.60 1.60736
418.70 1.606745
418.80 1.606131
418.90 1.605516
419.00 1.604902
419.10 1.604289
419.20 1.603676
419.30 1.603058
419.40 1.602294
419.50 1.60153
419.60 1.600767
419.70 1.600004
419.80 1.599242
419.90 1.59848
420.00 1.597719
420.10 1.596959
420.20 1.596199
420.30 1.595439
420.40 1.59468
420.50 1.593922
420.60 1.593164
420.70 1.592407
420.80 1.59165
420.90 1.590879
421.00 1.589623
421.10 1.588369
421.20 1.58724
421.30 1.586486
421.40 1.585734
421.50 1.584981
421.60 1.584229
421.70 1.583478
421.80 1.582727
421.90 1.581977
422.00 1.581228
422.10 1.580391
422.20 1.579207
422.30 1.578023
422.40 1.576849
422.50 1.575963
422.60 1.575078
422.70 1.574194
422.80 1.57331
422.90 1.572427
423.00 1.571544
423.10 1.570662
423.20 1.569781
423.30 1.568901
423.40 1.568021
423.50 1.567142
423.60 1.566263
423.70 1.565385
423.80 1.564508
423.90 1.563631
424.00 1.562755
424.10 1.56188
424.20 1.561005
424.30 1.560131
424.40 1.559283
424.50 1.558272
424.60 1.557262
424.70 1.556253
424.80 1.555244
424.90 1.554237
