# Version 2.1 - nm, norm@500 to 1, cut digits, bergeron_He_17000_80.dat_17000
# Wavelength(nm)  Flambda(ergs/cm^s/s/nm)
300.00 3.680383
300.10 3.67798
300.20 3.67553
300.30 3.673083
300.40 3.670638
300.50 3.668195
300.60 3.665755
300.70 3.663317
300.80 3.660882
300.90 3.658449
301.00 3.656019
301.10 3.653591
301.20 3.651165
301.30 3.648742
301.40 3.646321
301.50 3.643903
301.60 3.641487
301.70 3.639073
301.80 3.636662
301.90 3.634253
302.00 3.631847
302.10 3.629184
302.20 3.626494
302.30 3.623808
302.40 3.621124
302.50 3.618444
302.60 3.615766
302.70 3.61309
302.80 3.610418
302.90 3.607748
303.00 3.605081
303.10 3.602416
303.20 3.599755
303.30 3.597094
303.40 3.594424
303.50 3.591756
303.60 3.589092
303.70 3.58643
303.80 3.58377
303.90 3.581114
304.00 3.57846
304.10 3.575809
304.20 3.57316
304.30 3.570515
304.40 3.567872
304.50 3.565231
304.60 3.562501
304.70 3.559764
304.80 3.557029
304.90 3.554297
305.00 3.551568
305.10 3.548842
305.20 3.546118
305.30 3.543397
305.40 3.54068
305.50 3.537965
305.60 3.535252
305.70 3.532543
305.80 3.529836
305.90 3.527132
306.00 3.524431
306.10 3.521733
306.20 3.519037
306.30 3.516344
306.40 3.513677
306.50 3.51102
306.60 3.508365
306.70 3.505713
306.80 3.503063
306.90 3.500417
307.00 3.497773
307.10 3.495132
307.20 3.492493
307.30 3.489857
307.40 3.487224
307.50 3.484593
307.60 3.481966
307.70 3.47934
307.80 3.476718
307.90 3.474098
308.00 3.471481
308.10 3.468867
308.20 3.466255
308.30 3.463646
308.40 3.461039
308.50 3.458435
308.60 3.455834
308.70 3.453236
308.80 3.450733
308.90 3.448499
309.00 3.445905
309.10 3.443314
309.20 3.440725
309.30 3.438139
309.40 3.43553
309.50 3.432765
309.60 3.430003
309.70 3.427244
309.80 3.424488
309.90 3.421734
310.00 3.418984
310.10 3.416236
310.20 3.413491
310.30 3.410749
310.40 3.407964
310.50 3.405133
310.60 3.402304
310.70 3.399479
310.80 3.396657
310.90 3.393837
311.00 3.39119
311.10 3.388546
311.20 3.385904
311.30 3.383236
311.40 3.38049
311.50 3.377746
311.60 3.375005
311.70 3.372267
311.80 3.369531
311.90 3.366798
312.00 3.364069
312.10 3.361342
312.20 3.358732
312.30 3.355815
312.40 3.35271
312.50 3.350379
312.60 3.347311
312.70 3.344246
312.80 3.341184
312.90 3.338178
313.00 3.335232
313.10 3.332289
313.20 3.329349
313.30 3.326316
313.40 3.323015
313.50 3.319717
313.60 3.316423
313.70 3.313132
313.80 3.309845
313.90 3.306561
314.00 3.303281
314.10 3.299857
314.20 3.296436
314.30 3.293019
314.40 3.289606
314.50 3.286197
314.60 3.282791
314.70 3.279389
314.80 3.275767
314.90 3.271457
315.00 3.26709
315.10 3.262476
315.20 3.257868
315.30 3.253265
315.40 3.248667
315.50 3.244074
315.60 3.239486
315.70 3.234482
315.80 3.229483
315.90 3.224491
316.00 3.219503
316.10 3.215784
316.20 3.212068
316.30 3.210878
316.40 3.207169
316.50 3.194232
316.60 3.16873
316.70 3.149127
316.80 3.129548
316.90 3.127155
317.00 3.124764
317.10 3.122376
317.20 3.119989
317.30 3.127621
317.40 3.132341
317.50 3.128802
317.60 3.125267
317.70 3.121736
317.80 3.118208
317.90 3.099828
318.00 3.073659
318.10 3.0306
318.20 2.987595
318.30 2.944643
318.40 2.881584
318.50 2.761263
318.60 2.615898
318.70 2.250889
318.80 1.564063
318.90 2.226077
319.00 2.468581
319.10 2.613172
319.20 2.735388
319.30 2.79432
319.40 2.853179
319.50 2.911963
319.60 2.956415
319.70 2.979808
319.80 3.003171
319.90 3.026504
320.00 3.045202
320.10 3.058889
320.20 3.070396
320.30 3.07972
320.40 3.087461
320.50 3.093228
320.60 3.09781
320.70 3.1016
320.80 3.104601
320.90 3.106748
321.00 3.108892
321.10 3.111033
321.20 3.111655
321.30 3.111409
321.40 3.111163
321.50 3.110916
321.60 3.11067
321.70 3.110422
321.80 3.109893
321.90 3.109057
322.00 3.107441
322.10 3.106117
322.20 3.104793
322.30 3.103471
322.40 3.102149
322.50 3.100829
322.60 3.09951
322.70 3.098192
322.80 3.096623
322.90 3.094848
323.00 3.093075
323.10 3.091304
323.20 3.089534
323.30 3.087766
323.40 3.086
323.50 3.084235
323.60 3.082472
323.70 3.08071
323.80 3.07895
323.90 3.077191
324.00 3.075292
324.10 3.073395
324.20 3.071499
324.30 3.069605
324.40 3.067619
324.50 3.065533
324.60 3.063449
324.70 3.061367
324.80 3.059286
324.90 3.057208
325.00 3.055132
325.10 3.053058
325.20 3.051048
325.30 3.049173
325.40 3.047299
325.50 3.045247
325.60 3.042977
325.70 3.040709
325.80 3.038444
325.90 3.036192
326.00 3.033955
326.10 3.03172
326.20 3.029487
326.30 3.027353
326.40 3.025499
326.50 3.02332
326.60 3.021143
326.70 3.018968
326.80 3.016796
326.90 3.014625
327.00 3.012457
327.10 3.01029
327.20 3.008126
327.30 3.005964
327.40 3.003804
327.50 3.001646
327.60 2.99949
327.70 2.997336
327.80 2.995184
327.90 2.99319
328.00 2.990759
328.10 2.987589
328.20 2.984423
328.30 2.981261
328.40 2.978101
328.50 2.976033
328.60 2.974222
328.70 2.972413
328.80 2.970571
328.90 2.968633
329.00 2.966697
329.10 2.964763
329.20 2.962831
329.30 2.9609
329.40 2.958972
329.50 2.957045
329.60 2.95512
329.70 2.953196
329.80 2.951275
329.90 2.949355
330.00 2.947321
330.10 2.945147
330.20 2.942975
330.30 2.940805
330.40 2.938689
330.50 2.936632
330.60 2.934577
330.70 2.932523
330.80 2.930472
330.90 2.928423
331.00 2.926375
331.10 2.92433
331.20 2.922286
331.30 2.920245
331.40 2.918205
331.50 2.916292
331.60 2.914533
331.70 2.912776
331.80 2.910478
331.90 2.90816
332.00 2.905843
332.10 2.903529
332.20 2.901218
332.30 2.898908
332.40 2.896601
332.50 2.894296
332.60 2.891994
332.70 2.889693
332.80 2.887395
332.90 2.885099
333.00 2.882805
333.10 2.880425
333.20 2.877939
333.30 2.875456
333.40 2.872975
333.50 2.870496
333.60 2.86802
333.70 2.865547
333.80 2.863075
333.90 2.860607
334.00 2.85814
334.10 2.85545
334.20 2.852487
334.30 2.849527
334.40 2.84657
334.50 2.843616
334.60 2.840665
334.70 2.837631
334.80 2.833911
334.90 2.829358
335.00 2.82481
335.10 2.82084
335.20 2.815416
335.30 2.808502
335.40 2.801596
335.50 2.805528
335.60 2.807589
335.70 2.80931
335.80 2.81062
335.90 2.811089
336.00 2.810533
336.10 2.809977
336.20 2.809421
336.30 2.808475
336.40 2.807054
336.50 2.805633
336.60 2.804213
336.70 2.802795
336.80 2.801378
336.90 2.799851
337.00 2.79819
337.10 2.79653
337.20 2.794871
337.30 2.793214
337.40 2.791559
337.50 2.789905
337.60 2.788252
337.70 2.786601
337.80 2.784952
337.90 2.783304
338.00 2.781657
338.10 2.780012
338.20 2.778368
338.30 2.776726
338.40 2.774989
338.50 2.773019
338.60 2.771051
338.70 2.769085
338.80 2.767121
338.90 2.765158
339.00 2.763197
339.10 2.761239
339.20 2.759282
339.30 2.757461
339.40 2.755837
339.50 2.753962
339.60 2.751781
339.70 2.749602
339.80 2.747426
339.90 2.745252
340.00 2.743079
340.10 2.740909
340.20 2.738741
340.30 2.736575
340.40 2.734411
340.50 2.732249
340.60 2.730089
340.70 2.727931
340.80 2.726003
340.90 2.724404
341.00 2.722481
341.10 2.720162
341.20 2.717846
341.30 2.715532
341.40 2.71322
341.50 2.71091
341.60 2.708603
341.70 2.706297
341.80 2.703861
341.90 2.701264
342.00 2.69867
342.10 2.696079
342.20 2.693692
342.30 2.691293
342.40 2.688619
342.50 2.685847
342.60 2.683077
342.70 2.68031
342.80 2.677547
342.90 2.674785
343.00 2.671771
343.10 2.668446
343.20 2.665124
343.30 2.661806
343.40 2.658143
343.50 2.653983
343.60 2.649827
343.70 2.645676
343.80 2.641529
343.90 2.637387
344.00 2.632569
344.10 2.626779
344.20 2.620995
344.30 2.615218
344.40 2.607122
344.50 2.595691
344.60 2.582496
344.70 2.561151
344.80 2.576991
344.90 2.588218
345.00 2.597369
345.10 2.601511
345.20 2.604898
345.30 2.607201
345.40 2.6095
345.50 2.610693
345.60 2.610559
345.70 2.610455
345.80 2.610352
345.90 2.610248
346.00 2.610144
346.10 2.61004
346.20 2.609475
346.30 2.608248
346.40 2.607023
346.50 2.605799
346.60 2.604575
346.70 2.603353
346.80 2.602131
346.90 2.60091
347.00 2.599691
347.10 2.598472
347.20 2.597101
347.30 2.595511
347.40 2.593922
347.50 2.592334
347.60 2.590747
347.70 2.589163
347.80 2.587579
347.90 2.585997
348.00 2.584416
348.10 2.582837
348.20 2.581259
348.30 2.579682
348.40 2.578107
348.50 2.576533
348.60 2.574961
348.70 2.573461
348.80 2.57191
348.90 2.570252
349.00 2.568595
349.10 2.56694
349.20 2.565286
349.30 2.563634
349.40 2.561983
349.50 2.560334
349.60 2.558686
349.70 2.557039
349.80 2.555394
349.90 2.553751
350.00 2.552108
350.10 2.550468
350.20 2.548829
350.30 2.547164
350.40 2.545463
350.50 2.543763
350.60 2.542064
350.70 2.540367
350.80 2.538672
350.90 2.536978
351.00 2.535286
351.10 2.533595
351.20 2.531905
351.30 2.530217
351.40 2.528554
351.50 2.526933
351.60 2.525314
351.70 2.523696
351.80 2.522079
351.90 2.520464
352.00 2.51885
352.10 2.517238
352.20 2.514971
352.30 2.51296
352.40 2.511417
352.50 2.509876
352.60 2.508336
352.70 2.506797
352.80 2.50526
352.90 2.503724
353.00 2.50219
353.10 2.500656
353.20 2.499124
353.30 2.497594
353.40 2.496065
353.50 2.494387
353.60 2.492674
353.70 2.490962
353.80 2.489251
353.90 2.487597
354.00 2.486042
354.10 2.484488
354.20 2.482936
354.30 2.481385
354.40 2.479835
354.50 2.478287
354.60 2.47674
354.70 2.475194
354.80 2.473587
354.90 2.47189
355.00 2.470195
355.10 2.468502
355.20 2.46681
355.30 2.465421
355.40 2.464034
355.50 2.462648
355.60 2.461263
355.70 2.459486
355.80 2.457534
355.90 2.455788
356.00 2.454262
356.10 2.4527
356.20 2.451139
356.30 2.44958
356.40 2.448022
356.50 2.446466
356.60 2.444911
356.70 2.443357
356.80 2.441805
356.90 2.440254
357.00 2.438704
357.10 2.437156
357.20 2.435609
357.30 2.434064
357.40 2.432444
357.50 2.430692
357.60 2.428941
357.70 2.427192
357.80 2.425239
357.90 2.423287
358.00 2.421211
358.10 2.419105
358.20 2.417002
358.30 2.4149
358.40 2.4128
358.50 2.410702
358.60 2.408607
358.70 2.406513
358.80 2.404421
358.90 2.402331
359.00 2.400092
359.10 2.397586
359.20 2.395016
359.30 2.392006
359.40 2.388999
359.50 2.385477
359.60 2.381828
359.70 2.378184
359.80 2.37391
359.90 2.369641
360.00 2.364611
360.10 2.358227
360.20 2.35185
360.30 2.345479
360.40 2.339115
360.50 2.332758
360.60 2.322401
360.70 2.310452
360.80 2.298515
360.90 2.286592
361.00 2.272707
361.10 2.248882
361.20 2.217995
361.30 2.148757
361.40 2.20846
361.50 2.261921
361.60 2.280062
361.70 2.282657
361.80 2.286029
361.90 2.290784
362.00 2.295533
362.10 2.298317
362.20 2.299428
362.30 2.29844
362.40 2.297452
362.50 2.296465
362.60 2.295479
362.70 2.29285
362.80 2.289173
362.90 2.283465
363.00 2.277763
363.10 2.26897
363.20 2.260154
363.30 2.252302
363.40 2.249153
363.50 2.256187
363.60 2.268936
363.70 2.277293
363.80 2.284228
363.90 2.28781
364.00 2.291387
364.10 2.294961
364.20 2.29853
364.30 2.302175
364.40 2.305836
364.50 2.308397
364.60 2.310072
364.70 2.311745
364.80 2.313417
364.90 2.313412
365.00 2.313406
365.10 2.312139
365.20 2.307721
365.30 2.305198
365.40 2.308344
365.50 2.310228
365.60 2.312109
365.70 2.313702
365.80 2.315293
365.90 2.315715
366.00 2.315844
366.10 2.315196
366.20 2.314548
366.30 2.3139
366.40 2.313252
366.50 2.312033
366.60 2.312023
366.70 2.310762
366.80 2.309503
366.90 2.308001
367.00 2.30607
367.10 2.304141
367.20 2.302213
367.30 2.300287
367.40 2.298363
367.50 2.295871
367.60 2.29324
367.70 2.290029
367.80 2.286821
367.90 2.283617
368.00 2.280187
368.10 2.275877
368.20 2.27107
368.30 2.266262
368.40 2.26146
368.50 2.256663
368.60 2.25187
368.70 2.247082
368.80 2.242299
368.90 2.237215
369.00 2.2313
369.10 2.225318
369.20 2.219131
369.30 2.211354
369.40 2.203585
369.50 2.195824
369.60 2.186063
369.70 2.176312
369.80 2.162877
369.90 2.149419
370.00 2.135975
370.10 2.121359
370.20 2.09758
370.30 2.073762
370.40 2.04576
370.50 2.030692
370.60 2.0606
370.70 2.094757
370.80 2.115531
370.90 2.136281
371.00 2.143249
371.10 2.15007
371.20 2.15559
371.30 2.161103
371.40 2.167252
371.50 2.172665
371.60 2.178072
371.70 2.183472
371.80 2.188866
371.90 2.194255
372.00 2.198869
372.10 2.202891
372.20 2.205349
372.30 2.207804
372.40 2.210256
372.50 2.212704
372.60 2.21515
372.70 2.217593
372.80 2.218811
372.90 2.220028
373.00 2.220665
373.10 2.221296
373.20 2.218898
373.30 2.216503
373.40 2.198433
373.50 2.194845
373.60 2.205115
373.70 2.211761
373.80 2.215767
373.90 2.22022
374.00 2.221737
374.10 2.223253
374.20 2.224766
374.30 2.226278
374.40 2.227338
374.50 2.227497
374.60 2.227795
374.70 2.228107
374.80 2.228418
374.90 2.228728
375.00 2.228735
375.10 2.228742
375.20 2.228749
375.30 2.227732
375.40 2.226716
375.50 2.2257
375.60 2.224685
375.70 2.223671
375.80 2.222658
375.90 2.221646
376.00 2.220464
376.10 2.219027
376.20 2.217589
376.30 2.216152
376.40 2.214716
376.50 2.213057
376.60 2.211064
376.70 2.209073
376.80 2.206803
376.90 2.204252
377.00 2.201704
377.10 2.199158
377.20 2.196595
377.30 2.193959
377.40 2.191326
377.50 2.188695
377.60 2.185228
377.70 2.181765
377.80 2.178306
377.90 2.174849
378.00 2.171169
378.10 2.166623
378.20 2.162076
378.30 2.157534
378.40 2.152996
378.50 2.148462
378.60 2.143933
378.70 2.139408
378.80 2.134888
378.90 2.129737
379.00 2.123411
379.10 2.117611
379.20 2.111817
379.30 2.10535
379.40 2.098211
379.50 2.09108
379.60 2.084012
379.70 2.076362
379.80 2.066193
379.90 2.056034
380.00 2.045886
380.10 2.035749
380.20 2.025622
380.30 2.015505
380.40 2.005398
380.50 1.995302
380.60 1.981606
380.70 1.966591
380.80 1.951591
380.90 1.936607
381.00 1.921638
381.10 1.906882
381.20 1.889923
381.30 1.869103
381.40 1.844078
381.50 1.814673
381.60 1.780368
381.70 1.737682
381.80 1.690975
381.90 1.635329
382.00 1.592416
382.10 1.694079
382.20 1.761335
382.30 1.809883
382.40 1.848649
382.50 1.872785
382.60 1.896896
382.70 1.915871
382.80 1.925311
382.90 1.930989
383.00 1.93666
383.10 1.942326
383.20 1.948444
383.30 1.956279
383.40 1.963835
383.50 1.970978
383.60 1.978545
383.70 1.984134
383.80 1.989718
383.90 1.995295
384.00 2.000866
384.10 2.006432
384.20 2.011991
384.30 2.017544
384.40 2.022312
384.50 2.026298
384.60 2.030279
384.70 2.034255
384.80 2.038003
384.90 2.040711
385.00 2.043059
385.10 2.045418
385.20 2.047892
385.30 2.049704
385.40 2.051001
385.50 2.051783
385.60 2.052564
385.70 2.053344
385.80 2.053875
385.90 2.053471
386.00 2.053137
386.10 2.052684
386.20 2.050315
386.30 2.047949
386.40 2.044285
386.50 2.038358
386.60 2.028089
386.70 2.002865
386.80 1.929342
386.90 1.969344
387.00 1.984998
387.10 1.991771
387.20 1.995676
387.30 1.998654
387.40 1.999005
387.50 1.998803
387.60 1.996596
387.70 1.989974
387.80 1.983357
387.90 1.976747
388.00 1.968589
388.10 1.954086
388.20 1.927331
388.30 1.893768
388.40 1.86024
388.50 1.81385
388.60 1.73633
388.70 1.612041
388.80 1.335596
388.90 1.157728
389.00 1.481623
389.10 1.632563
389.20 1.724387
389.30 1.788115
389.40 1.833826
389.50 1.873142
389.60 1.901588
389.70 1.921256
389.80 1.933821
389.90 1.946372
390.00 1.958911
390.10 1.971436
390.20 1.983948
390.30 1.992809
390.40 1.997559
390.50 2.002305
390.60 2.007045
390.70 2.01178
390.80 2.015185
390.90 2.017263
391.00 2.018891
391.10 2.020526
391.20 2.021912
391.30 2.022009
391.40 2.021708
391.50 2.021407
391.60 2.021105
391.70 2.020804
391.80 2.020503
391.90 2.019859
392.00 2.018449
392.10 2.016473
392.20 2.014584
392.30 2.012814
392.40 2.010347
392.50 2.008231
392.60 2.006117
392.70 2.003814
392.80 2.002985
392.90 2.002371
393.00 2.00251
393.10 2.002476
393.20 2.002175
393.30 2.001156
393.40 2.000139
393.50 1.998243
393.60 1.996357
393.70 1.993838
393.80 1.992728
393.90 1.990632
394.00 1.988479
394.10 1.985512
394.20 1.982307
394.30 1.979264
394.40 1.975689
394.50 1.971714
394.60 1.966492
394.70 1.960914
394.80 1.953983
394.90 1.947064
395.00 1.940236
395.10 1.931793
395.20 1.921915
395.30 1.91183
395.40 1.901755
395.50 1.887809
395.60 1.872442
395.70 1.854597
395.80 1.830034
395.90 1.805495
396.00 1.779928
396.10 1.738802
396.20 1.684368
396.30 1.621316
396.40 1.475157
396.50 1.552929
396.60 1.737868
396.70 1.779385
396.80 1.776921
396.90 1.77236
397.00 1.799738
397.10 1.840594
397.20 1.862234
397.30 1.867074
397.40 1.869148
397.50 1.871219
397.60 1.873187
397.70 1.87413
397.80 1.875072
397.90 1.875709
398.00 1.875524
398.10 1.87534
398.20 1.874391
398.30 1.872581
398.40 1.870775
398.50 1.869022
398.60 1.866203
398.70 1.862394
398.80 1.85844
398.90 1.854176
399.00 1.849335
399.10 1.844762
399.20 1.838514
399.30 1.832272
399.40 1.826036
399.50 1.819806
399.60 1.812718
399.70 1.805317
399.80 1.797923
399.90 1.790537
400.00 1.783109
400.10 1.774138
400.20 1.764553
400.30 1.754161
400.40 1.74375
400.50 1.732778
400.60 1.719974
400.70 1.707073
400.80 1.69342
400.90 1.67602
401.00 1.661287
401.10 1.65099
401.20 1.639967
401.30 1.626981
401.40 1.611179
401.50 1.594538
401.60 1.577762
401.70 1.556136
401.80 1.531752
401.90 1.502116
402.00 1.470112
402.10 1.431993
402.20 1.386134
402.30 1.330004
402.40 1.259151
402.50 1.172794
402.60 1.060677
402.70 1.129119
402.80 1.248254
402.90 1.328532
403.00 1.402414
403.10 1.456975
403.20 1.499708
403.30 1.533953
403.40 1.564533
403.50 1.589563
403.60 1.613173
403.70 1.633197
403.80 1.649327
403.90 1.663151
404.00 1.675969
404.10 1.684538
404.20 1.690394
404.30 1.696244
404.40 1.696901
404.50 1.688401
404.60 1.684485
404.70 1.688786
404.80 1.695344
404.90 1.701477
405.00 1.707515
405.10 1.713556
405.20 1.719659
405.30 1.725757
405.40 1.731214
405.50 1.736666
405.60 1.742113
405.70 1.747554
405.80 1.752989
405.90 1.758419
406.00 1.762684
406.10 1.766944
406.20 1.7712
406.30 1.775452
406.40 1.779648
406.50 1.78275
406.60 1.785932
406.70 1.788929
406.80 1.791622
406.90 1.794556
407.00 1.796516
407.10 1.798474
407.20 1.800431
407.30 1.802385
407.40 1.804336
407.50 1.806286
407.60 1.808234
407.70 1.810179
407.80 1.812122
407.90 1.814028
408.00 1.814795
408.10 1.815735
408.20 1.816665
408.30 1.817417
408.40 1.818169
408.50 1.81873
408.60 1.819234
408.70 1.819737
408.80 1.820086
408.90 1.819381
409.00 1.819263
409.10 1.819146
409.20 1.819027
409.30 1.818909
409.40 1.818779
409.50 1.818245
409.60 1.817711
409.70 1.817107
409.80 1.81622
409.90 1.815334
410.00 1.814449
410.10 1.813564
410.20 1.812055
410.30 1.810392
410.40 1.808681
410.50 1.806815
410.60 1.804951
410.70 1.8028
410.80 1.799503
410.90 1.796208
411.00 1.792211
411.10 1.787957
411.20 1.783707
411.30 1.779117
411.40 1.773079
411.50 1.764498
411.60 1.755925
411.70 1.745431
411.80 1.727232
411.90 1.706572
412.00 1.658197
412.10 1.468782
412.20 1.538826
412.30 1.585541
412.40 1.614102
412.50 1.633852
412.60 1.649992
412.70 1.662103
412.80 1.6732
412.90 1.68371
413.00 1.688293
413.10 1.690213
413.20 1.692131
413.30 1.694046
413.40 1.69596
413.50 1.697325
413.60 1.696032
413.70 1.693248
413.80 1.690465
413.90 1.687686
414.00 1.684202
414.10 1.678486
414.20 1.671599
414.30 1.655021
414.40 1.640417
414.50 1.647439
414.60 1.659846
414.70 1.670778
414.80 1.680526
414.90 1.686554
415.00 1.692575
415.10 1.69859
415.20 1.704055
415.30 1.70779
415.40 1.711521
415.50 1.715227
415.60 1.71824
415.70 1.721249
415.80 1.724104
415.90 1.726472
416.00 1.728838
416.10 1.730982
416.20 1.732246
416.30 1.733507
416.40 1.734768
416.50 1.736008
416.60 1.736628
416.70 1.737203
416.80 1.735803
416.90 1.728475
417.00 1.728557
417.10 1.732993
417.20 1.735061
417.30 1.7371
417.40 1.738314
417.50 1.739527
417.60 1.740659
417.70 1.741462
417.80 1.741913
417.90 1.742363
418.00 1.742812
418.10 1.743261
418.20 1.74371
418.30 1.744155
418.40 1.744421
418.50 1.744317
418.60 1.744213
418.70 1.744109
418.80 1.744005
418.90 1.7439
419.00 1.743796
419.10 1.743692
419.20 1.743587
419.30 1.743471
419.40 1.742977
419.50 1.742484
419.60 1.741988
419.70 1.74148
419.80 1.740973
419.90 1.740434
420.00 1.739792
420.10 1.73915
420.20 1.738509
420.30 1.737868
420.40 1.737228
420.50 1.736588
420.60 1.735949
420.70 1.735309
420.80 1.734671
420.90 1.734027
421.00 1.733203
421.10 1.73238
421.20 1.731558
421.30 1.730736
421.40 1.729915
421.50 1.729094
421.60 1.728274
421.70 1.727454
421.80 1.726635
421.90 1.725817
422.00 1.724999
422.10 1.724122
422.20 1.723008
422.30 1.721895
422.40 1.720785
422.50 1.71978
422.60 1.718776
422.70 1.717773
422.80 1.71677
422.90 1.715768
423.00 1.714767
423.10 1.713767
423.20 1.712768
423.30 1.711769
423.40 1.710771
423.50 1.709773
423.60 1.708777
423.70 1.707781
423.80 1.706786
423.90 1.705792
424.00 1.704798
424.10 1.703805
424.20 1.702813
424.30 1.701822
424.40 1.700868
424.50 1.699784
424.60 1.698701
424.70 1.697618
424.80 1.696537
424.90 1.695456
425.00 1.694376
