# Version 2.1 - nm, norm@500 to 1, cut digits, bergeron_He_7500_80.dat_7500
# Wavelength(nm)  Flambda(ergs/cm^s/s/nm)
300.00 1.136654
300.10 1.137051
300.20 1.137447
300.30 1.137841
300.40 1.138232
300.50 1.138622
300.60 1.139011
300.70 1.139399
300.80 1.139787
300.90 1.140174
301.00 1.14056
301.10 1.140945
301.20 1.141329
301.30 1.141713
301.40 1.142096
301.50 1.142478
301.60 1.14286
301.70 1.143241
301.80 1.14362
301.90 1.144
302.00 1.144378
302.10 1.144766
302.20 1.145153
302.30 1.14554
302.40 1.145927
302.50 1.146312
302.60 1.146697
302.70 1.147081
302.80 1.147464
302.90 1.147847
303.00 1.148228
303.10 1.148609
303.20 1.148989
303.30 1.149368
303.40 1.149739
303.50 1.150108
303.60 1.150477
303.70 1.150846
303.80 1.151213
303.90 1.15158
304.00 1.151946
304.10 1.152311
304.20 1.152676
304.30 1.15304
304.40 1.153403
304.50 1.153766
304.60 1.154129
304.70 1.154492
304.80 1.154854
304.90 1.155216
305.00 1.155576
305.10 1.155936
305.20 1.156296
305.30 1.156654
305.40 1.157012
305.50 1.157369
305.60 1.157726
305.70 1.158082
305.80 1.158437
305.90 1.158791
306.00 1.159145
306.10 1.159497
306.20 1.15985
306.30 1.160201
306.40 1.160551
306.50 1.160901
306.60 1.16125
306.70 1.161598
306.80 1.161945
306.90 1.162292
307.00 1.162638
307.10 1.162983
307.20 1.163327
307.30 1.163671
307.40 1.164014
307.50 1.164357
307.60 1.164699
307.70 1.16504
307.80 1.16538
307.90 1.16572
308.00 1.166059
308.10 1.166397
308.20 1.166735
308.30 1.167072
308.40 1.167408
308.50 1.167744
308.60 1.168079
308.70 1.168413
308.80 1.168743
308.90 1.169065
309.00 1.169394
309.10 1.169722
309.20 1.17005
309.30 1.170377
309.40 1.170703
309.50 1.17102
309.60 1.171336
309.70 1.171652
309.80 1.171967
309.90 1.172281
310.00 1.172595
310.10 1.172908
310.20 1.173221
310.30 1.173533
310.40 1.173842
310.50 1.174149
310.60 1.174455
310.70 1.17476
310.80 1.175065
310.90 1.175369
311.00 1.175688
311.10 1.176006
311.20 1.176323
311.30 1.176638
311.40 1.176948
311.50 1.177257
311.60 1.177565
311.70 1.177872
311.80 1.178179
311.90 1.178486
312.00 1.178791
312.10 1.179096
312.20 1.17941
312.30 1.179729
312.40 1.18004
312.50 1.180383
312.60 1.180697
312.70 1.181011
312.80 1.181323
312.90 1.181625
313.00 1.181915
313.10 1.182204
313.20 1.182492
313.30 1.182782
313.40 1.183077
313.50 1.183372
313.60 1.183666
313.70 1.183959
313.80 1.184252
313.90 1.184544
314.00 1.184835
314.10 1.185117
314.20 1.185399
314.30 1.185681
314.40 1.185961
314.50 1.186242
314.60 1.186521
314.70 1.1868
314.80 1.187101
314.90 1.187445
315.00 1.18777
315.10 1.188055
315.20 1.18834
315.30 1.188624
315.40 1.188907
315.50 1.18919
315.60 1.189473
315.70 1.18973
315.80 1.189987
315.90 1.190244
316.00 1.1905
316.10 1.190827
316.20 1.191154
316.30 1.191336
316.40 1.191662
316.50 1.191915
316.60 1.192167
316.70 1.192419
316.80 1.192671
316.90 1.192957
317.00 1.193243
317.10 1.193529
317.20 1.193814
317.30 1.194047
317.40 1.194295
317.50 1.194582
317.60 1.194868
317.70 1.195154
317.80 1.195439
317.90 1.195718
318.00 1.195913
318.10 1.196192
318.20 1.196471
318.30 1.19675
318.40 1.197018
318.50 1.19726
318.60 1.19752
318.70 1.19769
318.80 1.198008
318.90 1.198311
319.00 1.19848
319.10 1.198789
319.20 1.199084
319.30 1.199342
319.40 1.199599
319.50 1.199856
319.60 1.200031
319.70 1.200286
319.80 1.200541
319.90 1.200796
320.00 1.20104
320.10 1.201273
320.20 1.201566
320.30 1.201841
320.40 1.202059
320.50 1.202304
320.60 1.202571
320.70 1.202801
320.80 1.20303
320.90 1.203259
321.00 1.203487
321.10 1.203715
321.20 1.20401
321.30 1.20425
321.40 1.204489
321.50 1.204728
321.60 1.204966
321.70 1.205204
321.80 1.205419
321.90 1.205609
322.00 1.205927
322.10 1.206162
322.20 1.206397
322.30 1.206631
322.40 1.206864
322.50 1.207097
322.60 1.207329
322.70 1.207561
322.80 1.207716
322.90 1.207949
323.00 1.208181
323.10 1.208413
323.20 1.208645
323.30 1.208876
323.40 1.209106
323.50 1.209336
323.60 1.209566
323.70 1.209794
323.80 1.210023
323.90 1.210251
324.00 1.210457
324.10 1.210663
324.20 1.210868
324.30 1.2111
324.40 1.211359
324.50 1.211567
324.60 1.211775
324.70 1.211983
324.80 1.21219
324.90 1.212396
325.00 1.212602
325.10 1.212808
325.20 1.213027
325.30 1.213277
325.40 1.213526
325.50 1.213743
325.60 1.213922
325.70 1.214099
325.80 1.214276
325.90 1.214473
326.00 1.214691
326.10 1.214909
326.20 1.215126
326.30 1.215343
326.40 1.215564
326.50 1.215768
326.60 1.215972
326.70 1.216175
326.80 1.216378
326.90 1.21658
327.00 1.216782
327.10 1.216983
327.20 1.217184
327.30 1.217384
327.40 1.217584
327.50 1.217783
327.60 1.217982
327.70 1.218181
327.80 1.218379
327.90 1.218561
328.00 1.218747
328.10 1.218955
328.20 1.219163
328.30 1.21937
328.40 1.219577
328.50 1.219745
328.60 1.219905
328.70 1.220063
328.80 1.220231
328.90 1.220424
329.00 1.220617
329.10 1.220809
329.20 1.221001
329.30 1.221193
329.40 1.221384
329.50 1.221574
329.60 1.221765
329.70 1.221954
329.80 1.222144
329.90 1.222332
330.00 1.222522
330.10 1.222713
330.20 1.222904
330.30 1.223094
330.40 1.223274
330.50 1.223442
330.60 1.223609
330.70 1.223776
330.80 1.223943
330.90 1.224109
331.00 1.224275
331.10 1.22444
331.20 1.224605
331.30 1.22477
331.40 1.224934
331.50 1.225118
331.60 1.225325
331.70 1.225532
331.80 1.225705
331.90 1.225876
332.00 1.226046
332.10 1.226216
332.20 1.226386
332.30 1.226555
332.40 1.226723
332.50 1.226891
332.60 1.227059
332.70 1.227227
332.80 1.227394
332.90 1.22756
333.00 1.227726
333.10 1.227888
333.20 1.228046
333.30 1.228204
333.40 1.228361
333.50 1.228517
333.60 1.228673
333.70 1.228829
333.80 1.228984
333.90 1.229139
334.00 1.229294
334.10 1.229444
334.20 1.229589
334.30 1.229734
334.40 1.229878
334.50 1.230022
334.60 1.230165
334.70 1.230303
334.80 1.23044
334.90 1.230587
335.00 1.230733
335.10 1.230972
335.20 1.231135
335.30 1.231198
335.40 1.231423
335.50 1.231521
335.60 1.231666
335.70 1.231813
335.80 1.231973
335.90 1.232119
336.00 1.232246
336.10 1.232373
336.20 1.2325
336.30 1.23264
336.40 1.232798
336.50 1.232955
336.60 1.233112
336.70 1.233269
336.80 1.233425
336.90 1.233563
337.00 1.233678
337.10 1.233793
337.20 1.233907
337.30 1.234031
337.40 1.23417
337.50 1.234308
337.60 1.234446
337.70 1.234583
337.80 1.23472
337.90 1.234851
338.00 1.234975
338.10 1.235099
338.20 1.235223
338.30 1.235346
338.40 1.235471
338.50 1.235605
338.60 1.235737
338.70 1.23587
338.80 1.236002
338.90 1.236134
339.00 1.236265
339.10 1.236396
339.20 1.236526
339.30 1.236645
339.40 1.236745
339.50 1.236856
339.60 1.236979
339.70 1.237102
339.80 1.237225
339.90 1.237348
340.00 1.23747
340.10 1.237592
340.20 1.237713
340.30 1.237834
340.40 1.237955
340.50 1.238076
340.60 1.238196
340.70 1.238315
340.80 1.238373
340.90 1.238342
341.00 1.238416
341.10 1.238618
341.20 1.238819
341.30 1.23902
341.40 1.239221
341.50 1.239421
341.60 1.23962
341.70 1.23982
341.80 1.239994
341.90 1.240138
342.00 1.240282
342.10 1.240425
342.20 1.240394
342.30 1.240377
342.40 1.240512
342.50 1.240611
342.60 1.24071
342.70 1.240809
342.80 1.240907
342.90 1.241005
343.00 1.241006
343.10 1.240888
343.20 1.24077
343.30 1.240652
343.40 1.240703
343.50 1.240997
343.60 1.241291
343.70 1.241584
343.80 1.241877
343.90 1.242169
344.00 1.242295
344.10 1.242181
344.20 1.242067
344.30 1.241952
344.40 1.242087
344.50 1.242579
344.60 1.242573
344.70 1.242488
344.80 1.242343
344.90 1.242833
345.00 1.242608
345.10 1.243097
345.20 1.243424
345.30 1.24352
345.40 1.243615
345.50 1.243344
345.60 1.242954
345.70 1.243038
345.80 1.243121
345.90 1.243205
346.00 1.243288
346.10 1.243371
346.20 1.24347
346.30 1.243592
346.40 1.243714
346.50 1.243836
346.60 1.243957
346.70 1.244078
346.80 1.244198
346.90 1.244318
347.00 1.244438
347.10 1.244557
347.20 1.244668
347.30 1.244766
347.40 1.244864
347.50 1.244961
347.60 1.245058
347.70 1.245155
347.80 1.245251
347.90 1.245347
348.00 1.245443
348.10 1.245539
348.20 1.245634
348.30 1.245729
348.40 1.245823
348.50 1.245917
348.60 1.246011
348.70 1.246157
348.80 1.246251
348.90 1.246246
349.00 1.246241
349.10 1.246236
349.20 1.246231
349.30 1.246225
349.40 1.246219
349.50 1.246214
349.60 1.246207
349.70 1.246201
349.80 1.246195
349.90 1.246188
350.00 1.246181
350.10 1.246174
350.20 1.246167
350.30 1.246219
350.40 1.246356
350.50 1.246494
350.60 1.24663
350.70 1.246767
350.80 1.246903
350.90 1.247039
351.00 1.247175
351.10 1.24731
351.20 1.247444
351.30 1.247579
351.40 1.24769
351.50 1.247761
351.60 1.247832
351.70 1.247903
351.80 1.247973
351.90 1.248043
352.00 1.248113
352.10 1.248182
352.20 1.248252
352.30 1.24829
352.40 1.24828
352.50 1.248271
352.60 1.248261
352.70 1.248251
352.80 1.248241
352.90 1.24823
353.00 1.24822
353.10 1.248209
353.20 1.248198
353.30 1.248187
353.40 1.248175
353.50 1.248231
353.60 1.248303
353.70 1.248375
353.80 1.248446
353.90 1.248515
354.00 1.24858
354.10 1.248645
354.20 1.248709
354.30 1.248773
354.40 1.248837
354.50 1.2489
354.60 1.248963
354.70 1.249026
354.80 1.249094
354.90 1.249167
355.00 1.249241
355.10 1.249314
355.20 1.249387
355.30 1.249477
355.40 1.249567
355.50 1.249657
355.60 1.249747
355.70 1.249627
355.80 1.249413
355.90 1.249023
356.00 1.24895
356.10 1.249035
356.20 1.24912
356.30 1.249204
356.40 1.249288
356.50 1.249372
356.60 1.249455
356.70 1.249538
356.80 1.249621
356.90 1.249703
357.00 1.249785
357.10 1.249867
357.20 1.249949
357.30 1.25003
357.40 1.250072
357.50 1.250043
357.60 1.250014
357.70 1.249985
357.80 1.249798
357.90 1.24961
358.00 1.249617
358.10 1.249672
358.20 1.249726
358.30 1.249781
358.40 1.249835
358.50 1.249888
358.60 1.249942
358.70 1.249995
358.80 1.250049
358.90 1.250101
359.00 1.250065
359.10 1.249869
359.20 1.249733
359.30 1.249995
359.40 1.250256
359.50 1.250388
359.60 1.250488
359.70 1.250587
359.80 1.250314
359.90 1.25004
360.00 1.249913
360.10 1.250045
360.20 1.250178
360.30 1.25031
360.40 1.250442
360.50 1.250573
360.60 1.250187
360.70 1.250324
360.80 1.25046
360.90 1.250596
361.00 1.250434
361.10 1.250355
361.20 1.250153
361.30 1.250564
361.40 1.249872
361.50 1.250282
361.60 1.249987
361.70 1.250396
361.80 1.250563
361.90 1.250302
362.00 1.25004
362.10 1.250045
362.20 1.250103
362.30 1.250134
362.40 1.250166
362.50 1.250197
362.60 1.250228
362.70 1.25029
362.80 1.250087
362.90 1.249942
363.00 1.249797
363.10 1.250101
363.20 1.25041
363.30 1.249921
363.40 1.250323
363.50 1.250725
363.60 1.250037
363.70 1.249954
363.80 1.24975
363.90 1.24984
364.00 1.24993
364.10 1.250019
364.20 1.250108
364.30 1.250058
364.40 1.249975
364.50 1.25038
364.60 1.250413
364.70 1.250447
364.80 1.25048
364.90 1.250335
365.00 1.250191
365.10 1.250046
365.20 1.249901
365.30 1.250296
365.40 1.249611
365.50 1.250005
365.60 1.250399
365.70 1.250204
365.80 1.25001
365.90 1.249902
366.00 1.249816
366.10 1.249925
366.20 1.250034
366.30 1.250142
366.40 1.25025
366.50 1.249624
366.60 1.250013
366.70 1.250142
366.80 1.250271
366.90 1.250316
367.00 1.250212
367.10 1.250107
367.20 1.250002
367.30 1.249897
367.40 1.249793
367.50 1.249701
367.60 1.249613
367.70 1.249494
367.80 1.249375
367.90 1.249255
368.00 1.249556
368.10 1.249408
368.20 1.249418
368.30 1.249435
368.40 1.249452
368.50 1.249469
368.60 1.249485
368.70 1.249502
368.80 1.249518
368.90 1.249284
369.00 1.249074
369.10 1.248981
369.20 1.249367
369.30 1.249394
369.40 1.249421
369.50 1.249448
369.60 1.249296
369.70 1.249144
369.80 1.249037
369.90 1.248931
370.00 1.248824
370.10 1.248553
370.20 1.248918
370.30 1.249294
370.40 1.24863
370.50 1.249004
370.60 1.248828
370.70 1.248705
370.80 1.248552
370.90 1.2484
371.00 1.248252
371.10 1.248105
371.20 1.248472
371.30 1.248839
371.40 1.248386
371.50 1.248297
371.60 1.248208
371.70 1.248118
371.80 1.248029
371.90 1.247939
372.00 1.248612
372.10 1.248683
372.20 1.248532
372.30 1.248381
372.40 1.248229
372.50 1.248078
372.60 1.247927
372.70 1.247775
372.80 1.247621
372.90 1.247467
373.00 1.247833
373.10 1.248204
373.20 1.248051
373.30 1.247899
373.40 1.247747
373.50 1.247595
373.60 1.247443
373.70 1.247291
373.80 1.247654
373.90 1.246987
374.00 1.247092
374.10 1.247197
374.20 1.247301
374.30 1.247406
374.40 1.247381
374.50 1.2471
374.60 1.246943
374.70 1.246792
374.80 1.24664
374.90 1.246489
375.00 1.246506
375.10 1.246524
375.20 1.246541
375.30 1.246461
375.40 1.246381
375.50 1.246301
375.60 1.24622
375.70 1.24614
375.80 1.246059
375.90 1.245978
376.00 1.246324
376.10 1.24633
376.20 1.246332
376.30 1.246334
376.40 1.246336
376.50 1.246212
376.60 1.245901
376.70 1.245589
376.80 1.245457
376.90 1.245505
377.00 1.245553
377.10 1.2456
377.20 1.245631
377.30 1.245601
377.40 1.245571
377.50 1.24554
377.60 1.24532
377.70 1.245099
377.80 1.244879
377.90 1.244658
378.00 1.245245
378.10 1.245188
378.20 1.245112
378.30 1.245036
378.40 1.24496
378.50 1.244884
378.60 1.244807
378.70 1.244731
378.80 1.244654
378.90 1.244635
379.00 1.24472
379.10 1.244464
379.20 1.244209
379.30 1.244076
379.40 1.244065
379.50 1.244054
379.60 1.244122
379.70 1.244231
379.80 1.244062
379.90 1.243892
380.00 1.243723
380.10 1.243553
380.20 1.243384
380.30 1.243214
380.40 1.243045
380.50 1.242876
380.60 1.243402
380.70 1.2432
380.80 1.242999
380.90 1.242797
381.00 1.242595
381.10 1.242563
381.20 1.242723
381.30 1.242621
381.40 1.242147
381.50 1.242003
381.60 1.241989
381.70 1.24225
381.80 1.242331
381.90 1.242174
382.00 1.242017
382.10 1.24186
382.20 1.2419
382.30 1.241743
382.40 1.241658
382.50 1.24168
382.60 1.241703
382.70 1.241409
382.80 1.241104
382.90 1.241143
383.00 1.241181
383.10 1.241219
383.20 1.241227
383.30 1.241121
383.40 1.241078
383.50 1.24113
383.60 1.240529
383.70 1.240398
383.80 1.240267
383.90 1.240135
384.00 1.240004
384.10 1.239873
384.20 1.239741
384.30 1.23961
384.40 1.239562
384.50 1.239599
384.60 1.239635
384.70 1.23967
384.80 1.239563
384.90 1.239211
385.00 1.239401
385.10 1.239574
385.20 1.239162
385.30 1.239011
385.40 1.238953
385.50 1.238988
385.60 1.239022
385.70 1.239057
385.80 1.239067
385.90 1.238991
386.00 1.238631
386.10 1.238057
386.20 1.238161
386.30 1.238265
386.40 1.237997
386.50 1.237753
386.60 1.237679
386.70 1.238002
386.80 1.237602
386.90 1.237684
387.00 1.237549
387.10 1.237366
387.20 1.237423
387.30 1.237048
387.40 1.237369
387.50 1.237156
387.60 1.237151
387.70 1.236992
387.80 1.236832
387.90 1.236673
388.00 1.236413
388.10 1.236732
388.20 1.236398
388.30 1.236368
388.40 1.236337
388.50 1.236094
388.60 1.235729
388.70 1.235775
388.80 1.235497
388.90 1.235456
389.00 1.235773
389.10 1.235529
389.20 1.235453
389.30 1.234989
389.40 1.234842
389.50 1.234819
389.60 1.234814
389.70 1.234407
389.80 1.234418
389.90 1.234429
390.00 1.23444
390.10 1.23445
390.20 1.234461
390.30 1.234348
390.40 1.234096
390.50 1.233844
390.60 1.233592
390.70 1.23334
390.80 1.233165
390.90 1.233066
391.00 1.233644
391.10 1.23347
391.20 1.2332
391.30 1.232791
391.40 1.232631
391.50 1.232471
391.60 1.232311
391.70 1.232151
391.80 1.231991
391.90 1.232022
392.00 1.232081
392.10 1.231858
392.20 1.231742
392.30 1.231907
392.40 1.231329
392.50 1.231586
392.60 1.231589
392.70 1.231265
392.80 1.231268
392.90 1.231118
393.00 1.230988
393.10 1.230941
393.20 1.230971
393.30 1.230811
393.40 1.230608
393.50 1.229983
393.60 1.230287
393.70 1.230335
393.80 1.230008
393.90 1.229847
394.00 1.229645
394.10 1.229242
394.20 1.229089
394.30 1.229103
394.40 1.229079
394.50 1.229305
394.60 1.229198
394.70 1.229072
394.80 1.228874
394.90 1.228662
395.00 1.228174
395.10 1.228341
395.20 1.228199
395.30 1.228178
395.40 1.228157
395.50 1.227971
395.60 1.227724
395.70 1.227533
395.80 1.22749
395.90 1.227448
396.00 1.227353
396.10 1.226858
396.20 1.226697
396.30 1.227031
396.40 1.22671
396.50 1.226858
396.60 1.226388
396.70 1.226685
396.80 1.226438
396.90 1.226363
397.00 1.225745
397.10 1.225888
397.20 1.225627
397.30 1.225796
397.40 1.225466
397.50 1.225136
397.60 1.224838
397.70 1.224868
397.80 1.224897
397.90 1.22484
398.00 1.224549
398.10 1.224259
398.20 1.224165
398.30 1.224295
398.40 1.224401
398.50 1.223787
398.60 1.223884
398.70 1.223761
398.80 1.223516
398.90 1.223378
399.00 1.223434
399.10 1.222877
399.20 1.222886
399.30 1.222895
399.40 1.222904
399.50 1.222912
399.60 1.222748
399.70 1.222519
399.80 1.222291
399.90 1.222063
400.00 1.221844
400.10 1.221925
400.20 1.221501
400.30 1.221459
400.40 1.221559
400.50 1.221467
400.60 1.221185
400.70 1.221023
400.80 1.220535
400.90 1.220822
401.00 1.220267
401.10 1.2205
401.20 1.220593
401.30 1.220177
401.40 1.219811
401.50 1.219534
401.60 1.219268
401.70 1.219347
401.80 1.219626
401.90 1.219211
402.00 1.219495
402.10 1.218888
402.20 1.219172
402.30 1.218566
402.40 1.218567
402.50 1.218244
402.60 1.218527
402.70 1.217922
402.80 1.218205
402.90 1.217955
403.00 1.217794
403.10 1.217278
403.20 1.21756
403.30 1.216956
403.40 1.217047
403.50 1.217048
403.60 1.216915
403.70 1.216312
403.80 1.216608
403.90 1.216507
404.00 1.21627
404.10 1.215669
404.20 1.215508
404.30 1.215347
404.40 1.215626
404.50 1.215465
404.60 1.215304
404.70 1.214703
404.80 1.214982
404.90 1.214382
405.00 1.21466
405.10 1.214561
405.20 1.214588
405.30 1.214615
405.40 1.214454
405.50 1.214293
405.60 1.214132
405.70 1.21397
405.80 1.213809
405.90 1.213648
406.00 1.213402
406.10 1.213155
406.20 1.212909
406.30 1.212663
406.40 1.212407
406.50 1.21203
406.60 1.212085
406.70 1.211761
406.80 1.211505
406.90 1.21205
407.00 1.211889
407.10 1.211728
407.20 1.211567
407.30 1.211406
407.40 1.211246
407.50 1.211085
407.60 1.210924
407.70 1.210763
407.80 1.210602
407.90 1.210442
408.00 1.210321
408.10 1.210106
408.20 1.209738
408.30 1.209427
408.40 1.209116
408.50 1.209463
408.60 1.209169
408.70 1.208876
408.80 1.208659
408.90 1.208899
409.00 1.208638
409.10 1.208378
409.20 1.208117
409.30 1.207857
409.40 1.207605
409.50 1.207622
409.60 1.207639
409.70 1.207613
409.80 1.207419
409.90 1.207213
410.00 1.206624
410.10 1.206749
410.20 1.20657
410.30 1.206316
410.40 1.20605
410.50 1.205743
410.60 1.205437
410.70 1.205213
410.80 1.205317
410.90 1.205421
411.00 1.205197
411.10 1.204852
411.20 1.204507
411.30 1.20426
411.40 1.204388
411.50 1.204103
411.60 1.203819
411.70 1.203559
411.80 1.203399
411.90 1.203578
412.00 1.203418
412.10 1.20347
412.20 1.203098
412.30 1.202659
412.40 1.202778
412.50 1.202316
412.60 1.202337
412.70 1.202138
412.80 1.201884
412.90 1.201587
413.00 1.201898
413.10 1.201651
413.20 1.201404
413.30 1.201157
413.40 1.20091
413.50 1.200772
413.60 1.200959
413.70 1.200799
413.80 1.200639
413.90 1.200479
414.00 1.200218
414.10 1.199639
414.20 1.199563
414.30 1.199319
414.40 1.199411
414.50 1.199
414.60 1.198522
414.70 1.198363
414.80 1.198203
414.90 1.198044
415.00 1.197885
415.10 1.197725
415.20 1.197591
415.30 1.197534
415.40 1.197477
415.50 1.197414
415.60 1.197136
415.70 1.196859
415.80 1.196642
415.90 1.196614
416.00 1.196586
416.10 1.196528
416.20 1.196352
416.30 1.196176
416.40 1.195999
416.50 1.195824
416.60 1.195664
416.70 1.195493
416.80 1.194919
416.90 1.194791
417.00 1.194601
417.10 1.194041
417.20 1.193882
417.30 1.193728
417.40 1.19374
417.50 1.193752
417.60 1.193647
417.70 1.193088
417.80 1.192929
417.90 1.192771
418.00 1.192612
418.10 1.192453
418.20 1.192295
418.30 1.192124
418.40 1.191661
418.50 1.191538
418.60 1.191415
418.70 1.191291
418.80 1.191168
418.90 1.191045
419.00 1.190921
419.10 1.190798
419.20 1.190675
419.30 1.190547
419.40 1.190268
419.50 1.18999
419.60 1.189709
419.70 1.189418
419.80 1.189128
419.90 1.188867
420.00 1.188701
420.10 1.188534
420.20 1.188368
420.30 1.188202
420.40 1.188035
420.50 1.187869
420.60 1.187703
420.70 1.187536
420.80 1.18737
420.90 1.187201
421.00 1.186929
421.10 1.186657
421.20 1.186429
421.30 1.186328
421.40 1.186228
421.50 1.186128
421.60 1.186027
421.70 1.185927
421.80 1.185826
421.90 1.18571
422.00 1.185544
422.10 1.18535
422.20 1.185044
422.30 1.184737
422.40 1.184434
422.50 1.18424
422.60 1.184046
422.70 1.183853
422.80 1.183659
422.90 1.183465
423.00 1.183272
423.10 1.183078
423.20 1.182885
423.30 1.182691
423.40 1.182498
423.50 1.182304
423.60 1.182111
423.70 1.181918
423.80 1.181725
423.90 1.181532
424.00 1.181338
424.10 1.181145
424.20 1.180952
424.30 1.180759
424.40 1.180491
424.50 1.180339
424.60 1.180186
424.70 1.180034
424.80 1.179881
424.90 1.179728
425.00 1.179576
