# Version 2.1 - nm, norm@500 to 1, cut digits, bergeron_He_5250_80.dat_5250
# Wavelength(nm)  Flambda(ergs/cm^s/s/nm)
300.00 0.2196259
300.10 0.2200731
300.20 0.2205227
300.30 0.2209706
300.40 0.2214115
300.50 0.2218517
300.60 0.2222913
300.70 0.2227302
300.80 0.2231685
300.90 0.2236062
301.00 0.2240433
301.10 0.2244797
301.20 0.2249155
301.30 0.2253507
301.40 0.2257852
301.50 0.2262191
301.60 0.2266524
301.70 0.2270851
301.80 0.2275171
301.90 0.2279485
302.00 0.2283793
302.10 0.2288214
302.20 0.229264
302.30 0.2297061
302.40 0.2301475
302.50 0.2305883
302.60 0.2310285
302.70 0.231468
302.80 0.2319069
302.90 0.2323451
303.00 0.2327828
303.10 0.2332198
303.20 0.2336561
303.30 0.2340929
303.40 0.2345381
303.50 0.2349826
303.60 0.2354265
303.70 0.2358698
303.80 0.2363124
303.90 0.2367544
304.00 0.2371958
304.10 0.2376365
304.20 0.2380767
304.30 0.2385161
304.40 0.238955
304.50 0.2393932
304.60 0.2398491
304.70 0.2403064
304.80 0.240763
304.90 0.2412189
305.00 0.2416743
305.10 0.2421289
305.20 0.2425829
305.30 0.2430363
305.40 0.243489
305.50 0.2439411
305.60 0.2443925
305.70 0.2448433
305.80 0.2452935
305.90 0.245743
306.00 0.2461919
306.10 0.2466401
306.20 0.2470877
306.30 0.2475347
306.40 0.2479943
306.50 0.2484573
306.60 0.2489196
306.70 0.2493813
306.80 0.2498423
306.90 0.2503027
307.00 0.2507624
307.10 0.2512214
307.20 0.2516798
307.30 0.2521376
307.40 0.2525947
307.50 0.2530512
307.60 0.253507
307.70 0.2539621
307.80 0.2544166
307.90 0.2548705
308.00 0.2553238
308.10 0.2557764
308.20 0.2562283
308.30 0.2566796
308.40 0.2571303
308.50 0.2575803
308.60 0.2580297
308.70 0.2584785
308.80 0.2589353
308.90 0.259416
309.00 0.2598742
309.10 0.2603318
309.20 0.2607888
309.30 0.2612451
309.40 0.2617024
309.50 0.262169
309.60 0.2626349
309.70 0.2631001
309.80 0.2635647
309.90 0.2640286
310.00 0.2644919
310.10 0.2649545
310.20 0.2654165
310.30 0.2658778
310.40 0.266338
310.50 0.2667969
310.60 0.2672551
310.70 0.2677127
310.80 0.2681697
310.90 0.268626
311.00 0.2690997
311.10 0.2695728
311.20 0.2700453
311.30 0.2705171
311.40 0.2709887
311.50 0.2714596
311.60 0.2719299
311.70 0.2723995
311.80 0.2728684
311.90 0.2733367
312.00 0.2738044
312.10 0.2742713
312.20 0.2747547
312.30 0.2752407
312.40 0.27571
312.50 0.2761703
312.60 0.2766369
312.70 0.2771029
312.80 0.2775683
312.90 0.2780376
313.00 0.2785114
313.10 0.2789844
313.20 0.2794568
313.30 0.2799302
313.40 0.2804075
313.50 0.2808841
313.60 0.2813601
313.70 0.2818354
313.80 0.28231
313.90 0.282784
314.00 0.2832573
314.10 0.2837359
314.20 0.2842138
314.30 0.284691
314.40 0.2851676
314.50 0.2856435
314.60 0.2861187
314.70 0.2865933
314.80 0.2870635
314.90 0.2875392
315.00 0.2880322
315.10 0.2885156
315.20 0.2889983
315.30 0.2894803
315.40 0.2899617
315.50 0.2904423
315.60 0.2909224
315.70 0.2913958
315.80 0.2918685
315.90 0.2923407
316.00 0.2928121
316.10 0.2933006
316.20 0.2937885
316.30 0.2942757
316.40 0.2947622
316.50 0.295248
316.60 0.2957332
316.70 0.2962176
316.80 0.2967015
316.90 0.2971846
317.00 0.2976671
317.10 0.2981489
317.20 0.29863
317.30 0.2991295
317.40 0.2996214
317.50 0.3000927
317.60 0.3005635
317.70 0.3010335
317.80 0.3015029
317.90 0.3020053
318.00 0.3024928
318.10 0.3029854
318.20 0.3034774
318.30 0.3039688
318.40 0.3044548
318.50 0.3049273
318.60 0.3054083
318.70 0.3059143
318.80 0.3063779
318.90 0.3068547
319.00 0.3073588
319.10 0.3078621
319.20 0.3083609
319.30 0.3088482
319.40 0.3093348
319.50 0.3098207
319.60 0.3102953
319.70 0.3107799
319.80 0.3112638
319.90 0.311747
320.00 0.3122366
320.10 0.3127332
320.20 0.3132214
320.30 0.3137243
320.40 0.3142326
320.50 0.3147126
320.60 0.3152058
320.70 0.3156983
320.80 0.3161901
320.90 0.3166812
321.00 0.3171717
321.10 0.3176615
321.20 0.3181405
321.30 0.3186432
321.40 0.3191453
321.50 0.3196466
321.60 0.3201472
321.70 0.3206472
321.80 0.3211441
321.90 0.3216377
322.00 0.3221422
322.10 0.3226389
322.20 0.3231348
322.30 0.3236301
322.40 0.3241247
322.50 0.3246187
322.60 0.3251119
322.70 0.3256045
322.80 0.3260817
322.90 0.3265799
323.00 0.3270775
323.10 0.3275744
323.20 0.3280706
323.30 0.3285662
323.40 0.329061
323.50 0.3295552
323.60 0.3300487
323.70 0.3305416
323.80 0.3310338
323.90 0.3315253
324.00 0.3320246
324.10 0.3325232
324.20 0.3330212
324.30 0.333538
324.40 0.3340731
324.50 0.3345683
324.60 0.3350627
324.70 0.3355566
324.80 0.3360497
324.90 0.3365422
325.00 0.337034
325.10 0.3375251
325.20 0.3380238
325.30 0.3385394
325.40 0.3390542
325.50 0.3395617
325.60 0.3400603
325.70 0.3405583
325.80 0.3410555
325.90 0.3415548
326.00 0.3420564
326.10 0.3425572
326.20 0.3430574
326.30 0.3435647
326.40 0.3440933
326.50 0.3446013
326.60 0.3451087
326.70 0.3456153
326.80 0.3461213
326.90 0.3466266
327.00 0.3471312
327.10 0.3476352
327.20 0.3481384
327.30 0.348641
327.40 0.3491429
327.50 0.3496441
327.60 0.3501447
327.70 0.3506445
327.80 0.3511437
327.90 0.351638
328.00 0.3521364
328.10 0.3526453
328.20 0.3531536
328.30 0.3536611
328.40 0.354168
328.50 0.3546739
328.60 0.3551791
328.70 0.3556836
328.80 0.3561892
328.90 0.3566993
329.00 0.3572087
329.10 0.3577174
329.20 0.3582254
329.30 0.3587328
329.40 0.3592395
329.50 0.3597455
329.60 0.3602508
329.70 0.3607554
329.80 0.3612594
329.90 0.3617626
330.00 0.3622723
330.10 0.3627901
330.20 0.3633071
330.30 0.3638234
330.40 0.3643389
330.50 0.3648537
330.60 0.3653678
330.70 0.3658812
330.80 0.366394
330.90 0.366906
331.00 0.3674174
331.10 0.367928
331.20 0.368438
331.30 0.3689473
331.40 0.3694559
331.50 0.3699613
331.60 0.3704629
331.70 0.3709639
331.80 0.3714782
331.90 0.3719925
332.00 0.372506
332.10 0.3730189
332.20 0.3735311
332.30 0.3740426
332.40 0.3745534
332.50 0.3750636
332.60 0.375573
332.70 0.3760818
332.80 0.3765899
332.90 0.3770974
333.00 0.3776041
333.10 0.3781167
333.20 0.3786366
333.30 0.3791558
333.40 0.3796743
333.50 0.3801921
333.60 0.3807092
333.70 0.3812256
333.80 0.3817414
333.90 0.3822564
334.00 0.3827708
334.10 0.3832836
334.20 0.3837944
334.30 0.3843047
334.40 0.3848142
334.50 0.3853231
334.60 0.3858312
334.70 0.3863351
334.80 0.3868414
334.90 0.387358
335.00 0.3878739
335.10 0.3883925
335.20 0.3889176
335.30 0.3894563
335.40 0.3899485
335.50 0.3904952
335.60 0.390994
335.70 0.3915188
335.80 0.3920084
335.90 0.3925114
336.00 0.3930311
336.10 0.39355
336.20 0.3940683
336.30 0.3945859
336.40 0.3951028
336.50 0.395619
336.60 0.3961345
336.70 0.3966494
336.80 0.3971635
336.90 0.3976806
337.00 0.3982015
337.10 0.3987216
337.20 0.3992411
337.30 0.3997629
337.40 0.4002884
337.50 0.4008133
337.60 0.4013374
337.70 0.4018609
337.80 0.4023837
337.90 0.4029046
338.00 0.4034236
338.10 0.4039419
338.20 0.4044595
338.30 0.4049764
338.40 0.4054938
338.50 0.4060134
338.60 0.4065324
338.70 0.4070506
338.80 0.4075682
338.90 0.408085
339.00 0.4086012
339.10 0.4091167
339.20 0.4096316
339.30 0.410145
339.40 0.4106566
339.50 0.4111725
339.60 0.4116938
339.70 0.4122144
339.80 0.4127342
339.90 0.4132535
340.00 0.413772
340.10 0.4142898
340.20 0.414807
340.30 0.4153235
340.40 0.4158393
340.50 0.4163544
340.60 0.4168688
340.70 0.4173826
340.80 0.417904
340.90 0.4184367
341.00 0.418965
341.10 0.4194884
341.20 0.420011
341.30 0.420533
341.40 0.4210543
341.50 0.4215749
341.60 0.4220948
341.70 0.422614
341.80 0.4231348
341.90 0.4236576
342.00 0.4241797
342.10 0.4247011
342.20 0.4252194
342.30 0.4257487
342.40 0.4262779
342.50 0.4267994
342.60 0.4273201
342.70 0.4278402
342.80 0.4283596
342.90 0.4288784
343.00 0.4293997
343.10 0.4299242
343.20 0.4304481
343.30 0.4309713
343.40 0.4314929
343.50 0.4320125
343.60 0.4325314
343.70 0.4330496
343.80 0.4335671
343.90 0.434084
344.00 0.4346042
344.10 0.4351297
344.20 0.4356545
344.30 0.4361786
344.40 0.4367021
344.50 0.4372248
344.60 0.4377347
344.70 0.4382263
344.80 0.4387768
344.90 0.4392671
345.00 0.4398284
345.10 0.4403471
345.20 0.4408694
345.30 0.4413972
345.40 0.4419243
345.50 0.4424326
345.60 0.4429345
345.70 0.443459
345.80 0.4439829
345.90 0.444506
346.00 0.4450285
346.10 0.4455503
346.20 0.4460723
346.30 0.4465947
346.40 0.4471165
346.50 0.4476376
346.60 0.448158
346.70 0.4486777
346.80 0.4491967
346.90 0.4497151
347.00 0.4502328
347.10 0.4507499
347.20 0.4512722
347.30 0.4518024
347.40 0.4523319
347.50 0.4528607
347.60 0.4533889
347.70 0.4539164
347.80 0.4544432
347.90 0.4549693
348.00 0.4554947
348.10 0.4560195
348.20 0.4565435
348.30 0.4570669
348.40 0.4575897
348.50 0.4581117
348.60 0.4586331
348.70 0.4591488
348.80 0.4596669
348.90 0.4601913
349.00 0.460715
349.10 0.461238
349.20 0.4617604
349.30 0.4622821
349.40 0.4628031
349.50 0.4633234
349.60 0.4638431
349.70 0.4643621
349.80 0.4648804
349.90 0.4653981
350.00 0.4659151
350.10 0.4664314
350.20 0.466947
350.30 0.4674673
350.40 0.4679945
350.50 0.4685209
350.60 0.4690467
350.70 0.4695719
350.80 0.4700963
350.90 0.4706201
351.00 0.4711432
351.10 0.4716656
351.20 0.4721874
351.30 0.4727085
351.40 0.47323
351.50 0.4737527
351.60 0.4742747
351.70 0.474796
351.80 0.4753167
351.90 0.4758367
352.00 0.4763561
352.10 0.4768748
352.20 0.4774076
352.30 0.477938
352.40 0.478463
352.50 0.4789874
352.60 0.4795111
352.70 0.4800341
352.80 0.4805564
352.90 0.4810781
353.00 0.4815991
353.10 0.4821195
353.20 0.4826391
353.30 0.4831582
353.40 0.4836765
353.50 0.4841947
353.60 0.4847123
353.70 0.4852292
353.80 0.4857455
353.90 0.4862657
354.00 0.4867935
354.10 0.4873206
354.20 0.487847
354.30 0.4883727
354.40 0.4888977
354.50 0.4894221
354.60 0.4899458
354.70 0.4904689
354.80 0.4909882
354.90 0.4915026
355.00 0.4920163
355.10 0.4925293
355.20 0.4930417
355.30 0.4935717
355.40 0.4941011
355.50 0.4946298
355.60 0.4951578
355.70 0.4956765
355.80 0.4961908
355.90 0.4967068
356.00 0.4972319
356.10 0.4977577
356.20 0.4982828
356.30 0.4988072
356.40 0.4993309
356.50 0.499854
356.60 0.5003764
356.70 0.5008982
356.80 0.5014193
356.90 0.5019397
357.00 0.5024595
357.10 0.5029786
357.20 0.5034971
357.30 0.5040148
357.40 0.5045296
357.50 0.5050395
357.60 0.5055487
357.70 0.5060573
357.80 0.5065797
357.90 0.5071013
358.00 0.5076229
358.10 0.508144
358.20 0.5086645
358.30 0.5091843
358.40 0.5097034
358.50 0.5102219
358.60 0.5107397
358.70 0.5112569
358.80 0.5117734
358.90 0.5122892
359.00 0.5128091
359.10 0.5133368
359.20 0.5138623
359.30 0.5143773
359.40 0.5148917
359.50 0.5154076
359.60 0.5159235
359.70 0.5164387
359.80 0.5169603
359.90 0.5174813
360.00 0.5180004
360.10 0.5185167
360.20 0.5190324
360.30 0.5195474
360.40 0.5200617
360.50 0.5205754
360.60 0.5211291
360.70 0.5216436
360.80 0.5221575
360.90 0.5226707
361.00 0.5231741
361.10 0.5237039
361.20 0.5242167
361.30 0.5247082
361.40 0.5252318
361.50 0.5257546
361.60 0.5262768
361.70 0.5267984
361.80 0.5273162
361.90 0.527828
362.00 0.5283391
362.10 0.5288684
362.20 0.5293946
362.30 0.5299075
362.40 0.5304197
362.50 0.5309313
362.60 0.5314422
362.70 0.5319683
362.80 0.5324707
362.90 0.5329804
363.00 0.5334895
363.10 0.5340055
363.20 0.534521
363.30 0.5350329
363.40 0.5355434
363.50 0.5360533
363.60 0.5365625
363.70 0.5371604
363.80 0.537579
363.90 0.5380481
364.00 0.5385166
364.10 0.5389844
364.20 0.5394517
364.30 0.5400201
364.40 0.5406133
364.50 0.5413905
364.60 0.541802
364.70 0.542213
364.80 0.5426234
364.90 0.5431243
365.00 0.5436247
365.10 0.5443902
365.20 0.5448891
365.30 0.5453874
365.40 0.5456197
365.50 0.5461168
365.60 0.5466134
365.70 0.5472779
365.80 0.5479417
365.90 0.5485404
366.00 0.5491224
366.10 0.5496019
366.20 0.5500808
366.30 0.5505591
366.40 0.5510368
366.50 0.5513126
366.60 0.552072
366.70 0.5525694
366.80 0.5530663
366.90 0.5535821
367.00 0.5541321
367.10 0.5546814
367.20 0.5552301
367.30 0.5557781
367.40 0.5563254
367.50 0.5566589
367.60 0.5569388
367.70 0.5574635
367.80 0.5579876
367.90 0.558511
368.00 0.5591301
368.10 0.5596044
368.20 0.5601208
368.30 0.5606383
368.40 0.5611552
368.50 0.5616714
368.60 0.562187
368.70 0.562702
368.80 0.5632163
368.90 0.5637699
369.00 0.5643404
369.10 0.5648968
369.20 0.5651193
369.30 0.5656793
369.40 0.5662386
369.50 0.5667972
369.60 0.5672649
369.70 0.5677319
369.80 0.5682645
369.90 0.5687972
370.00 0.5693292
370.10 0.5696172
370.20 0.5703334
370.30 0.571059
370.40 0.5712775
370.50 0.5717371
370.60 0.5724541
370.70 0.5729317
370.80 0.573392
370.90 0.5738517
371.00 0.5743185
371.10 0.5747848
371.20 0.5752427
371.30 0.5757001
371.40 0.5762215
371.50 0.5767719
371.60 0.5773216
371.70 0.5778707
371.80 0.5784191
371.90 0.5789668
372.00 0.5794688
372.10 0.5798886
372.20 0.5804296
372.30 0.5809699
372.40 0.5815096
372.50 0.5820486
372.60 0.582587
372.70 0.5831247
372.80 0.5835729
372.90 0.5840206
373.00 0.5844753
373.10 0.5849295
373.20 0.5853793
373.30 0.5858285
373.40 0.5865313
373.50 0.5869792
373.60 0.5874266
373.70 0.5881271
373.80 0.5885416
373.90 0.5890188
374.00 0.5894638
374.10 0.5899083
374.20 0.5903522
374.30 0.5907955
374.40 0.5914278
374.50 0.5921734
374.60 0.5926214
374.70 0.5930642
374.80 0.5935063
374.90 0.593948
375.00 0.5944711
375.10 0.5949936
375.20 0.5955155
375.30 0.5959888
375.40 0.5964615
375.50 0.5969337
375.60 0.5974052
375.70 0.5978762
375.80 0.5983466
375.90 0.5988164
376.00 0.5994905
376.10 0.599938
376.20 0.6003828
376.30 0.6008269
376.40 0.6012705
376.50 0.6017534
376.60 0.6022953
376.70 0.6028366
376.80 0.6033542
376.90 0.6038481
377.00 0.6043413
377.10 0.604834
377.20 0.6053183
377.30 0.6057729
377.40 0.6062269
377.50 0.6066803
377.60 0.6072234
377.70 0.6077658
377.80 0.6083076
377.90 0.6088487
378.00 0.609528
378.10 0.6100129
378.20 0.6104931
378.30 0.6109728
378.40 0.6114519
378.50 0.6119303
378.60 0.6124082
378.70 0.6128855
378.80 0.6133622
378.90 0.6138143
379.00 0.6142214
379.10 0.6146863
379.20 0.6151507
379.30 0.6156971
379.40 0.6163254
379.50 0.616953
379.60 0.6173644
379.70 0.6175414
379.80 0.618053
379.90 0.6185639
380.00 0.6190742
380.10 0.6195839
380.20 0.620093
380.30 0.6206015
380.40 0.6211093
380.50 0.6216165
380.60 0.6221433
380.70 0.6227055
380.80 0.623267
380.90 0.6238279
381.00 0.624388
381.10 0.6246703
381.20 0.6251419
381.30 0.6255384
381.40 0.6262643
381.50 0.6266851
381.60 0.6271331
381.70 0.6275765
381.80 0.628094
381.90 0.6284939
382.00 0.6288934
382.10 0.629535
382.20 0.6299818
382.30 0.6303796
382.40 0.6308169
382.50 0.6313136
382.60 0.6318098
382.70 0.6323862
382.80 0.6329489
382.90 0.633407
383.00 0.6338646
383.10 0.6343216
383.20 0.6347806
383.30 0.6352489
383.40 0.6358102
383.50 0.6365112
383.60 0.6367352
383.70 0.6372278
383.80 0.6377198
383.90 0.6382112
384.00 0.6387019
384.10 0.6391921
384.20 0.6396817
384.30 0.6401707
384.40 0.6406396
384.50 0.6410886
384.60 0.641537
384.70 0.6419848
384.80 0.6425019
384.90 0.6431785
385.00 0.6436652
385.10 0.6441523
385.20 0.6446199
385.30 0.6450123
385.40 0.6454301
385.50 0.6458734
385.60 0.6463161
385.70 0.6467583
385.80 0.6472122
385.90 0.6477117
386.00 0.6482993
386.10 0.64895
386.20 0.6493478
386.30 0.649745
386.40 0.6503658
386.50 0.6507786
386.60 0.6511183
386.70 0.6516109
386.80 0.6522213
386.90 0.6527127
387.00 0.6532153
387.10 0.6535872
387.20 0.654053
387.30 0.6543296
387.40 0.6550469
387.50 0.6554779
387.60 0.6558372
387.70 0.656324
387.80 0.6568102
387.90 0.6572958
388.00 0.6578377
388.10 0.6582817
388.20 0.6587889
388.30 0.6593449
388.40 0.6599002
388.50 0.6604301
388.60 0.6608738
388.70 0.6612937
388.80 0.6616433
388.90 0.6620351
389.00 0.6624356
389.10 0.6629809
389.20 0.6633223
389.30 0.6638459
389.40 0.6644636
389.50 0.6650114
389.60 0.6654039
389.70 0.6657207
389.80 0.6662517
389.90 0.666782
390.00 0.6673117
390.10 0.6678408
390.20 0.6683693
390.30 0.66884
390.40 0.6692458
390.50 0.6696511
390.60 0.670056
390.70 0.6704603
390.80 0.6708839
390.90 0.6713267
391.00 0.671902
391.10 0.6724581
391.20 0.6729561
391.30 0.6733424
391.40 0.6738465
391.50 0.6743499
391.60 0.6748528
391.70 0.675355
391.80 0.6758567
391.90 0.6761628
392.00 0.6764757
392.10 0.6771284
392.20 0.6777609
392.30 0.6781189
392.40 0.6784053
392.50 0.6790355
392.60 0.6793793
392.70 0.6797226
392.80 0.6802148
392.90 0.6806695
393.00 0.6812994
393.10 0.6817823
393.20 0.6821226
393.30 0.682692
393.40 0.6831783
393.50 0.6836597
393.60 0.6841367
393.70 0.6844236
393.80 0.6850516
393.90 0.6853889
394.00 0.6857305
394.10 0.686208
394.20 0.6867858
394.30 0.6872966
394.40 0.6875384
394.50 0.6880253
394.60 0.6884394
394.70 0.6888682
394.80 0.6893535
394.90 0.6898422
395.00 0.6904383
395.10 0.6907953
395.20 0.6912906
395.30 0.6918272
395.40 0.6923632
395.50 0.69279
395.60 0.6931761
395.70 0.6935935
395.80 0.6940966
395.90 0.6945991
396.00 0.6950738
396.10 0.6953689
396.20 0.6959208
396.30 0.696533
396.40 0.6968581
396.50 0.697256
396.60 0.6978788
396.70 0.6981352
396.80 0.6986245
396.90 0.6991184
397.00 0.6996206
397.10 0.7000172
397.20 0.7004644
397.30 0.7009997
397.40 0.7013525
397.50 0.7017049
397.60 0.7020649
397.70 0.7025063
397.80 0.7029471
397.90 0.703389
398.00 0.7038344
398.10 0.7042793
398.20 0.7047791
398.30 0.7053406
398.40 0.7058946
398.50 0.7062269
398.60 0.7067581
398.70 0.7071776
398.80 0.7075505
398.90 0.7080148
399.00 0.7086491
399.10 0.7088124
399.20 0.7092733
399.30 0.7097336
399.40 0.7101934
399.50 0.7106526
399.60 0.7111372
399.70 0.7116308
399.80 0.7121238
399.90 0.7126162
400.00 0.7131031
400.10 0.7134277
400.20 0.7140079
400.30 0.7143426
400.40 0.7146847
400.50 0.7152795
400.60 0.7155672
400.70 0.7160928
400.80 0.7164148
400.90 0.717011
401.00 0.7174896
401.10 0.7176891
401.20 0.7183198
401.30 0.7188091
401.40 0.7192675
401.50 0.7197234
401.60 0.7201745
401.70 0.7204916
401.80 0.7210045
401.90 0.7215226
402.00 0.7218073
402.10 0.722309
402.20 0.722826
402.30 0.7231564
402.40 0.7237193
402.50 0.7239361
402.60 0.7244743
402.70 0.7249651
402.80 0.7252604
402.90 0.7258171
403.00 0.7263297
403.10 0.7265799
403.20 0.7271115
403.30 0.7274212
403.40 0.7279252
403.50 0.7283625
403.60 0.728768
403.70 0.7292048
403.80 0.7297352
403.90 0.7301143
404.00 0.7305426
404.10 0.7307997
404.20 0.7313057
404.30 0.731811
404.40 0.7321188
404.50 0.7326034
404.60 0.7331071
404.70 0.7333939
404.80 0.7339217
404.90 0.7343985
405.00 0.7348071
405.10 0.7351541
405.20 0.735562
405.30 0.7359695
405.40 0.7363969
405.50 0.7368239
405.60 0.7372504
405.70 0.7376763
405.80 0.7381017
405.90 0.7385267
406.00 0.7390279
406.10 0.7395286
406.20 0.7400287
406.30 0.7405282
406.40 0.7410012
406.50 0.741282
406.60 0.7417727
406.70 0.7421577
406.80 0.742462
406.90 0.7430565
407.00 0.7434614
407.10 0.7438659
407.20 0.7442699
407.30 0.7446734
407.40 0.7450764
407.50 0.7454789
407.60 0.7458809
407.70 0.7462825
407.80 0.7466836
407.90 0.7470891
408.00 0.7476534
408.10 0.7480311
408.20 0.7483296
408.30 0.7487939
408.40 0.7492576
408.50 0.7495396
408.60 0.750054
408.70 0.7505678
408.80 0.7510378
408.90 0.7512359
409.00 0.7516818
409.10 0.752127
409.20 0.7525718
409.30 0.753016
409.40 0.7534578
409.50 0.7538365
409.60 0.7542147
409.70 0.7545989
409.80 0.7550085
409.90 0.7554189
410.00 0.755869
410.10 0.7562027
410.20 0.7566325
410.30 0.7570859
410.40 0.7575408
410.50 0.7580018
410.60 0.7584623
410.70 0.7589264
410.80 0.759407
410.90 0.7598871
411.00 0.7602672
411.10 0.7606101
411.20 0.7609525
411.30 0.7612954
411.40 0.7616462
411.50 0.7621634
411.60 0.7626799
411.70 0.763144
411.80 0.7634002
411.90 0.7637397
412.00 0.7644127
412.10 0.7646677
412.20 0.7649223
412.30 0.7655276
412.40 0.7658774
412.50 0.7664279
412.60 0.7666511
412.70 0.7670461
412.80 0.7674836
412.90 0.7677662
413.00 0.7683718
413.10 0.7687414
413.20 0.7691106
413.30 0.7694792
413.40 0.7698475
413.50 0.77024
413.60 0.7707223
413.70 0.7711779
413.80 0.7716329
413.90 0.7720874
414.00 0.7724918
414.10 0.7727386
414.20 0.7730843
414.30 0.773702
414.40 0.7739889
414.50 0.7742246
414.60 0.7748419
414.70 0.7752924
414.80 0.7757176
414.90 0.7760642
415.00 0.7764103
415.10 0.776756
415.20 0.777113
415.30 0.7775068
415.40 0.7779001
415.50 0.778292
415.60 0.7786528
415.70 0.7790131
415.80 0.7793909
415.90 0.7798247
416.00 0.7802581
416.10 0.7806864
416.20 0.7810961
416.30 0.7815054
416.40 0.7819142
416.50 0.7823235
416.60 0.7827646
416.70 0.7832113
416.80 0.7834516
416.90 0.7838717
417.00 0.7844266
417.10 0.784555
417.20 0.7849933
417.30 0.7854324
417.40 0.7859185
417.50 0.786404
417.60 0.7868556
