# Version 2.1 - nm, norm@500 to 1, cut digits, bergeron_He_3500_70.dat_3500
# Wavelength(nm)  Flambda(ergs/cm^s/s/nm)
300.00 0.01207948
300.10 0.0121272
300.20 0.01217512
300.30 0.01222317
300.40 0.01227245
300.50 0.01232167
300.60 0.01237082
300.70 0.0124199
300.80 0.01246892
300.90 0.01251786
301.00 0.01256674
301.10 0.01261555
301.20 0.01266429
301.30 0.01271297
301.40 0.01276158
301.50 0.01281012
301.60 0.01285859
301.70 0.012907
301.80 0.01295534
301.90 0.01300361
302.00 0.01305182
302.10 0.01310305
302.20 0.01315456
302.30 0.01320599
302.40 0.01325736
302.50 0.01330865
302.60 0.01335987
302.70 0.01341103
302.80 0.01346211
302.90 0.01351312
303.00 0.01356406
303.10 0.01361493
303.20 0.01366574
303.30 0.01371676
303.40 0.01377036
303.50 0.01382388
303.60 0.01387733
303.70 0.01393071
303.80 0.01398401
303.90 0.01403724
304.00 0.0140904
304.10 0.01414349
304.20 0.0141965
304.30 0.01424944
304.40 0.0143023
304.50 0.0143551
304.60 0.014411
304.70 0.01446717
304.80 0.01452327
304.90 0.0145793
305.00 0.01463524
305.10 0.01469111
305.20 0.01474691
305.30 0.01480262
305.40 0.01485826
305.50 0.01491383
305.60 0.01496932
305.70 0.01502473
305.80 0.01508007
305.90 0.01513533
306.00 0.01519052
306.10 0.01524563
306.20 0.01530067
306.30 0.01535563
306.40 0.01541471
306.50 0.01547496
306.60 0.01553512
306.70 0.01559521
306.80 0.01565521
306.90 0.01571514
307.00 0.01577498
307.10 0.01583474
307.20 0.01589442
307.30 0.01595402
307.40 0.01601353
307.50 0.01607297
307.60 0.01613233
307.70 0.0161916
307.80 0.0162508
307.90 0.01630991
308.00 0.01636894
308.10 0.0164279
308.20 0.01648677
308.30 0.01654557
308.40 0.01660428
308.50 0.01666292
308.60 0.01672147
308.70 0.01677995
308.80 0.01683888
308.90 0.01689924
309.00 0.01696215
309.10 0.01702498
309.20 0.01708773
309.30 0.01715039
309.40 0.01721317
309.50 0.0172771
309.60 0.01734093
309.70 0.01740469
309.80 0.01746835
309.90 0.01753193
310.00 0.01759543
310.10 0.01765884
310.20 0.01772216
310.30 0.0177854
310.40 0.01784964
310.50 0.01791496
310.60 0.01798019
310.70 0.01804533
310.80 0.01811039
310.90 0.01817536
311.00 0.01824096
311.10 0.01830647
311.20 0.01837189
311.30 0.01843774
311.40 0.01850494
311.50 0.01857205
311.60 0.01863907
311.70 0.01870601
311.80 0.01877285
311.90 0.0188396
312.00 0.01890627
312.10 0.01897284
312.20 0.01903979
312.30 0.01910954
312.40 0.01917945
312.50 0.01924796
312.60 0.01931627
312.70 0.0193845
312.80 0.01945263
312.90 0.01952186
313.00 0.01959228
313.10 0.01966261
313.20 0.01973285
313.30 0.01980319
313.40 0.01987403
313.50 0.01994477
313.60 0.02001542
313.70 0.02008597
313.80 0.02015643
313.90 0.0202268
314.00 0.02029707
314.10 0.02036978
314.20 0.02044238
314.30 0.02051489
314.40 0.0205873
314.50 0.02065962
314.60 0.02073184
314.70 0.02080396
314.80 0.02087658
314.90 0.02095009
315.00 0.02102277
315.10 0.02109723
315.20 0.0211716
315.30 0.02124586
315.40 0.02132003
315.50 0.0213941
315.60 0.02146807
315.70 0.02154383
315.80 0.02161948
315.90 0.02169504
316.00 0.0217705
316.10 0.02184698
316.20 0.02192337
316.30 0.02199515
316.40 0.02207584
316.50 0.02215192
316.60 0.0222279
316.70 0.02230378
316.80 0.02237956
316.90 0.02245749
317.00 0.02253531
317.10 0.02261303
317.20 0.02269065
317.30 0.02277159
317.40 0.02285199
317.50 0.02293105
317.60 0.02301001
317.70 0.02308886
317.80 0.02316761
317.90 0.02324698
318.00 0.02332394
318.10 0.02340509
318.20 0.02348613
318.30 0.02356706
318.40 0.02364789
318.50 0.02372862
318.60 0.02381039
318.70 0.0238909
318.80 0.02397197
318.90 0.02405537
319.00 0.02413566
319.10 0.02421796
319.20 0.0243004
319.30 0.02438347
319.40 0.02446643
319.50 0.02454928
319.60 0.02463282
319.70 0.02471662
319.80 0.02480031
319.90 0.02488389
320.00 0.02496845
320.10 0.02505407
320.20 0.02513865
320.30 0.0252248
320.40 0.02531009
320.50 0.02539526
320.60 0.0254805
320.70 0.02556545
320.80 0.02565135
320.90 0.02573827
321.00 0.02582507
321.10 0.02591177
321.20 0.02599803
321.30 0.02608614
321.40 0.02617413
321.50 0.02626201
321.60 0.02634977
321.70 0.02643742
321.80 0.0265259
321.90 0.02661527
322.00 0.02670635
322.10 0.02679626
322.20 0.02688606
322.30 0.02697574
322.40 0.02706531
322.50 0.02715476
322.60 0.02724409
322.70 0.02733331
322.80 0.02742606
322.90 0.02751893
323.00 0.02761167
323.10 0.02770429
323.20 0.0277968
323.30 0.02788918
323.40 0.02798145
323.50 0.02807359
323.60 0.02816562
323.70 0.02825753
323.80 0.02834932
323.90 0.02844099
324.00 0.02853484
324.10 0.02862857
324.20 0.02872219
324.30 0.02881678
324.40 0.0289137
324.50 0.02900976
324.60 0.0291057
324.70 0.02920151
324.80 0.0292972
324.90 0.02939277
325.00 0.02948821
325.10 0.02958354
325.20 0.02967906
325.30 0.02977514
325.40 0.0298711
325.50 0.02996813
325.60 0.03006651
325.70 0.03016476
325.80 0.03026288
325.90 0.03036143
326.00 0.03046044
326.10 0.03055933
326.20 0.03065808
326.30 0.03075765
326.40 0.03085974
326.50 0.03096232
326.60 0.03106477
326.70 0.03116708
326.80 0.03126927
326.90 0.03137133
327.00 0.03147325
327.10 0.03157505
327.20 0.03167671
327.30 0.03177825
327.40 0.03187965
327.50 0.03198093
327.60 0.03208207
327.70 0.03218309
327.80 0.03228397
327.90 0.03238555
328.00 0.03248905
328.10 0.03259383
328.20 0.03269847
328.30 0.03280299
328.40 0.03290737
328.50 0.03301296
328.60 0.03311874
328.70 0.03322439
328.80 0.03333073
328.90 0.0334393
329.00 0.03354773
329.10 0.03365602
329.20 0.03376417
329.30 0.03387218
329.40 0.03398006
329.50 0.0340878
329.60 0.0341954
329.70 0.03430287
329.80 0.0344102
329.90 0.03451739
330.00 0.03462553
330.10 0.03473485
330.20 0.03484404
330.30 0.03495308
330.40 0.03506391
330.50 0.03517668
330.60 0.03528931
330.70 0.0354018
330.80 0.03551415
330.90 0.03562635
331.00 0.03573841
331.10 0.03585033
331.20 0.03596211
331.30 0.03607375
331.40 0.03618524
331.50 0.03629747
331.60 0.03641063
331.70 0.03652365
331.80 0.03664034
331.90 0.03675703
332.00 0.03687358
332.10 0.03698998
332.20 0.03710624
332.30 0.03722234
332.40 0.03733831
332.50 0.03745412
332.60 0.03756979
332.70 0.03768532
332.80 0.03780069
332.90 0.03791593
333.00 0.03803101
333.10 0.03814833
333.20 0.03826841
333.30 0.03838833
333.40 0.0385081
333.50 0.03862772
333.60 0.03874719
333.70 0.03886651
333.80 0.03898568
333.90 0.0391047
334.00 0.03922357
334.10 0.03934375
334.20 0.03946555
334.30 0.0395872
334.40 0.0397087
334.50 0.03983004
334.60 0.03995123
334.70 0.04007325
334.80 0.04019458
334.90 0.04031329
335.00 0.04043185
335.10 0.04058122
335.20 0.04069747
335.30 0.04080055
335.40 0.04093656
335.50 0.0410674
335.60 0.04118306
335.70 0.04131658
335.80 0.04143194
335.90 0.04155614
336.00 0.04169118
336.10 0.04182604
336.20 0.04196074
336.30 0.04209228
336.40 0.04222001
336.50 0.04234757
336.60 0.04247498
336.70 0.04260223
336.80 0.04272932
336.90 0.04285852
337.00 0.04299033
337.10 0.04312199
337.20 0.04325347
337.30 0.04338315
337.40 0.0435103
337.50 0.04363729
337.60 0.04376412
337.70 0.0438908
337.80 0.04401732
337.90 0.04414742
338.00 0.04428194
338.10 0.04441629
338.20 0.04455047
338.30 0.04468449
338.40 0.04481944
338.50 0.04495694
338.60 0.04509427
338.70 0.04523143
338.80 0.04536841
338.90 0.04550523
339.00 0.04564188
339.10 0.04577836
339.20 0.04591467
339.30 0.04604945
339.40 0.04618209
339.50 0.04631832
339.60 0.04645896
339.70 0.04659942
339.80 0.04673971
339.90 0.04687983
340.00 0.04701977
340.10 0.04715954
340.20 0.04729914
340.30 0.04743857
340.40 0.04757783
340.50 0.04771691
340.60 0.04785582
340.70 0.04799456
340.80 0.04812974
340.90 0.04825988
341.00 0.04839717
341.10 0.0485432
341.20 0.04868905
341.30 0.04883472
341.40 0.04898021
341.50 0.04912553
341.60 0.04927066
341.70 0.04941562
341.80 0.04955989
341.90 0.04970335
342.00 0.04984664
342.10 0.04998976
342.20 0.05013677
342.30 0.05027887
342.40 0.05042154
342.50 0.05057269
342.60 0.05072366
342.70 0.05087444
342.80 0.05102504
342.90 0.05117546
343.00 0.05132577
343.10 0.05147601
343.20 0.05162606
343.30 0.05177593
343.40 0.05192504
343.50 0.05207316
343.60 0.05222109
343.70 0.05236885
343.80 0.05251642
343.90 0.05266381
344.00 0.05281623
344.10 0.05297596
344.20 0.05313548
344.30 0.05329482
344.40 0.05344617
344.50 0.05358612
344.60 0.05373369
344.70 0.05389227
344.80 0.05405066
344.90 0.05420886
345.00 0.05436686
345.10 0.05452467
345.20 0.05468334
345.30 0.05484332
345.40 0.05500311
345.50 0.05515829
345.60 0.05531086
345.70 0.05546752
345.80 0.05562399
345.90 0.05578028
346.00 0.05593637
346.10 0.05609227
346.20 0.05625107
346.30 0.05641412
346.40 0.05657696
346.50 0.05673961
346.60 0.05690206
346.70 0.05706432
346.80 0.05722638
346.90 0.05738824
347.00 0.0575499
347.10 0.05771137
347.20 0.05787455
347.30 0.05804027
347.40 0.0582058
347.50 0.05837112
347.60 0.05853624
347.70 0.05870116
347.80 0.05886588
347.90 0.05903041
348.00 0.05919473
348.10 0.05935886
348.20 0.05952279
348.30 0.05968652
348.40 0.05985005
348.50 0.06001339
348.60 0.06017652
348.70 0.06035642
348.80 0.06053651
348.90 0.06070925
349.00 0.06088178
349.10 0.06105411
349.20 0.06122623
349.30 0.06139815
349.40 0.06156985
349.50 0.06174135
349.60 0.06191265
349.70 0.06208373
349.80 0.06225461
349.90 0.06242529
350.00 0.06259576
350.10 0.06276603
350.20 0.06293609
350.30 0.06310884
350.40 0.06328554
350.50 0.06346202
350.60 0.0636383
350.70 0.06381436
350.80 0.06399021
350.90 0.06416585
351.00 0.06434128
351.10 0.0645165
351.20 0.06469151
351.30 0.06486631
351.40 0.06504406
351.50 0.06522721
351.60 0.06541014
351.70 0.06559286
351.80 0.06577535
351.90 0.06595763
352.00 0.06613969
352.10 0.06632153
352.20 0.06650342
352.30 0.06668624
352.40 0.06687045
352.50 0.06705445
352.60 0.06723822
352.70 0.06742178
352.80 0.06760511
352.90 0.06778823
353.00 0.06797113
353.10 0.06815381
353.20 0.06833627
353.30 0.06851852
353.40 0.06870055
353.50 0.06888787
353.60 0.06907634
353.70 0.0692646
353.80 0.06945262
353.90 0.06964124
354.00 0.06983106
354.10 0.07002067
354.20 0.07021004
354.30 0.07039919
354.40 0.07058812
354.50 0.07077682
354.60 0.0709653
354.70 0.07115355
354.80 0.07134463
354.90 0.07153985
355.00 0.07173485
355.10 0.07192961
355.20 0.07212414
355.30 0.07231561
355.40 0.07250684
355.50 0.07269785
355.60 0.07288864
355.70 0.07308831
355.80 0.07329183
355.90 0.07347576
356.00 0.07366776
356.10 0.07387019
356.20 0.07407238
356.30 0.07427433
356.40 0.07447604
356.50 0.07467752
356.60 0.07487875
356.70 0.07507975
356.80 0.07528051
356.90 0.07548104
357.00 0.07568133
357.10 0.07588138
357.20 0.0760812
357.30 0.07628078
357.40 0.07647999
357.50 0.07667873
357.60 0.07687723
357.70 0.07707549
357.80 0.07728858
357.90 0.07750142
358.00 0.07770881
358.10 0.07791467
358.20 0.07812028
358.30 0.07832564
358.40 0.07853077
358.50 0.07873565
358.60 0.0789403
358.70 0.0791447
358.80 0.07934887
358.90 0.07955279
359.00 0.07975757
359.10 0.07996405
359.20 0.08017084
359.30 0.08038107
359.40 0.08059105
359.50 0.08080648
359.60 0.08102307
359.70 0.08123942
359.80 0.08144495
359.90 0.08165025
360.00 0.08186079
360.10 0.08208083
360.20 0.08230062
360.30 0.08252015
360.40 0.08273942
360.50 0.08295844
360.60 0.08315055
360.70 0.08337305
360.80 0.0835953
360.90 0.08381729
361.00 0.08403146
361.10 0.08424566
361.20 0.08447168
361.30 0.08467364
361.40 0.08488572
361.50 0.08513206
361.60 0.08534363
361.70 0.08555495
361.80 0.0857699
361.90 0.08599149
362.00 0.08621282
362.10 0.08642911
362.20 0.08664984
362.30 0.08688076
362.40 0.08711141
362.50 0.08734179
362.60 0.0875719
362.70 0.08778872
362.80 0.08801059
362.90 0.08823465
363.00 0.08845845
363.10 0.08869076
363.20 0.08892289
363.30 0.08913509
363.40 0.08937628
363.50 0.08958306
363.60 0.08982371
363.70 0.09005272
363.80 0.09028714
363.90 0.09051318
364.00 0.09073896
364.10 0.09096448
364.20 0.09118974
364.30 0.09142121
364.40 0.09165403
364.50 0.09191202
364.60 0.09214335
364.70 0.09237441
364.80 0.0926052
364.90 0.09284231
365.00 0.09307914
365.10 0.09329879
365.20 0.09353508
365.30 0.09377111
365.40 0.09402375
365.50 0.09425922
365.60 0.09449442
365.70 0.09473394
365.80 0.09497319
365.90 0.095204
366.00 0.0954325
366.10 0.09567796
366.20 0.09592314
366.30 0.09616803
366.40 0.09641265
366.50 0.09664653
366.60 0.09686509
366.70 0.09711712
366.80 0.09736886
366.90 0.09761696
367.00 0.09785882
367.10 0.0981004
367.20 0.0983417
367.30 0.09858273
367.40 0.09882348
367.50 0.09906598
367.60 0.09930871
367.70 0.09956189
367.80 0.09981477
367.90 0.1000674
368.00 0.1003249
368.10 0.1005671
368.20 0.1008174
368.30 0.1010677
368.40 0.1013176
368.50 0.1015673
368.60 0.1018167
368.70 0.1020658
368.80 0.1023146
368.90 0.1025602
369.00 0.1028126
369.10 0.1030678
369.20 0.1033459
369.30 0.1035985
369.40 0.1038508
369.50 0.1041029
369.60 0.1043586
369.70 0.104614
369.80 0.1048693
369.90 0.1051244
370.00 0.1053792
370.10 0.1056388
370.20 0.1058945
370.30 0.1061497
370.40 0.1064209
370.50 0.1066759
370.60 0.1069299
370.70 0.1072036
370.80 0.1074558
370.90 0.1077077
371.00 0.1079787
371.10 0.1082496
371.20 0.1085169
371.30 0.1087839
371.40 0.1090409
371.50 0.1093047
371.60 0.1095682
371.70 0.1098313
371.80 0.1100942
371.90 0.1103568
372.00 0.1106265
372.10 0.1108928
372.20 0.1111641
372.30 0.1114351
372.40 0.1117059
372.50 0.1119763
372.60 0.1122464
372.70 0.1125162
372.80 0.1127949
372.90 0.1130732
373.00 0.1133384
373.10 0.1136032
373.20 0.1138823
373.30 0.1141611
373.40 0.1144233
373.50 0.1147015
373.60 0.1149793
373.70 0.1152407
373.80 0.115529
373.90 0.1157948
374.00 0.1160713
374.10 0.1163476
374.20 0.1166236
374.30 0.1168992
374.40 0.1171786
374.50 0.1174778
374.60 0.1177619
374.70 0.1180451
374.80 0.1183281
374.90 0.1186107
375.00 0.1188895
375.10 0.119168
375.20 0.1194461
375.30 0.1197301
375.40 0.1200137
375.50 0.120297
375.60 0.12058
375.70 0.1208627
375.80 0.121145
375.90 0.121427
376.00 0.1217098
376.10 0.1219993
376.20 0.1222884
376.30 0.1225773
376.40 0.1228658
376.50 0.1231574
376.60 0.1234538
376.70 0.1237499
376.80 0.1240426
376.90 0.1243319
377.00 0.124621
377.10 0.1249097
377.20 0.1252003
377.30 0.1254991
377.40 0.1257975
377.50 0.1260956
377.60 0.1263932
377.70 0.1266904
377.80 0.1269874
377.90 0.127284
378.00 0.127558
378.10 0.1278586
378.20 0.1281596
378.30 0.1284601
378.40 0.1287604
378.50 0.1290603
378.60 0.1293599
378.70 0.1296591
378.80 0.129958
378.90 0.1302584
379.00 0.1305617
379.10 0.1308694
379.20 0.1311767
379.30 0.1314826
379.40 0.1317872
379.50 0.1320915
379.60 0.1323932
379.70 0.1326941
379.80 0.1330045
379.90 0.1333146
380.00 0.1336244
380.10 0.1339338
380.20 0.1342428
380.30 0.1345515
380.40 0.1348599
380.50 0.1351679
380.60 0.1354742
380.70 0.135792
380.80 0.1361094
380.90 0.1364264
381.00 0.1367431
381.10 0.1370401
381.20 0.1373548
381.30 0.1376717
381.40 0.1379849
381.50 0.1382939
381.60 0.1386063
381.70 0.1389301
381.80 0.1392641
381.90 0.1395776
382.00 0.1398908
382.10 0.1402037
382.20 0.1405223
382.30 0.1408499
382.40 0.1411726
382.50 0.141488
382.60 0.141803
382.70 0.1421289
382.80 0.1424581
382.90 0.142778
383.00 0.1430976
383.10 0.1434168
383.20 0.1437385
383.30 0.1440705
383.40 0.1443971
383.50 0.144716
383.60 0.145045
383.70 0.145377
383.80 0.1457086
383.90 0.1460399
384.00 0.1463707
384.10 0.1467013
384.20 0.1470314
384.30 0.1473612
384.40 0.1476939
384.50 0.1480294
384.60 0.1483646
384.70 0.1486994
384.80 0.1490292
384.90 0.1493511
385.00 0.1496914
385.10 0.1500306
385.20 0.1503535
385.30 0.1506918
385.40 0.1510304
385.50 0.1513693
385.60 0.1517079
385.70 0.1520461
385.80 0.1523858
385.90 0.1527318
386.00 0.1530689
386.10 0.1533984
386.20 0.1537392
386.30 0.1540796
386.40 0.1544191
386.50 0.1547621
386.60 0.1551213
386.70 0.1554633
386.80 0.1558049
386.90 0.1561461
387.00 0.1564907
387.10 0.1568462
387.20 0.1571899
387.30 0.1575267
387.40 0.1578871
387.50 0.1582238
387.60 0.1585704
387.70 0.1589236
387.80 0.1592764
387.90 0.1596289
388.00 0.1599848
388.10 0.1603274
388.20 0.1606915
388.30 0.1610455
388.40 0.1613991
388.50 0.1617556
388.60 0.1621088
388.70 0.162455
388.80 0.1628195
388.90 0.163183
389.00 0.1635277
389.10 0.1638821
389.20 0.1642455
389.30 0.1646019
389.40 0.1649596
389.50 0.16532
389.60 0.1656844
389.70 0.1660485
389.80 0.1664125
389.90 0.1667761
390.00 0.1671393
390.10 0.1675021
390.20 0.1678646
390.30 0.1682288
390.40 0.168595
390.50 0.1689609
390.60 0.1693263
390.70 0.1696914
390.80 0.1700555
390.90 0.1704187
391.00 0.1707832
391.10 0.1711538
391.20 0.1715282
391.30 0.1719082
391.40 0.1722766
391.50 0.1726446
391.60 0.1730122
391.70 0.1733795
391.80 0.1737463
391.90 0.1741181
392.00 0.174497
392.10 0.1748778
392.20 0.1752561
392.30 0.1756295
392.40 0.1760179
392.50 0.1763838
392.60 0.1767621
392.70 0.1771399
392.80 0.1775174
392.90 0.17791
393.00 0.1782854
393.10 0.1786601
393.20 0.1790357
393.30 0.1794256
393.40 0.1798156
393.50 0.1801842
393.60 0.1805778
393.70 0.1809548
393.80 0.1813401
393.90 0.1817276
394.00 0.1821137
394.10 0.182498
394.20 0.1828915
394.30 0.1832813
394.40 0.1836587
394.50 0.1840441
394.60 0.1844362
394.70 0.1848291
394.80 0.1852265
394.90 0.1856235
395.00 0.1860192
395.10 0.1863949
395.20 0.1867866
395.30 0.1871809
395.40 0.1875747
395.50 0.187971
395.60 0.1883679
395.70 0.1887662
395.80 0.1891686
395.90 0.1895707
396.00 0.1899717
396.10 0.1903659
396.20 0.1907582
396.30 0.1911539
396.40 0.1915596
396.50 0.191965
396.60 0.1923699
396.70 0.1927696
396.80 0.1931703
396.90 0.1935755
397.00 0.1939787
397.10 0.1943815
397.20 0.194778
397.30 0.1951929
397.40 0.1955975
397.50 0.1960017
397.60 0.1964067
397.70 0.1968235
397.80 0.1972399
397.90 0.1976541
398.00 0.1980631
398.10 0.1984717
398.20 0.1988822
398.30 0.1992949
398.40 0.1997069
398.50 0.2001091
398.60 0.200523
398.70 0.2009429
398.80 0.2013629
398.90 0.2017766
399.00 0.2021791
399.10 0.2026058
399.20 0.2030235
399.30 0.2034407
399.40 0.2038575
399.50 0.2042739
399.60 0.2046976
399.70 0.2051236
399.80 0.2055492
399.90 0.2059744
400.00 0.2063989
400.10 0.2068157
400.20 0.2072305
400.30 0.2076549
400.40 0.2080848
400.50 0.2085108
400.60 0.208937
400.70 0.2093663
400.80 0.2097925
400.90 0.210216
401.00 0.210644
401.10 0.2110715
401.20 0.2115134
401.30 0.2119351
401.40 0.2123642
401.50 0.2127972
401.60 0.2132297
401.70 0.2136609
401.80 0.2140943
401.90 0.2145337
402.00 0.214982
402.10 0.2154168
402.20 0.2158538
402.30 0.2162781
402.40 0.2167162
402.50 0.2171599
402.60 0.217597
402.70 0.2180287
402.80 0.2184763
402.90 0.2189234
403.00 0.2193701
403.10 0.2198163
403.20 0.2202509
403.30 0.2206962
403.40 0.2211279
403.50 0.221579
403.60 0.2220351
403.70 0.2224836
403.80 0.2229158
403.90 0.2233708
404.00 0.2238156
404.10 0.2242525
404.20 0.2247073
404.30 0.2251617
404.40 0.2255993
404.50 0.226069
404.60 0.2265082
404.70 0.2269745
404.80 0.2274295
404.90 0.227878
405.00 0.2283345
405.10 0.2287953
405.20 0.2292513
405.30 0.2297068
405.40 0.2301651
405.50 0.2306229
405.60 0.2310803
405.70 0.2315371
405.80 0.2319935
405.90 0.2324494
406.00 0.2329129
406.10 0.2333758
406.20 0.2338383
406.30 0.2343003
406.40 0.2347609
406.50 0.235224
406.60 0.2356865
406.70 0.2361482
406.80 0.2366175
406.90 0.2370998
407.00 0.2375713
407.10 0.2380423
407.20 0.2385128
407.30 0.2389828
407.40 0.2394523
407.50 0.2399214
407.60 0.2403899
407.70 0.240858
407.80 0.2413256
407.90 0.2417929
408.00 0.2422664
408.10 0.242743
408.20 0.2432184
408.30 0.2436895
408.40 0.2441602
408.50 0.2446593
408.60 0.2451377
408.70 0.2456156
408.80 0.2460921
408.90 0.2465647
409.00 0.2470495
409.10 0.2475338
409.20 0.2480176
409.30 0.2485009
409.40 0.2489835
409.50 0.2494605
409.60 0.2499371
409.70 0.2504173
409.80 0.2509138
409.90 0.2514092
410.00 0.2518856
410.10 0.252366
410.20 0.2528577
410.30 0.2533518
410.40 0.2538452
410.50 0.2543377
410.60 0.2548297
410.70 0.2553215
410.80 0.2558138
410.90 0.2563056
411.00 0.2567999
411.10 0.2572948
411.20 0.2577892
411.30 0.2582822
411.40 0.258772
411.50 0.2592767
411.60 0.2597809
411.70 0.2602836
411.80 0.2607821
411.90 0.2612747
412.00 0.2617722
412.10 0.2622891
412.20 0.2627921
412.30 0.2632911
412.40 0.2637761
412.50 0.2642802
412.60 0.2647576
412.70 0.2652448
412.80 0.2657341
412.90 0.2663654
413.00 0.2668962
413.10 0.2673961
413.20 0.2678955
413.30 0.2683944
413.40 0.2688928
413.50 0.269375
