# Version 2.1 - nm, norm@500 to 1, cut digits, bergeron_He_6500_75.dat_6500
# Wavelength(nm)  Flambda(ergs/cm^s/s/nm)
300.00 0.7270718
300.10 0.7276798
300.20 0.7282917
300.30 0.7288974
300.40 0.7294685
300.50 0.7300387
300.60 0.730608
300.70 0.7311763
300.80 0.7317437
300.90 0.7323102
301.00 0.7328758
301.10 0.7334405
301.20 0.7340042
301.30 0.7345671
301.40 0.735129
301.50 0.7356901
301.60 0.7362502
301.70 0.7368094
301.80 0.7373677
301.90 0.7379252
302.00 0.7384817
302.10 0.7390559
302.20 0.7396312
302.30 0.7402057
302.40 0.7407792
302.50 0.7413517
302.60 0.7419234
302.70 0.7424941
302.80 0.743064
302.90 0.7436329
303.00 0.7442009
303.10 0.744768
303.20 0.7453342
303.30 0.7459002
303.40 0.7464722
303.50 0.7470433
303.60 0.7476134
303.70 0.7481827
303.80 0.748751
303.90 0.7493184
304.00 0.7498849
304.10 0.7504505
304.20 0.7510152
304.30 0.751579
304.40 0.7521419
304.50 0.7527039
304.60 0.7532739
304.70 0.753844
304.80 0.7544131
304.90 0.7549814
305.00 0.7555487
305.10 0.7561152
305.20 0.7566807
305.30 0.7572453
305.40 0.7578091
305.50 0.7583719
305.60 0.7589338
305.70 0.7594949
305.80 0.760055
305.90 0.7606143
306.00 0.7611726
306.10 0.7617301
306.20 0.7622866
306.30 0.7628423
306.40 0.7633943
306.50 0.7639446
306.60 0.764494
306.70 0.7650425
306.80 0.7655901
306.90 0.7661368
307.00 0.7666827
307.10 0.7672277
307.20 0.7677719
307.30 0.7683151
307.40 0.7688575
307.50 0.769399
307.60 0.7699397
307.70 0.7704795
307.80 0.7710184
307.90 0.7715565
308.00 0.7720937
308.10 0.77263
308.20 0.7731655
308.30 0.7737002
308.40 0.7742339
308.50 0.7747669
308.60 0.7752989
308.70 0.7758301
308.80 0.7763612
308.90 0.7768935
309.00 0.7774096
309.10 0.7779249
309.20 0.7784394
309.30 0.7789531
309.40 0.7794705
309.50 0.7800157
309.60 0.78056
309.70 0.7811035
309.80 0.7816461
309.90 0.7821878
310.00 0.7827287
310.10 0.7832687
310.20 0.7838078
310.30 0.7843461
310.40 0.7848807
310.50 0.7854114
310.60 0.7859413
310.70 0.7864704
310.80 0.7869985
310.90 0.7875259
311.00 0.7880514
311.10 0.7885761
311.20 0.7890999
311.30 0.7896278
311.40 0.7901687
311.50 0.7907088
311.60 0.791248
311.70 0.7917864
311.80 0.7923239
311.90 0.7928606
312.00 0.7933964
312.10 0.7939314
312.20 0.7943846
312.30 0.7947973
312.40 0.7952801
312.50 0.795996
312.60 0.7965136
312.70 0.7970304
312.80 0.7975464
312.90 0.7980611
313.00 0.7985745
313.10 0.7990871
313.20 0.7995988
313.30 0.8001075
313.40 0.800609
313.50 0.8011097
313.60 0.8016096
313.70 0.8021087
313.80 0.802607
313.90 0.8031045
314.00 0.8036012
314.10 0.8041324
314.20 0.8046627
314.30 0.8051923
314.40 0.8057209
314.50 0.8062488
314.60 0.8067758
314.70 0.807302
314.80 0.8078085
314.90 0.8082858
315.00 0.8087894
315.10 0.8092786
315.20 0.809767
315.30 0.8102547
315.40 0.8107416
315.50 0.8112277
315.60 0.8117131
315.70 0.81226
315.80 0.8128062
315.90 0.8133514
316.00 0.8138958
316.10 0.8143771
316.20 0.8148577
316.30 0.8153374
316.40 0.8158164
316.50 0.8162946
316.60 0.8167721
316.70 0.8172488
316.80 0.8177247
316.90 0.8182618
317.00 0.8187981
317.10 0.8193335
317.20 0.8198681
317.30 0.8203457
317.40 0.8208205
317.50 0.8212887
317.60 0.821756
317.70 0.8222227
317.80 0.8226885
317.90 0.823305
318.00 0.8236485
318.10 0.8241759
318.20 0.8247025
318.30 0.8252282
318.40 0.8257372
318.50 0.8262
318.60 0.8267258
318.70 0.827187
318.80 0.8275741
318.90 0.8281073
319.00 0.8287473
319.10 0.8292055
319.20 0.829661
319.30 0.8301099
319.40 0.8305582
319.50 0.8310057
319.60 0.8315002
319.70 0.8320106
319.80 0.8325203
319.90 0.8330292
320.00 0.8335101
320.10 0.8339608
320.20 0.8344051
320.30 0.8349765
320.40 0.8353281
320.50 0.8358728
320.60 0.8364457
320.70 0.836892
320.80 0.8373375
320.90 0.8377823
321.00 0.8382264
321.10 0.8386698
321.20 0.839151
321.30 0.8396296
321.40 0.8401075
321.50 0.8405846
321.60 0.8410609
321.70 0.8415366
321.80 0.8420001
321.90 0.8424506
322.00 0.8429352
322.10 0.8434262
322.20 0.8439164
322.30 0.8444058
322.40 0.8448945
322.50 0.8453824
322.60 0.8458696
322.70 0.8463559
322.80 0.8468492
322.90 0.8472998
323.00 0.8477497
323.10 0.8481988
323.20 0.8486472
323.30 0.8490949
323.40 0.8495419
323.50 0.8499881
323.60 0.8504337
323.70 0.8508785
323.80 0.8513226
323.90 0.851766
324.00 0.8522545
324.10 0.8527421
324.20 0.853229
324.30 0.8536885
324.40 0.8541081
324.50 0.8545665
324.60 0.8550241
324.70 0.8554809
324.80 0.8559371
324.90 0.8563925
325.00 0.8568472
325.10 0.8573012
325.20 0.8577556
325.30 0.8582115
325.40 0.8586667
325.50 0.8591319
325.60 0.8596094
325.70 0.8600861
325.80 0.8605621
325.90 0.8610088
326.00 0.8614239
326.10 0.8618384
326.20 0.8622521
326.30 0.8627098
326.40 0.8632935
326.50 0.8637294
326.60 0.8641645
326.70 0.864599
326.80 0.8650328
326.90 0.8654659
327.00 0.8658983
327.10 0.86633
327.20 0.866761
327.30 0.8671913
327.40 0.8676209
327.50 0.8680499
327.60 0.8684781
327.70 0.8689057
327.80 0.8693326
327.90 0.8698391
328.00 0.8703525
328.10 0.8707686
328.20 0.871184
328.30 0.8715988
328.40 0.8720129
328.50 0.8724507
328.60 0.8728936
328.70 0.8733357
328.80 0.8737776
328.90 0.8742203
329.00 0.8746623
329.10 0.8751035
329.20 0.8755441
329.30 0.8759839
329.40 0.8764231
329.50 0.8768616
329.60 0.8772994
329.70 0.8777365
329.80 0.8781729
329.90 0.8786086
330.00 0.8790227
330.10 0.8794105
330.20 0.8797978
330.30 0.8801844
330.40 0.8805957
330.50 0.8810336
330.60 0.8814708
330.70 0.8819074
330.80 0.8823433
330.90 0.8827785
331.00 0.883213
331.10 0.8836468
331.20 0.8840799
331.30 0.8845123
331.40 0.8849441
331.50 0.8853502
331.60 0.8857252
331.70 0.8860995
331.80 0.8865173
331.90 0.8869363
332.00 0.8873545
332.10 0.8877722
332.20 0.8881891
332.30 0.8886054
332.40 0.8890211
332.50 0.8894361
332.60 0.8898504
332.70 0.890264
332.80 0.890677
332.90 0.8910894
333.00 0.8915011
333.10 0.8919203
333.20 0.8923488
333.30 0.8927766
333.40 0.8932038
333.50 0.8936303
333.60 0.8940561
333.70 0.8944812
333.80 0.8949057
333.90 0.8953295
334.00 0.8957527
334.10 0.8961618
334.20 0.8965539
334.30 0.8969454
334.40 0.8973362
334.50 0.8977264
334.60 0.898116
334.70 0.898473
334.80 0.8988222
334.90 0.899217
335.00 0.8996112
335.10 0.9001119
335.20 0.9004608
335.30 0.9009087
335.40 0.9012564
335.50 0.9016035
335.60 0.902171
335.70 0.9024672
335.80 0.9029228
335.90 0.903353
336.00 0.9037521
336.10 0.9041506
336.20 0.9045485
336.30 0.9049375
336.40 0.9053158
336.50 0.9056935
336.60 0.9060706
336.70 0.906447
336.80 0.9068229
336.90 0.9072022
337.00 0.9075859
337.10 0.907969
337.20 0.9083514
337.30 0.9087471
337.40 0.9091621
337.50 0.9095765
337.60 0.9099902
337.70 0.9104032
337.80 0.9108156
337.90 0.9111987
338.00 0.9115461
338.10 0.9118929
338.20 0.9122391
338.30 0.9125848
338.40 0.9129431
338.50 0.9133331
338.60 0.9137225
338.70 0.9141113
338.80 0.9144995
338.90 0.914887
339.00 0.915274
339.10 0.9156603
339.20 0.916046
339.30 0.9164588
339.40 0.9169107
339.50 0.9173257
339.60 0.9176956
339.70 0.9180649
339.80 0.9184337
339.90 0.9188018
340.00 0.9191693
340.10 0.9195363
340.20 0.9199026
340.30 0.9202684
340.40 0.9206336
340.50 0.9209982
340.60 0.9213622
340.70 0.9217256
340.80 0.9220765
340.90 0.9224096
341.00 0.9227584
341.10 0.9231264
341.20 0.9234938
341.30 0.9238606
341.40 0.9242269
341.50 0.9245925
341.60 0.9249576
341.70 0.9253221
341.80 0.9256845
341.90 0.9260447
342.00 0.9264043
342.10 0.9267634
342.20 0.9271543
342.30 0.9275584
342.40 0.9279223
342.50 0.9282704
342.60 0.9286178
342.70 0.9289647
342.80 0.9293111
342.90 0.9296569
343.00 0.9300269
343.10 0.9304267
343.20 0.9308259
343.30 0.9312244
343.40 0.9315974
343.50 0.9319338
343.60 0.9322696
343.70 0.9326049
343.80 0.9329397
343.90 0.9332739
344.00 0.9336148
344.10 0.9339654
344.20 0.9343155
344.30 0.934665
344.40 0.9350354
344.50 0.9354362
344.60 0.9356698
344.70 0.9361741
344.80 0.9364684
344.90 0.9367622
345.00 0.9371789
345.10 0.9374716
345.20 0.9377974
345.30 0.9381709
345.40 0.9385438
345.50 0.938865
345.60 0.9391646
345.70 0.9395237
345.80 0.9398821
345.90 0.94024
346.00 0.9405974
346.10 0.9409541
346.20 0.9413075
346.30 0.9416562
346.40 0.9420043
346.50 0.9423519
346.60 0.9426989
346.70 0.9430454
346.80 0.9433913
346.90 0.9437366
347.00 0.9440814
347.10 0.9444257
347.20 0.9447636
347.30 0.9450928
347.40 0.9454213
347.50 0.9457494
347.60 0.9460769
347.70 0.9464039
347.80 0.9467304
347.90 0.9470563
348.00 0.9473817
348.10 0.9477066
348.20 0.9480309
348.30 0.9483547
348.40 0.948678
348.50 0.9490008
348.60 0.949323
348.70 0.9496777
348.80 0.9500274
348.90 0.9503551
349.00 0.9506823
349.10 0.9510089
349.20 0.951335
349.30 0.9516606
349.40 0.9519856
349.50 0.9523101
349.60 0.9526341
349.70 0.9529575
349.80 0.9532805
349.90 0.9536029
350.00 0.9539248
350.10 0.9542461
350.20 0.954567
350.30 0.9548862
350.40 0.9552033
350.50 0.9555199
350.60 0.9558359
350.70 0.9561515
350.80 0.9564665
350.90 0.9567811
351.00 0.9570951
351.10 0.9574086
351.20 0.9577216
351.30 0.958034
351.40 0.9583486
351.50 0.9586674
351.60 0.9589856
351.70 0.9593033
351.80 0.9596205
351.90 0.9599371
352.00 0.9602533
352.10 0.9605689
352.20 0.9608366
352.30 0.9611216
352.40 0.9614392
352.50 0.9617562
352.60 0.9620728
352.70 0.9623888
352.80 0.9627043
352.90 0.9630193
353.00 0.9633338
353.10 0.9636478
353.20 0.9639612
353.30 0.9642742
353.40 0.9645866
353.50 0.9648942
353.60 0.9652002
353.70 0.9655057
353.80 0.9658107
353.90 0.9661128
354.00 0.9664102
354.10 0.966707
354.20 0.9670034
354.30 0.9672993
354.40 0.9675947
354.50 0.9678896
354.60 0.968184
354.70 0.968478
354.80 0.9687581
354.90 0.9690187
355.00 0.9692788
355.10 0.9695384
355.20 0.9697976
355.30 0.9701208
355.40 0.9704434
355.50 0.9707655
355.60 0.9710871
355.70 0.9713924
355.80 0.9716901
355.90 0.9719364
356.00 0.9722051
356.10 0.9725017
356.20 0.9727978
356.30 0.9730935
356.40 0.9733887
356.50 0.9736833
356.60 0.9739775
356.70 0.9742712
356.80 0.9745645
356.90 0.9748572
357.00 0.9751495
357.10 0.9754413
357.20 0.9757326
357.30 0.9760234
357.40 0.9763049
357.50 0.97657
357.60 0.9768347
357.70 0.977099
357.80 0.9773481
357.90 0.9775967
358.00 0.977879
358.10 0.9781694
358.20 0.9784593
358.30 0.9787487
358.40 0.9790376
358.50 0.9793261
358.60 0.9796141
358.70 0.9799016
358.80 0.9801886
358.90 0.9804752
359.00 0.9807422
359.10 0.9809748
359.20 0.9812135
359.30 0.9814947
359.40 0.9817754
359.50 0.9820547
359.60 0.9823333
359.70 0.9826115
359.80 0.9828663
359.90 0.9831207
360.00 0.9833826
360.10 0.9836585
360.20 0.9839339
360.30 0.9842088
360.40 0.9844832
360.50 0.9847572
360.60 0.9850862
360.70 0.985353
360.80 0.9856193
360.90 0.9858851
361.00 0.9861039
361.10 0.9863302
361.20 0.9866743
361.30 0.9868526
361.40 0.9870781
361.50 0.9873985
361.60 0.9876556
361.70 0.9879655
361.80 0.9882343
361.90 0.9884304
362.00 0.9886261
362.10 0.9889665
362.20 0.9892951
362.30 0.989539
362.40 0.9897824
362.50 0.9900255
362.60 0.9902681
362.70 0.9905103
362.80 0.9908466
362.90 0.9910526
363.00 0.9912583
363.10 0.9914878
363.20 0.9917171
363.30 0.9920804
363.40 0.9922882
363.50 0.9924956
363.60 0.9927968
363.70 0.992972
363.80 0.9933037
363.90 0.9935632
364.00 0.9938222
364.10 0.9940809
364.20 0.9943391
364.30 0.9945373
364.40 0.9947203
364.50 0.9951186
364.60 0.995319
364.70 0.9955192
364.80 0.9957189
364.90 0.9960143
365.00 0.9963091
365.10 0.9965101
365.20 0.9968041
365.30 0.9970043
365.40 0.9972974
365.50 0.9974968
365.60 0.9976959
365.70 0.9979116
365.80 0.9981268
365.90 0.9983942
366.00 0.9986744
366.10 0.9989044
366.20 0.999134
366.30 0.9993632
366.40 0.999592
366.50 0.9998339
366.60 1.000037
366.70 1.000333
366.80 1.000628
366.90 1.000896
367.00 1.001115
367.10 1.001333
367.20 1.001551
367.30 1.001769
367.40 1.001986
367.50 1.002249
367.60 1.002522
367.70 1.002752
367.80 1.002981
367.90 1.00321
368.00 1.003376
368.10 1.003648
368.20 1.003874
368.30 1.004098
368.40 1.004322
368.50 1.004546
368.60 1.004769
368.70 1.004992
368.80 1.005214
368.90 1.005395
369.00 1.005627
369.10 1.00589
369.20 1.006083
369.30 1.006329
369.40 1.006574
369.50 1.006819
369.60 1.007
369.70 1.00718
369.80 1.007421
369.90 1.007663
370.00 1.007905
370.10 1.008093
370.20 1.008364
370.30 1.008636
370.40 1.008816
370.50 1.008997
370.60 1.009177
370.70 1.009366
370.80 1.009632
370.90 1.009897
371.00 1.010081
371.10 1.010263
371.20 1.010527
371.30 1.010791
371.40 1.010894
371.50 1.011122
371.60 1.01135
371.70 1.011577
371.80 1.011804
371.90 1.012031
372.00 1.012162
372.10 1.012389
372.20 1.012593
372.30 1.012797
372.40 1.013001
372.50 1.013204
372.60 1.013407
372.70 1.01361
372.80 1.013868
372.90 1.014126
373.00 1.014302
373.10 1.014477
373.20 1.014648
373.30 1.014819
373.40 1.015078
373.50 1.015248
373.60 1.015507
373.70 1.015677
373.80 1.015901
373.90 1.016192
374.00 1.016361
374.10 1.016529
374.20 1.016696
374.30 1.016863
374.40 1.017097
374.50 1.017366
374.60 1.017535
374.70 1.017703
374.80 1.01787
374.90 1.018038
375.00 1.018261
375.10 1.018485
375.20 1.018708
375.30 1.018897
375.40 1.019086
375.50 1.019274
375.60 1.019463
375.70 1.01965
375.80 1.019838
375.90 1.020025
376.00 1.020179
376.10 1.020365
376.20 1.02055
376.30 1.020735
376.40 1.02092
376.50 1.021129
376.60 1.021373
376.70 1.021617
376.80 1.021815
376.90 1.021967
377.00 1.022119
377.10 1.02227
377.20 1.022436
377.30 1.022656
377.40 1.022876
377.50 1.023096
377.60 1.023275
377.70 1.023454
377.80 1.023632
377.90 1.02381
378.00 1.02404
378.10 1.024225
378.20 1.024408
378.30 1.024591
378.40 1.024774
378.50 1.024956
378.60 1.025138
378.70 1.02532
378.80 1.025501
378.90 1.025654
379.00 1.025755
379.10 1.025975
379.20 1.026196
379.30 1.02637
379.40 1.026498
379.50 1.026626
379.60 1.026777
379.70 1.026959
379.80 1.027132
379.90 1.027304
380.00 1.027476
380.10 1.027648
380.20 1.02782
380.30 1.027991
380.40 1.028162
380.50 1.028332
380.60 1.028596
380.70 1.028758
380.80 1.028919
380.90 1.029081
381.00 1.029242
381.10 1.029452
381.20 1.029589
381.30 1.029773
381.40 1.029896
381.50 1.030058
381.60 1.030226
381.70 1.030386
381.80 1.030567
381.90 1.03071
382.00 1.030852
382.10 1.03108
382.20 1.031239
382.30 1.03138
382.40 1.031528
382.50 1.031685
382.60 1.031842
382.70 1.032001
382.80 1.032169
382.90 1.032342
383.00 1.032514
383.10 1.032687
383.20 1.032847
383.30 1.032964
383.40 1.033108
383.50 1.033294
383.60 1.033494
383.70 1.033646
383.80 1.033797
383.90 1.033948
384.00 1.034099
384.10 1.03425
384.20 1.0344
384.30 1.03455
384.40 1.034709
384.50 1.034877
384.60 1.035045
384.70 1.035212
384.80 1.035354
384.90 1.03545
385.00 1.035632
385.10 1.035813
385.20 1.035918
385.30 1.036061
385.40 1.036215
385.50 1.03638
385.60 1.036545
385.70 1.036709
385.80 1.03687
385.90 1.037017
386.00 1.037177
386.10 1.037344
386.20 1.037451
386.30 1.037558
386.40 1.037672
386.50 1.037844
386.60 1.038018
386.70 1.038147
386.80 1.038275
386.90 1.038445
387.00 1.038623
387.10 1.038751
387.20 1.038899
387.30 1.039005
387.40 1.03913
387.50 1.039306
387.60 1.039359
387.70 1.039526
387.80 1.039694
387.90 1.039861
388.00 1.040001
388.10 1.04008
388.20 1.040305
388.30 1.04045
388.40 1.040595
388.50 1.040705
388.60 1.040766
388.70 1.040882
388.80 1.041099
388.90 1.041283
389.00 1.041289
389.10 1.041511
389.20 1.041648
389.30 1.04172
389.40 1.041858
389.50 1.042003
389.60 1.042132
389.70 1.042203
389.80 1.042337
389.90 1.04247
390.00 1.042604
390.10 1.042737
390.20 1.042869
390.30 1.042997
390.40 1.04312
390.50 1.043243
390.60 1.043365
390.70 1.043487
390.80 1.043649
390.90 1.043851
391.00 1.044012
391.10 1.04411
391.20 1.044214
391.30 1.044335
391.40 1.044451
391.50 1.044567
391.60 1.044683
391.70 1.044798
391.80 1.044913
391.90 1.045008
392.00 1.045119
392.10 1.045286
392.20 1.04544
392.30 1.045511
392.40 1.045635
392.50 1.045788
392.60 1.045901
392.70 1.046014
392.80 1.046127
392.90 1.046261
393.00 1.046415
393.10 1.04652
393.20 1.046576
393.30 1.046687
393.40 1.046821
393.50 1.046951
393.60 1.047097
393.70 1.047145
393.80 1.04724
393.90 1.04735
394.00 1.047472
394.10 1.047657
394.20 1.047776
394.30 1.047848
394.40 1.047904
394.50 1.048107
394.60 1.048201
394.70 1.048301
394.80 1.04843
394.90 1.048558
395.00 1.048691
395.10 1.048768
395.20 1.048878
395.30 1.04897
395.40 1.049062
395.50 1.049172
395.60 1.049288
395.70 1.049404
395.80 1.049523
395.90 1.049642
396.00 1.049755
396.10 1.04982
396.20 1.049924
396.30 1.049964
396.40 1.050147
396.50 1.050145
396.60 1.050354
396.70 1.050437
396.80 1.050537
396.90 1.05065
397.00 1.050737
397.10 1.050865
397.20 1.050924
397.30 1.051059
397.40 1.051174
397.50 1.051289
397.60 1.051401
397.70 1.051486
397.80 1.051571
397.90 1.051656
398.00 1.051745
398.10 1.051834
398.20 1.051935
398.30 1.052049
398.40 1.052163
398.50 1.052237
398.60 1.052241
398.70 1.052325
398.80 1.052436
398.90 1.052567
399.00 1.052734
399.10 1.05273
399.20 1.052811
399.30 1.052893
399.40 1.052974
399.50 1.053055
399.60 1.053152
399.70 1.053254
399.80 1.053357
399.90 1.053459
400.00 1.05356
400.10 1.053632
400.20 1.053749
400.30 1.053853
400.40 1.05394
400.50 1.054016
400.60 1.054098
400.70 1.054192
400.80 1.054271
400.90 1.054312
401.00 1.054503
401.10 1.054523
401.20 1.05457
401.30 1.054722
401.40 1.054809
401.50 1.054856
401.60 1.054902
401.70 1.05497
401.80 1.055089
401.90 1.05518
402.00 1.055267
402.10 1.055341
402.20 1.055452
402.30 1.055545
402.40 1.055619
402.50 1.055702
402.60 1.055808
402.70 1.055881
402.80 1.055894
402.90 1.055937
403.00 1.056026
403.10 1.056084
403.20 1.05619
403.30 1.056255
403.40 1.05637
403.50 1.056479
403.60 1.056575
403.70 1.056612
403.80 1.056717
403.90 1.056801
404.00 1.056895
404.10 1.056959
404.20 1.056969
404.30 1.056979
404.40 1.057079
404.50 1.057227
404.60 1.057237
404.70 1.057322
404.80 1.057425
404.90 1.057492
405.00 1.057598
405.10 1.057683
405.20 1.057756
405.30 1.057829
405.40 1.057888
405.50 1.057946
405.60 1.058005
405.70 1.058063
405.80 1.058121
405.90 1.058178
406.00 1.058234
406.10 1.05829
406.20 1.058345
406.30 1.058401
406.40 1.058454
406.50 1.058522
406.60 1.058602
406.70 1.058702
406.80 1.058769
406.90 1.058862
407.00 1.058913
407.10 1.058963
407.20 1.059013
407.30 1.059064
407.40 1.059113
407.50 1.059163
407.60 1.059213
407.70 1.059262
407.80 1.059311
407.90 1.059363
408.00 1.059497
408.10 1.059575
408.20 1.059598
408.30 1.059662
408.40 1.059726
408.50 1.059812
408.60 1.059861
408.70 1.05991
408.80 1.059952
408.90 1.059961
409.00 1.060013
409.10 1.060066
409.20 1.060119
409.30 1.060171
409.40 1.060223
409.50 1.060282
409.60 1.060341
409.70 1.060407
409.80 1.060505
409.90 1.0606
410.00 1.060658
410.10 1.060634
410.20 1.060677
410.30 1.060738
410.40 1.0608
410.50 1.060866
410.60 1.060932
410.70 1.060989
410.80 1.061009
410.90 1.06103
411.00 1.061085
411.10 1.061153
411.20 1.061221
411.30 1.061272
411.40 1.061261
411.50 1.061316
411.60 1.061372
411.70 1.06143
411.80 1.061502
411.90 1.061529
412.00 1.061527
412.10 1.061634
412.20 1.061669
412.30 1.061693
412.40 1.061684
412.50 1.061838
412.60 1.061845
412.70 1.06189
412.80 1.061944
412.90 1.062029
413.00 1.062068
413.10 1.062104
413.20 1.062139
413.30 1.062174
413.40 1.06221
413.50 1.062226
413.60 1.062197
413.70 1.062265
413.80 1.062333
413.90 1.062401
414.00 1.062451
414.10 1.062446
414.20 1.062493
414.30 1.062546
414.40 1.062511
414.50 1.062542
414.60 1.062581
414.70 1.062647
414.80 1.062705
414.90 1.062734
415.00 1.062764
415.10 1.062794
415.20 1.062823
415.30 1.06285
415.40 1.062878
415.50 1.062906
415.60 1.062963
415.70 1.063019
415.80 1.063064
415.90 1.063073
416.00 1.063083
416.10 1.063098
416.20 1.063138
416.30 1.063179
416.40 1.063219
416.50 1.063257
416.60 1.063249
416.70 1.063247
416.80 1.063312
416.90 1.063295
417.00 1.063387
417.10 1.063349
417.20 1.063412
417.30 1.063473
417.40 1.063519
417.50 1.063564
417.60 1.063596
417.70 1.063576
417.80 1.063589
417.90 1.063603
418.00 1.063616
418.10 1.063629
418.20 1.063643
418.30 1.063656
418.40 1.063688
418.50 1.063719
418.60 1.063751
418.70 1.063782
418.80 1.063813
418.90 1.063844
419.00 1.063875
419.10 1.063906
419.20 1.063937
419.30 1.063966
419.40 1.063959
419.50 1.063951
419.60 1.063949
419.70 1.063967
419.80 1.063985
419.90 1.064003
420.00 1.064021
420.10 1.064039
420.20 1.064057
420.30 1.064075
420.40 1.064093
420.50 1.064111
420.60 1.064129
420.70 1.064146
420.80 1.064163
