# Version 2.1 - nm, norm@500 to 1, cut digits, bergeron_He_20000_80.dat_20000
# Wavelength(nm)  Flambda(ergs/cm^s/s/nm)
300.00 4.105401
300.10 4.102722
300.20 4.099989
300.30 4.097206
300.40 4.094067
300.50 4.090932
300.60 4.0878
300.70 4.084671
300.80 4.081546
300.90 4.078424
301.00 4.075305
301.10 4.072189
301.20 4.069076
301.30 4.065967
301.40 4.062861
301.50 4.059758
301.60 4.056659
301.70 4.053562
301.80 4.050469
301.90 4.047379
302.00 4.044293
302.10 4.040787
302.20 4.037238
302.30 4.033693
302.40 4.030152
302.50 4.026615
302.60 4.023081
302.70 4.019551
302.80 4.016025
302.90 4.012503
303.00 4.008985
303.10 4.00547
303.20 4.001959
303.30 3.998459
303.40 3.995027
303.50 3.991598
303.60 3.988173
303.70 3.984752
303.80 3.981334
303.90 3.97792
304.00 3.97451
304.10 3.971103
304.20 3.9677
304.30 3.9643
304.40 3.960904
304.50 3.957512
304.60 3.954014
304.70 3.950508
304.80 3.947005
304.90 3.943506
305.00 3.940011
305.10 3.93652
305.20 3.933032
305.30 3.929548
305.40 3.926068
305.50 3.922591
305.60 3.919118
305.70 3.915649
305.80 3.912184
305.90 3.908722
306.00 3.905264
306.10 3.90181
306.20 3.898359
306.30 3.894912
306.40 3.891478
306.50 3.888051
306.60 3.884627
306.70 3.881207
306.80 3.877791
306.90 3.874378
307.00 3.870969
307.10 3.867563
307.20 3.864161
307.30 3.860763
307.40 3.857368
307.50 3.853977
307.60 3.85059
307.70 3.847206
307.80 3.843825
307.90 3.840449
308.00 3.837075
308.10 3.833706
308.20 3.83034
308.30 3.826977
308.40 3.823618
308.50 3.820263
308.60 3.816911
308.70 3.813563
308.80 3.810169
308.90 3.806639
309.00 3.803073
309.10 3.799512
309.20 3.795954
309.30 3.7924
309.40 3.788848
309.50 3.785295
309.60 3.781746
309.70 3.7782
309.80 3.774658
309.90 3.77112
310.00 3.767585
310.10 3.764055
310.20 3.760528
310.30 3.757005
310.40 3.753548
310.50 3.750163
310.60 3.746781
310.70 3.743403
310.80 3.740028
310.90 3.736657
311.00 3.732841
311.10 3.729029
311.20 3.725221
311.30 3.721481
311.40 3.717927
311.50 3.714376
311.60 3.71083
311.70 3.707287
311.80 3.703749
311.90 3.700214
312.00 3.696682
312.10 3.693155
312.20 3.689207
312.30 3.685024
312.40 3.68121
312.50 3.677263
312.60 3.673504
312.70 3.669749
312.80 3.665998
312.90 3.662182
313.00 3.658296
313.10 3.654415
313.20 3.650537
313.30 3.646552
313.40 3.642253
313.50 3.637959
313.60 3.633669
313.70 3.629384
313.80 3.625104
313.90 3.620829
314.00 3.616558
314.10 3.611577
314.20 3.606601
314.30 3.601631
314.40 3.596667
314.50 3.591708
314.60 3.586755
314.70 3.581807
314.80 3.576698
314.90 3.571035
315.00 3.565286
315.10 3.558945
315.20 3.552612
315.30 3.546287
315.40 3.539968
315.50 3.533657
315.60 3.527354
315.70 3.52095
315.80 3.514554
315.90 3.508166
316.00 3.501785
316.10 3.49637
316.20 3.490963
316.30 3.490672
316.40 3.485273
316.50 3.465841
316.60 3.428575
316.70 3.399642
316.80 3.370744
316.90 3.367344
317.00 3.363947
317.10 3.360555
317.20 3.357165
317.30 3.371106
317.40 3.380391
317.50 3.376476
317.60 3.372565
317.70 3.368658
317.80 3.364755
317.90 3.338502
318.00 3.303403
318.10 3.246995
318.20 3.190658
318.30 3.134391
318.40 3.054421
318.50 2.906934
318.60 2.73196
318.70 2.336569
318.80 1.802668
318.90 2.289575
319.00 2.554042
319.10 2.720693
319.20 2.863095
319.30 2.936942
319.40 3.010696
319.50 3.084357
319.60 3.140567
319.70 3.172688
319.80 3.204768
319.90 3.236807
320.00 3.262963
320.10 3.282761
320.20 3.300271
320.30 3.314304
320.40 3.326558
320.50 3.335809
320.60 3.344003
320.70 3.35062
320.80 3.355737
320.90 3.359232
321.00 3.362723
321.10 3.366209
321.20 3.368866
321.30 3.369126
321.40 3.369385
321.50 3.369644
321.60 3.369901
321.70 3.370157
321.80 3.370086
321.90 3.369659
322.00 3.369199
322.10 3.367873
322.20 3.366549
322.30 3.365226
322.40 3.363903
322.50 3.362582
322.60 3.361262
322.70 3.359942
322.80 3.358286
322.90 3.356315
323.00 3.354346
323.10 3.352379
323.20 3.350413
323.30 3.34845
323.40 3.346488
323.50 3.344528
323.60 3.342569
323.70 3.340613
323.80 3.338658
323.90 3.336705
324.00 3.334646
324.10 3.332588
324.20 3.330533
324.30 3.328074
324.40 3.324998
324.50 3.322503
324.60 3.32001
324.70 3.317519
324.80 3.315031
324.90 3.312545
325.00 3.310062
325.10 3.307581
325.20 3.305111
325.30 3.302658
325.40 3.300208
325.50 3.297675
325.60 3.295042
325.70 3.292412
325.80 3.289785
325.90 3.287177
326.00 3.28459
326.10 3.282006
326.20 3.279425
326.30 3.276746
326.40 3.273786
326.50 3.27112
326.60 3.268457
326.70 3.265797
326.80 3.263139
326.90 3.260484
327.00 3.257831
327.10 3.255181
327.20 3.252533
327.30 3.249889
327.40 3.247247
327.50 3.244607
327.60 3.24197
327.70 3.239336
327.80 3.236704
327.90 3.23439
328.00 3.23138
328.10 3.227107
328.20 3.222839
328.30 3.218575
328.40 3.214316
328.50 3.211922
328.60 3.209968
328.70 3.208015
328.80 3.205986
328.90 3.203736
329.00 3.201489
329.10 3.199244
329.20 3.197001
329.30 3.19476
329.40 3.192521
329.50 3.190284
329.60 3.18805
329.70 3.185818
329.80 3.183587
329.90 3.181359
330.00 3.179001
330.10 3.176484
330.20 3.17397
330.30 3.171458
330.40 3.168926
330.50 3.166372
330.60 3.16382
330.70 3.161271
330.80 3.158725
330.90 3.156181
331.00 3.153639
331.10 3.1511
331.20 3.148563
331.30 3.146029
331.40 3.143498
331.50 3.140833
331.60 3.138005
331.70 3.13518
331.80 3.132428
331.90 3.129681
332.00 3.126938
332.10 3.124197
332.20 3.121459
332.30 3.118723
332.40 3.11599
332.50 3.11326
332.60 3.110533
332.70 3.107809
332.80 3.105087
332.90 3.102368
333.00 3.099651
333.10 3.096699
333.20 3.093459
333.30 3.090222
333.40 3.086988
333.50 3.083758
333.60 3.08053
333.70 3.077307
333.80 3.074086
333.90 3.070869
334.00 3.067655
334.10 3.064204
334.20 3.060463
334.30 3.056725
334.40 3.052992
334.50 3.049262
334.60 3.045537
334.70 3.041189
334.80 3.035647
334.90 3.029483
335.00 3.023327
335.10 3.017052
335.20 3.012407
335.30 3.006631
335.40 3.001997
335.50 3.003473
335.60 3.005515
335.70 3.00656
335.80 3.007605
335.90 3.00801
336.00 3.007635
336.10 3.00726
336.20 3.006885
336.30 3.006044
336.40 3.004634
336.50 3.003225
336.60 3.001817
336.70 3.00041
336.80 2.999004
336.90 2.99743
337.00 2.995652
337.10 2.993875
337.20 2.992099
337.30 2.990248
337.40 2.988287
337.50 2.986329
337.60 2.984371
337.70 2.982416
337.80 2.980463
337.90 2.978498
338.00 2.976519
338.10 2.974542
338.20 2.972566
338.30 2.970593
338.40 2.968538
338.50 2.966281
338.60 2.964027
338.70 2.961775
338.80 2.959525
338.90 2.957278
339.00 2.955032
339.10 2.952789
339.20 2.950547
339.30 2.948281
339.40 2.945978
339.50 2.943548
339.60 2.940965
339.70 2.938384
339.80 2.935806
339.90 2.93323
340.00 2.930656
340.10 2.928086
340.20 2.925517
340.30 2.922952
340.40 2.920388
340.50 2.917827
340.60 2.915269
340.70 2.912713
340.80 2.910276
340.90 2.908008
341.00 2.905499
341.10 2.902697
341.20 2.899897
341.30 2.897101
341.40 2.894307
341.50 2.891516
341.60 2.888727
341.70 2.885942
341.80 2.882956
341.90 2.879726
342.00 2.876499
342.10 2.873275
342.20 2.869817
342.30 2.866339
342.40 2.862914
342.50 2.859231
342.60 2.855552
342.70 2.851876
342.80 2.848205
342.90 2.844537
343.00 2.840686
343.10 2.836611
343.20 2.83254
343.30 2.828473
343.40 2.823771
343.50 2.818154
343.60 2.812543
343.70 2.806939
343.80 2.80134
343.90 2.795747
344.00 2.788905
344.10 2.780266
344.20 2.771636
344.30 2.763016
344.40 2.752637
344.50 2.739728
344.60 2.725951
344.70 2.711484
344.80 2.723031
344.90 2.732818
345.00 2.744333
345.10 2.750258
345.20 2.755028
345.30 2.758142
345.40 2.761252
345.50 2.763631
345.60 2.764658
345.70 2.76502
345.80 2.765382
345.90 2.765742
346.00 2.766101
346.10 2.76646
346.20 2.766147
346.30 2.76487
346.40 2.763593
346.50 2.762318
346.60 2.761043
346.70 2.75977
346.80 2.758497
346.90 2.757226
347.00 2.755955
347.10 2.754686
347.20 2.753228
347.30 2.751498
347.40 2.749769
347.50 2.748043
347.60 2.746317
347.70 2.744593
347.80 2.742871
347.90 2.74115
348.00 2.739431
348.10 2.737713
348.20 2.735997
348.30 2.734282
348.40 2.732569
348.50 2.730857
348.60 2.729147
348.70 2.727548
348.80 2.725812
348.90 2.723829
349.00 2.721849
349.10 2.71987
349.20 2.717893
349.30 2.715918
349.40 2.713944
349.50 2.711973
349.60 2.710003
349.70 2.708035
349.80 2.706069
349.90 2.704105
350.00 2.702143
350.10 2.700182
350.20 2.698223
350.30 2.696244
350.40 2.694234
350.50 2.692226
350.60 2.690219
350.70 2.688215
350.80 2.686213
350.90 2.684212
351.00 2.682213
351.10 2.680216
351.20 2.678221
351.30 2.676228
351.40 2.674305
351.50 2.672506
351.60 2.670709
351.70 2.668913
351.80 2.667119
351.90 2.665327
352.00 2.663536
352.10 2.661747
352.20 2.659585
352.30 2.657522
352.40 2.65566
352.50 2.653798
352.60 2.651939
352.70 2.650081
352.80 2.648225
352.90 2.646371
353.00 2.644518
353.10 2.642668
353.20 2.640818
353.30 2.638971
353.40 2.637125
353.50 2.635378
353.60 2.633657
353.70 2.631938
353.80 2.63022
353.90 2.628505
354.00 2.626792
354.10 2.625081
354.20 2.623371
354.30 2.621663
354.40 2.619956
354.50 2.618251
354.60 2.616547
354.70 2.614845
354.80 2.613143
354.90 2.61144
355.00 2.609739
355.10 2.60804
355.20 2.606341
355.30 2.604405
355.40 2.602469
355.50 2.600536
355.60 2.598605
355.70 2.596998
355.80 2.595539
355.90 2.59408
356.00 2.592344
356.10 2.590539
356.20 2.588736
356.30 2.586934
356.40 2.585134
356.50 2.583336
356.60 2.581539
356.70 2.579744
356.80 2.57795
356.90 2.576158
357.00 2.574368
357.10 2.572579
357.20 2.570792
357.30 2.569006
357.40 2.567132
357.50 2.565101
357.60 2.563071
357.70 2.561044
357.80 2.559158
357.90 2.557275
358.00 2.554838
358.10 2.552266
358.20 2.549696
358.30 2.547128
358.40 2.544563
358.50 2.542
358.60 2.539439
358.70 2.536882
358.80 2.534326
358.90 2.531773
359.00 2.528832
359.10 2.525201
359.20 2.521531
359.30 2.517577
359.40 2.513627
359.50 2.509459
359.60 2.505238
359.70 2.501022
359.80 2.495143
359.90 2.48927
360.00 2.482306
360.10 2.4734
360.20 2.464503
360.30 2.455615
360.40 2.446738
360.50 2.437869
360.60 2.424703
360.70 2.407144
360.80 2.389605
360.90 2.372084
361.00 2.351581
361.10 2.317595
361.20 2.27744
361.30 2.218002
361.40 2.283485
361.50 2.343319
361.60 2.367505
361.70 2.369616
361.80 2.373241
361.90 2.379556
362.00 2.385864
362.10 2.389862
362.20 2.391575
362.30 2.390255
362.40 2.388936
362.50 2.387618
362.60 2.386301
362.70 2.382826
362.80 2.378814
362.90 2.373639
363.00 2.36847
363.10 2.362743
363.20 2.357017
363.30 2.353866
363.40 2.353539
363.50 2.359017
363.60 2.368358
363.70 2.375432
363.80 2.381211
363.90 2.385879
364.00 2.390542
364.10 2.395199
364.20 2.399851
364.30 2.404864
364.40 2.409963
364.50 2.415422
364.60 2.41857
364.70 2.421715
364.80 2.424856
364.90 2.426408
365.00 2.427957
365.10 2.427587
365.20 2.425299
365.30 2.423492
365.40 2.425517
365.50 2.428018
365.60 2.430516
365.70 2.433098
365.80 2.435677
365.90 2.436825
366.00 2.437614
366.10 2.437689
366.20 2.437763
366.30 2.437837
366.40 2.437911
366.50 2.43762
366.60 2.436301
366.70 2.434972
366.80 2.433645
366.90 2.431949
367.00 2.4296
367.10 2.427253
367.20 2.424908
367.30 2.422565
367.40 2.420224
367.50 2.41702
367.60 2.413602
367.70 2.409304
367.80 2.405009
367.90 2.400719
368.00 2.396085
368.10 2.391044
368.20 2.384082
368.30 2.377105
368.40 2.370135
368.50 2.363173
368.60 2.356218
368.70 2.349269
368.80 2.342329
368.90 2.334414
369.00 2.325247
369.10 2.31621
369.20 2.306436
369.30 2.294875
369.40 2.283326
369.50 2.27179
369.60 2.257057
369.70 2.24234
369.80 2.225734
369.90 2.209125
370.00 2.192534
370.10 2.17501
370.20 2.154716
370.30 2.134438
370.40 2.114643
370.50 2.107564
370.60 2.130514
370.70 2.156624
370.80 2.176742
370.90 2.196838
371.00 2.206495
371.10 2.216036
371.20 2.224075
371.30 2.232104
371.40 2.241025
371.50 2.249652
371.60 2.258269
371.70 2.266876
371.80 2.275474
371.90 2.284063
372.00 2.291644
372.10 2.298327
372.20 2.303091
372.30 2.30785
372.40 2.312603
372.50 2.31735
372.60 2.322093
372.70 2.326829
372.80 2.329243
372.90 2.331653
373.00 2.333183
373.10 2.334701
373.20 2.332991
373.30 2.331283
373.40 2.31628
373.50 2.308166
373.60 2.3138
373.70 2.321717
373.80 2.328367
373.90 2.335696
374.00 2.339474
374.10 2.343248
374.20 2.347017
374.30 2.350783
374.40 2.352947
374.50 2.354631
374.60 2.355657
374.70 2.356682
374.80 2.357706
374.90 2.358728
375.00 2.358986
375.10 2.359243
375.20 2.359499
375.30 2.358631
375.40 2.357763
375.50 2.356896
375.60 2.356029
375.70 2.355164
375.80 2.354298
375.90 2.353434
376.00 2.352182
376.10 2.350347
376.20 2.348507
376.30 2.346669
376.40 2.344832
376.50 2.342611
376.60 2.339813
376.70 2.337017
376.80 2.334056
376.90 2.330929
377.00 2.327806
377.10 2.324685
377.20 2.321376
377.30 2.317348
377.40 2.313323
377.50 2.309303
377.60 2.304571
377.70 2.299844
377.80 2.295122
377.90 2.290404
378.00 2.285345
378.10 2.278764
378.20 2.27218
378.30 2.265602
378.40 2.259031
378.50 2.252466
378.60 2.245908
378.70 2.239357
378.80 2.232812
378.90 2.22561
379.00 2.217183
379.10 2.208541
379.20 2.199907
379.30 2.190572
379.40 2.180535
379.50 2.170509
379.60 2.160165
379.70 2.148632
379.80 2.134454
379.90 2.120291
380.00 2.106141
380.10 2.092007
380.20 2.077887
380.30 2.063782
380.40 2.049691
380.50 2.035615
380.60 2.016843
380.70 1.996136
380.80 1.97545
380.90 1.954786
381.00 1.934143
381.10 1.912221
381.20 1.887732
381.30 1.859267
381.40 1.828766
381.50 1.794471
381.60 1.757898
381.70 1.718821
381.80 1.684852
381.90 1.667753
382.00 1.640157
382.10 1.694467
382.20 1.751346
382.30 1.80073
382.40 1.842843
382.50 1.87409
382.60 1.905305
382.70 1.930668
382.80 1.94413
382.90 1.952262
383.00 1.960385
383.10 1.968499
383.20 1.977415
383.30 1.989364
383.40 2.001081
383.50 2.012457
383.60 2.023599
383.70 2.032498
383.80 2.041388
383.90 2.050269
384.00 2.059139
384.10 2.068001
384.20 2.076852
384.30 2.085695
384.40 2.093401
384.50 2.099972
384.60 2.106537
384.70 2.113094
384.80 2.119303
384.90 2.12406
385.00 2.128509
385.10 2.132937
385.20 2.136171
385.30 2.138997
385.40 2.141358
385.50 2.143255
385.60 2.14515
385.70 2.147043
385.80 2.148725
385.90 2.14962
386.00 2.150118
386.10 2.149963
386.20 2.147194
386.30 2.144429
386.40 2.140382
386.50 2.131869
386.60 2.117822
386.70 2.086374
386.80 2.004328
386.90 2.026139
387.00 2.048952
387.10 2.062355
387.20 2.07231
387.30 2.078892
387.40 2.080774
387.50 2.080962
387.60 2.078369
387.70 2.070067
387.80 2.061773
387.90 2.053488
388.00 2.042994
388.10 2.023229
388.20 1.990214
388.30 1.948272
388.40 1.906373
388.50 1.850475
388.60 1.761065
388.70 1.624915
388.80 1.365817
388.90 1.236465
389.00 1.483195
389.10 1.638966
389.20 1.740034
389.30 1.813333
389.40 1.869045
389.50 1.917918
389.60 1.95524
389.70 1.982586
389.80 2.000744
389.90 2.018884
390.00 2.037005
390.10 2.055107
390.20 2.07319
390.30 2.086312
390.40 2.093852
390.50 2.101383
390.60 2.108906
390.70 2.116422
390.80 2.122235
390.90 2.126349
391.00 2.129324
391.10 2.131887
391.20 2.134392
391.30 2.135619
391.40 2.13564
391.50 2.135662
391.60 2.135683
391.70 2.135703
391.80 2.135724
391.90 2.135588
392.00 2.134821
392.10 2.133372
392.20 2.13183
392.30 2.129474
392.40 2.127293
392.50 2.125234
392.60 2.122908
392.70 2.120583
392.80 2.11882
392.90 2.117741
393.00 2.116664
393.10 2.115587
393.20 2.114511
393.30 2.113436
393.40 2.112155
393.50 2.109793
393.60 2.106729
393.70 2.104421
393.80 2.101292
393.90 2.098165
394.00 2.094987
394.10 2.090946
394.20 2.086544
394.30 2.082028
394.40 2.076531
394.50 2.070202
394.60 2.062731
394.70 2.054797
394.80 2.045102
394.90 2.035362
395.00 2.023861
395.10 2.012065
395.20 1.997755
395.30 1.982886
395.40 1.968031
395.50 1.948503
395.60 1.92726
395.70 1.90277
395.80 1.869472
395.90 1.836207
396.00 1.801588
396.10 1.746605
396.20 1.674457
396.30 1.590842
396.40 1.434551
396.50 1.546624
396.60 1.753177
396.70 1.80553
396.80 1.797816
396.90 1.785447
397.00 1.825189
397.10 1.887106
397.20 1.918174
397.30 1.92397
397.40 1.927075
397.50 1.930177
397.60 1.933167
397.70 1.935062
397.80 1.936954
397.90 1.938227
398.00 1.937829
398.10 1.937432
398.20 1.936143
398.30 1.93385
398.40 1.931524
398.50 1.928077
398.60 1.923915
398.70 1.918581
398.80 1.913026
398.90 1.906999
399.00 1.900095
399.10 1.892025
399.20 1.883349
399.30 1.874681
399.40 1.866022
399.50 1.857371
399.60 1.847271
399.70 1.836641
399.80 1.826022
399.90 1.815413
400.00 1.804792
400.10 1.793445
400.20 1.781498
400.30 1.768373
400.40 1.754881
400.50 1.74082
400.60 1.726005
400.70 1.710412
400.80 1.693964
400.90 1.674693
401.00 1.657338
401.10 1.64216
401.20 1.625829
401.30 1.608887
401.40 1.588877
401.50 1.567817
401.60 1.546618
401.70 1.52025
401.80 1.490828
401.90 1.456399
402.00 1.42048
402.10 1.379855
402.20 1.336731
402.30 1.290166
402.40 1.241253
402.50 1.186922
402.60 1.135372
402.70 1.176283
402.80 1.234799
402.90 1.29436
403.00 1.353153
403.10 1.406851
403.20 1.45461
403.30 1.496215
403.40 1.53403
403.50 1.565682
403.60 1.595707
403.70 1.621546
403.80 1.643259
403.90 1.661148
404.00 1.678021
404.10 1.690368
404.20 1.697748
404.30 1.705121
404.40 1.705771
404.50 1.693668
404.60 1.685802
404.70 1.691604
404.80 1.70123
404.90 1.710989
405.00 1.720605
405.10 1.729779
405.20 1.738937
405.30 1.748086
405.40 1.756429
405.50 1.764764
405.60 1.77309
405.70 1.781408
405.80 1.789718
405.90 1.798019
406.00 1.804468
406.10 1.810911
406.20 1.817347
406.30 1.823777
406.40 1.830212
406.50 1.836253
406.60 1.841714
406.70 1.846799
406.80 1.851926
406.90 1.856517
407.00 1.86039
407.10 1.864259
407.20 1.868124
407.30 1.871985
407.40 1.875842
407.50 1.879695
407.60 1.883544
407.70 1.887389
407.80 1.89123
407.90 1.895038
408.00 1.897886
408.10 1.900361
408.20 1.902213
408.30 1.904279
408.40 1.906342
408.50 1.908516
408.60 1.909702
408.70 1.910886
408.80 1.91203
408.90 1.912783
409.00 1.913315
409.10 1.913846
409.20 1.914376
409.30 1.914906
409.40 1.915423
409.50 1.915565
409.60 1.915707
409.70 1.915703
409.80 1.915119
409.90 1.914525
410.00 1.913591
410.10 1.912658
410.20 1.911488
410.30 1.91026
410.40 1.908624
410.50 1.905698
410.60 1.902774
410.70 1.899577
410.80 1.895278
410.90 1.890983
411.00 1.885084
411.10 1.878595
411.20 1.872112
411.30 1.865198
411.40 1.856416
411.50 1.843508
411.60 1.830612
411.70 1.815074
411.80 1.788936
411.90 1.759205
412.00 1.692446
412.10 1.458057
412.20 1.501934
412.30 1.576153
412.40 1.622432
412.50 1.651206
412.60 1.675082
412.70 1.692289
412.80 1.707818
412.90 1.722136
413.00 1.730091
413.10 1.732821
413.20 1.735548
413.30 1.738272
413.40 1.740994
413.50 1.743001
413.60 1.741754
413.70 1.739231
413.80 1.736711
413.90 1.734193
414.00 1.730916
414.10 1.725234
414.20 1.718484
414.30 1.707747
414.40 1.69717
414.50 1.696878
414.60 1.706036
414.70 1.716736
414.80 1.727203
414.90 1.736954
415.00 1.746696
415.10 1.756428
415.20 1.765554
415.30 1.772787
415.40 1.780012
415.50 1.787187
415.60 1.792959
415.70 1.798726
415.80 1.804299
415.90 1.809266
416.00 1.814229
416.10 1.8188
416.20 1.82182
416.30 1.824837
416.40 1.827851
416.50 1.830811
416.60 1.832142
416.70 1.833461
416.80 1.832831
416.90 1.826222
417.00 1.82402
417.10 1.82931
417.20 1.833575
417.30 1.837799
417.40 1.840808
417.50 1.843814
417.60 1.846666
417.70 1.848893
417.80 1.85045
417.90 1.852004
418.00 1.853557
418.10 1.855109
418.20 1.856658
418.30 1.858189
418.40 1.859106
418.50 1.859882
418.60 1.860657
418.70 1.861431
418.80 1.862204
418.90 1.862977
419.00 1.863748
419.10 1.864518
419.20 1.865288
419.30 1.866038
419.40 1.866175
419.50 1.866312
419.60 1.866391
419.70 1.866238
419.80 1.866084
419.90 1.86589
420.00 1.86557
420.10 1.865249
420.20 1.864929
420.30 1.864609
420.40 1.864288
420.50 1.863968
420.60 1.863648
420.70 1.863329
420.80 1.863009
420.90 1.862688
421.00 1.862322
421.10 1.861956
421.20 1.861487
421.30 1.860706
421.40 1.859926
421.50 1.859146
421.60 1.858367
421.70 1.857588
421.80 1.85681
421.90 1.856007
422.00 1.855128
422.10 1.854249
422.20 1.853371
422.30 1.852493
422.40 1.851612
422.50 1.850591
422.60 1.84957
422.70 1.848551
422.80 1.847532
422.90 1.846514
423.00 1.845496
423.10 1.84448
423.20 1.843464
423.30 1.842449
423.40 1.841434
423.50 1.840421
423.60 1.839408
423.70 1.838396
423.80 1.837384
423.90 1.836374
424.00 1.835364
424.10 1.834355
424.20 1.833346
424.30 1.832339
424.40 1.830648
424.50 1.829499
424.60 1.828351
424.70 1.827203
424.80 1.826057
424.90 1.824911
