# Version 2.1 - nm, norm@500 to 1, cut digits, bergeron_He_3500_75.dat_3500
# Wavelength(nm)  Flambda(ergs/cm^s/s/nm)
300.00 0.01113058
300.10 0.0111756
300.20 0.01122078
300.30 0.01126612
300.40 0.01131287
300.50 0.01135956
300.60 0.01140618
300.70 0.01145274
300.80 0.01149923
300.90 0.01154566
301.00 0.01159203
301.10 0.01163833
301.20 0.01168456
301.30 0.01173074
301.40 0.01177685
301.50 0.01182289
301.60 0.01186887
301.70 0.01191479
301.80 0.01196065
301.90 0.01200644
302.00 0.01205217
302.10 0.01210096
302.20 0.01215003
302.30 0.01219903
302.40 0.01224797
302.50 0.01229684
302.60 0.01234564
302.70 0.01239437
302.80 0.01244304
302.90 0.01249164
303.00 0.01254017
303.10 0.01258864
303.20 0.01263704
303.30 0.01268565
303.40 0.0127367
303.50 0.01278768
303.60 0.01283859
303.70 0.01288943
303.80 0.0129402
303.90 0.01299091
304.00 0.01304154
304.10 0.0130921
304.20 0.0131426
304.30 0.01319302
304.40 0.01324338
304.50 0.01329366
304.60 0.01334687
304.70 0.01340035
304.80 0.01345375
304.90 0.01350707
305.00 0.01356032
305.10 0.01361351
305.20 0.01366661
305.30 0.01371965
305.40 0.01377261
305.50 0.0138255
305.60 0.01387832
305.70 0.01393107
305.80 0.01398374
305.90 0.01403635
306.00 0.01408888
306.10 0.01414134
306.20 0.01419372
306.30 0.01424604
306.40 0.01430249
306.50 0.01436013
306.60 0.01441768
306.70 0.01447516
306.80 0.01453255
306.90 0.01458987
307.00 0.01464712
307.10 0.01470428
307.20 0.01476137
307.30 0.01481838
307.40 0.01487531
307.50 0.01493217
307.60 0.01498895
307.70 0.01504565
307.80 0.01510227
307.90 0.01515882
308.00 0.01521529
308.10 0.01527169
308.20 0.015328
308.30 0.01538425
308.40 0.01544041
308.50 0.0154965
308.60 0.01555252
308.70 0.01560845
308.80 0.01566512
308.90 0.01572399
309.00 0.0157831
309.10 0.01584213
309.20 0.01590108
309.30 0.01595995
309.40 0.01601911
309.50 0.01608049
309.60 0.01614179
309.70 0.01620301
309.80 0.01626414
309.90 0.01632519
310.00 0.01638616
310.10 0.01644705
310.20 0.01650786
310.30 0.01656858
310.40 0.01662988
310.50 0.0166918
310.60 0.01675364
310.70 0.0168154
310.80 0.01687707
310.90 0.01693866
311.00 0.01700231
311.10 0.01706588
311.20 0.01712936
311.30 0.01719307
311.40 0.01725758
311.50 0.01732201
311.60 0.01738634
311.70 0.0174506
311.80 0.01751476
311.90 0.01757884
312.00 0.01764284
312.10 0.01770675
312.20 0.0177715
312.30 0.01783751
312.40 0.01790284
312.50 0.01796717
312.60 0.01803366
312.70 0.01810006
312.80 0.01816638
312.90 0.01823299
313.00 0.01829995
313.10 0.01836681
313.20 0.01843359
313.30 0.01850069
313.40 0.01856888
313.50 0.01863698
313.60 0.01870498
313.70 0.0187729
313.80 0.01884073
313.90 0.01890847
314.00 0.01897611
314.10 0.01904598
314.20 0.01911574
314.30 0.01918542
314.40 0.019255
314.50 0.0193245
314.60 0.0193939
314.70 0.0194632
314.80 0.0195333
314.90 0.01960463
315.00 0.01967458
315.10 0.01974624
315.20 0.0198178
315.30 0.01988927
315.40 0.01996065
315.50 0.02003193
315.60 0.02010311
315.70 0.02017623
315.80 0.02024925
315.90 0.02032217
316.00 0.020395
316.10 0.02046686
316.20 0.02053863
316.30 0.02061203
316.40 0.02068534
316.50 0.020762
316.60 0.02083511
316.70 0.02090985
316.80 0.02098449
316.90 0.02105903
317.00 0.02113347
317.10 0.02120781
317.20 0.02128206
317.30 0.02135745
317.40 0.02143312
317.50 0.02150979
317.60 0.02158635
317.70 0.02166281
317.80 0.02173918
317.90 0.02181552
318.00 0.02189288
318.10 0.0219705
318.20 0.02204803
318.30 0.02212546
318.40 0.022203
318.50 0.02228108
318.60 0.02235949
318.70 0.02243906
318.80 0.02251802
318.90 0.02259789
319.00 0.02267715
319.10 0.0227563
319.20 0.0228356
319.30 0.02291549
319.40 0.02299527
319.50 0.02307495
319.60 0.02315462
319.70 0.02323588
319.80 0.02331704
319.90 0.02339809
320.00 0.02347934
320.10 0.02356083
320.20 0.02364388
320.30 0.02372525
320.40 0.02380911
320.50 0.02389085
320.60 0.02397422
320.70 0.02405675
320.80 0.02413998
320.90 0.02422397
321.00 0.02430786
321.10 0.02439163
321.20 0.02447418
321.30 0.02455976
321.40 0.02464523
321.50 0.02473059
321.60 0.02481583
321.70 0.02490097
321.80 0.02498647
321.90 0.02507239
322.00 0.0251572
322.10 0.02524478
322.20 0.02533224
322.30 0.0254196
322.40 0.02550684
322.50 0.02559396
322.60 0.02568098
322.70 0.02576788
322.80 0.02585615
322.90 0.02594614
323.00 0.02603602
323.10 0.02612578
323.20 0.02621543
323.30 0.02630496
323.40 0.02639438
323.50 0.02648367
323.60 0.02657286
323.70 0.02666193
323.80 0.02675088
323.90 0.02683972
324.00 0.02693058
324.10 0.02702132
324.20 0.02711195
324.30 0.02720307
324.40 0.02729619
324.50 0.02738961
324.60 0.02748291
324.70 0.02757608
324.80 0.02766914
324.90 0.02776208
325.00 0.0278549
325.10 0.0279476
325.20 0.02804078
325.30 0.02813509
325.40 0.02822929
325.50 0.0283239
325.60 0.02841903
325.70 0.02851404
325.80 0.02860893
325.90 0.02870421
326.00 0.02879992
326.10 0.0288955
326.20 0.02899096
326.30 0.02908704
326.40 0.02918511
326.50 0.02928494
326.60 0.02938464
326.70 0.02948421
326.80 0.02958366
326.90 0.02968298
327.00 0.02978217
327.10 0.02988123
327.20 0.02998017
327.30 0.03007898
327.40 0.03017766
327.50 0.03027622
327.60 0.03037466
327.70 0.03047296
327.80 0.03057114
327.90 0.03067012
328.00 0.03077085
328.10 0.03087253
328.20 0.03097407
328.30 0.03107549
328.40 0.03117677
328.50 0.0312793
328.60 0.03138202
328.70 0.0314846
328.80 0.03158797
328.90 0.03169378
329.00 0.03179946
329.10 0.031905
329.20 0.03201041
329.30 0.03211569
329.40 0.03222083
329.50 0.03232584
329.60 0.03243072
329.70 0.03253546
329.80 0.03264007
329.90 0.03274454
330.00 0.03285058
330.10 0.03295854
330.20 0.03306637
330.30 0.03317406
330.40 0.03328236
330.50 0.03339135
330.60 0.0335002
330.70 0.03360891
330.80 0.03371748
330.90 0.03382591
331.00 0.03393421
331.10 0.03404237
331.20 0.0341504
331.30 0.03425828
331.40 0.03436603
331.50 0.03447843
331.60 0.03459653
331.70 0.03471448
331.80 0.03482853
331.90 0.03494227
332.00 0.03505588
332.10 0.03516934
332.20 0.03528265
332.30 0.03539583
332.40 0.03550886
332.50 0.03562175
332.60 0.0357345
332.70 0.0358471
332.80 0.03595956
332.90 0.03607189
333.00 0.03618407
333.10 0.03629761
333.20 0.03641283
333.30 0.03652791
333.40 0.03664285
333.50 0.03675764
333.60 0.03687229
333.70 0.03698679
333.80 0.03710115
333.90 0.03721537
334.00 0.03732944
334.10 0.03744709
334.20 0.03756913
334.30 0.03769101
334.40 0.03781274
334.50 0.03793433
334.60 0.03805575
334.70 0.03816564
334.80 0.03827557
334.90 0.03840566
335.00 0.03853558
335.10 0.03864472
335.20 0.0387755
335.30 0.03890228
335.40 0.03900586
335.50 0.03913617
335.60 0.03926633
335.70 0.03938942
335.80 0.03950392
335.90 0.03962173
336.00 0.03974361
336.10 0.03986533
336.20 0.0399869
336.30 0.04011175
336.40 0.04024065
336.50 0.04036939
336.60 0.04049797
336.70 0.04062639
336.80 0.04075465
336.90 0.04088208
337.00 0.04100851
337.10 0.04113479
337.20 0.04126091
337.30 0.04138791
337.40 0.04151624
337.50 0.04164441
337.60 0.04177243
337.70 0.04190028
337.80 0.04202797
337.90 0.04215822
338.00 0.04229162
338.10 0.04242485
338.20 0.04255792
338.30 0.04269082
338.40 0.0428231
338.50 0.04295409
338.60 0.04308492
338.70 0.04321559
338.80 0.0433461
338.90 0.04347645
339.00 0.04360663
339.10 0.04373666
339.20 0.04386652
339.30 0.04400154
339.40 0.04414405
339.50 0.04428412
339.60 0.04442126
339.70 0.04455822
339.80 0.04469502
339.90 0.04483165
340.00 0.04496811
340.10 0.0451044
340.20 0.04524053
340.30 0.04537649
340.40 0.04551228
340.50 0.0456479
340.60 0.04578335
340.70 0.04591864
340.80 0.04605581
340.90 0.04619574
341.00 0.04633568
341.10 0.04647565
341.20 0.04661545
341.30 0.04675508
341.40 0.04689453
341.50 0.04703381
341.60 0.04717293
341.70 0.04731187
341.80 0.04745407
341.90 0.04760028
342.00 0.04774631
342.10 0.04789216
342.20 0.04803262
342.30 0.04816992
342.40 0.04831292
342.50 0.04845777
342.60 0.04860245
342.70 0.04874696
342.80 0.04889128
342.90 0.04903543
343.00 0.04918358
343.10 0.04933664
343.20 0.04948952
343.30 0.04964221
343.40 0.04979245
343.50 0.04993926
343.60 0.05008589
343.70 0.05023234
343.80 0.05037861
343.90 0.0505247
344.00 0.05067361
344.10 0.05082664
344.20 0.05097949
344.30 0.05113215
344.40 0.05128164
344.50 0.05142665
344.60 0.05158865
344.70 0.0517333
344.80 0.05187849
344.90 0.05203732
345.00 0.05218404
345.10 0.05234248
345.20 0.05249977
345.30 0.05265548
345.40 0.052811
345.50 0.05295787
345.60 0.05310288
345.70 0.05326019
345.80 0.05341731
345.90 0.05357424
346.00 0.05373098
346.10 0.05388753
346.20 0.05404625
346.30 0.05420819
346.40 0.05436993
346.50 0.05453147
346.60 0.05469281
346.70 0.05485397
346.80 0.05501492
346.90 0.05517568
347.00 0.05533625
347.10 0.05549662
347.20 0.05565828
347.30 0.05582188
347.40 0.05598528
347.50 0.05614848
347.60 0.05631148
347.70 0.05647428
347.80 0.05663689
347.90 0.05679931
348.00 0.05696152
348.10 0.05712354
348.20 0.05728537
348.30 0.057447
348.40 0.05760844
348.50 0.05776968
348.60 0.05793072
348.70 0.05810414
348.80 0.0582789
348.90 0.05844997
349.00 0.05862083
349.10 0.0587915
349.20 0.05896195
349.30 0.0591322
349.40 0.05930225
349.50 0.05947209
349.60 0.05964173
349.70 0.05981117
349.80 0.0599804
349.90 0.06014943
350.00 0.06031825
350.10 0.06048687
350.20 0.06065529
350.30 0.06082606
350.40 0.06100029
350.50 0.06117432
350.60 0.06134813
350.70 0.06152174
350.80 0.06169514
350.90 0.06186833
351.00 0.06204131
351.10 0.06221409
351.20 0.06238666
351.30 0.06255902
351.40 0.0627334
351.50 0.0629115
351.60 0.06308939
351.70 0.06326707
351.80 0.06344453
351.90 0.06362179
352.00 0.06379883
352.10 0.06397566
352.20 0.06416264
352.30 0.06434808
352.40 0.06452977
352.50 0.06471123
352.60 0.06489248
352.70 0.06507351
352.80 0.06525433
352.90 0.06543493
353.00 0.06561531
353.10 0.06579549
353.20 0.06597544
353.30 0.06615519
353.40 0.06633471
353.50 0.06652001
353.60 0.06670657
353.70 0.06689291
353.80 0.06707903
353.90 0.06726653
354.00 0.06745662
354.10 0.06764649
354.20 0.06783613
354.30 0.06802555
354.40 0.06821474
354.50 0.06840371
354.60 0.06859246
354.70 0.06878098
354.80 0.06897065
354.90 0.06916207
355.00 0.06935327
355.10 0.06954423
355.20 0.06973497
355.30 0.06992447
355.40 0.07011373
355.50 0.07030278
355.60 0.0704916
355.70 0.07068455
355.80 0.07087923
355.90 0.07107707
356.00 0.07127778
356.10 0.07147753
356.20 0.07167704
356.30 0.07187632
356.40 0.07207536
356.50 0.07227416
356.60 0.07247274
356.70 0.07267107
356.80 0.07286918
356.90 0.07306705
357.00 0.07326469
357.10 0.07346209
357.20 0.07365926
357.30 0.07385621
357.40 0.07405422
357.50 0.0742543
357.60 0.07445416
357.70 0.07465378
357.80 0.07485754
357.90 0.07506107
358.00 0.07526662
358.10 0.07547248
358.20 0.07567811
358.30 0.07588349
358.40 0.07608863
358.50 0.07629353
358.60 0.07649819
358.70 0.07670261
358.80 0.0769068
358.90 0.07711074
359.00 0.07731658
359.10 0.07752599
359.20 0.07773374
359.30 0.07793183
359.40 0.07812969
359.50 0.0783408
359.60 0.07855503
359.70 0.07876901
359.80 0.07897811
359.90 0.07918698
360.00 0.07939764
360.10 0.07961172
360.20 0.07982554
360.30 0.08003911
360.40 0.08025243
360.50 0.0804655
360.60 0.08067629
360.70 0.08089063
360.80 0.08110473
360.90 0.08131857
361.00 0.08154138
361.10 0.08175924
361.20 0.08195835
361.30 0.08219371
361.40 0.08241292
361.50 0.08263187
361.60 0.08285057
361.70 0.08306901
361.80 0.08328868
361.90 0.08351074
362.00 0.08373254
362.10 0.08394493
362.20 0.08416033
362.30 0.08438534
362.40 0.08461008
362.50 0.08483457
362.60 0.08505879
362.70 0.08527046
362.80 0.08549195
362.90 0.0857191
363.00 0.08594598
363.10 0.08617402
363.20 0.0864018
363.30 0.0866188
363.40 0.0868591
363.50 0.08707295
363.60 0.08731271
363.70 0.08753476
363.80 0.08776526
363.90 0.08799053
364.00 0.08821553
364.10 0.08844028
364.20 0.08866476
364.30 0.08890221
364.40 0.0891427
364.50 0.08935685
364.60 0.08959296
364.70 0.08982879
364.80 0.09006436
364.90 0.0903006
365.00 0.09053657
365.10 0.09077226
365.20 0.09099472
365.30 0.09124284
365.40 0.09147772
365.50 0.09171233
365.60 0.09194667
365.70 0.09217839
365.80 0.09240984
365.90 0.0926452
366.00 0.09288134
366.10 0.09312212
366.20 0.09336264
366.30 0.09360287
366.40 0.09384283
366.50 0.09409209
366.60 0.09432673
366.70 0.09456744
366.80 0.09480787
366.90 0.09504939
367.00 0.09529304
367.10 0.09553642
367.20 0.09577952
367.30 0.09602234
367.40 0.09626488
367.50 0.09651034
367.60 0.09675631
367.70 0.09700648
367.80 0.09725637
367.90 0.09750598
368.00 0.09775865
368.10 0.09799612
368.20 0.09824682
368.30 0.09849744
368.40 0.09874777
368.50 0.09899782
368.60 0.09924758
368.70 0.09949706
368.80 0.09974625
368.90 0.1000004
369.00 0.1002566
369.10 0.1005107
369.20 0.1007637
369.30 0.1010133
369.40 0.1012626
369.50 0.1015117
369.60 0.1017715
369.70 0.1020311
369.80 0.1022902
369.90 0.102549
370.00 0.1028075
370.10 0.1030723
370.20 0.1033322
370.30 0.1035915
370.40 0.1038506
370.50 0.1041093
370.60 0.1043678
370.70 0.1046291
370.80 0.1048854
370.90 0.1051414
371.00 0.1054003
371.10 0.1056588
371.20 0.1059264
371.30 0.1061938
371.40 0.1064563
371.50 0.1067208
371.60 0.1069851
371.70 0.107249
371.80 0.1075127
371.90 0.107776
372.00 0.1080496
372.10 0.1083126
372.20 0.108583
372.30 0.1088531
372.40 0.1091228
372.50 0.1093923
372.60 0.1096614
372.70 0.1099303
372.80 0.1102055
372.90 0.1104803
373.00 0.1107458
373.10 0.1110109
373.20 0.1112865
373.30 0.1115618
373.40 0.1118368
373.50 0.1121115
373.60 0.1123859
373.70 0.1126599
373.80 0.1129391
373.90 0.1132071
374.00 0.1134864
374.10 0.1137654
374.20 0.1140441
374.30 0.1143224
374.40 0.1146005
374.50 0.1148869
374.60 0.1151654
374.70 0.1154434
374.80 0.115721
374.90 0.1159983
375.00 0.1162806
375.10 0.1165626
375.20 0.1168443
375.30 0.1171327
375.40 0.1174207
375.50 0.1177085
375.60 0.1179959
375.70 0.1182829
375.80 0.1185697
375.90 0.1188561
376.00 0.1191319
376.10 0.1194198
376.20 0.1197076
376.30 0.119995
376.40 0.1202822
376.50 0.1205733
376.60 0.1208707
376.70 0.1211678
376.80 0.1214628
376.90 0.1217557
377.00 0.1220484
377.10 0.1223406
377.20 0.1226324
377.30 0.122923
377.40 0.1232132
377.50 0.1235031
377.60 0.1238014
377.70 0.1240994
377.80 0.124397
377.90 0.1246943
378.00 0.1249877
378.10 0.1252881
378.20 0.1255883
378.30 0.1258882
378.40 0.1261877
378.50 0.126487
378.60 0.1267858
378.70 0.1270844
378.80 0.1273826
378.90 0.1276838
379.00 0.1279908
379.10 0.1282985
379.20 0.1286059
379.30 0.1289116
379.40 0.1292155
379.50 0.1295191
379.60 0.1298189
379.70 0.1301167
379.80 0.1304272
379.90 0.1307374
380.00 0.1310472
380.10 0.1313567
380.20 0.1316659
380.30 0.1319747
380.40 0.1322831
380.50 0.1325912
380.60 0.1329159
380.70 0.1332255
380.80 0.1335348
380.90 0.1338438
381.00 0.1341524
381.10 0.1344688
381.20 0.1347889
381.30 0.1350932
381.40 0.1354099
381.50 0.1357287
381.60 0.1360509
381.70 0.1363746
381.80 0.1366976
381.90 0.1370053
382.00 0.1373363
382.10 0.1376433
382.20 0.1379641
382.30 0.1382822
382.40 0.1386021
382.50 0.1389248
382.60 0.1392472
382.70 0.1395666
382.80 0.139889
382.90 0.1402172
383.00 0.140545
383.10 0.1408725
383.20 0.1412001
383.30 0.1415295
383.40 0.1418586
383.50 0.1421876
383.60 0.1425023
383.70 0.1428334
383.80 0.143164
383.90 0.1434943
384.00 0.1438242
384.10 0.1441538
384.20 0.144483
384.30 0.1448118
384.40 0.1451429
384.50 0.1454762
384.60 0.1458091
384.70 0.1461417
384.80 0.1464738
384.90 0.1468094
385.00 0.1471536
385.10 0.1474966
385.20 0.1478167
385.30 0.1481537
385.40 0.1484924
385.50 0.1488329
385.60 0.1491731
385.70 0.1495128
385.80 0.1498531
385.90 0.1501963
386.00 0.1505427
386.10 0.1508917
386.20 0.1512342
386.30 0.1515763
386.40 0.1519142
386.50 0.1522584
386.60 0.1526093
386.70 0.1529523
386.80 0.1532891
386.90 0.1536314
387.00 0.1539894
387.10 0.1543251
387.20 0.1546886
387.30 0.1550185
387.40 0.155375
387.50 0.1557314
387.60 0.1560842
387.70 0.156435
387.80 0.1567853
387.90 0.1571353
388.00 0.1574842
388.10 0.1578339
388.20 0.1581849
388.30 0.1585401
388.40 0.158895
388.50 0.1592515
388.60 0.1596096
388.70 0.1599637
388.80 0.1603293
388.90 0.1606898
389.00 0.1610456
389.10 0.1614057
389.20 0.1617658
389.30 0.1621349
389.40 0.1624959
389.50 0.1628551
389.60 0.1632138
389.70 0.1635797
389.80 0.1639446
389.90 0.1643092
390.00 0.1646733
390.10 0.1650371
390.20 0.1654004
390.30 0.1657654
390.40 0.1661323
390.50 0.1664989
390.60 0.166865
390.70 0.1672307
390.80 0.1676008
390.90 0.1679752
391.00 0.1683415
391.10 0.1687162
391.20 0.1690899
391.30 0.1694619
391.40 0.1698341
391.50 0.170206
391.60 0.1705775
391.70 0.1709485
391.80 0.1713192
391.90 0.1716919
392.00 0.1720688
392.10 0.1724483
392.20 0.1728265
392.30 0.1732037
392.40 0.1735891
392.50 0.1739665
392.60 0.1743489
392.70 0.1747309
392.80 0.1751125
392.90 0.1754947
393.00 0.1758816
393.10 0.1762654
393.20 0.1766456
393.30 0.1770251
393.40 0.1774067
393.50 0.1777973
393.60 0.1781729
393.70 0.1785756
393.80 0.1789622
393.90 0.1793503
394.00 0.179737
394.10 0.1801215
394.20 0.1805158
394.30 0.1809086
394.40 0.1812861
394.50 0.1816833
394.60 0.1820749
394.70 0.1824673
394.80 0.1828632
394.90 0.1832582
395.00 0.1836395
395.10 0.1840446
395.20 0.1844428
395.30 0.1848395
395.40 0.1852358
395.50 0.1856351
395.60 0.1860351
395.70 0.1864345
395.80 0.186833
395.90 0.1872311
396.00 0.187628
396.10 0.1880203
396.20 0.1884209
396.30 0.1888359
396.40 0.1892428
396.50 0.1896422
396.60 0.1900411
396.70 0.1904447
396.80 0.1908553
396.90 0.1912687
397.00 0.1916637
397.10 0.1920787
397.20 0.1924768
397.30 0.1928917
397.40 0.1933041
397.50 0.193716
397.60 0.194127
397.70 0.1945332
397.80 0.1949389
397.90 0.1953473
398.00 0.1957636
398.10 0.1961794
398.20 0.1965969
398.30 0.1970162
398.40 0.1974346
398.50 0.1978379
398.60 0.198267
398.70 0.198687
398.80 0.199102
398.90 0.1995167
399.00 0.1999315
399.10 0.2003558
399.20 0.2007779
399.30 0.2011995
399.40 0.2016207
399.50 0.2020414
399.60 0.2024644
399.70 0.202888
399.80 0.2033111
399.90 0.2037338
400.00 0.2041562
400.10 0.2045858
400.20 0.2050204
400.30 0.2054439
400.40 0.2058698
400.50 0.2063034
400.60 0.2067365
400.70 0.2071608
400.80 0.2075926
400.90 0.2080268
401.00 0.2084504
401.10 0.2088938
401.20 0.2093224
401.30 0.2097576
401.40 0.2101938
401.50 0.2106292
401.60 0.2110643
401.70 0.2115031
401.80 0.2119312
401.90 0.212368
402.00 0.212805
402.10 0.2132603
402.20 0.2136727
402.30 0.2141537
402.40 0.2146429
402.50 0.2150986
402.60 0.2154412
402.70 0.2159509
402.80 0.2163763
402.90 0.2168014
403.00 0.2172259
403.10 0.2176501
403.20 0.2181948
403.30 0.2185771
403.40 0.2189346
403.50 0.2194141
403.60 0.2199227
403.70 0.2203976
403.80 0.2207305
403.90 0.2212233
404.00 0.2216747
404.10 0.2220785
404.20 0.2226035
404.30 0.2231278
404.40 0.2235556
404.50 0.2239637
404.60 0.2243809
404.70 0.2247978
404.80 0.2253381
404.90 0.2258409
405.00 0.2262711
405.10 0.2267315
405.20 0.2272212
405.30 0.2277104
405.40 0.228159
405.50 0.2286071
405.60 0.2290548
405.70 0.229502
405.80 0.2299487
405.90 0.230395
406.00 0.2308723
406.10 0.2313491
406.20 0.2318254
406.30 0.2323012
406.40 0.2327798
406.50 0.2332211
406.60 0.23368
406.70 0.2341268
406.80 0.2345829
406.90 0.2351279
407.00 0.2355967
407.10 0.2360651
407.20 0.2365329
407.30 0.2370003
407.40 0.2374672
407.50 0.2379336
407.60 0.2383995
407.70 0.2388649
407.80 0.2393298
407.90 0.2397938
408.00 0.2402437
408.10 0.2407873
408.20 0.2413093
408.30 0.2417315
408.40 0.2421533
408.50 0.242802
408.60 0.2432564
408.70 0.2437103
408.80 0.2441792
408.90 0.2447445
409.00 0.2452198
409.10 0.2456946
409.20 0.246169
409.30 0.2466428
409.40 0.2471159
409.50 0.247578
409.60 0.2480396
409.70 0.2485172
409.80 0.24906
409.90 0.2496003
410.00 0.2500775
410.10 0.2504695
410.20 0.2509637
410.30 0.2514831
410.40 0.2519939
410.50 0.2524785
410.60 0.2529626
410.70 0.2534576
410.80 0.2539978
410.90 0.2545373
411.00 0.2550157
411.10 0.2554711
411.20 0.2559261
411.30 0.2564045
411.40 0.2569767
411.50 0.2575011
411.60 0.258025
411.70 0.2585409
411.80 0.2590269
411.90 0.2594921
412.00 0.260079
412.10 0.2604617
412.20 0.2610474
412.30 0.2614666
412.40 0.262036
412.50 0.2626125
412.60 0.2630654
412.70 0.2635594
412.80 0.2640633
412.90 0.2646396
413.00 0.2650558
413.10 0.2655706
413.20 0.2660849
413.30 0.2665986
413.40 0.2671119
