# Version 2.1 - nm, norm@500 to 1, cut digits, bergeron_He_9000_70.dat_9000
# Wavelength(nm)  Flambda(ergs/cm^s/s/nm)
300.00 1.630756
300.10 1.630885
300.20 1.631022
300.30 1.631147
300.40 1.63119
300.50 1.631234
300.60 1.631277
300.70 1.63132
300.80 1.631362
300.90 1.631404
301.00 1.631445
301.10 1.631486
301.20 1.631526
301.30 1.631566
301.40 1.631606
301.50 1.631645
301.60 1.631684
301.70 1.631723
301.80 1.631761
301.90 1.631799
302.00 1.631836
302.10 1.631868
302.20 1.631898
302.30 1.631929
302.40 1.631959
302.50 1.631988
302.60 1.632018
302.70 1.632046
302.80 1.632075
302.90 1.632103
303.00 1.63213
303.10 1.632158
303.20 1.632184
303.30 1.63221
303.40 1.632222
303.50 1.632234
303.60 1.632245
303.70 1.632256
303.80 1.632267
303.90 1.632278
304.00 1.632288
304.10 1.632297
304.20 1.632307
304.30 1.632315
304.40 1.632324
304.50 1.632332
304.60 1.632349
304.70 1.632367
304.80 1.632384
304.90 1.632401
305.00 1.632417
305.10 1.632434
305.20 1.632449
305.30 1.632465
305.40 1.63248
305.50 1.632494
305.60 1.632508
305.70 1.632522
305.80 1.632536
305.90 1.632549
306.00 1.632562
306.10 1.632574
306.20 1.632586
306.30 1.632598
306.40 1.632598
306.50 1.632594
306.60 1.63259
306.70 1.632586
306.80 1.632581
306.90 1.632576
307.00 1.63257
307.10 1.632564
307.20 1.632558
307.30 1.632551
307.40 1.632545
307.50 1.632537
307.60 1.63253
307.70 1.632522
307.80 1.632514
307.90 1.632505
308.00 1.632496
308.10 1.632487
308.20 1.632478
308.30 1.632468
308.40 1.632458
308.50 1.632447
308.60 1.632436
308.70 1.632425
308.80 1.632472
308.90 1.632686
309.00 1.632617
309.10 1.632547
309.20 1.632478
309.30 1.632408
309.40 1.63235
309.50 1.632368
309.60 1.632386
309.70 1.632403
309.80 1.632421
309.90 1.632437
310.00 1.632454
310.10 1.63247
310.20 1.632486
310.30 1.632501
310.40 1.63249
310.50 1.63245
310.60 1.63241
310.70 1.63237
310.80 1.63233
310.90 1.632289
311.00 1.632295
311.10 1.632301
311.20 1.632306
311.30 1.632286
311.40 1.632194
311.50 1.632102
311.60 1.632009
311.70 1.631917
311.80 1.631824
311.90 1.631731
312.00 1.631638
312.10 1.631544
312.20 1.631652
312.30 1.631694
312.40 1.631519
312.50 1.631468
312.60 1.631474
312.70 1.631481
312.80 1.631487
312.90 1.631433
313.00 1.631314
313.10 1.631196
313.20 1.631076
313.30 1.630968
313.40 1.630892
313.50 1.630814
313.60 1.630737
313.70 1.63066
313.80 1.630582
313.90 1.630504
314.00 1.630426
314.10 1.630388
314.20 1.63035
314.30 1.630311
314.40 1.630272
314.50 1.630233
314.60 1.630194
314.70 1.630155
314.80 1.630113
314.90 1.63009
315.00 1.630096
315.10 1.630087
315.20 1.630077
315.30 1.630068
315.40 1.630058
315.50 1.630048
315.60 1.630037
315.70 1.629963
315.80 1.629888
315.90 1.629812
316.00 1.629737
316.10 1.62947
316.20 1.629204
316.30 1.629319
316.40 1.629052
316.50 1.629166
316.60 1.628899
316.70 1.629012
316.80 1.629126
316.90 1.629048
317.00 1.62897
317.10 1.628893
317.20 1.628814
317.30 1.62866
317.40 1.62851
317.50 1.628373
317.60 1.628237
317.70 1.6281
317.80 1.627963
317.90 1.627933
318.00 1.627672
318.10 1.627592
318.20 1.627512
318.30 1.627431
318.40 1.6274
318.50 1.627507
318.60 1.627321
318.70 1.627165
318.80 1.626783
318.90 1.627264
319.00 1.62719
319.10 1.62692
319.20 1.626713
319.30 1.626685
319.40 1.626657
319.50 1.626629
319.60 1.626382
319.70 1.626353
319.80 1.626324
319.90 1.626295
320.00 1.626149
320.10 1.625879
320.20 1.625585
320.30 1.625501
320.40 1.625454
320.50 1.625183
320.60 1.625269
320.70 1.624998
320.80 1.624816
320.90 1.624731
321.00 1.624645
321.10 1.624559
321.20 1.624262
321.30 1.624147
321.40 1.624032
321.50 1.623917
321.60 1.623801
321.70 1.623685
321.80 1.623619
321.90 1.623607
322.00 1.623811
322.10 1.623719
322.20 1.623626
322.30 1.623533
322.40 1.62344
322.50 1.623346
322.60 1.623253
322.70 1.623159
322.80 1.622847
322.90 1.622688
323.00 1.622529
323.10 1.622369
323.20 1.622209
323.30 1.622049
323.40 1.621889
323.50 1.621729
323.60 1.621569
323.70 1.621409
323.80 1.621248
323.90 1.621088
324.00 1.62106
324.10 1.621032
324.20 1.621003
324.30 1.620964
324.40 1.620833
324.50 1.620634
324.60 1.620435
324.70 1.620236
324.80 1.620037
324.90 1.619838
325.00 1.619638
325.10 1.619439
325.20 1.619307
325.30 1.619317
325.40 1.619327
325.50 1.619294
325.60 1.619206
325.70 1.619119
325.80 1.619031
325.90 1.618918
326.00 1.618776
326.10 1.618634
326.20 1.618492
326.30 1.618277
326.40 1.617855
326.50 1.617703
326.60 1.61755
326.70 1.617398
326.80 1.617245
326.90 1.617093
327.00 1.61694
327.10 1.616787
327.20 1.616634
327.30 1.616481
327.40 1.616328
327.50 1.616175
327.60 1.616021
327.70 1.615868
327.80 1.615714
327.90 1.615492
328.00 1.615299
328.10 1.615232
328.20 1.615165
328.30 1.615097
328.40 1.61503
328.50 1.614866
328.60 1.61468
328.70 1.614494
328.80 1.614304
328.90 1.614099
329.00 1.613895
329.10 1.61369
329.20 1.613486
329.30 1.613281
329.40 1.613077
329.50 1.612872
329.60 1.612667
329.70 1.612462
329.80 1.612258
329.90 1.612053
330.00 1.611898
330.10 1.611804
330.20 1.61171
330.30 1.611616
330.40 1.611494
330.50 1.611343
330.60 1.611192
330.70 1.611041
330.80 1.61089
330.90 1.610738
331.00 1.610586
331.10 1.610435
331.20 1.610283
331.30 1.610131
331.40 1.609979
331.50 1.60971
331.60 1.609297
331.70 1.608884
331.80 1.608725
331.90 1.608577
332.00 1.608429
332.10 1.60828
332.20 1.608132
332.30 1.607983
332.40 1.607834
332.50 1.607685
332.60 1.607536
332.70 1.607387
332.80 1.607238
332.90 1.607089
333.00 1.606939
333.10 1.606763
333.20 1.606556
333.30 1.606348
333.40 1.60614
333.50 1.605933
333.60 1.605725
333.70 1.605517
333.80 1.605309
333.90 1.605101
334.00 1.604893
334.10 1.604706
334.20 1.604543
334.30 1.604381
334.40 1.604218
334.50 1.604055
334.60 1.603892
334.70 1.603666
334.80 1.603415
334.90 1.603237
335.00 1.603059
335.10 1.602572
335.20 1.602296
335.30 1.602393
335.40 1.602117
335.50 1.601925
335.60 1.601564
335.70 1.601592
335.80 1.601316
335.90 1.601116
336.00 1.601008
336.10 1.600901
336.20 1.600793
336.30 1.600609
336.40 1.600333
336.50 1.600056
336.60 1.599779
336.70 1.599503
336.80 1.599227
336.90 1.599022
337.00 1.598905
337.10 1.598789
337.20 1.598672
337.30 1.598491
337.40 1.598219
337.50 1.597947
337.60 1.597675
337.70 1.597403
337.80 1.597131
337.90 1.596906
338.00 1.596739
338.10 1.596571
338.20 1.596404
338.30 1.596236
338.40 1.596039
338.50 1.595772
338.60 1.595505
338.70 1.595237
338.80 1.59497
338.90 1.594703
339.00 1.594436
339.10 1.594168
339.20 1.593901
339.30 1.593775
339.40 1.593851
339.50 1.59379
339.60 1.593562
339.70 1.593335
339.80 1.593107
339.90 1.592879
340.00 1.592652
340.10 1.592424
340.20 1.592197
340.30 1.591969
340.40 1.591741
340.50 1.591514
340.60 1.591286
340.70 1.591058
340.80 1.590816
340.90 1.590554
341.00 1.590285
341.10 1.590009
341.20 1.589733
341.30 1.589457
341.40 1.589182
341.50 1.588906
341.60 1.58863
341.70 1.588355
341.80 1.588131
341.90 1.587971
342.00 1.58781
342.10 1.58765
342.20 1.587336
342.30 1.587159
342.40 1.587054
342.50 1.586782
342.60 1.586511
342.70 1.58624
342.80 1.585969
342.90 1.585698
343.00 1.585422
343.10 1.58514
343.20 1.584859
343.30 1.584577
343.40 1.584298
343.50 1.584023
343.60 1.583748
343.70 1.583473
343.80 1.583198
343.90 1.582923
344.00 1.582715
344.10 1.582601
344.20 1.582487
344.30 1.582373
344.40 1.582193
344.50 1.581919
344.60 1.581396
344.70 1.581105
344.80 1.580847
344.90 1.580556
345.00 1.580545
345.10 1.58027
345.20 1.579999
345.30 1.579733
345.40 1.579467
345.50 1.579187
345.60 1.578898
345.70 1.578623
345.80 1.578349
345.90 1.578075
346.00 1.577801
346.10 1.577527
346.20 1.577279
346.30 1.577068
346.40 1.576858
346.50 1.576648
346.60 1.576437
346.70 1.576227
346.80 1.576017
346.90 1.575806
347.00 1.575596
347.10 1.575385
347.20 1.575137
347.30 1.574835
347.40 1.574533
347.50 1.574232
347.60 1.57393
347.70 1.573629
347.80 1.573327
347.90 1.573026
348.00 1.572724
348.10 1.572423
348.20 1.572122
348.30 1.571821
348.40 1.57152
348.50 1.571219
348.60 1.570918
348.70 1.570869
348.80 1.570774
348.90 1.570501
349.00 1.570228
349.10 1.569956
349.20 1.569683
349.30 1.56941
349.40 1.569137
349.50 1.568865
349.60 1.568592
349.70 1.56832
349.80 1.568047
349.90 1.567775
350.00 1.567503
350.10 1.56723
350.20 1.566958
350.30 1.566685
350.40 1.56641
350.50 1.566135
350.60 1.56586
350.70 1.565585
350.80 1.565311
350.90 1.565036
351.00 1.564761
351.10 1.564487
351.20 1.564212
351.30 1.563938
351.40 1.563651
351.50 1.563341
351.60 1.563032
351.70 1.562723
351.80 1.562413
351.90 1.562104
352.00 1.561795
352.10 1.561486
352.20 1.561401
352.30 1.561241
352.40 1.560938
352.50 1.560634
352.60 1.560331
352.70 1.560028
352.80 1.559725
352.90 1.559423
353.00 1.55912
353.10 1.558817
353.20 1.558515
353.30 1.558212
353.40 1.55791
353.50 1.557585
353.60 1.557254
353.70 1.556924
353.80 1.556593
353.90 1.556286
354.00 1.55602
354.10 1.555753
354.20 1.555487
354.30 1.555221
354.40 1.554955
354.50 1.554689
354.60 1.554423
354.70 1.554157
354.80 1.553866
354.90 1.553541
355.00 1.553215
355.10 1.55289
355.20 1.552565
355.30 1.552393
355.40 1.552221
355.50 1.552048
355.60 1.551876
355.70 1.551578
355.80 1.551224
355.90 1.550684
356.00 1.55028
356.10 1.549993
356.20 1.549707
356.30 1.54942
356.40 1.549134
356.50 1.548847
356.60 1.548561
356.70 1.548275
356.80 1.547989
356.90 1.547703
357.00 1.547417
357.10 1.547131
357.20 1.546845
357.30 1.546559
357.40 1.546257
357.50 1.545925
357.60 1.545594
357.70 1.545263
357.80 1.544942
357.90 1.54462
358.00 1.544323
358.10 1.544031
358.20 1.543739
358.30 1.543447
358.40 1.543155
358.50 1.542864
358.60 1.542572
358.70 1.542281
358.80 1.541989
358.90 1.541698
359.00 1.541394
359.10 1.541067
359.20 1.540737
359.30 1.540387
359.40 1.540037
359.50 1.539788
359.60 1.539565
359.70 1.539341
359.80 1.538933
359.90 1.538524
360.00 1.538153
360.10 1.537847
360.20 1.537541
360.30 1.537236
360.40 1.53693
360.50 1.536625
360.60 1.536577
360.70 1.536312
360.80 1.536047
360.90 1.535782
361.00 1.535307
361.10 1.534782
361.20 1.534778
361.30 1.534513
361.40 1.53422
361.50 1.533634
361.60 1.533346
361.70 1.533082
361.80 1.532772
361.90 1.532381
362.00 1.53199
362.10 1.531882
362.20 1.531737
362.30 1.531402
362.40 1.531067
362.50 1.530733
362.60 1.530398
362.70 1.529978
362.80 1.529393
362.90 1.529127
363.00 1.528862
363.10 1.528549
363.20 1.528236
363.30 1.528079
363.40 1.527817
363.50 1.527554
363.60 1.527003
363.70 1.526773
363.80 1.52619
363.90 1.5259
364.00 1.525611
364.10 1.525322
364.20 1.525032
364.30 1.524816
364.40 1.524619
364.50 1.524361
364.60 1.523907
364.70 1.523452
364.80 1.522999
364.90 1.522738
365.00 1.522476
365.10 1.522216
365.20 1.521668
365.30 1.521694
365.40 1.521433
365.50 1.520886
365.60 1.52034
365.70 1.520028
365.80 1.519716
365.90 1.519496
366.00 1.519299
366.10 1.518889
366.20 1.51848
366.30 1.51807
366.40 1.517661
366.50 1.517425
366.60 1.517171
366.70 1.516774
366.80 1.516377
366.90 1.516009
367.00 1.515693
367.10 1.515377
367.20 1.515061
367.30 1.514745
367.40 1.51443
367.50 1.51421
367.60 1.514014
367.70 1.513637
367.80 1.513259
367.90 1.512882
368.00 1.512698
368.10 1.512158
368.20 1.511849
368.30 1.511544
368.40 1.51124
368.50 1.510936
368.60 1.510632
368.70 1.510328
368.80 1.510024
368.90 1.509535
369.00 1.509213
369.10 1.509015
369.20 1.508764
369.30 1.50832
369.40 1.507877
369.50 1.507433
369.60 1.507174
369.70 1.506915
369.80 1.506554
369.90 1.506192
370.00 1.50583
370.10 1.505337
370.20 1.505076
370.30 1.50482
370.40 1.50457
370.50 1.504029
370.60 1.503766
370.70 1.503247
370.80 1.502989
370.90 1.502731
371.00 1.502479
371.10 1.502226
371.20 1.501693
371.30 1.50116
371.40 1.501093
371.50 1.5008
371.60 1.500508
371.70 1.500215
371.80 1.499923
371.90 1.49963
372.00 1.498987
372.10 1.498575
372.20 1.498229
372.30 1.497884
372.40 1.497538
372.50 1.497193
372.60 1.496848
372.70 1.496503
372.80 1.496247
372.90 1.495991
373.00 1.495741
373.10 1.49549
373.20 1.494963
373.30 1.494436
373.40 1.494184
373.50 1.493657
373.60 1.493405
373.70 1.492879
373.80 1.492747
373.90 1.492375
374.00 1.491987
374.10 1.491598
374.20 1.49121
374.30 1.490822
374.40 1.490707
374.50 1.49032
374.60 1.489929
374.70 1.489543
374.80 1.489157
374.90 1.488771
375.00 1.48852
375.10 1.488269
375.20 1.488019
375.30 1.487613
375.40 1.487208
375.50 1.486803
375.60 1.486398
375.70 1.485993
375.80 1.485588
375.90 1.485184
376.00 1.484929
376.10 1.484611
376.20 1.484292
376.30 1.483973
376.40 1.483654
376.50 1.483297
376.60 1.48288
376.70 1.482464
376.80 1.482114
376.90 1.481829
377.00 1.481544
377.10 1.481259
377.20 1.480939
377.30 1.480488
377.40 1.480038
377.50 1.479588
377.60 1.47927
377.70 1.478952
377.80 1.478635
377.90 1.478317
378.00 1.477814
378.10 1.477461
378.20 1.477112
378.30 1.476764
378.40 1.476415
378.50 1.476067
378.60 1.475719
378.70 1.475371
378.80 1.475024
378.90 1.474663
379.00 1.474279
379.10 1.473926
379.20 1.473574
379.30 1.473181
379.40 1.472747
379.50 1.472313
379.60 1.47192
379.70 1.471591
379.80 1.471267
379.90 1.470944
380.00 1.47062
380.10 1.470296
380.20 1.469973
380.30 1.46965
380.40 1.469326
380.50 1.469003
380.60 1.468428
380.70 1.468135
380.80 1.467843
380.90 1.467551
381.00 1.467259
381.10 1.466818
381.20 1.466479
381.30 1.466002
381.40 1.465422
381.50 1.465192
381.60 1.464923
381.70 1.464503
381.80 1.46426
381.90 1.463755
382.00 1.463251
382.10 1.463008
382.20 1.462451
382.30 1.462209
382.40 1.4619
382.50 1.461492
382.60 1.461084
382.70 1.460762
382.80 1.46045
382.90 1.460052
383.00 1.459653
383.10 1.459255
383.20 1.458902
383.30 1.458715
383.40 1.458447
383.50 1.458057
383.60 1.457334
383.70 1.456985
383.80 1.456635
383.90 1.456286
384.00 1.455937
384.10 1.455589
384.20 1.45524
384.30 1.454891
384.40 1.454519
384.50 1.454124
384.60 1.453729
384.70 1.453334
384.80 1.45299
384.90 1.45278
385.00 1.452467
385.10 1.452146
385.20 1.451515
385.30 1.451023
385.40 1.45064
385.50 1.450367
385.60 1.450093
385.70 1.44982
385.80 1.44951
385.90 1.449058
386.00 1.448639
386.10 1.448255
386.20 1.447901
386.30 1.447546
386.40 1.44712
386.50 1.446757
386.60 1.44652
386.70 1.445772
386.80 1.445535
386.90 1.445298
387.00 1.444819
387.10 1.444327
387.20 1.444078
387.30 1.443841
387.40 1.443228
387.50 1.44286
387.60 1.442704
387.70 1.442341
387.80 1.441978
387.90 1.441615
388.00 1.441173
388.10 1.440507
388.20 1.440356
388.30 1.439936
388.40 1.439516
388.50 1.439139
388.60 1.438749
388.70 1.438465
388.80 1.437963
388.90 1.43754
389.00 1.437305
389.10 1.436774
389.20 1.436552
389.30 1.436189
389.40 1.43571
389.50 1.435297
389.60 1.435017
389.70 1.43478
389.80 1.434386
389.90 1.433992
390.00 1.433599
390.10 1.433205
390.20 1.432812
390.30 1.432401
390.40 1.431969
390.50 1.431538
390.60 1.431108
390.70 1.430677
390.80 1.430378
390.90 1.430211
391.00 1.429698
391.10 1.429209
391.20 1.428812
391.30 1.428595
391.40 1.428197
391.50 1.4278
391.60 1.427403
391.70 1.427006
391.80 1.426609
391.90 1.426275
392.00 1.425913
392.10 1.4254
392.20 1.424945
392.30 1.424808
392.40 1.424409
392.50 1.42377
392.60 1.423454
392.70 1.423224
392.80 1.422833
392.90 1.422362
393.00 1.421901
393.10 1.421486
393.20 1.421133
393.30 1.420904
393.40 1.420631
393.50 1.419909
393.60 1.41968
393.70 1.419316
393.80 1.418775
393.90 1.418547
394.00 1.418275
394.10 1.417673
394.20 1.417203
394.30 1.416822
394.40 1.416422
394.50 1.416154
394.60 1.415711
394.70 1.415304
394.80 1.415037
394.90 1.414756
395.00 1.414111
395.10 1.413813
395.20 1.413353
395.30 1.412956
395.40 1.41256
395.50 1.412221
395.60 1.411904
395.70 1.411563
395.80 1.411156
395.90 1.41075
396.00 1.410369
396.10 1.410156
396.20 1.409688
396.30 1.409154
396.40 1.408929
396.50 1.408219
396.60 1.407994
396.70 1.40777
396.80 1.407257
396.90 1.406836
397.00 1.406612
397.10 1.405904
397.20 1.40568
397.30 1.405095
397.40 1.404845
397.50 1.404594
397.60 1.404317
397.70 1.403783
397.80 1.403248
397.90 1.402761
398.00 1.4024
398.10 1.40204
398.20 1.401704
398.30 1.401395
398.40 1.401085
398.50 1.400752
398.60 1.400149
398.70 1.39976
398.80 1.39945
398.90 1.399128
399.00 1.398782
399.10 1.398111
399.20 1.39774
399.30 1.39737
399.40 1.396999
399.50 1.396629
399.60 1.396242
399.70 1.395849
399.80 1.395455
399.90 1.395062
400.00 1.394671
400.10 1.394341
400.20 1.394078
400.30 1.393675
400.40 1.393167
400.50 1.392609
400.60 1.392261
400.70 1.392042
400.80 1.391475
400.90 1.391257
401.00 1.390591
401.10 1.390344
401.20 1.390024
401.30 1.389787
401.40 1.389343
401.50 1.388826
401.60 1.388316
401.70 1.387989
401.80 1.387767
401.90 1.387426
402.00 1.386961
402.10 1.386271
402.20 1.386054
402.30 1.385636
402.40 1.385148
402.50 1.384931
402.60 1.384269
402.70 1.384027
402.80 1.383811
402.90 1.383312
403.00 1.382861
403.10 1.382692
403.20 1.382017
403.30 1.381693
403.40 1.381473
403.50 1.381109
403.60 1.380674
403.70 1.37999
403.80 1.379783
403.90 1.379366
404.00 1.378877
404.10 1.378663
404.20 1.378214
404.30 1.377766
404.40 1.37734
404.50 1.376871
404.60 1.376657
404.70 1.375977
404.80 1.375776
404.90 1.375549
405.00 1.37487
405.10 1.374457
405.20 1.374111
405.30 1.373765
405.40 1.373397
405.50 1.37303
405.60 1.372662
405.70 1.372295
405.80 1.371928
405.90 1.371561
406.00 1.371165
406.10 1.370769
406.20 1.370374
406.30 1.369979
406.40 1.369575
406.50 1.369018
406.60 1.36869
406.70 1.368161
406.80 1.367669
406.90 1.367602
407.00 1.367161
407.10 1.366719
407.20 1.366279
407.30 1.365838
407.40 1.365398
407.50 1.364957
407.60 1.364518
407.70 1.364078
407.80 1.363639
407.90 1.363208
408.00 1.363041
408.10 1.362774
408.20 1.362345
408.30 1.361977
408.40 1.361608
408.50 1.361022
408.60 1.360672
408.70 1.360323
408.80 1.359939
408.90 1.359337
409.00 1.358935
409.10 1.358534
409.20 1.358132
409.30 1.357731
409.40 1.357332
409.50 1.356991
409.60 1.35665
409.70 1.356287
409.80 1.355835
409.90 1.35539
410.00 1.35517
410.10 1.354509
410.20 1.354133
410.30 1.353827
410.40 1.353508
410.50 1.353147
410.60 1.352786
410.70 1.352402
410.80 1.351927
410.90 1.351452
411.00 1.351031
411.10 1.35063
411.20 1.350229
411.30 1.349854
411.40 1.349577
411.50 1.34908
411.60 1.348584
411.70 1.348102
411.80 1.347672
411.90 1.347423
412.00 1.346994
412.10 1.346677
412.20 1.346137
412.30 1.345933
412.40 1.345296
412.50 1.345077
412.60 1.344425
412.70 1.344053
412.80 1.34375
412.90 1.343368
413.00 1.342781
413.10 1.342398
413.20 1.342014
413.30 1.341631
413.40 1.341248
413.50 1.340905
413.60 1.340664
413.70 1.340239
413.80 1.339814
413.90 1.33939
414.00 1.338966
414.10 1.338542
414.20 1.338064
414.30 1.337864
414.40 1.337218
414.50 1.337017
414.60 1.336426
414.70 1.336003
414.80 1.335581
414.90 1.335159
415.00 1.334738
415.10 1.334316
415.20 1.333908
415.30 1.333542
415.40 1.333175
415.50 1.332811
415.60 1.332486
415.70 1.332162
415.80 1.331797
415.90 1.331302
416.00 1.330807
416.10 1.330347
416.20 1.330025
416.30 1.329703
416.40 1.329381
416.50 1.329057
416.60 1.328639
416.70 1.328214
416.80 1.327577
416.90 1.327177
417.00 1.326743
417.10 1.326553
417.20 1.326136
417.30 1.325718
417.40 1.325238
417.50 1.324758
417.60 1.324322
417.70 1.324057
417.80 1.323642
417.90 1.323228
418.00 1.322813
418.10 1.322399
418.20 1.321985
418.30 1.321565
418.40 1.32099
418.50 1.320595
418.60 1.320201
418.70 1.319807
418.80 1.319413
418.90 1.31902
419.00 1.318626
419.10 1.318233
419.20 1.31784
419.30 1.317449
419.40 1.317128
419.50 1.316807
419.60 1.316454
419.70 1.315973
419.80 1.315493
419.90 1.315028
420.00 1.314614
420.10 1.3142
420.20 1.313787
420.30 1.313373
420.40 1.31296
420.50 1.312547
420.60 1.312135
420.70 1.311722
420.80 1.31131
420.90 1.310901
421.00 1.310588
421.10 1.310276
421.20 1.309932
421.30 1.309494
421.40 1.309057
421.50 1.30862
421.60 1.308183
421.70 1.307746
421.80 1.30731
421.90 1.30688
422.00 1.306471
422.10 1.306075
422.20 1.305726
422.30 1.305378
422.40 1.305028
422.50 1.304605
422.60 1.304182
422.70 1.303759
422.80 1.303337
422.90 1.302915
423.00 1.302493
423.10 1.302071
423.20 1.30165
423.30 1.301229
423.40 1.300808
423.50 1.300387
423.60 1.299967
423.70 1.299547
423.80 1.299127
423.90 1.298708
424.00 1.298288
424.10 1.297869
424.20 1.29745
424.30 1.297032
424.40 1.296996
424.50 1.296556
424.60 1.296117
424.70 1.295678
424.80 1.295239
424.90 1.2948
425.00 1.294362
425.10 1.293923
