# Version 2.1 - nm, norm@500 to 1, cut digits, bergeron_He_3500_85.dat_3500
# Wavelength(nm)  Flambda(ergs/cm^s/s/nm)
300.00 0.01379862
300.10 0.01385427
300.20 0.01391001
300.30 0.01396608
300.40 0.01402476
300.50 0.01408335
300.60 0.01414187
300.70 0.0142003
300.80 0.01425866
300.90 0.01431693
301.00 0.01437512
301.10 0.01443323
301.20 0.01449126
301.30 0.01454921
301.40 0.01460708
301.50 0.01466487
301.60 0.01472258
301.70 0.01478022
301.80 0.01483777
301.90 0.01489524
302.00 0.01495263
302.10 0.01501368
302.20 0.01507506
302.30 0.01513636
302.40 0.01519757
302.50 0.0152587
302.60 0.01531974
302.70 0.0153807
302.80 0.01544158
302.90 0.01550237
303.00 0.01556308
303.10 0.0156237
303.20 0.01568424
303.30 0.01574505
303.40 0.0158089
303.50 0.01587267
303.60 0.01593635
303.70 0.01599994
303.80 0.01606345
303.90 0.01612686
304.00 0.0161902
304.10 0.01625344
304.20 0.0163166
304.30 0.01637967
304.40 0.01644265
304.50 0.01650555
304.60 0.01657235
304.70 0.01663949
304.80 0.01670654
304.90 0.0167735
305.00 0.01684037
305.10 0.01690715
305.20 0.01697384
305.30 0.01704043
305.40 0.01710694
305.50 0.01717335
305.60 0.01723968
305.70 0.01730591
305.80 0.01737205
305.90 0.01743811
306.00 0.01750407
306.10 0.01756994
306.20 0.01763572
306.30 0.01770142
306.40 0.01777228
306.50 0.01784461
306.60 0.01791684
306.70 0.01798897
306.80 0.01806101
306.90 0.01813294
307.00 0.01820478
307.10 0.01827653
307.20 0.01834817
307.30 0.01841972
307.40 0.01849117
307.50 0.01856253
307.60 0.01863379
307.70 0.01870495
307.80 0.01877601
307.90 0.01884698
308.00 0.01891785
308.10 0.01898863
308.20 0.01905931
308.30 0.0191299
308.40 0.01920039
308.50 0.01927078
308.60 0.01934108
308.70 0.01941128
308.80 0.01948254
308.90 0.01955696
309.00 0.01963075
309.10 0.01970444
309.20 0.01977802
309.30 0.01985151
309.40 0.01992524
309.50 0.02000095
309.60 0.02007656
309.70 0.02015206
309.80 0.02022747
309.90 0.02030277
310.00 0.02037797
310.10 0.02045307
310.20 0.02052807
310.30 0.02060297
310.40 0.02067989
310.50 0.020759
310.60 0.02083801
310.70 0.0209169
310.80 0.0209957
310.90 0.02107438
311.00 0.02115244
311.10 0.02123039
311.20 0.02130823
311.30 0.02138699
311.40 0.02146854
311.50 0.02154998
311.60 0.02163132
311.70 0.02171254
311.80 0.02179366
311.90 0.02187467
312.00 0.02195557
312.10 0.02203636
312.20 0.02211598
312.30 0.02219917
312.40 0.02228424
312.50 0.02236062
312.60 0.02244227
312.70 0.02252381
312.80 0.02260524
312.90 0.0226872
313.00 0.02276973
313.10 0.02285215
313.20 0.02293446
313.30 0.02301757
313.40 0.02310316
313.50 0.02318864
313.60 0.023274
313.70 0.02335925
313.80 0.02344439
313.90 0.02352941
314.00 0.02361432
314.10 0.02370206
314.20 0.02378969
314.30 0.0238772
314.40 0.02396459
314.50 0.02405186
314.60 0.02413903
314.70 0.02422607
314.80 0.02431573
314.90 0.02440455
315.00 0.02448406
315.10 0.02457392
315.20 0.02466365
315.30 0.02475327
315.40 0.02484277
315.50 0.02493215
315.60 0.02502141
315.70 0.02511492
315.80 0.02520832
315.90 0.02530159
316.00 0.02539474
316.10 0.0254834
316.20 0.02557194
316.30 0.02566037
316.40 0.02575739
316.50 0.02584558
316.60 0.02594235
316.70 0.0260303
316.80 0.02611813
316.90 0.02621453
317.00 0.02631081
317.10 0.02640695
317.20 0.02650297
317.30 0.02659578
317.40 0.0266896
317.50 0.0267865
317.60 0.02688328
317.70 0.02697993
317.80 0.02707645
317.90 0.0271616
318.00 0.02726126
318.10 0.02735615
318.20 0.02745092
318.30 0.02754557
318.40 0.02764233
318.50 0.02774532
318.60 0.02783924
318.70 0.02794197
318.80 0.02803941
318.90 0.02813244
319.00 0.02823889
319.10 0.02833252
319.20 0.02842772
319.30 0.02852758
319.40 0.02862731
319.50 0.0287269
319.60 0.02883468
319.70 0.02893401
319.80 0.02903322
319.90 0.02913229
320.00 0.02923223
320.10 0.02933311
320.20 0.02944123
320.30 0.02954707
320.40 0.02964585
320.50 0.0297479
320.60 0.02985253
320.70 0.02995262
320.80 0.03005461
320.90 0.03015867
321.00 0.03026259
321.10 0.03036638
321.20 0.03047771
321.30 0.03058442
321.40 0.030691
321.50 0.03079743
321.60 0.03090373
321.70 0.03100989
321.80 0.03111585
321.90 0.03122162
322.00 0.03133588
322.10 0.03144396
322.20 0.03155191
322.30 0.03165971
322.40 0.03176738
322.50 0.0318749
322.60 0.03198229
322.70 0.03208954
322.80 0.03220318
322.90 0.03231396
323.00 0.0324246
323.10 0.03253509
323.20 0.03264545
323.30 0.03275566
323.40 0.03286573
323.50 0.03297565
323.60 0.03308544
323.70 0.03319508
323.80 0.03330458
323.90 0.03341394
324.00 0.03352658
324.10 0.03363907
324.20 0.03375142
324.30 0.03386774
324.40 0.03398952
324.50 0.03410456
324.60 0.03421946
324.70 0.03433421
324.80 0.03444881
324.90 0.03456326
325.00 0.03467757
325.10 0.03479173
325.20 0.03490654
325.30 0.0350229
325.40 0.03513911
325.50 0.03525667
325.60 0.03537591
325.70 0.03549499
325.80 0.03561392
325.90 0.0357343
326.00 0.03585626
326.10 0.03597807
326.20 0.03609972
326.30 0.03621767
326.40 0.03632541
326.50 0.03644963
326.60 0.0365737
326.70 0.03669761
326.80 0.03682136
326.90 0.03694495
327.00 0.03706839
327.10 0.03719167
327.20 0.03731479
327.30 0.03743775
327.40 0.03756055
327.50 0.0376832
327.60 0.03780569
327.70 0.03792802
327.80 0.0380502
327.90 0.03817811
328.00 0.03830743
328.10 0.03843073
328.20 0.03855387
328.30 0.03867685
328.40 0.03879968
328.50 0.03892923
328.60 0.03906024
328.70 0.03919107
328.80 0.0393217
328.90 0.03945205
329.00 0.03958224
329.10 0.03971226
329.20 0.03984212
329.30 0.03997181
329.40 0.04010134
329.50 0.0402307
329.60 0.0403599
329.70 0.04048893
329.80 0.0406178
329.90 0.04074651
330.00 0.04087689
330.10 0.04100936
330.20 0.04114166
330.30 0.04127379
330.40 0.04140759
330.50 0.04154322
330.60 0.04167867
330.70 0.04181395
330.80 0.04194906
330.90 0.042084
331.00 0.04221877
331.10 0.04235337
331.20 0.0424878
331.30 0.04262206
331.40 0.04275615
331.50 0.04289277
331.60 0.04303251
331.70 0.04317209
331.80 0.04331253
331.90 0.04345284
332.00 0.04359298
332.10 0.04373293
332.20 0.04387272
332.30 0.04401232
332.40 0.04415175
332.50 0.044291
332.60 0.04443008
332.70 0.04456899
332.80 0.04470771
332.90 0.04484627
333.00 0.04498465
333.10 0.0451256
333.20 0.04526975
333.30 0.04541371
333.40 0.04555749
333.50 0.04570109
333.60 0.04584452
333.70 0.04598776
333.80 0.04613082
333.90 0.0462737
334.00 0.0464164
334.10 0.0465608
334.20 0.04670731
334.30 0.04685363
334.40 0.04699977
334.50 0.04714573
334.60 0.0472915
334.70 0.0474397
334.80 0.04759033
334.90 0.04773996
335.00 0.04788941
335.10 0.04804068
335.20 0.04819052
335.30 0.04834522
335.40 0.04848693
335.50 0.04864396
335.60 0.04879499
335.70 0.04894041
335.80 0.04909686
335.90 0.04925138
336.00 0.04940359
336.10 0.0495556
336.20 0.04970742
336.30 0.04986079
336.40 0.05001609
336.50 0.05017119
336.60 0.0503261
336.70 0.05048082
336.80 0.05063535
336.90 0.05079057
337.00 0.05094669
337.10 0.05110261
337.20 0.05125834
337.30 0.05141463
337.40 0.0515718
337.50 0.05172878
337.60 0.05188556
337.70 0.05204215
337.80 0.05219854
337.90 0.05235714
338.00 0.05251847
338.10 0.05267959
338.20 0.05284052
338.30 0.05300125
338.40 0.05316284
338.50 0.05332683
338.60 0.05349062
338.70 0.05365421
338.80 0.0538176
338.90 0.05398079
339.00 0.05414377
339.10 0.05430655
339.20 0.05446913
339.30 0.054631
339.40 0.05479192
339.50 0.05495666
339.60 0.05512608
339.70 0.0552953
339.80 0.0554643
339.90 0.0556331
340.00 0.05580169
340.10 0.05597008
340.20 0.05613825
340.30 0.05630622
340.40 0.05647398
340.50 0.05664153
340.60 0.05680888
340.70 0.05697602
340.80 0.05714562
340.90 0.05731883
341.00 0.05749165
341.10 0.05766405
341.20 0.05783624
341.30 0.05800822
341.40 0.05817999
341.50 0.05835155
341.60 0.05852289
341.70 0.05869403
341.80 0.05886742
341.90 0.05904362
342.00 0.0592196
342.10 0.05939537
342.20 0.0595661
342.30 0.05973985
342.40 0.05991925
342.50 0.0600988
342.60 0.06027812
342.70 0.06045722
342.80 0.06063611
342.90 0.06081478
343.00 0.06099274
343.10 0.06116988
343.20 0.06134681
343.30 0.06152353
343.40 0.06170292
343.50 0.06188625
343.60 0.06206935
343.70 0.06225223
343.80 0.06243489
343.90 0.06261733
344.00 0.06280054
344.10 0.06298499
344.20 0.06316921
344.30 0.0633532
344.40 0.06353697
344.50 0.06372052
344.60 0.06390384
344.70 0.06408694
344.80 0.06426982
344.90 0.06445247
345.00 0.06464956
345.10 0.06483176
345.20 0.06501698
345.30 0.06520664
345.40 0.06539607
345.50 0.06558425
345.60 0.06577263
345.70 0.06596321
345.80 0.06615356
345.90 0.06634368
346.00 0.06653357
346.10 0.06672323
346.20 0.06691525
346.30 0.06711074
346.40 0.06730601
346.50 0.06750103
346.60 0.06769582
346.70 0.06789038
346.80 0.06808469
346.90 0.06827878
347.00 0.06847262
347.10 0.06866624
347.20 0.0688625
347.30 0.06906269
347.40 0.06926263
347.50 0.06946233
347.60 0.06966179
347.70 0.06986101
347.80 0.07005999
347.90 0.07025873
348.00 0.07045723
348.10 0.07065549
348.20 0.07085351
348.30 0.07105129
348.40 0.07124883
348.50 0.07144613
348.60 0.0716432
348.70 0.07184493
348.80 0.07204971
348.90 0.07225674
349.00 0.07246353
349.10 0.07267007
349.20 0.07287636
349.30 0.07308241
349.40 0.0732882
349.50 0.07349375
349.60 0.07369905
349.70 0.0739041
349.80 0.07410891
349.90 0.07431347
350.00 0.07451779
350.10 0.07472186
350.20 0.07492568
350.30 0.0751332
350.40 0.07534613
350.50 0.07555881
350.60 0.07577123
350.70 0.07598339
350.80 0.07619531
350.90 0.07640696
351.00 0.07661837
351.10 0.07682952
351.20 0.07704042
351.30 0.07725107
351.40 0.07746395
351.50 0.077681
351.60 0.07789779
351.70 0.07811433
351.80 0.0783306
351.90 0.07854662
352.00 0.07876237
352.10 0.07897788
352.20 0.07918834
352.30 0.07940328
352.40 0.07962555
352.50 0.07984756
352.60 0.0800693
352.70 0.08029077
352.80 0.08051198
352.90 0.08073293
353.00 0.08095361
353.10 0.08117403
353.20 0.08139419
353.30 0.08161409
353.40 0.08183372
353.50 0.08205682
353.60 0.08228059
353.70 0.08250409
353.80 0.08272733
353.90 0.08295234
354.00 0.08318072
354.10 0.08340882
354.20 0.08363665
354.30 0.08386421
354.40 0.0840915
354.50 0.08431851
354.60 0.08454526
354.70 0.08477175
354.80 0.08499897
354.90 0.08522738
355.00 0.08545552
355.10 0.08568339
355.20 0.08591098
355.30 0.08614471
355.40 0.08637816
355.50 0.08661133
355.60 0.08684422
355.70 0.08707859
355.80 0.08731346
355.90 0.0875433
356.00 0.08777919
356.10 0.08801849
356.20 0.0882575
356.30 0.08849624
356.40 0.08873469
356.50 0.08897286
356.60 0.08921075
356.70 0.08944836
356.80 0.08968569
356.90 0.08992274
357.00 0.09015951
357.10 0.090396
357.20 0.09063221
357.30 0.09086814
357.40 0.09110598
357.50 0.09134744
357.60 0.0915886
357.70 0.09182948
357.80 0.09207539
357.90 0.09232101
358.00 0.09256761
358.10 0.09281423
358.20 0.09306057
358.30 0.09330661
358.40 0.09355237
358.50 0.09379784
358.60 0.09404302
358.70 0.09428792
358.80 0.09453252
358.90 0.09477684
359.00 0.09502324
359.10 0.09527357
359.20 0.09552342
359.30 0.09577175
359.40 0.09601979
359.50 0.09626952
359.60 0.09651944
359.70 0.09676907
359.80 0.09702146
359.90 0.09727357
360.00 0.09752714
360.10 0.09778355
360.20 0.09803965
360.30 0.09829546
360.40 0.09855097
360.50 0.09880618
360.60 0.09906793
360.70 0.09932467
360.80 0.09958111
360.90 0.09983725
361.00 0.1000929
361.10 0.1003522
361.20 0.1006056
361.30 0.1008652
361.40 0.1011225
361.50 0.1013862
361.60 0.1016455
361.70 0.1019092
361.80 0.1021718
361.90 0.1024327
362.00 0.1026932
362.10 0.1029585
362.20 0.1032239
362.30 0.1034875
362.40 0.1037507
362.50 0.1040136
362.60 0.1042762
362.70 0.1045479
362.80 0.1048215
362.90 0.1050866
363.00 0.1053513
363.10 0.1056194
363.20 0.1058873
363.30 0.1061584
363.40 0.1064302
363.50 0.1066884
363.60 0.1069595
363.70 0.1072377
363.80 0.107514
363.90 0.1077873
364.00 0.1080603
364.10 0.108333
364.20 0.1086053
364.30 0.1088749
364.40 0.1091435
364.50 0.1094282
364.60 0.1097038
364.70 0.1099791
364.80 0.1102541
364.90 0.1105277
365.00 0.1108009
365.10 0.1110804
365.20 0.1113661
365.30 0.1116384
365.40 0.1119169
365.50 0.1122017
365.60 0.1124861
365.70 0.1127684
365.80 0.1130503
365.90 0.1133293
366.00 0.1136074
366.10 0.1138906
366.20 0.1141735
366.30 0.1144561
366.40 0.1147384
366.50 0.1150339
366.60 0.1153121
366.70 0.115598
366.80 0.1158836
366.90 0.116171
367.00 0.1164616
367.10 0.116752
367.20 0.117042
367.30 0.1173317
367.40 0.1176211
367.50 0.1179089
367.60 0.1181961
367.70 0.1184882
367.80 0.11878
367.90 0.1190715
368.00 0.1193623
368.10 0.1196607
368.20 0.1199565
368.30 0.120252
368.40 0.1205471
368.50 0.1208419
368.60 0.1211364
368.70 0.1214305
368.80 0.1217243
368.90 0.1220202
369.00 0.1223217
369.10 0.1226232
369.20 0.1229187
369.30 0.1232187
369.40 0.1235184
369.50 0.1238177
369.60 0.1241191
369.70 0.1244202
369.80 0.1247217
369.90 0.1250229
370.00 0.1253237
370.10 0.1256282
370.20 0.1259358
370.30 0.126243
370.40 0.1265435
370.50 0.1268501
370.60 0.1271694
370.70 0.1274213
370.80 0.1277312
370.90 0.1280408
371.00 0.1283538
371.10 0.1286664
371.20 0.1289749
371.30 0.1292831
371.40 0.1296058
371.50 0.1299125
371.60 0.1302189
371.70 0.130525
371.80 0.1308307
371.90 0.131136
372.00 0.1314654
372.10 0.1317546
372.20 0.1320825
372.30 0.13241
372.40 0.1327371
372.50 0.1330639
372.60 0.1333903
372.70 0.1337163
372.80 0.1340191
372.90 0.1343217
373.00 0.1346276
373.10 0.1349332
373.20 0.1352991
373.30 0.1356647
373.40 0.1359047
373.50 0.1362695
373.60 0.1365714
373.70 0.136873
373.80 0.1372835
373.90 0.1375999
374.00 0.1379004
374.10 0.1382005
374.20 0.1385003
374.30 0.1387998
374.40 0.1391922
374.50 0.139519
374.60 0.1398484
374.70 0.1401785
374.80 0.1405082
374.90 0.1408375
375.00 0.1411758
375.10 0.1415138
375.20 0.1418513
375.30 0.1421826
375.40 0.1425134
375.50 0.142844
375.60 0.1431741
375.70 0.1435039
375.80 0.1438333
375.90 0.1441623
376.00 0.144452
376.10 0.1448044
376.20 0.145157
376.30 0.1455092
376.40 0.145861
376.50 0.1461935
376.60 0.1464975
376.70 0.1468012
376.80 0.1471286
376.90 0.1474799
377.00 0.1478307
377.10 0.1481811
377.20 0.1485293
377.30 0.1488704
377.40 0.1492112
377.50 0.1495515
377.60 0.1498977
377.70 0.1502436
377.80 0.1505891
377.90 0.1509342
378.00 0.1513472
378.10 0.1516925
378.20 0.1520357
378.30 0.1523784
378.40 0.1527208
378.50 0.1530628
378.60 0.1534045
378.70 0.1537457
378.80 0.1540866
378.90 0.1544369
379.00 0.1548051
379.10 0.1551603
379.20 0.1555151
379.30 0.1558664
379.40 0.1562142
379.50 0.1565615
379.60 0.1568995
379.70 0.1572308
379.80 0.1575893
379.90 0.1579473
380.00 0.158305
380.10 0.1586623
380.20 0.1590192
380.30 0.1593756
380.40 0.1597317
380.50 0.1600874
380.60 0.1604346
380.70 0.1608152
380.80 0.1611954
380.90 0.1615753
381.00 0.1619546
381.10 0.16232
381.20 0.1626649
381.30 0.1629669
381.40 0.1633459
381.50 0.1637519
381.60 0.1641219
381.70 0.1644469
381.80 0.1648659
381.90 0.1651981
382.00 0.1655299
382.10 0.1659211
382.20 0.1662641
382.30 0.1666545
382.40 0.1670326
382.50 0.1673928
382.60 0.1677526
382.70 0.1681327
382.80 0.1685261
382.90 0.1689095
383.00 0.1692924
383.10 0.1696749
383.20 0.1700547
383.30 0.170425
383.40 0.1707809
383.50 0.1711154
383.60 0.1715424
383.70 0.1719212
383.80 0.1722996
383.90 0.1726776
384.00 0.1730552
384.10 0.1734323
384.20 0.1738091
384.30 0.1741854
384.40 0.1745619
384.50 0.1749386
384.60 0.1753148
384.70 0.1756907
384.80 0.1760831
384.90 0.1765067
385.00 0.1768695
385.10 0.1772357
385.20 0.1777078
385.30 0.1780926
385.40 0.1784713
385.50 0.1788437
385.60 0.1792158
385.70 0.1795874
385.80 0.1799619
385.90 0.180348
386.00 0.1807432
386.10 0.1811474
386.20 0.1815502
386.30 0.1819526
386.40 0.1823374
386.50 0.1827402
386.60 0.1831433
386.70 0.1835151
386.80 0.1838865
386.90 0.1842866
387.00 0.1846921
387.10 0.1850623
387.20 0.1854785
387.30 0.1859176
387.40 0.186285
387.50 0.1867395
387.60 0.1871208
387.70 0.1875174
387.80 0.1879135
387.90 0.1883093
388.00 0.1887143
388.10 0.1891183
388.20 0.1894742
388.30 0.1898907
388.40 0.1903067
388.50 0.19072
388.60 0.1911203
388.70 0.191583
388.80 0.1919504
388.90 0.1923202
389.00 0.1927682
389.10 0.1931402
389.20 0.1935622
389.30 0.1939738
389.40 0.1944051
389.50 0.1948168
389.60 0.1952104
389.70 0.1956352
389.80 0.1960423
389.90 0.1964491
390.00 0.1968554
390.10 0.1972612
390.20 0.1976666
390.30 0.1980826
390.40 0.1985107
390.50 0.1989383
390.60 0.1993655
390.70 0.1997922
390.80 0.2002123
390.90 0.2006257
391.00 0.20104
391.10 0.2014907
391.20 0.2019217
391.30 0.2023131
391.40 0.202741
391.50 0.2031685
391.60 0.2035954
391.70 0.204022
391.80 0.204448
391.90 0.2048739
392.00 0.2053038
392.10 0.2057393
392.20 0.2061603
392.30 0.2065171
392.40 0.2069532
392.50 0.2074353
392.60 0.2078954
392.70 0.2082419
392.80 0.208701
392.90 0.2090835
393.00 0.2095177
393.10 0.2099665
393.20 0.2104312
393.30 0.2108879
393.40 0.2113216
393.50 0.2117065
393.60 0.2121426
393.70 0.2125974
393.80 0.2130518
393.90 0.2135057
394.00 0.2139574
394.10 0.2143779
394.20 0.2147819
394.30 0.2152218
394.40 0.2156606
394.50 0.2161681
394.60 0.2165592
394.70 0.2169633
394.80 0.217418
394.90 0.2178732
395.00 0.2183526
395.10 0.2187637
395.20 0.2191895
395.30 0.2196239
395.40 0.2200579
395.50 0.2205238
395.60 0.2210013
395.70 0.2214706
395.80 0.2219188
395.90 0.2223666
396.00 0.2228123
396.10 0.2232457
396.20 0.2236886
396.30 0.2241309
396.40 0.2245728
396.50 0.2250142
396.60 0.2254552
396.70 0.2259734
396.80 0.2263905
396.90 0.2268692
397.00 0.2272861
397.10 0.2277247
397.20 0.2282615
397.30 0.2286493
397.40 0.2291246
397.50 0.2295994
397.60 0.2300734
397.70 0.2305443
397.80 0.2310146
397.90 0.2314749
398.00 0.2319091
398.10 0.2323429
398.20 0.2327931
398.30 0.2332619
398.40 0.2337304
398.50 0.2342045
398.60 0.2346774
398.70 0.2351434
398.80 0.2356074
398.90 0.2360662
399.00 0.2365159
399.10 0.2369991
399.20 0.2374828
399.30 0.237966
399.40 0.2384486
399.50 0.2389308
399.60 0.2393976
399.70 0.2398585
399.80 0.2403189
399.90 0.2407789
400.00 0.2412385
400.10 0.2417046
400.20 0.242189
400.30 0.2426473
400.40 0.2431281
400.50 0.2436634
400.60 0.2440868
400.70 0.2445624
400.80 0.2451064
400.90 0.2455443
401.00 0.246004
401.10 0.2464744
401.20 0.2470081
401.30 0.2475106
401.40 0.2479901
401.50 0.2484676
401.60 0.2489441
401.70 0.2494022
401.80 0.2498591
401.90 0.250359
402.00 0.2508253
402.10 0.2513282
402.20 0.2518642
402.30 0.2522799
402.40 0.2527897
402.50 0.2533049
402.60 0.2537402
402.70 0.2542364
402.80 0.2547551
402.90 0.2552518
403.00 0.2557695
403.10 0.2562007
403.20 0.2567371
403.30 0.2572696
403.40 0.2577408
403.50 0.2582294
403.60 0.2587242
403.70 0.2591851
403.80 0.2597168
403.90 0.2601956
404.00 0.2606942
404.10 0.2612355
404.20 0.2616934
404.30 0.2621508
404.40 0.2626707
404.50 0.263224
404.60 0.2636798
404.70 0.2641885
404.80 0.2647151
404.90 0.2652041
405.00 0.2657031
405.10 0.2662024
405.20 0.2667159
405.30 0.2672289
405.40 0.2677338
405.50 0.2682382
405.60 0.268742
405.70 0.2692453
405.80 0.2697481
405.90 0.2702503
406.00 0.2707558
406.10 0.2712609
406.20 0.2717653
406.30 0.2722693
406.40 0.2727747
406.50 0.2733336
406.60 0.2738567
406.70 0.2743547
406.80 0.2748785
406.90 0.275369
407.00 0.275897
407.10 0.2764245
407.20 0.2769513
407.30 0.2774777
407.40 0.2780035
407.50 0.2785287
407.60 0.2790534
407.70 0.2795775
407.80 0.2801011
407.90 0.2806233
408.00 0.2811155
408.10 0.2816384
408.20 0.2821756
408.30 0.2826849
408.40 0.2831936
408.50 0.2837522
408.60 0.2842639
408.70 0.2847751
408.80 0.2852935
408.90 0.2858593
409.00 0.2863798
409.10 0.2868999
409.20 0.2874194
409.30 0.2879384
409.40 0.288458
409.50 0.2890154
409.60 0.2895722
409.70 0.290123
409.80 0.2906514
409.90 0.2911773
410.00 0.2916397
410.10 0.2921888
410.20 0.2927352
410.30 0.2932805
410.40 0.2938236
410.50 0.2943614
410.60 0.2948986
410.70 0.2954332
410.80 0.2959588
410.90 0.2964839
411.00 0.2970326
411.10 0.2975897
411.20 0.2981463
411.30 0.298703
411.40 0.299262
411.50 0.2998081
411.60 0.3003536
411.70 0.3008941
411.80 0.3014165
411.90 0.3019589
412.00 0.3024801
412.10 0.3030265
412.20 0.3036237
412.30 0.3041297
412.40 0.3046846
412.50 0.3052614
412.60 0.3057721
412.70 0.3063293
412.80 0.3068977
412.90 0.3074264
413.00 0.3080332
413.10 0.3085736
413.20 0.3091133
413.30 0.3096525
413.40 0.3101912
413.50 0.3107404
413.60 0.3113264
413.70 0.3118892
413.80 0.3124515
413.90 0.3130131
