# Version 2.1 - nm, norm@500 to 1, cut digits, bergeron_He_18000_70.dat_18000
# Wavelength(nm)  Flambda(ergs/cm^s/s/nm)
300.00 3.614229
300.10 3.611908
300.20 3.609502
300.30 3.607037
300.40 3.604159
300.50 3.601285
300.60 3.598414
300.70 3.595545
300.80 3.59268
300.90 3.589818
301.00 3.586958
301.10 3.584102
301.20 3.581249
301.30 3.578398
301.40 3.575551
301.50 3.572707
301.60 3.569865
301.70 3.567027
301.80 3.564192
301.90 3.561359
302.00 3.55853
302.10 3.555557
302.20 3.55257
302.30 3.549587
302.40 3.546607
302.50 3.54363
302.60 3.540657
302.70 3.537686
302.80 3.534719
302.90 3.531755
303.00 3.528794
303.10 3.525836
303.20 3.522881
303.30 3.519926
303.40 3.516947
303.50 3.51397
303.60 3.510997
303.70 3.508027
303.80 3.505061
303.90 3.502097
304.00 3.499136
304.10 3.496179
304.20 3.493225
304.30 3.490274
304.40 3.487326
304.50 3.484381
304.60 3.481473
304.70 3.478572
304.80 3.475674
304.90 3.47278
305.00 3.469888
305.10 3.466999
305.20 3.464114
305.30 3.461231
305.40 3.458352
305.50 3.455475
305.60 3.452602
305.70 3.449731
305.80 3.446864
305.90 3.444
306.00 3.441138
306.10 3.43828
306.20 3.435424
306.30 3.432572
306.40 3.429696
306.50 3.426815
306.60 3.423937
306.70 3.421062
306.80 3.41819
306.90 3.415321
307.00 3.412456
307.10 3.409593
307.20 3.406733
307.30 3.403876
307.40 3.401022
307.50 3.398171
307.60 3.395324
307.70 3.392479
307.80 3.389637
307.90 3.386798
308.00 3.383962
308.10 3.381129
308.20 3.378299
308.30 3.375472
308.40 3.372648
308.50 3.369827
308.60 3.367009
308.70 3.364193
308.80 3.361225
308.90 3.357817
309.00 3.355006
309.10 3.352197
309.20 3.349392
309.30 3.346589
309.40 3.343767
309.50 3.340806
309.60 3.337848
309.70 3.334893
309.80 3.331942
309.90 3.328994
310.00 3.326049
310.10 3.323106
310.20 3.320167
310.30 3.317231
310.40 3.314411
310.50 3.311716
310.60 3.309024
310.70 3.306334
310.80 3.303647
310.90 3.300963
311.00 3.298021
311.10 3.295083
311.20 3.292148
311.30 3.289209
311.40 3.286253
311.50 3.283301
311.60 3.280352
311.70 3.277407
311.80 3.274464
311.90 3.271524
312.00 3.268587
312.10 3.265654
312.20 3.262891
312.30 3.260127
312.40 3.257197
312.50 3.253433
312.60 3.250537
312.70 3.247644
312.80 3.244753
312.90 3.241913
313.00 3.239125
313.10 3.23634
313.20 3.233558
313.30 3.230695
313.40 3.227595
313.50 3.224498
313.60 3.221404
313.70 3.218314
313.80 3.215227
313.90 3.212144
314.00 3.209064
314.10 3.205469
314.20 3.201878
314.30 3.198291
314.40 3.194708
314.50 3.191128
314.60 3.187553
314.70 3.183982
314.80 3.180318
314.90 3.176333
315.00 3.1723
315.10 3.1678
315.20 3.163305
315.30 3.158816
315.40 3.154331
315.50 3.149852
315.60 3.145377
315.70 3.139669
315.80 3.133968
315.90 3.128273
316.00 3.122585
316.10 3.116162
316.20 3.109747
316.30 3.112223
316.40 3.113955
316.50 3.099418
316.60 3.061994
316.70 3.048984
316.80 3.03599
316.90 3.034443
317.00 3.032897
317.10 3.031353
317.20 3.02981
317.30 3.038893
317.40 3.044838
317.50 3.041886
317.60 3.038936
317.70 3.03599
317.80 3.033047
317.90 3.013782
318.00 2.987237
318.10 2.942174
318.20 2.897167
318.30 2.852217
318.40 2.781869
318.50 2.639211
318.60 2.465051
318.70 2.044656
318.80 1.5901
318.90 2.106763
319.00 2.374329
319.10 2.535771
319.20 2.671175
319.30 2.732923
319.40 2.794592
319.50 2.856185
319.60 2.900151
319.70 2.919808
319.80 2.93944
319.90 2.959046
320.00 2.974243
320.10 2.984673
320.20 2.99323
320.30 2.999457
320.40 3.004222
320.50 3.007684
320.60 3.010852
320.70 3.012575
320.80 3.013604
320.90 3.013884
321.00 3.014163
321.10 3.014441
321.20 3.013942
321.30 3.01306
321.40 3.012177
321.50 3.011296
321.60 3.010414
321.70 3.009534
321.80 3.008642
321.90 3.007739
322.00 3.005964
322.10 3.004275
322.20 3.002588
322.30 3.000902
322.40 2.999218
322.50 2.997536
322.60 2.995855
322.70 2.994175
322.80 2.992379
322.90 2.9904
323.00 2.988423
323.10 2.986447
323.20 2.984473
323.30 2.982501
323.40 2.980531
323.50 2.978563
323.60 2.976597
323.70 2.974633
323.80 2.97267
323.90 2.97071
324.00 2.968499
324.10 2.96629
324.20 2.964084
324.30 2.961977
324.40 2.959986
324.50 2.957817
324.60 2.95565
324.70 2.953486
324.80 2.951323
324.90 2.949163
325.00 2.947004
325.10 2.944848
325.20 2.942804
325.30 2.940995
325.40 2.939188
325.50 2.937224
325.60 2.935068
325.70 2.932914
325.80 2.930762
325.90 2.928623
326.00 2.926496
326.10 2.924371
326.20 2.922249
326.30 2.919927
326.40 2.917034
326.50 2.914865
326.60 2.912698
326.70 2.910533
326.80 2.90837
326.90 2.906209
327.00 2.90405
327.10 2.901893
327.20 2.899738
327.30 2.897586
327.40 2.895435
327.50 2.893287
327.60 2.891141
327.70 2.888996
327.80 2.886854
327.90 2.884896
328.00 2.88247
328.10 2.87923
328.20 2.875994
328.30 2.872761
328.40 2.869532
328.50 2.867817
328.60 2.866459
328.70 2.865101
328.80 2.863554
328.90 2.861465
329.00 2.859378
329.10 2.857293
329.20 2.85521
329.30 2.853129
329.40 2.85105
329.50 2.848974
329.60 2.846899
329.70 2.844826
329.80 2.842755
329.90 2.840686
330.00 2.838621
330.10 2.836559
330.20 2.834499
330.30 2.83244
330.40 2.830312
330.50 2.828108
330.60 2.825906
330.70 2.823706
330.80 2.821508
330.90 2.819312
331.00 2.817119
331.10 2.814927
331.20 2.812738
331.30 2.810551
331.40 2.808366
331.50 2.806159
331.60 2.803926
331.70 2.801695
331.80 2.79922
331.90 2.796737
332.00 2.794257
332.10 2.791779
332.20 2.789304
332.30 2.786831
332.40 2.78436
332.50 2.781892
332.60 2.779427
332.70 2.776964
332.80 2.774503
332.90 2.772045
333.00 2.76959
333.10 2.766771
333.20 2.76351
333.30 2.760252
333.40 2.756997
333.50 2.753746
333.60 2.750498
333.70 2.747253
333.80 2.744012
333.90 2.740774
334.00 2.73754
334.10 2.733533
334.20 2.728581
334.30 2.723636
334.40 2.718695
334.50 2.71376
334.60 2.708831
334.70 2.702534
334.80 2.693035
334.90 2.681345
335.00 2.669669
335.10 2.65488
335.20 2.637477
335.30 2.616667
335.40 2.590089
335.50 2.613713
335.60 2.631884
335.70 2.644676
335.80 2.654924
335.90 2.6625
336.00 2.66682
336.10 2.671134
336.20 2.675443
336.30 2.677683
336.40 2.6774
336.50 2.677117
336.60 2.676834
336.70 2.676551
336.80 2.676268
336.90 2.675833
337.00 2.675214
337.10 2.674595
337.20 2.673976
337.30 2.673051
337.40 2.671685
337.50 2.67032
337.60 2.668956
337.70 2.667594
337.80 2.666232
337.90 2.664774
338.00 2.663198
338.10 2.661622
338.20 2.660049
338.30 2.658476
338.40 2.656779
338.50 2.654772
338.60 2.652768
338.70 2.650766
338.80 2.648765
338.90 2.646766
339.00 2.64477
339.10 2.642775
339.20 2.640782
339.30 2.638969
339.40 2.637414
339.50 2.635595
339.60 2.633452
339.70 2.631311
339.80 2.629172
339.90 2.627035
340.00 2.624901
340.10 2.622768
340.20 2.620637
340.30 2.618509
340.40 2.616382
340.50 2.614258
340.60 2.612136
340.70 2.610015
340.80 2.607871
340.90 2.605691
341.00 2.603375
341.10 2.600894
341.20 2.598416
341.30 2.595939
341.40 2.593466
341.50 2.590994
341.60 2.588526
341.70 2.586059
341.80 2.583486
341.90 2.580783
342.00 2.578082
342.10 2.575383
342.20 2.572294
342.30 2.569431
342.40 2.566612
342.50 2.563207
342.60 2.559805
342.70 2.556406
342.80 2.553012
342.90 2.54962
343.00 2.545686
343.10 2.541087
343.20 2.536494
343.30 2.531905
343.40 2.526365
343.50 2.519454
343.60 2.512551
343.70 2.505655
343.80 2.498767
343.90 2.491887
344.00 2.481079
344.10 2.464625
344.20 2.44819
344.30 2.431773
344.40 2.40667
344.50 2.369078
344.60 2.324468
344.70 2.243737
344.80 2.313019
344.90 2.359153
345.00 2.396888
345.10 2.416643
345.20 2.432705
345.30 2.443467
345.40 2.454217
345.50 2.462168
345.60 2.465787
345.70 2.468079
345.80 2.470368
345.90 2.472654
346.00 2.474937
346.10 2.477217
346.20 2.478176
346.30 2.477239
346.40 2.476303
346.50 2.475367
346.60 2.474432
346.70 2.473498
346.80 2.472564
346.90 2.471631
347.00 2.470699
347.10 2.469767
347.20 2.468704
347.30 2.46745
347.40 2.466197
347.50 2.464945
347.60 2.463695
347.70 2.462445
347.80 2.461196
347.90 2.459949
348.00 2.458702
348.10 2.457457
348.20 2.456212
348.30 2.454969
348.40 2.453726
348.50 2.452485
348.60 2.451244
348.70 2.449878
348.80 2.44854
348.90 2.447299
349.00 2.446059
349.10 2.44482
349.20 2.443582
349.30 2.442345
349.40 2.441109
349.50 2.439874
349.60 2.43864
349.70 2.437407
349.80 2.436175
349.90 2.434944
350.00 2.433714
350.10 2.432485
350.20 2.431257
350.30 2.430054
350.40 2.428885
350.50 2.427718
350.60 2.426551
350.70 2.425385
350.80 2.424221
350.90 2.423057
351.00 2.421894
351.10 2.420732
351.20 2.419571
351.30 2.418411
351.40 2.417348
351.50 2.416454
351.60 2.415562
351.70 2.41467
351.80 2.413779
351.90 2.412888
352.00 2.411998
352.10 2.411109
352.20 2.410509
352.30 2.409909
352.40 2.40926
352.50 2.408612
352.60 2.407965
352.70 2.407317
352.80 2.40667
352.90 2.406024
353.00 2.405377
353.10 2.404731
353.20 2.404086
353.30 2.403441
353.40 2.402796
353.50 2.40222
353.60 2.401662
353.70 2.401104
353.80 2.400547
353.90 2.399987
354.00 2.399424
354.10 2.398861
354.20 2.398298
354.30 2.397736
354.40 2.397173
354.50 2.396611
354.60 2.396049
354.70 2.395488
354.80 2.395041
354.90 2.394758
355.00 2.394475
355.10 2.394192
355.20 2.393909
355.30 2.393379
355.40 2.392848
355.50 2.392318
355.60 2.391788
355.70 2.391389
355.80 2.39105
355.90 2.391101
356.00 2.390822
356.10 2.390289
356.20 2.389755
356.30 2.389222
356.40 2.388689
356.50 2.388156
356.60 2.387624
356.70 2.387092
356.80 2.38656
356.90 2.386028
357.00 2.385496
357.10 2.384965
357.20 2.384433
357.30 2.383902
357.40 2.383331
357.50 2.382688
357.60 2.382045
357.70 2.381402
357.80 2.381123
357.90 2.380844
358.00 2.379813
358.10 2.378595
358.20 2.377377
358.30 2.376161
358.40 2.374946
358.50 2.373731
358.60 2.372518
358.70 2.371306
358.80 2.370094
358.90 2.368884
359.00 2.367449
359.10 2.365616
359.20 2.363723
359.30 2.361422
359.40 2.359124
359.50 2.35565
359.60 2.351885
359.70 2.348125
359.80 2.342919
359.90 2.337718
360.00 2.330708
360.10 2.320479
360.20 2.310262
360.30 2.300055
360.40 2.289859
360.50 2.279674
360.60 2.25834
360.70 2.226917
360.80 2.195529
360.90 2.164174
361.00 2.123969
361.10 2.046203
361.20 1.94604
361.30 1.737984
361.40 1.901017
361.50 2.071349
361.60 2.13224
361.70 2.137854
361.80 2.147384
361.90 2.163869
362.00 2.180335
362.10 2.187055
362.20 2.186597
362.30 2.177718
362.40 2.168849
362.50 2.159989
362.60 2.151139
362.70 2.135911
362.80 2.117978
362.90 2.09051
363.00 2.063073
363.10 2.027645
363.20 1.992174
363.30 1.958398
363.40 1.942178
363.50 1.970817
363.60 2.024075
363.70 2.060476
363.80 2.087324
363.90 2.105619
364.00 2.123894
364.10 2.142148
364.20 2.160382
364.30 2.178454
364.40 2.19647
364.50 2.212108
364.60 2.222741
364.70 2.233362
364.80 2.243971
364.90 2.249972
365.00 2.255967
365.10 2.252509
365.20 2.230728
365.30 2.223402
365.40 2.243264
365.50 2.25756
365.60 2.271841
365.70 2.281674
365.80 2.291497
365.90 2.297867
366.00 2.303369
366.10 2.305912
366.20 2.308453
366.30 2.31099
366.40 2.313524
366.50 2.314709
366.60 2.314572
366.70 2.314145
366.80 2.313717
366.90 2.312633
367.00 2.310384
367.10 2.308137
367.20 2.305892
367.30 2.303649
367.40 2.301409
367.50 2.297522
367.60 2.293227
367.70 2.28679
367.80 2.28036
367.90 2.273936
368.00 2.267462
368.10 2.258659
368.20 2.247002
368.30 2.235334
368.40 2.223678
368.50 2.212035
368.60 2.200404
368.70 2.188785
368.80 2.177179
368.90 2.164435
369.00 2.148041
369.10 2.131259
369.20 2.112561
369.30 2.089333
369.40 2.066129
369.50 2.04295
369.60 2.011094
369.70 1.979273
369.80 1.9379
369.90 1.896474
370.00 1.855093
370.10 1.808727
370.20 1.740831
370.30 1.672915
370.40 1.600326
370.50 1.562126
370.60 1.638316
370.70 1.73547
370.80 1.803141
370.90 1.870739
371.00 1.894509
371.10 1.917811
371.20 1.938706
371.30 1.959579
371.40 1.983988
371.50 2.005305
371.60 2.026599
371.70 2.04787
371.80 2.069118
371.90 2.090342
372.00 2.106568
372.10 2.121484
372.20 2.131393
372.30 2.141291
372.40 2.151179
372.50 2.161055
372.60 2.170921
372.70 2.180775
372.80 2.184908
372.90 2.189036
373.00 2.192153
373.10 2.195256
373.20 2.184507
373.30 2.173771
373.40 2.079646
373.50 2.065791
373.60 2.116687
373.70 2.152148
373.80 2.17422
373.90 2.195408
374.00 2.205089
374.10 2.214759
374.20 2.224418
374.30 2.234067
374.40 2.239478
374.50 2.244304
374.60 2.24761
374.70 2.250906
374.80 2.254197
374.90 2.257485
375.00 2.258739
375.10 2.259992
375.20 2.261242
375.30 2.261239
375.40 2.261236
375.50 2.261233
375.60 2.261229
375.70 2.261224
375.80 2.26122
375.90 2.261215
376.00 2.26105
376.10 2.259632
376.20 2.258203
376.30 2.256775
376.40 2.255348
376.50 2.253725
376.60 2.251808
376.70 2.249893
376.80 2.24761
376.90 2.244959
377.00 2.24231
377.10 2.239664
377.20 2.236782
377.30 2.233003
377.40 2.229228
377.50 2.225457
377.60 2.22089
377.70 2.216328
377.80 2.211771
377.90 2.207219
378.00 2.203011
378.10 2.196122
378.20 2.189207
378.30 2.1823
378.40 2.175399
378.50 2.168506
378.60 2.161619
378.70 2.154739
378.80 2.147867
378.90 2.140332
379.00 2.131564
379.10 2.121782
379.20 2.11201
379.30 2.10159
379.40 2.090524
379.50 2.079469
379.60 2.067567
379.70 2.053464
379.80 2.035892
379.90 2.018339
380.00 2.000804
380.10 1.983287
380.20 1.965788
380.30 1.948308
380.40 1.930845
380.50 1.913401
380.60 1.886853
380.70 1.855665
380.80 1.824509
380.90 1.793386
381.00 1.762296
381.10 1.721212
381.20 1.678105
381.30 1.631214
381.40 1.578179
381.50 1.515764
381.60 1.447947
381.70 1.371978
381.80 1.29866
381.90 1.226885
382.00 1.187669
382.10 1.297129
382.20 1.40627
382.30 1.498778
382.40 1.57742
382.50 1.635338
382.60 1.693195
382.70 1.739584
382.80 1.760936
382.90 1.770143
383.00 1.779341
383.10 1.788528
383.20 1.800498
383.30 1.822954
383.40 1.844959
383.50 1.866298
383.60 1.885836
383.70 1.90023
383.80 1.914609
383.90 1.928973
384.00 1.943321
384.10 1.957654
384.20 1.971972
384.30 1.986275
384.40 1.997926
384.50 2.00693
384.60 2.015924
384.70 2.024908
384.80 2.033488
384.90 2.039974
385.00 2.045348
385.10 2.050696
385.20 2.054423
385.30 2.057409
385.40 2.059645
385.50 2.061132
385.60 2.062618
385.70 2.064101
385.80 2.065414
385.90 2.066089
386.00 2.065538
386.10 2.063274
386.20 2.056071
386.30 2.048874
386.40 2.038382
386.50 2.017443
386.60 1.981435
386.70 1.879371
386.80 1.605389
386.90 1.768331
387.00 1.848543
387.10 1.890391
387.20 1.919493
387.30 1.943617
387.40 1.960547
387.50 1.973858
387.60 1.98343
387.70 1.985364
387.80 1.987295
387.90 1.989224
388.00 1.988608
388.10 1.976353
388.20 1.94974
388.30 1.912557
388.40 1.875413
388.50 1.821427
388.60 1.72715
388.70 1.576441
388.80 1.292617
388.90 1.16616
389.00 1.444683
389.10 1.61648
389.20 1.728019
389.30 1.805689
389.40 1.861872
389.50 1.909934
389.60 1.944064
389.70 1.966896
389.80 1.981306
389.90 1.995701
390.00 2.010081
390.10 2.024446
390.20 2.038796
390.30 2.048294
390.40 2.052329
390.50 2.05636
390.60 2.060386
390.70 2.064408
390.80 2.067258
390.90 2.068939
391.00 2.068747
391.10 2.068159
391.20 2.067473
391.30 2.065204
391.40 2.061571
391.50 2.05794
391.60 2.054314
391.70 2.05069
391.80 2.04707
391.90 2.042545
392.00 2.03663
392.10 2.030169
392.20 2.023468
392.30 2.014757
392.40 2.006593
392.50 1.999451
392.60 1.989615
392.70 1.98159
392.80 1.983797
392.90 1.991246
393.00 1.998905
393.10 2.006074
393.20 2.01252
393.30 2.017243
393.40 2.021683
393.50 2.023104
393.60 2.021087
393.70 2.021661
393.80 2.024283
393.90 2.026119
394.00 2.027835
394.10 2.027848
394.20 2.027304
394.30 2.026103
394.40 2.023428
394.50 2.020656
394.60 2.01538
394.70 2.009628
394.80 2.002071
394.90 1.994445
395.00 1.984336
395.10 1.973805
395.20 1.95995
395.30 1.945373
395.40 1.93081
395.50 1.908465
395.60 1.88326
395.70 1.853457
395.80 1.81119
395.90 1.768966
396.00 1.724486
396.10 1.646827
396.20 1.542195
396.30 1.421752
396.40 1.204428
396.50 1.260495
396.60 1.588056
396.70 1.700597
396.80 1.70056
396.90 1.679688
397.00 1.720853
397.10 1.829579
397.20 1.868495
397.30 1.859913
397.40 1.865761
397.50 1.871603
397.60 1.877546
397.70 1.884573
397.80 1.891592
397.90 1.897356
398.00 1.899742
398.10 1.902126
398.20 1.902939
398.30 1.901984
398.40 1.900964
398.50 1.897858
398.60 1.894129
398.70 1.888927
398.80 1.883418
398.90 1.877338
399.00 1.870194
399.10 1.86289
399.20 1.853216
399.30 1.843551
399.40 1.833896
399.50 1.82425
399.60 1.811761
399.70 1.798229
399.80 1.78471
399.90 1.771205
400.00 1.757621
400.10 1.741083
400.20 1.723577
400.30 1.703328
400.40 1.682391
400.50 1.661355
400.60 1.638479
400.70 1.615059
400.80 1.588881
400.90 1.550002
401.00 1.52917
401.10 1.528407
401.20 1.525478
401.30 1.517935
401.40 1.502663
401.50 1.484898
401.60 1.466813
401.70 1.437837
401.80 1.404292
401.90 1.364084
402.00 1.321176
402.10 1.269789
402.20 1.212424
402.30 1.150895
402.40 1.091066
402.50 1.044169
402.60 1.006948
402.70 1.013902
402.80 1.07685
402.90 1.149226
403.00 1.222077
403.10 1.289933
403.20 1.349206
403.30 1.401778
403.40 1.449748
403.50 1.490344
403.60 1.528903
403.70 1.5615
403.80 1.590525
403.90 1.613986
404.00 1.636093
404.10 1.650935
404.20 1.659185
404.30 1.667427
404.40 1.65985
404.50 1.612817
404.60 1.593018
404.70 1.613485
404.80 1.634988
404.90 1.654357
405.00 1.671009
405.10 1.685347
405.20 1.699337
405.30 1.713313
405.40 1.723734
405.50 1.734145
405.60 1.744545
405.70 1.754935
405.80 1.765314
405.90 1.775683
406.00 1.782764
406.10 1.789838
406.20 1.796905
406.30 1.803964
406.40 1.810958
406.50 1.817076
406.60 1.822437
406.70 1.827194
406.80 1.83224
406.90 1.836873
407.00 1.840084
407.10 1.843291
407.20 1.846496
407.30 1.849696
407.40 1.852894
407.50 1.856088
407.60 1.859279
407.70 1.862466
407.80 1.86565
407.90 1.868781
408.00 1.870296
408.10 1.871768
408.20 1.873149
408.30 1.874547
408.40 1.875944
408.50 1.876537
408.60 1.877154
408.70 1.87777
408.80 1.878328
408.90 1.878306
409.00 1.877897
409.10 1.877489
409.20 1.877081
409.30 1.876673
409.40 1.87625
409.50 1.875334
409.60 1.874418
409.70 1.873422
409.80 1.872101
409.90 1.870768
410.00 1.869
410.10 1.867355
410.20 1.864922
410.30 1.862295
410.40 1.859457
410.50 1.855949
410.60 1.852444
410.70 1.848537
410.80 1.843018
410.90 1.837503
411.00 1.829923
411.10 1.821584
411.20 1.813253
411.30 1.804172
411.40 1.791873
411.50 1.773074
411.60 1.754293
411.70 1.730461
411.80 1.686382
411.90 1.634838
412.00 1.50271
412.10 1.141531
412.20 1.284172
412.30 1.417169
412.40 1.50414
412.50 1.557022
412.60 1.593558
412.70 1.615401
412.80 1.63356
412.90 1.649315
413.00 1.653703
413.10 1.650147
413.20 1.646594
413.30 1.643044
413.40 1.639498
413.50 1.634339
413.60 1.620958
413.70 1.601999
413.80 1.583059
413.90 1.564136
414.00 1.543987
414.10 1.519918
414.20 1.490588
414.30 1.426439
414.40 1.373564
414.50 1.399947
414.60 1.447521
414.70 1.489028
414.80 1.526673
414.90 1.552182
415.00 1.577667
415.10 1.603127
415.20 1.625998
415.30 1.640733
415.40 1.655454
415.50 1.670046
415.60 1.680923
415.70 1.691789
415.80 1.702076
415.90 1.710554
416.00 1.719023
416.10 1.726735
416.20 1.731442
416.30 1.736144
416.40 1.740842
416.50 1.745395
416.60 1.74541
416.70 1.745336
416.80 1.737658
416.90 1.695328
417.00 1.693513
417.10 1.719486
417.20 1.732704
417.30 1.745714
417.40 1.752388
417.50 1.759056
417.60 1.765233
417.70 1.769429
417.80 1.772401
417.90 1.77537
418.00 1.778336
418.10 1.781298
418.20 1.784258
418.30 1.787164
418.40 1.788423
418.50 1.789589
418.60 1.790753
418.70 1.791916
418.80 1.793078
418.90 1.794239
419.00 1.795398
419.10 1.796555
419.20 1.797712
419.30 1.798843
419.40 1.799175
419.50 1.799507
419.60 1.799715
419.70 1.799425
419.80 1.799136
419.90 1.798829
420.00 1.798466
420.10 1.798103
420.20 1.79774
420.30 1.797378
420.40 1.797015
420.50 1.796653
420.60 1.796291
420.70 1.795929
420.80 1.795567
420.90 1.7952
421.00 1.794647
421.10 1.794096
421.20 1.793499
421.30 1.792767
421.40 1.792035
421.50 1.791304
421.60 1.790573
421.70 1.789843
421.80 1.789113
421.90 1.788355
422.00 1.787508
422.10 1.786608
422.20 1.7855
422.30 1.784392
422.40 1.783287
422.50 1.782233
422.60 1.781181
422.70 1.780128
422.80 1.779077
422.90 1.778027
423.00 1.776977
423.10 1.775928
423.20 1.77488
423.30 1.773832
423.40 1.772786
423.50 1.77174
423.60 1.770695
423.70 1.769651
423.80 1.768607
423.90 1.767565
424.00 1.766523
424.10 1.765482
424.20 1.764442
424.30 1.763402
424.40 1.762403
424.50 1.761241
424.60 1.76008
424.70 1.758919
424.80 1.757759
424.90 1.756601
425.00 1.755443
