# Version 2.1 - nm, norm@500 to 1, cut digits, bergeron_He_22000_70.dat_22000
# Wavelength(nm)  Flambda(ergs/cm^s/s/nm)
300.00 3.859886
300.10 3.856954
300.20 3.853894
300.30 3.850788
300.40 3.847357
300.50 3.84393
300.60 3.840507
300.70 3.837088
300.80 3.833672
300.90 3.83026
301.00 3.826851
301.10 3.823447
301.20 3.820046
301.30 3.816648
301.40 3.813255
301.50 3.809865
301.60 3.806478
301.70 3.803096
301.80 3.799717
301.90 3.796341
302.00 3.792969
302.10 3.789429
302.20 3.785872
302.30 3.78232
302.40 3.778772
302.50 3.775227
302.60 3.771687
302.70 3.76815
302.80 3.764617
302.90 3.761088
303.00 3.757563
303.10 3.754041
303.20 3.750523
303.30 3.747015
303.40 3.743564
303.50 3.740115
303.60 3.736671
303.70 3.73323
303.80 3.729793
303.90 3.726359
304.00 3.72293
304.10 3.719504
304.20 3.716082
304.30 3.712663
304.40 3.709248
304.50 3.705837
304.60 3.702323
304.70 3.698801
304.80 3.695283
304.90 3.691768
305.00 3.688257
305.10 3.684751
305.20 3.681247
305.30 3.677748
305.40 3.674253
305.50 3.670761
305.60 3.667273
305.70 3.663789
305.80 3.660309
305.90 3.656832
306.00 3.653359
306.10 3.64989
306.20 3.646425
306.30 3.642963
306.40 3.639558
306.50 3.636172
306.60 3.63279
306.70 3.629411
306.80 3.626036
306.90 3.622664
307.00 3.619296
307.10 3.615932
307.20 3.612571
307.30 3.609214
307.40 3.605861
307.50 3.602511
307.60 3.599165
307.70 3.595822
307.80 3.592483
307.90 3.589147
308.00 3.585816
308.10 3.582487
308.20 3.579162
308.30 3.575841
308.40 3.572523
308.50 3.569209
308.60 3.565899
308.70 3.562592
308.80 3.559282
308.90 3.555958
309.00 3.5526
309.10 3.549246
309.20 3.545895
309.30 3.542548
309.40 3.539204
309.50 3.535857
309.60 3.532515
309.70 3.529175
309.80 3.52584
309.90 3.522507
310.00 3.519179
310.10 3.515854
310.20 3.512532
310.30 3.509214
310.40 3.505849
310.50 3.502431
310.60 3.499016
310.70 3.495606
310.80 3.492199
310.90 3.488796
311.00 3.485197
311.10 3.481602
311.20 3.478011
311.30 3.474486
311.40 3.471138
311.50 3.467794
311.60 3.464454
311.70 3.461117
311.80 3.457784
311.90 3.454455
312.00 3.451129
312.10 3.447806
312.20 3.44471
312.30 3.441387
312.40 3.437788
312.50 3.434063
312.60 3.430518
312.70 3.426976
312.80 3.423438
312.90 3.41998
313.00 3.41661
313.10 3.413242
313.20 3.409878
313.30 3.406424
313.40 3.402703
313.50 3.398986
313.60 3.395274
313.70 3.391565
313.80 3.387861
313.90 3.38416
314.00 3.380464
314.10 3.376385
314.20 3.372311
314.30 3.368242
314.40 3.364177
314.50 3.360117
314.60 3.356061
314.70 3.352009
314.80 3.348048
314.90 3.343895
315.00 3.339268
315.10 3.333857
315.20 3.328452
315.30 3.323053
315.40 3.31766
315.50 3.312273
315.60 3.306892
315.70 3.300186
315.80 3.293487
315.90 3.286795
316.00 3.280112
316.10 3.271903
316.20 3.263704
316.30 3.267767
316.40 3.270599
316.50 3.252625
316.60 3.206544
316.70 3.192909
316.80 3.17929
316.90 3.177589
317.00 3.17589
317.10 3.174192
317.20 3.172495
317.30 3.183091
317.40 3.190029
317.50 3.186593
317.60 3.18316
317.70 3.179731
317.80 3.176306
317.90 3.155156
318.00 3.12463
318.10 3.074511
318.20 3.024455
318.30 2.974461
318.40 2.899929
318.50 2.755518
318.60 2.585541
318.70 2.253598
318.80 1.945468
318.90 2.297118
319.00 2.50964
319.10 2.657947
319.20 2.784501
319.30 2.849554
319.40 2.914525
319.50 2.979414
319.60 3.025693
319.70 3.047914
319.80 3.070107
319.90 3.092271
320.00 3.109463
320.10 3.121278
320.20 3.131549
320.30 3.138148
320.40 3.14407
320.50 3.147359
320.60 3.150501
320.70 3.152708
320.80 3.154054
320.90 3.154469
321.00 3.154883
321.10 3.155296
321.20 3.154835
321.30 3.153899
321.40 3.152963
321.50 3.152028
321.60 3.151093
321.70 3.150159
321.80 3.148734
321.90 3.146778
322.00 3.144824
322.10 3.142871
322.20 3.140921
322.30 3.138972
322.40 3.137025
322.50 3.13508
322.60 3.133136
322.70 3.131195
322.80 3.129201
322.90 3.127054
323.00 3.124909
323.10 3.122767
323.20 3.120626
323.30 3.118488
323.40 3.116351
323.50 3.114217
323.60 3.112085
323.70 3.109954
323.80 3.107826
323.90 3.1057
324.00 3.103471
324.10 3.101244
324.20 3.099019
324.30 3.096489
324.40 3.093598
324.50 3.091264
324.60 3.088932
324.70 3.086602
324.80 3.084274
324.90 3.081949
325.00 3.079626
325.10 3.077306
325.20 3.074865
325.30 3.072168
325.40 3.069473
325.50 3.067013
325.60 3.064838
325.70 3.062665
325.80 3.060494
325.90 3.058203
326.00 3.05578
326.10 3.05336
326.20 3.050942
326.30 3.048431
326.40 3.04565
326.50 3.043231
326.60 3.040813
326.70 3.038398
326.80 3.035986
326.90 3.033576
327.00 3.031168
327.10 3.028762
327.20 3.026359
327.30 3.023959
327.40 3.02156
327.50 3.019164
327.60 3.016771
327.70 3.01438
327.80 3.011991
327.90 3.009337
328.00 3.00612
328.10 3.00257
328.20 2.999024
328.30 2.995481
328.40 2.991943
328.50 2.989796
328.60 2.987976
328.70 2.986159
328.80 2.984218
328.90 2.981923
329.00 2.979632
329.10 2.977342
329.20 2.975054
329.30 2.972769
329.40 2.970486
329.50 2.968205
329.60 2.965927
329.70 2.963651
329.80 2.961377
329.90 2.959105
330.00 2.956794
330.10 2.954436
330.20 2.952081
330.30 2.949727
330.40 2.947355
330.50 2.944961
330.60 2.94257
330.70 2.940181
330.80 2.937794
330.90 2.935409
331.00 2.933027
331.10 2.930648
331.20 2.92827
331.30 2.925895
331.40 2.923523
331.50 2.921022
331.60 2.918365
331.70 2.915711
331.80 2.91289
331.90 2.910064
332.00 2.907241
332.10 2.904421
332.20 2.901604
332.30 2.898789
332.40 2.895978
332.50 2.893169
332.60 2.890364
332.70 2.887561
332.80 2.884761
332.90 2.881963
333.00 2.879169
333.10 2.875911
333.20 2.872087
333.30 2.868268
333.40 2.864452
333.50 2.86064
333.60 2.856833
333.70 2.853029
333.80 2.84923
333.90 2.845434
334.00 2.841643
334.10 2.836818
334.20 2.83073
334.30 2.82465
334.40 2.818576
334.50 2.812509
334.60 2.806448
334.70 2.79905
334.80 2.788243
334.90 2.774898
335.00 2.761568
335.10 2.747455
335.20 2.733269
335.30 2.718474
335.40 2.702959
335.50 2.718228
335.60 2.730213
335.70 2.740307
335.80 2.749003
335.90 2.755854
336.00 2.760457
336.10 2.765055
336.20 2.769646
336.30 2.772077
336.40 2.771873
336.50 2.77167
336.60 2.771466
336.70 2.771261
336.80 2.771057
336.90 2.770685
337.00 2.77011
337.10 2.769534
337.20 2.768959
337.30 2.768095
337.40 2.766816
337.50 2.765538
337.60 2.764261
337.70 2.762985
337.80 2.76171
337.90 2.760273
338.00 2.75864
338.10 2.757009
338.20 2.755378
338.30 2.75375
338.40 2.751983
338.50 2.749875
338.60 2.747769
338.70 2.745666
338.80 2.743564
338.90 2.741464
339.00 2.739367
339.10 2.737271
339.20 2.735178
339.30 2.73306
339.40 2.730907
339.50 2.728633
339.60 2.726211
339.70 2.723791
339.80 2.721374
339.90 2.71896
340.00 2.716547
340.10 2.714137
340.20 2.71173
340.30 2.709324
340.40 2.706921
340.50 2.704521
340.60 2.702123
340.70 2.699727
340.80 2.697224
340.90 2.694565
341.00 2.691919
341.10 2.689287
341.20 2.686658
341.30 2.684032
341.40 2.681408
341.50 2.678787
341.60 2.676168
341.70 2.673552
341.80 2.670744
341.90 2.667702
342.00 2.664662
342.10 2.661626
342.20 2.657841
342.30 2.654038
342.40 2.650666
342.50 2.646839
342.60 2.643016
342.70 2.639197
342.80 2.635382
342.90 2.631571
343.00 2.627162
343.10 2.622022
343.20 2.616888
343.30 2.61176
343.40 2.605201
343.50 2.596585
343.60 2.587979
343.70 2.579382
343.80 2.570795
343.90 2.562218
344.00 2.549438
344.10 2.530616
344.20 2.511815
344.30 2.493035
344.40 2.468027
344.50 2.434059
344.60 2.39648
344.70 2.347633
344.80 2.393443
344.90 2.42686
345.00 2.462658
345.10 2.481817
345.20 2.49779
345.30 2.509194
345.40 2.520585
345.50 2.529741
345.60 2.534759
345.70 2.537737
345.80 2.540712
345.90 2.543683
346.00 2.54665
346.10 2.549613
346.20 2.551006
346.30 2.550147
346.40 2.549287
346.50 2.548429
346.60 2.547571
346.70 2.546713
346.80 2.545856
346.90 2.545
347.00 2.544144
347.10 2.543289
347.20 2.542212
347.30 2.540818
347.40 2.539425
347.50 2.538033
347.60 2.536642
347.70 2.535252
347.80 2.533864
347.90 2.532476
348.00 2.53109
348.10 2.529705
348.20 2.528321
348.30 2.526939
348.40 2.525557
348.50 2.524177
348.60 2.522798
348.70 2.521368
348.80 2.51984
348.90 2.518194
349.00 2.51655
349.10 2.514907
349.20 2.513266
349.30 2.511626
349.40 2.509988
349.50 2.508351
349.60 2.506716
349.70 2.505082
349.80 2.503449
349.90 2.501818
350.00 2.500189
350.10 2.498561
350.20 2.496934
350.30 2.495391
350.40 2.493967
350.50 2.492544
350.60 2.491122
350.70 2.489702
350.80 2.488282
350.90 2.486864
351.00 2.485447
351.10 2.484032
351.20 2.482617
351.30 2.481204
351.40 2.479888
351.50 2.478743
351.60 2.477599
351.70 2.476456
351.80 2.475314
351.90 2.474173
352.00 2.473033
352.10 2.471893
352.20 2.470516
352.30 2.469323
352.40 2.468432
352.50 2.467541
352.60 2.466652
352.70 2.465762
352.80 2.464874
352.90 2.463986
353.00 2.463098
353.10 2.462211
353.20 2.461325
353.30 2.460439
353.40 2.459554
353.50 2.458972
353.60 2.458464
353.70 2.457957
353.80 2.45745
353.90 2.456941
354.00 2.456427
354.10 2.455914
354.20 2.455401
354.30 2.454888
354.40 2.454375
354.50 2.453862
354.60 2.45335
354.70 2.452837
354.80 2.452331
354.90 2.451832
355.00 2.451333
355.10 2.450834
355.20 2.450336
355.30 2.450083
355.40 2.44983
355.50 2.449577
355.60 2.449324
355.70 2.449157
355.80 2.449027
355.90 2.448448
356.00 2.447984
356.10 2.447747
356.20 2.44751
356.30 2.447274
356.40 2.447037
356.50 2.4468
356.60 2.446562
356.70 2.446325
356.80 2.446087
356.90 2.44585
357.00 2.445612
357.10 2.445374
357.20 2.445136
357.30 2.444898
357.40 2.444562
357.50 2.444051
357.60 2.44354
357.70 2.443029
357.80 2.442534
357.90 2.44204
358.00 2.441069
358.10 2.439981
358.20 2.438893
358.30 2.437806
358.40 2.436721
358.50 2.435635
358.60 2.434551
358.70 2.433468
358.80 2.432385
358.90 2.431303
359.00 2.42997
359.10 2.428191
359.20 2.426256
359.30 2.423276
359.40 2.420298
359.50 2.416458
359.60 2.412406
359.70 2.408358
359.80 2.402357
359.90 2.396362
360.00 2.388182
360.10 2.376117
360.20 2.364066
360.30 2.352027
360.40 2.340002
360.50 2.327989
360.60 2.302383
360.70 2.265303
360.80 2.228265
360.90 2.191267
361.00 2.146014
361.10 2.069356
361.20 1.978742
361.30 1.836601
361.40 1.964024
361.50 2.103217
361.60 2.162785
361.70 2.166743
361.80 2.175294
361.90 2.192007
362.00 2.208701
362.10 2.215734
362.20 2.215445
362.30 2.20644
362.40 2.197445
362.50 2.188459
362.60 2.179482
362.70 2.165339
362.80 2.149451
362.90 2.129281
363.00 2.109132
363.10 2.085925
363.20 2.062712
363.30 2.045092
363.40 2.03863
363.50 2.056758
363.60 2.090397
363.70 2.116277
363.80 2.135799
363.90 2.151375
364.00 2.166935
364.10 2.182477
364.20 2.198001
364.30 2.215737
364.40 2.234009
364.50 2.251375
364.60 2.263926
364.70 2.276463
364.80 2.288986
364.90 2.296938
365.00 2.30488
365.10 2.304078
365.20 2.293165
365.30 2.289614
365.40 2.302591
365.50 2.316013
365.60 2.32942
365.70 2.341061
365.80 2.35269
365.90 2.360903
366.00 2.368255
366.10 2.372355
366.20 2.376449
366.30 2.380539
366.40 2.384624
366.50 2.387312
366.60 2.387872
366.70 2.387951
366.80 2.38803
366.90 2.387081
367.00 2.384307
367.10 2.381536
367.20 2.378767
367.30 2.376001
367.40 2.373238
367.50 2.368426
367.60 2.363105
367.70 2.354663
367.80 2.346228
367.90 2.337803
368.00 2.329006
368.10 2.318783
368.20 2.303708
368.30 2.2886
368.40 2.273507
368.50 2.258431
368.60 2.243371
368.70 2.228327
368.80 2.213299
368.90 2.196889
369.00 2.177439
369.10 2.157866
369.20 2.13583
369.30 2.108907
369.40 2.082014
369.50 2.055149
369.60 2.021447
369.70 1.98778
369.80 1.951843
369.90 1.91592
370.00 1.880036
370.10 1.841315
370.20 1.796483
370.30 1.751709
370.40 1.707037
370.50 1.686146
370.60 1.734848
370.70 1.797448
370.80 1.846157
370.90 1.894813
371.00 1.916441
371.10 1.937773
371.20 1.956646
371.30 1.975499
371.40 1.99915
371.50 2.021726
371.60 2.044277
371.70 2.066804
371.80 2.089306
371.90 2.111784
372.00 2.131765
372.10 2.14959
372.20 2.162888
372.30 2.176171
372.40 2.18944
372.50 2.202694
372.60 2.215934
372.70 2.229158
372.80 2.235423
372.90 2.24168
373.00 2.246689
373.10 2.25168
373.20 2.242112
373.30 2.232554
373.40 2.163222
373.50 2.138778
373.60 2.167933
373.70 2.199689
373.80 2.223734
373.90 2.249946
374.00 2.26386
374.10 2.277759
374.20 2.291643
374.30 2.305512
374.40 2.314118
374.50 2.32134
374.60 2.326451
374.70 2.331555
374.80 2.336653
374.90 2.341746
375.00 2.344565
375.10 2.347381
375.20 2.350193
375.30 2.350557
375.40 2.350921
375.50 2.351283
375.60 2.351645
375.70 2.352006
375.80 2.352367
375.90 2.352726
376.00 2.352334
376.10 2.350904
376.20 2.349466
376.30 2.348029
376.40 2.346593
376.50 2.344757
376.60 2.342319
376.70 2.339884
376.80 2.33694
376.90 2.333488
377.00 2.330038
377.10 2.326593
377.20 2.322938
377.30 2.318487
377.40 2.314041
377.50 2.3096
377.60 2.303704
377.70 2.297815
377.80 2.291931
377.90 2.286053
378.00 2.280372
378.10 2.271461
378.20 2.262523
378.30 2.253594
378.40 2.244674
378.50 2.235764
378.60 2.226863
378.70 2.21797
378.80 2.209087
378.90 2.199369
379.00 2.188094
379.10 2.175681
379.20 2.163281
379.30 2.14992
379.40 2.135601
379.50 2.121297
379.60 2.106557
379.70 2.09001
379.80 2.069164
379.90 2.048339
380.00 2.027536
380.10 2.006754
380.20 1.985994
380.30 1.965256
380.40 1.944539
380.50 1.923844
380.60 1.894711
380.70 1.861998
380.80 1.82932
380.90 1.796676
381.00 1.764066
381.10 1.72516
381.20 1.685732
381.30 1.645994
381.40 1.605357
381.50 1.561324
381.60 1.515646
381.70 1.468267
381.80 1.425359
381.90 1.386371
382.00 1.359184
382.10 1.424381
382.20 1.490517
382.30 1.550964
382.40 1.605981
382.50 1.652896
382.60 1.699761
382.70 1.739567
382.80 1.760114
382.90 1.769329
383.00 1.778535
383.10 1.78773
383.20 1.799827
383.30 1.822859
383.40 1.845813
383.50 1.868664
383.60 1.891028
383.70 1.908692
383.80 1.926336
383.90 1.943962
384.00 1.961569
384.10 1.979158
384.20 1.996728
384.30 2.01428
384.40 2.029
384.50 2.040895
384.60 2.052776
384.70 2.064645
384.80 2.07601
384.90 2.084669
385.00 2.09175
385.10 2.09881
385.20 2.104263
385.30 2.10862
385.40 2.11198
385.50 2.114346
385.60 2.116708
385.70 2.119068
385.80 2.121205
385.90 2.122513
386.00 2.122324
386.10 2.120037
386.20 2.111641
386.30 2.103253
386.40 2.090204
386.50 2.06461
386.60 2.021919
386.70 1.91943
386.80 1.685751
386.90 1.780076
387.00 1.853596
387.10 1.904053
387.20 1.945658
387.30 1.978721
387.40 2.00106
387.50 2.018048
387.60 2.030961
387.70 2.034195
387.80 2.037425
387.90 2.040652
388.00 2.040393
388.10 2.025662
388.20 1.99487
388.30 1.952289
388.40 1.909752
388.50 1.850369
388.60 1.752507
388.70 1.612611
388.80 1.405919
388.90 1.324653
389.00 1.507588
389.10 1.647091
389.20 1.752792
389.30 1.833847
389.40 1.89592
389.50 1.95039
389.60 1.991534
389.70 2.019715
389.80 2.037613
389.90 2.055492
390.00 2.073353
390.10 2.091195
390.20 2.109019
390.30 2.121067
390.40 2.126616
390.50 2.132158
390.60 2.137695
390.70 2.143225
390.80 2.1468
390.90 2.148421
391.00 2.148963
391.10 2.148253
391.20 2.147235
391.30 2.143996
391.40 2.139567
391.50 2.135142
391.60 2.130721
391.70 2.126304
391.80 2.121891
391.90 2.117644
392.00 2.11284
392.10 2.10693
392.20 2.100732
392.30 2.092902
392.40 2.086454
392.50 2.080327
392.60 2.072766
392.70 2.066563
392.80 2.066723
392.90 2.070787
393.00 2.076066
393.10 2.081336
393.20 2.086528
393.30 2.091014
393.40 2.095195
393.50 2.096798
393.60 2.09634
393.70 2.097124
393.80 2.099722
393.90 2.101817
394.00 2.103853
394.10 2.104324
394.20 2.103657
394.30 2.101761
394.40 2.099034
394.50 2.094357
394.60 2.088018
394.70 2.081049
394.80 2.071698
394.90 2.062278
395.00 2.05032
395.10 2.037182
395.20 2.019462
395.30 2.000809
395.40 1.982174
395.50 1.953626
395.60 1.921435
395.70 1.884469
395.80 1.834551
395.90 1.784682
396.00 1.732831
396.10 1.653527
396.20 1.55547
396.30 1.450558
396.40 1.308586
396.50 1.347321
396.60 1.596651
396.70 1.709351
396.80 1.706948
396.90 1.682052
397.00 1.730515
397.10 1.857909
397.20 1.906337
397.30 1.895228
397.40 1.901352
397.50 1.907471
397.60 1.913911
397.70 1.923668
397.80 1.933414
397.90 1.941528
398.00 1.945251
398.10 1.948969
398.20 1.95018
398.30 1.948568
398.40 1.946887
398.50 1.942941
398.60 1.938137
398.70 1.931551
398.80 1.924606
398.90 1.916961
399.00 1.908015
399.10 1.897577
399.20 1.885335
399.30 1.873106
399.40 1.860888
399.50 1.848682
399.60 1.833626
399.70 1.817526
399.80 1.801442
399.90 1.785374
400.00 1.769246
400.10 1.75069
400.20 1.731864
400.30 1.711864
400.40 1.691667
400.50 1.67136
400.60 1.64936
400.70 1.627923
400.80 1.604207
400.90 1.572642
401.00 1.553381
401.10 1.545749
401.20 1.536944
401.30 1.526005
401.40 1.510023
401.50 1.492373
401.60 1.474527
401.70 1.449834
401.80 1.422979
401.90 1.393076
402.00 1.361338
402.10 1.32753
402.20 1.291683
402.30 1.254314
402.40 1.21821
402.50 1.188696
402.60 1.154627
402.70 1.163327
402.80 1.207325
402.90 1.251129
403.00 1.294662
403.10 1.336794
403.20 1.377312
403.30 1.417211
403.40 1.455841
403.50 1.492127
403.60 1.527609
403.70 1.559975
403.80 1.589304
403.90 1.61456
404.00 1.638372
404.10 1.655226
404.20 1.663786
404.30 1.672337
404.40 1.662038
404.50 1.61412
404.60 1.588986
404.70 1.606163
404.80 1.631523
404.90 1.654673
405.00 1.675087
405.10 1.692736
405.20 1.709765
405.30 1.726778
405.40 1.739973
405.50 1.753155
405.60 1.766324
405.70 1.77948
405.80 1.792622
405.90 1.805752
406.00 1.815486
406.10 1.825211
406.20 1.834925
406.30 1.84463
406.40 1.85423
406.50 1.862018
406.60 1.869608
406.70 1.876795
406.80 1.883685
406.90 1.890345
407.00 1.895114
407.10 1.899879
407.20 1.904638
407.30 1.909393
407.40 1.914142
407.50 1.918887
407.60 1.923627
407.70 1.928362
407.80 1.933092
407.90 1.937768
408.00 1.940842
408.10 1.943845
408.20 1.94612
408.30 1.948281
408.40 1.950439
408.50 1.951793
408.60 1.952871
408.70 1.953946
408.80 1.954983
408.90 1.955511
409.00 1.955398
409.10 1.955286
409.20 1.955174
409.30 1.955061
409.40 1.954931
409.50 1.954234
409.60 1.953539
409.70 1.952657
409.80 1.951031
409.90 1.949385
410.00 1.947018
410.10 1.944246
410.20 1.941113
410.30 1.937891
410.40 1.934242
410.50 1.929232
410.60 1.924226
410.70 1.918743
410.80 1.911339
410.90 1.903943
411.00 1.893618
411.10 1.882217
411.20 1.870828
411.30 1.858446
411.40 1.841794
411.50 1.816343
411.60 1.790915
411.70 1.759282
411.80 1.702767
411.90 1.637926
412.00 1.495588
412.10 1.219313
412.20 1.29718
412.30 1.406602
412.40 1.493869
412.50 1.552376
412.60 1.594313
412.70 1.619325
412.80 1.640093
412.90 1.658289
413.00 1.662716
413.10 1.657778
413.20 1.652845
413.30 1.647916
413.40 1.642991
413.50 1.636507
413.60 1.622469
413.70 1.604316
413.80 1.58618
413.90 1.568062
414.00 1.549231
414.10 1.52811
414.20 1.503322
414.30 1.460818
414.40 1.42535
414.50 1.432818
414.60 1.462313
414.70 1.49297
414.80 1.522572
414.90 1.548898
415.00 1.575198
415.10 1.601473
415.20 1.625916
415.30 1.644617
415.40 1.6633
415.50 1.681877
415.60 1.697602
415.70 1.713311
415.80 1.728176
415.90 1.7404
416.00 1.752611
416.10 1.763833
416.20 1.771131
416.30 1.778422
416.40 1.785706
416.50 1.792802
416.60 1.79406
416.70 1.795147
416.80 1.787267
416.90 1.752122
417.00 1.742444
417.10 1.764114
417.20 1.779466
417.30 1.794661
417.40 1.805238
417.50 1.815804
417.60 1.825637
417.70 1.832511
417.80 1.837486
417.90 1.842456
418.00 1.847421
418.10 1.852381
418.20 1.857336
418.30 1.862244
418.40 1.865489
418.50 1.867789
418.60 1.870087
418.70 1.872383
418.80 1.874676
418.90 1.876966
419.00 1.879255
419.10 1.881541
419.20 1.883824
419.30 1.886061
419.40 1.886886
419.50 1.887709
419.60 1.88847
419.70 1.888981
419.80 1.889491
419.90 1.889858
420.00 1.889775
420.10 1.889692
420.20 1.889608
420.30 1.889525
420.40 1.889441
420.50 1.889357
420.60 1.889274
420.70 1.889189
420.80 1.889105
420.90 1.889012
421.00 1.888612
421.10 1.888212
421.20 1.887738
421.30 1.887039
421.40 1.88634
421.50 1.885642
421.60 1.884945
421.70 1.884247
421.80 1.883551
421.90 1.882888
422.00 1.882333
422.10 1.881668
422.20 1.88056
422.30 1.879452
422.40 1.878345
422.50 1.877213
422.60 1.876082
422.70 1.874952
422.80 1.873822
422.90 1.872694
423.00 1.871566
423.10 1.87044
423.20 1.869314
423.30 1.868188
423.40 1.867064
423.50 1.865941
423.60 1.864818
423.70 1.863697
423.80 1.862576
423.90 1.861456
424.00 1.860337
424.10 1.859218
424.20 1.858101
424.30 1.856984
424.40 1.855914
424.50 1.854628
424.60 1.853342
424.70 1.852057
424.80 1.850774
424.90 1.849491
425.00 1.84821
