# Version 2.1 - nm, norm@500 to 1, cut digits, bergeron_He_26000_75.dat_26000
# Wavelength(nm)  Flambda(ergs/cm^s/s/nm)
300.00 4.353299
300.10 4.349702
300.20 4.345998
300.30 4.34226
300.40 4.338269
300.50 4.334283
300.60 4.3303
300.70 4.326323
300.80 4.322349
300.90 4.31838
301.00 4.314415
301.10 4.310454
301.20 4.306498
301.30 4.302546
301.40 4.298599
301.50 4.294655
301.60 4.290716
301.70 4.286781
301.80 4.282851
301.90 4.278925
302.00 4.275003
302.10 4.270823
302.20 4.26662
302.30 4.262421
302.40 4.258227
302.50 4.254037
302.60 4.249852
302.70 4.245671
302.80 4.241495
302.90 4.237324
303.00 4.233157
303.10 4.228995
303.20 4.224838
303.30 4.220678
303.40 4.216462
303.50 4.212251
303.60 4.208045
303.70 4.203843
303.80 4.199646
303.90 4.195454
304.00 4.191266
304.10 4.187082
304.20 4.182904
304.30 4.178729
304.40 4.17456
304.50 4.170395
304.60 4.166276
304.70 4.162167
304.80 4.158062
304.90 4.153961
305.00 4.149866
305.10 4.145774
305.20 4.141687
305.30 4.137604
305.40 4.133526
305.50 4.129453
305.60 4.125384
305.70 4.121319
305.80 4.117259
305.90 4.113203
306.00 4.109151
306.10 4.105104
306.20 4.101061
306.30 4.097023
306.40 4.092959
306.50 4.08889
306.60 4.084825
306.70 4.080765
306.80 4.076709
306.90 4.072658
307.00 4.068611
307.10 4.064569
307.20 4.06053
307.30 4.056497
307.40 4.052467
307.50 4.048442
307.60 4.044422
307.70 4.040406
307.80 4.036394
307.90 4.032386
308.00 4.028383
308.10 4.024385
308.20 4.02039
308.30 4.0164
308.40 4.012414
308.50 4.008433
308.60 4.004456
308.70 4.000483
308.80 3.996437
308.90 3.992176
309.00 3.988291
309.10 3.98441
309.20 3.980534
309.30 3.976662
309.40 3.972762
309.50 3.968672
309.60 3.964587
309.70 3.960507
309.80 3.956431
309.90 3.952359
310.00 3.948292
310.10 3.944229
310.20 3.94017
310.30 3.936116
310.40 3.932153
310.50 3.928287
310.60 3.924426
310.70 3.920568
310.80 3.916715
310.90 3.912865
311.00 3.90868
311.10 3.9045
311.20 3.900323
311.30 3.896168
311.40 3.892062
311.50 3.887961
311.60 3.883864
311.70 3.879772
311.80 3.875684
311.90 3.8716
312.00 3.867521
312.10 3.863447
312.20 3.859696
312.30 3.855849
312.40 3.851662
312.50 3.847779
312.60 3.843379
312.70 3.838985
312.80 3.834595
312.90 3.83032
313.00 3.826169
313.10 3.822022
313.20 3.81788
313.30 3.813671
313.40 3.809261
313.50 3.804857
313.60 3.800457
313.70 3.796063
313.80 3.791673
313.90 3.787288
314.00 3.782907
314.10 3.777863
314.20 3.772824
314.30 3.767791
314.40 3.762764
314.50 3.757742
314.60 3.752726
314.70 3.747716
314.80 3.742716
314.90 3.737341
315.00 3.731541
315.10 3.72495
315.20 3.718366
315.30 3.711789
315.40 3.705221
315.50 3.698659
315.60 3.692106
315.70 3.683961
315.80 3.675826
315.90 3.6677
316.00 3.659584
316.10 3.652736
316.20 3.645896
316.30 3.650633
316.40 3.651342
316.50 3.63095
316.60 3.584478
316.70 3.56014
316.80 3.535831
316.90 3.534352
317.00 3.532873
317.10 3.531396
317.20 3.52992
317.30 3.542633
317.40 3.550959
317.50 3.546848
317.60 3.542741
317.70 3.538639
317.80 3.534541
317.90 3.509386
318.00 3.474453
318.10 3.419057
318.20 3.36373
318.30 3.308472
318.40 3.23044
318.50 3.087532
318.60 2.922117
318.70 2.607764
318.80 2.280536
318.90 2.612461
319.00 2.815181
319.10 2.959698
319.20 3.084436
319.30 3.153276
319.40 3.222029
319.50 3.290696
319.60 3.341895
319.70 3.36924
319.80 3.396551
319.90 3.423828
320.00 3.445458
320.10 3.460985
320.20 3.474477
320.30 3.484289
320.40 3.492115
320.50 3.497872
320.60 3.502094
320.70 3.505292
320.80 3.507547
320.90 3.508782
321.00 3.510015
321.10 3.511245
321.20 3.511142
321.30 3.510137
321.40 3.509133
321.50 3.50813
321.60 3.507127
321.70 3.506124
321.80 3.504873
321.90 3.503352
322.00 3.501176
322.10 3.499003
322.20 3.496831
322.30 3.494661
322.40 3.492494
322.50 3.490328
322.60 3.488165
322.70 3.486003
322.80 3.482766
322.90 3.480181
323.00 3.477598
323.10 3.475018
323.20 3.47244
323.30 3.469864
323.40 3.467292
323.50 3.464721
323.60 3.462153
323.70 3.459588
323.80 3.457025
323.90 3.454465
324.00 3.451564
324.10 3.448666
324.20 3.445771
324.30 3.442759
324.40 3.439662
324.50 3.436839
324.60 3.43402
324.70 3.431203
324.80 3.428389
324.90 3.425578
325.00 3.422769
325.10 3.419964
325.20 3.417067
325.30 3.413972
325.40 3.41088
325.50 3.407808
325.60 3.404759
325.70 3.401713
325.80 3.398669
325.90 3.395764
326.00 3.393008
326.10 3.390254
326.20 3.387504
326.30 3.384735
326.40 3.381912
326.50 3.37893
326.60 3.375952
326.70 3.372976
326.80 3.370004
326.90 3.367034
327.00 3.364068
327.10 3.361104
327.20 3.358144
327.30 3.355186
327.40 3.352232
327.50 3.34928
327.60 3.346331
327.70 3.343386
327.80 3.340443
327.90 3.3375
328.00 3.333877
328.10 3.329428
328.20 3.324983
328.30 3.320543
328.40 3.316107
328.50 3.31363
328.60 3.311614
328.70 3.309599
328.80 3.307422
328.90 3.304781
329.00 3.302143
329.10 3.299507
329.20 3.296873
329.30 3.294243
329.40 3.291614
329.50 3.288989
329.60 3.286366
329.70 3.283746
329.80 3.281128
329.90 3.278512
330.00 3.275867
330.10 3.273185
330.20 3.270505
330.30 3.267828
330.40 3.265046
330.50 3.262152
330.60 3.259261
330.70 3.256372
330.80 3.253486
330.90 3.250603
331.00 3.247724
331.10 3.244847
331.20 3.241972
331.30 3.239101
331.40 3.236233
331.50 3.233282
331.60 3.230229
331.70 3.22718
331.80 3.223956
331.90 3.220729
332.00 3.217505
332.10 3.214284
332.20 3.211067
332.30 3.207853
332.40 3.204642
332.50 3.201434
332.60 3.19823
332.70 3.195029
332.80 3.191831
332.90 3.188637
333.00 3.185446
333.10 3.181852
333.20 3.177767
333.30 3.173686
333.40 3.16961
333.50 3.165537
333.60 3.161469
333.70 3.157406
333.80 3.153347
333.90 3.149291
334.00 3.145241
334.10 3.14068
334.20 3.135497
334.30 3.13032
334.40 3.125148
334.50 3.119981
334.60 3.114821
334.70 3.109204
334.80 3.101709
334.90 3.092322
335.00 3.082946
335.10 3.07612
335.20 3.070702
335.30 3.064775
335.40 3.059146
335.50 3.062576
335.60 3.06466
335.70 3.066764
335.80 3.068954
335.90 3.070639
336.00 3.071709
336.10 3.072777
336.20 3.073843
336.30 3.073873
336.40 3.072639
336.50 3.071405
336.60 3.070173
336.70 3.068941
336.80 3.06771
336.90 3.066412
337.00 3.065031
337.10 3.063652
337.20 3.062273
337.30 3.060716
337.40 3.058902
337.50 3.057089
337.60 3.055279
337.70 3.053469
337.80 3.051662
337.90 3.049702
338.00 3.047556
338.10 3.045413
338.20 3.043271
338.30 3.041131
338.40 3.038891
338.50 3.036404
338.60 3.033918
338.70 3.031436
338.80 3.028955
338.90 3.026477
339.00 3.024002
339.10 3.021528
339.20 3.019057
339.30 3.016689
339.40 3.014466
339.50 3.011993
339.60 3.009216
339.70 3.006441
339.80 3.003669
339.90 3.0009
340.00 2.998133
340.10 2.99537
340.20 2.992609
340.30 2.98985
340.40 2.987095
340.50 2.984342
340.60 2.981592
340.70 2.978845
340.80 2.975965
340.90 2.972894
341.00 2.969789
341.10 2.966642
341.20 2.963499
341.30 2.960358
341.40 2.957221
341.50 2.954087
341.60 2.950956
341.70 2.947829
341.80 2.944513
341.90 2.940968
342.00 2.937426
342.10 2.933888
342.20 2.929858
342.30 2.925804
342.40 2.92188
342.50 2.917439
342.60 2.913003
342.70 2.908571
342.80 2.904145
342.90 2.899722
343.00 2.894817
343.10 2.88932
343.20 2.88383
343.30 2.878345
343.40 2.871918
343.50 2.864133
343.60 2.856357
343.70 2.848589
343.80 2.84083
343.90 2.83308
344.00 2.823304
344.10 2.810613
344.20 2.797937
344.30 2.785275
344.40 2.770888
344.50 2.754015
344.60 2.737314
344.70 2.720522
344.80 2.734415
344.90 2.74736
345.00 2.764569
345.10 2.774375
345.20 2.782537
345.30 2.788339
345.40 2.794135
345.50 2.79878
345.60 2.801353
345.70 2.802961
345.80 2.804566
345.90 2.806169
346.00 2.80777
346.10 2.809368
346.20 2.809851
346.30 2.808732
346.40 2.807614
346.50 2.806497
346.60 2.80538
346.70 2.804264
346.80 2.803149
346.90 2.802035
347.00 2.800922
347.10 2.79981
347.20 2.798422
347.30 2.79664
347.40 2.79486
347.50 2.793081
347.60 2.791303
347.70 2.789528
347.80 2.787753
347.90 2.785981
348.00 2.78421
348.10 2.78244
348.20 2.780672
348.30 2.778906
348.40 2.777141
348.50 2.775378
348.60 2.773616
348.70 2.771519
348.80 2.769342
348.90 2.767204
349.00 2.765067
349.10 2.762933
349.20 2.760801
349.30 2.75867
349.40 2.756542
349.50 2.754415
349.60 2.752291
349.70 2.750168
349.80 2.748048
349.90 2.745929
350.00 2.743812
350.10 2.741698
350.20 2.739585
350.30 2.737486
350.40 2.735404
350.50 2.733324
350.60 2.731247
350.70 2.729171
350.80 2.727097
350.90 2.725025
351.00 2.722955
351.10 2.720887
351.20 2.718821
351.30 2.716757
351.40 2.714684
351.50 2.712593
351.60 2.710505
351.70 2.708418
351.80 2.706334
351.90 2.704251
352.00 2.702171
352.10 2.700092
352.20 2.698014
352.30 2.696047
352.40 2.694238
352.50 2.692431
352.60 2.690625
352.70 2.688821
352.80 2.687018
352.90 2.685217
353.00 2.683417
353.10 2.68162
353.20 2.679823
353.30 2.678029
353.40 2.676236
353.50 2.674376
353.60 2.672501
353.70 2.670628
353.80 2.668756
353.90 2.666984
354.00 2.665388
354.10 2.663793
354.20 2.662199
354.30 2.660607
354.40 2.659017
354.50 2.657427
354.60 2.655839
354.70 2.654252
354.80 2.652704
354.90 2.651209
355.00 2.649716
355.10 2.648223
355.20 2.646733
355.30 2.645243
355.40 2.643754
355.50 2.642267
355.60 2.640781
355.70 2.639297
355.80 2.637813
355.90 2.636331
356.00 2.634894
356.10 2.63347
356.20 2.632046
356.30 2.630624
356.40 2.629203
356.50 2.627783
356.60 2.626364
356.70 2.624946
356.80 2.62353
356.90 2.622115
357.00 2.620701
357.10 2.619288
357.20 2.617876
357.30 2.616465
357.40 2.615036
357.50 2.613574
357.60 2.612112
357.70 2.610652
357.80 2.608835
357.90 2.607021
358.00 2.604951
358.10 2.60282
358.20 2.600691
358.30 2.598564
358.40 2.596438
358.50 2.594315
358.60 2.592194
358.70 2.590074
358.80 2.587957
358.90 2.585841
359.00 2.58334
359.10 2.580151
359.20 2.576888
359.30 2.573112
359.40 2.56934
359.50 2.564773
359.60 2.560011
359.70 2.555254
359.80 2.548239
359.90 2.541231
360.00 2.532598
360.10 2.521075
360.20 2.509564
360.30 2.498065
360.40 2.486578
360.50 2.475104
360.60 2.454514
360.70 2.428013
360.80 2.401541
360.90 2.375097
361.00 2.344811
361.10 2.300326
361.20 2.250968
361.30 2.188661
361.40 2.261616
361.50 2.336107
361.60 2.369344
361.70 2.370726
361.80 2.375138
361.90 2.384932
362.00 2.394715
362.10 2.400728
362.20 2.403252
362.30 2.401253
362.40 2.399256
362.50 2.39726
362.60 2.395267
362.70 2.389987
362.80 2.384082
362.90 2.378586
363.00 2.373096
363.10 2.366226
363.20 2.359349
363.30 2.356173
363.40 2.35602
363.50 2.362722
363.60 2.374744
363.70 2.384132
363.80 2.392285
363.90 2.399113
364.00 2.405934
364.10 2.412746
364.20 2.419551
364.30 2.4276
364.40 2.435952
364.50 2.443779
364.60 2.449732
364.70 2.455679
364.80 2.461619
364.90 2.465561
365.00 2.469499
365.10 2.470033
365.20 2.468304
365.30 2.468838
365.40 2.47314
365.50 2.478191
365.60 2.483235
365.70 2.488034
365.80 2.492828
365.90 2.496705
366.00 2.50035
366.10 2.501936
366.20 2.50352
366.30 2.505102
366.40 2.506682
366.50 2.507003
366.60 2.5064
366.70 2.5056
366.80 2.504801
366.90 2.503169
367.00 2.500058
367.10 2.49695
367.20 2.493845
367.30 2.490743
367.40 2.487644
367.50 2.482961
367.60 2.477886
367.70 2.470858
367.80 2.463837
367.90 2.456823
368.00 2.449464
368.10 2.44078
368.20 2.429171
368.30 2.417544
368.40 2.40593
368.50 2.394328
368.60 2.382738
368.70 2.37116
368.80 2.359595
368.90 2.346986
369.00 2.33262
369.10 2.318296
369.20 2.30362
369.30 2.285892
369.40 2.268183
369.50 2.250492
369.60 2.229481
369.70 2.208493
369.80 2.188394
369.90 2.168325
370.00 2.148278
370.10 2.127331
370.20 2.105241
370.30 2.083187
370.40 2.061533
370.50 2.053061
370.60 2.078544
370.70 2.108512
370.80 2.132138
370.90 2.155739
371.00 2.167556
371.10 2.179241
371.20 2.190422
371.30 2.201591
371.40 2.21515
371.50 2.228216
371.60 2.241268
371.70 2.254306
371.80 2.267329
371.90 2.280337
372.00 2.293176
372.10 2.304923
372.20 2.314098
372.30 2.323262
372.40 2.332417
372.50 2.341561
372.60 2.350694
372.70 2.359818
372.80 2.365758
372.90 2.371691
373.00 2.375889
373.10 2.380066
373.20 2.378429
373.30 2.376794
373.40 2.356753
373.50 2.345752
373.60 2.353149
373.70 2.364502
373.80 2.374784
373.90 2.386449
374.00 2.394887
374.10 2.403315
374.20 2.411733
374.30 2.420143
374.40 2.425581
374.50 2.430422
374.60 2.43416
374.70 2.437891
374.80 2.441618
374.90 2.445341
375.00 2.447377
375.10 2.44941
375.20 2.451441
375.30 2.451462
375.40 2.451482
375.50 2.451502
375.60 2.451522
375.70 2.451541
375.80 2.45156
375.90 2.451578
376.00 2.450275
376.10 2.448511
376.20 2.446745
376.30 2.44498
376.40 2.443217
376.50 2.440955
376.60 2.437946
376.70 2.43494
376.80 2.431471
376.90 2.427538
377.00 2.42361
377.10 2.419685
377.20 2.415531
377.30 2.410507
377.40 2.405487
377.50 2.400473
377.60 2.394138
377.70 2.387809
377.80 2.381487
377.90 2.375171
378.00 2.368821
378.10 2.359773
378.20 2.350707
378.30 2.341651
378.40 2.332604
378.50 2.323566
378.60 2.314537
378.70 2.305517
378.80 2.296507
378.90 2.286779
379.00 2.275711
379.10 2.263587
379.20 2.251474
379.30 2.238738
379.40 2.225379
379.50 2.212034
379.60 2.197934
379.70 2.182052
379.80 2.163757
379.90 2.145482
380.00 2.127226
380.10 2.108988
380.20 2.090769
380.30 2.07257
380.40 2.054389
380.50 2.036226
380.60 2.012627
380.70 1.98695
380.80 1.961299
380.90 1.935676
381.00 1.910079
381.10 1.881358
381.20 1.852052
381.30 1.822061
381.40 1.792999
381.50 1.761563
381.60 1.729806
381.70 1.698227
381.80 1.671485
381.90 1.655084
382.00 1.631803
382.10 1.674376
382.20 1.72159
382.30 1.765105
382.40 1.804159
382.50 1.836553
382.60 1.868914
382.70 1.89591
382.80 1.911017
382.90 1.92026
383.00 1.929492
383.10 1.938715
383.20 1.948962
383.30 1.963084
383.40 1.977789
383.50 1.993376
383.60 2.009366
383.70 2.022729
383.80 2.036078
383.90 2.049412
384.00 2.062733
384.10 2.076039
384.20 2.089332
384.30 2.10261
384.40 2.114411
384.50 2.124736
384.60 2.135051
384.70 2.145354
384.80 2.155077
384.90 2.162462
385.00 2.169498
385.10 2.176487
385.20 2.181376
385.30 2.186094
385.40 2.190016
385.50 2.193142
385.60 2.196265
385.70 2.199384
385.80 2.202436
385.90 2.205247
386.00 2.206798
386.10 2.206704
386.20 2.202696
386.30 2.198691
386.40 2.191121
386.50 2.176755
386.60 2.152943
386.70 2.103372
386.80 1.992806
386.90 2.010601
387.00 2.036341
387.10 2.059484
387.20 2.082112
387.30 2.099527
387.40 2.111778
387.50 2.120221
387.60 2.126132
387.70 2.124366
387.80 2.122601
387.90 2.120838
388.00 2.116278
388.10 2.099586
388.20 2.068282
388.30 2.027167
388.40 1.986095
388.50 1.931225
388.60 1.844914
388.70 1.724577
388.80 1.542266
388.90 1.464533
389.00 1.625927
389.10 1.746137
389.20 1.836506
389.30 1.906514
389.40 1.962377
389.50 2.011736
389.60 2.049959
389.70 2.077889
389.80 2.096649
389.90 2.115389
390.00 2.13411
390.10 2.152811
390.20 2.171493
390.30 2.184735
390.40 2.191853
390.50 2.198964
390.60 2.206067
390.70 2.213163
390.80 2.218375
390.90 2.221705
391.00 2.223781
391.10 2.225199
391.20 2.226452
391.30 2.226101
391.40 2.224636
391.50 2.223171
391.60 2.221708
391.70 2.220245
391.80 2.218784
391.90 2.217478
392.00 2.215894
392.10 2.21363
392.20 2.211271
392.30 2.208145
392.40 2.20526
392.50 2.20275
392.60 2.199555
392.70 2.196592
392.80 2.194935
392.90 2.194713
393.00 2.194289
393.10 2.193984
393.20 2.193785
393.30 2.19332
393.40 2.192797
393.50 2.191683
393.60 2.189773
393.70 2.187038
393.80 2.185661
393.90 2.183579
394.00 2.181397
394.10 2.177791
394.20 2.173727
394.30 2.169176
394.40 2.163688
394.50 2.156659
394.60 2.147983
394.70 2.138667
394.80 2.126921
394.90 2.115115
395.00 2.100962
395.10 2.086402
395.20 2.068213
395.30 2.049124
395.40 2.030055
395.50 2.003351
395.60 1.973844
395.70 1.940705
395.80 1.897703
395.90 1.854745
396.00 1.810396
396.10 1.74644
396.20 1.668622
396.30 1.584395
396.40 1.468163
396.50 1.54213
396.60 1.740568
396.70 1.814007
396.80 1.803992
396.90 1.785726
397.00 1.83457
397.10 1.925126
397.20 1.968815
397.30 1.971391
397.40 1.972603
397.50 1.973814
397.60 1.975414
397.70 1.980965
397.80 1.986509
397.90 1.99108
398.00 1.993029
398.10 1.994976
398.20 1.995292
398.30 1.99377
398.40 1.992177
398.50 1.988252
398.60 1.983482
398.70 1.977329
398.80 1.970914
398.90 1.963942
399.00 1.955934
399.10 1.94651
399.20 1.935975
399.30 1.925451
399.40 1.914936
399.50 1.904432
399.60 1.892093
399.70 1.879083
399.80 1.866086
399.90 1.853102
400.00 1.8401
400.10 1.826123
400.20 1.811304
400.30 1.79587
400.40 1.780333
400.50 1.764998
400.60 1.748053
400.70 1.731197
400.80 1.712926
400.90 1.692135
401.00 1.675067
401.10 1.660507
401.20 1.645996
401.30 1.630205
401.40 1.612122
401.50 1.593283
401.60 1.574327
401.70 1.550994
401.80 1.526032
401.90 1.499789
402.00 1.472663
402.10 1.445352
402.20 1.416988
402.30 1.387374
402.40 1.357979
402.50 1.329418
402.60 1.291115
402.70 1.308859
402.80 1.346358
402.90 1.382951
403.00 1.419136
403.10 1.453674
403.20 1.487411
403.30 1.520944
403.40 1.55274
403.50 1.581776
403.60 1.610073
403.70 1.63647
403.80 1.659735
403.90 1.679594
404.00 1.698457
404.10 1.71212
404.20 1.719589
404.30 1.72705
404.40 1.723231
404.50 1.701047
404.60 1.685758
404.70 1.69107
404.80 1.704826
404.90 1.71948
405.00 1.733522
405.10 1.746782
405.20 1.75993
405.30 1.773066
405.40 1.784337
405.50 1.795596
405.60 1.806844
405.70 1.818081
405.80 1.829306
405.90 1.84052
406.00 1.849565
406.10 1.8586
406.20 1.867626
406.30 1.876642
406.40 1.885596
406.50 1.892821
406.60 1.900543
406.70 1.907709
406.80 1.914611
406.90 1.921021
407.00 1.926092
407.10 1.931158
407.20 1.936218
407.30 1.941274
407.40 1.946324
407.50 1.951369
407.60 1.956409
407.70 1.961443
407.80 1.966473
407.90 1.971446
408.00 1.974775
408.10 1.977846
408.20 1.980314
408.30 1.982883
408.40 1.98545
408.50 1.987846
408.60 1.989167
408.70 1.990487
408.80 1.991782
408.90 1.992663
409.00 1.992843
409.10 1.993023
409.20 1.993203
409.30 1.993382
409.40 1.993539
409.50 1.99299
409.60 1.992441
409.70 1.991752
409.80 1.990504
409.90 1.989247
410.00 1.987696
410.10 1.985231
410.20 1.982468
410.30 1.979634
410.40 1.976307
410.50 1.971415
410.60 1.966527
410.70 1.961173
410.80 1.953941
410.90 1.946715
411.00 1.936929
411.10 1.926202
411.20 1.915486
411.30 1.903989
411.40 1.889128
411.50 1.867419
411.60 1.84573
411.70 1.819725
411.80 1.776408
411.90 1.727971
412.00 1.631675
412.10 1.408207
412.20 1.431661
412.30 1.507659
412.40 1.570155
412.50 1.613949
412.60 1.647793
412.70 1.671206
412.80 1.691999
412.90 1.711093
413.00 1.719313
413.10 1.720704
413.20 1.722093
413.30 1.723481
413.40 1.724867
413.50 1.725195
413.60 1.720726
413.70 1.714455
413.80 1.70819
413.90 1.70193
414.00 1.694937
414.10 1.685608
414.20 1.675162
414.30 1.660222
414.40 1.646001
414.50 1.643323
414.60 1.651837
414.70 1.663915
414.80 1.676297
414.90 1.689667
415.00 1.703023
415.10 1.716367
415.20 1.729268
415.30 1.740796
415.40 1.752314
415.50 1.7638
415.60 1.774647
415.70 1.785483
415.80 1.795986
415.90 1.805457
416.00 1.81492
416.10 1.823702
416.20 1.829792
416.30 1.835876
416.40 1.841954
416.50 1.84793
416.60 1.850813
416.70 1.853622
416.80 1.85293
416.90 1.843571
417.00 1.840185
417.10 1.847376
417.20 1.854585
417.30 1.861753
417.40 1.867801
417.50 1.873844
417.60 1.879677
417.70 1.88466
417.80 1.888563
417.90 1.892461
418.00 1.896356
418.10 1.900247
418.20 1.904133
418.30 1.908003
418.40 1.911189
418.50 1.91352
418.60 1.915849
418.70 1.918175
418.80 1.920499
418.90 1.92282
419.00 1.925139
419.10 1.927456
419.20 1.92977
419.30 1.932039
419.40 1.932937
419.50 1.933835
419.60 1.934638
419.70 1.935067
419.80 1.935496
419.90 1.935842
420.00 1.935926
420.10 1.936009
420.20 1.936093
420.30 1.936176
420.40 1.936259
420.50 1.936342
420.60 1.936424
420.70 1.936506
420.80 1.936588
420.90 1.936652
421.00 1.93614
421.10 1.935629
421.20 1.935097
421.30 1.934502
421.40 1.933907
421.50 1.933313
421.60 1.932719
421.70 1.932126
421.80 1.931532
421.90 1.930862
422.00 1.929947
422.10 1.929033
422.20 1.928119
422.30 1.927206
422.40 1.926286
422.50 1.925118
422.60 1.92395
422.70 1.922784
422.80 1.921619
422.90 1.920454
423.00 1.91929
423.10 1.918127
423.20 1.916966
423.30 1.915805
423.40 1.914644
423.50 1.913485
423.60 1.912327
423.70 1.911169
423.80 1.910012
423.90 1.908857
424.00 1.907702
424.10 1.906548
424.20 1.905395
424.30 1.904242
424.40 1.903138
424.50 1.901791
424.60 1.900444
424.70 1.899098
424.80 1.897753
424.90 1.89641
425.00 1.895067
