# Version 2.1 - nm, norm@500 to 1, cut digits, bergeron_He_4750_80.dat_4750
# Wavelength(nm)  Flambda(ergs/cm^s/s/nm)
300.00 0.09590485
300.10 0.09615418
300.20 0.0964037
300.30 0.096654
300.40 0.0969115
300.50 0.09716864
300.60 0.09742541
300.70 0.09768182
300.80 0.09793787
300.90 0.09819356
301.00 0.09844889
301.10 0.09870385
301.20 0.09895846
301.30 0.0992127
301.40 0.09946659
301.50 0.09972012
301.60 0.09997329
301.70 0.1002261
301.80 0.1004786
301.90 0.1007307
302.00 0.1009824
302.10 0.1012446
302.20 0.1015076
302.30 0.1017703
302.40 0.1020326
302.50 0.1022945
302.60 0.1025561
302.70 0.1028173
302.80 0.1030781
302.90 0.1033386
303.00 0.1035987
303.10 0.1038584
303.20 0.1041178
303.30 0.1043777
303.40 0.1046462
303.50 0.1049144
303.60 0.1051821
303.70 0.1054495
303.80 0.1057165
303.90 0.1059832
304.00 0.1062494
304.10 0.1065153
304.20 0.1067808
304.30 0.107046
304.40 0.1073107
304.50 0.1075752
304.60 0.1078499
304.70 0.1081254
304.80 0.1084005
304.90 0.1086752
305.00 0.1089496
305.10 0.1092236
305.20 0.1094972
305.30 0.1097704
305.40 0.1100432
305.50 0.1103156
305.60 0.1105877
305.70 0.1108594
305.80 0.1111307
305.90 0.1114016
306.00 0.1116722
306.10 0.1119424
306.20 0.1122122
306.30 0.1124816
306.40 0.1127639
306.50 0.1130497
306.60 0.1133351
306.70 0.1136201
306.80 0.1139047
306.90 0.114189
307.00 0.1144728
307.10 0.1147563
307.20 0.1150393
307.30 0.115322
307.40 0.1156042
307.50 0.1158861
307.60 0.1161676
307.70 0.1164487
307.80 0.1167294
307.90 0.1170097
308.00 0.1172897
308.10 0.1175692
308.20 0.1178483
308.30 0.1181271
308.40 0.1184055
308.50 0.1186835
308.60 0.1189611
308.70 0.1192383
308.80 0.1195199
308.90 0.1198146
309.00 0.1201045
309.10 0.1203941
309.20 0.1206832
309.30 0.120972
309.40 0.1212611
309.50 0.1215543
309.60 0.1218472
309.70 0.1221397
309.80 0.1224317
309.90 0.1227233
310.00 0.1230146
310.10 0.1233054
310.20 0.1235959
310.30 0.1238859
310.40 0.1241787
310.50 0.1244744
310.60 0.1247697
310.70 0.1250646
310.80 0.1253591
310.90 0.1256532
311.00 0.1259472
311.10 0.1262408
311.20 0.1265341
311.30 0.1268294
311.40 0.1271314
311.50 0.127433
311.60 0.1277341
311.70 0.1280349
311.80 0.1283352
311.90 0.1286352
312.00 0.1289347
312.10 0.1292338
312.20 0.1295279
312.30 0.1298287
312.40 0.1301355
312.50 0.1304306
312.60 0.1307355
312.70 0.13104
312.80 0.1313441
312.90 0.1316485
313.00 0.1319532
313.10 0.1322575
313.20 0.1325614
313.30 0.1328664
313.40 0.1331757
313.50 0.1334845
313.60 0.1337929
313.70 0.1341008
313.80 0.1344084
313.90 0.1347155
314.00 0.1350222
314.10 0.1353335
314.20 0.1356443
314.30 0.1359547
314.40 0.1362647
314.50 0.1365743
314.60 0.1368834
314.70 0.1371922
314.80 0.1375011
314.90 0.1378171
315.00 0.1381389
315.10 0.1384525
315.20 0.1387656
315.30 0.1390783
315.40 0.1393906
315.50 0.1397025
315.60 0.1400139
315.70 0.1403214
315.80 0.1406285
315.90 0.1409352
316.00 0.1412415
316.10 0.1415718
316.20 0.1419017
316.30 0.1422311
316.40 0.1425601
316.50 0.1428189
316.60 0.1432167
316.70 0.1435444
316.80 0.1438716
316.90 0.1441984
317.00 0.1445247
317.10 0.1448506
317.20 0.1451761
317.30 0.1454836
317.40 0.145797
317.50 0.1461284
317.60 0.1464592
317.70 0.1467897
317.80 0.1471196
317.90 0.1473911
318.00 0.1477336
318.10 0.1480551
318.20 0.1483763
318.30 0.1486969
318.40 0.1490172
318.50 0.149337
318.60 0.1496385
318.70 0.1500263
318.80 0.1503241
318.90 0.1506628
319.00 0.1509475
319.10 0.1513334
319.20 0.1516977
319.30 0.1520017
319.40 0.1523052
319.50 0.1526084
319.60 0.1529698
319.70 0.1533082
319.80 0.1536463
319.90 0.1539838
320.00 0.1543095
320.10 0.1546224
320.20 0.1549971
320.30 0.1552823
320.40 0.1556347
320.50 0.1560003
320.60 0.1563164
320.70 0.1566266
320.80 0.1569528
320.90 0.1572961
321.00 0.157639
321.10 0.1579814
321.20 0.1583633
321.30 0.1587099
321.40 0.1590559
321.50 0.1594015
321.60 0.1597467
321.70 0.1600914
321.80 0.1604415
321.90 0.1607976
322.00 0.1610679
322.10 0.1614204
322.20 0.1617724
322.30 0.1621239
322.40 0.162475
322.50 0.1628255
322.60 0.1631757
322.70 0.1635253
322.80 0.163776
322.90 0.164127
323.00 0.1644775
323.10 0.1648276
323.20 0.1651772
323.30 0.1655264
323.40 0.165875
323.50 0.1662233
323.60 0.166571
323.70 0.1669183
323.80 0.1672652
323.90 0.1676115
324.00 0.1679709
324.10 0.1683298
324.20 0.1686883
324.30 0.169059
324.40 0.1694393
324.50 0.1697903
324.60 0.1701409
324.70 0.1704911
324.80 0.1708408
324.90 0.17119
325.00 0.1715388
325.10 0.1718871
325.20 0.1722372
325.30 0.1725915
325.40 0.1729454
325.50 0.1733014
325.60 0.1736599
325.70 0.174018
325.80 0.1743755
325.90 0.1747344
326.00 0.1750947
326.10 0.1754546
326.20 0.175814
326.30 0.1761599
326.40 0.1764685
326.50 0.176839
326.60 0.1772091
326.70 0.1775786
326.80 0.1779477
326.90 0.1783163
327.00 0.1786844
327.10 0.179052
327.20 0.1794192
327.30 0.1797858
327.40 0.180152
327.50 0.1805177
327.60 0.1808829
327.70 0.1812477
327.80 0.1816119
327.90 0.1819903
328.00 0.1823711
328.10 0.1827356
328.20 0.1830997
328.30 0.1834634
328.40 0.1838265
328.50 0.184189
328.60 0.184551
328.70 0.1849125
328.80 0.1852785
328.90 0.1856582
329.00 0.1860374
329.10 0.1864161
329.20 0.1867943
329.30 0.1871721
329.40 0.1875493
329.50 0.187926
329.60 0.1883023
329.70 0.188678
329.80 0.1890533
329.90 0.1894281
330.00 0.1898005
330.10 0.1901702
330.20 0.1905395
330.30 0.1909082
330.40 0.1912838
330.50 0.191667
330.60 0.1920496
330.70 0.1924318
330.80 0.1928134
330.90 0.1931946
331.00 0.1935752
331.10 0.1939554
331.20 0.1943351
331.30 0.1947142
331.40 0.1950929
331.50 0.1954548
331.60 0.1957964
331.70 0.1961376
331.80 0.1965249
331.90 0.1969137
332.00 0.197302
332.10 0.1976898
332.20 0.1980771
332.30 0.1984638
332.40 0.1988501
332.50 0.1992359
332.60 0.1996211
332.70 0.2000059
332.80 0.2003902
332.90 0.2007739
333.00 0.2011572
333.10 0.2015458
333.20 0.2019411
333.30 0.2023358
333.40 0.20273
333.50 0.2031237
333.60 0.203517
333.70 0.2039097
333.80 0.2043018
333.90 0.2046935
334.00 0.2050847
334.10 0.2054697
334.20 0.2058474
334.30 0.2062246
334.40 0.2066013
334.50 0.2069774
334.60 0.2073532
334.70 0.2077737
334.80 0.208218
334.90 0.2086169
335.00 0.2090153
335.10 0.2093489
335.20 0.2097216
335.30 0.2101498
335.40 0.2105216
335.50 0.2108928
335.60 0.2113101
335.70 0.2117021
335.80 0.2120719
335.90 0.2124551
336.00 0.2128549
336.10 0.2132541
336.20 0.2136528
336.30 0.2140557
336.40 0.2144637
336.50 0.2148712
336.60 0.2152781
336.70 0.2156846
336.80 0.2160905
336.90 0.216489
337.00 0.2168784
337.10 0.2172673
337.20 0.2176558
337.30 0.2180515
337.40 0.2184579
337.50 0.2188638
337.60 0.2192692
337.70 0.2196741
337.80 0.2200784
337.90 0.2204875
338.00 0.2209024
338.10 0.2213168
338.20 0.2217306
338.30 0.222144
338.40 0.2225545
338.50 0.2229588
338.60 0.2233626
338.70 0.2237658
338.80 0.2241686
338.90 0.2245708
339.00 0.2249725
339.10 0.2253737
339.20 0.2257744
339.30 0.2261846
339.40 0.2266085
339.50 0.2270282
339.60 0.2274429
339.70 0.2278571
339.80 0.2282707
339.90 0.2286839
340.00 0.2290964
340.10 0.2295085
340.20 0.2299201
340.30 0.2303311
340.40 0.2307416
340.50 0.2311516
340.60 0.231561
340.70 0.2319699
340.80 0.2323817
340.90 0.2327977
341.00 0.2332149
341.10 0.2336338
341.20 0.2340522
341.30 0.2344701
341.40 0.2348874
341.50 0.2353042
341.60 0.2357205
341.70 0.2361362
341.80 0.2365558
341.90 0.2369801
342.00 0.237404
342.10 0.2378273
342.20 0.238257
342.30 0.2386491
342.40 0.2390512
342.50 0.2394914
342.60 0.2399311
342.70 0.2403702
342.80 0.2408088
342.90 0.2412468
343.00 0.2416756
343.10 0.2420931
343.20 0.2425102
343.30 0.2429267
343.40 0.2433491
343.50 0.24378
343.60 0.2442103
343.70 0.2446402
343.80 0.2450695
343.90 0.2454982
344.00 0.2459224
344.10 0.2463402
344.20 0.2467575
344.30 0.2471743
344.40 0.2476026
344.50 0.2480478
344.60 0.2484895
344.70 0.2488188
344.80 0.2492624
344.90 0.2497054
345.00 0.2501479
345.10 0.2505898
345.20 0.2510181
345.30 0.2514272
345.40 0.2518358
345.50 0.2522987
345.60 0.252783
345.70 0.253202
345.80 0.2536206
345.90 0.2540387
346.00 0.2544562
346.10 0.2548732
346.20 0.2552976
346.30 0.255733
346.40 0.2561678
346.50 0.2566021
346.60 0.2570358
346.70 0.257469
346.80 0.2579016
346.90 0.2583337
347.00 0.2587653
347.10 0.2591963
347.20 0.2596325
347.30 0.2600763
347.40 0.2605195
347.50 0.2609622
347.60 0.2614043
347.70 0.2618459
347.80 0.2622869
347.90 0.2627274
348.00 0.2631673
348.10 0.2636067
348.20 0.2640455
348.30 0.2644838
348.40 0.2649215
348.50 0.2653587
348.60 0.2657954
348.70 0.2662372
348.80 0.2666841
348.90 0.267136
349.00 0.2675874
349.10 0.2680382
349.20 0.2684884
349.30 0.2689381
349.40 0.2693872
349.50 0.2698357
349.60 0.2702837
349.70 0.2707311
349.80 0.271178
349.90 0.2716243
350.00 0.2720701
350.10 0.2725153
350.20 0.27296
350.30 0.2734075
350.40 0.2738593
350.50 0.2743106
350.60 0.2747613
350.70 0.2752114
350.80 0.275661
350.90 0.2761101
351.00 0.2765586
351.10 0.2770065
351.20 0.2774539
351.30 0.2779007
351.40 0.2783479
351.50 0.2787961
351.60 0.2792438
351.70 0.279691
351.80 0.2801376
351.90 0.2805836
352.00 0.2810291
352.10 0.2814741
352.20 0.2819192
352.30 0.2823705
352.40 0.2828307
352.50 0.2832904
352.60 0.2837495
352.70 0.284208
352.80 0.284666
352.90 0.2851234
353.00 0.2855802
353.10 0.2860365
353.20 0.2864922
353.30 0.2869474
353.40 0.287402
353.50 0.2878666
353.60 0.2883333
353.70 0.2887994
353.80 0.2892649
353.90 0.2897281
354.00 0.2901876
354.10 0.2906465
354.20 0.2911048
354.30 0.2915626
354.40 0.2920198
354.50 0.2924765
354.60 0.2929326
354.70 0.2933881
354.80 0.2938468
354.90 0.2943104
355.00 0.2947734
355.10 0.2952358
355.20 0.2956976
355.30 0.2961478
355.40 0.2965974
355.50 0.2970464
355.60 0.2974949
355.70 0.2979764
355.80 0.2984724
355.90 0.2989419
356.00 0.2993993
356.10 0.2998648
356.20 0.3003297
356.30 0.300794
356.40 0.3012577
356.50 0.3017209
356.60 0.3021835
356.70 0.3026456
356.80 0.3031071
356.90 0.303568
357.00 0.3040284
357.10 0.3044882
357.20 0.3049474
357.30 0.3054061
357.40 0.3058723
357.50 0.3063522
357.60 0.3068315
357.70 0.3073102
357.80 0.3077837
357.90 0.3082565
358.00 0.3087314
358.10 0.3092063
358.20 0.3096807
358.30 0.3101544
358.40 0.3106276
358.50 0.3111003
358.60 0.3115723
358.70 0.3120438
358.80 0.3125147
358.90 0.312985
359.00 0.3134505
359.10 0.3139078
359.20 0.3143672
359.30 0.3148428
359.40 0.3153178
359.50 0.3157977
359.60 0.3162784
359.70 0.3167585
359.80 0.3172368
359.90 0.3177146
360.00 0.3181878
360.10 0.3186535
360.20 0.3191186
360.30 0.3195831
360.40 0.3200471
360.50 0.3205105
360.60 0.321011
360.70 0.3215045
360.80 0.3219974
360.90 0.3224897
361.00 0.322947
361.10 0.323419
361.20 0.3238828
361.30 0.3243674
361.40 0.3248889
361.50 0.3253563
361.60 0.3258563
361.70 0.3263172
361.80 0.3267871
361.90 0.3272736
362.00 0.3277595
362.10 0.3282448
362.20 0.3287253
362.30 0.3291977
362.40 0.3296696
362.50 0.3301409
362.60 0.3306116
362.70 0.3310911
362.80 0.3315458
362.90 0.3320496
363.00 0.3325527
363.10 0.3330474
363.20 0.3335414
363.30 0.3340228
363.40 0.3345005
363.50 0.3349248
363.60 0.3354807
363.70 0.3359302
363.80 0.3363793
363.90 0.336873
364.00 0.3373661
364.10 0.3378587
364.20 0.3383506
364.30 0.338862
364.40 0.3393778
364.50 0.3398295
364.60 0.3403069
364.70 0.3407837
364.80 0.3412599
364.90 0.3417552
365.00 0.34225
365.10 0.3427441
365.20 0.3432377
365.30 0.3437306
365.40 0.344223
365.50 0.3447148
365.60 0.345206
365.70 0.3456824
365.80 0.3461581
365.90 0.3466587
366.00 0.3471649
366.10 0.3476671
366.20 0.3481688
366.30 0.3486698
366.40 0.3491702
366.50 0.3496458
366.60 0.3500857
366.70 0.3506035
366.80 0.3511208
366.90 0.3516245
367.00 0.3521049
367.10 0.3525847
367.20 0.3530639
367.30 0.3535425
367.40 0.3540206
367.50 0.354514
367.60 0.3550107
367.70 0.355525
367.80 0.3560387
367.90 0.3565518
368.00 0.3570262
368.10 0.3575467
368.20 0.3580425
368.30 0.3585369
368.40 0.3590307
368.50 0.3595239
368.60 0.3600165
368.70 0.3605085
368.80 0.361
368.90 0.3615078
369.00 0.362003
369.10 0.3624871
369.20 0.3630154
369.30 0.3635021
369.40 0.3639882
369.50 0.3644738
369.60 0.3649893
369.70 0.3655042
369.80 0.3659974
369.90 0.3664898
370.00 0.3669816
370.10 0.3674702
370.20 0.3679853
370.30 0.3685001
370.40 0.3689629
370.50 0.3694778
370.60 0.3699896
370.70 0.3704588
370.80 0.3709671
370.90 0.3714749
371.00 0.371989
371.10 0.3725026
371.20 0.3730085
371.30 0.3735138
371.40 0.3739765
371.50 0.374473
371.60 0.374969
371.70 0.3754643
371.80 0.3759591
371.90 0.3764533
372.00 0.3770226
372.10 0.377469
372.20 0.3779893
372.30 0.378509
372.40 0.3790281
372.50 0.3795466
372.60 0.3800645
372.70 0.3805817
372.80 0.3810781
372.90 0.3815739
373.00 0.3820761
373.10 0.3825777
373.20 0.3830752
373.30 0.3835722
373.40 0.3840685
373.50 0.3845643
373.60 0.3851095
373.70 0.385554
373.80 0.386145
373.90 0.3866415
374.00 0.3871343
374.10 0.3876265
374.20 0.3881181
374.30 0.3886091
374.40 0.3891494
374.50 0.3896818
374.60 0.3901731
374.70 0.3906636
374.80 0.3911534
374.90 0.3916427
375.00 0.3921628
375.10 0.3926822
375.20 0.3932011
375.30 0.3937146
375.40 0.3942275
375.50 0.3947399
375.60 0.3952516
375.70 0.3957627
375.80 0.3962732
375.90 0.3967831
376.00 0.3972573
376.10 0.3977776
376.20 0.3982978
376.30 0.3988173
376.40 0.3993363
376.50 0.3998481
376.60 0.4003494
376.70 0.4008502
376.80 0.4013611
376.90 0.4018822
377.00 0.4024026
377.10 0.4029224
377.20 0.403442
377.30 0.4039623
377.40 0.404482
377.50 0.4050011
377.60 0.4055112
377.70 0.4060207
377.80 0.4065296
377.90 0.407038
378.00 0.4075428
378.10 0.4080626
378.20 0.4085821
378.30 0.4091009
378.40 0.4096191
378.50 0.4101367
378.60 0.4106537
378.70 0.4111701
378.80 0.4116859
378.90 0.4121972
379.00 0.4127005
379.10 0.413222
379.20 0.4137429
379.30 0.4142701
379.40 0.4148035
379.50 0.4153363
379.60 0.4158616
379.70 0.4163754
379.80 0.4168871
379.90 0.4173982
380.00 0.4179086
380.10 0.4184185
380.20 0.4189278
380.30 0.4194365
380.40 0.4199446
380.50 0.4204521
380.60 0.4210192
380.70 0.4215433
380.80 0.4220668
380.90 0.4225897
381.00 0.4231119
381.10 0.4236117
381.20 0.4241217
381.30 0.4246697
381.40 0.4251742
381.50 0.4256901
381.60 0.4262004
381.70 0.4266996
381.80 0.4272859
381.90 0.4277809
382.00 0.4282754
382.10 0.4287693
382.20 0.4293583
382.30 0.429851
382.40 0.4303565
382.50 0.4308815
382.60 0.4314059
382.70 0.4319475
382.80 0.4324821
382.90 0.4329896
383.00 0.4334965
383.10 0.4340028
383.20 0.4345205
383.30 0.4350823
383.40 0.435627
383.50 0.4361466
383.60 0.4366518
383.70 0.4371747
383.80 0.4376971
383.90 0.4382189
384.00 0.43874
384.10 0.4392606
384.20 0.4397805
384.30 0.4402999
384.40 0.4408196
384.50 0.4413396
384.60 0.4418591
384.70 0.442378
384.80 0.4429005
384.90 0.4434388
385.00 0.4439775
385.10 0.4445139
385.20 0.4450058
385.30 0.4455396
385.40 0.4460745
385.50 0.4466104
385.60 0.4471458
385.70 0.4476806
385.80 0.4482037
385.90 0.448685
386.00 0.4492084
386.10 0.4497704
386.20 0.4502973
386.30 0.4508237
386.40 0.4513172
386.50 0.4518485
386.60 0.4523739
386.70 0.4529112
386.80 0.4534711
386.90 0.4539371
387.00 0.4544795
387.10 0.4550376
387.20 0.4555739
387.30 0.4560588
387.40 0.4566132
387.50 0.4571223
387.60 0.4576472
387.70 0.4581784
387.80 0.4587089
387.90 0.4592389
388.00 0.459766
388.10 0.4602765
388.20 0.4608152
388.30 0.4613431
388.40 0.4618704
388.50 0.4624138
388.60 0.4629749
388.70 0.4634688
388.80 0.4640173
388.90 0.4645585
389.00 0.4650618
389.10 0.4655878
389.20 0.4661297
389.30 0.4666765
389.40 0.4671932
389.50 0.4677166
389.60 0.4682453
389.70 0.4687604
389.80 0.4692866
389.90 0.4698121
390.00 0.470337
390.10 0.4708614
390.20 0.4713851
390.30 0.4719133
390.40 0.4724466
390.50 0.4729793
390.60 0.4735114
390.70 0.4740429
390.80 0.4745748
390.90 0.4751073
391.00 0.4756549
391.10 0.4762102
391.20 0.4767528
391.30 0.4772662
391.40 0.4777979
391.50 0.478329
391.60 0.4788595
391.70 0.4793895
391.80 0.4799188
391.90 0.4804437
392.00 0.4809727
392.10 0.4815146
392.20 0.4820543
392.30 0.482595
392.40 0.4831473
392.50 0.4836552
392.60 0.4841797
392.70 0.4847194
392.80 0.4852268
392.90 0.4857906
393.00 0.4863137
393.10 0.486844
393.20 0.487381
393.30 0.4879013
393.40 0.4884196
393.50 0.4890111
393.60 0.4895057
393.70 0.4900586
393.80 0.490584
393.90 0.4911007
394.00 0.4916263
394.10 0.4922035
394.20 0.49273
394.30 0.4932589
394.40 0.4937707
394.50 0.4943444
394.60 0.4948461
394.70 0.4953536
394.80 0.4958843
394.90 0.4964167
395.00 0.497011
395.10 0.497519
395.20 0.4980573
395.30 0.498592
395.40 0.4991262
395.50 0.4996694
395.60 0.5002156
395.70 0.5007578
395.80 0.5012905
395.90 0.5018225
396.00 0.5023518
396.10 0.5028698
396.20 0.5034174
396.30 0.5039284
396.40 0.5044459
396.50 0.5050061
396.60 0.5055368
396.70 0.5060596
396.80 0.506605
396.90 0.5071332
397.00 0.507738
397.10 0.508221
397.20 0.5088027
397.30 0.5093073
397.40 0.5098304
397.50 0.5103528
397.60 0.510878
397.70 0.5114359
397.80 0.5119932
397.90 0.5125429
398.00 0.5130733
398.10 0.5136031
398.20 0.5141359
398.30 0.5146722
398.40 0.5152084
398.50 0.5157624
398.60 0.5162754
398.70 0.5167994
398.80 0.5173294
398.90 0.5178561
399.00 0.518377
399.10 0.5189777
399.20 0.5195024
399.30 0.5200264
399.40 0.5205498
399.50 0.5210727
399.60 0.5216079
399.70 0.5221475
399.80 0.5226864
399.90 0.5232247
400.00 0.5237626
400.10 0.5243068
400.20 0.5248915
400.30 0.5254199
400.40 0.5259501
400.50 0.5264401
400.60 0.5270109
400.70 0.5275314
400.80 0.5281148
400.90 0.52862
401.00 0.5291529
401.10 0.529671
401.20 0.5302549
401.30 0.5308077
401.40 0.5313251
401.50 0.5318312
401.60 0.5323396
401.70 0.5329409
401.80 0.5334531
401.90 0.53397
402.00 0.5345635
402.10 0.5350539
402.20 0.5355881
402.30 0.5361392
402.40 0.5366817
402.50 0.5371833
402.60 0.5377204
402.70 0.5382876
402.80 0.5388388
402.90 0.5393549
403.00 0.5399049
403.10 0.5404887
403.20 0.5410183
403.30 0.5415433
403.40 0.5420958
403.50 0.5426359
403.60 0.5431686
403.70 0.5436864
403.80 0.5442135
403.90 0.5447717
404.00 0.5453027
404.10 0.5458633
404.20 0.5463633
404.30 0.5468626
404.40 0.5474625
404.50 0.5479879
404.60 0.5485282
404.70 0.5490253
404.80 0.5496294
404.90 0.550103
405.00 0.550689
405.10 0.5512148
405.20 0.5517333
405.30 0.5522512
405.40 0.552801
405.50 0.5533501
405.60 0.5538986
405.70 0.5544465
405.80 0.5549938
405.90 0.5555405
406.00 0.5560688
406.10 0.5565965
406.20 0.5571237
406.30 0.5576502
406.40 0.5581775
406.50 0.5587677
406.60 0.5592942
406.70 0.559822
406.80 0.5603387
406.90 0.5608582
407.00 0.5614012
407.10 0.5619435
407.20 0.5624852
407.30 0.5630264
407.40 0.5635669
407.50 0.5641069
407.60 0.5646462
407.70 0.565185
407.80 0.5657231
407.90 0.566261
408.00 0.5668094
408.10 0.56736
408.20 0.5679056
408.30 0.5684468
408.40 0.5689874
408.50 0.5695162
408.60 0.5700487
408.70 0.5705805
408.80 0.5711178
408.90 0.5716922
409.00 0.5722306
409.10 0.5727685
409.20 0.5733057
409.30 0.5738424
409.40 0.5743778
409.50 0.5748926
409.60 0.5754068
409.70 0.5759304
409.80 0.5764932
409.90 0.5770543
410.00 0.5775801
410.10 0.5781296
410.20 0.5786629
410.30 0.5791917
410.40 0.579722
410.50 0.5802582
410.60 0.5807938
410.70 0.581333
410.80 0.5818883
410.90 0.5824431
411.00 0.5829848
411.10 0.5835212
411.20 0.5840571
411.30 0.5845839
411.40 0.5850774
411.50 0.5856098
411.60 0.5861417
411.70 0.5866746
411.80 0.587214
411.90 0.5877528
412.00 0.588291
412.10 0.5888286
412.20 0.5893656
412.30 0.5899062
412.40 0.5904616
412.50 0.5909731
412.60 0.5915078
412.70 0.5920495
412.80 0.5925925
412.90 0.5931331
413.00 0.5936756
413.10 0.5942171
413.20 0.5947579
413.30 0.5952982
413.40 0.5958379
413.50 0.5963818
413.60 0.5969365
413.70 0.5974647
413.80 0.5979923
413.90 0.5985193
414.00 0.5990457
414.10 0.5995716
414.20 0.6000968
414.30 0.600703
414.40 0.6012271
414.50 0.6017431
414.60 0.6022735
414.70 0.6027959
414.80 0.6033225
414.90 0.603864
415.00 0.604405
415.10 0.6049453
415.20 0.6054856
415.30 0.6060272
415.40 0.6065682
415.50 0.6071081
415.60 0.6076281
415.70 0.6081476
415.80 0.608676
415.90 0.609234
416.00 0.6097913
416.10 0.6103408
416.20 0.6108603
416.30 0.6113792
416.40 0.6118975
416.50 0.6124163
416.60 0.612968
416.70 0.6135179
416.80 0.6140315
416.90 0.6146183
417.00 0.6151406
417.10 0.6156371
417.20 0.6161853
417.30 0.6167322
417.40 0.6172589
417.50 0.617785
