# Version 2.1 - nm, norm@500 to 1, cut digits, bergeron_He_3500_90.dat_3500
# Wavelength(nm)  Flambda(ergs/cm^s/s/nm)
300.00 0.01947037
300.10 0.01954809
300.20 0.0196262
300.30 0.01970446
300.40 0.0197843
300.50 0.01986403
300.60 0.01994365
300.70 0.02002315
300.80 0.02010255
300.90 0.02018184
301.00 0.02026102
301.10 0.02034009
301.20 0.02041904
301.30 0.02049789
301.40 0.02057663
301.50 0.02065527
301.60 0.02073379
301.70 0.0208122
301.80 0.02089051
301.90 0.02096871
302.00 0.02104679
302.10 0.02112969
302.20 0.02121302
302.30 0.02129623
302.40 0.02137933
302.50 0.02146232
302.60 0.02154519
302.70 0.02162794
302.80 0.02171058
302.90 0.02179311
303.00 0.02187553
303.10 0.02195783
303.20 0.02204002
303.30 0.02212245
303.40 0.02220796
303.50 0.02229336
303.60 0.02237865
303.70 0.02246381
303.80 0.02254886
303.90 0.02263379
304.00 0.02271861
304.10 0.02280331
304.20 0.02288789
304.30 0.02297235
304.40 0.02305671
304.50 0.02314094
304.60 0.02323091
304.70 0.02332141
304.80 0.02341178
304.90 0.02350203
305.00 0.02359215
305.10 0.02368215
305.20 0.02377203
305.30 0.02386179
305.40 0.02395142
305.50 0.02404093
305.60 0.02413032
305.70 0.02421959
305.80 0.02430873
305.90 0.02439776
306.00 0.02448666
306.10 0.02457544
306.20 0.0246641
306.30 0.02475264
306.40 0.02484786
306.50 0.02494498
306.60 0.02504198
306.70 0.02513884
306.80 0.02523557
306.90 0.02533216
307.00 0.02542863
307.10 0.02552497
307.20 0.02562117
307.30 0.02571725
307.40 0.02581319
307.50 0.025909
307.60 0.02600469
307.70 0.02610024
307.80 0.02619567
307.90 0.02629096
308.00 0.02638613
308.10 0.02648116
308.20 0.02657607
308.30 0.02667085
308.40 0.0267655
308.50 0.02686002
308.60 0.02695442
308.70 0.02704868
308.80 0.02714275
308.90 0.02723649
309.00 0.0273371
309.10 0.02743758
309.20 0.02753793
309.30 0.02763813
309.40 0.02773851
309.50 0.02784063
309.60 0.02794261
309.70 0.02804445
309.80 0.02814615
309.90 0.02824772
310.00 0.02834914
310.10 0.02845044
310.20 0.02855159
310.30 0.02865261
310.40 0.02875461
310.50 0.02885768
310.60 0.0289606
310.70 0.02906339
310.80 0.02916604
310.90 0.02926855
311.00 0.02937552
311.10 0.02948234
311.20 0.02958901
311.30 0.0296958
311.40 0.02980316
311.50 0.02991038
311.60 0.03001745
311.70 0.03012438
311.80 0.03023117
311.90 0.03033781
312.00 0.03044431
312.10 0.03055067
312.20 0.03065919
312.30 0.03076457
312.40 0.03086677
312.50 0.03098243
312.60 0.03109146
312.70 0.03120035
312.80 0.03130909
312.90 0.03141969
313.00 0.03153234
313.10 0.03164483
313.20 0.03175717
313.30 0.03186959
313.40 0.0319825
313.50 0.03209526
313.60 0.03220788
313.70 0.03232034
313.80 0.03243265
313.90 0.03254482
314.00 0.03265683
314.10 0.03277098
314.20 0.03288498
314.30 0.03299883
314.40 0.03311253
314.50 0.03322608
314.60 0.03333947
314.70 0.03345272
314.80 0.03356689
314.90 0.03368758
315.00 0.033812
315.10 0.03392982
315.20 0.03404749
315.30 0.034165
315.40 0.03428235
315.50 0.03439954
315.60 0.03451658
315.70 0.03463571
315.80 0.03475467
315.90 0.03487348
316.00 0.03499213
316.10 0.03511062
316.20 0.03522896
316.30 0.03535383
316.40 0.03547185
316.50 0.03558971
316.60 0.0357141
316.70 0.03583831
316.80 0.03596237
316.90 0.03608626
317.00 0.03620999
317.10 0.03633355
317.20 0.03645695
317.30 0.03657912
317.40 0.03670152
317.50 0.03682487
317.60 0.03694806
317.70 0.03707109
317.80 0.03719395
317.90 0.03732737
318.00 0.03745142
318.10 0.03757997
318.20 0.03770835
318.30 0.03783657
318.40 0.03796461
318.50 0.03809248
318.60 0.03821505
318.70 0.03833798
318.80 0.03847523
318.90 0.03860375
319.00 0.03872934
319.10 0.03885621
319.20 0.0389843
319.30 0.03911615
319.40 0.03924783
319.50 0.03937933
319.60 0.03951566
319.70 0.03964681
319.80 0.0397778
319.90 0.03990861
320.00 0.04003985
320.10 0.04017157
320.20 0.04030804
320.30 0.04044413
320.40 0.04058185
320.50 0.04070635
320.60 0.04084371
320.70 0.04098089
320.80 0.04111789
320.90 0.04125471
321.00 0.04139136
321.10 0.04152783
321.20 0.04165541
321.30 0.04179545
321.40 0.04193531
321.50 0.04207498
321.60 0.04221448
321.70 0.04235379
321.80 0.04249314
321.90 0.04263254
322.00 0.04277033
322.10 0.04291063
322.20 0.04305075
322.30 0.04319068
322.40 0.04333043
322.50 0.04347001
322.60 0.0436094
322.70 0.04374861
322.80 0.0438915
322.90 0.04403758
323.00 0.04418347
323.10 0.04432918
323.20 0.04447469
323.30 0.04462002
323.40 0.04476515
323.50 0.0449101
323.60 0.04505487
323.70 0.04519944
323.80 0.04534383
323.90 0.04548803
324.00 0.04563379
324.10 0.04577937
324.20 0.04592476
324.30 0.0460715
324.40 0.04622163
324.50 0.0463707
324.60 0.04651957
324.70 0.04666826
324.80 0.04681675
324.90 0.04696505
325.00 0.04711315
325.10 0.04726107
325.20 0.04741007
325.30 0.04756159
325.40 0.04771292
325.50 0.04786446
325.60 0.0480163
325.70 0.04816795
325.80 0.0483194
325.90 0.04847268
326.00 0.04862795
326.10 0.04878302
326.20 0.0489379
326.30 0.04909383
326.40 0.04925317
326.50 0.04941235
326.60 0.04957132
326.70 0.04973009
326.80 0.04988866
326.90 0.05004702
327.00 0.05020518
327.10 0.05036314
327.20 0.05052089
327.30 0.05067844
327.40 0.05083579
327.50 0.05099294
327.60 0.05114989
327.70 0.05130663
327.80 0.05146318
327.90 0.05162222
328.00 0.05178388
328.10 0.05194522
328.20 0.05210636
328.30 0.05226729
328.40 0.05242802
328.50 0.05259112
328.60 0.05275462
328.70 0.05291792
328.80 0.05308201
328.90 0.05324877
329.00 0.05341531
329.10 0.05358164
329.20 0.05374775
329.30 0.05391366
329.40 0.05407935
329.50 0.05424484
329.60 0.05441011
329.70 0.05457517
329.80 0.05474002
329.90 0.05490467
330.00 0.05507207
330.10 0.05524288
330.20 0.05541347
330.30 0.05558385
330.40 0.05575542
330.50 0.05592828
330.60 0.05610093
330.70 0.05627336
330.80 0.05644557
330.90 0.05661756
331.00 0.05678933
331.10 0.05696088
331.20 0.05713222
331.30 0.05730334
331.40 0.05747424
331.50 0.05764715
331.60 0.05782256
331.70 0.05799775
331.80 0.05817677
331.90 0.05835574
332.00 0.05853447
332.10 0.05871299
332.20 0.05889127
332.30 0.05906933
332.40 0.05924717
332.50 0.05942478
332.60 0.05960217
332.70 0.05977933
332.80 0.05995627
332.90 0.06013299
333.00 0.06030948
333.10 0.06048892
333.20 0.060672
333.30 0.06085484
333.40 0.06103746
333.50 0.06121985
333.60 0.06140201
333.70 0.06158394
333.80 0.06176564
333.90 0.06194711
334.00 0.06212835
334.10 0.06231188
334.20 0.06249826
334.30 0.0626844
334.40 0.06287031
334.50 0.06305599
334.60 0.06324143
334.70 0.06342967
334.80 0.06362066
334.90 0.06381038
335.00 0.06399986
335.10 0.06418283
335.20 0.06437084
335.30 0.06456249
335.40 0.06475151
335.50 0.06493881
335.60 0.06513033
335.70 0.06532191
335.80 0.06551444
335.90 0.06570672
336.00 0.06589877
336.10 0.06609057
336.20 0.06628214
336.30 0.06647524
336.40 0.06667026
336.50 0.06686505
336.60 0.06705959
336.70 0.06725388
336.80 0.06744794
336.90 0.0676429
337.00 0.06783901
337.10 0.06803489
337.20 0.06823052
337.30 0.06842793
337.40 0.06862801
337.50 0.06882784
337.60 0.06902742
337.70 0.06922675
337.80 0.06942584
337.90 0.06962609
338.00 0.0698278
338.10 0.07002926
338.20 0.07023047
338.30 0.07043143
338.40 0.07063362
338.50 0.07083916
338.60 0.07104444
338.70 0.07124947
338.80 0.07145425
338.90 0.07165877
339.00 0.07186304
339.10 0.07206705
339.20 0.07227081
339.30 0.07247555
339.40 0.07268179
339.50 0.07289001
339.60 0.07310071
339.70 0.07331114
339.80 0.07352131
339.90 0.07373122
340.00 0.07394087
340.10 0.07415026
340.20 0.07435939
340.30 0.07456826
340.40 0.07477688
340.50 0.07498524
340.60 0.07519334
340.70 0.07540118
340.80 0.07561157
340.90 0.07582573
341.00 0.07604053
341.10 0.07625619
341.20 0.07647158
341.30 0.0766867
341.40 0.07690156
341.50 0.07711615
341.60 0.07733048
341.70 0.07754454
341.80 0.07775937
341.90 0.07797518
342.00 0.07819072
342.10 0.078406
342.20 0.07862599
342.30 0.07884752
342.40 0.07906566
342.50 0.07928556
342.60 0.07950519
342.70 0.07972455
342.80 0.07994364
342.90 0.08016246
343.00 0.08038327
343.10 0.08060656
343.20 0.08082957
343.30 0.08105231
343.40 0.08127666
343.50 0.08150344
343.60 0.08172994
343.70 0.08195617
343.80 0.08218211
343.90 0.08240778
344.00 0.08263357
344.10 0.08285963
344.20 0.08308541
344.30 0.08331092
344.40 0.0835373
344.50 0.08376508
344.60 0.08399488
344.70 0.08422773
344.80 0.08446001
344.90 0.08468132
345.00 0.08491333
345.10 0.08514505
345.20 0.08537648
345.30 0.08560764
345.40 0.08583851
345.50 0.08607395
345.60 0.08631291
345.70 0.08654853
345.80 0.08678387
345.90 0.08701891
346.00 0.08725367
346.10 0.08748815
346.20 0.08772462
346.30 0.08796411
346.40 0.0882033
346.50 0.0884422
346.60 0.08868081
346.70 0.08891913
346.80 0.08915716
346.90 0.0893949
347.00 0.08963235
347.10 0.08986952
347.20 0.09011015
347.30 0.0903559
347.40 0.09060135
347.50 0.09084651
347.60 0.09109137
347.70 0.09133593
347.80 0.09158019
347.90 0.09182416
348.00 0.09206783
348.10 0.09231121
348.20 0.0925543
348.30 0.09279709
348.40 0.09303958
348.50 0.09328178
348.60 0.09352369
348.70 0.09377017
348.80 0.09402026
348.90 0.09427346
349.00 0.09452635
349.10 0.09477893
349.20 0.09503122
349.30 0.09528319
349.40 0.09553487
349.50 0.09578624
349.60 0.0960373
349.70 0.09628807
349.80 0.09653853
349.90 0.09678869
350.00 0.09703855
350.10 0.0972881
350.20 0.09753736
350.30 0.0977905
350.40 0.09804934
350.50 0.09830788
350.60 0.09856611
350.70 0.09882402
350.80 0.09908163
350.90 0.09933893
351.00 0.09959591
351.10 0.09985259
351.20 0.100109
351.30 0.100365
351.40 0.1006232
351.50 0.1008854
351.60 0.1011473
351.70 0.1014088
351.80 0.10167
351.90 0.101931
352.00 0.1021916
352.10 0.1024519
352.20 0.1027188
352.30 0.1029866
352.40 0.1032549
352.50 0.1035229
352.60 0.1037905
352.70 0.1040578
352.80 0.1043248
352.90 0.1045915
353.00 0.1048579
353.10 0.1051239
353.20 0.1053896
353.30 0.105655
353.40 0.1059201
353.50 0.1061934
353.60 0.1064684
353.70 0.1067431
353.80 0.1070174
353.90 0.1072914
354.00 0.1075649
354.10 0.107838
354.20 0.1081109
354.30 0.1083834
354.40 0.1086556
354.50 0.1089274
354.60 0.1091989
354.70 0.1094702
354.80 0.1097431
354.90 0.1100185
355.00 0.1102937
355.10 0.1105685
355.20 0.1108429
355.30 0.1111249
355.40 0.1114065
355.50 0.1116878
355.60 0.1119688
355.70 0.1122629
355.80 0.1125628
355.90 0.1127996
356.00 0.1130548
356.10 0.1133421
356.20 0.1136291
356.30 0.1139157
356.40 0.114202
356.50 0.114488
356.60 0.1147736
356.70 0.1150589
356.80 0.1153438
356.90 0.1156284
357.00 0.1159127
357.10 0.1161967
357.20 0.1164803
357.30 0.1167635
357.40 0.1170558
357.50 0.1173643
357.60 0.1176724
357.70 0.1179801
357.80 0.1182468
357.90 0.1185132
358.00 0.1188015
358.10 0.119095
358.20 0.1193881
358.30 0.119681
358.40 0.1199734
358.50 0.1202656
358.60 0.1205574
358.70 0.1208488
358.80 0.1211399
358.90 0.1214307
359.00 0.1217263
359.10 0.1220308
359.20 0.1223387
359.30 0.122671
359.40 0.1230029
359.50 0.1232808
359.60 0.1235449
359.70 0.1238086
359.80 0.1241314
359.90 0.1244538
360.00 0.1247665
360.10 0.1250624
360.20 0.1253579
360.30 0.1256531
360.40 0.1259479
360.50 0.1262424
360.60 0.1266144
360.70 0.1269042
360.80 0.1271937
360.90 0.1274828
361.00 0.1277743
361.10 0.1281189
361.20 0.1284241
361.30 0.1287426
361.40 0.128989
361.50 0.129317
361.60 0.129618
361.70 0.1299555
361.80 0.1302748
361.90 0.1305621
362.00 0.130849
362.10 0.1311887
362.20 0.1315252
362.30 0.1318327
362.40 0.1321398
362.50 0.1324466
362.60 0.132753
362.70 0.1330948
362.80 0.1333942
362.90 0.1337251
363.00 0.1340557
363.10 0.134353
363.20 0.1346496
363.30 0.1349537
363.40 0.1352848
363.50 0.1356155
363.60 0.1359458
363.70 0.1362533
363.80 0.1366053
363.90 0.1369152
364.00 0.1372248
364.10 0.137534
364.20 0.1378428
364.30 0.1381577
364.40 0.1384738
364.50 0.1388048
364.60 0.13913
364.70 0.1394548
364.80 0.1397793
364.90 0.1401047
365.00 0.1404298
365.10 0.1408046
365.20 0.1411289
365.30 0.1414528
365.40 0.1418264
365.50 0.1421495
365.60 0.1424722
365.70 0.1428037
365.80 0.1431348
365.90 0.1434493
366.00 0.1437594
366.10 0.1440979
366.20 0.1444361
366.30 0.1447738
366.40 0.1451112
366.50 0.1454554
366.60 0.1457786
366.70 0.1461138
366.80 0.1464486
366.90 0.1467819
367.00 0.1471129
367.10 0.1474436
367.20 0.1477739
367.30 0.1481038
367.40 0.1484333
367.50 0.1487868
367.60 0.149146
367.70 0.1494817
367.80 0.1498169
367.90 0.1501518
368.00 0.1505019
368.10 0.1508115
368.20 0.1511559
368.30 0.1515006
368.40 0.1518448
368.50 0.1521886
368.60 0.1525321
368.70 0.1528751
368.80 0.1532178
368.90 0.1535966
369.00 0.1539662
369.10 0.1543169
369.20 0.1546304
369.30 0.1549719
369.40 0.155313
369.50 0.1556536
369.60 0.1560081
369.70 0.1563621
369.80 0.1567271
369.90 0.1570917
370.00 0.157456
370.10 0.157784
370.20 0.1581371
370.30 0.1584909
370.40 0.1588925
370.50 0.1591967
370.60 0.159598
370.70 0.1599063
370.80 0.1602559
370.90 0.1606051
371.00 0.1609582
371.10 0.161311
371.20 0.1617073
371.30 0.1621031
371.40 0.1624678
371.50 0.1628137
371.60 0.1631592
371.70 0.1635044
371.80 0.1638491
371.90 0.1641934
372.00 0.164593
372.10 0.1649878
372.20 0.16535
372.30 0.1657117
372.40 0.1660731
372.50 0.166434
372.60 0.1667945
372.70 0.1671546
372.80 0.1674961
372.90 0.1678372
373.00 0.1682301
373.10 0.168623
373.20 0.168965
373.30 0.1693067
373.40 0.1696959
373.50 0.1700847
373.60 0.170473
373.70 0.170861
373.80 0.1711826
373.90 0.1715397
374.00 0.1719264
374.10 0.1723126
374.20 0.1726984
374.30 0.1730837
374.40 0.1734686
374.50 0.1738484
374.60 0.1742099
374.70 0.1745708
374.80 0.1749313
374.90 0.1752914
375.00 0.1756737
375.10 0.1760557
375.20 0.1764371
375.30 0.1768182
375.40 0.1771988
375.50 0.177579
375.60 0.1779588
375.70 0.1783381
375.80 0.178717
375.90 0.1790955
376.00 0.1794688
376.10 0.1798678
376.20 0.1802666
376.30 0.180665
376.40 0.1810629
376.50 0.1814582
376.60 0.1818499
376.70 0.1822412
376.80 0.1826299
376.90 0.1830162
377.00 0.1834019
377.10 0.1837873
377.20 0.1841694
377.30 0.1845403
377.40 0.1849109
377.50 0.185281
377.60 0.185693
377.70 0.1861045
377.80 0.1865155
377.90 0.1869261
378.00 0.1873154
378.10 0.1877143
378.20 0.1881132
378.30 0.1885116
378.40 0.1889096
378.50 0.1893071
378.60 0.1897042
378.70 0.1901008
378.80 0.190497
378.90 0.1908882
379.00 0.1912706
379.10 0.1916539
379.20 0.1920368
379.30 0.1924325
379.40 0.1928409
379.50 0.1932488
379.60 0.1936711
379.70 0.1941072
379.80 0.1945129
379.90 0.1949181
380.00 0.1953229
380.10 0.1957272
380.20 0.1961311
380.30 0.1965345
380.40 0.1969375
380.50 0.19734
380.60 0.1977201
380.70 0.1981199
380.80 0.1985192
380.90 0.1989181
381.00 0.1993166
381.10 0.1997303
381.20 0.200141
381.30 0.2005621
381.40 0.2010123
381.50 0.2014256
381.60 0.2018474
381.70 0.2022637
381.80 0.2026134
381.90 0.2030578
382.00 0.2035018
382.10 0.2038994
382.20 0.2043149
382.30 0.2047117
382.40 0.205119
382.50 0.2055425
382.60 0.2059655
382.70 0.2064045
382.80 0.2068452
382.90 0.2072691
383.00 0.2076925
383.10 0.2081155
383.20 0.2085322
383.30 0.2089266
383.40 0.2093276
383.50 0.2097384
383.60 0.2102221
383.70 0.2106395
383.80 0.2110565
383.90 0.2114729
384.00 0.2118889
384.10 0.2123044
384.20 0.2127195
384.30 0.2131341
384.40 0.2135602
384.50 0.2139977
384.60 0.2144348
384.70 0.2148714
384.80 0.2153028
384.90 0.2157222
385.00 0.2161527
385.10 0.2165849
385.20 0.2170568
385.30 0.2174475
385.40 0.2178698
385.50 0.2183235
385.60 0.2187767
385.70 0.2192295
385.80 0.2196733
385.90 0.220085
386.00 0.2205202
386.10 0.2209774
386.20 0.2214172
386.30 0.2218566
386.40 0.2222396
386.50 0.2227153
386.60 0.2231097
386.70 0.223576
386.80 0.2240195
386.90 0.2244401
387.00 0.2249094
387.10 0.2253313
387.20 0.2257994
387.30 0.2262562
387.40 0.2266964
387.50 0.2271075
387.60 0.2275376
387.70 0.2279989
387.80 0.2284597
387.90 0.2289201
388.00 0.2293671
388.10 0.229803
388.20 0.2302064
388.30 0.2306796
388.40 0.2311522
388.50 0.231608
388.60 0.2320445
388.70 0.2324825
388.80 0.2329307
388.90 0.2333916
389.00 0.2338366
389.10 0.2342816
389.20 0.2347419
389.30 0.2351768
389.40 0.2356444
389.50 0.2361134
389.60 0.2365681
389.70 0.2369843
389.80 0.2374469
389.90 0.237909
390.00 0.2383706
390.10 0.2388317
390.20 0.2392922
390.30 0.2397526
390.40 0.2402128
390.50 0.2406725
390.60 0.2411317
390.70 0.2415904
390.80 0.2420547
390.90 0.2425246
391.00 0.2429841
391.10 0.2434544
391.20 0.2439236
391.30 0.2443926
391.40 0.2448647
391.50 0.2453362
391.60 0.2458073
391.70 0.2462778
391.80 0.2467478
391.90 0.2472054
392.00 0.2476624
392.10 0.248139
392.20 0.2486139
392.30 0.2490778
392.40 0.2495429
392.50 0.249964
392.60 0.2504879
392.70 0.2509244
392.80 0.2513886
392.90 0.2518736
393.00 0.2523446
393.10 0.2528285
393.20 0.2533253
393.30 0.2538021
393.40 0.2542671
393.50 0.2547205
393.60 0.2551803
393.70 0.2556648
393.80 0.2561783
393.90 0.256652
394.00 0.2571209
394.10 0.2575729
394.20 0.2580542
394.30 0.2585286
394.40 0.2590154
394.50 0.2595153
394.60 0.2600079
394.70 0.2604932
394.80 0.260952
394.90 0.2614118
395.00 0.2619229
395.10 0.2623973
395.20 0.2628804
395.30 0.2633891
395.40 0.2638971
395.50 0.2643684
395.60 0.2648257
395.70 0.2652971
395.80 0.2658078
395.90 0.266318
396.00 0.2668258
396.10 0.2673079
396.20 0.2677697
396.30 0.2682426
396.40 0.268746
396.50 0.2692489
396.60 0.2697512
396.70 0.2702299
396.80 0.2707152
396.90 0.2711934
397.00 0.2717106
397.10 0.2722103
397.20 0.2726724
397.30 0.2731689
397.40 0.2736709
397.50 0.2741725
397.60 0.2746727
397.70 0.2751647
397.80 0.2756561
397.90 0.2761564
398.00 0.2766814
398.10 0.2772059
398.20 0.2777108
398.30 0.2781937
398.40 0.2786768
398.50 0.2791852
398.60 0.2796829
398.70 0.2801916
398.80 0.2807037
398.90 0.281205
399.00 0.2816867
399.10 0.2821926
399.20 0.2827061
399.30 0.2832191
399.40 0.2837315
399.50 0.2842433
399.60 0.2847462
399.70 0.2852453
399.80 0.2857439
399.90 0.286242
400.00 0.2867416
400.10 0.2873056
400.20 0.2878132
400.30 0.2883222
400.40 0.2888381
400.50 0.2893422
400.60 0.2898515
400.70 0.2903736
400.80 0.2908648
400.90 0.2914275
401.00 0.2918868
401.10 0.2924117
401.20 0.2929473
401.30 0.2934856
401.40 0.2939996
401.50 0.2944988
401.60 0.2949992
401.70 0.2955541
401.80 0.2960519
401.90 0.2965491
402.00 0.2970623
402.10 0.2976386
402.20 0.2980913
402.30 0.298643
402.40 0.2991863
402.50 0.2996907
402.60 0.3002244
402.70 0.3007134
402.80 0.3012652
402.90 0.3017999
403.00 0.3023506
403.10 0.3028348
403.20 0.303364
403.30 0.3039098
403.40 0.3043989
403.50 0.3049485
403.60 0.3055143
403.70 0.306041
403.80 0.3065656
403.90 0.3070663
404.00 0.3075789
404.10 0.3081398
404.20 0.3086836
404.30 0.3092268
404.40 0.3097435
404.50 0.3102707
404.60 0.3107713
404.70 0.3113123
404.80 0.3118332
404.90 0.3123925
405.00 0.3129138
405.10 0.3134588
405.20 0.3140027
405.30 0.3145461
405.40 0.3150831
405.50 0.3156195
405.60 0.3161553
405.70 0.3166906
405.80 0.3172253
405.90 0.3177594
406.00 0.3183053
406.10 0.3188507
406.20 0.3193954
406.30 0.3199396
406.40 0.3204865
406.50 0.3210554
406.60 0.3215636
406.70 0.3221083
406.80 0.3226765
406.90 0.323172
407.00 0.3237242
407.10 0.3242758
407.20 0.3248267
407.30 0.3253771
407.40 0.325927
407.50 0.3264762
407.60 0.3270249
407.70 0.327573
407.80 0.3281205
407.90 0.3286673
408.00 0.3292091
408.10 0.3297705
408.20 0.3303347
408.30 0.3308789
408.40 0.3314225
408.50 0.3320121
408.60 0.3325707
408.70 0.3331288
408.80 0.333688
408.90 0.3342575
409.00 0.3348157
409.10 0.3353734
409.20 0.3359305
409.30 0.336487
409.40 0.3370425
409.50 0.3375829
409.60 0.3381227
409.70 0.3386681
409.80 0.3392373
409.90 0.3398047
410.00 0.3403346
410.10 0.340898
410.20 0.3414742
410.30 0.342053
410.40 0.3426281
410.50 0.3431926
410.60 0.3437566
410.70 0.3443216
410.80 0.3448924
410.90 0.3454626
411.00 0.346018
411.10 0.3465675
411.20 0.3471164
411.30 0.3476701
411.40 0.3482448
411.50 0.3488296
411.60 0.3494137
411.70 0.3499966
411.80 0.3505764
411.90 0.351124
412.00 0.3517025
412.10 0.3522608
412.20 0.3528578
412.30 0.3533858
412.40 0.3539547
412.50 0.3545357
412.60 0.3550938
412.70 0.3556791
412.80 0.3562707
412.90 0.356864
413.00 0.3574026
413.10 0.357992
413.20 0.3585808
413.30 0.359169
413.40 0.3597566
413.50 0.3603381
413.60 0.3608996
413.70 0.361468
413.80 0.3620358
413.90 0.362603
414.00 0.363179
414.10 0.363784
414.20 0.3643884
414.30 0.3649844
414.40 0.3655174
414.50 0.3661128
