# Version 2.1 - nm, norm@500 to 1, cut digits, bergeron_He_4250_85.dat_4250
# Wavelength(nm)  Flambda(ergs/cm^s/s/nm)
300.00 0.05582198
300.10 0.05599933
300.20 0.05617787
300.30 0.05635566
300.40 0.05652991
300.50 0.05670392
300.60 0.05687769
300.70 0.05705121
300.80 0.05722449
300.90 0.05739753
301.00 0.05757032
301.10 0.05774287
301.20 0.05791518
301.30 0.05808725
301.40 0.05825908
301.50 0.05843066
301.60 0.05860201
301.70 0.05877312
301.80 0.05894398
301.90 0.05911461
302.00 0.059285
302.10 0.05946502
302.20 0.05964589
302.30 0.05982651
302.40 0.06000688
302.50 0.06018699
302.60 0.06036685
302.70 0.06054647
302.80 0.06072583
302.90 0.06090494
303.00 0.0610838
303.10 0.06126242
303.20 0.06144078
303.30 0.06161971
303.40 0.06180565
303.50 0.06199134
303.60 0.06217677
303.70 0.06236194
303.80 0.06254686
303.90 0.06273152
304.00 0.06291592
304.10 0.06310006
304.20 0.06328395
304.30 0.06346759
304.40 0.06365097
304.50 0.06383409
304.60 0.06402607
304.70 0.06421879
304.80 0.06441124
304.90 0.06460343
305.00 0.06479535
305.10 0.06498701
305.20 0.0651784
305.30 0.06536953
305.40 0.06556039
305.50 0.06575099
305.60 0.06594132
305.70 0.06613139
305.80 0.0663212
305.90 0.06651075
306.00 0.06670003
306.10 0.06688906
306.20 0.06707782
306.30 0.06726632
306.40 0.06746413
306.50 0.06766451
306.60 0.06786463
306.70 0.06806446
306.80 0.06826403
306.90 0.06846331
307.00 0.06866233
307.10 0.06886107
307.20 0.06905954
307.30 0.06925773
307.40 0.06945565
307.50 0.0696533
307.60 0.06985068
307.70 0.07004778
307.80 0.07024462
307.90 0.07044119
308.00 0.07063748
308.10 0.07083351
308.20 0.07102926
308.30 0.07122475
308.40 0.07141997
308.50 0.07161492
308.60 0.0718096
308.70 0.07200402
308.80 0.07220034
308.90 0.07240257
309.00 0.07260729
309.10 0.07281173
309.20 0.07301589
309.30 0.07321977
309.40 0.0734245
309.50 0.07363584
309.60 0.07384691
309.70 0.07405768
309.80 0.07426816
309.90 0.07447836
310.00 0.07468828
310.10 0.0748979
310.20 0.07510724
310.30 0.0753163
310.40 0.07552402
310.50 0.07573034
310.60 0.07593637
310.70 0.07614213
310.80 0.0763476
310.90 0.07655279
311.00 0.07676837
311.10 0.07698365
311.20 0.07719864
311.30 0.07741376
311.40 0.0776298
311.50 0.07784555
311.60 0.07806101
311.70 0.07827618
311.80 0.07849105
311.90 0.07870563
312.00 0.07891992
312.10 0.07913392
312.20 0.07934082
312.30 0.0795543
312.40 0.07977601
312.50 0.07999391
312.60 0.08021447
312.70 0.08043474
312.80 0.0806547
312.90 0.08087634
313.00 0.0810998
313.10 0.08132295
313.20 0.08154581
313.30 0.08176796
313.40 0.08198864
313.50 0.08220902
313.60 0.08242911
313.70 0.0826489
313.80 0.08286839
313.90 0.08308759
314.00 0.08330649
314.10 0.08353177
314.20 0.08375674
314.30 0.08398141
314.40 0.08420578
314.50 0.08442985
314.60 0.08465361
314.70 0.08487707
314.80 0.08510874
314.90 0.08535275
315.00 0.08558393
315.10 0.085811
315.20 0.08603776
315.30 0.08626422
315.40 0.08649037
315.50 0.08671622
315.60 0.08694177
315.70 0.08717201
315.80 0.08740195
315.90 0.08763158
316.00 0.0878609
316.10 0.0881049
316.20 0.08834856
316.30 0.08856198
316.40 0.08880502
316.50 0.08904773
316.60 0.08926025
316.70 0.08950233
316.80 0.08974409
316.90 0.08997807
317.00 0.09021174
317.10 0.0904451
317.20 0.09067814
317.30 0.09091147
317.40 0.09114699
317.50 0.09138931
317.60 0.09163131
317.70 0.09187299
317.80 0.09211434
317.90 0.09234869
318.00 0.0925806
318.10 0.09282562
318.20 0.09307031
318.30 0.09331467
318.40 0.09355679
318.50 0.09379313
318.60 0.09402915
318.70 0.09429433
318.80 0.09454148
318.90 0.09476477
319.00 0.09502893
319.10 0.09526335
319.20 0.0955019
319.30 0.09575277
319.40 0.09600332
319.50 0.09625353
319.60 0.0964938
319.70 0.09674335
319.80 0.09699258
319.90 0.09724147
320.00 0.09748888
320.10 0.09773472
320.20 0.09797001
320.30 0.09823301
320.40 0.09846912
320.50 0.0987224
320.60 0.09898816
320.70 0.09923203
320.80 0.09948256
320.90 0.09974032
321.00 0.09999773
321.10 0.1002548
321.20 0.1004986
321.30 0.1007521
321.40 0.1010053
321.50 0.1012581
321.60 0.1015106
321.70 0.1017627
321.80 0.1020227
321.90 0.1022911
322.00 0.10254
322.10 0.1027993
322.20 0.1030583
322.30 0.1033169
322.40 0.1035752
322.50 0.1038331
322.60 0.1040907
322.70 0.104348
322.80 0.1046223
322.90 0.1048864
323.00 0.1051502
323.10 0.1054136
323.20 0.1056767
323.30 0.1059394
323.40 0.1062018
323.50 0.1064638
323.60 0.1067255
323.70 0.1069869
323.80 0.1072479
323.90 0.1075086
324.00 0.10777
324.10 0.1080312
324.20 0.108292
324.30 0.1085527
324.40 0.1088188
324.50 0.1090896
324.60 0.1093601
324.70 0.1096303
324.80 0.1099001
324.90 0.1101695
325.00 0.1104386
325.10 0.1107074
325.20 0.1109785
325.30 0.1112553
325.40 0.1115317
325.50 0.1118063
325.60 0.1120791
325.70 0.1123514
325.80 0.1126234
325.90 0.112895
326.00 0.1131661
326.10 0.1134369
326.20 0.1137073
326.30 0.1139819
326.40 0.1142689
326.50 0.1145489
326.60 0.1148286
326.70 0.1151079
326.80 0.1153868
326.90 0.1156654
327.00 0.1159436
327.10 0.1162215
327.20 0.116499
327.30 0.1167761
327.40 0.1170529
327.50 0.1173293
327.60 0.1176054
327.70 0.1178811
327.80 0.1181564
327.90 0.1184335
328.00 0.1187164
328.10 0.1190036
328.20 0.1192904
328.30 0.1195769
328.40 0.119863
328.50 0.1201493
328.60 0.1204354
328.70 0.1207211
328.80 0.1210076
328.90 0.1212972
329.00 0.1215865
329.10 0.1218753
329.20 0.1221638
329.30 0.1224519
329.40 0.1227396
329.50 0.123027
329.60 0.123314
329.70 0.1236006
329.80 0.1238868
329.90 0.1241727
330.00 0.124461
330.10 0.1247523
330.20 0.1250433
330.30 0.1253339
330.40 0.1256274
330.50 0.125924
330.60 0.1262203
330.70 0.1265162
330.80 0.1268117
330.90 0.1271069
331.00 0.1274016
331.10 0.127696
331.20 0.12799
331.30 0.1282836
331.40 0.1285769
331.50 0.1288704
331.60 0.1291644
331.70 0.129458
331.80 0.1297619
331.90 0.1300659
332.00 0.1303695
332.10 0.1306727
332.20 0.1309755
332.30 0.1312779
332.40 0.1315799
332.50 0.1318816
332.60 0.1321828
332.70 0.1324837
332.80 0.1327842
332.90 0.1330843
333.00 0.133384
333.10 0.1336874
333.20 0.1339954
333.30 0.134303
333.40 0.1346103
333.50 0.1349171
333.60 0.1352235
333.70 0.1355296
333.80 0.1358352
333.90 0.1361405
334.00 0.1364454
334.10 0.1367531
334.20 0.1370643
334.30 0.1373752
334.40 0.1376856
334.50 0.1379957
334.60 0.1383054
334.70 0.1386117
334.80 0.1389191
334.90 0.1392335
335.00 0.1395474
335.10 0.1398606
335.20 0.1401768
335.30 0.1404926
335.40 0.140808
335.50 0.1411229
335.60 0.1414375
335.70 0.1417517
335.80 0.1420654
335.90 0.1423818
336.00 0.1427014
336.10 0.1430206
336.20 0.1433394
336.30 0.1436588
336.40 0.1439789
336.50 0.1442987
336.60 0.1446181
336.70 0.1449371
336.80 0.1452556
336.90 0.145574
337.00 0.1458921
337.10 0.1462098
337.20 0.1465271
337.30 0.1468467
337.40 0.14717
337.50 0.1474929
337.60 0.1478153
337.70 0.1481373
337.80 0.148459
337.90 0.1487836
338.00 0.149112
338.10 0.1494399
338.20 0.1497674
338.30 0.1500945
338.40 0.1504228
338.50 0.1507546
338.60 0.1510861
338.70 0.151417
338.80 0.1517476
338.90 0.1520778
339.00 0.1524075
339.10 0.1527368
339.20 0.1530657
339.30 0.1533912
339.40 0.1537118
339.50 0.1540399
339.60 0.1543771
339.70 0.1547139
339.80 0.1550503
339.90 0.1553862
340.00 0.1557218
340.10 0.1560569
340.20 0.1563916
340.30 0.1567259
340.40 0.1570597
340.50 0.1573932
340.60 0.1577262
340.70 0.1580588
340.80 0.1583947
340.90 0.1587354
341.00 0.1590762
341.10 0.1594171
341.20 0.1597575
341.30 0.1600976
341.40 0.1604372
341.50 0.1607764
341.60 0.1611151
341.70 0.1614534
341.80 0.1617948
341.90 0.16214
342.00 0.1624848
342.10 0.1628291
342.20 0.1631747
342.30 0.163507
342.40 0.1638434
342.50 0.164193
342.60 0.1645422
342.70 0.1648909
342.80 0.1652392
342.90 0.1655871
343.00 0.1659331
343.10 0.166277
343.20 0.1666204
343.30 0.1669634
343.40 0.1673096
343.50 0.1676603
343.60 0.1680107
343.70 0.1683606
343.80 0.1687101
343.90 0.1690591
344.00 0.1694112
344.10 0.1697678
344.20 0.1701239
344.30 0.1704796
344.40 0.1708349
344.50 0.1711897
344.60 0.171539
344.70 0.1718803
344.80 0.1722464
344.90 0.1725869
345.00 0.1729573
345.10 0.1733095
345.20 0.1736637
345.30 0.1740212
345.40 0.1743781
345.50 0.174735
345.60 0.1750924
345.70 0.1754503
345.80 0.1758078
345.90 0.1761648
346.00 0.1765214
346.10 0.1768775
346.20 0.177237
346.30 0.1776014
346.40 0.1779653
346.50 0.1783289
346.60 0.1786919
346.70 0.1790545
346.80 0.1794167
346.90 0.1797784
347.00 0.1801397
347.10 0.1805005
347.20 0.1808658
347.30 0.1812377
347.40 0.1816091
347.50 0.18198
347.60 0.1823505
347.70 0.1827205
347.80 0.1830901
347.90 0.1834593
348.00 0.1838279
348.10 0.1841961
348.20 0.1845639
348.30 0.1849312
348.40 0.1852981
348.50 0.1856645
348.60 0.1860304
348.70 0.1863974
348.80 0.1867685
348.90 0.1871451
349.00 0.1875212
349.10 0.1878968
349.20 0.1882719
349.30 0.1886467
349.40 0.1890209
349.50 0.1893947
349.60 0.189768
349.70 0.1901409
349.80 0.1905133
349.90 0.1908853
350.00 0.1912567
350.10 0.1916278
350.20 0.1919984
350.30 0.1923737
350.40 0.1927559
350.50 0.1931376
350.60 0.1935189
350.70 0.1938997
350.80 0.1942801
350.90 0.19466
351.00 0.1950394
351.10 0.1954183
351.20 0.1957968
351.30 0.1961749
351.40 0.1965553
351.50 0.1969404
351.60 0.197325
351.70 0.1977091
351.80 0.1980927
351.90 0.1984759
352.00 0.1988586
352.10 0.1992409
352.20 0.1996291
352.30 0.2000188
352.40 0.2004098
352.50 0.2008003
352.60 0.2011904
352.70 0.2015799
352.80 0.201969
352.90 0.2023576
353.00 0.2027458
353.10 0.2031335
353.20 0.2035207
353.30 0.2039074
353.40 0.2042937
353.50 0.2046841
353.60 0.2050752
353.70 0.2054658
353.80 0.2058559
353.90 0.206248
354.00 0.2066439
354.10 0.2070393
354.20 0.2074343
354.30 0.2078288
354.40 0.2082228
354.50 0.2086163
354.60 0.2090093
354.70 0.2094019
354.80 0.2097971
354.90 0.2101962
355.00 0.2105948
355.10 0.210993
355.20 0.2113907
355.30 0.2117888
355.40 0.2121865
355.50 0.2125837
355.60 0.2129805
355.70 0.213385
355.80 0.2137928
355.90 0.2141925
356.00 0.2145947
356.10 0.2150006
356.20 0.215406
356.30 0.2158109
356.40 0.2162153
356.50 0.2166192
356.60 0.2170226
356.70 0.2174256
356.80 0.217828
356.90 0.21823
357.00 0.2186315
357.10 0.2190325
357.20 0.219433
357.30 0.2198331
357.40 0.2202378
357.50 0.2206514
357.60 0.2210644
357.70 0.2214769
357.80 0.2218846
357.90 0.2222917
358.00 0.2227032
358.10 0.2231154
358.20 0.2235272
358.30 0.2239384
358.40 0.2243492
358.50 0.2247595
358.60 0.2251692
358.70 0.2255785
358.80 0.2259873
358.90 0.2263956
359.00 0.2268062
359.10 0.2272212
359.20 0.2276352
359.30 0.2280459
359.40 0.2284561
359.50 0.2288731
359.60 0.2292915
359.70 0.2297093
359.80 0.2301247
359.90 0.2305395
360.00 0.2309584
360.10 0.2313847
360.20 0.2318104
360.30 0.2322357
360.40 0.2326604
360.50 0.2330847
360.60 0.2333983
360.70 0.2338441
360.80 0.2342893
360.90 0.2347341
361.00 0.2351192
361.10 0.2355811
361.20 0.236088
361.30 0.2365077
361.40 0.2369497
361.50 0.2371623
361.60 0.2376034
361.70 0.2380441
361.80 0.2385035
361.90 0.2389966
362.00 0.2394892
362.10 0.2398623
362.20 0.2402322
362.30 0.2406497
362.40 0.2410667
362.50 0.2414832
362.60 0.2418992
362.70 0.2423813
362.80 0.2428794
362.90 0.243311
363.00 0.243742
363.10 0.2441266
363.20 0.2445103
363.30 0.2449328
363.40 0.2453647
363.50 0.2457961
363.60 0.2462269
363.70 0.2467075
363.80 0.2472002
363.90 0.2476025
364.00 0.2480044
364.10 0.2484058
364.20 0.2488067
364.30 0.2492788
364.40 0.2497681
364.50 0.2500877
364.60 0.250549
364.70 0.2510098
364.80 0.25147
364.90 0.2518942
365.00 0.2523179
365.10 0.2527411
365.20 0.2531638
365.30 0.253586
365.40 0.2540077
365.50 0.2544289
365.60 0.2548496
365.70 0.2553206
365.80 0.2557911
365.90 0.2562701
366.00 0.2567508
366.10 0.2571593
366.20 0.2575673
366.30 0.2579748
366.40 0.2583819
366.50 0.2589407
366.60 0.259252
366.70 0.2597008
366.80 0.2601492
366.90 0.2606007
367.00 0.2610582
367.10 0.2615153
367.20 0.2619718
367.30 0.2624277
367.40 0.2628832
367.50 0.2633522
367.60 0.2638243
367.70 0.2642634
367.80 0.264702
367.90 0.2651401
368.00 0.2655719
368.10 0.2659745
368.20 0.2664371
368.30 0.2668998
368.40 0.2673619
368.50 0.2678235
368.60 0.2682846
368.70 0.2687451
368.80 0.2692051
368.90 0.2695881
369.00 0.2700063
369.10 0.270467
369.20 0.2709853
369.30 0.2714239
369.40 0.2718619
369.50 0.2722994
369.60 0.2728062
369.70 0.2733124
369.80 0.2737568
369.90 0.2742001
370.00 0.2746428
370.10 0.275125
370.20 0.2755243
370.30 0.2759212
370.40 0.2765359
370.50 0.2769318
370.60 0.2773272
370.70 0.2777276
370.80 0.2782277
370.90 0.2787272
371.00 0.2792326
371.10 0.2797375
371.20 0.2801272
371.30 0.2805164
371.40 0.281023
371.50 0.2814776
371.60 0.2819316
371.70 0.2823851
371.80 0.2828381
371.90 0.2832905
372.00 0.2838241
372.10 0.2842892
372.20 0.2847487
372.30 0.2852076
372.40 0.285666
372.50 0.2861239
372.60 0.2865812
372.70 0.287038
372.80 0.287527
372.90 0.2880154
373.00 0.2885096
373.10 0.2890033
373.20 0.2893857
373.30 0.2897677
373.40 0.2903639
373.50 0.2907449
373.60 0.2913399
373.70 0.2917198
373.80 0.2921797
373.90 0.2926925
374.00 0.293178
374.10 0.2936629
374.20 0.2941473
374.30 0.2946311
374.40 0.2950076
374.50 0.2955867
374.60 0.2960215
374.70 0.2964513
374.80 0.2968806
374.90 0.2973093
375.00 0.2977894
375.10 0.2982688
375.20 0.2987478
375.30 0.2992261
375.40 0.299704
375.50 0.3001812
375.60 0.300658
375.70 0.3011341
375.80 0.3016097
375.90 0.3020848
376.00 0.302553
376.10 0.3030375
376.20 0.3035215
376.30 0.3040049
376.40 0.3044879
376.50 0.3049747
376.60 0.3054678
376.70 0.3059603
376.80 0.3064445
376.90 0.3069204
377.00 0.3073958
377.10 0.3078707
377.20 0.3083487
377.30 0.3088404
377.40 0.3093314
377.50 0.3098219
377.60 0.3102968
377.70 0.3107711
377.80 0.3112449
377.90 0.3117181
378.00 0.3121401
378.10 0.3126279
378.20 0.3131166
378.30 0.3136047
378.40 0.3140922
378.50 0.3145792
378.60 0.3150657
378.70 0.3155515
378.80 0.3160369
378.90 0.3165639
379.00 0.3171686
379.10 0.3175845
379.20 0.3179999
379.30 0.3184591
379.40 0.3189621
379.50 0.3194645
379.60 0.3199775
379.70 0.3204982
379.80 0.3209859
379.90 0.3214729
380.00 0.3219594
380.10 0.3224454
380.20 0.3229308
380.30 0.3234156
380.40 0.3238999
380.50 0.3243836
380.60 0.324896
380.70 0.3253825
380.80 0.3258684
380.90 0.3263538
381.00 0.3268386
381.10 0.3273111
381.20 0.3278003
381.30 0.3282932
381.40 0.3288443
381.50 0.3293047
381.60 0.3297881
381.70 0.3303206
381.80 0.3308093
381.90 0.3313544
382.00 0.3318989
382.10 0.3323403
382.20 0.3328221
382.30 0.3332624
382.40 0.3337361
382.50 0.3342599
382.60 0.3347831
382.70 0.3352749
382.80 0.3357489
382.90 0.3362399
383.00 0.3367302
383.10 0.3372201
383.20 0.3377115
383.30 0.3382107
383.40 0.3387302
383.50 0.3392805
383.60 0.3397766
383.70 0.340296
383.80 0.3408148
383.90 0.341333
384.00 0.3418506
384.10 0.3423677
384.20 0.3428841
384.30 0.3434
384.40 0.3438989
384.50 0.3443807
384.60 0.3448621
384.70 0.3453429
384.80 0.3458327
384.90 0.3463539
385.00 0.3468674
385.10 0.3473811
385.20 0.3479265
385.30 0.3484624
385.40 0.3489684
385.50 0.3494447
385.60 0.3499205
385.70 0.3503957
385.80 0.3508807
385.90 0.3514042
386.00 0.3519308
386.10 0.3524593
386.20 0.3529741
386.30 0.3534884
386.40 0.3540012
386.50 0.3545199
386.60 0.3549904
386.70 0.3554573
386.80 0.3560238
386.90 0.3564897
387.00 0.35706
387.10 0.3575747
387.20 0.3580737
387.30 0.3586024
387.40 0.3591657
387.50 0.3596892
387.60 0.3601814
387.70 0.3606926
387.80 0.3612032
387.90 0.3617133
388.00 0.3622223
388.10 0.3627456
388.20 0.3632422
388.30 0.3637484
388.40 0.3642541
388.50 0.3647603
388.60 0.3652908
388.70 0.3658867
388.80 0.3662811
388.90 0.3668968
389.00 0.3673463
389.10 0.3677896
389.20 0.3683789
389.30 0.368996
389.40 0.3695152
389.50 0.3700157
389.60 0.3704939
389.70 0.3709971
389.80 0.3715103
389.90 0.372023
390.00 0.3725351
390.10 0.3730466
390.20 0.3735576
390.30 0.3740726
390.40 0.3745923
390.50 0.3751114
390.60 0.3756299
390.70 0.3761479
390.80 0.3766979
390.90 0.3772799
391.00 0.3776971
391.10 0.378264
391.20 0.3788372
391.30 0.3794005
391.40 0.3799231
391.50 0.3804452
391.60 0.3809666
391.70 0.3814875
391.80 0.3820077
391.90 0.382534
392.00 0.3830456
392.10 0.3835245
392.20 0.3840016
392.30 0.3845325
392.40 0.385127
392.50 0.3857212
392.60 0.3862044
392.70 0.3866871
392.80 0.3871693
392.90 0.3876757
393.00 0.3882001
393.10 0.3887807
393.20 0.38941
393.30 0.3898893
393.40 0.3904038
393.50 0.391002
393.60 0.3914249
393.70 0.3919768
393.80 0.3924794
393.90 0.3930518
394.00 0.3936102
394.10 0.3941078
394.20 0.3946901
394.30 0.3952157
394.40 0.3957064
394.50 0.3962116
394.60 0.3967626
394.70 0.3973033
394.80 0.3978068
394.90 0.3983131
395.00 0.39891
395.10 0.3994395
395.20 0.4000083
395.30 0.4005547
395.40 0.4011005
395.50 0.4016108
395.60 0.4021075
395.70 0.4026259
395.80 0.4032036
395.90 0.4037806
396.00 0.4043497
396.10 0.4048611
396.20 0.4054195
396.30 0.4059001
396.40 0.4063954
396.50 0.406983
396.60 0.4075081
396.70 0.4080068
396.80 0.408558
396.90 0.409125
397.00 0.4096596
397.10 0.4102442
397.20 0.4107448
397.30 0.4113204
397.40 0.4118286
397.50 0.4123363
397.60 0.4128456
397.70 0.4133763
397.80 0.4139063
397.90 0.4144554
398.00 0.415057
398.10 0.415658
398.20 0.4162053
398.30 0.4166923
398.40 0.4171797
398.50 0.4176953
398.60 0.4182729
398.70 0.41884
398.80 0.4193982
398.90 0.4199308
399.00 0.4204168
399.10 0.4210276
399.20 0.4215922
399.30 0.4221561
399.40 0.4227194
399.50 0.4232821
399.60 0.4238325
399.70 0.4243778
399.80 0.4249226
399.90 0.4254668
400.00 0.4260093
400.10 0.4265156
400.20 0.4270767
400.30 0.4276213
400.40 0.4281458
400.50 0.428657
400.60 0.4291742
400.70 0.4297058
400.80 0.4303727
400.90 0.4308728
401.00 0.4313341
401.10 0.4319619
401.20 0.4325815
401.30 0.4330817
401.40 0.433606
401.50 0.4341466
401.60 0.4346852
401.70 0.4351823
401.80 0.4357404
401.90 0.4363613
402.00 0.4369682
402.10 0.4374713
402.20 0.4380181
402.30 0.4385438
402.40 0.4391051
402.50 0.4397433
402.60 0.4402833
402.70 0.4407832
402.80 0.4413024
402.90 0.4418578
403.00 0.4423758
403.10 0.4430406
403.20 0.4435786
403.30 0.4440665
403.40 0.4446149
403.50 0.4451548
403.60 0.4456946
403.70 0.4463163
403.80 0.4468515
403.90 0.4473601
404.00 0.4478818
404.10 0.4485494
404.20 0.4490603
404.30 0.4495707
404.40 0.4501804
404.50 0.4507728
404.60 0.4512814
404.70 0.4517894
404.80 0.4523235
404.90 0.4529865
405.00 0.4535183
405.10 0.4540767
405.20 0.4546339
405.30 0.4551906
405.40 0.4557553
405.50 0.4563193
405.60 0.4568828
405.70 0.4574457
405.80 0.458008
405.90 0.4585696
406.00 0.459111
406.10 0.4596519
406.20 0.4601921
406.30 0.4607318
406.40 0.4612841
406.50 0.4619284
406.60 0.4624238
406.70 0.4629995
406.80 0.4635491
406.90 0.4641163
407.00 0.4646834
407.10 0.4652498
407.20 0.4658156
407.30 0.4663809
407.40 0.4669455
407.50 0.4675095
407.60 0.4680728
407.70 0.4686356
407.80 0.4691978
407.90 0.4697592
408.00 0.470315
408.10 0.4708929
408.20 0.4714504
408.30 0.4719798
408.40 0.4725086
408.50 0.4731999
408.60 0.4737748
408.70 0.4743491
408.80 0.4749021
408.90 0.475337
409.00 0.4759288
409.10 0.4765201
409.20 0.4771107
409.30 0.4777007
409.40 0.4782881
409.50 0.4788114
409.60 0.4793342
409.70 0.4798695
409.80 0.4804567
409.90 0.4810446
410.00 0.4816744
410.10 0.4821811
410.20 0.4827614
410.30 0.4833596
410.40 0.4839396
410.50 0.4844635
410.60 0.4849868
410.70 0.4855301
410.80 0.4861555
410.90 0.4867803
411.00 0.4873622
411.10 0.4879279
411.20 0.488493
411.30 0.4890484
411.40 0.4895681
411.50 0.4901423
411.60 0.4907157
411.70 0.4912853
411.80 0.4918411
411.90 0.4924139
412.00 0.4930566
412.10 0.4935223
412.20 0.4941638
412.30 0.494633
412.40 0.495294
412.50 0.4958829
412.60 0.4963962
412.70 0.4969628
412.80 0.4975422
412.90 0.4981347
413.00 0.4987611
413.10 0.4993201
413.20 0.4998785
413.30 0.5004363
413.40 0.5009935
413.50 0.5015727
413.60 0.5022118
413.70 0.5027561
413.80 0.5032998
413.90 0.5038429
414.00 0.5044064
414.10 0.5050356
414.20 0.5055595
414.30 0.5061176
414.40 0.5067449
414.50 0.5073501
414.60 0.5078234
414.70 0.5084488
414.80 0.5090631
414.90 0.5096437
415.00 0.5102237
415.10 0.510803
415.20 0.5113786
415.30 0.5119433
415.40 0.5125075
415.50 0.513071
415.60 0.5136316
415.70 0.5141916
415.80 0.5147624
415.90 0.5153688
416.00 0.5159745
416.10 0.5165665
416.20 0.5171057
416.30 0.5176443
