# Version 2.1 - nm, norm@500 to 1, cut digits, bergeron_He_4500_70.dat_4500
# Wavelength(nm)  Flambda(ergs/cm^s/s/nm)
300.00 0.04626101
300.10 0.0464028
300.20 0.04654512
300.30 0.04668736
300.40 0.04683011
300.50 0.04697266
300.60 0.04711501
300.70 0.04725716
300.80 0.04739912
300.90 0.04754087
301.00 0.04768242
301.10 0.04782378
301.20 0.04796494
301.30 0.0481059
301.40 0.04824666
301.50 0.04838723
301.60 0.04852759
301.70 0.04866777
301.80 0.04880774
301.90 0.04894752
302.00 0.0490871
302.10 0.0492363
302.20 0.04938638
302.30 0.04953625
302.40 0.04968591
302.50 0.04983536
302.60 0.0499846
302.70 0.05013364
302.80 0.05028246
302.90 0.05043108
303.00 0.0505795
303.10 0.0507277
303.20 0.0508757
303.30 0.05102391
303.40 0.05117559
303.50 0.05132707
303.60 0.05147833
303.70 0.05162938
303.80 0.05178023
303.90 0.05193086
304.00 0.05208129
304.10 0.0522315
304.20 0.05238151
304.30 0.05253131
304.40 0.0526809
304.50 0.05283028
304.60 0.05298752
304.70 0.05314543
304.80 0.05330312
304.90 0.05346059
305.00 0.05361785
305.10 0.05377489
305.20 0.05393171
305.30 0.05408832
305.40 0.0542447
305.50 0.05440087
305.60 0.05455683
305.70 0.05471257
305.80 0.05486809
305.90 0.0550234
306.00 0.0551785
306.10 0.05533338
306.20 0.05548805
306.30 0.0556425
306.40 0.05580558
306.50 0.05597107
306.60 0.05613633
306.70 0.05630136
306.80 0.05646617
306.90 0.05663075
307.00 0.05679511
307.10 0.05695924
307.20 0.05712314
307.30 0.05728682
307.40 0.05745027
307.50 0.0576135
307.60 0.05777651
307.70 0.05793929
307.80 0.05810184
307.90 0.05826418
308.00 0.05842629
308.10 0.05858817
308.20 0.05874984
308.30 0.05891128
308.40 0.0590725
308.50 0.0592335
308.60 0.05939428
308.70 0.05955484
308.80 0.0597161
308.90 0.05987977
309.00 0.0600507
309.10 0.06022139
309.20 0.06039186
309.30 0.06056209
309.40 0.06073227
309.50 0.06090333
309.60 0.06107416
309.70 0.06124476
309.80 0.06141512
309.90 0.06158525
310.00 0.06175515
310.10 0.06192482
310.20 0.06209425
310.30 0.06226346
310.40 0.06243527
310.50 0.06260992
310.60 0.06278433
310.70 0.06295851
310.80 0.06313245
310.90 0.06330615
311.00 0.06348212
311.10 0.06365786
311.20 0.06383336
311.30 0.06400921
311.40 0.06418653
311.50 0.06436361
311.60 0.06454045
311.70 0.06471705
311.80 0.06489342
311.90 0.06506954
312.00 0.06524542
312.10 0.06542106
312.20 0.0655946
312.30 0.0657666
312.40 0.0659399
312.50 0.06613608
312.60 0.06631683
312.70 0.06649733
312.80 0.06667759
312.90 0.0668575
313.00 0.06703706
313.10 0.06721638
313.20 0.06739545
313.30 0.06757577
313.40 0.06776008
313.50 0.06794413
313.60 0.06812793
313.70 0.06831149
313.80 0.0684948
313.90 0.06867786
314.00 0.06886067
314.10 0.06905044
314.20 0.06923995
314.30 0.0694292
314.40 0.0696182
314.50 0.06980694
314.60 0.06999543
314.70 0.07018367
314.80 0.07036573
314.90 0.07054499
315.00 0.07073946
315.10 0.07093049
315.20 0.07112126
315.30 0.07131178
315.40 0.07150204
315.50 0.07169204
315.60 0.07188179
315.70 0.07207355
315.80 0.07226504
315.90 0.07245628
316.00 0.07264727
316.10 0.07283123
316.20 0.07301495
316.30 0.07322543
316.40 0.07342214
316.50 0.07360509
316.60 0.07380128
316.70 0.07399721
316.80 0.07419287
316.90 0.07438828
317.00 0.07458342
317.10 0.0747783
317.20 0.07497292
317.30 0.07517252
317.40 0.07537158
317.50 0.07556957
317.60 0.07576729
317.70 0.07596475
317.80 0.07616195
317.90 0.07636037
318.00 0.07655809
318.10 0.07675704
318.20 0.07695572
318.30 0.07715414
318.40 0.07735402
318.50 0.07755857
318.60 0.07776631
318.70 0.077957
318.80 0.07815808
318.90 0.07836421
319.00 0.07857723
319.10 0.07878015
319.20 0.07898297
319.30 0.07918598
319.40 0.07938873
319.50 0.0795912
319.60 0.07979271
319.70 0.08000164
319.80 0.0802103
319.90 0.08041868
320.00 0.08062313
320.10 0.08082335
320.20 0.08102673
320.30 0.0812425
320.40 0.08146034
320.50 0.08166737
320.60 0.08187308
320.70 0.08207168
320.80 0.08227632
320.90 0.08248752
321.00 0.08269843
321.10 0.08290907
321.20 0.08314062
321.30 0.0833516
321.40 0.08356229
321.50 0.08377271
321.60 0.08398285
321.70 0.08419271
321.80 0.08440355
321.90 0.08461548
322.00 0.0848332
322.10 0.08504947
322.20 0.08526546
322.30 0.08548116
322.40 0.08569658
322.50 0.08591171
322.60 0.08612656
322.70 0.08634113
322.80 0.08655004
322.90 0.08677039
323.00 0.08699046
323.10 0.08721024
323.20 0.08742973
323.30 0.08764894
323.40 0.08786785
323.50 0.08808648
323.60 0.08830482
323.70 0.08852287
323.80 0.08874064
323.90 0.08895812
324.00 0.08918547
324.10 0.08941252
324.20 0.08963927
324.30 0.089861
324.40 0.09007705
324.50 0.09030149
324.60 0.09052564
324.70 0.09074949
324.80 0.09097305
324.90 0.09119632
325.00 0.0914193
325.10 0.09164199
325.20 0.09186637
325.30 0.09209468
325.40 0.09232269
325.50 0.09255253
325.60 0.09278466
325.70 0.0930165
325.80 0.09324803
325.90 0.09347684
326.00 0.09370275
326.10 0.09392836
326.20 0.09415368
326.30 0.09438376
326.40 0.09462796
326.50 0.09486335
326.60 0.09509844
326.70 0.09533322
326.80 0.0955677
326.90 0.09580187
327.00 0.09603574
327.10 0.09626931
327.20 0.09650257
327.30 0.09673553
327.40 0.09696818
327.50 0.09720054
327.60 0.09743259
327.70 0.09766434
327.80 0.09789579
327.90 0.09812791
328.00 0.09836307
328.10 0.09860072
328.20 0.09883807
328.30 0.09907511
328.40 0.09931185
328.50 0.09955354
328.60 0.09979614
328.70 0.1000384
328.80 0.1002809
328.90 0.1005246
329.00 0.100768
329.10 0.101011
329.20 0.1012538
329.30 0.1014962
329.40 0.1017383
329.50 0.1019801
329.60 0.1022216
329.70 0.1024627
329.80 0.1027036
329.90 0.1029441
330.00 0.103186
330.10 0.1034297
330.20 0.103673
330.30 0.103916
330.40 0.1041629
330.50 0.1044139
330.60 0.1046646
330.70 0.104915
330.80 0.1051651
330.90 0.1054148
331.00 0.1056643
331.10 0.1059134
331.20 0.1061622
331.30 0.1064107
331.40 0.1066588
331.50 0.1069084
331.60 0.1071598
331.70 0.1074109
331.80 0.1076658
331.90 0.1079206
332.00 0.108175
332.10 0.1084292
332.20 0.1086829
332.30 0.1089364
332.40 0.1091895
332.50 0.1094424
332.60 0.1096948
332.70 0.109947
332.80 0.1101989
332.90 0.1104504
333.00 0.1107016
333.10 0.1109576
333.20 0.1112197
333.30 0.1114814
333.40 0.1117428
333.50 0.1120039
333.60 0.1122646
333.70 0.112525
333.80 0.112785
333.90 0.1130448
334.00 0.1133042
334.10 0.1135651
334.20 0.1138278
334.30 0.1140903
334.40 0.1143524
334.50 0.1146141
334.60 0.1148756
334.70 0.1151344
334.80 0.115393
334.90 0.1156552
335.00 0.1159171
335.10 0.1161894
335.20 0.1164568
335.30 0.1167107
335.40 0.1169865
335.50 0.1172439
335.60 0.117519
335.70 0.117789
335.80 0.1180544
335.90 0.1183222
336.00 0.1185929
336.10 0.1188633
336.20 0.1191334
336.30 0.119404
336.40 0.1196753
336.50 0.1199463
336.60 0.120217
336.70 0.1204873
336.80 0.1207573
336.90 0.1210298
337.00 0.1213056
337.10 0.121581
337.20 0.121856
337.30 0.1221306
337.40 0.1224048
337.50 0.1226787
337.60 0.1229521
337.70 0.1232253
337.80 0.1234981
337.90 0.123774
338.00 0.1240538
338.10 0.1243333
338.20 0.1246124
338.30 0.1248911
338.40 0.1251699
338.50 0.1254493
338.60 0.1257283
338.70 0.1260069
338.80 0.1262852
338.90 0.1265631
339.00 0.1268407
339.10 0.127118
339.20 0.1273949
339.30 0.1276746
339.40 0.1279585
339.50 0.128244
339.60 0.1285315
339.70 0.1288187
339.80 0.1291055
339.90 0.1293919
340.00 0.129678
340.10 0.1299637
340.20 0.1302491
340.30 0.1305341
340.40 0.1308187
340.50 0.131103
340.60 0.1313869
340.70 0.1316705
340.80 0.1319568
340.90 0.1322473
341.00 0.132538
341.10 0.132829
341.20 0.1331198
341.30 0.1334101
341.40 0.1337001
341.50 0.1339897
341.60 0.134279
341.70 0.1345679
341.80 0.1348602
341.90 0.1351567
342.00 0.1354528
342.10 0.1357486
342.20 0.1360383
342.30 0.1363333
342.40 0.1366326
342.50 0.1369278
342.60 0.1372227
342.70 0.1375171
342.80 0.1378113
342.90 0.138105
343.00 0.1384016
343.10 0.1387017
343.20 0.1390014
343.30 0.1393008
343.40 0.1396005
343.50 0.139901
343.60 0.1402012
343.70 0.1405009
343.80 0.1408003
343.90 0.1410993
344.00 0.1413987
344.10 0.1416989
344.20 0.1419987
344.30 0.1422981
344.40 0.1425995
344.50 0.1429039
344.60 0.1432126
344.70 0.1435276
344.80 0.1438194
344.90 0.1441337
345.00 0.1444429
345.10 0.144745
345.20 0.1450488
345.30 0.1453554
345.40 0.1456616
345.50 0.1459682
345.60 0.1462772
345.70 0.1465883
345.80 0.1468991
345.90 0.1472095
346.00 0.1475195
346.10 0.1478291
346.20 0.1481402
346.30 0.1484536
346.40 0.1487666
346.50 0.1490792
346.60 0.1493914
346.70 0.1497032
346.80 0.1500147
346.90 0.1503257
347.00 0.1506364
347.10 0.1509467
347.20 0.1512608
347.30 0.1515806
347.40 0.1519
347.50 0.1522189
347.60 0.1525375
347.70 0.1528557
347.80 0.1531735
347.90 0.1534909
348.00 0.153808
348.10 0.1541246
348.20 0.1544408
348.30 0.1547567
348.40 0.1550722
348.50 0.1553873
348.60 0.1557019
348.70 0.1560224
348.80 0.1563469
348.90 0.1566747
349.00 0.1570021
349.10 0.1573291
349.20 0.1576557
349.30 0.1579819
349.40 0.1583077
349.50 0.1586331
349.60 0.1589581
349.70 0.1592827
349.80 0.1596069
349.90 0.1599307
350.00 0.1602542
350.10 0.1605772
350.20 0.1608998
350.30 0.1612263
350.40 0.1615587
350.50 0.1618906
350.60 0.1622221
350.70 0.1625532
350.80 0.1628839
350.90 0.1632142
351.00 0.163544
351.10 0.1638735
351.20 0.1642026
351.30 0.1645313
351.40 0.1648619
351.50 0.1651963
351.60 0.1655302
351.70 0.1658637
351.80 0.1661968
351.90 0.1665295
352.00 0.1668618
352.10 0.1671938
352.20 0.1675231
352.30 0.1678573
352.40 0.1681988
352.50 0.1685399
352.60 0.1688806
352.70 0.1692209
352.80 0.1695608
352.90 0.1699003
353.00 0.1702393
353.10 0.1705779
353.20 0.1709162
353.30 0.171254
353.40 0.1715914
353.50 0.1719319
353.60 0.1722728
353.70 0.1726133
353.80 0.1729535
353.90 0.1732954
354.00 0.1736409
354.10 0.173986
354.20 0.1743307
354.30 0.1746749
354.40 0.1750188
354.50 0.1753622
354.60 0.1757052
354.70 0.1760478
354.80 0.1763927
354.90 0.1767409
355.00 0.1770888
355.10 0.1774362
355.20 0.1777832
355.30 0.1781352
355.40 0.1784868
355.50 0.1788379
355.60 0.1791886
355.70 0.1795377
355.80 0.1798858
355.90 0.1802365
356.00 0.1805941
356.10 0.1809517
356.20 0.1813089
356.30 0.1816657
356.40 0.1820221
356.50 0.182378
356.60 0.1827335
356.70 0.1830885
356.80 0.1834432
356.90 0.1837974
357.00 0.1841512
357.10 0.1845045
357.20 0.1848575
357.30 0.18521
357.40 0.1855635
357.50 0.1859192
357.60 0.1862744
357.70 0.1866292
357.80 0.1869855
357.90 0.1873414
358.00 0.1877037
358.10 0.1880673
358.20 0.1884304
358.30 0.1887931
358.40 0.1891553
358.50 0.1895171
358.60 0.1898785
358.70 0.1902394
358.80 0.1906
358.90 0.1909601
359.00 0.1913246
359.10 0.1916974
359.20 0.1920682
359.30 0.1924286
359.40 0.1927885
359.50 0.193157
359.60 0.1935273
359.70 0.1938972
359.80 0.194264
359.90 0.1946303
360.00 0.1949975
360.10 0.1953666
360.20 0.1957353
360.30 0.1961035
360.40 0.1964713
360.50 0.1968387
360.60 0.1972182
360.70 0.1975867
360.80 0.1979547
360.90 0.1983223
361.00 0.198691
361.10 0.1990687
361.20 0.1994373
361.30 0.1998156
361.40 0.2001903
361.50 0.2005666
361.60 0.2009489
361.70 0.2013233
361.80 0.2016968
361.90 0.202069
362.00 0.2024407
362.10 0.2028264
362.20 0.2032105
362.30 0.2035861
362.40 0.2039611
362.50 0.2043358
362.60 0.2047099
362.70 0.2050939
362.80 0.2055467
362.90 0.2058418
363.00 0.2061366
363.10 0.2065832
363.20 0.2070308
363.30 0.2074386
363.40 0.2078361
363.50 0.2082332
363.60 0.2086297
363.70 0.2089577
363.80 0.2093194
363.90 0.2096903
364.00 0.2100608
364.10 0.2104308
364.20 0.2108005
364.30 0.2112343
364.40 0.2116838
364.50 0.2119799
364.60 0.212404
364.70 0.2128276
364.80 0.2132508
364.90 0.2136413
365.00 0.2140315
365.10 0.2144212
365.20 0.2148104
365.30 0.2151991
365.40 0.2155874
365.50 0.2159753
365.60 0.2163627
365.70 0.2167037
365.80 0.2170443
365.90 0.217466
366.00 0.2179077
366.10 0.2182841
366.20 0.2186601
366.30 0.2190357
366.40 0.2194108
366.50 0.2199229
366.60 0.2202116
366.70 0.2206244
366.80 0.2210368
366.90 0.221439
367.00 0.2218237
367.10 0.2222078
367.20 0.2225915
367.30 0.2229748
367.40 0.2233576
367.50 0.2237816
367.60 0.2242155
367.70 0.2246196
367.80 0.2250232
367.90 0.2254264
368.00 0.2258239
368.10 0.2261949
368.20 0.2265944
368.30 0.2269936
368.40 0.2273924
368.50 0.2277907
368.60 0.2281886
368.70 0.228586
368.80 0.2289829
368.90 0.2294473
369.00 0.2299034
369.10 0.2303269
369.20 0.2306042
369.30 0.2310078
369.40 0.231411
369.50 0.2318136
369.60 0.2322788
369.70 0.2327435
369.80 0.2331523
369.90 0.2335601
370.00 0.2339675
370.10 0.2344105
370.20 0.2347785
370.30 0.2351445
370.40 0.2355101
370.50 0.2359712
370.60 0.2364367
370.70 0.2368057
370.80 0.2372648
370.90 0.2377234
371.00 0.2380896
371.10 0.2384544
371.20 0.2389114
371.30 0.239368
371.40 0.2396379
371.50 0.240056
371.60 0.2404735
371.70 0.2408906
371.80 0.2413072
371.90 0.2417233
372.00 0.2422126
372.10 0.2426402
372.20 0.2430626
372.30 0.2434845
372.40 0.243906
372.50 0.2443269
372.60 0.2447474
372.70 0.2451674
372.80 0.2456164
372.90 0.2460649
373.00 0.246422
373.10 0.2467777
373.20 0.2472277
373.30 0.2476771
373.40 0.248126
373.50 0.2485744
373.60 0.2489254
373.70 0.2494696
373.80 0.24985
373.90 0.2501695
374.00 0.2506154
374.10 0.2510608
374.20 0.2515057
374.30 0.2519501
374.40 0.252418
374.50 0.2528326
374.60 0.2532758
374.70 0.2537196
374.80 0.2541629
374.90 0.2546056
375.00 0.2549824
375.10 0.2553587
375.20 0.2557346
375.30 0.256174
375.40 0.2566129
375.50 0.2570513
375.60 0.2574892
375.70 0.2579266
375.80 0.2583635
375.90 0.2587999
376.00 0.2592301
376.10 0.2596749
376.20 0.2601194
376.30 0.2605633
376.40 0.2610068
376.50 0.2614538
376.60 0.2619063
376.70 0.2623584
376.80 0.262803
376.90 0.2632401
377.00 0.2636767
377.10 0.2641129
377.20 0.2645519
377.30 0.2650031
377.40 0.2654539
377.50 0.2659041
377.60 0.2663402
377.70 0.2667758
377.80 0.2672109
377.90 0.2676455
378.00 0.2680339
378.10 0.2684816
378.20 0.2689302
378.30 0.2693782
378.40 0.2698257
378.50 0.2702727
378.60 0.2707192
378.70 0.2711652
378.80 0.2716107
378.90 0.272045
379.00 0.2724589
379.10 0.272917
379.20 0.2733746
379.30 0.273834
379.40 0.2742954
379.50 0.2747563
379.60 0.2752267
379.70 0.2757041
379.80 0.2761516
379.90 0.2765986
380.00 0.2770451
380.10 0.277491
380.20 0.2779365
380.30 0.2783814
380.40 0.2788259
380.50 0.2792698
380.60 0.2797396
380.70 0.2801861
380.80 0.280632
380.90 0.2810774
381.00 0.2815223
381.10 0.2819561
381.20 0.2824049
381.30 0.2828571
381.40 0.2833618
381.50 0.2837847
381.60 0.2842282
381.70 0.2847162
381.80 0.2851645
381.90 0.2856638
382.00 0.2861625
382.10 0.2865681
382.20 0.2870102
382.30 0.2874149
382.40 0.2878496
382.50 0.2883296
382.60 0.2888091
382.70 0.2892602
382.80 0.2897168
382.90 0.2902101
383.00 0.2907028
383.10 0.2911949
383.20 0.2916795
383.30 0.2921372
383.40 0.2925606
383.50 0.2929331
383.60 0.2933881
383.70 0.2938641
383.80 0.2943395
383.90 0.2948144
384.00 0.2952887
384.10 0.2957625
384.20 0.2962358
384.30 0.2967086
384.40 0.2971873
384.50 0.297672
384.60 0.2981561
384.70 0.2986396
384.80 0.2991224
384.90 0.2995999
385.00 0.3000703
385.10 0.300541
385.20 0.3009968
385.30 0.301395
385.40 0.3018339
385.50 0.3023132
385.60 0.302792
385.70 0.3032703
385.80 0.3037485
385.90 0.3042279
386.00 0.3047102
386.10 0.3051941
386.20 0.3056658
386.30 0.3061369
386.40 0.3066066
386.50 0.3070817
386.60 0.3076489
386.70 0.3080772
386.80 0.3085954
386.90 0.3090227
387.00 0.3095037
387.10 0.3100607
387.20 0.3104683
387.30 0.3110019
387.40 0.3113371
387.50 0.3118964
387.60 0.3124474
387.70 0.3129156
387.80 0.3133833
387.90 0.3138504
388.00 0.3143166
388.10 0.3147957
388.20 0.3152507
388.30 0.3157143
388.40 0.3161774
388.50 0.316696
388.60 0.3172548
388.70 0.3176712
388.80 0.3181456
388.90 0.3185963
389.00 0.3191873
389.10 0.319594
389.20 0.3200549
389.30 0.3205498
389.40 0.3211165
389.50 0.3216297
389.60 0.3220679
389.70 0.3225392
389.80 0.3230393
389.90 0.3235388
390.00 0.3240377
390.10 0.3245361
390.20 0.325034
390.30 0.3255213
390.40 0.3259968
390.50 0.3264718
390.60 0.3269463
390.70 0.3274202
390.80 0.327923
390.90 0.3284548
391.00 0.3289914
391.10 0.3294236
391.20 0.3298797
391.30 0.3304084
391.40 0.3309159
391.50 0.3314228
391.60 0.3319292
391.70 0.332435
391.80 0.3329403
391.90 0.3334371
392.00 0.3339052
392.10 0.3343437
392.20 0.3348074
392.30 0.3353819
392.40 0.3358089
392.50 0.3363822
392.60 0.3369123
392.70 0.3374111
392.80 0.3378524
392.90 0.3383157
393.00 0.3387951
393.10 0.3393253
393.20 0.3399074
393.30 0.3404335
393.40 0.3409398
393.50 0.3413549
393.60 0.3419171
393.70 0.3423733
393.80 0.3428809
393.90 0.3434036
394.00 0.3439137
394.10 0.3443688
394.20 0.3449004
394.30 0.3453808
394.40 0.345844
394.50 0.3464654
394.60 0.3469686
394.70 0.3474625
394.80 0.3479228
394.90 0.3483857
395.00 0.3489304
395.10 0.3494142
395.20 0.3499335
395.30 0.3504325
395.40 0.350931
395.50 0.3514487
395.60 0.3519731
395.70 0.352498
395.80 0.3530252
395.90 0.3535518
396.00 0.3540712
396.10 0.3545386
396.20 0.3550483
396.30 0.355604
396.40 0.3561127
396.50 0.3566487
396.60 0.3571282
396.70 0.357584
396.80 0.3580871
396.90 0.3586217
397.00 0.3590927
397.10 0.359626
397.20 0.3602548
397.30 0.3607943
397.40 0.3613124
397.50 0.3618299
397.60 0.362344
397.70 0.3628284
397.80 0.3633122
397.90 0.3638133
398.00 0.3643617
398.10 0.3649096
398.20 0.3654418
398.30 0.3659566
398.40 0.3664695
398.50 0.3669402
398.60 0.3674669
398.70 0.367984
398.80 0.3684931
398.90 0.3690233
399.00 0.3695929
399.10 0.3699833
399.20 0.370537
399.30 0.3710902
399.40 0.3716427
399.50 0.3721947
399.60 0.3727071
399.70 0.3732045
399.80 0.3737014
399.90 0.3741978
400.00 0.3746965
400.10 0.3752884
400.20 0.3758351
400.30 0.3763851
400.40 0.3769301
400.50 0.3774452
400.60 0.377917
400.70 0.3784017
400.80 0.3790087
400.90 0.3794923
401.00 0.3800544
401.10 0.380626
401.20 0.3811902
401.30 0.3816465
401.40 0.3821699
401.50 0.3827248
401.60 0.383276
401.70 0.3837294
401.80 0.3842379
401.90 0.3848031
402.00 0.3853617
402.10 0.3858145
402.20 0.3864799
402.30 0.3869591
402.40 0.3874703
402.50 0.3880511
402.60 0.3885432
402.70 0.3891657
402.80 0.3896388
402.90 0.3902113
403.00 0.3907666
403.10 0.3912214
403.20 0.3917154
403.30 0.3922882
403.40 0.3928221
403.50 0.3933916
403.60 0.3939578
403.70 0.3943713
403.80 0.3950274
403.90 0.3955849
404.00 0.3961288
404.10 0.3965702
404.20 0.3971184
404.30 0.3976661
404.40 0.3981455
404.50 0.3987596
404.60 0.3993055
404.70 0.3998508
404.80 0.400337
404.90 0.4009396
405.00 0.4014238
405.10 0.401979
405.20 0.4025449
405.30 0.4031102
405.40 0.4036514
405.50 0.404192
405.60 0.4047321
405.70 0.4052715
405.80 0.4058104
405.90 0.4063487
406.00 0.4069073
406.10 0.4074654
406.20 0.4080228
406.30 0.4085797
406.40 0.4091296
406.50 0.409609
406.60 0.4101822
406.70 0.4107567
406.80 0.4113204
406.90 0.4118855
407.00 0.4124337
407.10 0.4129813
407.20 0.4135283
407.30 0.4140747
407.40 0.4146205
407.50 0.4151658
407.60 0.4157104
407.70 0.4162545
407.80 0.416798
407.90 0.4173398
408.00 0.417845
408.10 0.4183701
408.20 0.4189614
408.30 0.4195483
408.40 0.4201347
408.50 0.4206286
408.60 0.4212069
408.70 0.4217847
408.80 0.4223574
408.90 0.4228944
409.00 0.423432
409.10 0.4239689
409.20 0.4245052
409.30 0.425041
409.40 0.4255779
409.50 0.4261674
409.60 0.4267563
409.70 0.4273337
409.80 0.4278668
409.90 0.4284005
410.00 0.4289721
410.10 0.4295664
410.20 0.43012
410.30 0.4306629
410.40 0.4312148
410.50 0.4317961
410.60 0.4323769
410.70 0.4329546
410.80 0.4335219
410.90 0.4340886
411.00 0.4346498
411.10 0.4352085
411.20 0.4357667
411.30 0.4363069
411.40 0.4367805
411.50 0.4373579
411.60 0.4379346
411.70 0.4385124
411.80 0.4390964
411.90 0.4396797
412.00 0.4402624
412.10 0.4407252
412.20 0.441267
412.30 0.441852
412.40 0.4424512
412.50 0.443008
412.60 0.4435871
412.70 0.444173
412.80 0.4447601
412.90 0.4453448
413.00 0.4459276
413.10 0.4464973
413.20 0.4470665
413.30 0.447635
413.40 0.4482029
413.50 0.4487452
413.60 0.4492181
413.70 0.4497906
413.80 0.4503624
413.90 0.4509337
414.00 0.4515043
414.10 0.4520744
414.20 0.4526438
414.30 0.4532127
414.40 0.4537809
414.50 0.4543413
414.60 0.4549156
414.70 0.455482
414.80 0.4560572
414.90 0.4566617
415.00 0.4572656
415.10 0.4578688
415.20 0.4584614
415.30 0.4590217
415.40 0.4595815
415.50 0.4601408
415.60 0.4607046
415.70 0.4612678
415.80 0.4618396
415.90 0.4624399
