# Version 2.1 - nm, norm@500 to 1, cut digits, bergeron_He_5000_75.dat_5000
# Wavelength(nm)  Flambda(ergs/cm^s/s/nm)
300.00 0.1226805
300.10 0.1229616
300.20 0.1232414
300.30 0.1235241
300.40 0.123829
300.50 0.1241334
300.60 0.1244374
300.70 0.124741
300.80 0.1250442
300.90 0.1253469
301.00 0.1256492
301.10 0.125951
301.20 0.1262525
301.30 0.1265535
301.40 0.126854
301.50 0.1271542
301.60 0.1274539
301.70 0.1277532
301.80 0.1280521
301.90 0.1283505
302.00 0.1286486
302.10 0.1289572
302.20 0.1292666
302.30 0.1295756
302.40 0.1298841
302.50 0.1301922
302.60 0.1304999
302.70 0.1308072
302.80 0.131114
302.90 0.1314203
303.00 0.1317263
303.10 0.1320318
303.20 0.1323368
303.30 0.1326425
303.40 0.132957
303.50 0.1332711
303.60 0.1335848
303.70 0.133898
303.80 0.1342108
303.90 0.1345231
304.00 0.134835
304.10 0.1351464
304.20 0.1354574
304.30 0.135768
304.40 0.1360782
304.50 0.1363879
304.60 0.1367139
304.70 0.1370414
304.80 0.1373683
304.90 0.1376949
305.00 0.138021
305.10 0.1383466
305.20 0.1386717
305.30 0.1389964
305.40 0.1393207
305.50 0.1396445
305.60 0.1399678
305.70 0.1402907
305.80 0.1406132
305.90 0.1409352
306.00 0.1412567
306.10 0.1415778
306.20 0.1418984
306.30 0.1422186
306.40 0.1425497
306.50 0.1428836
306.60 0.1432171
306.70 0.1435501
306.80 0.1438827
306.90 0.1442148
307.00 0.1445464
307.10 0.1448776
307.20 0.1452083
307.30 0.1455385
307.40 0.1458683
307.50 0.1461976
307.60 0.1465265
307.70 0.1468549
307.80 0.1471829
307.90 0.1475104
308.00 0.1478374
308.10 0.148164
308.20 0.1484901
308.30 0.1488158
308.40 0.149141
308.50 0.1494658
308.60 0.1497901
308.70 0.150114
308.80 0.1504365
308.90 0.1507563
309.00 0.1510911
309.10 0.1514255
309.20 0.1517593
309.30 0.1520927
309.40 0.152426
309.50 0.1527612
309.60 0.1530959
309.70 0.1534301
309.80 0.1537639
309.90 0.1540972
310.00 0.15443
310.10 0.1547624
310.20 0.1550943
310.30 0.1554257
310.40 0.1557595
310.50 0.1560959
310.60 0.1564319
310.70 0.1567673
310.80 0.1571023
310.90 0.1574368
311.00 0.1578071
311.10 0.1581767
311.20 0.1585459
311.30 0.1589081
311.40 0.1592514
311.50 0.1595942
311.60 0.1599365
311.70 0.1602784
311.80 0.1606197
311.90 0.1609606
312.00 0.1613011
312.10 0.161641
312.20 0.1619948
312.30 0.1623597
312.40 0.1627126
312.50 0.1630105
312.60 0.1633754
312.70 0.1637397
312.80 0.1641036
312.90 0.1644519
313.00 0.1647836
313.10 0.1651149
313.20 0.1654456
313.30 0.1657834
313.40 0.1661418
313.50 0.1664998
313.60 0.1668573
313.70 0.1672143
313.80 0.1675708
313.90 0.1679268
314.00 0.1682823
314.10 0.1686481
314.20 0.1690134
314.30 0.1693782
314.40 0.1697425
314.50 0.1701062
314.60 0.1704695
314.70 0.1708323
314.80 0.1711735
314.90 0.1714967
315.00 0.171866
315.10 0.1722285
315.20 0.1725904
315.30 0.1729518
315.40 0.1733128
315.50 0.1736732
315.60 0.1740332
315.70 0.174401
315.80 0.1747684
315.90 0.1751352
316.00 0.1755016
316.10 0.1758423
316.20 0.1761826
316.30 0.1765726
316.40 0.176962
316.50 0.1773509
316.60 0.1776392
316.70 0.1780271
316.80 0.1784145
316.90 0.1787764
317.00 0.1791378
317.10 0.1794987
317.20 0.1798591
317.30 0.1802611
317.40 0.1806502
317.50 0.1810036
317.60 0.1813566
317.70 0.181709
317.80 0.182061
317.90 0.1824689
318.00 0.1828474
318.10 0.1832033
318.20 0.1835588
318.30 0.1839138
318.40 0.1842747
318.50 0.1846535
318.60 0.1850317
318.70 0.1854094
318.80 0.1858557
318.90 0.1861633
319.00 0.1865395
319.10 0.1869152
319.20 0.1872911
319.30 0.1876683
319.40 0.1880451
319.50 0.1884214
319.60 0.1887867
319.70 0.189162
319.80 0.1895367
319.90 0.1899109
320.00 0.1903069
320.10 0.1907265
320.20 0.1911166
320.30 0.1914916
320.40 0.1918216
320.50 0.1922293
320.60 0.1925974
320.70 0.192965
320.80 0.1933437
320.90 0.1937347
321.00 0.1941251
321.10 0.194515
321.20 0.1948878
321.30 0.1952708
321.40 0.1956534
321.50 0.1960354
321.60 0.1964169
321.70 0.1967979
321.80 0.1971884
321.90 0.1975892
322.00 0.1980196
322.10 0.1984018
322.20 0.1987834
322.30 0.1991645
322.40 0.1995452
322.50 0.1999253
322.60 0.2003049
322.70 0.200684
322.80 0.2011471
322.90 0.2015352
323.00 0.2019228
323.10 0.2023098
323.20 0.2026964
323.30 0.2030824
323.40 0.2034679
323.50 0.2038529
323.60 0.2042374
323.70 0.2046214
323.80 0.2050049
323.90 0.2053878
324.00 0.2057976
324.10 0.2062068
324.20 0.2066156
324.30 0.2070117
324.40 0.2073906
324.50 0.2077881
324.60 0.2081852
324.70 0.2085817
324.80 0.2089776
324.90 0.2093731
325.00 0.209768
325.10 0.2101624
325.20 0.2105581
325.30 0.2109571
325.40 0.2113556
325.50 0.2117522
325.60 0.2121465
325.70 0.2125403
325.80 0.2129336
325.90 0.2133329
326.00 0.2137389
326.10 0.2141443
326.20 0.2145492
326.30 0.2149503
326.40 0.2153417
326.50 0.2157542
326.60 0.2161661
326.70 0.2165776
326.80 0.2169884
326.90 0.2173987
327.00 0.2178085
327.10 0.2182178
327.20 0.2186265
327.30 0.2190346
327.40 0.2194422
327.50 0.2198493
327.60 0.2202558
327.70 0.2206618
327.80 0.2210673
327.90 0.221474
328.00 0.2218819
328.10 0.2222889
328.20 0.2226954
328.30 0.2231013
328.40 0.2235067
328.50 0.2239189
328.60 0.2243322
328.70 0.2247449
328.80 0.2251595
328.90 0.2255801
329.00 0.2260001
329.10 0.2264196
329.20 0.2268386
329.30 0.227257
329.40 0.2276748
329.50 0.2280921
329.60 0.2285088
329.70 0.228925
329.80 0.2293407
329.90 0.2297558
330.00 0.2301718
330.10 0.2305889
330.20 0.2310054
330.30 0.2314214
330.40 0.2318382
330.50 0.2322557
330.60 0.2326728
330.70 0.2330892
330.80 0.2335052
330.90 0.2339206
331.00 0.2343354
331.10 0.2347497
331.20 0.2351635
331.30 0.2355767
331.40 0.2359894
331.50 0.2364159
331.60 0.2368596
331.70 0.2373027
331.80 0.2377269
331.90 0.2381499
332.00 0.2385723
332.10 0.2389942
332.20 0.2394155
332.30 0.2398363
332.40 0.2402565
332.50 0.2406762
332.60 0.2410953
332.70 0.2415139
332.80 0.2419319
332.90 0.2423494
333.00 0.2427663
333.10 0.2431901
333.20 0.2436224
333.30 0.2440542
333.40 0.2444854
333.50 0.244916
333.60 0.2453461
333.70 0.2457756
333.80 0.2462046
333.90 0.246633
334.00 0.2470608
334.10 0.2474921
334.20 0.2479278
334.30 0.248363
334.40 0.2487976
334.50 0.2492316
334.60 0.249665
334.70 0.2501072
334.80 0.2505513
334.90 0.2509821
335.00 0.2514122
335.10 0.2518239
335.20 0.252254
335.30 0.2527125
335.40 0.2530969
335.50 0.2535699
335.60 0.2540088
335.70 0.2543961
335.80 0.2548228
335.90 0.255259
336.00 0.2557069
336.10 0.2561542
336.20 0.2566009
336.30 0.2570437
336.40 0.2574818
336.50 0.2579194
336.60 0.2583565
336.70 0.2587929
336.80 0.2592288
336.90 0.2596648
337.00 0.2601011
337.10 0.2605367
337.20 0.2609718
337.30 0.2614135
337.40 0.2618647
337.50 0.2623154
337.60 0.2627655
337.70 0.263215
337.80 0.263664
337.90 0.2641085
338.00 0.2645479
338.10 0.2649866
338.20 0.2654248
338.30 0.2658625
338.40 0.2663017
338.50 0.2667458
338.60 0.2671893
338.70 0.2676323
338.80 0.2680746
338.90 0.2685164
339.00 0.2689577
339.10 0.2693983
339.20 0.2698384
339.30 0.2702877
339.40 0.2707505
339.50 0.2712093
339.60 0.2716632
339.70 0.2721166
339.80 0.2725694
339.90 0.2730217
340.00 0.2734733
340.10 0.2739244
340.20 0.2743749
340.30 0.2748248
340.40 0.2752742
340.50 0.2757229
340.60 0.2761711
340.70 0.2766187
340.80 0.2770689
340.90 0.2775229
341.00 0.2779757
341.10 0.278427
341.20 0.2788778
341.30 0.279328
341.40 0.2797776
341.50 0.2802266
341.60 0.2806751
341.70 0.281123
341.80 0.2815769
341.90 0.2820381
342.00 0.2824988
342.10 0.2829589
342.20 0.2834219
342.30 0.2838775
342.40 0.284328
342.50 0.2847789
342.60 0.2852293
342.70 0.2856791
342.80 0.2861284
342.90 0.2865771
343.00 0.2870332
343.10 0.2874987
343.20 0.2879636
343.30 0.288428
343.40 0.2888885
343.50 0.2893438
343.60 0.2897985
343.70 0.2902526
343.80 0.2907061
343.90 0.2911591
344.00 0.2916173
344.10 0.2920832
344.20 0.2925486
344.30 0.2930133
344.40 0.2934775
344.50 0.2939411
344.60 0.2944041
344.70 0.2948665
344.80 0.2953283
344.90 0.2957896
345.00 0.2962502
345.10 0.2967103
345.20 0.2971791
345.30 0.2976607
345.40 0.2981418
345.50 0.2986192
345.60 0.2990859
345.70 0.2995424
345.80 0.2999984
345.90 0.3004537
346.00 0.3009086
346.10 0.3013628
346.20 0.3018233
346.30 0.3022931
346.40 0.3027623
346.50 0.3032309
346.60 0.303699
346.70 0.3041664
346.80 0.3046332
346.90 0.3050995
347.00 0.3055652
347.10 0.3060303
347.20 0.3064999
347.30 0.3069762
347.40 0.307452
347.50 0.3079272
347.60 0.3084018
347.70 0.3088757
347.80 0.3093491
347.90 0.3098219
348.00 0.3102941
348.10 0.3107657
348.20 0.3112367
348.30 0.3117071
348.40 0.3121769
348.50 0.3126462
348.60 0.3131148
348.70 0.3136016
348.80 0.3140886
348.90 0.3145678
349.00 0.3150465
349.10 0.3155245
349.20 0.3160019
349.30 0.3164788
349.40 0.316955
349.50 0.3174306
349.60 0.3179057
349.70 0.3183801
349.80 0.318854
349.90 0.3193272
350.00 0.3197999
350.10 0.320272
350.20 0.3207435
350.30 0.3212192
350.40 0.3217013
350.50 0.3221829
350.60 0.3226638
350.70 0.3231441
350.80 0.3236239
350.90 0.324103
351.00 0.3245815
351.10 0.3250594
351.20 0.3255368
351.30 0.3260135
351.40 0.3264906
351.50 0.3269687
351.60 0.3274463
351.70 0.3279233
351.80 0.3283996
351.90 0.3288754
352.00 0.3293506
352.10 0.3298252
352.20 0.330339
352.30 0.3308416
352.40 0.3313218
352.50 0.3318014
352.60 0.3322804
352.70 0.3327588
352.80 0.3332366
352.90 0.3337138
353.00 0.3341904
353.10 0.3346664
353.20 0.3351418
353.30 0.3356167
353.40 0.3360909
353.50 0.3365832
353.60 0.3370795
353.70 0.3375752
353.80 0.3380703
353.90 0.3385628
354.00 0.3390513
354.10 0.3395392
354.20 0.3400265
354.30 0.3405131
354.40 0.3409992
354.50 0.3414847
354.60 0.3419696
354.70 0.3424538
354.80 0.3429416
354.90 0.3434346
355.00 0.3439271
355.10 0.3444189
355.20 0.3449101
355.30 0.3453981
355.40 0.3458856
355.50 0.3463724
355.60 0.3468587
355.70 0.3473443
355.80 0.3478292
355.90 0.3483234
356.00 0.3488216
356.10 0.349316
356.20 0.3498098
356.30 0.350303
356.40 0.3507955
356.50 0.3512875
356.60 0.3517788
356.70 0.3522696
356.80 0.3527597
356.90 0.3532492
357.00 0.3537382
357.10 0.3542265
357.20 0.3547142
357.30 0.3552013
357.40 0.3556936
357.50 0.3561954
357.60 0.3566966
357.70 0.3571972
357.80 0.3576743
357.90 0.3581508
358.00 0.3586438
358.10 0.3591403
358.20 0.3596363
358.30 0.3601316
358.40 0.3606264
358.50 0.3611205
358.60 0.361614
358.70 0.3621069
358.80 0.3625993
358.90 0.363091
359.00 0.3635838
359.10 0.364079
359.20 0.364574
359.30 0.3650715
359.40 0.3655683
359.50 0.3660815
359.60 0.3665982
359.70 0.3671144
359.80 0.3676148
359.90 0.3681146
360.00 0.3686095
360.10 0.3690963
360.20 0.3695825
360.30 0.3700681
360.40 0.3705531
360.50 0.3710375
360.60 0.3715584
360.70 0.3720656
360.80 0.3725722
360.90 0.3730781
361.00 0.3735746
361.10 0.3740607
361.20 0.3746054
361.30 0.375059
361.40 0.3755465
361.50 0.3760718
361.60 0.3765712
361.70 0.3770915
361.80 0.3775968
361.90 0.3780763
362.00 0.3785552
362.10 0.3790787
362.20 0.3795987
362.30 0.3800931
362.40 0.3805869
362.50 0.3810801
362.60 0.3815726
362.70 0.3820958
362.80 0.3825881
362.90 0.3830973
363.00 0.3836058
363.10 0.3841241
363.20 0.3846418
363.30 0.3851078
363.40 0.3856365
363.50 0.3861267
363.60 0.3866351
363.70 0.3871261
363.80 0.3876123
363.90 0.3881208
364.00 0.3886286
364.10 0.3891358
364.20 0.3896424
364.30 0.3901436
364.40 0.390643
364.50 0.391191
364.60 0.3917035
364.70 0.3922154
364.80 0.3927266
364.90 0.3932271
365.00 0.393727
365.10 0.3942262
365.20 0.3947249
365.30 0.3952606
365.40 0.3957204
365.50 0.3962548
365.60 0.3967886
365.70 0.3972876
365.80 0.397786
365.90 0.3982778
366.00 0.3987674
366.10 0.3992852
366.20 0.3998023
366.30 0.4003189
366.40 0.4008347
366.50 0.4013324
366.60 0.401867
366.70 0.4023826
366.80 0.4028975
366.90 0.4034082
367.00 0.4039117
367.10 0.4044146
367.20 0.404917
367.30 0.4054187
367.40 0.4059198
367.50 0.4064374
367.60 0.4069586
367.70 0.4074597
367.80 0.4079602
367.90 0.4084601
368.00 0.4089633
368.10 0.4094742
368.20 0.4099888
368.30 0.4105028
368.40 0.4110162
368.50 0.411529
368.60 0.4120411
368.70 0.4125527
368.80 0.4130636
368.90 0.4135939
369.00 0.4141138
369.10 0.4146217
369.20 0.4151404
369.30 0.4156511
369.40 0.4161612
369.50 0.4166708
369.60 0.417176
369.70 0.4176806
369.80 0.4182079
369.90 0.4187348
370.00 0.419261
370.10 0.4197809
370.20 0.4202861
370.30 0.4207907
370.40 0.4212947
370.50 0.4217981
370.60 0.4223009
370.70 0.4228104
370.80 0.4233446
370.90 0.4238782
371.00 0.4243825
371.10 0.4248859
371.20 0.4254176
371.30 0.4259487
371.40 0.4264315
371.50 0.4269464
371.60 0.4274607
371.70 0.4279743
371.80 0.4284874
371.90 0.4289998
372.00 0.4295223
372.10 0.4300677
372.20 0.4305849
372.30 0.4311014
372.40 0.4316174
372.50 0.4321327
372.60 0.4326475
372.70 0.4331616
372.80 0.4336833
372.90 0.4342045
373.00 0.4346966
373.10 0.4351879
373.20 0.4357109
373.30 0.4362334
373.40 0.4367912
373.50 0.4372764
373.60 0.4378329
373.70 0.4383169
373.80 0.438861
373.90 0.439355
374.00 0.4398731
374.10 0.4403906
374.20 0.4409075
374.30 0.4414237
374.40 0.4419483
374.50 0.4424474
374.60 0.4429809
374.70 0.4435145
374.80 0.4440475
374.90 0.4445798
375.00 0.4450798
375.10 0.4455793
375.20 0.4460781
375.30 0.4466035
375.40 0.4471283
375.50 0.4476524
375.60 0.448176
375.70 0.4486989
375.80 0.4492211
375.90 0.4497428
376.00 0.4502764
376.10 0.4507942
376.20 0.4513113
376.30 0.4518277
376.40 0.4523435
376.50 0.4528591
376.60 0.4533747
376.70 0.4538897
376.80 0.4544135
376.90 0.4549461
377.00 0.455478
377.10 0.4560093
377.20 0.4565346
377.30 0.457039
377.40 0.4575428
377.50 0.4580461
377.60 0.4585682
377.70 0.4590898
377.80 0.4596107
377.90 0.460131
378.00 0.4606879
378.10 0.4612086
378.20 0.4617277
378.30 0.4622463
378.40 0.4627642
378.50 0.4632815
378.60 0.4637982
378.70 0.4643143
378.80 0.4648298
378.90 0.4653503
379.00 0.4658808
379.10 0.4664168
379.20 0.4669521
379.30 0.4674788
379.40 0.4679967
379.50 0.4685141
379.60 0.4690296
379.70 0.4695448
379.80 0.4700675
379.90 0.4705895
380.00 0.4711109
380.10 0.4716317
380.20 0.4721519
380.30 0.4726715
380.40 0.4731905
380.50 0.4737088
380.60 0.4742608
380.70 0.4747825
380.80 0.4753036
380.90 0.475824
381.00 0.4763439
381.10 0.4768709
381.20 0.4773936
381.30 0.4779189
381.40 0.4784449
381.50 0.4789718
381.60 0.4794881
381.70 0.4799918
381.80 0.4805432
381.90 0.4810826
382.00 0.4816213
382.10 0.482125
382.20 0.4826556
382.30 0.4831581
382.40 0.4836673
382.50 0.4841867
382.60 0.4847054
382.70 0.485226
382.80 0.4857517
382.90 0.4862795
383.00 0.4868067
383.10 0.4873333
383.20 0.4878618
383.30 0.4883995
383.40 0.4889318
383.50 0.4894563
383.60 0.4899532
383.70 0.4904789
383.80 0.4910039
383.90 0.4915283
384.00 0.4920522
384.10 0.4925754
384.20 0.493098
384.30 0.49362
384.40 0.4941479
384.50 0.4946817
384.60 0.4952149
384.70 0.4957475
384.80 0.4962791
384.90 0.4968076
385.00 0.4973338
385.10 0.4978585
385.20 0.4983619
385.30 0.4988921
385.40 0.4994211
385.50 0.4999488
385.60 0.5004758
385.70 0.5010022
385.80 0.5015286
385.90 0.5020566
386.00 0.5025722
386.10 0.5030793
386.20 0.5036238
386.30 0.5041677
386.40 0.5046745
386.50 0.5051974
386.60 0.5057336
386.70 0.5062603
386.80 0.5067696
386.90 0.5072951
387.00 0.5078116
387.10 0.5083844
387.20 0.5089045
387.30 0.5093993
387.40 0.5099524
387.50 0.5104612
387.60 0.5109745
387.70 0.5115117
387.80 0.5120484
387.90 0.5125845
388.00 0.5131147
388.10 0.5136246
388.20 0.5141458
388.30 0.5146625
388.40 0.5151786
388.50 0.5157066
388.60 0.5162553
388.70 0.5167778
388.80 0.5172719
388.90 0.517835
389.00 0.5183471
389.10 0.5188759
389.20 0.519402
389.30 0.5199322
389.40 0.5204455
389.50 0.5209574
389.60 0.5214818
389.70 0.5220425
389.80 0.5225719
389.90 0.5231006
390.00 0.5236288
390.10 0.5241563
390.20 0.5246832
390.30 0.5252095
390.40 0.525735
390.50 0.52626
390.60 0.5267843
390.70 0.527308
390.80 0.5278243
390.90 0.5283332
391.00 0.5288819
391.10 0.5294074
391.20 0.5299326
391.30 0.5304587
391.40 0.5309844
391.50 0.5315095
391.60 0.5320339
391.70 0.5325578
391.80 0.533081
391.90 0.5336031
392.00 0.5341233
392.10 0.5346418
392.20 0.5351582
392.30 0.5356711
392.40 0.5361964
392.50 0.5367371
392.60 0.5372773
392.70 0.5378168
392.80 0.5382907
392.90 0.5388554
393.00 0.5393758
393.10 0.5398982
393.20 0.540424
393.30 0.5409598
393.40 0.541487
393.50 0.541968
393.60 0.542499
393.70 0.5430324
393.80 0.5435652
393.90 0.5440974
394.00 0.5446314
394.10 0.5451665
394.20 0.5456764
394.30 0.5461854
394.40 0.546746
394.50 0.5472376
394.60 0.5477521
394.70 0.5482734
394.80 0.5488224
394.90 0.5493684
395.00 0.5498496
395.10 0.5503714
395.20 0.5508991
395.30 0.5514359
395.40 0.5519721
395.50 0.5525029
395.60 0.5530314
395.70 0.5535589
395.80 0.5540846
395.90 0.5546098
396.00 0.5551322
396.10 0.5556369
396.20 0.5561553
396.30 0.556673
396.40 0.5571902
396.50 0.5577068
396.60 0.5582866
396.70 0.558788
396.80 0.5592931
396.90 0.5598325
397.00 0.5603524
397.10 0.5608655
397.20 0.5614212
397.30 0.5619467
397.40 0.5624629
397.50 0.5629785
397.60 0.5634946
397.70 0.5640209
397.80 0.5645466
397.90 0.5650733
398.00 0.5656036
398.10 0.5661333
398.20 0.5666579
398.30 0.5671767
398.40 0.5676957
398.50 0.5682369
398.60 0.5687199
398.70 0.5692433
398.80 0.5697817
398.90 0.5703091
399.00 0.5708168
399.10 0.5713593
399.20 0.5718816
399.30 0.5724033
399.40 0.5729244
399.50 0.5734449
399.60 0.573971
399.70 0.5744988
399.80 0.5750259
399.90 0.5755525
400.00 0.5760772
400.10 0.5765606
400.20 0.5770826
400.30 0.5775971
400.40 0.5781248
400.50 0.5786817
400.60 0.5791736
400.70 0.5796968
400.80 0.5802481
400.90 0.5807497
401.00 0.5812583
401.10 0.5817919
401.20 0.5822993
401.30 0.5828219
401.40 0.5833574
401.50 0.5838966
401.60 0.5844347
401.70 0.5849567
401.80 0.5854702
401.90 0.5859887
402.00 0.5865004
402.10 0.5869906
402.20 0.5875292
402.30 0.5880729
402.40 0.5885603
402.50 0.5891063
402.60 0.5896414
402.70 0.5901296
402.80 0.5906713
402.90 0.5911753
403.00 0.5916849
403.10 0.592231
403.20 0.5927636
403.30 0.5932762
403.40 0.5937804
403.50 0.5943081
403.60 0.5948386
403.70 0.5953345
403.80 0.5958636
403.90 0.5963721
404.00 0.5968751
404.10 0.5974123
404.20 0.5979456
404.30 0.5984784
404.40 0.5989966
404.50 0.5995114
404.60 0.6000117
404.70 0.6005421
404.80 0.6010662
404.90 0.601601
405.00 0.6021115
405.10 0.6026314
405.20 0.6031413
405.30 0.6036507
405.40 0.6041668
405.50 0.6046823
405.60 0.6051972
405.70 0.6057115
405.80 0.6062252
405.90 0.6067384
406.00 0.6072354
406.10 0.6077319
406.20 0.6082279
406.30 0.6087233
406.40 0.609255
406.50 0.609808
406.60 0.6104154
406.70 0.6108734
406.80 0.6115202
406.90 0.6119628
407.00 0.6124494
407.10 0.6129354
407.20 0.6134209
407.30 0.6139058
407.40 0.6143902
407.50 0.614874
407.60 0.6153573
407.70 0.61584
407.80 0.6163222
407.90 0.6168099
408.00 0.6174955
408.10 0.618284
408.20 0.6189097
408.30 0.6193905
408.40 0.6198709
408.50 0.6203801
408.60 0.6209081
408.70 0.6214355
408.80 0.6219468
408.90 0.6223602
409.00 0.6228616
409.10 0.6233625
409.20 0.6238627
409.30 0.6243625
409.40 0.6248629
409.50 0.6254032
409.60 0.625943
409.70 0.6264785
409.80 0.6269986
409.90 0.6275107
410.00 0.6277841
410.10 0.628472
410.20 0.6289233
410.30 0.629315
410.40 0.629774
410.50 0.6304463
410.60 0.6311179
410.70 0.6317375
410.80 0.632152
410.90 0.632566
411.00 0.633067
411.10 0.6335998
411.20 0.634132
411.30 0.634597
411.40 0.634805
411.50 0.6353338
411.60 0.6358621
411.70 0.6364
411.80 0.6369783
411.90 0.6376742
412.00 0.6382511
412.10 0.6388274
412.20 0.6394031
412.30 0.639784
412.40 0.6400054
412.50 0.6409158
412.60 0.641026
412.70 0.6415329
412.80 0.6421384
412.90 0.6425549
413.00 0.6430056
413.10 0.6435107
413.20 0.6440153
413.30 0.6445194
413.40 0.6450228
413.50 0.6456072
413.60 0.6463995
413.70 0.6468197
413.80 0.6472394
413.90 0.6476586
414.00 0.6481125
414.10 0.648677
414.20 0.6493812
414.30 0.6499444
414.40 0.6506238
414.50 0.6510106
414.60 0.6514903
414.70 0.6520511
414.80 0.6525762
414.90 0.6529901
415.00 0.6534036
415.10 0.6538165
415.20 0.6542719
415.30 0.6548628
415.40 0.6554531
415.50 0.6560405
415.60 0.6565575
415.70 0.657074
415.80 0.6575734
415.90 0.6580203
416.00 0.6584667
416.10 0.6589268
416.20 0.6594435
416.30 0.6599595
416.40 0.660475
416.50 0.660991
416.60 0.6615407
416.70 0.6620638
416.80 0.6626616
416.90 0.6628933
417.00 0.6634191
417.10 0.6642716
417.20 0.6645295
417.30 0.6648003
417.40 0.6654991
417.50 0.6661972
