# Version 2.1 - nm, norm@500 to 1, cut digits, bergeron_He_11000_75.dat_11000
# Wavelength(nm)  Flambda(ergs/cm^s/s/nm)
300.00 2.310931
300.10 2.310429
300.20 2.30994
300.30 2.309429
300.40 2.308764
300.50 2.308099
300.60 2.307434
300.70 2.306769
300.80 2.306105
300.90 2.305442
301.00 2.304778
301.10 2.304115
301.20 2.303453
301.30 2.302791
301.40 2.302129
301.50 2.301467
301.60 2.300806
301.70 2.300145
301.80 2.299485
301.90 2.298825
302.00 2.298165
302.10 2.297539
302.20 2.296916
302.30 2.296294
302.40 2.295672
302.50 2.29505
302.60 2.294429
302.70 2.293808
302.80 2.293187
302.90 2.292567
303.00 2.291947
303.10 2.291327
303.20 2.290708
303.30 2.290081
303.40 2.28939
303.50 2.288698
303.60 2.288007
303.70 2.287317
303.80 2.286627
303.90 2.285937
304.00 2.285248
304.10 2.284559
304.20 2.283871
304.30 2.283182
304.40 2.282495
304.50 2.281808
304.60 2.281139
304.70 2.280474
304.80 2.279808
304.90 2.279143
305.00 2.278478
305.10 2.277814
305.20 2.27715
305.30 2.276487
305.40 2.275823
305.50 2.275161
305.60 2.274498
305.70 2.273836
305.80 2.273175
305.90 2.272513
306.00 2.271852
306.10 2.271192
306.20 2.270532
306.30 2.269872
306.40 2.269194
306.50 2.268511
306.60 2.267829
306.70 2.267147
306.80 2.266465
306.90 2.265784
307.00 2.265103
307.10 2.264422
307.20 2.263742
307.30 2.263063
307.40 2.262383
307.50 2.261705
307.60 2.261026
307.70 2.260348
307.80 2.25967
307.90 2.258993
308.00 2.258316
308.10 2.25764
308.20 2.256964
308.30 2.256288
308.40 2.255613
308.50 2.254938
308.60 2.254264
308.70 2.25359
308.80 2.252901
308.90 2.25217
309.00 2.25156
309.10 2.250951
309.20 2.250342
309.30 2.249734
309.40 2.249113
309.50 2.248416
309.60 2.247719
309.70 2.247023
309.80 2.246327
309.90 2.245632
310.00 2.244937
310.10 2.244242
310.20 2.243548
310.30 2.242855
310.40 2.242158
310.50 2.241459
310.60 2.24076
310.70 2.240062
310.80 2.239364
310.90 2.238667
311.00 2.237953
311.10 2.237239
311.20 2.236526
311.30 2.235819
311.40 2.23513
311.50 2.234441
311.60 2.233752
311.70 2.233064
311.80 2.232377
311.90 2.23169
312.00 2.231003
312.10 2.230317
312.20 2.229482
312.30 2.228653
312.40 2.227973
312.50 2.227563
312.60 2.226739
312.70 2.225916
312.80 2.225094
312.90 2.22434
313.00 2.223659
313.10 2.222978
313.20 2.222299
313.30 2.221618
313.40 2.220937
313.50 2.220255
313.60 2.219574
313.70 2.218894
313.80 2.218214
313.90 2.217534
314.00 2.216855
314.10 2.216074
314.20 2.215293
314.30 2.214512
314.40 2.213732
314.50 2.212953
314.60 2.212174
314.70 2.211396
314.80 2.210749
314.90 2.210219
315.00 2.209412
315.10 2.20867
315.20 2.207929
315.30 2.207189
315.40 2.206448
315.50 2.205709
315.60 2.20497
315.70 2.204121
315.80 2.203274
315.90 2.202427
316.00 2.20158
316.10 2.200844
316.20 2.200108
316.30 2.199154
316.40 2.19842
316.50 2.197467
316.60 2.196733
316.70 2.195782
316.80 2.194832
316.90 2.193882
317.00 2.192933
317.10 2.191985
317.20 2.191038
317.30 2.190156
317.40 2.189119
317.50 2.187639
317.60 2.18616
317.70 2.184682
317.80 2.183206
317.90 2.180978
318.00 2.177607
318.10 2.171917
318.20 2.166233
318.30 2.160557
318.40 2.151299
318.50 2.131845
318.60 2.10788
318.70 2.066071
318.80 2.046492
318.90 2.081065
319.00 2.111384
319.10 2.131531
319.20 2.147785
319.30 2.15302
319.40 2.158249
319.50 2.16347
319.60 2.166519
319.70 2.167314
319.80 2.168108
319.90 2.1689
320.00 2.169276
320.10 2.169201
320.20 2.169129
320.30 2.168735
320.40 2.168361
320.50 2.168157
320.60 2.167341
320.70 2.16684
320.80 2.166288
320.90 2.165681
321.00 2.165074
321.10 2.164468
321.20 2.164101
321.30 2.163414
321.40 2.162727
321.50 2.162041
321.60 2.161354
321.70 2.160669
321.80 2.160079
321.90 2.159592
322.00 2.158606
322.10 2.157947
322.20 2.157289
322.30 2.156631
322.40 2.155973
322.50 2.155316
322.60 2.15466
322.70 2.154003
322.80 2.153177
322.90 2.152439
323.00 2.151702
323.10 2.150966
323.20 2.150229
323.30 2.149494
323.40 2.148759
323.50 2.148024
323.60 2.14729
323.70 2.146557
323.80 2.145824
323.90 2.145091
324.00 2.144435
324.10 2.14378
324.20 2.143125
324.30 2.142436
324.40 2.141661
324.50 2.140901
324.60 2.140141
324.70 2.139382
324.80 2.138624
324.90 2.137866
325.00 2.137109
325.10 2.136352
325.20 2.135601
325.30 2.134864
325.40 2.134128
325.50 2.133414
325.60 2.132727
325.70 2.132041
325.80 2.131354
325.90 2.130651
326.00 2.129929
326.10 2.129208
326.20 2.128487
326.30 2.127699
326.40 2.126721
326.50 2.125984
326.60 2.125247
326.70 2.12451
326.80 2.123774
326.90 2.123038
327.00 2.122303
327.10 2.121569
327.20 2.120835
327.30 2.120101
327.40 2.119368
327.50 2.118635
327.60 2.117903
327.70 2.117172
327.80 2.116441
327.90 2.115631
328.00 2.114794
328.10 2.114031
328.20 2.113268
328.30 2.112505
328.40 2.111743
328.50 2.111019
328.60 2.110305
328.70 2.109591
328.80 2.108872
328.90 2.108137
329.00 2.107403
329.10 2.10667
329.20 2.105937
329.30 2.105204
329.40 2.104472
329.50 2.10374
329.60 2.103009
329.70 2.102279
329.80 2.101549
329.90 2.100819
330.00 2.100073
330.10 2.099306
330.20 2.09854
330.30 2.097774
330.40 2.09701
330.50 2.09625
330.60 2.09549
330.70 2.09473
330.80 2.093971
330.90 2.093212
331.00 2.092454
331.10 2.091697
331.20 2.09094
331.30 2.090183
331.40 2.089427
331.50 2.08866
331.60 2.08788
331.70 2.0871
331.80 2.086341
331.90 2.085583
332.00 2.084826
332.10 2.08407
332.20 2.083314
332.30 2.082558
332.40 2.081804
332.50 2.081049
332.60 2.080295
332.70 2.079542
332.80 2.078789
332.90 2.078037
333.00 2.077285
333.10 2.076541
333.20 2.075807
333.30 2.075073
333.40 2.07434
333.50 2.073607
333.60 2.072875
333.70 2.072143
333.80 2.071412
333.90 2.070681
334.00 2.069951
334.10 2.069198
334.20 2.068417
334.30 2.067636
334.40 2.066856
334.50 2.066076
334.60 2.065297
334.70 2.064482
334.80 2.063653
334.90 2.062868
335.00 2.062082
335.10 2.06151
335.20 2.060669
335.30 2.059703
335.40 2.059058
335.50 2.058365
335.60 2.057526
335.70 2.056863
335.80 2.056026
335.90 2.055233
336.00 2.054494
336.10 2.053756
336.20 2.053018
336.30 2.052295
336.40 2.05159
336.50 2.050886
336.60 2.050182
336.70 2.049478
336.80 2.048775
336.90 2.048056
337.00 2.047318
337.10 2.046579
337.20 2.045841
337.30 2.045094
337.40 2.044333
337.50 2.043573
337.60 2.042813
337.70 2.042054
337.80 2.041295
337.90 2.040534
338.00 2.039772
338.10 2.039011
338.20 2.038249
338.30 2.037489
338.40 2.036725
338.50 2.035951
338.60 2.035178
338.70 2.034406
338.80 2.033634
338.90 2.032863
339.00 2.032092
339.10 2.031322
339.20 2.030552
339.30 2.029767
339.40 2.028958
339.50 2.028173
339.60 2.027414
339.70 2.026657
339.80 2.0259
339.90 2.025143
340.00 2.024387
340.10 2.023632
340.20 2.022877
340.30 2.022122
340.40 2.021368
340.50 2.020615
340.60 2.019862
340.70 2.01911
340.80 2.018338
340.90 2.017538
341.00 2.016757
341.10 2.015997
341.20 2.015238
341.30 2.01448
341.40 2.013722
341.50 2.012964
341.60 2.012207
341.70 2.011451
341.80 2.010704
341.90 2.009968
342.00 2.009233
342.10 2.008498
342.20 2.007675
342.30 2.006932
342.40 2.00623
342.50 2.005434
342.60 2.004639
342.70 2.003844
342.80 2.003049
342.90 2.002256
343.00 2.00146
343.10 2.000661
343.20 1.999863
343.30 1.999065
343.40 1.998244
343.50 1.99739
343.60 1.996536
343.70 1.995683
343.80 1.99483
343.90 1.993978
344.00 1.993115
344.10 1.992233
344.20 1.991353
344.30 1.990473
344.40 1.989556
344.50 1.988585
344.60 1.98754
344.70 1.98658
344.80 1.98597
344.90 1.985379
345.00 1.984704
345.10 1.984288
345.20 1.983775
345.30 1.983122
345.40 1.982469
345.50 1.981911
345.60 1.981354
345.70 1.980635
345.80 1.979916
345.90 1.979198
346.00 1.97848
346.10 1.977763
346.20 1.977036
346.30 1.976296
346.40 1.975556
346.50 1.974816
346.60 1.974077
346.70 1.973338
346.80 1.972601
346.90 1.971863
347.00 1.971126
347.10 1.97039
347.20 1.969643
347.30 1.96888
347.40 1.968117
347.50 1.967355
347.60 1.966594
347.70 1.965833
347.80 1.965073
347.90 1.964314
348.00 1.963554
348.10 1.962796
348.20 1.962038
348.30 1.96128
348.40 1.960524
348.50 1.959767
348.60 1.959011
348.70 1.958179
348.80 1.957361
348.90 1.956598
349.00 1.955836
349.10 1.955074
349.20 1.954313
349.30 1.953553
349.40 1.952793
349.50 1.952033
349.60 1.951275
349.70 1.950516
349.80 1.949759
349.90 1.949001
350.00 1.948245
350.10 1.947489
350.20 1.946733
350.30 1.945964
350.40 1.945176
350.50 1.944388
350.60 1.943601
350.70 1.942815
350.80 1.942029
350.90 1.941243
351.00 1.940458
351.10 1.939674
351.20 1.938891
351.30 1.938108
351.40 1.937329
351.50 1.936559
351.60 1.93579
351.70 1.935021
351.80 1.934252
351.90 1.933484
352.00 1.932717
352.10 1.93195
352.20 1.931312
352.30 1.930632
352.40 1.92987
352.50 1.929109
352.60 1.928348
352.70 1.927587
352.80 1.926828
352.90 1.926069
353.00 1.92531
353.10 1.924552
353.20 1.923794
353.30 1.923037
353.40 1.922281
353.50 1.921512
353.60 1.92074
353.70 1.919969
353.80 1.919199
353.90 1.918428
354.00 1.917656
354.10 1.916885
354.20 1.916114
354.30 1.915344
354.40 1.914574
354.50 1.913805
354.60 1.913037
354.70 1.912269
354.80 1.911503
354.90 1.910741
355.00 1.90998
355.10 1.909219
355.20 1.908458
355.30 1.907625
355.40 1.906793
355.50 1.905961
355.60 1.90513
355.70 1.90444
355.80 1.903815
355.90 1.903029
356.00 1.902209
356.10 1.901451
356.20 1.900694
356.30 1.899937
356.40 1.899181
356.50 1.898425
356.60 1.89767
356.70 1.896916
356.80 1.896162
356.90 1.895408
357.00 1.894656
357.10 1.893903
357.20 1.893152
357.30 1.8924
357.40 1.891612
357.50 1.890758
357.60 1.889904
357.70 1.889051
357.80 1.888305
357.90 1.887561
358.00 1.886804
358.10 1.886044
358.20 1.885285
358.30 1.884526
358.40 1.883768
358.50 1.883011
358.60 1.882254
358.70 1.881497
358.80 1.880741
358.90 1.879986
359.00 1.879181
359.10 1.878286
359.20 1.877411
359.30 1.876657
359.40 1.875903
359.50 1.875111
359.60 1.87431
359.70 1.873509
359.80 1.872596
359.90 1.871683
360.00 1.87077
360.10 1.869857
360.20 1.868945
360.30 1.868033
360.40 1.867122
360.50 1.866211
360.60 1.865026
360.70 1.863572
360.80 1.862119
360.90 1.860668
361.00 1.859153
361.10 1.857259
361.20 1.8553
361.30 1.853603
361.40 1.852895
361.50 1.853493
361.60 1.854019
361.70 1.854331
361.80 1.854443
361.90 1.854201
362.00 1.853959
362.10 1.853647
362.20 1.853226
362.30 1.852641
362.40 1.852057
362.50 1.851473
362.60 1.85089
362.70 1.850326
362.80 1.849601
362.90 1.848912
363.00 1.848224
363.10 1.847509
363.20 1.846795
363.30 1.84617
363.40 1.845237
363.50 1.844801
363.60 1.843952
363.70 1.843287
363.80 1.84242
363.90 1.841722
364.00 1.841025
364.10 1.840328
364.20 1.839631
364.30 1.838831
364.40 1.838004
364.50 1.837328
364.60 1.836648
364.70 1.835969
364.80 1.83529
364.90 1.834448
365.00 1.833608
365.10 1.832931
365.20 1.832092
365.30 1.831416
365.40 1.830578
365.50 1.829903
365.60 1.82923
365.70 1.828527
365.80 1.827824
365.90 1.82703
366.00 1.826213
366.10 1.825456
366.20 1.824699
366.30 1.823943
366.40 1.823188
366.50 1.822532
366.60 1.821867
366.70 1.820996
366.80 1.820126
366.90 1.819318
367.00 1.818619
367.10 1.81792
367.20 1.817222
367.30 1.816524
367.40 1.815826
367.50 1.81504
367.60 1.814233
367.70 1.813501
367.80 1.812771
367.90 1.81204
368.00 1.811259
368.10 1.810275
368.20 1.809502
368.30 1.80873
368.40 1.80796
368.50 1.807189
368.60 1.80642
368.70 1.805651
368.80 1.804883
368.90 1.804245
369.00 1.803524
369.10 1.802724
369.20 1.80175
369.30 1.800988
369.40 1.800227
369.50 1.799466
369.60 1.798492
369.70 1.797519
369.80 1.796633
369.90 1.795748
370.00 1.794864
370.10 1.793955
370.20 1.792986
370.30 1.792018
370.40 1.79105
370.50 1.790239
370.60 1.789754
370.70 1.789107
370.80 1.788617
370.90 1.788127
371.00 1.787484
371.10 1.78684
371.20 1.786351
371.30 1.785862
371.40 1.785033
371.50 1.784426
371.60 1.783819
371.70 1.783213
371.80 1.782608
371.90 1.782002
372.00 1.781228
372.10 1.780722
372.20 1.779976
372.30 1.77923
372.40 1.778485
372.50 1.77774
372.60 1.776996
372.70 1.776253
372.80 1.775613
372.90 1.774973
373.00 1.774181
373.10 1.773388
373.20 1.772595
373.30 1.771802
373.40 1.771167
373.50 1.770375
373.60 1.769741
373.70 1.768951
373.80 1.768386
373.90 1.767684
374.00 1.766973
374.10 1.766263
374.20 1.765554
374.30 1.764844
374.40 1.764097
374.50 1.763272
374.60 1.762562
374.70 1.761856
374.80 1.76115
374.90 1.760444
375.00 1.759713
375.10 1.758982
375.20 1.758251
375.30 1.757536
375.40 1.756822
375.50 1.756107
375.60 1.755394
375.70 1.754681
375.80 1.753968
375.90 1.753256
376.00 1.752324
376.10 1.751592
376.20 1.750863
376.30 1.750134
376.40 1.749406
376.50 1.748683
376.60 1.747967
376.70 1.747252
376.80 1.746538
376.90 1.745827
377.00 1.745116
377.10 1.744405
377.20 1.743691
377.30 1.742958
377.40 1.742226
377.50 1.741494
377.60 1.740705
377.70 1.739916
377.80 1.739129
377.90 1.738341
378.00 1.7378
378.10 1.737029
378.20 1.736252
378.30 1.735475
378.40 1.7347
378.50 1.733924
378.60 1.73315
378.70 1.732376
378.80 1.731602
378.90 1.730859
379.00 1.730171
379.10 1.72938
379.20 1.72859
379.30 1.727788
379.40 1.726976
379.50 1.726164
379.60 1.725313
379.70 1.724397
379.80 1.723452
379.90 1.722508
380.00 1.721564
380.10 1.720622
380.20 1.71968
380.30 1.718739
380.40 1.717799
380.50 1.716859
380.60 1.71582
380.70 1.714575
380.80 1.713332
380.90 1.71209
381.00 1.71085
381.10 1.709199
381.20 1.707584
381.30 1.705884
381.40 1.703772
381.50 1.701492
381.60 1.699264
381.70 1.697067
381.80 1.694689
381.90 1.692752
382.00 1.692016
382.10 1.692628
382.20 1.693658
382.30 1.694567
382.40 1.69537
382.50 1.696013
382.60 1.696656
382.70 1.697158
382.80 1.697234
382.90 1.697043
383.00 1.696852
383.10 1.696661
383.20 1.696427
383.30 1.696035
383.40 1.695701
383.50 1.695454
383.60 1.694896
383.70 1.694325
383.80 1.693755
383.90 1.693186
384.00 1.692617
384.10 1.692048
384.20 1.691479
384.30 1.690911
384.40 1.690291
384.50 1.689619
384.60 1.688947
384.70 1.688276
384.80 1.687633
384.90 1.687024
385.00 1.686274
385.10 1.685523
385.20 1.684718
385.30 1.683993
385.40 1.683263
385.50 1.682527
385.60 1.681791
385.70 1.681056
385.80 1.680329
385.90 1.67963
386.00 1.678846
386.10 1.677976
386.20 1.677107
386.30 1.676239
386.40 1.6753
386.50 1.674212
386.60 1.673346
386.70 1.672188
386.80 1.671324
386.90 1.67046
387.00 1.669889
387.10 1.669026
387.20 1.668375
387.30 1.667594
387.40 1.666442
387.50 1.665453
387.60 1.664279
387.70 1.662693
387.80 1.661109
387.90 1.659526
388.00 1.657743
388.10 1.65528
388.20 1.650665
388.30 1.644752
388.40 1.638844
388.50 1.630088
388.60 1.614378
388.70 1.58797
388.80 1.548166
388.90 1.536078
389.00 1.574119
389.10 1.601186
389.20 1.618635
389.30 1.629858
389.40 1.635971
389.50 1.640752
389.60 1.643341
389.70 1.64465
389.80 1.644981
389.90 1.645311
390.00 1.64564
390.10 1.64597
390.20 1.646298
390.30 1.646266
390.40 1.645826
390.50 1.645387
390.60 1.644949
390.70 1.64451
390.80 1.644032
390.90 1.643514
391.00 1.643122
391.10 1.642559
391.20 1.641939
391.30 1.641189
391.40 1.640541
391.50 1.639893
391.60 1.639246
391.70 1.638599
391.80 1.637952
391.90 1.637342
392.00 1.636716
392.10 1.636004
392.20 1.635282
392.30 1.634545
392.40 1.633899
392.50 1.633351
392.60 1.632519
392.70 1.631971
392.80 1.63114
392.90 1.630363
393.00 1.629684
393.10 1.629031
393.20 1.628401
393.30 1.627715
393.40 1.627016
393.50 1.626189
393.60 1.625536
393.70 1.624819
393.80 1.624007
393.90 1.623323
394.00 1.622628
394.10 1.621871
394.20 1.621192
394.30 1.620441
394.40 1.619619
394.50 1.618798
394.60 1.618135
394.70 1.617439
394.80 1.616619
394.90 1.615801
395.00 1.614983
395.10 1.613969
395.20 1.612996
395.30 1.612088
395.40 1.611182
395.50 1.610011
395.60 1.608743
395.70 1.607267
395.80 1.605226
395.90 1.603187
396.00 1.601046
396.10 1.597485
396.20 1.592919
396.30 1.588056
396.40 1.583088
396.50 1.58207
396.60 1.586245
396.70 1.590296
396.80 1.592945
396.90 1.594895
397.00 1.5957
397.10 1.596283
397.20 1.596497
397.30 1.596479
397.40 1.596198
397.50 1.595918
397.60 1.595616
397.70 1.595108
397.80 1.5946
397.90 1.594066
398.00 1.593463
398.10 1.592859
398.20 1.592217
398.30 1.59153
398.40 1.590847
398.50 1.590261
398.60 1.58952
398.70 1.588813
398.80 1.588128
398.90 1.587405
399.00 1.586609
399.10 1.58582
399.20 1.585089
399.30 1.584358
399.40 1.583627
399.50 1.582897
399.60 1.58208
399.70 1.58123
399.80 1.580381
399.90 1.579532
400.00 1.57868
400.10 1.577681
400.20 1.576836
400.30 1.575875
400.40 1.574873
400.50 1.573929
400.60 1.572845
400.70 1.571652
400.80 1.570533
400.90 1.569113
401.00 1.567815
401.10 1.566418
401.20 1.565027
401.30 1.563319
401.40 1.561165
401.50 1.558881
401.60 1.556581
401.70 1.553722
401.80 1.55026
401.90 1.546076
402.00 1.541496
402.10 1.536009
402.20 1.529087
402.30 1.521426
402.40 1.51312
402.50 1.505159
402.60 1.499599
402.70 1.502046
402.80 1.508307
402.90 1.515531
403.00 1.522721
403.10 1.528935
403.20 1.533417
403.30 1.536999
403.40 1.53994
403.50 1.54188
403.60 1.543579
403.70 1.544783
403.80 1.545396
403.90 1.545849
404.00 1.54628
404.10 1.546279
404.20 1.546183
404.30 1.546087
404.40 1.545857
404.50 1.545493
404.60 1.54513
404.70 1.544901
404.80 1.54442
404.90 1.544175
405.00 1.543622
405.10 1.543221
405.20 1.54284
405.30 1.542459
405.40 1.54192
405.50 1.541381
405.60 1.540843
405.70 1.540305
405.80 1.539767
405.90 1.539229
406.00 1.538631
406.10 1.538034
406.20 1.537436
406.30 1.53684
406.40 1.536238
406.50 1.535549
406.60 1.534992
406.70 1.53432
406.80 1.533669
406.90 1.532997
407.00 1.532349
407.10 1.531702
407.20 1.531055
407.30 1.530409
407.40 1.529763
407.50 1.529117
407.60 1.528473
407.70 1.527828
407.80 1.527184
407.90 1.526542
408.00 1.525937
408.10 1.525304
408.20 1.524625
408.30 1.523964
408.40 1.523303
408.50 1.52258
408.60 1.521926
408.70 1.521272
408.80 1.520608
408.90 1.519888
409.00 1.519246
409.10 1.518603
409.20 1.517961
409.30 1.51732
409.40 1.516679
409.50 1.51603
409.60 1.515382
409.70 1.514716
409.80 1.513977
409.90 1.513238
410.00 1.5125
410.10 1.511763
410.20 1.511107
410.30 1.510472
410.40 1.509813
410.50 1.509077
410.60 1.508342
410.70 1.507608
410.80 1.506874
410.90 1.506141
411.00 1.505301
411.10 1.504422
411.20 1.503544
411.30 1.502652
411.40 1.501696
411.50 1.500601
411.60 1.499507
411.70 1.498333
411.80 1.496831
411.90 1.495357
412.00 1.493988
412.10 1.492812
412.20 1.492281
412.30 1.492247
412.40 1.492395
412.50 1.492314
412.60 1.492324
412.70 1.492067
412.80 1.491744
412.90 1.491339
413.00 1.490887
413.10 1.490267
413.20 1.489648
413.30 1.489029
413.40 1.48841
413.50 1.487771
413.60 1.487036
413.70 1.486254
413.80 1.485472
413.90 1.48469
414.00 1.483894
414.10 1.48305
414.20 1.482084
414.30 1.481267
414.40 1.480552
414.50 1.480092
414.60 1.47947
414.70 1.479138
414.80 1.478775
414.90 1.478317
415.00 1.477858
415.10 1.4774
415.20 1.476919
415.30 1.476366
415.40 1.475813
415.50 1.475261
415.60 1.474733
415.70 1.474205
415.80 1.473653
415.90 1.473028
416.00 1.472403
416.10 1.471774
416.20 1.471127
416.30 1.470481
416.40 1.469835
416.50 1.469188
416.60 1.468483
416.70 1.467778
416.80 1.467326
416.90 1.466622
417.00 1.465919
417.10 1.46522
417.20 1.464643
417.30 1.464066
417.40 1.463453
417.50 1.46284
417.60 1.462211
417.70 1.461513
417.80 1.460897
417.90 1.460282
418.00 1.459666
418.10 1.459052
418.20 1.458437
418.30 1.457821
418.40 1.457131
418.50 1.456461
418.60 1.455793
418.70 1.455124
418.80 1.454457
418.90 1.453789
419.00 1.453123
419.10 1.452456
419.20 1.45179
419.30 1.451127
419.40 1.450523
419.50 1.449919
419.60 1.449315
419.70 1.448708
419.80 1.448102
419.90 1.447482
420.00 1.446817
420.10 1.446153
420.20 1.445489
420.30 1.444825
420.40 1.444162
420.50 1.443499
420.60 1.442837
420.70 1.442176
420.80 1.441514
420.90 1.440853
421.00 1.440169
421.10 1.439485
421.20 1.43881
421.30 1.438162
421.40 1.437515
421.50 1.436868
421.60 1.436222
421.70 1.435576
421.80 1.43493
421.90 1.434305
422.00 1.433746
422.10 1.433163
422.20 1.432484
422.30 1.431806
422.40 1.431129
422.50 1.430476
422.60 1.429824
422.70 1.429172
422.80 1.428521
422.90 1.42787
423.00 1.42722
423.10 1.42657
423.20 1.425921
423.30 1.425272
423.40 1.424623
423.50 1.423975
423.60 1.423327
423.70 1.42268
423.80 1.422033
423.90 1.421387
424.00 1.420741
424.10 1.420096
424.20 1.419451
424.30 1.418807
424.40 1.418158
424.50 1.417539
424.60 1.416921
424.70 1.416302
424.80 1.415685
424.90 1.415067
425.00 1.41445
425.10 1.413834
