# Version 2.1 - nm, norm@500 to 1, cut digits, bergeron_He_10000_90.dat_10000
# Wavelength(nm)  Flambda(ergs/cm^s/s/nm)
300.00 2.010512
300.10 2.010103
300.20 2.00968
300.30 2.009272
300.40 2.008964
300.50 2.008656
300.60 2.008347
300.70 2.008039
300.80 2.007731
300.90 2.007422
301.00 2.007114
301.10 2.006805
301.20 2.006497
301.30 2.006188
301.40 2.00588
301.50 2.005571
301.60 2.005263
301.70 2.004954
301.80 2.004645
301.90 2.004337
302.00 2.004028
302.10 2.003684
302.20 2.003336
302.30 2.002988
302.40 2.00264
302.50 2.002292
302.60 2.001944
302.70 2.001596
302.80 2.001249
302.90 2.000901
303.00 2.000553
303.10 2.000205
303.20 1.999857
303.30 1.999515
303.40 1.999215
303.50 1.998915
303.60 1.998615
303.70 1.998314
303.80 1.998014
303.90 1.997714
304.00 1.997414
304.10 1.997114
304.20 1.996814
304.30 1.996513
304.40 1.996213
304.50 1.995912
304.60 1.995559
304.70 1.995201
304.80 1.994842
304.90 1.994483
305.00 1.994124
305.10 1.993766
305.20 1.993407
305.30 1.993048
305.40 1.99269
305.50 1.992331
305.60 1.991973
305.70 1.991614
305.80 1.991256
305.90 1.990897
306.00 1.990539
306.10 1.990181
306.20 1.989823
306.30 1.989464
306.40 1.98909
306.50 1.988711
306.60 1.988332
306.70 1.987952
306.80 1.987573
306.90 1.987194
307.00 1.986815
307.10 1.986437
307.20 1.986058
307.30 1.985679
307.40 1.985301
307.50 1.984922
307.60 1.984543
307.70 1.984165
307.80 1.983787
307.90 1.983408
308.00 1.98303
308.10 1.982652
308.20 1.982274
308.30 1.981896
308.40 1.981518
308.50 1.98114
308.60 1.980763
308.70 1.980385
308.80 1.98002
308.90 1.979689
309.00 1.979393
309.10 1.979097
309.20 1.978801
309.30 1.978505
309.40 1.978193
309.50 1.97778
309.60 1.977366
309.70 1.976953
309.80 1.97654
309.90 1.976127
310.00 1.975715
310.10 1.975302
310.20 1.974889
310.30 1.974477
310.40 1.974068
310.50 1.973662
310.60 1.973256
310.70 1.972851
310.80 1.972445
310.90 1.97204
311.00 1.97172
311.10 1.9714
311.20 1.97108
311.30 1.970734
311.40 1.970314
311.50 1.969894
311.60 1.969475
311.70 1.969055
311.80 1.968636
311.90 1.968217
312.00 1.967798
312.10 1.967379
312.20 1.967085
312.30 1.9669
312.40 1.966617
312.50 1.966102
312.60 1.96563
312.70 1.965159
312.80 1.964688
312.90 1.964238
313.00 1.963813
313.10 1.963388
313.20 1.962963
313.30 1.962552
313.40 1.962181
313.50 1.961811
313.60 1.96144
313.70 1.96107
313.80 1.9607
313.90 1.96033
314.00 1.95996
314.10 1.959535
314.20 1.959111
314.30 1.958687
314.40 1.958263
314.50 1.957839
314.60 1.957415
314.70 1.956991
314.80 1.956547
314.90 1.956063
315.00 1.955599
315.10 1.955222
315.20 1.954844
315.30 1.954467
315.40 1.95409
315.50 1.953712
315.60 1.953335
315.70 1.952958
315.80 1.952581
315.90 1.952204
316.00 1.951828
316.10 1.951451
316.20 1.951074
316.30 1.950412
316.40 1.950036
316.50 1.94966
316.60 1.948998
316.70 1.948622
316.80 1.948247
316.90 1.947871
317.00 1.947495
317.10 1.94712
317.20 1.946745
317.30 1.94617
317.40 1.945634
317.50 1.945208
317.60 1.944781
317.70 1.944354
317.80 1.943928
317.90 1.943449
318.00 1.943363
318.10 1.942847
318.20 1.942332
318.30 1.941817
318.40 1.941339
318.50 1.940965
318.60 1.940738
318.70 1.94028
318.80 1.939625
318.90 1.939533
319.00 1.939025
319.10 1.938371
319.20 1.937803
319.30 1.93748
319.40 1.937156
319.50 1.936832
319.60 1.936275
319.70 1.935803
319.80 1.935332
319.90 1.934861
320.00 1.934438
320.10 1.934066
320.20 1.933543
320.30 1.9332
320.40 1.93255
320.50 1.932291
320.60 1.932075
320.70 1.931426
320.80 1.930911
320.90 1.93054
321.00 1.93017
321.10 1.929799
321.20 1.929229
321.30 1.928795
321.40 1.92836
321.50 1.927926
321.60 1.927493
321.70 1.927059
321.80 1.926617
321.90 1.926165
322.00 1.925877
322.10 1.925366
322.20 1.924856
322.30 1.924346
322.40 1.923837
322.50 1.923327
322.60 1.922818
322.70 1.922309
322.80 1.922212
322.90 1.921751
323.00 1.921292
323.10 1.920832
323.20 1.920372
323.30 1.919913
323.40 1.919454
323.50 1.918995
323.60 1.918536
323.70 1.918078
323.80 1.917619
323.90 1.917161
324.00 1.916706
324.10 1.916251
324.20 1.915796
324.30 1.915333
324.40 1.914866
324.50 1.914418
324.60 1.91397
324.70 1.913522
324.80 1.913074
324.90 1.912626
325.00 1.912179
325.10 1.911732
325.20 1.911232
325.30 1.910622
325.40 1.910012
325.50 1.909516
325.60 1.909158
325.70 1.9088
325.80 1.908442
325.90 1.908
326.00 1.907467
326.10 1.906934
326.20 1.906402
326.30 1.905925
326.40 1.905609
326.50 1.905107
326.60 1.904605
326.70 1.904103
326.80 1.903601
326.90 1.9031
327.00 1.902599
327.10 1.902098
327.20 1.901597
327.30 1.901097
327.40 1.900596
327.50 1.900097
327.60 1.899597
327.70 1.899098
327.80 1.898598
327.90 1.898279
328.00 1.897998
328.10 1.897528
328.20 1.897058
328.30 1.896588
328.40 1.896118
328.50 1.895578
328.60 1.895021
328.70 1.894464
328.80 1.893927
328.90 1.893447
329.00 1.892966
329.10 1.892486
329.20 1.892007
329.30 1.891527
329.40 1.891048
329.50 1.890569
329.60 1.89009
329.70 1.889612
329.80 1.889133
329.90 1.888655
330.00 1.888175
330.10 1.887692
330.20 1.887209
330.30 1.886726
330.40 1.886246
330.50 1.885769
330.60 1.885292
330.70 1.884815
330.80 1.884339
330.90 1.883863
331.00 1.883387
331.10 1.882911
331.20 1.882435
331.30 1.88196
331.40 1.881485
331.50 1.880995
331.60 1.880487
331.70 1.879979
331.80 1.879462
331.90 1.878944
332.00 1.878426
332.10 1.877909
332.20 1.877392
332.30 1.876875
332.40 1.876359
332.50 1.875842
332.60 1.875326
332.70 1.874811
332.80 1.874295
332.90 1.87378
333.00 1.873266
333.10 1.872778
333.20 1.872323
333.30 1.871869
333.40 1.871414
333.50 1.87096
333.60 1.870507
333.70 1.870053
333.80 1.869599
333.90 1.869146
334.00 1.868693
334.10 1.86821
334.20 1.867689
334.30 1.867168
334.40 1.866648
334.50 1.866128
334.60 1.865608
334.70 1.865042
334.80 1.864457
334.90 1.863927
335.00 1.863397
335.10 1.863146
335.20 1.862543
335.30 1.861775
335.40 1.861428
335.50 1.861016
335.60 1.860415
335.70 1.860042
335.80 1.859441
335.90 1.858898
336.00 1.858424
336.10 1.857951
336.20 1.857478
336.30 1.856986
336.40 1.856472
336.50 1.855957
336.60 1.855443
336.70 1.85493
336.80 1.854416
336.90 1.853919
337.00 1.853442
337.10 1.852965
337.20 1.852488
337.30 1.851998
337.40 1.85149
337.50 1.850983
337.60 1.850475
337.70 1.849968
337.80 1.849461
337.90 1.848952
338.00 1.84844
338.10 1.847928
338.20 1.847417
338.30 1.846905
338.40 1.846389
338.50 1.84586
338.60 1.845331
338.70 1.844803
338.80 1.844275
338.90 1.843747
339.00 1.843219
339.10 1.842692
339.20 1.842165
339.30 1.841617
339.40 1.841038
339.50 1.840489
339.60 1.839975
339.70 1.839462
339.80 1.838949
339.90 1.838436
340.00 1.837923
340.10 1.837411
340.20 1.836899
340.30 1.836388
340.40 1.835876
340.50 1.835365
340.60 1.834854
340.70 1.834344
340.80 1.833807
340.90 1.833233
341.00 1.832683
341.10 1.832161
341.20 1.83164
341.30 1.831119
341.40 1.830598
341.50 1.830077
341.60 1.829557
341.70 1.829037
341.80 1.828528
341.90 1.828034
342.00 1.82754
342.10 1.827047
342.20 1.826438
342.30 1.825933
342.40 1.825481
342.50 1.824906
342.60 1.824331
342.70 1.823757
342.80 1.823182
342.90 1.822609
343.00 1.822085
343.10 1.821624
343.20 1.821164
343.30 1.820703
343.40 1.820195
343.50 1.81962
343.60 1.819045
343.70 1.818471
343.80 1.817897
343.90 1.817323
344.00 1.816799
344.10 1.816346
344.20 1.815894
344.30 1.815442
344.40 1.814941
344.50 1.814369
344.60 1.813612
344.70 1.813282
344.80 1.81247
344.90 1.81214
345.00 1.811515
345.10 1.810945
345.20 1.810378
345.30 1.809816
345.40 1.809254
345.50 1.808888
345.60 1.80858
345.70 1.808012
345.80 1.807445
345.90 1.806877
346.00 1.806311
346.10 1.805744
346.20 1.805198
346.30 1.804679
346.40 1.804162
346.50 1.803644
346.60 1.803127
346.70 1.80261
346.80 1.802093
346.90 1.801577
347.00 1.801061
347.10 1.800545
347.20 1.800015
347.30 1.799463
347.40 1.798912
347.50 1.798362
347.60 1.797812
347.70 1.797262
347.80 1.796712
347.90 1.796163
348.00 1.795614
348.10 1.795065
348.20 1.794517
348.30 1.793969
348.40 1.793422
348.50 1.792875
348.60 1.792328
348.70 1.79168
348.80 1.791064
348.90 1.790538
349.00 1.790012
349.10 1.789487
349.20 1.788963
349.30 1.788438
349.40 1.787914
349.50 1.78739
349.60 1.786866
349.70 1.786343
349.80 1.78582
349.90 1.785298
350.00 1.784775
350.10 1.784253
350.20 1.783731
350.30 1.783196
350.40 1.782642
350.50 1.782088
350.60 1.781535
350.70 1.780981
350.80 1.780429
350.90 1.779876
351.00 1.779324
351.10 1.778772
351.20 1.77822
351.30 1.777669
351.40 1.777109
351.50 1.776532
351.60 1.775955
351.70 1.775379
351.80 1.774803
351.90 1.774228
352.00 1.773653
352.10 1.773078
352.20 1.772671
352.30 1.772209
352.40 1.771639
352.50 1.77107
352.60 1.770501
352.70 1.769932
352.80 1.769364
352.90 1.768797
353.00 1.768229
353.10 1.767662
353.20 1.767095
353.30 1.766529
353.40 1.765963
353.50 1.765463
353.60 1.764979
353.70 1.764496
353.80 1.764013
353.90 1.763492
354.00 1.762903
354.10 1.762315
354.20 1.761727
354.30 1.76114
354.40 1.760553
354.50 1.759966
354.60 1.75938
354.70 1.758794
354.80 1.758254
354.90 1.757777
355.00 1.757301
355.10 1.756826
355.20 1.75635
355.30 1.755782
355.40 1.755214
355.50 1.754646
355.60 1.754079
355.70 1.75349
355.80 1.752893
355.90 1.752155
356.00 1.751521
356.10 1.750974
356.20 1.750428
356.30 1.749882
356.40 1.749337
356.50 1.748791
356.60 1.748247
356.70 1.747702
356.80 1.747158
356.90 1.746614
357.00 1.74607
357.10 1.745527
357.20 1.744984
357.30 1.744442
357.40 1.743887
357.50 1.743311
357.60 1.742735
357.70 1.74216
357.80 1.741592
357.90 1.741024
358.00 1.740475
358.10 1.73993
358.20 1.739385
358.30 1.738841
358.40 1.738297
358.50 1.737753
358.60 1.73721
358.70 1.736667
358.80 1.736124
358.90 1.735582
359.00 1.73503
359.10 1.734461
359.20 1.733891
359.30 1.733306
359.40 1.732721
359.50 1.732213
359.60 1.731723
359.70 1.731233
359.80 1.730606
359.90 1.729978
360.00 1.729379
360.10 1.728829
360.20 1.728279
360.30 1.72773
360.40 1.727181
360.50 1.726633
360.60 1.725838
360.70 1.72532
360.80 1.724803
360.90 1.724286
361.00 1.723893
361.10 1.723339
361.20 1.722579
361.30 1.722064
361.40 1.721527
361.50 1.721034
361.60 1.720239
361.70 1.719725
361.80 1.719238
361.90 1.7188
362.00 1.718361
362.10 1.717757
362.20 1.717139
362.30 1.716574
362.40 1.716008
362.50 1.715443
362.60 1.714878
362.70 1.71425
362.80 1.713499
362.90 1.712986
363.00 1.712474
363.10 1.711927
363.20 1.71138
363.30 1.710951
363.40 1.710117
363.50 1.709501
363.60 1.709209
363.70 1.708726
363.80 1.707978
363.90 1.707451
364.00 1.706924
364.10 1.706397
364.20 1.70587
364.30 1.705207
364.40 1.70451
364.50 1.70401
364.60 1.703504
364.70 1.702998
364.80 1.702493
364.90 1.701774
365.00 1.701056
365.10 1.700553
365.20 1.700051
365.30 1.699548
365.40 1.699046
365.50 1.698545
365.60 1.698043
365.70 1.697309
365.80 1.696575
365.90 1.696066
366.00 1.695614
366.10 1.695002
366.20 1.69439
366.30 1.693779
366.40 1.693169
366.50 1.692688
366.60 1.692194
366.70 1.691594
366.80 1.690993
366.90 1.690415
367.00 1.689875
367.10 1.689336
367.20 1.688797
367.30 1.688259
367.40 1.687721
367.50 1.687067
367.60 1.686384
367.70 1.685801
367.80 1.685218
367.90 1.684635
368.00 1.684197
368.10 1.683493
368.20 1.682962
368.30 1.682434
368.40 1.681908
368.50 1.681381
368.60 1.680855
368.70 1.680329
368.80 1.679803
368.90 1.679139
369.00 1.6786
369.10 1.678154
369.20 1.67725
369.30 1.676761
369.40 1.676272
369.50 1.675784
369.60 1.675085
369.70 1.674387
369.80 1.673819
369.90 1.673253
370.00 1.672687
370.10 1.672427
370.20 1.671744
370.30 1.67105
370.40 1.670566
370.50 1.669867
370.60 1.669377
370.70 1.668695
370.80 1.668209
370.90 1.667723
371.00 1.667241
371.10 1.66676
371.20 1.666068
371.30 1.665377
371.40 1.665008
371.50 1.66442
371.60 1.663833
371.70 1.663246
371.80 1.662659
371.90 1.662073
372.00 1.661301
372.10 1.660703
372.20 1.660154
372.30 1.659606
372.40 1.659059
372.50 1.658511
372.60 1.657964
372.70 1.657417
372.80 1.656938
372.90 1.656458
373.00 1.655778
373.10 1.655097
373.20 1.654621
373.30 1.654145
373.40 1.653464
373.50 1.652988
373.60 1.652308
373.70 1.651833
373.80 1.651039
373.90 1.650475
374.00 1.649899
374.10 1.649324
374.20 1.648748
374.30 1.648174
374.40 1.647803
374.50 1.647229
374.60 1.646653
374.70 1.64608
374.80 1.645507
374.90 1.644936
375.00 1.644329
375.10 1.643723
375.20 1.643118
375.30 1.642532
375.40 1.641947
375.50 1.641362
375.60 1.640778
375.70 1.640194
375.80 1.63961
375.90 1.639027
376.00 1.638555
376.10 1.637949
376.20 1.637343
376.30 1.636736
376.40 1.636131
376.50 1.635587
376.60 1.635135
376.70 1.634684
376.80 1.634165
376.90 1.633579
377.00 1.632994
377.10 1.632409
377.20 1.631818
377.30 1.631203
377.40 1.630589
377.50 1.629975
377.60 1.629373
377.70 1.628772
377.80 1.628171
377.90 1.627571
378.00 1.627256
378.10 1.62668
378.20 1.626098
378.30 1.625515
378.40 1.624934
378.50 1.624352
378.60 1.623771
378.70 1.62319
378.80 1.62261
378.90 1.622037
379.00 1.621476
379.10 1.620938
379.20 1.620402
379.30 1.619834
379.40 1.619237
379.50 1.61864
379.60 1.618074
379.70 1.617535
379.80 1.616925
379.90 1.616315
380.00 1.615705
380.10 1.615095
380.20 1.614486
380.30 1.613878
380.40 1.61327
380.50 1.612662
380.60 1.612319
380.70 1.611741
380.80 1.611163
380.90 1.610586
381.00 1.610009
381.10 1.60941
381.20 1.608714
381.30 1.608263
381.40 1.607561
381.50 1.607121
381.60 1.60652
381.70 1.60578
381.80 1.60523
381.90 1.604781
382.00 1.604333
382.10 1.603493
382.20 1.603124
382.30 1.602481
382.40 1.601867
382.50 1.601296
382.60 1.600725
382.70 1.600219
382.80 1.599721
382.90 1.599158
383.00 1.598595
383.10 1.598033
383.20 1.59746
383.30 1.596841
383.40 1.596248
383.50 1.595693
383.60 1.594885
383.70 1.594309
383.80 1.593734
383.90 1.593159
384.00 1.592585
384.10 1.592011
384.20 1.591437
384.30 1.590864
384.40 1.590299
384.50 1.589743
384.60 1.589186
384.70 1.58863
384.80 1.588112
384.90 1.587637
385.00 1.586977
385.10 1.586329
385.20 1.585969
385.30 1.585341
385.40 1.584751
385.50 1.584198
385.60 1.583645
385.70 1.583093
385.80 1.582531
385.90 1.581936
386.00 1.581364
386.10 1.580806
386.20 1.580136
386.30 1.579465
386.40 1.578815
386.50 1.578445
386.60 1.577854
386.70 1.577324
386.80 1.576605
386.90 1.576171
387.00 1.575557
387.10 1.574925
387.20 1.574387
387.30 1.573689
387.40 1.573248
387.50 1.572605
387.60 1.572065
387.70 1.57154
387.80 1.571014
387.90 1.570489
388.00 1.569905
388.10 1.569154
388.20 1.568787
388.30 1.56822
388.40 1.567653
388.50 1.567002
388.60 1.566303
388.70 1.565769
388.80 1.565341
388.90 1.564536
389.00 1.56411
389.10 1.563461
389.20 1.56288
389.30 1.562213
389.40 1.561797
389.50 1.561227
389.60 1.560518
389.70 1.560068
389.80 1.55946
389.90 1.558852
390.00 1.558244
390.10 1.557637
390.20 1.557031
390.30 1.556441
390.40 1.55587
390.50 1.555299
390.60 1.554729
390.70 1.554159
390.80 1.553583
390.90 1.552999
391.00 1.552685
391.10 1.552072
391.20 1.551422
391.30 1.550746
391.40 1.550203
391.50 1.54966
391.60 1.549117
391.70 1.548574
391.80 1.548032
391.90 1.547537
392.00 1.547021
392.10 1.546393
392.20 1.54575
392.30 1.545089
392.40 1.544546
392.50 1.54413
392.60 1.543344
392.70 1.542929
392.80 1.542393
392.90 1.541797
393.00 1.54121
393.10 1.540656
393.20 1.540133
393.30 1.539534
393.40 1.53892
393.50 1.538437
393.60 1.537725
393.70 1.537212
393.80 1.536549
393.90 1.535953
394.00 1.535394
394.10 1.535018
394.20 1.534426
394.30 1.533741
394.40 1.533331
394.50 1.532553
394.60 1.531982
394.70 1.531403
394.80 1.530795
394.90 1.530195
395.00 1.529775
395.10 1.529257
395.20 1.528688
395.30 1.528034
395.40 1.52738
395.50 1.526857
395.60 1.526382
395.70 1.525858
395.80 1.525202
395.90 1.524546
396.00 1.523921
396.10 1.523525
396.20 1.522938
396.30 1.522302
396.40 1.521898
396.50 1.521131
396.60 1.520727
396.70 1.520088
396.80 1.519557
396.90 1.518828
397.00 1.518389
397.10 1.517927
397.20 1.517223
397.30 1.516521
397.40 1.515985
397.50 1.51545
397.60 1.514918
397.70 1.514413
397.80 1.513907
397.90 1.513368
398.00 1.512737
398.10 1.512106
398.20 1.511484
398.30 1.510873
398.40 1.510266
398.50 1.509785
398.60 1.509384
398.70 1.508822
398.80 1.508212
398.90 1.507645
399.00 1.507155
399.10 1.506414
399.20 1.505824
399.30 1.505235
399.40 1.504645
399.50 1.504056
399.60 1.503515
399.70 1.502991
399.80 1.502468
399.90 1.501944
400.00 1.501415
400.10 1.500664
400.20 1.500271
400.30 1.499634
400.40 1.499026
400.50 1.498381
400.60 1.498119
400.70 1.497549
400.80 1.49685
400.90 1.496161
401.00 1.495713
401.10 1.495083
401.20 1.494577
401.30 1.494098
401.40 1.493539
401.50 1.492926
401.60 1.492318
401.70 1.491848
401.80 1.491179
401.90 1.490622
402.00 1.490049
402.10 1.489308
402.20 1.488921
402.30 1.488384
402.40 1.487794
402.50 1.487055
402.60 1.486669
402.70 1.485931
402.80 1.485545
402.90 1.484949
403.00 1.484388
403.10 1.483687
403.20 1.483311
403.30 1.482845
403.40 1.482183
403.50 1.481613
403.60 1.481066
403.70 1.480332
403.80 1.479955
403.90 1.479422
404.00 1.478835
404.10 1.478103
404.20 1.477546
404.30 1.47699
404.40 1.476609
404.50 1.475879
404.60 1.475499
404.70 1.47477
404.80 1.47439
404.90 1.473662
405.00 1.473208
405.10 1.472655
405.20 1.472053
405.30 1.471451
405.40 1.470899
405.50 1.470347
405.60 1.469796
405.70 1.469245
405.80 1.468695
405.90 1.468144
406.00 1.467561
406.10 1.466978
406.20 1.466395
406.30 1.465812
406.40 1.465226
406.50 1.464593
406.60 1.464131
406.70 1.463519
406.80 1.462934
406.90 1.462323
407.00 1.461777
407.10 1.461232
407.20 1.460686
407.30 1.460141
407.40 1.459597
407.50 1.459053
407.60 1.458509
407.70 1.457965
407.80 1.457422
407.90 1.45688
408.00 1.456354
408.10 1.45579
408.20 1.455166
408.30 1.454565
408.40 1.453964
408.50 1.453625
408.60 1.453032
408.70 1.45244
408.80 1.451835
408.90 1.451172
409.00 1.450659
409.10 1.450147
409.20 1.449634
409.30 1.449123
409.40 1.448609
409.50 1.448022
409.60 1.447435
409.70 1.446856
409.80 1.446307
409.90 1.445754
410.00 1.445049
410.10 1.444627
410.20 1.444086
410.30 1.443514
410.40 1.442939
410.50 1.442347
410.60 1.441756
410.70 1.441171
410.80 1.440606
410.90 1.440042
411.00 1.439519
411.10 1.43901
411.20 1.438502
411.30 1.437955
411.40 1.43726
411.50 1.436681
411.60 1.436102
411.70 1.435534
411.80 1.435005
411.90 1.434443
412.00 1.434083
412.10 1.433388
412.20 1.433029
412.30 1.432334
412.40 1.431651
412.50 1.431281
412.60 1.430587
412.70 1.429998
412.80 1.429436
412.90 1.428857
413.00 1.428519
413.10 1.427961
413.20 1.427403
413.30 1.426845
413.40 1.426287
413.50 1.425704
413.60 1.425054
413.70 1.424532
413.80 1.424011
413.90 1.42349
414.00 1.422969
414.10 1.422448
414.20 1.421888
414.30 1.421202
414.40 1.420782
414.50 1.420163
414.60 1.419518
414.70 1.419
414.80 1.418462
414.90 1.417861
415.00 1.417261
415.10 1.416661
415.20 1.416092
415.30 1.415616
415.40 1.415141
415.50 1.414664
415.60 1.414101
415.70 1.41354
415.80 1.412976
415.90 1.412405
416.00 1.411835
416.10 1.411275
416.20 1.410755
416.30 1.410236
416.40 1.409717
416.50 1.409193
416.60 1.408517
416.70 1.407841
416.80 1.407494
416.90 1.406819
417.00 1.406414
417.10 1.405804
417.20 1.405294
417.30 1.404783
417.40 1.404226
417.50 1.403669
417.60 1.40309
417.70 1.402421
417.80 1.401859
417.90 1.401298
418.00 1.400736
418.10 1.400175
418.20 1.399615
418.30 1.399063
418.40 1.398734
418.50 1.398172
418.60 1.397611
418.70 1.397049
418.80 1.396488
418.90 1.395928
419.00 1.395368
419.10 1.394808
419.20 1.394248
419.30 1.39369
419.40 1.39314
419.50 1.392591
419.60 1.392041
419.70 1.391487
419.80 1.390934
419.90 1.390385
420.00 1.38985
420.10 1.389315
420.20 1.388781
420.30 1.388247
420.40 1.387713
420.50 1.38718
420.60 1.386647
420.70 1.386114
420.80 1.385582
420.90 1.38505
421.00 1.384508
421.10 1.383966
421.20 1.383419
421.30 1.382854
421.40 1.38229
421.50 1.381726
421.60 1.381162
421.70 1.380599
421.80 1.380036
421.90 1.379489
422.00 1.378993
422.10 1.378486
422.20 1.377934
422.30 1.377382
422.40 1.376831
422.50 1.376277
422.60 1.375723
422.70 1.375169
422.80 1.374615
422.90 1.374062
423.00 1.373509
423.10 1.372957
423.20 1.372405
423.30 1.371853
423.40 1.371302
423.50 1.370751
423.60 1.370201
423.70 1.36965
423.80 1.369101
423.90 1.368551
424.00 1.368002
424.10 1.367453
424.20 1.366905
424.30 1.366357
424.40 1.365789
424.50 1.365242
424.60 1.364695
424.70 1.364148
424.80 1.363602
424.90 1.363056
425.00 1.362511
