# Version 2.1 - nm, norm@500 to 1, cut digits, bergeron_He_5500_85.dat_5500
# Wavelength(nm)  Flambda(ergs/cm^s/s/nm)
300.00 0.3549035
300.10 0.3554311
300.20 0.3559581
300.30 0.3564862
300.40 0.3570267
300.50 0.3575663
300.60 0.3581052
300.70 0.3586433
300.80 0.3591805
300.90 0.359717
301.00 0.3602527
301.10 0.3607876
301.20 0.3613217
301.30 0.361855
301.40 0.3623876
301.50 0.3629193
301.60 0.3634503
301.70 0.3639805
301.80 0.3645098
301.90 0.3650385
302.00 0.3655663
302.10 0.3661021
302.20 0.366638
302.30 0.3671732
302.40 0.3677076
302.50 0.3682412
302.60 0.368774
302.70 0.369306
302.80 0.3698372
302.90 0.3703677
303.00 0.3708974
303.10 0.3714263
303.20 0.3719544
303.30 0.3724831
303.40 0.3730234
303.50 0.3735629
303.60 0.3741016
303.70 0.3746395
303.80 0.3751766
303.90 0.3757129
304.00 0.3762485
304.10 0.3767832
304.20 0.3773172
304.30 0.3778504
304.40 0.3783828
304.50 0.3789144
304.60 0.3794548
304.70 0.3799954
304.80 0.3805352
304.90 0.3810742
305.00 0.3816125
305.10 0.3821499
305.20 0.3826866
305.30 0.3832225
305.40 0.3837576
305.50 0.3842919
305.60 0.3848254
305.70 0.3853581
305.80 0.3858901
305.90 0.3864213
306.00 0.3869517
306.10 0.3874814
306.20 0.3880102
306.30 0.3885383
306.40 0.3890823
306.50 0.3896305
306.60 0.3901778
306.70 0.3907244
306.80 0.3912701
306.90 0.3918151
307.00 0.3923593
307.10 0.3929027
307.20 0.3934453
307.30 0.3939871
307.40 0.3945281
307.50 0.3950683
307.60 0.3956077
307.70 0.3961464
307.80 0.3966843
307.90 0.3972214
308.00 0.3977577
308.10 0.3982932
308.20 0.398828
308.30 0.3993619
308.40 0.3998951
308.50 0.4004276
308.60 0.4009592
308.70 0.4014901
308.80 0.402027
308.90 0.4025822
309.00 0.4031199
309.10 0.4036569
309.20 0.404193
309.30 0.4047284
309.40 0.4052645
309.50 0.4058092
309.60 0.406353
309.70 0.4068961
309.80 0.4074384
309.90 0.4079799
310.00 0.4085206
310.10 0.4090606
310.20 0.4095997
310.30 0.4101381
310.40 0.4106771
310.50 0.4112168
310.60 0.4117558
310.70 0.4122939
310.80 0.4128313
310.90 0.4133679
311.00 0.4139003
311.10 0.4144318
311.20 0.4149626
311.30 0.4154968
311.40 0.4160422
311.50 0.4165869
311.60 0.4171307
311.70 0.4176738
311.80 0.4182161
311.90 0.4187576
312.00 0.4192983
312.10 0.4198383
312.20 0.4203835
312.30 0.4209273
312.40 0.4214641
312.50 0.4219699
312.60 0.4225091
312.70 0.4230476
312.80 0.4235853
312.90 0.424127
313.00 0.4246729
313.10 0.4252181
313.20 0.4257624
313.30 0.4263067
313.40 0.4268521
313.50 0.4273966
313.60 0.4279405
313.70 0.4284835
313.80 0.4290257
313.90 0.4295672
314.00 0.4301079
314.10 0.4306473
314.20 0.4311859
314.30 0.4317238
314.40 0.4322609
314.50 0.4327972
314.60 0.4333327
314.70 0.4338675
314.80 0.4344108
314.90 0.4349664
315.00 0.4355063
315.10 0.4360437
315.20 0.4365804
315.30 0.4371163
315.40 0.4376514
315.50 0.4381858
315.60 0.4387193
315.70 0.4392613
315.80 0.4398024
315.90 0.4403428
316.00 0.4408824
316.10 0.4414213
316.20 0.4419594
316.30 0.4425511
316.40 0.4430876
316.50 0.4436233
316.60 0.4441583
316.70 0.4446925
316.80 0.445226
316.90 0.4457722
317.00 0.4463177
317.10 0.4468624
317.20 0.4474063
317.30 0.4479328
317.40 0.448463
317.50 0.449005
317.60 0.4495463
317.70 0.4500868
317.80 0.4506266
317.90 0.4511587
318.00 0.4517279
318.10 0.4522649
318.20 0.4528011
318.30 0.4533366
318.40 0.4538748
318.50 0.4544221
318.60 0.4549617
318.70 0.4554807
318.80 0.4560043
318.90 0.4565701
319.00 0.4570938
319.10 0.4576365
319.20 0.45818
319.30 0.458727
319.40 0.4592732
319.50 0.4598187
319.60 0.4603402
319.70 0.4608842
319.80 0.4614273
319.90 0.4619697
320.00 0.4625086
320.10 0.4630437
320.20 0.4635803
320.30 0.4641254
320.40 0.4646741
320.50 0.4651902
320.60 0.4657607
320.70 0.4662913
320.80 0.4668274
320.90 0.4673696
321.00 0.4679111
321.10 0.4684518
321.20 0.4689671
321.30 0.469506
321.40 0.4700441
321.50 0.4705815
321.60 0.4711181
321.70 0.4716539
321.80 0.4722009
321.90 0.47276
322.00 0.4732691
322.10 0.4738112
322.20 0.4743525
322.30 0.4748931
322.40 0.4754329
322.50 0.4759719
322.60 0.4765101
322.70 0.4770477
322.80 0.4775602
322.90 0.4781043
323.00 0.4786476
323.10 0.4791901
323.20 0.4797319
323.30 0.4802729
323.40 0.4808132
323.50 0.4813526
323.60 0.4818914
323.70 0.4824293
323.80 0.4829666
323.90 0.483503
324.00 0.4840371
324.10 0.4845704
324.20 0.4851029
324.30 0.4856431
324.40 0.4861943
324.50 0.4867315
324.60 0.487268
324.70 0.4878037
324.80 0.4883386
324.90 0.4888728
325.00 0.4894063
325.10 0.489939
325.20 0.4904742
325.30 0.4910157
325.40 0.4915564
325.50 0.4920905
325.60 0.4926166
325.70 0.493142
325.80 0.4936666
325.90 0.494202
326.00 0.4947491
326.10 0.4952954
326.20 0.4958409
326.30 0.4963762
326.40 0.4968837
326.50 0.4974239
326.60 0.4979635
326.70 0.4985023
326.80 0.4990403
326.90 0.4995776
327.00 0.5001141
327.10 0.5006499
327.20 0.5011849
327.30 0.5017192
327.40 0.5022527
327.50 0.5027855
327.60 0.5033175
327.70 0.5038488
327.80 0.5043794
327.90 0.5049086
328.00 0.5054287
328.10 0.5059386
328.20 0.5064477
328.30 0.5069562
328.40 0.5074639
328.50 0.5080011
328.60 0.5085446
328.70 0.5090873
328.80 0.5096297
328.90 0.5101726
329.00 0.5107148
329.10 0.5112562
329.20 0.5117969
329.30 0.5123368
329.40 0.5128759
329.50 0.5134143
329.60 0.513952
329.70 0.5144889
329.80 0.5150251
329.90 0.5155605
330.00 0.5161109
330.10 0.5166797
330.20 0.5172477
330.30 0.5178149
330.40 0.5183499
330.50 0.5188501
330.60 0.5193496
330.70 0.5198484
330.80 0.5203465
330.90 0.5208439
331.00 0.5213406
331.10 0.5218366
331.20 0.5223319
331.30 0.5228266
331.40 0.5233205
331.50 0.5238976
331.60 0.5245765
331.70 0.5252544
331.80 0.5257862
331.90 0.5263113
332.00 0.5268356
332.10 0.5273592
332.20 0.5278821
332.30 0.5284043
332.40 0.5289257
332.50 0.5294464
332.60 0.5299664
332.70 0.5304857
332.80 0.5310043
332.90 0.5315221
333.00 0.5320392
333.10 0.5325551
333.20 0.5330696
333.30 0.5335833
333.40 0.5340964
333.50 0.5346087
333.60 0.5351204
333.70 0.5356313
333.80 0.5361415
333.90 0.536651
334.00 0.5371598
334.10 0.5376972
334.20 0.5382696
334.30 0.5388413
334.40 0.5394121
334.50 0.5399822
334.60 0.5405515
334.70 0.5409292
334.80 0.5412621
334.90 0.5418657
335.00 0.5424686
335.10 0.5431518
335.20 0.543555
335.30 0.5441151
335.40 0.5445776
335.50 0.5449789
335.60 0.545561
335.70 0.5461544
335.80 0.5467953
335.90 0.5473811
336.00 0.5478997
336.10 0.5484176
336.20 0.5489348
336.30 0.5494332
336.40 0.5499088
336.50 0.5503838
336.60 0.5508581
336.70 0.5513318
336.80 0.5518048
336.90 0.5522914
337.00 0.5527948
337.10 0.5532974
337.20 0.5537994
337.30 0.5543228
337.40 0.5548774
337.50 0.5554313
337.60 0.5559844
337.70 0.5565367
337.80 0.5570883
337.90 0.5576174
338.00 0.5581191
338.10 0.5586202
338.20 0.5591206
338.30 0.5596202
338.40 0.5601272
338.50 0.5606528
338.60 0.5611778
338.70 0.5617021
338.80 0.5622256
338.90 0.5627484
339.00 0.5632705
339.10 0.5637919
339.20 0.5643126
339.30 0.5648789
339.40 0.5655111
339.50 0.5660836
339.60 0.5665834
339.70 0.5670825
339.80 0.5675808
339.90 0.5680785
340.00 0.5685756
340.10 0.5690719
340.20 0.5695676
340.30 0.5700625
340.40 0.5705568
340.50 0.5710504
340.60 0.5715434
340.70 0.5720356
340.80 0.5725805
340.90 0.5732012
341.00 0.5737598
341.10 0.5742427
341.20 0.574725
341.30 0.5752066
341.40 0.5756876
341.50 0.5761679
341.60 0.5766475
341.70 0.5771265
341.80 0.5776326
341.90 0.5781719
342.00 0.5787105
342.10 0.5792484
342.20 0.579843
342.30 0.5802718
342.40 0.580679
342.50 0.581197
342.60 0.5817143
342.70 0.5822309
342.80 0.5827468
342.90 0.583262
343.00 0.5838045
343.10 0.5843806
343.20 0.5849559
343.30 0.5855304
343.40 0.5860763
343.50 0.5865815
343.60 0.587086
343.70 0.5875898
343.80 0.588093
343.90 0.5885954
344.00 0.5890814
344.10 0.5895442
344.20 0.5900063
344.30 0.5904678
344.40 0.5909757
344.50 0.5915506
344.60 0.5922074
344.70 0.592563
344.80 0.5929066
344.90 0.5934672
345.00 0.5939562
345.10 0.5945268
345.20 0.5950384
345.30 0.5954655
345.40 0.595892
345.50 0.596366
345.60 0.5969124
345.70 0.5974787
345.80 0.5980443
345.90 0.5986091
346.00 0.5991731
346.10 0.5997365
346.20 0.6002617
346.30 0.6007327
346.40 0.6012031
346.50 0.6016728
346.60 0.6021418
346.70 0.6026103
346.80 0.603078
346.90 0.6035452
347.00 0.6040117
347.10 0.6044775
347.20 0.6049634
347.30 0.6054782
347.40 0.6059923
347.50 0.6065058
347.60 0.6070185
347.70 0.6075306
347.80 0.6080419
347.90 0.6085526
348.00 0.6090626
348.10 0.6095719
348.20 0.6100805
348.30 0.6105885
348.40 0.6110957
348.50 0.6116023
348.60 0.6121082
348.70 0.6124671
348.80 0.6128622
348.90 0.6133761
349.00 0.6138893
349.10 0.6144018
349.20 0.6149136
349.30 0.6154247
349.40 0.6159351
349.50 0.6164449
349.60 0.6169539
349.70 0.6174623
349.80 0.61797
349.90 0.618477
350.00 0.6189834
350.10 0.619489
350.20 0.619994
350.30 0.6204923
350.40 0.6209814
350.50 0.6214698
350.60 0.6219575
350.70 0.6224445
350.80 0.622931
350.90 0.6234167
351.00 0.6239018
351.10 0.6243863
351.20 0.6248701
351.30 0.6253532
351.40 0.6258532
351.50 0.6263837
351.60 0.6269134
351.70 0.6274424
351.80 0.6279708
351.90 0.6284984
352.00 0.6290253
352.10 0.6295516
352.20 0.6298129
352.30 0.6301595
352.40 0.6306709
352.50 0.6311816
352.60 0.6316916
352.70 0.6322009
352.80 0.6327096
352.90 0.6332175
353.00 0.6337248
353.10 0.6342315
353.20 0.6347374
353.30 0.6352427
353.40 0.6357473
353.50 0.6361887
353.60 0.6366139
353.70 0.6370385
353.80 0.6374626
353.90 0.6379188
354.00 0.6384327
354.10 0.6389458
354.20 0.6394583
354.30 0.6399702
354.40 0.6404813
354.50 0.6409918
354.60 0.6415016
354.70 0.6420107
354.80 0.6425244
354.90 0.6430449
355.00 0.6435648
355.10 0.644084
355.20 0.6446025
355.30 0.6450407
355.40 0.6454782
355.50 0.6459152
355.60 0.6463515
355.70 0.6468734
355.80 0.6474332
355.90 0.6479365
356.00 0.6483928
356.10 0.6488617
356.20 0.6493299
356.30 0.6497975
356.40 0.6502644
356.50 0.6507308
356.60 0.6511965
356.70 0.6516616
356.80 0.6521261
356.90 0.6525899
357.00 0.6530531
357.10 0.6535157
357.20 0.6539777
357.30 0.6544391
357.40 0.654922
357.50 0.6554436
357.60 0.6559645
357.70 0.6564847
357.80 0.6568914
357.90 0.6572976
358.00 0.657769
358.10 0.6582561
358.20 0.6587426
358.30 0.6592284
358.40 0.6597136
358.50 0.6601982
358.60 0.6606821
358.70 0.6611654
358.80 0.661648
358.90 0.66213
359.00 0.6625782
359.10 0.662967
359.20 0.6633745
359.30 0.6639108
359.40 0.6644463
359.50 0.6648597
359.60 0.6652422
359.70 0.6656242
359.80 0.6662106
359.90 0.6667962
360.00 0.667319
360.10 0.6677307
360.20 0.6681418
360.30 0.6685524
360.40 0.6689624
360.50 0.6693718
360.60 0.6701479
360.70 0.6706137
360.80 0.6710789
360.90 0.6715435
361.00 0.6719753
361.10 0.6724486
361.20 0.672633
361.30 0.6732622
361.40 0.6735361
361.50 0.6741848
361.60 0.6747785
361.70 0.6752382
361.80 0.6756902
361.90 0.6761292
362.00 0.6765675
362.10 0.6770486
362.20 0.6775235
362.30 0.6779686
362.40 0.6784131
362.50 0.678857
362.60 0.6793003
362.70 0.6797794
362.80 0.6803703
362.90 0.6808186
363.00 0.6812662
363.10 0.6816463
363.20 0.6820252
363.30 0.682626
363.40 0.6828691
363.50 0.6835241
363.60 0.6837662
363.70 0.6842825
363.80 0.6848667
363.90 0.6852739
364.00 0.6856805
364.10 0.6860866
364.20 0.6864921
364.30 0.6870013
364.40 0.6875359
364.50 0.6879869
364.60 0.6884264
364.70 0.6888653
364.80 0.6893036
364.90 0.6897441
365.00 0.6901839
365.10 0.6908275
365.20 0.6910619
365.30 0.6917041
365.40 0.6919375
365.50 0.6923745
365.60 0.6928108
365.70 0.6933577
365.80 0.6939039
365.90 0.6944329
366.00 0.6949571
366.10 0.6953764
366.20 0.6957951
366.30 0.6962132
366.40 0.6966308
366.50 0.697109
366.60 0.697548
366.70 0.6979348
366.80 0.6983211
366.90 0.6987454
367.00 0.6992375
367.10 0.699729
367.20 0.7002199
367.30 0.7007101
367.40 0.7011997
367.50 0.70153
367.60 0.7018202
367.70 0.7022868
367.80 0.7027527
367.90 0.7032179
368.00 0.7037144
368.10 0.7043272
368.20 0.7047366
368.30 0.7051435
368.40 0.7055497
368.50 0.7059555
368.60 0.7063607
368.70 0.7067653
368.80 0.7071695
368.90 0.7075471
369.00 0.7080138
369.10 0.7085138
369.20 0.7089382
369.30 0.7093531
369.40 0.7097675
369.50 0.7101813
369.60 0.710789
369.70 0.7113959
369.80 0.7117672
369.90 0.7121356
370.00 0.7125035
370.10 0.7130372
370.20 0.7134522
370.30 0.7138615
370.40 0.7144667
370.50 0.7146763
370.60 0.7152822
370.70 0.7155009
370.80 0.7159034
370.90 0.7163054
371.00 0.7169116
371.10 0.7175191
371.20 0.7179193
371.30 0.718319
371.40 0.7186262
371.50 0.7190479
371.60 0.719469
371.70 0.7198895
371.80 0.7203095
371.90 0.720729
372.00 0.7213618
372.10 0.7215362
372.20 0.7220005
372.30 0.7224642
372.40 0.7229273
372.50 0.7233897
372.60 0.7238516
372.70 0.7243129
372.80 0.7247044
372.90 0.7250953
373.00 0.7254935
373.10 0.7258912
373.20 0.7262845
373.30 0.7266772
373.40 0.7272647
373.50 0.7276563
373.60 0.7280474
373.70 0.7286329
373.80 0.7288888
373.90 0.7294122
374.00 0.7298011
374.10 0.7301894
374.20 0.7305772
374.30 0.7309646
374.40 0.7315456
374.50 0.7321165
374.60 0.7325057
374.70 0.7328927
374.80 0.7332791
374.90 0.7336651
375.00 0.7340486
375.10 0.7344315
375.20 0.734814
375.30 0.7352512
375.40 0.7356878
375.50 0.7361239
375.60 0.7365594
375.70 0.7369943
375.80 0.7374287
375.90 0.7378624
376.00 0.738233
376.10 0.7386787
376.20 0.7391246
376.30 0.7395699
376.40 0.7400146
376.50 0.7404419
376.60 0.7408434
376.70 0.7412444
376.80 0.7416503
376.90 0.7420613
377.00 0.7424717
377.10 0.7428816
377.20 0.7432976
377.30 0.7437381
377.40 0.744178
377.50 0.7446174
377.60 0.7450536
377.70 0.7454892
377.80 0.7459242
377.90 0.7463587
378.00 0.7464611
378.10 0.7468959
378.20 0.7473385
378.30 0.7477804
378.40 0.7482219
378.50 0.7486627
378.60 0.749103
378.70 0.7495427
378.80 0.7499818
378.90 0.7504235
379.00 0.7508702
379.10 0.7512322
379.20 0.7515937
379.30 0.7520036
379.40 0.7524617
379.50 0.7529193
379.60 0.7532889
379.70 0.7535676
379.80 0.7539978
379.90 0.7544274
380.00 0.7548564
380.10 0.7552849
380.20 0.7557128
380.30 0.7561402
380.40 0.756567
380.50 0.7569933
380.60 0.7572875
380.70 0.7576585
380.80 0.758029
380.90 0.758399
381.00 0.7587685
381.10 0.7593081
381.20 0.7598052
381.30 0.7599635
381.40 0.7604424
381.50 0.7608116
381.60 0.7612505
381.70 0.7616932
381.80 0.7619448
381.90 0.7624795
382.00 0.7630136
382.10 0.7631739
382.20 0.7636323
382.30 0.7639783
382.40 0.7643818
382.50 0.7648716
382.60 0.7653609
382.70 0.7657923
382.80 0.7661655
382.90 0.7665448
383.00 0.7669236
383.10 0.7673019
383.20 0.7676885
383.30 0.7681073
383.40 0.7685157
383.50 0.7689086
383.60 0.7693184
383.70 0.7696974
383.80 0.7700759
383.90 0.7704539
384.00 0.7708315
384.10 0.7712085
384.20 0.771585
384.30 0.771961
384.40 0.7723347
384.50 0.772706
384.60 0.7730768
384.70 0.7734471
384.80 0.7738345
384.90 0.7742645
385.00 0.7746509
385.10 0.7750345
385.20 0.7754238
385.30 0.7759527
385.40 0.7764001
385.50 0.7767664
385.60 0.7771321
385.70 0.7774974
385.80 0.7778807
385.90 0.7783332
386.00 0.7787465
386.10 0.7791142
386.20 0.7794158
386.30 0.779717
386.40 0.7802087
386.50 0.7805064
386.60 0.7807726
386.70 0.7812795
386.80 0.7817858
386.90 0.7819276
387.00 0.7825329
387.10 0.7826739
387.20 0.7831505
387.30 0.7836815
387.40 0.7838191
387.50 0.7842745
387.60 0.7847876
387.70 0.7851076
387.80 0.7854272
387.90 0.7857463
388.00 0.7860897
388.10 0.7866482
388.20 0.7869509
388.30 0.7873485
388.40 0.7877455
388.50 0.788083
388.60 0.7883821
388.70 0.7888188
388.80 0.7893036
388.90 0.7894605
389.00 0.789984
389.10 0.7904071
389.20 0.7907368
389.30 0.7910594
389.40 0.7915743
389.50 0.7919617
389.60 0.792207
389.70 0.7926202
389.80 0.7930062
389.90 0.7933917
390.00 0.7937766
390.10 0.7941611
390.20 0.7945451
390.30 0.794929
390.40 0.7953129
390.50 0.7956962
390.60 0.7960791
390.70 0.7964614
390.80 0.7967508
390.90 0.7969475
391.00 0.7972927
391.10 0.7977494
391.20 0.7982262
391.30 0.7986901
391.40 0.7990525
391.50 0.7994144
391.60 0.7997758
391.70 0.8001367
391.80 0.8004972
391.90 0.8008076
392.00 0.8011035
392.10 0.8014619
392.20 0.8018048
392.30 0.8020572
392.40 0.8023866
392.50 0.8030007
392.60 0.8031837
392.70 0.8036577
392.80 0.8041312
392.90 0.8044523
393.00 0.8047933
393.10 0.8051416
393.20 0.8054925
393.30 0.8057873
393.40 0.8061063
393.50 0.8065973
393.60 0.8068212
393.70 0.8071538
393.80 0.8076062
393.90 0.8078984
394.00 0.8082289
394.10 0.8087531
394.20 0.8090546
394.30 0.809457
394.40 0.8096982
394.50 0.80993
394.60 0.8103013
394.70 0.8106764
394.80 0.8110673
394.90 0.811456
395.00 0.8118226
395.10 0.812253
395.20 0.8125823
395.30 0.8129661
395.40 0.8133494
395.50 0.8136693
395.60 0.8139654
395.70 0.814277
395.80 0.814631
395.90 0.8149846
396.00 0.8153451
396.10 0.8157391
396.20 0.8160214
396.30 0.8163501
396.40 0.816805
396.50 0.8172592
396.60 0.8173666
396.70 0.8178291
396.80 0.8182881
396.90 0.8185261
397.00 0.8187705
397.10 0.8192218
397.20 0.8194815
397.30 0.8198101
397.40 0.8201568
397.50 0.8205031
397.60 0.8208577
397.70 0.8212998
397.80 0.8217414
397.90 0.8221509
398.00 0.8224747
398.10 0.8227981
398.20 0.8231059
398.30 0.8233963
398.40 0.8236889
398.50 0.8240672
398.60 0.8244056
398.70 0.824699
398.80 0.8249844
398.90 0.8252912
399.00 0.825638
399.10 0.8259788
399.20 0.8263491
399.30 0.8267188
399.40 0.8270881
399.50 0.8274569
399.60 0.8277839
399.70 0.8280952
399.80 0.8284061
399.90 0.8287166
400.00 0.8290285
400.10 0.8293994
400.20 0.8297756
400.30 0.8301075
400.40 0.8304987
400.50 0.8306719
400.60 0.8310923
400.70 0.831356
400.80 0.8317432
400.90 0.8321756
401.00 0.8323687
401.10 0.8327003
401.20 0.833045
401.30 0.833534
401.40 0.8339231
401.50 0.8342587
401.60 0.8345947
401.70 0.8349583
401.80 0.8352826
401.90 0.8355411
402.00 0.8359572
402.10 0.8362031
402.20 0.8364608
402.30 0.8369117
402.40 0.8370979
402.50 0.837568
402.60 0.8378421
402.70 0.8380799
402.80 0.8385031
402.90 0.8387917
403.00 0.8390462
403.10 0.8394346
403.20 0.8397116
403.30 0.8400681
403.40 0.8403857
403.50 0.8407392
403.60 0.8410897
403.70 0.8412863
403.80 0.8415606
403.90 0.8419029
404.00 0.8422316
404.10 0.8426239
404.20 0.8428738
404.30 0.8431234
404.40 0.8435544
404.50 0.8439545
404.60 0.8443693
404.70 0.8444509
404.80 0.8447277
404.90 0.8452782
405.00 0.8453822
405.10 0.8457715
405.20 0.8461835
405.30 0.8465951
405.40 0.8468956
405.50 0.8471957
405.60 0.8474954
405.70 0.8477947
405.80 0.8480937
405.90 0.8483922
406.00 0.8487057
406.10 0.8490189
406.20 0.8493316
406.30 0.8496439
406.40 0.8499669
406.50 0.8503414
406.60 0.8505807
406.70 0.8509446
406.80 0.8512978
406.90 0.8514871
407.00 0.8517922
407.10 0.8520969
407.20 0.8524012
407.30 0.8527051
407.40 0.8530085
407.50 0.8533116
407.60 0.8536143
407.70 0.8539166
407.80 0.8542185
407.90 0.8545198
408.00 0.8548162
408.10 0.8551328
408.20 0.8554737
408.30 0.8557997
408.40 0.8561254
408.50 0.8565601
408.60 0.8568182
408.70 0.8570761
408.80 0.8573415
408.90 0.8576715
409.00 0.8580022
409.10 0.8583324
409.20 0.8586623
409.30 0.8589917
409.40 0.8593189
409.50 0.8595879
409.60 0.8598566
409.70 0.8601369
409.80 0.8604646
409.90 0.8607883
410.00 0.8609976
410.10 0.8613875
410.20 0.8616353
410.30 0.8618473
410.40 0.8620862
410.50 0.8624106
410.60 0.8627345
410.70 0.8630662
410.80 0.8634302
410.90 0.8637937
411.00 0.8641184
411.10 0.8644285
411.20 0.8647383
411.30 0.8650117
411.40 0.8651454
411.50 0.865407
411.60 0.8656682
411.70 0.8659535
411.80 0.866336
411.90 0.8667181
412.00 0.8670997
412.10 0.8671601
412.20 0.8675409
412.30 0.8678705
412.40 0.8680039
412.50 0.8683374
412.60 0.8686022
412.70 0.8689158
412.80 0.8692411
412.90 0.8697262
413.00 0.8697948
413.10 0.8701337
413.20 0.8704722
413.30 0.8708103
413.40 0.871148
413.50 0.8714663
413.60 0.8717211
413.70 0.8720158
413.80 0.8723102
413.90 0.8726041
414.00 0.8728787
414.10 0.8730925
414.20 0.8733441
414.30 0.8737159
414.40 0.8738335
414.50 0.8741338
414.60 0.8744737
414.70 0.8746856
414.80 0.874916
414.90 0.8752063
415.00 0.8754962
415.10 0.8757858
415.20 0.8760697
415.30 0.8763366
415.40 0.8766031
415.50 0.8768723
415.60 0.8772417
415.70 0.8776106
415.80 0.8779385
415.90 0.8781379
416.00 0.878337
416.10 0.8785626
416.20 0.8788946
416.30 0.8792261
416.40 0.8795573
416.50 0.8798842
416.60 0.8800896
416.70 0.8802994
416.80 0.8806642
416.90 0.881022
417.00 0.8812025
417.10 0.8814298
417.20 0.8817897
417.30 0.8821456
417.40 0.8823858
