# Version 2.1 - nm, norm@500 to 1, cut digits, bergeron_He_9500_80.dat_9500
# Wavelength(nm)  Flambda(ergs/cm^s/s/nm)
300.00 1.821813
300.10 1.821657
300.20 1.821494
300.30 1.821336
300.40 1.82122
300.50 1.821103
300.60 1.820986
300.70 1.820869
300.80 1.820751
300.90 1.820634
301.00 1.820516
301.10 1.820397
301.20 1.820279
301.30 1.82016
301.40 1.820041
301.50 1.819922
301.60 1.819803
301.70 1.819683
301.80 1.819563
301.90 1.819443
302.00 1.819322
302.10 1.819186
302.20 1.819047
302.30 1.818909
302.40 1.81877
302.50 1.81863
302.60 1.818491
302.70 1.818351
302.80 1.818212
302.90 1.818072
303.00 1.817931
303.10 1.817791
303.20 1.81765
303.30 1.817509
303.40 1.817361
303.50 1.817214
303.60 1.817066
303.70 1.816918
303.80 1.816769
303.90 1.816621
304.00 1.816472
304.10 1.816323
304.20 1.816174
304.30 1.816025
304.40 1.815876
304.50 1.815726
304.60 1.81555
304.70 1.815371
304.80 1.815191
304.90 1.815012
305.00 1.814832
305.10 1.814652
305.20 1.814472
305.30 1.814292
305.40 1.814112
305.50 1.813932
305.60 1.813751
305.70 1.81357
305.80 1.813389
305.90 1.813208
306.00 1.813027
306.10 1.812846
306.20 1.812664
306.30 1.812483
306.40 1.81232
306.50 1.812162
306.60 1.812004
306.70 1.811846
306.80 1.811688
306.90 1.811529
307.00 1.811371
307.10 1.811212
307.20 1.811053
307.30 1.810894
307.40 1.810734
307.50 1.810575
307.60 1.810415
307.70 1.810255
307.80 1.810095
307.90 1.809935
308.00 1.809775
308.10 1.809614
308.20 1.809453
308.30 1.809293
308.40 1.809131
308.50 1.80897
308.60 1.808809
308.70 1.808647
308.80 1.808365
308.90 1.807739
309.00 1.807558
309.10 1.807377
309.20 1.807195
309.30 1.807013
309.40 1.806832
309.50 1.806657
309.60 1.806481
309.70 1.806305
309.80 1.806128
309.90 1.805952
310.00 1.805775
310.10 1.805598
310.20 1.805422
310.30 1.805245
310.40 1.805071
310.50 1.804901
310.60 1.80473
310.70 1.80456
310.80 1.804389
310.90 1.804219
311.00 1.803964
311.10 1.80371
311.20 1.803456
311.30 1.803219
311.40 1.803031
311.50 1.802842
311.60 1.802654
311.70 1.802465
311.80 1.802276
311.90 1.802088
312.00 1.801899
312.10 1.80171
312.20 1.801327
312.30 1.80107
312.40 1.801036
312.50 1.800735
312.60 1.800485
312.70 1.800234
312.80 1.799984
312.90 1.799758
313.00 1.799559
313.10 1.799361
313.20 1.799162
313.30 1.798955
313.40 1.798726
313.50 1.798497
313.60 1.798268
313.70 1.798039
313.80 1.79781
313.90 1.797581
314.00 1.797352
314.10 1.797152
314.20 1.796951
314.30 1.796751
314.40 1.79655
314.50 1.79635
314.60 1.796149
314.70 1.795948
314.80 1.795723
314.90 1.795452
315.00 1.795205
315.10 1.794946
315.20 1.794687
315.30 1.794427
315.40 1.794168
315.50 1.793909
315.60 1.79365
315.70 1.793335
315.80 1.793021
315.90 1.792707
316.00 1.792393
316.10 1.792243
316.20 1.792093
316.30 1.791942
316.40 1.791465
316.50 1.791314
316.60 1.790837
316.70 1.790686
316.80 1.790535
316.90 1.790384
317.00 1.790233
317.10 1.790082
317.20 1.78993
317.30 1.78955
317.40 1.789214
317.50 1.789003
317.60 1.788792
317.70 1.788581
317.80 1.788369
317.90 1.788097
318.00 1.787627
318.10 1.787313
318.20 1.786999
318.30 1.786685
318.40 1.786413
318.50 1.78626
318.60 1.786275
318.70 1.786026
318.80 1.78555
318.90 1.785172
319.00 1.784851
319.10 1.784698
319.20 1.784515
319.30 1.784248
319.40 1.783981
319.50 1.783713
319.60 1.783259
319.70 1.782992
319.80 1.782725
319.90 1.782457
320.00 1.782245
320.10 1.782091
320.20 1.781763
320.30 1.78145
320.40 1.781168
320.50 1.781141
320.60 1.780681
320.70 1.780526
320.80 1.780295
320.90 1.779981
321.00 1.779668
321.10 1.779354
321.20 1.778888
321.30 1.778659
321.40 1.778431
321.50 1.778202
321.60 1.777973
321.70 1.777745
321.80 1.777506
321.90 1.777256
322.00 1.776602
322.10 1.776364
322.20 1.776125
322.30 1.775886
322.40 1.775647
322.50 1.775408
322.60 1.775169
322.70 1.77493
322.80 1.774496
322.90 1.774235
323.00 1.773973
323.10 1.773711
323.20 1.77345
323.30 1.773188
323.40 1.772926
323.50 1.772665
323.60 1.772403
323.70 1.772141
323.80 1.77188
323.90 1.771618
324.00 1.771192
324.10 1.770767
324.20 1.770341
324.30 1.769951
324.40 1.769678
324.50 1.769426
324.60 1.769175
324.70 1.768923
324.80 1.768671
324.90 1.76842
325.00 1.768168
325.10 1.767916
325.20 1.767674
325.30 1.76745
325.40 1.767227
325.50 1.766966
325.60 1.766659
325.70 1.766353
325.80 1.766046
325.90 1.765717
326.00 1.765365
326.10 1.765013
326.20 1.76466
326.30 1.764246
326.40 1.763653
326.50 1.763377
326.60 1.763102
326.70 1.762826
326.80 1.76255
326.90 1.762274
327.00 1.761999
327.10 1.761723
327.20 1.761447
327.30 1.761172
327.40 1.760896
327.50 1.760621
327.60 1.760345
327.70 1.760069
327.80 1.759794
327.90 1.759419
328.00 1.759026
328.10 1.758742
328.20 1.758457
328.30 1.758172
328.40 1.757887
328.50 1.757521
328.60 1.757135
328.70 1.756749
328.80 1.756387
328.90 1.756088
329.00 1.75579
329.10 1.755492
329.20 1.755193
329.30 1.754895
329.40 1.754597
329.50 1.754299
329.60 1.754001
329.70 1.753702
329.80 1.753404
329.90 1.753106
330.00 1.752737
330.10 1.752282
330.20 1.751826
330.30 1.751371
330.40 1.750991
330.50 1.750693
330.60 1.750395
330.70 1.750097
330.80 1.7498
330.90 1.749502
331.00 1.749204
331.10 1.748907
331.20 1.748609
331.30 1.748311
331.40 1.748014
331.50 1.747699
331.60 1.747363
331.70 1.747027
331.80 1.74668
331.90 1.746332
332.00 1.745985
332.10 1.745637
332.20 1.745289
332.30 1.744942
332.40 1.744595
332.50 1.744248
332.60 1.743901
332.70 1.743554
332.80 1.743207
332.90 1.74286
333.00 1.742513
333.10 1.742171
333.20 1.741834
333.30 1.741497
333.40 1.74116
333.50 1.740823
333.60 1.740486
333.70 1.740149
333.80 1.739812
333.90 1.739476
334.00 1.739139
334.10 1.738794
334.20 1.738438
334.30 1.738083
334.40 1.737727
334.50 1.737372
334.60 1.737016
334.70 1.736607
334.80 1.736176
334.90 1.735808
335.00 1.735441
335.10 1.735392
335.20 1.73494
335.30 1.734809
335.40 1.734357
335.50 1.733905
335.60 1.733454
335.70 1.733265
335.80 1.732814
335.90 1.732428
336.00 1.732123
336.10 1.731818
336.20 1.731512
336.30 1.731185
336.40 1.730832
336.50 1.730478
336.60 1.730125
336.70 1.729772
336.80 1.729419
336.90 1.72902
337.00 1.728566
337.10 1.728111
337.20 1.727657
337.30 1.727247
337.40 1.726899
337.50 1.726552
337.60 1.726205
337.70 1.725857
337.80 1.72551
337.90 1.72516
338.00 1.724807
338.10 1.724453
338.20 1.7241
338.30 1.723746
338.40 1.723387
338.50 1.723013
338.60 1.722639
338.70 1.722266
338.80 1.721892
338.90 1.721519
339.00 1.721145
339.10 1.720772
339.20 1.720399
339.30 1.720121
339.40 1.719978
339.50 1.719718
339.60 1.719316
339.70 1.718914
339.80 1.718511
339.90 1.718109
340.00 1.717707
340.10 1.717306
340.20 1.716904
340.30 1.716503
340.40 1.716102
340.50 1.715701
340.60 1.7153
340.70 1.714899
340.80 1.714487
340.90 1.714056
341.00 1.713653
341.10 1.713282
341.20 1.712911
341.30 1.712541
341.40 1.71217
341.50 1.7118
341.60 1.711429
341.70 1.711059
341.80 1.710702
341.90 1.710361
342.00 1.71002
342.10 1.70968
342.20 1.709207
342.30 1.708853
342.40 1.708598
342.50 1.708257
342.60 1.707916
342.70 1.707575
342.80 1.707233
342.90 1.706892
343.00 1.706505
343.10 1.706062
343.20 1.705619
343.30 1.705176
343.40 1.704773
343.50 1.704429
343.60 1.704085
343.70 1.70374
343.80 1.703396
343.90 1.703052
344.00 1.702671
344.10 1.702235
344.20 1.701799
344.30 1.701363
344.40 1.700928
344.50 1.700493
344.60 1.699845
344.70 1.699687
344.80 1.699514
344.90 1.69908
345.00 1.698433
345.10 1.698275
345.20 1.698006
345.30 1.69758
345.40 1.697154
345.50 1.696715
345.60 1.69627
345.70 1.695837
345.80 1.695404
345.90 1.694972
346.00 1.69454
346.10 1.694108
346.20 1.693698
346.30 1.693321
346.40 1.692945
346.50 1.692568
346.60 1.692192
346.70 1.691815
346.80 1.691439
346.90 1.691063
347.00 1.690687
347.10 1.690312
347.20 1.689919
347.30 1.689503
347.40 1.689086
347.50 1.68867
347.60 1.688254
347.70 1.687838
347.80 1.687422
347.90 1.687007
348.00 1.686591
348.10 1.686176
348.20 1.685761
348.30 1.685346
348.40 1.684932
348.50 1.684518
348.60 1.684103
348.70 1.683877
348.80 1.683603
348.90 1.683177
349.00 1.68275
349.10 1.682324
349.20 1.681898
349.30 1.681473
349.40 1.681047
349.50 1.680622
349.60 1.680197
349.70 1.679772
349.80 1.679347
349.90 1.678923
350.00 1.678498
350.10 1.678074
350.20 1.67765
350.30 1.677246
350.40 1.676868
350.50 1.676491
350.60 1.676114
350.70 1.675737
350.80 1.67536
350.90 1.674983
351.00 1.674606
351.10 1.67423
351.20 1.673854
351.30 1.673477
351.40 1.673073
351.50 1.672619
351.60 1.672165
351.70 1.671712
351.80 1.671258
351.90 1.670805
352.00 1.670352
352.10 1.6699
352.20 1.669639
352.30 1.669315
352.40 1.668868
352.50 1.668421
352.60 1.667974
352.70 1.667527
352.80 1.667081
352.90 1.666635
353.00 1.666189
353.10 1.665744
353.20 1.665298
353.30 1.664853
353.40 1.664408
353.50 1.664039
353.60 1.663688
353.70 1.663337
353.80 1.662987
353.90 1.662614
354.00 1.6622
354.10 1.661787
354.20 1.661374
354.30 1.660962
354.40 1.660549
354.50 1.660137
354.60 1.659725
354.70 1.659313
354.80 1.65888
354.90 1.658417
355.00 1.657955
355.10 1.657492
355.20 1.65703
355.30 1.65658
355.40 1.656129
355.50 1.655679
355.60 1.655229
355.70 1.654754
355.80 1.654268
355.90 1.653956
356.00 1.653612
356.10 1.653185
356.20 1.652758
356.30 1.65233
356.40 1.651904
356.50 1.651477
356.60 1.651051
356.70 1.650624
356.80 1.650198
356.90 1.649773
357.00 1.649347
357.10 1.648922
357.20 1.648496
357.30 1.648072
357.40 1.647633
357.50 1.647169
357.60 1.646705
357.70 1.646242
357.80 1.645787
357.90 1.645333
358.00 1.644899
358.10 1.64447
358.20 1.644041
358.30 1.643612
358.40 1.643184
358.50 1.642756
358.60 1.642328
358.70 1.6419
358.80 1.641473
358.90 1.641046
359.00 1.640607
359.10 1.64015
359.20 1.639689
359.30 1.639213
359.40 1.638736
359.50 1.638346
359.60 1.637978
359.70 1.63761
359.80 1.637275
359.90 1.636941
360.00 1.636569
360.10 1.63613
360.20 1.635692
360.30 1.635255
360.40 1.634817
360.50 1.63438
360.60 1.63366
360.70 1.633258
360.80 1.632856
360.90 1.632454
361.00 1.631872
361.10 1.631527
361.20 1.63107
361.30 1.630669
361.40 1.630243
361.50 1.629868
361.60 1.629147
361.70 1.628748
361.80 1.628379
361.90 1.628066
362.00 1.627752
362.10 1.627248
362.20 1.62673
362.30 1.62627
362.40 1.62581
362.50 1.625351
362.60 1.624891
362.70 1.62436
362.80 1.624184
362.90 1.623784
363.00 1.623384
363.10 1.622944
363.20 1.622505
363.30 1.621702
363.40 1.62143
363.50 1.62091
363.60 1.620514
363.70 1.619899
363.80 1.619724
363.90 1.619305
364.00 1.618886
364.10 1.618468
364.20 1.61805
364.30 1.617475
364.40 1.616862
364.50 1.616473
364.60 1.616078
364.70 1.615683
364.80 1.615288
364.90 1.614895
365.00 1.614502
365.10 1.613864
365.20 1.613471
365.30 1.612833
365.40 1.612442
365.50 1.61205
365.60 1.611659
365.70 1.611223
365.80 1.610787
365.90 1.610214
366.00 1.609606
366.10 1.609207
366.20 1.608808
366.30 1.60841
366.40 1.608012
366.50 1.607651
366.60 1.607267
366.70 1.60676
366.80 1.606253
366.90 1.605771
367.00 1.605334
367.10 1.604896
367.20 1.604459
367.30 1.604023
367.40 1.603586
367.50 1.603017
367.60 1.602414
367.70 1.602053
367.80 1.601692
367.90 1.601331
368.00 1.600868
368.10 1.600476
368.20 1.599989
368.30 1.599501
368.40 1.599012
368.50 1.598524
368.60 1.598036
368.70 1.597548
368.80 1.597061
368.90 1.596747
369.00 1.596267
369.10 1.595667
369.20 1.595287
369.30 1.594903
369.40 1.59452
369.50 1.594137
369.60 1.593513
369.70 1.59289
369.80 1.592544
369.90 1.592201
370.00 1.591858
370.10 1.591365
370.20 1.590742
370.30 1.590122
370.40 1.589744
370.50 1.589596
370.60 1.588983
370.70 1.588602
370.80 1.58822
370.90 1.587838
371.00 1.587223
371.10 1.586607
371.20 1.586226
371.30 1.585844
371.40 1.585155
371.50 1.584743
371.60 1.584333
371.70 1.583922
371.80 1.583511
371.90 1.583101
372.00 1.582525
372.10 1.582351
372.20 1.581816
372.30 1.581282
372.40 1.580748
372.50 1.580214
372.60 1.57968
372.70 1.579147
372.80 1.57877
372.90 1.578392
373.00 1.578019
373.10 1.577646
373.20 1.577036
373.30 1.576427
373.40 1.576052
373.50 1.575678
373.60 1.575305
373.70 1.574931
373.80 1.574191
373.90 1.573715
374.00 1.573225
374.10 1.572735
374.20 1.572246
374.30 1.571757
374.40 1.571502
374.50 1.571013
374.60 1.570522
374.70 1.570035
374.80 1.569548
374.90 1.569061
375.00 1.568691
375.10 1.56832
375.20 1.56795
375.30 1.567447
375.40 1.566944
375.50 1.566441
375.60 1.565939
375.70 1.565437
375.80 1.564936
375.90 1.564435
376.00 1.564062
376.10 1.563634
376.20 1.563207
376.30 1.562779
376.40 1.562352
376.50 1.561892
376.60 1.561381
376.70 1.560871
376.80 1.560363
376.90 1.559857
377.00 1.559353
377.10 1.558848
377.20 1.558366
377.30 1.557971
377.40 1.557575
377.50 1.55718
377.60 1.556655
377.70 1.55613
377.80 1.555606
377.90 1.555082
378.00 1.554887
378.10 1.554391
378.20 1.553887
378.30 1.553383
378.40 1.55288
378.50 1.552378
378.60 1.551875
378.70 1.551373
378.80 1.550871
378.90 1.550377
379.00 1.549897
379.10 1.549444
379.20 1.548992
379.30 1.548578
379.40 1.548202
379.50 1.547827
379.60 1.547428
379.70 1.546985
379.80 1.546502
379.90 1.546019
380.00 1.545537
380.10 1.545055
380.20 1.544573
380.30 1.544092
380.40 1.543611
380.50 1.54313
380.60 1.542487
380.70 1.542088
380.80 1.541689
380.90 1.54129
381.00 1.540892
381.10 1.540365
381.20 1.539726
381.30 1.539369
381.40 1.538724
381.50 1.538379
381.60 1.538001
381.70 1.537494
381.80 1.537138
381.90 1.536334
382.00 1.535978
382.10 1.535623
382.20 1.534999
382.30 1.534645
382.40 1.534234
382.50 1.533737
382.60 1.533241
382.70 1.532819
382.80 1.532405
382.90 1.531917
383.00 1.53143
383.10 1.530943
383.20 1.530442
383.30 1.52989
383.40 1.529367
383.50 1.528888
383.60 1.528563
383.70 1.52806
383.80 1.527556
383.90 1.527054
384.00 1.526551
384.10 1.526049
384.20 1.525547
384.30 1.525046
384.40 1.524554
384.50 1.524071
384.60 1.523588
384.70 1.523106
384.80 1.522667
384.90 1.522343
385.00 1.521932
385.10 1.521513
385.20 1.520829
385.30 1.520263
385.40 1.519741
385.50 1.519261
385.60 1.518781
385.70 1.518302
385.80 1.517866
385.90 1.517594
386.00 1.517221
386.10 1.516735
386.20 1.516119
386.30 1.515504
386.40 1.515243
386.50 1.51464
386.60 1.514114
386.70 1.513769
386.80 1.513096
386.90 1.512643
387.00 1.512299
387.10 1.511955
387.20 1.511174
387.30 1.51083
387.40 1.510487
387.50 1.509902
387.60 1.509434
387.70 1.508982
387.80 1.508531
387.90 1.50808
388.00 1.507561
388.10 1.507219
388.20 1.506581
388.30 1.506081
388.40 1.505581
388.50 1.505119
388.60 1.504645
388.70 1.504263
388.80 1.503693
388.90 1.503191
389.00 1.502851
389.10 1.502257
389.20 1.501928
389.30 1.501478
389.40 1.500929
389.50 1.500437
389.60 1.499953
389.70 1.499286
389.80 1.49881
389.90 1.498335
390.00 1.49786
390.10 1.497385
390.20 1.49691
390.30 1.496461
390.40 1.496041
390.50 1.49562
390.60 1.4952
390.70 1.494781
390.80 1.49431
390.90 1.493788
391.00 1.493145
391.10 1.49259
391.20 1.492112
391.30 1.491791
391.40 1.491314
391.50 1.490837
391.60 1.490361
391.70 1.489884
391.80 1.489409
391.90 1.488987
392.00 1.48854
392.10 1.487966
392.20 1.487375
392.30 1.486761
392.40 1.486307
392.50 1.485953
392.60 1.485621
392.70 1.484939
392.80 1.484533
392.90 1.483936
393.00 1.483632
393.10 1.483261
393.20 1.482805
393.30 1.482263
393.40 1.481702
393.50 1.481292
393.60 1.48062
393.70 1.480291
393.80 1.479577
393.90 1.479248
394.00 1.478882
394.10 1.478232
394.20 1.477696
394.30 1.477237
394.40 1.476761
394.50 1.476399
394.60 1.475886
394.70 1.475364
394.80 1.47481
394.90 1.474263
395.00 1.473923
395.10 1.473472
395.20 1.47307
395.30 1.472598
395.40 1.472127
395.50 1.47158
395.60 1.471007
395.70 1.470459
395.80 1.469979
395.90 1.469499
396.00 1.469042
396.10 1.468729
396.20 1.468196
396.30 1.467608
396.40 1.467284
396.50 1.466893
396.60 1.466221
396.70 1.465899
396.80 1.465329
396.90 1.464838
397.00 1.464516
397.10 1.463778
397.20 1.463457
397.30 1.462791
397.40 1.462316
397.50 1.461841
397.60 1.461369
397.70 1.460928
397.80 1.460488
397.90 1.460048
398.00 1.45961
398.10 1.459172
398.20 1.458675
398.30 1.458112
398.40 1.457554
398.50 1.45714
398.60 1.456495
398.70 1.456033
398.80 1.45564
398.90 1.455235
399.00 1.454811
399.10 1.454107
399.20 1.453662
399.30 1.453217
399.40 1.452772
399.50 1.452327
399.60 1.451868
399.70 1.451403
399.80 1.450939
399.90 1.450475
400.00 1.450003
400.10 1.449279
400.20 1.448964
400.30 1.448498
400.40 1.448098
400.50 1.447611
400.60 1.447037
400.70 1.446519
400.80 1.446189
400.90 1.445539
401.00 1.445226
401.10 1.444505
401.20 1.444105
401.30 1.443777
401.40 1.44327
401.50 1.442702
401.60 1.442139
401.70 1.441734
401.80 1.4411
401.90 1.440595
402.00 1.440087
402.10 1.439761
402.20 1.439451
402.30 1.438735
402.40 1.438425
402.50 1.43771
402.60 1.437401
402.70 1.437091
402.80 1.436377
402.90 1.435826
403.00 1.435315
403.10 1.435047
403.20 1.434344
403.30 1.433943
403.40 1.433632
403.50 1.433196
403.60 1.4327
403.70 1.431991
403.80 1.43169
403.90 1.43121
404.00 1.430668
404.10 1.430361
404.20 1.429854
404.30 1.429347
404.40 1.428641
404.50 1.428335
404.60 1.427629
404.70 1.427324
404.80 1.42663
404.90 1.426314
405.00 1.425923
405.10 1.425419
405.20 1.424858
405.30 1.424298
405.40 1.423861
405.50 1.423424
405.60 1.422988
405.70 1.422552
405.80 1.422117
405.90 1.421681
406.00 1.421141
406.10 1.420601
406.20 1.420061
406.30 1.419522
406.40 1.418979
406.50 1.418677
406.60 1.417979
406.70 1.41753
406.80 1.417142
406.90 1.416687
407.00 1.416189
407.10 1.415691
407.20 1.415193
407.30 1.414696
407.40 1.414199
407.50 1.413702
407.60 1.413206
407.70 1.41271
407.80 1.412214
407.90 1.411719
408.00 1.411242
408.10 1.41092
408.20 1.410528
408.30 1.409965
408.40 1.409402
408.50 1.40914
408.60 1.408586
408.70 1.408032
408.80 1.407514
408.90 1.407204
409.00 1.406666
409.10 1.406129
409.20 1.405592
409.30 1.405056
409.40 1.404523
409.50 1.404114
409.60 1.403704
409.70 1.403276
409.80 1.402771
409.90 1.402261
410.00 1.401577
410.10 1.401218
410.20 1.400722
410.30 1.400191
410.40 1.399686
410.50 1.39926
410.60 1.398834
410.70 1.398389
410.80 1.397865
410.90 1.397342
411.00 1.396865
411.10 1.396405
411.20 1.395946
411.30 1.395509
411.40 1.395156
411.50 1.394615
411.60 1.394074
411.70 1.393544
411.80 1.393061
411.90 1.392539
412.00 1.392249
412.10 1.391574
412.20 1.391284
412.30 1.390675
412.40 1.390321
412.50 1.389702
412.60 1.389303
412.70 1.388805
412.80 1.388281
412.90 1.387739
413.00 1.387473
413.10 1.386954
413.20 1.386435
413.30 1.385916
413.40 1.385398
413.50 1.38493
413.60 1.384586
413.70 1.384013
413.80 1.38344
413.90 1.382867
414.00 1.382317
414.10 1.381841
414.20 1.381548
414.30 1.381034
414.40 1.380673
414.50 1.380083
414.60 1.379463
414.70 1.378988
414.80 1.378514
414.90 1.37804
415.00 1.377566
415.10 1.377093
415.20 1.376631
415.30 1.376205
415.40 1.375779
415.50 1.37535
415.60 1.374824
415.70 1.374299
415.80 1.373801
415.90 1.37339
416.00 1.372979
416.10 1.372554
416.20 1.372076
416.30 1.371599
416.40 1.371121
416.50 1.370644
416.60 1.370175
416.70 1.369701
416.80 1.369044
416.90 1.36859
417.00 1.368108
417.10 1.367457
417.20 1.36699
417.30 1.366526
417.40 1.366137
417.50 1.365748
417.60 1.365306
417.70 1.364658
417.80 1.364193
417.90 1.363728
418.00 1.363263
418.10 1.362798
418.20 1.362334
418.30 1.361864
418.40 1.361262
418.50 1.360815
418.60 1.360368
418.70 1.359921
418.80 1.359475
418.90 1.359028
419.00 1.358582
419.10 1.358137
419.20 1.357691
419.30 1.357244
419.40 1.356729
419.50 1.356213
419.60 1.355697
419.70 1.355177
419.80 1.354657
419.90 1.354151
420.00 1.353688
420.10 1.353226
420.20 1.352764
420.30 1.352302
420.40 1.35184
420.50 1.351379
420.60 1.350918
420.70 1.350457
420.80 1.349996
420.90 1.349535
421.00 1.349026
421.10 1.348519
421.20 1.348018
421.30 1.347536
421.40 1.347054
421.50 1.346573
421.60 1.346092
421.70 1.345612
421.80 1.345131
421.90 1.344657
422.00 1.3442
422.10 1.343731
422.20 1.34321
422.30 1.34269
422.40 1.342172
422.50 1.341703
422.60 1.341235
422.70 1.340768
422.80 1.3403
422.90 1.339833
423.00 1.339366
423.10 1.3389
423.20 1.338433
423.30 1.337967
423.40 1.337502
423.50 1.337036
423.60 1.336571
423.70 1.336106
423.80 1.335642
423.90 1.335178
424.00 1.334714
424.10 1.33425
424.20 1.333787
424.30 1.333324
424.40 1.332826
424.50 1.332345
424.60 1.331864
424.70 1.331384
424.80 1.330904
424.90 1.330424
425.00 1.329945
425.10 1.329466
