# Version 2.1 - nm, norm@500 to 1, cut digits, bergeron_He_18000_75.dat_18000
# Wavelength(nm)  Flambda(ergs/cm^s/s/nm)
300.00 3.732836
300.10 3.730427
300.20 3.727942
300.30 3.725409
300.40 3.722544
300.50 3.719682
300.60 3.716822
300.70 3.713966
300.80 3.711113
300.90 3.708263
301.00 3.705415
301.10 3.702571
301.20 3.699729
301.30 3.696891
301.40 3.694055
301.50 3.691223
301.60 3.688393
301.70 3.685567
301.80 3.682743
301.90 3.679922
302.00 3.677104
302.10 3.67417
302.20 3.671227
302.30 3.668286
302.40 3.665348
302.50 3.662414
302.60 3.659483
302.70 3.656554
302.80 3.653629
302.90 3.650707
303.00 3.647788
303.10 3.644872
303.20 3.641959
303.30 3.639046
303.40 3.636114
303.50 3.633185
303.60 3.630259
303.70 3.627337
303.80 3.624417
303.90 3.6215
304.00 3.618587
304.10 3.615676
304.20 3.612769
304.30 3.609864
304.40 3.606963
304.50 3.604065
304.60 3.601085
304.70 3.598098
304.80 3.595115
304.90 3.592136
305.00 3.589159
305.10 3.586185
305.20 3.583215
305.30 3.580247
305.40 3.577283
305.50 3.574322
305.60 3.571364
305.70 3.568409
305.80 3.565457
305.90 3.562508
306.00 3.559562
306.10 3.55662
306.20 3.55368
306.30 3.550744
306.40 3.547834
306.50 3.544934
306.60 3.542036
306.70 3.539142
306.80 3.536251
306.90 3.533363
307.00 3.530478
307.10 3.527596
307.20 3.524717
307.30 3.521841
307.40 3.518968
307.50 3.516098
307.60 3.513231
307.70 3.510367
307.80 3.507506
307.90 3.504648
308.00 3.501792
308.10 3.49894
308.20 3.496091
308.30 3.493245
308.40 3.490401
308.50 3.487561
308.60 3.484724
308.70 3.481889
308.80 3.478884
308.90 3.475386
309.00 3.472491
309.10 3.469599
309.20 3.466711
309.30 3.463825
309.40 3.460942
309.50 3.458059
309.60 3.455178
309.70 3.4523
309.80 3.449426
309.90 3.446554
310.00 3.443686
310.10 3.44082
310.20 3.437957
310.30 3.435098
310.40 3.432141
310.50 3.42908
310.60 3.426023
310.70 3.422968
310.80 3.419917
310.90 3.416869
311.00 3.413844
311.10 3.410822
311.20 3.407803
311.30 3.404781
311.40 3.401742
311.50 3.398706
311.60 3.395674
311.70 3.392645
311.80 3.389619
311.90 3.386596
312.00 3.383576
312.10 3.38056
312.20 3.377716
312.30 3.37487
312.40 3.371858
312.50 3.369453
312.60 3.366061
312.70 3.362673
312.80 3.359289
312.90 3.356152
313.00 3.353284
313.10 3.350418
313.20 3.347555
313.30 3.344555
313.40 3.341161
313.50 3.33777
313.60 3.334383
313.70 3.331
313.80 3.32762
313.90 3.324244
314.00 3.320872
314.10 3.316992
314.20 3.313117
314.30 3.309246
314.40 3.305379
314.50 3.301516
314.60 3.297658
314.70 3.293804
314.80 3.289908
314.90 3.285832
315.00 3.281706
315.10 3.276606
315.20 3.271512
315.30 3.266424
315.40 3.261342
315.50 3.256265
315.60 3.251194
315.70 3.245378
315.80 3.239568
315.90 3.233765
316.00 3.227969
316.10 3.222929
316.20 3.217894
316.30 3.218854
316.40 3.218316
316.50 3.203573
316.60 3.167928
316.70 3.148754
316.80 3.129603
316.90 3.127629
317.00 3.125656
317.10 3.123684
317.20 3.121715
317.30 3.132573
317.40 3.139721
317.50 3.136349
317.60 3.13298
317.70 3.129614
317.80 3.126252
317.90 3.104784
318.00 3.07622
318.10 3.028028
318.20 2.979897
318.30 2.931825
318.40 2.860092
318.50 2.720979
318.60 2.552499
318.70 2.143223
318.80 1.587232
318.90 2.166457
319.00 2.429144
319.10 2.587959
319.20 2.722204
319.30 2.78696
319.40 2.851634
319.50 2.916228
319.60 2.964454
319.70 2.988575
319.80 3.012665
319.90 3.036725
320.00 3.055681
320.10 3.069121
320.20 3.081377
320.30 3.089905
320.40 3.097606
320.50 3.102089
320.60 3.106391
320.70 3.109552
320.80 3.111834
320.90 3.113168
321.00 3.114499
321.10 3.115828
321.20 3.117365
321.30 3.11668
321.40 3.115995
321.50 3.115311
321.60 3.114626
321.70 3.113942
321.80 3.113127
321.90 3.11217
322.00 3.110517
322.10 3.109125
322.20 3.107734
322.30 3.106344
322.40 3.104955
322.50 3.103567
322.60 3.10218
322.70 3.100794
322.80 3.099152
322.90 3.097233
323.00 3.095316
323.10 3.0934
323.20 3.091486
323.30 3.089574
323.40 3.087663
323.50 3.085755
323.60 3.083848
323.70 3.081943
323.80 3.080039
323.90 3.078138
324.00 3.075857
324.10 3.073578
324.20 3.071301
324.30 3.069125
324.40 3.067066
324.50 3.064827
324.60 3.062591
324.70 3.060356
324.80 3.058124
324.90 3.055894
325.00 3.053666
325.10 3.051441
325.20 3.04917
325.30 3.046803
325.40 3.044437
325.50 3.042136
325.60 3.039912
325.70 3.03769
325.80 3.03547
325.90 3.033262
326.00 3.031067
326.10 3.028875
326.20 3.026685
326.30 3.024583
326.40 3.02273
326.50 3.020492
326.60 3.018256
326.70 3.016021
326.80 3.01379
326.90 3.01156
327.00 3.009332
327.10 3.007107
327.20 3.004884
327.30 3.002663
327.40 3.000444
327.50 2.998227
327.60 2.996012
327.70 2.9938
327.80 2.99159
327.90 2.988916
328.00 2.985676
328.10 2.982357
328.20 2.979041
328.30 2.975729
328.40 2.97242
328.50 2.970327
328.60 2.968519
328.70 2.966713
328.80 2.964878
328.90 2.962959
329.00 2.961041
329.10 2.959124
329.20 2.95721
329.30 2.955297
329.40 2.953386
329.50 2.951477
329.60 2.949569
329.70 2.947664
329.80 2.94576
329.90 2.943858
330.00 2.941698
330.10 2.939223
330.20 2.936751
330.30 2.934282
330.40 2.931967
330.50 2.92982
330.60 2.927675
330.70 2.925533
330.80 2.923392
330.90 2.921253
331.00 2.919116
331.10 2.916982
331.20 2.914849
331.30 2.912719
331.40 2.91059
331.50 2.908384
331.60 2.906083
331.70 2.903785
331.80 2.901336
331.90 2.898883
332.00 2.896433
332.10 2.893986
332.20 2.89154
332.30 2.889097
332.40 2.886657
332.50 2.884219
332.60 2.881783
332.70 2.87935
332.80 2.876919
332.90 2.874491
333.00 2.872065
333.10 2.869348
333.20 2.866277
333.30 2.863209
333.40 2.860144
333.50 2.857083
333.60 2.854024
333.70 2.850969
333.80 2.847917
333.90 2.844868
334.00 2.841822
334.10 2.838276
334.20 2.834119
334.30 2.829966
334.40 2.825818
334.50 2.821675
334.60 2.817536
334.70 2.812769
334.80 2.806305
334.90 2.798513
335.00 2.790729
335.10 2.781512
335.20 2.771854
335.30 2.761308
335.40 2.749176
335.50 2.759181
335.60 2.766514
335.70 2.772541
335.80 2.776868
335.90 2.779994
336.00 2.781656
336.10 2.783316
336.20 2.784973
336.30 2.785436
336.40 2.784442
336.50 2.783449
336.60 2.782456
336.70 2.781464
336.80 2.780473
336.90 2.77948
337.00 2.778483
337.10 2.777488
337.20 2.776493
337.30 2.775231
337.40 2.773586
337.50 2.771943
337.60 2.770301
337.70 2.76866
337.80 2.767021
337.90 2.765384
338.00 2.763748
338.10 2.762113
338.20 2.76048
338.30 2.758848
338.40 2.757133
338.50 2.755209
338.60 2.753288
338.70 2.751368
338.80 2.749451
338.90 2.747534
339.00 2.74562
339.10 2.743708
339.20 2.741797
339.30 2.739736
339.40 2.737458
339.50 2.735212
339.60 2.733004
339.70 2.730798
339.80 2.728594
339.90 2.726392
340.00 2.724193
340.10 2.721995
340.20 2.719799
340.30 2.717606
340.40 2.715415
340.50 2.713226
340.60 2.711039
340.70 2.708854
340.80 2.706644
340.90 2.704399
341.00 2.702089
341.10 2.699701
341.20 2.697314
341.30 2.69493
341.40 2.692549
341.50 2.690169
341.60 2.687792
341.70 2.685417
341.80 2.682863
341.90 2.680087
342.00 2.677315
342.10 2.674546
342.20 2.67138
342.30 2.667709
342.40 2.664363
342.50 2.661094
342.60 2.657827
342.70 2.654565
342.80 2.651305
342.90 2.648049
343.00 2.644289
343.10 2.639913
343.20 2.635542
343.30 2.631176
343.40 2.626238
343.50 2.620478
343.60 2.614724
343.70 2.608976
343.80 2.603235
343.90 2.597499
344.00 2.589608
344.10 2.578616
344.20 2.567635
344.30 2.556668
344.40 2.540794
344.50 2.517864
344.60 2.492021
344.70 2.450835
344.80 2.486012
344.90 2.509848
345.00 2.532052
345.10 2.543161
345.20 2.552238
345.30 2.558399
345.40 2.564553
345.50 2.568894
345.60 2.570656
345.70 2.571884
345.80 2.573111
345.90 2.574336
346.00 2.575559
346.10 2.57678
346.20 2.577094
346.30 2.576106
346.40 2.575118
346.50 2.574131
346.60 2.573144
346.70 2.572159
346.80 2.571174
346.90 2.570189
347.00 2.569206
347.10 2.568223
347.20 2.567037
347.30 2.565559
347.40 2.564082
347.50 2.562606
347.60 2.561132
347.70 2.559659
347.80 2.558188
347.90 2.556717
348.00 2.555248
348.10 2.55378
348.20 2.552313
348.30 2.550848
348.40 2.549384
348.50 2.547921
348.60 2.546459
348.70 2.544999
348.80 2.543506
348.90 2.541967
349.00 2.540428
349.10 2.538891
349.20 2.537355
349.30 2.535821
349.40 2.534288
349.50 2.532756
349.60 2.531225
349.70 2.529696
349.80 2.528168
349.90 2.526642
350.00 2.525117
350.10 2.523593
350.20 2.522071
350.30 2.520538
350.40 2.518989
350.50 2.517441
350.60 2.515895
350.70 2.51435
350.80 2.512807
350.90 2.511265
351.00 2.509724
351.10 2.508185
351.20 2.506647
351.30 2.50511
351.40 2.503614
351.50 2.50219
351.60 2.500767
351.70 2.499345
351.80 2.497924
351.90 2.496505
352.00 2.495086
352.10 2.493669
352.20 2.492253
352.30 2.490881
352.40 2.489572
352.50 2.488263
352.60 2.486956
352.70 2.48565
352.80 2.484344
352.90 2.48304
353.00 2.481737
353.10 2.480435
353.20 2.479134
353.30 2.477834
353.40 2.476535
353.50 2.475155
353.60 2.473755
353.70 2.472357
353.80 2.470959
353.90 2.469659
354.00 2.468531
354.10 2.467404
354.20 2.466278
354.30 2.465153
354.40 2.464028
354.50 2.462905
354.60 2.461782
354.70 2.46066
354.80 2.459541
354.90 2.458424
355.00 2.457309
355.10 2.456195
355.20 2.455081
355.30 2.453975
355.40 2.452869
355.50 2.451764
355.60 2.45066
355.70 2.449368
355.80 2.447991
355.90 2.446616
356.00 2.445438
356.10 2.44431
356.20 2.443183
356.30 2.442057
356.40 2.440931
356.50 2.439807
356.60 2.438684
356.70 2.437561
356.80 2.436439
356.90 2.435318
357.00 2.434199
357.10 2.433079
357.20 2.431961
357.30 2.430844
357.40 2.42964
357.50 2.428281
357.60 2.426923
357.70 2.425566
357.80 2.42421
357.90 2.422856
358.00 2.421144
358.10 2.419345
358.20 2.417547
358.30 2.41575
358.40 2.413956
358.50 2.412163
358.60 2.410371
358.70 2.408582
358.80 2.406793
358.90 2.405007
359.00 2.402819
359.10 2.399919
359.20 2.39703
359.30 2.394202
359.40 2.391377
359.50 2.387761
359.60 2.383951
359.70 2.380145
359.80 2.37444
359.90 2.36874
360.00 2.361833
360.10 2.352778
360.20 2.343733
360.30 2.334697
360.40 2.325671
360.50 2.316654
360.60 2.299765
360.70 2.277767
360.80 2.255794
360.90 2.233845
361.00 2.206806
361.10 2.157129
361.20 2.094067
361.30 1.960724
361.40 2.075351
361.50 2.182515
361.60 2.219797
361.70 2.224295
361.80 2.23075
361.90 2.240685
362.00 2.250609
362.10 2.25604
362.20 2.257445
362.30 2.253697
362.40 2.249952
362.50 2.246211
362.60 2.242474
362.70 2.235678
362.80 2.226986
362.90 2.212745
363.00 2.198519
363.10 2.180743
363.20 2.162952
363.30 2.147096
363.40 2.141662
363.50 2.15607
363.60 2.182642
363.70 2.201635
363.80 2.215892
363.90 2.225715
364.00 2.235528
364.10 2.24533
364.20 2.25512
364.30 2.265115
364.40 2.275152
364.50 2.282994
364.60 2.288854
364.70 2.294707
364.80 2.300554
364.90 2.30323
365.00 2.305904
365.10 2.304079
365.20 2.295517
365.30 2.291455
365.40 2.299736
365.50 2.306887
365.60 2.31403
365.70 2.318364
365.80 2.322694
365.90 2.325526
366.00 2.327983
366.10 2.328908
366.20 2.329832
366.30 2.330754
366.40 2.331675
366.50 2.331659
366.60 2.331514
366.70 2.330664
366.80 2.329815
366.90 2.328455
367.00 2.326186
367.10 2.323919
367.20 2.321655
367.30 2.319392
367.40 2.317132
367.50 2.3137
367.60 2.309978
367.70 2.304932
367.80 2.299891
367.90 2.294855
368.00 2.289475
368.10 2.283851
368.20 2.275402
368.30 2.26693
368.40 2.258467
368.50 2.250014
368.60 2.241569
368.70 2.233132
368.80 2.224705
368.90 2.215345
369.00 2.203915
369.10 2.192395
369.20 2.180115
369.30 2.164658
369.40 2.149216
369.50 2.133791
369.60 2.113544
369.70 2.093318
369.80 2.066499
369.90 2.039642
370.00 2.012813
370.10 1.982899
370.20 1.938725
370.30 1.894531
370.40 1.847197
370.50 1.824077
370.60 1.876203
370.70 1.937973
370.80 1.980287
370.90 2.022554
371.00 2.037597
371.10 2.052349
371.20 2.065845
371.30 2.079327
371.40 2.094235
371.50 2.107052
371.60 2.119856
371.70 2.132646
371.80 2.145421
371.90 2.158182
372.00 2.169067
372.10 2.17872
372.20 2.185117
372.30 2.191508
372.40 2.197892
372.50 2.204268
372.60 2.210637
372.70 2.216999
372.80 2.220099
372.90 2.223196
373.00 2.22526
373.10 2.227312
373.20 2.222892
373.30 2.218477
373.40 2.177004
373.50 2.166175
373.60 2.188624
373.70 2.207295
373.80 2.219279
373.90 2.230648
374.00 2.236148
374.10 2.241642
374.20 2.247129
374.30 2.25261
374.40 2.255414
374.50 2.258697
374.60 2.260721
374.70 2.262723
374.80 2.264723
374.90 2.26672
375.00 2.267286
375.10 2.267852
375.20 2.268416
375.30 2.267967
375.40 2.267518
375.50 2.267069
375.60 2.266621
375.70 2.266172
375.80 2.265724
375.90 2.265276
376.00 2.264071
376.10 2.262639
376.20 2.261206
376.30 2.259773
376.40 2.258343
376.50 2.256568
376.60 2.254277
376.70 2.251988
376.80 2.24951
376.90 2.246841
377.00 2.244176
377.10 2.241513
377.20 2.238679
377.30 2.235198
377.40 2.23172
377.50 2.228246
377.60 2.223641
377.70 2.219039
377.80 2.214443
377.90 2.209851
378.00 2.205608
378.10 2.199254
378.20 2.192879
378.30 2.186511
378.40 2.18015
378.50 2.173795
378.60 2.167446
378.70 2.161103
378.80 2.154767
378.90 2.147821
379.00 2.139736
379.10 2.131103
379.20 2.122479
379.30 2.113079
379.40 2.102902
379.50 2.092736
379.60 2.082358
379.70 2.070755
379.80 2.055769
379.90 2.040799
380.00 2.025844
380.10 2.010905
380.20 1.995981
380.30 1.981072
380.40 1.966179
380.50 1.951302
380.60 1.929458
380.70 1.905191
380.80 1.88095
380.90 1.856734
381.00 1.832543
381.10 1.802576
381.20 1.770493
381.30 1.73546
381.40 1.693471
381.50 1.644557
381.60 1.589655
381.70 1.525141
381.80 1.460103
381.90 1.397719
382.00 1.349771
382.10 1.463453
382.20 1.561021
382.30 1.638091
382.40 1.701422
382.50 1.744208
382.60 1.78695
382.70 1.821033
382.80 1.837492
382.90 1.846058
383.00 1.854614
383.10 1.863162
383.20 1.873135
383.30 1.888492
383.40 1.903417
383.50 1.917701
383.60 1.932001
383.70 1.942656
383.80 1.953299
383.90 1.963931
384.00 1.974552
384.10 1.985161
384.20 1.995759
384.30 2.006346
384.40 2.015246
384.50 2.022464
384.60 2.029674
384.70 2.036876
384.80 2.043819
384.90 2.049316
385.00 2.05389
385.10 2.058456
385.20 2.062232
385.30 2.065259
385.40 2.067528
385.50 2.06904
385.60 2.07055
385.70 2.072058
385.80 2.073517
385.90 2.074795
386.00 2.075252
386.10 2.074547
386.20 2.070371
386.30 2.066198
386.40 2.059614
386.50 2.047118
386.60 2.02637
386.70 1.969981
386.80 1.806029
386.90 1.89465
387.00 1.93895
387.10 1.961339
387.20 1.977106
387.30 1.988196
387.40 1.996607
387.50 2.001783
387.60 2.004541
387.70 2.001515
387.80 1.99849
387.90 1.995469
388.00 1.990196
388.10 1.975257
388.20 1.946673
388.30 1.909088
388.40 1.871542
388.50 1.819708
388.60 1.73339
388.70 1.596169
388.80 1.315975
388.90 1.167056
389.00 1.464192
389.10 1.624704
389.20 1.726215
389.30 1.797581
389.40 1.849847
389.50 1.895064
389.60 1.928285
389.70 1.951508
389.80 1.966434
389.90 1.981344
390.00 1.996238
390.10 2.011117
390.20 2.02598
390.30 2.036337
390.40 2.041622
390.50 2.0469
390.60 2.052174
390.70 2.057441
390.80 2.061208
390.90 2.063476
391.00 2.065791
391.10 2.066636
391.20 2.067358
391.30 2.066773
391.40 2.065228
391.50 2.063684
391.60 2.062142
391.70 2.060601
391.80 2.059062
391.90 2.057324
392.00 2.054884
392.10 2.051727
392.20 2.048466
392.30 2.044117
392.40 2.039814
392.50 2.036542
392.60 2.031618
392.70 2.027038
392.80 2.026977
392.90 2.02915
393.00 2.031728
393.10 2.033598
393.20 2.034655
393.30 2.035557
393.40 2.036525
393.50 2.036216
393.60 2.033997
393.70 2.032215
393.80 2.032149
393.90 2.031117
394.00 2.029946
394.10 2.027402
394.20 2.024905
394.30 2.021888
394.40 2.017949
394.50 2.013394
394.60 2.007
394.70 2.000258
394.80 1.992192
394.90 1.984069
395.00 1.973865
395.10 1.963233
395.20 1.949989
395.30 1.936201
395.40 1.922427
395.50 1.902374
395.60 1.880014
395.70 1.853949
395.80 1.817834
395.90 1.781756
396.00 1.744054
396.10 1.681267
396.20 1.595973
396.30 1.49686
396.40 1.291139
396.50 1.383916
396.60 1.663075
396.70 1.739719
396.80 1.735969
396.90 1.722508
397.00 1.762886
397.10 1.838778
397.20 1.872189
397.30 1.872455
397.40 1.875986
397.50 1.879514
397.60 1.883059
397.70 1.886814
397.80 1.890564
397.90 1.89359
398.00 1.894665
398.10 1.895738
398.20 1.895677
398.30 1.894339
398.40 1.892947
398.50 1.889821
398.60 1.886805
398.70 1.882069
398.80 1.876897
398.90 1.871501
399.00 1.865684
399.10 1.858447
399.20 1.850187
399.30 1.841934
399.40 1.83369
399.50 1.825454
399.60 1.815281
399.70 1.804398
399.80 1.793527
399.90 1.782666
400.00 1.771748
400.10 1.758626
400.20 1.745079
400.30 1.729595
400.40 1.71396
400.50 1.698591
400.60 1.680472
400.70 1.662375
400.80 1.642506
400.90 1.616839
401.00 1.598136
401.10 1.588029
401.20 1.577421
401.30 1.564899
401.40 1.547263
401.50 1.527909
401.60 1.508317
401.70 1.480434
401.80 1.449799
401.90 1.412833
402.00 1.37311
402.10 1.324735
402.20 1.270413
402.30 1.207642
402.40 1.141724
402.50 1.079872
402.60 1.019418
402.70 1.042778
402.80 1.123499
402.90 1.204325
403.00 1.283503
403.10 1.349512
403.20 1.403684
403.30 1.44974
403.40 1.49126
403.50 1.525748
403.60 1.558401
403.70 1.586297
403.80 1.610006
403.90 1.629554
404.00 1.64781
404.10 1.660206
404.20 1.667636
404.30 1.675058
404.40 1.672648
404.50 1.649143
404.60 1.636891
404.70 1.647057
404.80 1.660353
404.90 1.672838
405.00 1.684267
405.10 1.694918
405.20 1.705485
405.30 1.716041
405.40 1.724764
405.50 1.733478
405.60 1.742183
405.70 1.75088
405.80 1.759567
405.90 1.768246
406.00 1.774506
406.10 1.780759
406.20 1.787006
406.30 1.793246
406.40 1.799448
406.50 1.805421
406.60 1.810181
406.70 1.814441
406.80 1.818852
406.90 1.823916
407.00 1.826998
407.10 1.830077
407.20 1.833153
407.30 1.836226
407.40 1.839295
407.50 1.842362
407.60 1.845424
407.70 1.848484
407.80 1.851541
407.90 1.854549
408.00 1.856098
408.10 1.857604
408.20 1.859018
408.30 1.860449
408.40 1.861878
408.50 1.863393
408.60 1.864033
408.70 1.864672
408.80 1.865254
408.90 1.86533
409.00 1.865278
409.10 1.865225
409.20 1.865172
409.30 1.865118
409.40 1.865049
409.50 1.864454
409.60 1.863859
409.70 1.863201
409.80 1.862292
409.90 1.861358
410.00 1.859585
410.10 1.857936
410.20 1.856047
410.30 1.8541
410.40 1.851913
410.50 1.848964
410.60 1.846018
410.70 1.842692
410.80 1.837842
410.90 1.832997
411.00 1.826638
411.10 1.819724
411.20 1.812816
411.30 1.805454
411.40 1.796093
411.50 1.781468
411.60 1.766856
411.70 1.748821
411.80 1.717057
411.90 1.680028
412.00 1.589207
412.10 1.269823
412.20 1.387554
412.30 1.484121
412.40 1.545975
412.50 1.584351
412.60 1.613749
412.70 1.633232
412.80 1.650226
412.90 1.66605
413.00 1.673181
413.10 1.673764
413.20 1.674347
413.30 1.674928
413.40 1.675509
413.50 1.675081
413.60 1.669555
413.70 1.660653
413.80 1.651759
413.90 1.642873
414.00 1.633
414.10 1.619983
414.20 1.604149
414.30 1.569866
414.40 1.540325
414.50 1.55172
414.60 1.577703
414.70 1.600893
414.80 1.622076
414.90 1.636956
415.00 1.651822
415.10 1.666673
415.20 1.680095
415.30 1.689025
415.40 1.697947
415.50 1.70681
415.60 1.71407
415.70 1.721323
415.80 1.728204
415.90 1.733925
416.00 1.739639
416.10 1.744869
416.20 1.748178
416.30 1.751483
416.40 1.754786
416.50 1.758012
416.60 1.758894
416.70 1.759723
416.80 1.757007
416.90 1.738634
417.00 1.736612
417.10 1.748834
417.20 1.75574
417.30 1.762554
417.40 1.76657
417.50 1.770582
417.60 1.774206
417.70 1.776285
417.80 1.778152
417.90 1.780017
418.00 1.78188
418.10 1.783741
418.20 1.7856
418.30 1.787441
418.40 1.788635
418.50 1.789451
418.60 1.790267
418.70 1.791082
418.80 1.791896
418.90 1.792708
419.00 1.79352
419.10 1.794331
419.20 1.795141
419.30 1.795927
419.40 1.795973
419.50 1.796019
419.60 1.796
419.70 1.795719
419.80 1.795437
419.90 1.795138
420.00 1.794783
420.10 1.794427
420.20 1.794072
420.30 1.793716
420.40 1.793361
420.50 1.793006
420.60 1.792651
420.70 1.792296
420.80 1.791942
420.90 1.791581
421.00 1.791034
421.10 1.790488
421.20 1.789865
421.30 1.789016
421.40 1.788167
421.50 1.787318
421.60 1.786471
421.70 1.785623
421.80 1.784777
421.90 1.783931
422.00 1.783086
422.10 1.782241
422.20 1.781397
422.30 1.780553
422.40 1.779704
422.50 1.778649
422.60 1.777596
422.70 1.776543
422.80 1.775491
422.90 1.77444
423.00 1.773389
423.10 1.77234
423.20 1.771291
423.30 1.770243
423.40 1.769196
423.50 1.76815
423.60 1.767104
423.70 1.766059
423.80 1.765015
423.90 1.763972
424.00 1.762929
424.10 1.761888
424.20 1.760847
424.30 1.759807
424.40 1.75881
424.50 1.75773
424.60 1.75665
424.70 1.755571
424.80 1.754493
424.90 1.753416
