# Version 2.1 - nm, norm@500 to 1, cut digits, bergeron_He_9000_80.dat_9000
# Wavelength(nm)  Flambda(ergs/cm^s/s/nm)
300.00 1.648548
300.10 1.648677
300.20 1.648816
300.30 1.648935
300.40 1.648929
300.50 1.648923
300.60 1.648916
300.70 1.648909
300.80 1.648902
300.90 1.648894
301.00 1.648886
301.10 1.648878
301.20 1.648869
301.30 1.64886
301.40 1.648851
301.50 1.648841
301.60 1.648831
301.70 1.64882
301.80 1.648809
301.90 1.648798
302.00 1.648787
302.10 1.648814
302.20 1.648845
302.30 1.648876
302.40 1.648906
302.50 1.648936
302.60 1.648965
302.70 1.648995
302.80 1.649023
302.90 1.649052
303.00 1.64908
303.10 1.649107
303.20 1.649134
303.30 1.64916
303.40 1.649172
303.50 1.649184
303.60 1.649196
303.70 1.649207
303.80 1.649218
303.90 1.649228
304.00 1.649238
304.10 1.649248
304.20 1.649258
304.30 1.649267
304.40 1.649275
304.50 1.649284
304.60 1.649301
304.70 1.649318
304.80 1.649336
304.90 1.649353
305.00 1.64937
305.10 1.649386
305.20 1.649402
305.30 1.649417
305.40 1.649432
305.50 1.649447
305.60 1.649462
305.70 1.649476
305.80 1.649489
305.90 1.649503
306.00 1.649515
306.10 1.649528
306.20 1.64954
306.30 1.649552
306.40 1.649526
306.50 1.649489
306.60 1.649451
306.70 1.649413
306.80 1.649375
306.90 1.649336
307.00 1.649298
307.10 1.649258
307.20 1.649219
307.30 1.649179
307.40 1.649139
307.50 1.649099
307.60 1.649058
307.70 1.649017
307.80 1.648976
307.90 1.648935
308.00 1.648893
308.10 1.648851
308.20 1.648808
308.30 1.648766
308.40 1.648723
308.50 1.648679
308.60 1.648636
308.70 1.648592
308.80 1.648616
308.90 1.648832
309.00 1.648763
309.10 1.648693
309.20 1.648623
309.30 1.648553
309.40 1.648484
309.50 1.648419
309.60 1.648354
309.70 1.648289
309.80 1.648224
309.90 1.648159
310.00 1.648093
310.10 1.648027
310.20 1.647961
310.30 1.647894
310.40 1.647841
310.50 1.647802
310.60 1.647763
310.70 1.647723
310.80 1.647684
310.90 1.647643
311.00 1.647651
311.10 1.647657
311.20 1.647664
311.30 1.647644
311.40 1.647553
311.50 1.64746
311.60 1.647368
311.70 1.647275
311.80 1.647183
311.90 1.647089
312.00 1.646996
312.10 1.646903
312.20 1.646617
312.30 1.646617
312.40 1.646881
312.50 1.646787
312.60 1.646583
312.70 1.646378
312.80 1.646174
312.90 1.6461
313.00 1.646168
313.10 1.646236
313.20 1.646304
313.30 1.646333
313.40 1.646257
313.50 1.64618
313.60 1.646103
313.70 1.646025
313.80 1.645948
313.90 1.64587
314.00 1.645792
314.10 1.645654
314.20 1.645515
314.30 1.645377
314.40 1.645238
314.50 1.645099
314.60 1.64496
314.70 1.64482
314.80 1.644705
314.90 1.644684
315.00 1.644691
315.10 1.644554
315.20 1.644416
315.30 1.644279
315.40 1.644141
315.50 1.644004
315.60 1.643866
315.70 1.643792
315.80 1.643719
315.90 1.643645
316.00 1.64357
316.10 1.643689
316.20 1.643807
316.30 1.643539
316.40 1.643657
316.50 1.643388
316.60 1.643505
316.70 1.643237
316.80 1.642968
316.90 1.642892
317.00 1.642815
317.10 1.642739
317.20 1.642662
317.30 1.642507
317.40 1.642358
317.50 1.642222
317.60 1.642086
317.70 1.641949
317.80 1.641813
317.90 1.641785
318.00 1.641522
318.10 1.641444
318.20 1.641365
318.30 1.641285
318.40 1.641255
318.50 1.641366
318.60 1.64118
318.70 1.640909
318.80 1.640639
318.90 1.640483
319.00 1.640395
319.10 1.640504
319.20 1.640525
319.30 1.640298
319.40 1.640072
319.50 1.639845
319.60 1.640198
319.70 1.639971
319.80 1.639744
319.90 1.639517
320.00 1.639269
320.10 1.638998
320.20 1.639118
320.30 1.638847
320.40 1.638576
320.50 1.63883
320.60 1.638574
320.70 1.638677
320.80 1.638601
320.90 1.638329
321.00 1.638057
321.10 1.637785
321.20 1.638138
321.30 1.638024
321.40 1.637909
321.50 1.637794
321.60 1.63768
321.70 1.637565
321.80 1.637258
321.90 1.636744
322.00 1.636905
322.10 1.636721
322.20 1.636537
322.30 1.636353
322.40 1.636169
322.50 1.635985
322.60 1.635801
322.70 1.635617
322.80 1.635998
322.90 1.635839
323.00 1.63568
323.10 1.635521
323.20 1.635362
323.30 1.635203
323.40 1.635043
323.50 1.634884
323.60 1.634724
323.70 1.634565
323.80 1.634405
323.90 1.634245
324.00 1.634022
324.10 1.6338
324.20 1.633577
324.30 1.633395
324.40 1.633309
324.50 1.6332
324.60 1.633091
324.70 1.632982
324.80 1.632873
324.90 1.632764
325.00 1.632655
325.10 1.632545
325.20 1.632393
325.30 1.632152
325.40 1.631911
325.50 1.63174
325.60 1.631654
325.70 1.631569
325.80 1.631483
325.90 1.631288
326.00 1.630976
326.10 1.630663
326.20 1.630351
326.30 1.630159
326.40 1.63031
326.50 1.630109
326.60 1.629908
326.70 1.629707
326.80 1.629506
326.90 1.629305
327.00 1.629104
327.10 1.628902
327.20 1.628701
327.30 1.6285
327.40 1.628298
327.50 1.628097
327.60 1.627895
327.70 1.627694
327.80 1.627492
327.90 1.627579
328.00 1.627701
328.10 1.627481
328.20 1.627262
328.30 1.627042
328.40 1.626822
328.50 1.626631
328.60 1.626446
328.70 1.626261
328.80 1.626072
328.90 1.625868
329.00 1.625665
329.10 1.625461
329.20 1.625257
329.30 1.625054
329.40 1.62485
329.50 1.624646
329.60 1.624442
329.70 1.624238
329.80 1.624034
329.90 1.62383
330.00 1.623677
330.10 1.623585
330.20 1.623493
330.30 1.623401
330.40 1.623251
330.50 1.623037
330.60 1.622823
330.70 1.62261
330.80 1.622396
330.90 1.622182
331.00 1.621968
331.10 1.621754
331.20 1.621541
331.30 1.621327
331.40 1.621113
331.50 1.620936
331.60 1.620803
331.70 1.620671
331.80 1.620475
331.90 1.620277
332.00 1.620078
332.10 1.619879
332.20 1.619681
332.30 1.619482
332.40 1.619283
332.50 1.619084
332.60 1.618885
332.70 1.618686
332.80 1.618487
332.90 1.618287
333.00 1.618088
333.10 1.617886
333.20 1.617679
333.30 1.617473
333.40 1.617266
333.50 1.61706
333.60 1.616853
333.70 1.616646
333.80 1.61644
333.90 1.616233
334.00 1.616026
334.10 1.615788
334.20 1.615512
334.30 1.615236
334.40 1.61496
334.50 1.614684
334.60 1.614409
334.70 1.614419
334.80 1.614451
334.90 1.614012
335.00 1.613574
335.10 1.613717
335.20 1.613441
335.30 1.612942
335.40 1.61301
335.50 1.612991
335.60 1.612715
335.70 1.612216
335.80 1.612283
335.90 1.612195
336.00 1.611919
336.10 1.611643
336.20 1.611367
336.30 1.611091
336.40 1.610815
336.50 1.610539
336.60 1.610263
336.70 1.609988
336.80 1.609712
336.90 1.609509
337.00 1.609395
337.10 1.60928
337.20 1.609166
337.30 1.608987
337.40 1.608716
337.50 1.608445
337.60 1.608173
337.70 1.607902
337.80 1.607631
337.90 1.607408
338.00 1.607242
338.10 1.607076
338.20 1.60691
338.30 1.606745
338.40 1.606549
338.50 1.606283
338.60 1.606016
338.70 1.60575
338.80 1.605483
338.90 1.605217
339.00 1.60495
339.10 1.604684
339.20 1.604418
339.30 1.604153
339.40 1.603892
339.50 1.603646
339.60 1.60342
339.70 1.603194
339.80 1.602968
339.90 1.602742
340.00 1.602516
340.10 1.60229
340.20 1.602064
340.30 1.601838
340.40 1.601612
340.50 1.601386
340.60 1.60116
340.70 1.600934
340.80 1.600693
340.90 1.600432
341.00 1.600164
341.10 1.599889
341.20 1.599614
341.30 1.599339
341.40 1.599065
341.50 1.59879
341.60 1.598515
341.70 1.598241
341.80 1.598018
341.90 1.59786
342.00 1.597702
342.10 1.597544
342.20 1.597231
342.30 1.596676
342.40 1.59634
342.50 1.596181
342.60 1.596021
342.70 1.595862
342.80 1.595702
342.90 1.595542
343.00 1.595328
343.10 1.595047
343.20 1.594766
343.30 1.594485
343.40 1.594207
343.50 1.593933
343.60 1.593659
343.70 1.593385
343.80 1.593111
343.90 1.592837
344.00 1.592563
344.10 1.592289
344.20 1.592016
344.30 1.591742
344.40 1.591468
344.50 1.591195
344.60 1.590671
344.70 1.590722
344.80 1.590124
344.90 1.590175
345.00 1.589827
345.10 1.589554
345.20 1.589284
345.30 1.58902
345.40 1.588755
345.50 1.588476
345.60 1.588188
345.70 1.587915
345.80 1.587642
345.90 1.587369
346.00 1.587096
346.10 1.586823
346.20 1.58655
346.30 1.586278
346.40 1.586005
346.50 1.585732
346.60 1.58546
346.70 1.585187
346.80 1.584915
346.90 1.584642
347.00 1.58437
347.10 1.584097
347.20 1.583831
347.30 1.583574
347.40 1.583318
347.50 1.583061
347.60 1.582804
347.70 1.582547
347.80 1.58229
347.90 1.582033
348.00 1.581777
348.10 1.58152
348.20 1.581263
348.30 1.581007
348.40 1.58075
348.50 1.580494
348.60 1.580237
348.70 1.579844
348.80 1.579476
348.90 1.579204
349.00 1.578933
349.10 1.578661
349.20 1.57839
349.30 1.578119
349.40 1.577848
349.50 1.577577
349.60 1.577306
349.70 1.577035
349.80 1.576764
349.90 1.576493
350.00 1.576222
350.10 1.575951
350.20 1.57568
350.30 1.575409
350.40 1.575135
350.50 1.574862
350.60 1.574588
350.70 1.574315
350.80 1.574042
350.90 1.573769
351.00 1.573495
351.10 1.573222
351.20 1.572949
351.30 1.572676
351.40 1.572391
351.50 1.572082
351.60 1.571774
351.70 1.571465
351.80 1.571157
351.90 1.570849
352.00 1.570541
352.10 1.570233
352.20 1.569775
352.30 1.569372
352.40 1.56907
352.50 1.568768
352.60 1.568467
352.70 1.568165
352.80 1.567864
352.90 1.567562
353.00 1.567261
353.10 1.56696
353.20 1.566658
353.30 1.566357
353.40 1.566056
353.50 1.565844
353.60 1.565653
353.70 1.565463
353.80 1.565272
353.90 1.56503
354.00 1.564696
354.10 1.564363
354.20 1.564029
354.30 1.563696
354.40 1.563363
354.50 1.563029
354.60 1.562697
354.70 1.562364
354.80 1.562034
354.90 1.56171
355.00 1.561385
355.10 1.561061
355.20 1.560737
355.30 1.560426
355.40 1.560115
355.50 1.559804
355.60 1.559493
355.70 1.559153
355.80 1.5588
355.90 1.55865
356.00 1.558431
356.10 1.558103
356.20 1.557776
356.30 1.557449
356.40 1.557122
356.50 1.556795
356.60 1.556468
356.70 1.556142
356.80 1.555815
356.90 1.555489
357.00 1.555163
357.10 1.554837
357.20 1.554511
357.30 1.554185
357.40 1.553857
357.50 1.553527
357.60 1.553197
357.70 1.552867
357.80 1.552547
357.90 1.552228
358.00 1.551931
358.10 1.551641
358.20 1.551351
358.30 1.551061
358.40 1.550771
358.50 1.550481
358.60 1.550191
358.70 1.549901
358.80 1.549611
358.90 1.549322
359.00 1.549019
359.10 1.548693
359.20 1.548364
359.30 1.548015
359.40 1.547667
359.50 1.54742
359.60 1.547199
359.70 1.546978
359.80 1.54657
359.90 1.546162
360.00 1.545791
360.10 1.545487
360.20 1.545182
360.30 1.544878
360.40 1.544574
360.50 1.54427
360.60 1.544173
360.70 1.543762
360.80 1.54335
360.90 1.54294
361.00 1.54275
361.10 1.542435
361.20 1.541844
361.30 1.541582
361.40 1.54129
361.50 1.541058
361.60 1.540418
361.70 1.540156
361.80 1.539931
361.90 1.53977
362.00 1.53961
362.10 1.539224
362.20 1.538822
362.30 1.538488
362.40 1.538154
362.50 1.537821
362.60 1.537488
362.70 1.537069
362.80 1.536482
362.90 1.536218
363.00 1.535955
363.10 1.535644
363.20 1.535332
363.30 1.535179
363.40 1.534918
363.50 1.534658
363.60 1.534106
363.70 1.533878
363.80 1.533294
363.90 1.533006
364.00 1.532719
364.10 1.532431
364.20 1.532144
364.30 1.531672
364.40 1.531154
364.50 1.530901
364.60 1.530639
364.70 1.530378
364.80 1.530117
364.90 1.529858
365.00 1.529599
365.10 1.529051
365.20 1.528792
365.30 1.528244
365.40 1.527986
365.50 1.527728
365.60 1.527469
365.70 1.527158
365.80 1.526848
365.90 1.526374
366.00 1.52586
366.10 1.525593
366.20 1.525325
366.30 1.525058
366.40 1.52479
366.50 1.524566
366.60 1.52374
366.70 1.523562
366.80 1.523383
366.90 1.523118
367.00 1.5227
367.10 1.522282
367.20 1.521865
367.30 1.521448
367.40 1.521031
367.50 1.520793
367.60 1.520601
367.70 1.520224
367.80 1.519848
367.90 1.519472
368.00 1.519291
368.10 1.51875
368.20 1.518442
368.30 1.51814
368.40 1.517837
368.50 1.517535
368.60 1.517233
368.70 1.516931
368.80 1.516628
368.90 1.516139
369.00 1.515819
369.10 1.515623
369.20 1.514808
369.30 1.514554
369.40 1.5143
369.50 1.514045
369.60 1.513788
369.70 1.513531
369.80 1.513171
369.90 1.51281
370.00 1.51245
370.10 1.511957
370.20 1.511697
370.30 1.511444
370.40 1.5109
370.50 1.510654
370.60 1.510127
370.70 1.509874
370.80 1.509618
370.90 1.509362
371.00 1.508833
371.10 1.508301
371.20 1.508046
371.30 1.507791
371.40 1.507172
371.50 1.506881
371.60 1.506591
371.70 1.5063
371.80 1.50601
371.90 1.505719
372.00 1.505074
372.10 1.504664
372.20 1.504319
372.30 1.503975
372.40 1.503631
372.50 1.503287
372.60 1.502944
372.70 1.5026
372.80 1.502347
372.90 1.502093
373.00 1.501569
373.10 1.501043
373.20 1.500793
373.30 1.500543
373.40 1.500292
373.50 1.499766
373.60 1.499516
373.70 1.49899
373.80 1.498861
373.90 1.49849
374.00 1.498103
374.10 1.497715
374.20 1.497328
374.30 1.496941
374.40 1.496486
374.50 1.49643
374.60 1.496054
374.70 1.495669
374.80 1.495283
374.90 1.494899
375.00 1.494467
375.10 1.494036
375.20 1.493605
375.30 1.493279
375.40 1.492953
375.50 1.492627
375.60 1.492301
375.70 1.491975
375.80 1.49165
375.90 1.491324
376.00 1.491071
376.10 1.490637
376.20 1.490201
376.30 1.489765
376.40 1.48933
376.50 1.488902
376.60 1.488487
376.70 1.488072
376.80 1.487723
376.90 1.48744
377.00 1.487157
377.10 1.486874
377.20 1.486556
377.30 1.486106
377.40 1.485656
377.50 1.485207
377.60 1.484891
377.70 1.484575
377.80 1.484259
377.90 1.483944
378.00 1.48344
378.10 1.483089
378.20 1.482741
378.30 1.482394
378.40 1.482048
378.50 1.481701
378.60 1.481355
378.70 1.481008
378.80 1.480662
378.90 1.480303
379.00 1.47992
379.10 1.479569
379.20 1.479218
379.30 1.478825
379.40 1.478392
379.50 1.477958
379.60 1.477567
379.70 1.477226
379.80 1.476839
379.90 1.476452
380.00 1.476065
380.10 1.475678
380.20 1.475292
380.30 1.474905
380.40 1.474519
380.50 1.474133
380.60 1.47404
380.70 1.473629
380.80 1.473218
380.90 1.472807
381.00 1.472397
381.10 1.471956
381.20 1.471619
381.30 1.471242
381.40 1.470996
381.50 1.470497
381.60 1.470068
381.70 1.469786
381.80 1.469409
381.90 1.469168
382.00 1.468399
382.10 1.468159
382.20 1.468025
382.30 1.467521
382.40 1.467056
382.50 1.466649
382.60 1.466242
382.70 1.465922
382.80 1.465612
382.90 1.465214
383.00 1.464817
383.10 1.46442
383.20 1.464007
383.30 1.463534
383.40 1.463244
383.50 1.463231
383.60 1.462505
383.70 1.462157
383.80 1.461809
383.90 1.461462
384.00 1.461114
384.10 1.460767
384.20 1.46042
384.30 1.460073
384.40 1.459703
384.50 1.459308
384.60 1.458914
384.70 1.458521
384.80 1.458051
384.90 1.457449
385.00 1.457139
385.10 1.456839
385.20 1.456708
385.30 1.456216
385.40 1.455774
385.50 1.455382
385.60 1.45499
385.70 1.454598
385.80 1.454194
385.90 1.453744
386.00 1.453326
386.10 1.452943
386.20 1.45259
386.30 1.452237
386.40 1.451812
386.50 1.451663
386.60 1.451216
386.70 1.450853
386.80 1.450361
386.90 1.449998
387.00 1.449763
387.10 1.449027
387.20 1.448781
387.30 1.448547
387.40 1.447933
387.50 1.447795
387.60 1.447414
387.70 1.447052
387.80 1.446691
387.90 1.44633
388.00 1.445888
388.10 1.445221
388.20 1.445073
388.30 1.444654
388.40 1.444235
388.50 1.443859
388.60 1.44347
388.70 1.443189
388.80 1.442688
388.90 1.442265
389.00 1.442033
389.10 1.441502
389.20 1.441282
389.30 1.440921
389.40 1.440442
389.50 1.44003
389.60 1.439628
389.70 1.43901
389.80 1.438618
389.90 1.438225
390.00 1.437833
390.10 1.437441
390.20 1.437049
390.30 1.436687
390.40 1.436358
390.50 1.43603
390.60 1.435702
390.70 1.435374
390.80 1.434985
390.90 1.434536
391.00 1.434012
391.10 1.433769
391.20 1.433422
391.30 1.432848
391.40 1.432451
391.50 1.432055
391.60 1.431659
391.70 1.431264
391.80 1.430868
391.90 1.430536
392.00 1.430262
392.10 1.429967
392.20 1.429633
392.30 1.429075
392.40 1.428678
392.50 1.428451
392.60 1.427723
392.70 1.427496
392.80 1.427107
392.90 1.426636
393.00 1.426176
393.10 1.425761
393.20 1.42541
393.30 1.425184
393.40 1.424914
393.50 1.424189
393.60 1.423964
393.70 1.423602
393.80 1.42306
393.90 1.422835
394.00 1.422565
394.10 1.421962
394.20 1.421493
394.30 1.421113
394.40 1.420714
394.50 1.420449
394.60 1.420006
394.70 1.4196
394.80 1.419336
394.90 1.419057
395.00 1.41841
395.10 1.418115
395.20 1.417655
395.30 1.41726
395.40 1.416864
395.50 1.416527
395.60 1.416212
395.70 1.415873
395.80 1.415467
395.90 1.415062
396.00 1.414629
396.10 1.413981
396.20 1.413513
396.30 1.413311
396.40 1.412757
396.50 1.412456
396.60 1.412314
396.70 1.411774
396.80 1.411381
396.90 1.410719
397.00 1.410449
397.10 1.410146
397.20 1.409627
397.30 1.40938
397.40 1.408978
397.50 1.408576
397.60 1.408178
397.70 1.407816
397.80 1.407454
397.90 1.407046
398.00 1.406513
398.10 1.405981
398.20 1.405554
398.30 1.405247
398.40 1.40494
398.50 1.404608
398.60 1.404005
398.70 1.403617
398.80 1.40331
398.90 1.402989
399.00 1.402645
399.10 1.401972
399.20 1.401603
399.30 1.401234
399.40 1.400865
399.50 1.400497
399.60 1.400111
399.70 1.399719
399.80 1.399327
399.90 1.398935
400.00 1.398545
400.10 1.398217
400.20 1.397618
400.30 1.397225
400.40 1.396907
400.50 1.396487
400.60 1.396141
400.70 1.395925
400.80 1.395358
400.90 1.395142
401.00 1.394447
401.10 1.394231
401.20 1.393912
401.30 1.393321
401.40 1.392885
401.50 1.392546
401.60 1.392208
401.70 1.391882
401.80 1.391289
401.90 1.390846
402.00 1.3904
402.10 1.390168
402.20 1.389954
402.30 1.389263
402.40 1.389049
402.50 1.388359
402.60 1.388145
402.70 1.387932
402.80 1.387243
402.90 1.386935
403.00 1.386721
403.10 1.386129
403.20 1.385916
403.30 1.385228
403.40 1.384914
403.50 1.384551
403.60 1.384156
403.70 1.383905
403.80 1.383228
403.90 1.382812
404.00 1.382323
404.10 1.382112
404.20 1.381664
404.30 1.381217
404.40 1.381006
404.50 1.380559
404.60 1.380112
404.70 1.379901
404.80 1.379233
404.90 1.379009
405.00 1.378328
405.10 1.377916
405.20 1.377572
405.30 1.377228
405.40 1.376861
405.50 1.376495
405.60 1.376129
405.70 1.375763
405.80 1.375398
405.90 1.375032
406.00 1.374544
406.10 1.374055
406.20 1.373567
406.30 1.373079
406.40 1.372632
406.50 1.372495
406.60 1.372169
406.70 1.37164
406.80 1.371148
406.90 1.370621
407.00 1.370227
407.10 1.369833
407.20 1.36944
407.30 1.369046
407.40 1.368653
407.50 1.36826
407.60 1.367868
407.70 1.367475
407.80 1.367083
407.90 1.36669
408.00 1.366274
408.10 1.365807
408.20 1.365379
408.30 1.365012
408.40 1.364645
408.50 1.364521
408.60 1.364013
408.70 1.363505
408.80 1.363039
408.90 1.362839
409.00 1.362438
409.10 1.362038
409.20 1.361637
409.30 1.361237
409.40 1.360834
409.50 1.360333
409.60 1.359831
409.70 1.359339
409.80 1.358888
409.90 1.358444
410.00 1.358227
410.10 1.357947
410.20 1.357504
410.30 1.357022
410.40 1.356569
410.50 1.356209
410.60 1.35585
410.70 1.355468
410.80 1.354993
410.90 1.354518
411.00 1.354098
411.10 1.353698
411.20 1.353298
411.30 1.352925
411.40 1.35265
411.50 1.352154
411.60 1.351658
411.70 1.351176
411.80 1.350747
411.90 1.3505
412.00 1.350072
412.10 1.349758
412.20 1.349217
412.30 1.34864
412.40 1.348378
412.50 1.348162
412.60 1.347508
412.70 1.347137
412.80 1.346837
412.90 1.346456
413.00 1.345869
413.10 1.345486
413.20 1.345104
413.30 1.344722
413.40 1.344341
413.50 1.343905
413.60 1.343337
413.70 1.343025
413.80 1.342714
413.90 1.342403
414.00 1.342066
414.10 1.341643
414.20 1.341166
414.30 1.340518
414.40 1.340231
414.50 1.339709
414.60 1.339531
414.70 1.339109
414.80 1.338688
414.90 1.338267
415.00 1.337846
415.10 1.337425
415.20 1.337018
415.30 1.336653
415.40 1.336288
415.50 1.33592
415.60 1.335437
415.70 1.334955
415.80 1.334505
415.90 1.334157
416.00 1.333809
416.10 1.333445
416.20 1.333018
416.30 1.332591
416.40 1.332165
416.50 1.331739
416.60 1.331322
416.70 1.330898
416.80 1.33026
416.90 1.330065
417.00 1.329428
417.10 1.32924
417.20 1.328825
417.30 1.328408
417.40 1.327928
417.50 1.327448
417.60 1.327013
417.70 1.326751
417.80 1.326337
417.90 1.325923
418.00 1.32551
418.10 1.325097
418.20 1.324684
418.30 1.324264
418.40 1.323689
418.50 1.323295
418.60 1.322902
418.70 1.322509
418.80 1.322117
418.90 1.321724
419.00 1.321332
419.10 1.32094
419.20 1.320548
419.30 1.320154
419.40 1.31968
419.50 1.319206
419.60 1.31876
419.70 1.318428
419.80 1.318095
419.90 1.317744
420.00 1.317331
420.10 1.316918
420.20 1.316505
420.30 1.316092
420.40 1.31568
420.50 1.315268
420.60 1.314856
420.70 1.314445
420.80 1.314034
420.90 1.313621
421.00 1.313153
421.10 1.312686
421.20 1.312243
421.30 1.311868
421.40 1.311493
421.50 1.311119
421.60 1.310745
421.70 1.310371
421.80 1.309997
421.90 1.309615
422.00 1.309207
422.10 1.308784
422.20 1.3083
422.30 1.307817
422.40 1.307337
422.50 1.306936
422.60 1.306536
422.70 1.306136
422.80 1.305737
422.90 1.305337
423.00 1.304938
423.10 1.304539
423.20 1.30414
423.30 1.303742
423.40 1.303344
423.50 1.302946
423.60 1.302548
423.70 1.30215
423.80 1.301753
423.90 1.301356
424.00 1.300959
424.10 1.300562
424.20 1.300166
424.30 1.29977
424.40 1.299327
424.50 1.298888
424.60 1.298449
424.70 1.29801
424.80 1.297572
424.90 1.297134
425.00 1.296696
