# Version 2.1 - nm, norm@500 to 1, cut digits, bergeron_He_4500_75.dat_4500
# Wavelength(nm)  Flambda(ergs/cm^s/s/nm)
300.00 0.05149942
300.10 0.0516589
300.20 0.05181928
300.30 0.05197916
300.40 0.0521369
300.50 0.05229441
300.60 0.05245171
300.70 0.05260878
300.80 0.05276564
300.90 0.05292227
301.00 0.05307869
301.10 0.05323489
301.20 0.05339086
301.30 0.05354662
301.40 0.05370216
301.50 0.05385748
301.60 0.05401258
301.70 0.05416747
301.80 0.05432214
301.90 0.05447659
302.00 0.05463083
302.10 0.05479351
302.20 0.05495693
302.30 0.05512012
302.40 0.05528308
302.50 0.05544581
302.60 0.05560832
302.70 0.0557706
302.80 0.05593265
302.90 0.05609448
303.00 0.05625608
303.10 0.05641745
303.20 0.0565786
303.30 0.05674029
303.40 0.05690856
303.50 0.05707661
303.60 0.05724442
303.70 0.057412
303.80 0.05757934
303.90 0.05774645
304.00 0.05791333
304.10 0.05807998
304.20 0.05824639
304.30 0.05841258
304.40 0.05857853
304.50 0.05874426
304.60 0.05891732
304.70 0.05909099
304.80 0.05926442
304.90 0.05943761
305.00 0.05961056
305.10 0.05978327
305.20 0.05995574
305.30 0.06012797
305.40 0.06029997
305.50 0.06047172
305.60 0.06064324
305.70 0.06081452
305.80 0.06098557
305.90 0.06115637
306.00 0.06132694
306.10 0.06149728
306.20 0.06166738
306.30 0.06183724
306.40 0.06201685
306.50 0.0621992
306.60 0.06238129
306.70 0.06256314
306.80 0.06274473
306.90 0.06292607
307.00 0.06310717
307.10 0.06328801
307.20 0.06346861
307.30 0.06364895
307.40 0.06382905
307.50 0.0640089
307.60 0.06418851
307.70 0.06436786
307.80 0.06454698
307.90 0.06472584
308.00 0.06490446
308.10 0.06508283
308.20 0.06526096
308.30 0.06543884
308.40 0.06561648
308.50 0.06579387
308.60 0.06597103
308.70 0.06614793
308.80 0.0663254
308.90 0.06650492
309.00 0.06668718
309.10 0.06686919
309.20 0.06705096
309.30 0.06723247
309.40 0.06741504
309.50 0.06760534
309.60 0.06779537
309.70 0.06798515
309.80 0.06817466
309.90 0.06836392
310.00 0.06855292
310.10 0.06874166
310.20 0.06893014
310.30 0.06911837
310.40 0.06930747
310.50 0.06949754
310.60 0.06968734
310.70 0.06987689
310.80 0.07006618
310.90 0.07025521
311.00 0.07044529
311.10 0.0706351
311.20 0.07082466
311.30 0.07101555
311.40 0.07121072
311.50 0.07140562
311.60 0.07160026
311.70 0.07179463
311.80 0.07198874
311.90 0.07218259
312.00 0.07237617
312.10 0.07256949
312.20 0.07276453
312.30 0.07296722
312.40 0.07316965
312.50 0.07337019
312.60 0.07356404
312.70 0.07375763
312.80 0.07395096
312.90 0.0741473
313.00 0.07434693
313.10 0.07454629
313.20 0.07474538
313.30 0.07494575
313.40 0.07515024
313.50 0.07535446
313.60 0.07555841
313.70 0.07576208
313.80 0.07596547
313.90 0.07616859
314.00 0.07637144
314.10 0.07657435
314.20 0.076777
314.30 0.07697936
314.40 0.07718146
314.50 0.07738328
314.60 0.07758483
314.70 0.07778611
314.80 0.07798743
314.90 0.07819591
315.00 0.07841117
315.10 0.07861853
315.20 0.07882562
315.30 0.07903242
315.40 0.07923895
315.50 0.0794452
315.60 0.07965117
315.70 0.07986296
315.80 0.08007447
315.90 0.0802857
316.00 0.08049664
316.10 0.08070122
316.20 0.08090552
316.30 0.0811217
316.40 0.08132544
316.50 0.08154105
316.60 0.08176849
316.70 0.0819714
316.80 0.08217403
316.90 0.08238849
317.00 0.08260267
317.10 0.08281656
317.20 0.08303016
317.30 0.08325541
317.40 0.08347747
317.50 0.083691
317.60 0.08390424
317.70 0.0841172
317.80 0.08432987
317.90 0.0845459
318.00 0.08477502
318.10 0.08499205
318.20 0.08520878
318.30 0.08542523
318.40 0.08564294
318.50 0.0858648
318.60 0.08607703
318.70 0.08631027
318.80 0.08652885
318.90 0.08675193
319.00 0.08696968
319.10 0.08718978
319.20 0.08741045
319.30 0.0876333
319.40 0.08785586
319.50 0.08807812
319.60 0.08831054
319.70 0.0885322
319.80 0.08875357
319.90 0.08897465
320.00 0.08919953
320.10 0.08942855
320.20 0.0896556
320.30 0.08987953
320.40 0.09011949
320.50 0.09033546
320.60 0.09056913
320.70 0.09079634
320.80 0.09102324
320.90 0.09124985
321.00 0.09147616
321.10 0.09170217
321.20 0.0919381
321.30 0.09217019
321.40 0.09240197
321.50 0.09263344
321.60 0.09286461
321.70 0.09309547
321.80 0.09332466
321.90 0.09355206
322.00 0.09378784
322.10 0.09402401
322.20 0.09425987
322.30 0.09449542
322.40 0.09473066
322.50 0.09496559
322.60 0.0952002
322.70 0.09543451
322.80 0.0956754
322.90 0.09591437
323.00 0.09615303
323.10 0.09639137
323.20 0.0966294
323.30 0.09686711
323.40 0.09710452
323.50 0.09734161
323.60 0.09757838
323.70 0.09781485
323.80 0.09805101
323.90 0.09828686
324.00 0.09852964
324.10 0.09877211
324.20 0.09901426
324.30 0.09926211
324.40 0.09951713
324.50 0.0997614
324.60 0.1000054
324.70 0.100249
324.80 0.1004923
324.90 0.1007353
325.00 0.100978
325.10 0.1012203
325.20 0.1014624
325.30 0.1017043
325.40 0.1019458
325.50 0.1021907
325.60 0.1024399
325.70 0.1026888
325.80 0.1029373
325.90 0.1031871
326.00 0.1034382
326.10 0.1036891
326.20 0.1039395
326.30 0.1041882
326.40 0.1044323
326.50 0.1046888
326.60 0.1049449
326.70 0.1052007
326.80 0.1054562
326.90 0.1057113
327.00 0.1059662
327.10 0.1062206
327.20 0.1064748
327.30 0.1067286
327.40 0.1069821
327.50 0.1072353
327.60 0.1074881
327.70 0.1077406
327.80 0.1079928
327.90 0.1082502
328.00 0.1085121
328.10 0.1087721
328.20 0.1090317
328.30 0.1092911
328.40 0.1095501
328.50 0.1098074
328.60 0.110064
328.70 0.1103204
328.80 0.1105785
328.90 0.1108424
329.00 0.111106
329.10 0.1113692
329.20 0.1116321
329.30 0.1118947
329.40 0.1121569
329.50 0.1124188
329.60 0.1126803
329.70 0.1129415
329.80 0.1132024
329.90 0.1134629
330.00 0.1137269
330.10 0.1139952
330.20 0.1142632
330.30 0.1145308
330.40 0.1148004
330.50 0.115072
330.60 0.1153432
330.70 0.1156141
330.80 0.1158846
330.90 0.1161548
331.00 0.1164247
331.10 0.1166942
331.20 0.1169633
331.30 0.1172321
331.40 0.1175006
331.50 0.1177681
331.60 0.1180345
331.70 0.1183006
331.80 0.1185771
331.90 0.1188536
332.00 0.1191298
332.10 0.1194056
332.20 0.1196811
332.30 0.1199562
332.40 0.120231
332.50 0.1205054
332.60 0.1207795
332.70 0.1210532
332.80 0.1213266
332.90 0.1215996
333.00 0.1218722
333.10 0.1221488
333.20 0.1224303
333.30 0.1227114
333.40 0.1229922
333.50 0.1232726
333.60 0.1235526
333.70 0.1238323
333.80 0.1241116
333.90 0.1243905
334.00 0.1246692
334.10 0.1249503
334.20 0.1252348
334.30 0.1255188
334.40 0.1258025
334.50 0.1260859
334.60 0.1263688
334.70 0.1266593
334.80 0.1269511
334.90 0.1272311
335.00 0.1275107
335.10 0.1278
335.20 0.1280808
335.30 0.1283709
335.40 0.1286591
335.50 0.1289523
335.60 0.1292317
335.70 0.1295274
335.80 0.1298169
335.90 0.1301059
336.00 0.1303946
336.10 0.1306829
336.20 0.1309709
336.30 0.1312617
336.40 0.131556
336.50 0.1318501
336.60 0.1321437
336.70 0.132437
336.80 0.1327298
336.90 0.1330223
337.00 0.1333143
337.10 0.1336059
337.20 0.1338972
337.30 0.1341921
337.40 0.1344925
337.50 0.1347924
337.60 0.135092
337.70 0.1353912
337.80 0.13569
337.90 0.1359888
338.00 0.1362878
338.10 0.1365864
338.20 0.1368847
338.30 0.1371825
338.40 0.1374812
338.50 0.1377823
338.60 0.138083
338.70 0.1383834
338.80 0.1386834
338.90 0.1389829
339.00 0.1392822
339.10 0.139581
339.20 0.1398795
339.30 0.1401806
339.40 0.1404857
339.50 0.1407929
339.60 0.1411029
339.70 0.1414124
339.80 0.1417216
339.90 0.1420304
340.00 0.1423388
340.10 0.1426468
340.20 0.1429545
340.30 0.1432617
340.40 0.1435686
340.50 0.1438751
340.60 0.1441811
340.70 0.1444869
340.80 0.1447943
340.90 0.1451043
341.00 0.1454162
341.10 0.1457306
341.20 0.1460446
341.30 0.1463583
341.40 0.1466715
341.50 0.1469843
341.60 0.1472968
341.70 0.1476088
341.80 0.1479221
341.90 0.1482369
342.00 0.1485513
342.10 0.1488653
342.20 0.1491714
342.30 0.1494794
342.40 0.1497966
342.50 0.1501161
342.60 0.1504351
342.70 0.1507537
342.80 0.1510719
342.90 0.1513898
343.00 0.1517088
343.10 0.1520294
343.20 0.1523495
343.30 0.1526693
343.40 0.1529904
343.50 0.1533134
343.60 0.1536361
343.70 0.1539583
343.80 0.1542802
343.90 0.1546016
344.00 0.1549248
344.10 0.1552506
344.20 0.155576
344.30 0.1559009
344.40 0.1562234
344.50 0.1565425
344.60 0.1568816
344.70 0.1571998
344.80 0.1575182
344.90 0.1578556
345.00 0.1581768
345.10 0.1585037
345.20 0.158831
345.30 0.1591593
345.40 0.1594871
345.50 0.1598196
345.60 0.1601551
345.70 0.1604863
345.80 0.1608171
345.90 0.1611474
346.00 0.1614774
346.10 0.161807
346.20 0.1621392
346.30 0.1624754
346.40 0.1628112
346.50 0.1631465
346.60 0.1634815
346.70 0.163816
346.80 0.1641501
346.90 0.1644838
347.00 0.1648171
347.10 0.16515
347.20 0.1654866
347.30 0.1658289
347.40 0.1661707
347.50 0.1665122
347.60 0.1668532
347.70 0.1671938
347.80 0.1675339
347.90 0.1678737
348.00 0.168213
348.10 0.1685519
348.20 0.1688904
348.30 0.1692285
348.40 0.1695661
348.50 0.1699034
348.60 0.1702402
348.70 0.1705845
348.80 0.1709322
348.90 0.1712816
349.00 0.1716307
349.10 0.1719792
349.20 0.1723274
349.30 0.1726751
349.40 0.1730224
349.50 0.1733692
349.60 0.1737157
349.70 0.1740617
349.80 0.1744073
349.90 0.1747525
350.00 0.1750972
350.10 0.1754415
350.20 0.1757854
350.30 0.176133
350.40 0.1764858
350.50 0.1768383
350.60 0.1771903
350.70 0.1775419
350.80 0.177893
350.90 0.1782438
351.00 0.1785941
351.10 0.1789439
351.20 0.1792934
351.30 0.1796424
351.40 0.179995
351.50 0.1803542
351.60 0.180713
351.70 0.1810714
351.80 0.1814293
351.90 0.1817868
352.00 0.1821438
352.10 0.1825004
352.20 0.1828572
352.30 0.1832158
352.40 0.1835773
352.50 0.1839383
352.60 0.1842989
352.70 0.184659
352.80 0.1850187
352.90 0.185378
353.00 0.1857368
353.10 0.1860952
353.20 0.1864532
353.30 0.1868107
353.40 0.1871678
353.50 0.1875331
353.60 0.1879
353.70 0.1882665
353.80 0.1886326
353.90 0.1889992
354.00 0.1893672
354.10 0.1897347
354.20 0.1901018
354.30 0.1904685
354.40 0.1908347
354.50 0.1912004
354.60 0.1915658
354.70 0.1919306
354.80 0.192288
354.90 0.1926349
355.00 0.1929814
355.10 0.1933274
355.20 0.1936731
355.30 0.1940556
355.40 0.1944377
355.50 0.1948193
355.60 0.1952005
355.70 0.1955843
355.80 0.1959689
355.90 0.1964219
356.00 0.1968313
356.10 0.1971987
356.20 0.1975658
356.30 0.1979324
356.40 0.1982985
356.50 0.1986642
356.60 0.1990295
356.70 0.1993943
356.80 0.1997587
356.90 0.2001227
357.00 0.2004862
357.10 0.2008493
357.20 0.2012119
357.30 0.2015741
357.40 0.2019486
357.50 0.2023452
357.60 0.2027413
357.70 0.2031369
357.80 0.2035414
357.90 0.2039453
358.00 0.2043274
358.10 0.2047036
358.20 0.2050794
358.30 0.2054547
358.40 0.2058296
358.50 0.2062041
358.60 0.2065781
358.70 0.2069516
358.80 0.2073247
358.90 0.2076974
359.00 0.2080766
359.10 0.2084681
359.20 0.2088562
359.30 0.2092249
359.40 0.2095932
359.50 0.2100036
359.60 0.210424
359.70 0.2108439
359.80 0.2112247
359.90 0.2116051
360.00 0.2119945
360.10 0.2124006
360.20 0.2128061
360.30 0.2132111
360.40 0.2136157
360.50 0.2140198
360.60 0.2142784
360.70 0.2146735
360.80 0.2150682
360.90 0.2154624
361.00 0.2159112
361.10 0.2163392
361.20 0.2167371
361.30 0.2170642
361.40 0.2175863
361.50 0.2179404
361.60 0.2183182
361.70 0.218755
361.80 0.2191736
361.90 0.2195601
362.00 0.2199461
362.10 0.2203381
362.20 0.2207362
362.30 0.2211424
362.40 0.2215482
362.50 0.2219534
362.60 0.2223582
362.70 0.2227517
362.80 0.2231421
362.90 0.2234784
363.00 0.2238142
363.10 0.2242791
363.20 0.2247448
363.30 0.2251072
363.40 0.2254897
363.50 0.2259637
363.60 0.2262992
363.70 0.2266751
363.80 0.2270608
363.90 0.2275043
364.00 0.2279473
364.10 0.2283898
364.20 0.2288318
364.30 0.2292267
364.40 0.2296095
364.50 0.2300374
364.60 0.2303974
364.70 0.2307569
364.80 0.231116
364.90 0.2315371
365.00 0.2319578
365.10 0.2324691
365.20 0.2327976
365.30 0.2333078
365.40 0.2336354
365.50 0.2340536
365.60 0.2344713
365.70 0.2349215
365.80 0.2353712
365.90 0.2357617
366.00 0.2361371
366.10 0.236543
366.20 0.2369483
366.30 0.2373533
366.40 0.2377577
366.50 0.2382026
366.60 0.2386212
366.70 0.2390389
366.80 0.2394562
366.90 0.2398748
367.00 0.2402961
367.10 0.2407168
367.20 0.241137
367.30 0.2415568
367.40 0.2419761
367.50 0.2424345
367.60 0.2429024
367.70 0.2432909
367.80 0.2436789
367.90 0.2440664
368.00 0.2445291
368.10 0.2449301
368.20 0.24536
368.30 0.2457906
368.40 0.2462207
368.50 0.2466503
368.60 0.2470794
368.70 0.2475079
368.80 0.247936
368.90 0.248391
369.00 0.2487785
369.10 0.2491368
369.20 0.2495419
369.30 0.250001
369.40 0.2504596
369.50 0.2509176
369.60 0.2513132
369.70 0.2517082
369.80 0.2521483
369.90 0.2525883
370.00 0.2530278
370.10 0.2534714
370.20 0.2538673
370.30 0.2542621
370.40 0.254746
370.50 0.2552285
370.60 0.2556174
370.70 0.2560191
370.80 0.2564969
370.90 0.2569741
371.00 0.257369
371.10 0.2577627
371.20 0.2582383
371.30 0.2587134
371.40 0.2591337
371.50 0.2595519
371.60 0.2599696
371.70 0.2603869
371.80 0.2608036
371.90 0.2612199
372.00 0.2616874
372.10 0.262174
372.20 0.2626181
372.30 0.2630618
372.40 0.2635049
372.50 0.2639475
372.60 0.2643896
372.70 0.2648312
372.80 0.2652984
372.90 0.2657651
373.00 0.2661503
373.10 0.2665343
373.20 0.2670025
373.30 0.2674701
373.40 0.2679372
373.50 0.2683166
373.60 0.2687827
373.70 0.2691611
373.80 0.2696914
373.90 0.2700907
374.00 0.2705546
374.10 0.2710181
374.20 0.271481
374.30 0.2719433
374.40 0.2723401
374.50 0.272858
374.60 0.2732797
374.70 0.2736981
374.80 0.2741159
374.90 0.2745334
375.00 0.2750209
375.10 0.2755079
375.20 0.2759943
375.30 0.2764391
375.40 0.2768834
375.50 0.2773272
375.60 0.2777704
375.70 0.2782131
375.80 0.2786554
375.90 0.2790971
376.00 0.2796297
376.10 0.280081
376.20 0.280531
376.30 0.2809805
376.40 0.2814294
376.50 0.2818752
376.60 0.2823167
376.70 0.2827577
376.80 0.2832022
376.90 0.2836504
377.00 0.2840981
377.10 0.2845453
377.20 0.2850006
377.30 0.285488
377.40 0.2859749
377.50 0.2864612
377.60 0.2869027
377.70 0.2873436
377.80 0.287784
377.90 0.2882239
378.00 0.2887585
378.10 0.2892182
378.20 0.2896752
378.30 0.2901316
378.40 0.2905876
378.50 0.291043
378.60 0.2914978
378.70 0.2919522
378.80 0.292406
378.90 0.2928662
379.00 0.2933386
379.10 0.2937929
379.20 0.2942467
379.30 0.2947228
379.40 0.2952213
379.50 0.2957193
379.60 0.2961823
379.70 0.2966077
379.80 0.2970871
379.90 0.2975661
380.00 0.2980445
380.10 0.2985224
380.20 0.2989997
380.30 0.2994764
380.40 0.2999527
380.50 0.3004284
380.60 0.3008567
380.70 0.3013087
380.80 0.3017602
380.90 0.3022111
381.00 0.3026616
381.10 0.3031305
381.20 0.3036454
381.30 0.3041191
381.40 0.3045771
381.50 0.3050171
381.60 0.3054975
381.70 0.3060212
381.80 0.3065651
381.90 0.3069881
382.00 0.3074105
382.10 0.3079158
382.20 0.3083538
382.30 0.308858
382.40 0.3093452
382.50 0.3098074
382.60 0.310269
382.70 0.3107589
382.80 0.3112675
382.90 0.3117621
383.00 0.3122561
383.10 0.3127496
383.20 0.3132392
383.30 0.3137158
383.40 0.3141722
383.50 0.3145988
383.60 0.3151526
383.70 0.3156193
383.80 0.3160855
383.90 0.3165512
384.00 0.3170164
384.10 0.317481
384.20 0.3179451
384.30 0.3184087
384.40 0.3188834
384.50 0.3193692
384.60 0.3198546
384.70 0.3203393
384.80 0.3208473
384.90 0.3213986
385.00 0.3218653
385.10 0.3223307
385.20 0.3227919
385.30 0.3232894
385.40 0.3237784
385.50 0.3242587
385.60 0.3247386
385.70 0.3252179
385.80 0.3257011
385.90 0.3262007
386.00 0.3267129
386.10 0.3272376
386.20 0.3277605
386.30 0.3282828
386.40 0.3287408
386.50 0.3292078
386.60 0.3296643
386.70 0.3301849
386.80 0.3306236
386.90 0.331143
387.00 0.33167
387.10 0.3321476
387.20 0.3326449
387.30 0.3331014
387.40 0.3336954
387.50 0.3341709
387.60 0.3346559
387.70 0.3351303
387.80 0.3356042
387.90 0.3360775
388.00 0.3365724
388.10 0.3371223
388.20 0.3376917
388.30 0.3381833
388.40 0.3386743
388.50 0.33913
388.60 0.3395845
388.70 0.3401617
388.80 0.3406209
388.90 0.3410988
389.00 0.3416025
389.10 0.3421009
389.20 0.3425573
389.30 0.3430939
389.40 0.3436577
389.50 0.3441944
389.60 0.3446668
389.70 0.3450912
389.80 0.3455945
389.90 0.3460973
390.00 0.3465994
390.10 0.3471011
390.20 0.3476021
390.30 0.3481157
390.40 0.3486436
390.50 0.3491708
390.60 0.3496975
390.70 0.3502236
390.80 0.3507115
390.90 0.3511614
391.00 0.3516573
391.10 0.3521719
391.20 0.3526755
391.30 0.3531598
391.40 0.3536672
391.50 0.3541739
391.60 0.3546801
391.70 0.3551857
391.80 0.3556908
391.90 0.3562205
392.00 0.3567564
392.10 0.3572591
392.20 0.3577719
392.30 0.3583136
392.40 0.3587816
392.50 0.3592599
392.60 0.3598657
392.70 0.360313
392.80 0.3609175
392.90 0.3613858
393.00 0.3618718
393.10 0.3623641
393.20 0.3628657
393.30 0.3633885
393.40 0.3639256
393.50 0.364515
393.60 0.3649605
393.70 0.3655595
393.80 0.3659939
393.90 0.3665133
394.00 0.3670368
394.10 0.3675882
394.20 0.3681165
394.30 0.368627
394.40 0.3691027
394.50 0.3696322
394.60 0.3701427
394.70 0.3706566
394.80 0.3711844
394.90 0.3717101
395.00 0.3721932
395.10 0.372732
395.20 0.3732507
395.30 0.3737715
395.40 0.3742916
395.50 0.3748011
395.60 0.3753064
395.70 0.3758213
395.80 0.3763635
395.90 0.3769051
396.00 0.3774484
396.10 0.377998
396.20 0.3785042
396.30 0.3790307
396.40 0.3795861
396.50 0.3800403
396.60 0.3806216
396.70 0.3810559
396.80 0.3816415
396.90 0.3821686
397.00 0.382732
397.10 0.3831818
397.20 0.3837173
397.30 0.3841988
397.40 0.3847317
397.50 0.385264
397.60 0.3857991
397.70 0.3863683
397.80 0.3869368
397.90 0.3874914
398.00 0.3880094
398.10 0.3885267
398.20 0.3890338
398.30 0.3895294
398.40 0.3900285
398.50 0.3906572
398.60 0.3911642
398.70 0.3916989
398.80 0.3922512
398.90 0.3927788
399.00 0.3932607
399.10 0.3937404
399.20 0.394278
399.30 0.394815
399.40 0.3953515
399.50 0.3958873
399.60 0.3964311
399.70 0.3969776
399.80 0.3975234
399.90 0.3980686
400.00 0.3986119
400.10 0.3991137
400.20 0.3997265
400.30 0.4002385
400.40 0.4007579
400.50 0.4012342
400.60 0.4018346
400.70 0.4023155
400.80 0.4028511
400.90 0.4034066
401.00 0.4040325
401.10 0.4045157
401.20 0.4051108
401.30 0.4056357
401.40 0.4061544
401.50 0.4066783
401.60 0.4072007
401.70 0.4076934
401.80 0.4082692
401.90 0.4088576
402.00 0.4094007
402.10 0.4099272
402.20 0.4104945
402.30 0.4110446
402.40 0.4115757
402.50 0.4121144
402.60 0.4126758
402.70 0.4132045
402.80 0.4137486
402.90 0.4142922
403.00 0.4148351
403.10 0.4153775
403.20 0.4159399
403.30 0.4164236
403.40 0.4169898
403.50 0.4175026
403.60 0.4180051
403.70 0.4186193
403.80 0.4191804
403.90 0.419735
404.00 0.4202545
404.10 0.4207688
404.20 0.4213047
404.30 0.4218401
404.40 0.4223883
404.50 0.4229833
404.60 0.4235911
404.70 0.4241241
404.80 0.424678
404.90 0.4251882
405.00 0.4257083
405.10 0.4262501
405.20 0.4267801
405.30 0.4273096
405.40 0.4278632
405.50 0.4284161
405.60 0.4289685
405.70 0.4295203
405.80 0.4300715
405.90 0.430622
406.00 0.4311816
406.10 0.4317405
406.20 0.4322988
406.30 0.4328566
406.40 0.43342
406.50 0.4339887
406.60 0.4345821
406.70 0.4351125
406.80 0.4356447
406.90 0.4361676
407.00 0.4367312
407.10 0.4372942
407.20 0.4378566
407.30 0.4384184
407.40 0.4389796
407.50 0.4395402
407.60 0.4401002
407.70 0.4406596
407.80 0.4412184
407.90 0.4417773
408.00 0.4423589
408.10 0.4429263
408.20 0.4434636
408.30 0.4440065
408.40 0.4445488
408.50 0.445119
408.60 0.4456571
408.70 0.4461945
408.80 0.4467403
408.90 0.4473445
409.00 0.4479069
409.10 0.4484687
409.20 0.4490299
409.30 0.4495905
409.40 0.4501502
409.50 0.4506989
409.60 0.4512469
409.70 0.4518011
409.80 0.4523812
409.90 0.4529621
410.00 0.4535837
410.10 0.4540853
410.20 0.4546406
410.30 0.4552089
410.40 0.4557808
410.50 0.4563656
410.60 0.4569498
410.70 0.4575239
410.80 0.4580595
410.90 0.4585945
411.00 0.4591712
411.10 0.4597629
411.20 0.460354
411.30 0.4609291
411.40 0.461444
411.50 0.4620315
411.60 0.4626184
411.70 0.4632003
411.80 0.4637639
411.90 0.4643126
412.00 0.4648034
412.10 0.4654011
412.20 0.4659266
412.30 0.4665624
412.40 0.4670732
412.50 0.4676987
412.60 0.4682881
412.70 0.4688464
412.80 0.4693966
412.90 0.4699371
413.00 0.4705853
413.10 0.471149
413.20 0.4717121
413.30 0.4722747
413.40 0.4728366
413.50 0.473388
413.60 0.4739179
413.70 0.4745057
413.80 0.4750928
413.90 0.4756793
414.00 0.4762567
414.10 0.4768066
414.20 0.4773388
414.30 0.4779583
414.40 0.4785489
414.50 0.4790582
414.60 0.4796884
414.70 0.4802347
414.80 0.4807889
414.90 0.4813693
415.00 0.4819491
415.10 0.4825282
415.20 0.483102
415.30 0.4836598
415.40 0.4842171
415.50 0.4847758
415.60 0.4854003
415.70 0.4860241
415.80 0.4866303
415.90 0.4871823
416.00 0.4877338
