# Version 2.1 - nm, norm@500 to 1, cut digits, bergeron_He_4250_70.dat_4250
# Wavelength(nm)  Flambda(ergs/cm^s/s/nm)
300.00 0.03219715
300.10 0.03230211
300.20 0.03240741
300.30 0.0325129
300.40 0.03262043
300.50 0.03272781
300.60 0.03283504
300.70 0.03294212
300.80 0.03304905
300.90 0.03315583
301.00 0.03326246
301.10 0.03336894
301.20 0.03347527
301.30 0.03358146
301.40 0.03368749
301.50 0.03379338
301.60 0.03389912
301.70 0.03400471
301.80 0.03411016
301.90 0.03421546
302.00 0.03432061
302.10 0.03443148
302.20 0.03454284
302.30 0.03465405
302.40 0.03476511
302.50 0.03487601
302.60 0.03498676
302.70 0.03509735
302.80 0.03520779
302.90 0.03531808
303.00 0.03542821
303.10 0.03553819
303.20 0.03564802
303.30 0.03575821
303.40 0.03587296
303.50 0.03598755
303.60 0.03610198
303.70 0.03621625
303.80 0.03633036
303.90 0.03644431
304.00 0.03655811
304.10 0.03667175
304.20 0.03678523
304.30 0.03689855
304.40 0.03701172
304.50 0.03712473
304.60 0.03724324
304.70 0.03736222
304.80 0.03748103
304.90 0.03759968
305.00 0.03771816
305.10 0.03783648
305.20 0.03795464
305.30 0.03807263
305.40 0.03819047
305.50 0.03830814
305.60 0.03842565
305.70 0.03854299
305.80 0.03866018
305.90 0.0387772
306.00 0.03889406
306.10 0.03901076
306.20 0.0391273
306.30 0.03924368
306.40 0.03936739
306.50 0.03949317
306.60 0.03961878
306.70 0.03974422
306.80 0.03986948
306.90 0.03999458
307.00 0.0401195
307.10 0.04024425
307.20 0.04036882
307.30 0.04049323
307.40 0.04061747
307.50 0.04074154
307.60 0.04086544
307.70 0.04098916
307.80 0.04111272
307.90 0.04123611
308.00 0.04135933
308.10 0.04148239
308.20 0.04160527
308.30 0.04172799
308.40 0.04185053
308.50 0.04197291
308.60 0.04209513
308.70 0.04221717
308.80 0.04234093
308.90 0.04246987
309.00 0.04259803
309.10 0.04272601
309.20 0.04285382
309.30 0.04298146
309.40 0.0431095
309.50 0.04324096
309.60 0.04337224
309.70 0.04350334
309.80 0.04363426
309.90 0.043765
310.00 0.04389557
310.10 0.04402596
310.20 0.04415617
310.30 0.04428621
310.40 0.04441739
310.50 0.04454983
310.60 0.04468209
310.70 0.04481417
310.80 0.04494608
310.90 0.0450778
311.00 0.04521292
311.10 0.04534785
311.20 0.04548261
311.30 0.04561766
311.40 0.04575391
311.50 0.04588997
311.60 0.04602585
311.70 0.04616155
311.80 0.04629706
311.90 0.04643239
312.00 0.04656754
312.10 0.0467025
312.20 0.04683987
312.30 0.04697838
312.40 0.04711446
312.50 0.04725485
312.60 0.04739336
312.70 0.04753169
312.80 0.04766983
312.90 0.04780913
313.00 0.04794969
313.10 0.04809006
313.20 0.04823024
313.30 0.04837078
313.40 0.04851265
313.50 0.04865434
313.60 0.04879583
313.70 0.04893714
313.80 0.04907825
313.90 0.04921918
314.00 0.04935991
314.10 0.04950469
314.20 0.04964928
314.30 0.04979367
314.40 0.04993787
314.50 0.05008187
314.60 0.05022569
314.70 0.05036931
314.80 0.05051704
314.90 0.05066563
315.00 0.0508019
315.10 0.05095234
315.20 0.05110258
315.30 0.05125263
315.40 0.05140247
315.50 0.05155211
315.60 0.05170155
315.70 0.05184252
315.80 0.0519833
315.90 0.0521239
316.00 0.0522643
316.10 0.05242927
316.20 0.05259402
316.30 0.05273383
316.40 0.05289816
316.50 0.05303758
316.60 0.05320149
316.70 0.05334052
316.80 0.05347936
316.90 0.05363034
317.00 0.05378111
317.10 0.05393168
317.20 0.05408205
317.30 0.05424564
317.40 0.05440559
317.50 0.05455564
317.60 0.05470548
317.70 0.05485513
317.80 0.05500457
317.90 0.0551632
318.00 0.05532871
318.10 0.05548948
318.20 0.05565004
318.30 0.05581038
318.40 0.05596417
318.50 0.05609971
318.60 0.05625408
318.70 0.05641359
318.80 0.0565583
318.90 0.056732
319.00 0.05687824
319.10 0.05703693
319.20 0.05719834
319.30 0.0573679
319.40 0.05753723
319.50 0.05770634
319.60 0.05783013
319.70 0.05799883
319.80 0.0581673
319.90 0.05833555
320.00 0.05849818
320.10 0.05865475
320.20 0.05880998
320.30 0.05899041
320.40 0.05912707
320.50 0.05930208
320.60 0.05948263
320.70 0.05963793
320.80 0.0597988
320.90 0.0599657
321.00 0.06013238
321.10 0.06029884
321.20 0.06046913
321.30 0.06063876
321.40 0.06080817
321.50 0.06097735
321.60 0.06114631
321.70 0.06131504
321.80 0.06147734
321.90 0.06163269
322.00 0.06179784
322.10 0.06196704
322.20 0.06213602
322.30 0.06230478
322.40 0.06247331
322.50 0.06264163
322.60 0.06280972
322.70 0.06297759
322.80 0.06314943
322.90 0.06332521
323.00 0.06350077
323.10 0.0636761
323.20 0.06385119
323.30 0.06402606
323.40 0.0642007
323.50 0.06437511
323.60 0.0645493
323.70 0.06472325
323.80 0.06489698
323.90 0.06507048
324.00 0.06524452
324.10 0.06541833
324.20 0.06559191
324.30 0.06577239
324.40 0.06596228
324.50 0.0661404
324.60 0.06631829
324.70 0.06649595
324.80 0.06667338
324.90 0.06685058
325.00 0.06702754
325.10 0.06720428
325.20 0.06737888
325.30 0.06754921
325.40 0.06771932
325.50 0.06789459
325.60 0.06807621
325.70 0.06825759
325.80 0.06843874
325.90 0.06862391
326.00 0.06881344
326.10 0.06900274
326.20 0.06919178
326.30 0.069378
326.40 0.0695566
326.50 0.06974411
326.60 0.06993137
326.70 0.07011839
326.80 0.07030516
326.90 0.0704917
327.00 0.07067799
327.10 0.07086405
327.20 0.07104986
327.30 0.07123543
327.40 0.07142077
327.50 0.07160586
327.60 0.07179071
327.70 0.07197533
327.80 0.0721597
327.90 0.07234154
328.00 0.07252722
328.10 0.07272071
328.20 0.07291394
328.30 0.07310693
328.40 0.07329967
328.50 0.07348837
328.60 0.07367594
328.70 0.07386327
328.80 0.07405249
328.90 0.07424754
329.00 0.07444234
329.10 0.07463689
329.20 0.07483118
329.30 0.07502523
329.40 0.07521903
329.50 0.07541258
329.60 0.07560588
329.70 0.07579893
329.80 0.07599173
329.90 0.07618429
330.00 0.07637741
330.10 0.07657128
330.20 0.07676491
330.30 0.07695828
330.40 0.07715664
330.50 0.07736042
330.60 0.07756393
330.70 0.07776719
330.80 0.07797018
330.90 0.07817292
331.00 0.0783754
331.10 0.07857761
331.20 0.07877957
331.30 0.07898127
331.40 0.07918272
331.50 0.07937763
331.60 0.07956464
331.70 0.07975141
331.80 0.07995859
331.90 0.08016636
332.00 0.08037386
332.10 0.08058111
332.20 0.08078808
332.30 0.0809948
332.40 0.08120125
332.50 0.08140743
332.60 0.08161336
332.70 0.08181902
332.80 0.08202442
332.90 0.08222956
333.00 0.08243444
333.10 0.08264308
333.20 0.08285637
333.30 0.08306938
333.40 0.08328213
333.50 0.08349461
333.60 0.08370682
333.70 0.08391875
333.80 0.08413042
333.90 0.08434182
334.00 0.08455296
334.10 0.08476249
334.20 0.08497014
334.30 0.08517752
334.40 0.08538464
334.50 0.08559149
334.60 0.08579809
334.70 0.08602225
334.80 0.08624972
334.90 0.08645073
335.00 0.08665149
335.10 0.08686971
335.20 0.08710406
335.30 0.08730842
335.40 0.08752021
335.50 0.08773723
335.60 0.08797044
335.70 0.08817374
335.80 0.08838445
335.90 0.08859982
336.00 0.08882095
336.10 0.0890418
336.20 0.08926238
336.30 0.08948431
336.40 0.08970797
336.50 0.08993135
336.60 0.09015444
336.70 0.09037726
336.80 0.09059979
336.90 0.09082405
337.00 0.09105048
337.10 0.09127663
337.20 0.09150249
337.30 0.091727
337.40 0.09194969
337.50 0.09217211
337.60 0.09239424
337.70 0.0926161
337.80 0.09283768
337.90 0.09306314
338.00 0.09329339
338.10 0.09352336
338.20 0.09375304
338.30 0.09398243
338.40 0.09421081
338.50 0.09443713
338.60 0.09466318
338.70 0.09488894
338.80 0.09511442
338.90 0.09533962
339.00 0.09556453
339.10 0.09578916
339.20 0.09601351
339.30 0.09624835
339.40 0.09649838
339.50 0.09674197
339.60 0.09697776
339.70 0.09721326
339.80 0.09744846
339.90 0.09768336
340.00 0.09791798
340.10 0.0981523
340.20 0.09838633
340.30 0.09862006
340.40 0.09885351
340.50 0.09908666
340.60 0.09931953
340.70 0.0995521
340.80 0.09978102
340.90 0.1000048
341.00 0.1002378
341.10 0.1004819
341.20 0.1007258
341.30 0.1009694
341.40 0.1012126
341.50 0.1014556
341.60 0.1016982
341.70 0.1019406
341.80 0.1021814
341.90 0.1024203
342.00 0.102659
342.10 0.1028974
342.20 0.1031392
342.30 0.1033852
342.40 0.1036288
342.50 0.1038725
342.60 0.1041159
342.70 0.1043591
342.80 0.1046019
342.90 0.1048445
343.00 0.1050907
343.10 0.1053415
343.20 0.105592
343.30 0.1058422
343.40 0.1060904
343.50 0.1063361
343.60 0.1065815
343.70 0.1068266
343.80 0.1070714
343.90 0.1073158
344.00 0.1075629
344.10 0.1078137
344.20 0.1080642
344.30 0.1083144
344.40 0.1085644
344.50 0.1088139
344.60 0.1091049
344.70 0.1093539
344.80 0.1096025
344.90 0.1098508
345.00 0.1100989
345.10 0.1103466
345.20 0.1105986
345.30 0.110857
345.40 0.111115
345.50 0.1113712
345.60 0.1116278
345.70 0.1118874
345.80 0.1121468
345.90 0.1124058
346.00 0.1126646
346.10 0.112923
346.20 0.1131822
346.30 0.1134427
346.40 0.1137029
346.50 0.1139628
346.60 0.1142223
346.70 0.1144816
346.80 0.1147405
346.90 0.1149991
347.00 0.1152574
347.10 0.1155153
347.20 0.1157779
347.30 0.1160472
347.40 0.1163161
347.50 0.1165847
347.60 0.116853
347.70 0.117121
347.80 0.1173886
347.90 0.1176559
348.00 0.1179229
348.10 0.1181896
348.20 0.1184559
348.30 0.1187219
348.40 0.1189876
348.50 0.1192529
348.60 0.119518
348.70 0.1197813
348.80 0.1200493
348.90 0.1203245
349.00 0.1205995
349.10 0.120874
349.20 0.1211483
349.30 0.1214222
349.40 0.1216958
349.50 0.1219691
349.60 0.122242
349.70 0.1225146
349.80 0.1227868
349.90 0.1230587
350.00 0.1233303
350.10 0.1236016
350.20 0.1238725
350.30 0.1241468
350.40 0.124426
350.50 0.1247048
350.60 0.1249833
350.70 0.1252615
350.80 0.1255393
350.90 0.1258168
351.00 0.126094
351.10 0.1263708
351.20 0.1266473
351.30 0.1269234
351.40 0.1272035
351.50 0.1274907
351.60 0.1277776
351.70 0.1280641
351.80 0.1283503
351.90 0.1286361
352.00 0.1289216
352.10 0.1292068
352.20 0.1294824
352.30 0.1297633
352.40 0.1300533
352.50 0.130343
352.60 0.1306324
352.70 0.1309214
352.80 0.13121
352.90 0.1314983
353.00 0.1317863
353.10 0.1320739
353.20 0.1323612
353.30 0.1326481
353.40 0.1329347
353.50 0.1332242
353.60 0.1335142
353.70 0.1338038
353.80 0.1340931
353.90 0.1343843
354.00 0.1346788
354.10 0.1349731
354.20 0.1352669
354.30 0.1355604
354.40 0.1358536
354.50 0.1361464
354.60 0.1364389
354.70 0.136731
354.80 0.137025
354.90 0.1373218
355.00 0.1376183
355.10 0.1379144
355.20 0.1382102
355.30 0.1385052
355.40 0.1387998
355.50 0.1390941
355.60 0.139388
355.70 0.1396797
355.80 0.1399701
355.90 0.1402781
356.00 0.14059
356.10 0.1408947
356.20 0.141199
356.30 0.141503
356.40 0.1418065
356.50 0.1421098
356.60 0.1424126
356.70 0.1427151
356.80 0.1430172
356.90 0.143319
357.00 0.1436204
357.10 0.1439215
357.20 0.1442222
357.30 0.1445225
357.40 0.1448264
357.50 0.1451371
357.60 0.1454474
357.70 0.1457573
357.80 0.1460622
357.90 0.1463668
358.00 0.1466787
358.10 0.1469922
358.20 0.1473053
358.30 0.147618
358.40 0.1479303
358.50 0.1482423
358.60 0.1485539
358.70 0.1488651
358.80 0.149176
358.90 0.1494865
359.00 0.1497975
359.10 0.1501097
359.20 0.1504215
359.30 0.1507325
359.40 0.1510431
359.50 0.1513551
359.60 0.1516672
359.70 0.1519788
359.80 0.1522996
359.90 0.1526201
360.00 0.1529403
360.10 0.1532603
360.20 0.1535799
360.30 0.1538991
360.40 0.154218
360.50 0.1545365
360.60 0.1548683
360.70 0.1551912
360.80 0.1555137
360.90 0.1558358
361.00 0.1561571
361.10 0.156468
361.20 0.1567859
361.30 0.1571159
361.40 0.1574305
361.50 0.1577598
361.60 0.1581023
361.70 0.1584308
361.80 0.1587581
361.90 0.1590835
362.00 0.1594085
362.10 0.1597384
362.20 0.1600672
362.30 0.1603921
362.40 0.1607166
362.50 0.1610407
362.60 0.1613644
362.70 0.1616922
362.80 0.1620206
362.90 0.1623612
363.00 0.1627013
363.10 0.1630231
363.20 0.1633443
363.30 0.1636738
363.40 0.1640052
363.50 0.1643549
363.60 0.1646761
363.70 0.1650135
363.80 0.1653547
363.90 0.1656908
364.00 0.1660264
364.10 0.1663617
364.20 0.1666966
364.30 0.1670382
364.40 0.1673811
364.50 0.1677032
364.60 0.1680439
364.70 0.1683843
364.80 0.1687242
364.90 0.169059
365.00 0.1693934
365.10 0.1697274
365.20 0.1700795
365.30 0.1704313
365.40 0.1707641
365.50 0.1710965
365.60 0.1714285
365.70 0.1717719
365.80 0.1721149
365.90 0.1724695
366.00 0.1728266
366.10 0.1731675
366.20 0.1735079
366.30 0.173848
366.40 0.1741877
366.50 0.1745603
366.60 0.1749115
366.70 0.1752481
366.80 0.1755843
366.90 0.1759266
367.00 0.1762799
367.10 0.1766328
367.20 0.1769853
367.30 0.1773374
367.40 0.1776891
367.50 0.1780401
367.60 0.1783907
367.70 0.1787462
367.80 0.1791013
367.90 0.179456
368.00 0.1798113
368.10 0.1801654
368.20 0.1805219
368.30 0.1808779
368.40 0.1812336
368.50 0.1815888
368.60 0.1819436
368.70 0.182298
368.80 0.182652
368.90 0.1830062
369.00 0.1833672
369.10 0.1837293
369.20 0.1840699
369.30 0.1844296
369.40 0.184789
369.50 0.1851479
369.60 0.1855162
369.70 0.185884
369.80 0.1862431
369.90 0.1866016
370.00 0.1869598
370.10 0.1873241
370.20 0.1876923
370.30 0.1880599
370.40 0.1884093
370.50 0.1887756
370.60 0.1891425
370.70 0.1894949
370.80 0.189876
370.90 0.1902567
371.00 0.1906238
371.10 0.1909904
371.20 0.1913519
371.30 0.191713
371.40 0.192072
371.50 0.1924426
371.60 0.1928126
371.70 0.1931823
371.80 0.1935515
371.90 0.1939204
372.00 0.1943009
372.10 0.1946813
372.20 0.1950529
372.30 0.1954239
372.40 0.1957946
372.50 0.1961648
372.60 0.1965347
372.70 0.196904
372.80 0.1972943
372.90 0.197684
373.00 0.1980606
373.10 0.1984366
373.20 0.1988097
373.30 0.1991825
373.40 0.1995548
373.50 0.1999444
373.60 0.2003158
373.70 0.2007045
373.80 0.2010829
373.90 0.2014453
374.00 0.2018327
374.10 0.2022197
374.20 0.2026062
374.30 0.2029923
374.40 0.2033691
374.50 0.203758
374.60 0.2041354
374.70 0.2045122
374.80 0.2048885
374.90 0.2052643
375.00 0.2056591
375.10 0.2060534
375.20 0.2064472
375.30 0.2068339
375.40 0.2072202
375.50 0.207606
375.60 0.2079914
375.70 0.2083764
375.80 0.2087609
375.90 0.209145
376.00 0.2095534
376.10 0.209945
376.20 0.210336
376.30 0.2107266
376.40 0.2111167
376.50 0.2115078
376.60 0.2119006
376.70 0.212293
376.80 0.2126844
376.90 0.2130748
377.00 0.2134648
377.10 0.2138544
377.20 0.2142449
377.30 0.2146401
377.40 0.2150349
377.50 0.2154293
377.60 0.2158281
377.70 0.2162264
377.80 0.2166243
377.90 0.2170217
378.00 0.2174166
378.10 0.2178221
378.20 0.2182273
378.30 0.2186321
378.40 0.2190364
378.50 0.2194402
378.60 0.2198436
378.70 0.2202465
378.80 0.2206489
378.90 0.2210481
379.00 0.2214417
379.10 0.2218481
379.20 0.222254
379.30 0.2226588
379.40 0.2230625
379.50 0.2234657
379.60 0.223868
379.70 0.2242714
379.80 0.2246832
379.90 0.2250945
380.00 0.2255053
380.10 0.2259157
380.20 0.2263256
380.30 0.226735
380.40 0.227144
380.50 0.2275525
380.60 0.2279598
380.70 0.2283753
380.80 0.2287904
380.90 0.2292049
381.00 0.229619
381.10 0.2300307
381.20 0.230441
381.30 0.2308655
381.40 0.2312653
381.50 0.2316844
381.60 0.232104
381.70 0.2325251
381.80 0.2329337
381.90 0.2333544
382.00 0.2337746
382.10 0.2341944
382.20 0.2345934
382.30 0.2350122
382.40 0.2354311
382.50 0.2358504
382.60 0.2362692
382.70 0.2366948
382.80 0.237125
382.90 0.2375517
383.00 0.2379779
383.10 0.2384037
383.20 0.2388269
383.30 0.2392417
383.40 0.2396616
383.50 0.2400892
383.60 0.2405181
383.70 0.2409462
383.80 0.2413737
383.90 0.2418008
384.00 0.2422273
384.10 0.2426534
384.20 0.2430791
384.30 0.2435042
384.40 0.2439302
384.50 0.2443572
384.60 0.2447836
384.70 0.2452095
384.80 0.2456413
384.90 0.2460878
385.00 0.2465186
385.10 0.2469487
385.20 0.2473721
385.30 0.2478019
385.40 0.2482357
385.50 0.2486733
385.60 0.2491105
385.70 0.2495472
385.80 0.249983
385.90 0.2504168
386.00 0.2508511
386.10 0.2512859
386.20 0.2517193
386.30 0.2521521
386.40 0.2525901
386.50 0.2530257
386.60 0.253457
386.70 0.2539049
386.80 0.2543522
386.90 0.2547991
387.00 0.2552256
387.10 0.2556558
387.20 0.2561019
387.30 0.2565461
387.40 0.256989
387.50 0.2574323
387.60 0.2578778
387.70 0.2583207
387.80 0.2587632
387.90 0.2592051
388.00 0.2596461
388.10 0.260099
388.20 0.260535
388.30 0.2609841
388.40 0.2614327
388.50 0.2618882
388.60 0.262351
388.70 0.2627872
388.80 0.2632244
388.90 0.2636921
389.00 0.2641322
389.10 0.2645819
389.20 0.2650373
389.30 0.2654751
389.40 0.2659244
389.50 0.2663801
389.60 0.2668467
389.70 0.2673112
389.80 0.2677665
389.90 0.2682213
390.00 0.2686756
390.10 0.2691294
390.20 0.2695827
390.30 0.2700372
390.40 0.2704932
390.50 0.2709486
390.60 0.2714036
390.70 0.271858
390.80 0.2723083
390.90 0.2727543
391.00 0.2732251
391.10 0.2736819
391.20 0.2741415
391.30 0.2746088
391.40 0.2750713
391.50 0.2755333
391.60 0.2759947
391.70 0.2764556
391.80 0.2769161
391.90 0.2773764
392.00 0.2778412
392.10 0.2783124
392.20 0.2787819
392.30 0.2792346
392.40 0.2796836
392.50 0.2801716
392.60 0.2806227
392.70 0.2811053
392.80 0.2815553
392.90 0.2820201
393.00 0.2824899
393.10 0.2829655
393.20 0.283446
393.30 0.2839095
393.40 0.2843738
393.50 0.2848415
393.60 0.2853122
393.70 0.2857932
393.80 0.2862527
393.90 0.2867291
394.00 0.2872046
394.10 0.2876743
394.20 0.2881424
394.30 0.2886214
394.40 0.2891026
394.50 0.2895684
394.60 0.2900429
394.70 0.2905179
394.80 0.2909968
394.90 0.2914756
395.00 0.2919665
395.10 0.2924327
395.20 0.2929111
395.30 0.293392
395.40 0.2938723
395.50 0.2943532
395.60 0.2948341
395.70 0.2953161
395.80 0.2958024
395.90 0.2962882
396.00 0.2967717
396.10 0.2972413
396.20 0.2977215
396.30 0.2982012
396.40 0.2986804
396.50 0.2991591
396.60 0.2996687
396.70 0.3001419
396.80 0.300616
396.90 0.3011063
397.00 0.3015949
397.10 0.3020966
397.20 0.3025845
397.30 0.3030676
397.40 0.3035553
397.50 0.3040426
397.60 0.3045296
397.70 0.3050198
397.80 0.3055094
397.90 0.3059997
398.00 0.3064928
398.10 0.3069855
398.20 0.3074803
398.30 0.3079777
398.40 0.3084744
398.50 0.3089666
398.60 0.3094505
398.70 0.3099407
398.80 0.3104327
398.90 0.3109073
399.00 0.3113499
399.10 0.3118728
399.20 0.3123573
399.30 0.3128413
399.40 0.3133248
399.50 0.3138078
399.60 0.3143046
399.70 0.3148061
399.80 0.3153072
399.90 0.3158076
400.00 0.3163092
400.10 0.3168643
400.20 0.3174239
400.30 0.3179432
400.40 0.3185162
400.50 0.3188911
400.60 0.3194902
400.70 0.3199469
400.80 0.3205156
400.90 0.3208174
401.00 0.3214988
401.10 0.3220349
401.20 0.3225643
401.30 0.3229951
401.40 0.3234871
401.50 0.324008
401.60 0.324529
401.70 0.3250749
401.80 0.3255851
401.90 0.3260352
402.00 0.3266283
402.10 0.3270668
402.20 0.3275157
402.30 0.32814
402.40 0.3285238
402.50 0.3291651
402.60 0.3296284
402.70 0.3300584
402.80 0.3306568
402.90 0.3311327
403.00 0.3315775
403.10 0.3321437
403.20 0.3326086
403.30 0.3331455
403.40 0.333647
403.50 0.3341809
403.60 0.3347119
403.70 0.3351031
403.80 0.335868
403.90 0.3363908
404.00 0.3369013
404.10 0.3371664
404.20 0.3377566
404.30 0.3383461
404.40 0.3389487
404.50 0.3393721
404.60 0.3398087
404.70 0.3403959
404.80 0.3408579
404.90 0.3415684
405.00 0.3418732
405.10 0.342437
405.20 0.3430212
405.30 0.3436048
405.40 0.3441377
405.50 0.3446699
405.60 0.3452016
405.70 0.3457328
405.80 0.3462633
405.90 0.3467933
406.00 0.3472867
406.10 0.3477796
406.20 0.348272
406.30 0.3487638
406.40 0.3492651
406.50 0.3498887
406.60 0.3505374
406.70 0.3510754
406.80 0.3516034
406.90 0.3519843
407.00 0.3525281
407.10 0.3530713
407.20 0.3536139
407.30 0.3541559
407.40 0.3546974
407.50 0.3552383
407.60 0.3557786
407.70 0.3563184
407.80 0.3568576
407.90 0.3573943
408.00 0.3578687
408.10 0.3583612
408.20 0.358953
408.30 0.3595504
408.40 0.3601472
408.50 0.360476
408.60 0.3610172
408.70 0.3615579
408.80 0.362094
408.90 0.362611
409.00 0.3631716
409.10 0.3637316
409.20 0.364291
409.30 0.3648498
409.40 0.3654078
409.50 0.3659591
409.60 0.3665097
409.70 0.3670498
409.80 0.3675494
409.90 0.3680539
410.00 0.3687315
410.10 0.369287
410.20 0.3698052
410.30 0.3703137
410.40 0.3708419
410.50 0.3714338
410.60 0.372025
410.70 0.3726038
410.80 0.3731345
410.90 0.3736646
411.00 0.3742199
411.10 0.3747841
411.20 0.3753478
411.30 0.3759117
411.40 0.3764776
411.50 0.3770173
411.60 0.3775563
411.70 0.3780964
411.80 0.3786421
411.90 0.3791872
412.00 0.3797317
412.10 0.3802756
412.20 0.380819
412.30 0.3813655
412.40 0.3819251
412.50 0.3824665
412.60 0.3831113
412.70 0.3836341
412.80 0.384126
412.90 0.3847738
413.00 0.385325
413.10 0.3858862
413.20 0.3864468
413.30 0.3870068
413.40 0.3875662
413.50 0.3880963
413.60 0.3885574
413.70 0.3891644
413.80 0.3897708
413.90 0.3903766
414.00 0.3909644
414.10 0.3914968
414.20 0.3920287
414.30 0.3925599
414.40 0.3930907
414.50 0.3936142
414.60 0.3941504
414.70 0.3946795
414.80 0.3952252
414.90 0.395825
415.00 0.3964241
415.10 0.3970227
