# Version 2.1 - nm, norm@500 to 1, cut digits, bergeron_He_20000_85.dat_20000
# Wavelength(nm)  Flambda(ergs/cm^s/s/nm)
300.00 4.217934
300.10 4.215161
300.20 4.212354
300.30 4.209516
300.40 4.206466
300.50 4.20342
300.60 4.200376
300.70 4.197335
300.80 4.194298
300.90 4.191263
301.00 4.188232
301.10 4.185204
301.20 4.182179
301.30 4.179157
301.40 4.176138
301.50 4.173122
301.60 4.170109
301.70 4.167099
301.80 4.164093
301.90 4.161089
302.00 4.158089
302.10 4.154718
302.20 4.151309
302.30 4.147904
302.40 4.144503
302.50 4.141105
302.60 4.137711
302.70 4.13432
302.80 4.130933
302.90 4.12755
303.00 4.12417
303.10 4.120794
303.20 4.117421
303.30 4.114037
303.40 4.110525
303.50 4.107016
303.60 4.103511
303.70 4.10001
303.80 4.096513
303.90 4.093019
304.00 4.089529
304.10 4.086043
304.20 4.082561
304.30 4.079082
304.40 4.075607
304.50 4.072135
304.60 4.068626
304.70 4.065117
304.80 4.061611
304.90 4.058108
305.00 4.05461
305.10 4.051115
305.20 4.047624
305.30 4.044137
305.40 4.040653
305.50 4.037173
305.60 4.033697
305.70 4.030224
305.80 4.026755
305.90 4.02329
306.00 4.019828
306.10 4.01637
306.20 4.012916
306.30 4.009466
306.40 4.00597
306.50 4.002464
306.60 3.998961
306.70 3.995462
306.80 3.991967
306.90 3.988476
307.00 3.984988
307.10 3.981504
307.20 3.978024
307.30 3.974547
307.40 3.971074
307.50 3.967605
307.60 3.964139
307.70 3.960677
307.80 3.957219
307.90 3.953764
308.00 3.950313
308.10 3.946866
308.20 3.943422
308.30 3.939982
308.40 3.936546
308.50 3.933113
308.60 3.929684
308.70 3.926258
308.80 3.922787
308.90 3.919179
309.00 3.915535
309.10 3.911896
309.20 3.90826
309.30 3.904628
309.40 3.900999
309.50 3.897368
309.60 3.89374
309.70 3.890117
309.80 3.886498
309.90 3.882882
310.00 3.87927
310.10 3.875662
310.20 3.872058
310.30 3.868458
310.40 3.864808
310.50 3.861103
310.60 3.857402
310.70 3.853705
310.80 3.850012
310.90 3.846323
311.00 3.842785
311.10 3.83925
311.20 3.835719
311.30 3.832088
311.40 3.828165
311.50 3.824246
311.60 3.820331
311.70 3.816421
311.80 3.812515
311.90 3.808613
312.00 3.804715
312.10 3.800822
312.20 3.796565
312.30 3.792304
312.40 3.788414
312.50 3.784392
312.60 3.780557
312.70 3.776727
312.80 3.772901
312.90 3.76886
313.00 3.764588
313.10 3.760321
313.20 3.756058
313.30 3.751674
313.40 3.746938
313.50 3.742208
313.60 3.737482
313.70 3.732762
313.80 3.728047
313.90 3.723338
314.00 3.718634
314.10 3.713406
314.20 3.708185
314.30 3.702969
314.40 3.697759
314.50 3.692556
314.60 3.687358
314.70 3.682165
314.80 3.676855
314.90 3.670692
315.00 3.663988
315.10 3.657566
315.20 3.65115
315.30 3.644743
315.40 3.638342
315.50 3.63195
315.60 3.625564
315.70 3.619723
315.80 3.613888
315.90 3.608061
316.00 3.602239
316.10 3.596104
316.20 3.589975
316.30 3.585779
316.40 3.577096
316.50 3.557523
316.60 3.525798
316.70 3.495394
316.80 3.465027
316.90 3.459962
317.00 3.454903
317.10 3.44985
317.20 3.444802
317.30 3.456565
317.40 3.464302
317.50 3.460624
317.60 3.456951
317.70 3.453281
317.80 3.449615
317.90 3.424865
318.00 3.391248
318.10 3.337698
318.20 3.284214
318.30 3.230798
318.40 3.156361
318.50 3.022041
318.60 2.863045
318.70 2.4973
318.80 1.86695
318.90 2.383384
319.00 2.640537
319.10 2.797218
319.20 2.93164
319.30 3.003141
319.40 3.074551
319.50 3.145872
319.60 3.201199
319.70 3.234443
319.80 3.267645
319.90 3.300805
320.00 3.328177
320.10 3.349292
320.20 3.368068
320.30 3.384079
320.40 3.398861
320.50 3.410248
320.60 3.420969
320.70 3.429453
320.80 3.436278
320.90 3.44131
321.00 3.446335
321.10 3.451353
321.20 3.455125
321.30 3.456635
321.40 3.458142
321.50 3.459647
321.60 3.461149
321.70 3.462648
321.80 3.463601
321.90 3.463962
322.00 3.462613
322.10 3.462003
322.20 3.461393
322.30 3.460784
322.40 3.460175
322.50 3.459566
322.60 3.458956
322.70 3.458347
322.80 3.458321
322.90 3.456507
323.00 3.454695
323.10 3.452885
323.20 3.451076
323.30 3.449269
323.40 3.447464
323.50 3.44566
323.60 3.443857
323.70 3.442057
323.80 3.440257
323.90 3.43846
324.00 3.436337
324.10 3.434217
324.20 3.432099
324.30 3.429983
324.40 3.427653
324.50 3.425092
324.60 3.422534
324.70 3.419978
324.80 3.417425
324.90 3.414874
325.00 3.412326
325.10 3.40978
325.20 3.407244
325.30 3.404727
325.40 3.402212
325.50 3.399614
325.60 3.396916
325.70 3.39422
325.80 3.391527
325.90 3.388854
326.00 3.386202
326.10 3.383553
326.20 3.380907
326.30 3.378412
326.40 3.376342
326.50 3.373527
326.60 3.370715
326.70 3.367906
326.80 3.3651
326.90 3.362296
327.00 3.359495
327.10 3.356697
327.20 3.353902
327.30 3.351109
327.40 3.34832
327.50 3.345533
327.60 3.342749
327.70 3.339968
327.80 3.337189
327.90 3.334212
328.00 3.330731
328.10 3.326901
328.20 3.323074
328.30 3.319252
328.40 3.315434
328.50 3.312531
328.60 3.309845
328.70 3.307161
328.80 3.304576
328.90 3.302265
329.00 3.299957
329.10 3.29765
329.20 3.295346
329.30 3.293044
329.40 3.290744
329.50 3.288446
329.60 3.286151
329.70 3.283858
329.80 3.281566
329.90 3.279277
330.00 3.276858
330.10 3.274279
330.20 3.271703
330.30 3.269129
330.40 3.266534
330.50 3.263918
330.60 3.261305
330.70 3.258694
330.80 3.256085
330.90 3.253479
331.00 3.250876
331.10 3.248275
331.20 3.245677
331.30 3.243081
331.40 3.240488
331.50 3.237972
331.60 3.23555
331.70 3.233131
331.80 3.230417
331.90 3.227694
332.00 3.224973
332.10 3.222255
332.20 3.21954
332.30 3.216828
332.40 3.214118
332.50 3.211411
332.60 3.208707
332.70 3.206005
332.80 3.203306
332.90 3.200609
333.00 3.197915
333.10 3.195103
333.20 3.192144
333.30 3.189188
333.40 3.186235
333.50 3.183285
333.60 3.180338
333.70 3.177393
333.80 3.174452
333.90 3.171514
334.00 3.168579
334.10 3.165422
334.20 3.161994
334.30 3.15857
334.40 3.15515
334.50 3.151733
334.60 3.148319
334.70 3.145101
334.80 3.141496
334.90 3.136997
335.00 3.132503
335.10 3.128167
335.20 3.124586
335.30 3.120637
335.40 3.117635
335.50 3.117061
335.60 3.116201
335.70 3.114858
335.80 3.114142
335.90 3.113171
336.00 3.111887
336.10 3.110604
336.20 3.109322
336.30 3.107701
336.40 3.105664
336.50 3.103629
336.60 3.101597
336.70 3.099566
336.80 3.097537
336.90 3.095468
337.00 3.093351
337.10 3.091237
337.20 3.089124
337.30 3.086972
337.40 3.084764
337.50 3.082558
337.60 3.080353
337.70 3.078151
337.80 3.075951
337.90 3.073727
338.00 3.071473
338.10 3.06922
338.20 3.06697
338.30 3.064722
338.40 3.062456
338.50 3.060142
338.60 3.05783
338.70 3.05552
338.80 3.053213
338.90 3.050907
339.00 3.048604
339.10 3.046303
339.20 3.044004
339.30 3.041447
339.40 3.038517
339.50 3.035755
339.60 3.033199
339.70 3.030645
339.80 3.028093
339.90 3.025545
340.00 3.022998
340.10 3.020454
340.20 3.017912
340.30 3.015373
340.40 3.012837
340.50 3.010303
340.60 3.007771
340.70 3.005242
340.80 3.002797
340.90 3.000471
341.00 2.997967
341.10 2.995243
341.20 2.992522
341.30 2.989804
341.40 2.987088
341.50 2.984375
341.60 2.981665
341.70 2.978957
341.80 2.976103
341.90 2.973069
342.00 2.970039
342.10 2.967011
342.20 2.963696
342.30 2.960155
342.40 2.956817
342.50 2.953437
342.60 2.95006
342.70 2.946687
342.80 2.943317
342.90 2.939951
343.00 2.936479
343.10 2.932876
343.20 2.929278
343.30 2.925683
343.40 2.921823
343.50 2.917582
343.60 2.913345
343.70 2.909112
343.80 2.904884
343.90 2.90066
344.00 2.895811
344.10 2.890059
344.20 2.884314
344.30 2.878575
344.40 2.872064
344.50 2.864444
344.60 2.857026
344.70 2.849476
344.80 2.853821
344.90 2.856567
345.00 2.860891
345.10 2.863548
345.20 2.865329
345.30 2.865854
345.40 2.866377
345.50 2.866849
345.60 2.866778
345.70 2.866016
345.80 2.865254
345.90 2.864492
346.00 2.863731
346.10 2.86297
346.20 2.861843
346.30 2.860191
346.40 2.85854
346.50 2.85689
346.60 2.855242
346.70 2.853595
346.80 2.851949
346.90 2.850305
347.00 2.848663
347.10 2.847022
347.20 2.845262
347.30 2.843333
347.40 2.841406
347.50 2.83948
347.60 2.837557
347.70 2.835635
347.80 2.833714
347.90 2.831796
348.00 2.829879
348.10 2.827964
348.20 2.82605
348.30 2.824139
348.40 2.822229
348.50 2.82032
348.60 2.818414
348.70 2.816728
348.80 2.814911
348.90 2.812806
349.00 2.810702
349.10 2.8086
349.20 2.8065
349.30 2.804402
349.40 2.802306
349.50 2.800211
349.60 2.798119
349.70 2.796029
349.80 2.793941
349.90 2.791854
350.00 2.78977
350.10 2.787687
350.20 2.785606
350.30 2.783534
350.40 2.781472
350.50 2.779412
350.60 2.777353
350.70 2.775297
350.80 2.773243
350.90 2.77119
351.00 2.76914
351.10 2.767091
351.20 2.765044
351.30 2.762999
351.40 2.760925
351.50 2.758796
351.60 2.75667
351.70 2.754546
351.80 2.752423
351.90 2.750303
352.00 2.748185
352.10 2.746068
352.20 2.743828
352.30 2.741641
352.40 2.739551
352.50 2.737463
352.60 2.735376
352.70 2.733291
352.80 2.731209
352.90 2.729128
353.00 2.727049
353.10 2.724972
353.20 2.722897
353.30 2.720824
353.40 2.718753
353.50 2.716738
353.60 2.714739
353.70 2.712742
353.80 2.710746
353.90 2.708713
354.00 2.70661
354.10 2.704509
354.20 2.70241
354.30 2.700313
354.40 2.698218
354.50 2.696125
354.60 2.694033
354.70 2.691944
354.80 2.689901
354.90 2.687923
355.00 2.685946
355.10 2.683972
355.20 2.681999
355.30 2.679781
355.40 2.677565
355.50 2.675351
355.60 2.67314
355.70 2.671117
355.80 2.66918
355.90 2.667402
356.00 2.665342
356.10 2.663144
356.20 2.660948
356.30 2.658753
356.40 2.656561
356.50 2.654371
356.60 2.652183
356.70 2.649997
356.80 2.647813
356.90 2.645631
357.00 2.643451
357.10 2.641273
357.20 2.639097
357.30 2.636923
357.40 2.634678
357.50 2.632307
357.60 2.629938
357.70 2.627572
357.80 2.625191
357.90 2.622812
358.00 2.620166
358.10 2.617456
358.20 2.614748
358.30 2.612042
358.40 2.60934
358.50 2.60664
358.60 2.603942
358.70 2.601247
358.80 2.598555
358.90 2.595865
359.00 2.59282
359.10 2.589142
359.20 2.585425
359.30 2.581424
359.40 2.577427
359.50 2.573209
359.60 2.56894
359.70 2.564674
359.80 2.559866
359.90 2.555063
360.00 2.54962
360.10 2.543038
360.20 2.536464
360.30 2.529896
360.40 2.523335
360.50 2.516781
360.60 2.507826
360.70 2.496561
360.80 2.485309
360.90 2.474069
361.00 2.46132
361.10 2.441816
361.20 2.419348
361.30 2.392225
361.40 2.42636
361.50 2.456622
361.60 2.469726
361.70 2.470324
361.80 2.471733
361.90 2.474582
362.00 2.477428
362.10 2.479623
362.20 2.480662
362.30 2.479937
362.40 2.479212
362.50 2.478487
362.60 2.477763
362.70 2.475983
362.80 2.474185
362.90 2.471851
363.00 2.469519
363.10 2.467268
363.20 2.46502
363.30 2.464459
363.40 2.463833
363.50 2.465637
363.60 2.46914
363.70 2.47199
363.80 2.474191
363.90 2.475834
364.00 2.477475
364.10 2.479113
364.20 2.48075
364.30 2.482569
364.40 2.484431
364.50 2.485992
364.60 2.486876
364.70 2.487758
364.80 2.488639
364.90 2.488723
365.00 2.488806
365.10 2.488406
365.20 2.486562
365.30 2.485201
365.40 2.485284
365.50 2.485367
365.60 2.485449
365.70 2.485836
365.80 2.486223
365.90 2.486066
366.00 2.485773
366.10 2.485122
366.20 2.484471
366.30 2.483821
366.40 2.48317
366.50 2.481865
366.60 2.480511
366.70 2.479158
366.80 2.477807
366.90 2.476147
367.00 2.47394
367.10 2.471735
367.20 2.469533
367.30 2.467332
367.40 2.465133
367.50 2.462775
367.60 2.460379
367.70 2.45704
367.80 2.453705
367.90 2.450373
368.00 2.44697
368.10 2.443294
368.20 2.438501
368.30 2.433701
368.40 2.428906
368.50 2.424117
368.60 2.419332
368.70 2.414551
368.80 2.409776
368.90 2.405039
369.00 2.399309
369.10 2.39332
369.20 2.387264
369.30 2.380006
369.40 2.372755
369.50 2.365512
369.60 2.356278
369.70 2.347054
369.80 2.337913
369.90 2.328783
370.00 2.319662
370.10 2.31011
370.20 2.299952
370.30 2.28981
370.40 2.280151
370.50 2.277341
370.60 2.28681
370.70 2.298805
370.80 2.307792
370.90 2.316769
371.00 2.321194
371.10 2.325568
371.20 2.329418
371.30 2.333263
371.40 2.337718
371.50 2.341833
371.60 2.345944
371.70 2.350049
371.80 2.35415
371.90 2.358246
372.00 2.361674
372.10 2.365044
372.20 2.367173
372.30 2.3693
372.40 2.371425
372.50 2.373546
372.60 2.375665
372.70 2.377782
372.80 2.378346
372.90 2.378909
373.00 2.379489
373.10 2.380069
373.20 2.378794
373.30 2.377519
373.40 2.371179
373.50 2.366686
373.60 2.36818
373.70 2.370593
373.80 2.373088
373.90 2.375409
374.00 2.376894
374.10 2.378377
374.20 2.379858
374.30 2.381338
374.40 2.381784
374.50 2.381543
374.60 2.381407
374.70 2.381283
374.80 2.381159
374.90 2.381034
375.00 2.380373
375.10 2.379713
375.20 2.379053
375.30 2.377655
375.40 2.376258
375.50 2.374862
375.60 2.373468
375.70 2.372075
375.80 2.370682
375.90 2.369291
376.00 2.368031
376.10 2.365989
376.20 2.36394
376.30 2.361893
376.40 2.359848
376.50 2.357621
376.60 2.35512
376.70 2.352621
376.80 2.349799
376.90 2.346655
377.00 2.343514
377.10 2.340376
377.20 2.337166
377.30 2.333678
377.40 2.330194
377.50 2.326713
377.60 2.322739
377.70 2.318768
377.80 2.314801
377.90 2.310839
378.00 2.307097
378.10 2.301839
378.20 2.296568
378.30 2.291302
378.40 2.286041
378.50 2.280786
378.60 2.275536
378.70 2.270291
378.80 2.265051
378.90 2.259374
379.00 2.252882
379.10 2.24633
379.20 2.239785
379.30 2.232613
379.40 2.224815
379.50 2.217024
379.60 2.209191
379.70 2.2007
379.80 2.190007
379.90 2.179325
380.00 2.168654
380.10 2.157993
380.20 2.147344
380.30 2.136706
380.40 2.126078
380.50 2.115462
380.60 2.101114
380.70 2.087117
380.80 2.073135
380.90 2.059167
381.00 2.045214
381.10 2.03419
381.20 2.020476
381.30 2.002235
381.40 1.982413
381.50 1.960552
381.60 1.937845
381.70 1.91434
381.80 1.894765
381.90 1.889369
382.00 1.873413
382.10 1.90279
382.20 1.936708
382.30 1.966899
382.40 1.992618
382.50 2.011655
382.60 2.030672
382.70 2.046191
382.80 2.054719
382.90 2.060182
383.00 2.065638
383.10 2.071089
383.20 2.076889
383.30 2.084018
383.40 2.091103
383.50 2.098123
383.60 2.104593
383.70 2.109935
383.80 2.11527
383.90 2.120599
384.00 2.125923
384.10 2.131241
384.20 2.136553
384.30 2.141859
384.40 2.146384
384.50 2.150129
384.60 2.15387
384.70 2.157606
384.80 2.161379
384.90 2.164705
385.00 2.166928
385.10 2.169145
385.20 2.170927
385.30 2.172436
385.40 2.173533
385.50 2.174219
385.60 2.174904
385.70 2.175588
385.80 2.176103
385.90 2.175984
386.00 2.175667
386.10 2.174976
386.20 2.17252
386.30 2.170066
386.40 2.166788
386.50 2.161592
386.60 2.152927
386.70 2.136995
386.80 2.097036
386.90 2.100672
387.00 2.107157
387.10 2.111641
387.20 2.114919
387.30 2.115391
387.40 2.112777
387.50 2.108265
387.60 2.102222
387.70 2.090668
387.80 2.079126
387.90 2.067595
388.00 2.054312
388.10 2.032823
388.20 1.999198
388.30 1.957595
388.40 1.916036
388.50 1.861527
388.60 1.775841
388.70 1.643615
388.80 1.380881
388.90 1.231525
389.00 1.484006
389.10 1.640704
389.20 1.739658
389.30 1.811268
389.40 1.865516
389.50 1.913018
389.60 1.94899
389.70 1.975146
389.80 1.993257
389.90 2.011349
390.00 2.029422
390.10 2.047476
390.20 2.065512
390.30 2.07879
390.40 2.086714
390.50 2.094629
390.60 2.102536
390.70 2.110435
390.80 2.116691
390.90 2.121308
391.00 2.125384
391.10 2.128374
391.20 2.13122
391.30 2.132919
391.40 2.133926
391.50 2.134932
391.60 2.135936
391.70 2.136938
391.80 2.13794
391.90 2.138325
392.00 2.137847
392.10 2.137119
392.20 2.136358
392.30 2.134985
392.40 2.133347
392.50 2.13226
392.60 2.13034
392.70 2.128422
392.80 2.126777
392.90 2.125269
393.00 2.123745
393.10 2.121864
393.20 2.119614
393.30 2.117706
393.40 2.115667
393.50 2.112625
393.60 2.109713
393.70 2.106849
393.80 2.10307
393.90 2.099519
394.00 2.095954
394.10 2.091897
394.20 2.087479
394.30 2.082587
394.40 2.077495
394.50 2.071898
394.60 2.064856
394.70 2.05757
394.80 2.049344
394.90 2.041105
395.00 2.032181
395.10 2.022313
395.20 2.010752
395.30 1.999023
395.40 1.987306
395.50 1.972688
395.60 1.957009
395.70 1.939247
395.80 1.915832
395.90 1.89244
396.00 1.868122
396.10 1.829528
396.20 1.778273
396.30 1.718568
396.40 1.608617
396.50 1.701605
396.60 1.834988
396.70 1.864492
396.80 1.857913
396.90 1.85087
397.00 1.877977
397.10 1.917086
397.20 1.938975
397.30 1.945287
397.40 1.94789
397.50 1.950489
397.60 1.952868
397.70 1.953038
397.80 1.953207
397.90 1.95291
398.00 1.951349
398.10 1.94979
398.20 1.947568
398.30 1.944598
398.40 1.941598
398.50 1.937513
398.60 1.933797
398.70 1.928875
398.80 1.923622
398.90 1.917989
399.00 1.911648
399.10 1.905235
399.20 1.89744
399.30 1.889652
399.40 1.881871
399.50 1.874099
399.60 1.865819
399.70 1.857358
399.80 1.848905
399.90 1.84046
400.00 1.832008
400.10 1.823067
400.20 1.813645
400.30 1.803459
400.40 1.793056
400.50 1.782825
400.60 1.770844
400.70 1.759159
400.80 1.74595
400.90 1.73189
401.00 1.717281
401.10 1.703813
401.20 1.689169
401.30 1.673654
401.40 1.655861
401.50 1.637327
401.60 1.618681
401.70 1.595828
401.80 1.570971
401.90 1.541109
402.00 1.509388
402.10 1.473888
402.20 1.436279
402.30 1.394575
402.40 1.347183
402.50 1.285405
402.60 1.232032
402.70 1.295219
402.80 1.354752
402.90 1.407736
403.00 1.459244
403.10 1.506115
403.20 1.545937
403.30 1.580408
403.40 1.611443
403.50 1.637056
403.60 1.661216
403.70 1.681365
403.80 1.698296
403.90 1.711773
404.00 1.724537
404.10 1.733894
404.20 1.73972
404.30 1.74554
404.40 1.747819
404.50 1.743029
404.60 1.739813
404.70 1.74366
404.80 1.75006
404.90 1.756042
405.00 1.763058
405.10 1.769518
405.20 1.77591
405.30 1.782296
405.40 1.788191
405.50 1.794081
405.60 1.799964
405.70 1.805841
405.80 1.811712
405.90 1.817577
406.00 1.822327
406.10 1.827072
406.20 1.831813
406.30 1.836548
406.40 1.841265
406.50 1.846241
406.60 1.850177
406.70 1.853928
406.80 1.857868
406.90 1.862314
407.00 1.865431
407.10 1.868546
407.20 1.871657
407.30 1.874765
407.40 1.877869
407.50 1.880971
407.60 1.884069
407.70 1.887164
407.80 1.890255
407.90 1.893324
408.00 1.89577
408.10 1.897924
408.20 1.89959
408.30 1.901421
408.40 1.903249
408.50 1.905372
408.60 1.90657
408.70 1.907766
408.80 1.908921
408.90 1.909719
409.00 1.910407
409.10 1.911093
409.20 1.911779
409.30 1.912464
409.40 1.913132
409.50 1.913281
409.60 1.913429
409.70 1.913502
409.80 1.913273
409.90 1.913045
410.00 1.912854
410.10 1.912558
410.20 1.911753
410.30 1.910821
410.40 1.909649
410.50 1.907716
410.60 1.905784
410.70 1.903623
410.80 1.900538
410.90 1.897457
411.00 1.893593
411.10 1.889442
411.20 1.885294
411.30 1.880758
411.40 1.874592
411.50 1.866443
411.60 1.858301
411.70 1.848582
411.80 1.832533
411.90 1.814228
412.00 1.77475
412.10 1.632999
412.20 1.642225
412.30 1.688309
412.40 1.717496
412.50 1.734858
412.60 1.74857
412.70 1.758615
412.80 1.767737
412.90 1.776235
413.00 1.780476
413.10 1.782751
413.20 1.785023
413.30 1.787293
413.40 1.78956
413.50 1.791512
413.60 1.792061
413.70 1.792133
413.80 1.792204
413.90 1.792276
414.00 1.791852
414.10 1.789863
414.20 1.787696
414.30 1.78354
414.40 1.780286
414.50 1.779634
414.60 1.783142
414.70 1.788258
414.80 1.793414
414.90 1.798707
415.00 1.803994
415.10 1.809276
415.20 1.814302
415.30 1.818533
415.40 1.82276
415.50 1.826958
415.60 1.830344
415.70 1.833727
415.80 1.836964
415.90 1.839745
416.00 1.842524
416.10 1.845101
416.20 1.846882
416.30 1.848661
416.40 1.850438
416.50 1.852178
416.60 1.85277
416.70 1.853316
416.80 1.853166
416.90 1.850346
417.00 1.849173
417.10 1.851317
417.20 1.853013
417.30 1.8547
417.40 1.856157
417.50 1.857611
417.60 1.858974
417.70 1.859963
417.80 1.860667
417.90 1.861371
418.00 1.862073
418.10 1.862775
418.20 1.863476
418.30 1.864156
418.40 1.864219
418.50 1.864364
418.60 1.864508
418.70 1.864652
418.80 1.864795
418.90 1.864938
419.00 1.865081
419.10 1.865224
419.20 1.865366
419.30 1.865492
419.40 1.865119
419.50 1.864746
419.60 1.864368
419.70 1.863972
419.80 1.863577
419.90 1.863149
420.00 1.862619
420.10 1.862089
420.20 1.861559
420.30 1.861029
420.40 1.8605
420.50 1.859971
420.60 1.859442
420.70 1.858914
420.80 1.858386
420.90 1.857855
421.00 1.857233
421.10 1.856612
421.20 1.855952
421.30 1.855174
421.40 1.854397
421.50 1.85362
421.60 1.852844
421.70 1.852068
421.80 1.851293
421.90 1.850494
422.00 1.849617
422.10 1.848695
422.20 1.847592
422.30 1.84649
422.40 1.84539
422.50 1.844335
422.60 1.84328
422.70 1.842227
422.80 1.841174
422.90 1.840122
423.00 1.83907
423.10 1.83802
423.20 1.83697
423.30 1.835921
423.40 1.834873
423.50 1.833826
423.60 1.832779
423.70 1.831733
423.80 1.830688
423.90 1.829644
424.00 1.8286
424.10 1.827558
424.20 1.826516
424.30 1.825475
424.40 1.824467
424.50 1.823247
424.60 1.822029
424.70 1.820811
424.80 1.819594
424.90 1.818378
425.00 1.817164
