# Version 2.1 - nm, norm@500 to 1, cut digits, bergeron_He_5000_70.dat_5000
# Wavelength(nm)  Flambda(ergs/cm^s/s/nm)
300.00 0.1074344
300.10 0.1077044
300.20 0.1079749
300.30 0.1082458
300.40 0.1085216
300.50 0.108797
300.60 0.109072
300.70 0.1093466
300.80 0.1096208
300.90 0.1098946
301.00 0.110168
301.10 0.1104411
301.20 0.1107137
301.30 0.110986
301.40 0.1112579
301.50 0.1115294
301.60 0.1118005
301.70 0.1120712
301.80 0.1123416
301.90 0.1126116
302.00 0.1128811
302.10 0.1131595
302.20 0.1134385
302.30 0.1137172
302.40 0.1139954
302.50 0.1142732
302.60 0.1145507
302.70 0.1148277
302.80 0.1151044
302.90 0.1153806
303.00 0.1156565
303.10 0.115932
303.20 0.1162071
303.30 0.1164829
303.40 0.116768
303.50 0.1170527
303.60 0.117337
303.70 0.1176209
303.80 0.1179044
303.90 0.1181875
304.00 0.1184702
304.10 0.1187525
304.20 0.1190344
304.30 0.1193159
304.40 0.119597
304.50 0.1198777
304.60 0.120175
304.70 0.1204738
304.80 0.1207721
304.90 0.1210701
305.00 0.1213676
305.10 0.1216647
305.20 0.1219614
305.30 0.1222576
305.40 0.1225535
305.50 0.1228489
305.60 0.1231439
305.70 0.1234385
305.80 0.1237327
305.90 0.1240265
306.00 0.1243199
306.10 0.1246129
306.20 0.1249054
306.30 0.1251976
306.40 0.1254982
306.50 0.125801
306.60 0.1261033
306.70 0.1264053
306.80 0.1267068
306.90 0.1270079
307.00 0.1273086
307.10 0.1276089
307.20 0.1279088
307.30 0.1282082
307.40 0.1285072
307.50 0.1288058
307.60 0.129104
307.70 0.1294018
307.80 0.1296992
307.90 0.1299961
308.00 0.1302927
308.10 0.1305888
308.20 0.1308845
308.30 0.1311798
308.40 0.1314747
308.50 0.1317692
308.60 0.1320633
308.70 0.1323569
308.80 0.1326418
308.90 0.1329027
309.00 0.1332208
309.10 0.1335386
309.20 0.1338559
309.30 0.1341728
309.40 0.134488
309.50 0.1347953
309.60 0.1351021
309.70 0.1354085
309.80 0.1357144
309.90 0.13602
310.00 0.1363251
310.10 0.1366298
310.20 0.1369341
310.30 0.137238
310.40 0.1375523
310.50 0.1378779
310.60 0.138203
310.70 0.1385277
310.80 0.138852
310.90 0.1391758
311.00 0.1394896
311.10 0.139803
311.20 0.1401159
311.30 0.1404287
311.40 0.1407417
311.50 0.1410544
311.60 0.1413666
311.70 0.1416784
311.80 0.1419898
311.90 0.1423007
312.00 0.1426113
312.10 0.1429213
312.20 0.1432577
312.30 0.1435577
312.40 0.1438217
312.50 0.1442368
312.60 0.1445459
312.70 0.1448545
312.80 0.1451627
312.90 0.1454719
313.00 0.1457822
313.10 0.1460921
313.20 0.1464016
313.30 0.1467163
313.40 0.1470464
313.50 0.1473762
313.60 0.1477054
313.70 0.1480342
313.80 0.1483626
313.90 0.1486905
314.00 0.149018
314.10 0.1493461
314.20 0.1496738
314.30 0.1500011
314.40 0.1503279
314.50 0.1506543
314.60 0.1509802
314.70 0.1513057
314.80 0.1516264
314.90 0.1519447
315.00 0.152274
315.10 0.1526147
315.20 0.1529549
315.30 0.1532946
315.40 0.1536339
315.50 0.1539727
315.60 0.154311
315.70 0.1546576
315.80 0.1550037
315.90 0.1553494
316.00 0.1556946
316.10 0.1560133
316.20 0.1563315
316.30 0.1566493
316.40 0.1570187
316.50 0.1573355
316.60 0.157704
316.70 0.15802
316.80 0.1583355
316.90 0.1586766
317.00 0.1590172
317.10 0.1593574
317.20 0.1596971
317.30 0.1600128
317.40 0.1603398
317.50 0.1606999
317.60 0.1610595
317.70 0.1614185
317.80 0.1617771
317.90 0.1620824
318.00 0.1624089
318.10 0.1627445
318.20 0.1630796
318.30 0.1634142
318.40 0.1637551
318.50 0.1641146
318.60 0.1644868
318.70 0.164794
318.80 0.1651725
318.90 0.1655095
319.00 0.1658912
319.10 0.1661966
319.20 0.1665147
319.30 0.1668701
319.40 0.167225
319.50 0.1675794
319.60 0.1679345
319.70 0.1682879
319.80 0.1686409
319.90 0.1689935
320.00 0.1693456
320.10 0.1696975
320.20 0.1700676
320.30 0.1703733
320.40 0.1707339
320.50 0.1711042
320.60 0.1714496
320.70 0.1717986
320.80 0.1721594
320.90 0.1725327
321.00 0.1729056
321.10 0.173278
321.20 0.1736387
321.30 0.1739847
321.40 0.1743302
321.50 0.1746753
321.60 0.1750198
321.70 0.175364
321.80 0.1757188
321.90 0.1760853
322.00 0.1764239
322.10 0.1767891
322.20 0.1771538
322.30 0.177518
322.40 0.1778817
322.50 0.178245
322.60 0.1786077
322.70 0.17897
322.80 0.1793296
322.90 0.1796978
323.00 0.1800656
323.10 0.1804328
323.20 0.1807996
323.30 0.1811658
323.40 0.1815316
323.50 0.1818969
323.60 0.1822617
323.70 0.1826261
323.80 0.1829899
323.90 0.1833533
324.00 0.1837179
324.10 0.1840819
324.20 0.1844456
324.30 0.1848168
324.40 0.1851999
324.50 0.1855709
324.60 0.1859413
324.70 0.1863113
324.80 0.1866808
324.90 0.1870498
325.00 0.1874183
325.10 0.1877863
325.20 0.1881531
325.30 0.1885178
325.40 0.188882
325.50 0.1892528
325.60 0.1896317
325.70 0.1900101
325.80 0.1903881
325.90 0.1907626
326.00 0.1911335
326.10 0.1915039
326.20 0.1918739
326.30 0.1922378
326.40 0.1925858
326.50 0.1929728
326.60 0.1933592
326.70 0.1937451
326.80 0.1941306
326.90 0.1945155
327.00 0.1948999
327.10 0.1952838
327.20 0.1956672
327.30 0.1960501
327.40 0.1964325
327.50 0.1968143
327.60 0.1971957
327.70 0.1975766
327.80 0.197957
327.90 0.1983224
328.00 0.1986855
328.10 0.1990651
328.20 0.1994442
328.30 0.1998228
328.40 0.2002009
328.50 0.2005925
328.60 0.2009869
328.70 0.2013809
328.80 0.2017738
328.90 0.202165
329.00 0.2025557
329.10 0.2029458
329.20 0.2033354
329.30 0.2037246
329.40 0.2041132
329.50 0.2045013
329.60 0.2048889
329.70 0.205276
329.80 0.2056626
329.90 0.2060487
330.00 0.2064323
330.10 0.2068131
330.20 0.2071934
330.30 0.2075732
330.40 0.2079594
330.50 0.2083525
330.60 0.2087451
330.70 0.2091372
330.80 0.2095287
330.90 0.2099198
331.00 0.2103103
331.10 0.2107004
331.20 0.2110899
331.30 0.2114789
331.40 0.2118674
331.50 0.2122632
331.60 0.212668
331.70 0.2130723
331.80 0.2134764
331.90 0.2138799
332.00 0.2142829
332.10 0.2146853
332.20 0.2150873
332.30 0.2154887
332.40 0.2158896
332.50 0.21629
332.60 0.2166898
332.70 0.2170892
332.80 0.217488
332.90 0.2178863
333.00 0.2182841
333.10 0.2186845
333.20 0.2190882
333.30 0.2194915
333.40 0.2198942
333.50 0.2202963
333.60 0.220698
333.70 0.2210991
333.80 0.2214997
333.90 0.2218998
334.00 0.2222994
334.10 0.2227041
334.20 0.223115
334.30 0.2235255
334.40 0.2239354
334.50 0.2243448
334.60 0.2247536
334.70 0.2251593
334.80 0.2255594
334.90 0.2259566
335.00 0.2263534
335.10 0.226766
335.20 0.2271872
335.30 0.2275661
335.40 0.2279862
335.50 0.2284057
335.60 0.2288248
335.70 0.2291924
335.80 0.2296104
335.90 0.2300278
336.00 0.2304447
336.10 0.230861
336.20 0.2312769
336.30 0.2316922
336.40 0.2321069
336.50 0.2325211
336.60 0.2329348
336.70 0.233348
336.80 0.2337606
336.90 0.2341702
337.00 0.2345764
337.10 0.2349819
337.20 0.235387
337.30 0.2358016
337.40 0.2362301
337.50 0.2366581
337.60 0.2370855
337.70 0.2375123
337.80 0.2379386
337.90 0.2383562
338.00 0.2387631
338.10 0.2391695
338.20 0.2395754
338.30 0.2399808
338.40 0.2403936
338.50 0.2408251
338.60 0.241256
338.70 0.2416864
338.80 0.2421162
338.90 0.2425455
339.00 0.2429743
339.10 0.2434025
339.20 0.2438301
339.30 0.2442504
339.40 0.2446603
339.50 0.2450796
339.60 0.2455104
339.70 0.2459406
339.80 0.2463703
339.90 0.2467994
340.00 0.247228
340.10 0.2476561
340.20 0.2480836
340.30 0.2485105
340.40 0.2489369
340.50 0.2493628
340.60 0.2497881
340.70 0.2502129
340.80 0.2506282
340.90 0.2510302
341.00 0.2514468
341.10 0.2518816
341.20 0.2523158
341.30 0.2527494
341.40 0.2531825
341.50 0.253615
341.60 0.254047
341.70 0.2544784
341.80 0.2549128
341.90 0.255351
342.00 0.2557886
342.10 0.2562257
342.20 0.256634
342.30 0.2570336
342.40 0.2574676
342.50 0.2579135
342.60 0.2583588
342.70 0.2588035
342.80 0.2592476
342.90 0.2596912
343.00 0.2601331
343.10 0.2605731
343.20 0.2610125
343.30 0.2614514
343.40 0.2618891
343.50 0.2623254
343.60 0.2627611
343.70 0.2631963
343.80 0.263631
343.90 0.2640651
344.00 0.2645016
344.10 0.2649419
344.20 0.2653817
344.30 0.2658209
344.40 0.2662506
344.50 0.2666667
344.60 0.2671183
344.70 0.2675334
344.80 0.2680334
344.90 0.2684496
345.00 0.2688451
345.10 0.2693018
345.20 0.2697492
345.30 0.2701835
345.40 0.2706172
345.50 0.2710872
345.60 0.2715707
345.70 0.2720094
345.80 0.2724476
345.90 0.2728852
346.00 0.2733223
346.10 0.2737588
346.20 0.2742007
346.30 0.2746506
346.40 0.2750999
346.50 0.2755487
346.60 0.2759969
346.70 0.2764445
346.80 0.2768916
346.90 0.2773381
347.00 0.2777841
347.10 0.2782295
347.20 0.2786778
347.30 0.2791307
347.40 0.2795829
347.50 0.2800346
347.60 0.2804858
347.70 0.2809363
347.80 0.2813863
347.90 0.2818358
348.00 0.2822846
348.10 0.2827329
348.20 0.2831807
348.30 0.2836279
348.40 0.2840745
348.50 0.2845206
348.60 0.2849661
348.70 0.2854311
348.80 0.285897
348.90 0.2863552
349.00 0.2868128
349.10 0.2872698
349.20 0.2877262
349.30 0.2881821
349.40 0.2886374
349.50 0.2890922
349.60 0.2895464
349.70 0.29
349.80 0.290453
349.90 0.2909055
350.00 0.2913574
350.10 0.2918088
350.20 0.2922596
350.30 0.2927152
350.40 0.2931779
350.50 0.2936401
350.60 0.2941017
350.70 0.2945627
350.80 0.2950232
350.90 0.2954831
351.00 0.2959424
351.10 0.2964011
351.20 0.2968593
351.30 0.2973169
351.40 0.2977765
351.50 0.2982402
351.60 0.2987033
351.70 0.2991659
351.80 0.2996278
351.90 0.3000892
352.00 0.3005501
352.10 0.3010103
352.20 0.3014606
352.30 0.3019191
352.40 0.302391
352.50 0.3028623
352.60 0.303333
352.70 0.3038032
352.80 0.3042728
352.90 0.3047417
353.00 0.3052102
353.10 0.305678
353.20 0.3061452
353.30 0.3066119
353.40 0.307078
353.50 0.307543
353.60 0.3080072
353.70 0.3084709
353.80 0.3089341
353.90 0.3094015
354.00 0.3098771
354.10 0.3103521
354.20 0.3108265
354.30 0.3113003
354.40 0.3117735
354.50 0.3122461
354.60 0.3127182
354.70 0.3131897
354.80 0.3136568
354.90 0.3141179
355.00 0.3145784
355.10 0.3150384
355.20 0.3154978
355.30 0.3159714
355.40 0.3164444
355.50 0.3169168
355.60 0.3173887
355.70 0.3178751
355.80 0.3183676
355.90 0.3188296
356.00 0.3192964
356.10 0.3197772
356.20 0.3202574
356.30 0.3207371
356.40 0.3212161
356.50 0.3216946
356.60 0.3221725
356.70 0.3226498
356.80 0.3231265
356.90 0.3236026
357.00 0.3240781
357.10 0.3245531
357.20 0.3250274
357.30 0.3255012
357.40 0.3259745
357.50 0.3264473
357.60 0.3269196
357.70 0.3273912
357.80 0.3278742
357.90 0.3283566
358.00 0.3288358
358.10 0.3293138
358.20 0.3297912
358.30 0.3302679
358.40 0.3307441
358.50 0.3312198
358.60 0.3316948
358.70 0.3321693
358.80 0.3326432
358.90 0.3331165
359.00 0.3336002
359.10 0.3341029
359.20 0.3346012
359.30 0.3350732
359.40 0.3355446
359.50 0.3360192
359.60 0.3364943
359.70 0.3369688
359.80 0.3374523
359.90 0.3379352
360.00 0.3384188
360.10 0.3389043
360.20 0.3393892
360.30 0.3398735
360.40 0.3403572
360.50 0.3408403
360.60 0.3413039
360.70 0.3417954
360.80 0.3422864
360.90 0.3427767
361.00 0.3432789
361.10 0.3437642
361.20 0.3442395
361.30 0.3447355
361.40 0.3451909
361.50 0.3457096
361.60 0.3461927
361.70 0.3466783
361.80 0.347166
361.90 0.3476579
362.00 0.3481492
362.10 0.3486234
362.20 0.3491053
362.30 0.349609
362.40 0.3501121
362.50 0.3506145
362.60 0.3511164
362.70 0.3515898
362.80 0.3520558
362.90 0.352531
363.00 0.3530056
363.10 0.3535324
363.20 0.3540592
363.30 0.3544822
363.40 0.3549776
363.50 0.3555118
363.60 0.3559862
363.70 0.3564776
363.80 0.3569727
363.90 0.3574698
364.00 0.3579662
364.10 0.3584621
364.20 0.3589573
364.30 0.3594569
364.40 0.3599572
364.50 0.3603942
364.60 0.3608997
364.70 0.3614046
364.80 0.3619088
364.90 0.3624148
365.00 0.3629202
365.10 0.3633859
365.20 0.3638901
365.30 0.3643937
365.40 0.3648576
365.50 0.36536
365.60 0.3658618
365.70 0.3663701
365.80 0.3668777
365.90 0.3673722
366.00 0.3678629
366.10 0.3683688
366.20 0.368874
366.30 0.3693787
366.40 0.3698827
366.50 0.3703442
366.60 0.3708466
366.70 0.3713489
366.80 0.3718505
366.90 0.3723488
367.00 0.3728417
367.10 0.3733339
367.20 0.3738256
367.30 0.3743166
367.40 0.3748071
367.50 0.3753249
367.60 0.375849
367.70 0.3763545
367.80 0.3768593
367.90 0.3773636
368.00 0.3778409
368.10 0.3783586
368.20 0.3788588
368.30 0.3793579
368.40 0.3798564
368.50 0.3803542
368.60 0.3808515
368.70 0.3813482
368.80 0.3818443
368.90 0.382333
369.00 0.3828375
369.10 0.3833485
369.20 0.383836
369.30 0.3843413
369.40 0.384846
369.50 0.38535
369.60 0.3858626
369.70 0.3863745
369.80 0.3868864
369.90 0.3873976
370.00 0.3879083
370.10 0.3884302
370.20 0.3889055
370.30 0.3893794
370.40 0.3899279
370.50 0.3904007
370.60 0.3909487
370.70 0.3914278
370.80 0.3919332
370.90 0.3924379
371.00 0.3929491
371.10 0.3934598
371.20 0.3939627
371.30 0.394465
371.40 0.3949712
371.50 0.3954757
371.60 0.3959796
371.70 0.3964828
371.80 0.3969855
371.90 0.3974875
372.00 0.3980125
372.10 0.3984974
372.20 0.3990104
372.30 0.3995228
372.40 0.4000346
372.50 0.4005458
372.60 0.4010564
372.70 0.4015664
372.80 0.402097
372.90 0.402627
373.00 0.4031266
373.10 0.4036252
373.20 0.4041197
373.30 0.4046136
373.40 0.4051442
373.50 0.4056743
373.60 0.4061664
373.70 0.4066579
373.80 0.4071744
373.90 0.4077137
374.00 0.408222
374.10 0.4087298
374.20 0.4092369
374.30 0.4097434
374.40 0.410268
374.50 0.4107846
374.60 0.4112911
374.70 0.4117971
374.80 0.4123024
374.90 0.4128072
375.00 0.413328
375.10 0.4138483
375.20 0.4143679
375.30 0.4148869
375.40 0.4154054
375.50 0.4159232
375.60 0.4164403
375.70 0.4169569
375.80 0.4174729
375.90 0.4179883
376.00 0.4184957
376.10 0.4190114
376.20 0.4195265
376.30 0.4200411
376.40 0.420555
376.50 0.4210677
376.60 0.4215788
376.70 0.4220894
376.80 0.4226001
376.90 0.4231112
377.00 0.4236216
377.10 0.4241314
377.20 0.4246446
377.30 0.4251721
377.40 0.4256989
377.50 0.4262251
377.60 0.4267302
377.70 0.4272347
377.80 0.4277386
377.90 0.428242
378.00 0.4288087
378.10 0.4293258
378.20 0.4298408
378.30 0.4303552
378.40 0.430869
378.50 0.4313821
378.60 0.4318947
378.70 0.4324067
378.80 0.4329181
378.90 0.4334336
379.00 0.4339572
379.10 0.4344823
379.20 0.4350069
379.30 0.435528
379.40 0.4360457
379.50 0.4365628
379.60 0.4370724
379.70 0.4375768
379.80 0.4381021
379.90 0.4386269
380.00 0.4391511
380.10 0.4396746
380.20 0.4401976
380.30 0.4407199
380.40 0.4412416
380.50 0.4417627
380.60 0.4422706
380.70 0.4427899
380.80 0.4433086
380.90 0.4438268
381.00 0.4443443
381.10 0.4448734
381.20 0.445384
381.30 0.4459164
381.40 0.4464636
381.50 0.4469639
381.60 0.4474827
381.70 0.4480139
381.80 0.4484888
381.90 0.4490398
382.00 0.4495903
382.10 0.4500687
382.20 0.4506321
382.30 0.451145
382.40 0.4516596
382.50 0.452177
382.60 0.4526938
382.70 0.453201
382.80 0.453712
382.90 0.4542372
383.00 0.4547617
383.10 0.4552856
383.20 0.4558138
383.30 0.4563597
383.40 0.4568955
383.50 0.4574163
383.60 0.4579549
383.70 0.4584809
383.80 0.4590062
383.90 0.459531
384.00 0.4600552
384.10 0.4605787
384.20 0.4611017
384.30 0.461624
384.40 0.4621429
384.50 0.4626583
384.60 0.4631731
384.70 0.4636873
384.80 0.4642143
384.90 0.4647689
385.00 0.4652818
385.10 0.4657943
385.20 0.4663271
385.30 0.466869
385.40 0.4674027
385.50 0.4679285
385.60 0.4684536
385.70 0.4689781
385.80 0.4694957
385.90 0.469989
386.00 0.4705104
386.10 0.4710565
386.20 0.4715679
386.30 0.4720787
386.40 0.4726441
386.50 0.4731613
386.60 0.4736753
386.70 0.4741969
386.80 0.4747352
386.90 0.4752382
387.00 0.4757649
387.10 0.4762858
387.20 0.4768511
387.30 0.4773901
387.40 0.4779236
387.50 0.478448
387.60 0.4789584
387.70 0.4794913
387.80 0.4800235
387.90 0.4805552
388.00 0.4810748
388.10 0.4815789
388.20 0.4821252
388.30 0.4826448
388.40 0.4831638
388.50 0.4836892
388.60 0.4842186
388.70 0.4847387
388.80 0.4852788
388.90 0.4858259
389.00 0.4863115
389.10 0.4868593
389.20 0.4873621
389.30 0.4878885
389.40 0.4884132
389.50 0.4889506
389.60 0.4895053
389.70 0.4900464
389.80 0.4905764
389.90 0.4911059
390.00 0.4916347
390.10 0.4921629
390.20 0.4926905
390.30 0.4932199
390.40 0.4937513
390.50 0.4942822
390.60 0.4948125
390.70 0.4953421
390.80 0.4958654
390.90 0.4963822
391.00 0.4968915
391.10 0.4974311
391.20 0.4979581
391.30 0.4984667
391.40 0.4990056
391.50 0.4995439
391.60 0.5000816
391.70 0.5006186
391.80 0.5011551
391.90 0.5016765
392.00 0.5021939
392.10 0.50273
392.20 0.5032665
392.30 0.5038031
392.40 0.5043273
392.50 0.5048518
392.60 0.5053721
392.70 0.5058918
392.80 0.5064329
392.90 0.5069444
393.00 0.5074759
393.10 0.5080035
393.20 0.508529
393.30 0.5090788
393.40 0.5096226
393.50 0.5101491
393.60 0.5106863
393.70 0.5111925
393.80 0.5117483
393.90 0.5122608
394.00 0.5127812
394.10 0.513348
394.20 0.5138705
394.30 0.5144091
394.40 0.5149457
394.50 0.5154218
394.60 0.5159831
394.70 0.5165386
394.80 0.5170743
394.90 0.517609
395.00 0.518126
395.10 0.5186378
395.20 0.519178
395.30 0.519719
395.40 0.5202594
395.50 0.5207865
395.60 0.5213081
395.70 0.5218321
395.80 0.5223633
395.90 0.5228939
396.00 0.5234253
396.10 0.5239675
396.20 0.5244996
396.30 0.5250401
396.40 0.5255379
396.50 0.5261013
396.60 0.5265979
396.70 0.5271456
396.80 0.5276703
396.90 0.5282116
397.00 0.5287191
397.10 0.5292788
397.20 0.5298021
397.30 0.530318
397.40 0.5308603
397.50 0.5314021
397.60 0.531942
397.70 0.5324688
397.80 0.5329951
397.90 0.5335223
398.00 0.534053
398.10 0.5345831
398.20 0.5351173
398.30 0.5356562
398.40 0.5361946
398.50 0.5367331
398.60 0.5372481
398.70 0.5377758
398.80 0.5383084
398.90 0.5388314
399.00 0.5393371
399.10 0.5399235
399.20 0.5404479
399.30 0.5409717
399.40 0.5414949
399.50 0.5420175
399.60 0.5425483
399.70 0.5430817
399.80 0.5436146
399.90 0.5441468
400.00 0.5446784
400.10 0.5452074
400.20 0.5457571
400.30 0.5462966
400.40 0.5468201
400.50 0.5473231
400.60 0.5478784
400.70 0.5483838
400.80 0.5489122
400.90 0.5494488
401.00 0.5500001
401.10 0.5505203
401.20 0.5510742
401.30 0.5515955
401.40 0.5521273
401.50 0.5526663
401.60 0.5532042
401.70 0.5537235
401.80 0.5542704
401.90 0.554802
402.00 0.5553273
402.10 0.5558657
402.20 0.5563875
402.30 0.5569147
402.40 0.5574478
402.50 0.5579774
402.60 0.5584958
402.70 0.5590297
402.80 0.559555
402.90 0.5600796
403.00 0.5606037
403.10 0.5611272
403.20 0.5617059
403.30 0.5622158
403.40 0.5627531
403.50 0.5632681
403.60 0.5637779
403.70 0.5643198
403.80 0.5648951
403.90 0.5654139
404.00 0.5659366
404.10 0.5664576
404.20 0.5670065
404.30 0.5675548
404.40 0.5680561
404.50 0.5685858
404.60 0.5691005
404.70 0.5696782
404.80 0.5701839
404.90 0.5707045
405.00 0.5712254
405.10 0.5717467
405.20 0.5722805
405.30 0.5728137
405.40 0.5733449
405.50 0.5738754
405.60 0.5744053
405.70 0.5749347
405.80 0.5754634
405.90 0.5759916
406.00 0.5765346
406.10 0.5770771
406.20 0.5776189
406.30 0.5781602
406.40 0.578695
406.50 0.5791817
406.60 0.5797142
406.70 0.580256
406.80 0.5808071
406.90 0.5813073
407.00 0.5818395
407.10 0.582371
407.20 0.582902
407.30 0.5834324
407.40 0.5839621
407.50 0.5844913
407.60 0.58502
407.70 0.585548
407.80 0.5860754
407.90 0.5866025
408.00 0.5871359
408.10 0.5876923
408.20 0.5882439
408.30 0.5887702
408.40 0.5892959
408.50 0.5897891
408.60 0.5903211
408.70 0.5908525
408.80 0.5913878
408.90 0.5919471
409.00 0.5924707
409.10 0.5929937
409.20 0.5935161
409.30 0.594038
409.40 0.5945593
409.50 0.5950814
409.60 0.5956029
409.70 0.5961274
409.80 0.5966657
409.90 0.5972039
410.00 0.5977552
410.10 0.5982898
410.20 0.5988213
410.30 0.5993515
410.40 0.5998793
410.50 0.6004007
410.60 0.6009215
410.70 0.6014443
410.80 0.6019765
410.90 0.6025081
411.00 0.603037
411.10 0.6035646
411.20 0.6040916
411.30 0.6046225
411.40 0.6051694
411.50 0.6056799
411.60 0.6061898
411.70 0.6067043
411.80 0.6072393
411.90 0.6077613
412.00 0.6082951
412.10 0.6088282
412.20 0.6093608
412.30 0.6098967
412.40 0.6103895
412.50 0.6109593
412.60 0.6114502
412.70 0.6120349
412.80 0.6126426
412.90 0.613065
413.00 0.6135595
413.10 0.6141105
413.20 0.614661
413.30 0.6152108
413.40 0.6157601
413.50 0.6162664
413.60 0.61667
413.70 0.6172852
413.80 0.6178997
413.90 0.6185135
414.00 0.6190538
414.10 0.6193625
414.20 0.6198895
414.30 0.6204402
414.40 0.6211116
414.50 0.6216611
414.60 0.6221129
414.70 0.6224189
414.80 0.6227971
414.90 0.6234049
415.00 0.6240121
415.10 0.6246186
415.20 0.6251876
415.30 0.6256394
415.40 0.6260907
415.50 0.6265449
415.60 0.6271083
415.70 0.6276712
415.80 0.6282164
415.90 0.628707
416.00 0.629197
416.10 0.6297013
416.20 0.6302643
416.30 0.6308267
416.40 0.6313884
416.50 0.6319507
416.60 0.6325479
416.70 0.6331175
416.80 0.6334136
416.90 0.6340316
417.00 0.6346039
417.10 0.6349256
417.20 0.6355192
417.30 0.6361107
417.40 0.6366513
417.50 0.6371913
