# Version 2.1 - nm, norm@500 to 1, cut digits, bergeron_He_17000_90.dat_17000
# Wavelength(nm)  Flambda(ergs/cm^s/s/nm)
300.00 3.820015
300.10 3.817508
300.20 3.814965
300.30 3.812439
300.40 3.810013
300.50 3.80759
300.60 3.805169
300.70 3.80275
300.80 3.800334
300.90 3.79792
301.00 3.795508
301.10 3.793099
301.20 3.790692
301.30 3.788287
301.40 3.785885
301.50 3.783485
301.60 3.781088
301.70 3.778693
301.80 3.7763
301.90 3.77391
302.00 3.771522
302.10 3.768902
302.20 3.766259
302.30 3.763619
302.40 3.760982
302.50 3.758347
302.60 3.755715
302.70 3.753085
302.80 3.750458
302.90 3.747834
303.00 3.745213
303.10 3.742594
303.20 3.739977
303.30 3.737348
303.40 3.734574
303.50 3.731804
303.60 3.729036
303.70 3.726272
303.80 3.72351
303.90 3.720751
304.00 3.717994
304.10 3.715241
304.20 3.71249
304.30 3.709743
304.40 3.706998
304.50 3.704255
304.60 3.701513
304.70 3.698774
304.80 3.696037
304.90 3.693303
305.00 3.690572
305.10 3.687844
305.20 3.685118
305.30 3.682396
305.40 3.679676
305.50 3.676959
305.60 3.674244
305.70 3.671532
305.80 3.668824
305.90 3.666117
306.00 3.663414
306.10 3.660713
306.20 3.658016
306.30 3.65532
306.40 3.652631
306.50 3.649946
306.60 3.647263
306.70 3.644583
306.80 3.641906
306.90 3.639231
307.00 3.636559
307.10 3.63389
307.20 3.631224
307.30 3.62856
307.40 3.625899
307.50 3.62324
307.60 3.620585
307.70 3.617932
307.80 3.615281
307.90 3.612634
308.00 3.609989
308.10 3.607346
308.20 3.604707
308.30 3.60207
308.40 3.599436
308.50 3.596804
308.60 3.594175
308.70 3.591549
308.80 3.589002
308.90 3.586679
309.00 3.583608
309.10 3.58054
309.20 3.577475
309.30 3.574413
309.40 3.571406
309.50 3.568723
309.60 3.566042
309.70 3.563363
309.80 3.560688
309.90 3.558015
310.00 3.555345
310.10 3.552677
310.20 3.550013
310.30 3.547351
310.40 3.544554
310.50 3.541612
310.60 3.538674
310.70 3.535738
310.80 3.532806
310.90 3.529876
311.00 3.527125
311.10 3.524377
311.20 3.521632
311.30 3.518808
311.40 3.515756
311.50 3.512707
311.60 3.509661
311.70 3.506618
311.80 3.503579
311.90 3.500543
312.00 3.497509
312.10 3.49448
312.20 3.49161
312.30 3.488581
312.40 3.485357
312.50 3.482936
312.60 3.47975
312.70 3.476567
312.80 3.473388
312.90 3.470065
313.00 3.466585
313.10 3.463108
313.20 3.459636
313.30 3.456177
313.40 3.452751
313.50 3.449329
313.60 3.44591
313.70 3.442495
313.80 3.439084
313.90 3.435677
314.00 3.432273
314.10 3.428492
314.20 3.424715
314.30 3.420942
314.40 3.417174
314.50 3.413409
314.60 3.409649
314.70 3.405893
314.80 3.401968
314.90 3.398068
315.00 3.394726
315.10 3.390234
315.20 3.385747
315.30 3.381265
315.40 3.376788
315.50 3.372316
315.60 3.367849
315.70 3.363532
315.80 3.35922
315.90 3.354913
316.00 3.350611
316.10 3.345878
316.20 3.341151
316.30 3.334688
316.40 3.326495
316.50 3.314835
316.60 3.299716
316.70 3.28288
316.80 3.266065
316.90 3.26097
317.00 3.255882
317.10 3.250799
317.20 3.245722
317.30 3.248645
317.40 3.24964
317.50 3.245161
317.60 3.240687
317.70 3.236218
317.80 3.231754
317.90 3.216122
318.00 3.194751
318.10 3.158765
318.20 3.122825
318.30 3.086928
318.40 3.036902
318.50 2.94662
318.60 2.838168
318.70 2.579391
318.80 2.05708
318.90 2.495363
319.00 2.669278
319.10 2.775309
319.20 2.866619
319.30 2.916318
319.40 2.965954
319.50 3.015528
319.60 3.053632
319.70 3.076504
319.80 3.099346
319.90 3.122159
320.00 3.140415
320.10 3.153743
320.20 3.166921
320.30 3.17709
320.40 3.186299
320.50 3.194649
320.60 3.201226
320.70 3.206847
320.80 3.211242
320.90 3.214312
321.00 3.217378
321.10 3.220439
321.20 3.223437
321.30 3.224056
321.40 3.224674
321.50 3.225291
321.60 3.225906
321.70 3.22652
321.80 3.226967
321.90 3.227232
322.00 3.227559
322.10 3.226807
322.20 3.226056
322.30 3.225305
322.40 3.224554
322.50 3.223804
322.60 3.223054
322.70 3.222304
322.80 3.221072
322.90 3.219522
323.00 3.217973
323.10 3.216426
323.20 3.21488
323.30 3.213335
323.40 3.211792
323.50 3.210249
323.60 3.208709
323.70 3.207169
323.80 3.205631
323.90 3.204094
324.00 3.202116
324.10 3.20014
324.20 3.198167
324.30 3.196194
324.40 3.194224
324.50 3.192256
324.60 3.190289
324.70 3.188325
324.80 3.186362
324.90 3.1844
325.00 3.182441
325.10 3.180484
325.20 3.178528
325.30 3.176574
325.40 3.174622
325.50 3.172485
325.60 3.170123
325.70 3.167764
325.80 3.165406
325.90 3.163249
326.00 3.161309
326.10 3.15937
326.20 3.157434
326.30 3.155161
326.40 3.151931
326.50 3.149664
326.60 3.147398
326.70 3.145134
326.80 3.142873
326.90 3.140614
327.00 3.138357
327.10 3.136102
327.20 3.13385
327.30 3.131599
327.40 3.129351
327.50 3.127105
327.60 3.124861
327.70 3.122619
327.80 3.12038
327.90 3.118303
328.00 3.115931
328.10 3.112986
328.20 3.110045
328.30 3.107106
328.40 3.10417
328.50 3.101715
328.60 3.099373
328.70 3.097033
328.80 3.094779
328.90 3.092761
329.00 3.090745
329.10 3.088731
329.20 3.086719
329.30 3.084708
329.40 3.0827
329.50 3.080693
329.60 3.078688
329.70 3.076685
329.80 3.074684
329.90 3.072685
330.00 3.070749
330.10 3.068889
330.20 3.06703
330.30 3.065173
330.40 3.063179
330.50 3.061037
330.60 3.058897
330.70 3.056758
330.80 3.054622
330.90 3.052488
331.00 3.050356
331.10 3.048225
331.20 3.046097
331.30 3.043971
331.40 3.041847
331.50 3.039568
331.60 3.037099
331.70 3.034633
331.80 3.032441
331.90 3.030263
332.00 3.028087
332.10 3.025914
332.20 3.023742
332.30 3.021572
332.40 3.019405
332.50 3.017239
332.60 3.015075
332.70 3.012914
332.80 3.010755
332.90 3.008597
333.00 3.006442
333.10 3.004234
333.20 3.00196
333.30 2.999689
333.40 2.99742
333.50 2.995153
333.60 2.992889
333.70 2.990626
333.80 2.988366
333.90 2.986108
334.00 2.983852
334.10 2.981575
334.20 2.979271
334.30 2.97697
334.40 2.974671
334.50 2.972374
334.60 2.970079
334.70 2.96802
334.80 2.965761
334.90 2.962805
335.00 2.959852
335.10 2.957489
335.20 2.95495
335.30 2.951213
335.40 2.949454
335.50 2.947696
335.60 2.945939
335.70 2.944532
335.80 2.943551
335.90 2.942222
336.00 2.940471
336.10 2.938722
336.20 2.936974
336.30 2.935112
336.40 2.933111
336.50 2.931112
336.60 2.929114
336.70 2.927119
336.80 2.925125
336.90 2.923077
337.00 2.920963
337.10 2.918852
337.20 2.916742
337.30 2.914684
337.40 2.9127
337.50 2.910717
337.60 2.908737
337.70 2.906759
337.80 2.904782
337.90 2.902789
338.00 2.900776
338.10 2.898766
338.20 2.896757
338.30 2.89475
338.40 2.892731
338.50 2.89068
338.60 2.88863
338.70 2.886583
338.80 2.884538
338.90 2.882494
339.00 2.880453
339.10 2.878413
339.20 2.876376
339.30 2.87448
339.40 2.872786
339.50 2.870885
339.60 2.868732
339.70 2.86658
339.80 2.864431
339.90 2.862284
340.00 2.860138
340.10 2.857995
340.20 2.855853
340.30 2.853714
340.40 2.851577
340.50 2.849442
340.60 2.847308
340.70 2.845177
340.80 2.842923
340.90 2.840491
341.00 2.838237
341.10 2.836199
341.20 2.834163
341.30 2.832129
341.40 2.830096
341.50 2.828066
341.60 2.826037
341.70 2.824011
341.80 2.821838
341.90 2.819487
342.00 2.817138
342.10 2.814791
342.20 2.812587
342.30 2.810089
342.40 2.807511
342.50 2.805125
342.60 2.802741
342.70 2.800359
342.80 2.79798
342.90 2.795603
343.00 2.793234
343.10 2.790874
343.20 2.788516
343.30 2.786161
343.40 2.783704
343.50 2.781099
343.60 2.778498
343.70 2.775899
343.80 2.773302
343.90 2.770709
344.00 2.767916
344.10 2.764837
344.20 2.761762
344.30 2.758689
344.40 2.755319
344.50 2.751519
344.60 2.747123
344.70 2.743331
344.80 2.743973
344.90 2.744614
345.00 2.744318
345.10 2.744189
345.20 2.743664
345.30 2.742568
345.40 2.741473
345.50 2.740788
345.60 2.740029
345.70 2.738444
345.80 2.736861
345.90 2.735278
346.00 2.733698
346.10 2.732118
346.20 2.73048
346.30 2.728759
346.40 2.727038
346.50 2.725319
346.60 2.723602
346.70 2.721886
346.80 2.720172
346.90 2.718459
347.00 2.716748
347.10 2.715039
347.20 2.713309
347.30 2.71155
347.40 2.709792
347.50 2.708036
347.60 2.706281
347.70 2.704528
347.80 2.702777
347.90 2.701027
348.00 2.699278
348.10 2.697532
348.20 2.695786
348.30 2.694043
348.40 2.692301
348.50 2.69056
348.60 2.688821
348.70 2.686426
348.80 2.684143
348.90 2.682319
349.00 2.680496
349.10 2.678675
349.20 2.676856
349.30 2.675038
349.40 2.673222
349.50 2.671407
349.60 2.669594
349.70 2.667783
349.80 2.665973
349.90 2.664165
350.00 2.662359
350.10 2.660554
350.20 2.658751
350.30 2.656908
350.40 2.655007
350.50 2.653107
350.60 2.65121
350.70 2.649314
350.80 2.647419
350.90 2.645527
351.00 2.643636
351.10 2.641747
351.20 2.639859
351.30 2.637974
351.40 2.63616
351.50 2.634471
351.60 2.632784
351.70 2.631098
351.80 2.629414
351.90 2.627732
352.00 2.62605
352.10 2.624371
352.20 2.622014
352.30 2.619822
352.40 2.617973
352.50 2.616126
352.60 2.61428
352.70 2.612437
352.80 2.610594
352.90 2.608754
353.00 2.606915
353.10 2.605078
353.20 2.603243
353.30 2.601409
353.40 2.599576
353.50 2.597783
353.60 2.596
353.70 2.594219
353.80 2.59244
353.90 2.590607
354.00 2.588678
354.10 2.58675
354.20 2.584825
354.30 2.582901
354.40 2.580979
354.50 2.579059
354.60 2.57714
354.70 2.575224
354.80 2.57337
354.90 2.571607
355.00 2.569845
355.10 2.568085
355.20 2.566326
355.30 2.564242
355.40 2.56216
355.50 2.560079
355.60 2.558001
355.70 2.555957
355.80 2.55393
355.90 2.552118
356.00 2.550228
356.10 2.548225
356.20 2.546225
356.30 2.544226
356.40 2.542229
356.50 2.540234
356.60 2.53824
356.70 2.536249
356.80 2.534259
356.90 2.532271
357.00 2.530286
357.10 2.528301
357.20 2.526319
357.30 2.524339
357.40 2.522418
357.50 2.520601
357.60 2.518787
357.70 2.516974
357.80 2.514949
357.90 2.512926
358.00 2.510774
358.10 2.508592
358.20 2.506412
358.30 2.504234
358.40 2.502058
358.50 2.499884
358.60 2.497711
358.70 2.495541
358.80 2.493373
358.90 2.491208
359.00 2.488887
359.10 2.48629
359.20 2.483628
359.30 2.480509
359.40 2.477394
359.50 2.474899
359.60 2.472561
359.70 2.470226
359.80 2.467325
359.90 2.464427
360.00 2.46127
360.10 2.457654
360.20 2.45404
360.30 2.450431
360.40 2.446825
360.50 2.443223
360.60 2.439302
360.70 2.434605
360.80 2.429912
360.90 2.425225
361.00 2.420027
361.10 2.411799
361.20 2.403051
361.30 2.388386
361.40 2.399526
361.50 2.41132
361.60 2.415764
361.70 2.416424
361.80 2.416927
361.90 2.417149
362.00 2.41737
362.10 2.417084
362.20 2.416549
362.30 2.415796
362.40 2.415045
362.50 2.414294
362.60 2.413543
362.70 2.412328
362.80 2.410998
362.90 2.409012
363.00 2.407028
363.10 2.405099
363.20 2.403172
363.30 2.40041
363.40 2.399419
363.50 2.400404
363.60 2.401059
363.70 2.401128
363.80 2.400393
363.90 2.400013
364.00 2.399633
364.10 2.399253
364.20 2.398873
364.30 2.398326
364.40 2.397738
364.50 2.397737
364.60 2.396857
364.70 2.395978
364.80 2.395099
364.90 2.393787
365.00 2.392475
365.10 2.391165
365.20 2.389203
365.30 2.387243
365.40 2.38724
365.50 2.385934
365.60 2.384629
365.70 2.383917
365.80 2.383205
365.90 2.38202
366.00 2.380719
366.10 2.379418
366.20 2.378119
366.30 2.376821
366.40 2.375524
366.50 2.374228
366.60 2.371637
366.70 2.370344
366.80 2.369052
366.90 2.367593
367.00 2.365838
367.10 2.364084
367.20 2.362333
367.30 2.360582
367.40 2.358834
367.50 2.357457
367.60 2.356175
367.70 2.354216
367.80 2.352259
367.90 2.350303
368.00 2.348485
368.10 2.34594
368.20 2.34365
368.30 2.341369
368.40 2.339089
368.50 2.336812
368.60 2.334536
368.70 2.332263
368.80 2.329992
368.90 2.328085
369.00 2.325694
369.10 2.323022
369.20 2.320472
369.30 2.317514
369.40 2.314558
369.50 2.311606
369.60 2.307819
369.70 2.304036
369.80 2.30004
369.90 2.296046
370.00 2.292055
370.10 2.287637
370.20 2.281329
370.30 2.275019
370.40 2.269997
370.50 2.266141
370.60 2.270558
370.70 2.275129
370.80 2.278311
370.90 2.28149
371.00 2.282191
371.10 2.282867
371.20 2.282895
371.30 2.282921
371.40 2.283474
371.50 2.283655
371.60 2.283834
371.70 2.284013
371.80 2.284192
371.90 2.28437
372.00 2.284773
372.10 2.284443
372.20 2.283844
372.30 2.283246
372.40 2.282647
372.50 2.282049
372.60 2.281451
372.70 2.280854
372.80 2.280253
372.90 2.279653
373.00 2.278437
373.10 2.277216
373.20 2.275371
373.30 2.273528
373.40 2.270437
373.50 2.267974
373.60 2.268631
373.70 2.268663
373.80 2.267722
373.90 2.267482
374.00 2.266892
374.10 2.266302
374.20 2.265712
374.30 2.265123
374.40 2.263913
374.50 2.262705
374.60 2.261497
374.70 2.26029
374.80 2.259084
374.90 2.257879
375.00 2.256675
375.10 2.255472
375.20 2.254269
375.30 2.252892
375.40 2.251515
375.50 2.25014
375.60 2.248766
375.70 2.247392
375.80 2.24602
375.90 2.24465
376.00 2.242237
376.10 2.240501
376.20 2.238774
376.30 2.237049
376.40 2.235325
376.50 2.233647
376.60 2.232038
376.70 2.23043
376.80 2.228606
376.90 2.226567
377.00 2.224529
377.10 2.222494
377.20 2.22048
377.30 2.218541
377.40 2.216604
377.50 2.214668
377.60 2.212168
377.70 2.209671
377.80 2.207176
377.90 2.204683
378.00 2.202722
378.10 2.200022
378.20 2.197309
378.30 2.194599
378.40 2.191892
378.50 2.189186
378.60 2.186484
378.70 2.183784
378.80 2.181087
378.90 2.177989
379.00 2.174147
379.10 2.171062
379.20 2.16798
379.30 2.164503
379.40 2.160631
379.50 2.156763
379.60 2.153178
379.70 2.149608
379.80 2.144512
379.90 2.139422
380.00 2.134336
380.10 2.129256
380.20 2.12418
380.30 2.11911
380.40 2.114044
380.50 2.108984
380.60 2.102483
380.70 2.097011
380.80 2.091544
380.90 2.086083
381.00 2.080628
381.10 2.078787
381.20 2.075117
381.30 2.068076
381.40 2.060095
381.50 2.050428
381.60 2.039382
381.70 2.026317
381.80 2.013402
381.90 2.000412
382.00 1.991015
382.10 2.014415
382.20 2.031594
382.30 2.044824
382.40 2.055414
382.50 2.062055
382.60 2.068688
382.70 2.07342
382.80 2.07542
382.90 2.076827
383.00 2.078232
383.10 2.079636
383.20 2.081066
383.30 2.082598
383.40 2.084097
383.50 2.085547
383.60 2.086994
383.70 2.087776
383.80 2.088556
383.90 2.089336
384.00 2.090114
384.10 2.090892
384.20 2.091668
384.30 2.092443
384.40 2.092972
384.50 2.093256
384.60 2.093539
384.70 2.093822
384.80 2.094104
384.90 2.09408
385.00 2.093497
385.10 2.092946
385.20 2.09299
385.30 2.091904
385.40 2.090955
385.50 2.090143
385.60 2.089332
385.70 2.088522
385.80 2.087511
385.90 2.085745
386.00 2.083909
386.10 2.081995
386.20 2.080015
386.30 2.078038
386.40 2.075062
386.50 2.071668
386.60 2.066794
386.70 2.059031
386.80 2.043714
386.90 2.046437
387.00 2.046832
387.10 2.044613
387.20 2.041874
387.30 2.037831
387.40 2.033586
387.50 2.027899
387.60 2.019832
387.70 2.008656
387.80 1.997492
387.90 1.986339
388.00 1.973934
388.10 1.954893
388.20 1.926128
388.30 1.889217
388.40 1.852344
388.50 1.802926
388.60 1.723035
388.70 1.595221
388.80 1.325607
388.90 1.151271
389.00 1.43956
389.10 1.596396
389.20 1.692186
389.30 1.758418
389.40 1.80638
389.50 1.848255
389.60 1.879275
389.70 1.900025
389.80 1.914053
389.90 1.928067
390.00 1.942066
390.10 1.95605
390.20 1.97002
390.30 1.979967
390.40 1.985388
390.50 1.990803
390.60 1.996211
390.70 2.001614
390.80 2.005733
390.90 2.008569
391.00 2.011607
391.10 2.013341
391.20 2.015138
391.30 2.016449
391.40 2.016934
391.50 2.017418
391.60 2.017902
391.70 2.018384
391.80 2.018866
391.90 2.019135
392.00 2.018936
392.10 2.018397
392.20 2.017813
392.30 2.016785
392.40 2.015757
392.50 2.01473
392.60 2.013704
392.70 2.011549
392.80 2.010525
392.90 2.009502
393.00 2.00848
393.10 2.007458
393.20 2.006336
393.30 2.00419
393.40 2.002148
393.50 2.00113
393.60 1.99899
393.70 1.996851
393.80 1.994614
393.90 1.992479
394.00 1.990285
394.10 1.987515
394.20 1.9848
394.30 1.981968
394.40 1.978394
394.50 1.975338
394.60 1.971839
394.70 1.968222
394.80 1.964151
394.90 1.960069
395.00 1.955351
395.10 1.949937
395.20 1.944509
395.30 1.938808
395.40 1.933112
395.50 1.926239
395.60 1.918935
395.70 1.910798
395.80 1.900398
395.90 1.890008
396.00 1.879258
396.10 1.863039
396.20 1.842138
396.30 1.817666
396.40 1.766536
396.50 1.793895
396.60 1.851992
396.70 1.86616
396.80 1.867823
396.90 1.868864
397.00 1.877642
397.10 1.888656
397.20 1.895495
397.30 1.898622
397.40 1.900093
397.50 1.901562
397.60 1.902847
397.70 1.90228
397.80 1.901714
397.90 1.900831
398.00 1.899091
398.10 1.897352
398.20 1.895561
398.30 1.89371
398.40 1.891862
398.50 1.890069
398.60 1.887174
398.70 1.884326
398.80 1.881594
398.90 1.878355
399.00 1.874174
399.10 1.870756
399.20 1.866561
399.30 1.862371
399.40 1.858185
399.50 1.854003
399.60 1.849488
399.70 1.844853
399.80 1.840223
399.90 1.835597
400.00 1.830961
400.10 1.825864
400.20 1.821211
400.30 1.815874
400.40 1.810246
400.50 1.803727
400.60 1.797783
400.70 1.791464
400.80 1.784069
400.90 1.776504
401.00 1.768725
401.10 1.761573
401.20 1.753411
401.30 1.744677
401.40 1.734908
401.50 1.724845
401.60 1.714694
401.70 1.701393
401.80 1.68703
401.90 1.670449
402.00 1.651788
402.10 1.630056
402.20 1.604729
402.30 1.57307
402.40 1.535496
402.50 1.486056
402.60 1.42926
402.70 1.480287
402.80 1.540708
402.90 1.581123
403.00 1.618389
403.10 1.64769
403.20 1.669928
403.30 1.688035
403.40 1.703224
403.50 1.715874
403.60 1.727849
403.70 1.736792
403.80 1.744673
403.90 1.750479
404.00 1.756316
404.10 1.761072
404.20 1.76393
404.30 1.766785
404.40 1.76804
404.50 1.767166
404.60 1.767888
404.70 1.769671
404.80 1.772077
404.90 1.774295
405.00 1.776979
405.10 1.779211
405.20 1.781362
405.30 1.783511
405.40 1.785456
405.50 1.787398
405.60 1.789339
405.70 1.791277
405.80 1.793213
405.90 1.795147
406.00 1.796813
406.10 1.798477
406.20 1.800139
406.30 1.801799
406.40 1.803486
406.50 1.805132
406.60 1.805819
406.70 1.806904
406.80 1.808482
406.90 1.809516
407.00 1.810308
407.10 1.8111
407.20 1.81189
407.30 1.812679
407.40 1.813468
407.50 1.814255
407.60 1.815041
407.70 1.815827
407.80 1.816611
407.90 1.817379
408.00 1.817631
408.10 1.818177
408.20 1.818625
408.30 1.818755
408.40 1.818884
408.50 1.819312
408.60 1.819143
408.70 1.818974
408.80 1.818858
408.90 1.819022
409.00 1.818731
409.10 1.818441
409.20 1.818151
409.30 1.817861
409.40 1.817564
409.50 1.817044
409.60 1.816523
409.70 1.816025
409.80 1.815617
409.90 1.815194
410.00 1.814309
410.10 1.813424
410.20 1.81254
410.30 1.811657
410.40 1.810692
410.50 1.80947
410.60 1.808249
410.70 1.80693
410.80 1.805215
410.90 1.803502
411.00 1.801547
411.10 1.799503
411.20 1.797461
411.30 1.795303
411.40 1.792649
411.50 1.789235
411.60 1.785824
411.70 1.781691
411.80 1.774667
411.90 1.767341
412.00 1.751613
412.10 1.706943
412.20 1.718153
412.30 1.73016
412.40 1.737143
412.50 1.741962
412.60 1.74477
412.70 1.7472
412.80 1.749533
412.90 1.751211
413.00 1.752569
413.10 1.752733
413.20 1.752896
413.30 1.753059
413.40 1.753222
413.50 1.753394
413.60 1.753413
413.70 1.752819
413.80 1.752227
413.90 1.751634
414.00 1.750859
414.10 1.749506
414.20 1.747667
414.30 1.744389
414.40 1.741926
414.50 1.742784
414.60 1.744499
414.70 1.746188
414.80 1.747754
414.90 1.748934
415.00 1.750113
415.10 1.75129
415.20 1.752284
415.30 1.752698
415.40 1.753111
415.50 1.753519
415.60 1.753759
415.70 1.753998
415.80 1.754216
415.90 1.754366
416.00 1.754515
416.10 1.754562
416.20 1.754201
416.30 1.75384
416.40 1.753479
416.50 1.753119
416.60 1.752779
416.70 1.752424
416.80 1.751583
416.90 1.750205
417.00 1.748903
417.10 1.74908
417.20 1.748741
417.30 1.748409
417.40 1.748278
417.50 1.748146
417.60 1.747873
417.70 1.747047
417.80 1.746543
417.90 1.746039
418.00 1.745536
418.10 1.745033
418.20 1.744531
418.30 1.744018
418.40 1.743211
418.50 1.742485
418.60 1.741761
418.70 1.741037
418.80 1.740313
418.90 1.73959
419.00 1.738868
419.10 1.738145
419.20 1.737424
419.30 1.7367
419.40 1.735871
419.50 1.735044
419.60 1.734217
419.70 1.733391
419.80 1.732565
419.90 1.731717
420.00 1.730796
420.10 1.729875
420.20 1.728955
420.30 1.728036
420.40 1.727118
420.50 1.7262
420.60 1.725283
420.70 1.724366
420.80 1.72345
420.90 1.722528
421.00 1.721356
421.10 1.720186
421.20 1.719069
421.30 1.718113
421.40 1.717158
421.50 1.716204
421.60 1.71525
421.70 1.714297
421.80 1.713345
421.90 1.712426
422.00 1.711615
422.10 1.710742
422.20 1.709624
422.30 1.708507
422.40 1.707393
422.50 1.706388
422.60 1.705383
422.70 1.70438
422.80 1.703377
422.90 1.702375
423.00 1.701373
423.10 1.700372
423.20 1.699372
423.30 1.698373
423.40 1.697375
423.50 1.696377
423.60 1.69538
423.70 1.694384
423.80 1.693389
423.90 1.692394
424.00 1.6914
424.10 1.690407
424.20 1.689414
424.30 1.688423
424.40 1.686506
424.50 1.685517
424.60 1.684528
424.70 1.68354
424.80 1.682552
424.90 1.681566
425.00 1.68058
