# Version 2.1 - nm, norm@500 to 1, cut digits, bergeron_He_10000_75.dat_10000
# Wavelength(nm)  Flambda(ergs/cm^s/s/nm)
300.00 1.992927
300.10 1.992519
300.20 1.992098
300.30 1.991696
300.40 1.991424
300.50 1.991153
300.60 1.990881
300.70 1.99061
300.80 1.990338
300.90 1.990066
301.00 1.989794
301.10 1.989522
301.20 1.98925
301.30 1.988978
301.40 1.988706
301.50 1.988433
301.60 1.988161
301.70 1.987889
301.80 1.987616
301.90 1.987344
302.00 1.987071
302.10 1.986774
302.20 1.986475
302.30 1.986176
302.40 1.985877
302.50 1.985578
302.60 1.985279
302.70 1.984979
302.80 1.98468
302.90 1.984381
303.00 1.984081
303.10 1.983782
303.20 1.983482
303.30 1.983178
303.40 1.982827
303.50 1.982476
303.60 1.982126
303.70 1.981775
303.80 1.981425
303.90 1.981074
304.00 1.980724
304.10 1.980373
304.20 1.980023
304.30 1.979673
304.40 1.979322
304.50 1.978972
304.60 1.978645
304.70 1.97832
304.80 1.977996
304.90 1.977671
305.00 1.977346
305.10 1.977022
305.20 1.976697
305.30 1.976373
305.40 1.976048
305.50 1.975724
305.60 1.975399
305.70 1.975074
305.80 1.97475
305.90 1.974425
306.00 1.974101
306.10 1.973776
306.20 1.973452
306.30 1.973127
306.40 1.972799
306.50 1.972469
306.60 1.97214
306.70 1.97181
306.80 1.97148
306.90 1.971151
307.00 1.970821
307.10 1.970492
307.20 1.970162
307.30 1.969833
307.40 1.969503
307.50 1.969174
307.60 1.968844
307.70 1.968515
307.80 1.968186
307.90 1.967856
308.00 1.967527
308.10 1.967197
308.20 1.966868
308.30 1.966539
308.40 1.966209
308.50 1.96588
308.60 1.965551
308.70 1.965221
308.80 1.964891
308.90 1.96456
309.00 1.964141
309.10 1.963723
309.20 1.963304
309.30 1.962886
309.40 1.962477
309.50 1.962126
309.60 1.961774
309.70 1.961423
309.80 1.961071
309.90 1.96072
310.00 1.960369
310.10 1.960017
310.20 1.959666
310.30 1.959315
310.40 1.958938
310.50 1.958532
310.60 1.958127
310.70 1.957721
310.80 1.957316
310.90 1.956911
311.00 1.95659
311.10 1.95627
311.20 1.955949
311.30 1.955619
311.40 1.955265
311.50 1.95491
311.60 1.954555
311.70 1.9542
311.80 1.953845
311.90 1.95349
312.00 1.953136
312.10 1.952781
312.20 1.952537
312.30 1.952092
312.40 1.951486
312.50 1.951003
312.60 1.950688
312.70 1.950373
312.80 1.950058
312.90 1.94969
313.00 1.949265
313.10 1.94884
313.20 1.948415
313.30 1.948004
313.40 1.947634
313.50 1.947263
313.60 1.946892
313.70 1.946521
313.80 1.946151
313.90 1.94578
314.00 1.94541
314.10 1.94506
314.20 1.94471
314.30 1.944359
314.40 1.944009
314.50 1.94366
314.60 1.94331
314.70 1.94296
314.80 1.94257
314.90 1.942086
315.00 1.941623
315.10 1.941245
315.20 1.940867
315.30 1.940489
315.40 1.940111
315.50 1.939734
315.60 1.939356
315.70 1.938978
315.80 1.938601
315.90 1.938223
316.00 1.937846
316.10 1.937469
316.20 1.937092
316.30 1.936432
316.40 1.936055
316.50 1.935679
316.60 1.935584
316.70 1.934925
316.80 1.934267
316.90 1.933891
317.00 1.933515
317.10 1.933139
317.20 1.932763
317.30 1.932513
317.40 1.932217
317.50 1.93179
317.60 1.931363
317.70 1.930936
317.80 1.93051
317.90 1.930031
318.00 1.929418
318.10 1.929043
318.20 1.928668
318.30 1.928294
318.40 1.927919
318.50 1.927544
318.60 1.927315
318.70 1.926857
318.80 1.926205
318.90 1.926108
319.00 1.925673
319.10 1.925299
319.20 1.9249
319.30 1.924428
319.40 1.923956
319.50 1.923484
319.60 1.92289
319.70 1.922565
319.80 1.92224
319.90 1.921915
320.00 1.921435
320.10 1.920786
320.20 1.920672
320.30 1.920163
320.40 1.91968
320.50 1.919418
320.60 1.918782
320.70 1.91841
320.80 1.918038
320.90 1.917666
321.00 1.917295
321.10 1.916923
321.20 1.916354
321.30 1.915919
321.40 1.915485
321.50 1.91505
321.60 1.914616
321.70 1.914182
321.80 1.91374
321.90 1.913288
322.00 1.913033
322.10 1.912591
322.20 1.912149
322.30 1.911707
322.40 1.911265
322.50 1.910824
322.60 1.910383
322.70 1.909941
322.80 1.909345
322.90 1.908933
323.00 1.908521
323.10 1.908109
323.20 1.907698
323.30 1.907286
323.40 1.906875
323.50 1.906464
323.60 1.906053
323.70 1.905642
323.80 1.905231
323.90 1.904821
324.00 1.904365
324.10 1.903909
324.20 1.903454
324.30 1.902991
324.40 1.902524
324.50 1.902075
324.60 1.901627
324.70 1.901178
324.80 1.90073
324.90 1.900282
325.00 1.899835
325.10 1.899387
325.20 1.898947
325.30 1.898525
325.40 1.898102
325.50 1.897647
325.60 1.897154
325.70 1.89666
325.80 1.896167
325.90 1.895715
326.00 1.895308
326.10 1.894902
326.20 1.894496
326.30 1.894003
326.40 1.893264
326.50 1.892834
326.60 1.892406
326.70 1.891977
326.80 1.891548
326.90 1.89112
327.00 1.890691
327.10 1.890263
327.20 1.889835
327.30 1.889408
327.40 1.88898
327.50 1.888553
327.60 1.888125
327.70 1.887698
327.80 1.887271
327.90 1.886742
328.00 1.886178
328.10 1.885708
328.20 1.885237
328.30 1.884767
328.40 1.884297
328.50 1.883877
328.60 1.883468
328.70 1.883059
328.80 1.882631
328.90 1.88215
329.00 1.88167
329.10 1.881189
329.20 1.880709
329.30 1.880229
329.40 1.879749
329.50 1.87927
329.60 1.878791
329.70 1.878312
329.80 1.877833
329.90 1.877354
330.00 1.876874
330.10 1.87639
330.20 1.875907
330.30 1.875424
330.40 1.874943
330.50 1.874466
330.60 1.873988
330.70 1.873511
330.80 1.873034
330.90 1.872558
331.00 1.872081
331.10 1.871605
331.20 1.871129
331.30 1.870654
331.40 1.870178
331.50 1.869688
331.60 1.86918
331.70 1.868672
331.80 1.868191
331.90 1.867711
332.00 1.867232
332.10 1.866752
332.20 1.866273
332.30 1.865794
332.40 1.865316
332.50 1.864837
332.60 1.864359
332.70 1.863881
332.80 1.863403
332.90 1.862926
333.00 1.862449
333.10 1.861981
333.20 1.861526
333.30 1.861071
333.40 1.860615
333.50 1.860161
333.60 1.859706
333.70 1.859251
333.80 1.858797
333.90 1.858343
334.00 1.857889
334.10 1.857405
334.20 1.856884
334.30 1.856364
334.40 1.855843
334.50 1.855323
334.60 1.854804
334.70 1.854456
334.80 1.854157
334.90 1.853627
335.00 1.853098
335.10 1.852453
335.20 1.852102
335.30 1.851475
335.40 1.851125
335.50 1.850713
335.60 1.850112
335.70 1.849737
335.80 1.849137
335.90 1.848593
336.00 1.848119
336.10 1.847645
336.20 1.847171
336.30 1.846679
336.40 1.846164
336.50 1.845649
336.60 1.845135
336.70 1.844621
336.80 1.844107
336.90 1.84361
337.00 1.843132
337.10 1.842654
337.20 1.842177
337.30 1.841686
337.40 1.841178
337.50 1.84067
337.60 1.840162
337.70 1.839655
337.80 1.839148
337.90 1.838638
338.00 1.838126
338.10 1.837614
338.20 1.837102
338.30 1.83659
338.40 1.83609
338.50 1.835616
338.60 1.835143
338.70 1.83467
338.80 1.834197
338.90 1.833725
339.00 1.833252
339.10 1.83278
339.20 1.832308
339.30 1.831793
339.40 1.831214
339.50 1.830665
339.60 1.830151
339.70 1.829637
339.80 1.829123
339.90 1.82861
340.00 1.828097
340.10 1.827584
340.20 1.827072
340.30 1.82656
340.40 1.826048
340.50 1.825537
340.60 1.825025
340.70 1.824514
340.80 1.82408
340.90 1.823754
341.00 1.82334
341.10 1.822818
341.20 1.822296
341.30 1.821774
341.40 1.821253
341.50 1.820731
341.60 1.820211
341.70 1.81969
341.80 1.819181
341.90 1.818686
342.00 1.818191
342.10 1.817697
342.20 1.817089
342.30 1.816583
342.40 1.81613
342.50 1.815555
342.60 1.81498
342.70 1.814405
342.80 1.813831
342.90 1.813258
343.00 1.812734
343.10 1.812272
343.20 1.81181
343.30 1.811348
343.40 1.810873
343.50 1.810378
343.60 1.809883
343.70 1.809388
343.80 1.808893
343.90 1.808399
344.00 1.807873
344.10 1.807299
344.20 1.806727
344.30 1.806154
344.40 1.805582
344.50 1.80501
344.60 1.80472
344.70 1.804149
344.80 1.80359
344.90 1.803007
345.00 1.802632
345.10 1.802062
345.20 1.801495
345.30 1.800932
345.40 1.80037
345.50 1.800002
345.60 1.799691
345.70 1.799123
345.80 1.798556
345.90 1.797988
346.00 1.797421
346.10 1.796855
346.20 1.796308
346.30 1.795789
346.40 1.795271
346.50 1.794753
346.60 1.794235
346.70 1.793717
346.80 1.7932
346.90 1.792683
347.00 1.792166
347.10 1.79165
347.20 1.791132
347.30 1.790613
347.40 1.790094
347.50 1.789575
347.60 1.789056
347.70 1.788538
347.80 1.78802
347.90 1.787503
348.00 1.786985
348.10 1.786468
348.20 1.785951
348.30 1.785435
348.40 1.784919
348.50 1.784403
348.60 1.783887
348.70 1.783248
348.80 1.782632
348.90 1.782106
349.00 1.78158
349.10 1.781054
349.20 1.780528
349.30 1.780003
349.40 1.779478
349.50 1.778954
349.60 1.77843
349.70 1.777906
349.80 1.777382
349.90 1.776859
350.00 1.776336
350.10 1.775813
350.20 1.775291
350.30 1.774773
350.40 1.77426
350.50 1.773747
350.60 1.773235
350.70 1.772723
350.80 1.772211
350.90 1.7717
351.00 1.771189
351.10 1.770678
351.20 1.770168
351.30 1.769658
351.40 1.769123
351.50 1.768546
351.60 1.767969
351.70 1.767393
351.80 1.766817
351.90 1.766241
352.00 1.765666
352.10 1.765091
352.20 1.764682
352.30 1.764234
352.40 1.763704
352.50 1.763173
352.60 1.762643
352.70 1.762114
352.80 1.761584
352.90 1.761055
353.00 1.760527
353.10 1.759998
353.20 1.75947
353.30 1.758942
353.40 1.758415
353.50 1.75784
353.60 1.757253
353.70 1.756667
353.80 1.756081
353.90 1.755512
354.00 1.754974
354.10 1.754436
354.20 1.753899
354.30 1.753362
354.40 1.752825
354.50 1.752289
354.60 1.751752
354.70 1.751217
354.80 1.750663
354.90 1.750084
355.00 1.749505
355.10 1.748926
355.20 1.748348
355.30 1.747884
355.40 1.747419
355.50 1.746955
355.60 1.746491
355.70 1.745935
355.80 1.745337
355.90 1.744601
356.00 1.743967
356.10 1.74342
356.20 1.742874
356.30 1.742327
356.40 1.741781
356.50 1.741235
356.60 1.74069
356.70 1.740145
356.80 1.7396
356.90 1.739056
357.00 1.738511
357.10 1.737968
357.20 1.737424
357.30 1.736881
357.40 1.736374
357.50 1.735929
357.60 1.735485
357.70 1.73504
357.80 1.734472
357.90 1.733904
358.00 1.733354
358.10 1.732808
358.20 1.732263
358.30 1.731718
358.40 1.731173
358.50 1.730629
358.60 1.730085
358.70 1.729541
358.80 1.728998
358.90 1.728455
359.00 1.727902
359.10 1.727333
359.20 1.726763
359.30 1.726177
359.40 1.725593
359.50 1.725083
359.60 1.724592
359.70 1.724101
359.80 1.723474
359.90 1.722847
360.00 1.722247
360.10 1.721697
360.20 1.721147
360.30 1.720597
360.40 1.720048
360.50 1.719498
360.60 1.71914
360.70 1.718622
360.80 1.718103
360.90 1.717585
361.00 1.716912
361.10 1.716202
361.20 1.715877
361.30 1.715101
361.40 1.714823
361.50 1.714069
361.60 1.713536
361.70 1.713021
361.80 1.712472
361.90 1.711863
362.00 1.711254
362.10 1.710855
362.20 1.71043
362.30 1.709864
362.40 1.709298
362.50 1.708732
362.60 1.708167
362.70 1.707539
362.80 1.706789
362.90 1.706276
363.00 1.705763
363.10 1.705215
363.20 1.704668
363.30 1.704236
363.40 1.703726
363.50 1.703217
363.60 1.702494
363.70 1.702009
363.80 1.701263
363.90 1.700735
364.00 1.700207
364.10 1.699679
364.20 1.699152
364.30 1.698679
364.40 1.69822
364.50 1.697716
364.60 1.697068
364.70 1.696419
364.80 1.695772
364.90 1.695267
365.00 1.694763
365.10 1.694258
365.20 1.693543
365.30 1.693039
365.40 1.692324
365.50 1.691822
365.60 1.691319
365.70 1.690779
365.80 1.690238
365.90 1.689767
366.00 1.689312
366.10 1.6887
366.20 1.688089
366.30 1.687478
366.40 1.686867
366.50 1.686385
366.60 1.68589
366.70 1.685289
366.80 1.684689
366.90 1.68411
367.00 1.68357
367.10 1.68303
367.20 1.682491
367.30 1.681952
367.40 1.681413
367.50 1.680759
367.60 1.680077
367.70 1.679604
367.80 1.67913
367.90 1.678657
368.00 1.678097
368.10 1.677597
368.20 1.677016
368.30 1.676433
368.40 1.67585
368.50 1.675268
368.60 1.674687
368.70 1.674105
368.80 1.673524
368.90 1.673093
369.00 1.672518
369.10 1.671842
369.20 1.671353
369.30 1.670724
369.40 1.670096
369.50 1.669468
369.60 1.668977
369.70 1.668486
369.80 1.667919
369.90 1.667353
370.00 1.666786
370.10 1.666123
370.20 1.665632
370.30 1.665144
370.40 1.664662
370.50 1.663964
370.60 1.663472
370.70 1.662791
370.80 1.662303
370.90 1.661816
371.00 1.661333
371.10 1.66085
371.20 1.66016
371.30 1.65947
371.40 1.659098
371.50 1.65851
371.60 1.657922
371.70 1.657335
371.80 1.656748
371.90 1.656162
372.00 1.6558
372.10 1.655202
372.20 1.654653
372.30 1.654104
372.40 1.653555
372.50 1.653007
372.60 1.652459
372.70 1.651912
372.80 1.651228
372.90 1.650545
373.00 1.650066
373.10 1.64959
373.20 1.648909
373.30 1.648228
373.40 1.647751
373.50 1.647274
373.60 1.646797
373.70 1.646321
373.80 1.645529
373.90 1.644965
374.00 1.644388
374.10 1.643812
374.20 1.643236
374.30 1.642661
374.40 1.642036
374.50 1.641703
374.60 1.641137
374.70 1.640564
374.80 1.639991
374.90 1.639418
375.00 1.638812
375.10 1.638206
375.20 1.637601
375.30 1.637072
375.40 1.636544
375.50 1.636016
375.60 1.635489
375.70 1.634962
375.80 1.634435
375.90 1.633908
376.00 1.633039
376.10 1.632516
376.20 1.631996
376.30 1.631477
376.40 1.630957
376.50 1.63041
376.60 1.629819
376.70 1.629228
376.80 1.62864
376.90 1.628054
377.00 1.627469
377.10 1.626884
377.20 1.626319
377.30 1.625828
377.40 1.625338
377.50 1.624847
377.60 1.624245
377.70 1.623644
377.80 1.623043
377.90 1.622442
378.00 1.621739
378.10 1.621198
378.20 1.620661
378.30 1.620124
378.40 1.619588
378.50 1.619052
378.60 1.618516
378.70 1.617981
378.80 1.617446
378.90 1.616902
379.00 1.61634
379.10 1.615802
379.20 1.615265
379.30 1.614697
379.40 1.614099
379.50 1.613502
379.60 1.612936
379.70 1.612407
379.80 1.611844
379.90 1.611281
380.00 1.610719
380.10 1.610157
380.20 1.609596
380.30 1.609035
380.40 1.608474
380.50 1.607914
380.60 1.607178
380.70 1.6066
380.80 1.606022
380.90 1.605445
381.00 1.604868
381.10 1.604269
381.20 1.603746
381.30 1.603194
381.40 1.602739
381.50 1.602098
381.60 1.601508
381.70 1.601027
381.80 1.600476
381.90 1.600026
382.00 1.599188
382.10 1.598738
382.20 1.598056
382.30 1.597607
382.40 1.597109
382.50 1.596538
382.60 1.595967
382.70 1.59546
382.80 1.59496
382.90 1.594397
383.00 1.593834
383.10 1.593271
383.20 1.592697
383.30 1.592079
383.40 1.591486
383.50 1.590931
383.60 1.590129
383.70 1.589603
383.80 1.589078
383.90 1.588554
384.00 1.58803
384.10 1.587506
384.20 1.586982
384.30 1.586459
384.40 1.585919
384.50 1.585361
384.60 1.584804
384.70 1.584248
384.80 1.583635
384.90 1.582927
385.00 1.582432
385.10 1.581931
385.20 1.581201
385.30 1.580573
385.40 1.579983
385.50 1.579429
385.60 1.578876
385.70 1.578323
385.80 1.577762
385.90 1.577166
386.00 1.576595
386.10 1.576049
386.20 1.575526
386.30 1.575003
386.40 1.574426
386.50 1.573898
386.60 1.573462
386.70 1.572648
386.80 1.572213
386.90 1.571683
387.00 1.570966
387.10 1.570531
387.20 1.569993
387.30 1.569296
387.40 1.568853
387.50 1.568211
387.60 1.56767
387.70 1.567144
387.80 1.566617
387.90 1.566092
388.00 1.565507
388.10 1.564757
388.20 1.564388
388.30 1.563821
388.40 1.563254
388.50 1.562718
388.60 1.562174
388.70 1.56137
388.80 1.560941
388.90 1.560489
389.00 1.55971
389.10 1.559282
389.20 1.558643
389.30 1.55812
389.40 1.557511
389.50 1.556951
389.60 1.556399
389.70 1.555689
389.80 1.555144
389.90 1.5546
390.00 1.554055
390.10 1.553511
390.20 1.552968
390.30 1.552411
390.40 1.55184
390.50 1.551269
390.60 1.550698
390.70 1.550128
390.80 1.549551
390.90 1.548968
391.00 1.54865
391.10 1.548038
391.20 1.547388
391.30 1.546713
391.40 1.546169
391.50 1.545625
391.60 1.545081
391.70 1.544538
391.80 1.543995
391.90 1.543499
392.00 1.542982
392.10 1.542354
392.20 1.541712
392.30 1.541051
392.40 1.540528
392.50 1.54009
392.60 1.539553
392.70 1.538889
392.80 1.538352
392.90 1.537757
393.00 1.537169
393.10 1.536615
393.20 1.536091
393.30 1.535492
393.40 1.534878
393.50 1.534463
393.60 1.533907
393.70 1.533269
393.80 1.532872
393.90 1.532276
394.00 1.531663
394.10 1.530973
394.20 1.530381
394.30 1.529855
394.40 1.529315
394.50 1.528873
394.60 1.528301
394.70 1.527722
394.80 1.527114
394.90 1.526514
395.00 1.526092
395.10 1.52532
395.20 1.524736
395.30 1.524201
395.40 1.523665
395.50 1.523066
395.60 1.522443
395.70 1.521842
395.80 1.5213
395.90 1.520758
396.00 1.520236
396.10 1.519838
396.20 1.519251
396.30 1.518616
396.40 1.518209
396.50 1.517444
396.60 1.517038
396.70 1.516399
396.80 1.515868
396.90 1.51514
397.00 1.5147
397.10 1.514236
397.20 1.513613
397.30 1.51316
397.40 1.512511
397.50 1.511863
397.60 1.511227
397.70 1.510721
397.80 1.510215
397.90 1.509675
398.00 1.509044
398.10 1.508414
398.20 1.507861
398.30 1.507396
398.40 1.506922
398.50 1.506166
398.60 1.50569
398.70 1.505127
398.80 1.504518
398.90 1.50395
399.00 1.503459
399.10 1.503075
399.20 1.502485
399.30 1.501895
399.40 1.501306
399.50 1.500717
399.60 1.50012
399.70 1.49952
399.80 1.49892
399.90 1.498321
400.00 1.497726
400.10 1.497249
400.20 1.496822
400.30 1.496291
400.40 1.495683
400.50 1.495038
400.60 1.49442
400.70 1.49385
400.80 1.493443
400.90 1.492817
401.00 1.492366
401.10 1.491622
401.20 1.491155
401.30 1.490487
401.40 1.489934
401.50 1.489452
401.60 1.48897
401.70 1.488498
401.80 1.48783
401.90 1.487273
402.00 1.4867
402.10 1.485961
402.20 1.485571
402.30 1.485034
402.40 1.484444
402.50 1.484056
402.60 1.483318
402.70 1.48293
402.80 1.482194
402.90 1.481598
403.00 1.481037
403.10 1.480685
403.20 1.479958
403.30 1.479492
403.40 1.47883
403.50 1.47826
403.60 1.477741
403.70 1.477327
403.80 1.476601
403.90 1.476067
404.00 1.47548
404.10 1.475096
404.20 1.474539
404.30 1.473983
404.40 1.473254
404.50 1.472699
404.60 1.472143
404.70 1.471761
404.80 1.471044
404.90 1.470652
405.00 1.469926
405.10 1.469397
405.20 1.468918
405.30 1.468439
405.40 1.467887
405.50 1.467335
405.60 1.466783
405.70 1.466232
405.80 1.465681
405.90 1.46513
406.00 1.464547
406.10 1.463964
406.20 1.463381
406.30 1.462798
406.40 1.462212
406.50 1.461579
406.60 1.461116
406.70 1.460504
406.80 1.45992
406.90 1.459309
407.00 1.458762
407.10 1.458216
407.20 1.457671
407.30 1.457125
407.40 1.45658
407.50 1.456036
407.60 1.455492
407.70 1.454948
407.80 1.454404
407.90 1.453862
408.00 1.453335
408.10 1.452771
408.20 1.452236
408.30 1.451746
408.40 1.451256
408.50 1.450605
408.60 1.450012
408.70 1.44942
408.80 1.448857
408.90 1.448475
409.00 1.447897
409.10 1.447319
409.20 1.446741
409.30 1.446164
409.40 1.445587
409.50 1.445
409.60 1.444413
409.70 1.443835
409.80 1.443285
409.90 1.442741
410.00 1.442364
410.10 1.441661
410.20 1.441063
410.30 1.440492
410.40 1.439942
410.50 1.439462
410.60 1.438981
410.70 1.438484
410.80 1.437919
410.90 1.437355
411.00 1.436762
411.10 1.436157
411.20 1.435554
411.30 1.434989
411.40 1.434572
411.50 1.433992
411.60 1.433414
411.70 1.432845
411.80 1.432316
411.90 1.431754
412.00 1.431392
412.10 1.430697
412.20 1.430003
412.30 1.429642
412.40 1.428961
412.50 1.428588
412.60 1.427896
412.70 1.427307
412.80 1.426745
412.90 1.426166
413.00 1.425826
413.10 1.425267
413.20 1.424709
413.30 1.424151
413.40 1.423593
413.50 1.423009
413.60 1.422361
413.70 1.421839
413.80 1.421317
413.90 1.420795
414.00 1.420273
414.10 1.419752
414.20 1.419192
414.30 1.41854
414.40 1.418152
414.50 1.417468
414.60 1.417113
414.70 1.416429
414.80 1.415786
414.90 1.415268
415.00 1.41475
415.10 1.414232
415.20 1.4137
415.30 1.413122
415.40 1.412544
415.50 1.411966
415.60 1.411404
415.70 1.410842
415.80 1.410305
415.90 1.409842
416.00 1.409379
416.10 1.408889
416.20 1.40829
416.30 1.407692
416.40 1.407094
416.50 1.406499
416.60 1.405987
416.70 1.40547
416.80 1.404986
416.90 1.404447
417.00 1.403774
417.10 1.403425
417.20 1.402753
417.30 1.402087
417.40 1.401645
417.50 1.401203
417.60 1.400715
417.70 1.400048
417.80 1.399486
417.90 1.398924
418.00 1.398362
418.10 1.397801
418.20 1.397241
418.30 1.396689
418.40 1.396358
418.50 1.395796
418.60 1.395234
418.70 1.394673
418.80 1.394112
418.90 1.393551
419.00 1.392991
419.10 1.392431
419.20 1.391872
419.30 1.391313
419.40 1.390763
419.50 1.390213
419.60 1.389663
419.70 1.38911
419.80 1.388556
419.90 1.388007
420.00 1.387472
420.10 1.386937
420.20 1.386403
420.30 1.385868
420.40 1.385334
420.50 1.384801
420.60 1.384268
420.70 1.383735
420.80 1.383202
420.90 1.38267
421.00 1.382128
421.10 1.381586
421.20 1.38105
421.30 1.380531
421.40 1.380012
421.50 1.379493
421.60 1.378975
421.70 1.378457
421.80 1.37794
421.90 1.37739
422.00 1.376737
422.10 1.376105
422.20 1.375553
422.30 1.375002
422.40 1.374451
422.50 1.373913
422.60 1.373374
422.70 1.372837
422.80 1.372299
422.90 1.371762
423.00 1.371225
423.10 1.370689
423.20 1.370153
423.30 1.369617
423.40 1.369082
423.50 1.368547
423.60 1.368012
423.70 1.367478
423.80 1.366944
423.90 1.36641
424.00 1.365877
424.10 1.365344
424.20 1.364812
424.30 1.36428
424.40 1.363725
424.50 1.363209
424.60 1.362694
424.70 1.362179
424.80 1.361664
424.90 1.36115
425.00 1.360636
425.10 1.360122
