# Version 2.1 - nm, norm@500 to 1, cut digits, bergeron_He_22000_75.dat_22000
# Wavelength(nm)  Flambda(ergs/cm^s/s/nm)
300.00 4.095783
300.10 4.092688
300.20 4.089488
300.30 4.086254
300.40 4.082773
300.50 4.079295
300.60 4.075822
300.70 4.072351
300.80 4.068885
300.90 4.065423
301.00 4.061964
301.10 4.058508
301.20 4.055057
301.30 4.051609
301.40 4.048165
301.50 4.044725
301.60 4.041288
301.70 4.037855
301.80 4.034425
301.90 4.030999
302.00 4.027577
302.10 4.023924
302.20 4.020249
302.30 4.016578
302.40 4.012911
302.50 4.009248
302.60 4.005589
302.70 4.001934
302.80 3.998283
302.90 3.994636
303.00 3.990992
303.10 3.987353
303.20 3.983717
303.30 3.98007
303.40 3.976288
303.50 3.97251
303.60 3.968736
303.70 3.964966
303.80 3.9612
303.90 3.957438
304.00 3.95368
304.10 3.949927
304.20 3.946177
304.30 3.942432
304.40 3.93869
304.50 3.934953
304.60 3.931305
304.70 3.92767
304.80 3.92404
304.90 3.920413
305.00 3.91679
305.10 3.913171
305.20 3.909556
305.30 3.905945
305.40 3.902338
305.50 3.898735
305.60 3.895135
305.70 3.891539
305.80 3.887948
305.90 3.88436
306.00 3.880776
306.10 3.877196
306.20 3.873619
306.30 3.870047
306.40 3.86641
306.50 3.862757
306.60 3.859108
306.70 3.855462
306.80 3.851821
306.90 3.848183
307.00 3.84455
307.10 3.84092
307.20 3.837294
307.30 3.833672
307.40 3.830055
307.50 3.826441
307.60 3.82283
307.70 3.819224
307.80 3.815622
307.90 3.812023
308.00 3.808429
308.10 3.804838
308.20 3.801251
308.30 3.797668
308.40 3.794089
308.50 3.790513
308.60 3.786942
308.70 3.783374
308.80 3.779844
308.90 3.776412
309.00 3.772693
309.10 3.768978
309.20 3.765267
309.30 3.76156
309.40 3.757874
309.50 3.754295
309.60 3.75072
309.70 3.747149
309.80 3.743582
309.90 3.740018
310.00 3.736458
310.10 3.732902
310.20 3.72935
310.30 3.725802
310.40 3.722161
310.50 3.71842
310.60 3.714683
310.70 3.71095
310.80 3.707221
310.90 3.703496
311.00 3.699806
311.10 3.69612
311.20 3.692438
311.30 3.688749
311.40 3.685034
311.50 3.681322
311.60 3.677614
311.70 3.67391
311.80 3.670211
311.90 3.666515
312.00 3.662823
312.10 3.659135
312.20 3.655113
312.30 3.651087
312.40 3.647403
312.50 3.643596
312.60 3.639963
312.70 3.636334
312.80 3.632709
312.90 3.628887
313.00 3.624851
313.10 3.62082
313.20 3.616793
313.30 3.612741
313.40 3.60861
313.50 3.604484
313.60 3.600362
313.70 3.596245
313.80 3.592133
313.90 3.588025
314.00 3.583921
314.10 3.57916
314.20 3.574404
314.30 3.569653
314.40 3.564908
314.50 3.560168
314.60 3.555434
314.70 3.550704
314.80 3.545826
314.90 3.540435
315.00 3.534964
315.10 3.528549
315.20 3.522142
315.30 3.515742
315.40 3.509349
315.50 3.502964
315.60 3.496586
315.70 3.489028
315.80 3.481479
315.90 3.473939
316.00 3.466408
316.10 3.46007
316.20 3.453739
316.30 3.456878
316.40 3.456466
316.50 3.436562
316.60 3.390709
316.70 3.366151
316.80 3.341623
316.90 3.339514
317.00 3.337408
317.10 3.335303
317.20 3.3332
317.30 3.347312
317.40 3.356691
317.50 3.352648
317.60 3.348609
317.70 3.344575
317.80 3.340545
317.90 3.314562
318.00 3.278517
318.10 3.220613
318.20 3.16278
318.30 3.10502
318.40 3.021306
318.50 2.863673
318.60 2.677744
318.70 2.303173
318.80 1.950321
318.90 2.309012
319.00 2.551939
319.10 2.717694
319.20 2.859728
319.30 2.934705
319.40 3.009587
319.50 3.084375
319.60 3.140924
319.70 3.170509
319.80 3.200056
319.90 3.229565
320.00 3.253352
320.10 3.270953
320.20 3.286198
320.30 3.297253
320.40 3.306146
320.50 3.313415
320.60 3.319154
320.70 3.323988
320.80 3.327436
320.90 3.329385
321.00 3.33133
321.10 3.333273
321.20 3.333749
321.30 3.33346
321.40 3.333169
321.50 3.332879
321.60 3.332588
321.70 3.332297
321.80 3.331522
321.90 3.330224
322.00 3.328378
322.10 3.326737
322.20 3.325098
322.30 3.32346
322.40 3.321823
322.50 3.320188
322.60 3.318554
322.70 3.316922
322.80 3.315035
322.90 3.31278
323.00 3.310528
323.10 3.308278
323.20 3.30603
323.30 3.303784
323.40 3.30154
323.50 3.299298
323.60 3.297059
323.70 3.294821
323.80 3.292586
323.90 3.290353
324.00 3.287719
324.10 3.285088
324.20 3.28246
324.30 3.279991
324.40 3.277704
324.50 3.275133
324.60 3.272565
324.70 3.269999
324.80 3.267436
324.90 3.264876
325.00 3.262318
325.10 3.259762
325.20 3.257135
325.30 3.254354
325.40 3.251575
325.50 3.248896
325.60 3.246338
325.70 3.243783
325.80 3.241231
325.90 3.23857
326.00 3.235792
326.10 3.233016
326.20 3.230244
326.30 3.227679
326.40 3.225702
326.50 3.222962
326.60 3.220224
326.70 3.21749
326.80 3.214758
326.90 3.212029
327.00 3.209302
327.10 3.206579
327.20 3.203858
327.30 3.201139
327.40 3.198424
327.50 3.195711
327.60 3.193001
327.70 3.190293
327.80 3.187589
327.90 3.185251
328.00 3.182242
328.10 3.177933
328.20 3.173629
328.30 3.16933
328.40 3.165035
328.50 3.162659
328.60 3.160735
328.70 3.158812
328.80 3.156794
328.90 3.154505
329.00 3.152217
329.10 3.149932
329.20 3.147648
329.30 3.145367
329.40 3.143088
329.50 3.140812
329.60 3.138537
329.70 3.136265
329.80 3.133995
329.90 3.131727
330.00 3.129257
330.10 3.126541
330.20 3.123827
330.30 3.121116
330.40 3.118471
330.50 3.115897
330.60 3.113325
330.70 3.110756
330.80 3.108189
330.90 3.105625
331.00 3.103063
331.10 3.100504
331.20 3.097947
331.30 3.095393
331.40 3.092841
331.50 3.09021
331.60 3.087483
331.70 3.084757
331.80 3.081794
331.90 3.078824
332.00 3.075857
332.10 3.072893
332.20 3.069932
332.30 3.066974
332.40 3.064019
332.50 3.061067
332.60 3.058118
332.70 3.055172
332.80 3.052229
332.90 3.049289
333.00 3.046352
333.10 3.043052
333.20 3.039307
333.30 3.035566
333.40 3.031829
333.50 3.028096
333.60 3.024367
333.70 3.020641
333.80 3.01692
333.90 3.013203
334.00 3.009489
334.10 3.005128
334.20 2.999974
334.30 2.994827
334.40 2.989685
334.50 2.984548
334.60 2.979417
334.70 2.973969
334.80 2.966493
334.90 2.956667
335.00 2.946853
335.10 2.938452
335.20 2.930379
335.30 2.922658
335.40 2.914736
335.50 2.921146
335.60 2.925447
335.70 2.930005
335.80 2.933507
335.90 2.936179
336.00 2.937839
336.10 2.939495
336.20 2.94115
336.30 2.941663
336.40 2.940786
336.50 2.939909
336.60 2.939033
336.70 2.938158
336.80 2.937283
336.90 2.936365
337.00 2.935397
337.10 2.934429
337.20 2.933461
337.30 2.932178
337.40 2.93044
337.50 2.928704
337.60 2.926969
337.70 2.925236
337.80 2.923504
337.90 2.921684
338.00 2.919754
338.10 2.917827
338.20 2.915901
338.30 2.913977
338.40 2.911944
338.50 2.909642
338.60 2.907343
338.70 2.905045
338.80 2.90275
338.90 2.900457
339.00 2.898167
339.10 2.895878
339.20 2.893592
339.30 2.89133
339.40 2.889102
339.50 2.886723
339.60 2.884157
339.70 2.881594
339.80 2.879034
339.90 2.876476
340.00 2.873921
340.10 2.871368
340.20 2.868818
340.30 2.86627
340.40 2.863724
340.50 2.861182
340.60 2.858641
340.70 2.856103
340.80 2.853494
340.90 2.850781
341.00 2.847966
341.10 2.845025
341.20 2.842087
341.30 2.839152
341.40 2.83622
341.50 2.83329
341.60 2.830364
341.70 2.827441
341.80 2.824339
341.90 2.82102
342.00 2.817704
342.10 2.814392
342.20 2.81091
342.30 2.807019
342.40 2.803053
342.50 2.798877
342.60 2.794706
342.70 2.79054
342.80 2.786377
342.90 2.782219
343.00 2.777636
343.10 2.772534
343.20 2.767437
343.30 2.762345
343.40 2.756285
343.50 2.74883
343.60 2.741383
343.70 2.733944
343.80 2.726514
343.90 2.719091
344.00 2.709046
344.10 2.695229
344.20 2.681427
344.30 2.667641
344.40 2.6507
344.50 2.629218
344.60 2.606715
344.70 2.582869
344.80 2.605086
344.90 2.623148
345.00 2.645201
345.10 2.657083
345.20 2.66703
345.30 2.674203
345.40 2.681368
345.50 2.687179
345.60 2.690351
345.70 2.692095
345.80 2.693837
345.90 2.695577
346.00 2.697314
346.10 2.699049
346.20 2.699674
346.30 2.698708
346.40 2.697741
346.50 2.696776
346.60 2.695811
346.70 2.694847
346.80 2.693883
346.90 2.69292
347.00 2.691958
347.10 2.690997
347.20 2.689767
347.30 2.688151
347.40 2.686537
347.50 2.684924
347.60 2.683312
347.70 2.681702
347.80 2.680094
347.90 2.678486
348.00 2.676881
348.10 2.675276
348.20 2.673673
348.30 2.672072
348.40 2.670471
348.50 2.668872
348.60 2.667275
348.70 2.665729
348.80 2.664042
348.90 2.662126
349.00 2.660212
349.10 2.6583
349.20 2.656389
349.30 2.65448
349.40 2.652573
349.50 2.650668
349.60 2.648765
349.70 2.646863
349.80 2.644963
349.90 2.643065
350.00 2.641168
350.10 2.639273
350.20 2.63738
350.30 2.635504
350.40 2.633651
350.50 2.6318
350.60 2.62995
350.70 2.628102
350.80 2.626256
350.90 2.624412
351.00 2.622569
351.10 2.620727
351.20 2.618888
351.30 2.61705
351.40 2.615246
351.50 2.613502
351.60 2.611759
351.70 2.610017
351.80 2.608277
351.90 2.606539
352.00 2.604802
352.10 2.603067
352.20 2.600987
352.30 2.599099
352.40 2.597542
352.50 2.595987
352.60 2.594432
352.70 2.59288
352.80 2.591328
352.90 2.589778
353.00 2.588229
353.10 2.586681
353.20 2.585135
353.30 2.58359
353.40 2.582047
353.50 2.58074
353.60 2.579494
353.70 2.578249
353.80 2.577004
353.90 2.575722
354.00 2.574373
354.10 2.573025
354.20 2.571677
354.30 2.570331
354.40 2.568986
354.50 2.567642
354.60 2.566299
354.70 2.564958
354.80 2.563661
354.90 2.56243
355.00 2.561199
355.10 2.55997
355.20 2.558741
355.30 2.557519
355.40 2.556297
355.50 2.555076
355.60 2.553857
355.70 2.552765
355.80 2.551732
355.90 2.550554
356.00 2.549277
356.10 2.548039
356.20 2.546803
356.30 2.545567
356.40 2.544332
356.50 2.543098
356.60 2.541866
356.70 2.540634
356.80 2.539403
356.90 2.538173
357.00 2.536944
357.10 2.535716
357.20 2.53449
357.30 2.533264
357.40 2.532069
357.50 2.530928
357.60 2.529788
357.70 2.528649
357.80 2.527236
357.90 2.525824
358.00 2.523918
358.10 2.521889
358.20 2.519863
358.30 2.517839
358.40 2.515816
358.50 2.513795
358.60 2.511777
358.70 2.50976
358.80 2.507744
358.90 2.505731
359.00 2.5032
359.10 2.499749
359.20 2.496261
359.30 2.492511
359.40 2.488765
359.50 2.484293
359.60 2.479643
359.70 2.474998
359.80 2.468428
359.90 2.461866
360.00 2.453505
360.10 2.441946
360.20 2.430399
360.30 2.418865
360.40 2.407343
360.50 2.395834
360.60 2.375556
360.70 2.347179
360.80 2.318834
360.90 2.290519
361.00 2.256783
361.10 2.202233
361.20 2.13883
361.30 2.048623
361.40 2.144754
361.50 2.240687
361.60 2.281279
361.70 2.284089
361.80 2.290006
361.90 2.301447
362.00 2.312875
362.10 2.31915
362.20 2.321096
362.30 2.31764
362.40 2.314187
362.50 2.310738
362.60 2.307293
362.70 2.300089
362.80 2.292628
362.90 2.28287
363.00 2.273124
363.10 2.26286
363.20 2.252602
363.30 2.245975
363.40 2.244515
363.50 2.254251
363.60 2.271361
363.70 2.284675
363.80 2.296136
363.90 2.305087
364.00 2.314028
364.10 2.322959
364.20 2.33188
364.30 2.342149
364.40 2.352746
364.50 2.36223
364.60 2.369511
364.70 2.376784
364.80 2.384048
364.90 2.388519
365.00 2.392984
365.10 2.393449
365.20 2.38992
365.30 2.388612
365.40 2.393952
365.50 2.400615
365.60 2.40727
365.70 2.413193
365.80 2.41911
365.90 2.423555
366.00 2.42763
366.10 2.429341
366.20 2.43105
366.30 2.432757
366.40 2.434461
366.50 2.435088
366.60 2.434659
366.70 2.433998
366.80 2.433337
366.90 2.431925
367.00 2.429178
367.10 2.426433
367.20 2.423691
367.30 2.420952
367.40 2.418215
367.50 2.413889
367.60 2.40917
367.70 2.402562
367.80 2.395961
367.90 2.389367
368.00 2.382527
368.10 2.373884
368.20 2.362553
368.30 2.351208
368.40 2.339875
368.50 2.328555
368.60 2.317246
368.70 2.305949
368.80 2.294664
368.90 2.282529
369.00 2.268053
369.10 2.253387
369.20 2.237273
369.30 2.21784
369.40 2.198427
369.50 2.179036
369.60 2.154583
369.70 2.130157
369.80 2.104461
369.90 2.078779
370.00 2.053124
370.10 2.025421
370.20 1.995373
370.30 1.965384
370.40 1.935009
370.50 1.923523
370.60 1.958447
370.70 2.00047
370.80 2.032791
370.90 2.065077
371.00 2.080979
371.10 2.096698
371.20 2.110096
371.30 2.123479
371.40 2.139615
371.50 2.15507
371.60 2.170507
371.70 2.185928
371.80 2.201332
371.90 2.216718
372.00 2.230719
372.10 2.243561
372.20 2.252891
372.30 2.262211
372.40 2.27152
372.50 2.280819
372.60 2.290108
372.70 2.299387
372.80 2.304508
372.90 2.309623
373.00 2.313526
373.10 2.317412
373.20 2.313621
373.30 2.309834
373.40 2.280589
373.50 2.265795
373.60 2.2773
373.70 2.293029
373.80 2.306412
373.90 2.32105
374.00 2.329538
374.10 2.338017
374.20 2.346486
374.30 2.354946
374.40 2.36002
374.50 2.365027
374.60 2.36822
374.70 2.371392
374.80 2.374561
374.90 2.377726
375.00 2.379263
375.10 2.380798
375.20 2.382331
375.30 2.382262
375.40 2.382193
375.50 2.382123
375.60 2.382053
375.70 2.381983
375.80 2.381912
375.90 2.381842
376.00 2.380575
376.10 2.378768
376.20 2.376957
376.30 2.375147
376.40 2.37334
376.50 2.371176
376.60 2.368478
376.70 2.365783
376.80 2.362643
376.90 2.359059
377.00 2.355479
377.10 2.351902
377.20 2.34811
377.30 2.343499
377.40 2.338892
377.50 2.33429
377.60 2.328363
377.70 2.322441
377.80 2.316526
377.90 2.310616
378.00 2.304969
378.10 2.296596
378.20 2.2882
378.30 2.279812
378.40 2.271433
378.50 2.263063
378.60 2.254701
378.70 2.246348
378.80 2.238003
378.90 2.228751
379.00 2.217811
379.10 2.206431
379.20 2.195062
379.30 2.182835
379.40 2.169751
379.50 2.15668
379.60 2.143146
379.70 2.127931
379.80 2.109046
379.90 2.09018
380.00 2.071333
380.10 2.052507
380.20 2.033699
380.30 2.014912
380.40 1.996143
380.50 1.977395
380.60 1.951968
380.70 1.923107
380.80 1.894276
380.90 1.865475
381.00 1.836704
381.10 1.802639
381.20 1.767365
381.30 1.7308
381.40 1.692741
381.50 1.651824
381.60 1.609745
381.70 1.566929
381.80 1.530268
381.90 1.506748
382.00 1.478386
382.10 1.535566
382.20 1.599005
382.30 1.656466
382.40 1.707464
382.50 1.748807
382.60 1.790108
382.70 1.824454
382.80 1.84298
382.90 1.853494
383.00 1.863998
383.10 1.87449
383.20 1.886398
383.30 1.903659
383.40 1.921198
383.50 1.939163
383.60 1.957208
383.70 1.971332
383.80 1.985441
383.90 1.999535
384.00 2.013614
384.10 2.027678
384.20 2.041727
384.30 2.055761
384.40 2.067837
384.50 2.077956
384.60 2.088065
384.70 2.098163
384.80 2.107855
384.90 2.115437
385.00 2.121876
385.10 2.128303
385.20 2.133515
385.30 2.137668
385.40 2.141137
385.50 2.143925
385.60 2.146709
385.70 2.14949
385.80 2.152134
385.90 2.154271
386.00 2.155344
386.10 2.154921
386.20 2.15013
386.30 2.145342
386.40 2.137696
386.50 2.122555
386.60 2.09683
386.70 2.03758
386.80 1.89356
386.90 1.934283
387.00 1.97609
387.10 2.006204
387.20 2.031111
387.30 2.049752
387.40 2.060851
387.50 2.068778
387.60 2.073557
387.70 2.070322
387.80 2.067091
387.90 2.063862
388.00 2.057828
388.10 2.039255
388.20 2.005869
388.30 1.961482
388.40 1.91714
388.50 1.85719
388.60 1.760703
388.70 1.619123
388.80 1.398747
388.90 1.31416
389.00 1.49941
389.10 1.645485
389.20 1.751056
389.30 1.830136
389.40 1.891231
389.50 1.944767
389.60 1.985353
389.70 2.014446
389.80 2.033811
389.90 2.053155
390.00 2.072479
390.10 2.091784
390.20 2.111068
390.30 2.124737
390.40 2.132084
390.50 2.139424
390.60 2.146757
390.70 2.154081
390.80 2.159377
390.90 2.162648
391.00 2.164981
391.10 2.166503
391.20 2.16791
391.30 2.167728
391.40 2.166234
391.50 2.164741
391.60 2.16325
391.70 2.16176
391.80 2.160271
391.90 2.158626
392.00 2.156426
392.10 2.153661
392.20 2.150812
392.30 2.147105
392.40 2.143434
392.50 2.140712
392.60 2.136935
392.70 2.133295
392.80 2.132209
392.90 2.132461
393.00 2.133006
393.10 2.133567
393.20 2.134134
393.30 2.134579
393.40 2.134886
393.50 2.133801
393.60 2.131781
393.70 2.130106
393.80 2.128956
393.90 2.127113
394.00 2.125229
394.10 2.122408
394.20 2.119012
394.30 2.114793
394.40 2.109877
394.50 2.103227
394.60 2.095368
394.70 2.08682
394.80 2.075663
394.90 2.064457
395.00 2.051297
395.10 2.037397
395.20 2.019831
395.30 2.001541
395.40 1.98327
395.50 1.95718
395.60 1.928218
395.70 1.895028
395.80 1.850361
395.90 1.80574
396.00 1.759296
396.10 1.686661
396.20 1.594214
396.30 1.491993
396.40 1.342331
396.50 1.428915
396.60 1.674083
396.70 1.75929
396.80 1.751305
396.90 1.732233
397.00 1.783243
397.10 1.87928
397.20 1.922631
397.30 1.923455
397.40 1.926964
397.50 1.930469
397.60 1.934142
397.70 1.939537
397.80 1.944927
397.90 1.949313
398.00 1.951002
398.10 1.952689
398.20 1.95269
398.30 1.950792
398.40 1.948855
398.50 1.945584
398.60 1.941066
398.70 1.934916
398.80 1.928479
398.90 1.921455
399.00 1.913334
399.10 1.904056
399.20 1.893223
399.30 1.882402
399.40 1.871591
399.50 1.86079
399.60 1.847989
399.70 1.834456
399.80 1.820937
399.90 1.80743
400.00 1.793889
400.10 1.778776
400.20 1.763099
400.30 1.746289
400.40 1.72937
400.50 1.712372
400.60 1.693167
400.70 1.674264
400.80 1.653896
400.90 1.629749
401.00 1.610519
401.10 1.59574
401.20 1.58001
401.30 1.563034
401.40 1.542319
401.50 1.520343
401.60 1.498212
401.70 1.470388
401.80 1.439909
401.90 1.406616
402.00 1.371988
402.10 1.336474
402.20 1.301109
402.30 1.265007
402.40 1.231123
402.50 1.200145
402.60 1.164661
402.70 1.17925
402.80 1.21951
402.90 1.26352
403.00 1.307705
403.10 1.352428
403.20 1.396726
403.30 1.439128
403.40 1.479156
403.50 1.514958
403.60 1.549562
403.70 1.580771
403.80 1.607546
403.90 1.630243
404.00 1.651576
404.10 1.667504
404.20 1.675733
404.30 1.683954
404.40 1.680358
404.50 1.654082
404.60 1.638084
404.70 1.646667
404.80 1.66299
404.90 1.679689
405.00 1.695081
405.10 1.709038
405.20 1.72261
405.30 1.736168
405.40 1.747672
405.50 1.759165
405.60 1.770647
405.70 1.782116
405.80 1.793575
405.90 1.805021
406.00 1.81381
406.10 1.822591
406.20 1.831362
406.30 1.840125
406.40 1.848803
406.50 1.855758
406.60 1.863234
406.70 1.869785
406.80 1.876408
406.90 1.882816
407.00 1.887606
407.10 1.892391
407.20 1.897171
407.30 1.901947
407.40 1.906717
407.50 1.911483
407.60 1.916243
407.70 1.920999
407.80 1.925749
407.90 1.930453
408.00 1.93378
408.10 1.93696
408.20 1.939312
408.30 1.941599
408.40 1.943884
408.50 1.945933
408.60 1.947433
408.70 1.948932
408.80 1.950338
408.90 1.950947
409.00 1.951351
409.10 1.951754
409.20 1.952157
409.30 1.952559
409.40 1.952942
409.50 1.952737
409.60 1.952531
409.70 1.952176
409.80 1.951223
409.90 1.950251
410.00 1.948616
410.10 1.94708
410.20 1.944694
410.30 1.942099
410.40 1.93918
410.50 1.935232
410.60 1.931288
410.70 1.926812
410.80 1.920196
410.90 1.913586
411.00 1.904893
411.10 1.895437
411.20 1.88599
411.30 1.875745
411.40 1.862082
411.50 1.841915
411.60 1.821768
411.70 1.79711
411.80 1.754367
411.90 1.705388
412.00 1.597197
412.10 1.314731
412.20 1.361629
412.30 1.463338
412.40 1.538603
412.50 1.58677
412.60 1.622744
412.70 1.647254
412.80 1.668884
412.90 1.688457
413.00 1.696679
413.10 1.697371
413.20 1.698063
413.30 1.698753
413.40 1.699443
413.50 1.698964
413.60 1.693113
413.70 1.685035
413.80 1.676964
413.90 1.6689
414.00 1.659933
414.10 1.64809
414.20 1.634354
414.30 1.612123
414.40 1.592671
414.50 1.592188
414.60 1.607244
414.70 1.625392
414.80 1.643234
414.90 1.660143
415.00 1.677037
415.10 1.693914
415.20 1.709765
415.30 1.722408
415.40 1.735038
415.50 1.747606
415.60 1.758553
415.70 1.769488
415.80 1.779965
415.90 1.789011
416.00 1.798048
416.10 1.806377
416.20 1.811898
416.30 1.817414
416.40 1.822924
416.50 1.82833
416.60 1.830521
416.70 1.832617
416.80 1.82986
416.90 1.815582
417.00 1.810561
417.10 1.820547
417.20 1.829192
417.30 1.837761
417.40 1.84408
417.50 1.850394
417.60 1.856307
417.70 1.860608
417.80 1.864011
417.90 1.867411
418.00 1.870807
418.10 1.874199
418.20 1.877589
418.30 1.880949
418.40 1.883285
418.50 1.885026
418.60 1.886765
418.70 1.888503
418.80 1.890238
418.90 1.891972
419.00 1.893704
419.10 1.895434
419.20 1.897162
419.30 1.898859
419.40 1.899618
419.50 1.900375
419.60 1.901072
419.70 1.901528
419.80 1.901984
419.90 1.902317
420.00 1.902265
420.10 1.902213
420.20 1.902162
420.30 1.90211
420.40 1.902057
420.50 1.902005
420.60 1.901952
420.70 1.9019
420.80 1.901847
420.90 1.901782
421.00 1.901359
421.10 1.900937
421.20 1.900465
421.30 1.899849
421.40 1.899232
421.50 1.898616
421.60 1.898001
421.70 1.897385
421.80 1.89677
421.90 1.896088
422.00 1.895189
422.10 1.894291
422.20 1.893394
422.30 1.892497
422.40 1.891596
422.50 1.890534
422.60 1.889472
422.70 1.88841
422.80 1.88735
422.90 1.88629
423.00 1.885231
423.10 1.884173
423.20 1.883116
423.30 1.88206
423.40 1.881004
423.50 1.879949
423.60 1.878895
423.70 1.877841
423.80 1.876789
423.90 1.875737
424.00 1.874686
424.10 1.873636
424.20 1.872587
424.30 1.871538
424.40 1.869863
424.50 1.86865
424.60 1.867439
424.70 1.866228
424.80 1.865018
424.90 1.86381
425.00 1.862602
425.10 1.861395
