# Version 2.1 - nm, norm@500 to 1, cut digits, bergeron_He_9000_75.dat_9000
# Wavelength(nm)  Flambda(ergs/cm^s/s/nm)
300.00 1.63741
300.10 1.63754
300.20 1.637678
300.30 1.637804
300.40 1.637849
300.50 1.637893
300.60 1.637937
300.70 1.63798
300.80 1.638023
300.90 1.638066
301.00 1.638108
301.10 1.63815
301.20 1.638191
301.30 1.638232
301.40 1.638272
301.50 1.638312
301.60 1.638352
301.70 1.638391
301.80 1.63843
301.90 1.638468
302.00 1.638506
302.10 1.638539
302.20 1.63857
302.30 1.638601
302.40 1.638632
302.50 1.638662
302.60 1.638692
302.70 1.638722
302.80 1.638751
302.90 1.638779
303.00 1.638808
303.10 1.638836
303.20 1.638863
303.30 1.638889
303.40 1.638902
303.50 1.638914
303.60 1.638926
303.70 1.638938
303.80 1.638949
303.90 1.63896
304.00 1.638971
304.10 1.638981
304.20 1.638991
304.30 1.639001
304.40 1.63901
304.50 1.639019
304.60 1.639036
304.70 1.639055
304.80 1.639072
304.90 1.63909
305.00 1.639107
305.10 1.639124
305.20 1.63914
305.30 1.639156
305.40 1.639172
305.50 1.639187
305.60 1.639202
305.70 1.639216
305.80 1.63923
305.90 1.639244
306.00 1.639257
306.10 1.63927
306.20 1.639283
306.30 1.639295
306.40 1.63927
306.50 1.639234
306.60 1.639197
306.70 1.639159
306.80 1.639122
306.90 1.639084
307.00 1.639046
307.10 1.639008
307.20 1.638969
307.30 1.63893
307.40 1.638891
307.50 1.638851
307.60 1.638811
307.70 1.638771
307.80 1.638731
307.90 1.63869
308.00 1.638649
308.10 1.638608
308.20 1.638566
308.30 1.638524
308.40 1.638482
308.50 1.638439
308.60 1.638397
308.70 1.638353
308.80 1.638378
308.90 1.638593
309.00 1.638525
309.10 1.638456
309.20 1.638387
309.30 1.638318
309.40 1.638261
309.50 1.63828
309.60 1.638299
309.70 1.638318
309.80 1.638336
309.90 1.638354
310.00 1.638372
310.10 1.638389
310.20 1.638405
310.30 1.638422
310.40 1.638412
310.50 1.638373
310.60 1.638334
310.70 1.638295
310.80 1.638255
310.90 1.638216
311.00 1.63801
311.10 1.637805
311.20 1.6376
311.30 1.637448
311.40 1.637444
311.50 1.63744
311.60 1.637436
311.70 1.637431
311.80 1.637426
311.90 1.637421
312.00 1.637415
312.10 1.637409
312.20 1.637195
312.30 1.637195
312.40 1.637457
312.50 1.637364
312.60 1.637161
312.70 1.636958
312.80 1.636754
312.90 1.636681
313.00 1.636749
313.10 1.636816
313.20 1.636883
313.30 1.636913
313.40 1.636837
313.50 1.63676
313.60 1.636684
313.70 1.636607
313.80 1.63653
313.90 1.636452
314.00 1.636375
314.10 1.636338
314.20 1.6363
314.30 1.636263
314.40 1.636225
314.50 1.636186
314.60 1.636148
314.70 1.636109
314.80 1.636068
314.90 1.635796
315.00 1.63528
315.10 1.635272
315.20 1.635264
315.30 1.635256
315.40 1.635248
315.50 1.635239
315.60 1.63523
315.70 1.635156
315.80 1.635082
315.90 1.635008
316.00 1.634934
316.10 1.634668
316.20 1.634401
316.30 1.634518
316.40 1.634251
316.50 1.634368
316.60 1.634101
316.70 1.634216
316.80 1.634331
316.90 1.634255
317.00 1.634178
317.10 1.634102
317.20 1.634025
317.30 1.633871
317.40 1.633721
317.50 1.633586
317.60 1.63345
317.70 1.633314
317.80 1.633178
317.90 1.633149
318.00 1.632888
318.10 1.632809
318.20 1.63273
318.30 1.632651
318.40 1.632621
318.50 1.63273
318.60 1.632544
318.70 1.632275
318.80 1.632006
318.90 1.631851
319.00 1.631762
319.10 1.63187
319.20 1.631891
319.30 1.631665
319.40 1.631439
319.50 1.631213
319.60 1.631564
319.70 1.631338
319.80 1.631111
319.90 1.630885
320.00 1.630818
320.10 1.630922
320.20 1.630822
320.30 1.63074
320.40 1.630694
320.50 1.630424
320.60 1.630511
320.70 1.630241
320.80 1.630059
320.90 1.629975
321.00 1.62989
321.10 1.629805
321.20 1.629508
321.30 1.629394
321.40 1.62928
321.50 1.629165
321.60 1.62905
321.70 1.628936
321.80 1.62887
321.90 1.628859
322.00 1.628326
322.10 1.628235
322.20 1.628144
322.30 1.628052
322.40 1.62796
322.50 1.627868
322.60 1.627776
322.70 1.627684
322.80 1.62739
322.90 1.627297
323.00 1.627203
323.10 1.62711
323.20 1.627017
323.30 1.626923
323.40 1.626829
323.50 1.626735
323.60 1.62664
323.70 1.626546
323.80 1.626451
323.90 1.626356
324.00 1.626134
324.10 1.625912
324.20 1.62569
324.30 1.625508
324.40 1.625421
324.50 1.625312
324.60 1.625203
324.70 1.625094
324.80 1.624984
324.90 1.624875
325.00 1.624765
325.10 1.624655
325.20 1.624504
325.30 1.624263
325.40 1.624022
325.50 1.623851
325.60 1.623765
325.70 1.623679
325.80 1.623593
325.90 1.62348
326.00 1.62334
326.10 1.623199
326.20 1.623058
326.30 1.622844
326.40 1.622421
326.50 1.62227
326.60 1.622119
326.70 1.621968
326.80 1.621816
326.90 1.621665
327.00 1.621513
327.10 1.621361
327.20 1.621209
327.30 1.621057
327.40 1.620905
327.50 1.620753
327.60 1.620601
327.70 1.620448
327.80 1.620296
327.90 1.620074
328.00 1.619813
328.10 1.619594
328.20 1.619375
328.30 1.619155
328.40 1.618936
328.50 1.618745
328.60 1.61856
328.70 1.618376
328.80 1.618202
328.90 1.618059
329.00 1.617916
329.10 1.617772
329.20 1.617629
329.30 1.617485
329.40 1.617341
329.50 1.617197
329.60 1.617053
329.70 1.616909
329.80 1.616765
329.90 1.616621
330.00 1.6165
330.10 1.616407
330.20 1.616314
330.30 1.616221
330.40 1.616071
330.50 1.615857
330.60 1.615643
330.70 1.615429
330.80 1.615216
330.90 1.615002
331.00 1.614788
331.10 1.614574
331.20 1.61436
331.30 1.614146
331.40 1.613932
331.50 1.613755
331.60 1.613622
331.70 1.61349
331.80 1.613293
331.90 1.613095
332.00 1.612896
332.10 1.612697
332.20 1.612498
332.30 1.612299
332.40 1.6121
332.50 1.611901
332.60 1.611702
332.70 1.611503
332.80 1.611304
332.90 1.611104
333.00 1.610905
333.10 1.610702
333.20 1.610496
333.30 1.610289
333.40 1.610083
333.50 1.609876
333.60 1.609669
333.70 1.609463
333.80 1.609256
333.90 1.609049
334.00 1.608842
334.10 1.608656
334.20 1.608495
334.30 1.608333
334.40 1.608172
334.50 1.608011
334.60 1.607849
334.70 1.607624
334.80 1.607373
334.90 1.607197
335.00 1.60702
335.10 1.606533
335.20 1.606257
335.30 1.606357
335.40 1.606081
335.50 1.605891
335.60 1.60553
335.70 1.605561
335.80 1.605285
335.90 1.605009
336.00 1.604734
336.10 1.604458
336.20 1.604183
336.30 1.603958
336.40 1.603795
336.50 1.603633
336.60 1.60347
336.70 1.603307
336.80 1.603144
336.90 1.602928
337.00 1.602645
337.10 1.602363
337.20 1.602081
337.30 1.60185
337.40 1.601692
337.50 1.601534
337.60 1.601376
337.70 1.601218
337.80 1.601059
337.90 1.600839
338.00 1.600543
338.10 1.600246
338.20 1.59995
338.30 1.599654
338.40 1.599388
338.50 1.599197
338.60 1.599007
338.70 1.598816
338.80 1.598625
338.90 1.598434
339.00 1.598242
339.10 1.598051
339.20 1.59786
339.30 1.59764
339.40 1.597378
339.50 1.597132
339.60 1.596906
339.70 1.59668
339.80 1.596454
339.90 1.596227
340.00 1.596001
340.10 1.595775
340.20 1.595548
340.30 1.595322
340.40 1.595096
340.50 1.594869
340.60 1.594643
340.70 1.594417
340.80 1.594176
340.90 1.593914
341.00 1.593647
341.10 1.593372
341.20 1.593097
341.30 1.592822
341.40 1.592548
341.50 1.592273
341.60 1.591998
341.70 1.591724
341.80 1.591501
341.90 1.591342
342.00 1.591184
342.10 1.591025
342.20 1.590712
342.30 1.590536
342.40 1.590433
342.50 1.590163
342.60 1.589892
342.70 1.589622
342.80 1.589352
342.90 1.589082
343.00 1.588807
343.10 1.588527
343.20 1.588246
343.30 1.587965
343.40 1.587732
343.50 1.587566
343.60 1.5874
343.70 1.587234
343.80 1.587068
343.90 1.586902
344.00 1.586692
344.10 1.586418
344.20 1.586144
344.30 1.58587
344.40 1.585596
344.50 1.585322
344.60 1.584799
344.70 1.584509
344.80 1.584252
344.90 1.583962
345.00 1.583953
345.10 1.583679
345.20 1.583409
345.30 1.583144
345.40 1.582879
345.50 1.5826
345.60 1.582312
345.70 1.582038
345.80 1.581765
345.90 1.581492
346.00 1.581219
346.10 1.580945
346.20 1.580672
346.30 1.580399
346.40 1.580126
346.50 1.579853
346.60 1.579581
346.70 1.579308
346.80 1.579035
346.90 1.578762
347.00 1.57849
347.10 1.578217
347.20 1.577951
347.30 1.577693
347.40 1.577436
347.50 1.577179
347.60 1.576922
347.70 1.576664
347.80 1.576407
347.90 1.57615
348.00 1.575893
348.10 1.575636
348.20 1.575379
348.30 1.575122
348.40 1.574865
348.50 1.574608
348.60 1.574351
348.70 1.573959
348.80 1.573591
348.90 1.573319
349.00 1.573047
349.10 1.572776
349.20 1.572504
349.30 1.572233
349.40 1.571961
349.50 1.57169
349.60 1.571419
349.70 1.571147
349.80 1.570876
349.90 1.570605
350.00 1.570334
350.10 1.570063
350.20 1.569792
350.30 1.56952
350.40 1.569246
350.50 1.568973
350.60 1.568699
350.70 1.568426
350.80 1.568152
350.90 1.567879
351.00 1.567605
351.10 1.567332
351.20 1.567059
351.30 1.566786
351.40 1.56653
351.50 1.566304
351.60 1.566079
351.70 1.565854
351.80 1.565628
351.90 1.565403
352.00 1.565178
352.10 1.564952
352.20 1.564504
352.30 1.564101
352.40 1.563798
352.50 1.563496
352.60 1.563194
352.70 1.562892
352.80 1.56259
352.90 1.562289
353.00 1.561987
353.10 1.561685
353.20 1.561384
353.30 1.561082
353.40 1.560781
353.50 1.560568
353.60 1.560376
353.70 1.560184
353.80 1.559993
353.90 1.55975
354.00 1.559416
354.10 1.559082
354.20 1.558749
354.30 1.558415
354.40 1.558082
354.50 1.557749
354.60 1.557415
354.70 1.557082
354.80 1.556753
354.90 1.556428
355.00 1.556104
355.10 1.555779
355.20 1.555455
355.30 1.555143
355.40 1.554832
355.50 1.554521
355.60 1.55421
355.70 1.554049
355.80 1.553956
355.90 1.553582
356.00 1.553179
356.10 1.552893
356.20 1.552608
356.30 1.552322
356.40 1.552037
356.50 1.551751
356.60 1.551466
356.70 1.551181
356.80 1.550896
356.90 1.550611
357.00 1.550326
357.10 1.550041
357.20 1.549756
357.30 1.549471
357.40 1.54917
357.50 1.54884
357.60 1.548509
357.70 1.548179
357.80 1.547858
357.90 1.547538
358.00 1.547241
358.10 1.54695
358.20 1.546659
358.30 1.546369
358.40 1.546078
358.50 1.545787
358.60 1.545497
358.70 1.545206
358.80 1.544916
358.90 1.544625
359.00 1.544322
359.10 1.543996
359.20 1.543667
359.30 1.543317
359.40 1.542969
359.50 1.542551
359.60 1.542117
359.70 1.541684
359.80 1.5415
359.90 1.541317
360.00 1.54109
360.10 1.540785
360.20 1.54048
360.30 1.540175
360.40 1.53987
360.50 1.539566
360.60 1.53893
360.70 1.538667
360.80 1.538403
360.90 1.53814
361.00 1.537664
361.10 1.537467
361.20 1.537138
361.30 1.536875
361.40 1.536583
361.50 1.536349
361.60 1.535711
361.70 1.535448
361.80 1.535222
361.90 1.53506
362.00 1.534898
362.10 1.534512
362.20 1.53411
362.30 1.533776
362.40 1.533442
362.50 1.533108
362.60 1.532774
362.70 1.532356
362.80 1.532353
362.90 1.531798
363.00 1.531244
363.10 1.53093
363.20 1.530618
363.30 1.530463
363.40 1.530202
363.50 1.529941
363.60 1.529679
363.70 1.529161
363.80 1.528578
363.90 1.528289
364.00 1.528001
364.10 1.527713
364.20 1.527425
364.30 1.527211
364.40 1.527015
364.50 1.526758
364.60 1.526304
364.70 1.525851
364.80 1.525397
364.90 1.525137
365.00 1.524878
365.10 1.524618
365.20 1.524071
365.30 1.524099
365.40 1.523839
365.50 1.523293
365.60 1.522747
365.70 1.522436
365.80 1.522124
365.90 1.521906
366.00 1.521711
366.10 1.521302
366.20 1.520893
366.30 1.520484
366.40 1.520075
366.50 1.51984
366.60 1.519588
366.70 1.519192
366.80 1.518795
366.90 1.518429
367.00 1.518113
367.10 1.517798
367.20 1.517483
367.30 1.517169
367.40 1.516854
367.50 1.516636
367.60 1.516442
367.70 1.516065
367.80 1.515688
367.90 1.515312
368.00 1.514846
368.10 1.514582
368.20 1.514207
368.30 1.51383
368.40 1.513453
368.50 1.513076
368.60 1.512699
368.70 1.512322
368.80 1.511946
368.90 1.511772
369.00 1.511403
369.10 1.510896
369.20 1.510643
369.30 1.510388
369.40 1.510132
369.50 1.509877
369.60 1.509619
369.70 1.509361
369.80 1.509001
369.90 1.508639
370.00 1.508278
370.10 1.507786
370.20 1.507526
370.30 1.507271
370.40 1.506728
370.50 1.506481
370.60 1.505954
370.70 1.5057
370.80 1.505444
370.90 1.505187
371.00 1.504658
371.10 1.504127
371.20 1.503871
371.30 1.503615
371.40 1.503516
371.50 1.503121
371.60 1.502726
371.70 1.502331
371.80 1.501936
371.90 1.501542
372.00 1.501056
372.10 1.501041
372.20 1.500696
372.30 1.500351
372.40 1.500006
372.50 1.499662
372.60 1.499317
372.70 1.498973
372.80 1.498444
372.90 1.497915
373.00 1.497663
373.10 1.497414
373.20 1.496887
373.30 1.496361
373.40 1.496109
373.50 1.495858
373.60 1.495607
373.70 1.495356
373.80 1.494677
373.90 1.494306
374.00 1.494055
374.10 1.493805
374.20 1.493554
374.30 1.493304
374.40 1.492849
374.50 1.492257
374.60 1.491867
374.70 1.491482
374.80 1.491096
374.90 1.490712
375.00 1.490462
375.10 1.490213
375.20 1.489964
375.30 1.489636
375.40 1.48931
375.50 1.488983
375.60 1.488656
375.70 1.48833
375.80 1.488003
375.90 1.487677
376.00 1.486886
376.10 1.486563
376.20 1.486245
376.30 1.485928
376.40 1.48561
376.50 1.485254
376.60 1.484838
376.70 1.484423
376.80 1.484073
376.90 1.483789
377.00 1.483505
377.10 1.483222
377.20 1.482903
377.30 1.482453
377.40 1.482003
377.50 1.481553
377.60 1.481237
377.70 1.48092
377.80 1.480604
377.90 1.480287
378.00 1.479784
378.10 1.479432
378.20 1.479084
378.30 1.478737
378.40 1.478389
378.50 1.478042
378.60 1.477695
378.70 1.477348
378.80 1.477002
378.90 1.476642
379.00 1.476258
379.10 1.475907
379.20 1.475555
379.30 1.475163
379.40 1.474729
379.50 1.474296
379.60 1.473904
379.70 1.473563
379.80 1.473175
379.90 1.472787
380.00 1.4724
380.10 1.472013
380.20 1.471626
380.30 1.47124
380.40 1.470853
380.50 1.470467
380.60 1.470372
380.70 1.469961
380.80 1.46955
380.90 1.469139
381.00 1.468728
381.10 1.468618
381.20 1.468243
381.30 1.467572
381.40 1.46742
381.50 1.467192
381.60 1.466747
381.70 1.466115
381.80 1.465737
381.90 1.465496
382.00 1.465254
382.10 1.46475
382.20 1.464457
382.30 1.464215
382.40 1.463908
382.50 1.4635
382.60 1.463093
382.70 1.462772
382.80 1.462461
382.90 1.462063
383.00 1.461665
383.10 1.461268
383.20 1.460855
383.30 1.460381
383.40 1.459941
383.50 1.459553
383.60 1.459344
383.70 1.458927
383.80 1.45851
383.90 1.458093
384.00 1.457676
384.10 1.45726
384.20 1.456844
384.30 1.456428
384.40 1.456083
384.50 1.45581
384.60 1.455537
384.70 1.455263
384.80 1.454889
384.90 1.454288
385.00 1.453977
385.10 1.453657
385.20 1.453149
385.30 1.45292
385.40 1.452609
385.50 1.452216
385.60 1.451824
385.70 1.451432
385.80 1.451028
385.90 1.450577
386.00 1.450159
386.10 1.449775
386.20 1.449422
386.30 1.449069
386.40 1.448643
386.50 1.448281
386.60 1.448045
386.70 1.447681
386.80 1.447189
386.90 1.446826
387.00 1.44659
387.10 1.445856
387.20 1.445608
387.30 1.445373
387.40 1.444759
387.50 1.444619
387.60 1.444238
387.70 1.443876
387.80 1.443514
387.90 1.443152
388.00 1.442711
388.10 1.442476
388.20 1.441895
388.30 1.441476
388.40 1.441056
388.50 1.44068
388.60 1.440435
388.70 1.440058
388.80 1.439507
388.90 1.439084
389.00 1.438851
389.10 1.438321
389.20 1.4381
389.30 1.437738
389.40 1.437259
389.50 1.436847
389.60 1.436568
389.70 1.436333
389.80 1.43594
389.90 1.435547
390.00 1.435154
390.10 1.434761
390.20 1.434368
390.30 1.433958
390.40 1.433527
390.50 1.433097
390.60 1.432667
390.70 1.432237
390.80 1.431797
390.90 1.431349
391.00 1.431261
391.10 1.430772
391.20 1.430375
391.30 1.43016
391.40 1.429764
391.50 1.429367
391.60 1.428971
391.70 1.428574
391.80 1.428178
391.90 1.427846
392.00 1.427484
392.10 1.426972
392.20 1.426517
392.30 1.426381
392.40 1.425983
392.50 1.425257
392.60 1.425028
392.70 1.4248
392.80 1.424075
392.90 1.42394
393.00 1.423479
393.10 1.423064
393.20 1.42269
393.30 1.422215
393.40 1.421841
393.50 1.42149
393.60 1.421071
393.70 1.420541
393.80 1.420337
393.90 1.419863
394.00 1.419439
394.10 1.419259
394.20 1.418789
394.30 1.41841
394.40 1.41801
394.50 1.417743
394.60 1.4173
394.70 1.416847
394.80 1.416355
394.90 1.415872
395.00 1.415632
395.10 1.41526
395.20 1.414946
395.30 1.41455
395.40 1.414155
395.50 1.413817
395.60 1.413501
395.70 1.413161
395.80 1.412755
395.90 1.412349
396.00 1.411916
396.10 1.411269
396.20 1.410801
396.30 1.410597
396.40 1.410044
396.50 1.409742
396.60 1.409598
396.70 1.409058
396.80 1.408664
396.90 1.408442
397.00 1.407732
397.10 1.407429
397.20 1.40691
397.30 1.406662
397.40 1.406259
397.50 1.405857
397.60 1.405459
397.70 1.405096
397.80 1.404734
397.90 1.404372
398.00 1.404012
398.10 1.403653
398.20 1.403224
398.30 1.402718
398.40 1.402217
398.50 1.401885
398.60 1.401661
398.70 1.40122
398.80 1.400714
398.90 1.400265
399.00 1.39992
399.10 1.39972
399.20 1.399239
399.30 1.398759
399.40 1.39828
399.50 1.3978
399.60 1.397384
399.70 1.396992
399.80 1.396599
399.90 1.396207
400.00 1.395817
400.10 1.395488
400.20 1.395226
400.30 1.394823
400.40 1.394316
400.50 1.394236
400.60 1.393715
400.70 1.393258
400.80 1.392627
400.90 1.39241
401.00 1.392193
401.10 1.391499
401.20 1.391179
401.30 1.390944
401.40 1.3905
401.50 1.389984
401.60 1.389474
401.70 1.389148
401.80 1.388928
401.90 1.388588
402.00 1.388123
402.10 1.387907
402.20 1.387217
402.30 1.387002
402.40 1.386313
402.50 1.386097
402.60 1.385882
402.70 1.385194
402.80 1.384979
402.90 1.384481
403.00 1.38403
403.10 1.383863
403.20 1.383187
403.30 1.382864
403.40 1.382647
403.50 1.382283
403.60 1.381849
403.70 1.381164
403.80 1.380959
403.90 1.380542
404.00 1.380054
404.10 1.379841
404.20 1.379393
404.30 1.378945
404.40 1.378519
404.50 1.378051
404.60 1.377839
404.70 1.377158
404.80 1.376959
404.90 1.376734
405.00 1.376054
405.10 1.375642
405.20 1.375296
405.30 1.374952
405.40 1.374584
405.50 1.374218
405.60 1.373851
405.70 1.373485
405.80 1.373118
405.90 1.372752
406.00 1.372263
406.10 1.371775
406.20 1.371287
406.30 1.370799
406.40 1.370352
406.50 1.370213
406.60 1.369886
406.70 1.369357
406.80 1.368865
406.90 1.368338
407.00 1.367944
407.10 1.36755
407.20 1.367156
407.30 1.366762
407.40 1.366368
407.50 1.365975
407.60 1.365582
407.70 1.365189
407.80 1.364796
407.90 1.364403
408.00 1.363986
408.10 1.36375
408.20 1.363432
408.30 1.362914
408.40 1.362396
408.50 1.36223
408.60 1.361722
408.70 1.361215
408.80 1.360748
408.90 1.360547
409.00 1.360146
409.10 1.359745
409.20 1.359344
409.30 1.358944
409.40 1.35854
409.50 1.358039
409.60 1.357537
409.70 1.357088
409.80 1.356847
409.90 1.356593
410.00 1.355931
410.10 1.35565
410.20 1.355208
410.30 1.354725
410.40 1.354272
410.50 1.353912
410.60 1.353552
410.70 1.353206
410.80 1.352916
410.90 1.352625
411.00 1.352254
411.10 1.351854
411.20 1.351453
411.30 1.351002
411.40 1.350355
411.50 1.350018
411.60 1.349683
411.70 1.349328
411.80 1.348899
411.90 1.348425
412.00 1.348223
412.10 1.347568
412.20 1.347366
412.30 1.34679
412.40 1.346511
412.50 1.345922
412.60 1.345592
412.70 1.345144
412.80 1.344668
412.90 1.344169
413.00 1.344015
413.10 1.343632
413.20 1.343249
413.30 1.342866
413.40 1.342484
413.50 1.342048
413.60 1.341453
413.70 1.341029
413.80 1.340605
413.90 1.340181
414.00 1.339758
414.10 1.339334
414.20 1.339126
414.30 1.338658
414.40 1.33837
414.50 1.337813
414.60 1.337668
414.70 1.337246
414.80 1.336824
414.90 1.336403
415.00 1.335981
415.10 1.33556
415.20 1.33512
415.30 1.334615
415.40 1.334111
415.50 1.333613
415.60 1.33329
415.70 1.332967
415.80 1.332637
415.90 1.332288
416.00 1.33194
416.10 1.331575
416.20 1.331148
416.30 1.330721
416.40 1.330294
416.50 1.329867
416.60 1.32945
416.70 1.329026
416.80 1.328389
416.90 1.328193
417.00 1.327556
417.10 1.327367
417.20 1.326951
417.30 1.326534
417.40 1.326054
417.50 1.325574
417.60 1.325139
417.70 1.324876
417.80 1.324461
417.90 1.324047
418.00 1.323633
418.10 1.32322
418.20 1.322806
418.30 1.322403
418.40 1.322238
418.50 1.321797
418.60 1.321355
418.70 1.320914
418.80 1.320474
418.90 1.320033
419.00 1.319593
419.10 1.319153
419.20 1.318713
419.30 1.318277
419.40 1.317957
419.50 1.317637
419.60 1.317285
419.70 1.316804
419.80 1.316324
419.90 1.31586
420.00 1.315447
420.10 1.315033
420.20 1.31462
420.30 1.314207
420.40 1.313795
420.50 1.313382
420.60 1.31297
420.70 1.312559
420.80 1.312147
420.90 1.311739
421.00 1.311427
421.10 1.311115
421.20 1.310773
421.30 1.310335
421.40 1.309898
421.50 1.309462
421.60 1.309025
421.70 1.308589
421.80 1.308153
421.90 1.307724
422.00 1.307316
422.10 1.306919
422.20 1.306572
422.30 1.306225
422.40 1.305875
422.50 1.305453
422.60 1.30503
422.70 1.304608
422.80 1.304186
422.90 1.303765
423.00 1.303343
423.10 1.302922
423.20 1.302501
423.30 1.302081
423.40 1.30166
423.50 1.30124
423.60 1.30082
423.70 1.300401
423.80 1.299981
423.90 1.299562
424.00 1.299143
424.10 1.298725
424.20 1.298306
424.30 1.297888
424.40 1.29743
424.50 1.297034
424.60 1.296638
424.70 1.296243
424.80 1.295847
424.90 1.295452
425.00 1.295057
425.10 1.294662
