# Version 2.1 - nm, norm@500 to 1, cut digits, bergeron_He_5500_75.dat_5500
# Wavelength(nm)  Flambda(ergs/cm^s/s/nm)
300.00 0.2799283
300.10 0.2804198
300.20 0.2809114
300.30 0.2814033
300.40 0.2819011
300.50 0.2823981
300.60 0.2828945
300.70 0.2833901
300.80 0.283885
300.90 0.2843792
301.00 0.2848726
301.10 0.2853653
301.20 0.2858574
301.30 0.2863487
301.40 0.2868393
301.50 0.2873291
301.60 0.2878183
301.70 0.2883067
301.80 0.2887945
301.90 0.2892815
302.00 0.2897678
302.10 0.2902709
302.20 0.2907751
302.30 0.2912786
302.40 0.2917814
302.50 0.2922834
302.60 0.2927847
302.70 0.2932853
302.80 0.2937852
302.90 0.2942843
303.00 0.2947827
303.10 0.2952804
303.20 0.2957774
303.30 0.2962746
303.40 0.2967798
303.50 0.2972842
303.60 0.297788
303.70 0.298291
303.80 0.2987932
303.90 0.2992948
304.00 0.2997956
304.10 0.3002957
304.20 0.3007951
304.30 0.3012937
304.40 0.3017917
304.50 0.3022889
304.60 0.3028
304.70 0.303312
304.80 0.3038233
304.90 0.3043339
305.00 0.3048437
305.10 0.3053528
305.20 0.3058611
305.30 0.3063687
305.40 0.3068756
305.50 0.3073818
305.60 0.3078872
305.70 0.3083919
305.80 0.3088959
305.90 0.3093991
306.00 0.3099017
306.10 0.3104035
306.20 0.3109045
306.30 0.3114049
306.40 0.311919
306.50 0.3124368
306.60 0.3129538
306.70 0.31347
306.80 0.3139855
306.90 0.3145003
307.00 0.3150144
307.10 0.3155277
307.20 0.3160402
307.30 0.3165521
307.40 0.3170632
307.50 0.3175735
307.60 0.3180832
307.70 0.3185921
307.80 0.3191003
307.90 0.3196077
308.00 0.3201145
308.10 0.3206205
308.20 0.3211257
308.30 0.3216303
308.40 0.3221341
308.50 0.3226372
308.60 0.3231396
308.70 0.3236413
308.80 0.3241467
308.90 0.3246638
309.00 0.3251718
309.10 0.3256791
309.20 0.3261856
309.30 0.3266914
309.40 0.3271988
309.50 0.3277195
309.60 0.3282394
309.70 0.3287585
309.80 0.3292769
309.90 0.3297946
310.00 0.3303115
310.10 0.3308278
310.20 0.3313432
310.30 0.331858
310.40 0.3323752
310.50 0.3328953
310.60 0.3334146
310.70 0.3339332
310.80 0.334451
310.90 0.3349682
311.00 0.3354776
311.10 0.3359864
311.20 0.3364945
311.30 0.3370062
311.40 0.3375297
311.50 0.3380525
311.60 0.3385745
311.70 0.3390958
311.80 0.3396164
311.90 0.3401362
312.00 0.3406553
312.10 0.3411736
312.20 0.3416841
312.30 0.3422028
312.40 0.3427301
312.50 0.3432735
312.60 0.3437902
312.70 0.3443063
312.80 0.3448216
312.90 0.3453388
313.00 0.3458581
313.10 0.3463767
313.20 0.3468945
313.30 0.3474129
313.40 0.3479344
313.50 0.3484551
313.60 0.348975
313.70 0.3494942
313.80 0.3500127
313.90 0.3505305
314.00 0.3510475
314.10 0.3515752
314.20 0.3521021
314.30 0.3526283
314.40 0.3531537
314.50 0.3536784
314.60 0.3542023
314.70 0.3547255
314.80 0.3552557
314.90 0.3557914
315.00 0.3563095
315.10 0.3568353
315.20 0.3573604
315.30 0.3578847
315.40 0.3584083
315.50 0.3589312
315.60 0.3594533
315.70 0.3599793
315.80 0.3605045
315.90 0.361029
316.00 0.3615527
316.10 0.3620894
316.20 0.3626253
316.30 0.3631332
316.40 0.3636676
316.50 0.3641741
316.60 0.364707
316.70 0.3652393
316.80 0.3657707
316.90 0.3663015
317.00 0.3668315
317.10 0.3673607
317.20 0.3678892
317.30 0.3684058
317.40 0.3689257
317.50 0.3694566
317.60 0.3699867
317.70 0.3705161
317.80 0.3710448
317.90 0.3715582
318.00 0.3720749
318.10 0.3726103
318.20 0.3731449
318.30 0.3736788
318.40 0.3742085
318.50 0.3747275
318.60 0.3752597
318.70 0.3757772
318.80 0.3762994
318.90 0.3768557
319.00 0.3773721
319.10 0.3779135
319.20 0.3784512
319.30 0.3789796
319.40 0.3795073
319.50 0.3800343
319.60 0.3805529
319.70 0.3810784
319.80 0.3816031
319.90 0.3821272
320.00 0.382656
320.10 0.38319
320.20 0.3837272
320.30 0.3842579
320.40 0.3847897
320.50 0.3853207
320.60 0.3858489
320.70 0.3863784
320.80 0.3869136
320.90 0.387455
321.00 0.3879956
321.10 0.3885355
321.20 0.3890586
321.30 0.3895855
321.40 0.3901116
321.50 0.3906371
321.60 0.3911618
321.70 0.3916857
321.80 0.3922174
321.90 0.3927574
322.00 0.3932878
322.10 0.3938229
322.20 0.3943574
322.30 0.394891
322.40 0.395424
322.50 0.3959562
322.60 0.3964877
322.70 0.3970184
322.80 0.397589
322.90 0.3981245
323.00 0.3986593
323.10 0.3991933
323.20 0.3997265
323.30 0.4002591
323.40 0.4007909
323.50 0.4013219
323.60 0.4018523
323.70 0.4023819
323.80 0.4029107
323.90 0.4034389
324.00 0.4039691
324.10 0.4044985
324.20 0.4050272
324.30 0.4055608
324.40 0.4061047
324.50 0.4066428
324.60 0.4071801
324.70 0.4077167
324.80 0.4082526
324.90 0.4087877
325.00 0.4093221
325.10 0.4098557
325.20 0.4103909
325.30 0.4109301
325.40 0.4114685
325.50 0.4120069
325.60 0.4125456
325.70 0.4130836
325.80 0.4136208
325.90 0.4141524
326.00 0.4146779
326.10 0.4152027
326.20 0.4157267
326.30 0.4162595
326.40 0.4168184
326.50 0.4173572
326.60 0.4178952
326.70 0.4184325
326.80 0.4189691
326.90 0.4195049
327.00 0.42004
327.10 0.4205744
327.20 0.4211081
327.30 0.421641
327.40 0.4221732
327.50 0.4227046
327.60 0.4232353
327.70 0.4237653
327.80 0.4242946
327.90 0.4248478
328.00 0.4254042
328.10 0.4259324
328.20 0.4264598
328.30 0.4269865
328.40 0.4275125
328.50 0.4280484
328.60 0.4285859
328.70 0.4291228
328.80 0.4296608
328.90 0.4302034
329.00 0.4307453
329.10 0.4312865
329.20 0.4318269
329.30 0.4323666
329.40 0.4329056
329.50 0.4334438
329.60 0.4339813
329.70 0.4345181
329.80 0.4350541
329.90 0.4355894
330.00 0.4361228
330.10 0.4366542
330.20 0.4371848
330.30 0.4377147
330.40 0.4382504
330.50 0.4387923
330.60 0.4393335
330.70 0.4398739
330.80 0.4404136
330.90 0.4409526
331.00 0.4414908
331.10 0.4420283
331.20 0.4425651
331.30 0.4431011
331.40 0.4436365
331.50 0.4441694
331.60 0.4446996
331.70 0.4452291
331.80 0.4457719
331.90 0.4463145
332.00 0.4468564
332.10 0.4473976
332.20 0.447938
332.30 0.4484777
332.40 0.4490167
332.50 0.4495549
332.60 0.4500925
332.70 0.4506292
332.80 0.4511653
332.90 0.4517006
333.00 0.4522352
333.10 0.4527723
333.20 0.4533124
333.30 0.4538518
333.40 0.4543905
333.50 0.4549284
333.60 0.4554656
333.70 0.4560021
333.80 0.4565379
333.90 0.457073
334.00 0.4576073
334.10 0.4581446
334.20 0.4586856
334.30 0.4592259
334.40 0.4597655
334.50 0.4603043
334.60 0.4608424
334.70 0.4613728
334.80 0.4619028
334.90 0.462445
335.00 0.4629864
335.10 0.4634971
335.20 0.4640471
335.30 0.4645587
335.40 0.4651315
335.50 0.465655
335.60 0.4661779
335.70 0.4667267
335.80 0.4672481
335.90 0.4677797
336.00 0.4683238
336.10 0.4688673
336.20 0.46941
336.30 0.4699484
336.40 0.4704816
336.50 0.4710141
336.60 0.4715459
336.70 0.472077
336.80 0.4726074
336.90 0.4731424
337.00 0.4736831
337.10 0.4742232
337.20 0.4747625
337.30 0.4753018
337.40 0.4758413
337.50 0.4763801
337.60 0.4769182
337.70 0.4774556
337.80 0.4779923
337.90 0.4785186
338.00 0.4790324
338.10 0.4795455
338.20 0.480058
338.30 0.4805698
338.40 0.4810995
338.50 0.4816743
338.60 0.4822484
338.70 0.4828216
338.80 0.4833942
338.90 0.4839659
339.00 0.4845369
339.10 0.4851072
339.20 0.4856766
339.30 0.4861926
339.40 0.486632
339.50 0.4871205
339.60 0.4876692
339.70 0.488217
339.80 0.4887642
339.90 0.4893106
340.00 0.4898563
340.10 0.4904013
340.20 0.4909456
340.30 0.4914891
340.40 0.4920319
340.50 0.492574
340.60 0.4931154
340.70 0.493656
340.80 0.494151
340.90 0.4945806
341.00 0.495056
341.10 0.4955874
341.20 0.4961181
341.30 0.4966481
341.40 0.4971774
341.50 0.497706
341.60 0.4982339
341.70 0.4987611
341.80 0.4993154
341.90 0.499903
342.00 0.5004899
342.10 0.501076
342.20 0.5014856
342.30 0.5019977
342.40 0.5026184
342.50 0.5031062
342.60 0.5035935
342.70 0.50408
342.80 0.504566
342.90 0.5050512
343.00 0.505599
343.10 0.5062233
343.20 0.5068467
343.30 0.5074693
343.40 0.5080316
343.50 0.5085074
343.60 0.5089827
343.70 0.5094573
343.80 0.5099312
343.90 0.5104045
344.00 0.5109403
344.10 0.5115661
344.20 0.5121911
344.30 0.5128152
344.40 0.5133442
344.50 0.5137366
344.60 0.5143172
344.70 0.5147084
344.80 0.5155471
344.90 0.5159485
345.00 0.5162438
345.10 0.5168621
345.20 0.5174211
345.30 0.5178954
345.40 0.518369
345.50 0.5188902
345.60 0.5194526
345.70 0.5199902
345.80 0.520527
345.90 0.5210631
346.00 0.5215985
346.10 0.5221332
346.20 0.5226797
346.30 0.5232434
346.40 0.5238063
346.50 0.5243685
346.60 0.5249299
346.70 0.5254906
346.80 0.5260506
346.90 0.5266099
347.00 0.5271684
347.10 0.5277262
347.20 0.5282727
347.30 0.5288032
347.40 0.529333
347.50 0.5298621
347.60 0.5303905
347.70 0.5309183
347.80 0.5314453
347.90 0.5319717
348.00 0.5324973
348.10 0.5330223
348.20 0.5335465
348.30 0.5340701
348.40 0.534593
348.50 0.5351152
348.60 0.5356367
348.70 0.5360341
348.80 0.5364629
348.90 0.5369931
349.00 0.5375226
349.10 0.5380514
349.20 0.5385795
349.30 0.539107
349.40 0.5396337
349.50 0.5401597
349.60 0.5406851
349.70 0.5412097
349.80 0.5417337
349.90 0.542257
350.00 0.5427796
350.10 0.5433015
350.20 0.5438228
350.30 0.5443495
350.40 0.5448844
350.50 0.5454186
350.60 0.545952
350.70 0.5464848
350.80 0.5470169
350.90 0.5475484
351.00 0.5480791
351.10 0.5486091
351.20 0.5491384
351.30 0.549667
351.40 0.5501912
351.50 0.5507079
351.60 0.551224
351.70 0.5517394
351.80 0.5522541
351.90 0.5527682
352.00 0.5532815
352.10 0.5537942
352.20 0.5543604
352.30 0.5549106
352.40 0.5554292
352.50 0.5559472
352.60 0.5564645
352.70 0.5569811
352.80 0.5574971
352.90 0.5580124
353.00 0.558527
353.10 0.5590409
353.20 0.5595542
353.30 0.5600667
353.40 0.5605787
353.50 0.5611361
353.60 0.5617044
353.70 0.5622719
353.80 0.5628388
353.90 0.5633848
354.00 0.5638945
354.10 0.5644036
354.20 0.564912
354.30 0.5654198
354.40 0.5659269
354.50 0.5664333
354.60 0.5669391
354.70 0.5674442
354.80 0.5679334
354.90 0.5684002
355.00 0.5688664
355.10 0.5693319
355.20 0.5697968
355.30 0.5703797
355.40 0.5709619
355.50 0.5715433
355.60 0.572124
355.70 0.5725933
355.80 0.5730123
355.90 0.5734414
356.00 0.5739419
356.10 0.5744549
356.20 0.5749673
356.30 0.575479
356.40 0.57599
356.50 0.5765004
356.60 0.5770101
356.70 0.5775191
356.80 0.5780275
356.90 0.5785352
357.00 0.5790423
357.10 0.5795487
357.20 0.5800544
357.30 0.5805595
357.40 0.5810861
357.50 0.5816515
357.60 0.5822162
357.70 0.5827802
357.80 0.5832303
357.90 0.5836799
358.00 0.5841947
358.10 0.5847254
358.20 0.5852553
358.30 0.5857846
358.40 0.5863132
358.50 0.5868411
358.60 0.5873684
358.70 0.587895
358.80 0.5884208
358.90 0.588946
359.00 0.5894373
359.10 0.589869
359.20 0.5903194
359.30 0.5908989
359.40 0.5914777
359.50 0.5920547
359.60 0.5926307
359.70 0.5932059
359.80 0.5936754
359.90 0.5941443
360.00 0.5946078
360.10 0.5950621
360.20 0.5955158
360.30 0.5959689
360.40 0.5964214
360.50 0.5968733
360.60 0.5976928
360.70 0.5982012
360.80 0.5987089
360.90 0.599216
361.00 0.5996901
361.10 0.6002058
361.20 0.6004318
361.30 0.6011039
361.40 0.6018169
361.50 0.602111
361.60 0.6027473
361.70 0.6032491
361.80 0.6037433
361.90 0.6042243
362.00 0.6047047
362.10 0.6052279
362.20 0.6057448
362.30 0.6062319
362.40 0.6067183
362.50 0.6072041
362.60 0.6076893
362.70 0.6082102
362.80 0.6088434
362.90 0.6093334
363.00 0.6098227
363.10 0.6102443
363.20 0.6106647
363.30 0.6113075
363.40 0.6115916
363.50 0.6122887
363.60 0.6125718
363.70 0.6131298
363.80 0.6137558
363.90 0.6142043
364.00 0.6146522
364.10 0.6150995
364.20 0.6155462
364.30 0.6160969
364.40 0.616673
364.50 0.6171652
364.60 0.6176459
364.70 0.6181259
364.80 0.6186053
364.90 0.6190868
365.00 0.6195677
365.10 0.6202529
365.20 0.6207324
365.30 0.6212114
365.40 0.6218942
365.50 0.6223718
365.60 0.6228488
365.70 0.6232509
365.80 0.6236524
365.90 0.6241853
366.00 0.6247505
366.10 0.6252104
366.20 0.6256697
366.30 0.6261284
366.40 0.6265865
366.50 0.6271053
366.60 0.6275848
366.70 0.6281658
366.80 0.6287462
366.90 0.6292827
367.00 0.6297423
367.10 0.6302012
367.20 0.6306595
367.30 0.6311173
367.40 0.6315744
367.50 0.6321099
367.60 0.6326644
367.70 0.6331709
367.80 0.6336768
367.90 0.634182
368.00 0.6345168
368.10 0.6349685
368.20 0.6354701
368.30 0.6359695
368.40 0.6364684
368.50 0.6369666
368.60 0.6374641
368.70 0.6379611
368.80 0.6384574
368.90 0.638908
369.00 0.6394144
369.10 0.6399541
369.20 0.6404179
369.30 0.6408722
369.40 0.6413259
369.50 0.641779
369.60 0.6422276
369.70 0.6426756
369.80 0.6431911
369.90 0.6437066
370.00 0.6442215
370.10 0.6448711
370.20 0.6453253
370.30 0.6457736
370.40 0.6462292
370.50 0.6466664
370.60 0.6473118
370.70 0.6475689
370.80 0.648208
370.90 0.6488463
371.00 0.6492962
371.10 0.6497436
371.20 0.6501826
371.30 0.6506209
371.40 0.6509931
371.50 0.6515272
371.60 0.6520606
371.70 0.6525934
371.80 0.6531254
371.90 0.6536568
372.00 0.6540474
372.10 0.6545413
372.20 0.6549783
372.30 0.6554148
372.40 0.6558506
372.50 0.6562859
372.60 0.6567207
372.70 0.6571548
372.80 0.6577801
372.90 0.6584046
373.00 0.6588427
373.10 0.6592784
373.20 0.6597095
373.30 0.6601401
373.40 0.6607661
373.50 0.6611955
373.60 0.6616243
373.70 0.6622482
373.80 0.6625415
373.90 0.6631029
374.00 0.6635295
374.10 0.6639554
374.20 0.6643809
374.30 0.6648058
374.40 0.6654249
374.50 0.6660339
374.60 0.6664605
374.70 0.666885
374.80 0.6673089
374.90 0.6677322
375.00 0.6682825
375.10 0.6688322
375.20 0.6693811
375.30 0.6698556
375.40 0.6703294
375.50 0.6708026
375.60 0.6712752
375.70 0.6717472
375.80 0.6722187
375.90 0.6726895
376.00 0.6730969
376.10 0.6735796
376.20 0.6740625
376.30 0.6745447
376.40 0.6750264
376.50 0.6754905
376.60 0.6759288
376.70 0.6763664
376.80 0.6768091
376.90 0.6772567
377.00 0.6777038
377.10 0.6781503
377.20 0.678603
377.30 0.6790801
377.40 0.6795567
377.50 0.6800326
377.60 0.6805054
377.70 0.6809775
377.80 0.6814491
377.90 0.68192
378.00 0.682431
378.10 0.6828675
378.20 0.6833021
378.30 0.6837361
378.40 0.6841696
378.50 0.6846025
378.60 0.6850349
378.70 0.6854667
378.80 0.685898
378.90 0.6863472
379.00 0.6868302
379.10 0.6873801
379.20 0.6879294
379.30 0.688451
379.40 0.6889451
379.50 0.6894386
379.60 0.6898439
379.70 0.6901579
379.80 0.6906238
379.90 0.6910891
380.00 0.6915538
380.10 0.6920179
380.20 0.6924815
380.30 0.6929445
380.40 0.6934069
380.50 0.6938687
380.60 0.6942323
380.70 0.6947243
380.80 0.6952156
380.90 0.6957063
381.00 0.6961965
381.10 0.6965364
381.20 0.6969281
381.30 0.6974967
381.40 0.6980108
381.50 0.6984149
381.60 0.6988889
381.70 0.6994639
381.80 0.6996527
381.90 0.7002227
382.00 0.700792
382.10 0.7011736
382.20 0.7015546
382.30 0.7021221
382.40 0.7026213
382.50 0.7030185
382.60 0.7034153
382.70 0.703814
382.80 0.7042651
382.90 0.7047658
383.00 0.7052659
383.10 0.7057654
383.20 0.7062548
383.30 0.7067081
383.40 0.7071507
383.50 0.7075779
383.60 0.708022
383.70 0.7084352
383.80 0.7088478
383.90 0.7092599
384.00 0.7096715
384.10 0.7100826
384.20 0.7104931
384.30 0.7109032
384.40 0.7113539
384.50 0.7118452
384.60 0.712336
384.70 0.7128261
384.80 0.7133152
384.90 0.7137789
385.00 0.7141991
385.10 0.7146162
385.20 0.7150392
385.30 0.715602
385.40 0.7160832
385.50 0.7164829
385.60 0.7168821
385.70 0.7172808
385.80 0.7176976
385.90 0.7181837
386.00 0.7186305
386.10 0.7190442
386.20 0.7195203
386.30 0.7199959
386.40 0.7202258
386.50 0.7207071
386.60 0.7212211
386.70 0.7217615
386.80 0.7222098
386.90 0.7224752
387.00 0.723114
387.10 0.7232873
387.20 0.7238974
387.30 0.7243614
387.40 0.7248007
387.50 0.7250195
387.60 0.7255849
387.70 0.7260284
387.80 0.7264713
387.90 0.7269136
388.00 0.7273612
388.10 0.7279527
388.20 0.7282876
388.30 0.7287177
388.40 0.7291472
388.50 0.7295169
388.60 0.7298482
388.70 0.7303174
388.80 0.7308348
388.90 0.731362
389.00 0.7315796
389.10 0.732035
389.20 0.7325535
389.30 0.7330472
389.40 0.7334098
389.50 0.7338395
389.60 0.7343554
389.70 0.7348006
389.80 0.7352185
389.90 0.7356359
390.00 0.7360527
390.10 0.736469
390.20 0.7368848
390.30 0.7373005
390.40 0.7377161
390.50 0.7381312
390.60 0.7385458
390.70 0.7389599
390.80 0.7393817
390.90 0.7398114
391.00 0.7402425
391.10 0.7407309
391.20 0.741138
391.30 0.741406
391.40 0.7418592
391.50 0.7423119
391.60 0.742764
391.70 0.7432156
391.80 0.7436666
391.90 0.7440395
392.00 0.7444279
392.10 0.7449712
392.20 0.7454849
392.30 0.7457679
392.40 0.7461282
392.50 0.7464813
392.60 0.7469871
392.70 0.7474923
392.80 0.7479969
392.90 0.7483486
393.00 0.7487203
393.10 0.7490993
393.20 0.7494968
393.30 0.7499986
393.40 0.7505086
393.50 0.7506776
393.60 0.7511477
393.70 0.7516472
393.80 0.7521303
393.90 0.7524527
394.00 0.7528134
394.10 0.7533684
394.20 0.7537
394.30 0.7541327
394.40 0.7544328
394.50 0.7550165
394.60 0.7554178
394.70 0.755823
394.80 0.756244
394.90 0.7566628
395.00 0.7570084
395.10 0.7574154
395.20 0.7578789
395.30 0.7582926
395.40 0.7587058
395.50 0.759159
395.60 0.7596266
395.70 0.7600713
395.80 0.7604548
395.90 0.7608379
396.00 0.761228
396.10 0.7616516
396.20 0.7619632
396.30 0.7623213
396.40 0.7628058
396.50 0.7632898
396.60 0.7634259
396.70 0.763918
396.80 0.7644067
396.90 0.7646737
397.00 0.7652936
397.10 0.7657743
397.20 0.7660628
397.30 0.7664205
397.40 0.7667962
397.50 0.7671715
397.60 0.767555
397.70 0.7680264
397.80 0.7684972
397.90 0.7689359
398.00 0.7692885
398.10 0.7696407
398.20 0.7700436
398.30 0.7705037
398.40 0.7709617
398.50 0.7713687
398.60 0.7717357
398.70 0.7720575
398.80 0.7723713
398.90 0.7727955
399.00 0.7734249
399.10 0.7737941
399.20 0.7741927
399.30 0.7745908
399.40 0.7749884
399.50 0.7753855
399.60 0.7757407
399.70 0.7760801
399.80 0.776419
399.90 0.7767576
400.00 0.7770975
400.10 0.7774966
400.20 0.7781402
400.30 0.778494
400.40 0.7787786
400.50 0.7792217
400.60 0.7796701
400.70 0.7799614
400.80 0.7803765
400.90 0.780837
401.00 0.7810574
401.10 0.7814167
401.20 0.7820554
401.30 0.7823918
401.40 0.7827231
401.50 0.7830863
401.60 0.78345
401.70 0.7838412
401.80 0.7841931
401.90 0.7846557
402.00 0.784935
402.10 0.7855338
402.20 0.7858626
402.30 0.7862971
402.40 0.7866173
402.50 0.787008
402.60 0.7873272
402.70 0.7879107
402.80 0.7880246
402.90 0.7884748
403.00 0.7889244
403.10 0.7893735
403.20 0.7896773
403.30 0.7900608
403.40 0.7904053
403.50 0.7907858
403.60 0.7911909
403.70 0.7917215
403.80 0.7920223
403.90 0.7923912
404.00 0.7927465
404.10 0.7931656
404.20 0.7936091
404.30 0.7940521
404.40 0.7941757
404.50 0.7946025
404.60 0.795044
404.70 0.795485
404.80 0.7957782
404.90 0.7960322
405.00 0.796495
405.10 0.7969108
405.20 0.7973493
405.30 0.7977872
405.40 0.7981693
405.50 0.7985508
405.60 0.7989319
405.70 0.7993125
405.80 0.7996927
405.90 0.8000723
406.00 0.8004118
406.10 0.8007507
406.20 0.8010893
406.30 0.8014274
406.40 0.8017762
406.50 0.8021767
406.60 0.8024415
406.70 0.8028313
406.80 0.8032104
406.90 0.803756
407.00 0.8041196
407.10 0.8044827
407.20 0.8048454
407.30 0.8052076
407.40 0.8055693
407.50 0.8059307
407.60 0.8062915
407.70 0.8066519
407.80 0.8070119
407.90 0.8073702
408.00 0.8076918
408.10 0.8080336
408.20 0.8083997
408.30 0.8087509
408.40 0.8091017
408.50 0.8095618
408.60 0.8099582
408.70 0.810354
408.80 0.8107449
408.90 0.8110998
409.00 0.8114554
409.10 0.8118105
409.20 0.8121652
409.30 0.8125195
409.40 0.8128749
409.50 0.8132837
409.60 0.8136921
409.70 0.8140889
409.80 0.8144411
409.90 0.8147894
410.00 0.815023
410.10 0.8154376
410.20 0.8158111
410.30 0.816174
410.40 0.8165333
410.50 0.816882
410.60 0.8172302
410.70 0.8175862
410.80 0.8179746
410.90 0.8183624
411.00 0.8187114
411.10 0.8190456
411.20 0.8193795
411.30 0.8197322
411.40 0.820157
411.50 0.8204424
411.60 0.8207274
411.70 0.8210366
411.80 0.8214432
411.90 0.8218493
412.00 0.822255
412.10 0.8226601
412.20 0.8227433
412.30 0.8231517
412.40 0.8235747
412.50 0.8239319
412.60 0.8242202
412.70 0.8245573
412.80 0.8249063
412.90 0.8254275
413.00 0.8258118
413.10 0.8261107
413.20 0.8264092
413.30 0.8267073
413.40 0.827005
413.50 0.8273626
413.60 0.8278934
413.70 0.8282114
413.80 0.828529
413.90 0.8288461
414.00 0.829182
414.10 0.829578
414.20 0.8299735
414.30 0.8303367
414.40 0.830445
414.50 0.8308319
414.60 0.831233
414.70 0.8316263
414.80 0.832
414.90 0.832313
415.00 0.8326256
415.10 0.8329378
415.20 0.8332681
415.30 0.8336562
415.40 0.8340438
415.50 0.8344277
415.60 0.8347064
415.70 0.8349847
415.80 0.8352741
415.90 0.8355997
416.00 0.8359249
416.10 0.8362557
416.20 0.8366101
416.30 0.8369641
416.40 0.8373177
416.50 0.8376718
416.60 0.8380566
416.70 0.8384409
416.80 0.838828
416.90 0.8392082
417.00 0.8393544
417.10 0.8396596
417.20 0.8400417
417.30 0.8404232
417.40 0.8407961
417.50 0.8411685
417.60 0.8414927
