# Version 2.1 - nm, norm@500 to 1, cut digits, bergeron_He_9500_70.dat_9500
# Wavelength(nm)  Flambda(ergs/cm^s/s/nm)
300.00 1.814125
300.10 1.813967
300.20 1.813802
300.30 1.813642
300.40 1.813524
300.50 1.813405
300.60 1.813286
300.70 1.813167
300.80 1.813047
300.90 1.812927
301.00 1.812807
301.10 1.812687
301.20 1.812566
301.30 1.812445
301.40 1.812324
301.50 1.812203
301.60 1.812082
301.70 1.81196
301.80 1.811838
301.90 1.811716
302.00 1.811593
302.10 1.811455
302.20 1.811314
302.30 1.811174
302.40 1.811033
302.50 1.810892
302.60 1.81075
302.70 1.810609
302.80 1.810467
302.90 1.810325
303.00 1.810183
303.10 1.810041
303.20 1.809898
303.30 1.809761
303.40 1.809669
303.50 1.809578
303.60 1.809486
303.70 1.809394
303.80 1.809301
303.90 1.809209
304.00 1.809116
304.10 1.809022
304.20 1.808929
304.30 1.808835
304.40 1.808741
304.50 1.808647
304.60 1.808474
304.70 1.808293
304.80 1.808112
304.90 1.80793
305.00 1.807749
305.10 1.807567
305.20 1.807385
305.30 1.807203
305.40 1.80702
305.50 1.806838
305.60 1.806655
305.70 1.806473
305.80 1.80629
305.90 1.806107
306.00 1.805924
306.10 1.80574
306.20 1.805557
306.30 1.805373
306.40 1.805208
306.50 1.805048
306.60 1.804888
306.70 1.804728
306.80 1.804568
306.90 1.804407
307.00 1.804246
307.10 1.804085
307.20 1.803924
307.30 1.803763
307.40 1.803602
307.50 1.80344
307.60 1.803278
307.70 1.803116
307.80 1.802954
307.90 1.802792
308.00 1.80263
308.10 1.802467
308.20 1.802304
308.30 1.802141
308.40 1.801978
308.50 1.801815
308.60 1.801651
308.70 1.801488
308.80 1.801345
308.90 1.801262
309.00 1.801078
309.10 1.800895
309.20 1.800711
309.30 1.800527
309.40 1.800344
309.50 1.800165
309.60 1.799987
309.70 1.799809
309.80 1.79963
309.90 1.799451
310.00 1.799272
310.10 1.799093
310.20 1.798914
310.30 1.798735
310.40 1.798559
310.50 1.798386
310.60 1.798213
310.70 1.798041
310.80 1.797868
310.90 1.797695
311.00 1.797439
311.10 1.797183
311.20 1.796926
311.30 1.796687
311.40 1.796497
311.50 1.796307
311.60 1.796116
311.70 1.795925
311.80 1.795734
311.90 1.795543
312.00 1.795352
312.10 1.795161
312.20 1.794778
312.30 1.794518
312.40 1.794482
312.50 1.794179
312.60 1.793927
312.70 1.793675
312.80 1.793422
312.90 1.793195
313.00 1.792994
313.10 1.792793
313.20 1.792592
313.30 1.792383
313.40 1.792153
313.50 1.791922
313.60 1.791691
313.70 1.79146
313.80 1.791229
313.90 1.790998
314.00 1.790767
314.10 1.790565
314.20 1.790363
314.30 1.79016
314.40 1.789958
314.50 1.789755
314.60 1.789552
314.70 1.789349
314.80 1.789123
314.90 1.78885
315.00 1.788601
315.10 1.78845
315.20 1.788298
315.30 1.788146
315.40 1.787994
315.50 1.787842
315.60 1.78769
315.70 1.787374
315.80 1.787058
315.90 1.786742
316.00 1.786427
316.10 1.786274
316.20 1.786121
316.30 1.785968
316.40 1.785489
316.50 1.785336
316.60 1.784858
316.70 1.784705
316.80 1.784551
316.90 1.784398
317.00 1.784244
317.10 1.78409
317.20 1.783936
317.30 1.783555
317.40 1.783217
317.50 1.783004
317.60 1.78279
317.70 1.782577
317.80 1.782363
317.90 1.782089
318.00 1.78166
318.10 1.781505
318.20 1.78135
318.30 1.781195
318.40 1.780956
318.50 1.78048
318.60 1.780254
318.70 1.780002
318.80 1.779526
318.90 1.779691
319.00 1.779381
319.10 1.778906
319.20 1.778528
319.30 1.778427
319.40 1.778327
319.50 1.778226
319.60 1.777859
319.70 1.77759
319.80 1.77732
319.90 1.777051
320.00 1.776835
320.10 1.776678
320.20 1.776349
320.30 1.776034
320.40 1.77575
320.50 1.775276
320.60 1.775258
320.70 1.775101
320.80 1.774867
320.90 1.774551
321.00 1.774236
321.10 1.77392
321.20 1.773453
321.30 1.773222
321.40 1.772991
321.50 1.77276
321.60 1.772529
321.70 1.772298
321.80 1.772057
321.90 1.771805
322.00 1.771151
322.10 1.77091
322.20 1.770669
322.30 1.770428
322.40 1.770187
322.50 1.769946
322.60 1.769705
322.70 1.769463
322.80 1.769028
322.90 1.768764
323.00 1.768501
323.10 1.768237
323.20 1.767973
323.30 1.767709
323.40 1.767446
323.50 1.767182
323.60 1.766918
323.70 1.766654
323.80 1.76639
323.90 1.766126
324.00 1.765865
324.10 1.765605
324.20 1.765344
324.30 1.765074
324.40 1.764762
324.50 1.764432
324.60 1.764103
324.70 1.763773
324.80 1.763443
324.90 1.763114
325.00 1.762784
325.10 1.762455
325.20 1.762159
325.30 1.761933
325.40 1.761707
325.50 1.761444
325.60 1.761136
325.70 1.760827
325.80 1.760519
325.90 1.760259
326.00 1.76005
326.10 1.759841
326.20 1.759632
326.30 1.759323
326.40 1.75873
326.50 1.758452
326.60 1.758174
326.70 1.757896
326.80 1.757618
326.90 1.75734
327.00 1.757063
327.10 1.756785
327.20 1.756507
327.30 1.756229
327.40 1.755951
327.50 1.755673
327.60 1.755395
327.70 1.755117
327.80 1.754839
327.90 1.754463
328.00 1.754069
328.10 1.753782
328.20 1.753495
328.30 1.753208
328.40 1.752921
328.50 1.752553
328.60 1.752166
328.70 1.751779
328.80 1.751414
328.90 1.751114
329.00 1.750813
329.10 1.750513
329.20 1.750213
329.30 1.749912
329.40 1.749612
329.50 1.749312
329.60 1.749012
329.70 1.748712
329.80 1.748412
329.90 1.748112
330.00 1.747809
330.10 1.747502
330.20 1.747196
330.30 1.74689
330.40 1.746561
330.50 1.746206
330.60 1.745852
330.70 1.745498
330.80 1.745144
330.90 1.74479
331.00 1.744437
331.10 1.744083
331.20 1.74373
331.30 1.743376
331.40 1.743023
331.50 1.742677
331.60 1.742339
331.70 1.742002
331.80 1.741695
331.90 1.741389
332.00 1.741083
332.10 1.740778
332.20 1.740472
332.30 1.740167
332.40 1.739861
332.50 1.739556
332.60 1.739251
332.70 1.738945
332.80 1.73864
332.90 1.738335
333.00 1.73803
333.10 1.737709
333.20 1.73737
333.30 1.737031
333.40 1.736692
333.50 1.736353
333.60 1.736014
333.70 1.735676
333.80 1.735337
333.90 1.734998
334.00 1.73466
334.10 1.734313
334.20 1.733955
334.30 1.733598
334.40 1.73324
334.50 1.732883
334.60 1.732526
334.70 1.732115
334.80 1.731773
334.90 1.731625
335.00 1.731478
335.10 1.730891
335.20 1.730438
335.30 1.730303
335.40 1.729851
335.50 1.72947
335.60 1.729307
335.70 1.728753
335.80 1.728301
335.90 1.727914
336.00 1.727607
336.10 1.727299
336.20 1.726992
336.30 1.726663
336.40 1.726308
336.50 1.725953
336.60 1.725598
336.70 1.725243
336.80 1.724888
336.90 1.724552
337.00 1.724238
337.10 1.723924
337.20 1.72361
337.30 1.723282
337.40 1.722932
337.50 1.722583
337.60 1.722233
337.70 1.721884
337.80 1.721535
337.90 1.721183
338.00 1.720827
338.10 1.720471
338.20 1.720116
338.30 1.719761
338.40 1.719399
338.50 1.719023
338.60 1.718648
338.70 1.718272
338.80 1.717897
338.90 1.717521
339.00 1.717146
339.10 1.716771
339.20 1.716396
339.30 1.715997
339.40 1.715563
339.50 1.715162
339.60 1.714801
339.70 1.71444
339.80 1.71408
339.90 1.71372
340.00 1.71336
340.10 1.713
340.20 1.71264
340.30 1.71228
340.40 1.711921
340.50 1.711561
340.60 1.711202
340.70 1.710843
340.80 1.710571
340.90 1.710425
341.00 1.710177
341.10 1.709804
341.20 1.709431
341.30 1.709058
341.40 1.708685
341.50 1.708313
341.60 1.707941
341.70 1.707568
341.80 1.70715
341.90 1.706676
342.00 1.706202
342.10 1.705728
342.20 1.705428
342.30 1.705029
342.40 1.704536
342.50 1.704193
342.60 1.70385
342.70 1.703507
342.80 1.703164
342.90 1.702821
343.00 1.702432
343.10 1.701987
343.20 1.701543
343.30 1.701099
343.40 1.700695
343.50 1.700348
343.60 1.700002
343.70 1.699656
343.80 1.69931
343.90 1.698964
344.00 1.698637
344.10 1.698337
344.20 1.698038
344.30 1.697738
344.40 1.697382
344.50 1.696945
344.60 1.696298
344.70 1.695848
344.80 1.695426
344.90 1.695264
345.00 1.694765
345.10 1.69433
345.20 1.693973
345.30 1.69373
345.40 1.693487
345.50 1.693148
345.60 1.692701
345.70 1.692267
345.80 1.691833
345.90 1.691399
346.00 1.690965
346.10 1.690531
346.20 1.69012
346.30 1.689742
346.40 1.689363
346.50 1.688984
346.60 1.688606
346.70 1.688228
346.80 1.68785
346.90 1.687472
347.00 1.687094
347.10 1.686717
347.20 1.686338
347.30 1.685956
347.40 1.685575
347.50 1.685194
347.60 1.684813
347.70 1.684432
347.80 1.684051
347.90 1.683671
348.00 1.68329
348.10 1.68291
348.20 1.68253
348.30 1.68215
348.40 1.68177
348.50 1.681391
348.60 1.681011
348.70 1.680489
348.80 1.679994
348.90 1.679601
349.00 1.679209
349.10 1.678817
349.20 1.678425
349.30 1.678033
349.40 1.677642
349.50 1.67725
349.60 1.676859
349.70 1.676468
349.80 1.676077
349.90 1.675687
350.00 1.675296
350.10 1.674906
350.20 1.674516
350.30 1.67411
350.40 1.673683
350.50 1.673255
350.60 1.672828
350.70 1.672401
350.80 1.671975
350.90 1.671548
351.00 1.671122
351.10 1.670696
351.20 1.67027
351.30 1.669844
351.40 1.669434
351.50 1.669049
351.60 1.668664
351.70 1.66828
351.80 1.667896
351.90 1.667512
352.00 1.667128
352.10 1.666744
352.20 1.666171
352.30 1.665656
352.40 1.665252
352.50 1.664849
352.60 1.664446
352.70 1.664043
352.80 1.663641
352.90 1.663238
353.00 1.662836
353.10 1.662434
353.20 1.662032
353.30 1.661631
353.40 1.661229
353.50 1.660867
353.60 1.660514
353.70 1.660161
353.80 1.659808
353.90 1.659433
354.00 1.659018
354.10 1.658604
354.20 1.658189
354.30 1.657775
354.40 1.65736
354.50 1.656946
354.60 1.656533
354.70 1.656119
354.80 1.655685
354.90 1.655221
355.00 1.654757
355.10 1.654293
355.20 1.65383
355.30 1.653378
355.40 1.652926
355.50 1.652474
355.60 1.652023
355.70 1.651699
355.80 1.651433
355.90 1.650929
356.00 1.6504
356.10 1.649971
356.20 1.649542
356.30 1.649113
356.40 1.648685
356.50 1.648257
356.60 1.647829
356.70 1.647401
356.80 1.646974
356.90 1.646547
357.00 1.646119
357.10 1.645693
357.20 1.645266
357.30 1.64484
357.40 1.644454
357.50 1.644141
357.60 1.643827
357.70 1.643514
357.80 1.643058
357.90 1.642602
358.00 1.642166
358.10 1.641735
358.20 1.641305
358.30 1.640874
358.40 1.640444
358.50 1.640015
358.60 1.639585
358.70 1.639156
358.80 1.638726
358.90 1.638297
359.00 1.637858
359.10 1.637398
359.20 1.636937
359.30 1.636459
359.40 1.635981
359.50 1.635589
359.60 1.635219
359.70 1.634849
359.80 1.634321
359.90 1.633794
360.00 1.633332
360.10 1.632986
360.20 1.63264
360.30 1.632294
360.40 1.631949
360.50 1.631603
360.60 1.630884
360.70 1.63048
360.80 1.630077
360.90 1.629673
361.00 1.62909
361.10 1.628743
361.20 1.628285
361.30 1.627882
361.40 1.627455
361.50 1.627078
361.60 1.626766
361.70 1.626115
361.80 1.625585
361.90 1.62527
362.00 1.624954
362.10 1.624449
362.20 1.623929
362.30 1.623468
362.40 1.623007
362.50 1.622546
362.60 1.622086
362.70 1.621828
362.80 1.621374
362.90 1.620972
363.00 1.620571
363.10 1.62013
363.20 1.619689
363.30 1.61938
363.40 1.618613
363.50 1.618092
363.60 1.61794
363.70 1.61757
363.80 1.6169
363.90 1.616479
364.00 1.616059
364.10 1.61564
364.20 1.61522
364.30 1.614863
364.40 1.614521
364.50 1.614129
364.60 1.613569
364.70 1.613009
364.80 1.61245
364.90 1.612056
365.00 1.611661
365.10 1.611267
365.20 1.610873
365.30 1.610479
365.40 1.610085
365.50 1.609691
365.60 1.609298
365.70 1.608639
365.80 1.607981
365.90 1.607579
366.00 1.60724
366.10 1.60684
366.20 1.606439
366.30 1.606039
366.40 1.605639
366.50 1.605276
366.60 1.604406
366.70 1.604081
366.80 1.603756
366.90 1.60339
367.00 1.602952
367.10 1.602513
367.20 1.602074
367.30 1.601636
367.40 1.601198
367.50 1.600628
367.60 1.600025
367.70 1.599661
367.80 1.599298
367.90 1.598935
368.00 1.598471
368.10 1.598077
368.20 1.597589
368.30 1.597099
368.40 1.596609
368.50 1.59612
368.60 1.595631
368.70 1.595142
368.80 1.594654
368.90 1.594337
369.00 1.593856
369.10 1.593256
369.20 1.592873
369.30 1.592488
369.40 1.592103
369.50 1.591718
369.60 1.591331
369.70 1.590945
369.80 1.590471
369.90 1.589997
370.00 1.589523
370.10 1.588938
370.20 1.58855
370.30 1.588167
370.40 1.58754
370.50 1.587163
370.60 1.58655
370.70 1.586168
370.80 1.585783
370.90 1.585399
371.00 1.584785
371.10 1.584168
371.20 1.583785
371.30 1.583402
371.40 1.583153
371.50 1.582652
371.60 1.582151
371.70 1.581651
371.80 1.581151
371.90 1.580652
372.00 1.58041
372.10 1.579897
372.20 1.57944
372.30 1.578983
372.40 1.578526
372.50 1.57807
372.60 1.577613
372.70 1.577158
372.80 1.576778
372.90 1.576398
373.00 1.57579
373.10 1.575181
373.20 1.574804
373.30 1.574428
373.40 1.574051
373.50 1.573442
373.60 1.573066
373.70 1.572458
373.80 1.572184
373.90 1.571707
374.00 1.571216
374.10 1.570725
374.20 1.570234
374.30 1.569744
374.40 1.569196
374.50 1.568985
374.60 1.568504
374.70 1.568015
374.80 1.567527
374.90 1.567039
375.00 1.566512
375.10 1.565986
375.20 1.565459
375.30 1.565021
375.40 1.564584
375.50 1.564146
375.60 1.563709
375.70 1.563272
375.80 1.562835
375.90 1.562399
376.00 1.562024
376.10 1.561595
376.20 1.561166
376.30 1.560737
376.40 1.560308
376.50 1.559846
376.60 1.559335
376.70 1.558823
376.80 1.558314
376.90 1.557808
377.00 1.557302
377.10 1.556796
377.20 1.556314
377.30 1.555916
377.40 1.555519
377.50 1.555122
377.60 1.554596
377.70 1.554071
377.80 1.553545
377.90 1.553021
378.00 1.552822
378.10 1.552377
378.20 1.551925
378.30 1.551473
378.40 1.551022
378.50 1.55057
378.60 1.550119
378.70 1.549669
378.80 1.549218
378.90 1.548757
379.00 1.548275
379.10 1.547821
379.20 1.547367
379.30 1.546878
379.40 1.546355
379.50 1.545832
379.60 1.545344
379.70 1.544899
379.80 1.544415
379.90 1.543931
380.00 1.543448
380.10 1.542965
380.20 1.542482
380.30 1.542
380.40 1.541517
380.50 1.541035
380.60 1.540801
380.70 1.540298
380.80 1.539795
380.90 1.539293
381.00 1.538791
381.10 1.538263
381.20 1.537824
381.30 1.53735
381.40 1.536988
381.50 1.536411
381.60 1.535894
381.70 1.535502
381.80 1.535029
381.90 1.534671
382.00 1.534314
382.10 1.533511
382.20 1.533243
382.30 1.532664
382.40 1.532118
382.50 1.531621
382.60 1.531124
382.70 1.5307
382.80 1.530284
382.90 1.529796
383.00 1.529307
383.10 1.528819
383.20 1.528369
383.30 1.528062
383.40 1.527685
383.50 1.527204
383.60 1.52644
383.70 1.525994
383.80 1.525548
383.90 1.525103
384.00 1.524657
384.10 1.524212
384.20 1.523768
384.30 1.523323
384.40 1.522859
384.50 1.522375
384.60 1.521891
384.70 1.521408
384.80 1.520967
384.90 1.520575
385.00 1.519974
385.10 1.519385
385.20 1.519124
385.30 1.518558
385.40 1.518035
385.50 1.517554
385.60 1.517073
385.70 1.516592
385.80 1.516155
385.90 1.515881
386.00 1.515506
386.10 1.515018
386.20 1.514402
386.30 1.513787
386.40 1.513523
386.50 1.51292
386.60 1.512393
386.70 1.512047
386.80 1.5117
386.90 1.510919
387.00 1.510573
387.10 1.510227
387.20 1.509762
387.30 1.509102
387.40 1.508756
387.50 1.508171
387.60 1.507701
387.70 1.507249
387.80 1.506796
387.90 1.506344
388.00 1.505824
388.10 1.50548
388.20 1.504842
388.30 1.504341
388.40 1.50384
388.50 1.503377
388.60 1.503024
388.70 1.502559
388.80 1.502217
388.90 1.501445
389.00 1.501103
389.10 1.500509
389.20 1.500178
389.30 1.499727
389.40 1.499177
389.50 1.498683
389.60 1.498304
389.70 1.497961
389.80 1.497484
389.90 1.497007
390.00 1.496531
390.10 1.496055
390.20 1.495579
390.30 1.495088
390.40 1.49458
390.50 1.494072
390.60 1.493565
390.70 1.493058
390.80 1.492543
390.90 1.49202
391.00 1.491434
391.10 1.491084
391.20 1.490648
391.30 1.49002
391.40 1.489542
391.50 1.489064
391.60 1.488587
391.70 1.48811
391.80 1.487633
391.90 1.48721
392.00 1.486835
392.10 1.486444
392.20 1.486019
392.30 1.485406
392.40 1.484928
392.50 1.484594
392.60 1.483838
392.70 1.483504
392.80 1.483034
392.90 1.482494
393.00 1.481964
393.10 1.481473
393.20 1.481035
393.30 1.480703
393.40 1.480333
393.50 1.47958
393.60 1.479249
393.70 1.478802
393.80 1.478185
393.90 1.477645
394.00 1.477147
394.10 1.476855
394.20 1.476319
394.30 1.475858
394.40 1.475381
394.50 1.475017
394.60 1.474503
394.70 1.473981
394.80 1.473426
394.90 1.472879
395.00 1.472537
395.10 1.472084
395.20 1.471681
395.30 1.471208
395.40 1.470735
395.50 1.470188
395.60 1.469614
395.70 1.469066
395.80 1.468585
395.90 1.468104
396.00 1.467646
396.10 1.46733
396.20 1.466797
396.30 1.466208
396.40 1.465883
396.50 1.465491
396.60 1.464819
396.70 1.464494
396.80 1.463924
396.90 1.463432
397.00 1.463108
397.10 1.462371
397.20 1.462047
397.30 1.461382
397.40 1.460905
397.50 1.46043
397.60 1.459957
397.70 1.459515
397.80 1.459073
397.90 1.458632
398.00 1.458193
398.10 1.457754
398.20 1.457256
398.30 1.456693
398.40 1.456134
398.50 1.455719
398.60 1.455395
398.70 1.454887
398.80 1.454324
398.90 1.45381
399.00 1.453384
399.10 1.453082
399.20 1.452541
399.30 1.452001
399.40 1.451461
399.50 1.450922
399.60 1.450436
399.70 1.44997
399.80 1.449505
399.90 1.44904
400.00 1.448577
400.10 1.448166
400.20 1.447527
400.30 1.447061
400.40 1.446659
400.50 1.446171
400.60 1.445597
400.70 1.445078
400.80 1.444817
400.90 1.444162
401.00 1.443781
401.10 1.443466
401.20 1.442747
401.30 1.44233
401.40 1.441932
401.50 1.441513
401.60 1.441085
401.70 1.440368
401.80 1.439967
401.90 1.439548
402.00 1.439024
402.10 1.438711
402.20 1.437996
402.30 1.437683
402.40 1.436969
402.50 1.436657
402.60 1.435965
402.70 1.435632
402.80 1.43532
402.90 1.434768
403.00 1.434257
403.10 1.433585
403.20 1.433284
403.30 1.432881
403.40 1.432254
403.50 1.431731
403.60 1.431267
403.70 1.430925
403.80 1.430223
403.90 1.429742
404.00 1.429429
404.10 1.428891
404.20 1.428383
404.30 1.427876
404.40 1.427568
404.50 1.427061
404.60 1.426555
404.70 1.426247
404.80 1.425554
404.90 1.425236
405.00 1.424532
405.10 1.424055
405.20 1.423636
405.30 1.423217
405.40 1.422713
405.50 1.422209
405.60 1.421706
405.70 1.421203
405.80 1.4207
405.90 1.420198
406.00 1.419736
406.10 1.419276
406.20 1.418815
406.30 1.418355
406.40 1.417888
406.50 1.417584
406.60 1.416887
406.70 1.416436
406.80 1.416047
406.90 1.415591
407.00 1.415092
407.10 1.414593
407.20 1.414095
407.30 1.413597
407.40 1.413099
407.50 1.412601
407.60 1.412104
407.70 1.411607
407.80 1.411111
407.90 1.410615
408.00 1.410138
408.10 1.409813
408.20 1.40942
408.30 1.408856
408.40 1.408294
408.50 1.408029
408.60 1.407475
408.70 1.406921
408.80 1.406402
408.90 1.40609
409.00 1.405552
409.10 1.405014
409.20 1.404477
409.30 1.40394
409.40 1.403407
409.50 1.402996
409.60 1.402585
409.70 1.402156
409.80 1.40165
409.90 1.401151
410.00 1.400843
410.10 1.40016
410.20 1.39972
410.30 1.399339
410.40 1.398918
410.50 1.398363
410.60 1.397809
410.70 1.397261
410.80 1.396737
410.90 1.396214
411.00 1.395736
411.10 1.395275
411.20 1.394815
411.30 1.394377
411.40 1.394022
411.50 1.393481
411.60 1.392939
411.70 1.39241
411.80 1.391925
411.90 1.391595
412.00 1.391111
412.10 1.390724
412.20 1.390145
412.30 1.389536
412.40 1.38918
412.50 1.388561
412.60 1.388161
412.70 1.387662
412.80 1.387138
412.90 1.386963
413.00 1.386346
413.10 1.385902
413.20 1.385458
413.30 1.385015
413.40 1.384571
413.50 1.384083
413.60 1.38346
413.70 1.382981
413.80 1.382503
413.90 1.382025
414.00 1.381547
414.10 1.38107
414.20 1.380547
414.30 1.38026
414.40 1.379594
414.50 1.379308
414.60 1.378688
414.70 1.378212
414.80 1.377737
414.90 1.377262
415.00 1.376787
415.10 1.376313
415.20 1.375822
415.30 1.375277
415.40 1.374732
415.50 1.374193
415.60 1.373802
415.70 1.373411
415.80 1.372985
415.90 1.372449
416.00 1.371913
416.10 1.371389
416.20 1.37091
416.30 1.370432
416.40 1.369954
416.50 1.369476
416.60 1.369006
416.70 1.368531
416.80 1.368249
416.90 1.367593
417.00 1.367311
417.10 1.366661
417.20 1.366193
417.30 1.365724
417.40 1.365202
417.50 1.36468
417.60 1.364196
417.70 1.363858
417.80 1.363391
417.90 1.362925
418.00 1.362459
418.10 1.361994
418.20 1.361529
418.30 1.361058
418.40 1.360447
418.50 1.359958
418.60 1.35947
418.70 1.358982
418.80 1.358494
418.90 1.358007
419.00 1.357519
419.10 1.357033
419.20 1.356546
419.30 1.356063
419.40 1.355678
419.50 1.355293
419.60 1.354881
419.70 1.354361
419.80 1.35384
419.90 1.353334
420.00 1.35287
420.10 1.352407
420.20 1.351944
420.30 1.351481
420.40 1.351019
420.50 1.350556
420.60 1.350094
420.70 1.349633
420.80 1.349172
420.90 1.348709
421.00 1.348201
421.10 1.347692
421.20 1.347191
421.30 1.346708
421.40 1.346226
421.50 1.345744
421.60 1.345263
421.70 1.344781
421.80 1.3443
421.90 1.343825
422.00 1.343368
422.10 1.342898
422.20 1.342377
422.30 1.341856
422.40 1.341338
422.50 1.340869
422.60 1.3404
422.70 1.339931
422.80 1.339463
422.90 1.338995
423.00 1.338528
423.10 1.338061
423.20 1.337594
423.30 1.337127
423.40 1.336661
423.50 1.336195
423.60 1.335729
423.70 1.335263
423.80 1.334798
423.90 1.334333
424.00 1.333868
424.10 1.333404
424.20 1.33294
424.30 1.332476
424.40 1.331978
424.50 1.331496
424.60 1.331015
424.70 1.330534
424.80 1.330054
424.90 1.329573
425.00 1.329093
