# Version 2.1 - nm, norm@500 to 1, cut digits, bergeron_He_8500_90.dat_8500
# Wavelength(nm)  Flambda(ergs/cm^s/s/nm)
300.00 1.515337
300.10 1.515461
300.20 1.515586
300.30 1.515713
300.40 1.515857
300.50 1.516001
300.60 1.516145
300.70 1.516287
300.80 1.51643
300.90 1.516572
301.00 1.516713
301.10 1.516854
301.20 1.516994
301.30 1.517134
301.40 1.517273
301.50 1.517412
301.60 1.51755
301.70 1.517687
301.80 1.517825
301.90 1.517961
302.00 1.518097
302.10 1.518152
302.20 1.518197
302.30 1.518242
302.40 1.518286
302.50 1.51833
302.60 1.518374
302.70 1.518417
302.80 1.51846
302.90 1.518502
303.00 1.518544
303.10 1.518586
303.20 1.518627
303.30 1.518681
303.40 1.518857
303.50 1.519032
303.60 1.519207
303.70 1.519381
303.80 1.519554
303.90 1.519727
304.00 1.519899
304.10 1.520071
304.20 1.520243
304.30 1.520413
304.40 1.520583
304.50 1.520753
304.60 1.520831
304.70 1.520898
304.80 1.520965
304.90 1.521032
305.00 1.521098
305.10 1.521164
305.20 1.521229
305.30 1.521294
305.40 1.521358
305.50 1.521422
305.60 1.521486
305.70 1.521549
305.80 1.521612
305.90 1.521674
306.00 1.521736
306.10 1.521798
306.20 1.521859
306.30 1.52192
306.40 1.52199
306.50 1.522063
306.60 1.522135
306.70 1.522207
306.80 1.522279
306.90 1.52235
307.00 1.522421
307.10 1.522491
307.20 1.522561
307.30 1.522631
307.40 1.5227
307.50 1.522769
307.60 1.522837
307.70 1.522905
307.80 1.522972
307.90 1.523039
308.00 1.523106
308.10 1.523172
308.20 1.523238
308.30 1.523303
308.40 1.523368
308.50 1.523433
308.60 1.523497
308.70 1.523561
308.80 1.523556
308.90 1.523354
309.00 1.523386
309.10 1.523416
309.20 1.523447
309.30 1.523477
309.40 1.523522
309.50 1.52366
309.60 1.523797
309.70 1.523934
309.80 1.52407
309.90 1.524205
310.00 1.524341
310.10 1.524475
310.20 1.52461
310.30 1.524743
310.40 1.52477
310.50 1.524682
310.60 1.524593
310.70 1.524504
310.80 1.524414
310.90 1.524325
311.00 1.524388
311.10 1.524452
311.20 1.524514
311.30 1.524585
311.40 1.524681
311.50 1.524776
311.60 1.52487
311.70 1.524964
311.80 1.525058
311.90 1.525151
312.00 1.525244
312.10 1.525336
312.20 1.525214
312.30 1.525098
312.40 1.525196
312.50 1.525395
312.60 1.525457
312.70 1.52552
312.80 1.525582
312.90 1.525585
313.00 1.525523
313.10 1.525461
313.20 1.5254
313.30 1.525376
313.40 1.525462
313.50 1.525547
313.60 1.525632
313.70 1.525716
313.80 1.5258
313.90 1.525884
314.00 1.525967
314.10 1.525984
314.20 1.526001
314.30 1.526018
314.40 1.526034
314.50 1.52605
314.60 1.526066
314.70 1.526081
314.80 1.52584
314.90 1.525489
315.00 1.525806
315.10 1.525788
315.20 1.52577
315.30 1.525752
315.40 1.525734
315.50 1.525715
315.60 1.525696
315.70 1.525676
315.80 1.525657
315.90 1.525637
316.00 1.525617
316.10 1.525596
316.20 1.525575
316.30 1.525554
316.40 1.526004
316.50 1.525511
316.60 1.52549
316.70 1.525467
316.80 1.525445
316.90 1.525422
317.00 1.525399
317.10 1.525376
317.20 1.525353
317.30 1.525469
317.40 1.525591
317.50 1.525729
317.60 1.525866
317.70 1.526004
317.80 1.52614
317.90 1.525795
318.00 1.525397
318.10 1.525371
318.20 1.525345
318.30 1.525318
318.40 1.525291
318.50 1.525264
318.60 1.525599
318.70 1.525896
318.80 1.525868
318.90 1.525839
319.00 1.525124
319.10 1.525095
319.20 1.52508
319.30 1.525105
319.40 1.525129
319.50 1.525153
319.60 1.524961
319.70 1.524985
319.80 1.525008
319.90 1.525031
320.00 1.525027
320.10 1.524996
320.20 1.525443
320.30 1.52541
320.40 1.525378
320.50 1.525345
320.60 1.524834
320.70 1.524801
320.80 1.524768
320.90 1.524734
321.00 1.524701
321.10 1.524666
321.20 1.525314
321.30 1.525155
321.40 1.524997
321.50 1.524838
321.60 1.52468
321.70 1.524521
321.80 1.524575
321.90 1.524858
322.00 1.524383
322.10 1.524341
322.20 1.5243
322.30 1.524258
322.40 1.524217
322.50 1.524174
322.60 1.524132
322.70 1.52409
322.80 1.52475
322.90 1.52469
323.00 1.52463
323.10 1.52457
323.20 1.524509
323.30 1.524448
323.40 1.524387
323.50 1.524326
323.60 1.524265
323.70 1.524203
323.80 1.524141
323.90 1.524079
324.00 1.52386
324.10 1.52364
324.20 1.523421
324.30 1.523313
324.40 1.523394
324.50 1.523335
324.60 1.523274
324.70 1.523214
324.80 1.523153
324.90 1.523092
325.00 1.523031
325.10 1.52297
325.20 1.522927
325.30 1.522923
325.40 1.522919
325.50 1.5229
325.60 1.522862
325.70 1.522823
325.80 1.522784
325.90 1.52272
326.00 1.522628
326.10 1.522535
326.20 1.522443
326.30 1.522314
326.40 1.522085
326.50 1.522006
326.60 1.521928
326.70 1.521849
326.80 1.52177
326.90 1.521691
327.00 1.521611
327.10 1.521531
327.20 1.521452
327.30 1.521372
327.40 1.521291
327.50 1.521211
327.60 1.52113
327.70 1.52105
327.80 1.520969
327.90 1.52089
328.00 1.520857
328.10 1.520875
328.20 1.520893
328.30 1.52091
328.40 1.520927
328.50 1.520779
328.60 1.520592
328.70 1.520405
328.80 1.520257
328.90 1.52022
329.00 1.520182
329.10 1.520143
329.20 1.520105
329.30 1.520066
329.40 1.520027
329.50 1.519988
329.60 1.519949
329.70 1.519909
329.80 1.519869
329.90 1.519829
330.00 1.519688
330.10 1.519422
330.20 1.519156
330.30 1.51889
330.40 1.518724
330.50 1.518667
330.60 1.518609
330.70 1.518552
330.80 1.518494
330.90 1.518436
331.00 1.518378
331.10 1.51832
331.20 1.518261
331.30 1.518202
331.40 1.518143
331.50 1.518009
331.60 1.517783
331.70 1.517557
331.80 1.517462
331.90 1.517372
332.00 1.517282
332.10 1.517192
332.20 1.517102
332.30 1.517012
332.40 1.516921
332.50 1.51683
332.60 1.516739
332.70 1.516648
332.80 1.516557
332.90 1.516465
333.00 1.516374
333.10 1.516296
333.20 1.516237
333.30 1.516177
333.40 1.516116
333.50 1.516056
333.60 1.515995
333.70 1.515934
333.80 1.515873
333.90 1.515812
334.00 1.515751
334.10 1.515626
334.20 1.515423
334.30 1.51522
334.40 1.515018
334.50 1.514815
334.60 1.514612
334.70 1.514458
334.80 1.514427
334.90 1.514486
335.00 1.514545
335.10 1.514221
335.20 1.514158
335.30 1.513717
335.40 1.513653
335.50 1.51359
335.60 1.513526
335.70 1.513001
335.80 1.512937
335.90 1.512873
336.00 1.512809
336.10 1.512744
336.20 1.51268
336.30 1.512615
336.40 1.51255
336.50 1.512484
336.60 1.512419
336.70 1.512353
336.80 1.512287
336.90 1.512125
337.00 1.511845
337.10 1.511565
337.20 1.511285
337.30 1.511095
337.40 1.511034
337.50 1.510973
337.60 1.510912
337.70 1.51085
337.80 1.510788
337.90 1.51064
338.00 1.510387
338.10 1.510134
338.20 1.509881
338.30 1.509628
338.40 1.509431
338.50 1.509375
338.60 1.509318
338.70 1.50926
338.80 1.509203
338.90 1.509145
339.00 1.509088
339.10 1.50903
339.20 1.508971
339.30 1.508744
339.40 1.508273
339.50 1.507953
339.60 1.507819
339.70 1.507684
339.80 1.507549
339.90 1.507414
340.00 1.507279
340.10 1.507143
340.20 1.507008
340.30 1.506872
340.40 1.506737
340.50 1.506601
340.60 1.506465
340.70 1.506329
340.80 1.506227
340.90 1.506172
341.00 1.506064
341.10 1.505891
341.20 1.505718
341.30 1.505544
341.40 1.505371
341.50 1.505198
341.60 1.505024
341.70 1.504851
341.80 1.504702
341.90 1.504581
342.00 1.504461
342.10 1.504341
342.20 1.504069
342.30 1.504117
342.40 1.504199
342.50 1.503996
342.60 1.503793
342.70 1.50359
342.80 1.503386
342.90 1.503183
343.00 1.503034
343.10 1.502952
343.20 1.50287
343.30 1.502787
343.40 1.502653
343.50 1.502445
343.60 1.502237
343.70 1.502029
343.80 1.501821
343.90 1.501612
344.00 1.501377
344.10 1.501102
344.20 1.500828
344.30 1.500553
344.40 1.50036
344.50 1.500285
344.60 1.500678
344.70 1.500224
344.80 1.499751
344.90 1.499655
345.00 1.499742
345.10 1.499269
345.20 1.498963
345.30 1.498897
345.40 1.498832
345.50 1.498747
345.60 1.498598
345.70 1.498389
345.80 1.498181
345.90 1.497972
346.00 1.497763
346.10 1.497554
346.20 1.497367
346.30 1.497211
346.40 1.497055
346.50 1.496898
346.60 1.496742
346.70 1.496585
346.80 1.496428
346.90 1.496272
347.00 1.496115
347.10 1.495958
347.20 1.495797
347.30 1.49563
347.40 1.495463
347.50 1.495296
347.60 1.495129
347.70 1.494962
347.80 1.494795
347.90 1.494628
348.00 1.494461
348.10 1.494293
348.20 1.494126
348.30 1.493959
348.40 1.493791
348.50 1.493624
348.60 1.493456
348.70 1.493202
348.80 1.492961
348.90 1.492777
349.00 1.492593
349.10 1.492409
349.20 1.492226
349.30 1.492042
349.40 1.491858
349.50 1.491674
349.60 1.49149
349.70 1.491306
349.80 1.491122
349.90 1.490938
350.00 1.490754
350.10 1.49057
350.20 1.490386
350.30 1.490185
350.40 1.489961
350.50 1.489737
350.60 1.489512
350.70 1.489288
350.80 1.489064
350.90 1.48884
351.00 1.488615
351.10 1.488391
351.20 1.488167
351.30 1.487943
351.40 1.487716
351.50 1.487484
351.60 1.487252
351.70 1.48702
351.80 1.486788
351.90 1.486556
352.00 1.486325
352.10 1.486093
352.20 1.486229
352.30 1.48623
352.40 1.485976
352.50 1.485721
352.60 1.485467
352.70 1.485213
352.80 1.484959
352.90 1.484705
353.00 1.484452
353.10 1.484198
353.20 1.483944
353.30 1.48369
353.40 1.483436
353.50 1.483259
353.60 1.4831
353.70 1.482941
353.80 1.482782
353.90 1.482591
354.00 1.482343
354.10 1.482094
354.20 1.481846
354.30 1.481598
354.40 1.48135
354.50 1.481101
354.60 1.480853
354.70 1.480605
354.80 1.480396
354.90 1.480241
355.00 1.480087
355.10 1.479932
355.20 1.479777
355.30 1.479639
355.40 1.4795
355.50 1.47936
355.60 1.479221
355.70 1.479046
355.80 1.478855
355.90 1.478433
356.00 1.478098
356.10 1.477886
356.20 1.477675
356.30 1.477464
356.40 1.477252
356.50 1.477041
356.60 1.476829
356.70 1.476618
356.80 1.476406
356.90 1.476195
357.00 1.475983
357.10 1.475772
357.20 1.475561
357.30 1.475349
357.40 1.475154
357.50 1.474988
357.60 1.474823
357.70 1.474657
357.80 1.474168
357.90 1.473679
358.00 1.473431
358.10 1.473242
358.20 1.473054
358.30 1.472866
358.40 1.472677
358.50 1.472489
358.60 1.472301
358.70 1.472112
358.80 1.471924
358.90 1.471736
359.00 1.471556
359.10 1.471393
359.20 1.471186
359.30 1.470681
359.40 1.470176
359.50 1.470047
359.60 1.470012
359.70 1.469976
359.80 1.469711
359.90 1.469447
360.00 1.469179
360.10 1.468905
360.20 1.468632
360.30 1.468358
360.40 1.468085
360.50 1.467811
360.60 1.467925
360.70 1.467655
360.80 1.467385
360.90 1.467116
361.00 1.466651
361.10 1.466241
361.20 1.466474
361.30 1.465951
361.40 1.465574
361.50 1.465485
361.60 1.464935
361.70 1.464846
361.80 1.464701
361.90 1.464455
362.00 1.464208
362.10 1.463912
362.20 1.463651
362.30 1.463474
362.40 1.463297
362.50 1.46312
362.60 1.462942
362.70 1.46266
362.80 1.462173
362.90 1.46208
363.00 1.461988
363.10 1.461837
363.20 1.461685
363.30 1.461011
363.40 1.460922
363.50 1.460833
363.60 1.460386
363.70 1.460337
363.80 1.459851
363.90 1.459558
364.00 1.459265
364.10 1.458972
364.20 1.458679
364.30 1.458612
364.40 1.458602
364.50 1.457808
364.60 1.457716
364.70 1.457624
364.80 1.457532
364.90 1.457088
365.00 1.456644
365.10 1.456554
365.20 1.456464
365.30 1.456374
365.40 1.455577
365.50 1.455488
365.60 1.455398
365.70 1.455243
365.80 1.455089
365.90 1.454735
366.00 1.454332
366.10 1.454057
366.20 1.453781
366.30 1.453506
366.40 1.453231
366.50 1.45317
366.60 1.453087
366.70 1.452826
366.80 1.452566
366.90 1.452296
367.00 1.452008
367.10 1.451721
367.20 1.451434
367.30 1.451147
367.40 1.450861
367.50 1.450482
367.60 1.450081
367.70 1.449844
367.80 1.449606
367.90 1.449369
368.00 1.449022
368.10 1.448923
368.20 1.448686
368.30 1.448447
368.40 1.448207
368.50 1.447968
368.60 1.447729
368.70 1.44749
368.80 1.447251
368.90 1.446815
369.00 1.446644
369.10 1.446626
369.20 1.44585
369.30 1.445759
369.40 1.445668
369.50 1.445577
369.60 1.445138
369.70 1.4447
369.80 1.444477
369.90 1.444255
370.00 1.444033
370.10 1.44365
370.20 1.443211
370.30 1.442776
370.40 1.442688
370.50 1.442597
370.60 1.442506
370.70 1.441728
370.80 1.441633
370.90 1.441539
371.00 1.44111
371.10 1.440678
371.20 1.440583
371.30 1.440489
371.40 1.439903
371.50 1.439638
371.60 1.439372
371.70 1.439107
371.80 1.438841
371.90 1.438576
372.00 1.438685
372.10 1.438398
372.20 1.43808
372.30 1.437761
372.40 1.437443
372.50 1.437125
372.60 1.436807
372.70 1.436489
372.80 1.436394
372.90 1.436299
373.00 1.435873
373.10 1.435444
373.20 1.435353
373.30 1.435261
373.40 1.434493
373.50 1.434401
373.60 1.43431
373.70 1.433542
373.80 1.433599
373.90 1.433359
374.00 1.433099
374.10 1.432839
374.20 1.432579
374.30 1.432319
374.40 1.431974
374.50 1.431462
374.60 1.431199
374.70 1.43094
374.80 1.430682
374.90 1.430424
375.00 1.430109
375.10 1.429793
375.20 1.429478
375.30 1.429195
375.40 1.428912
375.50 1.42863
375.60 1.428347
375.70 1.428064
375.80 1.427782
375.90 1.427499
376.00 1.427401
376.10 1.427081
376.20 1.426758
376.30 1.426435
376.40 1.426113
376.50 1.4258
376.60 1.425502
376.70 1.425204
376.80 1.424909
376.90 1.424618
377.00 1.424327
377.10 1.424036
377.20 1.423777
377.30 1.423642
377.40 1.423507
377.50 1.423372
377.60 1.42305
377.70 1.422728
377.80 1.422407
377.90 1.422085
378.00 1.421591
378.10 1.421293
378.20 1.421
378.30 1.420707
378.40 1.420414
378.50 1.420121
378.60 1.419828
378.70 1.419535
378.80 1.419243
378.90 1.418961
379.00 1.418699
379.10 1.418476
379.20 1.418253
379.30 1.417979
379.40 1.417655
379.50 1.417331
379.60 1.417058
379.70 1.41683
379.80 1.416482
379.90 1.416134
380.00 1.415787
380.10 1.415439
380.20 1.415092
380.30 1.414745
380.40 1.414398
380.50 1.414051
380.60 1.414141
380.70 1.413842
380.80 1.413544
380.90 1.413245
381.00 1.412947
381.10 1.412612
381.20 1.412403
381.30 1.412023
381.40 1.411515
381.50 1.411441
381.60 1.411318
381.70 1.411008
381.80 1.410269
381.90 1.410178
382.00 1.410087
382.10 1.409349
382.20 1.409387
382.30 1.408972
382.40 1.408605
382.50 1.408309
382.60 1.408013
382.70 1.407823
382.80 1.407645
382.90 1.40736
383.00 1.407075
383.10 1.40679
383.20 1.406486
383.30 1.406107
383.40 1.40577
383.50 1.405495
383.60 1.404801
383.70 1.404491
383.80 1.404181
383.90 1.403872
384.00 1.403562
384.10 1.403253
384.20 1.402944
384.30 1.402635
384.40 1.402339
384.50 1.402056
384.60 1.401773
384.70 1.401491
384.80 1.40127
384.90 1.401119
385.00 1.400665
385.10 1.400228
385.20 1.400266
385.30 1.399862
385.40 1.399519
385.50 1.399237
385.60 1.398956
385.70 1.398674
385.80 1.398377
385.90 1.398023
386.00 1.397709
386.10 1.397438
386.20 1.397203
386.30 1.396968
386.40 1.396489
386.50 1.396027
386.60 1.395834
386.70 1.395585
386.80 1.395495
386.90 1.394774
387.00 1.394683
387.10 1.394592
387.20 1.393872
387.30 1.393782
387.40 1.393225
387.50 1.393251
387.60 1.392948
387.70 1.392543
387.80 1.392139
387.90 1.391735
388.00 1.391418
388.10 1.391175
388.20 1.390657
388.30 1.390338
388.40 1.39002
388.50 1.389754
388.60 1.38965
388.70 1.389382
388.80 1.389292
388.90 1.388578
389.00 1.388488
389.10 1.388031
389.20 1.387955
389.30 1.387706
389.40 1.387312
389.50 1.387001
389.60 1.386702
389.70 1.386138
389.80 1.385849
389.90 1.385561
390.00 1.385273
390.10 1.384985
390.20 1.384696
390.30 1.384386
390.40 1.384051
390.50 1.383716
390.60 1.383381
390.70 1.383046
390.80 1.382699
390.90 1.382341
391.00 1.38189
391.10 1.381783
391.20 1.381549
391.30 1.381036
391.40 1.380741
391.50 1.380447
391.60 1.380152
391.70 1.379858
391.80 1.379563
391.90 1.379346
392.00 1.379094
392.10 1.378656
392.20 1.378195
392.30 1.377701
392.40 1.377436
392.50 1.377314
392.60 1.377026
392.70 1.376524
392.80 1.376435
392.90 1.375848
393.00 1.375473
393.10 1.375153
393.20 1.374912
393.30 1.374823
393.40 1.374679
393.50 1.37398
393.60 1.373891
393.70 1.373635
393.80 1.373132
393.90 1.372739
394.00 1.372408
394.10 1.372376
394.20 1.371988
394.30 1.37171
394.40 1.371357
394.50 1.370662
394.60 1.370306
394.70 1.369996
394.80 1.369858
394.90 1.369703
395.00 1.369097
395.10 1.368921
395.20 1.368543
395.30 1.368245
395.40 1.367946
395.50 1.367718
395.60 1.367517
395.70 1.367235
395.80 1.366734
395.90 1.366233
396.00 1.365781
396.10 1.365709
396.20 1.36532
396.30 1.36485
396.40 1.364762
396.50 1.364577
396.60 1.363986
396.70 1.363899
396.80 1.363455
396.90 1.363124
397.00 1.363036
397.10 1.362349
397.20 1.362262
397.30 1.361678
397.40 1.361368
397.50 1.361059
397.60 1.360754
397.70 1.360494
397.80 1.360233
397.90 1.359915
398.00 1.359445
398.10 1.358974
398.20 1.358634
398.30 1.35844
398.40 1.358244
398.50 1.35802
398.60 1.357462
398.70 1.357169
398.80 1.356973
398.90 1.356607
399.00 1.355927
399.10 1.355877
399.20 1.355606
399.30 1.355334
399.40 1.355062
399.50 1.354791
399.60 1.354407
399.70 1.35398
399.80 1.353554
399.90 1.353129
400.00 1.352709
400.10 1.352487
400.20 1.352347
400.30 1.352033
400.40 1.351591
400.50 1.351086
400.60 1.350841
400.70 1.350754
400.80 1.350239
400.90 1.349661
401.00 1.349479
401.10 1.349393
401.20 1.348721
401.30 1.348487
401.40 1.34828
401.50 1.348042
401.60 1.347791
401.70 1.34712
401.80 1.346909
401.90 1.34667
402.00 1.346278
402.10 1.345609
402.20 1.345523
402.30 1.34519
402.40 1.344769
402.50 1.344683
402.60 1.344047
402.70 1.34393
402.80 1.343554
402.90 1.34341
403.00 1.343034
403.10 1.342426
403.20 1.342341
403.30 1.341675
403.40 1.341465
403.50 1.341197
403.60 1.340888
403.70 1.340755
403.80 1.340101
403.90 1.339766
404.00 1.339343
404.10 1.339258
404.20 1.338885
404.30 1.338511
404.40 1.338164
404.50 1.337765
404.60 1.33768
404.70 1.337019
404.80 1.336935
404.90 1.336274
405.00 1.336066
405.10 1.335859
405.20 1.33561
405.30 1.335362
405.40 1.33499
405.50 1.334619
405.60 1.334248
405.70 1.333877
405.80 1.333506
405.90 1.333136
406.00 1.332825
406.10 1.332514
406.20 1.332203
406.30 1.331892
406.40 1.331572
406.50 1.331061
406.60 1.330833
406.70 1.330357
406.80 1.329926
406.90 1.329452
407.00 1.32914
407.10 1.328829
407.20 1.328518
407.30 1.328207
407.40 1.327896
407.50 1.327586
407.60 1.327275
407.70 1.326965
407.80 1.326655
407.90 1.326344
408.00 1.326004
408.10 1.325602
408.20 1.325248
408.30 1.324967
408.40 1.324687
408.50 1.324138
408.60 1.323881
408.70 1.323625
408.80 1.323325
408.90 1.322756
409.00 1.322434
409.10 1.322112
409.20 1.321791
409.30 1.32147
409.40 1.321145
409.50 1.320698
409.60 1.320252
409.70 1.31987
409.80 1.319744
409.90 1.319603
410.00 1.318959
410.10 1.318784
410.20 1.31841
410.30 1.317986
410.40 1.317599
410.50 1.317325
410.60 1.317052
410.70 1.316751
410.80 1.316336
410.90 1.315922
411.00 1.315574
411.10 1.31525
411.20 1.314927
411.30 1.314636
411.40 1.314465
411.50 1.314023
411.60 1.313582
411.70 1.313157
411.80 1.312797
411.90 1.312382
412.00 1.312301
412.10 1.311665
412.20 1.311584
412.30 1.311043
412.40 1.310867
412.50 1.310311
412.60 1.310072
412.70 1.309689
412.80 1.30927
412.90 1.308822
413.00 1.308774
413.10 1.30836
413.20 1.307946
413.30 1.307532
413.40 1.307119
413.50 1.306777
413.60 1.306648
413.70 1.306292
413.80 1.305937
413.90 1.305581
414.00 1.305226
414.10 1.304871
414.20 1.30445
414.30 1.30437
414.40 1.303741
414.50 1.303661
414.60 1.303098
414.70 1.302744
414.80 1.30239
414.90 1.302037
415.00 1.301684
415.10 1.30133
415.20 1.300993
415.30 1.300708
415.40 1.300423
415.50 1.300133
415.60 1.299703
415.70 1.299274
415.80 1.298884
415.90 1.298618
416.00 1.298353
416.10 1.298068
416.20 1.297706
416.30 1.297344
416.40 1.296982
416.50 1.29662
416.60 1.29627
416.70 1.295911
416.80 1.29529
416.90 1.295211
417.00 1.29459
417.10 1.29452
417.20 1.294171
417.30 1.293819
417.40 1.293391
417.50 1.292963
417.60 1.292589
417.70 1.292427
417.80 1.292079
417.90 1.291731
418.00 1.291383
418.10 1.291035
418.20 1.290687
418.30 1.290332
418.40 1.289786
418.50 1.289462
418.60 1.289138
418.70 1.288815
418.80 1.288492
418.90 1.288169
419.00 1.287846
419.10 1.287523
419.20 1.2872
419.30 1.286875
419.40 1.286451
419.50 1.286027
419.60 1.285602
419.70 1.28517
419.80 1.284739
419.90 1.284328
420.00 1.283978
420.10 1.283629
420.20 1.28328
420.30 1.282931
420.40 1.282582
420.50 1.282234
420.60 1.281885
420.70 1.281537
420.80 1.281189
420.90 1.280845
421.00 1.28062
421.10 1.280394
421.20 1.280131
421.30 1.27975
421.40 1.279371
421.50 1.278991
421.60 1.278612
421.70 1.278232
421.80 1.277853
421.90 1.277483
422.00 1.277137
422.10 1.276773
422.20 1.276335
422.30 1.275898
422.40 1.275464
422.50 1.275127
422.60 1.274791
422.70 1.274455
422.80 1.274119
422.90 1.273783
423.00 1.273447
423.10 1.273112
423.20 1.272777
423.30 1.272442
423.40 1.272107
423.50 1.271772
423.60 1.271437
423.70 1.271103
423.80 1.270769
423.90 1.270435
424.00 1.270101
424.10 1.269767
424.20 1.269433
424.30 1.2691
424.40 1.26871
424.50 1.268324
424.60 1.267938
424.70 1.267552
424.80 1.267167
424.90 1.266782
425.00 1.266397
