# Version 2.1 - nm, norm@500 to 1, cut digits, bergeron_He_6500_85.dat_6500
# Wavelength(nm)  Flambda(ergs/cm^s/s/nm)
300.00 0.7807403
300.10 0.7812406
300.20 0.7817347
300.30 0.7822339
300.40 0.7827719
300.50 0.783309
300.60 0.7838452
300.70 0.7843805
300.80 0.784915
300.90 0.7854485
301.00 0.7859812
301.10 0.786513
301.20 0.7870439
301.30 0.787574
301.40 0.7881031
301.50 0.7886314
301.60 0.7891588
301.70 0.7896854
301.80 0.790211
301.90 0.7907358
302.00 0.7912598
302.10 0.7917967
302.20 0.7923344
302.30 0.7928711
302.40 0.7934069
302.50 0.7939419
302.60 0.794476
302.70 0.7950092
302.80 0.7955416
302.90 0.796073
303.00 0.7966036
303.10 0.7971333
303.20 0.7976621
303.30 0.7981885
303.40 0.7986998
303.50 0.7992102
303.60 0.7997197
303.70 0.8002284
303.80 0.8007363
303.90 0.8012433
304.00 0.8017495
304.10 0.8022548
304.20 0.8027593
304.30 0.803263
304.40 0.8037658
304.50 0.8042678
304.60 0.8047912
304.70 0.8053163
304.80 0.8058404
304.90 0.8063637
305.00 0.8068861
305.10 0.8074077
305.20 0.8079284
305.30 0.8084483
305.40 0.8089673
305.50 0.8094854
305.60 0.8100027
305.70 0.8105192
305.80 0.8110348
305.90 0.8115495
306.00 0.8120634
306.10 0.8125765
306.20 0.8130887
306.30 0.8136001
306.40 0.8141053
306.50 0.814608
306.60 0.8151099
306.70 0.815611
306.80 0.8161113
306.90 0.8166107
307.00 0.8171093
307.10 0.8176071
307.20 0.818104
307.30 0.8186002
307.40 0.8190955
307.50 0.81959
307.60 0.8200837
307.70 0.8205766
307.80 0.8210686
307.90 0.8215599
308.00 0.8220503
308.10 0.8225399
308.20 0.8230288
308.30 0.8235168
308.40 0.824004
308.50 0.8244904
308.60 0.824976
308.70 0.8254608
308.80 0.825954
308.90 0.8264725
309.00 0.8269746
309.10 0.8274758
309.20 0.8279762
309.30 0.8284758
309.40 0.8289755
309.50 0.8294799
309.60 0.8299835
309.70 0.8304862
309.80 0.8309882
309.90 0.8314893
310.00 0.8319896
310.10 0.832489
310.20 0.8329877
310.30 0.8334855
310.40 0.8339697
310.50 0.8344392
310.60 0.834908
310.70 0.8353759
310.80 0.8358431
310.90 0.8363095
311.00 0.8368219
311.10 0.8373335
311.20 0.8378442
311.30 0.8383441
311.40 0.8388147
311.50 0.8392844
311.60 0.8397534
311.70 0.8402217
311.80 0.8406891
311.90 0.8411558
312.00 0.8416217
312.10 0.8420868
312.20 0.8426103
312.30 0.8431382
312.40 0.8436077
312.50 0.844041
312.60 0.8444764
312.70 0.8449111
312.80 0.8453451
312.90 0.8458112
313.00 0.8463122
313.10 0.8468123
313.20 0.8473117
313.30 0.8478079
313.40 0.8482969
313.50 0.8487851
313.60 0.8492725
313.70 0.8497591
313.80 0.8502449
313.90 0.8507299
314.00 0.8512141
314.10 0.8516671
314.20 0.8521194
314.30 0.8525709
314.40 0.8530217
314.50 0.8534717
314.60 0.8539209
314.70 0.8543695
314.80 0.8548153
314.90 0.8552802
315.00 0.855772
315.10 0.8562491
315.20 0.8567255
315.30 0.8572011
315.40 0.857676
315.50 0.85815
315.60 0.8586233
315.70 0.8590323
315.80 0.8594406
315.90 0.8598482
316.00 0.8602552
316.10 0.8607248
316.20 0.8611936
316.30 0.8616617
316.40 0.8622555
316.50 0.8625955
316.60 0.8630613
316.70 0.8635263
316.80 0.8639906
316.90 0.8644541
317.00 0.8649169
317.10 0.8653788
317.20 0.8658401
317.30 0.8663064
317.40 0.8667698
317.50 0.8672264
317.60 0.8676822
317.70 0.8681374
317.80 0.8685918
317.90 0.8690346
318.00 0.8692626
318.10 0.8697172
318.20 0.8701711
318.30 0.8706243
318.40 0.8710767
318.50 0.8715284
318.60 0.8720442
318.70 0.8724944
318.80 0.8728691
318.90 0.8733925
319.00 0.8737758
319.10 0.8742231
319.20 0.8746676
319.30 0.8751055
319.40 0.8755427
319.50 0.8759792
319.60 0.8764464
319.70 0.8768815
319.80 0.8773158
319.90 0.8777494
320.00 0.8781861
320.10 0.8786261
320.20 0.8790596
320.30 0.8794497
320.40 0.8799616
320.50 0.8803247
320.60 0.8808154
320.70 0.8812511
320.80 0.8816861
320.90 0.8821204
321.00 0.882554
321.10 0.8829868
321.20 0.8834471
321.30 0.8838734
321.40 0.8842991
321.50 0.884724
321.60 0.8851482
321.70 0.8855718
321.80 0.8860034
321.90 0.8864438
322.00 0.8868873
322.10 0.8873082
322.20 0.8877285
322.30 0.888148
322.40 0.8885669
322.50 0.888985
322.60 0.8894025
322.70 0.8898193
322.80 0.8902667
322.90 0.890686
323.00 0.8911047
323.10 0.8915227
323.20 0.89194
323.30 0.8923566
323.40 0.8927725
323.50 0.8931877
323.60 0.8936023
323.70 0.8940162
323.80 0.8944294
323.90 0.8948419
324.00 0.8952571
324.10 0.8956717
324.20 0.8960856
324.30 0.8964885
324.40 0.8968844
324.50 0.8973043
324.60 0.8977235
324.70 0.8981421
324.80 0.8985599
324.90 0.8989771
325.00 0.8993936
325.10 0.8998094
325.20 0.9002083
325.30 0.9005722
325.40 0.9009354
325.50 0.9013193
325.60 0.9017285
325.70 0.902137
325.80 0.9025449
325.90 0.9029518
326.00 0.9033579
326.10 0.9037633
326.20 0.904168
326.30 0.9045684
326.40 0.9049575
326.50 0.9053685
326.60 0.9057789
326.70 0.9061886
326.80 0.9065977
326.90 0.907006
327.00 0.9074137
327.10 0.9078208
327.20 0.9082271
327.30 0.9086328
327.40 0.9090378
327.50 0.9094422
327.60 0.9098459
327.70 0.910249
327.80 0.9106513
327.90 0.9110327
328.00 0.9114138
328.10 0.9118217
328.20 0.9122288
328.30 0.9126353
328.40 0.9130412
328.50 0.9134176
328.60 0.9137867
328.70 0.9141551
328.80 0.9145303
328.90 0.9149258
329.00 0.9153206
329.10 0.9157148
329.20 0.9161083
329.30 0.9165012
329.40 0.9168934
329.50 0.917285
329.60 0.9176759
329.70 0.9180662
329.80 0.9184559
329.90 0.9188449
330.00 0.9192297
330.10 0.9196095
330.20 0.9199887
330.30 0.9203673
330.40 0.9207507
330.50 0.9211395
330.60 0.9215276
330.70 0.9219152
330.80 0.922302
330.90 0.9226883
331.00 0.9230739
331.10 0.9234588
331.20 0.9238432
331.30 0.9242269
331.40 0.9246099
331.50 0.9249858
331.60 0.9253529
331.70 0.9257194
331.80 0.9260975
331.90 0.9264754
332.00 0.9268528
332.10 0.9272295
332.20 0.9276055
332.30 0.927981
332.40 0.9283558
332.50 0.9287301
332.60 0.9291037
332.70 0.9294766
332.80 0.929849
332.90 0.9302208
333.00 0.9305919
333.10 0.9309551
333.20 0.9313088
333.30 0.931662
333.40 0.9320145
333.50 0.9323664
333.60 0.9327178
333.70 0.9330685
333.80 0.9334187
333.90 0.9337683
334.00 0.9341173
334.10 0.9344827
334.20 0.9348683
334.30 0.9352533
334.40 0.9356376
334.50 0.9360214
334.60 0.9364045
334.70 0.9367543
334.80 0.9370611
334.90 0.9373634
335.00 0.9376651
335.10 0.9381433
335.20 0.9384852
335.30 0.9388998
335.40 0.9391279
335.50 0.9395806
335.60 0.9399483
335.70 0.9401861
335.80 0.9405246
335.90 0.9408877
336.00 0.9412811
336.10 0.9416739
336.20 0.942066
336.30 0.9424323
336.40 0.9427672
336.50 0.9431016
336.60 0.9434354
336.70 0.9437686
336.80 0.9441013
336.90 0.9444543
337.00 0.9448322
337.10 0.9452095
337.20 0.9455861
337.30 0.9459457
337.40 0.9462808
337.50 0.9466154
337.60 0.9469495
337.70 0.947283
337.80 0.9476159
337.90 0.9479526
338.00 0.9482939
338.10 0.9486346
338.20 0.9489748
338.30 0.9493144
338.40 0.9496525
338.50 0.9499875
338.60 0.9503219
338.70 0.9506558
338.80 0.9509891
338.90 0.9513219
339.00 0.9516541
339.10 0.9519858
339.20 0.9523169
339.30 0.9526499
339.40 0.9529859
339.50 0.9533197
339.60 0.9536509
339.70 0.9539815
339.80 0.9543115
339.90 0.954641
340.00 0.9549699
340.10 0.9552983
340.20 0.9556261
340.30 0.9559534
340.40 0.9562801
340.50 0.9566063
340.60 0.9569319
340.70 0.957257
340.80 0.9575831
340.90 0.9579108
341.00 0.9582423
341.10 0.9585784
341.20 0.9589139
341.30 0.9592489
341.40 0.9595833
341.50 0.9599171
341.60 0.9602504
341.70 0.9605832
341.80 0.9609032
341.90 0.9612077
342.00 0.9615118
342.10 0.9618153
342.20 0.9621616
342.30 0.9624376
342.40 0.9627054
342.50 0.9630489
342.60 0.9633918
342.70 0.9637342
342.80 0.964076
342.90 0.9644172
343.00 0.9647352
343.10 0.9650249
343.20 0.9653141
343.30 0.9656028
343.40 0.9659092
343.50 0.9662412
343.60 0.9665726
343.70 0.9669035
343.80 0.9672339
343.90 0.9675637
344.00 0.9678783
344.10 0.9681713
344.20 0.9684639
344.30 0.9687559
344.40 0.9690475
344.50 0.9693385
344.60 0.9697165
344.70 0.9700065
344.80 0.970296
344.90 0.970585
345.00 0.970999
345.10 0.971287
345.20 0.9715791
345.30 0.9718775
345.40 0.9721754
345.50 0.972453
345.60 0.9727336
345.70 0.9730539
345.80 0.9733736
345.90 0.9736929
346.00 0.9740115
346.10 0.9743297
346.20 0.9746328
346.30 0.9749147
346.40 0.9751961
346.50 0.9754771
346.60 0.9757575
346.70 0.9760374
346.80 0.9763169
346.90 0.9765959
347.00 0.9768744
347.10 0.9771524
347.20 0.9774381
347.30 0.9777352
347.40 0.9780318
347.50 0.9783279
347.60 0.9786235
347.70 0.9789186
347.80 0.9792132
347.90 0.9795073
348.00 0.9798009
348.10 0.980094
348.20 0.9803866
348.30 0.9806787
348.40 0.9809703
348.50 0.9812614
348.60 0.981552
348.70 0.9818974
348.80 0.9822273
348.90 0.9825104
349.00 0.982793
349.10 0.9830751
349.20 0.9833567
349.30 0.9836378
349.40 0.9839184
349.50 0.9841986
349.60 0.9844783
349.70 0.9847575
349.80 0.9850362
349.90 0.9853144
350.00 0.9855922
350.10 0.9858694
350.20 0.9861462
350.30 0.9864231
350.40 0.9867001
350.50 0.9869766
350.60 0.9872527
350.70 0.9875283
350.80 0.9878035
350.90 0.9880781
351.00 0.9883523
351.10 0.988626
351.20 0.9888992
351.30 0.989172
351.40 0.9894405
351.50 0.9897019
351.60 0.9899628
351.70 0.9902233
351.80 0.9904833
351.90 0.9907429
352.00 0.991002
352.10 0.9912606
352.20 0.9916431
352.30 0.9919845
352.40 0.9922471
352.50 0.9925093
352.60 0.992771
352.70 0.9930323
352.80 0.9932931
352.90 0.9935534
353.00 0.9938133
353.10 0.9940728
353.20 0.9943318
353.30 0.9945903
353.40 0.9948484
353.50 0.995107
353.60 0.9953654
353.70 0.9956233
353.80 0.9958807
353.90 0.9961354
354.00 0.9963856
354.10 0.9966353
354.20 0.9968846
354.30 0.9971334
354.40 0.9973818
354.50 0.9976298
354.60 0.9978773
354.70 0.9981244
354.80 0.9983759
354.90 0.998634
355.00 0.9988917
355.10 0.9991489
355.20 0.9994057
355.30 0.999681
355.40 0.9999559
355.50 1.00023
355.60 1.000504
355.70 1.000734
355.80 1.000945
355.90 1.001262
356.00 1.001556
356.10 1.001796
356.20 1.002035
356.30 1.002274
356.40 1.002512
356.50 1.00275
356.60 1.002988
356.70 1.003225
356.80 1.003462
356.90 1.003698
357.00 1.003934
357.10 1.004169
357.20 1.004404
357.30 1.004639
357.40 1.004884
357.50 1.005148
357.60 1.005411
357.70 1.005673
357.80 1.00592
357.90 1.006167
358.00 1.006403
358.10 1.006635
358.20 1.006867
358.30 1.007099
358.40 1.00733
358.50 1.007561
358.60 1.007792
358.70 1.008021
358.80 1.008251
358.90 1.00848
359.00 1.008742
359.10 1.009061
359.20 1.009363
359.30 1.009559
359.40 1.009755
359.50 1.00996
359.60 1.010168
359.70 1.010375
359.80 1.010629
359.90 1.010882
360.00 1.01113
360.10 1.011368
360.20 1.011607
360.30 1.011844
360.40 1.012082
360.50 1.012319
360.60 1.012453
360.70 1.012719
360.80 1.012984
360.90 1.013249
361.00 1.013466
361.10 1.013691
361.20 1.013842
361.30 1.014134
361.40 1.014242
361.50 1.014563
361.60 1.014784
361.70 1.014997
361.80 1.015204
361.90 1.015398
362.00 1.015592
362.10 1.015826
362.20 1.016069
362.30 1.016312
362.40 1.016555
362.50 1.016797
362.60 1.017039
362.70 1.01728
362.80 1.017425
362.90 1.01763
363.00 1.017834
363.10 1.018063
363.20 1.018291
363.30 1.018464
363.40 1.018815
363.50 1.018877
363.60 1.019179
363.70 1.019352
363.80 1.019685
363.90 1.019853
364.00 1.020021
364.10 1.020188
364.20 1.020356
364.30 1.020619
364.40 1.020907
364.50 1.021117
364.60 1.021316
364.70 1.021515
364.80 1.021714
364.90 1.021915
365.00 1.022115
365.10 1.022315
365.20 1.022515
365.30 1.022715
365.40 1.022914
365.50 1.023112
365.60 1.02331
365.70 1.023526
365.80 1.02374
365.90 1.023924
366.00 1.0241
366.10 1.02433
366.20 1.024559
366.30 1.024788
366.40 1.025017
366.50 1.025259
366.60 1.025461
366.70 1.025615
366.80 1.025769
366.90 1.025946
367.00 1.026165
367.10 1.026383
367.20 1.026601
367.30 1.026819
367.40 1.027036
367.50 1.027216
367.60 1.027386
367.70 1.027567
367.80 1.027747
367.90 1.027927
368.00 1.028146
368.10 1.028328
368.20 1.028528
368.30 1.028728
368.40 1.028928
368.50 1.029127
368.60 1.029326
368.70 1.029524
368.80 1.029723
368.90 1.029888
369.00 1.030038
369.10 1.030199
369.20 1.030391
369.30 1.030576
369.40 1.03076
369.50 1.030944
369.60 1.031125
369.70 1.031304
369.80 1.031497
369.90 1.03169
370.00 1.031882
370.10 1.032036
370.20 1.032216
370.30 1.032397
370.40 1.032673
370.50 1.032852
370.60 1.033034
370.70 1.033127
370.80 1.033302
370.90 1.033478
371.00 1.033661
371.10 1.033843
371.20 1.034109
371.30 1.034374
371.40 1.034464
371.50 1.034659
371.60 1.034853
371.70 1.035047
371.80 1.035241
371.90 1.035435
372.00 1.035565
372.10 1.035793
372.20 1.035967
372.30 1.036142
372.40 1.036316
372.50 1.03649
372.60 1.036663
372.70 1.036836
372.80 1.037005
372.90 1.037174
373.00 1.037349
373.10 1.037525
373.20 1.037696
373.30 1.037867
373.40 1.037947
373.50 1.038118
373.60 1.038288
373.70 1.038367
373.80 1.038553
373.90 1.038705
374.00 1.038874
374.10 1.039043
374.20 1.039211
374.30 1.039379
374.40 1.039614
374.50 1.039709
374.60 1.039875
374.70 1.040043
374.80 1.040211
374.90 1.040379
375.00 1.040544
375.10 1.04071
375.20 1.040875
375.30 1.041039
375.40 1.041203
375.50 1.041367
375.60 1.041531
375.70 1.041694
375.80 1.041857
375.90 1.04202
376.00 1.042175
376.10 1.042323
376.20 1.042471
376.30 1.042618
376.40 1.042765
376.50 1.042927
376.60 1.043112
376.70 1.043297
376.80 1.043466
376.90 1.043619
377.00 1.043771
377.10 1.043924
377.20 1.044079
377.30 1.044246
377.40 1.044413
377.50 1.044579
377.60 1.044721
377.70 1.044862
377.80 1.045004
377.90 1.045144
378.00 1.045354
378.10 1.045499
378.20 1.045643
378.30 1.045787
378.40 1.04593
378.50 1.046073
378.60 1.046216
378.70 1.046359
378.80 1.046501
378.90 1.046628
379.00 1.046729
379.10 1.046882
379.20 1.047034
379.30 1.047175
379.40 1.047304
379.50 1.047433
379.60 1.047584
379.70 1.047759
379.80 1.047891
379.90 1.048023
380.00 1.048154
380.10 1.048285
380.20 1.048416
380.30 1.048546
380.40 1.048676
380.50 1.048806
380.60 1.049056
380.70 1.04918
380.80 1.049304
380.90 1.049428
381.00 1.049551
381.10 1.049654
381.20 1.049805
381.30 1.049947
381.40 1.050181
381.50 1.050255
381.60 1.050371
381.70 1.050533
381.80 1.050716
381.90 1.050774
382.00 1.050831
382.10 1.051062
382.20 1.051223
382.30 1.051366
382.40 1.051492
382.50 1.051592
382.60 1.051692
382.70 1.051822
382.80 1.051971
382.90 1.052106
383.00 1.052241
383.10 1.052375
383.20 1.052506
383.30 1.052624
383.40 1.05272
383.50 1.052786
383.60 1.052987
383.70 1.053118
383.80 1.053249
383.90 1.05338
384.00 1.05351
384.10 1.05364
384.20 1.05377
384.30 1.053899
384.40 1.054029
384.50 1.05416
384.60 1.05429
384.70 1.05442
384.80 1.054533
384.90 1.054604
385.00 1.054716
385.10 1.054827
385.20 1.054934
385.30 1.055079
385.40 1.055216
385.50 1.055344
385.60 1.055472
385.70 1.055599
385.80 1.05571
385.90 1.055759
386.00 1.055872
386.10 1.056042
386.20 1.056151
386.30 1.056259
386.40 1.056334
386.50 1.056451
386.60 1.056558
386.70 1.056689
386.80 1.056819
386.90 1.05695
387.00 1.057004
387.10 1.057134
387.20 1.057285
387.30 1.057389
387.40 1.057476
387.50 1.057605
387.60 1.057736
387.70 1.057822
387.80 1.057908
387.90 1.057994
388.00 1.058111
388.10 1.058293
388.20 1.058353
388.30 1.058448
388.40 1.058543
388.50 1.058671
388.60 1.058802
388.70 1.058801
388.80 1.059021
388.90 1.059052
389.00 1.059215
389.10 1.059274
389.20 1.059414
389.30 1.059488
389.40 1.059629
389.50 1.05972
389.60 1.059782
389.70 1.059961
389.80 1.060041
389.90 1.06012
390.00 1.0602
390.10 1.060279
390.20 1.060358
390.30 1.060459
390.40 1.060584
390.50 1.060709
390.60 1.060834
390.70 1.060959
390.80 1.061031
390.90 1.06105
391.00 1.061164
391.10 1.061264
391.20 1.06137
391.30 1.061481
391.40 1.061572
391.50 1.061663
391.60 1.061754
391.70 1.061845
391.80 1.061935
391.90 1.062018
392.00 1.062103
392.10 1.062203
392.20 1.062295
392.30 1.062369
392.40 1.062496
392.50 1.062623
392.60 1.062657
392.70 1.06272
392.80 1.062835
392.90 1.062943
393.00 1.063012
393.10 1.06313
393.20 1.063289
393.30 1.063321
393.40 1.063384
393.50 1.063517
393.60 1.063503
393.70 1.063598
393.80 1.063807
393.90 1.063838
394.00 1.063889
394.10 1.06404
394.20 1.064079
394.30 1.064183
394.40 1.06432
394.50 1.064378
394.60 1.064474
394.70 1.064562
394.80 1.064619
394.90 1.064674
395.00 1.064677
395.10 1.064782
395.20 1.064847
395.30 1.064942
395.40 1.065036
395.50 1.065101
395.60 1.065155
395.70 1.065227
395.80 1.065349
395.90 1.065472
396.00 1.065588
396.10 1.065633
396.20 1.06566
396.30 1.065752
396.40 1.065831
396.50 1.065831
396.60 1.066044
396.70 1.066131
396.80 1.066168
396.90 1.06619
397.00 1.066279
397.10 1.066411
397.20 1.066437
397.30 1.066437
397.40 1.066506
397.50 1.066574
397.60 1.066644
397.70 1.066732
397.80 1.06682
397.90 1.066909
398.00 1.067001
398.10 1.067093
398.20 1.067167
398.30 1.06722
398.40 1.067273
398.50 1.067351
398.60 1.067356
398.70 1.067444
398.80 1.067559
398.90 1.067652
399.00 1.067706
399.10 1.067704
399.20 1.067789
399.30 1.067873
399.40 1.067958
399.50 1.068042
399.60 1.068093
399.70 1.068132
399.80 1.068171
399.90 1.068209
400.00 1.068249
400.10 1.068323
400.20 1.068445
400.30 1.068502
400.40 1.068531
400.50 1.068565
400.60 1.06865
400.70 1.068748
400.80 1.068802
400.90 1.068874
401.00 1.068913
401.10 1.068936
401.20 1.068986
401.30 1.069025
401.40 1.069118
401.50 1.069226
401.60 1.069332
401.70 1.069404
401.80 1.069404
401.90 1.069465
402.00 1.069555
402.10 1.069476
402.20 1.069591
402.30 1.069688
402.40 1.069659
402.50 1.069696
402.60 1.069806
402.70 1.069883
402.80 1.069898
402.90 1.069944
403.00 1.070037
403.10 1.070099
403.20 1.070205
403.30 1.070154
403.40 1.070241
403.50 1.070281
403.60 1.070299
403.70 1.070339
403.80 1.070448
403.90 1.070536
404.00 1.070546
404.10 1.070547
404.20 1.070637
404.30 1.070728
404.40 1.070747
404.50 1.07083
404.60 1.070842
404.70 1.070931
404.80 1.070884
404.90 1.070955
405.00 1.070944
405.10 1.071
405.20 1.071078
405.30 1.071155
405.40 1.071191
405.50 1.071228
405.60 1.071264
405.70 1.0713
405.80 1.071336
405.90 1.071372
406.00 1.071432
406.10 1.071491
406.20 1.07155
406.30 1.071609
406.40 1.071666
406.50 1.071585
406.60 1.071669
406.70 1.071726
406.80 1.071737
406.90 1.071789
407.00 1.071828
407.10 1.071867
407.20 1.071905
407.30 1.071944
407.40 1.071982
407.50 1.072021
407.60 1.072059
407.70 1.072097
407.80 1.072134
407.90 1.072172
408.00 1.072229
408.10 1.072245
408.20 1.072231
408.30 1.07225
408.40 1.072269
408.50 1.072346
408.60 1.072399
408.70 1.072451
408.80 1.072498
408.90 1.072503
409.00 1.07253
409.10 1.072558
409.20 1.072585
409.30 1.072612
409.40 1.072639
409.50 1.072649
409.60 1.072659
409.70 1.072673
409.80 1.072705
409.90 1.072738
410.00 1.0728
410.10 1.072905
410.20 1.07293
410.30 1.072936
410.40 1.072946
410.50 1.072967
410.60 1.072988
410.70 1.073009
410.80 1.073034
410.90 1.073058
411.00 1.073087
411.10 1.073116
411.20 1.073146
411.30 1.073168
411.40 1.07316
411.50 1.07322
411.60 1.073279
411.70 1.073327
411.80 1.073328
411.90 1.0733
412.00 1.073301
412.10 1.073414
412.20 1.073303
412.30 1.073357
412.40 1.07347
412.50 1.073486
412.60 1.073497
412.70 1.0735
412.80 1.0735
412.90 1.073546
413.00 1.073582
413.10 1.073592
413.20 1.073603
413.30 1.073613
413.40 1.073623
413.50 1.073619
413.60 1.073585
413.70 1.073621
413.80 1.073657
413.90 1.073692
414.00 1.073719
414.10 1.073717
414.20 1.07368
414.30 1.073693
414.40 1.073794
414.50 1.073818
414.60 1.073725
414.70 1.073796
414.80 1.073849
414.90 1.073847
415.00 1.073844
415.10 1.073841
415.20 1.073846
415.30 1.073878
415.40 1.07391
415.50 1.073941
415.60 1.07395
415.70 1.073958
415.80 1.073968
415.90 1.073981
416.00 1.073995
416.10 1.074007
416.20 1.074017
416.30 1.074027
416.40 1.074036
416.50 1.074045
416.60 1.07404
416.70 1.074031
416.80 1.073967
416.90 1.073953
417.00 1.074051
417.10 1.074014
417.20 1.074009
417.30 1.074003
417.40 1.074002
417.50 1.074001
417.60 1.073997
417.70 1.07398
417.80 1.073998
417.90 1.074016
418.00 1.074033
418.10 1.074051
418.20 1.074068
418.30 1.074086
418.40 1.074111
418.50 1.0741
418.60 1.074089
418.70 1.074078
418.80 1.074066
418.90 1.074055
419.00 1.074044
419.10 1.074032
419.20 1.074021
419.30 1.074009
419.40 1.074006
419.50 1.074002
419.60 1.074004
419.70 1.074026
419.80 1.074049
419.90 1.074065
420.00 1.074059
420.10 1.074054
420.20 1.074049
420.30 1.074043
420.40 1.074037
420.50 1.074032
420.60 1.074026
420.70 1.07402
420.80 1.074014
420.90 1.074008
421.00 1.074011
421.10 1.074015
421.20 1.074013
421.30 1.073991
421.40 1.07397
421.50 1.073948
