# Version 2.1 - nm, norm@500 to 1, cut digits, bergeron_He_5000_80.dat_5000
# Wavelength(nm)  Flambda(ergs/cm^s/s/nm)
300.00 0.1464687
300.10 0.146798
300.20 0.1471265
300.30 0.1474566
300.40 0.1478002
300.50 0.1481433
300.60 0.148486
300.70 0.1488281
300.80 0.1491697
300.90 0.1495109
301.00 0.1498516
301.10 0.1501918
301.20 0.1505315
301.30 0.1508707
301.40 0.1512095
301.50 0.1515477
301.60 0.1518855
301.70 0.1522228
301.80 0.1525596
301.90 0.152896
302.00 0.1532318
302.10 0.153584
302.20 0.1539375
302.30 0.1542906
302.40 0.1546432
302.50 0.1549952
302.60 0.1553468
302.70 0.1556978
302.80 0.1560484
302.90 0.1563984
303.00 0.156748
303.10 0.1570971
303.20 0.1574456
303.30 0.1577942
303.40 0.1581468
303.50 0.1584988
303.60 0.1588504
303.70 0.1592015
303.80 0.1595521
303.90 0.1599021
304.00 0.1602517
304.10 0.1606008
304.20 0.1609494
304.30 0.1612975
304.40 0.1616451
304.50 0.1619922
304.60 0.1623505
304.70 0.1627094
304.80 0.1630679
304.90 0.1634259
305.00 0.1637834
305.10 0.1641404
305.20 0.1644969
305.30 0.1648528
305.40 0.1652083
305.50 0.1655633
305.60 0.1659178
305.70 0.1662717
305.80 0.1666252
305.90 0.1669782
306.00 0.1673307
306.10 0.1676826
306.20 0.1680341
306.30 0.1683851
306.40 0.1687566
306.50 0.1691339
306.60 0.1695107
306.70 0.1698869
306.80 0.1702626
306.90 0.1706378
307.00 0.1710124
307.10 0.1713866
307.20 0.1717602
307.30 0.1721333
307.40 0.1725058
307.50 0.1728779
307.60 0.1732494
307.70 0.1736204
307.80 0.1739909
307.90 0.1743608
308.00 0.1747303
308.10 0.1750992
308.20 0.1754676
308.30 0.1758355
308.40 0.1762029
308.50 0.1765698
308.60 0.1769361
308.70 0.177302
308.80 0.1776681
308.90 0.1780359
309.00 0.1784002
309.10 0.178764
309.20 0.1791272
309.30 0.17949
309.40 0.1798541
309.50 0.1802293
309.60 0.180604
309.70 0.1809781
309.80 0.1813517
309.90 0.1817248
310.00 0.1820974
310.10 0.1824694
310.20 0.182841
310.30 0.183212
310.40 0.1835943
310.50 0.1839887
310.60 0.1843827
310.70 0.184776
310.80 0.1851689
310.90 0.1855612
311.00 0.18595
311.10 0.1863383
311.20 0.186726
311.30 0.1871132
311.40 0.1874996
311.50 0.1878854
311.60 0.1882707
311.70 0.1886555
311.80 0.1890397
311.90 0.1894235
312.00 0.1898066
312.10 0.1901893
312.20 0.1905699
312.30 0.1909438
312.40 0.1913172
312.50 0.1916923
312.60 0.1920753
312.70 0.1924578
312.80 0.1928398
312.90 0.1932262
313.00 0.1936176
313.10 0.1940084
313.20 0.1943987
313.30 0.1947889
313.40 0.1951802
313.50 0.1955709
313.60 0.1959611
313.70 0.1963508
313.80 0.1967399
313.90 0.1971284
314.00 0.1975165
314.10 0.1979102
314.20 0.1983033
314.30 0.1986959
314.40 0.199088
314.50 0.1994795
314.60 0.1998705
314.70 0.2002609
314.80 0.2006791
314.90 0.20113
315.00 0.2015293
315.10 0.2019211
315.20 0.2023123
315.30 0.202703
315.40 0.2030932
315.50 0.2034828
315.60 0.2038719
315.70 0.2042766
315.80 0.2046808
315.90 0.2050844
316.00 0.2054875
316.10 0.20589
316.20 0.206292
316.30 0.206645
316.40 0.2070943
316.50 0.2074463
316.60 0.2078944
316.70 0.2082936
316.80 0.2086923
316.90 0.2090904
317.00 0.209488
317.10 0.2098851
317.20 0.2102816
317.30 0.2107013
317.40 0.2111176
317.50 0.2115253
317.60 0.2119325
317.70 0.2123391
317.80 0.2127451
317.90 0.2131781
318.00 0.2135773
318.10 0.2139928
318.20 0.2144077
318.30 0.2148221
318.40 0.2152296
318.50 0.215619
318.60 0.2159955
318.70 0.2164315
318.80 0.2168383
318.90 0.2172207
319.00 0.2176655
319.10 0.2180991
319.20 0.2185277
319.30 0.2189431
319.40 0.219358
319.50 0.2197723
319.60 0.2201594
319.70 0.2205726
319.80 0.2209852
319.90 0.2213973
320.00 0.221817
320.10 0.2222449
320.20 0.2226218
320.30 0.2230538
320.40 0.2234423
320.50 0.2238774
320.60 0.2242818
320.70 0.2247063
320.80 0.2251303
320.90 0.2255537
321.00 0.2259765
321.10 0.2263987
321.20 0.2267917
321.30 0.227218
321.40 0.2276438
321.50 0.228069
321.60 0.2284935
321.70 0.2289176
321.80 0.2293422
321.90 0.2297674
322.00 0.2302004
322.10 0.2306258
322.20 0.2310506
322.30 0.2314748
322.40 0.2318985
322.50 0.2323216
322.60 0.2327441
322.70 0.2331661
322.80 0.2335588
322.90 0.233991
323.00 0.2344226
323.10 0.2348536
323.20 0.235284
323.30 0.2357139
323.40 0.2361432
323.50 0.2365719
323.60 0.237
323.70 0.2374276
323.80 0.2378546
323.90 0.238281
324.00 0.2387007
324.10 0.2391198
324.20 0.2395384
324.30 0.2399626
324.40 0.2404023
324.50 0.2408396
324.60 0.2412764
324.70 0.2417125
324.80 0.2421481
324.90 0.2425831
325.00 0.2430175
325.10 0.2434513
325.20 0.2438816
325.30 0.2443051
325.40 0.244728
325.50 0.2451617
325.60 0.2456087
325.70 0.2460552
325.80 0.2465011
325.90 0.2469398
326.00 0.2473707
326.10 0.2478011
326.20 0.2482309
326.30 0.2486589
326.40 0.2490831
326.50 0.2495244
326.60 0.249965
326.70 0.250405
326.80 0.2508444
326.90 0.2512833
327.00 0.2517216
327.10 0.2521593
327.20 0.2525964
327.30 0.2530329
327.40 0.2534689
327.50 0.2539042
327.60 0.254339
327.70 0.2547732
327.80 0.2552069
327.90 0.2556509
328.00 0.2561015
328.10 0.2565458
328.20 0.2569896
328.30 0.2574327
328.40 0.2578753
328.50 0.258323
328.60 0.2587715
328.70 0.2592194
328.80 0.2596671
328.90 0.260115
329.00 0.2605623
329.10 0.2610091
329.20 0.2614552
329.30 0.2619008
329.40 0.2623458
329.50 0.2627902
329.60 0.2632339
329.70 0.2636772
329.80 0.2641198
329.90 0.2645618
330.00 0.2650144
330.10 0.2654801
330.20 0.2659451
330.30 0.2664095
330.40 0.2668664
330.50 0.2673152
330.60 0.2677634
330.70 0.268211
330.80 0.268658
330.90 0.2691044
331.00 0.2695503
331.10 0.2699955
331.20 0.2704402
331.30 0.2708843
331.40 0.2713277
331.50 0.2717841
331.60 0.2722562
331.70 0.2727277
331.80 0.2731882
331.90 0.2736476
332.00 0.2741065
332.10 0.2745647
332.20 0.2750224
332.30 0.2754794
332.40 0.2759359
332.50 0.2763917
332.60 0.276847
332.70 0.2773016
332.80 0.2777557
332.90 0.2782091
333.00 0.278662
333.10 0.279118
333.20 0.2795779
333.30 0.2800371
333.40 0.2804958
333.50 0.2809539
333.60 0.2814114
333.70 0.2818683
333.80 0.2823245
333.90 0.2827802
334.00 0.2832353
334.10 0.2836885
334.20 0.2841395
334.30 0.2845899
334.40 0.2850398
334.50 0.285489
334.60 0.2859377
334.70 0.2864062
334.80 0.2868834
334.90 0.2873377
335.00 0.2877913
335.10 0.2883
335.20 0.2887737
335.30 0.2892469
335.40 0.2896657
335.50 0.2901054
335.60 0.2905768
335.70 0.2910475
335.80 0.2915177
335.90 0.2919872
336.00 0.2924561
336.10 0.2929244
336.20 0.2933921
336.30 0.2938592
336.40 0.2943257
336.50 0.2947915
336.60 0.2952568
336.70 0.2957215
336.80 0.2961855
336.90 0.2966556
337.00 0.2971332
337.10 0.2976102
337.20 0.2980866
337.30 0.2985581
337.40 0.2990228
337.50 0.2994869
337.60 0.2999503
337.70 0.3004132
337.80 0.3008755
337.90 0.3013449
338.00 0.3018231
338.10 0.3023006
338.20 0.3027775
338.30 0.3032538
338.40 0.30373
338.50 0.3042066
338.60 0.3046826
338.70 0.305158
338.80 0.3056328
338.90 0.3061069
339.00 0.3065805
339.10 0.3070534
339.20 0.3075257
339.30 0.3079934
339.40 0.3084547
339.50 0.3089246
339.60 0.3094053
339.70 0.3098854
339.80 0.3103648
339.90 0.3108436
340.00 0.3113218
340.10 0.3117994
340.20 0.3122764
340.30 0.3127528
340.40 0.3132285
340.50 0.3137036
340.60 0.3141782
340.70 0.3146521
340.80 0.315117
340.90 0.3155692
341.00 0.3160339
341.10 0.3165138
341.20 0.3169931
341.30 0.3174718
341.40 0.3179498
341.50 0.3184273
341.60 0.3189041
341.70 0.3193804
341.80 0.3198647
341.90 0.3203592
342.00 0.320853
342.10 0.3213462
342.20 0.3218267
342.30 0.3222852
342.40 0.3227605
342.50 0.32325
342.60 0.323739
342.70 0.3242273
342.80 0.324715
342.90 0.3252021
343.00 0.3256866
343.10 0.3261681
343.20 0.3266489
343.30 0.3271292
343.40 0.3276087
343.50 0.3280876
343.60 0.3285659
343.70 0.3290435
343.80 0.3295205
343.90 0.329997
344.00 0.3304839
344.10 0.3309864
344.20 0.3314882
344.30 0.3319893
344.40 0.3324731
344.50 0.3329323
344.60 0.3334556
344.70 0.3339155
344.80 0.3343729
344.90 0.3348682
345.00 0.3353817
345.10 0.3358372
345.20 0.336307
345.30 0.3367975
345.40 0.3372874
345.50 0.3377843
345.60 0.3382847
345.70 0.3387771
345.80 0.3392688
345.90 0.33976
346.00 0.3402505
346.10 0.3407404
346.20 0.341233
346.30 0.3417297
346.40 0.3422258
346.50 0.3427212
346.60 0.3432161
346.70 0.3437103
346.80 0.3442039
346.90 0.3446968
347.00 0.3451891
347.10 0.3456808
347.20 0.3461742
347.30 0.3466702
347.40 0.3471655
347.50 0.3476602
347.60 0.3481543
347.70 0.3486478
347.80 0.3491407
347.90 0.3496329
348.00 0.3501245
348.10 0.3506155
348.20 0.3511058
348.30 0.3515956
348.40 0.3520847
348.50 0.3525732
348.60 0.3530611
348.70 0.3535616
348.80 0.3540628
348.90 0.3545593
349.00 0.3550551
349.10 0.3555502
349.20 0.3560448
349.30 0.3565387
349.40 0.357032
349.50 0.3575247
349.60 0.3580168
349.70 0.3585082
349.80 0.358999
349.90 0.3594892
350.00 0.3599788
350.10 0.3604677
350.20 0.3609561
350.30 0.3614489
350.40 0.3619486
350.50 0.3624476
350.60 0.362946
350.70 0.3634438
350.80 0.3639409
350.90 0.3644375
351.00 0.3649334
351.10 0.3654286
351.20 0.3659233
351.30 0.3664173
351.40 0.3669151
351.50 0.3674201
351.60 0.3679245
351.70 0.3684282
351.80 0.3689313
351.90 0.3694338
352.00 0.3699356
352.10 0.3704368
352.20 0.3709571
352.30 0.3714704
352.40 0.3719708
352.50 0.3724707
352.60 0.3729699
352.70 0.3734684
352.80 0.3739664
352.90 0.3744637
353.00 0.3749604
353.10 0.3754565
353.20 0.375952
353.30 0.3764468
353.40 0.376941
353.50 0.3774411
353.60 0.3779421
353.70 0.3784425
353.80 0.3789423
353.90 0.3794456
354.00 0.3799558
354.10 0.3804654
354.20 0.3809743
354.30 0.3814826
354.40 0.3819903
354.50 0.3824973
354.60 0.3830037
354.70 0.3835095
354.80 0.3840118
354.90 0.3845095
355.00 0.3850066
355.10 0.3855031
355.20 0.385999
355.30 0.3865107
355.40 0.3870219
355.50 0.3875323
355.60 0.3880422
355.70 0.3885477
355.80 0.3890509
355.90 0.3895393
356.00 0.3900446
356.10 0.39056
356.20 0.3910747
356.30 0.3915888
356.40 0.3921022
356.50 0.392615
356.60 0.3931272
356.70 0.3936387
356.80 0.3941496
356.90 0.3946598
357.00 0.3951694
357.10 0.3956784
357.20 0.3961868
357.30 0.3966945
357.40 0.3971988
357.50 0.3976975
357.60 0.3981956
357.70 0.3986931
357.80 0.3991916
357.90 0.3996895
358.00 0.4002003
358.10 0.4007139
358.20 0.4012269
358.30 0.4017392
358.40 0.4022509
358.50 0.4027619
358.60 0.4032724
358.70 0.4037821
358.80 0.4042913
358.90 0.4047998
359.00 0.4053103
359.10 0.4058247
359.20 0.4063386
359.30 0.4068521
359.40 0.4073651
359.50 0.4078637
359.60 0.4083583
359.70 0.4088523
359.80 0.4093611
359.90 0.4098692
360.00 0.4103822
360.10 0.4109046
360.20 0.4114263
360.30 0.4119473
360.40 0.4124677
360.50 0.4129875
360.60 0.4134802
360.70 0.4139945
360.80 0.4145082
360.90 0.4150213
361.00 0.4155528
361.10 0.4160587
361.20 0.4165864
361.30 0.4170673
361.40 0.4175772
361.50 0.4180865
361.60 0.4185952
361.70 0.4191032
361.80 0.4196148
361.90 0.4201331
362.00 0.4206508
362.10 0.4211833
362.20 0.4217102
362.30 0.4222209
362.40 0.422731
362.50 0.4232405
362.60 0.4237493
362.70 0.424236
362.80 0.4247535
362.90 0.4252869
363.00 0.4258197
363.10 0.4263226
363.20 0.4268246
363.30 0.4273233
363.40 0.4278391
363.50 0.4283908
363.60 0.4288869
363.70 0.4294069
363.80 0.4298774
363.90 0.4304065
364.00 0.430935
364.10 0.4314628
364.20 0.43199
364.30 0.4324888
364.40 0.43298
364.50 0.4334784
364.60 0.4340143
364.70 0.4345496
364.80 0.4350842
364.90 0.4355723
365.00 0.4360599
365.10 0.4366194
365.20 0.4371057
365.30 0.4376638
365.40 0.4381489
365.50 0.4386696
365.60 0.4391896
365.70 0.4397057
365.80 0.4402212
365.90 0.4407419
366.00 0.4412634
366.10 0.4417849
366.20 0.4423059
366.30 0.4428262
366.40 0.4433458
366.50 0.4437985
366.60 0.4443551
366.70 0.4448759
366.80 0.4453959
366.90 0.4459155
367.00 0.4464348
367.10 0.4469534
367.20 0.4474713
367.30 0.4479886
367.40 0.4485053
367.50 0.4490182
367.60 0.4495296
367.70 0.4500383
367.80 0.4505464
367.90 0.4510539
368.00 0.451589
368.10 0.4520863
368.20 0.452607
368.30 0.4531278
368.40 0.4536479
368.50 0.4541674
368.60 0.4546862
368.70 0.4552044
368.80 0.455722
368.90 0.4562381
369.00 0.4567712
369.10 0.4573084
369.20 0.4577783
369.30 0.4583107
369.40 0.4588424
369.50 0.4593735
369.60 0.4599001
369.70 0.4604261
369.80 0.460942
369.90 0.4614572
370.00 0.4619718
370.10 0.4624691
370.20 0.4629951
370.30 0.4635211
370.40 0.4640472
370.50 0.4645359
370.60 0.4650592
370.70 0.4655563
370.80 0.4660753
370.90 0.4665938
371.00 0.4671192
371.10 0.4676441
371.20 0.4681607
371.30 0.4686766
371.40 0.4692003
371.50 0.4697179
371.60 0.4702348
371.70 0.4707512
371.80 0.4712669
371.90 0.471782
372.00 0.472325
372.10 0.4728198
372.20 0.4733456
372.30 0.4738707
372.40 0.4743953
372.50 0.4749191
372.60 0.4754424
372.70 0.475965
372.80 0.4764716
372.90 0.4769776
373.00 0.4775251
373.10 0.4780724
373.20 0.4785803
373.30 0.4790876
373.40 0.4795942
373.50 0.480135
373.60 0.4806404
373.70 0.4811798
373.80 0.4816884
373.90 0.4821876
374.00 0.4827079
374.10 0.4832275
374.20 0.4837465
374.30 0.4842649
374.40 0.4847827
374.50 0.4853259
374.60 0.485845
374.70 0.4863629
374.80 0.4868801
374.90 0.4873967
375.00 0.4879164
375.10 0.4884356
375.20 0.4889541
375.30 0.4894785
375.40 0.4900023
375.50 0.4905255
375.60 0.4910481
375.70 0.49157
375.80 0.4920913
375.90 0.492612
376.00 0.4930953
376.10 0.4936224
376.20 0.4941493
376.30 0.4946756
376.40 0.4952012
376.50 0.4957217
376.60 0.4962347
376.70 0.496747
376.80 0.4972682
376.90 0.4977981
377.00 0.4983273
377.10 0.498856
377.20 0.4993821
377.30 0.4999008
377.40 0.5004188
377.50 0.5009362
377.60 0.5014527
377.70 0.5019685
377.80 0.5024838
377.90 0.5029984
378.00 0.5035306
378.10 0.5040557
378.20 0.5045799
378.30 0.5051034
378.40 0.5056262
378.50 0.5061485
378.60 0.5066701
378.70 0.5071912
378.80 0.5077115
378.90 0.5082177
379.00 0.5086979
379.10 0.5092373
379.20 0.5097761
379.30 0.5103012
379.40 0.5108128
379.50 0.5113237
379.60 0.511838
379.70 0.5123584
379.80 0.5128801
379.90 0.5134011
380.00 0.5139215
380.10 0.5144413
380.20 0.5149605
380.30 0.5154791
380.40 0.515997
380.50 0.5165143
380.60 0.517034
380.70 0.5175513
380.80 0.518068
380.90 0.518584
381.00 0.5190995
381.10 0.5196181
381.20 0.5201453
381.30 0.5206701
381.40 0.521212
381.50 0.5217228
381.60 0.5222322
381.70 0.5227479
381.80 0.5232975
381.90 0.5237863
382.00 0.5242745
382.10 0.5248284
382.20 0.5253684
382.30 0.5258879
382.40 0.5264054
382.50 0.52692
382.60 0.5274341
382.70 0.5279288
382.80 0.5284274
382.90 0.5289513
383.00 0.5294745
383.10 0.5299971
383.20 0.5305196
383.30 0.5310431
383.40 0.5315658
383.50 0.5320874
383.60 0.5326049
383.70 0.5331238
383.80 0.5336421
383.90 0.5341598
384.00 0.5346769
384.10 0.5351933
384.20 0.5357092
384.30 0.5362244
384.40 0.5367467
384.50 0.537276
384.60 0.5378046
384.70 0.5383327
384.80 0.5388501
384.90 0.5393384
385.00 0.5398426
385.10 0.5403471
385.20 0.5408797
385.30 0.5413929
385.40 0.541911
385.50 0.5424342
385.60 0.5429567
385.70 0.5434786
385.80 0.5439989
385.90 0.5445148
386.00 0.5450228
386.10 0.5455247
386.20 0.5460436
386.30 0.5465619
386.40 0.5471126
386.50 0.5476346
386.60 0.5481366
386.70 0.5486618
386.80 0.5491865
386.90 0.5497105
387.00 0.5501935
387.10 0.5507163
387.20 0.5512318
387.30 0.55176
387.40 0.5522789
387.50 0.5527861
387.60 0.553321
387.70 0.5538401
387.80 0.5543586
387.90 0.5548765
388.00 0.5553821
388.10 0.5559069
388.20 0.5563987
388.30 0.5569066
388.40 0.5574138
388.50 0.5579379
388.60 0.5584803
388.70 0.5590109
388.80 0.5595264
388.90 0.5600383
389.00 0.5605342
389.10 0.5610437
389.20 0.5615477
389.30 0.5620754
389.40 0.562572
389.50 0.5630756
389.60 0.5635924
389.70 0.5641172
389.80 0.5646399
389.90 0.5651621
390.00 0.5656835
390.10 0.5662044
390.20 0.5667247
390.30 0.567242
390.40 0.5677561
390.50 0.5682695
390.60 0.5687824
390.70 0.5692946
390.80 0.5697984
390.90 0.5702939
391.00 0.5708099
391.10 0.5713163
391.20 0.571834
391.30 0.5723704
391.40 0.5728779
391.50 0.5733847
391.60 0.573891
391.70 0.5743967
391.80 0.5749018
391.90 0.5754187
392.00 0.5759465
392.10 0.5764699
392.20 0.5769864
392.30 0.5774715
392.40 0.5779885
392.50 0.5785417
392.60 0.5790316
392.70 0.5795209
392.80 0.5800724
392.90 0.5805466
393.00 0.5810842
393.10 0.5815923
393.20 0.5820712
393.30 0.5825883
393.40 0.5831098
393.50 0.5836402
393.60 0.5841331
393.70 0.584679
393.80 0.5851647
393.90 0.5856782
394.00 0.5861906
394.10 0.5867055
394.20 0.5872295
394.30 0.5877481
394.40 0.5882359
394.50 0.5887361
394.60 0.5892361
394.70 0.5897414
394.80 0.5902683
394.90 0.5907937
395.00 0.5912869
395.10 0.5918027
395.20 0.5923153
395.30 0.5928223
395.40 0.5933287
395.50 0.5938336
395.60 0.5943375
395.70 0.5948442
395.80 0.5953593
395.90 0.5958738
396.00 0.5963888
396.10 0.596908
396.20 0.5974079
396.30 0.5978989
396.40 0.5984284
396.50 0.5989474
396.60 0.5994242
396.70 0.59996
396.80 0.6004563
396.90 0.6009457
397.00 0.6014778
397.10 0.6019929
397.20 0.6025083
397.30 0.6029947
397.40 0.6035004
397.50 0.6040054
397.60 0.6045094
397.70 0.605008
397.80 0.605506
397.90 0.6060108
398.00 0.6065352
398.10 0.6070589
398.20 0.607569
398.30 0.6080637
398.40 0.6085564
398.50 0.6090008
398.60 0.6093755
398.70 0.6099957
398.80 0.6106829
398.90 0.6111796
399.00 0.6113234
399.10 0.6123071
399.20 0.6128358
399.30 0.6133638
399.40 0.6138913
399.50 0.6144182
399.60 0.6149004
399.70 0.6153658
399.80 0.6158307
399.90 0.616295
400.00 0.6167635
400.10 0.617385
400.20 0.6177511
400.30 0.6181955
400.40 0.6186023
400.50 0.6194186
400.60 0.6197695
400.70 0.620364
400.80 0.6207952
400.90 0.6212906
401.00 0.6215208
401.10 0.6223775
401.20 0.622539
401.30 0.6232563
401.40 0.6237358
401.50 0.624092
401.60 0.6244554
401.70 0.6250669
401.80 0.6254751
401.90 0.6262322
402.00 0.6267992
402.10 0.6270642
402.20 0.6279485
402.30 0.6282341
402.40 0.6289271
402.50 0.6294014
402.60 0.6297176
402.70 0.6299695
402.80 0.6305511
402.90 0.6312513
403.00 0.6318316
403.10 0.6322921
403.20 0.6326011
403.30 0.6332024
403.40 0.6336021
403.50 0.6342499
403.60 0.6349328
403.70 0.6351629
403.80 0.635472
403.90 0.6361682
404.00 0.6365908
404.10 0.6374607
404.20 0.6377375
404.30 0.6380139
404.40 0.6386126
404.50 0.6391569
404.60 0.6397275
404.70 0.6402974
404.80 0.6406058
404.90 0.6414353
405.00 0.6415815
405.10 0.6420653
405.20 0.6425902
405.30 0.6431145
405.40 0.6435821
405.50 0.6440492
405.60 0.6445157
405.70 0.6449817
405.80 0.6454472
405.90 0.6459121
406.00 0.6464206
406.10 0.6469285
406.20 0.6474358
406.30 0.6479426
406.40 0.6484825
406.50 0.6489859
406.60 0.6495417
406.70 0.6499535
406.80 0.6505474
406.90 0.6509461
407.00 0.6514439
407.10 0.6519411
407.20 0.6524378
407.30 0.6529339
407.40 0.6534294
407.50 0.6539244
407.60 0.6544188
407.70 0.6549126
407.80 0.6554059
407.90 0.6559028
408.00 0.656534
408.10 0.6569741
408.20 0.6574087
408.30 0.6580319
408.40 0.6586543
408.50 0.6591666
408.60 0.659646
408.70 0.6601249
408.80 0.6605882
408.90 0.6609572
409.00 0.661411
409.10 0.6618644
409.20 0.6623172
409.30 0.6627695
409.40 0.6632225
409.50 0.663714
409.60 0.664205
409.70 0.6646918
409.80 0.6651639
409.90 0.6656451
410.00 0.6664379
410.10 0.6665923
410.20 0.6670818
410.30 0.6676546
410.40 0.6681927
410.50 0.6686226
410.60 0.669052
410.70 0.6695158
410.80 0.6701182
410.90 0.67072
411.00 0.6712363
411.10 0.6717205
411.20 0.6722043
411.30 0.672721
411.40 0.673366
411.50 0.6738463
411.60 0.674326
411.70 0.674758
411.80 0.6750008
411.90 0.6754144
412.00 0.6759415
412.10 0.6766104
412.20 0.6769938
412.30 0.6774292
412.40 0.6780644
412.50 0.6784461
412.60 0.6789291
412.70 0.6794697
412.80 0.6800241
412.90 0.6803964
413.00 0.6808017
413.10 0.6812595
413.20 0.6817167
413.30 0.6821735
413.40 0.6826297
413.50 0.683164
413.60 0.6838988
413.70 0.6842748
413.80 0.6846503
413.90 0.6850254
414.00 0.6854339
414.10 0.6859492
414.20 0.6865992
414.30 0.6871132
414.40 0.6877393
414.50 0.6881265
414.60 0.6885168
414.70 0.6890286
414.80 0.6895398
414.90 0.6900504
415.00 0.6905605
415.10 0.69107
415.20 0.6915447
415.30 0.6919107
415.40 0.6922762
415.50 0.6926445
415.60 0.6931142
415.70 0.6935834
415.80 0.6940804
415.90 0.6946666
416.00 0.6952521
416.10 0.6958139
416.20 0.6962832
416.30 0.6967519
416.40 0.6972201
416.50 0.6976888
416.60 0.69819
416.70 0.6986656
416.80 0.6992133
416.90 0.6994079
417.00 0.6998861
417.10 0.7006877
417.20 0.7011856
417.30 0.7016815
417.40 0.7021301
417.50 0.7025783
417.60 0.702964
417.70 0.7031121
