# Version 2.1 - nm, norm@500 to 1, cut digits, bergeron_He_8000_80.dat_8000
# Wavelength(nm)  Flambda(ergs/cm^s/s/nm)
300.00 1.307879
300.10 1.30836
300.20 1.308859
300.30 1.309332
300.40 1.309635
300.50 1.309936
300.60 1.310237
300.70 1.310537
300.80 1.310837
300.90 1.311135
301.00 1.311434
301.10 1.311731
301.20 1.312028
301.30 1.312324
301.40 1.312619
301.50 1.312914
301.60 1.313208
301.70 1.313501
301.80 1.313794
301.90 1.314086
302.00 1.314377
302.10 1.31459
302.20 1.314793
302.30 1.314996
302.40 1.315199
302.50 1.315401
302.60 1.315602
302.70 1.315803
302.80 1.316003
302.90 1.316203
303.00 1.316402
303.10 1.3166
303.20 1.316798
303.30 1.317011
303.40 1.317362
303.50 1.317712
303.60 1.318061
303.70 1.31841
303.80 1.318758
303.90 1.319105
304.00 1.319451
304.10 1.319797
304.20 1.320142
304.30 1.320486
304.40 1.32083
304.50 1.321172
304.60 1.321402
304.70 1.321619
304.80 1.321836
304.90 1.322052
305.00 1.322267
305.10 1.322482
305.20 1.322696
305.30 1.32291
305.40 1.323123
305.50 1.323336
305.60 1.323548
305.70 1.323759
305.80 1.32397
305.90 1.32418
306.00 1.32439
306.10 1.324599
306.20 1.324808
306.30 1.325016
306.40 1.325238
306.50 1.325463
306.60 1.325688
306.70 1.325912
306.80 1.326135
306.90 1.326358
307.00 1.326581
307.10 1.326803
307.20 1.327024
307.30 1.327245
307.40 1.327465
307.50 1.327684
307.60 1.327903
307.70 1.328122
307.80 1.32834
307.90 1.328557
308.00 1.328774
308.10 1.32899
308.20 1.329206
308.30 1.329421
308.40 1.329635
308.50 1.329849
308.60 1.330063
308.70 1.330275
308.80 1.330455
308.90 1.330543
309.00 1.330911
309.10 1.331278
309.20 1.331645
309.30 1.332011
309.40 1.332359
309.50 1.332608
309.60 1.332856
309.70 1.333103
309.80 1.33335
309.90 1.333597
310.00 1.333842
310.10 1.334087
310.20 1.334332
310.30 1.334576
310.40 1.334808
310.50 1.335028
310.60 1.335247
310.70 1.335466
310.80 1.335684
310.90 1.335902
311.00 1.335989
311.10 1.336075
311.20 1.336162
311.30 1.336272
311.40 1.336453
311.50 1.336633
311.60 1.336813
311.70 1.336992
311.80 1.33717
311.90 1.337348
312.00 1.337526
312.10 1.337703
312.20 1.337673
312.30 1.337856
312.40 1.338298
312.50 1.338799
312.60 1.338884
312.70 1.338968
312.80 1.339052
312.90 1.339215
313.00 1.339463
313.10 1.339711
313.20 1.339958
313.30 1.340167
313.40 1.340272
313.50 1.340376
313.60 1.34048
313.70 1.340584
313.80 1.340687
313.90 1.340789
314.00 1.340892
314.10 1.341084
314.20 1.341275
314.30 1.341466
314.40 1.341657
314.50 1.341846
314.60 1.342036
314.70 1.342225
314.80 1.342526
314.90 1.342814
315.00 1.342738
315.10 1.343035
315.20 1.343331
315.30 1.343626
315.40 1.343921
315.50 1.344215
315.60 1.344509
315.70 1.344516
315.80 1.344522
315.90 1.344528
316.00 1.344534
316.10 1.344825
316.20 1.345116
316.30 1.345405
316.40 1.345125
316.50 1.345414
316.60 1.346271
316.70 1.34599
316.80 1.345708
316.90 1.345995
317.00 1.346281
317.10 1.346566
317.20 1.346851
317.30 1.346654
317.40 1.346563
317.50 1.346778
317.60 1.346991
317.70 1.347205
317.80 1.347418
317.90 1.348055
318.00 1.348199
318.10 1.348197
318.20 1.348195
318.30 1.348192
318.40 1.348263
318.50 1.348541
318.60 1.348526
318.70 1.348803
318.80 1.349079
318.90 1.349355
319.00 1.349776
319.10 1.34949
319.20 1.349367
319.30 1.349706
319.40 1.350044
319.50 1.350381
319.60 1.350381
319.70 1.350422
319.80 1.350463
319.90 1.350504
320.00 1.350654
320.10 1.350924
320.20 1.351157
320.30 1.350927
320.40 1.351195
320.50 1.351463
320.60 1.351152
320.70 1.351419
320.80 1.351685
320.90 1.35195
321.00 1.352215
321.10 1.352479
321.20 1.352461
321.30 1.352575
321.40 1.352689
321.50 1.352802
321.60 1.352915
321.70 1.353028
321.80 1.35304
321.90 1.352943
322.00 1.353701
322.10 1.353818
322.20 1.353934
322.30 1.35405
322.40 1.354166
322.50 1.354281
322.60 1.354396
322.70 1.35451
322.80 1.35442
322.90 1.354552
323.00 1.354685
323.10 1.354817
323.20 1.354948
323.30 1.35508
323.40 1.35521
323.50 1.355341
323.60 1.355471
323.70 1.3556
323.80 1.355729
323.90 1.355858
324.00 1.355892
324.10 1.355927
324.20 1.355961
324.30 1.35613
324.40 1.356463
324.50 1.356557
324.60 1.35665
324.70 1.356742
324.80 1.356835
324.90 1.356927
325.00 1.357018
325.10 1.357109
325.20 1.357144
325.30 1.357061
325.40 1.356978
325.50 1.357045
325.60 1.357296
325.70 1.357546
325.80 1.357796
325.90 1.357892
326.00 1.357822
326.10 1.357752
326.20 1.357681
326.30 1.357634
326.40 1.357652
326.50 1.357779
326.60 1.357905
326.70 1.35803
326.80 1.358156
326.90 1.358281
327.00 1.358405
327.10 1.358529
327.20 1.358653
327.30 1.358776
327.40 1.358899
327.50 1.359021
327.60 1.359143
327.70 1.359265
327.80 1.359386
327.90 1.359546
328.00 1.359694
328.10 1.359779
328.20 1.359863
328.30 1.359948
328.40 1.360031
328.50 1.3601
328.60 1.360165
328.70 1.36023
328.80 1.360295
328.90 1.360361
329.00 1.360426
329.10 1.360491
329.20 1.360556
329.30 1.360621
329.40 1.360685
329.50 1.360749
329.60 1.360812
329.70 1.360875
329.80 1.360938
329.90 1.361001
330.00 1.36102
330.10 1.360987
330.20 1.360953
330.30 1.360919
330.40 1.360961
330.50 1.361084
330.60 1.361207
330.70 1.361329
330.80 1.361452
330.90 1.361573
331.00 1.361695
331.10 1.361816
331.20 1.361936
331.30 1.362056
331.40 1.362176
331.50 1.362247
331.60 1.362259
331.70 1.36227
331.80 1.362293
331.90 1.362315
332.00 1.362337
332.10 1.362359
332.20 1.36238
332.30 1.362402
332.40 1.362423
332.50 1.362443
332.60 1.362464
332.70 1.362484
332.80 1.362504
332.90 1.362523
333.00 1.362543
333.10 1.362555
333.20 1.36256
333.30 1.362563
333.40 1.362567
333.50 1.362571
333.60 1.362574
333.70 1.362577
333.80 1.36258
333.90 1.362582
334.00 1.362584
334.10 1.362602
334.20 1.362637
334.30 1.362673
334.40 1.362708
334.50 1.362743
334.60 1.362778
334.70 1.362871
334.80 1.362952
334.90 1.362915
335.00 1.362877
335.10 1.363471
335.20 1.363166
335.30 1.363646
335.40 1.363467
335.50 1.363161
335.60 1.363235
335.70 1.363663
335.80 1.363357
335.90 1.363278
336.00 1.363477
336.10 1.363675
336.20 1.363874
336.30 1.363996
336.40 1.364025
336.50 1.364054
336.60 1.364082
336.70 1.364111
336.80 1.364139
336.90 1.364125
337.00 1.364062
337.10 1.363998
337.20 1.363934
337.30 1.36391
337.40 1.363942
337.50 1.363974
337.60 1.364006
337.70 1.364037
337.80 1.364068
337.90 1.36407
338.00 1.364037
338.10 1.364004
338.20 1.363971
338.30 1.363937
338.40 1.36394
338.50 1.364031
338.60 1.364122
338.70 1.364212
338.80 1.364302
338.90 1.364392
339.00 1.364481
339.10 1.36457
339.20 1.364659
339.30 1.364589
339.40 1.36429
339.50 1.36414
339.60 1.364171
339.70 1.364202
339.80 1.364232
339.90 1.364262
340.00 1.364292
340.10 1.364322
340.20 1.364352
340.30 1.364381
340.40 1.36441
340.50 1.364438
340.60 1.364467
340.70 1.364495
340.80 1.364388
340.90 1.364089
341.00 1.36395
341.10 1.364009
341.20 1.364067
341.30 1.364124
341.40 1.364182
341.50 1.364239
341.60 1.364295
341.70 1.364352
341.80 1.364334
341.90 1.364224
342.00 1.364115
342.10 1.364006
342.20 1.364246
342.30 1.364496
342.40 1.364447
342.50 1.364466
342.60 1.364485
342.70 1.364503
342.80 1.364522
342.90 1.36454
343.00 1.364516
343.10 1.36444
343.20 1.364364
343.30 1.364288
343.40 1.364248
343.50 1.364259
343.60 1.364271
343.70 1.364281
343.80 1.364292
343.90 1.364303
344.00 1.36428
344.10 1.36421
344.20 1.364139
344.30 1.364068
344.40 1.364096
344.50 1.364266
344.60 1.364041
344.70 1.363753
344.80 1.363442
344.90 1.363587
345.00 1.363951
345.10 1.36364
345.20 1.36353
345.30 1.36371
345.40 1.363889
345.50 1.364046
345.60 1.36406
345.70 1.363907
345.80 1.363754
345.90 1.363601
346.00 1.363449
346.10 1.363296
346.20 1.363195
346.30 1.363168
346.40 1.363142
346.50 1.363115
346.60 1.363089
346.70 1.363062
346.80 1.363034
346.90 1.363007
347.00 1.362979
347.10 1.362952
347.20 1.362931
347.30 1.362921
347.40 1.362911
347.50 1.3629
347.60 1.362889
347.70 1.362878
347.80 1.362867
347.90 1.362856
348.00 1.362844
348.10 1.362832
348.20 1.36282
348.30 1.362808
348.40 1.362796
348.50 1.362783
348.60 1.36277
348.70 1.362701
348.80 1.362637
348.90 1.362606
349.00 1.362574
349.10 1.362543
349.20 1.362511
349.30 1.362479
349.40 1.362446
349.50 1.362414
349.60 1.362381
349.70 1.362348
349.80 1.362315
349.90 1.362282
350.00 1.362249
350.10 1.362215
350.20 1.362181
350.30 1.362118
350.40 1.362014
350.50 1.361909
350.60 1.361804
350.70 1.361699
350.80 1.361594
350.90 1.361489
351.00 1.361383
351.10 1.361278
351.20 1.361172
351.30 1.361067
351.40 1.360987
351.50 1.360956
351.60 1.360924
351.70 1.360892
351.80 1.36086
351.90 1.360827
352.00 1.360794
352.10 1.360762
352.20 1.360618
352.30 1.360502
352.40 1.360442
352.50 1.360382
352.60 1.360322
352.70 1.360261
352.80 1.360201
352.90 1.36014
353.00 1.360079
353.10 1.360018
353.20 1.359957
353.30 1.359896
353.40 1.359834
353.50 1.359864
353.60 1.359917
353.70 1.35997
353.80 1.360022
353.90 1.359998
354.00 1.35984
354.10 1.359682
354.20 1.359524
354.30 1.359366
354.40 1.359208
354.50 1.35905
354.60 1.358891
354.70 1.358733
354.80 1.358663
354.90 1.358719
355.00 1.358774
355.10 1.35883
355.20 1.358885
355.30 1.358749
355.40 1.358613
355.50 1.358477
355.60 1.358341
355.70 1.358306
355.80 1.358316
355.90 1.358047
356.00 1.357833
356.10 1.357756
356.20 1.357678
356.30 1.357601
356.40 1.357523
356.50 1.357445
356.60 1.357368
356.70 1.35729
356.80 1.357211
356.90 1.357133
357.00 1.357055
357.10 1.356976
357.20 1.356898
357.30 1.356819
357.40 1.356782
357.50 1.35682
357.60 1.356858
357.70 1.356895
357.80 1.356542
357.90 1.356189
358.00 1.356058
358.10 1.355982
358.20 1.355906
358.30 1.35583
358.40 1.355754
358.50 1.355678
358.60 1.355602
358.70 1.355526
358.80 1.355449
358.90 1.355373
359.00 1.355337
359.10 1.355376
359.20 1.35541
359.30 1.355414
359.40 1.355418
359.50 1.35532
359.60 1.355196
359.70 1.355072
359.80 1.354987
359.90 1.354901
360.00 1.354811
360.10 1.354714
360.20 1.354617
360.30 1.35452
360.40 1.354422
360.50 1.354325
360.60 1.353817
360.70 1.353724
360.80 1.353631
360.90 1.353538
361.00 1.353208
361.10 1.352945
361.20 1.353459
361.30 1.353059
361.40 1.352834
361.50 1.352959
361.60 1.352525
361.70 1.352649
361.80 1.352704
361.90 1.352637
362.00 1.35257
362.10 1.352442
362.20 1.352288
362.30 1.352113
362.40 1.351939
362.50 1.351764
362.60 1.351589
362.70 1.35144
362.80 1.35108
362.90 1.351197
363.00 1.351314
363.10 1.351361
363.20 1.351407
363.30 1.350821
363.40 1.350941
363.50 1.351061
363.60 1.350318
363.70 1.350534
363.80 1.350558
363.90 1.350431
364.00 1.350304
364.10 1.350177
364.20 1.35005
364.30 1.349814
364.40 1.34955
364.50 1.349674
364.60 1.349504
364.70 1.349334
364.80 1.349164
364.90 1.348853
365.00 1.348542
365.10 1.348659
365.20 1.348776
365.30 1.348892
365.40 1.348154
365.50 1.34827
365.60 1.348386
365.70 1.348036
365.80 1.347687
365.90 1.347785
366.00 1.347995
366.10 1.347886
366.20 1.347777
366.30 1.347668
366.40 1.347559
366.50 1.346867
366.60 1.346981
366.70 1.346889
366.80 1.346797
366.90 1.346694
367.00 1.346569
367.10 1.346445
367.20 1.34632
367.30 1.346195
367.40 1.34607
367.50 1.345835
367.60 1.345572
367.70 1.345506
367.80 1.34544
367.90 1.345374
368.00 1.345175
368.10 1.345276
368.20 1.345101
368.30 1.344922
368.40 1.344743
368.50 1.344564
368.60 1.344384
368.70 1.344205
368.80 1.344026
368.90 1.344188
369.00 1.344129
369.10 1.343863
369.20 1.343977
369.30 1.343806
369.40 1.343636
369.50 1.343466
369.60 1.343155
369.70 1.342843
369.80 1.342791
369.90 1.342741
370.00 1.342691
370.10 1.342445
370.20 1.342132
370.30 1.341823
370.40 1.341934
370.50 1.341615
370.60 1.341316
370.70 1.341423
370.80 1.341112
370.90 1.340802
371.00 1.340908
371.10 1.341018
371.20 1.340707
371.30 1.340397
371.40 1.340672
371.50 1.340412
371.60 1.340153
371.70 1.339893
371.80 1.339633
371.90 1.339374
372.00 1.339718
372.10 1.339586
372.20 1.339416
372.30 1.339245
372.40 1.339074
372.50 1.338903
372.60 1.338732
372.70 1.338562
372.80 1.338252
372.90 1.337942
373.00 1.338045
373.10 1.338151
373.20 1.337844
373.30 1.337536
373.40 1.337638
373.50 1.337331
373.60 1.337024
373.70 1.337125
373.80 1.336588
373.90 1.336511
374.00 1.336408
374.10 1.336305
374.20 1.336202
374.30 1.336098
374.40 1.335893
374.50 1.335485
374.60 1.335377
374.70 1.335275
374.80 1.335174
374.90 1.335072
375.00 1.3349
375.10 1.334729
375.20 1.334558
375.30 1.334425
375.40 1.334293
375.50 1.33416
375.60 1.334027
375.70 1.333894
375.80 1.333762
375.90 1.333629
376.00 1.333718
376.10 1.333539
376.20 1.333357
376.30 1.333175
376.40 1.332993
376.50 1.332822
376.60 1.332669
376.70 1.332516
376.80 1.332367
376.90 1.332222
377.00 1.332076
377.10 1.331931
377.20 1.331772
377.30 1.331566
377.40 1.331359
377.50 1.331153
377.60 1.330969
377.70 1.330786
377.80 1.330603
377.90 1.33042
378.00 1.330028
378.10 1.329874
378.20 1.329724
378.30 1.329575
378.40 1.329425
378.50 1.329276
378.60 1.329127
378.70 1.328977
378.80 1.328828
378.90 1.328691
379.00 1.328578
379.10 1.328195
379.20 1.327812
379.30 1.327526
379.40 1.327337
379.50 1.327149
379.60 1.327022
379.70 1.32697
379.80 1.326849
379.90 1.326727
380.00 1.326605
380.10 1.326484
380.20 1.326362
380.30 1.32624
380.40 1.326119
380.50 1.325997
380.60 1.325521
380.70 1.325361
380.80 1.325201
380.90 1.325042
381.00 1.324882
381.10 1.324678
381.20 1.324626
381.30 1.324367
381.40 1.323954
381.50 1.324064
381.60 1.323852
381.70 1.323362
381.80 1.323248
381.90 1.323337
382.00 1.323426
382.10 1.322734
382.20 1.322979
382.30 1.322677
382.40 1.322432
382.50 1.322273
382.60 1.322114
382.70 1.321705
382.80 1.321286
382.90 1.321141
383.00 1.320995
383.10 1.320848
383.20 1.320678
383.30 1.320418
383.40 1.320209
383.50 1.320074
383.60 1.320207
383.70 1.32003
383.80 1.319852
383.90 1.319674
384.00 1.319497
384.10 1.319319
384.20 1.319141
384.30 1.318964
384.40 1.318802
384.50 1.318656
384.60 1.318509
384.70 1.318363
384.80 1.318103
384.90 1.31765
385.00 1.317626
385.10 1.317589
385.20 1.317088
385.30 1.316795
385.40 1.316575
385.50 1.316429
385.60 1.316282
385.70 1.316136
385.80 1.315971
385.90 1.315737
386.00 1.315551
386.10 1.315417
386.20 1.315326
386.30 1.315236
386.40 1.31485
386.50 1.314484
386.60 1.314253
386.70 1.314336
386.80 1.313847
386.90 1.31374
387.00 1.313823
387.10 1.313163
387.20 1.313226
387.30 1.313309
387.40 1.312828
387.50 1.312713
387.60 1.312156
387.70 1.312048
387.80 1.31194
387.90 1.311832
388.00 1.311605
388.10 1.311687
388.20 1.311251
388.30 1.311056
388.40 1.310862
388.50 1.310731
388.60 1.31058
388.70 1.309905
388.80 1.309986
388.90 1.31002
389.00 1.309393
389.10 1.309474
389.20 1.309129
389.30 1.309017
389.40 1.30873
389.50 1.308542
389.60 1.30837
389.70 1.307877
389.80 1.307717
389.90 1.307556
390.00 1.307396
390.10 1.307236
390.20 1.307076
390.30 1.306888
390.40 1.306671
390.50 1.306453
390.60 1.306235
390.70 1.306018
390.80 1.305786
390.90 1.30554
391.00 1.30583
391.10 1.305524
391.20 1.305143
391.30 1.304709
391.40 1.304539
391.50 1.304369
391.60 1.304199
391.70 1.304028
391.80 1.303858
391.90 1.303782
392.00 1.303661
392.10 1.303318
392.20 1.302945
392.30 1.302533
392.40 1.302398
392.50 1.302435
392.60 1.302271
392.70 1.301848
392.80 1.301925
392.90 1.3014
393.00 1.30113
393.10 1.300928
393.20 1.300786
393.30 1.300494
393.40 1.300352
393.50 1.300244
393.60 1.300034
393.70 1.299659
393.80 1.299768
393.90 1.299475
394.00 1.29915
394.10 1.298666
394.20 1.29838
394.30 1.298227
394.40 1.298044
394.50 1.298058
394.60 1.297809
394.70 1.297546
394.80 1.297224
394.90 1.296916
395.00 1.296967
395.10 1.296823
395.20 1.296766
395.30 1.296585
395.40 1.296405
395.50 1.296094
395.60 1.295735
395.70 1.29542
395.80 1.295224
395.90 1.295027
396.00 1.29479
396.10 1.294332
396.20 1.294406
396.30 1.294283
396.40 1.293757
396.50 1.293703
396.60 1.293177
396.70 1.293123
396.80 1.292766
396.90 1.292545
397.00 1.292617
397.10 1.292569
397.20 1.2922
397.30 1.292173
397.40 1.29175
397.50 1.291327
397.60 1.29093
397.70 1.290792
397.80 1.290655
397.90 1.290518
398.00 1.290384
398.10 1.29025
398.20 1.290013
398.30 1.28966
398.40 1.289315
398.50 1.28922
398.60 1.288722
398.70 1.288545
398.80 1.288484
398.90 1.288404
399.00 1.288289
399.10 1.287688
399.20 1.287536
399.30 1.287383
399.40 1.287231
399.50 1.287078
399.60 1.286789
399.70 1.286449
399.80 1.286109
399.90 1.285769
400.00 1.285437
400.10 1.285343
400.20 1.285348
400.30 1.285144
400.40 1.284783
400.50 1.284347
400.60 1.284224
400.70 1.284294
400.80 1.283845
400.90 1.283914
401.00 1.283274
401.10 1.283343
401.20 1.282703
401.30 1.282594
401.40 1.282516
401.50 1.282402
401.60 1.282271
401.70 1.281633
401.80 1.28155
401.90 1.281433
402.00 1.281133
402.10 1.281201
402.20 1.280564
402.30 1.280632
402.40 1.279996
402.50 1.280064
402.60 1.279466
402.70 1.279496
402.80 1.279212
402.90 1.27921
403.00 1.278926
403.10 1.278362
403.20 1.27843
403.30 1.277796
403.40 1.277713
403.50 1.277558
403.60 1.277355
403.70 1.277365
403.80 1.276744
403.90 1.276509
404.00 1.276167
404.10 1.276234
404.20 1.275952
404.30 1.27567
404.40 1.275419
404.50 1.275106
404.60 1.275172
404.70 1.274542
404.80 1.274609
404.90 1.273979
405.00 1.273896
405.10 1.273814
405.20 1.273681
405.30 1.273549
405.40 1.273268
405.50 1.272987
405.60 1.272706
405.70 1.272425
405.80 1.272144
405.90 1.271864
406.00 1.271655
406.10 1.271446
406.20 1.271238
406.30 1.271029
406.40 1.270808
406.50 1.270357
406.60 1.270248
406.70 1.269839
406.80 1.269484
406.90 1.269077
407.00 1.268867
407.10 1.268656
407.20 1.268446
407.30 1.268236
407.40 1.268026
407.50 1.267816
407.60 1.267606
407.70 1.267396
407.80 1.267186
407.90 1.266975
408.00 1.266728
408.10 1.266407
408.20 1.266143
408.30 1.265969
408.40 1.265795
408.50 1.265295
408.60 1.265149
408.70 1.265002
408.80 1.264804
408.90 1.26428
409.00 1.264054
409.10 1.263829
409.20 1.263603
409.30 1.263378
409.40 1.263155
409.50 1.263019
409.60 1.262883
409.70 1.262714
409.80 1.26241
409.90 1.262098
410.00 1.261482
410.10 1.261433
410.20 1.261142
410.30 1.260792
410.40 1.260486
410.50 1.260317
410.60 1.260149
410.70 1.259946
410.80 1.259606
410.90 1.259267
411.00 1.259007
411.10 1.258777
411.20 1.258547
411.30 1.258356
411.40 1.25831
411.50 1.257937
411.60 1.257564
411.70 1.25721
411.80 1.256936
411.90 1.256931
412.00 1.256657
412.10 1.256551
412.20 1.256109
412.30 1.256171
412.40 1.255586
412.50 1.255623
412.60 1.255015
412.70 1.254824
412.80 1.254737
412.90 1.25453
413.00 1.254018
413.10 1.253809
413.20 1.2536
413.30 1.253391
413.40 1.253182
413.50 1.252893
413.60 1.252368
413.70 1.252095
413.80 1.251823
413.90 1.251552
414.00 1.25128
414.10 1.251008
414.20 1.251056
414.30 1.250718
414.40 1.250646
414.50 1.250175
414.60 1.250315
414.70 1.250044
414.80 1.249773
414.90 1.249502
415.00 1.249231
415.10 1.24896
415.20 1.248659
415.30 1.248264
415.40 1.247869
415.50 1.247482
415.60 1.247356
415.70 1.247229
415.80 1.24704
415.90 1.246658
416.00 1.246275
416.10 1.245913
416.20 1.24563
416.30 1.245347
416.40 1.245065
416.50 1.244783
416.60 1.244514
416.70 1.244285
416.80 1.244295
416.90 1.244051
417.00 1.243758
417.10 1.243827
417.20 1.243558
417.30 1.243287
417.40 1.242923
417.50 1.242559
417.60 1.24226
417.70 1.242217
417.80 1.24195
417.90 1.241682
418.00 1.241414
418.10 1.241147
418.20 1.240879
418.30 1.240602
418.40 1.240094
418.50 1.239855
418.60 1.239616
418.70 1.239378
418.80 1.239139
418.90 1.2389
419.00 1.238662
419.10 1.238423
419.20 1.238185
419.30 1.237943
419.40 1.237582
419.50 1.237221
419.60 1.236858
419.70 1.236488
419.80 1.236117
419.90 1.235786
420.00 1.235577
420.10 1.235369
420.20 1.235161
420.30 1.234953
420.40 1.234745
420.50 1.234536
420.60 1.234328
420.70 1.23412
420.80 1.233912
420.90 1.2337
421.00 1.233346
421.10 1.232991
421.20 1.232648
421.30 1.232338
421.40 1.232028
421.50 1.231719
421.60 1.231409
421.70 1.2311
421.80 1.23079
421.90 1.230491
422.00 1.230222
422.10 1.229971
422.20 1.229792
422.30 1.229613
422.40 1.229432
422.50 1.229173
422.60 1.228914
422.70 1.228655
422.80 1.228396
422.90 1.228138
423.00 1.227879
423.10 1.227621
423.20 1.227363
423.30 1.227105
423.40 1.226846
423.50 1.226589
423.60 1.226331
423.70 1.226073
423.80 1.225815
423.90 1.225558
424.00 1.2253
424.10 1.225043
424.20 1.224786
424.30 1.224529
424.40 1.224203
424.50 1.223882
424.60 1.223561
424.70 1.22324
424.80 1.22292
424.90 1.2226
425.00 1.22228
