# Version 2.1 - nm, norm@500 to 1, cut digits, bergeron_He_8500_75.dat_8500
# Wavelength(nm)  Flambda(ergs/cm^s/s/nm)
300.00 1.459481
300.10 1.459619
300.20 1.459753
300.30 1.459896
300.40 1.460107
300.50 1.460318
300.60 1.460528
300.70 1.460738
300.80 1.460947
300.90 1.461156
301.00 1.461363
301.10 1.461571
301.20 1.461777
301.30 1.461983
301.40 1.462189
301.50 1.462394
301.60 1.462598
301.70 1.462802
301.80 1.463005
301.90 1.463208
302.00 1.463409
302.10 1.46355
302.20 1.463683
302.30 1.463816
302.40 1.463948
302.50 1.46408
302.60 1.464212
302.70 1.464342
302.80 1.464473
302.90 1.464603
303.00 1.464732
303.10 1.464861
303.20 1.464989
303.30 1.465122
303.40 1.465304
303.50 1.465484
303.60 1.465664
303.70 1.465844
303.80 1.466023
303.90 1.466201
304.00 1.466379
304.10 1.466556
304.20 1.466733
304.30 1.466909
304.40 1.467085
304.50 1.46726
304.60 1.467394
304.70 1.467525
304.80 1.467654
304.90 1.467783
305.00 1.467912
305.10 1.46804
305.20 1.468167
305.30 1.468294
305.40 1.468421
305.50 1.468547
305.60 1.468673
305.70 1.468798
305.80 1.468923
305.90 1.469047
306.00 1.469171
306.10 1.469294
306.20 1.469417
306.30 1.469539
306.40 1.469691
306.50 1.469851
306.60 1.47001
306.70 1.470169
306.80 1.470327
306.90 1.470485
307.00 1.470642
307.10 1.470798
307.20 1.470955
307.30 1.47111
307.40 1.471265
307.50 1.47142
307.60 1.471574
307.70 1.471728
307.80 1.471881
307.90 1.472034
308.00 1.472186
308.10 1.472337
308.20 1.472488
308.30 1.472639
308.40 1.472789
308.50 1.472938
308.60 1.473088
308.70 1.473236
308.80 1.473297
308.90 1.473108
309.00 1.473344
309.10 1.47358
309.20 1.473815
309.30 1.474049
309.40 1.474256
309.50 1.474297
309.60 1.474339
309.70 1.47438
309.80 1.47442
309.90 1.47446
310.00 1.4745
310.10 1.47454
310.20 1.474579
310.30 1.474617
310.40 1.474683
310.50 1.474778
310.60 1.474873
310.70 1.474967
310.80 1.475061
310.90 1.475154
311.00 1.475223
311.10 1.475291
311.20 1.475359
311.30 1.475435
311.40 1.475534
311.50 1.475634
311.60 1.475732
311.70 1.475831
311.80 1.475929
311.90 1.476026
312.00 1.476123
312.10 1.47622
312.20 1.47658
312.30 1.476944
312.40 1.477046
312.50 1.477245
312.60 1.477313
312.70 1.47738
312.80 1.477446
312.90 1.477455
313.00 1.477401
313.10 1.477347
313.20 1.477292
313.30 1.477275
313.40 1.477365
313.50 1.477454
313.60 1.477542
313.70 1.477631
313.80 1.477718
313.90 1.477806
314.00 1.477893
314.10 1.478036
314.20 1.478179
314.30 1.478321
314.40 1.478463
314.50 1.478605
314.60 1.478746
314.70 1.478886
314.80 1.479055
314.90 1.479035
315.00 1.478722
315.10 1.478865
315.20 1.479007
315.30 1.479148
315.40 1.47929
315.50 1.47943
315.60 1.47957
315.70 1.479556
315.80 1.479542
315.90 1.479527
316.00 1.479512
316.10 1.479497
316.20 1.479481
316.30 1.479925
316.40 1.479908
316.50 1.479892
316.60 1.480334
316.70 1.480316
316.80 1.480298
316.90 1.48028
317.00 1.480262
317.10 1.480243
317.20 1.480224
317.30 1.480342
317.40 1.480464
317.50 1.480603
317.60 1.480741
317.70 1.480879
317.80 1.481016
317.90 1.480684
318.00 1.480359
318.10 1.480565
318.20 1.48077
318.30 1.480975
318.40 1.48112
318.50 1.481097
318.60 1.480838
318.70 1.480951
318.80 1.480791
318.90 1.480903
319.00 1.480978
319.10 1.480953
319.20 1.480942
319.30 1.480969
319.40 1.480996
319.50 1.481023
319.60 1.48174
319.70 1.481766
319.80 1.481791
319.90 1.481816
320.00 1.481816
320.10 1.481788
320.20 1.481731
320.30 1.481301
320.40 1.481272
320.50 1.481871
320.60 1.481644
320.70 1.481615
320.80 1.481585
320.90 1.481555
321.00 1.481525
321.10 1.481495
321.20 1.482168
321.30 1.482171
321.40 1.482173
321.50 1.482175
321.60 1.482177
321.70 1.482178
321.80 1.482025
321.90 1.481704
322.00 1.48213
322.10 1.482092
322.20 1.482054
322.30 1.482016
322.40 1.481977
322.50 1.481938
322.60 1.481899
322.70 1.48186
322.80 1.481643
322.90 1.481666
323.00 1.481688
323.10 1.481711
323.20 1.481732
323.30 1.481754
323.40 1.481775
323.50 1.481796
323.60 1.481816
323.70 1.481837
323.80 1.481856
323.90 1.481876
324.00 1.481899
324.10 1.481921
324.20 1.481943
324.30 1.482013
324.40 1.482094
324.50 1.482037
324.60 1.48198
324.70 1.481922
324.80 1.481865
324.90 1.481807
325.00 1.481749
325.10 1.481691
325.20 1.481651
325.30 1.481649
325.40 1.481647
325.50 1.481728
325.60 1.48191
325.70 1.482093
325.80 1.482275
325.90 1.482326
326.00 1.482238
326.10 1.482149
326.20 1.482059
326.30 1.481935
326.40 1.481713
326.50 1.481697
326.60 1.481681
326.70 1.481664
326.80 1.481647
326.90 1.48163
327.00 1.481613
327.10 1.481595
327.20 1.481577
327.30 1.481559
327.40 1.481541
327.50 1.481522
327.60 1.481504
327.70 1.481485
327.80 1.481465
327.90 1.48142
328.00 1.481388
328.10 1.481406
328.20 1.481424
328.30 1.481441
328.40 1.481458
328.50 1.481509
328.60 1.481567
328.70 1.481625
328.80 1.481659
328.90 1.481622
329.00 1.481585
329.10 1.481548
329.20 1.48151
329.30 1.481472
329.40 1.481434
329.50 1.481396
329.60 1.481358
329.70 1.481319
329.80 1.481281
329.90 1.481242
330.00 1.481199
330.10 1.481152
330.20 1.481105
330.30 1.481058
330.40 1.481007
330.50 1.480951
330.60 1.480894
330.70 1.480838
330.80 1.480781
330.90 1.480724
331.00 1.480667
331.10 1.480609
331.20 1.480552
331.30 1.480494
331.40 1.480436
331.50 1.480304
331.60 1.480084
331.70 1.479863
331.80 1.479829
331.90 1.479803
332.00 1.479777
332.10 1.47975
332.20 1.479723
332.30 1.479696
332.40 1.479668
332.50 1.479641
332.60 1.479613
332.70 1.479585
332.80 1.479556
332.90 1.479528
333.00 1.479499
333.10 1.479456
333.20 1.479397
333.30 1.479338
333.40 1.479278
333.50 1.479218
333.60 1.479158
333.70 1.479098
333.80 1.479037
333.90 1.478977
334.00 1.478916
334.10 1.478855
334.20 1.478793
334.30 1.478732
334.40 1.47867
334.50 1.478608
334.60 1.478546
334.70 1.47847
334.80 1.478438
334.90 1.478494
335.00 1.47855
335.10 1.478234
335.20 1.47817
335.30 1.477841
335.40 1.477676
335.50 1.477714
335.60 1.477548
335.70 1.477852
335.80 1.477788
335.90 1.477723
336.00 1.477659
336.10 1.477594
336.20 1.477529
336.30 1.477464
336.40 1.477398
336.50 1.477333
336.60 1.477267
336.70 1.477201
336.80 1.477135
336.90 1.477065
337.00 1.476991
337.10 1.476916
337.20 1.476841
337.30 1.476716
337.40 1.476519
337.50 1.476321
337.60 1.476124
337.70 1.475927
337.80 1.475729
337.90 1.475579
338.00 1.475486
338.10 1.475393
338.20 1.4753
338.30 1.475207
338.40 1.475124
338.50 1.475066
338.60 1.475008
338.70 1.47495
338.80 1.474892
338.90 1.474833
339.00 1.474775
339.10 1.474716
339.20 1.474657
339.30 1.4746
339.40 1.474546
339.50 1.474483
339.60 1.47441
339.70 1.474337
339.80 1.474264
339.90 1.47419
340.00 1.474117
340.10 1.474043
340.20 1.473969
340.30 1.473894
340.40 1.47382
340.50 1.473745
340.60 1.473671
340.70 1.473596
340.80 1.473363
340.90 1.472902
341.00 1.472617
341.10 1.472544
341.20 1.472471
341.30 1.472398
341.40 1.472325
341.50 1.472252
341.60 1.472178
341.70 1.472104
341.80 1.47201
341.90 1.471889
342.00 1.471769
342.10 1.471648
342.20 1.471773
342.30 1.471757
342.40 1.471501
342.50 1.4713
342.60 1.471098
342.70 1.470897
342.80 1.470696
342.90 1.470494
343.00 1.470346
343.10 1.470263
343.20 1.47018
343.30 1.470096
343.40 1.470015
343.50 1.469939
343.60 1.469863
343.70 1.469787
343.80 1.46971
343.90 1.469633
344.00 1.469556
344.10 1.469479
344.20 1.469402
344.30 1.469324
344.40 1.469247
344.50 1.469169
344.60 1.468774
344.70 1.468696
344.80 1.468618
344.90 1.46854
345.00 1.468005
345.10 1.467927
345.20 1.467853
345.30 1.467785
345.40 1.467717
345.50 1.46763
345.60 1.467534
345.70 1.467454
345.80 1.467375
345.90 1.467296
346.00 1.467216
346.10 1.467136
346.20 1.467025
346.30 1.466868
346.40 1.466711
346.50 1.466554
346.60 1.466397
346.70 1.46624
346.80 1.466083
346.90 1.465926
347.00 1.465769
347.10 1.465612
347.20 1.465451
347.30 1.465283
347.40 1.465116
347.50 1.464949
347.60 1.464782
347.70 1.464615
347.80 1.464448
347.90 1.46428
348.00 1.464113
348.10 1.463946
348.20 1.463778
348.30 1.463611
348.40 1.463443
348.50 1.463275
348.60 1.463108
348.70 1.463282
348.80 1.463372
348.90 1.463189
349.00 1.463005
349.10 1.462821
349.20 1.462637
349.30 1.462453
349.40 1.462269
349.50 1.462085
349.60 1.461901
349.70 1.461717
349.80 1.461533
349.90 1.461349
350.00 1.461165
350.10 1.460981
350.20 1.460797
350.30 1.460624
350.40 1.460469
350.50 1.460313
350.60 1.460157
350.70 1.460002
350.80 1.459846
350.90 1.45969
351.00 1.459534
351.10 1.459378
351.20 1.459222
351.30 1.459066
351.40 1.458919
351.50 1.458788
351.60 1.458656
351.70 1.458525
351.80 1.458393
351.90 1.458261
352.00 1.45813
352.10 1.457998
352.20 1.457687
352.30 1.457441
352.40 1.457316
352.50 1.457191
352.60 1.457066
352.70 1.45694
352.80 1.456814
352.90 1.456689
353.00 1.456563
353.10 1.456437
353.20 1.456311
353.30 1.456185
353.40 1.456059
353.50 1.455906
353.60 1.455745
353.70 1.455584
353.80 1.455424
353.90 1.455261
354.00 1.455095
354.10 1.454929
354.20 1.454763
354.30 1.454597
354.40 1.454431
354.50 1.454265
354.60 1.454099
354.70 1.453933
354.80 1.45377
354.90 1.453614
355.00 1.453457
355.10 1.4533
355.20 1.453143
355.30 1.452833
355.40 1.452522
355.50 1.452212
355.60 1.451901
355.70 1.451673
355.80 1.451481
355.90 1.451531
356.00 1.451457
356.10 1.451245
356.20 1.451033
356.30 1.450821
356.40 1.450609
356.50 1.450396
356.60 1.450184
356.70 1.449972
356.80 1.44976
356.90 1.449548
357.00 1.449336
357.10 1.449123
357.20 1.448911
357.30 1.448699
357.40 1.448503
357.50 1.448336
357.60 1.448168
357.70 1.448
357.80 1.447844
357.90 1.447688
358.00 1.447505
358.10 1.447315
358.20 1.447125
358.30 1.446935
358.40 1.446745
358.50 1.446555
358.60 1.446365
358.70 1.446175
358.80 1.445985
358.90 1.445795
359.00 1.445614
359.10 1.445449
359.20 1.44528
359.30 1.445088
359.40 1.444895
359.50 1.444823
359.60 1.444782
359.70 1.444741
359.80 1.444476
359.90 1.444211
360.00 1.443944
360.10 1.44367
360.20 1.443397
360.30 1.443124
360.40 1.442851
360.50 1.442577
360.60 1.442681
360.70 1.442412
360.80 1.442142
360.90 1.441873
361.00 1.441867
361.10 1.441712
361.20 1.441227
361.30 1.441134
361.40 1.441006
361.50 1.440948
361.60 1.440404
361.70 1.440311
361.80 1.440163
361.90 1.439916
362.00 1.439669
362.10 1.439373
362.20 1.439111
362.30 1.438932
362.40 1.438752
362.50 1.438573
362.60 1.438393
362.70 1.438111
362.80 1.438328
362.90 1.437883
363.00 1.437438
363.10 1.437281
363.20 1.437126
363.30 1.437159
363.40 1.437065
363.50 1.436971
363.60 1.436528
363.70 1.436473
363.80 1.435992
363.90 1.435864
364.00 1.435737
364.10 1.435609
364.20 1.435481
364.30 1.435134
364.40 1.434731
364.50 1.434641
364.60 1.434314
364.70 1.433987
364.80 1.43366
364.90 1.433565
365.00 1.43347
365.10 1.433375
365.20 1.432935
365.30 1.43284
365.40 1.432401
365.50 1.432305
365.60 1.43221
365.70 1.432052
365.80 1.431895
365.90 1.431542
366.00 1.431142
366.10 1.431034
366.20 1.430927
366.30 1.43082
366.40 1.430712
366.50 1.429979
366.60 1.429883
366.70 1.429622
366.80 1.42936
366.90 1.429134
367.00 1.428969
367.10 1.428805
367.20 1.42864
367.30 1.428476
367.40 1.428311
367.50 1.427959
367.60 1.42756
367.70 1.427321
367.80 1.427082
367.90 1.426843
368.00 1.426836
368.10 1.426401
368.20 1.426242
368.30 1.42609
368.40 1.425938
368.50 1.425785
368.60 1.425633
368.70 1.425481
368.80 1.425328
368.90 1.424952
369.00 1.424479
369.10 1.42408
369.20 1.423987
369.30 1.423891
369.40 1.423794
369.50 1.423697
369.60 1.423262
369.70 1.422827
369.80 1.422601
369.90 1.422377
370.00 1.422153
370.10 1.421771
370.20 1.421668
370.30 1.421571
370.40 1.421481
370.50 1.42104
370.60 1.420935
370.70 1.42052
370.80 1.420419
370.90 1.420319
371.00 1.419893
371.10 1.419463
371.20 1.419363
371.30 1.419262
371.40 1.418728
371.50 1.418585
371.60 1.418442
371.70 1.418299
371.80 1.418156
371.90 1.418012
372.00 1.417446
372.10 1.417159
372.20 1.416951
372.30 1.416743
372.40 1.416535
372.50 1.416327
372.60 1.416119
372.70 1.415911
372.80 1.41581
372.90 1.415709
373.00 1.415286
373.10 1.414859
373.20 1.414762
373.30 1.414664
373.40 1.414236
373.50 1.413809
373.60 1.413711
373.70 1.413613
373.80 1.413001
373.90 1.412759
374.00 1.412497
374.10 1.412235
374.20 1.411973
374.30 1.411711
374.40 1.411778
374.50 1.411516
374.60 1.41125
374.70 1.41099
374.80 1.410729
374.90 1.410469
375.00 1.410153
375.10 1.409837
375.20 1.409521
375.30 1.40933
375.40 1.409139
375.50 1.408947
375.60 1.408756
375.70 1.408565
375.80 1.408374
375.90 1.408182
376.00 1.407434
376.10 1.407246
376.20 1.407065
376.30 1.406883
376.40 1.406702
376.50 1.406473
376.60 1.406173
376.70 1.405874
376.80 1.405578
376.90 1.405285
377.00 1.404992
377.10 1.404699
377.20 1.404439
377.30 1.404298
377.40 1.404158
377.50 1.404017
377.60 1.403694
377.70 1.403372
377.80 1.403049
377.90 1.402727
378.00 1.402865
378.10 1.402581
378.20 1.402286
378.30 1.401991
378.40 1.401696
378.50 1.401402
378.60 1.401107
378.70 1.400813
378.80 1.400518
378.90 1.400235
379.00 1.39997
379.10 1.399744
379.20 1.399517
379.30 1.399242
379.40 1.398916
379.50 1.398591
379.60 1.398316
379.70 1.398101
379.80 1.397831
379.90 1.39756
380.00 1.39729
380.10 1.397019
380.20 1.396749
380.30 1.396479
380.40 1.396209
380.50 1.395939
380.60 1.396018
380.70 1.395718
380.80 1.395417
380.90 1.395117
381.00 1.394817
381.10 1.394481
381.20 1.394268
381.30 1.393888
381.40 1.393384
381.50 1.393302
381.60 1.393173
381.70 1.392863
381.80 1.392764
381.90 1.39235
382.00 1.391936
382.10 1.391838
382.20 1.391362
382.30 1.391263
382.40 1.391085
382.50 1.390787
382.60 1.390489
382.70 1.390294
382.80 1.390111
382.90 1.389824
383.00 1.389536
383.10 1.389249
383.20 1.388943
383.30 1.388565
383.40 1.388227
383.50 1.387949
383.60 1.387888
383.70 1.387576
383.80 1.387265
383.90 1.386953
384.00 1.386642
384.10 1.386331
384.20 1.38602
384.30 1.385709
384.40 1.385411
384.50 1.385125
384.60 1.38484
384.70 1.384555
384.80 1.38433
384.90 1.384174
385.00 1.383721
385.10 1.383286
385.20 1.383313
385.30 1.38291
385.40 1.382566
385.50 1.382282
385.60 1.381997
385.70 1.381713
385.80 1.381415
385.90 1.38106
386.00 1.380744
386.10 1.38047
386.20 1.380231
386.30 1.379993
386.40 1.379667
386.50 1.379672
386.60 1.379321
386.70 1.379223
386.80 1.378663
386.90 1.378411
387.00 1.378313
387.10 1.378215
387.20 1.377504
387.30 1.377406
387.40 1.377308
387.50 1.376869
387.60 1.376595
387.70 1.376344
387.80 1.376093
387.90 1.375842
388.00 1.375495
388.10 1.37488
388.20 1.374883
388.30 1.374562
388.40 1.374241
388.50 1.373973
388.60 1.373688
388.70 1.373531
388.80 1.373112
388.90 1.372786
389.00 1.372688
389.10 1.372233
389.20 1.372149
389.30 1.371896
389.40 1.371503
389.50 1.371189
389.60 1.370887
389.70 1.370328
389.80 1.370037
389.90 1.369746
390.00 1.369455
390.10 1.369164
390.20 1.368874
390.30 1.368618
390.40 1.368403
390.50 1.368188
390.60 1.367973
390.70 1.367758
390.80 1.36747
390.90 1.367111
391.00 1.366661
391.10 1.366546
391.20 1.366309
391.30 1.365799
391.40 1.365501
391.50 1.365204
391.60 1.364907
391.70 1.364609
391.80 1.364312
391.90 1.364091
392.00 1.363834
392.10 1.363398
392.20 1.36303
392.30 1.363045
392.40 1.362744
392.50 1.362154
392.60 1.361953
392.70 1.361856
392.80 1.361565
392.90 1.361177
393.00 1.360801
393.10 1.360479
393.20 1.360206
393.30 1.359812
393.40 1.35954
393.50 1.359295
393.60 1.359198
393.70 1.358938
393.80 1.358438
393.90 1.358044
394.00 1.357711
394.10 1.357669
394.20 1.357281
394.30 1.357
394.40 1.356695
394.50 1.35655
394.60 1.356192
394.70 1.355823
394.80 1.355407
394.90 1.355002
395.00 1.354886
395.10 1.354614
395.20 1.354411
395.30 1.35411
395.40 1.353808
395.50 1.353402
395.60 1.352957
395.70 1.352597
395.80 1.352467
395.90 1.352338
396.00 1.352159
396.10 1.351555
396.20 1.351166
396.30 1.351093
396.40 1.350602
396.50 1.350411
396.60 1.349927
396.70 1.349729
396.80 1.349286
396.90 1.349012
397.00 1.348857
397.10 1.348664
397.20 1.348213
397.30 1.348086
397.40 1.347774
397.50 1.347462
397.60 1.347154
397.70 1.346889
397.80 1.346624
397.90 1.346305
398.00 1.345835
398.10 1.345367
398.20 1.345024
398.30 1.344824
398.40 1.344624
398.50 1.344394
398.60 1.34384
398.70 1.343544
398.80 1.343343
398.90 1.343126
399.00 1.342881
399.10 1.342244
399.20 1.341968
399.30 1.341693
399.40 1.341418
399.50 1.341143
399.60 1.340848
399.70 1.340544
399.80 1.340241
399.90 1.339938
400.00 1.339638
400.10 1.33941
400.20 1.339263
400.30 1.338947
400.40 1.338505
400.50 1.338002
400.60 1.337753
400.70 1.337658
400.80 1.337145
400.90 1.33705
401.00 1.336418
401.10 1.336289
401.20 1.336072
401.30 1.335529
401.40 1.335172
401.50 1.33493
401.60 1.334688
401.70 1.334462
401.80 1.334364
401.90 1.333822
402.00 1.333728
402.10 1.333065
402.20 1.332971
402.30 1.332635
402.40 1.332214
402.50 1.33212
402.60 1.331489
402.70 1.331364
402.80 1.330987
402.90 1.330836
403.00 1.330459
403.10 1.329856
403.20 1.329775
403.30 1.329551
403.40 1.329009
403.50 1.328615
403.60 1.328304
403.70 1.328163
403.80 1.328079
403.90 1.327742
404.00 1.327319
404.10 1.327225
404.20 1.32685
404.30 1.326475
404.40 1.325819
404.50 1.325726
404.60 1.325352
404.70 1.324978
404.80 1.324885
404.90 1.32423
405.00 1.324137
405.10 1.323804
405.20 1.323551
405.30 1.323298
405.40 1.322925
405.50 1.322552
405.60 1.32218
405.70 1.321807
405.80 1.321435
405.90 1.321064
406.00 1.32075
406.10 1.320436
406.20 1.320123
406.30 1.319809
406.40 1.319542
406.50 1.319393
406.60 1.319023
406.70 1.318826
406.80 1.318395
406.90 1.317922
407.00 1.317608
407.10 1.317293
407.20 1.316979
407.30 1.316665
407.40 1.316352
407.50 1.316038
407.60 1.315725
407.70 1.315411
407.80 1.315098
407.90 1.314784
408.00 1.314442
408.10 1.314315
408.20 1.314091
408.30 1.313628
408.40 1.313164
408.50 1.313121
408.60 1.312669
408.70 1.312217
408.80 1.311814
408.90 1.311729
409.00 1.311405
409.10 1.31108
409.20 1.310756
409.30 1.310432
409.40 1.31011
409.50 1.309858
409.60 1.309606
409.70 1.309327
409.80 1.30894
409.90 1.308546
410.00 1.307908
410.10 1.307726
410.20 1.307522
410.30 1.307311
410.40 1.307042
410.50 1.306584
410.60 1.306128
410.70 1.305723
410.80 1.305529
410.90 1.305335
411.00 1.305044
411.10 1.304718
411.20 1.304391
411.30 1.304004
411.40 1.303381
411.50 1.303132
411.60 1.302883
411.70 1.302611
411.80 1.302249
411.90 1.301834
412.00 1.301744
412.10 1.301519
412.20 1.301023
412.30 1.300484
412.40 1.300322
412.50 1.300212
412.60 1.299582
412.70 1.299289
412.80 1.299079
412.90 1.298773
413.00 1.298222
413.10 1.297914
413.20 1.297607
413.30 1.297299
413.40 1.296992
413.50 1.296733
413.60 1.296596
413.70 1.296238
413.80 1.295881
413.90 1.295523
414.00 1.295166
414.10 1.294808
414.20 1.294387
414.30 1.294298
414.40 1.293674
414.50 1.293585
414.60 1.293025
414.70 1.292669
414.80 1.292345
414.90 1.292123
415.00 1.291901
415.10 1.291679
415.20 1.291401
415.30 1.290945
415.40 1.29049
415.50 1.290041
415.60 1.289803
415.70 1.289564
415.80 1.289275
415.90 1.28883
416.00 1.288386
416.10 1.287983
416.20 1.287746
416.30 1.287509
416.40 1.287273
416.50 1.287033
416.60 1.28668
416.70 1.286319
416.80 1.285702
416.90 1.285615
417.00 1.284998
417.10 1.284919
417.20 1.284567
417.30 1.284219
417.40 1.283977
417.50 1.283735
417.60 1.283418
417.70 1.282812
417.80 1.282461
417.90 1.282111
418.00 1.281761
418.10 1.281411
418.20 1.281061
418.30 1.280724
418.40 1.280685
418.50 1.280359
418.60 1.280032
418.70 1.279705
418.80 1.279379
418.90 1.279053
419.00 1.278727
419.10 1.278401
419.20 1.278076
419.30 1.277747
419.40 1.277323
419.50 1.276898
419.60 1.276508
419.70 1.276253
419.80 1.275998
419.90 1.275719
420.00 1.275367
420.10 1.275015
420.20 1.274664
420.30 1.274312
420.40 1.273961
420.50 1.27361
420.60 1.273259
420.70 1.272908
420.80 1.272558
420.90 1.272205
421.00 1.271788
421.10 1.27137
421.20 1.270981
421.30 1.270673
421.40 1.270366
421.50 1.270058
421.60 1.269751
421.70 1.269444
421.80 1.269138
421.90 1.268821
422.00 1.268473
422.10 1.26814
422.20 1.267864
422.30 1.26759
422.40 1.267313
422.50 1.266973
422.60 1.266634
422.70 1.266295
422.80 1.265956
422.90 1.265617
423.00 1.265279
423.10 1.26494
423.20 1.264602
423.30 1.264264
423.40 1.263926
423.50 1.263589
423.60 1.263251
423.70 1.262914
423.80 1.262577
423.90 1.26224
424.00 1.261903
424.10 1.261567
424.20 1.26123
424.30 1.260894
424.40 1.260504
424.50 1.260168
424.60 1.259832
424.70 1.259496
424.80 1.259161
424.90 1.258826
