# Version 2.1 - nm, norm@500 to 1, cut digits, bergeron_He_7500_85.dat_7500
# Wavelength(nm)  Flambda(ergs/cm^s/s/nm)
300.00 1.155645
300.10 1.156036
300.20 1.156429
300.30 1.15682
300.40 1.157198
300.50 1.157575
300.60 1.157952
300.70 1.158328
300.80 1.158703
300.90 1.159078
301.00 1.159451
301.10 1.159824
301.20 1.160197
301.30 1.160568
301.40 1.160939
301.50 1.161309
301.60 1.161678
301.70 1.162046
301.80 1.162414
301.90 1.162781
302.00 1.163147
302.10 1.163509
302.20 1.163869
302.30 1.164228
302.40 1.164587
302.50 1.164945
302.60 1.165302
302.70 1.165658
302.80 1.166014
302.90 1.166369
303.00 1.166723
303.10 1.167077
303.20 1.16743
303.30 1.167781
303.40 1.168123
303.50 1.168464
303.60 1.168804
303.70 1.169144
303.80 1.169483
303.90 1.169822
304.00 1.170159
304.10 1.170496
304.20 1.170833
304.30 1.171168
304.40 1.171503
304.50 1.171838
304.60 1.17218
304.70 1.172524
304.80 1.172866
304.90 1.173208
305.00 1.173549
305.10 1.173889
305.20 1.174229
305.30 1.174568
305.40 1.174906
305.50 1.175244
305.60 1.175581
305.70 1.175917
305.80 1.176252
305.90 1.176587
306.00 1.176921
306.10 1.177255
306.20 1.177587
306.30 1.17792
306.40 1.178244
306.50 1.178566
306.60 1.178887
306.70 1.179208
306.80 1.179528
306.90 1.179847
307.00 1.180166
307.10 1.180484
307.20 1.180801
307.30 1.181117
307.40 1.181433
307.50 1.181748
307.60 1.182063
307.70 1.182377
307.80 1.18269
307.90 1.183003
308.00 1.183315
308.10 1.183626
308.20 1.183937
308.30 1.184247
308.40 1.184556
308.50 1.184865
308.60 1.185173
308.70 1.18548
308.80 1.185791
308.90 1.186109
309.00 1.186437
309.10 1.186763
309.20 1.187089
309.30 1.187414
309.40 1.187736
309.50 1.188035
309.60 1.188334
309.70 1.188632
309.80 1.188929
309.90 1.189226
310.00 1.189522
310.10 1.189817
310.20 1.190112
310.30 1.190407
310.40 1.190706
310.50 1.191011
310.60 1.191315
310.70 1.191618
310.80 1.191921
310.90 1.192223
311.00 1.1925
311.10 1.192776
311.20 1.193051
311.30 1.19333
311.40 1.193622
311.50 1.193912
311.60 1.194202
311.70 1.194491
311.80 1.19478
311.90 1.195068
312.00 1.195355
312.10 1.195642
312.20 1.195941
312.30 1.196259
312.40 1.196567
312.50 1.19676
312.60 1.197073
312.70 1.197385
312.80 1.197696
312.90 1.197979
313.00 1.198232
313.10 1.198484
313.20 1.198736
313.30 1.198993
313.40 1.199266
313.50 1.199539
313.60 1.199811
313.70 1.200082
313.80 1.200353
313.90 1.200623
314.00 1.200893
314.10 1.201174
314.20 1.201454
314.30 1.201734
314.40 1.202013
314.50 1.202292
314.60 1.202569
314.70 1.202847
314.80 1.203097
314.90 1.203343
315.00 1.203667
315.10 1.203926
315.20 1.204185
315.30 1.204443
315.40 1.204701
315.50 1.204959
315.60 1.205215
315.70 1.205471
315.80 1.205727
315.90 1.205982
316.00 1.206236
316.10 1.20649
316.20 1.206743
316.30 1.207068
316.40 1.207248
316.50 1.207572
316.60 1.207751
316.70 1.208001
316.80 1.208251
316.90 1.2085
317.00 1.208749
317.10 1.208997
317.20 1.209245
317.30 1.20956
317.40 1.20985
317.50 1.210068
317.60 1.210286
317.70 1.210503
317.80 1.21072
317.90 1.210998
318.00 1.211325
318.10 1.211567
318.20 1.211809
318.30 1.212051
318.40 1.212292
318.50 1.212533
318.60 1.212698
318.70 1.212959
318.80 1.213134
318.90 1.213436
319.00 1.213727
319.10 1.213964
319.20 1.214197
319.30 1.214415
319.40 1.214634
319.50 1.214852
319.60 1.215006
319.70 1.21526
319.80 1.215514
319.90 1.215768
320.00 1.216011
320.10 1.216243
320.20 1.216394
320.30 1.216668
320.40 1.216885
320.50 1.217129
320.60 1.217395
320.70 1.217624
320.80 1.217852
320.90 1.21808
321.00 1.218307
321.10 1.218534
321.20 1.218681
321.30 1.218896
321.40 1.21911
321.50 1.219323
321.60 1.219537
321.70 1.219749
321.80 1.219996
321.90 1.220279
322.00 1.220448
322.10 1.220665
322.20 1.220881
322.30 1.221097
322.40 1.221312
322.50 1.221527
322.60 1.221742
322.70 1.221955
322.80 1.222096
322.90 1.222316
323.00 1.222536
323.10 1.222755
323.20 1.222973
323.30 1.223191
323.40 1.223408
323.50 1.223625
323.60 1.223842
323.70 1.224057
323.80 1.224273
323.90 1.224488
324.00 1.224656
324.10 1.224824
324.20 1.224992
324.30 1.225195
324.40 1.225446
324.50 1.225637
324.60 1.225828
324.70 1.226018
324.80 1.226207
324.90 1.226396
325.00 1.226584
325.10 1.226773
325.20 1.226965
325.30 1.227166
325.40 1.227368
325.50 1.227574
325.60 1.227785
325.70 1.227997
325.80 1.228207
325.90 1.228406
326.00 1.228591
326.10 1.228775
326.20 1.22896
326.30 1.229125
326.40 1.229237
326.50 1.229422
326.60 1.229606
326.70 1.22979
326.80 1.229974
326.90 1.230157
327.00 1.23034
327.10 1.230522
327.20 1.230703
327.30 1.230885
327.40 1.231066
327.50 1.231246
327.60 1.231426
327.70 1.231605
327.80 1.231784
327.90 1.23202
328.00 1.232251
328.10 1.232401
328.20 1.23255
328.30 1.232699
328.40 1.232848
328.50 1.233035
328.60 1.233232
328.70 1.233428
328.80 1.233617
328.90 1.233787
329.00 1.233957
329.10 1.234126
329.20 1.234295
329.30 1.234464
329.40 1.234632
329.50 1.234799
329.60 1.234967
329.70 1.235134
329.80 1.2353
329.90 1.235466
330.00 1.235628
330.10 1.235785
330.20 1.235943
330.30 1.236099
330.40 1.236255
330.50 1.236411
330.60 1.236566
330.70 1.236721
330.80 1.236875
330.90 1.237029
331.00 1.237183
331.10 1.237336
331.20 1.237488
331.30 1.237641
331.40 1.237793
331.50 1.237946
331.60 1.238101
331.70 1.238255
331.80 1.238407
331.90 1.238558
332.00 1.238708
332.10 1.238859
332.20 1.239009
332.30 1.239158
332.40 1.239308
332.50 1.239456
332.60 1.239605
332.70 1.239753
332.80 1.2399
332.90 1.240047
333.00 1.240194
333.10 1.24034
333.20 1.240485
333.30 1.240629
333.40 1.240773
333.50 1.240916
333.60 1.241059
333.70 1.241202
333.80 1.241344
333.90 1.241486
334.00 1.241628
334.10 1.241771
334.20 1.241916
334.30 1.24206
334.40 1.242205
334.50 1.242349
334.60 1.242492
334.70 1.242629
334.80 1.242746
334.90 1.242843
335.00 1.242941
335.10 1.243141
335.20 1.243239
335.30 1.243395
335.40 1.243493
335.50 1.243702
335.60 1.243815
335.70 1.243883
335.80 1.244043
335.90 1.244188
336.00 1.244316
336.10 1.244443
336.20 1.244569
336.30 1.244691
336.40 1.244806
336.50 1.244921
336.60 1.245036
336.70 1.24515
336.80 1.245263
336.90 1.245378
337.00 1.245493
337.10 1.245608
337.20 1.245722
337.30 1.245838
337.40 1.245955
337.50 1.246072
337.60 1.246189
337.70 1.246305
337.80 1.246421
337.90 1.246541
338.00 1.246665
338.10 1.246789
338.20 1.246913
338.30 1.247036
338.40 1.247154
338.50 1.247259
338.60 1.247364
338.70 1.247468
338.80 1.247572
338.90 1.247675
339.00 1.247778
339.10 1.247881
339.20 1.247984
339.30 1.248112
339.40 1.248277
339.50 1.24841
339.60 1.248505
339.70 1.248599
339.80 1.248694
339.90 1.248788
340.00 1.248881
340.10 1.248975
340.20 1.249068
340.30 1.24916
340.40 1.249253
340.50 1.249345
340.60 1.249437
340.70 1.249528
340.80 1.249647
340.90 1.249806
341.00 1.249915
341.10 1.249962
341.20 1.250008
341.30 1.250055
341.40 1.250101
341.50 1.250147
341.60 1.250193
341.70 1.250238
341.80 1.250328
341.90 1.250473
342.00 1.250618
342.10 1.250763
342.20 1.250732
342.30 1.250714
342.40 1.25085
342.50 1.25095
342.60 1.25105
342.70 1.251149
342.80 1.251249
342.90 1.251347
343.00 1.251486
343.10 1.251672
343.20 1.251858
343.30 1.252043
343.40 1.25219
343.50 1.252281
343.60 1.252372
343.70 1.252462
343.80 1.252553
343.90 1.252642
344.00 1.252648
344.10 1.252533
344.20 1.252418
344.30 1.252303
344.40 1.252439
344.50 1.252935
344.60 1.252929
344.70 1.253424
344.80 1.252727
344.90 1.253191
345.00 1.252964
345.10 1.253457
345.20 1.253787
345.30 1.253884
345.40 1.25398
345.50 1.253706
345.60 1.253313
345.70 1.253397
345.80 1.253482
345.90 1.253566
346.00 1.25365
346.10 1.253733
346.20 1.253833
346.30 1.253956
346.40 1.254079
346.50 1.254202
346.60 1.254324
346.70 1.254446
346.80 1.254567
346.90 1.254688
347.00 1.254809
347.10 1.25493
347.20 1.255007
347.30 1.255024
347.40 1.255041
347.50 1.255057
347.60 1.255073
347.70 1.255089
347.80 1.255104
347.90 1.25512
348.00 1.255135
348.10 1.25515
348.20 1.255164
348.30 1.255179
348.40 1.255193
348.50 1.255207
348.60 1.255221
348.70 1.255349
348.80 1.255477
348.90 1.255552
349.00 1.255627
349.10 1.255702
349.20 1.255777
349.30 1.255851
349.40 1.255925
349.50 1.255998
349.60 1.256072
349.70 1.256145
349.80 1.256217
349.90 1.25629
350.00 1.256362
350.10 1.256434
350.20 1.256506
350.30 1.256561
350.40 1.256593
350.50 1.256624
350.60 1.256656
350.70 1.256687
350.80 1.256717
350.90 1.256748
351.00 1.256778
351.10 1.256809
351.20 1.256839
351.30 1.256868
351.40 1.256913
351.50 1.256986
351.60 1.257058
351.70 1.257129
351.80 1.257201
351.90 1.257272
352.00 1.257343
352.10 1.257414
352.20 1.257485
352.30 1.257523
352.40 1.257515
352.50 1.257506
352.60 1.257496
352.70 1.257487
352.80 1.257477
352.90 1.257467
353.00 1.257457
353.10 1.257447
353.20 1.257437
353.30 1.257426
353.40 1.257416
353.50 1.257472
353.60 1.257545
353.70 1.257618
353.80 1.257691
353.90 1.257761
354.00 1.257827
354.10 1.257893
354.20 1.257959
354.30 1.258024
354.40 1.258089
354.50 1.258153
354.60 1.258218
354.70 1.258282
354.80 1.25835
354.90 1.258425
355.00 1.2585
355.10 1.258574
355.20 1.258649
355.30 1.258474
355.40 1.258299
355.50 1.258124
355.60 1.257949
355.70 1.258087
355.80 1.258364
355.90 1.258286
356.00 1.25815
356.10 1.258157
356.20 1.258164
356.30 1.258171
356.40 1.258177
356.50 1.258183
356.60 1.258189
356.70 1.258195
356.80 1.2582
356.90 1.258205
357.00 1.25821
357.10 1.258215
357.20 1.25822
357.30 1.258224
357.40 1.258217
357.50 1.25819
357.60 1.258162
357.70 1.258134
357.80 1.258461
357.90 1.258788
358.00 1.258812
358.10 1.258759
358.20 1.258707
358.30 1.258654
358.40 1.258601
358.50 1.258548
358.60 1.258495
358.70 1.258442
358.80 1.258389
358.90 1.258335
359.00 1.258412
359.10 1.258721
359.20 1.258961
359.30 1.258743
359.40 1.258524
359.50 1.258563
359.60 1.258665
359.70 1.258766
359.80 1.258916
359.90 1.259065
360.00 1.259134
360.10 1.25906
360.20 1.258987
360.30 1.258912
360.40 1.258838
360.50 1.258764
360.60 1.258374
360.70 1.258513
360.80 1.258651
360.90 1.25879
361.00 1.258627
361.10 1.258549
361.20 1.258346
361.30 1.258762
361.40 1.258065
361.50 1.25848
361.60 1.258184
361.70 1.258598
361.80 1.258768
361.90 1.258505
362.00 1.258243
362.10 1.258249
362.20 1.258308
362.30 1.258341
362.40 1.258374
362.50 1.258407
362.60 1.258439
362.70 1.258503
362.80 1.2583
362.90 1.258155
363.00 1.25801
363.10 1.258318
363.20 1.25863
363.30 1.258138
363.40 1.258545
363.50 1.257853
363.60 1.258259
363.70 1.258176
363.80 1.257972
363.90 1.258064
364.00 1.258155
364.10 1.258246
364.20 1.258337
364.30 1.258289
364.40 1.258206
364.50 1.258612
364.60 1.258284
364.70 1.257957
364.80 1.257629
364.90 1.25803
365.00 1.258431
365.10 1.257741
365.20 1.258141
365.30 1.257996
365.40 1.257851
365.50 1.257706
365.60 1.257562
365.70 1.257861
365.80 1.258159
365.90 1.258151
366.00 1.258065
366.10 1.25791
366.20 1.257755
366.30 1.2576
366.40 1.257445
366.50 1.257865
366.60 1.257191
366.70 1.257323
366.80 1.257455
366.90 1.257502
367.00 1.257398
367.10 1.257294
367.20 1.25719
367.30 1.257086
367.40 1.256982
367.50 1.256892
367.60 1.256805
367.70 1.256969
367.80 1.257133
367.90 1.257296
368.00 1.25729
368.10 1.256607
368.20 1.256619
368.30 1.256638
368.40 1.256657
368.50 1.256675
368.60 1.256694
368.70 1.256712
368.80 1.25673
368.90 1.256496
369.00 1.256286
369.10 1.256194
369.20 1.256584
369.30 1.256614
369.40 1.256642
369.50 1.256671
369.60 1.25652
369.70 1.256369
369.80 1.256263
369.90 1.256157
370.00 1.256051
370.10 1.255779
370.20 1.256149
370.30 1.25653
370.40 1.255862
370.50 1.256241
370.60 1.255563
370.70 1.255942
370.80 1.25579
370.90 1.255638
371.00 1.255491
371.10 1.255344
371.20 1.255716
371.30 1.256088
371.40 1.255634
371.50 1.255545
371.60 1.255457
371.70 1.255368
371.80 1.25528
371.90 1.255191
372.00 1.254822
372.10 1.254896
372.20 1.254921
372.30 1.254945
372.40 1.254969
372.50 1.254992
372.60 1.255016
372.70 1.255039
372.80 1.254886
372.90 1.254732
373.00 1.254584
373.10 1.254435
373.20 1.254284
373.30 1.254133
373.40 1.254502
373.50 1.254351
373.60 1.2542
373.70 1.254568
373.80 1.254124
373.90 1.254264
374.00 1.254113
374.10 1.253961
374.20 1.253809
374.30 1.253657
374.40 1.253635
374.50 1.253353
374.60 1.253454
374.70 1.253563
374.80 1.253671
374.90 1.253779
375.00 1.253454
375.10 1.25313
375.20 1.252806
375.30 1.252874
375.40 1.252942
375.50 1.253011
375.60 1.253078
375.70 1.253146
375.80 1.253213
375.90 1.25328
376.00 1.252614
376.10 1.252612
376.20 1.252616
376.30 1.252621
376.40 1.252625
376.50 1.252644
376.60 1.252684
376.70 1.252725
376.80 1.252651
376.90 1.252462
377.00 1.252274
377.10 1.252086
377.20 1.251932
377.30 1.251903
377.40 1.251875
377.50 1.251846
377.60 1.251847
377.70 1.251848
377.80 1.251849
377.90 1.251849
378.00 1.251584
378.10 1.251504
378.20 1.25143
378.30 1.251355
378.40 1.251281
378.50 1.251206
378.60 1.251131
378.70 1.251056
378.80 1.250981
378.90 1.250701
379.00 1.250041
379.10 1.25019
379.20 1.250338
379.30 1.250408
379.40 1.2504
379.50 1.250391
379.60 1.250122
379.70 1.249592
379.80 1.249546
379.90 1.249501
380.00 1.249454
380.10 1.249408
380.20 1.249362
380.30 1.249315
380.40 1.249269
380.50 1.249222
380.60 1.248845
380.70 1.248872
380.80 1.248899
380.90 1.248925
381.00 1.248951
381.10 1.248921
381.20 1.24864
381.30 1.248172
381.40 1.248508
381.50 1.248365
381.60 1.248353
381.70 1.24836
381.80 1.247706
381.90 1.248048
382.00 1.248389
382.10 1.247736
382.20 1.247481
382.30 1.247821
382.40 1.2479
382.50 1.247586
382.60 1.247272
382.70 1.24728
382.80 1.24737
382.90 1.24718
383.00 1.24699
383.10 1.246801
383.20 1.246629
383.30 1.246524
383.40 1.246483
383.50 1.246538
383.60 1.245947
383.70 1.245947
383.80 1.245947
383.90 1.245947
384.00 1.245947
384.10 1.245946
384.20 1.245945
384.30 1.245945
384.40 1.245849
384.50 1.245659
384.60 1.245469
384.70 1.245278
384.80 1.245232
384.90 1.245472
385.00 1.245246
385.10 1.245011
385.20 1.244598
385.30 1.244448
385.40 1.244392
385.50 1.24443
385.60 1.244467
385.70 1.244504
385.80 1.244518
385.90 1.244443
386.00 1.244083
386.10 1.243506
386.20 1.243614
386.30 1.243721
386.40 1.243453
386.50 1.24321
386.60 1.243138
386.70 1.243466
386.80 1.243065
386.90 1.24315
387.00 1.243017
387.10 1.242835
387.20 1.242894
387.30 1.242519
387.40 1.242845
387.50 1.242204
387.60 1.24263
387.70 1.242472
387.80 1.242314
387.90 1.242156
388.00 1.241897
388.10 1.241404
388.20 1.241733
388.30 1.2414
388.40 1.241066
388.50 1.240921
388.60 1.241221
388.70 1.241271
388.80 1.240632
388.90 1.240894
389.00 1.240814
389.10 1.240637
389.20 1.240417
389.30 1.240493
389.40 1.240347
389.50 1.240326
389.60 1.240324
389.70 1.239858
389.80 1.23971
389.90 1.239561
390.00 1.239412
390.10 1.239263
390.20 1.239115
390.30 1.239008
390.40 1.238948
390.50 1.238888
390.60 1.238828
390.70 1.238768
390.80 1.23869
390.90 1.238593
391.00 1.238228
391.10 1.238056
391.20 1.238056
391.30 1.238325
391.40 1.238166
391.50 1.238007
391.60 1.237848
391.70 1.237689
391.80 1.237531
391.90 1.23715
392.00 1.236846
392.10 1.237032
392.20 1.237145
392.30 1.236835
392.40 1.236827
392.50 1.236197
392.60 1.236509
392.70 1.236044
392.80 1.236191
392.90 1.235737
393.00 1.235608
393.10 1.235564
393.20 1.235597
393.30 1.235438
393.40 1.235237
393.50 1.235368
393.60 1.234918
393.70 1.235228
393.80 1.234643
393.90 1.234484
394.00 1.234418
394.10 1.234814
394.20 1.234661
394.30 1.234272
394.40 1.233723
394.50 1.233954
394.60 1.233849
394.70 1.233725
394.80 1.233527
394.90 1.233347
395.00 1.233623
395.10 1.232998
395.20 1.232859
395.30 1.23284
395.40 1.232822
395.50 1.232637
395.60 1.232391
395.70 1.232201
395.80 1.232161
395.90 1.232121
396.00 1.232028
396.10 1.231531
396.20 1.231372
396.30 1.231712
396.40 1.231391
396.50 1.231543
396.60 1.231072
396.70 1.230775
396.80 1.230753
396.90 1.231055
397.00 1.230435
397.10 1.230582
397.20 1.230321
397.30 1.230494
397.40 1.230164
397.50 1.229834
397.60 1.229537
397.70 1.22957
397.80 1.229602
397.90 1.229547
398.00 1.229257
398.10 1.228966
398.20 1.228699
398.30 1.228457
398.40 1.228225
398.50 1.228312
398.60 1.228602
398.70 1.228481
398.80 1.228237
398.90 1.227863
399.00 1.227248
399.10 1.227582
399.20 1.227385
399.30 1.227188
399.40 1.226991
399.50 1.226794
399.60 1.226716
399.70 1.226682
399.80 1.226648
399.90 1.226614
400.00 1.226563
400.10 1.22595
400.20 1.225973
400.30 1.225917
400.40 1.225663
400.50 1.225312
400.60 1.22503
400.70 1.224871
400.80 1.225286
400.90 1.224821
401.00 1.224966
401.10 1.224356
401.20 1.224453
401.30 1.224037
401.40 1.223914
401.50 1.223972
401.60 1.224009
401.70 1.2234
401.80 1.223496
401.90 1.223551
402.00 1.223371
402.10 1.222762
402.20 1.223052
402.30 1.222444
402.40 1.222733
402.50 1.222125
402.60 1.222414
402.70 1.221807
402.80 1.222095
402.90 1.221846
403.00 1.221686
403.10 1.22117
403.20 1.221477
403.30 1.221558
403.40 1.221138
403.50 1.22095
403.60 1.220819
403.70 1.220214
403.80 1.220515
403.90 1.220417
404.00 1.220182
404.10 1.219578
404.20 1.219419
404.30 1.219259
404.40 1.219544
404.50 1.219385
404.60 1.219225
404.70 1.218623
404.80 1.218907
404.90 1.218305
405.00 1.218588
405.10 1.218239
405.20 1.217954
405.30 1.217669
405.40 1.217509
405.50 1.21735
405.60 1.217191
405.70 1.217032
405.80 1.216873
405.90 1.216714
406.00 1.216647
406.10 1.216579
406.20 1.216511
406.30 1.216443
406.40 1.216359
406.50 1.215982
406.60 1.216041
406.70 1.215717
406.80 1.215462
406.90 1.215138
407.00 1.214979
407.10 1.21482
407.20 1.214661
407.30 1.214502
407.40 1.214344
407.50 1.214185
407.60 1.214026
407.70 1.213867
407.80 1.213708
407.90 1.213551
408.00 1.213432
408.10 1.213219
408.20 1.213078
408.30 1.213052
408.40 1.213024
408.50 1.212584
408.60 1.212592
408.70 1.2126
408.80 1.212542
408.90 1.212069
409.00 1.211976
409.10 1.211883
409.20 1.21179
409.30 1.211697
409.40 1.211598
409.50 1.211312
409.60 1.211026
409.70 1.210759
409.80 1.210567
409.90 1.210387
410.00 1.210635
410.10 1.210045
410.20 1.209725
410.30 1.209472
410.40 1.209275
410.50 1.209252
410.60 1.20923
410.70 1.209163
410.80 1.208923
410.90 1.208683
411.00 1.208544
411.10 1.208443
411.20 1.208341
411.30 1.208143
411.40 1.207574
411.50 1.207593
411.60 1.207612
411.70 1.207595
411.80 1.207436
411.90 1.207192
412.00 1.206606
412.10 1.206662
412.20 1.20629
412.30 1.205851
412.40 1.205974
412.50 1.205511
412.60 1.205536
412.70 1.205339
412.80 1.205086
412.90 1.20479
413.00 1.205106
413.10 1.204861
413.20 1.204615
413.30 1.204369
413.40 1.204124
413.50 1.203988
413.60 1.204179
413.70 1.204021
413.80 1.203863
413.90 1.203705
414.00 1.203446
414.10 1.202864
414.20 1.202791
414.30 1.202549
414.40 1.202645
414.50 1.202234
414.60 1.201755
414.70 1.201598
414.80 1.20144
414.90 1.201283
415.00 1.201125
415.10 1.200968
415.20 1.200835
415.30 1.200781
415.40 1.200727
415.50 1.200667
415.60 1.20039
415.70 1.200114
415.80 1.199832
415.90 1.199531
416.00 1.19923
416.10 1.198955
416.20 1.198781
416.30 1.198606
416.40 1.198432
416.50 1.198259
416.60 1.198102
416.70 1.197932
416.80 1.198193
416.90 1.197618
417.00 1.197879
417.10 1.197317
417.20 1.19716
417.30 1.196999
417.40 1.19672
417.50 1.196441
417.60 1.196246
417.70 1.196376
417.80 1.196219
417.90 1.196062
418.00 1.195905
418.10 1.195748
418.20 1.195591
418.30 1.195422
418.40 1.194937
418.50 1.194726
418.60 1.194515
418.70 1.194304
418.80 1.194094
418.90 1.193883
419.00 1.193672
419.10 1.193461
419.20 1.193251
419.30 1.193047
419.40 1.193061
419.50 1.193076
419.60 1.193029
419.70 1.192739
419.80 1.192449
419.90 1.192189
420.00 1.192024
420.10 1.19186
420.20 1.191695
420.30 1.191531
420.40 1.191366
420.50 1.191201
420.60 1.191037
420.70 1.190872
420.80 1.190708
420.90 1.19054
421.00 1.190269
421.10 1.189998
421.20 1.189742
421.30 1.189527
421.40 1.189312
421.50 1.189098
421.60 1.188883
421.70 1.188669
421.80 1.188454
421.90 1.188252
422.00 1.188089
422.10 1.187897
422.20 1.187591
422.30 1.187285
422.40 1.186983
422.50 1.186791
422.60 1.186599
422.70 1.186407
422.80 1.186216
422.90 1.186024
423.00 1.185832
423.10 1.18564
423.20 1.185449
423.30 1.185257
423.40 1.185065
423.50 1.184874
423.60 1.184682
423.70 1.184491
423.80 1.1843
423.90 1.184108
424.00 1.183917
424.10 1.183726
424.20 1.183535
424.30 1.183343
424.40 1.183077
424.50 1.182926
424.60 1.182776
424.70 1.182625
424.80 1.182475
424.90 1.182324
