# Version 2.1 - nm, norm@500 to 1, cut digits, bergeron_He_17000_85.dat_17000
# Wavelength(nm)  Flambda(ergs/cm^s/s/nm)
300.00 3.754977
300.10 3.75313
300.20 3.751315
300.30 3.749412
300.40 3.746916
300.50 3.744423
300.60 3.741932
300.70 3.739444
300.80 3.736958
300.90 3.734474
301.00 3.731993
301.10 3.729515
301.20 3.727039
301.30 3.724565
301.40 3.722094
301.50 3.719626
301.60 3.717159
301.70 3.714696
301.80 3.712234
301.90 3.709776
302.00 3.707319
302.10 3.704602
302.20 3.701858
302.30 3.699117
302.40 3.696379
302.50 3.693643
302.60 3.690911
302.70 3.688181
302.80 3.685454
302.90 3.68273
303.00 3.680009
303.10 3.67729
303.20 3.674574
303.30 3.671875
303.40 3.669303
303.50 3.666733
303.60 3.664166
303.70 3.661601
303.80 3.659039
303.90 3.65648
304.00 3.653923
304.10 3.651369
304.20 3.648817
304.30 3.646268
304.40 3.643722
304.50 3.641178
304.60 3.638498
304.70 3.635805
304.80 3.633116
304.90 3.630429
305.00 3.627744
305.10 3.625063
305.20 3.622384
305.30 3.619708
305.40 3.617034
305.50 3.614364
305.60 3.611696
305.70 3.609031
305.80 3.606368
305.90 3.603708
306.00 3.601051
306.10 3.598397
306.20 3.595745
306.30 3.593096
306.40 3.590396
306.50 3.587682
306.60 3.584972
306.70 3.582263
306.80 3.579558
306.90 3.576856
307.00 3.574156
307.10 3.571459
307.20 3.568764
307.30 3.566073
307.40 3.563384
307.50 3.560698
307.60 3.558015
307.70 3.555334
307.80 3.552656
307.90 3.549981
308.00 3.547309
308.10 3.544639
308.20 3.541972
308.30 3.539308
308.40 3.536646
308.50 3.533987
308.60 3.531331
308.70 3.528678
308.80 3.525752
308.90 3.522048
309.00 3.5194
309.10 3.516755
309.20 3.514113
309.30 3.511473
309.40 3.508836
309.50 3.5062
309.60 3.503566
309.70 3.500935
309.80 3.498306
309.90 3.49568
310.00 3.493057
310.10 3.490437
310.20 3.487819
310.30 3.485203
310.40 3.482456
310.50 3.479567
310.60 3.47668
310.70 3.473796
310.80 3.470915
310.90 3.468037
311.00 3.465335
311.10 3.462635
311.20 3.459938
311.30 3.457164
311.40 3.454166
311.50 3.45117
311.60 3.448178
311.70 3.445189
311.80 3.442204
311.90 3.439221
312.00 3.436241
312.10 3.433265
312.20 3.430446
312.30 3.427471
312.40 3.424304
312.50 3.421924
312.60 3.418795
312.70 3.415669
312.80 3.412546
312.90 3.40948
313.00 3.406474
313.10 3.403472
313.20 3.400474
313.30 3.397381
313.40 3.394014
313.50 3.390651
313.60 3.387292
313.70 3.383937
313.80 3.380585
313.90 3.377236
314.00 3.373892
314.10 3.369953
314.20 3.366018
314.30 3.362088
314.40 3.358162
314.50 3.354241
314.60 3.350324
314.70 3.346411
314.80 3.342966
314.90 3.339724
315.00 3.335276
315.10 3.330577
315.20 3.325883
315.30 3.321195
315.40 3.316511
315.50 3.311833
315.60 3.307161
315.70 3.302493
315.80 3.297831
315.90 3.293174
316.00 3.288522
316.10 3.284731
316.20 3.280944
316.30 3.277161
316.40 3.270821
316.50 3.258516
316.60 3.238551
316.70 3.218611
316.80 3.198695
316.90 3.194549
317.00 3.190407
317.10 3.18627
317.20 3.182138
317.30 3.188915
317.40 3.192882
317.50 3.188881
317.60 3.184884
317.70 3.180892
317.80 3.176904
317.90 3.158213
318.00 3.133953
318.10 3.092706
318.20 3.051509
318.30 3.010364
318.40 2.951186
318.50 2.840643
318.60 2.708127
318.70 2.383124
318.80 1.715581
318.90 2.311556
319.00 2.53329
319.10 2.667683
319.20 2.782039
319.30 2.839734
319.40 2.897357
319.50 2.954907
319.60 2.999182
319.70 3.023853
319.80 3.048493
319.90 3.073102
320.00 3.092573
320.10 3.10649
320.20 3.119857
320.30 3.129837
320.40 3.138874
320.50 3.147566
320.60 3.153519
320.70 3.159032
320.80 3.163143
320.90 3.165737
321.00 3.168327
321.10 3.170913
321.20 3.171904
321.30 3.172222
321.40 3.172539
321.50 3.172855
321.60 3.173169
321.70 3.173483
321.80 3.17377
321.90 3.174028
322.00 3.17259
322.10 3.171645
322.20 3.1707
322.30 3.169756
322.40 3.168813
322.50 3.16787
322.60 3.166928
322.70 3.165986
322.80 3.164631
322.90 3.162963
323.00 3.161296
323.10 3.15963
323.20 3.157966
323.30 3.156303
323.40 3.154642
323.50 3.152982
323.60 3.151323
323.70 3.149666
323.80 3.148011
323.90 3.146357
324.00 3.144415
324.10 3.142475
324.20 3.140536
324.30 3.1386
324.40 3.13657
324.50 3.134438
324.60 3.132308
324.70 3.13018
324.80 3.128054
324.90 3.125931
325.00 3.123809
325.10 3.121689
325.20 3.119635
325.30 3.117717
325.40 3.115802
325.50 3.113704
325.60 3.111386
325.70 3.10907
325.80 3.106756
325.90 3.104456
326.00 3.10217
326.10 3.099887
326.20 3.097606
326.30 3.095426
326.40 3.09353
326.50 3.091304
326.60 3.08908
326.70 3.086858
326.80 3.084639
326.90 3.082421
327.00 3.080206
327.10 3.077993
327.20 3.075782
327.30 3.073573
327.40 3.071366
327.50 3.069162
327.60 3.066959
327.70 3.064759
327.80 3.06256
327.90 3.060522
328.00 3.058039
328.10 3.054807
328.20 3.051577
328.30 3.048351
328.40 3.045129
328.50 3.043016
328.60 3.041164
328.70 3.039314
328.80 3.03743
328.90 3.03545
329.00 3.033471
329.10 3.031494
329.20 3.029519
329.30 3.027546
329.40 3.025575
329.50 3.023605
329.60 3.021638
329.70 3.019672
329.80 3.017708
329.90 3.015746
330.00 3.013667
330.10 3.011446
330.20 3.009228
330.30 3.007011
330.40 3.00485
330.50 3.002748
330.60 3.000648
330.70 2.99855
330.80 2.996454
330.90 2.99436
331.00 2.992269
331.10 2.990179
331.20 2.988091
331.30 2.986005
331.40 2.983921
331.50 2.981966
331.60 2.980167
331.70 2.978371
331.80 2.976134
331.90 2.973882
332.00 2.971631
332.10 2.969383
332.20 2.967137
332.30 2.964893
332.40 2.962651
332.50 2.960412
332.60 2.958174
332.70 2.955939
332.80 2.953706
332.90 2.951475
333.00 2.949246
333.10 2.947017
333.20 2.944786
333.30 2.942558
333.40 2.940332
333.50 2.938108
333.60 2.935886
333.70 2.933666
333.80 2.931448
333.90 2.929232
334.00 2.927019
334.10 2.924555
334.20 2.921785
334.30 2.919017
334.40 2.916252
334.50 2.913491
334.60 2.910731
334.70 2.908433
334.80 2.90598
334.90 2.902499
335.00 2.899023
335.10 2.895899
335.20 2.891889
335.30 2.88872
335.40 2.884149
335.50 2.884138
335.60 2.884696
335.70 2.883888
335.80 2.882929
335.90 2.8818
336.00 2.880463
336.10 2.879127
336.20 2.877793
336.30 2.87629
336.40 2.87458
336.50 2.872872
336.60 2.871165
336.70 2.86946
336.80 2.867756
336.90 2.866054
337.00 2.864353
337.10 2.862654
337.20 2.860956
337.30 2.859157
337.40 2.85721
337.50 2.855266
337.60 2.853323
337.70 2.851382
337.80 2.849442
337.90 2.847487
338.00 2.845513
338.10 2.84354
338.20 2.841569
338.30 2.8396
338.40 2.837668
338.50 2.835823
338.60 2.833981
338.70 2.83214
338.80 2.8303
338.90 2.828463
339.00 2.826627
339.10 2.824792
339.20 2.82296
339.30 2.820887
339.40 2.818468
339.50 2.816186
339.60 2.814074
339.70 2.811963
339.80 2.809854
339.90 2.807747
340.00 2.805642
340.10 2.803539
340.20 2.801438
340.30 2.799339
340.40 2.797242
340.50 2.795147
340.60 2.793054
340.70 2.790962
340.80 2.789058
340.90 2.787422
341.00 2.785457
341.10 2.783089
341.20 2.780724
341.30 2.778361
341.40 2.776
341.50 2.773642
341.60 2.771286
341.70 2.768932
341.80 2.7666
341.90 2.764294
342.00 2.761989
342.10 2.759688
342.20 2.757525
342.30 2.755075
342.40 2.752446
342.50 2.749861
342.60 2.747278
342.70 2.744698
342.80 2.742121
342.90 2.739546
343.00 2.736927
343.10 2.734253
343.20 2.731583
343.30 2.728914
343.40 2.726096
343.50 2.72306
343.60 2.720027
343.70 2.716998
343.80 2.713971
343.90 2.710948
344.00 2.707335
344.10 2.702874
344.20 2.698418
344.30 2.693967
344.40 2.688634
344.50 2.682032
344.60 2.674552
344.70 2.665807
344.80 2.671594
344.90 2.675793
345.00 2.67822
345.10 2.679539
345.20 2.680474
345.30 2.680859
345.40 2.681244
345.50 2.681376
345.60 2.680832
345.70 2.679758
345.80 2.678685
345.90 2.677612
346.00 2.676541
346.10 2.67547
346.20 2.674264
346.30 2.672862
346.40 2.671461
346.50 2.670062
346.60 2.668664
346.70 2.667267
346.80 2.665871
346.90 2.664476
347.00 2.663083
347.10 2.66169
347.20 2.660162
347.30 2.658436
347.40 2.656713
347.50 2.654991
347.60 2.65327
347.70 2.651551
347.80 2.649834
347.90 2.648118
348.00 2.646403
348.10 2.644691
348.20 2.642979
348.30 2.641269
348.40 2.639561
348.50 2.637854
348.60 2.636149
348.70 2.634591
348.80 2.632966
348.90 2.631176
349.00 2.629387
349.10 2.627601
349.20 2.625816
349.30 2.624032
349.40 2.62225
349.50 2.62047
349.60 2.618691
349.70 2.616914
349.80 2.615139
349.90 2.613365
350.00 2.611593
350.10 2.609822
350.20 2.608053
350.30 2.606297
350.40 2.604557
350.50 2.60282
350.60 2.601083
350.70 2.599349
350.80 2.597615
350.90 2.595884
351.00 2.594154
351.10 2.592425
351.20 2.590698
351.30 2.588973
351.40 2.587206
351.50 2.585363
351.60 2.583522
351.70 2.581682
351.80 2.579844
351.90 2.578008
352.00 2.576174
352.10 2.574341
352.20 2.572842
352.30 2.571236
352.40 2.569421
352.50 2.567608
352.60 2.565797
352.70 2.563987
352.80 2.562179
352.90 2.560372
353.00 2.558567
353.10 2.556764
353.20 2.554962
353.30 2.553162
353.40 2.551364
353.50 2.549604
353.60 2.547854
353.70 2.546106
353.80 2.544359
353.90 2.54256
354.00 2.540666
354.10 2.538774
354.20 2.536884
354.30 2.534996
354.40 2.53311
354.50 2.531225
354.60 2.529342
354.70 2.52746
354.80 2.525641
354.90 2.52391
355.00 2.522181
355.10 2.520453
355.20 2.518727
355.30 2.516995
355.40 2.515265
355.50 2.513536
355.60 2.511809
355.70 2.509899
355.80 2.507909
355.90 2.506129
356.00 2.504348
356.10 2.502475
356.20 2.500604
356.30 2.498734
356.40 2.496866
356.50 2.495
356.60 2.493135
356.70 2.491272
356.80 2.489411
356.90 2.487551
357.00 2.485694
357.10 2.483837
357.20 2.481983
357.30 2.48013
357.40 2.478303
357.50 2.476518
357.60 2.474736
357.70 2.472954
357.80 2.470965
357.90 2.468978
358.00 2.466762
358.10 2.464491
358.20 2.462222
358.30 2.459955
358.40 2.45769
358.50 2.455427
358.60 2.453167
358.70 2.450908
358.80 2.448652
358.90 2.446398
359.00 2.443824
359.10 2.440679
359.20 2.437622
359.30 2.435129
359.40 2.432638
359.50 2.429546
359.60 2.426307
359.70 2.42307
359.80 2.419223
359.90 2.415379
360.00 2.411201
360.10 2.406425
360.20 2.401654
360.30 2.396888
360.40 2.392127
360.50 2.387371
360.60 2.381254
360.70 2.374021
360.80 2.366796
360.90 2.359579
361.00 2.351121
361.10 2.337022
361.20 2.319131
361.30 2.286157
361.40 2.315715
361.50 2.342753
361.60 2.35155
361.70 2.352864
361.80 2.35452
361.90 2.356788
362.00 2.359053
362.10 2.359912
362.20 2.360076
362.30 2.35963
362.40 2.359184
362.50 2.358738
362.60 2.358293
362.70 2.356442
362.80 2.354566
362.90 2.351331
363.00 2.348099
363.10 2.344442
363.20 2.340785
363.30 2.337728
363.40 2.335794
363.50 2.339037
363.60 2.342923
363.70 2.345799
363.80 2.348097
363.90 2.349266
364.00 2.350432
364.10 2.351598
364.20 2.352761
364.30 2.353678
364.40 2.354532
364.50 2.354544
364.60 2.354961
364.70 2.355378
364.80 2.355794
364.90 2.355145
365.00 2.354496
365.10 2.353206
365.20 2.349995
365.30 2.348068
365.40 2.349344
365.50 2.349338
365.60 2.349332
365.70 2.348628
365.80 2.347925
365.90 2.347325
366.00 2.346752
366.10 2.345783
366.20 2.344815
366.30 2.343848
366.40 2.342882
366.50 2.341625
366.60 2.340348
366.70 2.339072
366.80 2.337797
366.90 2.336358
367.00 2.334629
367.10 2.3329
367.20 2.331174
367.30 2.329449
367.40 2.327726
367.50 2.325243
367.60 2.322572
367.70 2.320311
367.80 2.318052
367.90 2.315795
368.00 2.313739
368.10 2.311236
368.20 2.308002
368.30 2.304767
368.40 2.301535
368.50 2.298306
368.60 2.295081
368.70 2.291858
368.80 2.288639
368.90 2.285326
369.00 2.281975
369.10 2.278659
369.20 2.273642
369.30 2.269068
369.40 2.264499
369.50 2.259935
369.60 2.254354
369.70 2.248779
369.80 2.241165
369.90 2.233537
370.00 2.225918
370.10 2.217753
370.20 2.205975
370.30 2.194188
370.40 2.180562
370.50 2.173579
370.60 2.18661
370.70 2.201789
370.80 2.211117
370.90 2.220434
371.00 2.223667
371.10 2.226835
371.20 2.228722
371.30 2.230606
371.40 2.23316
371.50 2.235418
371.60 2.237673
371.70 2.239925
371.80 2.242175
371.90 2.244421
372.00 2.245543
372.10 2.246982
372.20 2.247626
372.30 2.248268
372.40 2.24891
372.50 2.249551
372.60 2.25019
372.70 2.250829
372.80 2.250845
372.90 2.250862
373.00 2.25089
373.10 2.250917
373.20 2.249098
373.30 2.247279
373.40 2.239333
373.50 2.236908
373.60 2.239385
373.70 2.242471
373.80 2.243298
373.90 2.244964
374.00 2.244985
374.10 2.245007
374.20 2.245028
374.30 2.245049
374.40 2.244612
374.50 2.245059
374.60 2.244495
374.70 2.243907
374.80 2.24332
374.90 2.242733
375.00 2.241537
375.10 2.240342
375.20 2.239148
375.30 2.237955
375.40 2.236763
375.50 2.235572
375.60 2.234381
375.70 2.233192
375.80 2.232004
375.90 2.230816
376.00 2.22963
376.10 2.227923
376.20 2.226213
376.30 2.224504
376.40 2.222796
376.50 2.220967
376.60 2.218957
376.70 2.216948
376.80 2.214935
376.90 2.212919
377.00 2.210904
377.10 2.208891
377.20 2.206742
377.30 2.204076
377.40 2.201412
377.50 2.198751
377.60 2.196023
377.70 2.193298
377.80 2.190574
377.90 2.187854
378.00 2.184593
378.10 2.180942
378.20 2.177299
378.30 2.17366
378.40 2.170024
378.50 2.166392
378.60 2.162763
378.70 2.159138
378.80 2.155516
378.90 2.15184
379.00 2.14806
379.10 2.14312
379.20 2.138186
379.30 2.13305
379.40 2.127711
379.50 2.122379
379.60 2.11714
379.70 2.111574
379.80 2.104263
379.90 2.096959
380.00 2.089663
380.10 2.082374
380.20 2.075093
380.30 2.067819
380.40 2.060552
380.50 2.053293
380.60 2.043999
380.70 2.034348
380.80 2.024706
380.90 2.015074
381.00 2.005452
381.10 1.99925
381.20 1.990408
381.30 1.977974
381.40 1.962227
381.50 1.943732
381.60 1.922768
381.70 1.897592
381.80 1.870408
381.90 1.843058
382.00 1.820421
382.10 1.873912
382.20 1.9119
382.30 1.939555
382.40 1.96163
382.50 1.975358
382.60 1.989073
382.70 2.000369
382.80 2.00631
382.90 2.009611
383.00 2.012908
383.10 2.016201
383.20 2.019659
383.30 2.023748
383.40 2.02777
383.50 2.031694
383.60 2.03564
383.70 2.038556
383.80 2.041469
383.90 2.044379
384.00 2.047286
384.10 2.050189
384.20 2.053089
384.30 2.055985
384.40 2.05838
384.50 2.060275
384.60 2.062166
384.70 2.064056
384.80 2.065886
384.90 2.06725
385.00 2.068156
385.10 2.069063
385.20 2.069924
385.30 2.070603
385.40 2.070807
385.50 2.070538
385.60 2.070268
385.70 2.069998
385.80 2.069701
385.90 2.069299
386.00 2.068563
386.10 2.067412
386.20 2.065456
386.30 2.063502
386.40 2.060288
386.50 2.056079
386.60 2.049852
386.70 2.036503
386.80 2.002316
386.90 2.016412
387.00 2.023103
387.10 2.024881
387.20 2.024662
387.30 2.022791
387.40 2.020017
387.50 2.016276
387.60 2.011101
387.70 2.001819
387.80 1.992546
387.90 1.983282
388.00 1.972429
388.10 1.954849
388.20 1.927124
388.30 1.891939
388.40 1.856791
388.50 1.809292
388.60 1.731606
388.70 1.605052
388.80 1.326457
388.90 1.143523
389.00 1.461152
389.10 1.617309
389.20 1.710856
389.30 1.77503
389.40 1.821524
389.50 1.861896
389.60 1.891585
389.70 1.911736
389.80 1.924914
389.90 1.938078
390.00 1.951228
390.10 1.964365
390.20 1.977488
390.30 1.986824
390.40 1.9919
390.50 1.99697
390.60 2.002034
390.70 2.007093
390.80 2.010687
390.90 2.012819
391.00 2.015611
391.10 2.017293
391.20 2.018721
391.30 2.019101
391.40 2.019371
391.50 2.019641
391.60 2.01991
391.70 2.020178
391.80 2.020447
391.90 2.020104
392.00 2.019073
392.10 2.018043
392.20 2.017015
392.30 2.015986
392.40 2.014959
392.50 2.012823
392.60 2.011798
392.70 2.009665
392.80 2.008641
392.90 2.007619
393.00 2.006598
393.10 2.005577
393.20 2.004507
393.30 2.002935
393.40 2.001415
393.50 1.999503
393.60 1.997602
393.70 1.995057
393.80 1.992793
393.90 1.990129
394.00 1.987615
394.10 1.985556
394.20 1.982316
394.30 1.97876
394.40 1.975621
394.50 1.971596
394.60 1.966917
394.70 1.962064
394.80 1.956542
394.90 1.950987
395.00 1.944219
395.10 1.938122
395.20 1.930457
395.30 1.922354
395.40 1.914259
395.50 1.90391
395.60 1.892735
395.70 1.880063
395.80 1.863329
395.90 1.846611
396.00 1.829176
396.10 1.801674
396.20 1.767006
396.30 1.72679
396.40 1.631029
396.50 1.684844
396.60 1.798406
396.70 1.822051
396.80 1.822629
396.90 1.821297
397.00 1.838384
397.10 1.861849
397.20 1.875908
397.30 1.880838
397.40 1.882955
397.50 1.885069
397.60 1.886975
397.70 1.886793
397.80 1.88661
397.90 1.886117
398.00 1.884784
398.10 1.883452
398.20 1.881887
398.30 1.880059
398.40 1.878209
398.50 1.87561
398.60 1.873378
398.70 1.8701
398.80 1.86653
398.90 1.86277
399.00 1.858655
399.10 1.853055
399.20 1.847944
399.30 1.842838
399.40 1.837737
399.50 1.832641
399.60 1.826773
399.70 1.820623
399.80 1.814478
399.90 1.80834
400.00 1.802167
400.10 1.794695
400.20 1.787963
400.30 1.780062
400.40 1.772008
400.50 1.763764
400.60 1.754533
400.70 1.74514
400.80 1.734203
400.90 1.722702
401.00 1.711276
401.10 1.701141
401.20 1.69064
401.30 1.679013
401.40 1.665766
401.50 1.651976
401.60 1.638074
401.70 1.620146
401.80 1.600592
401.90 1.577112
402.00 1.551942
402.10 1.521389
402.20 1.483463
402.30 1.438179
402.40 1.382
402.50 1.308391
402.60 1.217062
402.70 1.289172
402.80 1.382827
402.90 1.445219
403.00 1.502918
403.10 1.546462
403.20 1.579092
403.30 1.604988
403.40 1.627883
403.50 1.646819
403.60 1.664701
403.70 1.679273
403.80 1.691344
403.90 1.701223
404.00 1.710607
404.10 1.716776
404.20 1.721158
404.30 1.725536
404.40 1.727819
404.50 1.724875
404.60 1.724022
404.70 1.727345
404.80 1.730817
404.90 1.735023
405.00 1.738481
405.10 1.742388
405.20 1.746362
405.30 1.750332
405.40 1.753975
405.50 1.757615
405.60 1.761252
405.70 1.764884
405.80 1.768512
405.90 1.772137
406.00 1.77502
406.10 1.7779
406.20 1.780777
406.30 1.783651
406.40 1.786513
406.50 1.789417
406.60 1.791373
406.70 1.793593
406.80 1.795939
406.90 1.79758
407.00 1.79907
407.10 1.800559
407.20 1.802046
407.30 1.803531
407.40 1.805014
407.50 1.806496
407.60 1.807976
407.70 1.809455
407.80 1.810932
407.90 1.812387
408.00 1.813182
408.10 1.814153
408.20 1.814846
408.30 1.815293
408.40 1.81574
408.50 1.816236
408.60 1.81641
408.70 1.816583
408.80 1.816769
408.90 1.816962
409.00 1.816858
409.10 1.816754
409.20 1.81665
409.30 1.816546
409.40 1.816429
409.50 1.815902
409.60 1.815376
409.70 1.814777
409.80 1.813892
409.90 1.813036
410.00 1.813139
410.10 1.812255
410.20 1.811054
410.30 1.809775
410.40 1.808432
410.50 1.806883
410.60 1.805336
410.70 1.803678
410.80 1.801569
410.90 1.799463
411.00 1.796581
411.10 1.793415
411.20 1.790252
411.30 1.787031
411.40 1.7835
411.50 1.77764
411.60 1.771784
411.70 1.764915
411.80 1.753978
411.90 1.741036
412.00 1.711993
412.10 1.609499
412.20 1.642925
412.30 1.669185
412.40 1.682868
412.50 1.692633
412.60 1.701136
412.70 1.707487
412.80 1.713296
412.90 1.71869
413.00 1.721275
413.10 1.722628
413.20 1.723979
413.30 1.725329
413.40 1.726678
413.50 1.727797
413.60 1.727692
413.70 1.726608
413.80 1.725524
413.90 1.72444
414.00 1.723059
414.10 1.720732
414.20 1.717569
414.30 1.710765
414.40 1.704166
414.50 1.706481
414.60 1.71179
414.70 1.716432
414.80 1.720711
414.90 1.723854
415.00 1.726993
415.10 1.73013
415.20 1.732978
415.30 1.734922
415.40 1.736865
415.50 1.738785
415.60 1.740077
415.70 1.741367
415.80 1.742614
415.90 1.743727
416.00 1.744838
416.10 1.745795
416.20 1.74614
416.30 1.746484
416.40 1.746827
416.50 1.747149
416.60 1.746803
416.70 1.746442
416.80 1.745604
416.90 1.742197
417.00 1.741788
417.10 1.743138
417.20 1.743776
417.30 1.7444
417.40 1.744604
417.50 1.744808
417.60 1.744971
417.70 1.744968
417.80 1.744785
417.90 1.744603
418.00 1.744421
418.10 1.744238
418.20 1.744056
418.30 1.743891
418.40 1.744073
418.50 1.743558
418.60 1.743042
418.70 1.742528
418.80 1.742013
418.90 1.741499
419.00 1.740985
419.10 1.740471
419.20 1.739958
419.30 1.739445
419.40 1.738959
419.50 1.738474
419.60 1.737919
419.70 1.737091
419.80 1.736264
419.90 1.73546
420.00 1.734728
420.10 1.733997
420.20 1.733267
420.30 1.732537
420.40 1.731808
420.50 1.731079
420.60 1.73035
420.70 1.729623
420.80 1.728895
420.90 1.728165
421.00 1.727345
421.10 1.726524
421.20 1.72567
421.30 1.724714
421.40 1.723758
421.50 1.722803
421.60 1.721848
421.70 1.720895
421.80 1.719942
421.90 1.718909
422.00 1.717624
422.10 1.716434
422.20 1.715621
422.30 1.714809
422.40 1.71399
422.50 1.712937
422.60 1.711884
422.70 1.710833
422.80 1.709782
422.90 1.708732
423.00 1.707683
423.10 1.706634
423.20 1.705587
423.30 1.70454
423.40 1.703494
423.50 1.702449
423.60 1.701404
423.70 1.700361
423.80 1.699318
423.90 1.698276
424.00 1.697235
424.10 1.696194
424.20 1.695155
424.30 1.694116
424.40 1.69313
424.50 1.69214
424.60 1.691152
424.70 1.690164
424.80 1.689177
424.90 1.688191
425.00 1.687205
