# Version 2.1 - nm, norm@500 to 1, cut digits, bergeron_He_7500_75.dat_7500
# Wavelength(nm)  Flambda(ergs/cm^s/s/nm)
300.00 1.11011
300.10 1.110515
300.20 1.110917
300.30 1.111321
300.40 1.111745
300.50 1.112168
300.60 1.112591
300.70 1.113012
300.80 1.113433
300.90 1.113853
301.00 1.114272
301.10 1.11469
301.20 1.115108
301.30 1.115525
301.40 1.115941
301.50 1.116356
301.60 1.11677
301.70 1.117184
301.80 1.117597
301.90 1.118009
302.00 1.11842
302.10 1.118826
302.20 1.119232
302.30 1.119636
302.40 1.12004
302.50 1.120443
302.60 1.120846
302.70 1.121247
302.80 1.121648
302.90 1.122048
303.00 1.122447
303.10 1.122845
303.20 1.123243
303.30 1.12364
303.40 1.124042
303.50 1.124442
303.60 1.124842
303.70 1.125241
303.80 1.125639
303.90 1.126036
304.00 1.126433
304.10 1.126829
304.20 1.127224
304.30 1.127618
304.40 1.128012
304.50 1.128405
304.60 1.128799
304.70 1.129192
304.80 1.129585
304.90 1.129977
305.00 1.130368
305.10 1.130758
305.20 1.131148
305.30 1.131537
305.40 1.131925
305.50 1.132313
305.60 1.132699
305.70 1.133085
305.80 1.13347
305.90 1.133855
306.00 1.134238
306.10 1.134621
306.20 1.135004
306.30 1.135385
306.40 1.13576
306.50 1.136133
306.60 1.136505
306.70 1.136877
306.80 1.137247
306.90 1.137617
307.00 1.137986
307.10 1.138355
307.20 1.138723
307.30 1.13909
307.40 1.139456
307.50 1.139822
307.60 1.140186
307.70 1.140551
307.80 1.140914
307.90 1.141277
308.00 1.141639
308.10 1.142
308.20 1.142361
308.30 1.142721
308.40 1.14308
308.50 1.143438
308.60 1.143796
308.70 1.144153
308.80 1.144502
308.90 1.144828
309.00 1.145192
309.10 1.145556
309.20 1.145919
309.30 1.146281
309.40 1.146642
309.50 1.146994
309.60 1.147346
309.70 1.147697
309.80 1.148047
309.90 1.148397
310.00 1.148746
310.10 1.149094
310.20 1.149441
310.30 1.149788
310.40 1.150131
310.50 1.150469
310.60 1.150806
310.70 1.151143
310.80 1.151479
310.90 1.151814
311.00 1.152176
311.10 1.152538
311.20 1.152899
311.30 1.153251
311.40 1.153581
311.50 1.15391
311.60 1.154239
311.70 1.154566
311.80 1.154893
311.90 1.15522
312.00 1.155546
312.10 1.155871
312.20 1.156202
312.30 1.15659
312.40 1.156985
312.50 1.157194
312.60 1.157551
312.70 1.157907
312.80 1.158263
312.90 1.158606
313.00 1.158934
313.10 1.159261
313.20 1.159588
313.30 1.159912
313.40 1.160231
313.50 1.16055
313.60 1.160867
313.70 1.161184
313.80 1.161501
313.90 1.161816
314.00 1.162131
314.10 1.162455
314.20 1.162778
314.30 1.1631
314.40 1.163422
314.50 1.163743
314.60 1.164064
314.70 1.164383
314.80 1.164667
314.90 1.164919
315.00 1.165247
315.10 1.165559
315.20 1.165872
315.30 1.166183
315.40 1.166494
315.50 1.166805
315.60 1.167114
315.70 1.167411
315.80 1.167708
315.90 1.168004
316.00 1.168299
316.10 1.16863
316.20 1.168959
316.30 1.169288
316.40 1.169546
316.50 1.169802
316.60 1.17013
316.70 1.170456
316.80 1.170782
316.90 1.171072
317.00 1.171361
317.10 1.17165
317.20 1.171938
317.30 1.172256
317.40 1.172567
317.50 1.172857
317.60 1.173147
317.70 1.173436
317.80 1.173724
317.90 1.174006
318.00 1.174214
318.10 1.174531
318.20 1.174849
318.30 1.175165
318.40 1.175463
318.50 1.175708
318.60 1.175971
318.70 1.176285
318.80 1.176606
318.90 1.176891
319.00 1.177084
319.10 1.177396
319.20 1.177694
319.30 1.177955
319.40 1.178215
319.50 1.178474
319.60 1.178803
319.70 1.179098
319.80 1.179393
319.90 1.179687
320.00 1.179953
320.10 1.180189
320.20 1.180485
320.30 1.180763
320.40 1.180984
320.50 1.181232
320.60 1.181535
320.70 1.181837
320.80 1.182122
320.90 1.182388
321.00 1.182654
321.10 1.18292
321.20 1.183103
321.30 1.183369
321.40 1.183635
321.50 1.183901
321.60 1.184166
321.70 1.18443
321.80 1.184705
321.90 1.184991
322.00 1.18532
322.10 1.185575
322.20 1.185829
322.30 1.186083
322.40 1.186336
322.50 1.186589
322.60 1.186841
322.70 1.187092
322.80 1.187265
322.90 1.187525
323.00 1.187785
323.10 1.188043
323.20 1.188302
323.30 1.188559
323.40 1.188817
323.50 1.189073
323.60 1.189329
323.70 1.189585
323.80 1.18984
323.90 1.190094
324.00 1.19034
324.10 1.190584
324.20 1.190829
324.30 1.191089
324.40 1.191366
324.50 1.19161
324.60 1.191854
324.70 1.192097
324.80 1.19234
324.90 1.192582
325.00 1.192823
325.10 1.193064
325.20 1.193293
325.30 1.193498
325.40 1.193702
325.50 1.193927
325.60 1.194175
325.70 1.194423
325.80 1.19467
325.90 1.194905
326.00 1.195125
326.10 1.195344
326.20 1.195564
326.30 1.195783
326.40 1.196006
326.50 1.19624
326.60 1.196473
326.70 1.196706
326.80 1.196939
326.90 1.197171
327.00 1.197402
327.10 1.197633
327.20 1.197864
327.30 1.198094
327.40 1.198323
327.50 1.198552
327.60 1.19878
327.70 1.199008
327.80 1.199236
327.90 1.199435
328.00 1.199623
328.10 1.199833
328.20 1.200043
328.30 1.200252
328.40 1.20046
328.50 1.200691
328.60 1.200927
328.70 1.201162
328.80 1.20139
328.90 1.201596
329.00 1.201802
329.10 1.202007
329.20 1.202212
329.30 1.202417
329.40 1.202621
329.50 1.202824
329.60 1.203028
329.70 1.20323
329.80 1.203432
329.90 1.203634
330.00 1.203847
330.10 1.204072
330.20 1.204298
330.30 1.204523
330.40 1.204732
330.50 1.204926
330.60 1.205119
330.70 1.205312
330.80 1.205504
330.90 1.205695
331.00 1.205887
331.10 1.206077
331.20 1.206268
331.30 1.206458
331.40 1.206647
331.50 1.206845
331.60 1.207054
331.70 1.207262
331.80 1.207455
331.90 1.207647
332.00 1.207838
332.10 1.208029
332.20 1.208219
332.30 1.208409
332.40 1.208598
332.50 1.208787
332.60 1.208975
332.70 1.209163
332.80 1.209351
332.90 1.209538
333.00 1.209725
333.10 1.20991
333.20 1.210096
333.30 1.21028
333.40 1.210464
333.50 1.210648
333.60 1.210831
333.70 1.211014
333.80 1.211197
333.90 1.211379
334.00 1.21156
334.10 1.211745
334.20 1.211934
334.30 1.212123
334.40 1.212311
334.50 1.212499
334.60 1.212686
334.70 1.212848
334.80 1.213007
334.90 1.213204
335.00 1.2134
335.10 1.213523
335.20 1.213687
335.30 1.213878
335.40 1.214025
335.50 1.214204
335.60 1.21435
335.70 1.214499
335.80 1.21466
335.90 1.214835
336.00 1.215027
336.10 1.215219
336.20 1.21541
336.30 1.215586
336.40 1.215745
336.50 1.215903
336.60 1.216061
336.70 1.216219
336.80 1.216376
336.90 1.216529
337.00 1.216676
337.10 1.216823
337.20 1.21697
337.30 1.217123
337.40 1.217283
337.50 1.217444
337.60 1.217603
337.70 1.217763
337.80 1.217922
337.90 1.218076
338.00 1.218226
338.10 1.218375
338.20 1.218524
338.30 1.218672
338.40 1.21882
338.50 1.218968
338.60 1.219116
338.70 1.219263
338.80 1.21941
338.90 1.219557
339.00 1.219703
339.10 1.219849
339.20 1.219995
339.30 1.220148
339.40 1.220312
339.50 1.220467
339.60 1.220611
339.70 1.220754
339.80 1.220897
339.90 1.221039
340.00 1.221181
340.10 1.221323
340.20 1.221464
340.30 1.221605
340.40 1.221745
340.50 1.221885
340.60 1.222025
340.70 1.222164
340.80 1.222311
340.90 1.22247
341.00 1.222614
341.10 1.222739
341.20 1.222864
341.30 1.222988
341.40 1.223112
341.50 1.223236
341.60 1.223359
341.70 1.223482
341.80 1.223615
341.90 1.22376
342.00 1.223904
342.10 1.224048
342.20 1.22402
342.30 1.224004
342.40 1.22414
342.50 1.22424
342.60 1.22434
342.70 1.22444
342.80 1.22454
342.90 1.224639
343.00 1.224777
343.10 1.224961
343.20 1.225146
343.30 1.22533
343.40 1.225476
343.50 1.225568
343.60 1.225659
343.70 1.22575
343.80 1.225841
343.90 1.225931
344.00 1.226062
344.10 1.226252
344.20 1.226442
344.30 1.226631
344.40 1.226696
344.50 1.226585
344.60 1.227427
344.70 1.227344
344.80 1.227201
344.90 1.227688
345.00 1.227467
345.10 1.227952
345.20 1.228277
345.30 1.228373
345.40 1.228469
345.50 1.228202
345.60 1.227817
345.70 1.227902
345.80 1.227986
345.90 1.22807
346.00 1.228154
346.10 1.228237
346.20 1.228336
346.30 1.228459
346.40 1.228581
346.50 1.228702
346.60 1.228824
346.70 1.228945
346.80 1.229065
346.90 1.229185
347.00 1.229305
347.10 1.229425
347.20 1.229536
347.30 1.229634
347.40 1.229732
347.50 1.22983
347.60 1.229927
347.70 1.230024
347.80 1.230121
347.90 1.230218
348.00 1.230314
348.10 1.23041
348.20 1.230505
348.30 1.2306
348.40 1.230695
348.50 1.23079
348.60 1.230884
348.70 1.23103
348.80 1.231156
348.90 1.231231
349.00 1.231305
349.10 1.231379
349.20 1.231453
349.30 1.231526
349.40 1.2316
349.50 1.231673
349.60 1.231745
349.70 1.231818
349.80 1.23189
349.90 1.231962
350.00 1.232033
350.10 1.232104
350.20 1.232175
350.30 1.232273
350.40 1.23241
350.50 1.232547
350.60 1.232683
350.70 1.232819
350.80 1.232954
350.90 1.233089
351.00 1.233224
351.10 1.233358
351.20 1.233492
351.30 1.233626
351.40 1.233737
351.50 1.233808
351.60 1.233879
351.70 1.233949
351.80 1.23402
351.90 1.234089
352.00 1.234159
352.10 1.234228
352.20 1.234298
352.30 1.234377
352.40 1.234467
352.50 1.234557
352.60 1.234646
352.70 1.234735
352.80 1.234824
352.90 1.234913
353.00 1.235001
353.10 1.235089
353.20 1.235177
353.30 1.235264
353.40 1.235351
353.50 1.235426
353.60 1.235497
353.70 1.235568
353.80 1.235639
353.90 1.235707
354.00 1.235771
354.10 1.235835
354.20 1.235899
354.30 1.235962
354.40 1.236025
354.50 1.236088
354.60 1.236151
354.70 1.236213
354.80 1.236174
354.90 1.235991
355.00 1.235807
355.10 1.235624
355.20 1.23544
355.30 1.235531
355.40 1.235621
355.50 1.23571
355.60 1.2358
355.70 1.236015
355.80 1.236286
355.90 1.23621
356.00 1.236138
356.10 1.236222
356.20 1.236306
356.30 1.236389
356.40 1.236472
356.50 1.236555
356.60 1.236637
356.70 1.23672
356.80 1.236802
356.90 1.236883
357.00 1.236965
357.10 1.237046
357.20 1.237126
357.30 1.237207
357.40 1.237248
357.50 1.23722
357.60 1.237191
357.70 1.237162
357.80 1.236977
357.90 1.236791
358.00 1.236797
358.10 1.236852
358.20 1.236906
358.30 1.23696
358.40 1.237013
358.50 1.237067
358.60 1.23712
358.70 1.237172
358.80 1.237225
358.90 1.237277
359.00 1.237419
359.10 1.237721
359.20 1.237955
359.30 1.23774
359.40 1.237525
359.50 1.237561
359.60 1.23766
359.70 1.237758
359.80 1.237904
359.90 1.23805
360.00 1.238116
360.10 1.238042
360.20 1.237969
360.30 1.237895
360.40 1.237821
360.50 1.237746
360.60 1.238359
360.70 1.23822
360.80 1.238081
360.90 1.237942
361.00 1.238309
361.10 1.23862
361.20 1.23842
361.30 1.238171
361.40 1.238141
361.50 1.238546
361.60 1.238253
361.70 1.238658
361.80 1.238823
361.90 1.238563
362.00 1.238304
362.10 1.238309
362.20 1.238365
362.30 1.238395
362.40 1.238426
362.50 1.238456
362.60 1.238486
362.70 1.238547
362.80 1.238346
362.90 1.23874
363.00 1.239133
363.10 1.23895
363.20 1.238761
363.30 1.238178
363.40 1.238845
363.50 1.238972
363.60 1.23883
363.70 1.238687
363.80 1.239083
363.90 1.238914
364.00 1.238746
364.10 1.238577
364.20 1.238409
364.30 1.238785
364.40 1.239298
364.50 1.238625
364.60 1.238658
364.70 1.23869
364.80 1.238723
364.90 1.238579
365.00 1.238435
365.10 1.238826
365.20 1.238681
365.30 1.238537
365.40 1.238927
365.50 1.238782
365.60 1.238637
365.70 1.238929
365.80 1.239219
365.90 1.239208
366.00 1.239122
366.10 1.238968
366.20 1.238813
366.30 1.238659
366.40 1.238504
366.50 1.238915
366.60 1.23931
366.70 1.239036
366.80 1.238761
366.90 1.238617
367.00 1.238703
367.10 1.238789
367.20 1.238874
367.30 1.23896
367.40 1.239045
367.50 1.238991
367.60 1.238903
367.70 1.238784
367.80 1.238665
367.90 1.238545
368.00 1.238841
368.10 1.238694
368.20 1.238703
368.30 1.238719
368.40 1.238734
368.50 1.23875
368.60 1.238765
368.70 1.23878
368.80 1.238795
368.90 1.238562
369.00 1.238354
369.10 1.23826
369.20 1.238641
369.30 1.238667
369.40 1.238692
369.50 1.238717
369.60 1.238566
369.70 1.238415
369.80 1.238587
369.90 1.238761
370.00 1.238936
370.10 1.238865
370.20 1.23871
370.30 1.238561
370.40 1.238391
370.50 1.238267
370.60 1.238637
370.70 1.237968
370.80 1.238332
370.90 1.238695
371.00 1.238552
371.10 1.238405
371.20 1.238252
371.30 1.238099
371.40 1.238679
371.50 1.238589
371.60 1.238499
371.70 1.238408
371.80 1.238318
371.90 1.238228
372.00 1.237862
372.10 1.237932
372.20 1.237952
372.30 1.237973
372.40 1.237993
372.50 1.238013
372.60 1.238033
372.70 1.238052
372.80 1.237898
372.90 1.237744
373.00 1.237595
373.10 1.237446
373.20 1.237806
373.30 1.238165
373.40 1.237502
373.50 1.237861
373.60 1.237709
373.70 1.237556
373.80 1.237914
373.90 1.237252
374.00 1.237354
374.10 1.237457
374.20 1.237558
374.30 1.23766
374.40 1.237634
374.50 1.237354
374.60 1.237198
374.70 1.237046
374.80 1.236894
374.90 1.236743
375.00 1.236759
375.10 1.236774
375.20 1.23679
375.30 1.236854
375.40 1.236917
375.50 1.23698
375.60 1.237043
375.70 1.237105
375.80 1.237168
375.90 1.23723
376.00 1.236572
376.10 1.236566
376.20 1.236567
376.30 1.236567
376.40 1.236567
376.50 1.236582
376.60 1.236618
376.70 1.236654
376.80 1.236578
376.90 1.236389
377.00 1.236201
377.10 1.236013
377.20 1.235857
377.30 1.235826
377.40 1.235794
377.50 1.235762
377.60 1.23576
377.70 1.235757
377.80 1.235754
377.90 1.23575
378.00 1.235487
378.10 1.235519
378.20 1.235557
378.30 1.235595
378.40 1.235633
378.50 1.235671
378.60 1.235709
378.70 1.235746
378.80 1.235783
378.90 1.235579
379.00 1.234927
379.10 1.235069
379.20 1.23521
379.30 1.235275
379.40 1.235262
379.50 1.235249
379.60 1.234981
379.70 1.234457
379.80 1.234408
379.90 1.234359
380.00 1.234309
380.10 1.23426
380.20 1.23421
380.30 1.234161
380.40 1.234111
380.50 1.234061
380.60 1.234581
380.70 1.234379
380.80 1.234177
380.90 1.233976
381.00 1.233774
381.10 1.23374
381.20 1.233896
381.30 1.233794
381.40 1.233498
381.50 1.233856
381.60 1.233811
381.70 1.233419
381.80 1.233497
381.90 1.233828
382.00 1.233182
382.10 1.233512
382.20 1.233062
382.30 1.232904
382.40 1.232818
382.50 1.232838
382.60 1.232858
382.70 1.233037
382.80 1.233121
382.90 1.23293
383.00 1.232739
383.10 1.232548
383.20 1.232375
383.30 1.232268
383.40 1.232223
383.50 1.232273
383.60 1.232644
383.70 1.232512
383.80 1.23238
383.90 1.232247
384.00 1.232115
384.10 1.231982
384.20 1.23185
384.30 1.231717
384.40 1.231667
384.50 1.231701
384.60 1.231734
384.70 1.231767
384.80 1.231658
384.90 1.231307
385.00 1.231493
385.10 1.231662
385.20 1.231251
385.30 1.231099
385.40 1.230928
385.50 1.230736
385.60 1.230545
385.70 1.230353
385.80 1.230186
385.90 1.230108
386.00 1.230089
386.10 1.230135
386.20 1.230236
386.30 1.230336
386.40 1.230068
386.50 1.229824
386.60 1.229749
386.70 1.230066
386.80 1.229668
386.90 1.229746
387.00 1.22961
387.10 1.229427
387.20 1.22948
387.30 1.229131
387.40 1.229422
387.50 1.229209
387.60 1.229201
387.70 1.229041
387.80 1.228881
387.90 1.228721
388.00 1.228693
388.10 1.228775
388.20 1.228442
388.30 1.228409
388.40 1.228376
388.50 1.228424
388.60 1.228445
388.70 1.227813
388.80 1.228124
388.90 1.228376
389.00 1.227803
389.10 1.22756
389.20 1.227891
389.30 1.227961
389.40 1.227812
389.50 1.227471
389.60 1.22707
389.70 1.227317
389.80 1.227165
389.90 1.227014
390.00 1.226863
390.10 1.226712
390.20 1.226561
390.30 1.22645
390.40 1.226386
390.50 1.226322
390.60 1.226258
390.70 1.226194
390.80 1.226112
390.90 1.226011
391.00 1.225649
391.10 1.225474
391.20 1.225469
391.30 1.225728
391.40 1.225566
391.50 1.225405
391.60 1.225244
391.70 1.225083
391.80 1.224922
391.90 1.22495
392.00 1.225005
392.10 1.224782
392.20 1.224664
392.30 1.224824
392.40 1.224249
392.50 1.224501
392.60 1.224501
392.70 1.224178
392.80 1.224178
392.90 1.224027
393.00 1.223894
393.10 1.223846
393.20 1.223873
393.30 1.223711
393.40 1.223508
393.50 1.223632
393.60 1.223184
393.70 1.223229
393.80 1.222902
393.90 1.222741
394.00 1.222671
394.10 1.223053
394.20 1.222898
394.30 1.222511
394.40 1.221967
394.50 1.222187
394.60 1.222079
394.70 1.221951
394.80 1.221752
394.90 1.221569
395.00 1.221834
395.10 1.221856
395.20 1.221748
395.30 1.221427
395.40 1.221106
395.50 1.221109
395.60 1.221232
395.70 1.221232
395.80 1.220901
395.90 1.220571
396.00 1.220314
396.10 1.220629
396.20 1.220467
396.30 1.220182
396.40 1.220473
396.50 1.219857
396.60 1.220148
396.70 1.219851
396.80 1.219823
396.90 1.219299
397.00 1.219499
397.10 1.219638
397.20 1.219174
397.30 1.218714
397.40 1.218668
397.50 1.218622
397.60 1.218582
397.70 1.218608
397.80 1.218634
397.90 1.218575
398.00 1.218284
398.10 1.217993
398.20 1.217897
398.30 1.218022
398.40 1.218124
398.50 1.217513
398.60 1.217606
398.70 1.217481
398.80 1.217236
398.90 1.217095
399.00 1.217148
399.10 1.216594
399.20 1.2166
399.30 1.216605
399.40 1.216611
399.50 1.216616
399.60 1.21645
399.70 1.216221
399.80 1.215992
399.90 1.215763
400.00 1.215543
400.10 1.21562
400.20 1.215198
400.30 1.215153
400.40 1.215249
400.50 1.215154
400.60 1.214872
400.70 1.214709
400.80 1.214955
400.90 1.214504
401.00 1.214784
401.10 1.214179
401.20 1.214268
401.30 1.213853
401.40 1.213727
401.50 1.213777
401.60 1.213807
401.70 1.213203
401.80 1.213292
401.90 1.213339
402.00 1.213156
402.10 1.212553
402.20 1.212831
402.30 1.212734
402.40 1.212505
402.50 1.212782
402.60 1.21218
402.70 1.212457
402.80 1.211855
402.90 1.211604
403.00 1.211442
403.10 1.211805
403.20 1.211225
403.30 1.211298
403.40 1.210879
403.50 1.210688
403.60 1.210626
403.70 1.210829
403.80 1.210244
403.90 1.210141
404.00 1.210406
404.10 1.210178
404.20 1.210015
404.30 1.209852
404.40 1.210125
404.50 1.209527
404.60 1.2098
404.70 1.209202
404.80 1.209474
404.90 1.208877
405.00 1.208962
405.10 1.2088
405.20 1.208513
405.30 1.208226
405.40 1.208208
405.50 1.20819
405.60 1.208172
405.70 1.208153
405.80 1.208135
405.90 1.208116
406.00 1.207869
406.10 1.207622
406.20 1.207375
406.30 1.207128
406.40 1.206871
406.50 1.207139
406.60 1.206546
406.70 1.206491
406.80 1.20657
406.90 1.206501
407.00 1.206338
407.10 1.206176
407.20 1.206013
407.30 1.20585
407.40 1.205687
407.50 1.205525
407.60 1.205362
407.70 1.2052
407.80 1.205037
407.90 1.204875
408.00 1.204753
408.10 1.204536
408.20 1.204392
408.30 1.204359
408.40 1.204326
408.50 1.203886
408.60 1.203592
408.70 1.203298
408.80 1.20308
408.90 1.203354
409.00 1.203256
409.10 1.203158
409.20 1.20306
409.30 1.202962
409.40 1.202858
409.50 1.202571
409.60 1.202284
409.70 1.202015
409.80 1.20182
409.90 1.201637
410.00 1.201874
410.10 1.201288
410.20 1.201232
410.30 1.201307
410.40 1.201291
410.50 1.200984
410.60 1.200677
410.70 1.200383
410.80 1.20014
410.90 1.199898
411.00 1.199755
411.10 1.199649
411.20 1.199543
411.30 1.199486
411.40 1.19961
411.50 1.199324
411.60 1.199038
411.70 1.198778
411.80 1.198616
411.90 1.19837
412.00 1.198627
412.10 1.198046
412.20 1.198303
412.30 1.197865
412.40 1.197979
412.50 1.197518
412.60 1.197535
412.70 1.197335
412.80 1.19708
412.90 1.196782
413.00 1.197086
413.10 1.196838
413.20 1.19659
413.30 1.196342
413.40 1.196094
413.50 1.195954
413.60 1.196135
413.70 1.195973
413.80 1.195811
413.90 1.195649
414.00 1.195487
414.10 1.195325
414.20 1.195064
414.30 1.194487
414.40 1.194574
414.50 1.194164
414.60 1.194516
414.70 1.194354
414.80 1.194192
414.90 1.194031
415.00 1.193869
415.10 1.193707
415.20 1.193508
415.30 1.193191
415.40 1.192874
415.50 1.192567
415.60 1.192584
415.70 1.192602
415.80 1.192542
415.90 1.19224
416.00 1.191937
416.10 1.19166
416.20 1.191482
416.30 1.191304
416.40 1.191126
416.50 1.190948
416.60 1.190787
416.70 1.190614
416.80 1.190522
416.90 1.190291
417.00 1.190393
417.10 1.189981
417.20 1.18982
417.30 1.189656
417.40 1.189375
417.50 1.189094
417.60 1.188895
417.70 1.189015
417.80 1.188854
417.90 1.188693
418.00 1.188532
418.10 1.188371
418.20 1.18821
418.30 1.188037
418.40 1.187575
418.50 1.187449
418.60 1.187324
418.70 1.187198
418.80 1.187072
418.90 1.186946
419.00 1.18682
419.10 1.186694
419.20 1.186568
419.30 1.186438
419.40 1.186158
419.50 1.185879
419.60 1.185597
419.70 1.185305
419.80 1.185014
419.90 1.184752
420.00 1.184583
420.10 1.184415
420.20 1.184246
420.30 1.184078
420.40 1.18391
420.50 1.183741
420.60 1.183573
420.70 1.183404
420.80 1.183236
420.90 1.183073
421.00 1.18309
421.10 1.183106
421.20 1.183063
421.30 1.182845
421.40 1.182627
421.50 1.182409
421.60 1.182192
421.70 1.181974
421.80 1.181756
421.90 1.181551
422.00 1.181383
422.10 1.181187
422.20 1.18088
422.30 1.180573
422.40 1.18027
422.50 1.180115
422.60 1.17996
422.70 1.179804
422.80 1.179649
422.90 1.179494
423.00 1.179339
423.10 1.179183
423.20 1.179028
423.30 1.178873
423.40 1.178718
423.50 1.178563
423.60 1.178407
423.70 1.178252
423.80 1.178097
423.90 1.177942
424.00 1.177787
424.10 1.177632
424.20 1.177477
424.30 1.177322
424.40 1.17708
424.50 1.176845
424.60 1.17661
424.70 1.176376
424.80 1.176141
424.90 1.175906
425.00 1.175672
