# Version 2.1 - nm, norm@500 to 1, cut digits, bergeron_He_6000_90.dat_6000
# Wavelength(nm)  Flambda(ergs/cm^s/s/nm)
300.00 0.5961611
300.10 0.5966388
300.20 0.5971064
300.30 0.5975874
300.40 0.5981618
300.50 0.5987354
300.60 0.599308
300.70 0.5998797
300.80 0.6004506
300.90 0.6010205
301.00 0.6015896
301.10 0.6021577
301.20 0.602725
301.30 0.6032914
301.40 0.6038569
301.50 0.6044216
301.60 0.6049853
301.70 0.6055482
301.80 0.6061102
301.90 0.6066713
302.00 0.6072315
302.10 0.6077853
302.20 0.6083376
302.30 0.6088891
302.40 0.6094396
302.50 0.6099893
302.60 0.6105382
302.70 0.6110862
302.80 0.6116333
302.90 0.6121796
303.00 0.612725
303.10 0.6132696
303.20 0.6138133
303.30 0.6143576
303.40 0.6149141
303.50 0.6154698
303.60 0.6160246
303.70 0.6165786
303.80 0.6171316
303.90 0.6176839
304.00 0.6182352
304.10 0.6187857
304.20 0.6193354
304.30 0.6198841
304.40 0.6204321
304.50 0.6209792
304.60 0.6215334
304.70 0.6220877
304.80 0.6226412
304.90 0.6231938
305.00 0.6237455
305.10 0.6242964
305.20 0.6248464
305.30 0.6253956
305.40 0.6259439
305.50 0.6264913
305.60 0.6270379
305.70 0.6275837
305.80 0.6281286
305.90 0.6286727
306.00 0.6292159
306.10 0.6297583
306.20 0.6302998
306.30 0.6308405
306.40 0.6313943
306.50 0.6319516
306.60 0.6325079
306.70 0.6330634
306.80 0.633618
306.90 0.6341718
307.00 0.6347247
307.10 0.6352767
307.20 0.6358279
307.30 0.6363783
307.40 0.6369278
307.50 0.6374764
307.60 0.6380242
307.70 0.6385712
307.80 0.6391173
307.90 0.6396626
308.00 0.640207
308.10 0.6407506
308.20 0.6412933
308.30 0.6418352
308.40 0.6423763
308.50 0.6429165
308.60 0.6434559
308.70 0.6439945
308.80 0.6445176
308.90 0.6449985
309.00 0.6455118
309.10 0.6460243
309.20 0.6465361
309.30 0.647047
309.40 0.6475634
309.50 0.6481174
309.60 0.6486705
309.70 0.6492228
309.80 0.6497743
309.90 0.6503249
310.00 0.6508746
310.10 0.6514236
310.20 0.6519716
310.30 0.6525189
310.40 0.6530593
310.50 0.6535924
310.60 0.6541247
310.70 0.6546562
310.80 0.6551869
310.90 0.6557168
311.00 0.6561906
311.10 0.6566637
311.20 0.6571361
311.30 0.6576205
311.40 0.6581404
311.50 0.6586596
311.60 0.6591779
311.70 0.6596954
311.80 0.6602122
311.90 0.6607281
312.00 0.6612433
312.10 0.6617576
312.20 0.6622683
312.30 0.6628488
312.40 0.6634489
312.50 0.6639596
312.60 0.664525
312.70 0.6650895
312.80 0.6656532
312.90 0.6662016
313.00 0.6667336
313.10 0.6672647
313.20 0.6677951
313.30 0.6683125
313.40 0.6687946
313.50 0.669276
313.60 0.6697566
313.70 0.6702364
313.80 0.6707155
313.90 0.6711939
314.00 0.6716715
314.10 0.6722337
314.20 0.672795
314.30 0.6733555
314.40 0.6739151
314.50 0.6744738
314.60 0.6750318
314.70 0.6755889
314.80 0.676131
314.90 0.6765387
315.00 0.6768445
315.10 0.6773816
315.20 0.6779179
315.30 0.6784534
315.40 0.6789881
315.50 0.6795219
315.60 0.680055
315.70 0.6806173
315.80 0.6811788
315.90 0.6817394
316.00 0.6822992
316.10 0.682768
316.20 0.6832362
316.30 0.6837036
316.40 0.6841703
316.50 0.6846363
316.60 0.6851015
316.70 0.6857455
316.80 0.6863885
316.90 0.6868513
317.00 0.6873134
317.10 0.6877748
317.20 0.6882355
317.30 0.6888291
317.40 0.6893946
317.50 0.6898823
317.60 0.6903693
317.70 0.6908555
317.80 0.691341
317.90 0.6918434
318.00 0.6924826
318.10 0.6929365
318.20 0.6933897
318.30 0.6938422
318.40 0.694294
318.50 0.6947451
318.60 0.6954259
318.70 0.6959995
318.80 0.696218
318.90 0.6968963
319.00 0.6973436
319.10 0.6977903
319.20 0.6982496
319.30 0.6987462
319.40 0.6992421
319.50 0.6997372
319.60 0.7003788
319.70 0.7008724
319.80 0.7013651
319.90 0.7018571
320.00 0.7023238
320.10 0.7027632
320.20 0.7034464
320.30 0.7039908
320.40 0.7043578
320.50 0.7048643
320.60 0.7053841
320.70 0.7059941
320.80 0.7065193
320.90 0.7069528
321.00 0.7073856
321.10 0.7078178
321.20 0.7084149
321.30 0.7088788
321.40 0.7093419
321.50 0.7098044
321.60 0.7102661
321.70 0.7107271
321.80 0.7112054
321.90 0.7117023
322.00 0.7124261
322.10 0.7128899
322.20 0.713353
322.30 0.7138154
322.40 0.7142771
322.50 0.714738
322.60 0.7151983
322.70 0.7156578
322.80 0.7162683
322.90 0.7167444
323.00 0.7172198
323.10 0.7176945
323.20 0.7181684
323.30 0.7186416
323.40 0.7191141
323.50 0.7195859
323.60 0.720057
323.70 0.7205273
323.80 0.7209969
323.90 0.7214658
324.00 0.7220289
324.10 0.7225912
324.20 0.7231527
324.30 0.7236797
324.40 0.7241322
324.50 0.7246075
324.60 0.7250821
324.70 0.7255559
324.80 0.726029
324.90 0.7265014
325.00 0.7269731
325.10 0.727444
325.20 0.7279242
325.30 0.7284248
325.40 0.7289246
325.50 0.7294212
325.60 0.7299139
325.70 0.7304058
325.80 0.730897
325.90 0.7313608
326.00 0.7317949
326.10 0.7322284
326.20 0.7326612
326.30 0.7331432
326.40 0.7337665
326.50 0.734224
326.60 0.7346807
326.70 0.7351368
326.80 0.7355921
326.90 0.7360467
327.00 0.7365007
327.10 0.736954
327.20 0.7374065
327.30 0.7378584
327.40 0.7383096
327.50 0.7387601
327.60 0.7392099
327.70 0.739659
327.80 0.7401075
327.90 0.7405917
328.00 0.7410979
328.10 0.7415829
328.20 0.7420672
328.30 0.7425508
328.40 0.7430336
328.50 0.7435199
328.60 0.7440063
328.70 0.7444921
328.80 0.7449678
328.90 0.7454164
329.00 0.7458643
329.10 0.7463115
329.20 0.746758
329.30 0.7472038
329.40 0.747649
329.50 0.7480935
329.60 0.7485373
329.70 0.7489805
329.80 0.7494229
329.90 0.7498647
330.00 0.7503149
330.10 0.7507756
330.20 0.7512355
330.30 0.7516948
330.40 0.7521597
330.50 0.7526306
330.60 0.7531009
330.70 0.7535705
330.80 0.7540393
330.90 0.7545075
331.00 0.7549749
331.10 0.7554416
331.20 0.7559077
331.30 0.756373
331.40 0.7568377
331.50 0.7573017
331.60 0.7577652
331.70 0.758228
331.80 0.7586905
331.90 0.7591524
332.00 0.7596136
332.10 0.7600741
332.20 0.7605339
332.30 0.760993
332.40 0.7614514
332.50 0.7619092
332.60 0.7623662
332.70 0.7628226
332.80 0.7632782
332.90 0.7637332
333.00 0.7641875
333.10 0.7646393
333.20 0.7650881
333.30 0.7655362
333.40 0.7659837
333.50 0.7664305
333.60 0.7668766
333.70 0.767322
333.80 0.7677668
333.90 0.7682109
334.00 0.7686543
334.10 0.7691019
334.20 0.7695547
334.30 0.7700069
334.40 0.7704584
334.50 0.7709092
334.60 0.7713593
334.70 0.7718161
334.80 0.7722533
334.90 0.7726496
335.00 0.7730452
335.10 0.773517
335.20 0.7740165
335.30 0.7744432
335.40 0.7747814
335.50 0.7751589
335.60 0.7757755
335.70 0.7761837
335.80 0.776679
335.90 0.7771377
336.00 0.7775519
336.10 0.7779655
336.20 0.7783784
336.30 0.7788027
336.40 0.7792408
336.50 0.7796783
336.60 0.7801152
336.70 0.7805514
336.80 0.7809869
336.90 0.781406
337.00 0.7818052
337.10 0.7822038
337.20 0.7826018
337.30 0.783016
337.40 0.7834537
337.50 0.7838908
337.60 0.7843272
337.70 0.784763
337.80 0.7851981
337.90 0.7856403
338.00 0.7860913
338.10 0.7865416
338.20 0.7869913
338.30 0.7874403
338.40 0.7878802
338.50 0.7882991
338.60 0.7887174
338.70 0.789135
338.80 0.7895519
338.90 0.7899683
339.00 0.790384
339.10 0.7907991
339.20 0.7912136
339.30 0.7916589
339.40 0.792149
339.50 0.7926068
339.60 0.7930256
339.70 0.7934438
339.80 0.7938613
339.90 0.7942782
340.00 0.7946944
340.10 0.7951101
340.20 0.7955251
340.30 0.7959395
340.40 0.7963532
340.50 0.7967664
340.60 0.7971789
340.70 0.7975908
340.80 0.7980305
340.90 0.7985104
341.00 0.7989463
341.10 0.7993286
341.20 0.7997103
341.30 0.8000914
341.40 0.800472
341.50 0.800852
341.60 0.8012313
341.70 0.8016101
341.80 0.8020312
341.90 0.8025039
342.00 0.8029759
342.10 0.8034472
342.20 0.8038835
342.30 0.8042746
342.40 0.8046851
342.50 0.8050904
342.60 0.8054952
342.70 0.8058993
342.80 0.8063028
342.90 0.8067057
343.00 0.8071242
343.10 0.8075619
343.20 0.807999
343.30 0.8084354
343.40 0.8088541
343.50 0.8092474
343.60 0.8096402
343.70 0.8100324
343.80 0.810424
343.90 0.810815
344.00 0.811195
344.10 0.8115595
344.20 0.8119235
344.30 0.8122868
344.40 0.8126807
344.50 0.8131188
344.60 0.8134941
344.70 0.8140823
344.80 0.814367
344.90 0.8148101
345.00 0.8152374
345.10 0.8155206
345.20 0.8158702
345.30 0.8163155
345.40 0.8167602
345.50 0.817183
345.60 0.8175731
345.70 0.8179535
345.80 0.8183332
345.90 0.8187125
346.00 0.8190911
346.10 0.8194692
346.20 0.8198549
346.30 0.8202518
346.40 0.8206481
346.50 0.8210438
346.60 0.821439
346.70 0.8218335
346.80 0.8222275
346.90 0.8226208
347.00 0.8230136
347.10 0.8234058
347.20 0.8238017
347.30 0.8242032
347.40 0.8246041
347.50 0.8250044
347.60 0.8254041
347.70 0.8258032
347.80 0.8262017
347.90 0.8265996
348.00 0.8269969
348.10 0.8273936
348.20 0.8277898
348.30 0.8281853
348.40 0.8285803
348.50 0.8289746
348.60 0.8293684
348.70 0.8297679
348.80 0.8301651
348.90 0.8305566
349.00 0.8309474
349.10 0.8313377
349.20 0.8317275
349.30 0.8321166
349.40 0.8325051
349.50 0.8328931
349.60 0.8332805
349.70 0.8336673
349.80 0.8340536
349.90 0.8344392
350.00 0.8348243
350.10 0.8352088
350.20 0.8355927
350.30 0.8359716
350.40 0.8363434
350.50 0.8367147
350.60 0.8370854
350.70 0.8374555
350.80 0.8378251
350.90 0.8381941
351.00 0.8385626
351.10 0.8389305
351.20 0.8392978
351.30 0.8396646
351.40 0.8400365
351.50 0.8404176
351.60 0.8407982
351.70 0.8411783
351.80 0.8415577
351.90 0.8419366
352.00 0.842315
352.10 0.8426927
352.20 0.8430009
352.30 0.8433298
352.40 0.8437
352.50 0.8440697
352.60 0.8444387
352.70 0.8448073
352.80 0.8451752
352.90 0.8455426
353.00 0.8459095
353.10 0.8462758
353.20 0.8466416
353.30 0.8470068
353.40 0.8473714
353.50 0.8477354
353.60 0.8480988
353.70 0.8484617
353.80 0.848824
353.90 0.8491834
354.00 0.849538
354.10 0.8498921
354.20 0.8502457
354.30 0.8505987
354.40 0.8509512
354.50 0.8513032
354.60 0.8516546
354.70 0.8520055
354.80 0.8523609
354.90 0.852723
355.00 0.8530845
355.10 0.8534455
355.20 0.853806
355.30 0.8541854
355.40 0.8545642
355.50 0.8549425
355.60 0.8553202
355.70 0.8556951
355.80 0.8560683
355.90 0.8563163
356.00 0.8566132
356.10 0.8569774
356.20 0.857341
356.30 0.857704
356.40 0.8580666
356.50 0.8584285
356.60 0.85879
356.70 0.8591509
356.80 0.8595112
356.90 0.8598711
357.00 0.8602303
357.10 0.8605891
357.20 0.8609473
357.30 0.861305
357.40 0.8616619
357.50 0.8620181
357.60 0.8623737
357.70 0.8627288
357.80 0.8630133
357.90 0.8632974
358.00 0.8636355
358.10 0.8639866
358.20 0.8643372
358.30 0.8646873
358.40 0.8650368
358.50 0.8653858
358.60 0.8657343
358.70 0.8660823
358.80 0.8664297
358.90 0.8667767
359.00 0.8671401
359.10 0.8675334
359.20 0.8679211
359.30 0.8682757
359.40 0.8686297
359.50 0.8689503
359.60 0.8692623
359.70 0.8695739
359.80 0.8699331
359.90 0.8702917
360.00 0.8706448
360.10 0.8709883
360.20 0.8713312
360.30 0.8716737
360.40 0.8720156
360.50 0.8723571
360.60 0.8724573
360.70 0.8728035
360.80 0.8731492
360.90 0.8734944
361.00 0.8738958
361.10 0.8742224
361.20 0.8745047
361.30 0.8749581
361.40 0.8751629
361.50 0.8756427
361.60 0.8758962
361.70 0.8762373
361.80 0.8765902
361.90 0.8769646
362.00 0.8773384
362.10 0.8776355
362.20 0.8779202
362.30 0.8782173
362.40 0.878514
362.50 0.8788102
362.60 0.879106
362.70 0.8795372
362.80 0.8799335
362.90 0.8802644
363.00 0.8805949
363.10 0.8808585
363.20 0.881121
363.30 0.8813308
363.40 0.8817997
363.50 0.8819956
363.60 0.8824633
363.70 0.8827188
363.80 0.882989
363.90 0.883345
364.00 0.8837005
364.10 0.8840555
364.20 0.88441
364.30 0.884695
364.40 0.8849624
364.50 0.8852977
364.60 0.8856217
364.70 0.8859452
364.80 0.8862682
364.90 0.8865934
365.00 0.8869181
365.10 0.8872424
365.20 0.8875661
365.30 0.8877545
365.40 0.8882122
365.50 0.8885345
365.60 0.8888563
365.70 0.8891042
365.80 0.8893517
365.90 0.8897292
366.00 0.8901386
366.10 0.8904442
366.20 0.8907492
366.30 0.8910538
366.40 0.891358
366.50 0.8917222
366.60 0.8917799
366.70 0.8921047
366.80 0.892429
366.90 0.8927554
367.00 0.893086
367.10 0.8934161
367.20 0.8937457
367.30 0.8940748
367.40 0.8944034
367.50 0.8946719
367.60 0.894925
367.70 0.895279
367.80 0.8956324
367.90 0.8959853
368.00 0.8963027
368.10 0.8964733
368.20 0.8967852
368.30 0.8970981
368.40 0.8974106
368.50 0.8977225
368.60 0.898034
368.70 0.8983451
368.80 0.8986556
368.90 0.8990187
369.00 0.8993045
369.10 0.8995471
369.20 0.8998593
369.30 0.9001637
369.40 0.9004677
369.50 0.9007712
369.60 0.9010703
369.70 0.901369
369.80 0.901664
369.90 0.9019586
370.00 0.9022527
370.10 0.9025738
370.20 0.902875
370.30 0.9031749
370.40 0.9033444
370.50 0.9036401
370.60 0.903942
370.70 0.9043776
370.80 0.9046713
370.90 0.9049645
371.00 0.9051349
371.10 0.9053038
371.20 0.9055958
371.30 0.9058874
371.40 0.9062092
371.50 0.9064984
371.60 0.9067871
371.70 0.9070755
371.80 0.9073634
371.90 0.9076508
372.00 0.907988
372.10 0.9082428
372.20 0.9085342
372.30 0.9088252
372.40 0.9091157
372.50 0.9094058
372.60 0.9096955
372.70 0.9099847
372.80 0.9102697
372.90 0.9105541
373.00 0.9108459
373.10 0.9111372
373.20 0.9114242
373.30 0.9117108
373.40 0.911997
373.50 0.9122827
373.60 0.912568
373.70 0.9128528
373.80 0.913105
373.90 0.9134212
374.00 0.9137047
374.10 0.9139878
374.20 0.9142705
374.30 0.9145527
374.40 0.9148666
374.50 0.9151096
374.60 0.915391
374.70 0.9156734
374.80 0.9159555
374.90 0.916237
375.00 0.9165163
375.10 0.916795
375.20 0.9170734
375.30 0.9173514
375.40 0.9176289
375.50 0.917906
375.60 0.9181826
375.70 0.9184589
375.80 0.9187347
375.90 0.9190101
376.00 0.9192775
376.10 0.9195097
376.20 0.9197412
376.30 0.9199723
376.40 0.920203
376.50 0.9204609
376.60 0.9207597
376.70 0.9210581
376.80 0.9213467
376.90 0.9216256
377.00 0.9219041
377.10 0.9221822
377.20 0.9224478
377.30 0.9226678
377.40 0.9228874
377.50 0.9231066
377.60 0.923386
377.70 0.9236649
377.80 0.9239435
377.90 0.9242216
378.00 0.9244384
378.10 0.9247056
378.20 0.9249739
378.30 0.9252417
378.40 0.9255092
378.50 0.9257762
378.60 0.9260428
378.70 0.926309
378.80 0.9265748
378.90 0.9268362
379.00 0.9270896
379.10 0.9274019
379.20 0.9277138
379.30 0.9279881
379.40 0.9282249
379.50 0.9284613
379.60 0.9286592
379.70 0.9288267
379.80 0.9290965
379.90 0.9293659
380.00 0.9296349
380.10 0.9299034
380.20 0.9301716
380.30 0.9304393
380.40 0.9307067
380.50 0.9309736
380.60 0.9312826
380.70 0.9315271
380.80 0.9317712
380.90 0.932015
381.00 0.9322583
381.10 0.9323887
381.20 0.9326013
381.30 0.9329116
381.40 0.9332476
381.50 0.9333925
381.60 0.9336159
381.70 0.9339109
381.80 0.9342813
381.90 0.934409
382.00 0.9347831
382.10 0.9349102
382.20 0.9350863
382.30 0.9353359
382.40 0.9355922
382.50 0.9358587
382.60 0.9361248
382.70 0.936393
382.80 0.9366557
382.90 0.9369105
383.00 0.9371648
383.10 0.9374187
383.20 0.9376585
383.30 0.937846
383.40 0.9380425
383.50 0.9382526
383.60 0.9385639
383.70 0.9388156
383.80 0.9390668
383.90 0.9393177
384.00 0.9395682
384.10 0.9398183
384.20 0.940068
384.30 0.9403173
384.40 0.9405378
384.50 0.9407296
384.60 0.9409211
384.70 0.9411123
384.80 0.9413384
384.90 0.9416556
385.00 0.941896
385.10 0.9421302
385.20 0.9422221
385.30 0.9424715
385.40 0.9427186
385.50 0.9429635
385.60 0.943208
385.70 0.9434521
385.80 0.9436904
385.90 0.9439081
386.00 0.9441149
386.10 0.9443163
386.20 0.9445726
386.30 0.9448286
386.40 0.9451296
386.50 0.9453853
386.60 0.9454806
386.70 0.9458341
386.80 0.9459465
386.90 0.9462991
387.00 0.946477
387.10 0.9465945
387.20 0.9469217
387.30 0.9470568
387.40 0.9473997
387.50 0.9475855
387.60 0.9478864
387.70 0.9481158
387.80 0.9483449
387.90 0.9485736
388.00 0.948768
388.10 0.9489522
388.20 0.9492094
388.30 0.9494026
388.40 0.9495954
388.50 0.9497691
388.60 0.9499787
388.70 0.9502172
388.80 0.9505549
388.90 0.950661
389.00 0.9509247
389.10 0.9510981
389.20 0.9513022
389.30 0.9516062
389.40 0.9518478
389.50 0.9520363
389.60 0.9521936
389.70 0.9524822
389.80 0.9526784
389.90 0.9528743
390.00 0.9530698
390.10 0.953265
390.20 0.9534599
390.30 0.9536686
390.40 0.9538928
390.50 0.9541166
390.60 0.9543402
390.70 0.9545633
390.80 0.9547633
390.90 0.9549403
391.00 0.9552874
391.10 0.9554843
391.20 0.9556705
391.30 0.9558502
391.40 0.9560667
391.50 0.9562828
391.60 0.9564986
391.70 0.956714
391.80 0.9569291
391.90 0.9571222
392.00 0.9573118
392.10 0.957533
392.20 0.9577257
392.30 0.9578334
392.40 0.9581415
392.50 0.9583701
392.60 0.9584657
392.70 0.9587945
392.80 0.9588895
392.90 0.9591606
393.00 0.9592923
393.10 0.9594499
393.20 0.9596388
393.30 0.9598489
393.40 0.960054
393.50 0.9603496
393.60 0.9604667
393.70 0.9607916
393.80 0.9608943
393.90 0.9611024
394.00 0.9613148
394.10 0.961555
394.20 0.9617726
394.30 0.9619393
394.40 0.9621326
394.50 0.9622814
394.60 0.9624394
394.70 0.9626174
394.80 0.9628712
394.90 0.9631246
395.00 0.9633739
395.10 0.963604
395.20 0.9637944
395.30 0.9639821
395.40 0.9641694
395.50 0.964342
395.60 0.9645089
395.70 0.9646746
395.80 0.9648374
395.90 0.965
396.00 0.9651793
396.10 0.9654905
396.20 0.9656911
396.30 0.9658603
396.40 0.9659457
396.50 0.9662226
396.60 0.9663446
396.70 0.9665155
396.80 0.9667525
396.90 0.9669235
397.00 0.9670987
397.10 0.9673725
397.20 0.9674185
397.30 0.9676564
397.40 0.9678862
397.50 0.9681155
397.60 0.9683383
397.70 0.9684969
397.80 0.9686552
397.90 0.9688146
398.00 0.968977
398.10 0.9691391
398.20 0.9693022
398.30 0.9694664
398.40 0.9696317
398.50 0.9698425
398.60 0.9700775
398.70 0.9702546
398.80 0.9704146
398.90 0.9705828
399.00 0.9707662
399.10 0.9710183
399.20 0.9712053
399.30 0.9713919
399.40 0.9715783
399.50 0.9717643
399.60 0.9719146
399.70 0.9720515
399.80 0.9721881
399.90 0.9723244
400.00 0.9724626
400.10 0.9726684
400.20 0.972909
400.30 0.9731253
400.40 0.9733491
400.50 0.9733811
400.60 0.9736106
400.70 0.9737972
400.80 0.9739017
400.90 0.9741997
401.00 0.974326
401.10 0.9745707
401.20 0.9745869
401.30 0.9748657
401.40 0.9750887
401.50 0.9752645
401.60 0.9754357
401.70 0.9754649
401.80 0.9756433
401.90 0.9758841
402.00 0.9759541
402.10 0.9761124
402.20 0.9763236
402.30 0.9766043
402.40 0.9767391
402.50 0.9768392
402.60 0.9770439
402.70 0.9772008
402.80 0.9772702
402.90 0.9774282
403.00 0.977608
403.10 0.9779204
403.20 0.9781149
403.30 0.9781405
403.40 0.9783142
403.50 0.9784891
403.60 0.9786469
403.70 0.97877
403.80 0.9789663
403.90 0.9791083
404.00 0.9793344
404.10 0.9794781
404.20 0.9796544
404.30 0.9798304
404.40 0.9799061
404.50 0.9801815
404.60 0.9802467
404.70 0.9805315
404.80 0.9805056
404.90 0.9806607
405.00 0.9809127
405.10 0.9810712
405.20 0.9812134
405.30 0.9813552
405.40 0.9815281
405.50 0.9817007
405.60 0.9818731
405.70 0.9820451
405.80 0.9822168
405.90 0.9823883
406.00 0.9825195
406.10 0.9826504
406.20 0.9827811
406.30 0.9829115
406.40 0.9830451
406.50 0.9831952
406.60 0.9834715
406.70 0.9835728
406.80 0.9836839
406.90 0.9838885
407.00 0.9840352
407.10 0.9841816
407.20 0.9843278
407.30 0.9844737
407.40 0.9846193
407.50 0.9847646
407.60 0.9849097
407.70 0.9850546
407.80 0.9851992
407.90 0.9853424
408.00 0.9854502
408.10 0.9855477
408.20 0.9856795
408.30 0.9858296
408.40 0.9859795
408.50 0.9863146
408.60 0.9864286
408.70 0.9865424
408.80 0.9866721
408.90 0.9869025
409.00 0.9870394
409.10 0.987176
409.20 0.9873125
409.30 0.9874486
409.40 0.9875842
409.50 0.9877086
409.60 0.9878328
409.70 0.9879542
409.80 0.9880646
409.90 0.9881758
410.00 0.9883175
410.10 0.9885489
410.20 0.9886775
410.30 0.9887802
410.40 0.9888943
410.50 0.9890449
410.60 0.9891952
410.70 0.9893398
410.80 0.9894627
410.90 0.9895852
411.00 0.9897074
411.10 0.9898293
411.20 0.9899509
411.30 0.9900972
411.40 0.9903392
411.50 0.9904587
411.60 0.9905781
411.70 0.9907045
411.80 0.9908602
411.90 0.9909943
412.00 0.9910434
412.10 0.9912512
412.20 0.9913529
412.30 0.9914402
412.40 0.9916766
412.50 0.9917244
412.60 0.9918478
412.70 0.9920142
412.80 0.9921911
412.90 0.9922326
413.00 0.9923089
413.10 0.9924562
413.20 0.9926033
413.30 0.9927501
413.40 0.9928967
413.50 0.9930492
413.60 0.9932076
413.70 0.9933058
413.80 0.9934038
413.90 0.9935016
414.00 0.9936118
414.10 0.9937616
414.20 0.993886
414.30 0.9941402
414.40 0.9941844
414.50 0.9942236
414.60 0.9944818
414.70 0.9945254
414.80 0.994594
414.90 0.9947419
415.00 0.9948895
415.10 0.9950368
415.20 0.9951741
415.30 0.9952799
415.40 0.9953856
415.50 0.9954914
415.60 0.9956099
415.70 0.9957282
415.80 0.9958509
415.90 0.995988
416.00 0.996125
416.10 0.9962582
416.20 0.9963775
416.30 0.9964965
416.40 0.9966152
416.50 0.9967345
416.60 0.9968782
416.70 0.9970185
416.80 0.9970603
416.90 0.9972089
417.00 0.9973948
417.10 0.9973859
417.20 0.9975282
417.30 0.9976692
417.40 0.9977751
417.50 0.9978809
