# Version 2.1 - nm, norm@500 to 1, cut digits, bergeron_He_6500_90.dat_6500
# Wavelength(nm)  Flambda(ergs/cm^s/s/nm)
300.00 0.7957593
300.10 0.7962532
300.20 0.7967429
300.30 0.7972376
300.40 0.7977714
300.50 0.7983043
300.60 0.7988364
300.70 0.7993675
300.80 0.7998977
300.90 0.8004271
301.00 0.8009556
301.10 0.8014832
301.20 0.8020099
301.30 0.8025358
301.40 0.8030608
301.50 0.8035849
301.60 0.8041081
301.70 0.8046305
301.80 0.805152
301.90 0.8056726
302.00 0.8061924
302.10 0.8067057
302.20 0.8072174
302.30 0.8077284
302.40 0.8082384
302.50 0.8087476
302.60 0.809256
302.70 0.8097635
302.80 0.8102702
302.90 0.810776
303.00 0.811281
303.10 0.8117852
303.20 0.8122884
303.30 0.8127915
303.40 0.8132988
303.50 0.8138052
303.60 0.8143108
303.70 0.8148156
303.80 0.8153195
303.90 0.8158225
304.00 0.8163248
304.10 0.8168262
304.20 0.8173267
304.30 0.8178265
304.40 0.8183254
304.50 0.8188234
304.60 0.8193294
304.70 0.8198355
304.80 0.8203408
304.90 0.8208452
305.00 0.8213488
305.10 0.8218515
305.20 0.8223534
305.30 0.8228545
305.40 0.8233547
305.50 0.8238541
305.60 0.8243527
305.70 0.8248505
305.80 0.8253474
305.90 0.8258435
306.00 0.8263388
306.10 0.8268332
306.20 0.8273268
306.30 0.8278197
306.40 0.8283092
306.50 0.8287973
306.60 0.8292846
306.70 0.829771
306.80 0.8302566
306.90 0.8307414
307.00 0.8312254
307.10 0.8317086
307.20 0.832191
307.30 0.8326726
307.40 0.8331534
307.50 0.8336334
307.60 0.8341126
307.70 0.834591
307.80 0.8350686
307.90 0.8355454
308.00 0.8360214
308.10 0.8364966
308.20 0.836971
308.30 0.8374446
308.40 0.8379175
308.50 0.8383895
308.60 0.8388608
308.70 0.8393312
308.80 0.839813
308.90 0.8403283
309.00 0.8408271
309.10 0.841325
309.20 0.8418221
309.30 0.8423185
309.40 0.842811
309.50 0.8432846
309.60 0.8437575
309.70 0.8442295
309.80 0.8447008
309.90 0.8451712
310.00 0.8456409
310.10 0.8461098
310.20 0.846578
310.30 0.8470453
310.40 0.8475121
310.50 0.8479784
310.60 0.848444
310.70 0.8489087
310.80 0.8493727
310.90 0.8498359
311.00 0.8503453
311.10 0.8508539
311.20 0.8513617
311.30 0.8518586
311.40 0.852326
311.50 0.8527926
311.60 0.8532584
311.70 0.8537235
311.80 0.8541878
311.90 0.8546513
312.00 0.855114
312.10 0.855576
312.20 0.855966
312.30 0.8563607
312.40 0.8568272
312.50 0.8572714
312.60 0.8577737
312.70 0.8582752
312.80 0.8587759
312.90 0.8592457
313.00 0.8596822
313.10 0.860118
313.20 0.860553
313.30 0.8609917
313.40 0.8614422
313.50 0.8618919
313.60 0.8623409
313.70 0.8627891
313.80 0.8632366
313.90 0.8636834
314.00 0.8641294
314.10 0.8645796
314.20 0.8650291
314.30 0.8654778
314.40 0.8659258
314.50 0.866373
314.60 0.8668195
314.70 0.8672653
314.80 0.8677083
314.90 0.8681705
315.00 0.8686598
315.10 0.8690916
315.20 0.8695227
315.30 0.8699531
315.40 0.8703827
315.50 0.8708116
315.60 0.8712399
315.70 0.8717099
315.80 0.8721792
315.90 0.8726478
316.00 0.8731156
316.10 0.8735826
316.20 0.8740488
316.30 0.874387
316.40 0.8748518
316.50 0.8753159
316.60 0.8756521
316.70 0.8761147
316.80 0.8765765
316.90 0.8770376
317.00 0.8774979
317.10 0.8779575
317.20 0.8784163
317.30 0.8788802
317.40 0.8793258
317.50 0.8797206
317.60 0.8801149
317.70 0.8805084
317.80 0.8809013
317.90 0.8813418
318.00 0.8818181
318.10 0.8822703
318.20 0.8827218
318.30 0.8831725
318.40 0.8836226
318.50 0.8840718
318.60 0.8844225
318.70 0.8847826
318.80 0.8854052
318.90 0.8856762
319.00 0.8860569
319.10 0.8865019
319.20 0.8869441
319.30 0.8873797
319.40 0.8878146
319.50 0.8882488
319.60 0.888714
319.70 0.8891467
319.80 0.8895787
319.90 0.89001
320.00 0.8904444
320.10 0.8908822
320.20 0.8913134
320.30 0.8916265
320.40 0.892211
320.50 0.8924971
320.60 0.8930007
320.70 0.8933104
320.80 0.893679
320.90 0.8941112
321.00 0.8945426
321.10 0.8949734
321.20 0.8954317
321.30 0.8958559
321.40 0.8962795
321.50 0.8967023
321.60 0.8971244
321.70 0.8975458
321.80 0.8979753
321.90 0.8984137
322.00 0.8988393
322.10 0.8992276
322.20 0.8996153
322.30 0.9000022
322.40 0.9003886
322.50 0.9007743
322.60 0.9011593
322.70 0.9015437
322.80 0.9019734
322.90 0.9023908
323.00 0.9028075
323.10 0.9032236
323.20 0.9036389
323.30 0.9040536
323.40 0.9044676
323.50 0.9048809
323.60 0.9052935
323.70 0.9057054
323.80 0.9061167
323.90 0.9065272
324.00 0.9069406
324.10 0.9073532
324.20 0.9077652
324.30 0.9081661
324.40 0.9085457
324.50 0.9089341
324.60 0.9093219
324.70 0.909709
324.80 0.9100955
324.90 0.9104813
325.00 0.9108664
325.10 0.911251
325.20 0.911628
325.30 0.9119899
325.40 0.9123511
325.50 0.9127331
325.60 0.9131405
325.70 0.9135473
325.80 0.9139534
325.90 0.9143586
326.00 0.9147629
326.10 0.9151666
326.20 0.9155696
326.30 0.9159681
326.40 0.9163554
326.50 0.9167483
326.60 0.9171405
326.70 0.9175321
326.80 0.9179231
326.90 0.9183134
327.00 0.918703
327.10 0.919092
327.20 0.9194803
327.30 0.919868
327.40 0.9202551
327.50 0.9206415
327.60 0.9210273
327.70 0.9214124
327.80 0.9217969
327.90 0.9221681
328.00 0.9225246
328.10 0.9228799
328.20 0.9232347
328.30 0.9235888
328.40 0.9239423
328.50 0.9243614
328.60 0.9247953
328.70 0.9252285
328.80 0.925646
328.90 0.9260199
329.00 0.9263933
329.10 0.926766
329.20 0.9271381
329.30 0.9275096
329.40 0.9278805
329.50 0.9282507
329.60 0.9286203
329.70 0.9289893
329.80 0.9293577
329.90 0.9297255
330.00 0.9300979
330.10 0.9304763
330.20 0.930854
330.30 0.9312311
330.40 0.9316029
330.50 0.9319692
330.60 0.9323348
330.70 0.9326999
330.80 0.9330643
330.90 0.9334281
331.00 0.9337913
331.10 0.9341539
331.20 0.9345158
331.30 0.9348772
331.40 0.935238
331.50 0.935601
331.60 0.9359667
331.70 0.9363319
331.80 0.9366923
331.90 0.9370518
332.00 0.9374108
332.10 0.9377692
332.20 0.9381269
332.30 0.9384841
332.40 0.9388406
332.50 0.9391966
332.60 0.939552
332.70 0.9399067
332.80 0.9402609
332.90 0.9406145
333.00 0.9409675
333.10 0.9413201
333.20 0.9416726
333.30 0.9420245
333.40 0.9423758
333.50 0.9427265
333.60 0.9430766
333.70 0.9434261
333.80 0.9437751
333.90 0.9441234
334.00 0.9444712
334.10 0.9448183
334.20 0.9451649
334.30 0.9455109
334.40 0.9458563
334.50 0.9462012
334.60 0.9465454
334.70 0.9468734
334.80 0.9471788
334.90 0.9474798
335.00 0.9477802
335.10 0.9482581
335.20 0.9485988
335.30 0.9488145
335.40 0.9492391
335.50 0.9496913
335.60 0.9499167
335.70 0.9502942
335.80 0.9506315
335.90 0.9509683
336.00 0.9513045
336.10 0.9516402
336.20 0.9519753
336.30 0.9523098
336.40 0.9526437
336.50 0.9529771
336.60 0.9533099
336.70 0.9536422
336.80 0.9539738
336.90 0.954301
337.00 0.9546227
337.10 0.9549438
337.20 0.9552644
337.30 0.9555905
337.40 0.9559249
337.50 0.9562587
337.60 0.9565919
337.70 0.9569246
337.80 0.9572567
337.90 0.9575925
338.00 0.9579331
338.10 0.958273
338.20 0.9586124
338.30 0.9589513
338.40 0.9592885
338.50 0.9596228
338.60 0.9599564
338.70 0.9602895
338.80 0.960622
338.90 0.960954
339.00 0.9612854
339.10 0.9616162
339.20 0.9619465
339.30 0.9622788
339.40 0.9626141
339.50 0.9629394
339.60 0.9632529
339.70 0.9635658
339.80 0.9638781
339.90 0.9641899
340.00 0.9645012
340.10 0.964812
340.20 0.9651222
340.30 0.9654319
340.40 0.9657411
340.50 0.9660497
340.60 0.9663578
340.70 0.9666654
340.80 0.9669809
340.90 0.9673079
341.00 0.9676264
341.10 0.9679346
341.20 0.9682422
341.30 0.9685492
341.40 0.9688558
341.50 0.9691618
341.60 0.9694673
341.70 0.9697723
341.80 0.9700768
341.90 0.9703807
342.00 0.9706841
342.10 0.970987
342.20 0.9713329
342.30 0.9716081
342.40 0.9718602
342.50 0.9721669
342.60 0.972473
342.70 0.9727786
342.80 0.9730837
342.90 0.9733883
343.00 0.97371
343.10 0.9740527
343.20 0.9743948
343.30 0.9747363
343.40 0.9750589
343.50 0.9753545
343.60 0.9756496
343.70 0.9759441
343.80 0.9762382
343.90 0.9765317
344.00 0.9768248
344.10 0.9771173
344.20 0.9774093
344.30 0.9777009
344.40 0.9779919
344.50 0.9782824
344.60 0.978655
344.70 0.9788373
344.80 0.9792334
344.90 0.9795272
345.00 0.9797275
345.10 0.980015
345.20 0.9803068
345.30 0.9806048
345.40 0.9809024
345.50 0.9811795
345.60 0.9814451
345.70 0.9817297
345.80 0.9820137
345.90 0.9822973
346.00 0.9825803
346.10 0.9828629
346.20 0.9831537
346.30 0.9834565
346.40 0.9837588
346.50 0.9840606
346.60 0.9843619
346.70 0.9846627
346.80 0.984963
346.90 0.9852627
347.00 0.985562
347.10 0.9858607
347.20 0.9861526
347.30 0.986435
347.40 0.9867169
347.50 0.9869983
347.60 0.9872792
347.70 0.9875596
347.80 0.9878396
347.90 0.988119
348.00 0.988398
348.10 0.9886765
348.20 0.9889545
348.30 0.989232
348.40 0.9895091
348.50 0.9897856
348.60 0.9900617
348.70 0.9902858
348.80 0.9905244
348.90 0.9908073
349.00 0.9910897
349.10 0.9913717
349.20 0.9916532
349.30 0.9919342
349.40 0.9922147
349.50 0.9924947
349.60 0.9927742
349.70 0.9930533
349.80 0.9933318
349.90 0.9936099
350.00 0.9938875
350.10 0.9941647
350.20 0.9944413
350.30 0.9947103
350.40 0.9949684
350.50 0.9952261
350.60 0.9954833
350.70 0.99574
350.80 0.9959963
350.90 0.9962522
351.00 0.9965076
351.10 0.9967625
351.20 0.997017
351.30 0.997271
351.40 0.9975276
351.50 0.9977889
351.60 0.9980497
351.70 0.9983101
351.80 0.99857
351.90 0.9988294
352.00 0.9990884
352.10 0.999347
352.20 0.9996061
352.30 0.9998666
352.40 1.000129
352.50 1.000391
352.60 1.000653
352.70 1.000915
352.80 1.001175
352.90 1.001436
353.00 1.001696
353.10 1.001955
353.20 1.002214
353.30 1.002473
353.40 1.002731
353.50 1.002953
353.60 1.003165
353.70 1.003377
353.80 1.003589
353.90 1.003815
354.00 1.004065
354.10 1.004315
354.20 1.004564
354.30 1.004813
354.40 1.005062
354.50 1.00531
354.60 1.005557
354.70 1.005804
354.80 1.006056
354.90 1.006314
355.00 1.006572
355.10 1.00683
355.20 1.007086
355.30 1.007315
355.40 1.007544
355.50 1.007772
355.60 1.007999
355.70 1.008275
355.80 1.008571
355.90 1.008815
356.00 1.009037
356.10 1.009277
356.20 1.009517
356.30 1.009756
356.40 1.009995
356.50 1.010233
356.60 1.010471
356.70 1.010708
356.80 1.010945
356.90 1.011181
357.00 1.011417
357.10 1.011653
357.20 1.011888
357.30 1.012123
357.40 1.012347
357.50 1.012551
357.60 1.012756
357.70 1.012959
357.80 1.013207
357.90 1.013454
358.00 1.01369
358.10 1.013923
358.20 1.014155
358.30 1.014387
358.40 1.014618
358.50 1.01485
358.60 1.01508
358.70 1.01531
358.80 1.01554
358.90 1.01577
359.00 1.016
359.10 1.016231
359.20 1.016457
359.30 1.016653
359.40 1.016849
359.50 1.017111
359.60 1.017389
359.70 1.017667
359.80 1.017847
359.90 1.018026
360.00 1.018226
360.10 1.018465
360.20 1.018704
360.30 1.018942
360.40 1.01918
360.50 1.019417
360.60 1.019534
360.70 1.019751
360.80 1.019968
360.90 1.020185
361.00 1.020372
361.10 1.020597
361.20 1.020943
361.30 1.021119
361.40 1.021343
361.50 1.021548
361.60 1.021692
361.70 1.021906
361.80 1.022112
361.90 1.022307
362.00 1.022501
362.10 1.022736
362.20 1.022964
362.30 1.023166
362.40 1.023366
362.50 1.023567
362.60 1.023767
362.70 1.024
362.80 1.024339
362.90 1.024544
363.00 1.024748
363.10 1.02489
363.20 1.025031
363.30 1.025187
363.40 1.025538
363.50 1.0256
363.60 1.025903
363.70 1.026077
363.80 1.026218
363.90 1.026433
364.00 1.026647
364.10 1.02686
364.20 1.027073
364.30 1.027262
364.40 1.027444
364.50 1.027654
364.60 1.027854
364.70 1.028054
364.80 1.028253
364.90 1.028455
365.00 1.028656
365.10 1.028857
365.20 1.029152
365.30 1.029257
365.40 1.029456
365.50 1.029656
365.60 1.029854
365.70 1.03007
365.80 1.030285
365.90 1.03047
366.00 1.030646
366.10 1.03083
366.20 1.031013
366.30 1.031197
366.40 1.031379
366.50 1.031619
366.60 1.031822
366.70 1.031977
366.80 1.032131
366.90 1.032296
367.00 1.032482
367.10 1.032667
367.20 1.032852
367.30 1.033037
367.40 1.033221
367.50 1.033478
367.60 1.033753
367.70 1.033935
367.80 1.034115
367.90 1.034296
368.00 1.034422
368.10 1.034511
368.20 1.034711
368.30 1.034912
368.40 1.035112
368.50 1.035313
368.60 1.035512
368.70 1.035712
368.80 1.035911
368.90 1.036076
369.00 1.036227
369.10 1.036388
369.20 1.036582
369.30 1.036767
369.40 1.036952
369.50 1.037137
369.60 1.037318
369.70 1.037498
369.80 1.037692
369.90 1.037885
370.00 1.038078
370.10 1.038232
370.20 1.038413
370.30 1.038595
370.40 1.038687
370.50 1.038866
370.60 1.03905
370.70 1.039142
370.80 1.039319
370.90 1.039495
371.00 1.039679
371.10 1.039862
371.20 1.040037
371.30 1.040212
371.40 1.040473
371.50 1.040634
371.60 1.040795
371.70 1.040956
371.80 1.041117
371.90 1.041277
372.00 1.041408
372.10 1.041636
372.20 1.041781
372.30 1.041926
372.40 1.04207
372.50 1.042214
372.60 1.042358
372.70 1.042501
372.80 1.042671
372.90 1.042841
373.00 1.043018
373.10 1.043194
373.20 1.043366
373.30 1.043538
373.40 1.04371
373.50 1.04379
373.60 1.044052
373.70 1.044223
373.80 1.04441
373.90 1.044563
374.00 1.044687
374.10 1.044811
374.20 1.044935
374.30 1.045058
374.40 1.045294
374.50 1.04539
374.60 1.045557
374.70 1.045726
374.80 1.045895
374.90 1.046063
375.00 1.04623
375.10 1.046396
375.20 1.046562
375.30 1.046702
375.40 1.046841
375.50 1.04698
375.60 1.047119
375.70 1.047257
375.80 1.047395
375.90 1.047533
376.00 1.047689
376.10 1.047838
376.20 1.047987
376.30 1.048135
376.40 1.048283
376.50 1.048446
376.60 1.048633
376.70 1.048818
376.80 1.048967
376.90 1.049079
377.00 1.049191
377.10 1.049302
377.20 1.049426
377.30 1.049594
377.40 1.049762
377.50 1.049929
377.60 1.050072
377.70 1.050214
377.80 1.050357
377.90 1.050499
378.00 1.050535
378.10 1.050678
378.20 1.050823
378.30 1.050967
378.40 1.051112
378.50 1.051256
378.60 1.0514
378.70 1.051543
378.80 1.051686
378.90 1.051815
379.00 1.051916
379.10 1.05207
379.20 1.052224
379.30 1.052366
379.40 1.052496
379.50 1.052625
379.60 1.052778
379.70 1.052955
379.80 1.053087
379.90 1.05322
380.00 1.053352
380.10 1.053484
380.20 1.053616
380.30 1.053747
380.40 1.053878
380.50 1.054009
380.60 1.054085
380.70 1.05421
380.80 1.054335
380.90 1.05446
381.00 1.054584
381.10 1.054798
381.20 1.054938
381.30 1.054983
381.40 1.055219
381.50 1.055294
381.60 1.055411
381.70 1.055574
381.80 1.055584
381.90 1.055817
382.00 1.055875
382.10 1.05602
382.20 1.056095
382.30 1.05624
382.40 1.056367
382.50 1.056468
382.60 1.056569
382.70 1.056699
382.80 1.05685
382.90 1.056986
383.00 1.057122
383.10 1.057258
383.20 1.05739
383.30 1.057509
383.40 1.057606
383.50 1.057673
383.60 1.057874
383.70 1.057983
383.80 1.058092
383.90 1.058201
384.00 1.05831
384.10 1.058418
384.20 1.058527
384.30 1.058635
384.40 1.058755
384.50 1.058886
384.60 1.059018
384.70 1.059149
384.80 1.059263
384.90 1.059335
385.00 1.059448
385.10 1.059561
385.20 1.059669
385.30 1.059815
385.40 1.059933
385.50 1.060022
385.60 1.060111
385.70 1.0602
385.80 1.060302
385.90 1.060452
386.00 1.060556
386.10 1.060617
386.20 1.060727
386.30 1.060836
386.40 1.060954
386.50 1.061131
386.60 1.061138
386.70 1.06127
386.80 1.061403
386.90 1.061534
387.00 1.061589
387.10 1.061716
387.20 1.061873
387.30 1.061978
387.40 1.062067
387.50 1.062122
387.60 1.062168
387.70 1.062298
387.80 1.062427
387.90 1.062556
388.00 1.062667
388.10 1.062724
388.20 1.062784
388.30 1.06288
388.40 1.062976
388.50 1.063106
388.60 1.063239
388.70 1.063238
388.80 1.063355
388.90 1.063492
389.00 1.063656
389.10 1.063647
389.20 1.063763
389.30 1.063902
389.40 1.063959
389.50 1.064056
389.60 1.06419
389.70 1.064253
389.80 1.064363
389.90 1.064472
390.00 1.064581
390.10 1.06469
390.20 1.064799
390.30 1.064884
390.40 1.064944
390.50 1.065003
390.60 1.065062
390.70 1.065121
390.80 1.065208
390.90 1.065322
391.00 1.065463
391.10 1.065564
391.20 1.065672
391.30 1.065771
391.40 1.065836
391.50 1.065901
391.60 1.065965
391.70 1.06603
391.80 1.066094
391.90 1.066163
392.00 1.066249
392.10 1.066351
392.20 1.066444
392.30 1.066519
392.40 1.066648
392.50 1.066777
392.60 1.066812
392.70 1.066875
392.80 1.066992
392.90 1.067101
393.00 1.067172
393.10 1.067235
393.20 1.067294
393.30 1.06741
393.40 1.067508
393.50 1.067519
393.60 1.06767
393.70 1.067721
393.80 1.067814
393.90 1.067846
394.00 1.067898
394.10 1.06805
394.20 1.068091
394.30 1.068125
394.40 1.068185
394.50 1.068394
394.60 1.0684
394.70 1.068418
394.80 1.068476
394.90 1.068537
395.00 1.068676
395.10 1.068757
395.20 1.068829
395.30 1.068872
395.40 1.068915
395.50 1.069016
395.60 1.069137
395.70 1.069245
395.80 1.069318
395.90 1.069391
396.00 1.069462
396.10 1.069509
396.20 1.069536
396.30 1.06963
396.40 1.06971
396.50 1.069711
396.60 1.069793
396.70 1.069853
396.80 1.069957
396.90 1.070076
397.00 1.070167
397.10 1.070166
397.20 1.070202
397.30 1.070329
397.40 1.070399
397.50 1.070468
397.60 1.070534
397.70 1.070567
397.80 1.070599
397.90 1.070648
398.00 1.070742
398.10 1.070835
398.20 1.07091
398.30 1.070964
398.40 1.071019
398.50 1.071099
398.60 1.071105
398.70 1.071142
398.80 1.071193
398.90 1.071245
399.00 1.071301
399.10 1.071456
399.20 1.071506
399.30 1.071555
399.40 1.071605
399.50 1.071654
399.60 1.071697
399.70 1.071737
399.80 1.071777
399.90 1.071817
400.00 1.071858
400.10 1.071934
400.20 1.072057
400.30 1.072116
400.40 1.072145
400.50 1.072181
400.60 1.07221
400.70 1.07223
400.80 1.072293
400.90 1.072338
401.00 1.072378
401.10 1.072509
401.20 1.072578
401.30 1.072653
401.40 1.072705
401.50 1.072756
401.60 1.072807
401.70 1.07288
401.80 1.072881
401.90 1.072943
402.00 1.073035
402.10 1.072957
402.20 1.073074
402.30 1.073082
402.40 1.073145
402.50 1.073183
402.60 1.073295
402.70 1.073217
402.80 1.073312
402.90 1.073375
403.00 1.073391
403.10 1.073438
403.20 1.073551
403.30 1.07362
403.40 1.073619
403.50 1.073627
403.60 1.073646
403.70 1.073687
403.80 1.073796
403.90 1.073797
404.00 1.073833
404.10 1.073902
404.20 1.073916
404.30 1.07393
404.40 1.074036
404.50 1.074035
404.60 1.074127
404.70 1.07414
404.80 1.074245
404.90 1.074166
405.00 1.074279
405.10 1.074325
405.20 1.074349
405.30 1.074372
405.40 1.07441
405.50 1.074448
405.60 1.074486
405.70 1.074524
405.80 1.074561
405.90 1.074599
406.00 1.074629
406.10 1.074659
406.20 1.074689
406.30 1.074718
406.40 1.074747
406.50 1.07482
406.60 1.074829
406.70 1.074859
406.80 1.074931
406.90 1.074877
407.00 1.074917
407.10 1.074958
407.20 1.074998
407.30 1.075038
407.40 1.075078
407.50 1.075118
407.60 1.075158
407.70 1.075197
407.80 1.075236
407.90 1.075274
408.00 1.075248
408.10 1.075275
408.20 1.075339
408.30 1.07536
408.40 1.07538
408.50 1.075459
408.60 1.075461
408.70 1.075462
408.80 1.075463
408.90 1.075469
409.00 1.075498
409.10 1.075528
409.20 1.075557
409.30 1.075585
409.40 1.075613
409.50 1.075625
409.60 1.075636
409.70 1.075652
409.80 1.075686
409.90 1.07572
410.00 1.075784
410.10 1.075764
410.20 1.075813
410.30 1.07588
410.40 1.075924
410.50 1.075897
410.60 1.07587
410.70 1.075853
410.80 1.075879
410.90 1.075905
411.00 1.075935
411.10 1.075967
411.20 1.075998
411.30 1.076021
411.40 1.076013
411.50 1.076021
411.60 1.07603
411.70 1.076052
411.80 1.07613
411.90 1.076163
412.00 1.076166
412.10 1.076131
412.20 1.076171
412.30 1.0762
412.40 1.076191
412.50 1.076209
412.60 1.076222
412.70 1.076226
412.80 1.076228
412.90 1.076276
413.00 1.076313
413.10 1.076325
413.20 1.076337
413.30 1.076348
413.40 1.07636
413.50 1.076358
413.60 1.076325
413.70 1.076363
413.80 1.0764
413.90 1.076437
414.00 1.076466
414.10 1.076466
414.20 1.07643
414.30 1.076429
414.40 1.076399
414.50 1.076436
414.60 1.076463
414.70 1.076462
414.80 1.076461
414.90 1.07646
415.00 1.076459
415.10 1.076457
415.20 1.076464
415.30 1.076498
415.40 1.076531
415.50 1.076564
415.60 1.076574
415.70 1.076585
415.80 1.076584
415.90 1.076551
416.00 1.076517
416.10 1.076493
416.20 1.076504
416.30 1.076516
416.40 1.076527
416.50 1.076538
416.60 1.076534
416.70 1.076538
416.80 1.076525
416.90 1.076598
417.00 1.076552
417.10 1.076516
417.20 1.076512
417.30 1.076508
417.40 1.076509
417.50 1.07651
417.60 1.076507
417.70 1.076491
417.80 1.076511
417.90 1.076531
418.00 1.07655
418.10 1.076569
418.20 1.076588
418.30 1.076602
418.40 1.076492
418.50 1.076499
418.60 1.076505
418.70 1.076512
418.80 1.076518
418.90 1.076524
419.00 1.07653
419.10 1.076535
419.20 1.076541
419.30 1.076545
419.40 1.076492
419.50 1.076439
419.60 1.076401
419.70 1.076426
419.80 1.07645
419.90 1.076464
420.00 1.076446
420.10 1.076428
420.20 1.07641
420.30 1.076392
420.40 1.076374
420.50 1.076356
420.60 1.076338
420.70 1.076319
420.80 1.076301
420.90 1.076283
421.00 1.076288
421.10 1.076294
421.20 1.076293
421.30 1.076273
421.40 1.076253
421.50 1.076233
421.60 1.076213
421.70 1.076193
