# Version 2.1 - nm, norm@500 to 1, cut digits, bergeron_He_12000_80.dat_12000
# Wavelength(nm)  Flambda(ergs/cm^s/s/nm)
300.00 2.61869
300.10 2.617664
300.20 2.61663
300.30 2.6156
300.40 2.614589
300.50 2.613578
300.60 2.612569
300.70 2.61156
300.80 2.610551
300.90 2.609544
301.00 2.608537
301.10 2.607531
301.20 2.606526
301.30 2.605521
301.40 2.604517
301.50 2.603514
301.60 2.602512
301.70 2.601511
301.80 2.60051
301.90 2.59951
302.00 2.598511
302.10 2.597491
302.20 2.59647
302.30 2.59545
302.40 2.59443
302.50 2.593412
302.60 2.592394
302.70 2.591376
302.80 2.59036
302.90 2.589344
303.00 2.588329
303.10 2.587315
303.20 2.586302
303.30 2.58529
303.40 2.58428
303.50 2.583272
303.60 2.582264
303.70 2.581257
303.80 2.580251
303.90 2.579245
304.00 2.578241
304.10 2.577237
304.20 2.576234
304.30 2.575231
304.40 2.574229
304.50 2.573229
304.60 2.572196
304.70 2.571161
304.80 2.570127
304.90 2.569094
305.00 2.568061
305.10 2.567029
305.20 2.565998
305.30 2.564968
305.40 2.563938
305.50 2.56291
305.60 2.561882
305.70 2.560855
305.80 2.559829
305.90 2.558803
306.00 2.557779
306.10 2.556755
306.20 2.555732
306.30 2.554709
306.40 2.553677
306.50 2.552642
306.60 2.551609
306.70 2.550575
306.80 2.549543
306.90 2.548512
307.00 2.547481
307.10 2.546451
307.20 2.545422
307.30 2.544394
307.40 2.543366
307.50 2.54234
307.60 2.541314
307.70 2.540289
307.80 2.539264
307.90 2.538241
308.00 2.537218
308.10 2.536196
308.20 2.535175
308.30 2.534155
308.40 2.533135
308.50 2.532117
308.60 2.531099
308.70 2.530082
308.80 2.529057
308.90 2.52801
309.00 2.526908
309.10 2.525808
309.20 2.524709
309.30 2.523611
309.40 2.522524
309.50 2.521508
309.60 2.520492
309.70 2.519476
309.80 2.518462
309.90 2.517449
310.00 2.516436
310.10 2.515424
310.20 2.514413
310.30 2.513402
310.40 2.512358
310.50 2.511277
310.60 2.510197
310.70 2.509117
310.80 2.508039
310.90 2.506961
311.00 2.505937
311.10 2.504914
311.20 2.503892
311.30 2.502865
311.40 2.501823
311.50 2.500781
311.60 2.499741
311.70 2.498701
311.80 2.497662
311.90 2.496624
312.00 2.495587
312.10 2.49455
312.20 2.493584
312.30 2.492493
312.40 2.491301
312.50 2.490187
312.60 2.489179
312.70 2.488172
312.80 2.487166
312.90 2.486127
313.00 2.485054
313.10 2.483981
313.20 2.482909
313.30 2.481834
313.40 2.480747
313.50 2.479662
313.60 2.478577
313.70 2.477494
313.80 2.476411
313.90 2.475329
314.00 2.474248
314.10 2.473183
314.20 2.47212
314.30 2.471057
314.40 2.469995
314.50 2.468934
314.60 2.467874
314.70 2.466815
314.80 2.465743
314.90 2.464648
315.00 2.463566
315.10 2.46236
315.20 2.461155
315.30 2.45995
315.40 2.458747
315.50 2.457545
315.60 2.456344
315.70 2.455144
315.80 2.453945
315.90 2.452747
316.00 2.45155
316.10 2.450176
316.20 2.448804
316.30 2.447433
316.40 2.446063
316.50 2.444518
316.60 2.442974
316.70 2.441255
316.80 2.439537
316.90 2.438086
317.00 2.436636
317.10 2.435188
317.20 2.433741
317.30 2.432207
317.40 2.430438
317.50 2.427999
317.60 2.425563
317.70 2.423129
317.80 2.420698
317.90 2.416636
318.00 2.410748
318.10 2.400209
318.20 2.389683
318.30 2.37917
318.40 2.362645
318.50 2.329004
318.60 2.289002
318.70 2.222895
318.80 2.183996
318.90 2.234699
319.00 2.285031
319.10 2.32086
319.20 2.350312
319.30 2.361721
319.40 2.373116
319.50 2.384495
319.60 2.392104
319.70 2.394554
319.80 2.397001
319.90 2.399444
320.00 2.40099
320.10 2.401567
320.20 2.401957
320.30 2.402205
320.40 2.401949
320.50 2.401727
320.60 2.401174
320.70 2.400712
320.80 2.400166
320.90 2.399531
321.00 2.398897
321.10 2.398262
321.20 2.397386
321.30 2.396548
321.40 2.39571
321.50 2.394873
321.60 2.394036
321.70 2.3932
321.80 2.392274
321.90 2.39125
322.00 2.390373
322.10 2.389399
322.20 2.388425
322.30 2.387453
322.40 2.386481
322.50 2.38551
322.60 2.38454
322.70 2.383571
322.80 2.382816
322.90 2.381794
323.00 2.380772
323.10 2.379751
323.20 2.378731
323.30 2.377711
323.40 2.376693
323.50 2.375675
323.60 2.374658
323.70 2.373642
323.80 2.372627
323.90 2.371612
324.00 2.3706
324.10 2.369588
324.20 2.368578
324.30 2.367563
324.40 2.366547
324.50 2.365542
324.60 2.364538
324.70 2.363536
324.80 2.362534
324.90 2.361532
325.00 2.360532
325.10 2.359532
325.20 2.358501
325.30 2.357401
325.40 2.356302
325.50 2.355237
325.60 2.354212
325.70 2.353187
325.80 2.352164
325.90 2.351167
326.00 2.350199
326.10 2.349232
326.20 2.348266
326.30 2.347246
326.40 2.346072
326.50 2.345047
326.60 2.344023
326.70 2.343
326.80 2.341978
326.90 2.340957
327.00 2.339937
327.10 2.338917
327.20 2.337898
327.30 2.33688
327.40 2.335863
327.50 2.334846
327.60 2.333831
327.70 2.332816
327.80 2.331802
327.90 2.330746
328.00 2.329661
328.10 2.328596
328.20 2.327532
328.30 2.326469
328.40 2.325406
328.50 2.324358
328.60 2.323313
328.70 2.32227
328.80 2.321232
328.90 2.320209
329.00 2.319187
329.10 2.318166
329.20 2.317146
329.30 2.316126
329.40 2.315108
329.50 2.31409
329.60 2.313073
329.70 2.312057
329.80 2.311041
329.90 2.310027
330.00 2.308987
330.10 2.307916
330.20 2.306846
330.30 2.305777
330.40 2.304735
330.50 2.303723
330.60 2.302712
330.70 2.301702
330.80 2.300692
330.90 2.299684
331.00 2.298676
331.10 2.297669
331.20 2.296662
331.30 2.295657
331.40 2.294652
331.50 2.293594
331.60 2.29247
331.70 2.291346
331.80 2.290319
331.90 2.289297
332.00 2.288275
332.10 2.287254
332.20 2.286234
332.30 2.285215
332.40 2.284196
332.50 2.283179
332.60 2.282162
332.70 2.281146
332.80 2.28013
332.90 2.279116
333.00 2.278102
333.10 2.277074
333.20 2.276027
333.30 2.27498
333.40 2.273935
333.50 2.27289
333.60 2.271846
333.70 2.270803
333.80 2.269761
333.90 2.26872
334.00 2.267679
334.10 2.26664
334.20 2.265601
334.30 2.264563
334.40 2.263526
334.50 2.26249
334.60 2.261454
334.70 2.260414
334.80 2.259342
334.90 2.258235
335.00 2.257128
335.10 2.256289
335.20 2.255259
335.30 2.254087
335.40 2.253059
335.50 2.252031
335.60 2.251004
335.70 2.250119
335.80 2.249093
335.90 2.248104
336.00 2.247159
336.10 2.246214
336.20 2.24527
336.30 2.244292
336.40 2.243271
336.50 2.242251
336.60 2.241232
336.70 2.240214
336.80 2.239196
336.90 2.238178
337.00 2.237159
337.10 2.236141
337.20 2.235124
337.30 2.234109
337.40 2.233099
337.50 2.232089
337.60 2.23108
337.70 2.230072
337.80 2.229064
337.90 2.228053
338.00 2.227035
338.10 2.226019
338.20 2.225003
338.30 2.223988
338.40 2.222967
338.50 2.221933
338.60 2.220899
338.70 2.219867
338.80 2.218835
338.90 2.217804
339.00 2.216773
339.10 2.215744
339.20 2.214715
339.30 2.213703
339.40 2.212712
339.50 2.211709
339.60 2.21069
339.70 2.209671
339.80 2.208653
339.90 2.207636
340.00 2.20662
340.10 2.205605
340.20 2.20459
340.30 2.203577
340.40 2.202564
340.50 2.201552
340.60 2.20054
340.70 2.19953
340.80 2.198533
340.90 2.197554
341.00 2.196557
341.10 2.195536
341.20 2.194516
341.30 2.193496
341.40 2.192478
341.50 2.19146
341.60 2.190443
341.70 2.189427
341.80 2.188388
341.90 2.187322
342.00 2.186257
342.10 2.185193
342.20 2.184239
342.30 2.183288
342.40 2.182225
342.50 2.181153
342.60 2.180083
342.70 2.179014
342.80 2.177945
342.90 2.176877
343.00 2.17582
343.10 2.174776
343.20 2.173732
343.30 2.172689
343.40 2.171617
343.50 2.170503
343.60 2.16939
343.70 2.168278
343.80 2.167167
343.90 2.166057
344.00 2.164886
344.10 2.163628
344.20 2.162371
344.30 2.161115
344.40 2.15986
344.50 2.158606
344.60 2.157354
344.70 2.156102
344.80 2.155157
344.90 2.154497
345.00 2.15379
345.10 2.153137
345.20 2.152406
345.30 2.151561
345.40 2.150717
345.50 2.14995
345.60 2.149185
345.70 2.148288
345.80 2.147392
345.90 2.146496
346.00 2.145601
346.10 2.144707
346.20 2.143781
346.30 2.142809
346.40 2.141838
346.50 2.140868
346.60 2.139898
346.70 2.138929
346.80 2.137961
346.90 2.136994
347.00 2.136028
347.10 2.135062
347.20 2.134079
347.30 2.133071
347.40 2.132064
347.50 2.131057
347.60 2.130052
347.70 2.129047
347.80 2.128043
347.90 2.127039
348.00 2.126037
348.10 2.125035
348.20 2.124035
348.30 2.123035
348.40 2.122035
348.50 2.121037
348.60 2.120039
348.70 2.119204
348.80 2.118332
348.90 2.117331
349.00 2.116332
349.10 2.115333
349.20 2.114335
349.30 2.113337
349.40 2.112341
349.50 2.111345
349.60 2.11035
349.70 2.109356
349.80 2.108363
349.90 2.10737
350.00 2.106378
350.10 2.105387
350.20 2.104397
350.30 2.103407
350.40 2.102415
350.50 2.101425
350.60 2.100435
350.70 2.099446
350.80 2.098458
350.90 2.09747
351.00 2.096484
351.10 2.095498
351.20 2.094513
351.30 2.093529
351.40 2.09254
351.50 2.091542
351.60 2.090544
351.70 2.089548
351.80 2.088552
351.90 2.087557
352.00 2.086563
352.10 2.08557
352.20 2.084577
352.30 2.083588
352.40 2.082602
352.50 2.081617
352.60 2.080633
352.70 2.07965
352.80 2.078668
352.90 2.077686
353.00 2.076705
353.10 2.075725
353.20 2.074746
353.30 2.073767
353.40 2.072789
353.50 2.071809
353.60 2.070829
353.70 2.06985
353.80 2.068871
353.90 2.067882
354.00 2.066871
354.10 2.065862
354.20 2.064854
354.30 2.063846
354.40 2.062839
354.50 2.061833
354.60 2.060828
354.70 2.059824
354.80 2.058834
354.90 2.057866
355.00 2.056898
355.10 2.055931
355.20 2.054965
355.30 2.054003
355.40 2.053043
355.50 2.052084
355.60 2.051125
355.70 2.050115
355.80 2.049083
355.90 2.048009
356.00 2.046998
356.10 2.046022
356.20 2.045048
356.30 2.044074
356.40 2.043101
356.50 2.042129
356.60 2.041158
356.70 2.040187
356.80 2.039217
356.90 2.038248
357.00 2.03728
357.10 2.036312
357.20 2.035346
357.30 2.03438
357.40 2.033412
357.50 2.032439
357.60 2.031468
357.70 2.030497
357.80 2.029488
357.90 2.02848
358.00 2.027457
358.10 2.026431
358.20 2.025405
358.30 2.024381
358.40 2.023357
358.50 2.022334
358.60 2.021312
358.70 2.020291
358.80 2.01927
358.90 2.018251
359.00 2.017238
359.10 2.016238
359.20 2.015238
359.30 2.014235
359.40 2.013232
359.50 2.012135
359.60 2.011016
359.70 2.009898
359.80 2.008781
359.90 2.007665
360.00 2.006458
360.10 2.005089
360.20 2.003722
360.30 2.002355
360.40 2.00099
360.50 1.999626
360.60 1.997947
360.70 1.996022
360.80 1.994099
360.90 1.992177
361.00 1.990026
361.10 1.987727
361.20 1.985358
361.30 1.983607
361.40 1.982862
361.50 1.983746
361.60 1.984168
361.70 1.984426
361.80 1.984539
361.90 1.984394
362.00 1.984249
362.10 1.983944
362.20 1.983522
362.30 1.98296
362.40 1.982399
362.50 1.981838
362.60 1.981277
362.70 1.980441
362.80 1.979738
362.90 1.978915
363.00 1.978093
363.10 1.977128
363.20 1.976162
363.30 1.975367
363.40 1.974347
363.50 1.973731
363.60 1.972913
363.70 1.971978
363.80 1.971013
363.90 1.970121
364.00 1.96923
364.10 1.968339
364.20 1.967449
364.30 1.966526
364.40 1.965595
364.50 1.964786
364.60 1.963885
364.70 1.962986
364.80 1.962087
364.90 1.961145
365.00 1.960203
365.10 1.95913
365.20 1.958323
365.30 1.957251
365.40 1.956445
365.50 1.955507
365.60 1.95457
365.70 1.953622
365.80 1.952675
365.90 1.951749
366.00 1.95083
366.10 1.949894
366.20 1.948959
366.30 1.948025
366.40 1.947092
366.50 1.9463
366.60 1.945241
366.70 1.94428
366.80 1.94332
366.90 1.942376
367.00 1.941459
367.10 1.940544
367.20 1.939629
367.30 1.938715
367.40 1.937801
367.50 1.936892
367.60 1.935984
367.70 1.935
367.80 1.934017
367.90 1.933035
368.00 1.932039
368.10 1.93099
368.20 1.930009
368.30 1.929029
368.40 1.928051
368.50 1.927073
368.60 1.926096
368.70 1.92512
368.80 1.924144
368.90 1.923312
369.00 1.922363
369.10 1.921321
369.20 1.920281
369.30 1.919241
369.40 1.918202
369.50 1.917164
369.60 1.915997
369.70 1.914832
369.80 1.913726
369.90 1.912621
370.00 1.911517
370.10 1.910435
370.20 1.909275
370.30 1.908115
370.40 1.906702
370.50 1.905531
370.60 1.905148
370.70 1.904514
370.80 1.903871
370.90 1.90323
371.00 1.902592
371.10 1.901955
371.20 1.901186
371.30 1.900418
371.40 1.899741
371.50 1.898958
371.60 1.898175
371.70 1.897393
371.80 1.896611
371.90 1.89583
372.00 1.894886
372.10 1.894051
372.20 1.893204
372.30 1.892357
372.40 1.891512
372.50 1.890667
372.60 1.889822
372.70 1.888978
372.80 1.888219
372.90 1.88746
373.00 1.886578
373.10 1.885694
373.20 1.884684
373.30 1.883674
373.40 1.88292
373.50 1.882039
373.60 1.881159
373.70 1.880406
373.80 1.879455
373.90 1.878648
374.00 1.877771
374.10 1.876893
374.20 1.876017
374.30 1.875141
374.40 1.874298
374.50 1.873392
374.60 1.872517
374.70 1.871644
374.80 1.870772
374.90 1.869901
375.00 1.868988
375.10 1.868075
375.20 1.867164
375.30 1.866277
375.40 1.86539
375.50 1.864505
375.60 1.86362
375.70 1.862736
375.80 1.861852
375.90 1.860969
376.00 1.860228
376.10 1.859295
376.20 1.858361
376.30 1.857428
376.40 1.856496
376.50 1.855577
376.60 1.854678
376.70 1.85378
376.80 1.852897
376.90 1.85203
377.00 1.851164
377.10 1.850299
377.20 1.849426
377.30 1.848523
377.40 1.847621
377.50 1.84672
377.60 1.845742
377.70 1.844765
377.80 1.843789
377.90 1.842813
378.00 1.841838
378.10 1.840892
378.20 1.839948
378.30 1.839004
378.40 1.83806
378.50 1.837118
378.60 1.836176
378.70 1.835235
378.80 1.834295
378.90 1.833281
379.00 1.832131
379.10 1.831165
379.20 1.830199
379.30 1.829155
379.40 1.828032
379.50 1.82691
379.60 1.825769
379.70 1.824575
379.80 1.823286
379.90 1.821997
380.00 1.82071
380.10 1.819423
380.20 1.818138
380.30 1.816854
380.40 1.815571
380.50 1.814289
380.60 1.812509
380.70 1.810723
380.80 1.808939
380.90 1.807156
381.00 1.805375
381.10 1.803512
381.20 1.801474
381.30 1.799136
381.40 1.796633
381.50 1.794067
381.60 1.791498
381.70 1.788889
381.80 1.786141
381.90 1.783504
382.00 1.78257
382.10 1.784187
382.20 1.785414
382.30 1.786542
382.40 1.787507
382.50 1.788227
382.60 1.788945
382.70 1.789473
382.80 1.789613
382.90 1.789581
383.00 1.789548
383.10 1.789515
383.20 1.789404
383.30 1.789004
383.40 1.788666
383.50 1.788423
383.60 1.788004
383.70 1.787421
383.80 1.786838
383.90 1.786256
384.00 1.785675
384.10 1.785093
384.20 1.784512
384.30 1.783932
384.40 1.783289
384.50 1.782585
384.60 1.781882
384.70 1.781179
384.80 1.780488
384.90 1.77978
385.00 1.778959
385.10 1.778135
385.20 1.777269
385.30 1.776468
385.40 1.775579
385.50 1.774602
385.60 1.773626
385.70 1.772651
385.80 1.771689
385.90 1.770771
386.00 1.769769
386.10 1.768674
386.20 1.767483
386.30 1.766292
386.40 1.765183
386.50 1.763895
386.60 1.762407
386.70 1.760902
386.80 1.759696
386.90 1.758549
387.00 1.757404
387.10 1.756254
387.20 1.754944
387.30 1.753495
387.40 1.751939
387.50 1.750195
387.60 1.747969
387.70 1.744885
387.80 1.741804
387.90 1.738726
388.00 1.735246
388.10 1.729768
388.20 1.720259
388.30 1.707727
388.40 1.695207
388.50 1.677035
388.60 1.645543
388.70 1.597603
388.80 1.530971
388.90 1.508937
389.00 1.569076
389.10 1.62064
389.20 1.655806
389.30 1.679457
389.40 1.694184
389.50 1.706041
389.60 1.713146
389.70 1.717285
389.80 1.719142
389.90 1.720997
390.00 1.72285
390.10 1.724701
390.20 1.72655
390.30 1.727532
390.40 1.727536
390.50 1.72754
390.60 1.727544
390.70 1.727548
390.80 1.72737
390.90 1.727011
391.00 1.726593
391.10 1.726047
391.20 1.725497
391.30 1.72489
391.40 1.72424
391.50 1.723591
391.60 1.722942
391.70 1.722293
391.80 1.721645
391.90 1.720889
392.00 1.720091
392.10 1.719414
392.20 1.718719
392.30 1.717921
392.40 1.717197
392.50 1.716322
392.60 1.715448
392.70 1.714805
392.80 1.713932
392.90 1.713102
393.00 1.712352
393.10 1.711546
393.20 1.710676
393.30 1.709806
393.40 1.708937
393.50 1.708068
393.60 1.7072
393.70 1.706333
393.80 1.705467
393.90 1.704601
394.00 1.703736
394.10 1.702871
394.20 1.702007
394.30 1.701045
394.40 1.700054
394.50 1.699192
394.60 1.698204
394.70 1.697177
394.80 1.696004
394.90 1.694835
395.00 1.693724
395.10 1.692513
395.20 1.691115
395.30 1.689669
395.40 1.688223
395.50 1.686335
395.60 1.684286
395.70 1.681907
395.80 1.678637
395.90 1.675371
396.00 1.671977
396.10 1.666791
396.20 1.660303
396.30 1.65382
396.40 1.647954
396.50 1.647895
396.60 1.65403
396.70 1.659739
396.80 1.663457
396.90 1.66619
397.00 1.66796
397.10 1.668994
397.20 1.669903
397.30 1.670125
397.40 1.669991
397.50 1.669857
397.60 1.669702
397.70 1.669339
397.80 1.668977
397.90 1.66855
398.00 1.667952
398.10 1.667354
398.20 1.666686
398.30 1.665941
398.40 1.665194
398.50 1.664358
398.60 1.663523
398.70 1.662689
398.80 1.661855
398.90 1.660964
399.00 1.659967
399.10 1.659117
399.20 1.658081
399.30 1.657047
399.40 1.656013
399.50 1.654981
399.60 1.653856
399.70 1.652698
399.80 1.651541
399.90 1.650385
400.00 1.649224
400.10 1.647889
400.20 1.646617
400.30 1.645172
400.40 1.643739
400.50 1.64225
400.60 1.640484
400.70 1.638671
400.80 1.63678
400.90 1.634825
401.00 1.632605
401.10 1.630294
401.20 1.627652
401.30 1.624816
401.40 1.621428
401.50 1.61785
401.60 1.614243
401.70 1.609551
401.80 1.604425
401.90 1.598254
402.00 1.591853
402.10 1.58403
402.20 1.575562
402.30 1.5662
402.40 1.556543
402.50 1.547178
402.60 1.539065
402.70 1.54433
402.80 1.55296
402.90 1.561757
403.00 1.570479
403.10 1.578363
403.20 1.584741
403.30 1.589992
403.40 1.594596
403.50 1.597994
403.60 1.601063
403.70 1.603264
403.80 1.605139
403.90 1.60632
404.00 1.607341
404.10 1.607909
404.20 1.608198
404.30 1.608488
404.40 1.608461
404.50 1.608306
404.60 1.608161
404.70 1.607908
404.80 1.607781
404.90 1.607617
405.00 1.607379
405.10 1.607111
405.20 1.606857
405.30 1.606604
405.40 1.606171
405.50 1.605738
405.60 1.605306
405.70 1.604874
405.80 1.604442
405.90 1.60401
406.00 1.60348
406.10 1.60295
406.20 1.60242
406.30 1.601891
406.40 1.601354
406.50 1.60062
406.60 1.599993
406.70 1.59934
406.80 1.598722
406.90 1.598066
407.00 1.597366
407.10 1.596667
407.20 1.595968
407.30 1.59527
407.40 1.594573
407.50 1.593876
407.60 1.593179
407.70 1.592483
407.80 1.591787
407.90 1.59109
408.00 1.59031
408.10 1.58953
408.20 1.588807
408.30 1.588098
408.40 1.58739
408.50 1.586632
408.60 1.585855
408.70 1.585079
408.80 1.584304
408.90 1.583529
409.00 1.582755
409.10 1.581981
409.20 1.581208
409.30 1.580435
409.40 1.579663
409.50 1.578892
409.60 1.578121
409.70 1.577351
409.80 1.576581
409.90 1.575812
410.00 1.575043
410.10 1.5741
410.20 1.573231
410.30 1.572382
410.40 1.571537
410.50 1.570702
410.60 1.569868
410.70 1.569014
410.80 1.56808
410.90 1.567147
411.00 1.566122
411.10 1.565063
411.20 1.564004
411.30 1.562935
411.40 1.561803
411.50 1.56023
411.60 1.558659
411.70 1.557
411.80 1.55499
411.90 1.552918
412.00 1.550598
412.10 1.548906
412.20 1.548258
412.30 1.548312
412.40 1.548463
412.50 1.548895
412.60 1.549037
412.70 1.548983
412.80 1.54888
412.90 1.548645
413.00 1.548324
413.10 1.547699
413.20 1.547073
413.30 1.546448
413.40 1.545824
413.50 1.545175
413.60 1.544403
413.70 1.543553
413.80 1.542703
413.90 1.541854
414.00 1.540981
414.10 1.54003
414.20 1.539006
414.30 1.537953
414.40 1.537025
414.50 1.536506
414.60 1.536029
414.70 1.535598
414.80 1.535142
414.90 1.534608
415.00 1.534074
415.10 1.533541
415.20 1.533005
415.30 1.532459
415.40 1.531913
415.50 1.531367
415.60 1.530777
415.70 1.530188
415.80 1.52958
415.90 1.528912
416.00 1.528244
416.10 1.527573
416.20 1.526888
416.30 1.526204
416.40 1.52552
416.50 1.524835
416.60 1.524103
416.70 1.523372
416.80 1.522437
416.90 1.521706
417.00 1.520977
417.10 1.520451
417.20 1.519722
417.30 1.518994
417.40 1.518266
417.50 1.517539
417.60 1.516813
417.70 1.516086
417.80 1.515361
417.90 1.514636
418.00 1.513911
418.10 1.513187
418.20 1.512463
418.30 1.51174
418.40 1.511018
418.50 1.510296
418.60 1.509574
418.70 1.508853
418.80 1.508133
418.90 1.507413
419.00 1.506693
419.10 1.505974
419.20 1.505256
419.30 1.504536
419.40 1.503747
419.50 1.502959
419.60 1.502186
419.70 1.50147
419.80 1.500755
419.90 1.500031
420.00 1.499277
420.10 1.498524
420.20 1.497772
420.30 1.49702
420.40 1.496268
420.50 1.495517
420.60 1.494767
420.70 1.494017
420.80 1.493268
420.90 1.492521
421.00 1.491812
421.10 1.491103
421.20 1.490381
421.30 1.489617
421.40 1.488853
421.50 1.488089
421.60 1.487327
421.70 1.486565
421.80 1.485803
421.90 1.485055
422.00 1.484352
422.10 1.483636
422.20 1.48287
422.30 1.482105
422.40 1.481342
422.50 1.480601
422.60 1.47986
422.70 1.47912
422.80 1.47838
422.90 1.477641
423.00 1.476902
423.10 1.476164
423.20 1.475426
423.30 1.474689
423.40 1.473953
423.50 1.473217
423.60 1.472482
423.70 1.471747
423.80 1.471012
423.90 1.470278
424.00 1.469545
424.10 1.468812
424.20 1.46808
424.30 1.467348
424.40 1.466625
424.50 1.465895
424.60 1.465165
424.70 1.464435
424.80 1.463706
424.90 1.462977
425.00 1.462249
425.10 1.461522
