# Version 2.1 - nm, norm@500 to 1, cut digits, bergeron_He_11000_80.dat_11000
# Wavelength(nm)  Flambda(ergs/cm^s/s/nm)
300.00 2.313538
300.10 2.313036
300.20 2.312549
300.30 2.312042
300.40 2.311405
300.50 2.310768
300.60 2.310132
300.70 2.309496
300.80 2.30886
300.90 2.308225
301.00 2.30759
301.10 2.306955
301.20 2.306321
301.30 2.305687
301.40 2.305053
301.50 2.30442
301.60 2.303787
301.70 2.303154
301.80 2.302522
301.90 2.30189
302.00 2.301258
302.10 2.300601
302.20 2.299941
302.30 2.299281
302.40 2.298622
302.50 2.297963
302.60 2.297304
302.70 2.296646
302.80 2.295988
302.90 2.295331
303.00 2.294674
303.10 2.294017
303.20 2.293361
303.30 2.292705
303.40 2.292053
303.50 2.291401
303.60 2.290749
303.70 2.290098
303.80 2.289447
303.90 2.288796
304.00 2.288146
304.10 2.287496
304.20 2.286846
304.30 2.286197
304.40 2.285548
304.50 2.284899
304.60 2.284235
304.70 2.283569
304.80 2.282903
304.90 2.282238
305.00 2.281574
305.10 2.280909
305.20 2.280245
305.30 2.279582
305.40 2.278918
305.50 2.278256
305.60 2.277593
305.70 2.276931
305.80 2.276269
305.90 2.275608
306.00 2.274947
306.10 2.274287
306.20 2.273626
306.30 2.272967
306.40 2.272289
306.50 2.271606
306.60 2.270923
306.70 2.270241
306.80 2.269559
306.90 2.268878
307.00 2.268197
307.10 2.267516
307.20 2.266836
307.30 2.266156
307.40 2.265477
307.50 2.264798
307.60 2.264119
307.70 2.263441
307.80 2.262763
307.90 2.262086
308.00 2.261409
308.10 2.260732
308.20 2.260056
308.30 2.259381
308.40 2.258705
308.50 2.25803
308.60 2.257356
308.70 2.256682
308.80 2.255993
308.90 2.255261
309.00 2.254557
309.10 2.253854
309.20 2.253151
309.30 2.252448
309.40 2.251747
309.50 2.25105
309.60 2.250353
309.70 2.249657
309.80 2.248961
309.90 2.248266
310.00 2.247571
310.10 2.246877
310.20 2.246183
310.30 2.245489
310.40 2.244793
310.50 2.244094
310.60 2.243395
310.70 2.242697
310.80 2.241999
310.90 2.241302
311.00 2.240588
311.10 2.239874
311.20 2.239161
311.30 2.238454
311.40 2.237765
311.50 2.237076
311.60 2.236388
311.70 2.2357
311.80 2.235013
311.90 2.234326
312.00 2.233639
312.10 2.232953
312.20 2.232343
312.30 2.231737
312.40 2.231057
312.50 2.230223
312.60 2.22952
312.70 2.228817
312.80 2.228115
312.90 2.227423
313.00 2.226742
313.10 2.226061
313.20 2.225381
313.30 2.224685
313.40 2.223941
313.50 2.223198
313.60 2.222456
313.70 2.221714
313.80 2.220973
313.90 2.220232
314.00 2.219491
314.10 2.218767
314.20 2.218043
314.30 2.21732
314.40 2.216597
314.50 2.215875
314.60 2.215153
314.70 2.214431
314.80 2.21368
314.90 2.212855
315.00 2.212047
315.10 2.211306
315.20 2.210564
315.30 2.209824
315.40 2.209084
315.50 2.208344
315.60 2.207605
315.70 2.206756
315.80 2.205908
315.90 2.205061
316.00 2.204214
316.10 2.203477
316.20 2.202741
316.30 2.201787
316.40 2.201052
316.50 2.200099
316.60 2.199365
316.70 2.198414
316.80 2.197463
316.90 2.196403
317.00 2.195345
317.10 2.194287
317.20 2.193231
317.30 2.192099
317.40 2.190876
317.50 2.189394
317.60 2.187914
317.70 2.186435
317.80 2.184957
317.90 2.182727
318.00 2.179659
318.10 2.175148
318.20 2.170643
318.30 2.166143
318.40 2.160665
318.50 2.152396
318.60 2.143687
318.70 2.135265
318.80 2.131597
318.90 2.135519
319.00 2.142307
319.10 2.149358
319.20 2.155461
319.30 2.158888
319.40 2.16231
319.50 2.165727
319.60 2.16827
319.70 2.169069
319.80 2.169867
319.90 2.170663
320.00 2.171042
320.10 2.170969
320.20 2.17109
320.30 2.170933
320.40 2.17056
320.50 2.170357
320.60 2.169643
320.70 2.169356
320.80 2.168915
320.90 2.168308
321.00 2.167702
321.10 2.167096
321.20 2.16673
321.30 2.166042
321.40 2.165355
321.50 2.164669
321.60 2.163983
321.70 2.163297
321.80 2.162707
321.90 2.162221
322.00 2.161234
322.10 2.160575
322.20 2.159917
322.30 2.159259
322.40 2.158601
322.50 2.157944
322.60 2.157287
322.70 2.156631
322.80 2.155814
322.90 2.155113
323.00 2.154414
323.10 2.153714
323.20 2.153015
323.30 2.152316
323.40 2.151618
323.50 2.15092
323.60 2.150223
323.70 2.149526
323.80 2.14883
323.90 2.148134
324.00 2.147366
324.10 2.146599
324.20 2.145833
324.30 2.145061
324.40 2.14431
324.50 2.143601
324.60 2.142892
324.70 2.142184
324.80 2.141476
324.90 2.140768
325.00 2.140061
325.10 2.139355
325.20 2.138638
325.30 2.137901
325.40 2.137164
325.50 2.136403
325.60 2.135611
325.70 2.13482
325.80 2.13403
325.90 2.133273
326.00 2.13255
326.10 2.131829
326.20 2.131107
326.30 2.130404
326.40 2.129752
326.50 2.129014
326.60 2.128276
326.70 2.127539
326.80 2.126803
326.90 2.126067
327.00 2.125331
327.10 2.124596
327.20 2.123861
327.30 2.123127
327.40 2.122394
327.50 2.121661
327.60 2.120928
327.70 2.120196
327.80 2.119465
327.90 2.118654
328.00 2.117817
328.10 2.117053
328.20 2.116289
328.30 2.115526
328.40 2.114763
328.50 2.114039
328.60 2.113324
328.70 2.11261
328.80 2.11189
328.90 2.111155
329.00 2.11042
329.10 2.109686
329.20 2.108953
329.30 2.108219
329.40 2.107487
329.50 2.106755
329.60 2.106023
329.70 2.105292
329.80 2.104561
329.90 2.103831
330.00 2.103084
330.10 2.102317
330.20 2.10155
330.30 2.100784
330.40 2.10002
330.50 2.099258
330.60 2.098498
330.70 2.097737
330.80 2.096978
330.90 2.096219
331.00 2.09546
331.10 2.094702
331.20 2.093944
331.30 2.093187
331.40 2.092431
331.50 2.091663
331.60 2.090882
331.70 2.090101
331.80 2.089342
331.90 2.088584
332.00 2.087826
332.10 2.087069
332.20 2.086312
332.30 2.085556
332.40 2.084801
332.50 2.084046
332.60 2.083291
332.70 2.082537
332.80 2.081784
332.90 2.081031
333.00 2.080279
333.10 2.079534
333.20 2.078799
333.30 2.078065
333.40 2.077331
333.50 2.076598
333.60 2.075865
333.70 2.075133
333.80 2.074401
333.90 2.07367
334.00 2.072939
334.10 2.072185
334.20 2.071403
334.30 2.070621
334.40 2.069841
334.50 2.06906
334.60 2.06828
334.70 2.067465
334.80 2.066697
334.90 2.066059
335.00 2.065422
335.10 2.06449
335.20 2.063649
335.30 2.063022
335.40 2.062182
335.50 2.061391
335.60 2.060746
335.70 2.059927
335.80 2.059283
335.90 2.058596
336.00 2.057856
336.10 2.057117
336.20 2.056378
336.30 2.055625
336.40 2.054855
336.50 2.054086
336.60 2.053317
336.70 2.052548
336.80 2.05178
336.90 2.050982
337.00 2.050147
337.10 2.049313
337.20 2.048479
337.30 2.047675
337.40 2.046914
337.50 2.046153
337.60 2.045393
337.70 2.044633
337.80 2.043874
337.90 2.043146
338.00 2.042458
338.10 2.04177
338.20 2.041083
338.30 2.040396
338.40 2.039684
338.50 2.038909
338.60 2.038136
338.70 2.037363
338.80 2.03659
338.90 2.035818
339.00 2.035047
339.10 2.034276
339.20 2.033506
339.30 2.032719
339.40 2.03191
339.50 2.031123
339.60 2.030365
339.70 2.029606
339.80 2.028848
339.90 2.028091
340.00 2.027334
340.10 2.026578
340.20 2.025823
340.30 2.025068
340.40 2.024313
340.50 2.023559
340.60 2.022806
340.70 2.022053
340.80 2.02128
340.90 2.020479
341.00 2.019697
341.10 2.018937
341.20 2.018177
341.30 2.017418
341.40 2.016659
341.50 2.015901
341.60 2.015143
341.70 2.014386
341.80 2.013639
341.90 2.012902
342.00 2.012166
342.10 2.01143
342.20 2.010607
342.30 2.009648
342.40 2.008813
342.50 2.008079
342.60 2.007345
342.70 2.006612
342.80 2.00588
342.90 2.005148
343.00 2.004385
343.10 2.003586
343.20 2.002787
343.30 2.001988
343.40 2.001192
343.50 2.000398
343.60 1.999605
343.70 1.998813
343.80 1.998021
343.90 1.99723
344.00 1.996439
344.10 1.995649
344.20 1.99486
344.30 1.994071
344.40 1.993283
344.50 1.992495
344.60 1.991925
344.70 1.991139
344.80 1.990362
344.90 1.989567
345.00 1.988933
345.10 1.988148
345.20 1.987367
345.30 1.986588
345.40 1.98581
345.50 1.985025
345.60 1.98426
345.70 1.98354
345.80 1.98282
345.90 1.982101
346.00 1.981383
346.10 1.980665
346.20 1.979923
346.30 1.979145
346.40 1.978367
346.50 1.977591
346.60 1.976815
346.70 1.976039
346.80 1.975264
346.90 1.97449
347.00 1.973716
347.10 1.972942
347.20 1.972173
347.30 1.97141
347.40 1.970647
347.50 1.969884
347.60 1.969122
347.70 1.968361
347.80 1.9676
347.90 1.96684
348.00 1.966081
348.10 1.965321
348.20 1.964563
348.30 1.963805
348.40 1.963047
348.50 1.96229
348.60 1.961534
348.70 1.960904
348.80 1.960232
348.90 1.959445
349.00 1.958658
349.10 1.957872
349.20 1.957086
349.30 1.956301
349.40 1.955516
349.50 1.954732
349.60 1.953949
349.70 1.953166
349.80 1.952384
349.90 1.951602
350.00 1.950821
350.10 1.95004
350.20 1.94926
350.30 1.94849
350.40 1.947733
350.50 1.946977
350.60 1.946222
350.70 1.945467
350.80 1.944712
350.90 1.943958
351.00 1.943205
351.10 1.942452
351.20 1.9417
351.30 1.940948
351.40 1.940189
351.50 1.939419
351.60 1.938648
351.70 1.937878
351.80 1.937109
351.90 1.93634
352.00 1.935572
352.10 1.934805
352.20 1.933953
352.30 1.933132
352.40 1.932369
352.50 1.931607
352.60 1.930846
352.70 1.930085
352.80 1.929325
352.90 1.928565
353.00 1.927806
353.10 1.927047
353.20 1.926289
353.30 1.925531
353.40 1.924774
353.50 1.924004
353.60 1.923232
353.70 1.92246
353.80 1.921689
353.90 1.920918
354.00 1.920145
354.10 1.919373
354.20 1.918602
354.30 1.917831
354.40 1.917061
354.50 1.916291
354.60 1.915522
354.70 1.914754
354.80 1.913987
354.90 1.913225
355.00 1.912462
355.10 1.911701
355.20 1.910939
355.30 1.910186
355.40 1.909433
355.50 1.908681
355.60 1.907929
355.70 1.907162
355.80 1.906387
355.90 1.905728
356.00 1.905011
356.10 1.904229
356.20 1.903447
356.30 1.902665
356.40 1.901885
356.50 1.901104
356.60 1.900325
356.70 1.899545
356.80 1.898767
356.90 1.897989
357.00 1.897212
357.10 1.896435
357.20 1.895659
357.30 1.894883
357.40 1.894116
357.50 1.893362
357.60 1.892609
357.70 1.891857
357.80 1.891111
357.90 1.890366
358.00 1.889581
358.10 1.888788
358.20 1.887995
358.30 1.887203
358.40 1.886412
358.50 1.885621
358.60 1.884831
358.70 1.884041
358.80 1.883252
358.90 1.882463
359.00 1.881691
359.10 1.880948
359.20 1.880204
359.30 1.879449
359.40 1.878694
359.50 1.877901
359.60 1.877099
359.70 1.876297
359.80 1.875511
359.90 1.874725
360.00 1.873916
360.10 1.873064
360.20 1.872213
360.30 1.871362
360.40 1.870513
360.50 1.869663
360.60 1.868689
360.70 1.867822
360.80 1.866955
360.90 1.866089
361.00 1.865162
361.10 1.86413
361.20 1.863433
361.30 1.862402
361.40 1.86169
361.50 1.861013
361.60 1.860439
361.70 1.859746
361.80 1.85912
361.90 1.858616
362.00 1.858112
362.10 1.857376
362.20 1.856631
362.30 1.855972
362.40 1.855314
362.50 1.854656
362.60 1.853999
362.70 1.853235
362.80 1.852694
362.90 1.852005
363.00 1.851315
363.10 1.850599
363.20 1.849884
363.30 1.848926
363.40 1.848324
363.50 1.847556
363.60 1.846871
363.70 1.84604
363.80 1.845172
363.90 1.844473
364.00 1.843775
364.10 1.843077
364.20 1.84238
364.30 1.841578
364.40 1.840751
364.50 1.840073
364.60 1.839283
364.70 1.838494
364.80 1.837705
364.90 1.837027
365.00 1.836349
365.10 1.835508
365.20 1.834831
365.30 1.833991
365.40 1.833316
365.50 1.832477
365.60 1.831638
365.70 1.830935
365.80 1.830232
365.90 1.829436
366.00 1.828619
366.10 1.827941
366.20 1.827264
366.30 1.826588
366.40 1.825912
366.50 1.824938
366.60 1.824268
366.70 1.82352
366.80 1.822773
366.90 1.822022
367.00 1.821263
367.10 1.820505
367.20 1.819747
367.30 1.81899
367.40 1.818234
367.50 1.817435
367.60 1.816627
367.70 1.815895
367.80 1.815163
367.90 1.814432
368.00 1.813651
368.10 1.812985
368.20 1.812214
368.30 1.811442
368.40 1.81067
368.50 1.809899
368.60 1.809129
368.70 1.808359
368.80 1.807589
368.90 1.806745
369.00 1.80605
369.10 1.805427
369.20 1.804453
369.30 1.803797
369.40 1.803142
369.50 1.802487
369.60 1.801671
369.70 1.800856
369.80 1.800055
369.90 1.799255
370.00 1.798456
370.10 1.797916
370.20 1.797114
370.30 1.796303
370.40 1.795487
370.50 1.794686
370.60 1.794036
370.70 1.793387
370.80 1.792579
370.90 1.791771
371.00 1.790965
371.10 1.79016
371.20 1.789512
371.30 1.788864
371.40 1.78799
371.50 1.787264
371.60 1.786538
371.70 1.785814
371.80 1.785089
371.90 1.784365
372.00 1.783499
372.10 1.782767
372.20 1.78202
372.30 1.781273
372.40 1.780528
372.50 1.779782
372.60 1.779038
372.70 1.778293
372.80 1.777653
372.90 1.777014
373.00 1.776221
373.10 1.775427
373.20 1.774633
373.30 1.773839
373.40 1.773204
373.50 1.772412
373.60 1.77162
373.70 1.770986
373.80 1.770107
373.90 1.769405
374.00 1.768694
374.10 1.767983
374.20 1.767273
374.30 1.766564
374.40 1.765816
374.50 1.76499
374.60 1.764203
374.70 1.763418
374.80 1.762633
374.90 1.761849
375.00 1.761118
375.10 1.760386
375.20 1.759656
375.30 1.75894
375.40 1.758225
375.50 1.757511
375.60 1.756797
375.70 1.756084
375.80 1.755371
375.90 1.754659
376.00 1.753726
376.10 1.752994
376.20 1.752264
376.30 1.751535
376.40 1.750807
376.50 1.750084
376.60 1.749368
376.70 1.748652
376.80 1.747902
376.90 1.747119
377.00 1.746336
377.10 1.745553
377.20 1.744782
377.30 1.744049
377.40 1.743316
377.50 1.742585
377.60 1.741862
377.70 1.74114
377.80 1.740419
377.90 1.739698
378.00 1.738898
378.10 1.738154
378.20 1.737412
378.30 1.736671
378.40 1.73593
378.50 1.73519
378.60 1.734451
378.70 1.733711
378.80 1.732973
378.90 1.732173
379.00 1.731259
379.10 1.73059
379.20 1.729921
379.30 1.72918
379.40 1.728367
379.50 1.727554
379.60 1.726805
379.70 1.726121
379.80 1.725323
379.90 1.724526
380.00 1.723729
380.10 1.722933
380.20 1.722137
380.30 1.721342
380.40 1.720548
380.50 1.719754
380.60 1.718879
380.70 1.718045
380.80 1.717212
380.90 1.716379
381.00 1.715546
381.10 1.714646
381.20 1.713747
381.30 1.712848
381.40 1.712004
381.50 1.711261
381.60 1.710457
381.70 1.709561
381.80 1.708665
381.90 1.707771
382.00 1.707177
382.10 1.706434
382.20 1.705811
382.30 1.705218
382.40 1.704629
382.50 1.704045
382.60 1.703461
382.70 1.702878
382.80 1.702282
382.90 1.701672
383.00 1.701062
383.10 1.700452
383.20 1.699819
383.30 1.699097
383.40 1.698395
383.50 1.697722
383.60 1.697149
383.70 1.696422
383.80 1.695695
383.90 1.694968
384.00 1.694242
384.10 1.693517
384.20 1.692792
384.30 1.692067
384.40 1.691334
384.50 1.690593
384.60 1.689852
384.70 1.689111
384.80 1.688415
384.90 1.687806
385.00 1.687056
385.10 1.686304
385.20 1.685499
385.30 1.684774
385.40 1.684009
385.50 1.683205
385.60 1.6824
385.70 1.681597
385.80 1.680816
385.90 1.680117
386.00 1.679332
386.10 1.678462
386.20 1.677593
386.30 1.676725
386.40 1.675857
386.50 1.67499
386.60 1.674124
386.70 1.673258
386.80 1.672393
386.90 1.671528
387.00 1.670372
387.10 1.669502
387.20 1.668355
387.30 1.667194
387.40 1.665973
387.50 1.664637
387.60 1.662918
387.70 1.660893
387.80 1.658871
387.90 1.656851
388.00 1.65465
388.10 1.65163
388.20 1.646623
388.30 1.640423
388.40 1.634229
388.50 1.626703
388.60 1.616236
388.70 1.602563
388.80 1.591374
388.90 1.587476
389.00 1.596293
389.10 1.607758
389.20 1.61784
389.30 1.625504
389.40 1.631191
389.50 1.636013
389.60 1.639258
389.70 1.64093
389.80 1.641658
389.90 1.642385
390.00 1.643111
390.10 1.643836
390.20 1.64456
390.30 1.644819
390.40 1.644555
390.50 1.644291
390.60 1.644028
390.70 1.643764
390.80 1.643455
390.90 1.6431
391.00 1.642504
391.10 1.642081
391.20 1.641571
391.30 1.640844
391.40 1.640244
391.50 1.639645
391.60 1.639046
391.70 1.638447
391.80 1.637849
391.90 1.637264
392.00 1.636638
392.10 1.635927
392.20 1.635249
392.30 1.634753
392.40 1.634108
392.50 1.633275
392.60 1.632728
392.70 1.631896
392.80 1.63135
392.90 1.630572
393.00 1.629893
393.10 1.629241
393.20 1.628612
393.30 1.627926
393.40 1.627227
393.50 1.6264
393.60 1.625747
393.70 1.625031
393.80 1.624218
393.90 1.623535
394.00 1.622839
394.10 1.622083
394.20 1.621403
394.30 1.620653
394.40 1.619831
394.50 1.61901
394.60 1.618189
394.70 1.617397
394.80 1.616706
394.90 1.616013
395.00 1.615195
395.10 1.61418
395.20 1.613206
395.30 1.612299
395.40 1.611392
395.50 1.610387
395.60 1.609345
395.70 1.608223
395.80 1.606882
395.90 1.605543
396.00 1.604191
396.10 1.602695
396.20 1.601188
396.30 1.599871
396.40 1.598736
396.50 1.597933
396.60 1.597779
396.70 1.597775
396.80 1.597964
396.90 1.597848
397.00 1.597849
397.10 1.597739
397.20 1.597476
397.30 1.597221
397.40 1.596854
397.50 1.596486
397.60 1.596098
397.70 1.595492
397.80 1.594886
397.90 1.594281
398.00 1.593678
398.10 1.593075
398.20 1.592486
398.30 1.591913
398.40 1.591333
398.50 1.590535
398.60 1.589953
398.70 1.589215
398.80 1.588418
398.90 1.587693
399.00 1.587102
399.10 1.586312
399.20 1.58558
399.30 1.584849
399.40 1.584119
399.50 1.583389
399.60 1.582614
399.70 1.581822
399.80 1.581031
399.90 1.58024
400.00 1.57945
400.10 1.57866
400.20 1.577598
400.30 1.576723
400.40 1.575828
400.50 1.574962
400.60 1.574076
400.70 1.573154
400.80 1.57206
400.90 1.570958
401.00 1.569947
401.10 1.568892
401.20 1.567682
401.30 1.566377
401.40 1.565018
401.50 1.563634
401.60 1.562245
401.70 1.560631
401.80 1.55899
401.90 1.55733
402.00 1.555598
402.10 1.553508
402.20 1.551652
402.30 1.549912
402.40 1.548116
402.50 1.546634
402.60 1.54534
402.70 1.545098
402.80 1.545412
402.90 1.545887
403.00 1.546334
403.10 1.546889
403.20 1.547237
403.30 1.547713
403.40 1.548128
403.50 1.548473
403.60 1.548775
403.70 1.548748
403.80 1.548806
403.90 1.54865
404.00 1.548483
404.10 1.548367
404.20 1.548138
404.30 1.547908
404.40 1.547411
404.50 1.547048
404.60 1.546551
404.70 1.546188
404.80 1.5457
404.90 1.545196
405.00 1.544642
405.10 1.54409
405.20 1.543519
405.30 1.542948
405.40 1.542409
405.50 1.54187
405.60 1.541332
405.70 1.540794
405.80 1.540257
405.90 1.53972
406.00 1.539068
406.10 1.538417
406.20 1.537767
406.30 1.537117
406.40 1.536464
406.50 1.535973
406.60 1.535218
406.70 1.534546
406.80 1.533895
406.90 1.533487
407.00 1.532813
407.10 1.532139
407.20 1.531466
407.30 1.530793
407.40 1.530121
407.50 1.529449
407.60 1.528778
407.70 1.528107
407.80 1.527437
407.90 1.526769
408.00 1.526165
408.10 1.525532
408.20 1.524853
408.30 1.524192
408.40 1.523531
408.50 1.522808
408.60 1.522154
408.70 1.5215
408.80 1.520837
408.90 1.520117
409.00 1.519474
409.10 1.518832
409.20 1.51819
409.30 1.517549
409.40 1.516905
409.50 1.516164
409.60 1.515424
409.70 1.514708
409.80 1.51409
409.90 1.513467
410.00 1.512729
410.10 1.511992
410.20 1.511336
410.30 1.510701
410.40 1.510042
410.50 1.509307
410.60 1.508571
410.70 1.507837
410.80 1.507103
410.90 1.506369
411.00 1.505636
411.10 1.504904
411.20 1.504172
411.30 1.503441
411.40 1.50271
411.50 1.50198
411.60 1.50125
411.70 1.500521
411.80 1.499792
411.90 1.499064
412.00 1.498078
412.10 1.497545
412.20 1.496883
412.30 1.496201
412.40 1.495689
412.50 1.495001
412.60 1.49446
412.70 1.493853
412.80 1.493229
412.90 1.492593
413.00 1.492142
413.10 1.491521
413.20 1.490901
413.30 1.490282
413.40 1.489663
413.50 1.489023
413.60 1.488319
413.70 1.487663
413.80 1.487009
413.90 1.486354
414.00 1.485715
414.10 1.485126
414.20 1.484506
414.30 1.483789
414.40 1.483073
414.50 1.482377
414.60 1.481898
414.70 1.481183
414.80 1.480484
414.90 1.479834
415.00 1.479185
415.10 1.478536
415.20 1.47791
415.30 1.477357
415.40 1.476804
415.50 1.476246
415.60 1.475536
415.70 1.474826
415.80 1.474137
415.90 1.473512
416.00 1.472886
416.10 1.472257
416.20 1.471611
416.30 1.470964
416.40 1.470319
416.50 1.469671
416.60 1.468966
416.70 1.46828
416.80 1.467809
416.90 1.467105
417.00 1.466401
417.10 1.465702
417.20 1.465125
417.30 1.464545
417.40 1.463844
417.50 1.463142
417.60 1.462442
417.70 1.461744
417.80 1.461128
417.90 1.460513
418.00 1.459897
418.10 1.459283
418.20 1.458669
418.30 1.458052
418.40 1.457362
418.50 1.456693
418.60 1.456024
418.70 1.455356
418.80 1.454688
418.90 1.45402
419.00 1.453354
419.10 1.452687
419.20 1.452021
419.30 1.451358
419.40 1.450754
419.50 1.45015
419.60 1.449529
419.70 1.448839
419.80 1.448149
419.90 1.447471
420.00 1.44683
420.10 1.44619
420.20 1.44555
420.30 1.444911
420.40 1.444272
420.50 1.443634
420.60 1.442996
420.70 1.442359
420.80 1.441722
420.90 1.441084
421.00 1.440399
421.10 1.439715
421.20 1.439041
421.30 1.438393
421.40 1.437745
421.50 1.437098
421.60 1.436452
421.70 1.435806
421.80 1.43516
421.90 1.434507
422.00 1.433827
422.10 1.433163
422.20 1.432562
422.30 1.431961
422.40 1.431359
422.50 1.430706
422.60 1.430054
422.70 1.429403
422.80 1.428751
422.90 1.4281
423.00 1.42745
423.10 1.4268
423.20 1.426151
423.30 1.425502
423.40 1.424853
423.50 1.424205
423.60 1.423557
423.70 1.42291
423.80 1.422263
423.90 1.421617
424.00 1.420971
424.10 1.420326
424.20 1.419681
424.30 1.419036
424.40 1.418387
424.50 1.417743
424.60 1.4171
424.70 1.416457
424.80 1.415815
424.90 1.415173
