# Version 2.1 - nm, norm@500 to 1, cut digits, bergeron_He_14000_75.dat_14000
# Wavelength(nm)  Flambda(ergs/cm^s/s/nm)
300.00 3.101802
300.10 3.099809
300.20 3.097744
300.30 3.095744
300.40 3.094163
300.50 3.092584
300.60 3.091006
300.70 3.089429
300.80 3.087854
300.90 3.086281
301.00 3.084709
301.10 3.083138
301.20 3.081569
301.30 3.080001
301.40 3.078434
301.50 3.076869
301.60 3.075305
301.70 3.073743
301.80 3.072182
301.90 3.070622
302.00 3.069064
302.10 3.067272
302.20 3.065455
302.30 3.06364
302.40 3.061827
302.50 3.060015
302.60 3.058205
302.70 3.056397
302.80 3.054591
302.90 3.052786
303.00 3.050983
303.10 3.049182
303.20 3.047382
303.30 3.045585
303.40 3.0438
303.50 3.042015
303.60 3.040233
303.70 3.038452
303.80 3.036673
303.90 3.034896
304.00 3.03312
304.10 3.031347
304.20 3.029574
304.30 3.027804
304.40 3.026035
304.50 3.024267
304.60 3.02257
304.70 3.020882
304.80 3.019196
304.90 3.017511
305.00 3.015828
305.10 3.014146
305.20 3.012466
305.30 3.010787
305.40 3.00911
305.50 3.007434
305.60 3.00576
305.70 3.004088
305.80 3.002417
305.90 3.000748
306.00 2.99908
306.10 2.997414
306.20 2.995749
306.30 2.994086
306.40 2.992365
306.50 2.990629
306.60 2.988895
306.70 2.987162
306.80 2.98543
306.90 2.983701
307.00 2.981973
307.10 2.980246
307.20 2.978522
307.30 2.976798
307.40 2.975077
307.50 2.973357
307.60 2.971638
307.70 2.969922
307.80 2.968206
307.90 2.966493
308.00 2.964781
308.10 2.963071
308.20 2.961362
308.30 2.959655
308.40 2.957949
308.50 2.956245
308.60 2.954543
308.70 2.952842
308.80 2.951087
308.90 2.949177
309.00 2.947268
309.10 2.945362
309.20 2.943457
309.30 2.941554
309.40 2.93969
309.50 2.93806
309.60 2.936431
309.70 2.934803
309.80 2.933178
309.90 2.931553
310.00 2.92993
310.10 2.928309
310.20 2.926688
310.30 2.92507
310.40 2.923325
310.50 2.921442
310.60 2.919561
310.70 2.917682
310.80 2.915805
310.90 2.913929
311.00 2.912056
311.10 2.910184
311.20 2.908314
311.30 2.906446
311.40 2.904579
311.50 2.902715
311.60 2.900852
311.70 2.898991
311.80 2.897132
311.90 2.895274
312.00 2.893419
312.10 2.891565
312.20 2.890989
312.30 2.890413
312.40 2.888563
312.50 2.886715
312.60 2.884868
312.70 2.883023
312.80 2.88118
312.90 2.879339
313.00 2.8775
313.10 2.875662
313.20 2.873826
313.30 2.871992
313.40 2.870159
313.50 2.868328
313.60 2.866499
313.70 2.864672
313.80 2.862847
313.90 2.861023
314.00 2.859201
314.10 2.85738
314.20 2.855562
314.30 2.853745
314.40 2.85193
314.50 2.850117
314.60 2.848305
314.70 2.846495
314.80 2.844687
314.90 2.842067
315.00 2.838568
315.10 2.836349
315.20 2.834132
315.30 2.831918
315.40 2.829705
315.50 2.827495
315.60 2.825287
315.70 2.822874
315.80 2.820463
315.90 2.818054
316.00 2.815648
316.10 2.812621
316.20 2.809598
316.30 2.809066
316.40 2.808533
316.50 2.803033
316.60 2.792574
316.70 2.78709
316.80 2.781612
316.90 2.779857
317.00 2.778103
317.10 2.776351
317.20 2.774601
317.30 2.775693
317.40 2.775894
317.50 2.773567
317.60 2.771241
317.70 2.768918
317.80 2.766598
317.90 2.758378
318.00 2.745699
318.10 2.724301
318.20 2.70293
318.30 2.681585
318.40 2.644952
318.50 2.564803
318.60 2.463244
318.70 2.172061
318.80 1.714437
318.90 2.225756
319.00 2.414588
319.10 2.512038
319.20 2.591882
319.30 2.621895
319.40 2.651869
319.50 2.681806
319.60 2.703765
319.70 2.71109
319.80 2.718406
319.90 2.725711
320.00 2.73102
320.10 2.734171
320.20 2.736075
320.30 2.73813
320.40 2.738845
320.50 2.739558
320.60 2.739012
320.70 2.739723
320.80 2.739563
320.90 2.738459
321.00 2.737357
321.10 2.736256
321.20 2.735083
321.30 2.734214
321.40 2.733347
321.50 2.73248
321.60 2.731613
321.70 2.730747
321.80 2.729482
321.90 2.727787
322.00 2.726248
322.10 2.724854
322.20 2.723461
322.30 2.722069
322.40 2.720678
322.50 2.719289
322.60 2.7179
322.70 2.716513
322.80 2.71504
322.90 2.713571
323.00 2.712103
323.10 2.710636
323.20 2.70917
323.30 2.707706
323.40 2.706243
323.50 2.704781
323.60 2.703321
323.70 2.701862
323.80 2.700404
323.90 2.698947
324.00 2.697281
324.10 2.695617
324.20 2.693955
324.30 2.692293
324.40 2.690773
324.50 2.689404
324.60 2.688037
324.70 2.686671
324.80 2.685306
324.90 2.683942
325.00 2.682579
325.10 2.681217
325.20 2.679765
325.30 2.678118
325.40 2.676472
325.50 2.674827
325.60 2.673185
325.70 2.671543
325.80 2.669904
325.90 2.668265
326.00 2.666629
326.10 2.664994
326.20 2.66336
326.30 2.66221
326.40 2.662432
326.50 2.660802
326.60 2.659173
326.70 2.657545
326.80 2.655919
326.90 2.654294
327.00 2.652671
327.10 2.651049
327.20 2.649429
327.30 2.64781
327.40 2.646193
327.50 2.644577
327.60 2.642963
327.70 2.64135
327.80 2.639739
327.90 2.638129
328.00 2.636521
328.10 2.634914
328.20 2.633308
328.30 2.631704
328.40 2.630102
328.50 2.628501
328.60 2.626901
328.70 2.625303
328.80 2.623757
328.90 2.622357
329.00 2.620958
329.10 2.619559
329.20 2.618163
329.30 2.616767
329.40 2.615373
329.50 2.613979
329.60 2.612587
329.70 2.611197
329.80 2.609807
329.90 2.608419
330.00 2.606945
330.10 2.605365
330.20 2.603788
330.30 2.602211
330.40 2.600636
330.50 2.599063
330.60 2.597491
330.70 2.59592
330.80 2.594351
330.90 2.592783
331.00 2.591216
331.10 2.589651
331.20 2.588088
331.30 2.586526
331.40 2.584965
331.50 2.583406
331.60 2.581848
331.70 2.580291
331.80 2.578736
331.90 2.577182
332.00 2.57563
332.10 2.574079
332.20 2.57253
332.30 2.570982
332.40 2.569435
332.50 2.56789
332.60 2.566346
332.70 2.564803
332.80 2.563262
332.90 2.561723
333.00 2.560184
333.10 2.558546
333.20 2.556787
333.30 2.555029
333.40 2.553272
333.50 2.551518
333.60 2.549765
333.70 2.548013
333.80 2.546264
333.90 2.544515
334.00 2.542769
334.10 2.540957
334.20 2.539066
334.30 2.537176
334.40 2.535288
334.50 2.533401
334.60 2.531517
334.70 2.52884
334.80 2.525723
334.90 2.523368
335.00 2.521015
335.10 2.516619
335.20 2.51401
335.30 2.509689
335.40 2.503217
335.50 2.504764
335.60 2.508794
335.70 2.509121
335.80 2.509834
335.90 2.510049
336.00 2.509657
336.10 2.509265
336.20 2.508873
336.30 2.508151
336.40 2.507027
336.50 2.505903
336.60 2.50478
336.70 2.503659
336.80 2.502538
336.90 2.501253
337.00 2.499769
337.10 2.498286
337.20 2.496805
337.30 2.495475
337.40 2.494362
337.50 2.493251
337.60 2.49214
337.70 2.491031
337.80 2.489922
337.90 2.48865
338.00 2.487177
338.10 2.485706
338.20 2.484236
338.30 2.482768
338.40 2.481301
338.50 2.479835
338.60 2.47837
338.70 2.476907
338.80 2.475445
338.90 2.473985
339.00 2.472525
339.10 2.471067
339.20 2.46961
339.30 2.468155
339.40 2.466701
339.50 2.465248
339.60 2.463796
339.70 2.462346
339.80 2.460897
339.90 2.459449
340.00 2.458002
340.10 2.456557
340.20 2.455113
340.30 2.45367
340.40 2.452229
340.50 2.450789
340.60 2.44935
340.70 2.447912
340.80 2.446476
340.90 2.445041
341.00 2.443607
341.10 2.442175
341.20 2.440743
341.30 2.439313
341.40 2.437884
341.50 2.436457
341.60 2.435031
341.70 2.433605
341.80 2.431956
341.90 2.430033
342.00 2.428112
342.10 2.426192
342.20 2.424374
342.30 2.422958
342.40 2.421397
342.50 2.419627
342.60 2.417859
342.70 2.416093
342.80 2.414328
342.90 2.412565
343.00 2.410728
343.10 2.4088
343.20 2.406873
343.30 2.404949
343.40 2.402519
343.50 2.399363
343.60 2.396211
343.70 2.393061
343.80 2.389915
343.90 2.386772
344.00 2.383058
344.10 2.378521
344.20 2.373989
344.30 2.369462
344.40 2.364079
344.50 2.357466
344.60 2.348764
344.70 2.33468
344.80 2.342064
344.90 2.351112
345.00 2.355968
345.10 2.359826
345.20 2.362696
345.30 2.364147
345.40 2.365597
345.50 2.366679
345.60 2.366918
345.70 2.36659
345.80 2.366262
345.90 2.365934
346.00 2.365606
346.10 2.365277
346.20 2.364609
346.30 2.363451
346.40 2.362294
346.50 2.361138
346.60 2.359982
346.70 2.358828
346.80 2.357675
346.90 2.356523
347.00 2.355371
347.10 2.354221
347.20 2.353044
347.30 2.35183
347.40 2.350617
347.50 2.349405
347.60 2.348194
347.70 2.346984
347.80 2.345775
347.90 2.344567
348.00 2.34336
348.10 2.342154
348.20 2.340949
348.30 2.339745
348.40 2.338542
348.50 2.33734
348.60 2.336139
348.70 2.334833
348.80 2.333438
348.90 2.331965
349.00 2.330492
349.10 2.329021
349.20 2.327551
349.30 2.326083
349.40 2.324616
349.50 2.32315
349.60 2.321685
349.70 2.320222
349.80 2.31876
349.90 2.317299
350.00 2.31584
350.10 2.314382
350.20 2.312925
350.30 2.311525
350.40 2.310206
350.50 2.308888
350.60 2.307571
350.70 2.306255
350.80 2.30494
350.90 2.303627
351.00 2.302315
351.10 2.301003
351.20 2.299693
351.30 2.298384
351.40 2.297076
351.50 2.295769
351.60 2.294463
351.70 2.293159
351.80 2.291855
351.90 2.290553
352.00 2.289252
352.10 2.287952
352.20 2.286653
352.30 2.285355
352.40 2.284058
352.50 2.282762
352.60 2.281467
352.70 2.280174
352.80 2.278881
352.90 2.27759
353.00 2.2763
353.10 2.275011
353.20 2.273723
353.30 2.272436
353.40 2.27115
353.50 2.269865
353.60 2.268581
353.70 2.267299
353.80 2.266017
353.90 2.264737
354.00 2.263458
354.10 2.262179
354.20 2.260902
354.30 2.259626
354.40 2.258351
354.50 2.257077
354.60 2.255804
354.70 2.254533
354.80 2.253262
354.90 2.251992
355.00 2.250724
355.10 2.249456
355.20 2.24819
355.30 2.246924
355.40 2.24566
355.50 2.244397
355.60 2.243135
355.70 2.241874
355.80 2.240614
355.90 2.239355
356.00 2.238097
356.10 2.23684
356.20 2.235584
356.30 2.23433
356.40 2.233076
356.50 2.231823
356.60 2.230572
356.70 2.229321
356.80 2.228072
356.90 2.226823
357.00 2.225576
357.10 2.22433
357.20 2.223085
357.30 2.22184
357.40 2.220597
357.50 2.219355
357.60 2.218114
357.70 2.216874
357.80 2.215635
357.90 2.214397
358.00 2.21316
358.10 2.211924
358.20 2.210689
358.30 2.209456
358.40 2.208223
358.50 2.206991
358.60 2.20576
358.70 2.204531
358.80 2.203302
358.90 2.202074
359.00 2.200848
359.10 2.199622
359.20 2.198398
359.30 2.197174
359.40 2.195951
359.50 2.19418
359.60 2.192273
359.70 2.190367
359.80 2.187694
359.90 2.185023
360.00 2.181977
360.10 2.178264
360.20 2.174555
360.30 2.17085
360.40 2.167148
360.50 2.16345
360.60 2.157385
360.70 2.148061
360.80 2.138747
360.90 2.129443
361.00 2.118161
361.10 2.099421
361.20 2.076856
361.30 2.037967
361.40 2.062938
361.50 2.103874
361.60 2.118086
361.70 2.12262
361.80 2.126701
361.90 2.129978
362.00 2.133251
362.10 2.135071
362.20 2.135878
362.30 2.13553
362.40 2.135183
362.50 2.134836
362.60 2.134488
362.70 2.132427
362.80 2.130411
362.90 2.127357
363.00 2.124306
363.10 2.118852
363.20 2.113379
363.30 2.103814
363.40 2.093236
363.50 2.103383
363.60 2.113518
363.70 2.118417
363.80 2.120595
363.90 2.122114
364.00 2.123631
364.10 2.125146
364.20 2.126659
364.30 2.127693
364.40 2.128608
364.50 2.131198
364.60 2.131273
364.70 2.131347
364.80 2.131421
364.90 2.131187
365.00 2.130953
365.10 2.129786
365.20 2.127687
365.30 2.127455
365.40 2.128154
365.50 2.128852
365.60 2.129549
365.70 2.12923
365.80 2.128912
365.90 2.128743
366.00 2.128612
366.10 2.128361
366.20 2.128111
366.30 2.12786
366.40 2.12761
366.50 2.126513
366.60 2.125353
366.70 2.124194
366.80 2.123036
366.90 2.121878
367.00 2.120722
367.10 2.119567
367.20 2.118413
367.30 2.117259
367.40 2.116107
367.50 2.114137
367.60 2.111964
367.70 2.109847
367.80 2.107731
367.90 2.105618
368.00 2.1037
368.10 2.100744
368.20 2.097675
368.30 2.094613
368.40 2.091554
368.50 2.088498
368.60 2.085444
368.70 2.082394
368.80 2.079347
368.90 2.075818
369.00 2.071617
369.10 2.067468
369.20 2.062667
369.30 2.057293
369.40 2.051925
369.50 2.046562
369.60 2.039111
369.70 2.031669
369.80 2.023204
369.90 2.014738
370.00 2.006281
370.10 1.996457
370.20 1.982676
370.30 1.968903
370.40 1.942686
370.50 1.922084
370.60 1.952546
370.70 1.979015
370.80 1.990552
370.90 2.002076
371.00 2.006519
371.10 2.010885
371.20 2.015192
371.30 2.019494
371.40 2.021716
371.50 2.024656
371.60 2.027593
371.70 2.030527
371.80 2.033457
371.90 2.036383
372.00 2.039952
372.10 2.041423
372.20 2.042721
372.30 2.044017
372.40 2.045312
372.50 2.046605
372.60 2.047896
372.70 2.049185
372.80 2.048977
372.90 2.048768
373.00 2.048569
373.10 2.048369
373.20 2.045485
373.30 2.042604
373.40 2.030802
373.50 2.033282
373.60 2.03665
373.70 2.038233
373.80 2.039703
373.90 2.041393
374.00 2.04208
374.10 2.042766
374.20 2.043451
374.30 2.044136
374.40 2.044153
374.50 2.045458
374.60 2.044849
374.70 2.044202
374.80 2.043555
374.90 2.042909
375.00 2.042409
375.10 2.04191
375.20 2.041411
375.30 2.040575
375.40 2.03974
375.50 2.038906
375.60 2.038073
375.70 2.03724
375.80 2.036407
375.90 2.035575
376.00 2.034493
376.10 2.033411
376.20 2.03233
376.30 2.03125
376.40 2.030171
376.50 2.028851
376.60 2.027168
376.70 2.025488
376.80 2.024111
376.90 2.023037
377.00 2.021964
377.10 2.020891
377.20 2.019705
377.30 2.018091
377.40 2.016477
377.50 2.014865
377.60 2.013039
377.70 2.011215
377.80 2.009393
377.90 2.007572
378.00 2.006055
378.10 2.003798
378.20 2.00153
378.30 1.999265
378.40 1.997002
378.50 1.99474
378.60 1.992481
378.70 1.990224
378.80 1.98797
378.90 1.985689
379.00 1.983358
379.10 1.980234
379.20 1.977113
379.30 1.973918
379.40 1.970647
379.50 1.967379
379.60 1.963845
379.70 1.95955
379.80 1.953901
379.90 1.948259
380.00 1.942622
380.10 1.93699
380.20 1.931365
380.30 1.925745
380.40 1.920131
380.50 1.914522
380.60 1.906287
380.70 1.895922
380.80 1.885567
380.90 1.875223
381.00 1.864889
381.10 1.851062
381.20 1.836298
381.30 1.818637
381.40 1.800587
381.50 1.778602
381.60 1.754714
381.70 1.726747
381.80 1.692539
381.90 1.627081
382.00 1.597499
382.10 1.691416
382.20 1.739075
382.30 1.772214
382.40 1.798907
382.50 1.815959
382.60 1.832994
382.70 1.846501
382.80 1.853163
382.90 1.856942
383.00 1.860717
383.10 1.864488
383.20 1.868439
383.30 1.873078
383.40 1.877886
383.50 1.882949
383.60 1.887381
383.70 1.890182
383.80 1.892981
383.90 1.895776
384.00 1.898568
384.10 1.901357
384.20 1.904143
384.30 1.906925
384.40 1.908997
384.50 1.910358
384.60 1.911717
384.70 1.913075
384.80 1.913937
384.90 1.913447
385.00 1.913894
385.10 1.914373
385.20 1.915395
385.30 1.915251
385.40 1.914878
385.50 1.914275
385.60 1.913672
385.70 1.91307
385.80 1.912386
385.90 1.911395
386.00 1.910405
386.10 1.9093
386.20 1.907023
386.30 1.904748
386.40 1.900638
386.50 1.89508
386.60 1.887
386.70 1.866889
386.80 1.840563
386.90 1.850831
387.00 1.859095
387.10 1.864776
387.20 1.869455
387.30 1.874379
387.40 1.875499
387.50 1.876495
387.60 1.8761
387.70 1.873477
387.80 1.870856
387.90 1.868238
388.00 1.864759
388.10 1.857644
388.20 1.843579
388.30 1.824818
388.40 1.806076
388.50 1.777385
388.60 1.724502
388.70 1.632447
388.80 1.416665
388.90 1.295688
389.00 1.553465
389.10 1.668373
389.20 1.733286
389.30 1.774009
389.40 1.799184
389.50 1.819968
389.60 1.833406
389.70 1.84165
389.80 1.845718
389.90 1.849782
390.00 1.853841
390.10 1.857896
390.20 1.861946
390.30 1.864415
390.40 1.865102
390.50 1.865788
390.60 1.866474
390.70 1.867158
390.80 1.867483
390.90 1.867447
391.00 1.866954
391.10 1.866789
391.20 1.866458
391.30 1.865504
391.40 1.864551
391.50 1.863599
391.60 1.862647
391.70 1.861696
391.80 1.860746
391.90 1.859796
392.00 1.858567
392.10 1.856919
392.20 1.855335
392.30 1.853839
392.40 1.851828
392.50 1.849269
392.60 1.847238
392.70 1.845773
392.80 1.845922
392.90 1.845806
393.00 1.845724
393.10 1.845787
393.20 1.84591
393.30 1.844971
393.40 1.844033
393.50 1.843096
393.60 1.84216
393.70 1.841224
393.80 1.840289
393.90 1.839355
394.00 1.838421
394.10 1.837488
394.20 1.836556
394.30 1.834929
394.40 1.833094
394.50 1.832165
394.60 1.830344
394.70 1.828404
394.80 1.826013
394.90 1.823618
395.00 1.820919
395.10 1.817517
395.20 1.813631
395.30 1.809602
395.40 1.805576
395.50 1.799103
395.60 1.791731
395.70 1.782602
395.80 1.768716
395.90 1.754843
396.00 1.740062
396.10 1.710895
396.20 1.668028
396.30 1.61729
396.40 1.511518
396.50 1.542468
396.60 1.68148
396.70 1.722498
396.80 1.730098
396.90 1.732996
397.00 1.747594
397.10 1.766438
397.20 1.774575
397.30 1.775441
397.40 1.776529
397.50 1.777616
397.60 1.778675
397.70 1.779454
397.80 1.780232
397.90 1.780861
398.00 1.781088
398.10 1.781315
398.20 1.781014
398.30 1.78012
398.40 1.77919
398.50 1.777092
398.60 1.775875
398.70 1.774474
398.80 1.772945
398.90 1.771236
399.00 1.769191
399.10 1.766581
399.20 1.763906
399.30 1.761233
399.40 1.758562
399.50 1.755894
399.60 1.752355
399.70 1.748496
399.80 1.74464
399.90 1.740788
400.00 1.736922
400.10 1.732467
400.20 1.728454
400.30 1.722735
400.40 1.716967
400.50 1.710978
400.60 1.704047
400.70 1.696997
400.80 1.688825
400.90 1.676894
401.00 1.669485
401.10 1.666696
401.20 1.661182
401.30 1.652427
401.40 1.64175
401.50 1.630642
401.60 1.619356
401.70 1.601944
401.80 1.583358
401.90 1.561207
402.00 1.536659
402.10 1.507645
402.20 1.473297
402.30 1.430574
402.40 1.373536
402.50 1.286562
402.60 1.139237
402.70 1.24125
402.80 1.35887
402.90 1.419905
403.00 1.475042
403.10 1.516252
403.20 1.548111
403.30 1.573232
403.40 1.59504
403.50 1.612106
403.60 1.628013
403.70 1.641213
403.80 1.651342
403.90 1.65919
404.00 1.666444
404.10 1.669963
404.20 1.672183
404.30 1.6744
404.40 1.672742
404.50 1.666662
404.60 1.662798
404.70 1.665015
404.80 1.668881
404.90 1.672477
405.00 1.67674
405.10 1.679923
405.20 1.682882
405.30 1.685839
405.40 1.687783
405.50 1.689724
405.60 1.691664
405.70 1.693602
405.80 1.695537
405.90 1.697471
406.00 1.698153
406.10 1.698835
406.20 1.699515
406.30 1.700195
406.40 1.700979
406.50 1.701878
406.60 1.702166
406.70 1.702269
406.80 1.702607
406.90 1.70268
407.00 1.702445
407.10 1.702209
407.20 1.701973
407.30 1.701738
407.40 1.701502
407.50 1.701266
407.60 1.701031
407.70 1.700795
407.80 1.700559
407.90 1.700306
408.00 1.699473
408.10 1.69864
408.20 1.698197
408.30 1.697851
408.40 1.697506
408.50 1.696806
408.60 1.695975
408.70 1.695146
408.80 1.694316
408.90 1.693488
409.00 1.69266
409.10 1.691832
409.20 1.691006
409.30 1.690179
409.40 1.689354
409.50 1.688529
409.60 1.687704
409.70 1.686744
409.80 1.685238
409.90 1.683754
410.00 1.682933
410.10 1.682112
410.20 1.68083
410.30 1.679433
410.40 1.67806
410.50 1.676757
410.60 1.675455
410.70 1.674131
410.80 1.672719
410.90 1.671309
411.00 1.669116
411.10 1.666636
411.20 1.664158
411.30 1.661513
411.40 1.658143
411.50 1.653183
411.60 1.648228
411.70 1.641759
411.80 1.629224
411.90 1.613914
412.00 1.574287
412.10 1.487814
412.20 1.511255
412.30 1.549941
412.40 1.577615
412.50 1.593451
412.60 1.605207
412.70 1.61148
412.80 1.616381
412.90 1.620026
413.00 1.620645
413.10 1.619861
413.20 1.619077
413.30 1.618293
413.40 1.617511
413.50 1.616425
413.60 1.613881
413.70 1.610557
413.80 1.607236
413.90 1.603918
414.00 1.599993
414.10 1.594142
414.20 1.587774
414.30 1.574976
414.40 1.559582
414.50 1.571618
414.60 1.580601
414.70 1.585626
414.80 1.590212
414.90 1.59342
415.00 1.596625
415.10 1.599827
415.20 1.602721
415.30 1.604645
415.40 1.606568
415.50 1.60847
415.60 1.609761
415.70 1.611051
415.80 1.612185
415.90 1.612829
416.00 1.613473
416.10 1.61397
416.20 1.613883
416.30 1.613797
416.40 1.61371
416.50 1.613624
416.60 1.613566
416.70 1.613379
416.80 1.61128
416.90 1.607537
417.00 1.606873
417.10 1.607576
417.20 1.608235
417.30 1.608881
417.40 1.609119
417.50 1.609357
417.60 1.609393
417.70 1.608637
417.80 1.608342
417.90 1.608047
418.00 1.607753
418.10 1.607458
418.20 1.607164
418.30 1.606855
418.40 1.606124
418.50 1.605511
418.60 1.604898
418.70 1.604286
418.80 1.603674
418.90 1.603062
419.00 1.602451
419.10 1.60184
419.20 1.60123
419.30 1.600615
419.40 1.599852
419.50 1.599089
419.60 1.598327
419.70 1.597566
419.80 1.596805
419.90 1.596011
420.00 1.595113
420.10 1.594215
420.20 1.593319
420.30 1.592423
420.40 1.591527
420.50 1.590633
420.60 1.589739
420.70 1.588845
420.80 1.587953
420.90 1.587065
421.00 1.586311
421.10 1.585557
421.20 1.584755
421.30 1.583802
421.40 1.582851
421.50 1.5819
421.60 1.58095
421.70 1.580001
421.80 1.579052
421.90 1.578152
422.00 1.577404
422.10 1.576657
422.20 1.57591
422.30 1.575164
422.40 1.574412
422.50 1.573456
422.60 1.5725
422.70 1.571545
422.80 1.57059
422.90 1.569637
423.00 1.568684
423.10 1.567732
423.20 1.56678
423.30 1.56583
423.40 1.56488
423.50 1.563931
423.60 1.562982
423.70 1.562034
423.80 1.561087
423.90 1.560141
424.00 1.559195
424.10 1.55825
424.20 1.557306
424.30 1.556363
424.40 1.555466
424.50 1.554594
424.60 1.553722
424.70 1.552851
424.80 1.551981
424.90 1.551111
425.00 1.550242
