# Version 2.1 - nm, norm@500 to 1, cut digits, bergeron_He_24000_85.dat_24000
# Wavelength(nm)  Flambda(ergs/cm^s/s/nm)
300.00 4.611859
300.10 4.608794
300.20 4.605724
300.30 4.602579
300.40 4.598915
300.50 4.595255
300.60 4.591599
300.70 4.587946
300.80 4.584298
300.90 4.580653
301.00 4.577012
301.10 4.573375
301.20 4.569742
301.30 4.566112
301.40 4.562486
301.50 4.558865
301.60 4.555247
301.70 4.551632
301.80 4.548022
301.90 4.544415
302.00 4.540812
302.10 4.536709
302.20 4.532554
302.30 4.528403
302.40 4.524257
302.50 4.520115
302.60 4.515978
302.70 4.511846
302.80 4.507718
302.90 4.503594
303.00 4.499475
303.10 4.49536
303.20 4.49125
303.30 4.487129
303.40 4.482879
303.50 4.478633
303.60 4.474393
303.70 4.470156
303.80 4.465925
303.90 4.461698
304.00 4.457476
304.10 4.453258
304.20 4.449045
304.30 4.444836
304.40 4.440632
304.50 4.436432
304.60 4.432227
304.70 4.428024
304.80 4.423826
304.90 4.419633
305.00 4.415444
305.10 4.41126
305.20 4.407081
305.30 4.402905
305.40 4.398735
305.50 4.394569
305.60 4.390407
305.70 4.38625
305.80 4.382097
305.90 4.377949
306.00 4.373806
306.10 4.369667
306.20 4.365532
306.30 4.361402
306.40 4.357255
306.50 4.353106
306.60 4.348962
306.70 4.344822
306.80 4.340687
306.90 4.336556
307.00 4.33243
307.10 4.328308
307.20 4.32419
307.30 4.320077
307.40 4.315969
307.50 4.311865
307.60 4.307765
307.70 4.30367
307.80 4.299579
307.90 4.295492
308.00 4.29141
308.10 4.287332
308.20 4.283259
308.30 4.27919
308.40 4.275126
308.50 4.271065
308.60 4.26701
308.70 4.262958
308.80 4.258797
308.90 4.254315
309.00 4.249998
309.10 4.245685
309.20 4.241377
309.30 4.237074
309.40 4.232774
309.50 4.22847
309.60 4.224172
309.70 4.219877
309.80 4.215588
309.90 4.211303
310.00 4.207023
310.10 4.202747
310.20 4.198476
310.30 4.19421
310.40 4.189848
310.50 4.185384
310.60 4.180924
310.70 4.176469
310.80 4.172019
310.90 4.167574
311.00 4.163174
311.10 4.158779
311.20 4.154389
311.30 4.149959
311.40 4.145406
311.50 4.140858
311.60 4.136314
311.70 4.131776
311.80 4.127242
311.90 4.122714
312.00 4.118191
312.10 4.113672
312.20 4.109002
312.30 4.10395
312.40 4.098962
312.50 4.09482
312.60 4.089919
312.70 4.085023
312.80 4.080133
312.90 4.075136
313.00 4.070025
313.10 4.064919
313.20 4.059819
313.30 4.054656
313.40 4.049306
313.50 4.043962
313.60 4.038624
313.70 4.033292
313.80 4.027966
313.90 4.022646
314.00 4.017332
314.10 4.011109
314.20 4.004892
314.30 3.998682
314.40 3.99248
314.50 3.986284
314.60 3.980096
314.70 3.973915
314.80 3.967294
314.90 3.959952
315.00 3.953201
315.10 3.945645
315.20 3.938097
315.30 3.930559
315.40 3.923029
315.50 3.915507
315.60 3.907995
315.70 3.901098
315.80 3.894209
315.90 3.887328
316.00 3.880455
316.10 3.874368
316.20 3.868288
316.30 3.862733
316.40 3.852006
316.50 3.830422
316.60 3.793349
316.70 3.758389
316.80 3.723472
316.90 3.717767
317.00 3.712068
317.10 3.706376
317.20 3.70069
317.30 3.714339
317.40 3.723378
317.50 3.719343
317.60 3.715312
317.70 3.711285
317.80 3.707263
317.90 3.679956
318.00 3.642822
318.10 3.584173
318.20 3.525596
318.30 3.467092
318.40 3.387653
318.50 3.248558
318.60 3.086132
318.70 2.746237
318.80 2.220015
318.90 2.624521
319.00 2.859211
319.10 3.014239
319.20 3.148274
319.30 3.222984
319.40 3.297599
319.50 3.37212
319.60 3.430891
319.70 3.466856
319.80 3.502775
319.90 3.538648
320.00 3.568368
320.10 3.591438
320.20 3.612839
320.30 3.63001
320.40 3.645319
320.50 3.659398
320.60 3.670795
320.70 3.680604
320.80 3.688345
320.90 3.69385
321.00 3.699347
321.10 3.704838
321.20 3.708581
321.30 3.710096
321.40 3.711608
321.50 3.713118
321.60 3.714625
321.70 3.716129
321.80 3.717101
321.90 3.717496
322.00 3.716964
322.10 3.716148
322.20 3.715332
322.30 3.714517
322.40 3.713702
322.50 3.712887
322.60 3.712073
322.70 3.711259
322.80 3.709801
322.90 3.707769
323.00 3.705738
323.10 3.703709
323.20 3.701682
323.30 3.699657
323.40 3.697633
323.50 3.695611
323.60 3.693592
323.70 3.691573
323.80 3.689557
323.90 3.687543
324.00 3.685003
324.10 3.682465
324.20 3.67993
324.30 3.677466
324.40 3.674851
324.50 3.671862
324.60 3.668877
324.70 3.665894
324.80 3.662914
324.90 3.659938
325.00 3.656964
325.10 3.653993
325.20 3.651037
325.30 3.64811
325.40 3.645186
325.50 3.642239
325.60 3.639263
325.70 3.63629
325.80 3.63332
325.90 3.630262
326.00 3.627111
326.10 3.623962
326.20 3.620817
326.30 3.617714
326.40 3.614725
326.50 3.611507
326.60 3.608291
326.70 3.605079
326.80 3.60187
326.90 3.598664
327.00 3.595462
327.10 3.592263
327.20 3.589067
327.30 3.585874
327.40 3.582684
327.50 3.579498
327.60 3.576315
327.70 3.573135
327.80 3.569959
327.90 3.566365
328.00 3.562039
328.10 3.557377
328.20 3.55272
328.30 3.548068
328.40 3.543421
328.50 3.540134
328.60 3.537169
328.70 3.534206
328.80 3.53133
328.90 3.528696
329.00 3.526064
329.10 3.523435
329.20 3.520809
329.30 3.518185
329.40 3.515564
329.50 3.512945
329.60 3.510329
329.70 3.507715
329.80 3.505104
329.90 3.502495
330.00 3.499675
330.10 3.496596
330.20 3.493521
330.30 3.490448
330.40 3.487425
330.50 3.484454
330.60 3.481486
330.70 3.478521
330.80 3.475559
330.90 3.472601
331.00 3.469645
331.10 3.466692
331.20 3.463741
331.30 3.460794
331.40 3.45785
331.50 3.454782
331.60 3.451563
331.70 3.448346
331.80 3.445219
331.90 3.442098
332.00 3.43898
332.10 3.435866
332.20 3.432754
332.30 3.429646
332.40 3.426541
332.50 3.423439
332.60 3.42034
332.70 3.417244
332.80 3.414151
332.90 3.411061
333.00 3.407975
333.10 3.404727
333.20 3.401283
333.30 3.397842
333.40 3.394405
333.50 3.390971
333.60 3.387541
333.70 3.384114
333.80 3.380691
333.90 3.377272
334.00 3.373855
334.10 3.370303
334.20 3.366585
334.30 3.36287
334.40 3.359159
334.50 3.355452
334.60 3.351748
334.70 3.348012
334.80 3.343949
334.90 3.339482
335.00 3.33502
335.10 3.330965
335.20 3.327594
335.30 3.324733
335.40 3.321023
335.50 3.319158
335.60 3.317986
335.70 3.31601
335.80 3.314035
335.90 3.312165
336.00 3.310424
336.10 3.308684
336.20 3.306945
336.30 3.304898
336.40 3.302476
336.50 3.300055
336.60 3.297637
336.70 3.295221
336.80 3.292808
336.90 3.2905
337.00 3.288322
337.10 3.286145
337.20 3.283971
337.30 3.281577
337.40 3.278868
337.50 3.276162
337.60 3.273458
337.70 3.270757
337.80 3.268058
337.90 3.265468
338.00 3.263008
338.10 3.260551
338.20 3.258096
338.30 3.255643
338.40 3.25308
338.50 3.250241
338.60 3.247404
338.70 3.244571
338.80 3.24174
338.90 3.238913
339.00 3.236088
339.10 3.233265
339.20 3.230446
339.30 3.227627
339.40 3.224806
339.50 3.221936
339.60 3.219005
339.70 3.216076
339.80 3.213151
339.90 3.210228
340.00 3.207308
340.10 3.204391
340.20 3.201477
340.30 3.198566
340.40 3.195657
340.50 3.192752
340.60 3.189849
340.70 3.186949
340.80 3.1841
340.90 3.181322
341.00 3.178354
341.10 3.175154
341.20 3.171957
341.30 3.168763
341.40 3.165573
341.50 3.162385
341.60 3.159201
341.70 3.15602
341.80 3.152784
341.90 3.149479
342.00 3.146177
342.10 3.142879
342.20 3.13899
342.30 3.134743
342.40 3.130934
342.50 3.12703
342.60 3.12313
342.70 3.119234
342.80 3.115341
342.90 3.111453
343.00 3.107617
343.10 3.103843
343.20 3.100074
343.30 3.096308
343.40 3.092087
343.50 3.087212
343.60 3.082341
343.70 3.077475
343.80 3.072615
343.90 3.06776
344.00 3.06264
344.10 3.057139
344.20 3.051643
344.30 3.046153
344.40 3.040221
344.50 3.033651
344.60 3.027267
344.70 3.022478
344.80 3.022949
344.90 3.024291
345.00 3.027643
345.10 3.028936
345.20 3.029822
345.30 3.030124
345.40 3.030425
345.50 3.030177
345.60 3.029212
345.70 3.028183
345.80 3.027155
345.90 3.026127
346.00 3.0251
346.10 3.024073
346.20 3.022716
346.30 3.020884
346.40 3.019054
346.50 3.017225
346.60 3.015398
346.70 3.013573
346.80 3.011749
346.90 3.009926
347.00 3.008106
347.10 3.006287
347.20 3.004336
347.30 3.002195
347.40 3.000057
347.50 2.99792
347.60 2.995785
347.70 2.993652
347.80 2.991522
347.90 2.989393
348.00 2.987266
348.10 2.985141
348.20 2.983018
348.30 2.980897
348.40 2.978778
348.50 2.976661
348.60 2.974545
348.70 2.972262
348.80 2.969929
348.90 2.967602
349.00 2.965277
349.10 2.962955
349.20 2.960635
349.30 2.958316
349.40 2.956
349.50 2.953687
349.60 2.951375
349.70 2.949065
349.80 2.946758
349.90 2.944453
350.00 2.94215
350.10 2.939849
350.20 2.93755
350.30 2.935194
350.40 2.932755
350.50 2.930318
350.60 2.927883
350.70 2.925451
350.80 2.92302
350.90 2.920593
351.00 2.918167
351.10 2.915744
351.20 2.913323
351.30 2.910904
351.40 2.908478
351.50 2.906035
351.60 2.903596
351.70 2.901158
351.80 2.898723
351.90 2.89629
352.00 2.893859
352.10 2.891431
352.20 2.889206
352.30 2.886911
352.40 2.884481
352.50 2.882054
352.60 2.87963
352.70 2.877207
352.80 2.874787
352.90 2.872369
353.00 2.869954
353.10 2.86754
353.20 2.865129
353.30 2.862721
353.40 2.860314
353.50 2.857941
353.60 2.855577
353.70 2.853216
353.80 2.850857
353.90 2.848503
354.00 2.846154
354.10 2.843807
354.20 2.841463
354.30 2.839121
354.40 2.836781
354.50 2.834443
354.60 2.832108
354.70 2.829775
354.80 2.827362
354.90 2.824836
355.00 2.822312
355.10 2.81979
355.20 2.817271
355.30 2.814923
355.40 2.812577
355.50 2.810234
355.60 2.807892
355.70 2.805593
355.80 2.803313
355.90 2.800762
356.00 2.798126
356.10 2.795592
356.20 2.79306
356.30 2.790531
356.40 2.788004
356.50 2.78548
356.60 2.782958
356.70 2.780438
356.80 2.777921
356.90 2.775406
357.00 2.772894
357.10 2.770384
357.20 2.767876
357.30 2.765371
357.40 2.762777
357.50 2.760024
357.60 2.757274
357.70 2.754527
357.80 2.751883
357.90 2.749241
358.00 2.746183
358.10 2.743023
358.20 2.739866
358.30 2.736712
358.40 2.733562
358.50 2.730414
358.60 2.72727
358.70 2.724128
358.80 2.72099
358.90 2.717854
359.00 2.714266
359.10 2.70987
359.20 2.705449
359.30 2.700841
359.40 2.696237
359.50 2.691596
359.60 2.686949
359.70 2.682307
359.80 2.676872
359.90 2.671443
360.00 2.665346
360.10 2.658058
360.20 2.650779
360.30 2.643507
360.40 2.636242
360.50 2.628985
360.60 2.619168
360.70 2.607953
360.80 2.596751
360.90 2.58556
361.00 2.573286
361.10 2.557377
361.20 2.540861
361.30 2.52468
361.40 2.549283
361.50 2.573144
361.60 2.583394
361.70 2.583551
361.80 2.584473
361.90 2.586756
362.00 2.589036
362.10 2.590984
362.20 2.59216
362.30 2.592115
362.40 2.59207
362.50 2.592025
362.60 2.591979
362.70 2.591264
362.80 2.590974
362.90 2.589938
363.00 2.588902
363.10 2.587836
363.20 2.58677
363.30 2.586989
363.40 2.586743
363.50 2.588067
363.60 2.589781
363.70 2.591318
363.80 2.592418
363.90 2.593417
364.00 2.594415
364.10 2.595411
364.20 2.596405
364.30 2.597547
364.40 2.598725
364.50 2.599661
364.60 2.600308
364.70 2.600955
364.80 2.6016
364.90 2.601342
365.00 2.601084
365.10 2.600437
365.20 2.599014
365.30 2.597979
365.40 2.597722
365.50 2.597465
365.60 2.597208
365.70 2.597198
365.80 2.597187
365.90 2.596737
366.00 2.596179
366.10 2.595141
366.20 2.594104
366.30 2.593067
366.40 2.592031
366.50 2.590644
366.60 2.589231
366.70 2.587527
366.80 2.585824
366.90 2.583879
367.00 2.581502
367.10 2.579127
367.20 2.576754
367.30 2.574383
367.40 2.572015
367.50 2.569057
367.60 2.565955
367.70 2.562339
367.80 2.558727
367.90 2.555119
368.00 2.551191
368.10 2.546773
368.20 2.54169
368.30 2.536603
368.40 2.531521
368.50 2.526444
368.60 2.521373
368.70 2.516306
368.80 2.511245
368.90 2.50605
369.00 2.500173
369.10 2.494193
369.20 2.487471
369.30 2.480802
369.40 2.47414
369.50 2.467485
369.60 2.459353
369.70 2.451228
369.80 2.443952
369.90 2.436691
370.00 2.429437
370.10 2.421717
370.20 2.414715
370.30 2.40774
370.40 2.400772
370.50 2.39823
370.60 2.404825
370.70 2.412299
370.80 2.418502
370.90 2.424698
371.00 2.427214
371.10 2.429689
371.20 2.432873
371.30 2.436053
371.40 2.440208
371.50 2.443511
371.60 2.446811
371.70 2.450106
371.80 2.453398
371.90 2.456686
372.00 2.460335
372.10 2.463827
372.20 2.465996
372.30 2.468163
372.40 2.470327
372.50 2.472488
372.60 2.474646
372.70 2.476802
372.80 2.477701
372.90 2.478598
373.00 2.479516
373.10 2.480433
373.20 2.479476
373.30 2.47852
373.40 2.474589
373.50 2.471778
373.60 2.471941
373.70 2.473959
373.80 2.475094
373.90 2.477247
374.00 2.478517
374.10 2.479785
374.20 2.481051
374.30 2.482316
374.40 2.48284
374.50 2.482623
374.60 2.482581
374.70 2.482552
374.80 2.482522
374.90 2.482492
375.00 2.481906
375.10 2.481319
375.20 2.480734
375.30 2.479307
375.40 2.477881
375.50 2.476456
375.60 2.475033
375.70 2.47361
375.80 2.472189
375.90 2.470769
376.00 2.468729
376.10 2.466302
376.20 2.463874
376.30 2.461448
376.40 2.459024
376.50 2.456443
376.60 2.453626
376.70 2.450812
376.80 2.447734
376.90 2.444394
377.00 2.441057
377.10 2.437722
377.20 2.4342
377.30 2.42996
377.40 2.425724
377.50 2.421492
377.60 2.41689
377.70 2.412292
377.80 2.407699
377.90 2.40311
378.00 2.398435
378.10 2.392394
378.20 2.386347
378.30 2.380305
378.40 2.37427
378.50 2.368241
378.60 2.362217
378.70 2.3562
378.80 2.350189
378.90 2.343792
379.00 2.336673
379.10 2.329092
379.20 2.321518
379.30 2.313403
379.40 2.304747
379.50 2.296101
379.60 2.287048
379.70 2.276936
379.80 2.265156
379.90 2.253388
380.00 2.241632
380.10 2.229888
380.20 2.218157
380.30 2.206437
380.40 2.194729
380.50 2.183033
380.60 2.168766
380.70 2.154782
380.80 2.140811
380.90 2.126856
381.00 2.112914
381.10 2.103774
381.20 2.091828
381.30 2.076071
381.40 2.060471
381.50 2.044411
381.60 2.028134
381.70 2.01202
381.80 2.000217
381.90 1.99917
382.00 1.988886
382.10 2.00631
382.20 2.029537
382.30 2.051887
382.40 2.071533
382.50 2.08714
382.60 2.10273
382.70 2.115613
382.80 2.123443
382.90 2.129258
383.00 2.135067
383.10 2.140869
383.20 2.14677
383.30 2.153058
383.40 2.159401
383.50 2.165829
383.60 2.173069
383.70 2.178804
383.80 2.184531
383.90 2.190253
384.00 2.195968
384.10 2.201677
384.20 2.20738
384.30 2.213076
384.40 2.218208
384.50 2.222777
384.60 2.22734
384.70 2.231898
384.80 2.236278
384.90 2.239657
385.00 2.242396
385.10 2.245131
385.20 2.247486
385.30 2.249511
385.40 2.251077
385.50 2.252186
385.60 2.253294
385.70 2.254401
385.80 2.25537
385.90 2.25583
386.00 2.255722
386.10 2.25493
386.20 2.252958
386.30 2.250986
386.40 2.248046
386.50 2.242784
386.60 2.235125
386.70 2.221315
386.80 2.192618
386.90 2.189406
387.00 2.19056
387.10 2.192196
387.20 2.193415
387.30 2.192646
387.40 2.189612
387.50 2.185106
387.60 2.178669
387.70 2.166508
387.80 2.154359
387.90 2.142222
388.00 2.128208
388.10 2.105597
388.20 2.070825
388.30 2.02806
388.40 1.985338
388.50 1.930242
388.60 1.845935
388.70 1.722708
388.80 1.501077
388.90 1.382043
389.00 1.580199
389.10 1.716699
389.20 1.809462
389.30 1.878735
389.40 1.932475
389.50 1.980142
389.60 2.017256
389.70 2.044531
389.80 2.063908
389.90 2.083266
390.00 2.102602
390.10 2.121919
390.20 2.141216
390.30 2.155552
390.40 2.164303
390.50 2.173046
390.60 2.181779
390.70 2.190503
390.80 2.197368
390.90 2.202378
391.00 2.206954
391.10 2.210761
391.20 2.214298
391.30 2.216167
391.40 2.217291
391.50 2.218413
391.60 2.219534
391.70 2.220654
391.80 2.221772
391.90 2.222424
392.00 2.222281
392.10 2.221732
392.20 2.22113
392.30 2.219768
392.40 2.218193
392.50 2.217063
392.60 2.215261
392.70 2.213343
392.80 2.211208
392.90 2.209489
393.00 2.207293
393.10 2.204917
393.20 2.202318
393.30 2.199523
393.40 2.196713
393.50 2.193339
393.60 2.190072
393.70 2.185874
393.80 2.182089
393.90 2.17764
394.00 2.173205
394.10 2.168319
394.20 2.162816
394.30 2.157199
394.40 2.151208
394.50 2.144005
394.60 2.136222
394.70 2.128057
394.80 2.118434
394.90 2.108802
395.00 2.098502
395.10 2.087205
395.20 2.074107
395.30 2.060738
395.40 2.047382
395.50 2.030827
395.60 2.013102
395.70 1.993323
395.80 1.967963
395.90 1.942629
396.00 1.916462
396.10 1.878204
396.20 1.830687
396.30 1.77796
396.40 1.701688
396.50 1.786282
396.60 1.89332
396.70 1.917516
396.80 1.907452
396.90 1.898901
397.00 1.929589
397.10 1.97081
397.20 1.995061
397.30 2.003055
397.40 2.005144
397.50 2.007231
397.60 2.009121
397.70 2.00904
397.80 2.00896
397.90 2.008376
398.00 2.006432
398.10 2.004489
398.20 2.00198
398.30 1.998831
398.40 1.99566
398.50 1.991645
398.60 1.986759
398.70 1.981087
398.80 1.975304
398.90 1.969174
399.00 1.962398
399.10 1.954897
399.20 1.946605
399.30 1.938322
399.40 1.930046
399.50 1.921779
399.60 1.912795
399.70 1.903553
399.80 1.894319
399.90 1.885095
400.00 1.875873
400.10 1.866465
400.20 1.856569
400.30 1.845924
400.40 1.835032
400.50 1.824256
400.60 1.81186
400.70 1.799654
400.80 1.786283
400.90 1.771739
401.00 1.75738
401.10 1.742798
401.20 1.727397
401.30 1.711113
401.40 1.693336
401.50 1.675102
401.60 1.656799
401.70 1.635708
401.80 1.612284
401.90 1.586313
402.00 1.559598
402.10 1.530798
402.20 1.501555
402.30 1.469646
402.40 1.433582
402.50 1.38503
402.60 1.348849
402.70 1.400279
402.80 1.444639
402.90 1.483206
403.00 1.520776
403.10 1.557033
403.20 1.590992
403.30 1.621098
403.40 1.648637
403.50 1.672665
403.60 1.695695
403.70 1.715284
403.80 1.732674
403.90 1.746262
404.00 1.759222
404.10 1.768403
404.20 1.774826
404.30 1.781244
404.40 1.784513
404.50 1.781384
404.60 1.778286
404.70 1.78089
404.80 1.785926
404.90 1.792413
405.00 1.798882
405.10 1.805627
405.20 1.812404
405.30 1.819175
405.40 1.825743
405.50 1.832305
405.60 1.83886
405.70 1.845408
405.80 1.85195
405.90 1.858485
406.00 1.864025
406.10 1.869558
406.20 1.875087
406.30 1.880609
406.40 1.886121
406.50 1.891608
406.60 1.896308
406.70 1.900822
406.80 1.905517
406.90 1.910252
407.00 1.914071
407.10 1.917885
407.20 1.921696
407.30 1.925503
407.40 1.929306
407.50 1.933104
407.60 1.936899
407.70 1.94069
407.80 1.944477
407.90 1.94823
408.00 1.95102
408.10 1.95368
408.20 1.95594
408.30 1.958223
408.40 1.960505
408.50 1.962905
408.60 1.964308
408.70 1.96571
408.80 1.967164
408.90 1.968797
409.00 1.969619
409.10 1.97044
409.20 1.97126
409.30 1.972079
409.40 1.972882
409.50 1.97323
409.60 1.973577
409.70 1.973889
409.80 1.974064
409.90 1.97424
410.00 1.974475
410.10 1.974026
410.20 1.973166
410.30 1.972205
410.40 1.971001
410.50 1.969028
410.60 1.967058
410.70 1.964794
410.80 1.961349
410.90 1.957909
411.00 1.953238
411.10 1.948117
411.20 1.943
411.30 1.937569
411.40 1.930787
411.50 1.92141
411.60 1.912042
411.70 1.901065
411.80 1.883633
411.90 1.864017
412.00 1.82585
412.10 1.713995
412.20 1.698365
412.30 1.72928
412.40 1.752749
412.50 1.769717
412.60 1.784521
412.70 1.795884
412.80 1.806378
412.90 1.816306
413.00 1.822288
413.10 1.825625
413.20 1.828959
413.30 1.832289
413.40 1.835616
413.50 1.838603
413.60 1.840179
413.70 1.841562
413.80 1.842942
413.90 1.844322
414.00 1.8453
414.10 1.845014
414.20 1.844582
414.30 1.842484
414.40 1.840629
414.50 1.840196
414.60 1.842714
414.70 1.846347
414.80 1.85023
414.90 1.85491
415.00 1.859585
415.10 1.864256
415.20 1.868845
415.30 1.873189
415.40 1.877529
415.50 1.881843
415.60 1.885456
415.70 1.889065
415.80 1.892676
415.90 1.896302
416.00 1.899923
416.10 1.903267
416.20 1.90551
416.30 1.907752
416.40 1.90999
416.50 1.912195
416.60 1.913368
416.70 1.914522
416.80 1.914752
416.90 1.913789
417.00 1.913406
417.10 1.91506
417.20 1.916822
417.30 1.918579
417.40 1.920183
417.50 1.921786
417.60 1.923391
417.70 1.92499
417.80 1.925949
417.90 1.926908
418.00 1.927865
418.10 1.928822
418.20 1.929777
418.30 1.930719
418.40 1.93126
418.50 1.931687
418.60 1.932114
418.70 1.93254
418.80 1.932965
418.90 1.933389
419.00 1.933813
419.10 1.934237
419.20 1.934659
419.30 1.935066
419.40 1.934977
419.50 1.934887
419.60 1.93479
419.70 1.934664
419.80 1.934537
419.90 1.934344
420.00 1.933941
420.10 1.933539
420.20 1.933136
420.30 1.932734
420.40 1.932332
420.50 1.931929
420.60 1.931528
420.70 1.931126
420.80 1.930724
420.90 1.930314
421.00 1.929607
421.10 1.928901
421.20 1.928164
421.30 1.927332
421.40 1.926501
421.50 1.92567
421.60 1.92484
421.70 1.92401
421.80 1.923181
421.90 1.922401
422.00 1.921776
422.10 1.921094
422.20 1.920184
422.30 1.919274
422.40 1.91836
422.50 1.917246
422.60 1.916133
422.70 1.915022
422.80 1.913911
422.90 1.912801
423.00 1.911691
423.10 1.910583
423.20 1.909475
423.30 1.908369
423.40 1.907263
423.50 1.906158
423.60 1.905053
423.70 1.90395
423.80 1.902847
423.90 1.901745
424.00 1.900644
424.10 1.899544
424.20 1.898445
424.30 1.897347
424.40 1.896286
424.50 1.894985
424.60 1.893686
424.70 1.892388
424.80 1.891091
424.90 1.889795
425.00 1.8885
