# Version 2.1 - nm, norm@500 to 1, cut digits, bergeron_He_4000_85.dat_4000
# Wavelength(nm)  Flambda(ergs/cm^s/s/nm)
300.00 0.03614487
300.10 0.03626567
300.20 0.03638665
300.30 0.03650821
300.40 0.03663457
300.50 0.03676076
300.60 0.03688677
300.70 0.0370126
300.80 0.03713826
300.90 0.03726374
301.00 0.03738905
301.10 0.03751419
301.20 0.03763915
301.30 0.03776393
301.40 0.03788854
301.50 0.03801298
301.60 0.03813725
301.70 0.03826134
301.80 0.03838526
301.90 0.038509
302.00 0.03863258
302.10 0.03876223
302.20 0.0388924
302.30 0.03902239
302.40 0.0391522
302.50 0.03928183
302.60 0.03941128
302.70 0.03954055
302.80 0.03966964
302.90 0.03979855
303.00 0.03992728
303.10 0.04005584
303.20 0.04018421
303.30 0.04031308
303.40 0.04044782
303.50 0.04058237
303.60 0.04071674
303.70 0.04085092
303.80 0.04098491
303.90 0.04111872
304.00 0.04125235
304.10 0.04138579
304.20 0.04151904
304.30 0.04165212
304.40 0.041785
304.50 0.04191771
304.60 0.04205702
304.70 0.0421969
304.80 0.04233659
304.90 0.04247608
305.00 0.04261538
305.10 0.04275449
305.20 0.04289341
305.30 0.04303213
305.40 0.04317067
305.50 0.04330902
305.60 0.04344717
305.70 0.04358514
305.80 0.04372291
305.90 0.0438605
306.00 0.04399789
306.10 0.0441351
306.20 0.04427212
306.30 0.04440895
306.40 0.04455425
306.50 0.04470193
306.60 0.04484941
306.70 0.04499669
306.80 0.04514377
306.90 0.04529065
307.00 0.04543733
307.10 0.0455838
307.20 0.04573008
307.30 0.04587615
307.40 0.04602203
307.50 0.0461677
307.60 0.04631318
307.70 0.04645846
307.80 0.04660354
307.90 0.04674842
308.00 0.0468931
308.10 0.04703759
308.20 0.04718188
308.30 0.04732597
308.40 0.04746986
308.50 0.04761356
308.60 0.04775706
308.70 0.04790037
308.80 0.04804438
308.90 0.04819079
309.00 0.0483425
309.10 0.048494
309.20 0.04864529
309.30 0.04879638
309.40 0.0489478
309.50 0.04910229
309.60 0.04925657
309.70 0.04941064
309.80 0.04956451
309.90 0.04971816
310.00 0.04987161
310.10 0.05002484
310.20 0.05017787
310.30 0.0503307
310.40 0.05048518
310.50 0.05064149
310.60 0.05079758
310.70 0.05095347
310.80 0.05110914
310.90 0.0512646
311.00 0.05141823
311.10 0.05157166
311.20 0.05172488
311.30 0.0518809
311.40 0.05204531
311.50 0.0522095
311.60 0.05237346
311.70 0.0525372
311.80 0.05270073
311.90 0.05286403
312.00 0.05302711
312.10 0.05318997
312.20 0.05333873
312.30 0.05348834
312.40 0.05365187
312.50 0.05381099
312.60 0.05398136
312.70 0.05415151
312.80 0.05432143
312.90 0.05448526
313.00 0.05464253
313.10 0.05479958
313.20 0.05495642
313.30 0.05511572
313.40 0.0552824
313.50 0.05544886
313.60 0.05561509
313.70 0.05578109
313.80 0.05594688
313.90 0.05611244
314.00 0.05627778
314.10 0.05644993
314.20 0.05662186
314.30 0.05679355
314.40 0.05696501
314.50 0.05713625
314.60 0.05730725
314.70 0.05747803
314.80 0.05764482
314.90 0.05782195
315.00 0.05802182
315.10 0.05819327
315.20 0.0583645
315.30 0.0585355
315.40 0.05870627
315.50 0.05887682
315.60 0.05904713
315.70 0.05922137
315.80 0.05939537
315.90 0.05956915
316.00 0.05974269
316.10 0.05990358
316.20 0.06006425
316.30 0.06027432
316.40 0.06043454
316.50 0.06061931
316.60 0.06080384
316.70 0.06098812
316.80 0.06117216
316.90 0.0613436
317.00 0.0615148
317.10 0.06168579
317.20 0.06185654
317.30 0.06204421
317.40 0.06222986
317.50 0.06241026
317.60 0.06259041
317.70 0.06277033
317.80 0.06295001
317.90 0.06313658
318.00 0.06332091
318.10 0.06350182
318.20 0.0636825
318.30 0.06386293
318.40 0.06404312
318.50 0.06422308
318.60 0.06440915
318.70 0.06461306
318.80 0.06480205
318.90 0.06497127
319.00 0.06516806
319.10 0.06534656
319.20 0.06552814
319.30 0.06571891
319.40 0.06590944
319.50 0.06609971
319.60 0.06628741
319.70 0.06647718
319.80 0.06666671
319.90 0.06685598
320.00 0.06705054
320.10 0.06725084
320.20 0.06744821
320.30 0.06760227
320.40 0.06783083
320.50 0.0680011
320.60 0.06820012
320.70 0.06839887
320.80 0.06859158
320.90 0.06877777
321.00 0.06896372
321.10 0.06914942
321.20 0.069382
321.30 0.06957171
321.40 0.06976118
321.50 0.06995039
321.60 0.07013936
321.70 0.07032808
321.80 0.07052946
321.90 0.07074455
322.00 0.07092328
322.10 0.0711232
322.20 0.07132286
322.30 0.07152226
322.40 0.07172139
322.50 0.07192026
322.60 0.07211888
322.70 0.07231723
322.80 0.07251236
322.90 0.0727211
323.00 0.07292957
323.10 0.07313776
323.20 0.07334569
323.30 0.07355334
323.40 0.07376073
323.50 0.07396784
323.60 0.07417468
323.70 0.07438126
323.80 0.07458756
323.90 0.0747936
324.00 0.07500026
324.10 0.07520666
324.20 0.07541278
324.30 0.07561595
324.40 0.07581717
324.50 0.0760246
324.60 0.07623175
324.70 0.07643864
324.80 0.07664526
324.90 0.07685161
325.00 0.07705769
325.10 0.0772635
325.20 0.07747179
325.30 0.07768564
325.40 0.07789921
325.50 0.0781118
325.60 0.07832326
325.70 0.07853444
325.80 0.07874535
325.90 0.07895925
326.00 0.07917641
326.10 0.07939329
326.20 0.07960988
326.30 0.07982461
326.40 0.08003451
326.50 0.08025483
326.60 0.08047487
326.70 0.08069462
326.80 0.08091409
326.90 0.08113328
327.00 0.08135218
327.10 0.0815708
327.20 0.08178913
327.30 0.08200719
327.40 0.08222496
327.50 0.08244245
327.60 0.08265966
327.70 0.08287659
327.80 0.08309324
327.90 0.0833105
328.00 0.08353279
328.10 0.08376009
328.20 0.08398711
328.30 0.08421383
328.40 0.08444025
328.50 0.08466196
328.60 0.08488234
328.70 0.08510243
328.80 0.08532542
328.90 0.08555714
329.00 0.08578856
329.10 0.08601968
329.20 0.08625051
329.30 0.08648104
329.40 0.08671127
329.50 0.08694121
329.60 0.08717086
329.70 0.08740021
329.80 0.08762926
329.90 0.08785803
330.00 0.08808888
330.10 0.08832233
330.20 0.0885555
330.30 0.08878836
330.40 0.08902199
330.50 0.08925649
330.60 0.08949069
330.70 0.08972458
330.80 0.08995818
330.90 0.09019148
331.00 0.09042448
331.10 0.09065718
331.20 0.09088959
331.30 0.0911217
331.40 0.09135351
331.50 0.09158664
331.60 0.09182144
331.70 0.09205594
331.80 0.09229715
331.90 0.09253835
332.00 0.09277924
332.10 0.09301983
332.20 0.0932601
332.30 0.09350007
332.40 0.09373974
332.50 0.0939791
332.60 0.09421816
332.70 0.09445691
332.80 0.09469536
332.90 0.0949335
333.00 0.09517134
333.10 0.09541315
333.20 0.09565988
333.30 0.09590629
333.40 0.09615239
333.50 0.09639817
333.60 0.09664364
333.70 0.09688881
333.80 0.09713366
333.90 0.0973782
334.00 0.09762243
334.10 0.09787035
334.20 0.09812284
334.30 0.09837502
334.40 0.09862688
334.50 0.09887841
334.60 0.09912963
334.70 0.09937517
334.80 0.09961637
334.90 0.0998609
335.00 0.1001051
335.10 0.100381
335.20 0.1006303
335.30 0.1008892
335.40 0.1011324
335.50 0.1013863
335.60 0.1016564
335.70 0.1018821
335.80 0.1021515
335.90 0.1024157
336.00 0.1026734
336.10 0.1029309
336.20 0.103188
336.30 0.1034464
336.40 0.1037066
336.50 0.1039664
336.60 0.1042258
336.70 0.104485
336.80 0.1047438
336.90 0.1049993
337.00 0.1052506
337.10 0.1055017
337.20 0.1057525
337.30 0.1060096
337.40 0.1062759
337.50 0.1065419
337.60 0.1068076
337.70 0.107073
337.80 0.107338
337.90 0.1076028
338.00 0.1078675
338.10 0.1081319
338.20 0.1083959
338.30 0.1086596
338.40 0.1089256
338.50 0.1091978
338.60 0.1094697
338.70 0.1097413
338.80 0.1100125
338.90 0.1102833
339.00 0.1105538
339.10 0.110824
339.20 0.1110939
339.30 0.1113613
339.40 0.1116254
339.50 0.111894
339.60 0.112168
339.70 0.1124417
339.80 0.1127151
339.90 0.1129881
340.00 0.1132607
340.10 0.1135331
340.20 0.113805
340.30 0.1140767
340.40 0.114348
340.50 0.114619
340.60 0.1148896
340.70 0.1151599
340.80 0.1154345
340.90 0.1157154
341.00 0.1159977
341.10 0.1162816
341.20 0.1165651
341.30 0.1168483
341.40 0.1171312
341.50 0.1174137
341.60 0.1176959
341.70 0.1179777
341.80 0.1182589
341.90 0.1185393
342.00 0.1188195
342.10 0.1190993
342.20 0.1193725
342.30 0.1196588
342.40 0.1199502
342.50 0.1202351
342.60 0.1205196
342.70 0.1208038
342.80 0.1210877
342.90 0.1213712
343.00 0.1216548
343.10 0.1219388
343.20 0.1222223
343.30 0.1225055
343.40 0.1227927
343.50 0.1230858
343.60 0.1233785
343.70 0.1236708
343.80 0.1239628
343.90 0.1242544
344.00 0.1245471
344.10 0.1248415
344.20 0.1251355
344.30 0.1254292
344.40 0.1257182
344.50 0.1260007
344.60 0.1263075
344.70 0.1265893
344.80 0.1268717
344.90 0.1271737
345.00 0.1274582
345.10 0.1277594
345.20 0.1280565
345.30 0.128348
345.40 0.1286391
345.50 0.1289454
345.60 0.1292599
345.70 0.1295589
345.80 0.1298575
345.90 0.1301557
346.00 0.1304536
346.10 0.1307512
346.20 0.1310517
346.30 0.1313568
346.40 0.1316615
346.50 0.1319658
346.60 0.1322698
346.70 0.1325733
346.80 0.1328766
346.90 0.1331794
347.00 0.1334819
347.10 0.1337839
347.20 0.1340894
347.30 0.1343998
347.40 0.1347098
347.50 0.1350194
347.60 0.1353287
347.70 0.1356376
347.80 0.1359461
347.90 0.1362542
348.00 0.1365619
348.10 0.1368693
348.20 0.1371763
348.30 0.1374829
348.40 0.1377892
348.50 0.1380951
348.60 0.1384006
348.70 0.1387122
348.80 0.1390272
348.90 0.1393444
349.00 0.1396612
349.10 0.1399775
349.20 0.1402935
349.30 0.1406092
349.40 0.1409244
349.50 0.1412392
349.60 0.1415537
349.70 0.1418678
349.80 0.1421815
349.90 0.1424948
350.00 0.1428077
350.10 0.1431203
350.20 0.1434324
350.30 0.1437494
350.40 0.1440734
350.50 0.1443971
350.60 0.1447203
350.70 0.1450431
350.80 0.1453656
350.90 0.1456876
351.00 0.1460093
351.10 0.1463306
351.20 0.1466515
351.30 0.146972
351.40 0.1472961
351.50 0.1476269
351.60 0.1479573
351.70 0.1482874
351.80 0.148617
351.90 0.1489462
352.00 0.1492751
352.10 0.1496035
352.20 0.1499224
352.30 0.1502457
352.40 0.1505769
352.50 0.1509078
352.60 0.1512382
352.70 0.1515683
352.80 0.151898
352.90 0.1522272
353.00 0.1525561
353.10 0.1528846
353.20 0.1532127
353.30 0.1535403
353.40 0.1538676
353.50 0.1542069
353.60 0.1545488
353.70 0.1548903
353.80 0.1552314
353.90 0.1555709
354.00 0.1559078
354.10 0.1562443
354.20 0.1565804
354.30 0.1569162
354.40 0.1572515
354.50 0.1575864
354.60 0.1579209
354.70 0.158255
354.80 0.1585913
354.90 0.1589308
355.00 0.1592699
355.10 0.1596086
355.20 0.1599469
355.30 0.1602948
355.40 0.1606422
355.50 0.1609892
355.60 0.1613358
355.70 0.1616825
355.80 0.1620291
355.90 0.162369
356.00 0.1627154
356.10 0.1630658
356.20 0.1634158
356.30 0.1637654
356.40 0.1641146
356.50 0.1644634
356.60 0.1648117
356.70 0.1651596
356.80 0.1655071
356.90 0.1658542
357.00 0.1662009
357.10 0.1665472
357.20 0.166893
357.30 0.1672385
357.40 0.1675879
357.50 0.1679449
357.60 0.1683015
357.70 0.1686577
357.80 0.169004
357.90 0.1693498
358.00 0.1697053
358.10 0.1700628
358.20 0.1704199
358.30 0.1707765
358.40 0.1711328
358.50 0.1714886
358.60 0.171844
358.70 0.1721989
358.80 0.1725535
358.90 0.1729076
359.00 0.1732671
359.10 0.1736366
359.20 0.1740031
359.30 0.1743518
359.40 0.1747
359.50 0.1750649
359.60 0.1754336
359.70 0.1758018
359.80 0.1761688
359.90 0.1765354
360.00 0.1769013
360.10 0.1772663
360.20 0.177631
360.30 0.1779951
360.40 0.1783589
360.50 0.1787222
360.60 0.1790632
360.70 0.1794312
360.80 0.1797988
360.90 0.180166
361.00 0.1805362
361.10 0.180912
361.20 0.1812683
361.30 0.1816622
361.40 0.1820367
361.50 0.1823728
361.60 0.1827464
361.70 0.1831196
361.80 0.1834923
361.90 0.1838646
362.00 0.1842364
362.10 0.1846078
362.20 0.1849818
362.30 0.1853606
362.40 0.185739
362.50 0.186117
362.60 0.1864944
362.70 0.1868649
362.80 0.1872521
362.90 0.1876176
363.00 0.1879827
363.10 0.1883604
363.20 0.1887377
363.30 0.1891436
363.40 0.1895093
363.50 0.1898746
363.60 0.1902769
363.70 0.1906622
363.80 0.191024
363.90 0.1914099
364.00 0.1917952
364.10 0.1921801
364.20 0.1925646
364.30 0.1929391
364.40 0.1933108
364.50 0.1936954
364.60 0.1940853
364.70 0.1944748
364.80 0.1948638
364.90 0.1952415
365.00 0.1956189
365.10 0.1960144
365.20 0.1964094
365.30 0.196804
365.40 0.1971981
365.50 0.1975732
365.60 0.1979478
365.70 0.1983457
365.80 0.198743
365.90 0.1991309
366.00 0.1995161
366.10 0.1999075
366.20 0.2002985
366.30 0.200689
366.40 0.2010791
366.50 0.2014795
366.60 0.2018918
366.70 0.202285
366.80 0.2026777
366.90 0.2030704
367.00 0.2034635
367.10 0.2038561
367.20 0.2042482
367.30 0.2046398
367.40 0.2050311
367.50 0.2054283
367.60 0.2058266
367.70 0.2062267
367.80 0.2066263
367.90 0.2070254
368.00 0.2074318
368.10 0.2078269
368.20 0.208232
368.30 0.2086368
368.40 0.2090412
368.50 0.2094451
368.60 0.2098486
368.70 0.2102515
368.80 0.210654
368.90 0.2110578
369.00 0.2114664
369.10 0.2118752
369.20 0.2122754
369.30 0.212682
369.40 0.2130882
369.50 0.2134939
369.60 0.2139026
369.70 0.2143108
369.80 0.2147149
369.90 0.2151184
370.00 0.2155214
370.10 0.2159486
370.20 0.2163578
370.30 0.2167658
370.40 0.2171551
370.50 0.2175802
370.60 0.2179877
370.70 0.2183983
370.80 0.2188193
370.90 0.2192398
371.00 0.2196472
371.10 0.220054
371.20 0.2204731
371.30 0.2208917
371.40 0.2212949
371.50 0.2217115
371.60 0.2221277
371.70 0.2225433
371.80 0.2229585
371.90 0.2233732
372.00 0.2237964
372.10 0.2242138
372.20 0.2246367
372.30 0.2250592
372.40 0.2254811
372.50 0.2259025
372.60 0.2263235
372.70 0.226744
372.80 0.2271553
372.90 0.2275662
373.00 0.2279997
373.10 0.2284329
373.20 0.228845
373.30 0.2292567
373.40 0.2297034
373.50 0.2301141
373.60 0.2305421
373.70 0.2309696
373.80 0.2313921
373.90 0.2318231
374.00 0.2322491
374.10 0.2326746
374.20 0.2330997
374.30 0.2335243
374.40 0.2339527
374.50 0.2344013
374.60 0.2348263
374.70 0.2352502
374.80 0.2356737
374.90 0.2360967
375.00 0.2365355
375.10 0.2369738
375.20 0.2374116
375.30 0.2378438
375.40 0.2382756
375.50 0.2387069
375.60 0.2391376
375.70 0.2395679
375.80 0.2399977
375.90 0.240427
376.00 0.24089
376.10 0.2413279
376.20 0.241765
376.30 0.2422016
376.40 0.2426377
376.50 0.2430744
376.60 0.2435125
376.70 0.2439501
376.80 0.2443891
376.90 0.2448295
377.00 0.2452694
377.10 0.2457088
377.20 0.2461469
377.30 0.2465812
377.40 0.247015
377.50 0.2474484
377.60 0.2479
377.70 0.2483511
377.80 0.2488017
377.90 0.2492518
378.00 0.2496721
378.10 0.250122
378.20 0.250572
378.30 0.2510216
378.40 0.2514707
378.50 0.2519192
378.60 0.2523672
378.70 0.2528148
378.80 0.2532618
378.90 0.2537114
379.00 0.2541662
379.10 0.2546123
379.20 0.2550579
379.30 0.2555081
379.40 0.2559629
379.50 0.2564172
379.60 0.256867
379.70 0.2573128
379.80 0.2577675
379.90 0.2582217
380.00 0.2586753
380.10 0.2591285
380.20 0.2595812
380.30 0.2600333
380.40 0.2604849
380.50 0.2609361
380.60 0.2613873
380.70 0.2618493
380.80 0.2623107
380.90 0.2627717
381.00 0.2632321
381.10 0.263692
381.20 0.26414
381.30 0.2645803
381.40 0.265044
381.50 0.2655172
381.60 0.2659857
381.70 0.2664449
381.80 0.2668967
381.90 0.2673525
382.00 0.2678077
382.10 0.2682965
382.20 0.2687507
382.30 0.2692044
382.40 0.2696655
382.50 0.2701382
382.60 0.2706103
382.70 0.2710729
382.80 0.271532
382.90 0.2719978
383.00 0.2724631
383.10 0.2729278
383.20 0.2733941
383.30 0.2738673
383.40 0.274335
383.50 0.2747946
383.60 0.2752799
383.70 0.2757493
383.80 0.2762183
383.90 0.2766867
384.00 0.2771546
384.10 0.2776219
384.20 0.2780888
384.30 0.2785551
384.40 0.2790248
384.50 0.2794978
384.60 0.2799704
384.70 0.2804424
384.80 0.2809153
384.90 0.2813908
385.00 0.2818626
385.10 0.2823349
385.20 0.2828302
385.30 0.2832943
385.40 0.2837681
385.50 0.2842514
385.60 0.2847343
385.70 0.2852166
385.80 0.2856971
385.90 0.2861728
386.00 0.2866433
386.10 0.2871102
386.20 0.2875911
386.30 0.2880714
386.40 0.2885661
386.50 0.2890375
386.60 0.2895243
386.70 0.2900135
386.80 0.2904938
386.90 0.2909736
387.00 0.2914595
387.10 0.2919383
387.20 0.2924237
387.30 0.2928941
387.40 0.2933941
387.50 0.2938743
387.60 0.2943535
387.70 0.2948456
387.80 0.2953371
387.90 0.295828
388.00 0.2963122
388.10 0.2967831
388.20 0.297284
388.30 0.2977683
388.40 0.2982521
388.50 0.2987447
388.60 0.2992454
388.70 0.2997178
388.80 0.300219
388.90 0.3007209
389.00 0.3011958
389.10 0.3016903
389.20 0.3021906
389.30 0.3026845
389.40 0.3031669
389.50 0.3036577
389.60 0.3041585
389.70 0.3046519
389.80 0.3051511
389.90 0.3056497
390.00 0.3061478
390.10 0.3066454
390.20 0.3071424
390.30 0.3076397
390.40 0.3081373
390.50 0.3086344
390.60 0.3091309
390.70 0.3096269
390.80 0.3101259
390.90 0.3106278
391.00 0.3111181
391.10 0.3116206
391.20 0.3121217
391.30 0.3126227
391.40 0.3131272
391.50 0.313631
391.60 0.3141343
391.70 0.3146371
391.80 0.3151393
391.90 0.3156419
392.00 0.3161422
392.10 0.3166377
392.20 0.3171328
392.30 0.3176391
392.40 0.3181556
392.50 0.3186639
392.60 0.3191673
392.70 0.3196646
392.80 0.3201717
392.90 0.3207034
393.00 0.3212752
393.10 0.3218292
393.20 0.3223584
393.30 0.3228362
393.40 0.3232558
393.50 0.3236717
393.60 0.3242809
393.70 0.3246845
393.80 0.3252173
393.90 0.325692
394.00 0.3262014
394.10 0.3268871
394.20 0.3273698
394.30 0.3278055
394.40 0.3283717
394.50 0.3287904
394.60 0.329336
394.70 0.329885
394.80 0.3304483
394.90 0.3310093
395.00 0.3315038
395.10 0.3318308
395.20 0.3323374
395.30 0.3328935
395.40 0.333449
395.50 0.3339465
395.60 0.3344222
395.70 0.3349119
395.80 0.3354401
395.90 0.3359677
396.00 0.3365015
396.10 0.3370657
396.20 0.3375279
396.30 0.3380323
396.40 0.3386514
396.50 0.3392698
396.60 0.3398324
396.70 0.3401976
396.80 0.3408199
396.90 0.3412407
397.00 0.3416671
397.10 0.3422819
397.20 0.3427923
397.30 0.3435392
397.40 0.3440581
397.50 0.3445764
397.60 0.3450921
397.70 0.3455862
397.80 0.3460798
397.90 0.3465742
398.00 0.3470714
398.10 0.3475681
398.20 0.3481108
398.30 0.3487054
398.40 0.3492978
398.50 0.3498438
398.60 0.3503533
398.70 0.3508216
398.80 0.3512825
398.90 0.3517628
399.00 0.3522793
399.10 0.3527903
399.20 0.3533279
399.30 0.3538649
399.40 0.3544013
399.50 0.3549371
399.60 0.355483
399.70 0.3560322
399.80 0.3565809
399.90 0.3571289
400.00 0.357676
400.10 0.3582127
400.20 0.3587541
400.30 0.359255
400.40 0.3598097
400.50 0.3604751
400.60 0.3608596
400.70 0.3614523
400.80 0.3620444
400.90 0.3626358
401.00 0.3629904
401.10 0.3635082
401.20 0.3640192
401.30 0.3646616
401.40 0.3652128
401.50 0.3657151
401.60 0.3662176
401.70 0.3667451
401.80 0.3674781
401.90 0.3679754
402.00 0.3685613
402.10 0.3689698
402.20 0.3694399
402.30 0.3700059
402.40 0.3706772
402.50 0.3713003
402.60 0.3717447
402.70 0.3721558
402.80 0.3727358
402.90 0.3733151
403.00 0.3738939
403.10 0.374472
403.20 0.374918
403.30 0.3754362
403.40 0.3761583
403.50 0.376739
403.60 0.3772513
403.70 0.3776232
403.80 0.3783701
403.90 0.3788742
404.00 0.3793658
404.10 0.3799153
404.20 0.3804868
404.30 0.3810577
404.40 0.3816417
404.50 0.3821976
404.60 0.3827666
404.70 0.3833351
404.80 0.3837779
404.90 0.3844701
405.00 0.3849928
405.10 0.3855164
405.20 0.3859738
405.30 0.3864308
405.40 0.3869952
405.50 0.3875589
405.60 0.3881221
405.70 0.3886846
405.80 0.3892465
405.90 0.3898079
406.00 0.3904035
406.10 0.3909984
406.20 0.3915927
406.30 0.3921864
406.40 0.3927558
406.50 0.3933149
406.60 0.3937205
406.70 0.3943333
406.80 0.3949595
406.90 0.3954117
407.00 0.3959964
407.10 0.3965805
407.20 0.397164
407.30 0.3977469
407.40 0.3983291
407.50 0.3989107
407.60 0.3994917
407.70 0.4000721
407.80 0.4006519
407.90 0.4012273
408.00 0.4016824
408.10 0.4021556
408.20 0.4027285
408.30 0.403307
408.40 0.403885
408.50 0.4044913
408.60 0.4050134
408.70 0.4055349
408.80 0.4060894
408.90 0.4068465
409.00 0.4073879
409.10 0.4079287
409.20 0.4084689
409.30 0.4090086
409.40 0.4095475
409.50 0.4100796
409.60 0.4106111
409.70 0.4111592
409.80 0.4117758
409.90 0.4123929
410.00 0.4130517
410.10 0.4135881
410.20 0.4141792
410.30 0.4147834
410.40 0.4153798
410.50 0.4159525
410.60 0.4165246
410.70 0.4170842
410.80 0.4175956
410.90 0.4181064
411.00 0.4187033
411.10 0.4193316
411.20 0.4199591
411.30 0.4205703
411.40 0.421117
411.50 0.4216373
411.60 0.4221571
411.70 0.4227071
411.80 0.4233799
411.90 0.4240227
412.00 0.4245478
412.10 0.4250724
412.20 0.4255965
412.30 0.4261237
412.40 0.4266745
412.50 0.4274361
412.60 0.4278537
412.70 0.4284062
412.80 0.4289919
412.90 0.4297079
413.00 0.4302537
413.10 0.4308533
413.20 0.4314523
413.30 0.4320506
413.40 0.4326483
413.50 0.433205
413.60 0.4336465
413.70 0.4342343
413.80 0.4348215
413.90 0.4354082
414.00 0.4360115
414.10 0.4366693
414.20 0.4372916
414.30 0.4378034
414.40 0.4383147
414.50 0.4391076
414.60 0.4396243
414.70 0.4401338
414.80 0.44066
414.90 0.4412405
415.00 0.4418204
415.10 0.4423996
415.20 0.442982
415.30 0.4435755
415.40 0.4441684
415.50 0.4447612
