# Version 2.1 - nm, norm@500 to 1, cut digits, bergeron_He_12000_85.dat_12000
# Wavelength(nm)  Flambda(ergs/cm^s/s/nm)
300.00 2.624013
300.10 2.622982
300.20 2.621948
300.30 2.620916
300.40 2.619903
300.50 2.618891
300.60 2.61788
300.70 2.61687
300.80 2.61586
300.90 2.614851
301.00 2.613843
301.10 2.612836
301.20 2.611829
301.30 2.610823
301.40 2.609818
301.50 2.608813
301.60 2.60781
301.70 2.606807
301.80 2.605805
301.90 2.604804
302.00 2.603803
302.10 2.602809
302.20 2.601817
302.30 2.600826
302.40 2.599835
302.50 2.598845
302.60 2.597856
302.70 2.596868
302.80 2.59588
302.90 2.594893
303.00 2.593907
303.10 2.592921
303.20 2.591936
303.30 2.590946
303.40 2.589904
303.50 2.588862
303.60 2.587821
303.70 2.586781
303.80 2.585741
303.90 2.584703
304.00 2.583665
304.10 2.582628
304.20 2.581592
304.30 2.580556
304.40 2.579522
304.50 2.578488
304.60 2.57747
304.70 2.576454
304.80 2.57544
304.90 2.574426
305.00 2.573413
305.10 2.5724
305.20 2.571389
305.30 2.570378
305.40 2.569368
305.50 2.568359
305.60 2.56735
305.70 2.566342
305.80 2.565335
305.90 2.564329
306.00 2.563324
306.10 2.562319
306.20 2.561315
306.30 2.560312
306.40 2.559283
306.50 2.558246
306.60 2.557211
306.70 2.556176
306.80 2.555142
306.90 2.554109
307.00 2.553076
307.10 2.552044
307.20 2.551014
307.30 2.549984
307.40 2.548954
307.50 2.547926
307.60 2.546898
307.70 2.545871
307.80 2.544845
307.90 2.54382
308.00 2.542795
308.10 2.541772
308.20 2.540749
308.30 2.539727
308.40 2.538705
308.50 2.537685
308.60 2.536665
308.70 2.535646
308.80 2.53462
308.90 2.533571
309.00 2.532544
309.10 2.531518
309.20 2.530494
309.30 2.529469
309.40 2.528441
309.50 2.527384
309.60 2.526328
309.70 2.525272
309.80 2.524218
309.90 2.523164
310.00 2.522111
310.10 2.521059
310.20 2.520008
310.30 2.518957
310.40 2.517923
310.50 2.516907
310.60 2.515892
310.70 2.514878
310.80 2.513865
310.90 2.512852
311.00 2.511728
311.10 2.510605
311.20 2.509482
311.30 2.508381
311.40 2.507337
311.50 2.506294
311.60 2.505251
311.70 2.504209
311.80 2.503169
311.90 2.502129
312.00 2.50109
312.10 2.500051
312.20 2.499083
312.30 2.498152
312.40 2.49716
312.50 2.496024
312.60 2.494916
312.70 2.49381
312.80 2.492704
312.90 2.491613
313.00 2.490537
313.10 2.489462
313.20 2.488388
313.30 2.487324
313.40 2.486285
313.50 2.485248
313.60 2.484211
313.70 2.483175
313.80 2.48214
313.90 2.481105
314.00 2.480072
314.10 2.478959
314.20 2.477846
314.30 2.476735
314.40 2.475624
314.50 2.474515
314.60 2.473406
314.70 2.472298
314.80 2.471191
314.90 2.470093
315.00 2.469009
315.10 2.467801
315.20 2.466593
315.30 2.465386
315.40 2.464181
315.50 2.462976
315.60 2.461773
315.70 2.46057
315.80 2.459369
315.90 2.458168
316.00 2.456969
316.10 2.455593
316.20 2.454217
316.30 2.453021
316.40 2.451471
316.50 2.450277
316.60 2.448729
316.70 2.447183
316.80 2.445639
316.90 2.444095
317.00 2.442554
317.10 2.441013
317.20 2.439474
317.30 2.437531
317.40 2.435437
317.50 2.432909
317.60 2.430384
317.70 2.427862
317.80 2.425342
317.90 2.42127
318.00 2.416121
318.10 2.408451
318.20 2.400791
318.30 2.393141
318.40 2.383903
318.50 2.370136
318.60 2.355703
318.70 2.341656
318.80 2.333871
318.90 2.339681
319.00 2.350428
319.10 2.362052
319.20 2.372395
319.30 2.379122
319.40 2.38584
319.50 2.392549
319.60 2.397641
319.70 2.399731
319.80 2.401818
319.90 2.403902
320.00 2.405264
320.10 2.405843
320.20 2.406428
320.30 2.406487
320.40 2.406578
320.50 2.406358
320.60 2.405888
320.70 2.405598
320.80 2.405142
320.90 2.404506
321.00 2.403871
321.10 2.403236
321.20 2.402374
321.30 2.401594
321.40 2.400815
321.50 2.400036
321.60 2.399258
321.70 2.39848
321.80 2.397583
321.90 2.396557
322.00 2.3957
322.10 2.394767
322.20 2.393835
322.30 2.392903
322.40 2.391972
322.50 2.391042
322.60 2.390112
322.70 2.389183
322.80 2.388116
322.90 2.387122
323.00 2.386128
323.10 2.385136
323.20 2.384144
323.30 2.383152
323.40 2.382162
323.50 2.381172
323.60 2.380183
323.70 2.379195
323.80 2.378208
323.90 2.377221
324.00 2.376207
324.10 2.375194
324.20 2.374181
324.30 2.373277
324.40 2.372463
324.50 2.371415
324.60 2.370368
324.70 2.369321
324.80 2.368276
324.90 2.367231
325.00 2.366187
325.10 2.365144
325.20 2.36412
325.30 2.363135
325.40 2.362151
325.50 2.361147
325.60 2.360119
325.70 2.359093
325.80 2.358067
325.90 2.357029
326.00 2.35598
326.10 2.354932
326.20 2.353884
326.30 2.352872
326.40 2.35196
326.50 2.350911
326.60 2.349861
326.70 2.348813
326.80 2.347766
326.90 2.346719
327.00 2.345674
327.10 2.344629
327.20 2.343585
327.30 2.342542
327.40 2.341499
327.50 2.340458
327.60 2.339417
327.70 2.338377
327.80 2.337338
327.90 2.336268
328.00 2.335213
328.10 2.334217
328.20 2.333221
328.30 2.332227
328.40 2.331233
328.50 2.330196
328.60 2.329149
328.70 2.328103
328.80 2.327062
328.90 2.326037
329.00 2.325013
329.10 2.323989
329.20 2.322967
329.30 2.321945
329.40 2.320924
329.50 2.319904
329.60 2.318884
329.70 2.317866
329.80 2.316848
329.90 2.315831
330.00 2.314788
330.10 2.313715
330.20 2.312642
330.30 2.311571
330.40 2.310527
330.50 2.309512
330.60 2.308499
330.70 2.307486
330.80 2.306474
330.90 2.305463
331.00 2.304453
331.10 2.303444
331.20 2.302435
331.30 2.301427
331.40 2.30042
331.50 2.299417
331.60 2.29842
331.70 2.297424
331.80 2.296377
331.90 2.295328
332.00 2.294279
332.10 2.293232
332.20 2.292186
332.30 2.29114
332.40 2.290095
332.50 2.289051
332.60 2.288008
332.70 2.286966
332.80 2.285924
332.90 2.284884
333.00 2.283844
333.10 2.282814
333.20 2.281797
333.30 2.28078
333.40 2.279764
333.50 2.278748
333.60 2.277734
333.70 2.27672
333.80 2.275707
333.90 2.274695
334.00 2.273684
334.10 2.272659
334.20 2.271618
334.30 2.270577
334.40 2.269538
334.50 2.268499
334.60 2.26746
334.70 2.266418
334.80 2.265393
334.90 2.264403
335.00 2.263414
335.10 2.262282
335.20 2.261249
335.30 2.260114
335.40 2.259241
335.50 2.258052
335.60 2.25718
335.70 2.256096
335.80 2.255068
335.90 2.254041
336.00 2.253014
336.10 2.251989
336.20 2.250964
336.30 2.24994
336.40 2.248917
336.50 2.247894
336.60 2.246873
336.70 2.245852
336.80 2.244832
336.90 2.243811
337.00 2.24279
337.10 2.241769
337.20 2.24075
337.30 2.239733
337.40 2.23872
337.50 2.237708
337.60 2.236696
337.70 2.235686
337.80 2.234676
337.90 2.233662
338.00 2.232642
338.10 2.231623
338.20 2.230605
338.30 2.229587
338.40 2.228564
338.50 2.227528
338.60 2.226491
338.70 2.225456
338.80 2.224422
338.90 2.223388
339.00 2.222355
339.10 2.221324
339.20 2.220292
339.30 2.219277
339.40 2.218285
339.50 2.217279
339.60 2.216257
339.70 2.215236
339.80 2.214216
339.90 2.213197
340.00 2.212178
340.10 2.21116
340.20 2.210143
340.30 2.209127
340.40 2.208112
340.50 2.207097
340.60 2.206083
340.70 2.205071
340.80 2.204071
340.90 2.20309
341.00 2.20209
341.10 2.201067
341.20 2.200044
341.30 2.199022
341.40 2.198001
341.50 2.196981
341.60 2.195962
341.70 2.194943
341.80 2.193934
341.90 2.192937
342.00 2.191941
342.10 2.190946
342.20 2.189894
342.30 2.18879
342.40 2.187744
342.50 2.186721
342.60 2.185699
342.70 2.184678
342.80 2.183657
342.90 2.182638
343.00 2.181639
343.10 2.180667
343.20 2.179695
343.30 2.178724
343.40 2.177714
343.50 2.176647
343.60 2.175581
343.70 2.174516
343.80 2.173452
343.90 2.172389
344.00 2.171336
344.10 2.1703
344.20 2.169264
344.30 2.168229
344.40 2.167226
344.50 2.166267
344.60 2.165187
344.70 2.16423
344.80 2.163274
344.90 2.162177
345.00 2.161188
345.10 2.160234
345.20 2.159283
345.30 2.158335
345.40 2.157387
345.50 2.156434
345.60 2.155457
345.70 2.154458
345.80 2.15346
345.90 2.152462
346.00 2.151466
346.10 2.15047
346.20 2.149471
346.30 2.148467
346.40 2.147464
346.50 2.146462
346.60 2.14546
346.70 2.144459
346.80 2.143459
346.90 2.14246
347.00 2.141462
347.10 2.140464
347.20 2.13947
347.30 2.138479
347.40 2.13749
347.50 2.136501
347.60 2.135513
347.70 2.134526
347.80 2.133539
347.90 2.132554
348.00 2.131569
348.10 2.130585
348.20 2.129601
348.30 2.128619
348.40 2.127637
348.50 2.126656
348.60 2.125676
348.70 2.124679
348.80 2.123676
348.90 2.122673
349.00 2.121671
349.10 2.12067
349.20 2.119669
349.30 2.11867
349.40 2.117671
349.50 2.116672
349.60 2.115675
349.70 2.114678
349.80 2.113683
349.90 2.112688
350.00 2.111694
350.10 2.1107
350.20 2.109708
350.30 2.108715
350.40 2.107721
350.50 2.106728
350.60 2.105736
350.70 2.104744
350.80 2.103754
350.90 2.102764
351.00 2.101775
351.10 2.100787
351.20 2.099799
351.30 2.098813
351.40 2.097821
351.50 2.096821
351.60 2.095821
351.70 2.094822
351.80 2.093824
351.90 2.092826
352.00 2.09183
352.10 2.090834
352.20 2.089839
352.30 2.088848
352.40 2.08786
352.50 2.086872
352.60 2.085886
352.70 2.0849
352.80 2.083915
352.90 2.082931
353.00 2.081948
353.10 2.080965
353.20 2.079984
353.30 2.079003
353.40 2.078022
353.50 2.07704
353.60 2.076058
353.70 2.075076
353.80 2.074095
353.90 2.073114
354.00 2.072133
354.10 2.071153
354.20 2.070174
354.30 2.069196
354.40 2.068218
354.50 2.067241
354.60 2.066265
354.70 2.065289
354.80 2.06429
354.90 2.063254
355.00 2.06222
355.10 2.061187
355.20 2.060154
355.30 2.059191
355.40 2.058228
355.50 2.057266
355.60 2.056305
355.70 2.055293
355.80 2.054258
355.90 2.053362
356.00 2.052433
356.10 2.051436
356.20 2.050439
356.30 2.049444
356.40 2.048449
356.50 2.047455
356.60 2.046462
356.70 2.045469
356.80 2.044477
356.90 2.043487
357.00 2.042497
357.10 2.041507
357.20 2.040519
357.30 2.039531
357.40 2.038548
357.50 2.037574
357.60 2.0366
357.70 2.035627
357.80 2.034615
357.90 2.033605
358.00 2.0326
358.10 2.031598
358.20 2.030597
358.30 2.029596
358.40 2.028596
358.50 2.027597
358.60 2.026599
358.70 2.025601
358.80 2.024605
358.90 2.023609
359.00 2.022611
359.10 2.021608
359.20 2.020606
359.30 2.019599
359.40 2.018594
359.50 2.017573
359.60 2.016549
359.70 2.015526
359.80 2.01451
359.90 2.013495
360.00 2.012443
360.10 2.011325
360.20 2.010209
360.30 2.009093
360.40 2.007978
360.50 2.006864
360.60 2.005727
360.70 2.004547
360.80 2.003367
360.90 2.002189
361.00 2.000861
361.10 1.999655
361.20 1.998548
361.30 1.997442
361.40 1.996596
361.50 1.995886
361.60 1.995092
361.70 1.994397
361.80 1.99367
361.90 1.992886
362.00 1.992103
362.10 1.991368
362.20 1.990595
362.30 1.989734
362.40 1.988874
362.50 1.988014
362.60 1.987155
362.70 1.986407
362.80 1.985552
362.90 1.984727
363.00 1.983902
363.10 1.982934
363.20 1.981966
363.30 1.980899
363.40 1.980146
363.50 1.979258
363.60 1.978439
363.70 1.9775
363.80 1.976533
363.90 1.975574
364.00 1.974617
364.10 1.97366
364.20 1.972704
364.30 1.971766
364.40 1.970833
364.50 1.97002
364.60 1.969028
364.70 1.968037
364.80 1.967047
364.90 1.966103
365.00 1.965159
365.10 1.96435
365.20 1.963274
365.30 1.962466
365.40 1.961392
365.50 1.960452
365.60 1.959513
365.70 1.958562
365.80 1.957612
365.90 1.956684
366.00 1.955763
366.10 1.954825
366.20 1.953888
366.30 1.952951
366.40 1.952016
366.50 1.95096
366.60 1.95016
366.70 1.949197
366.80 1.948234
366.90 1.947288
367.00 1.946369
367.10 1.945451
367.20 1.944534
367.30 1.943618
367.40 1.942702
367.50 1.941673
367.60 1.940617
367.70 1.9397
367.80 1.938784
367.90 1.937868
368.00 1.936926
368.10 1.935873
368.20 1.934958
368.30 1.934045
368.40 1.933133
368.50 1.932221
368.60 1.93131
368.70 1.930399
368.80 1.92949
368.90 1.928531
369.00 1.927486
369.10 1.926442
369.20 1.925659
369.30 1.924704
369.40 1.923749
369.50 1.922794
369.60 1.921884
369.70 1.920973
369.80 1.920005
369.90 1.919038
370.00 1.918071
370.10 1.917084
370.20 1.916177
370.30 1.915272
370.40 1.914239
370.50 1.913206
370.60 1.912433
370.70 1.911401
370.80 1.910499
370.90 1.909597
371.00 1.908698
371.10 1.907799
371.20 1.9069
371.30 1.906001
371.40 1.905028
371.50 1.904147
371.60 1.903266
371.70 1.902386
371.80 1.901506
371.90 1.900627
372.00 1.899607
372.10 1.898586
372.20 1.897652
372.30 1.896718
372.40 1.895785
372.50 1.894852
372.60 1.893921
372.70 1.89299
372.80 1.892102
372.90 1.891215
373.00 1.890329
373.10 1.889444
373.20 1.888559
373.30 1.887675
373.40 1.886664
373.50 1.885654
373.60 1.8849
373.70 1.883891
373.80 1.882939
373.90 1.882131
374.00 1.881188
374.10 1.880246
374.20 1.879305
374.30 1.878364
374.40 1.877519
374.50 1.876612
374.60 1.875673
374.70 1.874735
374.80 1.873798
374.90 1.872862
375.00 1.871948
375.10 1.871034
375.20 1.870121
375.30 1.869197
375.40 1.868273
375.50 1.86735
375.60 1.866428
375.70 1.865507
375.80 1.864586
375.90 1.863666
376.00 1.862924
376.10 1.86199
376.20 1.861055
376.30 1.860121
376.40 1.859187
376.50 1.858267
376.60 1.857367
376.70 1.856467
376.80 1.855554
376.90 1.854628
377.00 1.853703
377.10 1.852778
377.20 1.851858
377.30 1.850955
377.40 1.850052
377.50 1.849149
377.60 1.848224
377.70 1.8473
377.80 1.846376
377.90 1.845453
378.00 1.844509
378.10 1.843562
378.20 1.842616
378.30 1.841671
378.40 1.840727
378.50 1.839783
378.60 1.83884
378.70 1.837897
378.80 1.836956
378.90 1.836069
379.00 1.835284
379.10 1.834316
379.20 1.833348
379.30 1.832382
379.40 1.831416
379.50 1.830451
379.60 1.829487
379.70 1.828511
379.80 1.827488
379.90 1.826466
380.00 1.825445
380.10 1.824425
380.20 1.823405
380.30 1.822387
380.40 1.821369
380.50 1.820352
380.60 1.81935
380.70 1.818283
380.80 1.817217
380.90 1.816151
381.00 1.815086
381.10 1.814134
381.20 1.813182
381.30 1.812186
381.40 1.810993
381.50 1.809918
381.60 1.808895
381.70 1.807884
381.80 1.806756
381.90 1.805444
382.00 1.804621
382.10 1.804042
382.20 1.803561
382.30 1.80286
382.40 1.80213
382.50 1.801354
382.60 1.800578
382.70 1.799843
382.80 1.799112
382.90 1.798342
383.00 1.797573
383.10 1.796804
383.20 1.796028
383.30 1.795225
383.40 1.794438
383.50 1.793675
383.60 1.79299
383.70 1.792151
383.80 1.791313
383.90 1.790475
384.00 1.789638
384.10 1.788802
384.20 1.787966
384.30 1.787131
384.40 1.786248
384.50 1.785319
384.60 1.784391
384.70 1.783464
384.80 1.782537
384.90 1.781611
385.00 1.780685
385.10 1.779761
385.20 1.778837
385.30 1.777913
385.40 1.776963
385.50 1.775985
385.60 1.775009
385.70 1.774033
385.80 1.77304
385.90 1.771981
386.00 1.770909
386.10 1.769813
386.20 1.76862
386.30 1.767429
386.40 1.766318
386.50 1.765126
386.60 1.763835
386.70 1.762507
386.80 1.761239
386.90 1.759735
387.00 1.758167
387.10 1.756665
387.20 1.754945
387.30 1.752955
387.40 1.751038
387.50 1.748625
387.60 1.745852
387.70 1.742053
387.80 1.738258
387.90 1.734467
388.00 1.730248
388.10 1.724152
388.20 1.714483
388.30 1.702443
388.40 1.690416
388.50 1.675863
388.60 1.655932
388.70 1.632129
388.80 1.610836
388.90 1.603909
389.00 1.619304
389.10 1.640557
389.20 1.660291
389.30 1.676273
389.40 1.688642
389.50 1.699176
389.60 1.706577
389.70 1.711283
389.80 1.713709
389.90 1.716132
390.00 1.718552
390.10 1.72097
390.20 1.723385
390.30 1.7248
390.40 1.725091
390.50 1.72538
390.60 1.725669
390.70 1.725958
390.80 1.725989
390.90 1.725764
391.00 1.725444
391.10 1.725126
391.20 1.724755
391.30 1.724186
391.40 1.723615
391.50 1.723043
391.60 1.722473
391.70 1.721902
391.80 1.721333
391.90 1.720719
392.00 1.720052
392.10 1.719375
392.20 1.71868
392.30 1.717883
392.40 1.71716
392.50 1.716325
392.60 1.715641
392.70 1.714768
392.80 1.714125
392.90 1.713295
393.00 1.712546
393.10 1.71174
393.20 1.710869
393.30 1.709999
393.40 1.70913
393.50 1.708262
393.60 1.707394
393.70 1.706756
393.80 1.705879
393.90 1.704898
394.00 1.703929
394.10 1.703064
394.20 1.7022
394.30 1.701337
394.40 1.700455
394.50 1.699384
394.60 1.698395
394.70 1.69739
394.80 1.696321
394.90 1.695259
395.00 1.694367
395.10 1.693155
395.20 1.691874
395.30 1.690574
395.40 1.689274
395.50 1.687895
395.60 1.686488
395.70 1.684961
395.80 1.68311
395.90 1.681261
396.00 1.679429
396.10 1.677701
396.20 1.675834
396.30 1.673939
396.40 1.672455
396.50 1.671804
396.60 1.671792
396.70 1.672091
396.80 1.672386
396.90 1.672596
397.00 1.672633
397.10 1.67273
397.20 1.672678
397.30 1.672476
397.40 1.672059
397.50 1.671642
397.60 1.671217
397.70 1.670695
397.80 1.670174
397.90 1.669611
398.00 1.668932
398.10 1.668254
398.20 1.667544
398.30 1.666799
398.40 1.666051
398.50 1.665215
398.60 1.66438
398.70 1.663545
398.80 1.662711
398.90 1.661877
399.00 1.661044
399.10 1.660203
399.20 1.659269
399.30 1.658336
399.40 1.657403
399.50 1.656471
399.60 1.655476
399.70 1.654459
399.80 1.653442
399.90 1.652426
400.00 1.651406
400.10 1.650239
400.20 1.649166
400.30 1.647995
400.40 1.646821
400.50 1.645522
400.60 1.644155
400.70 1.642892
400.80 1.641548
400.90 1.639955
401.00 1.638519
401.10 1.636922
401.20 1.635287
401.30 1.633505
401.40 1.631636
401.50 1.629762
401.60 1.62788
401.70 1.625713
401.80 1.6235
401.90 1.621142
402.00 1.618913
402.10 1.616396
402.20 1.614025
402.30 1.611773
402.40 1.609654
402.50 1.607478
402.60 1.605179
402.70 1.605881
402.80 1.606509
402.90 1.607354
403.00 1.608199
403.10 1.609043
403.20 1.61004
403.30 1.610755
403.40 1.611566
403.50 1.612118
403.60 1.612589
403.70 1.612992
403.80 1.613309
403.90 1.613378
404.00 1.613462
404.10 1.613502
404.20 1.613357
404.30 1.613212
404.40 1.612849
404.50 1.612486
404.60 1.612232
404.70 1.611761
404.80 1.611405
404.90 1.61082
405.00 1.610412
405.10 1.609911
405.20 1.609426
405.30 1.608941
405.40 1.608364
405.50 1.607787
405.60 1.60721
405.70 1.606634
405.80 1.606059
405.90 1.605483
406.00 1.604823
406.10 1.604162
406.20 1.603503
406.30 1.602844
406.40 1.602181
406.50 1.601447
406.60 1.60082
406.70 1.6001
406.80 1.599398
406.90 1.598677
407.00 1.597956
407.10 1.597236
407.20 1.596516
407.30 1.595796
407.40 1.595077
407.50 1.594359
407.60 1.593641
407.70 1.592923
407.80 1.592206
407.90 1.591488
408.00 1.590708
408.10 1.589928
408.20 1.589205
408.30 1.588496
408.40 1.587788
408.50 1.587029
408.60 1.586252
408.70 1.585476
408.80 1.584701
408.90 1.583926
409.00 1.583151
409.10 1.582377
409.20 1.581604
409.30 1.580831
409.40 1.580059
409.50 1.579288
409.60 1.578517
409.70 1.577746
409.80 1.576976
409.90 1.576207
410.00 1.575438
410.10 1.574494
410.20 1.573691
410.30 1.572924
410.40 1.572141
410.50 1.571305
410.60 1.570471
410.70 1.569633
410.80 1.568784
410.90 1.567935
411.00 1.567062
411.10 1.566181
411.20 1.5653
411.30 1.564408
411.40 1.563469
411.50 1.56256
411.60 1.561653
411.70 1.560734
411.80 1.559766
411.90 1.558841
412.00 1.557875
412.10 1.556962
412.20 1.556154
412.30 1.555609
412.40 1.554854
412.50 1.554131
412.60 1.553527
412.70 1.552869
412.80 1.552197
412.90 1.551516
413.00 1.550975
413.10 1.550266
413.20 1.549557
413.30 1.548849
413.40 1.548141
413.50 1.547468
413.60 1.546885
413.70 1.546137
413.80 1.54539
413.90 1.544643
414.00 1.543897
414.10 1.543151
414.20 1.542406
414.30 1.541662
414.40 1.540918
414.50 1.540174
414.60 1.539432
414.70 1.538689
414.80 1.53796
414.90 1.53727
415.00 1.536581
415.10 1.535892
415.20 1.535192
415.30 1.534453
415.40 1.533714
415.50 1.532976
415.60 1.532238
415.70 1.531501
415.80 1.530764
415.90 1.530028
416.00 1.529293
416.10 1.528558
416.20 1.527824
416.30 1.52709
416.40 1.526356
416.50 1.525623
416.60 1.524891
416.70 1.524159
416.80 1.523428
416.90 1.522587
417.00 1.521762
417.10 1.521033
417.20 1.520304
417.30 1.519575
417.40 1.518847
417.50 1.51812
417.60 1.517393
417.70 1.516665
417.80 1.515905
417.90 1.515146
418.00 1.514387
418.10 1.513629
418.20 1.512871
418.30 1.512115
418.40 1.511387
418.50 1.510643
418.60 1.509899
418.70 1.509156
418.80 1.508413
418.90 1.507671
419.00 1.50693
419.10 1.506189
419.20 1.505448
419.30 1.504707
419.40 1.503918
419.50 1.50313
419.60 1.502356
419.70 1.50164
419.80 1.500925
419.90 1.500201
420.00 1.499447
420.10 1.498694
420.20 1.497941
420.30 1.497189
420.40 1.496437
420.50 1.495686
420.60 1.494936
420.70 1.494186
420.80 1.493436
420.90 1.492689
421.00 1.49198
421.10 1.491271
421.20 1.490549
421.30 1.489784
421.40 1.48902
421.50 1.488256
421.60 1.487493
421.70 1.486731
421.80 1.485969
421.90 1.485221
422.00 1.484518
422.10 1.483802
422.20 1.483036
422.30 1.482271
422.40 1.481507
422.50 1.480765
422.60 1.480024
422.70 1.479284
422.80 1.478544
422.90 1.477805
423.00 1.477066
423.10 1.476328
423.20 1.47559
423.30 1.474853
423.40 1.474116
423.50 1.47338
423.60 1.472644
423.70 1.471909
423.80 1.471174
423.90 1.47044
424.00 1.469707
424.10 1.468974
424.20 1.468242
424.30 1.46751
424.40 1.466787
424.50 1.466056
424.60 1.465325
424.70 1.464596
424.80 1.463866
424.90 1.463138
