# Version 2.1 - nm, norm@500 to 1, cut digits, bergeron_He_13000_90.dat_13000
# Wavelength(nm)  Flambda(ergs/cm^s/s/nm)
300.00 2.911427
300.10 2.910086
300.20 2.908744
300.30 2.907398
300.40 2.906018
300.50 2.904639
300.60 2.903262
300.70 2.901885
300.80 2.90051
300.90 2.899136
301.00 2.897763
301.10 2.896392
301.20 2.895021
301.30 2.893652
301.40 2.892284
301.50 2.890917
301.60 2.889552
301.70 2.888187
301.80 2.886824
301.90 2.885461
302.00 2.8841
302.10 2.882728
302.20 2.881356
302.30 2.879984
302.40 2.878614
302.50 2.877245
302.60 2.875877
302.70 2.874511
302.80 2.873145
302.90 2.871781
303.00 2.870418
303.10 2.869056
303.20 2.867695
303.30 2.866333
303.40 2.864948
303.50 2.863564
303.60 2.862181
303.70 2.860799
303.80 2.859418
303.90 2.858039
304.00 2.856661
304.10 2.855284
304.20 2.853908
304.30 2.852534
304.40 2.85116
304.50 2.849788
304.60 2.848413
304.70 2.847039
304.80 2.845667
304.90 2.844295
305.00 2.842925
305.10 2.841556
305.20 2.840187
305.30 2.838821
305.40 2.837455
305.50 2.83609
305.60 2.834727
305.70 2.833365
305.80 2.832004
305.90 2.830644
306.00 2.829286
306.10 2.827928
306.20 2.826572
306.30 2.825217
306.40 2.823835
306.50 2.822445
306.60 2.821056
306.70 2.819669
306.80 2.818283
306.90 2.816898
307.00 2.815515
307.10 2.814132
307.20 2.812751
307.30 2.811371
307.40 2.809992
307.50 2.808615
307.60 2.807238
307.70 2.805863
307.80 2.804489
307.90 2.803116
308.00 2.801745
308.10 2.800374
308.20 2.799005
308.30 2.797637
308.40 2.79627
308.50 2.794904
308.60 2.79354
308.70 2.792176
308.80 2.790763
308.90 2.789204
309.00 2.787848
309.10 2.786493
309.20 2.78514
309.30 2.783788
309.40 2.782433
309.50 2.781053
309.60 2.779675
309.70 2.778298
309.80 2.776922
309.90 2.775548
310.00 2.774174
310.10 2.772802
310.20 2.771431
310.30 2.770061
310.40 2.768683
310.50 2.767294
310.60 2.765907
310.70 2.764521
310.80 2.763136
310.90 2.761752
311.00 2.760306
311.10 2.758861
311.20 2.757417
311.30 2.755986
311.40 2.754589
311.50 2.753193
311.60 2.751799
311.70 2.750405
311.80 2.749013
311.90 2.747623
312.00 2.746233
312.10 2.744845
312.20 2.743536
312.30 2.742203
312.40 2.740787
312.50 2.739404
312.60 2.737979
312.70 2.736556
312.80 2.735134
312.90 2.733694
313.00 2.732236
313.10 2.730779
313.20 2.729323
313.30 2.72787
313.40 2.726422
313.50 2.724975
313.60 2.723529
313.70 2.722085
313.80 2.720642
313.90 2.7192
314.00 2.717759
314.10 2.716263
314.20 2.714768
314.30 2.713275
314.40 2.711783
314.50 2.710292
314.60 2.708802
314.70 2.707314
314.80 2.705867
314.90 2.704349
315.00 2.702632
315.10 2.701017
315.20 2.699403
315.30 2.697791
315.40 2.69618
315.50 2.694571
315.60 2.692964
315.70 2.691258
315.80 2.689554
315.90 2.687851
316.00 2.68615
316.10 2.684302
316.20 2.682456
316.30 2.680462
316.40 2.678619
316.50 2.676332
316.60 2.674196
316.70 2.672062
316.80 2.669931
316.90 2.667653
317.00 2.665377
317.10 2.663104
317.20 2.660833
317.30 2.658306
317.40 2.655534
317.50 2.652058
317.60 2.648587
317.70 2.645119
317.80 2.641655
317.90 2.63631
318.00 2.629825
318.10 2.620373
318.20 2.610932
318.30 2.601502
318.40 2.590557
318.50 2.575279
318.60 2.559563
318.70 2.544587
318.80 2.535739
318.90 2.53882
319.00 2.548162
319.10 2.559287
319.20 2.569665
319.30 2.577947
319.40 2.586218
319.50 2.594478
319.60 2.60077
319.70 2.60423
319.80 2.607686
319.90 2.611137
320.00 2.613681
320.10 2.615246
320.20 2.616506
320.30 2.617444
320.40 2.617812
320.50 2.618034
320.60 2.618139
320.70 2.617954
320.80 2.61763
320.90 2.617156
321.00 2.616682
321.10 2.616208
321.20 2.615374
321.30 2.614495
321.40 2.613616
321.50 2.612738
321.60 2.611861
321.70 2.610984
321.80 2.610123
321.90 2.609278
322.00 2.607918
322.10 2.606799
322.20 2.60568
322.30 2.604563
322.40 2.603446
322.50 2.60233
322.60 2.601216
322.70 2.600102
322.80 2.599128
322.90 2.597873
323.00 2.59662
323.10 2.595368
323.20 2.594116
323.30 2.592866
323.40 2.591617
323.50 2.590369
323.60 2.589121
323.70 2.587875
323.80 2.58663
323.90 2.585386
324.00 2.58417
324.10 2.582954
324.20 2.58174
324.30 2.580523
324.40 2.579254
324.50 2.577942
324.60 2.576631
324.70 2.575321
324.80 2.574012
324.90 2.572704
325.00 2.571398
325.10 2.570092
325.20 2.568794
325.30 2.567509
325.40 2.566225
325.50 2.564937
325.60 2.563645
325.70 2.562354
325.80 2.561064
325.90 2.559767
326.00 2.558463
326.10 2.557159
326.20 2.555857
326.30 2.554544
326.40 2.553201
326.50 2.551907
326.60 2.550613
326.70 2.549321
326.80 2.54803
326.90 2.54674
327.00 2.545451
327.10 2.544164
327.20 2.542877
327.30 2.541591
327.40 2.540307
327.50 2.539023
327.60 2.537741
327.70 2.53646
327.80 2.53518
327.90 2.533773
328.00 2.532335
328.10 2.53103
328.20 2.529727
328.30 2.528424
328.40 2.527122
328.50 2.525818
328.60 2.524514
328.70 2.523211
328.80 2.521909
328.90 2.520609
329.00 2.51931
329.10 2.518012
329.20 2.516715
329.30 2.51542
329.40 2.514125
329.50 2.512831
329.60 2.511539
329.70 2.510248
329.80 2.508957
329.90 2.507668
330.00 2.506369
330.10 2.505057
330.20 2.503747
330.30 2.502437
330.40 2.501137
330.50 2.499846
330.60 2.498556
330.70 2.497267
330.80 2.49598
330.90 2.494693
331.00 2.493408
331.10 2.492124
331.20 2.49084
331.30 2.489558
331.40 2.488277
331.50 2.486996
331.60 2.485714
331.70 2.484433
331.80 2.483136
331.90 2.48184
332.00 2.480545
332.10 2.479252
332.20 2.477959
332.30 2.476667
332.40 2.475377
332.50 2.474088
332.60 2.472799
332.70 2.471512
332.80 2.470226
332.90 2.468941
333.00 2.467657
333.10 2.46637
333.20 2.465077
333.30 2.463786
333.40 2.462496
333.50 2.461207
333.60 2.459919
333.70 2.458632
333.80 2.457346
333.90 2.456061
334.00 2.454778
334.10 2.453491
334.20 2.452201
334.30 2.450912
334.40 2.449624
334.50 2.448337
334.60 2.447051
334.70 2.445801
334.80 2.444574
334.90 2.443317
335.00 2.442061
335.10 2.440706
335.20 2.439383
335.30 2.438034
335.40 2.436812
335.50 2.435624
335.60 2.434173
335.70 2.433046
335.80 2.43173
335.90 2.430444
336.00 2.429195
336.10 2.427947
336.20 2.426701
336.30 2.425445
336.40 2.424179
336.50 2.422914
336.60 2.42165
336.70 2.420387
336.80 2.419124
336.90 2.417843
337.00 2.416538
337.10 2.415235
337.20 2.413932
337.30 2.412649
337.40 2.411395
337.50 2.410142
337.60 2.408889
337.70 2.407638
337.80 2.406388
337.90 2.405128
338.00 2.403857
338.10 2.402587
338.20 2.401318
338.30 2.400049
338.40 2.398781
338.50 2.39751
338.60 2.396241
338.70 2.394972
338.80 2.393704
338.90 2.392438
339.00 2.391173
339.10 2.389908
339.20 2.388645
339.30 2.387377
339.40 2.386103
339.50 2.384832
339.60 2.383567
339.70 2.382302
339.80 2.381038
339.90 2.379776
340.00 2.378515
340.10 2.377254
340.20 2.375995
340.30 2.374737
340.40 2.37348
340.50 2.372224
340.60 2.370969
340.70 2.369715
340.80 2.368459
340.90 2.367201
341.00 2.365942
341.10 2.364683
341.20 2.363425
341.30 2.362168
341.40 2.360912
341.50 2.359657
341.60 2.358404
341.70 2.357151
341.80 2.355896
341.90 2.354638
342.00 2.353381
342.10 2.352125
342.20 2.350846
342.30 2.349619
342.40 2.348407
342.50 2.347164
342.60 2.345922
342.70 2.34468
342.80 2.34344
342.90 2.342201
343.00 2.340934
343.10 2.339632
343.20 2.338331
343.30 2.337032
343.40 2.33576
343.50 2.334526
343.60 2.333293
343.70 2.332062
343.80 2.330831
343.90 2.329602
344.00 2.328348
344.10 2.327058
344.20 2.325769
344.30 2.324481
344.40 2.323219
344.50 2.321996
344.60 2.320723
344.70 2.319376
344.80 2.318282
344.90 2.316938
345.00 2.315896
345.10 2.314679
345.20 2.313481
345.30 2.31231
345.40 2.31114
345.50 2.309895
345.60 2.30861
345.70 2.307399
345.80 2.306189
345.90 2.30498
346.00 2.303773
346.10 2.302566
346.20 2.30135
346.30 2.30012
346.40 2.298892
346.50 2.297664
346.60 2.296438
346.70 2.295212
346.80 2.293988
346.90 2.292765
347.00 2.291542
347.10 2.290321
347.20 2.289102
347.30 2.287885
347.40 2.286669
347.50 2.285454
347.60 2.28424
347.70 2.283027
347.80 2.281815
347.90 2.280604
348.00 2.279395
348.10 2.278186
348.20 2.276978
348.30 2.275771
348.40 2.274566
348.50 2.273361
348.60 2.272157
348.70 2.271016
348.80 2.269855
348.90 2.268635
349.00 2.267417
349.10 2.266199
349.20 2.264983
349.30 2.263768
349.40 2.262553
349.50 2.26134
349.60 2.260128
349.70 2.258917
349.80 2.257706
349.90 2.256497
350.00 2.255289
350.10 2.254082
350.20 2.252876
350.30 2.251673
350.40 2.250476
350.50 2.24928
350.60 2.248085
350.70 2.24689
350.80 2.245697
350.90 2.244505
351.00 2.243314
351.10 2.242123
351.20 2.240934
351.30 2.239746
351.40 2.23855
351.50 2.237342
351.60 2.236134
351.70 2.234927
351.80 2.233721
351.90 2.232516
352.00 2.231312
352.10 2.230109
352.20 2.22885
352.30 2.22761
352.40 2.226408
352.50 2.225207
352.60 2.224006
352.70 2.222807
352.80 2.221609
352.90 2.220412
353.00 2.219216
353.10 2.218021
353.20 2.216827
353.30 2.215634
353.40 2.214442
353.50 2.213244
353.60 2.212046
353.70 2.210849
353.80 2.209653
353.90 2.208458
354.00 2.207264
354.10 2.20607
354.20 2.204878
354.30 2.203686
354.40 2.202496
354.50 2.201306
354.60 2.200118
354.70 2.19893
354.80 2.197744
354.90 2.19656
355.00 2.195376
355.10 2.194193
355.20 2.193011
355.30 2.191832
355.40 2.190653
355.50 2.189476
355.60 2.188299
355.70 2.187155
355.80 2.186027
355.90 2.184863
356.00 2.183662
356.10 2.182468
356.20 2.181276
356.30 2.180084
356.40 2.178893
356.50 2.177703
356.60 2.176515
356.70 2.175327
356.80 2.17414
356.90 2.172954
357.00 2.171769
357.10 2.170586
357.20 2.169403
357.30 2.168221
357.40 2.167028
357.50 2.165816
357.60 2.164605
357.70 2.163395
357.80 2.162186
357.90 2.160978
358.00 2.159771
358.10 2.158565
358.20 2.15736
358.30 2.156156
358.40 2.154953
358.50 2.153751
358.60 2.152549
358.70 2.151349
358.80 2.15015
358.90 2.148952
359.00 2.147755
359.10 2.146559
359.20 2.145364
359.30 2.14417
359.40 2.142977
359.50 2.141719
359.60 2.140446
359.70 2.139174
359.80 2.137898
359.90 2.136623
360.00 2.135334
360.10 2.13402
360.20 2.132707
360.30 2.131395
360.40 2.130085
360.50 2.128775
360.60 2.127531
360.70 2.12618
360.80 2.12483
360.90 2.123481
361.00 2.122195
361.10 2.120893
361.20 2.119618
361.30 2.118216
361.40 2.117044
361.50 2.116192
361.60 2.115241
361.70 2.114299
361.80 2.113372
361.90 2.11247
362.00 2.11157
362.10 2.110583
362.20 2.109572
362.30 2.108557
362.40 2.107543
362.50 2.106529
362.60 2.105517
362.70 2.104511
362.80 2.103452
362.90 2.102405
363.00 2.10136
363.10 2.100306
363.20 2.099252
363.30 2.098117
363.40 2.096963
363.50 2.096035
363.60 2.094882
363.70 2.093855
363.80 2.092804
363.90 2.091708
364.00 2.090612
364.10 2.089517
364.20 2.088423
364.30 2.087288
364.40 2.086142
364.50 2.084998
364.60 2.083929
364.70 2.082861
364.80 2.081794
364.90 2.080653
365.00 2.079513
365.10 2.078374
365.20 2.077236
365.30 2.076099
365.40 2.074963
365.50 2.073827
365.60 2.072693
365.70 2.071661
365.80 2.070629
365.90 2.069518
366.00 2.068387
366.10 2.067257
366.20 2.066129
366.30 2.065001
366.40 2.063874
366.50 2.062747
366.60 2.061622
366.70 2.060498
366.80 2.059375
366.90 2.058252
367.00 2.057131
367.10 2.05601
367.20 2.05489
367.30 2.053772
367.40 2.052654
367.50 2.051537
367.60 2.050421
367.70 2.049306
367.80 2.048192
367.90 2.047078
368.00 2.045966
368.10 2.044854
368.20 2.043744
368.30 2.042634
368.40 2.041525
368.50 2.040417
368.60 2.039311
368.70 2.038204
368.80 2.037099
368.90 2.035995
369.00 2.034892
369.10 2.033789
369.20 2.032688
369.30 2.031587
369.40 2.030487
369.50 2.029388
369.60 2.02829
369.70 2.027193
369.80 2.026039
369.90 2.024884
370.00 2.023731
370.10 2.022596
370.20 2.021504
370.30 2.020412
370.40 2.019001
370.50 2.017797
370.60 2.016925
370.70 2.016054
370.80 2.014967
370.90 2.01388
371.00 2.012795
371.10 2.01171
371.20 2.010627
371.30 2.009544
371.40 2.008462
371.50 2.007381
371.60 2.0063
371.70 2.005221
371.80 2.004142
371.90 2.003065
372.00 2.001988
372.10 2.000912
372.20 1.999837
372.30 1.998763
372.40 1.99769
372.50 1.996617
372.60 1.995546
372.70 1.994475
372.80 1.993298
372.90 1.992123
373.00 1.991054
373.10 1.989987
373.20 1.98892
373.30 1.987855
373.40 1.98679
373.50 1.985727
373.60 1.984664
373.70 1.983602
373.80 1.98254
373.90 1.98148
374.00 1.980367
374.10 1.979256
374.20 1.978145
374.30 1.977035
374.40 1.975979
374.50 1.974924
374.60 1.973817
374.70 1.97271
374.80 1.971605
374.90 1.9705
375.00 1.969449
375.10 1.968399
375.20 1.96735
375.30 1.966271
375.40 1.965194
375.50 1.964117
375.60 1.963041
375.70 1.961966
375.80 1.960892
375.90 1.959819
376.00 1.958776
376.10 1.95769
376.20 1.956603
376.30 1.955517
376.40 1.954433
376.50 1.953367
376.60 1.95233
376.70 1.951294
376.80 1.950234
376.90 1.94915
377.00 1.948067
377.10 1.946985
377.20 1.945901
377.30 1.944804
377.40 1.943709
377.50 1.942614
377.60 1.94154
377.70 1.940467
377.80 1.939394
377.90 1.938322
378.00 1.937066
378.10 1.935965
378.20 1.934869
378.30 1.933774
378.40 1.93268
378.50 1.931587
378.60 1.930494
378.70 1.929403
378.80 1.928312
378.90 1.927248
379.00 1.926231
379.10 1.925132
379.20 1.924034
379.30 1.922911
379.40 1.921764
379.50 1.920618
379.60 1.919457
379.70 1.918272
379.80 1.917086
379.90 1.915901
380.00 1.914718
380.10 1.913535
380.20 1.912353
380.30 1.911172
380.40 1.909992
380.50 1.908813
380.60 1.907528
380.70 1.906339
380.80 1.905151
380.90 1.903965
381.00 1.902779
381.10 1.90178
381.20 1.900783
381.30 1.899581
381.40 1.898511
381.50 1.897306
381.60 1.896118
381.70 1.894936
381.80 1.893587
381.90 1.891779
382.00 1.890789
382.10 1.890513
382.20 1.889707
382.30 1.888923
382.40 1.888113
382.50 1.887265
382.60 1.886417
382.70 1.885505
382.80 1.884544
382.90 1.883607
383.00 1.882671
383.10 1.881735
383.20 1.880814
383.30 1.879945
383.40 1.879031
383.50 1.878052
383.60 1.877068
383.70 1.876036
383.80 1.875005
383.90 1.873975
384.00 1.872946
384.10 1.871918
384.20 1.87089
384.30 1.869864
384.40 1.868818
384.50 1.867752
384.60 1.866687
384.70 1.865623
384.80 1.86453
384.90 1.863379
385.00 1.862325
385.10 1.861266
385.20 1.860011
385.30 1.858842
385.40 1.857635
385.50 1.856391
385.60 1.855148
385.70 1.853907
385.80 1.852651
385.90 1.85134
386.00 1.849993
386.10 1.848599
386.20 1.847103
386.30 1.845607
386.40 1.844037
386.50 1.842384
386.60 1.840781
386.70 1.838983
386.80 1.837086
386.90 1.835142
387.00 1.832891
387.10 1.830548
387.20 1.828104
387.30 1.825278
387.40 1.822254
387.50 1.818699
387.60 1.814526
387.70 1.808786
387.80 1.803051
387.90 1.797322
388.00 1.790964
388.10 1.781911
388.20 1.768295
388.30 1.751709
388.40 1.735139
388.50 1.715648
388.60 1.690061
388.70 1.660896
388.80 1.637239
388.90 1.629321
389.00 1.643098
389.10 1.667324
389.20 1.691502
389.30 1.712601
389.40 1.730052
389.50 1.745302
389.60 1.75677
389.70 1.764588
389.80 1.769116
389.90 1.773639
390.00 1.778157
390.10 1.782671
390.20 1.787179
390.30 1.790078
390.40 1.791166
390.50 1.792253
390.60 1.793339
390.70 1.794423
390.80 1.795111
390.90 1.795404
391.00 1.795432
391.10 1.795364
391.20 1.795284
391.30 1.794997
391.40 1.794534
391.50 1.794071
391.60 1.793608
391.70 1.793145
391.80 1.792682
391.90 1.792178
392.00 1.791581
392.10 1.790919
392.20 1.790235
392.30 1.789388
392.40 1.788614
392.50 1.787886
392.60 1.787106
392.70 1.786258
392.80 1.785349
392.90 1.784633
393.00 1.783725
393.10 1.782818
393.20 1.781911
393.30 1.781005
393.40 1.7801
393.50 1.779039
393.60 1.778099
393.70 1.777196
393.80 1.776092
393.90 1.775095
394.00 1.774079
394.10 1.772969
394.20 1.771972
394.30 1.770858
394.40 1.769712
394.50 1.768464
394.60 1.767354
394.70 1.766198
394.80 1.764865
394.90 1.763534
395.00 1.762244
395.10 1.760922
395.20 1.75942
395.30 1.757909
395.40 1.7564
395.50 1.754723
395.60 1.752985
395.70 1.751203
395.80 1.749302
395.90 1.747403
396.00 1.745514
396.10 1.7437
396.20 1.741871
396.30 1.740044
396.40 1.738598
396.50 1.737726
396.60 1.737735
396.70 1.737815
396.80 1.737892
396.90 1.737916
397.00 1.737948
397.10 1.737859
397.20 1.737646
397.30 1.737323
397.40 1.736864
397.50 1.736405
397.60 1.735933
397.70 1.735327
397.80 1.734722
397.90 1.734081
398.00 1.733344
398.10 1.732607
398.20 1.731845
398.30 1.731052
398.40 1.730253
398.50 1.729241
398.60 1.728334
398.70 1.727406
398.80 1.726464
398.90 1.7255
399.00 1.724497
399.10 1.723422
399.20 1.722302
399.30 1.721182
399.40 1.720064
399.50 1.718946
399.60 1.717756
399.70 1.716539
399.80 1.715324
399.90 1.71411
400.00 1.71289
400.10 1.711461
400.20 1.710191
400.30 1.708755
400.40 1.707314
400.50 1.705848
400.60 1.704269
400.70 1.702676
400.80 1.701135
400.90 1.69939
401.00 1.697685
401.10 1.696
401.20 1.694179
401.30 1.692306
401.40 1.690284
401.50 1.68821
401.60 1.686137
401.70 1.68402
401.80 1.681824
401.90 1.679553
402.00 1.677253
402.10 1.674986
402.20 1.672632
402.30 1.670322
402.40 1.667999
402.50 1.665592
402.60 1.662242
402.70 1.663571
402.80 1.66458
402.90 1.665442
403.00 1.666266
403.10 1.667052
403.20 1.667737
403.30 1.66846
403.40 1.668912
403.50 1.669348
403.60 1.669794
403.70 1.670141
403.80 1.670252
403.90 1.670254
404.00 1.670243
404.10 1.670301
404.20 1.670112
404.30 1.669924
404.40 1.669562
404.50 1.669183
404.60 1.668995
404.70 1.668443
404.80 1.668174
404.90 1.667703
405.00 1.667165
405.10 1.666679
405.20 1.66618
405.30 1.665682
405.40 1.665102
405.50 1.664522
405.60 1.663943
405.70 1.663364
405.80 1.662785
405.90 1.662207
406.00 1.661534
406.10 1.660861
406.20 1.660189
406.30 1.659517
406.40 1.658841
406.50 1.65807
406.60 1.65739
406.70 1.656687
406.80 1.656013
406.90 1.655307
407.00 1.65453
407.10 1.653753
407.20 1.652977
407.30 1.652201
407.40 1.651426
407.50 1.650652
407.60 1.649878
407.70 1.649104
407.80 1.648331
407.90 1.647558
408.00 1.64675
408.10 1.645943
408.20 1.645137
408.30 1.644331
408.40 1.643526
408.50 1.642722
408.60 1.641918
408.70 1.641114
408.80 1.640312
408.90 1.639493
409.00 1.638623
409.10 1.637754
409.20 1.636885
409.30 1.636017
409.40 1.63515
409.50 1.634289
409.60 1.633428
409.70 1.632564
409.80 1.631686
409.90 1.630811
410.00 1.630015
410.10 1.629073
410.20 1.628194
410.30 1.627331
410.40 1.626458
410.50 1.625549
410.60 1.624641
410.70 1.623729
410.80 1.622795
410.90 1.621863
411.00 1.620889
411.10 1.619901
411.20 1.618914
411.30 1.617937
411.40 1.616997
411.50 1.615963
411.60 1.614929
411.70 1.613893
411.80 1.612846
411.90 1.611765
412.00 1.610719
412.10 1.609631
412.20 1.608806
412.30 1.608026
412.40 1.607246
412.50 1.606467
412.60 1.605688
412.70 1.60491
412.80 1.604133
412.90 1.603362
413.00 1.602754
413.10 1.601978
413.20 1.601203
413.30 1.600428
413.40 1.599654
413.50 1.59888
413.60 1.598107
413.70 1.597335
413.80 1.596563
413.90 1.595791
414.00 1.595
414.10 1.594143
414.20 1.593307
414.30 1.592365
414.40 1.591596
414.50 1.590828
414.60 1.590061
414.70 1.589294
414.80 1.588528
414.90 1.587762
415.00 1.586997
415.10 1.586233
415.20 1.585456
415.30 1.584639
415.40 1.583822
415.50 1.583006
415.60 1.582182
415.70 1.581359
415.80 1.580538
415.90 1.579722
416.00 1.578906
416.10 1.578093
416.20 1.577294
416.30 1.576495
416.40 1.575697
416.50 1.574898
416.60 1.574056
416.70 1.573204
416.80 1.572291
416.90 1.571537
417.00 1.570643
417.10 1.569856
417.20 1.569018
417.30 1.568182
417.40 1.56737
417.50 1.566559
417.60 1.565731
417.70 1.564838
417.80 1.564033
417.90 1.563227
418.00 1.562423
418.10 1.561619
418.20 1.560815
418.30 1.560007
418.40 1.559076
418.50 1.558239
418.60 1.557402
418.70 1.556566
418.80 1.55573
418.90 1.554896
419.00 1.554061
419.10 1.553228
419.20 1.552395
419.30 1.551564
419.40 1.550764
419.50 1.549965
419.60 1.549155
419.70 1.548303
419.80 1.547451
419.90 1.546604
420.00 1.545768
420.10 1.544933
420.20 1.544099
420.30 1.543265
420.40 1.542432
420.50 1.5416
420.60 1.540768
420.70 1.539936
420.80 1.539106
420.90 1.538277
421.00 1.537486
421.10 1.536695
421.20 1.535896
421.30 1.535072
421.40 1.534247
421.50 1.533424
421.60 1.532601
421.70 1.531779
421.80 1.530957
421.90 1.530119
422.00 1.52923
422.10 1.528364
422.20 1.527588
422.30 1.526811
422.40 1.526034
422.50 1.525202
422.60 1.524371
422.70 1.52354
422.80 1.52271
422.90 1.521881
423.00 1.521052
423.10 1.520224
423.20 1.519396
423.30 1.518569
423.40 1.517743
423.50 1.516917
423.60 1.516092
423.70 1.515268
423.80 1.514444
423.90 1.51362
424.00 1.512798
424.10 1.511976
424.20 1.511154
424.30 1.510333
424.40 1.509536
424.50 1.508725
424.60 1.507914
424.70 1.507104
424.80 1.506294
424.90 1.505486
