# Version 2.1 - nm, norm@500 to 1, cut digits, bergeron_He_20000_70.dat_20000
# Wavelength(nm)  Flambda(ergs/cm^s/s/nm)
300.00 3.797471
300.10 3.794562
300.20 3.791519
300.30 3.788449
300.40 3.785182
300.50 3.781919
300.60 3.778659
300.70 3.775402
300.80 3.772149
300.90 3.7689
301.00 3.765654
301.10 3.762411
301.20 3.759172
301.30 3.755936
301.40 3.752704
301.50 3.749476
301.60 3.74625
301.70 3.743029
301.80 3.73981
301.90 3.736596
302.00 3.733384
302.10 3.729947
302.20 3.726487
302.30 3.723032
302.40 3.71958
302.50 3.716132
302.60 3.712688
302.70 3.709247
302.80 3.705811
302.90 3.702378
303.00 3.698948
303.10 3.695523
303.20 3.692101
303.30 3.688689
303.40 3.685341
303.50 3.681997
303.60 3.678656
303.70 3.675318
303.80 3.671985
303.90 3.668654
304.00 3.665328
304.10 3.662005
304.20 3.658685
304.30 3.655369
304.40 3.652057
304.50 3.648748
304.60 3.645435
304.70 3.642125
304.80 3.638819
304.90 3.635516
305.00 3.632216
305.10 3.62892
305.20 3.625628
305.30 3.622339
305.40 3.619054
305.50 3.615772
305.60 3.612494
305.70 3.609219
305.80 3.605947
305.90 3.60268
306.00 3.599415
306.10 3.596155
306.20 3.592897
306.30 3.589644
306.40 3.58636
306.50 3.58307
306.60 3.579783
306.70 3.5765
306.80 3.57322
306.90 3.569944
307.00 3.566671
307.10 3.563402
307.20 3.560136
307.30 3.556874
307.40 3.553615
307.50 3.55036
307.60 3.547108
307.70 3.54386
307.80 3.540615
307.90 3.537374
308.00 3.534136
308.10 3.530902
308.20 3.527671
308.30 3.524444
308.40 3.52122
308.50 3.517999
308.60 3.514782
308.70 3.511568
308.80 3.508323
308.90 3.504981
309.00 3.501603
309.10 3.498229
309.20 3.494858
309.30 3.491491
309.40 3.488146
309.50 3.484919
309.60 3.481695
309.70 3.478474
309.80 3.475257
309.90 3.472043
310.00 3.468833
310.10 3.465626
310.20 3.462422
310.30 3.459222
310.40 3.456022
310.50 3.452822
310.60 3.449625
310.70 3.446431
310.80 3.443241
310.90 3.440054
311.00 3.436775
311.10 3.433499
311.20 3.430226
311.30 3.426929
311.40 3.423556
311.50 3.420187
311.60 3.416821
311.70 3.41346
311.80 3.410101
311.90 3.406746
312.00 3.403395
312.10 3.400048
312.20 3.396937
312.30 3.393589
312.40 3.389951
312.50 3.387498
312.60 3.383915
312.70 3.380335
312.80 3.376759
312.90 3.373268
313.00 3.369867
313.10 3.36647
313.20 3.363077
313.30 3.359682
313.40 3.356274
313.50 3.352871
313.60 3.349471
313.70 3.346074
313.80 3.342681
313.90 3.339292
314.00 3.335907
314.10 3.331929
314.20 3.327955
314.30 3.323986
314.40 3.320021
314.50 3.31606
314.60 3.312104
314.70 3.308152
314.80 3.303818
314.90 3.299147
315.00 3.2953
315.10 3.289967
315.20 3.284641
315.30 3.27932
315.40 3.274006
315.50 3.268698
315.60 3.263395
315.70 3.256485
315.80 3.249582
315.90 3.242688
316.00 3.235801
316.10 3.228601
316.20 3.221409
316.30 3.225163
316.40 3.226982
316.50 3.209522
316.60 3.165756
316.70 3.150922
316.80 3.136107
316.90 3.134448
317.00 3.132791
317.10 3.131136
317.20 3.129482
317.30 3.140002
317.40 3.14695
317.50 3.143769
317.60 3.140591
317.70 3.137417
317.80 3.134246
317.90 3.113
318.00 3.081835
318.10 3.0306
318.20 2.979429
318.30 2.928321
318.40 2.850123
318.50 2.694784
318.60 2.509468
318.70 2.121333
318.80 1.780865
318.90 2.169052
319.00 2.418371
319.10 2.585631
319.20 2.727077
319.30 2.795517
319.40 2.86387
319.50 2.932137
319.60 2.980774
319.70 3.0039
319.80 3.026996
319.90 3.050062
320.00 3.068066
320.10 3.080598
320.20 3.090944
320.30 3.098183
320.40 3.103648
320.50 3.108479
320.60 3.110648
320.70 3.113089
320.80 3.114626
320.90 3.115186
321.00 3.115744
321.10 3.1163
321.20 3.115939
321.30 3.115078
321.40 3.114218
321.50 3.113358
321.60 3.112499
321.70 3.11164
321.80 3.110669
321.90 3.109576
322.00 3.107725
322.10 3.10595
322.20 3.104177
322.30 3.102405
322.40 3.100635
322.50 3.098866
322.60 3.097099
322.70 3.095334
322.80 3.093439
322.90 3.091304
323.00 3.089171
323.10 3.08704
323.20 3.084911
323.30 3.082784
323.40 3.08066
323.50 3.078537
323.60 3.076416
323.70 3.074297
323.80 3.072181
323.90 3.070066
324.00 3.067843
324.10 3.065623
324.20 3.063404
324.30 3.061273
324.40 3.059098
324.50 3.056614
324.60 3.054132
324.70 3.051653
324.80 3.049176
324.90 3.046701
325.00 3.044229
325.10 3.04176
325.20 3.039348
325.30 3.037055
325.40 3.034765
325.50 3.032531
325.60 3.030362
325.70 3.028196
325.80 3.026032
325.90 3.023741
326.00 3.021312
326.10 3.018885
326.20 3.016461
326.30 3.013939
326.40 3.011134
326.50 3.008791
326.60 3.00645
326.70 3.004111
326.80 3.001775
326.90 2.999441
327.00 2.997109
327.10 2.99478
327.20 2.992452
327.30 2.990128
327.40 2.987805
327.50 2.985485
327.60 2.983167
327.70 2.980851
327.80 2.978537
327.90 2.975906
328.00 2.97264
328.10 2.969024
328.20 2.965412
328.30 2.961804
328.40 2.9582
328.50 2.95633
328.60 2.954866
328.70 2.953404
328.80 2.951751
328.90 2.949554
329.00 2.947358
329.10 2.945165
329.20 2.942973
329.30 2.940784
329.40 2.938597
329.50 2.936412
329.60 2.934229
329.70 2.932048
329.80 2.92987
329.90 2.927693
330.00 2.925431
330.10 2.923064
330.20 2.920699
330.30 2.918336
330.40 2.915953
330.50 2.913547
330.60 2.911144
330.70 2.908744
330.80 2.906346
330.90 2.90395
331.00 2.901556
331.10 2.899165
331.20 2.896776
331.30 2.89439
331.40 2.892006
331.50 2.889487
331.60 2.886804
331.70 2.884124
331.80 2.881434
331.90 2.878747
332.00 2.876062
332.10 2.87338
332.20 2.8707
332.30 2.868024
332.40 2.86535
332.50 2.862678
332.60 2.86001
332.70 2.857344
332.80 2.854681
332.90 2.85202
333.00 2.849362
333.10 2.846192
333.20 2.842397
333.30 2.838606
333.40 2.834819
333.50 2.831035
333.60 2.827256
333.70 2.823481
333.80 2.81971
333.90 2.815943
334.00 2.81218
334.10 2.807452
334.20 2.801546
334.30 2.795647
334.40 2.789754
334.50 2.783868
334.60 2.777988
334.70 2.771027
334.80 2.760611
334.90 2.747134
335.00 2.733674
335.10 2.718269
335.20 2.701753
335.30 2.684083
335.40 2.663887
335.50 2.683171
335.60 2.698003
335.70 2.709218
335.80 2.719592
335.90 2.727514
336.00 2.732447
336.10 2.737374
336.20 2.742294
336.30 2.744946
336.40 2.744831
336.50 2.744716
336.60 2.7446
336.70 2.744484
336.80 2.744368
336.90 2.744076
337.00 2.74357
337.10 2.743064
337.20 2.742558
337.30 2.741671
337.40 2.740236
337.50 2.738802
337.60 2.737369
337.70 2.735938
337.80 2.734507
337.90 2.732993
338.00 2.731376
338.10 2.729761
338.20 2.728147
338.30 2.726534
338.40 2.724776
338.50 2.72266
338.60 2.720547
338.70 2.718435
338.80 2.716325
338.90 2.714218
339.00 2.712112
339.10 2.710008
339.20 2.707907
339.30 2.70578
339.40 2.703615
339.50 2.701401
339.60 2.699125
339.70 2.696852
339.80 2.694581
339.90 2.692312
340.00 2.690046
340.10 2.687781
340.20 2.685519
340.30 2.683259
340.40 2.681001
340.50 2.678745
340.60 2.676492
340.70 2.67424
340.80 2.671806
340.90 2.669109
341.00 2.666424
341.10 2.663754
341.20 2.661087
341.30 2.658423
341.40 2.655762
341.50 2.653103
341.60 2.650446
341.70 2.647793
341.80 2.644938
341.90 2.641836
342.00 2.638737
342.10 2.635642
342.20 2.632311
342.30 2.628959
342.40 2.625585
342.50 2.621842
342.60 2.618104
342.70 2.614369
342.80 2.610639
342.90 2.606912
343.00 2.602596
343.10 2.59756
343.20 2.59253
343.30 2.587505
343.40 2.581165
343.50 2.572935
343.60 2.564714
343.70 2.556501
343.80 2.548298
343.90 2.540104
344.00 2.527422
344.10 2.508286
344.20 2.489172
344.30 2.470079
344.40 2.44311
344.50 2.404813
344.60 2.360532
344.70 2.300604
344.80 2.356576
344.90 2.396062
345.00 2.435215
345.10 2.456503
345.20 2.474001
345.30 2.486064
345.40 2.498113
345.50 2.507814
345.60 2.513022
345.70 2.515877
345.80 2.518729
345.90 2.521576
346.00 2.52442
346.10 2.52726
346.20 2.528599
346.30 2.527783
346.40 2.526968
346.50 2.526153
346.60 2.525338
346.70 2.524524
346.80 2.523711
346.90 2.522898
347.00 2.522085
347.10 2.521273
347.20 2.520229
347.30 2.518851
347.40 2.517474
347.50 2.516098
347.60 2.514723
347.70 2.513349
347.80 2.511977
347.90 2.510606
348.00 2.509236
348.10 2.507867
348.20 2.506499
348.30 2.505132
348.40 2.503767
348.50 2.502402
348.60 2.501039
348.70 2.499622
348.80 2.49816
348.90 2.496658
349.00 2.495157
349.10 2.493657
349.20 2.492159
349.30 2.490662
349.40 2.489166
349.50 2.487672
349.60 2.486178
349.70 2.484687
349.80 2.483196
349.90 2.481707
350.00 2.480219
350.10 2.478732
350.20 2.477247
350.30 2.47583
350.40 2.474512
350.50 2.473195
350.60 2.471879
350.70 2.470565
350.80 2.469251
350.90 2.467938
351.00 2.466627
351.10 2.465317
351.20 2.464007
351.30 2.462699
351.40 2.461509
351.50 2.460528
351.60 2.459547
351.70 2.458567
351.80 2.457588
351.90 2.456609
352.00 2.455631
352.10 2.454654
352.20 2.453302
352.30 2.452203
352.40 2.451526
352.50 2.450849
352.60 2.450172
352.70 2.449496
352.80 2.44882
352.90 2.448145
353.00 2.44747
353.10 2.446795
353.20 2.446121
353.30 2.445447
353.40 2.444774
353.50 2.444275
353.60 2.44382
353.70 2.443366
353.80 2.442911
353.90 2.442454
354.00 2.441993
354.10 2.441531
354.20 2.44107
354.30 2.440609
354.40 2.440148
354.50 2.439687
354.60 2.439226
354.70 2.438766
354.80 2.438406
354.90 2.438191
355.00 2.437975
355.10 2.43776
355.20 2.437544
355.30 2.437119
355.40 2.436694
355.50 2.436268
355.60 2.435843
355.70 2.43567
355.80 2.435611
355.90 2.435733
356.00 2.435572
356.10 2.435258
356.20 2.434945
356.30 2.434632
356.40 2.434319
356.50 2.434005
356.60 2.433692
356.70 2.433379
356.80 2.433065
356.90 2.432752
357.00 2.432438
357.10 2.432125
357.20 2.431811
357.30 2.431498
357.40 2.431131
357.50 2.430671
357.60 2.43021
357.70 2.42975
357.80 2.429306
357.90 2.428862
358.00 2.427919
358.10 2.426852
358.20 2.425785
358.30 2.424719
358.40 2.423655
358.50 2.42259
358.60 2.421527
358.70 2.420465
358.80 2.419403
358.90 2.418342
359.00 2.416856
359.10 2.414615
359.20 2.412325
359.30 2.409699
359.40 2.407075
359.50 2.403203
359.60 2.399022
359.70 2.394846
359.80 2.388618
359.90 2.382397
360.00 2.374147
360.10 2.362292
360.20 2.350448
360.30 2.338618
360.40 2.326801
360.50 2.314996
360.60 2.289798
360.70 2.252661
360.80 2.215565
360.90 2.17851
361.00 2.132161
361.10 2.048435
361.20 1.944793
361.30 1.772717
361.40 1.921401
361.50 2.081446
361.60 2.146593
361.70 2.151802
361.80 2.161618
361.90 2.179621
362.00 2.197604
362.10 2.204589
362.20 2.203762
362.30 2.193943
362.40 2.184134
362.50 2.174336
362.60 2.164548
362.70 2.14859
362.80 2.130128
362.90 2.105125
363.00 2.080149
363.10 2.052282
363.20 2.024416
363.30 2.002352
363.40 1.992965
363.50 2.014763
363.60 2.056012
363.70 2.086402
363.80 2.109679
363.90 2.1275
364.00 2.1453
364.10 2.16308
364.20 2.180841
364.30 2.200244
364.40 2.220041
364.50 2.238347
364.60 2.251596
364.70 2.264831
364.80 2.278052
364.90 2.285504
365.00 2.292949
365.10 2.290727
365.20 2.27596
365.30 2.270373
365.40 2.285039
365.50 2.299688
365.60 2.314322
365.70 2.32662
365.80 2.338904
365.90 2.346745
366.00 2.353471
366.10 2.357142
366.20 2.360807
366.30 2.364469
366.40 2.368126
366.50 2.370025
366.60 2.371636
366.70 2.371431
366.80 2.371225
366.90 2.370133
367.00 2.367466
367.10 2.364802
367.20 2.36214
367.30 2.359481
367.40 2.356825
367.50 2.351879
367.60 2.346366
367.70 2.338826
367.80 2.331294
367.90 2.323769
368.00 2.316077
368.10 2.305888
368.20 2.291605
368.30 2.277301
368.40 2.263012
368.50 2.248738
368.60 2.234479
368.70 2.220235
368.80 2.206007
368.90 2.190399
369.00 2.170792
369.10 2.150822
369.20 2.128692
369.30 2.101425
369.40 2.074187
369.50 2.046978
369.60 2.011177
369.70 1.975414
369.80 1.934203
369.90 1.892981
370.00 1.851804
370.10 1.806864
370.20 1.752351
370.30 1.697893
370.40 1.644014
370.50 1.618298
370.60 1.676943
370.70 1.752713
370.80 1.810926
370.90 1.869075
371.00 1.893784
371.10 1.918129
371.20 1.938941
371.30 1.959731
371.40 1.98576
371.50 2.010051
371.60 2.034315
371.70 2.058553
371.80 2.082765
371.90 2.10695
372.00 2.125871
372.10 2.143988
372.20 2.156619
372.30 2.169237
372.40 2.181842
372.50 2.194432
372.60 2.207008
372.70 2.219571
372.80 2.225293
372.90 2.231008
373.00 2.234944
373.10 2.238858
373.20 2.227954
373.30 2.217061
373.40 2.13601
373.50 2.110873
373.60 2.148019
373.70 2.185585
373.80 2.211623
373.90 2.238496
374.00 2.251334
374.10 2.264158
374.20 2.276968
374.30 2.289764
374.40 2.29715
374.50 2.303773
374.60 2.308073
374.70 2.312357
374.80 2.316635
374.90 2.320909
375.00 2.323333
375.10 2.325754
375.20 2.328172
375.30 2.328368
375.40 2.328563
375.50 2.328757
375.60 2.328951
375.70 2.329145
375.80 2.329338
375.90 2.32953
376.00 2.329193
376.10 2.327767
376.20 2.326332
376.30 2.324897
376.40 2.323464
376.50 2.32161
376.60 2.319126
376.70 2.316643
376.80 2.313838
376.90 2.310709
377.00 2.307583
377.10 2.30446
377.20 2.301088
377.30 2.296769
377.40 2.292455
377.50 2.288145
377.60 2.282812
377.70 2.277484
377.80 2.272161
377.90 2.266843
378.00 2.260539
378.10 2.252262
378.20 2.243987
378.30 2.235722
378.40 2.227464
378.50 2.219215
378.60 2.210975
378.70 2.202743
378.80 2.194519
378.90 2.185287
379.00 2.174176
379.10 2.162639
379.20 2.151113
379.30 2.138584
379.40 2.125052
379.50 2.111533
379.60 2.09728
379.70 2.080807
379.80 2.06017
379.90 2.039553
380.00 2.018958
380.10 1.998385
380.20 1.977833
380.30 1.957302
380.40 1.936792
380.50 1.916304
380.60 1.885534
380.70 1.85063
380.80 1.815762
380.90 1.780931
381.00 1.746136
381.10 1.702564
381.20 1.65798
381.30 1.612624
381.40 1.563873
381.50 1.510438
381.60 1.455213
381.70 1.398289
381.80 1.347612
381.90 1.301892
382.00 1.272981
382.10 1.34682
382.20 1.426397
382.30 1.499638
382.40 1.565696
382.50 1.621033
382.60 1.676312
382.70 1.722203
382.80 1.744946
382.90 1.755087
383.00 1.765217
383.10 1.775336
383.20 1.788619
383.30 1.813827
383.40 1.838566
383.50 1.862615
383.60 1.88605
383.70 1.903499
383.80 1.92093
383.90 1.938342
384.00 1.955736
384.10 1.973112
384.20 1.990469
384.30 2.007808
384.40 2.02214
384.50 2.033469
384.60 2.044787
384.70 2.056092
384.80 2.066912
384.90 2.075147
385.00 2.081897
385.10 2.088609
385.20 2.093353
385.30 2.097548
385.40 2.100615
385.50 2.102554
385.60 2.104491
385.70 2.106425
385.80 2.108253
385.90 2.109688
386.00 2.109552
386.10 2.107272
386.20 2.099183
386.30 2.091102
386.40 2.078213
386.50 2.053408
386.60 2.010509
386.70 1.901646
386.80 1.638235
386.90 1.761655
387.00 1.848631
387.10 1.900746
387.20 1.940305
387.30 1.971516
387.40 1.992056
387.50 2.007539
387.60 2.018693
387.70 2.021291
387.80 2.023887
387.90 2.02648
388.00 2.025801
388.10 2.011167
388.20 1.980428
388.30 1.937396
388.40 1.894409
388.50 1.833422
388.60 1.73009
388.70 1.574021
388.80 1.331352
388.90 1.241297
389.00 1.450319
389.10 1.613323
389.20 1.730494
389.30 1.816654
389.40 1.880591
389.50 1.935926
389.60 1.976524
389.70 2.004392
389.80 2.021807
389.90 2.039203
390.00 2.056582
390.10 2.073942
390.20 2.091285
390.30 2.10292
390.40 2.10813
390.50 2.113336
390.60 2.118535
390.70 2.123729
390.80 2.127208
390.90 2.128976
391.00 2.12961
391.10 2.12893
391.20 2.127926
391.30 2.124655
391.40 2.120209
391.50 2.115766
391.60 2.111328
391.70 2.106894
391.80 2.102464
391.90 2.097773
392.00 2.092178
392.10 2.085674
392.20 2.0789
392.30 2.070457
392.40 2.063155
392.50 2.055994
392.60 2.04812
392.70 2.040148
392.80 2.041633
392.90 2.046548
393.00 2.053044
393.10 2.059396
393.20 2.065462
393.30 2.070238
393.40 2.0749
393.50 2.077271
393.60 2.076022
393.70 2.076909
393.80 2.079702
393.90 2.081964
394.00 2.084167
394.10 2.084724
394.20 2.084087
394.30 2.08252
394.40 2.080256
394.50 2.076166
394.60 2.070033
394.70 2.063301
394.80 2.0543
394.90 2.04523
395.00 2.033652
395.10 2.021198
395.20 2.004399
395.30 1.986747
395.40 1.969114
395.50 1.941895
395.60 1.911154
395.70 1.875282
395.80 1.825495
395.90 1.775759
396.00 1.723706
396.10 1.638701
396.20 1.529214
396.30 1.409325
396.40 1.239009
396.50 1.286675
396.60 1.578141
396.70 1.699386
396.80 1.697576
396.90 1.672368
397.00 1.72094
397.10 1.849331
397.20 1.896069
397.30 1.885228
397.40 1.892226
397.50 1.899216
397.60 1.906368
397.70 1.915222
397.80 1.924068
397.90 1.931355
398.00 1.934448
398.10 1.937537
398.20 1.938559
398.30 1.937253
398.40 1.935865
398.50 1.931776
398.60 1.927421
398.70 1.921263
398.80 1.914683
398.90 1.907347
399.00 1.898605
399.10 1.888587
399.20 1.87671
399.30 1.864845
399.40 1.852991
399.50 1.841148
399.60 1.826262
399.70 1.810262
399.80 1.794277
399.90 1.778308
400.00 1.762268
400.10 1.743448
400.20 1.723892
400.30 1.702428
400.40 1.680631
400.50 1.658891
400.60 1.635249
400.70 1.611984
400.80 1.586249
400.90 1.550346
401.00 1.528876
401.10 1.522725
401.20 1.514697
401.30 1.50343
401.40 1.486048
401.50 1.466674
401.60 1.447031
401.70 1.418082
401.80 1.3866
401.90 1.350398
402.00 1.312354
402.10 1.271508
402.20 1.228941
402.30 1.186668
402.40 1.146262
402.50 1.114829
402.60 1.083882
402.70 1.090701
402.80 1.135385
402.90 1.18494
403.00 1.235081
403.10 1.285013
403.20 1.334932
403.30 1.382975
403.40 1.428964
403.50 1.470729
403.60 1.511113
403.70 1.546598
403.80 1.578233
403.90 1.604801
404.00 1.629852
404.10 1.647597
404.20 1.657025
404.30 1.666443
404.40 1.656459
404.50 1.605001
404.60 1.580617
404.70 1.600272
404.80 1.626161
404.90 1.650515
405.00 1.670595
405.10 1.687883
405.20 1.704411
405.30 1.720923
405.40 1.733781
405.50 1.746627
405.60 1.75946
405.70 1.772279
405.80 1.785086
405.90 1.797881
406.00 1.806894
406.10 1.815899
406.20 1.824895
406.30 1.833882
406.40 1.842797
406.50 1.850051
406.60 1.857103
406.70 1.863583
406.80 1.86996
406.90 1.876294
407.00 1.880657
407.10 1.885015
407.20 1.889369
407.30 1.893718
407.40 1.898062
407.50 1.902402
407.60 1.906738
407.70 1.911069
407.80 1.915396
407.90 1.919661
408.00 1.922101
408.10 1.924635
408.20 1.92668
408.30 1.928503
408.40 1.930324
408.50 1.931668
408.60 1.93259
408.70 1.933511
408.80 1.934421
408.90 1.934997
409.00 1.93479
409.10 1.934582
409.20 1.934375
409.30 1.934167
409.40 1.933945
409.50 1.933272
409.60 1.932599
409.70 1.931732
409.80 1.930082
409.90 1.928433
410.00 1.926749
410.10 1.924534
410.20 1.921667
410.30 1.91864
410.40 1.915272
410.50 1.910821
410.60 1.906374
410.70 1.90146
410.80 1.894666
410.90 1.887879
411.00 1.878443
411.10 1.868035
411.20 1.857637
411.30 1.846414
411.40 1.831597
411.50 1.808142
411.60 1.78471
411.70 1.755175
411.80 1.701185
411.90 1.638141
412.00 1.489462
412.10 1.167341
412.20 1.262996
412.30 1.39325
412.40 1.489301
412.50 1.549727
412.60 1.592186
412.70 1.617463
412.80 1.638431
412.90 1.656902
413.00 1.6617
413.10 1.657004
413.20 1.652312
413.30 1.647625
413.40 1.642942
413.50 1.636374
413.60 1.62094
413.70 1.601352
413.80 1.581784
413.90 1.562233
414.00 1.541711
414.10 1.51807
414.20 1.489589
414.30 1.438621
414.40 1.396397
414.50 1.408899
414.60 1.445377
414.70 1.482107
414.80 1.516826
414.90 1.54526
415.00 1.573666
415.10 1.602044
415.20 1.628096
415.30 1.646843
415.40 1.665572
415.50 1.684155
415.60 1.698571
415.70 1.712973
415.80 1.726591
415.90 1.737756
416.00 1.748911
416.10 1.759084
416.20 1.765368
416.30 1.771645
416.40 1.777916
416.50 1.784011
416.60 1.784638
416.70 1.785109
416.80 1.776447
416.90 1.736494
417.00 1.72742
417.10 1.75271
417.20 1.768881
417.30 1.784839
417.40 1.794428
417.50 1.804007
417.60 1.812878
417.70 1.81889
417.80 1.823059
417.90 1.827223
418.00 1.831384
418.10 1.83554
418.20 1.839692
418.30 1.843801
418.40 1.846401
418.50 1.848232
418.60 1.850061
418.70 1.851888
418.80 1.853713
418.90 1.855537
419.00 1.857358
419.10 1.859177
419.20 1.860995
419.30 1.862776
419.40 1.863439
419.50 1.864102
419.60 1.864651
419.70 1.86475
419.80 1.864849
419.90 1.864882
420.00 1.864709
420.10 1.864536
420.20 1.864363
420.30 1.864189
420.40 1.864016
420.50 1.863843
420.60 1.863669
420.70 1.863496
420.80 1.863322
420.90 1.863143
421.00 1.86278
421.10 1.862418
421.20 1.861951
421.30 1.861171
421.40 1.860391
421.50 1.859612
421.60 1.858833
421.70 1.858055
421.80 1.857277
421.90 1.856475
422.00 1.855595
422.10 1.854716
422.20 1.853838
422.30 1.85296
422.40 1.852075
422.50 1.850943
422.60 1.849812
422.70 1.848682
422.80 1.847553
422.90 1.846425
423.00 1.845298
423.10 1.844171
423.20 1.843045
423.30 1.841921
423.40 1.840797
423.50 1.839674
423.60 1.838551
423.70 1.83743
423.80 1.836309
423.90 1.83519
424.00 1.834071
424.10 1.832953
424.20 1.831836
424.30 1.83072
424.40 1.829654
424.50 1.828431
424.60 1.827209
424.70 1.825989
424.80 1.824769
424.90 1.82355
425.00 1.822332
