# Version 2.1 - nm, norm@500 to 1, cut digits
# Wavelength(nm)  Flambda(ergs/cm^s/s/nm)
300.00 8.549097e-96
300.10 8.549097e-96
300.20 8.549097e-96
300.30 8.549097e-96
300.40 8.549097e-96
300.50 8.549097e-96
300.60 8.549097e-96
300.70 8.549097e-96
300.80 8.549097e-96
300.90 8.549097e-96
301.00 8.549097e-96
301.10 8.549097e-96
301.20 8.549097e-96
301.30 8.549097e-96
301.40 8.549097e-96
301.50 8.549097e-96
301.60 8.549097e-96
301.70 8.549097e-96
301.80 8.549097e-96
301.90 8.549097e-96
302.00 8.549097e-96
302.10 8.549097e-96
302.20 8.549097e-96
302.30 8.549097e-96
302.40 8.549097e-96
302.50 8.549097e-96
302.60 8.549097e-96
302.70 8.549097e-96
302.80 8.549097e-96
302.90 8.549097e-96
303.00 8.549097e-96
303.10 8.549097e-96
303.20 8.549097e-96
303.30 8.549097e-96
303.40 8.549097e-96
303.50 8.549097e-96
303.60 8.549097e-96
303.70 8.549097e-96
303.80 8.549097e-96
303.90 8.549097e-96
304.00 8.549097e-96
304.10 8.549097e-96
304.20 8.549097e-96
304.30 8.549097e-96
304.40 8.549097e-96
304.50 8.549097e-96
304.60 8.549097e-96
304.70 8.549097e-96
304.80 8.549097e-96
304.90 8.549097e-96
305.00 8.549097e-96
305.10 8.549097e-96
305.20 8.549097e-96
305.30 8.549097e-96
305.40 8.549097e-96
305.50 8.549097e-96
305.60 8.549097e-96
305.70 8.549097e-96
305.80 8.549097e-96
305.90 8.549097e-96
306.00 8.549097e-96
306.10 8.549097e-96
306.20 8.549097e-96
306.30 8.549097e-96
306.40 8.549097e-96
306.50 8.549097e-96
306.60 8.549097e-96
306.70 8.549097e-96
306.80 8.549097e-96
306.90 8.549097e-96
307.00 8.549097e-96
307.10 8.549097e-96
307.20 8.549097e-96
307.30 8.549097e-96
307.40 8.549097e-96
307.50 8.549097e-96
307.60 8.549097e-96
307.70 8.549097e-96
307.80 8.549097e-96
307.90 8.549097e-96
308.00 8.549097e-96
308.10 8.549097e-96
308.20 8.549097e-96
308.30 8.549097e-96
308.40 8.549097e-96
308.50 8.549097e-96
308.60 8.549097e-96
308.70 8.549097e-96
308.80 8.549097e-96
308.90 8.549097e-96
309.00 8.549097e-96
309.10 8.549097e-96
309.20 8.549097e-96
309.30 8.549097e-96
309.40 8.549097e-96
309.50 8.549097e-96
309.60 8.549097e-96
309.70 8.549097e-96
309.80 8.549097e-96
309.90 8.549097e-96
310.00 8.549097e-96
310.10 8.549097e-96
310.20 8.549097e-96
310.30 8.549097e-96
310.40 8.549097e-96
310.50 8.549097e-96
310.60 8.549097e-96
310.70 8.549097e-96
310.80 8.549097e-96
310.90 8.549097e-96
311.00 8.549097e-96
311.10 8.549097e-96
311.20 8.549097e-96
311.30 8.549097e-96
311.40 8.549097e-96
311.50 8.549097e-96
311.60 8.549097e-96
311.70 8.549097e-96
311.80 8.549097e-96
311.90 8.549097e-96
312.00 8.549097e-96
312.10 8.549097e-96
312.20 8.549097e-96
312.30 8.549097e-96
312.40 8.549097e-96
312.50 8.549097e-96
312.60 8.549097e-96
312.70 8.549097e-96
312.80 8.549097e-96
312.90 8.549097e-96
313.00 8.549097e-96
313.10 8.549097e-96
313.20 8.549097e-96
313.30 8.549097e-96
313.40 8.549097e-96
313.50 8.549097e-96
313.60 8.549097e-96
313.70 8.549097e-96
313.80 8.549097e-96
313.90 8.549097e-96
314.00 8.549097e-96
314.10 8.549097e-96
314.20 8.549097e-96
314.30 8.549097e-96
314.40 8.549097e-96
314.50 8.549097e-96
314.60 8.549097e-96
314.70 8.549097e-96
314.80 8.549097e-96
314.90 8.549097e-96
315.00 8.549097e-96
315.10 8.549097e-96
315.20 8.549097e-96
315.30 8.549097e-96
315.40 8.549097e-96
315.50 8.549097e-96
315.60 8.549097e-96
315.70 8.549097e-96
315.80 8.549097e-96
315.90 8.549097e-96
316.00 8.549097e-96
316.10 8.549097e-96
316.20 8.549097e-96
316.30 8.549097e-96
316.40 8.549097e-96
316.50 8.549097e-96
316.60 8.549097e-96
316.70 8.549097e-96
316.80 8.549097e-96
316.90 8.549097e-96
317.00 8.549097e-96
317.10 8.549097e-96
317.20 8.549097e-96
317.30 8.549097e-96
317.40 8.549097e-96
317.50 8.549097e-96
317.60 8.549097e-96
317.70 8.549097e-96
317.80 8.549097e-96
317.90 8.549097e-96
318.00 8.549097e-96
318.10 8.549097e-96
318.20 8.549097e-96
318.30 8.549097e-96
318.40 8.549097e-96
318.50 8.549097e-96
318.60 8.549097e-96
318.70 8.549097e-96
318.80 8.549097e-96
318.90 8.549097e-96
319.00 8.549097e-96
319.10 8.549097e-96
319.20 8.549097e-96
319.30 8.549097e-96
319.40 8.549097e-96
319.50 8.549097e-96
319.60 8.549097e-96
319.70 8.549097e-96
319.80 8.549097e-96
319.90 8.549097e-96
320.00 8.549097e-96
320.10 8.549097e-96
320.20 8.549097e-96
320.30 8.549097e-96
320.40 8.549097e-96
320.50 8.549097e-96
320.60 8.549097e-96
320.70 8.549097e-96
320.80 8.549097e-96
320.90 8.549097e-96
321.00 8.549097e-96
321.10 8.549097e-96
321.20 8.549097e-96
321.30 8.549097e-96
321.40 8.549097e-96
321.50 8.549097e-96
321.60 8.549097e-96
321.70 8.549097e-96
321.80 8.549097e-96
321.90 8.549097e-96
322.00 8.549097e-96
322.10 8.549097e-96
322.20 8.549097e-96
322.30 8.549097e-96
322.40 8.549097e-96
322.50 8.549097e-96
322.60 8.549097e-96
322.70 8.549097e-96
322.80 8.549097e-96
322.90 8.549097e-96
323.00 8.549097e-96
323.10 8.549097e-96
323.20 8.549097e-96
323.30 8.549097e-96
323.40 8.549097e-96
323.50 8.549097e-96
323.60 8.549097e-96
323.70 8.549097e-96
323.80 8.549097e-96
323.90 8.549097e-96
324.00 8.549097e-96
324.10 8.549097e-96
324.20 8.549097e-96
324.30 8.549097e-96
324.40 8.549097e-96
324.50 8.549097e-96
324.60 8.549097e-96
324.70 8.549097e-96
324.80 8.549097e-96
324.90 8.549097e-96
325.00 8.549097e-96
325.10 8.549097e-96
325.20 8.549097e-96
325.30 8.549097e-96
325.40 8.549097e-96
325.50 8.549097e-96
325.60 8.549097e-96
325.70 8.549097e-96
325.80 8.549097e-96
325.90 8.549097e-96
326.00 8.549097e-96
326.10 8.549097e-96
326.20 8.549097e-96
326.30 8.549097e-96
326.40 8.549097e-96
326.50 8.549097e-96
326.60 8.549097e-96
326.70 8.549097e-96
326.80 8.549097e-96
326.90 8.549097e-96
327.00 8.549097e-96
327.10 8.549097e-96
327.20 8.549097e-96
327.30 8.549097e-96
327.40 8.549097e-96
327.50 8.549097e-96
327.60 8.549097e-96
327.70 8.549097e-96
327.80 8.549097e-96
327.90 8.549097e-96
328.00 8.549097e-96
328.10 8.549097e-96
328.20 8.549097e-96
328.30 8.549097e-96
328.40 8.549097e-96
328.50 8.549097e-96
328.60 8.549097e-96
328.70 8.549097e-96
328.80 8.549097e-96
328.90 8.549097e-96
329.00 8.549097e-96
329.10 8.549097e-96
329.20 8.549097e-96
329.30 8.549097e-96
329.40 8.549097e-96
329.50 8.549097e-96
329.60 8.549097e-96
329.70 8.549097e-96
329.80 8.549097e-96
329.90 8.549097e-96
330.00 8.549097e-96
330.10 8.549097e-96
330.20 8.549097e-96
330.30 8.549097e-96
330.40 8.549097e-96
330.50 8.549097e-96
330.60 8.549097e-96
330.70 8.549097e-96
330.80 8.549097e-96
330.90 8.549097e-96
331.00 8.549097e-96
331.10 8.549097e-96
331.20 8.549097e-96
331.30 8.549097e-96
331.40 8.549097e-96
331.50 8.549097e-96
331.60 8.549097e-96
331.70 8.549097e-96
331.80 8.549097e-96
331.90 8.549097e-96
332.00 8.549097e-96
332.10 8.549097e-96
332.20 8.549097e-96
332.30 8.549097e-96
332.40 8.549097e-96
332.50 8.549097e-96
332.60 8.549097e-96
332.70 8.549097e-96
332.80 8.549097e-96
332.90 8.549097e-96
333.00 8.549097e-96
333.10 8.549097e-96
333.20 8.549097e-96
333.30 8.549097e-96
333.40 8.549097e-96
333.50 8.549097e-96
333.60 8.549097e-96
333.70 8.549097e-96
333.80 8.549097e-96
333.90 8.549097e-96
334.00 8.549097e-96
334.10 8.549097e-96
334.20 8.549097e-96
334.30 8.549097e-96
334.40 8.549097e-96
334.50 8.549097e-96
334.60 8.549097e-96
334.70 8.549097e-96
334.80 8.549097e-96
334.90 8.549097e-96
335.00 8.549097e-96
335.10 8.549097e-96
335.20 8.549097e-96
335.30 8.549097e-96
335.40 8.549097e-96
335.50 8.549097e-96
335.60 8.549097e-96
335.70 8.549097e-96
335.80 8.549097e-96
335.90 8.549097e-96
336.00 8.549097e-96
336.10 8.549097e-96
336.20 8.549097e-96
336.30 8.549097e-96
336.40 8.549097e-96
336.50 8.549097e-96
336.60 8.549097e-96
336.70 8.549097e-96
336.80 8.549097e-96
336.90 8.549097e-96
337.00 8.549097e-96
337.10 8.549097e-96
337.20 8.549097e-96
337.30 8.549097e-96
337.40 8.549097e-96
337.50 8.549097e-96
337.60 8.549097e-96
337.70 8.549097e-96
337.80 8.549097e-96
337.90 8.549097e-96
338.00 8.549097e-96
338.10 8.549097e-96
338.20 8.549097e-96
338.30 8.549097e-96
338.40 8.549097e-96
338.50 8.549097e-96
338.60 8.549097e-96
338.70 8.549097e-96
338.80 8.549097e-96
338.90 8.549097e-96
339.00 8.549097e-96
339.10 8.549097e-96
339.20 8.549097e-96
339.30 8.549097e-96
339.40 8.549097e-96
339.50 8.549097e-96
339.60 8.549097e-96
339.70 8.549097e-96
339.80 8.549097e-96
339.90 8.549097e-96
340.00 8.549097e-96
340.10 8.549097e-96
340.20 8.549097e-96
340.30 8.549097e-96
340.40 8.549097e-96
340.50 8.549097e-96
340.60 8.549097e-96
340.70 8.549097e-96
340.80 8.549097e-96
340.90 8.549097e-96
341.00 8.549097e-96
341.10 8.549097e-96
341.20 8.549097e-96
341.30 8.549097e-96
341.40 8.549097e-96
341.50 8.549097e-96
341.60 8.549097e-96
341.70 8.549097e-96
341.80 8.549097e-96
341.90 8.549097e-96
342.00 8.549097e-96
342.10 8.549097e-96
342.20 8.549097e-96
342.30 8.549097e-96
342.40 8.549097e-96
342.50 8.549097e-96
342.60 8.549097e-96
342.70 8.549097e-96
342.80 8.549097e-96
342.90 8.549097e-96
343.00 8.549097e-96
343.10 8.549097e-96
343.20 8.549097e-96
343.30 8.549097e-96
343.40 8.549097e-96
343.50 8.549097e-96
343.60 8.549097e-96
343.70 8.549097e-96
343.80 8.549097e-96
343.90 8.549097e-96
344.00 8.549097e-96
344.10 8.549097e-96
344.20 8.549097e-96
344.30 8.549097e-96
344.40 8.549097e-96
344.50 8.549097e-96
344.60 8.549097e-96
344.70 8.549097e-96
344.80 8.549097e-96
344.90 8.549097e-96
345.00 8.549097e-96
345.10 8.549097e-96
345.20 8.549097e-96
345.30 8.549097e-96
345.40 8.549097e-96
345.50 8.549097e-96
345.60 8.549097e-96
345.70 8.549097e-96
345.80 8.549097e-96
345.90 8.549097e-96
346.00 8.549097e-96
346.10 8.549097e-96
346.20 8.549097e-96
346.30 8.549097e-96
346.40 8.549097e-96
346.50 8.549097e-96
346.60 8.549097e-96
346.70 8.549097e-96
346.80 8.549097e-96
346.90 8.549097e-96
347.00 8.549097e-96
347.10 8.549097e-96
347.20 8.549097e-96
347.30 8.549097e-96
347.40 8.549097e-96
347.50 8.549097e-96
347.60 8.549097e-96
347.70 8.549097e-96
347.80 8.549097e-96
347.90 8.549097e-96
348.00 8.549097e-96
348.10 8.549097e-96
348.20 8.549097e-96
348.30 8.549097e-96
348.40 8.549097e-96
348.50 8.549097e-96
348.60 8.549097e-96
348.70 8.549097e-96
348.80 8.549097e-96
348.90 8.549097e-96
349.00 8.549097e-96
349.10 8.549097e-96
349.20 8.549097e-96
349.30 8.549097e-96
349.40 8.549097e-96
349.50 8.549097e-96
349.60 8.549097e-96
349.70 8.549097e-96
349.80 8.549097e-96
349.90 8.549097e-96
350.00 8.549097e-96
350.10 8.549097e-96
350.20 8.549097e-96
350.30 8.549097e-96
350.40 8.549097e-96
350.50 8.549097e-96
350.60 8.549097e-96
350.70 8.549097e-96
350.80 8.549097e-96
350.90 8.549097e-96
351.00 8.549097e-96
351.10 8.549097e-96
351.20 8.549097e-96
351.30 8.549097e-96
351.40 8.549097e-96
351.50 8.549097e-96
351.60 8.549097e-96
351.70 8.549097e-96
351.80 8.549097e-96
351.90 8.549097e-96
352.00 8.549097e-96
352.10 8.549097e-96
352.20 8.549097e-96
352.30 8.549097e-96
352.40 8.549097e-96
352.50 8.549097e-96
352.60 8.549097e-96
352.70 8.549097e-96
352.80 8.549097e-96
352.90 8.549097e-96
353.00 8.549097e-96
353.10 8.549097e-96
353.20 8.549097e-96
353.30 8.549097e-96
353.40 8.549097e-96
353.50 8.549097e-96
353.60 8.549097e-96
353.70 8.549097e-96
353.80 8.549097e-96
353.90 8.549097e-96
354.00 8.549097e-96
354.10 8.549097e-96
354.20 8.549097e-96
354.30 8.549097e-96
354.40 8.549097e-96
354.50 8.549097e-96
354.60 8.549097e-96
354.70 8.549097e-96
354.80 8.549097e-96
354.90 8.549097e-96
355.00 8.549097e-96
355.10 8.549097e-96
355.20 8.549097e-96
355.30 8.549097e-96
355.40 8.549097e-96
355.50 8.549097e-96
355.60 8.549097e-96
355.70 8.549097e-96
355.80 8.549097e-96
355.90 8.549097e-96
356.00 8.549097e-96
356.10 8.549097e-96
356.20 8.549097e-96
356.30 8.549097e-96
356.40 8.549097e-96
356.50 8.549097e-96
356.60 8.549097e-96
356.70 8.549097e-96
356.80 8.549097e-96
356.90 8.549097e-96
357.00 8.549097e-96
357.10 8.549097e-96
357.20 8.549097e-96
357.30 8.549097e-96
357.40 8.549097e-96
357.50 8.549097e-96
357.60 8.549097e-96
357.70 8.549097e-96
357.80 8.549097e-96
357.90 8.549097e-96
358.00 8.549097e-96
358.10 8.549097e-96
358.20 8.549097e-96
358.30 8.549097e-96
358.40 8.549097e-96
358.50 8.549097e-96
358.60 8.549097e-96
358.70 8.549097e-96
358.80 8.549097e-96
358.90 8.549097e-96
359.00 8.549097e-96
359.10 8.549097e-96
359.20 8.549097e-96
359.30 8.549097e-96
359.40 8.549097e-96
359.50 8.549097e-96
359.60 8.549097e-96
359.70 8.549097e-96
359.80 8.549097e-96
359.90 8.549097e-96
360.00 8.549097e-96
360.10 8.549097e-96
360.20 8.549097e-96
360.30 8.549097e-96
360.40 8.549097e-96
360.50 8.549097e-96
360.60 8.549097e-96
360.70 8.549097e-96
360.80 8.549097e-96
360.90 8.549097e-96
361.00 8.549097e-96
361.10 8.549097e-96
361.20 8.549097e-96
361.30 8.549097e-96
361.40 8.549097e-96
361.50 8.549097e-96
361.60 8.549097e-96
361.70 8.549097e-96
361.80 8.549097e-96
361.90 8.549097e-96
362.00 8.549097e-96
362.10 8.549097e-96
362.20 8.549097e-96
362.30 8.549097e-96
362.40 8.549097e-96
362.50 8.549097e-96
362.60 8.549097e-96
362.70 8.549097e-96
362.80 8.549097e-96
362.90 8.549097e-96
363.00 8.549097e-96
363.10 8.549097e-96
363.20 8.549097e-96
363.30 8.549097e-96
363.40 8.549097e-96
363.50 8.549097e-96
363.60 8.549097e-96
363.70 8.549097e-96
363.80 8.549097e-96
363.90 8.549097e-96
364.00 8.549097e-96
364.10 8.549097e-96
364.20 8.549097e-96
364.30 8.549097e-96
364.40 8.549097e-96
364.50 8.549097e-96
364.60 8.549097e-96
364.70 8.549097e-96
364.80 8.549097e-96
364.90 8.549097e-96
365.00 8.549097e-96
365.10 8.549097e-96
365.20 8.549097e-96
365.30 8.549097e-96
365.40 8.549097e-96
365.50 8.549097e-96
365.60 8.549097e-96
365.70 8.549097e-96
365.80 8.549097e-96
365.90 8.549097e-96
366.00 8.549097e-96
366.10 8.549097e-96
366.20 8.549097e-96
366.30 8.549097e-96
366.40 8.549097e-96
366.50 8.549097e-96
366.60 8.549097e-96
366.70 8.549097e-96
366.80 8.549097e-96
366.90 8.549097e-96
367.00 8.549097e-96
367.10 8.549097e-96
367.20 8.549097e-96
367.30 8.549097e-96
367.40 8.549097e-96
367.50 8.549097e-96
367.60 8.549097e-96
367.70 8.549097e-96
367.80 8.549097e-96
367.90 8.549097e-96
368.00 8.549097e-96
368.10 8.549097e-96
368.20 8.549097e-96
368.30 8.549097e-96
368.40 8.549097e-96
368.50 8.549097e-96
368.60 8.549097e-96
368.70 8.549097e-96
368.80 8.549097e-96
368.90 8.549097e-96
369.00 8.549097e-96
369.10 8.549097e-96
369.20 8.549097e-96
369.30 8.549097e-96
369.40 8.549097e-96
369.50 8.549097e-96
369.60 8.549097e-96
369.70 8.549097e-96
369.80 8.549097e-96
369.90 8.549097e-96
370.00 8.549097e-96
370.10 8.549097e-96
370.20 8.549097e-96
370.30 8.549097e-96
370.40 8.549097e-96
370.50 8.549097e-96
370.60 8.549097e-96
370.70 8.549097e-96
370.80 8.549097e-96
370.90 8.549097e-96
371.00 8.549097e-96
371.10 8.549097e-96
371.20 8.549097e-96
371.30 8.549097e-96
371.40 8.549097e-96
371.50 8.549097e-96
371.60 8.549097e-96
371.70 8.549097e-96
371.80 8.549097e-96
371.90 8.549097e-96
372.00 8.549097e-96
372.10 8.549097e-96
372.20 8.549097e-96
372.30 8.549097e-96
372.40 8.549097e-96
372.50 8.549097e-96
372.60 8.549097e-96
372.70 8.549097e-96
372.80 8.549097e-96
372.90 8.549097e-96
373.00 8.549097e-96
373.10 8.549097e-96
373.20 8.549097e-96
373.30 8.549097e-96
373.40 8.549097e-96
373.50 8.549097e-96
373.60 8.549097e-96
373.70 8.549097e-96
373.80 8.549097e-96
373.90 8.549097e-96
374.00 8.549097e-96
374.10 8.549097e-96
374.20 8.549097e-96
374.30 8.549097e-96
374.40 8.549097e-96
374.50 8.549097e-96
374.60 8.549097e-96
374.70 8.549097e-96
374.80 8.549097e-96
374.90 8.549097e-96
375.00 8.549097e-96
375.10 8.549097e-96
375.20 8.549097e-96
375.30 8.549097e-96
375.40 8.549097e-96
375.50 8.549097e-96
375.60 8.549097e-96
375.70 8.549097e-96
375.80 8.549097e-96
375.90 8.549097e-96
376.00 8.549097e-96
376.10 8.549097e-96
376.20 8.549097e-96
376.30 8.549097e-96
376.40 8.549097e-96
376.50 8.549097e-96
376.60 8.549097e-96
376.70 8.549097e-96
376.80 8.549097e-96
376.90 8.549097e-96
377.00 8.549097e-96
377.10 8.549097e-96
377.20 8.549097e-96
377.30 8.549097e-96
377.40 8.549097e-96
377.50 8.549097e-96
377.60 8.549097e-96
377.70 8.549097e-96
377.80 8.549097e-96
377.90 8.549097e-96
378.00 8.549097e-96
378.10 8.549097e-96
378.20 8.549097e-96
378.30 8.549097e-96
378.40 8.549097e-96
378.50 8.549097e-96
378.60 8.549097e-96
378.70 8.549097e-96
378.80 8.549097e-96
378.90 8.549097e-96
379.00 8.549097e-96
379.10 8.549097e-96
379.20 8.549097e-96
379.30 8.549097e-96
379.40 8.549097e-96
379.50 8.549097e-96
379.60 8.549097e-96
379.70 8.549097e-96
379.80 8.549097e-96
379.90 8.549097e-96
380.00 8.549097e-96
380.10 8.549097e-96
380.20 8.549097e-96
380.30 8.549097e-96
380.40 8.549097e-96
380.50 8.549097e-96
380.60 8.549097e-96
380.70 8.549097e-96
380.80 8.549097e-96
380.90 8.549097e-96
381.00 8.549097e-96
381.10 8.549097e-96
381.20 8.549097e-96
381.30 8.549097e-96
381.40 8.549097e-96
381.50 8.549097e-96
381.60 8.549097e-96
381.70 8.549097e-96
381.80 8.549097e-96
381.90 8.549097e-96
382.00 8.549097e-96
382.10 8.549097e-96
382.20 8.549097e-96
382.30 8.549097e-96
382.40 8.549097e-96
382.50 8.549097e-96
382.60 8.549097e-96
382.70 8.549097e-96
382.80 8.549097e-96
382.90 8.549097e-96
383.00 8.549097e-96
383.10 8.549097e-96
383.20 8.549097e-96
383.30 8.549097e-96
383.40 8.549097e-96
383.50 8.549097e-96
383.60 8.549097e-96
383.70 8.549097e-96
383.80 8.549097e-96
383.90 8.549097e-96
384.00 8.549097e-96
384.10 8.549097e-96
384.20 8.549097e-96
384.30 8.549097e-96
384.40 8.549097e-96
384.50 8.549097e-96
384.60 8.549097e-96
384.70 8.549097e-96
384.80 8.549097e-96
384.90 8.549097e-96
385.00 8.549097e-96
385.10 8.549097e-96
385.20 8.549097e-96
385.30 8.549097e-96
385.40 8.549097e-96
385.50 8.549097e-96
385.60 8.549097e-96
385.70 8.549097e-96
385.80 8.549097e-96
385.90 8.549097e-96
386.00 8.549097e-96
386.10 8.549097e-96
386.20 8.549097e-96
386.30 8.549097e-96
386.40 8.549097e-96
386.50 8.549097e-96
386.60 8.549097e-96
386.70 8.549097e-96
386.80 8.549097e-96
386.90 8.549097e-96
387.00 8.549097e-96
387.10 8.549097e-96
387.20 8.549097e-96
387.30 8.549097e-96
387.40 8.549097e-96
387.50 8.549097e-96
387.60 8.549097e-96
387.70 8.549097e-96
387.80 8.549097e-96
387.90 8.549097e-96
388.00 8.549097e-96
388.10 8.549097e-96
388.20 8.549097e-96
388.30 8.549097e-96
388.40 8.549097e-96
388.50 8.549097e-96
388.60 8.549097e-96
388.70 8.549097e-96
388.80 8.549097e-96
388.90 8.549097e-96
389.00 8.549097e-96
389.10 8.549097e-96
389.20 8.549097e-96
389.30 8.549097e-96
389.40 8.549097e-96
389.50 8.549097e-96
389.60 8.549097e-96
389.70 8.549097e-96
389.80 8.549097e-96
389.90 8.549097e-96
390.00 8.549097e-96
390.10 8.549097e-96
390.20 8.549097e-96
390.30 8.549097e-96
390.40 8.549097e-96
390.50 8.549097e-96
390.60 8.549097e-96
390.70 8.549097e-96
390.80 8.549097e-96
390.90 8.549097e-96
391.00 8.549097e-96
391.10 8.549097e-96
391.20 8.549097e-96
391.30 8.549097e-96
391.40 8.549097e-96
391.50 8.549097e-96
391.60 8.549097e-96
391.70 8.549097e-96
391.80 8.549097e-96
391.90 8.549097e-96
392.00 8.549097e-96
392.10 8.549097e-96
392.20 8.549097e-96
392.30 8.549097e-96
392.40 8.549097e-96
392.50 8.549097e-96
392.60 8.549097e-96
392.70 8.549097e-96
392.80 8.549097e-96
392.90 8.549097e-96
393.00 8.549097e-96
393.10 8.549097e-96
393.20 8.549097e-96
393.30 8.549097e-96
393.40 8.549097e-96
393.50 8.549097e-96
393.60 8.549097e-96
393.70 8.549097e-96
393.80 8.549097e-96
393.90 8.549097e-96
394.00 8.549097e-96
394.10 8.549097e-96
394.20 8.549097e-96
394.30 8.549097e-96
394.40 8.549097e-96
394.50 8.549097e-96
394.60 8.549097e-96
394.70 8.549097e-96
394.80 8.549097e-96
394.90 8.549097e-96
395.00 8.463606e-96
395.10 8.378115e-96
395.20 8.292624e-96
395.30 8.207133e-96
395.40 8.121642e-96
395.50 8.036151e-96
395.60 7.95066e-96
395.70 7.865169e-96
395.80 7.779678e-96
395.90 7.694187e-96
396.00 7.608696e-96
396.10 7.523205e-96
396.20 7.437714e-96
396.30 7.352223e-96
396.40 7.266732e-96
396.50 7.181242e-96
396.60 7.095751e-96
396.70 7.01026e-96
396.80 6.924769e-96
396.90 6.839278e-96
397.00 6.753787e-96
397.10 6.668296e-96
397.20 6.582805e-96
397.30 6.497314e-96
397.40 6.411823e-96
397.50 6.326332e-96
397.60 6.240841e-96
397.70 6.15535e-96
397.80 6.069859e-96
397.90 0.007754377
398.00 0.02476451
398.10 0.0447353
398.20 0.06116563
398.30 0.06873473
398.40 0.06873473
398.50 0.06873473
398.60 0.06873473
398.70 0.06873473
398.80 0.06873473
398.90 0.06873473
399.00 0.081343
399.10 0.1109807
399.20 0.1528601
399.30 0.2012673
399.40 0.2513571
399.50 0.2997176
399.60 0.3438062
399.70 0.3833793
