# Version 2.1 - nm, norm@500 to 1, cut digits
# Wavelength(nm)  Flambda(ergs/cm^s/s/nm)
300.00 0.01046993
300.10 0.01391714
300.20 0.01601627
300.30 0.016884
300.40 0.01711092
300.50 0.01717719
300.60 0.01724345
300.70 0.01731039
300.80 0.01738076
300.90 0.0174598
301.00 0.01755331
301.10 0.01766386
301.20 0.01778887
301.30 0.01792256
301.40 0.01805968
301.50 0.01819748
301.60 0.01833528
301.70 0.01847308
301.80 0.01861088
301.90 0.01874868
302.00 0.01888648
302.10 0.01902428
302.20 0.01916208
302.30 0.01929988
302.40 0.01943767
302.50 0.01957547
302.60 0.01971327
302.70 0.01985159
302.80 0.01999251
302.90 0.02014002
303.00 0.02029851
303.10 0.02046994
303.20 0.02065234
303.30 0.02084135
303.40 0.02103294
303.50 0.02122506
303.60 0.02141718
303.70 0.0216093
303.80 0.02180141
303.90 0.02199353
304.00 0.02218565
304.10 0.02237777
304.20 0.02256989
304.30 0.022762
304.40 0.02295412
304.50 0.02314624
304.60 0.02333836
304.70 0.02352888
304.80 0.02371147
304.90 0.02387389
305.00 0.02400272
305.10 0.02409199
305.20 0.02414767
305.30 0.02418319
305.40 0.02421076
305.50 0.02423674
305.60 0.02426273
305.70 0.02428871
305.80 0.0243147
305.90 0.02434068
306.00 0.02436666
306.10 0.02439265
306.20 0.02441863
306.30 0.02444461
306.40 0.0244706
306.50 0.02449658
306.60 0.02452256
306.70 0.02454855
306.80 0.02457456
306.90 0.0246006
307.00 0.02462672
307.10 0.02465293
307.20 0.02467921
307.30 0.02470553
307.40 0.02473188
307.50 0.02475822
307.60 0.02478456
307.70 0.02481091
307.80 0.02483725
307.90 0.0248636
308.00 0.02488994
308.10 0.02491629
308.20 0.02494263
308.30 0.02496898
308.40 0.02499532
308.50 0.02502166
308.60 0.02504801
308.70 0.02507833
308.80 0.02512854
308.90 0.02522921
309.00 0.02541395
309.10 0.02569769
309.20 0.0260655
309.30 0.02648378
309.40 0.02692193
309.50 0.02736407
309.60 0.0278062
309.70 0.02824834
309.80 0.02869048
309.90 0.02913261
310.00 0.02957475
310.10 0.03001688
310.20 0.03045902
310.30 0.03090116
310.40 0.03134329
310.50 0.03178543
310.60 0.03222757
310.70 0.0326657
310.80 0.03308385
310.90 0.03345127
311.00 0.03373418
311.10 0.03391756
311.20 0.03401643
311.30 0.03406457
311.40 0.03409273
311.50 0.03411688
311.60 0.03414103
311.70 0.03416519
311.80 0.03418934
311.90 0.0342135
312.00 0.03423765
312.10 0.0342618
312.20 0.03428596
312.30 0.03431011
312.40 0.03433427
312.50 0.03435842
312.60 0.03438257
312.70 0.03441167
312.80 0.03446545
312.90 0.03458188
313.00 0.03480269
313.10 0.03514642
313.20 0.03559452
313.30 0.03610529
313.40 0.03664073
313.50 0.03718112
313.60 0.0377215
313.70 0.03826189
313.80 0.03880227
313.90 0.03934266
314.00 0.03988304
314.10 0.04042343
314.20 0.04096381
314.30 0.0415042
314.40 0.04204458
314.50 0.04258497
314.60 0.04312535
314.70 0.04366918
314.80 0.04423018
314.90 0.0448348
315.00 0.04551208
315.10 0.04627492
315.20 0.04711041
315.30 0.04798953
315.40 0.04888582
315.50 0.04978555
315.60 0.05068528
315.70 0.05158501
315.80 0.05248474
315.90 0.05338447
316.00 0.05428421
316.10 0.05518394
316.20 0.05608367
316.30 0.0569834
316.40 0.05788313
316.50 0.05878286
316.60 0.05968259
316.70 0.06056968
316.80 0.06139362
316.90 0.06205723
317.00 0.06245376
317.10 0.0625358
317.20 0.06235075
317.30 0.06200538
317.40 0.06159687
317.50 0.06117571
317.60 0.06075454
317.70 0.06033338
317.80 0.05991222
317.90 0.05949105
318.00 0.05906989
318.10 0.05864873
318.20 0.05822757
318.30 0.0578064
318.40 0.05738524
318.50 0.05696408
318.60 0.05654291
318.70 0.05613143
318.80 0.05576829
318.90 0.05552787
319.00 0.0554919
319.10 0.05569667
319.20 0.0561059
319.30 0.05663785
319.40 0.05721813
319.50 0.0578081
319.60 0.05839807
319.70 0.05898803
319.80 0.059578
319.90 0.06016797
320.00 0.06075794
320.10 0.0613479
320.20 0.06193787
320.30 0.06252784
320.40 0.06311781
320.50 0.06370777
320.60 0.06429774
320.70 0.06488413
320.80 0.06545264
320.90 0.06597576
321.00 0.06642326
321.10 0.06678173
321.20 0.06706457
321.30 0.06730203
321.40 0.06752161
321.50 0.06773762
321.60 0.06795362
321.70 0.06816962
321.80 0.06838562
321.90 0.06860162
322.00 0.06881762
322.10 0.06903362
322.20 0.06924962
322.30 0.06946562
322.40 0.06968162
322.50 0.06989762
322.60 0.07011362
322.70 0.0703427
322.80 0.07063708
322.90 0.07109726
323.00 0.07183363
323.10 0.07289523
323.20 0.07423303
323.30 0.07573663
323.40 0.07730552
323.50 0.07888749
323.60 0.08046946
323.70 0.08205144
323.80 0.08363341
323.90 0.08521539
324.00 0.08679736
324.10 0.08837933
324.20 0.08996131
324.30 0.09154328
324.40 0.09312525
324.50 0.09470723
324.60 0.0962892
324.70 0.09786905
324.80 0.09943829
324.90 0.1009806
325.00 0.102478
325.10 0.1039227
325.20 0.1053224
325.30 0.1066952
325.40 0.1080574
325.50 0.1094175
325.60 0.1107776
325.70 0.1121377
325.80 0.1134978
325.90 0.1148579
326.00 0.1162179
326.10 0.117578
326.20 0.1189381
326.30 0.1202982
326.40 0.1216583
326.50 0.1230184
326.60 0.1243784
326.70 0.1257431
326.80 0.1271306
326.90 0.1285762
327.00 0.1301185
327.10 0.1317746
327.20 0.1335275
327.30 0.1353383
327.40 0.1371721
327.50 0.1390104
327.60 0.1408487
327.70 0.1426871
327.80 0.1445254
327.90 0.1463637
328.00 0.1482021
328.10 0.1500404
328.20 0.1518787
328.30 0.153717
328.40 0.1555554
328.50 0.1573937
328.60 0.159232
328.70 0.1610435
328.80 0.1627208
328.90 0.1640575
329.00 0.1648269
329.10 0.1649281
329.20 0.164462
329.30 0.1636553
329.40 0.1627145
329.50 0.1617468
329.60 0.1607791
329.70 0.1598114
329.80 0.1588437
329.90 0.157876
330.00 0.1569083
330.10 0.1559406
330.20 0.1549729
330.30 0.1540052
330.40 0.1530375
330.50 0.1520698
330.60 0.1511021
330.70 0.1501543
330.80 0.1493061
330.90 0.1487105
331.00 0.1485357
331.10 0.1488566
331.20 0.1495983
331.30 0.1505927
331.40 0.1516866
331.50 0.1528005
331.60 0.1539143
331.70 0.1550281
331.80 0.156142
331.90 0.1572558
332.00 0.1583696
332.10 0.1594834
332.20 0.1605973
332.30 0.1617111
332.40 0.1628249
332.50 0.1639388
332.60 0.1650526
332.70 0.1661538
332.80 0.167192
332.90 0.1680703
333.00 0.168682
333.10 0.16898
333.20 0.1690115
333.30 0.1688831
333.40 0.1686916
333.50 0.1684875
333.60 0.1682835
333.70 0.1680794
333.80 0.1678753
333.90 0.1676712
334.00 0.1674672
334.10 0.1672631
334.20 0.167059
334.30 0.1668549
334.40 0.1666508
334.50 0.1664468
334.60 0.1664126
334.70 0.1669326
334.80 0.1681548
334.90 0.1693964
335.00 0.1693573
335.10 0.1676829
335.20 0.1664196
335.30 0.1693928
335.40 0.179261
335.50 0.1945142
335.60 0.2093123
335.70 0.2168818
335.80 0.2138847
335.90 0.202072
336.00 0.1864156
336.10 0.1720341
336.20 0.1624978
336.30 0.1593028
336.40 0.1612372
336.50 0.1645303
336.60 0.1651125
336.70 0.1619917
336.80 0.1585161
336.90 0.1597483
337.00 0.1681282
337.10 0.1810936
337.20 0.1925467
337.30 0.1970441
337.40 0.1936189
337.50 0.1863832
337.60 0.181384
337.70 0.1821176
337.80 0.1874764
337.90 0.1937789
338.00 0.1982105
338.10 0.1999968
338.20 0.1987296
338.30 0.1930713
338.40 0.1825668
338.50 0.1703203
338.60 0.1625146
338.70 0.1639681
338.80 0.1736384
338.90 0.1849548
339.00 0.1910983
339.10 0.1905857
339.20 0.1881828
339.30 0.1902181
339.40 0.1987548
339.50 0.210254
339.60 0.2194017
339.70 0.2235734
339.80 0.2235054
339.90 0.2206624
340.00 0.215628
340.10 0.2090045
340.20 0.2021849
340.30 0.1962268
340.40 0.1904179
340.50 0.1830226
340.60 0.1736229
340.70 0.1640853
340.80 0.1570826
340.90 0.1541347
341.00 0.1551402
341.10 0.1591707
341.20 0.1651569
341.30 0.171842
341.40 0.1777457
341.50 0.1817359
341.60 0.1837012
341.70 0.1845993
341.80 0.1857294
341.90 0.1877725
342.00 0.1901869
342.10 0.1913152
342.20 0.1893923
342.30 0.1840296
342.40 0.1770145
342.50 0.1714052
342.60 0.1694758
342.70 0.1712984
342.80 0.1750391
342.90 0.1784064
343.00 0.1800602
343.10 0.1802143
343.20 0.1801368
343.30 0.1809178
343.40 0.1825186
343.50 0.1839973
343.60 0.1845055
343.70 0.18381
343.80 0.1820915
343.90 0.1797754
344.00 0.177639
344.10 0.1765814
344.20 0.1768374
344.30 0.177581
344.40 0.1776509
344.50 0.1766615
344.60 0.1753164
344.70 0.1747912
344.80 0.1759846
344.90 0.1792141
345.00 0.1843114
345.10 0.1907498
345.20 0.1976713
345.30 0.2038885
345.40 0.2080741
345.50 0.2094007
345.60 0.2082318
345.70 0.2060608
345.80 0.2044901
345.90 0.2041109
346.00 0.2042381
346.10 0.2035102
346.20 0.2008394
346.30 0.1962679
346.40 0.1912424
346.50 0.1877731
346.60 0.1868351
346.70 0.1875211
346.80 0.1878851
346.90 0.1865264
347.00 0.1833117
347.10 0.1791068
347.20 0.1753484
347.30 0.1736386
347.40 0.1749959
347.50 0.1790527
347.60 0.1842267
347.70 0.1889367
347.80 0.1926607
347.90 0.1959196
348.00 0.1994556
348.10 0.2034014
348.20 0.2070136
348.30 0.2091638
348.40 0.209253
348.50 0.2077367
348.60 0.2056548
348.70 0.2036838
348.80 0.2018184
348.90 0.1998404
349.00 0.197761
349.10 0.1957648
349.20 0.1940174
349.30 0.1927567
349.40 0.1924091
349.50 0.1932468
349.60 0.1948547
349.70 0.1961934
349.80 0.1965189
349.90 0.1964287
350.00 0.19779
350.10 0.2022689
350.20 0.2097334
350.30 0.2180854
350.40 0.2246927
350.50 0.2280525
350.60 0.2282866
350.70 0.2264378
350.80 0.2235828
350.90 0.220324
351.00 0.2165548
351.10 0.2115099
351.20 0.2043632
351.30 0.1952905
351.40 0.1860504
351.50 0.1791391
351.60 0.1760213
351.70 0.176098
351.80 0.177402
351.90 0.1782379
352.00 0.1781288
352.10 0.1774186
352.20 0.1765071
352.30 0.175741
352.40 0.1758647
352.50 0.1782419
352.60 0.1841075
352.70 0.1932896
352.80 0.2037224
352.90 0.2125987
353.00 0.2184373
353.10 0.2220288
353.20 0.2252236
353.30 0.2290474
353.40 0.2332499
353.50 0.2373284
353.60 0.2413852
353.70 0.245808
353.80 0.2505902
353.90 0.2553065
354.00 0.259401
354.10 0.2621508
354.20 0.2626846
354.30 0.260654
354.40 0.2569877
354.50 0.2535759
354.60 0.2518578
354.70 0.2517607
354.80 0.2520981
354.90 0.2518154
355.00 0.2507153
355.10 0.2492216
355.20 0.2477857
355.30 0.2466162
355.40 0.245814
355.50 0.2454231
355.60 0.2451964
355.70 0.2444423
355.80 0.2423469
355.90 0.2386503
356.00 0.2339562
356.10 0.2292405
356.20 0.2250152
356.30 0.2209197
356.40 0.2161155
356.50 0.2101984
356.60 0.2038611
356.70 0.1986458
356.80 0.1958692
356.90 0.1956494
357.00 0.1969167
357.10 0.1982399
357.20 0.1985755
357.30 0.1974786
357.40 0.194973
357.50 0.1914101
357.60 0.1873673
357.70 0.1834449
357.80 0.1800226
357.90 0.1771743
358.00 0.1748781
358.10 0.1733854
358.20 0.1733174
358.30 0.1752585
358.40 0.1791693
358.50 0.1841759
358.60 0.1889078
358.70 0.1920849
358.80 0.1930509
358.90 0.1920897
359.00 0.1904471
359.10 0.1898622
359.20 0.1916109
359.30 0.1956156
359.40 0.2003433
359.50 0.2037654
359.60 0.2047327
359.70 0.2036889
359.80 0.2021678
359.90 0.2014971
360.00 0.2017435
360.10 0.2017156
360.20 0.199981
360.30 0.1960165
360.40 0.1906482
360.50 0.1856388
360.60 0.1828704
360.70 0.1835954
360.80 0.187872
360.90 0.1944324
361.00 0.201306
361.10 0.2069403
361.20 0.2109371
361.30 0.213747
361.40 0.2157602
361.50 0.2168923
361.60 0.2171223
361.70 0.2170767
361.80 0.2176891
361.90 0.2192522
362.00 0.2210683
362.10 0.2221803
362.20 0.2222515
362.30 0.2216619
362.40 0.2210483
362.50 0.2209424
362.60 0.2215212
362.70 0.2223016
362.80 0.2222265
362.90 0.220506
363.00 0.2175371
363.10 0.2147871
363.20 0.2136105
363.30 0.2142399
363.40 0.2158842
363.50 0.2175571
363.60 0.2187119
363.70 0.2192944
363.80 0.2194156
363.90 0.2190301
364.00 0.2178557
364.10 0.2155701
364.20 0.2121367
364.30 0.2079872
364.40 0.2039296
364.50 0.200886
364.60 0.1995356
364.70 0.199936
364.80 0.2014411
364.90 0.2031896
365.00 0.2048918
365.10 0.2071222
365.20 0.2106111
365.30 0.2151578
365.40 0.219365
365.50 0.2216068
365.60 0.2213691
365.70 0.2196396
365.80 0.2179554
365.90 0.2171565
366.00 0.2170702
366.10 0.2172128
366.20 0.2175508
366.30 0.2184353
366.40 0.2199572
366.50 0.2215941
366.60 0.2224844
366.70 0.2219842
366.80 0.2200025
366.90 0.2169529
367.00 0.2135372
367.10 0.2105525
367.20 0.2087227
367.30 0.2085132
367.40 0.2099287
367.50 0.2124729
367.60 0.2153911
367.70 0.2180619
367.80 0.2202559
367.90 0.222094
368.00 0.2237913
368.10 0.2253984
368.20 0.2267109
368.30 0.2273689
368.40 0.2270907
368.50 0.2259376
368.60 0.2244244
368.70 0.2233058
368.80 0.2231159
368.90 0.2238421
369.00 0.2250742
369.10 0.2264869
369.20 0.2280633
369.30 0.2297881
369.40 0.2312572
369.50 0.2317785
369.60 0.2309713
369.70 0.2292332
369.80 0.2276019
369.90 0.227167
370.00 0.2285046
370.10 0.231451
370.20 0.2352883
370.30 0.2391306
370.40 0.2422293
370.50 0.2440985
370.60 0.2445703
370.70 0.2439271
370.80 0.2429192
370.90 0.2424301
371.00 0.242903
371.10 0.2439734
371.20 0.2446066
371.30 0.2436336
371.40 0.240403
371.50 0.2352142
371.60 0.2292732
371.70 0.2241282
371.80 0.2209631
371.90 0.2202133
372.00 0.2216021
372.10 0.2242211
372.20 0.2264675
372.30 0.2263225
372.40 0.2222854
372.50 0.2145499
372.60 0.205359
372.70 0.1980005
372.80 0.195132
372.90 0.1976174
373.00 0.2044615
373.10 0.2135334
373.20 0.2224497
373.30 0.2292202
373.40 0.2326457
373.50 0.232404
373.60 0.2288295
373.70 0.2225944
373.80 0.2145662
373.90 0.2058868
374.00 0.1979878
374.10 0.1923422
374.20 0.190089
374.30 0.1918326
374.40 0.1976899
374.50 0.2073325
374.60 0.2198654
374.70 0.233656
374.80 0.246437
374.90 0.2558818
375.00 0.2604024
375.10 0.2596607
375.20 0.2545129
375.30 0.2465638
375.40 0.2376745
375.50 0.2295709
375.60 0.2234335
375.70 0.2195807
375.80 0.2174884
375.90 0.216225
376.00 0.2150975
376.10 0.2141602
376.20 0.214324
376.30 0.2169791
376.40 0.2233168
376.50 0.2338168
376.60 0.2482345
376.70 0.2657587
376.80 0.2848993
376.90 0.3031755
377.00 0.3173189
377.10 0.324393
377.20 0.3231367
377.30 0.3144539
377.40 0.3007479
377.50 0.2847856
377.60 0.2689062
377.70 0.2547932
377.80 0.2434148
377.90 0.2349727
378.00 0.2290228
378.10 0.2248599
378.20 0.2219299
378.30 0.2199341
378.40 0.2186649
378.50 0.2179516
378.60 0.2178211
378.70 0.2185884
378.80 0.2207211
378.90 0.2247431
379.00 0.2313928
379.10 0.2417146
379.20 0.2566248
379.30 0.2761106
379.40 0.2987331
379.50 0.3218351
379.60 0.3421543
379.70 0.3564728
379.80 0.3623458
379.90 0.3588629
380.00 0.3471144
380.10 0.3298736
380.20 0.3105398
380.30 0.2919733
380.40 0.2758939
380.50 0.262924
380.60 0.2529263
380.70 0.2452951
380.80 0.2391713
380.90 0.2338153
381.00 0.2289717
381.10 0.2248584
381.20 0.2217279
381.30 0.219453
381.40 0.2176503
381.50 0.2162221
381.60 0.2155707
381.70 0.2160867
381.80 0.2174293
381.90 0.2184554
382.00 0.2180516
382.10 0.2161297
382.20 0.2136681
382.30 0.2119079
382.40 0.2104112
382.50 0.2061973
382.60 0.1964533
382.70 0.1826996
382.80 0.1721601
382.90 0.1723791
383.00 0.1837112
383.10 0.1980146
383.20 0.2057354
383.30 0.2040578
383.40 0.1982166
383.50 0.1952968
383.60 0.1970393
383.70 0.1992711
383.80 0.1971452
383.90 0.1908092
384.00 0.1859447
384.10 0.1895289
384.20 0.2045509
384.30 0.2276376
384.40 0.2505708
384.50 0.2649407
384.60 0.267663
384.70 0.2616633
384.80 0.2513627
384.90 0.2391227
385.00 0.2272356
385.10 0.2202891
385.20 0.2220246
385.30 0.2295729
385.40 0.2344967
385.50 0.2304272
385.60 0.2178633
385.70 0.2024006
385.80 0.19002
385.90 0.1846174
386.00 0.1872434
386.10 0.1964318
386.20 0.2095085
386.30 0.2239164
386.40 0.2378189
386.50 0.2497754
386.60 0.2590079
386.70 0.2659308
386.80 0.2714323
386.90 0.2745834
387.00 0.272009
387.10 0.2608375
387.20 0.2424826
387.30 0.2229035
387.40 0.2078208
387.50 0.1984598
387.60 0.1923362
387.70 0.1872905
387.80 0.1844363
387.90 0.1870741
388.00 0.1973359
388.10 0.2135816
388.20 0.2305577
388.30 0.2417554
388.40 0.2424348
388.50 0.2330332
388.60 0.2201467
388.70 0.2130245
388.80 0.2165024
388.90 0.2277683
389.00 0.2410582
389.10 0.2535132
389.20 0.2649168
389.30 0.2727079
389.40 0.2728392
389.50 0.2662715
389.60 0.2603507
389.70 0.2609896
389.80 0.2652362
389.90 0.2648554
390.00 0.2558978
390.10 0.2426797
390.20 0.2326219
390.30 0.2305285
390.40 0.2372897
390.50 0.2507684
390.60 0.2666032
390.70 0.2790733
390.80 0.2842779
390.90 0.2830383
391.00 0.2799937
391.10 0.2801339
391.20 0.2857325
391.30 0.2951406
391.40 0.3037742
391.50 0.3061591
391.60 0.2992774
391.70 0.2851855
391.80 0.2694237
391.90 0.2559612
392.00 0.2442706
392.10 0.2319477
392.20 0.2196582
392.30 0.2118872
392.40 0.2119376
392.50 0.2175297
392.60 0.2225833
392.70 0.2225241
392.80 0.21641
392.90 0.2056498
393.00 0.1926358
393.10 0.1813655
393.20 0.1767031
393.30 0.1803122
393.40 0.1886617
393.50 0.1968193
393.60 0.2029779
393.70 0.2083745
393.80 0.2140768
393.90 0.2193123
394.00 0.2228383
394.10 0.2232879
394.20 0.219068
394.30 0.2107633
394.40 0.2030019
394.50 0.2016793
394.60 0.2086536
394.70 0.220497
394.80 0.2330582
394.90 0.2456251
395.00 0.2603091
395.10 0.2777812
395.20 0.2947981
395.30 0.3064402
395.40 0.3098551
395.50 0.3050195
395.60 0.2930283
395.70 0.2755687
395.80 0.2556917
395.90 0.2367026
396.00 0.2195003
396.10 0.2036667
396.20 0.190937
396.30 0.1846609
396.40 0.1852806
396.50 0.1887991
396.60 0.1916329
396.70 0.1943815
396.80 0.1989984
396.90 0.2041553
397.00 0.2059353
397.10 0.2038644
397.20 0.2042474
397.30 0.2150293
397.40 0.2374207
397.50 0.2639261
397.60 0.285505
397.70 0.2999298
397.80 0.311271
397.90 0.3222421
398.00 0.3303383
398.10 0.3322077
398.20 0.3296716
398.30 0.3293497
398.40 0.336101
398.50 0.349017
398.60 0.3630289
398.70 0.372362
398.80 0.3732239
398.90 0.3660741
399.00 0.3572216
399.10 0.3556438
399.20 0.365283
399.30 0.3811266
399.40 0.3938361
399.50 0.3971134
399.60 0.3902208
399.70 0.3762527
399.80 0.3610771
399.90 0.352869
400.00 0.3581952
400.10 0.3763097
400.20 0.3982312
400.30 0.4121058
400.40 0.4107153
400.50 0.3954076
400.60 0.3743236
400.70 0.3574097
400.80 0.3517193
400.90 0.3589996
401.00 0.376043
401.10 0.3969264
401.20 0.4155236
401.30 0.4275472
401.40 0.4318384
401.50 0.4299062
401.60 0.4245458
401.70 0.4183853
401.80 0.41298
401.90 0.4094482
402.00 0.4091716
402.10 0.412935
402.20 0.4194242
402.30 0.4257843
402.40 0.4301175
402.50 0.4333725
402.60 0.4370521
402.70 0.4387234
402.80 0.4316383
402.90 0.4097643
403.00 0.3741054
403.10 0.3340267
403.20 0.3022263
403.30 0.2878334
403.40 0.2930737
403.50 0.3147296
403.60 0.3473221
403.70 0.3847223
403.80 0.419795
403.90 0.4447309
404.00 0.4543495
404.10 0.4495133
404.20 0.4355986
404.30 0.4169886
404.40 0.3945762
404.50 0.3704472
404.60 0.3526996
404.70 0.3511239
404.80 0.3677448
404.90 0.3941858
405.00 0.4189407
405.10 0.4358461
405.20 0.4455087
405.30 0.4508656
405.40 0.4536694
405.50 0.4541459
405.60 0.4524795
405.70 0.450178
405.80 0.4490877
405.90 0.4491332
406.00 0.4468603
406.10 0.4368878
406.20 0.4165438
406.30 0.3905278
406.40 0.3703529
406.50 0.3667067
406.60 0.3810769
406.70 0.4045178
406.80 0.424211
406.90 0.4313516
407.00 0.4247814
407.10 0.4109622
407.20 0.4007225
407.30 0.4024204
407.40 0.4148074
407.50 0.426614
407.60 0.4257161
407.70 0.4102623
407.80 0.3912566
407.90 0.3835082
408.00 0.3938876
408.10 0.4173234
408.20 0.4426905
408.30 0.4615626
408.40 0.4724733
408.50 0.4791308
408.60 0.4858148
408.70 0.4944199
408.80 0.5038645
408.90 0.5112847
409.00 0.5141212
409.10 0.5122321
409.20 0.5080041
409.30 0.5029538
409.40 0.4946139
409.50 0.4789703
409.60 0.4563367
409.70 0.4324969
409.80 0.4135206
409.90 0.4010119
410.00 0.3935803
410.10 0.3909562
410.20 0.394569
410.30 0.4049997
410.40 0.4196703
410.50 0.4334853
410.60 0.4422123
410.70 0.4458191
410.80 0.4480083
410.90 0.4520135
411.00 0.457619
411.10 0.4624578
411.20 0.4655183
411.30 0.468153
411.40 0.4723624
411.50 0.4786371
411.60 0.4847458
411.70 0.4867649
411.80 0.4822976
411.90 0.4736804
412.00 0.4669535
412.10 0.466856
412.20 0.4735596
412.30 0.4844705
412.40 0.4975891
412.50 0.5112921
412.60 0.5219807
412.70 0.5248012
412.80 0.5178197
412.90 0.5033463
413.00 0.48459
413.10 0.4630015
413.20 0.4401218
413.30 0.4209586
413.40 0.412751
413.50 0.4196229
413.60 0.4389094
413.70 0.4624595
413.80 0.4813666
413.90 0.4900232
414.00 0.4862483
414.10 0.4698558
414.20 0.4435177
414.30 0.4150789
414.40 0.3961007
414.50 0.3946998
414.60 0.4098533
414.70 0.4337016
414.80 0.4582037
414.90 0.4782833
415.00 0.4907665
415.10 0.4943767
415.20 0.4918707
415.30 0.4896526
415.40 0.4929985
415.50 0.5020608
415.60 0.5132769
415.70 0.523675
415.80 0.5327178
415.90 0.5407679
416.00 0.5474994
416.10 0.551842
416.20 0.5525077
