# Version 2.1 - nm, norm@500 to 1, cut digits
# Wavelength(nm)  Flambda(ergs/cm^s/s/nm)
300.00 0.01032737
300.10 0.01372593
300.20 0.01579624
300.30 0.01665311
300.40 0.01687822
300.50 0.01694458
300.60 0.01701054
300.70 0.01707689
300.80 0.01714644
300.90 0.01722446
301.00 0.01731672
301.10 0.01742577
301.20 0.01754908
301.30 0.01768095
301.40 0.0178162
301.50 0.01795214
301.60 0.01808807
301.70 0.01822401
301.80 0.01835996
301.90 0.0184959
302.00 0.01863184
302.10 0.01876778
302.20 0.01890372
302.30 0.01903966
302.40 0.01917561
302.50 0.01931155
302.60 0.0194475
302.70 0.01958397
302.80 0.019723
302.90 0.01986853
303.00 0.02002489
303.10 0.020194
303.20 0.02037393
303.30 0.02056037
303.40 0.02074938
303.50 0.0209389
303.60 0.02112842
303.70 0.02131795
303.80 0.02150748
303.90 0.021697
304.00 0.02188653
304.10 0.02207606
304.20 0.02226559
304.30 0.02245511
304.40 0.02264464
304.50 0.02283415
304.60 0.02302366
304.70 0.02321159
304.80 0.02339167
304.90 0.02355186
305.00 0.02367894
305.10 0.02376702
305.20 0.02382199
305.30 0.02385707
305.40 0.0238843
305.50 0.02390996
305.60 0.0239356
305.70 0.02396124
305.80 0.02398687
305.90 0.02401251
306.00 0.02403814
306.10 0.02406377
306.20 0.02408941
306.30 0.02411504
306.40 0.02414067
306.50 0.0241663
306.60 0.02419194
306.70 0.02421757
306.80 0.02424323
306.90 0.02426893
307.00 0.02429469
307.10 0.02432055
307.20 0.02434647
307.30 0.02437244
307.40 0.02439843
307.50 0.02442442
307.60 0.02445041
307.70 0.0244764
307.80 0.02450238
307.90 0.02452837
308.00 0.02455436
308.10 0.02458035
308.20 0.02460634
308.30 0.02463233
308.40 0.02465833
308.50 0.02468435
308.60 0.02471039
308.70 0.02474039
308.80 0.02479001
308.90 0.02488942
309.00 0.0250717
309.10 0.02535158
309.20 0.02571434
309.30 0.02612688
309.40 0.02655905
309.50 0.02699517
309.60 0.02743132
309.70 0.02786748
309.80 0.02830366
309.90 0.02873983
310.00 0.02917601
310.10 0.02961218
310.20 0.03004836
310.30 0.03048453
310.40 0.03092069
310.50 0.03135684
310.60 0.03179297
310.70 0.03222511
310.80 0.03263752
310.90 0.0329999
311.00 0.03327895
311.10 0.0334599
311.20 0.03355753
311.30 0.03360512
311.40 0.03363298
311.50 0.03365686
311.60 0.03368071
311.70 0.03370455
311.80 0.03372838
311.90 0.03375221
312.00 0.03377604
312.10 0.03379987
312.20 0.0338237
312.30 0.03384753
312.40 0.03387137
312.50 0.03389523
312.60 0.03391912
312.70 0.03394793
312.80 0.0340011
312.90 0.03411608
313.00 0.03433396
313.10 0.03467301
313.20 0.03511496
313.30 0.03561871
313.40 0.03614683
313.50 0.03667987
313.60 0.03721294
313.70 0.03774602
313.80 0.03827912
313.90 0.03881222
314.00 0.03934532
314.10 0.03987842
314.20 0.04041152
314.30 0.04094462
314.40 0.04147773
314.50 0.04201085
314.60 0.04254399
314.70 0.04308055
314.80 0.04363408
314.90 0.04423063
315.00 0.04489881
315.10 0.04565133
315.20 0.04647548
315.30 0.04734266
315.40 0.04822679
315.50 0.04911435
315.60 0.05000193
315.70 0.05088952
315.80 0.05177712
315.90 0.05266472
316.00 0.05355232
316.10 0.05443992
316.20 0.05532752
316.30 0.05621511
316.40 0.05710267
316.50 0.05799019
316.60 0.05887763
316.70 0.0597525
316.80 0.06056501
316.90 0.06121939
317.00 0.06161046
317.10 0.06169151
317.20 0.06150924
317.30 0.06116885
317.40 0.0607661
317.50 0.06035077
317.60 0.05993537
317.70 0.05951992
317.80 0.05910445
317.90 0.05868896
318.00 0.05827348
318.10 0.057858
318.20 0.05744251
318.30 0.05702704
318.40 0.05661158
318.50 0.05619616
318.60 0.05578079
318.70 0.05537506
318.80 0.05501705
318.90 0.0547801
319.00 0.0547447
319.10 0.05494663
319.20 0.05535011
319.30 0.05587464
319.40 0.05644691
319.50 0.0570288
319.60 0.05761075
319.70 0.05819274
319.80 0.05877474
319.90 0.05935675
320.00 0.05993877
320.10 0.06052078
320.20 0.06110279
320.30 0.0616848
320.40 0.06226681
320.50 0.0628488
320.60 0.06343076
320.70 0.06400917
320.80 0.06456993
320.90 0.06508591
321.00 0.06552735
321.10 0.06588101
321.20 0.06616013
321.30 0.06639448
321.40 0.06661117
321.50 0.0668243
321.60 0.06703742
321.70 0.06725051
321.80 0.06746361
321.90 0.06767669
322.00 0.06788978
322.10 0.06810287
322.20 0.06831596
322.30 0.06852906
322.40 0.06874219
322.50 0.06895536
322.60 0.06916861
322.70 0.06939487
322.80 0.06968561
322.90 0.07013988
323.00 0.07086644
323.10 0.07191361
323.20 0.07323308
323.30 0.07471607
323.40 0.07626354
323.50 0.07782402
323.60 0.07938458
323.70 0.08094519
323.80 0.08250582
323.90 0.08406647
324.00 0.08562711
324.10 0.08718776
324.20 0.0887484
324.30 0.09030904
324.40 0.09186968
324.50 0.09343031
324.60 0.09499093
324.70 0.09654944
324.80 0.09809747
324.90 0.09961893
325.00 0.1010962
325.10 0.1025213
325.20 0.1039023
325.30 0.1052566
325.40 0.1066005
325.50 0.1079423
325.60 0.109284
325.70 0.1106258
325.80 0.1119675
325.90 0.1133093
326.00 0.114651
326.10 0.1159928
326.20 0.1173345
326.30 0.1186763
326.40 0.120018
326.50 0.1213598
326.60 0.1227016
326.70 0.124048
326.80 0.1254169
326.90 0.1268431
327.00 0.1283646
327.10 0.1299984
327.20 0.1317275
327.30 0.1335138
327.40 0.1353228
327.50 0.1371363
327.60 0.1389498
327.70 0.1407633
327.80 0.1425768
327.90 0.1443904
328.00 0.1462039
328.10 0.1480175
328.20 0.149831
328.30 0.1516445
328.40 0.153458
328.50 0.1552713
328.60 0.1570846
328.70 0.158871
328.80 0.1605251
328.90 0.1618432
329.00 0.1626019
329.10 0.1627021
329.20 0.1622428
329.30 0.1614477
329.40 0.1605201
329.50 0.1595658
329.60 0.1586113
329.70 0.1576567
329.80 0.1567021
329.90 0.1557474
330.00 0.1547928
330.10 0.1538381
330.20 0.1528835
330.30 0.1519288
330.40 0.1509742
330.50 0.1500197
330.60 0.1490653
330.70 0.1481307
330.80 0.1472944
330.90 0.1467073
331.00 0.1465351
331.10 0.1468514
331.20 0.1475827
331.30 0.1485632
331.40 0.149642
331.50 0.1507405
331.60 0.1518392
331.70 0.152938
331.80 0.1540368
331.90 0.1551356
332.00 0.1562344
332.10 0.1573332
332.20 0.158432
332.30 0.1595308
332.40 0.1606296
332.50 0.1617283
332.60 0.162827
332.70 0.1639131
332.80 0.164937
332.90 0.1658031
333.00 0.1664065
333.10 0.1667006
333.20 0.166732
333.30 0.1666056
333.40 0.1664169
333.50 0.1662158
333.60 0.1660145
333.70 0.1658132
333.80 0.1656119
333.90 0.1654106
334.00 0.1652093
334.10 0.165008
334.20 0.1648067
334.30 0.1646056
334.40 0.1644046
334.50 0.1642037
334.60 0.1641702
334.70 0.1646827
334.80 0.1658873
334.90 0.1671116
335.00 0.1670755
335.10 0.1654299
335.20 0.1641907
335.30 0.1671259
335.40 0.1768537
335.50 0.1918854
335.60 0.206467
335.70 0.2139252
335.80 0.2109716
335.90 0.199331
336.00 0.1839017
336.10 0.1697271
336.20 0.1603253
336.30 0.1571711
336.40 0.1590714
336.50 0.1623124
336.60 0.1628853
336.70 0.1598125
336.80 0.1563921
336.90 0.1576104
337.00 0.1658702
337.10 0.1786472
337.20 0.189934
337.30 0.1943684
337.40 0.1909974
337.50 0.1838721
337.60 0.1789493
337.70 0.1796734
337.80 0.1849533
337.90 0.1911623
338.00 0.1955275
338.10 0.1972857
338.20 0.1960348
338.30 0.1904575
338.40 0.1801058
338.50 0.1680387
338.60 0.1603473
338.70 0.1617784
338.80 0.1713055
338.90 0.1824561
339.00 0.1885126
339.10 0.1880135
339.20 0.1856531
339.30 0.1876649
339.40 0.1960809
339.50 0.2074144
339.60 0.2164304
339.70 0.2205431
339.80 0.2204772
339.90 0.2176756
340.00 0.2127127
340.10 0.2061824
340.20 0.199457
340.30 0.1935791
340.40 0.1878475
340.50 0.1805533
340.60 0.1712853
340.70 0.1618829
340.80 0.1549794
340.90 0.1520725
341.00 0.1530622
341.10 0.157034
341.20 0.162934
341.30 0.1695238
341.40 0.1753442
341.50 0.1792798
341.60 0.1812201
341.70 0.1821083
341.80 0.1832241
341.90 0.1852378
342.00 0.1876162
342.10 0.1887265
342.20 0.1868302
342.30 0.1815449
342.40 0.1746319
342.50 0.169104
342.60 0.1672017
342.70 0.1689962
342.80 0.1726812
342.90 0.175999
343.00 0.1776296
343.10 0.177783
343.20 0.1777083
343.30 0.1784789
343.40 0.1800566
343.50 0.1815136
343.60 0.182014
343.70 0.1813284
343.80 0.1796347
343.90 0.1773521
344.00 0.1752465
344.10 0.1742035
344.20 0.1744546
344.30 0.1751864
344.40 0.1752549
344.50 0.1742805
344.60 0.1729565
344.70 0.1724412
344.80 0.1736198
344.90 0.1768052
345.00 0.1818313
345.10 0.188179
345.20 0.1950027
345.30 0.201132
345.40 0.2052592
345.50 0.2065689
345.60 0.2054192
345.70 0.2032811
345.80 0.2017333
345.90 0.2013582
346.00 0.2014813
346.10 0.2007615
346.20 0.1981276
346.30 0.1936211
346.40 0.1886675
346.50 0.1852469
346.60 0.1843199
346.70 0.1849928
346.80 0.1853486
346.90 0.1840076
347.00 0.1808386
347.10 0.1766948
347.20 0.1729916
347.30 0.1713074
347.40 0.1726457
347.50 0.1766444
347.60 0.1817447
347.70 0.1863887
347.80 0.190062
347.90 0.1932772
348.00 0.1967649
348.10 0.2006557
348.20 0.2042169
348.30 0.2063369
348.40 0.2064257
348.50 0.2049319
348.60 0.2028801
348.70 0.2009368
348.80 0.199097
348.90 0.1971463
349.00 0.1950956
349.10 0.1931272
349.20 0.1914044
349.30 0.1901614
349.40 0.1898185
349.50 0.1906437
349.60 0.1922284
349.70 0.1935487
349.80 0.1938719
349.90 0.1937865
350.00 0.1951319
350.10 0.199549
350.20 0.2069075
350.30 0.21514
350.40 0.2216532
350.50 0.2249662
350.60 0.2251985
350.70 0.223377
350.80 0.2205622
350.90 0.2173477
351.00 0.2136289
351.10 0.2086521
351.20 0.2016042
351.30 0.1926591
351.40 0.1835497
351.50 0.1767352
351.60 0.1736588
351.70 0.1737305
351.80 0.1750124
351.90 0.1758343
352.00 0.1757263
352.10 0.1750269
352.20 0.1741303
352.30 0.173378
352.40 0.1735035
352.50 0.1758505
352.60 0.181635
352.70 0.1906877
352.80 0.2009731
352.90 0.2097256
353.00 0.2154854
353.10 0.2190313
353.20 0.2221858
353.30 0.2259593
353.40 0.2301054
353.50 0.2341292
353.60 0.2381314
353.70 0.2424937
353.80 0.2472097
353.90 0.2518601
354.00 0.2558968
354.10 0.2586079
354.20 0.2591348
354.30 0.2571345
354.40 0.2535221
354.50 0.2501598
354.60 0.2484657
354.70 0.2483682
354.80 0.248699
354.90 0.248419
355.00 0.2473339
355.10 0.2458613
355.20 0.2444455
355.30 0.243292
355.40 0.2425003
355.50 0.2421134
355.60 0.2418877
355.70 0.2411421
355.80 0.2390744
355.90 0.2354288
356.00 0.2307997
356.10 0.2261488
356.20 0.2219804
356.30 0.2179395
356.40 0.2132005
356.50 0.2073656
356.60 0.2011174
356.70 0.1959753
356.80 0.1932364
356.90 0.1930171
357.00 0.1942632
357.10 0.1955648
357.20 0.1958935
357.30 0.1948108
357.40 0.1923398
357.50 0.1888269
357.60 0.1848408
357.70 0.1809731
357.80 0.1775983
357.90 0.1747896
358.00 0.1725259
358.10 0.1710548
358.20 0.1709884
358.30 0.1729021
358.40 0.1767571
358.50 0.1816918
358.60 0.1863561
358.70 0.1894887
358.80 0.1904427
358.90 0.1894982
359.00 0.1878821
359.10 0.187308
359.20 0.1890327
359.30 0.1929798
359.40 0.1976392
359.50 0.2010122
359.60 0.2019666
359.70 0.2009393
359.80 0.1994411
359.90 0.1987796
360.00 0.1990207
360.10 0.198991
360.20 0.1972794
360.30 0.1933713
360.40 0.1880807
360.50 0.1831445
360.60 0.1804171
360.70 0.1811325
360.80 0.1853479
360.90 0.1918144
361.00 0.1985902
361.10 0.2041456
361.20 0.2080877
361.30 0.2108602
361.40 0.212847
361.50 0.2139651
361.60 0.2141938
361.70 0.2141507
361.80 0.2147553
361.90 0.2162962
362.00 0.2180862
362.10 0.2191823
362.20 0.2192531
362.30 0.2186728
362.40 0.2180685
362.50 0.217964
362.60 0.2185337
362.70 0.2193016
362.80 0.2192267
362.90 0.2175307
363.00 0.214605
363.10 0.2118951
363.20 0.2107354
363.30 0.2113552
363.40 0.212975
363.50 0.2146233
363.60 0.2157611
363.70 0.2163349
363.80 0.2164538
363.90 0.2160729
364.00 0.214914
364.10 0.2126598
364.20 0.2092747
364.30 0.2051839
364.40 0.201184
364.50 0.1981834
364.60 0.1968517
364.70 0.1972457
364.80 0.1987289
364.90 0.200453
365.00 0.2021323
365.10 0.2043325
365.20 0.2077726
365.30 0.2122545
365.40 0.2164017
365.50 0.218612
365.60 0.2183793
365.70 0.2166763
365.80 0.2150176
365.90 0.2142306
366.00 0.2141456
366.10 0.2142862
366.20 0.2146195
366.30 0.2154912
366.40 0.2169908
366.50 0.2186033
366.60 0.2194799
366.70 0.2189861
366.80 0.2170325
366.90 0.2140266
367.00 0.21066
367.10 0.2077182
367.20 0.2059147
367.30 0.2057081
367.40 0.2071032
367.50 0.2096109
367.60 0.2124876
367.70 0.215121
367.80 0.217285
367.90 0.2190982
368.00 0.2207723
368.10 0.2223572
368.20 0.2236513
368.30 0.2243001
368.40 0.2240263
368.50 0.2228904
368.60 0.2213997
368.70 0.2202978
368.80 0.2201108
368.90 0.2208268
369.00 0.2220412
369.10 0.2234339
369.20 0.224988
369.30 0.226688
369.40 0.2281359
369.50 0.22865
369.60 0.2278552
369.70 0.2261435
369.80 0.2245372
369.90 0.22411
370.00 0.2254293
370.10 0.2283339
370.20 0.2321165
370.30 0.2359042
370.40 0.2389591
370.50 0.2408026
370.60 0.241269
370.70 0.2406365
370.80 0.2396443
370.90 0.2391626
371.00 0.2396279
371.10 0.240681
371.20 0.2413028
371.30 0.2403416
371.40 0.2371559
371.50 0.2320408
371.60 0.2261847
371.70 0.2211131
371.80 0.2179923
371.90 0.2172512
372.00 0.2186172
372.10 0.2211951
372.20 0.2234054
372.30 0.2232593
372.40 0.2192787
372.50 0.2116547
372.60 0.2025973
372.70 0.1953462
372.80 0.1925198
372.90 0.1949694
373.00 0.2017145
373.10 0.2106554
373.20 0.2194433
373.30 0.2261167
373.40 0.2294934
373.50 0.2292553
373.60 0.2257317
373.70 0.2195853
373.80 0.2116711
373.90 0.2031151
374.00 0.1953289
374.10 0.1897645
374.20 0.1875446
374.30 0.1892651
374.40 0.1950411
374.50 0.2045486
374.60 0.2169048
374.70 0.2305004
374.80 0.2431005
374.90 0.252412
375.00 0.2568699
375.10 0.2561407
375.20 0.251068
375.30 0.2432334
375.40 0.2344708
375.50 0.2264813
375.60 0.2204288
375.70 0.2166276
375.80 0.2145621
375.90 0.2133146
376.00 0.2122032
376.10 0.2112815
376.20 0.2114473
376.30 0.2140703
376.40 0.2203241
376.50 0.230681
376.60 0.2448994
376.70 0.2621789
376.80 0.2810504
376.90 0.2990682
377.00 0.3130112
377.10 0.3199854
377.20 0.3187484
377.30 0.3101901
377.40 0.2966792
377.50 0.2809423
377.60 0.2652852
377.70 0.2513679
377.80 0.2401451
377.90 0.2318165
378.00 0.2259451
378.10 0.2218361
378.20 0.2189439
378.30 0.2169738
378.40 0.2157213
378.50 0.215018
378.60 0.2148907
378.70 0.21565
378.80 0.217757
378.90 0.2217282
379.00 0.2282913
379.10 0.238475
379.20 0.2531818
379.30 0.2723977
379.40 0.2947039
379.50 0.3174811
379.60 0.3375137
379.70 0.3516301
379.80 0.3574209
379.90 0.3539888
380.00 0.3424083
380.10 0.3254123
380.20 0.3063508
380.30 0.2880434
380.40 0.2721856
380.50 0.2593918
380.60 0.2495278
380.70 0.241997
380.80 0.2359533
380.90 0.2306679
381.00 0.2258891
381.10 0.2218311
381.20 0.2187425
381.30 0.2164979
381.40 0.2147193
381.50 0.2133105
381.60 0.2126735
381.70 0.2132001
381.80 0.2145586
381.90 0.2156277
382.00 0.2153196
382.10 0.2132984
382.20 0.2100951
382.30 0.2082806
382.40 0.2145516
382.50 0.2344207
382.60 0.2662685
382.70 0.3012054
382.80 0.3292604
382.90 0.3460267
383.00 0.3499429
383.10 0.3408551
383.20 0.3210823
383.30 0.2912095
383.40 0.2544928
383.50 0.2193672
383.60 0.1941836
383.70 0.1773299
383.80 0.1557637
383.90 0.1209616
384.00 0.08410984
384.10 0.06471412
384.20 0.07056928
384.30 0.09876517
384.40 0.1482281
384.50 0.2135393
384.60 0.2712309
384.70 0.2915852
384.80 0.2770296
384.90 0.2588562
385.00 0.2586599
385.10 0.2664728
385.20 0.2623425
385.30 0.2444126
385.40 0.222868
385.50 0.2012752
385.60 0.1799442
385.70 0.166934
385.80 0.1745233
385.90 0.2024323
386.00 0.2324862
386.10 0.2475137
386.20 0.2467679
386.30 0.2407835
386.40 0.2373974
386.50 0.2394929
386.60 0.2552204
386.70 0.2963439
386.80 0.3608577
386.90 0.4202338
387.00 0.4347604
387.10 0.3863244
387.20 0.2978683
387.30 0.2182347
387.40 0.181533
387.50 0.1810665
387.60 0.1838976
387.70 0.1720986
387.80 0.1601132
387.90 0.1699392
388.00 0.2007885
388.10 0.2312475
388.20 0.249754
388.30 0.2666032
388.40 0.2935699
388.50 0.3240889
388.60 0.3401757
388.70 0.3320024
388.80 0.30469
388.90 0.271014
389.00 0.2423293
389.10 0.2253608
389.20 0.2174267
389.30 0.2090977
389.40 0.1975286
389.50 0.1913147
389.60 0.1999398
389.70 0.2234908
389.80 0.2476926
389.90 0.2644571
390.00 0.2744701
390.10 0.2792929
390.20 0.2823365
390.30 0.2845746
390.40 0.2900843
390.50 0.3062241
390.60 0.3271445
390.70 0.3371833
390.80 0.3291111
390.90 0.3128073
391.00 0.303017
391.10 0.3032072
391.20 0.3087204
391.30 0.3199677
391.40 0.3494364
391.50 0.3933932
391.60 0.4283555
391.70 0.433141
391.80 0.4069477
391.90 0.3627648
392.00 0.3101242
392.10 0.2559096
392.20 0.2141585
392.30 0.1956839
392.40 0.1976193
392.50 0.2071572
392.60 0.2208816
392.70 0.2462669
392.80 0.2789128
392.90 0.2998146
393.00 0.2984366
393.10 0.2931678
393.20 0.3154477
393.30 0.3730742
393.40 0.4381534
393.50 0.4659554
393.60 0.4313848
393.70 0.3540725
393.80 0.2835741
393.90 0.2576716
394.00 0.2717738
394.10 0.2904479
394.20 0.2863704
394.30 0.2612153
394.40 0.237839
394.50 0.2313065
394.60 0.2410756
394.70 0.2563541
394.80 0.2685686
394.90 0.2749494
395.00 0.2831113
395.10 0.2986941
395.20 0.3155376
395.30 0.321203
395.40 0.3162503
395.50 0.3154805
395.60 0.3287328
395.70 0.3466208
395.80 0.3513071
395.90 0.3412698
396.00 0.3308565
396.10 0.3293203
396.20 0.3283356
396.30 0.317137
396.40 0.3003067
396.50 0.2906318
396.60 0.2970549
396.70 0.3204643
396.80 0.3554244
396.90 0.3931772
397.00 0.4219737
397.10 0.4336823
397.20 0.4314338
397.30 0.4238243
397.40 0.4160452
397.50 0.409571
397.60 0.4043059
397.70 0.3976356
397.80 0.3862519
397.90 0.3716792
398.00 0.3612425
398.10 0.3613802
398.20 0.3728666
398.30 0.3958347
398.40 0.4303557
398.50 0.4691504
398.60 0.4973059
398.70 0.5039623
398.80 0.4885163
398.90 0.4593835
399.00 0.4235141
399.10 0.389238
399.20 0.3679519
399.30 0.3667135
399.40 0.3809632
399.50 0.396472
399.60 0.3984601
399.70 0.3846326
399.80 0.3696844
399.90 0.3717427
400.00 0.3940272
400.10 0.4225835
400.20 0.4423211
400.30 0.451489
400.40 0.4563402
400.50 0.4572528
400.60 0.4481111
400.70 0.4277701
400.80 0.4056733
400.90 0.3990378
401.00 0.4204211
401.10 0.4606427
401.20 0.4935722
401.30 0.4984381
401.40 0.4819651
401.50 0.4675709
401.60 0.466136
401.70 0.4676267
401.80 0.4623945
401.90 0.4515556
402.00 0.4385063
402.10 0.4178733
402.20 0.3867341
402.30 0.3594761
402.40 0.3578755
402.50 0.3849413
402.60 0.4176146
402.70 0.4309656
402.80 0.421976
402.90 0.404227
403.00 0.3868242
403.10 0.3660547
403.20 0.3354156
403.30 0.2981401
403.40 0.2669594
403.50 0.255786
403.60 0.2726216
403.70 0.3165204
403.80 0.3782359
403.90 0.440797
404.00 0.4844632
404.10 0.4948964
404.20 0.4682763
404.30 0.4143165
404.40 0.354094
404.50 0.3111916
404.60 0.2997231
404.70 0.3167964
404.80 0.3496446
404.90 0.3876451
405.00 0.4244129
405.10 0.4532532
405.20 0.4660986
405.30 0.4599722
405.40 0.4415351
405.50 0.4213028
405.60 0.4035164
405.70 0.3853786
405.80 0.3664217
405.90 0.3568252
406.00 0.37003
406.10 0.4060703
406.20 0.4494234
406.30 0.4829197
406.40 0.4990561
406.50 0.4994636
406.60 0.4906977
406.70 0.4850303
406.80 0.4946244
406.90 0.5160299
407.00 0.5283636
407.10 0.5156876
407.20 0.4868584
407.30 0.4683657
407.40 0.4715602
407.50 0.4763125
407.60 0.4568124
407.70 0.4096027
407.80 0.3586655
407.90 0.3327332
408.00 0.3393692
408.10 0.3618312
408.20 0.378971
408.30 0.3847044
408.40 0.3876646
408.50 0.3949109
408.60 0.402194
408.70 0.4007794
408.80 0.387709
408.90 0.3667606
409.00 0.3444872
409.10 0.3295602
409.20 0.3291563
409.30 0.3429258
409.40 0.3638704
409.50 0.3837534
409.60 0.397534
409.70 0.4038804
409.80 0.4049602
409.90 0.4068123
410.00 0.4139254
410.10 0.4231448
410.20 0.428105
410.30 0.426794
410.40 0.4213617
410.50 0.4129547
410.60 0.4018779
410.70 0.3921493
410.80 0.395231
410.90 0.4119733
411.00 0.4279455
411.10 0.424257
411.20 0.3977269
411.30 0.3664336
411.40 0.3532837
411.50 0.3656468
411.60 0.3901319
411.70 0.4116827
411.80 0.4268506
411.90 0.4383551
412.00 0.4472076
412.10 0.4496646
412.20 0.4408854
412.30 0.4230015
412.40 0.4062921
412.50 0.4021537
412.60 0.4146064
412.70 0.4348082
412.80 0.4470859
412.90 0.4413597
413.00 0.420314
413.10 0.3956396
413.20 0.3782791
413.30 0.3728492
413.40 0.3806503
413.50 0.40129
413.60 0.4298807
413.70 0.4576344
413.80 0.4759364
413.90 0.4798979
414.00 0.4679355
414.10 0.442777
414.20 0.4131473
414.30 0.3940322
414.40 0.3910104
414.50 0.3961474
414.60 0.3983804
414.70 0.3964016
414.80 0.3972487
414.90 0.4084609
415.00 0.4264088
415.10 0.4369422
415.20 0.4315558
415.30 0.4181309
415.40 0.4132056
415.50 0.4262372
415.60 0.448322
415.70 0.4610611
415.80 0.4555637
415.90 0.4381552
416.00 0.4197091
416.10 0.4071099
416.20 0.4034854
416.30 0.4129639
