# Version 2.1 - nm, norm@500 to 1, cut digits
# Wavelength(nm)  Flambda(ergs/cm^s/s/nm)
300.00 0.007631777
300.10 0.01011635
300.20 0.01164262
300.30 0.0122907
300.40 0.01247719
300.50 0.01254202
300.60 0.01260024
300.70 0.01265429
300.80 0.01270796
300.90 0.01276645
301.00 0.01283492
301.10 0.01291564
301.20 0.01300679
301.30 0.01310425
301.40 0.01320426
301.50 0.01330487
301.60 0.01340555
301.70 0.01350627
301.80 0.01360701
301.90 0.01370776
302.00 0.01380851
302.10 0.01390926
302.20 0.01401001
302.30 0.01411076
302.40 0.01421154
302.50 0.01431234
302.60 0.0144132
302.70 0.0145145
302.80 0.01461775
302.90 0.01472579
303.00 0.01484175
303.10 0.01496701
303.20 0.01510018
303.30 0.01523814
303.40 0.01537805
303.50 0.01551841
303.60 0.01565882
303.70 0.01579926
303.80 0.01593971
303.90 0.01608017
304.00 0.01622064
304.10 0.0163611
304.20 0.01650156
304.30 0.016642
304.40 0.01678239
304.50 0.01692269
304.60 0.01706282
304.70 0.01720159
304.80 0.01733441
304.90 0.01745257
305.00 0.01754652
305.10 0.01761203
305.20 0.01765333
305.30 0.01767997
305.40 0.01770066
305.50 0.01771999
305.60 0.01773916
305.70 0.01775822
305.80 0.01777725
305.90 0.01779625
306.00 0.01781524
306.10 0.01783424
306.20 0.01785324
306.30 0.01787224
306.40 0.01789123
306.50 0.01791023
306.60 0.01792923
306.70 0.01794823
306.80 0.01796725
306.90 0.01798629
307.00 0.01800539
307.10 0.01802455
307.20 0.01804376
307.30 0.01806301
307.40 0.01808226
307.50 0.01810153
307.60 0.01812079
307.70 0.01814005
307.80 0.01815931
307.90 0.01817857
308.00 0.01819783
308.10 0.01821709
308.20 0.01823636
308.30 0.01825568
308.40 0.01827513
308.50 0.01829481
308.60 0.01831489
308.70 0.0183384
308.80 0.01837679
308.90 0.01845187
309.00 0.01858754
309.10 0.01879439
309.20 0.01906183
309.30 0.01936597
309.40 0.01968498
309.50 0.02000741
309.60 0.02033025
309.70 0.02065333
309.80 0.02097653
309.90 0.02129978
310.00 0.02162304
310.10 0.0219463
310.20 0.02226955
310.30 0.02259275
310.40 0.02291583
310.50 0.02323867
310.60 0.0235611
310.70 0.02388009
310.80 0.02418412
310.90 0.02445127
311.00 0.02465751
311.10 0.02479219
311.20 0.02486596
311.30 0.02490285
311.40 0.02492478
311.50 0.02494327
311.60 0.02496135
311.70 0.02497919
311.80 0.02499691
311.90 0.02501458
312.00 0.02503224
312.10 0.0250499
312.20 0.02506757
312.30 0.0250853
312.40 0.02510319
312.50 0.02512137
312.60 0.02514005
312.70 0.02516299
312.80 0.02520439
312.90 0.02529135
313.00 0.02545354
313.10 0.02570411
313.20 0.0260299
313.30 0.02640125
313.40 0.02679106
313.50 0.02718513
313.60 0.0275797
313.70 0.02797457
313.80 0.02836959
313.90 0.02876467
314.00 0.02915976
314.10 0.02955486
314.20 0.02994996
314.30 0.0303451
314.40 0.03074035
314.50 0.03113581
314.60 0.03153161
314.70 0.03193038
314.80 0.032342
314.90 0.03278533
315.00 0.03328103
315.10 0.03383825
315.20 0.03444783
315.30 0.03508912
315.40 0.03574327
315.50 0.03640038
315.60 0.03705784
315.70 0.03771551
315.80 0.03837328
315.90 0.03903109
316.00 0.03968892
316.10 0.04034674
316.20 0.04100453
316.30 0.04166216
316.40 0.04231941
316.50 0.0429759
316.60 0.0436311
316.70 0.04427543
316.80 0.0448725
316.90 0.04535299
317.00 0.04564101
317.10 0.04570289
317.20 0.04557229
317.30 0.04532512
317.40 0.04503069
317.50 0.04472538
317.60 0.04441879
317.70 0.04411144
317.80 0.0438037
317.90 0.04349581
318.00 0.04318788
318.10 0.04287996
318.20 0.04257206
318.30 0.04226427
318.40 0.04195679
318.50 0.04164988
318.60 0.04134396
318.70 0.04104637
318.80 0.04078495
318.90 0.04061277
319.00 0.04058792
319.10 0.04073618
319.20 0.04103179
319.30 0.04141662
319.40 0.04183764
319.50 0.04226697
319.60 0.0426973
319.70 0.0431282
319.80 0.0435594
319.90 0.04399072
320.00 0.04442207
320.10 0.04485341
320.20 0.04528474
320.30 0.04571604
320.40 0.04614722
320.50 0.04657818
320.60 0.04700879
320.70 0.04743631
320.80 0.04785045
320.90 0.04823159
321.00 0.04855824
321.10 0.04882086
321.20 0.04902899
321.30 0.04920412
321.40 0.04936586
321.50 0.04952453
321.60 0.04968283
321.70 0.04984092
321.80 0.0499989
321.90 0.05015683
322.00 0.05031476
322.10 0.05047268
322.20 0.05063064
322.30 0.05078876
322.40 0.05094728
322.50 0.05110658
322.60 0.05126722
322.70 0.0514391
322.80 0.05165985
322.90 0.05200115
323.00 0.0525415
323.10 0.05331571
323.20 0.05428896
323.30 0.05538277
323.40 0.05652544
323.50 0.05767936
323.60 0.05883461
323.70 0.05999065
323.80 0.06114709
323.90 0.06230369
324.00 0.06346032
324.10 0.06461695
324.20 0.06577358
324.30 0.06693018
324.40 0.06808671
324.50 0.06924312
324.60 0.07039931
324.70 0.07155367
324.80 0.0727001
324.90 0.07382694
325.00 0.07492145
325.10 0.07597798
325.20 0.07700216
325.30 0.07800677
325.40 0.07900344
325.50 0.07999828
325.60 0.08099291
325.70 0.0819874
325.80 0.08298184
325.90 0.08397624
326.00 0.08497064
326.10 0.08596504
326.20 0.08695946
326.30 0.08795393
326.40 0.08894853
326.50 0.08994342
326.60 0.09093877
326.70 0.09193806
326.80 0.09295445
326.90 0.09401306
327.00 0.09514135
327.10 0.09635152
327.20 0.09763137
327.30 0.09895344
327.40 0.1002926
327.50 0.1016357
327.60 0.1029793
327.70 0.1043232
327.80 0.1056671
327.90 0.1070112
328.00 0.1083552
328.10 0.1096993
328.20 0.1110433
328.30 0.112387
328.40 0.1137298
328.50 0.115071
328.60 0.1164095
328.70 0.1177249
328.80 0.1189399
328.90 0.1199073
329.00 0.1204657
329.10 0.1205438
329.20 0.120213
329.30 0.1196345
329.40 0.1189557
329.50 0.1182537
329.60 0.1175491
329.70 0.1168428
329.80 0.1161356
329.90 0.1154282
330.00 0.1147207
330.10 0.1140132
330.20 0.1133057
330.30 0.1125985
330.40 0.1118919
330.50 0.1111864
330.60 0.1104831
330.70 0.1097968
330.80 0.109185
330.90 0.1087569
331.00 0.1086322
331.10 0.1088638
331.20 0.1093987
331.30 0.1101173
331.40 0.1109104
331.50 0.1117206
331.60 0.1125329
331.70 0.1133464
331.80 0.1141604
331.90 0.1149747
332.00 0.1157891
332.10 0.1166034
332.20 0.1174178
332.30 0.1182319
332.40 0.1190457
332.50 0.1198587
332.60 0.1206705
332.70 0.1214714
332.80 0.1222251
332.90 0.1228626
333.00 0.1233079
333.10 0.1235277
333.20 0.1235554
333.30 0.1234668
333.40 0.1233311
333.50 0.1231845
333.60 0.1230366
333.70 0.122888
333.80 0.122739
333.90 0.1225898
334.00 0.1224406
334.10 0.1222918
334.20 0.1221443
334.30 0.1219985
334.40 0.1218544
334.50 0.1217116
334.60 0.1216901
334.70 0.1220628
334.80 0.1229376
334.90 0.1238371
335.00 0.1238485
335.10 0.1227264
335.20 0.1219198
335.30 0.1241289
335.40 0.1312214
335.50 0.1421115
335.60 0.1526507
335.70 0.1580336
335.80 0.1558924
335.90 0.1474673
336.00 0.1362859
336.10 0.1259857
336.20 0.1191109
336.30 0.1167372
336.40 0.1180201
336.50 0.1203
336.60 0.1207009
336.70 0.1185182
336.80 0.1161135
336.90 0.1170584
337.00 0.1230691
337.10 0.1323243
337.20 0.1405029
337.30 0.1437496
337.40 0.1413788
337.50 0.1363004
337.60 0.1327947
337.70 0.1333373
337.80 0.1371452
337.90 0.1416121
338.00 0.1447422
338.10 0.1459826
338.20 0.1450434
338.30 0.1409829
338.40 0.1334893
338.50 0.1247707
338.60 0.1192116
338.70 0.1202289
338.80 0.1270889
338.90 0.1351438
339.00 0.1395664
339.10 0.1393011
339.20 0.1377109
339.30 0.1392639
339.40 0.1454115
339.50 0.1536433
339.60 0.1601934
339.70 0.1631974
339.80 0.1631687
339.90 0.1611387
340.00 0.1575193
340.10 0.1527401
340.20 0.1477924
340.30 0.1434332
340.40 0.1391694
340.50 0.1337849
340.60 0.1269954
340.70 0.1201308
340.80 0.11509
340.90 0.1129543
341.00 0.1136537
341.10 0.1165287
341.20 0.1208155
341.30 0.1256159
341.40 0.1298727
341.50 0.1327759
341.60 0.1342386
341.70 0.1349322
341.80 0.1357718
341.90 0.137237
342.00 0.1389442
342.10 0.1397228
342.20 0.1383286
342.30 0.1344929
342.40 0.1294867
342.50 0.1254802
342.60 0.1240874
342.70 0.1253628
342.80 0.1280101
342.90 0.1304064
343.00 0.1315996
343.10 0.1317359
343.20 0.1317071
343.30 0.1322802
343.40 0.1334259
343.50 0.1344771
343.60 0.1348343
343.70 0.1343335
343.80 0.1331039
343.90 0.1314482
344.00 0.129918
344.10 0.1291511
344.20 0.1293154
344.30 0.1298288
344.40 0.1298726
344.50 0.1291771
344.60 0.1282427
344.70 0.1279041
344.80 0.1287986
344.90 0.1311504
345.00 0.1348371
345.10 0.1394802
345.20 0.1444652
345.30 0.1489442
345.40 0.151972
345.50 0.1529591
345.60 0.1521607
345.70 0.1506335
345.80 0.1495129
345.90 0.1492199
346.00 0.1492733
346.10 0.1487136
346.20 0.1467745
346.30 0.1434888
346.40 0.139882
346.50 0.1373768
346.60 0.1366636
346.70 0.137101
346.80 0.1373131
346.90 0.1363101
347.00 0.1339998
347.10 0.1309977
347.20 0.1283241
347.30 0.1271159
347.40 0.1280964
347.50 0.131006
347.60 0.1347239
347.70 0.1381277
347.80 0.1408417
347.90 0.1432275
348.00 0.1458034
348.10 0.1486579
348.20 0.1512616
348.30 0.1528143
348.40 0.1528918
348.50 0.1518172
348.60 0.1503281
348.70 0.1489058
348.80 0.1475506
348.90 0.1461129
349.00 0.1446048
349.10 0.1431601
349.20 0.1418983
349.30 0.140989
349.40 0.1407347
349.50 0.1413288
349.60 0.142479
349.70 0.1434521
349.80 0.1437238
349.90 0.1437177
350.00 0.144753
350.10 0.1480047
350.20 0.1533731
350.30 0.1593667
350.40 0.1641148
350.50 0.1665459
350.60 0.1667388
350.70 0.1654259
350.80 0.1633674
350.90 0.160991
351.00 0.1582265
351.10 0.15454
351.20 0.1493565
351.30 0.1428104
351.40 0.1361545
351.50 0.1311612
351.60 0.128871
351.70 0.1288617
351.80 0.129741
351.90 0.130307
352.00 0.13022
352.10 0.1297223
352.20 0.1290982
352.30 0.1285957
352.40 0.1287446
352.50 0.1305113
352.60 0.134768
352.70 0.1413887
352.80 0.1489056
352.90 0.1553259
353.00 0.1595948
353.10 0.1622666
353.20 0.1646478
353.30 0.1674644
353.40 0.1705421
353.50 0.173528
353.60 0.1764951
353.70 0.1797162
353.80 0.1831836
353.90 0.1865924
354.00 0.1895448
354.10 0.1915269
354.20 0.1919219
354.30 0.1904856
354.40 0.1878788
354.50 0.1854428
354.60 0.1841998
354.70 0.1841022
354.80 0.1843134
354.90 0.1840886
355.00 0.1832878
355.10 0.1822099
355.20 0.1811729
355.30 0.180323
355.40 0.1797298
355.50 0.1794224
355.60 0.1792241
355.70 0.1786439
355.80 0.1771042
355.90 0.17442
356.00 0.1710178
356.10 0.1675891
356.20 0.1644985
356.30 0.1614946
356.40 0.1579897
356.50 0.1537033
356.60 0.1491302
356.70 0.1453647
356.80 0.1433394
356.90 0.1431367
357.00 0.1439965
357.10 0.1449016
357.20 0.1451079
357.30 0.1442957
357.40 0.1424786
357.50 0.1399046
357.60 0.1369844
357.70 0.1341472
357.80 0.131668
357.90 0.1296057
358.00 0.1279504
358.10 0.1268834
358.20 0.1268448
358.30 0.1282454
358.40 0.1310525
358.50 0.1346419
358.60 0.1380385
358.70 0.1403325
358.80 0.1410576
358.90 0.1404151
359.00 0.1392878
359.10 0.1389081
359.20 0.1401798
359.30 0.1430482
359.40 0.1464278
359.50 0.1488807
359.60 0.1495908
359.70 0.1488682
359.80 0.147795
359.90 0.1473084
360.00 0.1474561
360.10 0.1473978
360.20 0.1461249
360.30 0.143274
360.40 0.1394368
360.50 0.1358677
360.60 0.1339045
360.70 0.1344369
360.80 0.1375063
360.90 0.1422121
361.00 0.1471535
361.10 0.1512241
361.20 0.1541336
361.30 0.1561944
361.40 0.1576789
361.50 0.1585275
361.60 0.1587271
361.70 0.1587236
361.80 0.1591795
361.90 0.1603037
362.00 0.1616039
362.10 0.1624035
362.20 0.1624642
362.30 0.162054
362.40 0.1616225
362.50 0.1615453
362.60 0.161947
362.70 0.1624862
362.80 0.1624163
362.90 0.1611805
363.00 0.1590623
363.10 0.1571018
363.20 0.156259
363.30 0.1566996
363.40 0.1578639
363.50 0.1590521
363.60 0.1598737
363.70 0.1602861
363.80 0.1603634
363.90 0.1600706
364.00 0.1592074
364.10 0.1575475
364.20 0.1550688
364.30 0.1520818
364.40 0.1491637
364.50 0.1469721
364.60 0.1459921
364.70 0.1462674
364.80 0.1473422
364.90 0.1486064
365.00 0.149852
365.10 0.1514802
365.20 0.154002
365.30 0.1572694
365.40 0.1602895
365.50 0.1619093
365.60 0.161764
365.70 0.1605531
365.80 0.1593663
365.90 0.1588016
366.00 0.1587406
366.10 0.1588439
366.20 0.1590886
366.30 0.1597215
366.40 0.160804
366.50 0.1619628
366.60 0.1625856
366.70 0.1622152
366.80 0.1607885
366.90 0.1586009
367.00 0.1561537
367.10 0.154016
367.20 0.152705
367.30 0.152553
367.40 0.1535649
367.50 0.1553888
367.60 0.1574879
367.70 0.1594188
367.80 0.1610146
367.90 0.1623567
368.00 0.1635934
368.10 0.1647587
368.20 0.1657066
368.30 0.166183
368.40 0.1659902
368.50 0.165174
368.60 0.1641015
368.70 0.1633095
368.80 0.1631784
368.90 0.1637007
369.00 0.164586
369.10 0.1656028
369.20 0.1667365
369.30 0.1679731
369.40 0.169025
369.50 0.1694025
369.60 0.1688378
369.70 0.1676153
369.80 0.1664727
369.90 0.1661839
370.00 0.1671578
370.10 0.1692782
370.20 0.1720346
370.30 0.1747965
370.40 0.17703
370.50 0.1783881
370.60 0.1787495
370.70 0.1783134
370.80 0.1776105
370.90 0.1772653
371.00 0.1775907
371.10 0.1783276
371.20 0.178743
371.30 0.17801
371.40 0.1756697
371.50 0.171938
371.60 0.1676736
371.70 0.1639773
371.80 0.1616899
371.90 0.1611199
372.00 0.1620682
372.10 0.1638859
372.20 0.165433
372.30 0.1652775
372.40 0.1623592
372.50 0.1568215
372.60 0.1502613
372.70 0.145016
372.80 0.1429753
372.90 0.1447548
373.00 0.1496479
373.10 0.1561371
373.20 0.1625215
373.30 0.1673758
373.40 0.1698365
373.50 0.1696657
373.60 0.1670975
373.70 0.1626133
373.80 0.1568391
373.90 0.1506003
374.00 0.1449286
374.10 0.1408837
374.20 0.139285
374.30 0.140567
374.40 0.1448114
374.50 0.1517768
374.60 0.1608136
374.70 0.170746
374.80 0.1799486
374.90 0.186756
375.00 0.1900318
375.10 0.189531
375.20 0.1858619
375.30 0.1801691
375.40 0.1737829
375.50 0.1679395
375.60 0.1634881
375.70 0.1606656
375.80 0.1591103
375.90 0.1581697
376.00 0.1573594
376.10 0.1567237
376.20 0.1569128
376.30 0.1589147
376.40 0.1635737
376.50 0.1712253
376.60 0.1816851
376.70 0.19436
376.80 0.2081711
376.90 0.2213355
377.00 0.2315155
377.10 0.2366149
377.20 0.2357326
377.30 0.2295094
377.40 0.2196579
377.50 0.2081558
377.60 0.1966821
377.70 0.1864516
377.80 0.1781692
377.90 0.1719914
378.00 0.1676118
378.10 0.1645332
378.20 0.1623618
378.30 0.1608828
378.40 0.1599467
378.50 0.1594321
378.60 0.1593607
378.70 0.1599606
378.80 0.1615699
378.90 0.1645669
379.00 0.1694792
379.10 0.1770454
379.20 0.1879058
379.30 0.2020345
379.40 0.2183889
379.50 0.2350592
379.60 0.249706
379.70 0.2600254
379.80 0.2642692
379.90 0.2617866
380.00 0.253355
380.10 0.2409535
380.20 0.2270116
380.30 0.2135808
380.40 0.2019041
380.50 0.1924424
380.60 0.1851126
380.70 0.1794924
380.80 0.1749748
380.90 0.1710335
381.00 0.1674832
381.10 0.1644738
381.20 0.16218
381.30 0.1605096
381.40 0.1591889
381.50 0.1581466
381.60 0.1577631
381.70 0.1584313
381.80 0.159974
381.90 0.1616616
382.00 0.1628562
382.10 0.1665457
382.20 0.1792693
382.30 0.1920438
382.40 0.2050726
382.50 0.2314321
382.60 0.2861244
382.70 0.3680468
382.80 0.4472663
382.90 0.4891674
383.00 0.4668177
383.10 0.4117019
383.20 0.4008662
383.30 0.447661
383.40 0.5299447
383.50 0.6022359
383.60 0.6178094
383.70 0.5595572
383.80 0.4553381
383.90 0.354903
384.00 0.2886128
384.10 0.2543041
384.20 0.2384999
384.30 0.2392196
384.40 0.2574056
384.50 0.2675594
384.60 0.2530485
384.70 0.1766298
384.80 0.0766564
384.90 0.006858006
385.00 0
385.10 0.04131821
385.20 0.09613818
385.30 0.1306149
385.40 0.1320858
385.50 0.1148134
385.60 0.1060736
385.70 0.1202925
385.80 0.1497598
385.90 0.1812989
386.00 0.2116999
386.10 0.2409757
386.20 0.2602385
386.30 0.2614632
386.40 0.2523939
386.50 0.2502832
386.60 0.2654987
386.70 0.2955044
386.80 0.3298437
386.90 0.349582
387.00 0.3335181
387.10 0.2791381
387.20 0.2143095
387.30 0.1772174
387.40 0.1798566
387.50 0.1986343
387.60 0.2034667
387.70 0.1892738
387.80 0.1692976
387.90 0.1496488
388.00 0.1276614
388.10 0.1169944
388.20 0.1495005
388.30 0.2320657
388.40 0.3220708
388.50 0.3697522
388.60 0.3820125
388.70 0.4115341
388.80 0.4804657
388.90 0.5434123
389.00 0.5408503
389.10 0.472184
389.20 0.392511
389.30 0.3481298
389.40 0.3376498
389.50 0.3250112
389.60 0.2760715
389.70 0.2315027
389.80 0.1901886
389.90 0.1965622
390.00 0.2531808
390.10 0.2965907
390.20 0.3314845
390.30 0.3531731
390.40 0.3628582
390.50 0.399801
390.60 0.4354947
390.70 0.426965
390.80 0.3659209
390.90 0.2854106
391.00 0.2294139
391.10 0.2271138
391.20 0.2801017
391.30 0.3123253
391.40 0.3350845
391.50 0.3385568
391.60 0.3216934
391.70 0.2972546
391.80 0.2776237
391.90 0.2691033
392.00 0.2770286
392.10 0.2935672
392.20 0.3047869
392.30 0.2847242
392.40 0.2595956
392.50 0.240641
392.60 0.218643
392.70 0.215078
392.80 0.2346971
392.90 0.2879527
393.00 0.3721438
393.10 0.518872
393.20 0.7610659
393.30 1.02672
393.40 1.195008
393.50 1.17781
393.60 0.9868127
393.70 0.7234166
393.80 0.496941
393.90 0.3527067
394.00 0.2706907
394.10 0.2196929
394.20 0.1889514
394.30 0.160648
394.40 0.1671502
394.50 0.203901
394.60 0.256367
394.70 0.3028058
394.80 0.351199
394.90 0.3737392
395.00 0.3819742
395.10 0.3800879
395.20 0.3698305
395.30 0.3588781
395.40 0.3628926
395.50 0.3602391
395.60 0.3400726
395.70 0.3313767
395.80 0.3338085
395.90 0.3394224
396.00 0.3255846
396.10 0.2918302
396.20 0.264754
396.30 0.2552024
396.40 0.2817941
396.50 0.354863
396.60 0.5016654
396.70 0.7485671
396.80 1.055744
396.90 1.309688
397.00 1.384391
397.10 1.239998
397.20 0.955741
397.30 0.6679882
397.40 0.4647665
397.50 0.3586328
397.60 0.3201338
397.70 0.3151159
397.80 0.3200811
397.90 0.3210518
398.00 0.308171
398.10 0.2765883
398.20 0.2346949
398.30 0.208608
398.40 0.224446
398.50 0.2820704
398.60 0.352492
398.70 0.4057395
398.80 0.4115014
398.90 0.4001033
399.00 0.378954
399.10 0.3611786
399.20 0.3613641
399.30 0.3764645
399.40 0.3843139
399.50 0.370955
399.60 0.345932
399.70 0.3370209
399.80 0.356981
399.90 0.3784211
400.00 0.3740917
400.10 0.3462376
400.20 0.3235838
400.30 0.3291409
400.40 0.3560538
400.50 0.3762483
400.60 0.3720787
400.70 0.3680862
400.80 0.3776836
400.90 0.3877336
401.00 0.3954525
401.10 0.394775
401.20 0.3939077
401.30 0.3828577
401.40 0.3645197
401.50 0.3430892
401.60 0.3161272
401.70 0.2731881
401.80 0.2488523
401.90 0.2521213
402.00 0.2713515
402.10 0.2874292
402.20 0.2874354
402.30 0.2731772
402.40 0.2602359
402.50 0.2658696
402.60 0.2929031
402.70 0.3273857
402.80 0.3501568
402.90 0.3501121
403.00 0.3283344
403.10 0.291383
403.20 0.2490145
403.30 0.2155748
403.40 0.2057489
403.50 0.2250159
403.60 0.2629075
403.70 0.2969555
403.80 0.3250752
403.90 0.359303
404.00 0.4000771
404.10 0.4362134
404.20 0.44896
404.30 0.434552
404.40 0.4069122
404.50 0.3803555
404.60 0.3583523
404.70 0.340931
404.80 0.3301514
404.90 0.3255916
405.00 0.3231443
405.10 0.3224783
405.20 0.3306539
405.30 0.3503487
405.40 0.3687656
405.50 0.3677583
405.60 0.3472615
405.70 0.3266498
405.80 0.3188705
405.90 0.3199734
406.00 0.3147013
406.10 0.2960456
406.20 0.2717823
406.30 0.2556921
406.40 0.2555366
406.50 0.2701531
406.60 0.2856818
406.70 0.2869536
406.80 0.2735265
406.90 0.2604596
407.00 0.2651042
407.10 0.2881419
407.20 0.3000439
407.30 0.2914652
407.40 0.2726647
407.50 0.2402916
407.60 0.2177875
407.70 0.2122299
407.80 0.2210478
407.90 0.2439896
408.00 0.278052
408.10 0.3114214
408.20 0.3301113
408.30 0.3276453
408.40 0.3102852
408.50 0.2890005
408.60 0.2708223
408.70 0.2574193
408.80 0.2498321
408.90 0.2508934
409.00 0.2580784
409.10 0.2602913
409.20 0.2492479
409.30 0.2274334
409.40 0.2082719
409.50 0.2020423
409.60 0.2106855
409.70 0.2331197
409.80 0.2731796
409.90 0.340372
410.00 0.4429323
410.10 0.5693525
410.20 0.6739846
410.30 0.6985118
410.40 0.6237563
410.50 0.4954915
410.60 0.3862608
410.70 0.3107084
410.80 0.2891754
410.90 0.2865601
411.00 0.2834179
411.10 0.2778653
411.20 0.2696332
411.30 0.2577664
411.40 0.2474953
411.50 0.2459568
411.60 0.2215724
411.70 0.1714543
411.80 0.1262908
411.90 0.09668471
412.00 0.0892797
412.10 0.1035368
412.20 0.1335515
412.30 0.1669605
412.40 0.1944533
412.50 0.2130141
412.60 0.2242399
412.70 0.230548
412.80 0.2326507
412.90 0.2307833
413.00 0.2283475
413.10 0.231383
413.20 0.2433951
413.30 0.2595462
413.40 0.2690879
413.50 0.2649741
413.60 0.2509254
413.70 0.2379723
413.80 0.2350957
413.90 0.2447171
414.00 0.2641037
414.10 0.2875953
414.20 0.2801313
414.30 0.259022
414.40 0.2316218
414.50 0.2108369
414.60 0.2092797
414.70 0.2279619
414.80 0.2335949
414.90 0.2305394
415.00 0.2361118
415.10 0.2397319
415.20 0.2371525
415.30 0.2436913
415.40 0.2545761
415.50 0.2682787
415.60 0.2848919
415.70 0.3015069
415.80 0.314248
415.90 0.3209567
416.00 0.315259
416.10 0.2996909
416.20 0.2763228
416.30 0.2507365
