# Version 2.1 - nm, norm@500 to 1, cut digits
# Wavelength(nm)  Flambda(ergs/cm^s/s/nm)
300.00 0.007239867
300.10 0.009599304
300.20 0.01104753
300.30 0.01166098
300.40 0.01183605
300.50 0.01189611
300.60 0.01195049
300.70 0.0120013
300.80 0.01205201
300.90 0.01210742
301.00 0.01217235
301.10 0.01224891
301.20 0.01233537
301.30 0.01242783
301.40 0.0125227
301.50 0.01261813
301.60 0.01271362
301.70 0.01280914
301.80 0.01290468
301.90 0.01300023
302.00 0.01309578
302.10 0.01319133
302.20 0.01328688
302.30 0.01338243
302.40 0.013478
302.50 0.0135736
302.60 0.01366924
302.70 0.0137653
302.80 0.0138632
302.90 0.01396565
303.00 0.01407562
303.10 0.01419442
303.20 0.01432073
303.30 0.01445159
303.40 0.0145843
303.50 0.01471742
303.60 0.01485058
303.70 0.01498377
303.80 0.01511698
303.90 0.01525019
304.00 0.01538341
304.10 0.01551662
304.20 0.01564983
304.30 0.01578302
304.40 0.01591617
304.50 0.01604924
304.60 0.01618217
304.70 0.01631382
304.80 0.01643985
304.90 0.01655196
305.00 0.01664108
305.10 0.01670319
305.20 0.01674231
305.30 0.01676751
305.40 0.01678709
305.50 0.01680539
305.60 0.01682356
305.70 0.01684163
305.80 0.01685967
305.90 0.01687769
306.00 0.01689571
306.10 0.01691373
306.20 0.01693174
306.30 0.01694976
306.40 0.01696778
306.50 0.01698579
306.60 0.01700381
306.70 0.01702183
306.80 0.01703986
306.90 0.01705793
307.00 0.01707604
307.10 0.01709421
307.20 0.01711243
307.30 0.01713068
307.40 0.01714895
307.50 0.01716721
307.60 0.01718548
307.70 0.01720375
307.80 0.01722201
307.90 0.01724028
308.00 0.01725855
308.10 0.01727682
308.20 0.01729509
308.30 0.01731341
308.40 0.01733183
308.50 0.01735046
308.60 0.01736944
308.70 0.01739162
308.80 0.01742788
308.90 0.01749895
309.00 0.01762757
309.10 0.0178238
309.20 0.01807756
309.30 0.01836615
309.40 0.01866881
309.50 0.01897467
309.60 0.01928088
309.70 0.0195873
309.80 0.01989383
309.90 0.02020039
310.00 0.02050697
310.10 0.02081354
310.20 0.02112011
310.30 0.02142663
310.40 0.02173305
310.50 0.02203926
310.60 0.02234512
310.70 0.02264776
310.80 0.02293625
310.90 0.02318974
311.00 0.02338539
311.10 0.02351306
311.20 0.0235829
311.30 0.02361773
311.40 0.02363841
311.50 0.02365588
311.60 0.02367299
311.70 0.02368989
311.80 0.02370669
311.90 0.02372345
312.00 0.0237402
312.10 0.02375695
312.20 0.02377371
312.30 0.02379052
312.40 0.02380746
312.50 0.02382466
312.60 0.02384229
312.70 0.02386389
312.80 0.02390298
312.90 0.02398529
313.00 0.02413904
313.10 0.02437674
313.20 0.02468588
313.30 0.02503824
313.40 0.02540808
313.50 0.0257819
313.60 0.02615615
313.70 0.02653065
313.80 0.02690529
313.90 0.02727998
314.00 0.02765468
314.10 0.02802938
314.20 0.02840409
314.30 0.02877883
314.40 0.02915367
314.50 0.02952868
314.60 0.02990399
314.70 0.03028208
314.80 0.03067232
314.90 0.03109267
315.00 0.03156273
315.10 0.03209123
315.20 0.03266946
315.30 0.03327778
315.40 0.03389827
315.50 0.03452152
315.60 0.03514508
315.70 0.03576881
315.80 0.03639264
315.90 0.0370165
316.00 0.03764037
316.10 0.03826424
316.20 0.03888808
316.30 0.03951178
316.40 0.04013516
316.50 0.04075788
316.60 0.04137949
316.70 0.04199093
316.80 0.04255764
316.90 0.04301374
317.00 0.04328706
317.10 0.04334558
317.20 0.04322132
317.30 0.04298644
317.40 0.04270684
317.50 0.04241706
317.60 0.04212618
317.70 0.04183464
317.80 0.04154277
317.90 0.04125077
318.00 0.04095874
318.10 0.0406667
318.20 0.0403747
318.30 0.04008279
318.40 0.03979113
318.50 0.03949998
318.60 0.03920968
318.70 0.03892716
318.80 0.03867888
318.90 0.03851527
319.00 0.03849158
319.10 0.03863232
319.20 0.03891298
319.30 0.03927831
319.40 0.03967787
319.50 0.04008522
319.60 0.04049342
319.70 0.04090212
319.80 0.04131108
319.90 0.04172014
320.00 0.04212922
320.10 0.0425383
320.20 0.04294737
320.30 0.0433564
320.40 0.04376535
320.50 0.0441741
320.60 0.04458254
320.70 0.0449881
320.80 0.045381
320.90 0.04574258
321.00 0.04605242
321.10 0.04630144
321.20 0.04649871
321.30 0.04666466
321.40 0.04681796
321.50 0.04696837
321.60 0.04711847
321.70 0.04726838
321.80 0.0474182
321.90 0.04756798
322.00 0.04771776
322.10 0.04786753
322.20 0.04801733
322.30 0.04816728
322.40 0.04831756
322.50 0.04846852
322.60 0.04862063
322.70 0.04878326
322.80 0.04899214
322.90 0.0493154
323.00 0.04982769
323.10 0.05056211
323.20 0.05148555
323.30 0.05252338
323.40 0.05360745
323.50 0.05470205
323.60 0.05579779
323.70 0.05689421
323.80 0.05799098
323.90 0.05908788
324.00 0.06018481
324.10 0.06128174
324.20 0.06237867
324.30 0.06347557
324.40 0.06457242
324.50 0.06566916
324.60 0.06676571
324.70 0.06786056
324.80 0.06894789
324.90 0.07001664
325.00 0.07105468
325.10 0.07205664
325.20 0.0730279
325.30 0.07398058
325.40 0.07492574
325.50 0.0758692
325.60 0.07681246
325.70 0.07775562
325.80 0.07869872
325.90 0.0796418
326.00 0.08058488
326.10 0.08152795
326.20 0.08247104
326.30 0.08341417
326.40 0.08435742
326.50 0.08530092
326.60 0.08624481
326.70 0.08719238
326.80 0.08815615
326.90 0.08915997
327.00 0.09022996
327.10 0.09137773
327.20 0.09259167
327.30 0.09384567
327.40 0.09511585
327.50 0.09638972
327.60 0.09766399
327.70 0.0989385
327.80 0.1002131
327.90 0.1014878
328.00 0.1027625
328.10 0.1040372
328.20 0.1053118
328.30 0.1065861
328.40 0.1078598
328.50 0.109132
328.60 0.1104019
328.70 0.1116502
328.80 0.1128035
328.90 0.1137217
329.00 0.1142517
329.10 0.1143254
329.20 0.1140108
329.30 0.1134612
329.40 0.1128167
329.50 0.1121505
329.60 0.1114819
329.70 0.1108119
329.80 0.1101413
329.90 0.1094704
330.00 0.1087994
330.10 0.1081284
330.20 0.1074574
330.30 0.1067867
330.40 0.1061164
330.50 0.1054473
330.60 0.1047798
330.70 0.1041284
330.80 0.1035475
330.90 0.1031409
331.00 0.1030223
331.10 0.1032422
331.20 0.1037501
331.30 0.1044324
331.40 0.1051851
331.50 0.1059539
331.60 0.1067244
331.70 0.1074959
331.80 0.108268
331.90 0.1090403
332.00 0.1098126
332.10 0.1105849
332.20 0.1113572
332.30 0.1121294
332.40 0.1129012
332.50 0.1136724
332.60 0.1144425
332.70 0.1152024
332.80 0.1159177
332.90 0.1165226
333.00 0.1169452
333.10 0.1171535
333.20 0.1171793
333.30 0.1170949
333.40 0.1169658
333.50 0.1168265
333.60 0.1166861
333.70 0.1165451
333.80 0.1164038
333.90 0.1162623
334.00 0.1161208
334.10 0.1159797
334.20 0.1158397
334.30 0.1157011
334.40 0.1155639
334.50 0.1154279
334.60 0.1154073
334.70 0.1157614
334.80 0.1165927
334.90 0.1174464
335.00 0.1174538
335.10 0.1163808
335.20 0.1156057
335.30 0.1176977
335.40 0.1244347
335.50 0.1347855
335.60 0.1448049
335.70 0.1499231
335.80 0.1478881
335.90 0.1398795
336.00 0.1292522
336.10 0.1194651
336.20 0.1129367
336.30 0.1106888
336.40 0.1119168
336.50 0.1140901
336.60 0.1144724
336.70 0.1123938
336.80 0.1101015
336.90 0.1109938
337.00 0.1167043
337.10 0.1255012
337.20 0.1332746
337.30 0.1363573
337.40 0.1340973
337.50 0.1292627
337.60 0.125925
337.70 0.126439
337.80 0.1300599
337.90 0.1343085
338.00 0.1372866
338.10 0.1384687
338.20 0.137579
338.30 0.1337215
338.40 0.1265985
338.50 0.1183095
338.60 0.1130245
338.70 0.1139932
338.80 0.1205174
338.90 0.1281755
339.00 0.1323758
339.10 0.1321147
339.20 0.1305922
339.30 0.1320594
339.40 0.1378978
339.50 0.1457199
339.60 0.1519439
339.70 0.1547969
339.80 0.1547678
339.90 0.1528384
340.00 0.1494005
340.10 0.1448625
340.20 0.1401668
340.30 0.1360329
340.40 0.1319906
340.50 0.1268821
340.60 0.1204358
340.70 0.1139161
340.80 0.1091286
340.90 0.1071015
341.00 0.1077679
341.10 0.1105007
341.20 0.1145741
341.30 0.1191343
341.40 0.1231765
341.50 0.1259311
341.60 0.127316
341.70 0.1279706
341.80 0.1287658
341.90 0.1301578
342.00 0.1317819
342.10 0.1325244
342.20 0.1312011
342.30 0.127556
342.40 0.1227976
342.50 0.1189896
342.60 0.1176672
342.70 0.1188817
342.80 0.1214
342.90 0.1236782
343.00 0.1248113
343.10 0.1249384
343.20 0.1249087
343.30 0.1254521
343.40 0.1265407
343.50 0.1275404
343.60 0.1278803
343.70 0.1274047
343.80 0.1262363
343.90 0.1246627
344.00 0.1232088
344.10 0.1224809
344.20 0.1226387
344.30 0.1231282
344.40 0.1231704
344.50 0.1225084
344.60 0.121618
344.70 0.1212929
344.80 0.1221394
344.90 0.1243705
345.00 0.1278704
345.10 0.1322794
345.20 0.1370137
345.30 0.1412673
345.40 0.1441416
345.50 0.1450763
345.60 0.1443142
345.70 0.1428606
345.80 0.1417955
345.90 0.141519
346.00 0.1415731
346.10 0.1410446
346.20 0.1392044
346.30 0.1360834
346.40 0.1326569
346.50 0.1302783
346.60 0.1296043
346.70 0.1300247
346.80 0.1302305
346.90 0.1292801
347.00 0.1270855
347.10 0.1242322
347.20 0.1216901
347.30 0.1205407
347.40 0.1214715
347.50 0.1242359
347.60 0.1277676
347.70 0.1309991
347.80 0.1335738
347.90 0.1358362
348.00 0.1382799
348.10 0.1409897
348.20 0.1434623
348.30 0.1449365
348.40 0.1450089
348.50 0.1439869
348.60 0.1425717
348.70 0.1412212
348.80 0.1399352
348.90 0.138571
349.00 0.1371396
349.10 0.1357682
349.20 0.1345702
349.30 0.1337068
349.40 0.1334657
349.50 0.1340306
349.60 0.1351237
349.70 0.136047
349.80 0.1363018
349.90 0.1362908
350.00 0.1372692
350.10 0.1403551
350.20 0.1454541
350.30 0.1511481
350.40 0.1556583
350.50 0.1579662
350.60 0.1581472
350.70 0.1568987
350.80 0.1549439
350.90 0.1526897
351.00 0.1500686
351.10 0.1465722
351.20 0.1416526
351.30 0.1354368
351.40 0.1291159
351.50 0.1243751
351.60 0.122204
351.70 0.1222009
351.80 0.1230412
351.90 0.1235819
352.00 0.1235
352.10 0.1230262
352.20 0.1224306
352.30 0.121949
352.40 0.1220852
352.50 0.1237582
352.60 0.127798
352.70 0.134085
352.80 0.1412235
352.90 0.1473184
353.00 0.151367
353.10 0.1538969
353.20 0.1561512
353.30 0.1588207
353.40 0.1617391
353.50 0.1645705
353.60 0.1673844
353.70 0.1704403
353.80 0.1737313
353.90 0.1769675
354.00 0.1797711
354.10 0.1816533
354.20 0.1820275
354.30 0.1806612
354.40 0.1781826
354.50 0.1758672
354.60 0.1746872
354.70 0.1745969
354.80 0.1748004
354.90 0.1745887
355.00 0.1738289
355.10 0.1728055
355.20 0.1718209
355.30 0.1710144
355.40 0.1704524
355.50 0.1701628
355.60 0.1699775
355.70 0.1694298
355.80 0.1679702
355.90 0.1654229
356.00 0.1621938
356.10 0.1589404
356.20 0.1560094
356.30 0.1531614
356.40 0.1498367
356.50 0.1457681
356.60 0.1414258
356.70 0.1378506
356.80 0.1359294
356.90 0.1357408
357.00 0.136562
357.10 0.1374258
357.20 0.1376248
357.30 0.1368554
357.40 0.1351308
357.50 0.132687
357.60 0.1299144
357.70 0.127221
357.80 0.1248678
357.90 0.1229102
358.00 0.1213383
358.10 0.1203243
358.20 0.1202867
358.30 0.1216166
358.40 0.1242834
358.50 0.1276937
358.60 0.1309204
358.70 0.1330985
358.80 0.1337845
358.90 0.13317
359.00 0.1320944
359.10 0.1317302
359.20 0.1329369
359.30 0.1356624
359.40 0.1388742
359.50 0.1412048
359.60 0.1418779
359.70 0.1411892
359.80 0.140168
359.90 0.1397062
360.00 0.139849
360.10 0.139797
360.20 0.1385903
360.30 0.1358824
360.40 0.1322356
360.50 0.1288426
360.60 0.1269755
360.70 0.1274802
360.80 0.1303961
360.90 0.1348669
361.00 0.1395606
361.10 0.1434253
361.20 0.1461857
361.30 0.1481396
361.40 0.1495464
361.50 0.1503494
361.60 0.150536
361.70 0.15053
361.80 0.1509617
361.90 0.1520295
362.00 0.1532649
362.10 0.1540245
362.20 0.1540813
362.30 0.1536905
362.40 0.1532798
362.50 0.1532065
362.60 0.1535894
362.70 0.1541034
362.80 0.1540384
362.90 0.1528645
363.00 0.1508511
363.10 0.1489874
363.20 0.1481866
363.30 0.1486062
363.40 0.1497136
363.50 0.1508435
363.60 0.1516247
363.70 0.152017
363.80 0.1520913
363.90 0.1518146
364.00 0.1509963
364.10 0.1494211
364.20 0.1470676
364.30 0.1442307
364.40 0.1414591
364.50 0.1393777
364.60 0.1384476
364.70 0.1387102
364.80 0.1397318
364.90 0.1409319
365.00 0.1421131
365.10 0.1436575
365.20 0.1460516
365.30 0.1491553
365.40 0.1520244
365.50 0.1535622
365.60 0.153422
365.70 0.1522689
365.80 0.1511396
365.90 0.1506023
366.00 0.1505443
366.10 0.1506423
366.20 0.1508746
366.30 0.1514761
366.40 0.1525053
366.50 0.1536076
366.60 0.1542006
366.70 0.1538498
366.80 0.1524948
366.90 0.1504164
367.00 0.1480912
367.10 0.14606
367.20 0.1448143
367.30 0.1446701
367.40 0.1456318
367.50 0.1473647
367.60 0.1493584
367.70 0.1511915
367.80 0.1527057
367.90 0.1539787
368.00 0.1551519
368.10 0.1562579
368.20 0.1571579
368.30 0.1576101
368.40 0.1574263
368.50 0.1566499
368.60 0.1556298
368.70 0.1548765
368.80 0.1547515
368.90 0.1552475
369.00 0.1560885
369.10 0.1570543
369.20 0.158131
369.30 0.159306
369.40 0.1603055
369.50 0.1606638
369.60 0.160126
369.70 0.1589625
369.80 0.1578745
369.90 0.1575981
370.00 0.158522
370.10 0.1605359
370.20 0.1631544
370.30 0.1657778
370.40 0.1678988
370.50 0.1691875
370.60 0.1695289
370.70 0.1691123
370.80 0.1684427
370.90 0.1681143
371.00 0.1684246
371.10 0.1691274
371.20 0.1695256
371.30 0.1688323
371.40 0.1666109
371.50 0.1630664
371.60 0.1590153
371.70 0.155504
371.80 0.1533324
371.90 0.1527938
372.00 0.1536989
372.10 0.1554312
372.20 0.1569067
372.30 0.1567635
372.40 0.153993
372.50 0.1487309
372.60 0.1424954
372.70 0.1375092
372.80 0.1355689
372.90 0.1372598
373.00 0.1419099
373.10 0.1480767
373.20 0.1541432
373.30 0.1587552
373.40 0.1610927
373.50 0.1609302
373.60 0.1584907
373.70 0.1542315
373.80 0.1487471
373.90 0.142821
374.00 0.1374331
374.10 0.1335898
374.20 0.1320694
374.30 0.1332846
374.40 0.1373132
374.50 0.1439264
374.60 0.1525077
374.70 0.1619405
374.80 0.1706804
374.90 0.177145
375.00 0.1802542
375.10 0.1797757
375.20 0.1762877
375.30 0.1708785
375.40 0.1648121
375.50 0.1592632
375.60 0.1550384
375.70 0.1523622
375.80 0.1508894
375.90 0.1499988
376.00 0.1492291
376.10 0.1486219
376.20 0.1487952
376.30 0.1506885
376.40 0.1551049
376.50 0.1623637
376.60 0.1722906
376.70 0.1843233
376.80 0.1974374
376.90 0.2099395
377.00 0.219608
377.10 0.2244505
377.20 0.2236106
377.30 0.2176977
377.40 0.2083401
377.50 0.197417
377.60 0.1865237
377.70 0.1768137
377.80 0.1689556
377.90 0.1630971
378.00 0.1589461
378.10 0.1560294
378.20 0.1539726
378.30 0.1525717
378.40 0.1516846
378.50 0.151196
378.60 0.1511262
378.70 0.1516918
378.80 0.1532137
378.90 0.1560511
379.00 0.1607055
379.10 0.1678794
379.20 0.1781828
379.30 0.1915925
379.40 0.2071189
379.50 0.2229478
379.60 0.2368567
379.70 0.2466565
379.80 0.2506856
379.90 0.2483256
380.00 0.2403154
380.10 0.2285364
380.20 0.2152973
380.30 0.2025473
380.40 0.1914664
380.50 0.1824912
380.60 0.1755415
380.70 0.170215
380.80 0.165934
380.90 0.1621983
381.00 0.1588321
381.10 0.1559781
381.20 0.1538032
381.30 0.1522196
381.40 0.1509673
381.50 0.1499786
381.60 0.1496069
381.70 0.1502154
381.80 0.1516298
381.90 0.1531491
382.00 0.1541528
382.10 0.1562437
382.20 0.1617761
382.30 0.1587102
382.40 0.1476374
382.50 0.151101
382.60 0.200322
382.70 0.3032624
382.80 0.4210457
382.90 0.4981451
383.00 0.4960244
383.10 0.4490889
383.20 0.4428545
383.30 0.4986677
383.40 0.5905603
383.50 0.6635666
383.60 0.6665661
383.70 0.5889135
383.80 0.4701711
383.90 0.3640396
384.00 0.2919461
384.10 0.2415817
384.20 0.2040193
384.30 0.1945388
384.40 0.224074
384.50 0.2584377
384.60 0.2607952
384.70 0.1893749
384.80 0.08557876
384.90 0.006833584
385.00 0
385.10 0
385.20 0.02216992
385.30 0.04693827
385.40 0.06555461
385.50 0.08008188
385.60 0.09573896
385.70 0.1140755
385.80 0.1321629
385.90 0.1509884
386.00 0.1786391
386.10 0.2157579
386.20 0.244994
386.30 0.2501305
386.40 0.2391987
386.50 0.2366321
386.60 0.2575279
386.70 0.2974586
386.80 0.3415591
386.90 0.3684331
387.00 0.3566245
387.10 0.303547
387.20 0.2365465
387.30 0.1926792
387.40 0.1834561
387.50 0.1874489
387.60 0.1806686
387.70 0.1651021
387.80 0.1567663
387.90 0.158141
388.00 0.158452
388.10 0.1639602
388.20 0.2032564
388.30 0.2831958
388.40 0.3603706
388.50 0.3842275
388.60 0.3674903
388.70 0.3763823
388.80 0.442834
388.90 0.5168747
389.00 0.5259015
389.10 0.4634621
389.20 0.3896742
389.30 0.3534523
389.40 0.3464512
389.50 0.3252957
389.60 0.25995
389.70 0.1964363
389.80 0.1418781
389.90 0.1338703
390.00 0.1724627
390.10 0.2068091
390.20 0.2477053
390.30 0.2916977
390.40 0.3313783
390.50 0.3898463
390.60 0.4361847
390.70 0.4320505
390.80 0.3714451
390.90 0.284767
391.00 0.2144693
391.10 0.1928217
391.20 0.2271517
391.30 0.2531456
391.40 0.2765049
391.50 0.2841923
391.60 0.274916
391.70 0.2635091
391.80 0.2646792
391.90 0.2833331
392.00 0.3171316
392.10 0.3489525
392.20 0.3583427
392.30 0.3218989
392.40 0.2713974
392.50 0.2303245
392.60 0.1978702
392.70 0.1877581
392.80 0.1977148
392.90 0.2451633
393.00 0.3524405
393.10 0.5658955
393.20 0.9021799
393.30 1.254653
393.40 1.46644
393.50 1.43474
393.60 1.18565
393.70 0.8513945
393.80 0.5667276
393.90 0.382573
394.00 0.268752
394.10 0.1851447
394.20 0.1248589
394.30 0.08373101
394.40 0.09501239
394.50 0.1495358
394.60 0.2244868
394.70 0.2916862
394.80 0.3520437
394.90 0.3809774
395.00 0.391722
395.10 0.3890206
395.20 0.3724677
395.30 0.3507404
395.40 0.3472767
395.50 0.3533115
395.60 0.3585849
395.70 0.376098
395.80 0.3915955
395.90 0.3898482
396.00 0.3525798
396.10 0.2916468
396.20 0.2464837
396.30 0.2350794
396.40 0.2706037
396.50 0.3604213
396.60 0.538403
396.70 0.8377332
396.80 1.21004
396.90 1.515288
397.00 1.602993
397.10 1.428089
397.20 1.083227
397.30 0.72435
397.40 0.4593606
397.50 0.3166327
397.60 0.271588
397.70 0.279724
397.80 0.2997316
397.90 0.3077223
398.00 0.2963521
398.10 0.2660695
398.20 0.2249432
398.30 0.1977598
398.40 0.2146809
398.50 0.2798059
398.60 0.3605495
398.70 0.4174998
398.80 0.4193293
398.90 0.3982096
399.00 0.3688164
399.10 0.3450423
399.20 0.3359612
399.30 0.3351932
399.40 0.3255486
399.50 0.3035545
399.60 0.2862551
399.70 0.2978536
399.80 0.3384208
399.90 0.3702837
400.00 0.3632418
400.10 0.3243238
400.20 0.2912438
400.30 0.2942832
400.40 0.3276512
400.50 0.3581335
400.60 0.3608866
400.70 0.3546998
400.80 0.355036
400.90 0.3549133
401.00 0.3542066
401.10 0.3502131
401.20 0.3530751
401.30 0.3526681
401.40 0.3440409
401.50 0.3242994
401.60 0.2934051
401.70 0.2509689
401.80 0.2328414
401.90 0.2442533
402.00 0.2675146
402.10 0.2814214
402.20 0.2767953
402.30 0.2618006
402.40 0.254167
402.50 0.2661615
402.60 0.2931547
402.70 0.3186103
402.80 0.3290805
402.90 0.3233517
403.00 0.307187
403.10 0.2814945
403.20 0.2460094
403.30 0.2101134
403.40 0.19129
403.50 0.200037
403.60 0.2283082
403.70 0.254816
403.80 0.2779033
403.90 0.3103227
404.00 0.3533646
404.10 0.3941651
404.20 0.4113016
404.30 0.4018122
404.40 0.3858113
404.50 0.3817118
404.60 0.3853614
404.70 0.3813724
404.80 0.3653538
404.90 0.3472936
405.00 0.3375963
405.10 0.3388204
405.20 0.3490934
405.30 0.3623698
405.40 0.3660418
405.50 0.3483693
405.60 0.315271
405.70 0.2886727
405.80 0.2812219
405.90 0.2868087
406.00 0.2874255
406.10 0.2733003
406.20 0.2513527
406.30 0.2366473
406.40 0.2385779
406.50 0.2558536
406.60 0.2742159
406.70 0.2794464
406.80 0.2728068
406.90 0.2694928
407.00 0.2832581
407.10 0.3092231
407.20 0.3163512
407.30 0.2974091
407.40 0.2686525
407.50 0.2336899
407.60 0.2118153
407.70 0.2041
407.80 0.2077237
407.90 0.2270646
408.00 0.2627252
408.10 0.3011511
408.20 0.3232684
408.30 0.3189987
408.40 0.2947113
408.50 0.2643476
408.60 0.2384779
408.70 0.2211943
408.80 0.2134496
408.90 0.2157866
409.00 0.2236728
409.10 0.2267436
409.20 0.2187738
409.30 0.2016477
409.40 0.1839616
409.50 0.1736022
409.60 0.1781934
409.70 0.2064821
409.80 0.2670536
409.90 0.3657686
410.00 0.5023695
410.10 0.6559662
410.20 0.7730291
410.30 0.7925272
410.40 0.7006722
410.50 0.5529773
410.60 0.4276123
410.70 0.3407566
410.80 0.3049698
410.90 0.2875536
411.00 0.2752743
411.10 0.2687707
411.20 0.2630393
411.30 0.2501958
411.40 0.2337744
411.50 0.2265522
411.60 0.2091828
411.70 0.1802845
411.80 0.1586867
411.90 0.1423951
412.00 0.1300611
412.10 0.1235885
412.20 0.1277889
412.30 0.1416671
412.40 0.1606024
412.50 0.1793654
412.60 0.1946114
412.70 0.2044538
412.80 0.207293
412.90 0.2039621
413.00 0.2007039
413.10 0.2058055
413.20 0.2220752
413.30 0.2423971
413.40 0.2549314
413.50 0.2525638
413.60 0.2385253
413.70 0.2233517
413.80 0.2161014
413.90 0.2189218
414.00 0.2289727
414.10 0.2425049
414.20 0.2323879
414.30 0.215584
414.40 0.1976393
414.50 0.1893676
414.60 0.2030888
414.70 0.2382721
414.80 0.2588776
414.90 0.2605255
415.00 0.2564651
415.10 0.2421218
415.20 0.2190159
415.30 0.2042277
415.40 0.1999338
415.50 0.2129573
415.60 0.2454267
415.70 0.2859301
415.80 0.3166755
415.90 0.3273142
416.00 0.3147543
416.10 0.2887077
