# Version 2.1 - nm, norm@500 to 1, cut digits
# Wavelength(nm)  Flambda(ergs/cm^s/s/nm)
300.00 0.004862683
300.10 0.006554344
300.20 0.007541601
300.30 0.007894541
300.40 0.007932126
300.50 0.007909739
300.60 0.007908574
300.70 0.007922772
300.80 0.007947797
300.90 0.007981706
301.00 0.008024142
301.10 0.008075028
301.20 0.008133019
301.30 0.008195092
301.40 0.008258541
301.50 0.008322018
301.60 0.008385271
301.70 0.008448392
301.80 0.008511445
301.90 0.008574472
302.00 0.008637493
302.10 0.008700514
302.20 0.008763531
302.30 0.008826527
302.40 0.008889472
302.50 0.008952317
302.60 0.009014991
302.70 0.009077687
302.80 0.009141427
302.90 0.009208268
303.00 0.009280502
303.10 0.009359152
303.20 0.009443195
303.30 0.009530338
303.40 0.009618525
303.50 0.009706735
303.60 0.009794773
303.70 0.009882712
303.80 0.009970599
303.90 0.01005847
304.00 0.01014633
304.10 0.01023419
304.20 0.01032207
304.30 0.01041001
304.40 0.0104981
304.50 0.0105865
304.60 0.01067543
304.70 0.01076428
304.80 0.01084994
304.90 0.01092612
305.00 0.01098581
305.10 0.01102587
305.20 0.01104944
305.30 0.01106352
305.40 0.01107441
305.50 0.01108523
305.60 0.01109658
305.70 0.01110823
305.80 0.01112004
305.90 0.0111319
306.00 0.01114379
306.10 0.01115567
306.20 0.01116755
306.30 0.01117944
306.40 0.01119132
306.50 0.0112032
306.60 0.01121508
306.70 0.01122696
306.80 0.01123885
306.90 0.01125076
307.00 0.01126271
307.10 0.01127469
307.20 0.01128672
307.30 0.01129876
307.40 0.01131081
307.50 0.01132286
307.60 0.01133491
307.70 0.01134696
307.80 0.01135901
307.90 0.01137105
308.00 0.0113831
308.10 0.01139515
308.20 0.01140716
308.30 0.01141902
308.40 0.01143049
308.50 0.01144119
308.60 0.01145058
308.70 0.01146015
308.80 0.0114777
308.90 0.01151899
309.00 0.01160156
309.10 0.01173324
309.20 0.01190621
309.30 0.01210291
309.40 0.0123076
309.50 0.01251246
309.60 0.01271601
309.70 0.0129188
309.80 0.01312119
309.90 0.01332344
310.00 0.01352564
310.10 0.01372785
310.20 0.01393009
310.30 0.01413248
310.40 0.01433527
310.50 0.01453883
310.60 0.01474371
310.70 0.01494841
310.80 0.01514508
310.90 0.01531789
311.00 0.01544921
311.10 0.01553115
311.20 0.01557158
311.30 0.01558816
311.40 0.01559672
311.50 0.01560509
311.60 0.01561478
311.70 0.01562525
311.80 0.0156361
311.90 0.01564711
312.00 0.01565816
312.10 0.01566921
312.20 0.01568021
312.30 0.01569102
312.40 0.01570135
312.50 0.01571072
312.60 0.01571847
312.70 0.01572643
312.80 0.01574431
312.90 0.01579166
313.00 0.01589027
313.10 0.01604985
313.20 0.01626068
313.30 0.01650099
313.40 0.01675121
313.50 0.01700164
313.60 0.01725046
313.70 0.01749831
313.80 0.01774569
313.90 0.01799287
314.00 0.01824001
314.10 0.01848715
314.20 0.01873426
314.30 0.01898123
314.40 0.01922787
314.50 0.01947384
314.60 0.01971868
314.70 0.01996368
314.80 0.02021557
314.90 0.02048798
315.00 0.02079607
315.10 0.0211466
315.20 0.02153281
315.30 0.02193953
315.40 0.02235316
315.50 0.02276694
315.60 0.02317958
315.70 0.02359156
315.80 0.02400321
315.90 0.02441472
316.00 0.0248262
316.10 0.02523768
316.20 0.02564928
316.30 0.02606136
316.40 0.02647468
316.50 0.02689045
316.60 0.02731036
316.70 0.02772973
316.80 0.02812373
316.90 0.02844232
317.00 0.02862977
317.10 0.02866119
317.20 0.02856146
317.30 0.02838633
317.40 0.02818583
317.50 0.02798478
317.60 0.02778788
317.70 0.02759343
317.80 0.02740021
317.90 0.02720749
318.00 0.02701487
318.10 0.02682226
318.20 0.02662956
318.30 0.02643649
318.40 0.02624247
318.50 0.02604657
318.60 0.0258475
318.70 0.02564885
318.80 0.02546962
318.90 0.02534811
319.00 0.02532699
319.10 0.02542531
319.20 0.02562402
319.30 0.02588045
319.40 0.0261563
319.50 0.02643257
319.60 0.02670567
319.70 0.02697689
319.80 0.02724717
319.90 0.02751707
320.00 0.02778688
320.10 0.0280567
320.20 0.02832654
320.30 0.02859653
320.40 0.02886686
320.50 0.02913789
320.60 0.02941009
320.70 0.02968214
320.80 0.029947
320.90 0.03019052
321.00 0.03039691
321.10 0.03055912
321.20 0.0306842
321.30 0.03078794
321.40 0.03088449
321.50 0.03098089
321.60 0.03107846
321.70 0.03117672
321.80 0.03127534
321.90 0.03137409
322.00 0.03147288
322.10 0.03157166
322.20 0.03167033
322.30 0.03176849
322.40 0.03186538
322.50 0.03195973
322.60 0.03204979
322.70 0.03214042
322.80 0.03225729
322.90 0.03245213
323.00 0.03278259
323.10 0.03327441
323.20 0.03390185
323.30 0.03460726
323.40 0.03533891
323.50 0.03607113
323.60 0.03679906
323.70 0.03752446
323.80 0.03824858
323.90 0.03897219
324.00 0.03969569
324.10 0.04041918
324.20 0.0411427
324.30 0.04186629
324.40 0.0425901
324.50 0.04331431
324.60 0.04403923
324.70 0.04476405
324.80 0.04548461
324.90 0.0461925
325.00 0.04687836
325.10 0.04753801
325.20 0.04817563
325.30 0.04880059
325.40 0.04942128
325.50 0.05004188
325.60 0.05066318
325.70 0.05128489
325.80 0.0519068
325.90 0.0525288
326.00 0.05315082
326.10 0.05377284
326.20 0.05439481
326.30 0.05501661
326.40 0.05563796
326.50 0.05625843
326.60 0.05687739
326.70 0.05749656
326.80 0.0581249
326.90 0.05878055
327.00 0.05948368
327.10 0.0602433
327.20 0.06105041
327.30 0.06188482
327.40 0.06272841
327.50 0.0635722
327.60 0.06441448
327.70 0.06525589
327.80 0.06609684
327.90 0.06693762
328.00 0.06777835
328.10 0.06861909
328.20 0.06946006
328.30 0.07030208
328.40 0.07114672
328.50 0.07199656
328.60 0.07285522
328.70 0.0737127
328.80 0.0745163
328.90 0.07515972
329.00 0.07552453
329.10 0.07555789
329.20 0.07531264
329.30 0.07490721
329.40 0.0744479
329.50 0.07398741
329.60 0.07353574
329.70 0.07308927
329.80 0.07264542
329.90 0.07220262
330.00 0.07176005
330.10 0.07131748
330.20 0.07087474
330.30 0.07043123
330.40 0.06998576
330.50 0.06953644
330.60 0.06908058
330.70 0.06862559
330.80 0.06821058
330.90 0.06791438
331.00 0.06782486
331.10 0.06798121
331.20 0.06834424
331.30 0.06882608
331.40 0.06934791
331.50 0.06987059
331.60 0.07038675
331.70 0.07089904
331.80 0.07140939
331.90 0.07191896
332.00 0.07242836
332.10 0.07293776
332.20 0.07344727
332.30 0.07395726
332.40 0.0744685
332.50 0.07498217
332.60 0.07549998
332.70 0.07601725
332.80 0.0765092
332.90 0.07692592
333.00 0.07721179
333.10 0.07734199
333.20 0.07734133
333.30 0.07726544
333.40 0.07716424
333.50 0.07706249
333.60 0.07696488
333.70 0.07686971
333.80 0.07677578
333.90 0.07668234
334.00 0.076589
334.10 0.07649417
334.20 0.07639535
334.30 0.07629117
334.40 0.07618153
334.50 0.07606754
334.60 0.07604041
334.70 0.07630228
334.80 0.07692191
334.90 0.07751639
335.00 0.07737
335.10 0.0762756
335.20 0.07532134
335.30 0.07656739
335.40 0.0814747
335.50 0.08929324
335.60 0.09696242
335.70 0.1009111
335.80 0.09937949
335.90 0.09329654
336.00 0.08528217
336.10 0.07801473
336.20 0.07333947
336.30 0.07199972
336.40 0.07330735
336.50 0.07522453
336.60 0.07557069
336.70 0.07382467
336.80 0.07179617
336.90 0.07221821
337.00 0.07642436
337.10 0.0830753
337.20 0.0889406
337.30 0.09113109
337.40 0.0891353
337.50 0.08514439
337.60 0.08237768
337.70 0.08269318
337.80 0.08549794
337.90 0.08883398
338.00 0.09121455
338.10 0.09224252
338.20 0.09170397
338.30 0.08887027
338.40 0.08346598
338.50 0.07710868
338.60 0.07306292
338.70 0.07387398
338.80 0.0789726
338.90 0.08485223
339.00 0.08788434
339.10 0.08729766
339.20 0.08566258
339.30 0.08638463
339.40 0.09059078
339.50 0.09641476
339.60 0.1010426
339.70 0.1030986
339.80 0.1029998
339.90 0.1015435
340.00 0.09904319
340.10 0.09581005
340.20 0.09256777
340.30 0.08985261
340.40 0.08724999
340.50 0.08379563
340.60 0.0792301
340.70 0.07451872
340.80 0.07106158
340.90 0.06965051
341.00 0.07022511
341.10 0.07229975
341.20 0.07532629
341.30 0.07866462
341.40 0.08155639
341.50 0.08342686
341.60 0.08424252
341.70 0.08453433
341.80 0.08500815
341.90 0.08603446
342.00 0.08732557
342.10 0.08799056
342.20 0.08707331
342.30 0.08434701
342.40 0.0807437
342.50 0.07787416
342.60 0.07693438
342.70 0.07795157
342.80 0.07994429
342.90 0.08169551
343.00 0.0825031
343.10 0.08249764
343.20 0.08237267
343.30 0.08272287
343.40 0.08353467
343.50 0.08430714
343.60 0.08458571
343.70 0.08424282
343.80 0.08337056
343.90 0.08219028
344.00 0.08111089
344.10 0.08060677
344.20 0.08079745
344.30 0.08123477
344.40 0.08129004
344.50 0.08074815
344.60 0.07997492
344.70 0.07958886
344.80 0.08006405
344.90 0.08157133
345.00 0.08403145
345.10 0.08718247
345.20 0.09059107
345.30 0.09364847
345.40 0.09566708
345.50 0.09621864
345.60 0.09550305
345.70 0.09431693
345.80 0.09350937
345.90 0.09338645
346.00 0.09357182
346.10 0.0933276
346.20 0.09206241
346.30 0.08978936
346.40 0.08727411
346.50 0.0855864
346.60 0.08524557
346.70 0.08576588
346.80 0.08610632
346.90 0.0855157
347.00 0.08391653
347.10 0.08176097
347.20 0.07980321
347.30 0.07888624
347.40 0.07954546
347.50 0.0815824
347.60 0.08415749
347.70 0.08643987
347.80 0.08817093
347.90 0.08965143
348.00 0.09129875
348.10 0.09320096
348.20 0.0949731
348.30 0.0960189
348.40 0.09602005
348.50 0.09521708
348.60 0.094159
348.70 0.09319721
348.80 0.09231598
348.90 0.0913841
349.00 0.09039387
349.10 0.08943345
349.20 0.08858373
349.30 0.08796696
349.40 0.08780832
349.50 0.08825059
349.60 0.08906772
349.70 0.08969819
349.80 0.08973847
349.90 0.08950483
350.00 0.08999838
350.10 0.09212087
350.20 0.0958212
350.30 0.100004
350.40 0.1032917
350.50 0.1049098
350.60 0.1049473
350.70 0.1039767
350.80 0.1025782
350.90 0.1010676
351.00 0.09937205
351.10 0.09705852
351.20 0.09365578
351.30 0.08922582
351.40 0.08467893
351.50 0.08132572
351.60 0.07993434
351.70 0.08017966
351.80 0.08101456
351.90 0.08154212
352.00 0.08151551
352.10 0.08112108
352.20 0.0805683
352.30 0.08003248
352.40 0.0799008
352.50 0.08089598
352.60 0.08368098
352.70 0.08817819
352.80 0.09330589
352.90 0.09758909
353.00 0.1002588
353.10 0.1017536
353.20 0.103069
353.30 0.1047502
353.40 0.1066555
353.50 0.1085082
353.60 0.1103603
353.70 0.1124232
353.80 0.1147035
353.90 0.1169875
354.00 0.1189924
354.10 0.1203416
354.20 0.1205705
354.30 0.1194861
354.40 0.1175722
354.50 0.1158239
354.60 0.1149958
354.70 0.1150369
354.80 0.1153053
354.90 0.1152345
355.00 0.1147199
355.10 0.1139911
355.20 0.113293
355.30 0.1127417
355.40 0.1123965
355.50 0.112287
355.60 0.112288
355.70 0.112036
355.80 0.1111024
355.90 0.1093525
356.00 0.1071095
356.10 0.1048914
356.20 0.1029638
356.30 0.1011212
356.40 0.09889958
356.50 0.09606552
356.60 0.09297315
356.70 0.090435
356.80 0.08914981
356.90 0.08918443
357.00 0.08997865
357.10 0.09078463
357.20 0.09106362
357.30 0.09059479
357.40 0.08940128
357.50 0.08767237
357.60 0.08570886
357.70 0.08381636
357.80 0.08217742
357.90 0.08080994
358.00 0.07968421
358.10 0.07892305
358.20 0.07885632
358.30 0.07980386
358.40 0.08176033
358.50 0.08427859
358.60 0.08664555
358.70 0.08819159
358.80 0.08857263
358.90 0.08793943
359.00 0.0869511
359.10 0.0865294
359.20 0.08735104
359.30 0.08937402
359.40 0.0917842
359.50 0.09350709
359.60 0.0939403
359.70 0.09333224
359.80 0.09251156
359.90 0.09219246
360.00 0.09240964
360.10 0.09251895
360.20 0.09174043
360.30 0.08977405
360.40 0.0870368
360.50 0.08444523
360.60 0.0829833
360.70 0.08330735
360.80 0.08544784
360.90 0.08873999
361.00 0.09215387
361.10 0.09488803
361.20 0.09675654
361.30 0.0980212
361.40 0.09890132
361.50 0.09935202
361.60 0.09935576
361.70 0.09923911
361.80 0.09949302
361.90 0.1002679
362.00 0.1011873
362.10 0.1017387
362.20 0.1017434
362.30 0.1014068
362.40 0.101071
362.50 0.1010219
362.60 0.1013556
362.70 0.1018135
362.80 0.1018276
362.90 0.1009694
363.00 0.09944286
363.10 0.09802398
363.20 0.09742983
363.30 0.09778063
363.40 0.09865465
363.50 0.09953211
363.60 0.100133
363.70 0.100443
363.80 0.1005348
363.90 0.1003937
364.00 0.09987124
364.10 0.09878991
364.20 0.09711808
364.30 0.09506956
364.40 0.0930577
364.50 0.09155737
364.60 0.09091644
364.70 0.09115564
364.80 0.09192632
364.90 0.09277172
365.00 0.0935471
365.10 0.09457498
365.20 0.09626428
365.30 0.09852636
365.40 0.1006304
365.50 0.1017176
365.60 0.1015171
365.70 0.1005537
365.80 0.09964001
365.90 0.09921234
366.00 0.09916615
366.10 0.09923437
366.20 0.09939677
366.30 0.0998454
366.40 0.1006387
366.50 0.1015095
366.60 0.1020075
366.70 0.1017934
366.80 0.100816
366.90 0.09928603
367.00 0.09756274
367.10 0.09605426
367.20 0.09513145
367.30 0.09503161
367.40 0.09575298
367.50 0.09703339
367.60 0.09847879
367.70 0.09977042
367.80 0.1008004
367.90 0.1016471
368.00 0.1024366
368.10 0.1032032
368.20 0.103841
368.30 0.1041568
368.40 0.1039955
368.50 0.1033818
368.60 0.102581
368.70 0.1019861
368.80 0.1018744
368.90 0.1022346
369.00 0.1028477
369.10 0.1035453
369.20 0.1043273
369.30 0.1051947
369.40 0.1059379
369.50 0.1061882
369.60 0.105737
369.70 0.1047866
369.80 0.1038794
369.90 0.103587
370.00 0.1042117
370.10 0.105668
370.20 0.1075811
370.30 0.1094906
370.40 0.1110107
370.50 0.1118933
370.60 0.1120558
370.70 0.1116516
370.80 0.1110816
370.90 0.1108181
371.00 0.1110999
371.10 0.1117363
371.20 0.1121787
371.30 0.1118032
371.40 0.110256
371.50 0.1076835
371.60 0.1047114
371.70 0.1021484
371.80 0.1006148
371.90 0.1003419
372.00 0.1011931
372.10 0.1027033
372.20 0.1040375
372.30 0.1041301
372.40 0.1021765
372.50 0.0982594
372.60 0.09354272
372.70 0.08974388
372.80 0.08825022
372.90 0.08950805
373.00 0.09299481
373.10 0.09760507
373.20 0.102116
373.30 0.1055208
373.40 0.1072283
373.50 0.1070987
373.60 0.1053182
373.70 0.1022275
373.80 0.09824849
373.90 0.09393493
374.00 0.08998939
374.10 0.087141
374.20 0.08595396
374.30 0.08672824
374.40 0.08952929
374.50 0.0942116
374.60 0.10035
374.70 0.1071404
374.80 0.1134429
374.90 0.1180773
375.00 0.1202393
375.10 0.1197666
375.20 0.1171079
375.30 0.1130896
375.40 0.1086604
375.50 0.1046926
375.60 0.1017704
375.70 0.1000262
375.80 0.09915172
375.90 0.09862816
376.00 0.09806718
376.10 0.09747905
376.20 0.09733117
376.30 0.0983502
376.40 0.101167
376.50 0.1060505
376.60 0.1129065
376.70 0.1213632
376.80 0.1307066
376.90 0.1397018
377.00 0.1466869
377.10 0.1501557
377.20 0.1494651
377.30 0.1450916
377.40 0.1382783
377.50 0.1304363
377.60 0.1227357
377.70 0.1159983
377.80 0.1106765
377.90 0.1068332
378.00 0.1042071
378.10 0.1024157
378.20 0.1011696
378.30 0.1003204
378.40 0.09976639
378.50 0.09941773
378.60 0.09928083
378.70 0.09950674
378.80 0.1003211
378.90 0.101979
379.00 0.1048577
379.10 0.109515
379.20 0.1164658
379.30 0.125757
379.40 0.1367002
379.50 0.1479746
379.60 0.1579404
379.70 0.1649691
379.80 0.1678164
379.90 0.1660181
380.00 0.1601365
380.10 0.151596
380.20 0.1421307
380.30 0.1331769
380.40 0.1255679
380.50 0.1195684
380.60 0.1150612
380.70 0.1117023
380.80 0.1090313
380.90 0.1066634
381.00 0.1044769
381.10 0.1026025
381.20 0.1011866
381.30 0.1001695
381.40 0.09935349
381.50 0.0986945
381.60 0.09809804
381.70 0.09739806
381.80 0.09620706
381.90 0.09366045
382.00 0.08868314
382.10 0.07068651
382.20 0.00650429
382.30 0
382.40 0
382.50 0
382.60 0
382.70 0
382.80 0
382.90 0
383.00 0.1084716
383.10 0.4272021
383.20 0.6074691
383.30 0.6327877
383.40 0.5205507
383.50 0.3421038
383.60 0.2102995
383.70 0.2072944
383.80 0.3046071
383.90 0.3918985
384.00 0.4023244
384.10 0.3523137
384.20 0.2701855
384.30 0.1425788
384.40 0
384.50 0
384.60 0.1357558
384.70 0.5516551
384.80 1.001072
384.90 1.248051
385.00 1.154822
385.10 0.7810819
385.20 0.3681976
385.30 0.1906113
385.40 0.3423816
385.50 0.6640758
385.60 0.9075858
385.70 0.9376386
385.80 0.7691939
385.90 0.4907345
386.00 0.2102203
386.10 0.02602833
386.20 0
386.30 0.05491925
386.40 0.1506649
386.50 0.2342086
386.60 0.3110112
386.70 0.3905522
386.80 0.4587589
386.90 0.5148897
387.00 0.5830718
387.10 0.6687684
387.20 0.7448952
387.30 0.7901131
387.40 0.8233853
387.50 0.8577301
387.60 0.851176
387.70 0.759822
387.80 0.6446137
387.90 0.6268835
388.00 0.7247693
388.10 0.8032212
388.20 0.72063
388.30 0.4991042
388.40 0.2725831
388.50 0.1453556
388.60 0.1410437
388.70 0.2463384
388.80 0.4331343
388.90 0.6379544
389.00 0.7796789
389.10 0.8064205
389.20 0.7136438
389.30 0.5210959
389.40 0.2692022
389.50 0.05042648
389.60 0.03671596
389.70 0.02273977
389.80 0.1505762
389.90 0.1631379
390.00 0.005643541
390.10 0.002605564
390.20 0.004878414
390.30 0.04761722
390.40 0.1972034
390.50 0.1735602
390.60 0.06783936
390.70 0.07158764
390.80 0.2493126
390.90 0.4683607
391.00 0.5395055
391.10 0.3658765
391.20 0
391.30 0
391.40 0
391.50 0
391.60 0
391.70 0
391.80 0.01893275
391.90 0.04378239
392.00 0.05815277
392.10 0.06620467
392.20 0.06717658
392.30 0.1556505
392.40 0.1378893
392.50 0.03380598
392.60 0.02664761
392.70 0.02379479
392.80 0.02332803
392.90 0.02934069
393.00 0.2834682
393.10 0.8355308
393.20 1.436989
393.30 1.955396
393.40 2.132744
393.50 1.798883
393.60 1.111781
393.70 0.4643653
393.80 0.1465985
393.90 0.1352874
394.00 0.2038057
394.10 0.1647
394.20 0.006249748
394.30 0
394.40 0
394.50 0.0115658
394.60 0.02785531
394.70 0.09105245
394.80 0.03818737
394.90 0.03793773
395.00 0.03788915
395.10 0.0391032
395.20 0.0404432
395.30 0.04201898
395.40 0.04681045
395.50 0.2668167
395.60 0.649047
395.70 0.7736281
395.80 0.5816677
395.90 0.2357948
396.00 0.02759737
396.10 0
396.20 0
396.30 0
396.40 0
396.50 0.0919242
396.60 0.4375681
396.70 0.9243666
396.80 1.437651
396.90 1.804255
397.00 1.914635
397.10 1.771373
397.20 1.4441
397.30 0.999808
397.40 0.5460872
397.50 0.2154656
397.60 0.1004269
397.70 0.1842438
397.80 0.3474231
397.90 0.4734684
398.00 0.5433162
398.10 0.6156488
398.20 0.7202613
398.30 0.7992145
398.40 0.7624808
398.50 0.5814873
398.60 0.3249042
398.70 0.08748804
398.80 0.06729234
398.90 0.06174323
399.00 0.05535217
399.10 0.05052754
399.20 0.04743498
399.30 0.04422623
399.40 0.0392042
399.50 0.03254622
399.60 0.06791198
399.70 0.1101626
399.80 0.0954875
399.90 0.06757282
400.00 0.07232723
400.10 0.1188225
400.20 0.1652766
400.30 0.153431
400.40 0.07000355
400.50 0
400.60 0
400.70 0
400.80 0
400.90 0.1020204
401.00 0.1908731
401.10 0.202693
401.20 0.1033071
401.30 0.04858383
401.40 0.04938014
401.50 0.04688674
401.60 0.04152018
401.70 0.1692983
401.80 0.2841404
401.90 0.3266537
402.00 0.3245995
402.10 0.3366765
402.20 0.4057996
402.30 0.5081046
402.40 0.5617956
402.50 0.5141738
402.60 0.3993276
402.70 0.2804551
402.80 0.1761696
402.90 0.07902715
403.00 0.009262923
403.10 0.01265675
403.20 0.09000974
403.30 0.1739979
403.40 0.1904
403.50 0.1211621
403.60 0.01260409
403.70 0
403.80 0
403.90 0
404.00 0
404.10 0
404.20 0.03600131
404.30 0.1617165
404.40 0.3280728
404.50 0.4807218
404.60 0.5597869
404.70 0.5142794
404.80 0.346578
404.90 0.1461091
405.00 0.02610558
405.10 0.02127814
405.20 0.07219945
405.30 0.1160067
405.40 0.1587893
405.50 0.2304385
405.60 0.2994827
405.70 0.2948541
405.80 0.2180569
405.90 0.1510297
406.00 0.1725308
406.10 0.269846
406.20 0.3657931
406.30 0.4147692
406.40 0.4368288
406.50 0.4553724
406.60 0.4757465
406.70 0.4877152
406.80 0.4722002
406.90 0.4075356
407.00 0.2748418
407.10 0.09518708
407.20 0.01254503
407.30 0.01034456
407.40 0.007484431
407.50 0.09743421
407.60 0.1749216
407.70 0.2134746
407.80 0.239297
407.90 0.2525655
408.00 0.2357745
408.10 0.1911594
408.20 0.1422216
408.30 0.1134715
408.40 0.1096128
408.50 0.1309159
408.60 0.1749747
408.70 0.2175657
408.80 0.2128382
408.90 0.1350916
409.00 0.0337238
409.10 0.01021809
409.20 0.1004842
409.30 0.2344609
409.40 0.2816923
409.50 0.2143508
409.60 0.1436054
409.70 0.2040625
409.80 0.4243598
409.90 0.7281537
410.00 1.01166
410.10 1.190276
410.20 1.204199
410.30 1.032944
410.40 0.7203987
410.50 0.363982
410.60 0.0663063
410.70 0.04799444
410.80 0.04390032
410.90 0.03950406
411.00 0.03470831
411.10 0.03136423
411.20 0.02909892
411.30 0.02620373
411.40 0.02342667
411.50 0.02411474
411.60 0.250408
411.70 0.6434685
411.80 0.910707
411.90 0.9887022
412.00 0.9168476
412.10 0.7822707
412.20 0.650616
412.30 0.5526197
412.40 0.4771237
412.50 0.4020422
412.60 0.3195467
412.70 0.2360243
412.80 0.1604872
412.90 0.09724112
413.00 0.05027392
413.10 0.02580326
413.20 0.02050998
413.30 0.02707516
413.40 0.04427839
413.50 0.07268407
413.60 0.1091352
413.70 0.1490756
413.80 0.1847627
413.90 0.192345
414.00 0.1364379
414.10 0
414.20 0
414.30 0
414.40 0.007200242
414.50 0.01683902
414.60 0.02966772
414.70 0.03992317
414.80 0.1672623
414.90 0.2526733
