# Version 2.1 - nm, norm@500 to 1, cut digits
# Wavelength(nm)  Flambda(ergs/cm^s/s/nm)
300.00 0.006761573
300.10 0.008454356
300.20 0.009737411
300.30 0.01059253
300.40 0.01113819
300.50 0.0114939
300.60 0.01172468
300.70 0.01186735
300.80 0.01195785
300.90 0.0120254
301.00 0.01209164
301.10 0.01216571
301.20 0.01224686
301.30 0.01233332
301.40 0.01242324
301.50 0.01251531
301.60 0.0126087
301.70 0.01270286
301.80 0.01279743
301.90 0.01289215
302.00 0.0129869
302.10 0.01308166
302.20 0.01317644
302.30 0.01327134
302.40 0.01336654
302.50 0.01346233
302.60 0.01355913
302.70 0.01365755
302.80 0.01375861
302.90 0.0138637
303.00 0.01397416
303.10 0.01409056
303.20 0.01421233
303.30 0.01433814
303.40 0.01446657
303.50 0.01459664
303.60 0.01472771
303.70 0.01485937
303.80 0.01499133
303.90 0.01512341
304.00 0.01525551
304.10 0.01538762
304.20 0.01551964
304.30 0.0156513
304.40 0.01578205
304.50 0.01591098
304.60 0.01603684
304.70 0.01615773
304.80 0.01627056
304.90 0.01637107
305.00 0.01645514
305.10 0.01652104
305.20 0.01657051
305.30 0.01660765
305.40 0.01663673
305.50 0.01666084
305.60 0.01668188
305.70 0.01670111
305.80 0.01671942
305.90 0.01673737
306.00 0.01675524
306.10 0.01677311
306.20 0.01679098
306.30 0.01680884
306.40 0.01682671
306.50 0.01684459
306.60 0.01686247
306.70 0.01688036
306.80 0.01689827
306.90 0.0169162
307.00 0.01693418
307.10 0.01695219
307.20 0.01697023
307.30 0.01698831
307.40 0.0170064
307.50 0.0170245
307.60 0.01704261
307.70 0.01706072
307.80 0.01707883
307.90 0.01709695
308.00 0.01711506
308.10 0.01713318
308.20 0.0171515
308.30 0.01717073
308.40 0.01719226
308.50 0.01721832
308.60 0.01725206
308.70 0.01729824
308.80 0.01736459
308.90 0.01746179
309.00 0.01760012
309.10 0.01778393
309.20 0.01800887
309.30 0.01826466
309.40 0.01854062
309.50 0.01882902
309.60 0.0191251
309.70 0.01942572
309.80 0.01972863
309.90 0.02003245
310.00 0.02033648
310.10 0.0206405
310.20 0.02094432
310.30 0.02124722
310.40 0.02154782
310.50 0.02184386
310.60 0.02213218
310.70 0.02240799
310.80 0.02266353
310.90 0.02288805
311.00 0.02307123
311.10 0.02320869
311.20 0.0233048
311.30 0.0233699
311.40 0.02341472
311.50 0.02344704
311.60 0.02347163
311.70 0.02349167
311.80 0.0235094
311.90 0.02352622
312.00 0.02354283
312.10 0.02355944
312.20 0.0235763
312.30 0.0235943
312.40 0.02361514
312.50 0.02364161
312.60 0.02367762
312.70 0.02372907
312.80 0.02380557
312.90 0.02392037
313.00 0.02408623
313.10 0.02430856
313.20 0.02458195
313.30 0.02489365
313.40 0.02523039
313.50 0.02558258
313.60 0.0259443
313.70 0.02631165
313.80 0.02668185
313.90 0.02705318
314.00 0.02742476
314.10 0.02779635
314.20 0.02816811
314.30 0.02854066
314.40 0.02891519
314.50 0.02929364
314.60 0.02967873
314.70 0.03007457
314.80 0.03048784
314.90 0.03092778
315.00 0.03140326
315.10 0.03191805
315.20 0.03246838
315.30 0.03304537
315.40 0.0336398
315.50 0.03424498
315.60 0.03485679
315.70 0.03547253
315.80 0.03609025
315.90 0.03670875
316.00 0.03732743
316.10 0.03794612
316.20 0.03856414
316.30 0.03917927
316.40 0.03978713
316.50 0.04038058
316.60 0.04094962
316.70 0.04147914
316.80 0.04194459
316.90 0.04231203
317.00 0.04254881
317.10 0.04264111
317.20 0.04260275
317.30 0.04246637
317.40 0.04226593
317.50 0.04202597
317.60 0.0417616
317.70 0.04148282
317.80 0.04119676
317.90 0.04090782
318.00 0.04061821
318.10 0.04032861
318.20 0.04003951
318.30 0.03975262
318.40 0.0394713
318.50 0.03920102
318.60 0.03894941
318.70 0.03872806
318.80 0.03855575
318.90 0.03845847
319.00 0.03846121
319.10 0.03857455
319.20 0.0387879
319.30 0.03907629
319.40 0.03941371
319.50 0.03978139
319.60 0.04016775
319.70 0.04056515
319.80 0.04096811
319.90 0.04137328
320.00 0.04177896
320.10 0.04218464
320.20 0.04259013
320.30 0.04299481
320.40 0.04339742
320.50 0.04379596
320.60 0.04418758
320.70 0.04456802
320.80 0.04493032
320.90 0.04526487
321.00 0.04556242
321.10 0.04581907
321.20 0.04603873
321.30 0.04623064
321.40 0.04640441
321.50 0.046567
321.60 0.04672267
321.70 0.04687426
321.80 0.0470238
321.90 0.04717251
322.00 0.04732104
322.10 0.04746957
322.20 0.04761878
322.30 0.04777097
322.40 0.0479307
322.50 0.04810532
322.60 0.04830519
322.70 0.04854592
322.80 0.0488529
322.90 0.04926125
323.00 0.04980472
323.10 0.05049759
323.20 0.05132559
323.30 0.05225494
323.40 0.05325055
323.50 0.05428703
323.60 0.05534874
323.70 0.05642536
323.80 0.0575095
323.90 0.05859663
324.00 0.05968444
324.10 0.06077226
324.20 0.06185996
324.30 0.06294717
324.40 0.06403317
324.50 0.06511674
324.60 0.06619621
324.70 0.06726905
324.80 0.06833112
324.90 0.06937673
325.00 0.07040039
325.10 0.07139977
325.20 0.07237721
325.30 0.07333819
325.40 0.0742884
325.50 0.07523197
325.60 0.07617145
325.70 0.0771085
325.80 0.07804433
325.90 0.07897967
326.00 0.07991491
326.10 0.08085014
326.20 0.08178562
326.30 0.08272213
326.40 0.08366129
326.50 0.08460566
326.60 0.08555887
326.70 0.08652638
326.80 0.0875171
326.90 0.0885433
327.00 0.0896168
327.10 0.09074262
327.20 0.09191574
327.30 0.09312435
327.40 0.09435616
327.50 0.09560227
327.60 0.09685722
327.70 0.09811739
327.80 0.0993802
327.90 0.100644
328.00 0.1019081
328.10 0.1031722
328.20 0.1044349
328.30 0.1056915
328.40 0.1069326
328.50 0.108143
328.60 0.1093017
328.70 0.1103763
328.80 0.1113149
328.90 0.1120453
329.00 0.1124981
329.10 0.112644
329.20 0.1125123
329.30 0.1121724
329.40 0.1116963
329.50 0.1111364
329.60 0.1105246
329.70 0.1098821
329.80 0.1092243
329.90 0.1085602
330.00 0.1078948
330.10 0.1072294
330.20 0.106565
330.30 0.1059052
330.40 0.1052568
330.50 0.1046312
330.60 0.104044
330.70 0.1035191
330.80 0.1030951
330.90 0.1028256
331.00 0.102762
331.10 0.1029261
331.20 0.1032961
331.30 0.1038205
331.40 0.1044459
331.50 0.1051336
331.60 0.1058597
331.70 0.1066086
331.80 0.1073689
331.90 0.1081338
332.00 0.1088997
332.10 0.1096656
332.20 0.1104308
332.30 0.1111932
332.40 0.1119483
332.50 0.112689
332.60 0.1134054
332.70 0.1140823
332.80 0.1146953
332.90 0.1152106
333.00 0.1155954
333.10 0.1158361
333.20 0.1159465
333.30 0.115959
333.40 0.1159077
333.50 0.1158169
333.60 0.1157017
333.70 0.1155722
333.80 0.1154354
333.90 0.1152957
334.00 0.1151554
334.10 0.1150239
334.20 0.1149159
334.30 0.1148394
334.40 0.114795
334.50 0.1147763
334.60 0.1148204
334.70 0.1150364
334.80 0.1155198
334.90 0.1162166
335.00 0.1169462
335.10 0.1177293
335.20 0.1190768
335.30 0.1217902
335.40 0.1262558
335.50 0.1317843
335.60 0.136654
335.70 0.1389933
335.80 0.1378797
335.90 0.1337627
336.00 0.128024
336.10 0.1221977
336.20 0.117488
336.30 0.1145761
336.40 0.1134169
336.50 0.1132615
336.60 0.1131917
336.70 0.1129218
336.80 0.1131157
336.90 0.114796
337.00 0.1183587
337.10 0.123028
337.20 0.1272106
337.30 0.1295167
337.40 0.1296883
337.50 0.1287254
337.60 0.1281154
337.70 0.1287376
337.80 0.1303388
337.90 0.1320025
338.00 0.1329671
338.10 0.1329533
338.20 0.1318406
338.30 0.1293976
338.40 0.1257069
338.50 0.1217388
338.60 0.1191727
338.70 0.119311
338.80 0.1219813
338.90 0.1256178
339.00 0.128533
339.10 0.1302536
339.20 0.1317571
339.30 0.1343855
339.40 0.138478
339.50 0.1430599
339.60 0.1467353
339.70 0.148732
339.80 0.1490837
339.90 0.1480476
340.00 0.1457504
340.10 0.1423967
340.20 0.1384337
340.30 0.1342795
340.40 0.1299673
340.50 0.1253072
340.60 0.1204133
340.70 0.1159121
340.80 0.1125948
340.90 0.1109382
341.00 0.1109541
341.10 0.112364
341.20 0.1147801
341.30 0.1177233
341.40 0.1206539
341.50 0.1231294
341.60 0.1249699
341.70 0.1262875
341.80 0.127318
341.90 0.1281817
342.00 0.1287419
342.10 0.1286409
342.20 0.1275411
342.30 0.1254648
342.40 0.1229663
342.50 0.1208997
342.60 0.1199109
342.70 0.120083
342.80 0.1209957
342.90 0.1220678
343.00 0.1229035
343.10 0.1234563
343.20 0.1239301
343.30 0.124508
343.40 0.1251398
343.50 0.1255905
343.60 0.125668
343.70 0.1253359
343.80 0.1246625
343.90 0.1237823
344.00 0.1229156
344.10 0.1223088
344.20 0.1220513
344.30 0.1219903
344.40 0.1219011
344.50 0.1217471
344.60 0.1217524
344.70 0.1222499
344.80 0.1234863
344.90 0.1255284
345.00 0.1282745
345.10 0.1314863
345.20 0.1348148
345.30 0.13783
345.40 0.1400937
345.50 0.1413306
345.60 0.1415921
345.70 0.1412366
345.80 0.140682
345.90 0.1401239
346.00 0.1394626
346.10 0.1384401
346.20 0.1368611
346.30 0.1347906
346.40 0.1326118
346.50 0.1308211
346.60 0.1296571
346.70 0.1289131
346.80 0.1281395
346.90 0.127024
347.00 0.1255724
347.10 0.1240495
347.20 0.1228714
347.30 0.1224902
347.40 0.1231971
347.50 0.1249178
347.60 0.1272464
347.70 0.1297298
347.80 0.1321262
347.90 0.1344256
348.00 0.1366794
348.10 0.1388178
348.20 0.1405946
348.30 0.1417055
348.40 0.1420003
348.50 0.1416021
348.60 0.1407944
348.70 0.1397945
348.80 0.138677
348.90 0.1374775
349.00 0.1362784
349.10 0.1351854
349.20 0.1342816
349.30 0.1336512
349.40 0.1334103
349.50 0.133638
349.60 0.1342623
349.70 0.1350755
349.80 0.1359386
349.90 0.1370089
350.00 0.1387043
350.10 0.1413479
350.20 0.144794
350.30 0.1483999
350.40 0.1513781
350.50 0.1532084
350.60 0.153779
350.70 0.1532439
350.80 0.1518268
350.90 0.149705
351.00 0.1469471
351.10 0.1435152
351.20 0.1393911
351.30 0.1348045
351.40 0.1303406
351.50 0.1267206
351.60 0.1243737
351.70 0.1231889
351.80 0.1226817
351.90 0.1224013
352.00 0.1221894
352.10 0.1221107
352.20 0.122284
352.30 0.1228487
352.40 0.1240416
352.50 0.1262181
352.60 0.1296484
352.70 0.1342089
352.80 0.139285
352.90 0.1440718
353.00 0.1480894
353.10 0.1514285
353.20 0.1544835
353.30 0.1575102
353.40 0.160498
353.50 0.1633762
353.60 0.1661851
353.70 0.1689897
353.80 0.1717295
353.90 0.1742247
354.00 0.1762609
354.10 0.1776128
354.20 0.1780693
354.30 0.1775895
354.40 0.1764646
354.50 0.1752251
354.60 0.1742928
354.70 0.1737223
354.80 0.173283
354.90 0.1727447
355.00 0.1720555
355.10 0.1712973
355.20 0.1705534
355.30 0.1698461
355.40 0.1691675
355.50 0.1684906
355.60 0.1677187
355.70 0.1666531
355.80 0.1650672
355.90 0.1628744
356.00 0.1602125
356.10 0.1573312
356.20 0.1543982
356.30 0.1514028
356.40 0.1482432
356.50 0.1449276
356.60 0.1417121
356.70 0.1390266
356.80 0.1372076
356.90 0.1362613
357.00 0.1358692
357.10 0.1355971
357.20 0.135089
357.30 0.1341415
357.40 0.1326987
357.50 0.1308345
357.60 0.1287288
357.70 0.1266121
357.80 0.1246933
357.90 0.1231162
358.00 0.1219825
358.10 0.1214181
358.20 0.1215811
358.30 0.1225637
358.40 0.1242646
358.50 0.1263619
358.60 0.1284215
358.70 0.1300588
358.80 0.1310804
358.90 0.1315593
359.00 0.1318251
359.10 0.1323305
359.20 0.1334042
359.30 0.1350309
359.40 0.1368222
359.50 0.1382463
359.60 0.1389654
359.70 0.1390167
359.80 0.1387068
359.90 0.1383182
360.00 0.1378725
360.10 0.137135
360.20 0.1358552
360.30 0.1340312
360.40 0.1320004
360.50 0.1303252
360.60 0.129574
360.70 0.1301169
360.80 0.1319708
360.90 0.1347643
361.00 0.1378995
361.10 0.1408476
361.20 0.1433568
361.30 0.1454092
361.40 0.1470325
361.50 0.1482056
361.60 0.1489607
361.70 0.1494933
361.80 0.1500684
361.90 0.1507902
362.00 0.1515162
362.10 0.1520285
362.20 0.1522413
362.30 0.1522301
362.40 0.1521331
362.50 0.1520641
362.60 0.1520561
362.70 0.1519979
362.80 0.1516612
362.90 0.1508982
363.00 0.1498498
363.10 0.1489077
363.20 0.1484286
363.30 0.1484908
363.40 0.1489033
363.50 0.1493923
363.60 0.1497578
363.70 0.1499021
363.80 0.1497712
363.90 0.1492991
364.00 0.1484053
364.10 0.1470455
364.20 0.1452828
364.30 0.143317
364.40 0.141446
364.50 0.139991
364.60 0.1391999
364.70 0.1391451
364.80 0.1396954
364.90 0.1406286
365.00 0.1418174
365.10 0.1433049
365.20 0.1451526
365.30 0.1472035
365.40 0.1490379
365.50 0.1502146
365.60 0.1505912
365.70 0.1504167
365.80 0.1501032
365.90 0.1499204
366.00 0.1499008
366.10 0.1499811
366.20 0.1501675
366.30 0.150516
366.40 0.1509897
366.50 0.1513964
366.60 0.1514742
366.70 0.1510436
366.80 0.1500994
366.90 0.1487987
367.00 0.1473986
367.10 0.1461905
367.20 0.1454385
367.30 0.145318
367.40 0.1458559
367.50 0.1469176
367.60 0.148272
367.70 0.1496954
367.80 0.1510478
367.90 0.152276
368.00 0.153365
368.10 0.1542839
368.20 0.1549656
368.30 0.1553303
368.40 0.1553397
368.50 0.1550547
368.60 0.1546546
368.70 0.1543758
368.80 0.1543916
368.90 0.1547258
369.00 0.1552807
369.10 0.1559486
369.20 0.1566735
369.30 0.157397
369.40 0.1579872
369.50 0.158276
369.60 0.1582038
369.70 0.1579236
369.80 0.1577506
369.90 0.1580022
370.00 0.1588454
370.10 0.1602308
370.20 0.161939
370.30 0.1636848
370.40 0.1652094
370.50 0.1663312
370.60 0.1669692
370.70 0.1671747
370.80 0.1671236
370.90 0.1670217
371.00 0.1669613
371.10 0.1668326
371.20 0.1663686
371.30 0.1652906
371.40 0.1634796
371.50 0.1610854
371.60 0.1585015
371.70 0.1561997
371.80 0.1545301
371.90 0.1536025
372.00 0.1532858
372.10 0.1532479
372.20 0.1529865
372.30 0.1519513
372.40 0.1498067
372.50 0.1467205
372.60 0.143422
372.70 0.1409136
372.80 0.1400114
372.90 0.1410073
373.00 0.143614
373.10 0.1471364
373.20 0.1507178
373.30 0.1535585
373.40 0.1550845
373.50 0.1550308
373.60 0.1534303
373.70 0.1505511
373.80 0.1468397
373.90 0.1428971
374.00 0.1394257
374.10 0.137112
374.20 0.1364841
374.30 0.1378192
374.40 0.141127
374.50 0.1461544
374.60 0.1523786
374.70 0.1590161
374.80 0.1651136
374.90 0.1697541
375.00 0.1723061
375.10 0.172582
375.20 0.1708338
375.30 0.1676218
375.40 0.16365
375.50 0.1596185
375.60 0.156077
375.70 0.1533227
375.80 0.1513991
375.90 0.150211
376.00 0.1497024
376.10 0.1499965
376.20 0.1514206
376.30 0.1543955
376.40 0.1592341
376.50 0.1659748
376.60 0.1743455
376.70 0.1837926
376.80 0.1934836
376.90 0.2023023
377.00 0.2089861
377.10 0.2124756
377.20 0.2122948
377.30 0.2086933
377.40 0.2024771
377.50 0.1946902
377.60 0.1863508
377.70 0.1783124
377.80 0.1711828
377.90 0.1652744
378.00 0.1606241
378.10 0.1570993
378.20 0.1545321
378.30 0.1527853
378.40 0.1517571
378.50 0.1513987
378.60 0.1517634
378.70 0.1530269
378.80 0.1554409
378.90 0.1592749
379.00 0.1648038
379.10 0.1722733
379.20 0.1817503
379.30 0.192915
379.40 0.2049565
379.50 0.2166693
379.60 0.2266795
379.70 0.2336983
379.80 0.236787
379.90 0.2356012
380.00 0.2305162
380.10 0.2225197
380.20 0.2128936
380.30 0.2028497
380.40 0.1932958
380.50 0.1847768
380.60 0.1775189
380.70 0.1714996
380.80 0.1665254
380.90 0.1623622
381.00 0.1588629
381.10 0.1559944
381.20 0.1537491
381.30 0.1520478
381.40 0.1507583
381.50 0.1498107
381.60 0.1511201
381.70 0.1569837
381.80 0.1685311
381.90 0.1869881
382.00 0.2149197
382.10 0.2489991
382.20 0.2667656
382.30 0.3128692
382.40 0.3896962
382.50 0.4707291
382.60 0.5473366
382.70 0.6130316
382.80 0.6690786
382.90 0.7214088
383.00 0.8879838
383.10 1.156347
383.20 1.303448
383.30 1.30561
383.40 1.175882
383.50 0.9725966
383.60 0.782605
383.70 0.668745
383.80 0.6159004
383.90 0.5572838
384.00 0.4647561
384.10 0.3689981
384.20 0.2990916
384.30 0.2352461
384.40 0.1724893
384.50 0.2109427
384.60 0.3322228
384.70 0.6279698
384.80 0.920729
384.90 1.04685
385.00 0.9253387
385.10 0.6186343
385.20 0.3090832
385.30 0.187682
385.40 0.3125272
385.50 0.5688203
385.60 0.7814936
385.70 0.8509473
385.80 0.7791565
385.90 0.6196489
386.00 0.4455466
386.10 0.3299486
386.20 0.3172442
386.30 0.3909747
386.40 0.4977484
386.50 0.6018443
386.60 0.6962374
386.70 0.7807219
386.80 0.8438027
386.90 0.8852438
387.00 0.9230395
387.10 0.9625317
387.20 0.9825783
387.30 0.9649227
387.40 0.9248119
387.50 0.8810294
387.60 0.8151449
387.70 0.7008744
387.80 0.5845191
387.90 0.558591
388.00 0.6431534
388.10 0.7466852
388.20 0.762275
388.30 0.6905389
388.40 0.6138624
388.50 0.5950883
388.60 0.632382
388.70 0.6935607
388.80 0.7509926
388.90 0.7806138
389.00 0.7599342
389.10 0.672484
389.20 0.5149286
389.30 0.3008828
389.40 0.1083488
389.50 0
389.60 0
389.70 0
389.80 0.08691941
389.90 0.1012371
390.00 0.02280709
390.10 0.04924074
390.20 0.07505759
390.30 0.1292557
390.40 0.2675259
390.50 0.3025731
390.60 0.2993273
390.70 0.3859305
390.80 0.5968482
390.90 0.8265674
391.00 0.929654
391.10 0.829276
391.20 0.5581368
391.30 0.4711136
391.40 0.4107007
391.50 0.3405472
391.60 0.2639969
391.70 0.1802441
391.80 0.08920163
391.90 0
392.00 0
392.10 0
392.20 0
392.30 0.02828132
392.40 0.03384651
392.50 0
392.60 0
392.70 0
392.80 0
392.90 0
393.00 0.124728
393.10 0.4355731
393.20 0.7799591
393.30 1.087195
393.40 1.187159
393.50 0.9902934
393.60 0.596325
393.70 0.2356534
393.80 0.06800189
393.90 0.06774437
394.00 0.09606447
394.10 0.08254623
394.20 0
394.30 0.002250561
394.40 0.0005989851
394.50 0
394.60 0
394.70 0.05464968
394.80 0.05840164
394.90 0.08931803
395.00 0.1005826
395.10 0.09061381
395.20 0.06319145
395.30 0.0253263
395.40 0
395.50 0.1104353
395.60 0.3603195
395.70 0.4392476
395.80 0.3509156
395.90 0.1900954
396.00 0.1482056
396.10 0.2374705
396.20 0.3207419
396.30 0.3926062
396.40 0.4502827
396.50 0.5750727
396.60 0.8005199
396.70 1.061733
396.80 1.282293
396.90 1.37436
397.00 1.302654
397.10 1.089671
397.20 0.7803822
397.30 0.5127922
397.40 0.2770784
397.50 0.09240924
397.60 0.02516935
397.70 0.07624608
397.80 0.1783108
397.90 0.2601024
398.00 0.3093257
398.10 0.3639882
398.20 0.4427143
398.30 0.5017317
398.40 0.4729399
398.50 0.3350239
398.60 0.1421231
398.70 0
398.80 0
398.90 0
399.00 0
399.10 0
399.20 0
399.30 0
399.40 0
399.50 0
399.60 0.0898982
399.70 0.1742146
399.80 0.1982762
399.90 0.2040423
400.00 0.2351375
400.10 0.3025474
400.20 0.3740791
400.30 0.4048385
400.40 0.3832229
400.50 0.355643
400.60 0.3746332
400.70 0.3682762
400.80 0.3329268
400.90 0.3205474
401.00 0.2656338
401.10 0.1454486
401.20 0.008580062
401.30 0
401.40 0
401.50 0
401.60 0
401.70 0.07223717
401.80 0.2573089
401.90 0.3709446
402.00 0.420163
402.10 0.4429275
402.20 0.4756436
402.30 0.5154078
402.40 0.5240837
402.50 0.4839459
402.60 0.4321922
402.70 0.4154107
402.80 0.4350942
402.90 0.464758
403.00 0.4955101
403.10 0.5450182
403.20 0.6119729
403.30 0.6551088
403.40 0.631545
403.50 0.541215
403.60 0.4300265
403.70 0.3750753
403.80 0.3753214
403.90 0.3890917
404.00 0.4090266
404.10 0.4327879
404.20 0.4887631
404.30 0.5859764
404.40 0.6979147
404.50 0.7829557
404.60 0.8050799
404.70 0.7384906
404.80 0.5894364
404.90 0.4159018
405.00 0.2902277
405.10 0.2360964
405.20 0.2153007
405.30 0.1863929
405.40 0.1544301
405.50 0.1394968
405.60 0.1467104
405.70 0.1505856
405.80 0.09988924
405.90 0.05197259
406.00 0.064605
406.10 0.1319779
406.20 0.2006937
406.30 0.236421
406.40 0.2502914
406.50 0.3107186
406.60 0.4004927
406.70 0.4712567
406.80 0.5060142
406.90 0.4857267
407.00 0.3986913
407.10 0.2661627
407.20 0.1972139
407.30 0.1842928
407.40 0.1680341
407.50 0.2092443
407.60 0.2344812
407.70 0.2284668
407.80 0.2114763
407.90 0.1846158
408.00 0.1369122
408.10 0.0749003
408.20 0.03098001
408.30 0.01258981
408.40 0.01667817
408.50 0.03987087
408.60 0.07730056
408.70 0.1108406
408.80 0.1159899
408.90 0.08835728
409.00 0.05603553
409.10 0.08809257
409.20 0.2050446
409.30 0.3534365
409.40 0.4396246
409.50 0.4403776
409.60 0.426298
409.70 0.4839664
409.80 0.6311029
409.90 0.8160961
410.00 0.968745
410.10 1.035395
410.20 0.9863243
410.30 0.8203654
410.40 0.5716636
410.50 0.3004527
410.60 0.0691239
410.70 0.03058851
410.80 0.01004029
410.90 0.005235292
411.00 0.0133967
411.10 0.02692935
411.20 0.03858204
411.30 0.04426245
411.40 0.04054762
411.50 0.02448339
411.60 0.1510681
411.70 0.3939743
411.80 0.5720232
411.90 0.623948
412.00 0.5791115
412.10 0.5031172
412.20 0.464928
412.30 0.4507179
412.40 0.4432844
412.50 0.4211457
412.60 0.375575
412.70 0.3128764
412.80 0.2467692
412.90 0.1884982
413.00 0.1466851
413.10 0.1292062
413.20 0.1356672
413.30 0.1607528
413.40 0.2010855
413.50 0.2531026
413.60 0.3088592
413.70 0.358475
413.80 0.3918307
413.90 0.3925828
414.00 0.338341
414.10 0.2144065
414.20 0.1724907
414.30 0.1285908
414.40 0.08122373
414.50 0.03320546
414.60 0
414.70 0
414.80 0.0515344
414.90 0.1074231
415.00 0.04374823
415.10 0
415.20 0
415.30 0
415.40 0
415.50 0
415.60 0
415.70 0
415.80 0
415.90 0
416.00 0.008476078
416.10 0.07721258
416.20 0.14062
416.30 0.1620264
416.40 0.1120747
416.50 0.001499492
416.60 0
416.70 0
416.80 0
416.90 0
417.00 0.06024227
417.10 0.2042177
417.20 0.2689334
417.30 0.285487
417.40 0.3079621
417.50 0.3339182
417.60 0.3124599
417.70 0.2200691
417.80 0.09638514
417.90 0.07204906
