# Version 2.1 - nm, norm@500 to 1, cut digits, bergeron_5250_95.dat_5250
# Wavelength(nm)  Flambda(ergs/cm^s/s/nm)
300.00 0.4474
300.10 0.4478
300.20 0.4483
300.30 0.4488
300.40 0.4493
300.50 0.4497
300.60 0.4502
300.70 0.4507
300.80 0.4512
300.90 0.4516
301.00 0.4521
301.10 0.4526
301.20 0.4531
301.30 0.4535
301.40 0.454
301.50 0.4545
301.60 0.455
301.70 0.4554
301.80 0.4559
301.90 0.4564
302.00 0.4568
302.10 0.4573
302.20 0.4578
302.30 0.4583
302.40 0.4587
302.50 0.4592
302.60 0.4597
302.70 0.4602
302.80 0.4607
302.90 0.4611
303.00 0.4616
303.10 0.4621
303.20 0.4625
303.30 0.463
303.40 0.4635
303.50 0.464
303.60 0.4644
303.70 0.4649
303.80 0.4654
303.90 0.4658
304.00 0.4663
304.10 0.4668
304.20 0.4673
304.30 0.4677
304.40 0.4682
304.50 0.4687
304.60 0.4692
304.70 0.4696
304.80 0.4701
304.90 0.4706
305.00 0.4711
305.10 0.4715
305.20 0.472
305.30 0.4725
305.40 0.473
305.50 0.4734
305.60 0.4739
305.70 0.4744
305.80 0.4748
305.90 0.4753
306.00 0.4758
306.10 0.4762
306.20 0.4767
306.30 0.4772
306.40 0.4777
306.50 0.4781
306.60 0.4786
306.70 0.4791
306.80 0.4796
306.90 0.48
307.00 0.4805
307.10 0.481
307.20 0.4815
307.30 0.4819
307.40 0.4824
307.50 0.4829
307.60 0.4833
307.70 0.4838
307.80 0.4843
307.90 0.4847
308.00 0.4852
308.10 0.4857
308.20 0.4862
308.30 0.4866
308.40 0.4871
308.50 0.4876
308.60 0.4881
308.70 0.4885
308.80 0.489
308.90 0.4895
309.00 0.4899
309.10 0.4904
309.20 0.4909
309.30 0.4914
309.40 0.4918
309.50 0.4923
309.60 0.4928
309.70 0.4932
309.80 0.4937
309.90 0.4942
310.00 0.4946
310.10 0.4951
310.20 0.4956
310.30 0.496
310.40 0.4965
310.50 0.497
310.60 0.4975
310.70 0.4979
310.80 0.4984
310.90 0.4989
311.00 0.4993
311.10 0.4998
311.20 0.5003
311.30 0.5008
311.40 0.5012
311.50 0.5017
311.60 0.5022
311.70 0.5026
311.80 0.5031
311.90 0.5036
312.00 0.504
312.10 0.5045
312.20 0.5049
312.30 0.5054
312.40 0.5059
312.50 0.5064
312.60 0.5068
312.70 0.5073
312.80 0.5078
312.90 0.5082
313.00 0.5087
313.10 0.5092
313.20 0.5096
313.30 0.5101
313.40 0.5106
313.50 0.511
313.60 0.5115
313.70 0.512
313.80 0.5124
313.90 0.5129
314.00 0.5134
314.10 0.5138
314.20 0.5143
314.30 0.5148
314.40 0.5152
314.50 0.5157
314.60 0.5162
314.70 0.5167
314.80 0.5171
314.90 0.5176
315.00 0.5181
315.10 0.5185
315.20 0.519
315.30 0.5194
315.40 0.5199
315.50 0.5204
315.60 0.5208
315.70 0.5213
315.80 0.5218
315.90 0.5222
316.00 0.5227
316.10 0.5231
316.20 0.5236
316.30 0.5241
316.40 0.5246
316.50 0.525
316.60 0.5255
316.70 0.526
316.80 0.5264
316.90 0.5269
317.00 0.5274
317.10 0.5278
317.20 0.5283
317.30 0.5287
317.40 0.5292
317.50 0.5297
317.60 0.5301
317.70 0.5306
317.80 0.531
317.90 0.5315
318.00 0.532
318.10 0.5324
318.20 0.5329
318.30 0.5334
318.40 0.5338
318.50 0.5343
318.60 0.5348
318.70 0.5352
318.80 0.5357
318.90 0.5361
319.00 0.5366
319.10 0.5371
319.20 0.5375
319.30 0.538
319.40 0.5384
319.50 0.5389
319.60 0.5394
319.70 0.5398
319.80 0.5403
319.90 0.5407
320.00 0.5412
320.10 0.5417
320.20 0.5421
320.30 0.5426
320.40 0.543
320.50 0.5435
320.60 0.544
320.70 0.5444
320.80 0.5449
320.90 0.5454
321.00 0.5458
321.10 0.5463
321.20 0.5467
321.30 0.5472
321.40 0.5477
321.50 0.5481
321.60 0.5486
321.70 0.549
321.80 0.5495
321.90 0.5499
322.00 0.5504
322.10 0.5508
322.20 0.5513
322.30 0.5518
322.40 0.5522
322.50 0.5527
322.60 0.5531
322.70 0.5536
322.80 0.5541
322.90 0.5545
323.00 0.555
323.10 0.5554
323.20 0.5559
323.30 0.5564
323.40 0.5568
323.50 0.5573
323.60 0.5577
323.70 0.5582
323.80 0.5586
323.90 0.5591
324.00 0.5595
324.10 0.56
324.20 0.5604
324.30 0.5609
324.40 0.5614
324.50 0.5618
324.60 0.5623
324.70 0.5627
324.80 0.5632
324.90 0.5636
325.00 0.5641
325.10 0.5646
325.20 0.565
325.30 0.5655
325.40 0.5659
325.50 0.5664
325.60 0.5668
325.70 0.5673
325.80 0.5677
325.90 0.5682
326.00 0.5686
326.10 0.5691
326.20 0.5695
326.30 0.57
326.40 0.5704
326.50 0.5709
326.60 0.5713
326.70 0.5718
326.80 0.5723
326.90 0.5727
327.00 0.5732
327.10 0.5736
327.20 0.5741
327.30 0.5745
327.40 0.575
327.50 0.5754
327.60 0.5759
327.70 0.5763
327.80 0.5768
327.90 0.5772
328.00 0.5776
328.10 0.5781
328.20 0.5786
328.30 0.579
328.40 0.5795
328.50 0.5799
328.60 0.5804
328.70 0.5808
328.80 0.5813
328.90 0.5817
329.00 0.5822
329.10 0.5826
329.20 0.5831
329.30 0.5835
329.40 0.5839
329.50 0.5844
329.60 0.5848
329.70 0.5853
329.80 0.5857
329.90 0.5862
330.00 0.5866
330.10 0.5871
330.20 0.5875
330.30 0.588
330.40 0.5884
330.50 0.5889
330.60 0.5893
330.70 0.5898
330.80 0.5902
330.90 0.5907
331.00 0.5911
331.10 0.5915
331.20 0.592
331.30 0.5924
331.40 0.5929
331.50 0.5933
331.60 0.5938
331.70 0.5942
331.80 0.5946
331.90 0.5951
332.00 0.5955
332.10 0.596
332.20 0.5964
332.30 0.5969
332.40 0.5973
332.50 0.5978
332.60 0.5982
332.70 0.5986
332.80 0.5991
332.90 0.5995
333.00 0.6
333.10 0.6004
333.20 0.6009
333.30 0.6013
333.40 0.6017
333.50 0.6022
333.60 0.6026
333.70 0.6031
333.80 0.6035
333.90 0.6039
334.00 0.6044
334.10 0.6048
334.20 0.6053
334.30 0.6057
334.40 0.6061
334.50 0.6066
334.60 0.607
334.70 0.6075
334.80 0.6079
334.90 0.6083
335.00 0.6088
335.10 0.6092
335.20 0.6097
335.30 0.6101
335.40 0.6105
335.50 0.611
335.60 0.6114
335.70 0.6118
335.80 0.6123
335.90 0.6127
336.00 0.6131
336.10 0.6136
336.20 0.614
336.30 0.6145
336.40 0.6149
336.50 0.6153
336.60 0.6158
336.70 0.6162
336.80 0.6167
336.90 0.6171
337.00 0.6175
337.10 0.618
337.20 0.6184
337.30 0.6188
337.40 0.6193
337.50 0.6197
337.60 0.6201
337.70 0.6206
337.80 0.621
337.90 0.6214
338.00 0.6219
338.10 0.6223
338.20 0.6227
338.30 0.6232
338.40 0.6236
338.50 0.624
338.60 0.6245
338.70 0.6249
338.80 0.6253
338.90 0.6258
339.00 0.6262
339.10 0.6266
339.20 0.6271
339.30 0.6275
339.40 0.6279
339.50 0.6283
339.60 0.6288
339.70 0.6292
339.80 0.6296
339.90 0.6301
340.00 0.6305
340.10 0.6309
340.20 0.6313
340.30 0.6318
340.40 0.6322
340.50 0.6326
340.60 0.6331
340.70 0.6335
340.80 0.6339
340.90 0.6344
341.00 0.6348
341.10 0.6352
341.20 0.6356
341.30 0.6361
341.40 0.6365
341.50 0.6369
341.60 0.6374
341.70 0.6378
341.80 0.6382
341.90 0.6386
342.00 0.639
342.10 0.6395
342.20 0.6399
342.30 0.6403
342.40 0.6408
342.50 0.6412
342.60 0.6416
342.70 0.642
342.80 0.6425
342.90 0.6429
343.00 0.6433
343.10 0.6437
343.20 0.6441
343.30 0.6446
343.40 0.645
343.50 0.6454
343.60 0.6458
343.70 0.6462
343.80 0.6467
343.90 0.6471
344.00 0.6475
344.10 0.6479
344.20 0.6484
344.30 0.6488
344.40 0.6492
344.50 0.6496
344.60 0.65
344.70 0.6505
344.80 0.6509
344.90 0.6513
345.00 0.6517
345.10 0.6522
345.20 0.6526
345.30 0.653
345.40 0.6534
345.50 0.6538
345.60 0.6542
345.70 0.6547
345.80 0.6551
345.90 0.6555
346.00 0.6559
346.10 0.6563
346.20 0.6568
346.30 0.6572
346.40 0.6576
346.50 0.658
346.60 0.6584
346.70 0.6589
346.80 0.6593
346.90 0.6597
347.00 0.6601
347.10 0.6605
347.20 0.6609
347.30 0.6614
347.40 0.6618
347.50 0.6622
347.60 0.6626
347.70 0.663
347.80 0.6634
347.90 0.6638
348.00 0.6643
348.10 0.6647
348.20 0.6651
348.30 0.6655
348.40 0.6659
348.50 0.6663
348.60 0.6667
348.70 0.6671
348.80 0.6676
348.90 0.668
349.00 0.6684
349.10 0.6688
349.20 0.6692
349.30 0.6696
349.40 0.67
349.50 0.6704
349.60 0.6708
349.70 0.6712
349.80 0.6716
349.90 0.672
350.00 0.6724
350.10 0.6728
350.20 0.6733
350.30 0.6737
350.40 0.6741
350.50 0.6745
350.60 0.6749
350.70 0.6753
350.80 0.6757
350.90 0.6761
351.00 0.6766
351.10 0.677
351.20 0.6774
351.30 0.6778
351.40 0.6782
351.50 0.6786
351.60 0.679
351.70 0.6794
351.80 0.6798
351.90 0.6802
352.00 0.6806
352.10 0.681
352.20 0.6814
352.30 0.6818
352.40 0.6822
352.50 0.6826
352.60 0.683
352.70 0.6835
352.80 0.6839
352.90 0.6843
353.00 0.6847
353.10 0.6851
353.20 0.6855
353.30 0.6859
353.40 0.6863
353.50 0.6867
353.60 0.6871
353.70 0.6874
353.80 0.6878
353.90 0.6882
354.00 0.6886
354.10 0.689
354.20 0.6894
354.30 0.6898
354.40 0.6902
354.50 0.6907
354.60 0.6911
354.70 0.6915
354.80 0.6919
354.90 0.6923
355.00 0.6926
355.10 0.693
355.20 0.6934
355.30 0.6938
355.40 0.6942
355.50 0.6946
355.60 0.695
355.70 0.6954
355.80 0.6958
355.90 0.6962
356.00 0.6966
356.10 0.697
356.20 0.6974
356.30 0.6978
356.40 0.6982
356.50 0.6986
356.60 0.699
356.70 0.6994
356.80 0.6998
356.90 0.7002
357.00 0.7006
357.10 0.701
357.20 0.7014
357.30 0.7017
357.40 0.7021
357.50 0.7025
357.60 0.7029
357.70 0.7033
357.80 0.7037
357.90 0.7041
358.00 0.7045
358.10 0.7049
358.20 0.7053
358.30 0.7057
358.40 0.7061
358.50 0.7064
358.60 0.7068
358.70 0.7072
358.80 0.7076
358.90 0.708
359.00 0.7084
359.10 0.7088
359.20 0.7092
359.30 0.7096
359.40 0.71
359.50 0.7104
359.60 0.7107
359.70 0.7111
359.80 0.7115
359.90 0.7119
360.00 0.7123
360.10 0.7127
360.20 0.7131
360.30 0.7134
360.40 0.7138
360.50 0.7142
360.60 0.7146
360.70 0.715
360.80 0.7154
360.90 0.7158
361.00 0.7161
361.10 0.7165
361.20 0.7169
361.30 0.7173
361.40 0.7177
361.50 0.7181
361.60 0.7184
361.70 0.7188
361.80 0.7192
361.90 0.7196
362.00 0.7199
362.10 0.7203
362.20 0.7207
362.30 0.7211
362.40 0.7215
362.50 0.7219
362.60 0.7222
362.70 0.7226
362.80 0.723
362.90 0.7234
363.00 0.7238
363.10 0.7241
363.20 0.7245
363.30 0.7249
363.40 0.7253
363.50 0.7257
363.60 0.726
363.70 0.7264
363.80 0.7268
363.90 0.7272
364.00 0.7276
364.10 0.7279
364.20 0.7283
364.30 0.7287
364.40 0.7291
364.50 0.7295
364.60 0.7298
364.70 0.7302
364.80 0.7306
364.90 0.7309
365.00 0.7313
365.10 0.7317
365.20 0.7321
365.30 0.7324
365.40 0.7328
365.50 0.7332
365.60 0.7335
365.70 0.7339
365.80 0.7343
365.90 0.7347
366.00 0.735
366.10 0.7354
366.20 0.7358
366.30 0.7361
366.40 0.7365
366.50 0.7369
366.60 0.7373
366.70 0.7376
366.80 0.738
366.90 0.7384
367.00 0.7388
367.10 0.7391
367.20 0.7395
367.30 0.7399
367.40 0.7402
367.50 0.7406
367.60 0.741
367.70 0.7413
367.80 0.7417
367.90 0.7421
368.00 0.7424
368.10 0.7428
368.20 0.7432
368.30 0.7435
368.40 0.7439
368.50 0.7443
368.60 0.7446
368.70 0.745
368.80 0.7454
368.90 0.7457
369.00 0.7461
369.10 0.7465
369.20 0.7468
369.30 0.7472
369.40 0.7475
369.50 0.7479
369.60 0.7483
369.70 0.7486
369.80 0.749
369.90 0.7493
370.00 0.7497
370.10 0.7501
370.20 0.7504
370.30 0.7508
370.40 0.7512
370.50 0.7515
370.60 0.7519
370.70 0.7523
370.80 0.7526
370.90 0.753
371.00 0.7533
371.10 0.7537
371.20 0.7541
371.30 0.7544
371.40 0.7548
371.50 0.7551
371.60 0.7555
371.70 0.7559
371.80 0.7562
371.90 0.7566
372.00 0.7569
372.10 0.7573
372.20 0.7577
372.30 0.758
372.40 0.7584
372.50 0.7587
372.60 0.7591
372.70 0.7594
372.80 0.7598
372.90 0.7601
373.00 0.7605
373.10 0.7609
373.20 0.7612
373.30 0.7616
373.40 0.7619
373.50 0.7623
373.60 0.7626
373.70 0.763
373.80 0.7633
373.90 0.7637
374.00 0.764
374.10 0.7644
374.20 0.7647
374.30 0.7651
374.40 0.7654
374.50 0.7658
374.60 0.7661
374.70 0.7665
374.80 0.7668
374.90 0.7672
375.00 0.7675
375.10 0.7679
375.20 0.7682
375.30 0.7686
375.40 0.7689
375.50 0.7693
375.60 0.7696
375.70 0.77
375.80 0.7703
375.90 0.7707
376.00 0.771
376.10 0.7714
376.20 0.7717
376.30 0.7721
376.40 0.7724
376.50 0.7727
376.60 0.7731
376.70 0.7734
376.80 0.7738
376.90 0.7741
377.00 0.7744
377.10 0.7748
377.20 0.7751
377.30 0.7755
377.40 0.7758
377.50 0.7762
377.60 0.7765
377.70 0.7769
377.80 0.7772
377.90 0.7775
378.00 0.7779
378.10 0.7782
378.20 0.7786
378.30 0.7789
378.40 0.7792
378.50 0.7796
378.60 0.7799
378.70 0.7802
378.80 0.7806
378.90 0.7809
379.00 0.7813
379.10 0.7816
379.20 0.7819
379.30 0.7823
379.40 0.7826
379.50 0.783
379.60 0.7833
379.70 0.7836
379.80 0.784
379.90 0.7843
380.00 0.7846
380.10 0.785
380.20 0.7853
380.30 0.7857
380.40 0.786
380.50 0.7863
380.60 0.7867
380.70 0.787
380.80 0.7873
380.90 0.7877
381.00 0.788
381.10 0.7883
381.20 0.7887
381.30 0.789
381.40 0.7893
381.50 0.7897
381.60 0.79
381.70 0.7903
381.80 0.7907
381.90 0.791
382.00 0.7913
382.10 0.7917
382.20 0.792
382.30 0.7923
382.40 0.7926
382.50 0.793
382.60 0.7933
382.70 0.7936
382.80 0.794
382.90 0.7943
383.00 0.7946
383.10 0.7949
383.20 0.7953
383.30 0.7956
383.40 0.7959
383.50 0.7963
383.60 0.7966
383.70 0.7969
383.80 0.7972
383.90 0.7976
384.00 0.7979
384.10 0.7982
384.20 0.7986
384.30 0.7988
384.40 0.7992
384.50 0.7995
384.60 0.7998
384.70 0.8002
384.80 0.8005
384.90 0.8008
385.00 0.8011
385.10 0.8015
385.20 0.8018
385.30 0.8021
385.40 0.8024
385.50 0.8027
385.60 0.8031
385.70 0.8034
385.80 0.8037
385.90 0.804
386.00 0.8043
386.10 0.8047
386.20 0.805
386.30 0.8053
386.40 0.8056
386.50 0.8059
386.60 0.8062
386.70 0.8066
386.80 0.8069
386.90 0.8072
387.00 0.8075
387.10 0.8079
387.20 0.8082
387.30 0.8085
387.40 0.8088
387.50 0.8091
387.60 0.8094
387.70 0.8097
387.80 0.8101
387.90 0.8104
388.00 0.8107
388.10 0.811
388.20 0.8113
388.30 0.8116
388.40 0.812
388.50 0.8123
388.60 0.8126
388.70 0.8129
388.80 0.8132
388.90 0.8135
389.00 0.8138
389.10 0.8141
389.20 0.8144
389.30 0.8148
389.40 0.8151
389.50 0.8154
389.60 0.8157
389.70 0.816
389.80 0.8163
389.90 0.8166
390.00 0.8169
390.10 0.8173
390.20 0.8176
390.30 0.8179
390.40 0.8182
390.50 0.8185
390.60 0.8188
390.70 0.8191
390.80 0.8194
390.90 0.8197
391.00 0.82
391.10 0.8203
391.20 0.8206
391.30 0.8209
391.40 0.8212
391.50 0.8215
391.60 0.8219
391.70 0.8221
391.80 0.8224
391.90 0.8228
392.00 0.8231
392.10 0.8234
392.20 0.8237
392.30 0.824
392.40 0.8243
392.50 0.8246
392.60 0.8249
392.70 0.8252
392.80 0.8255
392.90 0.8258
393.00 0.8261
393.10 0.8264
393.20 0.8267
393.30 0.827
393.40 0.8273
393.50 0.8276
393.60 0.8279
393.70 0.8282
393.80 0.8285
393.90 0.8288
394.00 0.8291
394.10 0.8294
394.20 0.8297
394.30 0.83
394.40 0.8303
394.50 0.8306
394.60 0.8309
394.70 0.8312
394.80 0.8315
394.90 0.8317
395.00 0.832
395.10 0.8323
395.20 0.8327
395.30 0.833
395.40 0.8332
395.50 0.8335
395.60 0.8338
395.70 0.8341
395.80 0.8344
395.90 0.8347
396.00 0.835
396.10 0.8353
396.20 0.8356
396.30 0.8359
396.40 0.8361
396.50 0.8364
396.60 0.8367
396.70 0.837
396.80 0.8373
396.90 0.8376
397.00 0.8379
397.10 0.8382
397.20 0.8385
397.30 0.8388
397.40 0.8391
397.50 0.8394
397.60 0.8396
397.70 0.8399
397.80 0.8402
397.90 0.8405
398.00 0.8408
398.10 0.8411
398.20 0.8414
398.30 0.8417
398.40 0.8419
398.50 0.8422
398.60 0.8425
398.70 0.8428
398.80 0.8431
398.90 0.8434
399.00 0.8437
399.10 0.844
399.20 0.8442
399.30 0.8445
399.40 0.8448
399.50 0.8451
399.60 0.8454
399.70 0.8456
399.80 0.8459
399.90 0.8462
400.00 0.8465
400.10 0.8468
400.20 0.847
400.30 0.8473
400.40 0.8476
400.50 0.8479
400.60 0.8482
400.70 0.8484
400.80 0.8487
400.90 0.849
401.00 0.8493
401.10 0.8496
401.20 0.8499
401.30 0.8502
401.40 0.8504
401.50 0.8507
401.60 0.851
401.70 0.8513
401.80 0.8515
401.90 0.8518
402.00 0.8521
402.10 0.8524
402.20 0.8526
402.30 0.8529
402.40 0.8532
402.50 0.8535
402.60 0.8537
402.70 0.854
402.80 0.8543
402.90 0.8545
403.00 0.8548
403.10 0.8551
403.20 0.8554
403.30 0.8556
403.40 0.8559
403.50 0.8562
403.60 0.8565
403.70 0.8567
403.80 0.857
403.90 0.8573
404.00 0.8575
404.10 0.8578
404.20 0.8581
404.30 0.8583
404.40 0.8586
404.50 0.8589
404.60 0.8592
404.70 0.8595
404.80 0.8597
404.90 0.86
405.00 0.8602
405.10 0.8605
405.20 0.8608
405.30 0.861
405.40 0.8613
405.50 0.8616
405.60 0.8619
405.70 0.8621
405.80 0.8624
405.90 0.8626
406.00 0.8629
406.10 0.8632
406.20 0.8634
406.30 0.8637
406.40 0.864
406.50 0.8642
406.60 0.8645
406.70 0.8648
406.80 0.865
406.90 0.8653
407.00 0.8656
407.10 0.8658
407.20 0.8661
407.30 0.8663
407.40 0.8666
407.50 0.8669
407.60 0.8671
407.70 0.8674
407.80 0.8677
407.90 0.8679
408.00 0.8682
408.10 0.8684
408.20 0.8687
408.30 0.8689
408.40 0.8692
408.50 0.8695
408.60 0.8697
408.70 0.87
408.80 0.8702
408.90 0.8705
409.00 0.8708
409.10 0.871
409.20 0.8713
409.30 0.8715
409.40 0.8718
409.50 0.872
409.60 0.8723
409.70 0.8725
409.80 0.8728
409.90 0.873
410.00 0.8733
410.10 0.8736
410.20 0.8738
410.30 0.8741
410.40 0.8743
410.50 0.8746
410.60 0.8748
410.70 0.8751
410.80 0.8753
410.90 0.8756
411.00 0.8758
411.10 0.8761
411.20 0.8763
411.30 0.8766
411.40 0.8769
411.50 0.8771
411.60 0.8773
411.70 0.8776
411.80 0.8778
411.90 0.8781
412.00 0.8783
412.10 0.8786
412.20 0.8788
412.30 0.8791
412.40 0.8793
412.50 0.8796
412.60 0.8799
412.70 0.8801
412.80 0.8803
412.90 0.8806
413.00 0.8808
413.10 0.8811
413.20 0.8813
413.30 0.8816
413.40 0.8818
413.50 0.8821
413.60 0.8823
413.70 0.8825
413.80 0.8828
413.90 0.883
414.00 0.8833
414.10 0.8835
414.20 0.8838
414.30 0.884
414.40 0.8842
414.50 0.8845
414.60 0.8847
414.70 0.885
414.80 0.8852
414.90 0.8855
415.00 0.8857
415.10 0.8859
415.20 0.8862
415.30 0.8864
415.40 0.8866
415.50 0.8869
415.60 0.8871
415.70 0.8874
415.80 0.8876
415.90 0.8879
416.00 0.8881
416.10 0.8883
416.20 0.8886
416.30 0.8888
416.40 0.889
416.50 0.8893
416.60 0.8895
416.70 0.8897
416.80 0.89
416.90 0.8902
417.00 0.8905
417.10 0.8907
417.20 0.8909
417.30 0.8912
417.40 0.8914
417.50 0.8916
417.60 0.8919
417.70 0.8921
417.80 0.8923
417.90 0.8926
418.00 0.8928
418.10 0.893
418.20 0.8933
418.30 0.8935
418.40 0.8937
418.50 0.894
418.60 0.8942
418.70 0.8944
418.80 0.8947
418.90 0.8949
419.00 0.8951
419.10 0.8953
419.20 0.8956
419.30 0.8958
419.40 0.896
419.50 0.8962
419.60 0.8965
419.70 0.8967
419.80 0.8969
419.90 0.8972
420.00 0.8974
420.10 0.8976
420.20 0.8979
420.30 0.8981
420.40 0.8983
420.50 0.8985
420.60 0.8988
420.70 0.899
420.80 0.8992
420.90 0.8994
421.00 0.8997
421.10 0.8999
421.20 0.9001
421.30 0.9003
421.40 0.9006
421.50 0.9008
421.60 0.901
421.70 0.9012
421.80 0.9014
421.90 0.9017
422.00 0.9019
422.10 0.9021
422.20 0.9023
422.30 0.9026
422.40 0.9028
422.50 0.903
422.60 0.9032
422.70 0.9034
422.80 0.9036
422.90 0.9039
423.00 0.9041
423.10 0.9043
423.20 0.9045
423.30 0.9048
423.40 0.905
423.50 0.9052
423.60 0.9054
423.70 0.9056
423.80 0.9058
423.90 0.9061
424.00 0.9063
424.10 0.9065
424.20 0.9067
424.30 0.9069
424.40 0.9071
424.50 0.9074
424.60 0.9076
424.70 0.9078
424.80 0.908
424.90 0.9082
425.00 0.9084
425.10 0.9086
425.20 0.9089
425.30 0.9091
425.40 0.9093
425.50 0.9095
425.60 0.9097
425.70 0.9099
425.80 0.9101
425.90 0.9103
426.00 0.9106
426.10 0.9108
426.20 0.911
426.30 0.9112
426.40 0.9114
426.50 0.9116
426.60 0.9118
426.70 0.912
426.80 0.9123
426.90 0.9125
427.00 0.9126
427.10 0.9129
427.20 0.9131
427.30 0.9133
427.40 0.9135
427.50 0.9137
427.60 0.9139
427.70 0.9141
427.80 0.9143
427.90 0.9145
428.00 0.9147
428.10 0.9149
428.20 0.9151
428.30 0.9153
428.40 0.9155
428.50 0.9157
428.60 0.9159
428.70 0.9162
428.80 0.9164
428.90 0.9166
429.00 0.9168
429.10 0.917
429.20 0.9172
429.30 0.9174
429.40 0.9176
429.50 0.9178
429.60 0.918
429.70 0.9182
429.80 0.9184
429.90 0.9186
430.00 0.9188
430.10 0.919
430.20 0.9192
430.30 0.9194
430.40 0.9196
430.50 0.9198
430.60 0.92
430.70 0.9202
430.80 0.9204
430.90 0.9206
431.00 0.9208
431.10 0.921
431.20 0.9212
431.30 0.9214
431.40 0.9216
431.50 0.9217
431.60 0.922
431.70 0.9221
431.80 0.9223
431.90 0.9225
432.00 0.9227
432.10 0.9229
432.20 0.9231
432.30 0.9233
432.40 0.9235
432.50 0.9237
432.60 0.9239
432.70 0.9241
432.80 0.9243
432.90 0.9244
433.00 0.9246
433.10 0.9248
433.20 0.925
433.30 0.9252
433.40 0.9254
433.50 0.9256
433.60 0.9257
433.70 0.9259
433.80 0.9261
433.90 0.9262
434.00 0.9264
434.10 0.9266
434.20 0.9268
434.30 0.927
434.40 0.9272
434.50 0.9274
434.60 0.9276
434.70 0.9278
434.80 0.928
434.90 0.9282
435.00 0.9284
435.10 0.9286
435.20 0.9288
435.30 0.929
435.40 0.9292
435.50 0.9294
435.60 0.9296
435.70 0.9298
435.80 0.9299
435.90 0.9301
436.00 0.9303
436.10 0.9305
436.20 0.9307
436.30 0.9309
436.40 0.9311
436.50 0.9313
436.60 0.9314
436.70 0.9316
436.80 0.9318
436.90 0.932
437.00 0.9322
437.10 0.9324
437.20 0.9325
437.30 0.9327
437.40 0.9329
437.50 0.9331
437.60 0.9333
437.70 0.9335
437.80 0.9336
437.90 0.9338
438.00 0.934
438.10 0.9342
438.20 0.9344
438.30 0.9345
438.40 0.9347
438.50 0.9349
438.60 0.9351
438.70 0.9353
438.80 0.9354
438.90 0.9356
439.00 0.9358
439.10 0.936
439.20 0.9362
439.30 0.9363
439.40 0.9365
439.50 0.9367
439.60 0.9369
439.70 0.937
439.80 0.9372
439.90 0.9374
440.00 0.9376
440.10 0.9377
440.20 0.9379
440.30 0.9381
440.40 0.9382
440.50 0.9384
440.60 0.9386
440.70 0.9388
440.80 0.9389
440.90 0.9391
441.00 0.9393
441.10 0.9395
441.20 0.9396
441.30 0.9398
441.40 0.94
441.50 0.9401
441.60 0.9403
441.70 0.9405
441.80 0.9407
441.90 0.9408
442.00 0.941
442.10 0.9412
442.20 0.9413
442.30 0.9415
442.40 0.9417
442.50 0.9418
442.60 0.942
442.70 0.9422
442.80 0.9424
442.90 0.9425
443.00 0.9427
443.10 0.9429
