# Version 2.1 - nm, norm@500 to 1, cut digits, bergeron_16000_65.dat_16000
# Wavelength(nm)  Flambda(ergs/cm^s/s/nm)
300.00 2.322
300.10 2.32
300.20 2.318
300.30 2.316
300.40 2.315
300.50 2.313
300.60 2.311
300.70 2.309
300.80 2.307
300.90 2.305
301.00 2.303
301.10 2.302
301.20 2.3
301.30 2.298
301.40 2.296
301.50 2.294
301.60 2.292
301.70 2.291
301.80 2.289
301.90 2.287
302.00 2.285
302.10 2.283
302.20 2.282
302.30 2.28
302.40 2.278
302.50 2.276
302.60 2.274
302.70 2.273
302.80 2.271
302.90 2.269
303.00 2.267
303.10 2.265
303.20 2.264
303.30 2.262
303.40 2.26
303.50 2.258
303.60 2.256
303.70 2.255
303.80 2.253
303.90 2.251
304.00 2.249
304.10 2.248
304.20 2.246
304.30 2.244
304.40 2.242
304.50 2.24
304.60 2.239
304.70 2.237
304.80 2.235
304.90 2.233
305.00 2.232
305.10 2.23
305.20 2.228
305.30 2.226
305.40 2.225
305.50 2.223
305.60 2.221
305.70 2.219
305.80 2.218
305.90 2.216
306.00 2.214
306.10 2.212
306.20 2.211
306.30 2.209
306.40 2.207
306.50 2.205
306.60 2.204
306.70 2.202
306.80 2.2
306.90 2.198
307.00 2.197
307.10 2.195
307.20 2.193
307.30 2.192
307.40 2.19
307.50 2.188
307.60 2.186
307.70 2.185
307.80 2.183
307.90 2.181
308.00 2.18
308.10 2.178
308.20 2.176
308.30 2.175
308.40 2.173
308.50 2.171
308.60 2.169
308.70 2.168
308.80 2.166
308.90 2.164
309.00 2.163
309.10 2.161
309.20 2.159
309.30 2.158
309.40 2.156
309.50 2.154
309.60 2.153
309.70 2.151
309.80 2.149
309.90 2.148
310.00 2.146
310.10 2.144
310.20 2.143
310.30 2.141
310.40 2.139
310.50 2.138
310.60 2.136
310.70 2.134
310.80 2.133
310.90 2.131
311.00 2.129
311.10 2.128
311.20 2.126
311.30 2.125
311.40 2.123
311.50 2.121
311.60 2.12
311.70 2.118
311.80 2.116
311.90 2.115
312.00 2.113
312.10 2.111
312.20 2.11
312.30 2.108
312.40 2.106
312.50 2.105
312.60 2.103
312.70 2.102
312.80 2.1
312.90 2.098
313.00 2.097
313.10 2.095
313.20 2.094
313.30 2.092
313.40 2.09
313.50 2.089
313.60 2.087
313.70 2.086
313.80 2.084
313.90 2.082
314.00 2.081
314.10 2.079
314.20 2.078
314.30 2.076
314.40 2.074
314.50 2.073
314.60 2.071
314.70 2.07
314.80 2.068
314.90 2.066
315.00 2.065
315.10 2.063
315.20 2.062
315.30 2.06
315.40 2.059
315.50 2.057
315.60 2.055
315.70 2.054
315.80 2.052
315.90 2.051
316.00 2.049
316.10 2.048
316.20 2.046
316.30 2.044
316.40 2.043
316.50 2.041
316.60 2.04
316.70 2.038
316.80 2.037
316.90 2.035
317.00 2.033
317.10 2.032
317.20 2.03
317.30 2.029
317.40 2.027
317.50 2.026
317.60 2.024
317.70 2.023
317.80 2.021
317.90 2.02
318.00 2.018
318.10 2.016
318.20 2.015
318.30 2.013
318.40 2.012
318.50 2.01
318.60 2.009
318.70 2.007
318.80 2.006
318.90 2.004
319.00 2.003
319.10 2.001
319.20 2
319.30 1.998
319.40 1.997
319.50 1.995
319.60 1.994
319.70 1.992
319.80 1.991
319.90 1.989
320.00 1.988
320.10 1.986
320.20 1.985
320.30 1.983
320.40 1.982
320.50 1.98
320.60 1.979
320.70 1.977
320.80 1.976
320.90 1.974
321.00 1.973
321.10 1.971
321.20 1.97
321.30 1.968
321.40 1.967
321.50 1.965
321.60 1.964
321.70 1.962
321.80 1.961
321.90 1.959
322.00 1.958
322.10 1.956
322.20 1.955
322.30 1.954
322.40 1.952
322.50 1.951
322.60 1.949
322.70 1.948
322.80 1.946
322.90 1.945
323.00 1.943
323.10 1.942
323.20 1.94
323.30 1.939
323.40 1.937
323.50 1.936
323.60 1.935
323.70 1.933
323.80 1.932
323.90 1.93
324.00 1.929
324.10 1.927
324.20 1.926
324.30 1.924
324.40 1.923
324.50 1.922
324.60 1.92
324.70 1.919
324.80 1.917
324.90 1.916
325.00 1.914
325.10 1.913
325.20 1.912
325.30 1.91
325.40 1.909
325.50 1.907
325.60 1.906
325.70 1.904
325.80 1.903
325.90 1.902
326.00 1.9
326.10 1.899
326.20 1.897
326.30 1.896
326.40 1.895
326.50 1.893
326.60 1.892
326.70 1.89
326.80 1.889
326.90 1.887
327.00 1.886
327.10 1.885
327.20 1.883
327.30 1.882
327.40 1.88
327.50 1.879
327.60 1.878
327.70 1.876
327.80 1.875
327.90 1.874
328.00 1.872
328.10 1.871
328.20 1.869
328.30 1.868
328.40 1.867
328.50 1.865
328.60 1.864
328.70 1.862
328.80 1.861
328.90 1.86
329.00 1.858
329.10 1.857
329.20 1.856
329.30 1.854
329.40 1.853
329.50 1.851
329.60 1.85
329.70 1.849
329.80 1.847
329.90 1.846
330.00 1.845
330.10 1.843
330.20 1.842
330.30 1.841
330.40 1.839
330.50 1.838
330.60 1.836
330.70 1.835
330.80 1.834
330.90 1.832
331.00 1.831
331.10 1.83
331.20 1.828
331.30 1.827
331.40 1.826
331.50 1.824
331.60 1.823
331.70 1.822
331.80 1.82
331.90 1.819
332.00 1.818
332.10 1.816
332.20 1.815
332.30 1.814
332.40 1.812
332.50 1.811
332.60 1.81
332.70 1.808
332.80 1.807
332.90 1.806
333.00 1.804
333.10 1.803
333.20 1.802
333.30 1.8
333.40 1.799
333.50 1.798
333.60 1.796
333.70 1.795
333.80 1.794
333.90 1.792
334.00 1.791
334.10 1.79
334.20 1.789
334.30 1.787
334.40 1.786
334.50 1.785
334.60 1.783
334.70 1.782
334.80 1.781
334.90 1.779
335.00 1.778
335.10 1.777
335.20 1.776
335.30 1.774
335.40 1.773
335.50 1.772
335.60 1.77
335.70 1.769
335.80 1.768
335.90 1.766
336.00 1.765
336.10 1.764
336.20 1.763
336.30 1.761
336.40 1.76
336.50 1.759
336.60 1.758
336.70 1.756
336.80 1.755
336.90 1.754
337.00 1.752
337.10 1.751
337.20 1.75
337.30 1.749
337.40 1.747
337.50 1.746
337.60 1.745
337.70 1.744
337.80 1.742
337.90 1.741
338.00 1.74
338.10 1.739
338.20 1.737
338.30 1.736
338.40 1.735
338.50 1.734
338.60 1.732
338.70 1.731
338.80 1.73
338.90 1.729
339.00 1.727
339.10 1.726
339.20 1.725
339.30 1.724
339.40 1.722
339.50 1.721
339.60 1.72
339.70 1.719
339.80 1.717
339.90 1.716
340.00 1.715
340.10 1.714
340.20 1.712
340.30 1.711
340.40 1.71
340.50 1.709
340.60 1.707
340.70 1.706
340.80 1.705
340.90 1.704
341.00 1.703
341.10 1.701
341.20 1.7
341.30 1.699
341.40 1.698
341.50 1.696
341.60 1.695
341.70 1.694
341.80 1.693
341.90 1.692
342.00 1.69
342.10 1.689
342.20 1.688
342.30 1.687
342.40 1.686
342.50 1.684
342.60 1.683
342.70 1.682
342.80 1.681
342.90 1.68
343.00 1.678
343.10 1.677
343.20 1.676
343.30 1.675
343.40 1.674
343.50 1.672
343.60 1.671
343.70 1.67
343.80 1.669
343.90 1.668
344.00 1.666
344.10 1.665
344.20 1.664
344.30 1.663
344.40 1.662
344.50 1.66
344.60 1.659
344.70 1.658
344.80 1.657
344.90 1.656
345.00 1.655
345.10 1.653
345.20 1.652
345.30 1.651
345.40 1.65
345.50 1.649
345.60 1.647
345.70 1.646
345.80 1.645
345.90 1.644
346.00 1.643
346.10 1.642
346.20 1.64
346.30 1.639
346.40 1.638
346.50 1.637
346.60 1.636
346.70 1.635
346.80 1.634
346.90 1.632
347.00 1.631
347.10 1.63
347.20 1.629
347.30 1.628
347.40 1.627
347.50 1.625
347.60 1.624
347.70 1.623
347.80 1.622
347.90 1.621
348.00 1.62
348.10 1.619
348.20 1.617
348.30 1.616
348.40 1.615
348.50 1.614
348.60 1.613
348.70 1.612
348.80 1.611
348.90 1.609
349.00 1.608
349.10 1.607
349.20 1.606
349.30 1.605
349.40 1.604
349.50 1.603
349.60 1.601
349.70 1.6
349.80 1.599
349.90 1.598
350.00 1.597
350.10 1.596
350.20 1.595
350.30 1.594
350.40 1.592
350.50 1.591
350.60 1.59
350.70 1.589
350.80 1.588
350.90 1.587
351.00 1.586
351.10 1.585
351.20 1.584
351.30 1.582
351.40 1.581
351.50 1.58
351.60 1.579
351.70 1.578
351.80 1.577
351.90 1.576
352.00 1.575
352.10 1.574
352.20 1.572
352.30 1.571
352.40 1.57
352.50 1.569
352.60 1.568
352.70 1.567
352.80 1.566
352.90 1.565
353.00 1.564
353.10 1.563
353.20 1.561
353.30 1.56
353.40 1.559
353.50 1.558
353.60 1.557
353.70 1.556
353.80 1.555
353.90 1.554
354.00 1.553
354.10 1.552
354.20 1.551
354.30 1.55
354.40 1.548
354.50 1.547
354.60 1.546
354.70 1.545
354.80 1.544
354.90 1.543
355.00 1.542
355.10 1.541
355.20 1.54
355.30 1.539
355.40 1.538
355.50 1.537
355.60 1.536
355.70 1.534
355.80 1.533
355.90 1.532
356.00 1.531
356.10 1.53
356.20 1.529
356.30 1.528
356.40 1.527
356.50 1.526
356.60 1.525
356.70 1.524
356.80 1.523
356.90 1.522
357.00 1.521
357.10 1.52
357.20 1.519
357.30 1.518
357.40 1.516
357.50 1.515
357.60 1.514
357.70 1.513
357.80 1.512
357.90 1.511
358.00 1.51
358.10 1.509
358.20 1.508
358.30 1.507
358.40 1.506
358.50 1.505
358.60 1.504
358.70 1.503
358.80 1.502
358.90 1.501
359.00 1.5
359.10 1.499
359.20 1.498
359.30 1.497
359.40 1.496
359.50 1.495
359.60 1.494
359.70 1.493
359.80 1.492
359.90 1.49
360.00 1.489
360.10 1.488
360.20 1.487
360.30 1.486
360.40 1.485
360.50 1.484
360.60 1.483
360.70 1.482
360.80 1.481
360.90 1.48
361.00 1.479
361.10 1.478
361.20 1.477
361.30 1.476
361.40 1.475
361.50 1.474
361.60 1.473
361.70 1.472
361.80 1.471
361.90 1.47
362.00 1.469
362.10 1.468
362.20 1.467
362.30 1.466
362.40 1.465
362.50 1.464
362.60 1.463
362.70 1.462
362.80 1.461
362.90 1.46
363.00 1.459
363.10 1.458
363.20 1.457
363.30 1.456
363.40 1.455
363.50 1.454
363.60 1.453
363.70 1.452
363.80 1.451
363.90 1.45
364.00 1.449
364.10 1.448
364.20 1.447
364.30 1.446
364.40 1.445
364.50 1.444
364.60 1.443
364.70 1.442
364.80 1.441
364.90 1.44
365.00 1.439
365.10 1.438
365.20 1.437
365.30 1.436
365.40 1.435
365.50 1.435
365.60 1.434
365.70 1.433
365.80 1.432
365.90 1.431
366.00 1.43
366.10 1.429
366.20 1.428
366.30 1.427
366.40 1.427
366.50 1.426
366.60 1.425
366.70 1.424
366.80 1.423
366.90 1.422
367.00 1.421
367.10 1.421
367.20 1.42
367.30 1.419
367.40 1.418
367.50 1.417
367.60 1.416
367.70 1.415
367.80 1.415
367.90 1.414
368.00 1.413
368.10 1.413
368.20 1.414
368.30 1.415
368.40 1.415
368.50 1.416
368.60 1.416
368.70 1.417
368.80 1.417
368.90 1.418
369.00 1.419
369.10 1.419
369.20 1.42
369.30 1.42
369.40 1.421
369.50 1.421
369.60 1.422
369.70 1.422
369.80 1.423
369.90 1.424
370.00 1.424
370.10 1.427
370.20 1.431
370.30 1.434
370.40 1.437
370.50 1.441
370.60 1.444
370.70 1.447
370.80 1.451
370.90 1.454
371.00 1.457
371.10 1.461
371.20 1.464
371.30 1.467
371.40 1.471
371.50 1.474
371.60 1.477
371.70 1.48
371.80 1.484
371.90 1.487
372.00 1.49
372.10 1.496
372.20 1.501
372.30 1.507
372.40 1.513
372.50 1.518
372.60 1.524
372.70 1.529
372.80 1.535
372.90 1.54
373.00 1.546
373.10 1.551
373.20 1.557
373.30 1.563
373.40 1.568
373.50 1.574
373.60 1.579
373.70 1.585
373.80 1.59
373.90 1.596
374.00 1.601
374.10 1.607
374.20 1.612
374.30 1.618
374.40 1.624
374.50 1.629
374.60 1.635
374.70 1.64
374.80 1.646
374.90 1.651
375.00 1.657
375.10 1.662
375.20 1.668
375.30 1.674
375.40 1.679
375.50 1.685
375.60 1.69
375.70 1.696
375.80 1.701
375.90 1.707
376.00 1.712
376.10 1.715
376.20 1.717
376.30 1.719
376.40 1.722
376.50 1.724
376.60 1.727
376.70 1.729
376.80 1.731
376.90 1.734
377.00 1.736
377.10 1.731
377.20 1.725
377.30 1.719
377.40 1.713
377.50 1.708
377.60 1.702
377.70 1.696
377.80 1.691
377.90 1.685
378.00 1.679
378.10 1.651
378.20 1.622
378.30 1.593
378.40 1.565
378.50 1.536
378.60 1.508
378.70 1.479
378.80 1.451
378.90 1.422
379.00 1.394
379.10 1.37
379.20 1.347
379.30 1.323
379.40 1.299
379.50 1.276
379.60 1.252
379.70 1.229
379.80 1.205
379.90 1.182
380.00 1.158
380.10 1.195
380.20 1.232
380.30 1.268
380.40 1.305
380.50 1.341
380.60 1.378
380.70 1.414
380.80 1.45
380.90 1.487
381.00 1.523
381.10 1.539
381.20 1.555
381.30 1.571
381.40 1.587
381.50 1.604
381.60 1.606
381.70 1.604
381.80 1.597
381.90 1.586
382.00 1.571
382.10 1.55
382.20 1.524
382.30 1.481
382.40 1.438
382.50 1.394
382.60 1.351
382.70 1.308
382.80 1.265
382.90 1.222
383.00 1.179
383.10 1.135
383.20 1.093
383.30 1.045
383.40 0.9949
383.50 0.9403
383.60 0.9524
383.70 1.005
383.80 1.053
383.90 1.1
384.00 1.147
384.10 1.194
384.20 1.241
384.30 1.29
384.40 1.338
384.50 1.386
384.60 1.432
384.70 1.474
384.80 1.514
384.90 1.55
385.00 1.582
385.10 1.61
385.20 1.635
385.30 1.658
385.40 1.676
385.50 1.692
385.60 1.706
385.70 1.716
385.80 1.724
385.90 1.731
386.00 1.734
386.10 1.736
386.20 1.736
386.30 1.733
386.40 1.728
386.50 1.721
386.60 1.712
386.70 1.7
386.80 1.687
386.90 1.67
387.00 1.651
387.10 1.631
387.20 1.606
387.30 1.579
387.40 1.55
387.50 1.515
387.60 1.478
387.70 1.439
387.80 1.394
387.90 1.347
388.00 1.297
388.10 1.245
388.20 1.193
388.30 1.14
388.40 1.089
388.50 1.038
388.60 0.9875
388.70 0.9344
388.80 0.8764
388.90 0.8135
389.00 0.8718
389.10 0.9273
389.20 0.9799
389.30 1.03
389.40 1.079
389.50 1.129
389.60 1.181
389.70 1.232
389.80 1.283
389.90 1.332
390.00 1.379
390.10 1.424
390.20 1.465
390.30 1.503
390.40 1.539
390.50 1.571
390.60 1.601
390.70 1.629
390.80 1.654
390.90 1.677
391.00 1.699
391.10 1.718
391.20 1.736
391.30 1.753
391.40 1.768
391.50 1.782
391.60 1.795
391.70 1.806
391.80 1.817
391.90 1.826
392.00 1.834
392.10 1.841
392.20 1.848
392.30 1.853
392.40 1.857
392.50 1.86
392.60 1.862
392.70 1.864
392.80 1.864
392.90 1.864
393.00 1.862
393.10 1.86
393.20 1.857
393.30 1.852
393.40 1.848
393.50 1.841
393.60 1.834
393.70 1.826
393.80 1.817
393.90 1.807
394.00 1.796
394.10 1.783
394.20 1.77
394.30 1.755
394.40 1.739
394.50 1.721
394.60 1.703
394.70 1.683
394.80 1.662
394.90 1.639
395.00 1.614
395.10 1.589
395.20 1.561
395.30 1.532
395.40 1.5
395.50 1.467
395.60 1.431
395.70 1.393
395.80 1.353
395.90 1.31
396.00 1.265
396.10 1.219
396.20 1.17
396.30 1.12
396.40 1.07
396.50 1.02
396.60 0.9699
396.70 0.9205
396.80 0.8673
396.90 0.7992
397.00 0.7162
397.10 0.793
397.20 0.858
397.30 0.9112
397.40 0.9596
397.50 1.008
397.60 1.057
397.70 1.106
397.80 1.154
397.90 1.202
398.00 1.247
398.10 1.29
398.20 1.332
398.30 1.37
398.40 1.407
398.50 1.442
398.60 1.474
398.70 1.504
398.80 1.532
398.90 1.558
399.00 1.583
399.10 1.607
399.20 1.629
399.30 1.649
399.40 1.669
399.50 1.687
399.60 1.704
399.70 1.721
399.80 1.736
399.90 1.75
400.00 1.763
400.10 1.775
400.20 1.787
400.30 1.798
400.40 1.807
400.50 1.817
400.60 1.825
400.70 1.833
400.80 1.84
400.90 1.847
401.00 1.853
401.10 1.859
401.20 1.865
401.30 1.869
401.40 1.874
401.50 1.878
401.60 1.881
401.70 1.885
401.80 1.888
401.90 1.89
402.00 1.893
402.10 1.894
402.20 1.896
402.30 1.898
402.40 1.899
402.50 1.9
402.60 1.9
402.70 1.901
402.80 1.901
402.90 1.901
403.00 1.901
403.10 1.9
403.20 1.9
403.30 1.899
403.40 1.898
403.50 1.897
403.60 1.895
403.70 1.894
403.80 1.892
403.90 1.89
404.00 1.888
404.10 1.885
404.20 1.883
404.30 1.88
404.40 1.877
404.50 1.874
404.60 1.871
404.70 1.867
404.80 1.863
404.90 1.859
405.00 1.855
405.10 1.85
405.20 1.845
405.30 1.84
405.40 1.835
405.50 1.829
405.60 1.822
405.70 1.816
405.80 1.809
405.90 1.802
406.00 1.794
406.10 1.786
406.20 1.778
406.30 1.769
406.40 1.759
406.50 1.749
406.60 1.739
406.70 1.727
406.80 1.715
406.90 1.703
407.00 1.689
407.10 1.675
407.20 1.66
407.30 1.644
407.40 1.627
407.50 1.609
407.60 1.59
407.70 1.57
407.80 1.55
407.90 1.527
408.00 1.504
408.10 1.481
408.20 1.455
408.30 1.429
408.40 1.402
408.50 1.373
408.60 1.343
408.70 1.313
408.80 1.28
408.90 1.246
409.00 1.211
409.10 1.174
409.20 1.136
409.30 1.097
409.40 1.054
409.50 1.011
409.60 0.9674
409.70 0.9232
409.80 0.879
409.90 0.8349
410.00 0.7817
410.10 0.72
410.20 0.6498
410.30 0.7405
410.40 0.8094
410.50 0.8566
410.60 0.8995
410.70 0.9424
410.80 0.9854
410.90 1.028
411.00 1.068
411.10 1.108
411.20 1.145
411.30 1.18
411.40 1.215
411.50 1.247
411.60 1.278
411.70 1.308
411.80 1.335
411.90 1.362
412.00 1.388
412.10 1.412
412.20 1.435
412.30 1.458
412.40 1.479
412.50 1.499
412.60 1.518
412.70 1.535
412.80 1.552
412.90 1.568
413.00 1.583
413.10 1.596
413.20 1.609
413.30 1.621
413.40 1.632
413.50 1.643
413.60 1.653
413.70 1.662
413.80 1.67
413.90 1.678
414.00 1.685
414.10 1.692
414.20 1.698
414.30 1.704
414.40 1.71
414.50 1.715
414.60 1.72
414.70 1.724
414.80 1.728
414.90 1.732
415.00 1.736
415.10 1.739
415.20 1.742
415.30 1.745
415.40 1.747
415.50 1.75
415.60 1.752
415.70 1.754
415.80 1.755
415.90 1.757
416.00 1.759
416.10 1.76
416.20 1.761
416.30 1.762
416.40 1.763
416.50 1.764
416.60 1.765
416.70 1.765
416.80 1.766
416.90 1.766
417.00 1.767
417.10 1.767
417.20 1.767
417.30 1.767
417.40 1.768
417.50 1.768
417.60 1.768
417.70 1.767
417.80 1.767
417.90 1.767
418.00 1.767
418.10 1.766
418.20 1.766
418.30 1.766
418.40 1.765
418.50 1.765
418.60 1.764
418.70 1.764
418.80 1.763
418.90 1.762
419.00 1.762
419.10 1.761
419.20 1.76
419.30 1.76
419.40 1.759
419.50 1.758
419.60 1.757
419.70 1.756
419.80 1.755
419.90 1.754
420.00 1.753
420.10 1.753
420.20 1.752
420.30 1.751
420.40 1.75
420.50 1.749
420.60 1.748
420.70 1.746
420.80 1.745
420.90 1.744
421.00 1.743
421.10 1.742
421.20 1.741
421.30 1.74
421.40 1.738
421.50 1.737
421.60 1.736
421.70 1.735
421.80 1.734
421.90 1.732
422.00 1.731
422.10 1.73
422.20 1.728
422.30 1.727
422.40 1.726
422.50 1.724
422.60 1.723
422.70 1.722
422.80 1.72
422.90 1.719
423.00 1.717
423.10 1.716
423.20 1.714
423.30 1.713
423.40 1.712
423.50 1.71
423.60 1.708
423.70 1.707
423.80 1.705
423.90 1.704
424.00 1.702
424.10 1.701
424.20 1.699
424.30 1.697
424.40 1.695
424.50 1.694
424.60 1.692
424.70 1.69
424.80 1.688
424.90 1.687
425.00 1.685
425.10 1.683
425.20 1.681
425.30 1.679
425.40 1.677
425.50 1.675
425.60 1.673
425.70 1.671
425.80 1.669
425.90 1.667
426.00 1.664
426.10 1.662
426.20 1.66
426.30 1.657
426.40 1.655
426.50 1.652
426.60 1.65
426.70 1.647
426.80 1.645
426.90 1.642
427.00 1.639
427.10 1.636
427.20 1.633
427.30 1.63
427.40 1.627
427.50 1.624
427.60 1.621
427.70 1.618
427.80 1.614
427.90 1.611
428.00 1.607
428.10 1.603
428.20 1.6
428.30 1.596
428.40 1.592
428.50 1.587
428.60 1.583
428.70 1.578
428.80 1.574
428.90 1.569
429.00 1.564
429.10 1.558
429.20 1.553
429.30 1.547
429.40 1.542
429.50 1.535
429.60 1.529
429.70 1.522
429.80 1.515
429.90 1.508
430.00 1.501
430.10 1.493
430.20 1.485
430.30 1.476
430.40 1.468
430.50 1.458
430.60 1.449
430.70 1.439
430.80 1.428
430.90 1.417
431.00 1.406
431.10 1.394
431.20 1.381
431.30 1.368
431.40 1.355
431.50 1.34
431.60 1.325
431.70 1.309
431.80 1.292
431.90 1.274
432.00 1.255
432.10 1.235
432.20 1.213
432.30 1.191
432.40 1.167
432.50 1.14
432.60 1.113
432.70 1.084
432.80 1.055
432.90 1.025
433.00 0.995
433.10 0.9656
433.20 0.9355
433.30 0.9047
433.40 0.8713
433.50 0.8371
433.60 0.8022
433.70 0.7662
433.80 0.727
433.90 0.6846
434.00 0.5761
434.10 0.5772
434.20 0.6879
434.30 0.7287
434.40 0.7667
434.50 0.8017
434.60 0.8356
434.70 0.8686
434.80 0.9006
434.90 0.9301
435.00 0.9588
435.10 0.9867
435.20 1.015
435.30 1.043
435.40 1.071
435.50 1.098
435.60 1.123
435.70 1.147
435.80 1.169
435.90 1.19
436.00 1.209
436.10 1.227
436.20 1.244
436.30 1.259
436.40 1.274
436.50 1.288
436.60 1.301
436.70 1.312
436.80 1.324
436.90 1.334
437.00 1.344
437.10 1.354
437.20 1.363
437.30 1.371
437.40 1.379
437.50 1.386
437.60 1.393
437.70 1.4
437.80 1.406
437.90 1.412
438.00 1.418
438.10 1.423
438.20 1.428
438.30 1.432
438.40 1.436
438.50 1.44
438.60 1.444
438.70 1.448
438.80 1.451
438.90 1.454
439.00 1.457
439.10 1.459
439.20 1.462
439.30 1.464
439.40 1.466
439.50 1.468
439.60 1.47
439.70 1.472
439.80 1.473
439.90 1.475
440.00 1.476
440.10 1.477
440.20 1.478
440.30 1.479
440.40 1.48
440.50 1.481
440.60 1.481
440.70 1.482
440.80 1.482
440.90 1.483
441.00 1.483
441.10 1.484
441.20 1.484
441.30 1.484
441.40 1.484
441.50 1.484
441.60 1.484
441.70 1.484
441.80 1.484
441.90 1.484
442.00 1.484
442.10 1.484
442.20 1.483
442.30 1.483
442.40 1.483
442.50 1.483
442.60 1.482
442.70 1.482
442.80 1.481
442.90 1.481
443.00 1.48
443.10 1.48
443.20 1.479
443.30 1.479
443.40 1.478
443.50 1.478
443.60 1.477
443.70 1.476
443.80 1.476
443.90 1.475
444.00 1.475
444.10 1.474
444.20 1.473
444.30 1.472
444.40 1.472
444.50 1.471
444.60 1.47
444.70 1.469
444.80 1.469
444.90 1.468
445.00 1.467
445.10 1.466
445.20 1.465
445.30 1.465
445.40 1.464
445.50 1.463
445.60 1.462
445.70 1.461
445.80 1.46
445.90 1.46
446.00 1.459
446.10 1.458
446.20 1.457
446.30 1.456
446.40 1.455
446.50 1.454
446.60 1.453
446.70 1.452
446.80 1.452
446.90 1.451
447.00 1.45
447.10 1.449
447.20 1.448
447.30 1.447
447.40 1.446
447.50 1.445
447.60 1.444
447.70 1.443
447.80 1.442
447.90 1.441
448.00 1.44
448.10 1.439
448.20 1.438
448.30 1.438
448.40 1.437
448.50 1.436
448.60 1.435
448.70 1.434
448.80 1.433
448.90 1.432
449.00 1.431
449.10 1.43
449.20 1.429
449.30 1.428
449.40 1.427
449.50 1.426
449.60 1.425
449.70 1.424
449.80 1.423
449.90 1.422
450.00 1.421
450.10 1.42
450.20 1.419
450.30 1.418
450.40 1.417
450.50 1.416
450.60 1.415
450.70 1.414
450.80 1.413
450.90 1.412
451.00 1.411
451.10 1.41
451.20 1.41
451.30 1.409
451.40 1.408
451.50 1.407
451.60 1.406
451.70 1.405
451.80 1.404
451.90 1.403
452.00 1.402
452.10 1.401
452.20 1.4
452.30 1.399
452.40 1.398
452.50 1.397
452.60 1.396
452.70 1.395
452.80 1.394
452.90 1.393
453.00 1.392
453.10 1.391
453.20 1.39
453.30 1.389
453.40 1.388
453.50 1.387
453.60 1.386
453.70 1.385
453.80 1.384
