# Version 2.1 - nm, norm@500 to 1, cut digits, bergeron_7500_70.dat_7500
# Wavelength(nm)  Flambda(ergs/cm^s/s/nm)
300.00 1.202
300.10 1.202
300.20 1.202
300.30 1.202
300.40 1.202
300.50 1.202
300.60 1.203
300.70 1.203
300.80 1.203
300.90 1.203
301.00 1.203
301.10 1.203
301.20 1.203
301.30 1.203
301.40 1.203
301.50 1.203
301.60 1.204
301.70 1.204
301.80 1.204
301.90 1.204
302.00 1.204
302.10 1.204
302.20 1.204
302.30 1.204
302.40 1.204
302.50 1.204
302.60 1.205
302.70 1.205
302.80 1.205
302.90 1.205
303.00 1.205
303.10 1.205
303.20 1.205
303.30 1.205
303.40 1.205
303.50 1.205
303.60 1.205
303.70 1.206
303.80 1.206
303.90 1.206
304.00 1.206
304.10 1.206
304.20 1.206
304.30 1.206
304.40 1.206
304.50 1.206
304.60 1.206
304.70 1.206
304.80 1.207
304.90 1.207
305.00 1.207
305.10 1.207
305.20 1.207
305.30 1.207
305.40 1.207
305.50 1.207
305.60 1.207
305.70 1.207
305.80 1.207
305.90 1.207
306.00 1.207
306.10 1.208
306.20 1.208
306.30 1.208
306.40 1.208
306.50 1.208
306.60 1.208
306.70 1.208
306.80 1.208
306.90 1.208
307.00 1.208
307.10 1.208
307.20 1.208
307.30 1.208
307.40 1.208
307.50 1.209
307.60 1.209
307.70 1.209
307.80 1.209
307.90 1.209
308.00 1.209
308.10 1.209
308.20 1.209
308.30 1.209
308.40 1.209
308.50 1.209
308.60 1.209
308.70 1.209
308.80 1.209
308.90 1.209
309.00 1.21
309.10 1.21
309.20 1.21
309.30 1.21
309.40 1.21
309.50 1.21
309.60 1.21
309.70 1.21
309.80 1.21
309.90 1.21
310.00 1.21
310.10 1.21
310.20 1.21
310.30 1.21
310.40 1.21
310.50 1.21
310.60 1.21
310.70 1.21
310.80 1.21
310.90 1.211
311.00 1.211
311.10 1.211
311.20 1.211
311.30 1.211
311.40 1.211
311.50 1.211
311.60 1.211
311.70 1.211
311.80 1.211
311.90 1.211
312.00 1.211
312.10 1.211
312.20 1.211
312.30 1.211
312.40 1.211
312.50 1.211
312.60 1.211
312.70 1.211
312.80 1.211
312.90 1.211
313.00 1.211
313.10 1.211
313.20 1.212
313.30 1.212
313.40 1.212
313.50 1.212
313.60 1.212
313.70 1.212
313.80 1.212
313.90 1.212
314.00 1.212
314.10 1.212
314.20 1.212
314.30 1.212
314.40 1.212
314.50 1.212
314.60 1.212
314.70 1.212
314.80 1.212
314.90 1.212
315.00 1.212
315.10 1.212
315.20 1.212
315.30 1.212
315.40 1.212
315.50 1.212
315.60 1.212
315.70 1.212
315.80 1.212
315.90 1.212
316.00 1.212
316.10 1.212
316.20 1.212
316.30 1.212
316.40 1.212
316.50 1.212
316.60 1.212
316.70 1.213
316.80 1.213
316.90 1.213
317.00 1.213
317.10 1.213
317.20 1.213
317.30 1.213
317.40 1.213
317.50 1.213
317.60 1.213
317.70 1.213
317.80 1.213
317.90 1.213
318.00 1.213
318.10 1.213
318.20 1.213
318.30 1.213
318.40 1.213
318.50 1.213
318.60 1.213
318.70 1.213
318.80 1.213
318.90 1.213
319.00 1.213
319.10 1.213
319.20 1.213
319.30 1.213
319.40 1.213
319.50 1.213
319.60 1.213
319.70 1.213
319.80 1.213
319.90 1.213
320.00 1.213
320.10 1.213
320.20 1.213
320.30 1.213
320.40 1.213
320.50 1.213
320.60 1.213
320.70 1.213
320.80 1.213
320.90 1.213
321.00 1.213
321.10 1.213
321.20 1.213
321.30 1.213
321.40 1.213
321.50 1.213
321.60 1.213
321.70 1.213
321.80 1.213
321.90 1.213
322.00 1.213
322.10 1.213
322.20 1.213
322.30 1.213
322.40 1.213
322.50 1.213
322.60 1.213
322.70 1.213
322.80 1.213
322.90 1.213
323.00 1.213
323.10 1.213
323.20 1.213
323.30 1.213
323.40 1.213
323.50 1.213
323.60 1.213
323.70 1.213
323.80 1.213
323.90 1.213
324.00 1.213
324.10 1.213
324.20 1.213
324.30 1.213
324.40 1.213
324.50 1.213
324.60 1.213
324.70 1.212
324.80 1.212
324.90 1.212
325.00 1.212
325.10 1.212
325.20 1.212
325.30 1.212
325.40 1.212
325.50 1.212
325.60 1.212
325.70 1.212
325.80 1.212
325.90 1.212
326.00 1.212
326.10 1.212
326.20 1.212
326.30 1.212
326.40 1.212
326.50 1.212
326.60 1.212
326.70 1.212
326.80 1.212
326.90 1.212
327.00 1.212
327.10 1.212
327.20 1.212
327.30 1.212
327.40 1.212
327.50 1.212
327.60 1.212
327.70 1.212
327.80 1.212
327.90 1.212
328.00 1.212
328.10 1.212
328.20 1.212
328.30 1.212
328.40 1.211
328.50 1.211
328.60 1.211
328.70 1.211
328.80 1.211
328.90 1.211
329.00 1.211
329.10 1.211
329.20 1.211
329.30 1.211
329.40 1.211
329.50 1.211
329.60 1.211
329.70 1.211
329.80 1.211
329.90 1.211
330.00 1.211
330.10 1.211
330.20 1.211
330.30 1.211
330.40 1.211
330.50 1.211
330.60 1.211
330.70 1.211
330.80 1.211
330.90 1.21
331.00 1.21
331.10 1.21
331.20 1.21
331.30 1.21
331.40 1.21
331.50 1.21
331.60 1.21
331.70 1.21
331.80 1.21
331.90 1.21
332.00 1.21
332.10 1.21
332.20 1.21
332.30 1.21
332.40 1.21
332.50 1.21
332.60 1.21
332.70 1.21
332.80 1.21
332.90 1.209
333.00 1.209
333.10 1.209
333.20 1.209
333.30 1.209
333.40 1.209
333.50 1.209
333.60 1.209
333.70 1.209
333.80 1.209
333.90 1.209
334.00 1.209
334.10 1.209
334.20 1.209
334.30 1.209
334.40 1.209
334.50 1.209
334.60 1.208
334.70 1.208
334.80 1.208
334.90 1.208
335.00 1.208
335.10 1.208
335.20 1.208
335.30 1.208
335.40 1.208
335.50 1.208
335.60 1.208
335.70 1.208
335.80 1.208
335.90 1.208
336.00 1.208
336.10 1.208
336.20 1.207
336.30 1.207
336.40 1.207
336.50 1.207
336.60 1.207
336.70 1.207
336.80 1.207
336.90 1.207
337.00 1.207
337.10 1.207
337.20 1.207
337.30 1.207
337.40 1.207
337.50 1.207
337.60 1.207
337.70 1.206
337.80 1.206
337.90 1.206
338.00 1.206
338.10 1.206
338.20 1.206
338.30 1.206
338.40 1.206
338.50 1.206
338.60 1.206
338.70 1.206
338.80 1.206
338.90 1.206
339.00 1.205
339.10 1.205
339.20 1.205
339.30 1.205
339.40 1.205
339.50 1.205
339.60 1.205
339.70 1.205
339.80 1.205
339.90 1.205
340.00 1.205
340.10 1.205
340.20 1.205
340.30 1.204
340.40 1.204
340.50 1.204
340.60 1.204
340.70 1.204
340.80 1.204
340.90 1.204
341.00 1.204
341.10 1.204
341.20 1.204
341.30 1.204
341.40 1.203
341.50 1.203
341.60 1.203
341.70 1.203
341.80 1.203
341.90 1.203
342.00 1.203
342.10 1.203
342.20 1.203
342.30 1.203
342.40 1.203
342.50 1.203
342.60 1.202
342.70 1.202
342.80 1.202
342.90 1.202
343.00 1.202
343.10 1.202
343.20 1.202
343.30 1.202
343.40 1.202
343.50 1.202
343.60 1.202
343.70 1.201
343.80 1.201
343.90 1.201
344.00 1.201
344.10 1.201
344.20 1.201
344.30 1.201
344.40 1.201
344.50 1.201
344.60 1.201
344.70 1.2
344.80 1.2
344.90 1.2
345.00 1.2
345.10 1.2
345.20 1.2
345.30 1.2
345.40 1.2
345.50 1.2
345.60 1.2
345.70 1.199
345.80 1.199
345.90 1.199
346.00 1.199
346.10 1.199
346.20 1.199
346.30 1.199
346.40 1.199
346.50 1.199
346.60 1.199
346.70 1.198
346.80 1.198
346.90 1.198
347.00 1.198
347.10 1.198
347.20 1.198
347.30 1.198
347.40 1.198
347.50 1.198
347.60 1.197
347.70 1.197
347.80 1.197
347.90 1.197
348.00 1.197
348.10 1.197
348.20 1.197
348.30 1.197
348.40 1.197
348.50 1.197
348.60 1.196
348.70 1.196
348.80 1.196
348.90 1.196
349.00 1.196
349.10 1.196
349.20 1.196
349.30 1.196
349.40 1.196
349.50 1.195
349.60 1.195
349.70 1.195
349.80 1.195
349.90 1.195
350.00 1.195
350.10 1.195
350.20 1.195
350.30 1.194
350.40 1.194
350.50 1.194
350.60 1.194
350.70 1.194
350.80 1.194
350.90 1.194
351.00 1.194
351.10 1.194
351.20 1.193
351.30 1.193
351.40 1.193
351.50 1.193
351.60 1.193
351.70 1.193
351.80 1.193
351.90 1.193
352.00 1.192
352.10 1.192
352.20 1.192
352.30 1.192
352.40 1.192
352.50 1.192
352.60 1.192
352.70 1.192
352.80 1.191
352.90 1.191
353.00 1.191
353.10 1.191
353.20 1.191
353.30 1.191
353.40 1.191
353.50 1.191
353.60 1.19
353.70 1.19
353.80 1.19
353.90 1.19
354.00 1.19
354.10 1.19
354.20 1.19
354.30 1.19
354.40 1.189
354.50 1.189
354.60 1.189
354.70 1.189
354.80 1.189
354.90 1.189
355.00 1.189
355.10 1.189
355.20 1.188
355.30 1.188
355.40 1.188
355.50 1.188
355.60 1.188
355.70 1.188
355.80 1.188
355.90 1.188
356.00 1.187
356.10 1.187
356.20 1.187
356.30 1.187
356.40 1.187
356.50 1.187
356.60 1.187
356.70 1.186
356.80 1.186
356.90 1.186
357.00 1.186
357.10 1.186
357.20 1.186
357.30 1.186
357.40 1.185
357.50 1.185
357.60 1.185
357.70 1.185
357.80 1.185
357.90 1.185
358.00 1.185
358.10 1.184
358.20 1.184
358.30 1.184
358.40 1.184
358.50 1.184
358.60 1.184
358.70 1.184
358.80 1.184
358.90 1.183
359.00 1.183
359.10 1.183
359.20 1.183
359.30 1.183
359.40 1.183
359.50 1.183
359.60 1.182
359.70 1.182
359.80 1.182
359.90 1.182
360.00 1.182
360.10 1.182
360.20 1.182
360.30 1.181
360.40 1.181
360.50 1.181
360.60 1.181
360.70 1.181
360.80 1.181
360.90 1.181
361.00 1.18
361.10 1.18
361.20 1.18
361.30 1.18
361.40 1.18
361.50 1.18
361.60 1.179
361.70 1.179
361.80 1.179
361.90 1.179
362.00 1.179
362.10 1.179
362.20 1.179
362.30 1.178
362.40 1.178
362.50 1.178
362.60 1.178
362.70 1.178
362.80 1.178
362.90 1.178
363.00 1.177
363.10 1.177
363.20 1.177
363.30 1.177
363.40 1.177
363.50 1.177
363.60 1.177
363.70 1.176
363.80 1.176
363.90 1.176
364.00 1.176
364.10 1.176
364.20 1.176
364.30 1.175
364.40 1.175
364.50 1.175
364.60 1.175
364.70 1.175
364.80 1.174
364.90 1.174
365.00 1.174
365.10 1.174
365.20 1.174
365.30 1.174
365.40 1.173
365.50 1.173
365.60 1.173
365.70 1.173
365.80 1.173
365.90 1.173
366.00 1.172
366.10 1.172
366.20 1.172
366.30 1.172
366.40 1.172
366.50 1.172
366.60 1.171
366.70 1.171
366.80 1.171
366.90 1.171
367.00 1.171
367.10 1.171
367.20 1.17
367.30 1.17
367.40 1.17
367.50 1.17
367.60 1.17
367.70 1.17
367.80 1.169
367.90 1.169
368.00 1.169
368.10 1.169
368.20 1.169
368.30 1.169
368.40 1.168
368.50 1.168
368.60 1.168
368.70 1.168
368.80 1.168
368.90 1.168
369.00 1.167
369.10 1.167
369.20 1.167
369.30 1.167
369.40 1.167
369.50 1.166
369.60 1.166
369.70 1.166
369.80 1.166
369.90 1.166
370.00 1.166
370.10 1.167
370.20 1.168
370.30 1.169
370.40 1.17
370.50 1.172
370.60 1.173
370.70 1.174
370.80 1.175
370.90 1.177
371.00 1.178
371.10 1.179
371.20 1.18
371.30 1.181
371.40 1.183
371.50 1.184
371.60 1.185
371.70 1.186
371.80 1.187
371.90 1.189
372.00 1.19
372.10 1.191
372.20 1.193
372.30 1.194
372.40 1.195
372.50 1.197
372.60 1.198
372.70 1.199
372.80 1.201
372.90 1.202
373.00 1.204
373.10 1.205
373.20 1.206
373.30 1.208
373.40 1.209
373.50 1.21
373.60 1.212
373.70 1.213
373.80 1.214
373.90 1.216
374.00 1.217
374.10 1.218
374.20 1.22
374.30 1.221
374.40 1.222
374.50 1.224
374.60 1.225
374.70 1.226
374.80 1.227
374.90 1.229
375.00 1.23
375.10 1.231
375.20 1.232
375.30 1.234
375.40 1.235
375.50 1.236
375.60 1.238
375.70 1.239
375.80 1.24
375.90 1.241
376.00 1.243
376.10 1.243
376.20 1.244
376.30 1.245
376.40 1.245
376.50 1.246
376.60 1.247
376.70 1.248
376.80 1.248
376.90 1.249
377.00 1.25
377.10 1.249
377.20 1.249
377.30 1.249
377.40 1.248
377.50 1.248
377.60 1.247
377.70 1.247
377.80 1.246
377.90 1.246
378.00 1.246
378.10 1.24
378.20 1.235
378.30 1.23
378.40 1.224
378.50 1.219
378.60 1.214
378.70 1.209
378.80 1.203
378.90 1.198
379.00 1.193
379.10 1.181
379.20 1.17
379.30 1.158
379.40 1.146
379.50 1.135
379.60 1.123
379.70 1.112
379.80 1.1
379.90 1.088
380.00 1.077
380.10 1.092
380.20 1.107
380.30 1.122
380.40 1.137
380.50 1.152
380.60 1.168
380.70 1.183
380.80 1.198
380.90 1.213
381.00 1.228
381.10 1.231
381.20 1.233
381.30 1.236
381.40 1.239
381.50 1.242
381.60 1.242
381.70 1.242
381.80 1.241
381.90 1.239
382.00 1.236
382.10 1.232
382.20 1.227
382.30 1.21
382.40 1.193
382.50 1.176
382.60 1.159
382.70 1.142
382.80 1.125
382.90 1.108
383.00 1.091
383.10 1.074
383.20 1.058
383.30 1.011
383.40 0.935
383.50 0.7917
383.60 0.832
383.70 0.9559
383.80 1.023
383.90 1.067
384.00 1.099
384.10 1.126
384.20 1.148
384.30 1.168
384.40 1.185
384.50 1.199
384.60 1.211
384.70 1.221
384.80 1.23
384.90 1.237
385.00 1.243
385.10 1.247
385.20 1.252
385.30 1.255
385.40 1.258
385.50 1.26
385.60 1.262
385.70 1.264
385.80 1.265
385.90 1.266
386.00 1.266
386.10 1.266
386.20 1.266
386.30 1.266
386.40 1.265
386.50 1.265
386.60 1.263
386.70 1.261
386.80 1.259
386.90 1.257
387.00 1.254
387.10 1.251
387.20 1.246
387.30 1.241
387.40 1.236
387.50 1.229
387.60 1.221
387.70 1.212
387.80 1.2
387.90 1.186
388.00 1.17
388.10 1.149
388.20 1.125
388.30 1.097
388.40 1.061
388.50 1.018
388.60 0.9679
388.70 0.8838
388.80 0.7479
388.90 0.5604
389.00 0.7397
389.10 0.8735
389.20 0.9618
389.30 1.013
389.40 1.057
389.50 1.094
389.60 1.122
389.70 1.147
389.80 1.168
389.90 1.184
390.00 1.199
390.10 1.211
390.20 1.22
390.30 1.229
390.40 1.236
390.50 1.242
390.60 1.247
390.70 1.252
390.80 1.255
390.90 1.259
391.00 1.262
391.10 1.265
391.20 1.267
391.30 1.269
391.40 1.271
391.50 1.273
391.60 1.274
391.70 1.275
391.80 1.276
391.90 1.277
392.00 1.278
392.10 1.279
392.20 1.279
392.30 1.279
392.40 1.28
392.50 1.28
392.60 1.28
392.70 1.28
392.80 1.28
392.90 1.28
393.00 1.28
393.10 1.28
393.20 1.279
393.30 1.279
393.40 1.278
393.50 1.277
393.60 1.277
393.70 1.276
393.80 1.275
393.90 1.274
394.00 1.272
394.10 1.271
394.20 1.269
394.30 1.268
394.40 1.265
394.50 1.263
394.60 1.261
394.70 1.258
394.80 1.255
394.90 1.251
395.00 1.248
395.10 1.243
395.20 1.238
395.30 1.233
395.40 1.226
395.50 1.22
395.60 1.211
395.70 1.202
395.80 1.191
395.90 1.178
396.00 1.162
396.10 1.145
396.20 1.121
396.30 1.093
396.40 1.061
396.50 1.018
396.60 0.9659
396.70 0.9051
396.80 0.8044
396.90 0.6443
397.00 0.4248
397.10 0.6306
397.20 0.7871
397.30 0.8945
397.40 0.9574
397.50 1.011
397.60 1.055
397.70 1.088
397.80 1.116
397.90 1.14
398.00 1.157
398.10 1.173
398.20 1.186
398.30 1.197
398.40 1.206
398.50 1.215
398.60 1.221
398.70 1.227
398.80 1.233
398.90 1.237
399.00 1.241
399.10 1.245
399.20 1.248
399.30 1.251
399.40 1.254
399.50 1.256
399.60 1.258
399.70 1.26
399.80 1.261
399.90 1.263
400.00 1.264
400.10 1.265
400.20 1.266
400.30 1.267
400.40 1.268
400.50 1.269
400.60 1.269
400.70 1.27
400.80 1.27
400.90 1.271
401.00 1.271
401.10 1.272
401.20 1.272
401.30 1.272
401.40 1.272
401.50 1.273
401.60 1.273
401.70 1.273
401.80 1.273
401.90 1.273
402.00 1.273
402.10 1.273
402.20 1.273
402.30 1.273
402.40 1.273
402.50 1.273
402.60 1.273
402.70 1.273
402.80 1.272
402.90 1.272
403.00 1.272
403.10 1.272
403.20 1.272
403.30 1.272
403.40 1.271
403.50 1.271
403.60 1.271
403.70 1.271
403.80 1.27
403.90 1.27
404.00 1.27
404.10 1.269
404.20 1.269
404.30 1.269
404.40 1.268
404.50 1.268
404.60 1.268
404.70 1.267
404.80 1.267
404.90 1.266
405.00 1.266
405.10 1.265
405.20 1.265
405.30 1.264
405.40 1.264
405.50 1.263
405.60 1.262
405.70 1.262
405.80 1.261
405.90 1.26
406.00 1.26
406.10 1.259
406.20 1.258
406.30 1.257
406.40 1.256
406.50 1.255
406.60 1.254
406.70 1.253
406.80 1.251
406.90 1.25
407.00 1.248
407.10 1.247
407.20 1.245
407.30 1.243
407.40 1.241
407.50 1.238
407.60 1.236
407.70 1.233
407.80 1.23
407.90 1.227
408.00 1.223
408.10 1.219
408.20 1.214
408.30 1.209
408.40 1.203
408.50 1.196
408.60 1.189
408.70 1.181
408.80 1.171
408.90 1.161
409.00 1.149
409.10 1.134
409.20 1.117
409.30 1.098
409.40 1.073
409.50 1.042
409.60 1.007
409.70 0.9581
409.80 0.8975
409.90 0.8255
410.00 0.6962
410.10 0.5546
410.20 0.4009
410.30 0.6131
410.40 0.7693
410.50 0.8695
410.60 0.9315
410.70 0.984
410.80 1.027
410.90 1.058
411.00 1.084
411.10 1.107
411.20 1.124
411.30 1.139
411.40 1.152
411.50 1.162
411.60 1.171
411.70 1.18
411.80 1.186
411.90 1.193
412.00 1.199
412.10 1.203
412.20 1.208
412.30 1.212
412.40 1.215
412.50 1.218
412.60 1.221
412.70 1.223
412.80 1.225
412.90 1.227
413.00 1.229
413.10 1.231
413.20 1.232
413.30 1.233
413.40 1.234
413.50 1.235
413.60 1.236
413.70 1.237
413.80 1.237
413.90 1.238
414.00 1.238
414.10 1.239
414.20 1.239
414.30 1.24
414.40 1.24
414.50 1.24
414.60 1.24
414.70 1.241
414.80 1.241
414.90 1.241
415.00 1.241
415.10 1.241
415.20 1.241
415.30 1.241
415.40 1.241
415.50 1.241
415.60 1.241
415.70 1.241
415.80 1.241
415.90 1.241
416.00 1.241
416.10 1.241
416.20 1.241
416.30 1.241
416.40 1.241
416.50 1.24
416.60 1.24
416.70 1.24
416.80 1.24
416.90 1.24
417.00 1.24
417.10 1.24
417.20 1.239
417.30 1.239
417.40 1.239
417.50 1.239
417.60 1.239
417.70 1.239
417.80 1.238
417.90 1.238
418.00 1.238
418.10 1.238
418.20 1.238
418.30 1.237
418.40 1.237
418.50 1.237
418.60 1.237
418.70 1.236
418.80 1.236
418.90 1.236
419.00 1.236
419.10 1.235
419.20 1.235
419.30 1.235
419.40 1.235
419.50 1.234
419.60 1.234
419.70 1.234
419.80 1.234
419.90 1.233
420.00 1.233
420.10 1.233
420.20 1.233
420.30 1.232
420.40 1.232
420.50 1.232
420.60 1.232
420.70 1.231
420.80 1.231
420.90 1.231
421.00 1.231
421.10 1.23
421.20 1.23
421.30 1.23
421.40 1.229
421.50 1.229
421.60 1.229
421.70 1.229
421.80 1.228
421.90 1.228
422.00 1.228
422.10 1.228
422.20 1.227
422.30 1.227
422.40 1.227
422.50 1.226
422.60 1.226
422.70 1.226
422.80 1.225
422.90 1.225
423.00 1.225
423.10 1.225
423.20 1.224
423.30 1.224
423.40 1.224
423.50 1.223
423.60 1.223
423.70 1.223
423.80 1.223
423.90 1.222
424.00 1.222
424.10 1.222
424.20 1.221
424.30 1.221
424.40 1.221
424.50 1.22
424.60 1.22
424.70 1.22
424.80 1.219
424.90 1.219
425.00 1.219
425.10 1.218
425.20 1.218
425.30 1.218
425.40 1.217
425.50 1.217
425.60 1.217
425.70 1.216
425.80 1.216
425.90 1.216
426.00 1.215
426.10 1.215
426.20 1.215
426.30 1.214
426.40 1.214
426.50 1.214
426.60 1.213
426.70 1.213
426.80 1.212
426.90 1.212
427.00 1.212
427.10 1.211
427.20 1.211
427.30 1.21
427.40 1.21
427.50 1.21
427.60 1.209
427.70 1.209
427.80 1.208
427.90 1.208
428.00 1.207
428.10 1.207
428.20 1.207
428.30 1.206
428.40 1.206
428.50 1.205
428.60 1.204
428.70 1.204
428.80 1.203
428.90 1.203
429.00 1.202
429.10 1.202
429.20 1.201
429.30 1.2
429.40 1.2
429.50 1.199
429.60 1.198
429.70 1.197
429.80 1.196
429.90 1.196
430.00 1.195
430.10 1.194
430.20 1.193
430.30 1.192
430.40 1.19
430.50 1.189
430.60 1.188
430.70 1.187
430.80 1.185
430.90 1.184
431.00 1.182
431.10 1.181
431.20 1.179
431.30 1.177
431.40 1.175
431.50 1.173
431.60 1.17
431.70 1.168
431.80 1.165
431.90 1.161
432.00 1.157
432.10 1.153
432.20 1.147
432.30 1.141
432.40 1.134
432.50 1.126
432.60 1.117
432.70 1.106
432.80 1.094
432.90 1.08
433.00 1.065
433.10 1.048
433.20 1.029
433.30 1.007
433.40 0.9763
433.50 0.9394
433.60 0.8959
433.70 0.8304
433.80 0.741
433.90 0.6275
434.00 0.4479
434.10 0.4522
434.20 0.6401
434.30 0.7493
434.40 0.8356
434.50 0.8991
434.60 0.9414
434.70 0.9771
434.80 1.006
434.90 1.027
435.00 1.046
435.10 1.063
435.20 1.077
435.30 1.09
435.40 1.101
435.50 1.111
435.60 1.12
435.70 1.127
435.80 1.133
435.90 1.139
436.00 1.143
436.10 1.147
436.20 1.15
436.30 1.153
436.40 1.156
436.50 1.158
436.60 1.16
436.70 1.161
436.80 1.163
436.90 1.164
437.00 1.165
437.10 1.166
437.20 1.167
437.30 1.168
437.40 1.169
437.50 1.169
437.60 1.17
437.70 1.171
437.80 1.171
437.90 1.171
438.00 1.172
438.10 1.172
438.20 1.173
438.30 1.173
438.40 1.173
438.50 1.173
438.60 1.173
438.70 1.174
438.80 1.174
438.90 1.174
439.00 1.174
439.10 1.174
439.20 1.174
439.30 1.174
439.40 1.174
439.50 1.174
439.60 1.174
439.70 1.174
439.80 1.173
439.90 1.173
440.00 1.173
440.10 1.173
440.20 1.173
440.30 1.173
440.40 1.173
440.50 1.173
440.60 1.172
440.70 1.172
440.80 1.172
440.90 1.172
441.00 1.172
441.10 1.172
441.20 1.171
441.30 1.171
441.40 1.171
441.50 1.171
441.60 1.171
441.70 1.17
441.80 1.17
441.90 1.17
442.00 1.17
442.10 1.169
442.20 1.169
442.30 1.169
442.40 1.169
442.50 1.168
442.60 1.168
442.70 1.168
442.80 1.168
442.90 1.168
443.00 1.167
443.10 1.167
443.20 1.167
443.30 1.167
443.40 1.166
443.50 1.166
443.60 1.166
443.70 1.165
443.80 1.165
443.90 1.165
444.00 1.165
444.10 1.164
444.20 1.164
444.30 1.164
444.40 1.164
444.50 1.163
444.60 1.163
444.70 1.163
444.80 1.163
444.90 1.162
445.00 1.162
445.10 1.162
445.20 1.161
445.30 1.161
445.40 1.161
445.50 1.161
445.60 1.16
445.70 1.16
445.80 1.16
445.90 1.16
446.00 1.159
446.10 1.159
446.20 1.159
446.30 1.158
446.40 1.158
446.50 1.158
446.60 1.158
446.70 1.157
446.80 1.157
446.90 1.157
447.00 1.157
447.10 1.156
447.20 1.156
447.30 1.156
447.40 1.155
447.50 1.155
447.60 1.155
447.70 1.155
447.80 1.154
447.90 1.154
448.00 1.154
448.10 1.153
448.20 1.153
448.30 1.153
448.40 1.153
448.50 1.152
448.60 1.152
448.70 1.152
448.80 1.151
448.90 1.151
449.00 1.151
449.10 1.151
449.20 1.15
449.30 1.15
449.40 1.15
449.50 1.149
449.60 1.149
449.70 1.149
449.80 1.148
449.90 1.148
450.00 1.148
450.10 1.148
450.20 1.147
450.30 1.147
450.40 1.147
450.50 1.146
450.60 1.146
450.70 1.146
450.80 1.146
450.90 1.145
451.00 1.145
451.10 1.145
451.20 1.144
451.30 1.144
451.40 1.144
451.50 1.143
451.60 1.143
451.70 1.143
451.80 1.143
451.90 1.142
452.00 1.142
452.10 1.142
452.20 1.141
452.30 1.141
452.40 1.141
452.50 1.141
452.60 1.14
452.70 1.14
452.80 1.14
452.90 1.139
453.00 1.139
453.10 1.139
453.20 1.138
453.30 1.138
453.40 1.138
453.50 1.138
453.60 1.137
453.70 1.137
453.80 1.137
