# Version 2.1 - nm, norm@500 to 1, cut digits, bergeron_13000_75.dat_13000
# Wavelength(nm)  Flambda(ergs/cm^s/s/nm)
300.00 1.809
300.10 1.808
300.20 1.807
300.30 1.806
300.40 1.805
300.50 1.803
300.60 1.802
300.70 1.801
300.80 1.8
300.90 1.798
301.00 1.797
301.10 1.796
301.20 1.795
301.30 1.794
301.40 1.792
301.50 1.791
301.60 1.79
301.70 1.789
301.80 1.787
301.90 1.786
302.00 1.785
302.10 1.784
302.20 1.783
302.30 1.781
302.40 1.78
302.50 1.779
302.60 1.778
302.70 1.777
302.80 1.775
302.90 1.774
303.00 1.773
303.10 1.772
303.20 1.771
303.30 1.769
303.40 1.768
303.50 1.767
303.60 1.766
303.70 1.765
303.80 1.764
303.90 1.762
304.00 1.761
304.10 1.76
304.20 1.759
304.30 1.758
304.40 1.756
304.50 1.755
304.60 1.754
304.70 1.753
304.80 1.752
304.90 1.751
305.00 1.749
305.10 1.748
305.20 1.747
305.30 1.746
305.40 1.745
305.50 1.744
305.60 1.742
305.70 1.741
305.80 1.74
305.90 1.739
306.00 1.738
306.10 1.737
306.20 1.735
306.30 1.734
306.40 1.733
306.50 1.732
306.60 1.731
306.70 1.73
306.80 1.728
306.90 1.727
307.00 1.726
307.10 1.725
307.20 1.724
307.30 1.723
307.40 1.722
307.50 1.72
307.60 1.719
307.70 1.718
307.80 1.717
307.90 1.716
308.00 1.715
308.10 1.713
308.20 1.712
308.30 1.711
308.40 1.71
308.50 1.709
308.60 1.708
308.70 1.707
308.80 1.706
308.90 1.704
309.00 1.703
309.10 1.702
309.20 1.701
309.30 1.7
309.40 1.699
309.50 1.698
309.60 1.697
309.70 1.695
309.80 1.694
309.90 1.693
310.00 1.692
310.10 1.691
310.20 1.69
310.30 1.689
310.40 1.688
310.50 1.686
310.60 1.685
310.70 1.684
310.80 1.683
310.90 1.682
311.00 1.681
311.10 1.68
311.20 1.679
311.30 1.678
311.40 1.676
311.50 1.675
311.60 1.674
311.70 1.673
311.80 1.672
311.90 1.671
312.00 1.67
312.10 1.669
312.20 1.668
312.30 1.667
312.40 1.665
312.50 1.664
312.60 1.663
312.70 1.662
312.80 1.661
312.90 1.66
313.00 1.659
313.10 1.658
313.20 1.657
313.30 1.656
313.40 1.655
313.50 1.653
313.60 1.652
313.70 1.651
313.80 1.65
313.90 1.649
314.00 1.648
314.10 1.647
314.20 1.646
314.30 1.645
314.40 1.644
314.50 1.643
314.60 1.642
314.70 1.64
314.80 1.639
314.90 1.638
315.00 1.637
315.10 1.636
315.20 1.635
315.30 1.634
315.40 1.633
315.50 1.632
315.60 1.631
315.70 1.63
315.80 1.629
315.90 1.628
316.00 1.627
316.10 1.626
316.20 1.624
316.30 1.623
316.40 1.622
316.50 1.621
316.60 1.62
316.70 1.619
316.80 1.618
316.90 1.617
317.00 1.616
317.10 1.615
317.20 1.614
317.30 1.613
317.40 1.612
317.50 1.611
317.60 1.61
317.70 1.609
317.80 1.608
317.90 1.607
318.00 1.606
318.10 1.604
318.20 1.603
318.30 1.602
318.40 1.601
318.50 1.6
318.60 1.599
318.70 1.598
318.80 1.597
318.90 1.596
319.00 1.595
319.10 1.594
319.20 1.593
319.30 1.592
319.40 1.591
319.50 1.59
319.60 1.589
319.70 1.588
319.80 1.587
319.90 1.586
320.00 1.585
320.10 1.584
320.20 1.583
320.30 1.582
320.40 1.581
320.50 1.58
320.60 1.579
320.70 1.578
320.80 1.577
320.90 1.576
321.00 1.575
321.10 1.574
321.20 1.573
321.30 1.572
321.40 1.571
321.50 1.57
321.60 1.569
321.70 1.568
321.80 1.567
321.90 1.566
322.00 1.565
322.10 1.564
322.20 1.563
322.30 1.562
322.40 1.561
322.50 1.56
322.60 1.559
322.70 1.558
322.80 1.557
322.90 1.556
323.00 1.555
323.10 1.554
323.20 1.553
323.30 1.552
323.40 1.551
323.50 1.55
323.60 1.549
323.70 1.548
323.80 1.547
323.90 1.546
324.00 1.545
324.10 1.544
324.20 1.543
324.30 1.542
324.40 1.541
324.50 1.54
324.60 1.539
324.70 1.538
324.80 1.537
324.90 1.536
325.00 1.535
325.10 1.534
325.20 1.533
325.30 1.532
325.40 1.531
325.50 1.53
325.60 1.529
325.70 1.528
325.80 1.527
325.90 1.526
326.00 1.525
326.10 1.524
326.20 1.523
326.30 1.522
326.40 1.521
326.50 1.52
326.60 1.519
326.70 1.518
326.80 1.517
326.90 1.516
327.00 1.515
327.10 1.514
327.20 1.513
327.30 1.512
327.40 1.511
327.50 1.51
327.60 1.51
327.70 1.509
327.80 1.508
327.90 1.507
328.00 1.506
328.10 1.505
328.20 1.504
328.30 1.503
328.40 1.502
328.50 1.501
328.60 1.5
328.70 1.499
328.80 1.498
328.90 1.497
329.00 1.496
329.10 1.495
329.20 1.494
329.30 1.493
329.40 1.492
329.50 1.491
329.60 1.49
329.70 1.49
329.80 1.489
329.90 1.488
330.00 1.487
330.10 1.486
330.20 1.485
330.30 1.484
330.40 1.483
330.50 1.482
330.60 1.481
330.70 1.48
330.80 1.479
330.90 1.478
331.00 1.477
331.10 1.476
331.20 1.476
331.30 1.475
331.40 1.474
331.50 1.473
331.60 1.472
331.70 1.471
331.80 1.47
331.90 1.469
332.00 1.468
332.10 1.467
332.20 1.466
332.30 1.465
332.40 1.464
332.50 1.463
332.60 1.463
332.70 1.462
332.80 1.461
332.90 1.46
333.00 1.459
333.10 1.458
333.20 1.457
333.30 1.456
333.40 1.455
333.50 1.454
333.60 1.453
333.70 1.453
333.80 1.452
333.90 1.451
334.00 1.45
334.10 1.449
334.20 1.448
334.30 1.447
334.40 1.446
334.50 1.445
334.60 1.444
334.70 1.443
334.80 1.443
334.90 1.442
335.00 1.441
335.10 1.44
335.20 1.439
335.30 1.438
335.40 1.437
335.50 1.436
335.60 1.435
335.70 1.434
335.80 1.434
335.90 1.433
336.00 1.432
336.10 1.431
336.20 1.43
336.30 1.429
336.40 1.428
336.50 1.427
336.60 1.426
336.70 1.426
336.80 1.425
336.90 1.424
337.00 1.423
337.10 1.422
337.20 1.421
337.30 1.42
337.40 1.419
337.50 1.418
337.60 1.418
337.70 1.417
337.80 1.416
337.90 1.415
338.00 1.414
338.10 1.413
338.20 1.412
338.30 1.411
338.40 1.411
338.50 1.41
338.60 1.409
338.70 1.408
338.80 1.407
338.90 1.406
339.00 1.405
339.10 1.404
339.20 1.404
339.30 1.403
339.40 1.402
339.50 1.401
339.60 1.4
339.70 1.399
339.80 1.398
339.90 1.397
340.00 1.397
340.10 1.396
340.20 1.395
340.30 1.394
340.40 1.393
340.50 1.392
340.60 1.391
340.70 1.391
340.80 1.39
340.90 1.389
341.00 1.388
341.10 1.387
341.20 1.386
341.30 1.385
341.40 1.385
341.50 1.384
341.60 1.383
341.70 1.382
341.80 1.381
341.90 1.38
342.00 1.379
342.10 1.379
342.20 1.378
342.30 1.377
342.40 1.376
342.50 1.375
342.60 1.374
342.70 1.374
342.80 1.373
342.90 1.372
343.00 1.371
343.10 1.37
343.20 1.369
343.30 1.368
343.40 1.368
343.50 1.367
343.60 1.366
343.70 1.365
343.80 1.364
343.90 1.363
344.00 1.363
344.10 1.362
344.20 1.361
344.30 1.36
344.40 1.359
344.50 1.358
344.60 1.358
344.70 1.357
344.80 1.356
344.90 1.355
345.00 1.354
345.10 1.353
345.20 1.353
345.30 1.352
345.40 1.351
345.50 1.35
345.60 1.349
345.70 1.348
345.80 1.348
345.90 1.347
346.00 1.346
346.10 1.345
346.20 1.344
346.30 1.344
346.40 1.343
346.50 1.342
346.60 1.341
346.70 1.34
346.80 1.339
346.90 1.339
347.00 1.338
347.10 1.337
347.20 1.336
347.30 1.335
347.40 1.335
347.50 1.334
347.60 1.333
347.70 1.332
347.80 1.331
347.90 1.33
348.00 1.33
348.10 1.329
348.20 1.328
348.30 1.327
348.40 1.326
348.50 1.326
348.60 1.325
348.70 1.324
348.80 1.323
348.90 1.322
349.00 1.322
349.10 1.321
349.20 1.32
349.30 1.319
349.40 1.318
349.50 1.318
349.60 1.317
349.70 1.316
349.80 1.315
349.90 1.314
350.00 1.314
350.10 1.313
350.20 1.312
350.30 1.311
350.40 1.31
350.50 1.31
350.60 1.309
350.70 1.308
350.80 1.307
350.90 1.306
351.00 1.306
351.10 1.305
351.20 1.304
351.30 1.303
351.40 1.303
351.50 1.302
351.60 1.301
351.70 1.3
351.80 1.299
351.90 1.299
352.00 1.298
352.10 1.297
352.20 1.296
352.30 1.295
352.40 1.295
352.50 1.294
352.60 1.293
352.70 1.292
352.80 1.292
352.90 1.291
353.00 1.29
353.10 1.289
353.20 1.288
353.30 1.288
353.40 1.287
353.50 1.286
353.60 1.285
353.70 1.285
353.80 1.284
353.90 1.283
354.00 1.282
354.10 1.281
354.20 1.281
354.30 1.28
354.40 1.279
354.50 1.278
354.60 1.278
354.70 1.277
354.80 1.276
354.90 1.275
355.00 1.275
355.10 1.274
355.20 1.273
355.30 1.272
355.40 1.272
355.50 1.271
355.60 1.27
355.70 1.269
355.80 1.268
355.90 1.268
356.00 1.267
356.10 1.266
356.20 1.265
356.30 1.265
356.40 1.264
356.50 1.263
356.60 1.262
356.70 1.262
356.80 1.261
356.90 1.26
357.00 1.259
357.10 1.259
357.20 1.258
357.30 1.257
357.40 1.256
357.50 1.256
357.60 1.255
357.70 1.254
357.80 1.253
357.90 1.253
358.00 1.252
358.10 1.251
358.20 1.25
358.30 1.25
358.40 1.249
358.50 1.248
358.60 1.247
358.70 1.247
358.80 1.246
358.90 1.245
359.00 1.244
359.10 1.244
359.20 1.243
359.30 1.242
359.40 1.241
359.50 1.241
359.60 1.24
359.70 1.239
359.80 1.238
359.90 1.238
360.00 1.237
360.10 1.236
360.20 1.236
360.30 1.235
360.40 1.234
360.50 1.233
360.60 1.233
360.70 1.232
360.80 1.231
360.90 1.23
361.00 1.23
361.10 1.229
361.20 1.228
361.30 1.227
361.40 1.227
361.50 1.226
361.60 1.225
361.70 1.225
361.80 1.224
361.90 1.223
362.00 1.222
362.10 1.222
362.20 1.221
362.30 1.22
362.40 1.22
362.50 1.219
362.60 1.218
362.70 1.217
362.80 1.217
362.90 1.216
363.00 1.215
363.10 1.214
363.20 1.214
363.30 1.213
363.40 1.212
363.50 1.211
363.60 1.211
363.70 1.21
363.80 1.209
363.90 1.208
364.00 1.207
364.10 1.207
364.20 1.206
364.30 1.205
364.40 1.204
364.50 1.204
364.60 1.203
364.70 1.202
364.80 1.201
364.90 1.201
365.00 1.2
365.10 1.199
365.20 1.198
365.30 1.197
365.40 1.197
365.50 1.196
365.60 1.195
365.70 1.194
365.80 1.194
365.90 1.193
366.00 1.192
366.10 1.191
366.20 1.191
366.30 1.19
366.40 1.189
366.50 1.189
366.60 1.188
366.70 1.187
366.80 1.187
366.90 1.186
367.00 1.185
367.10 1.184
367.20 1.184
367.30 1.183
367.40 1.182
367.50 1.182
367.60 1.181
367.70 1.18
367.80 1.18
367.90 1.179
368.00 1.178
368.10 1.178
368.20 1.178
368.30 1.177
368.40 1.177
368.50 1.177
368.60 1.176
368.70 1.176
368.80 1.176
368.90 1.175
369.00 1.175
369.10 1.175
369.20 1.174
369.30 1.174
369.40 1.174
369.50 1.173
369.60 1.173
369.70 1.173
369.80 1.173
369.90 1.172
370.00 1.172
370.10 1.173
370.20 1.173
370.30 1.174
370.40 1.175
370.50 1.175
370.60 1.176
370.70 1.177
370.80 1.177
370.90 1.178
371.00 1.179
371.10 1.179
371.20 1.18
371.30 1.181
371.40 1.181
371.50 1.182
371.60 1.183
371.70 1.183
371.80 1.184
371.90 1.185
372.00 1.185
372.10 1.187
372.20 1.189
372.30 1.191
372.40 1.193
372.50 1.195
372.60 1.197
372.70 1.198
372.80 1.2
372.90 1.202
373.00 1.204
373.10 1.206
373.20 1.208
373.30 1.209
373.40 1.211
373.50 1.213
373.60 1.215
373.70 1.217
373.80 1.218
373.90 1.22
374.00 1.222
374.10 1.224
374.20 1.227
374.30 1.229
374.40 1.231
374.50 1.233
374.60 1.236
374.70 1.238
374.80 1.24
374.90 1.242
375.00 1.244
375.10 1.247
375.20 1.249
375.30 1.251
375.40 1.253
375.50 1.256
375.60 1.258
375.70 1.26
375.80 1.262
375.90 1.264
376.00 1.267
376.10 1.268
376.20 1.269
376.30 1.27
376.40 1.271
376.50 1.272
376.60 1.273
376.70 1.275
376.80 1.276
376.90 1.277
377.00 1.278
377.10 1.276
377.20 1.275
377.30 1.273
377.40 1.271
377.50 1.269
377.60 1.268
377.70 1.266
377.80 1.264
377.90 1.263
378.00 1.261
378.10 1.25
378.20 1.24
378.30 1.229
378.40 1.218
378.50 1.208
378.60 1.197
378.70 1.187
378.80 1.176
378.90 1.166
379.00 1.155
379.10 1.147
379.20 1.138
379.30 1.13
379.40 1.121
379.50 1.113
379.60 1.105
379.70 1.096
379.80 1.088
379.90 1.08
380.00 1.071
380.10 1.085
380.20 1.098
380.30 1.111
380.40 1.124
380.50 1.138
380.60 1.151
380.70 1.164
380.80 1.177
380.90 1.19
381.00 1.203
381.10 1.208
381.20 1.213
381.30 1.218
381.40 1.222
381.50 1.227
381.60 1.227
381.70 1.224
381.80 1.221
381.90 1.215
382.00 1.208
382.10 1.198
382.20 1.187
382.30 1.165
382.40 1.143
382.50 1.121
382.60 1.099
382.70 1.077
382.80 1.055
382.90 1.033
383.00 1.011
383.10 0.989
383.20 0.9671
383.30 0.9472
383.40 0.9242
383.50 0.9001
383.60 0.905
383.70 0.9295
383.80 0.9524
383.90 0.9724
384.00 0.9952
384.10 1.022
384.20 1.05
384.30 1.077
384.40 1.104
384.50 1.13
384.60 1.153
384.70 1.174
384.80 1.193
384.90 1.209
385.00 1.224
385.10 1.236
385.20 1.246
385.30 1.256
385.40 1.263
385.50 1.269
385.60 1.275
385.70 1.278
385.80 1.281
385.90 1.283
386.00 1.283
386.10 1.282
386.20 1.28
386.30 1.277
386.40 1.273
386.50 1.268
386.60 1.262
386.70 1.254
386.80 1.246
386.90 1.236
387.00 1.225
387.10 1.214
387.20 1.2
387.30 1.185
387.40 1.17
387.50 1.151
387.60 1.131
387.70 1.11
387.80 1.086
387.90 1.059
388.00 1.03
388.10 0.9981
388.20 0.9645
388.30 0.9296
388.40 0.8939
388.50 0.8605
388.60 0.8295
388.70 0.8001
388.80 0.7716
388.90 0.744
389.00 0.7692
389.10 0.7964
389.20 0.8255
389.30 0.8559
389.40 0.8888
389.50 0.9242
389.60 0.9594
389.70 0.9934
389.80 1.026
389.90 1.056
390.00 1.084
390.10 1.11
390.20 1.133
390.30 1.155
390.40 1.175
390.50 1.194
390.60 1.211
390.70 1.228
390.80 1.244
390.90 1.258
391.00 1.273
391.10 1.286
391.20 1.298
391.30 1.31
391.40 1.321
391.50 1.331
391.60 1.341
391.70 1.35
391.80 1.358
391.90 1.366
392.00 1.372
392.10 1.378
392.20 1.383
392.30 1.387
392.40 1.391
392.50 1.394
392.60 1.395
392.70 1.396
392.80 1.397
392.90 1.396
393.00 1.394
393.10 1.392
393.20 1.388
393.30 1.384
393.40 1.379
393.50 1.373
393.60 1.366
393.70 1.359
393.80 1.35
393.90 1.341
394.00 1.331
394.10 1.32
394.20 1.308
394.30 1.296
394.40 1.282
394.50 1.268
394.60 1.254
394.70 1.238
394.80 1.222
394.90 1.206
395.00 1.188
395.10 1.17
395.20 1.152
395.30 1.132
395.40 1.112
395.50 1.092
395.60 1.069
395.70 1.047
395.80 1.023
395.90 0.997
396.00 0.9702
396.10 0.9422
396.20 0.9113
396.30 0.8787
396.40 0.8445
396.50 0.8079
396.60 0.7723
396.70 0.7376
396.80 0.7036
396.90 0.6637
397.00 0.6181
397.10 0.6599
397.20 0.6978
397.30 0.7316
397.40 0.7655
397.50 0.8004
397.60 0.8362
397.70 0.87
397.80 0.9022
397.90 0.9326
398.00 0.9601
398.10 0.9865
398.20 1.012
398.30 1.035
398.40 1.058
398.50 1.079
398.60 1.1
398.70 1.12
398.80 1.139
398.90 1.158
399.00 1.176
399.10 1.194
399.20 1.211
399.30 1.228
399.40 1.245
399.50 1.261
399.60 1.277
399.70 1.292
399.80 1.307
399.90 1.321
400.00 1.335
400.10 1.348
400.20 1.361
400.30 1.374
400.40 1.386
400.50 1.397
400.60 1.409
400.70 1.419
400.80 1.429
400.90 1.439
401.00 1.448
401.10 1.457
401.20 1.466
401.30 1.474
401.40 1.481
401.50 1.488
401.60 1.495
401.70 1.501
401.80 1.507
401.90 1.513
402.00 1.518
402.10 1.522
402.20 1.527
402.30 1.53
402.40 1.534
402.50 1.537
402.60 1.54
402.70 1.542
402.80 1.544
402.90 1.546
403.00 1.547
403.10 1.548
403.20 1.548
403.30 1.549
403.40 1.548
403.50 1.548
403.60 1.547
403.70 1.545
403.80 1.544
403.90 1.542
404.00 1.539
404.10 1.536
404.20 1.533
404.30 1.53
404.40 1.526
404.50 1.521
404.60 1.517
404.70 1.511
404.80 1.506
404.90 1.5
405.00 1.494
405.10 1.487
405.20 1.48
405.30 1.473
405.40 1.465
405.50 1.457
405.60 1.448
405.70 1.439
405.80 1.43
405.90 1.42
406.00 1.41
406.10 1.399
406.20 1.388
406.30 1.376
406.40 1.365
406.50 1.352
406.60 1.34
406.70 1.326
406.80 1.313
406.90 1.299
407.00 1.285
407.10 1.27
407.20 1.254
407.30 1.239
407.40 1.222
407.50 1.206
407.60 1.189
407.70 1.171
407.80 1.154
407.90 1.135
408.00 1.117
408.10 1.098
408.20 1.079
408.30 1.06
408.40 1.04
408.50 1.02
408.60 0.9997
408.70 0.9791
408.80 0.9579
408.90 0.9363
409.00 0.9143
409.10 0.8914
409.20 0.8677
409.30 0.8433
409.40 0.8167
409.50 0.7886
409.60 0.7591
409.70 0.7274
409.80 0.6953
409.90 0.663
410.00 0.6245
410.10 0.5842
410.20 0.5421
410.30 0.5995
410.40 0.6452
410.50 0.6791
410.60 0.7107
410.70 0.7417
410.80 0.7721
410.90 0.7998
411.00 0.8261
411.10 0.851
411.20 0.8738
411.30 0.8961
411.40 0.9177
411.50 0.9383
411.60 0.9586
411.70 0.9785
411.80 0.9978
411.90 1.017
412.00 1.036
412.10 1.054
412.20 1.072
412.30 1.09
412.40 1.107
412.50 1.124
412.60 1.141
412.70 1.157
412.80 1.173
412.90 1.189
413.00 1.204
413.10 1.219
413.20 1.233
413.30 1.247
413.40 1.261
413.50 1.274
413.60 1.287
413.70 1.299
413.80 1.312
413.90 1.323
414.00 1.335
414.10 1.346
414.20 1.357
414.30 1.367
414.40 1.377
414.50 1.387
414.60 1.397
414.70 1.406
414.80 1.415
414.90 1.424
415.00 1.432
415.10 1.44
415.20 1.448
415.30 1.455
415.40 1.463
415.50 1.47
415.60 1.477
415.70 1.483
415.80 1.489
415.90 1.495
416.00 1.501
416.10 1.507
416.20 1.512
416.30 1.517
416.40 1.523
416.50 1.527
416.60 1.532
416.70 1.536
416.80 1.541
416.90 1.545
417.00 1.549
417.10 1.552
417.20 1.556
417.30 1.559
417.40 1.563
417.50 1.566
417.60 1.569
417.70 1.572
417.80 1.574
417.90 1.577
418.00 1.579
418.10 1.582
418.20 1.584
418.30 1.586
418.40 1.588
418.50 1.59
418.60 1.591
418.70 1.593
418.80 1.594
418.90 1.596
419.00 1.597
419.10 1.598
419.20 1.599
419.30 1.6
419.40 1.601
419.50 1.602
419.60 1.603
419.70 1.603
419.80 1.604
419.90 1.604
420.00 1.604
420.10 1.605
420.20 1.605
420.30 1.605
420.40 1.605
420.50 1.605
420.60 1.605
420.70 1.605
420.80 1.605
420.90 1.604
421.00 1.604
421.10 1.604
421.20 1.603
421.30 1.602
421.40 1.602
421.50 1.601
421.60 1.6
421.70 1.6
421.80 1.599
421.90 1.598
422.00 1.597
422.10 1.596
422.20 1.594
422.30 1.593
422.40 1.592
422.50 1.591
422.60 1.589
422.70 1.588
422.80 1.586
422.90 1.585
423.00 1.583
423.10 1.581
423.20 1.579
423.30 1.577
423.40 1.576
423.50 1.574
423.60 1.571
423.70 1.569
423.80 1.567
423.90 1.565
424.00 1.562
424.10 1.56
424.20 1.558
424.30 1.555
424.40 1.552
424.50 1.55
424.60 1.547
424.70 1.544
424.80 1.541
424.90 1.538
425.00 1.535
425.10 1.532
425.20 1.528
425.30 1.525
425.40 1.521
425.50 1.518
425.60 1.514
425.70 1.51
425.80 1.507
425.90 1.503
426.00 1.499
426.10 1.494
426.20 1.489
426.30 1.484
426.40 1.48
426.50 1.475
426.60 1.47
426.70 1.466
426.80 1.461
426.90 1.455
427.00 1.45
427.10 1.445
427.20 1.439
427.30 1.434
427.40 1.428
427.50 1.422
427.60 1.416
427.70 1.41
427.80 1.403
427.90 1.397
428.00 1.39
428.10 1.383
428.20 1.376
428.30 1.369
428.40 1.362
428.50 1.354
428.60 1.346
428.70 1.338
428.80 1.33
428.90 1.322
429.00 1.313
429.10 1.305
429.20 1.296
429.30 1.287
429.40 1.277
429.50 1.268
429.60 1.258
429.70 1.248
429.80 1.238
429.90 1.228
430.00 1.217
430.10 1.206
430.20 1.195
430.30 1.184
430.40 1.172
430.50 1.16
430.60 1.148
430.70 1.136
430.80 1.124
430.90 1.111
431.00 1.098
431.10 1.086
431.20 1.072
431.30 1.059
431.40 1.046
431.50 1.032
431.60 1.018
431.70 1.003
431.80 0.9886
431.90 0.9733
432.00 0.9578
432.10 0.942
432.20 0.9253
432.30 0.9082
432.40 0.8905
432.50 0.8717
432.60 0.8522
432.70 0.8322
432.80 0.8117
432.90 0.7914
433.00 0.7714
433.10 0.7523
433.20 0.7332
433.30 0.7138
433.40 0.6924
433.50 0.6695
433.60 0.6451
433.70 0.6176
433.80 0.587
433.90 0.5533
434.00 0.4788
434.10 0.4798
434.20 0.5562
434.30 0.5887
434.40 0.6184
434.50 0.6452
434.60 0.6687
434.70 0.6908
434.80 0.7114
434.90 0.73
435.00 0.7484
435.10 0.7667
435.20 0.7859
435.30 0.8052
435.40 0.8248
435.50 0.8437
435.60 0.862
435.70 0.8797
435.80 0.8961
435.90 0.912
436.00 0.9274
436.10 0.942
436.20 0.9562
436.30 0.9701
436.40 0.9834
436.50 0.9964
436.60 1.009
436.70 1.021
436.80 1.034
436.90 1.045
437.00 1.057
437.10 1.068
437.20 1.08
437.30 1.09
437.40 1.101
437.50 1.112
437.60 1.122
437.70 1.132
437.80 1.142
437.90 1.151
438.00 1.161
438.10 1.17
438.20 1.178
438.30 1.187
438.40 1.195
438.50 1.203
438.60 1.211
438.70 1.219
438.80 1.226
438.90 1.234
439.00 1.241
439.10 1.247
439.20 1.254
439.30 1.26
439.40 1.266
439.50 1.272
439.60 1.278
439.70 1.284
439.80 1.289
439.90 1.294
440.00 1.299
440.10 1.304
440.20 1.309
440.30 1.314
440.40 1.318
440.50 1.322
440.60 1.326
440.70 1.33
440.80 1.334
440.90 1.338
441.00 1.341
441.10 1.345
441.20 1.348
441.30 1.351
441.40 1.355
441.50 1.358
441.60 1.36
441.70 1.363
441.80 1.366
441.90 1.368
442.00 1.371
442.10 1.373
442.20 1.375
442.30 1.377
442.40 1.38
442.50 1.381
442.60 1.383
442.70 1.385
442.80 1.387
442.90 1.389
443.00 1.39
443.10 1.392
443.20 1.393
443.30 1.394
443.40 1.396
443.50 1.397
443.60 1.398
443.70 1.399
443.80 1.4
443.90 1.401
444.00 1.402
444.10 1.403
444.20 1.404
444.30 1.405
444.40 1.406
444.50 1.406
444.60 1.407
444.70 1.408
444.80 1.408
444.90 1.409
445.00 1.409
445.10 1.41
445.20 1.41
445.30 1.41
445.40 1.411
445.50 1.411
445.60 1.411
445.70 1.412
445.80 1.412
445.90 1.412
446.00 1.412
446.10 1.412
446.20 1.412
446.30 1.412
446.40 1.412
446.50 1.412
446.60 1.412
446.70 1.412
446.80 1.412
446.90 1.412
447.00 1.412
447.10 1.412
447.20 1.412
447.30 1.412
447.40 1.411
447.50 1.411
447.60 1.411
447.70 1.411
447.80 1.411
447.90 1.41
448.00 1.41
448.10 1.41
448.20 1.409
448.30 1.409
448.40 1.409
448.50 1.408
448.60 1.408
448.70 1.407
448.80 1.407
448.90 1.407
449.00 1.406
449.10 1.406
449.20 1.405
449.30 1.405
449.40 1.405
449.50 1.404
449.60 1.403
449.70 1.403
449.80 1.402
449.90 1.402
450.00 1.401
450.10 1.401
450.20 1.4
450.30 1.4
450.40 1.399
450.50 1.398
450.60 1.398
450.70 1.397
450.80 1.397
450.90 1.396
451.00 1.395
451.10 1.395
451.20 1.394
451.30 1.393
451.40 1.393
451.50 1.392
451.60 1.391
451.70 1.391
451.80 1.39
451.90 1.389
452.00 1.388
452.10 1.388
452.20 1.387
452.30 1.386
452.40 1.386
452.50 1.385
452.60 1.384
452.70 1.383
452.80 1.383
452.90 1.382
453.00 1.381
453.10 1.38
453.20 1.38
