# Version 2.1 - nm, norm@500 to 1, cut digits, bergeron_13000_90.dat_13000
# Wavelength(nm)  Flambda(ergs/cm^s/s/nm)
300.00 2.345
300.10 2.343
300.20 2.342
300.30 2.34
300.40 2.338
300.50 2.337
300.60 2.335
300.70 2.334
300.80 2.332
300.90 2.331
301.00 2.329
301.10 2.328
301.20 2.326
301.30 2.325
301.40 2.323
301.50 2.322
301.60 2.32
301.70 2.319
301.80 2.317
301.90 2.315
302.00 2.314
302.10 2.312
302.20 2.311
302.30 2.309
302.40 2.308
302.50 2.306
302.60 2.305
302.70 2.303
302.80 2.302
302.90 2.3
303.00 2.299
303.10 2.297
303.20 2.296
303.30 2.294
303.40 2.293
303.50 2.291
303.60 2.29
303.70 2.288
303.80 2.287
303.90 2.285
304.00 2.284
304.10 2.282
304.20 2.281
304.30 2.279
304.40 2.278
304.50 2.276
304.60 2.275
304.70 2.273
304.80 2.272
304.90 2.27
305.00 2.269
305.10 2.267
305.20 2.266
305.30 2.264
305.40 2.263
305.50 2.261
305.60 2.26
305.70 2.258
305.80 2.257
305.90 2.255
306.00 2.254
306.10 2.252
306.20 2.251
306.30 2.249
306.40 2.248
306.50 2.246
306.60 2.245
306.70 2.243
306.80 2.242
306.90 2.241
307.00 2.239
307.10 2.238
307.20 2.236
307.30 2.235
307.40 2.233
307.50 2.232
307.60 2.23
307.70 2.229
307.80 2.227
307.90 2.226
308.00 2.224
308.10 2.223
308.20 2.221
308.30 2.22
308.40 2.219
308.50 2.217
308.60 2.216
308.70 2.214
308.80 2.213
308.90 2.211
309.00 2.21
309.10 2.208
309.20 2.207
309.30 2.205
309.40 2.204
309.50 2.203
309.60 2.201
309.70 2.2
309.80 2.198
309.90 2.197
310.00 2.195
310.10 2.194
310.20 2.192
310.30 2.191
310.40 2.19
310.50 2.188
310.60 2.187
310.70 2.185
310.80 2.184
310.90 2.182
311.00 2.181
311.10 2.18
311.20 2.178
311.30 2.177
311.40 2.175
311.50 2.174
311.60 2.172
311.70 2.171
311.80 2.17
311.90 2.168
312.00 2.167
312.10 2.165
312.20 2.164
312.30 2.162
312.40 2.161
312.50 2.16
312.60 2.158
312.70 2.157
312.80 2.155
312.90 2.154
313.00 2.153
313.10 2.151
313.20 2.15
313.30 2.148
313.40 2.147
313.50 2.146
313.60 2.144
313.70 2.143
313.80 2.141
313.90 2.14
314.00 2.139
314.10 2.137
314.20 2.136
314.30 2.134
314.40 2.133
314.50 2.132
314.60 2.13
314.70 2.129
314.80 2.127
314.90 2.126
315.00 2.125
315.10 2.123
315.20 2.122
315.30 2.12
315.40 2.119
315.50 2.118
315.60 2.116
315.70 2.115
315.80 2.113
315.90 2.112
316.00 2.111
316.10 2.109
316.20 2.108
316.30 2.107
316.40 2.105
316.50 2.104
316.60 2.102
316.70 2.101
316.80 2.1
316.90 2.098
317.00 2.097
317.10 2.096
317.20 2.094
317.30 2.093
317.40 2.091
317.50 2.09
317.60 2.089
317.70 2.087
317.80 2.086
317.90 2.085
318.00 2.083
318.10 2.082
318.20 2.081
318.30 2.079
318.40 2.078
318.50 2.077
318.60 2.075
318.70 2.074
318.80 2.072
318.90 2.071
319.00 2.07
319.10 2.068
319.20 2.067
319.30 2.066
319.40 2.064
319.50 2.063
319.60 2.062
319.70 2.06
319.80 2.059
319.90 2.058
320.00 2.056
320.10 2.055
320.20 2.054
320.30 2.052
320.40 2.051
320.50 2.05
320.60 2.048
320.70 2.047
320.80 2.046
320.90 2.044
321.00 2.043
321.10 2.042
321.20 2.04
321.30 2.039
321.40 2.038
321.50 2.036
321.60 2.035
321.70 2.034
321.80 2.032
321.90 2.031
322.00 2.03
322.10 2.028
322.20 2.027
322.30 2.026
322.40 2.024
322.50 2.023
322.60 2.022
322.70 2.02
322.80 2.019
322.90 2.018
323.00 2.016
323.10 2.015
323.20 2.014
323.30 2.013
323.40 2.011
323.50 2.01
323.60 2.009
323.70 2.007
323.80 2.006
323.90 2.005
324.00 2.003
324.10 2.002
324.20 2.001
324.30 1.999
324.40 1.998
324.50 1.997
324.60 1.996
324.70 1.994
324.80 1.993
324.90 1.992
325.00 1.99
325.10 1.989
325.20 1.988
325.30 1.987
325.40 1.985
325.50 1.984
325.60 1.983
325.70 1.981
325.80 1.98
325.90 1.979
326.00 1.978
326.10 1.976
326.20 1.975
326.30 1.974
326.40 1.972
326.50 1.971
326.60 1.97
326.70 1.969
326.80 1.967
326.90 1.966
327.00 1.965
327.10 1.963
327.20 1.962
327.30 1.961
327.40 1.96
327.50 1.958
327.60 1.957
327.70 1.956
327.80 1.955
327.90 1.953
328.00 1.952
328.10 1.951
328.20 1.95
328.30 1.948
328.40 1.947
328.50 1.946
328.60 1.944
328.70 1.943
328.80 1.942
328.90 1.941
329.00 1.939
329.10 1.938
329.20 1.937
329.30 1.936
329.40 1.934
329.50 1.933
329.60 1.932
329.70 1.931
329.80 1.929
329.90 1.928
330.00 1.927
330.10 1.926
330.20 1.924
330.30 1.923
330.40 1.922
330.50 1.921
330.60 1.919
330.70 1.918
330.80 1.917
330.90 1.916
331.00 1.914
331.10 1.913
331.20 1.912
331.30 1.911
331.40 1.909
331.50 1.908
331.60 1.907
331.70 1.906
331.80 1.905
331.90 1.903
332.00 1.902
332.10 1.901
332.20 1.9
332.30 1.898
332.40 1.897
332.50 1.896
332.60 1.895
332.70 1.894
332.80 1.892
332.90 1.891
333.00 1.89
333.10 1.889
333.20 1.887
333.30 1.886
333.40 1.885
333.50 1.884
333.60 1.883
333.70 1.881
333.80 1.88
333.90 1.879
334.00 1.878
334.10 1.876
334.20 1.875
334.30 1.874
334.40 1.873
334.50 1.872
334.60 1.87
334.70 1.869
334.80 1.868
334.90 1.867
335.00 1.866
335.10 1.864
335.20 1.863
335.30 1.862
335.40 1.861
335.50 1.86
335.60 1.858
335.70 1.857
335.80 1.856
335.90 1.855
336.00 1.854
336.10 1.852
336.20 1.851
336.30 1.85
336.40 1.849
336.50 1.848
336.60 1.846
336.70 1.845
336.80 1.844
336.90 1.843
337.00 1.842
337.10 1.841
337.20 1.839
337.30 1.838
337.40 1.837
337.50 1.836
337.60 1.835
337.70 1.833
337.80 1.832
337.90 1.831
338.00 1.83
338.10 1.829
338.20 1.828
338.30 1.826
338.40 1.825
338.50 1.824
338.60 1.823
338.70 1.822
338.80 1.821
338.90 1.819
339.00 1.818
339.10 1.817
339.20 1.816
339.30 1.815
339.40 1.813
339.50 1.812
339.60 1.811
339.70 1.81
339.80 1.809
339.90 1.808
340.00 1.807
340.10 1.805
340.20 1.804
340.30 1.803
340.40 1.802
340.50 1.801
340.60 1.8
340.70 1.798
340.80 1.797
340.90 1.796
341.00 1.795
341.10 1.794
341.20 1.793
341.30 1.792
341.40 1.79
341.50 1.789
341.60 1.788
341.70 1.787
341.80 1.786
341.90 1.785
342.00 1.783
342.10 1.782
342.20 1.781
342.30 1.78
342.40 1.779
342.50 1.778
342.60 1.777
342.70 1.775
342.80 1.774
342.90 1.773
343.00 1.772
343.10 1.771
343.20 1.77
343.30 1.769
343.40 1.768
343.50 1.766
343.60 1.765
343.70 1.764
343.80 1.763
343.90 1.762
344.00 1.761
344.10 1.76
344.20 1.759
344.30 1.757
344.40 1.756
344.50 1.755
344.60 1.754
344.70 1.753
344.80 1.752
344.90 1.751
345.00 1.75
345.10 1.748
345.20 1.747
345.30 1.746
345.40 1.745
345.50 1.744
345.60 1.743
345.70 1.742
345.80 1.741
345.90 1.74
346.00 1.738
346.10 1.737
346.20 1.736
346.30 1.735
346.40 1.734
346.50 1.733
346.60 1.732
346.70 1.731
346.80 1.73
346.90 1.728
347.00 1.727
347.10 1.726
347.20 1.725
347.30 1.724
347.40 1.723
347.50 1.722
347.60 1.721
347.70 1.72
347.80 1.719
347.90 1.717
348.00 1.716
348.10 1.715
348.20 1.714
348.30 1.713
348.40 1.712
348.50 1.711
348.60 1.71
348.70 1.709
348.80 1.708
348.90 1.707
349.00 1.705
349.10 1.704
349.20 1.703
349.30 1.702
349.40 1.701
349.50 1.7
349.60 1.699
349.70 1.698
349.80 1.697
349.90 1.696
350.00 1.695
350.10 1.694
350.20 1.692
350.30 1.691
350.40 1.69
350.50 1.689
350.60 1.688
350.70 1.687
350.80 1.686
350.90 1.685
351.00 1.684
351.10 1.683
351.20 1.682
351.30 1.681
351.40 1.68
351.50 1.679
351.60 1.677
351.70 1.676
351.80 1.675
351.90 1.674
352.00 1.673
352.10 1.672
352.20 1.671
352.30 1.67
352.40 1.669
352.50 1.668
352.60 1.667
352.70 1.666
352.80 1.665
352.90 1.664
353.00 1.663
353.10 1.662
353.20 1.661
353.30 1.659
353.40 1.658
353.50 1.657
353.60 1.656
353.70 1.655
353.80 1.654
353.90 1.653
354.00 1.652
354.10 1.651
354.20 1.65
354.30 1.649
354.40 1.648
354.50 1.647
354.60 1.646
354.70 1.645
354.80 1.644
354.90 1.643
355.00 1.642
355.10 1.641
355.20 1.64
355.30 1.639
355.40 1.638
355.50 1.636
355.60 1.635
355.70 1.634
355.80 1.633
355.90 1.632
356.00 1.631
356.10 1.63
356.20 1.629
356.30 1.628
356.40 1.627
356.50 1.626
356.60 1.625
356.70 1.624
356.80 1.623
356.90 1.622
357.00 1.621
357.10 1.62
357.20 1.619
357.30 1.618
357.40 1.617
357.50 1.616
357.60 1.615
357.70 1.614
357.80 1.613
357.90 1.612
358.00 1.611
358.10 1.61
358.20 1.609
358.30 1.608
358.40 1.607
358.50 1.606
358.60 1.605
358.70 1.604
358.80 1.603
358.90 1.602
359.00 1.601
359.10 1.6
359.20 1.599
359.30 1.598
359.40 1.597
359.50 1.596
359.60 1.595
359.70 1.594
359.80 1.593
359.90 1.592
360.00 1.591
360.10 1.59
360.20 1.589
360.30 1.588
360.40 1.587
360.50 1.586
360.60 1.585
360.70 1.584
360.80 1.583
360.90 1.582
361.00 1.581
361.10 1.58
361.20 1.579
361.30 1.578
361.40 1.577
361.50 1.576
361.60 1.575
361.70 1.574
361.80 1.573
361.90 1.572
362.00 1.571
362.10 1.57
362.20 1.569
362.30 1.568
362.40 1.567
362.50 1.566
362.60 1.565
362.70 1.564
362.80 1.563
362.90 1.562
363.00 1.561
363.10 1.56
363.20 1.559
363.30 1.557
363.40 1.556
363.50 1.555
363.60 1.554
363.70 1.553
363.80 1.552
363.90 1.551
364.00 1.549
364.10 1.548
364.20 1.547
364.30 1.546
364.40 1.545
364.50 1.544
364.60 1.542
364.70 1.541
364.80 1.54
364.90 1.539
365.00 1.538
365.10 1.537
365.20 1.535
365.30 1.534
365.40 1.533
365.50 1.532
365.60 1.531
365.70 1.53
365.80 1.528
365.90 1.527
366.00 1.526
366.10 1.525
366.20 1.524
366.30 1.523
366.40 1.522
366.50 1.521
366.60 1.52
366.70 1.519
366.80 1.518
366.90 1.517
367.00 1.516
367.10 1.515
367.20 1.514
367.30 1.513
367.40 1.512
367.50 1.511
367.60 1.51
367.70 1.509
367.80 1.508
367.90 1.507
368.00 1.506
368.10 1.505
368.20 1.504
368.30 1.503
368.40 1.502
368.50 1.501
368.60 1.5
368.70 1.499
368.80 1.498
368.90 1.497
369.00 1.496
369.10 1.495
369.20 1.494
369.30 1.493
369.40 1.492
369.50 1.491
369.60 1.49
369.70 1.489
369.80 1.488
369.90 1.487
370.00 1.486
370.10 1.485
370.20 1.484
370.30 1.483
370.40 1.482
370.50 1.481
370.60 1.481
370.70 1.48
370.80 1.479
370.90 1.478
371.00 1.477
371.10 1.476
371.20 1.475
371.30 1.474
371.40 1.473
371.50 1.473
371.60 1.472
371.70 1.471
371.80 1.47
371.90 1.469
372.00 1.468
372.10 1.468
372.20 1.467
372.30 1.466
372.40 1.466
372.50 1.465
372.60 1.464
372.70 1.464
372.80 1.463
372.90 1.462
373.00 1.462
373.10 1.461
373.20 1.461
373.30 1.46
373.40 1.459
373.50 1.459
373.60 1.458
373.70 1.457
373.80 1.457
373.90 1.456
374.00 1.455
374.10 1.455
374.20 1.455
374.30 1.454
374.40 1.454
374.50 1.453
374.60 1.453
374.70 1.452
374.80 1.452
374.90 1.452
375.00 1.451
375.10 1.451
375.20 1.45
375.30 1.45
375.40 1.449
375.50 1.449
375.60 1.449
375.70 1.448
375.80 1.448
375.90 1.447
376.00 1.447
376.10 1.446
376.20 1.446
376.30 1.445
376.40 1.445
376.50 1.445
376.60 1.444
376.70 1.444
376.80 1.443
376.90 1.443
377.00 1.442
377.10 1.441
377.20 1.441
377.30 1.44
377.40 1.439
377.50 1.438
377.60 1.437
377.70 1.437
377.80 1.436
377.90 1.435
378.00 1.434
378.10 1.432
378.20 1.431
378.30 1.429
378.40 1.427
378.50 1.425
378.60 1.423
378.70 1.421
378.80 1.419
378.90 1.418
379.00 1.416
379.10 1.415
379.20 1.413
379.30 1.412
379.40 1.411
379.50 1.41
379.60 1.408
379.70 1.407
379.80 1.406
379.90 1.404
380.00 1.403
380.10 1.404
380.20 1.405
380.30 1.406
380.40 1.407
380.50 1.408
380.60 1.409
380.70 1.41
380.80 1.411
380.90 1.412
381.00 1.413
381.10 1.413
381.20 1.413
381.30 1.413
381.40 1.413
381.50 1.413
381.60 1.412
381.70 1.411
381.80 1.41
381.90 1.408
382.00 1.407
382.10 1.404
382.20 1.402
382.30 1.398
382.40 1.394
382.50 1.39
382.60 1.386
382.70 1.382
382.80 1.377
382.90 1.373
383.00 1.369
383.10 1.365
383.20 1.361
383.30 1.359
383.40 1.356
383.50 1.353
383.60 1.353
383.70 1.356
383.80 1.359
383.90 1.361
384.00 1.365
384.10 1.37
384.20 1.375
384.30 1.379
384.40 1.384
384.50 1.389
384.60 1.392
384.70 1.396
384.80 1.399
384.90 1.401
385.00 1.403
385.10 1.405
385.20 1.406
385.30 1.407
385.40 1.408
385.50 1.408
385.60 1.408
385.70 1.408
385.80 1.408
385.90 1.407
386.00 1.406
386.10 1.405
386.20 1.404
386.30 1.402
386.40 1.4
386.50 1.398
386.60 1.395
386.70 1.392
386.80 1.389
386.90 1.386
387.00 1.382
387.10 1.378
387.20 1.374
387.30 1.369
387.40 1.364
387.50 1.358
387.60 1.352
387.70 1.346
387.80 1.339
387.90 1.331
388.00 1.323
388.10 1.313
388.20 1.303
388.30 1.292
388.40 1.28
388.50 1.27
388.60 1.261
388.70 1.255
388.80 1.25
388.90 1.246
389.00 1.249
389.10 1.254
389.20 1.26
389.30 1.269
389.40 1.28
389.50 1.292
389.60 1.303
389.70 1.313
389.80 1.323
389.90 1.332
390.00 1.34
390.10 1.348
390.20 1.354
390.30 1.361
390.40 1.367
390.50 1.372
390.60 1.377
390.70 1.382
390.80 1.386
390.90 1.391
391.00 1.394
391.10 1.398
391.20 1.401
391.30 1.404
391.40 1.407
391.50 1.409
391.60 1.411
391.70 1.413
391.80 1.414
391.90 1.415
392.00 1.416
392.10 1.417
392.20 1.417
392.30 1.417
392.40 1.417
392.50 1.416
392.60 1.415
392.70 1.414
392.80 1.413
392.90 1.411
393.00 1.409
393.10 1.407
393.20 1.404
393.30 1.401
393.40 1.398
393.50 1.394
393.60 1.39
393.70 1.386
393.80 1.382
393.90 1.377
394.00 1.372
394.10 1.366
394.20 1.36
394.30 1.354
394.40 1.347
394.50 1.34
394.60 1.333
394.70 1.325
394.80 1.317
394.90 1.308
395.00 1.299
395.10 1.289
395.20 1.279
395.30 1.269
395.40 1.258
395.50 1.247
395.60 1.235
395.70 1.223
395.80 1.21
395.90 1.197
396.00 1.182
396.10 1.168
396.20 1.152
396.30 1.134
396.40 1.116
396.50 1.093
396.60 1.07
396.70 1.047
396.80 1.029
396.90 1.013
397.00 0.9971
397.10 1.012
397.20 1.027
397.30 1.043
397.40 1.066
397.50 1.088
397.60 1.111
397.70 1.129
397.80 1.147
397.90 1.163
398.00 1.177
398.10 1.191
398.20 1.205
398.30 1.218
398.40 1.23
398.50 1.242
398.60 1.253
398.70 1.264
398.80 1.275
398.90 1.285
399.00 1.295
399.10 1.305
399.20 1.314
399.30 1.322
399.40 1.331
399.50 1.339
399.60 1.346
399.70 1.354
399.80 1.361
399.90 1.368
400.00 1.374
400.10 1.38
400.20 1.386
400.30 1.392
400.40 1.397
400.50 1.403
400.60 1.407
400.70 1.412
400.80 1.416
400.90 1.421
401.00 1.425
401.10 1.428
401.20 1.432
401.30 1.435
401.40 1.438
401.50 1.441
401.60 1.443
401.70 1.446
401.80 1.448
401.90 1.45
402.00 1.452
402.10 1.453
402.20 1.455
402.30 1.456
402.40 1.457
402.50 1.458
402.60 1.458
402.70 1.458
402.80 1.459
402.90 1.459
403.00 1.458
403.10 1.458
403.20 1.457
403.30 1.456
403.40 1.455
403.50 1.454
403.60 1.452
403.70 1.451
403.80 1.449
403.90 1.447
404.00 1.444
404.10 1.442
404.20 1.439
404.30 1.436
404.40 1.433
404.50 1.429
404.60 1.426
404.70 1.422
404.80 1.418
404.90 1.413
405.00 1.409
405.10 1.404
405.20 1.399
405.30 1.394
405.40 1.389
405.50 1.383
405.60 1.377
405.70 1.371
405.80 1.365
405.90 1.358
406.00 1.351
406.10 1.344
406.20 1.337
406.30 1.329
406.40 1.321
406.50 1.313
406.60 1.305
406.70 1.296
406.80 1.287
406.90 1.278
407.00 1.268
407.10 1.258
407.20 1.248
407.30 1.237
407.40 1.226
407.50 1.215
407.60 1.203
407.70 1.191
407.80 1.179
407.90 1.166
408.00 1.153
408.10 1.139
408.20 1.125
408.30 1.11
408.40 1.095
408.50 1.079
408.60 1.063
408.70 1.047
408.80 1.03
408.90 1.013
409.00 0.9954
409.10 0.9772
409.20 0.9586
409.30 0.9396
409.40 0.9197
409.50 0.8988
409.60 0.8769
409.70 0.8516
409.80 0.8249
409.90 0.7967
410.00 0.774
410.10 0.7581
410.20 0.749
410.30 0.7645
410.40 0.7848
410.50 0.81
410.60 0.8369
410.70 0.8619
410.80 0.8851
410.90 0.9054
411.00 0.9248
411.10 0.9435
411.20 0.9613
411.30 0.9787
411.40 0.9958
411.50 1.012
411.60 1.028
411.70 1.044
411.80 1.059
411.90 1.074
412.00 1.088
412.10 1.102
412.20 1.116
412.30 1.129
412.40 1.141
412.50 1.153
412.60 1.165
412.70 1.177
412.80 1.188
412.90 1.198
413.00 1.208
413.10 1.218
413.20 1.228
413.30 1.238
413.40 1.247
413.50 1.255
413.60 1.264
413.70 1.272
413.80 1.28
413.90 1.288
414.00 1.296
414.10 1.303
414.20 1.31
414.30 1.317
414.40 1.324
414.50 1.331
414.60 1.337
414.70 1.343
414.80 1.349
414.90 1.355
415.00 1.361
415.10 1.366
415.20 1.372
415.30 1.377
415.40 1.382
415.50 1.387
415.60 1.392
415.70 1.397
415.80 1.401
415.90 1.406
416.00 1.41
416.10 1.414
416.20 1.418
416.30 1.422
416.40 1.425
416.50 1.429
416.60 1.432
416.70 1.436
416.80 1.439
416.90 1.442
417.00 1.445
417.10 1.448
417.20 1.451
417.30 1.453
417.40 1.456
417.50 1.458
417.60 1.461
417.70 1.463
417.80 1.465
417.90 1.467
418.00 1.469
418.10 1.471
418.20 1.473
418.30 1.474
418.40 1.476
418.50 1.478
418.60 1.479
418.70 1.48
418.80 1.482
418.90 1.483
419.00 1.484
419.10 1.485
419.20 1.486
419.30 1.487
419.40 1.488
419.50 1.489
419.60 1.49
419.70 1.49
419.80 1.491
419.90 1.491
420.00 1.492
420.10 1.492
420.20 1.492
420.30 1.493
420.40 1.493
420.50 1.493
420.60 1.493
420.70 1.493
420.80 1.493
420.90 1.493
421.00 1.492
421.10 1.492
421.20 1.492
421.30 1.491
421.40 1.491
421.50 1.49
421.60 1.489
421.70 1.489
421.80 1.488
421.90 1.487
422.00 1.486
422.10 1.485
422.20 1.484
422.30 1.483
422.40 1.482
422.50 1.481
422.60 1.48
422.70 1.478
422.80 1.477
422.90 1.475
423.00 1.474
423.10 1.472
423.20 1.471
423.30 1.469
423.40 1.467
423.50 1.465
423.60 1.463
423.70 1.461
423.80 1.459
423.90 1.457
424.00 1.455
424.10 1.453
424.20 1.45
424.30 1.448
424.40 1.445
424.50 1.443
424.60 1.44
424.70 1.438
424.80 1.435
424.90 1.432
425.00 1.429
425.10 1.426
425.20 1.423
425.30 1.42
425.40 1.417
425.50 1.413
425.60 1.41
425.70 1.407
425.80 1.403
425.90 1.4
426.00 1.396
426.10 1.392
426.20 1.387
426.30 1.383
426.40 1.379
426.50 1.375
426.60 1.371
426.70 1.367
426.80 1.362
426.90 1.358
427.00 1.353
427.10 1.349
427.20 1.344
427.30 1.339
427.40 1.334
427.50 1.329
427.60 1.324
427.70 1.319
427.80 1.313
427.90 1.308
428.00 1.302
428.10 1.297
428.20 1.291
428.30 1.285
428.40 1.279
428.50 1.273
428.60 1.266
428.70 1.26
428.80 1.253
428.90 1.246
429.00 1.24
429.10 1.233
429.20 1.226
429.30 1.218
429.40 1.211
429.50 1.203
429.60 1.196
429.70 1.188
429.80 1.18
429.90 1.172
430.00 1.163
430.10 1.155
430.20 1.146
430.30 1.137
430.40 1.128
430.50 1.119
430.60 1.109
430.70 1.1
430.80 1.09
430.90 1.08
431.00 1.069
431.10 1.059
431.20 1.048
431.30 1.036
431.40 1.025
431.50 1.013
431.60 1.001
431.70 0.9889
431.80 0.9763
431.90 0.9632
432.00 0.9497
432.10 0.936
432.20 0.9215
432.30 0.9067
432.40 0.8915
432.50 0.8755
432.60 0.8591
432.70 0.8422
432.80 0.8245
432.90 0.8067
433.00 0.7888
433.10 0.7711
433.20 0.7537
433.30 0.7364
433.40 0.719
433.50 0.7008
433.60 0.6818
433.70 0.6576
433.80 0.629
433.90 0.5961
434.00 0.5569
434.10 0.5577
434.20 0.5983
434.30 0.6303
434.40 0.6579
434.50 0.6812
434.60 0.6994
434.70 0.7168
434.80 0.7336
434.90 0.7501
435.00 0.7668
435.10 0.7837
435.20 0.8008
435.30 0.8176
435.40 0.8343
435.50 0.8502
435.60 0.8656
435.70 0.8805
435.80 0.8946
435.90 0.9083
436.00 0.9216
436.10 0.9342
436.20 0.9465
436.30 0.9584
436.40 0.9698
436.50 0.9809
436.60 0.9918
436.70 1.002
436.80 1.012
436.90 1.022
437.00 1.032
437.10 1.041
437.20 1.05
437.30 1.059
437.40 1.067
437.50 1.076
437.60 1.084
437.70 1.092
437.80 1.099
437.90 1.107
438.00 1.114
438.10 1.121
438.20 1.128
438.30 1.135
438.40 1.141
438.50 1.148
438.60 1.154
438.70 1.16
438.80 1.166
438.90 1.172
439.00 1.178
439.10 1.183
439.20 1.189
439.30 1.194
439.40 1.199
439.50 1.204
439.60 1.209
439.70 1.214
439.80 1.218
439.90 1.223
440.00 1.227
440.10 1.231
440.20 1.236
440.30 1.24
440.40 1.244
440.50 1.248
440.60 1.251
440.70 1.255
440.80 1.259
440.90 1.262
441.00 1.265
441.10 1.269
441.20 1.272
441.30 1.275
441.40 1.278
441.50 1.281
441.60 1.284
441.70 1.287
441.80 1.29
441.90 1.292
442.00 1.295
442.10 1.297
442.20 1.3
442.30 1.302
442.40 1.305
442.50 1.307
442.60 1.309
442.70 1.311
442.80 1.313
442.90 1.315
443.00 1.317
443.10 1.319
443.20 1.321
443.30 1.323
443.40 1.325
443.50 1.326
443.60 1.328
443.70 1.33
443.80 1.331
443.90 1.333
444.00 1.334
444.10 1.336
444.20 1.337
444.30 1.339
444.40 1.34
444.50 1.341
444.60 1.342
444.70 1.344
444.80 1.345
444.90 1.346
445.00 1.347
445.10 1.348
445.20 1.349
445.30 1.35
445.40 1.351
445.50 1.352
445.60 1.352
445.70 1.353
445.80 1.354
445.90 1.355
446.00 1.356
446.10 1.356
446.20 1.357
446.30 1.358
446.40 1.358
446.50 1.359
446.60 1.359
446.70 1.36
446.80 1.36
446.90 1.361
447.00 1.361
447.10 1.362
447.20 1.362
447.30 1.362
447.40 1.363
447.50 1.363
447.60 1.363
447.70 1.364
447.80 1.364
447.90 1.364
448.00 1.364
448.10 1.365
448.20 1.365
448.30 1.365
448.40 1.365
448.50 1.365
448.60 1.365
448.70 1.365
448.80 1.366
448.90 1.366
449.00 1.366
449.10 1.366
449.20 1.366
449.30 1.366
449.40 1.366
449.50 1.366
449.60 1.366
449.70 1.366
449.80 1.366
449.90 1.366
450.00 1.365
450.10 1.365
450.20 1.365
450.30 1.365
450.40 1.365
450.50 1.365
450.60 1.365
450.70 1.364
450.80 1.364
450.90 1.364
451.00 1.364
451.10 1.363
451.20 1.363
451.30 1.363
451.40 1.362
451.50 1.362
451.60 1.362
451.70 1.362
451.80 1.361
451.90 1.361
452.00 1.361
452.10 1.36
452.20 1.36
452.30 1.359
452.40 1.359
452.50 1.359
452.60 1.358
452.70 1.358
452.80 1.357
452.90 1.357
453.00 1.356
453.10 1.356
453.20 1.356
453.30 1.355
453.40 1.355
