# Version 2.1 - nm, norm@500 to 1, cut digits, bergeron_130000_70.dat_130000
# Wavelength(nm)  Flambda(ergs/cm^s/s/nm)
300.00 6.999
300.10 6.99
300.20 6.981
300.30 6.972
300.40 6.964
300.50 6.955
300.60 6.946
300.70 6.937
300.80 6.928
300.90 6.92
301.00 6.911
301.10 6.902
301.20 6.893
301.30 6.885
301.40 6.876
301.50 6.867
301.60 6.859
301.70 6.85
301.80 6.841
301.90 6.833
302.00 6.824
302.10 6.815
302.20 6.807
302.30 6.798
302.40 6.79
302.50 6.781
302.60 6.773
302.70 6.764
302.80 6.756
302.90 6.747
303.00 6.739
303.10 6.73
303.20 6.722
303.30 6.713
303.40 6.705
303.50 6.696
303.60 6.688
303.70 6.68
303.80 6.671
303.90 6.663
304.00 6.655
304.10 6.646
304.20 6.638
304.30 6.63
304.40 6.621
304.50 6.613
304.60 6.605
304.70 6.597
304.80 6.588
304.90 6.58
305.00 6.572
305.10 6.564
305.20 6.555
305.30 6.547
305.40 6.539
305.50 6.531
305.60 6.523
305.70 6.515
305.80 6.507
305.90 6.498
306.00 6.49
306.10 6.482
306.20 6.474
306.30 6.466
306.40 6.458
306.50 6.45
306.60 6.442
306.70 6.434
306.80 6.426
306.90 6.418
307.00 6.41
307.10 6.402
307.20 6.394
307.30 6.386
307.40 6.378
307.50 6.37
307.60 6.363
307.70 6.355
307.80 6.347
307.90 6.339
308.00 6.331
308.10 6.323
308.20 6.315
308.30 6.308
308.40 6.3
308.50 6.292
308.60 6.284
308.70 6.277
308.80 6.269
308.90 6.261
309.00 6.253
309.10 6.246
309.20 6.238
309.30 6.23
309.40 6.223
309.50 6.215
309.60 6.207
309.70 6.2
309.80 6.192
309.90 6.184
310.00 6.177
310.10 6.169
310.20 6.162
310.30 6.154
310.40 6.146
310.50 6.139
310.60 6.131
310.70 6.124
310.80 6.116
310.90 6.109
311.00 6.101
311.10 6.094
311.20 6.086
311.30 6.079
311.40 6.071
311.50 6.064
311.60 6.057
311.70 6.049
311.80 6.042
311.90 6.034
312.00 6.027
312.10 6.02
312.20 6.012
312.30 6.005
312.40 5.998
312.50 5.99
312.60 5.983
312.70 5.976
312.80 5.968
312.90 5.961
313.00 5.954
313.10 5.947
313.20 5.939
313.30 5.932
313.40 5.925
313.50 5.918
313.60 5.911
313.70 5.903
313.80 5.896
313.90 5.889
314.00 5.882
314.10 5.875
314.20 5.868
314.30 5.86
314.40 5.853
314.50 5.846
314.60 5.839
314.70 5.832
314.80 5.825
314.90 5.818
315.00 5.811
315.10 5.804
315.20 5.797
315.30 5.79
315.40 5.783
315.50 5.776
315.60 5.769
315.70 5.762
315.80 5.755
315.90 5.748
316.00 5.741
316.10 5.734
316.20 5.727
316.30 5.72
316.40 5.713
316.50 5.707
316.60 5.7
316.70 5.693
316.80 5.686
316.90 5.679
317.00 5.672
317.10 5.665
317.20 5.659
317.30 5.652
317.40 5.645
317.50 5.638
317.60 5.631
317.70 5.625
317.80 5.618
317.90 5.611
318.00 5.604
318.10 5.598
318.20 5.591
318.30 5.584
318.40 5.578
318.50 5.571
318.60 5.564
318.70 5.558
318.80 5.551
318.90 5.544
319.00 5.538
319.10 5.531
319.20 5.524
319.30 5.518
319.40 5.511
319.50 5.505
319.60 5.498
319.70 5.492
319.80 5.485
319.90 5.478
320.00 5.472
320.10 5.465
320.20 5.459
320.30 5.452
320.40 5.446
320.50 5.439
320.60 5.433
320.70 5.426
320.80 5.42
320.90 5.414
321.00 5.407
321.10 5.401
321.20 5.394
321.30 5.388
321.40 5.381
321.50 5.375
321.60 5.369
321.70 5.362
321.80 5.356
321.90 5.35
322.00 5.343
322.10 5.337
322.20 5.331
322.30 5.324
322.40 5.318
322.50 5.312
322.60 5.305
322.70 5.299
322.80 5.293
322.90 5.287
323.00 5.28
323.10 5.274
323.20 5.268
323.30 5.262
323.40 5.255
323.50 5.249
323.60 5.243
323.70 5.237
323.80 5.231
323.90 5.225
324.00 5.218
324.10 5.212
324.20 5.206
324.30 5.2
324.40 5.194
324.50 5.188
324.60 5.182
324.70 5.176
324.80 5.169
324.90 5.163
325.00 5.157
325.10 5.151
325.20 5.145
325.30 5.139
325.40 5.133
325.50 5.127
325.60 5.121
325.70 5.115
325.80 5.109
325.90 5.103
326.00 5.097
326.10 5.091
326.20 5.085
326.30 5.079
326.40 5.073
326.50 5.067
326.60 5.061
326.70 5.056
326.80 5.05
326.90 5.044
327.00 5.038
327.10 5.032
327.20 5.026
327.30 5.02
327.40 5.014
327.50 5.008
327.60 5.003
327.70 4.997
327.80 4.991
327.90 4.985
328.00 4.979
328.10 4.974
328.20 4.968
328.30 4.962
328.40 4.956
328.50 4.95
328.60 4.945
328.70 4.939
328.80 4.933
328.90 4.928
329.00 4.922
329.10 4.916
329.20 4.91
329.30 4.905
329.40 4.899
329.50 4.893
329.60 4.888
329.70 4.882
329.80 4.876
329.90 4.871
330.00 4.865
330.10 4.859
330.20 4.854
330.30 4.848
330.40 4.843
330.50 4.837
330.60 4.831
330.70 4.826
330.80 4.82
330.90 4.815
331.00 4.809
331.10 4.804
331.20 4.798
331.30 4.793
331.40 4.787
331.50 4.781
331.60 4.776
331.70 4.77
331.80 4.765
331.90 4.759
332.00 4.754
332.10 4.748
332.20 4.743
332.30 4.738
332.40 4.732
332.50 4.727
332.60 4.721
332.70 4.716
332.80 4.71
332.90 4.705
333.00 4.7
333.10 4.694
333.20 4.689
333.30 4.683
333.40 4.678
333.50 4.673
333.60 4.667
333.70 4.662
333.80 4.657
333.90 4.651
334.00 4.646
334.10 4.641
334.20 4.635
334.30 4.63
334.40 4.625
334.50 4.62
334.60 4.614
334.70 4.609
334.80 4.604
334.90 4.599
335.00 4.593
335.10 4.588
335.20 4.583
335.30 4.578
335.40 4.572
335.50 4.567
335.60 4.562
335.70 4.557
335.80 4.551
335.90 4.546
336.00 4.541
336.10 4.536
336.20 4.531
336.30 4.526
336.40 4.521
336.50 4.515
336.60 4.51
336.70 4.505
336.80 4.5
336.90 4.495
337.00 4.49
337.10 4.485
337.20 4.48
337.30 4.475
337.40 4.47
337.50 4.464
337.60 4.459
337.70 4.454
337.80 4.449
337.90 4.444
338.00 4.439
338.10 4.434
338.20 4.429
338.30 4.424
338.40 4.419
338.50 4.414
338.60 4.409
338.70 4.404
338.80 4.399
338.90 4.394
339.00 4.389
339.10 4.384
339.20 4.379
339.30 4.375
339.40 4.37
339.50 4.365
339.60 4.36
339.70 4.355
339.80 4.35
339.90 4.345
340.00 4.34
340.10 4.335
340.20 4.33
340.30 4.326
340.40 4.321
340.50 4.316
340.60 4.311
340.70 4.306
340.80 4.301
340.90 4.297
341.00 4.292
341.10 4.287
341.20 4.282
341.30 4.277
341.40 4.272
341.50 4.268
341.60 4.263
341.70 4.258
341.80 4.253
341.90 4.249
342.00 4.244
342.10 4.239
342.20 4.234
342.30 4.23
342.40 4.225
342.50 4.22
342.60 4.215
342.70 4.211
342.80 4.206
342.90 4.201
343.00 4.197
343.10 4.192
343.20 4.187
343.30 4.183
343.40 4.178
343.50 4.173
343.60 4.169
343.70 4.164
343.80 4.159
343.90 4.155
344.00 4.15
344.10 4.146
344.20 4.141
344.30 4.136
344.40 4.132
344.50 4.127
344.60 4.123
344.70 4.118
344.80 4.113
344.90 4.109
345.00 4.104
345.10 4.1
345.20 4.095
345.30 4.091
345.40 4.086
345.50 4.082
345.60 4.077
345.70 4.073
345.80 4.068
345.90 4.064
346.00 4.059
346.10 4.055
346.20 4.05
346.30 4.046
346.40 4.041
346.50 4.037
346.60 4.032
346.70 4.028
346.80 4.023
346.90 4.019
347.00 4.015
347.10 4.01
347.20 4.006
347.30 4.001
347.40 3.997
347.50 3.992
347.60 3.988
347.70 3.984
347.80 3.979
347.90 3.975
348.00 3.97
348.10 3.966
348.20 3.962
348.30 3.957
348.40 3.953
348.50 3.949
348.60 3.944
348.70 3.94
348.80 3.936
348.90 3.931
349.00 3.927
349.10 3.923
349.20 3.919
349.30 3.914
349.40 3.91
349.50 3.906
349.60 3.901
349.70 3.897
349.80 3.893
349.90 3.889
350.00 3.884
350.10 3.88
350.20 3.876
350.30 3.872
350.40 3.867
350.50 3.863
350.60 3.859
350.70 3.855
350.80 3.851
350.90 3.846
351.00 3.842
351.10 3.838
351.20 3.834
351.30 3.83
351.40 3.825
351.50 3.821
351.60 3.817
351.70 3.813
351.80 3.809
351.90 3.805
352.00 3.8
352.10 3.796
352.20 3.792
352.30 3.788
352.40 3.784
352.50 3.78
352.60 3.776
352.70 3.772
352.80 3.768
352.90 3.763
353.00 3.759
353.10 3.755
353.20 3.751
353.30 3.747
353.40 3.743
353.50 3.739
353.60 3.735
353.70 3.731
353.80 3.727
353.90 3.723
354.00 3.719
354.10 3.715
354.20 3.711
354.30 3.707
354.40 3.703
354.50 3.699
354.60 3.695
354.70 3.691
354.80 3.687
354.90 3.683
355.00 3.679
355.10 3.675
355.20 3.671
355.30 3.667
355.40 3.663
355.50 3.659
355.60 3.655
355.70 3.651
355.80 3.647
355.90 3.643
356.00 3.639
356.10 3.635
356.20 3.632
356.30 3.628
356.40 3.624
356.50 3.62
356.60 3.616
356.70 3.612
356.80 3.608
356.90 3.604
357.00 3.601
357.10 3.597
357.20 3.593
357.30 3.589
357.40 3.585
357.50 3.581
357.60 3.577
357.70 3.574
357.80 3.57
357.90 3.566
358.00 3.562
358.10 3.558
358.20 3.554
358.30 3.551
358.40 3.547
358.50 3.543
358.60 3.539
358.70 3.536
358.80 3.532
358.90 3.528
359.00 3.524
359.10 3.52
359.20 3.517
359.30 3.513
359.40 3.509
359.50 3.505
359.60 3.502
359.70 3.498
359.80 3.494
359.90 3.491
360.00 3.487
360.10 3.483
360.20 3.479
360.30 3.476
360.40 3.472
360.50 3.468
360.60 3.465
360.70 3.461
360.80 3.457
360.90 3.454
361.00 3.45
361.10 3.446
361.20 3.443
361.30 3.439
361.40 3.435
361.50 3.432
361.60 3.428
361.70 3.424
361.80 3.421
361.90 3.417
362.00 3.414
362.10 3.41
362.20 3.406
362.30 3.403
362.40 3.399
362.50 3.396
362.60 3.392
362.70 3.388
362.80 3.385
362.90 3.381
363.00 3.378
363.10 3.374
363.20 3.371
363.30 3.367
363.40 3.363
363.50 3.36
363.60 3.356
363.70 3.353
363.80 3.349
363.90 3.346
364.00 3.342
364.10 3.339
364.20 3.335
364.30 3.332
364.40 3.328
364.50 3.325
364.60 3.321
364.70 3.318
364.80 3.314
364.90 3.311
365.00 3.307
365.10 3.304
365.20 3.3
365.30 3.297
365.40 3.293
365.50 3.29
365.60 3.286
365.70 3.283
365.80 3.28
365.90 3.276
366.00 3.273
366.10 3.269
366.20 3.266
366.30 3.262
366.40 3.259
366.50 3.255
366.60 3.252
366.70 3.249
366.80 3.245
366.90 3.242
367.00 3.238
367.10 3.235
367.20 3.231
367.30 3.228
367.40 3.225
367.50 3.221
367.60 3.218
367.70 3.214
367.80 3.211
367.90 3.208
368.00 3.204
368.10 3.201
368.20 3.197
368.30 3.194
368.40 3.191
368.50 3.187
368.60 3.184
368.70 3.181
368.80 3.177
368.90 3.174
369.00 3.171
369.10 3.167
369.20 3.164
369.30 3.161
369.40 3.157
369.50 3.154
369.60 3.151
369.70 3.147
369.80 3.144
369.90 3.141
370.00 3.137
370.10 3.134
370.20 3.131
370.30 3.128
370.40 3.124
370.50 3.121
370.60 3.118
370.70 3.115
370.80 3.111
370.90 3.108
371.00 3.105
371.10 3.102
371.20 3.098
371.30 3.095
371.40 3.092
371.50 3.089
371.60 3.085
371.70 3.082
371.80 3.079
371.90 3.076
372.00 3.073
372.10 3.069
372.20 3.066
372.30 3.063
372.40 3.06
372.50 3.057
372.60 3.054
372.70 3.05
372.80 3.047
372.90 3.044
373.00 3.041
373.10 3.038
373.20 3.035
373.30 3.032
373.40 3.028
373.50 3.025
373.60 3.022
373.70 3.019
373.80 3.016
373.90 3.013
374.00 3.01
374.10 3.007
374.20 3.004
374.30 3
374.40 2.997
374.50 2.994
374.60 2.991
374.70 2.988
374.80 2.985
374.90 2.982
375.00 2.979
375.10 2.976
375.20 2.973
375.30 2.97
375.40 2.967
375.50 2.964
375.60 2.961
375.70 2.958
375.80 2.955
375.90 2.952
376.00 2.949
376.10 2.946
376.20 2.943
376.30 2.94
376.40 2.937
376.50 2.934
376.60 2.931
376.70 2.928
376.80 2.925
376.90 2.922
377.00 2.919
377.10 2.916
377.20 2.913
377.30 2.91
377.40 2.908
377.50 2.905
377.60 2.902
377.70 2.899
377.80 2.896
377.90 2.893
378.00 2.891
378.10 2.888
378.20 2.885
378.30 2.882
378.40 2.879
378.50 2.876
378.60 2.873
378.70 2.87
378.80 2.867
378.90 2.864
379.00 2.861
379.10 2.858
379.20 2.855
379.30 2.853
379.40 2.85
379.50 2.847
379.60 2.844
379.70 2.841
379.80 2.838
379.90 2.835
380.00 2.832
380.10 2.83
380.20 2.827
380.30 2.825
380.40 2.822
380.50 2.82
380.60 2.817
380.70 2.815
380.80 2.812
380.90 2.81
381.00 2.807
381.10 2.804
381.20 2.802
381.30 2.799
381.40 2.796
381.50 2.794
381.60 2.791
381.70 2.788
381.80 2.785
381.90 2.782
382.00 2.779
382.10 2.776
382.20 2.773
382.30 2.77
382.40 2.766
382.50 2.763
382.60 2.76
382.70 2.756
382.80 2.753
382.90 2.75
383.00 2.746
383.10 2.743
383.20 2.74
383.30 2.736
383.40 2.733
383.50 2.73
383.60 2.728
383.70 2.726
383.80 2.724
383.90 2.722
384.00 2.72
384.10 2.719
384.20 2.717
384.30 2.715
384.40 2.713
384.50 2.712
384.60 2.71
384.70 2.708
384.80 2.706
384.90 2.704
385.00 2.702
385.10 2.699
385.20 2.697
385.30 2.695
385.40 2.693
385.50 2.69
385.60 2.688
385.70 2.685
385.80 2.683
385.90 2.68
386.00 2.677
386.10 2.675
386.20 2.672
386.30 2.669
386.40 2.666
386.50 2.663
386.60 2.66
386.70 2.657
386.80 2.653
386.90 2.65
387.00 2.647
387.10 2.643
387.20 2.64
387.30 2.636
387.40 2.632
387.50 2.628
387.60 2.624
387.70 2.62
387.80 2.616
387.90 2.612
388.00 2.608
388.10 2.603
388.20 2.599
388.30 2.594
388.40 2.59
388.50 2.585
388.60 2.581
388.70 2.576
388.80 2.573
388.90 2.571
389.00 2.568
389.10 2.567
389.20 2.566
389.30 2.566
389.40 2.566
389.50 2.565
389.60 2.565
389.70 2.565
389.80 2.564
389.90 2.564
390.00 2.563
390.10 2.563
390.20 2.562
390.30 2.561
390.40 2.56
390.50 2.559
390.60 2.558
390.70 2.557
390.80 2.556
390.90 2.554
391.00 2.553
391.10 2.551
391.20 2.55
391.30 2.548
391.40 2.546
391.50 2.545
391.60 2.543
391.70 2.541
391.80 2.539
391.90 2.537
392.00 2.535
392.10 2.533
392.20 2.531
392.30 2.529
392.40 2.526
392.50 2.524
392.60 2.522
392.70 2.519
392.80 2.517
392.90 2.514
393.00 2.512
393.10 2.509
393.20 2.506
393.30 2.504
393.40 2.501
393.50 2.498
393.60 2.495
393.70 2.492
393.80 2.489
393.90 2.486
394.00 2.483
394.10 2.479
394.20 2.476
394.30 2.473
394.40 2.469
394.50 2.466
394.60 2.462
394.70 2.458
394.80 2.454
394.90 2.45
395.00 2.446
395.10 2.441
395.20 2.437
395.30 2.432
395.40 2.428
395.50 2.423
395.60 2.418
395.70 2.412
395.80 2.407
395.90 2.401
396.00 2.395
396.10 2.389
396.20 2.383
396.30 2.376
396.40 2.37
396.50 2.363
396.60 2.355
396.70 2.348
396.80 2.34
396.90 2.333
397.00 2.326
397.10 2.328
397.20 2.331
397.30 2.334
397.40 2.337
397.50 2.34
397.60 2.342
397.70 2.345
397.80 2.347
397.90 2.349
398.00 2.35
398.10 2.352
398.20 2.353
398.30 2.354
398.40 2.355
398.50 2.355
398.60 2.356
398.70 2.356
398.80 2.356
398.90 2.356
399.00 2.356
399.10 2.355
399.20 2.355
399.30 2.354
399.40 2.354
399.50 2.353
399.60 2.352
399.70 2.351
399.80 2.35
399.90 2.349
400.00 2.348
400.10 2.347
400.20 2.345
400.30 2.344
400.40 2.342
400.50 2.341
400.60 2.339
400.70 2.338
400.80 2.336
400.90 2.335
401.00 2.333
401.10 2.331
401.20 2.329
401.30 2.328
401.40 2.326
401.50 2.324
401.60 2.322
401.70 2.32
401.80 2.318
401.90 2.316
402.00 2.314
402.10 2.312
402.20 2.31
402.30 2.308
402.40 2.306
402.50 2.304
402.60 2.302
402.70 2.3
402.80 2.298
402.90 2.296
403.00 2.294
403.10 2.292
403.20 2.29
403.30 2.288
403.40 2.285
403.50 2.283
403.60 2.281
403.70 2.279
403.80 2.277
403.90 2.274
404.00 2.272
404.10 2.27
404.20 2.268
404.30 2.265
404.40 2.263
404.50 2.261
404.60 2.259
404.70 2.256
404.80 2.254
404.90 2.252
405.00 2.249
405.10 2.247
405.20 2.244
405.30 2.242
405.40 2.24
405.50 2.237
405.60 2.235
405.70 2.232
405.80 2.229
405.90 2.227
406.00 2.224
406.10 2.222
406.20 2.219
406.30 2.216
406.40 2.213
406.50 2.21
406.60 2.208
406.70 2.205
406.80 2.202
406.90 2.198
407.00 2.195
407.10 2.192
407.20 2.189
407.30 2.185
407.40 2.182
407.50 2.178
407.60 2.174
407.70 2.17
407.80 2.166
407.90 2.162
408.00 2.158
408.10 2.153
408.20 2.149
408.30 2.144
408.40 2.139
408.50 2.133
408.60 2.127
408.70 2.122
408.80 2.115
408.90 2.109
409.00 2.102
409.10 2.094
409.20 2.087
409.30 2.079
409.40 2.07
409.50 2.061
409.60 2.051
409.70 2.04
409.80 2.029
409.90 2.017
410.00 2.007
410.10 2.003
410.20 2.003
410.30 2.001
410.40 2.004
410.50 2.012
410.60 2.019
410.70 2.026
410.80 2.033
410.90 2.038
411.00 2.043
411.10 2.048
411.20 2.052
411.30 2.055
411.40 2.059
411.50 2.061
411.60 2.064
411.70 2.066
411.80 2.068
411.90 2.069
412.00 2.07
412.10 2.071
412.20 2.072
412.30 2.073
412.40 2.073
412.50 2.073
412.60 2.073
412.70 2.073
412.80 2.073
412.90 2.073
413.00 2.072
413.10 2.072
413.20 2.071
413.30 2.07
413.40 2.069
413.50 2.069
413.60 2.068
413.70 2.067
413.80 2.065
413.90 2.064
414.00 2.063
414.10 2.062
414.20 2.06
414.30 2.059
414.40 2.058
414.50 2.056
414.60 2.055
414.70 2.053
414.80 2.052
414.90 2.05
415.00 2.049
415.10 2.047
415.20 2.046
415.30 2.044
415.40 2.042
415.50 2.041
415.60 2.039
415.70 2.037
415.80 2.036
415.90 2.034
416.00 2.032
416.10 2.031
416.20 2.029
416.30 2.027
416.40 2.026
416.50 2.024
416.60 2.022
416.70 2.02
416.80 2.019
416.90 2.017
417.00 2.015
417.10 2.013
417.20 2.012
417.30 2.01
417.40 2.008
417.50 2.006
417.60 2.005
417.70 2.003
417.80 2.001
417.90 1.999
418.00 1.997
418.10 1.996
418.20 1.994
418.30 1.992
418.40 1.99
418.50 1.989
418.60 1.987
418.70 1.985
418.80 1.983
418.90 1.981
419.00 1.98
419.10 1.978
419.20 1.976
419.30 1.974
419.40 1.972
419.50 1.971
419.60 1.969
419.70 1.967
419.80 1.965
419.90 1.964
420.00 1.962
420.10 1.96
420.20 1.958
420.30 1.956
420.40 1.955
420.50 1.953
420.60 1.951
420.70 1.949
420.80 1.948
420.90 1.946
421.00 1.944
421.10 1.942
421.20 1.94
421.30 1.939
421.40 1.937
421.50 1.935
421.60 1.933
421.70 1.932
421.80 1.93
421.90 1.928
422.00 1.926
422.10 1.925
422.20 1.923
422.30 1.921
422.40 1.919
422.50 1.918
422.60 1.916
422.70 1.914
422.80 1.912
422.90 1.911
423.00 1.909
423.10 1.907
423.20 1.905
423.30 1.904
423.40 1.902
423.50 1.9
423.60 1.898
423.70 1.897
423.80 1.895
423.90 1.893
424.00 1.891
424.10 1.89
424.20 1.888
424.30 1.886
424.40 1.884
424.50 1.883
424.60 1.881
424.70 1.879
424.80 1.877
424.90 1.876
425.00 1.874
425.10 1.872
425.20 1.87
425.30 1.869
425.40 1.867
425.50 1.865
425.60 1.863
425.70 1.862
425.80 1.86
425.90 1.858
426.00 1.857
426.10 1.855
426.20 1.853
426.30 1.851
426.40 1.85
426.50 1.848
426.60 1.846
426.70 1.844
426.80 1.843
426.90 1.841
427.00 1.839
427.10 1.837
427.20 1.836
427.30 1.834
427.40 1.832
427.50 1.83
427.60 1.829
427.70 1.827
427.80 1.825
427.90 1.823
428.00 1.821
428.10 1.82
428.20 1.818
428.30 1.816
428.40 1.814
428.50 1.812
428.60 1.811
428.70 1.809
428.80 1.807
428.90 1.805
429.00 1.803
429.10 1.801
429.20 1.799
429.30 1.797
429.40 1.795
429.50 1.793
429.60 1.791
429.70 1.789
429.80 1.787
429.90 1.785
430.00 1.783
430.10 1.781
430.20 1.779
430.30 1.777
430.40 1.774
430.50 1.772
430.60 1.77
430.70 1.767
430.80 1.765
430.90 1.762
431.00 1.76
431.10 1.757
431.20 1.754
431.30 1.751
431.40 1.748
431.50 1.745
431.60 1.742
431.70 1.738
431.80 1.735
431.90 1.731
432.00 1.727
432.10 1.722
432.20 1.718
432.30 1.713
432.40 1.708
432.50 1.703
432.60 1.697
432.70 1.691
432.80 1.684
432.90 1.677
433.00 1.67
433.10 1.662
433.20 1.653
433.30 1.644
433.40 1.634
433.50 1.623
433.60 1.611
433.70 1.597
433.80 1.582
433.90 1.565
434.00 1.549
434.10 1.548
434.20 1.562
434.30 1.576
434.40 1.588
434.50 1.599
434.60 1.608
434.70 1.616
434.80 1.623
434.90 1.629
435.00 1.635
435.10 1.64
435.20 1.645
435.30 1.648
435.40 1.652
435.50 1.655
435.60 1.658
435.70 1.66
435.80 1.662
435.90 1.663
436.00 1.665
436.10 1.666
436.20 1.667
436.30 1.668
436.40 1.668
436.50 1.668
436.60 1.669
436.70 1.669
436.80 1.669
436.90 1.668
437.00 1.668
437.10 1.668
437.20 1.667
437.30 1.667
437.40 1.666
437.50 1.665
437.60 1.665
437.70 1.664
437.80 1.663
437.90 1.662
438.00 1.661
438.10 1.66
438.20 1.659
438.30 1.658
438.40 1.657
438.50 1.656
438.60 1.655
438.70 1.654
438.80 1.652
438.90 1.651
439.00 1.65
439.10 1.649
439.20 1.648
439.30 1.646
439.40 1.645
439.50 1.644
439.60 1.643
439.70 1.641
439.80 1.64
439.90 1.639
440.00 1.637
440.10 1.636
440.20 1.635
440.30 1.633
440.40 1.632
440.50 1.631
440.60 1.629
440.70 1.628
440.80 1.627
440.90 1.625
441.00 1.624
441.10 1.623
441.20 1.621
441.30 1.62
441.40 1.619
441.50 1.617
441.60 1.616
441.70 1.615
441.80 1.613
441.90 1.612
442.00 1.611
442.10 1.609
442.20 1.608
442.30 1.607
442.40 1.605
442.50 1.604
442.60 1.602
442.70 1.601
442.80 1.6
442.90 1.598
443.00 1.597
443.10 1.596
443.20 1.594
443.30 1.593
443.40 1.592
443.50 1.59
443.60 1.589
443.70 1.587
443.80 1.586
443.90 1.585
444.00 1.583
444.10 1.582
444.20 1.581
444.30 1.579
444.40 1.578
444.50 1.577
444.60 1.575
444.70 1.574
444.80 1.573
444.90 1.571
445.00 1.57
445.10 1.569
445.20 1.567
445.30 1.566
445.40 1.565
445.50 1.563
445.60 1.562
445.70 1.56
445.80 1.559
445.90 1.558
446.00 1.556
446.10 1.555
446.20 1.554
446.30 1.552
446.40 1.551
446.50 1.55
446.60 1.548
446.70 1.547
446.80 1.546
446.90 1.544
447.00 1.543
447.10 1.542
447.20 1.54
447.30 1.539
447.40 1.538
447.50 1.537
447.60 1.535
447.70 1.534
447.80 1.533
447.90 1.531
448.00 1.53
448.10 1.529
448.20 1.527
448.30 1.526
448.40 1.525
448.50 1.523
448.60 1.522
448.70 1.521
448.80 1.519
448.90 1.518
449.00 1.517
449.10 1.516
449.20 1.514
449.30 1.513
449.40 1.512
449.50 1.51
449.60 1.509
449.70 1.508
449.80 1.506
449.90 1.505
450.00 1.504
450.10 1.503
450.20 1.501
450.30 1.5
450.40 1.499
450.50 1.497
450.60 1.496
450.70 1.495
450.80 1.494
450.90 1.492
451.00 1.491
451.10 1.49
451.20 1.489
451.30 1.487
451.40 1.486
451.50 1.485
451.60 1.483
451.70 1.482
451.80 1.481
451.90 1.48
452.00 1.478
452.10 1.477
452.20 1.476
452.30 1.475
452.40 1.473
452.50 1.472
452.60 1.471
452.70 1.47
452.80 1.468
452.90 1.467
453.00 1.466
453.10 1.465
453.20 1.463
453.30 1.462
453.40 1.461
453.50 1.46
453.60 1.458
453.70 1.457
453.80 1.456
453.90 1.455
454.00 1.453
454.10 1.452
