# Version 2.1 - nm, norm@500 to 1, cut digits, bergeron_50000_85.dat_50000
# Wavelength(nm)  Flambda(ergs/cm^s/s/nm)
300.00 6.209
300.10 6.202
300.20 6.194
300.30 6.187
300.40 6.18
300.50 6.172
300.60 6.165
300.70 6.157
300.80 6.15
300.90 6.142
301.00 6.135
301.10 6.128
301.20 6.12
301.30 6.113
301.40 6.106
301.50 6.098
301.60 6.091
301.70 6.084
301.80 6.076
301.90 6.069
302.00 6.062
302.10 6.054
302.20 6.047
302.30 6.04
302.40 6.033
302.50 6.025
302.60 6.018
302.70 6.011
302.80 6.004
302.90 5.997
303.00 5.989
303.10 5.982
303.20 5.975
303.30 5.968
303.40 5.961
303.50 5.954
303.60 5.947
303.70 5.939
303.80 5.932
303.90 5.925
304.00 5.918
304.10 5.911
304.20 5.904
304.30 5.897
304.40 5.89
304.50 5.883
304.60 5.876
304.70 5.869
304.80 5.862
304.90 5.855
305.00 5.848
305.10 5.841
305.20 5.834
305.30 5.827
305.40 5.82
305.50 5.813
305.60 5.807
305.70 5.8
305.80 5.793
305.90 5.786
306.00 5.779
306.10 5.772
306.20 5.765
306.30 5.759
306.40 5.752
306.50 5.745
306.60 5.738
306.70 5.731
306.80 5.725
306.90 5.718
307.00 5.711
307.10 5.704
307.20 5.698
307.30 5.691
307.40 5.684
307.50 5.677
307.60 5.671
307.70 5.664
307.80 5.657
307.90 5.651
308.00 5.644
308.10 5.637
308.20 5.631
308.30 5.624
308.40 5.617
308.50 5.611
308.60 5.604
308.70 5.598
308.80 5.591
308.90 5.584
309.00 5.578
309.10 5.571
309.20 5.565
309.30 5.558
309.40 5.552
309.50 5.545
309.60 5.539
309.70 5.532
309.80 5.526
309.90 5.519
310.00 5.513
310.10 5.506
310.20 5.5
310.30 5.493
310.40 5.487
310.50 5.481
310.60 5.474
310.70 5.468
310.80 5.461
310.90 5.455
311.00 5.449
311.10 5.442
311.20 5.436
311.30 5.43
311.40 5.423
311.50 5.417
311.60 5.411
311.70 5.404
311.80 5.398
311.90 5.392
312.00 5.385
312.10 5.379
312.20 5.373
312.30 5.367
312.40 5.36
312.50 5.354
312.60 5.348
312.70 5.342
312.80 5.335
312.90 5.329
313.00 5.323
313.10 5.317
313.20 5.311
313.30 5.305
313.40 5.298
313.50 5.292
313.60 5.286
313.70 5.28
313.80 5.274
313.90 5.268
314.00 5.262
314.10 5.256
314.20 5.25
314.30 5.243
314.40 5.237
314.50 5.231
314.60 5.225
314.70 5.219
314.80 5.213
314.90 5.207
315.00 5.201
315.10 5.195
315.20 5.189
315.30 5.183
315.40 5.177
315.50 5.171
315.60 5.165
315.70 5.159
315.80 5.153
315.90 5.147
316.00 5.142
316.10 5.136
316.20 5.13
316.30 5.124
316.40 5.118
316.50 5.112
316.60 5.106
316.70 5.1
316.80 5.094
316.90 5.089
317.00 5.083
317.10 5.077
317.20 5.071
317.30 5.065
317.40 5.059
317.50 5.054
317.60 5.048
317.70 5.042
317.80 5.036
317.90 5.031
318.00 5.025
318.10 5.019
318.20 5.013
318.30 5.008
318.40 5.002
318.50 4.996
318.60 4.99
318.70 4.985
318.80 4.979
318.90 4.973
319.00 4.968
319.10 4.962
319.20 4.956
319.30 4.951
319.40 4.945
319.50 4.939
319.60 4.934
319.70 4.928
319.80 4.923
319.90 4.917
320.00 4.911
320.10 4.906
320.20 4.9
320.30 4.895
320.40 4.889
320.50 4.884
320.60 4.878
320.70 4.872
320.80 4.867
320.90 4.861
321.00 4.856
321.10 4.85
321.20 4.845
321.30 4.839
321.40 4.834
321.50 4.828
321.60 4.823
321.70 4.817
321.80 4.812
321.90 4.807
322.00 4.801
322.10 4.796
322.20 4.79
322.30 4.785
322.40 4.779
322.50 4.774
322.60 4.769
322.70 4.763
322.80 4.758
322.90 4.753
323.00 4.747
323.10 4.742
323.20 4.737
323.30 4.731
323.40 4.726
323.50 4.721
323.60 4.715
323.70 4.71
323.80 4.705
323.90 4.699
324.00 4.694
324.10 4.689
324.20 4.683
324.30 4.678
324.40 4.673
324.50 4.668
324.60 4.662
324.70 4.657
324.80 4.652
324.90 4.647
325.00 4.642
325.10 4.636
325.20 4.631
325.30 4.626
325.40 4.621
325.50 4.616
325.60 4.61
325.70 4.605
325.80 4.6
325.90 4.595
326.00 4.59
326.10 4.585
326.20 4.58
326.30 4.574
326.40 4.569
326.50 4.564
326.60 4.559
326.70 4.554
326.80 4.549
326.90 4.544
327.00 4.539
327.10 4.534
327.20 4.529
327.30 4.524
327.40 4.519
327.50 4.514
327.60 4.509
327.70 4.504
327.80 4.499
327.90 4.494
328.00 4.489
328.10 4.484
328.20 4.479
328.30 4.474
328.40 4.469
328.50 4.464
328.60 4.459
328.70 4.454
328.80 4.449
328.90 4.444
329.00 4.439
329.10 4.434
329.20 4.429
329.30 4.424
329.40 4.419
329.50 4.414
329.60 4.41
329.70 4.405
329.80 4.4
329.90 4.395
330.00 4.39
330.10 4.385
330.20 4.38
330.30 4.376
330.40 4.371
330.50 4.366
330.60 4.361
330.70 4.356
330.80 4.352
330.90 4.347
331.00 4.342
331.10 4.337
331.20 4.332
331.30 4.328
331.40 4.323
331.50 4.318
331.60 4.313
331.70 4.309
331.80 4.304
331.90 4.299
332.00 4.294
332.10 4.29
332.20 4.285
332.30 4.28
332.40 4.276
332.50 4.271
332.60 4.266
332.70 4.261
332.80 4.257
332.90 4.252
333.00 4.247
333.10 4.243
333.20 4.238
333.30 4.234
333.40 4.229
333.50 4.224
333.60 4.22
333.70 4.215
333.80 4.21
333.90 4.206
334.00 4.201
334.10 4.197
334.20 4.192
334.30 4.187
334.40 4.183
334.50 4.178
334.60 4.174
334.70 4.169
334.80 4.165
334.90 4.16
335.00 4.156
335.10 4.151
335.20 4.146
335.30 4.142
335.40 4.137
335.50 4.133
335.60 4.128
335.70 4.124
335.80 4.119
335.90 4.115
336.00 4.11
336.10 4.106
336.20 4.102
336.30 4.097
336.40 4.093
336.50 4.088
336.60 4.084
336.70 4.079
336.80 4.075
336.90 4.07
337.00 4.066
337.10 4.062
337.20 4.057
337.30 4.053
337.40 4.048
337.50 4.044
337.60 4.04
337.70 4.035
337.80 4.031
337.90 4.027
338.00 4.022
338.10 4.018
338.20 4.014
338.30 4.009
338.40 4.005
338.50 4.001
338.60 3.996
338.70 3.992
338.80 3.988
338.90 3.983
339.00 3.979
339.10 3.975
339.20 3.97
339.30 3.966
339.40 3.962
339.50 3.958
339.60 3.953
339.70 3.949
339.80 3.945
339.90 3.941
340.00 3.936
340.10 3.932
340.20 3.928
340.30 3.924
340.40 3.92
340.50 3.915
340.60 3.911
340.70 3.907
340.80 3.903
340.90 3.899
341.00 3.894
341.10 3.89
341.20 3.886
341.30 3.882
341.40 3.878
341.50 3.874
341.60 3.869
341.70 3.865
341.80 3.861
341.90 3.857
342.00 3.853
342.10 3.849
342.20 3.845
342.30 3.84
342.40 3.836
342.50 3.832
342.60 3.828
342.70 3.824
342.80 3.82
342.90 3.816
343.00 3.812
343.10 3.808
343.20 3.804
343.30 3.8
343.40 3.796
343.50 3.792
343.60 3.788
343.70 3.784
343.80 3.779
343.90 3.775
344.00 3.771
344.10 3.767
344.20 3.763
344.30 3.759
344.40 3.755
344.50 3.751
344.60 3.748
344.70 3.744
344.80 3.74
344.90 3.736
345.00 3.732
345.10 3.728
345.20 3.724
345.30 3.72
345.40 3.716
345.50 3.712
345.60 3.708
345.70 3.704
345.80 3.7
345.90 3.696
346.00 3.692
346.10 3.688
346.20 3.684
346.30 3.681
346.40 3.677
346.50 3.673
346.60 3.669
346.70 3.665
346.80 3.661
346.90 3.657
347.00 3.653
347.10 3.65
347.20 3.646
347.30 3.642
347.40 3.638
347.50 3.634
347.60 3.63
347.70 3.627
347.80 3.623
347.90 3.619
348.00 3.615
348.10 3.611
348.20 3.607
348.30 3.604
348.40 3.6
348.50 3.596
348.60 3.592
348.70 3.589
348.80 3.585
348.90 3.581
349.00 3.577
349.10 3.574
349.20 3.57
349.30 3.566
349.40 3.562
349.50 3.559
349.60 3.555
349.70 3.551
349.80 3.547
349.90 3.544
350.00 3.54
350.10 3.536
350.20 3.533
350.30 3.529
350.40 3.525
350.50 3.522
350.60 3.518
350.70 3.514
350.80 3.511
350.90 3.507
351.00 3.503
351.10 3.5
351.20 3.496
351.30 3.492
351.40 3.489
351.50 3.485
351.60 3.481
351.70 3.478
351.80 3.474
351.90 3.47
352.00 3.467
352.10 3.463
352.20 3.46
352.30 3.456
352.40 3.452
352.50 3.449
352.60 3.445
352.70 3.442
352.80 3.438
352.90 3.435
353.00 3.431
353.10 3.427
353.20 3.424
353.30 3.42
353.40 3.417
353.50 3.413
353.60 3.41
353.70 3.406
353.80 3.403
353.90 3.399
354.00 3.395
354.10 3.392
354.20 3.388
354.30 3.385
354.40 3.381
354.50 3.378
354.60 3.374
354.70 3.371
354.80 3.368
354.90 3.364
355.00 3.361
355.10 3.357
355.20 3.354
355.30 3.35
355.40 3.347
355.50 3.343
355.60 3.34
355.70 3.336
355.80 3.333
355.90 3.329
356.00 3.326
356.10 3.323
356.20 3.319
356.30 3.316
356.40 3.312
356.50 3.309
356.60 3.306
356.70 3.302
356.80 3.299
356.90 3.295
357.00 3.292
357.10 3.289
357.20 3.285
357.30 3.282
357.40 3.278
357.50 3.275
357.60 3.272
357.70 3.268
357.80 3.265
357.90 3.262
358.00 3.258
358.10 3.255
358.20 3.252
358.30 3.248
358.40 3.245
358.50 3.242
358.60 3.238
358.70 3.235
358.80 3.232
358.90 3.228
359.00 3.225
359.10 3.222
359.20 3.219
359.30 3.215
359.40 3.212
359.50 3.209
359.60 3.205
359.70 3.202
359.80 3.199
359.90 3.196
360.00 3.192
360.10 3.189
360.20 3.186
360.30 3.183
360.40 3.179
360.50 3.176
360.60 3.173
360.70 3.17
360.80 3.166
360.90 3.163
361.00 3.16
361.10 3.157
361.20 3.154
361.30 3.15
361.40 3.147
361.50 3.144
361.60 3.141
361.70 3.138
361.80 3.134
361.90 3.131
362.00 3.128
362.10 3.125
362.20 3.122
362.30 3.119
362.40 3.115
362.50 3.112
362.60 3.109
362.70 3.106
362.80 3.103
362.90 3.1
363.00 3.096
363.10 3.093
363.20 3.09
363.30 3.087
363.40 3.084
363.50 3.081
363.60 3.078
363.70 3.075
363.80 3.072
363.90 3.068
364.00 3.065
364.10 3.062
364.20 3.059
364.30 3.056
364.40 3.053
364.50 3.05
364.60 3.047
364.70 3.044
364.80 3.041
364.90 3.038
365.00 3.035
365.10 3.032
365.20 3.029
365.30 3.025
365.40 3.022
365.50 3.019
365.60 3.016
365.70 3.013
365.80 3.01
365.90 3.007
366.00 3.004
366.10 3.001
366.20 2.998
366.30 2.995
366.40 2.992
366.50 2.989
366.60 2.986
366.70 2.983
366.80 2.98
366.90 2.977
367.00 2.974
367.10 2.97
367.20 2.967
367.30 2.964
367.40 2.961
367.50 2.958
367.60 2.955
367.70 2.952
367.80 2.949
367.90 2.946
368.00 2.943
368.10 2.94
368.20 2.937
368.30 2.934
368.40 2.931
368.50 2.928
368.60 2.925
368.70 2.922
368.80 2.919
368.90 2.916
369.00 2.913
369.10 2.909
369.20 2.906
369.30 2.903
369.40 2.9
369.50 2.897
369.60 2.894
369.70 2.891
369.80 2.888
369.90 2.885
370.00 2.882
370.10 2.879
370.20 2.876
370.30 2.873
370.40 2.87
370.50 2.867
370.60 2.864
370.70 2.862
370.80 2.859
370.90 2.856
371.00 2.853
371.10 2.85
371.20 2.847
371.30 2.844
371.40 2.841
371.50 2.838
371.60 2.835
371.70 2.832
371.80 2.829
371.90 2.826
372.00 2.823
372.10 2.821
372.20 2.818
372.30 2.815
372.40 2.812
372.50 2.809
372.60 2.807
372.70 2.804
372.80 2.801
372.90 2.798
373.00 2.795
373.10 2.793
373.20 2.79
373.30 2.787
373.40 2.784
373.50 2.781
373.60 2.779
373.70 2.776
373.80 2.773
373.90 2.77
374.00 2.768
374.10 2.765
374.20 2.762
374.30 2.759
374.40 2.756
374.50 2.754
374.60 2.751
374.70 2.748
374.80 2.745
374.90 2.742
375.00 2.74
375.10 2.737
375.20 2.734
375.30 2.731
375.40 2.729
375.50 2.726
375.60 2.723
375.70 2.72
375.80 2.718
375.90 2.715
376.00 2.712
376.10 2.709
376.20 2.707
376.30 2.704
376.40 2.701
376.50 2.699
376.60 2.696
376.70 2.693
376.80 2.69
376.90 2.688
377.00 2.685
377.10 2.682
377.20 2.68
377.30 2.677
377.40 2.675
377.50 2.672
377.60 2.669
377.70 2.667
377.80 2.664
377.90 2.662
378.00 2.659
378.10 2.657
378.20 2.654
378.30 2.651
378.40 2.649
378.50 2.646
378.60 2.644
378.70 2.641
378.80 2.639
378.90 2.636
379.00 2.634
379.10 2.631
379.20 2.629
379.30 2.626
379.40 2.624
379.50 2.621
379.60 2.619
379.70 2.616
379.80 2.614
379.90 2.611
380.00 2.609
380.10 2.606
380.20 2.604
380.30 2.602
380.40 2.599
380.50 2.597
380.60 2.594
380.70 2.592
380.80 2.59
380.90 2.587
381.00 2.585
381.10 2.583
381.20 2.58
381.30 2.578
381.40 2.575
381.50 2.573
381.60 2.571
381.70 2.568
381.80 2.566
381.90 2.563
382.00 2.561
382.10 2.559
382.20 2.556
382.30 2.554
382.40 2.551
382.50 2.549
382.60 2.547
382.70 2.544
382.80 2.542
382.90 2.539
383.00 2.537
383.10 2.535
383.20 2.532
383.30 2.53
383.40 2.528
383.50 2.525
383.60 2.523
383.70 2.521
383.80 2.519
383.90 2.517
384.00 2.515
384.10 2.513
384.20 2.511
384.30 2.509
384.40 2.507
384.50 2.505
384.60 2.503
384.70 2.501
384.80 2.499
384.90 2.497
385.00 2.495
385.10 2.493
385.20 2.491
385.30 2.489
385.40 2.486
385.50 2.484
385.60 2.482
385.70 2.48
385.80 2.478
385.90 2.475
386.00 2.473
386.10 2.471
386.20 2.468
386.30 2.466
386.40 2.464
386.50 2.461
386.60 2.459
386.70 2.456
386.80 2.454
386.90 2.451
387.00 2.449
387.10 2.446
387.20 2.443
387.30 2.441
387.40 2.438
387.50 2.435
387.60 2.433
387.70 2.43
387.80 2.427
387.90 2.425
388.00 2.422
388.10 2.419
388.20 2.417
388.30 2.414
388.40 2.411
388.50 2.409
388.60 2.407
388.70 2.404
388.80 2.402
388.90 2.4
389.00 2.398
389.10 2.397
389.20 2.395
389.30 2.394
389.40 2.392
389.50 2.391
389.60 2.39
389.70 2.389
389.80 2.388
389.90 2.386
390.00 2.385
390.10 2.384
390.20 2.383
390.30 2.382
390.40 2.38
390.50 2.379
390.60 2.378
390.70 2.377
390.80 2.375
390.90 2.374
391.00 2.372
391.10 2.371
391.20 2.369
391.30 2.368
391.40 2.366
391.50 2.364
391.60 2.363
391.70 2.361
391.80 2.359
391.90 2.357
392.00 2.355
392.10 2.353
392.20 2.351
392.30 2.349
392.40 2.347
392.50 2.344
392.60 2.342
392.70 2.34
392.80 2.337
392.90 2.335
393.00 2.332
393.10 2.329
393.20 2.327
393.30 2.324
393.40 2.321
393.50 2.318
393.60 2.315
393.70 2.312
393.80 2.309
393.90 2.306
394.00 2.303
394.10 2.299
394.20 2.296
394.30 2.292
394.40 2.289
394.50 2.285
394.60 2.281
394.70 2.278
394.80 2.274
394.90 2.27
395.00 2.266
395.10 2.262
395.20 2.258
395.30 2.254
395.40 2.25
395.50 2.245
395.60 2.241
395.70 2.237
395.80 2.232
395.90 2.228
396.00 2.223
396.10 2.219
396.20 2.215
396.30 2.21
396.40 2.206
396.50 2.201
396.60 2.197
396.70 2.193
396.80 2.189
396.90 2.186
397.00 2.182
397.10 2.182
397.20 2.182
397.30 2.183
397.40 2.183
397.50 2.184
397.60 2.185
397.70 2.186
397.80 2.187
397.90 2.188
398.00 2.189
398.10 2.19
398.20 2.191
398.30 2.192
398.40 2.193
398.50 2.194
398.60 2.194
398.70 2.195
398.80 2.196
398.90 2.196
399.00 2.197
399.10 2.198
399.20 2.198
399.30 2.198
399.40 2.199
399.50 2.199
399.60 2.199
399.70 2.199
399.80 2.199
399.90 2.199
400.00 2.199
400.10 2.199
400.20 2.199
400.30 2.199
400.40 2.198
400.50 2.198
400.60 2.198
400.70 2.197
400.80 2.197
400.90 2.196
401.00 2.195
401.10 2.194
401.20 2.194
401.30 2.193
401.40 2.192
401.50 2.191
401.60 2.19
401.70 2.188
401.80 2.187
401.90 2.186
402.00 2.185
402.10 2.183
402.20 2.182
402.30 2.18
402.40 2.179
402.50 2.177
402.60 2.175
402.70 2.174
402.80 2.172
402.90 2.17
403.00 2.168
403.10 2.166
403.20 2.164
403.30 2.162
403.40 2.16
403.50 2.157
403.60 2.155
403.70 2.153
403.80 2.15
403.90 2.148
404.00 2.145
404.10 2.143
404.20 2.14
404.30 2.137
404.40 2.135
404.50 2.132
404.60 2.129
404.70 2.126
404.80 2.123
404.90 2.119
405.00 2.116
405.10 2.113
405.20 2.109
405.30 2.106
405.40 2.102
405.50 2.099
405.60 2.095
405.70 2.091
405.80 2.087
405.90 2.083
406.00 2.079
406.10 2.075
406.20 2.071
406.30 2.067
406.40 2.062
406.50 2.057
406.60 2.053
406.70 2.048
406.80 2.043
406.90 2.038
407.00 2.033
407.10 2.028
407.20 2.023
407.30 2.017
407.40 2.012
407.50 2.006
407.60 2
407.70 1.994
407.80 1.988
407.90 1.982
408.00 1.976
408.10 1.97
408.20 1.963
408.30 1.957
408.40 1.95
408.50 1.943
408.60 1.936
408.70 1.929
408.80 1.922
408.90 1.915
409.00 1.908
409.10 1.901
409.20 1.894
409.30 1.886
409.40 1.879
409.50 1.873
409.60 1.866
409.70 1.86
409.80 1.855
409.90 1.851
410.00 1.849
410.10 1.849
410.20 1.849
410.30 1.845
410.40 1.843
410.50 1.843
410.60 1.845
410.70 1.847
410.80 1.85
410.90 1.854
411.00 1.858
411.10 1.861
411.20 1.865
411.30 1.869
411.40 1.873
411.50 1.877
411.60 1.881
411.70 1.885
411.80 1.889
411.90 1.892
412.00 1.896
412.10 1.899
412.20 1.902
412.30 1.905
412.40 1.908
412.50 1.911
412.60 1.914
412.70 1.916
412.80 1.919
412.90 1.921
413.00 1.923
413.10 1.925
413.20 1.927
413.30 1.929
413.40 1.931
413.50 1.933
413.60 1.934
413.70 1.936
413.80 1.937
413.90 1.938
414.00 1.94
414.10 1.941
414.20 1.942
414.30 1.943
414.40 1.943
414.50 1.944
414.60 1.945
414.70 1.945
414.80 1.946
414.90 1.946
415.00 1.947
415.10 1.947
415.20 1.947
415.30 1.947
415.40 1.947
415.50 1.947
415.60 1.947
415.70 1.947
415.80 1.947
415.90 1.947
416.00 1.947
416.10 1.947
416.20 1.946
416.30 1.946
416.40 1.945
416.50 1.945
416.60 1.944
416.70 1.944
416.80 1.943
416.90 1.943
417.00 1.942
417.10 1.941
417.20 1.941
417.30 1.94
417.40 1.939
417.50 1.938
417.60 1.937
417.70 1.936
417.80 1.935
417.90 1.934
418.00 1.934
418.10 1.933
418.20 1.931
418.30 1.93
418.40 1.929
418.50 1.928
418.60 1.927
418.70 1.926
418.80 1.925
418.90 1.924
419.00 1.922
419.10 1.921
419.20 1.92
419.30 1.919
419.40 1.917
419.50 1.916
419.60 1.915
419.70 1.913
419.80 1.912
419.90 1.911
420.00 1.909
420.10 1.908
420.20 1.906
420.30 1.905
420.40 1.904
420.50 1.902
420.60 1.901
420.70 1.899
420.80 1.898
420.90 1.896
421.00 1.895
421.10 1.893
421.20 1.891
421.30 1.89
421.40 1.888
421.50 1.887
421.60 1.885
421.70 1.883
421.80 1.882
421.90 1.88
422.00 1.878
422.10 1.877
422.20 1.875
422.30 1.873
422.40 1.872
422.50 1.87
422.60 1.868
422.70 1.866
422.80 1.865
422.90 1.863
423.00 1.861
423.10 1.859
423.20 1.857
423.30 1.856
423.40 1.854
423.50 1.852
423.60 1.85
423.70 1.848
423.80 1.846
423.90 1.844
424.00 1.842
424.10 1.84
424.20 1.839
424.30 1.837
424.40 1.835
424.50 1.833
424.60 1.831
424.70 1.828
424.80 1.826
424.90 1.824
425.00 1.822
425.10 1.82
425.20 1.818
425.30 1.816
425.40 1.814
425.50 1.811
425.60 1.809
425.70 1.807
425.80 1.805
425.90 1.802
426.00 1.8
426.10 1.798
426.20 1.795
426.30 1.793
426.40 1.79
426.50 1.788
426.60 1.785
426.70 1.783
426.80 1.78
426.90 1.778
427.00 1.775
427.10 1.772
427.20 1.77
427.30 1.767
427.40 1.764
427.50 1.761
427.60 1.758
427.70 1.755
427.80 1.752
427.90 1.749
428.00 1.746
428.10 1.743
428.20 1.74
428.30 1.737
428.40 1.734
428.50 1.73
428.60 1.727
428.70 1.723
428.80 1.72
428.90 1.716
429.00 1.712
429.10 1.709
429.20 1.705
429.30 1.701
429.40 1.697
429.50 1.693
429.60 1.689
429.70 1.684
429.80 1.68
429.90 1.676
430.00 1.671
430.10 1.666
430.20 1.662
430.30 1.657
430.40 1.652
430.50 1.647
430.60 1.642
430.70 1.636
430.80 1.631
430.90 1.625
431.00 1.62
431.10 1.614
431.20 1.608
431.30 1.602
431.40 1.596
431.50 1.589
431.60 1.583
431.70 1.576
431.80 1.57
431.90 1.563
432.00 1.556
432.10 1.548
432.20 1.541
432.30 1.533
432.40 1.526
432.50 1.518
432.60 1.51
432.70 1.502
432.80 1.494
432.90 1.486
433.00 1.478
433.10 1.469
433.20 1.461
433.30 1.453
433.40 1.445
433.50 1.437
433.60 1.429
433.70 1.42
433.80 1.412
433.90 1.402
434.00 1.393
434.10 1.392
434.20 1.4
434.30 1.407
434.40 1.413
434.50 1.419
434.60 1.425
434.70 1.43
434.80 1.436
434.90 1.442
435.00 1.448
435.10 1.454
435.20 1.46
435.30 1.465
435.40 1.471
435.50 1.476
435.60 1.481
435.70 1.487
435.80 1.492
435.90 1.496
436.00 1.501
436.10 1.506
436.20 1.51
436.30 1.514
436.40 1.518
436.50 1.522
436.60 1.526
436.70 1.529
436.80 1.533
436.90 1.536
437.00 1.539
437.10 1.542
437.20 1.545
437.30 1.548
437.40 1.55
437.50 1.553
437.60 1.555
437.70 1.557
437.80 1.559
437.90 1.561
438.00 1.563
438.10 1.565
438.20 1.566
438.30 1.568
438.40 1.569
438.50 1.57
438.60 1.572
438.70 1.573
438.80 1.574
438.90 1.575
439.00 1.576
439.10 1.577
439.20 1.577
439.30 1.578
439.40 1.579
439.50 1.579
439.60 1.58
439.70 1.58
439.80 1.58
439.90 1.58
440.00 1.581
440.10 1.581
440.20 1.581
440.30 1.581
440.40 1.581
440.50 1.581
440.60 1.581
440.70 1.581
440.80 1.581
440.90 1.58
441.00 1.58
441.10 1.58
441.20 1.58
441.30 1.579
441.40 1.579
441.50 1.578
441.60 1.578
441.70 1.577
441.80 1.577
441.90 1.576
442.00 1.576
442.10 1.575
442.20 1.575
442.30 1.574
442.40 1.573
442.50 1.573
442.60 1.572
442.70 1.571
442.80 1.571
442.90 1.57
443.00 1.569
443.10 1.568
443.20 1.567
443.30 1.567
443.40 1.566
443.50 1.565
443.60 1.564
443.70 1.563
443.80 1.562
443.90 1.561
444.00 1.561
444.10 1.56
444.20 1.559
444.30 1.558
444.40 1.557
444.50 1.556
444.60 1.555
444.70 1.554
444.80 1.553
444.90 1.552
445.00 1.551
445.10 1.55
445.20 1.549
445.30 1.548
445.40 1.547
445.50 1.546
445.60 1.545
445.70 1.544
445.80 1.542
445.90 1.541
446.00 1.54
446.10 1.539
446.20 1.538
446.30 1.537
446.40 1.536
446.50 1.535
446.60 1.534
446.70 1.533
446.80 1.532
446.90 1.53
447.00 1.529
447.10 1.528
447.20 1.527
447.30 1.526
447.40 1.525
447.50 1.524
447.60 1.522
447.70 1.521
447.80 1.52
447.90 1.519
448.00 1.518
448.10 1.517
448.20 1.516
448.30 1.514
448.40 1.513
448.50 1.512
448.60 1.511
448.70 1.51
448.80 1.509
448.90 1.507
449.00 1.506
449.10 1.505
449.20 1.504
449.30 1.503
449.40 1.502
449.50 1.5
449.60 1.499
449.70 1.498
449.80 1.497
449.90 1.496
450.00 1.495
450.10 1.493
450.20 1.492
450.30 1.491
450.40 1.49
450.50 1.489
450.60 1.487
450.70 1.486
450.80 1.485
450.90 1.484
451.00 1.483
451.10 1.482
451.20 1.48
451.30 1.479
451.40 1.478
451.50 1.477
451.60 1.476
451.70 1.474
451.80 1.473
451.90 1.472
452.00 1.471
452.10 1.47
452.20 1.469
452.30 1.467
452.40 1.466
452.50 1.465
452.60 1.464
452.70 1.463
452.80 1.461
452.90 1.46
453.00 1.459
453.10 1.458
453.20 1.457
453.30 1.455
453.40 1.454
453.50 1.453
453.60 1.452
453.70 1.451
453.80 1.45
453.90 1.448
454.00 1.447
454.10 1.446
