# Version 2.1 - nm, norm@500 to 1, cut digits, bergeron_65000_80.dat_65000
# Wavelength(nm)  Flambda(ergs/cm^s/s/nm)
300.00 6.483
300.10 6.475
300.20 6.467
300.30 6.459
300.40 6.451
300.50 6.443
300.60 6.435
300.70 6.427
300.80 6.42
300.90 6.412
301.00 6.404
301.10 6.396
301.20 6.388
301.30 6.38
301.40 6.373
301.50 6.365
301.60 6.357
301.70 6.349
301.80 6.341
301.90 6.334
302.00 6.326
302.10 6.318
302.20 6.311
302.30 6.303
302.40 6.295
302.50 6.288
302.60 6.28
302.70 6.272
302.80 6.265
302.90 6.257
303.00 6.249
303.10 6.242
303.20 6.234
303.30 6.227
303.40 6.219
303.50 6.211
303.60 6.204
303.70 6.196
303.80 6.189
303.90 6.181
304.00 6.174
304.10 6.166
304.20 6.159
304.30 6.151
304.40 6.144
304.50 6.137
304.60 6.129
304.70 6.122
304.80 6.114
304.90 6.107
305.00 6.1
305.10 6.092
305.20 6.085
305.30 6.077
305.40 6.07
305.50 6.063
305.60 6.055
305.70 6.048
305.80 6.041
305.90 6.034
306.00 6.026
306.10 6.019
306.20 6.012
306.30 6.005
306.40 5.997
306.50 5.99
306.60 5.983
306.70 5.976
306.80 5.969
306.90 5.961
307.00 5.954
307.10 5.947
307.20 5.94
307.30 5.933
307.40 5.926
307.50 5.919
307.60 5.911
307.70 5.904
307.80 5.897
307.90 5.89
308.00 5.883
308.10 5.876
308.20 5.869
308.30 5.862
308.40 5.855
308.50 5.848
308.60 5.841
308.70 5.834
308.80 5.827
308.90 5.82
309.00 5.813
309.10 5.806
309.20 5.799
309.30 5.792
309.40 5.785
309.50 5.779
309.60 5.772
309.70 5.765
309.80 5.758
309.90 5.751
310.00 5.744
310.10 5.737
310.20 5.731
310.30 5.724
310.40 5.717
310.50 5.71
310.60 5.703
310.70 5.697
310.80 5.69
310.90 5.683
311.00 5.676
311.10 5.67
311.20 5.663
311.30 5.656
311.40 5.649
311.50 5.643
311.60 5.636
311.70 5.629
311.80 5.623
311.90 5.616
312.00 5.609
312.10 5.603
312.20 5.596
312.30 5.59
312.40 5.583
312.50 5.576
312.60 5.57
312.70 5.563
312.80 5.557
312.90 5.55
313.00 5.543
313.10 5.537
313.20 5.53
313.30 5.524
313.40 5.517
313.50 5.511
313.60 5.504
313.70 5.498
313.80 5.491
313.90 5.485
314.00 5.478
314.10 5.472
314.20 5.466
314.30 5.459
314.40 5.453
314.50 5.446
314.60 5.44
314.70 5.434
314.80 5.427
314.90 5.421
315.00 5.414
315.10 5.408
315.20 5.402
315.30 5.395
315.40 5.389
315.50 5.383
315.60 5.377
315.70 5.37
315.80 5.364
315.90 5.358
316.00 5.351
316.10 5.345
316.20 5.339
316.30 5.333
316.40 5.326
316.50 5.32
316.60 5.314
316.70 5.308
316.80 5.302
316.90 5.295
317.00 5.289
317.10 5.283
317.20 5.277
317.30 5.271
317.40 5.265
317.50 5.259
317.60 5.252
317.70 5.246
317.80 5.24
317.90 5.234
318.00 5.228
318.10 5.222
318.20 5.216
318.30 5.21
318.40 5.204
318.50 5.198
318.60 5.192
318.70 5.186
318.80 5.18
318.90 5.174
319.00 5.168
319.10 5.162
319.20 5.156
319.30 5.15
319.40 5.144
319.50 5.138
319.60 5.132
319.70 5.126
319.80 5.12
319.90 5.114
320.00 5.108
320.10 5.102
320.20 5.096
320.30 5.09
320.40 5.085
320.50 5.079
320.60 5.073
320.70 5.067
320.80 5.061
320.90 5.055
321.00 5.049
321.10 5.044
321.20 5.038
321.30 5.032
321.40 5.026
321.50 5.02
321.60 5.015
321.70 5.009
321.80 5.003
321.90 4.997
322.00 4.992
322.10 4.986
322.20 4.98
322.30 4.974
322.40 4.969
322.50 4.963
322.60 4.957
322.70 4.952
322.80 4.946
322.90 4.94
323.00 4.935
323.10 4.929
323.20 4.923
323.30 4.918
323.40 4.912
323.50 4.907
323.60 4.901
323.70 4.895
323.80 4.89
323.90 4.884
324.00 4.879
324.10 4.873
324.20 4.867
324.30 4.862
324.40 4.856
324.50 4.851
324.60 4.845
324.70 4.84
324.80 4.834
324.90 4.829
325.00 4.823
325.10 4.818
325.20 4.812
325.30 4.807
325.40 4.801
325.50 4.796
325.60 4.79
325.70 4.785
325.80 4.779
325.90 4.774
326.00 4.769
326.10 4.763
326.20 4.758
326.30 4.752
326.40 4.747
326.50 4.742
326.60 4.736
326.70 4.731
326.80 4.726
326.90 4.72
327.00 4.715
327.10 4.709
327.20 4.704
327.30 4.699
327.40 4.694
327.50 4.688
327.60 4.683
327.70 4.678
327.80 4.672
327.90 4.667
328.00 4.662
328.10 4.657
328.20 4.651
328.30 4.646
328.40 4.641
328.50 4.636
328.60 4.63
328.70 4.625
328.80 4.62
328.90 4.615
329.00 4.609
329.10 4.604
329.20 4.599
329.30 4.594
329.40 4.589
329.50 4.584
329.60 4.578
329.70 4.573
329.80 4.568
329.90 4.563
330.00 4.558
330.10 4.553
330.20 4.548
330.30 4.543
330.40 4.538
330.50 4.532
330.60 4.527
330.70 4.522
330.80 4.517
330.90 4.512
331.00 4.507
331.10 4.502
331.20 4.497
331.30 4.492
331.40 4.487
331.50 4.482
331.60 4.477
331.70 4.472
331.80 4.467
331.90 4.462
332.00 4.457
332.10 4.452
332.20 4.447
332.30 4.442
332.40 4.437
332.50 4.432
332.60 4.427
332.70 4.422
332.80 4.417
332.90 4.413
333.00 4.408
333.10 4.403
333.20 4.398
333.30 4.393
333.40 4.388
333.50 4.383
333.60 4.378
333.70 4.373
333.80 4.369
333.90 4.364
334.00 4.359
334.10 4.354
334.20 4.349
334.30 4.344
334.40 4.34
334.50 4.335
334.60 4.33
334.70 4.325
334.80 4.32
334.90 4.316
335.00 4.311
335.10 4.306
335.20 4.301
335.30 4.296
335.40 4.292
335.50 4.287
335.60 4.282
335.70 4.277
335.80 4.273
335.90 4.268
336.00 4.263
336.10 4.259
336.20 4.254
336.30 4.249
336.40 4.245
336.50 4.24
336.60 4.235
336.70 4.231
336.80 4.226
336.90 4.221
337.00 4.217
337.10 4.212
337.20 4.207
337.30 4.203
337.40 4.198
337.50 4.193
337.60 4.189
337.70 4.184
337.80 4.18
337.90 4.175
338.00 4.17
338.10 4.166
338.20 4.161
338.30 4.157
338.40 4.152
338.50 4.148
338.60 4.143
338.70 4.139
338.80 4.134
338.90 4.13
339.00 4.125
339.10 4.121
339.20 4.116
339.30 4.111
339.40 4.107
339.50 4.102
339.60 4.098
339.70 4.094
339.80 4.089
339.90 4.085
340.00 4.08
340.10 4.076
340.20 4.071
340.30 4.067
340.40 4.062
340.50 4.058
340.60 4.054
340.70 4.049
340.80 4.045
340.90 4.04
341.00 4.036
341.10 4.031
341.20 4.027
341.30 4.023
341.40 4.018
341.50 4.014
341.60 4.01
341.70 4.005
341.80 4.001
341.90 3.997
342.00 3.992
342.10 3.988
342.20 3.984
342.30 3.979
342.40 3.975
342.50 3.971
342.60 3.966
342.70 3.962
342.80 3.958
342.90 3.953
343.00 3.949
343.10 3.945
343.20 3.941
343.30 3.936
343.40 3.932
343.50 3.928
343.60 3.924
343.70 3.919
343.80 3.915
343.90 3.911
344.00 3.907
344.10 3.902
344.20 3.898
344.30 3.894
344.40 3.89
344.50 3.886
344.60 3.881
344.70 3.877
344.80 3.873
344.90 3.869
345.00 3.865
345.10 3.861
345.20 3.856
345.30 3.852
345.40 3.848
345.50 3.844
345.60 3.84
345.70 3.836
345.80 3.832
345.90 3.827
346.00 3.823
346.10 3.819
346.20 3.815
346.30 3.811
346.40 3.807
346.50 3.803
346.60 3.799
346.70 3.795
346.80 3.791
346.90 3.787
347.00 3.783
347.10 3.779
347.20 3.775
347.30 3.771
347.40 3.766
347.50 3.762
347.60 3.758
347.70 3.754
347.80 3.75
347.90 3.746
348.00 3.742
348.10 3.738
348.20 3.734
348.30 3.73
348.40 3.726
348.50 3.722
348.60 3.718
348.70 3.715
348.80 3.711
348.90 3.707
349.00 3.703
349.10 3.699
349.20 3.695
349.30 3.691
349.40 3.687
349.50 3.683
349.60 3.679
349.70 3.675
349.80 3.671
349.90 3.667
350.00 3.663
350.10 3.66
350.20 3.656
350.30 3.652
350.40 3.648
350.50 3.644
350.60 3.64
350.70 3.636
350.80 3.633
350.90 3.629
351.00 3.625
351.10 3.621
351.20 3.617
351.30 3.613
351.40 3.609
351.50 3.606
351.60 3.602
351.70 3.598
351.80 3.594
351.90 3.59
352.00 3.587
352.10 3.583
352.20 3.579
352.30 3.575
352.40 3.572
352.50 3.568
352.60 3.564
352.70 3.56
352.80 3.556
352.90 3.553
353.00 3.549
353.10 3.545
353.20 3.542
353.30 3.538
353.40 3.534
353.50 3.53
353.60 3.527
353.70 3.523
353.80 3.519
353.90 3.515
354.00 3.512
354.10 3.508
354.20 3.504
354.30 3.501
354.40 3.497
354.50 3.493
354.60 3.49
354.70 3.486
354.80 3.482
354.90 3.479
355.00 3.475
355.10 3.472
355.20 3.468
355.30 3.464
355.40 3.461
355.50 3.457
355.60 3.453
355.70 3.45
355.80 3.446
355.90 3.443
356.00 3.439
356.10 3.435
356.20 3.432
356.30 3.428
356.40 3.425
356.50 3.421
356.60 3.417
356.70 3.414
356.80 3.41
356.90 3.407
357.00 3.403
357.10 3.4
357.20 3.396
357.30 3.393
357.40 3.389
357.50 3.386
357.60 3.382
357.70 3.378
357.80 3.375
357.90 3.371
358.00 3.368
358.10 3.364
358.20 3.361
358.30 3.357
358.40 3.354
358.50 3.35
358.60 3.347
358.70 3.344
358.80 3.34
358.90 3.337
359.00 3.333
359.10 3.33
359.20 3.326
359.30 3.323
359.40 3.319
359.50 3.316
359.60 3.312
359.70 3.309
359.80 3.306
359.90 3.302
360.00 3.299
360.10 3.295
360.20 3.292
360.30 3.289
360.40 3.285
360.50 3.282
360.60 3.278
360.70 3.275
360.80 3.272
360.90 3.268
361.00 3.265
361.10 3.262
361.20 3.258
361.30 3.255
361.40 3.251
361.50 3.248
361.60 3.245
361.70 3.241
361.80 3.238
361.90 3.235
362.00 3.231
362.10 3.228
362.20 3.225
362.30 3.221
362.40 3.218
362.50 3.215
362.60 3.212
362.70 3.208
362.80 3.205
362.90 3.202
363.00 3.198
363.10 3.195
363.20 3.192
363.30 3.189
363.40 3.185
363.50 3.182
363.60 3.179
363.70 3.175
363.80 3.172
363.90 3.169
364.00 3.166
364.10 3.162
364.20 3.159
364.30 3.156
364.40 3.153
364.50 3.15
364.60 3.146
364.70 3.143
364.80 3.14
364.90 3.137
365.00 3.134
365.10 3.13
365.20 3.127
365.30 3.124
365.40 3.121
365.50 3.118
365.60 3.114
365.70 3.111
365.80 3.108
365.90 3.105
366.00 3.102
366.10 3.098
366.20 3.095
366.30 3.092
366.40 3.089
366.50 3.086
366.60 3.082
366.70 3.079
366.80 3.076
366.90 3.073
367.00 3.07
367.10 3.066
367.20 3.063
367.30 3.06
367.40 3.057
367.50 3.054
367.60 3.051
367.70 3.047
367.80 3.044
367.90 3.041
368.00 3.038
368.10 3.035
368.20 3.032
368.30 3.028
368.40 3.025
368.50 3.022
368.60 3.019
368.70 3.016
368.80 3.013
368.90 3.01
369.00 3.006
369.10 3.003
369.20 3
369.30 2.997
369.40 2.994
369.50 2.991
369.60 2.988
369.70 2.985
369.80 2.981
369.90 2.978
370.00 2.975
370.10 2.972
370.20 2.969
370.30 2.966
370.40 2.963
370.50 2.96
370.60 2.957
370.70 2.954
370.80 2.951
370.90 2.948
371.00 2.945
371.10 2.942
371.20 2.939
371.30 2.936
371.40 2.933
371.50 2.929
371.60 2.926
371.70 2.923
371.80 2.92
371.90 2.917
372.00 2.914
372.10 2.911
372.20 2.909
372.30 2.906
372.40 2.903
372.50 2.9
372.60 2.897
372.70 2.894
372.80 2.891
372.90 2.888
373.00 2.885
373.10 2.882
373.20 2.879
373.30 2.876
373.40 2.873
373.50 2.87
373.60 2.867
373.70 2.865
373.80 2.862
373.90 2.859
374.00 2.856
374.10 2.853
374.20 2.85
374.30 2.847
374.40 2.844
374.50 2.841
374.60 2.839
374.70 2.836
374.80 2.833
374.90 2.83
375.00 2.827
375.10 2.824
375.20 2.821
375.30 2.819
375.40 2.816
375.50 2.813
375.60 2.81
375.70 2.807
375.80 2.804
375.90 2.801
376.00 2.799
376.10 2.796
376.20 2.793
376.30 2.79
376.40 2.788
376.50 2.785
376.60 2.782
376.70 2.779
376.80 2.776
376.90 2.774
377.00 2.771
377.10 2.768
377.20 2.766
377.30 2.763
377.40 2.76
377.50 2.757
377.60 2.755
377.70 2.752
377.80 2.749
377.90 2.747
378.00 2.744
378.10 2.741
378.20 2.739
378.30 2.736
378.40 2.733
378.50 2.731
378.60 2.728
378.70 2.726
378.80 2.723
378.90 2.72
379.00 2.718
379.10 2.715
379.20 2.712
379.30 2.71
379.40 2.707
379.50 2.705
379.60 2.702
379.70 2.7
379.80 2.697
379.90 2.695
380.00 2.692
380.10 2.69
380.20 2.687
380.30 2.685
380.40 2.682
380.50 2.68
380.60 2.677
380.70 2.675
380.80 2.672
380.90 2.67
381.00 2.667
381.10 2.665
381.20 2.663
381.30 2.66
381.40 2.658
381.50 2.655
381.60 2.653
381.70 2.65
381.80 2.648
381.90 2.645
382.00 2.642
382.10 2.64
382.20 2.637
382.30 2.635
382.40 2.632
382.50 2.629
382.60 2.627
382.70 2.624
382.80 2.622
382.90 2.619
383.00 2.616
383.10 2.614
383.20 2.611
383.30 2.609
383.40 2.606
383.50 2.604
383.60 2.602
383.70 2.6
383.80 2.597
383.90 2.595
384.00 2.593
384.10 2.591
384.20 2.589
384.30 2.587
384.40 2.585
384.50 2.583
384.60 2.581
384.70 2.579
384.80 2.577
384.90 2.575
385.00 2.573
385.10 2.571
385.20 2.569
385.30 2.566
385.40 2.564
385.50 2.562
385.60 2.56
385.70 2.557
385.80 2.555
385.90 2.552
386.00 2.55
386.10 2.547
386.20 2.545
386.30 2.542
386.40 2.539
386.50 2.537
386.60 2.534
386.70 2.531
386.80 2.528
386.90 2.526
387.00 2.523
387.10 2.52
387.20 2.517
387.30 2.514
387.40 2.511
387.50 2.507
387.60 2.504
387.70 2.501
387.80 2.498
387.90 2.495
388.00 2.492
388.10 2.489
388.20 2.485
388.30 2.482
388.40 2.479
388.50 2.477
388.60 2.474
388.70 2.471
388.80 2.469
388.90 2.467
389.00 2.465
389.10 2.463
389.20 2.461
389.30 2.46
389.40 2.459
389.50 2.458
389.60 2.457
389.70 2.456
389.80 2.455
389.90 2.454
390.00 2.453
390.10 2.452
390.20 2.451
390.30 2.45
390.40 2.449
390.50 2.448
390.60 2.447
390.70 2.446
390.80 2.445
390.90 2.443
391.00 2.442
391.10 2.441
391.20 2.439
391.30 2.438
391.40 2.436
391.50 2.434
391.60 2.433
391.70 2.431
391.80 2.429
391.90 2.427
392.00 2.425
392.10 2.423
392.20 2.421
392.30 2.419
392.40 2.417
392.50 2.414
392.60 2.412
392.70 2.41
392.80 2.407
392.90 2.404
393.00 2.402
393.10 2.399
393.20 2.396
393.30 2.393
393.40 2.39
393.50 2.387
393.60 2.384
393.70 2.381
393.80 2.377
393.90 2.374
394.00 2.37
394.10 2.367
394.20 2.363
394.30 2.359
394.40 2.355
394.50 2.351
394.60 2.347
394.70 2.343
394.80 2.339
394.90 2.335
395.00 2.33
395.10 2.326
395.20 2.321
395.30 2.316
395.40 2.312
395.50 2.307
395.60 2.302
395.70 2.297
395.80 2.292
395.90 2.287
396.00 2.282
396.10 2.276
396.20 2.271
396.30 2.266
396.40 2.261
396.50 2.256
396.60 2.251
396.70 2.246
396.80 2.241
396.90 2.237
397.00 2.233
397.10 2.233
397.20 2.233
397.30 2.234
397.40 2.235
397.50 2.237
397.60 2.238
397.70 2.239
397.80 2.241
397.90 2.242
398.00 2.243
398.10 2.245
398.20 2.246
398.30 2.247
398.40 2.248
398.50 2.249
398.60 2.25
398.70 2.251
398.80 2.252
398.90 2.253
399.00 2.254
399.10 2.254
399.20 2.255
399.30 2.255
399.40 2.256
399.50 2.256
399.60 2.256
399.70 2.256
399.80 2.257
399.90 2.256
400.00 2.256
400.10 2.256
400.20 2.256
400.30 2.256
400.40 2.255
400.50 2.255
400.60 2.254
400.70 2.254
400.80 2.253
400.90 2.252
401.00 2.251
401.10 2.25
401.20 2.25
401.30 2.249
401.40 2.247
401.50 2.246
401.60 2.245
401.70 2.244
401.80 2.243
401.90 2.241
402.00 2.24
402.10 2.238
402.20 2.237
402.30 2.235
402.40 2.234
402.50 2.232
402.60 2.23
402.70 2.229
402.80 2.227
402.90 2.225
403.00 2.223
403.10 2.221
403.20 2.219
403.30 2.217
403.40 2.215
403.50 2.213
403.60 2.211
403.70 2.208
403.80 2.206
403.90 2.204
404.00 2.201
404.10 2.199
404.20 2.196
404.30 2.194
404.40 2.191
404.50 2.189
404.60 2.186
404.70 2.183
404.80 2.18
404.90 2.177
405.00 2.174
405.10 2.171
405.20 2.168
405.30 2.165
405.40 2.162
405.50 2.158
405.60 2.155
405.70 2.151
405.80 2.148
405.90 2.144
406.00 2.141
406.10 2.137
406.20 2.133
406.30 2.129
406.40 2.125
406.50 2.12
406.60 2.116
406.70 2.112
406.80 2.107
406.90 2.103
407.00 2.098
407.10 2.093
407.20 2.088
407.30 2.083
407.40 2.077
407.50 2.072
407.60 2.067
407.70 2.061
407.80 2.055
407.90 2.049
408.00 2.043
408.10 2.037
408.20 2.03
408.30 2.024
408.40 2.017
408.50 2.01
408.60 2.003
408.70 1.996
408.80 1.989
408.90 1.981
409.00 1.974
409.10 1.966
409.20 1.958
409.30 1.95
409.40 1.943
409.50 1.935
409.60 1.927
409.70 1.92
409.80 1.914
409.90 1.909
410.00 1.907
410.10 1.906
410.20 1.907
410.30 1.902
410.40 1.9
410.50 1.9
410.60 1.903
410.70 1.907
410.80 1.911
410.90 1.915
411.00 1.919
411.10 1.924
411.20 1.928
411.30 1.932
411.40 1.936
411.50 1.94
411.60 1.944
411.70 1.948
411.80 1.951
411.90 1.955
412.00 1.958
412.10 1.961
412.20 1.964
412.30 1.966
412.40 1.969
412.50 1.971
412.60 1.974
412.70 1.976
412.80 1.978
412.90 1.979
413.00 1.981
413.10 1.983
413.20 1.984
413.30 1.985
413.40 1.986
413.50 1.987
413.60 1.988
413.70 1.989
413.80 1.99
413.90 1.99
414.00 1.991
414.10 1.991
414.20 1.992
414.30 1.992
414.40 1.992
414.50 1.992
414.60 1.992
414.70 1.992
414.80 1.992
414.90 1.992
415.00 1.991
415.10 1.991
415.20 1.99
415.30 1.99
415.40 1.989
415.50 1.989
415.60 1.988
415.70 1.988
415.80 1.987
415.90 1.986
416.00 1.985
416.10 1.984
416.20 1.984
416.30 1.983
416.40 1.982
416.50 1.981
416.60 1.98
416.70 1.979
416.80 1.978
416.90 1.977
417.00 1.975
417.10 1.974
417.20 1.973
417.30 1.972
417.40 1.971
417.50 1.969
417.60 1.968
417.70 1.967
417.80 1.965
417.90 1.964
418.00 1.963
418.10 1.961
418.20 1.96
418.30 1.959
418.40 1.957
418.50 1.956
418.60 1.954
418.70 1.953
418.80 1.952
418.90 1.95
419.00 1.949
419.10 1.947
419.20 1.946
419.30 1.944
419.40 1.943
419.50 1.941
419.60 1.94
419.70 1.938
419.80 1.936
419.90 1.935
420.00 1.933
420.10 1.932
420.20 1.93
420.30 1.929
420.40 1.927
420.50 1.925
420.60 1.924
420.70 1.922
420.80 1.92
420.90 1.919
421.00 1.917
421.10 1.916
421.20 1.914
421.30 1.912
421.40 1.911
421.50 1.909
421.60 1.907
421.70 1.905
421.80 1.904
421.90 1.902
422.00 1.9
422.10 1.899
422.20 1.897
422.30 1.895
422.40 1.894
422.50 1.892
422.60 1.89
422.70 1.888
422.80 1.887
422.90 1.885
423.00 1.883
423.10 1.881
423.20 1.88
423.30 1.878
423.40 1.876
423.50 1.874
423.60 1.872
423.70 1.871
423.80 1.869
423.90 1.867
424.00 1.865
424.10 1.863
424.20 1.862
424.30 1.86
424.40 1.858
424.50 1.856
424.60 1.854
424.70 1.852
424.80 1.85
424.90 1.849
425.00 1.847
425.10 1.845
425.20 1.843
425.30 1.841
425.40 1.839
425.50 1.837
425.60 1.835
425.70 1.833
425.80 1.831
425.90 1.829
426.00 1.827
426.10 1.825
426.20 1.823
426.30 1.821
426.40 1.819
426.50 1.817
426.60 1.815
426.70 1.813
426.80 1.81
426.90 1.808
427.00 1.806
427.10 1.804
427.20 1.802
427.30 1.799
427.40 1.797
427.50 1.795
427.60 1.792
427.70 1.79
427.80 1.788
427.90 1.785
428.00 1.783
428.10 1.78
428.20 1.778
428.30 1.775
428.40 1.772
428.50 1.77
428.60 1.767
428.70 1.764
428.80 1.761
428.90 1.759
429.00 1.756
429.10 1.753
429.20 1.75
429.30 1.746
429.40 1.743
429.50 1.74
429.60 1.737
429.70 1.733
429.80 1.73
429.90 1.726
430.00 1.723
430.10 1.719
430.20 1.715
430.30 1.711
430.40 1.707
430.50 1.703
430.60 1.699
430.70 1.694
430.80 1.69
430.90 1.685
431.00 1.68
431.10 1.675
431.20 1.67
431.30 1.665
431.40 1.659
431.50 1.654
431.60 1.648
431.70 1.642
431.80 1.636
431.90 1.63
432.00 1.624
432.10 1.617
432.20 1.61
432.30 1.603
432.40 1.596
432.50 1.589
432.60 1.581
432.70 1.574
432.80 1.566
432.90 1.558
433.00 1.55
433.10 1.541
433.20 1.533
433.30 1.525
433.40 1.517
433.50 1.509
433.60 1.501
433.70 1.494
433.80 1.487
433.90 1.479
434.00 1.473
434.10 1.472
434.20 1.476
434.30 1.481
434.40 1.486
434.50 1.491
434.60 1.496
434.70 1.501
434.80 1.507
434.90 1.513
435.00 1.518
435.10 1.524
435.20 1.529
435.30 1.534
435.40 1.539
435.50 1.544
435.60 1.549
435.70 1.554
435.80 1.558
435.90 1.562
436.00 1.566
436.10 1.57
436.20 1.573
436.30 1.577
436.40 1.58
436.50 1.583
436.60 1.585
436.70 1.588
436.80 1.59
436.90 1.593
437.00 1.595
437.10 1.597
437.20 1.599
437.30 1.6
437.40 1.602
437.50 1.603
437.60 1.604
437.70 1.605
437.80 1.607
437.90 1.607
438.00 1.608
438.10 1.609
438.20 1.61
438.30 1.61
438.40 1.611
438.50 1.611
438.60 1.611
438.70 1.611
438.80 1.611
438.90 1.612
439.00 1.612
439.10 1.611
439.20 1.611
439.30 1.611
439.40 1.611
439.50 1.611
439.60 1.61
439.70 1.61
439.80 1.609
439.90 1.609
440.00 1.608
440.10 1.608
440.20 1.607
440.30 1.607
440.40 1.606
440.50 1.605
440.60 1.605
440.70 1.604
440.80 1.603
440.90 1.602
441.00 1.602
441.10 1.601
441.20 1.6
441.30 1.599
441.40 1.598
441.50 1.597
441.60 1.596
441.70 1.595
441.80 1.595
441.90 1.594
442.00 1.593
442.10 1.592
442.20 1.591
442.30 1.59
442.40 1.588
442.50 1.587
442.60 1.586
442.70 1.585
442.80 1.584
442.90 1.583
443.00 1.582
443.10 1.581
443.20 1.58
443.30 1.579
443.40 1.578
443.50 1.576
443.60 1.575
443.70 1.574
443.80 1.573
443.90 1.572
444.00 1.571
444.10 1.57
444.20 1.568
444.30 1.567
444.40 1.566
444.50 1.565
444.60 1.564
444.70 1.562
444.80 1.561
444.90 1.56
445.00 1.559
445.10 1.558
445.20 1.556
445.30 1.555
445.40 1.554
445.50 1.553
445.60 1.552
445.70 1.55
445.80 1.549
445.90 1.548
446.00 1.547
446.10 1.545
446.20 1.544
446.30 1.543
446.40 1.542
446.50 1.541
446.60 1.539
446.70 1.538
446.80 1.537
446.90 1.536
447.00 1.534
447.10 1.533
447.20 1.532
447.30 1.531
447.40 1.529
447.50 1.528
447.60 1.527
447.70 1.526
447.80 1.524
447.90 1.523
448.00 1.522
448.10 1.521
448.20 1.52
448.30 1.518
448.40 1.517
448.50 1.516
448.60 1.515
448.70 1.513
448.80 1.512
448.90 1.511
449.00 1.51
449.10 1.508
449.20 1.507
449.30 1.506
449.40 1.505
449.50 1.503
449.60 1.502
449.70 1.501
449.80 1.5
449.90 1.498
450.00 1.497
450.10 1.496
450.20 1.495
450.30 1.493
450.40 1.492
450.50 1.491
450.60 1.49
450.70 1.489
450.80 1.487
450.90 1.486
451.00 1.485
451.10 1.484
451.20 1.482
451.30 1.481
451.40 1.48
451.50 1.479
451.60 1.477
451.70 1.476
451.80 1.475
451.90 1.474
452.00 1.473
452.10 1.471
452.20 1.47
452.30 1.469
452.40 1.468
452.50 1.466
452.60 1.465
452.70 1.464
452.80 1.463
452.90 1.462
453.00 1.46
453.10 1.459
453.20 1.458
453.30 1.457
453.40 1.455
453.50 1.454
453.60 1.453
453.70 1.452
453.80 1.451
453.90 1.449
454.00 1.448
454.10 1.447
