# Version 2.1 - nm, norm@500 to 1, cut digits, bergeron_17000_85.dat_17000
# Wavelength(nm)  Flambda(ergs/cm^s/s/nm)
300.00 2.781
300.10 2.778
300.20 2.776
300.30 2.773
300.40 2.771
300.50 2.769
300.60 2.766
300.70 2.764
300.80 2.761
300.90 2.759
301.00 2.756
301.10 2.754
301.20 2.752
301.30 2.749
301.40 2.747
301.50 2.744
301.60 2.742
301.70 2.74
301.80 2.737
301.90 2.735
302.00 2.732
302.10 2.73
302.20 2.728
302.30 2.725
302.40 2.723
302.50 2.721
302.60 2.718
302.70 2.716
302.80 2.714
302.90 2.711
303.00 2.709
303.10 2.707
303.20 2.704
303.30 2.702
303.40 2.7
303.50 2.697
303.60 2.695
303.70 2.693
303.80 2.69
303.90 2.688
304.00 2.686
304.10 2.683
304.20 2.681
304.30 2.679
304.40 2.676
304.50 2.674
304.60 2.672
304.70 2.669
304.80 2.667
304.90 2.665
305.00 2.663
305.10 2.66
305.20 2.658
305.30 2.656
305.40 2.653
305.50 2.651
305.60 2.649
305.70 2.647
305.80 2.644
305.90 2.642
306.00 2.64
306.10 2.637
306.20 2.635
306.30 2.633
306.40 2.631
306.50 2.628
306.60 2.626
306.70 2.624
306.80 2.622
306.90 2.619
307.00 2.617
307.10 2.615
307.20 2.613
307.30 2.611
307.40 2.608
307.50 2.606
307.60 2.604
307.70 2.602
307.80 2.599
307.90 2.597
308.00 2.595
308.10 2.593
308.20 2.59
308.30 2.588
308.40 2.586
308.50 2.584
308.60 2.582
308.70 2.579
308.80 2.577
308.90 2.575
309.00 2.573
309.10 2.571
309.20 2.568
309.30 2.566
309.40 2.564
309.50 2.562
309.60 2.56
309.70 2.558
309.80 2.555
309.90 2.553
310.00 2.551
310.10 2.549
310.20 2.547
310.30 2.545
310.40 2.542
310.50 2.54
310.60 2.538
310.70 2.536
310.80 2.534
310.90 2.532
311.00 2.529
311.10 2.527
311.20 2.525
311.30 2.523
311.40 2.521
311.50 2.519
311.60 2.517
311.70 2.515
311.80 2.512
311.90 2.51
312.00 2.508
312.10 2.506
312.20 2.504
312.30 2.502
312.40 2.5
312.50 2.497
312.60 2.495
312.70 2.493
312.80 2.491
312.90 2.489
313.00 2.487
313.10 2.485
313.20 2.483
313.30 2.481
313.40 2.479
313.50 2.477
313.60 2.474
313.70 2.472
313.80 2.47
313.90 2.468
314.00 2.466
314.10 2.464
314.20 2.462
314.30 2.46
314.40 2.458
314.50 2.456
314.60 2.454
314.70 2.452
314.80 2.45
314.90 2.448
315.00 2.446
315.10 2.444
315.20 2.441
315.30 2.439
315.40 2.437
315.50 2.435
315.60 2.433
315.70 2.431
315.80 2.429
315.90 2.427
316.00 2.425
316.10 2.423
316.20 2.421
316.30 2.419
316.40 2.417
316.50 2.415
316.60 2.413
316.70 2.411
316.80 2.409
316.90 2.407
317.00 2.405
317.10 2.403
317.20 2.401
317.30 2.399
317.40 2.397
317.50 2.395
317.60 2.393
317.70 2.391
317.80 2.389
317.90 2.387
318.00 2.385
318.10 2.383
318.20 2.381
318.30 2.379
318.40 2.377
318.50 2.375
318.60 2.373
318.70 2.371
318.80 2.369
318.90 2.367
319.00 2.365
319.10 2.363
319.20 2.361
319.30 2.359
319.40 2.357
319.50 2.355
319.60 2.354
319.70 2.352
319.80 2.35
319.90 2.348
320.00 2.346
320.10 2.344
320.20 2.342
320.30 2.34
320.40 2.338
320.50 2.336
320.60 2.334
320.70 2.332
320.80 2.33
320.90 2.328
321.00 2.327
321.10 2.325
321.20 2.323
321.30 2.321
321.40 2.319
321.50 2.317
321.60 2.315
321.70 2.313
321.80 2.311
321.90 2.309
322.00 2.307
322.10 2.306
322.20 2.304
322.30 2.302
322.40 2.3
322.50 2.298
322.60 2.296
322.70 2.294
322.80 2.292
322.90 2.29
323.00 2.289
323.10 2.287
323.20 2.285
323.30 2.283
323.40 2.281
323.50 2.279
323.60 2.277
323.70 2.276
323.80 2.274
323.90 2.272
324.00 2.27
324.10 2.268
324.20 2.266
324.30 2.264
324.40 2.263
324.50 2.261
324.60 2.259
324.70 2.257
324.80 2.255
324.90 2.253
325.00 2.251
325.10 2.25
325.20 2.248
325.30 2.246
325.40 2.244
325.50 2.242
325.60 2.24
325.70 2.239
325.80 2.237
325.90 2.235
326.00 2.233
326.10 2.231
326.20 2.23
326.30 2.228
326.40 2.226
326.50 2.224
326.60 2.222
326.70 2.22
326.80 2.219
326.90 2.217
327.00 2.215
327.10 2.213
327.20 2.211
327.30 2.21
327.40 2.208
327.50 2.206
327.60 2.204
327.70 2.202
327.80 2.201
327.90 2.199
328.00 2.197
328.10 2.195
328.20 2.194
328.30 2.192
328.40 2.19
328.50 2.188
328.60 2.186
328.70 2.185
328.80 2.183
328.90 2.181
329.00 2.179
329.10 2.178
329.20 2.176
329.30 2.174
329.40 2.172
329.50 2.171
329.60 2.169
329.70 2.167
329.80 2.165
329.90 2.164
330.00 2.162
330.10 2.16
330.20 2.158
330.30 2.157
330.40 2.155
330.50 2.153
330.60 2.151
330.70 2.15
330.80 2.148
330.90 2.146
331.00 2.145
331.10 2.143
331.20 2.141
331.30 2.139
331.40 2.138
331.50 2.136
331.60 2.134
331.70 2.133
331.80 2.131
331.90 2.129
332.00 2.127
332.10 2.126
332.20 2.124
332.30 2.122
332.40 2.121
332.50 2.119
332.60 2.117
332.70 2.115
332.80 2.114
332.90 2.112
333.00 2.11
333.10 2.109
333.20 2.107
333.30 2.105
333.40 2.104
333.50 2.102
333.60 2.1
333.70 2.099
333.80 2.097
333.90 2.095
334.00 2.094
334.10 2.092
334.20 2.09
334.30 2.089
334.40 2.087
334.50 2.085
334.60 2.084
334.70 2.082
334.80 2.08
334.90 2.079
335.00 2.077
335.10 2.075
335.20 2.074
335.30 2.072
335.40 2.07
335.50 2.069
335.60 2.067
335.70 2.065
335.80 2.064
335.90 2.062
336.00 2.061
336.10 2.059
336.20 2.057
336.30 2.056
336.40 2.054
336.50 2.052
336.60 2.051
336.70 2.049
336.80 2.047
336.90 2.046
337.00 2.044
337.10 2.043
337.20 2.041
337.30 2.039
337.40 2.038
337.50 2.036
337.60 2.035
337.70 2.033
337.80 2.031
337.90 2.03
338.00 2.028
338.10 2.027
338.20 2.025
338.30 2.023
338.40 2.022
338.50 2.02
338.60 2.019
338.70 2.017
338.80 2.015
338.90 2.014
339.00 2.012
339.10 2.011
339.20 2.009
339.30 2.007
339.40 2.006
339.50 2.004
339.60 2.003
339.70 2.001
339.80 1.999
339.90 1.998
340.00 1.996
340.10 1.995
340.20 1.993
340.30 1.992
340.40 1.99
340.50 1.989
340.60 1.987
340.70 1.985
340.80 1.984
340.90 1.982
341.00 1.981
341.10 1.979
341.20 1.978
341.30 1.976
341.40 1.975
341.50 1.973
341.60 1.971
341.70 1.97
341.80 1.968
341.90 1.967
342.00 1.965
342.10 1.964
342.20 1.962
342.30 1.961
342.40 1.959
342.50 1.958
342.60 1.956
342.70 1.955
342.80 1.953
342.90 1.952
343.00 1.95
343.10 1.948
343.20 1.947
343.30 1.945
343.40 1.944
343.50 1.942
343.60 1.941
343.70 1.939
343.80 1.938
343.90 1.936
344.00 1.935
344.10 1.933
344.20 1.932
344.30 1.93
344.40 1.929
344.50 1.927
344.60 1.926
344.70 1.924
344.80 1.923
344.90 1.921
345.00 1.92
345.10 1.918
345.20 1.917
345.30 1.915
345.40 1.914
345.50 1.912
345.60 1.911
345.70 1.909
345.80 1.908
345.90 1.906
346.00 1.905
346.10 1.904
346.20 1.902
346.30 1.901
346.40 1.899
346.50 1.898
346.60 1.896
346.70 1.895
346.80 1.893
346.90 1.892
347.00 1.89
347.10 1.889
347.20 1.887
347.30 1.886
347.40 1.885
347.50 1.883
347.60 1.882
347.70 1.88
347.80 1.879
347.90 1.877
348.00 1.876
348.10 1.874
348.20 1.873
348.30 1.871
348.40 1.87
348.50 1.869
348.60 1.867
348.70 1.866
348.80 1.864
348.90 1.863
349.00 1.861
349.10 1.86
349.20 1.858
349.30 1.857
349.40 1.856
349.50 1.854
349.60 1.853
349.70 1.851
349.80 1.85
349.90 1.848
350.00 1.847
350.10 1.846
350.20 1.844
350.30 1.843
350.40 1.841
350.50 1.84
350.60 1.839
350.70 1.837
350.80 1.836
350.90 1.834
351.00 1.833
351.10 1.832
351.20 1.83
351.30 1.829
351.40 1.827
351.50 1.826
351.60 1.825
351.70 1.823
351.80 1.822
351.90 1.82
352.00 1.819
352.10 1.818
352.20 1.816
352.30 1.815
352.40 1.814
352.50 1.812
352.60 1.811
352.70 1.809
352.80 1.808
352.90 1.807
353.00 1.805
353.10 1.804
353.20 1.802
353.30 1.801
353.40 1.8
353.50 1.798
353.60 1.797
353.70 1.796
353.80 1.794
353.90 1.793
354.00 1.791
354.10 1.79
354.20 1.789
354.30 1.787
354.40 1.786
354.50 1.785
354.60 1.783
354.70 1.782
354.80 1.781
354.90 1.779
355.00 1.778
355.10 1.777
355.20 1.775
355.30 1.774
355.40 1.773
355.50 1.771
355.60 1.77
355.70 1.769
355.80 1.767
355.90 1.766
356.00 1.765
356.10 1.763
356.20 1.762
356.30 1.761
356.40 1.759
356.50 1.758
356.60 1.757
356.70 1.755
356.80 1.754
356.90 1.753
357.00 1.751
357.10 1.75
357.20 1.749
357.30 1.747
357.40 1.746
357.50 1.745
357.60 1.743
357.70 1.742
357.80 1.741
357.90 1.739
358.00 1.738
358.10 1.737
358.20 1.735
358.30 1.734
358.40 1.733
358.50 1.732
358.60 1.73
358.70 1.729
358.80 1.728
358.90 1.726
359.00 1.725
359.10 1.724
359.20 1.722
359.30 1.721
359.40 1.72
359.50 1.719
359.60 1.717
359.70 1.716
359.80 1.715
359.90 1.713
360.00 1.712
360.10 1.711
360.20 1.71
360.30 1.708
360.40 1.707
360.50 1.706
360.60 1.704
360.70 1.703
360.80 1.702
360.90 1.701
361.00 1.699
361.10 1.698
361.20 1.697
361.30 1.695
361.40 1.694
361.50 1.693
361.60 1.692
361.70 1.69
361.80 1.689
361.90 1.688
362.00 1.687
362.10 1.685
362.20 1.684
362.30 1.683
362.40 1.682
362.50 1.68
362.60 1.679
362.70 1.678
362.80 1.677
362.90 1.675
363.00 1.674
363.10 1.673
363.20 1.671
363.30 1.67
363.40 1.668
363.50 1.667
363.60 1.666
363.70 1.664
363.80 1.663
363.90 1.662
364.00 1.66
364.10 1.659
364.20 1.657
364.30 1.656
364.40 1.655
364.50 1.653
364.60 1.652
364.70 1.65
364.80 1.649
364.90 1.648
365.00 1.646
365.10 1.645
365.20 1.643
365.30 1.642
365.40 1.641
365.50 1.639
365.60 1.638
365.70 1.636
365.80 1.635
365.90 1.634
366.00 1.632
366.10 1.631
366.20 1.63
366.30 1.628
366.40 1.627
366.50 1.626
366.60 1.625
366.70 1.623
366.80 1.622
366.90 1.621
367.00 1.619
367.10 1.618
367.20 1.617
367.30 1.616
367.40 1.614
367.50 1.613
367.60 1.612
367.70 1.611
367.80 1.609
367.90 1.608
368.00 1.607
368.10 1.606
368.20 1.605
368.30 1.603
368.40 1.602
368.50 1.601
368.60 1.6
368.70 1.598
368.80 1.597
368.90 1.596
369.00 1.595
369.10 1.594
369.20 1.592
369.30 1.591
369.40 1.59
369.50 1.589
369.60 1.587
369.70 1.586
369.80 1.585
369.90 1.584
370.00 1.583
370.10 1.582
370.20 1.581
370.30 1.58
370.40 1.578
370.50 1.577
370.60 1.576
370.70 1.575
370.80 1.574
370.90 1.573
371.00 1.572
371.10 1.571
371.20 1.57
371.30 1.569
371.40 1.568
371.50 1.567
371.60 1.566
371.70 1.565
371.80 1.564
371.90 1.563
372.00 1.562
372.10 1.561
372.20 1.561
372.30 1.56
372.40 1.559
372.50 1.559
372.60 1.558
372.70 1.557
372.80 1.557
372.90 1.556
373.00 1.555
373.10 1.555
373.20 1.554
373.30 1.553
373.40 1.553
373.50 1.552
373.60 1.551
373.70 1.551
373.80 1.55
373.90 1.549
374.00 1.549
374.10 1.548
374.20 1.548
374.30 1.548
374.40 1.547
374.50 1.547
374.60 1.547
374.70 1.546
374.80 1.546
374.90 1.546
375.00 1.545
375.10 1.545
375.20 1.545
375.30 1.544
375.40 1.544
375.50 1.544
375.60 1.543
375.70 1.543
375.80 1.542
375.90 1.542
376.00 1.542
376.10 1.541
376.20 1.541
376.30 1.54
376.40 1.54
376.50 1.54
376.60 1.539
376.70 1.539
376.80 1.538
376.90 1.538
377.00 1.538
377.10 1.537
377.20 1.536
377.30 1.535
377.40 1.534
377.50 1.533
377.60 1.532
377.70 1.531
377.80 1.53
377.90 1.53
378.00 1.529
378.10 1.526
378.20 1.524
378.30 1.521
378.40 1.519
378.50 1.516
378.60 1.514
378.70 1.511
378.80 1.509
378.90 1.506
379.00 1.504
379.10 1.502
379.20 1.5
379.30 1.498
379.40 1.497
379.50 1.495
379.60 1.493
379.70 1.492
379.80 1.49
379.90 1.488
380.00 1.486
380.10 1.488
380.20 1.489
380.30 1.491
380.40 1.493
380.50 1.494
380.60 1.496
380.70 1.497
380.80 1.499
380.90 1.5
381.00 1.502
381.10 1.502
381.20 1.502
381.30 1.502
381.40 1.502
381.50 1.502
381.60 1.501
381.70 1.5
381.80 1.498
381.90 1.496
382.00 1.493
382.10 1.49
382.20 1.487
382.30 1.481
382.40 1.475
382.50 1.469
382.60 1.463
382.70 1.457
382.80 1.451
382.90 1.445
383.00 1.439
383.10 1.434
383.20 1.428
383.30 1.424
383.40 1.42
383.50 1.415
383.60 1.416
383.70 1.421
383.80 1.424
383.90 1.428
384.00 1.433
384.10 1.44
384.20 1.447
384.30 1.454
384.40 1.461
384.50 1.467
384.60 1.473
384.70 1.477
384.80 1.482
384.90 1.485
385.00 1.488
385.10 1.49
385.20 1.492
385.30 1.493
385.40 1.494
385.50 1.495
385.60 1.495
385.70 1.494
385.80 1.493
385.90 1.492
386.00 1.491
386.10 1.489
386.20 1.486
386.30 1.484
386.40 1.48
386.50 1.477
386.60 1.473
386.70 1.469
386.80 1.464
386.90 1.459
387.00 1.453
387.10 1.448
387.20 1.441
387.30 1.434
387.40 1.427
387.50 1.419
387.60 1.411
387.70 1.402
387.80 1.392
387.90 1.382
388.00 1.371
388.10 1.358
388.20 1.344
388.30 1.329
388.40 1.314
388.50 1.3
388.60 1.287
388.70 1.279
388.80 1.273
388.90 1.267
389.00 1.272
389.10 1.278
389.20 1.286
389.30 1.298
389.40 1.312
389.50 1.328
389.60 1.343
389.70 1.357
389.80 1.37
389.90 1.382
390.00 1.393
390.10 1.403
390.20 1.413
390.30 1.422
390.40 1.431
390.50 1.439
390.60 1.447
390.70 1.454
390.80 1.461
390.90 1.467
391.00 1.473
391.10 1.479
391.20 1.484
391.30 1.489
391.40 1.494
391.50 1.498
391.60 1.503
391.70 1.506
391.80 1.509
391.90 1.512
392.00 1.514
392.10 1.516
392.20 1.517
392.30 1.518
392.40 1.518
392.50 1.518
392.60 1.517
392.70 1.516
392.80 1.515
392.90 1.512
393.00 1.51
393.10 1.507
393.20 1.503
393.30 1.499
393.40 1.494
393.50 1.489
393.60 1.483
393.70 1.477
393.80 1.47
393.90 1.463
394.00 1.455
394.10 1.447
394.20 1.438
394.30 1.429
394.40 1.419
394.50 1.409
394.60 1.399
394.70 1.388
394.80 1.376
394.90 1.364
395.00 1.352
395.10 1.34
395.20 1.327
395.30 1.314
395.40 1.3
395.50 1.287
395.60 1.272
395.70 1.257
395.80 1.242
395.90 1.226
396.00 1.211
396.10 1.194
396.20 1.177
396.30 1.157
396.40 1.137
396.50 1.112
396.60 1.087
396.70 1.061
396.80 1.043
396.90 1.024
397.00 1.005
397.10 1.022
397.20 1.039
397.30 1.056
397.40 1.08
397.50 1.105
397.60 1.129
397.70 1.149
397.80 1.167
397.90 1.185
398.00 1.2
398.10 1.215
398.20 1.23
398.30 1.245
398.40 1.259
398.50 1.274
398.60 1.287
398.70 1.301
398.80 1.314
398.90 1.327
399.00 1.339
399.10 1.352
399.20 1.364
399.30 1.376
399.40 1.388
399.50 1.399
399.60 1.41
399.70 1.421
399.80 1.432
399.90 1.442
400.00 1.452
400.10 1.462
400.20 1.471
400.30 1.48
400.40 1.489
400.50 1.497
400.60 1.505
400.70 1.513
400.80 1.52
400.90 1.528
401.00 1.534
401.10 1.541
401.20 1.547
401.30 1.552
401.40 1.558
401.50 1.563
401.60 1.567
401.70 1.572
401.80 1.576
401.90 1.58
402.00 1.583
402.10 1.587
402.20 1.589
402.30 1.592
402.40 1.594
402.50 1.596
402.60 1.598
402.70 1.599
402.80 1.6
402.90 1.601
403.00 1.601
403.10 1.601
403.20 1.601
403.30 1.6
403.40 1.599
403.50 1.598
403.60 1.597
403.70 1.595
403.80 1.593
403.90 1.59
404.00 1.587
404.10 1.584
404.20 1.581
404.30 1.577
404.40 1.573
404.50 1.568
404.60 1.564
404.70 1.559
404.80 1.553
404.90 1.548
405.00 1.542
405.10 1.535
405.20 1.529
405.30 1.522
405.40 1.514
405.50 1.507
405.60 1.499
405.70 1.49
405.80 1.482
405.90 1.473
406.00 1.464
406.10 1.454
406.20 1.444
406.30 1.434
406.40 1.423
406.50 1.412
406.60 1.401
406.70 1.39
406.80 1.378
406.90 1.366
407.00 1.353
407.10 1.34
407.20 1.327
407.30 1.314
407.40 1.3
407.50 1.286
407.60 1.272
407.70 1.257
407.80 1.243
407.90 1.228
408.00 1.213
408.10 1.197
408.20 1.182
408.30 1.166
408.40 1.15
408.50 1.134
408.60 1.118
408.70 1.102
408.80 1.085
408.90 1.068
409.00 1.051
409.10 1.034
409.20 1.017
409.30 1
409.40 0.9822
409.50 0.9626
409.60 0.9419
409.70 0.9173
409.80 0.8909
409.90 0.8628
410.00 0.8367
410.10 0.8168
410.20 0.8031
410.30 0.8248
410.40 0.849
410.50 0.8755
410.60 0.9017
410.70 0.9259
410.80 0.9479
410.90 0.9665
411.00 0.9841
411.10 1.001
411.20 1.016
411.30 1.032
411.40 1.048
411.50 1.063
411.60 1.078
411.70 1.094
411.80 1.109
411.90 1.124
412.00 1.138
412.10 1.152
412.20 1.167
412.30 1.181
412.40 1.194
412.50 1.208
412.60 1.222
412.70 1.235
412.80 1.248
412.90 1.261
413.00 1.273
413.10 1.285
413.20 1.297
413.30 1.309
413.40 1.321
413.50 1.332
413.60 1.343
413.70 1.353
413.80 1.364
413.90 1.374
414.00 1.384
414.10 1.394
414.20 1.403
414.30 1.412
414.40 1.421
414.50 1.43
414.60 1.438
414.70 1.447
414.80 1.455
414.90 1.463
415.00 1.47
415.10 1.478
415.20 1.485
415.30 1.492
415.40 1.498
415.50 1.505
415.60 1.511
415.70 1.518
415.80 1.524
415.90 1.529
416.00 1.535
416.10 1.54
416.20 1.546
416.30 1.551
416.40 1.556
416.50 1.56
416.60 1.565
416.70 1.569
416.80 1.574
416.90 1.578
417.00 1.582
417.10 1.586
417.20 1.589
417.30 1.593
417.40 1.596
417.50 1.599
417.60 1.602
417.70 1.605
417.80 1.608
417.90 1.611
418.00 1.613
418.10 1.615
418.20 1.618
418.30 1.62
418.40 1.622
418.50 1.624
418.60 1.626
418.70 1.627
418.80 1.629
418.90 1.631
419.00 1.632
419.10 1.633
419.20 1.634
419.30 1.636
419.40 1.637
419.50 1.637
419.60 1.638
419.70 1.639
419.80 1.64
419.90 1.64
420.00 1.641
420.10 1.641
420.20 1.641
420.30 1.641
420.40 1.642
420.50 1.642
420.60 1.642
420.70 1.641
420.80 1.641
420.90 1.641
421.00 1.641
421.10 1.64
421.20 1.64
421.30 1.639
421.40 1.638
421.50 1.638
421.60 1.637
421.70 1.636
421.80 1.635
421.90 1.634
422.00 1.633
422.10 1.631
422.20 1.63
422.30 1.629
422.40 1.627
422.50 1.626
422.60 1.624
422.70 1.623
422.80 1.621
422.90 1.619
423.00 1.617
423.10 1.615
423.20 1.613
423.30 1.611
423.40 1.609
423.50 1.607
423.60 1.604
423.70 1.602
423.80 1.599
423.90 1.597
424.00 1.594
424.10 1.592
424.20 1.589
424.30 1.586
424.40 1.583
424.50 1.58
424.60 1.577
424.70 1.574
424.80 1.57
424.90 1.567
425.00 1.563
425.10 1.56
425.20 1.556
425.30 1.552
425.40 1.549
425.50 1.545
425.60 1.541
425.70 1.536
425.80 1.532
425.90 1.528
426.00 1.523
426.10 1.519
426.20 1.513
426.30 1.508
426.40 1.503
426.50 1.498
426.60 1.493
426.70 1.488
426.80 1.482
426.90 1.477
427.00 1.471
427.10 1.466
427.20 1.46
427.30 1.454
427.40 1.448
427.50 1.442
427.60 1.435
427.70 1.429
427.80 1.422
427.90 1.415
428.00 1.409
428.10 1.402
428.20 1.394
428.30 1.387
428.40 1.38
428.50 1.372
428.60 1.364
428.70 1.356
428.80 1.348
428.90 1.34
429.00 1.332
429.10 1.323
429.20 1.314
429.30 1.306
429.40 1.297
429.50 1.287
429.60 1.278
429.70 1.268
429.80 1.259
429.90 1.249
430.00 1.239
430.10 1.229
430.20 1.218
430.30 1.208
430.40 1.197
430.50 1.186
430.60 1.175
430.70 1.164
430.80 1.153
430.90 1.141
431.00 1.13
431.10 1.118
431.20 1.106
431.30 1.093
431.40 1.081
431.50 1.069
431.60 1.056
431.70 1.043
431.80 1.03
431.90 1.017
432.00 1.004
432.10 0.9904
432.20 0.9767
432.30 0.9629
432.40 0.9488
432.50 0.9343
432.60 0.9195
432.70 0.9045
432.80 0.8893
432.90 0.8742
433.00 0.8591
433.10 0.8445
433.20 0.8298
433.30 0.815
433.40 0.7992
433.50 0.7819
433.60 0.7634
433.70 0.7385
433.80 0.7091
433.90 0.675
434.00 0.6289
434.10 0.6296
434.20 0.677
434.30 0.7099
434.40 0.7382
434.50 0.7618
434.60 0.7793
434.70 0.7954
434.80 0.8103
434.90 0.824
435.00 0.8378
435.10 0.8514
435.20 0.8654
435.30 0.8794
435.40 0.8935
435.50 0.9073
435.60 0.9207
435.70 0.9339
435.80 0.9467
435.90 0.9593
436.00 0.9715
436.10 0.9835
436.20 0.9954
436.30 1.007
436.40 1.018
436.50 1.03
436.60 1.041
436.70 1.052
436.80 1.062
436.90 1.073
437.00 1.083
437.10 1.094
437.20 1.104
437.30 1.113
437.40 1.123
437.50 1.132
437.60 1.142
437.70 1.151
437.80 1.159
437.90 1.168
438.00 1.176
438.10 1.185
438.20 1.193
438.30 1.201
438.40 1.208
438.50 1.216
438.60 1.223
438.70 1.231
438.80 1.238
438.90 1.245
439.00 1.251
439.10 1.258
439.20 1.264
439.30 1.27
439.40 1.276
439.50 1.282
439.60 1.288
439.70 1.294
439.80 1.299
439.90 1.304
440.00 1.309
440.10 1.314
440.20 1.319
440.30 1.324
440.40 1.329
440.50 1.333
440.60 1.337
440.70 1.342
440.80 1.346
440.90 1.35
441.00 1.353
441.10 1.357
441.20 1.361
441.30 1.364
441.40 1.368
441.50 1.371
441.60 1.374
441.70 1.377
441.80 1.38
441.90 1.383
442.00 1.386
442.10 1.389
442.20 1.391
442.30 1.394
442.40 1.396
442.50 1.398
442.60 1.401
442.70 1.403
442.80 1.405
442.90 1.407
443.00 1.409
443.10 1.411
443.20 1.412
443.30 1.414
443.40 1.416
443.50 1.417
443.60 1.419
443.70 1.42
443.80 1.422
443.90 1.423
444.00 1.424
444.10 1.426
444.20 1.427
444.30 1.428
444.40 1.429
444.50 1.43
444.60 1.431
444.70 1.432
444.80 1.433
444.90 1.434
445.00 1.435
445.10 1.435
445.20 1.436
445.30 1.437
445.40 1.437
445.50 1.438
445.60 1.438
445.70 1.439
445.80 1.439
445.90 1.44
446.00 1.44
446.10 1.441
446.20 1.441
446.30 1.441
446.40 1.442
446.50 1.442
446.60 1.442
446.70 1.442
446.80 1.442
446.90 1.442
447.00 1.443
447.10 1.443
447.20 1.443
447.30 1.443
447.40 1.443
447.50 1.443
447.60 1.443
447.70 1.443
447.80 1.442
447.90 1.442
448.00 1.442
448.10 1.442
448.20 1.442
448.30 1.442
448.40 1.441
448.50 1.441
448.60 1.441
448.70 1.441
448.80 1.44
448.90 1.44
449.00 1.44
449.10 1.44
449.20 1.439
449.30 1.439
449.40 1.439
449.50 1.438
449.60 1.438
449.70 1.437
449.80 1.437
449.90 1.437
450.00 1.436
450.10 1.436
450.20 1.435
450.30 1.435
450.40 1.434
450.50 1.434
450.60 1.433
450.70 1.433
450.80 1.432
450.90 1.431
451.00 1.431
451.10 1.43
451.20 1.43
451.30 1.429
451.40 1.428
451.50 1.428
451.60 1.427
451.70 1.427
451.80 1.426
451.90 1.425
452.00 1.425
452.10 1.424
452.20 1.423
452.30 1.422
452.40 1.422
452.50 1.421
452.60 1.42
452.70 1.42
452.80 1.419
452.90 1.418
453.00 1.417
453.10 1.417
453.20 1.416
453.30 1.415
453.40 1.414
453.50 1.414
453.60 1.413
