# Version 2.1 - nm, norm@500 to 1, cut digits, bergeron_75000_90.dat_75000
# Wavelength(nm)  Flambda(ergs/cm^s/s/nm)
300.00 6.642
300.10 6.634
300.20 6.626
300.30 6.617
300.40 6.609
300.50 6.601
300.60 6.593
300.70 6.585
300.80 6.577
300.90 6.569
301.00 6.56
301.10 6.552
301.20 6.544
301.30 6.536
301.40 6.528
301.50 6.52
301.60 6.512
301.70 6.504
301.80 6.496
301.90 6.488
302.00 6.48
302.10 6.472
302.20 6.464
302.30 6.456
302.40 6.448
302.50 6.44
302.60 6.432
302.70 6.424
302.80 6.416
302.90 6.409
303.00 6.401
303.10 6.393
303.20 6.385
303.30 6.377
303.40 6.369
303.50 6.361
303.60 6.354
303.70 6.346
303.80 6.338
303.90 6.33
304.00 6.323
304.10 6.315
304.20 6.307
304.30 6.299
304.40 6.292
304.50 6.284
304.60 6.276
304.70 6.269
304.80 6.261
304.90 6.253
305.00 6.246
305.10 6.238
305.20 6.231
305.30 6.223
305.40 6.215
305.50 6.208
305.60 6.2
305.70 6.193
305.80 6.185
305.90 6.178
306.00 6.17
306.10 6.163
306.20 6.155
306.30 6.148
306.40 6.14
306.50 6.133
306.60 6.125
306.70 6.118
306.80 6.11
306.90 6.103
307.00 6.096
307.10 6.088
307.20 6.081
307.30 6.073
307.40 6.066
307.50 6.059
307.60 6.051
307.70 6.044
307.80 6.037
307.90 6.029
308.00 6.022
308.10 6.015
308.20 6.008
308.30 6
308.40 5.993
308.50 5.986
308.60 5.979
308.70 5.971
308.80 5.964
308.90 5.957
309.00 5.95
309.10 5.943
309.20 5.935
309.30 5.928
309.40 5.921
309.50 5.914
309.60 5.907
309.70 5.9
309.80 5.893
309.90 5.886
310.00 5.879
310.10 5.872
310.20 5.864
310.30 5.857
310.40 5.85
310.50 5.843
310.60 5.836
310.70 5.829
310.80 5.822
310.90 5.815
311.00 5.808
311.10 5.801
311.20 5.795
311.30 5.788
311.40 5.781
311.50 5.774
311.60 5.767
311.70 5.76
311.80 5.753
311.90 5.746
312.00 5.739
312.10 5.732
312.20 5.726
312.30 5.719
312.40 5.712
312.50 5.705
312.60 5.698
312.70 5.692
312.80 5.685
312.90 5.678
313.00 5.671
313.10 5.664
313.20 5.658
313.30 5.651
313.40 5.644
313.50 5.638
313.60 5.631
313.70 5.624
313.80 5.618
313.90 5.611
314.00 5.604
314.10 5.598
314.20 5.591
314.30 5.584
314.40 5.578
314.50 5.571
314.60 5.564
314.70 5.558
314.80 5.551
314.90 5.545
315.00 5.538
315.10 5.532
315.20 5.525
315.30 5.518
315.40 5.512
315.50 5.505
315.60 5.499
315.70 5.492
315.80 5.486
315.90 5.479
316.00 5.473
316.10 5.467
316.20 5.46
316.30 5.454
316.40 5.447
316.50 5.441
316.60 5.434
316.70 5.428
316.80 5.422
316.90 5.415
317.00 5.409
317.10 5.402
317.20 5.396
317.30 5.39
317.40 5.383
317.50 5.377
317.60 5.371
317.70 5.364
317.80 5.358
317.90 5.352
318.00 5.346
318.10 5.339
318.20 5.333
318.30 5.327
318.40 5.321
318.50 5.314
318.60 5.308
318.70 5.302
318.80 5.296
318.90 5.289
319.00 5.283
319.10 5.277
319.20 5.271
319.30 5.265
319.40 5.259
319.50 5.253
319.60 5.246
319.70 5.24
319.80 5.234
319.90 5.228
320.00 5.222
320.10 5.216
320.20 5.21
320.30 5.204
320.40 5.198
320.50 5.192
320.60 5.186
320.70 5.18
320.80 5.173
320.90 5.167
321.00 5.161
321.10 5.155
321.20 5.149
321.30 5.143
321.40 5.137
321.50 5.132
321.60 5.126
321.70 5.12
321.80 5.114
321.90 5.108
322.00 5.102
322.10 5.096
322.20 5.09
322.30 5.084
322.40 5.078
322.50 5.072
322.60 5.066
322.70 5.061
322.80 5.055
322.90 5.049
323.00 5.043
323.10 5.037
323.20 5.031
323.30 5.026
323.40 5.02
323.50 5.014
323.60 5.008
323.70 5.002
323.80 4.997
323.90 4.991
324.00 4.985
324.10 4.979
324.20 4.974
324.30 4.968
324.40 4.962
324.50 4.957
324.60 4.951
324.70 4.945
324.80 4.939
324.90 4.934
325.00 4.928
325.10 4.922
325.20 4.917
325.30 4.911
325.40 4.906
325.50 4.9
325.60 4.894
325.70 4.889
325.80 4.883
325.90 4.877
326.00 4.872
326.10 4.866
326.20 4.861
326.30 4.855
326.40 4.85
326.50 4.844
326.60 4.838
326.70 4.833
326.80 4.827
326.90 4.822
327.00 4.816
327.10 4.811
327.20 4.805
327.30 4.8
327.40 4.794
327.50 4.789
327.60 4.783
327.70 4.778
327.80 4.773
327.90 4.767
328.00 4.762
328.10 4.756
328.20 4.751
328.30 4.745
328.40 4.74
328.50 4.735
328.60 4.729
328.70 4.724
328.80 4.719
328.90 4.713
329.00 4.708
329.10 4.702
329.20 4.697
329.30 4.692
329.40 4.686
329.50 4.681
329.60 4.676
329.70 4.671
329.80 4.665
329.90 4.66
330.00 4.655
330.10 4.649
330.20 4.644
330.30 4.639
330.40 4.634
330.50 4.629
330.60 4.623
330.70 4.618
330.80 4.613
330.90 4.608
331.00 4.602
331.10 4.597
331.20 4.592
331.30 4.587
331.40 4.582
331.50 4.577
331.60 4.571
331.70 4.566
331.80 4.561
331.90 4.556
332.00 4.551
332.10 4.546
332.20 4.541
332.30 4.535
332.40 4.53
332.50 4.525
332.60 4.52
332.70 4.515
332.80 4.51
332.90 4.505
333.00 4.5
333.10 4.495
333.20 4.49
333.30 4.485
333.40 4.48
333.50 4.475
333.60 4.47
333.70 4.465
333.80 4.46
333.90 4.455
334.00 4.45
334.10 4.445
334.20 4.44
334.30 4.435
334.40 4.43
334.50 4.425
334.60 4.42
334.70 4.415
334.80 4.41
334.90 4.405
335.00 4.4
335.10 4.395
335.20 4.39
335.30 4.385
335.40 4.381
335.50 4.376
335.60 4.371
335.70 4.366
335.80 4.361
335.90 4.356
336.00 4.351
336.10 4.346
336.20 4.342
336.30 4.337
336.40 4.332
336.50 4.327
336.60 4.322
336.70 4.318
336.80 4.313
336.90 4.308
337.00 4.303
337.10 4.298
337.20 4.294
337.30 4.289
337.40 4.284
337.50 4.279
337.60 4.275
337.70 4.27
337.80 4.265
337.90 4.26
338.00 4.256
338.10 4.251
338.20 4.246
338.30 4.242
338.40 4.237
338.50 4.232
338.60 4.228
338.70 4.223
338.80 4.218
338.90 4.214
339.00 4.209
339.10 4.204
339.20 4.2
339.30 4.195
339.40 4.19
339.50 4.186
339.60 4.181
339.70 4.177
339.80 4.172
339.90 4.167
340.00 4.163
340.10 4.158
340.20 4.154
340.30 4.149
340.40 4.144
340.50 4.14
340.60 4.135
340.70 4.131
340.80 4.126
340.90 4.122
341.00 4.117
341.10 4.113
341.20 4.108
341.30 4.104
341.40 4.099
341.50 4.095
341.60 4.09
341.70 4.086
341.80 4.081
341.90 4.077
342.00 4.072
342.10 4.068
342.20 4.063
342.30 4.059
342.40 4.054
342.50 4.05
342.60 4.046
342.70 4.041
342.80 4.037
342.90 4.032
343.00 4.028
343.10 4.024
343.20 4.019
343.30 4.015
343.40 4.01
343.50 4.006
343.60 4.002
343.70 3.997
343.80 3.993
343.90 3.989
344.00 3.984
344.10 3.98
344.20 3.976
344.30 3.971
344.40 3.967
344.50 3.963
344.60 3.958
344.70 3.954
344.80 3.95
344.90 3.945
345.00 3.941
345.10 3.937
345.20 3.933
345.30 3.928
345.40 3.924
345.50 3.92
345.60 3.916
345.70 3.911
345.80 3.907
345.90 3.903
346.00 3.899
346.10 3.894
346.20 3.89
346.30 3.886
346.40 3.882
346.50 3.878
346.60 3.873
346.70 3.869
346.80 3.865
346.90 3.861
347.00 3.857
347.10 3.853
347.20 3.848
347.30 3.844
347.40 3.84
347.50 3.836
347.60 3.832
347.70 3.828
347.80 3.824
347.90 3.819
348.00 3.815
348.10 3.811
348.20 3.807
348.30 3.803
348.40 3.799
348.50 3.795
348.60 3.791
348.70 3.787
348.80 3.783
348.90 3.779
349.00 3.774
349.10 3.77
349.20 3.766
349.30 3.762
349.40 3.758
349.50 3.754
349.60 3.75
349.70 3.746
349.80 3.742
349.90 3.738
350.00 3.734
350.10 3.73
350.20 3.726
350.30 3.722
350.40 3.718
350.50 3.714
350.60 3.71
350.70 3.706
350.80 3.702
350.90 3.698
351.00 3.694
351.10 3.691
351.20 3.687
351.30 3.683
351.40 3.679
351.50 3.675
351.60 3.671
351.70 3.667
351.80 3.663
351.90 3.659
352.00 3.655
352.10 3.651
352.20 3.647
352.30 3.644
352.40 3.64
352.50 3.636
352.60 3.632
352.70 3.628
352.80 3.624
352.90 3.62
353.00 3.617
353.10 3.613
353.20 3.609
353.30 3.605
353.40 3.601
353.50 3.597
353.60 3.594
353.70 3.59
353.80 3.586
353.90 3.582
354.00 3.578
354.10 3.574
354.20 3.571
354.30 3.567
354.40 3.563
354.50 3.559
354.60 3.556
354.70 3.552
354.80 3.548
354.90 3.544
355.00 3.541
355.10 3.537
355.20 3.533
355.30 3.529
355.40 3.526
355.50 3.522
355.60 3.518
355.70 3.515
355.80 3.511
355.90 3.507
356.00 3.503
356.10 3.5
356.20 3.496
356.30 3.492
356.40 3.489
356.50 3.485
356.60 3.481
356.70 3.478
356.80 3.474
356.90 3.47
357.00 3.467
357.10 3.463
357.20 3.46
357.30 3.456
357.40 3.452
357.50 3.449
357.60 3.445
357.70 3.441
357.80 3.438
357.90 3.434
358.00 3.431
358.10 3.427
358.20 3.423
358.30 3.42
358.40 3.416
358.50 3.413
358.60 3.409
358.70 3.405
358.80 3.402
358.90 3.398
359.00 3.395
359.10 3.391
359.20 3.388
359.30 3.384
359.40 3.381
359.50 3.377
359.60 3.374
359.70 3.37
359.80 3.367
359.90 3.363
360.00 3.359
360.10 3.356
360.20 3.352
360.30 3.349
360.40 3.346
360.50 3.342
360.60 3.339
360.70 3.335
360.80 3.332
360.90 3.328
361.00 3.325
361.10 3.321
361.20 3.318
361.30 3.314
361.40 3.311
361.50 3.307
361.60 3.304
361.70 3.301
361.80 3.297
361.90 3.294
362.00 3.29
362.10 3.287
362.20 3.283
362.30 3.28
362.40 3.277
362.50 3.273
362.60 3.27
362.70 3.267
362.80 3.263
362.90 3.26
363.00 3.256
363.10 3.253
363.20 3.25
363.30 3.246
363.40 3.243
363.50 3.24
363.60 3.236
363.70 3.233
363.80 3.23
363.90 3.226
364.00 3.223
364.10 3.22
364.20 3.216
364.30 3.213
364.40 3.21
364.50 3.206
364.60 3.203
364.70 3.2
364.80 3.196
364.90 3.193
365.00 3.19
365.10 3.187
365.20 3.183
365.30 3.18
365.40 3.177
365.50 3.174
365.60 3.17
365.70 3.167
365.80 3.164
365.90 3.16
366.00 3.157
366.10 3.154
366.20 3.151
366.30 3.147
366.40 3.144
366.50 3.141
366.60 3.138
366.70 3.134
366.80 3.131
366.90 3.128
367.00 3.125
367.10 3.122
367.20 3.118
367.30 3.115
367.40 3.112
367.50 3.109
367.60 3.105
367.70 3.102
367.80 3.099
367.90 3.096
368.00 3.093
368.10 3.089
368.20 3.086
368.30 3.083
368.40 3.08
368.50 3.076
368.60 3.073
368.70 3.07
368.80 3.067
368.90 3.064
369.00 3.06
369.10 3.057
369.20 3.054
369.30 3.051
369.40 3.048
369.50 3.044
369.60 3.041
369.70 3.038
369.80 3.035
369.90 3.032
370.00 3.028
370.10 3.025
370.20 3.022
370.30 3.019
370.40 3.016
370.50 3.013
370.60 3.01
370.70 3.006
370.80 3.003
370.90 3
371.00 2.997
371.10 2.994
371.20 2.991
371.30 2.988
371.40 2.985
371.50 2.981
371.60 2.978
371.70 2.975
371.80 2.972
371.90 2.969
372.00 2.966
372.10 2.963
372.20 2.96
372.30 2.957
372.40 2.954
372.50 2.951
372.60 2.948
372.70 2.945
372.80 2.942
372.90 2.939
373.00 2.936
373.10 2.933
373.20 2.93
373.30 2.928
373.40 2.925
373.50 2.922
373.60 2.919
373.70 2.916
373.80 2.913
373.90 2.91
374.00 2.907
374.10 2.904
374.20 2.901
374.30 2.898
374.40 2.895
374.50 2.892
374.60 2.889
374.70 2.886
374.80 2.883
374.90 2.88
375.00 2.877
375.10 2.874
375.20 2.871
375.30 2.868
375.40 2.865
375.50 2.862
375.60 2.859
375.70 2.856
375.80 2.854
375.90 2.851
376.00 2.848
376.10 2.845
376.20 2.842
376.30 2.839
376.40 2.836
376.50 2.833
376.60 2.83
376.70 2.827
376.80 2.824
376.90 2.821
377.00 2.819
377.10 2.816
377.20 2.813
377.30 2.81
377.40 2.807
377.50 2.804
377.60 2.802
377.70 2.799
377.80 2.796
377.90 2.793
378.00 2.79
378.10 2.787
378.20 2.785
378.30 2.782
378.40 2.779
378.50 2.776
378.60 2.774
378.70 2.771
378.80 2.768
378.90 2.765
379.00 2.762
379.10 2.76
379.20 2.757
379.30 2.754
379.40 2.751
379.50 2.749
379.60 2.746
379.70 2.743
379.80 2.74
379.90 2.738
380.00 2.735
380.10 2.732
380.20 2.729
380.30 2.727
380.40 2.724
380.50 2.721
380.60 2.719
380.70 2.716
380.80 2.713
380.90 2.711
381.00 2.708
381.10 2.705
381.20 2.703
381.30 2.7
381.40 2.697
381.50 2.695
381.60 2.692
381.70 2.689
381.80 2.687
381.90 2.684
382.00 2.681
382.10 2.679
382.20 2.676
382.30 2.674
382.40 2.671
382.50 2.668
382.60 2.666
382.70 2.663
382.80 2.661
382.90 2.658
383.00 2.655
383.10 2.653
383.20 2.65
383.30 2.648
383.40 2.645
383.50 2.643
383.60 2.64
383.70 2.637
383.80 2.635
383.90 2.632
384.00 2.63
384.10 2.627
384.20 2.625
384.30 2.622
384.40 2.62
384.50 2.617
384.60 2.615
384.70 2.612
384.80 2.61
384.90 2.607
385.00 2.605
385.10 2.602
385.20 2.6
385.30 2.598
385.40 2.595
385.50 2.593
385.60 2.59
385.70 2.588
385.80 2.585
385.90 2.583
386.00 2.58
386.10 2.578
386.20 2.575
386.30 2.573
386.40 2.57
386.50 2.568
386.60 2.566
386.70 2.563
386.80 2.561
386.90 2.558
387.00 2.556
387.10 2.553
387.20 2.551
387.30 2.548
387.40 2.546
387.50 2.543
387.60 2.541
387.70 2.539
387.80 2.536
387.90 2.534
388.00 2.531
388.10 2.529
388.20 2.527
388.30 2.524
388.40 2.522
388.50 2.52
388.60 2.517
388.70 2.515
388.80 2.513
388.90 2.51
389.00 2.508
389.10 2.506
389.20 2.503
389.30 2.501
389.40 2.499
389.50 2.497
389.60 2.495
389.70 2.492
389.80 2.49
389.90 2.488
390.00 2.486
390.10 2.484
390.20 2.481
390.30 2.479
390.40 2.477
390.50 2.475
390.60 2.473
390.70 2.47
390.80 2.468
390.90 2.466
391.00 2.464
391.10 2.462
391.20 2.459
391.30 2.457
391.40 2.455
391.50 2.453
391.60 2.451
391.70 2.448
391.80 2.446
391.90 2.444
392.00 2.442
392.10 2.439
392.20 2.437
392.30 2.435
392.40 2.432
392.50 2.43
392.60 2.428
392.70 2.425
392.80 2.423
392.90 2.421
393.00 2.418
393.10 2.416
393.20 2.414
393.30 2.411
393.40 2.409
393.50 2.406
393.60 2.404
393.70 2.402
393.80 2.399
393.90 2.397
394.00 2.394
394.10 2.392
394.20 2.389
394.30 2.387
394.40 2.384
394.50 2.382
394.60 2.379
394.70 2.377
394.80 2.374
394.90 2.372
395.00 2.369
395.10 2.367
395.20 2.364
395.30 2.362
395.40 2.359
395.50 2.357
395.60 2.354
395.70 2.352
395.80 2.349
395.90 2.346
396.00 2.344
396.10 2.341
396.20 2.339
396.30 2.336
396.40 2.334
396.50 2.331
396.60 2.329
396.70 2.327
396.80 2.324
396.90 2.322
397.00 2.32
397.10 2.318
397.20 2.316
397.30 2.315
397.40 2.313
397.50 2.311
397.60 2.31
397.70 2.308
397.80 2.307
397.90 2.305
398.00 2.304
398.10 2.302
398.20 2.301
398.30 2.299
398.40 2.298
398.50 2.296
398.60 2.295
398.70 2.293
398.80 2.292
398.90 2.29
399.00 2.289
399.10 2.287
399.20 2.286
399.30 2.284
399.40 2.283
399.50 2.281
399.60 2.28
399.70 2.278
399.80 2.277
399.90 2.275
400.00 2.273
400.10 2.272
400.20 2.27
400.30 2.268
400.40 2.267
400.50 2.265
400.60 2.263
400.70 2.261
400.80 2.26
400.90 2.258
401.00 2.256
401.10 2.254
401.20 2.252
401.30 2.251
401.40 2.249
401.50 2.247
401.60 2.245
401.70 2.243
401.80 2.241
401.90 2.239
402.00 2.237
402.10 2.235
402.20 2.233
402.30 2.231
402.40 2.229
402.50 2.227
402.60 2.225
402.70 2.223
402.80 2.221
402.90 2.219
403.00 2.216
403.10 2.214
403.20 2.212
403.30 2.21
403.40 2.208
403.50 2.205
403.60 2.203
403.70 2.201
403.80 2.198
403.90 2.196
404.00 2.194
404.10 2.191
404.20 2.189
404.30 2.186
404.40 2.184
404.50 2.181
404.60 2.179
404.70 2.176
404.80 2.174
404.90 2.171
405.00 2.169
405.10 2.166
405.20 2.163
405.30 2.161
405.40 2.158
405.50 2.155
405.60 2.152
405.70 2.149
405.80 2.147
405.90 2.144
406.00 2.141
406.10 2.138
406.20 2.135
406.30 2.132
406.40 2.129
406.50 2.126
406.60 2.123
406.70 2.12
406.80 2.117
406.90 2.114
407.00 2.111
407.10 2.108
407.20 2.104
407.30 2.101
407.40 2.098
407.50 2.095
407.60 2.091
407.70 2.088
407.80 2.085
407.90 2.081
408.00 2.078
408.10 2.075
408.20 2.071
408.30 2.068
408.40 2.065
408.50 2.061
408.60 2.058
408.70 2.054
408.80 2.051
408.90 2.048
409.00 2.045
409.10 2.041
409.20 2.038
409.30 2.035
409.40 2.032
409.50 2.03
409.60 2.027
409.70 2.025
409.80 2.023
409.90 2.021
410.00 2.02
410.10 2.019
410.20 2.018
410.30 2.015
410.40 2.013
410.50 2.011
410.60 2.009
410.70 2.008
410.80 2.007
410.90 2.006
411.00 2.005
411.10 2.005
411.20 2.005
411.30 2.004
411.40 2.004
411.50 2.004
411.60 2.004
411.70 2.003
411.80 2.003
411.90 2.003
412.00 2.003
412.10 2.003
412.20 2.003
412.30 2.003
412.40 2.002
412.50 2.002
412.60 2.002
412.70 2.002
412.80 2.001
412.90 2.001
413.00 2.001
413.10 2.001
413.20 2
413.30 2
413.40 1.999
413.50 1.999
413.60 1.999
413.70 1.998
413.80 1.998
413.90 1.997
414.00 1.997
414.10 1.996
414.20 1.995
414.30 1.995
414.40 1.994
414.50 1.993
414.60 1.993
414.70 1.992
414.80 1.991
414.90 1.99
415.00 1.99
415.10 1.989
415.20 1.988
415.30 1.987
415.40 1.986
415.50 1.985
415.60 1.984
415.70 1.983
415.80 1.982
415.90 1.981
416.00 1.98
416.10 1.979
416.20 1.978
416.30 1.977
416.40 1.976
416.50 1.975
416.60 1.974
416.70 1.973
416.80 1.972
416.90 1.97
417.00 1.969
417.10 1.968
417.20 1.967
417.30 1.966
417.40 1.964
417.50 1.963
417.60 1.962
417.70 1.961
417.80 1.959
417.90 1.958
418.00 1.957
418.10 1.955
418.20 1.954
418.30 1.952
418.40 1.951
418.50 1.95
418.60 1.948
418.70 1.947
418.80 1.945
418.90 1.944
419.00 1.943
419.10 1.941
419.20 1.94
419.30 1.938
419.40 1.937
419.50 1.935
419.60 1.934
419.70 1.932
419.80 1.93
419.90 1.929
420.00 1.927
420.10 1.926
420.20 1.924
420.30 1.923
420.40 1.921
420.50 1.919
420.60 1.918
420.70 1.916
420.80 1.915
420.90 1.913
421.00 1.911
421.10 1.91
421.20 1.908
421.30 1.906
421.40 1.904
421.50 1.903
421.60 1.901
421.70 1.899
421.80 1.898
421.90 1.896
422.00 1.894
422.10 1.892
422.20 1.891
422.30 1.889
422.40 1.887
422.50 1.885
422.60 1.884
422.70 1.882
422.80 1.88
422.90 1.878
423.00 1.876
423.10 1.874
423.20 1.873
423.30 1.871
423.40 1.869
423.50 1.867
423.60 1.865
423.70 1.863
423.80 1.861
423.90 1.859
424.00 1.857
424.10 1.855
424.20 1.853
424.30 1.851
424.40 1.849
424.50 1.847
424.60 1.845
424.70 1.843
424.80 1.841
424.90 1.839
425.00 1.837
425.10 1.835
425.20 1.833
425.30 1.831
425.40 1.829
425.50 1.827
425.60 1.824
425.70 1.822
425.80 1.82
425.90 1.818
426.00 1.816
426.10 1.813
426.20 1.811
426.30 1.809
426.40 1.807
426.50 1.804
426.60 1.802
426.70 1.8
426.80 1.797
426.90 1.795
427.00 1.792
427.10 1.79
427.20 1.788
427.30 1.785
427.40 1.783
427.50 1.78
427.60 1.777
427.70 1.775
427.80 1.772
427.90 1.77
428.00 1.767
428.10 1.764
428.20 1.762
428.30 1.759
428.40 1.756
428.50 1.753
428.60 1.75
428.70 1.747
428.80 1.745
428.90 1.742
429.00 1.739
429.10 1.736
429.20 1.733
429.30 1.729
429.40 1.726
429.50 1.723
429.60 1.72
429.70 1.717
429.80 1.713
429.90 1.71
430.00 1.707
430.10 1.703
430.20 1.7
430.30 1.696
430.40 1.693
430.50 1.689
430.60 1.686
430.70 1.682
430.80 1.678
430.90 1.675
431.00 1.671
431.10 1.667
431.20 1.663
431.30 1.659
431.40 1.655
431.50 1.651
431.60 1.647
431.70 1.643
431.80 1.639
431.90 1.635
432.00 1.631
432.10 1.627
432.20 1.622
432.30 1.618
432.40 1.614
432.50 1.61
432.60 1.605
432.70 1.601
432.80 1.597
432.90 1.593
433.00 1.588
433.10 1.584
433.20 1.58
433.30 1.575
433.40 1.571
433.50 1.566
433.60 1.561
433.70 1.556
433.80 1.55
433.90 1.544
434.00 1.54
434.10 1.539
434.20 1.541
434.30 1.544
434.40 1.547
434.50 1.55
434.60 1.552
434.70 1.554
434.80 1.556
434.90 1.558
435.00 1.56
435.10 1.561
435.20 1.563
435.30 1.565
435.40 1.566
435.50 1.568
435.60 1.569
435.70 1.571
435.80 1.572
435.90 1.574
436.00 1.575
436.10 1.577
436.20 1.578
436.30 1.58
436.40 1.581
436.50 1.582
436.60 1.583
436.70 1.584
436.80 1.586
436.90 1.587
437.00 1.588
437.10 1.589
437.20 1.589
437.30 1.59
437.40 1.591
437.50 1.592
437.60 1.593
437.70 1.593
437.80 1.594
437.90 1.594
438.00 1.595
438.10 1.595
438.20 1.596
438.30 1.596
438.40 1.597
438.50 1.597
438.60 1.597
438.70 1.597
438.80 1.598
438.90 1.598
439.00 1.598
439.10 1.598
439.20 1.598
439.30 1.598
439.40 1.598
439.50 1.598
439.60 1.598
439.70 1.597
439.80 1.597
439.90 1.597
440.00 1.597
440.10 1.596
440.20 1.596
440.30 1.596
440.40 1.595
440.50 1.595
440.60 1.595
440.70 1.594
440.80 1.594
440.90 1.593
441.00 1.593
441.10 1.592
441.20 1.592
441.30 1.591
441.40 1.59
441.50 1.59
441.60 1.589
441.70 1.588
441.80 1.588
441.90 1.587
442.00 1.586
442.10 1.586
442.20 1.585
442.30 1.584
442.40 1.583
442.50 1.582
442.60 1.582
442.70 1.581
442.80 1.58
442.90 1.579
443.00 1.578
443.10 1.577
443.20 1.577
443.30 1.576
443.40 1.575
443.50 1.574
443.60 1.573
443.70 1.572
443.80 1.571
443.90 1.57
444.00 1.569
444.10 1.568
444.20 1.567
444.30 1.566
444.40 1.565
444.50 1.564
444.60 1.563
444.70 1.562
444.80 1.561
444.90 1.56
445.00 1.559
445.10 1.558
445.20 1.557
445.30 1.556
445.40 1.555
445.50 1.553
445.60 1.552
445.70 1.551
445.80 1.55
445.90 1.549
446.00 1.548
446.10 1.547
446.20 1.546
446.30 1.545
446.40 1.543
446.50 1.542
446.60 1.541
446.70 1.54
446.80 1.539
446.90 1.538
447.00 1.537
447.10 1.536
447.20 1.534
447.30 1.533
447.40 1.532
447.50 1.531
447.60 1.53
447.70 1.529
447.80 1.527
447.90 1.526
448.00 1.525
448.10 1.524
448.20 1.523
448.30 1.522
448.40 1.52
448.50 1.519
448.60 1.518
448.70 1.517
448.80 1.516
448.90 1.515
449.00 1.513
449.10 1.512
449.20 1.511
449.30 1.51
449.40 1.509
449.50 1.507
449.60 1.506
449.70 1.505
449.80 1.504
449.90 1.503
450.00 1.501
450.10 1.5
450.20 1.499
450.30 1.498
450.40 1.497
450.50 1.495
450.60 1.494
450.70 1.493
450.80 1.492
450.90 1.491
451.00 1.489
451.10 1.488
451.20 1.487
451.30 1.486
451.40 1.485
451.50 1.483
451.60 1.482
451.70 1.481
451.80 1.48
451.90 1.479
452.00 1.477
452.10 1.476
452.20 1.475
452.30 1.474
452.40 1.473
452.50 1.471
452.60 1.47
452.70 1.469
452.80 1.468
452.90 1.467
453.00 1.465
453.10 1.464
453.20 1.463
453.30 1.462
453.40 1.461
453.50 1.459
453.60 1.458
453.70 1.457
453.80 1.456
453.90 1.455
454.00 1.453
454.10 1.452
454.20 1.451
