# Version 2.1 - nm, norm@500 to 1, cut digits, bergeron_9500_65.dat_9500
# Wavelength(nm)  Flambda(ergs/cm^s/s/nm)
300.00 1.232
300.10 1.232
300.20 1.231
300.30 1.231
300.40 1.231
300.50 1.23
300.60 1.23
300.70 1.229
300.80 1.229
300.90 1.228
301.00 1.228
301.10 1.227
301.20 1.227
301.30 1.226
301.40 1.226
301.50 1.225
301.60 1.225
301.70 1.224
301.80 1.224
301.90 1.223
302.00 1.223
302.10 1.222
302.20 1.222
302.30 1.221
302.40 1.221
302.50 1.22
302.60 1.22
302.70 1.219
302.80 1.219
302.90 1.218
303.00 1.218
303.10 1.218
303.20 1.217
303.30 1.217
303.40 1.216
303.50 1.216
303.60 1.215
303.70 1.215
303.80 1.214
303.90 1.214
304.00 1.213
304.10 1.213
304.20 1.212
304.30 1.212
304.40 1.211
304.50 1.211
304.60 1.21
304.70 1.21
304.80 1.209
304.90 1.209
305.00 1.208
305.10 1.208
305.20 1.207
305.30 1.207
305.40 1.206
305.50 1.206
305.60 1.206
305.70 1.205
305.80 1.205
305.90 1.204
306.00 1.204
306.10 1.203
306.20 1.203
306.30 1.202
306.40 1.202
306.50 1.201
306.60 1.201
306.70 1.2
306.80 1.2
306.90 1.199
307.00 1.199
307.10 1.198
307.20 1.198
307.30 1.197
307.40 1.197
307.50 1.196
307.60 1.196
307.70 1.196
307.80 1.195
307.90 1.195
308.00 1.194
308.10 1.194
308.20 1.193
308.30 1.193
308.40 1.192
308.50 1.192
308.60 1.191
308.70 1.191
308.80 1.19
308.90 1.19
309.00 1.189
309.10 1.189
309.20 1.188
309.30 1.188
309.40 1.187
309.50 1.187
309.60 1.186
309.70 1.186
309.80 1.186
309.90 1.185
310.00 1.185
310.10 1.184
310.20 1.184
310.30 1.183
310.40 1.183
310.50 1.182
310.60 1.182
310.70 1.181
310.80 1.181
310.90 1.18
311.00 1.18
311.10 1.179
311.20 1.179
311.30 1.178
311.40 1.178
311.50 1.177
311.60 1.177
311.70 1.177
311.80 1.176
311.90 1.176
312.00 1.175
312.10 1.175
312.20 1.174
312.30 1.174
312.40 1.173
312.50 1.173
312.60 1.172
312.70 1.172
312.80 1.171
312.90 1.171
313.00 1.17
313.10 1.17
313.20 1.169
313.30 1.169
313.40 1.169
313.50 1.168
313.60 1.168
313.70 1.167
313.80 1.167
313.90 1.166
314.00 1.166
314.10 1.165
314.20 1.165
314.30 1.164
314.40 1.164
314.50 1.163
314.60 1.163
314.70 1.162
314.80 1.162
314.90 1.162
315.00 1.161
315.10 1.161
315.20 1.16
315.30 1.16
315.40 1.159
315.50 1.159
315.60 1.158
315.70 1.158
315.80 1.157
315.90 1.157
316.00 1.156
316.10 1.156
316.20 1.155
316.30 1.155
316.40 1.155
316.50 1.154
316.60 1.154
316.70 1.153
316.80 1.153
316.90 1.152
317.00 1.152
317.10 1.151
317.20 1.151
317.30 1.15
317.40 1.15
317.50 1.149
317.60 1.149
317.70 1.148
317.80 1.148
317.90 1.148
318.00 1.147
318.10 1.147
318.20 1.146
318.30 1.146
318.40 1.145
318.50 1.145
318.60 1.144
318.70 1.144
318.80 1.143
318.90 1.143
319.00 1.142
319.10 1.142
319.20 1.142
319.30 1.141
319.40 1.141
319.50 1.14
319.60 1.14
319.70 1.139
319.80 1.139
319.90 1.138
320.00 1.138
320.10 1.137
320.20 1.137
320.30 1.136
320.40 1.136
320.50 1.136
320.60 1.135
320.70 1.135
320.80 1.134
320.90 1.134
321.00 1.133
321.10 1.133
321.20 1.132
321.30 1.132
321.40 1.131
321.50 1.131
321.60 1.13
321.70 1.13
321.80 1.13
321.90 1.129
322.00 1.129
322.10 1.128
322.20 1.128
322.30 1.127
322.40 1.127
322.50 1.126
322.60 1.126
322.70 1.125
322.80 1.125
322.90 1.124
323.00 1.124
323.10 1.124
323.20 1.123
323.30 1.123
323.40 1.122
323.50 1.122
323.60 1.121
323.70 1.121
323.80 1.12
323.90 1.12
324.00 1.119
324.10 1.119
324.20 1.119
324.30 1.118
324.40 1.118
324.50 1.117
324.60 1.117
324.70 1.116
324.80 1.116
324.90 1.115
325.00 1.115
325.10 1.114
325.20 1.114
325.30 1.114
325.40 1.113
325.50 1.113
325.60 1.112
325.70 1.112
325.80 1.111
325.90 1.111
326.00 1.11
326.10 1.11
326.20 1.109
326.30 1.109
326.40 1.109
326.50 1.108
326.60 1.108
326.70 1.107
326.80 1.107
326.90 1.106
327.00 1.106
327.10 1.105
327.20 1.105
327.30 1.104
327.40 1.104
327.50 1.104
327.60 1.103
327.70 1.103
327.80 1.102
327.90 1.102
328.00 1.101
328.10 1.101
328.20 1.1
328.30 1.1
328.40 1.099
328.50 1.099
328.60 1.099
328.70 1.098
328.80 1.098
328.90 1.097
329.00 1.097
329.10 1.096
329.20 1.096
329.30 1.095
329.40 1.095
329.50 1.095
329.60 1.094
329.70 1.094
329.80 1.093
329.90 1.093
330.00 1.092
330.10 1.092
330.20 1.091
330.30 1.091
330.40 1.091
330.50 1.09
330.60 1.09
330.70 1.089
330.80 1.089
330.90 1.088
331.00 1.088
331.10 1.087
331.20 1.087
331.30 1.087
331.40 1.086
331.50 1.086
331.60 1.085
331.70 1.085
331.80 1.084
331.90 1.084
332.00 1.083
332.10 1.083
332.20 1.083
332.30 1.082
332.40 1.082
332.50 1.081
332.60 1.081
332.70 1.08
332.80 1.08
332.90 1.079
333.00 1.079
333.10 1.079
333.20 1.078
333.30 1.078
333.40 1.077
333.50 1.077
333.60 1.076
333.70 1.076
333.80 1.075
333.90 1.075
334.00 1.075
334.10 1.074
334.20 1.074
334.30 1.073
334.40 1.073
334.50 1.072
334.60 1.072
334.70 1.071
334.80 1.071
334.90 1.071
335.00 1.07
335.10 1.07
335.20 1.069
335.30 1.069
335.40 1.068
335.50 1.068
335.60 1.068
335.70 1.067
335.80 1.067
335.90 1.066
336.00 1.066
336.10 1.065
336.20 1.065
336.30 1.064
336.40 1.064
336.50 1.064
336.60 1.063
336.70 1.063
336.80 1.062
336.90 1.062
337.00 1.061
337.10 1.061
337.20 1.061
337.30 1.06
337.40 1.06
337.50 1.059
337.60 1.059
337.70 1.058
337.80 1.058
337.90 1.057
338.00 1.057
338.10 1.057
338.20 1.056
338.30 1.056
338.40 1.055
338.50 1.055
338.60 1.054
338.70 1.054
338.80 1.054
338.90 1.053
339.00 1.053
339.10 1.052
339.20 1.052
339.30 1.051
339.40 1.051
339.50 1.051
339.60 1.05
339.70 1.05
339.80 1.049
339.90 1.049
340.00 1.048
340.10 1.048
340.20 1.048
340.30 1.047
340.40 1.047
340.50 1.046
340.60 1.046
340.70 1.045
340.80 1.045
340.90 1.044
341.00 1.044
341.10 1.044
341.20 1.043
341.30 1.043
341.40 1.042
341.50 1.042
341.60 1.041
341.70 1.041
341.80 1.041
341.90 1.04
342.00 1.04
342.10 1.039
342.20 1.039
342.30 1.038
342.40 1.038
342.50 1.038
342.60 1.037
342.70 1.037
342.80 1.036
342.90 1.036
343.00 1.036
343.10 1.035
343.20 1.035
343.30 1.034
343.40 1.034
343.50 1.033
343.60 1.033
343.70 1.033
343.80 1.032
343.90 1.032
344.00 1.031
344.10 1.031
344.20 1.03
344.30 1.03
344.40 1.03
344.50 1.029
344.60 1.029
344.70 1.028
344.80 1.028
344.90 1.027
345.00 1.027
345.10 1.027
345.20 1.026
345.30 1.026
345.40 1.025
345.50 1.025
345.60 1.024
345.70 1.024
345.80 1.024
345.90 1.023
346.00 1.023
346.10 1.022
346.20 1.022
346.30 1.022
346.40 1.021
346.50 1.021
346.60 1.02
346.70 1.02
346.80 1.019
346.90 1.019
347.00 1.019
347.10 1.018
347.20 1.018
347.30 1.017
347.40 1.017
347.50 1.016
347.60 1.016
347.70 1.016
347.80 1.015
347.90 1.015
348.00 1.014
348.10 1.014
348.20 1.014
348.30 1.013
348.40 1.013
348.50 1.012
348.60 1.012
348.70 1.011
348.80 1.011
348.90 1.011
349.00 1.01
349.10 1.01
349.20 1.009
349.30 1.009
349.40 1.009
349.50 1.008
349.60 1.008
349.70 1.007
349.80 1.007
349.90 1.006
350.00 1.006
350.10 1.006
350.20 1.005
350.30 1.005
350.40 1.004
350.50 1.004
350.60 1.004
350.70 1.003
350.80 1.003
350.90 1.002
351.00 1.002
351.10 1.002
351.20 1.001
351.30 1.001
351.40 1
351.50 0.9999
351.60 0.9994
351.70 0.999
351.80 0.9986
351.90 0.9982
352.00 0.9978
352.10 0.9974
352.20 0.997
352.30 0.9966
352.40 0.9962
352.50 0.9957
352.60 0.9953
352.70 0.9949
352.80 0.9945
352.90 0.9941
353.00 0.9937
353.10 0.9933
353.20 0.9929
353.30 0.9925
353.40 0.9921
353.50 0.9916
353.60 0.9912
353.70 0.9908
353.80 0.9904
353.90 0.99
354.00 0.9896
354.10 0.9892
354.20 0.9888
354.30 0.9884
354.40 0.988
354.50 0.9876
354.60 0.9872
354.70 0.9868
354.80 0.9864
354.90 0.9859
355.00 0.9855
355.10 0.9851
355.20 0.9847
355.30 0.9843
355.40 0.9839
355.50 0.9835
355.60 0.9831
355.70 0.9827
355.80 0.9823
355.90 0.9819
356.00 0.9815
356.10 0.9811
356.20 0.9807
356.30 0.9803
356.40 0.9799
356.50 0.9795
356.60 0.9791
356.70 0.9787
356.80 0.9783
356.90 0.9779
357.00 0.9775
357.10 0.9771
357.20 0.9767
357.30 0.9763
357.40 0.9759
357.50 0.9755
357.60 0.9751
357.70 0.9747
357.80 0.9743
357.90 0.9739
358.00 0.9735
358.10 0.9731
358.20 0.9726
358.30 0.9722
358.40 0.9718
358.50 0.9714
358.60 0.971
358.70 0.9706
358.80 0.9702
358.90 0.9698
359.00 0.9694
359.10 0.969
359.20 0.9686
359.30 0.9682
359.40 0.9678
359.50 0.9674
359.60 0.967
359.70 0.9666
359.80 0.9662
359.90 0.9658
360.00 0.9654
360.10 0.965
360.20 0.9647
360.30 0.9643
360.40 0.9639
360.50 0.9635
360.60 0.9631
360.70 0.9627
360.80 0.9623
360.90 0.9619
361.00 0.9615
361.10 0.9611
361.20 0.9607
361.30 0.9603
361.40 0.9599
361.50 0.9595
361.60 0.9591
361.70 0.9587
361.80 0.9583
361.90 0.9579
362.00 0.9576
362.10 0.9572
362.20 0.9568
362.30 0.9564
362.40 0.956
362.50 0.9556
362.60 0.9552
362.70 0.9548
362.80 0.9544
362.90 0.954
363.00 0.9536
363.10 0.9532
363.20 0.9528
363.30 0.9524
363.40 0.9519
363.50 0.9515
363.60 0.9511
363.70 0.9507
363.80 0.9503
363.90 0.9499
364.00 0.9495
364.10 0.9491
364.20 0.9487
364.30 0.9483
364.40 0.9479
364.50 0.9475
364.60 0.9472
364.70 0.947
364.80 0.9467
364.90 0.9465
365.00 0.9462
365.10 0.946
365.20 0.9457
365.30 0.9455
365.40 0.9452
365.50 0.945
365.60 0.9447
365.70 0.9445
365.80 0.9442
365.90 0.944
366.00 0.9438
366.10 0.9436
366.20 0.9435
366.30 0.9433
366.40 0.9432
366.50 0.943
366.60 0.9429
366.70 0.9427
366.80 0.9426
366.90 0.9424
367.00 0.9423
367.10 0.9421
367.20 0.942
367.30 0.9419
367.40 0.9417
367.50 0.9416
367.60 0.9414
367.70 0.9413
367.80 0.9411
367.90 0.941
368.00 0.9408
368.10 0.9429
368.20 0.945
368.30 0.9471
368.40 0.9492
368.50 0.9513
368.60 0.9534
368.70 0.9555
368.80 0.9576
368.90 0.9597
369.00 0.9617
369.10 0.9638
369.20 0.9659
369.30 0.968
369.40 0.97
369.50 0.9721
369.60 0.9742
369.70 0.9762
369.80 0.9783
369.90 0.9803
370.00 0.9824
370.10 0.9869
370.20 0.9914
370.30 0.9958
370.40 1
370.50 1.005
370.60 1.009
370.70 1.014
370.80 1.018
370.90 1.023
371.00 1.027
371.10 1.031
371.20 1.036
371.30 1.04
371.40 1.045
371.50 1.049
371.60 1.054
371.70 1.058
371.80 1.062
371.90 1.067
372.00 1.071
372.10 1.076
372.20 1.082
372.30 1.087
372.40 1.092
372.50 1.098
372.60 1.103
372.70 1.108
372.80 1.113
372.90 1.119
373.00 1.124
373.10 1.129
373.20 1.134
373.30 1.14
373.40 1.145
373.50 1.15
373.60 1.155
373.70 1.16
373.80 1.166
373.90 1.171
374.00 1.176
374.10 1.18
374.20 1.185
374.30 1.189
374.40 1.193
374.50 1.198
374.60 1.202
374.70 1.207
374.80 1.211
374.90 1.215
375.00 1.22
375.10 1.224
375.20 1.228
375.30 1.233
375.40 1.237
375.50 1.241
375.60 1.245
375.70 1.25
375.80 1.254
375.90 1.258
376.00 1.263
376.10 1.265
376.20 1.266
376.30 1.268
376.40 1.27
376.50 1.272
376.60 1.274
376.70 1.276
376.80 1.278
376.90 1.28
377.00 1.282
377.10 1.278
377.20 1.274
377.30 1.271
377.40 1.267
377.50 1.264
377.60 1.26
377.70 1.256
377.80 1.253
377.90 1.249
378.00 1.246
378.10 1.223
378.20 1.2
378.30 1.176
378.40 1.153
378.50 1.13
378.60 1.107
378.70 1.084
378.80 1.061
378.90 1.038
379.00 1.015
379.10 0.9859
379.20 0.9565
379.30 0.9272
379.40 0.8979
379.50 0.8686
379.60 0.8394
379.70 0.8101
379.80 0.7809
379.90 0.7518
380.00 0.7226
380.10 0.7647
380.20 0.8066
380.30 0.8486
380.40 0.8904
380.50 0.9323
380.60 0.9741
380.70 1.016
380.80 1.058
380.90 1.099
381.00 1.141
381.10 1.153
381.20 1.166
381.30 1.178
381.40 1.191
381.50 1.203
381.60 1.205
381.70 1.204
381.80 1.2
381.90 1.192
382.00 1.181
382.10 1.165
382.20 1.145
382.30 1.102
382.40 1.06
382.50 1.017
382.60 0.9743
382.70 0.9317
382.80 0.8891
382.90 0.8466
383.00 0.8041
383.10 0.7616
383.20 0.7192
383.30 0.6571
383.40 0.5916
383.50 0.5218
383.60 0.5383
383.70 0.606
383.80 0.671
383.90 0.7325
384.00 0.7903
384.10 0.8453
384.20 0.8982
384.30 0.9489
384.40 0.9962
384.50 1.039
384.60 1.079
384.70 1.115
384.80 1.147
384.90 1.176
385.00 1.201
385.10 1.221
385.20 1.239
385.30 1.255
385.40 1.268
385.50 1.279
385.60 1.288
385.70 1.295
385.80 1.301
385.90 1.305
386.00 1.307
386.10 1.309
386.20 1.309
386.30 1.306
386.40 1.303
386.50 1.299
386.60 1.292
386.70 1.285
386.80 1.276
386.90 1.264
387.00 1.252
387.10 1.238
387.20 1.22
387.30 1.201
387.40 1.179
387.50 1.153
387.60 1.123
387.70 1.092
387.80 1.054
387.90 1.014
388.00 0.9709
388.10 0.922
388.20 0.8709
388.30 0.8176
388.40 0.7626
388.50 0.706
388.60 0.6479
388.70 0.5856
388.80 0.5171
388.90 0.4423
389.00 0.5128
389.10 0.5792
389.20 0.6415
389.30 0.6998
389.40 0.7563
389.50 0.8112
389.60 0.8646
389.70 0.916
389.80 0.9655
389.90 1.009
390.00 1.051
390.10 1.089
390.20 1.123
390.30 1.154
390.40 1.183
390.50 1.207
390.60 1.229
390.70 1.249
390.80 1.267
390.90 1.283
391.00 1.298
391.10 1.312
391.20 1.325
391.30 1.337
391.40 1.347
391.50 1.357
391.60 1.366
391.70 1.374
391.80 1.382
391.90 1.388
392.00 1.394
392.10 1.399
392.20 1.404
392.30 1.407
392.40 1.411
392.50 1.413
392.60 1.415
392.70 1.416
392.80 1.417
392.90 1.416
393.00 1.416
393.10 1.414
393.20 1.412
393.30 1.41
393.40 1.407
393.50 1.402
393.60 1.398
393.70 1.393
393.80 1.386
393.90 1.38
394.00 1.372
394.10 1.364
394.20 1.355
394.30 1.345
394.40 1.334
394.50 1.322
394.60 1.309
394.70 1.295
394.80 1.28
394.90 1.265
395.00 1.247
395.10 1.229
395.20 1.209
395.30 1.188
395.40 1.164
395.50 1.139
395.60 1.11
395.70 1.079
395.80 1.046
395.90 1.009
396.00 0.9685
396.10 0.9261
396.20 0.8791
396.30 0.8304
396.40 0.78
396.50 0.7278
396.60 0.6745
396.70 0.6202
396.80 0.5611
396.90 0.4881
397.00 0.4011
397.10 0.4823
397.20 0.5525
397.30 0.6119
397.40 0.6663
397.50 0.7195
397.60 0.7713
397.70 0.8214
397.80 0.8699
397.90 0.9167
398.00 0.9589
398.10 0.9988
398.20 1.036
398.30 1.069
398.40 1.1
398.50 1.129
398.60 1.154
398.70 1.177
398.80 1.199
398.90 1.218
399.00 1.237
399.10 1.255
399.20 1.27
399.30 1.286
399.40 1.3
399.50 1.313
399.60 1.326
399.70 1.338
399.80 1.349
399.90 1.36
400.00 1.37
400.10 1.379
400.20 1.387
400.30 1.396
400.40 1.403
400.50 1.41
400.60 1.417
400.70 1.423
400.80 1.429
400.90 1.435
401.00 1.44
401.10 1.445
401.20 1.449
401.30 1.453
401.40 1.457
401.50 1.461
401.60 1.464
401.70 1.467
401.80 1.47
401.90 1.472
402.00 1.475
402.10 1.477
402.20 1.479
402.30 1.48
402.40 1.482
402.50 1.483
402.60 1.484
402.70 1.485
402.80 1.486
402.90 1.486
403.00 1.487
403.10 1.487
403.20 1.487
403.30 1.487
403.40 1.486
403.50 1.486
403.60 1.485
403.70 1.484
403.80 1.483
403.90 1.482
404.00 1.481
404.10 1.479
404.20 1.478
404.30 1.476
404.40 1.474
404.50 1.472
404.60 1.469
404.70 1.467
404.80 1.464
404.90 1.461
405.00 1.458
405.10 1.455
405.20 1.451
405.30 1.447
405.40 1.443
405.50 1.439
405.60 1.434
405.70 1.43
405.80 1.424
405.90 1.419
406.00 1.413
406.10 1.407
406.20 1.401
406.30 1.394
406.40 1.387
406.50 1.38
406.60 1.372
406.70 1.364
406.80 1.355
406.90 1.346
407.00 1.336
407.10 1.326
407.20 1.315
407.30 1.304
407.40 1.292
407.50 1.279
407.60 1.265
407.70 1.251
407.80 1.236
407.90 1.219
408.00 1.202
408.10 1.184
408.20 1.165
408.30 1.145
408.40 1.124
408.50 1.101
408.60 1.078
408.70 1.053
408.80 1.025
408.90 0.9954
409.00 0.9642
409.10 0.929
409.20 0.8919
409.30 0.8529
409.40 0.8107
409.50 0.7672
409.60 0.7224
409.70 0.6755
409.80 0.6273
409.90 0.5779
410.00 0.5221
410.10 0.4613
410.20 0.3954
410.30 0.4819
410.40 0.5517
410.50 0.6048
410.60 0.6527
410.70 0.6995
410.80 0.7453
410.90 0.7886
411.00 0.8304
411.10 0.8708
411.20 0.9077
411.30 0.9425
411.40 0.9754
411.50 1.004
411.60 1.032
411.70 1.057
411.80 1.08
411.90 1.102
412.00 1.123
412.10 1.143
412.20 1.161
412.30 1.179
412.40 1.195
412.50 1.21
412.60 1.225
412.70 1.238
412.80 1.251
412.90 1.264
413.00 1.275
413.10 1.285
413.20 1.296
413.30 1.305
413.40 1.314
413.50 1.323
413.60 1.33
413.70 1.338
413.80 1.345
413.90 1.352
414.00 1.358
414.10 1.364
414.20 1.37
414.30 1.375
414.40 1.38
414.50 1.385
414.60 1.389
414.70 1.394
414.80 1.398
414.90 1.402
415.00 1.405
415.10 1.409
415.20 1.412
415.30 1.415
415.40 1.418
415.50 1.421
415.60 1.423
415.70 1.426
415.80 1.428
415.90 1.43
416.00 1.432
416.10 1.434
416.20 1.436
416.30 1.438
416.40 1.439
416.50 1.441
416.60 1.442
416.70 1.444
416.80 1.445
416.90 1.446
417.00 1.447
417.10 1.448
417.20 1.449
417.30 1.45
417.40 1.451
417.50 1.452
417.60 1.452
417.70 1.453
417.80 1.454
417.90 1.454
418.00 1.455
418.10 1.455
418.20 1.455
418.30 1.456
418.40 1.456
418.50 1.456
418.60 1.456
418.70 1.457
418.80 1.457
418.90 1.457
419.00 1.457
419.10 1.457
419.20 1.457
419.30 1.457
419.40 1.457
419.50 1.456
419.60 1.456
419.70 1.456
419.80 1.456
419.90 1.456
420.00 1.455
420.10 1.455
420.20 1.455
420.30 1.455
420.40 1.454
420.50 1.454
420.60 1.453
420.70 1.453
420.80 1.452
420.90 1.452
421.00 1.451
421.10 1.451
421.20 1.45
421.30 1.45
421.40 1.449
421.50 1.449
421.60 1.448
421.70 1.447
421.80 1.447
421.90 1.446
422.00 1.445
422.10 1.445
422.20 1.444
422.30 1.443
422.40 1.442
422.50 1.442
422.60 1.441
422.70 1.44
422.80 1.439
422.90 1.438
423.00 1.437
423.10 1.436
423.20 1.436
423.30 1.435
423.40 1.434
423.50 1.433
423.60 1.432
423.70 1.431
423.80 1.429
423.90 1.428
424.00 1.427
424.10 1.426
424.20 1.425
424.30 1.424
424.40 1.423
424.50 1.421
424.60 1.42
424.70 1.419
424.80 1.417
424.90 1.416
425.00 1.415
425.10 1.413
425.20 1.412
425.30 1.41
425.40 1.409
425.50 1.407
425.60 1.406
425.70 1.404
425.80 1.403
425.90 1.401
426.00 1.399
426.10 1.397
426.20 1.395
426.30 1.393
426.40 1.391
426.50 1.389
426.60 1.387
426.70 1.385
426.80 1.383
426.90 1.381
427.00 1.379
427.10 1.376
427.20 1.374
427.30 1.371
427.40 1.369
427.50 1.366
427.60 1.364
427.70 1.361
427.80 1.358
427.90 1.355
428.00 1.352
428.10 1.349
428.20 1.346
428.30 1.342
428.40 1.339
428.50 1.335
428.60 1.332
428.70 1.328
428.80 1.324
428.90 1.32
429.00 1.315
429.10 1.311
429.20 1.306
429.30 1.302
429.40 1.297
429.50 1.292
429.60 1.286
429.70 1.281
429.80 1.275
429.90 1.269
430.00 1.263
430.10 1.257
430.20 1.25
430.30 1.243
430.40 1.236
430.50 1.228
430.60 1.22
430.70 1.212
430.80 1.204
430.90 1.195
431.00 1.186
431.10 1.177
431.20 1.167
431.30 1.157
431.40 1.146
431.50 1.135
431.60 1.123
431.70 1.11
431.80 1.097
431.90 1.083
432.00 1.067
432.10 1.051
432.20 1.032
432.30 1.013
432.40 0.9924
432.50 0.9687
432.60 0.9433
432.70 0.9163
432.80 0.8868
432.90 0.8569
433.00 0.8266
433.10 0.796
433.20 0.7644
433.30 0.7318
433.40 0.6956
433.50 0.6579
433.60 0.6187
433.70 0.5776
433.80 0.5334
433.90 0.4862
434.00 0.3825
434.10 0.3838
434.20 0.49
434.30 0.5366
434.40 0.5802
434.50 0.6208
434.60 0.6594
434.70 0.6964
434.80 0.7319
434.90 0.7637
435.00 0.7945
435.10 0.8242
435.20 0.8538
435.30 0.8827
435.40 0.9111
435.50 0.9369
435.60 0.961
435.70 0.9835
435.80 1.003
435.90 1.021
436.00 1.038
436.10 1.053
436.20 1.067
436.30 1.081
436.40 1.093
436.50 1.104
436.60 1.115
436.70 1.124
436.80 1.134
436.90 1.143
437.00 1.151
437.10 1.159
437.20 1.167
437.30 1.174
437.40 1.181
437.50 1.188
437.60 1.194
437.70 1.2
437.80 1.206
437.90 1.212
438.00 1.217
438.10 1.222
438.20 1.227
438.30 1.231
438.40 1.236
438.50 1.24
438.60 1.244
438.70 1.247
438.80 1.251
438.90 1.254
439.00 1.257
439.10 1.26
439.20 1.263
439.30 1.266
439.40 1.268
439.50 1.271
439.60 1.273
439.70 1.275
439.80 1.277
439.90 1.279
440.00 1.281
440.10 1.283
440.20 1.284
440.30 1.286
440.40 1.287
440.50 1.289
440.60 1.29
440.70 1.291
440.80 1.293
440.90 1.294
441.00 1.295
441.10 1.296
441.20 1.297
441.30 1.297
441.40 1.298
441.50 1.299
441.60 1.3
441.70 1.3
441.80 1.301
441.90 1.301
442.00 1.302
442.10 1.302
442.20 1.303
442.30 1.303
442.40 1.303
442.50 1.304
442.60 1.304
442.70 1.304
442.80 1.305
442.90 1.305
443.00 1.305
443.10 1.305
443.20 1.305
443.30 1.305
443.40 1.305
443.50 1.305
443.60 1.305
443.70 1.305
443.80 1.305
443.90 1.305
444.00 1.305
444.10 1.305
444.20 1.305
444.30 1.305
444.40 1.305
444.50 1.305
444.60 1.304
444.70 1.304
444.80 1.304
444.90 1.304
445.00 1.304
445.10 1.303
445.20 1.303
445.30 1.303
445.40 1.303
445.50 1.302
445.60 1.302
445.70 1.302
445.80 1.302
445.90 1.301
446.00 1.301
446.10 1.301
446.20 1.3
446.30 1.3
446.40 1.3
446.50 1.299
446.60 1.299
446.70 1.298
446.80 1.298
446.90 1.298
447.00 1.297
447.10 1.297
447.20 1.296
447.30 1.296
447.40 1.296
447.50 1.295
447.60 1.295
447.70 1.294
447.80 1.294
447.90 1.293
448.00 1.293
448.10 1.293
448.20 1.292
448.30 1.292
448.40 1.291
448.50 1.291
448.60 1.29
448.70 1.29
448.80 1.289
448.90 1.289
449.00 1.288
449.10 1.288
449.20 1.287
449.30 1.287
449.40 1.286
449.50 1.286
449.60 1.285
449.70 1.285
449.80 1.284
449.90 1.284
450.00 1.283
450.10 1.283
450.20 1.282
450.30 1.282
450.40 1.281
450.50 1.281
450.60 1.28
450.70 1.279
450.80 1.279
450.90 1.278
451.00 1.278
451.10 1.277
451.20 1.277
451.30 1.276
451.40 1.276
451.50 1.275
451.60 1.274
