# Version 2.1 - nm, norm@500 to 1, cut digits, bergeron_9000_90.dat_9000
# Wavelength(nm)  Flambda(ergs/cm^s/s/nm)
300.00 1.703
300.10 1.702
300.20 1.702
300.30 1.702
300.40 1.701
300.50 1.701
300.60 1.701
300.70 1.7
300.80 1.7
300.90 1.7
301.00 1.699
301.10 1.699
301.20 1.699
301.30 1.698
301.40 1.698
301.50 1.698
301.60 1.698
301.70 1.697
301.80 1.697
301.90 1.697
302.00 1.696
302.10 1.696
302.20 1.696
302.30 1.695
302.40 1.695
302.50 1.695
302.60 1.694
302.70 1.694
302.80 1.694
302.90 1.693
303.00 1.693
303.10 1.693
303.20 1.692
303.30 1.692
303.40 1.692
303.50 1.691
303.60 1.691
303.70 1.691
303.80 1.69
303.90 1.69
304.00 1.69
304.10 1.689
304.20 1.689
304.30 1.689
304.40 1.688
304.50 1.688
304.60 1.688
304.70 1.687
304.80 1.687
304.90 1.687
305.00 1.686
305.10 1.686
305.20 1.685
305.30 1.685
305.40 1.685
305.50 1.684
305.60 1.684
305.70 1.684
305.80 1.683
305.90 1.683
306.00 1.683
306.10 1.682
306.20 1.682
306.30 1.682
306.40 1.681
306.50 1.681
306.60 1.681
306.70 1.68
306.80 1.68
306.90 1.68
307.00 1.679
307.10 1.679
307.20 1.679
307.30 1.678
307.40 1.678
307.50 1.678
307.60 1.677
307.70 1.677
307.80 1.676
307.90 1.676
308.00 1.676
308.10 1.675
308.20 1.675
308.30 1.675
308.40 1.674
308.50 1.674
308.60 1.674
308.70 1.673
308.80 1.673
308.90 1.673
309.00 1.672
309.10 1.672
309.20 1.671
309.30 1.671
309.40 1.671
309.50 1.67
309.60 1.67
309.70 1.67
309.80 1.669
309.90 1.669
310.00 1.669
310.10 1.668
310.20 1.668
310.30 1.668
310.40 1.667
310.50 1.667
310.60 1.666
310.70 1.666
310.80 1.666
310.90 1.665
311.00 1.665
311.10 1.665
311.20 1.664
311.30 1.664
311.40 1.663
311.50 1.663
311.60 1.663
311.70 1.662
311.80 1.662
311.90 1.662
312.00 1.661
312.10 1.661
312.20 1.661
312.30 1.66
312.40 1.66
312.50 1.659
312.60 1.659
312.70 1.659
312.80 1.658
312.90 1.658
313.00 1.658
313.10 1.657
313.20 1.657
313.30 1.656
313.40 1.656
313.50 1.656
313.60 1.655
313.70 1.655
313.80 1.655
313.90 1.654
314.00 1.654
314.10 1.653
314.20 1.653
314.30 1.653
314.40 1.652
314.50 1.652
314.60 1.652
314.70 1.651
314.80 1.651
314.90 1.65
315.00 1.65
315.10 1.65
315.20 1.649
315.30 1.649
315.40 1.648
315.50 1.648
315.60 1.648
315.70 1.647
315.80 1.647
315.90 1.647
316.00 1.646
316.10 1.646
316.20 1.645
316.30 1.645
316.40 1.645
316.50 1.644
316.60 1.644
316.70 1.643
316.80 1.643
316.90 1.643
317.00 1.642
317.10 1.642
317.20 1.642
317.30 1.641
317.40 1.641
317.50 1.64
317.60 1.64
317.70 1.64
317.80 1.639
317.90 1.639
318.00 1.638
318.10 1.638
318.20 1.638
318.30 1.637
318.40 1.637
318.50 1.636
318.60 1.636
318.70 1.636
318.80 1.635
318.90 1.635
319.00 1.634
319.10 1.634
319.20 1.634
319.30 1.633
319.40 1.633
319.50 1.633
319.60 1.632
319.70 1.632
319.80 1.631
319.90 1.631
320.00 1.631
320.10 1.63
320.20 1.63
320.30 1.629
320.40 1.629
320.50 1.629
320.60 1.628
320.70 1.628
320.80 1.627
320.90 1.627
321.00 1.627
321.10 1.626
321.20 1.626
321.30 1.625
321.40 1.625
321.50 1.625
321.60 1.624
321.70 1.624
321.80 1.623
321.90 1.623
322.00 1.623
322.10 1.622
322.20 1.622
322.30 1.621
322.40 1.621
322.50 1.62
322.60 1.62
322.70 1.62
322.80 1.619
322.90 1.619
323.00 1.618
323.10 1.618
323.20 1.618
323.30 1.617
323.40 1.617
323.50 1.616
323.60 1.616
323.70 1.616
323.80 1.615
323.90 1.615
324.00 1.614
324.10 1.614
324.20 1.614
324.30 1.613
324.40 1.613
324.50 1.612
324.60 1.612
324.70 1.612
324.80 1.611
324.90 1.611
325.00 1.61
325.10 1.61
325.20 1.609
325.30 1.609
325.40 1.609
325.50 1.608
325.60 1.608
325.70 1.607
325.80 1.607
325.90 1.607
326.00 1.606
326.10 1.606
326.20 1.605
326.30 1.605
326.40 1.605
326.50 1.604
326.60 1.604
326.70 1.603
326.80 1.603
326.90 1.602
327.00 1.602
327.10 1.602
327.20 1.601
327.30 1.601
327.40 1.6
327.50 1.6
327.60 1.6
327.70 1.599
327.80 1.599
327.90 1.598
328.00 1.598
328.10 1.597
328.20 1.597
328.30 1.597
328.40 1.596
328.50 1.596
328.60 1.595
328.70 1.595
328.80 1.594
328.90 1.594
329.00 1.594
329.10 1.593
329.20 1.593
329.30 1.592
329.40 1.592
329.50 1.592
329.60 1.591
329.70 1.591
329.80 1.59
329.90 1.59
330.00 1.589
330.10 1.589
330.20 1.589
330.30 1.588
330.40 1.588
330.50 1.587
330.60 1.587
330.70 1.586
330.80 1.586
330.90 1.586
331.00 1.585
331.10 1.585
331.20 1.584
331.30 1.584
331.40 1.583
331.50 1.583
331.60 1.583
331.70 1.582
331.80 1.582
331.90 1.581
332.00 1.581
332.10 1.58
332.20 1.58
332.30 1.58
332.40 1.579
332.50 1.579
332.60 1.578
332.70 1.578
332.80 1.577
332.90 1.577
333.00 1.577
333.10 1.576
333.20 1.576
333.30 1.575
333.40 1.575
333.50 1.574
333.60 1.574
333.70 1.574
333.80 1.573
333.90 1.573
334.00 1.572
334.10 1.572
334.20 1.571
334.30 1.571
334.40 1.571
334.50 1.57
334.60 1.57
334.70 1.569
334.80 1.569
334.90 1.568
335.00 1.568
335.10 1.568
335.20 1.567
335.30 1.567
335.40 1.566
335.50 1.566
335.60 1.565
335.70 1.565
335.80 1.564
335.90 1.564
336.00 1.564
336.10 1.563
336.20 1.563
336.30 1.562
336.40 1.562
336.50 1.561
336.60 1.561
336.70 1.561
336.80 1.56
336.90 1.56
337.00 1.559
337.10 1.559
337.20 1.558
337.30 1.558
337.40 1.557
337.50 1.557
337.60 1.557
337.70 1.556
337.80 1.556
337.90 1.555
338.00 1.555
338.10 1.554
338.20 1.554
338.30 1.554
338.40 1.553
338.50 1.553
338.60 1.552
338.70 1.552
338.80 1.551
338.90 1.551
339.00 1.55
339.10 1.55
339.20 1.55
339.30 1.549
339.40 1.549
339.50 1.548
339.60 1.548
339.70 1.547
339.80 1.547
339.90 1.547
340.00 1.546
340.10 1.546
340.20 1.545
340.30 1.545
340.40 1.544
340.50 1.544
340.60 1.543
340.70 1.543
340.80 1.543
340.90 1.542
341.00 1.542
341.10 1.541
341.20 1.541
341.30 1.54
341.40 1.54
341.50 1.539
341.60 1.539
341.70 1.539
341.80 1.538
341.90 1.538
342.00 1.537
342.10 1.537
342.20 1.536
342.30 1.536
342.40 1.535
342.50 1.535
342.60 1.534
342.70 1.534
342.80 1.534
342.90 1.533
343.00 1.533
343.10 1.532
343.20 1.532
343.30 1.531
343.40 1.531
343.50 1.53
343.60 1.53
343.70 1.53
343.80 1.529
343.90 1.529
344.00 1.528
344.10 1.528
344.20 1.527
344.30 1.527
344.40 1.526
344.50 1.526
344.60 1.526
344.70 1.525
344.80 1.525
344.90 1.524
345.00 1.524
345.10 1.523
345.20 1.523
345.30 1.522
345.40 1.522
345.50 1.521
345.60 1.521
345.70 1.521
345.80 1.52
345.90 1.52
346.00 1.519
346.10 1.519
346.20 1.518
346.30 1.518
346.40 1.517
346.50 1.517
346.60 1.517
346.70 1.516
346.80 1.516
346.90 1.515
347.00 1.515
347.10 1.514
347.20 1.514
347.30 1.513
347.40 1.513
347.50 1.512
347.60 1.512
347.70 1.512
347.80 1.511
347.90 1.511
348.00 1.51
348.10 1.51
348.20 1.509
348.30 1.509
348.40 1.508
348.50 1.508
348.60 1.507
348.70 1.507
348.80 1.507
348.90 1.506
349.00 1.506
349.10 1.505
349.20 1.505
349.30 1.504
349.40 1.504
349.50 1.503
349.60 1.503
349.70 1.502
349.80 1.502
349.90 1.502
350.00 1.501
350.10 1.501
350.20 1.5
350.30 1.5
350.40 1.499
350.50 1.499
350.60 1.498
350.70 1.498
350.80 1.497
350.90 1.497
351.00 1.496
351.10 1.496
351.20 1.496
351.30 1.495
351.40 1.495
351.50 1.494
351.60 1.494
351.70 1.493
351.80 1.493
351.90 1.492
352.00 1.492
352.10 1.491
352.20 1.491
352.30 1.491
352.40 1.49
352.50 1.49
352.60 1.489
352.70 1.489
352.80 1.488
352.90 1.488
353.00 1.487
353.10 1.487
353.20 1.486
353.30 1.486
353.40 1.485
353.50 1.485
353.60 1.485
353.70 1.484
353.80 1.484
353.90 1.483
354.00 1.483
354.10 1.482
354.20 1.482
354.30 1.481
354.40 1.481
354.50 1.48
354.60 1.48
354.70 1.48
354.80 1.479
354.90 1.479
355.00 1.478
355.10 1.478
355.20 1.477
355.30 1.477
355.40 1.476
355.50 1.476
355.60 1.475
355.70 1.475
355.80 1.474
355.90 1.474
356.00 1.474
356.10 1.473
356.20 1.473
356.30 1.472
356.40 1.472
356.50 1.471
356.60 1.471
356.70 1.47
356.80 1.47
356.90 1.469
357.00 1.469
357.10 1.468
357.20 1.468
357.30 1.468
357.40 1.467
357.50 1.467
357.60 1.466
357.70 1.466
357.80 1.465
357.90 1.465
358.00 1.464
358.10 1.464
358.20 1.463
358.30 1.463
358.40 1.462
358.50 1.462
358.60 1.462
358.70 1.461
358.80 1.461
358.90 1.46
359.00 1.46
359.10 1.459
359.20 1.459
359.30 1.458
359.40 1.458
359.50 1.457
359.60 1.457
359.70 1.456
359.80 1.456
359.90 1.456
360.00 1.455
360.10 1.455
360.20 1.454
360.30 1.454
360.40 1.453
360.50 1.453
360.60 1.452
360.70 1.452
360.80 1.451
360.90 1.451
361.00 1.45
361.10 1.45
361.20 1.449
361.30 1.449
361.40 1.449
361.50 1.448
361.60 1.448
361.70 1.447
361.80 1.447
361.90 1.446
362.00 1.446
362.10 1.445
362.20 1.445
362.30 1.444
362.40 1.444
362.50 1.443
362.60 1.443
362.70 1.443
362.80 1.442
362.90 1.442
363.00 1.441
363.10 1.441
363.20 1.44
363.30 1.44
363.40 1.439
363.50 1.439
363.60 1.438
363.70 1.438
363.80 1.437
363.90 1.437
364.00 1.436
364.10 1.436
364.20 1.435
364.30 1.435
364.40 1.434
364.50 1.433
364.60 1.433
364.70 1.432
364.80 1.432
364.90 1.431
365.00 1.431
365.10 1.43
365.20 1.43
365.30 1.429
365.40 1.429
365.50 1.428
365.60 1.428
365.70 1.427
365.80 1.427
365.90 1.426
366.00 1.426
366.10 1.425
366.20 1.425
366.30 1.424
366.40 1.424
366.50 1.423
366.60 1.423
366.70 1.422
366.80 1.422
366.90 1.421
367.00 1.421
367.10 1.42
367.20 1.42
367.30 1.419
367.40 1.419
367.50 1.418
367.60 1.418
367.70 1.417
367.80 1.417
367.90 1.416
368.00 1.416
368.10 1.416
368.20 1.415
368.30 1.415
368.40 1.414
368.50 1.414
368.60 1.413
368.70 1.413
368.80 1.412
368.90 1.412
369.00 1.411
369.10 1.411
369.20 1.41
369.30 1.41
369.40 1.409
369.50 1.409
369.60 1.409
369.70 1.408
369.80 1.408
369.90 1.407
370.00 1.407
370.10 1.406
370.20 1.406
370.30 1.405
370.40 1.405
370.50 1.405
370.60 1.404
370.70 1.404
370.80 1.403
370.90 1.403
371.00 1.402
371.10 1.402
371.20 1.402
371.30 1.401
371.40 1.401
371.50 1.4
371.60 1.4
371.70 1.399
371.80 1.399
371.90 1.399
372.00 1.398
372.10 1.398
372.20 1.398
372.30 1.397
372.40 1.397
372.50 1.397
372.60 1.396
372.70 1.396
372.80 1.396
372.90 1.395
373.00 1.395
373.10 1.395
373.20 1.394
373.30 1.394
373.40 1.394
373.50 1.393
373.60 1.393
373.70 1.393
373.80 1.392
373.90 1.392
374.00 1.392
374.10 1.392
374.20 1.391
374.30 1.391
374.40 1.391
374.50 1.391
374.60 1.39
374.70 1.39
374.80 1.39
374.90 1.39
375.00 1.39
375.10 1.389
375.20 1.389
375.30 1.389
375.40 1.389
375.50 1.388
375.60 1.388
375.70 1.388
375.80 1.388
375.90 1.388
376.00 1.387
376.10 1.387
376.20 1.387
376.30 1.387
376.40 1.386
376.50 1.386
376.60 1.386
376.70 1.386
376.80 1.386
376.90 1.385
377.00 1.385
377.10 1.385
377.20 1.384
377.30 1.384
377.40 1.384
377.50 1.383
377.60 1.383
377.70 1.383
377.80 1.382
377.90 1.382
378.00 1.381
378.10 1.38
378.20 1.379
378.30 1.377
378.40 1.376
378.50 1.374
378.60 1.373
378.70 1.372
378.80 1.37
378.90 1.369
379.00 1.368
379.10 1.366
379.20 1.364
379.30 1.362
379.40 1.36
379.50 1.358
379.60 1.357
379.70 1.355
379.80 1.353
379.90 1.351
380.00 1.349
380.10 1.351
380.20 1.354
380.30 1.356
380.40 1.358
380.50 1.36
380.60 1.363
380.70 1.365
380.80 1.367
380.90 1.369
381.00 1.372
381.10 1.372
381.20 1.372
381.30 1.373
381.40 1.373
381.50 1.373
381.60 1.373
381.70 1.372
381.80 1.372
381.90 1.371
382.00 1.37
382.10 1.368
382.20 1.367
382.30 1.362
382.40 1.357
382.50 1.353
382.60 1.348
382.70 1.343
382.80 1.339
382.90 1.334
383.00 1.33
383.10 1.325
383.20 1.32
383.30 1.313
383.40 1.304
383.50 1.296
383.60 1.298
383.70 1.306
383.80 1.315
383.90 1.322
384.00 1.329
384.10 1.336
384.20 1.342
384.30 1.348
384.40 1.353
384.50 1.357
384.60 1.36
384.70 1.363
384.80 1.366
384.90 1.368
385.00 1.369
385.10 1.371
385.20 1.372
385.30 1.373
385.40 1.373
385.50 1.374
385.60 1.374
385.70 1.374
385.80 1.374
385.90 1.374
386.00 1.373
386.10 1.373
386.20 1.372
386.30 1.371
386.40 1.37
386.50 1.369
386.60 1.368
386.70 1.366
386.80 1.365
386.90 1.363
387.00 1.36
387.10 1.358
387.20 1.355
387.30 1.353
387.40 1.349
387.50 1.346
387.60 1.341
387.70 1.337
387.80 1.331
387.90 1.325
388.00 1.318
388.10 1.308
388.20 1.298
388.30 1.286
388.40 1.271
388.50 1.255
388.60 1.239
388.70 1.22
388.80 1.203
388.90 1.188
389.00 1.202
389.10 1.218
389.20 1.237
389.30 1.254
389.40 1.27
389.50 1.285
389.60 1.297
389.70 1.308
389.80 1.317
389.90 1.324
390.00 1.331
390.10 1.337
390.20 1.342
390.30 1.346
390.40 1.35
390.50 1.353
390.60 1.356
390.70 1.359
390.80 1.361
390.90 1.364
391.00 1.366
391.10 1.367
391.20 1.369
391.30 1.371
391.40 1.372
391.50 1.373
391.60 1.374
391.70 1.375
391.80 1.375
391.90 1.376
392.00 1.376
392.10 1.377
392.20 1.377
392.30 1.377
392.40 1.377
392.50 1.377
392.60 1.376
392.70 1.376
392.80 1.375
392.90 1.374
393.00 1.373
393.10 1.372
393.20 1.371
393.30 1.37
393.40 1.369
393.50 1.367
393.60 1.365
393.70 1.363
393.80 1.361
393.90 1.359
394.00 1.356
394.10 1.354
394.20 1.351
394.30 1.348
394.40 1.345
394.50 1.341
394.60 1.337
394.70 1.333
394.80 1.329
394.90 1.325
395.00 1.32
395.10 1.314
395.20 1.309
395.30 1.303
395.40 1.296
395.50 1.289
395.60 1.282
395.70 1.273
395.80 1.264
395.90 1.254
396.00 1.243
396.10 1.23
396.20 1.215
396.30 1.197
396.40 1.176
396.50 1.149
396.60 1.118
396.70 1.083
396.80 1.044
396.90 1.005
397.00 0.9643
397.10 1.001
397.20 1.039
397.30 1.077
397.40 1.112
397.50 1.144
397.60 1.171
397.70 1.192
397.80 1.21
397.90 1.226
398.00 1.238
398.10 1.25
398.20 1.26
398.30 1.268
398.40 1.277
398.50 1.284
398.60 1.291
398.70 1.297
398.80 1.303
398.90 1.308
399.00 1.314
399.10 1.318
399.20 1.323
399.30 1.327
399.40 1.331
399.50 1.335
399.60 1.338
399.70 1.341
399.80 1.344
399.90 1.347
400.00 1.35
400.10 1.352
400.20 1.355
400.30 1.357
400.40 1.359
400.50 1.361
400.60 1.363
400.70 1.364
400.80 1.366
400.90 1.367
401.00 1.368
401.10 1.37
401.20 1.371
401.30 1.372
401.40 1.373
401.50 1.374
401.60 1.374
401.70 1.375
401.80 1.376
401.90 1.376
402.00 1.377
402.10 1.377
402.20 1.377
402.30 1.377
402.40 1.378
402.50 1.378
402.60 1.378
402.70 1.378
402.80 1.378
402.90 1.377
403.00 1.377
403.10 1.377
403.20 1.377
403.30 1.376
403.40 1.376
403.50 1.375
403.60 1.375
403.70 1.374
403.80 1.373
403.90 1.372
404.00 1.372
404.10 1.371
404.20 1.37
404.30 1.369
404.40 1.367
404.50 1.366
404.60 1.365
404.70 1.364
404.80 1.362
404.90 1.361
405.00 1.359
405.10 1.357
405.20 1.355
405.30 1.354
405.40 1.352
405.50 1.35
405.60 1.347
405.70 1.345
405.80 1.343
405.90 1.34
406.00 1.337
406.10 1.335
406.20 1.332
406.30 1.328
406.40 1.325
406.50 1.322
406.60 1.318
406.70 1.314
406.80 1.31
406.90 1.306
407.00 1.302
407.10 1.297
407.20 1.292
407.30 1.287
407.40 1.281
407.50 1.276
407.60 1.269
407.70 1.263
407.80 1.256
407.90 1.249
408.00 1.241
408.10 1.233
408.20 1.224
408.30 1.215
408.40 1.206
408.50 1.195
408.60 1.184
408.70 1.172
408.80 1.159
408.90 1.145
409.00 1.131
409.10 1.114
409.20 1.096
409.30 1.077
409.40 1.054
409.50 1.027
409.60 0.9967
409.70 0.9557
409.80 0.9077
409.90 0.8527
410.00 0.7891
410.10 0.7381
410.20 0.6996
410.30 0.7615
410.40 0.8228
410.50 0.8835
410.60 0.9331
410.70 0.976
410.80 1.012
410.90 1.039
411.00 1.063
411.10 1.084
411.20 1.101
411.30 1.118
411.40 1.133
411.50 1.146
411.60 1.159
411.70 1.17
411.80 1.181
411.90 1.191
412.00 1.2
412.10 1.209
412.20 1.217
412.30 1.225
412.40 1.232
412.50 1.239
412.60 1.245
412.70 1.251
412.80 1.257
412.90 1.262
413.00 1.267
413.10 1.271
413.20 1.276
413.30 1.28
413.40 1.284
413.50 1.287
413.60 1.291
413.70 1.294
413.80 1.297
413.90 1.3
414.00 1.303
414.10 1.305
414.20 1.308
414.30 1.31
414.40 1.312
414.50 1.314
414.60 1.316
414.70 1.318
414.80 1.32
414.90 1.321
415.00 1.323
415.10 1.324
415.20 1.326
415.30 1.327
415.40 1.328
415.50 1.329
415.60 1.33
415.70 1.331
415.80 1.332
415.90 1.333
416.00 1.334
416.10 1.335
416.20 1.335
416.30 1.336
416.40 1.337
416.50 1.337
416.60 1.338
416.70 1.338
416.80 1.339
416.90 1.339
417.00 1.34
417.10 1.34
417.20 1.34
417.30 1.34
417.40 1.341
417.50 1.341
417.60 1.341
417.70 1.341
417.80 1.341
417.90 1.341
418.00 1.342
418.10 1.342
418.20 1.342
418.30 1.342
418.40 1.342
418.50 1.342
418.60 1.342
418.70 1.342
418.80 1.341
418.90 1.341
419.00 1.341
419.10 1.341
419.20 1.341
419.30 1.341
419.40 1.341
419.50 1.34
419.60 1.34
419.70 1.34
419.80 1.34
419.90 1.34
420.00 1.339
420.10 1.339
420.20 1.339
420.30 1.338
420.40 1.338
420.50 1.338
420.60 1.337
420.70 1.337
420.80 1.337
420.90 1.336
421.00 1.336
421.10 1.336
421.20 1.335
421.30 1.335
421.40 1.334
421.50 1.334
421.60 1.333
421.70 1.333
421.80 1.333
421.90 1.332
422.00 1.332
422.10 1.331
422.20 1.331
422.30 1.33
422.40 1.33
422.50 1.329
422.60 1.328
422.70 1.328
422.80 1.327
422.90 1.327
423.00 1.326
423.10 1.326
423.20 1.325
423.30 1.324
423.40 1.324
423.50 1.323
423.60 1.322
423.70 1.322
423.80 1.321
423.90 1.32
424.00 1.32
424.10 1.319
424.20 1.318
424.30 1.318
424.40 1.317
424.50 1.316
424.60 1.315
424.70 1.314
424.80 1.314
424.90 1.313
425.00 1.312
425.10 1.311
425.20 1.31
425.30 1.309
425.40 1.308
425.50 1.307
425.60 1.307
425.70 1.306
425.80 1.305
425.90 1.304
426.00 1.303
426.10 1.301
426.20 1.3
426.30 1.299
426.40 1.298
426.50 1.297
426.60 1.296
426.70 1.294
426.80 1.293
426.90 1.292
427.00 1.29
427.10 1.289
427.20 1.288
427.30 1.286
427.40 1.285
427.50 1.283
427.60 1.282
427.70 1.28
427.80 1.278
427.90 1.277
428.00 1.275
428.10 1.273
428.20 1.271
428.30 1.269
428.40 1.267
428.50 1.265
428.60 1.263
428.70 1.261
428.80 1.259
428.90 1.256
429.00 1.254
429.10 1.252
429.20 1.249
429.30 1.246
429.40 1.243
429.50 1.24
429.60 1.237
429.70 1.234
429.80 1.231
429.90 1.227
430.00 1.224
430.10 1.22
430.20 1.216
430.30 1.212
430.40 1.208
430.50 1.204
430.60 1.199
430.70 1.194
430.80 1.189
430.90 1.184
431.00 1.178
431.10 1.172
431.20 1.166
431.30 1.159
431.40 1.153
431.50 1.145
431.60 1.138
431.70 1.13
431.80 1.121
431.90 1.112
432.00 1.102
432.10 1.092
432.20 1.081
432.30 1.069
432.40 1.056
432.50 1.042
432.60 1.027
432.70 1.011
432.80 0.9928
432.90 0.9735
433.00 0.953
433.10 0.9301
433.20 0.9055
433.30 0.8793
433.40 0.8477
433.50 0.811
433.60 0.7693
433.70 0.7096
433.80 0.6438
433.90 0.5718
434.00 0.5071
434.10 0.509
434.20 0.5773
434.30 0.6489
434.40 0.7137
434.50 0.7719
434.60 0.8123
434.70 0.848
434.80 0.8787
434.90 0.904
435.00 0.9277
435.10 0.9498
435.20 0.9695
435.30 0.988
435.40 1.005
435.50 1.021
435.60 1.035
435.70 1.048
435.80 1.06
435.90 1.071
436.00 1.081
436.10 1.09
436.20 1.099
436.30 1.107
436.40 1.115
436.50 1.122
436.60 1.129
436.70 1.135
436.80 1.141
436.90 1.146
437.00 1.151
437.10 1.156
437.20 1.161
437.30 1.165
437.40 1.169
437.50 1.173
437.60 1.177
437.70 1.181
437.80 1.184
437.90 1.187
438.00 1.19
438.10 1.193
438.20 1.195
438.30 1.198
438.40 1.2
438.50 1.202
438.60 1.204
438.70 1.206
438.80 1.208
438.90 1.21
439.00 1.211
439.10 1.213
439.20 1.215
439.30 1.216
439.40 1.217
439.50 1.218
439.60 1.22
439.70 1.221
439.80 1.222
439.90 1.223
440.00 1.224
440.10 1.224
440.20 1.225
440.30 1.226
440.40 1.227
440.50 1.227
440.60 1.228
440.70 1.229
440.80 1.229
440.90 1.23
441.00 1.23
441.10 1.231
441.20 1.231
441.30 1.231
441.40 1.232
441.50 1.232
441.60 1.232
441.70 1.233
441.80 1.233
441.90 1.233
442.00 1.233
442.10 1.233
442.20 1.233
442.30 1.234
442.40 1.234
442.50 1.234
442.60 1.234
442.70 1.234
442.80 1.234
442.90 1.234
443.00 1.234
443.10 1.234
443.20 1.234
443.30 1.234
443.40 1.234
443.50 1.234
443.60 1.234
443.70 1.234
443.80 1.233
443.90 1.233
444.00 1.233
444.10 1.233
444.20 1.233
444.30 1.233
444.40 1.233
444.50 1.232
444.60 1.232
444.70 1.232
444.80 1.232
444.90 1.232
445.00 1.231
445.10 1.231
445.20 1.231
445.30 1.231
445.40 1.231
445.50 1.23
445.60 1.23
445.70 1.23
445.80 1.23
445.90 1.229
446.00 1.229
446.10 1.229
446.20 1.229
446.30 1.228
446.40 1.228
446.50 1.228
446.60 1.227
446.70 1.227
446.80 1.227
446.90 1.227
447.00 1.226
447.10 1.226
447.20 1.226
447.30 1.225
447.40 1.225
447.50 1.225
447.60 1.224
447.70 1.224
447.80 1.224
447.90 1.223
448.00 1.223
448.10 1.223
448.20 1.222
448.30 1.222
448.40 1.222
448.50 1.221
448.60 1.221
448.70 1.22
448.80 1.22
448.90 1.22
449.00 1.219
449.10 1.219
449.20 1.219
449.30 1.218
449.40 1.218
449.50 1.218
449.60 1.217
449.70 1.217
449.80 1.216
449.90 1.216
450.00 1.216
450.10 1.215
450.20 1.215
450.30 1.215
450.40 1.214
450.50 1.214
450.60 1.213
450.70 1.213
450.80 1.213
450.90 1.212
451.00 1.212
451.10 1.211
451.20 1.211
451.30 1.211
451.40 1.21
451.50 1.21
451.60 1.209
451.70 1.209
451.80 1.208
451.90 1.208
452.00 1.208
452.10 1.207
452.20 1.207
452.30 1.206
452.40 1.206
452.50 1.206
452.60 1.205
452.70 1.205
452.80 1.204
452.90 1.204
453.00 1.204
453.10 1.203
453.20 1.203
453.30 1.202
453.40 1.202
453.50 1.201
453.60 1.201
453.70 1.201
453.80 1.2
