# Version 2.1 - nm, norm@500 to 1, cut digits, bergeron_65000_65.dat_65000
# Wavelength(nm)  Flambda(ergs/cm^s/s/nm)
300.00 6.466
300.10 6.458
300.20 6.45
300.30 6.442
300.40 6.435
300.50 6.427
300.60 6.419
300.70 6.411
300.80 6.403
300.90 6.395
301.00 6.387
301.10 6.38
301.20 6.372
301.30 6.364
301.40 6.356
301.50 6.349
301.60 6.341
301.70 6.333
301.80 6.325
301.90 6.318
302.00 6.31
302.10 6.302
302.20 6.295
302.30 6.287
302.40 6.279
302.50 6.272
302.60 6.264
302.70 6.256
302.80 6.249
302.90 6.241
303.00 6.234
303.10 6.226
303.20 6.219
303.30 6.211
303.40 6.203
303.50 6.196
303.60 6.188
303.70 6.181
303.80 6.173
303.90 6.166
304.00 6.158
304.10 6.151
304.20 6.144
304.30 6.136
304.40 6.129
304.50 6.121
304.60 6.114
304.70 6.107
304.80 6.099
304.90 6.092
305.00 6.084
305.10 6.077
305.20 6.07
305.30 6.062
305.40 6.055
305.50 6.048
305.60 6.041
305.70 6.033
305.80 6.026
305.90 6.019
306.00 6.012
306.10 6.004
306.20 5.997
306.30 5.99
306.40 5.983
306.50 5.976
306.60 5.968
306.70 5.961
306.80 5.954
306.90 5.947
307.00 5.94
307.10 5.933
307.20 5.925
307.30 5.918
307.40 5.911
307.50 5.904
307.60 5.897
307.70 5.89
307.80 5.883
307.90 5.876
308.00 5.869
308.10 5.862
308.20 5.855
308.30 5.848
308.40 5.841
308.50 5.834
308.60 5.827
308.70 5.82
308.80 5.813
308.90 5.806
309.00 5.799
309.10 5.792
309.20 5.785
309.30 5.779
309.40 5.772
309.50 5.765
309.60 5.758
309.70 5.751
309.80 5.744
309.90 5.737
310.00 5.731
310.10 5.724
310.20 5.717
310.30 5.71
310.40 5.703
310.50 5.697
310.60 5.69
310.70 5.683
310.80 5.676
310.90 5.67
311.00 5.663
311.10 5.656
311.20 5.65
311.30 5.643
311.40 5.636
311.50 5.629
311.60 5.623
311.70 5.616
311.80 5.61
311.90 5.603
312.00 5.596
312.10 5.59
312.20 5.583
312.30 5.576
312.40 5.57
312.50 5.563
312.60 5.557
312.70 5.55
312.80 5.544
312.90 5.537
313.00 5.531
313.10 5.524
313.20 5.518
313.30 5.511
313.40 5.505
313.50 5.498
313.60 5.492
313.70 5.485
313.80 5.479
313.90 5.472
314.00 5.466
314.10 5.459
314.20 5.453
314.30 5.447
314.40 5.44
314.50 5.434
314.60 5.427
314.70 5.421
314.80 5.415
314.90 5.408
315.00 5.402
315.10 5.396
315.20 5.389
315.30 5.383
315.40 5.377
315.50 5.371
315.60 5.364
315.70 5.358
315.80 5.352
315.90 5.346
316.00 5.339
316.10 5.333
316.20 5.327
316.30 5.321
316.40 5.314
316.50 5.308
316.60 5.302
316.70 5.296
316.80 5.29
316.90 5.283
317.00 5.277
317.10 5.271
317.20 5.265
317.30 5.259
317.40 5.253
317.50 5.247
317.60 5.241
317.70 5.235
317.80 5.228
317.90 5.222
318.00 5.216
318.10 5.21
318.20 5.204
318.30 5.198
318.40 5.192
318.50 5.186
318.60 5.18
318.70 5.174
318.80 5.168
318.90 5.162
319.00 5.156
319.10 5.15
319.20 5.144
319.30 5.138
319.40 5.132
319.50 5.126
319.60 5.12
319.70 5.115
319.80 5.109
319.90 5.103
320.00 5.097
320.10 5.091
320.20 5.085
320.30 5.079
320.40 5.073
320.50 5.068
320.60 5.062
320.70 5.056
320.80 5.05
320.90 5.044
321.00 5.038
321.10 5.033
321.20 5.027
321.30 5.021
321.40 5.015
321.50 5.01
321.60 5.004
321.70 4.998
321.80 4.992
321.90 4.987
322.00 4.981
322.10 4.975
322.20 4.969
322.30 4.964
322.40 4.958
322.50 4.952
322.60 4.947
322.70 4.941
322.80 4.935
322.90 4.93
323.00 4.924
323.10 4.918
323.20 4.913
323.30 4.907
323.40 4.902
323.50 4.896
323.60 4.89
323.70 4.885
323.80 4.879
323.90 4.874
324.00 4.868
324.10 4.863
324.20 4.857
324.30 4.852
324.40 4.846
324.50 4.84
324.60 4.835
324.70 4.829
324.80 4.824
324.90 4.818
325.00 4.813
325.10 4.808
325.20 4.802
325.30 4.797
325.40 4.791
325.50 4.786
325.60 4.78
325.70 4.775
325.80 4.769
325.90 4.764
326.00 4.759
326.10 4.753
326.20 4.748
326.30 4.742
326.40 4.737
326.50 4.732
326.60 4.726
326.70 4.721
326.80 4.716
326.90 4.71
327.00 4.705
327.10 4.7
327.20 4.694
327.30 4.689
327.40 4.684
327.50 4.678
327.60 4.673
327.70 4.668
327.80 4.663
327.90 4.657
328.00 4.652
328.10 4.647
328.20 4.642
328.30 4.636
328.40 4.631
328.50 4.626
328.60 4.621
328.70 4.616
328.80 4.61
328.90 4.605
329.00 4.6
329.10 4.595
329.20 4.59
329.30 4.584
329.40 4.579
329.50 4.574
329.60 4.569
329.70 4.564
329.80 4.559
329.90 4.554
330.00 4.549
330.10 4.544
330.20 4.538
330.30 4.533
330.40 4.528
330.50 4.523
330.60 4.518
330.70 4.513
330.80 4.508
330.90 4.503
331.00 4.498
331.10 4.493
331.20 4.488
331.30 4.483
331.40 4.478
331.50 4.473
331.60 4.468
331.70 4.463
331.80 4.458
331.90 4.453
332.00 4.448
332.10 4.443
332.20 4.438
332.30 4.433
332.40 4.428
332.50 4.423
332.60 4.418
332.70 4.413
332.80 4.409
332.90 4.404
333.00 4.399
333.10 4.394
333.20 4.389
333.30 4.384
333.40 4.379
333.50 4.374
333.60 4.369
333.70 4.365
333.80 4.36
333.90 4.355
334.00 4.35
334.10 4.345
334.20 4.34
334.30 4.336
334.40 4.331
334.50 4.326
334.60 4.321
334.70 4.317
334.80 4.312
334.90 4.307
335.00 4.302
335.10 4.297
335.20 4.293
335.30 4.288
335.40 4.283
335.50 4.279
335.60 4.274
335.70 4.269
335.80 4.264
335.90 4.26
336.00 4.255
336.10 4.25
336.20 4.246
336.30 4.241
336.40 4.236
336.50 4.232
336.60 4.227
336.70 4.222
336.80 4.218
336.90 4.213
337.00 4.208
337.10 4.204
337.20 4.199
337.30 4.195
337.40 4.19
337.50 4.185
337.60 4.181
337.70 4.176
337.80 4.171
337.90 4.167
338.00 4.162
338.10 4.158
338.20 4.153
338.30 4.149
338.40 4.144
338.50 4.14
338.60 4.135
338.70 4.131
338.80 4.126
338.90 4.122
339.00 4.117
339.10 4.113
339.20 4.108
339.30 4.104
339.40 4.099
339.50 4.095
339.60 4.09
339.70 4.086
339.80 4.081
339.90 4.077
340.00 4.072
340.10 4.068
340.20 4.063
340.30 4.059
340.40 4.055
340.50 4.05
340.60 4.046
340.70 4.041
340.80 4.037
340.90 4.033
341.00 4.028
341.10 4.024
341.20 4.019
341.30 4.015
341.40 4.011
341.50 4.006
341.60 4.002
341.70 3.998
341.80 3.993
341.90 3.989
342.00 3.985
342.10 3.98
342.20 3.976
342.30 3.972
342.40 3.967
342.50 3.963
342.60 3.959
342.70 3.955
342.80 3.95
342.90 3.946
343.00 3.942
343.10 3.937
343.20 3.933
343.30 3.929
343.40 3.925
343.50 3.92
343.60 3.916
343.70 3.912
343.80 3.908
343.90 3.904
344.00 3.899
344.10 3.895
344.20 3.891
344.30 3.887
344.40 3.883
344.50 3.878
344.60 3.874
344.70 3.87
344.80 3.866
344.90 3.862
345.00 3.858
345.10 3.853
345.20 3.849
345.30 3.845
345.40 3.841
345.50 3.837
345.60 3.833
345.70 3.829
345.80 3.824
345.90 3.82
346.00 3.816
346.10 3.812
346.20 3.808
346.30 3.804
346.40 3.8
346.50 3.796
346.60 3.792
346.70 3.788
346.80 3.784
346.90 3.78
347.00 3.776
347.10 3.772
347.20 3.768
347.30 3.764
347.40 3.76
347.50 3.756
347.60 3.751
347.70 3.747
347.80 3.743
347.90 3.739
348.00 3.735
348.10 3.731
348.20 3.728
348.30 3.724
348.40 3.72
348.50 3.716
348.60 3.712
348.70 3.708
348.80 3.704
348.90 3.7
349.00 3.696
349.10 3.692
349.20 3.688
349.30 3.684
349.40 3.68
349.50 3.676
349.60 3.672
349.70 3.668
349.80 3.665
349.90 3.661
350.00 3.657
350.10 3.653
350.20 3.649
350.30 3.645
350.40 3.641
350.50 3.637
350.60 3.634
350.70 3.63
350.80 3.626
350.90 3.622
351.00 3.618
351.10 3.614
351.20 3.611
351.30 3.607
351.40 3.603
351.50 3.599
351.60 3.595
351.70 3.592
351.80 3.588
351.90 3.584
352.00 3.58
352.10 3.576
352.20 3.573
352.30 3.569
352.40 3.565
352.50 3.561
352.60 3.558
352.70 3.554
352.80 3.55
352.90 3.546
353.00 3.543
353.10 3.539
353.20 3.535
353.30 3.531
353.40 3.528
353.50 3.524
353.60 3.52
353.70 3.517
353.80 3.513
353.90 3.509
354.00 3.506
354.10 3.502
354.20 3.498
354.30 3.495
354.40 3.491
354.50 3.487
354.60 3.484
354.70 3.48
354.80 3.476
354.90 3.473
355.00 3.469
355.10 3.465
355.20 3.462
355.30 3.458
355.40 3.454
355.50 3.451
355.60 3.447
355.70 3.444
355.80 3.44
355.90 3.436
356.00 3.433
356.10 3.429
356.20 3.426
356.30 3.422
356.40 3.419
356.50 3.415
356.60 3.411
356.70 3.408
356.80 3.404
356.90 3.401
357.00 3.397
357.10 3.394
357.20 3.39
357.30 3.387
357.40 3.383
357.50 3.38
357.60 3.376
357.70 3.373
357.80 3.369
357.90 3.365
358.00 3.362
358.10 3.359
358.20 3.355
358.30 3.352
358.40 3.348
358.50 3.345
358.60 3.341
358.70 3.338
358.80 3.334
358.90 3.331
359.00 3.327
359.10 3.324
359.20 3.32
359.30 3.317
359.40 3.314
359.50 3.31
359.60 3.307
359.70 3.303
359.80 3.3
359.90 3.296
360.00 3.293
360.10 3.29
360.20 3.286
360.30 3.283
360.40 3.279
360.50 3.276
360.60 3.273
360.70 3.269
360.80 3.266
360.90 3.263
361.00 3.259
361.10 3.256
361.20 3.253
361.30 3.249
361.40 3.246
361.50 3.242
361.60 3.239
361.70 3.236
361.80 3.232
361.90 3.229
362.00 3.226
362.10 3.222
362.20 3.219
362.30 3.216
362.40 3.213
362.50 3.209
362.60 3.206
362.70 3.203
362.80 3.199
362.90 3.196
363.00 3.193
363.10 3.19
363.20 3.186
363.30 3.183
363.40 3.18
363.50 3.177
363.60 3.173
363.70 3.17
363.80 3.167
363.90 3.164
364.00 3.16
364.10 3.157
364.20 3.154
364.30 3.151
364.40 3.147
364.50 3.144
364.60 3.141
364.70 3.138
364.80 3.135
364.90 3.131
365.00 3.128
365.10 3.125
365.20 3.122
365.30 3.119
365.40 3.115
365.50 3.112
365.60 3.109
365.70 3.106
365.80 3.103
365.90 3.1
366.00 3.096
366.10 3.093
366.20 3.09
366.30 3.087
366.40 3.083
366.50 3.08
366.60 3.077
366.70 3.074
366.80 3.071
366.90 3.067
367.00 3.064
367.10 3.061
367.20 3.058
367.30 3.054
367.40 3.051
367.50 3.048
367.60 3.045
367.70 3.042
367.80 3.038
367.90 3.035
368.00 3.032
368.10 3.029
368.20 3.026
368.30 3.023
368.40 3.019
368.50 3.016
368.60 3.013
368.70 3.01
368.80 3.007
368.90 3.004
369.00 3.001
369.10 2.997
369.20 2.994
369.30 2.991
369.40 2.988
369.50 2.985
369.60 2.982
369.70 2.979
369.80 2.976
369.90 2.973
370.00 2.969
370.10 2.966
370.20 2.963
370.30 2.96
370.40 2.957
370.50 2.954
370.60 2.951
370.70 2.948
370.80 2.945
370.90 2.942
371.00 2.939
371.10 2.936
371.20 2.933
371.30 2.93
371.40 2.927
371.50 2.924
371.60 2.921
371.70 2.918
371.80 2.915
371.90 2.912
372.00 2.909
372.10 2.906
372.20 2.903
372.30 2.901
372.40 2.898
372.50 2.895
372.60 2.892
372.70 2.889
372.80 2.886
372.90 2.884
373.00 2.881
373.10 2.878
373.20 2.875
373.30 2.872
373.40 2.87
373.50 2.867
373.60 2.864
373.70 2.861
373.80 2.859
373.90 2.856
374.00 2.853
374.10 2.85
374.20 2.848
374.30 2.845
374.40 2.842
374.50 2.84
374.60 2.837
374.70 2.835
374.80 2.832
374.90 2.829
375.00 2.827
375.10 2.824
375.20 2.822
375.30 2.819
375.40 2.816
375.50 2.814
375.60 2.811
375.70 2.809
375.80 2.806
375.90 2.803
376.00 2.801
376.10 2.798
376.20 2.795
376.30 2.791
376.40 2.788
376.50 2.785
376.60 2.782
376.70 2.779
376.80 2.776
376.90 2.773
377.00 2.769
377.10 2.768
377.20 2.766
377.30 2.764
377.40 2.763
377.50 2.761
377.60 2.759
377.70 2.758
377.80 2.756
377.90 2.754
378.00 2.753
378.10 2.749
378.20 2.746
378.30 2.743
378.40 2.74
378.50 2.737
378.60 2.734
378.70 2.73
378.80 2.727
378.90 2.724
379.00 2.721
379.10 2.717
379.20 2.714
379.30 2.71
379.40 2.707
379.50 2.703
379.60 2.7
379.70 2.696
379.80 2.692
379.90 2.689
380.00 2.685
380.10 2.685
380.20 2.685
380.30 2.685
380.40 2.685
380.50 2.685
380.60 2.685
380.70 2.685
380.80 2.685
380.90 2.685
381.00 2.685
381.10 2.683
381.20 2.681
381.30 2.679
381.40 2.677
381.50 2.675
381.60 2.672
381.70 2.668
381.80 2.665
381.90 2.661
382.00 2.657
382.10 2.652
382.20 2.647
382.30 2.64
382.40 2.633
382.50 2.626
382.60 2.619
382.70 2.612
382.80 2.605
382.90 2.598
383.00 2.591
383.10 2.584
383.20 2.577
383.30 2.568
383.40 2.56
383.50 2.553
383.60 2.552
383.70 2.555
383.80 2.56
383.90 2.564
384.00 2.569
384.10 2.573
384.20 2.577
384.30 2.58
384.40 2.583
384.50 2.586
384.60 2.589
384.70 2.591
384.80 2.593
384.90 2.594
385.00 2.595
385.10 2.596
385.20 2.596
385.30 2.596
385.40 2.596
385.50 2.596
385.60 2.595
385.70 2.594
385.80 2.592
385.90 2.59
386.00 2.588
386.10 2.586
386.20 2.583
386.30 2.58
386.40 2.577
386.50 2.573
386.60 2.569
386.70 2.565
386.80 2.56
386.90 2.555
387.00 2.549
387.10 2.543
387.20 2.536
387.30 2.529
387.40 2.522
387.50 2.514
387.60 2.505
387.70 2.496
387.80 2.487
387.90 2.476
388.00 2.465
388.10 2.454
388.20 2.441
388.30 2.429
388.40 2.415
388.50 2.401
388.60 2.387
388.70 2.372
388.80 2.362
388.90 2.354
389.00 2.357
389.10 2.363
389.20 2.373
389.30 2.383
389.40 2.393
389.50 2.402
389.60 2.411
389.70 2.419
389.80 2.427
389.90 2.433
390.00 2.44
390.10 2.445
390.20 2.45
390.30 2.455
390.40 2.459
390.50 2.462
390.60 2.465
390.70 2.468
390.80 2.47
390.90 2.472
391.00 2.474
391.10 2.475
391.20 2.476
391.30 2.476
391.40 2.477
391.50 2.477
391.60 2.477
391.70 2.476
391.80 2.476
391.90 2.475
392.00 2.474
392.10 2.473
392.20 2.472
392.30 2.47
392.40 2.469
392.50 2.467
392.60 2.465
392.70 2.463
392.80 2.461
392.90 2.459
393.00 2.457
393.10 2.454
393.20 2.451
393.30 2.449
393.40 2.446
393.50 2.442
393.60 2.439
393.70 2.436
393.80 2.432
393.90 2.428
394.00 2.425
394.10 2.42
394.20 2.416
394.30 2.411
394.40 2.406
394.50 2.401
394.60 2.396
394.70 2.39
394.80 2.383
394.90 2.377
395.00 2.37
395.10 2.362
395.20 2.354
395.30 2.346
395.40 2.336
395.50 2.327
395.60 2.316
395.70 2.305
395.80 2.293
395.90 2.28
396.00 2.266
396.10 2.252
396.20 2.236
396.30 2.219
396.40 2.202
396.50 2.183
396.60 2.163
396.70 2.142
396.80 2.119
396.90 2.097
397.00 2.074
397.10 2.091
397.20 2.109
397.30 2.128
397.40 2.145
397.50 2.161
397.60 2.176
397.70 2.19
397.80 2.202
397.90 2.214
398.00 2.225
398.10 2.234
398.20 2.243
398.30 2.251
398.40 2.258
398.50 2.264
398.60 2.269
398.70 2.274
398.80 2.279
398.90 2.282
399.00 2.286
399.10 2.289
399.20 2.291
399.30 2.293
399.40 2.295
399.50 2.296
399.60 2.297
399.70 2.298
399.80 2.298
399.90 2.299
400.00 2.299
400.10 2.299
400.20 2.298
400.30 2.298
400.40 2.297
400.50 2.297
400.60 2.296
400.70 2.295
400.80 2.294
400.90 2.293
401.00 2.292
401.10 2.291
401.20 2.289
401.30 2.288
401.40 2.286
401.50 2.285
401.60 2.283
401.70 2.282
401.80 2.28
401.90 2.279
402.00 2.277
402.10 2.275
402.20 2.273
402.30 2.272
402.40 2.27
402.50 2.268
402.60 2.266
402.70 2.264
402.80 2.262
402.90 2.26
403.00 2.258
403.10 2.256
403.20 2.254
403.30 2.252
403.40 2.25
403.50 2.248
403.60 2.246
403.70 2.244
403.80 2.242
403.90 2.24
404.00 2.237
404.10 2.235
404.20 2.233
404.30 2.231
404.40 2.228
404.50 2.226
404.60 2.224
404.70 2.222
404.80 2.219
404.90 2.217
405.00 2.215
405.10 2.212
405.20 2.21
405.30 2.207
405.40 2.205
405.50 2.202
405.60 2.199
405.70 2.197
405.80 2.194
405.90 2.191
406.00 2.188
406.10 2.186
406.20 2.183
406.30 2.18
406.40 2.176
406.50 2.173
406.60 2.17
406.70 2.167
406.80 2.163
406.90 2.159
407.00 2.156
407.10 2.152
407.20 2.147
407.30 2.143
407.40 2.139
407.50 2.134
407.60 2.129
407.70 2.123
407.80 2.118
407.90 2.112
408.00 2.105
408.10 2.099
408.20 2.091
408.30 2.083
408.40 2.075
408.50 2.066
408.60 2.057
408.70 2.046
408.80 2.035
408.90 2.023
409.00 2.01
409.10 1.996
409.20 1.981
409.30 1.965
409.40 1.947
409.50 1.928
409.60 1.908
409.70 1.886
409.80 1.862
409.90 1.836
410.00 1.804
410.10 1.781
410.20 1.768
410.30 1.79
410.40 1.814
410.50 1.84
410.60 1.861
410.70 1.881
410.80 1.899
410.90 1.914
411.00 1.929
411.10 1.942
411.20 1.954
411.30 1.964
411.40 1.974
411.50 1.983
411.60 1.99
411.70 1.997
411.80 2.003
411.90 2.009
412.00 2.013
412.10 2.017
412.20 2.021
412.30 2.024
412.40 2.026
412.50 2.029
412.60 2.031
412.70 2.032
412.80 2.033
412.90 2.034
413.00 2.035
413.10 2.035
413.20 2.036
413.30 2.036
413.40 2.036
413.50 2.035
413.60 2.035
413.70 2.035
413.80 2.034
413.90 2.033
414.00 2.033
414.10 2.032
414.20 2.031
414.30 2.03
414.40 2.029
414.50 2.028
414.60 2.026
414.70 2.025
414.80 2.024
414.90 2.023
415.00 2.021
415.10 2.02
415.20 2.019
415.30 2.017
415.40 2.016
415.50 2.014
415.60 2.013
415.70 2.011
415.80 2.01
415.90 2.008
416.00 2.007
416.10 2.005
416.20 2.004
416.30 2.002
416.40 2
416.50 1.999
416.60 1.997
416.70 1.996
416.80 1.994
416.90 1.992
417.00 1.991
417.10 1.989
417.20 1.987
417.30 1.986
417.40 1.984
417.50 1.982
417.60 1.981
417.70 1.979
417.80 1.977
417.90 1.975
418.00 1.974
418.10 1.972
418.20 1.97
418.30 1.969
418.40 1.967
418.50 1.965
418.60 1.964
418.70 1.962
418.80 1.96
418.90 1.958
419.00 1.957
419.10 1.955
419.20 1.953
419.30 1.952
419.40 1.95
419.50 1.948
419.60 1.946
419.70 1.945
419.80 1.943
419.90 1.941
420.00 1.939
420.10 1.938
420.20 1.936
420.30 1.934
420.40 1.933
420.50 1.931
420.60 1.929
420.70 1.927
420.80 1.926
420.90 1.924
421.00 1.922
421.10 1.921
421.20 1.919
421.30 1.917
421.40 1.915
421.50 1.914
421.60 1.912
421.70 1.91
421.80 1.909
421.90 1.907
422.00 1.905
422.10 1.903
422.20 1.902
422.30 1.9
422.40 1.898
422.50 1.897
422.60 1.895
422.70 1.893
422.80 1.892
422.90 1.89
423.00 1.888
423.10 1.886
423.20 1.885
423.30 1.883
423.40 1.881
423.50 1.88
423.60 1.878
423.70 1.876
423.80 1.874
423.90 1.873
424.00 1.871
424.10 1.869
424.20 1.868
424.30 1.866
424.40 1.864
424.50 1.863
424.60 1.861
424.70 1.859
424.80 1.857
424.90 1.856
425.00 1.854
425.10 1.852
425.20 1.851
425.30 1.849
425.40 1.847
425.50 1.846
425.60 1.844
425.70 1.842
425.80 1.84
425.90 1.839
426.00 1.837
426.10 1.835
426.20 1.834
426.30 1.832
426.40 1.83
426.50 1.828
426.60 1.827
426.70 1.825
426.80 1.823
426.90 1.821
427.00 1.82
427.10 1.818
427.20 1.816
427.30 1.814
427.40 1.813
427.50 1.811
427.60 1.809
427.70 1.807
427.80 1.806
427.90 1.804
428.00 1.802
428.10 1.8
428.20 1.798
428.30 1.797
428.40 1.795
428.50 1.793
428.60 1.791
428.70 1.789
428.80 1.787
428.90 1.785
429.00 1.783
429.10 1.781
429.20 1.779
429.30 1.777
429.40 1.775
429.50 1.773
429.60 1.771
429.70 1.769
429.80 1.767
429.90 1.764
430.00 1.762
430.10 1.76
430.20 1.757
430.30 1.755
430.40 1.753
430.50 1.75
430.60 1.747
430.70 1.744
430.80 1.742
430.90 1.739
431.00 1.735
431.10 1.732
431.20 1.729
431.30 1.725
431.40 1.721
431.50 1.718
431.60 1.713
431.70 1.709
431.80 1.704
431.90 1.699
432.00 1.693
432.10 1.688
432.20 1.681
432.30 1.674
432.40 1.667
432.50 1.659
432.60 1.65
432.70 1.641
432.80 1.63
432.90 1.619
433.00 1.607
433.10 1.594
433.20 1.579
433.30 1.564
433.40 1.546
433.50 1.528
433.60 1.508
433.70 1.484
433.80 1.455
433.90 1.422
434.00 1.387
434.10 1.386
434.20 1.422
434.30 1.452
434.40 1.477
434.50 1.498
434.60 1.515
434.70 1.531
434.80 1.546
434.90 1.558
435.00 1.57
435.10 1.58
435.20 1.589
435.30 1.597
435.40 1.605
435.50 1.611
435.60 1.616
435.70 1.622
435.80 1.626
435.90 1.63
436.00 1.633
436.10 1.636
436.20 1.638
436.30 1.64
436.40 1.642
436.50 1.643
436.60 1.644
436.70 1.645
436.80 1.646
436.90 1.646
437.00 1.647
437.10 1.647
437.20 1.647
437.30 1.647
437.40 1.647
437.50 1.646
437.60 1.646
437.70 1.646
437.80 1.645
437.90 1.644
438.00 1.644
438.10 1.643
438.20 1.642
438.30 1.641
438.40 1.641
438.50 1.64
438.60 1.639
438.70 1.638
438.80 1.637
438.90 1.636
439.00 1.635
439.10 1.634
439.20 1.633
439.30 1.631
439.40 1.63
439.50 1.629
439.60 1.628
439.70 1.627
439.80 1.626
439.90 1.624
440.00 1.623
440.10 1.622
440.20 1.621
440.30 1.62
440.40 1.618
440.50 1.617
440.60 1.616
440.70 1.615
440.80 1.613
440.90 1.612
441.00 1.611
441.10 1.61
441.20 1.608
441.30 1.607
441.40 1.606
441.50 1.604
441.60 1.603
441.70 1.602
441.80 1.6
441.90 1.599
442.00 1.598
442.10 1.597
442.20 1.595
442.30 1.594
442.40 1.593
442.50 1.591
442.60 1.59
442.70 1.589
442.80 1.587
442.90 1.586
443.00 1.585
443.10 1.583
443.20 1.582
443.30 1.581
443.40 1.58
443.50 1.578
443.60 1.577
443.70 1.576
443.80 1.574
443.90 1.573
444.00 1.572
444.10 1.57
444.20 1.569
444.30 1.568
444.40 1.566
444.50 1.565
444.60 1.564
444.70 1.562
444.80 1.561
444.90 1.56
445.00 1.559
445.10 1.557
445.20 1.556
445.30 1.555
445.40 1.553
445.50 1.552
445.60 1.551
445.70 1.549
445.80 1.548
445.90 1.547
446.00 1.545
446.10 1.544
446.20 1.543
446.30 1.542
446.40 1.54
446.50 1.539
446.60 1.538
446.70 1.536
446.80 1.535
446.90 1.534
447.00 1.533
447.10 1.531
447.20 1.53
447.30 1.529
447.40 1.527
447.50 1.526
447.60 1.525
447.70 1.523
447.80 1.522
447.90 1.521
448.00 1.52
448.10 1.518
448.20 1.517
448.30 1.516
448.40 1.515
448.50 1.513
448.60 1.512
448.70 1.511
448.80 1.509
448.90 1.508
449.00 1.507
449.10 1.506
449.20 1.504
449.30 1.503
449.40 1.502
449.50 1.501
449.60 1.499
449.70 1.498
449.80 1.497
449.90 1.496
450.00 1.494
450.10 1.493
450.20 1.492
450.30 1.49
450.40 1.489
450.50 1.488
450.60 1.487
450.70 1.485
450.80 1.484
450.90 1.483
451.00 1.482
451.10 1.48
451.20 1.479
451.30 1.478
451.40 1.477
451.50 1.476
451.60 1.474
451.70 1.473
451.80 1.472
451.90 1.471
452.00 1.469
452.10 1.468
452.20 1.467
452.30 1.466
452.40 1.464
452.50 1.463
452.60 1.462
452.70 1.461
452.80 1.459
452.90 1.458
453.00 1.457
453.10 1.456
453.20 1.455
453.30 1.453
453.40 1.452
453.50 1.451
453.60 1.45
453.70 1.449
453.80 1.447
453.90 1.446
454.00 1.445
