# Version 2.1 - nm, norm@500 to 1, cut digits, bergeron_110000_95.dat_110000
# Wavelength(nm)  Flambda(ergs/cm^s/s/nm)
300.00 6.943
300.10 6.934
300.20 6.925
300.30 6.917
300.40 6.908
300.50 6.899
300.60 6.89
300.70 6.882
300.80 6.873
300.90 6.864
301.00 6.856
301.10 6.847
301.20 6.839
301.30 6.83
301.40 6.821
301.50 6.813
301.60 6.804
301.70 6.796
301.80 6.787
301.90 6.779
302.00 6.77
302.10 6.762
302.20 6.753
302.30 6.745
302.40 6.736
302.50 6.728
302.60 6.719
302.70 6.711
302.80 6.703
302.90 6.694
303.00 6.686
303.10 6.677
303.20 6.669
303.30 6.661
303.40 6.652
303.50 6.644
303.60 6.636
303.70 6.627
303.80 6.619
303.90 6.611
304.00 6.603
304.10 6.595
304.20 6.586
304.30 6.578
304.40 6.57
304.50 6.562
304.60 6.554
304.70 6.545
304.80 6.537
304.90 6.529
305.00 6.521
305.10 6.513
305.20 6.505
305.30 6.497
305.40 6.489
305.50 6.481
305.60 6.473
305.70 6.465
305.80 6.457
305.90 6.448
306.00 6.44
306.10 6.433
306.20 6.425
306.30 6.417
306.40 6.409
306.50 6.401
306.60 6.393
306.70 6.385
306.80 6.377
306.90 6.369
307.00 6.361
307.10 6.353
307.20 6.346
307.30 6.338
307.40 6.33
307.50 6.322
307.60 6.314
307.70 6.307
307.80 6.299
307.90 6.291
308.00 6.283
308.10 6.276
308.20 6.268
308.30 6.26
308.40 6.252
308.50 6.245
308.60 6.237
308.70 6.229
308.80 6.222
308.90 6.214
309.00 6.206
309.10 6.199
309.20 6.191
309.30 6.184
309.40 6.176
309.50 6.168
309.60 6.161
309.70 6.153
309.80 6.146
309.90 6.138
310.00 6.131
310.10 6.123
310.20 6.116
310.30 6.108
310.40 6.101
310.50 6.093
310.60 6.086
310.70 6.078
310.80 6.071
310.90 6.064
311.00 6.056
311.10 6.049
311.20 6.041
311.30 6.034
311.40 6.027
311.50 6.019
311.60 6.012
311.70 6.005
311.80 5.997
311.90 5.99
312.00 5.983
312.10 5.976
312.20 5.968
312.30 5.961
312.40 5.954
312.50 5.947
312.60 5.939
312.70 5.932
312.80 5.925
312.90 5.918
313.00 5.911
313.10 5.903
313.20 5.896
313.30 5.889
313.40 5.882
313.50 5.875
313.60 5.868
313.70 5.861
313.80 5.854
313.90 5.847
314.00 5.839
314.10 5.832
314.20 5.825
314.30 5.818
314.40 5.811
314.50 5.804
314.60 5.797
314.70 5.79
314.80 5.783
314.90 5.776
315.00 5.769
315.10 5.762
315.20 5.755
315.30 5.748
315.40 5.742
315.50 5.735
315.60 5.728
315.70 5.721
315.80 5.714
315.90 5.707
316.00 5.7
316.10 5.693
316.20 5.687
316.30 5.68
316.40 5.673
316.50 5.666
316.60 5.659
316.70 5.653
316.80 5.646
316.90 5.639
317.00 5.632
317.10 5.626
317.20 5.619
317.30 5.612
317.40 5.605
317.50 5.599
317.60 5.592
317.70 5.585
317.80 5.579
317.90 5.572
318.00 5.565
318.10 5.559
318.20 5.552
318.30 5.545
318.40 5.539
318.50 5.532
318.60 5.526
318.70 5.519
318.80 5.512
318.90 5.506
319.00 5.499
319.10 5.493
319.20 5.486
319.30 5.48
319.40 5.473
319.50 5.467
319.60 5.46
319.70 5.454
319.80 5.447
319.90 5.441
320.00 5.434
320.10 5.428
320.20 5.421
320.30 5.415
320.40 5.408
320.50 5.402
320.60 5.396
320.70 5.389
320.80 5.383
320.90 5.377
321.00 5.37
321.10 5.364
321.20 5.357
321.30 5.351
321.40 5.345
321.50 5.338
321.60 5.332
321.70 5.326
321.80 5.32
321.90 5.313
322.00 5.307
322.10 5.301
322.20 5.295
322.30 5.288
322.40 5.282
322.50 5.276
322.60 5.27
322.70 5.263
322.80 5.257
322.90 5.251
323.00 5.245
323.10 5.239
323.20 5.233
323.30 5.226
323.40 5.22
323.50 5.214
323.60 5.208
323.70 5.202
323.80 5.196
323.90 5.19
324.00 5.184
324.10 5.177
324.20 5.171
324.30 5.165
324.40 5.159
324.50 5.153
324.60 5.147
324.70 5.141
324.80 5.135
324.90 5.129
325.00 5.123
325.10 5.117
325.20 5.111
325.30 5.105
325.40 5.099
325.50 5.093
325.60 5.087
325.70 5.081
325.80 5.075
325.90 5.07
326.00 5.064
326.10 5.058
326.20 5.052
326.30 5.046
326.40 5.04
326.50 5.034
326.60 5.028
326.70 5.023
326.80 5.017
326.90 5.011
327.00 5.005
327.10 4.999
327.20 4.993
327.30 4.988
327.40 4.982
327.50 4.976
327.60 4.97
327.70 4.964
327.80 4.959
327.90 4.953
328.00 4.947
328.10 4.941
328.20 4.936
328.30 4.93
328.40 4.924
328.50 4.919
328.60 4.913
328.70 4.907
328.80 4.902
328.90 4.896
329.00 4.89
329.10 4.885
329.20 4.879
329.30 4.873
329.40 4.868
329.50 4.862
329.60 4.856
329.70 4.851
329.80 4.845
329.90 4.84
330.00 4.834
330.10 4.829
330.20 4.823
330.30 4.817
330.40 4.812
330.50 4.806
330.60 4.801
330.70 4.795
330.80 4.79
330.90 4.784
331.00 4.779
331.10 4.773
331.20 4.768
331.30 4.762
331.40 4.757
331.50 4.751
331.60 4.746
331.70 4.741
331.80 4.735
331.90 4.73
332.00 4.724
332.10 4.719
332.20 4.713
332.30 4.708
332.40 4.703
332.50 4.697
332.60 4.692
332.70 4.687
332.80 4.681
332.90 4.676
333.00 4.671
333.10 4.665
333.20 4.66
333.30 4.655
333.40 4.649
333.50 4.644
333.60 4.639
333.70 4.633
333.80 4.628
333.90 4.623
334.00 4.617
334.10 4.612
334.20 4.607
334.30 4.602
334.40 4.597
334.50 4.591
334.60 4.586
334.70 4.581
334.80 4.576
334.90 4.57
335.00 4.565
335.10 4.56
335.20 4.555
335.30 4.55
335.40 4.545
335.50 4.539
335.60 4.534
335.70 4.529
335.80 4.524
335.90 4.519
336.00 4.514
336.10 4.509
336.20 4.504
336.30 4.498
336.40 4.493
336.50 4.488
336.60 4.483
336.70 4.478
336.80 4.473
336.90 4.468
337.00 4.463
337.10 4.458
337.20 4.453
337.30 4.448
337.40 4.443
337.50 4.438
337.60 4.433
337.70 4.428
337.80 4.423
337.90 4.418
338.00 4.413
338.10 4.408
338.20 4.403
338.30 4.398
338.40 4.393
338.50 4.388
338.60 4.383
338.70 4.378
338.80 4.373
338.90 4.368
339.00 4.364
339.10 4.359
339.20 4.354
339.30 4.349
339.40 4.344
339.50 4.339
339.60 4.334
339.70 4.329
339.80 4.325
339.90 4.32
340.00 4.315
340.10 4.31
340.20 4.305
340.30 4.3
340.40 4.296
340.50 4.291
340.60 4.286
340.70 4.281
340.80 4.276
340.90 4.272
341.00 4.267
341.10 4.262
341.20 4.257
341.30 4.253
341.40 4.248
341.50 4.243
341.60 4.238
341.70 4.234
341.80 4.229
341.90 4.224
342.00 4.219
342.10 4.215
342.20 4.21
342.30 4.205
342.40 4.201
342.50 4.196
342.60 4.191
342.70 4.187
342.80 4.182
342.90 4.177
343.00 4.173
343.10 4.168
343.20 4.164
343.30 4.159
343.40 4.154
343.50 4.15
343.60 4.145
343.70 4.141
343.80 4.136
343.90 4.131
344.00 4.127
344.10 4.122
344.20 4.118
344.30 4.113
344.40 4.109
344.50 4.104
344.60 4.099
344.70 4.095
344.80 4.09
344.90 4.086
345.00 4.081
345.10 4.077
345.20 4.072
345.30 4.068
345.40 4.063
345.50 4.059
345.60 4.054
345.70 4.05
345.80 4.046
345.90 4.041
346.00 4.037
346.10 4.032
346.20 4.028
346.30 4.023
346.40 4.019
346.50 4.014
346.60 4.01
346.70 4.006
346.80 4.001
346.90 3.997
347.00 3.993
347.10 3.988
347.20 3.984
347.30 3.979
347.40 3.975
347.50 3.971
347.60 3.966
347.70 3.962
347.80 3.958
347.90 3.953
348.00 3.949
348.10 3.945
348.20 3.94
348.30 3.936
348.40 3.932
348.50 3.927
348.60 3.923
348.70 3.919
348.80 3.915
348.90 3.91
349.00 3.906
349.10 3.902
349.20 3.897
349.30 3.893
349.40 3.889
349.50 3.885
349.60 3.88
349.70 3.876
349.80 3.872
349.90 3.868
350.00 3.864
350.10 3.859
350.20 3.855
350.30 3.851
350.40 3.847
350.50 3.843
350.60 3.838
350.70 3.834
350.80 3.83
350.90 3.826
351.00 3.822
351.10 3.818
351.20 3.814
351.30 3.809
351.40 3.805
351.50 3.801
351.60 3.797
351.70 3.793
351.80 3.789
351.90 3.785
352.00 3.78
352.10 3.776
352.20 3.772
352.30 3.768
352.40 3.764
352.50 3.76
352.60 3.756
352.70 3.752
352.80 3.748
352.90 3.744
353.00 3.74
353.10 3.736
353.20 3.732
353.30 3.728
353.40 3.724
353.50 3.72
353.60 3.716
353.70 3.712
353.80 3.708
353.90 3.704
354.00 3.7
354.10 3.696
354.20 3.692
354.30 3.688
354.40 3.684
354.50 3.68
354.60 3.676
354.70 3.672
354.80 3.668
354.90 3.664
355.00 3.66
355.10 3.656
355.20 3.652
355.30 3.648
355.40 3.644
355.50 3.641
355.60 3.637
355.70 3.633
355.80 3.629
355.90 3.625
356.00 3.621
356.10 3.617
356.20 3.613
356.30 3.609
356.40 3.606
356.50 3.602
356.60 3.598
356.70 3.594
356.80 3.59
356.90 3.586
357.00 3.583
357.10 3.579
357.20 3.575
357.30 3.571
357.40 3.567
357.50 3.563
357.60 3.56
357.70 3.556
357.80 3.552
357.90 3.548
358.00 3.544
358.10 3.541
358.20 3.537
358.30 3.533
358.40 3.529
358.50 3.526
358.60 3.522
358.70 3.518
358.80 3.514
358.90 3.511
359.00 3.507
359.10 3.503
359.20 3.5
359.30 3.496
359.40 3.492
359.50 3.488
359.60 3.485
359.70 3.481
359.80 3.477
359.90 3.474
360.00 3.47
360.10 3.466
360.20 3.463
360.30 3.459
360.40 3.455
360.50 3.452
360.60 3.448
360.70 3.444
360.80 3.441
360.90 3.437
361.00 3.433
361.10 3.43
361.20 3.426
361.30 3.423
361.40 3.419
361.50 3.415
361.60 3.412
361.70 3.408
361.80 3.404
361.90 3.401
362.00 3.397
362.10 3.394
362.20 3.39
362.30 3.387
362.40 3.383
362.50 3.379
362.60 3.376
362.70 3.372
362.80 3.369
362.90 3.365
363.00 3.362
363.10 3.358
363.20 3.355
363.30 3.351
363.40 3.348
363.50 3.344
363.60 3.341
363.70 3.337
363.80 3.334
363.90 3.33
364.00 3.327
364.10 3.323
364.20 3.32
364.30 3.316
364.40 3.313
364.50 3.309
364.60 3.306
364.70 3.302
364.80 3.299
364.90 3.295
365.00 3.292
365.10 3.289
365.20 3.285
365.30 3.282
365.40 3.278
365.50 3.275
365.60 3.271
365.70 3.268
365.80 3.265
365.90 3.261
366.00 3.258
366.10 3.254
366.20 3.251
366.30 3.248
366.40 3.244
366.50 3.241
366.60 3.237
366.70 3.234
366.80 3.231
366.90 3.227
367.00 3.224
367.10 3.221
367.20 3.217
367.30 3.214
367.40 3.211
367.50 3.207
367.60 3.204
367.70 3.2
367.80 3.197
367.90 3.194
368.00 3.19
368.10 3.187
368.20 3.184
368.30 3.18
368.40 3.177
368.50 3.174
368.60 3.17
368.70 3.167
368.80 3.164
368.90 3.16
369.00 3.157
369.10 3.154
369.20 3.15
369.30 3.147
369.40 3.144
369.50 3.141
369.60 3.137
369.70 3.134
369.80 3.131
369.90 3.127
370.00 3.124
370.10 3.121
370.20 3.117
370.30 3.114
370.40 3.111
370.50 3.108
370.60 3.104
370.70 3.101
370.80 3.098
370.90 3.094
371.00 3.091
371.10 3.088
371.20 3.085
371.30 3.081
371.40 3.078
371.50 3.075
371.60 3.072
371.70 3.068
371.80 3.065
371.90 3.062
372.00 3.059
372.10 3.056
372.20 3.053
372.30 3.05
372.40 3.046
372.50 3.043
372.60 3.04
372.70 3.037
372.80 3.034
372.90 3.031
373.00 3.028
373.10 3.025
373.20 3.022
373.30 3.019
373.40 3.016
373.50 3.013
373.60 3.01
373.70 3.007
373.80 3.004
373.90 3.001
374.00 2.998
374.10 2.995
374.20 2.992
374.30 2.988
374.40 2.985
374.50 2.982
374.60 2.979
374.70 2.976
374.80 2.973
374.90 2.97
375.00 2.967
375.10 2.964
375.20 2.961
375.30 2.957
375.40 2.954
375.50 2.951
375.60 2.948
375.70 2.945
375.80 2.942
375.90 2.939
376.00 2.936
376.10 2.933
376.20 2.93
376.30 2.927
376.40 2.924
376.50 2.921
376.60 2.918
376.70 2.915
376.80 2.912
376.90 2.909
377.00 2.905
377.10 2.903
377.20 2.9
377.30 2.897
377.40 2.894
377.50 2.891
377.60 2.888
377.70 2.885
377.80 2.882
377.90 2.879
378.00 2.876
378.10 2.873
378.20 2.87
378.30 2.867
378.40 2.864
378.50 2.861
378.60 2.858
378.70 2.856
378.80 2.853
378.90 2.85
379.00 2.847
379.10 2.844
379.20 2.841
379.30 2.838
379.40 2.835
379.50 2.832
379.60 2.829
379.70 2.827
379.80 2.824
379.90 2.821
380.00 2.818
380.10 2.815
380.20 2.812
380.30 2.809
380.40 2.807
380.50 2.804
380.60 2.801
380.70 2.798
380.80 2.795
380.90 2.792
381.00 2.79
381.10 2.787
381.20 2.784
381.30 2.781
381.40 2.778
381.50 2.775
381.60 2.773
381.70 2.77
381.80 2.767
381.90 2.764
382.00 2.762
382.10 2.759
382.20 2.756
382.30 2.753
382.40 2.75
382.50 2.748
382.60 2.745
382.70 2.742
382.80 2.739
382.90 2.737
383.00 2.734
383.10 2.731
383.20 2.728
383.30 2.726
383.40 2.723
383.50 2.72
383.60 2.718
383.70 2.715
383.80 2.712
383.90 2.709
384.00 2.707
384.10 2.704
384.20 2.701
384.30 2.699
384.40 2.696
384.50 2.693
384.60 2.691
384.70 2.688
384.80 2.685
384.90 2.683
385.00 2.68
385.10 2.677
385.20 2.675
385.30 2.672
385.40 2.669
385.50 2.667
385.60 2.664
385.70 2.661
385.80 2.659
385.90 2.656
386.00 2.654
386.10 2.651
386.20 2.648
386.30 2.646
386.40 2.643
386.50 2.641
386.60 2.638
386.70 2.635
386.80 2.633
386.90 2.63
387.00 2.628
387.10 2.625
387.20 2.622
387.30 2.62
387.40 2.617
387.50 2.615
387.60 2.612
387.70 2.61
387.80 2.607
387.90 2.605
388.00 2.602
388.10 2.599
388.20 2.597
388.30 2.594
388.40 2.592
388.50 2.589
388.60 2.587
388.70 2.584
388.80 2.582
388.90 2.579
389.00 2.577
389.10 2.574
389.20 2.572
389.30 2.569
389.40 2.567
389.50 2.564
389.60 2.562
389.70 2.559
389.80 2.557
389.90 2.555
390.00 2.552
390.10 2.55
390.20 2.547
390.30 2.545
390.40 2.542
390.50 2.54
390.60 2.537
390.70 2.535
390.80 2.532
390.90 2.53
391.00 2.528
391.10 2.525
391.20 2.523
391.30 2.52
391.40 2.518
391.50 2.516
391.60 2.513
391.70 2.511
391.80 2.508
391.90 2.506
392.00 2.503
392.10 2.501
392.20 2.499
392.30 2.496
392.40 2.494
392.50 2.491
392.60 2.489
392.70 2.487
392.80 2.484
392.90 2.482
393.00 2.48
393.10 2.477
393.20 2.475
393.30 2.472
393.40 2.47
393.50 2.468
393.60 2.465
393.70 2.463
393.80 2.46
393.90 2.458
394.00 2.456
394.10 2.453
394.20 2.451
394.30 2.449
394.40 2.446
394.50 2.444
394.60 2.442
394.70 2.439
394.80 2.437
394.90 2.434
395.00 2.432
395.10 2.43
395.20 2.427
395.30 2.425
395.40 2.423
395.50 2.42
395.60 2.418
395.70 2.416
395.80 2.413
395.90 2.411
396.00 2.409
396.10 2.406
396.20 2.404
396.30 2.402
396.40 2.4
396.50 2.397
396.60 2.395
396.70 2.393
396.80 2.391
396.90 2.388
397.00 2.386
397.10 2.384
397.20 2.382
397.30 2.38
397.40 2.377
397.50 2.375
397.60 2.373
397.70 2.371
397.80 2.369
397.90 2.367
398.00 2.365
398.10 2.362
398.20 2.36
398.30 2.358
398.40 2.356
398.50 2.354
398.60 2.352
398.70 2.35
398.80 2.348
398.90 2.346
399.00 2.343
399.10 2.341
399.20 2.339
399.30 2.337
399.40 2.335
399.50 2.333
399.60 2.331
399.70 2.329
399.80 2.327
399.90 2.325
400.00 2.323
400.10 2.32
400.20 2.318
400.30 2.316
400.40 2.314
400.50 2.312
400.60 2.31
400.70 2.308
400.80 2.306
400.90 2.304
401.00 2.301
401.10 2.299
401.20 2.297
401.30 2.295
401.40 2.293
401.50 2.291
401.60 2.289
401.70 2.287
401.80 2.284
401.90 2.282
402.00 2.28
402.10 2.278
402.20 2.276
402.30 2.274
402.40 2.272
402.50 2.269
402.60 2.267
402.70 2.265
402.80 2.263
402.90 2.261
403.00 2.259
403.10 2.256
403.20 2.254
403.30 2.252
403.40 2.25
403.50 2.248
403.60 2.245
403.70 2.243
403.80 2.241
403.90 2.239
404.00 2.237
404.10 2.234
404.20 2.232
404.30 2.23
404.40 2.228
404.50 2.225
404.60 2.223
404.70 2.221
404.80 2.219
404.90 2.216
405.00 2.214
405.10 2.212
405.20 2.21
405.30 2.207
405.40 2.205
405.50 2.203
405.60 2.201
405.70 2.198
405.80 2.196
405.90 2.194
406.00 2.191
406.10 2.189
406.20 2.187
406.30 2.185
406.40 2.182
406.50 2.18
406.60 2.178
406.70 2.175
406.80 2.173
406.90 2.171
407.00 2.168
407.10 2.166
407.20 2.164
407.30 2.162
407.40 2.159
407.50 2.157
407.60 2.155
407.70 2.152
407.80 2.15
407.90 2.148
408.00 2.145
408.10 2.143
408.20 2.141
408.30 2.139
408.40 2.136
408.50 2.134
408.60 2.132
408.70 2.13
408.80 2.127
408.90 2.125
409.00 2.123
409.10 2.121
409.20 2.119
409.30 2.117
409.40 2.115
409.50 2.113
409.60 2.111
409.70 2.109
409.80 2.107
409.90 2.106
410.00 2.104
410.10 2.102
410.20 2.1
410.30 2.098
410.40 2.096
410.50 2.094
410.60 2.092
410.70 2.09
410.80 2.089
410.90 2.087
411.00 2.085
411.10 2.083
411.20 2.082
411.30 2.08
411.40 2.079
411.50 2.077
411.60 2.075
411.70 2.074
411.80 2.072
411.90 2.071
412.00 2.07
412.10 2.068
412.20 2.067
412.30 2.065
412.40 2.064
412.50 2.062
412.60 2.061
412.70 2.059
412.80 2.058
412.90 2.056
413.00 2.055
413.10 2.054
413.20 2.052
413.30 2.051
413.40 2.049
413.50 2.048
413.60 2.046
413.70 2.045
413.80 2.043
413.90 2.042
414.00 2.041
414.10 2.039
414.20 2.038
414.30 2.036
414.40 2.035
414.50 2.033
414.60 2.032
414.70 2.03
414.80 2.029
414.90 2.027
415.00 2.026
415.10 2.024
415.20 2.023
415.30 2.021
415.40 2.02
415.50 2.018
415.60 2.017
415.70 2.015
415.80 2.013
415.90 2.012
416.00 2.01
416.10 2.009
416.20 2.007
416.30 2.006
416.40 2.004
416.50 2.003
416.60 2.001
416.70 1.999
416.80 1.998
416.90 1.996
417.00 1.995
417.10 1.993
417.20 1.991
417.30 1.99
417.40 1.988
417.50 1.987
417.60 1.985
417.70 1.983
417.80 1.982
417.90 1.98
418.00 1.978
418.10 1.977
418.20 1.975
418.30 1.973
418.40 1.972
418.50 1.97
418.60 1.968
418.70 1.967
418.80 1.965
418.90 1.963
419.00 1.962
419.10 1.96
419.20 1.958
419.30 1.957
419.40 1.955
419.50 1.953
419.60 1.952
419.70 1.95
419.80 1.948
419.90 1.946
420.00 1.945
420.10 1.943
420.20 1.941
420.30 1.939
420.40 1.938
420.50 1.936
420.60 1.934
420.70 1.932
420.80 1.931
420.90 1.929
421.00 1.927
421.10 1.925
421.20 1.924
421.30 1.922
421.40 1.92
421.50 1.918
421.60 1.916
421.70 1.915
421.80 1.913
421.90 1.911
422.00 1.909
422.10 1.907
422.20 1.906
422.30 1.904
422.40 1.902
422.50 1.9
422.60 1.898
422.70 1.896
422.80 1.895
422.90 1.893
423.00 1.891
423.10 1.889
423.20 1.887
423.30 1.885
423.40 1.883
423.50 1.882
423.60 1.88
423.70 1.878
423.80 1.876
423.90 1.874
424.00 1.872
424.10 1.87
424.20 1.868
424.30 1.866
424.40 1.864
424.50 1.862
424.60 1.861
424.70 1.859
424.80 1.857
424.90 1.855
425.00 1.853
425.10 1.851
425.20 1.849
425.30 1.847
425.40 1.845
425.50 1.843
425.60 1.841
425.70 1.839
425.80 1.837
425.90 1.835
426.00 1.833
426.10 1.831
426.20 1.829
426.30 1.827
426.40 1.824
426.50 1.822
426.60 1.82
426.70 1.818
426.80 1.816
426.90 1.814
427.00 1.812
427.10 1.81
427.20 1.808
427.30 1.805
427.40 1.803
427.50 1.801
427.60 1.799
427.70 1.797
427.80 1.795
427.90 1.792
428.00 1.79
428.10 1.788
428.20 1.786
428.30 1.783
428.40 1.781
428.50 1.779
428.60 1.777
428.70 1.774
428.80 1.772
428.90 1.77
429.00 1.767
429.10 1.765
429.20 1.763
429.30 1.76
429.40 1.758
429.50 1.756
429.60 1.753
429.70 1.751
429.80 1.748
429.90 1.746
430.00 1.744
430.10 1.741
430.20 1.739
430.30 1.736
430.40 1.734
430.50 1.731
430.60 1.729
430.70 1.726
430.80 1.724
430.90 1.721
431.00 1.719
431.10 1.716
431.20 1.714
431.30 1.711
431.40 1.709
431.50 1.706
431.60 1.703
431.70 1.701
431.80 1.698
431.90 1.696
432.00 1.693
432.10 1.69
432.20 1.688
432.30 1.685
432.40 1.683
432.50 1.68
432.60 1.677
432.70 1.675
432.80 1.672
432.90 1.669
433.00 1.666
433.10 1.663
433.20 1.66
433.30 1.658
433.40 1.654
433.50 1.651
433.60 1.648
433.70 1.645
433.80 1.641
433.90 1.638
434.00 1.636
434.10 1.635
434.20 1.635
434.30 1.636
434.40 1.636
434.50 1.637
434.60 1.637
434.70 1.638
434.80 1.638
434.90 1.638
435.00 1.638
435.10 1.638
435.20 1.638
435.30 1.638
435.40 1.638
435.50 1.638
435.60 1.637
435.70 1.637
435.80 1.637
435.90 1.637
436.00 1.637
436.10 1.636
436.20 1.636
436.30 1.636
436.40 1.635
436.50 1.635
436.60 1.635
436.70 1.634
436.80 1.634
436.90 1.634
437.00 1.633
437.10 1.633
437.20 1.633
437.30 1.632
437.40 1.632
437.50 1.631
437.60 1.631
437.70 1.63
437.80 1.63
437.90 1.629
438.00 1.629
438.10 1.628
438.20 1.628
438.30 1.627
438.40 1.627
438.50 1.626
438.60 1.626
438.70 1.625
438.80 1.624
438.90 1.624
439.00 1.623
439.10 1.622
439.20 1.622
439.30 1.621
439.40 1.62
439.50 1.62
439.60 1.619
439.70 1.618
439.80 1.617
439.90 1.617
440.00 1.616
440.10 1.615
440.20 1.614
440.30 1.614
440.40 1.613
440.50 1.612
440.60 1.611
440.70 1.61
440.80 1.609
440.90 1.609
441.00 1.608
441.10 1.607
441.20 1.606
441.30 1.605
441.40 1.604
441.50 1.603
441.60 1.602
441.70 1.601
441.80 1.6
441.90 1.599
442.00 1.598
442.10 1.597
442.20 1.597
442.30 1.596
442.40 1.595
442.50 1.594
442.60 1.593
442.70 1.592
442.80 1.591
442.90 1.589
443.00 1.588
443.10 1.587
443.20 1.586
443.30 1.585
443.40 1.584
443.50 1.583
443.60 1.582
443.70 1.581
443.80 1.58
443.90 1.579
444.00 1.578
444.10 1.577
444.20 1.576
444.30 1.574
444.40 1.573
444.50 1.572
444.60 1.571
444.70 1.57
444.80 1.569
444.90 1.568
445.00 1.567
445.10 1.566
445.20 1.564
445.30 1.563
445.40 1.562
445.50 1.561
445.60 1.56
445.70 1.559
445.80 1.557
445.90 1.556
446.00 1.555
446.10 1.554
446.20 1.553
446.30 1.552
446.40 1.55
446.50 1.549
446.60 1.548
446.70 1.547
446.80 1.546
446.90 1.545
447.00 1.543
447.10 1.542
447.20 1.541
447.30 1.54
447.40 1.539
447.50 1.537
447.60 1.536
447.70 1.535
447.80 1.534
447.90 1.533
448.00 1.531
448.10 1.53
448.20 1.529
448.30 1.528
448.40 1.527
448.50 1.525
448.60 1.524
448.70 1.523
448.80 1.522
448.90 1.521
449.00 1.519
449.10 1.518
449.20 1.517
449.30 1.516
449.40 1.514
449.50 1.513
449.60 1.512
449.70 1.511
449.80 1.51
449.90 1.508
450.00 1.507
450.10 1.506
450.20 1.505
450.30 1.503
450.40 1.502
450.50 1.501
450.60 1.5
450.70 1.499
450.80 1.497
450.90 1.496
451.00 1.495
451.10 1.494
451.20 1.493
451.30 1.491
451.40 1.49
451.50 1.489
451.60 1.488
451.70 1.486
451.80 1.485
451.90 1.484
452.00 1.483
452.10 1.482
452.20 1.48
452.30 1.479
452.40 1.478
452.50 1.477
452.60 1.475
452.70 1.474
452.80 1.473
452.90 1.472
453.00 1.471
453.10 1.469
453.20 1.468
453.30 1.467
453.40 1.466
453.50 1.464
453.60 1.463
453.70 1.462
453.80 1.461
453.90 1.46
454.00 1.458
