# Version 2.1 - nm, norm@500 to 1, cut digits, bergeron_50000_75.dat_50000
# Wavelength(nm)  Flambda(ergs/cm^s/s/nm)
300.00 6.182
300.10 6.174
300.20 6.167
300.30 6.159
300.40 6.152
300.50 6.145
300.60 6.137
300.70 6.13
300.80 6.123
300.90 6.115
301.00 6.108
301.10 6.1
301.20 6.093
301.30 6.086
301.40 6.079
301.50 6.071
301.60 6.064
301.70 6.057
301.80 6.049
301.90 6.042
302.00 6.035
302.10 6.028
302.20 6.02
302.30 6.013
302.40 6.006
302.50 5.999
302.60 5.992
302.70 5.985
302.80 5.977
302.90 5.97
303.00 5.963
303.10 5.956
303.20 5.949
303.30 5.942
303.40 5.935
303.50 5.928
303.60 5.921
303.70 5.913
303.80 5.906
303.90 5.899
304.00 5.892
304.10 5.885
304.20 5.878
304.30 5.871
304.40 5.864
304.50 5.857
304.60 5.85
304.70 5.843
304.80 5.837
304.90 5.83
305.00 5.823
305.10 5.816
305.20 5.809
305.30 5.802
305.40 5.795
305.50 5.788
305.60 5.781
305.70 5.775
305.80 5.768
305.90 5.761
306.00 5.754
306.10 5.747
306.20 5.74
306.30 5.734
306.40 5.727
306.50 5.72
306.60 5.713
306.70 5.707
306.80 5.7
306.90 5.693
307.00 5.686
307.10 5.68
307.20 5.673
307.30 5.666
307.40 5.66
307.50 5.653
307.60 5.646
307.70 5.64
307.80 5.633
307.90 5.626
308.00 5.62
308.10 5.613
308.20 5.607
308.30 5.6
308.40 5.593
308.50 5.587
308.60 5.58
308.70 5.574
308.80 5.567
308.90 5.561
309.00 5.554
309.10 5.548
309.20 5.541
309.30 5.535
309.40 5.528
309.50 5.522
309.60 5.515
309.70 5.509
309.80 5.502
309.90 5.496
310.00 5.489
310.10 5.483
310.20 5.477
310.30 5.47
310.40 5.464
310.50 5.457
310.60 5.451
310.70 5.445
310.80 5.438
310.90 5.432
311.00 5.426
311.10 5.419
311.20 5.413
311.30 5.407
311.40 5.4
311.50 5.394
311.60 5.388
311.70 5.381
311.80 5.375
311.90 5.369
312.00 5.363
312.10 5.356
312.20 5.35
312.30 5.344
312.40 5.338
312.50 5.332
312.60 5.325
312.70 5.319
312.80 5.313
312.90 5.307
313.00 5.301
313.10 5.295
313.20 5.288
313.30 5.282
313.40 5.276
313.50 5.27
313.60 5.264
313.70 5.258
313.80 5.252
313.90 5.246
314.00 5.24
314.10 5.234
314.20 5.228
314.30 5.222
314.40 5.216
314.50 5.21
314.60 5.204
314.70 5.198
314.80 5.192
314.90 5.186
315.00 5.18
315.10 5.174
315.20 5.168
315.30 5.162
315.40 5.156
315.50 5.15
315.60 5.144
315.70 5.138
315.80 5.132
315.90 5.126
316.00 5.12
316.10 5.114
316.20 5.109
316.30 5.103
316.40 5.097
316.50 5.091
316.60 5.085
316.70 5.079
316.80 5.073
316.90 5.068
317.00 5.062
317.10 5.056
317.20 5.05
317.30 5.044
317.40 5.039
317.50 5.033
317.60 5.027
317.70 5.021
317.80 5.016
317.90 5.01
318.00 5.004
318.10 4.998
318.20 4.993
318.30 4.987
318.40 4.981
318.50 4.976
318.60 4.97
318.70 4.964
318.80 4.959
318.90 4.953
319.00 4.947
319.10 4.942
319.20 4.936
319.30 4.931
319.40 4.925
319.50 4.919
319.60 4.914
319.70 4.908
319.80 4.903
319.90 4.897
320.00 4.891
320.10 4.886
320.20 4.88
320.30 4.875
320.40 4.869
320.50 4.864
320.60 4.858
320.70 4.853
320.80 4.847
320.90 4.842
321.00 4.836
321.10 4.831
321.20 4.825
321.30 4.82
321.40 4.814
321.50 4.809
321.60 4.804
321.70 4.798
321.80 4.793
321.90 4.787
322.00 4.782
322.10 4.776
322.20 4.771
322.30 4.766
322.40 4.76
322.50 4.755
322.60 4.75
322.70 4.744
322.80 4.739
322.90 4.734
323.00 4.728
323.10 4.723
323.20 4.718
323.30 4.712
323.40 4.707
323.50 4.702
323.60 4.696
323.70 4.691
323.80 4.686
323.90 4.681
324.00 4.675
324.10 4.67
324.20 4.665
324.30 4.66
324.40 4.654
324.50 4.649
324.60 4.644
324.70 4.639
324.80 4.633
324.90 4.628
325.00 4.623
325.10 4.618
325.20 4.613
325.30 4.608
325.40 4.602
325.50 4.597
325.60 4.592
325.70 4.587
325.80 4.582
325.90 4.577
326.00 4.572
326.10 4.567
326.20 4.562
326.30 4.556
326.40 4.551
326.50 4.546
326.60 4.541
326.70 4.536
326.80 4.531
326.90 4.526
327.00 4.521
327.10 4.516
327.20 4.511
327.30 4.506
327.40 4.501
327.50 4.496
327.60 4.491
327.70 4.486
327.80 4.481
327.90 4.476
328.00 4.471
328.10 4.466
328.20 4.461
328.30 4.456
328.40 4.451
328.50 4.446
328.60 4.441
328.70 4.436
328.80 4.431
328.90 4.427
329.00 4.422
329.10 4.417
329.20 4.412
329.30 4.407
329.40 4.402
329.50 4.397
329.60 4.392
329.70 4.388
329.80 4.383
329.90 4.378
330.00 4.373
330.10 4.368
330.20 4.363
330.30 4.359
330.40 4.354
330.50 4.349
330.60 4.344
330.70 4.339
330.80 4.335
330.90 4.33
331.00 4.325
331.10 4.32
331.20 4.316
331.30 4.311
331.40 4.306
331.50 4.301
331.60 4.297
331.70 4.292
331.80 4.287
331.90 4.282
332.00 4.278
332.10 4.273
332.20 4.268
332.30 4.264
332.40 4.259
332.50 4.254
332.60 4.25
332.70 4.245
332.80 4.24
332.90 4.236
333.00 4.231
333.10 4.227
333.20 4.222
333.30 4.217
333.40 4.213
333.50 4.208
333.60 4.203
333.70 4.199
333.80 4.194
333.90 4.19
334.00 4.185
334.10 4.181
334.20 4.176
334.30 4.171
334.40 4.167
334.50 4.162
334.60 4.158
334.70 4.153
334.80 4.149
334.90 4.144
335.00 4.14
335.10 4.135
335.20 4.131
335.30 4.126
335.40 4.122
335.50 4.117
335.60 4.113
335.70 4.108
335.80 4.104
335.90 4.099
336.00 4.095
336.10 4.09
336.20 4.086
336.30 4.082
336.40 4.077
336.50 4.073
336.60 4.068
336.70 4.064
336.80 4.06
336.90 4.055
337.00 4.051
337.10 4.046
337.20 4.042
337.30 4.038
337.40 4.033
337.50 4.029
337.60 4.025
337.70 4.02
337.80 4.016
337.90 4.011
338.00 4.007
338.10 4.003
338.20 3.998
338.30 3.994
338.40 3.99
338.50 3.986
338.60 3.981
338.70 3.977
338.80 3.973
338.90 3.968
339.00 3.964
339.10 3.96
339.20 3.956
339.30 3.951
339.40 3.947
339.50 3.943
339.60 3.939
339.70 3.934
339.80 3.93
339.90 3.926
340.00 3.922
340.10 3.918
340.20 3.913
340.30 3.909
340.40 3.905
340.50 3.901
340.60 3.897
340.70 3.892
340.80 3.888
340.90 3.884
341.00 3.88
341.10 3.876
341.20 3.872
341.30 3.867
341.40 3.863
341.50 3.859
341.60 3.855
341.70 3.851
341.80 3.847
341.90 3.843
342.00 3.839
342.10 3.834
342.20 3.83
342.30 3.826
342.40 3.822
342.50 3.818
342.60 3.814
342.70 3.81
342.80 3.806
342.90 3.802
343.00 3.798
343.10 3.794
343.20 3.79
343.30 3.786
343.40 3.782
343.50 3.778
343.60 3.774
343.70 3.77
343.80 3.766
343.90 3.762
344.00 3.758
344.10 3.754
344.20 3.75
344.30 3.746
344.40 3.742
344.50 3.738
344.60 3.734
344.70 3.73
344.80 3.726
344.90 3.722
345.00 3.718
345.10 3.714
345.20 3.71
345.30 3.706
345.40 3.702
345.50 3.698
345.60 3.694
345.70 3.691
345.80 3.687
345.90 3.683
346.00 3.679
346.10 3.675
346.20 3.671
346.30 3.667
346.40 3.663
346.50 3.659
346.60 3.656
346.70 3.652
346.80 3.648
346.90 3.644
347.00 3.64
347.10 3.636
347.20 3.633
347.30 3.629
347.40 3.625
347.50 3.621
347.60 3.617
347.70 3.613
347.80 3.61
347.90 3.606
348.00 3.602
348.10 3.598
348.20 3.595
348.30 3.591
348.40 3.587
348.50 3.583
348.60 3.579
348.70 3.576
348.80 3.572
348.90 3.568
349.00 3.564
349.10 3.561
349.20 3.557
349.30 3.553
349.40 3.55
349.50 3.546
349.60 3.542
349.70 3.538
349.80 3.535
349.90 3.531
350.00 3.527
350.10 3.524
350.20 3.52
350.30 3.516
350.40 3.513
350.50 3.509
350.60 3.505
350.70 3.502
350.80 3.498
350.90 3.494
351.00 3.491
351.10 3.487
351.20 3.483
351.30 3.48
351.40 3.476
351.50 3.473
351.60 3.469
351.70 3.465
351.80 3.462
351.90 3.458
352.00 3.454
352.10 3.451
352.20 3.447
352.30 3.444
352.40 3.44
352.50 3.437
352.60 3.433
352.70 3.43
352.80 3.426
352.90 3.422
353.00 3.419
353.10 3.415
353.20 3.412
353.30 3.408
353.40 3.405
353.50 3.401
353.60 3.398
353.70 3.394
353.80 3.391
353.90 3.387
354.00 3.384
354.10 3.38
354.20 3.377
354.30 3.373
354.40 3.37
354.50 3.366
354.60 3.363
354.70 3.359
354.80 3.356
354.90 3.352
355.00 3.349
355.10 3.345
355.20 3.342
355.30 3.338
355.40 3.335
355.50 3.332
355.60 3.328
355.70 3.325
355.80 3.321
355.90 3.318
356.00 3.314
356.10 3.311
356.20 3.308
356.30 3.304
356.40 3.301
356.50 3.297
356.60 3.294
356.70 3.291
356.80 3.287
356.90 3.284
357.00 3.281
357.10 3.277
357.20 3.274
357.30 3.27
357.40 3.267
357.50 3.264
357.60 3.26
357.70 3.257
357.80 3.254
357.90 3.25
358.00 3.247
358.10 3.244
358.20 3.24
358.30 3.237
358.40 3.234
358.50 3.231
358.60 3.227
358.70 3.224
358.80 3.221
358.90 3.217
359.00 3.214
359.10 3.211
359.20 3.208
359.30 3.204
359.40 3.201
359.50 3.198
359.60 3.194
359.70 3.191
359.80 3.188
359.90 3.185
360.00 3.181
360.10 3.178
360.20 3.175
360.30 3.172
360.40 3.169
360.50 3.165
360.60 3.162
360.70 3.159
360.80 3.156
360.90 3.152
361.00 3.149
361.10 3.146
361.20 3.143
361.30 3.14
361.40 3.136
361.50 3.133
361.60 3.13
361.70 3.127
361.80 3.124
361.90 3.121
362.00 3.117
362.10 3.114
362.20 3.111
362.30 3.108
362.40 3.105
362.50 3.102
362.60 3.099
362.70 3.095
362.80 3.092
362.90 3.089
363.00 3.086
363.10 3.083
363.20 3.08
363.30 3.077
363.40 3.074
363.50 3.071
363.60 3.067
363.70 3.064
363.80 3.061
363.90 3.058
364.00 3.055
364.10 3.052
364.20 3.049
364.30 3.046
364.40 3.043
364.50 3.04
364.60 3.037
364.70 3.034
364.80 3.031
364.90 3.027
365.00 3.024
365.10 3.021
365.20 3.018
365.30 3.015
365.40 3.012
365.50 3.009
365.60 3.006
365.70 3.003
365.80 3
365.90 2.997
366.00 2.994
366.10 2.991
366.20 2.988
366.30 2.985
366.40 2.982
366.50 2.979
366.60 2.976
366.70 2.972
366.80 2.969
366.90 2.966
367.00 2.963
367.10 2.96
367.20 2.957
367.30 2.954
367.40 2.951
367.50 2.948
367.60 2.945
367.70 2.942
367.80 2.939
367.90 2.935
368.00 2.932
368.10 2.929
368.20 2.926
368.30 2.923
368.40 2.92
368.50 2.917
368.60 2.914
368.70 2.911
368.80 2.908
368.90 2.905
369.00 2.902
369.10 2.899
369.20 2.896
369.30 2.893
369.40 2.89
369.50 2.887
369.60 2.884
369.70 2.881
369.80 2.878
369.90 2.875
370.00 2.872
370.10 2.869
370.20 2.866
370.30 2.863
370.40 2.86
370.50 2.858
370.60 2.855
370.70 2.852
370.80 2.849
370.90 2.846
371.00 2.843
371.10 2.84
371.20 2.837
371.30 2.834
371.40 2.831
371.50 2.828
371.60 2.825
371.70 2.822
371.80 2.82
371.90 2.817
372.00 2.814
372.10 2.811
372.20 2.808
372.30 2.805
372.40 2.803
372.50 2.8
372.60 2.797
372.70 2.794
372.80 2.791
372.90 2.789
373.00 2.786
373.10 2.783
373.20 2.78
373.30 2.777
373.40 2.775
373.50 2.772
373.60 2.769
373.70 2.766
373.80 2.764
373.90 2.761
374.00 2.758
374.10 2.755
374.20 2.753
374.30 2.75
374.40 2.747
374.50 2.745
374.60 2.742
374.70 2.739
374.80 2.737
374.90 2.734
375.00 2.731
375.10 2.729
375.20 2.726
375.30 2.724
375.40 2.721
375.50 2.718
375.60 2.716
375.70 2.713
375.80 2.71
375.90 2.708
376.00 2.705
376.10 2.703
376.20 2.7
376.30 2.697
376.40 2.695
376.50 2.692
376.60 2.69
376.70 2.687
376.80 2.685
376.90 2.682
377.00 2.68
377.10 2.677
377.20 2.675
377.30 2.673
377.40 2.67
377.50 2.668
377.60 2.666
377.70 2.663
377.80 2.661
377.90 2.659
378.00 2.657
378.10 2.654
378.20 2.652
378.30 2.649
378.40 2.647
378.50 2.644
378.60 2.642
378.70 2.639
378.80 2.637
378.90 2.634
379.00 2.632
379.10 2.629
379.20 2.627
379.30 2.624
379.40 2.622
379.50 2.62
379.60 2.617
379.70 2.615
379.80 2.612
379.90 2.61
380.00 2.608
380.10 2.606
380.20 2.604
380.30 2.602
380.40 2.6
380.50 2.599
380.60 2.597
380.70 2.595
380.80 2.593
380.90 2.591
381.00 2.59
381.10 2.587
381.20 2.585
381.30 2.583
381.40 2.581
381.50 2.578
381.60 2.576
381.70 2.573
381.80 2.57
381.90 2.568
382.00 2.565
382.10 2.562
382.20 2.559
382.30 2.555
382.40 2.552
382.50 2.548
382.60 2.545
382.70 2.541
382.80 2.538
382.90 2.534
383.00 2.531
383.10 2.527
383.20 2.524
383.30 2.52
383.40 2.517
383.50 2.515
383.60 2.513
383.70 2.512
383.80 2.511
383.90 2.511
384.00 2.511
384.10 2.511
384.20 2.51
384.30 2.51
384.40 2.51
384.50 2.51
384.60 2.509
384.70 2.509
384.80 2.508
384.90 2.507
385.00 2.506
385.10 2.505
385.20 2.504
385.30 2.503
385.40 2.501
385.50 2.499
385.60 2.498
385.70 2.495
385.80 2.493
385.90 2.491
386.00 2.488
386.10 2.486
386.20 2.483
386.30 2.48
386.40 2.476
386.50 2.473
386.60 2.469
386.70 2.466
386.80 2.462
386.90 2.457
387.00 2.453
387.10 2.448
387.20 2.443
387.30 2.438
387.40 2.433
387.50 2.428
387.60 2.422
387.70 2.416
387.80 2.41
387.90 2.404
388.00 2.398
388.10 2.392
388.20 2.385
388.30 2.379
388.40 2.373
388.50 2.367
388.60 2.361
388.70 2.356
388.80 2.352
388.90 2.35
389.00 2.349
389.10 2.349
389.20 2.35
389.30 2.352
389.40 2.355
389.50 2.357
389.60 2.36
389.70 2.363
389.80 2.366
389.90 2.368
390.00 2.371
390.10 2.374
390.20 2.376
390.30 2.378
390.40 2.38
390.50 2.382
390.60 2.384
390.70 2.385
390.80 2.386
390.90 2.387
391.00 2.388
391.10 2.389
391.20 2.39
391.30 2.39
391.40 2.39
391.50 2.39
391.60 2.39
391.70 2.389
391.80 2.389
391.90 2.388
392.00 2.387
392.10 2.386
392.20 2.385
392.30 2.384
392.40 2.382
392.50 2.38
392.60 2.378
392.70 2.376
392.80 2.374
392.90 2.371
393.00 2.369
393.10 2.366
393.20 2.363
393.30 2.359
393.40 2.356
393.50 2.352
393.60 2.348
393.70 2.344
393.80 2.34
393.90 2.336
394.00 2.331
394.10 2.326
394.20 2.321
394.30 2.315
394.40 2.309
394.50 2.304
394.60 2.297
394.70 2.291
394.80 2.284
394.90 2.277
395.00 2.27
395.10 2.262
395.20 2.254
395.30 2.246
395.40 2.237
395.50 2.228
395.60 2.219
395.70 2.209
395.80 2.2
395.90 2.189
396.00 2.179
396.10 2.169
396.20 2.158
396.30 2.147
396.40 2.136
396.50 2.124
396.60 2.113
396.70 2.102
396.80 2.091
396.90 2.081
397.00 2.072
397.10 2.077
397.20 2.083
397.30 2.09
397.40 2.098
397.50 2.105
397.60 2.113
397.70 2.121
397.80 2.128
397.90 2.135
398.00 2.142
398.10 2.149
398.20 2.155
398.30 2.161
398.40 2.167
398.50 2.173
398.60 2.178
398.70 2.183
398.80 2.188
398.90 2.192
399.00 2.196
399.10 2.2
399.20 2.204
399.30 2.207
399.40 2.21
399.50 2.213
399.60 2.215
399.70 2.218
399.80 2.22
399.90 2.222
400.00 2.223
400.10 2.225
400.20 2.226
400.30 2.227
400.40 2.228
400.50 2.229
400.60 2.23
400.70 2.23
400.80 2.23
400.90 2.231
401.00 2.231
401.10 2.231
401.20 2.23
401.30 2.23
401.40 2.23
401.50 2.229
401.60 2.229
401.70 2.228
401.80 2.227
401.90 2.226
402.00 2.225
402.10 2.224
402.20 2.223
402.30 2.222
402.40 2.221
402.50 2.219
402.60 2.218
402.70 2.216
402.80 2.215
402.90 2.213
403.00 2.212
403.10 2.21
403.20 2.208
403.30 2.206
403.40 2.204
403.50 2.202
403.60 2.2
403.70 2.198
403.80 2.196
403.90 2.194
404.00 2.191
404.10 2.189
404.20 2.186
404.30 2.184
404.40 2.181
404.50 2.179
404.60 2.176
404.70 2.173
404.80 2.17
404.90 2.167
405.00 2.164
405.10 2.161
405.20 2.158
405.30 2.154
405.40 2.151
405.50 2.147
405.60 2.144
405.70 2.14
405.80 2.136
405.90 2.132
406.00 2.128
406.10 2.124
406.20 2.119
406.30 2.115
406.40 2.11
406.50 2.105
406.60 2.1
406.70 2.095
406.80 2.089
406.90 2.084
407.00 2.078
407.10 2.072
407.20 2.066
407.30 2.059
407.40 2.052
407.50 2.045
407.60 2.038
407.70 2.03
407.80 2.022
407.90 2.014
408.00 2.005
408.10 1.996
408.20 1.986
408.30 1.977
408.40 1.967
408.50 1.956
408.60 1.945
408.70 1.934
408.80 1.922
408.90 1.909
409.00 1.897
409.10 1.884
409.20 1.87
409.30 1.856
409.40 1.842
409.50 1.827
409.60 1.812
409.70 1.797
409.80 1.782
409.90 1.767
410.00 1.756
410.10 1.751
410.20 1.753
410.30 1.751
410.40 1.755
410.50 1.765
410.60 1.777
410.70 1.789
410.80 1.801
410.90 1.812
411.00 1.824
411.10 1.835
411.20 1.845
411.30 1.855
411.40 1.865
411.50 1.874
411.60 1.882
411.70 1.89
411.80 1.898
411.90 1.905
412.00 1.912
412.10 1.918
412.20 1.924
412.30 1.93
412.40 1.935
412.50 1.939
412.60 1.944
412.70 1.948
412.80 1.952
412.90 1.955
413.00 1.959
413.10 1.962
413.20 1.964
413.30 1.967
413.40 1.969
413.50 1.971
413.60 1.973
413.70 1.975
413.80 1.976
413.90 1.977
414.00 1.979
414.10 1.98
414.20 1.98
414.30 1.981
414.40 1.982
414.50 1.982
414.60 1.982
414.70 1.983
414.80 1.983
414.90 1.983
415.00 1.983
415.10 1.982
415.20 1.982
415.30 1.982
415.40 1.981
415.50 1.981
415.60 1.98
415.70 1.98
415.80 1.979
415.90 1.978
416.00 1.978
416.10 1.977
416.20 1.976
416.30 1.975
416.40 1.974
416.50 1.973
416.60 1.972
416.70 1.971
416.80 1.97
416.90 1.969
417.00 1.968
417.10 1.967
417.20 1.966
417.30 1.964
417.40 1.963
417.50 1.962
417.60 1.961
417.70 1.959
417.80 1.958
417.90 1.957
418.00 1.955
418.10 1.954
418.20 1.952
418.30 1.951
418.40 1.95
418.50 1.948
418.60 1.947
418.70 1.945
418.80 1.944
418.90 1.942
419.00 1.941
419.10 1.939
419.20 1.938
419.30 1.936
419.40 1.935
419.50 1.933
419.60 1.932
419.70 1.93
419.80 1.929
419.90 1.927
420.00 1.925
420.10 1.924
420.20 1.922
420.30 1.921
420.40 1.919
420.50 1.917
420.60 1.916
420.70 1.914
420.80 1.913
420.90 1.911
421.00 1.909
421.10 1.908
421.20 1.906
421.30 1.904
421.40 1.903
421.50 1.901
421.60 1.899
421.70 1.898
421.80 1.896
421.90 1.894
422.00 1.893
422.10 1.891
422.20 1.889
422.30 1.888
422.40 1.886
422.50 1.884
422.60 1.883
422.70 1.881
422.80 1.879
422.90 1.877
423.00 1.876
423.10 1.874
423.20 1.872
423.30 1.871
423.40 1.869
423.50 1.867
423.60 1.865
423.70 1.864
423.80 1.862
423.90 1.86
424.00 1.858
424.10 1.856
424.20 1.855
424.30 1.853
424.40 1.851
424.50 1.849
424.60 1.848
424.70 1.846
424.80 1.844
424.90 1.842
425.00 1.84
425.10 1.838
425.20 1.837
425.30 1.835
425.40 1.833
425.50 1.831
425.60 1.829
425.70 1.827
425.80 1.825
425.90 1.823
426.00 1.821
426.10 1.819
426.20 1.817
426.30 1.815
426.40 1.813
426.50 1.811
426.60 1.809
426.70 1.807
426.80 1.805
426.90 1.803
427.00 1.801
427.10 1.799
427.20 1.797
427.30 1.795
427.40 1.792
427.50 1.79
427.60 1.788
427.70 1.786
427.80 1.783
427.90 1.781
428.00 1.779
428.10 1.776
428.20 1.774
428.30 1.771
428.40 1.769
428.50 1.766
428.60 1.764
428.70 1.761
428.80 1.758
428.90 1.755
429.00 1.753
429.10 1.75
429.20 1.747
429.30 1.744
429.40 1.74
429.50 1.737
429.60 1.734
429.70 1.73
429.80 1.727
429.90 1.723
430.00 1.719
430.10 1.716
430.20 1.712
430.30 1.707
430.40 1.703
430.50 1.699
430.60 1.694
430.70 1.689
430.80 1.684
430.90 1.679
431.00 1.674
431.10 1.668
431.20 1.663
431.30 1.656
431.40 1.65
431.50 1.644
431.60 1.637
431.70 1.629
431.80 1.622
431.90 1.614
432.00 1.606
432.10 1.597
432.20 1.588
432.30 1.579
432.40 1.569
432.50 1.559
432.60 1.548
432.70 1.537
432.80 1.526
432.90 1.514
433.00 1.501
433.10 1.488
433.20 1.475
433.30 1.461
433.40 1.447
433.50 1.433
433.60 1.418
433.70 1.404
433.80 1.391
433.90 1.377
434.00 1.365
434.10 1.365
434.20 1.375
434.30 1.386
434.40 1.397
434.50 1.409
434.60 1.421
434.70 1.433
434.80 1.445
434.90 1.456
435.00 1.467
435.10 1.477
435.20 1.487
435.30 1.496
435.40 1.505
435.50 1.513
435.60 1.521
435.70 1.528
435.80 1.535
435.90 1.542
436.00 1.548
436.10 1.554
436.20 1.559
436.30 1.564
436.40 1.568
436.50 1.572
436.60 1.576
436.70 1.58
436.80 1.583
436.90 1.586
437.00 1.589
437.10 1.592
437.20 1.594
437.30 1.596
437.40 1.598
437.50 1.6
437.60 1.601
437.70 1.603
437.80 1.604
437.90 1.605
438.00 1.606
438.10 1.607
438.20 1.608
438.30 1.608
438.40 1.609
438.50 1.609
438.60 1.609
438.70 1.609
438.80 1.61
438.90 1.61
439.00 1.61
439.10 1.609
439.20 1.609
439.30 1.609
439.40 1.609
439.50 1.608
439.60 1.608
439.70 1.607
439.80 1.607
439.90 1.606
440.00 1.606
440.10 1.605
440.20 1.605
440.30 1.604
440.40 1.603
440.50 1.602
440.60 1.602
440.70 1.601
440.80 1.6
440.90 1.599
441.00 1.598
441.10 1.597
441.20 1.596
441.30 1.596
441.40 1.595
441.50 1.594
441.60 1.593
441.70 1.592
441.80 1.591
441.90 1.59
442.00 1.589
442.10 1.588
442.20 1.586
442.30 1.585
442.40 1.584
442.50 1.583
442.60 1.582
442.70 1.581
442.80 1.58
442.90 1.579
443.00 1.578
443.10 1.577
443.20 1.575
443.30 1.574
443.40 1.573
443.50 1.572
443.60 1.571
443.70 1.57
443.80 1.568
443.90 1.567
444.00 1.566
444.10 1.565
444.20 1.564
444.30 1.562
444.40 1.561
444.50 1.56
444.60 1.559
444.70 1.558
444.80 1.556
444.90 1.555
445.00 1.554
445.10 1.553
445.20 1.552
445.30 1.55
445.40 1.549
445.50 1.548
445.60 1.547
445.70 1.545
445.80 1.544
445.90 1.543
446.00 1.542
446.10 1.541
446.20 1.539
446.30 1.538
446.40 1.537
446.50 1.536
446.60 1.534
446.70 1.533
446.80 1.532
446.90 1.531
447.00 1.529
447.10 1.528
447.20 1.527
447.30 1.526
447.40 1.524
447.50 1.523
447.60 1.522
447.70 1.521
447.80 1.52
447.90 1.518
448.00 1.517
448.10 1.516
448.20 1.515
448.30 1.513
448.40 1.512
448.50 1.511
448.60 1.51
448.70 1.508
448.80 1.507
448.90 1.506
449.00 1.505
449.10 1.503
449.20 1.502
449.30 1.501
449.40 1.5
449.50 1.498
449.60 1.497
449.70 1.496
449.80 1.495
449.90 1.494
450.00 1.492
450.10 1.491
450.20 1.49
450.30 1.489
450.40 1.487
450.50 1.486
450.60 1.485
450.70 1.484
450.80 1.483
450.90 1.481
451.00 1.48
451.10 1.479
451.20 1.478
451.30 1.476
451.40 1.475
451.50 1.474
451.60 1.473
451.70 1.472
451.80 1.47
451.90 1.469
452.00 1.468
452.10 1.467
452.20 1.465
452.30 1.464
452.40 1.463
452.50 1.462
452.60 1.461
452.70 1.459
452.80 1.458
452.90 1.457
453.00 1.456
453.10 1.455
453.20 1.453
453.30 1.452
453.40 1.451
453.50 1.45
453.60 1.449
453.70 1.447
453.80 1.446
453.90 1.445
454.00 1.444
454.10 1.443
454.20 1.441
