# Version 2.1 - nm, norm@500 to 1, cut digits, bergeron_4750_85.dat_4750
# Wavelength(nm)  Flambda(ergs/cm^s/s/nm)
300.00 0.3091
300.10 0.3096
300.20 0.31
300.30 0.3104
300.40 0.3109
300.50 0.3113
300.60 0.3117
300.70 0.3121
300.80 0.3126
300.90 0.313
301.00 0.3134
301.10 0.3139
301.20 0.3143
301.30 0.3147
301.40 0.3151
301.50 0.3156
301.60 0.316
301.70 0.3164
301.80 0.3168
301.90 0.3172
302.00 0.3177
302.10 0.3181
302.20 0.3185
302.30 0.319
302.40 0.3194
302.50 0.3198
302.60 0.3203
302.70 0.3207
302.80 0.3211
302.90 0.3216
303.00 0.322
303.10 0.3224
303.20 0.3228
303.30 0.3233
303.40 0.3237
303.50 0.3241
303.60 0.3245
303.70 0.325
303.80 0.3254
303.90 0.3258
304.00 0.3262
304.10 0.3267
304.20 0.3271
304.30 0.3276
304.40 0.328
304.50 0.3284
304.60 0.3289
304.70 0.3293
304.80 0.3297
304.90 0.3302
305.00 0.3306
305.10 0.331
305.20 0.3315
305.30 0.3319
305.40 0.3323
305.50 0.3327
305.60 0.3332
305.70 0.3336
305.80 0.334
305.90 0.3345
306.00 0.3349
306.10 0.3353
306.20 0.3358
306.30 0.3362
306.40 0.3366
306.50 0.3371
306.60 0.3375
306.70 0.3379
306.80 0.3384
306.90 0.3388
307.00 0.3392
307.10 0.3397
307.20 0.3401
307.30 0.3405
307.40 0.341
307.50 0.3414
307.60 0.3418
307.70 0.3423
307.80 0.3427
307.90 0.3431
308.00 0.3436
308.10 0.344
308.20 0.3444
308.30 0.3449
308.40 0.3453
308.50 0.3458
308.60 0.3462
308.70 0.3466
308.80 0.3471
308.90 0.3475
309.00 0.348
309.10 0.3484
309.20 0.3488
309.30 0.3493
309.40 0.3497
309.50 0.3501
309.60 0.3506
309.70 0.351
309.80 0.3514
309.90 0.3519
310.00 0.3523
310.10 0.3527
310.20 0.3532
310.30 0.3536
310.40 0.3541
310.50 0.3545
310.60 0.355
310.70 0.3554
310.80 0.3558
310.90 0.3563
311.00 0.3567
311.10 0.3572
311.20 0.3576
311.30 0.358
311.40 0.3585
311.50 0.3589
311.60 0.3593
311.70 0.3598
311.80 0.3602
311.90 0.3606
312.00 0.3611
312.10 0.3615
312.20 0.3619
312.30 0.3624
312.40 0.3628
312.50 0.3633
312.60 0.3637
312.70 0.3642
312.80 0.3646
312.90 0.365
313.00 0.3655
313.10 0.3659
313.20 0.3664
313.30 0.3668
313.40 0.3673
313.50 0.3677
313.60 0.3681
313.70 0.3686
313.80 0.369
313.90 0.3694
314.00 0.3699
314.10 0.3703
314.20 0.3708
314.30 0.3712
314.40 0.3717
314.50 0.3721
314.60 0.3726
314.70 0.373
314.80 0.3734
314.90 0.3739
315.00 0.3743
315.10 0.3748
315.20 0.3752
315.30 0.3757
315.40 0.3761
315.50 0.3765
315.60 0.377
315.70 0.3774
315.80 0.3778
315.90 0.3783
316.00 0.3787
316.10 0.3792
316.20 0.3796
316.30 0.3801
316.40 0.3805
316.50 0.381
316.60 0.3814
316.70 0.3819
316.80 0.3823
316.90 0.3827
317.00 0.3832
317.10 0.3836
317.20 0.3841
317.30 0.3845
317.40 0.385
317.50 0.3854
317.60 0.3858
317.70 0.3863
317.80 0.3867
317.90 0.3872
318.00 0.3876
318.10 0.3881
318.20 0.3885
318.30 0.389
318.40 0.3894
318.50 0.3899
318.60 0.3903
318.70 0.3907
318.80 0.3912
318.90 0.3916
319.00 0.3921
319.10 0.3925
319.20 0.393
319.30 0.3934
319.40 0.3939
319.50 0.3943
319.60 0.3947
319.70 0.3952
319.80 0.3956
319.90 0.3961
320.00 0.3965
320.10 0.397
320.20 0.3974
320.30 0.3979
320.40 0.3983
320.50 0.3988
320.60 0.3992
320.70 0.3997
320.80 0.4001
320.90 0.4006
321.00 0.401
321.10 0.4014
321.20 0.4019
321.30 0.4023
321.40 0.4028
321.50 0.4032
321.60 0.4037
321.70 0.4041
321.80 0.4046
321.90 0.405
322.00 0.4054
322.10 0.4059
322.20 0.4063
322.30 0.4068
322.40 0.4072
322.50 0.4077
322.60 0.4081
322.70 0.4086
322.80 0.409
322.90 0.4095
323.00 0.4099
323.10 0.4104
323.20 0.4108
323.30 0.4113
323.40 0.4117
323.50 0.4122
323.60 0.4126
323.70 0.4131
323.80 0.4135
323.90 0.4139
324.00 0.4144
324.10 0.4148
324.20 0.4153
324.30 0.4157
324.40 0.4162
324.50 0.4167
324.60 0.4171
324.70 0.4176
324.80 0.418
324.90 0.4185
325.00 0.4189
325.10 0.4194
325.20 0.4198
325.30 0.4202
325.40 0.4207
325.50 0.4211
325.60 0.4216
325.70 0.422
325.80 0.4225
325.90 0.4229
326.00 0.4234
326.10 0.4238
326.20 0.4243
326.30 0.4247
326.40 0.4252
326.50 0.4256
326.60 0.4261
326.70 0.4265
326.80 0.427
326.90 0.4274
327.00 0.4279
327.10 0.4283
327.20 0.4288
327.30 0.4292
327.40 0.4297
327.50 0.4301
327.60 0.4306
327.70 0.431
327.80 0.4314
327.90 0.4319
328.00 0.4323
328.10 0.4328
328.20 0.4332
328.30 0.4337
328.40 0.4342
328.50 0.4346
328.60 0.4351
328.70 0.4355
328.80 0.436
328.90 0.4364
329.00 0.4369
329.10 0.4373
329.20 0.4378
329.30 0.4382
329.40 0.4386
329.50 0.4391
329.60 0.4395
329.70 0.44
329.80 0.4404
329.90 0.4409
330.00 0.4413
330.10 0.4418
330.20 0.4422
330.30 0.4427
330.40 0.4431
330.50 0.4436
330.60 0.444
330.70 0.4445
330.80 0.4449
330.90 0.4454
331.00 0.4458
331.10 0.4463
331.20 0.4467
331.30 0.4472
331.40 0.4476
331.50 0.4481
331.60 0.4485
331.70 0.449
331.80 0.4494
331.90 0.4499
332.00 0.4503
332.10 0.4508
332.20 0.4512
332.30 0.4517
332.40 0.4521
332.50 0.4526
332.60 0.453
332.70 0.4535
332.80 0.4539
332.90 0.4544
333.00 0.4548
333.10 0.4553
333.20 0.4557
333.30 0.4562
333.40 0.4566
333.50 0.4571
333.60 0.4575
333.70 0.458
333.80 0.4584
333.90 0.4589
334.00 0.4593
334.10 0.4598
334.20 0.4602
334.30 0.4607
334.40 0.4611
334.50 0.4616
334.60 0.462
334.70 0.4625
334.80 0.4629
334.90 0.4634
335.00 0.4638
335.10 0.4643
335.20 0.4647
335.30 0.4652
335.40 0.4656
335.50 0.4661
335.60 0.4665
335.70 0.467
335.80 0.4674
335.90 0.4679
336.00 0.4683
336.10 0.4688
336.20 0.4692
336.30 0.4697
336.40 0.4701
336.50 0.4706
336.60 0.471
336.70 0.4715
336.80 0.4719
336.90 0.4724
337.00 0.4728
337.10 0.4733
337.20 0.4737
337.30 0.4742
337.40 0.4746
337.50 0.4751
337.60 0.4755
337.70 0.476
337.80 0.4764
337.90 0.4768
338.00 0.4773
338.10 0.4777
338.20 0.4782
338.30 0.4787
338.40 0.4791
338.50 0.4796
338.60 0.48
338.70 0.4805
338.80 0.4809
338.90 0.4814
339.00 0.4818
339.10 0.4823
339.20 0.4827
339.30 0.4832
339.40 0.4836
339.50 0.484
339.60 0.4845
339.70 0.4849
339.80 0.4854
339.90 0.4858
340.00 0.4863
340.10 0.4867
340.20 0.4872
340.30 0.4876
340.40 0.4881
340.50 0.4885
340.60 0.489
340.70 0.4894
340.80 0.4899
340.90 0.4903
341.00 0.4908
341.10 0.4912
341.20 0.4917
341.30 0.4921
341.40 0.4926
341.50 0.493
341.60 0.4935
341.70 0.4939
341.80 0.4944
341.90 0.4948
342.00 0.4952
342.10 0.4957
342.20 0.4961
342.30 0.4966
342.40 0.4971
342.50 0.4975
342.60 0.498
342.70 0.4984
342.80 0.4989
342.90 0.4993
343.00 0.4997
343.10 0.5002
343.20 0.5006
343.30 0.5011
343.40 0.5015
343.50 0.502
343.60 0.5024
343.70 0.5029
343.80 0.5033
343.90 0.5038
344.00 0.5042
344.10 0.5046
344.20 0.5051
344.30 0.5055
344.40 0.506
344.50 0.5064
344.60 0.5069
344.70 0.5073
344.80 0.5078
344.90 0.5082
345.00 0.5087
345.10 0.5091
345.20 0.5096
345.30 0.51
345.40 0.5105
345.50 0.5109
345.60 0.5114
345.70 0.5118
345.80 0.5122
345.90 0.5127
346.00 0.5131
346.10 0.5136
346.20 0.514
346.30 0.5145
346.40 0.5149
346.50 0.5154
346.60 0.5158
346.70 0.5163
346.80 0.5167
346.90 0.5172
347.00 0.5176
347.10 0.5181
347.20 0.5185
347.30 0.5189
347.40 0.5194
347.50 0.5198
347.60 0.5203
347.70 0.5207
347.80 0.5212
347.90 0.5216
348.00 0.522
348.10 0.5225
348.20 0.5229
348.30 0.5234
348.40 0.5238
348.50 0.5243
348.60 0.5247
348.70 0.5252
348.80 0.5256
348.90 0.5261
349.00 0.5265
349.10 0.527
349.20 0.5274
349.30 0.5279
349.40 0.5283
349.50 0.5287
349.60 0.5292
349.70 0.5296
349.80 0.5301
349.90 0.5305
350.00 0.5309
350.10 0.5314
350.20 0.5318
350.30 0.5323
350.40 0.5327
350.50 0.5332
350.60 0.5336
350.70 0.5341
350.80 0.5345
350.90 0.535
351.00 0.5354
351.10 0.5358
351.20 0.5363
351.30 0.5367
351.40 0.5372
351.50 0.5376
351.60 0.538
351.70 0.5385
351.80 0.5389
351.90 0.5394
352.00 0.5398
352.10 0.5402
352.20 0.5407
352.30 0.5411
352.40 0.5416
352.50 0.542
352.60 0.5425
352.70 0.5429
352.80 0.5434
352.90 0.5438
353.00 0.5442
353.10 0.5447
353.20 0.5451
353.30 0.5456
353.40 0.546
353.50 0.5464
353.60 0.5469
353.70 0.5473
353.80 0.5478
353.90 0.5482
354.00 0.5486
354.10 0.5491
354.20 0.5495
354.30 0.55
354.40 0.5504
354.50 0.5509
354.60 0.5513
354.70 0.5517
354.80 0.5522
354.90 0.5526
355.00 0.5531
355.10 0.5535
355.20 0.5539
355.30 0.5544
355.40 0.5548
355.50 0.5553
355.60 0.5557
355.70 0.5561
355.80 0.5566
355.90 0.557
356.00 0.5574
356.10 0.5579
356.20 0.5583
356.30 0.5588
356.40 0.5592
356.50 0.5596
356.60 0.5601
356.70 0.5605
356.80 0.561
356.90 0.5614
357.00 0.5618
357.10 0.5623
357.20 0.5627
357.30 0.5632
357.40 0.5636
357.50 0.564
357.60 0.5645
357.70 0.5649
357.80 0.5653
357.90 0.5658
358.00 0.5662
358.10 0.5666
358.20 0.5671
358.30 0.5675
358.40 0.568
358.50 0.5684
358.60 0.5688
358.70 0.5693
358.80 0.5697
358.90 0.5702
359.00 0.5706
359.10 0.571
359.20 0.5715
359.30 0.5719
359.40 0.5723
359.50 0.5728
359.60 0.5732
359.70 0.5736
359.80 0.5741
359.90 0.5745
360.00 0.5749
360.10 0.5754
360.20 0.5758
360.30 0.5762
360.40 0.5767
360.50 0.5771
360.60 0.5776
360.70 0.578
360.80 0.5784
360.90 0.5789
361.00 0.5793
361.10 0.5797
361.20 0.5802
361.30 0.5806
361.40 0.581
361.50 0.5815
361.60 0.5819
361.70 0.5823
361.80 0.5828
361.90 0.5832
362.00 0.5836
362.10 0.584
362.20 0.5845
362.30 0.5849
362.40 0.5853
362.50 0.5858
362.60 0.5862
362.70 0.5866
362.80 0.5871
362.90 0.5875
363.00 0.5879
363.10 0.5884
363.20 0.5888
363.30 0.5892
363.40 0.5897
363.50 0.5901
363.60 0.5905
363.70 0.591
363.80 0.5914
363.90 0.5918
364.00 0.5923
364.10 0.5927
364.20 0.5931
364.30 0.5936
364.40 0.594
364.50 0.5944
364.60 0.5948
364.70 0.5953
364.80 0.5957
364.90 0.5961
365.00 0.5966
365.10 0.597
365.20 0.5974
365.30 0.5979
365.40 0.5983
365.50 0.5987
365.60 0.5991
365.70 0.5996
365.80 0.6
365.90 0.6004
366.00 0.6008
366.10 0.6013
366.20 0.6017
366.30 0.6021
366.40 0.6026
366.50 0.603
366.60 0.6034
366.70 0.6039
366.80 0.6043
366.90 0.6047
367.00 0.6052
367.10 0.6056
367.20 0.606
367.30 0.6064
367.40 0.6069
367.50 0.6073
367.60 0.6077
367.70 0.6081
367.80 0.6086
367.90 0.609
368.00 0.6094
368.10 0.6098
368.20 0.6103
368.30 0.6107
368.40 0.6111
368.50 0.6116
368.60 0.612
368.70 0.6124
368.80 0.6128
368.90 0.6133
369.00 0.6137
369.10 0.6141
369.20 0.6145
369.30 0.615
369.40 0.6154
369.50 0.6158
369.60 0.6162
369.70 0.6166
369.80 0.6171
369.90 0.6175
370.00 0.6179
370.10 0.6183
370.20 0.6188
370.30 0.6192
370.40 0.6196
370.50 0.62
370.60 0.6205
370.70 0.6209
370.80 0.6213
370.90 0.6217
371.00 0.6222
371.10 0.6226
371.20 0.623
371.30 0.6234
371.40 0.6238
371.50 0.6243
371.60 0.6247
371.70 0.6251
371.80 0.6255
371.90 0.6259
372.00 0.6264
372.10 0.6268
372.20 0.6272
372.30 0.6276
372.40 0.6281
372.50 0.6285
372.60 0.6289
372.70 0.6293
372.80 0.6297
372.90 0.6302
373.00 0.6306
373.10 0.631
373.20 0.6314
373.30 0.6318
373.40 0.6323
373.50 0.6327
373.60 0.6331
373.70 0.6335
373.80 0.6339
373.90 0.6343
374.00 0.6347
374.10 0.6352
374.20 0.6356
374.30 0.636
374.40 0.6364
374.50 0.6369
374.60 0.6373
374.70 0.6377
374.80 0.6381
374.90 0.6385
375.00 0.6389
375.10 0.6394
375.20 0.6398
375.30 0.6402
375.40 0.6406
375.50 0.641
375.60 0.6414
375.70 0.6418
375.80 0.6423
375.90 0.6427
376.00 0.6431
376.10 0.6435
376.20 0.6439
376.30 0.6443
376.40 0.6447
376.50 0.6452
376.60 0.6456
376.70 0.646
376.80 0.6464
376.90 0.6468
377.00 0.6472
377.10 0.6476
377.20 0.6481
377.30 0.6485
377.40 0.6489
377.50 0.6493
377.60 0.6497
377.70 0.6501
377.80 0.6505
377.90 0.651
378.00 0.6514
378.10 0.6518
378.20 0.6522
378.30 0.6526
378.40 0.653
378.50 0.6534
378.60 0.6538
378.70 0.6543
378.80 0.6547
378.90 0.6551
379.00 0.6555
379.10 0.6559
379.20 0.6563
379.30 0.6567
379.40 0.6571
379.50 0.6575
379.60 0.6579
379.70 0.6584
379.80 0.6588
379.90 0.6592
380.00 0.6596
380.10 0.66
380.20 0.6604
380.30 0.6608
380.40 0.6612
380.50 0.6616
380.60 0.662
380.70 0.6624
380.80 0.6628
380.90 0.6633
381.00 0.6637
381.10 0.6641
381.20 0.6645
381.30 0.6649
381.40 0.6653
381.50 0.6657
381.60 0.6661
381.70 0.6665
381.80 0.6669
381.90 0.6673
382.00 0.6677
382.10 0.6681
382.20 0.6685
382.30 0.6689
382.40 0.6693
382.50 0.6698
382.60 0.6702
382.70 0.6706
382.80 0.671
382.90 0.6714
383.00 0.6718
383.10 0.6722
383.20 0.6726
383.30 0.673
383.40 0.6734
383.50 0.6738
383.60 0.6742
383.70 0.6746
383.80 0.675
383.90 0.6754
384.00 0.6758
384.10 0.6762
384.20 0.6766
384.30 0.677
384.40 0.6774
384.50 0.6778
384.60 0.6782
384.70 0.6786
384.80 0.679
384.90 0.6794
385.00 0.6798
385.10 0.6802
385.20 0.6806
385.30 0.681
385.40 0.6814
385.50 0.6818
385.60 0.6822
385.70 0.6826
385.80 0.683
385.90 0.6834
386.00 0.6838
386.10 0.6842
386.20 0.6846
386.30 0.685
386.40 0.6854
386.50 0.6858
386.60 0.6862
386.70 0.6866
386.80 0.687
386.90 0.6874
387.00 0.6878
387.10 0.6882
387.20 0.6886
387.30 0.689
387.40 0.6894
387.50 0.6898
387.60 0.6902
387.70 0.6906
387.80 0.691
387.90 0.6914
388.00 0.6918
388.10 0.6922
388.20 0.6926
388.30 0.693
388.40 0.6934
388.50 0.6938
388.60 0.6942
388.70 0.6945
388.80 0.6949
388.90 0.6953
389.00 0.6957
389.10 0.6961
389.20 0.6965
389.30 0.6969
389.40 0.6973
389.50 0.6977
389.60 0.6981
389.70 0.6985
389.80 0.6989
389.90 0.6993
390.00 0.6997
390.10 0.7001
390.20 0.7004
390.30 0.7008
390.40 0.7012
390.50 0.7016
390.60 0.702
390.70 0.7024
390.80 0.7028
390.90 0.7032
391.00 0.7036
391.10 0.704
391.20 0.7044
391.30 0.7047
391.40 0.7051
391.50 0.7055
391.60 0.7059
391.70 0.7063
391.80 0.7067
391.90 0.7071
392.00 0.7075
392.10 0.7079
392.20 0.7082
392.30 0.7086
392.40 0.709
392.50 0.7094
392.60 0.7098
392.70 0.7102
392.80 0.7106
392.90 0.711
393.00 0.7113
393.10 0.7117
393.20 0.7121
393.30 0.7125
393.40 0.7129
393.50 0.7133
393.60 0.7137
393.70 0.714
393.80 0.7144
393.90 0.7148
394.00 0.7152
394.10 0.7156
394.20 0.716
394.30 0.7163
394.40 0.7167
394.50 0.7171
394.60 0.7175
394.70 0.7179
394.80 0.7183
394.90 0.7186
395.00 0.719
395.10 0.7194
395.20 0.7198
395.30 0.7202
395.40 0.7206
395.50 0.7209
395.60 0.7213
395.70 0.7217
395.80 0.7221
395.90 0.7225
396.00 0.7229
396.10 0.7232
396.20 0.7236
396.30 0.724
396.40 0.7244
396.50 0.7248
396.60 0.7251
396.70 0.7255
396.80 0.7259
396.90 0.7263
397.00 0.7267
397.10 0.727
397.20 0.7274
397.30 0.7278
397.40 0.7282
397.50 0.7285
397.60 0.7289
397.70 0.7293
397.80 0.7297
397.90 0.7301
398.00 0.7304
398.10 0.7308
398.20 0.7312
398.30 0.7316
398.40 0.7319
398.50 0.7323
398.60 0.7327
398.70 0.7331
398.80 0.7334
398.90 0.7338
399.00 0.7342
399.10 0.7346
399.20 0.7349
399.30 0.7353
399.40 0.7357
399.50 0.7361
399.60 0.7364
399.70 0.7368
399.80 0.7372
399.90 0.7376
400.00 0.7379
400.10 0.7383
400.20 0.7387
400.30 0.7391
400.40 0.7394
400.50 0.7398
400.60 0.7402
400.70 0.7405
400.80 0.7409
400.90 0.7413
401.00 0.7417
401.10 0.742
401.20 0.7424
401.30 0.7428
401.40 0.7431
401.50 0.7435
401.60 0.7439
401.70 0.7443
401.80 0.7446
401.90 0.745
402.00 0.7454
402.10 0.7457
402.20 0.7461
402.30 0.7465
402.40 0.7468
402.50 0.7472
402.60 0.7476
402.70 0.7479
402.80 0.7483
402.90 0.7487
403.00 0.749
403.10 0.7494
403.20 0.7498
403.30 0.7501
403.40 0.7505
403.50 0.7509
403.60 0.7512
403.70 0.7516
403.80 0.752
403.90 0.7523
404.00 0.7527
404.10 0.7531
404.20 0.7534
404.30 0.7538
404.40 0.7542
404.50 0.7545
404.60 0.7549
404.70 0.7553
404.80 0.7556
404.90 0.756
405.00 0.7563
405.10 0.7567
405.20 0.7571
405.30 0.7574
405.40 0.7578
405.50 0.7582
405.60 0.7585
405.70 0.7589
405.80 0.7592
405.90 0.7596
406.00 0.76
406.10 0.7603
406.20 0.7607
406.30 0.761
406.40 0.7614
406.50 0.7618
406.60 0.7621
406.70 0.7625
406.80 0.7628
406.90 0.7632
407.00 0.7636
407.10 0.7639
407.20 0.7643
407.30 0.7646
407.40 0.765
407.50 0.7654
407.60 0.7657
407.70 0.7661
407.80 0.7664
407.90 0.7668
408.00 0.7672
408.10 0.7675
408.20 0.7678
408.30 0.7682
408.40 0.7686
408.50 0.7689
408.60 0.7693
408.70 0.7697
408.80 0.77
408.90 0.7703
409.00 0.7707
409.10 0.7711
409.20 0.7714
409.30 0.7718
409.40 0.7721
409.50 0.7725
409.60 0.7728
409.70 0.7732
409.80 0.7735
409.90 0.7739
410.00 0.7742
410.10 0.7746
410.20 0.7749
410.30 0.7753
410.40 0.7756
410.50 0.776
410.60 0.7763
410.70 0.7767
410.80 0.7771
410.90 0.7774
411.00 0.7777
411.10 0.7781
411.20 0.7784
411.30 0.7788
411.40 0.7792
411.50 0.7795
411.60 0.7798
411.70 0.7802
411.80 0.7805
411.90 0.7809
412.00 0.7813
412.10 0.7816
412.20 0.7819
412.30 0.7823
412.40 0.7827
412.50 0.783
412.60 0.7833
412.70 0.7837
412.80 0.784
412.90 0.7844
413.00 0.7847
413.10 0.7851
413.20 0.7855
413.30 0.7858
413.40 0.7861
413.50 0.7865
413.60 0.7868
413.70 0.7871
413.80 0.7875
413.90 0.7879
414.00 0.7882
414.10 0.7885
414.20 0.7889
414.30 0.7892
414.40 0.7895
414.50 0.7899
414.60 0.7902
414.70 0.7906
414.80 0.7909
414.90 0.7912
415.00 0.7916
415.10 0.792
415.20 0.7923
415.30 0.7926
415.40 0.793
415.50 0.7933
415.60 0.7937
415.70 0.794
415.80 0.7944
415.90 0.7947
416.00 0.795
416.10 0.7954
416.20 0.7957
416.30 0.796
416.40 0.7964
416.50 0.7967
416.60 0.7971
416.70 0.7974
416.80 0.7978
416.90 0.7981
417.00 0.7984
417.10 0.7987
417.20 0.7991
417.30 0.7994
417.40 0.7998
417.50 0.8001
417.60 0.8004
417.70 0.8008
417.80 0.8011
417.90 0.8014
418.00 0.8018
418.10 0.8021
418.20 0.8025
418.30 0.8028
418.40 0.8031
418.50 0.8034
418.60 0.8038
418.70 0.8041
418.80 0.8045
418.90 0.8048
419.00 0.8051
419.10 0.8054
419.20 0.8058
419.30 0.8061
419.40 0.8064
419.50 0.8068
419.60 0.8071
419.70 0.8075
419.80 0.8078
419.90 0.8081
420.00 0.8085
420.10 0.8087
420.20 0.8091
420.30 0.8094
420.40 0.8097
420.50 0.8101
420.60 0.8104
420.70 0.8108
420.80 0.8111
420.90 0.8114
421.00 0.8118
421.10 0.8121
421.20 0.8124
421.30 0.8128
421.40 0.8131
421.50 0.8134
421.60 0.8137
421.70 0.814
421.80 0.8143
421.90 0.8147
422.00 0.815
422.10 0.8153
422.20 0.8157
422.30 0.816
422.40 0.8163
422.50 0.8166
422.60 0.817
422.70 0.8173
422.80 0.8176
422.90 0.8179
423.00 0.8183
423.10 0.8186
423.20 0.8189
423.30 0.8192
423.40 0.8196
423.50 0.8199
423.60 0.8202
423.70 0.8205
423.80 0.8209
423.90 0.8212
424.00 0.8215
424.10 0.8218
424.20 0.8221
424.30 0.8225
424.40 0.8228
424.50 0.8231
424.60 0.8234
424.70 0.8237
424.80 0.8241
424.90 0.8244
425.00 0.8247
425.10 0.825
425.20 0.8253
425.30 0.8257
425.40 0.826
425.50 0.8263
425.60 0.8267
425.70 0.827
425.80 0.8273
425.90 0.8276
426.00 0.8279
426.10 0.8282
426.20 0.8285
426.30 0.8289
426.40 0.8292
426.50 0.8295
426.60 0.8298
426.70 0.8301
426.80 0.8305
426.90 0.8308
427.00 0.8311
427.10 0.8314
427.20 0.8317
427.30 0.832
427.40 0.8323
427.50 0.8326
427.60 0.8329
427.70 0.8333
427.80 0.8336
427.90 0.8339
428.00 0.8342
428.10 0.8345
428.20 0.8349
428.30 0.8352
428.40 0.8355
428.50 0.8358
428.60 0.8361
428.70 0.8364
428.80 0.8367
428.90 0.837
429.00 0.8374
429.10 0.8377
429.20 0.838
429.30 0.8383
429.40 0.8386
429.50 0.8389
429.60 0.8392
429.70 0.8395
429.80 0.8398
429.90 0.8401
430.00 0.8404
430.10 0.8407
430.20 0.841
430.30 0.8414
430.40 0.8417
430.50 0.842
430.60 0.8423
430.70 0.8426
430.80 0.8429
430.90 0.8432
431.00 0.8435
431.10 0.8438
431.20 0.8441
431.30 0.8444
431.40 0.8447
431.50 0.8451
431.60 0.8453
431.70 0.8456
431.80 0.8459
431.90 0.8462
432.00 0.8465
432.10 0.8469
432.20 0.8472
432.30 0.8475
432.40 0.8477
432.50 0.848
432.60 0.8483
432.70 0.8487
432.80 0.849
432.90 0.8493
433.00 0.8495
433.10 0.8498
433.20 0.8501
433.30 0.8504
433.40 0.8507
433.50 0.851
433.60 0.8513
433.70 0.8515
433.80 0.8518
433.90 0.8521
434.00 0.8523
434.10 0.8526
434.20 0.853
434.30 0.8533
434.40 0.8536
434.50 0.8539
434.60 0.8543
434.70 0.8546
434.80 0.8549
434.90 0.8552
435.00 0.8555
435.10 0.8558
435.20 0.8561
435.30 0.8564
435.40 0.8567
435.50 0.857
435.60 0.8573
435.70 0.8576
435.80 0.8579
435.90 0.8582
436.00 0.8585
436.10 0.8588
436.20 0.8591
436.30 0.8594
436.40 0.8597
436.50 0.86
436.60 0.8603
436.70 0.8606
436.80 0.8609
436.90 0.8612
437.00 0.8615
437.10 0.8618
437.20 0.862
437.30 0.8623
437.40 0.8626
437.50 0.8629
437.60 0.8632
437.70 0.8635
437.80 0.8638
437.90 0.8641
438.00 0.8644
438.10 0.8647
438.20 0.865
438.30 0.8653
438.40 0.8655
438.50 0.8658
438.60 0.8661
438.70 0.8664
438.80 0.8667
438.90 0.867
439.00 0.8673
439.10 0.8676
439.20 0.8679
439.30 0.8681
439.40 0.8684
439.50 0.8687
439.60 0.869
439.70 0.8693
439.80 0.8696
439.90 0.8698
440.00 0.8701
440.10 0.8704
440.20 0.8707
440.30 0.871
440.40 0.8713
440.50 0.8715
440.60 0.8719
440.70 0.8721
440.80 0.8724
440.90 0.8727
441.00 0.873
441.10 0.8733
441.20 0.8736
441.30 0.8738
441.40 0.8741
441.50 0.8744
441.60 0.8747
441.70 0.875
441.80 0.8752
441.90 0.8755
442.00 0.8758
442.10 0.8761
442.20 0.8764
442.30 0.8766
442.40 0.8769
442.50 0.8772
442.60 0.8775
442.70 0.8778
442.80 0.878
442.90 0.8783
443.00 0.8786
