# Version 2.1 - nm, norm@500 to 1, cut digits, bergeron_1500_65.dat_1500
# Wavelength(nm)  Flambda(ergs/cm^s/s/nm)
300.00 0.006398
300.10 0.006431
300.20 0.006465
300.30 0.006499
300.40 0.006534
300.50 0.006568
300.60 0.006602
300.70 0.006637
300.80 0.006671
300.90 0.006705
301.00 0.006739
301.10 0.006773
301.20 0.006807
301.30 0.006841
301.40 0.006875
301.50 0.006909
301.60 0.006943
301.70 0.006977
301.80 0.007011
301.90 0.007045
302.00 0.00708
302.10 0.007115
302.20 0.007152
302.30 0.007189
302.40 0.007226
302.50 0.007263
302.60 0.0073
302.70 0.007337
302.80 0.007374
302.90 0.007411
303.00 0.007447
303.10 0.007484
303.20 0.007521
303.30 0.007557
303.40 0.007594
303.50 0.00763
303.60 0.007667
303.70 0.007703
303.80 0.007739
303.90 0.007776
304.00 0.007813
304.10 0.007853
304.20 0.007892
304.30 0.007932
304.40 0.007972
304.50 0.008012
304.60 0.008051
304.70 0.008091
304.80 0.008131
304.90 0.00817
305.00 0.00821
305.10 0.008249
305.20 0.008289
305.30 0.008328
305.40 0.008367
305.50 0.008407
305.60 0.008446
305.70 0.008485
305.80 0.008524
305.90 0.008563
306.00 0.008605
306.10 0.008647
306.20 0.008688
306.30 0.008731
306.40 0.008774
306.50 0.008817
306.60 0.00886
306.70 0.008903
306.80 0.008945
306.90 0.008988
307.00 0.00903
307.10 0.009073
307.20 0.009115
307.30 0.009158
307.40 0.0092
307.50 0.009242
307.60 0.009284
307.70 0.009326
307.80 0.009368
307.90 0.009411
308.00 0.009455
308.10 0.0095
308.20 0.009545
308.30 0.009591
308.40 0.009637
308.50 0.009683
308.60 0.009729
308.70 0.009775
308.80 0.009821
308.90 0.009867
309.00 0.009913
309.10 0.009958
309.20 0.01
309.30 0.01005
309.40 0.0101
309.50 0.01014
309.60 0.01019
309.70 0.01023
309.80 0.01028
309.90 0.01032
310.00 0.01037
310.10 0.01042
310.20 0.01047
310.30 0.01052
310.40 0.01057
310.50 0.01062
310.60 0.01067
310.70 0.01071
310.80 0.01076
310.90 0.01081
311.00 0.01086
311.10 0.01091
311.20 0.01096
311.30 0.01101
311.40 0.01106
311.50 0.01111
311.60 0.01116
311.70 0.01121
311.80 0.01126
311.90 0.0113
312.00 0.01135
312.10 0.0114
312.20 0.01145
312.30 0.0115
312.40 0.01156
312.50 0.01161
312.60 0.01166
312.70 0.01172
312.80 0.01177
312.90 0.01182
313.00 0.01188
313.10 0.01193
313.20 0.01198
313.30 0.01203
313.40 0.01209
313.50 0.01214
313.60 0.01219
313.70 0.01224
313.80 0.0123
313.90 0.01235
314.00 0.01241
314.10 0.01246
314.20 0.01252
314.30 0.01257
314.40 0.01263
314.50 0.01269
314.60 0.01274
314.70 0.0128
314.80 0.01286
314.90 0.01291
315.00 0.01297
315.10 0.01303
315.20 0.01308
315.30 0.01314
315.40 0.0132
315.50 0.01325
315.60 0.01331
315.70 0.01336
315.80 0.01342
315.90 0.01348
316.00 0.01353
316.10 0.01359
316.20 0.01365
316.30 0.01371
316.40 0.01378
316.50 0.01384
316.60 0.0139
316.70 0.01396
316.80 0.01402
316.90 0.01408
317.00 0.01414
317.10 0.0142
317.20 0.01426
317.30 0.01432
317.40 0.01438
317.50 0.01444
317.60 0.0145
317.70 0.01456
317.80 0.01462
317.90 0.01468
318.00 0.01475
318.10 0.01481
318.20 0.01487
318.30 0.01494
318.40 0.015
318.50 0.01507
318.60 0.01513
318.70 0.0152
318.80 0.01526
318.90 0.01533
319.00 0.01539
319.10 0.01546
319.20 0.01552
319.30 0.01559
319.40 0.01565
319.50 0.01571
319.60 0.01578
319.70 0.01584
319.80 0.01591
319.90 0.01597
320.00 0.01604
320.10 0.01611
320.20 0.01618
320.30 0.01625
320.40 0.01632
320.50 0.01638
320.60 0.01645
320.70 0.01652
320.80 0.01659
320.90 0.01666
321.00 0.01673
321.10 0.0168
321.20 0.01687
321.30 0.01694
321.40 0.01701
321.50 0.01708
321.60 0.01715
321.70 0.01721
321.80 0.01728
321.90 0.01735
322.00 0.01742
322.10 0.0175
322.20 0.01757
322.30 0.01764
322.40 0.01772
322.50 0.01779
322.60 0.01787
322.70 0.01794
322.80 0.01801
322.90 0.01809
323.00 0.01816
323.10 0.01824
323.20 0.01831
323.30 0.01838
323.40 0.01846
323.50 0.01853
323.60 0.0186
323.70 0.01868
323.80 0.01875
323.90 0.01882
324.00 0.0189
324.10 0.01898
324.20 0.01906
324.30 0.01914
324.40 0.01921
324.50 0.01929
324.60 0.01937
324.70 0.01945
324.80 0.01953
324.90 0.01961
325.00 0.01969
325.10 0.01977
325.20 0.01985
325.30 0.01992
325.40 0.02
325.50 0.02008
325.60 0.02016
325.70 0.02024
325.80 0.02032
325.90 0.0204
326.00 0.02048
326.10 0.02056
326.20 0.02064
326.30 0.02073
326.40 0.02081
326.50 0.0209
326.60 0.02098
326.70 0.02106
326.80 0.02115
326.90 0.02123
327.00 0.02132
327.10 0.0214
327.20 0.02148
327.30 0.02157
327.40 0.02165
327.50 0.02173
327.60 0.02182
327.70 0.0219
327.80 0.02198
327.90 0.02207
328.00 0.02216
328.10 0.02224
328.20 0.02233
328.30 0.02242
328.40 0.02251
328.50 0.0226
328.60 0.02269
328.70 0.02278
328.80 0.02287
328.90 0.02296
329.00 0.02305
329.10 0.02314
329.20 0.02323
329.30 0.02332
329.40 0.02341
329.50 0.02349
329.60 0.02358
329.70 0.02367
329.80 0.02376
329.90 0.02385
330.00 0.02394
330.10 0.02403
330.20 0.02413
330.30 0.02422
330.40 0.02432
330.50 0.02442
330.60 0.02451
330.70 0.02461
330.80 0.0247
330.90 0.0248
331.00 0.02489
331.10 0.02499
331.20 0.02508
331.30 0.02518
331.40 0.02527
331.50 0.02536
331.60 0.02546
331.70 0.02555
331.80 0.02565
331.90 0.02574
332.00 0.02583
332.10 0.02594
332.20 0.02604
332.30 0.02614
332.40 0.02624
332.50 0.02634
332.60 0.02644
332.70 0.02655
332.80 0.02665
332.90 0.02675
333.00 0.02685
333.10 0.02695
333.20 0.02705
333.30 0.02715
333.40 0.02725
333.50 0.02735
333.60 0.02745
333.70 0.02755
333.80 0.02765
333.90 0.02775
334.00 0.02785
334.10 0.02796
334.20 0.02807
334.30 0.02818
334.40 0.02828
334.50 0.02839
334.60 0.0285
334.70 0.02861
334.80 0.02871
334.90 0.02882
335.00 0.02893
335.10 0.02903
335.20 0.02914
335.30 0.02925
335.40 0.02935
335.50 0.02946
335.60 0.02957
335.70 0.02967
335.80 0.02978
335.90 0.02988
336.00 0.02999
336.10 0.0301
336.20 0.03022
336.30 0.03033
336.40 0.03045
336.50 0.03056
336.60 0.03068
336.70 0.03079
336.80 0.0309
336.90 0.03102
337.00 0.03113
337.10 0.03124
337.20 0.03136
337.30 0.03147
337.40 0.03158
337.50 0.03169
337.60 0.03181
337.70 0.03192
337.80 0.03203
337.90 0.03214
338.00 0.03226
338.10 0.03238
338.20 0.0325
338.30 0.03262
338.40 0.03274
338.50 0.03286
338.60 0.03298
338.70 0.0331
338.80 0.03322
338.90 0.03334
339.00 0.03346
339.10 0.03358
339.20 0.0337
339.30 0.03382
339.40 0.03394
339.50 0.03406
339.60 0.03418
339.70 0.0343
339.80 0.03442
339.90 0.03454
340.00 0.03465
340.10 0.03478
340.20 0.03491
340.30 0.03504
340.40 0.03517
340.50 0.03529
340.60 0.03542
340.70 0.03555
340.80 0.03568
340.90 0.0358
341.00 0.03593
341.10 0.03606
341.20 0.03618
341.30 0.03631
341.40 0.03644
341.50 0.03656
341.60 0.03669
341.70 0.03681
341.80 0.03694
341.90 0.03707
342.00 0.03719
342.10 0.03733
342.20 0.03746
342.30 0.0376
342.40 0.03773
342.50 0.03787
342.60 0.038
342.70 0.03814
342.80 0.03827
342.90 0.0384
343.00 0.03854
343.10 0.03867
343.20 0.03881
343.30 0.03894
343.40 0.03907
343.50 0.03921
343.60 0.03934
343.70 0.03947
343.80 0.03961
343.90 0.03974
344.00 0.03987
344.10 0.04001
344.20 0.04016
344.30 0.0403
344.40 0.04044
344.50 0.04058
344.60 0.04073
344.70 0.04087
344.80 0.04101
344.90 0.04115
345.00 0.04129
345.10 0.04143
345.20 0.04157
345.30 0.04172
345.40 0.04186
345.50 0.042
345.60 0.04214
345.70 0.04228
345.80 0.04242
345.90 0.04256
346.00 0.0427
346.10 0.04285
346.20 0.043
346.30 0.04315
346.40 0.0433
346.50 0.04345
346.60 0.0436
346.70 0.04375
346.80 0.0439
346.90 0.04405
347.00 0.0442
347.10 0.04435
347.20 0.04449
347.30 0.04464
347.40 0.04479
347.50 0.04494
347.60 0.04509
347.70 0.04524
347.80 0.04538
347.90 0.04553
348.00 0.04568
348.10 0.04584
348.20 0.046
348.30 0.04615
348.40 0.04631
348.50 0.04647
348.60 0.04663
348.70 0.04679
348.80 0.04694
348.90 0.0471
349.00 0.04726
349.10 0.04741
349.20 0.04757
349.30 0.04773
349.40 0.04788
349.50 0.04804
349.60 0.0482
349.70 0.04835
349.80 0.04851
349.90 0.04866
350.00 0.04882
350.10 0.04898
350.20 0.04915
350.30 0.04932
350.40 0.04948
350.50 0.04965
350.60 0.04982
350.70 0.04998
350.80 0.05015
350.90 0.05031
351.00 0.05048
351.10 0.05064
351.20 0.05081
351.30 0.05097
351.40 0.05114
351.50 0.0513
351.60 0.05147
351.70 0.05163
351.80 0.05179
351.90 0.05196
352.00 0.05212
352.10 0.05229
352.20 0.05247
352.30 0.05265
352.40 0.05282
352.50 0.053
352.60 0.05317
352.70 0.05334
352.80 0.05352
352.90 0.05369
353.00 0.05387
353.10 0.05404
353.20 0.05421
353.30 0.05439
353.40 0.05456
353.50 0.05473
353.60 0.05491
353.70 0.05508
353.80 0.05525
353.90 0.05542
354.00 0.05559
354.10 0.05578
354.20 0.05596
354.30 0.05615
354.40 0.05633
354.50 0.05651
354.60 0.0567
354.70 0.05688
354.80 0.05706
354.90 0.05725
355.00 0.05743
355.10 0.05761
355.20 0.05779
355.30 0.05797
355.40 0.05816
355.50 0.05834
355.60 0.05852
355.70 0.0587
355.80 0.05888
355.90 0.05906
356.00 0.05924
356.10 0.05944
356.20 0.05963
356.30 0.05982
356.40 0.06001
356.50 0.06021
356.60 0.0604
356.70 0.06059
356.80 0.06078
356.90 0.06097
357.00 0.06117
357.10 0.06136
357.20 0.06155
357.30 0.06174
357.40 0.06193
357.50 0.06212
357.60 0.06231
357.70 0.0625
357.80 0.06269
357.90 0.06288
358.00 0.06307
358.10 0.06327
358.20 0.06347
358.30 0.06367
358.40 0.06388
358.50 0.06408
358.60 0.06428
358.70 0.06448
358.80 0.06468
358.90 0.06488
359.00 0.06508
359.10 0.06529
359.20 0.06549
359.30 0.06569
359.40 0.06589
359.50 0.06609
359.60 0.06628
359.70 0.06648
359.80 0.06668
359.90 0.06688
360.00 0.06708
360.10 0.06729
360.20 0.0675
360.30 0.06772
360.40 0.06793
360.50 0.06814
360.60 0.06835
360.70 0.06856
360.80 0.06877
360.90 0.06898
361.00 0.06919
361.10 0.0694
361.20 0.06961
361.30 0.06982
361.40 0.07003
361.50 0.07024
361.60 0.07045
361.70 0.07066
361.80 0.07087
361.90 0.07108
362.00 0.07128
362.10 0.0715
362.20 0.07172
362.30 0.07194
362.40 0.07216
362.50 0.07237
362.60 0.07259
362.70 0.07281
362.80 0.07302
362.90 0.07324
363.00 0.07346
363.10 0.07368
363.20 0.07391
363.30 0.07413
363.40 0.07436
363.50 0.07458
363.60 0.0748
363.70 0.07503
363.80 0.07525
363.90 0.07547
364.00 0.0757
364.10 0.07592
364.20 0.07614
364.30 0.07636
364.40 0.07659
364.50 0.07681
364.60 0.07704
364.70 0.07728
364.80 0.07751
364.90 0.07774
365.00 0.07797
365.10 0.07821
365.20 0.07844
365.30 0.07867
365.40 0.0789
365.50 0.07913
365.60 0.07936
365.70 0.07959
365.80 0.07982
365.90 0.08005
366.00 0.08028
366.10 0.08052
366.20 0.08077
366.30 0.08101
366.40 0.08125
366.50 0.08149
366.60 0.08173
366.70 0.08197
366.80 0.08221
366.90 0.08246
367.00 0.0827
367.10 0.08294
367.20 0.08318
367.30 0.08341
367.40 0.08365
367.50 0.08389
367.60 0.08413
367.70 0.08437
367.80 0.08461
367.90 0.08485
368.00 0.08508
368.10 0.08534
368.20 0.08559
368.30 0.08584
368.40 0.0861
368.50 0.08635
368.60 0.0866
368.70 0.08685
368.80 0.0871
368.90 0.08735
369.00 0.08761
369.10 0.08786
369.20 0.08811
369.30 0.08836
369.40 0.08861
369.50 0.08886
369.60 0.08911
369.70 0.08935
369.80 0.0896
369.90 0.08985
370.00 0.0901
370.10 0.09036
370.20 0.09063
370.30 0.09089
370.40 0.09115
370.50 0.09142
370.60 0.09168
370.70 0.09194
370.80 0.09221
370.90 0.09247
371.00 0.09273
371.10 0.09299
371.20 0.09325
371.30 0.09351
371.40 0.09377
371.50 0.09403
371.60 0.09429
371.70 0.09455
371.80 0.09481
371.90 0.09507
372.00 0.09533
372.10 0.0956
372.20 0.09588
372.30 0.09615
372.40 0.09643
372.50 0.0967
372.60 0.09698
372.70 0.09725
372.80 0.09752
372.90 0.0978
373.00 0.09807
373.10 0.09834
373.20 0.09861
373.30 0.09889
373.40 0.09916
373.50 0.09943
373.60 0.0997
373.70 0.09997
373.80 0.1002
373.90 0.1005
374.00 0.1008
374.10 0.1011
374.20 0.1014
374.30 0.1016
374.40 0.1019
374.50 0.1022
374.60 0.1025
374.70 0.1028
374.80 0.1031
374.90 0.1033
375.00 0.1036
375.10 0.1039
375.20 0.1042
375.30 0.1045
375.40 0.1048
375.50 0.105
375.60 0.1053
375.70 0.1056
375.80 0.1059
375.90 0.1062
376.00 0.1065
376.10 0.1067
376.20 0.107
376.30 0.1073
376.40 0.1076
376.50 0.1079
376.60 0.1082
376.70 0.1085
376.80 0.1088
376.90 0.1091
377.00 0.1094
377.10 0.1097
377.20 0.11
377.30 0.1103
377.40 0.1106
377.50 0.1109
377.60 0.1112
377.70 0.1115
377.80 0.1118
377.90 0.1121
378.00 0.1124
378.10 0.1127
378.20 0.113
378.30 0.1133
378.40 0.1136
378.50 0.1139
378.60 0.1142
378.70 0.1145
378.80 0.1148
378.90 0.1151
379.00 0.1154
379.10 0.1157
379.20 0.116
379.30 0.1163
379.40 0.1166
379.50 0.117
379.60 0.1173
379.70 0.1176
379.80 0.1179
379.90 0.1182
380.00 0.1185
380.10 0.1188
380.20 0.1191
380.30 0.1195
380.40 0.1198
380.50 0.1201
380.60 0.1204
380.70 0.1207
380.80 0.121
380.90 0.1214
381.00 0.1217
381.10 0.122
381.20 0.1223
381.30 0.1226
381.40 0.1229
381.50 0.1233
381.60 0.1236
381.70 0.1239
381.80 0.1242
381.90 0.1246
382.00 0.1249
382.10 0.1252
382.20 0.1255
382.30 0.1259
382.40 0.1262
382.50 0.1265
382.60 0.1269
382.70 0.1272
382.80 0.1275
382.90 0.1278
383.00 0.1282
383.10 0.1285
383.20 0.1288
383.30 0.1292
383.40 0.1295
383.50 0.1298
383.60 0.1302
383.70 0.1305
383.80 0.1308
383.90 0.1312
384.00 0.1315
384.10 0.1318
384.20 0.1322
384.30 0.1325
384.40 0.1329
384.50 0.1332
384.60 0.1335
384.70 0.1339
384.80 0.1342
384.90 0.1346
385.00 0.1349
385.10 0.1353
385.20 0.1356
385.30 0.1359
385.40 0.1363
385.50 0.1366
385.60 0.137
385.70 0.1373
385.80 0.1377
385.90 0.138
386.00 0.1384
386.10 0.1387
386.20 0.1391
386.30 0.1394
386.40 0.1398
386.50 0.1401
386.60 0.1405
386.70 0.1408
386.80 0.1412
386.90 0.1416
387.00 0.1419
387.10 0.1423
387.20 0.1426
387.30 0.143
387.40 0.1433
387.50 0.1437
387.60 0.1441
387.70 0.1444
387.80 0.1448
387.90 0.1451
388.00 0.1455
388.10 0.1459
388.20 0.1462
388.30 0.1466
388.40 0.147
388.50 0.1473
388.60 0.1477
388.70 0.1481
388.80 0.1484
388.90 0.1488
389.00 0.1492
389.10 0.1495
389.20 0.1499
389.30 0.1503
389.40 0.1506
389.50 0.151
389.60 0.1514
389.70 0.1518
389.80 0.1521
389.90 0.1525
390.00 0.1529
390.10 0.1533
390.20 0.1536
390.30 0.154
390.40 0.1544
390.50 0.1548
390.60 0.1552
390.70 0.1555
390.80 0.1559
390.90 0.1563
391.00 0.1567
391.10 0.1571
391.20 0.1574
391.30 0.1578
391.40 0.1582
391.50 0.1586
391.60 0.159
391.70 0.1594
391.80 0.1598
391.90 0.1601
392.00 0.1605
392.10 0.1609
392.20 0.1613
392.30 0.1617
392.40 0.1621
392.50 0.1625
392.60 0.1629
392.70 0.1633
392.80 0.1637
392.90 0.1641
393.00 0.1645
393.10 0.1648
393.20 0.1652
393.30 0.1656
393.40 0.166
393.50 0.1664
393.60 0.1668
393.70 0.1672
393.80 0.1676
393.90 0.168
394.00 0.1684
394.10 0.1688
394.20 0.1692
394.30 0.1696
394.40 0.17
394.50 0.1705
394.60 0.1709
394.70 0.1713
394.80 0.1717
394.90 0.1721
395.00 0.1725
395.10 0.1729
395.20 0.1733
395.30 0.1737
395.40 0.1741
395.50 0.1745
395.60 0.175
395.70 0.1754
395.80 0.1758
395.90 0.1762
396.00 0.1766
396.10 0.177
396.20 0.1774
396.30 0.1779
396.40 0.1783
396.50 0.1787
396.60 0.1791
396.70 0.1795
396.80 0.18
396.90 0.1804
397.00 0.1808
397.10 0.1812
397.20 0.1816
397.30 0.1821
397.40 0.1825
397.50 0.1829
397.60 0.1833
397.70 0.1838
397.80 0.1842
397.90 0.1846
398.00 0.1851
398.10 0.1855
398.20 0.1859
398.30 0.1863
398.40 0.1868
398.50 0.1872
398.60 0.1876
398.70 0.1881
398.80 0.1885
398.90 0.1889
399.00 0.1894
399.10 0.1898
399.20 0.1903
399.30 0.1907
399.40 0.1911
399.50 0.1916
399.60 0.192
399.70 0.1924
399.80 0.1929
399.90 0.1933
400.00 0.1938
400.10 0.1942
400.20 0.1947
400.30 0.1951
400.40 0.1956
400.50 0.196
400.60 0.1964
400.70 0.1969
400.80 0.1973
400.90 0.1978
401.00 0.1982
401.10 0.1987
401.20 0.1991
401.30 0.1996
401.40 0.2
401.50 0.2005
401.60 0.2009
401.70 0.2014
401.80 0.2019
401.90 0.2023
402.00 0.2028
402.10 0.2032
402.20 0.2037
402.30 0.2041
402.40 0.2046
402.50 0.2051
402.60 0.2055
402.70 0.206
402.80 0.2064
402.90 0.2069
403.00 0.2074
403.10 0.2078
403.20 0.2083
403.30 0.2088
403.40 0.2092
403.50 0.2097
403.60 0.2102
403.70 0.2106
403.80 0.2111
403.90 0.2116
404.00 0.212
404.10 0.2125
404.20 0.213
404.30 0.2135
404.40 0.2139
404.50 0.2144
404.60 0.2149
404.70 0.2154
404.80 0.2158
404.90 0.2163
405.00 0.2168
405.10 0.2173
405.20 0.2178
405.30 0.2182
405.40 0.2187
405.50 0.2192
405.60 0.2197
405.70 0.2202
405.80 0.2206
405.90 0.2211
406.00 0.2216
406.10 0.2221
406.20 0.2226
406.30 0.2231
406.40 0.2236
406.50 0.224
406.60 0.2245
406.70 0.225
406.80 0.2255
406.90 0.226
407.00 0.2265
407.10 0.227
407.20 0.2275
407.30 0.228
407.40 0.2285
407.50 0.229
407.60 0.2295
407.70 0.23
407.80 0.2305
407.90 0.231
408.00 0.2315
408.10 0.232
408.20 0.2325
408.30 0.233
408.40 0.2335
408.50 0.234
408.60 0.2345
408.70 0.235
408.80 0.2355
408.90 0.236
409.00 0.2365
409.10 0.237
409.20 0.2375
409.30 0.238
409.40 0.2385
409.50 0.239
409.60 0.2395
409.70 0.2401
409.80 0.2406
409.90 0.2411
410.00 0.2416
410.10 0.2421
410.20 0.2426
410.30 0.2431
410.40 0.2437
410.50 0.2442
410.60 0.2447
410.70 0.2452
410.80 0.2457
410.90 0.2462
411.00 0.2468
411.10 0.2473
411.20 0.2478
411.30 0.2483
411.40 0.2489
411.50 0.2494
411.60 0.2499
411.70 0.2504
411.80 0.251
411.90 0.2515
412.00 0.252
412.10 0.2525
412.20 0.2531
412.30 0.2536
412.40 0.2541
412.50 0.2547
412.60 0.2552
412.70 0.2557
412.80 0.2563
412.90 0.2568
413.00 0.2573
413.10 0.2579
413.20 0.2584
413.30 0.259
413.40 0.2595
413.50 0.26
413.60 0.2606
413.70 0.2611
413.80 0.2617
413.90 0.2622
414.00 0.2627
414.10 0.2633
414.20 0.2638
414.30 0.2644
414.40 0.2649
414.50 0.2655
414.60 0.266
414.70 0.2666
414.80 0.2671
414.90 0.2677
415.00 0.2682
415.10 0.2688
415.20 0.2693
415.30 0.2699
415.40 0.2704
415.50 0.271
415.60 0.2715
415.70 0.2721
415.80 0.2726
415.90 0.2732
416.00 0.2738
416.10 0.2743
416.20 0.2749
416.30 0.2754
416.40 0.276
416.50 0.2766
416.60 0.2771
416.70 0.2777
416.80 0.2782
416.90 0.2788
417.00 0.2794
417.10 0.2799
417.20 0.2805
417.30 0.2811
417.40 0.2816
417.50 0.2822
417.60 0.2828
417.70 0.2833
417.80 0.2839
417.90 0.2845
418.00 0.2851
418.10 0.2856
418.20 0.2862
418.30 0.2868
418.40 0.2874
418.50 0.2879
418.60 0.2885
418.70 0.2891
418.80 0.2897
418.90 0.2902
419.00 0.2908
419.10 0.2914
419.20 0.292
419.30 0.2926
419.40 0.2932
419.50 0.2937
419.60 0.2943
419.70 0.2949
419.80 0.2955
419.90 0.2961
420.00 0.2967
420.10 0.2973
420.20 0.2978
420.30 0.2984
420.40 0.299
420.50 0.2996
420.60 0.3002
420.70 0.3008
420.80 0.3014
420.90 0.302
421.00 0.3026
421.10 0.3032
421.20 0.3038
421.30 0.3044
421.40 0.305
421.50 0.3056
421.60 0.3062
421.70 0.3068
421.80 0.3074
421.90 0.308
422.00 0.3086
422.10 0.3092
422.20 0.3098
422.30 0.3104
422.40 0.311
422.50 0.3116
422.60 0.3122
422.70 0.3128
422.80 0.3134
422.90 0.314
423.00 0.3146
423.10 0.3153
423.20 0.3159
423.30 0.3165
423.40 0.3171
423.50 0.3177
423.60 0.3183
423.70 0.3189
423.80 0.3196
423.90 0.3202
424.00 0.3208
424.10 0.3214
424.20 0.322
424.30 0.3227
424.40 0.3233
424.50 0.3239
424.60 0.3245
424.70 0.3251
424.80 0.3258
424.90 0.3264
425.00 0.327
425.10 0.3276
425.20 0.3283
425.30 0.3289
425.40 0.3295
425.50 0.3301
425.60 0.3308
425.70 0.3314
425.80 0.332
425.90 0.3327
426.00 0.3333
426.10 0.3339
426.20 0.3346
426.30 0.3352
426.40 0.3359
426.50 0.3365
426.60 0.3371
426.70 0.3378
426.80 0.3384
426.90 0.339
427.00 0.3397
427.10 0.3403
427.20 0.341
427.30 0.3416
427.40 0.3422
427.50 0.3429
427.60 0.3435
427.70 0.3442
427.80 0.3448
427.90 0.3455
428.00 0.3461
428.10 0.3468
428.20 0.3474
428.30 0.3481
428.40 0.3487
428.50 0.3494
428.60 0.35
428.70 0.3507
428.80 0.3513
428.90 0.352
429.00 0.3526
429.10 0.3533
429.20 0.3539
429.30 0.3546
429.40 0.3553
429.50 0.3559
429.60 0.3566
429.70 0.3573
429.80 0.3579
429.90 0.3586
430.00 0.3592
430.10 0.3599
430.20 0.3606
430.30 0.3612
430.40 0.3619
430.50 0.3626
430.60 0.3632
430.70 0.3639
430.80 0.3646
430.90 0.3652
431.00 0.3659
431.10 0.3666
431.20 0.3673
431.30 0.3679
431.40 0.3686
431.50 0.3693
431.60 0.3699
431.70 0.3706
431.80 0.3713
431.90 0.372
432.00 0.3726
432.10 0.3733
432.20 0.374
432.30 0.3747
432.40 0.3754
432.50 0.3761
432.60 0.3767
432.70 0.3774
432.80 0.3781
432.90 0.3788
433.00 0.3795
433.10 0.3802
433.20 0.3809
433.30 0.3815
433.40 0.3822
433.50 0.3829
433.60 0.3836
433.70 0.3843
433.80 0.385
433.90 0.3857
434.00 0.3864
434.10 0.3871
434.20 0.3878
434.30 0.3885
434.40 0.3892
434.50 0.3899
434.60 0.3906
434.70 0.3913
434.80 0.392
434.90 0.3927
435.00 0.3934
435.10 0.3941
435.20 0.3948
435.30 0.3955
435.40 0.3962
435.50 0.3969
435.60 0.3976
435.70 0.3983
435.80 0.399
435.90 0.3997
436.00 0.4004
436.10 0.4011
436.20 0.4018
436.30 0.4025
436.40 0.4032
436.50 0.404
436.60 0.4047
436.70 0.4054
436.80 0.4061
436.90 0.4068
437.00 0.4075
437.10 0.4082
437.20 0.409
