# Version 2.1 - nm, norm@500 to 1, cut digits, bergeron_5250_65.dat_5250
# Wavelength(nm)  Flambda(ergs/cm^s/s/nm)
300.00 0.4314
300.10 0.4319
300.20 0.4324
300.30 0.4328
300.40 0.4333
300.50 0.4338
300.60 0.4343
300.70 0.4348
300.80 0.4353
300.90 0.4357
301.00 0.4362
301.10 0.4367
301.20 0.4372
301.30 0.4377
301.40 0.4381
301.50 0.4386
301.60 0.4391
301.70 0.4396
301.80 0.44
301.90 0.4405
302.00 0.441
302.10 0.4415
302.20 0.4419
302.30 0.4424
302.40 0.4429
302.50 0.4434
302.60 0.4439
302.70 0.4444
302.80 0.4448
302.90 0.4453
303.00 0.4458
303.10 0.4463
303.20 0.4468
303.30 0.4472
303.40 0.4477
303.50 0.4482
303.60 0.4487
303.70 0.4491
303.80 0.4496
303.90 0.4501
304.00 0.4506
304.10 0.451
304.20 0.4515
304.30 0.452
304.40 0.4525
304.50 0.453
304.60 0.4535
304.70 0.4539
304.80 0.4544
304.90 0.4549
305.00 0.4554
305.10 0.4559
305.20 0.4563
305.30 0.4568
305.40 0.4573
305.50 0.4578
305.60 0.4582
305.70 0.4587
305.80 0.4592
305.90 0.4597
306.00 0.4601
306.10 0.4606
306.20 0.4611
306.30 0.4616
306.40 0.4621
306.50 0.4625
306.60 0.463
306.70 0.4635
306.80 0.464
306.90 0.4645
307.00 0.4649
307.10 0.4654
307.20 0.4659
307.30 0.4664
307.40 0.4668
307.50 0.4673
307.60 0.4678
307.70 0.4683
307.80 0.4687
307.90 0.4692
308.00 0.4697
308.10 0.4702
308.20 0.4706
308.30 0.4711
308.40 0.4716
308.50 0.4721
308.60 0.4726
308.70 0.4731
308.80 0.4735
308.90 0.474
309.00 0.4745
309.10 0.475
309.20 0.4754
309.30 0.4759
309.40 0.4764
309.50 0.4769
309.60 0.4773
309.70 0.4778
309.80 0.4783
309.90 0.4787
310.00 0.4792
310.10 0.4797
310.20 0.4802
310.30 0.4807
310.40 0.4811
310.50 0.4816
310.60 0.4821
310.70 0.4826
310.80 0.4831
310.90 0.4835
311.00 0.484
311.10 0.4845
311.20 0.485
311.30 0.4854
311.40 0.4859
311.50 0.4864
311.60 0.4869
311.70 0.4873
311.80 0.4878
311.90 0.4883
312.00 0.4887
312.10 0.4892
312.20 0.4897
312.30 0.4902
312.40 0.4906
312.50 0.4911
312.60 0.4916
312.70 0.4921
312.80 0.4925
312.90 0.493
313.00 0.4935
313.10 0.494
313.20 0.4944
313.30 0.4949
313.40 0.4954
313.50 0.4959
313.60 0.4963
313.70 0.4968
313.80 0.4973
313.90 0.4977
314.00 0.4982
314.10 0.4987
314.20 0.4992
314.30 0.4996
314.40 0.5001
314.50 0.5006
314.60 0.5011
314.70 0.5015
314.80 0.502
314.90 0.5025
315.00 0.503
315.10 0.5034
315.20 0.5039
315.30 0.5044
315.40 0.5048
315.50 0.5053
315.60 0.5058
315.70 0.5063
315.80 0.5067
315.90 0.5072
316.00 0.5077
316.10 0.5081
316.20 0.5086
316.30 0.5091
316.40 0.5096
316.50 0.51
316.60 0.5105
316.70 0.511
316.80 0.5114
316.90 0.5119
317.00 0.5124
317.10 0.5129
317.20 0.5133
317.30 0.5138
317.40 0.5143
317.50 0.5147
317.60 0.5152
317.70 0.5157
317.80 0.5161
317.90 0.5166
318.00 0.5171
318.10 0.5175
318.20 0.518
318.30 0.5185
318.40 0.5189
318.50 0.5194
318.60 0.5199
318.70 0.5204
318.80 0.5208
318.90 0.5213
319.00 0.5218
319.10 0.5222
319.20 0.5227
319.30 0.5232
319.40 0.5236
319.50 0.5241
319.60 0.5246
319.70 0.525
319.80 0.5255
319.90 0.526
320.00 0.5264
320.10 0.5269
320.20 0.5274
320.30 0.5278
320.40 0.5283
320.50 0.5288
320.60 0.5292
320.70 0.5297
320.80 0.5302
320.90 0.5306
321.00 0.5311
321.10 0.5316
321.20 0.532
321.30 0.5325
321.40 0.533
321.50 0.5334
321.60 0.5339
321.70 0.5344
321.80 0.5348
321.90 0.5353
322.00 0.5357
322.10 0.5362
322.20 0.5367
322.30 0.5371
322.40 0.5376
322.50 0.5381
322.60 0.5385
322.70 0.539
322.80 0.5395
322.90 0.5399
323.00 0.5404
323.10 0.5409
323.20 0.5413
323.30 0.5418
323.40 0.5423
323.50 0.5427
323.60 0.5432
323.70 0.5436
323.80 0.5441
323.90 0.5446
324.00 0.545
324.10 0.5455
324.20 0.5459
324.30 0.5464
324.40 0.5469
324.50 0.5473
324.60 0.5478
324.70 0.5483
324.80 0.5487
324.90 0.5492
325.00 0.5497
325.10 0.5501
325.20 0.5506
325.30 0.551
325.40 0.5515
325.50 0.552
325.60 0.5524
325.70 0.5529
325.80 0.5533
325.90 0.5538
326.00 0.5542
326.10 0.5547
326.20 0.5552
326.30 0.5556
326.40 0.5561
326.50 0.5565
326.60 0.557
326.70 0.5575
326.80 0.5579
326.90 0.5584
327.00 0.5588
327.10 0.5593
327.20 0.5598
327.30 0.5602
327.40 0.5607
327.50 0.5611
327.60 0.5616
327.70 0.562
327.80 0.5625
327.90 0.5629
328.00 0.5634
328.10 0.5639
328.20 0.5643
328.30 0.5648
328.40 0.5652
328.50 0.5657
328.60 0.5662
328.70 0.5666
328.80 0.5671
328.90 0.5675
329.00 0.568
329.10 0.5684
329.20 0.5689
329.30 0.5693
329.40 0.5698
329.50 0.5703
329.60 0.5707
329.70 0.5712
329.80 0.5716
329.90 0.5721
330.00 0.5725
330.10 0.573
330.20 0.5734
330.30 0.5739
330.40 0.5743
330.50 0.5748
330.60 0.5752
330.70 0.5757
330.80 0.5762
330.90 0.5766
331.00 0.5771
331.10 0.5775
331.20 0.578
331.30 0.5784
331.40 0.5789
331.50 0.5793
331.60 0.5798
331.70 0.5802
331.80 0.5807
331.90 0.5811
332.00 0.5815
332.10 0.582
332.20 0.5825
332.30 0.5829
332.40 0.5834
332.50 0.5838
332.60 0.5843
332.70 0.5847
332.80 0.5852
332.90 0.5856
333.00 0.5861
333.10 0.5865
333.20 0.587
333.30 0.5874
333.40 0.5879
333.50 0.5883
333.60 0.5888
333.70 0.5892
333.80 0.5896
333.90 0.5901
334.00 0.5905
334.10 0.591
334.20 0.5914
334.30 0.5919
334.40 0.5923
334.50 0.5928
334.60 0.5932
334.70 0.5937
334.80 0.5941
334.90 0.5946
335.00 0.595
335.10 0.5955
335.20 0.5959
335.30 0.5964
335.40 0.5968
335.50 0.5972
335.60 0.5977
335.70 0.5981
335.80 0.5986
335.90 0.599
336.00 0.5994
336.10 0.5999
336.20 0.6003
336.30 0.6008
336.40 0.6012
336.50 0.6017
336.60 0.6021
336.70 0.6026
336.80 0.603
336.90 0.6035
337.00 0.6039
337.10 0.6043
337.20 0.6048
337.30 0.6052
337.40 0.6057
337.50 0.6061
337.60 0.6065
337.70 0.607
337.80 0.6074
337.90 0.6079
338.00 0.6083
338.10 0.6087
338.20 0.6092
338.30 0.6096
338.40 0.6101
338.50 0.6105
338.60 0.6109
338.70 0.6114
338.80 0.6118
338.90 0.6123
339.00 0.6127
339.10 0.6131
339.20 0.6136
339.30 0.614
339.40 0.6145
339.50 0.6149
339.60 0.6153
339.70 0.6158
339.80 0.6162
339.90 0.6166
340.00 0.6171
340.10 0.6175
340.20 0.6179
340.30 0.6184
340.40 0.6188
340.50 0.6193
340.60 0.6197
340.70 0.6201
340.80 0.6206
340.90 0.621
341.00 0.6214
341.10 0.6219
341.20 0.6223
341.30 0.6227
341.40 0.6232
341.50 0.6236
341.60 0.624
341.70 0.6245
341.80 0.6249
341.90 0.6253
342.00 0.6258
342.10 0.6262
342.20 0.6266
342.30 0.6271
342.40 0.6275
342.50 0.6279
342.60 0.6284
342.70 0.6288
342.80 0.6292
342.90 0.6297
343.00 0.6301
343.10 0.6305
343.20 0.631
343.30 0.6314
343.40 0.6318
343.50 0.6322
343.60 0.6327
343.70 0.6331
343.80 0.6335
343.90 0.6339
344.00 0.6344
344.10 0.6348
344.20 0.6352
344.30 0.6357
344.40 0.6361
344.50 0.6365
344.60 0.637
344.70 0.6374
344.80 0.6378
344.90 0.6383
345.00 0.6387
345.10 0.6391
345.20 0.6395
345.30 0.64
345.40 0.6404
345.50 0.6408
345.60 0.6412
345.70 0.6417
345.80 0.6421
345.90 0.6425
346.00 0.6429
346.10 0.6434
346.20 0.6438
346.30 0.6442
346.40 0.6446
346.50 0.6451
346.60 0.6455
346.70 0.6459
346.80 0.6463
346.90 0.6468
347.00 0.6472
347.10 0.6476
347.20 0.648
347.30 0.6484
347.40 0.6489
347.50 0.6493
347.60 0.6497
347.70 0.6501
347.80 0.6505
347.90 0.6509
348.00 0.6514
348.10 0.6518
348.20 0.6522
348.30 0.6526
348.40 0.653
348.50 0.6535
348.60 0.6539
348.70 0.6543
348.80 0.6547
348.90 0.6551
349.00 0.6556
349.10 0.656
349.20 0.6564
349.30 0.6568
349.40 0.6572
349.50 0.6577
349.60 0.6581
349.70 0.6585
349.80 0.6589
349.90 0.6593
350.00 0.6597
350.10 0.6601
350.20 0.6606
350.30 0.661
350.40 0.6614
350.50 0.6618
350.60 0.6622
350.70 0.6627
350.80 0.6631
350.90 0.6635
351.00 0.6639
351.10 0.6643
351.20 0.6647
351.30 0.6652
351.40 0.6656
351.50 0.666
351.60 0.6664
351.70 0.6668
351.80 0.6672
351.90 0.6676
352.00 0.668
352.10 0.6685
352.20 0.6689
352.30 0.6693
352.40 0.6697
352.50 0.6701
352.60 0.6705
352.70 0.6709
352.80 0.6713
352.90 0.6717
353.00 0.6721
353.10 0.6726
353.20 0.673
353.30 0.6734
353.40 0.6738
353.50 0.6742
353.60 0.6746
353.70 0.675
353.80 0.6754
353.90 0.6758
354.00 0.6762
354.10 0.6766
354.20 0.677
354.30 0.6774
354.40 0.6778
354.50 0.6782
354.60 0.6786
354.70 0.6791
354.80 0.6795
354.90 0.6799
355.00 0.6803
355.10 0.6807
355.20 0.6811
355.30 0.6815
355.40 0.6819
355.50 0.6823
355.60 0.6827
355.70 0.6831
355.80 0.6835
355.90 0.6839
356.00 0.6843
356.10 0.6847
356.20 0.6851
356.30 0.6855
356.40 0.6859
356.50 0.6863
356.60 0.6867
356.70 0.6871
356.80 0.6876
356.90 0.688
357.00 0.6884
357.10 0.6888
357.20 0.6892
357.30 0.6896
357.40 0.69
357.50 0.6904
357.60 0.6908
357.70 0.6912
357.80 0.6916
357.90 0.692
358.00 0.6924
358.10 0.6928
358.20 0.6932
358.30 0.6936
358.40 0.694
358.50 0.6944
358.60 0.6948
358.70 0.6952
358.80 0.6955
358.90 0.6959
359.00 0.6963
359.10 0.6967
359.20 0.6971
359.30 0.6975
359.40 0.6979
359.50 0.6983
359.60 0.6987
359.70 0.6991
359.80 0.6995
359.90 0.6999
360.00 0.7003
360.10 0.7007
360.20 0.7011
360.30 0.7014
360.40 0.7018
360.50 0.7022
360.60 0.7026
360.70 0.703
360.80 0.7034
360.90 0.7038
361.00 0.7042
361.10 0.7046
361.20 0.705
361.30 0.7054
361.40 0.7057
361.50 0.7061
361.60 0.7065
361.70 0.7069
361.80 0.7073
361.90 0.7077
362.00 0.7081
362.10 0.7085
362.20 0.7088
362.30 0.7092
362.40 0.7096
362.50 0.71
362.60 0.7104
362.70 0.7108
362.80 0.7112
362.90 0.7116
363.00 0.712
363.10 0.7124
363.20 0.7127
363.30 0.7131
363.40 0.7135
363.50 0.7139
363.60 0.7143
363.70 0.7147
363.80 0.7151
363.90 0.7155
364.00 0.7158
364.10 0.7162
364.20 0.7166
364.30 0.717
364.40 0.7174
364.50 0.7177
364.60 0.7181
364.70 0.7185
364.80 0.7189
364.90 0.7192
365.00 0.7196
365.10 0.72
365.20 0.7204
365.30 0.7208
365.40 0.7212
365.50 0.7215
365.60 0.7219
365.70 0.7223
365.80 0.7227
365.90 0.723
366.00 0.7234
366.10 0.7238
366.20 0.7242
366.30 0.7246
366.40 0.725
366.50 0.7253
366.60 0.7257
366.70 0.7261
366.80 0.7265
366.90 0.7269
367.00 0.7272
367.10 0.7276
367.20 0.728
367.30 0.7284
367.40 0.7287
367.50 0.7291
367.60 0.7295
367.70 0.7299
367.80 0.7302
367.90 0.7306
368.00 0.731
368.10 0.7314
368.20 0.7317
368.30 0.7321
368.40 0.7325
368.50 0.7329
368.60 0.7332
368.70 0.7336
368.80 0.734
368.90 0.7344
369.00 0.7347
369.10 0.7351
369.20 0.7355
369.30 0.7358
369.40 0.7362
369.50 0.7366
369.60 0.7369
369.70 0.7373
369.80 0.7377
369.90 0.738
370.00 0.7384
370.10 0.7388
370.20 0.7392
370.30 0.7395
370.40 0.7399
370.50 0.7403
370.60 0.7406
370.70 0.741
370.80 0.7414
370.90 0.7417
371.00 0.7421
371.10 0.7425
371.20 0.7428
371.30 0.7432
371.40 0.7436
371.50 0.7439
371.60 0.7443
371.70 0.7446
371.80 0.745
371.90 0.7454
372.00 0.7457
372.10 0.7461
372.20 0.7465
372.30 0.7468
372.40 0.7472
372.50 0.7476
372.60 0.748
372.70 0.7483
372.80 0.7487
372.90 0.7491
373.00 0.7494
373.10 0.7498
373.20 0.7502
373.30 0.7505
373.40 0.7509
373.50 0.7513
373.60 0.7516
373.70 0.752
373.80 0.7524
373.90 0.7527
374.00 0.7531
374.10 0.7535
374.20 0.7538
374.30 0.7542
374.40 0.7546
374.50 0.755
374.60 0.7553
374.70 0.7557
374.80 0.7561
374.90 0.7564
375.00 0.7568
375.10 0.7572
375.20 0.7576
375.30 0.7579
375.40 0.7583
375.50 0.7587
375.60 0.759
375.70 0.7594
375.80 0.7598
375.90 0.7601
376.00 0.7605
376.10 0.7609
376.20 0.7612
376.30 0.7616
376.40 0.762
376.50 0.7623
376.60 0.7627
376.70 0.7631
376.80 0.7634
376.90 0.7638
377.00 0.7642
377.10 0.7646
377.20 0.7649
377.30 0.7653
377.40 0.7657
377.50 0.766
377.60 0.7664
377.70 0.7668
377.80 0.7671
377.90 0.7675
378.00 0.7679
378.10 0.7682
378.20 0.7686
378.30 0.7689
378.40 0.7693
378.50 0.7696
378.60 0.77
378.70 0.7703
378.80 0.7707
378.90 0.771
379.00 0.7714
379.10 0.7715
379.20 0.7717
379.30 0.7718
379.40 0.772
379.50 0.7721
379.60 0.7722
379.70 0.7724
379.80 0.7725
379.90 0.7727
380.00 0.7728
380.10 0.7734
380.20 0.774
380.30 0.7746
380.40 0.7752
380.50 0.7758
380.60 0.7763
380.70 0.7769
380.80 0.7775
380.90 0.7781
381.00 0.7786
381.10 0.779
381.20 0.7794
381.30 0.7797
381.40 0.7801
381.50 0.7805
381.60 0.7808
381.70 0.7812
381.80 0.7815
381.90 0.7819
382.00 0.7822
382.10 0.7825
382.20 0.7829
382.30 0.783
382.40 0.7832
382.50 0.7833
382.60 0.7835
382.70 0.7837
382.80 0.7838
382.90 0.784
383.00 0.7841
383.10 0.7843
383.20 0.7844
383.30 0.7831
383.40 0.7793
383.50 0.7689
383.60 0.7725
383.70 0.7816
383.80 0.7853
383.90 0.7871
384.00 0.7881
384.10 0.7888
384.20 0.7894
384.30 0.7899
384.40 0.7903
384.50 0.7907
384.60 0.7911
384.70 0.7915
384.80 0.7918
384.90 0.7922
385.00 0.7926
385.10 0.7929
385.20 0.7933
385.30 0.7936
385.40 0.794
385.50 0.7943
385.60 0.7947
385.70 0.795
385.80 0.7953
385.90 0.7957
386.00 0.796
386.10 0.7963
386.20 0.7967
386.30 0.797
386.40 0.7973
386.50 0.7976
386.60 0.798
386.70 0.7983
386.80 0.7986
386.90 0.799
387.00 0.7993
387.10 0.7996
387.20 0.7999
387.30 0.8002
387.40 0.8006
387.50 0.8009
387.60 0.8012
387.70 0.8015
387.80 0.8017
387.90 0.802
388.00 0.8023
388.10 0.8024
388.20 0.8025
388.30 0.8026
388.40 0.8024
388.50 0.8017
388.60 0.8006
388.70 0.7956
388.80 0.7812
388.90 0.7575
389.00 0.7811
389.10 0.7961
389.20 0.8023
389.30 0.8042
389.40 0.8056
389.50 0.8065
389.60 0.8071
389.70 0.8076
389.80 0.8081
389.90 0.8085
390.00 0.8089
390.10 0.8093
390.20 0.8096
390.30 0.81
390.40 0.8103
390.50 0.8107
390.60 0.811
390.70 0.8114
390.80 0.8117
390.90 0.812
391.00 0.8123
391.10 0.8127
391.20 0.813
391.30 0.8133
391.40 0.8136
391.50 0.8139
391.60 0.8142
391.70 0.8146
391.80 0.8149
391.90 0.8152
392.00 0.8155
392.10 0.8158
392.20 0.8162
392.30 0.8165
392.40 0.8168
392.50 0.8171
392.60 0.8174
392.70 0.8177
392.80 0.8181
392.90 0.8184
393.00 0.8187
393.10 0.819
393.20 0.8193
393.30 0.8196
393.40 0.8199
393.50 0.8202
393.60 0.8206
393.70 0.8209
393.80 0.8212
393.90 0.8215
394.00 0.8218
394.10 0.8221
394.20 0.8224
394.30 0.8227
394.40 0.823
394.50 0.8233
394.60 0.8236
394.70 0.8239
394.80 0.8242
394.90 0.8245
395.00 0.8248
395.10 0.825
395.20 0.8253
395.30 0.8256
395.40 0.8259
395.50 0.8262
395.60 0.8264
395.70 0.8267
395.80 0.8269
395.90 0.8271
396.00 0.8273
396.10 0.8275
396.20 0.8276
396.30 0.8276
396.40 0.8275
396.50 0.827
396.60 0.8257
396.70 0.8238
396.80 0.8155
396.90 0.7881
397.00 0.7415
397.10 0.7869
397.20 0.8148
397.30 0.8251
397.40 0.8278
397.50 0.8298
397.60 0.831
397.70 0.8317
397.80 0.8324
397.90 0.8329
398.00 0.8333
398.10 0.8337
398.20 0.8342
398.30 0.8345
398.40 0.8348
398.50 0.8352
398.60 0.8355
398.70 0.8358
398.80 0.8361
398.90 0.8365
399.00 0.8368
399.10 0.8371
399.20 0.8374
399.30 0.8377
399.40 0.838
399.50 0.8383
399.60 0.8386
399.70 0.8389
399.80 0.8392
399.90 0.8395
400.00 0.8398
400.10 0.8401
400.20 0.8404
400.30 0.8406
400.40 0.8409
400.50 0.8412
400.60 0.8415
400.70 0.8418
400.80 0.8421
400.90 0.8424
401.00 0.8427
401.10 0.843
401.20 0.8433
401.30 0.8436
401.40 0.8438
401.50 0.8441
401.60 0.8444
401.70 0.8447
401.80 0.845
401.90 0.8453
402.00 0.8456
402.10 0.8458
402.20 0.8461
402.30 0.8464
402.40 0.8467
402.50 0.847
402.60 0.8473
402.70 0.8475
402.80 0.8478
402.90 0.8481
403.00 0.8484
403.10 0.8487
403.20 0.849
403.30 0.8492
403.40 0.8495
403.50 0.8498
403.60 0.8501
403.70 0.8504
403.80 0.8507
403.90 0.8509
404.00 0.8512
404.10 0.8515
404.20 0.8518
404.30 0.8521
404.40 0.8523
404.50 0.8526
404.60 0.8529
404.70 0.8532
404.80 0.8535
404.90 0.8537
405.00 0.854
405.10 0.8543
405.20 0.8545
405.30 0.8548
405.40 0.8551
405.50 0.8554
405.60 0.8556
405.70 0.8559
405.80 0.8562
405.90 0.8565
406.00 0.8567
406.10 0.857
406.20 0.8573
406.30 0.8576
406.40 0.8578
406.50 0.8581
406.60 0.8584
406.70 0.8586
406.80 0.8589
406.90 0.8592
407.00 0.8594
407.10 0.8597
407.20 0.86
407.30 0.8602
407.40 0.8605
407.50 0.8607
407.60 0.861
407.70 0.8613
407.80 0.8615
407.90 0.8618
408.00 0.862
408.10 0.8623
408.20 0.8625
408.30 0.8628
408.40 0.863
408.50 0.8632
408.60 0.8634
408.70 0.8637
408.80 0.8639
408.90 0.8641
409.00 0.8642
409.10 0.8643
409.20 0.8644
409.30 0.8645
409.40 0.8644
409.50 0.8641
409.60 0.8636
409.70 0.8624
409.80 0.8597
409.90 0.8556
410.00 0.836
410.10 0.7956
410.20 0.7346
410.30 0.8075
410.40 0.8495
410.50 0.8605
410.60 0.8636
410.70 0.8659
410.80 0.8673
410.90 0.8681
411.00 0.8688
411.10 0.8693
411.20 0.8698
411.30 0.8702
411.40 0.8706
411.50 0.8709
411.60 0.8712
411.70 0.8716
411.80 0.8718
411.90 0.8721
412.00 0.8724
412.10 0.8727
412.20 0.873
412.30 0.8733
412.40 0.8736
412.50 0.8738
412.60 0.8741
412.70 0.8744
412.80 0.8746
412.90 0.8749
413.00 0.8752
413.10 0.8754
413.20 0.8757
413.30 0.8759
413.40 0.8762
413.50 0.8765
413.60 0.8767
413.70 0.877
413.80 0.8772
413.90 0.8775
414.00 0.8777
414.10 0.878
414.20 0.8783
414.30 0.8785
414.40 0.8788
414.50 0.879
414.60 0.8792
414.70 0.8795
414.80 0.8797
414.90 0.88
415.00 0.8803
415.10 0.8805
415.20 0.8808
415.30 0.881
415.40 0.8813
415.50 0.8815
415.60 0.8818
415.70 0.882
415.80 0.8822
415.90 0.8825
416.00 0.8827
416.10 0.883
416.20 0.8832
416.30 0.8835
416.40 0.8837
416.50 0.884
416.60 0.8842
416.70 0.8845
416.80 0.8847
416.90 0.8849
417.00 0.8852
417.10 0.8854
417.20 0.8857
417.30 0.8859
417.40 0.8862
417.50 0.8864
417.60 0.8867
417.70 0.8869
417.80 0.8871
417.90 0.8874
418.00 0.8876
418.10 0.8879
418.20 0.8881
418.30 0.8884
418.40 0.8886
418.50 0.8888
418.60 0.889
418.70 0.8893
418.80 0.8895
418.90 0.8898
419.00 0.89
419.10 0.8902
419.20 0.8905
419.30 0.8907
419.40 0.891
419.50 0.8912
419.60 0.8914
419.70 0.8917
419.80 0.8919
419.90 0.8922
420.00 0.8924
420.10 0.8926
420.20 0.8928
420.30 0.8931
420.40 0.8933
420.50 0.8935
420.60 0.8938
420.70 0.894
420.80 0.8942
420.90 0.8945
421.00 0.8947
421.10 0.8949
421.20 0.8952
421.30 0.8954
421.40 0.8956
421.50 0.8959
421.60 0.8961
421.70 0.8963
421.80 0.8966
421.90 0.8968
422.00 0.897
422.10 0.8973
422.20 0.8975
422.30 0.8977
422.40 0.8979
422.50 0.8982
422.60 0.8984
422.70 0.8986
422.80 0.8989
422.90 0.8991
423.00 0.8993
423.10 0.8995
423.20 0.8997
423.30 0.9
423.40 0.9002
423.50 0.9004
423.60 0.9006
423.70 0.9009
423.80 0.9011
423.90 0.9013
424.00 0.9015
424.10 0.9018
424.20 0.902
424.30 0.9022
424.40 0.9024
424.50 0.9026
424.60 0.9029
424.70 0.9031
424.80 0.9033
424.90 0.9035
425.00 0.9038
425.10 0.904
425.20 0.9042
425.30 0.9044
425.40 0.9046
425.50 0.9049
425.60 0.9051
425.70 0.9053
425.80 0.9055
425.90 0.9057
426.00 0.906
426.10 0.9062
426.20 0.9064
426.30 0.9066
426.40 0.9068
426.50 0.907
426.60 0.9073
426.70 0.9075
426.80 0.9077
426.90 0.9079
427.00 0.9081
427.10 0.9083
427.20 0.9085
427.30 0.9088
427.40 0.909
427.50 0.9092
427.60 0.9094
427.70 0.9096
427.80 0.9098
427.90 0.91
428.00 0.9103
428.10 0.9105
428.20 0.9107
428.30 0.9109
428.40 0.9111
428.50 0.9113
428.60 0.9115
428.70 0.9117
428.80 0.9119
428.90 0.9122
429.00 0.9124
429.10 0.9126
429.20 0.9128
429.30 0.9129
429.40 0.9132
429.50 0.9134
429.60 0.9136
429.70 0.9138
429.80 0.914
429.90 0.9142
430.00 0.9144
430.10 0.9146
430.20 0.9148
430.30 0.915
430.40 0.9152
430.50 0.9154
430.60 0.9156
430.70 0.9158
430.80 0.916
430.90 0.9162
431.00 0.9164
431.10 0.9166
431.20 0.9168
431.30 0.917
431.40 0.9172
431.50 0.9173
431.60 0.9175
431.70 0.9177
431.80 0.9179
431.90 0.918
432.00 0.9182
432.10 0.9184
432.20 0.9185
432.30 0.9187
432.40 0.9188
432.50 0.9189
432.60 0.919
432.70 0.9191
432.80 0.9192
432.90 0.9192
433.00 0.9191
433.10 0.919
433.20 0.9187
433.30 0.9183
433.40 0.9174
433.50 0.9159
433.60 0.9139
433.70 0.9081
433.80 0.8933
433.90 0.8694
434.00 0.7208
434.10 0.7224
434.20 0.8738
434.30 0.8961
434.40 0.9101
434.50 0.9159
434.60 0.9183
434.70 0.9201
434.80 0.9213
434.90 0.9221
435.00 0.9228
435.10 0.9233
435.20 0.9237
435.30 0.9241
435.40 0.9244
435.50 0.9248
435.60 0.9251
435.70 0.9253
435.80 0.9256
435.90 0.9258
436.00 0.9261
436.10 0.9263
436.20 0.9265
436.30 0.9267
436.40 0.927
436.50 0.9272
436.60 0.9274
436.70 0.9276
436.80 0.9278
436.90 0.928
437.00 0.9282
437.10 0.9284
437.20 0.9286
437.30 0.9288
437.40 0.929
437.50 0.9292
437.60 0.9294
437.70 0.9296
437.80 0.9298
437.90 0.93
438.00 0.9302
438.10 0.9304
438.20 0.9306
438.30 0.9307
438.40 0.9309
438.50 0.9311
438.60 0.9313
438.70 0.9315
438.80 0.9317
438.90 0.9319
439.00 0.9321
439.10 0.9322
439.20 0.9324
439.30 0.9326
439.40 0.9328
439.50 0.933
439.60 0.9332
439.70 0.9334
439.80 0.9335
439.90 0.9337
440.00 0.9339
440.10 0.9341
440.20 0.9343
440.30 0.9345
440.40 0.9346
440.50 0.9348
440.60 0.935
440.70 0.9352
440.80 0.9354
440.90 0.9355
441.00 0.9357
441.10 0.9359
441.20 0.9361
441.30 0.9363
441.40 0.9365
441.50 0.9366
441.60 0.9368
441.70 0.937
441.80 0.9371
441.90 0.9373
442.00 0.9375
442.10 0.9377
442.20 0.9378
442.30 0.938
442.40 0.9382
442.50 0.9384
442.60 0.9386
442.70 0.9387
442.80 0.9389
442.90 0.9391
443.00 0.9393
443.10 0.9394
