# Version 2.1 - nm, norm@500 to 1, cut digits, bergeron_13500_65.dat_13500
# Wavelength(nm)  Flambda(ergs/cm^s/s/nm)
300.00 1.776
300.10 1.775
300.20 1.774
300.30 1.773
300.40 1.771
300.50 1.77
300.60 1.769
300.70 1.768
300.80 1.767
300.90 1.765
301.00 1.764
301.10 1.763
301.20 1.762
301.30 1.761
301.40 1.759
301.50 1.758
301.60 1.757
301.70 1.756
301.80 1.755
301.90 1.753
302.00 1.752
302.10 1.751
302.20 1.75
302.30 1.749
302.40 1.747
302.50 1.746
302.60 1.745
302.70 1.744
302.80 1.743
302.90 1.742
303.00 1.74
303.10 1.739
303.20 1.738
303.30 1.737
303.40 1.736
303.50 1.735
303.60 1.733
303.70 1.732
303.80 1.731
303.90 1.73
304.00 1.729
304.10 1.728
304.20 1.726
304.30 1.725
304.40 1.724
304.50 1.723
304.60 1.722
304.70 1.721
304.80 1.72
304.90 1.718
305.00 1.717
305.10 1.716
305.20 1.715
305.30 1.714
305.40 1.713
305.50 1.711
305.60 1.71
305.70 1.709
305.80 1.708
305.90 1.707
306.00 1.706
306.10 1.705
306.20 1.703
306.30 1.702
306.40 1.701
306.50 1.7
306.60 1.699
306.70 1.698
306.80 1.697
306.90 1.696
307.00 1.694
307.10 1.693
307.20 1.692
307.30 1.691
307.40 1.69
307.50 1.689
307.60 1.688
307.70 1.687
307.80 1.685
307.90 1.684
308.00 1.683
308.10 1.682
308.20 1.681
308.30 1.68
308.40 1.679
308.50 1.678
308.60 1.676
308.70 1.675
308.80 1.674
308.90 1.673
309.00 1.672
309.10 1.671
309.20 1.67
309.30 1.669
309.40 1.668
309.50 1.667
309.60 1.665
309.70 1.664
309.80 1.663
309.90 1.662
310.00 1.661
310.10 1.66
310.20 1.659
310.30 1.658
310.40 1.657
310.50 1.656
310.60 1.654
310.70 1.653
310.80 1.652
310.90 1.651
311.00 1.65
311.10 1.649
311.20 1.648
311.30 1.647
311.40 1.646
311.50 1.645
311.60 1.644
311.70 1.642
311.80 1.641
311.90 1.64
312.00 1.639
312.10 1.638
312.20 1.637
312.30 1.636
312.40 1.635
312.50 1.634
312.60 1.633
312.70 1.632
312.80 1.631
312.90 1.63
313.00 1.629
313.10 1.627
313.20 1.626
313.30 1.625
313.40 1.624
313.50 1.623
313.60 1.622
313.70 1.621
313.80 1.62
313.90 1.619
314.00 1.618
314.10 1.617
314.20 1.616
314.30 1.615
314.40 1.614
314.50 1.613
314.60 1.612
314.70 1.61
314.80 1.609
314.90 1.608
315.00 1.607
315.10 1.606
315.20 1.605
315.30 1.604
315.40 1.603
315.50 1.602
315.60 1.601
315.70 1.6
315.80 1.599
315.90 1.598
316.00 1.597
316.10 1.596
316.20 1.595
316.30 1.594
316.40 1.593
316.50 1.592
316.60 1.591
316.70 1.59
316.80 1.589
316.90 1.588
317.00 1.587
317.10 1.586
317.20 1.584
317.30 1.583
317.40 1.582
317.50 1.581
317.60 1.58
317.70 1.579
317.80 1.578
317.90 1.577
318.00 1.576
318.10 1.575
318.20 1.574
318.30 1.573
318.40 1.572
318.50 1.571
318.60 1.57
318.70 1.569
318.80 1.568
318.90 1.567
319.00 1.566
319.10 1.565
319.20 1.564
319.30 1.563
319.40 1.562
319.50 1.561
319.60 1.56
319.70 1.559
319.80 1.558
319.90 1.557
320.00 1.556
320.10 1.555
320.20 1.554
320.30 1.553
320.40 1.552
320.50 1.551
320.60 1.55
320.70 1.549
320.80 1.548
320.90 1.547
321.00 1.546
321.10 1.545
321.20 1.544
321.30 1.543
321.40 1.542
321.50 1.541
321.60 1.54
321.70 1.539
321.80 1.538
321.90 1.537
322.00 1.536
322.10 1.535
322.20 1.534
322.30 1.533
322.40 1.532
322.50 1.531
322.60 1.53
322.70 1.529
322.80 1.528
322.90 1.527
323.00 1.526
323.10 1.525
323.20 1.524
323.30 1.523
323.40 1.522
323.50 1.521
323.60 1.52
323.70 1.519
323.80 1.519
323.90 1.518
324.00 1.517
324.10 1.516
324.20 1.515
324.30 1.514
324.40 1.513
324.50 1.512
324.60 1.511
324.70 1.51
324.80 1.509
324.90 1.508
325.00 1.507
325.10 1.506
325.20 1.505
325.30 1.504
325.40 1.503
325.50 1.502
325.60 1.501
325.70 1.5
325.80 1.499
325.90 1.498
326.00 1.497
326.10 1.496
326.20 1.495
326.30 1.495
326.40 1.494
326.50 1.493
326.60 1.492
326.70 1.491
326.80 1.49
326.90 1.489
327.00 1.488
327.10 1.487
327.20 1.486
327.30 1.485
327.40 1.484
327.50 1.483
327.60 1.482
327.70 1.481
327.80 1.48
327.90 1.479
328.00 1.479
328.10 1.478
328.20 1.477
328.30 1.476
328.40 1.475
328.50 1.474
328.60 1.473
328.70 1.472
328.80 1.471
328.90 1.47
329.00 1.469
329.10 1.468
329.20 1.467
329.30 1.466
329.40 1.465
329.50 1.465
329.60 1.464
329.70 1.463
329.80 1.462
329.90 1.461
330.00 1.46
330.10 1.459
330.20 1.458
330.30 1.457
330.40 1.456
330.50 1.455
330.60 1.454
330.70 1.454
330.80 1.453
330.90 1.452
331.00 1.451
331.10 1.45
331.20 1.449
331.30 1.448
331.40 1.447
331.50 1.446
331.60 1.445
331.70 1.444
331.80 1.444
331.90 1.443
332.00 1.442
332.10 1.441
332.20 1.44
332.30 1.439
332.40 1.438
332.50 1.437
332.60 1.436
332.70 1.435
332.80 1.434
332.90 1.434
333.00 1.433
333.10 1.432
333.20 1.431
333.30 1.43
333.40 1.429
333.50 1.428
333.60 1.427
333.70 1.426
333.80 1.426
333.90 1.425
334.00 1.424
334.10 1.423
334.20 1.422
334.30 1.421
334.40 1.42
334.50 1.419
334.60 1.418
334.70 1.418
334.80 1.417
334.90 1.416
335.00 1.415
335.10 1.414
335.20 1.413
335.30 1.412
335.40 1.411
335.50 1.411
335.60 1.41
335.70 1.409
335.80 1.408
335.90 1.407
336.00 1.406
336.10 1.405
336.20 1.404
336.30 1.404
336.40 1.403
336.50 1.402
336.60 1.401
336.70 1.4
336.80 1.399
336.90 1.398
337.00 1.397
337.10 1.397
337.20 1.396
337.30 1.395
337.40 1.394
337.50 1.393
337.60 1.392
337.70 1.391
337.80 1.391
337.90 1.39
338.00 1.389
338.10 1.388
338.20 1.387
338.30 1.386
338.40 1.385
338.50 1.384
338.60 1.384
338.70 1.383
338.80 1.382
338.90 1.381
339.00 1.38
339.10 1.379
339.20 1.379
339.30 1.378
339.40 1.377
339.50 1.376
339.60 1.375
339.70 1.374
339.80 1.373
339.90 1.373
340.00 1.372
340.10 1.371
340.20 1.37
340.30 1.369
340.40 1.368
340.50 1.367
340.60 1.367
340.70 1.366
340.80 1.365
340.90 1.364
341.00 1.363
341.10 1.362
341.20 1.362
341.30 1.361
341.40 1.36
341.50 1.359
341.60 1.358
341.70 1.357
341.80 1.357
341.90 1.356
342.00 1.355
342.10 1.354
342.20 1.353
342.30 1.352
342.40 1.352
342.50 1.351
342.60 1.35
342.70 1.349
342.80 1.348
342.90 1.347
343.00 1.347
343.10 1.346
343.20 1.345
343.30 1.344
343.40 1.343
343.50 1.343
343.60 1.342
343.70 1.341
343.80 1.34
343.90 1.339
344.00 1.338
344.10 1.338
344.20 1.337
344.30 1.336
344.40 1.335
344.50 1.334
344.60 1.334
344.70 1.333
344.80 1.332
344.90 1.331
345.00 1.33
345.10 1.329
345.20 1.329
345.30 1.328
345.40 1.327
345.50 1.326
345.60 1.325
345.70 1.325
345.80 1.324
345.90 1.323
346.00 1.322
346.10 1.321
346.20 1.321
346.30 1.32
346.40 1.319
346.50 1.318
346.60 1.317
346.70 1.317
346.80 1.316
346.90 1.315
347.00 1.314
347.10 1.313
347.20 1.313
347.30 1.312
347.40 1.311
347.50 1.31
347.60 1.309
347.70 1.309
347.80 1.308
347.90 1.307
348.00 1.306
348.10 1.305
348.20 1.305
348.30 1.304
348.40 1.303
348.50 1.302
348.60 1.301
348.70 1.301
348.80 1.3
348.90 1.299
349.00 1.298
349.10 1.298
349.20 1.297
349.30 1.296
349.40 1.295
349.50 1.294
349.60 1.294
349.70 1.293
349.80 1.292
349.90 1.291
350.00 1.29
350.10 1.29
350.20 1.289
350.30 1.288
350.40 1.287
350.50 1.287
350.60 1.286
350.70 1.285
350.80 1.284
350.90 1.283
351.00 1.283
351.10 1.282
351.20 1.281
351.30 1.28
351.40 1.28
351.50 1.279
351.60 1.278
351.70 1.277
351.80 1.277
351.90 1.276
352.00 1.275
352.10 1.274
352.20 1.273
352.30 1.273
352.40 1.272
352.50 1.271
352.60 1.27
352.70 1.27
352.80 1.269
352.90 1.268
353.00 1.267
353.10 1.267
353.20 1.266
353.30 1.265
353.40 1.264
353.50 1.264
353.60 1.263
353.70 1.262
353.80 1.261
353.90 1.261
354.00 1.26
354.10 1.259
354.20 1.258
354.30 1.257
354.40 1.257
354.50 1.256
354.60 1.255
354.70 1.254
354.80 1.254
354.90 1.253
355.00 1.252
355.10 1.251
355.20 1.251
355.30 1.25
355.40 1.249
355.50 1.248
355.60 1.248
355.70 1.247
355.80 1.246
355.90 1.246
356.00 1.245
356.10 1.244
356.20 1.243
356.30 1.243
356.40 1.242
356.50 1.241
356.60 1.24
356.70 1.24
356.80 1.239
356.90 1.238
357.00 1.237
357.10 1.237
357.20 1.236
357.30 1.235
357.40 1.234
357.50 1.234
357.60 1.233
357.70 1.232
357.80 1.231
357.90 1.231
358.00 1.23
358.10 1.229
358.20 1.229
358.30 1.228
358.40 1.227
358.50 1.226
358.60 1.226
358.70 1.225
358.80 1.224
358.90 1.223
359.00 1.223
359.10 1.222
359.20 1.221
359.30 1.221
359.40 1.22
359.50 1.219
359.60 1.218
359.70 1.218
359.80 1.217
359.90 1.216
360.00 1.215
360.10 1.215
360.20 1.214
360.30 1.213
360.40 1.213
360.50 1.212
360.60 1.211
360.70 1.21
360.80 1.21
360.90 1.209
361.00 1.208
361.10 1.208
361.20 1.207
361.30 1.206
361.40 1.205
361.50 1.205
361.60 1.204
361.70 1.203
361.80 1.203
361.90 1.202
362.00 1.201
362.10 1.2
362.20 1.2
362.30 1.199
362.40 1.198
362.50 1.198
362.60 1.197
362.70 1.196
362.80 1.195
362.90 1.195
363.00 1.194
363.10 1.193
363.20 1.193
363.30 1.192
363.40 1.191
363.50 1.19
363.60 1.19
363.70 1.189
363.80 1.188
363.90 1.188
364.00 1.187
364.10 1.186
364.20 1.185
364.30 1.185
364.40 1.184
364.50 1.183
364.60 1.183
364.70 1.182
364.80 1.181
364.90 1.181
365.00 1.18
365.10 1.18
365.20 1.179
365.30 1.178
365.40 1.178
365.50 1.177
365.60 1.176
365.70 1.176
365.80 1.175
365.90 1.175
366.00 1.174
366.10 1.173
366.20 1.173
366.30 1.172
366.40 1.172
366.50 1.171
366.60 1.171
366.70 1.17
366.80 1.17
366.90 1.169
367.00 1.169
367.10 1.168
367.20 1.167
367.30 1.167
367.40 1.166
367.50 1.166
367.60 1.165
367.70 1.165
367.80 1.164
367.90 1.164
368.00 1.163
368.10 1.164
368.20 1.165
368.30 1.166
368.40 1.167
368.50 1.168
368.60 1.169
368.70 1.17
368.80 1.171
368.90 1.172
369.00 1.173
369.10 1.174
369.20 1.175
369.30 1.176
369.40 1.177
369.50 1.178
369.60 1.179
369.70 1.18
369.80 1.181
369.90 1.182
370.00 1.183
370.10 1.187
370.20 1.19
370.30 1.194
370.40 1.198
370.50 1.201
370.60 1.205
370.70 1.209
370.80 1.212
370.90 1.216
371.00 1.219
371.10 1.223
371.20 1.227
371.30 1.23
371.40 1.234
371.50 1.238
371.60 1.241
371.70 1.245
371.80 1.248
371.90 1.252
372.00 1.256
372.10 1.261
372.20 1.267
372.30 1.273
372.40 1.278
372.50 1.284
372.60 1.29
372.70 1.295
372.80 1.301
372.90 1.307
373.00 1.313
373.10 1.318
373.20 1.324
373.30 1.329
373.40 1.335
373.50 1.341
373.60 1.346
373.70 1.352
373.80 1.358
373.90 1.363
374.00 1.369
374.10 1.375
374.20 1.38
374.30 1.386
374.40 1.392
374.50 1.398
374.60 1.403
374.70 1.409
374.80 1.415
374.90 1.42
375.00 1.426
375.10 1.432
375.20 1.438
375.30 1.443
375.40 1.449
375.50 1.455
375.60 1.46
375.70 1.466
375.80 1.472
375.90 1.477
376.00 1.483
376.10 1.486
376.20 1.488
376.30 1.491
376.40 1.494
376.50 1.496
376.60 1.499
376.70 1.501
376.80 1.504
376.90 1.507
377.00 1.509
377.10 1.504
377.20 1.498
377.30 1.493
377.40 1.487
377.50 1.481
377.60 1.476
377.70 1.47
377.80 1.465
377.90 1.459
378.00 1.454
378.10 1.426
378.20 1.398
378.30 1.37
378.40 1.342
378.50 1.314
378.60 1.286
378.70 1.258
378.80 1.231
378.90 1.203
379.00 1.175
379.10 1.152
379.20 1.128
379.30 1.105
379.40 1.082
379.50 1.058
379.60 1.035
379.70 1.012
379.80 0.9882
379.90 0.965
380.00 0.9417
380.10 0.9783
380.20 1.015
380.30 1.051
380.40 1.088
380.50 1.124
380.60 1.16
380.70 1.197
380.80 1.233
380.90 1.269
381.00 1.306
381.10 1.322
381.20 1.338
381.30 1.354
381.40 1.37
381.50 1.386
381.60 1.389
381.70 1.387
381.80 1.381
381.90 1.37
382.00 1.355
382.10 1.335
382.20 1.31
382.30 1.269
382.40 1.228
382.50 1.187
382.60 1.146
382.70 1.105
382.80 1.065
382.90 1.024
383.00 0.9831
383.10 0.9424
383.20 0.9017
383.30 0.8553
383.40 0.8062
383.50 0.7507
383.60 0.7637
383.70 0.8164
383.80 0.8645
383.90 0.91
384.00 0.9548
384.10 0.9998
384.20 1.045
384.30 1.09
384.40 1.136
384.50 1.181
384.60 1.225
384.70 1.267
384.80 1.305
384.90 1.341
385.00 1.374
385.10 1.402
385.20 1.428
385.30 1.451
385.40 1.47
385.50 1.487
385.60 1.501
385.70 1.512
385.80 1.521
385.90 1.529
386.00 1.533
386.10 1.535
386.20 1.535
386.30 1.532
386.40 1.527
386.50 1.521
386.60 1.511
386.70 1.499
386.80 1.485
386.90 1.468
387.00 1.449
387.10 1.428
387.20 1.404
387.30 1.377
387.40 1.347
387.50 1.314
387.60 1.278
387.70 1.239
387.80 1.196
387.90 1.152
388.00 1.106
388.10 1.058
388.20 1.01
388.30 0.9618
388.40 0.9147
388.50 0.8677
388.60 0.8206
388.70 0.7705
388.80 0.7132
388.90 0.6487
389.00 0.7091
389.10 0.7643
389.20 0.8142
389.30 0.8607
389.40 0.907
389.50 0.9533
389.60 1
389.70 1.048
389.80 1.095
389.90 1.142
390.00 1.187
390.10 1.23
390.20 1.27
390.30 1.308
390.40 1.344
390.50 1.376
390.60 1.407
390.70 1.436
390.80 1.462
390.90 1.487
391.00 1.51
391.10 1.531
391.20 1.551
391.30 1.57
391.40 1.587
391.50 1.603
391.60 1.618
391.70 1.631
391.80 1.643
391.90 1.654
392.00 1.663
392.10 1.672
392.20 1.679
392.30 1.686
392.40 1.691
392.50 1.695
392.60 1.698
392.70 1.7
392.80 1.701
392.90 1.701
393.00 1.7
393.10 1.698
393.20 1.694
393.30 1.69
393.40 1.684
393.50 1.678
393.60 1.67
393.70 1.661
393.80 1.651
393.90 1.64
394.00 1.628
394.10 1.614
394.20 1.599
394.30 1.583
394.40 1.565
394.50 1.547
394.60 1.527
394.70 1.505
394.80 1.483
394.90 1.459
395.00 1.433
395.10 1.406
395.20 1.379
395.30 1.348
395.40 1.317
395.50 1.284
395.60 1.248
395.70 1.211
395.80 1.173
395.90 1.132
396.00 1.089
396.10 1.046
396.20 1.001
396.30 0.9556
396.40 0.9096
396.50 0.8642
396.60 0.819
396.70 0.7739
396.80 0.7245
396.90 0.6583
397.00 0.5753
397.10 0.6527
397.20 0.7162
397.30 0.766
397.40 0.8105
397.50 0.8549
397.60 0.8993
397.70 0.9443
397.80 0.9888
397.90 1.033
398.00 1.075
398.10 1.116
398.20 1.156
398.30 1.194
398.40 1.23
398.50 1.265
398.60 1.297
398.70 1.328
398.80 1.358
398.90 1.385
399.00 1.411
399.10 1.437
399.20 1.461
399.30 1.484
399.40 1.506
399.50 1.526
399.60 1.546
399.70 1.564
399.80 1.582
399.90 1.598
400.00 1.614
400.10 1.629
400.20 1.643
400.30 1.656
400.40 1.668
400.50 1.68
400.60 1.69
400.70 1.7
400.80 1.71
400.90 1.719
401.00 1.727
401.10 1.735
401.20 1.742
401.30 1.748
401.40 1.754
401.50 1.76
401.60 1.765
401.70 1.769
401.80 1.774
401.90 1.778
402.00 1.781
402.10 1.784
402.20 1.787
402.30 1.789
402.40 1.791
402.50 1.793
402.60 1.794
402.70 1.796
402.80 1.797
402.90 1.797
403.00 1.797
403.10 1.797
403.20 1.797
403.30 1.797
403.40 1.796
403.50 1.795
403.60 1.794
403.70 1.792
403.80 1.791
403.90 1.789
404.00 1.786
404.10 1.784
404.20 1.781
404.30 1.778
404.40 1.775
404.50 1.772
404.60 1.768
404.70 1.764
404.80 1.759
404.90 1.755
405.00 1.75
405.10 1.744
405.20 1.738
405.30 1.732
405.40 1.726
405.50 1.719
405.60 1.712
405.70 1.704
405.80 1.696
405.90 1.687
406.00 1.678
406.10 1.669
406.20 1.659
406.30 1.648
406.40 1.637
406.50 1.625
406.60 1.613
406.70 1.6
406.80 1.586
406.90 1.571
407.00 1.556
407.10 1.54
407.20 1.523
407.30 1.504
407.40 1.485
407.50 1.466
407.60 1.445
407.70 1.423
407.80 1.4
407.90 1.376
408.00 1.352
408.10 1.327
408.20 1.3
408.30 1.273
408.40 1.245
408.50 1.216
408.60 1.187
408.70 1.156
408.80 1.124
408.90 1.092
409.00 1.058
409.10 1.023
409.20 0.9868
409.30 0.9499
409.40 0.9111
409.50 0.8716
409.60 0.8316
409.70 0.7914
409.80 0.7511
409.90 0.7107
410.00 0.6614
410.10 0.6019
410.20 0.5323
410.30 0.6211
410.40 0.6874
410.50 0.7313
410.60 0.7706
410.70 0.8099
410.80 0.8492
410.90 0.8879
411.00 0.9258
411.10 0.9627
411.20 0.9978
411.30 1.032
411.40 1.065
411.50 1.097
411.60 1.127
411.70 1.157
411.80 1.185
411.90 1.212
412.00 1.239
412.10 1.264
412.20 1.289
412.30 1.313
412.40 1.336
412.50 1.358
412.60 1.379
412.70 1.399
412.80 1.418
412.90 1.437
413.00 1.454
413.10 1.47
413.20 1.486
413.30 1.5
413.40 1.514
413.50 1.527
413.60 1.539
413.70 1.55
413.80 1.561
413.90 1.571
414.00 1.581
414.10 1.59
414.20 1.598
414.30 1.606
414.40 1.614
414.50 1.621
414.60 1.627
414.70 1.634
414.80 1.639
414.90 1.645
415.00 1.65
415.10 1.655
415.20 1.659
415.30 1.664
415.40 1.668
415.50 1.671
415.60 1.675
415.70 1.678
415.80 1.681
415.90 1.684
416.00 1.686
416.10 1.689
416.20 1.691
416.30 1.693
416.40 1.695
416.50 1.697
416.60 1.698
416.70 1.7
416.80 1.701
416.90 1.702
417.00 1.703
417.10 1.705
417.20 1.705
417.30 1.706
417.40 1.707
417.50 1.708
417.60 1.708
417.70 1.709
417.80 1.709
417.90 1.709
418.00 1.71
418.10 1.71
418.20 1.71
418.30 1.71
418.40 1.71
418.50 1.71
418.60 1.71
418.70 1.71
418.80 1.709
418.90 1.709
419.00 1.709
419.10 1.709
419.20 1.708
419.30 1.708
419.40 1.707
419.50 1.707
419.60 1.706
419.70 1.706
419.80 1.705
419.90 1.704
420.00 1.704
420.10 1.703
420.20 1.702
420.30 1.702
420.40 1.701
420.50 1.7
420.60 1.699
420.70 1.698
420.80 1.697
420.90 1.697
421.00 1.696
421.10 1.695
421.20 1.694
421.30 1.693
421.40 1.692
421.50 1.691
421.60 1.689
421.70 1.688
421.80 1.687
421.90 1.686
422.00 1.685
422.10 1.684
422.20 1.682
422.30 1.681
422.40 1.68
422.50 1.679
422.60 1.677
422.70 1.676
422.80 1.675
422.90 1.673
423.00 1.672
423.10 1.671
423.20 1.669
423.30 1.668
423.40 1.666
423.50 1.665
423.60 1.663
423.70 1.661
423.80 1.66
423.90 1.658
424.00 1.657
424.10 1.655
424.20 1.653
424.30 1.651
424.40 1.65
424.50 1.648
424.60 1.646
424.70 1.644
424.80 1.642
424.90 1.64
425.00 1.638
425.10 1.636
425.20 1.634
425.30 1.632
425.40 1.63
425.50 1.628
425.60 1.625
425.70 1.623
425.80 1.621
425.90 1.618
426.00 1.616
426.10 1.613
426.20 1.61
426.30 1.607
426.40 1.604
426.50 1.602
426.60 1.599
426.70 1.596
426.80 1.593
426.90 1.59
427.00 1.586
427.10 1.583
427.20 1.58
427.30 1.576
427.40 1.573
427.50 1.569
427.60 1.565
427.70 1.561
427.80 1.557
427.90 1.553
428.00 1.548
428.10 1.544
428.20 1.539
428.30 1.534
428.40 1.529
428.50 1.524
428.60 1.519
428.70 1.513
428.80 1.507
428.90 1.501
429.00 1.495
429.10 1.489
429.20 1.482
429.30 1.475
429.40 1.468
429.50 1.461
429.60 1.453
429.70 1.445
429.80 1.436
429.90 1.428
430.00 1.419
430.10 1.409
430.20 1.4
430.30 1.39
430.40 1.379
430.50 1.368
430.60 1.357
430.70 1.345
430.80 1.333
430.90 1.32
431.00 1.307
431.10 1.294
431.20 1.28
431.30 1.265
431.40 1.25
431.50 1.235
431.60 1.218
431.70 1.201
431.80 1.183
431.90 1.163
432.00 1.143
432.10 1.122
432.20 1.099
432.30 1.076
432.40 1.051
432.50 1.024
432.60 0.9962
432.70 0.9675
432.80 0.9383
432.90 0.9093
433.00 0.8806
433.10 0.8528
433.20 0.8246
433.30 0.7958
433.40 0.7649
433.50 0.7332
433.60 0.7007
433.70 0.6676
433.80 0.6311
433.90 0.5914
434.00 0.4851
434.10 0.4863
434.20 0.5946
434.30 0.6331
434.40 0.6685
434.50 0.701
434.60 0.7326
434.70 0.7634
434.80 0.7933
434.90 0.821
435.00 0.8482
435.10 0.8749
435.20 0.9024
435.30 0.9301
435.40 0.958
435.50 0.9851
435.60 1.011
435.70 1.036
435.80 1.059
435.90 1.081
436.00 1.102
436.10 1.121
436.20 1.139
436.30 1.157
436.40 1.173
436.50 1.188
436.60 1.202
436.70 1.216
436.80 1.229
436.90 1.241
437.00 1.253
437.10 1.264
437.20 1.275
437.30 1.285
437.40 1.295
437.50 1.304
437.60 1.313
437.70 1.322
437.80 1.33
437.90 1.338
438.00 1.345
438.10 1.352
438.20 1.358
438.30 1.365
438.40 1.371
438.50 1.376
438.60 1.381
438.70 1.386
438.80 1.391
438.90 1.395
439.00 1.4
439.10 1.404
439.20 1.407
439.30 1.411
439.40 1.414
439.50 1.417
439.60 1.42
439.70 1.423
439.80 1.425
439.90 1.428
440.00 1.43
440.10 1.432
440.20 1.434
440.30 1.436
440.40 1.437
440.50 1.439
440.60 1.44
440.70 1.442
440.80 1.443
440.90 1.444
441.00 1.445
441.10 1.446
441.20 1.447
441.30 1.448
441.40 1.448
441.50 1.449
441.60 1.45
441.70 1.45
441.80 1.451
441.90 1.451
442.00 1.451
442.10 1.452
442.20 1.452
442.30 1.452
442.40 1.452
442.50 1.452
442.60 1.452
442.70 1.452
442.80 1.452
442.90 1.452
443.00 1.452
443.10 1.452
443.20 1.451
443.30 1.451
443.40 1.451
443.50 1.451
443.60 1.45
443.70 1.45
443.80 1.45
443.90 1.449
444.00 1.449
444.10 1.448
444.20 1.448
444.30 1.447
444.40 1.447
444.50 1.446
444.60 1.446
444.70 1.445
444.80 1.445
444.90 1.444
445.00 1.444
445.10 1.443
445.20 1.442
445.30 1.442
445.40 1.441
445.50 1.44
445.60 1.44
445.70 1.439
445.80 1.438
445.90 1.438
446.00 1.437
446.10 1.436
446.20 1.435
446.30 1.435
446.40 1.434
446.50 1.433
446.60 1.432
446.70 1.432
446.80 1.431
446.90 1.43
447.00 1.429
447.10 1.428
447.20 1.428
447.30 1.427
447.40 1.426
447.50 1.425
447.60 1.424
447.70 1.424
447.80 1.423
447.90 1.422
448.00 1.421
448.10 1.42
448.20 1.42
448.30 1.419
448.40 1.418
448.50 1.417
448.60 1.416
448.70 1.415
448.80 1.414
448.90 1.414
449.00 1.413
449.10 1.412
449.20 1.411
449.30 1.41
449.40 1.409
449.50 1.408
449.60 1.408
449.70 1.407
449.80 1.406
449.90 1.405
450.00 1.404
450.10 1.403
450.20 1.402
450.30 1.401
450.40 1.4
450.50 1.4
450.60 1.399
450.70 1.398
450.80 1.397
450.90 1.396
451.00 1.395
451.10 1.394
451.20 1.393
451.30 1.392
451.40 1.392
451.50 1.391
451.60 1.39
451.70 1.389
451.80 1.388
451.90 1.387
452.00 1.386
452.10 1.385
452.20 1.384
452.30 1.383
452.40 1.382
452.50 1.382
452.60 1.381
452.70 1.38
452.80 1.379
452.90 1.378
453.00 1.377
453.10 1.376
453.20 1.375
453.30 1.374
453.40 1.373
453.50 1.372
