# Version 2.1 - nm, norm@500 to 1, cut digits, bergeron_14000_70.dat_14000
# Wavelength(nm)  Flambda(ergs/cm^s/s/nm)
300.00 1.933
300.10 1.931
300.20 1.93
300.30 1.928
300.40 1.927
300.50 1.926
300.60 1.924
300.70 1.923
300.80 1.922
300.90 1.92
301.00 1.919
301.10 1.917
301.20 1.916
301.30 1.915
301.40 1.913
301.50 1.912
301.60 1.911
301.70 1.909
301.80 1.908
301.90 1.906
302.00 1.905
302.10 1.904
302.20 1.902
302.30 1.901
302.40 1.9
302.50 1.898
302.60 1.897
302.70 1.896
302.80 1.894
302.90 1.893
303.00 1.892
303.10 1.89
303.20 1.889
303.30 1.888
303.40 1.886
303.50 1.885
303.60 1.884
303.70 1.882
303.80 1.881
303.90 1.879
304.00 1.878
304.10 1.877
304.20 1.876
304.30 1.874
304.40 1.873
304.50 1.872
304.60 1.87
304.70 1.869
304.80 1.868
304.90 1.866
305.00 1.865
305.10 1.864
305.20 1.862
305.30 1.861
305.40 1.86
305.50 1.858
305.60 1.857
305.70 1.856
305.80 1.854
305.90 1.853
306.00 1.852
306.10 1.85
306.20 1.849
306.30 1.848
306.40 1.847
306.50 1.845
306.60 1.844
306.70 1.843
306.80 1.841
306.90 1.84
307.00 1.839
307.10 1.837
307.20 1.836
307.30 1.835
307.40 1.834
307.50 1.832
307.60 1.831
307.70 1.83
307.80 1.828
307.90 1.827
308.00 1.826
308.10 1.825
308.20 1.823
308.30 1.822
308.40 1.821
308.50 1.819
308.60 1.818
308.70 1.817
308.80 1.816
308.90 1.814
309.00 1.813
309.10 1.812
309.20 1.811
309.30 1.809
309.40 1.808
309.50 1.807
309.60 1.805
309.70 1.804
309.80 1.803
309.90 1.802
310.00 1.8
310.10 1.799
310.20 1.798
310.30 1.797
310.40 1.795
310.50 1.794
310.60 1.793
310.70 1.792
310.80 1.79
310.90 1.789
311.00 1.788
311.10 1.787
311.20 1.785
311.30 1.784
311.40 1.783
311.50 1.782
311.60 1.78
311.70 1.779
311.80 1.778
311.90 1.777
312.00 1.775
312.10 1.774
312.20 1.773
312.30 1.772
312.40 1.771
312.50 1.769
312.60 1.768
312.70 1.767
312.80 1.766
312.90 1.764
313.00 1.763
313.10 1.762
313.20 1.761
313.30 1.76
313.40 1.758
313.50 1.757
313.60 1.756
313.70 1.755
313.80 1.753
313.90 1.752
314.00 1.751
314.10 1.75
314.20 1.749
314.30 1.747
314.40 1.746
314.50 1.745
314.60 1.744
314.70 1.743
314.80 1.741
314.90 1.74
315.00 1.739
315.10 1.738
315.20 1.737
315.30 1.735
315.40 1.734
315.50 1.733
315.60 1.732
315.70 1.731
315.80 1.729
315.90 1.728
316.00 1.727
316.10 1.726
316.20 1.725
316.30 1.723
316.40 1.722
316.50 1.721
316.60 1.72
316.70 1.719
316.80 1.718
316.90 1.716
317.00 1.715
317.10 1.714
317.20 1.713
317.30 1.712
317.40 1.711
317.50 1.709
317.60 1.708
317.70 1.707
317.80 1.706
317.90 1.705
318.00 1.703
318.10 1.702
318.20 1.701
318.30 1.7
318.40 1.699
318.50 1.698
318.60 1.697
318.70 1.695
318.80 1.694
318.90 1.693
319.00 1.692
319.10 1.691
319.20 1.69
319.30 1.688
319.40 1.687
319.50 1.686
319.60 1.685
319.70 1.684
319.80 1.683
319.90 1.682
320.00 1.68
320.10 1.679
320.20 1.678
320.30 1.677
320.40 1.676
320.50 1.675
320.60 1.674
320.70 1.672
320.80 1.671
320.90 1.67
321.00 1.669
321.10 1.668
321.20 1.667
321.30 1.666
321.40 1.664
321.50 1.663
321.60 1.662
321.70 1.661
321.80 1.66
321.90 1.659
322.00 1.658
322.10 1.657
322.20 1.655
322.30 1.654
322.40 1.653
322.50 1.652
322.60 1.651
322.70 1.65
322.80 1.649
322.90 1.648
323.00 1.647
323.10 1.645
323.20 1.644
323.30 1.643
323.40 1.642
323.50 1.641
323.60 1.64
323.70 1.639
323.80 1.638
323.90 1.637
324.00 1.635
324.10 1.634
324.20 1.633
324.30 1.632
324.40 1.631
324.50 1.63
324.60 1.629
324.70 1.628
324.80 1.627
324.90 1.626
325.00 1.624
325.10 1.623
325.20 1.622
325.30 1.621
325.40 1.62
325.50 1.619
325.60 1.618
325.70 1.617
325.80 1.616
325.90 1.615
326.00 1.614
326.10 1.612
326.20 1.611
326.30 1.61
326.40 1.609
326.50 1.608
326.60 1.607
326.70 1.606
326.80 1.605
326.90 1.604
327.00 1.603
327.10 1.602
327.20 1.601
327.30 1.6
327.40 1.598
327.50 1.597
327.60 1.596
327.70 1.595
327.80 1.594
327.90 1.593
328.00 1.592
328.10 1.591
328.20 1.59
328.30 1.589
328.40 1.588
328.50 1.587
328.60 1.586
328.70 1.585
328.80 1.584
328.90 1.583
329.00 1.581
329.10 1.58
329.20 1.579
329.30 1.578
329.40 1.577
329.50 1.576
329.60 1.575
329.70 1.574
329.80 1.573
329.90 1.572
330.00 1.571
330.10 1.57
330.20 1.569
330.30 1.568
330.40 1.567
330.50 1.566
330.60 1.565
330.70 1.564
330.80 1.563
330.90 1.562
331.00 1.561
331.10 1.56
331.20 1.558
331.30 1.557
331.40 1.556
331.50 1.555
331.60 1.554
331.70 1.553
331.80 1.552
331.90 1.551
332.00 1.55
332.10 1.549
332.20 1.548
332.30 1.547
332.40 1.546
332.50 1.545
332.60 1.544
332.70 1.543
332.80 1.542
332.90 1.541
333.00 1.54
333.10 1.539
333.20 1.538
333.30 1.537
333.40 1.536
333.50 1.535
333.60 1.534
333.70 1.533
333.80 1.532
333.90 1.531
334.00 1.53
334.10 1.529
334.20 1.528
334.30 1.527
334.40 1.526
334.50 1.525
334.60 1.524
334.70 1.523
334.80 1.522
334.90 1.521
335.00 1.52
335.10 1.519
335.20 1.518
335.30 1.517
335.40 1.516
335.50 1.515
335.60 1.514
335.70 1.513
335.80 1.512
335.90 1.511
336.00 1.51
336.10 1.509
336.20 1.508
336.30 1.507
336.40 1.506
336.50 1.505
336.60 1.504
336.70 1.503
336.80 1.502
336.90 1.501
337.00 1.5
337.10 1.499
337.20 1.498
337.30 1.497
337.40 1.496
337.50 1.495
337.60 1.494
337.70 1.493
337.80 1.492
337.90 1.491
338.00 1.49
338.10 1.489
338.20 1.488
338.30 1.487
338.40 1.486
338.50 1.485
338.60 1.484
338.70 1.483
338.80 1.482
338.90 1.482
339.00 1.481
339.10 1.48
339.20 1.479
339.30 1.478
339.40 1.477
339.50 1.476
339.60 1.475
339.70 1.474
339.80 1.473
339.90 1.472
340.00 1.471
340.10 1.47
340.20 1.469
340.30 1.468
340.40 1.467
340.50 1.466
340.60 1.465
340.70 1.464
340.80 1.463
340.90 1.462
341.00 1.461
341.10 1.46
341.20 1.46
341.30 1.459
341.40 1.458
341.50 1.457
341.60 1.456
341.70 1.455
341.80 1.454
341.90 1.453
342.00 1.452
342.10 1.451
342.20 1.45
342.30 1.449
342.40 1.448
342.50 1.447
342.60 1.446
342.70 1.445
342.80 1.444
342.90 1.444
343.00 1.443
343.10 1.442
343.20 1.441
343.30 1.44
343.40 1.439
343.50 1.438
343.60 1.437
343.70 1.436
343.80 1.435
343.90 1.434
344.00 1.433
344.10 1.432
344.20 1.431
344.30 1.431
344.40 1.43
344.50 1.429
344.60 1.428
344.70 1.427
344.80 1.426
344.90 1.425
345.00 1.424
345.10 1.423
345.20 1.422
345.30 1.421
345.40 1.42
345.50 1.42
345.60 1.419
345.70 1.418
345.80 1.417
345.90 1.416
346.00 1.415
346.10 1.414
346.20 1.413
346.30 1.412
346.40 1.411
346.50 1.41
346.60 1.41
346.70 1.409
346.80 1.408
346.90 1.407
347.00 1.406
347.10 1.405
347.20 1.404
347.30 1.403
347.40 1.402
347.50 1.401
347.60 1.401
347.70 1.4
347.80 1.399
347.90 1.398
348.00 1.397
348.10 1.396
348.20 1.395
348.30 1.394
348.40 1.393
348.50 1.392
348.60 1.392
348.70 1.391
348.80 1.39
348.90 1.389
349.00 1.388
349.10 1.387
349.20 1.386
349.30 1.385
349.40 1.385
349.50 1.384
349.60 1.383
349.70 1.382
349.80 1.381
349.90 1.38
350.00 1.379
350.10 1.378
350.20 1.377
350.30 1.377
350.40 1.376
350.50 1.375
350.60 1.374
350.70 1.373
350.80 1.372
350.90 1.371
351.00 1.37
351.10 1.37
351.20 1.369
351.30 1.368
351.40 1.367
351.50 1.366
351.60 1.365
351.70 1.364
351.80 1.364
351.90 1.363
352.00 1.362
352.10 1.361
352.20 1.36
352.30 1.359
352.40 1.358
352.50 1.357
352.60 1.357
352.70 1.356
352.80 1.355
352.90 1.354
353.00 1.353
353.10 1.352
353.20 1.351
353.30 1.351
353.40 1.35
353.50 1.349
353.60 1.348
353.70 1.347
353.80 1.346
353.90 1.345
354.00 1.345
354.10 1.344
354.20 1.343
354.30 1.342
354.40 1.341
354.50 1.34
354.60 1.34
354.70 1.339
354.80 1.338
354.90 1.337
355.00 1.336
355.10 1.335
355.20 1.334
355.30 1.334
355.40 1.333
355.50 1.332
355.60 1.331
355.70 1.33
355.80 1.329
355.90 1.329
356.00 1.328
356.10 1.327
356.20 1.326
356.30 1.325
356.40 1.324
356.50 1.324
356.60 1.323
356.70 1.322
356.80 1.321
356.90 1.32
357.00 1.319
357.10 1.319
357.20 1.318
357.30 1.317
357.40 1.316
357.50 1.315
357.60 1.314
357.70 1.314
357.80 1.313
357.90 1.312
358.00 1.311
358.10 1.31
358.20 1.31
358.30 1.309
358.40 1.308
358.50 1.307
358.60 1.306
358.70 1.305
358.80 1.305
358.90 1.304
359.00 1.303
359.10 1.302
359.20 1.301
359.30 1.301
359.40 1.3
359.50 1.299
359.60 1.298
359.70 1.297
359.80 1.297
359.90 1.296
360.00 1.295
360.10 1.294
360.20 1.293
360.30 1.292
360.40 1.292
360.50 1.291
360.60 1.29
360.70 1.289
360.80 1.288
360.90 1.288
361.00 1.287
361.10 1.286
361.20 1.285
361.30 1.284
361.40 1.284
361.50 1.283
361.60 1.282
361.70 1.281
361.80 1.28
361.90 1.28
362.00 1.279
362.10 1.278
362.20 1.277
362.30 1.276
362.40 1.276
362.50 1.275
362.60 1.274
362.70 1.273
362.80 1.273
362.90 1.272
363.00 1.271
363.10 1.27
363.20 1.269
363.30 1.268
363.40 1.268
363.50 1.267
363.60 1.266
363.70 1.265
363.80 1.264
363.90 1.264
364.00 1.263
364.10 1.262
364.20 1.261
364.30 1.26
364.40 1.259
364.50 1.259
364.60 1.258
364.70 1.257
364.80 1.256
364.90 1.256
365.00 1.255
365.10 1.254
365.20 1.253
365.30 1.252
365.40 1.252
365.50 1.251
365.60 1.25
365.70 1.249
365.80 1.249
365.90 1.248
366.00 1.247
366.10 1.246
366.20 1.246
366.30 1.245
366.40 1.244
366.50 1.243
366.60 1.243
366.70 1.242
366.80 1.241
366.90 1.24
367.00 1.24
367.10 1.239
367.20 1.238
367.30 1.238
367.40 1.237
367.50 1.236
367.60 1.235
367.70 1.235
367.80 1.234
367.90 1.233
368.00 1.233
368.10 1.233
368.20 1.233
368.30 1.233
368.40 1.233
368.50 1.233
368.60 1.233
368.70 1.233
368.80 1.233
368.90 1.233
369.00 1.233
369.10 1.233
369.20 1.233
369.30 1.233
369.40 1.233
369.50 1.233
369.60 1.233
369.70 1.233
369.80 1.234
369.90 1.234
370.00 1.234
370.10 1.235
370.20 1.237
370.30 1.239
370.40 1.241
370.50 1.242
370.60 1.244
370.70 1.246
370.80 1.248
370.90 1.249
371.00 1.251
371.10 1.253
371.20 1.255
371.30 1.256
371.40 1.258
371.50 1.26
371.60 1.262
371.70 1.263
371.80 1.265
371.90 1.267
372.00 1.269
372.10 1.272
372.20 1.276
372.30 1.279
372.40 1.283
372.50 1.286
372.60 1.289
372.70 1.293
372.80 1.296
372.90 1.3
373.00 1.303
373.10 1.307
373.20 1.31
373.30 1.314
373.40 1.317
373.50 1.321
373.60 1.324
373.70 1.327
373.80 1.331
373.90 1.334
374.00 1.338
374.10 1.342
374.20 1.346
374.30 1.349
374.40 1.353
374.50 1.357
374.60 1.361
374.70 1.365
374.80 1.369
374.90 1.373
375.00 1.377
375.10 1.381
375.20 1.384
375.30 1.388
375.40 1.392
375.50 1.396
375.60 1.4
375.70 1.404
375.80 1.408
375.90 1.411
376.00 1.415
376.10 1.417
376.20 1.419
376.30 1.421
376.40 1.423
376.50 1.425
376.60 1.427
376.70 1.429
376.80 1.431
376.90 1.433
377.00 1.435
377.10 1.431
377.20 1.428
377.30 1.425
377.40 1.421
377.50 1.418
377.60 1.415
377.70 1.411
377.80 1.408
377.90 1.405
378.00 1.401
378.10 1.383
378.20 1.364
378.30 1.345
378.40 1.327
378.50 1.308
378.60 1.29
378.70 1.271
378.80 1.252
378.90 1.234
379.00 1.215
379.10 1.2
379.20 1.185
379.30 1.17
379.40 1.156
379.50 1.141
379.60 1.126
379.70 1.111
379.80 1.096
379.90 1.081
380.00 1.067
380.10 1.09
380.20 1.114
380.30 1.137
380.40 1.161
380.50 1.184
380.60 1.208
380.70 1.231
380.80 1.254
380.90 1.278
381.00 1.301
381.10 1.311
381.20 1.321
381.30 1.33
381.40 1.34
381.50 1.35
381.60 1.35
381.70 1.348
381.80 1.342
381.90 1.334
382.00 1.322
382.10 1.308
382.20 1.289
382.30 1.257
382.40 1.225
382.50 1.193
382.60 1.161
382.70 1.129
382.80 1.097
382.90 1.065
383.00 1.034
383.10 1.002
383.20 0.9701
383.30 0.938
383.40 0.9026
383.50 0.8649
383.60 0.8728
383.70 0.91
383.80 0.9445
383.90 0.9761
384.00 1.009
384.10 1.045
384.20 1.082
384.30 1.12
384.40 1.157
384.50 1.194
384.60 1.229
384.70 1.261
384.80 1.291
384.90 1.317
385.00 1.341
385.10 1.361
385.20 1.379
385.30 1.395
385.40 1.408
385.50 1.42
385.60 1.43
385.70 1.437
385.80 1.442
385.90 1.447
386.00 1.449
386.10 1.449
386.20 1.448
386.30 1.445
386.40 1.44
386.50 1.434
386.60 1.426
386.70 1.416
386.80 1.405
386.90 1.391
387.00 1.376
387.10 1.36
387.20 1.34
387.30 1.319
387.40 1.297
387.50 1.27
387.60 1.242
387.70 1.212
387.80 1.178
387.90 1.141
388.00 1.103
388.10 1.061
388.20 1.019
388.30 0.9766
388.40 0.935
388.50 0.8949
388.60 0.8563
388.70 0.8165
388.80 0.775
388.90 0.7319
389.00 0.7716
389.10 0.8113
389.20 0.8508
389.30 0.8886
389.40 0.9279
389.50 0.9687
389.60 1.011
389.70 1.053
389.80 1.094
389.90 1.133
390.00 1.17
390.10 1.206
390.20 1.237
390.30 1.268
390.40 1.296
390.50 1.322
390.60 1.346
390.70 1.369
390.80 1.39
390.90 1.41
391.00 1.429
391.10 1.447
391.20 1.464
391.30 1.48
391.40 1.494
391.50 1.508
391.60 1.521
391.70 1.533
391.80 1.544
391.90 1.554
392.00 1.563
392.10 1.571
392.20 1.578
392.30 1.584
392.40 1.589
392.50 1.593
392.60 1.595
392.70 1.597
392.80 1.598
392.90 1.598
393.00 1.597
393.10 1.594
393.20 1.591
393.30 1.586
393.40 1.581
393.50 1.574
393.60 1.566
393.70 1.558
393.80 1.548
393.90 1.537
394.00 1.525
394.10 1.511
394.20 1.497
394.30 1.482
394.40 1.466
394.50 1.449
394.60 1.431
394.70 1.411
394.80 1.391
394.90 1.37
395.00 1.348
395.10 1.325
395.20 1.302
395.30 1.277
395.40 1.25
395.50 1.223
395.60 1.194
395.70 1.164
395.80 1.133
395.90 1.099
396.00 1.064
396.10 1.028
396.20 0.9892
396.30 0.9493
396.40 0.9084
396.50 0.8672
396.60 0.8269
396.70 0.7875
396.80 0.7456
396.90 0.6935
397.00 0.6313
397.10 0.6886
397.20 0.7383
397.30 0.7804
397.40 0.819
397.50 0.8584
397.60 0.8985
397.70 0.9386
397.80 0.9776
397.90 1.016
398.00 1.051
398.10 1.085
398.20 1.118
398.30 1.148
398.40 1.178
398.50 1.206
398.60 1.233
398.70 1.258
398.80 1.283
398.90 1.306
399.00 1.329
399.10 1.351
399.20 1.372
399.30 1.393
399.40 1.413
399.50 1.432
399.60 1.451
399.70 1.469
399.80 1.486
399.90 1.502
400.00 1.518
400.10 1.533
400.20 1.547
400.30 1.561
400.40 1.574
400.50 1.587
400.60 1.599
400.70 1.61
400.80 1.621
400.90 1.631
401.00 1.64
401.10 1.649
401.20 1.657
401.30 1.665
401.40 1.672
401.50 1.679
401.60 1.686
401.70 1.692
401.80 1.697
401.90 1.702
402.00 1.706
402.10 1.711
402.20 1.714
402.30 1.718
402.40 1.721
402.50 1.723
402.60 1.725
402.70 1.727
402.80 1.729
402.90 1.73
403.00 1.731
403.10 1.731
403.20 1.731
403.30 1.731
403.40 1.731
403.50 1.73
403.60 1.729
403.70 1.727
403.80 1.725
403.90 1.723
404.00 1.721
404.10 1.718
404.20 1.715
404.30 1.712
404.40 1.708
404.50 1.704
404.60 1.7
404.70 1.695
404.80 1.69
404.90 1.684
405.00 1.679
405.10 1.672
405.20 1.666
405.30 1.658
405.40 1.651
405.50 1.643
405.60 1.635
405.70 1.626
405.80 1.617
405.90 1.607
406.00 1.597
406.10 1.586
406.20 1.574
406.30 1.563
406.40 1.55
406.50 1.538
406.60 1.524
406.70 1.51
406.80 1.495
406.90 1.48
407.00 1.464
407.10 1.448
407.20 1.43
407.30 1.412
407.40 1.394
407.50 1.374
407.60 1.354
407.70 1.334
407.80 1.313
407.90 1.291
408.00 1.268
408.10 1.246
408.20 1.222
408.30 1.198
408.40 1.174
408.50 1.149
408.60 1.124
408.70 1.098
408.80 1.071
408.90 1.044
409.00 1.016
409.10 0.987
409.20 0.957
409.30 0.9263
409.40 0.8932
409.50 0.8591
409.60 0.8238
409.70 0.7877
409.80 0.7517
409.90 0.7156
410.00 0.6714
410.10 0.6216
410.20 0.5664
410.30 0.6392
410.40 0.6949
410.50 0.7335
410.60 0.7687
410.70 0.8039
410.80 0.839
410.90 0.8725
411.00 0.9049
411.10 0.9359
411.20 0.9649
411.30 0.9931
411.40 1.021
411.50 1.047
411.60 1.072
411.70 1.097
411.80 1.121
411.90 1.144
412.00 1.167
412.10 1.19
412.20 1.212
412.30 1.233
412.40 1.254
412.50 1.274
412.60 1.294
412.70 1.313
412.80 1.332
412.90 1.35
413.00 1.367
413.10 1.383
413.20 1.399
413.30 1.414
413.40 1.429
413.50 1.443
413.60 1.456
413.70 1.469
413.80 1.481
413.90 1.493
414.00 1.504
414.10 1.514
414.20 1.524
414.30 1.534
414.40 1.543
414.50 1.552
414.60 1.561
414.70 1.569
414.80 1.576
414.90 1.584
415.00 1.59
415.10 1.597
415.20 1.603
415.30 1.609
415.40 1.614
415.50 1.62
415.60 1.625
415.70 1.629
415.80 1.634
415.90 1.638
416.00 1.642
416.10 1.646
416.20 1.649
416.30 1.653
416.40 1.656
416.50 1.659
416.60 1.662
416.70 1.664
416.80 1.667
416.90 1.669
417.00 1.671
417.10 1.673
417.20 1.675
417.30 1.677
417.40 1.679
417.50 1.68
417.60 1.681
417.70 1.683
417.80 1.684
417.90 1.685
418.00 1.686
418.10 1.687
418.20 1.688
418.30 1.688
418.40 1.689
418.50 1.69
418.60 1.69
418.70 1.69
418.80 1.691
418.90 1.691
419.00 1.691
419.10 1.691
419.20 1.692
419.30 1.692
419.40 1.691
419.50 1.691
419.60 1.691
419.70 1.691
419.80 1.691
419.90 1.69
420.00 1.69
420.10 1.69
420.20 1.689
420.30 1.689
420.40 1.688
420.50 1.688
420.60 1.687
420.70 1.687
420.80 1.686
420.90 1.685
421.00 1.684
421.10 1.683
421.20 1.683
421.30 1.682
421.40 1.681
421.50 1.68
421.60 1.679
421.70 1.678
421.80 1.677
421.90 1.676
422.00 1.675
422.10 1.674
422.20 1.672
422.30 1.671
422.40 1.67
422.50 1.669
422.60 1.667
422.70 1.666
422.80 1.665
422.90 1.663
423.00 1.662
423.10 1.66
423.20 1.658
423.30 1.657
423.40 1.655
423.50 1.654
423.60 1.652
423.70 1.65
423.80 1.648
423.90 1.646
424.00 1.645
424.10 1.643
424.20 1.641
424.30 1.639
424.40 1.637
424.50 1.634
424.60 1.632
424.70 1.63
424.80 1.628
424.90 1.625
425.00 1.623
425.10 1.62
425.20 1.618
425.30 1.615
425.40 1.613
425.50 1.61
425.60 1.607
425.70 1.604
425.80 1.601
425.90 1.598
426.00 1.595
426.10 1.592
426.20 1.588
426.30 1.584
426.40 1.581
426.50 1.577
426.60 1.574
426.70 1.57
426.80 1.566
426.90 1.562
427.00 1.558
427.10 1.554
427.20 1.55
427.30 1.545
427.40 1.541
427.50 1.536
427.60 1.531
427.70 1.526
427.80 1.521
427.90 1.515
428.00 1.51
428.10 1.504
428.20 1.499
428.30 1.493
428.40 1.486
428.50 1.48
428.60 1.473
428.70 1.467
428.80 1.46
428.90 1.452
429.00 1.445
429.10 1.437
429.20 1.429
429.30 1.421
429.40 1.413
429.50 1.404
429.60 1.395
429.70 1.385
429.80 1.376
429.90 1.366
430.00 1.355
430.10 1.345
430.20 1.334
430.30 1.323
430.40 1.311
430.50 1.299
430.60 1.287
430.70 1.274
430.80 1.261
430.90 1.248
431.00 1.234
431.10 1.22
431.20 1.206
431.30 1.191
431.40 1.176
431.50 1.161
431.60 1.145
431.70 1.128
431.80 1.111
431.90 1.093
432.00 1.075
432.10 1.056
432.20 1.036
432.30 1.015
432.40 0.9936
432.50 0.9704
432.60 0.9465
432.70 0.922
432.80 0.8969
432.90 0.8722
433.00 0.8478
433.10 0.8245
433.20 0.8009
433.30 0.7769
433.40 0.7508
433.50 0.7235
433.60 0.6951
433.70 0.6649
433.80 0.6316
433.90 0.5952
434.00 0.5056
434.10 0.5066
434.20 0.5982
434.30 0.6333
434.40 0.6656
434.50 0.695
434.60 0.7225
434.70 0.7489
434.80 0.7741
434.90 0.797
435.00 0.8197
435.10 0.842
435.20 0.8654
435.30 0.8889
435.40 0.9127
435.50 0.9359
435.60 0.9583
435.70 0.9799
435.80 0.9999
435.90 1.019
436.00 1.038
436.10 1.055
436.20 1.072
436.30 1.088
436.40 1.103
436.50 1.118
436.60 1.132
436.70 1.145
436.80 1.158
436.90 1.171
437.00 1.183
437.10 1.195
437.20 1.207
437.30 1.218
437.40 1.229
437.50 1.239
437.60 1.249
437.70 1.259
437.80 1.268
437.90 1.277
438.00 1.286
438.10 1.294
438.20 1.302
438.30 1.31
438.40 1.317
438.50 1.324
438.60 1.331
438.70 1.337
438.80 1.343
438.90 1.349
439.00 1.355
439.10 1.36
439.20 1.365
439.30 1.37
439.40 1.375
439.50 1.379
439.60 1.383
439.70 1.387
439.80 1.391
439.90 1.395
440.00 1.398
440.10 1.401
440.20 1.404
440.30 1.407
440.40 1.41
440.50 1.413
440.60 1.415
440.70 1.418
440.80 1.42
440.90 1.422
441.00 1.424
441.10 1.426
441.20 1.427
441.30 1.429
441.40 1.431
441.50 1.432
441.60 1.433
441.70 1.435
441.80 1.436
441.90 1.437
442.00 1.438
442.10 1.439
442.20 1.44
442.30 1.441
442.40 1.441
442.50 1.442
442.60 1.442
442.70 1.443
442.80 1.443
442.90 1.444
443.00 1.444
443.10 1.445
443.20 1.445
443.30 1.445
443.40 1.445
443.50 1.445
443.60 1.445
443.70 1.446
443.80 1.446
443.90 1.446
444.00 1.445
444.10 1.445
444.20 1.445
444.30 1.445
444.40 1.445
444.50 1.445
444.60 1.444
444.70 1.444
444.80 1.444
444.90 1.443
445.00 1.443
445.10 1.443
445.20 1.442
445.30 1.442
445.40 1.441
445.50 1.441
445.60 1.441
445.70 1.44
445.80 1.44
445.90 1.439
446.00 1.438
446.10 1.438
446.20 1.437
446.30 1.437
446.40 1.436
446.50 1.436
446.60 1.435
446.70 1.434
446.80 1.434
446.90 1.433
447.00 1.432
447.10 1.432
447.20 1.431
447.30 1.43
447.40 1.43
447.50 1.429
447.60 1.428
447.70 1.428
447.80 1.427
447.90 1.426
448.00 1.425
448.10 1.425
448.20 1.424
448.30 1.423
448.40 1.422
448.50 1.422
448.60 1.421
448.70 1.42
448.80 1.419
448.90 1.418
449.00 1.418
449.10 1.417
449.20 1.416
449.30 1.415
449.40 1.415
449.50 1.414
449.60 1.413
449.70 1.412
449.80 1.411
449.90 1.41
450.00 1.41
450.10 1.409
450.20 1.408
450.30 1.407
450.40 1.406
450.50 1.406
450.60 1.405
450.70 1.404
450.80 1.403
450.90 1.402
451.00 1.401
451.10 1.4
451.20 1.399
451.30 1.399
451.40 1.398
451.50 1.397
451.60 1.396
451.70 1.395
451.80 1.394
451.90 1.393
452.00 1.393
452.10 1.392
452.20 1.391
452.30 1.39
452.40 1.389
452.50 1.388
452.60 1.387
452.70 1.386
452.80 1.385
452.90 1.384
453.00 1.384
453.10 1.383
453.20 1.382
453.30 1.381
453.40 1.38
