# Version 2.1 - nm, norm@500 to 1, cut digits, bergeron_20000_65.dat_20000
# Wavelength(nm)  Flambda(ergs/cm^s/s/nm)
300.00 3.155
300.10 3.152
300.20 3.149
300.30 3.146
300.40 3.144
300.50 3.141
300.60 3.138
300.70 3.135
300.80 3.132
300.90 3.129
301.00 3.126
301.10 3.123
301.20 3.12
301.30 3.117
301.40 3.114
301.50 3.111
301.60 3.109
301.70 3.106
301.80 3.103
301.90 3.1
302.00 3.097
302.10 3.094
302.20 3.091
302.30 3.088
302.40 3.085
302.50 3.083
302.60 3.08
302.70 3.077
302.80 3.074
302.90 3.071
303.00 3.068
303.10 3.065
303.20 3.063
303.30 3.06
303.40 3.057
303.50 3.054
303.60 3.051
303.70 3.048
303.80 3.046
303.90 3.043
304.00 3.04
304.10 3.037
304.20 3.034
304.30 3.032
304.40 3.029
304.50 3.026
304.60 3.023
304.70 3.02
304.80 3.018
304.90 3.015
305.00 3.012
305.10 3.009
305.20 3.007
305.30 3.004
305.40 3.001
305.50 2.998
305.60 2.995
305.70 2.993
305.80 2.99
305.90 2.987
306.00 2.984
306.10 2.982
306.20 2.979
306.30 2.976
306.40 2.974
306.50 2.971
306.60 2.968
306.70 2.965
306.80 2.963
306.90 2.96
307.00 2.957
307.10 2.954
307.20 2.952
307.30 2.949
307.40 2.946
307.50 2.944
307.60 2.941
307.70 2.938
307.80 2.936
307.90 2.933
308.00 2.93
308.10 2.928
308.20 2.925
308.30 2.922
308.40 2.92
308.50 2.917
308.60 2.914
308.70 2.912
308.80 2.909
308.90 2.906
309.00 2.904
309.10 2.901
309.20 2.898
309.30 2.896
309.40 2.893
309.50 2.89
309.60 2.888
309.70 2.885
309.80 2.882
309.90 2.88
310.00 2.877
310.10 2.875
310.20 2.872
310.30 2.869
310.40 2.867
310.50 2.864
310.60 2.862
310.70 2.859
310.80 2.856
310.90 2.854
311.00 2.851
311.10 2.849
311.20 2.846
311.30 2.843
311.40 2.841
311.50 2.838
311.60 2.836
311.70 2.833
311.80 2.831
311.90 2.828
312.00 2.825
312.10 2.823
312.20 2.82
312.30 2.818
312.40 2.815
312.50 2.813
312.60 2.81
312.70 2.808
312.80 2.805
312.90 2.803
313.00 2.8
313.10 2.798
313.20 2.795
313.30 2.793
313.40 2.79
313.50 2.787
313.60 2.785
313.70 2.782
313.80 2.78
313.90 2.777
314.00 2.775
314.10 2.772
314.20 2.77
314.30 2.767
314.40 2.765
314.50 2.763
314.60 2.76
314.70 2.758
314.80 2.755
314.90 2.753
315.00 2.75
315.10 2.748
315.20 2.745
315.30 2.743
315.40 2.74
315.50 2.738
315.60 2.735
315.70 2.733
315.80 2.731
315.90 2.728
316.00 2.726
316.10 2.723
316.20 2.721
316.30 2.718
316.40 2.716
316.50 2.713
316.60 2.711
316.70 2.709
316.80 2.706
316.90 2.704
317.00 2.701
317.10 2.699
317.20 2.697
317.30 2.694
317.40 2.692
317.50 2.689
317.60 2.687
317.70 2.685
317.80 2.682
317.90 2.68
318.00 2.677
318.10 2.675
318.20 2.673
318.30 2.67
318.40 2.668
318.50 2.666
318.60 2.663
318.70 2.661
318.80 2.658
318.90 2.656
319.00 2.654
319.10 2.651
319.20 2.649
319.30 2.647
319.40 2.644
319.50 2.642
319.60 2.64
319.70 2.637
319.80 2.635
319.90 2.633
320.00 2.63
320.10 2.628
320.20 2.626
320.30 2.623
320.40 2.621
320.50 2.619
320.60 2.616
320.70 2.614
320.80 2.612
320.90 2.609
321.00 2.607
321.10 2.605
321.20 2.603
321.30 2.6
321.40 2.598
321.50 2.596
321.60 2.593
321.70 2.591
321.80 2.589
321.90 2.587
322.00 2.584
322.10 2.582
322.20 2.58
322.30 2.577
322.40 2.575
322.50 2.573
322.60 2.571
322.70 2.568
322.80 2.566
322.90 2.564
323.00 2.562
323.10 2.559
323.20 2.557
323.30 2.555
323.40 2.553
323.50 2.55
323.60 2.548
323.70 2.546
323.80 2.544
323.90 2.542
324.00 2.539
324.10 2.537
324.20 2.535
324.30 2.533
324.40 2.53
324.50 2.528
324.60 2.526
324.70 2.524
324.80 2.522
324.90 2.519
325.00 2.517
325.10 2.515
325.20 2.513
325.30 2.511
325.40 2.508
325.50 2.506
325.60 2.504
325.70 2.502
325.80 2.5
325.90 2.497
326.00 2.495
326.10 2.493
326.20 2.491
326.30 2.489
326.40 2.487
326.50 2.484
326.60 2.482
326.70 2.48
326.80 2.478
326.90 2.476
327.00 2.474
327.10 2.472
327.20 2.469
327.30 2.467
327.40 2.465
327.50 2.463
327.60 2.461
327.70 2.459
327.80 2.457
327.90 2.454
328.00 2.452
328.10 2.45
328.20 2.448
328.30 2.446
328.40 2.444
328.50 2.442
328.60 2.44
328.70 2.438
328.80 2.435
328.90 2.433
329.00 2.431
329.10 2.429
329.20 2.427
329.30 2.425
329.40 2.423
329.50 2.421
329.60 2.419
329.70 2.417
329.80 2.414
329.90 2.412
330.00 2.41
330.10 2.408
330.20 2.406
330.30 2.404
330.40 2.402
330.50 2.4
330.60 2.398
330.70 2.396
330.80 2.394
330.90 2.392
331.00 2.39
331.10 2.388
331.20 2.386
331.30 2.384
331.40 2.381
331.50 2.379
331.60 2.377
331.70 2.375
331.80 2.373
331.90 2.371
332.00 2.369
332.10 2.367
332.20 2.365
332.30 2.363
332.40 2.361
332.50 2.359
332.60 2.357
332.70 2.355
332.80 2.353
332.90 2.351
333.00 2.349
333.10 2.347
333.20 2.345
333.30 2.343
333.40 2.341
333.50 2.339
333.60 2.337
333.70 2.335
333.80 2.333
333.90 2.331
334.00 2.329
334.10 2.327
334.20 2.325
334.30 2.323
334.40 2.321
334.50 2.319
334.60 2.317
334.70 2.315
334.80 2.313
334.90 2.311
335.00 2.309
335.10 2.307
335.20 2.305
335.30 2.303
335.40 2.301
335.50 2.299
335.60 2.298
335.70 2.296
335.80 2.294
335.90 2.292
336.00 2.29
336.10 2.288
336.20 2.286
336.30 2.284
336.40 2.282
336.50 2.28
336.60 2.278
336.70 2.276
336.80 2.274
336.90 2.272
337.00 2.27
337.10 2.268
337.20 2.267
337.30 2.265
337.40 2.263
337.50 2.261
337.60 2.259
337.70 2.257
337.80 2.255
337.90 2.253
338.00 2.251
338.10 2.249
338.20 2.247
338.30 2.246
338.40 2.244
338.50 2.242
338.60 2.24
338.70 2.238
338.80 2.236
338.90 2.234
339.00 2.232
339.10 2.23
339.20 2.229
339.30 2.227
339.40 2.225
339.50 2.223
339.60 2.221
339.70 2.219
339.80 2.217
339.90 2.216
340.00 2.214
340.10 2.212
340.20 2.21
340.30 2.208
340.40 2.206
340.50 2.204
340.60 2.203
340.70 2.201
340.80 2.199
340.90 2.197
341.00 2.195
341.10 2.193
341.20 2.191
341.30 2.19
341.40 2.188
341.50 2.186
341.60 2.184
341.70 2.182
341.80 2.18
341.90 2.179
342.00 2.177
342.10 2.175
342.20 2.173
342.30 2.171
342.40 2.17
342.50 2.168
342.60 2.166
342.70 2.164
342.80 2.162
342.90 2.161
343.00 2.159
343.10 2.157
343.20 2.155
343.30 2.153
343.40 2.152
343.50 2.15
343.60 2.148
343.70 2.146
343.80 2.144
343.90 2.143
344.00 2.141
344.10 2.139
344.20 2.137
344.30 2.135
344.40 2.134
344.50 2.132
344.60 2.13
344.70 2.128
344.80 2.127
344.90 2.125
345.00 2.123
345.10 2.121
345.20 2.12
345.30 2.118
345.40 2.116
345.50 2.114
345.60 2.113
345.70 2.111
345.80 2.109
345.90 2.107
346.00 2.106
346.10 2.104
346.20 2.102
346.30 2.1
346.40 2.099
346.50 2.097
346.60 2.095
346.70 2.093
346.80 2.092
346.90 2.09
347.00 2.088
347.10 2.087
347.20 2.085
347.30 2.083
347.40 2.081
347.50 2.08
347.60 2.078
347.70 2.076
347.80 2.074
347.90 2.073
348.00 2.071
348.10 2.069
348.20 2.068
348.30 2.066
348.40 2.064
348.50 2.063
348.60 2.061
348.70 2.059
348.80 2.057
348.90 2.056
349.00 2.054
349.10 2.052
349.20 2.051
349.30 2.049
349.40 2.047
349.50 2.046
349.60 2.044
349.70 2.042
349.80 2.041
349.90 2.039
350.00 2.037
350.10 2.036
350.20 2.034
350.30 2.032
350.40 2.031
350.50 2.029
350.60 2.027
350.70 2.026
350.80 2.024
350.90 2.022
351.00 2.021
351.10 2.019
351.20 2.017
351.30 2.016
351.40 2.014
351.50 2.012
351.60 2.011
351.70 2.009
351.80 2.007
351.90 2.006
352.00 2.004
352.10 2.003
352.20 2.001
352.30 1.999
352.40 1.998
352.50 1.996
352.60 1.994
352.70 1.993
352.80 1.991
352.90 1.99
353.00 1.988
353.10 1.986
353.20 1.985
353.30 1.983
353.40 1.981
353.50 1.98
353.60 1.978
353.70 1.977
353.80 1.975
353.90 1.973
354.00 1.972
354.10 1.97
354.20 1.969
354.30 1.967
354.40 1.965
354.50 1.964
354.60 1.962
354.70 1.961
354.80 1.959
354.90 1.958
355.00 1.956
355.10 1.954
355.20 1.953
355.30 1.951
355.40 1.95
355.50 1.948
355.60 1.946
355.70 1.945
355.80 1.943
355.90 1.942
356.00 1.94
356.10 1.939
356.20 1.937
356.30 1.935
356.40 1.934
356.50 1.932
356.60 1.931
356.70 1.929
356.80 1.928
356.90 1.926
357.00 1.925
357.10 1.923
357.20 1.921
357.30 1.92
357.40 1.918
357.50 1.917
357.60 1.915
357.70 1.914
357.80 1.912
357.90 1.911
358.00 1.909
358.10 1.908
358.20 1.906
358.30 1.904
358.40 1.903
358.50 1.901
358.60 1.9
358.70 1.898
358.80 1.897
358.90 1.895
359.00 1.894
359.10 1.892
359.20 1.891
359.30 1.889
359.40 1.888
359.50 1.886
359.60 1.885
359.70 1.883
359.80 1.882
359.90 1.88
360.00 1.879
360.10 1.877
360.20 1.876
360.30 1.874
360.40 1.873
360.50 1.871
360.60 1.87
360.70 1.868
360.80 1.867
360.90 1.865
361.00 1.864
361.10 1.862
361.20 1.861
361.30 1.859
361.40 1.858
361.50 1.856
361.60 1.855
361.70 1.853
361.80 1.852
361.90 1.85
362.00 1.849
362.10 1.847
362.20 1.846
362.30 1.844
362.40 1.843
362.50 1.842
362.60 1.84
362.70 1.839
362.80 1.837
362.90 1.836
363.00 1.834
363.10 1.833
363.20 1.831
363.30 1.83
363.40 1.828
363.50 1.827
363.60 1.826
363.70 1.824
363.80 1.823
363.90 1.821
364.00 1.82
364.10 1.818
364.20 1.817
364.30 1.815
364.40 1.814
364.50 1.813
364.60 1.811
364.70 1.81
364.80 1.808
364.90 1.807
365.00 1.805
365.10 1.804
365.20 1.802
365.30 1.801
365.40 1.8
365.50 1.798
365.60 1.797
365.70 1.795
365.80 1.794
365.90 1.792
366.00 1.791
366.10 1.789
366.20 1.787
366.30 1.785
366.40 1.784
366.50 1.782
366.60 1.78
366.70 1.778
366.80 1.776
366.90 1.774
367.00 1.772
367.10 1.771
367.20 1.769
367.30 1.767
367.40 1.765
367.50 1.763
367.60 1.761
367.70 1.759
367.80 1.758
367.90 1.756
368.00 1.754
368.10 1.752
368.20 1.751
368.30 1.749
368.40 1.747
368.50 1.746
368.60 1.744
368.70 1.743
368.80 1.741
368.90 1.739
369.00 1.738
369.10 1.736
369.20 1.735
369.30 1.733
369.40 1.731
369.50 1.73
369.60 1.728
369.70 1.727
369.80 1.725
369.90 1.723
370.00 1.722
370.10 1.721
370.20 1.72
370.30 1.719
370.40 1.718
370.50 1.716
370.60 1.715
370.70 1.714
370.80 1.713
370.90 1.712
371.00 1.711
371.10 1.71
371.20 1.709
371.30 1.708
371.40 1.707
371.50 1.706
371.60 1.705
371.70 1.703
371.80 1.702
371.90 1.701
372.00 1.7
372.10 1.7
372.20 1.7
372.30 1.701
372.40 1.701
372.50 1.701
372.60 1.701
372.70 1.701
372.80 1.701
372.90 1.701
373.00 1.701
373.10 1.702
373.20 1.702
373.30 1.702
373.40 1.702
373.50 1.702
373.60 1.702
373.70 1.702
373.80 1.702
373.90 1.703
374.00 1.703
374.10 1.703
374.20 1.703
374.30 1.704
374.40 1.704
374.50 1.704
374.60 1.705
374.70 1.705
374.80 1.705
374.90 1.706
375.00 1.706
375.10 1.707
375.20 1.707
375.30 1.707
375.40 1.708
375.50 1.708
375.60 1.708
375.70 1.709
375.80 1.709
375.90 1.709
376.00 1.71
376.10 1.695
376.20 1.681
376.30 1.667
376.40 1.653
376.50 1.639
376.60 1.624
376.70 1.61
376.80 1.596
376.90 1.582
377.00 1.568
377.10 1.584
377.20 1.6
377.30 1.616
377.40 1.632
377.50 1.649
377.60 1.665
377.70 1.681
377.80 1.697
377.90 1.713
378.00 1.729
378.10 1.722
378.20 1.714
378.30 1.707
378.40 1.7
378.50 1.693
378.60 1.685
378.70 1.678
378.80 1.671
378.90 1.664
379.00 1.657
379.10 1.638
379.20 1.62
379.30 1.602
379.40 1.583
379.50 1.565
379.60 1.547
379.70 1.529
379.80 1.51
379.90 1.492
380.00 1.474
380.10 1.504
380.20 1.533
380.30 1.563
380.40 1.592
380.50 1.622
380.60 1.651
380.70 1.68
380.80 1.71
380.90 1.739
381.00 1.768
381.10 1.778
381.20 1.787
381.30 1.797
381.40 1.807
381.50 1.816
381.60 1.816
381.70 1.814
381.80 1.807
381.90 1.798
382.00 1.785
382.10 1.768
382.20 1.749
382.30 1.712
382.40 1.674
382.50 1.637
382.60 1.6
382.70 1.563
382.80 1.526
382.90 1.489
383.00 1.452
383.10 1.415
383.20 1.378
383.30 1.327
383.40 1.275
383.50 1.222
383.60 1.234
383.70 1.286
383.80 1.336
383.90 1.386
384.00 1.433
384.10 1.48
384.20 1.524
384.30 1.566
384.40 1.606
384.50 1.644
384.60 1.68
384.70 1.713
384.80 1.744
384.90 1.772
385.00 1.798
385.10 1.821
385.20 1.842
385.30 1.862
385.40 1.878
385.50 1.893
385.60 1.905
385.70 1.915
385.80 1.923
385.90 1.929
386.00 1.932
386.10 1.934
386.20 1.933
386.30 1.93
386.40 1.925
386.50 1.919
386.60 1.909
386.70 1.897
386.80 1.884
386.90 1.867
387.00 1.849
387.10 1.828
387.20 1.804
387.30 1.779
387.40 1.751
387.50 1.72
387.60 1.686
387.70 1.651
387.80 1.612
387.90 1.571
388.00 1.529
388.10 1.483
388.20 1.435
388.30 1.386
388.40 1.333
388.50 1.28
388.60 1.225
388.70 1.166
388.80 1.106
388.90 1.044
389.00 1.101
389.10 1.158
389.20 1.215
389.30 1.269
389.40 1.321
389.50 1.372
389.60 1.42
389.70 1.466
389.80 1.511
389.90 1.553
390.00 1.593
390.10 1.631
390.20 1.666
390.30 1.699
390.40 1.731
390.50 1.76
390.60 1.788
390.70 1.814
390.80 1.837
390.90 1.859
391.00 1.88
391.10 1.898
391.20 1.915
391.30 1.931
391.40 1.945
391.50 1.959
391.60 1.971
391.70 1.981
391.80 1.991
391.90 1.999
392.00 2.006
392.10 2.013
392.20 2.018
392.30 2.023
392.40 2.026
392.50 2.029
392.60 2.031
392.70 2.031
392.80 2.032
392.90 2.031
393.00 2.029
393.10 2.027
393.20 2.024
393.30 2.019
393.40 2.015
393.50 2.009
393.60 2.002
393.70 1.995
393.80 1.986
393.90 1.977
394.00 1.966
394.10 1.955
394.20 1.942
394.30 1.929
394.40 1.913
394.50 1.897
394.60 1.88
394.70 1.861
394.80 1.841
394.90 1.819
395.00 1.795
395.10 1.77
395.20 1.744
395.30 1.715
395.40 1.685
395.50 1.653
395.60 1.618
395.70 1.582
395.80 1.545
395.90 1.504
396.00 1.462
396.10 1.419
396.20 1.373
396.30 1.325
396.40 1.276
396.50 1.224
396.60 1.171
396.70 1.117
396.80 1.057
396.90 0.9853
397.00 0.9022
397.10 0.9782
397.20 1.046
397.30 1.105
397.40 1.159
397.50 1.21
397.60 1.26
397.70 1.308
397.80 1.354
397.90 1.398
398.00 1.439
398.10 1.479
398.20 1.518
398.30 1.553
398.40 1.587
398.50 1.62
398.60 1.649
398.70 1.678
398.80 1.705
398.90 1.729
399.00 1.752
399.10 1.774
399.20 1.793
399.30 1.812
399.40 1.83
399.50 1.845
399.60 1.86
399.70 1.874
399.80 1.887
399.90 1.898
400.00 1.909
400.10 1.919
400.20 1.928
400.30 1.937
400.40 1.944
400.50 1.952
400.60 1.958
400.70 1.964
400.80 1.969
400.90 1.974
401.00 1.979
401.10 1.983
401.20 1.987
401.30 1.99
401.40 1.993
401.50 1.995
401.60 1.998
401.70 2
401.80 2.001
401.90 2.003
402.00 2.004
402.10 2.005
402.20 2.006
402.30 2.006
402.40 2.007
402.50 2.007
402.60 2.007
402.70 2.007
402.80 2.006
402.90 2.006
403.00 2.005
403.10 2.005
403.20 2.004
403.30 2.003
403.40 2.001
403.50 2
403.60 1.999
403.70 1.997
403.80 1.995
403.90 1.993
404.00 1.991
404.10 1.989
404.20 1.987
404.30 1.984
404.40 1.981
404.50 1.979
404.60 1.976
404.70 1.972
404.80 1.969
404.90 1.966
405.00 1.962
405.10 1.958
405.20 1.954
405.30 1.949
405.40 1.945
405.50 1.94
405.60 1.935
405.70 1.929
405.80 1.923
405.90 1.917
406.00 1.911
406.10 1.904
406.20 1.897
406.30 1.889
406.40 1.881
406.50 1.872
406.60 1.863
406.70 1.854
406.80 1.843
406.90 1.833
407.00 1.821
407.10 1.809
407.20 1.796
407.30 1.782
407.40 1.768
407.50 1.752
407.60 1.736
407.70 1.718
407.80 1.7
407.90 1.681
408.00 1.66
408.10 1.639
408.20 1.615
408.30 1.591
408.40 1.566
408.50 1.538
408.60 1.509
408.70 1.48
408.80 1.447
408.90 1.414
409.00 1.379
409.10 1.343
409.20 1.304
409.30 1.265
409.40 1.223
409.50 1.18
409.60 1.136
409.70 1.09
409.80 1.041
409.90 0.9906
410.00 0.9312
410.10 0.8674
410.20 0.7993
410.30 0.8895
410.40 0.9613
410.50 1.015
410.60 1.062
410.70 1.108
410.80 1.152
410.90 1.193
411.00 1.233
411.10 1.272
411.20 1.309
411.30 1.344
411.40 1.378
411.50 1.409
411.60 1.439
411.70 1.467
411.80 1.494
411.90 1.519
412.00 1.542
412.10 1.564
412.20 1.585
412.30 1.605
412.40 1.623
412.50 1.64
412.60 1.656
412.70 1.67
412.80 1.684
412.90 1.697
413.00 1.709
413.10 1.72
413.20 1.73
413.30 1.739
413.40 1.748
413.50 1.756
413.60 1.764
413.70 1.771
413.80 1.777
413.90 1.783
414.00 1.788
414.10 1.793
414.20 1.798
414.30 1.802
414.40 1.806
414.50 1.809
414.60 1.812
414.70 1.815
414.80 1.818
414.90 1.82
415.00 1.822
415.10 1.824
415.20 1.826
415.30 1.827
415.40 1.828
415.50 1.83
415.60 1.831
415.70 1.831
415.80 1.832
415.90 1.833
416.00 1.833
416.10 1.834
416.20 1.834
416.30 1.834
416.40 1.834
416.50 1.834
416.60 1.834
416.70 1.834
416.80 1.834
416.90 1.833
417.00 1.833
417.10 1.833
417.20 1.832
417.30 1.832
417.40 1.831
417.50 1.831
417.60 1.83
417.70 1.829
417.80 1.829
417.90 1.828
418.00 1.827
418.10 1.826
418.20 1.825
418.30 1.825
418.40 1.824
418.50 1.823
418.60 1.822
418.70 1.821
418.80 1.82
418.90 1.819
419.00 1.818
419.10 1.817
419.20 1.816
419.30 1.815
419.40 1.814
419.50 1.812
419.60 1.811
419.70 1.81
419.80 1.809
419.90 1.808
420.00 1.807
420.10 1.805
420.20 1.804
420.30 1.803
420.40 1.802
420.50 1.8
420.60 1.799
420.70 1.798
420.80 1.796
420.90 1.795
421.00 1.794
421.10 1.793
421.20 1.791
421.30 1.79
421.40 1.788
421.50 1.787
421.60 1.786
421.70 1.784
421.80 1.783
421.90 1.782
422.00 1.78
422.10 1.779
422.20 1.777
422.30 1.776
422.40 1.774
422.50 1.773
422.60 1.771
422.70 1.77
422.80 1.768
422.90 1.767
423.00 1.765
423.10 1.764
423.20 1.762
423.30 1.761
423.40 1.759
423.50 1.758
423.60 1.756
423.70 1.754
423.80 1.753
423.90 1.751
424.00 1.75
424.10 1.748
424.20 1.746
424.30 1.745
424.40 1.743
424.50 1.741
424.60 1.739
424.70 1.738
424.80 1.736
424.90 1.734
425.00 1.732
425.10 1.731
425.20 1.729
425.30 1.727
425.40 1.725
425.50 1.723
425.60 1.721
425.70 1.719
425.80 1.717
425.90 1.716
426.00 1.714
426.10 1.711
426.20 1.709
426.30 1.707
426.40 1.705
426.50 1.703
426.60 1.701
426.70 1.699
426.80 1.696
426.90 1.694
427.00 1.692
427.10 1.689
427.20 1.687
427.30 1.684
427.40 1.682
427.50 1.679
427.60 1.676
427.70 1.674
427.80 1.671
427.90 1.668
428.00 1.665
428.10 1.662
428.20 1.659
428.30 1.656
428.40 1.652
428.50 1.649
428.60 1.645
428.70 1.642
428.80 1.638
428.90 1.634
429.00 1.63
429.10 1.626
429.20 1.621
429.30 1.617
429.40 1.612
429.50 1.607
429.60 1.602
429.70 1.597
429.80 1.591
429.90 1.586
430.00 1.58
430.10 1.573
430.20 1.566
430.30 1.56
430.40 1.552
430.50 1.544
430.60 1.536
430.70 1.528
430.80 1.519
430.90 1.51
431.00 1.499
431.10 1.489
431.20 1.478
431.30 1.466
431.40 1.454
431.50 1.441
431.60 1.427
431.70 1.412
431.80 1.397
431.90 1.38
432.00 1.363
432.10 1.345
432.20 1.325
432.30 1.304
432.40 1.283
432.50 1.26
432.60 1.236
432.70 1.211
432.80 1.184
432.90 1.157
433.00 1.128
433.10 1.097
433.20 1.066
433.30 1.033
433.40 0.998
433.50 0.962
433.60 0.9249
433.70 0.8847
433.80 0.8404
433.90 0.7921
434.00 0.6801
434.10 0.6812
434.20 0.7952
434.30 0.8416
434.40 0.8842
434.50 0.9231
434.60 0.9588
434.70 0.9932
434.80 1.026
434.90 1.057
435.00 1.087
435.10 1.116
435.20 1.143
435.30 1.169
435.40 1.193
435.50 1.216
435.60 1.238
435.70 1.258
435.80 1.277
435.90 1.295
436.00 1.313
436.10 1.328
436.20 1.343
436.30 1.357
436.40 1.37
436.50 1.382
436.60 1.393
436.70 1.404
436.80 1.413
436.90 1.422
437.00 1.431
437.10 1.438
437.20 1.446
437.30 1.452
437.40 1.459
437.50 1.464
437.60 1.47
437.70 1.475
437.80 1.479
437.90 1.483
438.00 1.487
438.10 1.491
438.20 1.494
438.30 1.497
438.40 1.5
438.50 1.503
438.60 1.505
438.70 1.507
438.80 1.509
438.90 1.511
439.00 1.512
439.10 1.514
439.20 1.515
439.30 1.516
439.40 1.517
439.50 1.518
439.60 1.519
439.70 1.52
439.80 1.52
439.90 1.521
440.00 1.521
440.10 1.522
440.20 1.522
440.30 1.522
440.40 1.522
440.50 1.523
440.60 1.523
440.70 1.522
440.80 1.522
440.90 1.522
441.00 1.522
441.10 1.522
441.20 1.522
441.30 1.521
441.40 1.521
441.50 1.52
441.60 1.52
441.70 1.52
441.80 1.519
441.90 1.519
442.00 1.518
442.10 1.517
442.20 1.517
442.30 1.516
442.40 1.516
442.50 1.515
442.60 1.514
442.70 1.513
442.80 1.513
442.90 1.512
443.00 1.511
443.10 1.51
443.20 1.51
443.30 1.509
443.40 1.508
443.50 1.507
443.60 1.506
443.70 1.506
443.80 1.505
443.90 1.504
444.00 1.503
444.10 1.502
444.20 1.501
444.30 1.5
444.40 1.499
444.50 1.498
444.60 1.498
444.70 1.497
444.80 1.496
444.90 1.495
445.00 1.494
445.10 1.493
445.20 1.492
445.30 1.491
445.40 1.49
445.50 1.489
445.60 1.488
445.70 1.487
445.80 1.486
445.90 1.485
446.00 1.484
446.10 1.483
446.20 1.482
446.30 1.481
446.40 1.48
446.50 1.479
446.60 1.478
446.70 1.477
446.80 1.476
446.90 1.475
447.00 1.474
447.10 1.473
447.20 1.472
447.30 1.471
447.40 1.47
447.50 1.469
447.60 1.468
447.70 1.467
447.80 1.466
447.90 1.465
448.00 1.463
448.10 1.462
448.20 1.461
448.30 1.46
448.40 1.459
448.50 1.458
448.60 1.457
448.70 1.456
448.80 1.455
448.90 1.454
449.00 1.453
449.10 1.452
449.20 1.451
449.30 1.45
449.40 1.449
449.50 1.448
449.60 1.447
449.70 1.446
449.80 1.445
449.90 1.443
450.00 1.442
450.10 1.441
450.20 1.44
450.30 1.439
450.40 1.438
450.50 1.437
450.60 1.436
450.70 1.435
450.80 1.434
450.90 1.433
451.00 1.432
451.10 1.431
451.20 1.43
451.30 1.429
451.40 1.428
451.50 1.427
451.60 1.426
451.70 1.424
451.80 1.423
451.90 1.422
452.00 1.421
452.10 1.42
452.20 1.419
452.30 1.418
452.40 1.417
452.50 1.416
452.60 1.415
452.70 1.414
452.80 1.413
452.90 1.412
453.00 1.411
453.10 1.41
453.20 1.409
453.30 1.408
453.40 1.407
453.50 1.405
453.60 1.404
453.70 1.403
453.80 1.402
453.90 1.401
454.00 1.4
