# Version 2.1 - nm, norm@500 to 1, cut digits, bergeron_2750_75.dat_2750
# Wavelength(nm)  Flambda(ergs/cm^s/s/nm)
300.00 0.06658
300.10 0.06677
300.20 0.06697
300.30 0.06716
300.40 0.06736
300.50 0.06756
300.60 0.06775
300.70 0.06795
300.80 0.06814
300.90 0.06833
301.00 0.06853
301.10 0.06872
301.20 0.06892
301.30 0.06911
301.40 0.0693
301.50 0.06949
301.60 0.06969
301.70 0.06988
301.80 0.07007
301.90 0.07027
302.00 0.07046
302.10 0.07066
302.20 0.07086
302.30 0.07107
302.40 0.07127
302.50 0.07147
302.60 0.07167
302.70 0.07188
302.80 0.07208
302.90 0.07228
303.00 0.07248
303.10 0.07268
303.20 0.07288
303.30 0.07308
303.40 0.07328
303.50 0.07348
303.60 0.07368
303.70 0.07388
303.80 0.07408
303.90 0.07428
304.00 0.07448
304.10 0.07469
304.20 0.0749
304.30 0.07511
304.40 0.07532
304.50 0.07553
304.60 0.07574
304.70 0.07595
304.80 0.07616
304.90 0.07637
305.00 0.07658
305.10 0.07678
305.20 0.07699
305.30 0.0772
305.40 0.07741
305.50 0.07761
305.60 0.07782
305.70 0.07803
305.80 0.07823
305.90 0.07844
306.00 0.07865
306.10 0.07887
306.20 0.07908
306.30 0.0793
306.40 0.07952
306.50 0.07974
306.60 0.07995
306.70 0.08017
306.80 0.08039
306.90 0.0806
307.00 0.08082
307.10 0.08103
307.20 0.08125
307.30 0.08147
307.40 0.08168
307.50 0.08189
307.60 0.08211
307.70 0.08232
307.80 0.08254
307.90 0.08275
308.00 0.08297
308.10 0.08319
308.20 0.08341
308.30 0.08364
308.40 0.08386
308.50 0.08409
308.60 0.08431
308.70 0.08454
308.80 0.08476
308.90 0.08499
309.00 0.08521
309.10 0.08543
309.20 0.08566
309.30 0.08588
309.40 0.0861
309.50 0.08632
309.60 0.08654
309.70 0.08676
309.80 0.08699
309.90 0.08721
310.00 0.08744
310.10 0.08766
310.20 0.08789
310.30 0.08813
310.40 0.08836
310.50 0.08859
310.60 0.08883
310.70 0.08906
310.80 0.08929
310.90 0.08952
311.00 0.08976
311.10 0.08999
311.20 0.09022
311.30 0.09045
311.40 0.09068
311.50 0.09091
311.60 0.09114
311.70 0.09137
311.80 0.0916
311.90 0.09182
312.00 0.09205
312.10 0.09228
312.20 0.09251
312.30 0.09275
312.40 0.09299
312.50 0.09323
312.60 0.09347
312.70 0.09371
312.80 0.09395
312.90 0.09419
313.00 0.09443
313.10 0.09467
313.20 0.09491
313.30 0.09514
313.40 0.09538
313.50 0.09562
313.60 0.09585
313.70 0.09609
313.80 0.09633
313.90 0.09657
314.00 0.09681
314.10 0.09705
314.20 0.0973
314.30 0.09755
314.40 0.09779
314.50 0.09804
314.60 0.09829
314.70 0.09854
314.80 0.09878
314.90 0.09903
315.00 0.09927
315.10 0.09952
315.20 0.09977
315.30 0.1
315.40 0.1003
315.50 0.1005
315.60 0.1007
315.70 0.101
315.80 0.1012
315.90 0.1015
316.00 0.1017
316.10 0.102
316.20 0.1022
316.30 0.1025
316.40 0.1027
316.50 0.103
316.60 0.1032
316.70 0.1035
316.80 0.1038
316.90 0.104
317.00 0.1043
317.10 0.1045
317.20 0.1048
317.30 0.105
317.40 0.1053
317.50 0.1055
317.60 0.1058
317.70 0.106
317.80 0.1063
317.90 0.1065
318.00 0.1068
318.10 0.107
318.20 0.1073
318.30 0.1076
318.40 0.1078
318.50 0.1081
318.60 0.1084
318.70 0.1086
318.80 0.1089
318.90 0.1091
319.00 0.1094
319.10 0.1097
319.20 0.1099
319.30 0.1102
319.40 0.1104
319.50 0.1107
319.60 0.111
319.70 0.1112
319.80 0.1115
319.90 0.1117
320.00 0.112
320.10 0.1123
320.20 0.1125
320.30 0.1128
320.40 0.1131
320.50 0.1134
320.60 0.1136
320.70 0.1139
320.80 0.1142
320.90 0.1144
321.00 0.1147
321.10 0.115
321.20 0.1152
321.30 0.1155
321.40 0.1158
321.50 0.116
321.60 0.1163
321.70 0.1166
321.80 0.1168
321.90 0.1171
322.00 0.1174
322.10 0.1177
322.20 0.1179
322.30 0.1182
322.40 0.1185
322.50 0.1188
322.60 0.119
322.70 0.1193
322.80 0.1196
322.90 0.1199
323.00 0.1201
323.10 0.1204
323.20 0.1207
323.30 0.121
323.40 0.1212
323.50 0.1215
323.60 0.1218
323.70 0.1221
323.80 0.1223
323.90 0.1226
324.00 0.1229
324.10 0.1232
324.20 0.1235
324.30 0.1237
324.40 0.124
324.50 0.1243
324.60 0.1246
324.70 0.1249
324.80 0.1252
324.90 0.1255
325.00 0.1257
325.10 0.126
325.20 0.1263
325.30 0.1266
325.40 0.1269
325.50 0.1272
325.60 0.1274
325.70 0.1277
325.80 0.128
325.90 0.1283
326.00 0.1286
326.10 0.1289
326.20 0.1292
326.30 0.1294
326.40 0.1297
326.50 0.13
326.60 0.1303
326.70 0.1306
326.80 0.1309
326.90 0.1312
327.00 0.1315
327.10 0.1318
327.20 0.1321
327.30 0.1324
327.40 0.1327
327.50 0.1329
327.60 0.1332
327.70 0.1335
327.80 0.1338
327.90 0.1341
328.00 0.1344
328.10 0.1347
328.20 0.135
328.30 0.1353
328.40 0.1356
328.50 0.1359
328.60 0.1362
328.70 0.1365
328.80 0.1368
328.90 0.1371
329.00 0.1374
329.10 0.1377
329.20 0.138
329.30 0.1383
329.40 0.1386
329.50 0.1389
329.60 0.1392
329.70 0.1395
329.80 0.1398
329.90 0.1401
330.00 0.1404
330.10 0.1407
330.20 0.141
330.30 0.1413
330.40 0.1416
330.50 0.1419
330.60 0.1422
330.70 0.1425
330.80 0.1428
330.90 0.1431
331.00 0.1434
331.10 0.1438
331.20 0.1441
331.30 0.1444
331.40 0.1447
331.50 0.145
331.60 0.1453
331.70 0.1456
331.80 0.1459
331.90 0.1462
332.00 0.1465
332.10 0.1468
332.20 0.1471
332.30 0.1474
332.40 0.1478
332.50 0.1481
332.60 0.1484
332.70 0.1487
332.80 0.149
332.90 0.1493
333.00 0.1496
333.10 0.15
333.20 0.1503
333.30 0.1506
333.40 0.1509
333.50 0.1512
333.60 0.1515
333.70 0.1518
333.80 0.1521
333.90 0.1525
334.00 0.1528
334.10 0.1531
334.20 0.1534
334.30 0.1537
334.40 0.1541
334.50 0.1544
334.60 0.1547
334.70 0.155
334.80 0.1554
334.90 0.1557
335.00 0.156
335.10 0.1563
335.20 0.1566
335.30 0.157
335.40 0.1573
335.50 0.1576
335.60 0.1579
335.70 0.1582
335.80 0.1586
335.90 0.1589
336.00 0.1592
336.10 0.1595
336.20 0.1599
336.30 0.1602
336.40 0.1605
336.50 0.1609
336.60 0.1612
336.70 0.1615
336.80 0.1618
336.90 0.1622
337.00 0.1625
337.10 0.1628
337.20 0.1632
337.30 0.1635
337.40 0.1638
337.50 0.1641
337.60 0.1645
337.70 0.1648
337.80 0.1651
337.90 0.1654
338.00 0.1658
338.10 0.1661
338.20 0.1664
338.30 0.1668
338.40 0.1671
338.50 0.1675
338.60 0.1678
338.70 0.1681
338.80 0.1685
338.90 0.1688
339.00 0.1692
339.10 0.1695
339.20 0.1698
339.30 0.1702
339.40 0.1705
339.50 0.1708
339.60 0.1712
339.70 0.1715
339.80 0.1718
339.90 0.1722
340.00 0.1725
340.10 0.1728
340.20 0.1732
340.30 0.1735
340.40 0.1739
340.50 0.1742
340.60 0.1746
340.70 0.1749
340.80 0.1753
340.90 0.1756
341.00 0.176
341.10 0.1763
341.20 0.1766
341.30 0.177
341.40 0.1773
341.50 0.1777
341.60 0.178
341.70 0.1783
341.80 0.1787
341.90 0.179
342.00 0.1794
342.10 0.1797
342.20 0.1801
342.30 0.1804
342.40 0.1808
342.50 0.1811
342.60 0.1815
342.70 0.1818
342.80 0.1822
342.90 0.1825
343.00 0.1829
343.10 0.1832
343.20 0.1836
343.30 0.1839
343.40 0.1843
343.50 0.1846
343.60 0.185
343.70 0.1853
343.80 0.1857
343.90 0.186
344.00 0.1864
344.10 0.1867
344.20 0.1871
344.30 0.1875
344.40 0.1878
344.50 0.1882
344.60 0.1886
344.70 0.1889
344.80 0.1893
344.90 0.1896
345.00 0.19
345.10 0.1903
345.20 0.1907
345.30 0.1911
345.40 0.1914
345.50 0.1918
345.60 0.1921
345.70 0.1925
345.80 0.1928
345.90 0.1932
346.00 0.1936
346.10 0.1939
346.20 0.1943
346.30 0.1947
346.40 0.195
346.50 0.1954
346.60 0.1958
346.70 0.1961
346.80 0.1965
346.90 0.1969
347.00 0.1972
347.10 0.1976
347.20 0.198
347.30 0.1983
347.40 0.1987
347.50 0.1991
347.60 0.1994
347.70 0.1998
347.80 0.2001
347.90 0.2005
348.00 0.2009
348.10 0.2012
348.20 0.2016
348.30 0.202
348.40 0.2024
348.50 0.2027
348.60 0.2031
348.70 0.2035
348.80 0.2039
348.90 0.2042
349.00 0.2046
349.10 0.205
349.20 0.2054
349.30 0.2057
349.40 0.2061
349.50 0.2065
349.60 0.2068
349.70 0.2072
349.80 0.2076
349.90 0.208
350.00 0.2083
350.10 0.2087
350.20 0.2091
350.30 0.2095
350.40 0.2099
350.50 0.2102
350.60 0.2106
350.70 0.211
350.80 0.2114
350.90 0.2118
351.00 0.2121
351.10 0.2125
351.20 0.2129
351.30 0.2133
351.40 0.2137
351.50 0.214
351.60 0.2144
351.70 0.2148
351.80 0.2152
351.90 0.2155
352.00 0.2159
352.10 0.2163
352.20 0.2167
352.30 0.2171
352.40 0.2175
352.50 0.2179
352.60 0.2183
352.70 0.2186
352.80 0.219
352.90 0.2194
353.00 0.2198
353.10 0.2202
353.20 0.2206
353.30 0.221
353.40 0.2213
353.50 0.2217
353.60 0.2221
353.70 0.2225
353.80 0.2229
353.90 0.2233
354.00 0.2236
354.10 0.224
354.20 0.2244
354.30 0.2248
354.40 0.2252
354.50 0.2256
354.60 0.226
354.70 0.2264
354.80 0.2268
354.90 0.2272
355.00 0.2276
355.10 0.228
355.20 0.2284
355.30 0.2288
355.40 0.2292
355.50 0.2296
355.60 0.23
355.70 0.2304
355.80 0.2307
355.90 0.2311
356.00 0.2315
356.10 0.2319
356.20 0.2323
356.30 0.2327
356.40 0.2331
356.50 0.2335
356.60 0.2339
356.70 0.2343
356.80 0.2347
356.90 0.2351
357.00 0.2355
357.10 0.2359
357.20 0.2363
357.30 0.2367
357.40 0.2371
357.50 0.2375
357.60 0.2379
357.70 0.2383
357.80 0.2387
357.90 0.2391
358.00 0.2395
358.10 0.2399
358.20 0.2403
358.30 0.2408
358.40 0.2412
358.50 0.2416
358.60 0.242
358.70 0.2424
358.80 0.2428
358.90 0.2432
359.00 0.2436
359.10 0.244
359.20 0.2444
359.30 0.2448
359.40 0.2452
359.50 0.2457
359.60 0.2461
359.70 0.2465
359.80 0.2469
359.90 0.2473
360.00 0.2477
360.10 0.2481
360.20 0.2485
360.30 0.2489
360.40 0.2493
360.50 0.2498
360.60 0.2502
360.70 0.2506
360.80 0.251
360.90 0.2514
361.00 0.2518
361.10 0.2522
361.20 0.2527
361.30 0.2531
361.40 0.2535
361.50 0.2539
361.60 0.2543
361.70 0.2547
361.80 0.2551
361.90 0.2555
362.00 0.2559
362.10 0.2564
362.20 0.2568
362.30 0.2572
362.40 0.2576
362.50 0.258
362.60 0.2585
362.70 0.2589
362.80 0.2593
362.90 0.2597
363.00 0.2601
363.10 0.2606
363.20 0.261
363.30 0.2614
363.40 0.2618
363.50 0.2623
363.60 0.2627
363.70 0.2631
363.80 0.2635
363.90 0.264
364.00 0.2644
364.10 0.2648
364.20 0.2652
364.30 0.2656
364.40 0.2661
364.50 0.2665
364.60 0.2669
364.70 0.2673
364.80 0.2678
364.90 0.2682
365.00 0.2686
365.10 0.2691
365.20 0.2695
365.30 0.2699
365.40 0.2703
365.50 0.2708
365.60 0.2712
365.70 0.2716
365.80 0.272
365.90 0.2725
366.00 0.2729
366.10 0.2733
366.20 0.2738
366.30 0.2742
366.40 0.2746
366.50 0.2751
366.60 0.2755
366.70 0.2759
366.80 0.2764
366.90 0.2768
367.00 0.2772
367.10 0.2777
367.20 0.2781
367.30 0.2785
367.40 0.279
367.50 0.2794
367.60 0.2798
367.70 0.2803
367.80 0.2807
367.90 0.2811
368.00 0.2815
368.10 0.282
368.20 0.2824
368.30 0.2829
368.40 0.2833
368.50 0.2838
368.60 0.2842
368.70 0.2846
368.80 0.2851
368.90 0.2855
369.00 0.286
369.10 0.2864
369.20 0.2868
369.30 0.2873
369.40 0.2877
369.50 0.2882
369.60 0.2886
369.70 0.289
369.80 0.2895
369.90 0.2899
370.00 0.2903
370.10 0.2908
370.20 0.2912
370.30 0.2917
370.40 0.2921
370.50 0.2926
370.60 0.293
370.70 0.2935
370.80 0.2939
370.90 0.2944
371.00 0.2948
371.10 0.2953
371.20 0.2957
371.30 0.2962
371.40 0.2966
371.50 0.297
371.60 0.2975
371.70 0.2979
371.80 0.2984
371.90 0.2988
372.00 0.2992
372.10 0.2997
372.20 0.3002
372.30 0.3006
372.40 0.3011
372.50 0.3015
372.60 0.302
372.70 0.3024
372.80 0.3029
372.90 0.3033
373.00 0.3038
373.10 0.3042
373.20 0.3047
373.30 0.3051
373.40 0.3056
373.50 0.306
373.60 0.3065
373.70 0.3069
373.80 0.3074
373.90 0.3078
374.00 0.3083
374.10 0.3087
374.20 0.3092
374.30 0.3097
374.40 0.3101
374.50 0.3106
374.60 0.311
374.70 0.3115
374.80 0.312
374.90 0.3124
375.00 0.3129
375.10 0.3133
375.20 0.3138
375.30 0.3142
375.40 0.3147
375.50 0.3152
375.60 0.3156
375.70 0.3161
375.80 0.3165
375.90 0.317
376.00 0.3174
376.10 0.3179
376.20 0.3184
376.30 0.3188
376.40 0.3193
376.50 0.3197
376.60 0.3202
376.70 0.3207
376.80 0.3211
376.90 0.3216
377.00 0.322
377.10 0.3225
377.20 0.323
377.30 0.3234
377.40 0.3239
377.50 0.3244
377.60 0.3248
377.70 0.3253
377.80 0.3258
377.90 0.3262
378.00 0.3267
378.10 0.3272
378.20 0.3276
378.30 0.3281
378.40 0.3286
378.50 0.329
378.60 0.3295
378.70 0.33
378.80 0.3304
378.90 0.3309
379.00 0.3314
379.10 0.3318
379.20 0.3323
379.30 0.3328
379.40 0.3332
379.50 0.3337
379.60 0.3342
379.70 0.3347
379.80 0.3351
379.90 0.3356
380.00 0.3361
380.10 0.3365
380.20 0.337
380.30 0.3375
380.40 0.338
380.50 0.3384
380.60 0.3389
380.70 0.3394
380.80 0.3398
380.90 0.3403
381.00 0.3408
381.10 0.3413
381.20 0.3417
381.30 0.3422
381.40 0.3427
381.50 0.3432
381.60 0.3436
381.70 0.3441
381.80 0.3446
381.90 0.3451
382.00 0.3455
382.10 0.346
382.20 0.3465
382.30 0.347
382.40 0.3475
382.50 0.3479
382.60 0.3484
382.70 0.3489
382.80 0.3494
382.90 0.3499
383.00 0.3503
383.10 0.3508
383.20 0.3513
383.30 0.3518
383.40 0.3522
383.50 0.3527
383.60 0.3532
383.70 0.3537
383.80 0.3542
383.90 0.3547
384.00 0.3551
384.10 0.3556
384.20 0.3561
384.30 0.3566
384.40 0.3571
384.50 0.3576
384.60 0.358
384.70 0.3585
384.80 0.359
384.90 0.3595
385.00 0.36
385.10 0.3605
385.20 0.3609
385.30 0.3614
385.40 0.3619
385.50 0.3624
385.60 0.3629
385.70 0.3634
385.80 0.3639
385.90 0.3643
386.00 0.3648
386.10 0.3653
386.20 0.3658
386.30 0.3663
386.40 0.3668
386.50 0.3673
386.60 0.3678
386.70 0.3683
386.80 0.3687
386.90 0.3692
387.00 0.3697
387.10 0.3702
387.20 0.3707
387.30 0.3712
387.40 0.3717
387.50 0.3722
387.60 0.3727
387.70 0.3732
387.80 0.3736
387.90 0.3741
388.00 0.3746
388.10 0.3751
388.20 0.3756
388.30 0.3761
388.40 0.3766
388.50 0.3771
388.60 0.3776
388.70 0.3781
388.80 0.3786
388.90 0.3791
389.00 0.3796
389.10 0.3801
389.20 0.3806
389.30 0.3811
389.40 0.3816
389.50 0.382
389.60 0.3825
389.70 0.383
389.80 0.3835
389.90 0.384
390.00 0.3845
390.10 0.385
390.20 0.3855
390.30 0.386
390.40 0.3865
390.50 0.387
390.60 0.3875
390.70 0.388
390.80 0.3885
390.90 0.389
391.00 0.3895
391.10 0.39
391.20 0.3905
391.30 0.391
391.40 0.3915
391.50 0.392
391.60 0.3925
391.70 0.393
391.80 0.3935
391.90 0.394
392.00 0.3945
392.10 0.395
392.20 0.3955
392.30 0.396
392.40 0.3965
392.50 0.397
392.60 0.3975
392.70 0.398
392.80 0.3986
392.90 0.3991
393.00 0.3996
393.10 0.4001
393.20 0.4006
393.30 0.4011
393.40 0.4016
393.50 0.4021
393.60 0.4026
393.70 0.4031
393.80 0.4036
393.90 0.4041
394.00 0.4046
394.10 0.4051
394.20 0.4056
394.30 0.4061
394.40 0.4066
394.50 0.4072
394.60 0.4077
394.70 0.4082
394.80 0.4087
394.90 0.4092
395.00 0.4097
395.10 0.4102
395.20 0.4107
395.30 0.4112
395.40 0.4117
395.50 0.4122
395.60 0.4128
395.70 0.4133
395.80 0.4138
395.90 0.4143
396.00 0.4148
396.10 0.4153
396.20 0.4158
396.30 0.4163
396.40 0.4168
396.50 0.4174
396.60 0.4179
396.70 0.4184
396.80 0.4189
396.90 0.4194
397.00 0.4199
397.10 0.4204
397.20 0.4209
397.30 0.4215
397.40 0.422
397.50 0.4225
397.60 0.423
397.70 0.4235
397.80 0.424
397.90 0.4245
398.00 0.4251
398.10 0.4256
398.20 0.4261
398.30 0.4266
398.40 0.4271
398.50 0.4276
398.60 0.4282
398.70 0.4287
398.80 0.4292
398.90 0.4297
399.00 0.4302
399.10 0.4308
399.20 0.4313
399.30 0.4318
399.40 0.4323
399.50 0.4328
399.60 0.4333
399.70 0.4339
399.80 0.4344
399.90 0.4349
400.00 0.4354
400.10 0.4359
400.20 0.4365
400.30 0.437
400.40 0.4375
400.50 0.438
400.60 0.4385
400.70 0.4391
400.80 0.4396
400.90 0.4401
401.00 0.4406
401.10 0.4412
401.20 0.4417
401.30 0.4422
401.40 0.4427
401.50 0.4432
401.60 0.4438
401.70 0.4443
401.80 0.4448
401.90 0.4453
402.00 0.4459
402.10 0.4464
402.20 0.4469
402.30 0.4474
402.40 0.448
402.50 0.4485
402.60 0.449
402.70 0.4495
402.80 0.4501
402.90 0.4506
403.00 0.4511
403.10 0.4516
403.20 0.4522
403.30 0.4527
403.40 0.4532
403.50 0.4537
403.60 0.4543
403.70 0.4548
403.80 0.4553
403.90 0.4558
404.00 0.4564
404.10 0.4569
404.20 0.4574
404.30 0.458
404.40 0.4585
404.50 0.459
404.60 0.4595
404.70 0.4601
404.80 0.4606
404.90 0.4611
405.00 0.4617
405.10 0.4622
405.20 0.4627
405.30 0.4633
405.40 0.4638
405.50 0.4643
405.60 0.4648
405.70 0.4654
405.80 0.4659
405.90 0.4664
406.00 0.467
406.10 0.4675
406.20 0.468
406.30 0.4686
406.40 0.4691
406.50 0.4696
406.60 0.4702
406.70 0.4707
406.80 0.4712
406.90 0.4718
407.00 0.4723
407.10 0.4728
407.20 0.4734
407.30 0.4739
407.40 0.4744
407.50 0.475
407.60 0.4755
407.70 0.476
407.80 0.4766
407.90 0.4771
408.00 0.4776
408.10 0.4782
408.20 0.4787
408.30 0.4793
408.40 0.4798
408.50 0.4803
408.60 0.4809
408.70 0.4814
408.80 0.4819
408.90 0.4825
409.00 0.483
409.10 0.4835
409.20 0.4841
409.30 0.4846
409.40 0.4852
409.50 0.4857
409.60 0.4862
409.70 0.4868
409.80 0.4873
409.90 0.4878
410.00 0.4884
410.10 0.4889
410.20 0.4895
410.30 0.49
410.40 0.4905
410.50 0.4911
410.60 0.4916
410.70 0.4922
410.80 0.4927
410.90 0.4932
411.00 0.4938
411.10 0.4943
411.20 0.4949
411.30 0.4954
411.40 0.4959
411.50 0.4965
411.60 0.497
411.70 0.4976
411.80 0.4981
411.90 0.4987
412.00 0.4992
412.10 0.4997
412.20 0.5003
412.30 0.5008
412.40 0.5014
412.50 0.5019
412.60 0.5024
412.70 0.503
412.80 0.5035
412.90 0.5041
413.00 0.5046
413.10 0.5052
413.20 0.5057
413.30 0.5063
413.40 0.5068
413.50 0.5073
413.60 0.5079
413.70 0.5084
413.80 0.509
413.90 0.5095
414.00 0.5101
414.10 0.5106
414.20 0.5112
414.30 0.5117
414.40 0.5122
414.50 0.5128
414.60 0.5133
414.70 0.5139
414.80 0.5144
414.90 0.515
415.00 0.5155
415.10 0.5161
415.20 0.5166
415.30 0.5172
415.40 0.5177
415.50 0.5183
415.60 0.5188
415.70 0.5194
415.80 0.5199
415.90 0.5205
416.00 0.521
416.10 0.5216
416.20 0.5221
416.30 0.5226
416.40 0.5232
416.50 0.5237
416.60 0.5243
416.70 0.5248
416.80 0.5254
416.90 0.5259
417.00 0.5265
417.10 0.527
417.20 0.5276
417.30 0.5281
417.40 0.5287
417.50 0.5292
417.60 0.5298
417.70 0.5303
417.80 0.5309
417.90 0.5314
418.00 0.532
418.10 0.5325
418.20 0.5331
418.30 0.5336
418.40 0.5342
418.50 0.5348
418.60 0.5353
418.70 0.5359
418.80 0.5364
418.90 0.537
419.00 0.5375
419.10 0.5381
419.20 0.5386
419.30 0.5392
419.40 0.5397
419.50 0.5403
419.60 0.5408
419.70 0.5414
419.80 0.542
419.90 0.5425
420.00 0.5431
420.10 0.5436
420.20 0.5442
420.30 0.5447
420.40 0.5453
420.50 0.5458
420.60 0.5464
420.70 0.5469
420.80 0.5475
420.90 0.5481
421.00 0.5486
421.10 0.5492
421.20 0.5497
421.30 0.5503
421.40 0.5508
421.50 0.5514
421.60 0.5519
421.70 0.5525
421.80 0.553
421.90 0.5536
422.00 0.5542
422.10 0.5547
422.20 0.5553
422.30 0.5558
422.40 0.5564
422.50 0.5569
422.60 0.5575
422.70 0.5581
422.80 0.5586
422.90 0.5592
423.00 0.5597
423.10 0.5603
423.20 0.5609
423.30 0.5614
423.40 0.562
423.50 0.5625
423.60 0.5631
423.70 0.5636
423.80 0.5642
423.90 0.5648
424.00 0.5653
424.10 0.5659
424.20 0.5664
424.30 0.567
424.40 0.5676
424.50 0.5681
424.60 0.5687
424.70 0.5692
424.80 0.5698
424.90 0.5704
425.00 0.5709
425.10 0.5715
425.20 0.5721
425.30 0.5726
425.40 0.5731
425.50 0.5737
425.60 0.5743
425.70 0.5748
425.80 0.5754
425.90 0.576
426.00 0.5765
426.10 0.5771
426.20 0.5777
426.30 0.5782
426.40 0.5788
426.50 0.5793
426.60 0.5799
426.70 0.5804
426.80 0.581
426.90 0.5816
427.00 0.5821
427.10 0.5827
427.20 0.5833
427.30 0.5838
427.40 0.5844
427.50 0.5849
427.60 0.5855
427.70 0.5861
427.80 0.5866
427.90 0.5872
428.00 0.5878
428.10 0.5884
428.20 0.5889
428.30 0.5895
428.40 0.59
428.50 0.5906
428.60 0.5912
428.70 0.5917
428.80 0.5923
428.90 0.5928
429.00 0.5934
429.10 0.594
429.20 0.5945
429.30 0.5951
429.40 0.5957
429.50 0.5962
429.60 0.5968
429.70 0.5974
429.80 0.5979
429.90 0.5985
430.00 0.5991
430.10 0.5997
430.20 0.6002
430.30 0.6008
430.40 0.6013
430.50 0.6019
430.60 0.6025
430.70 0.603
430.80 0.6036
430.90 0.6042
431.00 0.6047
431.10 0.6053
431.20 0.6059
431.30 0.6065
431.40 0.607
431.50 0.6075
431.60 0.6081
431.70 0.6087
431.80 0.6093
431.90 0.6098
432.00 0.6104
432.10 0.611
432.20 0.6115
432.30 0.6121
432.40 0.6127
432.50 0.6133
432.60 0.6138
432.70 0.6144
432.80 0.615
432.90 0.6155
433.00 0.6161
433.10 0.6166
433.20 0.6172
433.30 0.6178
433.40 0.6184
433.50 0.6189
433.60 0.6195
433.70 0.6201
433.80 0.6206
433.90 0.6212
434.00 0.6218
434.10 0.6224
434.20 0.6229
434.30 0.6235
434.40 0.6241
434.50 0.6246
434.60 0.6252
434.70 0.6258
434.80 0.6263
434.90 0.6269
435.00 0.6275
435.10 0.628
435.20 0.6286
435.30 0.6292
435.40 0.6298
435.50 0.6303
435.60 0.6309
435.70 0.6315
435.80 0.632
435.90 0.6326
436.00 0.6332
436.10 0.6338
436.20 0.6343
436.30 0.6349
436.40 0.6355
436.50 0.6361
436.60 0.6366
436.70 0.6372
436.80 0.6378
436.90 0.6383
437.00 0.6389
437.10 0.6395
437.20 0.64
437.30 0.6406
437.40 0.6412
437.50 0.6417
437.60 0.6423
437.70 0.6429
437.80 0.6435
437.90 0.6441
438.00 0.6446
438.10 0.6452
438.20 0.6458
438.30 0.6463
438.40 0.6469
438.50 0.6475
438.60 0.648
438.70 0.6486
438.80 0.6492
438.90 0.6498
439.00 0.6503
439.10 0.6509
439.20 0.6515
439.30 0.652
439.40 0.6526
439.50 0.6532
439.60 0.6538
439.70 0.6544
439.80 0.6549
439.90 0.6555
440.00 0.6561
440.10 0.6566
440.20 0.6572
440.30 0.6578
440.40 0.6584
440.50 0.659
440.60 0.6595
440.70 0.6601
440.80 0.6607
440.90 0.6612
441.00 0.6618
441.10 0.6624
441.20 0.663
441.30 0.6635
441.40 0.6641
441.50 0.6647
441.60 0.6653
441.70 0.6658
441.80 0.6664
441.90 0.667
