# Version 2.1 - nm, norm@500 to 1, cut digits, bergeron_8500_90.dat_8500
# Wavelength(nm)  Flambda(ergs/cm^s/s/nm)
300.00 1.587
300.10 1.586
300.20 1.586
300.30 1.586
300.40 1.586
300.50 1.586
300.60 1.586
300.70 1.585
300.80 1.585
300.90 1.585
301.00 1.585
301.10 1.585
301.20 1.585
301.30 1.585
301.40 1.584
301.50 1.584
301.60 1.584
301.70 1.584
301.80 1.584
301.90 1.584
302.00 1.583
302.10 1.583
302.20 1.583
302.30 1.583
302.40 1.583
302.50 1.583
302.60 1.583
302.70 1.582
302.80 1.582
302.90 1.582
303.00 1.582
303.10 1.582
303.20 1.582
303.30 1.581
303.40 1.581
303.50 1.581
303.60 1.581
303.70 1.581
303.80 1.581
303.90 1.58
304.00 1.58
304.10 1.58
304.20 1.58
304.30 1.58
304.40 1.58
304.50 1.579
304.60 1.579
304.70 1.579
304.80 1.579
304.90 1.579
305.00 1.579
305.10 1.578
305.20 1.578
305.30 1.578
305.40 1.578
305.50 1.578
305.60 1.577
305.70 1.577
305.80 1.577
305.90 1.577
306.00 1.577
306.10 1.577
306.20 1.576
306.30 1.576
306.40 1.576
306.50 1.576
306.60 1.576
306.70 1.575
306.80 1.575
306.90 1.575
307.00 1.575
307.10 1.575
307.20 1.574
307.30 1.574
307.40 1.574
307.50 1.574
307.60 1.574
307.70 1.574
307.80 1.573
307.90 1.573
308.00 1.573
308.10 1.573
308.20 1.573
308.30 1.572
308.40 1.572
308.50 1.572
308.60 1.572
308.70 1.572
308.80 1.571
308.90 1.571
309.00 1.571
309.10 1.571
309.20 1.571
309.30 1.57
309.40 1.57
309.50 1.57
309.60 1.57
309.70 1.57
309.80 1.569
309.90 1.569
310.00 1.569
310.10 1.569
310.20 1.569
310.30 1.568
310.40 1.568
310.50 1.568
310.60 1.568
310.70 1.568
310.80 1.567
310.90 1.567
311.00 1.567
311.10 1.567
311.20 1.567
311.30 1.566
311.40 1.566
311.50 1.566
311.60 1.566
311.70 1.566
311.80 1.565
311.90 1.565
312.00 1.565
312.10 1.565
312.20 1.565
312.30 1.564
312.40 1.564
312.50 1.564
312.60 1.564
312.70 1.563
312.80 1.563
312.90 1.563
313.00 1.563
313.10 1.563
313.20 1.562
313.30 1.562
313.40 1.562
313.50 1.562
313.60 1.561
313.70 1.561
313.80 1.561
313.90 1.561
314.00 1.561
314.10 1.56
314.20 1.56
314.30 1.56
314.40 1.56
314.50 1.559
314.60 1.559
314.70 1.559
314.80 1.559
314.90 1.559
315.00 1.558
315.10 1.558
315.20 1.558
315.30 1.558
315.40 1.557
315.50 1.557
315.60 1.557
315.70 1.557
315.80 1.557
315.90 1.556
316.00 1.556
316.10 1.556
316.20 1.556
316.30 1.555
316.40 1.555
316.50 1.555
316.60 1.555
316.70 1.554
316.80 1.554
316.90 1.554
317.00 1.554
317.10 1.553
317.20 1.553
317.30 1.553
317.40 1.553
317.50 1.553
317.60 1.552
317.70 1.552
317.80 1.552
317.90 1.552
318.00 1.551
318.10 1.551
318.20 1.551
318.30 1.551
318.40 1.55
318.50 1.55
318.60 1.55
318.70 1.55
318.80 1.549
318.90 1.549
319.00 1.549
319.10 1.549
319.20 1.548
319.30 1.548
319.40 1.548
319.50 1.548
319.60 1.548
319.70 1.547
319.80 1.547
319.90 1.547
320.00 1.547
320.10 1.546
320.20 1.546
320.30 1.546
320.40 1.546
320.50 1.545
320.60 1.545
320.70 1.545
320.80 1.545
320.90 1.544
321.00 1.544
321.10 1.544
321.20 1.544
321.30 1.543
321.40 1.543
321.50 1.543
321.60 1.542
321.70 1.542
321.80 1.542
321.90 1.542
322.00 1.541
322.10 1.541
322.20 1.541
322.30 1.541
322.40 1.54
322.50 1.54
322.60 1.54
322.70 1.54
322.80 1.539
322.90 1.539
323.00 1.539
323.10 1.539
323.20 1.538
323.30 1.538
323.40 1.538
323.50 1.538
323.60 1.537
323.70 1.537
323.80 1.537
323.90 1.537
324.00 1.536
324.10 1.536
324.20 1.536
324.30 1.535
324.40 1.535
324.50 1.535
324.60 1.535
324.70 1.534
324.80 1.534
324.90 1.534
325.00 1.534
325.10 1.533
325.20 1.533
325.30 1.533
325.40 1.533
325.50 1.532
325.60 1.532
325.70 1.532
325.80 1.531
325.90 1.531
326.00 1.531
326.10 1.531
326.20 1.53
326.30 1.53
326.40 1.53
326.50 1.53
326.60 1.529
326.70 1.529
326.80 1.529
326.90 1.528
327.00 1.528
327.10 1.528
327.20 1.528
327.30 1.527
327.40 1.527
327.50 1.527
327.60 1.527
327.70 1.526
327.80 1.526
327.90 1.526
328.00 1.525
328.10 1.525
328.20 1.525
328.30 1.525
328.40 1.524
328.50 1.524
328.60 1.524
328.70 1.523
328.80 1.523
328.90 1.523
329.00 1.523
329.10 1.522
329.20 1.522
329.30 1.522
329.40 1.521
329.50 1.521
329.60 1.521
329.70 1.521
329.80 1.52
329.90 1.52
330.00 1.52
330.10 1.519
330.20 1.519
330.30 1.519
330.40 1.519
330.50 1.518
330.60 1.518
330.70 1.518
330.80 1.517
330.90 1.517
331.00 1.517
331.10 1.517
331.20 1.516
331.30 1.516
331.40 1.516
331.50 1.515
331.60 1.515
331.70 1.515
331.80 1.515
331.90 1.514
332.00 1.514
332.10 1.514
332.20 1.513
332.30 1.513
332.40 1.513
332.50 1.512
332.60 1.512
332.70 1.512
332.80 1.512
332.90 1.511
333.00 1.511
333.10 1.511
333.20 1.51
333.30 1.51
333.40 1.51
333.50 1.51
333.60 1.509
333.70 1.509
333.80 1.509
333.90 1.508
334.00 1.508
334.10 1.508
334.20 1.507
334.30 1.507
334.40 1.507
334.50 1.507
334.60 1.506
334.70 1.506
334.80 1.506
334.90 1.505
335.00 1.505
335.10 1.505
335.20 1.504
335.30 1.504
335.40 1.504
335.50 1.503
335.60 1.503
335.70 1.503
335.80 1.503
335.90 1.502
336.00 1.502
336.10 1.502
336.20 1.501
336.30 1.501
336.40 1.501
336.50 1.5
336.60 1.5
336.70 1.5
336.80 1.5
336.90 1.499
337.00 1.499
337.10 1.499
337.20 1.498
337.30 1.498
337.40 1.498
337.50 1.497
337.60 1.497
337.70 1.497
337.80 1.496
337.90 1.496
338.00 1.496
338.10 1.496
338.20 1.495
338.30 1.495
338.40 1.495
338.50 1.494
338.60 1.494
338.70 1.494
338.80 1.493
338.90 1.493
339.00 1.493
339.10 1.492
339.20 1.492
339.30 1.492
339.40 1.491
339.50 1.491
339.60 1.491
339.70 1.49
339.80 1.49
339.90 1.49
340.00 1.49
340.10 1.489
340.20 1.489
340.30 1.489
340.40 1.488
340.50 1.488
340.60 1.488
340.70 1.487
340.80 1.487
340.90 1.487
341.00 1.486
341.10 1.486
341.20 1.486
341.30 1.485
341.40 1.485
341.50 1.485
341.60 1.484
341.70 1.484
341.80 1.484
341.90 1.483
342.00 1.483
342.10 1.483
342.20 1.482
342.30 1.482
342.40 1.482
342.50 1.482
342.60 1.481
342.70 1.481
342.80 1.481
342.90 1.48
343.00 1.48
343.10 1.48
343.20 1.479
343.30 1.479
343.40 1.479
343.50 1.478
343.60 1.478
343.70 1.478
343.80 1.477
343.90 1.477
344.00 1.477
344.10 1.476
344.20 1.476
344.30 1.476
344.40 1.475
344.50 1.475
344.60 1.475
344.70 1.474
344.80 1.474
344.90 1.474
345.00 1.473
345.10 1.473
345.20 1.473
345.30 1.472
345.40 1.472
345.50 1.472
345.60 1.471
345.70 1.471
345.80 1.471
345.90 1.47
346.00 1.47
346.10 1.47
346.20 1.469
346.30 1.469
346.40 1.469
346.50 1.468
346.60 1.468
346.70 1.468
346.80 1.467
346.90 1.467
347.00 1.467
347.10 1.466
347.20 1.466
347.30 1.466
347.40 1.465
347.50 1.465
347.60 1.465
347.70 1.464
347.80 1.464
347.90 1.464
348.00 1.463
348.10 1.463
348.20 1.463
348.30 1.462
348.40 1.462
348.50 1.462
348.60 1.461
348.70 1.461
348.80 1.461
348.90 1.46
349.00 1.46
349.10 1.46
349.20 1.459
349.30 1.459
349.40 1.459
349.50 1.458
349.60 1.458
349.70 1.458
349.80 1.457
349.90 1.457
350.00 1.457
350.10 1.456
350.20 1.456
350.30 1.456
350.40 1.455
350.50 1.455
350.60 1.455
350.70 1.454
350.80 1.454
350.90 1.454
351.00 1.453
351.10 1.453
351.20 1.453
351.30 1.452
351.40 1.452
351.50 1.452
351.60 1.451
351.70 1.451
351.80 1.45
351.90 1.45
352.00 1.45
352.10 1.449
352.20 1.449
352.30 1.449
352.40 1.448
352.50 1.448
352.60 1.448
352.70 1.447
352.80 1.447
352.90 1.447
353.00 1.446
353.10 1.446
353.20 1.446
353.30 1.445
353.40 1.445
353.50 1.445
353.60 1.444
353.70 1.444
353.80 1.444
353.90 1.443
354.00 1.443
354.10 1.443
354.20 1.442
354.30 1.442
354.40 1.441
354.50 1.441
354.60 1.441
354.70 1.44
354.80 1.44
354.90 1.44
355.00 1.439
355.10 1.439
355.20 1.439
355.30 1.438
355.40 1.438
355.50 1.438
355.60 1.437
355.70 1.437
355.80 1.437
355.90 1.436
356.00 1.436
356.10 1.436
356.20 1.435
356.30 1.435
356.40 1.434
356.50 1.434
356.60 1.434
356.70 1.433
356.80 1.433
356.90 1.433
357.00 1.432
357.10 1.432
357.20 1.432
357.30 1.431
357.40 1.431
357.50 1.431
357.60 1.43
357.70 1.43
357.80 1.429
357.90 1.429
358.00 1.429
358.10 1.428
358.20 1.428
358.30 1.428
358.40 1.427
358.50 1.427
358.60 1.427
358.70 1.426
358.80 1.426
358.90 1.426
359.00 1.425
359.10 1.425
359.20 1.424
359.30 1.424
359.40 1.424
359.50 1.423
359.60 1.423
359.70 1.423
359.80 1.422
359.90 1.422
360.00 1.422
360.10 1.421
360.20 1.421
360.30 1.421
360.40 1.42
360.50 1.42
360.60 1.419
360.70 1.419
360.80 1.419
360.90 1.418
361.00 1.418
361.10 1.418
361.20 1.417
361.30 1.417
361.40 1.417
361.50 1.416
361.60 1.416
361.70 1.416
361.80 1.415
361.90 1.415
362.00 1.414
362.10 1.414
362.20 1.414
362.30 1.413
362.40 1.413
362.50 1.413
362.60 1.412
362.70 1.412
362.80 1.412
362.90 1.411
363.00 1.411
363.10 1.41
363.20 1.41
363.30 1.41
363.40 1.409
363.50 1.409
363.60 1.408
363.70 1.408
363.80 1.408
363.90 1.407
364.00 1.407
364.10 1.406
364.20 1.406
364.30 1.406
364.40 1.405
364.50 1.405
364.60 1.404
364.70 1.404
364.80 1.404
364.90 1.403
365.00 1.403
365.10 1.402
365.20 1.402
365.30 1.402
365.40 1.401
365.50 1.401
365.60 1.4
365.70 1.4
365.80 1.4
365.90 1.399
366.00 1.399
366.10 1.398
366.20 1.398
366.30 1.398
366.40 1.397
366.50 1.397
366.60 1.397
366.70 1.396
366.80 1.396
366.90 1.395
367.00 1.395
367.10 1.395
367.20 1.394
367.30 1.394
367.40 1.394
367.50 1.393
367.60 1.393
367.70 1.392
367.80 1.392
367.90 1.392
368.00 1.391
368.10 1.391
368.20 1.391
368.30 1.39
368.40 1.39
368.50 1.389
368.60 1.389
368.70 1.389
368.80 1.388
368.90 1.388
369.00 1.388
369.10 1.387
369.20 1.387
369.30 1.386
369.40 1.386
369.50 1.386
369.60 1.385
369.70 1.385
369.80 1.385
369.90 1.384
370.00 1.384
370.10 1.383
370.20 1.383
370.30 1.383
370.40 1.382
370.50 1.382
370.60 1.382
370.70 1.381
370.80 1.381
370.90 1.381
371.00 1.38
371.10 1.38
371.20 1.38
371.30 1.379
371.40 1.379
371.50 1.378
371.60 1.378
371.70 1.378
371.80 1.377
371.90 1.377
372.00 1.377
372.10 1.376
372.20 1.376
372.30 1.376
372.40 1.375
372.50 1.375
372.60 1.375
372.70 1.374
372.80 1.374
372.90 1.374
373.00 1.373
373.10 1.373
373.20 1.373
373.30 1.372
373.40 1.372
373.50 1.372
373.60 1.372
373.70 1.371
373.80 1.371
373.90 1.371
374.00 1.37
374.10 1.37
374.20 1.37
374.30 1.369
374.40 1.369
374.50 1.369
374.60 1.369
374.70 1.368
374.80 1.368
374.90 1.368
375.00 1.368
375.10 1.367
375.20 1.367
375.30 1.367
375.40 1.366
375.50 1.366
375.60 1.366
375.70 1.366
375.80 1.365
375.90 1.365
376.00 1.365
376.10 1.365
376.20 1.364
376.30 1.364
376.40 1.364
376.50 1.364
376.60 1.364
376.70 1.363
376.80 1.363
376.90 1.363
377.00 1.363
377.10 1.362
377.20 1.362
377.30 1.362
377.40 1.361
377.50 1.361
377.60 1.361
377.70 1.36
377.80 1.36
377.90 1.36
378.00 1.36
378.10 1.359
378.20 1.358
378.30 1.357
378.40 1.356
378.50 1.355
378.60 1.354
378.70 1.354
378.80 1.353
378.90 1.352
379.00 1.351
379.10 1.35
379.20 1.348
379.30 1.347
379.40 1.345
379.50 1.344
379.60 1.343
379.70 1.341
379.80 1.34
379.90 1.338
380.00 1.337
380.10 1.338
380.20 1.34
380.30 1.342
380.40 1.343
380.50 1.345
380.60 1.346
380.70 1.348
380.80 1.349
380.90 1.351
381.00 1.352
381.10 1.353
381.20 1.353
381.30 1.353
381.40 1.353
381.50 1.353
381.60 1.353
381.70 1.352
381.80 1.352
381.90 1.351
382.00 1.351
382.10 1.35
382.20 1.348
382.30 1.345
382.40 1.342
382.50 1.339
382.60 1.336
382.70 1.332
382.80 1.329
382.90 1.326
383.00 1.323
383.10 1.32
383.20 1.316
383.30 1.31
383.40 1.302
383.50 1.293
383.60 1.295
383.70 1.303
383.80 1.311
383.90 1.318
384.00 1.323
384.10 1.328
384.20 1.332
384.30 1.336
384.40 1.339
384.50 1.342
384.60 1.344
384.70 1.346
384.80 1.347
384.90 1.349
385.00 1.35
385.10 1.35
385.20 1.351
385.30 1.351
385.40 1.352
385.50 1.352
385.60 1.352
385.70 1.352
385.80 1.352
385.90 1.352
386.00 1.351
386.10 1.351
386.20 1.351
386.30 1.35
386.40 1.349
386.50 1.348
386.60 1.347
386.70 1.346
386.80 1.345
386.90 1.344
387.00 1.342
387.10 1.34
387.20 1.338
387.30 1.336
387.40 1.334
387.50 1.331
387.60 1.328
387.70 1.325
387.80 1.321
387.90 1.317
388.00 1.311
388.10 1.305
388.20 1.297
388.30 1.289
388.40 1.278
388.50 1.267
388.60 1.253
388.70 1.236
388.80 1.219
388.90 1.201
389.00 1.218
389.10 1.235
389.20 1.252
389.30 1.265
389.40 1.277
389.50 1.288
389.60 1.297
389.70 1.304
389.80 1.311
389.90 1.316
390.00 1.32
390.10 1.324
390.20 1.328
390.30 1.331
390.40 1.334
390.50 1.336
390.60 1.338
390.70 1.34
390.80 1.342
390.90 1.343
391.00 1.345
391.10 1.346
391.20 1.347
391.30 1.348
391.40 1.349
391.50 1.35
391.60 1.35
391.70 1.351
391.80 1.351
391.90 1.352
392.00 1.352
392.10 1.352
392.20 1.352
392.30 1.352
392.40 1.352
392.50 1.352
392.60 1.352
392.70 1.351
392.80 1.351
392.90 1.35
393.00 1.35
393.10 1.349
393.20 1.348
393.30 1.347
393.40 1.346
393.50 1.345
393.60 1.344
393.70 1.342
393.80 1.341
393.90 1.339
394.00 1.337
394.10 1.335
394.20 1.333
394.30 1.331
394.40 1.329
394.50 1.326
394.60 1.323
394.70 1.32
394.80 1.317
394.90 1.314
395.00 1.31
395.10 1.306
395.20 1.302
395.30 1.297
395.40 1.293
395.50 1.287
395.60 1.282
395.70 1.275
395.80 1.269
395.90 1.261
396.00 1.252
396.10 1.243
396.20 1.231
396.30 1.217
396.40 1.201
396.50 1.18
396.60 1.156
396.70 1.128
396.80 1.093
396.90 1.053
397.00 1.01
397.10 1.049
397.20 1.087
397.30 1.123
397.40 1.151
397.50 1.176
397.60 1.197
397.70 1.213
397.80 1.227
397.90 1.239
398.00 1.248
398.10 1.256
398.20 1.264
398.30 1.271
398.40 1.277
398.50 1.282
398.60 1.287
398.70 1.292
398.80 1.296
398.90 1.3
399.00 1.304
399.10 1.307
399.20 1.311
399.30 1.314
399.40 1.316
399.50 1.319
399.60 1.321
399.70 1.324
399.80 1.326
399.90 1.328
400.00 1.329
400.10 1.331
400.20 1.333
400.30 1.334
400.40 1.335
400.50 1.337
400.60 1.338
400.70 1.339
400.80 1.34
400.90 1.341
401.00 1.342
401.10 1.342
401.20 1.343
401.30 1.343
401.40 1.344
401.50 1.345
401.60 1.345
401.70 1.345
401.80 1.346
401.90 1.346
402.00 1.346
402.10 1.346
402.20 1.346
402.30 1.346
402.40 1.347
402.50 1.346
402.60 1.346
402.70 1.346
402.80 1.346
402.90 1.346
403.00 1.346
403.10 1.346
403.20 1.345
403.30 1.345
403.40 1.344
403.50 1.344
403.60 1.344
403.70 1.343
403.80 1.343
403.90 1.342
404.00 1.341
404.10 1.341
404.20 1.34
404.30 1.339
404.40 1.338
404.50 1.338
404.60 1.337
404.70 1.336
404.80 1.335
404.90 1.334
405.00 1.333
405.10 1.331
405.20 1.33
405.30 1.329
405.40 1.328
405.50 1.326
405.60 1.325
405.70 1.323
405.80 1.321
405.90 1.319
406.00 1.318
406.10 1.316
406.20 1.314
406.30 1.311
406.40 1.309
406.50 1.307
406.60 1.304
406.70 1.301
406.80 1.299
406.90 1.296
407.00 1.292
407.10 1.289
407.20 1.285
407.30 1.282
407.40 1.278
407.50 1.273
407.60 1.269
407.70 1.264
407.80 1.259
407.90 1.253
408.00 1.247
408.10 1.241
408.20 1.235
408.30 1.227
408.40 1.22
408.50 1.212
408.60 1.203
408.70 1.193
408.80 1.183
408.90 1.172
409.00 1.16
409.10 1.147
409.20 1.132
409.30 1.116
409.40 1.097
409.50 1.074
409.60 1.049
409.70 1.014
409.80 0.9724
409.90 0.924
410.00 0.8593
410.10 0.802
410.20 0.7523
410.30 0.8275
410.40 0.8939
410.50 0.9517
410.60 0.9944
410.70 1.031
410.80 1.061
410.90 1.084
411.00 1.104
411.10 1.121
411.20 1.136
411.30 1.149
411.40 1.161
411.50 1.172
411.60 1.182
411.70 1.191
411.80 1.199
411.90 1.207
412.00 1.214
412.10 1.221
412.20 1.227
412.30 1.233
412.40 1.238
412.50 1.243
412.60 1.248
412.70 1.252
412.80 1.256
412.90 1.26
413.00 1.264
413.10 1.267
413.20 1.27
413.30 1.273
413.40 1.275
413.50 1.278
413.60 1.28
413.70 1.282
413.80 1.284
413.90 1.286
414.00 1.288
414.10 1.29
414.20 1.291
414.30 1.292
414.40 1.294
414.50 1.295
414.60 1.296
414.70 1.297
414.80 1.298
414.90 1.299
415.00 1.3
415.10 1.301
415.20 1.302
415.30 1.302
415.40 1.303
415.50 1.303
415.60 1.304
415.70 1.304
415.80 1.305
415.90 1.305
416.00 1.306
416.10 1.306
416.20 1.306
416.30 1.307
416.40 1.307
416.50 1.307
416.60 1.307
416.70 1.307
416.80 1.308
416.90 1.308
417.00 1.308
417.10 1.308
417.20 1.308
417.30 1.308
417.40 1.308
417.50 1.308
417.60 1.308
417.70 1.308
417.80 1.308
417.90 1.308
418.00 1.308
418.10 1.308
418.20 1.308
418.30 1.307
418.40 1.307
418.50 1.307
418.60 1.307
418.70 1.307
418.80 1.307
418.90 1.306
419.00 1.306
419.10 1.306
419.20 1.306
419.30 1.306
419.40 1.305
419.50 1.305
419.60 1.305
419.70 1.305
419.80 1.304
419.90 1.304
420.00 1.304
420.10 1.303
420.20 1.303
420.30 1.303
420.40 1.302
420.50 1.302
420.60 1.302
420.70 1.301
420.80 1.301
420.90 1.301
421.00 1.3
421.10 1.3
421.20 1.3
421.30 1.299
421.40 1.299
421.50 1.299
421.60 1.298
421.70 1.298
421.80 1.297
421.90 1.297
422.00 1.297
422.10 1.296
422.20 1.296
422.30 1.295
422.40 1.295
422.50 1.295
422.60 1.294
422.70 1.294
422.80 1.293
422.90 1.293
423.00 1.292
423.10 1.292
423.20 1.291
423.30 1.291
423.40 1.29
423.50 1.29
423.60 1.289
423.70 1.289
423.80 1.288
423.90 1.288
424.00 1.287
424.10 1.287
424.20 1.286
424.30 1.286
424.40 1.285
424.50 1.284
424.60 1.284
424.70 1.283
424.80 1.283
424.90 1.282
425.00 1.281
425.10 1.281
425.20 1.28
425.30 1.28
425.40 1.279
425.50 1.278
425.60 1.278
425.70 1.277
425.80 1.276
425.90 1.276
426.00 1.275
426.10 1.274
426.20 1.273
426.30 1.272
426.40 1.272
426.50 1.271
426.60 1.27
426.70 1.269
426.80 1.268
426.90 1.267
427.00 1.266
427.10 1.266
427.20 1.265
427.30 1.264
427.40 1.263
427.50 1.262
427.60 1.261
427.70 1.259
427.80 1.258
427.90 1.257
428.00 1.256
428.10 1.255
428.20 1.253
428.30 1.252
428.40 1.251
428.50 1.249
428.60 1.248
428.70 1.246
428.80 1.245
428.90 1.243
429.00 1.242
429.10 1.24
429.20 1.238
429.30 1.236
429.40 1.234
429.50 1.232
429.60 1.23
429.70 1.228
429.80 1.226
429.90 1.223
430.00 1.221
430.10 1.218
430.20 1.215
430.30 1.212
430.40 1.209
430.50 1.206
430.60 1.203
430.70 1.199
430.80 1.195
430.90 1.191
431.00 1.187
431.10 1.183
431.20 1.178
431.30 1.173
431.40 1.168
431.50 1.162
431.60 1.156
431.70 1.15
431.80 1.143
431.90 1.136
432.00 1.128
432.10 1.12
432.20 1.11
432.30 1.1
432.40 1.09
432.50 1.078
432.60 1.065
432.70 1.052
432.80 1.036
432.90 1.019
433.00 1.002
433.10 0.9816
433.20 0.9597
433.30 0.936
433.40 0.9066
433.50 0.8718
433.60 0.8317
433.70 0.7719
433.80 0.7015
433.90 0.6205
434.00 0.5333
434.10 0.5356
434.20 0.6274
434.30 0.7072
434.40 0.7761
434.50 0.8342
434.60 0.8731
434.70 0.9068
434.80 0.9353
434.90 0.9581
435.00 0.9792
435.10 0.9986
435.20 1.016
435.30 1.031
435.40 1.046
435.50 1.059
435.60 1.071
435.70 1.082
435.80 1.091
435.90 1.1
436.00 1.109
436.10 1.116
436.20 1.123
436.30 1.13
436.40 1.136
436.50 1.141
436.60 1.146
436.70 1.151
436.80 1.156
436.90 1.16
437.00 1.163
437.10 1.167
437.20 1.17
437.30 1.174
437.40 1.176
437.50 1.179
437.60 1.182
437.70 1.184
437.80 1.186
437.90 1.188
438.00 1.19
438.10 1.192
438.20 1.194
438.30 1.195
438.40 1.197
438.50 1.198
438.60 1.2
438.70 1.201
438.80 1.202
438.90 1.203
439.00 1.204
439.10 1.205
439.20 1.206
439.30 1.207
439.40 1.207
439.50 1.208
439.60 1.208
439.70 1.209
439.80 1.21
439.90 1.21
440.00 1.211
440.10 1.211
440.20 1.211
440.30 1.212
440.40 1.212
440.50 1.212
440.60 1.212
440.70 1.213
440.80 1.213
440.90 1.213
441.00 1.213
441.10 1.213
441.20 1.213
441.30 1.213
441.40 1.214
441.50 1.214
441.60 1.214
441.70 1.214
441.80 1.214
441.90 1.214
442.00 1.214
442.10 1.214
442.20 1.213
442.30 1.213
442.40 1.213
442.50 1.213
442.60 1.213
442.70 1.213
442.80 1.213
442.90 1.213
443.00 1.213
443.10 1.212
443.20 1.212
443.30 1.212
443.40 1.212
443.50 1.212
443.60 1.212
443.70 1.211
443.80 1.211
443.90 1.211
444.00 1.211
444.10 1.21
444.20 1.21
444.30 1.21
444.40 1.21
444.50 1.21
444.60 1.209
444.70 1.209
444.80 1.209
444.90 1.209
445.00 1.208
445.10 1.208
445.20 1.208
445.30 1.207
445.40 1.207
445.50 1.207
445.60 1.207
445.70 1.206
445.80 1.206
445.90 1.206
446.00 1.205
446.10 1.205
446.20 1.205
446.30 1.205
446.40 1.204
446.50 1.204
446.60 1.204
446.70 1.203
446.80 1.203
446.90 1.203
447.00 1.202
447.10 1.202
447.20 1.202
447.30 1.201
447.40 1.201
447.50 1.201
447.60 1.2
447.70 1.2
447.80 1.2
447.90 1.199
448.00 1.199
448.10 1.199
448.20 1.198
448.30 1.198
448.40 1.198
448.50 1.197
448.60 1.197
448.70 1.197
448.80 1.196
448.90 1.196
449.00 1.196
449.10 1.195
449.20 1.195
449.30 1.194
449.40 1.194
449.50 1.194
449.60 1.193
449.70 1.193
449.80 1.193
449.90 1.192
450.00 1.192
450.10 1.192
450.20 1.191
450.30 1.191
450.40 1.191
450.50 1.19
450.60 1.19
450.70 1.189
450.80 1.189
450.90 1.189
451.00 1.188
451.10 1.188
451.20 1.188
451.30 1.187
451.40 1.187
451.50 1.186
451.60 1.186
451.70 1.186
451.80 1.185
451.90 1.185
452.00 1.185
452.10 1.184
452.20 1.184
452.30 1.183
452.40 1.183
452.50 1.183
452.60 1.182
452.70 1.182
452.80 1.182
452.90 1.181
453.00 1.181
453.10 1.18
453.20 1.18
453.30 1.18
453.40 1.179
453.50 1.179
453.60 1.179
453.70 1.178
453.80 1.178
453.90 1.177
