# Version 2.1 - nm, norm@500 to 1, cut digits, bergeron_12000_80.dat_12000
# Wavelength(nm)  Flambda(ergs/cm^s/s/nm)
300.00 1.86
300.10 1.858
300.20 1.857
300.30 1.856
300.40 1.855
300.50 1.854
300.60 1.853
300.70 1.852
300.80 1.85
300.90 1.849
301.00 1.848
301.10 1.847
301.20 1.846
301.30 1.845
301.40 1.844
301.50 1.842
301.60 1.841
301.70 1.84
301.80 1.839
301.90 1.838
302.00 1.837
302.10 1.836
302.20 1.834
302.30 1.833
302.40 1.832
302.50 1.831
302.60 1.83
302.70 1.829
302.80 1.828
302.90 1.826
303.00 1.825
303.10 1.824
303.20 1.823
303.30 1.822
303.40 1.821
303.50 1.82
303.60 1.819
303.70 1.817
303.80 1.816
303.90 1.815
304.00 1.814
304.10 1.813
304.20 1.812
304.30 1.811
304.40 1.81
304.50 1.808
304.60 1.807
304.70 1.806
304.80 1.805
304.90 1.804
305.00 1.803
305.10 1.802
305.20 1.801
305.30 1.799
305.40 1.798
305.50 1.797
305.60 1.796
305.70 1.795
305.80 1.794
305.90 1.793
306.00 1.792
306.10 1.791
306.20 1.789
306.30 1.788
306.40 1.787
306.50 1.786
306.60 1.785
306.70 1.784
306.80 1.783
306.90 1.782
307.00 1.781
307.10 1.78
307.20 1.778
307.30 1.777
307.40 1.776
307.50 1.775
307.60 1.774
307.70 1.773
307.80 1.772
307.90 1.771
308.00 1.77
308.10 1.769
308.20 1.767
308.30 1.766
308.40 1.765
308.50 1.764
308.60 1.763
308.70 1.762
308.80 1.761
308.90 1.76
309.00 1.759
309.10 1.758
309.20 1.757
309.30 1.756
309.40 1.754
309.50 1.753
309.60 1.752
309.70 1.751
309.80 1.75
309.90 1.749
310.00 1.748
310.10 1.747
310.20 1.746
310.30 1.745
310.40 1.744
310.50 1.743
310.60 1.741
310.70 1.74
310.80 1.739
310.90 1.738
311.00 1.737
311.10 1.736
311.20 1.735
311.30 1.734
311.40 1.733
311.50 1.732
311.60 1.731
311.70 1.73
311.80 1.729
311.90 1.728
312.00 1.727
312.10 1.725
312.20 1.724
312.30 1.723
312.40 1.722
312.50 1.721
312.60 1.72
312.70 1.719
312.80 1.718
312.90 1.717
313.00 1.716
313.10 1.715
313.20 1.714
313.30 1.713
313.40 1.712
313.50 1.711
313.60 1.71
313.70 1.709
313.80 1.708
313.90 1.706
314.00 1.705
314.10 1.704
314.20 1.703
314.30 1.702
314.40 1.701
314.50 1.7
314.60 1.699
314.70 1.698
314.80 1.697
314.90 1.696
315.00 1.695
315.10 1.694
315.20 1.693
315.30 1.692
315.40 1.691
315.50 1.69
315.60 1.689
315.70 1.688
315.80 1.687
315.90 1.686
316.00 1.685
316.10 1.684
316.20 1.683
316.30 1.681
316.40 1.68
316.50 1.679
316.60 1.678
316.70 1.677
316.80 1.676
316.90 1.675
317.00 1.674
317.10 1.673
317.20 1.672
317.30 1.671
317.40 1.67
317.50 1.669
317.60 1.668
317.70 1.667
317.80 1.666
317.90 1.665
318.00 1.664
318.10 1.663
318.20 1.662
318.30 1.661
318.40 1.66
318.50 1.659
318.60 1.658
318.70 1.657
318.80 1.656
318.90 1.655
319.00 1.654
319.10 1.653
319.20 1.652
319.30 1.651
319.40 1.65
319.50 1.649
319.60 1.648
319.70 1.647
319.80 1.646
319.90 1.645
320.00 1.644
320.10 1.643
320.20 1.642
320.30 1.641
320.40 1.64
320.50 1.639
320.60 1.638
320.70 1.637
320.80 1.636
320.90 1.635
321.00 1.634
321.10 1.633
321.20 1.632
321.30 1.631
321.40 1.63
321.50 1.629
321.60 1.628
321.70 1.627
321.80 1.626
321.90 1.625
322.00 1.624
322.10 1.623
322.20 1.622
322.30 1.621
322.40 1.62
322.50 1.619
322.60 1.618
322.70 1.617
322.80 1.616
322.90 1.615
323.00 1.614
323.10 1.613
323.20 1.612
323.30 1.611
323.40 1.61
323.50 1.609
323.60 1.608
323.70 1.607
323.80 1.606
323.90 1.605
324.00 1.604
324.10 1.603
324.20 1.602
324.30 1.601
324.40 1.6
324.50 1.599
324.60 1.598
324.70 1.597
324.80 1.596
324.90 1.595
325.00 1.594
325.10 1.593
325.20 1.592
325.30 1.592
325.40 1.591
325.50 1.59
325.60 1.589
325.70 1.588
325.80 1.587
325.90 1.586
326.00 1.585
326.10 1.584
326.20 1.583
326.30 1.582
326.40 1.581
326.50 1.58
326.60 1.579
326.70 1.578
326.80 1.577
326.90 1.576
327.00 1.575
327.10 1.574
327.20 1.573
327.30 1.572
327.40 1.571
327.50 1.57
327.60 1.569
327.70 1.568
327.80 1.568
327.90 1.567
328.00 1.566
328.10 1.565
328.20 1.564
328.30 1.563
328.40 1.562
328.50 1.561
328.60 1.56
328.70 1.559
328.80 1.558
328.90 1.557
329.00 1.556
329.10 1.555
329.20 1.554
329.30 1.553
329.40 1.552
329.50 1.551
329.60 1.55
329.70 1.55
329.80 1.549
329.90 1.548
330.00 1.547
330.10 1.546
330.20 1.545
330.30 1.544
330.40 1.543
330.50 1.542
330.60 1.541
330.70 1.54
330.80 1.539
330.90 1.538
331.00 1.537
331.10 1.536
331.20 1.536
331.30 1.535
331.40 1.534
331.50 1.533
331.60 1.532
331.70 1.531
331.80 1.53
331.90 1.529
332.00 1.528
332.10 1.527
332.20 1.526
332.30 1.525
332.40 1.524
332.50 1.524
332.60 1.523
332.70 1.522
332.80 1.521
332.90 1.52
333.00 1.519
333.10 1.518
333.20 1.517
333.30 1.516
333.40 1.515
333.50 1.514
333.60 1.513
333.70 1.513
333.80 1.512
333.90 1.511
334.00 1.51
334.10 1.509
334.20 1.508
334.30 1.507
334.40 1.506
334.50 1.505
334.60 1.504
334.70 1.503
334.80 1.503
334.90 1.502
335.00 1.501
335.10 1.5
335.20 1.499
335.30 1.498
335.40 1.497
335.50 1.496
335.60 1.495
335.70 1.494
335.80 1.494
335.90 1.493
336.00 1.492
336.10 1.491
336.20 1.49
336.30 1.489
336.40 1.488
336.50 1.487
336.60 1.486
336.70 1.485
336.80 1.485
336.90 1.484
337.00 1.483
337.10 1.482
337.20 1.481
337.30 1.48
337.40 1.479
337.50 1.478
337.60 1.477
337.70 1.477
337.80 1.476
337.90 1.475
338.00 1.474
338.10 1.473
338.20 1.472
338.30 1.471
338.40 1.47
338.50 1.469
338.60 1.469
338.70 1.468
338.80 1.467
338.90 1.466
339.00 1.465
339.10 1.464
339.20 1.463
339.30 1.462
339.40 1.462
339.50 1.461
339.60 1.46
339.70 1.459
339.80 1.458
339.90 1.457
340.00 1.456
340.10 1.455
340.20 1.455
340.30 1.454
340.40 1.453
340.50 1.452
340.60 1.451
340.70 1.45
340.80 1.449
340.90 1.448
341.00 1.448
341.10 1.447
341.20 1.446
341.30 1.445
341.40 1.444
341.50 1.443
341.60 1.442
341.70 1.442
341.80 1.441
341.90 1.44
342.00 1.439
342.10 1.438
342.20 1.437
342.30 1.436
342.40 1.436
342.50 1.435
342.60 1.434
342.70 1.433
342.80 1.432
342.90 1.431
343.00 1.43
343.10 1.43
343.20 1.429
343.30 1.428
343.40 1.427
343.50 1.426
343.60 1.425
343.70 1.424
343.80 1.424
343.90 1.423
344.00 1.422
344.10 1.421
344.20 1.42
344.30 1.419
344.40 1.418
344.50 1.418
344.60 1.417
344.70 1.416
344.80 1.415
344.90 1.414
345.00 1.413
345.10 1.413
345.20 1.412
345.30 1.411
345.40 1.41
345.50 1.409
345.60 1.408
345.70 1.408
345.80 1.407
345.90 1.406
346.00 1.405
346.10 1.404
346.20 1.403
346.30 1.403
346.40 1.402
346.50 1.401
346.60 1.4
346.70 1.399
346.80 1.398
346.90 1.398
347.00 1.397
347.10 1.396
347.20 1.395
347.30 1.394
347.40 1.393
347.50 1.393
347.60 1.392
347.70 1.391
347.80 1.39
347.90 1.389
348.00 1.388
348.10 1.388
348.20 1.387
348.30 1.386
348.40 1.385
348.50 1.384
348.60 1.383
348.70 1.383
348.80 1.382
348.90 1.381
349.00 1.38
349.10 1.379
349.20 1.379
349.30 1.378
349.40 1.377
349.50 1.376
349.60 1.375
349.70 1.374
349.80 1.374
349.90 1.373
350.00 1.372
350.10 1.371
350.20 1.37
350.30 1.37
350.40 1.369
350.50 1.368
350.60 1.367
350.70 1.366
350.80 1.366
350.90 1.365
351.00 1.364
351.10 1.363
351.20 1.362
351.30 1.362
351.40 1.361
351.50 1.36
351.60 1.359
351.70 1.358
351.80 1.358
351.90 1.357
352.00 1.356
352.10 1.355
352.20 1.354
352.30 1.353
352.40 1.353
352.50 1.352
352.60 1.351
352.70 1.35
352.80 1.35
352.90 1.349
353.00 1.348
353.10 1.347
353.20 1.346
353.30 1.346
353.40 1.345
353.50 1.344
353.60 1.343
353.70 1.342
353.80 1.342
353.90 1.341
354.00 1.34
354.10 1.339
354.20 1.338
354.30 1.338
354.40 1.337
354.50 1.336
354.60 1.335
354.70 1.334
354.80 1.334
354.90 1.333
355.00 1.332
355.10 1.331
355.20 1.331
355.30 1.33
355.40 1.329
355.50 1.328
355.60 1.327
355.70 1.327
355.80 1.326
355.90 1.325
356.00 1.324
356.10 1.324
356.20 1.323
356.30 1.322
356.40 1.321
356.50 1.32
356.60 1.32
356.70 1.319
356.80 1.318
356.90 1.317
357.00 1.317
357.10 1.316
357.20 1.315
357.30 1.314
357.40 1.313
357.50 1.313
357.60 1.312
357.70 1.311
357.80 1.31
357.90 1.31
358.00 1.309
358.10 1.308
358.20 1.307
358.30 1.307
358.40 1.306
358.50 1.305
358.60 1.304
358.70 1.303
358.80 1.303
358.90 1.302
359.00 1.301
359.10 1.3
359.20 1.3
359.30 1.299
359.40 1.298
359.50 1.297
359.60 1.297
359.70 1.296
359.80 1.295
359.90 1.294
360.00 1.294
360.10 1.293
360.20 1.292
360.30 1.291
360.40 1.291
360.50 1.29
360.60 1.289
360.70 1.288
360.80 1.288
360.90 1.287
361.00 1.286
361.10 1.285
361.20 1.284
361.30 1.284
361.40 1.283
361.50 1.282
361.60 1.281
361.70 1.281
361.80 1.28
361.90 1.279
362.00 1.279
362.10 1.278
362.20 1.277
362.30 1.276
362.40 1.276
362.50 1.275
362.60 1.274
362.70 1.273
362.80 1.273
362.90 1.272
363.00 1.271
363.10 1.27
363.20 1.269
363.30 1.269
363.40 1.268
363.50 1.267
363.60 1.266
363.70 1.265
363.80 1.264
363.90 1.264
364.00 1.263
364.10 1.262
364.20 1.261
364.30 1.26
364.40 1.26
364.50 1.259
364.60 1.258
364.70 1.257
364.80 1.256
364.90 1.255
365.00 1.254
365.10 1.254
365.20 1.253
365.30 1.252
365.40 1.251
365.50 1.25
365.60 1.249
365.70 1.249
365.80 1.248
365.90 1.247
366.00 1.246
366.10 1.245
366.20 1.245
366.30 1.244
366.40 1.243
366.50 1.242
366.60 1.242
366.70 1.241
366.80 1.24
366.90 1.239
367.00 1.239
367.10 1.238
367.20 1.237
367.30 1.236
367.40 1.236
367.50 1.235
367.60 1.234
367.70 1.233
367.80 1.233
367.90 1.232
368.00 1.231
368.10 1.231
368.20 1.23
368.30 1.229
368.40 1.229
368.50 1.228
368.60 1.228
368.70 1.227
368.80 1.227
368.90 1.226
369.00 1.226
369.10 1.225
369.20 1.225
369.30 1.224
369.40 1.223
369.50 1.223
369.60 1.222
369.70 1.222
369.80 1.221
369.90 1.221
370.00 1.22
370.10 1.22
370.20 1.22
370.30 1.22
370.40 1.22
370.50 1.221
370.60 1.221
370.70 1.221
370.80 1.221
370.90 1.221
371.00 1.221
371.10 1.221
371.20 1.221
371.30 1.221
371.40 1.221
371.50 1.221
371.60 1.221
371.70 1.221
371.80 1.222
371.90 1.222
372.00 1.222
372.10 1.223
372.20 1.224
372.30 1.224
372.40 1.225
372.50 1.226
372.60 1.227
372.70 1.228
372.80 1.229
372.90 1.23
373.00 1.231
373.10 1.232
373.20 1.233
373.30 1.234
373.40 1.235
373.50 1.236
373.60 1.237
373.70 1.238
373.80 1.238
373.90 1.239
374.00 1.24
374.10 1.242
374.20 1.243
374.30 1.244
374.40 1.246
374.50 1.247
374.60 1.248
374.70 1.25
374.80 1.251
374.90 1.252
375.00 1.254
375.10 1.255
375.20 1.256
375.30 1.257
375.40 1.259
375.50 1.26
375.60 1.261
375.70 1.263
375.80 1.264
375.90 1.265
376.00 1.267
376.10 1.267
376.20 1.268
376.30 1.269
376.40 1.269
376.50 1.27
376.60 1.271
376.70 1.271
376.80 1.272
376.90 1.273
377.00 1.273
377.10 1.272
377.20 1.271
377.30 1.27
377.40 1.269
377.50 1.268
377.60 1.267
377.70 1.266
377.80 1.265
377.90 1.263
378.00 1.262
378.10 1.256
378.20 1.249
378.30 1.242
378.40 1.236
378.50 1.229
378.60 1.222
378.70 1.216
378.80 1.209
378.90 1.202
379.00 1.196
379.10 1.191
379.20 1.186
379.30 1.181
379.40 1.176
379.50 1.171
379.60 1.166
379.70 1.161
379.80 1.156
379.90 1.151
380.00 1.146
380.10 1.154
380.20 1.162
380.30 1.17
380.40 1.178
380.50 1.186
380.60 1.194
380.70 1.202
380.80 1.21
380.90 1.218
381.00 1.226
381.10 1.229
381.20 1.231
381.30 1.234
381.40 1.237
381.50 1.239
381.60 1.239
381.70 1.237
381.80 1.234
381.90 1.23
382.00 1.225
382.10 1.218
382.20 1.21
382.30 1.194
382.40 1.178
382.50 1.162
382.60 1.147
382.70 1.131
382.80 1.115
382.90 1.099
383.00 1.083
383.10 1.067
383.20 1.051
383.30 1.039
383.40 1.024
383.50 1.009
383.60 1.012
383.70 1.028
383.80 1.043
383.90 1.056
384.00 1.073
384.10 1.093
384.20 1.114
384.30 1.134
384.40 1.154
384.50 1.173
384.60 1.19
384.70 1.205
384.80 1.218
384.90 1.228
385.00 1.238
385.10 1.245
385.20 1.252
385.30 1.258
385.40 1.263
385.50 1.267
385.60 1.27
385.70 1.272
385.80 1.273
385.90 1.274
386.00 1.274
386.10 1.272
386.20 1.271
386.30 1.268
386.40 1.264
386.50 1.26
386.60 1.254
386.70 1.248
386.80 1.242
386.90 1.234
387.00 1.225
387.10 1.216
387.20 1.205
387.30 1.193
387.40 1.181
387.50 1.166
387.60 1.151
387.70 1.134
387.80 1.114
387.90 1.092
388.00 1.069
388.10 1.041
388.20 1.012
388.30 0.9804
388.40 0.9475
388.50 0.9174
388.60 0.8901
388.70 0.8676
388.80 0.8472
388.90 0.8289
389.00 0.8457
389.10 0.8653
389.20 0.8877
389.30 0.9146
389.40 0.9446
389.50 0.9777
389.60 1.01
389.70 1.04
389.80 1.069
389.90 1.094
390.00 1.117
390.10 1.139
390.20 1.157
390.30 1.175
390.40 1.191
390.50 1.206
390.60 1.219
390.70 1.233
390.80 1.245
390.90 1.257
391.00 1.268
391.10 1.277
391.20 1.287
391.30 1.296
391.40 1.303
391.50 1.311
391.60 1.318
391.70 1.324
391.80 1.329
391.90 1.334
392.00 1.338
392.10 1.342
392.20 1.345
392.30 1.347
392.40 1.349
392.50 1.35
392.60 1.351
392.70 1.351
392.80 1.35
392.90 1.349
393.00 1.347
393.10 1.345
393.20 1.341
393.30 1.338
393.40 1.333
393.50 1.328
393.60 1.322
393.70 1.316
393.80 1.309
393.90 1.301
394.00 1.293
394.10 1.283
394.20 1.274
394.30 1.263
394.40 1.252
394.50 1.24
394.60 1.227
394.70 1.214
394.80 1.2
394.90 1.186
395.00 1.171
395.10 1.155
395.20 1.138
395.30 1.121
395.40 1.103
395.50 1.084
395.60 1.063
395.70 1.042
395.80 1.02
395.90 0.9966
396.00 0.9723
396.10 0.947
396.20 0.9182
396.30 0.8869
396.40 0.8532
396.50 0.816
396.60 0.7794
396.70 0.7434
396.80 0.7132
396.90 0.6805
397.00 0.6453
397.10 0.6776
397.20 0.7084
397.30 0.7377
397.40 0.7727
397.50 0.8087
397.60 0.8455
397.70 0.8791
397.80 0.9103
397.90 0.9391
398.00 0.9641
398.10 0.9883
398.20 1.012
398.30 1.033
398.40 1.055
398.50 1.075
398.60 1.094
398.70 1.113
398.80 1.13
398.90 1.147
399.00 1.163
399.10 1.179
399.20 1.194
399.30 1.209
399.40 1.224
399.50 1.238
399.60 1.251
399.70 1.264
399.80 1.276
399.90 1.288
400.00 1.3
400.10 1.311
400.20 1.321
400.30 1.331
400.40 1.341
400.50 1.35
400.60 1.359
400.70 1.367
400.80 1.375
400.90 1.383
401.00 1.39
401.10 1.396
401.20 1.403
401.30 1.409
401.40 1.414
401.50 1.42
401.60 1.425
401.70 1.429
401.80 1.434
401.90 1.438
402.00 1.441
402.10 1.445
402.20 1.448
402.30 1.451
402.40 1.453
402.50 1.455
402.60 1.457
402.70 1.459
402.80 1.46
402.90 1.461
403.00 1.462
403.10 1.462
403.20 1.462
403.30 1.462
403.40 1.461
403.50 1.461
403.60 1.46
403.70 1.458
403.80 1.457
403.90 1.455
404.00 1.453
404.10 1.45
404.20 1.447
404.30 1.444
404.40 1.441
404.50 1.437
404.60 1.433
404.70 1.429
404.80 1.424
404.90 1.419
405.00 1.414
405.10 1.409
405.20 1.403
405.30 1.397
405.40 1.39
405.50 1.383
405.60 1.376
405.70 1.369
405.80 1.361
405.90 1.352
406.00 1.344
406.10 1.335
406.20 1.326
406.30 1.316
406.40 1.306
406.50 1.296
406.60 1.285
406.70 1.274
406.80 1.262
406.90 1.25
407.00 1.237
407.10 1.224
407.20 1.211
407.30 1.197
407.40 1.182
407.50 1.167
407.60 1.152
407.70 1.136
407.80 1.12
407.90 1.103
408.00 1.086
408.10 1.069
408.20 1.051
408.30 1.032
408.40 1.014
408.50 0.9945
408.60 0.9747
408.70 0.9543
408.80 0.9331
408.90 0.9116
409.00 0.89
409.10 0.8678
409.20 0.8453
409.30 0.8222
409.40 0.7966
409.50 0.7695
409.60 0.7408
409.70 0.7091
409.80 0.6769
409.90 0.6443
410.00 0.6097
410.10 0.5769
410.20 0.5457
410.30 0.59
410.40 0.6283
410.50 0.6605
410.60 0.6926
410.70 0.7238
410.80 0.7539
410.90 0.7808
411.00 0.8061
411.10 0.8298
411.20 0.8516
411.30 0.8731
411.40 0.8941
411.50 0.9148
411.60 0.9351
411.70 0.9551
411.80 0.9741
411.90 0.9927
412.00 1.011
412.10 1.028
412.20 1.045
412.30 1.062
412.40 1.078
412.50 1.094
412.60 1.109
412.70 1.124
412.80 1.139
412.90 1.153
413.00 1.167
413.10 1.18
413.20 1.193
413.30 1.205
413.40 1.217
413.50 1.229
413.60 1.24
413.70 1.251
413.80 1.261
413.90 1.271
414.00 1.281
414.10 1.29
414.20 1.299
414.30 1.308
414.40 1.317
414.50 1.325
414.60 1.333
414.70 1.341
414.80 1.348
414.90 1.356
415.00 1.363
415.10 1.369
415.20 1.376
415.30 1.382
415.40 1.388
415.50 1.394
415.60 1.4
415.70 1.405
415.80 1.41
415.90 1.416
416.00 1.42
416.10 1.425
416.20 1.43
416.30 1.434
416.40 1.438
416.50 1.442
416.60 1.446
416.70 1.45
416.80 1.454
416.90 1.457
417.00 1.461
417.10 1.464
417.20 1.467
417.30 1.47
417.40 1.473
417.50 1.475
417.60 1.478
417.70 1.48
417.80 1.483
417.90 1.485
418.00 1.487
418.10 1.489
418.20 1.491
418.30 1.493
418.40 1.495
418.50 1.496
418.60 1.498
418.70 1.499
418.80 1.501
418.90 1.502
419.00 1.503
419.10 1.504
419.20 1.505
419.30 1.506
419.40 1.507
419.50 1.508
419.60 1.509
419.70 1.509
419.80 1.51
419.90 1.51
420.00 1.511
420.10 1.511
420.20 1.512
420.30 1.512
420.40 1.512
420.50 1.512
420.60 1.512
420.70 1.512
420.80 1.512
420.90 1.512
421.00 1.511
421.10 1.511
421.20 1.511
421.30 1.51
421.40 1.51
421.50 1.509
421.60 1.509
421.70 1.508
421.80 1.507
421.90 1.507
422.00 1.506
422.10 1.505
422.20 1.504
422.30 1.503
422.40 1.502
422.50 1.501
422.60 1.499
422.70 1.498
422.80 1.497
422.90 1.495
423.00 1.494
423.10 1.492
423.20 1.491
423.30 1.489
423.40 1.487
423.50 1.486
423.60 1.484
423.70 1.482
423.80 1.48
423.90 1.478
424.00 1.476
424.10 1.474
424.20 1.472
424.30 1.469
424.40 1.467
424.50 1.465
424.60 1.462
424.70 1.46
424.80 1.457
424.90 1.454
425.00 1.452
425.10 1.449
425.20 1.446
425.30 1.443
425.40 1.44
425.50 1.437
425.60 1.433
425.70 1.43
425.80 1.427
425.90 1.423
426.00 1.42
426.10 1.416
426.20 1.411
426.30 1.407
426.40 1.403
426.50 1.399
426.60 1.395
426.70 1.391
426.80 1.386
426.90 1.382
427.00 1.377
427.10 1.373
427.20 1.368
427.30 1.363
427.40 1.358
427.50 1.353
427.60 1.348
427.70 1.342
427.80 1.337
427.90 1.331
428.00 1.325
428.10 1.319
428.20 1.313
428.30 1.307
428.40 1.301
428.50 1.294
428.60 1.287
428.70 1.28
428.80 1.274
428.90 1.266
429.00 1.259
429.10 1.251
429.20 1.244
429.30 1.236
429.40 1.227
429.50 1.219
429.60 1.21
429.70 1.202
429.80 1.193
429.90 1.183
430.00 1.174
430.10 1.164
430.20 1.155
430.30 1.144
430.40 1.134
430.50 1.123
430.60 1.113
430.70 1.101
430.80 1.09
430.90 1.078
431.00 1.066
431.10 1.054
431.20 1.042
431.30 1.029
431.40 1.016
431.50 1.002
431.60 0.9887
431.70 0.9747
431.80 0.9604
431.90 0.9456
432.00 0.9304
432.10 0.9149
432.20 0.8985
432.30 0.8816
432.40 0.8642
432.50 0.8456
432.60 0.8263
432.70 0.8064
432.80 0.786
432.90 0.7658
433.00 0.7458
433.10 0.7269
433.20 0.7081
433.30 0.6895
433.40 0.6694
433.50 0.6478
433.60 0.6247
433.70 0.5974
433.80 0.5672
433.90 0.5342
434.00 0.4716
434.10 0.4725
434.20 0.5369
434.30 0.569
434.40 0.5983
434.50 0.6249
434.60 0.6472
434.70 0.6681
434.80 0.6875
434.90 0.7055
435.00 0.7236
435.10 0.7418
435.20 0.7611
435.30 0.7804
435.40 0.8
435.50 0.8189
435.60 0.8371
435.70 0.8547
435.80 0.871
435.90 0.8868
436.00 0.902
436.10 0.9163
436.20 0.9304
436.30 0.944
436.40 0.957
436.50 0.9698
436.60 0.9823
436.70 0.9943
436.80 1.006
436.90 1.018
437.00 1.029
437.10 1.039
437.20 1.05
437.30 1.06
437.40 1.07
437.50 1.08
437.60 1.089
437.70 1.099
437.80 1.108
437.90 1.116
438.00 1.124
438.10 1.133
438.20 1.14
438.30 1.148
438.40 1.156
438.50 1.163
438.60 1.17
438.70 1.177
438.80 1.183
438.90 1.19
439.00 1.196
439.10 1.202
439.20 1.208
439.30 1.213
439.40 1.219
439.50 1.224
439.60 1.229
439.70 1.234
439.80 1.239
439.90 1.244
440.00 1.248
440.10 1.252
440.20 1.257
440.30 1.261
440.40 1.265
440.50 1.269
440.60 1.272
440.70 1.276
440.80 1.28
440.90 1.283
441.00 1.286
441.10 1.29
441.20 1.293
441.30 1.296
441.40 1.299
441.50 1.301
441.60 1.304
441.70 1.307
441.80 1.309
441.90 1.312
442.00 1.314
442.10 1.316
442.20 1.318
442.30 1.321
442.40 1.323
442.50 1.325
442.60 1.326
442.70 1.328
442.80 1.33
442.90 1.332
443.00 1.333
443.10 1.335
443.20 1.336
443.30 1.338
443.40 1.339
443.50 1.341
443.60 1.342
443.70 1.343
443.80 1.345
443.90 1.346
444.00 1.347
444.10 1.348
444.20 1.349
444.30 1.35
444.40 1.351
444.50 1.352
444.60 1.353
444.70 1.353
444.80 1.354
444.90 1.355
445.00 1.356
445.10 1.356
445.20 1.357
445.30 1.358
445.40 1.358
445.50 1.359
445.60 1.359
445.70 1.36
445.80 1.36
445.90 1.361
446.00 1.361
446.10 1.361
446.20 1.362
446.30 1.362
446.40 1.362
446.50 1.362
446.60 1.363
446.70 1.363
446.80 1.363
446.90 1.363
447.00 1.363
447.10 1.363
447.20 1.364
447.30 1.364
447.40 1.364
447.50 1.364
447.60 1.364
447.70 1.364
447.80 1.364
447.90 1.364
448.00 1.364
448.10 1.363
448.20 1.363
448.30 1.363
448.40 1.363
448.50 1.363
448.60 1.363
448.70 1.363
448.80 1.363
448.90 1.362
449.00 1.362
449.10 1.362
449.20 1.362
449.30 1.362
449.40 1.361
449.50 1.361
449.60 1.361
449.70 1.361
449.80 1.36
449.90 1.36
450.00 1.36
450.10 1.359
450.20 1.359
450.30 1.359
450.40 1.358
450.50 1.358
450.60 1.357
450.70 1.357
450.80 1.357
450.90 1.356
451.00 1.356
451.10 1.355
451.20 1.355
451.30 1.354
451.40 1.354
451.50 1.354
451.60 1.353
451.70 1.353
451.80 1.352
451.90 1.352
452.00 1.351
452.10 1.351
452.20 1.35
452.30 1.35
452.40 1.349
452.50 1.348
452.60 1.348
452.70 1.347
452.80 1.347
452.90 1.346
453.00 1.346
453.10 1.345
453.20 1.344
