# Version 2.1 - nm, norm@500 to 1, cut digits, bergeron_6500_90.dat_6500
# Wavelength(nm)  Flambda(ergs/cm^s/s/nm)
300.00 0.8639
300.10 0.8643
300.20 0.8648
300.30 0.8652
300.40 0.8656
300.50 0.8661
300.60 0.8665
300.70 0.867
300.80 0.8674
300.90 0.8678
301.00 0.8683
301.10 0.8687
301.20 0.8691
301.30 0.8696
301.40 0.87
301.50 0.8704
301.60 0.8708
301.70 0.8713
301.80 0.8717
301.90 0.8721
302.00 0.8726
302.10 0.873
302.20 0.8734
302.30 0.8739
302.40 0.8743
302.50 0.8747
302.60 0.8751
302.70 0.8756
302.80 0.876
302.90 0.8764
303.00 0.8769
303.10 0.8773
303.20 0.8777
303.30 0.8781
303.40 0.8786
303.50 0.879
303.60 0.8794
303.70 0.8798
303.80 0.8802
303.90 0.8807
304.00 0.8811
304.10 0.8815
304.20 0.8819
304.30 0.8823
304.40 0.8828
304.50 0.8832
304.60 0.8836
304.70 0.884
304.80 0.8844
304.90 0.8849
305.00 0.8853
305.10 0.8857
305.20 0.8861
305.30 0.8865
305.40 0.8869
305.50 0.8873
305.60 0.8878
305.70 0.8882
305.80 0.8886
305.90 0.889
306.00 0.8894
306.10 0.8898
306.20 0.8902
306.30 0.8906
306.40 0.891
306.50 0.8915
306.60 0.8919
306.70 0.8923
306.80 0.8927
306.90 0.8931
307.00 0.8935
307.10 0.8939
307.20 0.8943
307.30 0.8947
307.40 0.8951
307.50 0.8955
307.60 0.8959
307.70 0.8963
307.80 0.8967
307.90 0.8971
308.00 0.8975
308.10 0.8979
308.20 0.8983
308.30 0.8987
308.40 0.8991
308.50 0.8995
308.60 0.8999
308.70 0.9003
308.80 0.9007
308.90 0.9011
309.00 0.9015
309.10 0.9019
309.20 0.9023
309.30 0.9027
309.40 0.9031
309.50 0.9035
309.60 0.9039
309.70 0.9043
309.80 0.9047
309.90 0.9051
310.00 0.9054
310.10 0.9058
310.20 0.9062
310.30 0.9066
310.40 0.907
310.50 0.9074
310.60 0.9078
310.70 0.9082
310.80 0.9086
310.90 0.909
311.00 0.9094
311.10 0.9097
311.20 0.9101
311.30 0.9105
311.40 0.9109
311.50 0.9113
311.60 0.9117
311.70 0.9121
311.80 0.9124
311.90 0.9128
312.00 0.9132
312.10 0.9136
312.20 0.914
312.30 0.9143
312.40 0.9147
312.50 0.9151
312.60 0.9155
312.70 0.9159
312.80 0.9162
312.90 0.9166
313.00 0.917
313.10 0.9174
313.20 0.9178
313.30 0.9181
313.40 0.9185
313.50 0.9189
313.60 0.9192
313.70 0.9196
313.80 0.92
313.90 0.9204
314.00 0.9207
314.10 0.9211
314.20 0.9215
314.30 0.9219
314.40 0.9222
314.50 0.9226
314.60 0.923
314.70 0.9233
314.80 0.9237
314.90 0.9241
315.00 0.9244
315.10 0.9248
315.20 0.9252
315.30 0.9255
315.40 0.9259
315.50 0.9263
315.60 0.9266
315.70 0.927
315.80 0.9274
315.90 0.9277
316.00 0.9281
316.10 0.9284
316.20 0.9288
316.30 0.9292
316.40 0.9295
316.50 0.9299
316.60 0.9303
316.70 0.9306
316.80 0.931
316.90 0.9313
317.00 0.9317
317.10 0.932
317.20 0.9324
317.30 0.9328
317.40 0.9331
317.50 0.9335
317.60 0.9338
317.70 0.9342
317.80 0.9345
317.90 0.9349
318.00 0.9352
318.10 0.9356
318.20 0.9359
318.30 0.9363
318.40 0.9366
318.50 0.937
318.60 0.9373
318.70 0.9377
318.80 0.938
318.90 0.9384
319.00 0.9387
319.10 0.9391
319.20 0.9394
319.30 0.9398
319.40 0.9401
319.50 0.9405
319.60 0.9408
319.70 0.9412
319.80 0.9415
319.90 0.9419
320.00 0.9422
320.10 0.9425
320.20 0.9429
320.30 0.9432
320.40 0.9436
320.50 0.9439
320.60 0.9443
320.70 0.9446
320.80 0.9449
320.90 0.9453
321.00 0.9456
321.10 0.946
321.20 0.9463
321.30 0.9466
321.40 0.947
321.50 0.9473
321.60 0.9476
321.70 0.948
321.80 0.9483
321.90 0.9486
322.00 0.949
322.10 0.9493
322.20 0.9496
322.30 0.95
322.40 0.9503
322.50 0.9506
322.60 0.951
322.70 0.9513
322.80 0.9516
322.90 0.952
323.00 0.9523
323.10 0.9526
323.20 0.9529
323.30 0.9533
323.40 0.9536
323.50 0.9539
323.60 0.9543
323.70 0.9546
323.80 0.9549
323.90 0.9552
324.00 0.9556
324.10 0.9559
324.20 0.9562
324.30 0.9565
324.40 0.9569
324.50 0.9572
324.60 0.9575
324.70 0.9578
324.80 0.9581
324.90 0.9585
325.00 0.9588
325.10 0.9591
325.20 0.9594
325.30 0.9597
325.40 0.96
325.50 0.9604
325.60 0.9607
325.70 0.961
325.80 0.9613
325.90 0.9616
326.00 0.9619
326.10 0.9623
326.20 0.9626
326.30 0.9629
326.40 0.9632
326.50 0.9635
326.60 0.9638
326.70 0.9641
326.80 0.9644
326.90 0.9647
327.00 0.9651
327.10 0.9654
327.20 0.9657
327.30 0.966
327.40 0.9663
327.50 0.9666
327.60 0.9669
327.70 0.9672
327.80 0.9675
327.90 0.9678
328.00 0.9681
328.10 0.9684
328.20 0.9687
328.30 0.969
328.40 0.9693
328.50 0.9696
328.60 0.9699
328.70 0.9702
328.80 0.9705
328.90 0.9708
329.00 0.9711
329.10 0.9714
329.20 0.9717
329.30 0.972
329.40 0.9723
329.50 0.9726
329.60 0.9729
329.70 0.9732
329.80 0.9735
329.90 0.9738
330.00 0.9741
330.10 0.9744
330.20 0.9747
330.30 0.975
330.40 0.9753
330.50 0.9756
330.60 0.9759
330.70 0.9762
330.80 0.9765
330.90 0.9768
331.00 0.9771
331.10 0.9774
331.20 0.9776
331.30 0.9779
331.40 0.9782
331.50 0.9785
331.60 0.9788
331.70 0.9791
331.80 0.9794
331.90 0.9797
332.00 0.9799
332.10 0.9802
332.20 0.9805
332.30 0.9808
332.40 0.9811
332.50 0.9814
332.60 0.9817
332.70 0.9819
332.80 0.9822
332.90 0.9825
333.00 0.9828
333.10 0.9831
333.20 0.9833
333.30 0.9836
333.40 0.9839
333.50 0.9842
333.60 0.9845
333.70 0.9847
333.80 0.985
333.90 0.9853
334.00 0.9856
334.10 0.9859
334.20 0.9861
334.30 0.9864
334.40 0.9867
334.50 0.987
334.60 0.9872
334.70 0.9875
334.80 0.9878
334.90 0.9881
335.00 0.9883
335.10 0.9886
335.20 0.9889
335.30 0.9891
335.40 0.9894
335.50 0.9897
335.60 0.99
335.70 0.9902
335.80 0.9905
335.90 0.9908
336.00 0.991
336.10 0.9913
336.20 0.9916
336.30 0.9918
336.40 0.9921
336.50 0.9924
336.60 0.9926
336.70 0.9929
336.80 0.9932
336.90 0.9934
337.00 0.9937
337.10 0.9939
337.20 0.9942
337.30 0.9945
337.40 0.9947
337.50 0.995
337.60 0.9953
337.70 0.9955
337.80 0.9958
337.90 0.996
338.00 0.9963
338.10 0.9965
338.20 0.9968
338.30 0.9971
338.40 0.9973
338.50 0.9976
338.60 0.9978
338.70 0.9981
338.80 0.9983
338.90 0.9986
339.00 0.9989
339.10 0.9991
339.20 0.9994
339.30 0.9996
339.40 0.9999
339.50 1
339.60 1
339.70 1.001
339.80 1.001
339.90 1.001
340.00 1.001
340.10 1.002
340.20 1.002
340.30 1.002
340.40 1.002
340.50 1.003
340.60 1.003
340.70 1.003
340.80 1.003
340.90 1.004
341.00 1.004
341.10 1.004
341.20 1.004
341.30 1.005
341.40 1.005
341.50 1.005
341.60 1.005
341.70 1.006
341.80 1.006
341.90 1.006
342.00 1.006
342.10 1.007
342.20 1.007
342.30 1.007
342.40 1.007
342.50 1.007
342.60 1.008
342.70 1.008
342.80 1.008
342.90 1.008
343.00 1.009
343.10 1.009
343.20 1.009
343.30 1.009
343.40 1.01
343.50 1.01
343.60 1.01
343.70 1.01
343.80 1.011
343.90 1.011
344.00 1.011
344.10 1.011
344.20 1.011
344.30 1.012
344.40 1.012
344.50 1.012
344.60 1.012
344.70 1.013
344.80 1.013
344.90 1.013
345.00 1.013
345.10 1.013
345.20 1.014
345.30 1.014
345.40 1.014
345.50 1.014
345.60 1.015
345.70 1.015
345.80 1.015
345.90 1.015
346.00 1.016
346.10 1.016
346.20 1.016
346.30 1.016
346.40 1.016
346.50 1.017
346.60 1.017
346.70 1.017
346.80 1.017
346.90 1.018
347.00 1.018
347.10 1.018
347.20 1.018
347.30 1.018
347.40 1.019
347.50 1.019
347.60 1.019
347.70 1.019
347.80 1.019
347.90 1.02
348.00 1.02
348.10 1.02
348.20 1.02
348.30 1.021
348.40 1.021
348.50 1.021
348.60 1.021
348.70 1.021
348.80 1.022
348.90 1.022
349.00 1.022
349.10 1.022
349.20 1.022
349.30 1.023
349.40 1.023
349.50 1.023
349.60 1.023
349.70 1.023
349.80 1.024
349.90 1.024
350.00 1.024
350.10 1.024
350.20 1.024
350.30 1.025
350.40 1.025
350.50 1.025
350.60 1.025
350.70 1.025
350.80 1.026
350.90 1.026
351.00 1.026
351.10 1.026
351.20 1.026
351.30 1.027
351.40 1.027
351.50 1.027
351.60 1.027
351.70 1.027
351.80 1.028
351.90 1.028
352.00 1.028
352.10 1.028
352.20 1.028
352.30 1.029
352.40 1.029
352.50 1.029
352.60 1.029
352.70 1.029
352.80 1.03
352.90 1.03
353.00 1.03
353.10 1.03
353.20 1.03
353.30 1.031
353.40 1.031
353.50 1.031
353.60 1.031
353.70 1.031
353.80 1.032
353.90 1.032
354.00 1.032
354.10 1.032
354.20 1.032
354.30 1.032
354.40 1.033
354.50 1.033
354.60 1.033
354.70 1.033
354.80 1.033
354.90 1.034
355.00 1.034
355.10 1.034
355.20 1.034
355.30 1.034
355.40 1.035
355.50 1.035
355.60 1.035
355.70 1.035
355.80 1.035
355.90 1.035
356.00 1.036
356.10 1.036
356.20 1.036
356.30 1.036
356.40 1.036
356.50 1.036
356.60 1.037
356.70 1.037
356.80 1.037
356.90 1.037
357.00 1.037
357.10 1.038
357.20 1.038
357.30 1.038
357.40 1.038
357.50 1.038
357.60 1.038
357.70 1.039
357.80 1.039
357.90 1.039
358.00 1.039
358.10 1.039
358.20 1.039
358.30 1.04
358.40 1.04
358.50 1.04
358.60 1.04
358.70 1.04
358.80 1.04
358.90 1.041
359.00 1.041
359.10 1.041
359.20 1.041
359.30 1.041
359.40 1.041
359.50 1.042
359.60 1.042
359.70 1.042
359.80 1.042
359.90 1.042
360.00 1.042
360.10 1.043
360.20 1.043
360.30 1.043
360.40 1.043
360.50 1.043
360.60 1.043
360.70 1.044
360.80 1.044
360.90 1.044
361.00 1.044
361.10 1.044
361.20 1.044
361.30 1.045
361.40 1.045
361.50 1.045
361.60 1.045
361.70 1.045
361.80 1.045
361.90 1.045
362.00 1.046
362.10 1.046
362.20 1.046
362.30 1.046
362.40 1.046
362.50 1.046
362.60 1.047
362.70 1.047
362.80 1.047
362.90 1.047
363.00 1.047
363.10 1.047
363.20 1.047
363.30 1.048
363.40 1.048
363.50 1.048
363.60 1.048
363.70 1.048
363.80 1.048
363.90 1.049
364.00 1.049
364.10 1.049
364.20 1.049
364.30 1.049
364.40 1.049
364.50 1.049
364.60 1.049
364.70 1.05
364.80 1.05
364.90 1.05
365.00 1.05
365.10 1.05
365.20 1.05
365.30 1.05
365.40 1.051
365.50 1.051
365.60 1.051
365.70 1.051
365.80 1.051
365.90 1.051
366.00 1.051
366.10 1.052
366.20 1.052
366.30 1.052
366.40 1.052
366.50 1.052
366.60 1.052
366.70 1.052
366.80 1.053
366.90 1.053
367.00 1.053
367.10 1.053
367.20 1.053
367.30 1.053
367.40 1.053
367.50 1.053
367.60 1.054
367.70 1.054
367.80 1.054
367.90 1.054
368.00 1.054
368.10 1.054
368.20 1.054
368.30 1.055
368.40 1.055
368.50 1.055
368.60 1.055
368.70 1.055
368.80 1.055
368.90 1.055
369.00 1.055
369.10 1.056
369.20 1.056
369.30 1.056
369.40 1.056
369.50 1.056
369.60 1.056
369.70 1.056
369.80 1.056
369.90 1.057
370.00 1.057
370.10 1.057
370.20 1.057
370.30 1.057
370.40 1.057
370.50 1.057
370.60 1.057
370.70 1.058
370.80 1.058
370.90 1.058
371.00 1.058
371.10 1.058
371.20 1.058
371.30 1.058
371.40 1.058
371.50 1.059
371.60 1.059
371.70 1.059
371.80 1.059
371.90 1.059
372.00 1.059
372.10 1.059
372.20 1.059
372.30 1.059
372.40 1.06
372.50 1.06
372.60 1.06
372.70 1.06
372.80 1.06
372.90 1.06
373.00 1.06
373.10 1.06
373.20 1.06
373.30 1.061
373.40 1.061
373.50 1.061
373.60 1.061
373.70 1.061
373.80 1.061
373.90 1.061
374.00 1.061
374.10 1.061
374.20 1.062
374.30 1.062
374.40 1.062
374.50 1.062
374.60 1.062
374.70 1.062
374.80 1.062
374.90 1.062
375.00 1.062
375.10 1.063
375.20 1.063
375.30 1.063
375.40 1.063
375.50 1.063
375.60 1.063
375.70 1.063
375.80 1.063
375.90 1.063
376.00 1.063
376.10 1.064
376.20 1.064
376.30 1.064
376.40 1.064
376.50 1.064
376.60 1.064
376.70 1.064
376.80 1.064
376.90 1.064
377.00 1.064
377.10 1.065
377.20 1.065
377.30 1.065
377.40 1.065
377.50 1.065
377.60 1.065
377.70 1.065
377.80 1.065
377.90 1.065
378.00 1.065
378.10 1.066
378.20 1.066
378.30 1.066
378.40 1.066
378.50 1.066
378.60 1.066
378.70 1.066
378.80 1.066
378.90 1.066
379.00 1.066
379.10 1.066
379.20 1.066
379.30 1.067
379.40 1.067
379.50 1.067
379.60 1.067
379.70 1.067
379.80 1.067
379.90 1.067
380.00 1.067
380.10 1.067
380.20 1.067
380.30 1.067
380.40 1.068
380.50 1.068
380.60 1.068
380.70 1.068
380.80 1.068
380.90 1.068
381.00 1.068
381.10 1.068
381.20 1.068
381.30 1.068
381.40 1.068
381.50 1.069
381.60 1.069
381.70 1.069
381.80 1.069
381.90 1.069
382.00 1.069
382.10 1.069
382.20 1.069
382.30 1.069
382.40 1.069
382.50 1.069
382.60 1.069
382.70 1.069
382.80 1.069
382.90 1.069
383.00 1.069
383.10 1.069
383.20 1.07
383.30 1.069
383.40 1.069
383.50 1.069
383.60 1.069
383.70 1.07
383.80 1.07
383.90 1.07
384.00 1.07
384.10 1.07
384.20 1.071
384.30 1.071
384.40 1.071
384.50 1.071
384.60 1.071
384.70 1.071
384.80 1.071
384.90 1.071
385.00 1.071
385.10 1.072
385.20 1.072
385.30 1.072
385.40 1.072
385.50 1.072
385.60 1.072
385.70 1.072
385.80 1.072
385.90 1.072
386.00 1.072
386.10 1.072
386.20 1.072
386.30 1.072
386.40 1.073
386.50 1.073
386.60 1.073
386.70 1.073
386.80 1.073
386.90 1.073
387.00 1.073
387.10 1.073
387.20 1.073
387.30 1.073
387.40 1.073
387.50 1.073
387.60 1.073
387.70 1.073
387.80 1.073
387.90 1.073
388.00 1.073
388.10 1.073
388.20 1.072
388.30 1.072
388.40 1.072
388.50 1.072
388.60 1.071
388.70 1.071
388.80 1.07
388.90 1.067
389.00 1.07
389.10 1.071
389.20 1.072
389.30 1.072
389.40 1.073
389.50 1.073
389.60 1.074
389.70 1.074
389.80 1.074
389.90 1.074
390.00 1.075
390.10 1.075
390.20 1.075
390.30 1.075
390.40 1.075
390.50 1.075
390.60 1.076
390.70 1.076
390.80 1.076
390.90 1.076
391.00 1.076
391.10 1.076
391.20 1.076
391.30 1.076
391.40 1.076
391.50 1.077
391.60 1.077
391.70 1.077
391.80 1.077
391.90 1.077
392.00 1.077
392.10 1.077
392.20 1.077
392.30 1.077
392.40 1.077
392.50 1.077
392.60 1.077
392.70 1.077
392.80 1.077
392.90 1.078
393.00 1.078
393.10 1.078
393.20 1.078
393.30 1.078
393.40 1.078
393.50 1.078
393.60 1.078
393.70 1.078
393.80 1.078
393.90 1.078
394.00 1.078
394.10 1.078
394.20 1.078
394.30 1.078
394.40 1.078
394.50 1.078
394.60 1.078
394.70 1.078
394.80 1.078
394.90 1.078
395.00 1.078
395.10 1.078
395.20 1.077
395.30 1.077
395.40 1.077
395.50 1.077
395.60 1.077
395.70 1.076
395.80 1.076
395.90 1.076
396.00 1.075
396.10 1.074
396.20 1.074
396.30 1.073
396.40 1.072
396.50 1.071
396.60 1.069
396.70 1.068
396.80 1.066
396.90 1.062
397.00 1.057
397.10 1.062
397.20 1.065
397.30 1.068
397.40 1.069
397.50 1.071
397.60 1.072
397.70 1.073
397.80 1.074
397.90 1.075
398.00 1.076
398.10 1.077
398.20 1.077
398.30 1.078
398.40 1.078
398.50 1.079
398.60 1.079
398.70 1.079
398.80 1.079
398.90 1.08
399.00 1.08
399.10 1.08
399.20 1.08
399.30 1.08
399.40 1.08
399.50 1.081
399.60 1.081
399.70 1.081
399.80 1.081
399.90 1.081
400.00 1.081
400.10 1.081
400.20 1.081
400.30 1.081
400.40 1.081
400.50 1.082
400.60 1.082
400.70 1.082
400.80 1.082
400.90 1.082
401.00 1.082
401.10 1.082
401.20 1.082
401.30 1.082
401.40 1.082
401.50 1.082
401.60 1.082
401.70 1.082
401.80 1.082
401.90 1.082
402.00 1.082
402.10 1.082
402.20 1.082
402.30 1.082
402.40 1.082
402.50 1.082
402.60 1.083
402.70 1.083
402.80 1.083
402.90 1.083
403.00 1.083
403.10 1.083
403.20 1.083
403.30 1.083
403.40 1.083
403.50 1.083
403.60 1.083
403.70 1.083
403.80 1.083
403.90 1.083
404.00 1.083
404.10 1.083
404.20 1.083
404.30 1.083
404.40 1.083
404.50 1.083
404.60 1.083
404.70 1.083
404.80 1.083
404.90 1.083
405.00 1.083
405.10 1.083
405.20 1.083
405.30 1.083
405.40 1.083
405.50 1.083
405.60 1.083
405.70 1.083
405.80 1.083
405.90 1.083
406.00 1.083
406.10 1.083
406.20 1.083
406.30 1.083
406.40 1.083
406.50 1.083
406.60 1.083
406.70 1.082
406.80 1.082
406.90 1.082
407.00 1.082
407.10 1.082
407.20 1.082
407.30 1.082
407.40 1.082
407.50 1.082
407.60 1.081
407.70 1.081
407.80 1.081
407.90 1.081
408.00 1.08
408.10 1.08
408.20 1.08
408.30 1.079
408.40 1.079
408.50 1.078
408.60 1.078
408.70 1.077
408.80 1.076
408.90 1.075
409.00 1.074
409.10 1.073
409.20 1.071
409.30 1.069
409.40 1.067
409.50 1.064
409.60 1.061
409.70 1.056
409.80 1.051
409.90 1.046
410.00 1.039
410.10 1.031
410.20 1.023
410.30 1.034
410.40 1.043
410.50 1.049
410.60 1.054
410.70 1.059
410.80 1.063
410.90 1.066
411.00 1.068
411.10 1.07
411.20 1.072
411.30 1.074
411.40 1.075
411.50 1.076
411.60 1.077
411.70 1.078
411.80 1.078
411.90 1.079
412.00 1.079
412.10 1.08
412.20 1.08
412.30 1.081
412.40 1.081
412.50 1.081
412.60 1.081
412.70 1.082
412.80 1.082
412.90 1.082
413.00 1.082
413.10 1.082
413.20 1.082
413.30 1.083
413.40 1.083
413.50 1.083
413.60 1.083
413.70 1.083
413.80 1.083
413.90 1.083
414.00 1.083
414.10 1.083
414.20 1.083
414.30 1.083
414.40 1.083
414.50 1.083
414.60 1.083
414.70 1.083
414.80 1.083
414.90 1.083
415.00 1.083
415.10 1.083
415.20 1.083
415.30 1.083
415.40 1.083
415.50 1.083
415.60 1.083
415.70 1.083
415.80 1.083
415.90 1.083
416.00 1.083
416.10 1.083
416.20 1.083
416.30 1.083
416.40 1.083
416.50 1.083
416.60 1.083
416.70 1.083
416.80 1.083
416.90 1.083
417.00 1.083
417.10 1.083
417.20 1.083
417.30 1.083
417.40 1.083
417.50 1.083
417.60 1.083
417.70 1.083
417.80 1.083
417.90 1.083
418.00 1.083
418.10 1.083
418.20 1.083
418.30 1.083
418.40 1.083
418.50 1.083
418.60 1.083
418.70 1.083
418.80 1.083
418.90 1.083
419.00 1.083
419.10 1.083
419.20 1.083
419.30 1.083
419.40 1.083
419.50 1.083
419.60 1.083
419.70 1.083
419.80 1.083
419.90 1.083
420.00 1.083
420.10 1.083
420.20 1.083
420.30 1.083
420.40 1.083
420.50 1.083
420.60 1.083
420.70 1.083
420.80 1.083
420.90 1.083
421.00 1.083
421.10 1.083
421.20 1.083
421.30 1.083
421.40 1.083
421.50 1.082
421.60 1.082
421.70 1.082
421.80 1.082
421.90 1.082
422.00 1.082
422.10 1.082
422.20 1.082
422.30 1.082
422.40 1.082
422.50 1.082
422.60 1.082
422.70 1.082
422.80 1.082
422.90 1.082
423.00 1.082
423.10 1.082
423.20 1.082
423.30 1.082
423.40 1.082
423.50 1.082
423.60 1.082
423.70 1.082
423.80 1.082
423.90 1.082
424.00 1.082
424.10 1.082
424.20 1.081
424.30 1.081
424.40 1.081
424.50 1.081
424.60 1.081
424.70 1.081
424.80 1.081
424.90 1.081
425.00 1.081
425.10 1.081
425.20 1.081
425.30 1.081
425.40 1.081
425.50 1.081
425.60 1.081
425.70 1.081
425.80 1.081
425.90 1.081
426.00 1.081
426.10 1.081
426.20 1.08
426.30 1.08
426.40 1.08
426.50 1.08
426.60 1.08
426.70 1.08
426.80 1.08
426.90 1.08
427.00 1.08
427.10 1.08
427.20 1.08
427.30 1.08
427.40 1.08
427.50 1.08
427.60 1.08
427.70 1.08
427.80 1.079
427.90 1.079
428.00 1.079
428.10 1.079
428.20 1.079
428.30 1.079
428.40 1.079
428.50 1.079
428.60 1.079
428.70 1.079
428.80 1.079
428.90 1.079
429.00 1.078
429.10 1.078
429.20 1.078
429.30 1.078
429.40 1.078
429.50 1.078
429.60 1.078
429.70 1.078
429.80 1.077
429.90 1.077
430.00 1.077
430.10 1.077
430.20 1.077
430.30 1.077
430.40 1.076
430.50 1.076
430.60 1.076
430.70 1.076
430.80 1.076
430.90 1.075
431.00 1.075
431.10 1.075
431.20 1.074
431.30 1.074
431.40 1.074
431.50 1.073
431.60 1.073
431.70 1.072
431.80 1.072
431.90 1.071
432.00 1.07
432.10 1.07
432.20 1.069
432.30 1.068
432.40 1.066
432.50 1.065
432.60 1.063
432.70 1.061
432.80 1.059
432.90 1.056
433.00 1.053
433.10 1.049
433.20 1.045
433.30 1.039
433.40 1.032
433.50 1.023
433.60 1.013
433.70 0.9991
433.80 0.9826
433.90 0.9637
434.00 0.9326
434.10 0.9332
434.20 0.9654
434.30 0.9839
434.40 1
434.50 1.014
434.60 1.024
434.70 1.032
434.80 1.039
434.90 1.045
435.00 1.049
435.10 1.053
435.20 1.056
435.30 1.058
435.40 1.06
435.50 1.062
435.60 1.063
435.70 1.065
435.80 1.066
435.90 1.067
436.00 1.067
436.10 1.068
436.20 1.069
436.30 1.069
436.40 1.07
436.50 1.07
436.60 1.07
436.70 1.071
436.80 1.071
436.90 1.071
437.00 1.071
437.10 1.072
437.20 1.072
437.30 1.072
437.40 1.072
437.50 1.072
437.60 1.072
437.70 1.072
437.80 1.072
437.90 1.072
438.00 1.072
438.10 1.072
438.20 1.072
438.30 1.072
438.40 1.072
438.50 1.072
438.60 1.072
438.70 1.072
438.80 1.072
438.90 1.072
439.00 1.072
439.10 1.072
439.20 1.072
439.30 1.072
439.40 1.072
439.50 1.072
439.60 1.072
439.70 1.072
439.80 1.072
439.90 1.072
440.00 1.072
440.10 1.072
440.20 1.072
440.30 1.072
440.40 1.072
440.50 1.072
440.60 1.072
440.70 1.072
440.80 1.072
440.90 1.072
441.00 1.072
441.10 1.071
441.20 1.071
441.30 1.071
441.40 1.071
441.50 1.071
441.60 1.071
441.70 1.071
441.80 1.071
441.90 1.071
442.00 1.071
442.10 1.071
442.20 1.071
442.30 1.071
442.40 1.071
442.50 1.071
442.60 1.071
442.70 1.07
442.80 1.07
442.90 1.07
443.00 1.07
443.10 1.07
443.20 1.07
443.30 1.07
443.40 1.07
443.50 1.07
443.60 1.07
443.70 1.07
443.80 1.07
443.90 1.07
444.00 1.07
444.10 1.069
444.20 1.069
444.30 1.069
444.40 1.069
444.50 1.069
444.60 1.069
444.70 1.069
444.80 1.069
444.90 1.069
445.00 1.069
445.10 1.069
445.20 1.069
445.30 1.068
445.40 1.068
445.50 1.068
445.60 1.068
445.70 1.068
445.80 1.068
445.90 1.068
446.00 1.068
446.10 1.068
446.20 1.068
446.30 1.068
446.40 1.068
446.50 1.068
446.60 1.067
446.70 1.067
446.80 1.067
446.90 1.067
447.00 1.067
447.10 1.067
447.20 1.067
447.30 1.067
447.40 1.067
447.50 1.067
447.60 1.067
447.70 1.066
447.80 1.066
447.90 1.066
448.00 1.066
448.10 1.066
448.20 1.066
448.30 1.066
448.40 1.066
448.50 1.066
448.60 1.066
448.70 1.066
448.80 1.066
448.90 1.065
449.00 1.065
449.10 1.065
449.20 1.065
449.30 1.065
449.40 1.065
449.50 1.065
449.60 1.065
449.70 1.065
449.80 1.065
449.90 1.065
450.00 1.064
450.10 1.064
450.20 1.064
450.30 1.064
450.40 1.064
450.50 1.064
450.60 1.064
450.70 1.064
450.80 1.064
