# Version 2.1 - nm, norm@500 to 1, cut digits, bergeron_3750_75.dat_3750
# Wavelength(nm)  Flambda(ergs/cm^s/s/nm)
300.00 0.1413
300.10 0.1416
300.20 0.1419
300.30 0.1422
300.40 0.1425
300.50 0.1428
300.60 0.1431
300.70 0.1434
300.80 0.1437
300.90 0.144
301.00 0.1443
301.10 0.1446
301.20 0.1449
301.30 0.1452
301.40 0.1455
301.50 0.1458
301.60 0.1461
301.70 0.1464
301.80 0.1467
301.90 0.1469
302.00 0.1472
302.10 0.1475
302.20 0.1479
302.30 0.1482
302.40 0.1485
302.50 0.1488
302.60 0.1491
302.70 0.1494
302.80 0.1497
302.90 0.15
303.00 0.1503
303.10 0.1506
303.20 0.1509
303.30 0.1512
303.40 0.1515
303.50 0.1518
303.60 0.1521
303.70 0.1524
303.80 0.1527
303.90 0.153
304.00 0.1533
304.10 0.1536
304.20 0.1539
304.30 0.1542
304.40 0.1545
304.50 0.1549
304.60 0.1552
304.70 0.1555
304.80 0.1558
304.90 0.1561
305.00 0.1564
305.10 0.1567
305.20 0.157
305.30 0.1573
305.40 0.1576
305.50 0.158
305.60 0.1583
305.70 0.1586
305.80 0.1589
305.90 0.1592
306.00 0.1595
306.10 0.1598
306.20 0.1601
306.30 0.1604
306.40 0.1608
306.50 0.1611
306.60 0.1614
306.70 0.1617
306.80 0.162
306.90 0.1624
307.00 0.1627
307.10 0.163
307.20 0.1633
307.30 0.1636
307.40 0.1639
307.50 0.1642
307.60 0.1646
307.70 0.1649
307.80 0.1652
307.90 0.1655
308.00 0.1658
308.10 0.1661
308.20 0.1665
308.30 0.1668
308.40 0.1671
308.50 0.1674
308.60 0.1678
308.70 0.1681
308.80 0.1684
308.90 0.1687
309.00 0.169
309.10 0.1694
309.20 0.1697
309.30 0.17
309.40 0.1703
309.50 0.1707
309.60 0.171
309.70 0.1713
309.80 0.1716
309.90 0.1719
310.00 0.1723
310.10 0.1726
310.20 0.1729
310.30 0.1732
310.40 0.1736
310.50 0.1739
310.60 0.1742
310.70 0.1746
310.80 0.1749
310.90 0.1752
311.00 0.1756
311.10 0.1759
311.20 0.1762
311.30 0.1765
311.40 0.1769
311.50 0.1772
311.60 0.1775
311.70 0.1779
311.80 0.1782
311.90 0.1785
312.00 0.1788
312.10 0.1792
312.20 0.1795
312.30 0.1798
312.40 0.1802
312.50 0.1805
312.60 0.1808
312.70 0.1812
312.80 0.1815
312.90 0.1818
313.00 0.1822
313.10 0.1825
313.20 0.1828
313.30 0.1832
313.40 0.1835
313.50 0.1838
313.60 0.1842
313.70 0.1845
313.80 0.1848
313.90 0.1852
314.00 0.1855
314.10 0.1859
314.20 0.1862
314.30 0.1865
314.40 0.1869
314.50 0.1872
314.60 0.1876
314.70 0.1879
314.80 0.1883
314.90 0.1886
315.00 0.1889
315.10 0.1893
315.20 0.1896
315.30 0.19
315.40 0.1903
315.50 0.1906
315.60 0.191
315.70 0.1913
315.80 0.1917
315.90 0.192
316.00 0.1923
316.10 0.1927
316.20 0.193
316.30 0.1934
316.40 0.1937
316.50 0.1941
316.60 0.1944
316.70 0.1948
316.80 0.1951
316.90 0.1955
317.00 0.1958
317.10 0.1962
317.20 0.1965
317.30 0.1969
317.40 0.1972
317.50 0.1975
317.60 0.1979
317.70 0.1982
317.80 0.1986
317.90 0.1989
318.00 0.1993
318.10 0.1996
318.20 0.2
318.30 0.2003
318.40 0.2007
318.50 0.201
318.60 0.2014
318.70 0.2017
318.80 0.2021
318.90 0.2025
319.00 0.2028
319.10 0.2032
319.20 0.2035
319.30 0.2039
319.40 0.2042
319.50 0.2046
319.60 0.2049
319.70 0.2053
319.80 0.2056
319.90 0.206
320.00 0.2063
320.10 0.2067
320.20 0.207
320.30 0.2074
320.40 0.2078
320.50 0.2081
320.60 0.2085
320.70 0.2088
320.80 0.2092
320.90 0.2096
321.00 0.2099
321.10 0.2103
321.20 0.2106
321.30 0.211
321.40 0.2113
321.50 0.2117
321.60 0.2121
321.70 0.2124
321.80 0.2128
321.90 0.2131
322.00 0.2135
322.10 0.2139
322.20 0.2142
322.30 0.2146
322.40 0.215
322.50 0.2153
322.60 0.2157
322.70 0.2161
322.80 0.2164
322.90 0.2168
323.00 0.2171
323.10 0.2175
323.20 0.2179
323.30 0.2182
323.40 0.2186
323.50 0.219
323.60 0.2193
323.70 0.2197
323.80 0.22
323.90 0.2204
324.00 0.2208
324.10 0.2211
324.20 0.2215
324.30 0.2219
324.40 0.2223
324.50 0.2226
324.60 0.223
324.70 0.2234
324.80 0.2237
324.90 0.2241
325.00 0.2245
325.10 0.2249
325.20 0.2252
325.30 0.2256
325.40 0.226
325.50 0.2263
325.60 0.2267
325.70 0.2271
325.80 0.2274
325.90 0.2278
326.00 0.2282
326.10 0.2285
326.20 0.2289
326.30 0.2293
326.40 0.2297
326.50 0.2301
326.60 0.2304
326.70 0.2308
326.80 0.2312
326.90 0.2316
327.00 0.2319
327.10 0.2323
327.20 0.2327
327.30 0.2331
327.40 0.2334
327.50 0.2338
327.60 0.2342
327.70 0.2345
327.80 0.2349
327.90 0.2353
328.00 0.2357
328.10 0.236
328.20 0.2364
328.30 0.2368
328.40 0.2372
328.50 0.2376
328.60 0.238
328.70 0.2383
328.80 0.2387
328.90 0.2391
329.00 0.2395
329.10 0.2399
329.20 0.2402
329.30 0.2406
329.40 0.241
329.50 0.2414
329.60 0.2418
329.70 0.2421
329.80 0.2425
329.90 0.2429
330.00 0.2433
330.10 0.2437
330.20 0.2441
330.30 0.2444
330.40 0.2448
330.50 0.2452
330.60 0.2456
330.70 0.246
330.80 0.2464
330.90 0.2468
331.00 0.2472
331.10 0.2475
331.20 0.2479
331.30 0.2483
331.40 0.2487
331.50 0.2491
331.60 0.2495
331.70 0.2498
331.80 0.2502
331.90 0.2506
332.00 0.251
332.10 0.2514
332.20 0.2518
332.30 0.2522
332.40 0.2526
332.50 0.253
332.60 0.2534
332.70 0.2537
332.80 0.2541
332.90 0.2545
333.00 0.2549
333.10 0.2553
333.20 0.2557
333.30 0.2561
333.40 0.2565
333.50 0.2569
333.60 0.2573
333.70 0.2576
333.80 0.258
333.90 0.2584
334.00 0.2588
334.10 0.2592
334.20 0.2596
334.30 0.26
334.40 0.2604
334.50 0.2608
334.60 0.2612
334.70 0.2616
334.80 0.262
334.90 0.2624
335.00 0.2628
335.10 0.2632
335.20 0.2636
335.30 0.264
335.40 0.2644
335.50 0.2648
335.60 0.2652
335.70 0.2655
335.80 0.2659
335.90 0.2663
336.00 0.2667
336.10 0.2671
336.20 0.2675
336.30 0.2679
336.40 0.2683
336.50 0.2687
336.60 0.2691
336.70 0.2695
336.80 0.2699
336.90 0.2703
337.00 0.2708
337.10 0.2712
337.20 0.2716
337.30 0.272
337.40 0.2723
337.50 0.2727
337.60 0.2731
337.70 0.2735
337.80 0.2739
337.90 0.2743
338.00 0.2747
338.10 0.2751
338.20 0.2756
338.30 0.276
338.40 0.2764
338.50 0.2768
338.60 0.2772
338.70 0.2776
338.80 0.278
338.90 0.2784
339.00 0.2788
339.10 0.2792
339.20 0.2796
339.30 0.28
339.40 0.2804
339.50 0.2808
339.60 0.2812
339.70 0.2816
339.80 0.282
339.90 0.2824
340.00 0.2828
340.10 0.2833
340.20 0.2837
340.30 0.2841
340.40 0.2845
340.50 0.2849
340.60 0.2853
340.70 0.2857
340.80 0.2861
340.90 0.2866
341.00 0.287
341.10 0.2874
341.20 0.2878
341.30 0.2882
341.40 0.2886
341.50 0.289
341.60 0.2894
341.70 0.2898
341.80 0.2902
341.90 0.2906
342.00 0.291
342.10 0.2915
342.20 0.2919
342.30 0.2923
342.40 0.2927
342.50 0.2931
342.60 0.2935
342.70 0.294
342.80 0.2944
342.90 0.2948
343.00 0.2952
343.10 0.2956
343.20 0.296
343.30 0.2965
343.40 0.2969
343.50 0.2973
343.60 0.2977
343.70 0.2981
343.80 0.2985
343.90 0.2989
344.00 0.2993
344.10 0.2998
344.20 0.3002
344.30 0.3006
344.40 0.301
344.50 0.3014
344.60 0.3019
344.70 0.3023
344.80 0.3027
344.90 0.3031
345.00 0.3035
345.10 0.304
345.20 0.3044
345.30 0.3048
345.40 0.3052
345.50 0.3056
345.60 0.306
345.70 0.3065
345.80 0.3069
345.90 0.3073
346.00 0.3077
346.10 0.3081
346.20 0.3086
346.30 0.309
346.40 0.3094
346.50 0.3098
346.60 0.3103
346.70 0.3107
346.80 0.3111
346.90 0.3115
347.00 0.312
347.10 0.3124
347.20 0.3128
347.30 0.3132
347.40 0.3136
347.50 0.3141
347.60 0.3145
347.70 0.3149
347.80 0.3153
347.90 0.3157
348.00 0.3162
348.10 0.3166
348.20 0.317
348.30 0.3175
348.40 0.3179
348.50 0.3183
348.60 0.3187
348.70 0.3192
348.80 0.3196
348.90 0.32
349.00 0.3205
349.10 0.3209
349.20 0.3213
349.30 0.3217
349.40 0.3222
349.50 0.3226
349.60 0.323
349.70 0.3234
349.80 0.3238
349.90 0.3243
350.00 0.3247
350.10 0.3251
350.20 0.3256
350.30 0.326
350.40 0.3264
350.50 0.3269
350.60 0.3273
350.70 0.3277
350.80 0.3282
350.90 0.3286
351.00 0.329
351.10 0.3295
351.20 0.3299
351.30 0.3303
351.40 0.3308
351.50 0.3312
351.60 0.3316
351.70 0.332
351.80 0.3325
351.90 0.3329
352.00 0.3333
352.10 0.3338
352.20 0.3342
352.30 0.3346
352.40 0.3351
352.50 0.3355
352.60 0.336
352.70 0.3364
352.80 0.3368
352.90 0.3373
353.00 0.3377
353.10 0.3381
353.20 0.3386
353.30 0.339
353.40 0.3394
353.50 0.3399
353.60 0.3403
353.70 0.3407
353.80 0.3412
353.90 0.3416
354.00 0.342
354.10 0.3425
354.20 0.3429
354.30 0.3433
354.40 0.3438
354.50 0.3442
354.60 0.3447
354.70 0.3451
354.80 0.3456
354.90 0.346
355.00 0.3464
355.10 0.3469
355.20 0.3473
355.30 0.3477
355.40 0.3482
355.50 0.3486
355.60 0.3491
355.70 0.3495
355.80 0.3499
355.90 0.3504
356.00 0.3508
356.10 0.3512
356.20 0.3517
356.30 0.3521
356.40 0.3526
356.50 0.353
356.60 0.3535
356.70 0.3539
356.80 0.3543
356.90 0.3548
357.00 0.3552
357.10 0.3557
357.20 0.3561
357.30 0.3566
357.40 0.357
357.50 0.3574
357.60 0.3579
357.70 0.3583
357.80 0.3588
357.90 0.3592
358.00 0.3596
358.10 0.3601
358.20 0.3605
358.30 0.361
358.40 0.3614
358.50 0.3619
358.60 0.3623
358.70 0.3628
358.80 0.3632
358.90 0.3637
359.00 0.3641
359.10 0.3645
359.20 0.365
359.30 0.3654
359.40 0.3659
359.50 0.3663
359.60 0.3668
359.70 0.3672
359.80 0.3676
359.90 0.3681
360.00 0.3685
360.10 0.369
360.20 0.3694
360.30 0.3699
360.40 0.3703
360.50 0.3708
360.60 0.3712
360.70 0.3717
360.80 0.3721
360.90 0.3726
361.00 0.373
361.10 0.3735
361.20 0.3739
361.30 0.3744
361.40 0.3748
361.50 0.3753
361.60 0.3757
361.70 0.3762
361.80 0.3766
361.90 0.377
362.00 0.3775
362.10 0.3779
362.20 0.3784
362.30 0.3788
362.40 0.3793
362.50 0.3797
362.60 0.3802
362.70 0.3806
362.80 0.3811
362.90 0.3815
363.00 0.382
363.10 0.3824
363.20 0.3829
363.30 0.3833
363.40 0.3838
363.50 0.3843
363.60 0.3847
363.70 0.3852
363.80 0.3856
363.90 0.3861
364.00 0.3865
364.10 0.387
364.20 0.3874
364.30 0.3879
364.40 0.3883
364.50 0.3888
364.60 0.3892
364.70 0.3897
364.80 0.3901
364.90 0.3906
365.00 0.3911
365.10 0.3915
365.20 0.392
365.30 0.3924
365.40 0.3929
365.50 0.3933
365.60 0.3938
365.70 0.3942
365.80 0.3947
365.90 0.3951
366.00 0.3956
366.10 0.396
366.20 0.3965
366.30 0.397
366.40 0.3974
366.50 0.3979
366.60 0.3984
366.70 0.3988
366.80 0.3993
366.90 0.3997
367.00 0.4002
367.10 0.4006
367.20 0.4011
367.30 0.4016
367.40 0.402
367.50 0.4025
367.60 0.4029
367.70 0.4034
367.80 0.4038
367.90 0.4043
368.00 0.4047
368.10 0.4052
368.20 0.4057
368.30 0.4061
368.40 0.4066
368.50 0.4071
368.60 0.4075
368.70 0.408
368.80 0.4084
368.90 0.4089
369.00 0.4094
369.10 0.4098
369.20 0.4103
369.30 0.4107
369.40 0.4112
369.50 0.4116
369.60 0.4121
369.70 0.4126
369.80 0.413
369.90 0.4135
370.00 0.4139
370.10 0.4144
370.20 0.4149
370.30 0.4153
370.40 0.4158
370.50 0.4163
370.60 0.4167
370.70 0.4172
370.80 0.4176
370.90 0.4181
371.00 0.4186
371.10 0.419
371.20 0.4195
371.30 0.42
371.40 0.4204
371.50 0.4209
371.60 0.4213
371.70 0.4218
371.80 0.4222
371.90 0.4227
372.00 0.4232
372.10 0.4236
372.20 0.4241
372.30 0.4246
372.40 0.425
372.50 0.4255
372.60 0.426
372.70 0.4264
372.80 0.4269
372.90 0.4274
373.00 0.4278
373.10 0.4283
373.20 0.4288
373.30 0.4292
373.40 0.4297
373.50 0.4302
373.60 0.4306
373.70 0.4311
373.80 0.4315
373.90 0.432
374.00 0.4325
374.10 0.4329
374.20 0.4334
374.30 0.4339
374.40 0.4343
374.50 0.4348
374.60 0.4353
374.70 0.4357
374.80 0.4362
374.90 0.4367
375.00 0.4371
375.10 0.4376
375.20 0.4381
375.30 0.4385
375.40 0.439
375.50 0.4395
375.60 0.4399
375.70 0.4404
375.80 0.4408
375.90 0.4413
376.00 0.4418
376.10 0.4422
376.20 0.4427
376.30 0.4432
376.40 0.4437
376.50 0.4441
376.60 0.4446
376.70 0.4451
376.80 0.4455
376.90 0.446
377.00 0.4465
377.10 0.4469
377.20 0.4474
377.30 0.4479
377.40 0.4483
377.50 0.4488
377.60 0.4493
377.70 0.4498
377.80 0.4502
377.90 0.4507
378.00 0.4512
378.10 0.4516
378.20 0.4521
378.30 0.4526
378.40 0.453
378.50 0.4535
378.60 0.454
378.70 0.4544
378.80 0.4549
378.90 0.4554
379.00 0.4558
379.10 0.4563
379.20 0.4568
379.30 0.4573
379.40 0.4577
379.50 0.4582
379.60 0.4587
379.70 0.4592
379.80 0.4596
379.90 0.4601
380.00 0.4606
380.10 0.461
380.20 0.4615
380.30 0.462
380.40 0.4625
380.50 0.4629
380.60 0.4634
380.70 0.4639
380.80 0.4643
380.90 0.4648
381.00 0.4653
381.10 0.4658
381.20 0.4662
381.30 0.4667
381.40 0.4672
381.50 0.4676
381.60 0.4681
381.70 0.4686
381.80 0.4691
381.90 0.4695
382.00 0.47
382.10 0.4705
382.20 0.471
382.30 0.4714
382.40 0.4719
382.50 0.4724
382.60 0.4729
382.70 0.4733
382.80 0.4738
382.90 0.4743
383.00 0.4747
383.10 0.4752
383.20 0.4757
383.30 0.4762
383.40 0.4766
383.50 0.4771
383.60 0.4776
383.70 0.4781
383.80 0.4785
383.90 0.479
384.00 0.4795
384.10 0.4799
384.20 0.4804
384.30 0.4809
384.40 0.4814
384.50 0.4818
384.60 0.4823
384.70 0.4828
384.80 0.4833
384.90 0.4837
385.00 0.4842
385.10 0.4847
385.20 0.4852
385.30 0.4857
385.40 0.4861
385.50 0.4866
385.60 0.4871
385.70 0.4875
385.80 0.488
385.90 0.4885
386.00 0.489
386.10 0.4895
386.20 0.4899
386.30 0.4904
386.40 0.4909
386.50 0.4914
386.60 0.4918
386.70 0.4923
386.80 0.4928
386.90 0.4933
387.00 0.4937
387.10 0.4942
387.20 0.4947
387.30 0.4952
387.40 0.4956
387.50 0.4961
387.60 0.4966
387.70 0.4971
387.80 0.4975
387.90 0.498
388.00 0.4985
388.10 0.499
388.20 0.4994
388.30 0.4999
388.40 0.5004
388.50 0.5009
388.60 0.5014
388.70 0.5018
388.80 0.5023
388.90 0.5028
389.00 0.5033
389.10 0.5038
389.20 0.5042
389.30 0.5047
389.40 0.5052
389.50 0.5057
389.60 0.5061
389.70 0.5066
389.80 0.5071
389.90 0.5076
390.00 0.5081
390.10 0.5085
390.20 0.509
390.30 0.5095
390.40 0.51
390.50 0.5104
390.60 0.5109
390.70 0.5114
390.80 0.5119
390.90 0.5124
391.00 0.5128
391.10 0.5133
391.20 0.5138
391.30 0.5143
391.40 0.5147
391.50 0.5152
391.60 0.5157
391.70 0.5162
391.80 0.5167
391.90 0.5171
392.00 0.5176
392.10 0.5181
392.20 0.5186
392.30 0.5191
392.40 0.5195
392.50 0.52
392.60 0.5205
392.70 0.521
392.80 0.5214
392.90 0.5219
393.00 0.5224
393.10 0.5229
393.20 0.5234
393.30 0.5238
393.40 0.5243
393.50 0.5248
393.60 0.5253
393.70 0.5258
393.80 0.5262
393.90 0.5267
394.00 0.5272
394.10 0.5277
394.20 0.5282
394.30 0.5286
394.40 0.5291
394.50 0.5296
394.60 0.5301
394.70 0.5306
394.80 0.531
394.90 0.5315
395.00 0.532
395.10 0.5325
395.20 0.533
395.30 0.5335
395.40 0.5339
395.50 0.5344
395.60 0.5349
395.70 0.5354
395.80 0.5358
395.90 0.5363
396.00 0.5368
396.10 0.5373
396.20 0.5378
396.30 0.5383
396.40 0.5387
396.50 0.5392
396.60 0.5397
396.70 0.5402
396.80 0.5406
396.90 0.5411
397.00 0.5416
397.10 0.5421
397.20 0.5426
397.30 0.5431
397.40 0.5435
397.50 0.544
397.60 0.5445
397.70 0.545
397.80 0.5455
397.90 0.5459
398.00 0.5464
398.10 0.5469
398.20 0.5474
398.30 0.5479
398.40 0.5483
398.50 0.5488
398.60 0.5493
398.70 0.5498
398.80 0.5503
398.90 0.5507
399.00 0.5512
399.10 0.5517
399.20 0.5522
399.30 0.5527
399.40 0.5531
399.50 0.5536
399.60 0.5541
399.70 0.5546
399.80 0.5551
399.90 0.5556
400.00 0.556
400.10 0.5565
400.20 0.557
400.30 0.5575
400.40 0.558
400.50 0.5584
400.60 0.5589
400.70 0.5594
400.80 0.5599
400.90 0.5604
401.00 0.5608
401.10 0.5613
401.20 0.5618
401.30 0.5623
401.40 0.5628
401.50 0.5632
401.60 0.5637
401.70 0.5642
401.80 0.5647
401.90 0.5652
402.00 0.5657
402.10 0.5661
402.20 0.5666
402.30 0.5671
402.40 0.5676
402.50 0.5681
402.60 0.5685
402.70 0.569
402.80 0.5695
402.90 0.57
403.00 0.5705
403.10 0.571
403.20 0.5715
403.30 0.5719
403.40 0.5724
403.50 0.5729
403.60 0.5734
403.70 0.5739
403.80 0.5743
403.90 0.5748
404.00 0.5753
404.10 0.5758
404.20 0.5763
404.30 0.5767
404.40 0.5772
404.50 0.5777
404.60 0.5782
404.70 0.5787
404.80 0.5792
404.90 0.5796
405.00 0.5801
405.10 0.5806
405.20 0.5811
405.30 0.5816
405.40 0.582
405.50 0.5825
405.60 0.583
405.70 0.5835
405.80 0.584
405.90 0.5844
406.00 0.5849
406.10 0.5854
406.20 0.5859
406.30 0.5864
406.40 0.5868
406.50 0.5873
406.60 0.5878
406.70 0.5883
406.80 0.5888
406.90 0.5893
407.00 0.5897
407.10 0.5902
407.20 0.5907
407.30 0.5912
407.40 0.5917
407.50 0.5921
407.60 0.5926
407.70 0.5931
407.80 0.5936
407.90 0.5941
408.00 0.5946
408.10 0.595
408.20 0.5955
408.30 0.596
408.40 0.5965
408.50 0.597
408.60 0.5975
408.70 0.5979
408.80 0.5984
408.90 0.5989
409.00 0.5994
409.10 0.5999
409.20 0.6003
409.30 0.6008
409.40 0.6013
409.50 0.6018
409.60 0.6023
409.70 0.6027
409.80 0.6032
409.90 0.6037
410.00 0.6042
410.10 0.6047
410.20 0.6051
410.30 0.6056
410.40 0.6061
410.50 0.6066
410.60 0.6071
410.70 0.6076
410.80 0.608
410.90 0.6085
411.00 0.609
411.10 0.6095
411.20 0.61
411.30 0.6104
411.40 0.6109
411.50 0.6114
411.60 0.6119
411.70 0.6124
411.80 0.6128
411.90 0.6133
412.00 0.6138
412.10 0.6143
412.20 0.6148
412.30 0.6152
412.40 0.6157
412.50 0.6162
412.60 0.6167
412.70 0.6172
412.80 0.6177
412.90 0.6181
413.00 0.6186
413.10 0.6191
413.20 0.6196
413.30 0.6201
413.40 0.6205
413.50 0.621
413.60 0.6215
413.70 0.622
413.80 0.6225
413.90 0.6229
414.00 0.6234
414.10 0.6239
414.20 0.6244
414.30 0.6249
414.40 0.6253
414.50 0.6258
414.60 0.6263
414.70 0.6268
414.80 0.6273
414.90 0.6277
415.00 0.6282
415.10 0.6287
415.20 0.6292
415.30 0.6297
415.40 0.6301
415.50 0.6306
415.60 0.6311
415.70 0.6316
415.80 0.6321
415.90 0.6325
416.00 0.633
416.10 0.6335
416.20 0.634
416.30 0.6345
416.40 0.6349
416.50 0.6354
416.60 0.6359
416.70 0.6364
416.80 0.6369
416.90 0.6373
417.00 0.6378
417.10 0.6383
417.20 0.6388
417.30 0.6392
417.40 0.6397
417.50 0.6402
417.60 0.6407
417.70 0.6412
417.80 0.6417
417.90 0.6421
418.00 0.6426
418.10 0.6431
418.20 0.6436
418.30 0.644
418.40 0.6445
418.50 0.645
418.60 0.6455
418.70 0.646
418.80 0.6464
418.90 0.6469
419.00 0.6474
419.10 0.6479
419.20 0.6484
419.30 0.6488
419.40 0.6493
419.50 0.6498
419.60 0.6503
419.70 0.6507
419.80 0.6512
419.90 0.6517
420.00 0.6522
420.10 0.6526
420.20 0.6531
420.30 0.6536
420.40 0.6541
420.50 0.6546
420.60 0.655
420.70 0.6555
420.80 0.656
420.90 0.6565
421.00 0.6569
421.10 0.6574
421.20 0.6579
421.30 0.6584
421.40 0.6589
421.50 0.6593
421.60 0.6598
421.70 0.6603
421.80 0.6608
421.90 0.6612
422.00 0.6617
422.10 0.6622
422.20 0.6627
422.30 0.6632
422.40 0.6636
422.50 0.6641
422.60 0.6646
422.70 0.6651
422.80 0.6655
422.90 0.666
423.00 0.6665
423.10 0.667
423.20 0.6674
423.30 0.6679
423.40 0.6684
423.50 0.6689
423.60 0.6693
423.70 0.6698
423.80 0.6703
423.90 0.6708
424.00 0.6713
424.10 0.6717
424.20 0.6722
424.30 0.6727
424.40 0.6732
424.50 0.6736
424.60 0.6741
424.70 0.6746
424.80 0.6751
424.90 0.6755
425.00 0.676
425.10 0.6765
425.20 0.677
425.30 0.6774
425.40 0.6779
425.50 0.6784
425.60 0.6789
425.70 0.6793
425.80 0.6798
425.90 0.6803
426.00 0.6808
426.10 0.6812
426.20 0.6817
426.30 0.6822
426.40 0.6827
426.50 0.6831
426.60 0.6836
426.70 0.6841
426.80 0.6846
426.90 0.685
427.00 0.6855
427.10 0.686
427.20 0.6865
427.30 0.6869
427.40 0.6874
427.50 0.6879
427.60 0.6884
427.70 0.6888
427.80 0.6893
427.90 0.6898
428.00 0.6903
428.10 0.6907
428.20 0.6912
428.30 0.6917
428.40 0.6921
428.50 0.6926
428.60 0.6931
428.70 0.6936
428.80 0.694
428.90 0.6945
429.00 0.695
429.10 0.6955
429.20 0.6959
429.30 0.6964
429.40 0.6969
429.50 0.6973
429.60 0.6978
429.70 0.6983
429.80 0.6988
429.90 0.6992
430.00 0.6997
430.10 0.7002
430.20 0.7006
430.30 0.7011
430.40 0.7016
430.50 0.7021
430.60 0.7025
430.70 0.703
430.80 0.7035
430.90 0.7039
431.00 0.7044
431.10 0.7049
431.20 0.7054
431.30 0.7058
431.40 0.7063
431.50 0.7068
431.60 0.7072
431.70 0.7077
431.80 0.7082
431.90 0.7087
432.00 0.7091
432.10 0.7096
432.20 0.7101
432.30 0.7105
432.40 0.711
432.50 0.7115
432.60 0.7119
432.70 0.7124
432.80 0.7129
432.90 0.7134
433.00 0.7138
433.10 0.7143
433.20 0.7148
433.30 0.7152
433.40 0.7157
433.50 0.7162
433.60 0.7166
433.70 0.7171
433.80 0.7176
433.90 0.7181
434.00 0.7185
434.10 0.719
434.20 0.7195
434.30 0.7199
434.40 0.7204
434.50 0.7209
434.60 0.7213
434.70 0.7218
434.80 0.7223
434.90 0.7227
435.00 0.7232
435.10 0.7237
435.20 0.7242
435.30 0.7246
435.40 0.7251
435.50 0.7255
435.60 0.726
435.70 0.7265
435.80 0.7269
435.90 0.7274
436.00 0.7279
436.10 0.7283
436.20 0.7288
436.30 0.7293
436.40 0.7298
436.50 0.7302
436.60 0.7307
436.70 0.7312
436.80 0.7316
436.90 0.7321
437.00 0.7326
437.10 0.733
437.20 0.7335
437.30 0.7339
437.40 0.7344
437.50 0.7349
437.60 0.7353
437.70 0.7358
437.80 0.7363
437.90 0.7368
438.00 0.7372
438.10 0.7377
438.20 0.7381
438.30 0.7386
438.40 0.7391
438.50 0.7395
438.60 0.74
438.70 0.7405
438.80 0.7409
438.90 0.7414
439.00 0.7419
439.10 0.7423
439.20 0.7428
439.30 0.7433
439.40 0.7437
439.50 0.7442
439.60 0.7446
439.70 0.7451
439.80 0.7456
439.90 0.746
440.00 0.7465
440.10 0.747
440.20 0.7474
440.30 0.7479
440.40 0.7484
440.50 0.7488
440.60 0.7493
440.70 0.7497
440.80 0.7502
440.90 0.7507
441.00 0.7511
441.10 0.7516
441.20 0.7521
441.30 0.7525
441.40 0.753
441.50 0.7534
441.60 0.7539
441.70 0.7544
441.80 0.7548
441.90 0.7553
442.00 0.7558
442.10 0.7562
442.20 0.7567
442.30 0.7571
442.40 0.7576
442.50 0.758
442.60 0.7585
442.70 0.759
442.80 0.7594
442.90 0.7599
443.00 0.7604
