# Version 2.1 - nm, norm@500 to 1, cut digits, bergeron_2750_80.dat_2750
# Wavelength(nm)  Flambda(ergs/cm^s/s/nm)
300.00 0.08056
300.10 0.08077
300.20 0.08099
300.30 0.08121
300.40 0.08142
300.50 0.08164
300.60 0.08186
300.70 0.08208
300.80 0.0823
300.90 0.08251
301.00 0.08273
301.10 0.08295
301.20 0.08316
301.30 0.08338
301.40 0.08359
301.50 0.08381
301.60 0.08402
301.70 0.08424
301.80 0.08445
301.90 0.08467
302.00 0.08488
302.10 0.08511
302.20 0.08533
302.30 0.08556
302.40 0.08578
302.50 0.08601
302.60 0.08623
302.70 0.08646
302.80 0.08668
302.90 0.08691
303.00 0.08713
303.10 0.08735
303.20 0.08758
303.30 0.0878
303.40 0.08802
303.50 0.08825
303.60 0.08847
303.70 0.08869
303.80 0.08891
303.90 0.08913
304.00 0.08936
304.10 0.08959
304.20 0.08982
304.30 0.09005
304.40 0.09029
304.50 0.09052
304.60 0.09075
304.70 0.09098
304.80 0.09121
304.90 0.09145
305.00 0.09168
305.10 0.09191
305.20 0.09214
305.30 0.09237
305.40 0.0926
305.50 0.09283
305.60 0.09306
305.70 0.09328
305.80 0.09351
305.90 0.09374
306.00 0.09398
306.10 0.09421
306.20 0.09445
306.30 0.09469
306.40 0.09493
306.50 0.09517
306.60 0.09541
306.70 0.09565
306.80 0.09589
306.90 0.09613
307.00 0.09637
307.10 0.0966
307.20 0.09684
307.30 0.09708
307.40 0.09732
307.50 0.09755
307.60 0.09779
307.70 0.09803
307.80 0.09826
307.90 0.0985
308.00 0.09874
308.10 0.09899
308.20 0.09923
308.30 0.09948
308.40 0.09973
308.50 0.09997
308.60 0.1002
308.70 0.1005
308.80 0.1007
308.90 0.101
309.00 0.1012
309.10 0.1015
309.20 0.1017
309.30 0.1019
309.40 0.1022
309.50 0.1024
309.60 0.1027
309.70 0.1029
309.80 0.1032
309.90 0.1034
310.00 0.1037
310.10 0.1039
310.20 0.1042
310.30 0.1044
310.40 0.1047
310.50 0.1049
310.60 0.1052
310.70 0.1054
310.80 0.1057
310.90 0.1059
311.00 0.1062
311.10 0.1064
311.20 0.1067
311.30 0.107
311.40 0.1072
311.50 0.1075
311.60 0.1077
311.70 0.108
311.80 0.1082
311.90 0.1085
312.00 0.1087
312.10 0.109
312.20 0.1092
312.30 0.1095
312.40 0.1097
312.50 0.11
312.60 0.1103
312.70 0.1105
312.80 0.1108
312.90 0.111
313.00 0.1113
313.10 0.1116
313.20 0.1118
313.30 0.1121
313.40 0.1123
313.50 0.1126
313.60 0.1129
313.70 0.1131
313.80 0.1134
313.90 0.1136
314.00 0.1139
314.10 0.1142
314.20 0.1144
314.30 0.1147
314.40 0.115
314.50 0.1152
314.60 0.1155
314.70 0.1158
314.80 0.1161
314.90 0.1163
315.00 0.1166
315.10 0.1169
315.20 0.1171
315.30 0.1174
315.40 0.1177
315.50 0.1179
315.60 0.1182
315.70 0.1185
315.80 0.1187
315.90 0.119
316.00 0.1193
316.10 0.1195
316.20 0.1198
316.30 0.1201
316.40 0.1204
316.50 0.1206
316.60 0.1209
316.70 0.1212
316.80 0.1215
316.90 0.1217
317.00 0.122
317.10 0.1223
317.20 0.1226
317.30 0.1228
317.40 0.1231
317.50 0.1234
317.60 0.1237
317.70 0.1239
317.80 0.1242
317.90 0.1245
318.00 0.1248
318.10 0.125
318.20 0.1253
318.30 0.1256
318.40 0.1259
318.50 0.1262
318.60 0.1265
318.70 0.1267
318.80 0.127
318.90 0.1273
319.00 0.1276
319.10 0.1279
319.20 0.1281
319.30 0.1284
319.40 0.1287
319.50 0.129
319.60 0.1293
319.70 0.1295
319.80 0.1298
319.90 0.1301
320.00 0.1304
320.10 0.1307
320.20 0.131
320.30 0.1313
320.40 0.1316
320.50 0.1318
320.60 0.1321
320.70 0.1324
320.80 0.1327
320.90 0.133
321.00 0.1333
321.10 0.1336
321.20 0.1339
321.30 0.1342
321.40 0.1344
321.50 0.1347
321.60 0.135
321.70 0.1353
321.80 0.1356
321.90 0.1359
322.00 0.1362
322.10 0.1365
322.20 0.1368
322.30 0.1371
322.40 0.1374
322.50 0.1377
322.60 0.138
322.70 0.1383
322.80 0.1386
322.90 0.1389
323.00 0.1392
323.10 0.1395
323.20 0.1397
323.30 0.14
323.40 0.1403
323.50 0.1406
323.60 0.1409
323.70 0.1412
323.80 0.1415
323.90 0.1418
324.00 0.1421
324.10 0.1424
324.20 0.1427
324.30 0.143
324.40 0.1433
324.50 0.1436
324.60 0.1439
324.70 0.1442
324.80 0.1446
324.90 0.1449
325.00 0.1452
325.10 0.1455
325.20 0.1458
325.30 0.1461
325.40 0.1464
325.50 0.1467
325.60 0.147
325.70 0.1473
325.80 0.1476
325.90 0.1479
326.00 0.1482
326.10 0.1485
326.20 0.1488
326.30 0.1491
326.40 0.1494
326.50 0.1497
326.60 0.1501
326.70 0.1504
326.80 0.1507
326.90 0.151
327.00 0.1513
327.10 0.1516
327.20 0.1519
327.30 0.1522
327.40 0.1525
327.50 0.1529
327.60 0.1532
327.70 0.1535
327.80 0.1538
327.90 0.1541
328.00 0.1544
328.10 0.1547
328.20 0.155
328.30 0.1554
328.40 0.1557
328.50 0.156
328.60 0.1563
328.70 0.1566
328.80 0.157
328.90 0.1573
329.00 0.1576
329.10 0.1579
329.20 0.1582
329.30 0.1586
329.40 0.1589
329.50 0.1592
329.60 0.1595
329.70 0.1598
329.80 0.1601
329.90 0.1605
330.00 0.1608
330.10 0.1611
330.20 0.1614
330.30 0.1618
330.40 0.1621
330.50 0.1624
330.60 0.1627
330.70 0.1631
330.80 0.1634
330.90 0.1637
331.00 0.164
331.10 0.1644
331.20 0.1647
331.30 0.165
331.40 0.1653
331.50 0.1657
331.60 0.166
331.70 0.1663
331.80 0.1666
331.90 0.1669
332.00 0.1673
332.10 0.1676
332.20 0.1679
332.30 0.1683
332.40 0.1686
332.50 0.1689
332.60 0.1693
332.70 0.1696
332.80 0.1699
332.90 0.1703
333.00 0.1706
333.10 0.1709
333.20 0.1713
333.30 0.1716
333.40 0.1719
333.50 0.1723
333.60 0.1726
333.70 0.1729
333.80 0.1733
333.90 0.1736
334.00 0.1739
334.10 0.1743
334.20 0.1746
334.30 0.175
334.40 0.1753
334.50 0.1756
334.60 0.176
334.70 0.1763
334.80 0.1767
334.90 0.177
335.00 0.1773
335.10 0.1777
335.20 0.178
335.30 0.1784
335.40 0.1787
335.50 0.179
335.60 0.1794
335.70 0.1797
335.80 0.18
335.90 0.1804
336.00 0.1807
336.10 0.1811
336.20 0.1814
336.30 0.1818
336.40 0.1821
336.50 0.1825
336.60 0.1828
336.70 0.1832
336.80 0.1835
336.90 0.1839
337.00 0.1842
337.10 0.1845
337.20 0.1849
337.30 0.1852
337.40 0.1856
337.50 0.1859
337.60 0.1863
337.70 0.1866
337.80 0.187
337.90 0.1873
338.00 0.1876
338.10 0.188
338.20 0.1884
338.30 0.1887
338.40 0.1891
338.50 0.1894
338.60 0.1898
338.70 0.1901
338.80 0.1905
338.90 0.1908
339.00 0.1912
339.10 0.1915
339.20 0.1919
339.30 0.1923
339.40 0.1926
339.50 0.193
339.60 0.1933
339.70 0.1937
339.80 0.194
339.90 0.1944
340.00 0.1947
340.10 0.1951
340.20 0.1954
340.30 0.1958
340.40 0.1962
340.50 0.1965
340.60 0.1969
340.70 0.1972
340.80 0.1976
340.90 0.198
341.00 0.1983
341.10 0.1987
341.20 0.199
341.30 0.1994
341.40 0.1998
341.50 0.2001
341.60 0.2005
341.70 0.2008
341.80 0.2012
341.90 0.2016
342.00 0.2019
342.10 0.2023
342.20 0.2027
342.30 0.203
342.40 0.2034
342.50 0.2038
342.60 0.2041
342.70 0.2045
342.80 0.2049
342.90 0.2052
343.00 0.2056
343.10 0.206
343.20 0.2063
343.30 0.2067
343.40 0.2071
343.50 0.2074
343.60 0.2078
343.70 0.2082
343.80 0.2085
343.90 0.2089
344.00 0.2092
344.10 0.2096
344.20 0.21
344.30 0.2104
344.40 0.2108
344.50 0.2111
344.60 0.2115
344.70 0.2119
344.80 0.2123
344.90 0.2126
345.00 0.213
345.10 0.2134
345.20 0.2138
345.30 0.2141
345.40 0.2145
345.50 0.2149
345.60 0.2152
345.70 0.2156
345.80 0.216
345.90 0.2164
346.00 0.2167
346.10 0.2171
346.20 0.2175
346.30 0.2179
346.40 0.2183
346.50 0.2186
346.60 0.219
346.70 0.2194
346.80 0.2198
346.90 0.2202
347.00 0.2205
347.10 0.2209
347.20 0.2213
347.30 0.2217
347.40 0.2221
347.50 0.2224
347.60 0.2228
347.70 0.2232
347.80 0.2236
347.90 0.224
348.00 0.2243
348.10 0.2247
348.20 0.2251
348.30 0.2255
348.40 0.2259
348.50 0.2263
348.60 0.2267
348.70 0.2271
348.80 0.2274
348.90 0.2278
349.00 0.2282
349.10 0.2286
349.20 0.229
349.30 0.2294
349.40 0.2298
349.50 0.2301
349.60 0.2305
349.70 0.2309
349.80 0.2313
349.90 0.2317
350.00 0.2321
350.10 0.2325
350.20 0.2329
350.30 0.2333
350.40 0.2337
350.50 0.234
350.60 0.2344
350.70 0.2348
350.80 0.2352
350.90 0.2356
351.00 0.236
351.10 0.2364
351.20 0.2368
351.30 0.2372
351.40 0.2376
351.50 0.238
351.60 0.2384
351.70 0.2388
351.80 0.2392
351.90 0.2395
352.00 0.2399
352.10 0.2403
352.20 0.2407
352.30 0.2411
352.40 0.2415
352.50 0.2419
352.60 0.2424
352.70 0.2428
352.80 0.2432
352.90 0.2436
353.00 0.244
353.10 0.2444
353.20 0.2448
353.30 0.2451
353.40 0.2455
353.50 0.2459
353.60 0.2463
353.70 0.2467
353.80 0.2471
353.90 0.2475
354.00 0.2479
354.10 0.2483
354.20 0.2487
354.30 0.2492
354.40 0.2496
354.50 0.25
354.60 0.2504
354.70 0.2508
354.80 0.2512
354.90 0.2516
355.00 0.252
355.10 0.2524
355.20 0.2528
355.30 0.2532
355.40 0.2536
355.50 0.254
355.60 0.2544
355.70 0.2548
355.80 0.2552
355.90 0.2556
356.00 0.256
356.10 0.2565
356.20 0.2569
356.30 0.2573
356.40 0.2577
356.50 0.2581
356.60 0.2585
356.70 0.2589
356.80 0.2594
356.90 0.2598
357.00 0.2602
357.10 0.2606
357.20 0.261
357.30 0.2614
357.40 0.2618
357.50 0.2622
357.60 0.2626
357.70 0.2631
357.80 0.2635
357.90 0.2639
358.00 0.2643
358.10 0.2647
358.20 0.2651
358.30 0.2655
358.40 0.266
358.50 0.2664
358.60 0.2668
358.70 0.2672
358.80 0.2676
358.90 0.2681
359.00 0.2685
359.10 0.2689
359.20 0.2693
359.30 0.2697
359.40 0.2702
359.50 0.2706
359.60 0.271
359.70 0.2714
359.80 0.2718
359.90 0.2722
360.00 0.2726
360.10 0.2731
360.20 0.2735
360.30 0.2739
360.40 0.2744
360.50 0.2748
360.60 0.2752
360.70 0.2756
360.80 0.2761
360.90 0.2765
361.00 0.2769
361.10 0.2773
361.20 0.2778
361.30 0.2782
361.40 0.2786
361.50 0.279
361.60 0.2794
361.70 0.2799
361.80 0.2803
361.90 0.2807
362.00 0.2811
362.10 0.2816
362.20 0.282
362.30 0.2824
362.40 0.2828
362.50 0.2833
362.60 0.2837
362.70 0.2841
362.80 0.2846
362.90 0.285
363.00 0.2854
363.10 0.2858
363.20 0.2863
363.30 0.2867
363.40 0.2871
363.50 0.2876
363.60 0.288
363.70 0.2884
363.80 0.2889
363.90 0.2893
364.00 0.2897
364.10 0.2902
364.20 0.2906
364.30 0.291
364.40 0.2915
364.50 0.2919
364.60 0.2923
364.70 0.2928
364.80 0.2932
364.90 0.2936
365.00 0.2941
365.10 0.2945
365.20 0.295
365.30 0.2954
365.40 0.2958
365.50 0.2963
365.60 0.2967
365.70 0.2971
365.80 0.2976
365.90 0.298
366.00 0.2984
366.10 0.2989
366.20 0.2993
366.30 0.2998
366.40 0.3002
366.50 0.3007
366.60 0.3011
366.70 0.3015
366.80 0.302
366.90 0.3024
367.00 0.3029
367.10 0.3033
367.20 0.3037
367.30 0.3042
367.40 0.3046
367.50 0.3051
367.60 0.3055
367.70 0.3059
367.80 0.3064
367.90 0.3068
368.00 0.3073
368.10 0.3077
368.20 0.3082
368.30 0.3086
368.40 0.3091
368.50 0.3095
368.60 0.31
368.70 0.3104
368.80 0.3109
368.90 0.3113
369.00 0.3117
369.10 0.3122
369.20 0.3126
369.30 0.3131
369.40 0.3135
369.50 0.314
369.60 0.3144
369.70 0.3149
369.80 0.3153
369.90 0.3157
370.00 0.3162
370.10 0.3166
370.20 0.3171
370.30 0.3176
370.40 0.318
370.50 0.3185
370.60 0.3189
370.70 0.3194
370.80 0.3198
370.90 0.3203
371.00 0.3207
371.10 0.3212
371.20 0.3216
371.30 0.3221
371.40 0.3225
371.50 0.323
371.60 0.3234
371.70 0.3239
371.80 0.3243
371.90 0.3248
372.00 0.3252
372.10 0.3257
372.20 0.3261
372.30 0.3266
372.40 0.3271
372.50 0.3275
372.60 0.328
372.70 0.3284
372.80 0.3289
372.90 0.3294
373.00 0.3298
373.10 0.3303
373.20 0.3307
373.30 0.3312
373.40 0.3316
373.50 0.3321
373.60 0.3326
373.70 0.333
373.80 0.3335
373.90 0.3339
374.00 0.3344
374.10 0.3348
374.20 0.3353
374.30 0.3358
374.40 0.3362
374.50 0.3367
374.60 0.3372
374.70 0.3376
374.80 0.3381
374.90 0.3386
375.00 0.339
375.10 0.3395
375.20 0.3399
375.30 0.3404
375.40 0.3409
375.50 0.3413
375.60 0.3418
375.70 0.3422
375.80 0.3427
375.90 0.3432
376.00 0.3436
376.10 0.3441
376.20 0.3445
376.30 0.345
376.40 0.3455
376.50 0.3459
376.60 0.3464
376.70 0.3469
376.80 0.3473
376.90 0.3478
377.00 0.3483
377.10 0.3487
377.20 0.3492
377.30 0.3497
377.40 0.3502
377.50 0.3506
377.60 0.3511
377.70 0.3516
377.80 0.352
377.90 0.3525
378.00 0.353
378.10 0.3534
378.20 0.3539
378.30 0.3544
378.40 0.3548
378.50 0.3553
378.60 0.3558
378.70 0.3563
378.80 0.3567
378.90 0.3572
379.00 0.3577
379.10 0.3581
379.20 0.3586
379.30 0.3591
379.40 0.3596
379.50 0.36
379.60 0.3605
379.70 0.361
379.80 0.3615
379.90 0.3619
380.00 0.3624
380.10 0.3629
380.20 0.3634
380.30 0.3638
380.40 0.3643
380.50 0.3648
380.60 0.3653
380.70 0.3657
380.80 0.3662
380.90 0.3667
381.00 0.3672
381.10 0.3676
381.20 0.3681
381.30 0.3686
381.40 0.3691
381.50 0.3695
381.60 0.37
381.70 0.3705
381.80 0.371
381.90 0.3715
382.00 0.3719
382.10 0.3724
382.20 0.3729
382.30 0.3734
382.40 0.3739
382.50 0.3743
382.60 0.3748
382.70 0.3753
382.80 0.3758
382.90 0.3763
383.00 0.3767
383.10 0.3772
383.20 0.3777
383.30 0.3782
383.40 0.3787
383.50 0.3791
383.60 0.3796
383.70 0.3801
383.80 0.3806
383.90 0.3811
384.00 0.3816
384.10 0.382
384.20 0.3825
384.30 0.383
384.40 0.3835
384.50 0.384
384.60 0.3845
384.70 0.3849
384.80 0.3854
384.90 0.3859
385.00 0.3864
385.10 0.3869
385.20 0.3874
385.30 0.3879
385.40 0.3883
385.50 0.3888
385.60 0.3893
385.70 0.3898
385.80 0.3903
385.90 0.3908
386.00 0.3913
386.10 0.3918
386.20 0.3922
386.30 0.3927
386.40 0.3932
386.50 0.3937
386.60 0.3942
386.70 0.3947
386.80 0.3952
386.90 0.3957
387.00 0.3962
387.10 0.3967
387.20 0.3971
387.30 0.3976
387.40 0.3981
387.50 0.3986
387.60 0.3991
387.70 0.3996
387.80 0.4001
387.90 0.4006
388.00 0.4011
388.10 0.4016
388.20 0.4021
388.30 0.4025
388.40 0.403
388.50 0.4035
388.60 0.404
388.70 0.4045
388.80 0.405
388.90 0.4055
389.00 0.406
389.10 0.4065
389.20 0.407
389.30 0.4075
389.40 0.408
389.50 0.4085
389.60 0.409
389.70 0.4095
389.80 0.41
389.90 0.4105
390.00 0.4109
390.10 0.4114
390.20 0.4119
390.30 0.4124
390.40 0.4129
390.50 0.4134
390.60 0.4139
390.70 0.4144
390.80 0.4149
390.90 0.4154
391.00 0.4159
391.10 0.4164
391.20 0.4169
391.30 0.4174
391.40 0.4179
391.50 0.4184
391.60 0.4189
391.70 0.4194
391.80 0.4199
391.90 0.4204
392.00 0.4209
392.10 0.4214
392.20 0.4219
392.30 0.4224
392.40 0.4229
392.50 0.4234
392.60 0.4239
392.70 0.4244
392.80 0.4249
392.90 0.4254
393.00 0.4259
393.10 0.4264
393.20 0.4269
393.30 0.4274
393.40 0.4279
393.50 0.4284
393.60 0.4289
393.70 0.4294
393.80 0.4299
393.90 0.4304
394.00 0.431
394.10 0.4315
394.20 0.432
394.30 0.4325
394.40 0.433
394.50 0.4335
394.60 0.434
394.70 0.4345
394.80 0.435
394.90 0.4355
395.00 0.436
395.10 0.4365
395.20 0.437
395.30 0.4375
395.40 0.438
395.50 0.4385
395.60 0.439
395.70 0.4395
395.80 0.44
395.90 0.4406
396.00 0.4411
396.10 0.4416
396.20 0.4421
396.30 0.4426
396.40 0.4431
396.50 0.4436
396.60 0.4441
396.70 0.4446
396.80 0.4451
396.90 0.4456
397.00 0.4461
397.10 0.4467
397.20 0.4472
397.30 0.4477
397.40 0.4482
397.50 0.4487
397.60 0.4492
397.70 0.4497
397.80 0.4502
397.90 0.4507
398.00 0.4512
398.10 0.4518
398.20 0.4523
398.30 0.4528
398.40 0.4533
398.50 0.4538
398.60 0.4543
398.70 0.4548
398.80 0.4553
398.90 0.4559
399.00 0.4564
399.10 0.4569
399.20 0.4574
399.30 0.4579
399.40 0.4584
399.50 0.4589
399.60 0.4594
399.70 0.46
399.80 0.4605
399.90 0.461
400.00 0.4615
400.10 0.462
400.20 0.4625
400.30 0.463
400.40 0.4636
400.50 0.4641
400.60 0.4646
400.70 0.4651
400.80 0.4656
400.90 0.4661
401.00 0.4666
401.10 0.4672
401.20 0.4677
401.30 0.4682
401.40 0.4687
401.50 0.4692
401.60 0.4697
401.70 0.4703
401.80 0.4708
401.90 0.4713
402.00 0.4718
402.10 0.4723
402.20 0.4729
402.30 0.4734
402.40 0.4739
402.50 0.4744
402.60 0.4749
402.70 0.4754
402.80 0.476
402.90 0.4765
403.00 0.477
403.10 0.4775
403.20 0.478
403.30 0.4786
403.40 0.4791
403.50 0.4796
403.60 0.4801
403.70 0.4806
403.80 0.4812
403.90 0.4817
404.00 0.4822
404.10 0.4827
404.20 0.4832
404.30 0.4838
404.40 0.4843
404.50 0.4848
404.60 0.4853
404.70 0.4858
404.80 0.4864
404.90 0.4869
405.00 0.4874
405.10 0.4879
405.20 0.4885
405.30 0.489
405.40 0.4895
405.50 0.49
405.60 0.4905
405.70 0.4911
405.80 0.4916
405.90 0.4921
406.00 0.4926
406.10 0.4932
406.20 0.4937
406.30 0.4942
406.40 0.4947
406.50 0.4952
406.60 0.4958
406.70 0.4963
406.80 0.4968
406.90 0.4974
407.00 0.4979
407.10 0.4984
407.20 0.4989
407.30 0.4994
407.40 0.5
407.50 0.5005
407.60 0.501
407.70 0.5015
407.80 0.5021
407.90 0.5026
408.00 0.5031
408.10 0.5036
408.20 0.5042
408.30 0.5047
408.40 0.5052
408.50 0.5058
408.60 0.5063
408.70 0.5068
408.80 0.5074
408.90 0.5079
409.00 0.5084
409.10 0.5089
409.20 0.5094
409.30 0.51
409.40 0.5105
409.50 0.511
409.60 0.5115
409.70 0.5121
409.80 0.5126
409.90 0.5132
410.00 0.5137
410.10 0.5142
410.20 0.5147
410.30 0.5153
410.40 0.5158
410.50 0.5163
410.60 0.5169
410.70 0.5174
410.80 0.5179
410.90 0.5184
411.00 0.519
411.10 0.5195
411.20 0.52
411.30 0.5206
411.40 0.5211
411.50 0.5216
411.60 0.5222
411.70 0.5227
411.80 0.5232
411.90 0.5238
412.00 0.5243
412.10 0.5248
412.20 0.5253
412.30 0.5259
412.40 0.5264
412.50 0.5269
412.60 0.5275
412.70 0.528
412.80 0.5285
412.90 0.5291
413.00 0.5296
413.10 0.5301
413.20 0.5307
413.30 0.5312
413.40 0.5317
413.50 0.5323
413.60 0.5328
413.70 0.5333
413.80 0.5339
413.90 0.5344
414.00 0.5349
414.10 0.5355
414.20 0.536
414.30 0.5365
414.40 0.5371
414.50 0.5376
414.60 0.5381
414.70 0.5387
414.80 0.5392
414.90 0.5398
415.00 0.5403
415.10 0.5408
415.20 0.5413
415.30 0.5419
415.40 0.5424
415.50 0.543
415.60 0.5435
415.70 0.544
415.80 0.5445
415.90 0.5451
416.00 0.5456
416.10 0.5462
416.20 0.5467
416.30 0.5472
416.40 0.5478
416.50 0.5483
416.60 0.5488
416.70 0.5494
416.80 0.5499
416.90 0.5505
417.00 0.551
417.10 0.5515
417.20 0.5521
417.30 0.5526
417.40 0.5531
417.50 0.5537
417.60 0.5542
417.70 0.5547
417.80 0.5553
417.90 0.5558
418.00 0.5564
418.10 0.5569
418.20 0.5574
418.30 0.558
418.40 0.5585
418.50 0.5591
418.60 0.5596
418.70 0.5601
418.80 0.5607
418.90 0.5612
419.00 0.5617
419.10 0.5623
419.20 0.5628
419.30 0.5633
419.40 0.5639
419.50 0.5645
419.60 0.565
419.70 0.5655
419.80 0.5661
419.90 0.5666
420.00 0.5671
420.10 0.5677
420.20 0.5682
420.30 0.5688
420.40 0.5693
420.50 0.5698
420.60 0.5704
420.70 0.5709
420.80 0.5715
420.90 0.572
421.00 0.5725
421.10 0.5731
421.20 0.5736
421.30 0.5742
421.40 0.5747
421.50 0.5752
421.60 0.5758
421.70 0.5763
421.80 0.5769
421.90 0.5774
422.00 0.5779
422.10 0.5785
422.20 0.579
422.30 0.5796
422.40 0.5801
422.50 0.5807
422.60 0.5812
422.70 0.5817
422.80 0.5823
422.90 0.5828
423.00 0.5834
423.10 0.5839
423.20 0.5844
423.30 0.585
423.40 0.5855
423.50 0.5861
423.60 0.5866
423.70 0.5872
423.80 0.5877
423.90 0.5883
424.00 0.5888
424.10 0.5893
424.20 0.5899
424.30 0.5904
424.40 0.591
424.50 0.5915
424.60 0.5921
424.70 0.5926
424.80 0.5931
424.90 0.5937
425.00 0.5942
425.10 0.5948
425.20 0.5953
425.30 0.5959
425.40 0.5964
425.50 0.5969
425.60 0.5975
425.70 0.598
425.80 0.5986
425.90 0.5991
426.00 0.5997
426.10 0.6002
426.20 0.6008
426.30 0.6013
426.40 0.6018
426.50 0.6024
426.60 0.603
426.70 0.6035
426.80 0.604
426.90 0.6046
427.00 0.6051
427.10 0.6057
427.20 0.6062
427.30 0.6068
427.40 0.6073
427.50 0.6079
427.60 0.6084
427.70 0.6089
427.80 0.6095
427.90 0.61
428.00 0.6106
428.10 0.6111
428.20 0.6117
428.30 0.6122
428.40 0.6128
428.50 0.6133
428.60 0.6139
428.70 0.6144
428.80 0.615
428.90 0.6155
429.00 0.616
429.10 0.6166
429.20 0.6171
429.30 0.6177
429.40 0.6182
429.50 0.6188
429.60 0.6193
429.70 0.6199
429.80 0.6204
429.90 0.621
430.00 0.6215
430.10 0.6221
430.20 0.6226
430.30 0.6232
430.40 0.6237
430.50 0.6242
430.60 0.6248
430.70 0.6254
430.80 0.6259
430.90 0.6264
431.00 0.627
431.10 0.6275
431.20 0.6281
431.30 0.6286
431.40 0.6292
431.50 0.6297
431.60 0.6303
431.70 0.6308
431.80 0.6314
431.90 0.6319
432.00 0.6325
432.10 0.633
432.20 0.6336
432.30 0.6341
432.40 0.6347
432.50 0.6352
432.60 0.6358
432.70 0.6363
432.80 0.6369
432.90 0.6374
433.00 0.6379
433.10 0.6385
433.20 0.639
433.30 0.6396
433.40 0.6401
433.50 0.6407
433.60 0.6412
433.70 0.6418
433.80 0.6423
433.90 0.6429
434.00 0.6434
434.10 0.644
434.20 0.6445
434.30 0.6451
434.40 0.6456
434.50 0.6462
434.60 0.6467
434.70 0.6473
434.80 0.6478
434.90 0.6484
435.00 0.6489
435.10 0.6495
435.20 0.65
435.30 0.6506
435.40 0.6511
435.50 0.6517
435.60 0.6522
435.70 0.6528
435.80 0.6533
435.90 0.6539
436.00 0.6544
436.10 0.655
436.20 0.6555
436.30 0.6561
436.40 0.6566
436.50 0.6572
436.60 0.6577
436.70 0.6583
436.80 0.6588
436.90 0.6594
437.00 0.6599
437.10 0.6605
437.20 0.661
437.30 0.6616
437.40 0.6621
437.50 0.6627
437.60 0.6632
437.70 0.6638
437.80 0.6643
437.90 0.6649
438.00 0.6654
438.10 0.666
438.20 0.6665
438.30 0.6671
438.40 0.6676
438.50 0.6682
438.60 0.6687
438.70 0.6693
438.80 0.6698
438.90 0.6704
439.00 0.6709
439.10 0.6715
439.20 0.672
439.30 0.6726
439.40 0.6731
439.50 0.6737
439.60 0.6742
439.70 0.6748
439.80 0.6753
439.90 0.6759
440.00 0.6764
440.10 0.677
440.20 0.6776
440.30 0.6781
440.40 0.6786
440.50 0.6792
440.60 0.6798
440.70 0.6803
440.80 0.6808
440.90 0.6814
441.00 0.6819
441.10 0.6825
441.20 0.683
441.30 0.6836
441.40 0.6842
441.50 0.6847
441.60 0.6853
441.70 0.6858
441.80 0.6864
441.90 0.6869
442.00 0.6875
442.10 0.688
442.20 0.6886
442.30 0.6891
442.40 0.6897
442.50 0.6902
