# Version 2.1 - nm, norm@500 to 1, cut digits, bergeron_50000_70.dat_50000
# Wavelength(nm)  Flambda(ergs/cm^s/s/nm)
300.00 6.175
300.10 6.168
300.20 6.16
300.30 6.153
300.40 6.145
300.50 6.138
300.60 6.131
300.70 6.123
300.80 6.116
300.90 6.109
301.00 6.101
301.10 6.094
301.20 6.087
301.30 6.079
301.40 6.072
301.50 6.065
301.60 6.057
301.70 6.05
301.80 6.043
301.90 6.036
302.00 6.029
302.10 6.021
302.20 6.014
302.30 6.007
302.40 6
302.50 5.993
302.60 5.985
302.70 5.978
302.80 5.971
302.90 5.964
303.00 5.957
303.10 5.95
303.20 5.943
303.30 5.936
303.40 5.928
303.50 5.921
303.60 5.914
303.70 5.907
303.80 5.9
303.90 5.893
304.00 5.886
304.10 5.879
304.20 5.872
304.30 5.865
304.40 5.858
304.50 5.851
304.60 5.844
304.70 5.837
304.80 5.83
304.90 5.824
305.00 5.817
305.10 5.81
305.20 5.803
305.30 5.796
305.40 5.789
305.50 5.782
305.60 5.775
305.70 5.769
305.80 5.762
305.90 5.755
306.00 5.748
306.10 5.741
306.20 5.735
306.30 5.728
306.40 5.721
306.50 5.714
306.60 5.707
306.70 5.701
306.80 5.694
306.90 5.687
307.00 5.681
307.10 5.674
307.20 5.667
307.30 5.661
307.40 5.654
307.50 5.647
307.60 5.641
307.70 5.634
307.80 5.627
307.90 5.621
308.00 5.614
308.10 5.607
308.20 5.601
308.30 5.594
308.40 5.588
308.50 5.581
308.60 5.575
308.70 5.568
308.80 5.562
308.90 5.555
309.00 5.548
309.10 5.542
309.20 5.535
309.30 5.529
309.40 5.523
309.50 5.516
309.60 5.51
309.70 5.503
309.80 5.497
309.90 5.49
310.00 5.484
310.10 5.477
310.20 5.471
310.30 5.465
310.40 5.458
310.50 5.452
310.60 5.446
310.70 5.439
310.80 5.433
310.90 5.427
311.00 5.42
311.10 5.414
311.20 5.408
311.30 5.401
311.40 5.395
311.50 5.389
311.60 5.382
311.70 5.376
311.80 5.37
311.90 5.364
312.00 5.357
312.10 5.351
312.20 5.345
312.30 5.339
312.40 5.333
312.50 5.326
312.60 5.32
312.70 5.314
312.80 5.308
312.90 5.302
313.00 5.296
313.10 5.289
313.20 5.283
313.30 5.277
313.40 5.271
313.50 5.265
313.60 5.259
313.70 5.253
313.80 5.247
313.90 5.241
314.00 5.235
314.10 5.229
314.20 5.223
314.30 5.217
314.40 5.211
314.50 5.204
314.60 5.198
314.70 5.193
314.80 5.187
314.90 5.181
315.00 5.175
315.10 5.169
315.20 5.163
315.30 5.157
315.40 5.151
315.50 5.145
315.60 5.139
315.70 5.133
315.80 5.127
315.90 5.121
316.00 5.115
316.10 5.11
316.20 5.104
316.30 5.098
316.40 5.092
316.50 5.086
316.60 5.08
316.70 5.074
316.80 5.069
316.90 5.063
317.00 5.057
317.10 5.051
317.20 5.045
317.30 5.04
317.40 5.034
317.50 5.028
317.60 5.022
317.70 5.017
317.80 5.011
317.90 5.005
318.00 5
318.10 4.994
318.20 4.988
318.30 4.982
318.40 4.977
318.50 4.971
318.60 4.965
318.70 4.96
318.80 4.954
318.90 4.948
319.00 4.943
319.10 4.937
319.20 4.932
319.30 4.926
319.40 4.92
319.50 4.915
319.60 4.909
319.70 4.904
319.80 4.898
319.90 4.892
320.00 4.887
320.10 4.881
320.20 4.876
320.30 4.87
320.40 4.865
320.50 4.859
320.60 4.854
320.70 4.848
320.80 4.843
320.90 4.837
321.00 4.832
321.10 4.826
321.20 4.821
321.30 4.815
321.40 4.81
321.50 4.805
321.60 4.799
321.70 4.794
321.80 4.788
321.90 4.783
322.00 4.777
322.10 4.772
322.20 4.767
322.30 4.761
322.40 4.756
322.50 4.751
322.60 4.745
322.70 4.74
322.80 4.735
322.90 4.729
323.00 4.724
323.10 4.719
323.20 4.713
323.30 4.708
323.40 4.703
323.50 4.697
323.60 4.692
323.70 4.687
323.80 4.682
323.90 4.676
324.00 4.671
324.10 4.666
324.20 4.661
324.30 4.655
324.40 4.65
324.50 4.645
324.60 4.64
324.70 4.635
324.80 4.629
324.90 4.624
325.00 4.619
325.10 4.614
325.20 4.609
325.30 4.604
325.40 4.598
325.50 4.593
325.60 4.588
325.70 4.583
325.80 4.578
325.90 4.573
326.00 4.568
326.10 4.563
326.20 4.557
326.30 4.552
326.40 4.547
326.50 4.542
326.60 4.537
326.70 4.532
326.80 4.527
326.90 4.522
327.00 4.517
327.10 4.512
327.20 4.507
327.30 4.502
327.40 4.497
327.50 4.492
327.60 4.487
327.70 4.482
327.80 4.477
327.90 4.472
328.00 4.467
328.10 4.462
328.20 4.457
328.30 4.452
328.40 4.447
328.50 4.442
328.60 4.437
328.70 4.433
328.80 4.428
328.90 4.423
329.00 4.418
329.10 4.413
329.20 4.408
329.30 4.403
329.40 4.398
329.50 4.393
329.60 4.389
329.70 4.384
329.80 4.379
329.90 4.374
330.00 4.369
330.10 4.364
330.20 4.36
330.30 4.355
330.40 4.35
330.50 4.345
330.60 4.34
330.70 4.336
330.80 4.331
330.90 4.326
331.00 4.321
331.10 4.317
331.20 4.312
331.30 4.307
331.40 4.302
331.50 4.298
331.60 4.293
331.70 4.288
331.80 4.284
331.90 4.279
332.00 4.274
332.10 4.269
332.20 4.265
332.30 4.26
332.40 4.255
332.50 4.251
332.60 4.246
332.70 4.241
332.80 4.237
332.90 4.232
333.00 4.228
333.10 4.223
333.20 4.218
333.30 4.214
333.40 4.209
333.50 4.204
333.60 4.2
333.70 4.195
333.80 4.191
333.90 4.186
334.00 4.182
334.10 4.177
334.20 4.172
334.30 4.168
334.40 4.163
334.50 4.159
334.60 4.154
334.70 4.15
334.80 4.145
334.90 4.141
335.00 4.136
335.10 4.132
335.20 4.127
335.30 4.123
335.40 4.118
335.50 4.114
335.60 4.109
335.70 4.105
335.80 4.1
335.90 4.096
336.00 4.091
336.10 4.087
336.20 4.083
336.30 4.078
336.40 4.074
336.50 4.069
336.60 4.065
336.70 4.061
336.80 4.056
336.90 4.052
337.00 4.047
337.10 4.043
337.20 4.039
337.30 4.034
337.40 4.03
337.50 4.026
337.60 4.021
337.70 4.017
337.80 4.013
337.90 4.008
338.00 4.004
338.10 4
338.20 3.995
338.30 3.991
338.40 3.987
338.50 3.982
338.60 3.978
338.70 3.974
338.80 3.97
338.90 3.965
339.00 3.961
339.10 3.957
339.20 3.952
339.30 3.948
339.40 3.944
339.50 3.94
339.60 3.935
339.70 3.931
339.80 3.927
339.90 3.923
340.00 3.919
340.10 3.914
340.20 3.91
340.30 3.906
340.40 3.902
340.50 3.898
340.60 3.893
340.70 3.889
340.80 3.885
340.90 3.881
341.00 3.877
341.10 3.873
341.20 3.869
341.30 3.864
341.40 3.86
341.50 3.856
341.60 3.852
341.70 3.848
341.80 3.844
341.90 3.84
342.00 3.836
342.10 3.831
342.20 3.827
342.30 3.823
342.40 3.819
342.50 3.815
342.60 3.811
342.70 3.807
342.80 3.803
342.90 3.799
343.00 3.795
343.10 3.791
343.20 3.787
343.30 3.783
343.40 3.779
343.50 3.775
343.60 3.771
343.70 3.767
343.80 3.763
343.90 3.759
344.00 3.755
344.10 3.751
344.20 3.747
344.30 3.743
344.40 3.739
344.50 3.735
344.60 3.731
344.70 3.727
344.80 3.723
344.90 3.719
345.00 3.715
345.10 3.711
345.20 3.707
345.30 3.703
345.40 3.699
345.50 3.696
345.60 3.692
345.70 3.688
345.80 3.684
345.90 3.68
346.00 3.676
346.10 3.672
346.20 3.668
346.30 3.664
346.40 3.661
346.50 3.657
346.60 3.653
346.70 3.649
346.80 3.645
346.90 3.641
347.00 3.637
347.10 3.634
347.20 3.63
347.30 3.626
347.40 3.622
347.50 3.618
347.60 3.615
347.70 3.611
347.80 3.607
347.90 3.603
348.00 3.599
348.10 3.596
348.20 3.592
348.30 3.588
348.40 3.584
348.50 3.581
348.60 3.577
348.70 3.573
348.80 3.569
348.90 3.566
349.00 3.562
349.10 3.558
349.20 3.554
349.30 3.551
349.40 3.547
349.50 3.543
349.60 3.539
349.70 3.536
349.80 3.532
349.90 3.528
350.00 3.525
350.10 3.521
350.20 3.517
350.30 3.514
350.40 3.51
350.50 3.506
350.60 3.503
350.70 3.499
350.80 3.495
350.90 3.492
351.00 3.488
351.10 3.484
351.20 3.481
351.30 3.477
351.40 3.474
351.50 3.47
351.60 3.466
351.70 3.463
351.80 3.459
351.90 3.456
352.00 3.452
352.10 3.448
352.20 3.445
352.30 3.441
352.40 3.438
352.50 3.434
352.60 3.431
352.70 3.427
352.80 3.423
352.90 3.42
353.00 3.416
353.10 3.413
353.20 3.409
353.30 3.406
353.40 3.402
353.50 3.399
353.60 3.395
353.70 3.392
353.80 3.388
353.90 3.385
354.00 3.381
354.10 3.378
354.20 3.374
354.30 3.371
354.40 3.367
354.50 3.364
354.60 3.36
354.70 3.357
354.80 3.353
354.90 3.35
355.00 3.346
355.10 3.343
355.20 3.339
355.30 3.336
355.40 3.333
355.50 3.329
355.60 3.326
355.70 3.322
355.80 3.319
355.90 3.315
356.00 3.312
356.10 3.309
356.20 3.305
356.30 3.302
356.40 3.298
356.50 3.295
356.60 3.292
356.70 3.288
356.80 3.285
356.90 3.282
357.00 3.278
357.10 3.275
357.20 3.271
357.30 3.268
357.40 3.265
357.50 3.261
357.60 3.258
357.70 3.255
357.80 3.251
357.90 3.248
358.00 3.245
358.10 3.241
358.20 3.238
358.30 3.235
358.40 3.232
358.50 3.228
358.60 3.225
358.70 3.222
358.80 3.218
358.90 3.215
359.00 3.212
359.10 3.209
359.20 3.205
359.30 3.202
359.40 3.199
359.50 3.195
359.60 3.192
359.70 3.189
359.80 3.186
359.90 3.182
360.00 3.179
360.10 3.176
360.20 3.173
360.30 3.169
360.40 3.166
360.50 3.163
360.60 3.16
360.70 3.157
360.80 3.153
360.90 3.15
361.00 3.147
361.10 3.144
361.20 3.141
361.30 3.137
361.40 3.134
361.50 3.131
361.60 3.128
361.70 3.125
361.80 3.122
361.90 3.118
362.00 3.115
362.10 3.112
362.20 3.109
362.30 3.106
362.40 3.103
362.50 3.1
362.60 3.096
362.70 3.093
362.80 3.09
362.90 3.087
363.00 3.084
363.10 3.081
363.20 3.078
363.30 3.075
363.40 3.071
363.50 3.068
363.60 3.065
363.70 3.062
363.80 3.059
363.90 3.056
364.00 3.053
364.10 3.05
364.20 3.047
364.30 3.044
364.40 3.041
364.50 3.038
364.60 3.035
364.70 3.031
364.80 3.028
364.90 3.025
365.00 3.022
365.10 3.019
365.20 3.016
365.30 3.013
365.40 3.01
365.50 3.007
365.60 3.004
365.70 3.001
365.80 2.998
365.90 2.995
366.00 2.992
366.10 2.989
366.20 2.986
366.30 2.983
366.40 2.98
366.50 2.977
366.60 2.973
366.70 2.97
366.80 2.967
366.90 2.964
367.00 2.961
367.10 2.958
367.20 2.955
367.30 2.952
367.40 2.949
367.50 2.946
367.60 2.942
367.70 2.939
367.80 2.936
367.90 2.933
368.00 2.93
368.10 2.927
368.20 2.924
368.30 2.921
368.40 2.918
368.50 2.915
368.60 2.912
368.70 2.909
368.80 2.906
368.90 2.903
369.00 2.9
369.10 2.897
369.20 2.894
369.30 2.891
369.40 2.888
369.50 2.885
369.60 2.882
369.70 2.879
369.80 2.876
369.90 2.873
370.00 2.87
370.10 2.867
370.20 2.864
370.30 2.861
370.40 2.858
370.50 2.855
370.60 2.852
370.70 2.849
370.80 2.846
370.90 2.844
371.00 2.841
371.10 2.838
371.20 2.835
371.30 2.832
371.40 2.829
371.50 2.826
371.60 2.823
371.70 2.82
371.80 2.817
371.90 2.815
372.00 2.812
372.10 2.809
372.20 2.806
372.30 2.803
372.40 2.801
372.50 2.798
372.60 2.795
372.70 2.792
372.80 2.79
372.90 2.787
373.00 2.784
373.10 2.782
373.20 2.779
373.30 2.776
373.40 2.773
373.50 2.771
373.60 2.768
373.70 2.765
373.80 2.763
373.90 2.76
374.00 2.757
374.10 2.755
374.20 2.752
374.30 2.75
374.40 2.747
374.50 2.745
374.60 2.742
374.70 2.74
374.80 2.737
374.90 2.735
375.00 2.732
375.10 2.73
375.20 2.727
375.30 2.725
375.40 2.722
375.50 2.72
375.60 2.717
375.70 2.715
375.80 2.712
375.90 2.71
376.00 2.707
376.10 2.704
376.20 2.702
376.30 2.699
376.40 2.696
376.50 2.694
376.60 2.691
376.70 2.688
376.80 2.686
376.90 2.683
377.00 2.68
377.10 2.678
377.20 2.677
377.30 2.675
377.40 2.673
377.50 2.671
377.60 2.669
377.70 2.667
377.80 2.665
377.90 2.663
378.00 2.661
378.10 2.659
378.20 2.656
378.30 2.653
378.40 2.651
378.50 2.648
378.60 2.645
378.70 2.642
378.80 2.64
378.90 2.637
379.00 2.634
379.10 2.631
379.20 2.629
379.30 2.626
379.40 2.623
379.50 2.62
379.60 2.617
379.70 2.614
379.80 2.612
379.90 2.609
380.00 2.606
380.10 2.605
380.20 2.604
380.30 2.604
380.40 2.603
380.50 2.602
380.60 2.601
380.70 2.6
380.80 2.6
380.90 2.599
381.00 2.598
381.10 2.596
381.20 2.594
381.30 2.592
381.40 2.59
381.50 2.588
381.60 2.585
381.70 2.582
381.80 2.578
381.90 2.575
382.00 2.571
382.10 2.567
382.20 2.563
382.30 2.557
382.40 2.551
382.50 2.546
382.60 2.54
382.70 2.535
382.80 2.529
382.90 2.524
383.00 2.518
383.10 2.512
383.20 2.507
383.30 2.501
383.40 2.495
383.50 2.491
383.60 2.49
383.70 2.491
383.80 2.493
383.90 2.496
384.00 2.498
384.10 2.501
384.20 2.503
384.30 2.506
384.40 2.508
384.50 2.51
384.60 2.512
384.70 2.514
384.80 2.515
384.90 2.516
385.00 2.517
385.10 2.517
385.20 2.517
385.30 2.517
385.40 2.517
385.50 2.516
385.60 2.515
385.70 2.514
385.80 2.512
385.90 2.51
386.00 2.508
386.10 2.505
386.20 2.502
386.30 2.499
386.40 2.495
386.50 2.491
386.60 2.487
386.70 2.482
386.80 2.477
386.90 2.472
387.00 2.466
387.10 2.46
387.20 2.453
387.30 2.446
387.40 2.439
387.50 2.43
387.60 2.422
387.70 2.413
387.80 2.404
387.90 2.394
388.00 2.384
388.10 2.374
388.20 2.363
388.30 2.352
388.40 2.341
388.50 2.33
388.60 2.319
388.70 2.309
388.80 2.302
388.90 2.297
389.00 2.298
389.10 2.301
389.20 2.307
389.30 2.314
389.40 2.322
389.50 2.329
389.60 2.336
389.70 2.344
389.80 2.351
389.90 2.357
390.00 2.363
390.10 2.369
390.20 2.374
390.30 2.379
390.40 2.384
390.50 2.388
390.60 2.392
390.70 2.396
390.80 2.399
390.90 2.401
391.00 2.404
391.10 2.406
391.20 2.408
391.30 2.409
391.40 2.411
391.50 2.412
391.60 2.412
391.70 2.413
391.80 2.413
391.90 2.413
392.00 2.412
392.10 2.412
392.20 2.411
392.30 2.41
392.40 2.409
392.50 2.408
392.60 2.406
392.70 2.404
392.80 2.402
392.90 2.4
393.00 2.397
393.10 2.395
393.20 2.392
393.30 2.389
393.40 2.385
393.50 2.382
393.60 2.378
393.70 2.374
393.80 2.369
393.90 2.365
394.00 2.36
394.10 2.355
394.20 2.349
394.30 2.343
394.40 2.337
394.50 2.331
394.60 2.324
394.70 2.316
394.80 2.309
394.90 2.3
395.00 2.292
395.10 2.283
395.20 2.273
395.30 2.263
395.40 2.252
395.50 2.241
395.60 2.229
395.70 2.216
395.80 2.203
395.90 2.19
396.00 2.175
396.10 2.16
396.20 2.145
396.30 2.128
396.40 2.112
396.50 2.095
396.60 2.077
396.70 2.06
396.80 2.042
396.90 2.025
397.00 2.009
397.10 2.02
397.20 2.033
397.30 2.047
397.40 2.061
397.50 2.075
397.60 2.088
397.70 2.101
397.80 2.114
397.90 2.126
398.00 2.137
398.10 2.147
398.20 2.157
398.30 2.166
398.40 2.175
398.50 2.183
398.60 2.191
398.70 2.197
398.80 2.204
398.90 2.21
399.00 2.215
399.10 2.22
399.20 2.224
399.30 2.228
399.40 2.232
399.50 2.235
399.60 2.238
399.70 2.241
399.80 2.243
399.90 2.245
400.00 2.246
400.10 2.248
400.20 2.249
400.30 2.25
400.40 2.251
400.50 2.251
400.60 2.252
400.70 2.252
400.80 2.252
400.90 2.252
401.00 2.252
401.10 2.252
401.20 2.251
401.30 2.251
401.40 2.25
401.50 2.249
401.60 2.249
401.70 2.248
401.80 2.247
401.90 2.245
402.00 2.244
402.10 2.243
402.20 2.242
402.30 2.24
402.40 2.239
402.50 2.237
402.60 2.236
402.70 2.234
402.80 2.233
402.90 2.231
403.00 2.229
403.10 2.227
403.20 2.225
403.30 2.224
403.40 2.222
403.50 2.22
403.60 2.218
403.70 2.215
403.80 2.213
403.90 2.211
404.00 2.209
404.10 2.207
404.20 2.204
404.30 2.202
404.40 2.2
404.50 2.197
404.60 2.195
404.70 2.192
404.80 2.189
404.90 2.187
405.00 2.184
405.10 2.181
405.20 2.178
405.30 2.175
405.40 2.172
405.50 2.169
405.60 2.166
405.70 2.162
405.80 2.159
405.90 2.155
406.00 2.152
406.10 2.148
406.20 2.144
406.30 2.14
406.40 2.136
406.50 2.131
406.60 2.127
406.70 2.122
406.80 2.117
406.90 2.112
407.00 2.107
407.10 2.101
407.20 2.096
407.30 2.089
407.40 2.083
407.50 2.076
407.60 2.069
407.70 2.062
407.80 2.054
407.90 2.046
408.00 2.037
408.10 2.028
408.20 2.018
408.30 2.008
408.40 1.997
408.50 1.985
408.60 1.973
408.70 1.96
408.80 1.947
408.90 1.932
409.00 1.918
409.10 1.902
409.20 1.885
409.30 1.868
409.40 1.849
409.50 1.83
409.60 1.81
409.70 1.79
409.80 1.768
409.90 1.746
410.00 1.725
410.10 1.712
410.20 1.708
410.30 1.716
410.40 1.729
410.50 1.749
410.60 1.767
410.70 1.785
410.80 1.802
410.90 1.818
411.00 1.833
411.10 1.848
411.20 1.861
411.30 1.874
411.40 1.886
411.50 1.897
411.60 1.907
411.70 1.917
411.80 1.925
411.90 1.933
412.00 1.941
412.10 1.947
412.20 1.954
412.30 1.959
412.40 1.964
412.50 1.969
412.60 1.973
412.70 1.977
412.80 1.981
412.90 1.984
413.00 1.986
413.10 1.989
413.20 1.991
413.30 1.993
413.40 1.994
413.50 1.996
413.60 1.997
413.70 1.998
413.80 1.999
413.90 1.999
414.00 2
414.10 2
414.20 2
414.30 2
414.40 2
414.50 2
414.60 2
414.70 1.999
414.80 1.999
414.90 1.998
415.00 1.998
415.10 1.997
415.20 1.996
415.30 1.995
415.40 1.995
415.50 1.994
415.60 1.993
415.70 1.992
415.80 1.991
415.90 1.99
416.00 1.988
416.10 1.987
416.20 1.986
416.30 1.985
416.40 1.984
416.50 1.982
416.60 1.981
416.70 1.98
416.80 1.978
416.90 1.977
417.00 1.976
417.10 1.974
417.20 1.973
417.30 1.971
417.40 1.97
417.50 1.968
417.60 1.967
417.70 1.965
417.80 1.964
417.90 1.962
418.00 1.961
418.10 1.959
418.20 1.958
418.30 1.956
418.40 1.955
418.50 1.953
418.60 1.951
418.70 1.95
418.80 1.948
418.90 1.947
419.00 1.945
419.10 1.943
419.20 1.942
419.30 1.94
419.40 1.939
419.50 1.937
419.60 1.935
419.70 1.934
419.80 1.932
419.90 1.93
420.00 1.929
420.10 1.927
420.20 1.926
420.30 1.924
420.40 1.922
420.50 1.921
420.60 1.919
420.70 1.917
420.80 1.916
420.90 1.914
421.00 1.912
421.10 1.911
421.20 1.909
421.30 1.907
421.40 1.906
421.50 1.904
421.60 1.902
421.70 1.9
421.80 1.899
421.90 1.897
422.00 1.895
422.10 1.894
422.20 1.892
422.30 1.89
422.40 1.889
422.50 1.887
422.60 1.885
422.70 1.884
422.80 1.882
422.90 1.88
423.00 1.878
423.10 1.877
423.20 1.875
423.30 1.873
423.40 1.872
423.50 1.87
423.60 1.868
423.70 1.867
423.80 1.865
423.90 1.863
424.00 1.861
424.10 1.86
424.20 1.858
424.30 1.856
424.40 1.854
424.50 1.853
424.60 1.851
424.70 1.849
424.80 1.847
424.90 1.846
425.00 1.844
425.10 1.842
425.20 1.84
425.30 1.839
425.40 1.837
425.50 1.835
425.60 1.833
425.70 1.832
425.80 1.83
425.90 1.828
426.00 1.826
426.10 1.824
426.20 1.822
426.30 1.821
426.40 1.819
426.50 1.817
426.60 1.815
426.70 1.813
426.80 1.811
426.90 1.809
427.00 1.808
427.10 1.806
427.20 1.804
427.30 1.802
427.40 1.8
427.50 1.798
427.60 1.796
427.70 1.794
427.80 1.792
427.90 1.79
428.00 1.788
428.10 1.786
428.20 1.783
428.30 1.781
428.40 1.779
428.50 1.777
428.60 1.775
428.70 1.772
428.80 1.77
428.90 1.768
429.00 1.765
429.10 1.763
429.20 1.76
429.30 1.758
429.40 1.755
429.50 1.752
429.60 1.75
429.70 1.747
429.80 1.744
429.90 1.741
430.00 1.738
430.10 1.734
430.20 1.731
430.30 1.728
430.40 1.724
430.50 1.72
430.60 1.717
430.70 1.713
430.80 1.708
430.90 1.704
431.00 1.699
431.10 1.695
431.20 1.69
431.30 1.684
431.40 1.679
431.50 1.673
431.60 1.667
431.70 1.66
431.80 1.653
431.90 1.646
432.00 1.638
432.10 1.63
432.20 1.621
432.30 1.612
432.40 1.602
432.50 1.591
432.60 1.58
432.70 1.568
432.80 1.556
432.90 1.542
433.00 1.528
433.10 1.513
433.20 1.498
433.30 1.481
433.40 1.464
433.50 1.446
433.60 1.427
433.70 1.407
433.80 1.387
433.90 1.365
434.00 1.345
434.10 1.345
434.20 1.363
434.30 1.382
434.40 1.401
434.50 1.418
434.60 1.434
434.70 1.45
434.80 1.465
434.90 1.478
435.00 1.491
435.10 1.504
435.20 1.515
435.30 1.525
435.40 1.535
435.50 1.544
435.60 1.552
435.70 1.56
435.80 1.567
435.90 1.573
436.00 1.579
436.10 1.584
436.20 1.589
436.30 1.593
436.40 1.597
436.50 1.601
436.60 1.604
436.70 1.607
436.80 1.609
436.90 1.611
437.00 1.613
437.10 1.615
437.20 1.617
437.30 1.618
437.40 1.619
437.50 1.62
437.60 1.621
437.70 1.621
437.80 1.622
437.90 1.622
438.00 1.622
438.10 1.623
438.20 1.623
438.30 1.623
438.40 1.622
438.50 1.622
438.60 1.622
438.70 1.622
438.80 1.621
438.90 1.621
439.00 1.62
439.10 1.62
439.20 1.619
439.30 1.618
439.40 1.618
439.50 1.617
439.60 1.616
439.70 1.615
439.80 1.614
439.90 1.614
440.00 1.613
440.10 1.612
440.20 1.611
440.30 1.61
440.40 1.609
440.50 1.608
440.60 1.607
440.70 1.606
440.80 1.605
440.90 1.604
441.00 1.603
441.10 1.602
441.20 1.6
441.30 1.599
441.40 1.598
441.50 1.597
441.60 1.596
441.70 1.595
441.80 1.594
441.90 1.592
442.00 1.591
442.10 1.59
442.20 1.589
442.30 1.588
442.40 1.587
442.50 1.585
442.60 1.584
442.70 1.583
442.80 1.582
442.90 1.58
443.00 1.579
443.10 1.578
443.20 1.577
443.30 1.576
443.40 1.574
443.50 1.573
443.60 1.572
443.70 1.571
443.80 1.569
443.90 1.568
444.00 1.567
444.10 1.566
444.20 1.564
444.30 1.563
444.40 1.562
444.50 1.561
444.60 1.559
444.70 1.558
444.80 1.557
444.90 1.556
445.00 1.554
445.10 1.553
445.20 1.552
445.30 1.55
445.40 1.549
445.50 1.548
445.60 1.547
445.70 1.545
445.80 1.544
445.90 1.543
446.00 1.542
446.10 1.54
446.20 1.539
446.30 1.538
446.40 1.537
446.50 1.535
446.60 1.534
446.70 1.533
446.80 1.532
446.90 1.53
447.00 1.529
447.10 1.528
447.20 1.526
447.30 1.525
447.40 1.524
447.50 1.523
447.60 1.521
447.70 1.52
447.80 1.519
447.90 1.518
448.00 1.516
448.10 1.515
448.20 1.514
448.30 1.513
448.40 1.511
448.50 1.51
448.60 1.509
448.70 1.508
448.80 1.506
448.90 1.505
449.00 1.504
449.10 1.503
449.20 1.501
449.30 1.5
449.40 1.499
449.50 1.498
449.60 1.496
449.70 1.495
449.80 1.494
449.90 1.493
450.00 1.491
450.10 1.49
450.20 1.489
450.30 1.488
450.40 1.486
450.50 1.485
450.60 1.484
450.70 1.483
450.80 1.482
450.90 1.48
451.00 1.479
451.10 1.478
451.20 1.477
451.30 1.475
451.40 1.474
451.50 1.473
451.60 1.472
451.70 1.47
451.80 1.469
451.90 1.468
452.00 1.467
452.10 1.466
452.20 1.464
452.30 1.463
452.40 1.462
452.50 1.461
452.60 1.46
452.70 1.458
452.80 1.457
452.90 1.456
453.00 1.455
453.10 1.453
453.20 1.452
453.30 1.451
453.40 1.45
453.50 1.449
453.60 1.447
453.70 1.446
453.80 1.445
453.90 1.444
454.00 1.443
454.10 1.441
454.20 1.44
454.30 1.439
