# Version 2.1 - nm, norm@500 to 1, cut digits, bergeron_6500_95.dat_6500
# Wavelength(nm)  Flambda(ergs/cm^s/s/nm)
300.00 0.8646
300.10 0.8651
300.20 0.8655
300.30 0.866
300.40 0.8664
300.50 0.8669
300.60 0.8673
300.70 0.8677
300.80 0.8682
300.90 0.8686
301.00 0.8691
301.10 0.8695
301.20 0.8699
301.30 0.8704
301.40 0.8708
301.50 0.8712
301.60 0.8717
301.70 0.8721
301.80 0.8725
301.90 0.873
302.00 0.8734
302.10 0.8738
302.20 0.8743
302.30 0.8747
302.40 0.8751
302.50 0.8755
302.60 0.876
302.70 0.8764
302.80 0.8768
302.90 0.8773
303.00 0.8777
303.10 0.8781
303.20 0.8785
303.30 0.879
303.40 0.8794
303.50 0.8798
303.60 0.8802
303.70 0.8807
303.80 0.8811
303.90 0.8815
304.00 0.8819
304.10 0.8823
304.20 0.8828
304.30 0.8832
304.40 0.8836
304.50 0.884
304.60 0.8844
304.70 0.8849
304.80 0.8853
304.90 0.8857
305.00 0.8861
305.10 0.8865
305.20 0.887
305.30 0.8874
305.40 0.8878
305.50 0.8882
305.60 0.8886
305.70 0.889
305.80 0.8894
305.90 0.8898
306.00 0.8903
306.10 0.8907
306.20 0.8911
306.30 0.8915
306.40 0.8919
306.50 0.8923
306.60 0.8927
306.70 0.8931
306.80 0.8935
306.90 0.894
307.00 0.8944
307.10 0.8948
307.20 0.8952
307.30 0.8956
307.40 0.896
307.50 0.8964
307.60 0.8968
307.70 0.8972
307.80 0.8976
307.90 0.898
308.00 0.8984
308.10 0.8988
308.20 0.8992
308.30 0.8996
308.40 0.9
308.50 0.9004
308.60 0.9008
308.70 0.9012
308.80 0.9016
308.90 0.902
309.00 0.9024
309.10 0.9028
309.20 0.9032
309.30 0.9036
309.40 0.904
309.50 0.9044
309.60 0.9048
309.70 0.9052
309.80 0.9056
309.90 0.906
310.00 0.9064
310.10 0.9068
310.20 0.9071
310.30 0.9075
310.40 0.9079
310.50 0.9083
310.60 0.9087
310.70 0.9091
310.80 0.9095
310.90 0.9099
311.00 0.9103
311.10 0.9107
311.20 0.9111
311.30 0.9114
311.40 0.9118
311.50 0.9122
311.60 0.9126
311.70 0.913
311.80 0.9134
311.90 0.9137
312.00 0.9141
312.10 0.9145
312.20 0.9149
312.30 0.9153
312.40 0.9157
312.50 0.916
312.60 0.9164
312.70 0.9168
312.80 0.9172
312.90 0.9176
313.00 0.9179
313.10 0.9183
313.20 0.9187
313.30 0.9191
313.40 0.9194
313.50 0.9198
313.60 0.9202
313.70 0.9206
313.80 0.9209
313.90 0.9213
314.00 0.9217
314.10 0.9221
314.20 0.9224
314.30 0.9228
314.40 0.9232
314.50 0.9236
314.60 0.9239
314.70 0.9243
314.80 0.9247
314.90 0.925
315.00 0.9254
315.10 0.9258
315.20 0.9261
315.30 0.9265
315.40 0.9269
315.50 0.9272
315.60 0.9276
315.70 0.928
315.80 0.9283
315.90 0.9287
316.00 0.9291
316.10 0.9294
316.20 0.9298
316.30 0.9301
316.40 0.9305
316.50 0.9309
316.60 0.9312
316.70 0.9316
316.80 0.932
316.90 0.9323
317.00 0.9327
317.10 0.933
317.20 0.9334
317.30 0.9338
317.40 0.9341
317.50 0.9345
317.60 0.9348
317.70 0.9352
317.80 0.9355
317.90 0.9359
318.00 0.9362
318.10 0.9366
318.20 0.937
318.30 0.9373
318.40 0.9377
318.50 0.938
318.60 0.9384
318.70 0.9387
318.80 0.9391
318.90 0.9394
319.00 0.9398
319.10 0.9401
319.20 0.9405
319.30 0.9408
319.40 0.9412
319.50 0.9415
319.60 0.9419
319.70 0.9422
319.80 0.9426
319.90 0.9429
320.00 0.9432
320.10 0.9436
320.20 0.9439
320.30 0.9443
320.40 0.9446
320.50 0.945
320.60 0.9453
320.70 0.9456
320.80 0.946
320.90 0.9463
321.00 0.9467
321.10 0.947
321.20 0.9473
321.30 0.9477
321.40 0.948
321.50 0.9484
321.60 0.9487
321.70 0.949
321.80 0.9494
321.90 0.9497
322.00 0.95
322.10 0.9504
322.20 0.9507
322.30 0.951
322.40 0.9514
322.50 0.9517
322.60 0.952
322.70 0.9524
322.80 0.9527
322.90 0.953
323.00 0.9534
323.10 0.9537
323.20 0.954
323.30 0.9544
323.40 0.9547
323.50 0.955
323.60 0.9553
323.70 0.9557
323.80 0.956
323.90 0.9563
324.00 0.9566
324.10 0.957
324.20 0.9573
324.30 0.9576
324.40 0.958
324.50 0.9583
324.60 0.9586
324.70 0.9589
324.80 0.9592
324.90 0.9596
325.00 0.9599
325.10 0.9602
325.20 0.9605
325.30 0.9608
325.40 0.9612
325.50 0.9615
325.60 0.9618
325.70 0.9621
325.80 0.9624
325.90 0.9628
326.00 0.9631
326.10 0.9634
326.20 0.9637
326.30 0.964
326.40 0.9643
326.50 0.9646
326.60 0.965
326.70 0.9653
326.80 0.9656
326.90 0.9659
327.00 0.9662
327.10 0.9665
327.20 0.9668
327.30 0.9671
327.40 0.9675
327.50 0.9678
327.60 0.9681
327.70 0.9684
327.80 0.9687
327.90 0.969
328.00 0.9693
328.10 0.9696
328.20 0.9699
328.30 0.9702
328.40 0.9705
328.50 0.9708
328.60 0.9711
328.70 0.9714
328.80 0.9717
328.90 0.972
329.00 0.9723
329.10 0.9726
329.20 0.9729
329.30 0.9732
329.40 0.9735
329.50 0.9738
329.60 0.9741
329.70 0.9744
329.80 0.9747
329.90 0.975
330.00 0.9753
330.10 0.9756
330.20 0.9759
330.30 0.9762
330.40 0.9765
330.50 0.9768
330.60 0.9771
330.70 0.9774
330.80 0.9777
330.90 0.978
331.00 0.9783
331.10 0.9786
331.20 0.9789
331.30 0.9792
331.40 0.9794
331.50 0.9797
331.60 0.98
331.70 0.9803
331.80 0.9806
331.90 0.9809
332.00 0.9812
332.10 0.9815
332.20 0.9818
332.30 0.982
332.40 0.9823
332.50 0.9826
332.60 0.9829
332.70 0.9832
332.80 0.9835
332.90 0.9838
333.00 0.984
333.10 0.9843
333.20 0.9846
333.30 0.9849
333.40 0.9852
333.50 0.9855
333.60 0.9857
333.70 0.986
333.80 0.9863
333.90 0.9866
334.00 0.9869
334.10 0.9871
334.20 0.9874
334.30 0.9877
334.40 0.988
334.50 0.9882
334.60 0.9885
334.70 0.9888
334.80 0.9891
334.90 0.9893
335.00 0.9896
335.10 0.9899
335.20 0.9902
335.30 0.9904
335.40 0.9907
335.50 0.991
335.60 0.9913
335.70 0.9915
335.80 0.9918
335.90 0.9921
336.00 0.9923
336.10 0.9926
336.20 0.9929
336.30 0.9931
336.40 0.9934
336.50 0.9937
336.60 0.9939
336.70 0.9942
336.80 0.9945
336.90 0.9947
337.00 0.995
337.10 0.9953
337.20 0.9955
337.30 0.9958
337.40 0.9961
337.50 0.9963
337.60 0.9966
337.70 0.9968
337.80 0.9971
337.90 0.9974
338.00 0.9976
338.10 0.9979
338.20 0.9981
338.30 0.9984
338.40 0.9987
338.50 0.9989
338.60 0.9992
338.70 0.9994
338.80 0.9997
338.90 1
339.00 1
339.10 1
339.20 1.001
339.30 1.001
339.40 1.001
339.50 1.001
339.60 1.002
339.70 1.002
339.80 1.002
339.90 1.002
340.00 1.003
340.10 1.003
340.20 1.003
340.30 1.003
340.40 1.004
340.50 1.004
340.60 1.004
340.70 1.004
340.80 1.005
340.90 1.005
341.00 1.005
341.10 1.005
341.20 1.006
341.30 1.006
341.40 1.006
341.50 1.006
341.60 1.007
341.70 1.007
341.80 1.007
341.90 1.007
342.00 1.008
342.10 1.008
342.20 1.008
342.30 1.008
342.40 1.009
342.50 1.009
342.60 1.009
342.70 1.009
342.80 1.01
342.90 1.01
343.00 1.01
343.10 1.01
343.20 1.011
343.30 1.011
343.40 1.011
343.50 1.011
343.60 1.011
343.70 1.012
343.80 1.012
343.90 1.012
344.00 1.012
344.10 1.013
344.20 1.013
344.30 1.013
344.40 1.013
344.50 1.014
344.60 1.014
344.70 1.014
344.80 1.014
344.90 1.015
345.00 1.015
345.10 1.015
345.20 1.015
345.30 1.015
345.40 1.016
345.50 1.016
345.60 1.016
345.70 1.016
345.80 1.017
345.90 1.017
346.00 1.017
346.10 1.017
346.20 1.017
346.30 1.018
346.40 1.018
346.50 1.018
346.60 1.018
346.70 1.019
346.80 1.019
346.90 1.019
347.00 1.019
347.10 1.019
347.20 1.02
347.30 1.02
347.40 1.02
347.50 1.02
347.60 1.021
347.70 1.021
347.80 1.021
347.90 1.021
348.00 1.021
348.10 1.022
348.20 1.022
348.30 1.022
348.40 1.022
348.50 1.022
348.60 1.023
348.70 1.023
348.80 1.023
348.90 1.023
349.00 1.024
349.10 1.024
349.20 1.024
349.30 1.024
349.40 1.024
349.50 1.025
349.60 1.025
349.70 1.025
349.80 1.025
349.90 1.025
350.00 1.026
350.10 1.026
350.20 1.026
350.30 1.026
350.40 1.026
350.50 1.027
350.60 1.027
350.70 1.027
350.80 1.027
350.90 1.027
351.00 1.028
351.10 1.028
351.20 1.028
351.30 1.028
351.40 1.028
351.50 1.029
351.60 1.029
351.70 1.029
351.80 1.029
351.90 1.029
352.00 1.03
352.10 1.03
352.20 1.03
352.30 1.03
352.40 1.03
352.50 1.031
352.60 1.031
352.70 1.031
352.80 1.031
352.90 1.031
353.00 1.032
353.10 1.032
353.20 1.032
353.30 1.032
353.40 1.032
353.50 1.033
353.60 1.033
353.70 1.033
353.80 1.033
353.90 1.033
354.00 1.034
354.10 1.034
354.20 1.034
354.30 1.034
354.40 1.034
354.50 1.035
354.60 1.035
354.70 1.035
354.80 1.035
354.90 1.035
355.00 1.035
355.10 1.036
355.20 1.036
355.30 1.036
355.40 1.036
355.50 1.036
355.60 1.037
355.70 1.037
355.80 1.037
355.90 1.037
356.00 1.037
356.10 1.037
356.20 1.038
356.30 1.038
356.40 1.038
356.50 1.038
356.60 1.038
356.70 1.039
356.80 1.039
356.90 1.039
357.00 1.039
357.10 1.039
357.20 1.039
357.30 1.04
357.40 1.04
357.50 1.04
357.60 1.04
357.70 1.04
357.80 1.04
357.90 1.041
358.00 1.041
358.10 1.041
358.20 1.041
358.30 1.041
358.40 1.041
358.50 1.042
358.60 1.042
358.70 1.042
358.80 1.042
358.90 1.042
359.00 1.043
359.10 1.043
359.20 1.043
359.30 1.043
359.40 1.043
359.50 1.043
359.60 1.044
359.70 1.044
359.80 1.044
359.90 1.044
360.00 1.044
360.10 1.044
360.20 1.045
360.30 1.045
360.40 1.045
360.50 1.045
360.60 1.045
360.70 1.045
360.80 1.045
360.90 1.046
361.00 1.046
361.10 1.046
361.20 1.046
361.30 1.046
361.40 1.046
361.50 1.047
361.60 1.047
361.70 1.047
361.80 1.047
361.90 1.047
362.00 1.047
362.10 1.048
362.20 1.048
362.30 1.048
362.40 1.048
362.50 1.048
362.60 1.048
362.70 1.048
362.80 1.049
362.90 1.049
363.00 1.049
363.10 1.049
363.20 1.049
363.30 1.049
363.40 1.05
363.50 1.05
363.60 1.05
363.70 1.05
363.80 1.05
363.90 1.05
364.00 1.05
364.10 1.051
364.20 1.051
364.30 1.051
364.40 1.051
364.50 1.051
364.60 1.051
364.70 1.051
364.80 1.052
364.90 1.052
365.00 1.052
365.10 1.052
365.20 1.052
365.30 1.052
365.40 1.052
365.50 1.053
365.60 1.053
365.70 1.053
365.80 1.053
365.90 1.053
366.00 1.053
366.10 1.053
366.20 1.054
366.30 1.054
366.40 1.054
366.50 1.054
366.60 1.054
366.70 1.054
366.80 1.054
366.90 1.055
367.00 1.055
367.10 1.055
367.20 1.055
367.30 1.055
367.40 1.055
367.50 1.055
367.60 1.056
367.70 1.056
367.80 1.056
367.90 1.056
368.00 1.056
368.10 1.056
368.20 1.056
368.30 1.056
368.40 1.057
368.50 1.057
368.60 1.057
368.70 1.057
368.80 1.057
368.90 1.057
369.00 1.057
369.10 1.057
369.20 1.058
369.30 1.058
369.40 1.058
369.50 1.058
369.60 1.058
369.70 1.058
369.80 1.058
369.90 1.059
370.00 1.059
370.10 1.059
370.20 1.059
370.30 1.059
370.40 1.059
370.50 1.059
370.60 1.059
370.70 1.059
370.80 1.06
370.90 1.06
371.00 1.06
371.10 1.06
371.20 1.06
371.30 1.06
371.40 1.06
371.50 1.06
371.60 1.061
371.70 1.061
371.80 1.061
371.90 1.061
372.00 1.061
372.10 1.061
372.20 1.061
372.30 1.061
372.40 1.062
372.50 1.062
372.60 1.062
372.70 1.062
372.80 1.062
372.90 1.062
373.00 1.062
373.10 1.062
373.20 1.062
373.30 1.063
373.40 1.063
373.50 1.063
373.60 1.063
373.70 1.063
373.80 1.063
373.90 1.063
374.00 1.063
374.10 1.063
374.20 1.064
374.30 1.064
374.40 1.064
374.50 1.064
374.60 1.064
374.70 1.064
374.80 1.064
374.90 1.064
375.00 1.064
375.10 1.065
375.20 1.065
375.30 1.065
375.40 1.065
375.50 1.065
375.60 1.065
375.70 1.065
375.80 1.065
375.90 1.065
376.00 1.065
376.10 1.066
376.20 1.066
376.30 1.066
376.40 1.066
376.50 1.066
376.60 1.066
376.70 1.066
376.80 1.066
376.90 1.066
377.00 1.066
377.10 1.067
377.20 1.067
377.30 1.067
377.40 1.067
377.50 1.067
377.60 1.067
377.70 1.067
377.80 1.067
377.90 1.067
378.00 1.067
378.10 1.068
378.20 1.068
378.30 1.068
378.40 1.068
378.50 1.068
378.60 1.068
378.70 1.068
378.80 1.068
378.90 1.068
379.00 1.068
379.10 1.069
379.20 1.069
379.30 1.069
379.40 1.069
379.50 1.069
379.60 1.069
379.70 1.069
379.80 1.069
379.90 1.069
380.00 1.069
380.10 1.069
380.20 1.069
380.30 1.07
380.40 1.07
380.50 1.07
380.60 1.07
380.70 1.07
380.80 1.07
380.90 1.07
381.00 1.07
381.10 1.07
381.20 1.07
381.30 1.07
381.40 1.071
381.50 1.071
381.60 1.071
381.70 1.071
381.80 1.071
381.90 1.071
382.00 1.071
382.10 1.071
382.20 1.071
382.30 1.071
382.40 1.071
382.50 1.071
382.60 1.071
382.70 1.072
382.80 1.072
382.90 1.072
383.00 1.072
383.10 1.072
383.20 1.072
383.30 1.072
383.40 1.072
383.50 1.072
383.60 1.072
383.70 1.072
383.80 1.072
383.90 1.072
384.00 1.073
384.10 1.073
384.20 1.073
384.30 1.073
384.40 1.073
384.50 1.073
384.60 1.073
384.70 1.073
384.80 1.073
384.90 1.073
385.00 1.073
385.10 1.073
385.20 1.073
385.30 1.074
385.40 1.074
385.50 1.074
385.60 1.074
385.70 1.074
385.80 1.074
385.90 1.074
386.00 1.074
386.10 1.074
386.20 1.074
386.30 1.074
386.40 1.074
386.50 1.074
386.60 1.074
386.70 1.074
386.80 1.075
386.90 1.075
387.00 1.075
387.10 1.075
387.20 1.075
387.30 1.075
387.40 1.075
387.50 1.075
387.60 1.075
387.70 1.075
387.80 1.075
387.90 1.075
388.00 1.075
388.10 1.075
388.20 1.075
388.30 1.075
388.40 1.075
388.50 1.075
388.60 1.075
388.70 1.075
388.80 1.075
388.90 1.074
389.00 1.075
389.10 1.076
389.20 1.076
389.30 1.076
389.40 1.076
389.50 1.076
389.60 1.076
389.70 1.076
389.80 1.076
389.90 1.076
390.00 1.077
390.10 1.077
390.20 1.077
390.30 1.077
390.40 1.077
390.50 1.077
390.60 1.077
390.70 1.077
390.80 1.077
390.90 1.077
391.00 1.077
391.10 1.077
391.20 1.077
391.30 1.077
391.40 1.077
391.50 1.077
391.60 1.078
391.70 1.078
391.80 1.078
391.90 1.078
392.00 1.078
392.10 1.078
392.20 1.078
392.30 1.078
392.40 1.078
392.50 1.078
392.60 1.078
392.70 1.078
392.80 1.078
392.90 1.078
393.00 1.078
393.10 1.078
393.20 1.078
393.30 1.078
393.40 1.078
393.50 1.078
393.60 1.079
393.70 1.079
393.80 1.079
393.90 1.079
394.00 1.079
394.10 1.079
394.20 1.079
394.30 1.079
394.40 1.079
394.50 1.079
394.60 1.079
394.70 1.079
394.80 1.079
394.90 1.079
395.00 1.079
395.10 1.079
395.20 1.079
395.30 1.079
395.40 1.079
395.50 1.079
395.60 1.079
395.70 1.079
395.80 1.079
395.90 1.079
396.00 1.079
396.10 1.079
396.20 1.078
396.30 1.078
396.40 1.078
396.50 1.078
396.60 1.078
396.70 1.078
396.80 1.077
396.90 1.076
397.00 1.075
397.10 1.076
397.20 1.077
397.30 1.078
397.40 1.078
397.50 1.078
397.60 1.079
397.70 1.079
397.80 1.079
397.90 1.079
398.00 1.079
398.10 1.08
398.20 1.08
398.30 1.08
398.40 1.08
398.50 1.08
398.60 1.08
398.70 1.08
398.80 1.08
398.90 1.081
399.00 1.081
399.10 1.081
399.20 1.081
399.30 1.081
399.40 1.081
399.50 1.081
399.60 1.081
399.70 1.081
399.80 1.081
399.90 1.081
400.00 1.081
400.10 1.081
400.20 1.081
400.30 1.081
400.40 1.081
400.50 1.081
400.60 1.081
400.70 1.082
400.80 1.082
400.90 1.082
401.00 1.082
401.10 1.082
401.20 1.082
401.30 1.082
401.40 1.082
401.50 1.082
401.60 1.082
401.70 1.082
401.80 1.082
401.90 1.082
402.00 1.082
402.10 1.082
402.20 1.082
402.30 1.082
402.40 1.082
402.50 1.082
402.60 1.082
402.70 1.082
402.80 1.082
402.90 1.082
403.00 1.082
403.10 1.082
403.20 1.082
403.30 1.082
403.40 1.082
403.50 1.082
403.60 1.082
403.70 1.082
403.80 1.082
403.90 1.082
404.00 1.082
404.10 1.082
404.20 1.082
404.30 1.082
404.40 1.082
404.50 1.082
404.60 1.082
404.70 1.082
404.80 1.082
404.90 1.083
405.00 1.083
405.10 1.082
405.20 1.083
405.30 1.083
405.40 1.083
405.50 1.083
405.60 1.082
405.70 1.082
405.80 1.082
405.90 1.082
406.00 1.082
406.10 1.082
406.20 1.082
406.30 1.082
406.40 1.082
406.50 1.082
406.60 1.082
406.70 1.082
406.80 1.082
406.90 1.082
407.00 1.082
407.10 1.082
407.20 1.082
407.30 1.082
407.40 1.082
407.50 1.082
407.60 1.082
407.70 1.082
407.80 1.082
407.90 1.081
408.00 1.081
408.10 1.081
408.20 1.081
408.30 1.081
408.40 1.081
408.50 1.08
408.60 1.08
408.70 1.08
408.80 1.079
408.90 1.079
409.00 1.079
409.10 1.078
409.20 1.078
409.30 1.077
409.40 1.076
409.50 1.075
409.60 1.075
409.70 1.074
409.80 1.072
409.90 1.071
410.00 1.07
410.10 1.068
410.20 1.066
410.30 1.068
410.40 1.071
410.50 1.072
410.60 1.073
410.70 1.074
410.80 1.075
410.90 1.076
411.00 1.077
411.10 1.077
411.20 1.078
411.30 1.078
411.40 1.079
411.50 1.079
411.60 1.08
411.70 1.08
411.80 1.08
411.90 1.081
412.00 1.081
412.10 1.081
412.20 1.081
412.30 1.081
412.40 1.082
412.50 1.082
412.60 1.082
412.70 1.082
412.80 1.082
412.90 1.082
413.00 1.082
413.10 1.082
413.20 1.082
413.30 1.082
413.40 1.082
413.50 1.082
413.60 1.083
413.70 1.083
413.80 1.083
413.90 1.083
414.00 1.083
414.10 1.083
414.20 1.083
414.30 1.083
414.40 1.083
414.50 1.083
414.60 1.083
414.70 1.083
414.80 1.083
414.90 1.083
415.00 1.083
415.10 1.083
415.20 1.083
415.30 1.083
415.40 1.083
415.50 1.083
415.60 1.083
415.70 1.083
415.80 1.083
415.90 1.083
416.00 1.083
416.10 1.083
416.20 1.083
416.30 1.083
416.40 1.083
416.50 1.083
416.60 1.083
416.70 1.083
416.80 1.083
416.90 1.083
417.00 1.083
417.10 1.083
417.20 1.083
417.30 1.083
417.40 1.083
417.50 1.083
417.60 1.083
417.70 1.083
417.80 1.083
417.90 1.083
418.00 1.083
418.10 1.083
418.20 1.083
418.30 1.083
418.40 1.083
418.50 1.083
418.60 1.083
418.70 1.083
418.80 1.082
418.90 1.082
419.00 1.082
419.10 1.082
419.20 1.082
419.30 1.082
419.40 1.082
419.50 1.082
419.60 1.082
419.70 1.082
419.80 1.082
419.90 1.082
420.00 1.082
420.10 1.082
420.20 1.082
420.30 1.082
420.40 1.082
420.50 1.082
420.60 1.082
420.70 1.082
420.80 1.082
420.90 1.082
421.00 1.082
421.10 1.082
421.20 1.082
421.30 1.082
421.40 1.082
421.50 1.082
421.60 1.082
421.70 1.082
421.80 1.082
421.90 1.082
422.00 1.082
422.10 1.082
422.20 1.082
422.30 1.082
422.40 1.082
422.50 1.081
422.60 1.081
422.70 1.081
422.80 1.081
422.90 1.081
423.00 1.081
423.10 1.081
423.20 1.081
423.30 1.081
423.40 1.081
423.50 1.081
423.60 1.081
423.70 1.081
423.80 1.081
423.90 1.081
424.00 1.081
424.10 1.081
424.20 1.081
424.30 1.081
424.40 1.081
424.50 1.081
424.60 1.081
424.70 1.081
424.80 1.081
424.90 1.081
425.00 1.08
425.10 1.08
425.20 1.08
425.30 1.08
425.40 1.08
425.50 1.08
425.60 1.08
425.70 1.08
425.80 1.08
425.90 1.08
426.00 1.08
426.10 1.08
426.20 1.08
426.30 1.08
426.40 1.08
426.50 1.08
426.60 1.08
426.70 1.08
426.80 1.079
426.90 1.079
427.00 1.079
427.10 1.079
427.20 1.079
427.30 1.079
427.40 1.079
427.50 1.079
427.60 1.079
427.70 1.079
427.80 1.079
427.90 1.079
428.00 1.079
428.10 1.079
428.20 1.079
428.30 1.078
428.40 1.078
428.50 1.078
428.60 1.078
428.70 1.078
428.80 1.078
428.90 1.078
429.00 1.078
429.10 1.078
429.20 1.078
429.30 1.078
429.40 1.077
429.50 1.077
429.60 1.077
429.70 1.077
429.80 1.077
429.90 1.077
430.00 1.077
430.10 1.077
430.20 1.076
430.30 1.076
430.40 1.076
430.50 1.076
430.60 1.076
430.70 1.076
430.80 1.075
430.90 1.075
431.00 1.075
431.10 1.075
431.20 1.074
431.30 1.074
431.40 1.074
431.50 1.073
431.60 1.073
431.70 1.073
431.80 1.072
431.90 1.072
432.00 1.071
432.10 1.071
432.20 1.07
432.30 1.069
432.40 1.069
432.50 1.068
432.60 1.067
432.70 1.066
432.80 1.064
432.90 1.063
433.00 1.061
433.10 1.059
433.20 1.057
433.30 1.055
433.40 1.052
433.50 1.049
433.60 1.045
433.70 1.041
433.80 1.036
433.90 1.031
434.00 1.021
434.10 1.022
434.20 1.031
434.30 1.036
434.40 1.041
434.50 1.045
434.60 1.048
434.70 1.051
434.80 1.054
434.90 1.056
435.00 1.058
435.10 1.06
435.20 1.062
435.30 1.063
435.40 1.064
435.50 1.065
435.60 1.066
435.70 1.067
435.80 1.067
435.90 1.068
436.00 1.069
436.10 1.069
436.20 1.069
436.30 1.07
436.40 1.07
436.50 1.07
436.60 1.071
436.70 1.071
436.80 1.071
436.90 1.071
437.00 1.071
437.10 1.071
437.20 1.072
437.30 1.072
437.40 1.072
437.50 1.072
437.60 1.072
437.70 1.072
437.80 1.072
437.90 1.072
438.00 1.072
438.10 1.072
438.20 1.072
438.30 1.072
438.40 1.072
438.50 1.072
438.60 1.072
438.70 1.072
438.80 1.072
438.90 1.072
439.00 1.072
439.10 1.072
439.20 1.072
439.30 1.072
439.40 1.072
439.50 1.072
439.60 1.072
439.70 1.072
439.80 1.072
439.90 1.072
440.00 1.072
440.10 1.072
440.20 1.072
440.30 1.071
440.40 1.071
440.50 1.071
440.60 1.071
440.70 1.071
440.80 1.071
440.90 1.071
441.00 1.071
441.10 1.071
441.20 1.071
441.30 1.071
441.40 1.071
441.50 1.071
441.60 1.071
441.70 1.071
441.80 1.071
441.90 1.071
442.00 1.07
442.10 1.07
442.20 1.07
442.30 1.07
442.40 1.07
442.50 1.07
442.60 1.07
442.70 1.07
442.80 1.07
442.90 1.07
443.00 1.07
443.10 1.07
443.20 1.07
443.30 1.07
443.40 1.07
443.50 1.069
443.60 1.069
443.70 1.069
443.80 1.069
443.90 1.069
444.00 1.069
444.10 1.069
444.20 1.069
444.30 1.069
444.40 1.069
444.50 1.069
444.60 1.069
444.70 1.069
444.80 1.068
444.90 1.068
445.00 1.068
445.10 1.068
445.20 1.068
445.30 1.068
445.40 1.068
445.50 1.068
445.60 1.068
445.70 1.068
445.80 1.068
445.90 1.068
446.00 1.067
446.10 1.067
446.20 1.067
446.30 1.067
446.40 1.067
446.50 1.067
446.60 1.067
446.70 1.067
446.80 1.067
446.90 1.067
447.00 1.067
447.10 1.067
447.20 1.066
447.30 1.066
447.40 1.066
447.50 1.066
447.60 1.066
447.70 1.066
447.80 1.066
447.90 1.066
448.00 1.066
448.10 1.066
448.20 1.066
448.30 1.066
448.40 1.065
448.50 1.065
448.60 1.065
448.70 1.065
448.80 1.065
448.90 1.065
449.00 1.065
449.10 1.065
449.20 1.065
449.30 1.065
449.40 1.065
449.50 1.064
449.60 1.064
449.70 1.064
449.80 1.064
449.90 1.064
450.00 1.064
450.10 1.064
450.20 1.064
450.30 1.064
450.40 1.064
450.50 1.064
450.60 1.063
450.70 1.063
450.80 1.063
450.90 1.063
451.00 1.063
451.10 1.063
