# Version 2.1 - nm, norm@500 to 1, cut digits, bergeron_40000_95.dat_40000
# Wavelength(nm)  Flambda(ergs/cm^s/s/nm)
300.00 5.973
300.10 5.966
300.20 5.959
300.30 5.952
300.40 5.945
300.50 5.938
300.60 5.931
300.70 5.924
300.80 5.917
300.90 5.91
301.00 5.903
301.10 5.896
301.20 5.889
301.30 5.882
301.40 5.875
301.50 5.868
301.60 5.861
301.70 5.854
301.80 5.847
301.90 5.84
302.00 5.833
302.10 5.826
302.20 5.82
302.30 5.813
302.40 5.806
302.50 5.799
302.60 5.792
302.70 5.785
302.80 5.779
302.90 5.772
303.00 5.765
303.10 5.758
303.20 5.751
303.30 5.745
303.40 5.738
303.50 5.731
303.60 5.724
303.70 5.718
303.80 5.711
303.90 5.704
304.00 5.698
304.10 5.691
304.20 5.684
304.30 5.678
304.40 5.671
304.50 5.664
304.60 5.658
304.70 5.651
304.80 5.644
304.90 5.638
305.00 5.631
305.10 5.625
305.20 5.618
305.30 5.611
305.40 5.605
305.50 5.598
305.60 5.592
305.70 5.585
305.80 5.579
305.90 5.572
306.00 5.566
306.10 5.559
306.20 5.553
306.30 5.546
306.40 5.54
306.50 5.533
306.60 5.527
306.70 5.52
306.80 5.514
306.90 5.508
307.00 5.501
307.10 5.495
307.20 5.488
307.30 5.482
307.40 5.476
307.50 5.469
307.60 5.463
307.70 5.457
307.80 5.45
307.90 5.444
308.00 5.438
308.10 5.431
308.20 5.425
308.30 5.419
308.40 5.413
308.50 5.406
308.60 5.4
308.70 5.394
308.80 5.388
308.90 5.381
309.00 5.375
309.10 5.369
309.20 5.363
309.30 5.356
309.40 5.35
309.50 5.344
309.60 5.338
309.70 5.332
309.80 5.326
309.90 5.319
310.00 5.313
310.10 5.307
310.20 5.301
310.30 5.295
310.40 5.289
310.50 5.283
310.60 5.277
310.70 5.271
310.80 5.265
310.90 5.259
311.00 5.252
311.10 5.246
311.20 5.24
311.30 5.234
311.40 5.228
311.50 5.222
311.60 5.216
311.70 5.21
311.80 5.204
311.90 5.198
312.00 5.193
312.10 5.187
312.20 5.181
312.30 5.175
312.40 5.169
312.50 5.163
312.60 5.157
312.70 5.151
312.80 5.145
312.90 5.139
313.00 5.133
313.10 5.128
313.20 5.122
313.30 5.116
313.40 5.11
313.50 5.104
313.60 5.098
313.70 5.093
313.80 5.087
313.90 5.081
314.00 5.075
314.10 5.069
314.20 5.064
314.30 5.058
314.40 5.052
314.50 5.046
314.60 5.041
314.70 5.035
314.80 5.029
314.90 5.023
315.00 5.018
315.10 5.012
315.20 5.006
315.30 5.001
315.40 4.995
315.50 4.989
315.60 4.984
315.70 4.978
315.80 4.972
315.90 4.967
316.00 4.961
316.10 4.955
316.20 4.95
316.30 4.944
316.40 4.939
316.50 4.933
316.60 4.927
316.70 4.922
316.80 4.916
316.90 4.911
317.00 4.905
317.10 4.9
317.20 4.894
317.30 4.889
317.40 4.883
317.50 4.878
317.60 4.872
317.70 4.867
317.80 4.861
317.90 4.856
318.00 4.85
318.10 4.845
318.20 4.839
318.30 4.834
318.40 4.828
318.50 4.823
318.60 4.818
318.70 4.812
318.80 4.807
318.90 4.801
319.00 4.796
319.10 4.791
319.20 4.785
319.30 4.78
319.40 4.774
319.50 4.769
319.60 4.764
319.70 4.758
319.80 4.753
319.90 4.748
320.00 4.742
320.10 4.737
320.20 4.732
320.30 4.727
320.40 4.721
320.50 4.716
320.60 4.711
320.70 4.705
320.80 4.7
320.90 4.695
321.00 4.69
321.10 4.684
321.20 4.679
321.30 4.674
321.40 4.669
321.50 4.664
321.60 4.658
321.70 4.653
321.80 4.648
321.90 4.643
322.00 4.638
322.10 4.632
322.20 4.627
322.30 4.622
322.40 4.617
322.50 4.612
322.60 4.607
322.70 4.602
322.80 4.597
322.90 4.591
323.00 4.586
323.10 4.581
323.20 4.576
323.30 4.571
323.40 4.566
323.50 4.561
323.60 4.556
323.70 4.551
323.80 4.546
323.90 4.541
324.00 4.536
324.10 4.531
324.20 4.526
324.30 4.521
324.40 4.516
324.50 4.511
324.60 4.506
324.70 4.501
324.80 4.496
324.90 4.491
325.00 4.486
325.10 4.481
325.20 4.476
325.30 4.471
325.40 4.466
325.50 4.461
325.60 4.456
325.70 4.451
325.80 4.446
325.90 4.442
326.00 4.437
326.10 4.432
326.20 4.427
326.30 4.422
326.40 4.417
326.50 4.412
326.60 4.407
326.70 4.403
326.80 4.398
326.90 4.393
327.00 4.388
327.10 4.383
327.20 4.378
327.30 4.374
327.40 4.369
327.50 4.364
327.60 4.359
327.70 4.355
327.80 4.35
327.90 4.345
328.00 4.34
328.10 4.336
328.20 4.331
328.30 4.326
328.40 4.321
328.50 4.317
328.60 4.312
328.70 4.307
328.80 4.302
328.90 4.298
329.00 4.293
329.10 4.288
329.20 4.284
329.30 4.279
329.40 4.274
329.50 4.27
329.60 4.265
329.70 4.26
329.80 4.256
329.90 4.251
330.00 4.246
330.10 4.242
330.20 4.237
330.30 4.233
330.40 4.228
330.50 4.223
330.60 4.219
330.70 4.214
330.80 4.21
330.90 4.205
331.00 4.201
331.10 4.196
331.20 4.192
331.30 4.187
331.40 4.182
331.50 4.178
331.60 4.173
331.70 4.169
331.80 4.164
331.90 4.16
332.00 4.155
332.10 4.151
332.20 4.146
332.30 4.142
332.40 4.137
332.50 4.133
332.60 4.128
332.70 4.124
332.80 4.119
332.90 4.115
333.00 4.111
333.10 4.106
333.20 4.102
333.30 4.097
333.40 4.093
333.50 4.088
333.60 4.084
333.70 4.08
333.80 4.075
333.90 4.071
334.00 4.066
334.10 4.062
334.20 4.058
334.30 4.053
334.40 4.049
334.50 4.045
334.60 4.04
334.70 4.036
334.80 4.032
334.90 4.027
335.00 4.023
335.10 4.019
335.20 4.014
335.30 4.01
335.40 4.006
335.50 4.001
335.60 3.997
335.70 3.993
335.80 3.989
335.90 3.984
336.00 3.98
336.10 3.976
336.20 3.972
336.30 3.967
336.40 3.963
336.50 3.959
336.60 3.955
336.70 3.95
336.80 3.946
336.90 3.942
337.00 3.938
337.10 3.934
337.20 3.929
337.30 3.925
337.40 3.921
337.50 3.917
337.60 3.913
337.70 3.908
337.80 3.904
337.90 3.9
338.00 3.896
338.10 3.892
338.20 3.888
338.30 3.884
338.40 3.879
338.50 3.875
338.60 3.871
338.70 3.867
338.80 3.863
338.90 3.859
339.00 3.855
339.10 3.851
339.20 3.847
339.30 3.842
339.40 3.838
339.50 3.834
339.60 3.83
339.70 3.826
339.80 3.822
339.90 3.818
340.00 3.814
340.10 3.81
340.20 3.806
340.30 3.802
340.40 3.798
340.50 3.794
340.60 3.79
340.70 3.786
340.80 3.782
340.90 3.778
341.00 3.774
341.10 3.77
341.20 3.766
341.30 3.762
341.40 3.758
341.50 3.754
341.60 3.75
341.70 3.746
341.80 3.742
341.90 3.738
342.00 3.734
342.10 3.73
342.20 3.726
342.30 3.722
342.40 3.719
342.50 3.715
342.60 3.711
342.70 3.707
342.80 3.703
342.90 3.699
343.00 3.695
343.10 3.691
343.20 3.687
343.30 3.684
343.40 3.68
343.50 3.676
343.60 3.672
343.70 3.668
343.80 3.664
343.90 3.66
344.00 3.657
344.10 3.653
344.20 3.649
344.30 3.645
344.40 3.641
344.50 3.637
344.60 3.634
344.70 3.63
344.80 3.626
344.90 3.622
345.00 3.619
345.10 3.615
345.20 3.611
345.30 3.607
345.40 3.603
345.50 3.6
345.60 3.596
345.70 3.592
345.80 3.588
345.90 3.585
346.00 3.581
346.10 3.577
346.20 3.573
346.30 3.57
346.40 3.566
346.50 3.562
346.60 3.559
346.70 3.555
346.80 3.551
346.90 3.548
347.00 3.544
347.10 3.54
347.20 3.536
347.30 3.533
347.40 3.529
347.50 3.525
347.60 3.522
347.70 3.518
347.80 3.514
347.90 3.511
348.00 3.507
348.10 3.504
348.20 3.5
348.30 3.496
348.40 3.493
348.50 3.489
348.60 3.485
348.70 3.482
348.80 3.478
348.90 3.475
349.00 3.471
349.10 3.468
349.20 3.464
349.30 3.46
349.40 3.457
349.50 3.453
349.60 3.45
349.70 3.446
349.80 3.442
349.90 3.439
350.00 3.435
350.10 3.432
350.20 3.428
350.30 3.425
350.40 3.421
350.50 3.418
350.60 3.414
350.70 3.411
350.80 3.407
350.90 3.404
351.00 3.4
351.10 3.397
351.20 3.393
351.30 3.39
351.40 3.386
351.50 3.383
351.60 3.379
351.70 3.376
351.80 3.372
351.90 3.369
352.00 3.365
352.10 3.362
352.20 3.359
352.30 3.355
352.40 3.352
352.50 3.348
352.60 3.345
352.70 3.341
352.80 3.338
352.90 3.335
353.00 3.331
353.10 3.328
353.20 3.324
353.30 3.321
353.40 3.318
353.50 3.314
353.60 3.311
353.70 3.307
353.80 3.304
353.90 3.301
354.00 3.297
354.10 3.294
354.20 3.291
354.30 3.287
354.40 3.284
354.50 3.28
354.60 3.277
354.70 3.274
354.80 3.27
354.90 3.267
355.00 3.264
355.10 3.26
355.20 3.257
355.30 3.254
355.40 3.251
355.50 3.247
355.60 3.244
355.70 3.241
355.80 3.237
355.90 3.234
356.00 3.231
356.10 3.227
356.20 3.224
356.30 3.221
356.40 3.218
356.50 3.214
356.60 3.211
356.70 3.208
356.80 3.205
356.90 3.201
357.00 3.198
357.10 3.195
357.20 3.192
357.30 3.188
357.40 3.185
357.50 3.182
357.60 3.179
357.70 3.176
357.80 3.172
357.90 3.169
358.00 3.166
358.10 3.163
358.20 3.16
358.30 3.156
358.40 3.153
358.50 3.15
358.60 3.147
358.70 3.144
358.80 3.141
358.90 3.137
359.00 3.134
359.10 3.131
359.20 3.128
359.30 3.125
359.40 3.122
359.50 3.118
359.60 3.115
359.70 3.112
359.80 3.109
359.90 3.106
360.00 3.103
360.10 3.1
360.20 3.097
360.30 3.093
360.40 3.09
360.50 3.087
360.60 3.084
360.70 3.081
360.80 3.078
360.90 3.075
361.00 3.072
361.10 3.069
361.20 3.066
361.30 3.063
361.40 3.06
361.50 3.056
361.60 3.053
361.70 3.05
361.80 3.047
361.90 3.044
362.00 3.041
362.10 3.038
362.20 3.035
362.30 3.032
362.40 3.029
362.50 3.026
362.60 3.023
362.70 3.02
362.80 3.017
362.90 3.014
363.00 3.011
363.10 3.008
363.20 3.005
363.30 3.002
363.40 2.999
363.50 2.996
363.60 2.993
363.70 2.99
363.80 2.987
363.90 2.984
364.00 2.981
364.10 2.978
364.20 2.975
364.30 2.972
364.40 2.969
364.50 2.966
364.60 2.963
364.70 2.96
364.80 2.958
364.90 2.955
365.00 2.952
365.10 2.949
365.20 2.946
365.30 2.943
365.40 2.94
365.50 2.937
365.60 2.934
365.70 2.931
365.80 2.928
365.90 2.925
366.00 2.923
366.10 2.92
366.20 2.917
366.30 2.914
366.40 2.911
366.50 2.908
366.60 2.905
366.70 2.902
366.80 2.899
366.90 2.896
367.00 2.893
367.10 2.89
367.20 2.888
367.30 2.885
367.40 2.882
367.50 2.879
367.60 2.876
367.70 2.873
367.80 2.87
367.90 2.867
368.00 2.864
368.10 2.861
368.20 2.858
368.30 2.855
368.40 2.852
368.50 2.85
368.60 2.847
368.70 2.844
368.80 2.841
368.90 2.838
369.00 2.835
369.10 2.832
369.20 2.829
369.30 2.826
369.40 2.823
369.50 2.82
369.60 2.817
369.70 2.814
369.80 2.811
369.90 2.808
370.00 2.805
370.10 2.802
370.20 2.799
370.30 2.796
370.40 2.793
370.50 2.79
370.60 2.788
370.70 2.785
370.80 2.782
370.90 2.779
371.00 2.776
371.10 2.773
371.20 2.77
371.30 2.767
371.40 2.764
371.50 2.761
371.60 2.759
371.70 2.756
371.80 2.753
371.90 2.75
372.00 2.747
372.10 2.744
372.20 2.742
372.30 2.739
372.40 2.737
372.50 2.734
372.60 2.731
372.70 2.729
372.80 2.726
372.90 2.724
373.00 2.721
373.10 2.719
373.20 2.716
373.30 2.713
373.40 2.711
373.50 2.708
373.60 2.706
373.70 2.703
373.80 2.701
373.90 2.698
374.00 2.695
374.10 2.693
374.20 2.69
374.30 2.687
374.40 2.684
374.50 2.682
374.60 2.679
374.70 2.676
374.80 2.673
374.90 2.671
375.00 2.668
375.10 2.665
375.20 2.662
375.30 2.659
375.40 2.657
375.50 2.654
375.60 2.651
375.70 2.649
375.80 2.646
375.90 2.643
376.00 2.64
376.10 2.638
376.20 2.635
376.30 2.632
376.40 2.629
376.50 2.627
376.60 2.624
376.70 2.621
376.80 2.619
376.90 2.616
377.00 2.613
377.10 2.611
377.20 2.608
377.30 2.606
377.40 2.603
377.50 2.601
377.60 2.598
377.70 2.595
377.80 2.593
377.90 2.59
378.00 2.588
378.10 2.585
378.20 2.583
378.30 2.58
378.40 2.578
378.50 2.575
378.60 2.573
378.70 2.57
378.80 2.568
378.90 2.565
379.00 2.562
379.10 2.56
379.20 2.557
379.30 2.555
379.40 2.552
379.50 2.55
379.60 2.547
379.70 2.545
379.80 2.542
379.90 2.54
380.00 2.537
380.10 2.535
380.20 2.533
380.30 2.53
380.40 2.528
380.50 2.525
380.60 2.523
380.70 2.52
380.80 2.518
380.90 2.516
381.00 2.513
381.10 2.511
381.20 2.508
381.30 2.506
381.40 2.504
381.50 2.501
381.60 2.499
381.70 2.497
381.80 2.494
381.90 2.492
382.00 2.49
382.10 2.487
382.20 2.485
382.30 2.482
382.40 2.48
382.50 2.478
382.60 2.475
382.70 2.473
382.80 2.471
382.90 2.468
383.00 2.466
383.10 2.464
383.20 2.461
383.30 2.459
383.40 2.457
383.50 2.455
383.60 2.452
383.70 2.45
383.80 2.448
383.90 2.446
384.00 2.444
384.10 2.441
384.20 2.439
384.30 2.437
384.40 2.435
384.50 2.433
384.60 2.431
384.70 2.428
384.80 2.426
384.90 2.424
385.00 2.422
385.10 2.42
385.20 2.418
385.30 2.415
385.40 2.413
385.50 2.411
385.60 2.409
385.70 2.407
385.80 2.405
385.90 2.403
386.00 2.4
386.10 2.398
386.20 2.396
386.30 2.394
386.40 2.392
386.50 2.389
386.60 2.387
386.70 2.385
386.80 2.383
386.90 2.381
387.00 2.379
387.10 2.376
387.20 2.374
387.30 2.372
387.40 2.37
387.50 2.368
387.60 2.365
387.70 2.363
387.80 2.361
387.90 2.359
388.00 2.357
388.10 2.355
388.20 2.353
388.30 2.35
388.40 2.348
388.50 2.346
388.60 2.344
388.70 2.342
388.80 2.34
388.90 2.338
389.00 2.336
389.10 2.334
389.20 2.333
389.30 2.331
389.40 2.329
389.50 2.327
389.60 2.325
389.70 2.324
389.80 2.322
389.90 2.32
390.00 2.318
390.10 2.316
390.20 2.315
390.30 2.313
390.40 2.311
390.50 2.309
390.60 2.308
390.70 2.306
390.80 2.304
390.90 2.302
391.00 2.3
391.10 2.299
391.20 2.297
391.30 2.295
391.40 2.293
391.50 2.291
391.60 2.289
391.70 2.287
391.80 2.286
391.90 2.284
392.00 2.282
392.10 2.28
392.20 2.278
392.30 2.276
392.40 2.274
392.50 2.272
392.60 2.27
392.70 2.267
392.80 2.265
392.90 2.263
393.00 2.261
393.10 2.259
393.20 2.257
393.30 2.255
393.40 2.252
393.50 2.25
393.60 2.248
393.70 2.246
393.80 2.243
393.90 2.241
394.00 2.239
394.10 2.237
394.20 2.234
394.30 2.232
394.40 2.229
394.50 2.227
394.60 2.225
394.70 2.222
394.80 2.22
394.90 2.217
395.00 2.215
395.10 2.212
395.20 2.21
395.30 2.207
395.40 2.205
395.50 2.202
395.60 2.2
395.70 2.197
395.80 2.194
395.90 2.192
396.00 2.189
396.10 2.187
396.20 2.184
396.30 2.182
396.40 2.179
396.50 2.177
396.60 2.174
396.70 2.172
396.80 2.17
396.90 2.167
397.00 2.165
397.10 2.164
397.20 2.163
397.30 2.162
397.40 2.161
397.50 2.16
397.60 2.16
397.70 2.159
397.80 2.158
397.90 2.157
398.00 2.157
398.10 2.156
398.20 2.155
398.30 2.155
398.40 2.154
398.50 2.153
398.60 2.152
398.70 2.152
398.80 2.151
398.90 2.15
399.00 2.149
399.10 2.148
399.20 2.147
399.30 2.147
399.40 2.146
399.50 2.145
399.60 2.144
399.70 2.143
399.80 2.142
399.90 2.141
400.00 2.14
400.10 2.139
400.20 2.138
400.30 2.136
400.40 2.135
400.50 2.134
400.60 2.133
400.70 2.131
400.80 2.13
400.90 2.129
401.00 2.128
401.10 2.126
401.20 2.125
401.30 2.123
401.40 2.122
401.50 2.12
401.60 2.119
401.70 2.117
401.80 2.115
401.90 2.114
402.00 2.112
402.10 2.11
402.20 2.109
402.30 2.107
402.40 2.105
402.50 2.103
402.60 2.101
402.70 2.099
402.80 2.097
402.90 2.095
403.00 2.093
403.10 2.091
403.20 2.089
403.30 2.087
403.40 2.085
403.50 2.082
403.60 2.08
403.70 2.078
403.80 2.075
403.90 2.073
404.00 2.071
404.10 2.068
404.20 2.066
404.30 2.063
404.40 2.06
404.50 2.058
404.60 2.055
404.70 2.052
404.80 2.05
404.90 2.047
405.00 2.044
405.10 2.041
405.20 2.038
405.30 2.035
405.40 2.032
405.50 2.029
405.60 2.026
405.70 2.023
405.80 2.02
405.90 2.016
406.00 2.013
406.10 2.01
406.20 2.006
406.30 2.003
406.40 1.999
406.50 1.996
406.60 1.992
406.70 1.989
406.80 1.985
406.90 1.981
407.00 1.977
407.10 1.974
407.20 1.97
407.30 1.966
407.40 1.962
407.50 1.958
407.60 1.954
407.70 1.95
407.80 1.946
407.90 1.942
408.00 1.938
408.10 1.934
408.20 1.93
408.30 1.926
408.40 1.921
408.50 1.917
408.60 1.913
408.70 1.909
408.80 1.905
408.90 1.901
409.00 1.897
409.10 1.893
409.20 1.889
409.30 1.885
409.40 1.882
409.50 1.879
409.60 1.876
409.70 1.873
409.80 1.871
409.90 1.869
410.00 1.868
410.10 1.866
410.20 1.865
410.30 1.863
410.40 1.862
410.50 1.86
410.60 1.86
410.70 1.86
410.80 1.86
410.90 1.86
411.00 1.861
411.10 1.861
411.20 1.862
411.30 1.863
411.40 1.864
411.50 1.866
411.60 1.867
411.70 1.868
411.80 1.869
411.90 1.871
412.00 1.872
412.10 1.873
412.20 1.874
412.30 1.876
412.40 1.877
412.50 1.878
412.60 1.879
412.70 1.88
412.80 1.881
412.90 1.882
413.00 1.883
413.10 1.884
413.20 1.885
413.30 1.886
413.40 1.887
413.50 1.888
413.60 1.889
413.70 1.889
413.80 1.89
413.90 1.891
414.00 1.891
414.10 1.892
414.20 1.892
414.30 1.893
414.40 1.893
414.50 1.894
414.60 1.894
414.70 1.894
414.80 1.895
414.90 1.895
415.00 1.895
415.10 1.895
415.20 1.895
415.30 1.895
415.40 1.895
415.50 1.895
415.60 1.895
415.70 1.895
415.80 1.895
415.90 1.895
416.00 1.895
416.10 1.895
416.20 1.894
416.30 1.894
416.40 1.894
416.50 1.893
416.60 1.893
416.70 1.893
416.80 1.892
416.90 1.892
417.00 1.891
417.10 1.891
417.20 1.89
417.30 1.889
417.40 1.889
417.50 1.888
417.60 1.887
417.70 1.887
417.80 1.886
417.90 1.885
418.00 1.884
418.10 1.884
418.20 1.883
418.30 1.882
418.40 1.881
418.50 1.88
418.60 1.879
418.70 1.878
418.80 1.877
418.90 1.876
419.00 1.875
419.10 1.874
419.20 1.873
419.30 1.872
419.40 1.87
419.50 1.869
419.60 1.868
419.70 1.867
419.80 1.866
419.90 1.864
420.00 1.863
420.10 1.862
420.20 1.86
420.30 1.859
420.40 1.858
420.50 1.856
420.60 1.855
420.70 1.853
420.80 1.852
420.90 1.85
421.00 1.849
421.10 1.847
421.20 1.846
421.30 1.844
421.40 1.843
421.50 1.841
421.60 1.839
421.70 1.838
421.80 1.836
421.90 1.834
422.00 1.833
422.10 1.831
422.20 1.829
422.30 1.827
422.40 1.825
422.50 1.824
422.60 1.822
422.70 1.82
422.80 1.818
422.90 1.816
423.00 1.814
423.10 1.812
423.20 1.81
423.30 1.808
423.40 1.806
423.50 1.804
423.60 1.802
423.70 1.8
423.80 1.797
423.90 1.795
424.00 1.793
424.10 1.791
424.20 1.789
424.30 1.786
424.40 1.784
424.50 1.782
424.60 1.779
424.70 1.777
424.80 1.774
424.90 1.772
425.00 1.769
425.10 1.767
425.20 1.764
425.30 1.762
425.40 1.759
425.50 1.757
425.60 1.754
425.70 1.751
425.80 1.749
425.90 1.746
426.00 1.743
426.10 1.74
426.20 1.737
426.30 1.734
426.40 1.731
426.50 1.728
426.60 1.725
426.70 1.722
426.80 1.719
426.90 1.716
427.00 1.713
427.10 1.71
427.20 1.707
427.30 1.703
427.40 1.7
427.50 1.697
427.60 1.693
427.70 1.69
427.80 1.686
427.90 1.683
428.00 1.679
428.10 1.675
428.20 1.672
428.30 1.668
428.40 1.664
428.50 1.66
428.60 1.656
428.70 1.652
428.80 1.648
428.90 1.644
429.00 1.64
429.10 1.636
429.20 1.632
429.30 1.628
429.40 1.623
429.50 1.619
429.60 1.615
429.70 1.61
429.80 1.606
429.90 1.601
430.00 1.596
430.10 1.592
430.20 1.587
430.30 1.582
430.40 1.577
430.50 1.572
430.60 1.567
430.70 1.562
430.80 1.557
430.90 1.552
431.00 1.547
431.10 1.541
431.20 1.536
431.30 1.531
431.40 1.525
431.50 1.519
431.60 1.514
431.70 1.508
431.80 1.503
431.90 1.497
432.00 1.491
432.10 1.485
432.20 1.479
432.30 1.473
432.40 1.467
432.50 1.461
432.60 1.455
432.70 1.449
432.80 1.443
432.90 1.436
433.00 1.43
433.10 1.424
433.20 1.417
433.30 1.41
433.40 1.403
433.50 1.396
433.60 1.389
433.70 1.38
433.80 1.371
433.90 1.361
434.00 1.353
434.10 1.352
434.20 1.359
434.30 1.367
434.40 1.374
434.50 1.38
434.60 1.385
434.70 1.391
434.80 1.395
434.90 1.4
435.00 1.404
435.10 1.408
435.20 1.412
435.30 1.416
435.40 1.42
435.50 1.424
435.60 1.428
435.70 1.432
435.80 1.435
435.90 1.439
436.00 1.443
436.10 1.446
436.20 1.45
436.30 1.453
436.40 1.456
436.50 1.459
436.60 1.463
436.70 1.466
436.80 1.469
436.90 1.472
437.00 1.474
437.10 1.477
437.20 1.48
437.30 1.483
437.40 1.485
437.50 1.488
437.60 1.49
437.70 1.493
437.80 1.495
437.90 1.497
438.00 1.499
438.10 1.501
438.20 1.504
438.30 1.506
438.40 1.507
438.50 1.509
438.60 1.511
438.70 1.513
438.80 1.515
438.90 1.516
439.00 1.518
439.10 1.519
439.20 1.521
439.30 1.522
439.40 1.523
439.50 1.525
439.60 1.526
439.70 1.527
439.80 1.528
439.90 1.529
440.00 1.53
440.10 1.531
440.20 1.532
440.30 1.533
440.40 1.534
440.50 1.535
440.60 1.536
440.70 1.536
440.80 1.537
440.90 1.538
441.00 1.538
441.10 1.539
441.20 1.539
441.30 1.54
441.40 1.54
441.50 1.54
441.60 1.541
441.70 1.541
441.80 1.541
441.90 1.542
442.00 1.542
442.10 1.542
442.20 1.542
442.30 1.542
442.40 1.542
442.50 1.542
442.60 1.542
442.70 1.542
442.80 1.542
442.90 1.542
443.00 1.542
443.10 1.542
443.20 1.542
443.30 1.542
443.40 1.542
443.50 1.541
443.60 1.541
443.70 1.541
443.80 1.541
443.90 1.54
444.00 1.54
444.10 1.54
444.20 1.539
444.30 1.539
444.40 1.539
444.50 1.538
444.60 1.538
444.70 1.537
444.80 1.537
444.90 1.536
445.00 1.536
445.10 1.535
445.20 1.535
445.30 1.534
445.40 1.534
445.50 1.533
445.60 1.533
445.70 1.532
445.80 1.531
445.90 1.531
446.00 1.53
446.10 1.529
446.20 1.529
446.30 1.528
446.40 1.527
446.50 1.527
446.60 1.526
446.70 1.525
446.80 1.524
446.90 1.524
447.00 1.523
447.10 1.522
447.20 1.521
447.30 1.521
447.40 1.52
447.50 1.519
447.60 1.518
447.70 1.517
447.80 1.516
447.90 1.516
448.00 1.515
448.10 1.514
448.20 1.513
448.30 1.512
448.40 1.511
448.50 1.51
448.60 1.509
448.70 1.509
448.80 1.508
448.90 1.507
449.00 1.506
449.10 1.505
449.20 1.504
449.30 1.503
449.40 1.502
449.50 1.501
449.60 1.5
449.70 1.499
449.80 1.498
449.90 1.497
450.00 1.496
450.10 1.495
450.20 1.494
450.30 1.493
450.40 1.492
450.50 1.491
450.60 1.49
450.70 1.489
450.80 1.488
450.90 1.487
451.00 1.486
451.10 1.485
451.20 1.484
451.30 1.483
451.40 1.482
451.50 1.481
451.60 1.48
451.70 1.479
451.80 1.478
451.90 1.477
452.00 1.476
452.10 1.475
452.20 1.474
452.30 1.473
452.40 1.471
452.50 1.47
452.60 1.469
452.70 1.468
452.80 1.467
452.90 1.466
453.00 1.465
453.10 1.464
453.20 1.463
453.30 1.462
453.40 1.461
453.50 1.46
453.60 1.458
453.70 1.457
453.80 1.456
453.90 1.455
454.00 1.454
454.10 1.453
