# Version 2.1 - nm, norm@500 to 1, cut digits, bergeron_16500_80.dat_16500
# Wavelength(nm)  Flambda(ergs/cm^s/s/nm)
300.00 2.587
300.10 2.585
300.20 2.583
300.30 2.58
300.40 2.578
300.50 2.576
300.60 2.574
300.70 2.572
300.80 2.57
300.90 2.567
301.00 2.565
301.10 2.563
301.20 2.561
301.30 2.559
301.40 2.557
301.50 2.554
301.60 2.552
301.70 2.55
301.80 2.548
301.90 2.546
302.00 2.544
302.10 2.542
302.20 2.539
302.30 2.537
302.40 2.535
302.50 2.533
302.60 2.531
302.70 2.529
302.80 2.527
302.90 2.524
303.00 2.522
303.10 2.52
303.20 2.518
303.30 2.516
303.40 2.514
303.50 2.512
303.60 2.51
303.70 2.508
303.80 2.505
303.90 2.503
304.00 2.501
304.10 2.499
304.20 2.497
304.30 2.495
304.40 2.493
304.50 2.491
304.60 2.489
304.70 2.487
304.80 2.485
304.90 2.483
305.00 2.48
305.10 2.478
305.20 2.476
305.30 2.474
305.40 2.472
305.50 2.47
305.60 2.468
305.70 2.466
305.80 2.464
305.90 2.462
306.00 2.46
306.10 2.458
306.20 2.456
306.30 2.454
306.40 2.452
306.50 2.45
306.60 2.448
306.70 2.446
306.80 2.443
306.90 2.441
307.00 2.439
307.10 2.437
307.20 2.435
307.30 2.433
307.40 2.431
307.50 2.429
307.60 2.427
307.70 2.425
307.80 2.423
307.90 2.421
308.00 2.419
308.10 2.417
308.20 2.415
308.30 2.413
308.40 2.411
308.50 2.409
308.60 2.407
308.70 2.405
308.80 2.403
308.90 2.401
309.00 2.399
309.10 2.397
309.20 2.395
309.30 2.393
309.40 2.391
309.50 2.389
309.60 2.387
309.70 2.385
309.80 2.383
309.90 2.382
310.00 2.38
310.10 2.378
310.20 2.376
310.30 2.374
310.40 2.372
310.50 2.37
310.60 2.368
310.70 2.366
310.80 2.364
310.90 2.362
311.00 2.36
311.10 2.358
311.20 2.356
311.30 2.354
311.40 2.352
311.50 2.35
311.60 2.348
311.70 2.347
311.80 2.345
311.90 2.343
312.00 2.341
312.10 2.339
312.20 2.337
312.30 2.335
312.40 2.333
312.50 2.331
312.60 2.329
312.70 2.327
312.80 2.326
312.90 2.324
313.00 2.322
313.10 2.32
313.20 2.318
313.30 2.316
313.40 2.314
313.50 2.312
313.60 2.31
313.70 2.308
313.80 2.307
313.90 2.305
314.00 2.303
314.10 2.301
314.20 2.299
314.30 2.297
314.40 2.295
314.50 2.293
314.60 2.292
314.70 2.29
314.80 2.288
314.90 2.286
315.00 2.284
315.10 2.282
315.20 2.28
315.30 2.279
315.40 2.277
315.50 2.275
315.60 2.273
315.70 2.271
315.80 2.269
315.90 2.268
316.00 2.266
316.10 2.264
316.20 2.262
316.30 2.26
316.40 2.258
316.50 2.257
316.60 2.255
316.70 2.253
316.80 2.251
316.90 2.249
317.00 2.247
317.10 2.246
317.20 2.244
317.30 2.242
317.40 2.24
317.50 2.238
317.60 2.237
317.70 2.235
317.80 2.233
317.90 2.231
318.00 2.229
318.10 2.228
318.20 2.226
318.30 2.224
318.40 2.222
318.50 2.22
318.60 2.219
318.70 2.217
318.80 2.215
318.90 2.213
319.00 2.212
319.10 2.21
319.20 2.208
319.30 2.206
319.40 2.204
319.50 2.203
319.60 2.201
319.70 2.199
319.80 2.197
319.90 2.196
320.00 2.194
320.10 2.192
320.20 2.19
320.30 2.189
320.40 2.187
320.50 2.185
320.60 2.183
320.70 2.181
320.80 2.18
320.90 2.178
321.00 2.176
321.10 2.174
321.20 2.173
321.30 2.171
321.40 2.169
321.50 2.168
321.60 2.166
321.70 2.164
321.80 2.162
321.90 2.161
322.00 2.159
322.10 2.157
322.20 2.155
322.30 2.154
322.40 2.152
322.50 2.15
322.60 2.149
322.70 2.147
322.80 2.145
322.90 2.143
323.00 2.142
323.10 2.14
323.20 2.138
323.30 2.137
323.40 2.135
323.50 2.133
323.60 2.132
323.70 2.13
323.80 2.128
323.90 2.127
324.00 2.125
324.10 2.123
324.20 2.121
324.30 2.12
324.40 2.118
324.50 2.116
324.60 2.115
324.70 2.113
324.80 2.111
324.90 2.11
325.00 2.108
325.10 2.106
325.20 2.105
325.30 2.103
325.40 2.101
325.50 2.1
325.60 2.098
325.70 2.096
325.80 2.095
325.90 2.093
326.00 2.091
326.10 2.09
326.20 2.088
326.30 2.087
326.40 2.085
326.50 2.083
326.60 2.082
326.70 2.08
326.80 2.078
326.90 2.077
327.00 2.075
327.10 2.073
327.20 2.072
327.30 2.07
327.40 2.068
327.50 2.067
327.60 2.065
327.70 2.064
327.80 2.062
327.90 2.06
328.00 2.059
328.10 2.057
328.20 2.055
328.30 2.054
328.40 2.052
328.50 2.051
328.60 2.049
328.70 2.047
328.80 2.046
328.90 2.044
329.00 2.043
329.10 2.041
329.20 2.039
329.30 2.038
329.40 2.036
329.50 2.035
329.60 2.033
329.70 2.031
329.80 2.03
329.90 2.028
330.00 2.027
330.10 2.025
330.20 2.023
330.30 2.022
330.40 2.02
330.50 2.019
330.60 2.017
330.70 2.016
330.80 2.014
330.90 2.012
331.00 2.011
331.10 2.009
331.20 2.008
331.30 2.006
331.40 2.005
331.50 2.003
331.60 2.001
331.70 2
331.80 1.998
331.90 1.997
332.00 1.995
332.10 1.994
332.20 1.992
332.30 1.991
332.40 1.989
332.50 1.987
332.60 1.986
332.70 1.984
332.80 1.983
332.90 1.981
333.00 1.98
333.10 1.978
333.20 1.977
333.30 1.975
333.40 1.974
333.50 1.972
333.60 1.971
333.70 1.969
333.80 1.968
333.90 1.966
334.00 1.964
334.10 1.963
334.20 1.961
334.30 1.96
334.40 1.958
334.50 1.957
334.60 1.955
334.70 1.954
334.80 1.952
334.90 1.951
335.00 1.949
335.10 1.948
335.20 1.946
335.30 1.945
335.40 1.943
335.50 1.942
335.60 1.94
335.70 1.939
335.80 1.937
335.90 1.936
336.00 1.934
336.10 1.933
336.20 1.931
336.30 1.93
336.40 1.928
336.50 1.927
336.60 1.925
336.70 1.924
336.80 1.923
336.90 1.921
337.00 1.92
337.10 1.918
337.20 1.917
337.30 1.915
337.40 1.914
337.50 1.912
337.60 1.911
337.70 1.909
337.80 1.908
337.90 1.906
338.00 1.905
338.10 1.903
338.20 1.902
338.30 1.9
338.40 1.899
338.50 1.898
338.60 1.896
338.70 1.895
338.80 1.893
338.90 1.892
339.00 1.89
339.10 1.889
339.20 1.887
339.30 1.886
339.40 1.885
339.50 1.883
339.60 1.882
339.70 1.88
339.80 1.879
339.90 1.877
340.00 1.876
340.10 1.874
340.20 1.873
340.30 1.872
340.40 1.87
340.50 1.869
340.60 1.867
340.70 1.866
340.80 1.865
340.90 1.863
341.00 1.862
341.10 1.86
341.20 1.859
341.30 1.857
341.40 1.856
341.50 1.855
341.60 1.853
341.70 1.852
341.80 1.85
341.90 1.849
342.00 1.848
342.10 1.846
342.20 1.845
342.30 1.843
342.40 1.842
342.50 1.841
342.60 1.839
342.70 1.838
342.80 1.836
342.90 1.835
343.00 1.834
343.10 1.832
343.20 1.831
343.30 1.829
343.40 1.828
343.50 1.827
343.60 1.825
343.70 1.824
343.80 1.822
343.90 1.821
344.00 1.82
344.10 1.818
344.20 1.817
344.30 1.816
344.40 1.814
344.50 1.813
344.60 1.812
344.70 1.81
344.80 1.809
344.90 1.807
345.00 1.806
345.10 1.805
345.20 1.803
345.30 1.802
345.40 1.801
345.50 1.799
345.60 1.798
345.70 1.797
345.80 1.795
345.90 1.794
346.00 1.793
346.10 1.791
346.20 1.79
346.30 1.788
346.40 1.787
346.50 1.786
346.60 1.784
346.70 1.783
346.80 1.782
346.90 1.78
347.00 1.779
347.10 1.778
347.20 1.776
347.30 1.775
347.40 1.774
347.50 1.772
347.60 1.771
347.70 1.77
347.80 1.768
347.90 1.767
348.00 1.766
348.10 1.764
348.20 1.763
348.30 1.762
348.40 1.76
348.50 1.759
348.60 1.758
348.70 1.757
348.80 1.755
348.90 1.754
349.00 1.753
349.10 1.751
349.20 1.75
349.30 1.749
349.40 1.747
349.50 1.746
349.60 1.745
349.70 1.743
349.80 1.742
349.90 1.741
350.00 1.74
350.10 1.738
350.20 1.737
350.30 1.736
350.40 1.734
350.50 1.733
350.60 1.732
350.70 1.731
350.80 1.729
350.90 1.728
351.00 1.727
351.10 1.725
351.20 1.724
351.30 1.723
351.40 1.722
351.50 1.72
351.60 1.719
351.70 1.718
351.80 1.716
351.90 1.715
352.00 1.714
352.10 1.713
352.20 1.711
352.30 1.71
352.40 1.709
352.50 1.708
352.60 1.706
352.70 1.705
352.80 1.704
352.90 1.703
353.00 1.701
353.10 1.7
353.20 1.699
353.30 1.697
353.40 1.696
353.50 1.695
353.60 1.694
353.70 1.692
353.80 1.691
353.90 1.69
354.00 1.689
354.10 1.687
354.20 1.686
354.30 1.685
354.40 1.684
354.50 1.682
354.60 1.681
354.70 1.68
354.80 1.679
354.90 1.678
355.00 1.676
355.10 1.675
355.20 1.674
355.30 1.673
355.40 1.671
355.50 1.67
355.60 1.669
355.70 1.668
355.80 1.666
355.90 1.665
356.00 1.664
356.10 1.663
356.20 1.662
356.30 1.66
356.40 1.659
356.50 1.658
356.60 1.657
356.70 1.655
356.80 1.654
356.90 1.653
357.00 1.652
357.10 1.651
357.20 1.649
357.30 1.648
357.40 1.647
357.50 1.646
357.60 1.645
357.70 1.643
357.80 1.642
357.90 1.641
358.00 1.64
358.10 1.639
358.20 1.637
358.30 1.636
358.40 1.635
358.50 1.634
358.60 1.633
358.70 1.631
358.80 1.63
358.90 1.629
359.00 1.628
359.10 1.627
359.20 1.625
359.30 1.624
359.40 1.623
359.50 1.622
359.60 1.621
359.70 1.62
359.80 1.618
359.90 1.617
360.00 1.616
360.10 1.615
360.20 1.614
360.30 1.612
360.40 1.611
360.50 1.61
360.60 1.609
360.70 1.608
360.80 1.607
360.90 1.605
361.00 1.604
361.10 1.603
361.20 1.602
361.30 1.601
361.40 1.6
361.50 1.598
361.60 1.597
361.70 1.596
361.80 1.595
361.90 1.594
362.00 1.593
362.10 1.591
362.20 1.59
362.30 1.589
362.40 1.588
362.50 1.587
362.60 1.586
362.70 1.585
362.80 1.583
362.90 1.582
363.00 1.581
363.10 1.58
363.20 1.579
363.30 1.577
363.40 1.576
363.50 1.575
363.60 1.574
363.70 1.572
363.80 1.571
363.90 1.57
364.00 1.569
364.10 1.568
364.20 1.566
364.30 1.565
364.40 1.564
364.50 1.563
364.60 1.561
364.70 1.56
364.80 1.559
364.90 1.558
365.00 1.556
365.10 1.555
365.20 1.554
365.30 1.553
365.40 1.551
365.50 1.55
365.60 1.549
365.70 1.548
365.80 1.546
365.90 1.545
366.00 1.544
366.10 1.543
366.20 1.542
366.30 1.54
366.40 1.539
366.50 1.538
366.60 1.537
366.70 1.536
366.80 1.535
366.90 1.534
367.00 1.532
367.10 1.531
367.20 1.53
367.30 1.529
367.40 1.528
367.50 1.527
367.60 1.526
367.70 1.525
367.80 1.523
367.90 1.522
368.00 1.521
368.10 1.52
368.20 1.519
368.30 1.518
368.40 1.517
368.50 1.516
368.60 1.515
368.70 1.514
368.80 1.513
368.90 1.512
369.00 1.511
369.10 1.51
369.20 1.509
369.30 1.508
369.40 1.507
369.50 1.506
369.60 1.505
369.70 1.504
369.80 1.503
369.90 1.502
370.00 1.501
370.10 1.5
370.20 1.5
370.30 1.499
370.40 1.499
370.50 1.498
370.60 1.498
370.70 1.497
370.80 1.497
370.90 1.496
371.00 1.495
371.10 1.495
371.20 1.494
371.30 1.494
371.40 1.493
371.50 1.493
371.60 1.492
371.70 1.491
371.80 1.491
371.90 1.49
372.00 1.49
372.10 1.49
372.20 1.49
372.30 1.49
372.40 1.49
372.50 1.491
372.60 1.491
372.70 1.491
372.80 1.491
372.90 1.491
373.00 1.491
373.10 1.492
373.20 1.492
373.30 1.492
373.40 1.492
373.50 1.492
373.60 1.492
373.70 1.493
373.80 1.493
373.90 1.493
374.00 1.493
374.10 1.494
374.20 1.494
374.30 1.495
374.40 1.496
374.50 1.496
374.60 1.497
374.70 1.498
374.80 1.498
374.90 1.499
375.00 1.499
375.10 1.5
375.20 1.501
375.30 1.501
375.40 1.502
375.50 1.503
375.60 1.503
375.70 1.504
375.80 1.504
375.90 1.505
376.00 1.506
376.10 1.506
376.20 1.506
376.30 1.506
376.40 1.507
376.50 1.507
376.60 1.507
376.70 1.507
376.80 1.508
376.90 1.508
377.00 1.508
377.10 1.507
377.20 1.506
377.30 1.505
377.40 1.504
377.50 1.503
377.60 1.502
377.70 1.501
377.80 1.5
377.90 1.499
378.00 1.498
378.10 1.492
378.20 1.487
378.30 1.482
378.40 1.477
378.50 1.472
378.60 1.467
378.70 1.462
378.80 1.457
378.90 1.452
379.00 1.447
379.10 1.443
379.20 1.44
379.30 1.436
379.40 1.433
379.50 1.429
379.60 1.426
379.70 1.422
379.80 1.419
379.90 1.415
380.00 1.412
380.10 1.416
380.20 1.421
380.30 1.426
380.40 1.431
380.50 1.435
380.60 1.44
380.70 1.445
380.80 1.449
380.90 1.454
381.00 1.459
381.10 1.46
381.20 1.461
381.30 1.462
381.40 1.464
381.50 1.465
381.60 1.464
381.70 1.462
381.80 1.459
381.90 1.455
382.00 1.45
382.10 1.444
382.20 1.438
382.30 1.425
382.40 1.413
382.50 1.401
382.60 1.388
382.70 1.376
382.80 1.364
382.90 1.352
383.00 1.34
383.10 1.327
383.20 1.315
383.30 1.307
383.40 1.298
383.50 1.287
383.60 1.289
383.70 1.3
383.80 1.309
383.90 1.318
384.00 1.329
384.10 1.344
384.20 1.359
384.30 1.375
384.40 1.39
384.50 1.404
384.60 1.417
384.70 1.428
384.80 1.438
384.90 1.446
385.00 1.454
385.10 1.459
385.20 1.465
385.30 1.469
385.40 1.472
385.50 1.475
385.60 1.477
385.70 1.477
385.80 1.478
385.90 1.477
386.00 1.476
386.10 1.474
386.20 1.471
386.30 1.467
386.40 1.463
386.50 1.459
386.60 1.453
386.70 1.446
386.80 1.439
386.90 1.431
387.00 1.423
387.10 1.414
387.20 1.404
387.30 1.393
387.40 1.381
387.50 1.368
387.60 1.354
387.70 1.339
387.80 1.322
387.90 1.304
388.00 1.284
388.10 1.262
388.20 1.238
388.30 1.212
388.40 1.186
388.50 1.162
388.60 1.14
388.70 1.124
388.80 1.11
388.90 1.098
389.00 1.109
389.10 1.122
389.20 1.137
389.30 1.158
389.40 1.182
389.50 1.208
389.60 1.234
389.70 1.258
389.80 1.281
389.90 1.302
390.00 1.321
390.10 1.339
390.20 1.355
390.30 1.371
390.40 1.385
390.50 1.399
390.60 1.412
390.70 1.424
390.80 1.435
390.90 1.446
391.00 1.457
391.10 1.467
391.20 1.476
391.30 1.486
391.40 1.494
391.50 1.502
391.60 1.509
391.70 1.516
391.80 1.522
391.90 1.528
392.00 1.533
392.10 1.537
392.20 1.54
392.30 1.543
392.40 1.545
392.50 1.547
392.60 1.547
392.70 1.547
392.80 1.547
392.90 1.545
393.00 1.543
393.10 1.54
393.20 1.536
393.30 1.532
393.40 1.526
393.50 1.52
393.60 1.514
393.70 1.506
393.80 1.498
393.90 1.489
394.00 1.479
394.10 1.469
394.20 1.458
394.30 1.446
394.40 1.433
394.50 1.42
394.60 1.407
394.70 1.392
394.80 1.377
394.90 1.362
395.00 1.346
395.10 1.33
395.20 1.313
395.30 1.296
395.40 1.279
395.50 1.261
395.60 1.242
395.70 1.222
395.80 1.202
395.90 1.181
396.00 1.16
396.10 1.138
396.20 1.113
396.30 1.086
396.40 1.058
396.50 1.025
396.60 0.992
396.70 0.959
396.80 0.933
396.90 0.9052
397.00 0.8758
397.10 0.9023
397.20 0.9279
397.30 0.9523
397.40 0.9841
397.50 1.016
397.60 1.048
397.70 1.076
397.80 1.102
397.90 1.126
398.00 1.147
398.10 1.168
398.20 1.188
398.30 1.207
398.40 1.226
398.50 1.244
398.60 1.262
398.70 1.279
398.80 1.296
398.90 1.312
399.00 1.328
399.10 1.344
399.20 1.36
399.30 1.375
399.40 1.39
399.50 1.405
399.60 1.419
399.70 1.433
399.80 1.447
399.90 1.46
400.00 1.473
400.10 1.485
400.20 1.497
400.30 1.509
400.40 1.52
400.50 1.53
400.60 1.54
400.70 1.55
400.80 1.559
400.90 1.568
401.00 1.576
401.10 1.585
401.20 1.592
401.30 1.599
401.40 1.606
401.50 1.613
401.60 1.618
401.70 1.624
401.80 1.629
401.90 1.634
402.00 1.639
402.10 1.643
402.20 1.646
402.30 1.65
402.40 1.653
402.50 1.655
402.60 1.657
402.70 1.659
402.80 1.661
402.90 1.662
403.00 1.663
403.10 1.663
403.20 1.663
403.30 1.663
403.40 1.663
403.50 1.662
403.60 1.661
403.70 1.659
403.80 1.657
403.90 1.655
404.00 1.652
404.10 1.649
404.20 1.646
404.30 1.642
404.40 1.638
404.50 1.633
404.60 1.628
404.70 1.623
404.80 1.618
404.90 1.612
405.00 1.606
405.10 1.599
405.20 1.592
405.30 1.585
405.40 1.577
405.50 1.569
405.60 1.56
405.70 1.551
405.80 1.542
405.90 1.532
406.00 1.522
406.10 1.511
406.20 1.5
406.30 1.489
406.40 1.477
406.50 1.465
406.60 1.452
406.70 1.439
406.80 1.426
406.90 1.412
407.00 1.398
407.10 1.383
407.20 1.369
407.30 1.353
407.40 1.337
407.50 1.321
407.60 1.304
407.70 1.287
407.80 1.27
407.90 1.253
408.00 1.235
408.10 1.217
408.20 1.199
408.30 1.18
408.40 1.162
408.50 1.143
408.60 1.124
408.70 1.105
408.80 1.086
408.90 1.066
409.00 1.047
409.10 1.027
409.20 1.007
409.30 0.9859
409.40 0.9633
409.50 0.9389
409.60 0.9129
409.70 0.8828
409.80 0.8513
409.90 0.8185
410.00 0.7845
410.10 0.7547
410.20 0.729
410.30 0.7668
410.40 0.8017
410.50 0.8337
410.60 0.8651
410.70 0.8946
410.80 0.9222
410.90 0.9458
411.00 0.9678
411.10 0.9884
411.20 1.007
411.30 1.026
411.40 1.045
411.50 1.063
411.60 1.081
411.70 1.099
411.80 1.116
411.90 1.134
412.00 1.151
412.10 1.168
412.20 1.184
412.30 1.201
412.40 1.217
412.50 1.233
412.60 1.249
412.70 1.264
412.80 1.28
412.90 1.294
413.00 1.309
413.10 1.323
413.20 1.337
413.30 1.35
413.40 1.363
413.50 1.376
413.60 1.388
413.70 1.4
413.80 1.412
413.90 1.423
414.00 1.434
414.10 1.444
414.20 1.454
414.30 1.464
414.40 1.474
414.50 1.483
414.60 1.492
414.70 1.501
414.80 1.509
414.90 1.518
415.00 1.525
415.10 1.533
415.20 1.54
415.30 1.547
415.40 1.554
415.50 1.56
415.60 1.567
415.70 1.573
415.80 1.579
415.90 1.584
416.00 1.589
416.10 1.595
416.20 1.599
416.30 1.604
416.40 1.609
416.50 1.613
416.60 1.617
416.70 1.621
416.80 1.625
416.90 1.629
417.00 1.632
417.10 1.635
417.20 1.639
417.30 1.642
417.40 1.645
417.50 1.647
417.60 1.65
417.70 1.652
417.80 1.654
417.90 1.657
418.00 1.659
418.10 1.661
418.20 1.662
418.30 1.664
418.40 1.666
418.50 1.667
418.60 1.669
418.70 1.67
418.80 1.671
418.90 1.672
419.00 1.673
419.10 1.674
419.20 1.675
419.30 1.675
419.40 1.676
419.50 1.676
419.60 1.677
419.70 1.677
419.80 1.677
419.90 1.678
420.00 1.678
420.10 1.678
420.20 1.678
420.30 1.678
420.40 1.678
420.50 1.677
420.60 1.677
420.70 1.677
420.80 1.676
420.90 1.676
421.00 1.675
421.10 1.675
421.20 1.674
421.30 1.673
421.40 1.672
421.50 1.672
421.60 1.671
421.70 1.67
421.80 1.669
421.90 1.667
422.00 1.666
422.10 1.665
422.20 1.664
422.30 1.662
422.40 1.661
422.50 1.66
422.60 1.658
422.70 1.656
422.80 1.655
422.90 1.653
423.00 1.651
423.10 1.649
423.20 1.648
423.30 1.646
423.40 1.644
423.50 1.642
423.60 1.639
423.70 1.637
423.80 1.635
423.90 1.633
424.00 1.63
424.10 1.628
424.20 1.625
424.30 1.623
424.40 1.62
424.50 1.617
424.60 1.614
424.70 1.612
424.80 1.609
424.90 1.605
425.00 1.602
425.10 1.599
425.20 1.596
425.30 1.593
425.40 1.589
425.50 1.586
425.60 1.582
425.70 1.578
425.80 1.574
425.90 1.57
426.00 1.566
426.10 1.562
426.20 1.557
426.30 1.553
426.40 1.548
426.50 1.544
426.60 1.539
426.70 1.534
426.80 1.529
426.90 1.524
427.00 1.519
427.10 1.514
427.20 1.508
427.30 1.503
427.40 1.497
427.50 1.491
427.60 1.486
427.70 1.479
427.80 1.473
427.90 1.467
428.00 1.46
428.10 1.454
428.20 1.447
428.30 1.44
428.40 1.432
428.50 1.425
428.60 1.418
428.70 1.41
428.80 1.402
428.90 1.394
429.00 1.385
429.10 1.377
429.20 1.368
429.30 1.359
429.40 1.35
429.50 1.341
429.60 1.331
429.70 1.321
429.80 1.311
429.90 1.301
430.00 1.291
430.10 1.28
430.20 1.269
430.30 1.258
430.40 1.246
430.50 1.235
430.60 1.223
430.70 1.211
430.80 1.199
430.90 1.186
431.00 1.173
431.10 1.16
431.20 1.147
431.30 1.133
431.40 1.12
431.50 1.106
431.60 1.092
431.70 1.077
431.80 1.063
431.90 1.048
432.00 1.033
432.10 1.018
432.20 1.002
432.30 0.9863
432.40 0.9701
432.50 0.9533
432.60 0.9361
432.70 0.9186
432.80 0.9009
432.90 0.8832
433.00 0.8657
433.10 0.8488
433.20 0.8318
433.30 0.8145
433.40 0.7955
433.50 0.7748
433.60 0.7525
433.70 0.7247
433.80 0.6933
433.90 0.6583
434.00 0.5995
434.10 0.6003
434.20 0.6607
434.30 0.6944
434.40 0.7246
434.50 0.7513
434.60 0.7725
434.70 0.7921
434.80 0.8101
434.90 0.8263
435.00 0.8424
435.10 0.8583
435.20 0.8747
435.30 0.8912
435.40 0.9077
435.50 0.9239
435.60 0.9397
435.70 0.9552
435.80 0.97
435.90 0.9844
436.00 0.9985
436.10 1.012
436.20 1.026
436.30 1.039
436.40 1.052
436.50 1.065
436.60 1.077
436.70 1.089
436.80 1.101
436.90 1.113
437.00 1.124
437.10 1.135
437.20 1.146
437.30 1.157
437.40 1.167
437.50 1.177
437.60 1.187
437.70 1.197
437.80 1.206
437.90 1.215
438.00 1.224
438.10 1.233
438.20 1.241
438.30 1.249
438.40 1.257
438.50 1.265
438.60 1.272
438.70 1.279
438.80 1.286
438.90 1.293
439.00 1.3
439.10 1.306
439.20 1.312
439.30 1.318
439.40 1.323
439.50 1.329
439.60 1.334
439.70 1.339
439.80 1.344
439.90 1.349
440.00 1.354
440.10 1.358
440.20 1.363
440.30 1.367
440.40 1.371
440.50 1.374
440.60 1.378
440.70 1.382
440.80 1.385
440.90 1.389
441.00 1.392
441.10 1.395
441.20 1.398
441.30 1.401
441.40 1.403
441.50 1.406
441.60 1.408
441.70 1.411
441.80 1.413
441.90 1.415
442.00 1.417
442.10 1.419
442.20 1.421
442.30 1.423
442.40 1.425
442.50 1.426
442.60 1.428
442.70 1.429
442.80 1.431
442.90 1.432
443.00 1.433
443.10 1.435
443.20 1.436
443.30 1.437
443.40 1.438
443.50 1.439
443.60 1.44
443.70 1.441
443.80 1.442
443.90 1.442
444.00 1.443
444.10 1.444
444.20 1.444
444.30 1.445
444.40 1.445
444.50 1.446
444.60 1.446
444.70 1.447
444.80 1.447
444.90 1.447
445.00 1.448
445.10 1.448
445.20 1.448
445.30 1.448
445.40 1.448
445.50 1.448
445.60 1.448
445.70 1.448
445.80 1.448
445.90 1.448
446.00 1.448
446.10 1.448
446.20 1.448
446.30 1.448
446.40 1.448
446.50 1.448
446.60 1.448
446.70 1.447
446.80 1.447
446.90 1.447
447.00 1.447
447.10 1.446
447.20 1.446
447.30 1.446
447.40 1.445
447.50 1.445
447.60 1.445
447.70 1.444
447.80 1.444
447.90 1.443
448.00 1.443
448.10 1.442
448.20 1.442
448.30 1.441
448.40 1.441
448.50 1.44
448.60 1.44
448.70 1.439
448.80 1.439
448.90 1.438
449.00 1.438
449.10 1.437
449.20 1.437
449.30 1.436
449.40 1.435
449.50 1.435
449.60 1.434
449.70 1.434
449.80 1.433
449.90 1.432
450.00 1.432
450.10 1.431
450.20 1.43
450.30 1.429
450.40 1.429
450.50 1.428
450.60 1.427
450.70 1.427
450.80 1.426
450.90 1.425
451.00 1.424
451.10 1.424
451.20 1.423
451.30 1.422
451.40 1.421
451.50 1.42
451.60 1.42
451.70 1.419
451.80 1.418
451.90 1.417
452.00 1.416
452.10 1.416
452.20 1.415
452.30 1.414
452.40 1.413
452.50 1.412
452.60 1.411
452.70 1.411
452.80 1.41
452.90 1.409
453.00 1.408
453.10 1.407
453.20 1.406
453.30 1.406
453.40 1.405
453.50 1.404
