# Version 2.1 - nm, norm@500 to 1, cut digits, bergeron_15000_90.dat_15000
# Wavelength(nm)  Flambda(ergs/cm^s/s/nm)
300.00 2.611
300.10 2.609
300.20 2.607
300.30 2.605
300.40 2.603
300.50 2.601
300.60 2.599
300.70 2.597
300.80 2.595
300.90 2.593
301.00 2.591
301.10 2.589
301.20 2.587
301.30 2.585
301.40 2.583
301.50 2.581
301.60 2.579
301.70 2.577
301.80 2.575
301.90 2.573
302.00 2.571
302.10 2.569
302.20 2.567
302.30 2.565
302.40 2.563
302.50 2.561
302.60 2.559
302.70 2.557
302.80 2.555
302.90 2.553
303.00 2.551
303.10 2.549
303.20 2.547
303.30 2.545
303.40 2.543
303.50 2.541
303.60 2.539
303.70 2.537
303.80 2.535
303.90 2.533
304.00 2.531
304.10 2.529
304.20 2.527
304.30 2.525
304.40 2.523
304.50 2.522
304.60 2.52
304.70 2.518
304.80 2.516
304.90 2.514
305.00 2.512
305.10 2.51
305.20 2.508
305.30 2.506
305.40 2.504
305.50 2.502
305.60 2.5
305.70 2.498
305.80 2.496
305.90 2.494
306.00 2.492
306.10 2.49
306.20 2.488
306.30 2.487
306.40 2.485
306.50 2.483
306.60 2.481
306.70 2.479
306.80 2.477
306.90 2.475
307.00 2.473
307.10 2.471
307.20 2.469
307.30 2.468
307.40 2.466
307.50 2.464
307.60 2.462
307.70 2.46
307.80 2.458
307.90 2.456
308.00 2.454
308.10 2.452
308.20 2.451
308.30 2.449
308.40 2.447
308.50 2.445
308.60 2.443
308.70 2.441
308.80 2.439
308.90 2.437
309.00 2.436
309.10 2.434
309.20 2.432
309.30 2.43
309.40 2.428
309.50 2.426
309.60 2.424
309.70 2.423
309.80 2.421
309.90 2.419
310.00 2.417
310.10 2.415
310.20 2.413
310.30 2.411
310.40 2.41
310.50 2.408
310.60 2.406
310.70 2.404
310.80 2.402
310.90 2.4
311.00 2.399
311.10 2.397
311.20 2.395
311.30 2.393
311.40 2.391
311.50 2.389
311.60 2.388
311.70 2.386
311.80 2.384
311.90 2.382
312.00 2.38
312.10 2.379
312.20 2.377
312.30 2.375
312.40 2.373
312.50 2.371
312.60 2.37
312.70 2.368
312.80 2.366
312.90 2.364
313.00 2.362
313.10 2.361
313.20 2.359
313.30 2.357
313.40 2.355
313.50 2.353
313.60 2.352
313.70 2.35
313.80 2.348
313.90 2.346
314.00 2.345
314.10 2.343
314.20 2.341
314.30 2.339
314.40 2.337
314.50 2.336
314.60 2.334
314.70 2.332
314.80 2.33
314.90 2.329
315.00 2.327
315.10 2.325
315.20 2.323
315.30 2.322
315.40 2.32
315.50 2.318
315.60 2.316
315.70 2.315
315.80 2.313
315.90 2.311
316.00 2.309
316.10 2.308
316.20 2.306
316.30 2.304
316.40 2.302
316.50 2.301
316.60 2.299
316.70 2.297
316.80 2.295
316.90 2.294
317.00 2.292
317.10 2.29
317.20 2.289
317.30 2.287
317.40 2.285
317.50 2.283
317.60 2.282
317.70 2.28
317.80 2.278
317.90 2.277
318.00 2.275
318.10 2.273
318.20 2.271
318.30 2.27
318.40 2.268
318.50 2.266
318.60 2.265
318.70 2.263
318.80 2.261
318.90 2.259
319.00 2.258
319.10 2.256
319.20 2.254
319.30 2.253
319.40 2.251
319.50 2.249
319.60 2.248
319.70 2.246
319.80 2.244
319.90 2.243
320.00 2.241
320.10 2.239
320.20 2.238
320.30 2.236
320.40 2.234
320.50 2.233
320.60 2.231
320.70 2.229
320.80 2.228
320.90 2.226
321.00 2.224
321.10 2.223
321.20 2.221
321.30 2.219
321.40 2.218
321.50 2.216
321.60 2.214
321.70 2.213
321.80 2.211
321.90 2.209
322.00 2.208
322.10 2.206
322.20 2.204
322.30 2.203
322.40 2.201
322.50 2.199
322.60 2.198
322.70 2.196
322.80 2.194
322.90 2.193
323.00 2.191
323.10 2.19
323.20 2.188
323.30 2.186
323.40 2.185
323.50 2.183
323.60 2.181
323.70 2.18
323.80 2.178
323.90 2.177
324.00 2.175
324.10 2.173
324.20 2.172
324.30 2.17
324.40 2.169
324.50 2.167
324.60 2.165
324.70 2.164
324.80 2.162
324.90 2.161
325.00 2.159
325.10 2.157
325.20 2.156
325.30 2.154
325.40 2.153
325.50 2.151
325.60 2.149
325.70 2.148
325.80 2.146
325.90 2.145
326.00 2.143
326.10 2.142
326.20 2.14
326.30 2.138
326.40 2.137
326.50 2.135
326.60 2.134
326.70 2.132
326.80 2.13
326.90 2.129
327.00 2.127
327.10 2.126
327.20 2.124
327.30 2.123
327.40 2.121
327.50 2.119
327.60 2.118
327.70 2.116
327.80 2.115
327.90 2.113
328.00 2.112
328.10 2.11
328.20 2.109
328.30 2.107
328.40 2.105
328.50 2.104
328.60 2.102
328.70 2.101
328.80 2.099
328.90 2.098
329.00 2.096
329.10 2.095
329.20 2.093
329.30 2.092
329.40 2.09
329.50 2.089
329.60 2.087
329.70 2.086
329.80 2.084
329.90 2.082
330.00 2.081
330.10 2.079
330.20 2.078
330.30 2.076
330.40 2.075
330.50 2.073
330.60 2.072
330.70 2.07
330.80 2.069
330.90 2.067
331.00 2.066
331.10 2.064
331.20 2.063
331.30 2.061
331.40 2.06
331.50 2.058
331.60 2.057
331.70 2.055
331.80 2.054
331.90 2.052
332.00 2.051
332.10 2.049
332.20 2.048
332.30 2.046
332.40 2.045
332.50 2.043
332.60 2.042
332.70 2.04
332.80 2.039
332.90 2.037
333.00 2.036
333.10 2.034
333.20 2.033
333.30 2.031
333.40 2.03
333.50 2.028
333.60 2.027
333.70 2.025
333.80 2.024
333.90 2.022
334.00 2.021
334.10 2.019
334.20 2.018
334.30 2.017
334.40 2.015
334.50 2.014
334.60 2.012
334.70 2.011
334.80 2.009
334.90 2.008
335.00 2.006
335.10 2.005
335.20 2.003
335.30 2.002
335.40 2
335.50 1.999
335.60 1.998
335.70 1.996
335.80 1.995
335.90 1.993
336.00 1.992
336.10 1.99
336.20 1.989
336.30 1.987
336.40 1.986
336.50 1.985
336.60 1.983
336.70 1.982
336.80 1.98
336.90 1.979
337.00 1.977
337.10 1.976
337.20 1.975
337.30 1.973
337.40 1.972
337.50 1.97
337.60 1.969
337.70 1.967
337.80 1.966
337.90 1.965
338.00 1.963
338.10 1.962
338.20 1.96
338.30 1.959
338.40 1.957
338.50 1.956
338.60 1.955
338.70 1.953
338.80 1.952
338.90 1.95
339.00 1.949
339.10 1.948
339.20 1.946
339.30 1.945
339.40 1.943
339.50 1.942
339.60 1.941
339.70 1.939
339.80 1.938
339.90 1.936
340.00 1.935
340.10 1.934
340.20 1.932
340.30 1.931
340.40 1.93
340.50 1.928
340.60 1.927
340.70 1.925
340.80 1.924
340.90 1.923
341.00 1.921
341.10 1.92
341.20 1.918
341.30 1.917
341.40 1.916
341.50 1.914
341.60 1.913
341.70 1.912
341.80 1.91
341.90 1.909
342.00 1.907
342.10 1.906
342.20 1.905
342.30 1.903
342.40 1.902
342.50 1.901
342.60 1.899
342.70 1.898
342.80 1.897
342.90 1.895
343.00 1.894
343.10 1.893
343.20 1.891
343.30 1.89
343.40 1.888
343.50 1.887
343.60 1.886
343.70 1.884
343.80 1.883
343.90 1.882
344.00 1.88
344.10 1.879
344.20 1.878
344.30 1.876
344.40 1.875
344.50 1.874
344.60 1.872
344.70 1.871
344.80 1.87
344.90 1.868
345.00 1.867
345.10 1.866
345.20 1.864
345.30 1.863
345.40 1.862
345.50 1.86
345.60 1.859
345.70 1.858
345.80 1.857
345.90 1.855
346.00 1.854
346.10 1.853
346.20 1.851
346.30 1.85
346.40 1.849
346.50 1.847
346.60 1.846
346.70 1.845
346.80 1.843
346.90 1.842
347.00 1.841
347.10 1.839
347.20 1.838
347.30 1.837
347.40 1.835
347.50 1.834
347.60 1.833
347.70 1.832
347.80 1.83
347.90 1.829
348.00 1.828
348.10 1.826
348.20 1.825
348.30 1.824
348.40 1.822
348.50 1.821
348.60 1.82
348.70 1.819
348.80 1.817
348.90 1.816
349.00 1.815
349.10 1.813
349.20 1.812
349.30 1.811
349.40 1.81
349.50 1.808
349.60 1.807
349.70 1.806
349.80 1.805
349.90 1.803
350.00 1.802
350.10 1.801
350.20 1.799
350.30 1.798
350.40 1.797
350.50 1.796
350.60 1.794
350.70 1.793
350.80 1.792
350.90 1.791
351.00 1.789
351.10 1.788
351.20 1.787
351.30 1.786
351.40 1.784
351.50 1.783
351.60 1.782
351.70 1.78
351.80 1.779
351.90 1.778
352.00 1.777
352.10 1.775
352.20 1.774
352.30 1.773
352.40 1.772
352.50 1.77
352.60 1.769
352.70 1.768
352.80 1.767
352.90 1.766
353.00 1.764
353.10 1.763
353.20 1.762
353.30 1.761
353.40 1.759
353.50 1.758
353.60 1.757
353.70 1.756
353.80 1.754
353.90 1.753
354.00 1.752
354.10 1.751
354.20 1.75
354.30 1.748
354.40 1.747
354.50 1.746
354.60 1.745
354.70 1.743
354.80 1.742
354.90 1.741
355.00 1.74
355.10 1.739
355.20 1.737
355.30 1.736
355.40 1.735
355.50 1.734
355.60 1.732
355.70 1.731
355.80 1.73
355.90 1.729
356.00 1.728
356.10 1.726
356.20 1.725
356.30 1.724
356.40 1.723
356.50 1.722
356.60 1.72
356.70 1.719
356.80 1.718
356.90 1.717
357.00 1.716
357.10 1.714
357.20 1.713
357.30 1.712
357.40 1.711
357.50 1.71
357.60 1.708
357.70 1.707
357.80 1.706
357.90 1.705
358.00 1.704
358.10 1.702
358.20 1.701
358.30 1.7
358.40 1.699
358.50 1.698
358.60 1.697
358.70 1.695
358.80 1.694
358.90 1.693
359.00 1.692
359.10 1.691
359.20 1.69
359.30 1.688
359.40 1.687
359.50 1.686
359.60 1.685
359.70 1.684
359.80 1.683
359.90 1.681
360.00 1.68
360.10 1.679
360.20 1.678
360.30 1.677
360.40 1.676
360.50 1.674
360.60 1.673
360.70 1.672
360.80 1.671
360.90 1.67
361.00 1.669
361.10 1.667
361.20 1.666
361.30 1.665
361.40 1.664
361.50 1.663
361.60 1.662
361.70 1.661
361.80 1.659
361.90 1.658
362.00 1.657
362.10 1.656
362.20 1.655
362.30 1.654
362.40 1.653
362.50 1.651
362.60 1.65
362.70 1.649
362.80 1.648
362.90 1.647
363.00 1.646
363.10 1.644
363.20 1.643
363.30 1.642
363.40 1.64
363.50 1.639
363.60 1.638
363.70 1.636
363.80 1.635
363.90 1.634
364.00 1.633
364.10 1.631
364.20 1.63
364.30 1.629
364.40 1.627
364.50 1.626
364.60 1.625
364.70 1.623
364.80 1.622
364.90 1.621
365.00 1.619
365.10 1.618
365.20 1.616
365.30 1.615
365.40 1.614
365.50 1.612
365.60 1.611
365.70 1.61
365.80 1.608
365.90 1.607
366.00 1.606
366.10 1.605
366.20 1.603
366.30 1.602
366.40 1.601
366.50 1.6
366.60 1.599
366.70 1.598
366.80 1.596
366.90 1.595
367.00 1.594
367.10 1.593
367.20 1.592
367.30 1.591
367.40 1.589
367.50 1.588
367.60 1.587
367.70 1.586
367.80 1.585
367.90 1.584
368.00 1.583
368.10 1.581
368.20 1.58
368.30 1.579
368.40 1.578
368.50 1.577
368.60 1.576
368.70 1.574
368.80 1.573
368.90 1.572
369.00 1.571
369.10 1.57
369.20 1.569
369.30 1.568
369.40 1.566
369.50 1.565
369.60 1.564
369.70 1.563
369.80 1.562
369.90 1.561
370.00 1.56
370.10 1.558
370.20 1.557
370.30 1.556
370.40 1.555
370.50 1.554
370.60 1.553
370.70 1.552
370.80 1.551
370.90 1.55
371.00 1.549
371.10 1.548
371.20 1.547
371.30 1.546
371.40 1.545
371.50 1.544
371.60 1.543
371.70 1.542
371.80 1.54
371.90 1.539
372.00 1.538
372.10 1.537
372.20 1.537
372.30 1.536
372.40 1.535
372.50 1.534
372.60 1.533
372.70 1.532
372.80 1.531
372.90 1.531
373.00 1.53
373.10 1.529
373.20 1.528
373.30 1.527
373.40 1.526
373.50 1.525
373.60 1.525
373.70 1.524
373.80 1.523
373.90 1.522
374.00 1.521
374.10 1.52
374.20 1.52
374.30 1.519
374.40 1.518
374.50 1.518
374.60 1.517
374.70 1.516
374.80 1.516
374.90 1.515
375.00 1.514
375.10 1.514
375.20 1.513
375.30 1.512
375.40 1.512
375.50 1.511
375.60 1.51
375.70 1.51
375.80 1.509
375.90 1.508
376.00 1.507
376.10 1.507
376.20 1.506
376.30 1.505
376.40 1.505
376.50 1.504
376.60 1.504
376.70 1.503
376.80 1.502
376.90 1.502
377.00 1.501
377.10 1.5
377.20 1.499
377.30 1.498
377.40 1.497
377.50 1.496
377.60 1.496
377.70 1.495
377.80 1.494
377.90 1.493
378.00 1.492
378.10 1.49
378.20 1.489
378.30 1.487
378.40 1.485
378.50 1.484
378.60 1.482
378.70 1.481
378.80 1.479
378.90 1.477
379.00 1.476
379.10 1.474
379.20 1.473
379.30 1.472
379.40 1.471
379.50 1.47
379.60 1.469
379.70 1.467
379.80 1.466
379.90 1.465
380.00 1.464
380.10 1.464
380.20 1.465
380.30 1.465
380.40 1.466
380.50 1.466
380.60 1.467
380.70 1.467
380.80 1.467
380.90 1.468
381.00 1.468
381.10 1.468
381.20 1.468
381.30 1.468
381.40 1.467
381.50 1.467
381.60 1.466
381.70 1.465
381.80 1.464
381.90 1.463
382.00 1.461
382.10 1.46
382.20 1.457
382.30 1.454
382.40 1.451
382.50 1.448
382.60 1.444
382.70 1.441
382.80 1.438
382.90 1.434
383.00 1.431
383.10 1.428
383.20 1.424
383.30 1.423
383.40 1.42
383.50 1.418
383.60 1.418
383.70 1.42
383.80 1.422
383.90 1.424
384.00 1.426
384.10 1.43
384.20 1.433
384.30 1.437
384.40 1.44
384.50 1.443
384.60 1.446
384.70 1.448
384.80 1.451
384.90 1.452
385.00 1.454
385.10 1.455
385.20 1.456
385.30 1.456
385.40 1.456
385.50 1.456
385.60 1.456
385.70 1.456
385.80 1.455
385.90 1.454
386.00 1.453
386.10 1.452
386.20 1.45
386.30 1.448
386.40 1.446
386.50 1.444
386.60 1.441
386.70 1.439
386.80 1.436
386.90 1.433
387.00 1.43
387.10 1.426
387.20 1.422
387.30 1.418
387.40 1.414
387.50 1.409
387.60 1.403
387.70 1.398
387.80 1.392
387.90 1.386
388.00 1.379
388.10 1.372
388.20 1.364
388.30 1.355
388.40 1.346
388.50 1.337
388.60 1.33
388.70 1.325
388.80 1.322
388.90 1.318
389.00 1.321
389.10 1.325
389.20 1.329
389.30 1.336
389.40 1.345
389.50 1.354
389.60 1.363
389.70 1.371
389.80 1.379
389.90 1.385
390.00 1.391
390.10 1.397
390.20 1.403
390.30 1.408
390.40 1.414
390.50 1.418
390.60 1.423
390.70 1.426
390.80 1.43
390.90 1.433
391.00 1.437
391.10 1.439
391.20 1.442
391.30 1.445
391.40 1.447
391.50 1.449
391.60 1.451
391.70 1.452
391.80 1.454
391.90 1.455
392.00 1.455
392.10 1.456
392.20 1.456
392.30 1.456
392.40 1.455
392.50 1.454
392.60 1.453
392.70 1.452
392.80 1.45
392.90 1.448
393.00 1.446
393.10 1.444
393.20 1.441
393.30 1.438
393.40 1.434
393.50 1.43
393.60 1.426
393.70 1.422
393.80 1.417
393.90 1.412
394.00 1.407
394.10 1.401
394.20 1.395
394.30 1.388
394.40 1.381
394.50 1.374
394.60 1.367
394.70 1.359
394.80 1.351
394.90 1.343
395.00 1.334
395.10 1.326
395.20 1.317
395.30 1.307
395.40 1.298
395.50 1.287
395.60 1.276
395.70 1.264
395.80 1.253
395.90 1.241
396.00 1.229
396.10 1.218
396.20 1.204
396.30 1.19
396.40 1.174
396.50 1.155
396.60 1.136
396.70 1.116
396.80 1.102
396.90 1.088
397.00 1.075
397.10 1.087
397.20 1.099
397.30 1.112
397.40 1.132
397.50 1.15
397.60 1.169
397.70 1.184
397.80 1.199
397.90 1.212
398.00 1.223
398.10 1.235
398.20 1.246
398.30 1.258
398.40 1.269
398.50 1.281
398.60 1.291
398.70 1.301
398.80 1.31
398.90 1.32
399.00 1.328
399.10 1.337
399.20 1.346
399.30 1.354
399.40 1.362
399.50 1.37
399.60 1.378
399.70 1.385
399.80 1.393
399.90 1.4
400.00 1.406
400.10 1.413
400.20 1.419
400.30 1.425
400.40 1.43
400.50 1.436
400.60 1.441
400.70 1.445
400.80 1.45
400.90 1.454
401.00 1.458
401.10 1.462
401.20 1.466
401.30 1.469
401.40 1.472
401.50 1.476
401.60 1.478
401.70 1.481
401.80 1.483
401.90 1.485
402.00 1.487
402.10 1.489
402.20 1.49
402.30 1.491
402.40 1.492
402.50 1.493
402.60 1.493
402.70 1.494
402.80 1.494
402.90 1.494
403.00 1.493
403.10 1.493
403.20 1.492
403.30 1.491
403.40 1.49
403.50 1.488
403.60 1.487
403.70 1.485
403.80 1.483
403.90 1.48
404.00 1.478
404.10 1.475
404.20 1.472
404.30 1.468
404.40 1.465
404.50 1.461
404.60 1.457
404.70 1.453
404.80 1.449
404.90 1.444
405.00 1.439
405.10 1.434
405.20 1.429
405.30 1.423
405.40 1.418
405.50 1.411
405.60 1.405
405.70 1.399
405.80 1.392
405.90 1.385
406.00 1.378
406.10 1.37
406.20 1.363
406.30 1.355
406.40 1.346
406.50 1.338
406.60 1.329
406.70 1.32
406.80 1.311
406.90 1.301
407.00 1.291
407.10 1.281
407.20 1.271
407.30 1.26
407.40 1.249
407.50 1.237
407.60 1.226
407.70 1.214
407.80 1.202
407.90 1.189
408.00 1.176
408.10 1.163
408.20 1.15
408.30 1.137
408.40 1.123
408.50 1.109
408.60 1.094
408.70 1.079
408.80 1.063
408.90 1.048
409.00 1.032
409.10 1.016
409.20 1
409.30 0.9839
409.40 0.9671
409.50 0.9494
409.60 0.9307
409.70 0.9093
409.80 0.8869
409.90 0.8635
410.00 0.8438
410.10 0.8303
410.20 0.8232
410.30 0.8355
410.40 0.8523
410.50 0.8738
410.60 0.8959
410.70 0.9167
410.80 0.9363
410.90 0.9532
411.00 0.9694
411.10 0.9849
411.20 0.9998
411.30 1.015
411.40 1.03
411.50 1.044
411.60 1.059
411.70 1.073
411.80 1.087
411.90 1.1
412.00 1.113
412.10 1.126
412.20 1.138
412.30 1.15
412.40 1.162
412.50 1.173
412.60 1.185
412.70 1.196
412.80 1.206
412.90 1.217
413.00 1.227
413.10 1.237
413.20 1.247
413.30 1.257
413.40 1.266
413.50 1.275
413.60 1.284
413.70 1.292
413.80 1.301
413.90 1.309
414.00 1.317
414.10 1.324
414.20 1.332
414.30 1.339
414.40 1.346
414.50 1.353
414.60 1.36
414.70 1.367
414.80 1.373
414.90 1.379
415.00 1.386
415.10 1.392
415.20 1.397
415.30 1.403
415.40 1.409
415.50 1.414
415.60 1.419
415.70 1.425
415.80 1.43
415.90 1.434
416.00 1.439
416.10 1.444
416.20 1.448
416.30 1.453
416.40 1.457
416.50 1.461
416.60 1.465
416.70 1.469
416.80 1.472
416.90 1.476
417.00 1.479
417.10 1.483
417.20 1.486
417.30 1.489
417.40 1.492
417.50 1.495
417.60 1.498
417.70 1.501
417.80 1.503
417.90 1.506
418.00 1.508
418.10 1.511
418.20 1.513
418.30 1.515
418.40 1.517
418.50 1.519
418.60 1.521
418.70 1.522
418.80 1.524
418.90 1.526
419.00 1.527
419.10 1.529
419.20 1.53
419.30 1.531
419.40 1.532
419.50 1.533
419.60 1.534
419.70 1.535
419.80 1.536
419.90 1.536
420.00 1.537
420.10 1.538
420.20 1.538
420.30 1.538
420.40 1.539
420.50 1.539
420.60 1.539
420.70 1.539
420.80 1.539
420.90 1.539
421.00 1.539
421.10 1.538
421.20 1.538
421.30 1.537
421.40 1.537
421.50 1.536
421.60 1.536
421.70 1.535
421.80 1.534
421.90 1.533
422.00 1.532
422.10 1.531
422.20 1.53
422.30 1.528
422.40 1.527
422.50 1.526
422.60 1.524
422.70 1.523
422.80 1.521
422.90 1.519
423.00 1.518
423.10 1.516
423.20 1.514
423.30 1.512
423.40 1.51
423.50 1.508
423.60 1.505
423.70 1.503
423.80 1.5
423.90 1.498
424.00 1.495
424.10 1.493
424.20 1.49
424.30 1.487
424.40 1.484
424.50 1.481
424.60 1.478
424.70 1.475
424.80 1.472
424.90 1.469
425.00 1.465
425.10 1.462
425.20 1.458
425.30 1.455
425.40 1.451
425.50 1.447
425.60 1.443
425.70 1.439
425.80 1.435
425.90 1.431
426.00 1.427
426.10 1.422
426.20 1.417
426.30 1.412
426.40 1.407
426.50 1.403
426.60 1.398
426.70 1.393
426.80 1.388
426.90 1.383
427.00 1.378
427.10 1.372
427.20 1.367
427.30 1.362
427.40 1.356
427.50 1.35
427.60 1.345
427.70 1.339
427.80 1.333
427.90 1.327
428.00 1.321
428.10 1.314
428.20 1.308
428.30 1.302
428.40 1.295
428.50 1.288
428.60 1.281
428.70 1.274
428.80 1.267
428.90 1.26
429.00 1.253
429.10 1.246
429.20 1.238
429.30 1.23
429.40 1.223
429.50 1.215
429.60 1.207
429.70 1.199
429.80 1.19
429.90 1.182
430.00 1.173
430.10 1.164
430.20 1.155
430.30 1.146
430.40 1.137
430.50 1.128
430.60 1.118
430.70 1.109
430.80 1.099
430.90 1.089
431.00 1.078
431.10 1.068
431.20 1.057
431.30 1.046
431.40 1.035
431.50 1.024
431.60 1.013
431.70 1.001
431.80 0.989
431.90 0.9768
432.00 0.9643
432.10 0.9517
432.20 0.9386
432.30 0.9253
432.40 0.9117
432.50 0.8975
432.60 0.8829
432.70 0.8681
432.80 0.8528
432.90 0.8375
433.00 0.8221
433.10 0.8069
433.20 0.7919
433.30 0.7769
433.40 0.7618
433.50 0.7458
433.60 0.729
433.70 0.7068
433.80 0.6799
433.90 0.6481
434.00 0.611
434.10 0.6116
434.20 0.65
434.30 0.6807
434.40 0.7066
434.50 0.7277
434.60 0.7436
434.70 0.7587
434.80 0.7731
434.90 0.7872
435.00 0.8014
435.10 0.8157
435.20 0.8301
435.30 0.8444
435.40 0.8587
435.50 0.8724
435.60 0.8859
435.70 0.8989
435.80 0.9114
435.90 0.9235
436.00 0.9354
436.10 0.9468
436.20 0.958
436.30 0.9689
436.40 0.9795
436.50 0.9899
436.60 1
436.70 1.01
436.80 1.02
436.90 1.029
437.00 1.038
437.10 1.047
437.20 1.056
437.30 1.065
437.40 1.073
437.50 1.081
437.60 1.089
437.70 1.097
437.80 1.105
437.90 1.113
438.00 1.12
438.10 1.127
438.20 1.134
438.30 1.141
438.40 1.148
438.50 1.154
438.60 1.161
438.70 1.167
438.80 1.173
438.90 1.18
439.00 1.185
439.10 1.191
439.20 1.197
439.30 1.203
439.40 1.208
439.50 1.213
439.60 1.219
439.70 1.224
439.80 1.229
439.90 1.234
440.00 1.238
440.10 1.243
440.20 1.248
440.30 1.252
440.40 1.257
440.50 1.261
440.60 1.265
440.70 1.269
440.80 1.274
440.90 1.277
441.00 1.281
441.10 1.285
441.20 1.289
441.30 1.292
441.40 1.296
441.50 1.3
441.60 1.303
441.70 1.306
441.80 1.309
441.90 1.313
442.00 1.316
442.10 1.319
442.20 1.322
442.30 1.325
442.40 1.327
442.50 1.33
442.60 1.333
442.70 1.335
442.80 1.338
442.90 1.34
443.00 1.343
443.10 1.345
443.20 1.348
443.30 1.35
443.40 1.352
443.50 1.354
443.60 1.356
443.70 1.358
443.80 1.36
443.90 1.362
444.00 1.364
444.10 1.366
444.20 1.368
444.30 1.369
444.40 1.371
444.50 1.373
444.60 1.374
444.70 1.376
444.80 1.377
444.90 1.379
445.00 1.38
445.10 1.382
445.20 1.383
445.30 1.384
445.40 1.385
445.50 1.387
445.60 1.388
445.70 1.389
445.80 1.39
445.90 1.391
446.00 1.392
446.10 1.393
446.20 1.394
446.30 1.395
446.40 1.396
446.50 1.397
446.60 1.397
446.70 1.398
446.80 1.399
446.90 1.4
447.00 1.4
447.10 1.401
447.20 1.402
447.30 1.402
447.40 1.403
447.50 1.403
447.60 1.404
447.70 1.404
447.80 1.405
447.90 1.405
448.00 1.405
448.10 1.406
448.20 1.406
448.30 1.406
448.40 1.407
448.50 1.407
448.60 1.407
448.70 1.407
448.80 1.408
448.90 1.408
449.00 1.408
449.10 1.409
449.20 1.409
449.30 1.409
449.40 1.409
449.50 1.409
449.60 1.409
449.70 1.409
449.80 1.409
449.90 1.409
450.00 1.409
450.10 1.409
450.20 1.409
450.30 1.409
450.40 1.409
450.50 1.409
450.60 1.409
450.70 1.408
450.80 1.408
450.90 1.408
451.00 1.408
451.10 1.408
451.20 1.407
451.30 1.407
451.40 1.407
451.50 1.407
451.60 1.406
451.70 1.406
451.80 1.406
451.90 1.406
452.00 1.405
452.10 1.405
452.20 1.405
452.30 1.404
452.40 1.404
452.50 1.403
452.60 1.403
452.70 1.402
452.80 1.402
452.90 1.402
453.00 1.401
453.10 1.401
453.20 1.4
453.30 1.4
453.40 1.399
453.50 1.399
