# Version 2.1 - nm, norm@500 to 1, cut digits, bergeron_1500_75.dat_1500
# Wavelength(nm)  Flambda(ergs/cm^s/s/nm)
300.00 0.01163
300.10 0.01168
300.20 0.01174
300.30 0.0118
300.40 0.01186
300.50 0.01192
300.60 0.01198
300.70 0.01204
300.80 0.01209
300.90 0.01215
301.00 0.01221
301.10 0.01227
301.20 0.01233
301.30 0.01238
301.40 0.01244
301.50 0.0125
301.60 0.01256
301.70 0.01262
301.80 0.01267
301.90 0.01273
302.00 0.01279
302.10 0.01285
302.20 0.01291
302.30 0.01298
302.40 0.01304
302.50 0.0131
302.60 0.01316
302.70 0.01322
302.80 0.01329
302.90 0.01335
303.00 0.01341
303.10 0.01347
303.20 0.01353
303.30 0.01359
303.40 0.01366
303.50 0.01372
303.60 0.01378
303.70 0.01384
303.80 0.0139
303.90 0.01396
304.00 0.01403
304.10 0.01409
304.20 0.01416
304.30 0.01422
304.40 0.01429
304.50 0.01435
304.60 0.01442
304.70 0.01449
304.80 0.01455
304.90 0.01462
305.00 0.01468
305.10 0.01475
305.20 0.01481
305.30 0.01488
305.40 0.01495
305.50 0.01501
305.60 0.01508
305.70 0.01514
305.80 0.01521
305.90 0.01527
306.00 0.01534
306.10 0.01541
306.20 0.01548
306.30 0.01555
306.40 0.01562
306.50 0.01569
306.60 0.01576
306.70 0.01583
306.80 0.0159
306.90 0.01597
307.00 0.01604
307.10 0.01611
307.20 0.01618
307.30 0.01625
307.40 0.01632
307.50 0.01638
307.60 0.01645
307.70 0.01652
307.80 0.01659
307.90 0.01666
308.00 0.01673
308.10 0.01681
308.20 0.01688
308.30 0.01695
308.40 0.01703
308.50 0.0171
308.60 0.01718
308.70 0.01725
308.80 0.01733
308.90 0.0174
309.00 0.01747
309.10 0.01755
309.20 0.01762
309.30 0.0177
309.40 0.01777
309.50 0.01784
309.60 0.01792
309.70 0.01799
309.80 0.01806
309.90 0.01814
310.00 0.01821
310.10 0.01829
310.20 0.01837
310.30 0.01845
310.40 0.01853
310.50 0.01861
310.60 0.01869
310.70 0.01877
310.80 0.01885
310.90 0.01893
311.00 0.019
311.10 0.01908
311.20 0.01916
311.30 0.01924
311.40 0.01932
311.50 0.0194
311.60 0.01948
311.70 0.01955
311.80 0.01963
311.90 0.01971
312.00 0.01979
312.10 0.01987
312.20 0.01995
312.30 0.02003
312.40 0.02011
312.50 0.0202
312.60 0.02028
312.70 0.02037
312.80 0.02045
312.90 0.02053
313.00 0.02062
313.10 0.0207
313.20 0.02078
313.30 0.02087
313.40 0.02095
313.50 0.02103
313.60 0.02112
313.70 0.0212
313.80 0.02128
313.90 0.02137
314.00 0.02145
314.10 0.02154
314.20 0.02163
314.30 0.02172
314.40 0.02181
314.50 0.0219
314.60 0.02198
314.70 0.02207
314.80 0.02216
314.90 0.02225
315.00 0.02234
315.10 0.02243
315.20 0.02252
315.30 0.0226
315.40 0.02269
315.50 0.02278
315.60 0.02287
315.70 0.02296
315.80 0.02304
315.90 0.02313
316.00 0.02322
316.10 0.02331
316.20 0.02341
316.30 0.0235
316.40 0.0236
316.50 0.02369
316.60 0.02379
316.70 0.02388
316.80 0.02397
316.90 0.02407
317.00 0.02416
317.10 0.02425
317.20 0.02435
317.30 0.02444
317.40 0.02453
317.50 0.02463
317.60 0.02472
317.70 0.02481
317.80 0.02491
317.90 0.025
318.00 0.0251
318.10 0.02519
318.20 0.02529
318.30 0.02539
318.40 0.02549
318.50 0.02559
318.60 0.02569
318.70 0.02579
318.80 0.02589
318.90 0.02599
319.00 0.02609
319.10 0.02619
319.20 0.02629
319.30 0.02639
319.40 0.02649
319.50 0.02658
319.60 0.02668
319.70 0.02678
319.80 0.02688
319.90 0.02698
320.00 0.02708
320.10 0.02718
320.20 0.02729
320.30 0.02739
320.40 0.0275
320.50 0.02761
320.60 0.02771
320.70 0.02782
320.80 0.02792
320.90 0.02803
321.00 0.02813
321.10 0.02824
321.20 0.02834
321.30 0.02845
321.40 0.02855
321.50 0.02866
321.60 0.02876
321.70 0.02886
321.80 0.02897
321.90 0.02907
322.00 0.02918
322.10 0.02929
322.20 0.0294
322.30 0.02951
322.40 0.02962
322.50 0.02974
322.60 0.02985
322.70 0.02996
322.80 0.03007
322.90 0.03018
323.00 0.03029
323.10 0.0304
323.20 0.03051
323.30 0.03062
323.40 0.03073
323.50 0.03084
323.60 0.03095
323.70 0.03106
323.80 0.03117
323.90 0.03129
324.00 0.0314
324.10 0.03151
324.20 0.03163
324.30 0.03175
324.40 0.03187
324.50 0.03198
324.60 0.0321
324.70 0.03222
324.80 0.03234
324.90 0.03246
325.00 0.03257
325.10 0.03269
325.20 0.03281
325.30 0.03292
325.40 0.03304
325.50 0.03316
325.60 0.03327
325.70 0.03339
325.80 0.0335
325.90 0.03362
326.00 0.03374
326.10 0.03386
326.20 0.03399
326.30 0.03411
326.40 0.03424
326.50 0.03436
326.60 0.03448
326.70 0.03461
326.80 0.03473
326.90 0.03486
327.00 0.03498
327.10 0.0351
327.20 0.03523
327.30 0.03535
327.40 0.03547
327.50 0.0356
327.60 0.03572
327.70 0.03584
327.80 0.03596
327.90 0.03609
328.00 0.03621
328.10 0.03634
328.20 0.03647
328.30 0.0366
328.40 0.03673
328.50 0.03686
328.60 0.037
328.70 0.03713
328.80 0.03726
328.90 0.03739
329.00 0.03752
329.10 0.03765
329.20 0.03778
329.30 0.03791
329.40 0.03804
329.50 0.03817
329.60 0.0383
329.70 0.03842
329.80 0.03855
329.90 0.03868
330.00 0.03881
330.10 0.03895
330.20 0.03909
330.30 0.03923
330.40 0.03936
330.50 0.0395
330.60 0.03964
330.70 0.03978
330.80 0.03992
330.90 0.04005
331.00 0.04019
331.10 0.04033
331.20 0.04046
331.30 0.0406
331.40 0.04074
331.50 0.04087
331.60 0.04101
331.70 0.04115
331.80 0.04128
331.90 0.04142
332.00 0.04155
332.10 0.0417
332.20 0.04184
332.30 0.04199
332.40 0.04214
332.50 0.04228
332.60 0.04243
332.70 0.04257
332.80 0.04272
332.90 0.04286
333.00 0.043
333.10 0.04315
333.20 0.04329
333.30 0.04344
333.40 0.04358
333.50 0.04372
333.60 0.04387
333.70 0.04401
333.80 0.04415
333.90 0.04429
334.00 0.04444
334.10 0.04459
334.20 0.04474
334.30 0.0449
334.40 0.04505
334.50 0.0452
334.60 0.04535
334.70 0.04551
334.80 0.04566
334.90 0.04581
335.00 0.04596
335.10 0.04611
335.20 0.04626
335.30 0.04641
335.40 0.04656
335.50 0.04671
335.60 0.04687
335.70 0.04702
335.80 0.04717
335.90 0.04731
336.00 0.04746
336.10 0.04763
336.20 0.04779
336.30 0.04795
336.40 0.04811
336.50 0.04827
336.60 0.04843
336.70 0.04859
336.80 0.04875
336.90 0.0489
337.00 0.04906
337.10 0.04922
337.20 0.04938
337.30 0.04954
337.40 0.0497
337.50 0.04986
337.60 0.05001
337.70 0.05017
337.80 0.05033
337.90 0.05049
338.00 0.05064
338.10 0.05081
338.20 0.05098
338.30 0.05115
338.40 0.05132
338.50 0.05149
338.60 0.05165
338.70 0.05182
338.80 0.05199
338.90 0.05216
339.00 0.05232
339.10 0.05249
339.20 0.05266
339.30 0.05282
339.40 0.05299
339.50 0.05315
339.60 0.05332
339.70 0.05349
339.80 0.05365
339.90 0.05382
340.00 0.05398
340.10 0.05416
340.20 0.05433
340.30 0.05451
340.40 0.05469
340.50 0.05486
340.60 0.05504
340.70 0.05521
340.80 0.05539
340.90 0.05556
341.00 0.05574
341.10 0.05591
341.20 0.05609
341.30 0.05626
341.40 0.05644
341.50 0.05661
341.60 0.05678
341.70 0.05696
341.80 0.05713
341.90 0.0573
342.00 0.05748
342.10 0.05766
342.20 0.05785
342.30 0.05803
342.40 0.05821
342.50 0.0584
342.60 0.05858
342.70 0.05877
342.80 0.05895
342.90 0.05913
343.00 0.05932
343.10 0.0595
343.20 0.05968
343.30 0.05986
343.40 0.06005
343.50 0.06023
343.60 0.06041
343.70 0.06059
343.80 0.06077
343.90 0.06095
344.00 0.06113
344.10 0.06133
344.20 0.06152
344.30 0.06171
344.40 0.06191
344.50 0.0621
344.60 0.06229
344.70 0.06248
344.80 0.06267
344.90 0.06287
345.00 0.06306
345.10 0.06325
345.20 0.06344
345.30 0.06363
345.40 0.06382
345.50 0.06401
345.60 0.0642
345.70 0.06439
345.80 0.06458
345.90 0.06477
346.00 0.06496
346.10 0.06516
346.20 0.06536
346.30 0.06556
346.40 0.06577
346.50 0.06597
346.60 0.06617
346.70 0.06637
346.80 0.06657
346.90 0.06677
347.00 0.06697
347.10 0.06717
347.20 0.06737
347.30 0.06757
347.40 0.06777
347.50 0.06797
347.60 0.06816
347.70 0.06836
347.80 0.06856
347.90 0.06876
348.00 0.06896
348.10 0.06917
348.20 0.06938
348.30 0.06959
348.40 0.0698
348.50 0.07001
348.60 0.07022
348.70 0.07043
348.80 0.07064
348.90 0.07085
349.00 0.07105
349.10 0.07126
349.20 0.07147
349.30 0.07168
349.40 0.07189
349.50 0.07209
349.60 0.0723
349.70 0.07251
349.80 0.07271
349.90 0.07292
350.00 0.07313
350.10 0.07335
350.20 0.07357
350.30 0.07379
350.40 0.07401
350.50 0.07423
350.60 0.07444
350.70 0.07466
350.80 0.07488
350.90 0.0751
351.00 0.07532
351.10 0.07553
351.20 0.07575
351.30 0.07597
351.40 0.07619
351.50 0.0764
351.60 0.07662
351.70 0.07683
351.80 0.07705
351.90 0.07727
352.00 0.07748
352.10 0.07771
352.20 0.07794
352.30 0.07817
352.40 0.0784
352.50 0.07862
352.60 0.07885
352.70 0.07908
352.80 0.07931
352.90 0.07954
353.00 0.07976
353.10 0.07999
353.20 0.08021
353.30 0.08044
353.40 0.08067
353.50 0.08089
353.60 0.08112
353.70 0.08134
353.80 0.08157
353.90 0.08179
354.00 0.08202
354.10 0.08226
354.20 0.08249
354.30 0.08273
354.40 0.08297
354.50 0.08321
354.60 0.08345
354.70 0.08368
354.80 0.08392
354.90 0.08416
355.00 0.08439
355.10 0.08463
355.20 0.08486
355.30 0.0851
355.40 0.08533
355.50 0.08557
355.60 0.0858
355.70 0.08604
355.80 0.08627
355.90 0.08651
356.00 0.08674
356.10 0.08699
356.20 0.08724
356.30 0.08748
356.40 0.08773
356.50 0.08798
356.60 0.08823
356.70 0.08847
356.80 0.08872
356.90 0.08897
357.00 0.08921
357.10 0.08946
357.20 0.0897
357.30 0.08995
357.40 0.09019
357.50 0.09044
357.60 0.09068
357.70 0.09093
357.80 0.09117
357.90 0.09141
358.00 0.09166
358.10 0.09191
358.20 0.09217
358.30 0.09243
358.40 0.09269
358.50 0.09294
358.60 0.0932
358.70 0.09346
358.80 0.09371
358.90 0.09397
359.00 0.09422
359.10 0.09448
359.20 0.09473
359.30 0.09499
359.40 0.09524
359.50 0.0955
359.60 0.09575
359.70 0.096
359.80 0.09626
359.90 0.09651
360.00 0.09676
360.10 0.09703
360.20 0.0973
360.30 0.09756
360.40 0.09783
360.50 0.0981
360.60 0.09837
360.70 0.09863
360.80 0.0989
360.90 0.09916
361.00 0.09943
361.10 0.0997
361.20 0.09996
361.30 0.1002
361.40 0.1005
361.50 0.1008
361.60 0.101
361.70 0.1013
361.80 0.1015
361.90 0.1018
362.00 0.1021
362.10 0.1023
362.20 0.1026
362.30 0.1029
362.40 0.1032
362.50 0.1034
362.60 0.1037
362.70 0.104
362.80 0.1043
362.90 0.1045
363.00 0.1048
363.10 0.1051
363.20 0.1054
363.30 0.1056
363.40 0.1059
363.50 0.1062
363.60 0.1065
363.70 0.1068
363.80 0.107
363.90 0.1073
364.00 0.1076
364.10 0.1079
364.20 0.1082
364.30 0.1084
364.40 0.1087
364.50 0.109
364.60 0.1093
364.70 0.1096
364.80 0.1099
364.90 0.1101
365.00 0.1104
365.10 0.1107
365.20 0.111
365.30 0.1113
365.40 0.1116
365.50 0.1119
365.60 0.1121
365.70 0.1124
365.80 0.1127
365.90 0.113
366.00 0.1133
366.10 0.1136
366.20 0.1139
366.30 0.1142
366.40 0.1145
366.50 0.1148
366.60 0.1151
366.70 0.1154
366.80 0.1157
366.90 0.116
367.00 0.1163
367.10 0.1166
367.20 0.1169
367.30 0.1172
367.40 0.1174
367.50 0.1177
367.60 0.118
367.70 0.1183
367.80 0.1186
367.90 0.1189
368.00 0.1192
368.10 0.1195
368.20 0.1198
368.30 0.1201
368.40 0.1204
368.50 0.1208
368.60 0.1211
368.70 0.1214
368.80 0.1217
368.90 0.122
369.00 0.1223
369.10 0.1226
369.20 0.1229
369.30 0.1232
369.40 0.1235
369.50 0.1238
369.60 0.1241
369.70 0.1244
369.80 0.1247
369.90 0.125
370.00 0.1253
370.10 0.1257
370.20 0.126
370.30 0.1263
370.40 0.1266
370.50 0.1269
370.60 0.1273
370.70 0.1276
370.80 0.1279
370.90 0.1282
371.00 0.1285
371.10 0.1288
371.20 0.1292
371.30 0.1295
371.40 0.1298
371.50 0.1301
371.60 0.1304
371.70 0.1307
371.80 0.1311
371.90 0.1314
372.00 0.1317
372.10 0.132
372.20 0.1323
372.30 0.1327
372.40 0.133
372.50 0.1333
372.60 0.1337
372.70 0.134
372.80 0.1343
372.90 0.1347
373.00 0.135
373.10 0.1353
373.20 0.1356
373.30 0.136
373.40 0.1363
373.50 0.1366
373.60 0.1369
373.70 0.1373
373.80 0.1376
373.90 0.1379
374.00 0.1382
374.10 0.1386
374.20 0.1389
374.30 0.1393
374.40 0.1396
374.50 0.14
374.60 0.1403
374.70 0.1406
374.80 0.141
374.90 0.1413
375.00 0.1417
375.10 0.142
375.20 0.1423
375.30 0.1427
375.40 0.143
375.50 0.1433
375.60 0.1437
375.70 0.144
375.80 0.1444
375.90 0.1447
376.00 0.145
376.10 0.1454
376.20 0.1457
376.30 0.1461
376.40 0.1464
376.50 0.1468
376.60 0.1471
376.70 0.1475
376.80 0.1478
376.90 0.1481
377.00 0.1485
377.10 0.1488
377.20 0.1492
377.30 0.1496
377.40 0.1499
377.50 0.1503
377.60 0.1506
377.70 0.151
377.80 0.1513
377.90 0.1517
378.00 0.152
378.10 0.1524
378.20 0.1527
378.30 0.1531
378.40 0.1535
378.50 0.1538
378.60 0.1542
378.70 0.1545
378.80 0.1549
378.90 0.1553
379.00 0.1556
379.10 0.156
379.20 0.1563
379.30 0.1567
379.40 0.1571
379.50 0.1574
379.60 0.1578
379.70 0.1582
379.80 0.1585
379.90 0.1589
380.00 0.1592
380.10 0.1596
380.20 0.16
380.30 0.1604
380.40 0.1607
380.50 0.1611
380.60 0.1615
380.70 0.1618
380.80 0.1622
380.90 0.1626
381.00 0.1629
381.10 0.1633
381.20 0.1637
381.30 0.1641
381.40 0.1644
381.50 0.1648
381.60 0.1652
381.70 0.1656
381.80 0.1659
381.90 0.1663
382.00 0.1667
382.10 0.1671
382.20 0.1675
382.30 0.1678
382.40 0.1682
382.50 0.1686
382.60 0.169
382.70 0.1694
382.80 0.1698
382.90 0.1701
383.00 0.1705
383.10 0.1709
383.20 0.1713
383.30 0.1717
383.40 0.1721
383.50 0.1724
383.60 0.1728
383.70 0.1732
383.80 0.1736
383.90 0.174
384.00 0.1744
384.10 0.1748
384.20 0.1752
384.30 0.1756
384.40 0.1759
384.50 0.1763
384.60 0.1767
384.70 0.1771
384.80 0.1775
384.90 0.1779
385.00 0.1783
385.10 0.1787
385.20 0.1791
385.30 0.1795
385.40 0.1799
385.50 0.1803
385.60 0.1807
385.70 0.1811
385.80 0.1815
385.90 0.1819
386.00 0.1823
386.10 0.1827
386.20 0.1831
386.30 0.1835
386.40 0.1839
386.50 0.1843
386.60 0.1847
386.70 0.1851
386.80 0.1855
386.90 0.1859
387.00 0.1863
387.10 0.1867
387.20 0.1872
387.30 0.1876
387.40 0.188
387.50 0.1884
387.60 0.1888
387.70 0.1892
387.80 0.1896
387.90 0.19
388.00 0.1904
388.10 0.1908
388.20 0.1913
388.30 0.1917
388.40 0.1921
388.50 0.1925
388.60 0.1929
388.70 0.1933
388.80 0.1938
388.90 0.1942
389.00 0.1946
389.10 0.195
389.20 0.1954
389.30 0.1959
389.40 0.1963
389.50 0.1967
389.60 0.1971
389.70 0.1975
389.80 0.198
389.90 0.1984
390.00 0.1988
390.10 0.1992
390.20 0.1997
390.30 0.2001
390.40 0.2005
390.50 0.2009
390.60 0.2014
390.70 0.2018
390.80 0.2022
390.90 0.2027
391.00 0.2031
391.10 0.2035
391.20 0.204
391.30 0.2044
391.40 0.2048
391.50 0.2052
391.60 0.2057
391.70 0.2061
391.80 0.2066
391.90 0.207
392.00 0.2074
392.10 0.2079
392.20 0.2083
392.30 0.2087
392.40 0.2092
392.50 0.2096
392.60 0.2101
392.70 0.2105
392.80 0.2109
392.90 0.2114
393.00 0.2118
393.10 0.2123
393.20 0.2127
393.30 0.2131
393.40 0.2136
393.50 0.214
393.60 0.2145
393.70 0.2149
393.80 0.2154
393.90 0.2158
394.00 0.2163
394.10 0.2167
394.20 0.2172
394.30 0.2176
394.40 0.2181
394.50 0.2185
394.60 0.219
394.70 0.2194
394.80 0.2199
394.90 0.2203
395.00 0.2208
395.10 0.2212
395.20 0.2217
395.30 0.2222
395.40 0.2226
395.50 0.2231
395.60 0.2235
395.70 0.224
395.80 0.2244
395.90 0.2249
396.00 0.2254
396.10 0.2258
396.20 0.2263
396.30 0.2267
396.40 0.2272
396.50 0.2277
396.60 0.2281
396.70 0.2286
396.80 0.2291
396.90 0.2295
397.00 0.23
397.10 0.2305
397.20 0.2309
397.30 0.2314
397.40 0.2319
397.50 0.2323
397.60 0.2328
397.70 0.2333
397.80 0.2337
397.90 0.2342
398.00 0.2347
398.10 0.2352
398.20 0.2356
398.30 0.2361
398.40 0.2366
398.50 0.2371
398.60 0.2375
398.70 0.238
398.80 0.2385
398.90 0.239
399.00 0.2394
399.10 0.2399
399.20 0.2404
399.30 0.2409
399.40 0.2414
399.50 0.2418
399.60 0.2423
399.70 0.2428
399.80 0.2433
399.90 0.2438
400.00 0.2443
400.10 0.2447
400.20 0.2452
400.30 0.2457
400.40 0.2462
400.50 0.2467
400.60 0.2472
400.70 0.2477
400.80 0.2481
400.90 0.2486
401.00 0.2491
401.10 0.2496
401.20 0.2501
401.30 0.2506
401.40 0.2511
401.50 0.2516
401.60 0.2521
401.70 0.2526
401.80 0.2531
401.90 0.2536
402.00 0.2541
402.10 0.2546
402.20 0.2551
402.30 0.2556
402.40 0.256
402.50 0.2565
402.60 0.2571
402.70 0.2576
402.80 0.2581
402.90 0.2586
403.00 0.2591
403.10 0.2596
403.20 0.2601
403.30 0.2606
403.40 0.2611
403.50 0.2616
403.60 0.2621
403.70 0.2626
403.80 0.2631
403.90 0.2636
404.00 0.2641
404.10 0.2646
404.20 0.2651
404.30 0.2656
404.40 0.2661
404.50 0.2667
404.60 0.2672
404.70 0.2677
404.80 0.2682
404.90 0.2687
405.00 0.2692
405.10 0.2697
405.20 0.2703
405.30 0.2708
405.40 0.2713
405.50 0.2718
405.60 0.2723
405.70 0.2728
405.80 0.2734
405.90 0.2739
406.00 0.2744
406.10 0.2749
406.20 0.2754
406.30 0.276
406.40 0.2765
406.50 0.277
406.60 0.2775
406.70 0.2781
406.80 0.2786
406.90 0.2791
407.00 0.2796
407.10 0.2802
407.20 0.2807
407.30 0.2812
407.40 0.2818
407.50 0.2823
407.60 0.2828
407.70 0.2833
407.80 0.2839
407.90 0.2844
408.00 0.2849
408.10 0.2855
408.20 0.286
408.30 0.2865
408.40 0.2871
408.50 0.2876
408.60 0.2881
408.70 0.2887
408.80 0.2892
408.90 0.2898
409.00 0.2903
409.10 0.2908
409.20 0.2914
409.30 0.2919
409.40 0.2924
409.50 0.293
409.60 0.2935
409.70 0.2941
409.80 0.2946
409.90 0.2952
410.00 0.2957
410.10 0.2963
410.20 0.2968
410.30 0.2973
410.40 0.2979
410.50 0.2984
410.60 0.299
410.70 0.2995
410.80 0.3001
410.90 0.3006
411.00 0.3012
411.10 0.3017
411.20 0.3023
411.30 0.3029
411.40 0.3034
411.50 0.304
411.60 0.3045
411.70 0.3051
411.80 0.3056
411.90 0.3062
412.00 0.3067
412.10 0.3073
412.20 0.3078
412.30 0.3084
412.40 0.309
412.50 0.3095
412.60 0.3101
412.70 0.3106
412.80 0.3112
412.90 0.3118
413.00 0.3123
413.10 0.3129
413.20 0.3135
413.30 0.314
413.40 0.3146
413.50 0.3152
413.60 0.3157
413.70 0.3163
413.80 0.3169
413.90 0.3174
414.00 0.318
414.10 0.3186
414.20 0.3191
414.30 0.3197
414.40 0.3203
414.50 0.3208
414.60 0.3214
414.70 0.322
414.80 0.3225
414.90 0.3231
415.00 0.3237
415.10 0.3243
415.20 0.3249
415.30 0.3254
415.40 0.326
415.50 0.3266
415.60 0.3272
415.70 0.3278
415.80 0.3283
415.90 0.3289
416.00 0.3295
416.10 0.3301
416.20 0.3306
416.30 0.3312
416.40 0.3318
416.50 0.3324
416.60 0.333
416.70 0.3336
416.80 0.3341
416.90 0.3347
417.00 0.3353
417.10 0.3359
417.20 0.3365
417.30 0.3371
417.40 0.3377
417.50 0.3383
417.60 0.3389
417.70 0.3394
417.80 0.34
417.90 0.3406
418.00 0.3412
418.10 0.3418
418.20 0.3424
418.30 0.343
418.40 0.3436
418.50 0.3442
418.60 0.3448
418.70 0.3454
418.80 0.346
418.90 0.3466
419.00 0.3472
419.10 0.3478
419.20 0.3484
419.30 0.349
419.40 0.3496
419.50 0.3502
419.60 0.3508
419.70 0.3514
419.80 0.352
419.90 0.3526
420.00 0.3532
420.10 0.3538
420.20 0.3544
420.30 0.355
420.40 0.3556
420.50 0.3562
420.60 0.3569
420.70 0.3575
420.80 0.3581
420.90 0.3587
421.00 0.3593
421.10 0.3599
421.20 0.3605
421.30 0.3611
421.40 0.3617
421.50 0.3624
421.60 0.363
421.70 0.3636
421.80 0.3642
421.90 0.3648
422.00 0.3654
422.10 0.3661
422.20 0.3667
422.30 0.3673
422.40 0.3679
422.50 0.3685
422.60 0.3692
422.70 0.3698
422.80 0.3704
422.90 0.371
423.00 0.3716
423.10 0.3723
423.20 0.3729
423.30 0.3735
423.40 0.3741
423.50 0.3748
423.60 0.3754
423.70 0.376
423.80 0.3766
423.90 0.3773
424.00 0.3779
424.10 0.3785
424.20 0.3792
424.30 0.3798
424.40 0.3804
424.50 0.381
424.60 0.3817
424.70 0.3823
424.80 0.3829
424.90 0.3836
425.00 0.3842
425.10 0.3848
425.20 0.3855
425.30 0.3861
425.40 0.3868
425.50 0.3874
425.60 0.388
425.70 0.3887
425.80 0.3893
425.90 0.39
426.00 0.3906
426.10 0.3912
426.20 0.3919
426.30 0.3925
426.40 0.3932
426.50 0.3938
426.60 0.3944
426.70 0.3951
426.80 0.3957
426.90 0.3964
427.00 0.397
427.10 0.3977
427.20 0.3983
427.30 0.399
427.40 0.3996
427.50 0.4003
427.60 0.4009
427.70 0.4016
427.80 0.4022
427.90 0.4029
428.00 0.4035
428.10 0.4042
428.20 0.4048
428.30 0.4055
428.40 0.4061
428.50 0.4068
428.60 0.4074
428.70 0.4081
428.80 0.4088
428.90 0.4094
429.00 0.4101
429.10 0.4107
429.20 0.4114
429.30 0.4121
429.40 0.4127
429.50 0.4134
429.60 0.414
429.70 0.4147
429.80 0.4154
429.90 0.416
430.00 0.4167
430.10 0.4174
430.20 0.418
430.30 0.4187
430.40 0.4193
430.50 0.42
430.60 0.4207
430.70 0.4214
430.80 0.422
430.90 0.4227
431.00 0.4234
431.10 0.424
431.20 0.4247
431.30 0.4254
431.40 0.426
431.50 0.4267
431.60 0.4274
431.70 0.4281
431.80 0.4287
431.90 0.4294
432.00 0.4301
432.10 0.4308
432.20 0.4314
432.30 0.4321
432.40 0.4328
432.50 0.4335
432.60 0.4342
432.70 0.4348
432.80 0.4355
432.90 0.4362
433.00 0.4369
433.10 0.4376
433.20 0.4383
433.30 0.4389
433.40 0.4396
433.50 0.4403
433.60 0.441
433.70 0.4417
433.80 0.4423
433.90 0.443
434.00 0.4437
434.10 0.4444
434.20 0.4451
434.30 0.4458
434.40 0.4465
434.50 0.4472
434.60 0.4479
434.70 0.4486
434.80 0.4492
434.90 0.4499
435.00 0.4506
435.10 0.4513
435.20 0.452
435.30 0.4527
435.40 0.4534
435.50 0.4541
435.60 0.4548
435.70 0.4555
435.80 0.4562
435.90 0.4569
436.00 0.4576
436.10 0.4583
436.20 0.459
436.30 0.4597
436.40 0.4604
436.50 0.4611
436.60 0.4618
436.70 0.4625
436.80 0.4632
436.90 0.4639
437.00 0.4646
437.10 0.4653
437.20 0.466
437.30 0.4667
437.40 0.4674
437.50 0.4681
437.60 0.4688
437.70 0.4695
437.80 0.4702
437.90 0.471
438.00 0.4717
438.10 0.4724
438.20 0.4731
438.30 0.4738
438.40 0.4745
438.50 0.4752
438.60 0.476
