# Version 2.1 - nm, norm@500 to 1, cut digits, bergeron_5250_70.dat_5250
# Wavelength(nm)  Flambda(ergs/cm^s/s/nm)
300.00 0.4293
300.10 0.4298
300.20 0.4303
300.30 0.4308
300.40 0.4312
300.50 0.4317
300.60 0.4322
300.70 0.4327
300.80 0.4332
300.90 0.4336
301.00 0.4341
301.10 0.4346
301.20 0.4351
301.30 0.4355
301.40 0.436
301.50 0.4365
301.60 0.437
301.70 0.4374
301.80 0.4379
301.90 0.4384
302.00 0.4389
302.10 0.4393
302.20 0.4398
302.30 0.4403
302.40 0.4408
302.50 0.4413
302.60 0.4418
302.70 0.4422
302.80 0.4427
302.90 0.4432
303.00 0.4437
303.10 0.4442
303.20 0.4446
303.30 0.4451
303.40 0.4456
303.50 0.4461
303.60 0.4465
303.70 0.447
303.80 0.4475
303.90 0.4479
304.00 0.4484
304.10 0.4489
304.20 0.4494
304.30 0.4499
304.40 0.4503
304.50 0.4508
304.60 0.4513
304.70 0.4518
304.80 0.4523
304.90 0.4527
305.00 0.4532
305.10 0.4537
305.20 0.4542
305.30 0.4546
305.40 0.4551
305.50 0.4556
305.60 0.4561
305.70 0.4565
305.80 0.457
305.90 0.4575
306.00 0.458
306.10 0.4584
306.20 0.4589
306.30 0.4594
306.40 0.4599
306.50 0.4604
306.60 0.4608
306.70 0.4613
306.80 0.4618
306.90 0.4623
307.00 0.4628
307.10 0.4632
307.20 0.4637
307.30 0.4642
307.40 0.4647
307.50 0.4651
307.60 0.4656
307.70 0.4661
307.80 0.4665
307.90 0.467
308.00 0.4675
308.10 0.468
308.20 0.4684
308.30 0.4689
308.40 0.4694
308.50 0.4699
308.60 0.4704
308.70 0.4708
308.80 0.4713
308.90 0.4718
309.00 0.4723
309.10 0.4728
309.20 0.4732
309.30 0.4737
309.40 0.4742
309.50 0.4746
309.60 0.4751
309.70 0.4756
309.80 0.4761
309.90 0.4765
310.00 0.477
310.10 0.4775
310.20 0.478
310.30 0.4784
310.40 0.4789
310.50 0.4794
310.60 0.4799
310.70 0.4804
310.80 0.4808
310.90 0.4813
311.00 0.4818
311.10 0.4823
311.20 0.4827
311.30 0.4832
311.40 0.4837
311.50 0.4841
311.60 0.4846
311.70 0.4851
311.80 0.4856
311.90 0.486
312.00 0.4865
312.10 0.487
312.20 0.4874
312.30 0.4879
312.40 0.4884
312.50 0.4889
312.60 0.4893
312.70 0.4898
312.80 0.4903
312.90 0.4908
313.00 0.4912
313.10 0.4917
313.20 0.4922
313.30 0.4927
313.40 0.4931
313.50 0.4936
313.60 0.4941
313.70 0.4945
313.80 0.495
313.90 0.4955
314.00 0.496
314.10 0.4964
314.20 0.4969
314.30 0.4974
314.40 0.4978
314.50 0.4983
314.60 0.4988
314.70 0.4993
314.80 0.4997
314.90 0.5002
315.00 0.5007
315.10 0.5012
315.20 0.5016
315.30 0.5021
315.40 0.5026
315.50 0.503
315.60 0.5035
315.70 0.504
315.80 0.5044
315.90 0.5049
316.00 0.5054
316.10 0.5058
316.20 0.5063
316.30 0.5068
316.40 0.5073
316.50 0.5077
316.60 0.5082
316.70 0.5087
316.80 0.5092
316.90 0.5096
317.00 0.5101
317.10 0.5106
317.20 0.511
317.30 0.5115
317.40 0.512
317.50 0.5124
317.60 0.5129
317.70 0.5134
317.80 0.5138
317.90 0.5143
318.00 0.5148
318.10 0.5152
318.20 0.5157
318.30 0.5162
318.40 0.5167
318.50 0.5171
318.60 0.5176
318.70 0.5181
318.80 0.5185
318.90 0.519
319.00 0.5195
319.10 0.5199
319.20 0.5204
319.30 0.5209
319.40 0.5213
319.50 0.5218
319.60 0.5223
319.70 0.5227
319.80 0.5232
319.90 0.5237
320.00 0.5241
320.10 0.5246
320.20 0.5251
320.30 0.5255
320.40 0.526
320.50 0.5265
320.60 0.5269
320.70 0.5274
320.80 0.5279
320.90 0.5283
321.00 0.5288
321.10 0.5293
321.20 0.5297
321.30 0.5302
321.40 0.5307
321.50 0.5311
321.60 0.5316
321.70 0.532
321.80 0.5325
321.90 0.533
322.00 0.5334
322.10 0.5339
322.20 0.5344
322.30 0.5348
322.40 0.5353
322.50 0.5358
322.60 0.5362
322.70 0.5367
322.80 0.5372
322.90 0.5376
323.00 0.5381
323.10 0.5386
323.20 0.539
323.30 0.5395
323.40 0.5399
323.50 0.5404
323.60 0.5409
323.70 0.5413
323.80 0.5418
323.90 0.5422
324.00 0.5427
324.10 0.5432
324.20 0.5436
324.30 0.5441
324.40 0.5446
324.50 0.545
324.60 0.5455
324.70 0.546
324.80 0.5464
324.90 0.5469
325.00 0.5473
325.10 0.5478
325.20 0.5483
325.30 0.5487
325.40 0.5492
325.50 0.5496
325.60 0.5501
325.70 0.5505
325.80 0.551
325.90 0.5515
326.00 0.5519
326.10 0.5524
326.20 0.5528
326.30 0.5533
326.40 0.5538
326.50 0.5542
326.60 0.5547
326.70 0.5551
326.80 0.5556
326.90 0.5561
327.00 0.5565
327.10 0.557
327.20 0.5574
327.30 0.5579
327.40 0.5584
327.50 0.5588
327.60 0.5593
327.70 0.5597
327.80 0.5602
327.90 0.5606
328.00 0.5611
328.10 0.5615
328.20 0.562
328.30 0.5625
328.40 0.5629
328.50 0.5634
328.60 0.5638
328.70 0.5643
328.80 0.5648
328.90 0.5652
329.00 0.5657
329.10 0.5661
329.20 0.5666
329.30 0.567
329.40 0.5675
329.50 0.5679
329.60 0.5684
329.70 0.5688
329.80 0.5693
329.90 0.5697
330.00 0.5702
330.10 0.5706
330.20 0.5711
330.30 0.5716
330.40 0.572
330.50 0.5725
330.60 0.5729
330.70 0.5734
330.80 0.5738
330.90 0.5743
331.00 0.5747
331.10 0.5752
331.20 0.5756
331.30 0.5761
331.40 0.5766
331.50 0.577
331.60 0.5774
331.70 0.5779
331.80 0.5783
331.90 0.5788
332.00 0.5792
332.10 0.5797
332.20 0.5801
332.30 0.5806
332.40 0.5811
332.50 0.5815
332.60 0.582
332.70 0.5824
332.80 0.5829
332.90 0.5833
333.00 0.5838
333.10 0.5842
333.20 0.5847
333.30 0.5851
333.40 0.5856
333.50 0.586
333.60 0.5864
333.70 0.5869
333.80 0.5873
333.90 0.5878
334.00 0.5882
334.10 0.5887
334.20 0.5891
334.30 0.5896
334.40 0.59
334.50 0.5905
334.60 0.5909
334.70 0.5914
334.80 0.5918
334.90 0.5923
335.00 0.5927
335.10 0.5932
335.20 0.5936
335.30 0.5941
335.40 0.5945
335.50 0.5949
335.60 0.5954
335.70 0.5958
335.80 0.5963
335.90 0.5967
336.00 0.5971
336.10 0.5976
336.20 0.598
336.30 0.5985
336.40 0.5989
336.50 0.5994
336.60 0.5998
336.70 0.6003
336.80 0.6007
336.90 0.6012
337.00 0.6016
337.10 0.602
337.20 0.6025
337.30 0.6029
337.40 0.6034
337.50 0.6038
337.60 0.6042
337.70 0.6047
337.80 0.6051
337.90 0.6056
338.00 0.606
338.10 0.6064
338.20 0.6069
338.30 0.6073
338.40 0.6078
338.50 0.6082
338.60 0.6087
338.70 0.6091
338.80 0.6095
338.90 0.61
339.00 0.6104
339.10 0.6109
339.20 0.6113
339.30 0.6117
339.40 0.6122
339.50 0.6126
339.60 0.6131
339.70 0.6135
339.80 0.6139
339.90 0.6144
340.00 0.6148
340.10 0.6152
340.20 0.6157
340.30 0.6161
340.40 0.6165
340.50 0.617
340.60 0.6174
340.70 0.6179
340.80 0.6183
340.90 0.6187
341.00 0.6192
341.10 0.6196
341.20 0.62
341.30 0.6205
341.40 0.6209
341.50 0.6213
341.60 0.6218
341.70 0.6222
341.80 0.6226
341.90 0.6231
342.00 0.6235
342.10 0.6239
342.20 0.6244
342.30 0.6248
342.40 0.6252
342.50 0.6257
342.60 0.6261
342.70 0.6265
342.80 0.627
342.90 0.6274
343.00 0.6278
343.10 0.6283
343.20 0.6287
343.30 0.6291
343.40 0.6296
343.50 0.63
343.60 0.6304
343.70 0.6309
343.80 0.6313
343.90 0.6317
344.00 0.6321
344.10 0.6326
344.20 0.633
344.30 0.6334
344.40 0.6339
344.50 0.6343
344.60 0.6347
344.70 0.6352
344.80 0.6356
344.90 0.636
345.00 0.6364
345.10 0.6369
345.20 0.6373
345.30 0.6377
345.40 0.6381
345.50 0.6386
345.60 0.639
345.70 0.6394
345.80 0.6398
345.90 0.6403
346.00 0.6407
346.10 0.6411
346.20 0.6415
346.30 0.642
346.40 0.6424
346.50 0.6428
346.60 0.6432
346.70 0.6437
346.80 0.6441
346.90 0.6445
347.00 0.6449
347.10 0.6454
347.20 0.6458
347.30 0.6462
347.40 0.6466
347.50 0.647
347.60 0.6475
347.70 0.6479
347.80 0.6483
347.90 0.6487
348.00 0.6491
348.10 0.6496
348.20 0.65
348.30 0.6504
348.40 0.6508
348.50 0.6513
348.60 0.6517
348.70 0.6521
348.80 0.6525
348.90 0.653
349.00 0.6534
349.10 0.6538
349.20 0.6542
349.30 0.6546
349.40 0.6551
349.50 0.6555
349.60 0.6559
349.70 0.6563
349.80 0.6567
349.90 0.6571
350.00 0.6576
350.10 0.658
350.20 0.6584
350.30 0.6588
350.40 0.6592
350.50 0.6596
350.60 0.6601
350.70 0.6605
350.80 0.6609
350.90 0.6613
351.00 0.6617
351.10 0.6621
351.20 0.6626
351.30 0.663
351.40 0.6634
351.50 0.6638
351.60 0.6642
351.70 0.6646
351.80 0.665
351.90 0.6654
352.00 0.6659
352.10 0.6663
352.20 0.6667
352.30 0.6671
352.40 0.6675
352.50 0.6679
352.60 0.6684
352.70 0.6688
352.80 0.6692
352.90 0.6696
353.00 0.67
353.10 0.6704
353.20 0.6708
353.30 0.6712
353.40 0.6717
353.50 0.6721
353.60 0.6725
353.70 0.6729
353.80 0.6733
353.90 0.6737
354.00 0.6741
354.10 0.6745
354.20 0.6749
354.30 0.6753
354.40 0.6758
354.50 0.6762
354.60 0.6766
354.70 0.677
354.80 0.6774
354.90 0.6778
355.00 0.6782
355.10 0.6786
355.20 0.679
355.30 0.6794
355.40 0.6798
355.50 0.6802
355.60 0.6806
355.70 0.681
355.80 0.6814
355.90 0.6818
356.00 0.6822
356.10 0.6827
356.20 0.6831
356.30 0.6835
356.40 0.6839
356.50 0.6843
356.60 0.6847
356.70 0.6851
356.80 0.6855
356.90 0.6859
357.00 0.6863
357.10 0.6867
357.20 0.6871
357.30 0.6875
357.40 0.6879
357.50 0.6883
357.60 0.6887
357.70 0.6891
357.80 0.6895
357.90 0.6899
358.00 0.6903
358.10 0.6907
358.20 0.6911
358.30 0.6915
358.40 0.6919
358.50 0.6923
358.60 0.6927
358.70 0.6931
358.80 0.6935
358.90 0.6939
359.00 0.6943
359.10 0.6947
359.20 0.6951
359.30 0.6955
359.40 0.6959
359.50 0.6963
359.60 0.6967
359.70 0.6971
359.80 0.6974
359.90 0.6978
360.00 0.6982
360.10 0.6986
360.20 0.699
360.30 0.6994
360.40 0.6998
360.50 0.7002
360.60 0.7006
360.70 0.701
360.80 0.7014
360.90 0.7018
361.00 0.7022
361.10 0.7026
361.20 0.703
361.30 0.7033
361.40 0.7037
361.50 0.7041
361.60 0.7045
361.70 0.7049
361.80 0.7053
361.90 0.7057
362.00 0.7061
362.10 0.7065
362.20 0.7068
362.30 0.7072
362.40 0.7076
362.50 0.708
362.60 0.7084
362.70 0.7088
362.80 0.7092
362.90 0.7096
363.00 0.71
363.10 0.7104
363.20 0.7107
363.30 0.7111
363.40 0.7115
363.50 0.7119
363.60 0.7123
363.70 0.7127
363.80 0.7131
363.90 0.7135
364.00 0.7139
364.10 0.7142
364.20 0.7146
364.30 0.715
364.40 0.7154
364.50 0.7158
364.60 0.7162
364.70 0.7166
364.80 0.7169
364.90 0.7173
365.00 0.7177
365.10 0.7181
365.20 0.7185
365.30 0.7189
365.40 0.7192
365.50 0.7196
365.60 0.72
365.70 0.7204
365.80 0.7207
365.90 0.7211
366.00 0.7215
366.10 0.7219
366.20 0.7223
366.30 0.7227
366.40 0.723
366.50 0.7234
366.60 0.7238
366.70 0.7242
366.80 0.7246
366.90 0.7249
367.00 0.7253
367.10 0.7257
367.20 0.7261
367.30 0.7265
367.40 0.7268
367.50 0.7272
367.60 0.7276
367.70 0.728
367.80 0.7283
367.90 0.7287
368.00 0.7291
368.10 0.7295
368.20 0.7299
368.30 0.7302
368.40 0.7306
368.50 0.731
368.60 0.7314
368.70 0.7317
368.80 0.7321
368.90 0.7325
369.00 0.7328
369.10 0.7332
369.20 0.7336
369.30 0.734
369.40 0.7343
369.50 0.7347
369.60 0.7351
369.70 0.7354
369.80 0.7358
369.90 0.7362
370.00 0.7365
370.10 0.7369
370.20 0.7373
370.30 0.7377
370.40 0.738
370.50 0.7384
370.60 0.7388
370.70 0.7391
370.80 0.7395
370.90 0.7399
371.00 0.7403
371.10 0.7406
371.20 0.741
371.30 0.7414
371.40 0.7417
371.50 0.7421
371.60 0.7425
371.70 0.7428
371.80 0.7432
371.90 0.7435
372.00 0.7439
372.10 0.7443
372.20 0.7446
372.30 0.745
372.40 0.7454
372.50 0.7458
372.60 0.7461
372.70 0.7465
372.80 0.7469
372.90 0.7472
373.00 0.7476
373.10 0.748
373.20 0.7483
373.30 0.7487
373.40 0.7491
373.50 0.7494
373.60 0.7498
373.70 0.7501
373.80 0.7505
373.90 0.7509
374.00 0.7512
374.10 0.7516
374.20 0.752
374.30 0.7523
374.40 0.7527
374.50 0.753
374.60 0.7534
374.70 0.7538
374.80 0.7541
374.90 0.7545
375.00 0.7548
375.10 0.7552
375.20 0.7556
375.30 0.7559
375.40 0.7563
375.50 0.7566
375.60 0.757
375.70 0.7573
375.80 0.7577
375.90 0.758
376.00 0.7584
376.10 0.7588
376.20 0.7591
376.30 0.7595
376.40 0.7598
376.50 0.7602
376.60 0.7606
376.70 0.7609
376.80 0.7613
376.90 0.7616
377.00 0.762
377.10 0.7623
377.20 0.7627
377.30 0.7631
377.40 0.7634
377.50 0.7638
377.60 0.7641
377.70 0.7645
377.80 0.7648
377.90 0.7652
378.00 0.7655
378.10 0.7659
378.20 0.7663
378.30 0.7666
378.40 0.767
378.50 0.7673
378.60 0.7677
378.70 0.768
378.80 0.7684
378.90 0.7687
379.00 0.7691
379.10 0.7694
379.20 0.7697
379.30 0.77
379.40 0.7703
379.50 0.7706
379.60 0.7709
379.70 0.7712
379.80 0.7715
379.90 0.7718
380.00 0.7721
380.10 0.7725
380.20 0.7729
380.30 0.7733
380.40 0.7737
380.50 0.7741
380.60 0.7745
380.70 0.7749
380.80 0.7753
380.90 0.7757
381.00 0.7761
381.10 0.7765
381.20 0.7769
381.30 0.7772
381.40 0.7776
381.50 0.7779
381.60 0.7783
381.70 0.7786
381.80 0.779
381.90 0.7793
382.00 0.7796
382.10 0.78
382.20 0.7803
382.30 0.7806
382.40 0.7808
382.50 0.7811
382.60 0.7813
382.70 0.7816
382.80 0.7819
382.90 0.7821
383.00 0.7824
383.10 0.7826
383.20 0.7829
383.30 0.7826
383.40 0.7817
383.50 0.7799
383.60 0.7809
383.70 0.7831
383.80 0.7845
383.90 0.7854
384.00 0.786
384.10 0.7865
384.20 0.787
384.30 0.7874
384.40 0.7878
384.50 0.7882
384.60 0.7885
384.70 0.7889
384.80 0.7892
384.90 0.7896
385.00 0.79
385.10 0.7903
385.20 0.7906
385.30 0.791
385.40 0.7913
385.50 0.7917
385.60 0.792
385.70 0.7923
385.80 0.7927
385.90 0.793
386.00 0.7934
386.10 0.7937
386.20 0.794
386.30 0.7944
386.40 0.7947
386.50 0.795
386.60 0.7954
386.70 0.7957
386.80 0.796
386.90 0.7964
387.00 0.7967
387.10 0.797
387.20 0.7973
387.30 0.7976
387.40 0.798
387.50 0.7983
387.60 0.7986
387.70 0.7989
387.80 0.7991
387.90 0.7994
388.00 0.7997
388.10 0.7999
388.20 0.8001
388.30 0.8003
388.40 0.8002
388.50 0.7999
388.60 0.7994
388.70 0.7974
388.80 0.7937
388.90 0.7881
389.00 0.794
389.10 0.7984
389.20 0.8012
389.30 0.8025
389.40 0.8034
389.50 0.8042
389.60 0.8047
389.70 0.8051
389.80 0.8056
389.90 0.806
390.00 0.8064
390.10 0.8067
390.20 0.8071
390.30 0.8074
390.40 0.8078
390.50 0.8081
390.60 0.8085
390.70 0.8088
390.80 0.8091
390.90 0.8095
391.00 0.8098
391.10 0.8101
391.20 0.8104
391.30 0.8108
391.40 0.8111
391.50 0.8114
391.60 0.8117
391.70 0.812
391.80 0.8123
391.90 0.8127
392.00 0.813
392.10 0.8133
392.20 0.8136
392.30 0.8139
392.40 0.8142
392.50 0.8146
392.60 0.8149
392.70 0.8152
392.80 0.8155
392.90 0.8158
393.00 0.8161
393.10 0.8165
393.20 0.8168
393.30 0.8171
393.40 0.8174
393.50 0.8177
393.60 0.818
393.70 0.8183
393.80 0.8186
393.90 0.8189
394.00 0.8193
394.10 0.8196
394.20 0.8199
394.30 0.8202
394.40 0.8205
394.50 0.8208
394.60 0.8211
394.70 0.8214
394.80 0.8217
394.90 0.822
395.00 0.8223
395.10 0.8225
395.20 0.8228
395.30 0.8231
395.40 0.8234
395.50 0.8237
395.60 0.824
395.70 0.8242
395.80 0.8245
395.90 0.8247
396.00 0.8249
396.10 0.8251
396.20 0.8252
396.30 0.8252
396.40 0.8252
396.50 0.8248
396.60 0.824
396.70 0.8226
396.80 0.8181
396.90 0.8091
397.00 0.7955
397.10 0.8089
397.20 0.8184
397.30 0.824
397.40 0.8261
397.50 0.8277
397.60 0.8288
397.70 0.8294
397.80 0.83
397.90 0.8305
398.00 0.831
398.10 0.8314
398.20 0.8318
398.30 0.8321
398.40 0.8324
398.50 0.8327
398.60 0.8331
398.70 0.8334
398.80 0.8337
398.90 0.8341
399.00 0.8344
399.10 0.8347
399.20 0.835
399.30 0.8353
399.40 0.8356
399.50 0.8359
399.60 0.8362
399.70 0.8365
399.80 0.8368
399.90 0.8371
400.00 0.8374
400.10 0.8377
400.20 0.838
400.30 0.8383
400.40 0.8386
400.50 0.8389
400.60 0.8392
400.70 0.8395
400.80 0.8397
400.90 0.8401
401.00 0.8403
401.10 0.8406
401.20 0.8409
401.30 0.8412
401.40 0.8415
401.50 0.8418
401.60 0.8421
401.70 0.8424
401.80 0.8426
401.90 0.8429
402.00 0.8432
402.10 0.8435
402.20 0.8438
402.30 0.8441
402.40 0.8444
402.50 0.8447
402.60 0.845
402.70 0.8453
402.80 0.8455
402.90 0.8458
403.00 0.8461
403.10 0.8464
403.20 0.8467
403.30 0.8469
403.40 0.8472
403.50 0.8475
403.60 0.8478
403.70 0.8481
403.80 0.8484
403.90 0.8487
404.00 0.8489
404.10 0.8492
404.20 0.8495
404.30 0.8498
404.40 0.8501
404.50 0.8503
404.60 0.8506
404.70 0.8509
404.80 0.8511
404.90 0.8514
405.00 0.8517
405.10 0.852
405.20 0.8523
405.30 0.8525
405.40 0.8528
405.50 0.8531
405.60 0.8534
405.70 0.8537
405.80 0.8539
405.90 0.8542
406.00 0.8545
406.10 0.8548
406.20 0.855
406.30 0.8553
406.40 0.8556
406.50 0.8558
406.60 0.8561
406.70 0.8564
406.80 0.8567
406.90 0.8569
407.00 0.8572
407.10 0.8575
407.20 0.8577
407.30 0.858
407.40 0.8583
407.50 0.8585
407.60 0.8588
407.70 0.8591
407.80 0.8593
407.90 0.8596
408.00 0.8598
408.10 0.8601
408.20 0.8603
408.30 0.8606
408.40 0.8608
408.50 0.861
408.60 0.8613
408.70 0.8615
408.80 0.8617
408.90 0.8619
409.00 0.862
409.10 0.8622
409.20 0.8622
409.30 0.8623
409.40 0.8622
409.50 0.8619
409.60 0.8615
409.70 0.8604
409.80 0.8581
409.90 0.8547
410.00 0.8424
410.10 0.8249
410.20 0.8023
410.30 0.832
410.40 0.8509
410.50 0.859
410.60 0.8617
410.70 0.8638
410.80 0.8652
410.90 0.8659
411.00 0.8666
411.10 0.8672
411.20 0.8676
411.30 0.868
411.40 0.8684
411.50 0.8688
411.60 0.8691
411.70 0.8695
411.80 0.8697
411.90 0.87
412.00 0.8703
412.10 0.8706
412.20 0.8709
412.30 0.8712
412.40 0.8715
412.50 0.8717
412.60 0.872
412.70 0.8723
412.80 0.8726
412.90 0.8728
413.00 0.8731
413.10 0.8733
413.20 0.8736
413.30 0.8739
413.40 0.8741
413.50 0.8744
413.60 0.8746
413.70 0.8749
413.80 0.8752
413.90 0.8754
414.00 0.8757
414.10 0.8759
414.20 0.8762
414.30 0.8764
414.40 0.8767
414.50 0.8769
414.60 0.8772
414.70 0.8775
414.80 0.8777
414.90 0.878
415.00 0.8782
415.10 0.8785
415.20 0.8787
415.30 0.879
415.40 0.8792
415.50 0.8795
415.60 0.8797
415.70 0.88
415.80 0.8802
415.90 0.8805
416.00 0.8807
416.10 0.881
416.20 0.8812
416.30 0.8815
416.40 0.8817
416.50 0.882
416.60 0.8822
416.70 0.8825
416.80 0.8827
416.90 0.883
417.00 0.8832
417.10 0.8834
417.20 0.8837
417.30 0.8839
417.40 0.8842
417.50 0.8844
417.60 0.8847
417.70 0.8849
417.80 0.8852
417.90 0.8854
418.00 0.8856
418.10 0.8859
418.20 0.8861
418.30 0.8864
418.40 0.8866
418.50 0.8869
418.60 0.8871
418.70 0.8874
418.80 0.8876
418.90 0.8879
419.00 0.8881
419.10 0.8883
419.20 0.8886
419.30 0.8888
419.40 0.8891
419.50 0.8893
419.60 0.8895
419.70 0.8898
419.80 0.89
419.90 0.8902
420.00 0.8905
420.10 0.8907
420.20 0.8909
420.30 0.8912
420.40 0.8914
420.50 0.8917
420.60 0.8919
420.70 0.8921
420.80 0.8924
420.90 0.8926
421.00 0.8928
421.10 0.8931
421.20 0.8933
421.30 0.8935
421.40 0.8937
421.50 0.894
421.60 0.8942
421.70 0.8945
421.80 0.8947
421.90 0.8949
422.00 0.8952
422.10 0.8954
422.20 0.8956
422.30 0.8959
422.40 0.8961
422.50 0.8963
422.60 0.8965
422.70 0.8968
422.80 0.897
422.90 0.8972
423.00 0.8975
423.10 0.8977
423.20 0.8979
423.30 0.8981
423.40 0.8984
423.50 0.8986
423.60 0.8989
423.70 0.8991
423.80 0.8993
423.90 0.8995
424.00 0.8997
424.10 0.9
424.20 0.9002
424.30 0.9004
424.40 0.9006
424.50 0.9009
424.60 0.9011
424.70 0.9013
424.80 0.9015
424.90 0.9017
425.00 0.902
425.10 0.9022
425.20 0.9024
425.30 0.9027
425.40 0.9029
425.50 0.9031
425.60 0.9033
425.70 0.9035
425.80 0.9038
425.90 0.904
426.00 0.9042
426.10 0.9044
426.20 0.9046
426.30 0.9049
426.40 0.9051
426.50 0.9053
426.60 0.9055
426.70 0.9057
426.80 0.906
426.90 0.9062
427.00 0.9064
427.10 0.9066
427.20 0.9068
427.30 0.907
427.40 0.9072
427.50 0.9075
427.60 0.9077
427.70 0.9079
427.80 0.9081
427.90 0.9083
428.00 0.9086
428.10 0.9088
428.20 0.909
428.30 0.9092
428.40 0.9094
428.50 0.9096
428.60 0.9098
428.70 0.91
428.80 0.9102
428.90 0.9104
429.00 0.9107
429.10 0.9109
429.20 0.9111
429.30 0.9113
429.40 0.9115
429.50 0.9117
429.60 0.9119
429.70 0.9121
429.80 0.9124
429.90 0.9126
430.00 0.9128
430.10 0.913
430.20 0.9132
430.30 0.9134
430.40 0.9136
430.50 0.9138
430.60 0.914
430.70 0.9142
430.80 0.9144
430.90 0.9146
431.00 0.9148
431.10 0.915
431.20 0.9152
431.30 0.9153
431.40 0.9155
431.50 0.9157
431.60 0.9159
431.70 0.9161
431.80 0.9162
431.90 0.9164
432.00 0.9166
432.10 0.9168
432.20 0.9169
432.30 0.9171
432.40 0.9172
432.50 0.9173
432.60 0.9174
432.70 0.9175
432.80 0.9175
432.90 0.9175
433.00 0.9175
433.10 0.9173
433.20 0.917
433.30 0.9166
433.40 0.9157
433.50 0.9142
433.60 0.9122
433.70 0.9067
433.80 0.8945
433.90 0.8755
434.00 0.8052
434.10 0.8064
434.20 0.8789
434.30 0.8969
434.40 0.9087
434.50 0.9142
434.60 0.9166
434.70 0.9184
434.80 0.9197
434.90 0.9205
435.00 0.9211
435.10 0.9217
435.20 0.9221
435.30 0.9225
435.40 0.9229
435.50 0.9232
435.60 0.9235
435.70 0.9238
435.80 0.924
435.90 0.9243
436.00 0.9246
436.10 0.9248
436.20 0.925
436.30 0.9252
436.40 0.9255
436.50 0.9257
436.60 0.9259
436.70 0.9261
436.80 0.9263
436.90 0.9265
437.00 0.9267
437.10 0.9269
437.20 0.9271
437.30 0.9273
437.40 0.9275
437.50 0.9278
437.60 0.9279
437.70 0.9281
437.80 0.9283
437.90 0.9285
438.00 0.9287
438.10 0.9289
438.20 0.9291
438.30 0.9293
438.40 0.9295
438.50 0.9297
438.60 0.9299
438.70 0.9301
438.80 0.9302
438.90 0.9304
439.00 0.9307
439.10 0.9308
439.20 0.931
439.30 0.9312
439.40 0.9314
439.50 0.9316
439.60 0.9318
439.70 0.9319
439.80 0.9321
439.90 0.9323
440.00 0.9325
440.10 0.9327
440.20 0.9329
440.30 0.9331
440.40 0.9333
440.50 0.9334
440.60 0.9336
440.70 0.9338
440.80 0.934
440.90 0.9342
441.00 0.9344
441.10 0.9345
441.20 0.9347
441.30 0.9349
441.40 0.9351
441.50 0.9353
441.60 0.9354
441.70 0.9356
441.80 0.9358
441.90 0.936
442.00 0.9362
442.10 0.9363
442.20 0.9365
442.30 0.9367
442.40 0.9369
442.50 0.9371
442.60 0.9372
442.70 0.9374
442.80 0.9376
442.90 0.9378
443.00 0.9379
