# Version 2.1 - nm, norm@500 to 1, cut digits, bergeron_120000_95.dat_120000
# Wavelength(nm)  Flambda(ergs/cm^s/s/nm)
300.00 6.996
300.10 6.987
300.20 6.978
300.30 6.969
300.40 6.961
300.50 6.952
300.60 6.943
300.70 6.934
300.80 6.925
300.90 6.917
301.00 6.908
301.10 6.899
301.20 6.891
301.30 6.882
301.40 6.873
301.50 6.864
301.60 6.856
301.70 6.847
301.80 6.839
301.90 6.83
302.00 6.821
302.10 6.813
302.20 6.804
302.30 6.796
302.40 6.787
302.50 6.778
302.60 6.77
302.70 6.761
302.80 6.753
302.90 6.744
303.00 6.736
303.10 6.728
303.20 6.719
303.30 6.711
303.40 6.702
303.50 6.694
303.60 6.685
303.70 6.677
303.80 6.669
303.90 6.66
304.00 6.652
304.10 6.644
304.20 6.635
304.30 6.627
304.40 6.619
304.50 6.611
304.60 6.602
304.70 6.594
304.80 6.586
304.90 6.578
305.00 6.569
305.10 6.561
305.20 6.553
305.30 6.545
305.40 6.537
305.50 6.529
305.60 6.52
305.70 6.512
305.80 6.504
305.90 6.496
306.00 6.488
306.10 6.48
306.20 6.472
306.30 6.464
306.40 6.456
306.50 6.448
306.60 6.44
306.70 6.432
306.80 6.424
306.90 6.416
307.00 6.408
307.10 6.4
307.20 6.392
307.30 6.384
307.40 6.376
307.50 6.368
307.60 6.36
307.70 6.353
307.80 6.345
307.90 6.337
308.00 6.329
308.10 6.321
308.20 6.313
308.30 6.306
308.40 6.298
308.50 6.29
308.60 6.282
308.70 6.275
308.80 6.267
308.90 6.259
309.00 6.251
309.10 6.244
309.20 6.236
309.30 6.228
309.40 6.221
309.50 6.213
309.60 6.205
309.70 6.198
309.80 6.19
309.90 6.183
310.00 6.175
310.10 6.167
310.20 6.16
310.30 6.152
310.40 6.145
310.50 6.137
310.60 6.13
310.70 6.122
310.80 6.115
310.90 6.107
311.00 6.1
311.10 6.092
311.20 6.085
311.30 6.077
311.40 6.07
311.50 6.062
311.60 6.055
311.70 6.048
311.80 6.04
311.90 6.033
312.00 6.025
312.10 6.018
312.20 6.011
312.30 6.003
312.40 5.996
312.50 5.989
312.60 5.981
312.70 5.974
312.80 5.967
312.90 5.96
313.00 5.952
313.10 5.945
313.20 5.938
313.30 5.931
313.40 5.923
313.50 5.916
313.60 5.909
313.70 5.902
313.80 5.895
313.90 5.888
314.00 5.881
314.10 5.873
314.20 5.866
314.30 5.859
314.40 5.852
314.50 5.845
314.60 5.838
314.70 5.831
314.80 5.824
314.90 5.817
315.00 5.81
315.10 5.803
315.20 5.796
315.30 5.789
315.40 5.782
315.50 5.775
315.60 5.768
315.70 5.761
315.80 5.754
315.90 5.747
316.00 5.74
316.10 5.733
316.20 5.726
316.30 5.719
316.40 5.712
316.50 5.705
316.60 5.699
316.70 5.692
316.80 5.685
316.90 5.678
317.00 5.671
317.10 5.664
317.20 5.658
317.30 5.651
317.40 5.644
317.50 5.637
317.60 5.63
317.70 5.624
317.80 5.617
317.90 5.61
318.00 5.603
318.10 5.597
318.20 5.59
318.30 5.583
318.40 5.577
318.50 5.57
318.60 5.563
318.70 5.557
318.80 5.55
318.90 5.543
319.00 5.537
319.10 5.53
319.20 5.524
319.30 5.517
319.40 5.51
319.50 5.504
319.60 5.497
319.70 5.491
319.80 5.484
319.90 5.478
320.00 5.471
320.10 5.465
320.20 5.458
320.30 5.452
320.40 5.445
320.50 5.439
320.60 5.432
320.70 5.426
320.80 5.419
320.90 5.413
321.00 5.406
321.10 5.4
321.20 5.394
321.30 5.387
321.40 5.381
321.50 5.374
321.60 5.368
321.70 5.362
321.80 5.355
321.90 5.349
322.00 5.343
322.10 5.336
322.20 5.33
322.30 5.324
322.40 5.317
322.50 5.311
322.60 5.305
322.70 5.299
322.80 5.292
322.90 5.286
323.00 5.28
323.10 5.274
323.20 5.267
323.30 5.261
323.40 5.255
323.50 5.249
323.60 5.243
323.70 5.236
323.80 5.23
323.90 5.224
324.00 5.218
324.10 5.212
324.20 5.206
324.30 5.199
324.40 5.193
324.50 5.187
324.60 5.181
324.70 5.175
324.80 5.169
324.90 5.163
325.00 5.157
325.10 5.151
325.20 5.145
325.30 5.139
325.40 5.133
325.50 5.127
325.60 5.121
325.70 5.115
325.80 5.109
325.90 5.103
326.00 5.097
326.10 5.091
326.20 5.085
326.30 5.079
326.40 5.073
326.50 5.067
326.60 5.061
326.70 5.055
326.80 5.049
326.90 5.043
327.00 5.038
327.10 5.032
327.20 5.026
327.30 5.02
327.40 5.014
327.50 5.008
327.60 5.002
327.70 4.997
327.80 4.991
327.90 4.985
328.00 4.979
328.10 4.973
328.20 4.968
328.30 4.962
328.40 4.956
328.50 4.95
328.60 4.945
328.70 4.939
328.80 4.933
328.90 4.927
329.00 4.922
329.10 4.916
329.20 4.91
329.30 4.905
329.40 4.899
329.50 4.893
329.60 4.888
329.70 4.882
329.80 4.876
329.90 4.871
330.00 4.865
330.10 4.859
330.20 4.854
330.30 4.848
330.40 4.843
330.50 4.837
330.60 4.831
330.70 4.826
330.80 4.82
330.90 4.815
331.00 4.809
331.10 4.804
331.20 4.798
331.30 4.793
331.40 4.787
331.50 4.782
331.60 4.776
331.70 4.771
331.80 4.765
331.90 4.76
332.00 4.754
332.10 4.749
332.20 4.743
332.30 4.738
332.40 4.732
332.50 4.727
332.60 4.721
332.70 4.716
332.80 4.711
332.90 4.705
333.00 4.7
333.10 4.694
333.20 4.689
333.30 4.684
333.40 4.678
333.50 4.673
333.60 4.668
333.70 4.662
333.80 4.657
333.90 4.652
334.00 4.646
334.10 4.641
334.20 4.636
334.30 4.63
334.40 4.625
334.50 4.62
334.60 4.615
334.70 4.609
334.80 4.604
334.90 4.599
335.00 4.594
335.10 4.588
335.20 4.583
335.30 4.578
335.40 4.573
335.50 4.567
335.60 4.562
335.70 4.557
335.80 4.552
335.90 4.547
336.00 4.541
336.10 4.536
336.20 4.531
336.30 4.526
336.40 4.521
336.50 4.516
336.60 4.511
336.70 4.506
336.80 4.501
336.90 4.495
337.00 4.49
337.10 4.485
337.20 4.48
337.30 4.475
337.40 4.47
337.50 4.465
337.60 4.46
337.70 4.455
337.80 4.45
337.90 4.445
338.00 4.44
338.10 4.435
338.20 4.43
338.30 4.425
338.40 4.42
338.50 4.415
338.60 4.41
338.70 4.405
338.80 4.4
338.90 4.395
339.00 4.39
339.10 4.385
339.20 4.38
339.30 4.375
339.40 4.37
339.50 4.365
339.60 4.36
339.70 4.355
339.80 4.351
339.90 4.346
340.00 4.341
340.10 4.336
340.20 4.331
340.30 4.326
340.40 4.321
340.50 4.316
340.60 4.312
340.70 4.307
340.80 4.302
340.90 4.297
341.00 4.292
341.10 4.288
341.20 4.283
341.30 4.278
341.40 4.273
341.50 4.268
341.60 4.264
341.70 4.259
341.80 4.254
341.90 4.249
342.00 4.245
342.10 4.24
342.20 4.235
342.30 4.23
342.40 4.226
342.50 4.221
342.60 4.216
342.70 4.212
342.80 4.207
342.90 4.202
343.00 4.197
343.10 4.193
343.20 4.188
343.30 4.183
343.40 4.179
343.50 4.174
343.60 4.17
343.70 4.165
343.80 4.16
343.90 4.156
344.00 4.151
344.10 4.146
344.20 4.142
344.30 4.137
344.40 4.133
344.50 4.128
344.60 4.123
344.70 4.119
344.80 4.114
344.90 4.11
345.00 4.105
345.10 4.101
345.20 4.096
345.30 4.092
345.40 4.087
345.50 4.083
345.60 4.078
345.70 4.074
345.80 4.069
345.90 4.064
346.00 4.06
346.10 4.056
346.20 4.051
346.30 4.047
346.40 4.042
346.50 4.038
346.60 4.033
346.70 4.029
346.80 4.024
346.90 4.02
347.00 4.016
347.10 4.011
347.20 4.007
347.30 4.002
347.40 3.998
347.50 3.993
347.60 3.989
347.70 3.985
347.80 3.98
347.90 3.976
348.00 3.971
348.10 3.967
348.20 3.963
348.30 3.958
348.40 3.954
348.50 3.95
348.60 3.945
348.70 3.941
348.80 3.937
348.90 3.933
349.00 3.928
349.10 3.924
349.20 3.92
349.30 3.915
349.40 3.911
349.50 3.907
349.60 3.902
349.70 3.898
349.80 3.894
349.90 3.89
350.00 3.885
350.10 3.881
350.20 3.877
350.30 3.873
350.40 3.868
350.50 3.864
350.60 3.86
350.70 3.856
350.80 3.852
350.90 3.847
351.00 3.843
351.10 3.839
351.20 3.835
351.30 3.831
351.40 3.827
351.50 3.822
351.60 3.818
351.70 3.814
351.80 3.81
351.90 3.806
352.00 3.802
352.10 3.798
352.20 3.793
352.30 3.789
352.40 3.785
352.50 3.781
352.60 3.777
352.70 3.773
352.80 3.769
352.90 3.765
353.00 3.761
353.10 3.757
353.20 3.753
353.30 3.748
353.40 3.744
353.50 3.74
353.60 3.736
353.70 3.732
353.80 3.728
353.90 3.724
354.00 3.72
354.10 3.716
354.20 3.712
354.30 3.708
354.40 3.704
354.50 3.7
354.60 3.696
354.70 3.692
354.80 3.688
354.90 3.684
355.00 3.68
355.10 3.676
355.20 3.672
355.30 3.668
355.40 3.664
355.50 3.66
355.60 3.656
355.70 3.653
355.80 3.649
355.90 3.645
356.00 3.641
356.10 3.637
356.20 3.633
356.30 3.629
356.40 3.625
356.50 3.621
356.60 3.617
356.70 3.614
356.80 3.61
356.90 3.606
357.00 3.602
357.10 3.598
357.20 3.594
357.30 3.59
357.40 3.587
357.50 3.583
357.60 3.579
357.70 3.575
357.80 3.571
357.90 3.567
358.00 3.564
358.10 3.56
358.20 3.556
358.30 3.552
358.40 3.548
358.50 3.545
358.60 3.541
358.70 3.537
358.80 3.533
358.90 3.53
359.00 3.526
359.10 3.522
359.20 3.518
359.30 3.514
359.40 3.511
359.50 3.507
359.60 3.503
359.70 3.5
359.80 3.496
359.90 3.492
360.00 3.488
360.10 3.485
360.20 3.481
360.30 3.477
360.40 3.474
360.50 3.47
360.60 3.466
360.70 3.463
360.80 3.459
360.90 3.455
361.00 3.452
361.10 3.448
361.20 3.444
361.30 3.441
361.40 3.437
361.50 3.433
361.60 3.43
361.70 3.426
361.80 3.422
361.90 3.419
362.00 3.415
362.10 3.412
362.20 3.408
362.30 3.404
362.40 3.401
362.50 3.397
362.60 3.394
362.70 3.39
362.80 3.386
362.90 3.383
363.00 3.379
363.10 3.376
363.20 3.372
363.30 3.369
363.40 3.365
363.50 3.362
363.60 3.358
363.70 3.354
363.80 3.351
363.90 3.347
364.00 3.344
364.10 3.34
364.20 3.337
364.30 3.333
364.40 3.33
364.50 3.326
364.60 3.323
364.70 3.319
364.80 3.316
364.90 3.312
365.00 3.309
365.10 3.305
365.20 3.302
365.30 3.299
365.40 3.295
365.50 3.292
365.60 3.288
365.70 3.285
365.80 3.281
365.90 3.278
366.00 3.274
366.10 3.271
366.20 3.268
366.30 3.264
366.40 3.261
366.50 3.257
366.60 3.254
366.70 3.251
366.80 3.247
366.90 3.244
367.00 3.24
367.10 3.237
367.20 3.234
367.30 3.23
367.40 3.227
367.50 3.223
367.60 3.22
367.70 3.217
367.80 3.213
367.90 3.21
368.00 3.207
368.10 3.203
368.20 3.2
368.30 3.197
368.40 3.193
368.50 3.19
368.60 3.186
368.70 3.183
368.80 3.18
368.90 3.176
369.00 3.173
369.10 3.17
369.20 3.166
369.30 3.163
369.40 3.16
369.50 3.156
369.60 3.153
369.70 3.15
369.80 3.146
369.90 3.143
370.00 3.14
370.10 3.136
370.20 3.133
370.30 3.13
370.40 3.127
370.50 3.123
370.60 3.12
370.70 3.117
370.80 3.113
370.90 3.11
371.00 3.107
371.10 3.104
371.20 3.1
371.30 3.097
371.40 3.094
371.50 3.09
371.60 3.087
371.70 3.084
371.80 3.081
371.90 3.077
372.00 3.074
372.10 3.071
372.20 3.068
372.30 3.065
372.40 3.062
372.50 3.059
372.60 3.056
372.70 3.052
372.80 3.049
372.90 3.046
373.00 3.043
373.10 3.04
373.20 3.037
373.30 3.034
373.40 3.031
373.50 3.028
373.60 3.025
373.70 3.022
373.80 3.019
373.90 3.016
374.00 3.013
374.10 3.009
374.20 3.006
374.30 3.003
374.40 3
374.50 2.997
374.60 2.994
374.70 2.991
374.80 2.988
374.90 2.984
375.00 2.981
375.10 2.978
375.20 2.975
375.30 2.972
375.40 2.969
375.50 2.966
375.60 2.963
375.70 2.96
375.80 2.957
375.90 2.953
376.00 2.95
376.10 2.947
376.20 2.944
376.30 2.941
376.40 2.938
376.50 2.935
376.60 2.932
376.70 2.929
376.80 2.926
376.90 2.923
377.00 2.92
377.10 2.917
377.20 2.914
377.30 2.911
377.40 2.908
377.50 2.905
377.60 2.902
377.70 2.899
377.80 2.896
377.90 2.893
378.00 2.89
378.10 2.887
378.20 2.884
378.30 2.881
378.40 2.878
378.50 2.875
378.60 2.872
378.70 2.869
378.80 2.867
378.90 2.864
379.00 2.861
379.10 2.858
379.20 2.855
379.30 2.852
379.40 2.849
379.50 2.846
379.60 2.843
379.70 2.84
379.80 2.837
379.90 2.834
380.00 2.832
380.10 2.829
380.20 2.826
380.30 2.823
380.40 2.82
380.50 2.817
380.60 2.814
380.70 2.812
380.80 2.809
380.90 2.806
381.00 2.803
381.10 2.8
381.20 2.797
381.30 2.794
381.40 2.792
381.50 2.789
381.60 2.786
381.70 2.783
381.80 2.78
381.90 2.778
382.00 2.775
382.10 2.772
382.20 2.769
382.30 2.766
382.40 2.764
382.50 2.761
382.60 2.758
382.70 2.755
382.80 2.753
382.90 2.75
383.00 2.747
383.10 2.744
383.20 2.741
383.30 2.739
383.40 2.736
383.50 2.733
383.60 2.731
383.70 2.728
383.80 2.725
383.90 2.722
384.00 2.72
384.10 2.717
384.20 2.714
384.30 2.711
384.40 2.709
384.50 2.706
384.60 2.703
384.70 2.701
384.80 2.698
384.90 2.695
385.00 2.693
385.10 2.69
385.20 2.687
385.30 2.685
385.40 2.682
385.50 2.679
385.60 2.677
385.70 2.674
385.80 2.671
385.90 2.669
386.00 2.666
386.10 2.663
386.20 2.661
386.30 2.658
386.40 2.655
386.50 2.653
386.60 2.65
386.70 2.648
386.80 2.645
386.90 2.642
387.00 2.64
387.10 2.637
387.20 2.635
387.30 2.632
387.40 2.629
387.50 2.627
387.60 2.624
387.70 2.622
387.80 2.619
387.90 2.616
388.00 2.614
388.10 2.611
388.20 2.609
388.30 2.606
388.40 2.604
388.50 2.601
388.60 2.599
388.70 2.596
388.80 2.594
388.90 2.591
389.00 2.589
389.10 2.586
389.20 2.583
389.30 2.581
389.40 2.578
389.50 2.576
389.60 2.573
389.70 2.571
389.80 2.568
389.90 2.566
390.00 2.563
390.10 2.561
390.20 2.559
390.30 2.556
390.40 2.554
390.50 2.551
390.60 2.549
390.70 2.546
390.80 2.544
390.90 2.541
391.00 2.539
391.10 2.536
391.20 2.534
391.30 2.531
391.40 2.529
391.50 2.527
391.60 2.524
391.70 2.522
391.80 2.519
391.90 2.517
392.00 2.514
392.10 2.512
392.20 2.51
392.30 2.507
392.40 2.505
392.50 2.502
392.60 2.5
392.70 2.497
392.80 2.495
392.90 2.493
393.00 2.49
393.10 2.488
393.20 2.485
393.30 2.483
393.40 2.481
393.50 2.478
393.60 2.476
393.70 2.473
393.80 2.471
393.90 2.469
394.00 2.466
394.10 2.464
394.20 2.461
394.30 2.459
394.40 2.457
394.50 2.454
394.60 2.452
394.70 2.45
394.80 2.447
394.90 2.445
395.00 2.442
395.10 2.44
395.20 2.438
395.30 2.435
395.40 2.433
395.50 2.431
395.60 2.428
395.70 2.426
395.80 2.424
395.90 2.421
396.00 2.419
396.10 2.417
396.20 2.414
396.30 2.412
396.40 2.41
396.50 2.407
396.60 2.405
396.70 2.403
396.80 2.401
396.90 2.398
397.00 2.396
397.10 2.394
397.20 2.392
397.30 2.39
397.40 2.387
397.50 2.385
397.60 2.383
397.70 2.381
397.80 2.379
397.90 2.376
398.00 2.374
398.10 2.372
398.20 2.37
398.30 2.368
398.40 2.366
398.50 2.363
398.60 2.361
398.70 2.359
398.80 2.357
398.90 2.355
399.00 2.353
399.10 2.351
399.20 2.349
399.30 2.346
399.40 2.344
399.50 2.342
399.60 2.34
399.70 2.338
399.80 2.336
399.90 2.334
400.00 2.331
400.10 2.329
400.20 2.327
400.30 2.325
400.40 2.323
400.50 2.321
400.60 2.319
400.70 2.317
400.80 2.314
400.90 2.312
401.00 2.31
401.10 2.308
401.20 2.306
401.30 2.304
401.40 2.302
401.50 2.299
401.60 2.297
401.70 2.295
401.80 2.293
401.90 2.291
402.00 2.289
402.10 2.286
402.20 2.284
402.30 2.282
402.40 2.28
402.50 2.278
402.60 2.276
402.70 2.273
402.80 2.271
402.90 2.269
403.00 2.267
403.10 2.265
403.20 2.262
403.30 2.26
403.40 2.258
403.50 2.256
403.60 2.254
403.70 2.251
403.80 2.249
403.90 2.247
404.00 2.245
404.10 2.243
404.20 2.24
404.30 2.238
404.40 2.236
404.50 2.234
404.60 2.232
404.70 2.229
404.80 2.227
404.90 2.225
405.00 2.223
405.10 2.22
405.20 2.218
405.30 2.216
405.40 2.214
405.50 2.211
405.60 2.209
405.70 2.207
405.80 2.205
405.90 2.202
406.00 2.2
406.10 2.198
406.20 2.195
406.30 2.193
406.40 2.191
406.50 2.189
406.60 2.186
406.70 2.184
406.80 2.182
406.90 2.18
407.00 2.177
407.10 2.175
407.20 2.173
407.30 2.17
407.40 2.168
407.50 2.166
407.60 2.164
407.70 2.161
407.80 2.159
407.90 2.157
408.00 2.155
408.10 2.152
408.20 2.15
408.30 2.148
408.40 2.146
408.50 2.143
408.60 2.141
408.70 2.139
408.80 2.137
408.90 2.135
409.00 2.132
409.10 2.13
409.20 2.128
409.30 2.126
409.40 2.124
409.50 2.122
409.60 2.12
409.70 2.119
409.80 2.117
409.90 2.115
410.00 2.113
410.10 2.111
410.20 2.11
410.30 2.108
410.40 2.106
410.50 2.104
410.60 2.102
410.70 2.1
410.80 2.098
410.90 2.096
411.00 2.094
411.10 2.092
411.20 2.091
411.30 2.089
411.40 2.087
411.50 2.086
411.60 2.084
411.70 2.083
411.80 2.081
411.90 2.079
412.00 2.078
412.10 2.076
412.20 2.075
412.30 2.073
412.40 2.072
412.50 2.07
412.60 2.069
412.70 2.067
412.80 2.066
412.90 2.064
413.00 2.063
413.10 2.061
413.20 2.06
413.30 2.058
413.40 2.057
413.50 2.055
413.60 2.054
413.70 2.052
413.80 2.05
413.90 2.049
414.00 2.047
414.10 2.046
414.20 2.044
414.30 2.043
414.40 2.041
414.50 2.04
414.60 2.038
414.70 2.037
414.80 2.035
414.90 2.034
415.00 2.032
415.10 2.03
415.20 2.029
415.30 2.027
415.40 2.026
415.50 2.024
415.60 2.022
415.70 2.021
415.80 2.019
415.90 2.018
416.00 2.016
416.10 2.014
416.20 2.013
416.30 2.011
416.40 2.01
416.50 2.008
416.60 2.006
416.70 2.005
416.80 2.003
416.90 2.001
417.00 2
417.10 1.998
417.20 1.997
417.30 1.995
417.40 1.993
417.50 1.992
417.60 1.99
417.70 1.988
417.80 1.987
417.90 1.985
418.00 1.983
418.10 1.982
418.20 1.98
418.30 1.978
418.40 1.976
418.50 1.975
418.60 1.973
418.70 1.971
418.80 1.97
418.90 1.968
419.00 1.966
419.10 1.965
419.20 1.963
419.30 1.961
419.40 1.959
419.50 1.958
419.60 1.956
419.70 1.954
419.80 1.952
419.90 1.951
420.00 1.949
420.10 1.947
420.20 1.946
420.30 1.944
420.40 1.942
420.50 1.94
420.60 1.938
420.70 1.937
420.80 1.935
420.90 1.933
421.00 1.931
421.10 1.93
421.20 1.928
421.30 1.926
421.40 1.924
421.50 1.922
421.60 1.921
421.70 1.919
421.80 1.917
421.90 1.915
422.00 1.913
422.10 1.912
422.20 1.91
422.30 1.908
422.40 1.906
422.50 1.904
422.60 1.903
422.70 1.901
422.80 1.899
422.90 1.897
423.00 1.895
423.10 1.893
423.20 1.891
423.30 1.89
423.40 1.888
423.50 1.886
423.60 1.884
423.70 1.882
423.80 1.88
423.90 1.878
424.00 1.876
424.10 1.875
424.20 1.873
424.30 1.871
424.40 1.869
424.50 1.867
424.60 1.865
424.70 1.863
424.80 1.861
424.90 1.859
425.00 1.857
425.10 1.855
425.20 1.853
425.30 1.851
425.40 1.849
425.50 1.847
425.60 1.845
425.70 1.843
425.80 1.841
425.90 1.839
426.00 1.837
426.10 1.835
426.20 1.833
426.30 1.831
426.40 1.829
426.50 1.827
426.60 1.825
426.70 1.823
426.80 1.821
426.90 1.819
427.00 1.817
427.10 1.815
427.20 1.813
427.30 1.811
427.40 1.809
427.50 1.807
427.60 1.804
427.70 1.802
427.80 1.8
427.90 1.798
428.00 1.796
428.10 1.794
428.20 1.791
428.30 1.789
428.40 1.787
428.50 1.785
428.60 1.783
428.70 1.78
428.80 1.778
428.90 1.776
429.00 1.774
429.10 1.771
429.20 1.769
429.30 1.767
429.40 1.765
429.50 1.762
429.60 1.76
429.70 1.758
429.80 1.755
429.90 1.753
430.00 1.751
430.10 1.748
430.20 1.746
430.30 1.744
430.40 1.741
430.50 1.739
430.60 1.737
430.70 1.734
430.80 1.732
430.90 1.729
431.00 1.727
431.10 1.725
431.20 1.722
431.30 1.72
431.40 1.717
431.50 1.715
431.60 1.712
431.70 1.71
431.80 1.707
431.90 1.705
432.00 1.702
432.10 1.7
432.20 1.697
432.30 1.695
432.40 1.692
432.50 1.69
432.60 1.687
432.70 1.685
432.80 1.682
432.90 1.679
433.00 1.677
433.10 1.674
433.20 1.671
433.30 1.668
433.40 1.666
433.50 1.663
433.60 1.66
433.70 1.656
433.80 1.653
433.90 1.65
434.00 1.648
434.10 1.647
434.20 1.647
434.30 1.647
434.40 1.648
434.50 1.648
434.60 1.648
434.70 1.648
434.80 1.648
434.90 1.648
435.00 1.648
435.10 1.648
435.20 1.648
435.30 1.648
435.40 1.647
435.50 1.647
435.60 1.647
435.70 1.646
435.80 1.646
435.90 1.646
436.00 1.645
436.10 1.645
436.20 1.644
436.30 1.644
436.40 1.644
436.50 1.643
436.60 1.643
436.70 1.642
436.80 1.642
436.90 1.641
437.00 1.641
437.10 1.64
437.20 1.64
437.30 1.639
437.40 1.639
437.50 1.638
437.60 1.637
437.70 1.637
437.80 1.636
437.90 1.636
438.00 1.635
438.10 1.634
438.20 1.634
438.30 1.633
438.40 1.632
438.50 1.632
438.60 1.631
438.70 1.63
438.80 1.63
438.90 1.629
439.00 1.628
439.10 1.627
439.20 1.627
439.30 1.626
439.40 1.625
439.50 1.624
439.60 1.623
439.70 1.623
439.80 1.622
439.90 1.621
440.00 1.62
440.10 1.619
440.20 1.618
440.30 1.618
440.40 1.617
440.50 1.616
440.60 1.615
440.70 1.614
440.80 1.613
440.90 1.612
441.00 1.611
441.10 1.61
441.20 1.609
441.30 1.608
441.40 1.607
441.50 1.606
441.60 1.605
441.70 1.604
441.80 1.603
441.90 1.602
442.00 1.601
442.10 1.6
442.20 1.599
442.30 1.598
442.40 1.597
442.50 1.596
442.60 1.595
442.70 1.594
442.80 1.593
442.90 1.592
443.00 1.591
443.10 1.59
443.20 1.589
443.30 1.588
443.40 1.587
443.50 1.585
443.60 1.584
443.70 1.583
443.80 1.582
443.90 1.581
444.00 1.58
444.10 1.579
444.20 1.578
444.30 1.576
444.40 1.575
444.50 1.574
444.60 1.573
444.70 1.572
444.80 1.571
444.90 1.57
445.00 1.568
445.10 1.567
445.20 1.566
445.30 1.565
445.40 1.564
445.50 1.563
445.60 1.561
445.70 1.56
445.80 1.559
445.90 1.558
446.00 1.557
446.10 1.555
446.20 1.554
446.30 1.553
446.40 1.552
446.50 1.551
446.60 1.549
446.70 1.548
446.80 1.547
446.90 1.546
447.00 1.545
447.10 1.543
447.20 1.542
447.30 1.541
447.40 1.54
447.50 1.539
447.60 1.537
447.70 1.536
447.80 1.535
447.90 1.534
448.00 1.532
448.10 1.531
448.20 1.53
448.30 1.529
448.40 1.528
448.50 1.526
448.60 1.525
448.70 1.524
448.80 1.523
448.90 1.521
449.00 1.52
449.10 1.519
449.20 1.518
449.30 1.517
449.40 1.515
449.50 1.514
449.60 1.513
449.70 1.512
449.80 1.51
449.90 1.509
450.00 1.508
450.10 1.507
450.20 1.506
450.30 1.504
450.40 1.503
450.50 1.502
450.60 1.501
450.70 1.499
450.80 1.498
450.90 1.497
451.00 1.496
451.10 1.494
451.20 1.493
451.30 1.492
451.40 1.491
451.50 1.489
451.60 1.488
451.70 1.487
451.80 1.486
451.90 1.485
452.00 1.483
452.10 1.482
452.20 1.481
452.30 1.48
452.40 1.478
452.50 1.477
452.60 1.476
452.70 1.475
452.80 1.474
452.90 1.472
453.00 1.471
453.10 1.47
453.20 1.469
453.30 1.467
453.40 1.466
453.50 1.465
453.60 1.464
453.70 1.462
453.80 1.461
453.90 1.46
454.00 1.459
454.10 1.458
454.20 1.456
454.30 1.455
