# Version 2.1 - nm, norm@500 to 1, cut digits, bergeron_35000_85.dat_35000
# Wavelength(nm)  Flambda(ergs/cm^s/s/nm)
300.00 5.579
300.10 5.573
300.20 5.566
300.30 5.56
300.40 5.553
300.50 5.547
300.60 5.54
300.70 5.534
300.80 5.528
300.90 5.521
301.00 5.515
301.10 5.508
301.20 5.502
301.30 5.495
301.40 5.489
301.50 5.483
301.60 5.476
301.70 5.47
301.80 5.464
301.90 5.457
302.00 5.451
302.10 5.445
302.20 5.438
302.30 5.432
302.40 5.426
302.50 5.419
302.60 5.413
302.70 5.407
302.80 5.401
302.90 5.394
303.00 5.388
303.10 5.382
303.20 5.376
303.30 5.37
303.40 5.363
303.50 5.357
303.60 5.351
303.70 5.345
303.80 5.339
303.90 5.332
304.00 5.326
304.10 5.32
304.20 5.314
304.30 5.308
304.40 5.302
304.50 5.296
304.60 5.29
304.70 5.284
304.80 5.278
304.90 5.271
305.00 5.265
305.10 5.259
305.20 5.253
305.30 5.247
305.40 5.241
305.50 5.235
305.60 5.229
305.70 5.223
305.80 5.217
305.90 5.211
306.00 5.205
306.10 5.199
306.20 5.193
306.30 5.187
306.40 5.181
306.50 5.176
306.60 5.17
306.70 5.164
306.80 5.158
306.90 5.152
307.00 5.146
307.10 5.14
307.20 5.134
307.30 5.128
307.40 5.123
307.50 5.117
307.60 5.111
307.70 5.105
307.80 5.099
307.90 5.093
308.00 5.088
308.10 5.082
308.20 5.076
308.30 5.07
308.40 5.065
308.50 5.059
308.60 5.053
308.70 5.047
308.80 5.042
308.90 5.036
309.00 5.03
309.10 5.024
309.20 5.019
309.30 5.013
309.40 5.007
309.50 5.002
309.60 4.996
309.70 4.99
309.80 4.985
309.90 4.979
310.00 4.973
310.10 4.968
310.20 4.962
310.30 4.957
310.40 4.951
310.50 4.945
310.60 4.94
310.70 4.934
310.80 4.929
310.90 4.923
311.00 4.917
311.10 4.912
311.20 4.906
311.30 4.901
311.40 4.895
311.50 4.89
311.60 4.884
311.70 4.879
311.80 4.873
311.90 4.868
312.00 4.862
312.10 4.857
312.20 4.851
312.30 4.846
312.40 4.84
312.50 4.835
312.60 4.83
312.70 4.824
312.80 4.819
312.90 4.813
313.00 4.808
313.10 4.802
313.20 4.797
313.30 4.792
313.40 4.786
313.50 4.781
313.60 4.776
313.70 4.77
313.80 4.765
313.90 4.76
314.00 4.754
314.10 4.749
314.20 4.744
314.30 4.738
314.40 4.733
314.50 4.728
314.60 4.722
314.70 4.717
314.80 4.712
314.90 4.707
315.00 4.701
315.10 4.696
315.20 4.691
315.30 4.686
315.40 4.681
315.50 4.675
315.60 4.67
315.70 4.665
315.80 4.66
315.90 4.655
316.00 4.649
316.10 4.644
316.20 4.639
316.30 4.634
316.40 4.629
316.50 4.624
316.60 4.618
316.70 4.613
316.80 4.608
316.90 4.603
317.00 4.598
317.10 4.593
317.20 4.588
317.30 4.583
317.40 4.578
317.50 4.573
317.60 4.567
317.70 4.562
317.80 4.557
317.90 4.552
318.00 4.547
318.10 4.542
318.20 4.537
318.30 4.532
318.40 4.527
318.50 4.522
318.60 4.517
318.70 4.512
318.80 4.507
318.90 4.502
319.00 4.497
319.10 4.492
319.20 4.487
319.30 4.482
319.40 4.477
319.50 4.473
319.60 4.468
319.70 4.463
319.80 4.458
319.90 4.453
320.00 4.448
320.10 4.443
320.20 4.438
320.30 4.433
320.40 4.428
320.50 4.424
320.60 4.419
320.70 4.414
320.80 4.409
320.90 4.404
321.00 4.399
321.10 4.395
321.20 4.39
321.30 4.385
321.40 4.38
321.50 4.375
321.60 4.371
321.70 4.366
321.80 4.361
321.90 4.356
322.00 4.351
322.10 4.347
322.20 4.342
322.30 4.337
322.40 4.332
322.50 4.328
322.60 4.323
322.70 4.318
322.80 4.314
322.90 4.309
323.00 4.304
323.10 4.299
323.20 4.295
323.30 4.29
323.40 4.285
323.50 4.281
323.60 4.276
323.70 4.271
323.80 4.267
323.90 4.262
324.00 4.257
324.10 4.253
324.20 4.248
324.30 4.244
324.40 4.239
324.50 4.234
324.60 4.23
324.70 4.225
324.80 4.221
324.90 4.216
325.00 4.211
325.10 4.207
325.20 4.202
325.30 4.198
325.40 4.193
325.50 4.189
325.60 4.184
325.70 4.18
325.80 4.175
325.90 4.171
326.00 4.166
326.10 4.162
326.20 4.157
326.30 4.153
326.40 4.148
326.50 4.144
326.60 4.139
326.70 4.135
326.80 4.13
326.90 4.126
327.00 4.121
327.10 4.117
327.20 4.112
327.30 4.108
327.40 4.104
327.50 4.099
327.60 4.095
327.70 4.09
327.80 4.086
327.90 4.082
328.00 4.077
328.10 4.073
328.20 4.068
328.30 4.064
328.40 4.06
328.50 4.055
328.60 4.051
328.70 4.047
328.80 4.042
328.90 4.038
329.00 4.034
329.10 4.029
329.20 4.025
329.30 4.021
329.40 4.016
329.50 4.012
329.60 4.008
329.70 4.003
329.80 3.999
329.90 3.995
330.00 3.991
330.10 3.986
330.20 3.982
330.30 3.978
330.40 3.974
330.50 3.969
330.60 3.965
330.70 3.961
330.80 3.957
330.90 3.952
331.00 3.948
331.10 3.944
331.20 3.94
331.30 3.936
331.40 3.931
331.50 3.927
331.60 3.923
331.70 3.919
331.80 3.915
331.90 3.91
332.00 3.906
332.10 3.902
332.20 3.898
332.30 3.894
332.40 3.89
332.50 3.886
332.60 3.882
332.70 3.877
332.80 3.873
332.90 3.869
333.00 3.865
333.10 3.861
333.20 3.857
333.30 3.853
333.40 3.849
333.50 3.845
333.60 3.841
333.70 3.836
333.80 3.832
333.90 3.828
334.00 3.824
334.10 3.82
334.20 3.816
334.30 3.812
334.40 3.808
334.50 3.804
334.60 3.8
334.70 3.796
334.80 3.792
334.90 3.788
335.00 3.784
335.10 3.78
335.20 3.776
335.30 3.772
335.40 3.768
335.50 3.764
335.60 3.76
335.70 3.756
335.80 3.752
335.90 3.748
336.00 3.744
336.10 3.74
336.20 3.737
336.30 3.733
336.40 3.729
336.50 3.725
336.60 3.721
336.70 3.717
336.80 3.713
336.90 3.709
337.00 3.705
337.10 3.701
337.20 3.697
337.30 3.694
337.40 3.69
337.50 3.686
337.60 3.682
337.70 3.678
337.80 3.674
337.90 3.67
338.00 3.667
338.10 3.663
338.20 3.659
338.30 3.655
338.40 3.651
338.50 3.647
338.60 3.644
338.70 3.64
338.80 3.636
338.90 3.632
339.00 3.628
339.10 3.625
339.20 3.621
339.30 3.617
339.40 3.613
339.50 3.61
339.60 3.606
339.70 3.602
339.80 3.598
339.90 3.595
340.00 3.591
340.10 3.587
340.20 3.583
340.30 3.58
340.40 3.576
340.50 3.572
340.60 3.568
340.70 3.565
340.80 3.561
340.90 3.557
341.00 3.554
341.10 3.55
341.20 3.546
341.30 3.543
341.40 3.539
341.50 3.535
341.60 3.532
341.70 3.528
341.80 3.524
341.90 3.521
342.00 3.517
342.10 3.513
342.20 3.51
342.30 3.506
342.40 3.502
342.50 3.499
342.60 3.495
342.70 3.492
342.80 3.488
342.90 3.484
343.00 3.481
343.10 3.477
343.20 3.474
343.30 3.47
343.40 3.466
343.50 3.463
343.60 3.459
343.70 3.456
343.80 3.452
343.90 3.449
344.00 3.445
344.10 3.442
344.20 3.438
344.30 3.434
344.40 3.431
344.50 3.427
344.60 3.424
344.70 3.42
344.80 3.417
344.90 3.413
345.00 3.41
345.10 3.406
345.20 3.403
345.30 3.399
345.40 3.396
345.50 3.392
345.60 3.389
345.70 3.385
345.80 3.382
345.90 3.378
346.00 3.375
346.10 3.372
346.20 3.368
346.30 3.365
346.40 3.361
346.50 3.358
346.60 3.354
346.70 3.351
346.80 3.347
346.90 3.344
347.00 3.341
347.10 3.337
347.20 3.334
347.30 3.33
347.40 3.327
347.50 3.324
347.60 3.32
347.70 3.317
347.80 3.313
347.90 3.31
348.00 3.307
348.10 3.303
348.20 3.3
348.30 3.297
348.40 3.293
348.50 3.29
348.60 3.287
348.70 3.283
348.80 3.28
348.90 3.277
349.00 3.273
349.10 3.27
349.20 3.267
349.30 3.263
349.40 3.26
349.50 3.257
349.60 3.253
349.70 3.25
349.80 3.247
349.90 3.243
350.00 3.24
350.10 3.237
350.20 3.234
350.30 3.23
350.40 3.227
350.50 3.224
350.60 3.221
350.70 3.217
350.80 3.214
350.90 3.211
351.00 3.208
351.10 3.204
351.20 3.201
351.30 3.198
351.40 3.195
351.50 3.191
351.60 3.188
351.70 3.185
351.80 3.182
351.90 3.178
352.00 3.175
352.10 3.172
352.20 3.169
352.30 3.166
352.40 3.162
352.50 3.159
352.60 3.156
352.70 3.153
352.80 3.15
352.90 3.147
353.00 3.143
353.10 3.14
353.20 3.137
353.30 3.134
353.40 3.131
353.50 3.128
353.60 3.125
353.70 3.121
353.80 3.118
353.90 3.115
354.00 3.112
354.10 3.109
354.20 3.106
354.30 3.103
354.40 3.1
354.50 3.096
354.60 3.093
354.70 3.09
354.80 3.087
354.90 3.084
355.00 3.081
355.10 3.078
355.20 3.075
355.30 3.072
355.40 3.069
355.50 3.066
355.60 3.063
355.70 3.059
355.80 3.056
355.90 3.053
356.00 3.05
356.10 3.047
356.20 3.044
356.30 3.041
356.40 3.038
356.50 3.035
356.60 3.032
356.70 3.029
356.80 3.026
356.90 3.023
357.00 3.02
357.10 3.017
357.20 3.014
357.30 3.011
357.40 3.008
357.50 3.005
357.60 3.002
357.70 2.999
357.80 2.996
357.90 2.993
358.00 2.99
358.10 2.987
358.20 2.984
358.30 2.981
358.40 2.978
358.50 2.975
358.60 2.972
358.70 2.969
358.80 2.966
358.90 2.964
359.00 2.961
359.10 2.958
359.20 2.955
359.30 2.952
359.40 2.949
359.50 2.946
359.60 2.943
359.70 2.94
359.80 2.937
359.90 2.934
360.00 2.931
360.10 2.929
360.20 2.926
360.30 2.923
360.40 2.92
360.50 2.917
360.60 2.914
360.70 2.911
360.80 2.908
360.90 2.906
361.00 2.903
361.10 2.9
361.20 2.897
361.30 2.894
361.40 2.891
361.50 2.888
361.60 2.886
361.70 2.883
361.80 2.88
361.90 2.877
362.00 2.874
362.10 2.871
362.20 2.869
362.30 2.866
362.40 2.863
362.50 2.86
362.60 2.857
362.70 2.855
362.80 2.852
362.90 2.849
363.00 2.846
363.10 2.843
363.20 2.841
363.30 2.838
363.40 2.835
363.50 2.832
363.60 2.829
363.70 2.827
363.80 2.824
363.90 2.821
364.00 2.818
364.10 2.816
364.20 2.813
364.30 2.81
364.40 2.807
364.50 2.805
364.60 2.802
364.70 2.799
364.80 2.796
364.90 2.794
365.00 2.791
365.10 2.788
365.20 2.786
365.30 2.783
365.40 2.78
365.50 2.777
365.60 2.775
365.70 2.772
365.80 2.769
365.90 2.767
366.00 2.764
366.10 2.761
366.20 2.758
366.30 2.755
366.40 2.753
366.50 2.75
366.60 2.747
366.70 2.744
366.80 2.741
366.90 2.739
367.00 2.736
367.10 2.733
367.20 2.73
367.30 2.727
367.40 2.725
367.50 2.722
367.60 2.719
367.70 2.716
367.80 2.713
367.90 2.711
368.00 2.708
368.10 2.705
368.20 2.702
368.30 2.699
368.40 2.697
368.50 2.694
368.60 2.691
368.70 2.688
368.80 2.685
368.90 2.683
369.00 2.68
369.10 2.677
369.20 2.674
369.30 2.671
369.40 2.669
369.50 2.666
369.60 2.663
369.70 2.66
369.80 2.657
369.90 2.655
370.00 2.652
370.10 2.649
370.20 2.646
370.30 2.644
370.40 2.641
370.50 2.638
370.60 2.636
370.70 2.633
370.80 2.63
370.90 2.628
371.00 2.625
371.10 2.622
371.20 2.62
371.30 2.617
371.40 2.614
371.50 2.611
371.60 2.609
371.70 2.606
371.80 2.603
371.90 2.601
372.00 2.598
372.10 2.596
372.20 2.593
372.30 2.59
372.40 2.588
372.50 2.585
372.60 2.583
372.70 2.58
372.80 2.578
372.90 2.575
373.00 2.573
373.10 2.57
373.20 2.568
373.30 2.565
373.40 2.563
373.50 2.56
373.60 2.558
373.70 2.555
373.80 2.553
373.90 2.55
374.00 2.548
374.10 2.545
374.20 2.543
374.30 2.54
374.40 2.538
374.50 2.535
374.60 2.533
374.70 2.53
374.80 2.528
374.90 2.525
375.00 2.523
375.10 2.52
375.20 2.518
375.30 2.515
375.40 2.513
375.50 2.51
375.60 2.508
375.70 2.505
375.80 2.503
375.90 2.5
376.00 2.498
376.10 2.495
376.20 2.493
376.30 2.49
376.40 2.488
376.50 2.486
376.60 2.483
376.70 2.481
376.80 2.478
376.90 2.476
377.00 2.474
377.10 2.472
377.20 2.469
377.30 2.467
377.40 2.465
377.50 2.463
377.60 2.46
377.70 2.458
377.80 2.456
377.90 2.454
378.00 2.452
378.10 2.449
378.20 2.447
378.30 2.445
378.40 2.443
378.50 2.44
378.60 2.438
378.70 2.436
378.80 2.434
378.90 2.432
379.00 2.429
379.10 2.427
379.20 2.425
379.30 2.423
379.40 2.421
379.50 2.419
379.60 2.417
379.70 2.414
379.80 2.412
379.90 2.41
380.00 2.408
380.10 2.406
380.20 2.404
380.30 2.403
380.40 2.401
380.50 2.399
380.60 2.397
380.70 2.395
380.80 2.393
380.90 2.392
381.00 2.39
381.10 2.388
381.20 2.386
381.30 2.384
381.40 2.382
381.50 2.38
381.60 2.378
381.70 2.376
381.80 2.374
381.90 2.371
382.00 2.369
382.10 2.367
382.20 2.365
382.30 2.362
382.40 2.36
382.50 2.357
382.60 2.355
382.70 2.353
382.80 2.35
382.90 2.348
383.00 2.346
383.10 2.343
383.20 2.341
383.30 2.339
383.40 2.336
383.50 2.334
383.60 2.333
383.70 2.331
383.80 2.33
383.90 2.329
384.00 2.328
384.10 2.327
384.20 2.326
384.30 2.325
384.40 2.324
384.50 2.323
384.60 2.322
384.70 2.321
384.80 2.32
384.90 2.318
385.00 2.317
385.10 2.316
385.20 2.314
385.30 2.313
385.40 2.311
385.50 2.309
385.60 2.308
385.70 2.306
385.80 2.304
385.90 2.302
386.00 2.3
386.10 2.297
386.20 2.295
386.30 2.293
386.40 2.29
386.50 2.288
386.60 2.285
386.70 2.282
386.80 2.279
386.90 2.276
387.00 2.273
387.10 2.27
387.20 2.267
387.30 2.263
387.40 2.26
387.50 2.257
387.60 2.253
387.70 2.25
387.80 2.246
387.90 2.242
388.00 2.239
388.10 2.235
388.20 2.231
388.30 2.228
388.40 2.224
388.50 2.221
388.60 2.217
388.70 2.215
388.80 2.212
388.90 2.21
389.00 2.209
389.10 2.209
389.20 2.209
389.30 2.209
389.40 2.21
389.50 2.211
389.60 2.212
389.70 2.212
389.80 2.213
389.90 2.214
390.00 2.215
390.10 2.216
390.20 2.217
390.30 2.217
390.40 2.218
390.50 2.218
390.60 2.219
390.70 2.219
390.80 2.219
390.90 2.219
391.00 2.219
391.10 2.219
391.20 2.219
391.30 2.219
391.40 2.218
391.50 2.217
391.60 2.217
391.70 2.216
391.80 2.215
391.90 2.214
392.00 2.212
392.10 2.211
392.20 2.209
392.30 2.207
392.40 2.206
392.50 2.204
392.60 2.201
392.70 2.199
392.80 2.197
392.90 2.194
393.00 2.191
393.10 2.188
393.20 2.185
393.30 2.182
393.40 2.179
393.50 2.175
393.60 2.171
393.70 2.168
393.80 2.164
393.90 2.159
394.00 2.155
394.10 2.15
394.20 2.146
394.30 2.141
394.40 2.136
394.50 2.131
394.60 2.125
394.70 2.119
394.80 2.114
394.90 2.108
395.00 2.102
395.10 2.095
395.20 2.089
395.30 2.082
395.40 2.075
395.50 2.068
395.60 2.061
395.70 2.054
395.80 2.047
395.90 2.039
396.00 2.031
396.10 2.024
396.20 2.016
396.30 2.008
396.40 2
396.50 1.992
396.60 1.984
396.70 1.977
396.80 1.969
396.90 1.962
397.00 1.956
397.10 1.959
397.20 1.963
397.30 1.968
397.40 1.973
397.50 1.978
397.60 1.983
397.70 1.988
397.80 1.993
397.90 1.999
398.00 2.004
398.10 2.009
398.20 2.013
398.30 2.018
398.40 2.023
398.50 2.027
398.60 2.032
398.70 2.036
398.80 2.04
398.90 2.044
399.00 2.047
399.10 2.051
399.20 2.054
399.30 2.058
399.40 2.061
399.50 2.064
399.60 2.066
399.70 2.069
399.80 2.071
399.90 2.074
400.00 2.076
400.10 2.078
400.20 2.08
400.30 2.081
400.40 2.083
400.50 2.084
400.60 2.086
400.70 2.087
400.80 2.088
400.90 2.089
401.00 2.089
401.10 2.09
401.20 2.091
401.30 2.091
401.40 2.091
401.50 2.091
401.60 2.091
401.70 2.091
401.80 2.091
401.90 2.091
402.00 2.09
402.10 2.089
402.20 2.089
402.30 2.088
402.40 2.087
402.50 2.086
402.60 2.085
402.70 2.084
402.80 2.082
402.90 2.081
403.00 2.079
403.10 2.077
403.20 2.076
403.30 2.074
403.40 2.072
403.50 2.07
403.60 2.067
403.70 2.065
403.80 2.062
403.90 2.06
404.00 2.057
404.10 2.054
404.20 2.051
404.30 2.048
404.40 2.045
404.50 2.042
404.60 2.038
404.70 2.035
404.80 2.031
404.90 2.027
405.00 2.023
405.10 2.019
405.20 2.015
405.30 2.011
405.40 2.006
405.50 2.001
405.60 1.997
405.70 1.992
405.80 1.987
405.90 1.981
406.00 1.976
406.10 1.97
406.20 1.965
406.30 1.959
406.40 1.952
406.50 1.946
406.60 1.94
406.70 1.933
406.80 1.926
406.90 1.919
407.00 1.912
407.10 1.904
407.20 1.897
407.30 1.889
407.40 1.88
407.50 1.872
407.60 1.864
407.70 1.855
407.80 1.846
407.90 1.836
408.00 1.827
408.10 1.817
408.20 1.807
408.30 1.797
408.40 1.786
408.50 1.775
408.60 1.764
408.70 1.753
408.80 1.741
408.90 1.73
409.00 1.718
409.10 1.705
409.20 1.693
409.30 1.68
409.40 1.668
409.50 1.655
409.60 1.643
409.70 1.631
409.80 1.62
409.90 1.609
410.00 1.604
410.10 1.601
410.20 1.603
410.30 1.6
410.40 1.601
410.50 1.606
410.60 1.615
410.70 1.624
410.80 1.633
410.90 1.643
411.00 1.653
411.10 1.663
411.20 1.673
411.30 1.683
411.40 1.692
411.50 1.701
411.60 1.71
411.70 1.718
411.80 1.727
411.90 1.735
412.00 1.742
412.10 1.75
412.20 1.757
412.30 1.764
412.40 1.771
412.50 1.777
412.60 1.783
412.70 1.789
412.80 1.795
412.90 1.8
413.00 1.806
413.10 1.811
413.20 1.816
413.30 1.82
413.40 1.824
413.50 1.829
413.60 1.833
413.70 1.837
413.80 1.84
413.90 1.844
414.00 1.847
414.10 1.85
414.20 1.853
414.30 1.856
414.40 1.859
414.50 1.861
414.60 1.864
414.70 1.866
414.80 1.868
414.90 1.87
415.00 1.872
415.10 1.874
415.20 1.876
415.30 1.877
415.40 1.879
415.50 1.88
415.60 1.881
415.70 1.882
415.80 1.883
415.90 1.884
416.00 1.885
416.10 1.886
416.20 1.887
416.30 1.887
416.40 1.888
416.50 1.888
416.60 1.889
416.70 1.889
416.80 1.889
416.90 1.89
417.00 1.89
417.10 1.89
417.20 1.89
417.30 1.89
417.40 1.89
417.50 1.89
417.60 1.889
417.70 1.889
417.80 1.889
417.90 1.888
418.00 1.888
418.10 1.888
418.20 1.887
418.30 1.887
418.40 1.886
418.50 1.885
418.60 1.885
418.70 1.884
418.80 1.883
418.90 1.883
419.00 1.882
419.10 1.881
419.20 1.88
419.30 1.879
419.40 1.878
419.50 1.877
419.60 1.876
419.70 1.875
419.80 1.874
419.90 1.873
420.00 1.872
420.10 1.871
420.20 1.87
420.30 1.869
420.40 1.867
420.50 1.866
420.60 1.865
420.70 1.864
420.80 1.862
420.90 1.861
421.00 1.86
421.10 1.858
421.20 1.857
421.30 1.855
421.40 1.854
421.50 1.853
421.60 1.851
421.70 1.85
421.80 1.848
421.90 1.846
422.00 1.845
422.10 1.843
422.20 1.842
422.30 1.84
422.40 1.838
422.50 1.837
422.60 1.835
422.70 1.833
422.80 1.832
422.90 1.83
423.00 1.828
423.10 1.826
423.20 1.824
423.30 1.822
423.40 1.821
423.50 1.819
423.60 1.817
423.70 1.815
423.80 1.813
423.90 1.811
424.00 1.809
424.10 1.807
424.20 1.805
424.30 1.803
424.40 1.8
424.50 1.798
424.60 1.796
424.70 1.794
424.80 1.792
424.90 1.789
425.00 1.787
425.10 1.785
425.20 1.782
425.30 1.78
425.40 1.777
425.50 1.775
425.60 1.772
425.70 1.77
425.80 1.767
425.90 1.765
426.00 1.762
426.10 1.759
426.20 1.756
426.30 1.754
426.40 1.751
426.50 1.748
426.60 1.745
426.70 1.742
426.80 1.739
426.90 1.736
427.00 1.732
427.10 1.729
427.20 1.726
427.30 1.722
427.40 1.719
427.50 1.715
427.60 1.712
427.70 1.708
427.80 1.704
427.90 1.701
428.00 1.697
428.10 1.693
428.20 1.689
428.30 1.685
428.40 1.68
428.50 1.676
428.60 1.672
428.70 1.667
428.80 1.662
428.90 1.658
429.00 1.653
429.10 1.648
429.20 1.643
429.30 1.638
429.40 1.632
429.50 1.627
429.60 1.621
429.70 1.616
429.80 1.61
429.90 1.604
430.00 1.598
430.10 1.592
430.20 1.585
430.30 1.579
430.40 1.572
430.50 1.565
430.60 1.558
430.70 1.551
430.80 1.543
430.90 1.536
431.00 1.528
431.10 1.52
431.20 1.512
431.30 1.503
431.40 1.494
431.50 1.486
431.60 1.476
431.70 1.467
431.80 1.457
431.90 1.448
432.00 1.437
432.10 1.427
432.20 1.416
432.30 1.405
432.40 1.394
432.50 1.382
432.60 1.37
432.70 1.358
432.80 1.346
432.90 1.333
433.00 1.32
433.10 1.306
433.20 1.293
433.30 1.279
433.40 1.265
433.50 1.251
433.60 1.237
433.70 1.222
433.80 1.207
433.90 1.192
434.00 1.172
434.10 1.171
434.20 1.191
434.30 1.204
434.40 1.217
434.50 1.229
434.60 1.242
434.70 1.254
434.80 1.266
434.90 1.278
435.00 1.289
435.10 1.3
435.20 1.311
435.30 1.322
435.40 1.332
435.50 1.342
435.60 1.351
435.70 1.361
435.80 1.369
435.90 1.378
436.00 1.386
436.10 1.394
436.20 1.402
436.30 1.409
436.40 1.416
436.50 1.423
436.60 1.43
436.70 1.436
436.80 1.442
436.90 1.448
437.00 1.453
437.10 1.459
437.20 1.464
437.30 1.469
437.40 1.473
437.50 1.478
437.60 1.482
437.70 1.486
437.80 1.49
437.90 1.494
438.00 1.498
438.10 1.501
438.20 1.505
438.30 1.508
438.40 1.511
438.50 1.514
438.60 1.516
438.70 1.519
438.80 1.522
438.90 1.524
439.00 1.526
439.10 1.528
439.20 1.53
439.30 1.532
439.40 1.534
439.50 1.536
439.60 1.537
439.70 1.539
439.80 1.54
439.90 1.541
440.00 1.542
440.10 1.544
440.20 1.545
440.30 1.546
440.40 1.546
440.50 1.547
440.60 1.548
440.70 1.549
440.80 1.549
440.90 1.55
441.00 1.55
441.10 1.551
441.20 1.551
441.30 1.551
441.40 1.552
441.50 1.552
441.60 1.552
441.70 1.552
441.80 1.552
441.90 1.552
442.00 1.552
442.10 1.552
442.20 1.552
442.30 1.552
442.40 1.552
442.50 1.551
442.60 1.551
442.70 1.551
442.80 1.55
442.90 1.55
443.00 1.55
443.10 1.549
443.20 1.549
443.30 1.548
443.40 1.548
443.50 1.547
443.60 1.547
443.70 1.546
443.80 1.546
443.90 1.545
444.00 1.545
444.10 1.544
444.20 1.543
444.30 1.543
444.40 1.542
444.50 1.541
444.60 1.54
444.70 1.54
444.80 1.539
444.90 1.538
445.00 1.537
445.10 1.537
445.20 1.536
445.30 1.535
445.40 1.534
445.50 1.533
445.60 1.532
445.70 1.531
445.80 1.531
445.90 1.53
446.00 1.529
446.10 1.528
446.20 1.527
446.30 1.526
446.40 1.525
446.50 1.524
446.60 1.523
446.70 1.522
446.80 1.521
446.90 1.52
447.00 1.519
447.10 1.518
447.20 1.517
447.30 1.516
447.40 1.515
447.50 1.514
447.60 1.513
447.70 1.512
447.80 1.511
447.90 1.51
448.00 1.509
448.10 1.508
448.20 1.507
448.30 1.506
448.40 1.505
448.50 1.504
448.60 1.503
448.70 1.502
448.80 1.501
448.90 1.5
449.00 1.499
449.10 1.498
449.20 1.496
449.30 1.495
449.40 1.494
449.50 1.493
449.60 1.492
449.70 1.491
449.80 1.49
449.90 1.489
450.00 1.488
450.10 1.487
450.20 1.486
450.30 1.484
450.40 1.483
450.50 1.482
450.60 1.481
450.70 1.48
450.80 1.479
450.90 1.478
451.00 1.477
451.10 1.476
451.20 1.474
451.30 1.473
451.40 1.472
451.50 1.471
451.60 1.47
451.70 1.469
451.80 1.468
451.90 1.467
452.00 1.465
452.10 1.464
452.20 1.463
452.30 1.462
452.40 1.461
452.50 1.46
452.60 1.459
452.70 1.458
452.80 1.456
452.90 1.455
453.00 1.454
453.10 1.453
453.20 1.452
453.30 1.451
453.40 1.45
453.50 1.448
453.60 1.447
453.70 1.446
453.80 1.445
453.90 1.444
454.00 1.443
454.10 1.442
454.20 1.44
