# Version 2.1 - nm, norm@500 to 1, cut digits, bergeron_130000_65.dat_130000
# Wavelength(nm)  Flambda(ergs/cm^s/s/nm)
300.00 7.001
300.10 6.992
300.20 6.983
300.30 6.974
300.40 6.965
300.50 6.956
300.60 6.947
300.70 6.939
300.80 6.93
300.90 6.921
301.00 6.912
301.10 6.903
301.20 6.895
301.30 6.886
301.40 6.877
301.50 6.869
301.60 6.86
301.70 6.851
301.80 6.843
301.90 6.834
302.00 6.825
302.10 6.817
302.20 6.808
302.30 6.799
302.40 6.791
302.50 6.782
302.60 6.774
302.70 6.765
302.80 6.757
302.90 6.748
303.00 6.74
303.10 6.731
303.20 6.723
303.30 6.714
303.40 6.706
303.50 6.697
303.60 6.689
303.70 6.681
303.80 6.672
303.90 6.664
304.00 6.656
304.10 6.647
304.20 6.639
304.30 6.631
304.40 6.622
304.50 6.614
304.60 6.606
304.70 6.597
304.80 6.589
304.90 6.581
305.00 6.573
305.10 6.564
305.20 6.556
305.30 6.548
305.40 6.54
305.50 6.532
305.60 6.524
305.70 6.515
305.80 6.507
305.90 6.499
306.00 6.491
306.10 6.483
306.20 6.475
306.30 6.467
306.40 6.459
306.50 6.451
306.60 6.443
306.70 6.435
306.80 6.427
306.90 6.419
307.00 6.411
307.10 6.403
307.20 6.395
307.30 6.387
307.40 6.379
307.50 6.371
307.60 6.363
307.70 6.355
307.80 6.347
307.90 6.339
308.00 6.332
308.10 6.324
308.20 6.316
308.30 6.308
308.40 6.3
308.50 6.293
308.60 6.285
308.70 6.277
308.80 6.269
308.90 6.261
309.00 6.254
309.10 6.246
309.20 6.238
309.30 6.231
309.40 6.223
309.50 6.215
309.60 6.208
309.70 6.2
309.80 6.192
309.90 6.185
310.00 6.177
310.10 6.169
310.20 6.162
310.30 6.154
310.40 6.147
310.50 6.139
310.60 6.132
310.70 6.124
310.80 6.117
310.90 6.109
311.00 6.102
311.10 6.094
311.20 6.087
311.30 6.079
311.40 6.072
311.50 6.064
311.60 6.057
311.70 6.049
311.80 6.042
311.90 6.035
312.00 6.027
312.10 6.02
312.20 6.012
312.30 6.005
312.40 5.998
312.50 5.99
312.60 5.983
312.70 5.976
312.80 5.968
312.90 5.961
313.00 5.954
313.10 5.947
313.20 5.939
313.30 5.932
313.40 5.925
313.50 5.918
313.60 5.911
313.70 5.903
313.80 5.896
313.90 5.889
314.00 5.882
314.10 5.875
314.20 5.868
314.30 5.86
314.40 5.853
314.50 5.846
314.60 5.839
314.70 5.832
314.80 5.825
314.90 5.818
315.00 5.811
315.10 5.804
315.20 5.797
315.30 5.79
315.40 5.783
315.50 5.776
315.60 5.769
315.70 5.762
315.80 5.755
315.90 5.748
316.00 5.741
316.10 5.734
316.20 5.727
316.30 5.72
316.40 5.713
316.50 5.706
316.60 5.699
316.70 5.692
316.80 5.686
316.90 5.679
317.00 5.672
317.10 5.665
317.20 5.658
317.30 5.651
317.40 5.645
317.50 5.638
317.60 5.631
317.70 5.624
317.80 5.617
317.90 5.611
318.00 5.604
318.10 5.597
318.20 5.591
318.30 5.584
318.40 5.577
318.50 5.57
318.60 5.564
318.70 5.557
318.80 5.55
318.90 5.544
319.00 5.537
319.10 5.53
319.20 5.524
319.30 5.517
319.40 5.511
319.50 5.504
319.60 5.497
319.70 5.491
319.80 5.484
319.90 5.478
320.00 5.471
320.10 5.465
320.20 5.458
320.30 5.452
320.40 5.445
320.50 5.439
320.60 5.432
320.70 5.426
320.80 5.419
320.90 5.413
321.00 5.406
321.10 5.4
321.20 5.394
321.30 5.387
321.40 5.381
321.50 5.374
321.60 5.368
321.70 5.362
321.80 5.355
321.90 5.349
322.00 5.342
322.10 5.336
322.20 5.33
322.30 5.323
322.40 5.317
322.50 5.311
322.60 5.305
322.70 5.298
322.80 5.292
322.90 5.286
323.00 5.279
323.10 5.273
323.20 5.267
323.30 5.261
323.40 5.255
323.50 5.248
323.60 5.242
323.70 5.236
323.80 5.23
323.90 5.224
324.00 5.217
324.10 5.211
324.20 5.205
324.30 5.199
324.40 5.193
324.50 5.187
324.60 5.181
324.70 5.174
324.80 5.168
324.90 5.162
325.00 5.156
325.10 5.15
325.20 5.144
325.30 5.138
325.40 5.132
325.50 5.126
325.60 5.12
325.70 5.114
325.80 5.108
325.90 5.102
326.00 5.096
326.10 5.09
326.20 5.084
326.30 5.078
326.40 5.072
326.50 5.066
326.60 5.06
326.70 5.054
326.80 5.048
326.90 5.042
327.00 5.037
327.10 5.031
327.20 5.025
327.30 5.019
327.40 5.013
327.50 5.007
327.60 5.001
327.70 4.996
327.80 4.99
327.90 4.984
328.00 4.978
328.10 4.972
328.20 4.966
328.30 4.961
328.40 4.955
328.50 4.949
328.60 4.943
328.70 4.938
328.80 4.932
328.90 4.926
329.00 4.92
329.10 4.915
329.20 4.909
329.30 4.903
329.40 4.898
329.50 4.892
329.60 4.886
329.70 4.88
329.80 4.875
329.90 4.869
330.00 4.864
330.10 4.858
330.20 4.852
330.30 4.847
330.40 4.841
330.50 4.835
330.60 4.83
330.70 4.824
330.80 4.819
330.90 4.813
331.00 4.808
331.10 4.802
331.20 4.797
331.30 4.791
331.40 4.785
331.50 4.78
331.60 4.774
331.70 4.769
331.80 4.763
331.90 4.758
332.00 4.752
332.10 4.747
332.20 4.741
332.30 4.736
332.40 4.73
332.50 4.725
332.60 4.72
332.70 4.714
332.80 4.709
332.90 4.703
333.00 4.698
333.10 4.693
333.20 4.687
333.30 4.682
333.40 4.676
333.50 4.671
333.60 4.666
333.70 4.66
333.80 4.655
333.90 4.65
334.00 4.644
334.10 4.639
334.20 4.634
334.30 4.628
334.40 4.623
334.50 4.618
334.60 4.612
334.70 4.607
334.80 4.602
334.90 4.597
335.00 4.591
335.10 4.586
335.20 4.581
335.30 4.576
335.40 4.571
335.50 4.565
335.60 4.56
335.70 4.555
335.80 4.55
335.90 4.544
336.00 4.539
336.10 4.534
336.20 4.529
336.30 4.524
336.40 4.519
336.50 4.514
336.60 4.508
336.70 4.503
336.80 4.498
336.90 4.493
337.00 4.488
337.10 4.483
337.20 4.478
337.30 4.473
337.40 4.468
337.50 4.462
337.60 4.457
337.70 4.452
337.80 4.447
337.90 4.442
338.00 4.437
338.10 4.432
338.20 4.427
338.30 4.422
338.40 4.417
338.50 4.412
338.60 4.407
338.70 4.402
338.80 4.397
338.90 4.392
339.00 4.387
339.10 4.382
339.20 4.377
339.30 4.372
339.40 4.368
339.50 4.363
339.60 4.358
339.70 4.353
339.80 4.348
339.90 4.343
340.00 4.338
340.10 4.333
340.20 4.328
340.30 4.323
340.40 4.319
340.50 4.314
340.60 4.309
340.70 4.304
340.80 4.299
340.90 4.294
341.00 4.289
341.10 4.285
341.20 4.28
341.30 4.275
341.40 4.27
341.50 4.265
341.60 4.261
341.70 4.256
341.80 4.251
341.90 4.246
342.00 4.242
342.10 4.237
342.20 4.232
342.30 4.227
342.40 4.223
342.50 4.218
342.60 4.213
342.70 4.208
342.80 4.204
342.90 4.199
343.00 4.194
343.10 4.19
343.20 4.185
343.30 4.18
343.40 4.176
343.50 4.171
343.60 4.166
343.70 4.162
343.80 4.157
343.90 4.152
344.00 4.148
344.10 4.143
344.20 4.139
344.30 4.134
344.40 4.129
344.50 4.125
344.60 4.12
344.70 4.116
344.80 4.111
344.90 4.106
345.00 4.102
345.10 4.097
345.20 4.093
345.30 4.088
345.40 4.084
345.50 4.079
345.60 4.075
345.70 4.07
345.80 4.066
345.90 4.061
346.00 4.057
346.10 4.052
346.20 4.048
346.30 4.043
346.40 4.039
346.50 4.034
346.60 4.03
346.70 4.025
346.80 4.021
346.90 4.016
347.00 4.012
347.10 4.008
347.20 4.003
347.30 3.999
347.40 3.994
347.50 3.99
347.60 3.985
347.70 3.981
347.80 3.977
347.90 3.972
348.00 3.968
348.10 3.963
348.20 3.959
348.30 3.955
348.40 3.95
348.50 3.946
348.60 3.942
348.70 3.937
348.80 3.933
348.90 3.929
349.00 3.924
349.10 3.92
349.20 3.916
349.30 3.912
349.40 3.907
349.50 3.903
349.60 3.899
349.70 3.894
349.80 3.89
349.90 3.886
350.00 3.882
350.10 3.877
350.20 3.873
350.30 3.869
350.40 3.865
350.50 3.86
350.60 3.856
350.70 3.852
350.80 3.848
350.90 3.844
351.00 3.839
351.10 3.835
351.20 3.831
351.30 3.827
351.40 3.823
351.50 3.818
351.60 3.814
351.70 3.81
351.80 3.806
351.90 3.802
352.00 3.798
352.10 3.793
352.20 3.789
352.30 3.785
352.40 3.781
352.50 3.777
352.60 3.773
352.70 3.769
352.80 3.765
352.90 3.761
353.00 3.757
353.10 3.752
353.20 3.748
353.30 3.744
353.40 3.74
353.50 3.736
353.60 3.732
353.70 3.728
353.80 3.724
353.90 3.72
354.00 3.716
354.10 3.712
354.20 3.708
354.30 3.704
354.40 3.7
354.50 3.696
354.60 3.692
354.70 3.688
354.80 3.684
354.90 3.68
355.00 3.676
355.10 3.672
355.20 3.668
355.30 3.664
355.40 3.66
355.50 3.656
355.60 3.652
355.70 3.648
355.80 3.644
355.90 3.64
356.00 3.636
356.10 3.632
356.20 3.629
356.30 3.625
356.40 3.621
356.50 3.617
356.60 3.613
356.70 3.609
356.80 3.605
356.90 3.601
357.00 3.598
357.10 3.594
357.20 3.59
357.30 3.586
357.40 3.582
357.50 3.578
357.60 3.574
357.70 3.571
357.80 3.567
357.90 3.563
358.00 3.559
358.10 3.555
358.20 3.551
358.30 3.548
358.40 3.544
358.50 3.54
358.60 3.536
358.70 3.532
358.80 3.529
358.90 3.525
359.00 3.521
359.10 3.517
359.20 3.514
359.30 3.51
359.40 3.506
359.50 3.502
359.60 3.499
359.70 3.495
359.80 3.491
359.90 3.487
360.00 3.484
360.10 3.48
360.20 3.476
360.30 3.473
360.40 3.469
360.50 3.465
360.60 3.461
360.70 3.458
360.80 3.454
360.90 3.45
361.00 3.447
361.10 3.443
361.20 3.439
361.30 3.436
361.40 3.432
361.50 3.428
361.60 3.425
361.70 3.421
361.80 3.418
361.90 3.414
362.00 3.41
362.10 3.407
362.20 3.403
362.30 3.399
362.40 3.396
362.50 3.392
362.60 3.389
362.70 3.385
362.80 3.381
362.90 3.378
363.00 3.374
363.10 3.371
363.20 3.367
363.30 3.364
363.40 3.36
363.50 3.357
363.60 3.353
363.70 3.349
363.80 3.346
363.90 3.342
364.00 3.339
364.10 3.335
364.20 3.332
364.30 3.328
364.40 3.325
364.50 3.321
364.60 3.318
364.70 3.314
364.80 3.311
364.90 3.307
365.00 3.304
365.10 3.3
365.20 3.297
365.30 3.293
365.40 3.29
365.50 3.287
365.60 3.283
365.70 3.28
365.80 3.276
365.90 3.273
366.00 3.269
366.10 3.266
366.20 3.262
366.30 3.259
366.40 3.255
366.50 3.252
366.60 3.249
366.70 3.245
366.80 3.242
366.90 3.238
367.00 3.235
367.10 3.231
367.20 3.228
367.30 3.224
367.40 3.221
367.50 3.218
367.60 3.214
367.70 3.211
367.80 3.207
367.90 3.204
368.00 3.2
368.10 3.197
368.20 3.194
368.30 3.19
368.40 3.187
368.50 3.184
368.60 3.18
368.70 3.177
368.80 3.174
368.90 3.17
369.00 3.167
369.10 3.164
369.20 3.16
369.30 3.157
369.40 3.154
369.50 3.15
369.60 3.147
369.70 3.144
369.80 3.14
369.90 3.137
370.00 3.134
370.10 3.13
370.20 3.127
370.30 3.124
370.40 3.12
370.50 3.117
370.60 3.114
370.70 3.111
370.80 3.107
370.90 3.104
371.00 3.101
371.10 3.098
371.20 3.094
371.30 3.091
371.40 3.088
371.50 3.085
371.60 3.081
371.70 3.078
371.80 3.075
371.90 3.072
372.00 3.069
372.10 3.065
372.20 3.062
372.30 3.059
372.40 3.056
372.50 3.053
372.60 3.05
372.70 3.047
372.80 3.043
372.90 3.04
373.00 3.037
373.10 3.034
373.20 3.031
373.30 3.028
373.40 3.025
373.50 3.022
373.60 3.018
373.70 3.015
373.80 3.012
373.90 3.009
374.00 3.006
374.10 3.003
374.20 3
374.30 2.997
374.40 2.994
374.50 2.991
374.60 2.988
374.70 2.985
374.80 2.982
374.90 2.979
375.00 2.976
375.10 2.973
375.20 2.97
375.30 2.967
375.40 2.964
375.50 2.961
375.60 2.958
375.70 2.955
375.80 2.952
375.90 2.949
376.00 2.946
376.10 2.943
376.20 2.94
376.30 2.937
376.40 2.934
376.50 2.93
376.60 2.927
376.70 2.924
376.80 2.921
376.90 2.918
377.00 2.914
377.10 2.912
377.20 2.909
377.30 2.907
377.40 2.904
377.50 2.902
377.60 2.899
377.70 2.897
377.80 2.894
377.90 2.892
378.00 2.889
378.10 2.886
378.20 2.883
378.30 2.88
378.40 2.877
378.50 2.874
378.60 2.871
378.70 2.868
378.80 2.865
378.90 2.861
379.00 2.858
379.10 2.855
379.20 2.852
379.30 2.848
379.40 2.845
379.50 2.842
379.60 2.839
379.70 2.835
379.80 2.832
379.90 2.829
380.00 2.825
380.10 2.824
380.20 2.822
380.30 2.82
380.40 2.818
380.50 2.817
380.60 2.815
380.70 2.813
380.80 2.812
380.90 2.81
381.00 2.808
381.10 2.806
381.20 2.803
381.30 2.8
381.40 2.798
381.50 2.795
381.60 2.792
381.70 2.789
381.80 2.786
381.90 2.783
382.00 2.779
382.10 2.776
382.20 2.772
382.30 2.767
382.40 2.762
382.50 2.758
382.60 2.753
382.70 2.748
382.80 2.743
382.90 2.739
383.00 2.734
383.10 2.729
383.20 2.724
383.30 2.719
383.40 2.713
383.50 2.709
383.60 2.707
383.70 2.707
383.80 2.707
383.90 2.708
384.00 2.708
384.10 2.709
384.20 2.709
384.30 2.709
384.40 2.709
384.50 2.708
384.60 2.708
384.70 2.707
384.80 2.706
384.90 2.705
385.00 2.704
385.10 2.702
385.20 2.701
385.30 2.699
385.40 2.697
385.50 2.695
385.60 2.693
385.70 2.691
385.80 2.689
385.90 2.686
386.00 2.684
386.10 2.681
386.20 2.678
386.30 2.675
386.40 2.672
386.50 2.669
386.60 2.666
386.70 2.662
386.80 2.659
386.90 2.655
387.00 2.651
387.10 2.647
387.20 2.642
387.30 2.638
387.40 2.633
387.50 2.628
387.60 2.623
387.70 2.617
387.80 2.611
387.90 2.605
388.00 2.598
388.10 2.591
388.20 2.584
388.30 2.576
388.40 2.568
388.50 2.559
388.60 2.55
388.70 2.541
388.80 2.534
388.90 2.53
389.00 2.529
389.10 2.531
389.20 2.535
389.30 2.539
389.40 2.543
389.50 2.547
389.60 2.55
389.70 2.552
389.80 2.555
389.90 2.556
390.00 2.558
390.10 2.559
390.20 2.56
390.30 2.56
390.40 2.561
390.50 2.561
390.60 2.56
390.70 2.56
390.80 2.559
390.90 2.559
391.00 2.558
391.10 2.557
391.20 2.556
391.30 2.554
391.40 2.553
391.50 2.552
391.60 2.55
391.70 2.548
391.80 2.547
391.90 2.545
392.00 2.543
392.10 2.541
392.20 2.539
392.30 2.537
392.40 2.535
392.50 2.532
392.60 2.53
392.70 2.528
392.80 2.525
392.90 2.523
393.00 2.52
393.10 2.518
393.20 2.515
393.30 2.513
393.40 2.51
393.50 2.507
393.60 2.504
393.70 2.501
393.80 2.498
393.90 2.495
394.00 2.492
394.10 2.489
394.20 2.485
394.30 2.482
394.40 2.478
394.50 2.475
394.60 2.471
394.70 2.467
394.80 2.462
394.90 2.458
395.00 2.453
395.10 2.449
395.20 2.444
395.30 2.438
395.40 2.432
395.50 2.426
395.60 2.42
395.70 2.413
395.80 2.406
395.90 2.398
396.00 2.389
396.10 2.381
396.20 2.37
396.30 2.36
396.40 2.348
396.50 2.335
396.60 2.321
396.70 2.307
396.80 2.29
396.90 2.273
397.00 2.257
397.10 2.267
397.20 2.279
397.30 2.292
397.40 2.302
397.50 2.312
397.60 2.321
397.70 2.328
397.80 2.334
397.90 2.339
398.00 2.344
398.10 2.348
398.20 2.351
398.30 2.354
398.40 2.356
398.50 2.358
398.60 2.36
398.70 2.361
398.80 2.362
398.90 2.362
399.00 2.362
399.10 2.362
399.20 2.362
399.30 2.362
399.40 2.361
399.50 2.36
399.60 2.359
399.70 2.359
399.80 2.357
399.90 2.356
400.00 2.355
400.10 2.354
400.20 2.352
400.30 2.351
400.40 2.349
400.50 2.348
400.60 2.346
400.70 2.344
400.80 2.342
400.90 2.341
401.00 2.339
401.10 2.337
401.20 2.335
401.30 2.333
401.40 2.331
401.50 2.329
401.60 2.327
401.70 2.325
401.80 2.323
401.90 2.321
402.00 2.319
402.10 2.317
402.20 2.315
402.30 2.313
402.40 2.311
402.50 2.309
402.60 2.307
402.70 2.305
402.80 2.302
402.90 2.3
403.00 2.298
403.10 2.296
403.20 2.294
403.30 2.292
403.40 2.29
403.50 2.287
403.60 2.285
403.70 2.283
403.80 2.281
403.90 2.279
404.00 2.276
404.10 2.274
404.20 2.272
404.30 2.27
404.40 2.267
404.50 2.265
404.60 2.263
404.70 2.261
404.80 2.258
404.90 2.256
405.00 2.254
405.10 2.252
405.20 2.249
405.30 2.247
405.40 2.245
405.50 2.242
405.60 2.24
405.70 2.238
405.80 2.235
405.90 2.233
406.00 2.23
406.10 2.228
406.20 2.225
406.30 2.223
406.40 2.22
406.50 2.217
406.60 2.215
406.70 2.212
406.80 2.209
406.90 2.206
407.00 2.204
407.10 2.201
407.20 2.198
407.30 2.194
407.40 2.191
407.50 2.188
407.60 2.184
407.70 2.181
407.80 2.177
407.90 2.173
408.00 2.168
408.10 2.164
408.20 2.159
408.30 2.154
408.40 2.149
408.50 2.143
408.60 2.137
408.70 2.13
408.80 2.123
408.90 2.115
409.00 2.107
409.10 2.097
409.20 2.087
409.30 2.076
409.40 2.063
409.50 2.048
409.60 2.033
409.70 2.014
409.80 1.993
409.90 1.969
410.00 1.941
410.10 1.923
410.20 1.917
410.30 1.929
410.40 1.947
410.50 1.971
410.60 1.989
410.70 2.005
410.80 2.018
410.90 2.029
411.00 2.038
411.10 2.047
411.20 2.053
411.30 2.059
411.40 2.064
411.50 2.068
411.60 2.072
411.70 2.075
411.80 2.077
411.90 2.079
412.00 2.08
412.10 2.081
412.20 2.082
412.30 2.083
412.40 2.083
412.50 2.083
412.60 2.083
412.70 2.082
412.80 2.082
412.90 2.081
413.00 2.08
413.10 2.08
413.20 2.079
413.30 2.078
413.40 2.076
413.50 2.075
413.60 2.074
413.70 2.073
413.80 2.071
413.90 2.07
414.00 2.068
414.10 2.067
414.20 2.065
414.30 2.064
414.40 2.062
414.50 2.061
414.60 2.059
414.70 2.057
414.80 2.056
414.90 2.054
415.00 2.052
415.10 2.051
415.20 2.049
415.30 2.047
415.40 2.045
415.50 2.044
415.60 2.042
415.70 2.04
415.80 2.038
415.90 2.037
416.00 2.035
416.10 2.033
416.20 2.031
416.30 2.03
416.40 2.028
416.50 2.026
416.60 2.024
416.70 2.022
416.80 2.021
416.90 2.019
417.00 2.017
417.10 2.015
417.20 2.013
417.30 2.012
417.40 2.01
417.50 2.008
417.60 2.006
417.70 2.004
417.80 2.002
417.90 2.001
418.00 1.999
418.10 1.997
418.20 1.995
418.30 1.993
418.40 1.992
418.50 1.99
418.60 1.988
418.70 1.986
418.80 1.984
418.90 1.983
419.00 1.981
419.10 1.979
419.20 1.977
419.30 1.975
419.40 1.974
419.50 1.972
419.60 1.97
419.70 1.968
419.80 1.966
419.90 1.965
420.00 1.963
420.10 1.961
420.20 1.959
420.30 1.957
420.40 1.956
420.50 1.954
420.60 1.952
420.70 1.95
420.80 1.949
420.90 1.947
421.00 1.945
421.10 1.943
421.20 1.941
421.30 1.94
421.40 1.938
421.50 1.936
421.60 1.934
421.70 1.933
421.80 1.931
421.90 1.929
422.00 1.927
422.10 1.926
422.20 1.924
422.30 1.922
422.40 1.92
422.50 1.918
422.60 1.917
422.70 1.915
422.80 1.913
422.90 1.911
423.00 1.91
423.10 1.908
423.20 1.906
423.30 1.904
423.40 1.903
423.50 1.901
423.60 1.899
423.70 1.898
423.80 1.896
423.90 1.894
424.00 1.892
424.10 1.891
424.20 1.889
424.30 1.887
424.40 1.885
424.50 1.884
424.60 1.882
424.70 1.88
424.80 1.878
424.90 1.877
425.00 1.875
425.10 1.873
425.20 1.872
425.30 1.87
425.40 1.868
425.50 1.866
425.60 1.865
425.70 1.863
425.80 1.861
425.90 1.86
426.00 1.858
426.10 1.856
426.20 1.854
426.30 1.853
426.40 1.851
426.50 1.849
426.60 1.848
426.70 1.846
426.80 1.844
426.90 1.842
427.00 1.841
427.10 1.839
427.20 1.837
427.30 1.835
427.40 1.834
427.50 1.832
427.60 1.83
427.70 1.829
427.80 1.827
427.90 1.825
428.00 1.823
428.10 1.822
428.20 1.82
428.30 1.818
428.40 1.816
428.50 1.815
428.60 1.813
428.70 1.811
428.80 1.809
428.90 1.808
429.00 1.806
429.10 1.804
429.20 1.802
429.30 1.8
429.40 1.799
429.50 1.797
429.60 1.795
429.70 1.793
429.80 1.791
429.90 1.789
430.00 1.787
430.10 1.785
430.20 1.783
430.30 1.781
430.40 1.779
430.50 1.777
430.60 1.775
430.70 1.773
430.80 1.771
430.90 1.769
431.00 1.766
431.10 1.764
431.20 1.761
431.30 1.759
431.40 1.756
431.50 1.753
431.60 1.75
431.70 1.747
431.80 1.744
431.90 1.741
432.00 1.737
432.10 1.733
432.20 1.729
432.30 1.724
432.40 1.719
432.50 1.714
432.60 1.708
432.70 1.701
432.80 1.694
432.90 1.686
433.00 1.677
433.10 1.666
433.20 1.655
433.30 1.642
433.40 1.627
433.50 1.609
433.60 1.59
433.70 1.563
433.80 1.532
433.90 1.495
434.00 1.461
434.10 1.46
434.20 1.494
434.30 1.527
434.40 1.556
434.50 1.579
434.60 1.595
434.70 1.61
434.80 1.622
434.90 1.631
435.00 1.64
435.10 1.647
435.20 1.653
435.30 1.658
435.40 1.662
435.50 1.665
435.60 1.668
435.70 1.671
435.80 1.672
435.90 1.674
436.00 1.675
436.10 1.676
436.20 1.676
436.30 1.677
436.40 1.677
436.50 1.677
436.60 1.676
436.70 1.676
436.80 1.676
436.90 1.675
437.00 1.674
437.10 1.674
437.20 1.673
437.30 1.672
437.40 1.671
437.50 1.67
437.60 1.669
437.70 1.668
437.80 1.667
437.90 1.666
438.00 1.665
438.10 1.664
438.20 1.662
438.30 1.661
438.40 1.66
438.50 1.659
438.60 1.657
438.70 1.656
438.80 1.655
438.90 1.654
439.00 1.652
439.10 1.651
439.20 1.65
439.30 1.648
439.40 1.647
439.50 1.646
439.60 1.644
439.70 1.643
439.80 1.642
439.90 1.64
440.00 1.639
440.10 1.638
440.20 1.636
440.30 1.635
440.40 1.633
440.50 1.632
440.60 1.631
440.70 1.629
440.80 1.628
440.90 1.627
441.00 1.625
441.10 1.624
441.20 1.622
441.30 1.621
441.40 1.62
441.50 1.618
441.60 1.617
441.70 1.616
441.80 1.614
441.90 1.613
442.00 1.611
442.10 1.61
442.20 1.609
442.30 1.607
442.40 1.606
442.50 1.604
442.60 1.603
442.70 1.602
442.80 1.6
442.90 1.599
443.00 1.598
443.10 1.596
443.20 1.595
443.30 1.593
443.40 1.592
443.50 1.591
443.60 1.589
443.70 1.588
443.80 1.587
443.90 1.585
444.00 1.584
444.10 1.583
444.20 1.581
444.30 1.58
444.40 1.578
444.50 1.577
444.60 1.576
444.70 1.574
444.80 1.573
444.90 1.572
445.00 1.57
445.10 1.569
445.20 1.568
445.30 1.566
445.40 1.565
445.50 1.564
445.60 1.562
445.70 1.561
445.80 1.559
445.90 1.558
446.00 1.557
446.10 1.555
446.20 1.554
446.30 1.553
446.40 1.551
446.50 1.55
446.60 1.549
446.70 1.547
446.80 1.546
446.90 1.545
447.00 1.543
447.10 1.542
447.20 1.541
447.30 1.539
447.40 1.538
447.50 1.537
447.60 1.535
447.70 1.534
447.80 1.533
447.90 1.531
448.00 1.53
448.10 1.529
448.20 1.528
448.30 1.526
448.40 1.525
448.50 1.524
448.60 1.522
448.70 1.521
448.80 1.52
448.90 1.518
449.00 1.517
449.10 1.516
449.20 1.514
449.30 1.513
449.40 1.512
449.50 1.511
449.60 1.509
449.70 1.508
449.80 1.507
449.90 1.505
450.00 1.504
450.10 1.503
450.20 1.501
450.30 1.5
450.40 1.499
450.50 1.498
450.60 1.496
450.70 1.495
450.80 1.494
450.90 1.492
451.00 1.491
451.10 1.49
451.20 1.489
451.30 1.487
451.40 1.486
451.50 1.485
451.60 1.484
451.70 1.482
451.80 1.481
451.90 1.48
452.00 1.479
452.10 1.477
452.20 1.476
452.30 1.475
452.40 1.473
452.50 1.472
452.60 1.471
452.70 1.47
452.80 1.468
452.90 1.467
453.00 1.466
453.10 1.465
453.20 1.463
453.30 1.462
453.40 1.461
453.50 1.46
453.60 1.458
453.70 1.457
453.80 1.456
453.90 1.455
454.00 1.453
