# Version 2.1 - nm, norm@500 to 1, cut digits, bergeron_65000_90.dat_65000
# Wavelength(nm)  Flambda(ergs/cm^s/s/nm)
300.00 6.517
300.10 6.509
300.20 6.501
300.30 6.493
300.40 6.485
300.50 6.477
300.60 6.469
300.70 6.461
300.80 6.453
300.90 6.445
301.00 6.437
301.10 6.429
301.20 6.421
301.30 6.413
301.40 6.405
301.50 6.398
301.60 6.39
301.70 6.382
301.80 6.374
301.90 6.366
302.00 6.359
302.10 6.351
302.20 6.343
302.30 6.335
302.40 6.328
302.50 6.32
302.60 6.312
302.70 6.304
302.80 6.297
302.90 6.289
303.00 6.281
303.10 6.274
303.20 6.266
303.30 6.259
303.40 6.251
303.50 6.243
303.60 6.236
303.70 6.228
303.80 6.221
303.90 6.213
304.00 6.205
304.10 6.198
304.20 6.19
304.30 6.183
304.40 6.175
304.50 6.168
304.60 6.16
304.70 6.153
304.80 6.145
304.90 6.138
305.00 6.131
305.10 6.123
305.20 6.116
305.30 6.108
305.40 6.101
305.50 6.094
305.60 6.086
305.70 6.079
305.80 6.072
305.90 6.064
306.00 6.057
306.10 6.05
306.20 6.042
306.30 6.035
306.40 6.028
306.50 6.02
306.60 6.013
306.70 6.006
306.80 5.999
306.90 5.991
307.00 5.984
307.10 5.977
307.20 5.97
307.30 5.963
307.40 5.956
307.50 5.948
307.60 5.941
307.70 5.934
307.80 5.927
307.90 5.92
308.00 5.913
308.10 5.906
308.20 5.899
308.30 5.891
308.40 5.884
308.50 5.877
308.60 5.87
308.70 5.863
308.80 5.856
308.90 5.849
309.00 5.842
309.10 5.835
309.20 5.828
309.30 5.821
309.40 5.814
309.50 5.807
309.60 5.801
309.70 5.794
309.80 5.787
309.90 5.78
310.00 5.773
310.10 5.766
310.20 5.759
310.30 5.752
310.40 5.745
310.50 5.739
310.60 5.732
310.70 5.725
310.80 5.718
310.90 5.711
311.00 5.705
311.10 5.698
311.20 5.691
311.30 5.684
311.40 5.677
311.50 5.671
311.60 5.664
311.70 5.657
311.80 5.651
311.90 5.644
312.00 5.637
312.10 5.63
312.20 5.624
312.30 5.617
312.40 5.61
312.50 5.604
312.60 5.597
312.70 5.591
312.80 5.584
312.90 5.577
313.00 5.571
313.10 5.564
313.20 5.558
313.30 5.551
313.40 5.545
313.50 5.538
313.60 5.531
313.70 5.525
313.80 5.518
313.90 5.512
314.00 5.505
314.10 5.499
314.20 5.492
314.30 5.486
314.40 5.479
314.50 5.473
314.60 5.467
314.70 5.46
314.80 5.454
314.90 5.447
315.00 5.441
315.10 5.435
315.20 5.428
315.30 5.422
315.40 5.415
315.50 5.409
315.60 5.403
315.70 5.396
315.80 5.39
315.90 5.384
316.00 5.377
316.10 5.371
316.20 5.365
316.30 5.359
316.40 5.352
316.50 5.346
316.60 5.34
316.70 5.334
316.80 5.327
316.90 5.321
317.00 5.315
317.10 5.309
317.20 5.303
317.30 5.296
317.40 5.29
317.50 5.284
317.60 5.278
317.70 5.272
317.80 5.266
317.90 5.259
318.00 5.253
318.10 5.247
318.20 5.241
318.30 5.235
318.40 5.229
318.50 5.223
318.60 5.217
318.70 5.211
318.80 5.205
318.90 5.199
319.00 5.192
319.10 5.186
319.20 5.18
319.30 5.174
319.40 5.168
319.50 5.162
319.60 5.156
319.70 5.151
319.80 5.145
319.90 5.139
320.00 5.133
320.10 5.127
320.20 5.121
320.30 5.115
320.40 5.109
320.50 5.103
320.60 5.097
320.70 5.091
320.80 5.085
320.90 5.079
321.00 5.074
321.10 5.068
321.20 5.062
321.30 5.056
321.40 5.05
321.50 5.044
321.60 5.039
321.70 5.033
321.80 5.027
321.90 5.021
322.00 5.015
322.10 5.01
322.20 5.004
322.30 4.998
322.40 4.992
322.50 4.987
322.60 4.981
322.70 4.975
322.80 4.97
322.90 4.964
323.00 4.958
323.10 4.952
323.20 4.947
323.30 4.941
323.40 4.935
323.50 4.93
323.60 4.924
323.70 4.918
323.80 4.913
323.90 4.907
324.00 4.902
324.10 4.896
324.20 4.89
324.30 4.885
324.40 4.879
324.50 4.874
324.60 4.868
324.70 4.863
324.80 4.857
324.90 4.851
325.00 4.846
325.10 4.84
325.20 4.835
325.30 4.829
325.40 4.824
325.50 4.818
325.60 4.813
325.70 4.807
325.80 4.802
325.90 4.796
326.00 4.791
326.10 4.786
326.20 4.78
326.30 4.775
326.40 4.769
326.50 4.764
326.60 4.758
326.70 4.753
326.80 4.748
326.90 4.742
327.00 4.737
327.10 4.732
327.20 4.726
327.30 4.721
327.40 4.715
327.50 4.71
327.60 4.705
327.70 4.699
327.80 4.694
327.90 4.689
328.00 4.684
328.10 4.678
328.20 4.673
328.30 4.668
328.40 4.662
328.50 4.657
328.60 4.652
328.70 4.647
328.80 4.641
328.90 4.636
329.00 4.631
329.10 4.626
329.20 4.62
329.30 4.615
329.40 4.61
329.50 4.605
329.60 4.6
329.70 4.595
329.80 4.589
329.90 4.584
330.00 4.579
330.10 4.574
330.20 4.569
330.30 4.564
330.40 4.559
330.50 4.553
330.60 4.548
330.70 4.543
330.80 4.538
330.90 4.533
331.00 4.528
331.10 4.523
331.20 4.518
331.30 4.513
331.40 4.508
331.50 4.503
331.60 4.498
331.70 4.493
331.80 4.487
331.90 4.482
332.00 4.477
332.10 4.472
332.20 4.467
332.30 4.462
332.40 4.458
332.50 4.453
332.60 4.448
332.70 4.443
332.80 4.438
332.90 4.433
333.00 4.428
333.10 4.423
333.20 4.418
333.30 4.413
333.40 4.408
333.50 4.403
333.60 4.398
333.70 4.393
333.80 4.388
333.90 4.384
334.00 4.379
334.10 4.374
334.20 4.369
334.30 4.364
334.40 4.359
334.50 4.354
334.60 4.35
334.70 4.345
334.80 4.34
334.90 4.335
335.00 4.33
335.10 4.326
335.20 4.321
335.30 4.316
335.40 4.311
335.50 4.306
335.60 4.302
335.70 4.297
335.80 4.292
335.90 4.287
336.00 4.283
336.10 4.278
336.20 4.273
336.30 4.268
336.40 4.264
336.50 4.259
336.60 4.254
336.70 4.25
336.80 4.245
336.90 4.24
337.00 4.236
337.10 4.231
337.20 4.226
337.30 4.222
337.40 4.217
337.50 4.212
337.60 4.208
337.70 4.203
337.80 4.198
337.90 4.194
338.00 4.189
338.10 4.185
338.20 4.18
338.30 4.175
338.40 4.171
338.50 4.166
338.60 4.162
338.70 4.157
338.80 4.153
338.90 4.148
339.00 4.143
339.10 4.139
339.20 4.134
339.30 4.13
339.40 4.125
339.50 4.121
339.60 4.116
339.70 4.112
339.80 4.107
339.90 4.103
340.00 4.098
340.10 4.094
340.20 4.089
340.30 4.085
340.40 4.08
340.50 4.076
340.60 4.072
340.70 4.067
340.80 4.063
340.90 4.058
341.00 4.054
341.10 4.049
341.20 4.045
341.30 4.041
341.40 4.036
341.50 4.032
341.60 4.027
341.70 4.023
341.80 4.019
341.90 4.014
342.00 4.01
342.10 4.005
342.20 4.001
342.30 3.997
342.40 3.992
342.50 3.988
342.60 3.984
342.70 3.979
342.80 3.975
342.90 3.971
343.00 3.967
343.10 3.962
343.20 3.958
343.30 3.954
343.40 3.949
343.50 3.945
343.60 3.941
343.70 3.937
343.80 3.932
343.90 3.928
344.00 3.924
344.10 3.92
344.20 3.915
344.30 3.911
344.40 3.907
344.50 3.903
344.60 3.898
344.70 3.894
344.80 3.89
344.90 3.886
345.00 3.882
345.10 3.878
345.20 3.873
345.30 3.869
345.40 3.865
345.50 3.861
345.60 3.857
345.70 3.852
345.80 3.848
345.90 3.844
346.00 3.84
346.10 3.836
346.20 3.832
346.30 3.828
346.40 3.824
346.50 3.819
346.60 3.815
346.70 3.811
346.80 3.807
346.90 3.803
347.00 3.799
347.10 3.795
347.20 3.791
347.30 3.787
347.40 3.783
347.50 3.779
347.60 3.775
347.70 3.771
347.80 3.767
347.90 3.763
348.00 3.759
348.10 3.755
348.20 3.751
348.30 3.747
348.40 3.743
348.50 3.739
348.60 3.735
348.70 3.731
348.80 3.727
348.90 3.723
349.00 3.719
349.10 3.715
349.20 3.711
349.30 3.707
349.40 3.703
349.50 3.699
349.60 3.695
349.70 3.691
349.80 3.687
349.90 3.683
350.00 3.679
350.10 3.675
350.20 3.671
350.30 3.667
350.40 3.664
350.50 3.66
350.60 3.656
350.70 3.652
350.80 3.648
350.90 3.644
351.00 3.64
351.10 3.636
351.20 3.633
351.30 3.629
351.40 3.625
351.50 3.621
351.60 3.617
351.70 3.613
351.80 3.61
351.90 3.606
352.00 3.602
352.10 3.598
352.20 3.594
352.30 3.591
352.40 3.587
352.50 3.583
352.60 3.579
352.70 3.575
352.80 3.572
352.90 3.568
353.00 3.564
353.10 3.56
353.20 3.557
353.30 3.553
353.40 3.549
353.50 3.545
353.60 3.542
353.70 3.538
353.80 3.534
353.90 3.53
354.00 3.527
354.10 3.523
354.20 3.519
354.30 3.516
354.40 3.512
354.50 3.508
354.60 3.504
354.70 3.501
354.80 3.497
354.90 3.493
355.00 3.49
355.10 3.486
355.20 3.482
355.30 3.479
355.40 3.475
355.50 3.472
355.60 3.468
355.70 3.464
355.80 3.461
355.90 3.457
356.00 3.453
356.10 3.45
356.20 3.446
356.30 3.443
356.40 3.439
356.50 3.435
356.60 3.432
356.70 3.428
356.80 3.425
356.90 3.421
357.00 3.417
357.10 3.414
357.20 3.41
357.30 3.407
357.40 3.403
357.50 3.4
357.60 3.396
357.70 3.393
357.80 3.389
357.90 3.386
358.00 3.382
358.10 3.378
358.20 3.375
358.30 3.371
358.40 3.368
358.50 3.364
358.60 3.361
358.70 3.357
358.80 3.354
358.90 3.351
359.00 3.347
359.10 3.344
359.20 3.34
359.30 3.337
359.40 3.333
359.50 3.33
359.60 3.326
359.70 3.323
359.80 3.319
359.90 3.316
360.00 3.312
360.10 3.309
360.20 3.306
360.30 3.302
360.40 3.299
360.50 3.295
360.60 3.292
360.70 3.289
360.80 3.285
360.90 3.282
361.00 3.278
361.10 3.275
361.20 3.272
361.30 3.268
361.40 3.265
361.50 3.261
361.60 3.258
361.70 3.255
361.80 3.251
361.90 3.248
362.00 3.245
362.10 3.241
362.20 3.238
362.30 3.235
362.40 3.231
362.50 3.228
362.60 3.225
362.70 3.221
362.80 3.218
362.90 3.215
363.00 3.211
363.10 3.208
363.20 3.205
363.30 3.202
363.40 3.198
363.50 3.195
363.60 3.192
363.70 3.188
363.80 3.185
363.90 3.182
364.00 3.179
364.10 3.175
364.20 3.172
364.30 3.169
364.40 3.166
364.50 3.162
364.60 3.159
364.70 3.156
364.80 3.153
364.90 3.15
365.00 3.146
365.10 3.143
365.20 3.14
365.30 3.137
365.40 3.133
365.50 3.13
365.60 3.127
365.70 3.124
365.80 3.121
365.90 3.117
366.00 3.114
366.10 3.111
366.20 3.108
366.30 3.105
366.40 3.102
366.50 3.098
366.60 3.095
366.70 3.092
366.80 3.089
366.90 3.086
367.00 3.082
367.10 3.079
367.20 3.076
367.30 3.073
367.40 3.07
367.50 3.067
367.60 3.063
367.70 3.06
367.80 3.057
367.90 3.054
368.00 3.051
368.10 3.048
368.20 3.045
368.30 3.041
368.40 3.038
368.50 3.035
368.60 3.032
368.70 3.029
368.80 3.025
368.90 3.022
369.00 3.019
369.10 3.016
369.20 3.013
369.30 3.01
369.40 3.006
369.50 3.003
369.60 3
369.70 2.997
369.80 2.994
369.90 2.991
370.00 2.988
370.10 2.984
370.20 2.981
370.30 2.978
370.40 2.975
370.50 2.972
370.60 2.969
370.70 2.966
370.80 2.963
370.90 2.96
371.00 2.957
371.10 2.954
371.20 2.95
371.30 2.947
371.40 2.944
371.50 2.941
371.60 2.938
371.70 2.935
371.80 2.932
371.90 2.929
372.00 2.926
372.10 2.923
372.20 2.92
372.30 2.917
372.40 2.914
372.50 2.911
372.60 2.909
372.70 2.906
372.80 2.903
372.90 2.9
373.00 2.897
373.10 2.894
373.20 2.891
373.30 2.888
373.40 2.886
373.50 2.883
373.60 2.88
373.70 2.877
373.80 2.874
373.90 2.871
374.00 2.868
374.10 2.865
374.20 2.862
374.30 2.859
374.40 2.857
374.50 2.854
374.60 2.851
374.70 2.848
374.80 2.845
374.90 2.842
375.00 2.839
375.10 2.836
375.20 2.833
375.30 2.83
375.40 2.827
375.50 2.824
375.60 2.821
375.70 2.818
375.80 2.816
375.90 2.813
376.00 2.81
376.10 2.807
376.20 2.804
376.30 2.801
376.40 2.798
376.50 2.795
376.60 2.793
376.70 2.79
376.80 2.787
376.90 2.784
377.00 2.781
377.10 2.778
377.20 2.776
377.30 2.773
377.40 2.77
377.50 2.767
377.60 2.764
377.70 2.762
377.80 2.759
377.90 2.756
378.00 2.753
378.10 2.751
378.20 2.748
378.30 2.745
378.40 2.742
378.50 2.74
378.60 2.737
378.70 2.734
378.80 2.732
378.90 2.729
379.00 2.726
379.10 2.723
379.20 2.721
379.30 2.718
379.40 2.715
379.50 2.713
379.60 2.71
379.70 2.707
379.80 2.704
379.90 2.702
380.00 2.699
380.10 2.696
380.20 2.694
380.30 2.691
380.40 2.689
380.50 2.686
380.60 2.683
380.70 2.681
380.80 2.678
380.90 2.675
381.00 2.673
381.10 2.67
381.20 2.668
381.30 2.665
381.40 2.662
381.50 2.66
381.60 2.657
381.70 2.655
381.80 2.652
381.90 2.649
382.00 2.647
382.10 2.644
382.20 2.642
382.30 2.639
382.40 2.637
382.50 2.634
382.60 2.631
382.70 2.629
382.80 2.626
382.90 2.624
383.00 2.621
383.10 2.619
383.20 2.616
383.30 2.614
383.40 2.611
383.50 2.609
383.60 2.606
383.70 2.604
383.80 2.601
383.90 2.599
384.00 2.596
384.10 2.594
384.20 2.592
384.30 2.589
384.40 2.587
384.50 2.584
384.60 2.582
384.70 2.58
384.80 2.577
384.90 2.575
385.00 2.572
385.10 2.57
385.20 2.568
385.30 2.565
385.40 2.563
385.50 2.56
385.60 2.558
385.70 2.556
385.80 2.553
385.90 2.551
386.00 2.548
386.10 2.546
386.20 2.544
386.30 2.541
386.40 2.539
386.50 2.536
386.60 2.534
386.70 2.532
386.80 2.529
386.90 2.527
387.00 2.524
387.10 2.522
387.20 2.52
387.30 2.517
387.40 2.515
387.50 2.512
387.60 2.51
387.70 2.508
387.80 2.505
387.90 2.503
388.00 2.5
388.10 2.498
388.20 2.496
388.30 2.493
388.40 2.491
388.50 2.489
388.60 2.487
388.70 2.484
388.80 2.482
388.90 2.48
389.00 2.478
389.10 2.475
389.20 2.473
389.30 2.471
389.40 2.469
389.50 2.467
389.60 2.465
389.70 2.463
389.80 2.461
389.90 2.458
390.00 2.456
390.10 2.454
390.20 2.452
390.30 2.45
390.40 2.448
390.50 2.446
390.60 2.444
390.70 2.442
390.80 2.44
390.90 2.438
391.00 2.436
391.10 2.433
391.20 2.431
391.30 2.429
391.40 2.427
391.50 2.425
391.60 2.423
391.70 2.421
391.80 2.418
391.90 2.416
392.00 2.414
392.10 2.412
392.20 2.41
392.30 2.407
392.40 2.405
392.50 2.403
392.60 2.4
392.70 2.398
392.80 2.396
392.90 2.394
393.00 2.391
393.10 2.389
393.20 2.386
393.30 2.384
393.40 2.382
393.50 2.379
393.60 2.377
393.70 2.374
393.80 2.372
393.90 2.37
394.00 2.367
394.10 2.365
394.20 2.362
394.30 2.36
394.40 2.357
394.50 2.354
394.60 2.352
394.70 2.349
394.80 2.347
394.90 2.344
395.00 2.342
395.10 2.339
395.20 2.336
395.30 2.334
395.40 2.331
395.50 2.328
395.60 2.326
395.70 2.323
395.80 2.32
395.90 2.318
396.00 2.315
396.10 2.313
396.20 2.31
396.30 2.307
396.40 2.305
396.50 2.302
396.60 2.3
396.70 2.297
396.80 2.295
396.90 2.293
397.00 2.29
397.10 2.289
397.20 2.287
397.30 2.286
397.40 2.284
397.50 2.283
397.60 2.282
397.70 2.28
397.80 2.279
397.90 2.278
398.00 2.277
398.10 2.275
398.20 2.274
398.30 2.273
398.40 2.272
398.50 2.271
398.60 2.269
398.70 2.268
398.80 2.267
398.90 2.266
399.00 2.264
399.10 2.263
399.20 2.262
399.30 2.26
399.40 2.259
399.50 2.258
399.60 2.256
399.70 2.255
399.80 2.253
399.90 2.252
400.00 2.251
400.10 2.249
400.20 2.248
400.30 2.246
400.40 2.245
400.50 2.243
400.60 2.241
400.70 2.24
400.80 2.238
400.90 2.237
401.00 2.235
401.10 2.233
401.20 2.232
401.30 2.23
401.40 2.228
401.50 2.226
401.60 2.225
401.70 2.223
401.80 2.221
401.90 2.219
402.00 2.217
402.10 2.215
402.20 2.213
402.30 2.211
402.40 2.209
402.50 2.207
402.60 2.205
402.70 2.203
402.80 2.201
402.90 2.199
403.00 2.197
403.10 2.195
403.20 2.192
403.30 2.19
403.40 2.188
403.50 2.186
403.60 2.183
403.70 2.181
403.80 2.179
403.90 2.176
404.00 2.174
404.10 2.171
404.20 2.169
404.30 2.166
404.40 2.164
404.50 2.161
404.60 2.159
404.70 2.156
404.80 2.153
404.90 2.151
405.00 2.148
405.10 2.145
405.20 2.143
405.30 2.14
405.40 2.137
405.50 2.134
405.60 2.131
405.70 2.128
405.80 2.125
405.90 2.122
406.00 2.119
406.10 2.116
406.20 2.113
406.30 2.11
406.40 2.106
406.50 2.103
406.60 2.1
406.70 2.097
406.80 2.093
406.90 2.09
407.00 2.087
407.10 2.083
407.20 2.08
407.30 2.076
407.40 2.073
407.50 2.069
407.60 2.065
407.70 2.062
407.80 2.058
407.90 2.055
408.00 2.051
408.10 2.047
408.20 2.043
408.30 2.04
408.40 2.036
408.50 2.032
408.60 2.028
408.70 2.025
408.80 2.021
408.90 2.017
409.00 2.014
409.10 2.01
409.20 2.007
409.30 2.003
409.40 2
409.50 1.997
409.60 1.994
409.70 1.991
409.80 1.989
409.90 1.987
410.00 1.987
410.10 1.986
410.20 1.984
410.30 1.982
410.40 1.979
410.50 1.977
410.60 1.976
410.70 1.975
410.80 1.975
410.90 1.974
411.00 1.974
411.10 1.974
411.20 1.974
411.30 1.974
411.40 1.974
411.50 1.975
411.60 1.975
411.70 1.975
411.80 1.976
411.90 1.976
412.00 1.976
412.10 1.977
412.20 1.977
412.30 1.977
412.40 1.978
412.50 1.978
412.60 1.978
412.70 1.978
412.80 1.978
412.90 1.979
413.00 1.979
413.10 1.979
413.20 1.979
413.30 1.979
413.40 1.979
413.50 1.979
413.60 1.979
413.70 1.979
413.80 1.978
413.90 1.978
414.00 1.978
414.10 1.978
414.20 1.977
414.30 1.977
414.40 1.977
414.50 1.976
414.60 1.976
414.70 1.975
414.80 1.975
414.90 1.974
415.00 1.974
415.10 1.973
415.20 1.973
415.30 1.972
415.40 1.971
415.50 1.971
415.60 1.97
415.70 1.969
415.80 1.968
415.90 1.968
416.00 1.967
416.10 1.966
416.20 1.965
416.30 1.964
416.40 1.963
416.50 1.962
416.60 1.961
416.70 1.96
416.80 1.959
416.90 1.958
417.00 1.957
417.10 1.956
417.20 1.955
417.30 1.954
417.40 1.953
417.50 1.952
417.60 1.951
417.70 1.949
417.80 1.948
417.90 1.947
418.00 1.946
418.10 1.945
418.20 1.943
418.30 1.942
418.40 1.941
418.50 1.939
418.60 1.938
418.70 1.937
418.80 1.935
418.90 1.934
419.00 1.933
419.10 1.931
419.20 1.93
419.30 1.929
419.40 1.927
419.50 1.926
419.60 1.924
419.70 1.923
419.80 1.921
419.90 1.92
420.00 1.918
420.10 1.917
420.20 1.915
420.30 1.914
420.40 1.912
420.50 1.911
420.60 1.909
420.70 1.907
420.80 1.906
420.90 1.904
421.00 1.903
421.10 1.901
421.20 1.899
421.30 1.898
421.40 1.896
421.50 1.894
421.60 1.893
421.70 1.891
421.80 1.889
421.90 1.887
422.00 1.886
422.10 1.884
422.20 1.882
422.30 1.881
422.40 1.879
422.50 1.877
422.60 1.875
422.70 1.873
422.80 1.872
422.90 1.87
423.00 1.868
423.10 1.866
423.20 1.864
423.30 1.862
423.40 1.86
423.50 1.858
423.60 1.857
423.70 1.855
423.80 1.853
423.90 1.851
424.00 1.849
424.10 1.847
424.20 1.845
424.30 1.843
424.40 1.841
424.50 1.839
424.60 1.837
424.70 1.835
424.80 1.832
424.90 1.83
425.00 1.828
425.10 1.826
425.20 1.824
425.30 1.822
425.40 1.82
425.50 1.817
425.60 1.815
425.70 1.813
425.80 1.811
425.90 1.808
426.00 1.806
426.10 1.804
426.20 1.801
426.30 1.799
426.40 1.797
426.50 1.794
426.60 1.792
426.70 1.789
426.80 1.787
426.90 1.784
427.00 1.782
427.10 1.779
427.20 1.777
427.30 1.774
427.40 1.771
427.50 1.769
427.60 1.766
427.70 1.763
427.80 1.76
427.90 1.758
428.00 1.755
428.10 1.752
428.20 1.749
428.30 1.746
428.40 1.743
428.50 1.74
428.60 1.737
428.70 1.734
428.80 1.731
428.90 1.728
429.00 1.724
429.10 1.721
429.20 1.718
429.30 1.714
429.40 1.711
429.50 1.708
429.60 1.704
429.70 1.701
429.80 1.697
429.90 1.693
430.00 1.69
430.10 1.686
430.20 1.682
430.30 1.679
430.40 1.675
430.50 1.671
430.60 1.667
430.70 1.663
430.80 1.659
430.90 1.655
431.00 1.65
431.10 1.646
431.20 1.642
431.30 1.638
431.40 1.633
431.50 1.629
431.60 1.624
431.70 1.62
431.80 1.615
431.90 1.611
432.00 1.606
432.10 1.601
432.20 1.596
432.30 1.592
432.40 1.587
432.50 1.582
432.60 1.577
432.70 1.573
432.80 1.568
432.90 1.563
433.00 1.558
433.10 1.553
433.20 1.548
433.30 1.543
433.40 1.538
433.50 1.533
433.60 1.527
433.70 1.522
433.80 1.515
433.90 1.508
434.00 1.503
434.10 1.502
434.20 1.505
434.30 1.51
434.40 1.513
434.50 1.517
434.60 1.52
434.70 1.522
434.80 1.525
434.90 1.527
435.00 1.53
435.10 1.532
435.20 1.534
435.30 1.537
435.40 1.539
435.50 1.541
435.60 1.543
435.70 1.545
435.80 1.547
435.90 1.549
436.00 1.551
436.10 1.553
436.20 1.555
436.30 1.557
436.40 1.559
436.50 1.561
436.60 1.562
436.70 1.564
436.80 1.566
436.90 1.567
437.00 1.569
437.10 1.57
437.20 1.571
437.30 1.573
437.40 1.574
437.50 1.575
437.60 1.576
437.70 1.577
437.80 1.578
437.90 1.579
438.00 1.58
438.10 1.581
438.20 1.582
438.30 1.582
438.40 1.583
438.50 1.584
438.60 1.584
438.70 1.585
438.80 1.585
438.90 1.586
439.00 1.586
439.10 1.586
439.20 1.587
439.30 1.587
439.40 1.587
439.50 1.587
439.60 1.587
439.70 1.587
439.80 1.587
439.90 1.587
440.00 1.587
440.10 1.587
440.20 1.587
440.30 1.587
440.40 1.587
440.50 1.587
440.60 1.586
440.70 1.586
440.80 1.586
440.90 1.586
441.00 1.585
441.10 1.585
441.20 1.584
441.30 1.584
441.40 1.583
441.50 1.583
441.60 1.582
441.70 1.582
441.80 1.581
441.90 1.581
442.00 1.58
442.10 1.58
442.20 1.579
442.30 1.578
442.40 1.578
442.50 1.577
442.60 1.576
442.70 1.576
442.80 1.575
442.90 1.574
443.00 1.573
443.10 1.572
443.20 1.572
443.30 1.571
443.40 1.57
443.50 1.569
443.60 1.568
443.70 1.567
443.80 1.567
443.90 1.566
444.00 1.565
444.10 1.564
444.20 1.563
444.30 1.562
444.40 1.561
444.50 1.56
444.60 1.559
444.70 1.558
444.80 1.557
444.90 1.556
445.00 1.555
445.10 1.554
445.20 1.553
445.30 1.552
445.40 1.551
445.50 1.55
445.60 1.549
445.70 1.548
445.80 1.547
445.90 1.546
446.00 1.545
446.10 1.544
446.20 1.543
446.30 1.542
446.40 1.541
446.50 1.54
446.60 1.539
446.70 1.537
446.80 1.536
446.90 1.535
447.00 1.534
447.10 1.533
447.20 1.532
447.30 1.531
447.40 1.53
447.50 1.529
447.60 1.527
447.70 1.526
447.80 1.525
447.90 1.524
448.00 1.523
448.10 1.522
448.20 1.521
448.30 1.52
448.40 1.518
448.50 1.517
448.60 1.516
448.70 1.515
448.80 1.514
448.90 1.513
449.00 1.511
449.10 1.51
449.20 1.509
449.30 1.508
449.40 1.507
449.50 1.506
449.60 1.504
449.70 1.503
449.80 1.502
449.90 1.501
450.00 1.5
450.10 1.499
450.20 1.497
450.30 1.496
450.40 1.495
450.50 1.494
450.60 1.493
450.70 1.491
450.80 1.49
450.90 1.489
451.00 1.488
451.10 1.487
451.20 1.486
451.30 1.484
451.40 1.483
451.50 1.482
451.60 1.481
451.70 1.48
451.80 1.478
451.90 1.477
452.00 1.476
452.10 1.475
452.20 1.474
452.30 1.473
452.40 1.471
452.50 1.47
452.60 1.469
452.70 1.468
452.80 1.467
452.90 1.465
453.00 1.464
453.10 1.463
453.20 1.462
453.30 1.461
453.40 1.459
453.50 1.458
453.60 1.457
453.70 1.456
453.80 1.455
453.90 1.453
