# Version 2.1 - nm, norm@500 to 1, cut digits, bergeron_14000_95.dat_14000
# Wavelength(nm)  Flambda(ergs/cm^s/s/nm)
300.00 2.691
300.10 2.689
300.20 2.687
300.30 2.685
300.40 2.683
300.50 2.681
300.60 2.68
300.70 2.678
300.80 2.676
300.90 2.674
301.00 2.672
301.10 2.67
301.20 2.668
301.30 2.666
301.40 2.664
301.50 2.662
301.60 2.661
301.70 2.659
301.80 2.657
301.90 2.655
302.00 2.653
302.10 2.651
302.20 2.649
302.30 2.647
302.40 2.645
302.50 2.643
302.60 2.642
302.70 2.64
302.80 2.638
302.90 2.636
303.00 2.634
303.10 2.632
303.20 2.63
303.30 2.628
303.40 2.627
303.50 2.625
303.60 2.623
303.70 2.621
303.80 2.619
303.90 2.617
304.00 2.615
304.10 2.614
304.20 2.612
304.30 2.61
304.40 2.608
304.50 2.606
304.60 2.604
304.70 2.602
304.80 2.601
304.90 2.599
305.00 2.597
305.10 2.595
305.20 2.593
305.30 2.591
305.40 2.59
305.50 2.588
305.60 2.586
305.70 2.584
305.80 2.582
305.90 2.58
306.00 2.579
306.10 2.577
306.20 2.575
306.30 2.573
306.40 2.571
306.50 2.569
306.60 2.568
306.70 2.566
306.80 2.564
306.90 2.562
307.00 2.56
307.10 2.558
307.20 2.557
307.30 2.555
307.40 2.553
307.50 2.551
307.60 2.549
307.70 2.548
307.80 2.546
307.90 2.544
308.00 2.542
308.10 2.54
308.20 2.539
308.30 2.537
308.40 2.535
308.50 2.533
308.60 2.531
308.70 2.53
308.80 2.528
308.90 2.526
309.00 2.524
309.10 2.523
309.20 2.521
309.30 2.519
309.40 2.517
309.50 2.515
309.60 2.514
309.70 2.512
309.80 2.51
309.90 2.508
310.00 2.507
310.10 2.505
310.20 2.503
310.30 2.501
310.40 2.499
310.50 2.498
310.60 2.496
310.70 2.494
310.80 2.492
310.90 2.491
311.00 2.489
311.10 2.487
311.20 2.485
311.30 2.484
311.40 2.482
311.50 2.48
311.60 2.478
311.70 2.476
311.80 2.475
311.90 2.473
312.00 2.471
312.10 2.469
312.20 2.468
312.30 2.466
312.40 2.464
312.50 2.463
312.60 2.461
312.70 2.459
312.80 2.457
312.90 2.456
313.00 2.454
313.10 2.452
313.20 2.45
313.30 2.449
313.40 2.447
313.50 2.445
313.60 2.444
313.70 2.442
313.80 2.44
313.90 2.438
314.00 2.437
314.10 2.435
314.20 2.433
314.30 2.432
314.40 2.43
314.50 2.428
314.60 2.426
314.70 2.425
314.80 2.423
314.90 2.421
315.00 2.42
315.10 2.418
315.20 2.416
315.30 2.414
315.40 2.413
315.50 2.411
315.60 2.409
315.70 2.408
315.80 2.406
315.90 2.404
316.00 2.403
316.10 2.401
316.20 2.399
316.30 2.398
316.40 2.396
316.50 2.394
316.60 2.392
316.70 2.391
316.80 2.389
316.90 2.387
317.00 2.386
317.10 2.384
317.20 2.382
317.30 2.381
317.40 2.379
317.50 2.377
317.60 2.376
317.70 2.374
317.80 2.372
317.90 2.371
318.00 2.369
318.10 2.367
318.20 2.366
318.30 2.364
318.40 2.362
318.50 2.361
318.60 2.359
318.70 2.357
318.80 2.356
318.90 2.354
319.00 2.352
319.10 2.351
319.20 2.349
319.30 2.348
319.40 2.346
319.50 2.344
319.60 2.343
319.70 2.341
319.80 2.339
319.90 2.338
320.00 2.336
320.10 2.334
320.20 2.333
320.30 2.331
320.40 2.33
320.50 2.328
320.60 2.326
320.70 2.325
320.80 2.323
320.90 2.321
321.00 2.32
321.10 2.318
321.20 2.316
321.30 2.315
321.40 2.313
321.50 2.312
321.60 2.31
321.70 2.308
321.80 2.307
321.90 2.305
322.00 2.304
322.10 2.302
322.20 2.3
322.30 2.299
322.40 2.297
322.50 2.295
322.60 2.294
322.70 2.292
322.80 2.291
322.90 2.289
323.00 2.287
323.10 2.286
323.20 2.284
323.30 2.283
323.40 2.281
323.50 2.28
323.60 2.278
323.70 2.276
323.80 2.275
323.90 2.273
324.00 2.272
324.10 2.27
324.20 2.268
324.30 2.267
324.40 2.265
324.50 2.264
324.60 2.262
324.70 2.261
324.80 2.259
324.90 2.257
325.00 2.256
325.10 2.254
325.20 2.253
325.30 2.251
325.40 2.249
325.50 2.248
325.60 2.246
325.70 2.245
325.80 2.243
325.90 2.242
326.00 2.24
326.10 2.239
326.20 2.237
326.30 2.235
326.40 2.234
326.50 2.232
326.60 2.231
326.70 2.229
326.80 2.228
326.90 2.226
327.00 2.225
327.10 2.223
327.20 2.221
327.30 2.22
327.40 2.218
327.50 2.217
327.60 2.215
327.70 2.214
327.80 2.212
327.90 2.211
328.00 2.209
328.10 2.208
328.20 2.206
328.30 2.205
328.40 2.203
328.50 2.201
328.60 2.2
328.70 2.198
328.80 2.197
328.90 2.195
329.00 2.194
329.10 2.192
329.20 2.191
329.30 2.189
329.40 2.188
329.50 2.186
329.60 2.185
329.70 2.183
329.80 2.182
329.90 2.18
330.00 2.179
330.10 2.177
330.20 2.176
330.30 2.174
330.40 2.173
330.50 2.171
330.60 2.17
330.70 2.168
330.80 2.167
330.90 2.165
331.00 2.164
331.10 2.162
331.20 2.161
331.30 2.159
331.40 2.158
331.50 2.156
331.60 2.155
331.70 2.153
331.80 2.152
331.90 2.15
332.00 2.149
332.10 2.147
332.20 2.146
332.30 2.144
332.40 2.143
332.50 2.141
332.60 2.14
332.70 2.138
332.80 2.137
332.90 2.135
333.00 2.134
333.10 2.133
333.20 2.131
333.30 2.13
333.40 2.128
333.50 2.127
333.60 2.125
333.70 2.124
333.80 2.122
333.90 2.121
334.00 2.119
334.10 2.118
334.20 2.116
334.30 2.115
334.40 2.113
334.50 2.112
334.60 2.111
334.70 2.109
334.80 2.108
334.90 2.106
335.00 2.105
335.10 2.103
335.20 2.102
335.30 2.1
335.40 2.099
335.50 2.097
335.60 2.096
335.70 2.095
335.80 2.093
335.90 2.092
336.00 2.09
336.10 2.089
336.20 2.087
336.30 2.086
336.40 2.084
336.50 2.083
336.60 2.082
336.70 2.08
336.80 2.079
336.90 2.077
337.00 2.076
337.10 2.074
337.20 2.073
337.30 2.072
337.40 2.07
337.50 2.069
337.60 2.067
337.70 2.066
337.80 2.064
337.90 2.063
338.00 2.062
338.10 2.06
338.20 2.059
338.30 2.057
338.40 2.056
338.50 2.055
338.60 2.053
338.70 2.052
338.80 2.05
338.90 2.049
339.00 2.048
339.10 2.046
339.20 2.045
339.30 2.043
339.40 2.042
339.50 2.041
339.60 2.039
339.70 2.038
339.80 2.036
339.90 2.035
340.00 2.034
340.10 2.032
340.20 2.031
340.30 2.029
340.40 2.028
340.50 2.027
340.60 2.025
340.70 2.024
340.80 2.022
340.90 2.021
341.00 2.02
341.10 2.018
341.20 2.017
341.30 2.016
341.40 2.014
341.50 2.013
341.60 2.011
341.70 2.01
341.80 2.009
341.90 2.007
342.00 2.006
342.10 2.004
342.20 2.003
342.30 2.002
342.40 2
342.50 1.999
342.60 1.998
342.70 1.996
342.80 1.995
342.90 1.994
343.00 1.992
343.10 1.991
343.20 1.989
343.30 1.988
343.40 1.987
343.50 1.985
343.60 1.984
343.70 1.983
343.80 1.981
343.90 1.98
344.00 1.979
344.10 1.977
344.20 1.976
344.30 1.975
344.40 1.973
344.50 1.972
344.60 1.971
344.70 1.969
344.80 1.968
344.90 1.967
345.00 1.965
345.10 1.964
345.20 1.962
345.30 1.961
345.40 1.96
345.50 1.958
345.60 1.957
345.70 1.956
345.80 1.954
345.90 1.953
346.00 1.952
346.10 1.95
346.20 1.949
346.30 1.948
346.40 1.947
346.50 1.945
346.60 1.944
346.70 1.943
346.80 1.941
346.90 1.94
347.00 1.939
347.10 1.937
347.20 1.936
347.30 1.935
347.40 1.933
347.50 1.932
347.60 1.931
347.70 1.929
347.80 1.928
347.90 1.927
348.00 1.925
348.10 1.924
348.20 1.923
348.30 1.922
348.40 1.92
348.50 1.919
348.60 1.918
348.70 1.916
348.80 1.915
348.90 1.914
349.00 1.912
349.10 1.911
349.20 1.91
349.30 1.909
349.40 1.907
349.50 1.906
349.60 1.905
349.70 1.903
349.80 1.902
349.90 1.901
350.00 1.899
350.10 1.898
350.20 1.897
350.30 1.896
350.40 1.894
350.50 1.893
350.60 1.892
350.70 1.89
350.80 1.889
350.90 1.888
351.00 1.887
351.10 1.885
351.20 1.884
351.30 1.883
351.40 1.882
351.50 1.88
351.60 1.879
351.70 1.878
351.80 1.876
351.90 1.875
352.00 1.874
352.10 1.873
352.20 1.871
352.30 1.87
352.40 1.869
352.50 1.868
352.60 1.866
352.70 1.865
352.80 1.864
352.90 1.863
353.00 1.861
353.10 1.86
353.20 1.859
353.30 1.858
353.40 1.856
353.50 1.855
353.60 1.854
353.70 1.853
353.80 1.851
353.90 1.85
354.00 1.849
354.10 1.848
354.20 1.846
354.30 1.845
354.40 1.844
354.50 1.843
354.60 1.841
354.70 1.84
354.80 1.839
354.90 1.838
355.00 1.836
355.10 1.835
355.20 1.834
355.30 1.833
355.40 1.831
355.50 1.83
355.60 1.829
355.70 1.828
355.80 1.826
355.90 1.825
356.00 1.824
356.10 1.823
356.20 1.822
356.30 1.82
356.40 1.819
356.50 1.818
356.60 1.817
356.70 1.815
356.80 1.814
356.90 1.813
357.00 1.812
357.10 1.811
357.20 1.809
357.30 1.808
357.40 1.807
357.50 1.806
357.60 1.804
357.70 1.803
357.80 1.802
357.90 1.801
358.00 1.8
358.10 1.798
358.20 1.797
358.30 1.796
358.40 1.795
358.50 1.794
358.60 1.792
358.70 1.791
358.80 1.79
358.90 1.789
359.00 1.788
359.10 1.786
359.20 1.785
359.30 1.784
359.40 1.783
359.50 1.782
359.60 1.78
359.70 1.779
359.80 1.778
359.90 1.777
360.00 1.776
360.10 1.774
360.20 1.773
360.30 1.772
360.40 1.771
360.50 1.77
360.60 1.769
360.70 1.767
360.80 1.766
360.90 1.765
361.00 1.764
361.10 1.763
361.20 1.761
361.30 1.76
361.40 1.759
361.50 1.758
361.60 1.757
361.70 1.756
361.80 1.754
361.90 1.753
362.00 1.752
362.10 1.751
362.20 1.75
362.30 1.749
362.40 1.747
362.50 1.746
362.60 1.745
362.70 1.744
362.80 1.743
362.90 1.742
363.00 1.74
363.10 1.739
363.20 1.738
363.30 1.736
363.40 1.735
363.50 1.734
363.60 1.732
363.70 1.731
363.80 1.729
363.90 1.728
364.00 1.727
364.10 1.725
364.20 1.724
364.30 1.723
364.40 1.721
364.50 1.72
364.60 1.718
364.70 1.717
364.80 1.716
364.90 1.714
365.00 1.713
365.10 1.711
365.20 1.71
365.30 1.709
365.40 1.707
365.50 1.706
365.60 1.704
365.70 1.703
365.80 1.702
365.90 1.7
366.00 1.699
366.10 1.698
366.20 1.696
366.30 1.695
366.40 1.694
366.50 1.693
366.60 1.692
366.70 1.69
366.80 1.689
366.90 1.688
367.00 1.687
367.10 1.686
367.20 1.684
367.30 1.683
367.40 1.682
367.50 1.681
367.60 1.68
367.70 1.678
367.80 1.677
367.90 1.676
368.00 1.675
368.10 1.674
368.20 1.673
368.30 1.671
368.40 1.67
368.50 1.669
368.60 1.668
368.70 1.667
368.80 1.665
368.90 1.664
369.00 1.663
369.10 1.662
369.20 1.661
369.30 1.659
369.40 1.658
369.50 1.657
369.60 1.656
369.70 1.655
369.80 1.653
369.90 1.652
370.00 1.651
370.10 1.65
370.20 1.649
370.30 1.648
370.40 1.646
370.50 1.645
370.60 1.644
370.70 1.643
370.80 1.642
370.90 1.641
371.00 1.64
371.10 1.638
371.20 1.637
371.30 1.636
371.40 1.635
371.50 1.634
371.60 1.633
371.70 1.631
371.80 1.63
371.90 1.629
372.00 1.628
372.10 1.627
372.20 1.626
372.30 1.625
372.40 1.624
372.50 1.623
372.60 1.622
372.70 1.621
372.80 1.62
372.90 1.618
373.00 1.617
373.10 1.616
373.20 1.615
373.30 1.614
373.40 1.613
373.50 1.612
373.60 1.611
373.70 1.61
373.80 1.609
373.90 1.608
374.00 1.607
374.10 1.606
374.20 1.605
374.30 1.604
374.40 1.603
374.50 1.602
374.60 1.601
374.70 1.6
374.80 1.599
374.90 1.598
375.00 1.597
375.10 1.596
375.20 1.595
375.30 1.594
375.40 1.593
375.50 1.592
375.60 1.591
375.70 1.59
375.80 1.589
375.90 1.588
376.00 1.587
376.10 1.587
376.20 1.586
376.30 1.585
376.40 1.584
376.50 1.583
376.60 1.582
376.70 1.581
376.80 1.58
376.90 1.579
377.00 1.578
377.10 1.577
377.20 1.576
377.30 1.575
377.40 1.574
377.50 1.573
377.60 1.572
377.70 1.571
377.80 1.571
377.90 1.57
378.00 1.569
378.10 1.567
378.20 1.566
378.30 1.565
378.40 1.563
378.50 1.562
378.60 1.561
378.70 1.559
378.80 1.558
378.90 1.557
379.00 1.556
379.10 1.554
379.20 1.553
379.30 1.552
379.40 1.551
379.50 1.55
379.60 1.549
379.70 1.548
379.80 1.547
379.90 1.546
380.00 1.545
380.10 1.545
380.20 1.545
380.30 1.544
380.40 1.544
380.50 1.544
380.60 1.544
380.70 1.543
380.80 1.543
380.90 1.543
381.00 1.543
381.10 1.542
381.20 1.541
381.30 1.541
381.40 1.54
381.50 1.54
381.60 1.539
381.70 1.538
381.80 1.537
381.90 1.536
382.00 1.535
382.10 1.533
382.20 1.532
382.30 1.53
382.40 1.528
382.50 1.526
382.60 1.524
382.70 1.522
382.80 1.52
382.90 1.518
383.00 1.516
383.10 1.514
383.20 1.512
383.30 1.511
383.40 1.51
383.50 1.508
383.60 1.508
383.70 1.509
383.80 1.509
383.90 1.51
384.00 1.511
384.10 1.512
384.20 1.514
384.30 1.515
384.40 1.517
384.50 1.518
384.60 1.519
384.70 1.52
384.80 1.52
384.90 1.521
385.00 1.521
385.10 1.521
385.20 1.521
385.30 1.521
385.40 1.521
385.50 1.521
385.60 1.521
385.70 1.52
385.80 1.519
385.90 1.519
386.00 1.518
386.10 1.517
386.20 1.516
386.30 1.514
386.40 1.513
386.50 1.511
386.60 1.51
386.70 1.508
386.80 1.506
386.90 1.504
387.00 1.502
387.10 1.5
387.20 1.497
387.30 1.495
387.40 1.492
387.50 1.489
387.60 1.486
387.70 1.483
387.80 1.48
387.90 1.476
388.00 1.472
388.10 1.468
388.20 1.463
388.30 1.459
388.40 1.454
388.50 1.449
388.60 1.445
388.70 1.443
388.80 1.44
388.90 1.439
389.00 1.44
389.10 1.442
389.20 1.444
389.30 1.447
389.40 1.451
389.50 1.456
389.60 1.46
389.70 1.464
389.80 1.468
389.90 1.472
390.00 1.475
390.10 1.478
390.20 1.481
390.30 1.483
390.40 1.486
390.50 1.488
390.60 1.49
390.70 1.492
390.80 1.494
390.90 1.496
391.00 1.497
391.10 1.498
391.20 1.5
391.30 1.501
391.40 1.501
391.50 1.502
391.60 1.503
391.70 1.503
391.80 1.503
391.90 1.504
392.00 1.503
392.10 1.503
392.20 1.503
392.30 1.502
392.40 1.501
392.50 1.501
392.60 1.5
392.70 1.498
392.80 1.497
392.90 1.495
393.00 1.494
393.10 1.492
393.20 1.49
393.30 1.487
393.40 1.485
393.50 1.482
393.60 1.479
393.70 1.476
393.80 1.473
393.90 1.47
394.00 1.466
394.10 1.462
394.20 1.458
394.30 1.454
394.40 1.449
394.50 1.445
394.60 1.44
394.70 1.435
394.80 1.429
394.90 1.424
395.00 1.418
395.10 1.412
395.20 1.406
395.30 1.399
395.40 1.392
395.50 1.385
395.60 1.378
395.70 1.37
395.80 1.362
395.90 1.354
396.00 1.346
396.10 1.337
396.20 1.328
396.30 1.318
396.40 1.308
396.50 1.296
396.60 1.283
396.70 1.27
396.80 1.26
396.90 1.252
397.00 1.243
397.10 1.251
397.20 1.258
397.30 1.267
397.40 1.28
397.50 1.292
397.60 1.304
397.70 1.314
397.80 1.324
397.90 1.332
398.00 1.341
398.10 1.349
398.20 1.357
398.30 1.364
398.40 1.371
398.50 1.379
398.60 1.385
398.70 1.392
398.80 1.399
398.90 1.405
399.00 1.411
399.10 1.416
399.20 1.422
399.30 1.427
399.40 1.432
399.50 1.437
399.60 1.442
399.70 1.446
399.80 1.45
399.90 1.455
400.00 1.458
400.10 1.462
400.20 1.466
400.30 1.469
400.40 1.472
400.50 1.475
400.60 1.478
400.70 1.48
400.80 1.483
400.90 1.485
401.00 1.487
401.10 1.489
401.20 1.491
401.30 1.493
401.40 1.494
401.50 1.496
401.60 1.497
401.70 1.498
401.80 1.499
401.90 1.499
402.00 1.5
402.10 1.5
402.20 1.501
402.30 1.501
402.40 1.501
402.50 1.501
402.60 1.5
402.70 1.5
402.80 1.499
402.90 1.499
403.00 1.498
403.10 1.497
403.20 1.496
403.30 1.495
403.40 1.493
403.50 1.491
403.60 1.49
403.70 1.488
403.80 1.486
403.90 1.483
404.00 1.481
404.10 1.478
404.20 1.476
404.30 1.473
404.40 1.47
404.50 1.467
404.60 1.463
404.70 1.46
404.80 1.456
404.90 1.452
405.00 1.448
405.10 1.444
405.20 1.44
405.30 1.435
405.40 1.431
405.50 1.426
405.60 1.421
405.70 1.416
405.80 1.41
405.90 1.404
406.00 1.399
406.10 1.393
406.20 1.387
406.30 1.38
406.40 1.374
406.50 1.367
406.60 1.36
406.70 1.353
406.80 1.345
406.90 1.338
407.00 1.33
407.10 1.322
407.20 1.313
407.30 1.304
407.40 1.296
407.50 1.286
407.60 1.277
407.70 1.267
407.80 1.257
407.90 1.247
408.00 1.236
408.10 1.225
408.20 1.214
408.30 1.202
408.40 1.19
408.50 1.178
408.60 1.165
408.70 1.152
408.80 1.138
408.90 1.125
409.00 1.111
409.10 1.097
409.20 1.082
409.30 1.068
409.40 1.053
409.50 1.038
409.60 1.023
409.70 1.006
409.80 0.9879
409.90 0.9698
410.00 0.9573
410.10 0.9495
410.20 0.9464
410.30 0.9522
410.40 0.9623
410.50 0.977
410.60 0.9942
410.70 1.011
410.80 1.026
410.90 1.041
411.00 1.055
411.10 1.068
411.20 1.082
411.30 1.095
411.40 1.108
411.50 1.121
411.60 1.133
411.70 1.146
411.80 1.158
411.90 1.169
412.00 1.181
412.10 1.191
412.20 1.202
412.30 1.212
412.40 1.222
412.50 1.232
412.60 1.241
412.70 1.25
412.80 1.259
412.90 1.268
413.00 1.276
413.10 1.284
413.20 1.292
413.30 1.299
413.40 1.306
413.50 1.314
413.60 1.32
413.70 1.327
413.80 1.334
413.90 1.34
414.00 1.346
414.10 1.352
414.20 1.358
414.30 1.364
414.40 1.369
414.50 1.375
414.60 1.38
414.70 1.385
414.80 1.39
414.90 1.395
415.00 1.4
415.10 1.404
415.20 1.409
415.30 1.413
415.40 1.417
415.50 1.421
415.60 1.425
415.70 1.429
415.80 1.433
415.90 1.437
416.00 1.44
416.10 1.444
416.20 1.447
416.30 1.45
416.40 1.453
416.50 1.456
416.60 1.459
416.70 1.462
416.80 1.464
416.90 1.467
417.00 1.469
417.10 1.472
417.20 1.474
417.30 1.476
417.40 1.478
417.50 1.481
417.60 1.483
417.70 1.484
417.80 1.486
417.90 1.488
418.00 1.49
418.10 1.491
418.20 1.493
418.30 1.494
418.40 1.495
418.50 1.497
418.60 1.498
418.70 1.499
418.80 1.5
418.90 1.501
419.00 1.502
419.10 1.503
419.20 1.504
419.30 1.504
419.40 1.505
419.50 1.505
419.60 1.506
419.70 1.506
419.80 1.507
419.90 1.507
420.00 1.507
420.10 1.507
420.20 1.507
420.30 1.508
420.40 1.508
420.50 1.507
420.60 1.507
420.70 1.507
420.80 1.507
420.90 1.506
421.00 1.506
421.10 1.505
421.20 1.505
421.30 1.504
421.40 1.504
421.50 1.503
421.60 1.502
421.70 1.501
421.80 1.5
421.90 1.499
422.00 1.498
422.10 1.497
422.20 1.496
422.30 1.495
422.40 1.494
422.50 1.492
422.60 1.491
422.70 1.489
422.80 1.488
422.90 1.486
423.00 1.485
423.10 1.483
423.20 1.481
423.30 1.479
423.40 1.477
423.50 1.475
423.60 1.473
423.70 1.471
423.80 1.469
423.90 1.467
424.00 1.464
424.10 1.462
424.20 1.459
424.30 1.457
424.40 1.454
424.50 1.452
424.60 1.449
424.70 1.446
424.80 1.443
424.90 1.44
425.00 1.437
425.10 1.434
425.20 1.431
425.30 1.428
425.40 1.425
425.50 1.421
425.60 1.418
425.70 1.414
425.80 1.411
425.90 1.407
426.00 1.403
426.10 1.399
426.20 1.395
426.30 1.39
426.40 1.386
426.50 1.382
426.60 1.378
426.70 1.374
426.80 1.37
426.90 1.365
427.00 1.361
427.10 1.356
427.20 1.351
427.30 1.347
427.40 1.342
427.50 1.337
427.60 1.332
427.70 1.327
427.80 1.321
427.90 1.316
428.00 1.31
428.10 1.305
428.20 1.299
428.30 1.293
428.40 1.288
428.50 1.282
428.60 1.276
428.70 1.269
428.80 1.263
428.90 1.257
429.00 1.25
429.10 1.244
429.20 1.237
429.30 1.23
429.40 1.223
429.50 1.216
429.60 1.209
429.70 1.201
429.80 1.194
429.90 1.186
430.00 1.178
430.10 1.171
430.20 1.162
430.30 1.154
430.40 1.146
430.50 1.137
430.60 1.129
430.70 1.12
430.80 1.111
430.90 1.101
431.00 1.092
431.10 1.082
431.20 1.072
431.30 1.062
431.40 1.052
431.50 1.041
431.60 1.03
431.70 1.019
431.80 1.007
431.90 0.9954
432.00 0.9833
432.10 0.9709
432.20 0.958
432.30 0.9448
432.40 0.9313
432.50 0.9172
432.60 0.9027
432.70 0.8879
432.80 0.8725
432.90 0.8569
433.00 0.841
433.10 0.8251
433.20 0.8092
433.30 0.7933
433.40 0.7774
433.50 0.7612
433.60 0.7445
433.70 0.7234
433.80 0.6973
433.90 0.6662
434.00 0.6346
434.10 0.6352
434.20 0.6681
434.30 0.6981
434.40 0.7231
434.50 0.7432
434.60 0.759
434.70 0.7745
434.80 0.7896
434.90 0.8046
435.00 0.8196
435.10 0.8347
435.20 0.8495
435.30 0.8642
435.40 0.8785
435.50 0.8923
435.60 0.9056
435.70 0.9186
435.80 0.9309
435.90 0.943
436.00 0.9547
436.10 0.9659
436.20 0.9768
436.30 0.9874
436.40 0.9976
436.50 1.008
436.60 1.017
436.70 1.027
436.80 1.036
436.90 1.045
437.00 1.053
437.10 1.061
437.20 1.07
437.30 1.077
437.40 1.085
437.50 1.093
437.60 1.1
437.70 1.107
437.80 1.114
437.90 1.121
438.00 1.127
438.10 1.134
438.20 1.14
438.30 1.146
438.40 1.152
438.50 1.158
438.60 1.164
438.70 1.17
438.80 1.175
438.90 1.181
439.00 1.186
439.10 1.191
439.20 1.196
439.30 1.201
439.40 1.206
439.50 1.211
439.60 1.215
439.70 1.22
439.80 1.224
439.90 1.229
440.00 1.233
440.10 1.237
440.20 1.241
440.30 1.245
440.40 1.249
440.50 1.253
440.60 1.256
440.70 1.26
440.80 1.264
440.90 1.267
441.00 1.27
441.10 1.274
441.20 1.277
441.30 1.28
441.40 1.283
441.50 1.286
441.60 1.289
441.70 1.292
441.80 1.294
441.90 1.297
442.00 1.3
442.10 1.302
442.20 1.305
442.30 1.307
442.40 1.31
442.50 1.312
442.60 1.314
442.70 1.316
442.80 1.319
442.90 1.321
443.00 1.323
443.10 1.325
443.20 1.327
443.30 1.329
443.40 1.331
443.50 1.333
443.60 1.334
443.70 1.336
443.80 1.338
443.90 1.34
444.00 1.341
444.10 1.343
444.20 1.344
444.30 1.346
444.40 1.347
444.50 1.349
444.60 1.35
444.70 1.351
444.80 1.353
444.90 1.354
445.00 1.355
445.10 1.356
445.20 1.357
445.30 1.359
445.40 1.36
445.50 1.361
445.60 1.362
445.70 1.363
445.80 1.364
445.90 1.364
446.00 1.365
446.10 1.366
446.20 1.367
446.30 1.368
446.40 1.369
446.50 1.369
446.60 1.37
446.70 1.371
446.80 1.371
446.90 1.372
447.00 1.373
447.10 1.373
447.20 1.374
447.30 1.374
447.40 1.375
447.50 1.375
447.60 1.376
447.70 1.376
447.80 1.376
447.90 1.377
448.00 1.377
448.10 1.378
448.20 1.378
448.30 1.378
448.40 1.378
448.50 1.379
448.60 1.379
448.70 1.379
448.80 1.379
448.90 1.379
449.00 1.38
449.10 1.38
449.20 1.38
449.30 1.38
449.40 1.38
449.50 1.38
449.60 1.381
449.70 1.381
449.80 1.381
449.90 1.381
450.00 1.381
450.10 1.381
450.20 1.381
450.30 1.38
450.40 1.38
450.50 1.38
450.60 1.38
450.70 1.38
450.80 1.38
450.90 1.38
451.00 1.38
451.10 1.379
451.20 1.379
451.30 1.379
451.40 1.379
451.50 1.379
451.60 1.378
451.70 1.378
451.80 1.378
451.90 1.378
452.00 1.377
452.10 1.377
452.20 1.377
452.30 1.376
452.40 1.376
452.50 1.376
452.60 1.375
452.70 1.375
452.80 1.374
452.90 1.374
453.00 1.374
453.10 1.373
453.20 1.373
453.30 1.372
453.40 1.372
453.50 1.372
453.60 1.371
453.70 1.371
453.80 1.37
