# Version 2.1 - nm, norm@500 to 1, cut digits, bergeron_65000_95.dat_65000
# Wavelength(nm)  Flambda(ergs/cm^s/s/nm)
300.00 6.551
300.10 6.543
300.20 6.535
300.30 6.527
300.40 6.519
300.50 6.511
300.60 6.503
300.70 6.495
300.80 6.487
300.90 6.479
301.00 6.471
301.10 6.463
301.20 6.456
301.30 6.448
301.40 6.44
301.50 6.432
301.60 6.424
301.70 6.416
301.80 6.408
301.90 6.4
302.00 6.393
302.10 6.385
302.20 6.377
302.30 6.369
302.40 6.361
302.50 6.354
302.60 6.346
302.70 6.338
302.80 6.33
302.90 6.323
303.00 6.315
303.10 6.307
303.20 6.299
303.30 6.292
303.40 6.284
303.50 6.276
303.60 6.269
303.70 6.261
303.80 6.254
303.90 6.246
304.00 6.238
304.10 6.231
304.20 6.223
304.30 6.216
304.40 6.208
304.50 6.201
304.60 6.193
304.70 6.186
304.80 6.178
304.90 6.171
305.00 6.163
305.10 6.156
305.20 6.148
305.30 6.141
305.40 6.133
305.50 6.126
305.60 6.118
305.70 6.111
305.80 6.104
305.90 6.096
306.00 6.089
306.10 6.082
306.20 6.074
306.30 6.067
306.40 6.06
306.50 6.052
306.60 6.045
306.70 6.038
306.80 6.03
306.90 6.023
307.00 6.016
307.10 6.009
307.20 6.001
307.30 5.994
307.40 5.987
307.50 5.98
307.60 5.973
307.70 5.965
307.80 5.958
307.90 5.951
308.00 5.944
308.10 5.937
308.20 5.93
308.30 5.923
308.40 5.915
308.50 5.908
308.60 5.901
308.70 5.894
308.80 5.887
308.90 5.88
309.00 5.873
309.10 5.866
309.20 5.859
309.30 5.852
309.40 5.845
309.50 5.838
309.60 5.831
309.70 5.824
309.80 5.817
309.90 5.81
310.00 5.803
310.10 5.796
310.20 5.789
310.30 5.782
310.40 5.776
310.50 5.769
310.60 5.762
310.70 5.755
310.80 5.748
310.90 5.741
311.00 5.734
311.10 5.728
311.20 5.721
311.30 5.714
311.40 5.707
311.50 5.7
311.60 5.694
311.70 5.687
311.80 5.68
311.90 5.673
312.00 5.667
312.10 5.66
312.20 5.653
312.30 5.646
312.40 5.64
312.50 5.633
312.60 5.626
312.70 5.62
312.80 5.613
312.90 5.606
313.00 5.6
313.10 5.593
313.20 5.587
313.30 5.58
313.40 5.573
313.50 5.567
313.60 5.56
313.70 5.554
313.80 5.547
313.90 5.541
314.00 5.534
314.10 5.528
314.20 5.521
314.30 5.514
314.40 5.508
314.50 5.502
314.60 5.495
314.70 5.489
314.80 5.482
314.90 5.476
315.00 5.469
315.10 5.463
315.20 5.456
315.30 5.45
315.40 5.444
315.50 5.437
315.60 5.431
315.70 5.424
315.80 5.418
315.90 5.412
316.00 5.405
316.10 5.399
316.20 5.393
316.30 5.386
316.40 5.38
316.50 5.374
316.60 5.367
316.70 5.361
316.80 5.355
316.90 5.349
317.00 5.342
317.10 5.336
317.20 5.33
317.30 5.324
317.40 5.318
317.50 5.311
317.60 5.305
317.70 5.299
317.80 5.293
317.90 5.287
318.00 5.28
318.10 5.274
318.20 5.268
318.30 5.262
318.40 5.256
318.50 5.25
318.60 5.244
318.70 5.238
318.80 5.231
318.90 5.225
319.00 5.219
319.10 5.213
319.20 5.207
319.30 5.201
319.40 5.195
319.50 5.189
319.60 5.183
319.70 5.177
319.80 5.171
319.90 5.165
320.00 5.159
320.10 5.153
320.20 5.147
320.30 5.141
320.40 5.135
320.50 5.129
320.60 5.123
320.70 5.117
320.80 5.111
320.90 5.106
321.00 5.1
321.10 5.094
321.20 5.088
321.30 5.082
321.40 5.076
321.50 5.07
321.60 5.064
321.70 5.059
321.80 5.053
321.90 5.047
322.00 5.041
322.10 5.035
322.20 5.03
322.30 5.024
322.40 5.018
322.50 5.012
322.60 5.006
322.70 5.001
322.80 4.995
322.90 4.989
323.00 4.984
323.10 4.978
323.20 4.972
323.30 4.966
323.40 4.961
323.50 4.955
323.60 4.949
323.70 4.944
323.80 4.938
323.90 4.932
324.00 4.927
324.10 4.921
324.20 4.915
324.30 4.91
324.40 4.904
324.50 4.899
324.60 4.893
324.70 4.887
324.80 4.882
324.90 4.876
325.00 4.871
325.10 4.865
325.20 4.86
325.30 4.854
325.40 4.848
325.50 4.843
325.60 4.837
325.70 4.832
325.80 4.826
325.90 4.821
326.00 4.815
326.10 4.81
326.20 4.804
326.30 4.799
326.40 4.793
326.50 4.788
326.60 4.783
326.70 4.777
326.80 4.772
326.90 4.766
327.00 4.761
327.10 4.756
327.20 4.75
327.30 4.745
327.40 4.739
327.50 4.734
327.60 4.729
327.70 4.723
327.80 4.718
327.90 4.713
328.00 4.707
328.10 4.702
328.20 4.697
328.30 4.691
328.40 4.686
328.50 4.681
328.60 4.675
328.70 4.67
328.80 4.665
328.90 4.66
329.00 4.654
329.10 4.649
329.20 4.644
329.30 4.639
329.40 4.633
329.50 4.628
329.60 4.623
329.70 4.618
329.80 4.612
329.90 4.607
330.00 4.602
330.10 4.597
330.20 4.592
330.30 4.587
330.40 4.581
330.50 4.576
330.60 4.571
330.70 4.566
330.80 4.561
330.90 4.556
331.00 4.551
331.10 4.546
331.20 4.541
331.30 4.535
331.40 4.53
331.50 4.525
331.60 4.52
331.70 4.515
331.80 4.51
331.90 4.505
332.00 4.5
332.10 4.495
332.20 4.49
332.30 4.485
332.40 4.48
332.50 4.475
332.60 4.47
332.70 4.465
332.80 4.46
332.90 4.455
333.00 4.45
333.10 4.445
333.20 4.44
333.30 4.435
333.40 4.43
333.50 4.425
333.60 4.42
333.70 4.415
333.80 4.41
333.90 4.405
334.00 4.401
334.10 4.396
334.20 4.391
334.30 4.386
334.40 4.381
334.50 4.376
334.60 4.371
334.70 4.367
334.80 4.362
334.90 4.357
335.00 4.352
335.10 4.347
335.20 4.342
335.30 4.338
335.40 4.333
335.50 4.328
335.60 4.323
335.70 4.318
335.80 4.314
335.90 4.309
336.00 4.304
336.10 4.299
336.20 4.294
336.30 4.29
336.40 4.285
336.50 4.28
336.60 4.276
336.70 4.271
336.80 4.266
336.90 4.261
337.00 4.257
337.10 4.252
337.20 4.247
337.30 4.243
337.40 4.238
337.50 4.233
337.60 4.229
337.70 4.224
337.80 4.219
337.90 4.215
338.00 4.21
338.10 4.205
338.20 4.201
338.30 4.196
338.40 4.192
338.50 4.187
338.60 4.182
338.70 4.178
338.80 4.173
338.90 4.169
339.00 4.164
339.10 4.159
339.20 4.155
339.30 4.15
339.40 4.146
339.50 4.141
339.60 4.137
339.70 4.132
339.80 4.128
339.90 4.123
340.00 4.119
340.10 4.114
340.20 4.11
340.30 4.105
340.40 4.101
340.50 4.096
340.60 4.092
340.70 4.087
340.80 4.083
340.90 4.078
341.00 4.074
341.10 4.069
341.20 4.065
341.30 4.061
341.40 4.056
341.50 4.052
341.60 4.047
341.70 4.043
341.80 4.038
341.90 4.034
342.00 4.03
342.10 4.025
342.20 4.021
342.30 4.017
342.40 4.012
342.50 4.008
342.60 4.003
342.70 3.999
342.80 3.995
342.90 3.99
343.00 3.986
343.10 3.982
343.20 3.977
343.30 3.973
343.40 3.969
343.50 3.965
343.60 3.96
343.70 3.956
343.80 3.952
343.90 3.947
344.00 3.943
344.10 3.939
344.20 3.935
344.30 3.93
344.40 3.926
344.50 3.922
344.60 3.918
344.70 3.913
344.80 3.909
344.90 3.905
345.00 3.901
345.10 3.897
345.20 3.892
345.30 3.888
345.40 3.884
345.50 3.88
345.60 3.876
345.70 3.871
345.80 3.867
345.90 3.863
346.00 3.859
346.10 3.855
346.20 3.851
346.30 3.846
346.40 3.842
346.50 3.838
346.60 3.834
346.70 3.83
346.80 3.826
346.90 3.822
347.00 3.818
347.10 3.814
347.20 3.809
347.30 3.805
347.40 3.801
347.50 3.797
347.60 3.793
347.70 3.789
347.80 3.785
347.90 3.781
348.00 3.777
348.10 3.773
348.20 3.769
348.30 3.765
348.40 3.761
348.50 3.757
348.60 3.753
348.70 3.749
348.80 3.745
348.90 3.741
349.00 3.737
349.10 3.733
349.20 3.729
349.30 3.725
349.40 3.721
349.50 3.717
349.60 3.713
349.70 3.709
349.80 3.705
349.90 3.701
350.00 3.697
350.10 3.693
350.20 3.689
350.30 3.685
350.40 3.681
350.50 3.677
350.60 3.674
350.70 3.67
350.80 3.666
350.90 3.662
351.00 3.658
351.10 3.654
351.20 3.65
351.30 3.646
351.40 3.642
351.50 3.639
351.60 3.635
351.70 3.631
351.80 3.627
351.90 3.623
352.00 3.619
352.10 3.616
352.20 3.612
352.30 3.608
352.40 3.604
352.50 3.6
352.60 3.596
352.70 3.593
352.80 3.589
352.90 3.585
353.00 3.581
353.10 3.578
353.20 3.574
353.30 3.57
353.40 3.566
353.50 3.562
353.60 3.559
353.70 3.555
353.80 3.551
353.90 3.547
354.00 3.544
354.10 3.54
354.20 3.536
354.30 3.533
354.40 3.529
354.50 3.525
354.60 3.521
354.70 3.518
354.80 3.514
354.90 3.51
355.00 3.507
355.10 3.503
355.20 3.499
355.30 3.496
355.40 3.492
355.50 3.488
355.60 3.485
355.70 3.481
355.80 3.477
355.90 3.474
356.00 3.47
356.10 3.466
356.20 3.463
356.30 3.459
356.40 3.455
356.50 3.452
356.60 3.448
356.70 3.445
356.80 3.441
356.90 3.437
357.00 3.434
357.10 3.43
357.20 3.427
357.30 3.423
357.40 3.42
357.50 3.416
357.60 3.412
357.70 3.409
357.80 3.405
357.90 3.402
358.00 3.398
358.10 3.395
358.20 3.391
358.30 3.388
358.40 3.384
358.50 3.381
358.60 3.377
358.70 3.374
358.80 3.37
358.90 3.367
359.00 3.363
359.10 3.36
359.20 3.356
359.30 3.353
359.40 3.349
359.50 3.346
359.60 3.342
359.70 3.339
359.80 3.335
359.90 3.332
360.00 3.328
360.10 3.325
360.20 3.321
360.30 3.318
360.40 3.314
360.50 3.311
360.60 3.308
360.70 3.304
360.80 3.301
360.90 3.297
361.00 3.294
361.10 3.291
361.20 3.287
361.30 3.284
361.40 3.28
361.50 3.277
361.60 3.274
361.70 3.27
361.80 3.267
361.90 3.263
362.00 3.26
362.10 3.257
362.20 3.253
362.30 3.25
362.40 3.247
362.50 3.243
362.60 3.24
362.70 3.237
362.80 3.233
362.90 3.23
363.00 3.227
363.10 3.223
363.20 3.22
363.30 3.217
363.40 3.213
363.50 3.21
363.60 3.207
363.70 3.204
363.80 3.2
363.90 3.197
364.00 3.194
364.10 3.19
364.20 3.187
364.30 3.184
364.40 3.181
364.50 3.177
364.60 3.174
364.70 3.171
364.80 3.168
364.90 3.164
365.00 3.161
365.10 3.158
365.20 3.155
365.30 3.151
365.40 3.148
365.50 3.145
365.60 3.142
365.70 3.139
365.80 3.135
365.90 3.132
366.00 3.129
366.10 3.126
366.20 3.123
366.30 3.119
366.40 3.116
366.50 3.113
366.60 3.11
366.70 3.107
366.80 3.103
366.90 3.1
367.00 3.097
367.10 3.094
367.20 3.091
367.30 3.088
367.40 3.084
367.50 3.081
367.60 3.078
367.70 3.075
367.80 3.072
367.90 3.069
368.00 3.066
368.10 3.062
368.20 3.059
368.30 3.056
368.40 3.053
368.50 3.05
368.60 3.046
368.70 3.043
368.80 3.04
368.90 3.037
369.00 3.034
369.10 3.03
369.20 3.027
369.30 3.024
369.40 3.021
369.50 3.018
369.60 3.015
369.70 3.011
369.80 3.008
369.90 3.005
370.00 3.002
370.10 2.999
370.20 2.996
370.30 2.993
370.40 2.989
370.50 2.986
370.60 2.983
370.70 2.98
370.80 2.977
370.90 2.974
371.00 2.971
371.10 2.968
371.20 2.964
371.30 2.961
371.40 2.958
371.50 2.955
371.60 2.952
371.70 2.949
371.80 2.946
371.90 2.943
372.00 2.94
372.10 2.937
372.20 2.934
372.30 2.931
372.40 2.928
372.50 2.925
372.60 2.922
372.70 2.92
372.80 2.917
372.90 2.914
373.00 2.911
373.10 2.908
373.20 2.905
373.30 2.902
373.40 2.9
373.50 2.897
373.60 2.894
373.70 2.891
373.80 2.888
373.90 2.885
374.00 2.883
374.10 2.88
374.20 2.877
374.30 2.874
374.40 2.871
374.50 2.868
374.60 2.865
374.70 2.862
374.80 2.859
374.90 2.856
375.00 2.853
375.10 2.85
375.20 2.847
375.30 2.844
375.40 2.841
375.50 2.838
375.60 2.835
375.70 2.832
375.80 2.829
375.90 2.826
376.00 2.823
376.10 2.82
376.20 2.817
376.30 2.815
376.40 2.812
376.50 2.809
376.60 2.806
376.70 2.803
376.80 2.8
376.90 2.797
377.00 2.794
377.10 2.791
377.20 2.789
377.30 2.786
377.40 2.783
377.50 2.78
377.60 2.777
377.70 2.775
377.80 2.772
377.90 2.769
378.00 2.766
378.10 2.764
378.20 2.761
378.30 2.758
378.40 2.755
378.50 2.752
378.60 2.75
378.70 2.747
378.80 2.744
378.90 2.741
379.00 2.739
379.10 2.736
379.20 2.733
379.30 2.73
379.40 2.728
379.50 2.725
379.60 2.722
379.70 2.719
379.80 2.717
379.90 2.714
380.00 2.711
380.10 2.708
380.20 2.706
380.30 2.703
380.40 2.7
380.50 2.698
380.60 2.695
380.70 2.692
380.80 2.69
380.90 2.687
381.00 2.684
381.10 2.682
381.20 2.679
381.30 2.676
381.40 2.674
381.50 2.671
381.60 2.669
381.70 2.666
381.80 2.663
381.90 2.661
382.00 2.658
382.10 2.655
382.20 2.653
382.30 2.65
382.40 2.648
382.50 2.645
382.60 2.642
382.70 2.64
382.80 2.637
382.90 2.635
383.00 2.632
383.10 2.629
383.20 2.627
383.30 2.624
383.40 2.622
383.50 2.619
383.60 2.617
383.70 2.614
383.80 2.612
383.90 2.609
384.00 2.607
384.10 2.604
384.20 2.602
384.30 2.599
384.40 2.597
384.50 2.594
384.60 2.592
384.70 2.589
384.80 2.587
384.90 2.584
385.00 2.582
385.10 2.579
385.20 2.577
385.30 2.574
385.40 2.572
385.50 2.569
385.60 2.567
385.70 2.564
385.80 2.562
385.90 2.559
386.00 2.557
386.10 2.555
386.20 2.552
386.30 2.55
386.40 2.547
386.50 2.545
386.60 2.542
386.70 2.54
386.80 2.538
386.90 2.535
387.00 2.533
387.10 2.53
387.20 2.528
387.30 2.525
387.40 2.523
387.50 2.521
387.60 2.518
387.70 2.516
387.80 2.514
387.90 2.511
388.00 2.509
388.10 2.506
388.20 2.504
388.30 2.502
388.40 2.499
388.50 2.497
388.60 2.495
388.70 2.492
388.80 2.49
388.90 2.488
389.00 2.485
389.10 2.483
389.20 2.481
389.30 2.479
389.40 2.476
389.50 2.474
389.60 2.472
389.70 2.47
389.80 2.467
389.90 2.465
390.00 2.463
390.10 2.461
390.20 2.458
390.30 2.456
390.40 2.454
390.50 2.452
390.60 2.45
390.70 2.447
390.80 2.445
390.90 2.443
391.00 2.441
391.10 2.438
391.20 2.436
391.30 2.434
391.40 2.432
391.50 2.43
391.60 2.427
391.70 2.425
391.80 2.423
391.90 2.421
392.00 2.419
392.10 2.416
392.20 2.414
392.30 2.412
392.40 2.41
392.50 2.407
392.60 2.405
392.70 2.403
392.80 2.401
392.90 2.398
393.00 2.396
393.10 2.394
393.20 2.392
393.30 2.389
393.40 2.387
393.50 2.385
393.60 2.383
393.70 2.38
393.80 2.378
393.90 2.376
394.00 2.373
394.10 2.371
394.20 2.369
394.30 2.367
394.40 2.364
394.50 2.362
394.60 2.36
394.70 2.357
394.80 2.355
394.90 2.353
395.00 2.35
395.10 2.348
395.20 2.346
395.30 2.344
395.40 2.341
395.50 2.339
395.60 2.337
395.70 2.334
395.80 2.332
395.90 2.33
396.00 2.328
396.10 2.325
396.20 2.323
396.30 2.321
396.40 2.318
396.50 2.316
396.60 2.314
396.70 2.312
396.80 2.31
396.90 2.308
397.00 2.305
397.10 2.304
397.20 2.302
397.30 2.3
397.40 2.298
397.50 2.296
397.60 2.295
397.70 2.293
397.80 2.291
397.90 2.289
398.00 2.288
398.10 2.286
398.20 2.284
398.30 2.282
398.40 2.281
398.50 2.279
398.60 2.277
398.70 2.276
398.80 2.274
398.90 2.272
399.00 2.27
399.10 2.269
399.20 2.267
399.30 2.265
399.40 2.264
399.50 2.262
399.60 2.26
399.70 2.258
399.80 2.256
399.90 2.255
400.00 2.253
400.10 2.251
400.20 2.249
400.30 2.247
400.40 2.246
400.50 2.244
400.60 2.242
400.70 2.24
400.80 2.238
400.90 2.236
401.00 2.234
401.10 2.233
401.20 2.231
401.30 2.229
401.40 2.227
401.50 2.225
401.60 2.223
401.70 2.221
401.80 2.219
401.90 2.217
402.00 2.215
402.10 2.213
402.20 2.211
402.30 2.209
402.40 2.207
402.50 2.205
402.60 2.203
402.70 2.201
402.80 2.199
402.90 2.196
403.00 2.194
403.10 2.192
403.20 2.19
403.30 2.188
403.40 2.186
403.50 2.183
403.60 2.181
403.70 2.179
403.80 2.177
403.90 2.175
404.00 2.172
404.10 2.17
404.20 2.168
404.30 2.165
404.40 2.163
404.50 2.161
404.60 2.158
404.70 2.156
404.80 2.154
404.90 2.151
405.00 2.149
405.10 2.146
405.20 2.144
405.30 2.142
405.40 2.139
405.50 2.137
405.60 2.134
405.70 2.132
405.80 2.129
405.90 2.127
406.00 2.124
406.10 2.121
406.20 2.119
406.30 2.116
406.40 2.114
406.50 2.111
406.60 2.108
406.70 2.106
406.80 2.103
406.90 2.1
407.00 2.098
407.10 2.095
407.20 2.092
407.30 2.09
407.40 2.087
407.50 2.084
407.60 2.081
407.70 2.079
407.80 2.076
407.90 2.073
408.00 2.07
408.10 2.068
408.20 2.065
408.30 2.062
408.40 2.06
408.50 2.057
408.60 2.054
408.70 2.051
408.80 2.049
408.90 2.046
409.00 2.044
409.10 2.041
409.20 2.039
409.30 2.036
409.40 2.034
409.50 2.032
409.60 2.03
409.70 2.028
409.80 2.026
409.90 2.025
410.00 2.023
410.10 2.022
410.20 2.02
410.30 2.018
410.40 2.016
410.50 2.014
410.60 2.013
410.70 2.011
410.80 2.01
410.90 2.009
411.00 2.008
411.10 2.007
411.20 2.006
411.30 2.005
411.40 2.004
411.50 2.003
411.60 2.002
411.70 2.002
411.80 2.001
411.90 2
412.00 2
412.10 1.999
412.20 1.998
412.30 1.998
412.40 1.997
412.50 1.996
412.60 1.996
412.70 1.995
412.80 1.994
412.90 1.994
413.00 1.993
413.10 1.992
413.20 1.991
413.30 1.991
413.40 1.99
413.50 1.989
413.60 1.988
413.70 1.988
413.80 1.987
413.90 1.986
414.00 1.985
414.10 1.985
414.20 1.984
414.30 1.983
414.40 1.982
414.50 1.981
414.60 1.98
414.70 1.979
414.80 1.978
414.90 1.977
415.00 1.976
415.10 1.975
415.20 1.974
415.30 1.974
415.40 1.972
415.50 1.971
415.60 1.97
415.70 1.969
415.80 1.968
415.90 1.967
416.00 1.966
416.10 1.965
416.20 1.964
416.30 1.963
416.40 1.962
416.50 1.96
416.60 1.959
416.70 1.958
416.80 1.957
416.90 1.956
417.00 1.954
417.10 1.953
417.20 1.952
417.30 1.951
417.40 1.949
417.50 1.948
417.60 1.947
417.70 1.945
417.80 1.944
417.90 1.943
418.00 1.941
418.10 1.94
418.20 1.939
418.30 1.937
418.40 1.936
418.50 1.934
418.60 1.933
418.70 1.932
418.80 1.93
418.90 1.929
419.00 1.927
419.10 1.926
419.20 1.924
419.30 1.923
419.40 1.921
419.50 1.92
419.60 1.918
419.70 1.917
419.80 1.915
419.90 1.913
420.00 1.912
420.10 1.91
420.20 1.909
420.30 1.907
420.40 1.906
420.50 1.904
420.60 1.902
420.70 1.901
420.80 1.899
420.90 1.897
421.00 1.896
421.10 1.894
421.20 1.892
421.30 1.89
421.40 1.889
421.50 1.887
421.60 1.885
421.70 1.884
421.80 1.882
421.90 1.88
422.00 1.878
422.10 1.876
422.20 1.875
422.30 1.873
422.40 1.871
422.50 1.869
422.60 1.867
422.70 1.865
422.80 1.864
422.90 1.862
423.00 1.86
423.10 1.858
423.20 1.856
423.30 1.854
423.40 1.852
423.50 1.85
423.60 1.848
423.70 1.846
423.80 1.844
423.90 1.842
424.00 1.84
424.10 1.838
424.20 1.836
424.30 1.834
424.40 1.832
424.50 1.83
424.60 1.828
424.70 1.826
424.80 1.823
424.90 1.821
425.00 1.819
425.10 1.817
425.20 1.815
425.30 1.813
425.40 1.81
425.50 1.808
425.60 1.806
425.70 1.804
425.80 1.801
425.90 1.799
426.00 1.797
426.10 1.794
426.20 1.792
426.30 1.79
426.40 1.787
426.50 1.785
426.60 1.782
426.70 1.78
426.80 1.778
426.90 1.775
427.00 1.773
427.10 1.77
427.20 1.767
427.30 1.765
427.40 1.762
427.50 1.76
427.60 1.757
427.70 1.754
427.80 1.752
427.90 1.749
428.00 1.746
428.10 1.744
428.20 1.741
428.30 1.738
428.40 1.735
428.50 1.732
428.60 1.73
428.70 1.727
428.80 1.724
428.90 1.721
429.00 1.718
429.10 1.715
429.20 1.712
429.30 1.709
429.40 1.706
429.50 1.703
429.60 1.7
429.70 1.696
429.80 1.693
429.90 1.69
430.00 1.687
430.10 1.684
430.20 1.68
430.30 1.677
430.40 1.674
430.50 1.67
430.60 1.667
430.70 1.664
430.80 1.66
430.90 1.657
431.00 1.653
431.10 1.65
431.20 1.646
431.30 1.643
431.40 1.639
431.50 1.636
431.60 1.632
431.70 1.629
431.80 1.625
431.90 1.621
432.00 1.618
432.10 1.614
432.20 1.61
432.30 1.606
432.40 1.603
432.50 1.599
432.60 1.595
432.70 1.591
432.80 1.587
432.90 1.584
433.00 1.58
433.10 1.576
433.20 1.571
433.30 1.567
433.40 1.563
433.50 1.558
433.60 1.553
433.70 1.548
433.80 1.543
433.90 1.537
434.00 1.533
434.10 1.533
434.20 1.535
434.30 1.538
434.40 1.541
434.50 1.543
434.60 1.545
434.70 1.547
434.80 1.549
434.90 1.551
435.00 1.553
435.10 1.554
435.20 1.555
435.30 1.557
435.40 1.558
435.50 1.559
435.60 1.56
435.70 1.561
435.80 1.563
435.90 1.564
436.00 1.565
436.10 1.566
436.20 1.567
436.30 1.568
436.40 1.569
436.50 1.57
436.60 1.57
436.70 1.571
436.80 1.572
436.90 1.573
437.00 1.574
437.10 1.574
437.20 1.575
437.30 1.576
437.40 1.576
437.50 1.577
437.60 1.578
437.70 1.578
437.80 1.579
437.90 1.579
438.00 1.58
438.10 1.58
438.20 1.58
438.30 1.581
438.40 1.581
438.50 1.582
438.60 1.582
438.70 1.582
438.80 1.582
438.90 1.582
439.00 1.583
439.10 1.583
439.20 1.583
439.30 1.583
439.40 1.583
439.50 1.583
439.60 1.583
439.70 1.583
439.80 1.583
439.90 1.583
440.00 1.583
440.10 1.583
440.20 1.583
440.30 1.582
440.40 1.582
440.50 1.582
440.60 1.582
440.70 1.581
440.80 1.581
440.90 1.581
441.00 1.581
441.10 1.58
441.20 1.58
441.30 1.579
441.40 1.579
441.50 1.579
441.60 1.578
441.70 1.578
441.80 1.577
441.90 1.577
442.00 1.576
442.10 1.576
442.20 1.575
442.30 1.574
442.40 1.574
442.50 1.573
442.60 1.573
442.70 1.572
442.80 1.571
442.90 1.571
443.00 1.57
443.10 1.569
443.20 1.569
443.30 1.568
443.40 1.567
443.50 1.566
443.60 1.566
443.70 1.565
443.80 1.564
443.90 1.563
444.00 1.563
444.10 1.562
444.20 1.561
444.30 1.56
444.40 1.559
444.50 1.558
444.60 1.558
444.70 1.557
444.80 1.556
444.90 1.555
445.00 1.554
445.10 1.553
445.20 1.552
445.30 1.551
445.40 1.55
445.50 1.55
445.60 1.549
445.70 1.548
445.80 1.547
445.90 1.546
446.00 1.545
446.10 1.544
446.20 1.543
446.30 1.542
446.40 1.541
446.50 1.54
446.60 1.539
446.70 1.538
446.80 1.537
446.90 1.536
447.00 1.535
447.10 1.534
447.20 1.533
447.30 1.532
447.40 1.531
447.50 1.529
447.60 1.528
447.70 1.527
447.80 1.526
447.90 1.525
448.00 1.524
448.10 1.523
448.20 1.522
448.30 1.521
448.40 1.52
448.50 1.519
448.60 1.518
448.70 1.517
448.80 1.515
448.90 1.514
449.00 1.513
449.10 1.512
449.20 1.511
449.30 1.51
449.40 1.509
449.50 1.508
449.60 1.507
449.70 1.505
449.80 1.504
449.90 1.503
450.00 1.502
450.10 1.501
450.20 1.5
450.30 1.499
450.40 1.498
450.50 1.496
450.60 1.495
450.70 1.494
450.80 1.493
450.90 1.492
451.00 1.491
451.10 1.49
451.20 1.488
451.30 1.487
451.40 1.486
451.50 1.485
451.60 1.484
451.70 1.483
451.80 1.481
451.90 1.48
452.00 1.479
452.10 1.478
452.20 1.477
452.30 1.476
452.40 1.475
452.50 1.473
452.60 1.472
452.70 1.471
452.80 1.47
452.90 1.469
453.00 1.468
453.10 1.466
453.20 1.465
453.30 1.464
453.40 1.463
453.50 1.462
453.60 1.461
453.70 1.459
453.80 1.458
453.90 1.457
454.00 1.456
454.10 1.455
454.20 1.453
454.30 1.452
