# Version 2.1 - nm, norm@500 to 1, cut digits, bergeron_11000_85.dat_11000
# Wavelength(nm)  Flambda(ergs/cm^s/s/nm)
300.00 1.889
300.10 1.888
300.20 1.887
300.30 1.887
300.40 1.886
300.50 1.885
300.60 1.884
300.70 1.883
300.80 1.882
300.90 1.881
301.00 1.88
301.10 1.879
301.20 1.878
301.30 1.877
301.40 1.876
301.50 1.875
301.60 1.874
301.70 1.874
301.80 1.873
301.90 1.872
302.00 1.871
302.10 1.87
302.20 1.869
302.30 1.868
302.40 1.867
302.50 1.866
302.60 1.865
302.70 1.864
302.80 1.863
302.90 1.862
303.00 1.861
303.10 1.861
303.20 1.86
303.30 1.859
303.40 1.858
303.50 1.857
303.60 1.856
303.70 1.855
303.80 1.854
303.90 1.853
304.00 1.852
304.10 1.851
304.20 1.85
304.30 1.849
304.40 1.849
304.50 1.848
304.60 1.847
304.70 1.846
304.80 1.845
304.90 1.844
305.00 1.843
305.10 1.842
305.20 1.841
305.30 1.84
305.40 1.839
305.50 1.838
305.60 1.837
305.70 1.837
305.80 1.836
305.90 1.835
306.00 1.834
306.10 1.833
306.20 1.832
306.30 1.831
306.40 1.83
306.50 1.829
306.60 1.828
306.70 1.827
306.80 1.826
306.90 1.826
307.00 1.825
307.10 1.824
307.20 1.823
307.30 1.822
307.40 1.821
307.50 1.82
307.60 1.819
307.70 1.818
307.80 1.817
307.90 1.816
308.00 1.816
308.10 1.815
308.20 1.814
308.30 1.813
308.40 1.812
308.50 1.811
308.60 1.81
308.70 1.809
308.80 1.808
308.90 1.807
309.00 1.806
309.10 1.805
309.20 1.805
309.30 1.804
309.40 1.803
309.50 1.802
309.60 1.801
309.70 1.8
309.80 1.799
309.90 1.798
310.00 1.797
310.10 1.796
310.20 1.795
310.30 1.795
310.40 1.794
310.50 1.793
310.60 1.792
310.70 1.791
310.80 1.79
310.90 1.789
311.00 1.788
311.10 1.787
311.20 1.786
311.30 1.786
311.40 1.785
311.50 1.784
311.60 1.783
311.70 1.782
311.80 1.781
311.90 1.78
312.00 1.779
312.10 1.778
312.20 1.777
312.30 1.777
312.40 1.776
312.50 1.775
312.60 1.774
312.70 1.773
312.80 1.772
312.90 1.771
313.00 1.77
313.10 1.769
313.20 1.768
313.30 1.768
313.40 1.767
313.50 1.766
313.60 1.765
313.70 1.764
313.80 1.763
313.90 1.762
314.00 1.761
314.10 1.76
314.20 1.76
314.30 1.759
314.40 1.758
314.50 1.757
314.60 1.756
314.70 1.755
314.80 1.754
314.90 1.753
315.00 1.752
315.10 1.751
315.20 1.751
315.30 1.75
315.40 1.749
315.50 1.748
315.60 1.747
315.70 1.746
315.80 1.745
315.90 1.744
316.00 1.744
316.10 1.743
316.20 1.742
316.30 1.741
316.40 1.74
316.50 1.739
316.60 1.738
316.70 1.737
316.80 1.736
316.90 1.736
317.00 1.735
317.10 1.734
317.20 1.733
317.30 1.732
317.40 1.731
317.50 1.73
317.60 1.729
317.70 1.728
317.80 1.728
317.90 1.727
318.00 1.726
318.10 1.725
318.20 1.724
318.30 1.723
318.40 1.722
318.50 1.721
318.60 1.721
318.70 1.72
318.80 1.719
318.90 1.718
319.00 1.717
319.10 1.716
319.20 1.715
319.30 1.714
319.40 1.713
319.50 1.713
319.60 1.712
319.70 1.711
319.80 1.71
319.90 1.709
320.00 1.708
320.10 1.707
320.20 1.707
320.30 1.706
320.40 1.705
320.50 1.704
320.60 1.703
320.70 1.702
320.80 1.701
320.90 1.7
321.00 1.7
321.10 1.699
321.20 1.698
321.30 1.697
321.40 1.696
321.50 1.695
321.60 1.694
321.70 1.693
321.80 1.693
321.90 1.692
322.00 1.691
322.10 1.69
322.20 1.689
322.30 1.688
322.40 1.687
322.50 1.687
322.60 1.686
322.70 1.685
322.80 1.684
322.90 1.683
323.00 1.682
323.10 1.681
323.20 1.68
323.30 1.68
323.40 1.679
323.50 1.678
323.60 1.677
323.70 1.676
323.80 1.675
323.90 1.674
324.00 1.674
324.10 1.673
324.20 1.672
324.30 1.671
324.40 1.67
324.50 1.669
324.60 1.668
324.70 1.668
324.80 1.667
324.90 1.666
325.00 1.665
325.10 1.664
325.20 1.663
325.30 1.662
325.40 1.662
325.50 1.661
325.60 1.66
325.70 1.659
325.80 1.658
325.90 1.657
326.00 1.656
326.10 1.656
326.20 1.655
326.30 1.654
326.40 1.653
326.50 1.652
326.60 1.651
326.70 1.65
326.80 1.65
326.90 1.649
327.00 1.648
327.10 1.647
327.20 1.646
327.30 1.645
327.40 1.645
327.50 1.644
327.60 1.643
327.70 1.642
327.80 1.641
327.90 1.64
328.00 1.639
328.10 1.639
328.20 1.638
328.30 1.637
328.40 1.636
328.50 1.635
328.60 1.634
328.70 1.634
328.80 1.633
328.90 1.632
329.00 1.631
329.10 1.63
329.20 1.629
329.30 1.628
329.40 1.628
329.50 1.627
329.60 1.626
329.70 1.625
329.80 1.624
329.90 1.623
330.00 1.623
330.10 1.622
330.20 1.621
330.30 1.62
330.40 1.619
330.50 1.618
330.60 1.618
330.70 1.617
330.80 1.616
330.90 1.615
331.00 1.614
331.10 1.613
331.20 1.613
331.30 1.612
331.40 1.611
331.50 1.61
331.60 1.609
331.70 1.608
331.80 1.608
331.90 1.607
332.00 1.606
332.10 1.605
332.20 1.604
332.30 1.603
332.40 1.603
332.50 1.602
332.60 1.601
332.70 1.6
332.80 1.599
332.90 1.598
333.00 1.598
333.10 1.597
333.20 1.596
333.30 1.595
333.40 1.594
333.50 1.593
333.60 1.593
333.70 1.592
333.80 1.591
333.90 1.59
334.00 1.589
334.10 1.589
334.20 1.588
334.30 1.587
334.40 1.586
334.50 1.585
334.60 1.584
334.70 1.584
334.80 1.583
334.90 1.582
335.00 1.581
335.10 1.58
335.20 1.579
335.30 1.579
335.40 1.578
335.50 1.577
335.60 1.576
335.70 1.575
335.80 1.575
335.90 1.574
336.00 1.573
336.10 1.572
336.20 1.571
336.30 1.57
336.40 1.57
336.50 1.569
336.60 1.568
336.70 1.567
336.80 1.566
336.90 1.566
337.00 1.565
337.10 1.564
337.20 1.563
337.30 1.562
337.40 1.561
337.50 1.561
337.60 1.56
337.70 1.559
337.80 1.558
337.90 1.557
338.00 1.557
338.10 1.556
338.20 1.555
338.30 1.554
338.40 1.553
338.50 1.553
338.60 1.552
338.70 1.551
338.80 1.55
338.90 1.549
339.00 1.549
339.10 1.548
339.20 1.547
339.30 1.546
339.40 1.545
339.50 1.545
339.60 1.544
339.70 1.543
339.80 1.542
339.90 1.541
340.00 1.541
340.10 1.54
340.20 1.539
340.30 1.538
340.40 1.537
340.50 1.536
340.60 1.536
340.70 1.535
340.80 1.534
340.90 1.533
341.00 1.532
341.10 1.532
341.20 1.531
341.30 1.53
341.40 1.529
341.50 1.528
341.60 1.528
341.70 1.527
341.80 1.526
341.90 1.525
342.00 1.525
342.10 1.524
342.20 1.523
342.30 1.522
342.40 1.521
342.50 1.521
342.60 1.52
342.70 1.519
342.80 1.518
342.90 1.517
343.00 1.517
343.10 1.516
343.20 1.515
343.30 1.514
343.40 1.513
343.50 1.513
343.60 1.512
343.70 1.511
343.80 1.51
343.90 1.509
344.00 1.509
344.10 1.508
344.20 1.507
344.30 1.506
344.40 1.506
344.50 1.505
344.60 1.504
344.70 1.503
344.80 1.502
344.90 1.502
345.00 1.501
345.10 1.5
345.20 1.499
345.30 1.498
345.40 1.498
345.50 1.497
345.60 1.496
345.70 1.495
345.80 1.495
345.90 1.494
346.00 1.493
346.10 1.492
346.20 1.491
346.30 1.491
346.40 1.49
346.50 1.489
346.60 1.488
346.70 1.488
346.80 1.487
346.90 1.486
347.00 1.485
347.10 1.484
347.20 1.484
347.30 1.483
347.40 1.482
347.50 1.481
347.60 1.481
347.70 1.48
347.80 1.479
347.90 1.478
348.00 1.478
348.10 1.477
348.20 1.476
348.30 1.475
348.40 1.474
348.50 1.474
348.60 1.473
348.70 1.472
348.80 1.471
348.90 1.471
349.00 1.47
349.10 1.469
349.20 1.468
349.30 1.467
349.40 1.467
349.50 1.466
349.60 1.465
349.70 1.464
349.80 1.464
349.90 1.463
350.00 1.462
350.10 1.461
350.20 1.461
350.30 1.46
350.40 1.459
350.50 1.458
350.60 1.458
350.70 1.457
350.80 1.456
350.90 1.455
351.00 1.455
351.10 1.454
351.20 1.453
351.30 1.452
351.40 1.451
351.50 1.451
351.60 1.45
351.70 1.449
351.80 1.448
351.90 1.448
352.00 1.447
352.10 1.446
352.20 1.445
352.30 1.445
352.40 1.444
352.50 1.443
352.60 1.442
352.70 1.442
352.80 1.441
352.90 1.44
353.00 1.439
353.10 1.439
353.20 1.438
353.30 1.437
353.40 1.436
353.50 1.436
353.60 1.435
353.70 1.434
353.80 1.433
353.90 1.433
354.00 1.432
354.10 1.431
354.20 1.43
354.30 1.43
354.40 1.429
354.50 1.428
354.60 1.427
354.70 1.427
354.80 1.426
354.90 1.425
355.00 1.424
355.10 1.424
355.20 1.423
355.30 1.422
355.40 1.421
355.50 1.421
355.60 1.42
355.70 1.419
355.80 1.418
355.90 1.418
356.00 1.417
356.10 1.416
356.20 1.415
356.30 1.415
356.40 1.414
356.50 1.413
356.60 1.412
356.70 1.412
356.80 1.411
356.90 1.41
357.00 1.41
357.10 1.409
357.20 1.408
357.30 1.407
357.40 1.407
357.50 1.406
357.60 1.405
357.70 1.404
357.80 1.404
357.90 1.403
358.00 1.402
358.10 1.401
358.20 1.401
358.30 1.4
358.40 1.399
358.50 1.398
358.60 1.398
358.70 1.397
358.80 1.396
358.90 1.396
359.00 1.395
359.10 1.394
359.20 1.393
359.30 1.393
359.40 1.392
359.50 1.391
359.60 1.39
359.70 1.39
359.80 1.389
359.90 1.388
360.00 1.388
360.10 1.387
360.20 1.386
360.30 1.385
360.40 1.385
360.50 1.384
360.60 1.383
360.70 1.382
360.80 1.382
360.90 1.381
361.00 1.38
361.10 1.38
361.20 1.379
361.30 1.378
361.40 1.377
361.50 1.377
361.60 1.376
361.70 1.375
361.80 1.375
361.90 1.374
362.00 1.373
362.10 1.372
362.20 1.372
362.30 1.371
362.40 1.37
362.50 1.369
362.60 1.369
362.70 1.368
362.80 1.367
362.90 1.367
363.00 1.366
363.10 1.365
363.20 1.364
363.30 1.363
363.40 1.363
363.50 1.362
363.60 1.361
363.70 1.36
363.80 1.359
363.90 1.359
364.00 1.358
364.10 1.357
364.20 1.356
364.30 1.355
364.40 1.354
364.50 1.354
364.60 1.353
364.70 1.352
364.80 1.351
364.90 1.35
365.00 1.349
365.10 1.348
365.20 1.348
365.30 1.347
365.40 1.346
365.50 1.345
365.60 1.344
365.70 1.343
365.80 1.343
365.90 1.342
366.00 1.341
366.10 1.34
366.20 1.339
366.30 1.339
366.40 1.338
366.50 1.337
366.60 1.336
366.70 1.336
366.80 1.335
366.90 1.334
367.00 1.334
367.10 1.333
367.20 1.332
367.30 1.331
367.40 1.331
367.50 1.33
367.60 1.329
367.70 1.328
367.80 1.328
367.90 1.327
368.00 1.326
368.10 1.326
368.20 1.325
368.30 1.324
368.40 1.324
368.50 1.323
368.60 1.322
368.70 1.322
368.80 1.321
368.90 1.32
369.00 1.32
369.10 1.319
369.20 1.318
369.30 1.318
369.40 1.317
369.50 1.316
369.60 1.316
369.70 1.315
369.80 1.314
369.90 1.314
370.00 1.313
370.10 1.313
370.20 1.313
370.30 1.312
370.40 1.312
370.50 1.312
370.60 1.312
370.70 1.311
370.80 1.311
370.90 1.311
371.00 1.31
371.10 1.31
371.20 1.31
371.30 1.31
371.40 1.309
371.50 1.309
371.60 1.309
371.70 1.308
371.80 1.308
371.90 1.308
372.00 1.308
372.10 1.308
372.20 1.308
372.30 1.308
372.40 1.309
372.50 1.309
372.60 1.309
372.70 1.31
372.80 1.31
372.90 1.31
373.00 1.31
373.10 1.311
373.20 1.311
373.30 1.311
373.40 1.312
373.50 1.312
373.60 1.312
373.70 1.312
373.80 1.313
373.90 1.313
374.00 1.313
374.10 1.314
374.20 1.314
374.30 1.315
374.40 1.316
374.50 1.316
374.60 1.317
374.70 1.317
374.80 1.318
374.90 1.318
375.00 1.319
375.10 1.32
375.20 1.32
375.30 1.321
375.40 1.321
375.50 1.322
375.60 1.323
375.70 1.323
375.80 1.324
375.90 1.324
376.00 1.325
376.10 1.325
376.20 1.325
376.30 1.325
376.40 1.326
376.50 1.326
376.60 1.326
376.70 1.326
376.80 1.327
376.90 1.327
377.00 1.327
377.10 1.326
377.20 1.325
377.30 1.325
377.40 1.324
377.50 1.323
377.60 1.322
377.70 1.321
377.80 1.321
377.90 1.32
378.00 1.319
378.10 1.315
378.20 1.311
378.30 1.306
378.40 1.302
378.50 1.298
378.60 1.294
378.70 1.29
378.80 1.286
378.90 1.281
379.00 1.277
379.10 1.274
379.20 1.271
379.30 1.268
379.40 1.265
379.50 1.262
379.60 1.259
379.70 1.256
379.80 1.253
379.90 1.25
380.00 1.247
380.10 1.252
380.20 1.256
380.30 1.261
380.40 1.266
380.50 1.271
380.60 1.275
380.70 1.28
380.80 1.285
380.90 1.289
381.00 1.294
381.10 1.296
381.20 1.297
381.30 1.299
381.40 1.3
381.50 1.302
381.60 1.301
381.70 1.3
381.80 1.298
381.90 1.295
382.00 1.292
382.10 1.288
382.20 1.283
382.30 1.272
382.40 1.261
382.50 1.251
382.60 1.24
382.70 1.229
382.80 1.219
382.90 1.208
383.00 1.197
383.10 1.187
383.20 1.176
383.30 1.168
383.40 1.158
383.50 1.148
383.60 1.15
383.70 1.161
383.80 1.171
383.90 1.18
384.00 1.191
384.10 1.205
384.20 1.219
384.30 1.233
384.40 1.247
384.50 1.259
384.60 1.27
384.70 1.279
384.80 1.287
384.90 1.293
385.00 1.299
385.10 1.304
385.20 1.308
385.30 1.312
385.40 1.314
385.50 1.317
385.60 1.318
385.70 1.319
385.80 1.32
385.90 1.32
386.00 1.319
386.10 1.318
386.20 1.317
386.30 1.314
386.40 1.312
386.50 1.309
386.60 1.305
386.70 1.301
386.80 1.296
386.90 1.291
387.00 1.285
387.10 1.278
387.20 1.271
387.30 1.262
387.40 1.254
387.50 1.243
387.60 1.232
387.70 1.22
387.80 1.206
387.90 1.19
388.00 1.172
388.10 1.151
388.20 1.127
388.30 1.102
388.40 1.075
388.50 1.05
388.60 1.026
388.70 1.009
388.80 0.9938
388.90 0.9811
389.00 0.9929
389.10 1.008
389.20 1.025
389.30 1.048
389.40 1.074
389.50 1.101
389.60 1.127
389.70 1.152
389.80 1.174
389.90 1.193
390.00 1.21
390.10 1.225
390.20 1.239
390.30 1.251
390.40 1.262
390.50 1.273
390.60 1.282
390.70 1.291
390.80 1.299
390.90 1.306
391.00 1.313
391.10 1.32
391.20 1.326
391.30 1.331
391.40 1.336
391.50 1.34
391.60 1.345
391.70 1.348
391.80 1.351
391.90 1.354
392.00 1.356
392.10 1.358
392.20 1.36
392.30 1.361
392.40 1.361
392.50 1.362
392.60 1.361
392.70 1.361
392.80 1.36
392.90 1.359
393.00 1.357
393.10 1.355
393.20 1.352
393.30 1.349
393.40 1.346
393.50 1.342
393.60 1.337
393.70 1.333
393.80 1.328
393.90 1.322
394.00 1.316
394.10 1.309
394.20 1.302
394.30 1.294
394.40 1.286
394.50 1.277
394.60 1.268
394.70 1.257
394.80 1.247
394.90 1.236
395.00 1.224
395.10 1.211
395.20 1.198
395.30 1.184
395.40 1.169
395.50 1.154
395.60 1.137
395.70 1.119
395.80 1.1
395.90 1.08
396.00 1.058
396.10 1.034
396.20 1.007
396.30 0.9772
396.40 0.9445
396.50 0.9058
396.60 0.8665
396.70 0.8264
396.80 0.7957
396.90 0.7649
397.00 0.734
397.10 0.7625
397.20 0.7913
397.30 0.8204
397.40 0.8598
397.50 0.8988
397.60 0.9376
397.70 0.9705
397.80 1.001
397.90 1.028
398.00 1.052
398.10 1.074
398.20 1.094
398.30 1.113
398.40 1.131
398.50 1.148
398.60 1.164
398.70 1.179
398.80 1.193
398.90 1.207
399.00 1.22
399.10 1.232
399.20 1.244
399.30 1.255
399.40 1.266
399.50 1.276
399.60 1.286
399.70 1.296
399.80 1.304
399.90 1.313
400.00 1.321
400.10 1.329
400.20 1.336
400.30 1.343
400.40 1.35
400.50 1.356
400.60 1.362
400.70 1.367
400.80 1.373
400.90 1.378
401.00 1.383
401.10 1.387
401.20 1.391
401.30 1.395
401.40 1.399
401.50 1.402
401.60 1.406
401.70 1.409
401.80 1.411
401.90 1.414
402.00 1.416
402.10 1.418
402.20 1.42
402.30 1.422
402.40 1.423
402.50 1.424
402.60 1.425
402.70 1.426
402.80 1.427
402.90 1.427
403.00 1.427
403.10 1.427
403.20 1.427
403.30 1.427
403.40 1.426
403.50 1.425
403.60 1.424
403.70 1.423
403.80 1.422
403.90 1.42
404.00 1.418
404.10 1.416
404.20 1.414
404.30 1.412
404.40 1.409
404.50 1.406
404.60 1.403
404.70 1.4
404.80 1.396
404.90 1.393
405.00 1.389
405.10 1.384
405.20 1.38
405.30 1.375
405.40 1.37
405.50 1.365
405.60 1.36
405.70 1.354
405.80 1.348
405.90 1.342
406.00 1.335
406.10 1.328
406.20 1.321
406.30 1.314
406.40 1.306
406.50 1.298
406.60 1.289
406.70 1.28
406.80 1.271
406.90 1.262
407.00 1.252
407.10 1.241
407.20 1.23
407.30 1.219
407.40 1.207
407.50 1.195
407.60 1.182
407.70 1.169
407.80 1.155
407.90 1.141
408.00 1.126
408.10 1.111
408.20 1.094
408.30 1.078
408.40 1.06
408.50 1.042
408.60 1.023
408.70 1.004
408.80 0.9829
408.90 0.9616
409.00 0.9397
409.10 0.9164
409.20 0.8922
409.30 0.8672
409.40 0.8392
409.50 0.8092
409.60 0.7772
409.70 0.7405
409.80 0.7026
409.90 0.6635
410.00 0.6292
410.10 0.6007
410.20 0.5781
410.30 0.6126
410.40 0.6476
410.50 0.683
410.60 0.7217
410.70 0.7582
410.80 0.7925
410.90 0.8223
411.00 0.8502
411.10 0.8763
411.20 0.8999
411.30 0.9227
411.40 0.9446
411.50 0.9653
411.60 0.9852
411.70 1.005
411.80 1.023
411.90 1.04
412.00 1.057
412.10 1.073
412.20 1.089
412.30 1.104
412.40 1.118
412.50 1.132
412.60 1.145
412.70 1.158
412.80 1.17
412.90 1.181
413.00 1.192
413.10 1.203
413.20 1.214
413.30 1.223
413.40 1.233
413.50 1.242
413.60 1.251
413.70 1.259
413.80 1.268
413.90 1.275
414.00 1.283
414.10 1.29
414.20 1.297
414.30 1.304
414.40 1.31
414.50 1.316
414.60 1.322
414.70 1.328
414.80 1.333
414.90 1.339
415.00 1.344
415.10 1.349
415.20 1.353
415.30 1.358
415.40 1.362
415.50 1.366
415.60 1.371
415.70 1.374
415.80 1.378
415.90 1.382
416.00 1.385
416.10 1.389
416.20 1.392
416.30 1.395
416.40 1.398
416.50 1.401
416.60 1.403
416.70 1.406
416.80 1.409
416.90 1.411
417.00 1.413
417.10 1.415
417.20 1.418
417.30 1.42
417.40 1.422
417.50 1.423
417.60 1.425
417.70 1.427
417.80 1.428
417.90 1.43
418.00 1.431
418.10 1.433
418.20 1.434
418.30 1.435
418.40 1.436
418.50 1.437
418.60 1.438
418.70 1.439
418.80 1.44
418.90 1.441
419.00 1.442
419.10 1.442
419.20 1.443
419.30 1.444
419.40 1.444
419.50 1.445
419.60 1.445
419.70 1.445
419.80 1.446
419.90 1.446
420.00 1.446
420.10 1.446
420.20 1.446
420.30 1.446
420.40 1.446
420.50 1.446
420.60 1.446
420.70 1.446
420.80 1.446
420.90 1.446
421.00 1.445
421.10 1.445
421.20 1.445
421.30 1.444
421.40 1.444
421.50 1.443
421.60 1.443
421.70 1.442
421.80 1.442
421.90 1.441
422.00 1.44
422.10 1.439
422.20 1.439
422.30 1.438
422.40 1.437
422.50 1.436
422.60 1.435
422.70 1.434
422.80 1.433
422.90 1.432
423.00 1.431
423.10 1.429
423.20 1.428
423.30 1.427
423.40 1.426
423.50 1.424
423.60 1.423
423.70 1.421
423.80 1.42
423.90 1.418
424.00 1.417
424.10 1.415
424.20 1.413
424.30 1.412
424.40 1.41
424.50 1.408
424.60 1.406
424.70 1.404
424.80 1.402
424.90 1.4
425.00 1.398
425.10 1.396
425.20 1.393
425.30 1.391
425.40 1.389
425.50 1.387
425.60 1.384
425.70 1.382
425.80 1.379
425.90 1.376
426.00 1.374
426.10 1.371
426.20 1.367
426.30 1.364
426.40 1.361
426.50 1.358
426.60 1.355
426.70 1.352
426.80 1.348
426.90 1.345
427.00 1.341
427.10 1.338
427.20 1.334
427.30 1.33
427.40 1.326
427.50 1.322
427.60 1.318
427.70 1.314
427.80 1.31
427.90 1.306
428.00 1.301
428.10 1.297
428.20 1.292
428.30 1.287
428.40 1.282
428.50 1.277
428.60 1.272
428.70 1.266
428.80 1.261
428.90 1.255
429.00 1.249
429.10 1.243
429.20 1.237
429.30 1.231
429.40 1.224
429.50 1.218
429.60 1.211
429.70 1.204
429.80 1.197
429.90 1.189
430.00 1.181
430.10 1.173
430.20 1.165
430.30 1.157
430.40 1.148
430.50 1.139
430.60 1.13
430.70 1.12
430.80 1.11
430.90 1.1
431.00 1.09
431.10 1.079
431.20 1.068
431.30 1.056
431.40 1.045
431.50 1.033
431.60 1.02
431.70 1.007
431.80 0.9937
431.90 0.9795
432.00 0.9648
432.10 0.9497
432.20 0.9335
432.30 0.9166
432.40 0.8991
432.50 0.88
432.60 0.86
432.70 0.8392
432.80 0.817
432.90 0.7946
433.00 0.7719
433.10 0.7497
433.20 0.7276
433.30 0.7056
433.40 0.6825
433.50 0.6582
433.60 0.6324
433.70 0.6021
433.80 0.5698
433.90 0.5354
434.00 0.4828
434.10 0.4837
434.20 0.5381
434.30 0.5718
434.40 0.6034
434.50 0.6331
434.60 0.6581
434.70 0.6818
434.80 0.7042
434.90 0.7256
435.00 0.747
435.10 0.7686
435.20 0.7905
435.30 0.812
435.40 0.8333
435.50 0.8531
435.60 0.8721
435.70 0.8902
435.80 0.9067
435.90 0.9225
436.00 0.9376
436.10 0.9516
436.20 0.9651
436.30 0.9781
436.40 0.9904
436.50 1.002
436.60 1.014
436.70 1.024
436.80 1.035
436.90 1.045
437.00 1.055
437.10 1.065
437.20 1.074
437.30 1.083
437.40 1.091
437.50 1.1
437.60 1.107
437.70 1.115
437.80 1.123
437.90 1.13
438.00 1.137
438.10 1.143
438.20 1.15
438.30 1.156
438.40 1.162
438.50 1.168
438.60 1.173
438.70 1.178
438.80 1.183
438.90 1.188
439.00 1.193
439.10 1.198
439.20 1.202
439.30 1.207
439.40 1.211
439.50 1.215
439.60 1.219
439.70 1.223
439.80 1.226
439.90 1.23
440.00 1.233
440.10 1.236
440.20 1.24
440.30 1.243
440.40 1.246
440.50 1.249
440.60 1.251
440.70 1.254
440.80 1.257
440.90 1.259
441.00 1.262
441.10 1.264
441.20 1.266
441.30 1.268
441.40 1.27
441.50 1.273
441.60 1.275
441.70 1.276
441.80 1.278
441.90 1.28
442.00 1.282
442.10 1.283
442.20 1.285
442.30 1.286
442.40 1.288
442.50 1.289
442.60 1.29
442.70 1.292
442.80 1.293
442.90 1.294
443.00 1.295
443.10 1.296
443.20 1.297
443.30 1.298
443.40 1.299
443.50 1.3
443.60 1.301
443.70 1.302
443.80 1.303
443.90 1.304
444.00 1.305
444.10 1.305
444.20 1.306
444.30 1.307
444.40 1.307
444.50 1.308
444.60 1.308
444.70 1.309
444.80 1.309
444.90 1.31
445.00 1.31
445.10 1.311
445.20 1.311
445.30 1.311
445.40 1.312
445.50 1.312
445.60 1.312
445.70 1.313
445.80 1.313
445.90 1.313
446.00 1.314
446.10 1.314
446.20 1.314
446.30 1.314
446.40 1.314
446.50 1.314
446.60 1.314
446.70 1.314
446.80 1.315
446.90 1.315
447.00 1.315
447.10 1.315
447.20 1.315
447.30 1.315
447.40 1.315
447.50 1.314
447.60 1.314
447.70 1.314
447.80 1.314
447.90 1.314
448.00 1.314
448.10 1.314
448.20 1.314
448.30 1.314
448.40 1.313
448.50 1.313
448.60 1.313
448.70 1.313
448.80 1.313
448.90 1.312
449.00 1.312
449.10 1.312
449.20 1.312
449.30 1.312
449.40 1.311
449.50 1.311
449.60 1.311
449.70 1.311
449.80 1.31
449.90 1.31
450.00 1.31
450.10 1.309
450.20 1.309
450.30 1.309
450.40 1.308
450.50 1.308
450.60 1.308
450.70 1.307
450.80 1.307
450.90 1.306
451.00 1.306
451.10 1.306
451.20 1.305
451.30 1.305
451.40 1.305
451.50 1.304
451.60 1.304
451.70 1.303
451.80 1.303
451.90 1.302
452.00 1.302
452.10 1.302
452.20 1.301
452.30 1.301
452.40 1.3
452.50 1.3
452.60 1.299
452.70 1.299
452.80 1.298
452.90 1.298
453.00 1.297
453.10 1.297
453.20 1.296
453.30 1.296
453.40 1.295
