# Version 2.1 - nm, norm@500 to 1, cut digits, bergeron_4000_70.dat_4000
# Wavelength(nm)  Flambda(ergs/cm^s/s/nm)
300.00 0.1568
300.10 0.1571
300.20 0.1574
300.30 0.1578
300.40 0.1581
300.50 0.1584
300.60 0.1587
300.70 0.159
300.80 0.1593
300.90 0.1597
301.00 0.16
301.10 0.1603
301.20 0.1606
301.30 0.1609
301.40 0.1612
301.50 0.1615
301.60 0.1619
301.70 0.1622
301.80 0.1625
301.90 0.1628
302.00 0.1631
302.10 0.1634
302.20 0.1637
302.30 0.1641
302.40 0.1644
302.50 0.1647
302.60 0.165
302.70 0.1654
302.80 0.1657
302.90 0.166
303.00 0.1663
303.10 0.1666
303.20 0.167
303.30 0.1673
303.40 0.1676
303.50 0.1679
303.60 0.1682
303.70 0.1686
303.80 0.1689
303.90 0.1692
304.00 0.1695
304.10 0.1698
304.20 0.1702
304.30 0.1705
304.40 0.1708
304.50 0.1712
304.60 0.1715
304.70 0.1718
304.80 0.1721
304.90 0.1725
305.00 0.1728
305.10 0.1731
305.20 0.1735
305.30 0.1738
305.40 0.1741
305.50 0.1744
305.60 0.1748
305.70 0.1751
305.80 0.1754
305.90 0.1757
306.00 0.1761
306.10 0.1764
306.20 0.1767
306.30 0.1771
306.40 0.1774
306.50 0.1777
306.60 0.1781
306.70 0.1784
306.80 0.1787
306.90 0.1791
307.00 0.1794
307.10 0.1797
307.20 0.1801
307.30 0.1804
307.40 0.1807
307.50 0.1811
307.60 0.1814
307.70 0.1817
307.80 0.1821
307.90 0.1824
308.00 0.1827
308.10 0.1831
308.20 0.1834
308.30 0.1837
308.40 0.1841
308.50 0.1844
308.60 0.1848
308.70 0.1851
308.80 0.1854
308.90 0.1858
309.00 0.1861
309.10 0.1865
309.20 0.1868
309.30 0.1871
309.40 0.1875
309.50 0.1878
309.60 0.1881
309.70 0.1885
309.80 0.1888
309.90 0.1892
310.00 0.1895
310.10 0.1898
310.20 0.1902
310.30 0.1905
310.40 0.1909
310.50 0.1912
310.60 0.1916
310.70 0.1919
310.80 0.1923
310.90 0.1926
311.00 0.193
311.10 0.1933
311.20 0.1937
311.30 0.194
311.40 0.1944
311.50 0.1947
311.60 0.195
311.70 0.1954
311.80 0.1957
311.90 0.1961
312.00 0.1964
312.10 0.1967
312.20 0.1971
312.30 0.1974
312.40 0.1978
312.50 0.1981
312.60 0.1985
312.70 0.1989
312.80 0.1992
312.90 0.1996
313.00 0.1999
313.10 0.2003
313.20 0.2006
313.30 0.201
313.40 0.2013
313.50 0.2017
313.60 0.202
313.70 0.2024
313.80 0.2027
313.90 0.2031
314.00 0.2034
314.10 0.2038
314.20 0.2041
314.30 0.2045
314.40 0.2048
314.50 0.2052
314.60 0.2056
314.70 0.2059
314.80 0.2063
314.90 0.2066
315.00 0.207
315.10 0.2074
315.20 0.2077
315.30 0.2081
315.40 0.2084
315.50 0.2088
315.60 0.2091
315.70 0.2095
315.80 0.2098
315.90 0.2102
316.00 0.2105
316.10 0.2109
316.20 0.2113
316.30 0.2116
316.40 0.212
316.50 0.2124
316.60 0.2127
316.70 0.2131
316.80 0.2135
316.90 0.2138
317.00 0.2142
317.10 0.2145
317.20 0.2149
317.30 0.2153
317.40 0.2156
317.50 0.216
317.60 0.2163
317.70 0.2167
317.80 0.2171
317.90 0.2174
318.00 0.2178
318.10 0.2182
318.20 0.2185
318.30 0.2189
318.40 0.2193
318.50 0.2196
318.60 0.22
318.70 0.2204
318.80 0.2207
318.90 0.2211
319.00 0.2215
319.10 0.2219
319.20 0.2222
319.30 0.2226
319.40 0.223
319.50 0.2233
319.60 0.2237
319.70 0.224
319.80 0.2244
319.90 0.2248
320.00 0.2251
320.10 0.2255
320.20 0.2259
320.30 0.2263
320.40 0.2266
320.50 0.227
320.60 0.2274
320.70 0.2278
320.80 0.2281
320.90 0.2285
321.00 0.2289
321.10 0.2293
321.20 0.2296
321.30 0.23
321.40 0.2304
321.50 0.2308
321.60 0.2311
321.70 0.2315
321.80 0.2319
321.90 0.2322
322.00 0.2326
322.10 0.233
322.20 0.2334
322.30 0.2337
322.40 0.2341
322.50 0.2345
322.60 0.2349
322.70 0.2353
322.80 0.2356
322.90 0.236
323.00 0.2364
323.10 0.2368
323.20 0.2372
323.30 0.2375
323.40 0.2379
323.50 0.2383
323.60 0.2387
323.70 0.239
323.80 0.2394
323.90 0.2398
324.00 0.2402
324.10 0.2406
324.20 0.2409
324.30 0.2413
324.40 0.2417
324.50 0.2421
324.60 0.2425
324.70 0.2429
324.80 0.2433
324.90 0.2436
325.00 0.244
325.10 0.2444
325.20 0.2448
325.30 0.2452
325.40 0.2456
325.50 0.2459
325.60 0.2463
325.70 0.2467
325.80 0.2471
325.90 0.2475
326.00 0.2478
326.10 0.2482
326.20 0.2486
326.30 0.249
326.40 0.2494
326.50 0.2498
326.60 0.2502
326.70 0.2506
326.80 0.251
326.90 0.2514
327.00 0.2517
327.10 0.2521
327.20 0.2525
327.30 0.2529
327.40 0.2533
327.50 0.2537
327.60 0.2541
327.70 0.2545
327.80 0.2548
327.90 0.2552
328.00 0.2556
328.10 0.256
328.20 0.2564
328.30 0.2568
328.40 0.2572
328.50 0.2576
328.60 0.258
328.70 0.2584
328.80 0.2588
328.90 0.2592
329.00 0.2596
329.10 0.26
329.20 0.2604
329.30 0.2607
329.40 0.2611
329.50 0.2615
329.60 0.2619
329.70 0.2623
329.80 0.2627
329.90 0.2631
330.00 0.2635
330.10 0.2639
330.20 0.2643
330.30 0.2647
330.40 0.2651
330.50 0.2655
330.60 0.2659
330.70 0.2663
330.80 0.2667
330.90 0.2671
331.00 0.2675
331.10 0.2679
331.20 0.2683
331.30 0.2687
331.40 0.2691
331.50 0.2695
331.60 0.2699
331.70 0.2703
331.80 0.2707
331.90 0.271
332.00 0.2714
332.10 0.2718
332.20 0.2723
332.30 0.2727
332.40 0.2731
332.50 0.2735
332.60 0.2739
332.70 0.2743
332.80 0.2747
332.90 0.2751
333.00 0.2755
333.10 0.2759
333.20 0.2763
333.30 0.2767
333.40 0.2771
333.50 0.2775
333.60 0.2779
333.70 0.2783
333.80 0.2787
333.90 0.2791
334.00 0.2795
334.10 0.2799
334.20 0.2803
334.30 0.2807
334.40 0.2811
334.50 0.2815
334.60 0.282
334.70 0.2824
334.80 0.2828
334.90 0.2832
335.00 0.2836
335.10 0.284
335.20 0.2844
335.30 0.2848
335.40 0.2852
335.50 0.2856
335.60 0.286
335.70 0.2864
335.80 0.2868
335.90 0.2872
336.00 0.2876
336.10 0.2881
336.20 0.2885
336.30 0.2889
336.40 0.2893
336.50 0.2897
336.60 0.2901
336.70 0.2905
336.80 0.291
336.90 0.2914
337.00 0.2918
337.10 0.2922
337.20 0.2926
337.30 0.293
337.40 0.2934
337.50 0.2938
337.60 0.2942
337.70 0.2947
337.80 0.2951
337.90 0.2955
338.00 0.2959
338.10 0.2963
338.20 0.2967
338.30 0.2971
338.40 0.2976
338.50 0.298
338.60 0.2984
338.70 0.2988
338.80 0.2992
338.90 0.2996
339.00 0.3001
339.10 0.3005
339.20 0.3009
339.30 0.3013
339.40 0.3017
339.50 0.3021
339.60 0.3025
339.70 0.3029
339.80 0.3034
339.90 0.3038
340.00 0.3042
340.10 0.3046
340.20 0.305
340.30 0.3055
340.40 0.3059
340.50 0.3063
340.60 0.3067
340.70 0.3071
340.80 0.3076
340.90 0.308
341.00 0.3084
341.10 0.3088
341.20 0.3092
341.30 0.3097
341.40 0.3101
341.50 0.3105
341.60 0.3109
341.70 0.3113
341.80 0.3117
341.90 0.3122
342.00 0.3126
342.10 0.313
342.20 0.3134
342.30 0.3139
342.40 0.3143
342.50 0.3147
342.60 0.3151
342.70 0.3156
342.80 0.316
342.90 0.3164
343.00 0.3168
343.10 0.3173
343.20 0.3177
343.30 0.3181
343.40 0.3185
343.50 0.3189
343.60 0.3194
343.70 0.3198
343.80 0.3202
343.90 0.3206
344.00 0.321
344.10 0.3215
344.20 0.3219
344.30 0.3223
344.40 0.3228
344.50 0.3232
344.60 0.3236
344.70 0.3241
344.80 0.3245
344.90 0.3249
345.00 0.3253
345.10 0.3258
345.20 0.3262
345.30 0.3266
345.40 0.3271
345.50 0.3275
345.60 0.3279
345.70 0.3283
345.80 0.3288
345.90 0.3292
346.00 0.3296
346.10 0.33
346.20 0.3305
346.30 0.3309
346.40 0.3313
346.50 0.3318
346.60 0.3322
346.70 0.3326
346.80 0.3331
346.90 0.3335
347.00 0.3339
347.10 0.3344
347.20 0.3348
347.30 0.3352
347.40 0.3356
347.50 0.3361
347.60 0.3365
347.70 0.3369
347.80 0.3374
347.90 0.3378
348.00 0.3382
348.10 0.3386
348.20 0.3391
348.30 0.3395
348.40 0.34
348.50 0.3404
348.60 0.3408
348.70 0.3413
348.80 0.3417
348.90 0.3421
349.00 0.3426
349.10 0.343
349.20 0.3434
349.30 0.3439
349.40 0.3443
349.50 0.3447
349.60 0.3452
349.70 0.3456
349.80 0.346
349.90 0.3465
350.00 0.3469
350.10 0.3473
350.20 0.3478
350.30 0.3482
350.40 0.3487
350.50 0.3491
350.60 0.3495
350.70 0.35
350.80 0.3504
350.90 0.3509
351.00 0.3513
351.10 0.3517
351.20 0.3522
351.30 0.3526
351.40 0.3531
351.50 0.3535
351.60 0.3539
351.70 0.3544
351.80 0.3548
351.90 0.3552
352.00 0.3557
352.10 0.3561
352.20 0.3565
352.30 0.357
352.40 0.3574
352.50 0.3579
352.60 0.3583
352.70 0.3588
352.80 0.3592
352.90 0.3596
353.00 0.3601
353.10 0.3605
353.20 0.361
353.30 0.3614
353.40 0.3618
353.50 0.3623
353.60 0.3627
353.70 0.3632
353.80 0.3636
353.90 0.364
354.00 0.3645
354.10 0.3649
354.20 0.3654
354.30 0.3658
354.40 0.3663
354.50 0.3667
354.60 0.3672
354.70 0.3676
354.80 0.3681
354.90 0.3685
355.00 0.3689
355.10 0.3694
355.20 0.3698
355.30 0.3703
355.40 0.3707
355.50 0.3712
355.60 0.3716
355.70 0.372
355.80 0.3725
355.90 0.3729
356.00 0.3734
356.10 0.3738
356.20 0.3743
356.30 0.3747
356.40 0.3752
356.50 0.3756
356.60 0.3761
356.70 0.3765
356.80 0.377
356.90 0.3774
357.00 0.3779
357.10 0.3783
357.20 0.3787
357.30 0.3792
357.40 0.3796
357.50 0.3801
357.60 0.3805
357.70 0.381
357.80 0.3814
357.90 0.3818
358.00 0.3823
358.10 0.3827
358.20 0.3832
358.30 0.3836
358.40 0.3841
358.50 0.3846
358.60 0.385
358.70 0.3855
358.80 0.3859
358.90 0.3864
359.00 0.3868
359.10 0.3873
359.20 0.3877
359.30 0.3882
359.40 0.3886
359.50 0.3891
359.60 0.3895
359.70 0.3899
359.80 0.3904
359.90 0.3908
360.00 0.3913
360.10 0.3917
360.20 0.3922
360.30 0.3926
360.40 0.3931
360.50 0.3936
360.60 0.394
360.70 0.3945
360.80 0.3949
360.90 0.3954
361.00 0.3958
361.10 0.3963
361.20 0.3967
361.30 0.3972
361.40 0.3976
361.50 0.3981
361.60 0.3985
361.70 0.399
361.80 0.3994
361.90 0.3999
362.00 0.4003
362.10 0.4008
362.20 0.4012
362.30 0.4017
362.40 0.4021
362.50 0.4026
362.60 0.4031
362.70 0.4035
362.80 0.404
362.90 0.4044
363.00 0.4049
363.10 0.4053
363.20 0.4058
363.30 0.4062
363.40 0.4067
363.50 0.4072
363.60 0.4076
363.70 0.4081
363.80 0.4085
363.90 0.409
364.00 0.4094
364.10 0.4099
364.20 0.4103
364.30 0.4108
364.40 0.4112
364.50 0.4117
364.60 0.4122
364.70 0.4126
364.80 0.4131
364.90 0.4135
365.00 0.414
365.10 0.4144
365.20 0.4149
365.30 0.4154
365.40 0.4158
365.50 0.4163
365.60 0.4167
365.70 0.4172
365.80 0.4176
365.90 0.4181
366.00 0.4185
366.10 0.419
366.20 0.4195
366.30 0.4199
366.40 0.4204
366.50 0.4208
366.60 0.4213
366.70 0.4218
366.80 0.4222
366.90 0.4227
367.00 0.4231
367.10 0.4236
367.20 0.4241
367.30 0.4245
367.40 0.425
367.50 0.4254
367.60 0.4259
367.70 0.4263
367.80 0.4268
367.90 0.4273
368.00 0.4277
368.10 0.4282
368.20 0.4286
368.30 0.4291
368.40 0.4296
368.50 0.43
368.60 0.4305
368.70 0.431
368.80 0.4314
368.90 0.4319
369.00 0.4323
369.10 0.4328
369.20 0.4333
369.30 0.4337
369.40 0.4342
369.50 0.4346
369.60 0.4351
369.70 0.4356
369.80 0.436
369.90 0.4365
370.00 0.4369
370.10 0.4374
370.20 0.4379
370.30 0.4383
370.40 0.4388
370.50 0.4393
370.60 0.4397
370.70 0.4402
370.80 0.4407
370.90 0.4411
371.00 0.4416
371.10 0.442
371.20 0.4425
371.30 0.443
371.40 0.4434
371.50 0.4439
371.60 0.4443
371.70 0.4448
371.80 0.4453
371.90 0.4457
372.00 0.4462
372.10 0.4466
372.20 0.4471
372.30 0.4476
372.40 0.448
372.50 0.4485
372.60 0.449
372.70 0.4494
372.80 0.4499
372.90 0.4504
373.00 0.4508
373.10 0.4513
373.20 0.4518
373.30 0.4522
373.40 0.4527
373.50 0.4532
373.60 0.4536
373.70 0.4541
373.80 0.4545
373.90 0.455
374.00 0.4555
374.10 0.4559
374.20 0.4564
374.30 0.4569
374.40 0.4573
374.50 0.4578
374.60 0.4583
374.70 0.4587
374.80 0.4592
374.90 0.4597
375.00 0.4601
375.10 0.4606
375.20 0.4611
375.30 0.4615
375.40 0.462
375.50 0.4625
375.60 0.4629
375.70 0.4634
375.80 0.4638
375.90 0.4643
376.00 0.4648
376.10 0.4652
376.20 0.4657
376.30 0.4662
376.40 0.4666
376.50 0.4671
376.60 0.4676
376.70 0.468
376.80 0.4685
376.90 0.469
377.00 0.4694
377.10 0.4699
377.20 0.4704
377.30 0.4708
377.40 0.4713
377.50 0.4718
377.60 0.4722
377.70 0.4727
377.80 0.4732
377.90 0.4736
378.00 0.4741
378.10 0.4746
378.20 0.4751
378.30 0.4755
378.40 0.476
378.50 0.4765
378.60 0.4769
378.70 0.4774
378.80 0.4779
378.90 0.4783
379.00 0.4788
379.10 0.4793
379.20 0.4797
379.30 0.4802
379.40 0.4807
379.50 0.4811
379.60 0.4816
379.70 0.4821
379.80 0.4825
379.90 0.483
380.00 0.4835
380.10 0.4839
380.20 0.4844
380.30 0.4849
380.40 0.4854
380.50 0.4858
380.60 0.4863
380.70 0.4868
380.80 0.4872
380.90 0.4877
381.00 0.4882
381.10 0.4886
381.20 0.4891
381.30 0.4896
381.40 0.49
381.50 0.4905
381.60 0.491
381.70 0.4914
381.80 0.4919
381.90 0.4924
382.00 0.4929
382.10 0.4933
382.20 0.4938
382.30 0.4943
382.40 0.4948
382.50 0.4952
382.60 0.4957
382.70 0.4962
382.80 0.4966
382.90 0.4971
383.00 0.4976
383.10 0.498
383.20 0.4985
383.30 0.499
383.40 0.4994
383.50 0.4999
383.60 0.5004
383.70 0.5008
383.80 0.5013
383.90 0.5018
384.00 0.5023
384.10 0.5027
384.20 0.5032
384.30 0.5037
384.40 0.5042
384.50 0.5046
384.60 0.5051
384.70 0.5056
384.80 0.506
384.90 0.5065
385.00 0.507
385.10 0.5074
385.20 0.5079
385.30 0.5084
385.40 0.5089
385.50 0.5093
385.60 0.5098
385.70 0.5103
385.80 0.5107
385.90 0.5112
386.00 0.5117
386.10 0.5122
386.20 0.5126
386.30 0.5131
386.40 0.5136
386.50 0.514
386.60 0.5145
386.70 0.515
386.80 0.5154
386.90 0.5159
387.00 0.5164
387.10 0.5169
387.20 0.5173
387.30 0.5178
387.40 0.5183
387.50 0.5188
387.60 0.5192
387.70 0.5197
387.80 0.5202
387.90 0.5206
388.00 0.5211
388.10 0.5216
388.20 0.5221
388.30 0.5225
388.40 0.523
388.50 0.5235
388.60 0.5239
388.70 0.5244
388.80 0.5249
388.90 0.5253
389.00 0.5258
389.10 0.5263
389.20 0.5268
389.30 0.5272
389.40 0.5277
389.50 0.5282
389.60 0.5287
389.70 0.5291
389.80 0.5296
389.90 0.5301
390.00 0.5306
390.10 0.531
390.20 0.5315
390.30 0.532
390.40 0.5324
390.50 0.5329
390.60 0.5334
390.70 0.5339
390.80 0.5343
390.90 0.5348
391.00 0.5353
391.10 0.5357
391.20 0.5362
391.30 0.5367
391.40 0.5372
391.50 0.5376
391.60 0.5381
391.70 0.5386
391.80 0.5391
391.90 0.5395
392.00 0.54
392.10 0.5405
392.20 0.5409
392.30 0.5414
392.40 0.5419
392.50 0.5423
392.60 0.5428
392.70 0.5433
392.80 0.5438
392.90 0.5443
393.00 0.5447
393.10 0.5452
393.20 0.5457
393.30 0.5461
393.40 0.5466
393.50 0.5471
393.60 0.5476
393.70 0.548
393.80 0.5485
393.90 0.549
394.00 0.5494
394.10 0.5499
394.20 0.5504
394.30 0.5509
394.40 0.5513
394.50 0.5518
394.60 0.5523
394.70 0.5528
394.80 0.5532
394.90 0.5537
395.00 0.5542
395.10 0.5546
395.20 0.5551
395.30 0.5556
395.40 0.5561
395.50 0.5565
395.60 0.557
395.70 0.5575
395.80 0.5579
395.90 0.5584
396.00 0.5589
396.10 0.5594
396.20 0.5598
396.30 0.5603
396.40 0.5608
396.50 0.5613
396.60 0.5617
396.70 0.5622
396.80 0.5627
396.90 0.5632
397.00 0.5636
397.10 0.5641
397.20 0.5646
397.30 0.565
397.40 0.5655
397.50 0.566
397.60 0.5665
397.70 0.5669
397.80 0.5674
397.90 0.5679
398.00 0.5683
398.10 0.5688
398.20 0.5693
398.30 0.5698
398.40 0.5702
398.50 0.5707
398.60 0.5712
398.70 0.5717
398.80 0.5721
398.90 0.5726
399.00 0.5731
399.10 0.5735
399.20 0.574
399.30 0.5745
399.40 0.575
399.50 0.5754
399.60 0.5759
399.70 0.5764
399.80 0.5768
399.90 0.5773
400.00 0.5778
400.10 0.5783
400.20 0.5787
400.30 0.5792
400.40 0.5797
400.50 0.5802
400.60 0.5806
400.70 0.5811
400.80 0.5816
400.90 0.582
401.00 0.5825
401.10 0.583
401.20 0.5834
401.30 0.5839
401.40 0.5844
401.50 0.5849
401.60 0.5854
401.70 0.5858
401.80 0.5863
401.90 0.5868
402.00 0.5872
402.10 0.5877
402.20 0.5882
402.30 0.5886
402.40 0.5891
402.50 0.5896
402.60 0.5901
402.70 0.5905
402.80 0.591
402.90 0.5915
403.00 0.592
403.10 0.5924
403.20 0.5929
403.30 0.5934
403.40 0.5938
403.50 0.5943
403.60 0.5948
403.70 0.5952
403.80 0.5957
403.90 0.5962
404.00 0.5967
404.10 0.5971
404.20 0.5976
404.30 0.5981
404.40 0.5985
404.50 0.599
404.60 0.5995
404.70 0.6
404.80 0.6004
404.90 0.6009
405.00 0.6014
405.10 0.6019
405.20 0.6023
405.30 0.6028
405.40 0.6033
405.50 0.6037
405.60 0.6042
405.70 0.6047
405.80 0.6051
405.90 0.6056
406.00 0.6061
406.10 0.6066
406.20 0.607
406.30 0.6075
406.40 0.608
406.50 0.6084
406.60 0.6089
406.70 0.6094
406.80 0.6098
406.90 0.6103
407.00 0.6108
407.10 0.6113
407.20 0.6117
407.30 0.6122
407.40 0.6127
407.50 0.6131
407.60 0.6136
407.70 0.6141
407.80 0.6146
407.90 0.615
408.00 0.6155
408.10 0.616
408.20 0.6164
408.30 0.6169
408.40 0.6174
408.50 0.6178
408.60 0.6183
408.70 0.6188
408.80 0.6192
408.90 0.6197
409.00 0.6202
409.10 0.6207
409.20 0.6211
409.30 0.6216
409.40 0.6221
409.50 0.6225
409.60 0.623
409.70 0.6235
409.80 0.6239
409.90 0.6244
410.00 0.6249
410.10 0.6253
410.20 0.6258
410.30 0.6263
410.40 0.6267
410.50 0.6272
410.60 0.6277
410.70 0.6282
410.80 0.6286
410.90 0.6291
411.00 0.6296
411.10 0.63
411.20 0.6305
411.30 0.631
411.40 0.6314
411.50 0.6319
411.60 0.6324
411.70 0.6328
411.80 0.6333
411.90 0.6338
412.00 0.6343
412.10 0.6347
412.20 0.6352
412.30 0.6357
412.40 0.6361
412.50 0.6366
412.60 0.6371
412.70 0.6375
412.80 0.638
412.90 0.6385
413.00 0.6389
413.10 0.6394
413.20 0.6399
413.30 0.6403
413.40 0.6408
413.50 0.6413
413.60 0.6417
413.70 0.6422
413.80 0.6427
413.90 0.6431
414.00 0.6436
414.10 0.6441
414.20 0.6445
414.30 0.645
414.40 0.6455
414.50 0.6459
414.60 0.6464
414.70 0.6469
414.80 0.6473
414.90 0.6478
415.00 0.6483
415.10 0.6487
415.20 0.6492
415.30 0.6497
415.40 0.6501
415.50 0.6506
415.60 0.6511
415.70 0.6515
415.80 0.652
415.90 0.6525
416.00 0.6529
416.10 0.6534
416.20 0.6539
416.30 0.6543
416.40 0.6548
416.50 0.6553
416.60 0.6557
416.70 0.6562
416.80 0.6567
416.90 0.6571
417.00 0.6576
417.10 0.6581
417.20 0.6585
417.30 0.659
417.40 0.6594
417.50 0.6599
417.60 0.6604
417.70 0.6608
417.80 0.6613
417.90 0.6618
418.00 0.6622
418.10 0.6627
418.20 0.6632
418.30 0.6636
418.40 0.6641
418.50 0.6646
418.60 0.665
418.70 0.6655
418.80 0.6659
418.90 0.6664
419.00 0.6669
419.10 0.6673
419.20 0.6678
419.30 0.6683
419.40 0.6687
419.50 0.6692
419.60 0.6696
419.70 0.6701
419.80 0.6706
419.90 0.671
420.00 0.6715
420.10 0.672
420.20 0.6724
420.30 0.6729
420.40 0.6734
420.50 0.6738
420.60 0.6743
420.70 0.6747
420.80 0.6752
420.90 0.6757
421.00 0.6761
421.10 0.6766
421.20 0.6771
421.30 0.6775
421.40 0.678
421.50 0.6784
421.60 0.6789
421.70 0.6794
421.80 0.6798
421.90 0.6803
422.00 0.6807
422.10 0.6812
422.20 0.6817
422.30 0.6821
422.40 0.6826
422.50 0.6831
422.60 0.6835
422.70 0.684
422.80 0.6844
422.90 0.6849
423.00 0.6854
423.10 0.6858
423.20 0.6863
423.30 0.6867
423.40 0.6872
423.50 0.6877
423.60 0.6881
423.70 0.6886
423.80 0.689
423.90 0.6895
424.00 0.69
424.10 0.6904
424.20 0.6909
424.30 0.6913
424.40 0.6918
424.50 0.6923
424.60 0.6927
424.70 0.6932
424.80 0.6936
424.90 0.6941
425.00 0.6945
425.10 0.695
425.20 0.6955
425.30 0.6959
425.40 0.6964
425.50 0.6969
425.60 0.6973
425.70 0.6978
425.80 0.6982
425.90 0.6987
426.00 0.6991
426.10 0.6996
426.20 0.7001
426.30 0.7005
426.40 0.701
426.50 0.7014
426.60 0.7019
426.70 0.7023
426.80 0.7028
426.90 0.7033
427.00 0.7037
427.10 0.7042
427.20 0.7046
427.30 0.7051
427.40 0.7055
427.50 0.706
427.60 0.7065
427.70 0.7069
427.80 0.7074
427.90 0.7078
428.00 0.7083
428.10 0.7087
428.20 0.7092
428.30 0.7096
428.40 0.7101
428.50 0.7106
428.60 0.711
428.70 0.7115
428.80 0.7119
428.90 0.7124
429.00 0.7128
429.10 0.7133
429.20 0.7137
429.30 0.7142
429.40 0.7147
429.50 0.7151
429.60 0.7156
429.70 0.716
429.80 0.7165
429.90 0.7169
430.00 0.7174
430.10 0.7178
430.20 0.7183
430.30 0.7188
430.40 0.7192
430.50 0.7197
430.60 0.7201
430.70 0.7206
430.80 0.721
430.90 0.7215
431.00 0.7219
431.10 0.7224
431.20 0.7228
431.30 0.7233
431.40 0.7237
431.50 0.7242
431.60 0.7246
431.70 0.7251
431.80 0.7255
431.90 0.726
432.00 0.7264
432.10 0.7269
432.20 0.7273
432.30 0.7278
432.40 0.7283
432.50 0.7287
432.60 0.7291
432.70 0.7296
432.80 0.7301
432.90 0.7305
433.00 0.731
433.10 0.7314
433.20 0.7319
433.30 0.7323
433.40 0.7328
433.50 0.7332
433.60 0.7336
433.70 0.7341
433.80 0.7345
433.90 0.7349
434.00 0.7354
434.10 0.7358
434.20 0.7363
434.30 0.7368
434.40 0.7372
434.50 0.7377
434.60 0.7381
434.70 0.7386
434.80 0.7391
434.90 0.7395
435.00 0.74
435.10 0.7404
435.20 0.7409
435.30 0.7413
435.40 0.7418
435.50 0.7422
435.60 0.7427
435.70 0.7431
435.80 0.7436
435.90 0.744
436.00 0.7444
436.10 0.7449
436.20 0.7453
436.30 0.7458
436.40 0.7462
436.50 0.7467
436.60 0.7471
436.70 0.7476
436.80 0.748
436.90 0.7485
437.00 0.7489
437.10 0.7494
437.20 0.7498
437.30 0.7503
437.40 0.7507
437.50 0.7512
437.60 0.7516
437.70 0.752
437.80 0.7525
437.90 0.7529
438.00 0.7534
438.10 0.7538
438.20 0.7543
438.30 0.7547
438.40 0.7552
438.50 0.7556
438.60 0.756
438.70 0.7565
438.80 0.7569
438.90 0.7574
439.00 0.7578
439.10 0.7583
439.20 0.7587
439.30 0.7592
439.40 0.7596
439.50 0.76
439.60 0.7605
439.70 0.7609
439.80 0.7614
439.90 0.7618
440.00 0.7623
440.10 0.7627
440.20 0.7632
440.30 0.7636
440.40 0.764
440.50 0.7645
440.60 0.7649
440.70 0.7654
440.80 0.7658
440.90 0.7662
441.00 0.7667
441.10 0.7671
441.20 0.7676
441.30 0.768
441.40 0.7684
441.50 0.7689
441.60 0.7693
441.70 0.7698
441.80 0.7702
441.90 0.7707
442.00 0.7711
442.10 0.7715
442.20 0.772
442.30 0.7724
442.40 0.7729
442.50 0.7733
442.60 0.7737
442.70 0.7742
442.80 0.7746
442.90 0.7751
