# Version 2.1 - nm, norm@500 to 1, cut digits, bergeron_100000_95.dat_100000
# Wavelength(nm)  Flambda(ergs/cm^s/s/nm)
300.00 6.881
300.10 6.873
300.20 6.864
300.30 6.856
300.40 6.847
300.50 6.838
300.60 6.83
300.70 6.821
300.80 6.813
300.90 6.804
301.00 6.796
301.10 6.787
301.20 6.779
301.30 6.77
301.40 6.762
301.50 6.753
301.60 6.745
301.70 6.736
301.80 6.728
301.90 6.719
302.00 6.711
302.10 6.703
302.20 6.694
302.30 6.686
302.40 6.677
302.50 6.669
302.60 6.661
302.70 6.653
302.80 6.644
302.90 6.636
303.00 6.628
303.10 6.619
303.20 6.611
303.30 6.603
303.40 6.595
303.50 6.587
303.60 6.578
303.70 6.57
303.80 6.562
303.90 6.554
304.00 6.546
304.10 6.538
304.20 6.529
304.30 6.521
304.40 6.513
304.50 6.505
304.60 6.497
304.70 6.489
304.80 6.481
304.90 6.473
305.00 6.465
305.10 6.457
305.20 6.449
305.30 6.441
305.40 6.433
305.50 6.425
305.60 6.417
305.70 6.409
305.80 6.401
305.90 6.393
306.00 6.386
306.10 6.378
306.20 6.37
306.30 6.362
306.40 6.354
306.50 6.346
306.60 6.338
306.70 6.331
306.80 6.323
306.90 6.315
307.00 6.307
307.10 6.299
307.20 6.292
307.30 6.284
307.40 6.276
307.50 6.269
307.60 6.261
307.70 6.253
307.80 6.246
307.90 6.238
308.00 6.23
308.10 6.223
308.20 6.215
308.30 6.207
308.40 6.2
308.50 6.192
308.60 6.185
308.70 6.177
308.80 6.169
308.90 6.162
309.00 6.154
309.10 6.147
309.20 6.139
309.30 6.132
309.40 6.124
309.50 6.117
309.60 6.109
309.70 6.102
309.80 6.094
309.90 6.087
310.00 6.08
310.10 6.072
310.20 6.065
310.30 6.057
310.40 6.05
310.50 6.043
310.60 6.035
310.70 6.028
310.80 6.021
310.90 6.013
311.00 6.006
311.10 5.999
311.20 5.991
311.30 5.984
311.40 5.977
311.50 5.97
311.60 5.962
311.70 5.955
311.80 5.948
311.90 5.941
312.00 5.934
312.10 5.926
312.20 5.919
312.30 5.912
312.40 5.905
312.50 5.898
312.60 5.891
312.70 5.883
312.80 5.876
312.90 5.869
313.00 5.862
313.10 5.855
313.20 5.848
313.30 5.841
313.40 5.834
313.50 5.827
313.60 5.82
313.70 5.813
313.80 5.806
313.90 5.799
314.00 5.792
314.10 5.785
314.20 5.778
314.30 5.771
314.40 5.764
314.50 5.757
314.60 5.75
314.70 5.743
314.80 5.736
314.90 5.729
315.00 5.723
315.10 5.716
315.20 5.709
315.30 5.702
315.40 5.695
315.50 5.688
315.60 5.682
315.70 5.675
315.80 5.668
315.90 5.661
316.00 5.654
316.10 5.648
316.20 5.641
316.30 5.634
316.40 5.627
316.50 5.621
316.60 5.614
316.70 5.607
316.80 5.6
316.90 5.594
317.00 5.587
317.10 5.58
317.20 5.574
317.30 5.567
317.40 5.561
317.50 5.554
317.60 5.547
317.70 5.541
317.80 5.534
317.90 5.528
318.00 5.521
318.10 5.514
318.20 5.508
318.30 5.501
318.40 5.495
318.50 5.488
318.60 5.482
318.70 5.475
318.80 5.469
318.90 5.462
319.00 5.456
319.10 5.449
319.20 5.443
319.30 5.436
319.40 5.43
319.50 5.423
319.60 5.417
319.70 5.411
319.80 5.404
319.90 5.398
320.00 5.391
320.10 5.385
320.20 5.379
320.30 5.372
320.40 5.366
320.50 5.36
320.60 5.353
320.70 5.347
320.80 5.341
320.90 5.334
321.00 5.328
321.10 5.322
321.20 5.316
321.30 5.309
321.40 5.303
321.50 5.297
321.60 5.291
321.70 5.284
321.80 5.278
321.90 5.272
322.00 5.266
322.10 5.26
322.20 5.253
322.30 5.247
322.40 5.241
322.50 5.235
322.60 5.229
322.70 5.223
322.80 5.216
322.90 5.21
323.00 5.204
323.10 5.198
323.20 5.192
323.30 5.186
323.40 5.18
323.50 5.174
323.60 5.168
323.70 5.162
323.80 5.156
323.90 5.15
324.00 5.144
324.10 5.138
324.20 5.132
324.30 5.126
324.40 5.12
324.50 5.114
324.60 5.108
324.70 5.102
324.80 5.096
324.90 5.09
325.00 5.084
325.10 5.078
325.20 5.072
325.30 5.066
325.40 5.06
325.50 5.054
325.60 5.049
325.70 5.043
325.80 5.037
325.90 5.031
326.00 5.025
326.10 5.019
326.20 5.013
326.30 5.008
326.40 5.002
326.50 4.996
326.60 4.99
326.70 4.984
326.80 4.979
326.90 4.973
327.00 4.967
327.10 4.961
327.20 4.956
327.30 4.95
327.40 4.944
327.50 4.939
327.60 4.933
327.70 4.927
327.80 4.921
327.90 4.916
328.00 4.91
328.10 4.904
328.20 4.899
328.30 4.893
328.40 4.887
328.50 4.882
328.60 4.876
328.70 4.871
328.80 4.865
328.90 4.859
329.00 4.854
329.10 4.848
329.20 4.843
329.30 4.837
329.40 4.831
329.50 4.826
329.60 4.82
329.70 4.815
329.80 4.809
329.90 4.804
330.00 4.798
330.10 4.793
330.20 4.787
330.30 4.782
330.40 4.776
330.50 4.771
330.60 4.765
330.70 4.76
330.80 4.754
330.90 4.749
331.00 4.744
331.10 4.738
331.20 4.733
331.30 4.727
331.40 4.722
331.50 4.717
331.60 4.711
331.70 4.706
331.80 4.7
331.90 4.695
332.00 4.69
332.10 4.684
332.20 4.679
332.30 4.674
332.40 4.668
332.50 4.663
332.60 4.658
332.70 4.652
332.80 4.647
332.90 4.642
333.00 4.636
333.10 4.631
333.20 4.626
333.30 4.621
333.40 4.615
333.50 4.61
333.60 4.605
333.70 4.6
333.80 4.594
333.90 4.589
334.00 4.584
334.10 4.579
334.20 4.574
334.30 4.568
334.40 4.563
334.50 4.558
334.60 4.553
334.70 4.548
334.80 4.543
334.90 4.538
335.00 4.532
335.10 4.527
335.20 4.522
335.30 4.517
335.40 4.512
335.50 4.507
335.60 4.502
335.70 4.497
335.80 4.491
335.90 4.486
336.00 4.481
336.10 4.476
336.20 4.471
336.30 4.466
336.40 4.461
336.50 4.456
336.60 4.451
336.70 4.446
336.80 4.441
336.90 4.436
337.00 4.431
337.10 4.426
337.20 4.421
337.30 4.416
337.40 4.411
337.50 4.406
337.60 4.401
337.70 4.396
337.80 4.391
337.90 4.386
338.00 4.382
338.10 4.377
338.20 4.372
338.30 4.367
338.40 4.362
338.50 4.357
338.60 4.352
338.70 4.347
338.80 4.343
338.90 4.338
339.00 4.333
339.10 4.328
339.20 4.323
339.30 4.318
339.40 4.313
339.50 4.309
339.60 4.304
339.70 4.299
339.80 4.294
339.90 4.289
340.00 4.285
340.10 4.28
340.20 4.275
340.30 4.27
340.40 4.266
340.50 4.261
340.60 4.256
340.70 4.251
340.80 4.247
340.90 4.242
341.00 4.237
341.10 4.232
341.20 4.228
341.30 4.223
341.40 4.218
341.50 4.214
341.60 4.209
341.70 4.204
341.80 4.2
341.90 4.195
342.00 4.19
342.10 4.186
342.20 4.181
342.30 4.176
342.40 4.172
342.50 4.167
342.60 4.163
342.70 4.158
342.80 4.153
342.90 4.149
343.00 4.144
343.10 4.14
343.20 4.135
343.30 4.13
343.40 4.126
343.50 4.121
343.60 4.117
343.70 4.112
343.80 4.108
343.90 4.103
344.00 4.099
344.10 4.094
344.20 4.09
344.30 4.085
344.40 4.081
344.50 4.076
344.60 4.072
344.70 4.067
344.80 4.063
344.90 4.058
345.00 4.054
345.10 4.049
345.20 4.045
345.30 4.04
345.40 4.036
345.50 4.031
345.60 4.027
345.70 4.023
345.80 4.018
345.90 4.014
346.00 4.009
346.10 4.005
346.20 4.001
346.30 3.996
346.40 3.992
346.50 3.987
346.60 3.983
346.70 3.979
346.80 3.974
346.90 3.97
347.00 3.966
347.10 3.961
347.20 3.957
347.30 3.953
347.40 3.948
347.50 3.944
347.60 3.94
347.70 3.935
347.80 3.931
347.90 3.927
348.00 3.922
348.10 3.918
348.20 3.914
348.30 3.91
348.40 3.905
348.50 3.901
348.60 3.897
348.70 3.893
348.80 3.888
348.90 3.884
349.00 3.88
349.10 3.876
349.20 3.872
349.30 3.867
349.40 3.863
349.50 3.859
349.60 3.855
349.70 3.851
349.80 3.846
349.90 3.842
350.00 3.838
350.10 3.834
350.20 3.83
350.30 3.826
350.40 3.821
350.50 3.817
350.60 3.813
350.70 3.809
350.80 3.805
350.90 3.801
351.00 3.797
351.10 3.793
351.20 3.789
351.30 3.784
351.40 3.78
351.50 3.776
351.60 3.772
351.70 3.768
351.80 3.764
351.90 3.76
352.00 3.756
352.10 3.752
352.20 3.748
352.30 3.744
352.40 3.74
352.50 3.736
352.60 3.732
352.70 3.728
352.80 3.724
352.90 3.72
353.00 3.716
353.10 3.712
353.20 3.708
353.30 3.704
353.40 3.7
353.50 3.696
353.60 3.692
353.70 3.688
353.80 3.684
353.90 3.68
354.00 3.676
354.10 3.672
354.20 3.668
354.30 3.664
354.40 3.66
354.50 3.656
354.60 3.652
354.70 3.648
354.80 3.644
354.90 3.641
355.00 3.637
355.10 3.633
355.20 3.629
355.30 3.625
355.40 3.621
355.50 3.617
355.60 3.613
355.70 3.61
355.80 3.606
355.90 3.602
356.00 3.598
356.10 3.594
356.20 3.59
356.30 3.586
356.40 3.583
356.50 3.579
356.60 3.575
356.70 3.571
356.80 3.567
356.90 3.564
357.00 3.56
357.10 3.556
357.20 3.552
357.30 3.548
357.40 3.545
357.50 3.541
357.60 3.537
357.70 3.533
357.80 3.53
357.90 3.526
358.00 3.522
358.10 3.518
358.20 3.515
358.30 3.511
358.40 3.507
358.50 3.504
358.60 3.5
358.70 3.496
358.80 3.492
358.90 3.489
359.00 3.485
359.10 3.481
359.20 3.478
359.30 3.474
359.40 3.47
359.50 3.467
359.60 3.463
359.70 3.459
359.80 3.456
359.90 3.452
360.00 3.448
360.10 3.445
360.20 3.441
360.30 3.437
360.40 3.434
360.50 3.43
360.60 3.427
360.70 3.423
360.80 3.419
360.90 3.416
361.00 3.412
361.10 3.409
361.20 3.405
361.30 3.401
361.40 3.398
361.50 3.394
361.60 3.391
361.70 3.387
361.80 3.384
361.90 3.38
362.00 3.376
362.10 3.373
362.20 3.369
362.30 3.366
362.40 3.362
362.50 3.359
362.60 3.355
362.70 3.352
362.80 3.348
362.90 3.345
363.00 3.341
363.10 3.338
363.20 3.334
363.30 3.331
363.40 3.327
363.50 3.324
363.60 3.32
363.70 3.317
363.80 3.313
363.90 3.31
364.00 3.306
364.10 3.303
364.20 3.299
364.30 3.296
364.40 3.293
364.50 3.289
364.60 3.286
364.70 3.282
364.80 3.279
364.90 3.275
365.00 3.272
365.10 3.269
365.20 3.265
365.30 3.262
365.40 3.258
365.50 3.255
365.60 3.252
365.70 3.248
365.80 3.245
365.90 3.242
366.00 3.238
366.10 3.235
366.20 3.231
366.30 3.228
366.40 3.225
366.50 3.221
366.60 3.218
366.70 3.215
366.80 3.211
366.90 3.208
367.00 3.205
367.10 3.201
367.20 3.198
367.30 3.195
367.40 3.191
367.50 3.188
367.60 3.185
367.70 3.181
367.80 3.178
367.90 3.175
368.00 3.172
368.10 3.168
368.20 3.165
368.30 3.162
368.40 3.158
368.50 3.155
368.60 3.152
368.70 3.148
368.80 3.145
368.90 3.142
369.00 3.138
369.10 3.135
369.20 3.132
369.30 3.128
369.40 3.125
369.50 3.122
369.60 3.119
369.70 3.115
369.80 3.112
369.90 3.109
370.00 3.106
370.10 3.102
370.20 3.099
370.30 3.096
370.40 3.092
370.50 3.089
370.60 3.086
370.70 3.083
370.80 3.079
370.90 3.076
371.00 3.073
371.10 3.07
371.20 3.067
371.30 3.063
371.40 3.06
371.50 3.057
371.60 3.054
371.70 3.05
371.80 3.047
371.90 3.044
372.00 3.041
372.10 3.038
372.20 3.035
372.30 3.032
372.40 3.029
372.50 3.026
372.60 3.022
372.70 3.019
372.80 3.016
372.90 3.013
373.00 3.01
373.10 3.007
373.20 3.004
373.30 3.001
373.40 2.998
373.50 2.995
373.60 2.992
373.70 2.989
373.80 2.986
373.90 2.983
374.00 2.98
374.10 2.977
374.20 2.974
374.30 2.971
374.40 2.968
374.50 2.965
374.60 2.962
374.70 2.959
374.80 2.956
374.90 2.953
375.00 2.95
375.10 2.946
375.20 2.943
375.30 2.94
375.40 2.937
375.50 2.934
375.60 2.931
375.70 2.928
375.80 2.925
375.90 2.922
376.00 2.919
376.10 2.916
376.20 2.913
376.30 2.91
376.40 2.907
376.50 2.904
376.60 2.901
376.70 2.898
376.80 2.895
376.90 2.892
377.00 2.889
377.10 2.886
377.20 2.883
377.30 2.88
377.40 2.877
377.50 2.874
377.60 2.871
377.70 2.868
377.80 2.865
377.90 2.862
378.00 2.859
378.10 2.857
378.20 2.854
378.30 2.851
378.40 2.848
378.50 2.845
378.60 2.842
378.70 2.839
378.80 2.836
378.90 2.833
379.00 2.831
379.10 2.828
379.20 2.825
379.30 2.822
379.40 2.819
379.50 2.816
379.60 2.813
379.70 2.81
379.80 2.808
379.90 2.805
380.00 2.802
380.10 2.799
380.20 2.796
380.30 2.793
380.40 2.791
380.50 2.788
380.60 2.785
380.70 2.782
380.80 2.779
380.90 2.776
381.00 2.774
381.10 2.771
381.20 2.768
381.30 2.765
381.40 2.763
381.50 2.76
381.60 2.757
381.70 2.754
381.80 2.751
381.90 2.749
382.00 2.746
382.10 2.743
382.20 2.74
382.30 2.738
382.40 2.735
382.50 2.732
382.60 2.73
382.70 2.727
382.80 2.724
382.90 2.721
383.00 2.719
383.10 2.716
383.20 2.713
383.30 2.71
383.40 2.708
383.50 2.705
383.60 2.702
383.70 2.7
383.80 2.697
383.90 2.694
384.00 2.692
384.10 2.689
384.20 2.686
384.30 2.684
384.40 2.681
384.50 2.678
384.60 2.676
384.70 2.673
384.80 2.67
384.90 2.668
385.00 2.665
385.10 2.663
385.20 2.66
385.30 2.657
385.40 2.655
385.50 2.652
385.60 2.649
385.70 2.647
385.80 2.644
385.90 2.642
386.00 2.639
386.10 2.636
386.20 2.634
386.30 2.631
386.40 2.629
386.50 2.626
386.60 2.624
386.70 2.621
386.80 2.618
386.90 2.616
387.00 2.613
387.10 2.611
387.20 2.608
387.30 2.606
387.40 2.603
387.50 2.601
387.60 2.598
387.70 2.596
387.80 2.593
387.90 2.59
388.00 2.588
388.10 2.585
388.20 2.583
388.30 2.58
388.40 2.578
388.50 2.575
388.60 2.573
388.70 2.571
388.80 2.568
388.90 2.566
389.00 2.563
389.10 2.561
389.20 2.558
389.30 2.556
389.40 2.553
389.50 2.551
389.60 2.548
389.70 2.546
389.80 2.543
389.90 2.541
390.00 2.539
390.10 2.536
390.20 2.534
390.30 2.531
390.40 2.529
390.50 2.527
390.60 2.524
390.70 2.522
390.80 2.519
390.90 2.517
391.00 2.515
391.10 2.512
391.20 2.51
391.30 2.507
391.40 2.505
391.50 2.503
391.60 2.5
391.70 2.498
391.80 2.495
391.90 2.493
392.00 2.491
392.10 2.488
392.20 2.486
392.30 2.484
392.40 2.481
392.50 2.479
392.60 2.476
392.70 2.474
392.80 2.472
392.90 2.469
393.00 2.467
393.10 2.465
393.20 2.462
393.30 2.46
393.40 2.457
393.50 2.455
393.60 2.453
393.70 2.45
393.80 2.448
393.90 2.446
394.00 2.443
394.10 2.441
394.20 2.439
394.30 2.436
394.40 2.434
394.50 2.432
394.60 2.429
394.70 2.427
394.80 2.425
394.90 2.422
395.00 2.42
395.10 2.418
395.20 2.415
395.30 2.413
395.40 2.411
395.50 2.408
395.60 2.406
395.70 2.404
395.80 2.401
395.90 2.399
396.00 2.397
396.10 2.394
396.20 2.392
396.30 2.39
396.40 2.388
396.50 2.385
396.60 2.383
396.70 2.381
396.80 2.379
396.90 2.376
397.00 2.374
397.10 2.372
397.20 2.37
397.30 2.368
397.40 2.366
397.50 2.363
397.60 2.361
397.70 2.359
397.80 2.357
397.90 2.355
398.00 2.353
398.10 2.351
398.20 2.349
398.30 2.347
398.40 2.345
398.50 2.343
398.60 2.341
398.70 2.339
398.80 2.337
398.90 2.335
399.00 2.333
399.10 2.33
399.20 2.328
399.30 2.326
399.40 2.324
399.50 2.322
399.60 2.32
399.70 2.318
399.80 2.316
399.90 2.314
400.00 2.312
400.10 2.31
400.20 2.308
400.30 2.306
400.40 2.304
400.50 2.302
400.60 2.3
400.70 2.298
400.80 2.295
400.90 2.293
401.00 2.291
401.10 2.289
401.20 2.287
401.30 2.285
401.40 2.283
401.50 2.281
401.60 2.279
401.70 2.277
401.80 2.274
401.90 2.272
402.00 2.27
402.10 2.268
402.20 2.266
402.30 2.264
402.40 2.262
402.50 2.26
402.60 2.257
402.70 2.255
402.80 2.253
402.90 2.251
403.00 2.249
403.10 2.247
403.20 2.244
403.30 2.242
403.40 2.24
403.50 2.238
403.60 2.236
403.70 2.233
403.80 2.231
403.90 2.229
404.00 2.227
404.10 2.225
404.20 2.222
404.30 2.22
404.40 2.218
404.50 2.216
404.60 2.213
404.70 2.211
404.80 2.209
404.90 2.207
405.00 2.204
405.10 2.202
405.20 2.2
405.30 2.198
405.40 2.195
405.50 2.193
405.60 2.191
405.70 2.188
405.80 2.186
405.90 2.184
406.00 2.181
406.10 2.179
406.20 2.177
406.30 2.174
406.40 2.172
406.50 2.17
406.60 2.167
406.70 2.165
406.80 2.163
406.90 2.16
407.00 2.158
407.10 2.156
407.20 2.153
407.30 2.151
407.40 2.149
407.50 2.146
407.60 2.144
407.70 2.142
407.80 2.139
407.90 2.137
408.00 2.135
408.10 2.132
408.20 2.13
408.30 2.128
408.40 2.125
408.50 2.123
408.60 2.121
408.70 2.118
408.80 2.116
408.90 2.114
409.00 2.112
409.10 2.11
409.20 2.107
409.30 2.105
409.40 2.103
409.50 2.101
409.60 2.099
409.70 2.098
409.80 2.096
409.90 2.094
410.00 2.093
410.10 2.091
410.20 2.089
410.30 2.087
410.40 2.085
410.50 2.083
410.60 2.081
410.70 2.079
410.80 2.077
410.90 2.076
411.00 2.074
411.10 2.073
411.20 2.071
411.30 2.069
411.40 2.068
411.50 2.066
411.60 2.065
411.70 2.064
411.80 2.062
411.90 2.061
412.00 2.059
412.10 2.058
412.20 2.057
412.30 2.055
412.40 2.054
412.50 2.053
412.60 2.051
412.70 2.05
412.80 2.049
412.90 2.047
413.00 2.046
413.10 2.045
413.20 2.043
413.30 2.042
413.40 2.041
413.50 2.039
413.60 2.038
413.70 2.037
413.80 2.035
413.90 2.034
414.00 2.032
414.10 2.031
414.20 2.03
414.30 2.028
414.40 2.027
414.50 2.025
414.60 2.024
414.70 2.023
414.80 2.021
414.90 2.02
415.00 2.018
415.10 2.017
415.20 2.015
415.30 2.014
415.40 2.013
415.50 2.011
415.60 2.01
415.70 2.008
415.80 2.007
415.90 2.005
416.00 2.004
416.10 2.002
416.20 2.001
416.30 1.999
416.40 1.998
416.50 1.996
416.60 1.995
416.70 1.993
416.80 1.992
416.90 1.99
417.00 1.988
417.10 1.987
417.20 1.985
417.30 1.984
417.40 1.982
417.50 1.981
417.60 1.979
417.70 1.977
417.80 1.976
417.90 1.974
418.00 1.973
418.10 1.971
418.20 1.969
418.30 1.968
418.40 1.966
418.50 1.965
418.60 1.963
418.70 1.961
418.80 1.96
418.90 1.958
419.00 1.956
419.10 1.955
419.20 1.953
419.30 1.951
419.40 1.95
419.50 1.948
419.60 1.946
419.70 1.945
419.80 1.943
419.90 1.941
420.00 1.94
420.10 1.938
420.20 1.936
420.30 1.934
420.40 1.933
420.50 1.931
420.60 1.929
420.70 1.927
420.80 1.926
420.90 1.924
421.00 1.922
421.10 1.92
421.20 1.919
421.30 1.917
421.40 1.915
421.50 1.913
421.60 1.912
421.70 1.91
421.80 1.908
421.90 1.906
422.00 1.904
422.10 1.903
422.20 1.901
422.30 1.899
422.40 1.897
422.50 1.895
422.60 1.893
422.70 1.892
422.80 1.89
422.90 1.888
423.00 1.886
423.10 1.884
423.20 1.882
423.30 1.88
423.40 1.879
423.50 1.877
423.60 1.875
423.70 1.873
423.80 1.871
423.90 1.869
424.00 1.867
424.10 1.865
424.20 1.863
424.30 1.861
424.40 1.859
424.50 1.857
424.60 1.855
424.70 1.853
424.80 1.851
424.90 1.85
425.00 1.848
425.10 1.846
425.20 1.844
425.30 1.841
425.40 1.839
425.50 1.837
425.60 1.835
425.70 1.833
425.80 1.831
425.90 1.829
426.00 1.827
426.10 1.825
426.20 1.823
426.30 1.821
426.40 1.819
426.50 1.817
426.60 1.814
426.70 1.812
426.80 1.81
426.90 1.808
427.00 1.806
427.10 1.804
427.20 1.801
427.30 1.799
427.40 1.797
427.50 1.795
427.60 1.793
427.70 1.79
427.80 1.788
427.90 1.786
428.00 1.783
428.10 1.781
428.20 1.779
428.30 1.777
428.40 1.774
428.50 1.772
428.60 1.77
428.70 1.767
428.80 1.765
428.90 1.762
429.00 1.76
429.10 1.758
429.20 1.755
429.30 1.753
429.40 1.75
429.50 1.748
429.60 1.745
429.70 1.743
429.80 1.74
429.90 1.738
430.00 1.735
430.10 1.733
430.20 1.73
430.30 1.727
430.40 1.725
430.50 1.722
430.60 1.72
430.70 1.717
430.80 1.714
430.90 1.712
431.00 1.709
431.10 1.706
431.20 1.704
431.30 1.701
431.40 1.698
431.50 1.696
431.60 1.693
431.70 1.69
431.80 1.688
431.90 1.685
432.00 1.682
432.10 1.679
432.20 1.677
432.30 1.674
432.40 1.671
432.50 1.668
432.60 1.665
432.70 1.662
432.80 1.66
432.90 1.657
433.00 1.654
433.10 1.651
433.20 1.648
433.30 1.644
433.40 1.641
433.50 1.638
433.60 1.634
433.70 1.631
433.80 1.627
433.90 1.623
434.00 1.621
434.10 1.62
434.20 1.621
434.30 1.622
434.40 1.622
434.50 1.623
434.60 1.624
434.70 1.625
434.80 1.625
434.90 1.625
435.00 1.626
435.10 1.626
435.20 1.626
435.30 1.626
435.40 1.626
435.50 1.626
435.60 1.626
435.70 1.626
435.80 1.626
435.90 1.626
436.00 1.626
436.10 1.626
436.20 1.626
436.30 1.626
436.40 1.626
436.50 1.626
436.60 1.625
436.70 1.625
436.80 1.625
436.90 1.625
437.00 1.625
437.10 1.624
437.20 1.624
437.30 1.624
437.40 1.624
437.50 1.623
437.60 1.623
437.70 1.623
437.80 1.622
437.90 1.622
438.00 1.622
438.10 1.621
438.20 1.621
438.30 1.62
438.40 1.62
438.50 1.62
438.60 1.619
438.70 1.619
438.80 1.618
438.90 1.618
439.00 1.617
439.10 1.617
439.20 1.616
439.30 1.615
439.40 1.615
439.50 1.614
439.60 1.614
439.70 1.613
439.80 1.612
439.90 1.612
440.00 1.611
440.10 1.61
440.20 1.61
440.30 1.609
440.40 1.608
440.50 1.607
440.60 1.607
440.70 1.606
440.80 1.605
440.90 1.604
441.00 1.604
441.10 1.603
441.20 1.602
441.30 1.601
441.40 1.6
441.50 1.599
441.60 1.599
441.70 1.598
441.80 1.597
441.90 1.596
442.00 1.595
442.10 1.594
442.20 1.593
442.30 1.592
442.40 1.591
442.50 1.59
442.60 1.589
442.70 1.589
442.80 1.588
442.90 1.587
443.00 1.586
443.10 1.585
443.20 1.584
443.30 1.583
443.40 1.582
443.50 1.581
443.60 1.58
443.70 1.579
443.80 1.578
443.90 1.576
444.00 1.575
444.10 1.574
444.20 1.573
444.30 1.572
444.40 1.571
444.50 1.57
444.60 1.569
444.70 1.568
444.80 1.567
444.90 1.566
445.00 1.565
445.10 1.564
445.20 1.562
445.30 1.561
445.40 1.56
445.50 1.559
445.60 1.558
445.70 1.557
445.80 1.556
445.90 1.555
446.00 1.553
446.10 1.552
446.20 1.551
446.30 1.55
446.40 1.549
446.50 1.548
446.60 1.547
446.70 1.545
446.80 1.544
446.90 1.543
447.00 1.542
447.10 1.541
447.20 1.54
447.30 1.538
447.40 1.537
447.50 1.536
447.60 1.535
447.70 1.534
447.80 1.533
447.90 1.531
448.00 1.53
448.10 1.529
448.20 1.528
448.30 1.527
448.40 1.525
448.50 1.524
448.60 1.523
448.70 1.522
448.80 1.521
448.90 1.519
449.00 1.518
449.10 1.517
449.20 1.516
449.30 1.515
449.40 1.513
449.50 1.512
449.60 1.511
449.70 1.51
449.80 1.509
449.90 1.507
450.00 1.506
450.10 1.505
450.20 1.504
450.30 1.503
450.40 1.501
450.50 1.5
450.60 1.499
450.70 1.498
450.80 1.497
450.90 1.495
451.00 1.494
451.10 1.493
451.20 1.492
451.30 1.491
451.40 1.489
451.50 1.488
451.60 1.487
451.70 1.486
451.80 1.484
451.90 1.483
452.00 1.482
452.10 1.481
452.20 1.48
452.30 1.478
452.40 1.477
452.50 1.476
452.60 1.475
452.70 1.474
452.80 1.472
452.90 1.471
453.00 1.47
453.10 1.469
453.20 1.468
453.30 1.466
453.40 1.465
453.50 1.464
453.60 1.463
453.70 1.461
453.80 1.46
453.90 1.459
454.00 1.458
