# Version 2.1 - nm, norm@500 to 1, cut digits, bergeron_5000_85.dat_5000
# Wavelength(nm)  Flambda(ergs/cm^s/s/nm)
300.00 0.3679
300.10 0.3684
300.20 0.3688
300.30 0.3693
300.40 0.3697
300.50 0.3702
300.60 0.3706
300.70 0.3711
300.80 0.3716
300.90 0.372
301.00 0.3725
301.10 0.3729
301.20 0.3734
301.30 0.3738
301.40 0.3743
301.50 0.3747
301.60 0.3752
301.70 0.3756
301.80 0.3761
301.90 0.3765
302.00 0.377
302.10 0.3774
302.20 0.3779
302.30 0.3783
302.40 0.3788
302.50 0.3792
302.60 0.3797
302.70 0.3802
302.80 0.3806
302.90 0.3811
303.00 0.3815
303.10 0.382
303.20 0.3824
303.30 0.3829
303.40 0.3833
303.50 0.3838
303.60 0.3842
303.70 0.3847
303.80 0.3851
303.90 0.3856
304.00 0.386
304.10 0.3865
304.20 0.387
304.30 0.3874
304.40 0.3879
304.50 0.3883
304.60 0.3888
304.70 0.3893
304.80 0.3897
304.90 0.3902
305.00 0.3906
305.10 0.3911
305.20 0.3915
305.30 0.392
305.40 0.3924
305.50 0.3929
305.60 0.3933
305.70 0.3938
305.80 0.3942
305.90 0.3947
306.00 0.3951
306.10 0.3956
306.20 0.3961
306.30 0.3965
306.40 0.397
306.50 0.3974
306.60 0.3979
306.70 0.3984
306.80 0.3988
306.90 0.3993
307.00 0.3997
307.10 0.4002
307.20 0.4006
307.30 0.4011
307.40 0.4015
307.50 0.402
307.60 0.4025
307.70 0.4029
307.80 0.4034
307.90 0.4038
308.00 0.4043
308.10 0.4047
308.20 0.4052
308.30 0.4056
308.40 0.4061
308.50 0.4066
308.60 0.407
308.70 0.4075
308.80 0.4079
308.90 0.4084
309.00 0.4089
309.10 0.4093
309.20 0.4098
309.30 0.4102
309.40 0.4107
309.50 0.4111
309.60 0.4116
309.70 0.412
309.80 0.4125
309.90 0.4129
310.00 0.4134
310.10 0.4139
310.20 0.4143
310.30 0.4148
310.40 0.4152
310.50 0.4157
310.60 0.4162
310.70 0.4166
310.80 0.4171
310.90 0.4176
311.00 0.418
311.10 0.4185
311.20 0.4189
311.30 0.4194
311.40 0.4198
311.50 0.4203
311.60 0.4207
311.70 0.4212
311.80 0.4217
311.90 0.4221
312.00 0.4226
312.10 0.423
312.20 0.4235
312.30 0.4239
312.40 0.4244
312.50 0.4248
312.60 0.4253
312.70 0.4258
312.80 0.4262
312.90 0.4267
313.00 0.4271
313.10 0.4276
313.20 0.4281
313.30 0.4285
313.40 0.429
313.50 0.4294
313.60 0.4299
313.70 0.4303
313.80 0.4308
313.90 0.4313
314.00 0.4317
314.10 0.4322
314.20 0.4326
314.30 0.4331
314.40 0.4336
314.50 0.434
314.60 0.4345
314.70 0.4349
314.80 0.4354
314.90 0.4359
315.00 0.4363
315.10 0.4368
315.20 0.4372
315.30 0.4377
315.40 0.4381
315.50 0.4386
315.60 0.4391
315.70 0.4395
315.80 0.44
315.90 0.4404
316.00 0.4409
316.10 0.4413
316.20 0.4418
316.30 0.4423
316.40 0.4427
316.50 0.4432
316.60 0.4436
316.70 0.4441
316.80 0.4446
316.90 0.445
317.00 0.4455
317.10 0.4459
317.20 0.4464
317.30 0.4468
317.40 0.4473
317.50 0.4478
317.60 0.4482
317.70 0.4487
317.80 0.4491
317.90 0.4496
318.00 0.45
318.10 0.4505
318.20 0.451
318.30 0.4514
318.40 0.4519
318.50 0.4523
318.60 0.4528
318.70 0.4533
318.80 0.4537
318.90 0.4542
319.00 0.4546
319.10 0.4551
319.20 0.4556
319.30 0.456
319.40 0.4565
319.50 0.4569
319.60 0.4574
319.70 0.4578
319.80 0.4583
319.90 0.4587
320.00 0.4592
320.10 0.4597
320.20 0.4601
320.30 0.4606
320.40 0.461
320.50 0.4615
320.60 0.462
320.70 0.4624
320.80 0.4629
320.90 0.4633
321.00 0.4638
321.10 0.4643
321.20 0.4647
321.30 0.4652
321.40 0.4656
321.50 0.4661
321.60 0.4665
321.70 0.467
321.80 0.4674
321.90 0.4679
322.00 0.4683
322.10 0.4688
322.20 0.4693
322.30 0.4697
322.40 0.4702
322.50 0.4706
322.60 0.4711
322.70 0.4716
322.80 0.472
322.90 0.4725
323.00 0.4729
323.10 0.4734
323.20 0.4739
323.30 0.4743
323.40 0.4748
323.50 0.4752
323.60 0.4757
323.70 0.4761
323.80 0.4766
323.90 0.477
324.00 0.4775
324.10 0.4779
324.20 0.4784
324.30 0.4789
324.40 0.4793
324.50 0.4798
324.60 0.4802
324.70 0.4807
324.80 0.4812
324.90 0.4816
325.00 0.4821
325.10 0.4825
325.20 0.483
325.30 0.4834
325.40 0.4839
325.50 0.4843
325.60 0.4848
325.70 0.4852
325.80 0.4857
325.90 0.4862
326.00 0.4866
326.10 0.4871
326.20 0.4875
326.30 0.488
326.40 0.4884
326.50 0.4889
326.60 0.4894
326.70 0.4898
326.80 0.4903
326.90 0.4907
327.00 0.4912
327.10 0.4916
327.20 0.4921
327.30 0.4925
327.40 0.493
327.50 0.4934
327.60 0.4939
327.70 0.4944
327.80 0.4948
327.90 0.4953
328.00 0.4957
328.10 0.4962
328.20 0.4966
328.30 0.4971
328.40 0.4975
328.50 0.498
328.60 0.4985
328.70 0.4989
328.80 0.4994
328.90 0.4998
329.00 0.5003
329.10 0.5007
329.20 0.5012
329.30 0.5016
329.40 0.5021
329.50 0.5025
329.60 0.503
329.70 0.5034
329.80 0.5039
329.90 0.5043
330.00 0.5048
330.10 0.5052
330.20 0.5057
330.30 0.5062
330.40 0.5066
330.50 0.5071
330.60 0.5075
330.70 0.508
330.80 0.5084
330.90 0.5089
331.00 0.5094
331.10 0.5098
331.20 0.5103
331.30 0.5107
331.40 0.5112
331.50 0.5116
331.60 0.5121
331.70 0.5125
331.80 0.513
331.90 0.5134
332.00 0.5139
332.10 0.5143
332.20 0.5148
332.30 0.5152
332.40 0.5157
332.50 0.5161
332.60 0.5166
332.70 0.517
332.80 0.5175
332.90 0.5179
333.00 0.5184
333.10 0.5188
333.20 0.5193
333.30 0.5197
333.40 0.5202
333.50 0.5206
333.60 0.5211
333.70 0.5215
333.80 0.522
333.90 0.5224
334.00 0.5229
334.10 0.5233
334.20 0.5238
334.30 0.5242
334.40 0.5247
334.50 0.5252
334.60 0.5256
334.70 0.5261
334.80 0.5265
334.90 0.527
335.00 0.5274
335.10 0.5279
335.20 0.5283
335.30 0.5288
335.40 0.5292
335.50 0.5296
335.60 0.5301
335.70 0.5305
335.80 0.531
335.90 0.5314
336.00 0.5319
336.10 0.5323
336.20 0.5328
336.30 0.5332
336.40 0.5337
336.50 0.5341
336.60 0.5346
336.70 0.535
336.80 0.5355
336.90 0.5359
337.00 0.5364
337.10 0.5368
337.20 0.5373
337.30 0.5377
337.40 0.5382
337.50 0.5386
337.60 0.5391
337.70 0.5395
337.80 0.54
337.90 0.5404
338.00 0.5408
338.10 0.5413
338.20 0.5417
338.30 0.5422
338.40 0.5426
338.50 0.5431
338.60 0.5435
338.70 0.544
338.80 0.5444
338.90 0.5449
339.00 0.5453
339.10 0.5458
339.20 0.5462
339.30 0.5467
339.40 0.5471
339.50 0.5476
339.60 0.548
339.70 0.5484
339.80 0.5489
339.90 0.5493
340.00 0.5498
340.10 0.5502
340.20 0.5507
340.30 0.5511
340.40 0.5516
340.50 0.552
340.60 0.5524
340.70 0.5529
340.80 0.5533
340.90 0.5538
341.00 0.5542
341.10 0.5547
341.20 0.5551
341.30 0.5556
341.40 0.556
341.50 0.5564
341.60 0.5569
341.70 0.5573
341.80 0.5578
341.90 0.5582
342.00 0.5586
342.10 0.5591
342.20 0.5595
342.30 0.56
342.40 0.5604
342.50 0.5609
342.60 0.5613
342.70 0.5618
342.80 0.5622
342.90 0.5626
343.00 0.5631
343.10 0.5635
343.20 0.564
343.30 0.5644
343.40 0.5649
343.50 0.5653
343.60 0.5657
343.70 0.5662
343.80 0.5666
343.90 0.567
344.00 0.5675
344.10 0.5679
344.20 0.5684
344.30 0.5688
344.40 0.5693
344.50 0.5697
344.60 0.5701
344.70 0.5706
344.80 0.571
344.90 0.5715
345.00 0.5719
345.10 0.5723
345.20 0.5728
345.30 0.5732
345.40 0.5737
345.50 0.5741
345.60 0.5745
345.70 0.575
345.80 0.5754
345.90 0.5758
346.00 0.5763
346.10 0.5767
346.20 0.5772
346.30 0.5776
346.40 0.578
346.50 0.5785
346.60 0.5789
346.70 0.5794
346.80 0.5798
346.90 0.5802
347.00 0.5807
347.10 0.5811
347.20 0.5815
347.30 0.582
347.40 0.5824
347.50 0.5828
347.60 0.5833
347.70 0.5837
347.80 0.5841
347.90 0.5846
348.00 0.585
348.10 0.5854
348.20 0.5859
348.30 0.5863
348.40 0.5868
348.50 0.5872
348.60 0.5876
348.70 0.5881
348.80 0.5885
348.90 0.5889
349.00 0.5894
349.10 0.5898
349.20 0.5903
349.30 0.5907
349.40 0.5911
349.50 0.5915
349.60 0.592
349.70 0.5924
349.80 0.5928
349.90 0.5933
350.00 0.5937
350.10 0.5941
350.20 0.5946
350.30 0.595
350.40 0.5954
350.50 0.5959
350.60 0.5963
350.70 0.5967
350.80 0.5972
350.90 0.5976
351.00 0.598
351.10 0.5985
351.20 0.5989
351.30 0.5993
351.40 0.5998
351.50 0.6002
351.60 0.6006
351.70 0.601
351.80 0.6015
351.90 0.6019
352.00 0.6023
352.10 0.6028
352.20 0.6032
352.30 0.6036
352.40 0.6041
352.50 0.6045
352.60 0.6049
352.70 0.6054
352.80 0.6058
352.90 0.6062
353.00 0.6066
353.10 0.6071
353.20 0.6075
353.30 0.6079
353.40 0.6084
353.50 0.6088
353.60 0.6092
353.70 0.6096
353.80 0.6101
353.90 0.6105
354.00 0.6109
354.10 0.6113
354.20 0.6118
354.30 0.6122
354.40 0.6126
354.50 0.6131
354.60 0.6135
354.70 0.6139
354.80 0.6143
354.90 0.6148
355.00 0.6152
355.10 0.6156
355.20 0.616
355.30 0.6165
355.40 0.6169
355.50 0.6173
355.60 0.6177
355.70 0.6182
355.80 0.6186
355.90 0.619
356.00 0.6194
356.10 0.6198
356.20 0.6203
356.30 0.6207
356.40 0.6211
356.50 0.6216
356.60 0.622
356.70 0.6224
356.80 0.6228
356.90 0.6233
357.00 0.6237
357.10 0.6241
357.20 0.6245
357.30 0.6249
357.40 0.6254
357.50 0.6258
357.60 0.6262
357.70 0.6266
357.80 0.627
357.90 0.6275
358.00 0.6279
358.10 0.6283
358.20 0.6287
358.30 0.6291
358.40 0.6296
358.50 0.63
358.60 0.6304
358.70 0.6308
358.80 0.6313
358.90 0.6317
359.00 0.6321
359.10 0.6325
359.20 0.6329
359.30 0.6333
359.40 0.6338
359.50 0.6342
359.60 0.6346
359.70 0.635
359.80 0.6354
359.90 0.6358
360.00 0.6363
360.10 0.6367
360.20 0.6371
360.30 0.6375
360.40 0.6379
360.50 0.6384
360.60 0.6388
360.70 0.6392
360.80 0.6396
360.90 0.64
361.00 0.6404
361.10 0.6409
361.20 0.6413
361.30 0.6417
361.40 0.6421
361.50 0.6425
361.60 0.6429
361.70 0.6433
361.80 0.6438
361.90 0.6442
362.00 0.6446
362.10 0.645
362.20 0.6454
362.30 0.6458
362.40 0.6462
362.50 0.6467
362.60 0.6471
362.70 0.6475
362.80 0.6479
362.90 0.6483
363.00 0.6487
363.10 0.6491
363.20 0.6495
363.30 0.65
363.40 0.6504
363.50 0.6508
363.60 0.6512
363.70 0.6516
363.80 0.652
363.90 0.6524
364.00 0.6528
364.10 0.6532
364.20 0.6537
364.30 0.6541
364.40 0.6545
364.50 0.6549
364.60 0.6553
364.70 0.6557
364.80 0.6561
364.90 0.6565
365.00 0.6569
365.10 0.6573
365.20 0.6578
365.30 0.6582
365.40 0.6586
365.50 0.659
365.60 0.6594
365.70 0.6598
365.80 0.6602
365.90 0.6606
366.00 0.661
366.10 0.6614
366.20 0.6618
366.30 0.6622
366.40 0.6626
366.50 0.663
366.60 0.6635
366.70 0.6639
366.80 0.6643
366.90 0.6647
367.00 0.6651
367.10 0.6655
367.20 0.6659
367.30 0.6663
367.40 0.6667
367.50 0.6671
367.60 0.6675
367.70 0.6679
367.80 0.6683
367.90 0.6687
368.00 0.6691
368.10 0.6695
368.20 0.6699
368.30 0.6703
368.40 0.6707
368.50 0.6711
368.60 0.6715
368.70 0.6719
368.80 0.6723
368.90 0.6728
369.00 0.6732
369.10 0.6736
369.20 0.674
369.30 0.6744
369.40 0.6748
369.50 0.6752
369.60 0.6756
369.70 0.676
369.80 0.6763
369.90 0.6767
370.00 0.6771
370.10 0.6775
370.20 0.6779
370.30 0.6784
370.40 0.6788
370.50 0.6792
370.60 0.6796
370.70 0.68
370.80 0.6804
370.90 0.6808
371.00 0.6811
371.10 0.6815
371.20 0.6819
371.30 0.6823
371.40 0.6827
371.50 0.6831
371.60 0.6835
371.70 0.6839
371.80 0.6843
371.90 0.6847
372.00 0.6851
372.10 0.6855
372.20 0.6859
372.30 0.6863
372.40 0.6867
372.50 0.6871
372.60 0.6875
372.70 0.6879
372.80 0.6883
372.90 0.6887
373.00 0.6891
373.10 0.6895
373.20 0.6899
373.30 0.6902
373.40 0.6906
373.50 0.691
373.60 0.6914
373.70 0.6918
373.80 0.6922
373.90 0.6926
374.00 0.693
374.10 0.6934
374.20 0.6938
374.30 0.6942
374.40 0.6946
374.50 0.6949
374.60 0.6953
374.70 0.6957
374.80 0.6961
374.90 0.6965
375.00 0.6969
375.10 0.6973
375.20 0.6977
375.30 0.6981
375.40 0.6984
375.50 0.6988
375.60 0.6992
375.70 0.6996
375.80 0.7
375.90 0.7004
376.00 0.7008
376.10 0.7012
376.20 0.7015
376.30 0.7019
376.40 0.7023
376.50 0.7027
376.60 0.7031
376.70 0.7035
376.80 0.7039
376.90 0.7043
377.00 0.7047
377.10 0.705
377.20 0.7054
377.30 0.7058
377.40 0.7062
377.50 0.7066
377.60 0.707
377.70 0.7073
377.80 0.7077
377.90 0.7081
378.00 0.7085
378.10 0.7089
378.20 0.7093
378.30 0.7097
378.40 0.71
378.50 0.7104
378.60 0.7108
378.70 0.7112
378.80 0.7116
378.90 0.712
379.00 0.7123
379.10 0.7127
379.20 0.7131
379.30 0.7135
379.40 0.7139
379.50 0.7143
379.60 0.7146
379.70 0.715
379.80 0.7154
379.90 0.7158
380.00 0.7161
380.10 0.7165
380.20 0.7169
380.30 0.7173
380.40 0.7177
380.50 0.718
380.60 0.7184
380.70 0.7188
380.80 0.7192
380.90 0.7195
381.00 0.7199
381.10 0.7203
381.20 0.7206
381.30 0.721
381.40 0.7214
381.50 0.7218
381.60 0.7222
381.70 0.7225
381.80 0.7229
381.90 0.7233
382.00 0.7237
382.10 0.724
382.20 0.7244
382.30 0.7248
382.40 0.7251
382.50 0.7255
382.60 0.7259
382.70 0.7263
382.80 0.7267
382.90 0.727
383.00 0.7274
383.10 0.7278
383.20 0.7282
383.30 0.7285
383.40 0.7289
383.50 0.7293
383.60 0.7296
383.70 0.73
383.80 0.7304
383.90 0.7307
384.00 0.7311
384.10 0.7315
384.20 0.7319
384.30 0.7322
384.40 0.7326
384.50 0.733
384.60 0.7333
384.70 0.7337
384.80 0.7341
384.90 0.7344
385.00 0.7348
385.10 0.7352
385.20 0.7356
385.30 0.7359
385.40 0.7363
385.50 0.7366
385.60 0.737
385.70 0.7374
385.80 0.7378
385.90 0.7381
386.00 0.7385
386.10 0.7389
386.20 0.7392
386.30 0.7396
386.40 0.7399
386.50 0.7403
386.60 0.7407
386.70 0.7411
386.80 0.7414
386.90 0.7418
387.00 0.7421
387.10 0.7425
387.20 0.7429
387.30 0.7432
387.40 0.7436
387.50 0.744
387.60 0.7444
387.70 0.7447
387.80 0.7451
387.90 0.7454
388.00 0.7458
388.10 0.7461
388.20 0.7465
388.30 0.7469
388.40 0.7472
388.50 0.7476
388.60 0.748
388.70 0.7483
388.80 0.7487
388.90 0.749
389.00 0.7494
389.10 0.7498
389.20 0.7501
389.30 0.7505
389.40 0.7508
389.50 0.7512
389.60 0.7515
389.70 0.7519
389.80 0.7523
389.90 0.7526
390.00 0.753
390.10 0.7534
390.20 0.7537
390.30 0.7541
390.40 0.7544
390.50 0.7548
390.60 0.7551
390.70 0.7554
390.80 0.7558
390.90 0.7562
391.00 0.7565
391.10 0.7569
391.20 0.7572
391.30 0.7576
391.40 0.758
391.50 0.7583
391.60 0.7586
391.70 0.759
391.80 0.7594
391.90 0.7597
392.00 0.7601
392.10 0.7604
392.20 0.7608
392.30 0.7611
392.40 0.7615
392.50 0.7619
392.60 0.7622
392.70 0.7625
392.80 0.7629
392.90 0.7632
393.00 0.7636
393.10 0.7639
393.20 0.7643
393.30 0.7647
393.40 0.765
393.50 0.7653
393.60 0.7657
393.70 0.766
393.80 0.7664
393.90 0.7667
394.00 0.7671
394.10 0.7674
394.20 0.7678
394.30 0.7681
394.40 0.7685
394.50 0.7688
394.60 0.7691
394.70 0.7695
394.80 0.7699
394.90 0.7702
395.00 0.7705
395.10 0.7709
395.20 0.7712
395.30 0.7716
395.40 0.772
395.50 0.7723
395.60 0.7726
395.70 0.773
395.80 0.7733
395.90 0.7737
396.00 0.774
396.10 0.7743
396.20 0.7747
396.30 0.775
396.40 0.7754
396.50 0.7757
396.60 0.7761
396.70 0.7764
396.80 0.7767
396.90 0.777
397.00 0.7774
397.10 0.7777
397.20 0.7781
397.30 0.7785
397.40 0.7788
397.50 0.7791
397.60 0.7794
397.70 0.7798
397.80 0.7801
397.90 0.7805
398.00 0.7808
398.10 0.7812
398.20 0.7815
398.30 0.7819
398.40 0.7822
398.50 0.7825
398.60 0.7828
398.70 0.7832
398.80 0.7835
398.90 0.7838
399.00 0.7842
399.10 0.7845
399.20 0.7849
399.30 0.7852
399.40 0.7855
399.50 0.7859
399.60 0.7862
399.70 0.7866
399.80 0.7869
399.90 0.7872
400.00 0.7876
400.10 0.7879
400.20 0.7882
400.30 0.7886
400.40 0.7889
400.50 0.7892
400.60 0.7896
400.70 0.7899
400.80 0.7902
400.90 0.7906
401.00 0.7909
401.10 0.7912
401.20 0.7916
401.30 0.7919
401.40 0.7922
401.50 0.7926
401.60 0.7929
401.70 0.7932
401.80 0.7936
401.90 0.7939
402.00 0.7942
402.10 0.7945
402.20 0.7949
402.30 0.7952
402.40 0.7955
402.50 0.7958
402.60 0.7962
402.70 0.7965
402.80 0.7968
402.90 0.7971
403.00 0.7975
403.10 0.7978
403.20 0.7981
403.30 0.7984
403.40 0.7988
403.50 0.7991
403.60 0.7995
403.70 0.7998
403.80 0.8001
403.90 0.8004
404.00 0.8007
404.10 0.8011
404.20 0.8014
404.30 0.8017
404.40 0.802
404.50 0.8023
404.60 0.8027
404.70 0.803
404.80 0.8033
404.90 0.8037
405.00 0.804
405.10 0.8043
405.20 0.8046
405.30 0.8049
405.40 0.8052
405.50 0.8056
405.60 0.8059
405.70 0.8062
405.80 0.8065
405.90 0.8068
406.00 0.8072
406.10 0.8075
406.20 0.8078
406.30 0.8081
406.40 0.8085
406.50 0.8088
406.60 0.8091
406.70 0.8094
406.80 0.8097
406.90 0.8101
407.00 0.8104
407.10 0.8107
407.20 0.811
407.30 0.8113
407.40 0.8116
407.50 0.812
407.60 0.8123
407.70 0.8126
407.80 0.8129
407.90 0.8132
408.00 0.8135
408.10 0.8138
408.20 0.8141
408.30 0.8144
408.40 0.8147
408.50 0.8151
408.60 0.8154
408.70 0.8157
408.80 0.816
408.90 0.8163
409.00 0.8166
409.10 0.8169
409.20 0.8173
409.30 0.8175
409.40 0.8178
409.50 0.8181
409.60 0.8184
409.70 0.8187
409.80 0.819
409.90 0.8193
410.00 0.8196
410.10 0.8198
410.20 0.8201
410.30 0.8205
410.40 0.8208
410.50 0.8212
410.60 0.8215
410.70 0.8218
410.80 0.8221
410.90 0.8225
411.00 0.8228
411.10 0.8231
411.20 0.8234
411.30 0.8237
411.40 0.8241
411.50 0.8244
411.60 0.8247
411.70 0.825
411.80 0.8253
411.90 0.8256
412.00 0.8259
412.10 0.8262
412.20 0.8265
412.30 0.8268
412.40 0.8271
412.50 0.8274
412.60 0.8277
412.70 0.8281
412.80 0.8284
412.90 0.8286
413.00 0.829
413.10 0.8293
413.20 0.8296
413.30 0.8299
413.40 0.8302
413.50 0.8305
413.60 0.8308
413.70 0.8311
413.80 0.8314
413.90 0.8317
414.00 0.832
414.10 0.8323
414.20 0.8326
414.30 0.8329
414.40 0.8331
414.50 0.8335
414.60 0.8338
414.70 0.8341
414.80 0.8344
414.90 0.8347
415.00 0.835
415.10 0.8352
415.20 0.8355
415.30 0.8359
415.40 0.8361
415.50 0.8364
415.60 0.8367
415.70 0.837
415.80 0.8373
415.90 0.8376
416.00 0.8379
416.10 0.8382
416.20 0.8385
416.30 0.8388
416.40 0.8391
416.50 0.8394
416.60 0.8397
416.70 0.84
416.80 0.8403
416.90 0.8406
417.00 0.8409
417.10 0.8411
417.20 0.8414
417.30 0.8417
417.40 0.842
417.50 0.8423
417.60 0.8426
417.70 0.8429
417.80 0.8432
417.90 0.8435
418.00 0.8438
418.10 0.8441
418.20 0.8444
418.30 0.8447
418.40 0.8449
418.50 0.8452
418.60 0.8455
418.70 0.8458
418.80 0.8461
418.90 0.8464
419.00 0.8467
419.10 0.8469
419.20 0.8472
419.30 0.8475
419.40 0.8478
419.50 0.8481
419.60 0.8484
419.70 0.8487
419.80 0.849
419.90 0.8493
420.00 0.8495
420.10 0.8498
420.20 0.8501
420.30 0.8504
420.40 0.8507
420.50 0.851
420.60 0.8513
420.70 0.8515
420.80 0.8518
420.90 0.8521
421.00 0.8524
421.10 0.8527
421.20 0.8529
421.30 0.8532
421.40 0.8535
421.50 0.8538
421.60 0.854
421.70 0.8543
421.80 0.8546
421.90 0.8549
422.00 0.8552
422.10 0.8555
422.20 0.8557
422.30 0.856
422.40 0.8563
422.50 0.8566
422.60 0.8569
422.70 0.8571
422.80 0.8574
422.90 0.8577
423.00 0.858
423.10 0.8582
423.20 0.8585
423.30 0.8588
423.40 0.8591
423.50 0.8594
423.60 0.8596
423.70 0.8599
423.80 0.8602
423.90 0.8605
424.00 0.8608
424.10 0.861
424.20 0.8613
424.30 0.8615
424.40 0.8618
424.50 0.8621
424.60 0.8624
424.70 0.8627
424.80 0.8629
424.90 0.8632
425.00 0.8635
425.10 0.8638
425.20 0.864
425.30 0.8643
425.40 0.8646
425.50 0.8649
425.60 0.8651
425.70 0.8654
425.80 0.8656
425.90 0.8659
426.00 0.8662
426.10 0.8664
426.20 0.8667
426.30 0.867
426.40 0.8673
426.50 0.8675
426.60 0.8678
426.70 0.8681
426.80 0.8683
426.90 0.8686
427.00 0.8689
427.10 0.8692
427.20 0.8694
427.30 0.8697
427.40 0.87
427.50 0.8702
427.60 0.8705
427.70 0.8708
427.80 0.871
427.90 0.8713
428.00 0.8716
428.10 0.8718
428.20 0.8721
428.30 0.8724
428.40 0.8726
428.50 0.8729
428.60 0.8731
428.70 0.8734
428.80 0.8737
428.90 0.8739
429.00 0.8742
429.10 0.8745
429.20 0.8747
429.30 0.875
429.40 0.8752
429.50 0.8755
429.60 0.8758
429.70 0.876
429.80 0.8763
429.90 0.8765
430.00 0.8768
430.10 0.8771
430.20 0.8773
430.30 0.8776
430.40 0.8778
430.50 0.8781
430.60 0.8783
430.70 0.8786
430.80 0.8789
430.90 0.8791
431.00 0.8794
431.10 0.8796
431.20 0.8799
431.30 0.8801
431.40 0.8804
431.50 0.8806
431.60 0.8809
431.70 0.8812
431.80 0.8814
431.90 0.8816
432.00 0.8819
432.10 0.8821
432.20 0.8824
432.30 0.8826
432.40 0.8829
432.50 0.8831
432.60 0.8834
432.70 0.8836
432.80 0.8838
432.90 0.8841
433.00 0.8843
433.10 0.8845
433.20 0.8847
433.30 0.8849
433.40 0.8851
433.50 0.8853
433.60 0.8854
433.70 0.8856
433.80 0.8856
433.90 0.8857
434.00 0.8858
434.10 0.8861
434.20 0.8865
434.30 0.8869
434.40 0.8873
434.50 0.8877
434.60 0.8881
434.70 0.8884
434.80 0.8887
434.90 0.889
435.00 0.8893
435.10 0.8895
435.20 0.8898
435.30 0.8901
435.40 0.8904
435.50 0.8906
435.60 0.8909
435.70 0.8911
435.80 0.8914
435.90 0.8916
436.00 0.8919
436.10 0.8921
436.20 0.8924
436.30 0.8926
436.40 0.8929
436.50 0.8931
436.60 0.8934
436.70 0.8936
436.80 0.8939
436.90 0.8941
437.00 0.8944
437.10 0.8946
437.20 0.8949
437.30 0.8951
437.40 0.8953
437.50 0.8956
437.60 0.8958
437.70 0.8961
437.80 0.8963
437.90 0.8965
438.00 0.8968
438.10 0.897
438.20 0.8973
438.30 0.8975
438.40 0.8978
438.50 0.898
438.60 0.8982
438.70 0.8985
438.80 0.8987
438.90 0.899
439.00 0.8992
439.10 0.8994
439.20 0.8997
439.30 0.8999
439.40 0.9001
439.50 0.9004
439.60 0.9006
439.70 0.9008
439.80 0.9011
439.90 0.9013
440.00 0.9016
440.10 0.9018
440.20 0.902
440.30 0.9023
440.40 0.9025
440.50 0.9027
440.60 0.903
440.70 0.9032
440.80 0.9034
440.90 0.9037
441.00 0.9039
441.10 0.9041
441.20 0.9044
441.30 0.9046
441.40 0.9048
441.50 0.9051
441.60 0.9053
441.70 0.9055
441.80 0.9058
441.90 0.906
442.00 0.9062
442.10 0.9064
442.20 0.9067
442.30 0.9069
442.40 0.9071
442.50 0.9074
442.60 0.9076
442.70 0.9078
442.80 0.9081
442.90 0.9083
