# Version 2.1 - nm, norm@500 to 1, cut digits, bergeron_10500_65.dat_10500
# Wavelength(nm)  Flambda(ergs/cm^s/s/nm)
300.00 1.263
300.10 1.262
300.20 1.261
300.30 1.261
300.40 1.26
300.50 1.26
300.60 1.259
300.70 1.258
300.80 1.258
300.90 1.257
301.00 1.256
301.10 1.256
301.20 1.255
301.30 1.255
301.40 1.254
301.50 1.253
301.60 1.253
301.70 1.252
301.80 1.251
301.90 1.251
302.00 1.25
302.10 1.25
302.20 1.249
302.30 1.248
302.40 1.248
302.50 1.247
302.60 1.247
302.70 1.246
302.80 1.245
302.90 1.245
303.00 1.244
303.10 1.243
303.20 1.243
303.30 1.242
303.40 1.242
303.50 1.241
303.60 1.24
303.70 1.24
303.80 1.239
303.90 1.239
304.00 1.238
304.10 1.237
304.20 1.237
304.30 1.236
304.40 1.235
304.50 1.235
304.60 1.234
304.70 1.234
304.80 1.233
304.90 1.232
305.00 1.232
305.10 1.231
305.20 1.231
305.30 1.23
305.40 1.229
305.50 1.229
305.60 1.228
305.70 1.228
305.80 1.227
305.90 1.226
306.00 1.226
306.10 1.225
306.20 1.225
306.30 1.224
306.40 1.223
306.50 1.223
306.60 1.222
306.70 1.222
306.80 1.221
306.90 1.22
307.00 1.22
307.10 1.219
307.20 1.219
307.30 1.218
307.40 1.217
307.50 1.217
307.60 1.216
307.70 1.216
307.80 1.215
307.90 1.214
308.00 1.214
308.10 1.213
308.20 1.213
308.30 1.212
308.40 1.211
308.50 1.211
308.60 1.21
308.70 1.21
308.80 1.209
308.90 1.208
309.00 1.208
309.10 1.207
309.20 1.207
309.30 1.206
309.40 1.205
309.50 1.205
309.60 1.204
309.70 1.204
309.80 1.203
309.90 1.202
310.00 1.202
310.10 1.201
310.20 1.201
310.30 1.2
310.40 1.2
310.50 1.199
310.60 1.198
310.70 1.198
310.80 1.197
310.90 1.197
311.00 1.196
311.10 1.195
311.20 1.195
311.30 1.194
311.40 1.194
311.50 1.193
311.60 1.193
311.70 1.192
311.80 1.191
311.90 1.191
312.00 1.19
312.10 1.19
312.20 1.189
312.30 1.188
312.40 1.188
312.50 1.187
312.60 1.187
312.70 1.186
312.80 1.186
312.90 1.185
313.00 1.184
313.10 1.184
313.20 1.183
313.30 1.183
313.40 1.182
313.50 1.182
313.60 1.181
313.70 1.18
313.80 1.18
313.90 1.179
314.00 1.179
314.10 1.178
314.20 1.177
314.30 1.177
314.40 1.176
314.50 1.176
314.60 1.175
314.70 1.175
314.80 1.174
314.90 1.173
315.00 1.173
315.10 1.172
315.20 1.172
315.30 1.171
315.40 1.171
315.50 1.17
315.60 1.169
315.70 1.169
315.80 1.168
315.90 1.168
316.00 1.167
316.10 1.167
316.20 1.166
316.30 1.166
316.40 1.165
316.50 1.164
316.60 1.164
316.70 1.163
316.80 1.163
316.90 1.162
317.00 1.162
317.10 1.161
317.20 1.16
317.30 1.16
317.40 1.159
317.50 1.159
317.60 1.158
317.70 1.158
317.80 1.157
317.90 1.157
318.00 1.156
318.10 1.155
318.20 1.155
318.30 1.154
318.40 1.154
318.50 1.153
318.60 1.153
318.70 1.152
318.80 1.152
318.90 1.151
319.00 1.15
319.10 1.15
319.20 1.149
319.30 1.149
319.40 1.148
319.50 1.148
319.60 1.147
319.70 1.147
319.80 1.146
319.90 1.145
320.00 1.145
320.10 1.144
320.20 1.144
320.30 1.143
320.40 1.143
320.50 1.142
320.60 1.142
320.70 1.141
320.80 1.14
320.90 1.14
321.00 1.139
321.10 1.139
321.20 1.138
321.30 1.138
321.40 1.137
321.50 1.137
321.60 1.136
321.70 1.136
321.80 1.135
321.90 1.134
322.00 1.134
322.10 1.133
322.20 1.133
322.30 1.132
322.40 1.132
322.50 1.131
322.60 1.131
322.70 1.13
322.80 1.13
322.90 1.129
323.00 1.128
323.10 1.128
323.20 1.127
323.30 1.127
323.40 1.126
323.50 1.126
323.60 1.125
323.70 1.125
323.80 1.124
323.90 1.124
324.00 1.123
324.10 1.123
324.20 1.122
324.30 1.121
324.40 1.121
324.50 1.12
324.60 1.12
324.70 1.119
324.80 1.119
324.90 1.118
325.00 1.118
325.10 1.117
325.20 1.117
325.30 1.116
325.40 1.116
325.50 1.115
325.60 1.114
325.70 1.114
325.80 1.113
325.90 1.113
326.00 1.112
326.10 1.112
326.20 1.111
326.30 1.111
326.40 1.11
326.50 1.11
326.60 1.109
326.70 1.109
326.80 1.108
326.90 1.108
327.00 1.107
327.10 1.107
327.20 1.106
327.30 1.105
327.40 1.105
327.50 1.104
327.60 1.104
327.70 1.103
327.80 1.103
327.90 1.102
328.00 1.102
328.10 1.101
328.20 1.101
328.30 1.1
328.40 1.1
328.50 1.099
328.60 1.099
328.70 1.098
328.80 1.098
328.90 1.097
329.00 1.097
329.10 1.096
329.20 1.096
329.30 1.095
329.40 1.094
329.50 1.094
329.60 1.093
329.70 1.093
329.80 1.092
329.90 1.092
330.00 1.091
330.10 1.091
330.20 1.09
330.30 1.09
330.40 1.089
330.50 1.089
330.60 1.088
330.70 1.088
330.80 1.087
330.90 1.087
331.00 1.086
331.10 1.086
331.20 1.085
331.30 1.085
331.40 1.084
331.50 1.084
331.60 1.083
331.70 1.083
331.80 1.082
331.90 1.082
332.00 1.081
332.10 1.081
332.20 1.08
332.30 1.08
332.40 1.079
332.50 1.078
332.60 1.078
332.70 1.077
332.80 1.077
332.90 1.076
333.00 1.076
333.10 1.075
333.20 1.075
333.30 1.074
333.40 1.074
333.50 1.073
333.60 1.073
333.70 1.072
333.80 1.072
333.90 1.071
334.00 1.071
334.10 1.07
334.20 1.07
334.30 1.069
334.40 1.069
334.50 1.068
334.60 1.068
334.70 1.067
334.80 1.067
334.90 1.066
335.00 1.066
335.10 1.065
335.20 1.065
335.30 1.064
335.40 1.064
335.50 1.063
335.60 1.063
335.70 1.062
335.80 1.062
335.90 1.061
336.00 1.061
336.10 1.06
336.20 1.06
336.30 1.059
336.40 1.059
336.50 1.058
336.60 1.058
336.70 1.057
336.80 1.057
336.90 1.056
337.00 1.056
337.10 1.055
337.20 1.055
337.30 1.054
337.40 1.054
337.50 1.053
337.60 1.053
337.70 1.052
337.80 1.052
337.90 1.051
338.00 1.051
338.10 1.05
338.20 1.05
338.30 1.049
338.40 1.049
338.50 1.048
338.60 1.048
338.70 1.047
338.80 1.047
338.90 1.046
339.00 1.046
339.10 1.045
339.20 1.045
339.30 1.044
339.40 1.044
339.50 1.044
339.60 1.043
339.70 1.043
339.80 1.042
339.90 1.042
340.00 1.041
340.10 1.041
340.20 1.04
340.30 1.04
340.40 1.039
340.50 1.039
340.60 1.038
340.70 1.038
340.80 1.037
340.90 1.037
341.00 1.036
341.10 1.036
341.20 1.035
341.30 1.035
341.40 1.034
341.50 1.034
341.60 1.033
341.70 1.033
341.80 1.032
341.90 1.032
342.00 1.031
342.10 1.031
342.20 1.03
342.30 1.03
342.40 1.029
342.50 1.029
342.60 1.029
342.70 1.028
342.80 1.028
342.90 1.027
343.00 1.027
343.10 1.026
343.20 1.026
343.30 1.025
343.40 1.025
343.50 1.024
343.60 1.024
343.70 1.023
343.80 1.023
343.90 1.022
344.00 1.022
344.10 1.021
344.20 1.021
344.30 1.02
344.40 1.02
344.50 1.019
344.60 1.019
344.70 1.018
344.80 1.018
344.90 1.018
345.00 1.017
345.10 1.017
345.20 1.016
345.30 1.016
345.40 1.015
345.50 1.015
345.60 1.014
345.70 1.014
345.80 1.013
345.90 1.013
346.00 1.012
346.10 1.012
346.20 1.011
346.30 1.011
346.40 1.01
346.50 1.01
346.60 1.01
346.70 1.009
346.80 1.009
346.90 1.008
347.00 1.008
347.10 1.007
347.20 1.007
347.30 1.006
347.40 1.006
347.50 1.005
347.60 1.005
347.70 1.004
347.80 1.004
347.90 1.004
348.00 1.003
348.10 1.003
348.20 1.002
348.30 1.002
348.40 1.001
348.50 1.001
348.60 1
348.70 0.9998
348.80 0.9993
348.90 0.9989
349.00 0.9984
349.10 0.998
349.20 0.9975
349.30 0.997
349.40 0.9966
349.50 0.9961
349.60 0.9956
349.70 0.9952
349.80 0.9947
349.90 0.9943
350.00 0.9938
350.10 0.9934
350.20 0.9929
350.30 0.9924
350.40 0.992
350.50 0.9915
350.60 0.9911
350.70 0.9906
350.80 0.9901
350.90 0.9897
351.00 0.9892
351.10 0.9888
351.20 0.9883
351.30 0.9879
351.40 0.9874
351.50 0.987
351.60 0.9865
351.70 0.986
351.80 0.9856
351.90 0.9851
352.00 0.9847
352.10 0.9842
352.20 0.9838
352.30 0.9833
352.40 0.9829
352.50 0.9824
352.60 0.982
352.70 0.9815
352.80 0.9811
352.90 0.9806
353.00 0.9802
353.10 0.9797
353.20 0.9793
353.30 0.9788
353.40 0.9784
353.50 0.9779
353.60 0.9775
353.70 0.977
353.80 0.9766
353.90 0.9761
354.00 0.9757
354.10 0.9753
354.20 0.9748
354.30 0.9744
354.40 0.9739
354.50 0.9735
354.60 0.973
354.70 0.9726
354.80 0.9721
354.90 0.9717
355.00 0.9712
355.10 0.9708
355.20 0.9703
355.30 0.9699
355.40 0.9694
355.50 0.969
355.60 0.9686
355.70 0.9681
355.80 0.9677
355.90 0.9672
356.00 0.9668
356.10 0.9663
356.20 0.9659
356.30 0.9655
356.40 0.965
356.50 0.9646
356.60 0.9641
356.70 0.9637
356.80 0.9632
356.90 0.9628
357.00 0.9624
357.10 0.9619
357.20 0.9615
357.30 0.961
357.40 0.9606
357.50 0.9602
357.60 0.9597
357.70 0.9593
357.80 0.9589
357.90 0.9584
358.00 0.958
358.10 0.9575
358.20 0.9571
358.30 0.9567
358.40 0.9562
358.50 0.9558
358.60 0.9554
358.70 0.9549
358.80 0.9545
358.90 0.9541
359.00 0.9536
359.10 0.9532
359.20 0.9528
359.30 0.9523
359.40 0.9519
359.50 0.9515
359.60 0.951
359.70 0.9506
359.80 0.9502
359.90 0.9497
360.00 0.9493
360.10 0.9489
360.20 0.9484
360.30 0.948
360.40 0.9476
360.50 0.9471
360.60 0.9467
360.70 0.9463
360.80 0.9458
360.90 0.9454
361.00 0.945
361.10 0.9446
361.20 0.9441
361.30 0.9437
361.40 0.9433
361.50 0.9428
361.60 0.9424
361.70 0.942
361.80 0.9416
361.90 0.9411
362.00 0.9407
362.10 0.9403
362.20 0.9398
362.30 0.9394
362.40 0.939
362.50 0.9386
362.60 0.9381
362.70 0.9377
362.80 0.9373
362.90 0.9369
363.00 0.9364
363.10 0.936
363.20 0.9356
363.30 0.9351
363.40 0.9347
363.50 0.9342
363.60 0.9338
363.70 0.9334
363.80 0.9329
363.90 0.9325
364.00 0.932
364.10 0.9316
364.20 0.9312
364.30 0.9307
364.40 0.9303
364.50 0.9299
364.60 0.9295
364.70 0.9292
364.80 0.9289
364.90 0.9286
365.00 0.9283
365.10 0.9279
365.20 0.9276
365.30 0.9273
365.40 0.927
365.50 0.9267
365.60 0.9264
365.70 0.926
365.80 0.9257
365.90 0.9254
366.00 0.9251
366.10 0.9249
366.20 0.9246
366.30 0.9244
366.40 0.9241
366.50 0.9239
366.60 0.9237
366.70 0.9234
366.80 0.9232
366.90 0.923
367.00 0.9227
367.10 0.9225
367.20 0.9222
367.30 0.922
367.40 0.9218
367.50 0.9215
367.60 0.9213
367.70 0.9211
367.80 0.9208
367.90 0.9206
368.00 0.9204
368.10 0.9219
368.20 0.9235
368.30 0.9251
368.40 0.9267
368.50 0.9282
368.60 0.9298
368.70 0.9314
368.80 0.9329
368.90 0.9345
369.00 0.9361
369.10 0.9376
369.20 0.9392
369.30 0.9407
369.40 0.9423
369.50 0.9438
369.60 0.9454
369.70 0.9469
369.80 0.9485
369.90 0.95
370.00 0.9516
370.10 0.9556
370.20 0.9595
370.30 0.9635
370.40 0.9675
370.50 0.9715
370.60 0.9754
370.70 0.9794
370.80 0.9834
370.90 0.9873
371.00 0.9913
371.10 0.9952
371.20 0.9991
371.30 1.003
371.40 1.007
371.50 1.011
371.60 1.015
371.70 1.019
371.80 1.023
371.90 1.027
372.00 1.031
372.10 1.036
372.20 1.041
372.30 1.046
372.40 1.052
372.50 1.057
372.60 1.062
372.70 1.068
372.80 1.073
372.90 1.078
373.00 1.083
373.10 1.089
373.20 1.094
373.30 1.099
373.40 1.104
373.50 1.11
373.60 1.115
373.70 1.12
373.80 1.125
373.90 1.131
374.00 1.136
374.10 1.141
374.20 1.146
374.30 1.15
374.40 1.155
374.50 1.16
374.60 1.165
374.70 1.17
374.80 1.175
374.90 1.18
375.00 1.185
375.10 1.19
375.20 1.194
375.30 1.199
375.40 1.204
375.50 1.209
375.60 1.214
375.70 1.219
375.80 1.223
375.90 1.228
376.00 1.233
376.10 1.235
376.20 1.238
376.30 1.24
376.40 1.242
376.50 1.244
376.60 1.246
376.70 1.249
376.80 1.251
376.90 1.253
377.00 1.255
377.10 1.251
377.20 1.247
377.30 1.242
377.40 1.238
377.50 1.234
377.60 1.23
377.70 1.225
377.80 1.221
377.90 1.217
378.00 1.213
378.10 1.189
378.20 1.164
378.30 1.14
378.40 1.116
378.50 1.092
378.60 1.068
378.70 1.044
378.80 1.019
378.90 0.9954
379.00 0.9713
379.10 0.9468
379.20 0.9223
379.30 0.8979
379.40 0.8734
379.50 0.849
379.60 0.8246
379.70 0.8003
379.80 0.7759
379.90 0.7516
380.00 0.7273
380.10 0.7643
380.20 0.8012
380.30 0.8381
380.40 0.875
380.50 0.9118
380.60 0.9485
380.70 0.9853
380.80 1.022
380.90 1.059
381.00 1.095
381.10 1.109
381.20 1.123
381.30 1.136
381.40 1.15
381.50 1.163
381.60 1.166
381.70 1.164
381.80 1.159
381.90 1.15
382.00 1.137
382.10 1.121
382.20 1.1
382.30 1.061
382.40 1.022
382.50 0.9834
382.60 0.9447
382.70 0.906
382.80 0.8673
382.90 0.8287
383.00 0.7901
383.10 0.7516
383.20 0.7131
383.30 0.6647
383.40 0.6137
383.50 0.5557
383.60 0.57
383.70 0.6247
383.80 0.6752
383.90 0.7231
384.00 0.7696
384.10 0.8155
384.20 0.8604
384.30 0.9042
384.40 0.9477
384.50 0.9904
384.60 1.031
384.70 1.068
384.80 1.102
384.90 1.133
385.00 1.16
385.10 1.184
385.20 1.205
385.30 1.224
385.40 1.239
385.50 1.253
385.60 1.265
385.70 1.273
385.80 1.28
385.90 1.286
386.00 1.289
386.10 1.29
386.20 1.29
386.30 1.288
386.40 1.284
386.50 1.279
386.60 1.271
386.70 1.261
386.80 1.25
386.90 1.236
387.00 1.221
387.10 1.204
387.20 1.183
387.30 1.161
387.40 1.137
387.50 1.108
387.60 1.077
387.70 1.044
387.80 1.006
387.90 0.9657
388.00 0.9235
388.10 0.879
388.20 0.8343
388.30 0.7892
388.40 0.7438
388.50 0.6978
388.60 0.6513
388.70 0.6015
388.80 0.543
388.90 0.4755
389.00 0.5393
389.10 0.5961
389.20 0.6459
389.30 0.6923
389.40 0.738
389.50 0.7831
389.60 0.828
389.70 0.8728
389.80 0.9174
389.90 0.9604
390.00 1.002
390.10 1.041
390.20 1.076
390.30 1.109
390.40 1.14
390.50 1.168
390.60 1.194
390.70 1.218
390.80 1.24
390.90 1.261
391.00 1.28
391.10 1.297
391.20 1.314
391.30 1.329
391.40 1.343
391.50 1.356
391.60 1.368
391.70 1.378
391.80 1.388
391.90 1.397
392.00 1.405
392.10 1.412
392.20 1.418
392.30 1.423
392.40 1.428
392.50 1.431
392.60 1.434
392.70 1.436
392.80 1.437
392.90 1.436
393.00 1.435
393.10 1.434
393.20 1.431
393.30 1.427
393.40 1.423
393.50 1.417
393.60 1.411
393.70 1.404
393.80 1.395
393.90 1.386
394.00 1.376
394.10 1.365
394.20 1.353
394.30 1.34
394.40 1.326
394.50 1.31
394.60 1.294
394.70 1.277
394.80 1.258
394.90 1.239
395.00 1.217
395.10 1.195
395.20 1.172
395.30 1.146
395.40 1.119
395.50 1.091
395.60 1.06
395.70 1.028
395.80 0.994
395.90 0.9571
396.00 0.919
396.10 0.8795
396.20 0.8381
396.30 0.7962
396.40 0.7537
396.50 0.7107
396.60 0.6674
396.70 0.6238
396.80 0.5756
396.90 0.5096
397.00 0.4258
397.10 0.5045
397.20 0.5682
397.30 0.6168
397.40 0.6604
397.50 0.7033
397.60 0.7458
397.70 0.7878
397.80 0.8292
397.90 0.8701
398.00 0.9091
398.10 0.9469
398.20 0.9834
398.30 1.017
398.40 1.049
398.50 1.08
398.60 1.108
398.70 1.134
398.80 1.16
398.90 1.183
399.00 1.206
399.10 1.228
399.20 1.248
399.30 1.267
399.40 1.286
399.50 1.303
399.60 1.319
399.70 1.335
399.80 1.35
399.90 1.365
400.00 1.378
400.10 1.391
400.20 1.403
400.30 1.415
400.40 1.426
400.50 1.436
400.60 1.446
400.70 1.455
400.80 1.464
400.90 1.472
401.00 1.48
401.10 1.487
401.20 1.494
401.30 1.501
401.40 1.507
401.50 1.512
401.60 1.517
401.70 1.522
401.80 1.527
401.90 1.531
402.00 1.535
402.10 1.538
402.20 1.541
402.30 1.544
402.40 1.547
402.50 1.549
402.60 1.551
402.70 1.552
402.80 1.554
402.90 1.555
403.00 1.555
403.10 1.556
403.20 1.556
403.30 1.556
403.40 1.556
403.50 1.555
403.60 1.554
403.70 1.553
403.80 1.552
403.90 1.55
404.00 1.549
404.10 1.546
404.20 1.544
404.30 1.541
404.40 1.538
404.50 1.535
404.60 1.532
404.70 1.528
404.80 1.524
404.90 1.519
405.00 1.515
405.10 1.51
405.20 1.504
405.30 1.499
405.40 1.493
405.50 1.486
405.60 1.479
405.70 1.472
405.80 1.465
405.90 1.457
406.00 1.449
406.10 1.44
406.20 1.431
406.30 1.421
406.40 1.411
406.50 1.401
406.60 1.39
406.70 1.378
406.80 1.366
406.90 1.353
407.00 1.34
407.10 1.326
407.20 1.311
407.30 1.296
407.40 1.28
407.50 1.263
407.60 1.245
407.70 1.227
407.80 1.208
407.90 1.187
408.00 1.166
408.10 1.145
408.20 1.122
408.30 1.099
408.40 1.075
408.50 1.049
408.60 1.023
408.70 0.9962
408.80 0.9677
408.90 0.9384
409.00 0.9081
409.10 0.8759
409.20 0.8428
409.30 0.8088
409.40 0.773
409.50 0.7365
409.60 0.6991
409.70 0.6608
409.80 0.6219
409.90 0.5823
410.00 0.535
410.10 0.4774
410.20 0.4096
410.30 0.4958
410.40 0.5604
410.50 0.6035
410.60 0.6419
410.70 0.6798
410.80 0.7174
410.90 0.7535
411.00 0.7888
411.10 0.8233
411.20 0.8558
411.30 0.8874
411.40 0.9179
411.50 0.9465
411.60 0.9743
411.70 1.001
411.80 1.026
411.90 1.051
412.00 1.075
412.10 1.097
412.20 1.119
412.30 1.14
412.40 1.16
412.50 1.179
412.60 1.197
412.70 1.215
412.80 1.231
412.90 1.248
413.00 1.263
413.10 1.277
413.20 1.291
413.30 1.304
413.40 1.317
413.50 1.329
413.60 1.34
413.70 1.351
413.80 1.361
413.90 1.371
414.00 1.38
414.10 1.389
414.20 1.398
414.30 1.406
414.40 1.414
414.50 1.421
414.60 1.428
414.70 1.435
414.80 1.441
414.90 1.447
415.00 1.453
415.10 1.459
415.20 1.464
415.30 1.469
415.40 1.474
415.50 1.479
415.60 1.483
415.70 1.487
415.80 1.491
415.90 1.495
416.00 1.498
416.10 1.502
416.20 1.505
416.30 1.508
416.40 1.511
416.50 1.514
416.60 1.517
416.70 1.519
416.80 1.521
416.90 1.524
417.00 1.526
417.10 1.528
417.20 1.53
417.30 1.531
417.40 1.533
417.50 1.535
417.60 1.536
417.70 1.538
417.80 1.539
417.90 1.54
418.00 1.541
418.10 1.542
418.20 1.543
418.30 1.544
418.40 1.545
418.50 1.546
418.60 1.546
418.70 1.547
418.80 1.547
418.90 1.548
419.00 1.548
419.10 1.549
419.20 1.549
419.30 1.549
419.40 1.549
419.50 1.549
419.60 1.549
419.70 1.549
419.80 1.549
419.90 1.549
420.00 1.549
420.10 1.549
420.20 1.549
420.30 1.549
420.40 1.548
420.50 1.548
420.60 1.548
420.70 1.547
420.80 1.547
420.90 1.546
421.00 1.546
421.10 1.545
421.20 1.545
421.30 1.544
421.40 1.543
421.50 1.543
421.60 1.542
421.70 1.541
421.80 1.54
421.90 1.54
422.00 1.539
422.10 1.538
422.20 1.537
422.30 1.536
422.40 1.535
422.50 1.534
422.60 1.533
422.70 1.532
422.80 1.53
422.90 1.529
423.00 1.528
423.10 1.527
423.20 1.525
423.30 1.524
423.40 1.523
423.50 1.521
423.60 1.52
423.70 1.518
423.80 1.517
423.90 1.515
424.00 1.514
424.10 1.512
424.20 1.51
424.30 1.509
424.40 1.507
424.50 1.505
424.60 1.503
424.70 1.501
424.80 1.499
424.90 1.497
425.00 1.495
425.10 1.493
425.20 1.491
425.30 1.489
425.40 1.486
425.50 1.484
425.60 1.482
425.70 1.479
425.80 1.477
425.90 1.474
426.00 1.471
426.10 1.469
426.20 1.465
426.30 1.462
426.40 1.459
426.50 1.456
426.60 1.453
426.70 1.45
426.80 1.446
426.90 1.443
427.00 1.439
427.10 1.436
427.20 1.432
427.30 1.428
427.40 1.424
427.50 1.42
427.60 1.416
427.70 1.412
427.80 1.408
427.90 1.403
428.00 1.398
428.10 1.394
428.20 1.389
428.30 1.384
428.40 1.378
428.50 1.373
428.60 1.368
428.70 1.362
428.80 1.356
428.90 1.35
429.00 1.343
429.10 1.337
429.20 1.33
429.30 1.323
429.40 1.316
429.50 1.309
429.60 1.301
429.70 1.293
429.80 1.285
429.90 1.277
430.00 1.268
430.10 1.259
430.20 1.249
430.30 1.24
430.40 1.23
430.50 1.22
430.60 1.209
430.70 1.198
430.80 1.187
430.90 1.175
431.00 1.163
431.10 1.151
431.20 1.139
431.30 1.126
431.40 1.112
431.50 1.098
431.60 1.084
431.70 1.068
431.80 1.052
431.90 1.035
432.00 1.017
432.10 0.9978
432.20 0.977
432.30 0.9553
432.40 0.9325
432.50 0.9075
432.60 0.8817
432.70 0.855
432.80 0.8278
432.90 0.801
433.00 0.7744
433.10 0.7486
433.20 0.722
433.30 0.6947
433.40 0.6647
433.50 0.6338
433.60 0.6019
433.70 0.5693
433.80 0.5333
433.90 0.494
434.00 0.3886
434.10 0.3898
434.20 0.4974
434.30 0.5357
434.40 0.571
434.50 0.6031
434.60 0.6345
434.70 0.6648
434.80 0.6941
434.90 0.7205
435.00 0.7463
435.10 0.7715
435.20 0.7972
435.30 0.8232
435.40 0.8494
435.50 0.8749
435.60 0.8995
435.70 0.9232
435.80 0.9447
435.90 0.9651
436.00 0.9845
436.10 1.002
436.20 1.019
436.30 1.035
436.40 1.049
436.50 1.063
436.60 1.077
436.70 1.089
436.80 1.101
436.90 1.112
437.00 1.123
437.10 1.134
437.20 1.144
437.30 1.154
437.40 1.164
437.50 1.173
437.60 1.182
437.70 1.19
437.80 1.199
437.90 1.207
438.00 1.214
438.10 1.222
438.20 1.229
438.30 1.235
438.40 1.242
438.50 1.248
438.60 1.254
438.70 1.259
438.80 1.265
438.90 1.27
439.00 1.275
439.10 1.279
439.20 1.284
439.30 1.288
439.40 1.292
439.50 1.296
439.60 1.3
439.70 1.304
439.80 1.307
439.90 1.311
440.00 1.314
440.10 1.317
440.20 1.319
440.30 1.322
440.40 1.325
440.50 1.327
440.60 1.33
440.70 1.332
440.80 1.334
440.90 1.336
441.00 1.338
441.10 1.34
441.20 1.342
441.30 1.343
441.40 1.345
441.50 1.346
441.60 1.348
441.70 1.349
441.80 1.35
441.90 1.351
442.00 1.353
442.10 1.354
442.20 1.355
442.30 1.356
442.40 1.356
442.50 1.357
442.60 1.358
442.70 1.359
442.80 1.359
442.90 1.36
443.00 1.361
443.10 1.361
443.20 1.362
443.30 1.362
443.40 1.362
443.50 1.363
443.60 1.363
443.70 1.363
443.80 1.364
443.90 1.364
444.00 1.364
444.10 1.364
444.20 1.364
444.30 1.364
444.40 1.365
444.50 1.365
444.60 1.365
444.70 1.365
444.80 1.365
444.90 1.364
445.00 1.364
445.10 1.364
445.20 1.364
445.30 1.364
445.40 1.364
445.50 1.364
445.60 1.363
445.70 1.363
445.80 1.363
445.90 1.363
446.00 1.362
446.10 1.362
446.20 1.362
446.30 1.362
446.40 1.361
446.50 1.361
446.60 1.36
446.70 1.36
446.80 1.36
446.90 1.359
447.00 1.359
447.10 1.359
447.20 1.358
447.30 1.358
447.40 1.357
447.50 1.357
447.60 1.356
447.70 1.356
447.80 1.355
447.90 1.355
448.00 1.354
448.10 1.354
448.20 1.353
448.30 1.353
448.40 1.352
448.50 1.352
448.60 1.351
448.70 1.351
448.80 1.35
448.90 1.35
449.00 1.349
449.10 1.349
449.20 1.348
449.30 1.347
449.40 1.347
449.50 1.346
449.60 1.346
449.70 1.345
449.80 1.344
449.90 1.344
450.00 1.343
450.10 1.343
450.20 1.342
450.30 1.341
450.40 1.341
450.50 1.34
450.60 1.339
450.70 1.339
450.80 1.338
450.90 1.338
451.00 1.337
451.10 1.336
451.20 1.336
