# Version 2.1 - nm, norm@500 to 1, cut digits, bergeron_5000_70.dat_5000
# Wavelength(nm)  Flambda(ergs/cm^s/s/nm)
300.00 0.3581
300.10 0.3586
300.20 0.359
300.30 0.3595
300.40 0.3599
300.50 0.3604
300.60 0.3609
300.70 0.3613
300.80 0.3618
300.90 0.3622
301.00 0.3627
301.10 0.3631
301.20 0.3636
301.30 0.364
301.40 0.3645
301.50 0.3649
301.60 0.3654
301.70 0.3658
301.80 0.3663
301.90 0.3667
302.00 0.3672
302.10 0.3676
302.20 0.3681
302.30 0.3686
302.40 0.369
302.50 0.3695
302.60 0.3699
302.70 0.3704
302.80 0.3709
302.90 0.3713
303.00 0.3718
303.10 0.3722
303.20 0.3727
303.30 0.3731
303.40 0.3736
303.50 0.374
303.60 0.3745
303.70 0.3749
303.80 0.3754
303.90 0.3758
304.00 0.3763
304.10 0.3767
304.20 0.3772
304.30 0.3777
304.40 0.3781
304.50 0.3786
304.60 0.379
304.70 0.3795
304.80 0.38
304.90 0.3804
305.00 0.3809
305.10 0.3813
305.20 0.3818
305.30 0.3822
305.40 0.3827
305.50 0.3832
305.60 0.3836
305.70 0.3841
305.80 0.3845
305.90 0.385
306.00 0.3854
306.10 0.3859
306.20 0.3863
306.30 0.3868
306.40 0.3873
306.50 0.3877
306.60 0.3882
306.70 0.3886
306.80 0.3891
306.90 0.3896
307.00 0.39
307.10 0.3905
307.20 0.3909
307.30 0.3914
307.40 0.3918
307.50 0.3923
307.60 0.3928
307.70 0.3932
307.80 0.3937
307.90 0.3941
308.00 0.3946
308.10 0.395
308.20 0.3955
308.30 0.396
308.40 0.3964
308.50 0.3969
308.60 0.3973
308.70 0.3978
308.80 0.3983
308.90 0.3987
309.00 0.3992
309.10 0.3996
309.20 0.4001
309.30 0.4006
309.40 0.401
309.50 0.4015
309.60 0.4019
309.70 0.4024
309.80 0.4028
309.90 0.4033
310.00 0.4037
310.10 0.4042
310.20 0.4047
310.30 0.4051
310.40 0.4056
310.50 0.4061
310.60 0.4065
310.70 0.407
310.80 0.4074
310.90 0.4079
311.00 0.4084
311.10 0.4088
311.20 0.4093
311.30 0.4097
311.40 0.4102
311.50 0.4107
311.60 0.4111
311.70 0.4116
311.80 0.412
311.90 0.4125
312.00 0.4129
312.10 0.4134
312.20 0.4138
312.30 0.4143
312.40 0.4148
312.50 0.4152
312.60 0.4157
312.70 0.4162
312.80 0.4166
312.90 0.4171
313.00 0.4175
313.10 0.418
313.20 0.4185
313.30 0.4189
313.40 0.4194
313.50 0.4198
313.60 0.4203
313.70 0.4208
313.80 0.4212
313.90 0.4217
314.00 0.4221
314.10 0.4226
314.20 0.4231
314.30 0.4235
314.40 0.424
314.50 0.4244
314.60 0.4249
314.70 0.4254
314.80 0.4258
314.90 0.4263
315.00 0.4268
315.10 0.4272
315.20 0.4277
315.30 0.4281
315.40 0.4286
315.50 0.4291
315.60 0.4295
315.70 0.43
315.80 0.4304
315.90 0.4309
316.00 0.4313
316.10 0.4318
316.20 0.4323
316.30 0.4327
316.40 0.4332
316.50 0.4337
316.60 0.4341
316.70 0.4346
316.80 0.435
316.90 0.4355
317.00 0.436
317.10 0.4364
317.20 0.4369
317.30 0.4373
317.40 0.4378
317.50 0.4383
317.60 0.4387
317.70 0.4392
317.80 0.4396
317.90 0.4401
318.00 0.4405
318.10 0.441
318.20 0.4415
318.30 0.4419
318.40 0.4424
318.50 0.4429
318.60 0.4433
318.70 0.4438
318.80 0.4443
318.90 0.4447
319.00 0.4452
319.10 0.4456
319.20 0.4461
319.30 0.4466
319.40 0.447
319.50 0.4475
319.60 0.4479
319.70 0.4484
319.80 0.4488
319.90 0.4493
320.00 0.4498
320.10 0.4502
320.20 0.4507
320.30 0.4511
320.40 0.4516
320.50 0.4521
320.60 0.4525
320.70 0.453
320.80 0.4535
320.90 0.4539
321.00 0.4544
321.10 0.4548
321.20 0.4553
321.30 0.4558
321.40 0.4562
321.50 0.4567
321.60 0.4571
321.70 0.4576
321.80 0.458
321.90 0.4585
322.00 0.459
322.10 0.4594
322.20 0.4599
322.30 0.4603
322.40 0.4608
322.50 0.4613
322.60 0.4617
322.70 0.4622
322.80 0.4627
322.90 0.4631
323.00 0.4636
323.10 0.464
323.20 0.4645
323.30 0.465
323.40 0.4654
323.50 0.4659
323.60 0.4663
323.70 0.4668
323.80 0.4672
323.90 0.4677
324.00 0.4681
324.10 0.4686
324.20 0.4691
324.30 0.4695
324.40 0.47
324.50 0.4705
324.60 0.4709
324.70 0.4714
324.80 0.4718
324.90 0.4723
325.00 0.4728
325.10 0.4732
325.20 0.4737
325.30 0.4741
325.40 0.4746
325.50 0.4751
325.60 0.4755
325.70 0.476
325.80 0.4764
325.90 0.4769
326.00 0.4773
326.10 0.4778
326.20 0.4783
326.30 0.4787
326.40 0.4792
326.50 0.4796
326.60 0.4801
326.70 0.4806
326.80 0.481
326.90 0.4815
327.00 0.4819
327.10 0.4824
327.20 0.4829
327.30 0.4833
327.40 0.4838
327.50 0.4842
327.60 0.4847
327.70 0.4851
327.80 0.4856
327.90 0.486
328.00 0.4865
328.10 0.487
328.20 0.4874
328.30 0.4879
328.40 0.4883
328.50 0.4888
328.60 0.4893
328.70 0.4897
328.80 0.4902
328.90 0.4906
329.00 0.4911
329.10 0.4916
329.20 0.492
329.30 0.4925
329.40 0.4929
329.50 0.4934
329.60 0.4938
329.70 0.4943
329.80 0.4947
329.90 0.4952
330.00 0.4956
330.10 0.4961
330.20 0.4966
330.30 0.497
330.40 0.4975
330.50 0.4979
330.60 0.4984
330.70 0.4989
330.80 0.4993
330.90 0.4998
331.00 0.5002
331.10 0.5007
331.20 0.5011
331.30 0.5016
331.40 0.5021
331.50 0.5025
331.60 0.503
331.70 0.5034
331.80 0.5039
331.90 0.5043
332.00 0.5048
332.10 0.5052
332.20 0.5057
332.30 0.5061
332.40 0.5066
332.50 0.5071
332.60 0.5075
332.70 0.508
332.80 0.5084
332.90 0.5089
333.00 0.5093
333.10 0.5098
333.20 0.5103
333.30 0.5107
333.40 0.5112
333.50 0.5116
333.60 0.5121
333.70 0.5125
333.80 0.513
333.90 0.5134
334.00 0.5139
334.10 0.5143
334.20 0.5148
334.30 0.5152
334.40 0.5157
334.50 0.5161
334.60 0.5166
334.70 0.5171
334.80 0.5175
334.90 0.518
335.00 0.5184
335.10 0.5189
335.20 0.5193
335.30 0.5198
335.40 0.5202
335.50 0.5207
335.60 0.5211
335.70 0.5216
335.80 0.522
335.90 0.5225
336.00 0.5229
336.10 0.5234
336.20 0.5238
336.30 0.5243
336.40 0.5248
336.50 0.5252
336.60 0.5257
336.70 0.5261
336.80 0.5266
336.90 0.527
337.00 0.5275
337.10 0.5279
337.20 0.5284
337.30 0.5288
337.40 0.5293
337.50 0.5297
337.60 0.5302
337.70 0.5306
337.80 0.5311
337.90 0.5315
338.00 0.532
338.10 0.5324
338.20 0.5329
338.30 0.5333
338.40 0.5338
338.50 0.5342
338.60 0.5347
338.70 0.5351
338.80 0.5356
338.90 0.536
339.00 0.5365
339.10 0.5369
339.20 0.5374
339.30 0.5378
339.40 0.5383
339.50 0.5387
339.60 0.5392
339.70 0.5396
339.80 0.5401
339.90 0.5405
340.00 0.541
340.10 0.5414
340.20 0.5419
340.30 0.5423
340.40 0.5428
340.50 0.5432
340.60 0.5437
340.70 0.5441
340.80 0.5446
340.90 0.545
341.00 0.5455
341.10 0.5459
341.20 0.5464
341.30 0.5468
341.40 0.5473
341.50 0.5477
341.60 0.5481
341.70 0.5486
341.80 0.549
341.90 0.5495
342.00 0.5499
342.10 0.5504
342.20 0.5508
342.30 0.5513
342.40 0.5517
342.50 0.5522
342.60 0.5526
342.70 0.5531
342.80 0.5535
342.90 0.554
343.00 0.5544
343.10 0.5548
343.20 0.5553
343.30 0.5557
343.40 0.5562
343.50 0.5566
343.60 0.5571
343.70 0.5575
343.80 0.558
343.90 0.5584
344.00 0.5588
344.10 0.5593
344.20 0.5597
344.30 0.5602
344.40 0.5606
344.50 0.5611
344.60 0.5615
344.70 0.562
344.80 0.5624
344.90 0.5629
345.00 0.5633
345.10 0.5637
345.20 0.5642
345.30 0.5646
345.40 0.5651
345.50 0.5655
345.60 0.5659
345.70 0.5664
345.80 0.5668
345.90 0.5673
346.00 0.5677
346.10 0.5682
346.20 0.5686
346.30 0.569
346.40 0.5695
346.50 0.5699
346.60 0.5704
346.70 0.5708
346.80 0.5713
346.90 0.5717
347.00 0.5721
347.10 0.5726
347.20 0.573
347.30 0.5735
347.40 0.5739
347.50 0.5743
347.60 0.5748
347.70 0.5752
347.80 0.5757
347.90 0.5761
348.00 0.5765
348.10 0.577
348.20 0.5774
348.30 0.5779
348.40 0.5783
348.50 0.5787
348.60 0.5792
348.70 0.5796
348.80 0.5801
348.90 0.5805
349.00 0.5809
349.10 0.5814
349.20 0.5818
349.30 0.5823
349.40 0.5827
349.50 0.5831
349.60 0.5836
349.70 0.584
349.80 0.5844
349.90 0.5849
350.00 0.5853
350.10 0.5857
350.20 0.5862
350.30 0.5866
350.40 0.5871
350.50 0.5875
350.60 0.5879
350.70 0.5884
350.80 0.5888
350.90 0.5892
351.00 0.5897
351.10 0.5901
351.20 0.5906
351.30 0.591
351.40 0.5914
351.50 0.5919
351.60 0.5923
351.70 0.5927
351.80 0.5932
351.90 0.5936
352.00 0.594
352.10 0.5945
352.20 0.5949
352.30 0.5953
352.40 0.5958
352.50 0.5962
352.60 0.5966
352.70 0.5971
352.80 0.5975
352.90 0.5979
353.00 0.5984
353.10 0.5988
353.20 0.5992
353.30 0.5997
353.40 0.6001
353.50 0.6005
353.60 0.601
353.70 0.6014
353.80 0.6018
353.90 0.6022
354.00 0.6027
354.10 0.6031
354.20 0.6035
354.30 0.604
354.40 0.6044
354.50 0.6048
354.60 0.6053
354.70 0.6057
354.80 0.6061
354.90 0.6066
355.00 0.607
355.10 0.6074
355.20 0.6079
355.30 0.6083
355.40 0.6087
355.50 0.6091
355.60 0.6096
355.70 0.61
355.80 0.6104
355.90 0.6109
356.00 0.6113
356.10 0.6117
356.20 0.6121
356.30 0.6126
356.40 0.613
356.50 0.6134
356.60 0.6139
356.70 0.6143
356.80 0.6147
356.90 0.6152
357.00 0.6156
357.10 0.616
357.20 0.6164
357.30 0.6169
357.40 0.6173
357.50 0.6177
357.60 0.6181
357.70 0.6186
357.80 0.619
357.90 0.6194
358.00 0.6198
358.10 0.6202
358.20 0.6207
358.30 0.6211
358.40 0.6215
358.50 0.622
358.60 0.6224
358.70 0.6228
358.80 0.6232
358.90 0.6237
359.00 0.6241
359.10 0.6245
359.20 0.6249
359.30 0.6254
359.40 0.6258
359.50 0.6262
359.60 0.6266
359.70 0.627
359.80 0.6275
359.90 0.6279
360.00 0.6283
360.10 0.6287
360.20 0.6291
360.30 0.6296
360.40 0.63
360.50 0.6304
360.60 0.6308
360.70 0.6313
360.80 0.6317
360.90 0.6321
361.00 0.6325
361.10 0.6329
361.20 0.6334
361.30 0.6338
361.40 0.6342
361.50 0.6346
361.60 0.635
361.70 0.6355
361.80 0.6359
361.90 0.6363
362.00 0.6367
362.10 0.6371
362.20 0.6375
362.30 0.638
362.40 0.6384
362.50 0.6388
362.60 0.6392
362.70 0.6396
362.80 0.6401
362.90 0.6405
363.00 0.6409
363.10 0.6413
363.20 0.6417
363.30 0.6421
363.40 0.6426
363.50 0.643
363.60 0.6434
363.70 0.6438
363.80 0.6442
363.90 0.6446
364.00 0.6451
364.10 0.6455
364.20 0.6459
364.30 0.6463
364.40 0.6467
364.50 0.6471
364.60 0.6475
364.70 0.648
364.80 0.6484
364.90 0.6488
365.00 0.6492
365.10 0.6496
365.20 0.65
365.30 0.6504
365.40 0.6509
365.50 0.6513
365.60 0.6517
365.70 0.6521
365.80 0.6525
365.90 0.6529
366.00 0.6533
366.10 0.6537
366.20 0.6541
366.30 0.6546
366.40 0.655
366.50 0.6554
366.60 0.6558
366.70 0.6562
366.80 0.6566
366.90 0.657
367.00 0.6574
367.10 0.6579
367.20 0.6583
367.30 0.6587
367.40 0.6591
367.50 0.6595
367.60 0.6599
367.70 0.6603
367.80 0.6607
367.90 0.6611
368.00 0.6615
368.10 0.6619
368.20 0.6623
368.30 0.6628
368.40 0.6632
368.50 0.6636
368.60 0.664
368.70 0.6644
368.80 0.6648
368.90 0.6652
369.00 0.6656
369.10 0.666
369.20 0.6664
369.30 0.6668
369.40 0.6672
369.50 0.6676
369.60 0.6681
369.70 0.6685
369.80 0.6689
369.90 0.6693
370.00 0.6697
370.10 0.6701
370.20 0.6705
370.30 0.6709
370.40 0.6713
370.50 0.6717
370.60 0.6721
370.70 0.6725
370.80 0.6729
370.90 0.6733
371.00 0.6737
371.10 0.6741
371.20 0.6745
371.30 0.6749
371.40 0.6753
371.50 0.6757
371.60 0.6761
371.70 0.6765
371.80 0.6769
371.90 0.6773
372.00 0.6777
372.10 0.6781
372.20 0.6785
372.30 0.6789
372.40 0.6793
372.50 0.6797
372.60 0.6801
372.70 0.6805
372.80 0.6809
372.90 0.6813
373.00 0.6817
373.10 0.6821
373.20 0.6825
373.30 0.6829
373.40 0.6833
373.50 0.6837
373.60 0.6841
373.70 0.6845
373.80 0.6849
373.90 0.6853
374.00 0.6857
374.10 0.6861
374.20 0.6865
374.30 0.6869
374.40 0.6873
374.50 0.6877
374.60 0.6881
374.70 0.6885
374.80 0.6889
374.90 0.6893
375.00 0.6897
375.10 0.6901
375.20 0.6905
375.30 0.6909
375.40 0.6912
375.50 0.6916
375.60 0.692
375.70 0.6924
375.80 0.6928
375.90 0.6932
376.00 0.6936
376.10 0.694
376.20 0.6944
376.30 0.6948
376.40 0.6952
376.50 0.6956
376.60 0.696
376.70 0.6963
376.80 0.6967
376.90 0.6971
377.00 0.6975
377.10 0.6979
377.20 0.6983
377.30 0.6987
377.40 0.6991
377.50 0.6995
377.60 0.6998
377.70 0.7002
377.80 0.7006
377.90 0.701
378.00 0.7014
378.10 0.7018
378.20 0.7022
378.30 0.7026
378.40 0.703
378.50 0.7034
378.60 0.7037
378.70 0.7041
378.80 0.7045
378.90 0.7049
379.00 0.7053
379.10 0.7057
379.20 0.7061
379.30 0.7065
379.40 0.7068
379.50 0.7072
379.60 0.7076
379.70 0.708
379.80 0.7084
379.90 0.7087
380.00 0.7091
380.10 0.7095
380.20 0.7099
380.30 0.7103
380.40 0.7107
380.50 0.7111
380.60 0.7115
380.70 0.7119
380.80 0.7123
380.90 0.7127
381.00 0.7131
381.10 0.7134
381.20 0.7138
381.30 0.7142
381.40 0.7146
381.50 0.715
381.60 0.7153
381.70 0.7157
381.80 0.7161
381.90 0.7165
382.00 0.7169
382.10 0.7173
382.20 0.7176
382.30 0.718
382.40 0.7184
382.50 0.7187
382.60 0.7191
382.70 0.7194
382.80 0.7198
382.90 0.7201
383.00 0.7205
383.10 0.7209
383.20 0.7212
383.30 0.7214
383.40 0.7216
383.50 0.7215
383.60 0.722
383.70 0.7228
383.80 0.7234
383.90 0.7239
384.00 0.7243
384.10 0.7248
384.20 0.7251
384.30 0.7256
384.40 0.7259
384.50 0.7264
384.60 0.7267
384.70 0.7271
384.80 0.7275
384.90 0.7279
385.00 0.7282
385.10 0.7286
385.20 0.729
385.30 0.7294
385.40 0.7298
385.50 0.7301
385.60 0.7305
385.70 0.7309
385.80 0.7313
385.90 0.7317
386.00 0.732
386.10 0.7324
386.20 0.7328
386.30 0.7332
386.40 0.7335
386.50 0.7338
386.60 0.7342
386.70 0.7346
386.80 0.735
386.90 0.7353
387.00 0.7357
387.10 0.7361
387.20 0.7365
387.30 0.7368
387.40 0.7372
387.50 0.7376
387.60 0.7379
387.70 0.7383
387.80 0.7386
387.90 0.739
388.00 0.7393
388.10 0.7397
388.20 0.74
388.30 0.7403
388.40 0.7406
388.50 0.7408
388.60 0.7409
388.70 0.7407
388.80 0.7401
388.90 0.739
389.00 0.7407
389.10 0.7421
389.20 0.7431
389.30 0.7437
389.40 0.7442
389.50 0.7447
389.60 0.7451
389.70 0.7455
389.80 0.7459
389.90 0.7463
390.00 0.7467
390.10 0.7471
390.20 0.7475
390.30 0.7479
390.40 0.7482
390.50 0.7486
390.60 0.7489
390.70 0.7493
390.80 0.7497
390.90 0.7501
391.00 0.7504
391.10 0.7508
391.20 0.7511
391.30 0.7515
391.40 0.7519
391.50 0.7522
391.60 0.7526
391.70 0.7529
391.80 0.7533
391.90 0.7537
392.00 0.754
392.10 0.7544
392.20 0.7547
392.30 0.7551
392.40 0.7555
392.50 0.7559
392.60 0.7562
392.70 0.7565
392.80 0.7569
392.90 0.7573
393.00 0.7576
393.10 0.758
393.20 0.7583
393.30 0.7587
393.40 0.759
393.50 0.7594
393.60 0.7598
393.70 0.7601
393.80 0.7604
393.90 0.7608
394.00 0.7612
394.10 0.7615
394.20 0.7619
394.30 0.7622
394.40 0.7626
394.50 0.7629
394.60 0.7633
394.70 0.7636
394.80 0.764
394.90 0.7644
395.00 0.7647
395.10 0.765
395.20 0.7654
395.30 0.7657
395.40 0.7661
395.50 0.7664
395.60 0.7668
395.70 0.7671
395.80 0.7674
395.90 0.7677
396.00 0.7681
396.10 0.7683
396.20 0.7686
396.30 0.7689
396.40 0.7691
396.50 0.7693
396.60 0.7692
396.70 0.769
396.80 0.7679
396.90 0.7657
397.00 0.7623
397.10 0.7662
397.20 0.7691
397.30 0.771
397.40 0.7719
397.50 0.7727
397.60 0.7733
397.70 0.7737
397.80 0.7742
397.90 0.7746
398.00 0.775
398.10 0.7754
398.20 0.7757
398.30 0.7761
398.40 0.7765
398.50 0.7768
398.60 0.7772
398.70 0.7776
398.80 0.7779
398.90 0.7782
399.00 0.7786
399.10 0.7789
399.20 0.7793
399.30 0.7797
399.40 0.78
399.50 0.7803
399.60 0.7807
399.70 0.781
399.80 0.7814
399.90 0.7817
400.00 0.782
400.10 0.7824
400.20 0.7827
400.30 0.7831
400.40 0.7834
400.50 0.7837
400.60 0.7841
400.70 0.7844
400.80 0.7848
400.90 0.7851
401.00 0.7854
401.10 0.7858
401.20 0.7861
401.30 0.7865
401.40 0.7868
401.50 0.7871
401.60 0.7875
401.70 0.7878
401.80 0.7881
401.90 0.7885
402.00 0.7888
402.10 0.7891
402.20 0.7895
402.30 0.7898
402.40 0.7902
402.50 0.7905
402.60 0.7908
402.70 0.7911
402.80 0.7915
402.90 0.7918
403.00 0.7922
403.10 0.7925
403.20 0.7928
403.30 0.7932
403.40 0.7935
403.50 0.7938
403.60 0.7941
403.70 0.7945
403.80 0.7948
403.90 0.7951
404.00 0.7955
404.10 0.7958
404.20 0.7962
404.30 0.7965
404.40 0.7968
404.50 0.7971
404.60 0.7974
404.70 0.7978
404.80 0.7981
404.90 0.7984
405.00 0.7988
405.10 0.7991
405.20 0.7994
405.30 0.7998
405.40 0.8001
405.50 0.8004
405.60 0.8007
405.70 0.801
405.80 0.8014
405.90 0.8017
406.00 0.802
406.10 0.8023
406.20 0.8027
406.30 0.803
406.40 0.8033
406.50 0.8037
406.60 0.804
406.70 0.8043
406.80 0.8046
406.90 0.805
407.00 0.8052
407.10 0.8056
407.20 0.8059
407.30 0.8062
407.40 0.8065
407.50 0.8068
407.60 0.8072
407.70 0.8075
407.80 0.8078
407.90 0.8081
408.00 0.8085
408.10 0.8088
408.20 0.8091
408.30 0.8094
408.40 0.8097
408.50 0.81
408.60 0.8103
408.70 0.8106
408.80 0.8109
408.90 0.8112
409.00 0.8115
409.10 0.8117
409.20 0.8119
409.30 0.8122
409.40 0.8124
409.50 0.8125
409.60 0.8125
409.70 0.8123
409.80 0.8117
409.90 0.8107
410.00 0.8067
410.10 0.8014
410.20 0.7948
410.30 0.8042
410.40 0.8105
410.50 0.8136
410.60 0.8148
410.70 0.8158
410.80 0.8165
410.90 0.817
411.00 0.8175
411.10 0.8179
411.20 0.8183
411.30 0.8187
411.40 0.8191
411.50 0.8194
411.60 0.8197
411.70 0.82
411.80 0.8204
411.90 0.8207
412.00 0.8211
412.10 0.8214
412.20 0.8217
412.30 0.822
412.40 0.8223
412.50 0.8226
412.60 0.8229
412.70 0.8232
412.80 0.8236
412.90 0.8239
413.00 0.8242
413.10 0.8245
413.20 0.8248
413.30 0.8251
413.40 0.8255
413.50 0.8258
413.60 0.8261
413.70 0.8264
413.80 0.8267
413.90 0.827
414.00 0.8273
414.10 0.8276
414.20 0.8279
414.30 0.8282
414.40 0.8285
414.50 0.8288
414.60 0.8291
414.70 0.8294
414.80 0.8297
414.90 0.83
415.00 0.8304
415.10 0.8307
415.20 0.8309
415.30 0.8312
415.40 0.8316
415.50 0.8319
415.60 0.8322
415.70 0.8325
415.80 0.8328
415.90 0.8331
416.00 0.8334
416.10 0.8337
416.20 0.834
416.30 0.8343
416.40 0.8346
416.50 0.8349
416.60 0.8352
416.70 0.8355
416.80 0.8358
416.90 0.8361
417.00 0.8364
417.10 0.8367
417.20 0.837
417.30 0.8373
417.40 0.8376
417.50 0.8379
417.60 0.8382
417.70 0.8385
417.80 0.8387
417.90 0.8391
418.00 0.8394
418.10 0.8397
418.20 0.8399
418.30 0.8402
418.40 0.8405
418.50 0.8408
418.60 0.8411
418.70 0.8414
418.80 0.8417
418.90 0.842
419.00 0.8423
419.10 0.8426
419.20 0.8429
419.30 0.8432
419.40 0.8435
419.50 0.8438
419.60 0.844
419.70 0.8443
419.80 0.8447
419.90 0.8449
420.00 0.8452
420.10 0.8455
420.20 0.8458
420.30 0.8461
420.40 0.8464
420.50 0.8467
420.60 0.847
420.70 0.8472
420.80 0.8475
420.90 0.8478
421.00 0.8481
421.10 0.8484
421.20 0.8487
421.30 0.849
421.40 0.8493
421.50 0.8496
421.60 0.8498
421.70 0.8501
421.80 0.8504
421.90 0.8507
422.00 0.851
422.10 0.8513
422.20 0.8515
422.30 0.8518
422.40 0.8521
422.50 0.8524
422.60 0.8527
422.70 0.853
422.80 0.8533
422.90 0.8536
423.00 0.8538
423.10 0.8541
423.20 0.8544
423.30 0.8547
423.40 0.855
423.50 0.8552
423.60 0.8555
423.70 0.8558
423.80 0.8561
423.90 0.8564
424.00 0.8567
424.10 0.8569
424.20 0.8572
424.30 0.8575
424.40 0.8578
424.50 0.8581
424.60 0.8583
424.70 0.8586
424.80 0.8589
424.90 0.8592
425.00 0.8594
425.10 0.8597
425.20 0.86
425.30 0.8603
425.40 0.8605
425.50 0.8608
425.60 0.8611
425.70 0.8614
425.80 0.8617
425.90 0.8619
426.00 0.8622
426.10 0.8625
426.20 0.8628
426.30 0.863
426.40 0.8633
426.50 0.8636
426.60 0.8639
426.70 0.8641
426.80 0.8644
426.90 0.8647
427.00 0.8649
427.10 0.8652
427.20 0.8655
427.30 0.8658
427.40 0.866
427.50 0.8663
427.60 0.8666
427.70 0.8669
427.80 0.8671
427.90 0.8674
428.00 0.8677
428.10 0.868
428.20 0.8682
428.30 0.8685
428.40 0.8687
428.50 0.869
428.60 0.8693
428.70 0.8696
428.80 0.8698
428.90 0.8701
429.00 0.8704
429.10 0.8706
429.20 0.8709
429.30 0.8712
429.40 0.8714
429.50 0.8717
429.60 0.872
429.70 0.8723
429.80 0.8725
429.90 0.8727
430.00 0.873
430.10 0.8733
430.20 0.8736
430.30 0.8738
430.40 0.8741
430.50 0.8743
430.60 0.8746
430.70 0.8749
430.80 0.8751
430.90 0.8754
431.00 0.8757
431.10 0.8759
431.20 0.8761
431.30 0.8764
431.40 0.8767
431.50 0.8769
431.60 0.8772
431.70 0.8774
431.80 0.8777
431.90 0.8779
432.00 0.8782
432.10 0.8784
432.20 0.8786
432.30 0.8789
432.40 0.8791
432.50 0.8793
432.60 0.8795
432.70 0.8797
432.80 0.8799
432.90 0.8801
433.00 0.8803
433.10 0.8804
433.20 0.8804
433.30 0.8804
433.40 0.8802
433.50 0.8798
433.60 0.8791
433.70 0.877
433.80 0.8722
433.90 0.8646
434.00 0.8391
434.10 0.8398
434.20 0.8665
434.30 0.874
434.40 0.879
434.50 0.8815
434.60 0.8827
434.70 0.8836
434.80 0.8843
434.90 0.8848
435.00 0.8853
435.10 0.8857
435.20 0.886
435.30 0.8863
435.40 0.8866
435.50 0.887
435.60 0.8873
435.70 0.8876
435.80 0.8878
435.90 0.8881
436.00 0.8884
436.10 0.8886
436.20 0.8889
436.30 0.8892
436.40 0.8895
436.50 0.8897
436.60 0.89
436.70 0.8902
436.80 0.8905
436.90 0.8907
437.00 0.891
437.10 0.8912
437.20 0.8915
437.30 0.8917
437.40 0.892
437.50 0.8922
437.60 0.8925
437.70 0.8927
437.80 0.893
437.90 0.8932
438.00 0.8935
438.10 0.8937
438.20 0.894
438.30 0.8942
438.40 0.8945
438.50 0.8947
438.60 0.895
438.70 0.8952
438.80 0.8955
438.90 0.8957
439.00 0.8959
439.10 0.8962
439.20 0.8964
439.30 0.8967
439.40 0.8969
439.50 0.8972
439.60 0.8974
439.70 0.8977
439.80 0.8979
439.90 0.8981
440.00 0.8984
440.10 0.8986
440.20 0.8989
440.30 0.8991
440.40 0.8993
440.50 0.8996
440.60 0.8998
440.70 0.9001
440.80 0.9003
440.90 0.9005
441.00 0.9008
441.10 0.901
441.20 0.9013
441.30 0.9015
441.40 0.9017
441.50 0.902
441.60 0.9022
441.70 0.9025
441.80 0.9027
441.90 0.9029
442.00 0.9032
442.10 0.9034
442.20 0.9036
442.30 0.9039
442.40 0.9041
442.50 0.9043
442.60 0.9046
442.70 0.9048
442.80 0.905
442.90 0.9053
443.00 0.9055
