# Version 2.1 - nm, norm@500 to 1, cut digits, bergeron_4250_70.dat_4250
# Wavelength(nm)  Flambda(ergs/cm^s/s/nm)
300.00 0.1926
300.10 0.1929
300.20 0.1933
300.30 0.1936
300.40 0.194
300.50 0.1943
300.60 0.1947
300.70 0.195
300.80 0.1954
300.90 0.1957
301.00 0.1961
301.10 0.1964
301.20 0.1968
301.30 0.1971
301.40 0.1975
301.50 0.1978
301.60 0.1981
301.70 0.1985
301.80 0.1988
301.90 0.1992
302.00 0.1995
302.10 0.1999
302.20 0.2002
302.30 0.2006
302.40 0.201
302.50 0.2013
302.60 0.2017
302.70 0.202
302.80 0.2024
302.90 0.2027
303.00 0.2031
303.10 0.2034
303.20 0.2038
303.30 0.2041
303.40 0.2045
303.50 0.2048
303.60 0.2052
303.70 0.2056
303.80 0.2059
303.90 0.2063
304.00 0.2066
304.10 0.207
304.20 0.2073
304.30 0.2077
304.40 0.2081
304.50 0.2084
304.60 0.2088
304.70 0.2091
304.80 0.2095
304.90 0.2099
305.00 0.2102
305.10 0.2106
305.20 0.2109
305.30 0.2113
305.40 0.2117
305.50 0.212
305.60 0.2124
305.70 0.2127
305.80 0.2131
305.90 0.2134
306.00 0.2138
306.10 0.2142
306.20 0.2145
306.30 0.2149
306.40 0.2153
306.50 0.2156
306.60 0.216
306.70 0.2164
306.80 0.2167
306.90 0.2171
307.00 0.2175
307.10 0.2178
307.20 0.2182
307.30 0.2186
307.40 0.2189
307.50 0.2193
307.60 0.2196
307.70 0.22
307.80 0.2204
307.90 0.2207
308.00 0.2211
308.10 0.2215
308.20 0.2218
308.30 0.2222
308.40 0.2226
308.50 0.223
308.60 0.2233
308.70 0.2237
308.80 0.2241
308.90 0.2244
309.00 0.2248
309.10 0.2252
309.20 0.2256
309.30 0.2259
309.40 0.2263
309.50 0.2267
309.60 0.227
309.70 0.2274
309.80 0.2278
309.90 0.2281
310.00 0.2285
310.10 0.2289
310.20 0.2293
310.30 0.2296
310.40 0.23
310.50 0.2304
310.60 0.2308
310.70 0.2312
310.80 0.2315
310.90 0.2319
311.00 0.2323
311.10 0.2327
311.20 0.233
311.30 0.2334
311.40 0.2338
311.50 0.2342
311.60 0.2345
311.70 0.2349
311.80 0.2353
311.90 0.2356
312.00 0.236
312.10 0.2364
312.20 0.2368
312.30 0.2371
312.40 0.2375
312.50 0.2379
312.60 0.2383
312.70 0.2387
312.80 0.2391
312.90 0.2394
313.00 0.2398
313.10 0.2402
313.20 0.2406
313.30 0.241
313.40 0.2413
313.50 0.2417
313.60 0.2421
313.70 0.2425
313.80 0.2429
313.90 0.2432
314.00 0.2436
314.10 0.244
314.20 0.2444
314.30 0.2448
314.40 0.2452
314.50 0.2456
314.60 0.2459
314.70 0.2463
314.80 0.2467
314.90 0.2471
315.00 0.2475
315.10 0.2479
315.20 0.2483
315.30 0.2486
315.40 0.249
315.50 0.2494
315.60 0.2498
315.70 0.2502
315.80 0.2505
315.90 0.2509
316.00 0.2513
316.10 0.2517
316.20 0.2521
316.30 0.2525
316.40 0.2529
316.50 0.2533
316.60 0.2537
316.70 0.2541
316.80 0.2545
316.90 0.2548
317.00 0.2552
317.10 0.2556
317.20 0.256
317.30 0.2564
317.40 0.2568
317.50 0.2572
317.60 0.2576
317.70 0.258
317.80 0.2583
317.90 0.2587
318.00 0.2591
318.10 0.2595
318.20 0.2599
318.30 0.2603
318.40 0.2607
318.50 0.2611
318.60 0.2615
318.70 0.2619
318.80 0.2623
318.90 0.2627
319.00 0.2631
319.10 0.2635
319.20 0.2639
319.30 0.2643
319.40 0.2647
319.50 0.265
319.60 0.2654
319.70 0.2658
319.80 0.2662
319.90 0.2666
320.00 0.267
320.10 0.2674
320.20 0.2678
320.30 0.2682
320.40 0.2686
320.50 0.269
320.60 0.2694
320.70 0.2698
320.80 0.2702
320.90 0.2706
321.00 0.271
321.10 0.2714
321.20 0.2718
321.30 0.2722
321.40 0.2726
321.50 0.273
321.60 0.2734
321.70 0.2738
321.80 0.2742
321.90 0.2746
322.00 0.275
322.10 0.2754
322.20 0.2758
322.30 0.2762
322.40 0.2766
322.50 0.277
322.60 0.2774
322.70 0.2778
322.80 0.2782
322.90 0.2786
323.00 0.279
323.10 0.2794
323.20 0.2798
323.30 0.2802
323.40 0.2806
323.50 0.281
323.60 0.2814
323.70 0.2818
323.80 0.2822
323.90 0.2826
324.00 0.283
324.10 0.2835
324.20 0.2839
324.30 0.2843
324.40 0.2847
324.50 0.2851
324.60 0.2855
324.70 0.2859
324.80 0.2863
324.90 0.2867
325.00 0.2871
325.10 0.2875
325.20 0.2879
325.30 0.2884
325.40 0.2888
325.50 0.2892
325.60 0.2896
325.70 0.29
325.80 0.2904
325.90 0.2908
326.00 0.2912
326.10 0.2916
326.20 0.292
326.30 0.2924
326.40 0.2928
326.50 0.2933
326.60 0.2937
326.70 0.2941
326.80 0.2945
326.90 0.2949
327.00 0.2953
327.10 0.2957
327.20 0.2961
327.30 0.2966
327.40 0.297
327.50 0.2974
327.60 0.2978
327.70 0.2982
327.80 0.2986
327.90 0.299
328.00 0.2994
328.10 0.2998
328.20 0.3002
328.30 0.3007
328.40 0.3011
328.50 0.3015
328.60 0.3019
328.70 0.3023
328.80 0.3027
328.90 0.3032
329.00 0.3036
329.10 0.304
329.20 0.3044
329.30 0.3048
329.40 0.3052
329.50 0.3056
329.60 0.3061
329.70 0.3065
329.80 0.3069
329.90 0.3073
330.00 0.3077
330.10 0.3081
330.20 0.3085
330.30 0.309
330.40 0.3094
330.50 0.3098
330.60 0.3102
330.70 0.3107
330.80 0.3111
330.90 0.3115
331.00 0.3119
331.10 0.3123
331.20 0.3128
331.30 0.3132
331.40 0.3136
331.50 0.314
331.60 0.3144
331.70 0.3148
331.80 0.3152
331.90 0.3157
332.00 0.3161
332.10 0.3165
332.20 0.3169
332.30 0.3174
332.40 0.3178
332.50 0.3182
332.60 0.3186
332.70 0.3191
332.80 0.3195
332.90 0.3199
333.00 0.3203
333.10 0.3207
333.20 0.3212
333.30 0.3216
333.40 0.322
333.50 0.3224
333.60 0.3228
333.70 0.3233
333.80 0.3237
333.90 0.3241
334.00 0.3245
334.10 0.3249
334.20 0.3254
334.30 0.3258
334.40 0.3262
334.50 0.3267
334.60 0.3271
334.70 0.3275
334.80 0.3279
334.90 0.3284
335.00 0.3288
335.10 0.3292
335.20 0.3296
335.30 0.3301
335.40 0.3305
335.50 0.3309
335.60 0.3313
335.70 0.3318
335.80 0.3322
335.90 0.3326
336.00 0.333
336.10 0.3334
336.20 0.3339
336.30 0.3343
336.40 0.3347
336.50 0.3352
336.60 0.3356
336.70 0.336
336.80 0.3365
336.90 0.3369
337.00 0.3373
337.10 0.3378
337.20 0.3382
337.30 0.3386
337.40 0.339
337.50 0.3395
337.60 0.3399
337.70 0.3403
337.80 0.3407
337.90 0.3412
338.00 0.3416
338.10 0.342
338.20 0.3425
338.30 0.3429
338.40 0.3433
338.50 0.3438
338.60 0.3442
338.70 0.3446
338.80 0.3451
338.90 0.3455
339.00 0.3459
339.10 0.3464
339.20 0.3468
339.30 0.3472
339.40 0.3476
339.50 0.3481
339.60 0.3485
339.70 0.3489
339.80 0.3494
339.90 0.3498
340.00 0.3502
340.10 0.3506
340.20 0.3511
340.30 0.3515
340.40 0.352
340.50 0.3524
340.60 0.3528
340.70 0.3533
340.80 0.3537
340.90 0.3541
341.00 0.3546
341.10 0.355
341.20 0.3555
341.30 0.3559
341.40 0.3563
341.50 0.3567
341.60 0.3572
341.70 0.3576
341.80 0.358
341.90 0.3585
342.00 0.3589
342.10 0.3593
342.20 0.3598
342.30 0.3602
342.40 0.3607
342.50 0.3611
342.60 0.3615
342.70 0.362
342.80 0.3624
342.90 0.3629
343.00 0.3633
343.10 0.3637
343.20 0.3642
343.30 0.3646
343.40 0.365
343.50 0.3655
343.60 0.3659
343.70 0.3663
343.80 0.3668
343.90 0.3672
344.00 0.3676
344.10 0.3681
344.20 0.3685
344.30 0.369
344.40 0.3694
344.50 0.3699
344.60 0.3703
344.70 0.3707
344.80 0.3712
344.90 0.3716
345.00 0.3721
345.10 0.3725
345.20 0.3729
345.30 0.3734
345.40 0.3738
345.50 0.3743
345.60 0.3747
345.70 0.3751
345.80 0.3756
345.90 0.376
346.00 0.3764
346.10 0.3769
346.20 0.3773
346.30 0.3778
346.40 0.3782
346.50 0.3787
346.60 0.3791
346.70 0.3795
346.80 0.38
346.90 0.3804
347.00 0.3809
347.10 0.3813
347.20 0.3818
347.30 0.3822
347.40 0.3826
347.50 0.3831
347.60 0.3835
347.70 0.3839
347.80 0.3844
347.90 0.3848
348.00 0.3853
348.10 0.3857
348.20 0.3862
348.30 0.3866
348.40 0.3871
348.50 0.3875
348.60 0.3879
348.70 0.3884
348.80 0.3888
348.90 0.3893
349.00 0.3897
349.10 0.3902
349.20 0.3906
349.30 0.3911
349.40 0.3915
349.50 0.3919
349.60 0.3924
349.70 0.3928
349.80 0.3933
349.90 0.3937
350.00 0.3941
350.10 0.3946
350.20 0.395
350.30 0.3955
350.40 0.3959
350.50 0.3964
350.60 0.3968
350.70 0.3973
350.80 0.3977
350.90 0.3982
351.00 0.3986
351.10 0.3991
351.20 0.3995
351.30 0.4
351.40 0.4004
351.50 0.4009
351.60 0.4013
351.70 0.4017
351.80 0.4022
351.90 0.4026
352.00 0.4031
352.10 0.4035
352.20 0.404
352.30 0.4044
352.40 0.4049
352.50 0.4053
352.60 0.4058
352.70 0.4062
352.80 0.4067
352.90 0.4071
353.00 0.4076
353.10 0.408
353.20 0.4085
353.30 0.4089
353.40 0.4094
353.50 0.4098
353.60 0.4103
353.70 0.4107
353.80 0.4111
353.90 0.4116
354.00 0.412
354.10 0.4125
354.20 0.4129
354.30 0.4134
354.40 0.4138
354.50 0.4143
354.60 0.4148
354.70 0.4152
354.80 0.4157
354.90 0.4161
355.00 0.4166
355.10 0.417
355.20 0.4175
355.30 0.4179
355.40 0.4184
355.50 0.4188
355.60 0.4192
355.70 0.4197
355.80 0.4201
355.90 0.4206
356.00 0.421
356.10 0.4215
356.20 0.4219
356.30 0.4224
356.40 0.4229
356.50 0.4233
356.60 0.4238
356.70 0.4242
356.80 0.4247
356.90 0.4251
357.00 0.4256
357.10 0.426
357.20 0.4265
357.30 0.4269
357.40 0.4274
357.50 0.4278
357.60 0.4283
357.70 0.4287
357.80 0.4292
357.90 0.4296
358.00 0.4301
358.10 0.4305
358.20 0.431
358.30 0.4314
358.40 0.4319
358.50 0.4323
358.60 0.4328
358.70 0.4332
358.80 0.4337
358.90 0.4341
359.00 0.4346
359.10 0.4351
359.20 0.4355
359.30 0.436
359.40 0.4364
359.50 0.4369
359.60 0.4373
359.70 0.4378
359.80 0.4382
359.90 0.4386
360.00 0.4391
360.10 0.4396
360.20 0.44
360.30 0.4405
360.40 0.4409
360.50 0.4414
360.60 0.4418
360.70 0.4423
360.80 0.4428
360.90 0.4432
361.00 0.4437
361.10 0.4441
361.20 0.4446
361.30 0.445
361.40 0.4455
361.50 0.4459
361.60 0.4464
361.70 0.4468
361.80 0.4473
361.90 0.4477
362.00 0.4482
362.10 0.4486
362.20 0.4491
362.30 0.4496
362.40 0.45
362.50 0.4505
362.60 0.4509
362.70 0.4514
362.80 0.4518
362.90 0.4523
363.00 0.4527
363.10 0.4532
363.20 0.4536
363.30 0.4541
363.40 0.4546
363.50 0.455
363.60 0.4555
363.70 0.4559
363.80 0.4564
363.90 0.4568
364.00 0.4573
364.10 0.4577
364.20 0.4582
364.30 0.4587
364.40 0.4591
364.50 0.4596
364.60 0.46
364.70 0.4605
364.80 0.4609
364.90 0.4614
365.00 0.4619
365.10 0.4623
365.20 0.4628
365.30 0.4632
365.40 0.4637
365.50 0.4641
365.60 0.4646
365.70 0.465
365.80 0.4655
365.90 0.4659
366.00 0.4664
366.10 0.4669
366.20 0.4673
366.30 0.4678
366.40 0.4682
366.50 0.4687
366.60 0.4692
366.70 0.4696
366.80 0.4701
366.90 0.4705
367.00 0.471
367.10 0.4715
367.20 0.4719
367.30 0.4724
367.40 0.4728
367.50 0.4733
367.60 0.4737
367.70 0.4742
367.80 0.4746
367.90 0.4751
368.00 0.4755
368.10 0.476
368.20 0.4765
368.30 0.4769
368.40 0.4774
368.50 0.4779
368.60 0.4783
368.70 0.4788
368.80 0.4792
368.90 0.4797
369.00 0.4801
369.10 0.4806
369.20 0.4811
369.30 0.4815
369.40 0.482
369.50 0.4824
369.60 0.4829
369.70 0.4833
369.80 0.4838
369.90 0.4842
370.00 0.4847
370.10 0.4852
370.20 0.4856
370.30 0.4861
370.40 0.4865
370.50 0.487
370.60 0.4875
370.70 0.4879
370.80 0.4884
370.90 0.4888
371.00 0.4893
371.10 0.4898
371.20 0.4902
371.30 0.4907
371.40 0.4911
371.50 0.4916
371.60 0.492
371.70 0.4925
371.80 0.493
371.90 0.4934
372.00 0.4939
372.10 0.4943
372.20 0.4948
372.30 0.4953
372.40 0.4957
372.50 0.4962
372.60 0.4966
372.70 0.4971
372.80 0.4976
372.90 0.498
373.00 0.4985
373.10 0.4989
373.20 0.4994
373.30 0.4999
373.40 0.5003
373.50 0.5008
373.60 0.5012
373.70 0.5017
373.80 0.5021
373.90 0.5026
374.00 0.503
374.10 0.5035
374.20 0.504
374.30 0.5044
374.40 0.5049
374.50 0.5053
374.60 0.5058
374.70 0.5063
374.80 0.5067
374.90 0.5072
375.00 0.5076
375.10 0.5081
375.20 0.5086
375.30 0.509
375.40 0.5095
375.50 0.5099
375.60 0.5104
375.70 0.5108
375.80 0.5113
375.90 0.5117
376.00 0.5122
376.10 0.5127
376.20 0.5131
376.30 0.5136
376.40 0.514
376.50 0.5145
376.60 0.515
376.70 0.5154
376.80 0.5159
376.90 0.5163
377.00 0.5168
377.10 0.5173
377.20 0.5177
377.30 0.5182
377.40 0.5186
377.50 0.5191
377.60 0.5195
377.70 0.52
377.80 0.5205
377.90 0.5209
378.00 0.5214
378.10 0.5218
378.20 0.5223
378.30 0.5227
378.40 0.5232
378.50 0.5237
378.60 0.5241
378.70 0.5246
378.80 0.525
378.90 0.5255
379.00 0.526
379.10 0.5264
379.20 0.5269
379.30 0.5273
379.40 0.5278
379.50 0.5283
379.60 0.5287
379.70 0.5292
379.80 0.5296
379.90 0.5301
380.00 0.5306
380.10 0.531
380.20 0.5315
380.30 0.5319
380.40 0.5324
380.50 0.5329
380.60 0.5333
380.70 0.5338
380.80 0.5342
380.90 0.5347
381.00 0.5351
381.10 0.5356
381.20 0.5361
381.30 0.5365
381.40 0.537
381.50 0.5374
381.60 0.5379
381.70 0.5383
381.80 0.5388
381.90 0.5393
382.00 0.5397
382.10 0.5402
382.20 0.5406
382.30 0.5411
382.40 0.5416
382.50 0.542
382.60 0.5425
382.70 0.5429
382.80 0.5434
382.90 0.5438
383.00 0.5443
383.10 0.5448
383.20 0.5452
383.30 0.5457
383.40 0.5461
383.50 0.5466
383.60 0.547
383.70 0.5475
383.80 0.548
383.90 0.5484
384.00 0.5489
384.10 0.5493
384.20 0.5498
384.30 0.5503
384.40 0.5507
384.50 0.5512
384.60 0.5516
384.70 0.5521
384.80 0.5525
384.90 0.553
385.00 0.5535
385.10 0.5539
385.20 0.5544
385.30 0.5548
385.40 0.5553
385.50 0.5557
385.60 0.5562
385.70 0.5567
385.80 0.5571
385.90 0.5576
386.00 0.558
386.10 0.5585
386.20 0.5589
386.30 0.5594
386.40 0.5599
386.50 0.5603
386.60 0.5608
386.70 0.5612
386.80 0.5617
386.90 0.5621
387.00 0.5626
387.10 0.5631
387.20 0.5635
387.30 0.564
387.40 0.5644
387.50 0.5649
387.60 0.5653
387.70 0.5658
387.80 0.5663
387.90 0.5667
388.00 0.5672
388.10 0.5676
388.20 0.5681
388.30 0.5685
388.40 0.569
388.50 0.5694
388.60 0.5699
388.70 0.5704
388.80 0.5708
388.90 0.5713
389.00 0.5717
389.10 0.5722
389.20 0.5726
389.30 0.5731
389.40 0.5736
389.50 0.574
389.60 0.5745
389.70 0.5749
389.80 0.5754
389.90 0.5758
390.00 0.5763
390.10 0.5767
390.20 0.5772
390.30 0.5777
390.40 0.5781
390.50 0.5786
390.60 0.579
390.70 0.5795
390.80 0.5799
390.90 0.5804
391.00 0.5809
391.10 0.5813
391.20 0.5818
391.30 0.5822
391.40 0.5827
391.50 0.5831
391.60 0.5836
391.70 0.584
391.80 0.5845
391.90 0.5849
392.00 0.5854
392.10 0.5859
392.20 0.5863
392.30 0.5868
392.40 0.5872
392.50 0.5877
392.60 0.5881
392.70 0.5886
392.80 0.589
392.90 0.5895
393.00 0.5899
393.10 0.5904
393.20 0.5909
393.30 0.5913
393.40 0.5918
393.50 0.5922
393.60 0.5927
393.70 0.5931
393.80 0.5936
393.90 0.594
394.00 0.5945
394.10 0.5949
394.20 0.5954
394.30 0.5959
394.40 0.5963
394.50 0.5968
394.60 0.5972
394.70 0.5977
394.80 0.5981
394.90 0.5986
395.00 0.599
395.10 0.5995
395.20 0.5999
395.30 0.6004
395.40 0.6008
395.50 0.6013
395.60 0.6017
395.70 0.6022
395.80 0.6026
395.90 0.6031
396.00 0.6036
396.10 0.604
396.20 0.6045
396.30 0.6049
396.40 0.6054
396.50 0.6058
396.60 0.6063
396.70 0.6067
396.80 0.6072
396.90 0.6076
397.00 0.6081
397.10 0.6085
397.20 0.609
397.30 0.6094
397.40 0.6099
397.50 0.6103
397.60 0.6108
397.70 0.6112
397.80 0.6117
397.90 0.6121
398.00 0.6126
398.10 0.613
398.20 0.6135
398.30 0.6139
398.40 0.6144
398.50 0.6148
398.60 0.6153
398.70 0.6157
398.80 0.6162
398.90 0.6166
399.00 0.6171
399.10 0.6176
399.20 0.618
399.30 0.6185
399.40 0.6189
399.50 0.6194
399.60 0.6198
399.70 0.6203
399.80 0.6207
399.90 0.6212
400.00 0.6216
400.10 0.6221
400.20 0.6225
400.30 0.623
400.40 0.6234
400.50 0.6238
400.60 0.6243
400.70 0.6247
400.80 0.6252
400.90 0.6256
401.00 0.6261
401.10 0.6265
401.20 0.627
401.30 0.6274
401.40 0.6279
401.50 0.6283
401.60 0.6288
401.70 0.6292
401.80 0.6297
401.90 0.6301
402.00 0.6306
402.10 0.631
402.20 0.6315
402.30 0.6319
402.40 0.6324
402.50 0.6328
402.60 0.6333
402.70 0.6337
402.80 0.6342
402.90 0.6346
403.00 0.6351
403.10 0.6355
403.20 0.636
403.30 0.6364
403.40 0.6368
403.50 0.6373
403.60 0.6378
403.70 0.6382
403.80 0.6386
403.90 0.6391
404.00 0.6395
404.10 0.64
404.20 0.6404
404.30 0.6409
404.40 0.6413
404.50 0.6418
404.60 0.6422
404.70 0.6427
404.80 0.6431
404.90 0.6435
405.00 0.644
405.10 0.6444
405.20 0.6449
405.30 0.6453
405.40 0.6458
405.50 0.6462
405.60 0.6467
405.70 0.6471
405.80 0.6476
405.90 0.648
406.00 0.6484
406.10 0.6489
406.20 0.6493
406.30 0.6498
406.40 0.6502
406.50 0.6507
406.60 0.6511
406.70 0.6516
406.80 0.652
406.90 0.6525
407.00 0.6529
407.10 0.6533
407.20 0.6538
407.30 0.6542
407.40 0.6547
407.50 0.6551
407.60 0.6556
407.70 0.656
407.80 0.6565
407.90 0.6569
408.00 0.6573
408.10 0.6578
408.20 0.6582
408.30 0.6587
408.40 0.6591
408.50 0.6596
408.60 0.66
408.70 0.6604
408.80 0.6609
408.90 0.6613
409.00 0.6618
409.10 0.6622
409.20 0.6626
409.30 0.6631
409.40 0.6635
409.50 0.664
409.60 0.6644
409.70 0.6648
409.80 0.6653
409.90 0.6657
410.00 0.6661
410.10 0.6665
410.20 0.6669
410.30 0.6674
410.40 0.6679
410.50 0.6684
410.60 0.6688
410.70 0.6692
410.80 0.6697
410.90 0.6701
411.00 0.6706
411.10 0.671
411.20 0.6715
411.30 0.6719
411.40 0.6723
411.50 0.6728
411.60 0.6732
411.70 0.6737
411.80 0.6741
411.90 0.6745
412.00 0.675
412.10 0.6754
412.20 0.6759
412.30 0.6763
412.40 0.6767
412.50 0.6772
412.60 0.6776
412.70 0.678
412.80 0.6785
412.90 0.6789
413.00 0.6794
413.10 0.6798
413.20 0.6802
413.30 0.6807
413.40 0.6811
413.50 0.6816
413.60 0.682
413.70 0.6824
413.80 0.6829
413.90 0.6833
414.00 0.6837
414.10 0.6842
414.20 0.6846
414.30 0.6851
414.40 0.6855
414.50 0.6859
414.60 0.6864
414.70 0.6868
414.80 0.6872
414.90 0.6877
415.00 0.6881
415.10 0.6885
415.20 0.689
415.30 0.6894
415.40 0.6898
415.50 0.6903
415.60 0.6907
415.70 0.6912
415.80 0.6916
415.90 0.692
416.00 0.6925
416.10 0.6929
416.20 0.6933
416.30 0.6938
416.40 0.6942
416.50 0.6946
416.60 0.6951
416.70 0.6955
416.80 0.6959
416.90 0.6964
417.00 0.6968
417.10 0.6972
417.20 0.6977
417.30 0.6981
417.40 0.6985
417.50 0.699
417.60 0.6994
417.70 0.6998
417.80 0.7003
417.90 0.7007
418.00 0.7011
418.10 0.7016
418.20 0.702
418.30 0.7024
418.40 0.7029
418.50 0.7033
418.60 0.7037
418.70 0.7042
418.80 0.7046
418.90 0.705
419.00 0.7054
419.10 0.7059
419.20 0.7063
419.30 0.7067
419.40 0.7072
419.50 0.7076
419.60 0.708
419.70 0.7085
419.80 0.7089
419.90 0.7093
420.00 0.7098
420.10 0.7102
420.20 0.7106
420.30 0.711
420.40 0.7115
420.50 0.7119
420.60 0.7123
420.70 0.7128
420.80 0.7132
420.90 0.7136
421.00 0.714
421.10 0.7145
421.20 0.7149
421.30 0.7153
421.40 0.7158
421.50 0.7162
421.60 0.7166
421.70 0.717
421.80 0.7175
421.90 0.7179
422.00 0.7183
422.10 0.7188
422.20 0.7192
422.30 0.7196
422.40 0.72
422.50 0.7205
422.60 0.7209
422.70 0.7213
422.80 0.7217
422.90 0.7222
423.00 0.7226
423.10 0.723
423.20 0.7234
423.30 0.7239
423.40 0.7243
423.50 0.7247
423.60 0.7251
423.70 0.7256
423.80 0.726
423.90 0.7264
424.00 0.7268
424.10 0.7273
424.20 0.7277
424.30 0.7281
424.40 0.7285
424.50 0.729
424.60 0.7294
424.70 0.7298
424.80 0.7302
424.90 0.7307
425.00 0.7311
425.10 0.7315
425.20 0.7319
425.30 0.7324
425.40 0.7328
425.50 0.7332
425.60 0.7336
425.70 0.734
425.80 0.7345
425.90 0.7349
426.00 0.7353
426.10 0.7357
426.20 0.7362
426.30 0.7366
426.40 0.737
426.50 0.7374
426.60 0.7378
426.70 0.7383
426.80 0.7387
426.90 0.7391
427.00 0.7395
427.10 0.7399
427.20 0.7404
427.30 0.7408
427.40 0.7412
427.50 0.7416
427.60 0.742
427.70 0.7425
427.80 0.7429
427.90 0.7433
428.00 0.7437
428.10 0.7441
428.20 0.7446
428.30 0.745
428.40 0.7454
428.50 0.7458
428.60 0.7462
428.70 0.7467
428.80 0.7471
428.90 0.7475
429.00 0.7479
429.10 0.7483
429.20 0.7487
429.30 0.7492
429.40 0.7496
429.50 0.75
429.60 0.7504
429.70 0.7508
429.80 0.7512
429.90 0.7517
430.00 0.7521
430.10 0.7525
430.20 0.7529
430.30 0.7533
430.40 0.7537
430.50 0.7542
430.60 0.7546
430.70 0.755
430.80 0.7554
430.90 0.7558
431.00 0.7562
431.10 0.7566
431.20 0.7571
431.30 0.7575
431.40 0.7579
431.50 0.7583
431.60 0.7587
431.70 0.7591
431.80 0.7595
431.90 0.76
432.00 0.7604
432.10 0.7608
432.20 0.7612
432.30 0.7616
432.40 0.762
432.50 0.7624
432.60 0.7628
432.70 0.7633
432.80 0.7637
432.90 0.7641
433.00 0.7645
433.10 0.7649
433.20 0.7653
433.30 0.7657
433.40 0.7661
433.50 0.7665
433.60 0.7669
433.70 0.7673
433.80 0.7676
433.90 0.7679
434.00 0.7681
434.10 0.7685
434.20 0.7691
434.30 0.7696
434.40 0.7701
434.50 0.7706
434.60 0.771
434.70 0.7714
434.80 0.7719
434.90 0.7723
435.00 0.7727
435.10 0.7731
435.20 0.7735
435.30 0.7739
435.40 0.7743
435.50 0.7747
435.60 0.7751
435.70 0.7756
435.80 0.776
435.90 0.7764
436.00 0.7768
436.10 0.7772
436.20 0.7776
436.30 0.778
436.40 0.7784
436.50 0.7788
436.60 0.7792
436.70 0.7796
436.80 0.78
436.90 0.7804
437.00 0.7809
437.10 0.7813
437.20 0.7817
437.30 0.7821
437.40 0.7825
437.50 0.7829
437.60 0.7833
437.70 0.7837
437.80 0.7841
437.90 0.7845
438.00 0.7849
438.10 0.7853
438.20 0.7857
438.30 0.7861
438.40 0.7865
438.50 0.7869
438.60 0.7873
438.70 0.7877
438.80 0.7881
438.90 0.7885
439.00 0.7889
439.10 0.7893
439.20 0.7897
439.30 0.7901
439.40 0.7905
439.50 0.7909
439.60 0.7913
439.70 0.7918
439.80 0.7922
439.90 0.7926
440.00 0.793
440.10 0.7934
440.20 0.7938
440.30 0.7942
440.40 0.7946
440.50 0.795
440.60 0.7954
440.70 0.7958
440.80 0.7962
440.90 0.7966
441.00 0.797
441.10 0.7974
441.20 0.7978
441.30 0.7982
441.40 0.7985
441.50 0.7989
441.60 0.7993
441.70 0.7998
441.80 0.8002
441.90 0.8005
442.00 0.8009
442.10 0.8013
442.20 0.8017
442.30 0.8021
442.40 0.8025
442.50 0.8029
442.60 0.8033
442.70 0.8037
442.80 0.8041
442.90 0.8045
443.00 0.8049
