# Version 2.1 - nm, norm@500 to 1, cut digits, bergeron_12000_85.dat_12000
# Wavelength(nm)  Flambda(ergs/cm^s/s/nm)
300.00 2.027
300.10 2.026
300.20 2.024
300.30 2.023
300.40 2.022
300.50 2.021
300.60 2.019
300.70 2.018
300.80 2.017
300.90 2.016
301.00 2.015
301.10 2.013
301.20 2.012
301.30 2.011
301.40 2.01
301.50 2.009
301.60 2.007
301.70 2.006
301.80 2.005
301.90 2.004
302.00 2.003
302.10 2.001
302.20 2
302.30 1.999
302.40 1.998
302.50 1.997
302.60 1.995
302.70 1.994
302.80 1.993
302.90 1.992
303.00 1.991
303.10 1.99
303.20 1.988
303.30 1.987
303.40 1.986
303.50 1.985
303.60 1.984
303.70 1.982
303.80 1.981
303.90 1.98
304.00 1.979
304.10 1.978
304.20 1.976
304.30 1.975
304.40 1.974
304.50 1.973
304.60 1.972
304.70 1.971
304.80 1.969
304.90 1.968
305.00 1.967
305.10 1.966
305.20 1.965
305.30 1.964
305.40 1.962
305.50 1.961
305.60 1.96
305.70 1.959
305.80 1.958
305.90 1.957
306.00 1.955
306.10 1.954
306.20 1.953
306.30 1.952
306.40 1.951
306.50 1.949
306.60 1.948
306.70 1.947
306.80 1.946
306.90 1.945
307.00 1.944
307.10 1.942
307.20 1.941
307.30 1.94
307.40 1.939
307.50 1.938
307.60 1.937
307.70 1.936
307.80 1.934
307.90 1.933
308.00 1.932
308.10 1.931
308.20 1.93
308.30 1.929
308.40 1.927
308.50 1.926
308.60 1.925
308.70 1.924
308.80 1.923
308.90 1.922
309.00 1.921
309.10 1.919
309.20 1.918
309.30 1.917
309.40 1.916
309.50 1.915
309.60 1.914
309.70 1.913
309.80 1.911
309.90 1.91
310.00 1.909
310.10 1.908
310.20 1.907
310.30 1.906
310.40 1.905
310.50 1.903
310.60 1.902
310.70 1.901
310.80 1.9
310.90 1.899
311.00 1.898
311.10 1.897
311.20 1.895
311.30 1.894
311.40 1.893
311.50 1.892
311.60 1.891
311.70 1.89
311.80 1.889
311.90 1.887
312.00 1.886
312.10 1.885
312.20 1.884
312.30 1.883
312.40 1.882
312.50 1.881
312.60 1.88
312.70 1.878
312.80 1.877
312.90 1.876
313.00 1.875
313.10 1.874
313.20 1.873
313.30 1.872
313.40 1.871
313.50 1.87
313.60 1.868
313.70 1.867
313.80 1.866
313.90 1.865
314.00 1.864
314.10 1.863
314.20 1.862
314.30 1.861
314.40 1.859
314.50 1.858
314.60 1.857
314.70 1.856
314.80 1.855
314.90 1.854
315.00 1.853
315.10 1.852
315.20 1.851
315.30 1.849
315.40 1.848
315.50 1.847
315.60 1.846
315.70 1.845
315.80 1.844
315.90 1.843
316.00 1.842
316.10 1.841
316.20 1.84
316.30 1.838
316.40 1.837
316.50 1.836
316.60 1.835
316.70 1.834
316.80 1.833
316.90 1.832
317.00 1.831
317.10 1.83
317.20 1.829
317.30 1.827
317.40 1.826
317.50 1.825
317.60 1.824
317.70 1.823
317.80 1.822
317.90 1.821
318.00 1.82
318.10 1.819
318.20 1.818
318.30 1.817
318.40 1.815
318.50 1.814
318.60 1.813
318.70 1.812
318.80 1.811
318.90 1.81
319.00 1.809
319.10 1.808
319.20 1.807
319.30 1.806
319.40 1.805
319.50 1.804
319.60 1.802
319.70 1.801
319.80 1.8
319.90 1.799
320.00 1.798
320.10 1.797
320.20 1.796
320.30 1.795
320.40 1.794
320.50 1.793
320.60 1.792
320.70 1.791
320.80 1.79
320.90 1.789
321.00 1.787
321.10 1.786
321.20 1.785
321.30 1.784
321.40 1.783
321.50 1.782
321.60 1.781
321.70 1.78
321.80 1.779
321.90 1.778
322.00 1.777
322.10 1.776
322.20 1.775
322.30 1.774
322.40 1.773
322.50 1.772
322.60 1.77
322.70 1.769
322.80 1.768
322.90 1.767
323.00 1.766
323.10 1.765
323.20 1.764
323.30 1.763
323.40 1.762
323.50 1.761
323.60 1.76
323.70 1.759
323.80 1.758
323.90 1.757
324.00 1.756
324.10 1.755
324.20 1.754
324.30 1.753
324.40 1.752
324.50 1.75
324.60 1.749
324.70 1.748
324.80 1.747
324.90 1.746
325.00 1.745
325.10 1.744
325.20 1.743
325.30 1.742
325.40 1.741
325.50 1.74
325.60 1.739
325.70 1.738
325.80 1.737
325.90 1.736
326.00 1.735
326.10 1.734
326.20 1.733
326.30 1.732
326.40 1.731
326.50 1.73
326.60 1.729
326.70 1.728
326.80 1.727
326.90 1.726
327.00 1.725
327.10 1.724
327.20 1.722
327.30 1.721
327.40 1.72
327.50 1.719
327.60 1.718
327.70 1.717
327.80 1.716
327.90 1.715
328.00 1.714
328.10 1.713
328.20 1.712
328.30 1.711
328.40 1.71
328.50 1.709
328.60 1.708
328.70 1.707
328.80 1.706
328.90 1.705
329.00 1.704
329.10 1.703
329.20 1.702
329.30 1.701
329.40 1.7
329.50 1.699
329.60 1.698
329.70 1.697
329.80 1.696
329.90 1.695
330.00 1.694
330.10 1.693
330.20 1.692
330.30 1.691
330.40 1.69
330.50 1.689
330.60 1.688
330.70 1.687
330.80 1.686
330.90 1.685
331.00 1.684
331.10 1.683
331.20 1.682
331.30 1.681
331.40 1.68
331.50 1.679
331.60 1.678
331.70 1.677
331.80 1.676
331.90 1.675
332.00 1.674
332.10 1.673
332.20 1.672
332.30 1.671
332.40 1.67
332.50 1.669
332.60 1.668
332.70 1.667
332.80 1.666
332.90 1.665
333.00 1.664
333.10 1.663
333.20 1.662
333.30 1.661
333.40 1.66
333.50 1.659
333.60 1.658
333.70 1.657
333.80 1.656
333.90 1.655
334.00 1.654
334.10 1.653
334.20 1.652
334.30 1.651
334.40 1.65
334.50 1.649
334.60 1.648
334.70 1.647
334.80 1.646
334.90 1.645
335.00 1.644
335.10 1.643
335.20 1.642
335.30 1.641
335.40 1.64
335.50 1.639
335.60 1.638
335.70 1.637
335.80 1.636
335.90 1.635
336.00 1.634
336.10 1.634
336.20 1.633
336.30 1.632
336.40 1.631
336.50 1.63
336.60 1.629
336.70 1.628
336.80 1.627
336.90 1.626
337.00 1.625
337.10 1.624
337.20 1.623
337.30 1.622
337.40 1.621
337.50 1.62
337.60 1.619
337.70 1.618
337.80 1.617
337.90 1.616
338.00 1.615
338.10 1.614
338.20 1.613
338.30 1.612
338.40 1.611
338.50 1.61
338.60 1.609
338.70 1.608
338.80 1.608
338.90 1.607
339.00 1.606
339.10 1.605
339.20 1.604
339.30 1.603
339.40 1.602
339.50 1.601
339.60 1.6
339.70 1.599
339.80 1.598
339.90 1.597
340.00 1.596
340.10 1.595
340.20 1.594
340.30 1.593
340.40 1.592
340.50 1.591
340.60 1.59
340.70 1.589
340.80 1.589
340.90 1.588
341.00 1.587
341.10 1.586
341.20 1.585
341.30 1.584
341.40 1.583
341.50 1.582
341.60 1.581
341.70 1.58
341.80 1.579
341.90 1.578
342.00 1.577
342.10 1.576
342.20 1.575
342.30 1.574
342.40 1.574
342.50 1.573
342.60 1.572
342.70 1.571
342.80 1.57
342.90 1.569
343.00 1.568
343.10 1.567
343.20 1.566
343.30 1.565
343.40 1.564
343.50 1.563
343.60 1.562
343.70 1.561
343.80 1.561
343.90 1.56
344.00 1.559
344.10 1.558
344.20 1.557
344.30 1.556
344.40 1.555
344.50 1.554
344.60 1.553
344.70 1.552
344.80 1.551
344.90 1.55
345.00 1.549
345.10 1.549
345.20 1.548
345.30 1.547
345.40 1.546
345.50 1.545
345.60 1.544
345.70 1.543
345.80 1.542
345.90 1.541
346.00 1.54
346.10 1.539
346.20 1.539
346.30 1.538
346.40 1.537
346.50 1.536
346.60 1.535
346.70 1.534
346.80 1.533
346.90 1.532
347.00 1.531
347.10 1.53
347.20 1.529
347.30 1.529
347.40 1.528
347.50 1.527
347.60 1.526
347.70 1.525
347.80 1.524
347.90 1.523
348.00 1.522
348.10 1.521
348.20 1.52
348.30 1.52
348.40 1.519
348.50 1.518
348.60 1.517
348.70 1.516
348.80 1.515
348.90 1.514
349.00 1.513
349.10 1.512
349.20 1.511
349.30 1.511
349.40 1.51
349.50 1.509
349.60 1.508
349.70 1.507
349.80 1.506
349.90 1.505
350.00 1.504
350.10 1.503
350.20 1.503
350.30 1.502
350.40 1.501
350.50 1.5
350.60 1.499
350.70 1.498
350.80 1.497
350.90 1.496
351.00 1.496
351.10 1.495
351.20 1.494
351.30 1.493
351.40 1.492
351.50 1.491
351.60 1.49
351.70 1.489
351.80 1.488
351.90 1.488
352.00 1.487
352.10 1.486
352.20 1.485
352.30 1.484
352.40 1.483
352.50 1.482
352.60 1.481
352.70 1.481
352.80 1.48
352.90 1.479
353.00 1.478
353.10 1.477
353.20 1.476
353.30 1.475
353.40 1.475
353.50 1.474
353.60 1.473
353.70 1.472
353.80 1.471
353.90 1.47
354.00 1.469
354.10 1.468
354.20 1.468
354.30 1.467
354.40 1.466
354.50 1.465
354.60 1.464
354.70 1.463
354.80 1.462
354.90 1.462
355.00 1.461
355.10 1.46
355.20 1.459
355.30 1.458
355.40 1.457
355.50 1.456
355.60 1.456
355.70 1.455
355.80 1.454
355.90 1.453
356.00 1.452
356.10 1.451
356.20 1.45
356.30 1.45
356.40 1.449
356.50 1.448
356.60 1.447
356.70 1.446
356.80 1.445
356.90 1.444
357.00 1.444
357.10 1.443
357.20 1.442
357.30 1.441
357.40 1.44
357.50 1.439
357.60 1.439
357.70 1.438
357.80 1.437
357.90 1.436
358.00 1.435
358.10 1.434
358.20 1.433
358.30 1.433
358.40 1.432
358.50 1.431
358.60 1.43
358.70 1.429
358.80 1.428
358.90 1.428
359.00 1.427
359.10 1.426
359.20 1.425
359.30 1.424
359.40 1.423
359.50 1.423
359.60 1.422
359.70 1.421
359.80 1.42
359.90 1.419
360.00 1.418
360.10 1.418
360.20 1.417
360.30 1.416
360.40 1.415
360.50 1.414
360.60 1.413
360.70 1.413
360.80 1.412
360.90 1.411
361.00 1.41
361.10 1.409
361.20 1.408
361.30 1.408
361.40 1.407
361.50 1.406
361.60 1.405
361.70 1.404
361.80 1.404
361.90 1.403
362.00 1.402
362.10 1.401
362.20 1.4
362.30 1.399
362.40 1.399
362.50 1.398
362.60 1.397
362.70 1.396
362.80 1.395
362.90 1.395
363.00 1.394
363.10 1.393
363.20 1.392
363.30 1.391
363.40 1.39
363.50 1.389
363.60 1.388
363.70 1.387
363.80 1.386
363.90 1.385
364.00 1.384
364.10 1.383
364.20 1.383
364.30 1.382
364.40 1.381
364.50 1.38
364.60 1.379
364.70 1.378
364.80 1.377
364.90 1.376
365.00 1.375
365.10 1.374
365.20 1.373
365.30 1.372
365.40 1.371
365.50 1.37
365.60 1.369
365.70 1.368
365.80 1.367
365.90 1.366
366.00 1.365
366.10 1.364
366.20 1.364
366.30 1.363
366.40 1.362
366.50 1.361
366.60 1.36
366.70 1.359
366.80 1.359
366.90 1.358
367.00 1.357
367.10 1.356
367.20 1.355
367.30 1.354
367.40 1.354
367.50 1.353
367.60 1.352
367.70 1.351
367.80 1.35
367.90 1.349
368.00 1.349
368.10 1.348
368.20 1.347
368.30 1.346
368.40 1.345
368.50 1.345
368.60 1.344
368.70 1.343
368.80 1.342
368.90 1.342
369.00 1.341
369.10 1.34
369.20 1.339
369.30 1.339
369.40 1.338
369.50 1.337
369.60 1.336
369.70 1.336
369.80 1.335
369.90 1.334
370.00 1.333
370.10 1.333
370.20 1.332
370.30 1.332
370.40 1.332
370.50 1.331
370.60 1.331
370.70 1.33
370.80 1.33
370.90 1.329
371.00 1.329
371.10 1.328
371.20 1.328
371.30 1.327
371.40 1.327
371.50 1.327
371.60 1.326
371.70 1.326
371.80 1.325
371.90 1.325
372.00 1.324
372.10 1.324
372.20 1.325
372.30 1.325
372.40 1.325
372.50 1.325
372.60 1.325
372.70 1.325
372.80 1.325
372.90 1.325
373.00 1.325
373.10 1.325
373.20 1.325
373.30 1.325
373.40 1.325
373.50 1.325
373.60 1.326
373.70 1.326
373.80 1.326
373.90 1.326
374.00 1.326
374.10 1.326
374.20 1.327
374.30 1.327
374.40 1.327
374.50 1.328
374.60 1.328
374.70 1.329
374.80 1.329
374.90 1.329
375.00 1.33
375.10 1.33
375.20 1.331
375.30 1.331
375.40 1.331
375.50 1.332
375.60 1.332
375.70 1.332
375.80 1.333
375.90 1.333
376.00 1.334
376.10 1.334
376.20 1.334
376.30 1.334
376.40 1.334
376.50 1.334
376.60 1.334
376.70 1.334
376.80 1.335
376.90 1.335
377.00 1.335
377.10 1.334
377.20 1.333
377.30 1.332
377.40 1.332
377.50 1.331
377.60 1.33
377.70 1.329
377.80 1.328
377.90 1.328
378.00 1.327
378.10 1.323
378.20 1.319
378.30 1.316
378.40 1.312
378.50 1.309
378.60 1.305
378.70 1.301
378.80 1.298
378.90 1.294
379.00 1.29
379.10 1.288
379.20 1.285
379.30 1.283
379.40 1.28
379.50 1.278
379.60 1.275
379.70 1.273
379.80 1.271
379.90 1.268
380.00 1.266
380.10 1.269
380.20 1.273
380.30 1.277
380.40 1.28
380.50 1.284
380.60 1.288
380.70 1.291
380.80 1.295
380.90 1.299
381.00 1.302
381.10 1.303
381.20 1.304
381.30 1.306
381.40 1.307
381.50 1.308
381.60 1.307
381.70 1.306
381.80 1.304
381.90 1.301
382.00 1.298
382.10 1.294
382.20 1.29
382.30 1.28
382.40 1.271
382.50 1.262
382.60 1.253
382.70 1.244
382.80 1.235
382.90 1.226
383.00 1.216
383.10 1.207
383.20 1.198
383.30 1.192
383.40 1.185
383.50 1.177
383.60 1.178
383.70 1.187
383.80 1.195
383.90 1.201
384.00 1.21
384.10 1.222
384.20 1.234
384.30 1.246
384.40 1.257
384.50 1.268
384.60 1.277
384.70 1.286
384.80 1.293
384.90 1.299
385.00 1.304
385.10 1.308
385.20 1.312
385.30 1.315
385.40 1.317
385.50 1.319
385.60 1.32
385.70 1.321
385.80 1.321
385.90 1.321
386.00 1.32
386.10 1.319
386.20 1.318
386.30 1.315
386.40 1.312
386.50 1.309
386.60 1.305
386.70 1.301
386.80 1.296
386.90 1.291
387.00 1.285
387.10 1.278
387.20 1.271
387.30 1.263
387.40 1.254
387.50 1.244
387.60 1.234
387.70 1.222
387.80 1.209
387.90 1.194
388.00 1.178
388.10 1.159
388.20 1.139
388.30 1.117
388.40 1.094
388.50 1.073
388.60 1.053
388.70 1.04
388.80 1.028
388.90 1.018
389.00 1.027
389.10 1.039
389.20 1.052
389.30 1.071
389.40 1.093
389.50 1.117
389.60 1.139
389.70 1.16
389.80 1.18
389.90 1.197
390.00 1.213
390.10 1.228
390.20 1.24
390.30 1.252
390.40 1.263
390.50 1.273
390.60 1.282
390.70 1.291
390.80 1.299
390.90 1.307
391.00 1.314
391.10 1.321
391.20 1.327
391.30 1.332
391.40 1.337
391.50 1.342
391.60 1.346
391.70 1.35
391.80 1.353
391.90 1.356
392.00 1.358
392.10 1.36
392.20 1.361
392.30 1.362
392.40 1.363
392.50 1.363
392.60 1.363
392.70 1.362
392.80 1.361
392.90 1.36
393.00 1.358
393.10 1.355
393.20 1.352
393.30 1.349
393.40 1.345
393.50 1.341
393.60 1.336
393.70 1.331
393.80 1.325
393.90 1.319
394.00 1.313
394.10 1.305
394.20 1.298
394.30 1.289
394.40 1.281
394.50 1.271
394.60 1.261
394.70 1.251
394.80 1.24
394.90 1.228
395.00 1.216
395.10 1.203
395.20 1.189
395.30 1.175
395.40 1.16
395.50 1.144
395.60 1.128
395.70 1.11
395.80 1.093
395.90 1.073
396.00 1.053
396.10 1.031
396.20 1.007
396.30 0.9805
396.40 0.9522
396.50 0.9185
396.60 0.8845
396.70 0.8501
396.80 0.8242
396.90 0.798
397.00 0.7716
397.10 0.7959
397.20 0.8202
397.30 0.8446
397.40 0.8782
397.50 0.9119
397.60 0.9455
397.70 0.9739
397.80 1
397.90 1.025
398.00 1.046
398.10 1.067
398.20 1.086
398.30 1.104
398.40 1.121
398.50 1.138
398.60 1.154
398.70 1.169
398.80 1.184
398.90 1.198
399.00 1.211
399.10 1.224
399.20 1.237
399.30 1.249
399.40 1.26
399.50 1.271
399.60 1.282
399.70 1.292
399.80 1.301
399.90 1.311
400.00 1.319
400.10 1.328
400.20 1.336
400.30 1.344
400.40 1.351
400.50 1.358
400.60 1.365
400.70 1.371
400.80 1.377
400.90 1.383
401.00 1.389
401.10 1.394
401.20 1.399
401.30 1.403
401.40 1.408
401.50 1.412
401.60 1.416
401.70 1.419
401.80 1.422
401.90 1.425
402.00 1.428
402.10 1.431
402.20 1.433
402.30 1.435
402.40 1.437
402.50 1.438
402.60 1.439
402.70 1.441
402.80 1.441
402.90 1.442
403.00 1.442
403.10 1.442
403.20 1.442
403.30 1.442
403.40 1.441
403.50 1.44
403.60 1.439
403.70 1.437
403.80 1.436
403.90 1.434
404.00 1.432
404.10 1.429
404.20 1.427
404.30 1.424
404.40 1.421
404.50 1.417
404.60 1.414
404.70 1.41
404.80 1.406
404.90 1.401
405.00 1.396
405.10 1.391
405.20 1.386
405.30 1.381
405.40 1.375
405.50 1.369
405.60 1.362
405.70 1.356
405.80 1.349
405.90 1.342
406.00 1.334
406.10 1.326
406.20 1.318
406.30 1.31
406.40 1.301
406.50 1.292
406.60 1.283
406.70 1.273
406.80 1.263
406.90 1.252
407.00 1.241
407.10 1.23
407.20 1.218
407.30 1.206
407.40 1.193
407.50 1.181
407.60 1.167
407.70 1.153
407.80 1.139
407.90 1.124
408.00 1.108
408.10 1.093
408.20 1.076
408.30 1.059
408.40 1.042
408.50 1.023
408.60 1.005
408.70 0.986
408.80 0.9664
408.90 0.9465
409.00 0.9261
409.10 0.9048
409.20 0.8829
409.30 0.8605
409.40 0.8362
409.50 0.8105
409.60 0.7833
409.70 0.752
409.80 0.7195
409.90 0.6857
410.00 0.6548
410.10 0.6295
410.20 0.6096
410.30 0.64
410.40 0.6709
410.50 0.7023
410.60 0.7353
410.70 0.7663
410.80 0.7954
410.90 0.8207
411.00 0.8447
411.10 0.8674
411.20 0.8886
411.30 0.9092
411.40 0.9293
411.50 0.9485
411.60 0.9673
411.70 0.9857
411.80 1.003
411.90 1.021
412.00 1.038
412.10 1.054
412.20 1.07
412.30 1.085
412.40 1.099
412.50 1.114
412.60 1.127
412.70 1.141
412.80 1.153
412.90 1.166
413.00 1.178
413.10 1.189
413.20 1.2
413.30 1.211
413.40 1.221
413.50 1.232
413.60 1.241
413.70 1.251
413.80 1.26
413.90 1.268
414.00 1.277
414.10 1.285
414.20 1.293
414.30 1.301
414.40 1.308
414.50 1.315
414.60 1.322
414.70 1.329
414.80 1.336
414.90 1.342
415.00 1.348
415.10 1.354
415.20 1.36
415.30 1.366
415.40 1.371
415.50 1.376
415.60 1.382
415.70 1.386
415.80 1.391
415.90 1.396
416.00 1.4
416.10 1.404
416.20 1.409
416.30 1.412
416.40 1.416
416.50 1.42
416.60 1.423
416.70 1.427
416.80 1.43
416.90 1.433
417.00 1.436
417.10 1.439
417.20 1.441
417.30 1.444
417.40 1.446
417.50 1.449
417.60 1.451
417.70 1.454
417.80 1.456
417.90 1.458
418.00 1.46
418.10 1.462
418.20 1.463
418.30 1.465
418.40 1.467
418.50 1.468
418.60 1.47
418.70 1.471
418.80 1.472
418.90 1.473
419.00 1.475
419.10 1.476
419.20 1.477
419.30 1.477
419.40 1.478
419.50 1.479
419.60 1.48
419.70 1.48
419.80 1.481
419.90 1.481
420.00 1.482
420.10 1.482
420.20 1.482
420.30 1.482
420.40 1.483
420.50 1.483
420.60 1.483
420.70 1.483
420.80 1.483
420.90 1.482
421.00 1.482
421.10 1.482
421.20 1.482
421.30 1.481
421.40 1.481
421.50 1.48
421.60 1.48
421.70 1.479
421.80 1.478
421.90 1.478
422.00 1.477
422.10 1.476
422.20 1.475
422.30 1.474
422.40 1.473
422.50 1.472
422.60 1.471
422.70 1.47
422.80 1.468
422.90 1.467
423.00 1.466
423.10 1.464
423.20 1.463
423.30 1.461
423.40 1.459
423.50 1.458
423.60 1.456
423.70 1.454
423.80 1.452
423.90 1.45
424.00 1.449
424.10 1.446
424.20 1.444
424.30 1.442
424.40 1.44
424.50 1.438
424.60 1.435
424.70 1.433
424.80 1.43
424.90 1.428
425.00 1.425
425.10 1.423
425.20 1.42
425.30 1.417
425.40 1.414
425.50 1.411
425.60 1.408
425.70 1.405
425.80 1.402
425.90 1.398
426.00 1.395
426.10 1.391
426.20 1.387
426.30 1.383
426.40 1.379
426.50 1.376
426.60 1.372
426.70 1.368
426.80 1.364
426.90 1.359
427.00 1.355
427.10 1.351
427.20 1.346
427.30 1.342
427.40 1.337
427.50 1.332
427.60 1.327
427.70 1.322
427.80 1.317
427.90 1.312
428.00 1.306
428.10 1.301
428.20 1.295
428.30 1.289
428.40 1.283
428.50 1.277
428.60 1.271
428.70 1.265
428.80 1.258
428.90 1.251
429.00 1.245
429.10 1.238
429.20 1.23
429.30 1.223
429.40 1.216
429.50 1.208
429.60 1.2
429.70 1.192
429.80 1.184
429.90 1.175
430.00 1.167
430.10 1.158
430.20 1.148
430.30 1.139
430.40 1.13
430.50 1.12
430.60 1.11
430.70 1.099
430.80 1.089
430.90 1.078
431.00 1.067
431.10 1.056
431.20 1.044
431.30 1.032
431.40 1.02
431.50 1.007
431.60 0.9942
431.70 0.9809
431.80 0.9672
431.90 0.9529
432.00 0.9383
432.10 0.9233
432.20 0.9074
432.30 0.8911
432.40 0.8743
432.50 0.8566
432.60 0.8382
432.70 0.8193
432.80 0.7995
432.90 0.7797
433.00 0.7599
433.10 0.7407
433.20 0.7218
433.30 0.7032
433.40 0.6838
433.50 0.6631
433.60 0.6412
433.70 0.614
433.80 0.5837
433.90 0.5502
434.00 0.4992
434.10 0.5001
434.20 0.5527
434.30 0.5854
434.40 0.6149
434.50 0.6412
434.60 0.6624
434.70 0.6824
434.80 0.7011
434.90 0.7191
435.00 0.7373
435.10 0.7557
435.20 0.7748
435.30 0.7938
435.40 0.8126
435.50 0.8306
435.60 0.8479
435.70 0.8646
435.80 0.8803
435.90 0.8955
436.00 0.9103
436.10 0.9242
436.20 0.9377
436.30 0.9508
436.40 0.9632
436.50 0.9753
436.60 0.9871
436.70 0.9984
436.80 1.009
436.90 1.02
437.00 1.03
437.10 1.04
437.20 1.05
437.30 1.06
437.40 1.069
437.50 1.078
437.60 1.086
437.70 1.095
437.80 1.103
437.90 1.111
438.00 1.119
438.10 1.126
438.20 1.133
438.30 1.14
438.40 1.147
438.50 1.154
438.60 1.16
438.70 1.167
438.80 1.173
438.90 1.179
439.00 1.184
439.10 1.19
439.20 1.195
439.30 1.201
439.40 1.206
439.50 1.21
439.60 1.215
439.70 1.22
439.80 1.224
439.90 1.229
440.00 1.233
440.10 1.237
440.20 1.241
440.30 1.245
440.40 1.249
440.50 1.252
440.60 1.256
440.70 1.259
440.80 1.263
440.90 1.266
441.00 1.269
441.10 1.272
441.20 1.275
441.30 1.278
441.40 1.281
441.50 1.283
441.60 1.286
441.70 1.289
441.80 1.291
441.90 1.293
442.00 1.296
442.10 1.298
442.20 1.3
442.30 1.302
442.40 1.304
442.50 1.306
442.60 1.308
442.70 1.31
442.80 1.312
442.90 1.313
443.00 1.315
443.10 1.316
443.20 1.318
443.30 1.319
443.40 1.321
443.50 1.322
443.60 1.324
443.70 1.325
443.80 1.326
443.90 1.327
444.00 1.329
444.10 1.33
444.20 1.331
444.30 1.332
444.40 1.333
444.50 1.334
444.60 1.335
444.70 1.336
444.80 1.336
444.90 1.337
445.00 1.338
445.10 1.339
445.20 1.339
445.30 1.34
445.40 1.341
445.50 1.341
445.60 1.342
445.70 1.342
445.80 1.343
445.90 1.343
446.00 1.344
446.10 1.344
446.20 1.345
446.30 1.345
446.40 1.345
446.50 1.346
446.60 1.346
446.70 1.346
446.80 1.347
446.90 1.347
447.00 1.347
447.10 1.347
447.20 1.348
447.30 1.348
447.40 1.348
447.50 1.348
447.60 1.348
447.70 1.348
447.80 1.348
447.90 1.348
448.00 1.348
448.10 1.348
448.20 1.348
448.30 1.348
448.40 1.348
448.50 1.348
448.60 1.348
448.70 1.348
448.80 1.348
448.90 1.348
449.00 1.348
449.10 1.348
449.20 1.348
449.30 1.347
449.40 1.347
449.50 1.347
449.60 1.347
449.70 1.347
449.80 1.346
449.90 1.346
450.00 1.346
450.10 1.346
450.20 1.345
450.30 1.345
450.40 1.345
450.50 1.345
450.60 1.344
450.70 1.344
450.80 1.344
450.90 1.343
451.00 1.343
451.10 1.343
451.20 1.342
451.30 1.342
451.40 1.341
451.50 1.341
451.60 1.341
451.70 1.34
451.80 1.34
451.90 1.339
452.00 1.339
452.10 1.339
452.20 1.338
452.30 1.338
452.40 1.337
452.50 1.337
452.60 1.336
452.70 1.336
452.80 1.335
452.90 1.335
453.00 1.334
453.10 1.334
453.20 1.333
