# Version 2.1 - nm, norm@500 to 1, cut digits, bergeron_70000_80.dat_70000
# Wavelength(nm)  Flambda(ergs/cm^s/s/nm)
300.00 6.552
300.10 6.544
300.20 6.536
300.30 6.528
300.40 6.52
300.50 6.512
300.60 6.504
300.70 6.496
300.80 6.488
300.90 6.48
301.00 6.472
301.10 6.464
301.20 6.456
301.30 6.448
301.40 6.44
301.50 6.432
301.60 6.425
301.70 6.417
301.80 6.409
301.90 6.401
302.00 6.393
302.10 6.385
302.20 6.377
302.30 6.37
302.40 6.362
302.50 6.354
302.60 6.346
302.70 6.339
302.80 6.331
302.90 6.323
303.00 6.315
303.10 6.308
303.20 6.3
303.30 6.292
303.40 6.285
303.50 6.277
303.60 6.269
303.70 6.262
303.80 6.254
303.90 6.246
304.00 6.239
304.10 6.231
304.20 6.224
304.30 6.216
304.40 6.208
304.50 6.201
304.60 6.193
304.70 6.186
304.80 6.178
304.90 6.171
305.00 6.163
305.10 6.156
305.20 6.148
305.30 6.141
305.40 6.133
305.50 6.126
305.60 6.119
305.70 6.111
305.80 6.104
305.90 6.096
306.00 6.089
306.10 6.082
306.20 6.074
306.30 6.067
306.40 6.06
306.50 6.052
306.60 6.045
306.70 6.038
306.80 6.03
306.90 6.023
307.00 6.016
307.10 6.009
307.20 6.001
307.30 5.994
307.40 5.987
307.50 5.98
307.60 5.972
307.70 5.965
307.80 5.958
307.90 5.951
308.00 5.944
308.10 5.937
308.20 5.929
308.30 5.922
308.40 5.915
308.50 5.908
308.60 5.901
308.70 5.894
308.80 5.887
308.90 5.88
309.00 5.873
309.10 5.866
309.20 5.859
309.30 5.852
309.40 5.845
309.50 5.838
309.60 5.831
309.70 5.824
309.80 5.817
309.90 5.81
310.00 5.803
310.10 5.796
310.20 5.789
310.30 5.782
310.40 5.775
310.50 5.768
310.60 5.761
310.70 5.754
310.80 5.748
310.90 5.741
311.00 5.734
311.10 5.727
311.20 5.72
311.30 5.713
311.40 5.707
311.50 5.7
311.60 5.693
311.70 5.686
311.80 5.68
311.90 5.673
312.00 5.666
312.10 5.659
312.20 5.653
312.30 5.646
312.40 5.639
312.50 5.632
312.60 5.626
312.70 5.619
312.80 5.612
312.90 5.606
313.00 5.599
313.10 5.593
313.20 5.586
313.30 5.579
313.40 5.573
313.50 5.566
313.60 5.56
313.70 5.553
313.80 5.546
313.90 5.54
314.00 5.533
314.10 5.527
314.20 5.52
314.30 5.514
314.40 5.507
314.50 5.501
314.60 5.494
314.70 5.488
314.80 5.481
314.90 5.475
315.00 5.468
315.10 5.462
315.20 5.455
315.30 5.449
315.40 5.443
315.50 5.436
315.60 5.43
315.70 5.423
315.80 5.417
315.90 5.411
316.00 5.404
316.10 5.398
316.20 5.392
316.30 5.385
316.40 5.379
316.50 5.373
316.60 5.366
316.70 5.36
316.80 5.354
316.90 5.348
317.00 5.341
317.10 5.335
317.20 5.329
317.30 5.323
317.40 5.316
317.50 5.31
317.60 5.304
317.70 5.298
317.80 5.292
317.90 5.285
318.00 5.279
318.10 5.273
318.20 5.267
318.30 5.261
318.40 5.255
318.50 5.249
318.60 5.242
318.70 5.236
318.80 5.23
318.90 5.224
319.00 5.218
319.10 5.212
319.20 5.206
319.30 5.2
319.40 5.194
319.50 5.188
319.60 5.182
319.70 5.176
319.80 5.17
319.90 5.164
320.00 5.158
320.10 5.152
320.20 5.146
320.30 5.14
320.40 5.134
320.50 5.128
320.60 5.122
320.70 5.116
320.80 5.11
320.90 5.104
321.00 5.098
321.10 5.092
321.20 5.087
321.30 5.081
321.40 5.075
321.50 5.069
321.60 5.063
321.70 5.057
321.80 5.051
321.90 5.046
322.00 5.04
322.10 5.034
322.20 5.028
322.30 5.022
322.40 5.017
322.50 5.011
322.60 5.005
322.70 4.999
322.80 4.993
322.90 4.988
323.00 4.982
323.10 4.976
323.20 4.971
323.30 4.965
323.40 4.959
323.50 4.953
323.60 4.948
323.70 4.942
323.80 4.936
323.90 4.931
324.00 4.925
324.10 4.919
324.20 4.914
324.30 4.908
324.40 4.903
324.50 4.897
324.60 4.891
324.70 4.886
324.80 4.88
324.90 4.875
325.00 4.869
325.10 4.863
325.20 4.858
325.30 4.852
325.40 4.847
325.50 4.841
325.60 4.836
325.70 4.83
325.80 4.825
325.90 4.819
326.00 4.814
326.10 4.808
326.20 4.803
326.30 4.797
326.40 4.792
326.50 4.786
326.60 4.781
326.70 4.775
326.80 4.77
326.90 4.765
327.00 4.759
327.10 4.754
327.20 4.748
327.30 4.743
327.40 4.738
327.50 4.732
327.60 4.727
327.70 4.721
327.80 4.716
327.90 4.711
328.00 4.705
328.10 4.7
328.20 4.695
328.30 4.689
328.40 4.684
328.50 4.679
328.60 4.673
328.70 4.668
328.80 4.663
328.90 4.658
329.00 4.652
329.10 4.647
329.20 4.642
329.30 4.637
329.40 4.631
329.50 4.626
329.60 4.621
329.70 4.616
329.80 4.611
329.90 4.605
330.00 4.6
330.10 4.595
330.20 4.59
330.30 4.585
330.40 4.579
330.50 4.574
330.60 4.569
330.70 4.564
330.80 4.559
330.90 4.554
331.00 4.549
331.10 4.544
331.20 4.538
331.30 4.533
331.40 4.528
331.50 4.523
331.60 4.518
331.70 4.513
331.80 4.508
331.90 4.503
332.00 4.498
332.10 4.493
332.20 4.488
332.30 4.483
332.40 4.478
332.50 4.473
332.60 4.468
332.70 4.463
332.80 4.458
332.90 4.453
333.00 4.448
333.10 4.443
333.20 4.438
333.30 4.433
333.40 4.428
333.50 4.423
333.60 4.418
333.70 4.413
333.80 4.408
333.90 4.403
334.00 4.398
334.10 4.393
334.20 4.389
334.30 4.384
334.40 4.379
334.50 4.374
334.60 4.369
334.70 4.364
334.80 4.359
334.90 4.355
335.00 4.35
335.10 4.345
335.20 4.34
335.30 4.335
335.40 4.33
335.50 4.326
335.60 4.321
335.70 4.316
335.80 4.311
335.90 4.306
336.00 4.302
336.10 4.297
336.20 4.292
336.30 4.287
336.40 4.283
336.50 4.278
336.60 4.273
336.70 4.269
336.80 4.264
336.90 4.259
337.00 4.254
337.10 4.25
337.20 4.245
337.30 4.24
337.40 4.236
337.50 4.231
337.60 4.226
337.70 4.222
337.80 4.217
337.90 4.212
338.00 4.208
338.10 4.203
338.20 4.198
338.30 4.194
338.40 4.189
338.50 4.185
338.60 4.18
338.70 4.175
338.80 4.171
338.90 4.166
339.00 4.162
339.10 4.157
339.20 4.152
339.30 4.148
339.40 4.143
339.50 4.139
339.60 4.134
339.70 4.13
339.80 4.125
339.90 4.121
340.00 4.116
340.10 4.112
340.20 4.107
340.30 4.103
340.40 4.098
340.50 4.094
340.60 4.089
340.70 4.085
340.80 4.08
340.90 4.076
341.00 4.071
341.10 4.067
341.20 4.062
341.30 4.058
341.40 4.054
341.50 4.049
341.60 4.045
341.70 4.04
341.80 4.036
341.90 4.031
342.00 4.027
342.10 4.023
342.20 4.018
342.30 4.014
342.40 4.01
342.50 4.005
342.60 4.001
342.70 3.997
342.80 3.992
342.90 3.988
343.00 3.984
343.10 3.979
343.20 3.975
343.30 3.971
343.40 3.966
343.50 3.962
343.60 3.958
343.70 3.953
343.80 3.949
343.90 3.945
344.00 3.94
344.10 3.936
344.20 3.932
344.30 3.928
344.40 3.923
344.50 3.919
344.60 3.915
344.70 3.911
344.80 3.907
344.90 3.902
345.00 3.898
345.10 3.894
345.20 3.89
345.30 3.885
345.40 3.881
345.50 3.877
345.60 3.873
345.70 3.869
345.80 3.864
345.90 3.86
346.00 3.856
346.10 3.852
346.20 3.848
346.30 3.844
346.40 3.84
346.50 3.835
346.60 3.831
346.70 3.827
346.80 3.823
346.90 3.819
347.00 3.815
347.10 3.811
347.20 3.807
347.30 3.803
347.40 3.799
347.50 3.794
347.60 3.79
347.70 3.786
347.80 3.782
347.90 3.778
348.00 3.774
348.10 3.77
348.20 3.766
348.30 3.762
348.40 3.758
348.50 3.754
348.60 3.75
348.70 3.746
348.80 3.742
348.90 3.738
349.00 3.734
349.10 3.73
349.20 3.726
349.30 3.722
349.40 3.718
349.50 3.714
349.60 3.71
349.70 3.706
349.80 3.702
349.90 3.698
350.00 3.694
350.10 3.69
350.20 3.686
350.30 3.682
350.40 3.679
350.50 3.675
350.60 3.671
350.70 3.667
350.80 3.663
350.90 3.659
351.00 3.655
351.10 3.651
351.20 3.647
351.30 3.644
351.40 3.64
351.50 3.636
351.60 3.632
351.70 3.628
351.80 3.624
351.90 3.62
352.00 3.616
352.10 3.613
352.20 3.609
352.30 3.605
352.40 3.601
352.50 3.597
352.60 3.594
352.70 3.59
352.80 3.586
352.90 3.582
353.00 3.578
353.10 3.575
353.20 3.571
353.30 3.567
353.40 3.563
353.50 3.56
353.60 3.556
353.70 3.552
353.80 3.548
353.90 3.545
354.00 3.541
354.10 3.537
354.20 3.533
354.30 3.53
354.40 3.526
354.50 3.522
354.60 3.518
354.70 3.515
354.80 3.511
354.90 3.507
355.00 3.504
355.10 3.5
355.20 3.496
355.30 3.493
355.40 3.489
355.50 3.485
355.60 3.482
355.70 3.478
355.80 3.474
355.90 3.471
356.00 3.467
356.10 3.463
356.20 3.46
356.30 3.456
356.40 3.453
356.50 3.449
356.60 3.445
356.70 3.442
356.80 3.438
356.90 3.435
357.00 3.431
357.10 3.427
357.20 3.424
357.30 3.42
357.40 3.417
357.50 3.413
357.60 3.409
357.70 3.406
357.80 3.402
357.90 3.399
358.00 3.395
358.10 3.392
358.20 3.388
358.30 3.385
358.40 3.381
358.50 3.378
358.60 3.374
358.70 3.371
358.80 3.367
358.90 3.364
359.00 3.36
359.10 3.357
359.20 3.353
359.30 3.35
359.40 3.346
359.50 3.343
359.60 3.339
359.70 3.336
359.80 3.332
359.90 3.329
360.00 3.325
360.10 3.322
360.20 3.318
360.30 3.315
360.40 3.311
360.50 3.308
360.60 3.305
360.70 3.301
360.80 3.298
360.90 3.294
361.00 3.291
361.10 3.288
361.20 3.284
361.30 3.281
361.40 3.277
361.50 3.274
361.60 3.271
361.70 3.267
361.80 3.264
361.90 3.26
362.00 3.257
362.10 3.254
362.20 3.25
362.30 3.247
362.40 3.244
362.50 3.24
362.60 3.237
362.70 3.234
362.80 3.23
362.90 3.227
363.00 3.224
363.10 3.22
363.20 3.217
363.30 3.214
363.40 3.21
363.50 3.207
363.60 3.204
363.70 3.201
363.80 3.197
363.90 3.194
364.00 3.191
364.10 3.187
364.20 3.184
364.30 3.181
364.40 3.178
364.50 3.174
364.60 3.171
364.70 3.168
364.80 3.165
364.90 3.161
365.00 3.158
365.10 3.155
365.20 3.152
365.30 3.148
365.40 3.145
365.50 3.142
365.60 3.139
365.70 3.136
365.80 3.132
365.90 3.129
366.00 3.126
366.10 3.123
366.20 3.119
366.30 3.116
366.40 3.113
366.50 3.11
366.60 3.106
366.70 3.103
366.80 3.1
366.90 3.097
367.00 3.094
367.10 3.09
367.20 3.087
367.30 3.084
367.40 3.081
367.50 3.078
367.60 3.074
367.70 3.071
367.80 3.068
367.90 3.065
368.00 3.062
368.10 3.058
368.20 3.055
368.30 3.052
368.40 3.049
368.50 3.046
368.60 3.042
368.70 3.039
368.80 3.036
368.90 3.033
369.00 3.03
369.10 3.027
369.20 3.023
369.30 3.02
369.40 3.017
369.50 3.014
369.60 3.011
369.70 3.008
369.80 3.005
369.90 3.001
370.00 2.998
370.10 2.995
370.20 2.992
370.30 2.989
370.40 2.986
370.50 2.983
370.60 2.98
370.70 2.977
370.80 2.974
370.90 2.971
371.00 2.967
371.10 2.964
371.20 2.961
371.30 2.958
371.40 2.955
371.50 2.952
371.60 2.949
371.70 2.946
371.80 2.943
371.90 2.94
372.00 2.937
372.10 2.934
372.20 2.931
372.30 2.928
372.40 2.925
372.50 2.922
372.60 2.919
372.70 2.916
372.80 2.913
372.90 2.91
373.00 2.907
373.10 2.904
373.20 2.901
373.30 2.898
373.40 2.895
373.50 2.893
373.60 2.89
373.70 2.887
373.80 2.884
373.90 2.881
374.00 2.878
374.10 2.875
374.20 2.872
374.30 2.869
374.40 2.866
374.50 2.863
374.60 2.86
374.70 2.857
374.80 2.855
374.90 2.852
375.00 2.849
375.10 2.846
375.20 2.843
375.30 2.84
375.40 2.837
375.50 2.834
375.60 2.831
375.70 2.829
375.80 2.826
375.90 2.823
376.00 2.82
376.10 2.817
376.20 2.814
376.30 2.812
376.40 2.809
376.50 2.806
376.60 2.803
376.70 2.8
376.80 2.798
376.90 2.795
377.00 2.792
377.10 2.789
377.20 2.786
377.30 2.784
377.40 2.781
377.50 2.778
377.60 2.776
377.70 2.773
377.80 2.77
377.90 2.767
378.00 2.765
378.10 2.762
378.20 2.759
378.30 2.757
378.40 2.754
378.50 2.751
378.60 2.749
378.70 2.746
378.80 2.743
378.90 2.741
379.00 2.738
379.10 2.735
379.20 2.733
379.30 2.73
379.40 2.727
379.50 2.725
379.60 2.722
379.70 2.72
379.80 2.717
379.90 2.714
380.00 2.712
380.10 2.709
380.20 2.707
380.30 2.704
380.40 2.702
380.50 2.699
380.60 2.697
380.70 2.694
380.80 2.692
380.90 2.689
381.00 2.687
381.10 2.684
381.20 2.682
381.30 2.679
381.40 2.677
381.50 2.674
381.60 2.672
381.70 2.669
381.80 2.666
381.90 2.664
382.00 2.661
382.10 2.659
382.20 2.656
382.30 2.654
382.40 2.651
382.50 2.648
382.60 2.646
382.70 2.643
382.80 2.641
382.90 2.638
383.00 2.635
383.10 2.633
383.20 2.63
383.30 2.628
383.40 2.625
383.50 2.623
383.60 2.621
383.70 2.618
383.80 2.616
383.90 2.614
384.00 2.612
384.10 2.61
384.20 2.607
384.30 2.605
384.40 2.603
384.50 2.601
384.60 2.599
384.70 2.597
384.80 2.595
384.90 2.593
385.00 2.59
385.10 2.588
385.20 2.586
385.30 2.584
385.40 2.581
385.50 2.579
385.60 2.577
385.70 2.574
385.80 2.572
385.90 2.569
386.00 2.567
386.10 2.564
386.20 2.562
386.30 2.559
386.40 2.556
386.50 2.554
386.60 2.551
386.70 2.548
386.80 2.545
386.90 2.543
387.00 2.54
387.10 2.537
387.20 2.534
387.30 2.531
387.40 2.528
387.50 2.525
387.60 2.522
387.70 2.519
387.80 2.516
387.90 2.513
388.00 2.51
388.10 2.507
388.20 2.504
388.30 2.501
388.40 2.498
388.50 2.495
388.60 2.492
388.70 2.49
388.80 2.488
388.90 2.486
389.00 2.484
389.10 2.482
389.20 2.48
389.30 2.478
389.40 2.477
389.50 2.476
389.60 2.474
389.70 2.473
389.80 2.472
389.90 2.471
390.00 2.47
390.10 2.469
390.20 2.467
390.30 2.466
390.40 2.465
390.50 2.464
390.60 2.462
390.70 2.461
390.80 2.46
390.90 2.458
391.00 2.457
391.10 2.455
391.20 2.454
391.30 2.452
391.40 2.45
391.50 2.448
391.60 2.447
391.70 2.445
391.80 2.443
391.90 2.441
392.00 2.439
392.10 2.437
392.20 2.435
392.30 2.432
392.40 2.43
392.50 2.428
392.60 2.425
392.70 2.423
392.80 2.42
392.90 2.418
393.00 2.415
393.10 2.412
393.20 2.41
393.30 2.407
393.40 2.404
393.50 2.401
393.60 2.398
393.70 2.394
393.80 2.391
393.90 2.388
394.00 2.384
394.10 2.381
394.20 2.377
394.30 2.374
394.40 2.37
394.50 2.366
394.60 2.362
394.70 2.358
394.80 2.354
394.90 2.35
395.00 2.346
395.10 2.342
395.20 2.337
395.30 2.333
395.40 2.329
395.50 2.324
395.60 2.319
395.70 2.315
395.80 2.31
395.90 2.305
396.00 2.301
396.10 2.296
396.20 2.291
396.30 2.286
396.40 2.281
396.50 2.277
396.60 2.272
396.70 2.268
396.80 2.263
396.90 2.259
397.00 2.256
397.10 2.255
397.20 2.255
397.30 2.256
397.40 2.256
397.50 2.257
397.60 2.258
397.70 2.259
397.80 2.26
397.90 2.261
398.00 2.262
398.10 2.262
398.20 2.263
398.30 2.264
398.40 2.265
398.50 2.266
398.60 2.266
398.70 2.267
398.80 2.267
398.90 2.268
399.00 2.268
399.10 2.268
399.20 2.269
399.30 2.269
399.40 2.269
399.50 2.269
399.60 2.269
399.70 2.269
399.80 2.269
399.90 2.268
400.00 2.268
400.10 2.268
400.20 2.267
400.30 2.267
400.40 2.266
400.50 2.265
400.60 2.265
400.70 2.264
400.80 2.263
400.90 2.262
401.00 2.261
401.10 2.26
401.20 2.259
401.30 2.258
401.40 2.257
401.50 2.255
401.60 2.254
401.70 2.253
401.80 2.251
401.90 2.25
402.00 2.249
402.10 2.247
402.20 2.245
402.30 2.244
402.40 2.242
402.50 2.24
402.60 2.239
402.70 2.237
402.80 2.235
402.90 2.233
403.00 2.231
403.10 2.229
403.20 2.227
403.30 2.225
403.40 2.223
403.50 2.221
403.60 2.219
403.70 2.216
403.80 2.214
403.90 2.212
404.00 2.209
404.10 2.207
404.20 2.204
404.30 2.202
404.40 2.199
404.50 2.197
404.60 2.194
404.70 2.191
404.80 2.188
404.90 2.186
405.00 2.183
405.10 2.18
405.20 2.177
405.30 2.174
405.40 2.17
405.50 2.167
405.60 2.164
405.70 2.16
405.80 2.157
405.90 2.153
406.00 2.15
406.10 2.146
406.20 2.142
406.30 2.139
406.40 2.135
406.50 2.131
406.60 2.127
406.70 2.122
406.80 2.118
406.90 2.114
407.00 2.109
407.10 2.104
407.20 2.1
407.30 2.095
407.40 2.09
407.50 2.085
407.60 2.079
407.70 2.074
407.80 2.069
407.90 2.063
408.00 2.057
408.10 2.051
408.20 2.045
408.30 2.039
408.40 2.033
408.50 2.026
408.60 2.02
408.70 2.013
408.80 2.006
408.90 1.999
409.00 1.992
409.10 1.985
409.20 1.978
409.30 1.971
409.40 1.964
409.50 1.957
409.60 1.95
409.70 1.943
409.80 1.938
409.90 1.933
410.00 1.931
410.10 1.931
410.20 1.932
410.30 1.927
410.40 1.924
410.50 1.924
410.60 1.926
410.70 1.929
410.80 1.932
410.90 1.936
411.00 1.94
411.10 1.943
411.20 1.947
411.30 1.951
411.40 1.954
411.50 1.957
411.60 1.961
411.70 1.964
411.80 1.967
411.90 1.97
412.00 1.972
412.10 1.975
412.20 1.977
412.30 1.98
412.40 1.982
412.50 1.984
412.60 1.986
412.70 1.987
412.80 1.989
412.90 1.991
413.00 1.992
413.10 1.993
413.20 1.994
413.30 1.995
413.40 1.996
413.50 1.997
413.60 1.997
413.70 1.998
413.80 1.998
413.90 1.999
414.00 1.999
414.10 1.999
414.20 1.999
414.30 1.999
414.40 1.999
414.50 1.999
414.60 1.999
414.70 1.999
414.80 1.999
414.90 1.998
415.00 1.998
415.10 1.997
415.20 1.997
415.30 1.996
415.40 1.996
415.50 1.995
415.60 1.994
415.70 1.993
415.80 1.992
415.90 1.992
416.00 1.991
416.10 1.99
416.20 1.989
416.30 1.988
416.40 1.987
416.50 1.986
416.60 1.985
416.70 1.984
416.80 1.982
416.90 1.981
417.00 1.98
417.10 1.979
417.20 1.978
417.30 1.976
417.40 1.975
417.50 1.974
417.60 1.972
417.70 1.971
417.80 1.97
417.90 1.968
418.00 1.967
418.10 1.966
418.20 1.964
418.30 1.963
418.40 1.961
418.50 1.96
418.60 1.958
418.70 1.957
418.80 1.955
418.90 1.954
419.00 1.952
419.10 1.951
419.20 1.949
419.30 1.948
419.40 1.946
419.50 1.945
419.60 1.943
419.70 1.942
419.80 1.94
419.90 1.938
420.00 1.937
420.10 1.935
420.20 1.934
420.30 1.932
420.40 1.93
420.50 1.929
420.60 1.927
420.70 1.925
420.80 1.924
420.90 1.922
421.00 1.92
421.10 1.919
421.20 1.917
421.30 1.915
421.40 1.914
421.50 1.912
421.60 1.91
421.70 1.909
421.80 1.907
421.90 1.905
422.00 1.904
422.10 1.902
422.20 1.9
422.30 1.898
422.40 1.897
422.50 1.895
422.60 1.893
422.70 1.892
422.80 1.89
422.90 1.888
423.00 1.886
423.10 1.885
423.20 1.883
423.30 1.881
423.40 1.879
423.50 1.877
423.60 1.876
423.70 1.874
423.80 1.872
423.90 1.87
424.00 1.868
424.10 1.867
424.20 1.865
424.30 1.863
424.40 1.861
424.50 1.859
424.60 1.857
424.70 1.856
424.80 1.854
424.90 1.852
425.00 1.85
425.10 1.848
425.20 1.846
425.30 1.844
425.40 1.842
425.50 1.84
425.60 1.838
425.70 1.836
425.80 1.835
425.90 1.833
426.00 1.831
426.10 1.829
426.20 1.827
426.30 1.825
426.40 1.822
426.50 1.82
426.60 1.818
426.70 1.816
426.80 1.814
426.90 1.812
427.00 1.81
427.10 1.808
427.20 1.805
427.30 1.803
427.40 1.801
427.50 1.799
427.60 1.796
427.70 1.794
427.80 1.792
427.90 1.789
428.00 1.787
428.10 1.785
428.20 1.782
428.30 1.78
428.40 1.777
428.50 1.774
428.60 1.772
428.70 1.769
428.80 1.766
428.90 1.764
429.00 1.761
429.10 1.758
429.20 1.755
429.30 1.752
429.40 1.749
429.50 1.746
429.60 1.742
429.70 1.739
429.80 1.736
429.90 1.732
430.00 1.729
430.10 1.725
430.20 1.722
430.30 1.718
430.40 1.714
430.50 1.71
430.60 1.706
430.70 1.702
430.80 1.697
430.90 1.693
431.00 1.688
431.10 1.684
431.20 1.679
431.30 1.674
431.40 1.669
431.50 1.664
431.60 1.658
431.70 1.653
431.80 1.647
431.90 1.641
432.00 1.635
432.10 1.629
432.20 1.622
432.30 1.616
432.40 1.609
432.50 1.602
432.60 1.595
432.70 1.588
432.80 1.58
432.90 1.573
433.00 1.565
433.10 1.558
433.20 1.55
433.30 1.543
433.40 1.535
433.50 1.528
433.60 1.521
433.70 1.514
433.80 1.507
433.90 1.5
434.00 1.494
434.10 1.493
434.20 1.497
434.30 1.501
434.40 1.506
434.50 1.51
434.60 1.514
434.70 1.519
434.80 1.524
434.90 1.529
435.00 1.534
435.10 1.539
435.20 1.544
435.30 1.548
435.40 1.553
435.50 1.557
435.60 1.562
435.70 1.566
435.80 1.57
435.90 1.573
436.00 1.577
436.10 1.58
436.20 1.583
436.30 1.586
436.40 1.589
436.50 1.592
436.60 1.594
436.70 1.597
436.80 1.599
436.90 1.601
437.00 1.603
437.10 1.604
437.20 1.606
437.30 1.607
437.40 1.608
437.50 1.61
437.60 1.611
437.70 1.612
437.80 1.612
437.90 1.613
438.00 1.614
438.10 1.614
438.20 1.615
438.30 1.615
438.40 1.615
438.50 1.616
438.60 1.616
438.70 1.616
438.80 1.616
438.90 1.616
439.00 1.616
439.10 1.615
439.20 1.615
439.30 1.615
439.40 1.615
439.50 1.614
439.60 1.614
439.70 1.613
439.80 1.613
439.90 1.612
440.00 1.612
440.10 1.611
440.20 1.61
440.30 1.61
440.40 1.609
440.50 1.608
440.60 1.608
440.70 1.607
440.80 1.606
440.90 1.605
441.00 1.604
441.10 1.603
441.20 1.602
441.30 1.602
441.40 1.601
441.50 1.6
441.60 1.599
441.70 1.598
441.80 1.597
441.90 1.596
442.00 1.595
442.10 1.594
442.20 1.593
442.30 1.592
442.40 1.591
442.50 1.589
442.60 1.588
442.70 1.587
442.80 1.586
442.90 1.585
443.00 1.584
443.10 1.583
443.20 1.582
443.30 1.58
443.40 1.579
443.50 1.578
443.60 1.577
443.70 1.576
443.80 1.575
443.90 1.574
444.00 1.572
444.10 1.571
444.20 1.57
444.30 1.569
444.40 1.568
444.50 1.566
444.60 1.565
444.70 1.564
444.80 1.563
444.90 1.562
445.00 1.56
445.10 1.559
445.20 1.558
445.30 1.557
445.40 1.555
445.50 1.554
445.60 1.553
445.70 1.552
445.80 1.55
445.90 1.549
446.00 1.548
446.10 1.547
446.20 1.546
446.30 1.544
446.40 1.543
446.50 1.542
446.60 1.541
446.70 1.539
446.80 1.538
446.90 1.537
447.00 1.536
447.10 1.534
447.20 1.533
447.30 1.532
447.40 1.531
447.50 1.529
447.60 1.528
447.70 1.527
447.80 1.526
447.90 1.524
448.00 1.523
448.10 1.522
448.20 1.521
448.30 1.519
448.40 1.518
448.50 1.517
448.60 1.516
448.70 1.514
448.80 1.513
448.90 1.512
449.00 1.511
449.10 1.509
449.20 1.508
449.30 1.507
449.40 1.506
449.50 1.504
449.60 1.503
449.70 1.502
449.80 1.501
449.90 1.499
450.00 1.498
450.10 1.497
450.20 1.496
450.30 1.494
450.40 1.493
450.50 1.492
450.60 1.491
450.70 1.489
450.80 1.488
450.90 1.487
451.00 1.486
451.10 1.484
451.20 1.483
451.30 1.482
451.40 1.481
451.50 1.48
451.60 1.478
451.70 1.477
451.80 1.476
451.90 1.475
452.00 1.473
452.10 1.472
452.20 1.471
452.30 1.47
452.40 1.468
452.50 1.467
452.60 1.466
452.70 1.465
452.80 1.464
452.90 1.462
453.00 1.461
453.10 1.46
453.20 1.459
453.30 1.457
453.40 1.456
453.50 1.455
453.60 1.454
453.70 1.453
453.80 1.451
453.90 1.45
454.00 1.449
