# Version 2.1 - nm, norm@500 to 1, cut digits, bergeron_7000_90.dat_7000
# Wavelength(nm)  Flambda(ergs/cm^s/s/nm)
300.00 1.067
300.10 1.067
300.20 1.068
300.30 1.068
300.40 1.068
300.50 1.069
300.60 1.069
300.70 1.069
300.80 1.07
300.90 1.07
301.00 1.07
301.10 1.071
301.20 1.071
301.30 1.071
301.40 1.072
301.50 1.072
301.60 1.072
301.70 1.073
301.80 1.073
301.90 1.073
302.00 1.074
302.10 1.074
302.20 1.074
302.30 1.075
302.40 1.075
302.50 1.075
302.60 1.076
302.70 1.076
302.80 1.076
302.90 1.077
303.00 1.077
303.10 1.077
303.20 1.078
303.30 1.078
303.40 1.078
303.50 1.079
303.60 1.079
303.70 1.079
303.80 1.08
303.90 1.08
304.00 1.08
304.10 1.08
304.20 1.081
304.30 1.081
304.40 1.081
304.50 1.082
304.60 1.082
304.70 1.082
304.80 1.083
304.90 1.083
305.00 1.083
305.10 1.084
305.20 1.084
305.30 1.084
305.40 1.084
305.50 1.085
305.60 1.085
305.70 1.085
305.80 1.086
305.90 1.086
306.00 1.086
306.10 1.087
306.20 1.087
306.30 1.087
306.40 1.087
306.50 1.088
306.60 1.088
306.70 1.088
306.80 1.089
306.90 1.089
307.00 1.089
307.10 1.09
307.20 1.09
307.30 1.09
307.40 1.09
307.50 1.091
307.60 1.091
307.70 1.091
307.80 1.092
307.90 1.092
308.00 1.092
308.10 1.092
308.20 1.093
308.30 1.093
308.40 1.093
308.50 1.094
308.60 1.094
308.70 1.094
308.80 1.094
308.90 1.095
309.00 1.095
309.10 1.095
309.20 1.096
309.30 1.096
309.40 1.096
309.50 1.096
309.60 1.097
309.70 1.097
309.80 1.097
309.90 1.098
310.00 1.098
310.10 1.098
310.20 1.098
310.30 1.099
310.40 1.099
310.50 1.099
310.60 1.099
310.70 1.1
310.80 1.1
310.90 1.1
311.00 1.101
311.10 1.101
311.20 1.101
311.30 1.101
311.40 1.102
311.50 1.102
311.60 1.102
311.70 1.102
311.80 1.103
311.90 1.103
312.00 1.103
312.10 1.104
312.20 1.104
312.30 1.104
312.40 1.104
312.50 1.105
312.60 1.105
312.70 1.105
312.80 1.105
312.90 1.106
313.00 1.106
313.10 1.106
313.20 1.106
313.30 1.107
313.40 1.107
313.50 1.107
313.60 1.107
313.70 1.108
313.80 1.108
313.90 1.108
314.00 1.108
314.10 1.109
314.20 1.109
314.30 1.109
314.40 1.109
314.50 1.11
314.60 1.11
314.70 1.11
314.80 1.11
314.90 1.111
315.00 1.111
315.10 1.111
315.20 1.111
315.30 1.112
315.40 1.112
315.50 1.112
315.60 1.112
315.70 1.113
315.80 1.113
315.90 1.113
316.00 1.113
316.10 1.114
316.20 1.114
316.30 1.114
316.40 1.114
316.50 1.115
316.60 1.115
316.70 1.115
316.80 1.115
316.90 1.116
317.00 1.116
317.10 1.116
317.20 1.116
317.30 1.117
317.40 1.117
317.50 1.117
317.60 1.117
317.70 1.117
317.80 1.118
317.90 1.118
318.00 1.118
318.10 1.118
318.20 1.119
318.30 1.119
318.40 1.119
318.50 1.119
318.60 1.12
318.70 1.12
318.80 1.12
318.90 1.12
319.00 1.12
319.10 1.121
319.20 1.121
319.30 1.121
319.40 1.121
319.50 1.122
319.60 1.122
319.70 1.122
319.80 1.122
319.90 1.122
320.00 1.123
320.10 1.123
320.20 1.123
320.30 1.123
320.40 1.124
320.50 1.124
320.60 1.124
320.70 1.124
320.80 1.124
320.90 1.125
321.00 1.125
321.10 1.125
321.20 1.125
321.30 1.125
321.40 1.126
321.50 1.126
321.60 1.126
321.70 1.126
321.80 1.127
321.90 1.127
322.00 1.127
322.10 1.127
322.20 1.127
322.30 1.128
322.40 1.128
322.50 1.128
322.60 1.128
322.70 1.128
322.80 1.129
322.90 1.129
323.00 1.129
323.10 1.129
323.20 1.129
323.30 1.13
323.40 1.13
323.50 1.13
323.60 1.13
323.70 1.13
323.80 1.131
323.90 1.131
324.00 1.131
324.10 1.131
324.20 1.131
324.30 1.132
324.40 1.132
324.50 1.132
324.60 1.132
324.70 1.132
324.80 1.133
324.90 1.133
325.00 1.133
325.10 1.133
325.20 1.133
325.30 1.134
325.40 1.134
325.50 1.134
325.60 1.134
325.70 1.134
325.80 1.135
325.90 1.135
326.00 1.135
326.10 1.135
326.20 1.135
326.30 1.135
326.40 1.136
326.50 1.136
326.60 1.136
326.70 1.136
326.80 1.136
326.90 1.137
327.00 1.137
327.10 1.137
327.20 1.137
327.30 1.137
327.40 1.137
327.50 1.138
327.60 1.138
327.70 1.138
327.80 1.138
327.90 1.138
328.00 1.139
328.10 1.139
328.20 1.139
328.30 1.139
328.40 1.139
328.50 1.139
328.60 1.14
328.70 1.14
328.80 1.14
328.90 1.14
329.00 1.14
329.10 1.14
329.20 1.141
329.30 1.141
329.40 1.141
329.50 1.141
329.60 1.141
329.70 1.141
329.80 1.142
329.90 1.142
330.00 1.142
330.10 1.142
330.20 1.142
330.30 1.142
330.40 1.143
330.50 1.143
330.60 1.143
330.70 1.143
330.80 1.143
330.90 1.143
331.00 1.144
331.10 1.144
331.20 1.144
331.30 1.144
331.40 1.144
331.50 1.144
331.60 1.145
331.70 1.145
331.80 1.145
331.90 1.145
332.00 1.145
332.10 1.145
332.20 1.146
332.30 1.146
332.40 1.146
332.50 1.146
332.60 1.146
332.70 1.146
332.80 1.146
332.90 1.147
333.00 1.147
333.10 1.147
333.20 1.147
333.30 1.147
333.40 1.147
333.50 1.147
333.60 1.148
333.70 1.148
333.80 1.148
333.90 1.148
334.00 1.148
334.10 1.148
334.20 1.149
334.30 1.149
334.40 1.149
334.50 1.149
334.60 1.149
334.70 1.149
334.80 1.149
334.90 1.15
335.00 1.15
335.10 1.15
335.20 1.15
335.30 1.15
335.40 1.15
335.50 1.15
335.60 1.151
335.70 1.151
335.80 1.151
335.90 1.151
336.00 1.151
336.10 1.151
336.20 1.151
336.30 1.151
336.40 1.152
336.50 1.152
336.60 1.152
336.70 1.152
336.80 1.152
336.90 1.152
337.00 1.152
337.10 1.153
337.20 1.153
337.30 1.153
337.40 1.153
337.50 1.153
337.60 1.153
337.70 1.153
337.80 1.153
337.90 1.154
338.00 1.154
338.10 1.154
338.20 1.154
338.30 1.154
338.40 1.154
338.50 1.154
338.60 1.154
338.70 1.155
338.80 1.155
338.90 1.155
339.00 1.155
339.10 1.155
339.20 1.155
339.30 1.155
339.40 1.155
339.50 1.156
339.60 1.156
339.70 1.156
339.80 1.156
339.90 1.156
340.00 1.156
340.10 1.156
340.20 1.156
340.30 1.156
340.40 1.157
340.50 1.157
340.60 1.157
340.70 1.157
340.80 1.157
340.90 1.157
341.00 1.157
341.10 1.157
341.20 1.158
341.30 1.158
341.40 1.158
341.50 1.158
341.60 1.158
341.70 1.158
341.80 1.158
341.90 1.158
342.00 1.158
342.10 1.158
342.20 1.159
342.30 1.159
342.40 1.159
342.50 1.159
342.60 1.159
342.70 1.159
342.80 1.159
342.90 1.159
343.00 1.159
343.10 1.16
343.20 1.16
343.30 1.16
343.40 1.16
343.50 1.16
343.60 1.16
343.70 1.16
343.80 1.16
343.90 1.16
344.00 1.16
344.10 1.161
344.20 1.161
344.30 1.161
344.40 1.161
344.50 1.161
344.60 1.161
344.70 1.161
344.80 1.161
344.90 1.161
345.00 1.161
345.10 1.162
345.20 1.162
345.30 1.162
345.40 1.162
345.50 1.162
345.60 1.162
345.70 1.162
345.80 1.162
345.90 1.162
346.00 1.162
346.10 1.162
346.20 1.163
346.30 1.163
346.40 1.163
346.50 1.163
346.60 1.163
346.70 1.163
346.80 1.163
346.90 1.163
347.00 1.163
347.10 1.163
347.20 1.163
347.30 1.163
347.40 1.164
347.50 1.164
347.60 1.164
347.70 1.164
347.80 1.164
347.90 1.164
348.00 1.164
348.10 1.164
348.20 1.164
348.30 1.164
348.40 1.164
348.50 1.164
348.60 1.165
348.70 1.165
348.80 1.165
348.90 1.165
349.00 1.165
349.10 1.165
349.20 1.165
349.30 1.165
349.40 1.165
349.50 1.165
349.60 1.165
349.70 1.165
349.80 1.165
349.90 1.165
350.00 1.166
350.10 1.166
350.20 1.166
350.30 1.166
350.40 1.166
350.50 1.166
350.60 1.166
350.70 1.166
350.80 1.166
350.90 1.166
351.00 1.166
351.10 1.166
351.20 1.166
351.30 1.166
351.40 1.167
351.50 1.167
351.60 1.167
351.70 1.167
351.80 1.167
351.90 1.167
352.00 1.167
352.10 1.167
352.20 1.167
352.30 1.167
352.40 1.167
352.50 1.167
352.60 1.167
352.70 1.167
352.80 1.167
352.90 1.167
353.00 1.168
353.10 1.168
353.20 1.168
353.30 1.168
353.40 1.168
353.50 1.168
353.60 1.168
353.70 1.168
353.80 1.168
353.90 1.168
354.00 1.168
354.10 1.168
354.20 1.168
354.30 1.168
354.40 1.168
354.50 1.168
354.60 1.168
354.70 1.168
354.80 1.169
354.90 1.169
355.00 1.169
355.10 1.169
355.20 1.169
355.30 1.169
355.40 1.169
355.50 1.169
355.60 1.169
355.70 1.169
355.80 1.169
355.90 1.169
356.00 1.169
356.10 1.169
356.20 1.169
356.30 1.169
356.40 1.169
356.50 1.169
356.60 1.169
356.70 1.169
356.80 1.169
356.90 1.17
357.00 1.17
357.10 1.17
357.20 1.17
357.30 1.17
357.40 1.17
357.50 1.17
357.60 1.17
357.70 1.17
357.80 1.17
357.90 1.17
358.00 1.17
358.10 1.17
358.20 1.17
358.30 1.17
358.40 1.17
358.50 1.17
358.60 1.17
358.70 1.17
358.80 1.17
358.90 1.17
359.00 1.17
359.10 1.17
359.20 1.17
359.30 1.17
359.40 1.17
359.50 1.17
359.60 1.171
359.70 1.171
359.80 1.171
359.90 1.171
360.00 1.171
360.10 1.171
360.20 1.171
360.30 1.171
360.40 1.171
360.50 1.171
360.60 1.171
360.70 1.171
360.80 1.171
360.90 1.171
361.00 1.171
361.10 1.171
361.20 1.171
361.30 1.171
361.40 1.171
361.50 1.171
361.60 1.171
361.70 1.171
361.80 1.171
361.90 1.171
362.00 1.171
362.10 1.171
362.20 1.171
362.30 1.171
362.40 1.171
362.50 1.171
362.60 1.171
362.70 1.171
362.80 1.171
362.90 1.171
363.00 1.171
363.10 1.171
363.20 1.171
363.30 1.171
363.40 1.171
363.50 1.171
363.60 1.172
363.70 1.172
363.80 1.172
363.90 1.172
364.00 1.172
364.10 1.172
364.20 1.172
364.30 1.172
364.40 1.172
364.50 1.172
364.60 1.172
364.70 1.172
364.80 1.172
364.90 1.172
365.00 1.172
365.10 1.172
365.20 1.172
365.30 1.172
365.40 1.172
365.50 1.172
365.60 1.172
365.70 1.172
365.80 1.172
365.90 1.172
366.00 1.172
366.10 1.172
366.20 1.172
366.30 1.172
366.40 1.172
366.50 1.172
366.60 1.172
366.70 1.172
366.80 1.172
366.90 1.172
367.00 1.172
367.10 1.172
367.20 1.172
367.30 1.172
367.40 1.172
367.50 1.172
367.60 1.172
367.70 1.172
367.80 1.172
367.90 1.172
368.00 1.172
368.10 1.172
368.20 1.172
368.30 1.172
368.40 1.172
368.50 1.172
368.60 1.172
368.70 1.172
368.80 1.172
368.90 1.172
369.00 1.172
369.10 1.172
369.20 1.172
369.30 1.172
369.40 1.172
369.50 1.172
369.60 1.172
369.70 1.172
369.80 1.172
369.90 1.172
370.00 1.172
370.10 1.172
370.20 1.172
370.30 1.172
370.40 1.172
370.50 1.172
370.60 1.172
370.70 1.172
370.80 1.172
370.90 1.172
371.00 1.172
371.10 1.172
371.20 1.172
371.30 1.172
371.40 1.172
371.50 1.172
371.60 1.172
371.70 1.172
371.80 1.172
371.90 1.172
372.00 1.172
372.10 1.171
372.20 1.171
372.30 1.171
372.40 1.171
372.50 1.171
372.60 1.171
372.70 1.171
372.80 1.171
372.90 1.171
373.00 1.171
373.10 1.171
373.20 1.171
373.30 1.171
373.40 1.171
373.50 1.171
373.60 1.171
373.70 1.171
373.80 1.171
373.90 1.171
374.00 1.171
374.10 1.171
374.20 1.171
374.30 1.171
374.40 1.171
374.50 1.171
374.60 1.171
374.70 1.171
374.80 1.171
374.90 1.171
375.00 1.171
375.10 1.171
375.20 1.171
375.30 1.171
375.40 1.171
375.50 1.171
375.60 1.171
375.70 1.171
375.80 1.171
375.90 1.171
376.00 1.171
376.10 1.171
376.20 1.171
376.30 1.171
376.40 1.171
376.50 1.171
376.60 1.171
376.70 1.171
376.80 1.17
376.90 1.17
377.00 1.17
377.10 1.17
377.20 1.17
377.30 1.17
377.40 1.17
377.50 1.17
377.60 1.17
377.70 1.17
377.80 1.17
377.90 1.17
378.00 1.17
378.10 1.17
378.20 1.17
378.30 1.17
378.40 1.17
378.50 1.17
378.60 1.17
378.70 1.17
378.80 1.17
378.90 1.17
379.00 1.17
379.10 1.17
379.20 1.169
379.30 1.169
379.40 1.169
379.50 1.169
379.60 1.169
379.70 1.169
379.80 1.169
379.90 1.169
380.00 1.169
380.10 1.169
380.20 1.169
380.30 1.169
380.40 1.169
380.50 1.169
380.60 1.169
380.70 1.169
380.80 1.169
380.90 1.169
381.00 1.169
381.10 1.169
381.20 1.169
381.30 1.169
381.40 1.169
381.50 1.169
381.60 1.169
381.70 1.169
381.80 1.169
381.90 1.169
382.00 1.169
382.10 1.169
382.20 1.169
382.30 1.168
382.40 1.168
382.50 1.168
382.60 1.168
382.70 1.168
382.80 1.167
382.90 1.167
383.00 1.167
383.10 1.167
383.20 1.166
383.30 1.166
383.40 1.164
383.50 1.162
383.60 1.163
383.70 1.165
383.80 1.166
383.90 1.167
384.00 1.167
384.10 1.167
384.20 1.168
384.30 1.168
384.40 1.168
384.50 1.168
384.60 1.168
384.70 1.169
384.80 1.169
384.90 1.169
385.00 1.169
385.10 1.169
385.20 1.169
385.30 1.169
385.40 1.169
385.50 1.169
385.60 1.169
385.70 1.169
385.80 1.169
385.90 1.169
386.00 1.169
386.10 1.169
386.20 1.169
386.30 1.169
386.40 1.169
386.50 1.169
386.60 1.169
386.70 1.169
386.80 1.168
386.90 1.168
387.00 1.168
387.10 1.168
387.20 1.168
387.30 1.167
387.40 1.167
387.50 1.167
387.60 1.166
387.70 1.166
387.80 1.165
387.90 1.165
388.00 1.164
388.10 1.163
388.20 1.162
388.30 1.161
388.40 1.16
388.50 1.158
388.60 1.156
388.70 1.154
388.80 1.149
388.90 1.142
389.00 1.149
389.10 1.153
389.20 1.156
389.30 1.158
389.40 1.16
389.50 1.161
389.60 1.162
389.70 1.163
389.80 1.164
389.90 1.165
390.00 1.165
390.10 1.166
390.20 1.167
390.30 1.167
390.40 1.167
390.50 1.168
390.60 1.168
390.70 1.168
390.80 1.168
390.90 1.169
391.00 1.169
391.10 1.169
391.20 1.169
391.30 1.169
391.40 1.169
391.50 1.169
391.60 1.169
391.70 1.169
391.80 1.169
391.90 1.17
392.00 1.17
392.10 1.17
392.20 1.17
392.30 1.17
392.40 1.17
392.50 1.17
392.60 1.17
392.70 1.169
392.80 1.169
392.90 1.169
393.00 1.169
393.10 1.169
393.20 1.169
393.30 1.169
393.40 1.169
393.50 1.169
393.60 1.169
393.70 1.169
393.80 1.168
393.90 1.168
394.00 1.168
394.10 1.168
394.20 1.168
394.30 1.167
394.40 1.167
394.50 1.167
394.60 1.166
394.70 1.166
394.80 1.165
394.90 1.165
395.00 1.164
395.10 1.164
395.20 1.163
395.30 1.162
395.40 1.162
395.50 1.161
395.60 1.16
395.70 1.158
395.80 1.157
395.90 1.155
396.00 1.153
396.10 1.151
396.20 1.149
396.30 1.146
396.40 1.142
396.50 1.138
396.60 1.133
396.70 1.128
396.80 1.121
396.90 1.109
397.00 1.094
397.10 1.108
397.20 1.119
397.30 1.127
397.40 1.132
397.50 1.137
397.60 1.141
397.70 1.145
397.80 1.148
397.90 1.151
398.00 1.153
398.10 1.154
398.20 1.156
398.30 1.157
398.40 1.159
398.50 1.16
398.60 1.16
398.70 1.161
398.80 1.162
398.90 1.163
399.00 1.163
399.10 1.164
399.20 1.164
399.30 1.164
399.40 1.165
399.50 1.165
399.60 1.165
399.70 1.165
399.80 1.166
399.90 1.166
400.00 1.166
400.10 1.166
400.20 1.166
400.30 1.166
400.40 1.167
400.50 1.167
400.60 1.167
400.70 1.167
400.80 1.167
400.90 1.167
401.00 1.167
401.10 1.167
401.20 1.167
401.30 1.167
401.40 1.167
401.50 1.167
401.60 1.167
401.70 1.167
401.80 1.167
401.90 1.167
402.00 1.167
402.10 1.167
402.20 1.167
402.30 1.167
402.40 1.167
402.50 1.167
402.60 1.166
402.70 1.166
402.80 1.166
402.90 1.166
403.00 1.166
403.10 1.166
403.20 1.166
403.30 1.166
403.40 1.166
403.50 1.166
403.60 1.166
403.70 1.166
403.80 1.166
403.90 1.165
404.00 1.165
404.10 1.165
404.20 1.165
404.30 1.165
404.40 1.165
404.50 1.165
404.60 1.165
404.70 1.165
404.80 1.164
404.90 1.164
405.00 1.164
405.10 1.164
405.20 1.164
405.30 1.164
405.40 1.163
405.50 1.163
405.60 1.163
405.70 1.163
405.80 1.163
405.90 1.162
406.00 1.162
406.10 1.162
406.20 1.162
406.30 1.161
406.40 1.161
406.50 1.161
406.60 1.161
406.70 1.16
406.80 1.16
406.90 1.159
407.00 1.159
407.10 1.159
407.20 1.158
407.30 1.157
407.40 1.157
407.50 1.156
407.60 1.156
407.70 1.155
407.80 1.154
407.90 1.153
408.00 1.152
408.10 1.151
408.20 1.15
408.30 1.149
408.40 1.147
408.50 1.145
408.60 1.143
408.70 1.141
408.80 1.139
408.90 1.136
409.00 1.133
409.10 1.129
409.20 1.125
409.30 1.12
409.40 1.113
409.50 1.106
409.60 1.098
409.70 1.086
409.80 1.073
409.90 1.059
410.00 1.039
410.10 1.017
410.20 0.9925
410.30 1.025
410.40 1.05
410.50 1.067
410.60 1.08
410.70 1.092
410.80 1.102
410.90 1.109
411.00 1.116
411.10 1.121
411.20 1.126
411.30 1.129
411.40 1.133
411.50 1.135
411.60 1.138
411.70 1.14
411.80 1.142
411.90 1.143
412.00 1.145
412.10 1.146
412.20 1.147
412.30 1.148
412.40 1.149
412.50 1.149
412.60 1.15
412.70 1.151
412.80 1.151
412.90 1.152
413.00 1.152
413.10 1.152
413.20 1.153
413.30 1.153
413.40 1.153
413.50 1.153
413.60 1.154
413.70 1.154
413.80 1.154
413.90 1.154
414.00 1.154
414.10 1.154
414.20 1.154
414.30 1.154
414.40 1.154
414.50 1.154
414.60 1.154
414.70 1.154
414.80 1.154
414.90 1.154
415.00 1.154
415.10 1.154
415.20 1.154
415.30 1.154
415.40 1.154
415.50 1.154
415.60 1.154
415.70 1.154
415.80 1.154
415.90 1.154
416.00 1.154
416.10 1.154
416.20 1.154
416.30 1.154
416.40 1.154
416.50 1.153
416.60 1.153
416.70 1.153
416.80 1.153
416.90 1.153
417.00 1.153
417.10 1.153
417.20 1.153
417.30 1.153
417.40 1.153
417.50 1.153
417.60 1.153
417.70 1.152
417.80 1.152
417.90 1.152
418.00 1.152
418.10 1.152
418.20 1.152
418.30 1.152
418.40 1.152
418.50 1.152
418.60 1.151
418.70 1.151
418.80 1.151
418.90 1.151
419.00 1.151
419.10 1.151
419.20 1.151
419.30 1.151
419.40 1.151
419.50 1.15
419.60 1.15
419.70 1.15
419.80 1.15
419.90 1.15
420.00 1.15
420.10 1.15
420.20 1.149
420.30 1.149
420.40 1.149
420.50 1.149
420.60 1.149
420.70 1.149
420.80 1.149
420.90 1.149
421.00 1.148
421.10 1.148
421.20 1.148
421.30 1.148
421.40 1.148
421.50 1.148
421.60 1.148
421.70 1.148
421.80 1.147
421.90 1.147
422.00 1.147
422.10 1.147
422.20 1.147
422.30 1.147
422.40 1.147
422.50 1.146
422.60 1.146
422.70 1.146
422.80 1.146
422.90 1.146
423.00 1.146
423.10 1.146
423.20 1.145
423.30 1.145
423.40 1.145
423.50 1.145
423.60 1.145
423.70 1.145
423.80 1.145
423.90 1.144
424.00 1.144
424.10 1.144
424.20 1.144
424.30 1.144
424.40 1.144
424.50 1.143
424.60 1.143
424.70 1.143
424.80 1.143
424.90 1.143
425.00 1.143
425.10 1.143
425.20 1.142
425.30 1.142
425.40 1.142
425.50 1.142
425.60 1.142
425.70 1.142
425.80 1.141
425.90 1.141
426.00 1.141
426.10 1.141
426.20 1.141
426.30 1.14
426.40 1.14
426.50 1.14
426.60 1.14
426.70 1.14
426.80 1.14
426.90 1.139
427.00 1.139
427.10 1.139
427.20 1.139
427.30 1.139
427.40 1.138
427.50 1.138
427.60 1.138
427.70 1.138
427.80 1.137
427.90 1.137
428.00 1.137
428.10 1.137
428.20 1.137
428.30 1.136
428.40 1.136
428.50 1.136
428.60 1.136
428.70 1.135
428.80 1.135
428.90 1.135
429.00 1.135
429.10 1.134
429.20 1.134
429.30 1.134
429.40 1.133
429.50 1.133
429.60 1.133
429.70 1.132
429.80 1.132
429.90 1.131
430.00 1.131
430.10 1.131
430.20 1.13
430.30 1.13
430.40 1.129
430.50 1.129
430.60 1.128
430.70 1.127
430.80 1.127
430.90 1.126
431.00 1.125
431.10 1.125
431.20 1.124
431.30 1.123
431.40 1.122
431.50 1.121
431.60 1.12
431.70 1.118
431.80 1.117
431.90 1.115
432.00 1.113
432.10 1.111
432.20 1.109
432.30 1.106
432.40 1.104
432.50 1.1
432.60 1.096
432.70 1.092
432.80 1.087
432.90 1.081
433.00 1.074
433.10 1.066
433.20 1.056
433.30 1.046
433.40 1.031
433.50 1.013
433.60 0.9929
433.70 0.9635
433.80 0.9279
433.90 0.886
434.00 0.8101
434.10 0.8115
434.20 0.89
434.30 0.9308
434.40 0.9655
434.50 0.9941
434.60 1.014
434.70 1.031
434.80 1.045
434.90 1.055
435.00 1.064
435.10 1.072
435.20 1.079
435.30 1.084
435.40 1.089
435.50 1.093
435.60 1.096
435.70 1.099
435.80 1.102
435.90 1.104
436.00 1.106
436.10 1.108
436.20 1.109
436.30 1.11
436.40 1.111
436.50 1.112
436.60 1.113
436.70 1.114
436.80 1.115
436.90 1.115
437.00 1.116
437.10 1.116
437.20 1.117
437.30 1.117
437.40 1.117
437.50 1.118
437.60 1.118
437.70 1.118
437.80 1.118
437.90 1.118
438.00 1.118
438.10 1.119
438.20 1.119
438.30 1.119
438.40 1.119
438.50 1.119
438.60 1.119
438.70 1.119
438.80 1.119
438.90 1.119
439.00 1.119
439.10 1.119
439.20 1.119
439.30 1.119
439.40 1.119
439.50 1.119
439.60 1.118
439.70 1.118
439.80 1.118
439.90 1.118
440.00 1.118
440.10 1.118
440.20 1.118
440.30 1.118
440.40 1.118
440.50 1.118
440.60 1.118
440.70 1.117
440.80 1.117
440.90 1.117
441.00 1.117
441.10 1.117
441.20 1.117
441.30 1.117
441.40 1.117
441.50 1.116
441.60 1.116
441.70 1.116
441.80 1.116
441.90 1.116
442.00 1.116
442.10 1.116
442.20 1.115
442.30 1.115
442.40 1.115
442.50 1.115
442.60 1.115
442.70 1.115
442.80 1.115
442.90 1.114
443.00 1.114
443.10 1.114
443.20 1.114
443.30 1.114
443.40 1.114
443.50 1.114
443.60 1.113
443.70 1.113
443.80 1.113
443.90 1.113
444.00 1.113
444.10 1.113
444.20 1.112
444.30 1.112
444.40 1.112
444.50 1.112
444.60 1.112
444.70 1.112
444.80 1.111
444.90 1.111
445.00 1.111
445.10 1.111
445.20 1.111
445.30 1.111
445.40 1.11
445.50 1.11
445.60 1.11
445.70 1.11
445.80 1.11
445.90 1.11
446.00 1.11
446.10 1.109
446.20 1.109
446.30 1.109
446.40 1.109
446.50 1.109
446.60 1.108
446.70 1.108
446.80 1.108
446.90 1.108
447.00 1.108
447.10 1.108
447.20 1.107
447.30 1.107
447.40 1.107
447.50 1.107
447.60 1.107
447.70 1.107
447.80 1.106
447.90 1.106
448.00 1.106
448.10 1.106
448.20 1.106
448.30 1.106
448.40 1.105
448.50 1.105
448.60 1.105
448.70 1.105
448.80 1.105
448.90 1.104
449.00 1.104
449.10 1.104
449.20 1.104
449.30 1.104
449.40 1.104
449.50 1.103
449.60 1.103
449.70 1.103
449.80 1.103
449.90 1.103
450.00 1.102
450.10 1.102
450.20 1.102
450.30 1.102
450.40 1.102
450.50 1.102
450.60 1.101
450.70 1.101
450.80 1.101
450.90 1.101
451.00 1.101
451.10 1.1
451.20 1.1
451.30 1.1
451.40 1.1
451.50 1.1
451.60 1.1
451.70 1.099
451.80 1.099
451.90 1.099
452.00 1.099
452.10 1.099
452.20 1.098
452.30 1.098
452.40 1.098
452.50 1.098
452.60 1.098
452.70 1.098
452.80 1.097
452.90 1.097
453.00 1.097
453.10 1.097
453.20 1.097
453.30 1.096
453.40 1.096
453.50 1.096
453.60 1.096
453.70 1.096
453.80 1.096
453.90 1.095
454.00 1.095
