# Version 2.1 - nm, norm@500 to 1, cut digits, bergeron_6000_95.dat_6000
# Wavelength(nm)  Flambda(ergs/cm^s/s/nm)
300.00 0.6845
300.10 0.685
300.20 0.6855
300.30 0.6859
300.40 0.6864
300.50 0.6869
300.60 0.6874
300.70 0.6879
300.80 0.6884
300.90 0.6889
301.00 0.6893
301.10 0.6898
301.20 0.6903
301.30 0.6908
301.40 0.6913
301.50 0.6917
301.60 0.6922
301.70 0.6927
301.80 0.6932
301.90 0.6936
302.00 0.6941
302.10 0.6946
302.20 0.6951
302.30 0.6956
302.40 0.696
302.50 0.6965
302.60 0.697
302.70 0.6975
302.80 0.6979
302.90 0.6984
303.00 0.6989
303.10 0.6994
303.20 0.6998
303.30 0.7003
303.40 0.7008
303.50 0.7012
303.60 0.7017
303.70 0.7022
303.80 0.7027
303.90 0.7031
304.00 0.7036
304.10 0.7041
304.20 0.7045
304.30 0.705
304.40 0.7055
304.50 0.706
304.60 0.7064
304.70 0.7069
304.80 0.7074
304.90 0.7078
305.00 0.7083
305.10 0.7088
305.20 0.7092
305.30 0.7097
305.40 0.7102
305.50 0.7106
305.60 0.7111
305.70 0.7115
305.80 0.712
305.90 0.7125
306.00 0.7129
306.10 0.7134
306.20 0.7139
306.30 0.7143
306.40 0.7148
306.50 0.7153
306.60 0.7157
306.70 0.7162
306.80 0.7167
306.90 0.7171
307.00 0.7176
307.10 0.718
307.20 0.7185
307.30 0.719
307.40 0.7194
307.50 0.7199
307.60 0.7203
307.70 0.7208
307.80 0.7213
307.90 0.7217
308.00 0.7222
308.10 0.7226
308.20 0.7231
308.30 0.7236
308.40 0.724
308.50 0.7245
308.60 0.7249
308.70 0.7254
308.80 0.7258
308.90 0.7263
309.00 0.7268
309.10 0.7272
309.20 0.7277
309.30 0.7281
309.40 0.7286
309.50 0.729
309.60 0.7295
309.70 0.7299
309.80 0.7304
309.90 0.7308
310.00 0.7313
310.10 0.7317
310.20 0.7322
310.30 0.7326
310.40 0.7331
310.50 0.7335
310.60 0.734
310.70 0.7344
310.80 0.7349
310.90 0.7353
311.00 0.7358
311.10 0.7362
311.20 0.7367
311.30 0.7371
311.40 0.7376
311.50 0.738
311.60 0.7385
311.70 0.7389
311.80 0.7393
311.90 0.7398
312.00 0.7402
312.10 0.7407
312.20 0.7411
312.30 0.7416
312.40 0.742
312.50 0.7425
312.60 0.7429
312.70 0.7433
312.80 0.7438
312.90 0.7442
313.00 0.7447
313.10 0.7451
313.20 0.7456
313.30 0.746
313.40 0.7464
313.50 0.7469
313.60 0.7473
313.70 0.7478
313.80 0.7482
313.90 0.7486
314.00 0.7491
314.10 0.7495
314.20 0.7499
314.30 0.7504
314.40 0.7508
314.50 0.7513
314.60 0.7517
314.70 0.7521
314.80 0.7526
314.90 0.753
315.00 0.7534
315.10 0.7539
315.20 0.7543
315.30 0.7547
315.40 0.7552
315.50 0.7556
315.60 0.756
315.70 0.7565
315.80 0.7569
315.90 0.7573
316.00 0.7577
316.10 0.7582
316.20 0.7586
316.30 0.759
316.40 0.7595
316.50 0.7599
316.60 0.7603
316.70 0.7608
316.80 0.7612
316.90 0.7616
317.00 0.7621
317.10 0.7625
317.20 0.7629
317.30 0.7633
317.40 0.7638
317.50 0.7642
317.60 0.7646
317.70 0.765
317.80 0.7655
317.90 0.7659
318.00 0.7663
318.10 0.7667
318.20 0.7672
318.30 0.7676
318.40 0.768
318.50 0.7684
318.60 0.7689
318.70 0.7693
318.80 0.7697
318.90 0.7701
319.00 0.7706
319.10 0.771
319.20 0.7714
319.30 0.7718
319.40 0.7722
319.50 0.7727
319.60 0.7731
319.70 0.7735
319.80 0.7739
319.90 0.7743
320.00 0.7747
320.10 0.7752
320.20 0.7756
320.30 0.776
320.40 0.7764
320.50 0.7768
320.60 0.7772
320.70 0.7777
320.80 0.7781
320.90 0.7785
321.00 0.7789
321.10 0.7793
321.20 0.7797
321.30 0.7801
321.40 0.7805
321.50 0.781
321.60 0.7814
321.70 0.7818
321.80 0.7822
321.90 0.7826
322.00 0.783
322.10 0.7834
322.20 0.7838
322.30 0.7842
322.40 0.7846
322.50 0.7851
322.60 0.7855
322.70 0.7859
322.80 0.7863
322.90 0.7867
323.00 0.7871
323.10 0.7875
323.20 0.7879
323.30 0.7883
323.40 0.7887
323.50 0.7891
323.60 0.7895
323.70 0.7899
323.80 0.7903
323.90 0.7907
324.00 0.7911
324.10 0.7915
324.20 0.792
324.30 0.7924
324.40 0.7928
324.50 0.7932
324.60 0.7936
324.70 0.794
324.80 0.7944
324.90 0.7948
325.00 0.7952
325.10 0.7956
325.20 0.796
325.30 0.7964
325.40 0.7968
325.50 0.7972
325.60 0.7976
325.70 0.798
325.80 0.7983
325.90 0.7987
326.00 0.7991
326.10 0.7995
326.20 0.7999
326.30 0.8003
326.40 0.8007
326.50 0.8011
326.60 0.8015
326.70 0.8019
326.80 0.8023
326.90 0.8027
327.00 0.8031
327.10 0.8035
327.20 0.8039
327.30 0.8043
327.40 0.8047
327.50 0.805
327.60 0.8054
327.70 0.8058
327.80 0.8062
327.90 0.8066
328.00 0.807
328.10 0.8074
328.20 0.8078
328.30 0.8081
328.40 0.8085
328.50 0.8089
328.60 0.8093
328.70 0.8097
328.80 0.8101
328.90 0.8105
329.00 0.8108
329.10 0.8112
329.20 0.8116
329.30 0.812
329.40 0.8124
329.50 0.8128
329.60 0.8131
329.70 0.8135
329.80 0.8139
329.90 0.8143
330.00 0.8147
330.10 0.815
330.20 0.8154
330.30 0.8158
330.40 0.8162
330.50 0.8166
330.60 0.8169
330.70 0.8173
330.80 0.8177
330.90 0.8181
331.00 0.8185
331.10 0.8188
331.20 0.8192
331.30 0.8196
331.40 0.82
331.50 0.8203
331.60 0.8207
331.70 0.8211
331.80 0.8215
331.90 0.8218
332.00 0.8222
332.10 0.8226
332.20 0.823
332.30 0.8233
332.40 0.8237
332.50 0.8241
332.60 0.8245
332.70 0.8248
332.80 0.8252
332.90 0.8256
333.00 0.8259
333.10 0.8263
333.20 0.8267
333.30 0.8271
333.40 0.8274
333.50 0.8278
333.60 0.8282
333.70 0.8285
333.80 0.8289
333.90 0.8292
334.00 0.8296
334.10 0.83
334.20 0.8304
334.30 0.8307
334.40 0.8311
334.50 0.8315
334.60 0.8318
334.70 0.8322
334.80 0.8325
334.90 0.8329
335.00 0.8333
335.10 0.8336
335.20 0.834
335.30 0.8344
335.40 0.8347
335.50 0.8351
335.60 0.8354
335.70 0.8358
335.80 0.8362
335.90 0.8365
336.00 0.8369
336.10 0.8372
336.20 0.8376
336.30 0.838
336.40 0.8383
336.50 0.8387
336.60 0.839
336.70 0.8394
336.80 0.8397
336.90 0.8401
337.00 0.8405
337.10 0.8408
337.20 0.8412
337.30 0.8415
337.40 0.8419
337.50 0.8422
337.60 0.8426
337.70 0.8429
337.80 0.8433
337.90 0.8436
338.00 0.844
338.10 0.8443
338.20 0.8447
338.30 0.845
338.40 0.8454
338.50 0.8457
338.60 0.8461
338.70 0.8464
338.80 0.8468
338.90 0.8471
339.00 0.8475
339.10 0.8478
339.20 0.8482
339.30 0.8485
339.40 0.8489
339.50 0.8492
339.60 0.8495
339.70 0.8499
339.80 0.8502
339.90 0.8506
340.00 0.8509
340.10 0.8513
340.20 0.8516
340.30 0.852
340.40 0.8523
340.50 0.8526
340.60 0.853
340.70 0.8533
340.80 0.8537
340.90 0.854
341.00 0.8544
341.10 0.8547
341.20 0.855
341.30 0.8554
341.40 0.8557
341.50 0.8561
341.60 0.8564
341.70 0.8567
341.80 0.8571
341.90 0.8574
342.00 0.8577
342.10 0.8581
342.20 0.8584
342.30 0.8588
342.40 0.8591
342.50 0.8594
342.60 0.8598
342.70 0.8601
342.80 0.8604
342.90 0.8608
343.00 0.8611
343.10 0.8614
343.20 0.8618
343.30 0.8621
343.40 0.8624
343.50 0.8628
343.60 0.8631
343.70 0.8634
343.80 0.8638
343.90 0.8641
344.00 0.8644
344.10 0.8647
344.20 0.8651
344.30 0.8654
344.40 0.8657
344.50 0.8661
344.60 0.8664
344.70 0.8667
344.80 0.867
344.90 0.8674
345.00 0.8677
345.10 0.868
345.20 0.8683
345.30 0.8687
345.40 0.869
345.50 0.8693
345.60 0.8696
345.70 0.8699
345.80 0.8703
345.90 0.8706
346.00 0.8709
346.10 0.8712
346.20 0.8715
346.30 0.8719
346.40 0.8722
346.50 0.8725
346.60 0.8728
346.70 0.8731
346.80 0.8735
346.90 0.8738
347.00 0.8741
347.10 0.8744
347.20 0.8747
347.30 0.8751
347.40 0.8754
347.50 0.8757
347.60 0.876
347.70 0.8763
347.80 0.8766
347.90 0.8769
348.00 0.8772
348.10 0.8776
348.20 0.8779
348.30 0.8782
348.40 0.8785
348.50 0.8788
348.60 0.8791
348.70 0.8794
348.80 0.8798
348.90 0.8801
349.00 0.8804
349.10 0.8807
349.20 0.881
349.30 0.8813
349.40 0.8816
349.50 0.8819
349.60 0.8822
349.70 0.8825
349.80 0.8828
349.90 0.8832
350.00 0.8835
350.10 0.8838
350.20 0.8841
350.30 0.8844
350.40 0.8847
350.50 0.885
350.60 0.8853
350.70 0.8856
350.80 0.8859
350.90 0.8862
351.00 0.8865
351.10 0.8868
351.20 0.8871
351.30 0.8874
351.40 0.8877
351.50 0.888
351.60 0.8883
351.70 0.8886
351.80 0.8889
351.90 0.8892
352.00 0.8895
352.10 0.8898
352.20 0.8901
352.30 0.8904
352.40 0.8907
352.50 0.891
352.60 0.8913
352.70 0.8916
352.80 0.8919
352.90 0.8922
353.00 0.8925
353.10 0.8928
353.20 0.8931
353.30 0.8934
353.40 0.8937
353.50 0.894
353.60 0.8943
353.70 0.8946
353.80 0.8949
353.90 0.8952
354.00 0.8954
354.10 0.8957
354.20 0.896
354.30 0.8963
354.40 0.8966
354.50 0.8969
354.60 0.8972
354.70 0.8975
354.80 0.8978
354.90 0.8981
355.00 0.8983
355.10 0.8986
355.20 0.8989
355.30 0.8992
355.40 0.8995
355.50 0.8998
355.60 0.9001
355.70 0.9003
355.80 0.9006
355.90 0.9009
356.00 0.9012
356.10 0.9015
356.20 0.9018
356.30 0.902
356.40 0.9023
356.50 0.9026
356.60 0.9029
356.70 0.9032
356.80 0.9035
356.90 0.9037
357.00 0.904
357.10 0.9043
357.20 0.9046
357.30 0.9049
357.40 0.9051
357.50 0.9054
357.60 0.9057
357.70 0.906
357.80 0.9062
357.90 0.9065
358.00 0.9068
358.10 0.9071
358.20 0.9073
358.30 0.9076
358.40 0.9079
358.50 0.9082
358.60 0.9085
358.70 0.9087
358.80 0.909
358.90 0.9093
359.00 0.9096
359.10 0.9098
359.20 0.9101
359.30 0.9104
359.40 0.9106
359.50 0.9109
359.60 0.9112
359.70 0.9115
359.80 0.9117
359.90 0.912
360.00 0.9123
360.10 0.9125
360.20 0.9128
360.30 0.9131
360.40 0.9133
360.50 0.9136
360.60 0.9139
360.70 0.9141
360.80 0.9144
360.90 0.9147
361.00 0.9149
361.10 0.9152
361.20 0.9155
361.30 0.9157
361.40 0.916
361.50 0.9163
361.60 0.9165
361.70 0.9168
361.80 0.917
361.90 0.9173
362.00 0.9176
362.10 0.9178
362.20 0.9181
362.30 0.9184
362.40 0.9186
362.50 0.9189
362.60 0.9191
362.70 0.9194
362.80 0.9197
362.90 0.9199
363.00 0.9202
363.10 0.9204
363.20 0.9207
363.30 0.921
363.40 0.9212
363.50 0.9215
363.60 0.9217
363.70 0.922
363.80 0.9222
363.90 0.9225
364.00 0.9227
364.10 0.923
364.20 0.9233
364.30 0.9235
364.40 0.9238
364.50 0.924
364.60 0.9243
364.70 0.9245
364.80 0.9248
364.90 0.925
365.00 0.9253
365.10 0.9255
365.20 0.9258
365.30 0.926
365.40 0.9263
365.50 0.9265
365.60 0.9268
365.70 0.927
365.80 0.9273
365.90 0.9275
366.00 0.9277
366.10 0.928
366.20 0.9282
366.30 0.9285
366.40 0.9287
366.50 0.929
366.60 0.9292
366.70 0.9295
366.80 0.9297
366.90 0.93
367.00 0.9302
367.10 0.9305
367.20 0.9307
367.30 0.9309
367.40 0.9312
367.50 0.9314
367.60 0.9317
367.70 0.9319
367.80 0.9322
367.90 0.9324
368.00 0.9326
368.10 0.9329
368.20 0.9331
368.30 0.9334
368.40 0.9336
368.50 0.9338
368.60 0.9341
368.70 0.9343
368.80 0.9345
368.90 0.9348
369.00 0.935
369.10 0.9353
369.20 0.9355
369.30 0.9357
369.40 0.936
369.50 0.9362
369.60 0.9364
369.70 0.9367
369.80 0.9369
369.90 0.9371
370.00 0.9374
370.10 0.9376
370.20 0.9378
370.30 0.9381
370.40 0.9383
370.50 0.9385
370.60 0.9388
370.70 0.939
370.80 0.9392
370.90 0.9394
371.00 0.9397
371.10 0.9399
371.20 0.9401
371.30 0.9404
371.40 0.9406
371.50 0.9408
371.60 0.9411
371.70 0.9413
371.80 0.9415
371.90 0.9417
372.00 0.942
372.10 0.9422
372.20 0.9424
372.30 0.9426
372.40 0.9429
372.50 0.9431
372.60 0.9433
372.70 0.9435
372.80 0.9438
372.90 0.944
373.00 0.9442
373.10 0.9444
373.20 0.9447
373.30 0.9449
373.40 0.9451
373.50 0.9453
373.60 0.9455
373.70 0.9458
373.80 0.946
373.90 0.9462
374.00 0.9464
374.10 0.9467
374.20 0.9469
374.30 0.9471
374.40 0.9473
374.50 0.9475
374.60 0.9477
374.70 0.948
374.80 0.9482
374.90 0.9484
375.00 0.9486
375.10 0.9488
375.20 0.949
375.30 0.9492
375.40 0.9495
375.50 0.9497
375.60 0.9499
375.70 0.9501
375.80 0.9503
375.90 0.9505
376.00 0.9507
376.10 0.9509
376.20 0.9512
376.30 0.9514
376.40 0.9516
376.50 0.9518
376.60 0.952
376.70 0.9522
376.80 0.9524
376.90 0.9526
377.00 0.9528
377.10 0.953
377.20 0.9532
377.30 0.9534
377.40 0.9537
377.50 0.9539
377.60 0.9541
377.70 0.9543
377.80 0.9545
377.90 0.9547
378.00 0.9549
378.10 0.9551
378.20 0.9553
378.30 0.9555
378.40 0.9557
378.50 0.9559
378.60 0.9561
378.70 0.9563
378.80 0.9565
378.90 0.9567
379.00 0.9569
379.10 0.9571
379.20 0.9573
379.30 0.9575
379.40 0.9577
379.50 0.9579
379.60 0.9581
379.70 0.9583
379.80 0.9585
379.90 0.9587
380.00 0.9589
380.10 0.9591
380.20 0.9593
380.30 0.9595
380.40 0.9597
380.50 0.9599
380.60 0.9601
380.70 0.9603
380.80 0.9605
380.90 0.9607
381.00 0.9609
381.10 0.9611
381.20 0.9613
381.30 0.9615
381.40 0.9617
381.50 0.9619
381.60 0.962
381.70 0.9622
381.80 0.9624
381.90 0.9626
382.00 0.9628
382.10 0.963
382.20 0.9632
382.30 0.9634
382.40 0.9636
382.50 0.9638
382.60 0.9639
382.70 0.9641
382.80 0.9643
382.90 0.9645
383.00 0.9647
383.10 0.9649
383.20 0.9651
383.30 0.9653
383.40 0.9654
383.50 0.9656
383.60 0.9658
383.70 0.966
383.80 0.9662
383.90 0.9664
384.00 0.9666
384.10 0.9667
384.20 0.9669
384.30 0.9671
384.40 0.9673
384.50 0.9675
384.60 0.9677
384.70 0.9678
384.80 0.968
384.90 0.9682
385.00 0.9684
385.10 0.9686
385.20 0.9688
385.30 0.9689
385.40 0.9691
385.50 0.9693
385.60 0.9695
385.70 0.9697
385.80 0.9698
385.90 0.97
386.00 0.9702
386.10 0.9704
386.20 0.9705
386.30 0.9707
386.40 0.9709
386.50 0.9711
386.60 0.9712
386.70 0.9714
386.80 0.9716
386.90 0.9718
387.00 0.9719
387.10 0.9721
387.20 0.9723
387.30 0.9725
387.40 0.9726
387.50 0.9728
387.60 0.973
387.70 0.9732
387.80 0.9733
387.90 0.9735
388.00 0.9737
388.10 0.9738
388.20 0.974
388.30 0.9742
388.40 0.9743
388.50 0.9745
388.60 0.9747
388.70 0.9748
388.80 0.9749
388.90 0.975
389.00 0.9752
389.10 0.9755
389.20 0.9757
389.30 0.9758
389.40 0.976
389.50 0.9762
389.60 0.9764
389.70 0.9765
389.80 0.9767
389.90 0.9768
390.00 0.977
390.10 0.9772
390.20 0.9773
390.30 0.9775
390.40 0.9777
390.50 0.9778
390.60 0.978
390.70 0.9782
390.80 0.9783
390.90 0.9785
391.00 0.9786
391.10 0.9788
391.20 0.979
391.30 0.9791
391.40 0.9793
391.50 0.9794
391.60 0.9796
391.70 0.9798
391.80 0.9799
391.90 0.9801
392.00 0.9802
392.10 0.9804
392.20 0.9805
392.30 0.9807
392.40 0.9809
392.50 0.981
392.60 0.9812
392.70 0.9813
392.80 0.9815
392.90 0.9817
393.00 0.9818
393.10 0.9819
393.20 0.9821
393.30 0.9823
393.40 0.9824
393.50 0.9826
393.60 0.9827
393.70 0.9829
393.80 0.983
393.90 0.9832
394.00 0.9833
394.10 0.9835
394.20 0.9836
394.30 0.9838
394.40 0.9839
394.50 0.9841
394.60 0.9842
394.70 0.9844
394.80 0.9845
394.90 0.9847
395.00 0.9848
395.10 0.9849
395.20 0.9851
395.30 0.9852
395.40 0.9854
395.50 0.9855
395.60 0.9857
395.70 0.9858
395.80 0.9859
395.90 0.9861
396.00 0.9862
396.10 0.9863
396.20 0.9865
396.30 0.9866
396.40 0.9867
396.50 0.9868
396.60 0.987
396.70 0.9871
396.80 0.9872
396.90 0.9872
397.00 0.9871
397.10 0.9874
397.20 0.9877
397.30 0.9879
397.40 0.9881
397.50 0.9883
397.60 0.9884
397.70 0.9886
397.80 0.9888
397.90 0.9889
398.00 0.9891
398.10 0.9892
398.20 0.9894
398.30 0.9895
398.40 0.9896
398.50 0.9898
398.60 0.9899
398.70 0.9901
398.80 0.9902
398.90 0.9904
399.00 0.9905
399.10 0.9906
399.20 0.9908
399.30 0.9909
399.40 0.9911
399.50 0.9912
399.60 0.9913
399.70 0.9915
399.80 0.9916
399.90 0.9917
400.00 0.9919
400.10 0.992
400.20 0.9921
400.30 0.9923
400.40 0.9924
400.50 0.9925
400.60 0.9927
400.70 0.9928
400.80 0.993
400.90 0.9931
401.00 0.9932
401.10 0.9933
401.20 0.9935
401.30 0.9936
401.40 0.9937
401.50 0.9938
401.60 0.994
401.70 0.9941
401.80 0.9942
401.90 0.9944
402.00 0.9945
402.10 0.9946
402.20 0.9948
402.30 0.9949
402.40 0.995
402.50 0.9951
402.60 0.9953
402.70 0.9954
402.80 0.9955
402.90 0.9956
403.00 0.9957
403.10 0.9959
403.20 0.996
403.30 0.9961
403.40 0.9962
403.50 0.9964
403.60 0.9965
403.70 0.9966
403.80 0.9967
403.90 0.9968
404.00 0.997
404.10 0.9971
404.20 0.9972
404.30 0.9973
404.40 0.9974
404.50 0.9976
404.60 0.9977
404.70 0.9978
404.80 0.9979
404.90 0.998
405.00 0.9982
405.10 0.9983
405.20 0.9984
405.30 0.9985
405.40 0.9986
405.50 0.9987
405.60 0.9988
405.70 0.9989
405.80 0.9991
405.90 0.9992
406.00 0.9993
406.10 0.9994
406.20 0.9995
406.30 0.9996
406.40 0.9997
406.50 0.9998
406.60 0.9999
406.70 1
406.80 1
406.90 1
407.00 1
407.10 1
407.20 1.001
407.30 1.001
407.40 1.001
407.50 1.001
407.60 1.001
407.70 1.001
407.80 1.001
407.90 1.001
408.00 1.001
408.10 1.001
408.20 1.001
408.30 1.002
408.40 1.002
408.50 1.002
408.60 1.002
408.70 1.002
408.80 1.002
408.90 1.002
409.00 1.002
409.10 1.002
409.20 1.002
409.30 1.002
409.40 1.002
409.50 1.002
409.60 1.002
409.70 1.002
409.80 1.002
409.90 1.002
410.00 1.002
410.10 1.002
410.20 1.001
410.30 1.002
410.40 1.002
410.50 1.003
410.60 1.003
410.70 1.003
410.80 1.003
410.90 1.004
411.00 1.004
411.10 1.004
411.20 1.004
411.30 1.004
411.40 1.004
411.50 1.005
411.60 1.005
411.70 1.005
411.80 1.005
411.90 1.005
412.00 1.005
412.10 1.005
412.20 1.006
412.30 1.006
412.40 1.006
412.50 1.006
412.60 1.006
412.70 1.006
412.80 1.006
412.90 1.006
413.00 1.007
413.10 1.007
413.20 1.007
413.30 1.007
413.40 1.007
413.50 1.007
413.60 1.007
413.70 1.007
413.80 1.007
413.90 1.007
414.00 1.008
414.10 1.008
414.20 1.008
414.30 1.008
414.40 1.008
414.50 1.008
414.60 1.008
414.70 1.008
414.80 1.008
414.90 1.008
415.00 1.008
415.10 1.009
415.20 1.009
415.30 1.009
415.40 1.009
415.50 1.009
415.60 1.009
415.70 1.009
415.80 1.009
415.90 1.009
416.00 1.009
416.10 1.009
416.20 1.01
416.30 1.01
416.40 1.01
416.50 1.01
416.60 1.01
416.70 1.01
416.80 1.01
416.90 1.01
417.00 1.01
417.10 1.01
417.20 1.01
417.30 1.01
417.40 1.011
417.50 1.011
417.60 1.011
417.70 1.011
417.80 1.011
417.90 1.011
418.00 1.011
418.10 1.011
418.20 1.011
418.30 1.011
418.40 1.011
418.50 1.011
418.60 1.012
418.70 1.012
418.80 1.012
418.90 1.012
419.00 1.012
419.10 1.012
419.20 1.012
419.30 1.012
419.40 1.012
419.50 1.012
419.60 1.012
419.70 1.012
419.80 1.012
419.90 1.013
420.00 1.013
420.10 1.013
420.20 1.013
420.30 1.013
420.40 1.013
420.50 1.013
420.60 1.013
420.70 1.013
420.80 1.013
420.90 1.013
421.00 1.013
421.10 1.013
421.20 1.013
421.30 1.014
421.40 1.014
421.50 1.014
421.60 1.014
421.70 1.014
421.80 1.014
421.90 1.014
422.00 1.014
422.10 1.014
422.20 1.014
422.30 1.014
422.40 1.014
422.50 1.014
422.60 1.014
422.70 1.015
422.80 1.015
422.90 1.015
423.00 1.015
423.10 1.015
423.20 1.015
423.30 1.015
423.40 1.015
423.50 1.015
423.60 1.015
423.70 1.015
423.80 1.015
423.90 1.015
424.00 1.015
424.10 1.015
424.20 1.015
424.30 1.016
424.40 1.016
424.50 1.016
424.60 1.016
424.70 1.016
424.80 1.016
424.90 1.016
425.00 1.016
425.10 1.016
425.20 1.016
425.30 1.016
425.40 1.016
425.50 1.016
425.60 1.016
425.70 1.016
425.80 1.016
425.90 1.016
426.00 1.017
426.10 1.017
426.20 1.017
426.30 1.017
426.40 1.017
426.50 1.017
426.60 1.017
426.70 1.017
426.80 1.017
426.90 1.017
427.00 1.017
427.10 1.017
427.20 1.017
427.30 1.017
427.40 1.017
427.50 1.017
427.60 1.017
427.70 1.017
427.80 1.017
427.90 1.018
428.00 1.018
428.10 1.018
428.20 1.018
428.30 1.018
428.40 1.018
428.50 1.018
428.60 1.018
428.70 1.018
428.80 1.018
428.90 1.018
429.00 1.018
429.10 1.018
429.20 1.018
429.30 1.018
429.40 1.018
429.50 1.018
429.60 1.018
429.70 1.018
429.80 1.018
429.90 1.018
430.00 1.018
430.10 1.018
430.20 1.018
430.30 1.018
430.40 1.018
430.50 1.018
430.60 1.018
430.70 1.018
430.80 1.018
430.90 1.018
431.00 1.019
431.10 1.019
431.20 1.019
431.30 1.018
431.40 1.018
431.50 1.018
431.60 1.018
431.70 1.018
431.80 1.018
431.90 1.018
432.00 1.018
432.10 1.018
432.20 1.018
432.30 1.018
432.40 1.018
432.50 1.018
432.60 1.018
432.70 1.017
432.80 1.017
432.90 1.017
433.00 1.017
433.10 1.016
433.20 1.016
433.30 1.016
433.40 1.015
433.50 1.015
433.60 1.014
433.70 1.013
433.80 1.013
433.90 1.012
434.00 1.01
434.10 1.01
434.20 1.012
434.30 1.013
434.40 1.014
434.50 1.014
434.60 1.015
434.70 1.016
434.80 1.016
434.90 1.017
435.00 1.017
435.10 1.018
435.20 1.018
435.30 1.018
435.40 1.019
435.50 1.019
435.60 1.019
435.70 1.019
435.80 1.019
435.90 1.02
436.00 1.02
436.10 1.02
436.20 1.02
436.30 1.02
436.40 1.02
436.50 1.02
436.60 1.02
436.70 1.021
436.80 1.021
436.90 1.021
437.00 1.021
437.10 1.021
437.20 1.021
437.30 1.021
437.40 1.021
437.50 1.021
437.60 1.021
437.70 1.021
437.80 1.021
437.90 1.021
438.00 1.021
438.10 1.021
438.20 1.021
438.30 1.021
438.40 1.022
438.50 1.022
438.60 1.022
438.70 1.022
438.80 1.022
438.90 1.022
439.00 1.022
439.10 1.022
439.20 1.022
439.30 1.022
439.40 1.022
439.50 1.022
439.60 1.022
439.70 1.022
439.80 1.022
439.90 1.022
440.00 1.022
440.10 1.022
440.20 1.022
440.30 1.022
440.40 1.022
440.50 1.022
440.60 1.022
440.70 1.022
440.80 1.022
440.90 1.022
441.00 1.022
441.10 1.022
441.20 1.022
441.30 1.022
441.40 1.022
441.50 1.022
441.60 1.022
441.70 1.022
441.80 1.023
441.90 1.023
442.00 1.023
442.10 1.023
442.20 1.023
442.30 1.023
442.40 1.023
442.50 1.023
442.60 1.023
442.70 1.023
442.80 1.023
442.90 1.023
443.00 1.023
443.10 1.023
443.20 1.023
443.30 1.023
443.40 1.023
443.50 1.023
443.60 1.023
443.70 1.023
443.80 1.023
443.90 1.023
444.00 1.023
444.10 1.023
444.20 1.023
444.30 1.023
444.40 1.023
444.50 1.023
444.60 1.023
444.70 1.023
444.80 1.023
444.90 1.023
445.00 1.023
445.10 1.023
445.20 1.023
445.30 1.023
445.40 1.023
445.50 1.023
445.60 1.023
445.70 1.023
