# Version 2.1 - nm, norm@500 to 1, cut digits, bergeron_40000_70.dat_40000
# Wavelength(nm)  Flambda(ergs/cm^s/s/nm)
300.00 5.818
300.10 5.812
300.20 5.805
300.30 5.798
300.40 5.791
300.50 5.784
300.60 5.777
300.70 5.771
300.80 5.764
300.90 5.757
301.00 5.75
301.10 5.743
301.20 5.737
301.30 5.73
301.40 5.723
301.50 5.716
301.60 5.71
301.70 5.703
301.80 5.696
301.90 5.69
302.00 5.683
302.10 5.676
302.20 5.67
302.30 5.663
302.40 5.656
302.50 5.65
302.60 5.643
302.70 5.637
302.80 5.63
302.90 5.623
303.00 5.617
303.10 5.61
303.20 5.604
303.30 5.597
303.40 5.591
303.50 5.584
303.60 5.578
303.70 5.571
303.80 5.564
303.90 5.558
304.00 5.552
304.10 5.545
304.20 5.539
304.30 5.532
304.40 5.526
304.50 5.519
304.60 5.513
304.70 5.506
304.80 5.5
304.90 5.494
305.00 5.487
305.10 5.481
305.20 5.474
305.30 5.468
305.40 5.462
305.50 5.455
305.60 5.449
305.70 5.443
305.80 5.436
305.90 5.43
306.00 5.424
306.10 5.418
306.20 5.411
306.30 5.405
306.40 5.399
306.50 5.392
306.60 5.386
306.70 5.38
306.80 5.374
306.90 5.368
307.00 5.361
307.10 5.355
307.20 5.349
307.30 5.343
307.40 5.337
307.50 5.33
307.60 5.324
307.70 5.318
307.80 5.312
307.90 5.306
308.00 5.3
308.10 5.294
308.20 5.288
308.30 5.281
308.40 5.275
308.50 5.269
308.60 5.263
308.70 5.257
308.80 5.251
308.90 5.245
309.00 5.239
309.10 5.233
309.20 5.227
309.30 5.221
309.40 5.215
309.50 5.209
309.60 5.203
309.70 5.197
309.80 5.191
309.90 5.185
310.00 5.179
310.10 5.173
310.20 5.167
310.30 5.162
310.40 5.156
310.50 5.15
310.60 5.144
310.70 5.138
310.80 5.132
310.90 5.126
311.00 5.12
311.10 5.114
311.20 5.109
311.30 5.103
311.40 5.097
311.50 5.091
311.60 5.085
311.70 5.08
311.80 5.074
311.90 5.068
312.00 5.062
312.10 5.056
312.20 5.051
312.30 5.045
312.40 5.039
312.50 5.033
312.60 5.028
312.70 5.022
312.80 5.016
312.90 5.011
313.00 5.005
313.10 4.999
313.20 4.994
313.30 4.988
313.40 4.982
313.50 4.977
313.60 4.971
313.70 4.965
313.80 4.96
313.90 4.954
314.00 4.948
314.10 4.943
314.20 4.937
314.30 4.932
314.40 4.926
314.50 4.92
314.60 4.915
314.70 4.909
314.80 4.904
314.90 4.898
315.00 4.893
315.10 4.887
315.20 4.882
315.30 4.876
315.40 4.871
315.50 4.865
315.60 4.86
315.70 4.854
315.80 4.849
315.90 4.843
316.00 4.838
316.10 4.832
316.20 4.827
316.30 4.822
316.40 4.816
316.50 4.811
316.60 4.805
316.70 4.8
316.80 4.794
316.90 4.789
317.00 4.784
317.10 4.778
317.20 4.773
317.30 4.768
317.40 4.762
317.50 4.757
317.60 4.752
317.70 4.746
317.80 4.741
317.90 4.736
318.00 4.73
318.10 4.725
318.20 4.72
318.30 4.714
318.40 4.709
318.50 4.704
318.60 4.699
318.70 4.693
318.80 4.688
318.90 4.683
319.00 4.678
319.10 4.672
319.20 4.667
319.30 4.662
319.40 4.657
319.50 4.652
319.60 4.647
319.70 4.641
319.80 4.636
319.90 4.631
320.00 4.626
320.10 4.621
320.20 4.616
320.30 4.61
320.40 4.605
320.50 4.6
320.60 4.595
320.70 4.59
320.80 4.585
320.90 4.58
321.00 4.575
321.10 4.57
321.20 4.565
321.30 4.559
321.40 4.554
321.50 4.549
321.60 4.544
321.70 4.539
321.80 4.534
321.90 4.529
322.00 4.524
322.10 4.519
322.20 4.514
322.30 4.509
322.40 4.504
322.50 4.499
322.60 4.494
322.70 4.489
322.80 4.484
322.90 4.479
323.00 4.474
323.10 4.469
323.20 4.465
323.30 4.46
323.40 4.455
323.50 4.45
323.60 4.445
323.70 4.44
323.80 4.435
323.90 4.43
324.00 4.425
324.10 4.42
324.20 4.416
324.30 4.411
324.40 4.406
324.50 4.401
324.60 4.396
324.70 4.391
324.80 4.387
324.90 4.382
325.00 4.377
325.10 4.372
325.20 4.367
325.30 4.363
325.40 4.358
325.50 4.353
325.60 4.348
325.70 4.343
325.80 4.339
325.90 4.334
326.00 4.329
326.10 4.324
326.20 4.32
326.30 4.315
326.40 4.31
326.50 4.306
326.60 4.301
326.70 4.296
326.80 4.291
326.90 4.287
327.00 4.282
327.10 4.277
327.20 4.273
327.30 4.268
327.40 4.263
327.50 4.259
327.60 4.254
327.70 4.25
327.80 4.245
327.90 4.24
328.00 4.236
328.10 4.231
328.20 4.226
328.30 4.222
328.40 4.217
328.50 4.213
328.60 4.208
328.70 4.204
328.80 4.199
328.90 4.194
329.00 4.19
329.10 4.185
329.20 4.181
329.30 4.176
329.40 4.172
329.50 4.167
329.60 4.163
329.70 4.158
329.80 4.154
329.90 4.149
330.00 4.145
330.10 4.14
330.20 4.136
330.30 4.131
330.40 4.127
330.50 4.122
330.60 4.118
330.70 4.113
330.80 4.109
330.90 4.105
331.00 4.1
331.10 4.096
331.20 4.091
331.30 4.087
331.40 4.082
331.50 4.078
331.60 4.074
331.70 4.069
331.80 4.065
331.90 4.06
332.00 4.056
332.10 4.052
332.20 4.047
332.30 4.043
332.40 4.039
332.50 4.034
332.60 4.03
332.70 4.026
332.80 4.021
332.90 4.017
333.00 4.013
333.10 4.008
333.20 4.004
333.30 4
333.40 3.996
333.50 3.991
333.60 3.987
333.70 3.983
333.80 3.978
333.90 3.974
334.00 3.97
334.10 3.966
334.20 3.961
334.30 3.957
334.40 3.953
334.50 3.949
334.60 3.945
334.70 3.94
334.80 3.936
334.90 3.932
335.00 3.928
335.10 3.924
335.20 3.919
335.30 3.915
335.40 3.911
335.50 3.907
335.60 3.903
335.70 3.898
335.80 3.894
335.90 3.89
336.00 3.886
336.10 3.882
336.20 3.878
336.30 3.874
336.40 3.869
336.50 3.865
336.60 3.861
336.70 3.857
336.80 3.853
336.90 3.849
337.00 3.845
337.10 3.841
337.20 3.837
337.30 3.833
337.40 3.829
337.50 3.825
337.60 3.82
337.70 3.816
337.80 3.812
337.90 3.808
338.00 3.804
338.10 3.8
338.20 3.796
338.30 3.792
338.40 3.788
338.50 3.784
338.60 3.78
338.70 3.776
338.80 3.772
338.90 3.768
339.00 3.764
339.10 3.76
339.20 3.756
339.30 3.752
339.40 3.748
339.50 3.744
339.60 3.74
339.70 3.737
339.80 3.733
339.90 3.729
340.00 3.725
340.10 3.721
340.20 3.717
340.30 3.713
340.40 3.709
340.50 3.705
340.60 3.701
340.70 3.697
340.80 3.694
340.90 3.69
341.00 3.686
341.10 3.682
341.20 3.678
341.30 3.674
341.40 3.67
341.50 3.666
341.60 3.663
341.70 3.659
341.80 3.655
341.90 3.651
342.00 3.647
342.10 3.643
342.20 3.64
342.30 3.636
342.40 3.632
342.50 3.628
342.60 3.624
342.70 3.621
342.80 3.617
342.90 3.613
343.00 3.609
343.10 3.605
343.20 3.602
343.30 3.598
343.40 3.594
343.50 3.59
343.60 3.587
343.70 3.583
343.80 3.579
343.90 3.575
344.00 3.572
344.10 3.568
344.20 3.564
344.30 3.561
344.40 3.557
344.50 3.553
344.60 3.549
344.70 3.546
344.80 3.542
344.90 3.538
345.00 3.535
345.10 3.531
345.20 3.527
345.30 3.524
345.40 3.52
345.50 3.516
345.60 3.513
345.70 3.509
345.80 3.505
345.90 3.502
346.00 3.498
346.10 3.495
346.20 3.491
346.30 3.487
346.40 3.484
346.50 3.48
346.60 3.477
346.70 3.473
346.80 3.469
346.90 3.466
347.00 3.462
347.10 3.459
347.20 3.455
347.30 3.451
347.40 3.448
347.50 3.444
347.60 3.441
347.70 3.437
347.80 3.434
347.90 3.43
348.00 3.427
348.10 3.423
348.20 3.419
348.30 3.416
348.40 3.412
348.50 3.409
348.60 3.405
348.70 3.402
348.80 3.398
348.90 3.395
349.00 3.391
349.10 3.388
349.20 3.384
349.30 3.381
349.40 3.378
349.50 3.374
349.60 3.371
349.70 3.367
349.80 3.364
349.90 3.36
350.00 3.357
350.10 3.353
350.20 3.35
350.30 3.346
350.40 3.343
350.50 3.34
350.60 3.336
350.70 3.333
350.80 3.329
350.90 3.326
351.00 3.323
351.10 3.319
351.20 3.316
351.30 3.312
351.40 3.309
351.50 3.306
351.60 3.302
351.70 3.299
351.80 3.295
351.90 3.292
352.00 3.289
352.10 3.285
352.20 3.282
352.30 3.279
352.40 3.275
352.50 3.272
352.60 3.269
352.70 3.265
352.80 3.262
352.90 3.259
353.00 3.255
353.10 3.252
353.20 3.249
353.30 3.245
353.40 3.242
353.50 3.239
353.60 3.236
353.70 3.232
353.80 3.229
353.90 3.226
354.00 3.222
354.10 3.219
354.20 3.216
354.30 3.213
354.40 3.209
354.50 3.206
354.60 3.203
354.70 3.2
354.80 3.196
354.90 3.193
355.00 3.19
355.10 3.187
355.20 3.183
355.30 3.18
355.40 3.177
355.50 3.174
355.60 3.171
355.70 3.167
355.80 3.164
355.90 3.161
356.00 3.158
356.10 3.155
356.20 3.151
356.30 3.148
356.40 3.145
356.50 3.142
356.60 3.139
356.70 3.136
356.80 3.132
356.90 3.129
357.00 3.126
357.10 3.123
357.20 3.12
357.30 3.117
357.40 3.114
357.50 3.11
357.60 3.107
357.70 3.104
357.80 3.101
357.90 3.098
358.00 3.095
358.10 3.092
358.20 3.089
358.30 3.085
358.40 3.082
358.50 3.079
358.60 3.076
358.70 3.073
358.80 3.07
358.90 3.067
359.00 3.064
359.10 3.061
359.20 3.058
359.30 3.055
359.40 3.052
359.50 3.049
359.60 3.045
359.70 3.042
359.80 3.039
359.90 3.036
360.00 3.033
360.10 3.03
360.20 3.027
360.30 3.024
360.40 3.021
360.50 3.018
360.60 3.015
360.70 3.012
360.80 3.009
360.90 3.006
361.00 3.003
361.10 3
361.20 2.997
361.30 2.994
361.40 2.991
361.50 2.988
361.60 2.985
361.70 2.982
361.80 2.979
361.90 2.976
362.00 2.973
362.10 2.97
362.20 2.967
362.30 2.965
362.40 2.962
362.50 2.959
362.60 2.956
362.70 2.953
362.80 2.95
362.90 2.947
363.00 2.944
363.10 2.941
363.20 2.938
363.30 2.935
363.40 2.932
363.50 2.929
363.60 2.927
363.70 2.924
363.80 2.921
363.90 2.918
364.00 2.915
364.10 2.912
364.20 2.909
364.30 2.906
364.40 2.903
364.50 2.901
364.60 2.898
364.70 2.895
364.80 2.892
364.90 2.889
365.00 2.886
365.10 2.883
365.20 2.881
365.30 2.878
365.40 2.875
365.50 2.872
365.60 2.869
365.70 2.866
365.80 2.864
365.90 2.861
366.00 2.858
366.10 2.855
366.20 2.852
366.30 2.849
366.40 2.846
366.50 2.843
366.60 2.84
366.70 2.837
366.80 2.834
366.90 2.831
367.00 2.828
367.10 2.825
367.20 2.822
367.30 2.819
367.40 2.816
367.50 2.813
367.60 2.81
367.70 2.807
367.80 2.804
367.90 2.801
368.00 2.798
368.10 2.796
368.20 2.793
368.30 2.79
368.40 2.787
368.50 2.784
368.60 2.781
368.70 2.778
368.80 2.775
368.90 2.772
369.00 2.77
369.10 2.767
369.20 2.764
369.30 2.761
369.40 2.758
369.50 2.755
369.60 2.752
369.70 2.75
369.80 2.747
369.90 2.744
370.00 2.741
370.10 2.738
370.20 2.735
370.30 2.733
370.40 2.73
370.50 2.727
370.60 2.724
370.70 2.722
370.80 2.719
370.90 2.716
371.00 2.713
371.10 2.71
371.20 2.708
371.30 2.705
371.40 2.702
371.50 2.699
371.60 2.697
371.70 2.694
371.80 2.691
371.90 2.688
372.00 2.686
372.10 2.683
372.20 2.681
372.30 2.678
372.40 2.676
372.50 2.673
372.60 2.671
372.70 2.668
372.80 2.666
372.90 2.663
373.00 2.661
373.10 2.658
373.20 2.656
373.30 2.653
373.40 2.651
373.50 2.648
373.60 2.646
373.70 2.643
373.80 2.641
373.90 2.638
374.00 2.636
374.10 2.634
374.20 2.631
374.30 2.629
374.40 2.627
374.50 2.625
374.60 2.623
374.70 2.62
374.80 2.618
374.90 2.616
375.00 2.614
375.10 2.611
375.20 2.609
375.30 2.607
375.40 2.605
375.50 2.603
375.60 2.6
375.70 2.598
375.80 2.596
375.90 2.594
376.00 2.592
376.10 2.589
376.20 2.586
376.30 2.583
376.40 2.581
376.50 2.578
376.60 2.575
376.70 2.573
376.80 2.57
376.90 2.567
377.00 2.565
377.10 2.563
377.20 2.562
377.30 2.561
377.40 2.56
377.50 2.559
377.60 2.557
377.70 2.556
377.80 2.555
377.90 2.554
378.00 2.552
378.10 2.55
378.20 2.547
378.30 2.544
378.40 2.541
378.50 2.538
378.60 2.535
378.70 2.532
378.80 2.53
378.90 2.527
379.00 2.524
379.10 2.521
379.20 2.518
379.30 2.514
379.40 2.511
379.50 2.508
379.60 2.505
379.70 2.502
379.80 2.499
379.90 2.496
380.00 2.493
380.10 2.493
380.20 2.494
380.30 2.495
380.40 2.495
380.50 2.496
380.60 2.497
380.70 2.497
380.80 2.498
380.90 2.499
381.00 2.499
381.10 2.498
381.20 2.496
381.30 2.495
381.40 2.493
381.50 2.491
381.60 2.489
381.70 2.485
381.80 2.482
381.90 2.477
382.00 2.473
382.10 2.468
382.20 2.462
382.30 2.454
382.40 2.447
382.50 2.439
382.60 2.431
382.70 2.423
382.80 2.416
382.90 2.408
383.00 2.4
383.10 2.392
383.20 2.385
383.30 2.376
383.40 2.368
383.50 2.361
383.60 2.361
383.70 2.365
383.80 2.37
383.90 2.376
384.00 2.383
384.10 2.389
384.20 2.395
384.30 2.4
384.40 2.406
384.50 2.411
384.60 2.415
384.70 2.42
384.80 2.423
384.90 2.427
385.00 2.43
385.10 2.432
385.20 2.434
385.30 2.435
385.40 2.436
385.50 2.437
385.60 2.437
385.70 2.436
385.80 2.435
385.90 2.434
386.00 2.432
386.10 2.43
386.20 2.427
386.30 2.423
386.40 2.419
386.50 2.415
386.60 2.41
386.70 2.404
386.80 2.398
386.90 2.391
387.00 2.384
387.10 2.376
387.20 2.367
387.30 2.358
387.40 2.348
387.50 2.337
387.60 2.326
387.70 2.314
387.80 2.301
387.90 2.288
388.00 2.274
388.10 2.259
388.20 2.243
388.30 2.227
388.40 2.211
388.50 2.195
388.60 2.178
388.70 2.164
388.80 2.153
388.90 2.145
389.00 2.149
389.10 2.156
389.20 2.167
389.30 2.18
389.40 2.193
389.50 2.206
389.60 2.219
389.70 2.231
389.80 2.243
389.90 2.254
390.00 2.265
390.10 2.275
390.20 2.284
390.30 2.293
390.40 2.301
390.50 2.308
390.60 2.315
390.70 2.321
390.80 2.327
390.90 2.332
391.00 2.336
391.10 2.341
391.20 2.344
391.30 2.348
391.40 2.35
391.50 2.353
391.60 2.355
391.70 2.356
391.80 2.358
391.90 2.359
392.00 2.359
392.10 2.36
392.20 2.36
392.30 2.359
392.40 2.359
392.50 2.358
392.60 2.357
392.70 2.355
392.80 2.353
392.90 2.351
393.00 2.349
393.10 2.346
393.20 2.343
393.30 2.34
393.40 2.336
393.50 2.332
393.60 2.328
393.70 2.323
393.80 2.318
393.90 2.313
394.00 2.307
394.10 2.301
394.20 2.294
394.30 2.287
394.40 2.28
394.50 2.272
394.60 2.263
394.70 2.254
394.80 2.245
394.90 2.235
395.00 2.224
395.10 2.212
395.20 2.2
395.30 2.187
395.40 2.173
395.50 2.159
395.60 2.143
395.70 2.126
395.80 2.109
395.90 2.091
396.00 2.072
396.10 2.052
396.20 2.03
396.30 2.008
396.40 1.986
396.50 1.962
396.60 1.938
396.70 1.914
396.80 1.889
396.90 1.865
397.00 1.841
397.10 1.86
397.20 1.879
397.30 1.901
397.40 1.922
397.50 1.943
397.60 1.963
397.70 1.983
397.80 2.001
397.90 2.019
398.00 2.036
398.10 2.051
398.20 2.066
398.30 2.08
398.40 2.092
398.50 2.105
398.60 2.115
398.70 2.126
398.80 2.135
398.90 2.144
399.00 2.152
399.10 2.16
399.20 2.166
399.30 2.172
399.40 2.178
399.50 2.183
399.60 2.188
399.70 2.192
399.80 2.196
399.90 2.199
400.00 2.203
400.10 2.205
400.20 2.208
400.30 2.21
400.40 2.212
400.50 2.213
400.60 2.215
400.70 2.216
400.80 2.217
400.90 2.217
401.00 2.218
401.10 2.218
401.20 2.219
401.30 2.219
401.40 2.218
401.50 2.218
401.60 2.218
401.70 2.217
401.80 2.217
401.90 2.216
402.00 2.215
402.10 2.214
402.20 2.213
402.30 2.212
402.40 2.211
402.50 2.21
402.60 2.209
402.70 2.207
402.80 2.206
402.90 2.204
403.00 2.203
403.10 2.201
403.20 2.199
403.30 2.197
403.40 2.196
403.50 2.194
403.60 2.192
403.70 2.19
403.80 2.187
403.90 2.185
404.00 2.183
404.10 2.181
404.20 2.178
404.30 2.176
404.40 2.173
404.50 2.171
404.60 2.168
404.70 2.166
404.80 2.163
404.90 2.16
405.00 2.157
405.10 2.154
405.20 2.151
405.30 2.147
405.40 2.144
405.50 2.141
405.60 2.137
405.70 2.133
405.80 2.129
405.90 2.125
406.00 2.121
406.10 2.117
406.20 2.112
406.30 2.108
406.40 2.103
406.50 2.098
406.60 2.093
406.70 2.087
406.80 2.081
406.90 2.075
407.00 2.069
407.10 2.062
407.20 2.055
407.30 2.048
407.40 2.04
407.50 2.032
407.60 2.023
407.70 2.014
407.80 2.005
407.90 1.995
408.00 1.984
408.10 1.973
408.20 1.96
408.30 1.948
408.40 1.935
408.50 1.92
408.60 1.905
408.70 1.889
408.80 1.872
408.90 1.854
409.00 1.835
409.10 1.815
409.20 1.794
409.30 1.772
409.40 1.748
409.50 1.723
409.60 1.697
409.70 1.67
409.80 1.642
409.90 1.612
410.00 1.583
410.10 1.563
410.20 1.554
410.30 1.571
410.40 1.593
410.50 1.62
410.60 1.645
410.70 1.67
410.80 1.694
410.90 1.716
411.00 1.737
411.10 1.757
411.20 1.775
411.30 1.792
411.40 1.809
411.50 1.823
411.60 1.837
411.70 1.85
411.80 1.862
411.90 1.873
412.00 1.883
412.10 1.893
412.20 1.901
412.30 1.909
412.40 1.917
412.50 1.923
412.60 1.929
412.70 1.935
412.80 1.94
412.90 1.945
413.00 1.949
413.10 1.953
413.20 1.956
413.30 1.959
413.40 1.962
413.50 1.964
413.60 1.966
413.70 1.968
413.80 1.97
413.90 1.971
414.00 1.973
414.10 1.974
414.20 1.975
414.30 1.975
414.40 1.976
414.50 1.976
414.60 1.977
414.70 1.977
414.80 1.977
414.90 1.977
415.00 1.977
415.10 1.976
415.20 1.976
415.30 1.976
415.40 1.975
415.50 1.975
415.60 1.974
415.70 1.973
415.80 1.972
415.90 1.972
416.00 1.971
416.10 1.97
416.20 1.969
416.30 1.968
416.40 1.967
416.50 1.966
416.60 1.965
416.70 1.964
416.80 1.962
416.90 1.961
417.00 1.96
417.10 1.959
417.20 1.957
417.30 1.956
417.40 1.955
417.50 1.954
417.60 1.952
417.70 1.951
417.80 1.949
417.90 1.948
418.00 1.947
418.10 1.945
418.20 1.944
418.30 1.942
418.40 1.941
418.50 1.939
418.60 1.938
418.70 1.936
418.80 1.935
418.90 1.933
419.00 1.932
419.10 1.93
419.20 1.929
419.30 1.927
419.40 1.926
419.50 1.924
419.60 1.923
419.70 1.921
419.80 1.919
419.90 1.918
420.00 1.916
420.10 1.915
420.20 1.913
420.30 1.911
420.40 1.91
420.50 1.908
420.60 1.907
420.70 1.905
420.80 1.903
420.90 1.902
421.00 1.9
421.10 1.899
421.20 1.897
421.30 1.895
421.40 1.894
421.50 1.892
421.60 1.89
421.70 1.889
421.80 1.887
421.90 1.885
422.00 1.884
422.10 1.882
422.20 1.88
422.30 1.879
422.40 1.877
422.50 1.875
422.60 1.874
422.70 1.872
422.80 1.87
422.90 1.869
423.00 1.867
423.10 1.865
423.20 1.864
423.30 1.862
423.40 1.86
423.50 1.858
423.60 1.857
423.70 1.855
423.80 1.853
423.90 1.852
424.00 1.85
424.10 1.848
424.20 1.846
424.30 1.845
424.40 1.843
424.50 1.841
424.60 1.839
424.70 1.838
424.80 1.836
424.90 1.834
425.00 1.832
425.10 1.831
425.20 1.829
425.30 1.827
425.40 1.825
425.50 1.823
425.60 1.822
425.70 1.82
425.80 1.818
425.90 1.816
426.00 1.814
426.10 1.812
426.20 1.811
426.30 1.809
426.40 1.807
426.50 1.805
426.60 1.803
426.70 1.801
426.80 1.799
426.90 1.797
427.00 1.795
427.10 1.793
427.20 1.791
427.30 1.789
427.40 1.787
427.50 1.785
427.60 1.783
427.70 1.78
427.80 1.778
427.90 1.776
428.00 1.774
428.10 1.772
428.20 1.769
428.30 1.767
428.40 1.765
428.50 1.762
428.60 1.76
428.70 1.757
428.80 1.755
428.90 1.752
429.00 1.749
429.10 1.747
429.20 1.744
429.30 1.741
429.40 1.738
429.50 1.735
429.60 1.732
429.70 1.728
429.80 1.725
429.90 1.722
430.00 1.718
430.10 1.714
430.20 1.71
430.30 1.706
430.40 1.702
430.50 1.698
430.60 1.693
430.70 1.688
430.80 1.683
430.90 1.678
431.00 1.673
431.10 1.667
431.20 1.661
431.30 1.654
431.40 1.648
431.50 1.641
431.60 1.633
431.70 1.625
431.80 1.617
431.90 1.608
432.00 1.598
432.10 1.588
432.20 1.577
432.30 1.566
432.40 1.554
432.50 1.541
432.60 1.527
432.70 1.513
432.80 1.497
432.90 1.481
433.00 1.464
433.10 1.445
433.20 1.425
433.30 1.405
433.40 1.382
433.50 1.359
433.60 1.335
433.70 1.309
433.80 1.283
433.90 1.256
434.00 1.228
434.10 1.228
434.20 1.255
434.30 1.28
434.40 1.304
434.50 1.328
434.60 1.349
434.70 1.37
434.80 1.39
434.90 1.408
435.00 1.425
435.10 1.441
435.20 1.456
435.30 1.469
435.40 1.482
435.50 1.494
435.60 1.505
435.70 1.515
435.80 1.524
435.90 1.532
436.00 1.54
436.10 1.547
436.20 1.554
436.30 1.56
436.40 1.565
436.50 1.57
436.60 1.574
436.70 1.578
436.80 1.582
436.90 1.586
437.00 1.589
437.10 1.591
437.20 1.594
437.30 1.596
437.40 1.598
437.50 1.6
437.60 1.601
437.70 1.602
437.80 1.604
437.90 1.605
438.00 1.605
438.10 1.606
438.20 1.607
438.30 1.607
438.40 1.607
438.50 1.608
438.60 1.608
438.70 1.608
438.80 1.608
438.90 1.608
439.00 1.607
439.10 1.607
439.20 1.607
439.30 1.606
439.40 1.606
439.50 1.606
439.60 1.605
439.70 1.604
439.80 1.604
439.90 1.603
440.00 1.602
440.10 1.602
440.20 1.601
440.30 1.6
440.40 1.599
440.50 1.599
440.60 1.598
440.70 1.597
440.80 1.596
440.90 1.595
441.00 1.594
441.10 1.593
441.20 1.592
441.30 1.591
441.40 1.59
441.50 1.589
441.60 1.588
441.70 1.587
441.80 1.586
441.90 1.585
442.00 1.584
442.10 1.583
442.20 1.582
442.30 1.58
442.40 1.579
442.50 1.578
442.60 1.577
442.70 1.576
442.80 1.575
442.90 1.574
443.00 1.572
443.10 1.571
443.20 1.57
443.30 1.569
443.40 1.568
443.50 1.567
443.60 1.565
443.70 1.564
443.80 1.563
443.90 1.562
444.00 1.561
444.10 1.559
444.20 1.558
444.30 1.557
444.40 1.556
444.50 1.555
444.60 1.553
444.70 1.552
444.80 1.551
444.90 1.55
445.00 1.549
445.10 1.547
445.20 1.546
445.30 1.545
445.40 1.544
445.50 1.542
445.60 1.541
445.70 1.54
445.80 1.539
445.90 1.537
446.00 1.536
446.10 1.535
446.20 1.534
446.30 1.533
446.40 1.531
446.50 1.53
446.60 1.529
446.70 1.528
446.80 1.526
446.90 1.525
447.00 1.524
447.10 1.523
447.20 1.521
447.30 1.52
447.40 1.519
447.50 1.518
447.60 1.516
447.70 1.515
447.80 1.514
447.90 1.513
448.00 1.512
448.10 1.51
448.20 1.509
448.30 1.508
448.40 1.507
448.50 1.505
448.60 1.504
448.70 1.503
448.80 1.502
448.90 1.5
449.00 1.499
449.10 1.498
449.20 1.497
449.30 1.496
449.40 1.494
449.50 1.493
449.60 1.492
449.70 1.491
449.80 1.489
449.90 1.488
450.00 1.487
450.10 1.486
450.20 1.485
450.30 1.483
450.40 1.482
450.50 1.481
450.60 1.48
450.70 1.478
450.80 1.477
450.90 1.476
451.00 1.475
451.10 1.474
451.20 1.472
451.30 1.471
451.40 1.47
451.50 1.469
451.60 1.468
451.70 1.466
451.80 1.465
451.90 1.464
452.00 1.463
452.10 1.462
452.20 1.46
452.30 1.459
452.40 1.458
452.50 1.457
452.60 1.456
452.70 1.454
452.80 1.453
452.90 1.452
453.00 1.451
453.10 1.45
453.20 1.448
453.30 1.447
453.40 1.446
453.50 1.445
453.60 1.444
453.70 1.442
453.80 1.441
453.90 1.44
454.00 1.439
454.10 1.438
