# Version 2.1 - nm, norm@500 to 1, cut digits, bergeron_9500_80.dat_9500
# Wavelength(nm)  Flambda(ergs/cm^s/s/nm)
300.00 1.613
300.10 1.612
300.20 1.612
300.30 1.612
300.40 1.611
300.50 1.611
300.60 1.61
300.70 1.61
300.80 1.609
300.90 1.609
301.00 1.608
301.10 1.608
301.20 1.607
301.30 1.607
301.40 1.606
301.50 1.606
301.60 1.605
301.70 1.605
301.80 1.604
301.90 1.604
302.00 1.603
302.10 1.603
302.20 1.602
302.30 1.602
302.40 1.601
302.50 1.601
302.60 1.6
302.70 1.6
302.80 1.599
302.90 1.599
303.00 1.598
303.10 1.598
303.20 1.597
303.30 1.597
303.40 1.596
303.50 1.596
303.60 1.595
303.70 1.595
303.80 1.594
303.90 1.594
304.00 1.593
304.10 1.593
304.20 1.592
304.30 1.592
304.40 1.591
304.50 1.591
304.60 1.59
304.70 1.59
304.80 1.589
304.90 1.589
305.00 1.588
305.10 1.588
305.20 1.587
305.30 1.587
305.40 1.586
305.50 1.586
305.60 1.585
305.70 1.585
305.80 1.584
305.90 1.584
306.00 1.583
306.10 1.583
306.20 1.582
306.30 1.582
306.40 1.581
306.50 1.581
306.60 1.58
306.70 1.58
306.80 1.579
306.90 1.579
307.00 1.578
307.10 1.578
307.20 1.577
307.30 1.577
307.40 1.576
307.50 1.576
307.60 1.575
307.70 1.575
307.80 1.574
307.90 1.574
308.00 1.573
308.10 1.573
308.20 1.572
308.30 1.572
308.40 1.571
308.50 1.571
308.60 1.57
308.70 1.57
308.80 1.569
308.90 1.569
309.00 1.568
309.10 1.568
309.20 1.567
309.30 1.567
309.40 1.566
309.50 1.566
309.60 1.565
309.70 1.565
309.80 1.564
309.90 1.564
310.00 1.563
310.10 1.563
310.20 1.562
310.30 1.562
310.40 1.561
310.50 1.561
310.60 1.56
310.70 1.56
310.80 1.559
310.90 1.559
311.00 1.558
311.10 1.558
311.20 1.557
311.30 1.556
311.40 1.556
311.50 1.555
311.60 1.555
311.70 1.554
311.80 1.554
311.90 1.553
312.00 1.553
312.10 1.552
312.20 1.552
312.30 1.551
312.40 1.551
312.50 1.55
312.60 1.55
312.70 1.549
312.80 1.549
312.90 1.548
313.00 1.548
313.10 1.547
313.20 1.547
313.30 1.546
313.40 1.546
313.50 1.545
313.60 1.545
313.70 1.544
313.80 1.544
313.90 1.543
314.00 1.543
314.10 1.542
314.20 1.542
314.30 1.541
314.40 1.541
314.50 1.54
314.60 1.54
314.70 1.539
314.80 1.539
314.90 1.538
315.00 1.538
315.10 1.537
315.20 1.536
315.30 1.536
315.40 1.535
315.50 1.535
315.60 1.534
315.70 1.534
315.80 1.533
315.90 1.533
316.00 1.532
316.10 1.532
316.20 1.531
316.30 1.531
316.40 1.53
316.50 1.53
316.60 1.529
316.70 1.529
316.80 1.528
316.90 1.528
317.00 1.527
317.10 1.527
317.20 1.526
317.30 1.526
317.40 1.525
317.50 1.525
317.60 1.524
317.70 1.524
317.80 1.523
317.90 1.523
318.00 1.522
318.10 1.521
318.20 1.521
318.30 1.52
318.40 1.52
318.50 1.519
318.60 1.519
318.70 1.518
318.80 1.518
318.90 1.517
319.00 1.517
319.10 1.516
319.20 1.516
319.30 1.515
319.40 1.515
319.50 1.514
319.60 1.514
319.70 1.513
319.80 1.513
319.90 1.512
320.00 1.512
320.10 1.511
320.20 1.511
320.30 1.51
320.40 1.51
320.50 1.509
320.60 1.508
320.70 1.508
320.80 1.507
320.90 1.507
321.00 1.506
321.10 1.506
321.20 1.505
321.30 1.505
321.40 1.504
321.50 1.504
321.60 1.503
321.70 1.503
321.80 1.502
321.90 1.502
322.00 1.501
322.10 1.501
322.20 1.5
322.30 1.5
322.40 1.499
322.50 1.499
322.60 1.498
322.70 1.497
322.80 1.497
322.90 1.496
323.00 1.496
323.10 1.495
323.20 1.495
323.30 1.494
323.40 1.494
323.50 1.493
323.60 1.493
323.70 1.492
323.80 1.492
323.90 1.491
324.00 1.491
324.10 1.49
324.20 1.49
324.30 1.489
324.40 1.489
324.50 1.488
324.60 1.488
324.70 1.487
324.80 1.486
324.90 1.486
325.00 1.485
325.10 1.485
325.20 1.484
325.30 1.484
325.40 1.483
325.50 1.483
325.60 1.482
325.70 1.482
325.80 1.481
325.90 1.481
326.00 1.48
326.10 1.48
326.20 1.479
326.30 1.479
326.40 1.478
326.50 1.478
326.60 1.477
326.70 1.477
326.80 1.476
326.90 1.475
327.00 1.475
327.10 1.474
327.20 1.474
327.30 1.473
327.40 1.473
327.50 1.472
327.60 1.472
327.70 1.471
327.80 1.471
327.90 1.47
328.00 1.47
328.10 1.469
328.20 1.469
328.30 1.468
328.40 1.468
328.50 1.467
328.60 1.467
328.70 1.466
328.80 1.465
328.90 1.465
329.00 1.464
329.10 1.464
329.20 1.463
329.30 1.463
329.40 1.462
329.50 1.462
329.60 1.461
329.70 1.461
329.80 1.46
329.90 1.46
330.00 1.459
330.10 1.459
330.20 1.458
330.30 1.458
330.40 1.457
330.50 1.457
330.60 1.456
330.70 1.455
330.80 1.455
330.90 1.454
331.00 1.454
331.10 1.453
331.20 1.453
331.30 1.452
331.40 1.452
331.50 1.451
331.60 1.451
331.70 1.45
331.80 1.45
331.90 1.449
332.00 1.449
332.10 1.448
332.20 1.448
332.30 1.447
332.40 1.446
332.50 1.446
332.60 1.445
332.70 1.445
332.80 1.444
332.90 1.444
333.00 1.443
333.10 1.443
333.20 1.442
333.30 1.442
333.40 1.441
333.50 1.441
333.60 1.44
333.70 1.44
333.80 1.439
333.90 1.439
334.00 1.438
334.10 1.438
334.20 1.437
334.30 1.436
334.40 1.436
334.50 1.435
334.60 1.435
334.70 1.434
334.80 1.434
334.90 1.433
335.00 1.433
335.10 1.432
335.20 1.432
335.30 1.431
335.40 1.431
335.50 1.43
335.60 1.43
335.70 1.429
335.80 1.429
335.90 1.428
336.00 1.428
336.10 1.427
336.20 1.426
336.30 1.426
336.40 1.425
336.50 1.425
336.60 1.424
336.70 1.424
336.80 1.423
336.90 1.423
337.00 1.422
337.10 1.422
337.20 1.421
337.30 1.421
337.40 1.42
337.50 1.42
337.60 1.419
337.70 1.419
337.80 1.418
337.90 1.418
338.00 1.417
338.10 1.416
338.20 1.416
338.30 1.415
338.40 1.415
338.50 1.414
338.60 1.414
338.70 1.413
338.80 1.413
338.90 1.412
339.00 1.412
339.10 1.411
339.20 1.411
339.30 1.41
339.40 1.41
339.50 1.409
339.60 1.409
339.70 1.408
339.80 1.407
339.90 1.407
340.00 1.406
340.10 1.406
340.20 1.405
340.30 1.405
340.40 1.404
340.50 1.404
340.60 1.403
340.70 1.403
340.80 1.402
340.90 1.402
341.00 1.401
341.10 1.401
341.20 1.4
341.30 1.4
341.40 1.399
341.50 1.399
341.60 1.398
341.70 1.397
341.80 1.397
341.90 1.396
342.00 1.396
342.10 1.395
342.20 1.395
342.30 1.394
342.40 1.394
342.50 1.393
342.60 1.393
342.70 1.392
342.80 1.392
342.90 1.391
343.00 1.391
343.10 1.39
343.20 1.39
343.30 1.389
343.40 1.389
343.50 1.388
343.60 1.387
343.70 1.387
343.80 1.386
343.90 1.386
344.00 1.385
344.10 1.385
344.20 1.384
344.30 1.384
344.40 1.383
344.50 1.383
344.60 1.382
344.70 1.382
344.80 1.381
344.90 1.381
345.00 1.38
345.10 1.38
345.20 1.379
345.30 1.379
345.40 1.378
345.50 1.377
345.60 1.377
345.70 1.376
345.80 1.376
345.90 1.375
346.00 1.375
346.10 1.374
346.20 1.374
346.30 1.373
346.40 1.373
346.50 1.372
346.60 1.372
346.70 1.371
346.80 1.371
346.90 1.37
347.00 1.37
347.10 1.369
347.20 1.369
347.30 1.368
347.40 1.368
347.50 1.367
347.60 1.366
347.70 1.366
347.80 1.365
347.90 1.365
348.00 1.364
348.10 1.364
348.20 1.363
348.30 1.363
348.40 1.362
348.50 1.362
348.60 1.361
348.70 1.361
348.80 1.36
348.90 1.36
349.00 1.359
349.10 1.359
349.20 1.358
349.30 1.358
349.40 1.357
349.50 1.356
349.60 1.356
349.70 1.355
349.80 1.355
349.90 1.354
350.00 1.354
350.10 1.353
350.20 1.353
350.30 1.352
350.40 1.352
350.50 1.351
350.60 1.351
350.70 1.35
350.80 1.35
350.90 1.349
351.00 1.349
351.10 1.348
351.20 1.348
351.30 1.347
351.40 1.347
351.50 1.346
351.60 1.346
351.70 1.345
351.80 1.344
351.90 1.344
352.00 1.343
352.10 1.343
352.20 1.342
352.30 1.342
352.40 1.341
352.50 1.341
352.60 1.34
352.70 1.34
352.80 1.339
352.90 1.339
353.00 1.338
353.10 1.338
353.20 1.337
353.30 1.337
353.40 1.336
353.50 1.336
353.60 1.335
353.70 1.335
353.80 1.334
353.90 1.334
354.00 1.333
354.10 1.333
354.20 1.332
354.30 1.331
354.40 1.331
354.50 1.33
354.60 1.33
354.70 1.329
354.80 1.329
354.90 1.328
355.00 1.328
355.10 1.327
355.20 1.327
355.30 1.326
355.40 1.326
355.50 1.325
355.60 1.325
355.70 1.324
355.80 1.324
355.90 1.323
356.00 1.323
356.10 1.322
356.20 1.322
356.30 1.321
356.40 1.321
356.50 1.32
356.60 1.32
356.70 1.319
356.80 1.318
356.90 1.318
357.00 1.317
357.10 1.317
357.20 1.316
357.30 1.316
357.40 1.315
357.50 1.315
357.60 1.314
357.70 1.314
357.80 1.313
357.90 1.313
358.00 1.312
358.10 1.312
358.20 1.311
358.30 1.311
358.40 1.31
358.50 1.31
358.60 1.309
358.70 1.309
358.80 1.308
358.90 1.308
359.00 1.307
359.10 1.307
359.20 1.306
359.30 1.306
359.40 1.305
359.50 1.305
359.60 1.304
359.70 1.303
359.80 1.303
359.90 1.302
360.00 1.302
360.10 1.301
360.20 1.301
360.30 1.3
360.40 1.3
360.50 1.299
360.60 1.299
360.70 1.298
360.80 1.298
360.90 1.297
361.00 1.297
361.10 1.296
361.20 1.296
361.30 1.295
361.40 1.295
361.50 1.294
361.60 1.294
361.70 1.293
361.80 1.293
361.90 1.292
362.00 1.292
362.10 1.291
362.20 1.291
362.30 1.29
362.40 1.29
362.50 1.289
362.60 1.289
362.70 1.288
362.80 1.288
362.90 1.287
363.00 1.287
363.10 1.286
363.20 1.285
363.30 1.285
363.40 1.284
363.50 1.284
363.60 1.283
363.70 1.283
363.80 1.282
363.90 1.281
364.00 1.281
364.10 1.28
364.20 1.28
364.30 1.279
364.40 1.279
364.50 1.278
364.60 1.277
364.70 1.277
364.80 1.276
364.90 1.276
365.00 1.275
365.10 1.275
365.20 1.274
365.30 1.273
365.40 1.273
365.50 1.272
365.60 1.272
365.70 1.271
365.80 1.271
365.90 1.27
366.00 1.269
366.10 1.269
366.20 1.268
366.30 1.268
366.40 1.267
366.50 1.267
366.60 1.266
366.70 1.266
366.80 1.265
366.90 1.265
367.00 1.264
367.10 1.264
367.20 1.263
367.30 1.263
367.40 1.262
367.50 1.262
367.60 1.261
367.70 1.261
367.80 1.26
367.90 1.26
368.00 1.259
368.10 1.259
368.20 1.259
368.30 1.258
368.40 1.258
368.50 1.258
368.60 1.258
368.70 1.258
368.80 1.257
368.90 1.257
369.00 1.257
369.10 1.257
369.20 1.256
369.30 1.256
369.40 1.256
369.50 1.256
369.60 1.255
369.70 1.255
369.80 1.255
369.90 1.255
370.00 1.254
370.10 1.255
370.20 1.255
370.30 1.256
370.40 1.256
370.50 1.257
370.60 1.257
370.70 1.258
370.80 1.258
370.90 1.259
371.00 1.259
371.10 1.26
371.20 1.26
371.30 1.26
371.40 1.261
371.50 1.261
371.60 1.262
371.70 1.262
371.80 1.263
371.90 1.263
372.00 1.264
372.10 1.265
372.20 1.266
372.30 1.267
372.40 1.268
372.50 1.269
372.60 1.27
372.70 1.271
372.80 1.272
372.90 1.274
373.00 1.275
373.10 1.276
373.20 1.277
373.30 1.278
373.40 1.279
373.50 1.28
373.60 1.281
373.70 1.282
373.80 1.283
373.90 1.284
374.00 1.286
374.10 1.287
374.20 1.288
374.30 1.289
374.40 1.29
374.50 1.291
374.60 1.293
374.70 1.294
374.80 1.295
374.90 1.296
375.00 1.297
375.10 1.299
375.20 1.3
375.30 1.301
375.40 1.302
375.50 1.303
375.60 1.304
375.70 1.306
375.80 1.307
375.90 1.308
376.00 1.309
376.10 1.31
376.20 1.31
376.30 1.311
376.40 1.311
376.50 1.312
376.60 1.313
376.70 1.313
376.80 1.314
376.90 1.314
377.00 1.315
377.10 1.314
377.20 1.313
377.30 1.313
377.40 1.312
377.50 1.311
377.60 1.31
377.70 1.309
377.80 1.308
377.90 1.308
378.00 1.307
378.10 1.3
378.20 1.294
378.30 1.287
378.40 1.281
378.50 1.274
378.60 1.268
378.70 1.262
378.80 1.255
378.90 1.249
379.00 1.242
379.10 1.234
379.20 1.225
379.30 1.217
379.40 1.209
379.50 1.2
379.60 1.192
379.70 1.184
379.80 1.175
379.90 1.167
380.00 1.159
380.10 1.17
380.20 1.182
380.30 1.194
380.40 1.206
380.50 1.218
380.60 1.23
380.70 1.242
380.80 1.254
380.90 1.266
381.00 1.278
381.10 1.281
381.20 1.284
381.30 1.286
381.40 1.289
381.50 1.292
381.60 1.292
381.70 1.291
381.80 1.289
381.90 1.286
382.00 1.281
382.10 1.276
382.20 1.269
382.30 1.25
382.40 1.231
382.50 1.213
382.60 1.194
382.70 1.175
382.80 1.156
382.90 1.137
383.00 1.119
383.10 1.1
383.20 1.081
383.30 1.053
383.40 1.021
383.50 0.9901
383.60 0.9964
383.70 1.029
383.80 1.061
383.90 1.089
384.00 1.117
384.10 1.145
384.20 1.171
384.30 1.195
384.40 1.216
384.50 1.234
384.60 1.25
384.70 1.263
384.80 1.274
384.90 1.284
385.00 1.292
385.10 1.298
385.20 1.304
385.30 1.309
385.40 1.312
385.50 1.315
385.60 1.318
385.70 1.319
385.80 1.321
385.90 1.321
386.00 1.321
386.10 1.32
386.20 1.319
386.30 1.317
386.40 1.315
386.50 1.312
386.60 1.308
386.70 1.304
386.80 1.299
386.90 1.294
387.00 1.287
387.10 1.28
387.20 1.272
387.30 1.263
387.40 1.253
387.50 1.241
387.60 1.228
387.70 1.214
387.80 1.196
387.90 1.175
388.00 1.152
388.10 1.123
388.20 1.09
388.30 1.053
388.40 1.009
388.50 0.9642
388.60 0.9176
388.70 0.869
388.80 0.8243
388.90 0.7835
389.00 0.821
389.10 0.8642
389.20 0.9131
389.30 0.96
389.40 1.006
389.50 1.05
389.60 1.088
389.70 1.122
389.80 1.152
389.90 1.176
390.00 1.198
390.10 1.217
390.20 1.232
390.30 1.247
390.40 1.26
390.50 1.271
390.60 1.281
390.70 1.291
390.80 1.3
390.90 1.308
391.00 1.315
391.10 1.322
391.20 1.328
391.30 1.334
391.40 1.339
391.50 1.343
391.60 1.348
391.70 1.351
391.80 1.355
391.90 1.358
392.00 1.361
392.10 1.363
392.20 1.365
392.30 1.366
392.40 1.367
392.50 1.368
392.60 1.368
392.70 1.368
392.80 1.368
392.90 1.367
393.00 1.366
393.10 1.365
393.20 1.363
393.30 1.361
393.40 1.358
393.50 1.355
393.60 1.352
393.70 1.348
393.80 1.344
393.90 1.339
394.00 1.334
394.10 1.328
394.20 1.322
394.30 1.315
394.40 1.308
394.50 1.3
394.60 1.292
394.70 1.283
394.80 1.274
394.90 1.263
395.00 1.252
395.10 1.241
395.20 1.228
395.30 1.215
395.40 1.2
395.50 1.185
395.60 1.168
395.70 1.149
395.80 1.13
395.90 1.107
396.00 1.081
396.10 1.054
396.20 1.02
396.30 0.9804
396.40 0.9364
396.50 0.8812
396.60 0.8224
396.70 0.7599
396.80 0.6986
396.90 0.6368
397.00 0.5746
397.10 0.6312
397.20 0.6898
397.30 0.7506
397.40 0.813
397.50 0.872
397.60 0.9277
397.70 0.9723
397.80 1.012
397.90 1.047
398.00 1.074
398.10 1.1
398.20 1.122
398.30 1.142
398.40 1.16
398.50 1.177
398.60 1.193
398.70 1.207
398.80 1.221
398.90 1.233
399.00 1.245
399.10 1.257
399.20 1.267
399.30 1.277
399.40 1.286
399.50 1.295
399.60 1.303
399.70 1.311
399.80 1.318
399.90 1.325
400.00 1.332
400.10 1.338
400.20 1.344
400.30 1.35
400.40 1.355
400.50 1.36
400.60 1.364
400.70 1.368
400.80 1.372
400.90 1.376
401.00 1.38
401.10 1.383
401.20 1.386
401.30 1.389
401.40 1.392
401.50 1.394
401.60 1.396
401.70 1.399
401.80 1.401
401.90 1.402
402.00 1.404
402.10 1.405
402.20 1.407
402.30 1.408
402.40 1.409
402.50 1.41
402.60 1.41
402.70 1.411
402.80 1.411
402.90 1.412
403.00 1.412
403.10 1.412
403.20 1.412
403.30 1.411
403.40 1.411
403.50 1.411
403.60 1.41
403.70 1.409
403.80 1.408
403.90 1.407
404.00 1.406
404.10 1.405
404.20 1.404
404.30 1.402
404.40 1.4
404.50 1.399
404.60 1.397
404.70 1.394
404.80 1.392
404.90 1.39
405.00 1.387
405.10 1.384
405.20 1.382
405.30 1.378
405.40 1.375
405.50 1.372
405.60 1.368
405.70 1.364
405.80 1.36
405.90 1.356
406.00 1.351
406.10 1.346
406.20 1.341
406.30 1.336
406.40 1.331
406.50 1.325
406.60 1.319
406.70 1.312
406.80 1.306
406.90 1.299
407.00 1.291
407.10 1.283
407.20 1.275
407.30 1.266
407.40 1.257
407.50 1.247
407.60 1.237
407.70 1.226
407.80 1.215
407.90 1.203
408.00 1.19
408.10 1.177
408.20 1.163
408.30 1.148
408.40 1.132
408.50 1.115
408.60 1.098
408.70 1.079
408.80 1.059
408.90 1.038
409.00 1.015
409.10 0.9894
409.20 0.9617
409.30 0.9319
409.40 0.8954
409.50 0.8543
409.60 0.8084
409.70 0.7519
409.80 0.6924
409.90 0.6297
410.00 0.5708
410.10 0.5212
410.20 0.481
410.30 0.5424
410.40 0.6029
410.50 0.6625
410.60 0.724
410.70 0.7808
410.80 0.8329
410.90 0.8745
411.00 0.9119
411.10 0.9449
411.20 0.9723
411.30 0.9977
411.40 1.021
411.50 1.042
411.60 1.062
411.70 1.081
411.80 1.098
411.90 1.114
412.00 1.13
412.10 1.144
412.20 1.158
412.30 1.17
412.40 1.182
412.50 1.194
412.60 1.205
412.70 1.215
412.80 1.224
412.90 1.234
413.00 1.242
413.10 1.25
413.20 1.258
413.30 1.265
413.40 1.272
413.50 1.279
413.60 1.285
413.70 1.29
413.80 1.296
413.90 1.301
414.00 1.306
414.10 1.311
414.20 1.315
414.30 1.32
414.40 1.324
414.50 1.328
414.60 1.331
414.70 1.335
414.80 1.338
414.90 1.341
415.00 1.344
415.10 1.347
415.20 1.35
415.30 1.353
415.40 1.355
415.50 1.357
415.60 1.359
415.70 1.362
415.80 1.363
415.90 1.365
416.00 1.367
416.10 1.369
416.20 1.37
416.30 1.372
416.40 1.373
416.50 1.375
416.60 1.376
416.70 1.377
416.80 1.378
416.90 1.379
417.00 1.38
417.10 1.381
417.20 1.382
417.30 1.383
417.40 1.384
417.50 1.384
417.60 1.385
417.70 1.386
417.80 1.386
417.90 1.387
418.00 1.387
418.10 1.387
418.20 1.388
418.30 1.388
418.40 1.389
418.50 1.389
418.60 1.389
418.70 1.389
418.80 1.389
418.90 1.389
419.00 1.39
419.10 1.39
419.20 1.39
419.30 1.39
419.40 1.39
419.50 1.39
419.60 1.39
419.70 1.389
419.80 1.389
419.90 1.389
420.00 1.389
420.10 1.389
420.20 1.389
420.30 1.388
420.40 1.388
420.50 1.388
420.60 1.387
420.70 1.387
420.80 1.387
420.90 1.386
421.00 1.386
421.10 1.386
421.20 1.385
421.30 1.385
421.40 1.384
421.50 1.384
421.60 1.383
421.70 1.383
421.80 1.382
421.90 1.382
422.00 1.381
422.10 1.381
422.20 1.38
422.30 1.379
422.40 1.379
422.50 1.378
422.60 1.377
422.70 1.377
422.80 1.376
422.90 1.375
423.00 1.374
423.10 1.374
423.20 1.373
423.30 1.372
423.40 1.371
423.50 1.37
423.60 1.369
423.70 1.368
423.80 1.368
423.90 1.367
424.00 1.366
424.10 1.365
424.20 1.364
424.30 1.363
424.40 1.362
424.50 1.361
424.60 1.359
424.70 1.358
424.80 1.357
424.90 1.356
425.00 1.355
425.10 1.354
425.20 1.352
425.30 1.351
425.40 1.35
425.50 1.348
425.60 1.347
425.70 1.346
425.80 1.344
425.90 1.343
426.00 1.341
426.10 1.34
426.20 1.338
426.30 1.336
426.40 1.334
426.50 1.333
426.60 1.331
426.70 1.329
426.80 1.327
426.90 1.325
427.00 1.323
427.10 1.321
427.20 1.319
427.30 1.317
427.40 1.315
427.50 1.313
427.60 1.31
427.70 1.308
427.80 1.306
427.90 1.303
428.00 1.301
428.10 1.298
428.20 1.295
428.30 1.292
428.40 1.289
428.50 1.286
428.60 1.283
428.70 1.28
428.80 1.277
428.90 1.273
429.00 1.27
429.10 1.266
429.20 1.262
429.30 1.258
429.40 1.254
429.50 1.25
429.60 1.245
429.70 1.24
429.80 1.236
429.90 1.231
430.00 1.225
430.10 1.22
430.20 1.214
430.30 1.209
430.40 1.203
430.50 1.196
430.60 1.19
430.70 1.183
430.80 1.176
430.90 1.169
431.00 1.161
431.10 1.153
431.20 1.145
431.30 1.136
431.40 1.127
431.50 1.117
431.60 1.107
431.70 1.097
431.80 1.086
431.90 1.074
432.00 1.061
432.10 1.048
432.20 1.033
432.30 1.018
432.40 1.001
432.50 0.9825
432.60 0.9625
432.70 0.9411
432.80 0.9172
432.90 0.8922
433.00 0.8662
433.10 0.8388
433.20 0.8098
433.30 0.7792
433.40 0.7424
433.50 0.7013
433.60 0.6559
433.70 0.604
433.80 0.5539
433.90 0.5054
434.00 0.4437
434.10 0.4449
434.20 0.5091
434.30 0.5575
434.40 0.6074
434.50 0.6588
434.60 0.7031
434.70 0.7432
434.80 0.7791
434.90 0.8088
435.00 0.837
435.10 0.8637
435.20 0.8888
435.30 0.9128
435.40 0.9357
435.50 0.9561
435.60 0.975
435.70 0.9926
435.80 1.008
435.90 1.023
436.00 1.036
436.10 1.048
436.20 1.06
436.30 1.071
436.40 1.081
436.50 1.09
436.60 1.099
436.70 1.108
436.80 1.116
436.90 1.123
437.00 1.13
437.10 1.137
437.20 1.144
437.30 1.15
437.40 1.156
437.50 1.162
437.60 1.167
437.70 1.172
437.80 1.177
437.90 1.182
438.00 1.186
438.10 1.19
438.20 1.194
438.30 1.198
438.40 1.202
438.50 1.205
438.60 1.209
438.70 1.212
438.80 1.215
438.90 1.218
439.00 1.22
439.10 1.223
439.20 1.225
439.30 1.228
439.40 1.23
439.50 1.232
439.60 1.234
439.70 1.236
439.80 1.238
439.90 1.239
440.00 1.241
440.10 1.242
440.20 1.244
440.30 1.245
440.40 1.247
440.50 1.248
440.60 1.249
440.70 1.25
440.80 1.251
440.90 1.252
441.00 1.253
441.10 1.254
441.20 1.255
441.30 1.256
441.40 1.257
441.50 1.257
441.60 1.258
441.70 1.259
441.80 1.259
441.90 1.26
442.00 1.26
442.10 1.261
442.20 1.261
442.30 1.262
442.40 1.262
442.50 1.262
442.60 1.263
442.70 1.263
442.80 1.263
442.90 1.264
443.00 1.264
443.10 1.264
443.20 1.264
443.30 1.264
443.40 1.265
443.50 1.265
443.60 1.265
443.70 1.265
443.80 1.265
443.90 1.265
444.00 1.265
444.10 1.265
444.20 1.265
444.30 1.265
444.40 1.265
444.50 1.265
444.60 1.265
444.70 1.265
444.80 1.265
444.90 1.265
445.00 1.265
445.10 1.264
445.20 1.264
445.30 1.264
445.40 1.264
445.50 1.264
445.60 1.264
445.70 1.263
445.80 1.263
445.90 1.263
446.00 1.263
446.10 1.263
446.20 1.262
446.30 1.262
446.40 1.262
446.50 1.262
446.60 1.261
446.70 1.261
446.80 1.261
446.90 1.261
447.00 1.26
447.10 1.26
447.20 1.26
447.30 1.259
447.40 1.259
447.50 1.259
447.60 1.258
447.70 1.258
447.80 1.258
447.90 1.257
448.00 1.257
448.10 1.257
448.20 1.256
448.30 1.256
448.40 1.256
448.50 1.255
448.60 1.255
448.70 1.255
448.80 1.254
448.90 1.254
449.00 1.254
449.10 1.253
449.20 1.253
449.30 1.252
449.40 1.252
449.50 1.252
449.60 1.251
449.70 1.251
449.80 1.25
449.90 1.25
450.00 1.25
450.10 1.249
450.20 1.249
450.30 1.248
450.40 1.248
450.50 1.247
450.60 1.247
450.70 1.246
450.80 1.246
450.90 1.246
451.00 1.245
451.10 1.245
451.20 1.244
451.30 1.244
451.40 1.243
451.50 1.243
451.60 1.242
451.70 1.242
451.80 1.242
451.90 1.241
452.00 1.241
452.10 1.24
452.20 1.24
452.30 1.239
452.40 1.239
452.50 1.238
452.60 1.238
452.70 1.237
452.80 1.237
452.90 1.236
453.00 1.236
453.10 1.235
453.20 1.235
453.30 1.234
453.40 1.234
453.50 1.233
453.60 1.233
