# Version 2.1 - nm, norm@500 to 1, cut digits, bergeron_60000_75.dat_60000
# Wavelength(nm)  Flambda(ergs/cm^s/s/nm)
300.00 6.395
300.10 6.387
300.20 6.379
300.30 6.371
300.40 6.364
300.50 6.356
300.60 6.348
300.70 6.34
300.80 6.333
300.90 6.325
301.00 6.317
301.10 6.31
301.20 6.302
301.30 6.294
301.40 6.287
301.50 6.279
301.60 6.271
301.70 6.264
301.80 6.256
301.90 6.249
302.00 6.241
302.10 6.233
302.20 6.226
302.30 6.218
302.40 6.211
302.50 6.203
302.60 6.196
302.70 6.188
302.80 6.181
302.90 6.173
303.00 6.166
303.10 6.158
303.20 6.151
303.30 6.143
303.40 6.136
303.50 6.129
303.60 6.121
303.70 6.114
303.80 6.106
303.90 6.099
304.00 6.092
304.10 6.084
304.20 6.077
304.30 6.07
304.40 6.062
304.50 6.055
304.60 6.048
304.70 6.041
304.80 6.033
304.90 6.026
305.00 6.019
305.10 6.012
305.20 6.004
305.30 5.997
305.40 5.99
305.50 5.983
305.60 5.975
305.70 5.968
305.80 5.961
305.90 5.954
306.00 5.947
306.10 5.94
306.20 5.933
306.30 5.926
306.40 5.918
306.50 5.911
306.60 5.904
306.70 5.897
306.80 5.89
306.90 5.883
307.00 5.876
307.10 5.869
307.20 5.862
307.30 5.855
307.40 5.848
307.50 5.841
307.60 5.834
307.70 5.827
307.80 5.82
307.90 5.813
308.00 5.806
308.10 5.799
308.20 5.793
308.30 5.786
308.40 5.779
308.50 5.772
308.60 5.765
308.70 5.758
308.80 5.751
308.90 5.744
309.00 5.738
309.10 5.731
309.20 5.724
309.30 5.717
309.40 5.71
309.50 5.704
309.60 5.697
309.70 5.69
309.80 5.683
309.90 5.677
310.00 5.67
310.10 5.663
310.20 5.657
310.30 5.65
310.40 5.643
310.50 5.637
310.60 5.63
310.70 5.623
310.80 5.617
310.90 5.61
311.00 5.603
311.10 5.597
311.20 5.59
311.30 5.583
311.40 5.577
311.50 5.57
311.60 5.564
311.70 5.557
311.80 5.551
311.90 5.544
312.00 5.538
312.10 5.531
312.20 5.525
312.30 5.518
312.40 5.512
312.50 5.505
312.60 5.499
312.70 5.492
312.80 5.486
312.90 5.479
313.00 5.473
313.10 5.466
313.20 5.46
313.30 5.454
313.40 5.447
313.50 5.441
313.60 5.434
313.70 5.428
313.80 5.422
313.90 5.415
314.00 5.409
314.10 5.403
314.20 5.396
314.30 5.39
314.40 5.384
314.50 5.378
314.60 5.371
314.70 5.365
314.80 5.359
314.90 5.352
315.00 5.346
315.10 5.34
315.20 5.334
315.30 5.328
315.40 5.321
315.50 5.315
315.60 5.309
315.70 5.303
315.80 5.297
315.90 5.29
316.00 5.284
316.10 5.278
316.20 5.272
316.30 5.266
316.40 5.26
316.50 5.254
316.60 5.248
316.70 5.241
316.80 5.235
316.90 5.229
317.00 5.223
317.10 5.217
317.20 5.211
317.30 5.205
317.40 5.199
317.50 5.193
317.60 5.187
317.70 5.181
317.80 5.175
317.90 5.169
318.00 5.163
318.10 5.157
318.20 5.151
318.30 5.145
318.40 5.139
318.50 5.133
318.60 5.127
318.70 5.121
318.80 5.116
318.90 5.11
319.00 5.104
319.10 5.098
319.20 5.092
319.30 5.086
319.40 5.08
319.50 5.074
319.60 5.069
319.70 5.063
319.80 5.057
319.90 5.051
320.00 5.045
320.10 5.039
320.20 5.034
320.30 5.028
320.40 5.022
320.50 5.016
320.60 5.011
320.70 5.005
320.80 4.999
320.90 4.993
321.00 4.988
321.10 4.982
321.20 4.976
321.30 4.971
321.40 4.965
321.50 4.959
321.60 4.954
321.70 4.948
321.80 4.942
321.90 4.937
322.00 4.931
322.10 4.925
322.20 4.92
322.30 4.914
322.40 4.908
322.50 4.903
322.60 4.897
322.70 4.892
322.80 4.886
322.90 4.88
323.00 4.875
323.10 4.869
323.20 4.864
323.30 4.858
323.40 4.853
323.50 4.847
323.60 4.842
323.70 4.836
323.80 4.831
323.90 4.825
324.00 4.82
324.10 4.814
324.20 4.809
324.30 4.803
324.40 4.798
324.50 4.792
324.60 4.787
324.70 4.782
324.80 4.776
324.90 4.771
325.00 4.765
325.10 4.76
325.20 4.755
325.30 4.749
325.40 4.744
325.50 4.738
325.60 4.733
325.70 4.728
325.80 4.722
325.90 4.717
326.00 4.712
326.10 4.706
326.20 4.701
326.30 4.696
326.40 4.69
326.50 4.685
326.60 4.68
326.70 4.675
326.80 4.669
326.90 4.664
327.00 4.659
327.10 4.654
327.20 4.648
327.30 4.643
327.40 4.638
327.50 4.633
327.60 4.627
327.70 4.622
327.80 4.617
327.90 4.612
328.00 4.607
328.10 4.601
328.20 4.596
328.30 4.591
328.40 4.586
328.50 4.581
328.60 4.576
328.70 4.571
328.80 4.565
328.90 4.56
329.00 4.555
329.10 4.55
329.20 4.545
329.30 4.54
329.40 4.535
329.50 4.53
329.60 4.525
329.70 4.52
329.80 4.515
329.90 4.51
330.00 4.505
330.10 4.5
330.20 4.495
330.30 4.49
330.40 4.485
330.50 4.48
330.60 4.475
330.70 4.47
330.80 4.465
330.90 4.46
331.00 4.455
331.10 4.45
331.20 4.445
331.30 4.44
331.40 4.435
331.50 4.43
331.60 4.425
331.70 4.42
331.80 4.415
331.90 4.41
332.00 4.405
332.10 4.4
332.20 4.396
332.30 4.391
332.40 4.386
332.50 4.381
332.60 4.376
332.70 4.371
332.80 4.366
332.90 4.362
333.00 4.357
333.10 4.352
333.20 4.347
333.30 4.342
333.40 4.337
333.50 4.333
333.60 4.328
333.70 4.323
333.80 4.318
333.90 4.314
334.00 4.309
334.10 4.304
334.20 4.299
334.30 4.295
334.40 4.29
334.50 4.285
334.60 4.28
334.70 4.276
334.80 4.271
334.90 4.266
335.00 4.262
335.10 4.257
335.20 4.252
335.30 4.247
335.40 4.243
335.50 4.238
335.60 4.233
335.70 4.229
335.80 4.224
335.90 4.219
336.00 4.215
336.10 4.21
336.20 4.206
336.30 4.201
336.40 4.196
336.50 4.192
336.60 4.187
336.70 4.183
336.80 4.178
336.90 4.173
337.00 4.169
337.10 4.164
337.20 4.16
337.30 4.155
337.40 4.151
337.50 4.146
337.60 4.142
337.70 4.137
337.80 4.132
337.90 4.128
338.00 4.123
338.10 4.119
338.20 4.114
338.30 4.11
338.40 4.106
338.50 4.101
338.60 4.097
338.70 4.092
338.80 4.088
338.90 4.083
339.00 4.079
339.10 4.074
339.20 4.07
339.30 4.065
339.40 4.061
339.50 4.057
339.60 4.052
339.70 4.048
339.80 4.043
339.90 4.039
340.00 4.035
340.10 4.03
340.20 4.026
340.30 4.021
340.40 4.017
340.50 4.013
340.60 4.008
340.70 4.004
340.80 4
340.90 3.995
341.00 3.991
341.10 3.987
341.20 3.982
341.30 3.978
341.40 3.974
341.50 3.97
341.60 3.965
341.70 3.961
341.80 3.957
341.90 3.952
342.00 3.948
342.10 3.944
342.20 3.94
342.30 3.935
342.40 3.931
342.50 3.927
342.60 3.923
342.70 3.918
342.80 3.914
342.90 3.91
343.00 3.906
343.10 3.902
343.20 3.897
343.30 3.893
343.40 3.889
343.50 3.885
343.60 3.881
343.70 3.876
343.80 3.872
343.90 3.868
344.00 3.864
344.10 3.86
344.20 3.856
344.30 3.851
344.40 3.847
344.50 3.843
344.60 3.839
344.70 3.835
344.80 3.831
344.90 3.827
345.00 3.823
345.10 3.819
345.20 3.814
345.30 3.81
345.40 3.806
345.50 3.802
345.60 3.798
345.70 3.794
345.80 3.79
345.90 3.786
346.00 3.782
346.10 3.778
346.20 3.774
346.30 3.77
346.40 3.766
346.50 3.762
346.60 3.758
346.70 3.754
346.80 3.75
346.90 3.746
347.00 3.742
347.10 3.738
347.20 3.734
347.30 3.73
347.40 3.726
347.50 3.722
347.60 3.718
347.70 3.714
347.80 3.71
347.90 3.706
348.00 3.702
348.10 3.698
348.20 3.694
348.30 3.69
348.40 3.686
348.50 3.683
348.60 3.679
348.70 3.675
348.80 3.671
348.90 3.667
349.00 3.663
349.10 3.659
349.20 3.655
349.30 3.651
349.40 3.648
349.50 3.644
349.60 3.64
349.70 3.636
349.80 3.632
349.90 3.628
350.00 3.624
350.10 3.621
350.20 3.617
350.30 3.613
350.40 3.609
350.50 3.605
350.60 3.602
350.70 3.598
350.80 3.594
350.90 3.59
351.00 3.586
351.10 3.583
351.20 3.579
351.30 3.575
351.40 3.571
351.50 3.568
351.60 3.564
351.70 3.56
351.80 3.556
351.90 3.553
352.00 3.549
352.10 3.545
352.20 3.541
352.30 3.538
352.40 3.534
352.50 3.53
352.60 3.527
352.70 3.523
352.80 3.519
352.90 3.515
353.00 3.512
353.10 3.508
353.20 3.504
353.30 3.501
353.40 3.497
353.50 3.493
353.60 3.49
353.70 3.486
353.80 3.482
353.90 3.479
354.00 3.475
354.10 3.472
354.20 3.468
354.30 3.464
354.40 3.461
354.50 3.457
354.60 3.453
354.70 3.45
354.80 3.446
354.90 3.443
355.00 3.439
355.10 3.435
355.20 3.432
355.30 3.428
355.40 3.425
355.50 3.421
355.60 3.418
355.70 3.414
355.80 3.41
355.90 3.407
356.00 3.403
356.10 3.4
356.20 3.396
356.30 3.393
356.40 3.389
356.50 3.386
356.60 3.382
356.70 3.379
356.80 3.375
356.90 3.372
357.00 3.368
357.10 3.365
357.20 3.361
357.30 3.358
357.40 3.354
357.50 3.351
357.60 3.347
357.70 3.344
357.80 3.34
357.90 3.337
358.00 3.333
358.10 3.33
358.20 3.327
358.30 3.323
358.40 3.32
358.50 3.316
358.60 3.313
358.70 3.309
358.80 3.306
358.90 3.303
359.00 3.299
359.10 3.296
359.20 3.292
359.30 3.289
359.40 3.286
359.50 3.282
359.60 3.279
359.70 3.275
359.80 3.272
359.90 3.269
360.00 3.265
360.10 3.262
360.20 3.259
360.30 3.255
360.40 3.252
360.50 3.249
360.60 3.245
360.70 3.242
360.80 3.239
360.90 3.235
361.00 3.232
361.10 3.229
361.20 3.225
361.30 3.222
361.40 3.219
361.50 3.215
361.60 3.212
361.70 3.209
361.80 3.206
361.90 3.202
362.00 3.199
362.10 3.196
362.20 3.192
362.30 3.189
362.40 3.186
362.50 3.183
362.60 3.179
362.70 3.176
362.80 3.173
362.90 3.17
363.00 3.166
363.10 3.163
363.20 3.16
363.30 3.157
363.40 3.153
363.50 3.15
363.60 3.147
363.70 3.144
363.80 3.141
363.90 3.137
364.00 3.134
364.10 3.131
364.20 3.128
364.30 3.125
364.40 3.121
364.50 3.118
364.60 3.115
364.70 3.112
364.80 3.109
364.90 3.106
365.00 3.103
365.10 3.099
365.20 3.096
365.30 3.093
365.40 3.09
365.50 3.087
365.60 3.084
365.70 3.081
365.80 3.077
365.90 3.074
366.00 3.071
366.10 3.068
366.20 3.065
366.30 3.062
366.40 3.058
366.50 3.055
366.60 3.052
366.70 3.049
366.80 3.046
366.90 3.042
367.00 3.039
367.10 3.036
367.20 3.033
367.30 3.03
367.40 3.027
367.50 3.024
367.60 3.02
367.70 3.017
367.80 3.014
367.90 3.011
368.00 3.008
368.10 3.005
368.20 3.002
368.30 2.998
368.40 2.995
368.50 2.992
368.60 2.989
368.70 2.986
368.80 2.983
368.90 2.98
369.00 2.977
369.10 2.974
369.20 2.97
369.30 2.967
369.40 2.964
369.50 2.961
369.60 2.958
369.70 2.955
369.80 2.952
369.90 2.949
370.00 2.946
370.10 2.943
370.20 2.94
370.30 2.937
370.40 2.934
370.50 2.931
370.60 2.928
370.70 2.925
370.80 2.922
370.90 2.919
371.00 2.916
371.10 2.913
371.20 2.91
371.30 2.907
371.40 2.904
371.50 2.901
371.60 2.898
371.70 2.895
371.80 2.892
371.90 2.889
372.00 2.886
372.10 2.883
372.20 2.88
372.30 2.877
372.40 2.874
372.50 2.871
372.60 2.868
372.70 2.865
372.80 2.863
372.90 2.86
373.00 2.857
373.10 2.854
373.20 2.851
373.30 2.848
373.40 2.845
373.50 2.842
373.60 2.839
373.70 2.837
373.80 2.834
373.90 2.831
374.00 2.828
374.10 2.825
374.20 2.822
374.30 2.82
374.40 2.817
374.50 2.814
374.60 2.811
374.70 2.809
374.80 2.806
374.90 2.803
375.00 2.8
375.10 2.797
375.20 2.795
375.30 2.792
375.40 2.789
375.50 2.786
375.60 2.784
375.70 2.781
375.80 2.778
375.90 2.775
376.00 2.773
376.10 2.77
376.20 2.767
376.30 2.765
376.40 2.762
376.50 2.759
376.60 2.757
376.70 2.754
376.80 2.751
376.90 2.749
377.00 2.746
377.10 2.743
377.20 2.741
377.30 2.738
377.40 2.736
377.50 2.734
377.60 2.731
377.70 2.729
377.80 2.726
377.90 2.724
378.00 2.721
378.10 2.718
378.20 2.716
378.30 2.713
378.40 2.711
378.50 2.708
378.60 2.706
378.70 2.703
378.80 2.7
378.90 2.698
379.00 2.695
379.10 2.693
379.20 2.69
379.30 2.688
379.40 2.685
379.50 2.683
379.60 2.68
379.70 2.678
379.80 2.675
379.90 2.673
380.00 2.67
380.10 2.668
380.20 2.666
380.30 2.664
380.40 2.662
380.50 2.66
380.60 2.657
380.70 2.655
380.80 2.653
380.90 2.651
381.00 2.649
381.10 2.647
381.20 2.644
381.30 2.642
381.40 2.639
381.50 2.637
381.60 2.634
381.70 2.632
381.80 2.629
381.90 2.626
382.00 2.624
382.10 2.621
382.20 2.618
382.30 2.615
382.40 2.612
382.50 2.608
382.60 2.605
382.70 2.602
382.80 2.599
382.90 2.596
383.00 2.593
383.10 2.59
383.20 2.586
383.30 2.583
383.40 2.581
383.50 2.578
383.60 2.576
383.70 2.575
383.80 2.573
383.90 2.572
384.00 2.571
384.10 2.57
384.20 2.569
384.30 2.568
384.40 2.567
384.50 2.566
384.60 2.565
384.70 2.563
384.80 2.562
384.90 2.561
385.00 2.559
385.10 2.558
385.20 2.556
385.30 2.554
385.40 2.552
385.50 2.55
385.60 2.548
385.70 2.546
385.80 2.544
385.90 2.541
386.00 2.539
386.10 2.536
386.20 2.533
386.30 2.53
386.40 2.527
386.50 2.524
386.60 2.52
386.70 2.517
386.80 2.513
386.90 2.51
387.00 2.506
387.10 2.502
387.20 2.497
387.30 2.493
387.40 2.489
387.50 2.484
387.60 2.48
387.70 2.475
387.80 2.47
387.90 2.465
388.00 2.46
388.10 2.455
388.20 2.45
388.30 2.445
388.40 2.44
388.50 2.435
388.60 2.43
388.70 2.427
388.80 2.423
388.90 2.421
389.00 2.42
389.10 2.419
389.20 2.419
389.30 2.419
389.40 2.42
389.50 2.421
389.60 2.422
389.70 2.424
389.80 2.425
389.90 2.426
390.00 2.427
390.10 2.428
390.20 2.429
390.30 2.43
390.40 2.431
390.50 2.431
390.60 2.432
390.70 2.432
390.80 2.432
390.90 2.432
391.00 2.432
391.10 2.432
391.20 2.432
391.30 2.432
391.40 2.431
391.50 2.43
391.60 2.43
391.70 2.429
391.80 2.427
391.90 2.426
392.00 2.425
392.10 2.423
392.20 2.422
392.30 2.42
392.40 2.418
392.50 2.416
392.60 2.414
392.70 2.412
392.80 2.409
392.90 2.407
393.00 2.404
393.10 2.401
393.20 2.398
393.30 2.395
393.40 2.392
393.50 2.389
393.60 2.385
393.70 2.381
393.80 2.377
393.90 2.373
394.00 2.369
394.10 2.365
394.20 2.36
394.30 2.355
394.40 2.35
394.50 2.345
394.60 2.34
394.70 2.334
394.80 2.329
394.90 2.323
395.00 2.316
395.10 2.31
395.20 2.303
395.30 2.297
395.40 2.289
395.50 2.282
395.60 2.275
395.70 2.267
395.80 2.259
395.90 2.251
396.00 2.243
396.10 2.234
396.20 2.225
396.30 2.217
396.40 2.208
396.50 2.199
396.60 2.19
396.70 2.182
396.80 2.173
396.90 2.165
397.00 2.158
397.10 2.161
397.20 2.165
397.30 2.17
397.40 2.175
397.50 2.18
397.60 2.185
397.70 2.189
397.80 2.194
397.90 2.199
398.00 2.204
398.10 2.208
398.20 2.213
398.30 2.217
398.40 2.22
398.50 2.224
398.60 2.228
398.70 2.231
398.80 2.234
398.90 2.237
399.00 2.239
399.10 2.242
399.20 2.244
399.30 2.246
399.40 2.248
399.50 2.249
399.60 2.251
399.70 2.252
399.80 2.253
399.90 2.254
400.00 2.255
400.10 2.256
400.20 2.256
400.30 2.257
400.40 2.257
400.50 2.257
400.60 2.257
400.70 2.257
400.80 2.257
400.90 2.256
401.00 2.256
401.10 2.255
401.20 2.255
401.30 2.254
401.40 2.253
401.50 2.252
401.60 2.251
401.70 2.25
401.80 2.249
401.90 2.248
402.00 2.247
402.10 2.246
402.20 2.244
402.30 2.243
402.40 2.241
402.50 2.24
402.60 2.238
402.70 2.237
402.80 2.235
402.90 2.233
403.00 2.231
403.10 2.23
403.20 2.228
403.30 2.226
403.40 2.224
403.50 2.222
403.60 2.22
403.70 2.217
403.80 2.215
403.90 2.213
404.00 2.211
404.10 2.208
404.20 2.206
404.30 2.203
404.40 2.201
404.50 2.198
404.60 2.196
404.70 2.193
404.80 2.19
404.90 2.187
405.00 2.184
405.10 2.182
405.20 2.178
405.30 2.175
405.40 2.172
405.50 2.169
405.60 2.166
405.70 2.162
405.80 2.159
405.90 2.155
406.00 2.151
406.10 2.147
406.20 2.143
406.30 2.139
406.40 2.135
406.50 2.131
406.60 2.126
406.70 2.121
406.80 2.117
406.90 2.112
407.00 2.106
407.10 2.101
407.20 2.096
407.30 2.09
407.40 2.084
407.50 2.078
407.60 2.071
407.70 2.065
407.80 2.058
407.90 2.051
408.00 2.043
408.10 2.036
408.20 2.028
408.30 2.019
408.40 2.011
408.50 2.002
408.60 1.993
408.70 1.983
408.80 1.973
408.90 1.963
409.00 1.952
409.10 1.941
409.20 1.93
409.30 1.919
409.40 1.907
409.50 1.895
409.60 1.883
409.70 1.871
409.80 1.859
409.90 1.847
410.00 1.84
410.10 1.837
410.20 1.839
410.30 1.835
410.40 1.836
410.50 1.843
410.60 1.852
410.70 1.86
410.80 1.869
410.90 1.878
411.00 1.886
411.10 1.895
411.20 1.902
411.30 1.91
411.40 1.917
411.50 1.924
411.60 1.93
411.70 1.936
411.80 1.942
411.90 1.948
412.00 1.953
412.10 1.957
412.20 1.962
412.30 1.966
412.40 1.97
412.50 1.973
412.60 1.976
412.70 1.979
412.80 1.982
412.90 1.985
413.00 1.987
413.10 1.989
413.20 1.991
413.30 1.992
413.40 1.994
413.50 1.995
413.60 1.996
413.70 1.997
413.80 1.998
413.90 1.999
414.00 1.999
414.10 2
414.20 2
414.30 2
414.40 2
414.50 2
414.60 2
414.70 2
414.80 1.999
414.90 1.999
415.00 1.999
415.10 1.998
415.20 1.997
415.30 1.997
415.40 1.996
415.50 1.995
415.60 1.995
415.70 1.994
415.80 1.993
415.90 1.992
416.00 1.991
416.10 1.99
416.20 1.989
416.30 1.988
416.40 1.987
416.50 1.985
416.60 1.984
416.70 1.983
416.80 1.982
416.90 1.981
417.00 1.979
417.10 1.978
417.20 1.977
417.30 1.975
417.40 1.974
417.50 1.973
417.60 1.971
417.70 1.97
417.80 1.968
417.90 1.967
418.00 1.965
418.10 1.964
418.20 1.962
418.30 1.961
418.40 1.959
418.50 1.958
418.60 1.956
418.70 1.955
418.80 1.953
418.90 1.952
419.00 1.95
419.10 1.949
419.20 1.947
419.30 1.946
419.40 1.944
419.50 1.942
419.60 1.941
419.70 1.939
419.80 1.937
419.90 1.936
420.00 1.934
420.10 1.933
420.20 1.931
420.30 1.929
420.40 1.928
420.50 1.926
420.60 1.924
420.70 1.923
420.80 1.921
420.90 1.919
421.00 1.918
421.10 1.916
421.20 1.914
421.30 1.913
421.40 1.911
421.50 1.909
421.60 1.908
421.70 1.906
421.80 1.904
421.90 1.903
422.00 1.901
422.10 1.899
422.20 1.897
422.30 1.896
422.40 1.894
422.50 1.892
422.60 1.891
422.70 1.889
422.80 1.887
422.90 1.885
423.00 1.884
423.10 1.882
423.20 1.88
423.30 1.879
423.40 1.877
423.50 1.875
423.60 1.873
423.70 1.872
423.80 1.87
423.90 1.868
424.00 1.866
424.10 1.865
424.20 1.863
424.30 1.861
424.40 1.859
424.50 1.857
424.60 1.856
424.70 1.854
424.80 1.852
424.90 1.85
425.00 1.848
425.10 1.847
425.20 1.845
425.30 1.843
425.40 1.841
425.50 1.839
425.60 1.837
425.70 1.836
425.80 1.834
425.90 1.832
426.00 1.83
426.10 1.828
426.20 1.826
426.30 1.824
426.40 1.822
426.50 1.82
426.60 1.818
426.70 1.816
426.80 1.814
426.90 1.812
427.00 1.81
427.10 1.808
427.20 1.806
427.30 1.804
427.40 1.802
427.50 1.8
427.60 1.798
427.70 1.796
427.80 1.794
427.90 1.791
428.00 1.789
428.10 1.787
428.20 1.784
428.30 1.782
428.40 1.78
428.50 1.777
428.60 1.775
428.70 1.772
428.80 1.77
428.90 1.767
429.00 1.765
429.10 1.762
429.20 1.759
429.30 1.756
429.40 1.754
429.50 1.751
429.60 1.748
429.70 1.745
429.80 1.741
429.90 1.738
430.00 1.735
430.10 1.731
430.20 1.728
430.30 1.724
430.40 1.72
430.50 1.716
430.60 1.712
430.70 1.708
430.80 1.704
430.90 1.699
431.00 1.694
431.10 1.689
431.20 1.684
431.30 1.679
431.40 1.673
431.50 1.668
431.60 1.662
431.70 1.655
431.80 1.649
431.90 1.642
432.00 1.635
432.10 1.628
432.20 1.62
432.30 1.612
432.40 1.603
432.50 1.595
432.60 1.586
432.70 1.576
432.80 1.566
432.90 1.556
433.00 1.546
433.10 1.535
433.20 1.523
433.30 1.512
433.40 1.5
433.50 1.489
433.60 1.477
433.70 1.466
433.80 1.454
433.90 1.444
434.00 1.435
434.10 1.434
434.20 1.441
434.30 1.449
434.40 1.458
434.50 1.467
434.60 1.476
434.70 1.485
434.80 1.494
434.90 1.503
435.00 1.512
435.10 1.52
435.20 1.528
435.30 1.535
435.40 1.542
435.50 1.549
435.60 1.555
435.70 1.561
435.80 1.566
435.90 1.572
436.00 1.576
436.10 1.581
436.20 1.585
436.30 1.589
436.40 1.592
436.50 1.596
436.60 1.599
436.70 1.601
436.80 1.604
436.90 1.606
437.00 1.608
437.10 1.61
437.20 1.612
437.30 1.613
437.40 1.614
437.50 1.616
437.60 1.616
437.70 1.617
437.80 1.618
437.90 1.619
438.00 1.619
438.10 1.62
438.20 1.62
438.30 1.62
438.40 1.62
438.50 1.62
438.60 1.62
438.70 1.62
438.80 1.62
438.90 1.62
439.00 1.619
439.10 1.619
439.20 1.618
439.30 1.618
439.40 1.617
439.50 1.617
439.60 1.616
439.70 1.616
439.80 1.615
439.90 1.614
440.00 1.614
440.10 1.613
440.20 1.612
440.30 1.611
440.40 1.61
440.50 1.609
440.60 1.608
440.70 1.607
440.80 1.607
440.90 1.606
441.00 1.605
441.10 1.604
441.20 1.603
441.30 1.602
441.40 1.6
441.50 1.599
441.60 1.598
441.70 1.597
441.80 1.596
441.90 1.595
442.00 1.594
442.10 1.593
442.20 1.592
442.30 1.591
442.40 1.589
442.50 1.588
442.60 1.587
442.70 1.586
442.80 1.585
442.90 1.584
443.00 1.582
443.10 1.581
443.20 1.58
443.30 1.579
443.40 1.578
443.50 1.576
443.60 1.575
443.70 1.574
443.80 1.573
443.90 1.572
444.00 1.57
444.10 1.569
444.20 1.568
444.30 1.567
444.40 1.565
444.50 1.564
444.60 1.563
444.70 1.562
444.80 1.56
444.90 1.559
445.00 1.558
445.10 1.557
445.20 1.555
445.30 1.554
445.40 1.553
445.50 1.552
445.60 1.55
445.70 1.549
445.80 1.548
445.90 1.547
446.00 1.545
446.10 1.544
446.20 1.543
446.30 1.542
446.40 1.54
446.50 1.539
446.60 1.538
446.70 1.537
446.80 1.535
446.90 1.534
447.00 1.533
447.10 1.531
447.20 1.53
447.30 1.529
447.40 1.528
447.50 1.526
447.60 1.525
447.70 1.524
447.80 1.523
447.90 1.521
448.00 1.52
448.10 1.519
448.20 1.518
448.30 1.516
448.40 1.515
448.50 1.514
448.60 1.513
448.70 1.511
448.80 1.51
448.90 1.509
449.00 1.508
449.10 1.506
449.20 1.505
449.30 1.504
449.40 1.503
449.50 1.501
449.60 1.5
449.70 1.499
449.80 1.498
449.90 1.496
450.00 1.495
450.10 1.494
450.20 1.493
450.30 1.491
450.40 1.49
450.50 1.489
450.60 1.488
450.70 1.486
450.80 1.485
450.90 1.484
451.00 1.483
451.10 1.481
451.20 1.48
451.30 1.479
451.40 1.478
451.50 1.477
451.60 1.475
451.70 1.474
451.80 1.473
451.90 1.472
452.00 1.47
452.10 1.469
452.20 1.468
452.30 1.467
452.40 1.465
452.50 1.464
452.60 1.463
452.70 1.462
452.80 1.461
452.90 1.459
453.00 1.458
453.10 1.457
453.20 1.456
453.30 1.455
453.40 1.453
453.50 1.452
453.60 1.451
453.70 1.45
453.80 1.448
453.90 1.447
454.00 1.446
454.10 1.445
454.20 1.444
454.30 1.442
454.40 1.441
454.50 1.44
