# Version 2.1 - nm, norm@500 to 1, cut digits, bergeron_2250_75.dat_2250
# Wavelength(nm)  Flambda(ergs/cm^s/s/nm)
300.00 0.03961
300.10 0.03974
300.20 0.03988
300.30 0.04002
300.40 0.04015
300.50 0.04029
300.60 0.04043
300.70 0.04057
300.80 0.04071
300.90 0.04084
301.00 0.04098
301.10 0.04112
301.20 0.04125
301.30 0.04139
301.40 0.04153
301.50 0.04166
301.60 0.0418
301.70 0.04194
301.80 0.04207
301.90 0.04221
302.00 0.04235
302.10 0.04249
302.20 0.04263
302.30 0.04278
302.40 0.04292
302.50 0.04307
302.60 0.04321
302.70 0.04336
302.80 0.0435
302.90 0.04365
303.00 0.04379
303.10 0.04393
303.20 0.04408
303.30 0.04422
303.40 0.04436
303.50 0.04451
303.60 0.04465
303.70 0.04479
303.80 0.04493
303.90 0.04508
304.00 0.04522
304.10 0.04537
304.20 0.04552
304.30 0.04567
304.40 0.04583
304.50 0.04598
304.60 0.04613
304.70 0.04628
304.80 0.04643
304.90 0.04658
305.00 0.04673
305.10 0.04688
305.20 0.04703
305.30 0.04718
305.40 0.04733
305.50 0.04748
305.60 0.04763
305.70 0.04778
305.80 0.04793
305.90 0.04808
306.00 0.04823
306.10 0.04839
306.20 0.04855
306.30 0.04871
306.40 0.04886
306.50 0.04902
306.60 0.04918
306.70 0.04934
306.80 0.0495
306.90 0.04966
307.00 0.04981
307.10 0.04997
307.20 0.05013
307.30 0.05028
307.40 0.05044
307.50 0.0506
307.60 0.05075
307.70 0.05091
307.80 0.05107
307.90 0.05122
308.00 0.05138
308.10 0.05155
308.20 0.05171
308.30 0.05188
308.40 0.05204
308.50 0.05221
308.60 0.05237
308.70 0.05254
308.80 0.0527
308.90 0.05287
309.00 0.05303
309.10 0.0532
309.20 0.05336
309.30 0.05352
309.40 0.05369
309.50 0.05385
309.60 0.05402
309.70 0.05418
309.80 0.05434
309.90 0.0545
310.00 0.05467
310.10 0.05484
310.20 0.05501
310.30 0.05519
310.40 0.05536
310.50 0.05554
310.60 0.05571
310.70 0.05588
310.80 0.05606
310.90 0.05623
311.00 0.0564
311.10 0.05657
311.20 0.05674
311.30 0.05692
311.40 0.05709
311.50 0.05726
311.60 0.05743
311.70 0.0576
311.80 0.05777
311.90 0.05794
312.00 0.05811
312.10 0.05828
312.20 0.05846
312.30 0.05863
312.40 0.05881
312.50 0.05899
312.60 0.05917
312.70 0.05935
312.80 0.05953
312.90 0.05971
313.00 0.05989
313.10 0.06007
313.20 0.06025
313.30 0.06043
313.40 0.06061
313.50 0.06079
313.60 0.06097
313.70 0.06114
313.80 0.06132
313.90 0.0615
314.00 0.06169
314.10 0.06187
314.20 0.06205
314.30 0.06224
314.40 0.06243
314.50 0.06262
314.60 0.06281
314.70 0.06299
314.80 0.06318
314.90 0.06337
315.00 0.06355
315.10 0.06374
315.20 0.06393
315.30 0.06411
315.40 0.0643
315.50 0.06448
315.60 0.06467
315.70 0.06485
315.80 0.06504
315.90 0.06522
316.00 0.06541
316.10 0.0656
316.20 0.0658
316.30 0.06599
316.40 0.06619
316.50 0.06638
316.60 0.06658
316.70 0.06677
316.80 0.06697
316.90 0.06716
317.00 0.06736
317.10 0.06755
317.20 0.06774
317.30 0.06794
317.40 0.06813
317.50 0.06832
317.60 0.06851
317.70 0.06871
317.80 0.0689
317.90 0.06909
318.00 0.06929
318.10 0.06949
318.20 0.06969
318.30 0.06989
318.40 0.0701
318.50 0.0703
318.60 0.0705
318.70 0.0707
318.80 0.07091
318.90 0.07111
319.00 0.07131
319.10 0.07151
319.20 0.07171
319.30 0.07191
319.40 0.07211
319.50 0.07231
319.60 0.07251
319.70 0.07271
319.80 0.07291
319.90 0.07311
320.00 0.07332
320.10 0.07353
320.20 0.07374
320.30 0.07395
320.40 0.07416
320.50 0.07437
320.60 0.07458
320.70 0.07479
320.80 0.075
320.90 0.07521
321.00 0.07542
321.10 0.07563
321.20 0.07584
321.30 0.07604
321.40 0.07625
321.50 0.07646
321.60 0.07667
321.70 0.07688
321.80 0.07708
321.90 0.07729
322.00 0.0775
322.10 0.07772
322.20 0.07794
322.30 0.07815
322.40 0.07837
322.50 0.07859
322.60 0.07881
322.70 0.07903
322.80 0.07925
322.90 0.07946
323.00 0.07968
323.10 0.0799
323.20 0.08011
323.30 0.08033
323.40 0.08055
323.50 0.08076
323.60 0.08098
323.70 0.08119
323.80 0.08141
323.90 0.08163
324.00 0.08184
324.10 0.08207
324.20 0.08229
324.30 0.08252
324.40 0.08275
324.50 0.08297
324.60 0.0832
324.70 0.08343
324.80 0.08365
324.90 0.08388
325.00 0.0841
325.10 0.08433
325.20 0.08455
325.30 0.08478
325.40 0.085
325.50 0.08522
325.60 0.08545
325.70 0.08567
325.80 0.08589
325.90 0.08612
326.00 0.08635
326.10 0.08657
326.20 0.08681
326.30 0.08704
326.40 0.08728
326.50 0.08751
326.60 0.08775
326.70 0.08798
326.80 0.08821
326.90 0.08845
327.00 0.08868
327.10 0.08891
327.20 0.08915
327.30 0.08938
327.40 0.08961
327.50 0.08984
327.60 0.09007
327.70 0.0903
327.80 0.09053
327.90 0.09077
328.00 0.09101
328.10 0.09124
328.20 0.09148
328.30 0.09173
328.40 0.09197
328.50 0.09221
328.60 0.09245
328.70 0.0927
328.80 0.09294
328.90 0.09318
329.00 0.09342
329.10 0.09366
329.20 0.0939
329.30 0.09414
329.40 0.09438
329.50 0.09462
329.60 0.09486
329.70 0.0951
329.80 0.09534
329.90 0.09558
330.00 0.09582
330.10 0.09607
330.20 0.09632
330.30 0.09657
330.40 0.09682
330.50 0.09707
330.60 0.09733
330.70 0.09758
330.80 0.09783
330.90 0.09807
331.00 0.09832
331.10 0.09857
331.20 0.09882
331.30 0.09907
331.40 0.09932
331.50 0.09957
331.60 0.09981
331.70 0.1001
331.80 0.1003
331.90 0.1006
332.00 0.1008
332.10 0.1011
332.20 0.1013
332.30 0.1016
332.40 0.1018
332.50 0.1021
332.60 0.1024
332.70 0.1026
332.80 0.1029
332.90 0.1031
333.00 0.1034
333.10 0.1036
333.20 0.1039
333.30 0.1042
333.40 0.1044
333.50 0.1047
333.60 0.1049
333.70 0.1052
333.80 0.1054
333.90 0.1057
334.00 0.1059
334.10 0.1062
334.20 0.1065
334.30 0.1068
334.40 0.107
334.50 0.1073
334.60 0.1076
334.70 0.1078
334.80 0.1081
334.90 0.1084
335.00 0.1086
335.10 0.1089
335.20 0.1092
335.30 0.1094
335.40 0.1097
335.50 0.1099
335.60 0.1102
335.70 0.1105
335.80 0.1107
335.90 0.111
336.00 0.1113
336.10 0.1115
336.20 0.1118
336.30 0.1121
336.40 0.1124
336.50 0.1126
336.60 0.1129
336.70 0.1132
336.80 0.1135
336.90 0.1137
337.00 0.114
337.10 0.1143
337.20 0.1146
337.30 0.1148
337.40 0.1151
337.50 0.1154
337.60 0.1157
337.70 0.1159
337.80 0.1162
337.90 0.1165
338.00 0.1167
338.10 0.117
338.20 0.1173
338.30 0.1176
338.40 0.1179
338.50 0.1182
338.60 0.1184
338.70 0.1187
338.80 0.119
338.90 0.1193
339.00 0.1196
339.10 0.1199
339.20 0.1201
339.30 0.1204
339.40 0.1207
339.50 0.121
339.60 0.1213
339.70 0.1215
339.80 0.1218
339.90 0.1221
340.00 0.1224
340.10 0.1227
340.20 0.123
340.30 0.1233
340.40 0.1236
340.50 0.1238
340.60 0.1241
340.70 0.1244
340.80 0.1247
340.90 0.125
341.00 0.1253
341.10 0.1256
341.20 0.1259
341.30 0.1262
341.40 0.1265
341.50 0.1268
341.60 0.127
341.70 0.1273
341.80 0.1276
341.90 0.1279
342.00 0.1282
342.10 0.1285
342.20 0.1288
342.30 0.1291
342.40 0.1294
342.50 0.1297
342.60 0.13
342.70 0.1303
342.80 0.1306
342.90 0.1309
343.00 0.1312
343.10 0.1315
343.20 0.1318
343.30 0.1321
343.40 0.1324
343.50 0.1327
343.60 0.133
343.70 0.1333
343.80 0.1336
343.90 0.1339
344.00 0.1342
344.10 0.1345
344.20 0.1348
344.30 0.1351
344.40 0.1354
344.50 0.1357
344.60 0.136
344.70 0.1363
344.80 0.1367
344.90 0.137
345.00 0.1373
345.10 0.1376
345.20 0.1379
345.30 0.1382
345.40 0.1385
345.50 0.1388
345.60 0.1391
345.70 0.1394
345.80 0.1397
345.90 0.14
346.00 0.1403
346.10 0.1406
346.20 0.141
346.30 0.1413
346.40 0.1416
346.50 0.1419
346.60 0.1422
346.70 0.1426
346.80 0.1429
346.90 0.1432
347.00 0.1435
347.10 0.1438
347.20 0.1441
347.30 0.1444
347.40 0.1448
347.50 0.1451
347.60 0.1454
347.70 0.1457
347.80 0.146
347.90 0.1463
348.00 0.1466
348.10 0.147
348.20 0.1473
348.30 0.1476
348.40 0.148
348.50 0.1483
348.60 0.1486
348.70 0.1489
348.80 0.1493
348.90 0.1496
349.00 0.1499
349.10 0.1502
349.20 0.1506
349.30 0.1509
349.40 0.1512
349.50 0.1515
349.60 0.1518
349.70 0.1522
349.80 0.1525
349.90 0.1528
350.00 0.1531
350.10 0.1535
350.20 0.1538
350.30 0.1541
350.40 0.1545
350.50 0.1548
350.60 0.1551
350.70 0.1555
350.80 0.1558
350.90 0.1562
351.00 0.1565
351.10 0.1568
351.20 0.1571
351.30 0.1575
351.40 0.1578
351.50 0.1581
351.60 0.1585
351.70 0.1588
351.80 0.1591
351.90 0.1595
352.00 0.1598
352.10 0.1601
352.20 0.1605
352.30 0.1608
352.40 0.1612
352.50 0.1615
352.60 0.1619
352.70 0.1622
352.80 0.1625
352.90 0.1629
353.00 0.1632
353.10 0.1636
353.20 0.1639
353.30 0.1642
353.40 0.1646
353.50 0.1649
353.60 0.1653
353.70 0.1656
353.80 0.1659
353.90 0.1663
354.00 0.1666
354.10 0.167
354.20 0.1673
354.30 0.1677
354.40 0.168
354.50 0.1684
354.60 0.1687
354.70 0.1691
354.80 0.1694
354.90 0.1698
355.00 0.1701
355.10 0.1705
355.20 0.1708
355.30 0.1712
355.40 0.1715
355.50 0.1719
355.60 0.1722
355.70 0.1726
355.80 0.1729
355.90 0.1733
356.00 0.1736
356.10 0.174
356.20 0.1743
356.30 0.1747
356.40 0.1751
356.50 0.1754
356.60 0.1758
356.70 0.1761
356.80 0.1765
356.90 0.1769
357.00 0.1772
357.10 0.1776
357.20 0.1779
357.30 0.1783
357.40 0.1786
357.50 0.179
357.60 0.1794
357.70 0.1797
357.80 0.1801
357.90 0.1804
358.00 0.1808
358.10 0.1811
358.20 0.1815
358.30 0.1819
358.40 0.1823
358.50 0.1826
358.60 0.183
358.70 0.1834
358.80 0.1837
358.90 0.1841
359.00 0.1845
359.10 0.1848
359.20 0.1852
359.30 0.1856
359.40 0.1859
359.50 0.1863
359.60 0.1867
359.70 0.187
359.80 0.1874
359.90 0.1877
360.00 0.1881
360.10 0.1885
360.20 0.1889
360.30 0.1892
360.40 0.1896
360.50 0.19
360.60 0.1904
360.70 0.1907
360.80 0.1911
360.90 0.1915
361.00 0.1919
361.10 0.1922
361.20 0.1926
361.30 0.193
361.40 0.1934
361.50 0.1937
361.60 0.1941
361.70 0.1945
361.80 0.1949
361.90 0.1952
362.00 0.1956
362.10 0.196
362.20 0.1964
362.30 0.1967
362.40 0.1971
362.50 0.1975
362.60 0.1979
362.70 0.1983
362.80 0.1987
362.90 0.199
363.00 0.1994
363.10 0.1998
363.20 0.2002
363.30 0.2006
363.40 0.201
363.50 0.2014
363.60 0.2017
363.70 0.2021
363.80 0.2025
363.90 0.2029
364.00 0.2033
364.10 0.2037
364.20 0.204
364.30 0.2044
364.40 0.2048
364.50 0.2052
364.60 0.2056
364.70 0.206
364.80 0.2064
364.90 0.2068
365.00 0.2072
365.10 0.2076
365.20 0.208
365.30 0.2084
365.40 0.2087
365.50 0.2091
365.60 0.2095
365.70 0.2099
365.80 0.2103
365.90 0.2107
366.00 0.2111
366.10 0.2115
366.20 0.2119
366.30 0.2123
366.40 0.2127
366.50 0.2131
366.60 0.2135
366.70 0.2139
366.80 0.2143
366.90 0.2147
367.00 0.2151
367.10 0.2155
367.20 0.2159
367.30 0.2163
367.40 0.2167
367.50 0.2171
367.60 0.2175
367.70 0.2179
367.80 0.2183
367.90 0.2187
368.00 0.2191
368.10 0.2195
368.20 0.2199
368.30 0.2203
368.40 0.2207
368.50 0.2211
368.60 0.2216
368.70 0.222
368.80 0.2224
368.90 0.2228
369.00 0.2232
369.10 0.2236
369.20 0.224
369.30 0.2244
369.40 0.2248
369.50 0.2252
369.60 0.2256
369.70 0.226
369.80 0.2264
369.90 0.2268
370.00 0.2272
370.10 0.2277
370.20 0.2281
370.30 0.2285
370.40 0.2289
370.50 0.2293
370.60 0.2298
370.70 0.2302
370.80 0.2306
370.90 0.231
371.00 0.2314
371.10 0.2318
371.20 0.2323
371.30 0.2327
371.40 0.2331
371.50 0.2335
371.60 0.2339
371.70 0.2343
371.80 0.2347
371.90 0.2352
372.00 0.2356
372.10 0.236
372.20 0.2364
372.30 0.2369
372.40 0.2373
372.50 0.2377
372.60 0.2381
372.70 0.2386
372.80 0.239
372.90 0.2394
373.00 0.2398
373.10 0.2403
373.20 0.2407
373.30 0.2411
373.40 0.2415
373.50 0.242
373.60 0.2424
373.70 0.2428
373.80 0.2432
373.90 0.2436
374.00 0.2441
374.10 0.2445
374.20 0.2449
374.30 0.2454
374.40 0.2458
374.50 0.2462
374.60 0.2467
374.70 0.2471
374.80 0.2475
374.90 0.248
375.00 0.2484
375.10 0.2488
375.20 0.2493
375.30 0.2497
375.40 0.2501
375.50 0.2506
375.60 0.251
375.70 0.2514
375.80 0.2518
375.90 0.2523
376.00 0.2527
376.10 0.2531
376.20 0.2536
376.30 0.254
376.40 0.2545
376.50 0.2549
376.60 0.2553
376.70 0.2558
376.80 0.2562
376.90 0.2566
377.00 0.2571
377.10 0.2575
377.20 0.258
377.30 0.2584
377.40 0.2589
377.50 0.2593
377.60 0.2597
377.70 0.2602
377.80 0.2606
377.90 0.2611
378.00 0.2615
378.10 0.2619
378.20 0.2624
378.30 0.2628
378.40 0.2633
378.50 0.2637
378.60 0.2642
378.70 0.2646
378.80 0.2651
378.90 0.2655
379.00 0.266
379.10 0.2664
379.20 0.2669
379.30 0.2673
379.40 0.2678
379.50 0.2682
379.60 0.2687
379.70 0.2691
379.80 0.2696
379.90 0.27
380.00 0.2705
380.10 0.2709
380.20 0.2714
380.30 0.2718
380.40 0.2723
380.50 0.2727
380.60 0.2732
380.70 0.2736
380.80 0.2741
380.90 0.2745
381.00 0.275
381.10 0.2755
381.20 0.2759
381.30 0.2764
381.40 0.2768
381.50 0.2773
381.60 0.2777
381.70 0.2782
381.80 0.2787
381.90 0.2791
382.00 0.2796
382.10 0.28
382.20 0.2805
382.30 0.281
382.40 0.2814
382.50 0.2819
382.60 0.2823
382.70 0.2828
382.80 0.2833
382.90 0.2837
383.00 0.2842
383.10 0.2847
383.20 0.2851
383.30 0.2856
383.40 0.286
383.50 0.2865
383.60 0.287
383.70 0.2874
383.80 0.2879
383.90 0.2884
384.00 0.2888
384.10 0.2893
384.20 0.2898
384.30 0.2902
384.40 0.2907
384.50 0.2912
384.60 0.2917
384.70 0.2921
384.80 0.2926
384.90 0.2931
385.00 0.2935
385.10 0.294
385.20 0.2945
385.30 0.2949
385.40 0.2954
385.50 0.2959
385.60 0.2964
385.70 0.2968
385.80 0.2973
385.90 0.2978
386.00 0.2983
386.10 0.2987
386.20 0.2992
386.30 0.2997
386.40 0.3002
386.50 0.3006
386.60 0.3011
386.70 0.3016
386.80 0.3021
386.90 0.3025
387.00 0.303
387.10 0.3035
387.20 0.304
387.30 0.3045
387.40 0.3049
387.50 0.3054
387.60 0.3059
387.70 0.3064
387.80 0.3069
387.90 0.3073
388.00 0.3078
388.10 0.3083
388.20 0.3088
388.30 0.3093
388.40 0.3098
388.50 0.3102
388.60 0.3107
388.70 0.3112
388.80 0.3117
388.90 0.3122
389.00 0.3127
389.10 0.3132
389.20 0.3136
389.30 0.3141
389.40 0.3146
389.50 0.3151
389.60 0.3156
389.70 0.3161
389.80 0.3166
389.90 0.3171
390.00 0.3175
390.10 0.318
390.20 0.3185
390.30 0.319
390.40 0.3195
390.50 0.32
390.60 0.3205
390.70 0.321
390.80 0.3215
390.90 0.322
391.00 0.3225
391.10 0.323
391.20 0.3234
391.30 0.3239
391.40 0.3244
391.50 0.3249
391.60 0.3254
391.70 0.3259
391.80 0.3264
391.90 0.3269
392.00 0.3274
392.10 0.3279
392.20 0.3284
392.30 0.3289
392.40 0.3294
392.50 0.3299
392.60 0.3304
392.70 0.3309
392.80 0.3314
392.90 0.3319
393.00 0.3324
393.10 0.3329
393.20 0.3334
393.30 0.3339
393.40 0.3344
393.50 0.3349
393.60 0.3354
393.70 0.3359
393.80 0.3364
393.90 0.3369
394.00 0.3374
394.10 0.3379
394.20 0.3384
394.30 0.3389
394.40 0.3394
394.50 0.3399
394.60 0.3404
394.70 0.3409
394.80 0.3415
394.90 0.342
395.00 0.3425
395.10 0.343
395.20 0.3435
395.30 0.344
395.40 0.3445
395.50 0.345
395.60 0.3455
395.70 0.346
395.80 0.3465
395.90 0.3471
396.00 0.3476
396.10 0.3481
396.20 0.3486
396.30 0.3491
396.40 0.3496
396.50 0.3501
396.60 0.3506
396.70 0.3511
396.80 0.3517
396.90 0.3522
397.00 0.3527
397.10 0.3532
397.20 0.3537
397.30 0.3542
397.40 0.3548
397.50 0.3553
397.60 0.3558
397.70 0.3563
397.80 0.3568
397.90 0.3573
398.00 0.3579
398.10 0.3584
398.20 0.3589
398.30 0.3594
398.40 0.3599
398.50 0.3604
398.60 0.361
398.70 0.3615
398.80 0.362
398.90 0.3625
399.00 0.363
399.10 0.3636
399.20 0.3641
399.30 0.3646
399.40 0.3651
399.50 0.3657
399.60 0.3662
399.70 0.3667
399.80 0.3672
399.90 0.3678
400.00 0.3683
400.10 0.3688
400.20 0.3693
400.30 0.3698
400.40 0.3704
400.50 0.3709
400.60 0.3714
400.70 0.372
400.80 0.3725
400.90 0.373
401.00 0.3735
401.10 0.3741
401.20 0.3746
401.30 0.3751
401.40 0.3757
401.50 0.3762
401.60 0.3767
401.70 0.3772
401.80 0.3778
401.90 0.3783
402.00 0.3788
402.10 0.3794
402.20 0.3799
402.30 0.3804
402.40 0.381
402.50 0.3815
402.60 0.382
402.70 0.3826
402.80 0.3831
402.90 0.3836
403.00 0.3842
403.10 0.3847
403.20 0.3852
403.30 0.3858
403.40 0.3863
403.50 0.3868
403.60 0.3874
403.70 0.3879
403.80 0.3884
403.90 0.389
404.00 0.3895
404.10 0.3901
404.20 0.3906
404.30 0.3911
404.40 0.3917
404.50 0.3922
404.60 0.3928
404.70 0.3933
404.80 0.3938
404.90 0.3944
405.00 0.3949
405.10 0.3955
405.20 0.396
405.30 0.3965
405.40 0.3971
405.50 0.3976
405.60 0.3982
405.70 0.3987
405.80 0.3993
405.90 0.3998
406.00 0.4003
406.10 0.4009
406.20 0.4014
406.30 0.402
406.40 0.4025
406.50 0.4031
406.60 0.4036
406.70 0.4042
406.80 0.4047
406.90 0.4052
407.00 0.4058
407.10 0.4063
407.20 0.4069
407.30 0.4074
407.40 0.408
407.50 0.4085
407.60 0.4091
407.70 0.4096
407.80 0.4102
407.90 0.4107
408.00 0.4113
408.10 0.4118
408.20 0.4124
408.30 0.4129
408.40 0.4135
408.50 0.414
408.60 0.4146
408.70 0.4151
408.80 0.4157
408.90 0.4163
409.00 0.4168
409.10 0.4174
409.20 0.4179
409.30 0.4185
409.40 0.419
409.50 0.4196
409.60 0.4201
409.70 0.4207
409.80 0.4212
409.90 0.4218
410.00 0.4224
410.10 0.4229
410.20 0.4235
410.30 0.424
410.40 0.4246
410.50 0.4251
410.60 0.4257
410.70 0.4263
410.80 0.4268
410.90 0.4274
411.00 0.4279
411.10 0.4285
411.20 0.4291
411.30 0.4296
411.40 0.4302
411.50 0.4307
411.60 0.4313
411.70 0.4319
411.80 0.4324
411.90 0.433
412.00 0.4335
412.10 0.4341
412.20 0.4347
412.30 0.4352
412.40 0.4358
412.50 0.4364
412.60 0.4369
412.70 0.4375
412.80 0.4381
412.90 0.4386
413.00 0.4392
413.10 0.4398
413.20 0.4403
413.30 0.4409
413.40 0.4415
413.50 0.442
413.60 0.4426
413.70 0.4432
413.80 0.4437
413.90 0.4443
414.00 0.4449
414.10 0.4454
414.20 0.446
414.30 0.4466
414.40 0.4471
414.50 0.4477
414.60 0.4483
414.70 0.4488
414.80 0.4494
414.90 0.45
415.00 0.4506
415.10 0.4511
415.20 0.4517
415.30 0.4523
415.40 0.4528
415.50 0.4534
415.60 0.454
415.70 0.4546
415.80 0.4551
415.90 0.4557
416.00 0.4563
416.10 0.4568
416.20 0.4574
416.30 0.458
416.40 0.4586
416.50 0.4592
416.60 0.4597
416.70 0.4603
416.80 0.4609
416.90 0.4615
417.00 0.462
417.10 0.4626
417.20 0.4632
417.30 0.4638
417.40 0.4643
417.50 0.4649
417.60 0.4655
417.70 0.4661
417.80 0.4667
417.90 0.4672
418.00 0.4678
418.10 0.4684
418.20 0.469
418.30 0.4696
418.40 0.4701
418.50 0.4707
418.60 0.4713
418.70 0.4719
418.80 0.4725
418.90 0.473
419.00 0.4736
419.10 0.4742
419.20 0.4748
419.30 0.4754
419.40 0.476
419.50 0.4765
419.60 0.4771
419.70 0.4777
419.80 0.4783
419.90 0.4789
420.00 0.4795
420.10 0.48
420.20 0.4806
420.30 0.4812
420.40 0.4818
420.50 0.4824
420.60 0.483
420.70 0.4836
420.80 0.4841
420.90 0.4847
421.00 0.4853
421.10 0.4859
421.20 0.4865
421.30 0.4871
421.40 0.4877
421.50 0.4883
421.60 0.4889
421.70 0.4894
421.80 0.49
421.90 0.4906
422.00 0.4912
422.10 0.4918
422.20 0.4924
422.30 0.493
422.40 0.4936
422.50 0.4942
422.60 0.4948
422.70 0.4954
422.80 0.4959
422.90 0.4965
423.00 0.4971
423.10 0.4977
423.20 0.4983
423.30 0.4989
423.40 0.4995
423.50 0.5001
423.60 0.5007
423.70 0.5013
423.80 0.5019
423.90 0.5025
424.00 0.5031
424.10 0.5037
424.20 0.5043
424.30 0.5049
424.40 0.5055
424.50 0.5061
424.60 0.5067
424.70 0.5072
424.80 0.5078
424.90 0.5084
425.00 0.509
425.10 0.5096
425.20 0.5102
425.30 0.5108
425.40 0.5114
425.50 0.512
425.60 0.5126
425.70 0.5132
425.80 0.5138
425.90 0.5144
426.00 0.515
426.10 0.5156
426.20 0.5162
426.30 0.5168
426.40 0.5174
426.50 0.518
426.60 0.5186
426.70 0.5192
426.80 0.5198
426.90 0.5204
427.00 0.521
427.10 0.5216
427.20 0.5223
427.30 0.5229
427.40 0.5235
427.50 0.5241
427.60 0.5247
427.70 0.5253
427.80 0.5259
427.90 0.5265
428.00 0.5271
428.10 0.5277
428.20 0.5283
428.30 0.5289
428.40 0.5295
428.50 0.5301
428.60 0.5307
428.70 0.5313
428.80 0.5319
428.90 0.5325
429.00 0.5332
429.10 0.5338
429.20 0.5344
429.30 0.535
429.40 0.5356
429.50 0.5362
429.60 0.5368
429.70 0.5374
429.80 0.538
429.90 0.5386
430.00 0.5392
430.10 0.5399
430.20 0.5405
430.30 0.5411
430.40 0.5417
430.50 0.5423
430.60 0.5429
430.70 0.5435
430.80 0.5441
430.90 0.5447
431.00 0.5454
431.10 0.546
431.20 0.5466
431.30 0.5472
431.40 0.5478
431.50 0.5484
431.60 0.549
431.70 0.5496
431.80 0.5503
431.90 0.5509
432.00 0.5515
432.10 0.5521
432.20 0.5527
432.30 0.5533
432.40 0.5539
432.50 0.5546
432.60 0.5552
432.70 0.5558
432.80 0.5564
432.90 0.557
433.00 0.5576
433.10 0.5583
433.20 0.5589
433.30 0.5595
433.40 0.5601
433.50 0.5607
433.60 0.5613
433.70 0.562
433.80 0.5626
433.90 0.5632
434.00 0.5638
434.10 0.5644
434.20 0.5651
434.30 0.5657
434.40 0.5663
434.50 0.5669
434.60 0.5675
434.70 0.5682
434.80 0.5688
434.90 0.5694
435.00 0.57
435.10 0.5706
435.20 0.5713
435.30 0.5719
435.40 0.5725
435.50 0.5731
435.60 0.5737
435.70 0.5744
435.80 0.575
435.90 0.5756
436.00 0.5762
436.10 0.5769
436.20 0.5775
436.30 0.5781
436.40 0.5787
436.50 0.5794
436.60 0.58
436.70 0.5806
436.80 0.5812
436.90 0.5818
437.00 0.5825
437.10 0.5831
437.20 0.5837
437.30 0.5844
437.40 0.585
437.50 0.5856
437.60 0.5862
437.70 0.5869
437.80 0.5875
437.90 0.5881
438.00 0.5887
438.10 0.5894
438.20 0.59
438.30 0.5906
438.40 0.5912
438.50 0.5919
438.60 0.5925
438.70 0.5931
438.80 0.5938
438.90 0.5944
439.00 0.595
439.10 0.5956
439.20 0.5963
439.30 0.5969
439.40 0.5975
439.50 0.5982
439.60 0.5988
439.70 0.5994
439.80 0.6001
439.90 0.6007
440.00 0.6013
440.10 0.6019
440.20 0.6026
440.30 0.6032
440.40 0.6038
440.50 0.6045
440.60 0.6051
440.70 0.6057
