# Version 2.1 - nm, norm@500 to 1, cut digits, bergeron_15000_85.dat_15000
# Wavelength(nm)  Flambda(ergs/cm^s/s/nm)
300.00 2.419
300.10 2.417
300.20 2.415
300.30 2.413
300.40 2.411
300.50 2.409
300.60 2.408
300.70 2.406
300.80 2.404
300.90 2.402
301.00 2.4
301.10 2.398
301.20 2.396
301.30 2.394
301.40 2.392
301.50 2.39
301.60 2.389
301.70 2.387
301.80 2.385
301.90 2.383
302.00 2.381
302.10 2.379
302.20 2.377
302.30 2.375
302.40 2.373
302.50 2.372
302.60 2.37
302.70 2.368
302.80 2.366
302.90 2.364
303.00 2.362
303.10 2.36
303.20 2.359
303.30 2.357
303.40 2.355
303.50 2.353
303.60 2.351
303.70 2.349
303.80 2.348
303.90 2.346
304.00 2.344
304.10 2.342
304.20 2.34
304.30 2.338
304.40 2.337
304.50 2.335
304.60 2.333
304.70 2.331
304.80 2.329
304.90 2.327
305.00 2.326
305.10 2.324
305.20 2.322
305.30 2.32
305.40 2.318
305.50 2.316
305.60 2.315
305.70 2.313
305.80 2.311
305.90 2.309
306.00 2.307
306.10 2.306
306.20 2.304
306.30 2.302
306.40 2.3
306.50 2.298
306.60 2.297
306.70 2.295
306.80 2.293
306.90 2.291
307.00 2.289
307.10 2.288
307.20 2.286
307.30 2.284
307.40 2.282
307.50 2.281
307.60 2.279
307.70 2.277
307.80 2.275
307.90 2.274
308.00 2.272
308.10 2.27
308.20 2.268
308.30 2.267
308.40 2.265
308.50 2.263
308.60 2.261
308.70 2.259
308.80 2.258
308.90 2.256
309.00 2.254
309.10 2.252
309.20 2.251
309.30 2.249
309.40 2.247
309.50 2.246
309.60 2.244
309.70 2.242
309.80 2.24
309.90 2.239
310.00 2.237
310.10 2.235
310.20 2.233
310.30 2.232
310.40 2.23
310.50 2.228
310.60 2.227
310.70 2.225
310.80 2.223
310.90 2.221
311.00 2.22
311.10 2.218
311.20 2.216
311.30 2.215
311.40 2.213
311.50 2.211
311.60 2.209
311.70 2.208
311.80 2.206
311.90 2.204
312.00 2.203
312.10 2.201
312.20 2.199
312.30 2.198
312.40 2.196
312.50 2.194
312.60 2.193
312.70 2.191
312.80 2.189
312.90 2.188
313.00 2.186
313.10 2.184
313.20 2.182
313.30 2.181
313.40 2.179
313.50 2.177
313.60 2.176
313.70 2.174
313.80 2.172
313.90 2.171
314.00 2.169
314.10 2.168
314.20 2.166
314.30 2.164
314.40 2.163
314.50 2.161
314.60 2.159
314.70 2.158
314.80 2.156
314.90 2.154
315.00 2.153
315.10 2.151
315.20 2.149
315.30 2.148
315.40 2.146
315.50 2.144
315.60 2.143
315.70 2.141
315.80 2.14
315.90 2.138
316.00 2.136
316.10 2.135
316.20 2.133
316.30 2.131
316.40 2.13
316.50 2.128
316.60 2.127
316.70 2.125
316.80 2.123
316.90 2.122
317.00 2.12
317.10 2.119
317.20 2.117
317.30 2.115
317.40 2.114
317.50 2.112
317.60 2.111
317.70 2.109
317.80 2.107
317.90 2.106
318.00 2.104
318.10 2.103
318.20 2.101
318.30 2.099
318.40 2.098
318.50 2.096
318.60 2.095
318.70 2.093
318.80 2.091
318.90 2.09
319.00 2.088
319.10 2.087
319.20 2.085
319.30 2.084
319.40 2.082
319.50 2.08
319.60 2.079
319.70 2.077
319.80 2.076
319.90 2.074
320.00 2.073
320.10 2.071
320.20 2.07
320.30 2.068
320.40 2.066
320.50 2.065
320.60 2.063
320.70 2.062
320.80 2.06
320.90 2.059
321.00 2.057
321.10 2.056
321.20 2.054
321.30 2.052
321.40 2.051
321.50 2.049
321.60 2.048
321.70 2.046
321.80 2.045
321.90 2.043
322.00 2.042
322.10 2.04
322.20 2.039
322.30 2.037
322.40 2.036
322.50 2.034
322.60 2.033
322.70 2.031
322.80 2.03
322.90 2.028
323.00 2.026
323.10 2.025
323.20 2.023
323.30 2.022
323.40 2.02
323.50 2.019
323.60 2.017
323.70 2.016
323.80 2.014
323.90 2.013
324.00 2.011
324.10 2.01
324.20 2.008
324.30 2.007
324.40 2.005
324.50 2.004
324.60 2.002
324.70 2.001
324.80 1.999
324.90 1.998
325.00 1.996
325.10 1.995
325.20 1.994
325.30 1.992
325.40 1.991
325.50 1.989
325.60 1.988
325.70 1.986
325.80 1.985
325.90 1.983
326.00 1.982
326.10 1.98
326.20 1.979
326.30 1.977
326.40 1.976
326.50 1.974
326.60 1.973
326.70 1.971
326.80 1.97
326.90 1.969
327.00 1.967
327.10 1.966
327.20 1.964
327.30 1.963
327.40 1.961
327.50 1.96
327.60 1.958
327.70 1.957
327.80 1.955
327.90 1.954
328.00 1.953
328.10 1.951
328.20 1.95
328.30 1.948
328.40 1.947
328.50 1.945
328.60 1.944
328.70 1.943
328.80 1.941
328.90 1.94
329.00 1.938
329.10 1.937
329.20 1.935
329.30 1.934
329.40 1.933
329.50 1.931
329.60 1.93
329.70 1.928
329.80 1.927
329.90 1.925
330.00 1.924
330.10 1.923
330.20 1.921
330.30 1.92
330.40 1.918
330.50 1.917
330.60 1.916
330.70 1.914
330.80 1.913
330.90 1.911
331.00 1.91
331.10 1.909
331.20 1.907
331.30 1.906
331.40 1.904
331.50 1.903
331.60 1.902
331.70 1.9
331.80 1.899
331.90 1.897
332.00 1.896
332.10 1.895
332.20 1.893
332.30 1.892
332.40 1.89
332.50 1.889
332.60 1.888
332.70 1.886
332.80 1.885
332.90 1.884
333.00 1.882
333.10 1.881
333.20 1.879
333.30 1.878
333.40 1.877
333.50 1.875
333.60 1.874
333.70 1.873
333.80 1.871
333.90 1.87
334.00 1.868
334.10 1.867
334.20 1.866
334.30 1.864
334.40 1.863
334.50 1.862
334.60 1.86
334.70 1.859
334.80 1.858
334.90 1.856
335.00 1.855
335.10 1.854
335.20 1.852
335.30 1.851
335.40 1.85
335.50 1.848
335.60 1.847
335.70 1.846
335.80 1.844
335.90 1.843
336.00 1.842
336.10 1.84
336.20 1.839
336.30 1.838
336.40 1.836
336.50 1.835
336.60 1.834
336.70 1.832
336.80 1.831
336.90 1.83
337.00 1.828
337.10 1.827
337.20 1.826
337.30 1.824
337.40 1.823
337.50 1.822
337.60 1.82
337.70 1.819
337.80 1.818
337.90 1.816
338.00 1.815
338.10 1.814
338.20 1.812
338.30 1.811
338.40 1.81
338.50 1.809
338.60 1.807
338.70 1.806
338.80 1.805
338.90 1.803
339.00 1.802
339.10 1.801
339.20 1.799
339.30 1.798
339.40 1.797
339.50 1.796
339.60 1.794
339.70 1.793
339.80 1.792
339.90 1.79
340.00 1.789
340.10 1.788
340.20 1.787
340.30 1.785
340.40 1.784
340.50 1.783
340.60 1.781
340.70 1.78
340.80 1.779
340.90 1.778
341.00 1.776
341.10 1.775
341.20 1.774
341.30 1.773
341.40 1.771
341.50 1.77
341.60 1.769
341.70 1.767
341.80 1.766
341.90 1.765
342.00 1.764
342.10 1.762
342.20 1.761
342.30 1.76
342.40 1.759
342.50 1.757
342.60 1.756
342.70 1.755
342.80 1.754
342.90 1.752
343.00 1.751
343.10 1.75
343.20 1.749
343.30 1.747
343.40 1.746
343.50 1.745
343.60 1.744
343.70 1.742
343.80 1.741
343.90 1.74
344.00 1.739
344.10 1.737
344.20 1.736
344.30 1.735
344.40 1.734
344.50 1.732
344.60 1.731
344.70 1.73
344.80 1.729
344.90 1.728
345.00 1.726
345.10 1.725
345.20 1.724
345.30 1.723
345.40 1.721
345.50 1.72
345.60 1.719
345.70 1.718
345.80 1.717
345.90 1.715
346.00 1.714
346.10 1.713
346.20 1.712
346.30 1.71
346.40 1.709
346.50 1.708
346.60 1.707
346.70 1.706
346.80 1.704
346.90 1.703
347.00 1.702
347.10 1.701
347.20 1.7
347.30 1.698
347.40 1.697
347.50 1.696
347.60 1.695
347.70 1.694
347.80 1.692
347.90 1.691
348.00 1.69
348.10 1.689
348.20 1.688
348.30 1.686
348.40 1.685
348.50 1.684
348.60 1.683
348.70 1.682
348.80 1.68
348.90 1.679
349.00 1.678
349.10 1.677
349.20 1.676
349.30 1.675
349.40 1.673
349.50 1.672
349.60 1.671
349.70 1.67
349.80 1.669
349.90 1.668
350.00 1.666
350.10 1.665
350.20 1.664
350.30 1.663
350.40 1.662
350.50 1.66
350.60 1.659
350.70 1.658
350.80 1.657
350.90 1.656
351.00 1.655
351.10 1.654
351.20 1.652
351.30 1.651
351.40 1.65
351.50 1.649
351.60 1.648
351.70 1.647
351.80 1.645
351.90 1.644
352.00 1.643
352.10 1.642
352.20 1.641
352.30 1.64
352.40 1.639
352.50 1.637
352.60 1.636
352.70 1.635
352.80 1.634
352.90 1.633
353.00 1.632
353.10 1.631
353.20 1.629
353.30 1.628
353.40 1.627
353.50 1.626
353.60 1.625
353.70 1.624
353.80 1.623
353.90 1.621
354.00 1.62
354.10 1.619
354.20 1.618
354.30 1.617
354.40 1.616
354.50 1.615
354.60 1.614
354.70 1.612
354.80 1.611
354.90 1.61
355.00 1.609
355.10 1.608
355.20 1.607
355.30 1.606
355.40 1.605
355.50 1.603
355.60 1.602
355.70 1.601
355.80 1.6
355.90 1.599
356.00 1.598
356.10 1.597
356.20 1.596
356.30 1.595
356.40 1.593
356.50 1.592
356.60 1.591
356.70 1.59
356.80 1.589
356.90 1.588
357.00 1.587
357.10 1.586
357.20 1.585
357.30 1.584
357.40 1.582
357.50 1.581
357.60 1.58
357.70 1.579
357.80 1.578
357.90 1.577
358.00 1.576
358.10 1.575
358.20 1.574
358.30 1.573
358.40 1.572
358.50 1.57
358.60 1.569
358.70 1.568
358.80 1.567
358.90 1.566
359.00 1.565
359.10 1.564
359.20 1.563
359.30 1.562
359.40 1.561
359.50 1.56
359.60 1.559
359.70 1.558
359.80 1.556
359.90 1.555
360.00 1.554
360.10 1.553
360.20 1.552
360.30 1.551
360.40 1.55
360.50 1.549
360.60 1.548
360.70 1.547
360.80 1.546
360.90 1.545
361.00 1.544
361.10 1.543
361.20 1.542
361.30 1.54
361.40 1.539
361.50 1.538
361.60 1.537
361.70 1.536
361.80 1.535
361.90 1.534
362.00 1.533
362.10 1.532
362.20 1.531
362.30 1.53
362.40 1.529
362.50 1.528
362.60 1.527
362.70 1.526
362.80 1.525
362.90 1.524
363.00 1.523
363.10 1.521
363.20 1.52
363.30 1.519
363.40 1.518
363.50 1.517
363.60 1.516
363.70 1.514
363.80 1.513
363.90 1.512
364.00 1.511
364.10 1.51
364.20 1.509
364.30 1.507
364.40 1.506
364.50 1.505
364.60 1.504
364.70 1.503
364.80 1.501
364.90 1.5
365.00 1.499
365.10 1.498
365.20 1.497
365.30 1.495
365.40 1.494
365.50 1.493
365.60 1.492
365.70 1.491
365.80 1.489
365.90 1.488
366.00 1.487
366.10 1.486
366.20 1.485
366.30 1.484
366.40 1.483
366.50 1.482
366.60 1.481
366.70 1.479
366.80 1.478
366.90 1.477
367.00 1.476
367.10 1.475
367.20 1.474
367.30 1.473
367.40 1.472
367.50 1.471
367.60 1.47
367.70 1.469
367.80 1.468
367.90 1.467
368.00 1.466
368.10 1.465
368.20 1.464
368.30 1.463
368.40 1.462
368.50 1.461
368.60 1.46
368.70 1.459
368.80 1.458
368.90 1.457
369.00 1.456
369.10 1.455
369.20 1.454
369.30 1.453
369.40 1.452
369.50 1.451
369.60 1.45
369.70 1.449
369.80 1.448
369.90 1.447
370.00 1.446
370.10 1.445
370.20 1.444
370.30 1.443
370.40 1.442
370.50 1.442
370.60 1.441
370.70 1.44
370.80 1.439
370.90 1.438
371.00 1.438
371.10 1.437
371.20 1.436
371.30 1.435
371.40 1.434
371.50 1.434
371.60 1.433
371.70 1.432
371.80 1.431
371.90 1.431
372.00 1.43
372.10 1.429
372.20 1.429
372.30 1.429
372.40 1.428
372.50 1.428
372.60 1.427
372.70 1.427
372.80 1.427
372.90 1.426
373.00 1.426
373.10 1.425
373.20 1.425
373.30 1.425
373.40 1.424
373.50 1.424
373.60 1.423
373.70 1.423
373.80 1.423
373.90 1.422
374.00 1.422
374.10 1.422
374.20 1.422
374.30 1.422
374.40 1.421
374.50 1.421
374.60 1.421
374.70 1.421
374.80 1.421
374.90 1.421
375.00 1.421
375.10 1.421
375.20 1.421
375.30 1.421
375.40 1.421
375.50 1.42
375.60 1.42
375.70 1.42
375.80 1.42
375.90 1.42
376.00 1.42
376.10 1.42
376.20 1.42
376.30 1.419
376.40 1.419
376.50 1.419
376.60 1.419
376.70 1.419
376.80 1.418
376.90 1.418
377.00 1.418
377.10 1.417
377.20 1.416
377.30 1.415
377.40 1.415
377.50 1.414
377.60 1.413
377.70 1.412
377.80 1.411
377.90 1.411
378.00 1.41
378.10 1.407
378.20 1.404
378.30 1.402
378.40 1.399
378.50 1.396
378.60 1.394
378.70 1.391
378.80 1.388
378.90 1.386
379.00 1.383
379.10 1.381
379.20 1.379
379.30 1.377
379.40 1.376
379.50 1.374
379.60 1.372
379.70 1.37
379.80 1.368
379.90 1.367
380.00 1.365
380.10 1.367
380.20 1.369
380.30 1.371
380.40 1.373
380.50 1.375
380.60 1.377
380.70 1.379
380.80 1.381
380.90 1.383
381.00 1.385
381.10 1.386
381.20 1.386
381.30 1.386
381.40 1.387
381.50 1.387
381.60 1.386
381.70 1.385
381.80 1.383
381.90 1.381
382.00 1.379
382.10 1.376
382.20 1.372
382.30 1.365
382.40 1.359
382.50 1.352
382.60 1.345
382.70 1.339
382.80 1.332
382.90 1.326
383.00 1.319
383.10 1.313
383.20 1.306
383.30 1.302
383.40 1.297
383.50 1.292
383.60 1.293
383.70 1.298
383.80 1.303
383.90 1.308
384.00 1.314
384.10 1.321
384.20 1.33
384.30 1.338
384.40 1.346
384.50 1.353
384.60 1.36
384.70 1.365
384.80 1.37
384.90 1.375
385.00 1.378
385.10 1.381
385.20 1.383
385.30 1.385
385.40 1.386
385.50 1.387
385.60 1.388
385.70 1.388
385.80 1.387
385.90 1.387
386.00 1.385
386.10 1.384
386.20 1.382
386.30 1.379
386.40 1.376
386.50 1.373
386.60 1.369
386.70 1.365
386.80 1.36
386.90 1.355
387.00 1.35
387.10 1.344
387.20 1.337
387.30 1.33
387.40 1.323
387.50 1.315
387.60 1.306
387.70 1.297
387.80 1.286
387.90 1.275
388.00 1.263
388.10 1.249
388.20 1.234
388.30 1.218
388.40 1.2
388.50 1.185
388.60 1.171
388.70 1.162
388.80 1.154
388.90 1.147
389.00 1.153
389.10 1.161
389.20 1.17
389.30 1.184
389.40 1.199
389.50 1.217
389.60 1.233
389.70 1.249
389.80 1.263
389.90 1.276
390.00 1.288
390.10 1.3
390.20 1.31
390.30 1.32
390.40 1.329
390.50 1.338
390.60 1.346
390.70 1.353
390.80 1.36
390.90 1.367
391.00 1.373
391.10 1.379
391.20 1.385
391.30 1.39
391.40 1.395
391.50 1.399
391.60 1.403
391.70 1.407
391.80 1.41
391.90 1.413
392.00 1.415
392.10 1.417
392.20 1.418
392.30 1.419
392.40 1.419
392.50 1.42
392.60 1.419
392.70 1.418
392.80 1.417
392.90 1.415
393.00 1.412
393.10 1.41
393.20 1.406
393.30 1.402
393.40 1.398
393.50 1.393
393.60 1.388
393.70 1.382
393.80 1.376
393.90 1.369
394.00 1.362
394.10 1.354
394.20 1.346
394.30 1.337
394.40 1.327
394.50 1.318
394.60 1.308
394.70 1.297
394.80 1.286
394.90 1.275
395.00 1.263
395.10 1.251
395.20 1.238
395.30 1.225
395.40 1.211
395.50 1.198
395.60 1.183
395.70 1.168
395.80 1.153
395.90 1.136
396.00 1.12
396.10 1.103
396.20 1.084
396.30 1.064
396.40 1.042
396.50 1.016
396.60 0.9895
396.70 0.9623
396.80 0.9422
396.90 0.9219
397.00 0.9015
397.10 0.9199
397.20 0.9384
397.30 0.957
397.40 0.9832
397.50 1.009
397.60 1.035
397.70 1.056
397.80 1.076
397.90 1.095
398.00 1.111
398.10 1.128
398.20 1.143
398.30 1.159
398.40 1.173
398.50 1.188
398.60 1.202
398.70 1.215
398.80 1.229
398.90 1.241
399.00 1.254
399.10 1.266
399.20 1.278
399.30 1.29
399.40 1.302
399.50 1.313
399.60 1.324
399.70 1.335
399.80 1.345
399.90 1.355
400.00 1.365
400.10 1.374
400.20 1.383
400.30 1.392
400.40 1.4
400.50 1.408
400.60 1.416
400.70 1.423
400.80 1.43
400.90 1.437
401.00 1.443
401.10 1.449
401.20 1.455
401.30 1.461
401.40 1.466
401.50 1.471
401.60 1.475
401.70 1.48
401.80 1.484
401.90 1.487
402.00 1.491
402.10 1.494
402.20 1.496
402.30 1.499
402.40 1.501
402.50 1.503
402.60 1.504
402.70 1.506
402.80 1.507
402.90 1.507
403.00 1.508
403.10 1.508
403.20 1.508
403.30 1.507
403.40 1.506
403.50 1.505
403.60 1.504
403.70 1.502
403.80 1.5
403.90 1.498
404.00 1.495
404.10 1.492
404.20 1.489
404.30 1.485
404.40 1.481
404.50 1.477
404.60 1.472
404.70 1.468
404.80 1.463
404.90 1.457
405.00 1.452
405.10 1.446
405.20 1.439
405.30 1.433
405.40 1.426
405.50 1.419
405.60 1.411
405.70 1.403
405.80 1.395
405.90 1.387
406.00 1.378
406.10 1.369
406.20 1.36
406.30 1.35
406.40 1.34
406.50 1.33
406.60 1.319
406.70 1.308
406.80 1.297
406.90 1.286
407.00 1.274
407.10 1.262
407.20 1.25
407.30 1.237
407.40 1.224
407.50 1.211
407.60 1.197
407.70 1.183
407.80 1.169
407.90 1.155
408.00 1.14
408.10 1.125
408.20 1.11
408.30 1.094
408.40 1.079
408.50 1.063
408.60 1.047
408.70 1.03
408.80 1.014
408.90 0.9967
409.00 0.9797
409.10 0.9624
409.20 0.9449
409.30 0.9273
409.40 0.9083
409.50 0.8881
409.60 0.8665
409.70 0.841
409.80 0.814
409.90 0.7854
410.00 0.7583
410.10 0.7371
410.20 0.7217
410.30 0.7457
410.40 0.7714
410.50 0.7988
410.60 0.8259
410.70 0.851
410.80 0.8741
410.90 0.8936
411.00 0.9121
411.10 0.9295
411.20 0.9459
411.30 0.9622
411.40 0.9784
411.50 0.9942
411.60 1.01
411.70 1.025
411.80 1.041
411.90 1.055
412.00 1.07
412.10 1.084
412.20 1.098
412.30 1.112
412.40 1.126
412.50 1.139
412.60 1.152
412.70 1.165
412.80 1.178
412.90 1.19
413.00 1.202
413.10 1.214
413.20 1.226
413.30 1.237
413.40 1.248
413.50 1.259
413.60 1.269
413.70 1.28
413.80 1.29
413.90 1.299
414.00 1.309
414.10 1.318
414.20 1.328
414.30 1.336
414.40 1.345
414.50 1.354
414.60 1.362
414.70 1.37
414.80 1.378
414.90 1.386
415.00 1.393
415.10 1.401
415.20 1.408
415.30 1.415
415.40 1.421
415.50 1.428
415.60 1.434
415.70 1.441
415.80 1.447
415.90 1.453
416.00 1.458
416.10 1.464
416.20 1.469
416.30 1.475
416.40 1.48
416.50 1.485
416.60 1.489
416.70 1.494
416.80 1.499
416.90 1.503
417.00 1.507
417.10 1.511
417.20 1.515
417.30 1.519
417.40 1.523
417.50 1.526
417.60 1.529
417.70 1.533
417.80 1.536
417.90 1.539
418.00 1.542
418.10 1.544
418.20 1.547
418.30 1.55
418.40 1.552
418.50 1.554
418.60 1.556
418.70 1.558
418.80 1.56
418.90 1.562
419.00 1.564
419.10 1.566
419.20 1.567
419.30 1.568
419.40 1.57
419.50 1.571
419.60 1.572
419.70 1.573
419.80 1.574
419.90 1.575
420.00 1.575
420.10 1.576
420.20 1.577
420.30 1.577
420.40 1.578
420.50 1.578
420.60 1.578
420.70 1.578
420.80 1.578
420.90 1.578
421.00 1.578
421.10 1.578
421.20 1.577
421.30 1.577
421.40 1.576
421.50 1.576
421.60 1.575
421.70 1.574
421.80 1.573
421.90 1.572
422.00 1.571
422.10 1.57
422.20 1.569
422.30 1.568
422.40 1.566
422.50 1.565
422.60 1.563
422.70 1.562
422.80 1.56
422.90 1.558
423.00 1.557
423.10 1.555
423.20 1.553
423.30 1.55
423.40 1.548
423.50 1.546
423.60 1.544
423.70 1.541
423.80 1.539
423.90 1.536
424.00 1.533
424.10 1.531
424.20 1.528
424.30 1.525
424.40 1.522
424.50 1.519
424.60 1.515
424.70 1.512
424.80 1.509
424.90 1.505
425.00 1.502
425.10 1.498
425.20 1.494
425.30 1.49
425.40 1.486
425.50 1.482
425.60 1.478
425.70 1.474
425.80 1.469
425.90 1.465
426.00 1.46
426.10 1.456
426.20 1.45
426.30 1.445
426.40 1.44
426.50 1.434
426.60 1.429
426.70 1.424
426.80 1.418
426.90 1.413
427.00 1.407
427.10 1.401
427.20 1.396
427.30 1.39
427.40 1.383
427.50 1.377
427.60 1.371
427.70 1.364
427.80 1.358
427.90 1.351
428.00 1.344
428.10 1.337
428.20 1.33
428.30 1.323
428.40 1.315
428.50 1.308
428.60 1.3
428.70 1.293
428.80 1.285
428.90 1.277
429.00 1.269
429.10 1.26
429.20 1.252
429.30 1.243
429.40 1.235
429.50 1.226
429.60 1.217
429.70 1.208
429.80 1.198
429.90 1.189
430.00 1.179
430.10 1.17
430.20 1.16
430.30 1.15
430.40 1.14
430.50 1.129
430.60 1.119
430.70 1.108
430.80 1.097
430.90 1.087
431.00 1.075
431.10 1.064
431.20 1.053
431.30 1.041
431.40 1.029
431.50 1.017
431.60 1.005
431.70 0.9924
431.80 0.9799
431.90 0.967
432.00 0.954
432.10 0.9407
432.20 0.9271
432.30 0.9132
432.40 0.8991
432.50 0.8844
432.60 0.8693
432.70 0.8539
432.80 0.8382
432.90 0.8225
433.00 0.8068
433.10 0.7916
433.20 0.7764
433.30 0.7613
433.40 0.7452
433.50 0.7277
433.60 0.7089
433.70 0.684
433.80 0.655
433.90 0.6219
434.00 0.575
434.10 0.5758
434.20 0.6241
434.30 0.6561
434.40 0.6841
434.50 0.7079
434.60 0.7258
434.70 0.7423
434.80 0.7576
434.90 0.7719
435.00 0.7862
435.10 0.8005
435.20 0.8153
435.30 0.83
435.40 0.8447
435.50 0.859
435.60 0.873
435.70 0.8866
435.80 0.8996
435.90 0.9122
436.00 0.9246
436.10 0.9366
436.20 0.9484
436.30 0.9599
436.40 0.9711
436.50 0.9822
436.60 0.9931
436.70 1.004
436.80 1.014
436.90 1.024
437.00 1.034
437.10 1.044
437.20 1.054
437.30 1.063
437.40 1.072
437.50 1.082
437.60 1.09
437.70 1.099
437.80 1.108
437.90 1.116
438.00 1.124
438.10 1.132
438.20 1.14
438.30 1.148
438.40 1.156
438.50 1.163
438.60 1.17
438.70 1.177
438.80 1.184
438.90 1.191
439.00 1.198
439.10 1.204
439.20 1.211
439.30 1.217
439.40 1.223
439.50 1.229
439.60 1.235
439.70 1.241
439.80 1.246
439.90 1.252
440.00 1.257
440.10 1.262
440.20 1.268
440.30 1.273
440.40 1.277
440.50 1.282
440.60 1.287
440.70 1.291
440.80 1.296
440.90 1.3
441.00 1.304
441.10 1.308
441.20 1.312
441.30 1.316
441.40 1.32
441.50 1.324
441.60 1.327
441.70 1.331
441.80 1.334
441.90 1.338
442.00 1.341
442.10 1.344
442.20 1.347
442.30 1.35
442.40 1.353
442.50 1.356
442.60 1.358
442.70 1.361
442.80 1.364
442.90 1.366
443.00 1.369
443.10 1.371
443.20 1.373
443.30 1.375
443.40 1.377
443.50 1.379
443.60 1.381
443.70 1.383
443.80 1.385
443.90 1.387
444.00 1.389
444.10 1.39
444.20 1.392
444.30 1.394
444.40 1.395
444.50 1.397
444.60 1.398
444.70 1.399
444.80 1.401
444.90 1.402
445.00 1.403
445.10 1.404
445.20 1.405
445.30 1.406
445.40 1.408
445.50 1.409
445.60 1.409
445.70 1.41
445.80 1.411
445.90 1.412
446.00 1.413
446.10 1.414
446.20 1.414
446.30 1.415
446.40 1.416
446.50 1.416
446.60 1.417
446.70 1.417
446.80 1.418
446.90 1.418
447.00 1.419
447.10 1.419
447.20 1.419
447.30 1.42
447.40 1.42
447.50 1.42
447.60 1.42
447.70 1.421
447.80 1.421
447.90 1.421
448.00 1.421
448.10 1.421
448.20 1.421
448.30 1.422
448.40 1.422
448.50 1.422
448.60 1.422
448.70 1.422
448.80 1.422
448.90 1.421
449.00 1.422
449.10 1.422
449.20 1.422
449.30 1.422
449.40 1.421
449.50 1.421
449.60 1.421
449.70 1.421
449.80 1.421
449.90 1.42
450.00 1.42
450.10 1.42
450.20 1.42
450.30 1.419
450.40 1.419
450.50 1.419
450.60 1.418
450.70 1.418
450.80 1.418
450.90 1.417
451.00 1.417
451.10 1.417
451.20 1.416
451.30 1.416
451.40 1.415
451.50 1.415
451.60 1.414
451.70 1.414
451.80 1.414
451.90 1.413
452.00 1.412
452.10 1.412
452.20 1.411
452.30 1.411
452.40 1.41
452.50 1.41
452.60 1.409
452.70 1.409
452.80 1.408
452.90 1.407
453.00 1.407
453.10 1.406
453.20 1.406
453.30 1.405
453.40 1.404
453.50 1.404
