# Version 2.1 - nm, norm@500 to 1, cut digits, bergeron_85000_65.dat_85000
# Wavelength(nm)  Flambda(ergs/cm^s/s/nm)
300.00 6.703
300.10 6.694
300.20 6.686
300.30 6.678
300.40 6.669
300.50 6.661
300.60 6.653
300.70 6.644
300.80 6.636
300.90 6.628
301.00 6.62
301.10 6.612
301.20 6.603
301.30 6.595
301.40 6.587
301.50 6.579
301.60 6.571
301.70 6.563
301.80 6.554
301.90 6.546
302.00 6.538
302.10 6.53
302.20 6.522
302.30 6.514
302.40 6.506
302.50 6.498
302.60 6.49
302.70 6.482
302.80 6.474
302.90 6.466
303.00 6.458
303.10 6.45
303.20 6.442
303.30 6.434
303.40 6.426
303.50 6.418
303.60 6.41
303.70 6.402
303.80 6.395
303.90 6.387
304.00 6.379
304.10 6.371
304.20 6.363
304.30 6.355
304.40 6.348
304.50 6.34
304.60 6.332
304.70 6.324
304.80 6.317
304.90 6.309
305.00 6.301
305.10 6.293
305.20 6.286
305.30 6.278
305.40 6.27
305.50 6.263
305.60 6.255
305.70 6.247
305.80 6.24
305.90 6.232
306.00 6.224
306.10 6.217
306.20 6.209
306.30 6.202
306.40 6.194
306.50 6.187
306.60 6.179
306.70 6.172
306.80 6.164
306.90 6.156
307.00 6.149
307.10 6.141
307.20 6.134
307.30 6.127
307.40 6.119
307.50 6.112
307.60 6.104
307.70 6.097
307.80 6.089
307.90 6.082
308.00 6.075
308.10 6.067
308.20 6.06
308.30 6.053
308.40 6.045
308.50 6.038
308.60 6.031
308.70 6.023
308.80 6.016
308.90 6.009
309.00 6.001
309.10 5.994
309.20 5.987
309.30 5.98
309.40 5.972
309.50 5.965
309.60 5.958
309.70 5.951
309.80 5.944
309.90 5.936
310.00 5.929
310.10 5.922
310.20 5.915
310.30 5.908
310.40 5.901
310.50 5.894
310.60 5.887
310.70 5.879
310.80 5.872
310.90 5.865
311.00 5.858
311.10 5.851
311.20 5.844
311.30 5.837
311.40 5.83
311.50 5.823
311.60 5.816
311.70 5.809
311.80 5.802
311.90 5.795
312.00 5.788
312.10 5.781
312.20 5.774
312.30 5.768
312.40 5.761
312.50 5.754
312.60 5.747
312.70 5.74
312.80 5.733
312.90 5.726
313.00 5.719
313.10 5.713
313.20 5.706
313.30 5.699
313.40 5.692
313.50 5.685
313.60 5.679
313.70 5.672
313.80 5.665
313.90 5.658
314.00 5.651
314.10 5.645
314.20 5.638
314.30 5.631
314.40 5.625
314.50 5.618
314.60 5.611
314.70 5.605
314.80 5.598
314.90 5.591
315.00 5.585
315.10 5.578
315.20 5.571
315.30 5.565
315.40 5.558
315.50 5.552
315.60 5.545
315.70 5.538
315.80 5.532
315.90 5.525
316.00 5.519
316.10 5.512
316.20 5.506
316.30 5.499
316.40 5.493
316.50 5.486
316.60 5.48
316.70 5.473
316.80 5.467
316.90 5.46
317.00 5.454
317.10 5.447
317.20 5.441
317.30 5.434
317.40 5.428
317.50 5.422
317.60 5.415
317.70 5.409
317.80 5.402
317.90 5.396
318.00 5.39
318.10 5.383
318.20 5.377
318.30 5.371
318.40 5.364
318.50 5.358
318.60 5.352
318.70 5.346
318.80 5.339
318.90 5.333
319.00 5.327
319.10 5.32
319.20 5.314
319.30 5.308
319.40 5.302
319.50 5.296
319.60 5.289
319.70 5.283
319.80 5.277
319.90 5.271
320.00 5.265
320.10 5.258
320.20 5.252
320.30 5.246
320.40 5.24
320.50 5.234
320.60 5.228
320.70 5.222
320.80 5.216
320.90 5.209
321.00 5.203
321.10 5.197
321.20 5.191
321.30 5.185
321.40 5.179
321.50 5.173
321.60 5.167
321.70 5.161
321.80 5.155
321.90 5.149
322.00 5.143
322.10 5.137
322.20 5.131
322.30 5.125
322.40 5.119
322.50 5.113
322.60 5.107
322.70 5.101
322.80 5.095
322.90 5.09
323.00 5.084
323.10 5.078
323.20 5.072
323.30 5.066
323.40 5.06
323.50 5.054
323.60 5.048
323.70 5.042
323.80 5.037
323.90 5.031
324.00 5.025
324.10 5.019
324.20 5.013
324.30 5.008
324.40 5.002
324.50 4.996
324.60 4.99
324.70 4.984
324.80 4.979
324.90 4.973
325.00 4.967
325.10 4.962
325.20 4.956
325.30 4.95
325.40 4.944
325.50 4.939
325.60 4.933
325.70 4.927
325.80 4.922
325.90 4.916
326.00 4.91
326.10 4.905
326.20 4.899
326.30 4.893
326.40 4.888
326.50 4.882
326.60 4.877
326.70 4.871
326.80 4.865
326.90 4.86
327.00 4.854
327.10 4.849
327.20 4.843
327.30 4.838
327.40 4.832
327.50 4.826
327.60 4.821
327.70 4.815
327.80 4.81
327.90 4.804
328.00 4.799
328.10 4.793
328.20 4.788
328.30 4.782
328.40 4.777
328.50 4.772
328.60 4.766
328.70 4.761
328.80 4.755
328.90 4.75
329.00 4.744
329.10 4.739
329.20 4.734
329.30 4.728
329.40 4.723
329.50 4.717
329.60 4.712
329.70 4.707
329.80 4.701
329.90 4.696
330.00 4.691
330.10 4.685
330.20 4.68
330.30 4.675
330.40 4.669
330.50 4.664
330.60 4.659
330.70 4.654
330.80 4.648
330.90 4.643
331.00 4.638
331.10 4.632
331.20 4.627
331.30 4.622
331.40 4.617
331.50 4.612
331.60 4.606
331.70 4.601
331.80 4.596
331.90 4.591
332.00 4.585
332.10 4.58
332.20 4.575
332.30 4.57
332.40 4.565
332.50 4.56
332.60 4.555
332.70 4.549
332.80 4.544
332.90 4.539
333.00 4.534
333.10 4.529
333.20 4.524
333.30 4.519
333.40 4.514
333.50 4.508
333.60 4.503
333.70 4.498
333.80 4.493
333.90 4.488
334.00 4.483
334.10 4.478
334.20 4.473
334.30 4.468
334.40 4.463
334.50 4.458
334.60 4.453
334.70 4.448
334.80 4.443
334.90 4.438
335.00 4.433
335.10 4.428
335.20 4.423
335.30 4.418
335.40 4.413
335.50 4.408
335.60 4.403
335.70 4.398
335.80 4.394
335.90 4.389
336.00 4.384
336.10 4.379
336.20 4.374
336.30 4.369
336.40 4.364
336.50 4.359
336.60 4.354
336.70 4.35
336.80 4.345
336.90 4.34
337.00 4.335
337.10 4.33
337.20 4.325
337.30 4.321
337.40 4.316
337.50 4.311
337.60 4.306
337.70 4.301
337.80 4.297
337.90 4.292
338.00 4.287
338.10 4.282
338.20 4.277
338.30 4.273
338.40 4.268
338.50 4.263
338.60 4.259
338.70 4.254
338.80 4.249
338.90 4.244
339.00 4.24
339.10 4.235
339.20 4.23
339.30 4.226
339.40 4.221
339.50 4.216
339.60 4.212
339.70 4.207
339.80 4.202
339.90 4.198
340.00 4.193
340.10 4.188
340.20 4.184
340.30 4.179
340.40 4.174
340.50 4.17
340.60 4.165
340.70 4.161
340.80 4.156
340.90 4.152
341.00 4.147
341.10 4.142
341.20 4.138
341.30 4.133
341.40 4.129
341.50 4.124
341.60 4.12
341.70 4.115
341.80 4.111
341.90 4.106
342.00 4.101
342.10 4.097
342.20 4.092
342.30 4.088
342.40 4.084
342.50 4.079
342.60 4.075
342.70 4.07
342.80 4.066
342.90 4.061
343.00 4.057
343.10 4.052
343.20 4.048
343.30 4.043
343.40 4.039
343.50 4.035
343.60 4.03
343.70 4.026
343.80 4.021
343.90 4.017
344.00 4.012
344.10 4.008
344.20 4.004
344.30 3.999
344.40 3.995
344.50 3.991
344.60 3.986
344.70 3.982
344.80 3.978
344.90 3.973
345.00 3.969
345.10 3.965
345.20 3.96
345.30 3.956
345.40 3.952
345.50 3.947
345.60 3.943
345.70 3.939
345.80 3.934
345.90 3.93
346.00 3.926
346.10 3.922
346.20 3.917
346.30 3.913
346.40 3.909
346.50 3.905
346.60 3.9
346.70 3.896
346.80 3.892
346.90 3.888
347.00 3.884
347.10 3.879
347.20 3.875
347.30 3.871
347.40 3.867
347.50 3.863
347.60 3.858
347.70 3.854
347.80 3.85
347.90 3.846
348.00 3.842
348.10 3.837
348.20 3.833
348.30 3.829
348.40 3.825
348.50 3.821
348.60 3.817
348.70 3.813
348.80 3.809
348.90 3.805
349.00 3.8
349.10 3.796
349.20 3.792
349.30 3.788
349.40 3.784
349.50 3.78
349.60 3.776
349.70 3.772
349.80 3.768
349.90 3.764
350.00 3.76
350.10 3.756
350.20 3.752
350.30 3.748
350.40 3.744
350.50 3.74
350.60 3.736
350.70 3.731
350.80 3.727
350.90 3.723
351.00 3.72
351.10 3.716
351.20 3.712
351.30 3.708
351.40 3.704
351.50 3.7
351.60 3.696
351.70 3.692
351.80 3.688
351.90 3.684
352.00 3.68
352.10 3.676
352.20 3.672
352.30 3.668
352.40 3.664
352.50 3.66
352.60 3.656
352.70 3.652
352.80 3.649
352.90 3.645
353.00 3.641
353.10 3.637
353.20 3.633
353.30 3.629
353.40 3.625
353.50 3.621
353.60 3.617
353.70 3.614
353.80 3.61
353.90 3.606
354.00 3.602
354.10 3.598
354.20 3.594
354.30 3.591
354.40 3.587
354.50 3.583
354.60 3.579
354.70 3.575
354.80 3.572
354.90 3.568
355.00 3.564
355.10 3.56
355.20 3.556
355.30 3.553
355.40 3.549
355.50 3.545
355.60 3.541
355.70 3.538
355.80 3.534
355.90 3.53
356.00 3.526
356.10 3.523
356.20 3.519
356.30 3.515
356.40 3.512
356.50 3.508
356.60 3.504
356.70 3.5
356.80 3.497
356.90 3.493
357.00 3.489
357.10 3.486
357.20 3.482
357.30 3.478
357.40 3.475
357.50 3.471
357.60 3.467
357.70 3.464
357.80 3.46
357.90 3.456
358.00 3.453
358.10 3.449
358.20 3.445
358.30 3.442
358.40 3.438
358.50 3.435
358.60 3.431
358.70 3.427
358.80 3.424
358.90 3.42
359.00 3.417
359.10 3.413
359.20 3.409
359.30 3.406
359.40 3.402
359.50 3.399
359.60 3.395
359.70 3.392
359.80 3.388
359.90 3.384
360.00 3.381
360.10 3.377
360.20 3.374
360.30 3.37
360.40 3.367
360.50 3.363
360.60 3.36
360.70 3.356
360.80 3.353
360.90 3.349
361.00 3.346
361.10 3.342
361.20 3.339
361.30 3.335
361.40 3.332
361.50 3.328
361.60 3.325
361.70 3.321
361.80 3.318
361.90 3.314
362.00 3.311
362.10 3.308
362.20 3.304
362.30 3.301
362.40 3.297
362.50 3.294
362.60 3.29
362.70 3.287
362.80 3.284
362.90 3.28
363.00 3.277
363.10 3.273
363.20 3.27
363.30 3.267
363.40 3.263
363.50 3.26
363.60 3.256
363.70 3.253
363.80 3.25
363.90 3.246
364.00 3.243
364.10 3.24
364.20 3.236
364.30 3.233
364.40 3.229
364.50 3.226
364.60 3.223
364.70 3.219
364.80 3.216
364.90 3.213
365.00 3.21
365.10 3.206
365.20 3.203
365.30 3.2
365.40 3.196
365.50 3.193
365.60 3.19
365.70 3.186
365.80 3.183
365.90 3.18
366.00 3.177
366.10 3.173
366.20 3.17
366.30 3.167
366.40 3.163
366.50 3.16
366.60 3.157
366.70 3.153
366.80 3.15
366.90 3.147
367.00 3.143
367.10 3.14
367.20 3.137
367.30 3.133
367.40 3.13
367.50 3.127
367.60 3.123
367.70 3.12
367.80 3.117
367.90 3.114
368.00 3.11
368.10 3.107
368.20 3.104
368.30 3.101
368.40 3.097
368.50 3.094
368.60 3.091
368.70 3.088
368.80 3.084
368.90 3.081
369.00 3.078
369.10 3.075
369.20 3.072
369.30 3.068
369.40 3.065
369.50 3.062
369.60 3.059
369.70 3.055
369.80 3.052
369.90 3.049
370.00 3.046
370.10 3.043
370.20 3.04
370.30 3.036
370.40 3.033
370.50 3.03
370.60 3.027
370.70 3.024
370.80 3.021
370.90 3.018
371.00 3.015
371.10 3.011
371.20 3.008
371.30 3.005
371.40 3.002
371.50 2.999
371.60 2.996
371.70 2.993
371.80 2.99
371.90 2.987
372.00 2.983
372.10 2.98
372.20 2.977
372.30 2.975
372.40 2.972
372.50 2.969
372.60 2.966
372.70 2.963
372.80 2.96
372.90 2.957
373.00 2.954
373.10 2.951
373.20 2.948
373.30 2.945
373.40 2.942
373.50 2.939
373.60 2.936
373.70 2.933
373.80 2.93
373.90 2.927
374.00 2.924
374.10 2.921
374.20 2.919
374.30 2.916
374.40 2.913
374.50 2.91
374.60 2.907
374.70 2.905
374.80 2.902
374.90 2.899
375.00 2.896
375.10 2.893
375.20 2.891
375.30 2.888
375.40 2.885
375.50 2.882
375.60 2.88
375.70 2.877
375.80 2.874
375.90 2.871
376.00 2.868
376.10 2.865
376.20 2.862
376.30 2.859
376.40 2.856
376.50 2.853
376.60 2.85
376.70 2.847
376.80 2.843
376.90 2.84
377.00 2.837
377.10 2.835
377.20 2.833
377.30 2.831
377.40 2.829
377.50 2.827
377.60 2.824
377.70 2.822
377.80 2.82
377.90 2.818
378.00 2.816
378.10 2.813
378.20 2.81
378.30 2.807
378.40 2.804
378.50 2.801
378.60 2.797
378.70 2.794
378.80 2.791
378.90 2.788
379.00 2.785
379.10 2.782
379.20 2.778
379.30 2.775
379.40 2.772
379.50 2.768
379.60 2.765
379.70 2.762
379.80 2.758
379.90 2.755
380.00 2.752
380.10 2.751
380.20 2.75
380.30 2.749
380.40 2.748
380.50 2.747
380.60 2.745
380.70 2.744
380.80 2.743
380.90 2.742
381.00 2.741
381.10 2.739
381.20 2.737
381.30 2.734
381.40 2.732
381.50 2.73
381.60 2.727
381.70 2.724
381.80 2.721
381.90 2.717
382.00 2.713
382.10 2.709
382.20 2.705
382.30 2.699
382.40 2.694
382.50 2.688
382.60 2.682
382.70 2.677
382.80 2.671
382.90 2.665
383.00 2.66
383.10 2.654
383.20 2.649
383.30 2.642
383.40 2.635
383.50 2.63
383.60 2.628
383.70 2.629
383.80 2.632
383.90 2.634
384.00 2.636
384.10 2.638
384.20 2.64
384.30 2.641
384.40 2.643
384.50 2.644
384.60 2.644
384.70 2.645
384.80 2.645
384.90 2.645
385.00 2.645
385.10 2.644
385.20 2.644
385.30 2.643
385.40 2.642
385.50 2.64
385.60 2.639
385.70 2.637
385.80 2.635
385.90 2.633
386.00 2.631
386.10 2.628
386.20 2.625
386.30 2.622
386.40 2.619
386.50 2.616
386.60 2.612
386.70 2.608
386.80 2.604
386.90 2.6
387.00 2.595
387.10 2.59
387.20 2.585
387.30 2.579
387.40 2.573
387.50 2.567
387.60 2.56
387.70 2.553
387.80 2.545
387.90 2.537
388.00 2.529
388.10 2.52
388.20 2.51
388.30 2.5
388.40 2.49
388.50 2.479
388.60 2.467
388.70 2.456
388.80 2.448
388.90 2.442
389.00 2.443
389.10 2.447
389.20 2.453
389.30 2.46
389.40 2.467
389.50 2.473
389.60 2.478
389.70 2.483
389.80 2.488
389.90 2.492
390.00 2.495
390.10 2.499
390.20 2.501
390.30 2.503
390.40 2.505
390.50 2.507
390.60 2.508
390.70 2.509
390.80 2.51
390.90 2.511
391.00 2.511
391.10 2.511
391.20 2.511
391.30 2.51
391.40 2.51
391.50 2.509
391.60 2.508
391.70 2.507
391.80 2.506
391.90 2.505
392.00 2.503
392.10 2.502
392.20 2.5
392.30 2.498
392.40 2.497
392.50 2.495
392.60 2.493
392.70 2.49
392.80 2.488
392.90 2.486
393.00 2.483
393.10 2.481
393.20 2.478
393.30 2.475
393.40 2.473
393.50 2.47
393.60 2.467
393.70 2.464
393.80 2.46
393.90 2.457
394.00 2.453
394.10 2.45
394.20 2.446
394.30 2.442
394.40 2.437
394.50 2.433
394.60 2.428
394.70 2.423
394.80 2.418
394.90 2.413
395.00 2.407
395.10 2.401
395.20 2.395
395.30 2.388
395.40 2.38
395.50 2.373
395.60 2.364
395.70 2.355
395.80 2.346
395.90 2.336
396.00 2.325
396.10 2.314
396.20 2.301
396.30 2.288
396.40 2.274
396.50 2.258
396.60 2.242
396.70 2.225
396.80 2.205
396.90 2.186
397.00 2.167
397.10 2.18
397.20 2.194
397.30 2.21
397.40 2.223
397.50 2.236
397.60 2.247
397.70 2.257
397.80 2.266
397.90 2.274
398.00 2.281
398.10 2.288
398.20 2.294
398.30 2.299
398.40 2.303
398.50 2.307
398.60 2.311
398.70 2.314
398.80 2.316
398.90 2.318
399.00 2.32
399.10 2.321
399.20 2.322
399.30 2.323
399.40 2.324
399.50 2.324
399.60 2.324
399.70 2.324
399.80 2.324
399.90 2.323
400.00 2.323
400.10 2.322
400.20 2.321
400.30 2.32
400.40 2.319
400.50 2.318
400.60 2.317
400.70 2.315
400.80 2.314
400.90 2.312
401.00 2.311
401.10 2.309
401.20 2.308
401.30 2.306
401.40 2.305
401.50 2.303
401.60 2.301
401.70 2.299
401.80 2.297
401.90 2.296
402.00 2.294
402.10 2.292
402.20 2.29
402.30 2.288
402.40 2.286
402.50 2.284
402.60 2.282
402.70 2.28
402.80 2.278
402.90 2.276
403.00 2.274
403.10 2.272
403.20 2.27
403.30 2.268
403.40 2.266
403.50 2.264
403.60 2.261
403.70 2.259
403.80 2.257
403.90 2.255
404.00 2.253
404.10 2.251
404.20 2.248
404.30 2.246
404.40 2.244
404.50 2.242
404.60 2.239
404.70 2.237
404.80 2.235
404.90 2.233
405.00 2.23
405.10 2.228
405.20 2.225
405.30 2.223
405.40 2.221
405.50 2.218
405.60 2.216
405.70 2.213
405.80 2.211
405.90 2.208
406.00 2.205
406.10 2.203
406.20 2.2
406.30 2.197
406.40 2.194
406.50 2.192
406.60 2.189
406.70 2.186
406.80 2.182
406.90 2.179
407.00 2.176
407.10 2.172
407.20 2.169
407.30 2.165
407.40 2.161
407.50 2.157
407.60 2.153
407.70 2.148
407.80 2.144
407.90 2.139
408.00 2.133
408.10 2.128
408.20 2.122
408.30 2.115
408.40 2.109
408.50 2.101
408.60 2.094
408.70 2.085
408.80 2.076
408.90 2.066
409.00 2.056
409.10 2.044
409.20 2.032
409.30 2.019
409.40 2.004
409.50 1.988
409.60 1.971
409.70 1.951
409.80 1.929
409.90 1.905
410.00 1.876
410.10 1.856
410.20 1.846
410.30 1.863
410.40 1.884
410.50 1.908
410.60 1.927
410.70 1.943
410.80 1.958
410.90 1.971
411.00 1.982
411.10 1.993
411.20 2.001
411.30 2.009
411.40 2.017
411.50 2.023
411.60 2.028
411.70 2.033
411.80 2.037
411.90 2.041
412.00 2.044
412.10 2.046
412.20 2.048
412.30 2.05
412.40 2.051
412.50 2.053
412.60 2.053
412.70 2.054
412.80 2.054
412.90 2.054
413.00 2.054
413.10 2.054
413.20 2.054
413.30 2.053
413.40 2.053
413.50 2.052
413.60 2.051
413.70 2.05
413.80 2.049
413.90 2.048
414.00 2.047
414.10 2.046
414.20 2.045
414.30 2.044
414.40 2.042
414.50 2.041
414.60 2.04
414.70 2.038
414.80 2.037
414.90 2.035
415.00 2.034
415.10 2.032
415.20 2.031
415.30 2.029
415.40 2.027
415.50 2.026
415.60 2.024
415.70 2.023
415.80 2.021
415.90 2.019
416.00 2.018
416.10 2.016
416.20 2.014
416.30 2.013
416.40 2.011
416.50 2.009
416.60 2.008
416.70 2.006
416.80 2.004
416.90 2.002
417.00 2.001
417.10 1.999
417.20 1.997
417.30 1.995
417.40 1.994
417.50 1.992
417.60 1.99
417.70 1.989
417.80 1.987
417.90 1.985
418.00 1.983
418.10 1.982
418.20 1.98
418.30 1.978
418.40 1.976
418.50 1.975
418.60 1.973
418.70 1.971
418.80 1.969
418.90 1.968
419.00 1.966
419.10 1.964
419.20 1.962
419.30 1.961
419.40 1.959
419.50 1.957
419.60 1.955
419.70 1.954
419.80 1.952
419.90 1.95
420.00 1.948
420.10 1.947
420.20 1.945
420.30 1.943
420.40 1.941
420.50 1.94
420.60 1.938
420.70 1.936
420.80 1.934
420.90 1.933
421.00 1.931
421.10 1.929
421.20 1.927
421.30 1.926
421.40 1.924
421.50 1.922
421.60 1.92
421.70 1.919
421.80 1.917
421.90 1.915
422.00 1.913
422.10 1.912
422.20 1.91
422.30 1.908
422.40 1.907
422.50 1.905
422.60 1.903
422.70 1.901
422.80 1.9
422.90 1.898
423.00 1.896
423.10 1.894
423.20 1.893
423.30 1.891
423.40 1.889
423.50 1.888
423.60 1.886
423.70 1.884
423.80 1.882
423.90 1.881
424.00 1.879
424.10 1.877
424.20 1.876
424.30 1.874
424.40 1.872
424.50 1.871
424.60 1.869
424.70 1.867
424.80 1.865
424.90 1.864
425.00 1.862
425.10 1.86
425.20 1.859
425.30 1.857
425.40 1.855
425.50 1.853
425.60 1.852
425.70 1.85
425.80 1.848
425.90 1.847
426.00 1.845
426.10 1.843
426.20 1.841
426.30 1.84
426.40 1.838
426.50 1.836
426.60 1.835
426.70 1.833
426.80 1.831
426.90 1.829
427.00 1.828
427.10 1.826
427.20 1.824
427.30 1.823
427.40 1.821
427.50 1.819
427.60 1.817
427.70 1.816
427.80 1.814
427.90 1.812
428.00 1.81
428.10 1.809
428.20 1.807
428.30 1.805
428.40 1.803
428.50 1.801
428.60 1.8
428.70 1.798
428.80 1.796
428.90 1.794
429.00 1.792
429.10 1.79
429.20 1.789
429.30 1.787
429.40 1.785
429.50 1.783
429.60 1.781
429.70 1.779
429.80 1.777
429.90 1.775
430.00 1.773
430.10 1.771
430.20 1.768
430.30 1.766
430.40 1.764
430.50 1.762
430.60 1.759
430.70 1.757
430.80 1.754
430.90 1.752
431.00 1.749
431.10 1.746
431.20 1.743
431.30 1.74
431.40 1.737
431.50 1.734
431.60 1.73
431.70 1.726
431.80 1.722
431.90 1.718
432.00 1.713
432.10 1.709
432.20 1.703
432.30 1.698
432.40 1.692
432.50 1.685
432.60 1.677
432.70 1.67
432.80 1.661
432.90 1.652
433.00 1.642
433.10 1.63
433.20 1.618
433.30 1.604
433.40 1.589
433.50 1.572
433.60 1.553
433.70 1.53
433.80 1.501
433.90 1.467
434.00 1.433
434.10 1.433
434.20 1.466
434.30 1.497
434.40 1.522
434.50 1.543
434.60 1.558
434.70 1.572
434.80 1.585
434.90 1.595
435.00 1.605
435.10 1.613
435.20 1.62
435.30 1.627
435.40 1.632
435.50 1.637
435.60 1.641
435.70 1.645
435.80 1.648
435.90 1.65
436.00 1.652
436.10 1.654
436.20 1.656
436.30 1.657
436.40 1.658
436.50 1.658
436.60 1.659
436.70 1.659
436.80 1.659
436.90 1.659
437.00 1.659
437.10 1.659
437.20 1.658
437.30 1.658
437.40 1.657
437.50 1.657
437.60 1.656
437.70 1.655
437.80 1.654
437.90 1.653
438.00 1.652
438.10 1.652
438.20 1.651
438.30 1.65
438.40 1.648
438.50 1.647
438.60 1.646
438.70 1.645
438.80 1.644
438.90 1.643
439.00 1.642
439.10 1.641
439.20 1.639
439.30 1.638
439.40 1.637
439.50 1.636
439.60 1.634
439.70 1.633
439.80 1.632
439.90 1.631
440.00 1.629
440.10 1.628
440.20 1.627
440.30 1.625
440.40 1.624
440.50 1.623
440.60 1.622
440.70 1.62
440.80 1.619
440.90 1.618
441.00 1.616
441.10 1.615
441.20 1.614
441.30 1.612
441.40 1.611
441.50 1.61
441.60 1.608
441.70 1.607
441.80 1.606
441.90 1.604
442.00 1.603
442.10 1.602
442.20 1.6
442.30 1.599
442.40 1.598
442.50 1.596
442.60 1.595
442.70 1.594
442.80 1.592
442.90 1.591
443.00 1.59
443.10 1.588
443.20 1.587
443.30 1.586
443.40 1.584
443.50 1.583
443.60 1.582
443.70 1.58
443.80 1.579
443.90 1.578
444.00 1.576
444.10 1.575
444.20 1.574
444.30 1.572
444.40 1.571
444.50 1.57
444.60 1.568
444.70 1.567
444.80 1.566
444.90 1.564
445.00 1.563
445.10 1.562
445.20 1.56
445.30 1.559
445.40 1.558
445.50 1.556
445.60 1.555
445.70 1.554
445.80 1.552
445.90 1.551
446.00 1.55
446.10 1.548
446.20 1.547
446.30 1.546
446.40 1.544
446.50 1.543
446.60 1.542
446.70 1.54
446.80 1.539
446.90 1.538
447.00 1.536
447.10 1.535
447.20 1.534
447.30 1.533
447.40 1.531
447.50 1.53
447.60 1.529
447.70 1.527
447.80 1.526
447.90 1.525
448.00 1.523
448.10 1.522
448.20 1.521
448.30 1.52
448.40 1.518
448.50 1.517
448.60 1.516
448.70 1.514
448.80 1.513
448.90 1.512
449.00 1.511
449.10 1.509
449.20 1.508
449.30 1.507
449.40 1.505
449.50 1.504
449.60 1.503
449.70 1.502
449.80 1.5
449.90 1.499
450.00 1.498
450.10 1.497
450.20 1.495
450.30 1.494
450.40 1.493
450.50 1.491
450.60 1.49
450.70 1.489
450.80 1.488
450.90 1.486
451.00 1.485
451.10 1.484
451.20 1.483
451.30 1.481
451.40 1.48
451.50 1.479
451.60 1.478
451.70 1.476
451.80 1.475
451.90 1.474
452.00 1.473
452.10 1.471
452.20 1.47
452.30 1.469
452.40 1.468
452.50 1.466
452.60 1.465
452.70 1.464
452.80 1.463
452.90 1.462
453.00 1.46
453.10 1.459
453.20 1.458
453.30 1.457
453.40 1.455
453.50 1.454
453.60 1.453
453.70 1.452
453.80 1.45
453.90 1.449
454.00 1.448
454.10 1.447
