# Version 2.1 - nm, norm@500 to 1, cut digits, bergeron_80000_90.dat_80000
# Wavelength(nm)  Flambda(ergs/cm^s/s/nm)
300.00 6.694
300.10 6.686
300.20 6.678
300.30 6.669
300.40 6.661
300.50 6.653
300.60 6.645
300.70 6.636
300.80 6.628
300.90 6.62
301.00 6.612
301.10 6.604
301.20 6.595
301.30 6.587
301.40 6.579
301.50 6.571
301.60 6.563
301.70 6.555
301.80 6.547
301.90 6.538
302.00 6.53
302.10 6.522
302.20 6.514
302.30 6.506
302.40 6.498
302.50 6.49
302.60 6.482
302.70 6.474
302.80 6.466
302.90 6.458
303.00 6.45
303.10 6.442
303.20 6.434
303.30 6.426
303.40 6.419
303.50 6.411
303.60 6.403
303.70 6.395
303.80 6.387
303.90 6.379
304.00 6.371
304.10 6.364
304.20 6.356
304.30 6.348
304.40 6.34
304.50 6.332
304.60 6.325
304.70 6.317
304.80 6.309
304.90 6.301
305.00 6.294
305.10 6.286
305.20 6.278
305.30 6.271
305.40 6.263
305.50 6.255
305.60 6.248
305.70 6.24
305.80 6.232
305.90 6.225
306.00 6.217
306.10 6.21
306.20 6.202
306.30 6.194
306.40 6.187
306.50 6.179
306.60 6.172
306.70 6.164
306.80 6.157
306.90 6.149
307.00 6.142
307.10 6.134
307.20 6.127
307.30 6.119
307.40 6.112
307.50 6.105
307.60 6.097
307.70 6.09
307.80 6.082
307.90 6.075
308.00 6.068
308.10 6.06
308.20 6.053
308.30 6.046
308.40 6.038
308.50 6.031
308.60 6.024
308.70 6.016
308.80 6.009
308.90 6.002
309.00 5.994
309.10 5.987
309.20 5.98
309.30 5.973
309.40 5.966
309.50 5.958
309.60 5.951
309.70 5.944
309.80 5.937
309.90 5.93
310.00 5.922
310.10 5.915
310.20 5.908
310.30 5.901
310.40 5.894
310.50 5.887
310.60 5.88
310.70 5.873
310.80 5.866
310.90 5.859
311.00 5.852
311.10 5.845
311.20 5.838
311.30 5.831
311.40 5.823
311.50 5.816
311.60 5.81
311.70 5.803
311.80 5.796
311.90 5.789
312.00 5.782
312.10 5.775
312.20 5.768
312.30 5.761
312.40 5.754
312.50 5.747
312.60 5.74
312.70 5.733
312.80 5.727
312.90 5.72
313.00 5.713
313.10 5.706
313.20 5.699
313.30 5.692
313.40 5.686
313.50 5.679
313.60 5.672
313.70 5.665
313.80 5.659
313.90 5.652
314.00 5.645
314.10 5.638
314.20 5.632
314.30 5.625
314.40 5.618
314.50 5.612
314.60 5.605
314.70 5.598
314.80 5.592
314.90 5.585
315.00 5.578
315.10 5.572
315.20 5.565
315.30 5.558
315.40 5.552
315.50 5.545
315.60 5.539
315.70 5.532
315.80 5.526
315.90 5.519
316.00 5.513
316.10 5.506
316.20 5.5
316.30 5.493
316.40 5.486
316.50 5.48
316.60 5.474
316.70 5.467
316.80 5.461
316.90 5.454
317.00 5.448
317.10 5.441
317.20 5.435
317.30 5.428
317.40 5.422
317.50 5.416
317.60 5.409
317.70 5.403
317.80 5.397
317.90 5.39
318.00 5.384
318.10 5.378
318.20 5.371
318.30 5.365
318.40 5.359
318.50 5.352
318.60 5.346
318.70 5.34
318.80 5.333
318.90 5.327
319.00 5.321
319.10 5.315
319.20 5.308
319.30 5.302
319.40 5.296
319.50 5.29
319.60 5.284
319.70 5.277
319.80 5.271
319.90 5.265
320.00 5.259
320.10 5.253
320.20 5.247
320.30 5.24
320.40 5.234
320.50 5.228
320.60 5.222
320.70 5.216
320.80 5.21
320.90 5.204
321.00 5.198
321.10 5.192
321.20 5.186
321.30 5.18
321.40 5.174
321.50 5.168
321.60 5.162
321.70 5.156
321.80 5.15
321.90 5.144
322.00 5.138
322.10 5.132
322.20 5.126
322.30 5.12
322.40 5.114
322.50 5.108
322.60 5.102
322.70 5.096
322.80 5.09
322.90 5.084
323.00 5.078
323.10 5.072
323.20 5.066
323.30 5.061
323.40 5.055
323.50 5.049
323.60 5.043
323.70 5.037
323.80 5.031
323.90 5.026
324.00 5.02
324.10 5.014
324.20 5.008
324.30 5.002
324.40 4.997
324.50 4.991
324.60 4.985
324.70 4.979
324.80 4.974
324.90 4.968
325.00 4.962
325.10 4.956
325.20 4.951
325.30 4.945
325.40 4.939
325.50 4.934
325.60 4.928
325.70 4.922
325.80 4.917
325.90 4.911
326.00 4.905
326.10 4.9
326.20 4.894
326.30 4.888
326.40 4.883
326.50 4.877
326.60 4.872
326.70 4.866
326.80 4.86
326.90 4.855
327.00 4.849
327.10 4.844
327.20 4.838
327.30 4.833
327.40 4.827
327.50 4.822
327.60 4.816
327.70 4.811
327.80 4.805
327.90 4.8
328.00 4.794
328.10 4.789
328.20 4.783
328.30 4.778
328.40 4.772
328.50 4.767
328.60 4.761
328.70 4.756
328.80 4.75
328.90 4.745
329.00 4.74
329.10 4.734
329.20 4.729
329.30 4.723
329.40 4.718
329.50 4.713
329.60 4.707
329.70 4.702
329.80 4.697
329.90 4.691
330.00 4.686
330.10 4.681
330.20 4.675
330.30 4.67
330.40 4.665
330.50 4.66
330.60 4.654
330.70 4.649
330.80 4.644
330.90 4.638
331.00 4.633
331.10 4.628
331.20 4.623
331.30 4.617
331.40 4.612
331.50 4.607
331.60 4.602
331.70 4.597
331.80 4.591
331.90 4.586
332.00 4.581
332.10 4.576
332.20 4.571
332.30 4.566
332.40 4.56
332.50 4.555
332.60 4.55
332.70 4.545
332.80 4.54
332.90 4.535
333.00 4.53
333.10 4.525
333.20 4.519
333.30 4.514
333.40 4.509
333.50 4.504
333.60 4.499
333.70 4.494
333.80 4.489
333.90 4.484
334.00 4.479
334.10 4.474
334.20 4.469
334.30 4.464
334.40 4.459
334.50 4.454
334.60 4.449
334.70 4.444
334.80 4.439
334.90 4.434
335.00 4.429
335.10 4.424
335.20 4.419
335.30 4.414
335.40 4.409
335.50 4.404
335.60 4.399
335.70 4.394
335.80 4.389
335.90 4.385
336.00 4.38
336.10 4.375
336.20 4.37
336.30 4.365
336.40 4.36
336.50 4.355
336.60 4.35
336.70 4.346
336.80 4.341
336.90 4.336
337.00 4.331
337.10 4.326
337.20 4.321
337.30 4.317
337.40 4.312
337.50 4.307
337.60 4.302
337.70 4.297
337.80 4.293
337.90 4.288
338.00 4.283
338.10 4.278
338.20 4.274
338.30 4.269
338.40 4.264
338.50 4.259
338.60 4.255
338.70 4.25
338.80 4.245
338.90 4.241
339.00 4.236
339.10 4.231
339.20 4.227
339.30 4.222
339.40 4.217
339.50 4.213
339.60 4.208
339.70 4.203
339.80 4.199
339.90 4.194
340.00 4.189
340.10 4.185
340.20 4.18
340.30 4.175
340.40 4.171
340.50 4.166
340.60 4.162
340.70 4.157
340.80 4.152
340.90 4.148
341.00 4.143
341.10 4.139
341.20 4.134
341.30 4.13
341.40 4.125
341.50 4.121
341.60 4.116
341.70 4.111
341.80 4.107
341.90 4.102
342.00 4.098
342.10 4.093
342.20 4.089
342.30 4.084
342.40 4.08
342.50 4.076
342.60 4.071
342.70 4.067
342.80 4.062
342.90 4.058
343.00 4.053
343.10 4.049
343.20 4.044
343.30 4.04
343.40 4.036
343.50 4.031
343.60 4.027
343.70 4.022
343.80 4.018
343.90 4.014
344.00 4.009
344.10 4.005
344.20 4
344.30 3.996
344.40 3.992
344.50 3.987
344.60 3.983
344.70 3.979
344.80 3.974
344.90 3.97
345.00 3.966
345.10 3.961
345.20 3.957
345.30 3.953
345.40 3.948
345.50 3.944
345.60 3.94
345.70 3.936
345.80 3.931
345.90 3.927
346.00 3.923
346.10 3.918
346.20 3.914
346.30 3.91
346.40 3.906
346.50 3.902
346.60 3.897
346.70 3.893
346.80 3.889
346.90 3.885
347.00 3.88
347.10 3.876
347.20 3.872
347.30 3.868
347.40 3.864
347.50 3.859
347.60 3.855
347.70 3.851
347.80 3.847
347.90 3.843
348.00 3.839
348.10 3.834
348.20 3.83
348.30 3.826
348.40 3.822
348.50 3.818
348.60 3.814
348.70 3.81
348.80 3.806
348.90 3.802
349.00 3.797
349.10 3.793
349.20 3.789
349.30 3.785
349.40 3.781
349.50 3.777
349.60 3.773
349.70 3.769
349.80 3.765
349.90 3.761
350.00 3.757
350.10 3.753
350.20 3.749
350.30 3.745
350.40 3.741
350.50 3.737
350.60 3.733
350.70 3.729
350.80 3.725
350.90 3.721
351.00 3.717
351.10 3.713
351.20 3.709
351.30 3.705
351.40 3.701
351.50 3.697
351.60 3.693
351.70 3.689
351.80 3.685
351.90 3.681
352.00 3.677
352.10 3.673
352.20 3.669
352.30 3.665
352.40 3.661
352.50 3.658
352.60 3.654
352.70 3.65
352.80 3.646
352.90 3.642
353.00 3.638
353.10 3.634
353.20 3.63
353.30 3.626
353.40 3.623
353.50 3.619
353.60 3.615
353.70 3.611
353.80 3.607
353.90 3.603
354.00 3.6
354.10 3.596
354.20 3.592
354.30 3.588
354.40 3.584
354.50 3.58
354.60 3.577
354.70 3.573
354.80 3.569
354.90 3.565
355.00 3.562
355.10 3.558
355.20 3.554
355.30 3.55
355.40 3.546
355.50 3.543
355.60 3.539
355.70 3.535
355.80 3.531
355.90 3.528
356.00 3.524
356.10 3.52
356.20 3.517
356.30 3.513
356.40 3.509
356.50 3.505
356.60 3.502
356.70 3.498
356.80 3.494
356.90 3.491
357.00 3.487
357.10 3.483
357.20 3.48
357.30 3.476
357.40 3.472
357.50 3.469
357.60 3.465
357.70 3.461
357.80 3.458
357.90 3.454
358.00 3.45
358.10 3.447
358.20 3.443
358.30 3.44
358.40 3.436
358.50 3.432
358.60 3.429
358.70 3.425
358.80 3.422
358.90 3.418
359.00 3.414
359.10 3.411
359.20 3.407
359.30 3.404
359.40 3.4
359.50 3.397
359.60 3.393
359.70 3.389
359.80 3.386
359.90 3.382
360.00 3.379
360.10 3.375
360.20 3.372
360.30 3.368
360.40 3.365
360.50 3.361
360.60 3.358
360.70 3.354
360.80 3.351
360.90 3.347
361.00 3.344
361.10 3.34
361.20 3.337
361.30 3.333
361.40 3.33
361.50 3.326
361.60 3.323
361.70 3.319
361.80 3.316
361.90 3.312
362.00 3.309
362.10 3.306
362.20 3.302
362.30 3.299
362.40 3.295
362.50 3.292
362.60 3.288
362.70 3.285
362.80 3.282
362.90 3.278
363.00 3.275
363.10 3.271
363.20 3.268
363.30 3.265
363.40 3.261
363.50 3.258
363.60 3.255
363.70 3.251
363.80 3.248
363.90 3.244
364.00 3.241
364.10 3.238
364.20 3.234
364.30 3.231
364.40 3.228
364.50 3.224
364.60 3.221
364.70 3.218
364.80 3.214
364.90 3.211
365.00 3.208
365.10 3.204
365.20 3.201
365.30 3.198
365.40 3.195
365.50 3.191
365.60 3.188
365.70 3.185
365.80 3.181
365.90 3.178
366.00 3.175
366.10 3.172
366.20 3.168
366.30 3.165
366.40 3.162
366.50 3.158
366.60 3.155
366.70 3.152
366.80 3.149
366.90 3.145
367.00 3.142
367.10 3.139
367.20 3.136
367.30 3.132
367.40 3.129
367.50 3.126
367.60 3.123
367.70 3.119
367.80 3.116
367.90 3.113
368.00 3.11
368.10 3.107
368.20 3.103
368.30 3.1
368.40 3.097
368.50 3.094
368.60 3.09
368.70 3.087
368.80 3.084
368.90 3.081
369.00 3.077
369.10 3.074
369.20 3.071
369.30 3.068
369.40 3.064
369.50 3.061
369.60 3.058
369.70 3.055
369.80 3.052
369.90 3.048
370.00 3.045
370.10 3.042
370.20 3.039
370.30 3.036
370.40 3.032
370.50 3.029
370.60 3.026
370.70 3.023
370.80 3.02
370.90 3.017
371.00 3.014
371.10 3.01
371.20 3.007
371.30 3.004
371.40 3.001
371.50 2.998
371.60 2.995
371.70 2.992
371.80 2.988
371.90 2.985
372.00 2.982
372.10 2.979
372.20 2.976
372.30 2.973
372.40 2.97
372.50 2.967
372.60 2.964
372.70 2.961
372.80 2.958
372.90 2.955
373.00 2.952
373.10 2.949
373.20 2.947
373.30 2.944
373.40 2.941
373.50 2.938
373.60 2.935
373.70 2.932
373.80 2.929
373.90 2.926
374.00 2.923
374.10 2.92
374.20 2.917
374.30 2.914
374.40 2.911
374.50 2.908
374.60 2.905
374.70 2.902
374.80 2.899
374.90 2.896
375.00 2.893
375.10 2.89
375.20 2.887
375.30 2.884
375.40 2.881
375.50 2.878
375.60 2.875
375.70 2.872
375.80 2.869
375.90 2.866
376.00 2.863
376.10 2.86
376.20 2.857
376.30 2.854
376.40 2.851
376.50 2.848
376.60 2.846
376.70 2.843
376.80 2.84
376.90 2.837
377.00 2.834
377.10 2.831
377.20 2.828
377.30 2.825
377.40 2.822
377.50 2.82
377.60 2.817
377.70 2.814
377.80 2.811
377.90 2.808
378.00 2.805
378.10 2.802
378.20 2.8
378.30 2.797
378.40 2.794
378.50 2.791
378.60 2.788
378.70 2.786
378.80 2.783
378.90 2.78
379.00 2.777
379.10 2.774
379.20 2.772
379.30 2.769
379.40 2.766
379.50 2.763
379.60 2.761
379.70 2.758
379.80 2.755
379.90 2.752
380.00 2.749
380.10 2.747
380.20 2.744
380.30 2.741
380.40 2.739
380.50 2.736
380.60 2.733
380.70 2.73
380.80 2.728
380.90 2.725
381.00 2.722
381.10 2.72
381.20 2.717
381.30 2.714
381.40 2.712
381.50 2.709
381.60 2.706
381.70 2.703
381.80 2.701
381.90 2.698
382.00 2.696
382.10 2.693
382.20 2.69
382.30 2.688
382.40 2.685
382.50 2.682
382.60 2.68
382.70 2.677
382.80 2.674
382.90 2.672
383.00 2.669
383.10 2.667
383.20 2.664
383.30 2.661
383.40 2.659
383.50 2.656
383.60 2.654
383.70 2.651
383.80 2.649
383.90 2.646
384.00 2.643
384.10 2.641
384.20 2.638
384.30 2.636
384.40 2.633
384.50 2.631
384.60 2.628
384.70 2.626
384.80 2.623
384.90 2.621
385.00 2.618
385.10 2.616
385.20 2.613
385.30 2.611
385.40 2.608
385.50 2.606
385.60 2.603
385.70 2.601
385.80 2.598
385.90 2.596
386.00 2.593
386.10 2.591
386.20 2.588
386.30 2.586
386.40 2.583
386.50 2.581
386.60 2.578
386.70 2.576
386.80 2.573
386.90 2.571
387.00 2.569
387.10 2.566
387.20 2.564
387.30 2.561
387.40 2.559
387.50 2.556
387.60 2.554
387.70 2.551
387.80 2.549
387.90 2.546
388.00 2.544
388.10 2.542
388.20 2.539
388.30 2.537
388.40 2.534
388.50 2.532
388.60 2.53
388.70 2.527
388.80 2.525
388.90 2.523
389.00 2.52
389.10 2.518
389.20 2.516
389.30 2.513
389.40 2.511
389.50 2.509
389.60 2.507
389.70 2.504
389.80 2.502
389.90 2.5
390.00 2.498
390.10 2.495
390.20 2.493
390.30 2.491
390.40 2.489
390.50 2.487
390.60 2.484
390.70 2.482
390.80 2.48
390.90 2.478
391.00 2.475
391.10 2.473
391.20 2.471
391.30 2.469
391.40 2.466
391.50 2.464
391.60 2.462
391.70 2.46
391.80 2.457
391.90 2.455
392.00 2.453
392.10 2.45
392.20 2.448
392.30 2.446
392.40 2.444
392.50 2.441
392.60 2.439
392.70 2.437
392.80 2.434
392.90 2.432
393.00 2.429
393.10 2.427
393.20 2.425
393.30 2.422
393.40 2.42
393.50 2.418
393.60 2.415
393.70 2.413
393.80 2.41
393.90 2.408
394.00 2.405
394.10 2.403
394.20 2.401
394.30 2.398
394.40 2.396
394.50 2.393
394.60 2.391
394.70 2.388
394.80 2.386
394.90 2.383
395.00 2.381
395.10 2.378
395.20 2.376
395.30 2.373
395.40 2.371
395.50 2.368
395.60 2.366
395.70 2.363
395.80 2.361
395.90 2.358
396.00 2.356
396.10 2.353
396.20 2.351
396.30 2.348
396.40 2.346
396.50 2.343
396.60 2.341
396.70 2.339
396.80 2.336
396.90 2.334
397.00 2.332
397.10 2.33
397.20 2.328
397.30 2.326
397.40 2.325
397.50 2.323
397.60 2.321
397.70 2.32
397.80 2.318
397.90 2.316
398.00 2.315
398.10 2.313
398.20 2.312
398.30 2.31
398.40 2.309
398.50 2.307
398.60 2.305
398.70 2.304
398.80 2.302
398.90 2.301
399.00 2.299
399.10 2.297
399.20 2.296
399.30 2.294
399.40 2.293
399.50 2.291
399.60 2.289
399.70 2.288
399.80 2.286
399.90 2.284
400.00 2.283
400.10 2.281
400.20 2.279
400.30 2.277
400.40 2.276
400.50 2.274
400.60 2.272
400.70 2.27
400.80 2.268
400.90 2.267
401.00 2.265
401.10 2.263
401.20 2.261
401.30 2.259
401.40 2.257
401.50 2.255
401.60 2.253
401.70 2.251
401.80 2.249
401.90 2.247
402.00 2.245
402.10 2.243
402.20 2.241
402.30 2.239
402.40 2.237
402.50 2.235
402.60 2.233
402.70 2.231
402.80 2.229
402.90 2.227
403.00 2.224
403.10 2.222
403.20 2.22
403.30 2.218
403.40 2.216
403.50 2.213
403.60 2.211
403.70 2.209
403.80 2.206
403.90 2.204
404.00 2.202
404.10 2.199
404.20 2.197
404.30 2.194
404.40 2.192
404.50 2.19
404.60 2.187
404.70 2.185
404.80 2.182
404.90 2.179
405.00 2.177
405.10 2.174
405.20 2.172
405.30 2.169
405.40 2.166
405.50 2.164
405.60 2.161
405.70 2.158
405.80 2.155
405.90 2.153
406.00 2.15
406.10 2.147
406.20 2.144
406.30 2.141
406.40 2.138
406.50 2.136
406.60 2.133
406.70 2.13
406.80 2.127
406.90 2.124
407.00 2.121
407.10 2.118
407.20 2.114
407.30 2.111
407.40 2.108
407.50 2.105
407.60 2.102
407.70 2.099
407.80 2.096
407.90 2.092
408.00 2.089
408.10 2.086
408.20 2.083
408.30 2.079
408.40 2.076
408.50 2.073
408.60 2.07
408.70 2.067
408.80 2.063
408.90 2.06
409.00 2.057
409.10 2.054
409.20 2.051
409.30 2.048
409.40 2.045
409.50 2.043
409.60 2.04
409.70 2.038
409.80 2.036
409.90 2.035
410.00 2.034
410.10 2.032
410.20 2.031
410.30 2.028
410.40 2.026
410.50 2.024
410.60 2.022
410.70 2.021
410.80 2.02
410.90 2.019
411.00 2.018
411.10 2.017
411.20 2.017
411.30 2.016
411.40 2.016
411.50 2.015
411.60 2.015
411.70 2.015
411.80 2.014
411.90 2.014
412.00 2.014
412.10 2.013
412.20 2.013
412.30 2.013
412.40 2.012
412.50 2.012
412.60 2.012
412.70 2.011
412.80 2.011
412.90 2.01
413.00 2.01
413.10 2.009
413.20 2.009
413.30 2.008
413.40 2.008
413.50 2.007
413.60 2.007
413.70 2.006
413.80 2.006
413.90 2.005
414.00 2.004
414.10 2.003
414.20 2.003
414.30 2.002
414.40 2.001
414.50 2
414.60 2
414.70 1.999
414.80 1.998
414.90 1.997
415.00 1.996
415.10 1.995
415.20 1.994
415.30 1.993
415.40 1.992
415.50 1.991
415.60 1.99
415.70 1.989
415.80 1.988
415.90 1.987
416.00 1.986
416.10 1.985
416.20 1.984
416.30 1.983
416.40 1.982
416.50 1.98
416.60 1.979
416.70 1.978
416.80 1.977
416.90 1.976
417.00 1.974
417.10 1.973
417.20 1.972
417.30 1.97
417.40 1.969
417.50 1.968
417.60 1.966
417.70 1.965
417.80 1.964
417.90 1.962
418.00 1.961
418.10 1.96
418.20 1.958
418.30 1.957
418.40 1.955
418.50 1.954
418.60 1.952
418.70 1.951
418.80 1.95
418.90 1.948
419.00 1.947
419.10 1.945
419.20 1.944
419.30 1.942
419.40 1.94
419.50 1.939
419.60 1.937
419.70 1.936
419.80 1.934
419.90 1.933
420.00 1.931
420.10 1.93
420.20 1.928
420.30 1.926
420.40 1.925
420.50 1.923
420.60 1.921
420.70 1.92
420.80 1.918
420.90 1.916
421.00 1.915
421.10 1.913
421.20 1.911
421.30 1.91
421.40 1.908
421.50 1.906
421.60 1.905
421.70 1.903
421.80 1.901
421.90 1.899
422.00 1.898
422.10 1.896
422.20 1.894
422.30 1.892
422.40 1.891
422.50 1.889
422.60 1.887
422.70 1.885
422.80 1.883
422.90 1.882
423.00 1.88
423.10 1.878
423.20 1.876
423.30 1.874
423.40 1.872
423.50 1.87
423.60 1.868
423.70 1.867
423.80 1.865
423.90 1.863
424.00 1.861
424.10 1.859
424.20 1.857
424.30 1.855
424.40 1.853
424.50 1.851
424.60 1.849
424.70 1.847
424.80 1.845
424.90 1.843
425.00 1.841
425.10 1.839
425.20 1.837
425.30 1.835
425.40 1.833
425.50 1.83
425.60 1.828
425.70 1.826
425.80 1.824
425.90 1.822
426.00 1.82
426.10 1.818
426.20 1.815
426.30 1.813
426.40 1.811
426.50 1.809
426.60 1.806
426.70 1.804
426.80 1.802
426.90 1.799
427.00 1.797
427.10 1.794
427.20 1.792
427.30 1.79
427.40 1.787
427.50 1.785
427.60 1.782
427.70 1.78
427.80 1.777
427.90 1.775
428.00 1.772
428.10 1.769
428.20 1.767
428.30 1.764
428.40 1.761
428.50 1.759
428.60 1.756
428.70 1.753
428.80 1.75
428.90 1.747
429.00 1.744
429.10 1.742
429.20 1.739
429.30 1.736
429.40 1.733
429.50 1.73
429.60 1.726
429.70 1.723
429.80 1.72
429.90 1.717
430.00 1.714
430.10 1.71
430.20 1.707
430.30 1.704
430.40 1.7
430.50 1.697
430.60 1.693
430.70 1.69
430.80 1.686
430.90 1.683
431.00 1.679
431.10 1.676
431.20 1.672
431.30 1.668
431.40 1.664
431.50 1.661
431.60 1.657
431.70 1.653
431.80 1.649
431.90 1.645
432.00 1.641
432.10 1.637
432.20 1.633
432.30 1.629
432.40 1.625
432.50 1.621
432.60 1.617
432.70 1.613
432.80 1.609
432.90 1.605
433.00 1.601
433.10 1.596
433.20 1.592
433.30 1.588
433.40 1.584
433.50 1.579
433.60 1.575
433.70 1.57
433.80 1.564
433.90 1.559
434.00 1.555
434.10 1.554
434.20 1.555
434.30 1.558
434.40 1.561
434.50 1.564
434.60 1.565
434.70 1.567
434.80 1.569
434.90 1.57
435.00 1.572
435.10 1.573
435.20 1.575
435.30 1.576
435.40 1.578
435.50 1.579
435.60 1.58
435.70 1.581
435.80 1.583
435.90 1.584
436.00 1.585
436.10 1.586
436.20 1.588
436.30 1.589
436.40 1.59
436.50 1.591
436.60 1.592
436.70 1.593
436.80 1.594
436.90 1.595
437.00 1.595
437.10 1.596
437.20 1.597
437.30 1.598
437.40 1.598
437.50 1.599
437.60 1.599
437.70 1.6
437.80 1.6
437.90 1.601
438.00 1.601
438.10 1.601
438.20 1.602
438.30 1.602
438.40 1.602
438.50 1.602
438.60 1.602
438.70 1.603
438.80 1.603
438.90 1.603
439.00 1.603
439.10 1.603
439.20 1.602
439.30 1.602
439.40 1.602
439.50 1.602
439.60 1.602
439.70 1.602
439.80 1.601
439.90 1.601
440.00 1.601
440.10 1.6
440.20 1.6
440.30 1.599
440.40 1.599
440.50 1.599
440.60 1.598
440.70 1.597
440.80 1.597
440.90 1.596
441.00 1.596
441.10 1.595
441.20 1.595
441.30 1.594
441.40 1.593
441.50 1.593
441.60 1.592
441.70 1.591
441.80 1.59
441.90 1.59
442.00 1.589
442.10 1.588
442.20 1.587
442.30 1.586
442.40 1.586
442.50 1.585
442.60 1.584
442.70 1.583
442.80 1.582
442.90 1.581
443.00 1.58
443.10 1.579
443.20 1.579
443.30 1.578
443.40 1.577
443.50 1.576
443.60 1.575
443.70 1.574
443.80 1.573
443.90 1.572
444.00 1.571
444.10 1.57
444.20 1.569
444.30 1.568
444.40 1.567
444.50 1.566
444.60 1.565
444.70 1.563
444.80 1.562
444.90 1.561
445.00 1.56
445.10 1.559
445.20 1.558
445.30 1.557
445.40 1.556
445.50 1.555
445.60 1.554
445.70 1.553
445.80 1.551
445.90 1.55
446.00 1.549
446.10 1.548
446.20 1.547
446.30 1.546
446.40 1.545
446.50 1.544
446.60 1.542
446.70 1.541
446.80 1.54
446.90 1.539
447.00 1.538
447.10 1.537
447.20 1.535
447.30 1.534
447.40 1.533
447.50 1.532
447.60 1.531
447.70 1.53
447.80 1.528
447.90 1.527
448.00 1.526
448.10 1.525
448.20 1.524
448.30 1.522
448.40 1.521
448.50 1.52
448.60 1.519
448.70 1.518
448.80 1.517
448.90 1.515
449.00 1.514
449.10 1.513
449.20 1.512
449.30 1.511
449.40 1.509
449.50 1.508
449.60 1.507
449.70 1.506
449.80 1.505
449.90 1.503
450.00 1.502
450.10 1.501
450.20 1.5
450.30 1.498
450.40 1.497
450.50 1.496
450.60 1.495
450.70 1.494
450.80 1.492
450.90 1.491
451.00 1.49
451.10 1.489
451.20 1.488
451.30 1.486
451.40 1.485
451.50 1.484
451.60 1.483
451.70 1.482
451.80 1.48
451.90 1.479
452.00 1.478
452.10 1.477
452.20 1.476
452.30 1.474
452.40 1.473
452.50 1.472
452.60 1.471
452.70 1.469
452.80 1.468
452.90 1.467
453.00 1.466
453.10 1.465
453.20 1.463
453.30 1.462
453.40 1.461
453.50 1.46
453.60 1.459
453.70 1.457
453.80 1.456
453.90 1.455
454.00 1.454
454.10 1.453
