# Version 2.1 - nm, norm@500 to 1, cut digits, bergeron_100000_70.dat_100000
# Wavelength(nm)  Flambda(ergs/cm^s/s/nm)
300.00 6.827
300.10 6.819
300.20 6.81
300.30 6.802
300.40 6.793
300.50 6.785
300.60 6.776
300.70 6.768
300.80 6.759
300.90 6.751
301.00 6.742
301.10 6.734
301.20 6.725
301.30 6.717
301.40 6.709
301.50 6.7
301.60 6.692
301.70 6.684
301.80 6.675
301.90 6.667
302.00 6.659
302.10 6.65
302.20 6.642
302.30 6.634
302.40 6.625
302.50 6.617
302.60 6.609
302.70 6.601
302.80 6.593
302.90 6.584
303.00 6.576
303.10 6.568
303.20 6.56
303.30 6.552
303.40 6.544
303.50 6.535
303.60 6.527
303.70 6.519
303.80 6.511
303.90 6.503
304.00 6.495
304.10 6.487
304.20 6.479
304.30 6.471
304.40 6.463
304.50 6.455
304.60 6.447
304.70 6.439
304.80 6.431
304.90 6.423
305.00 6.415
305.10 6.407
305.20 6.399
305.30 6.391
305.40 6.384
305.50 6.376
305.60 6.368
305.70 6.36
305.80 6.352
305.90 6.344
306.00 6.337
306.10 6.329
306.20 6.321
306.30 6.313
306.40 6.305
306.50 6.298
306.60 6.29
306.70 6.282
306.80 6.275
306.90 6.267
307.00 6.259
307.10 6.251
307.20 6.244
307.30 6.236
307.40 6.228
307.50 6.221
307.60 6.213
307.70 6.206
307.80 6.198
307.90 6.19
308.00 6.183
308.10 6.175
308.20 6.168
308.30 6.16
308.40 6.153
308.50 6.145
308.60 6.138
308.70 6.13
308.80 6.123
308.90 6.115
309.00 6.108
309.10 6.1
309.20 6.093
309.30 6.086
309.40 6.078
309.50 6.071
309.60 6.063
309.70 6.056
309.80 6.049
309.90 6.041
310.00 6.034
310.10 6.027
310.20 6.019
310.30 6.012
310.40 6.005
310.50 5.997
310.60 5.99
310.70 5.983
310.80 5.975
310.90 5.968
311.00 5.961
311.10 5.954
311.20 5.947
311.30 5.939
311.40 5.932
311.50 5.925
311.60 5.918
311.70 5.911
311.80 5.904
311.90 5.896
312.00 5.889
312.10 5.882
312.20 5.875
312.30 5.868
312.40 5.861
312.50 5.854
312.60 5.847
312.70 5.84
312.80 5.833
312.90 5.826
313.00 5.819
313.10 5.812
313.20 5.805
313.30 5.798
313.40 5.791
313.50 5.784
313.60 5.777
313.70 5.77
313.80 5.763
313.90 5.756
314.00 5.749
314.10 5.742
314.20 5.735
314.30 5.728
314.40 5.722
314.50 5.715
314.60 5.708
314.70 5.701
314.80 5.694
314.90 5.687
315.00 5.68
315.10 5.674
315.20 5.667
315.30 5.66
315.40 5.653
315.50 5.647
315.60 5.64
315.70 5.633
315.80 5.626
315.90 5.62
316.00 5.613
316.10 5.606
316.20 5.6
316.30 5.593
316.40 5.586
316.50 5.58
316.60 5.573
316.70 5.566
316.80 5.56
316.90 5.553
317.00 5.546
317.10 5.54
317.20 5.533
317.30 5.527
317.40 5.52
317.50 5.514
317.60 5.507
317.70 5.5
317.80 5.494
317.90 5.487
318.00 5.481
318.10 5.474
318.20 5.468
318.30 5.461
318.40 5.455
318.50 5.449
318.60 5.442
318.70 5.436
318.80 5.429
318.90 5.423
319.00 5.416
319.10 5.41
319.20 5.404
319.30 5.397
319.40 5.391
319.50 5.384
319.60 5.378
319.70 5.372
319.80 5.365
319.90 5.359
320.00 5.353
320.10 5.346
320.20 5.34
320.30 5.334
320.40 5.328
320.50 5.321
320.60 5.315
320.70 5.309
320.80 5.302
320.90 5.296
321.00 5.29
321.10 5.284
321.20 5.278
321.30 5.271
321.40 5.265
321.50 5.259
321.60 5.253
321.70 5.247
321.80 5.241
321.90 5.234
322.00 5.228
322.10 5.222
322.20 5.216
322.30 5.21
322.40 5.204
322.50 5.198
322.60 5.192
322.70 5.186
322.80 5.179
322.90 5.173
323.00 5.167
323.10 5.161
323.20 5.155
323.30 5.149
323.40 5.143
323.50 5.137
323.60 5.131
323.70 5.125
323.80 5.119
323.90 5.113
324.00 5.107
324.10 5.101
324.20 5.095
324.30 5.09
324.40 5.084
324.50 5.078
324.60 5.072
324.70 5.066
324.80 5.06
324.90 5.054
325.00 5.048
325.10 5.042
325.20 5.037
325.30 5.031
325.40 5.025
325.50 5.019
325.60 5.013
325.70 5.007
325.80 5.002
325.90 4.996
326.00 4.99
326.10 4.984
326.20 4.978
326.30 4.973
326.40 4.967
326.50 4.961
326.60 4.955
326.70 4.95
326.80 4.944
326.90 4.938
327.00 4.933
327.10 4.927
327.20 4.921
327.30 4.916
327.40 4.91
327.50 4.904
327.60 4.899
327.70 4.893
327.80 4.887
327.90 4.882
328.00 4.876
328.10 4.87
328.20 4.865
328.30 4.859
328.40 4.854
328.50 4.848
328.60 4.842
328.70 4.837
328.80 4.831
328.90 4.826
329.00 4.82
329.10 4.815
329.20 4.809
329.30 4.804
329.40 4.798
329.50 4.793
329.60 4.787
329.70 4.782
329.80 4.776
329.90 4.771
330.00 4.765
330.10 4.76
330.20 4.754
330.30 4.749
330.40 4.744
330.50 4.738
330.60 4.733
330.70 4.727
330.80 4.722
330.90 4.717
331.00 4.711
331.10 4.706
331.20 4.7
331.30 4.695
331.40 4.69
331.50 4.684
331.60 4.679
331.70 4.674
331.80 4.668
331.90 4.663
332.00 4.658
332.10 4.652
332.20 4.647
332.30 4.642
332.40 4.637
332.50 4.631
332.60 4.626
332.70 4.621
332.80 4.615
332.90 4.61
333.00 4.605
333.10 4.6
333.20 4.595
333.30 4.589
333.40 4.584
333.50 4.579
333.60 4.574
333.70 4.569
333.80 4.563
333.90 4.558
334.00 4.553
334.10 4.548
334.20 4.543
334.30 4.538
334.40 4.532
334.50 4.527
334.60 4.522
334.70 4.517
334.80 4.512
334.90 4.507
335.00 4.502
335.10 4.497
335.20 4.492
335.30 4.487
335.40 4.482
335.50 4.477
335.60 4.471
335.70 4.466
335.80 4.461
335.90 4.456
336.00 4.451
336.10 4.446
336.20 4.441
336.30 4.436
336.40 4.431
336.50 4.426
336.60 4.421
336.70 4.416
336.80 4.412
336.90 4.407
337.00 4.402
337.10 4.397
337.20 4.392
337.30 4.387
337.40 4.382
337.50 4.377
337.60 4.372
337.70 4.367
337.80 4.362
337.90 4.357
338.00 4.352
338.10 4.348
338.20 4.343
338.30 4.338
338.40 4.333
338.50 4.328
338.60 4.323
338.70 4.319
338.80 4.314
338.90 4.309
339.00 4.304
339.10 4.299
339.20 4.295
339.30 4.29
339.40 4.285
339.50 4.28
339.60 4.275
339.70 4.271
339.80 4.266
339.90 4.261
340.00 4.256
340.10 4.252
340.20 4.247
340.30 4.242
340.40 4.238
340.50 4.233
340.60 4.228
340.70 4.223
340.80 4.219
340.90 4.214
341.00 4.209
341.10 4.205
341.20 4.2
341.30 4.195
341.40 4.191
341.50 4.186
341.60 4.181
341.70 4.177
341.80 4.172
341.90 4.168
342.00 4.163
342.10 4.158
342.20 4.154
342.30 4.149
342.40 4.145
342.50 4.14
342.60 4.135
342.70 4.131
342.80 4.126
342.90 4.122
343.00 4.117
343.10 4.113
343.20 4.108
343.30 4.104
343.40 4.099
343.50 4.095
343.60 4.09
343.70 4.086
343.80 4.081
343.90 4.076
344.00 4.072
344.10 4.068
344.20 4.063
344.30 4.059
344.40 4.054
344.50 4.05
344.60 4.045
344.70 4.041
344.80 4.036
344.90 4.032
345.00 4.028
345.10 4.023
345.20 4.019
345.30 4.014
345.40 4.01
345.50 4.006
345.60 4.001
345.70 3.997
345.80 3.992
345.90 3.988
346.00 3.984
346.10 3.979
346.20 3.975
346.30 3.971
346.40 3.966
346.50 3.962
346.60 3.958
346.70 3.953
346.80 3.949
346.90 3.945
347.00 3.94
347.10 3.936
347.20 3.932
347.30 3.927
347.40 3.923
347.50 3.919
347.60 3.915
347.70 3.91
347.80 3.906
347.90 3.902
348.00 3.898
348.10 3.893
348.20 3.889
348.30 3.885
348.40 3.881
348.50 3.876
348.60 3.872
348.70 3.868
348.80 3.864
348.90 3.86
349.00 3.855
349.10 3.851
349.20 3.847
349.30 3.843
349.40 3.839
349.50 3.835
349.60 3.83
349.70 3.826
349.80 3.822
349.90 3.818
350.00 3.814
350.10 3.81
350.20 3.806
350.30 3.801
350.40 3.797
350.50 3.793
350.60 3.789
350.70 3.785
350.80 3.781
350.90 3.777
351.00 3.773
351.10 3.769
351.20 3.765
351.30 3.761
351.40 3.757
351.50 3.753
351.60 3.748
351.70 3.744
351.80 3.74
351.90 3.736
352.00 3.732
352.10 3.728
352.20 3.724
352.30 3.72
352.40 3.716
352.50 3.712
352.60 3.708
352.70 3.704
352.80 3.7
352.90 3.696
353.00 3.692
353.10 3.688
353.20 3.685
353.30 3.681
353.40 3.677
353.50 3.673
353.60 3.669
353.70 3.665
353.80 3.661
353.90 3.657
354.00 3.653
354.10 3.649
354.20 3.645
354.30 3.641
354.40 3.637
354.50 3.634
354.60 3.63
354.70 3.626
354.80 3.622
354.90 3.618
355.00 3.614
355.10 3.61
355.20 3.606
355.30 3.603
355.40 3.599
355.50 3.595
355.60 3.591
355.70 3.587
355.80 3.583
355.90 3.58
356.00 3.576
356.10 3.572
356.20 3.568
356.30 3.564
356.40 3.561
356.50 3.557
356.60 3.553
356.70 3.549
356.80 3.546
356.90 3.542
357.00 3.538
357.10 3.534
357.20 3.53
357.30 3.527
357.40 3.523
357.50 3.519
357.60 3.516
357.70 3.512
357.80 3.508
357.90 3.504
358.00 3.501
358.10 3.497
358.20 3.493
358.30 3.49
358.40 3.486
358.50 3.482
358.60 3.478
358.70 3.475
358.80 3.471
358.90 3.467
359.00 3.464
359.10 3.46
359.20 3.457
359.30 3.453
359.40 3.449
359.50 3.446
359.60 3.442
359.70 3.438
359.80 3.435
359.90 3.431
360.00 3.427
360.10 3.424
360.20 3.42
360.30 3.417
360.40 3.413
360.50 3.409
360.60 3.406
360.70 3.402
360.80 3.399
360.90 3.395
361.00 3.392
361.10 3.388
361.20 3.384
361.30 3.381
361.40 3.377
361.50 3.374
361.60 3.37
361.70 3.367
361.80 3.363
361.90 3.36
362.00 3.356
362.10 3.353
362.20 3.349
362.30 3.346
362.40 3.342
362.50 3.339
362.60 3.335
362.70 3.332
362.80 3.328
362.90 3.325
363.00 3.321
363.10 3.318
363.20 3.314
363.30 3.311
363.40 3.307
363.50 3.304
363.60 3.3
363.70 3.297
363.80 3.294
363.90 3.29
364.00 3.287
364.10 3.283
364.20 3.28
364.30 3.276
364.40 3.273
364.50 3.27
364.60 3.266
364.70 3.263
364.80 3.259
364.90 3.256
365.00 3.253
365.10 3.249
365.20 3.246
365.30 3.242
365.40 3.239
365.50 3.236
365.60 3.232
365.70 3.229
365.80 3.226
365.90 3.222
366.00 3.219
366.10 3.216
366.20 3.212
366.30 3.209
366.40 3.205
366.50 3.202
366.60 3.199
366.70 3.195
366.80 3.192
366.90 3.189
367.00 3.185
367.10 3.182
367.20 3.179
367.30 3.175
367.40 3.172
367.50 3.169
367.60 3.165
367.70 3.162
367.80 3.159
367.90 3.155
368.00 3.152
368.10 3.149
368.20 3.145
368.30 3.142
368.40 3.139
368.50 3.136
368.60 3.132
368.70 3.129
368.80 3.126
368.90 3.122
369.00 3.119
369.10 3.116
369.20 3.113
369.30 3.109
369.40 3.106
369.50 3.103
369.60 3.1
369.70 3.096
369.80 3.093
369.90 3.09
370.00 3.087
370.10 3.084
370.20 3.08
370.30 3.077
370.40 3.074
370.50 3.071
370.60 3.068
370.70 3.064
370.80 3.061
370.90 3.058
371.00 3.055
371.10 3.052
371.20 3.048
371.30 3.045
371.40 3.042
371.50 3.039
371.60 3.036
371.70 3.033
371.80 3.029
371.90 3.026
372.00 3.023
372.10 3.02
372.20 3.017
372.30 3.014
372.40 3.011
372.50 3.008
372.60 3.005
372.70 3.002
372.80 2.999
372.90 2.995
373.00 2.992
373.10 2.989
373.20 2.986
373.30 2.983
373.40 2.98
373.50 2.977
373.60 2.974
373.70 2.971
373.80 2.968
373.90 2.965
374.00 2.962
374.10 2.959
374.20 2.956
374.30 2.953
374.40 2.95
374.50 2.947
374.60 2.944
374.70 2.941
374.80 2.938
374.90 2.935
375.00 2.932
375.10 2.929
375.20 2.926
375.30 2.923
375.40 2.921
375.50 2.918
375.60 2.915
375.70 2.912
375.80 2.909
375.90 2.906
376.00 2.903
376.10 2.9
376.20 2.897
376.30 2.894
376.40 2.891
376.50 2.888
376.60 2.885
376.70 2.883
376.80 2.88
376.90 2.877
377.00 2.874
377.10 2.871
377.20 2.868
377.30 2.866
377.40 2.863
377.50 2.86
377.60 2.858
377.70 2.855
377.80 2.852
377.90 2.85
378.00 2.847
378.10 2.844
378.20 2.841
378.30 2.838
378.40 2.835
378.50 2.833
378.60 2.83
378.70 2.827
378.80 2.824
378.90 2.821
379.00 2.818
379.10 2.816
379.20 2.813
379.30 2.81
379.40 2.807
379.50 2.804
379.60 2.801
379.70 2.799
379.80 2.796
379.90 2.793
380.00 2.79
380.10 2.788
380.20 2.785
380.30 2.783
380.40 2.781
380.50 2.779
380.60 2.776
380.70 2.774
380.80 2.772
380.90 2.769
381.00 2.767
381.10 2.764
381.20 2.762
381.30 2.759
381.40 2.757
381.50 2.754
381.60 2.751
381.70 2.748
381.80 2.745
381.90 2.742
382.00 2.739
382.10 2.736
382.20 2.733
382.30 2.73
382.40 2.726
382.50 2.723
382.60 2.719
382.70 2.716
382.80 2.712
382.90 2.709
383.00 2.705
383.10 2.702
383.20 2.698
383.30 2.695
383.40 2.691
383.50 2.688
383.60 2.686
383.70 2.684
383.80 2.683
383.90 2.682
384.00 2.68
384.10 2.679
384.20 2.678
384.30 2.677
384.40 2.675
384.50 2.674
384.60 2.673
384.70 2.671
384.80 2.669
384.90 2.668
385.00 2.666
385.10 2.664
385.20 2.662
385.30 2.66
385.40 2.658
385.50 2.656
385.60 2.654
385.70 2.651
385.80 2.649
385.90 2.646
386.00 2.643
386.10 2.641
386.20 2.638
386.30 2.635
386.40 2.632
386.50 2.629
386.60 2.625
386.70 2.622
386.80 2.619
386.90 2.615
387.00 2.611
387.10 2.608
387.20 2.604
387.30 2.599
387.40 2.595
387.50 2.591
387.60 2.587
387.70 2.582
387.80 2.577
387.90 2.572
388.00 2.567
388.10 2.562
388.20 2.557
388.30 2.552
388.40 2.547
388.50 2.542
388.60 2.536
388.70 2.532
388.80 2.528
388.90 2.526
389.00 2.524
389.10 2.523
389.20 2.522
389.30 2.523
389.40 2.524
389.50 2.524
389.60 2.525
389.70 2.526
389.80 2.526
389.90 2.527
390.00 2.527
390.10 2.527
390.20 2.527
390.30 2.527
390.40 2.527
390.50 2.526
390.60 2.526
390.70 2.526
390.80 2.525
390.90 2.524
391.00 2.523
391.10 2.522
391.20 2.521
391.30 2.52
391.40 2.519
391.50 2.517
391.60 2.516
391.70 2.514
391.80 2.513
391.90 2.511
392.00 2.509
392.10 2.507
392.20 2.506
392.30 2.503
392.40 2.501
392.50 2.499
392.60 2.497
392.70 2.495
392.80 2.492
392.90 2.49
393.00 2.487
393.10 2.485
393.20 2.482
393.30 2.479
393.40 2.476
393.50 2.473
393.60 2.47
393.70 2.467
393.80 2.464
393.90 2.46
394.00 2.457
394.10 2.453
394.20 2.45
394.30 2.446
394.40 2.442
394.50 2.438
394.60 2.434
394.70 2.429
394.80 2.425
394.90 2.42
395.00 2.415
395.10 2.41
395.20 2.405
395.30 2.4
395.40 2.394
395.50 2.388
395.60 2.382
395.70 2.376
395.80 2.369
395.90 2.362
396.00 2.355
396.10 2.348
396.20 2.34
396.30 2.333
396.40 2.325
396.50 2.316
396.60 2.308
396.70 2.299
396.80 2.291
396.90 2.282
397.00 2.274
397.10 2.277
397.20 2.281
397.30 2.286
397.40 2.29
397.50 2.294
397.60 2.298
397.70 2.302
397.80 2.306
397.90 2.309
398.00 2.312
398.10 2.314
398.20 2.317
398.30 2.319
398.40 2.321
398.50 2.323
398.60 2.324
398.70 2.325
398.80 2.327
398.90 2.327
399.00 2.328
399.10 2.329
399.20 2.329
399.30 2.329
399.40 2.329
399.50 2.329
399.60 2.329
399.70 2.328
399.80 2.328
399.90 2.327
400.00 2.327
400.10 2.326
400.20 2.325
400.30 2.324
400.40 2.323
400.50 2.322
400.60 2.32
400.70 2.319
400.80 2.318
400.90 2.316
401.00 2.315
401.10 2.314
401.20 2.312
401.30 2.31
401.40 2.309
401.50 2.307
401.60 2.305
401.70 2.304
401.80 2.302
401.90 2.3
402.00 2.298
402.10 2.297
402.20 2.295
402.30 2.293
402.40 2.291
402.50 2.289
402.60 2.287
402.70 2.285
402.80 2.283
402.90 2.281
403.00 2.279
403.10 2.277
403.20 2.275
403.30 2.273
403.40 2.271
403.50 2.268
403.60 2.266
403.70 2.264
403.80 2.262
403.90 2.26
404.00 2.258
404.10 2.255
404.20 2.253
404.30 2.251
404.40 2.248
404.50 2.246
404.60 2.244
404.70 2.241
404.80 2.239
404.90 2.237
405.00 2.234
405.10 2.232
405.20 2.229
405.30 2.227
405.40 2.224
405.50 2.222
405.60 2.219
405.70 2.216
405.80 2.214
405.90 2.211
406.00 2.208
406.10 2.205
406.20 2.202
406.30 2.199
406.40 2.196
406.50 2.193
406.60 2.19
406.70 2.187
406.80 2.184
406.90 2.18
407.00 2.177
407.10 2.173
407.20 2.169
407.30 2.165
407.40 2.161
407.50 2.157
407.60 2.153
407.70 2.148
407.80 2.144
407.90 2.139
408.00 2.134
408.10 2.128
408.20 2.123
408.30 2.117
408.40 2.111
408.50 2.104
408.60 2.098
408.70 2.091
408.80 2.083
408.90 2.076
409.00 2.067
409.10 2.059
409.20 2.05
409.30 2.041
409.40 2.03
409.50 2.02
409.60 2.009
409.70 1.997
409.80 1.985
409.90 1.972
410.00 1.961
410.10 1.956
410.20 1.956
410.30 1.955
410.40 1.959
410.50 1.968
410.60 1.976
410.70 1.985
410.80 1.992
410.90 1.999
411.00 2.006
411.10 2.012
411.20 2.017
411.30 2.022
411.40 2.027
411.50 2.03
411.60 2.034
411.70 2.037
411.80 2.04
411.90 2.043
412.00 2.045
412.10 2.047
412.20 2.049
412.30 2.05
412.40 2.051
412.50 2.052
412.60 2.053
412.70 2.054
412.80 2.054
412.90 2.054
413.00 2.055
413.10 2.054
413.20 2.054
413.30 2.054
413.40 2.054
413.50 2.053
413.60 2.052
413.70 2.052
413.80 2.051
413.90 2.05
414.00 2.049
414.10 2.048
414.20 2.047
414.30 2.046
414.40 2.045
414.50 2.044
414.60 2.042
414.70 2.041
414.80 2.04
414.90 2.038
415.00 2.037
415.10 2.036
415.20 2.034
415.30 2.033
415.40 2.031
415.50 2.03
415.60 2.028
415.70 2.027
415.80 2.025
415.90 2.024
416.00 2.022
416.10 2.02
416.20 2.019
416.30 2.017
416.40 2.015
416.50 2.014
416.60 2.012
416.70 2.011
416.80 2.009
416.90 2.007
417.00 2.005
417.10 2.004
417.20 2.002
417.30 2
417.40 1.999
417.50 1.997
417.60 1.995
417.70 1.994
417.80 1.992
417.90 1.99
418.00 1.988
418.10 1.987
418.20 1.985
418.30 1.983
418.40 1.981
418.50 1.98
418.60 1.978
418.70 1.976
418.80 1.974
418.90 1.973
419.00 1.971
419.10 1.969
419.20 1.967
419.30 1.966
419.40 1.964
419.50 1.962
419.60 1.96
419.70 1.959
419.80 1.957
419.90 1.955
420.00 1.953
420.10 1.952
420.20 1.95
420.30 1.948
420.40 1.946
420.50 1.945
420.60 1.943
420.70 1.941
420.80 1.939
420.90 1.938
421.00 1.936
421.10 1.934
421.20 1.932
421.30 1.931
421.40 1.929
421.50 1.927
421.60 1.925
421.70 1.924
421.80 1.922
421.90 1.92
422.00 1.918
422.10 1.917
422.20 1.915
422.30 1.913
422.40 1.912
422.50 1.91
422.60 1.908
422.70 1.906
422.80 1.905
422.90 1.903
423.00 1.901
423.10 1.899
423.20 1.898
423.30 1.896
423.40 1.894
423.50 1.892
423.60 1.891
423.70 1.889
423.80 1.887
423.90 1.885
424.00 1.884
424.10 1.882
424.20 1.88
424.30 1.879
424.40 1.877
424.50 1.875
424.60 1.873
424.70 1.872
424.80 1.87
424.90 1.868
425.00 1.866
425.10 1.865
425.20 1.863
425.30 1.861
425.40 1.859
425.50 1.858
425.60 1.856
425.70 1.854
425.80 1.853
425.90 1.851
426.00 1.849
426.10 1.847
426.20 1.846
426.30 1.844
426.40 1.842
426.50 1.84
426.60 1.839
426.70 1.837
426.80 1.835
426.90 1.833
427.00 1.831
427.10 1.83
427.20 1.828
427.30 1.826
427.40 1.824
427.50 1.823
427.60 1.821
427.70 1.819
427.80 1.817
427.90 1.815
428.00 1.813
428.10 1.812
428.20 1.81
428.30 1.808
428.40 1.806
428.50 1.804
428.60 1.802
428.70 1.8
428.80 1.798
428.90 1.796
429.00 1.795
429.10 1.793
429.20 1.791
429.30 1.788
429.40 1.786
429.50 1.784
429.60 1.782
429.70 1.78
429.80 1.778
429.90 1.776
430.00 1.773
430.10 1.771
430.20 1.769
430.30 1.766
430.40 1.764
430.50 1.761
430.60 1.759
430.70 1.756
430.80 1.753
430.90 1.75
431.00 1.747
431.10 1.744
431.20 1.741
431.30 1.738
431.40 1.734
431.50 1.731
431.60 1.727
431.70 1.723
431.80 1.719
431.90 1.714
432.00 1.71
432.10 1.705
432.20 1.699
432.30 1.694
432.40 1.688
432.50 1.682
432.60 1.675
432.70 1.668
432.80 1.661
432.90 1.653
433.00 1.645
433.10 1.636
433.20 1.627
433.30 1.617
433.40 1.606
433.50 1.594
433.60 1.582
433.70 1.569
433.80 1.554
433.90 1.537
434.00 1.523
434.10 1.522
434.20 1.535
434.30 1.548
434.40 1.56
434.50 1.571
434.60 1.58
434.70 1.589
434.80 1.597
434.90 1.604
435.00 1.61
435.10 1.616
435.20 1.621
435.30 1.626
435.40 1.631
435.50 1.635
435.60 1.638
435.70 1.641
435.80 1.644
435.90 1.646
436.00 1.649
436.10 1.65
436.20 1.652
436.30 1.653
436.40 1.654
436.50 1.655
436.60 1.656
436.70 1.656
436.80 1.657
436.90 1.657
437.00 1.657
437.10 1.657
437.20 1.657
437.30 1.657
437.40 1.656
437.50 1.656
437.60 1.655
437.70 1.655
437.80 1.654
437.90 1.654
438.00 1.653
438.10 1.652
438.20 1.651
438.30 1.65
438.40 1.649
438.50 1.648
438.60 1.647
438.70 1.646
438.80 1.645
438.90 1.644
439.00 1.643
439.10 1.642
439.20 1.641
439.30 1.64
439.40 1.639
439.50 1.638
439.60 1.636
439.70 1.635
439.80 1.634
439.90 1.633
440.00 1.632
440.10 1.63
440.20 1.629
440.30 1.628
440.40 1.627
440.50 1.625
440.60 1.624
440.70 1.623
440.80 1.621
440.90 1.62
441.00 1.619
441.10 1.618
441.20 1.616
441.30 1.615
441.40 1.614
441.50 1.612
441.60 1.611
441.70 1.61
441.80 1.608
441.90 1.607
442.00 1.606
442.10 1.604
442.20 1.603
442.30 1.602
442.40 1.6
442.50 1.599
442.60 1.598
442.70 1.596
442.80 1.595
442.90 1.594
443.00 1.592
443.10 1.591
443.20 1.59
443.30 1.588
443.40 1.587
443.50 1.586
443.60 1.584
443.70 1.583
443.80 1.582
443.90 1.58
444.00 1.579
444.10 1.578
444.20 1.576
444.30 1.575
444.40 1.574
444.50 1.572
444.60 1.571
444.70 1.57
444.80 1.568
444.90 1.567
445.00 1.566
445.10 1.564
445.20 1.563
445.30 1.562
445.40 1.56
445.50 1.559
445.60 1.558
445.70 1.556
445.80 1.555
445.90 1.554
446.00 1.553
446.10 1.551
446.20 1.55
446.30 1.549
446.40 1.547
446.50 1.546
446.60 1.545
446.70 1.543
446.80 1.542
446.90 1.541
447.00 1.539
447.10 1.538
447.20 1.537
447.30 1.535
447.40 1.534
447.50 1.533
447.60 1.531
447.70 1.53
447.80 1.529
447.90 1.528
448.00 1.526
448.10 1.525
448.20 1.524
448.30 1.522
448.40 1.521
448.50 1.52
448.60 1.519
448.70 1.517
448.80 1.516
448.90 1.515
449.00 1.513
449.10 1.512
449.20 1.511
449.30 1.509
449.40 1.508
449.50 1.507
449.60 1.506
449.70 1.504
449.80 1.503
449.90 1.502
450.00 1.501
450.10 1.499
450.20 1.498
450.30 1.497
450.40 1.495
450.50 1.494
450.60 1.493
450.70 1.492
450.80 1.49
450.90 1.489
451.00 1.488
451.10 1.487
451.20 1.485
451.30 1.484
451.40 1.483
451.50 1.481
451.60 1.48
451.70 1.479
451.80 1.478
451.90 1.476
452.00 1.475
452.10 1.474
452.20 1.473
452.30 1.471
452.40 1.47
452.50 1.469
452.60 1.468
452.70 1.466
452.80 1.465
452.90 1.464
453.00 1.463
453.10 1.462
453.20 1.46
453.30 1.459
453.40 1.458
453.50 1.457
453.60 1.455
453.70 1.454
453.80 1.453
453.90 1.452
454.00 1.45
454.10 1.449
