# Version 2.1 - nm, norm@500 to 1, cut digits, bergeron_25000_70.dat_25000
# Wavelength(nm)  Flambda(ergs/cm^s/s/nm)
300.00 4.081
300.10 4.077
300.20 4.072
300.30 4.068
300.40 4.064
300.50 4.059
300.60 4.055
300.70 4.051
300.80 4.047
300.90 4.042
301.00 4.038
301.10 4.034
301.20 4.03
301.30 4.025
301.40 4.021
301.50 4.017
301.60 4.013
301.70 4.008
301.80 4.004
301.90 4
302.00 3.996
302.10 3.992
302.20 3.987
302.30 3.983
302.40 3.979
302.50 3.975
302.60 3.971
302.70 3.967
302.80 3.963
302.90 3.958
303.00 3.954
303.10 3.95
303.20 3.946
303.30 3.942
303.40 3.938
303.50 3.934
303.60 3.93
303.70 3.925
303.80 3.921
303.90 3.917
304.00 3.913
304.10 3.909
304.20 3.905
304.30 3.901
304.40 3.897
304.50 3.893
304.60 3.889
304.70 3.885
304.80 3.881
304.90 3.877
305.00 3.873
305.10 3.869
305.20 3.865
305.30 3.861
305.40 3.857
305.50 3.853
305.60 3.849
305.70 3.845
305.80 3.841
305.90 3.837
306.00 3.833
306.10 3.829
306.20 3.825
306.30 3.821
306.40 3.817
306.50 3.813
306.60 3.809
306.70 3.805
306.80 3.801
306.90 3.797
307.00 3.793
307.10 3.789
307.20 3.785
307.30 3.782
307.40 3.778
307.50 3.774
307.60 3.77
307.70 3.766
307.80 3.762
307.90 3.758
308.00 3.754
308.10 3.75
308.20 3.747
308.30 3.743
308.40 3.739
308.50 3.735
308.60 3.731
308.70 3.727
308.80 3.724
308.90 3.72
309.00 3.716
309.10 3.712
309.20 3.708
309.30 3.704
309.40 3.701
309.50 3.697
309.60 3.693
309.70 3.689
309.80 3.686
309.90 3.682
310.00 3.678
310.10 3.674
310.20 3.67
310.30 3.667
310.40 3.663
310.50 3.659
310.60 3.655
310.70 3.652
310.80 3.648
310.90 3.644
311.00 3.641
311.10 3.637
311.20 3.633
311.30 3.629
311.40 3.626
311.50 3.622
311.60 3.618
311.70 3.615
311.80 3.611
311.90 3.607
312.00 3.604
312.10 3.6
312.20 3.596
312.30 3.593
312.40 3.589
312.50 3.585
312.60 3.582
312.70 3.578
312.80 3.574
312.90 3.571
313.00 3.567
313.10 3.564
313.20 3.56
313.30 3.556
313.40 3.553
313.50 3.549
313.60 3.546
313.70 3.542
313.80 3.538
313.90 3.535
314.00 3.531
314.10 3.528
314.20 3.524
314.30 3.521
314.40 3.517
314.50 3.513
314.60 3.51
314.70 3.506
314.80 3.503
314.90 3.499
315.00 3.496
315.10 3.492
315.20 3.489
315.30 3.485
315.40 3.482
315.50 3.478
315.60 3.475
315.70 3.471
315.80 3.468
315.90 3.464
316.00 3.461
316.10 3.457
316.20 3.454
316.30 3.45
316.40 3.447
316.50 3.443
316.60 3.44
316.70 3.436
316.80 3.433
316.90 3.43
317.00 3.426
317.10 3.423
317.20 3.419
317.30 3.416
317.40 3.412
317.50 3.409
317.60 3.406
317.70 3.402
317.80 3.399
317.90 3.395
318.00 3.392
318.10 3.389
318.20 3.385
318.30 3.382
318.40 3.378
318.50 3.375
318.60 3.372
318.70 3.368
318.80 3.365
318.90 3.362
319.00 3.358
319.10 3.355
319.20 3.352
319.30 3.348
319.40 3.345
319.50 3.342
319.60 3.338
319.70 3.335
319.80 3.332
319.90 3.328
320.00 3.325
320.10 3.322
320.20 3.318
320.30 3.315
320.40 3.312
320.50 3.308
320.60 3.305
320.70 3.302
320.80 3.299
320.90 3.295
321.00 3.292
321.10 3.289
321.20 3.286
321.30 3.282
321.40 3.279
321.50 3.276
321.60 3.273
321.70 3.269
321.80 3.266
321.90 3.263
322.00 3.26
322.10 3.256
322.20 3.253
322.30 3.25
322.40 3.247
322.50 3.244
322.60 3.24
322.70 3.237
322.80 3.234
322.90 3.231
323.00 3.228
323.10 3.224
323.20 3.221
323.30 3.218
323.40 3.215
323.50 3.212
323.60 3.209
323.70 3.205
323.80 3.202
323.90 3.199
324.00 3.196
324.10 3.193
324.20 3.19
324.30 3.187
324.40 3.183
324.50 3.18
324.60 3.177
324.70 3.174
324.80 3.171
324.90 3.168
325.00 3.165
325.10 3.162
325.20 3.158
325.30 3.155
325.40 3.152
325.50 3.149
325.60 3.146
325.70 3.143
325.80 3.14
325.90 3.137
326.00 3.134
326.10 3.131
326.20 3.128
326.30 3.125
326.40 3.122
326.50 3.119
326.60 3.116
326.70 3.112
326.80 3.109
326.90 3.106
327.00 3.103
327.10 3.1
327.20 3.097
327.30 3.094
327.40 3.091
327.50 3.088
327.60 3.085
327.70 3.082
327.80 3.079
327.90 3.076
328.00 3.073
328.10 3.07
328.20 3.067
328.30 3.064
328.40 3.061
328.50 3.058
328.60 3.055
328.70 3.052
328.80 3.05
328.90 3.047
329.00 3.044
329.10 3.041
329.20 3.038
329.30 3.035
329.40 3.032
329.50 3.029
329.60 3.026
329.70 3.023
329.80 3.02
329.90 3.017
330.00 3.014
330.10 3.011
330.20 3.008
330.30 3.006
330.40 3.003
330.50 3
330.60 2.997
330.70 2.994
330.80 2.991
330.90 2.988
331.00 2.985
331.10 2.982
331.20 2.98
331.30 2.977
331.40 2.974
331.50 2.971
331.60 2.968
331.70 2.965
331.80 2.962
331.90 2.959
332.00 2.957
332.10 2.954
332.20 2.951
332.30 2.948
332.40 2.945
332.50 2.942
332.60 2.94
332.70 2.937
332.80 2.934
332.90 2.931
333.00 2.928
333.10 2.926
333.20 2.923
333.30 2.92
333.40 2.917
333.50 2.914
333.60 2.912
333.70 2.909
333.80 2.906
333.90 2.903
334.00 2.9
334.10 2.898
334.20 2.895
334.30 2.892
334.40 2.889
334.50 2.887
334.60 2.884
334.70 2.881
334.80 2.878
334.90 2.876
335.00 2.873
335.10 2.87
335.20 2.867
335.30 2.865
335.40 2.862
335.50 2.859
335.60 2.856
335.70 2.854
335.80 2.851
335.90 2.848
336.00 2.846
336.10 2.843
336.20 2.84
336.30 2.837
336.40 2.835
336.50 2.832
336.60 2.829
336.70 2.827
336.80 2.824
336.90 2.821
337.00 2.819
337.10 2.816
337.20 2.813
337.30 2.811
337.40 2.808
337.50 2.805
337.60 2.803
337.70 2.8
337.80 2.797
337.90 2.795
338.00 2.792
338.10 2.789
338.20 2.787
338.30 2.784
338.40 2.782
338.50 2.779
338.60 2.776
338.70 2.774
338.80 2.771
338.90 2.768
339.00 2.766
339.10 2.763
339.20 2.761
339.30 2.758
339.40 2.755
339.50 2.753
339.60 2.75
339.70 2.748
339.80 2.745
339.90 2.742
340.00 2.74
340.10 2.737
340.20 2.735
340.30 2.732
340.40 2.73
340.50 2.727
340.60 2.724
340.70 2.722
340.80 2.719
340.90 2.717
341.00 2.714
341.10 2.712
341.20 2.709
341.30 2.707
341.40 2.704
341.50 2.701
341.60 2.699
341.70 2.696
341.80 2.694
341.90 2.691
342.00 2.689
342.10 2.686
342.20 2.684
342.30 2.681
342.40 2.679
342.50 2.676
342.60 2.674
342.70 2.671
342.80 2.669
342.90 2.666
343.00 2.664
343.10 2.661
343.20 2.659
343.30 2.656
343.40 2.654
343.50 2.651
343.60 2.649
343.70 2.646
343.80 2.644
343.90 2.642
344.00 2.639
344.10 2.637
344.20 2.634
344.30 2.632
344.40 2.629
344.50 2.627
344.60 2.624
344.70 2.622
344.80 2.619
344.90 2.617
345.00 2.615
345.10 2.612
345.20 2.61
345.30 2.607
345.40 2.605
345.50 2.603
345.60 2.6
345.70 2.598
345.80 2.595
345.90 2.593
346.00 2.59
346.10 2.588
346.20 2.586
346.30 2.583
346.40 2.581
346.50 2.578
346.60 2.576
346.70 2.574
346.80 2.571
346.90 2.569
347.00 2.567
347.10 2.564
347.20 2.562
347.30 2.559
347.40 2.557
347.50 2.555
347.60 2.552
347.70 2.55
347.80 2.548
347.90 2.545
348.00 2.543
348.10 2.541
348.20 2.538
348.30 2.536
348.40 2.534
348.50 2.531
348.60 2.529
348.70 2.527
348.80 2.524
348.90 2.522
349.00 2.52
349.10 2.517
349.20 2.515
349.30 2.513
349.40 2.51
349.50 2.508
349.60 2.506
349.70 2.504
349.80 2.501
349.90 2.499
350.00 2.497
350.10 2.494
350.20 2.492
350.30 2.49
350.40 2.487
350.50 2.485
350.60 2.483
350.70 2.481
350.80 2.478
350.90 2.476
351.00 2.474
351.10 2.472
351.20 2.469
351.30 2.467
351.40 2.465
351.50 2.463
351.60 2.46
351.70 2.458
351.80 2.456
351.90 2.454
352.00 2.451
352.10 2.449
352.20 2.447
352.30 2.445
352.40 2.442
352.50 2.44
352.60 2.438
352.70 2.436
352.80 2.434
352.90 2.431
353.00 2.429
353.10 2.427
353.20 2.425
353.30 2.422
353.40 2.42
353.50 2.418
353.60 2.416
353.70 2.414
353.80 2.411
353.90 2.409
354.00 2.407
354.10 2.405
354.20 2.403
354.30 2.401
354.40 2.398
354.50 2.396
354.60 2.394
354.70 2.392
354.80 2.39
354.90 2.388
355.00 2.385
355.10 2.383
355.20 2.381
355.30 2.379
355.40 2.377
355.50 2.375
355.60 2.372
355.70 2.37
355.80 2.368
355.90 2.366
356.00 2.364
356.10 2.362
356.20 2.36
356.30 2.357
356.40 2.355
356.50 2.353
356.60 2.351
356.70 2.349
356.80 2.347
356.90 2.345
357.00 2.343
357.10 2.341
357.20 2.338
357.30 2.336
357.40 2.334
357.50 2.332
357.60 2.33
357.70 2.328
357.80 2.326
357.90 2.324
358.00 2.322
358.10 2.32
358.20 2.317
358.30 2.315
358.40 2.313
358.50 2.311
358.60 2.309
358.70 2.307
358.80 2.305
358.90 2.303
359.00 2.301
359.10 2.299
359.20 2.297
359.30 2.295
359.40 2.293
359.50 2.291
359.60 2.289
359.70 2.286
359.80 2.284
359.90 2.282
360.00 2.28
360.10 2.278
360.20 2.276
360.30 2.274
360.40 2.272
360.50 2.27
360.60 2.268
360.70 2.266
360.80 2.264
360.90 2.262
361.00 2.26
361.10 2.258
361.20 2.256
361.30 2.254
361.40 2.252
361.50 2.25
361.60 2.248
361.70 2.246
361.80 2.244
361.90 2.242
362.00 2.24
362.10 2.238
362.20 2.236
362.30 2.234
362.40 2.232
362.50 2.23
362.60 2.228
362.70 2.226
362.80 2.224
362.90 2.222
363.00 2.22
363.10 2.218
363.20 2.216
363.30 2.214
363.40 2.212
363.50 2.21
363.60 2.208
363.70 2.206
363.80 2.204
363.90 2.203
364.00 2.201
364.10 2.199
364.20 2.197
364.30 2.195
364.40 2.193
364.50 2.191
364.60 2.189
364.70 2.187
364.80 2.185
364.90 2.183
365.00 2.181
365.10 2.179
365.20 2.177
365.30 2.175
365.40 2.173
365.50 2.172
365.60 2.17
365.70 2.168
365.80 2.166
365.90 2.164
366.00 2.162
366.10 2.16
366.20 2.157
366.30 2.155
366.40 2.153
366.50 2.151
366.60 2.148
366.70 2.146
366.80 2.144
366.90 2.141
367.00 2.139
367.10 2.137
367.20 2.135
367.30 2.132
367.40 2.13
367.50 2.128
367.60 2.126
367.70 2.123
367.80 2.121
367.90 2.119
368.00 2.116
368.10 2.114
368.20 2.112
368.30 2.11
368.40 2.108
368.50 2.106
368.60 2.104
368.70 2.101
368.80 2.099
368.90 2.097
369.00 2.095
369.10 2.093
369.20 2.091
369.30 2.089
369.40 2.087
369.50 2.084
369.60 2.082
369.70 2.08
369.80 2.078
369.90 2.076
370.00 2.074
370.10 2.072
370.20 2.07
370.30 2.068
370.40 2.066
370.50 2.064
370.60 2.063
370.70 2.061
370.80 2.059
370.90 2.057
371.00 2.055
371.10 2.053
371.20 2.051
371.30 2.05
371.40 2.048
371.50 2.046
371.60 2.044
371.70 2.042
371.80 2.04
371.90 2.038
372.00 2.037
372.10 2.035
372.20 2.034
372.30 2.033
372.40 2.032
372.50 2.031
372.60 2.03
372.70 2.028
372.80 2.027
372.90 2.026
373.00 2.025
373.10 2.024
373.20 2.023
373.30 2.022
373.40 2.02
373.50 2.019
373.60 2.018
373.70 2.017
373.80 2.016
373.90 2.015
374.00 2.014
374.10 2.013
374.20 2.012
374.30 2.011
374.40 2.01
374.50 2.01
374.60 2.009
374.70 2.008
374.80 2.007
374.90 2.007
375.00 2.006
375.10 2.005
375.20 2.004
375.30 2.003
375.40 2.003
375.50 2.002
375.60 2.001
375.70 2
375.80 2
375.90 1.999
376.00 1.998
376.10 1.993
376.20 1.988
376.30 1.983
376.40 1.978
376.50 1.973
376.60 1.967
376.70 1.962
376.80 1.957
376.90 1.952
377.00 1.947
377.10 1.952
377.20 1.956
377.30 1.96
377.40 1.964
377.50 1.969
377.60 1.973
377.70 1.977
377.80 1.982
377.90 1.986
378.00 1.99
378.10 1.986
378.20 1.982
378.30 1.977
378.40 1.973
378.50 1.969
378.60 1.964
378.70 1.96
378.80 1.956
378.90 1.952
379.00 1.947
379.10 1.94
379.20 1.932
379.30 1.925
379.40 1.917
379.50 1.91
379.60 1.902
379.70 1.895
379.80 1.887
379.90 1.88
380.00 1.872
380.10 1.884
380.20 1.895
380.30 1.907
380.40 1.918
380.50 1.929
380.60 1.941
380.70 1.952
380.80 1.964
380.90 1.975
381.00 1.986
381.10 1.988
381.20 1.99
381.30 1.993
381.40 1.995
381.50 1.997
381.60 1.994
381.70 1.991
381.80 1.985
381.90 1.978
382.00 1.97
382.10 1.959
382.20 1.948
382.30 1.927
382.40 1.906
382.50 1.885
382.60 1.864
382.70 1.843
382.80 1.822
382.90 1.801
383.00 1.78
383.10 1.759
383.20 1.738
383.30 1.71
383.40 1.681
383.50 1.655
383.60 1.66
383.70 1.687
383.80 1.715
383.90 1.743
384.00 1.77
384.10 1.796
384.20 1.821
384.30 1.844
384.40 1.867
384.50 1.888
384.60 1.907
384.70 1.926
384.80 1.942
384.90 1.958
385.00 1.972
385.10 1.984
385.20 1.996
385.30 2.006
385.40 2.015
385.50 2.022
385.60 2.028
385.70 2.032
385.80 2.036
385.90 2.038
386.00 2.038
386.10 2.037
386.20 2.035
386.30 2.031
386.40 2.026
386.50 2.02
386.60 2.011
386.70 2.002
386.80 1.991
386.90 1.978
387.00 1.964
387.10 1.949
387.20 1.931
387.30 1.913
387.40 1.892
387.50 1.87
387.60 1.846
387.70 1.821
387.80 1.793
387.90 1.764
388.00 1.734
388.10 1.702
388.20 1.668
388.30 1.632
388.40 1.594
388.50 1.555
388.60 1.515
388.70 1.472
388.80 1.435
388.90 1.402
389.00 1.43
389.10 1.465
389.20 1.506
389.30 1.544
389.40 1.582
389.50 1.618
389.60 1.652
389.70 1.684
389.80 1.716
389.90 1.745
390.00 1.773
390.10 1.8
390.20 1.824
390.30 1.848
390.40 1.871
390.50 1.891
390.60 1.911
390.70 1.93
390.80 1.947
390.90 1.963
391.00 1.978
391.10 1.992
391.20 2.005
391.30 2.017
391.40 2.027
391.50 2.037
391.60 2.046
391.70 2.054
391.80 2.061
391.90 2.068
392.00 2.073
392.10 2.078
392.20 2.082
392.30 2.085
392.40 2.088
392.50 2.09
392.60 2.09
392.70 2.091
392.80 2.09
392.90 2.089
393.00 2.087
393.10 2.084
393.20 2.081
393.30 2.077
393.40 2.072
393.50 2.066
393.60 2.06
393.70 2.053
393.80 2.044
393.90 2.036
394.00 2.026
394.10 2.015
394.20 2.003
394.30 1.991
394.40 1.977
394.50 1.963
394.60 1.948
394.70 1.931
394.80 1.913
394.90 1.894
395.00 1.874
395.10 1.853
395.20 1.83
395.30 1.806
395.40 1.781
395.50 1.755
395.60 1.727
395.70 1.697
395.80 1.667
395.90 1.635
396.00 1.601
396.10 1.566
396.20 1.529
396.30 1.491
396.40 1.451
396.50 1.409
396.60 1.364
396.70 1.318
396.80 1.265
396.90 1.209
397.00 1.148
397.10 1.202
397.20 1.254
397.30 1.306
397.40 1.351
397.50 1.394
397.60 1.434
397.70 1.472
397.80 1.508
397.90 1.543
398.00 1.575
398.10 1.607
398.20 1.637
398.30 1.665
398.40 1.691
398.50 1.717
398.60 1.741
398.70 1.764
398.80 1.786
398.90 1.806
399.00 1.825
399.10 1.843
399.20 1.86
399.30 1.876
399.40 1.891
399.50 1.905
399.60 1.918
399.70 1.93
399.80 1.942
399.90 1.953
400.00 1.963
400.10 1.972
400.20 1.98
400.30 1.988
400.40 1.996
400.50 2.002
400.60 2.009
400.70 2.015
400.80 2.02
400.90 2.025
401.00 2.029
401.10 2.033
401.20 2.037
401.30 2.04
401.40 2.043
401.50 2.046
401.60 2.049
401.70 2.051
401.80 2.053
401.90 2.054
402.00 2.055
402.10 2.057
402.20 2.057
402.30 2.058
402.40 2.058
402.50 2.059
402.60 2.059
402.70 2.059
402.80 2.058
402.90 2.058
403.00 2.057
403.10 2.056
403.20 2.055
403.30 2.054
403.40 2.053
403.50 2.051
403.60 2.049
403.70 2.048
403.80 2.046
403.90 2.043
404.00 2.041
404.10 2.039
404.20 2.036
404.30 2.033
404.40 2.03
404.50 2.027
404.60 2.024
404.70 2.02
404.80 2.016
404.90 2.012
405.00 2.008
405.10 2.004
405.20 1.999
405.30 1.994
405.40 1.989
405.50 1.984
405.60 1.978
405.70 1.972
405.80 1.966
405.90 1.959
406.00 1.952
406.10 1.945
406.20 1.937
406.30 1.929
406.40 1.921
406.50 1.912
406.60 1.903
406.70 1.893
406.80 1.882
406.90 1.872
407.00 1.86
407.10 1.848
407.20 1.835
407.30 1.822
407.40 1.808
407.50 1.794
407.60 1.778
407.70 1.762
407.80 1.745
407.90 1.727
408.00 1.709
408.10 1.689
408.20 1.668
408.30 1.647
408.40 1.625
408.50 1.601
408.60 1.576
408.70 1.55
408.80 1.523
408.90 1.495
409.00 1.465
409.10 1.434
409.20 1.402
409.30 1.369
409.40 1.333
409.50 1.297
409.60 1.259
409.70 1.217
409.80 1.172
409.90 1.125
410.00 1.065
410.10 1.011
410.20 0.9617
410.30 1.032
410.40 1.094
410.50 1.147
410.60 1.19
410.70 1.231
410.80 1.269
410.90 1.304
411.00 1.337
411.10 1.37
411.20 1.4
411.30 1.429
411.40 1.457
411.50 1.483
411.60 1.508
411.70 1.531
411.80 1.554
411.90 1.575
412.00 1.595
412.10 1.614
412.20 1.632
412.30 1.649
412.40 1.665
412.50 1.68
412.60 1.694
412.70 1.708
412.80 1.72
412.90 1.732
413.00 1.743
413.10 1.754
413.20 1.763
413.30 1.772
413.40 1.781
413.50 1.789
413.60 1.796
413.70 1.803
413.80 1.81
413.90 1.816
414.00 1.821
414.10 1.827
414.20 1.831
414.30 1.836
414.40 1.84
414.50 1.844
414.60 1.847
414.70 1.851
414.80 1.854
414.90 1.856
415.00 1.859
415.10 1.861
415.20 1.863
415.30 1.865
415.40 1.867
415.50 1.868
415.60 1.87
415.70 1.871
415.80 1.872
415.90 1.873
416.00 1.873
416.10 1.874
416.20 1.875
416.30 1.875
416.40 1.875
416.50 1.876
416.60 1.876
416.70 1.876
416.80 1.876
416.90 1.876
417.00 1.875
417.10 1.875
417.20 1.875
417.30 1.874
417.40 1.874
417.50 1.874
417.60 1.873
417.70 1.872
417.80 1.872
417.90 1.871
418.00 1.87
418.10 1.87
418.20 1.869
418.30 1.868
418.40 1.867
418.50 1.866
418.60 1.865
418.70 1.864
418.80 1.863
418.90 1.862
419.00 1.861
419.10 1.86
419.20 1.859
419.30 1.858
419.40 1.857
419.50 1.856
419.60 1.855
419.70 1.854
419.80 1.852
419.90 1.851
420.00 1.85
420.10 1.849
420.20 1.847
420.30 1.846
420.40 1.845
420.50 1.843
420.60 1.842
420.70 1.841
420.80 1.839
420.90 1.838
421.00 1.837
421.10 1.835
421.20 1.834
421.30 1.832
421.40 1.831
421.50 1.829
421.60 1.828
421.70 1.827
421.80 1.825
421.90 1.824
422.00 1.822
422.10 1.82
422.20 1.819
422.30 1.817
422.40 1.816
422.50 1.814
422.60 1.813
422.70 1.811
422.80 1.809
422.90 1.808
423.00 1.806
423.10 1.805
423.20 1.803
423.30 1.801
423.40 1.799
423.50 1.798
423.60 1.796
423.70 1.794
423.80 1.793
423.90 1.791
424.00 1.789
424.10 1.787
424.20 1.785
424.30 1.784
424.40 1.782
424.50 1.78
424.60 1.778
424.70 1.776
424.80 1.774
424.90 1.772
425.00 1.77
425.10 1.768
425.20 1.766
425.30 1.764
425.40 1.762
425.50 1.76
425.60 1.758
425.70 1.756
425.80 1.754
425.90 1.752
426.00 1.75
426.10 1.747
426.20 1.745
426.30 1.743
426.40 1.74
426.50 1.738
426.60 1.736
426.70 1.733
426.80 1.731
426.90 1.728
427.00 1.726
427.10 1.723
427.20 1.72
427.30 1.717
427.40 1.715
427.50 1.712
427.60 1.709
427.70 1.706
427.80 1.703
427.90 1.7
428.00 1.696
428.10 1.693
428.20 1.69
428.30 1.686
428.40 1.682
428.50 1.679
428.60 1.675
428.70 1.671
428.80 1.667
428.90 1.663
429.00 1.658
429.10 1.654
429.20 1.649
429.30 1.644
429.40 1.639
429.50 1.634
429.60 1.628
429.70 1.623
429.80 1.617
429.90 1.611
430.00 1.604
430.10 1.597
430.20 1.59
430.30 1.583
430.40 1.575
430.50 1.567
430.60 1.559
430.70 1.55
430.80 1.541
430.90 1.532
431.00 1.522
431.10 1.511
431.20 1.501
431.30 1.489
431.40 1.477
431.50 1.465
431.60 1.451
431.70 1.438
431.80 1.423
431.90 1.408
432.00 1.392
432.10 1.375
432.20 1.358
432.30 1.339
432.40 1.32
432.50 1.3
432.60 1.279
432.70 1.257
432.80 1.234
432.90 1.21
433.00 1.185
433.10 1.159
433.20 1.132
433.30 1.103
433.40 1.073
433.50 1.04
433.60 1.006
433.70 0.9665
433.80 0.9204
433.90 0.8679
434.00 0.785
434.10 0.7861
434.20 0.871
434.30 0.9212
434.40 0.9652
434.50 1.003
434.60 1.035
434.70 1.066
434.80 1.095
434.90 1.121
435.00 1.147
435.10 1.171
435.20 1.194
435.30 1.216
435.40 1.237
435.50 1.256
435.60 1.275
435.70 1.293
435.80 1.309
435.90 1.325
436.00 1.34
436.10 1.354
436.20 1.367
436.30 1.38
436.40 1.392
436.50 1.403
436.60 1.414
436.70 1.423
436.80 1.432
436.90 1.441
437.00 1.449
437.10 1.457
437.20 1.464
437.30 1.471
437.40 1.477
437.50 1.483
437.60 1.488
437.70 1.493
437.80 1.498
437.90 1.502
438.00 1.506
438.10 1.51
438.20 1.514
438.30 1.517
438.40 1.52
438.50 1.523
438.60 1.525
438.70 1.528
438.80 1.53
438.90 1.532
439.00 1.534
439.10 1.535
439.20 1.537
439.30 1.538
439.40 1.539
439.50 1.541
439.60 1.542
439.70 1.542
439.80 1.543
439.90 1.544
440.00 1.544
440.10 1.545
440.20 1.545
440.30 1.546
440.40 1.546
440.50 1.546
440.60 1.546
440.70 1.546
440.80 1.546
440.90 1.546
441.00 1.546
441.10 1.546
441.20 1.546
441.30 1.545
441.40 1.545
441.50 1.545
441.60 1.544
441.70 1.544
441.80 1.543
441.90 1.543
442.00 1.542
442.10 1.542
442.20 1.541
442.30 1.541
442.40 1.54
442.50 1.54
442.60 1.539
442.70 1.538
442.80 1.537
442.90 1.537
443.00 1.536
443.10 1.535
443.20 1.534
443.30 1.534
443.40 1.533
443.50 1.532
443.60 1.531
443.70 1.53
443.80 1.53
443.90 1.529
444.00 1.528
444.10 1.527
444.20 1.526
444.30 1.525
444.40 1.524
444.50 1.523
444.60 1.522
444.70 1.521
444.80 1.52
444.90 1.519
445.00 1.518
445.10 1.517
445.20 1.516
445.30 1.515
445.40 1.514
445.50 1.513
445.60 1.512
445.70 1.511
445.80 1.51
445.90 1.509
446.00 1.508
446.10 1.507
446.20 1.506
446.30 1.505
446.40 1.504
446.50 1.503
446.60 1.502
446.70 1.501
446.80 1.5
446.90 1.499
447.00 1.498
447.10 1.497
447.20 1.496
447.30 1.494
447.40 1.493
447.50 1.492
447.60 1.491
447.70 1.49
447.80 1.489
447.90 1.488
448.00 1.487
448.10 1.486
448.20 1.485
448.30 1.484
448.40 1.482
448.50 1.481
448.60 1.48
448.70 1.479
448.80 1.478
448.90 1.477
449.00 1.476
449.10 1.475
449.20 1.474
449.30 1.473
449.40 1.471
449.50 1.47
449.60 1.469
449.70 1.468
449.80 1.467
449.90 1.466
450.00 1.465
450.10 1.464
450.20 1.463
450.30 1.461
450.40 1.46
450.50 1.459
450.60 1.458
450.70 1.457
450.80 1.456
450.90 1.455
451.00 1.454
451.10 1.453
451.20 1.451
451.30 1.45
451.40 1.449
451.50 1.448
451.60 1.447
451.70 1.446
451.80 1.445
451.90 1.444
452.00 1.443
452.10 1.441
452.20 1.44
452.30 1.439
452.40 1.438
452.50 1.437
452.60 1.436
452.70 1.435
452.80 1.434
452.90 1.432
453.00 1.431
453.10 1.43
453.20 1.429
453.30 1.428
453.40 1.427
453.50 1.426
453.60 1.425
453.70 1.424
453.80 1.423
453.90 1.421
454.00 1.42
454.10 1.419
