# Version 2.1 - nm, norm@500 to 1, cut digits, bergeron_10000_65.dat_10000
# Wavelength(nm)  Flambda(ergs/cm^s/s/nm)
300.00 1.244
300.10 1.244
300.20 1.243
300.30 1.242
300.40 1.242
300.50 1.241
300.60 1.241
300.70 1.24
300.80 1.24
300.90 1.239
301.00 1.238
301.10 1.238
301.20 1.237
301.30 1.237
301.40 1.236
301.50 1.236
301.60 1.235
301.70 1.234
301.80 1.234
301.90 1.233
302.00 1.233
302.10 1.232
302.20 1.232
302.30 1.231
302.40 1.231
302.50 1.23
302.60 1.229
302.70 1.229
302.80 1.228
302.90 1.228
303.00 1.227
303.10 1.227
303.20 1.226
303.30 1.225
303.40 1.225
303.50 1.224
303.60 1.224
303.70 1.223
303.80 1.223
303.90 1.222
304.00 1.222
304.10 1.221
304.20 1.22
304.30 1.22
304.40 1.219
304.50 1.219
304.60 1.218
304.70 1.218
304.80 1.217
304.90 1.216
305.00 1.216
305.10 1.215
305.20 1.215
305.30 1.214
305.40 1.214
305.50 1.213
305.60 1.213
305.70 1.212
305.80 1.211
305.90 1.211
306.00 1.21
306.10 1.21
306.20 1.209
306.30 1.209
306.40 1.208
306.50 1.208
306.60 1.207
306.70 1.206
306.80 1.206
306.90 1.205
307.00 1.205
307.10 1.204
307.20 1.204
307.30 1.203
307.40 1.203
307.50 1.202
307.60 1.202
307.70 1.201
307.80 1.2
307.90 1.2
308.00 1.199
308.10 1.199
308.20 1.198
308.30 1.198
308.40 1.197
308.50 1.197
308.60 1.196
308.70 1.195
308.80 1.195
308.90 1.194
309.00 1.194
309.10 1.193
309.20 1.193
309.30 1.192
309.40 1.192
309.50 1.191
309.60 1.191
309.70 1.19
309.80 1.189
309.90 1.189
310.00 1.188
310.10 1.188
310.20 1.187
310.30 1.187
310.40 1.186
310.50 1.186
310.60 1.185
310.70 1.185
310.80 1.184
310.90 1.183
311.00 1.183
311.10 1.182
311.20 1.182
311.30 1.181
311.40 1.181
311.50 1.18
311.60 1.18
311.70 1.179
311.80 1.179
311.90 1.178
312.00 1.177
312.10 1.177
312.20 1.176
312.30 1.176
312.40 1.175
312.50 1.175
312.60 1.174
312.70 1.174
312.80 1.173
312.90 1.173
313.00 1.172
313.10 1.172
313.20 1.171
313.30 1.17
313.40 1.17
313.50 1.169
313.60 1.169
313.70 1.168
313.80 1.168
313.90 1.167
314.00 1.167
314.10 1.166
314.20 1.166
314.30 1.165
314.40 1.165
314.50 1.164
314.60 1.164
314.70 1.163
314.80 1.162
314.90 1.162
315.00 1.161
315.10 1.161
315.20 1.16
315.30 1.16
315.40 1.159
315.50 1.159
315.60 1.158
315.70 1.158
315.80 1.157
315.90 1.157
316.00 1.156
316.10 1.156
316.20 1.155
316.30 1.155
316.40 1.154
316.50 1.153
316.60 1.153
316.70 1.152
316.80 1.152
316.90 1.151
317.00 1.151
317.10 1.15
317.20 1.15
317.30 1.149
317.40 1.149
317.50 1.148
317.60 1.148
317.70 1.147
317.80 1.147
317.90 1.146
318.00 1.146
318.10 1.145
318.20 1.145
318.30 1.144
318.40 1.143
318.50 1.143
318.60 1.142
318.70 1.142
318.80 1.141
318.90 1.141
319.00 1.14
319.10 1.14
319.20 1.139
319.30 1.139
319.40 1.138
319.50 1.138
319.60 1.137
319.70 1.137
319.80 1.136
319.90 1.136
320.00 1.135
320.10 1.135
320.20 1.134
320.30 1.134
320.40 1.133
320.50 1.133
320.60 1.132
320.70 1.132
320.80 1.131
320.90 1.13
321.00 1.13
321.10 1.129
321.20 1.129
321.30 1.128
321.40 1.128
321.50 1.127
321.60 1.127
321.70 1.126
321.80 1.126
321.90 1.125
322.00 1.125
322.10 1.124
322.20 1.124
322.30 1.123
322.40 1.123
322.50 1.122
322.60 1.122
322.70 1.121
322.80 1.121
322.90 1.12
323.00 1.12
323.10 1.119
323.20 1.119
323.30 1.118
323.40 1.118
323.50 1.117
323.60 1.117
323.70 1.116
323.80 1.116
323.90 1.115
324.00 1.115
324.10 1.114
324.20 1.114
324.30 1.113
324.40 1.113
324.50 1.112
324.60 1.112
324.70 1.111
324.80 1.111
324.90 1.11
325.00 1.11
325.10 1.109
325.20 1.109
325.30 1.108
325.40 1.108
325.50 1.107
325.60 1.106
325.70 1.106
325.80 1.105
325.90 1.105
326.00 1.104
326.10 1.104
326.20 1.103
326.30 1.103
326.40 1.102
326.50 1.102
326.60 1.101
326.70 1.101
326.80 1.1
326.90 1.1
327.00 1.099
327.10 1.099
327.20 1.098
327.30 1.098
327.40 1.097
327.50 1.097
327.60 1.096
327.70 1.096
327.80 1.095
327.90 1.095
328.00 1.095
328.10 1.094
328.20 1.094
328.30 1.093
328.40 1.093
328.50 1.092
328.60 1.092
328.70 1.091
328.80 1.091
328.90 1.09
329.00 1.09
329.10 1.089
329.20 1.089
329.30 1.088
329.40 1.088
329.50 1.087
329.60 1.087
329.70 1.086
329.80 1.086
329.90 1.085
330.00 1.085
330.10 1.084
330.20 1.084
330.30 1.083
330.40 1.083
330.50 1.082
330.60 1.082
330.70 1.081
330.80 1.081
330.90 1.08
331.00 1.08
331.10 1.079
331.20 1.079
331.30 1.078
331.40 1.078
331.50 1.077
331.60 1.077
331.70 1.076
331.80 1.076
331.90 1.075
332.00 1.075
332.10 1.074
332.20 1.074
332.30 1.073
332.40 1.073
332.50 1.072
332.60 1.072
332.70 1.071
332.80 1.071
332.90 1.07
333.00 1.07
333.10 1.069
333.20 1.069
333.30 1.068
333.40 1.068
333.50 1.068
333.60 1.067
333.70 1.067
333.80 1.066
333.90 1.066
334.00 1.065
334.10 1.065
334.20 1.064
334.30 1.064
334.40 1.063
334.50 1.063
334.60 1.062
334.70 1.062
334.80 1.061
334.90 1.061
335.00 1.06
335.10 1.06
335.20 1.059
335.30 1.059
335.40 1.058
335.50 1.058
335.60 1.057
335.70 1.057
335.80 1.056
335.90 1.056
336.00 1.056
336.10 1.055
336.20 1.055
336.30 1.054
336.40 1.054
336.50 1.053
336.60 1.053
336.70 1.052
336.80 1.052
336.90 1.051
337.00 1.051
337.10 1.05
337.20 1.05
337.30 1.049
337.40 1.049
337.50 1.048
337.60 1.048
337.70 1.047
337.80 1.047
337.90 1.047
338.00 1.046
338.10 1.046
338.20 1.045
338.30 1.045
338.40 1.044
338.50 1.044
338.60 1.043
338.70 1.043
338.80 1.042
338.90 1.042
339.00 1.041
339.10 1.041
339.20 1.04
339.30 1.04
339.40 1.039
339.50 1.039
339.60 1.039
339.70 1.038
339.80 1.038
339.90 1.037
340.00 1.037
340.10 1.036
340.20 1.036
340.30 1.035
340.40 1.035
340.50 1.034
340.60 1.034
340.70 1.033
340.80 1.033
340.90 1.032
341.00 1.032
341.10 1.032
341.20 1.031
341.30 1.031
341.40 1.03
341.50 1.03
341.60 1.029
341.70 1.029
341.80 1.028
341.90 1.028
342.00 1.027
342.10 1.027
342.20 1.026
342.30 1.026
342.40 1.026
342.50 1.025
342.60 1.025
342.70 1.024
342.80 1.024
342.90 1.023
343.00 1.023
343.10 1.022
343.20 1.022
343.30 1.021
343.40 1.021
343.50 1.02
343.60 1.02
343.70 1.02
343.80 1.019
343.90 1.019
344.00 1.018
344.10 1.018
344.20 1.017
344.30 1.017
344.40 1.016
344.50 1.016
344.60 1.015
344.70 1.015
344.80 1.015
344.90 1.014
345.00 1.014
345.10 1.013
345.20 1.013
345.30 1.012
345.40 1.012
345.50 1.011
345.60 1.011
345.70 1.01
345.80 1.01
345.90 1.01
346.00 1.009
346.10 1.009
346.20 1.008
346.30 1.008
346.40 1.007
346.50 1.007
346.60 1.006
346.70 1.006
346.80 1.005
346.90 1.005
347.00 1.005
347.10 1.004
347.20 1.004
347.30 1.003
347.40 1.003
347.50 1.002
347.60 1.002
347.70 1.001
347.80 1.001
347.90 1.001
348.00 1
348.10 0.9997
348.20 0.9992
348.30 0.9988
348.40 0.9983
348.50 0.9979
348.60 0.9974
348.70 0.997
348.80 0.9966
348.90 0.9961
349.00 0.9957
349.10 0.9952
349.20 0.9948
349.30 0.9943
349.40 0.9939
349.50 0.9935
349.60 0.993
349.70 0.9926
349.80 0.9921
349.90 0.9917
350.00 0.9912
350.10 0.9908
350.20 0.9904
350.30 0.9899
350.40 0.9895
350.50 0.989
350.60 0.9886
350.70 0.9881
350.80 0.9877
350.90 0.9873
351.00 0.9868
351.10 0.9864
351.20 0.9859
351.30 0.9855
351.40 0.9851
351.50 0.9846
351.60 0.9842
351.70 0.9837
351.80 0.9833
351.90 0.9829
352.00 0.9824
352.10 0.982
352.20 0.9816
352.30 0.9811
352.40 0.9807
352.50 0.9802
352.60 0.9798
352.70 0.9794
352.80 0.9789
352.90 0.9785
353.00 0.9781
353.10 0.9776
353.20 0.9772
353.30 0.9768
353.40 0.9763
353.50 0.9759
353.60 0.9755
353.70 0.975
353.80 0.9746
353.90 0.9742
354.00 0.9737
354.10 0.9733
354.20 0.9729
354.30 0.9724
354.40 0.972
354.50 0.9716
354.60 0.9711
354.70 0.9707
354.80 0.9703
354.90 0.9698
355.00 0.9694
355.10 0.969
355.20 0.9686
355.30 0.9681
355.40 0.9677
355.50 0.9673
355.60 0.9668
355.70 0.9664
355.80 0.966
355.90 0.9655
356.00 0.9651
356.10 0.9647
356.20 0.9643
356.30 0.9638
356.40 0.9634
356.50 0.963
356.60 0.9626
356.70 0.9621
356.80 0.9617
356.90 0.9613
357.00 0.9609
357.10 0.9604
357.20 0.96
357.30 0.9596
357.40 0.9592
357.50 0.9587
357.60 0.9583
357.70 0.9579
357.80 0.9575
357.90 0.957
358.00 0.9566
358.10 0.9562
358.20 0.9558
358.30 0.9554
358.40 0.9549
358.50 0.9545
358.60 0.9541
358.70 0.9537
358.80 0.9532
358.90 0.9528
359.00 0.9524
359.10 0.952
359.20 0.9515
359.30 0.9511
359.40 0.9507
359.50 0.9503
359.60 0.9499
359.70 0.9494
359.80 0.949
359.90 0.9486
360.00 0.9482
360.10 0.9478
360.20 0.9473
360.30 0.9469
360.40 0.9465
360.50 0.9461
360.60 0.9457
360.70 0.9453
360.80 0.9448
360.90 0.9444
361.00 0.944
361.10 0.9436
361.20 0.9432
361.30 0.9428
361.40 0.9424
361.50 0.9419
361.60 0.9415
361.70 0.9411
361.80 0.9407
361.90 0.9403
362.00 0.9399
362.10 0.9395
362.20 0.939
362.30 0.9386
362.40 0.9382
362.50 0.9378
362.60 0.9374
362.70 0.937
362.80 0.9366
362.90 0.9361
363.00 0.9357
363.10 0.9353
363.20 0.9349
363.30 0.9344
363.40 0.934
363.50 0.9336
363.60 0.9332
363.70 0.9327
363.80 0.9323
363.90 0.9319
364.00 0.9314
364.10 0.931
364.20 0.9306
364.30 0.9302
364.40 0.9297
364.50 0.9293
364.60 0.929
364.70 0.9287
364.80 0.9284
364.90 0.9282
365.00 0.9279
365.10 0.9276
365.20 0.9273
365.30 0.927
365.40 0.9267
365.50 0.9264
365.60 0.9261
365.70 0.9258
365.80 0.9255
365.90 0.9253
366.00 0.925
366.10 0.9248
366.20 0.9246
366.30 0.9244
366.40 0.9242
366.50 0.924
366.60 0.9238
366.70 0.9236
366.80 0.9234
366.90 0.9232
367.00 0.923
367.10 0.9228
367.20 0.9226
367.30 0.9224
367.40 0.9222
367.50 0.922
367.60 0.9218
367.70 0.9216
367.80 0.9214
367.90 0.9212
368.00 0.921
368.10 0.9228
368.20 0.9246
368.30 0.9264
368.40 0.9283
368.50 0.9301
368.60 0.9319
368.70 0.9337
368.80 0.9355
368.90 0.9373
369.00 0.9391
369.10 0.9409
369.20 0.9427
369.30 0.9445
369.40 0.9463
369.50 0.9481
369.60 0.9499
369.70 0.9516
369.80 0.9534
369.90 0.9552
370.00 0.957
370.10 0.9613
370.20 0.9656
370.30 0.9699
370.40 0.9742
370.50 0.9785
370.60 0.9828
370.70 0.987
370.80 0.9913
370.90 0.9956
371.00 0.9998
371.10 1.004
371.20 1.008
371.30 1.013
371.40 1.017
371.50 1.021
371.60 1.025
371.70 1.03
371.80 1.034
371.90 1.038
372.00 1.042
372.10 1.048
372.20 1.053
372.30 1.059
372.40 1.064
372.50 1.07
372.60 1.075
372.70 1.08
372.80 1.086
372.90 1.091
373.00 1.097
373.10 1.102
373.20 1.108
373.30 1.113
373.40 1.118
373.50 1.124
373.60 1.129
373.70 1.135
373.80 1.14
373.90 1.145
374.00 1.151
374.10 1.155
374.20 1.16
374.30 1.165
374.40 1.17
374.50 1.175
374.60 1.179
374.70 1.184
374.80 1.189
374.90 1.194
375.00 1.199
375.10 1.203
375.20 1.208
375.30 1.213
375.40 1.218
375.50 1.222
375.60 1.227
375.70 1.232
375.80 1.236
375.90 1.241
376.00 1.246
376.10 1.248
376.20 1.25
376.30 1.252
376.40 1.254
376.50 1.256
376.60 1.259
376.70 1.261
376.80 1.263
376.90 1.265
377.00 1.267
377.10 1.263
377.20 1.259
377.30 1.255
377.40 1.251
377.50 1.247
377.60 1.243
377.70 1.239
377.80 1.234
377.90 1.23
378.00 1.226
378.10 1.202
378.20 1.178
378.30 1.153
378.40 1.129
378.50 1.104
378.60 1.08
378.70 1.056
378.80 1.032
378.90 1.007
379.00 0.9832
379.10 0.9564
379.20 0.9297
379.30 0.9029
379.40 0.8763
379.50 0.8496
379.60 0.823
379.70 0.7964
379.80 0.7698
379.90 0.7433
380.00 0.7168
380.10 0.7564
380.20 0.796
380.30 0.8356
380.40 0.8751
380.50 0.9146
380.60 0.9541
380.70 0.9935
380.80 1.033
380.90 1.072
381.00 1.111
381.10 1.125
381.20 1.139
381.30 1.152
381.40 1.166
381.50 1.179
381.60 1.181
381.70 1.18
381.80 1.175
381.90 1.166
382.00 1.154
382.10 1.138
382.20 1.117
382.30 1.076
382.40 1.034
382.50 0.9933
382.60 0.9522
382.70 0.9112
382.80 0.8702
382.90 0.8292
383.00 0.7883
383.10 0.7474
383.20 0.7066
383.30 0.6532
383.40 0.5975
383.50 0.5359
383.60 0.5509
383.70 0.6096
383.80 0.665
383.90 0.718
384.00 0.7692
384.10 0.8195
384.20 0.8682
384.30 0.9153
384.40 0.9615
384.50 1.006
384.60 1.048
384.70 1.086
384.80 1.12
384.90 1.15
385.00 1.177
385.10 1.2
385.20 1.22
385.30 1.238
385.40 1.253
385.50 1.265
385.60 1.276
385.70 1.284
385.80 1.291
385.90 1.296
386.00 1.299
386.10 1.3
386.20 1.3
386.30 1.298
386.40 1.294
386.50 1.289
386.60 1.282
386.70 1.273
386.80 1.263
386.90 1.25
387.00 1.235
387.10 1.219
387.20 1.199
387.30 1.178
387.40 1.154
387.50 1.126
387.60 1.095
387.70 1.061
387.80 1.022
387.90 0.9807
388.00 0.9364
388.10 0.889
388.20 0.8409
388.30 0.7922
388.40 0.7427
388.50 0.6926
388.60 0.6418
388.70 0.5883
388.80 0.5266
388.90 0.457
389.00 0.5228
389.10 0.5825
389.20 0.6362
389.30 0.6869
389.40 0.7368
389.50 0.786
389.60 0.8347
389.70 0.8829
389.80 0.9306
389.90 0.9758
390.00 1.019
390.10 1.059
390.20 1.094
390.30 1.127
390.40 1.158
390.50 1.185
390.60 1.21
390.70 1.233
390.80 1.253
390.90 1.272
391.00 1.29
391.10 1.306
391.20 1.321
391.30 1.335
391.40 1.347
391.50 1.359
391.60 1.369
391.70 1.379
391.80 1.387
391.90 1.395
392.00 1.402
392.10 1.408
392.20 1.414
392.30 1.418
392.40 1.422
392.50 1.425
392.60 1.427
392.70 1.428
392.80 1.429
392.90 1.429
393.00 1.428
393.10 1.427
393.20 1.424
393.30 1.421
393.40 1.417
393.50 1.412
393.60 1.407
393.70 1.401
393.80 1.393
393.90 1.385
394.00 1.376
394.10 1.366
394.20 1.355
394.30 1.344
394.40 1.331
394.50 1.317
394.60 1.303
394.70 1.286
394.80 1.269
394.90 1.251
395.00 1.231
395.10 1.21
395.20 1.188
395.30 1.163
395.40 1.137
395.50 1.11
395.60 1.079
395.70 1.046
395.80 1.012
395.90 0.9731
396.00 0.933
396.10 0.8911
396.20 0.8467
396.30 0.8016
396.40 0.7557
396.50 0.7093
396.60 0.6624
396.70 0.6151
396.80 0.5638
396.90 0.4958
397.00 0.4112
397.10 0.4906
397.20 0.5561
397.30 0.6078
397.40 0.655
397.50 0.7016
397.60 0.7476
397.70 0.793
397.80 0.8377
397.90 0.8817
398.00 0.9232
398.10 0.963
398.20 1.001
398.30 1.035
398.40 1.068
398.50 1.099
398.60 1.126
398.70 1.152
398.80 1.177
398.90 1.199
399.00 1.221
399.10 1.241
399.20 1.259
399.30 1.277
399.40 1.294
399.50 1.309
399.60 1.324
399.70 1.338
399.80 1.351
399.90 1.364
400.00 1.376
400.10 1.387
400.20 1.397
400.30 1.407
400.40 1.417
400.50 1.425
400.60 1.434
400.70 1.442
400.80 1.449
400.90 1.456
401.00 1.462
401.10 1.468
401.20 1.474
401.30 1.479
401.40 1.484
401.50 1.489
401.60 1.493
401.70 1.497
401.80 1.501
401.90 1.504
402.00 1.507
402.10 1.51
402.20 1.512
402.30 1.514
402.40 1.516
402.50 1.518
402.60 1.52
402.70 1.521
402.80 1.522
402.90 1.522
403.00 1.523
403.10 1.523
403.20 1.523
403.30 1.523
403.40 1.523
403.50 1.523
403.60 1.522
403.70 1.521
403.80 1.52
403.90 1.518
404.00 1.517
404.10 1.515
404.20 1.513
404.30 1.511
404.40 1.508
404.50 1.506
404.60 1.503
404.70 1.499
404.80 1.496
404.90 1.492
405.00 1.488
405.10 1.484
405.20 1.48
405.30 1.475
405.40 1.47
405.50 1.465
405.60 1.459
405.70 1.453
405.80 1.447
405.90 1.44
406.00 1.433
406.10 1.426
406.20 1.418
406.30 1.41
406.40 1.401
406.50 1.392
406.60 1.383
406.70 1.373
406.80 1.362
406.90 1.351
407.00 1.339
407.10 1.327
407.20 1.314
407.30 1.3
407.40 1.286
407.50 1.271
407.60 1.255
407.70 1.238
407.80 1.221
407.90 1.202
408.00 1.183
408.10 1.162
408.20 1.141
408.30 1.118
408.40 1.095
408.50 1.069
408.60 1.043
408.70 1.016
408.80 0.987
408.90 0.9565
409.00 0.9249
409.10 0.8907
409.20 0.8553
409.30 0.8187
409.40 0.7802
409.50 0.7408
409.60 0.7007
409.70 0.6593
409.80 0.6172
409.90 0.5745
410.00 0.525
410.10 0.4668
410.20 0.3998
410.30 0.4856
410.40 0.5515
410.50 0.5975
410.60 0.6391
410.70 0.6802
410.80 0.7207
410.90 0.7597
411.00 0.7977
411.10 0.8349
411.20 0.8699
411.30 0.9035
411.40 0.9359
411.50 0.9657
411.60 0.9942
411.70 1.022
411.80 1.047
411.90 1.071
412.00 1.095
412.10 1.116
412.20 1.137
412.30 1.157
412.40 1.176
412.50 1.193
412.60 1.21
412.70 1.226
412.80 1.241
412.90 1.256
413.00 1.269
413.10 1.282
413.20 1.294
413.30 1.306
413.40 1.316
413.50 1.327
413.60 1.336
413.70 1.346
413.80 1.355
413.90 1.363
414.00 1.371
414.10 1.378
414.20 1.385
414.30 1.392
414.40 1.398
414.50 1.405
414.60 1.41
414.70 1.416
414.80 1.421
414.90 1.426
415.00 1.431
415.10 1.435
415.20 1.44
415.30 1.444
415.40 1.448
415.50 1.451
415.60 1.455
415.70 1.458
415.80 1.461
415.90 1.464
416.00 1.467
416.10 1.469
416.20 1.472
416.30 1.474
416.40 1.476
416.50 1.479
416.60 1.48
416.70 1.482
416.80 1.484
416.90 1.486
417.00 1.487
417.10 1.489
417.20 1.49
417.30 1.491
417.40 1.493
417.50 1.494
417.60 1.495
417.70 1.496
417.80 1.497
417.90 1.497
418.00 1.498
418.10 1.499
418.20 1.499
418.30 1.5
418.40 1.501
418.50 1.501
418.60 1.501
418.70 1.502
418.80 1.502
418.90 1.502
419.00 1.502
419.10 1.503
419.20 1.503
419.30 1.503
419.40 1.503
419.50 1.503
419.60 1.503
419.70 1.503
419.80 1.502
419.90 1.502
420.00 1.502
420.10 1.502
420.20 1.502
420.30 1.501
420.40 1.501
420.50 1.501
420.60 1.5
420.70 1.5
420.80 1.499
420.90 1.499
421.00 1.498
421.10 1.498
421.20 1.497
421.30 1.497
421.40 1.496
421.50 1.495
421.60 1.495
421.70 1.494
421.80 1.493
421.90 1.492
422.00 1.492
422.10 1.491
422.20 1.49
422.30 1.489
422.40 1.488
422.50 1.487
422.60 1.486
422.70 1.485
422.80 1.484
422.90 1.483
423.00 1.482
423.10 1.481
423.20 1.48
423.30 1.479
423.40 1.478
423.50 1.477
423.60 1.476
423.70 1.474
423.80 1.473
423.90 1.472
424.00 1.47
424.10 1.469
424.20 1.468
424.30 1.466
424.40 1.465
424.50 1.463
424.60 1.462
424.70 1.46
424.80 1.458
424.90 1.457
425.00 1.455
425.10 1.453
425.20 1.452
425.30 1.45
425.40 1.448
425.50 1.446
425.60 1.444
425.70 1.442
425.80 1.44
425.90 1.438
426.00 1.436
426.10 1.433
426.20 1.431
426.30 1.428
426.40 1.426
426.50 1.423
426.60 1.421
426.70 1.418
426.80 1.415
426.90 1.413
427.00 1.41
427.10 1.407
427.20 1.404
427.30 1.401
427.40 1.398
427.50 1.394
427.60 1.391
427.70 1.388
427.80 1.384
427.90 1.38
428.00 1.376
428.10 1.372
428.20 1.368
428.30 1.364
428.40 1.36
428.50 1.356
428.60 1.351
428.70 1.346
428.80 1.341
428.90 1.336
429.00 1.331
429.10 1.325
429.20 1.32
429.30 1.314
429.40 1.308
429.50 1.301
429.60 1.295
429.70 1.288
429.80 1.281
429.90 1.274
430.00 1.266
430.10 1.259
430.20 1.25
430.30 1.242
430.40 1.233
430.50 1.224
430.60 1.215
430.70 1.205
430.80 1.195
430.90 1.185
431.00 1.174
431.10 1.163
431.20 1.152
431.30 1.14
431.40 1.128
431.50 1.115
431.60 1.102
431.70 1.087
431.80 1.072
431.90 1.056
432.00 1.038
432.10 1.02
432.20 0.9992
432.30 0.9776
432.40 0.9547
432.50 0.9292
432.60 0.9027
432.70 0.875
432.80 0.8462
432.90 0.8175
433.00 0.7889
433.10 0.7608
433.20 0.7321
433.30 0.7027
433.40 0.6703
433.50 0.6369
433.60 0.6024
433.70 0.567
433.80 0.5286
433.90 0.4872
434.00 0.3824
434.10 0.3837
434.20 0.4907
434.30 0.5313
434.40 0.5691
434.50 0.604
434.60 0.6379
434.70 0.6707
434.80 0.7023
434.90 0.731
435.00 0.759
435.10 0.7863
435.20 0.8141
435.30 0.8419
435.40 0.8697
435.50 0.8962
435.60 0.9216
435.70 0.9457
435.80 0.9673
435.90 0.9876
436.00 1.007
436.10 1.024
436.20 1.04
436.30 1.055
436.40 1.069
436.50 1.082
436.60 1.094
436.70 1.105
436.80 1.116
436.90 1.127
437.00 1.136
437.10 1.146
437.20 1.155
437.30 1.164
437.40 1.172
437.50 1.181
437.60 1.188
437.70 1.196
437.80 1.203
437.90 1.21
438.00 1.216
438.10 1.223
438.20 1.229
438.30 1.234
438.40 1.24
438.50 1.245
438.60 1.25
438.70 1.254
438.80 1.259
438.90 1.263
439.00 1.267
439.10 1.271
439.20 1.275
439.30 1.278
439.40 1.281
439.50 1.285
439.60 1.288
439.70 1.29
439.80 1.293
439.90 1.296
440.00 1.298
440.10 1.301
440.20 1.303
440.30 1.305
440.40 1.307
440.50 1.309
440.60 1.311
440.70 1.312
440.80 1.314
440.90 1.316
441.00 1.317
441.10 1.318
441.20 1.32
441.30 1.321
441.40 1.322
441.50 1.323
441.60 1.324
441.70 1.325
441.80 1.326
441.90 1.327
442.00 1.328
442.10 1.328
442.20 1.329
442.30 1.33
442.40 1.33
442.50 1.331
442.60 1.331
442.70 1.332
442.80 1.332
442.90 1.333
443.00 1.333
443.10 1.333
443.20 1.334
443.30 1.334
443.40 1.334
443.50 1.334
443.60 1.334
443.70 1.335
443.80 1.335
443.90 1.335
444.00 1.335
444.10 1.335
444.20 1.335
444.30 1.335
444.40 1.335
444.50 1.335
444.60 1.335
444.70 1.334
444.80 1.334
444.90 1.334
445.00 1.334
445.10 1.334
445.20 1.334
445.30 1.333
445.40 1.333
445.50 1.333
445.60 1.333
445.70 1.332
445.80 1.332
445.90 1.332
446.00 1.332
446.10 1.331
446.20 1.331
446.30 1.331
446.40 1.33
446.50 1.33
446.60 1.33
446.70 1.329
446.80 1.329
446.90 1.328
447.00 1.328
447.10 1.328
447.20 1.327
447.30 1.327
447.40 1.326
447.50 1.326
447.60 1.325
447.70 1.325
447.80 1.324
447.90 1.324
448.00 1.323
448.10 1.323
448.20 1.322
448.30 1.322
448.40 1.321
448.50 1.321
448.60 1.32
448.70 1.32
448.80 1.319
448.90 1.319
449.00 1.318
449.10 1.318
449.20 1.317
449.30 1.317
449.40 1.316
449.50 1.316
449.60 1.315
449.70 1.315
449.80 1.314
449.90 1.314
450.00 1.313
450.10 1.312
450.20 1.312
450.30 1.311
450.40 1.311
450.50 1.31
450.60 1.31
450.70 1.309
450.80 1.308
450.90 1.308
451.00 1.307
451.10 1.307
451.20 1.306
