# Version 2.1 - nm, norm@500 to 1, cut digits, bergeron_9500_90.dat_9500
# Wavelength(nm)  Flambda(ergs/cm^s/s/nm)
300.00 1.796
300.10 1.795
300.20 1.795
300.30 1.794
300.40 1.794
300.50 1.794
300.60 1.793
300.70 1.793
300.80 1.792
300.90 1.792
301.00 1.791
301.10 1.791
301.20 1.79
301.30 1.79
301.40 1.789
301.50 1.789
301.60 1.788
301.70 1.788
301.80 1.787
301.90 1.787
302.00 1.786
302.10 1.786
302.20 1.785
302.30 1.785
302.40 1.784
302.50 1.784
302.60 1.783
302.70 1.783
302.80 1.782
302.90 1.782
303.00 1.781
303.10 1.781
303.20 1.78
303.30 1.78
303.40 1.779
303.50 1.779
303.60 1.778
303.70 1.778
303.80 1.777
303.90 1.777
304.00 1.776
304.10 1.776
304.20 1.775
304.30 1.775
304.40 1.774
304.50 1.774
304.60 1.773
304.70 1.773
304.80 1.772
304.90 1.772
305.00 1.771
305.10 1.771
305.20 1.77
305.30 1.77
305.40 1.769
305.50 1.769
305.60 1.768
305.70 1.768
305.80 1.767
305.90 1.767
306.00 1.766
306.10 1.766
306.20 1.765
306.30 1.765
306.40 1.764
306.50 1.764
306.60 1.763
306.70 1.763
306.80 1.762
306.90 1.762
307.00 1.761
307.10 1.761
307.20 1.76
307.30 1.76
307.40 1.759
307.50 1.759
307.60 1.758
307.70 1.758
307.80 1.757
307.90 1.757
308.00 1.756
308.10 1.756
308.20 1.755
308.30 1.755
308.40 1.754
308.50 1.754
308.60 1.753
308.70 1.753
308.80 1.752
308.90 1.751
309.00 1.751
309.10 1.75
309.20 1.75
309.30 1.749
309.40 1.749
309.50 1.748
309.60 1.748
309.70 1.747
309.80 1.747
309.90 1.746
310.00 1.746
310.10 1.745
310.20 1.745
310.30 1.744
310.40 1.744
310.50 1.743
310.60 1.743
310.70 1.742
310.80 1.742
310.90 1.741
311.00 1.741
311.10 1.74
311.20 1.74
311.30 1.739
311.40 1.739
311.50 1.738
311.60 1.738
311.70 1.737
311.80 1.737
311.90 1.736
312.00 1.736
312.10 1.735
312.20 1.734
312.30 1.734
312.40 1.733
312.50 1.733
312.60 1.732
312.70 1.732
312.80 1.731
312.90 1.731
313.00 1.73
313.10 1.73
313.20 1.729
313.30 1.729
313.40 1.728
313.50 1.728
313.60 1.727
313.70 1.727
313.80 1.726
313.90 1.726
314.00 1.725
314.10 1.725
314.20 1.724
314.30 1.723
314.40 1.723
314.50 1.722
314.60 1.722
314.70 1.721
314.80 1.721
314.90 1.72
315.00 1.72
315.10 1.719
315.20 1.719
315.30 1.718
315.40 1.718
315.50 1.717
315.60 1.717
315.70 1.716
315.80 1.716
315.90 1.715
316.00 1.715
316.10 1.714
316.20 1.713
316.30 1.713
316.40 1.712
316.50 1.712
316.60 1.711
316.70 1.711
316.80 1.71
316.90 1.71
317.00 1.709
317.10 1.709
317.20 1.708
317.30 1.708
317.40 1.707
317.50 1.707
317.60 1.706
317.70 1.705
317.80 1.705
317.90 1.704
318.00 1.704
318.10 1.703
318.20 1.703
318.30 1.702
318.40 1.702
318.50 1.701
318.60 1.701
318.70 1.7
318.80 1.7
318.90 1.699
319.00 1.698
319.10 1.698
319.20 1.697
319.30 1.697
319.40 1.696
319.50 1.696
319.60 1.695
319.70 1.695
319.80 1.694
319.90 1.694
320.00 1.693
320.10 1.693
320.20 1.692
320.30 1.692
320.40 1.691
320.50 1.69
320.60 1.69
320.70 1.689
320.80 1.689
320.90 1.688
321.00 1.688
321.10 1.687
321.20 1.687
321.30 1.686
321.40 1.686
321.50 1.685
321.60 1.685
321.70 1.684
321.80 1.683
321.90 1.683
322.00 1.682
322.10 1.682
322.20 1.681
322.30 1.681
322.40 1.68
322.50 1.68
322.60 1.679
322.70 1.679
322.80 1.678
322.90 1.677
323.00 1.677
323.10 1.676
323.20 1.676
323.30 1.675
323.40 1.675
323.50 1.674
323.60 1.674
323.70 1.673
323.80 1.673
323.90 1.672
324.00 1.672
324.10 1.671
324.20 1.67
324.30 1.67
324.40 1.669
324.50 1.669
324.60 1.668
324.70 1.668
324.80 1.667
324.90 1.667
325.00 1.666
325.10 1.666
325.20 1.665
325.30 1.664
325.40 1.664
325.50 1.663
325.60 1.663
325.70 1.662
325.80 1.662
325.90 1.661
326.00 1.661
326.10 1.66
326.20 1.66
326.30 1.659
326.40 1.658
326.50 1.658
326.60 1.657
326.70 1.657
326.80 1.656
326.90 1.656
327.00 1.655
327.10 1.655
327.20 1.654
327.30 1.653
327.40 1.653
327.50 1.652
327.60 1.652
327.70 1.651
327.80 1.651
327.90 1.65
328.00 1.65
328.10 1.649
328.20 1.649
328.30 1.648
328.40 1.647
328.50 1.647
328.60 1.646
328.70 1.646
328.80 1.645
328.90 1.645
329.00 1.644
329.10 1.644
329.20 1.643
329.30 1.643
329.40 1.642
329.50 1.641
329.60 1.641
329.70 1.64
329.80 1.64
329.90 1.639
330.00 1.639
330.10 1.638
330.20 1.638
330.30 1.637
330.40 1.637
330.50 1.636
330.60 1.635
330.70 1.635
330.80 1.634
330.90 1.634
331.00 1.633
331.10 1.633
331.20 1.632
331.30 1.632
331.40 1.631
331.50 1.63
331.60 1.63
331.70 1.629
331.80 1.629
331.90 1.628
332.00 1.628
332.10 1.627
332.20 1.627
332.30 1.626
332.40 1.625
332.50 1.625
332.60 1.624
332.70 1.624
332.80 1.623
332.90 1.623
333.00 1.622
333.10 1.622
333.20 1.621
333.30 1.62
333.40 1.62
333.50 1.619
333.60 1.619
333.70 1.618
333.80 1.618
333.90 1.617
334.00 1.617
334.10 1.616
334.20 1.615
334.30 1.615
334.40 1.614
334.50 1.614
334.60 1.613
334.70 1.613
334.80 1.612
334.90 1.612
335.00 1.611
335.10 1.61
335.20 1.61
335.30 1.609
335.40 1.609
335.50 1.608
335.60 1.608
335.70 1.607
335.80 1.607
335.90 1.606
336.00 1.606
336.10 1.605
336.20 1.604
336.30 1.604
336.40 1.603
336.50 1.603
336.60 1.602
336.70 1.602
336.80 1.601
336.90 1.601
337.00 1.6
337.10 1.599
337.20 1.599
337.30 1.598
337.40 1.598
337.50 1.597
337.60 1.597
337.70 1.596
337.80 1.596
337.90 1.595
338.00 1.594
338.10 1.594
338.20 1.593
338.30 1.593
338.40 1.592
338.50 1.592
338.60 1.591
338.70 1.59
338.80 1.59
338.90 1.589
339.00 1.589
339.10 1.588
339.20 1.588
339.30 1.587
339.40 1.587
339.50 1.586
339.60 1.585
339.70 1.585
339.80 1.584
339.90 1.584
340.00 1.583
340.10 1.583
340.20 1.582
340.30 1.582
340.40 1.581
340.50 1.58
340.60 1.58
340.70 1.579
340.80 1.579
340.90 1.578
341.00 1.578
341.10 1.577
341.20 1.577
341.30 1.576
341.40 1.575
341.50 1.575
341.60 1.574
341.70 1.574
341.80 1.573
341.90 1.573
342.00 1.572
342.10 1.572
342.20 1.571
342.30 1.57
342.40 1.57
342.50 1.569
342.60 1.569
342.70 1.568
342.80 1.568
342.90 1.567
343.00 1.567
343.10 1.566
343.20 1.565
343.30 1.565
343.40 1.564
343.50 1.564
343.60 1.563
343.70 1.563
343.80 1.562
343.90 1.562
344.00 1.561
344.10 1.56
344.20 1.56
344.30 1.559
344.40 1.559
344.50 1.558
344.60 1.558
344.70 1.557
344.80 1.556
344.90 1.556
345.00 1.555
345.10 1.555
345.20 1.554
345.30 1.554
345.40 1.553
345.50 1.553
345.60 1.552
345.70 1.551
345.80 1.551
345.90 1.55
346.00 1.55
346.10 1.549
346.20 1.549
346.30 1.548
346.40 1.548
346.50 1.547
346.60 1.546
346.70 1.546
346.80 1.545
346.90 1.545
347.00 1.544
347.10 1.544
347.20 1.543
347.30 1.543
347.40 1.542
347.50 1.541
347.60 1.541
347.70 1.54
347.80 1.54
347.90 1.539
348.00 1.539
348.10 1.538
348.20 1.538
348.30 1.537
348.40 1.536
348.50 1.536
348.60 1.535
348.70 1.535
348.80 1.534
348.90 1.534
349.00 1.533
349.10 1.532
349.20 1.532
349.30 1.531
349.40 1.531
349.50 1.53
349.60 1.53
349.70 1.529
349.80 1.529
349.90 1.528
350.00 1.527
350.10 1.527
350.20 1.526
350.30 1.526
350.40 1.525
350.50 1.525
350.60 1.524
350.70 1.524
350.80 1.523
350.90 1.522
351.00 1.522
351.10 1.521
351.20 1.521
351.30 1.52
351.40 1.52
351.50 1.519
351.60 1.519
351.70 1.518
351.80 1.517
351.90 1.517
352.00 1.516
352.10 1.516
352.20 1.515
352.30 1.515
352.40 1.514
352.50 1.513
352.60 1.513
352.70 1.512
352.80 1.512
352.90 1.511
353.00 1.511
353.10 1.51
353.20 1.51
353.30 1.509
353.40 1.508
353.50 1.508
353.60 1.507
353.70 1.507
353.80 1.506
353.90 1.506
354.00 1.505
354.10 1.505
354.20 1.504
354.30 1.503
354.40 1.503
354.50 1.502
354.60 1.502
354.70 1.501
354.80 1.501
354.90 1.5
355.00 1.5
355.10 1.499
355.20 1.498
355.30 1.498
355.40 1.497
355.50 1.497
355.60 1.496
355.70 1.496
355.80 1.495
355.90 1.495
356.00 1.494
356.10 1.493
356.20 1.493
356.30 1.492
356.40 1.492
356.50 1.491
356.60 1.491
356.70 1.49
356.80 1.49
356.90 1.489
357.00 1.488
357.10 1.488
357.20 1.487
357.30 1.487
357.40 1.486
357.50 1.486
357.60 1.485
357.70 1.485
357.80 1.484
357.90 1.483
358.00 1.483
358.10 1.482
358.20 1.482
358.30 1.481
358.40 1.481
358.50 1.48
358.60 1.48
358.70 1.479
358.80 1.478
358.90 1.478
359.00 1.477
359.10 1.477
359.20 1.476
359.30 1.476
359.40 1.475
359.50 1.475
359.60 1.474
359.70 1.473
359.80 1.473
359.90 1.472
360.00 1.472
360.10 1.471
360.20 1.471
360.30 1.47
360.40 1.47
360.50 1.469
360.60 1.468
360.70 1.468
360.80 1.467
360.90 1.467
361.00 1.466
361.10 1.466
361.20 1.465
361.30 1.465
361.40 1.464
361.50 1.463
361.60 1.463
361.70 1.462
361.80 1.462
361.90 1.461
362.00 1.461
362.10 1.46
362.20 1.46
362.30 1.459
362.40 1.458
362.50 1.458
362.60 1.457
362.70 1.457
362.80 1.456
362.90 1.456
363.00 1.455
363.10 1.455
363.20 1.454
363.30 1.453
363.40 1.453
363.50 1.452
363.60 1.451
363.70 1.451
363.80 1.45
363.90 1.45
364.00 1.449
364.10 1.448
364.20 1.448
364.30 1.447
364.40 1.446
364.50 1.446
364.60 1.445
364.70 1.445
364.80 1.444
364.90 1.443
365.00 1.443
365.10 1.442
365.20 1.441
365.30 1.441
365.40 1.44
365.50 1.439
365.60 1.439
365.70 1.438
365.80 1.438
365.90 1.437
366.00 1.436
366.10 1.436
366.20 1.435
366.30 1.435
366.40 1.434
366.50 1.433
366.60 1.433
366.70 1.432
366.80 1.432
366.90 1.431
367.00 1.431
367.10 1.43
367.20 1.429
367.30 1.429
367.40 1.428
367.50 1.428
367.60 1.427
367.70 1.427
367.80 1.426
367.90 1.425
368.00 1.425
368.10 1.424
368.20 1.424
368.30 1.423
368.40 1.423
368.50 1.422
368.60 1.422
368.70 1.421
368.80 1.42
368.90 1.42
369.00 1.419
369.10 1.419
369.20 1.418
369.30 1.418
369.40 1.417
369.50 1.417
369.60 1.416
369.70 1.415
369.80 1.415
369.90 1.414
370.00 1.414
370.10 1.413
370.20 1.413
370.30 1.412
370.40 1.412
370.50 1.412
370.60 1.411
370.70 1.411
370.80 1.41
370.90 1.41
371.00 1.409
371.10 1.409
371.20 1.408
371.30 1.408
371.40 1.407
371.50 1.407
371.60 1.406
371.70 1.406
371.80 1.406
371.90 1.405
372.00 1.405
372.10 1.404
372.20 1.404
372.30 1.404
372.40 1.404
372.50 1.403
372.60 1.403
372.70 1.403
372.80 1.402
372.90 1.402
373.00 1.402
373.10 1.402
373.20 1.401
373.30 1.401
373.40 1.401
373.50 1.4
373.60 1.4
373.70 1.4
373.80 1.4
373.90 1.399
374.00 1.399
374.10 1.399
374.20 1.399
374.30 1.399
374.40 1.399
374.50 1.398
374.60 1.398
374.70 1.398
374.80 1.398
374.90 1.398
375.00 1.398
375.10 1.398
375.20 1.397
375.30 1.397
375.40 1.397
375.50 1.397
375.60 1.397
375.70 1.397
375.80 1.397
375.90 1.396
376.00 1.396
376.10 1.396
376.20 1.396
376.30 1.396
376.40 1.396
376.50 1.395
376.60 1.395
376.70 1.395
376.80 1.395
376.90 1.395
377.00 1.395
377.10 1.394
377.20 1.394
377.30 1.393
377.40 1.392
377.50 1.392
377.60 1.391
377.70 1.391
377.80 1.39
377.90 1.39
378.00 1.389
378.10 1.388
378.20 1.386
378.30 1.384
378.40 1.382
378.50 1.38
378.60 1.378
378.70 1.376
378.80 1.374
378.90 1.372
379.00 1.37
379.10 1.368
379.20 1.366
379.30 1.364
379.40 1.362
379.50 1.36
379.60 1.358
379.70 1.356
379.80 1.354
379.90 1.352
380.00 1.35
380.10 1.353
380.20 1.356
380.30 1.358
380.40 1.361
380.50 1.363
380.60 1.366
380.70 1.369
380.80 1.371
380.90 1.374
381.00 1.376
381.10 1.377
381.20 1.377
381.30 1.378
381.40 1.379
381.50 1.379
381.60 1.379
381.70 1.378
381.80 1.377
381.90 1.376
382.00 1.375
382.10 1.373
382.20 1.37
382.30 1.365
382.40 1.359
382.50 1.353
382.60 1.347
382.70 1.342
382.80 1.336
382.90 1.33
383.00 1.325
383.10 1.319
383.20 1.313
383.30 1.306
383.40 1.298
383.50 1.291
383.60 1.292
383.70 1.3
383.80 1.308
383.90 1.315
384.00 1.323
384.10 1.331
384.20 1.338
384.30 1.346
384.40 1.352
384.50 1.358
384.60 1.362
384.70 1.366
384.80 1.37
384.90 1.373
385.00 1.375
385.10 1.377
385.20 1.378
385.30 1.38
385.40 1.38
385.50 1.381
385.60 1.382
385.70 1.382
385.80 1.382
385.90 1.382
386.00 1.381
386.10 1.38
386.20 1.38
386.30 1.379
386.40 1.377
386.50 1.376
386.60 1.374
386.70 1.372
386.80 1.37
386.90 1.368
387.00 1.365
387.10 1.362
387.20 1.359
387.30 1.355
387.40 1.351
387.50 1.346
387.60 1.341
387.70 1.335
387.80 1.328
387.90 1.319
388.00 1.31
388.10 1.298
388.20 1.285
388.30 1.27
388.40 1.252
388.50 1.235
388.60 1.216
388.70 1.199
388.80 1.185
388.90 1.172
389.00 1.184
389.10 1.198
389.20 1.215
389.30 1.233
389.40 1.251
389.50 1.269
389.60 1.284
389.70 1.298
389.80 1.31
389.90 1.32
390.00 1.328
390.10 1.336
390.20 1.342
390.30 1.347
390.40 1.352
390.50 1.357
390.60 1.361
390.70 1.364
390.80 1.367
390.90 1.37
391.00 1.373
391.10 1.375
391.20 1.378
391.30 1.38
391.40 1.381
391.50 1.383
391.60 1.384
391.70 1.385
391.80 1.386
391.90 1.387
392.00 1.387
392.10 1.388
392.20 1.388
392.30 1.388
392.40 1.388
392.50 1.388
392.60 1.387
392.70 1.387
392.80 1.386
392.90 1.385
393.00 1.384
393.10 1.383
393.20 1.381
393.30 1.379
393.40 1.378
393.50 1.375
393.60 1.373
393.70 1.371
393.80 1.368
393.90 1.365
394.00 1.362
394.10 1.359
394.20 1.355
394.30 1.352
394.40 1.347
394.50 1.343
394.60 1.338
394.70 1.333
394.80 1.328
394.90 1.322
395.00 1.316
395.10 1.31
395.20 1.303
395.30 1.295
395.40 1.287
395.50 1.279
395.60 1.27
395.70 1.26
395.80 1.249
395.90 1.236
396.00 1.222
396.10 1.207
396.20 1.189
396.30 1.167
396.40 1.143
396.50 1.111
396.60 1.076
396.70 1.037
396.80 1.001
396.90 0.9646
397.00 0.9297
397.10 0.9613
397.20 0.9952
397.30 1.031
397.40 1.07
397.50 1.105
397.60 1.137
397.70 1.162
397.80 1.184
397.90 1.203
398.00 1.218
398.10 1.232
398.20 1.244
398.30 1.255
398.40 1.265
398.50 1.274
398.60 1.283
398.70 1.29
398.80 1.298
398.90 1.305
399.00 1.311
399.10 1.317
399.20 1.323
399.30 1.328
399.40 1.333
399.50 1.338
399.60 1.343
399.70 1.347
399.80 1.351
399.90 1.354
400.00 1.358
400.10 1.361
400.20 1.364
400.30 1.367
400.40 1.37
400.50 1.373
400.60 1.375
400.70 1.377
400.80 1.379
400.90 1.381
401.00 1.383
401.10 1.385
401.20 1.387
401.30 1.388
401.40 1.389
401.50 1.391
401.60 1.392
401.70 1.393
401.80 1.394
401.90 1.394
402.00 1.395
402.10 1.396
402.20 1.396
402.30 1.397
402.40 1.397
402.50 1.397
402.60 1.397
402.70 1.397
402.80 1.397
402.90 1.397
403.00 1.397
403.10 1.397
403.20 1.396
403.30 1.396
403.40 1.395
403.50 1.394
403.60 1.394
403.70 1.393
403.80 1.392
403.90 1.391
404.00 1.39
404.10 1.389
404.20 1.387
404.30 1.386
404.40 1.384
404.50 1.383
404.60 1.381
404.70 1.379
404.80 1.377
404.90 1.375
405.00 1.373
405.10 1.371
405.20 1.369
405.30 1.366
405.40 1.363
405.50 1.361
405.60 1.358
405.70 1.355
405.80 1.352
405.90 1.348
406.00 1.345
406.10 1.341
406.20 1.337
406.30 1.333
406.40 1.329
406.50 1.324
406.60 1.32
406.70 1.315
406.80 1.31
406.90 1.304
407.00 1.299
407.10 1.293
407.20 1.287
407.30 1.28
407.40 1.273
407.50 1.266
407.60 1.258
407.70 1.25
407.80 1.242
407.90 1.233
408.00 1.224
408.10 1.214
408.20 1.204
408.30 1.193
408.40 1.181
408.50 1.168
408.60 1.155
408.70 1.142
408.80 1.126
408.90 1.11
409.00 1.094
409.10 1.075
409.20 1.054
409.30 1.032
409.40 1.006
409.50 0.9764
409.60 0.9432
409.70 0.8994
409.80 0.8497
409.90 0.7941
410.00 0.739
410.10 0.6977
410.20 0.6703
410.30 0.7166
410.40 0.768
410.50 0.8244
410.60 0.8758
410.70 0.921
410.80 0.96
410.90 0.9898
411.00 1.016
411.10 1.04
411.20 1.06
411.30 1.079
411.40 1.096
411.50 1.112
411.60 1.127
411.70 1.14
411.80 1.153
411.90 1.165
412.00 1.176
412.10 1.187
412.20 1.197
412.30 1.206
412.40 1.215
412.50 1.223
412.60 1.231
412.70 1.238
412.80 1.245
412.90 1.252
413.00 1.258
413.10 1.264
413.20 1.27
413.30 1.275
413.40 1.28
413.50 1.285
413.60 1.29
413.70 1.294
413.80 1.298
413.90 1.302
414.00 1.306
414.10 1.309
414.20 1.313
414.30 1.316
414.40 1.319
414.50 1.322
414.60 1.325
414.70 1.327
414.80 1.33
414.90 1.332
415.00 1.335
415.10 1.337
415.20 1.339
415.30 1.341
415.40 1.343
415.50 1.344
415.60 1.346
415.70 1.348
415.80 1.349
415.90 1.351
416.00 1.352
416.10 1.353
416.20 1.355
416.30 1.356
416.40 1.357
416.50 1.358
416.60 1.359
416.70 1.36
416.80 1.361
416.90 1.361
417.00 1.362
417.10 1.363
417.20 1.364
417.30 1.364
417.40 1.365
417.50 1.365
417.60 1.366
417.70 1.366
417.80 1.367
417.90 1.367
418.00 1.367
418.10 1.368
418.20 1.368
418.30 1.368
418.40 1.368
418.50 1.369
418.60 1.369
418.70 1.369
418.80 1.369
418.90 1.369
419.00 1.369
419.10 1.369
419.20 1.369
419.30 1.369
419.40 1.369
419.50 1.369
419.60 1.369
419.70 1.369
419.80 1.369
419.90 1.368
420.00 1.368
420.10 1.368
420.20 1.368
420.30 1.368
420.40 1.367
420.50 1.367
420.60 1.367
420.70 1.366
420.80 1.366
420.90 1.366
421.00 1.365
421.10 1.365
421.20 1.365
421.30 1.364
421.40 1.364
421.50 1.363
421.60 1.363
421.70 1.362
421.80 1.362
421.90 1.361
422.00 1.361
422.10 1.36
422.20 1.36
422.30 1.359
422.40 1.358
422.50 1.358
422.60 1.357
422.70 1.357
422.80 1.356
422.90 1.355
423.00 1.354
423.10 1.354
423.20 1.353
423.30 1.352
423.40 1.351
423.50 1.351
423.60 1.35
423.70 1.349
423.80 1.348
423.90 1.347
424.00 1.346
424.10 1.345
424.20 1.344
424.30 1.343
424.40 1.342
424.50 1.341
424.60 1.34
424.70 1.339
424.80 1.338
424.90 1.337
425.00 1.336
425.10 1.335
425.20 1.334
425.30 1.332
425.40 1.331
425.50 1.33
425.60 1.328
425.70 1.327
425.80 1.326
425.90 1.324
426.00 1.323
426.10 1.322
426.20 1.32
426.30 1.318
426.40 1.317
426.50 1.315
426.60 1.313
426.70 1.312
426.80 1.31
426.90 1.308
427.00 1.306
427.10 1.304
427.20 1.302
427.30 1.3
427.40 1.298
427.50 1.296
427.60 1.294
427.70 1.292
427.80 1.29
427.90 1.287
428.00 1.285
428.10 1.283
428.20 1.28
428.30 1.277
428.40 1.275
428.50 1.272
428.60 1.269
428.70 1.266
428.80 1.263
428.90 1.26
429.00 1.257
429.10 1.253
429.20 1.25
429.30 1.246
429.40 1.242
429.50 1.239
429.60 1.235
429.70 1.23
429.80 1.226
429.90 1.222
430.00 1.217
430.10 1.212
430.20 1.207
430.30 1.202
430.40 1.197
430.50 1.191
430.60 1.185
430.70 1.179
430.80 1.173
430.90 1.166
431.00 1.159
431.10 1.152
431.20 1.145
431.30 1.137
431.40 1.128
431.50 1.12
431.60 1.111
431.70 1.101
431.80 1.091
431.90 1.081
432.00 1.069
432.10 1.058
432.20 1.045
432.30 1.031
432.40 1.017
432.50 1.001
432.60 0.9838
432.70 0.9657
432.80 0.9454
432.90 0.924
433.00 0.9015
433.10 0.877
433.20 0.8511
433.30 0.8239
433.40 0.792
433.50 0.756
433.60 0.716
433.70 0.6624
433.80 0.6063
433.90 0.5476
434.00 0.4975
434.10 0.4989
434.20 0.5517
434.30 0.6104
434.40 0.6659
434.50 0.7183
434.60 0.7573
434.70 0.7922
434.80 0.8232
434.90 0.8496
435.00 0.8747
435.10 0.8984
435.20 0.92
435.30 0.9405
435.40 0.9599
435.50 0.977
435.60 0.9931
435.70 1.008
435.80 1.021
435.90 1.034
436.00 1.046
436.10 1.057
436.20 1.067
436.30 1.077
436.40 1.086
436.50 1.094
436.60 1.102
436.70 1.11
436.80 1.117
436.90 1.124
437.00 1.13
437.10 1.136
437.20 1.142
437.30 1.148
437.40 1.153
437.50 1.158
437.60 1.163
437.70 1.167
437.80 1.172
437.90 1.176
438.00 1.18
438.10 1.184
438.20 1.187
438.30 1.191
438.40 1.194
438.50 1.197
438.60 1.2
438.70 1.203
438.80 1.205
438.90 1.208
439.00 1.21
439.10 1.213
439.20 1.215
439.30 1.217
439.40 1.219
439.50 1.221
439.60 1.223
439.70 1.224
439.80 1.226
439.90 1.228
440.00 1.229
440.10 1.23
440.20 1.232
440.30 1.233
440.40 1.234
440.50 1.235
440.60 1.237
440.70 1.238
440.80 1.239
440.90 1.24
441.00 1.24
441.10 1.241
441.20 1.242
441.30 1.243
441.40 1.244
441.50 1.244
441.60 1.245
441.70 1.246
441.80 1.246
441.90 1.247
442.00 1.247
442.10 1.248
442.20 1.248
442.30 1.249
442.40 1.249
442.50 1.249
442.60 1.25
442.70 1.25
442.80 1.25
442.90 1.25
443.00 1.251
443.10 1.251
443.20 1.251
443.30 1.251
443.40 1.251
443.50 1.252
443.60 1.252
443.70 1.252
443.80 1.252
443.90 1.252
444.00 1.252
444.10 1.252
444.20 1.252
444.30 1.252
444.40 1.252
444.50 1.252
444.60 1.252
444.70 1.252
444.80 1.252
444.90 1.252
445.00 1.252
445.10 1.252
445.20 1.251
445.30 1.251
445.40 1.251
445.50 1.251
445.60 1.251
445.70 1.251
445.80 1.251
445.90 1.25
446.00 1.25
446.10 1.25
446.20 1.25
446.30 1.25
446.40 1.249
446.50 1.249
446.60 1.249
446.70 1.249
446.80 1.248
446.90 1.248
447.00 1.248
447.10 1.248
447.20 1.247
447.30 1.247
447.40 1.247
447.50 1.246
447.60 1.246
447.70 1.246
447.80 1.246
447.90 1.245
448.00 1.245
448.10 1.245
448.20 1.244
448.30 1.244
448.40 1.244
448.50 1.243
448.60 1.243
448.70 1.243
448.80 1.242
448.90 1.242
449.00 1.241
449.10 1.241
449.20 1.241
449.30 1.24
449.40 1.24
449.50 1.24
449.60 1.239
449.70 1.239
449.80 1.238
449.90 1.238
450.00 1.238
450.10 1.237
450.20 1.237
450.30 1.237
450.40 1.236
450.50 1.236
450.60 1.235
450.70 1.235
450.80 1.234
450.90 1.234
451.00 1.234
451.10 1.233
451.20 1.233
451.30 1.232
451.40 1.232
451.50 1.232
451.60 1.231
451.70 1.231
451.80 1.23
451.90 1.23
452.00 1.229
452.10 1.229
452.20 1.228
452.30 1.228
452.40 1.228
452.50 1.227
452.60 1.227
452.70 1.226
452.80 1.226
452.90 1.225
453.00 1.225
453.10 1.224
453.20 1.224
453.30 1.224
453.40 1.223
453.50 1.223
453.60 1.222
453.70 1.222
453.80 1.221
