# Version 2.1 - nm, norm@500 to 1, cut digits, bergeron_60000_65.dat_60000
# Wavelength(nm)  Flambda(ergs/cm^s/s/nm)
300.00 6.384
300.10 6.377
300.20 6.369
300.30 6.361
300.40 6.353
300.50 6.346
300.60 6.338
300.70 6.33
300.80 6.323
300.90 6.315
301.00 6.307
301.10 6.3
301.20 6.292
301.30 6.284
301.40 6.277
301.50 6.269
301.60 6.261
301.70 6.254
301.80 6.246
301.90 6.239
302.00 6.231
302.10 6.223
302.20 6.216
302.30 6.208
302.40 6.201
302.50 6.193
302.60 6.186
302.70 6.178
302.80 6.171
302.90 6.163
303.00 6.156
303.10 6.149
303.20 6.141
303.30 6.134
303.40 6.126
303.50 6.119
303.60 6.112
303.70 6.104
303.80 6.097
303.90 6.089
304.00 6.082
304.10 6.075
304.20 6.068
304.30 6.06
304.40 6.053
304.50 6.046
304.60 6.038
304.70 6.031
304.80 6.024
304.90 6.017
305.00 6.009
305.10 6.002
305.20 5.995
305.30 5.988
305.40 5.981
305.50 5.973
305.60 5.966
305.70 5.959
305.80 5.952
305.90 5.945
306.00 5.938
306.10 5.931
306.20 5.924
306.30 5.916
306.40 5.909
306.50 5.902
306.60 5.895
306.70 5.888
306.80 5.881
306.90 5.874
307.00 5.867
307.10 5.86
307.20 5.853
307.30 5.846
307.40 5.839
307.50 5.832
307.60 5.825
307.70 5.818
307.80 5.811
307.90 5.805
308.00 5.798
308.10 5.791
308.20 5.784
308.30 5.777
308.40 5.77
308.50 5.763
308.60 5.756
308.70 5.75
308.80 5.743
308.90 5.736
309.00 5.729
309.10 5.722
309.20 5.715
309.30 5.709
309.40 5.702
309.50 5.695
309.60 5.688
309.70 5.682
309.80 5.675
309.90 5.668
310.00 5.662
310.10 5.655
310.20 5.648
310.30 5.642
310.40 5.635
310.50 5.628
310.60 5.622
310.70 5.615
310.80 5.608
310.90 5.602
311.00 5.595
311.10 5.588
311.20 5.582
311.30 5.575
311.40 5.569
311.50 5.562
311.60 5.556
311.70 5.549
311.80 5.543
311.90 5.536
312.00 5.53
312.10 5.523
312.20 5.517
312.30 5.51
312.40 5.504
312.50 5.497
312.60 5.491
312.70 5.484
312.80 5.478
312.90 5.471
313.00 5.465
313.10 5.458
313.20 5.452
313.30 5.446
313.40 5.439
313.50 5.433
313.60 5.427
313.70 5.42
313.80 5.414
313.90 5.408
314.00 5.401
314.10 5.395
314.20 5.389
314.30 5.382
314.40 5.376
314.50 5.37
314.60 5.364
314.70 5.357
314.80 5.351
314.90 5.345
315.00 5.339
315.10 5.332
315.20 5.326
315.30 5.32
315.40 5.314
315.50 5.308
315.60 5.301
315.70 5.295
315.80 5.289
315.90 5.283
316.00 5.277
316.10 5.271
316.20 5.265
316.30 5.258
316.40 5.252
316.50 5.246
316.60 5.24
316.70 5.234
316.80 5.228
316.90 5.222
317.00 5.216
317.10 5.21
317.20 5.204
317.30 5.198
317.40 5.192
317.50 5.186
317.60 5.18
317.70 5.174
317.80 5.168
317.90 5.162
318.00 5.156
318.10 5.15
318.20 5.144
318.30 5.138
318.40 5.132
318.50 5.126
318.60 5.12
318.70 5.114
318.80 5.108
318.90 5.103
319.00 5.097
319.10 5.091
319.20 5.085
319.30 5.079
319.40 5.073
319.50 5.067
319.60 5.062
319.70 5.056
319.80 5.05
319.90 5.044
320.00 5.038
320.10 5.033
320.20 5.027
320.30 5.021
320.40 5.015
320.50 5.009
320.60 5.004
320.70 4.998
320.80 4.992
320.90 4.987
321.00 4.981
321.10 4.975
321.20 4.969
321.30 4.964
321.40 4.958
321.50 4.952
321.60 4.947
321.70 4.941
321.80 4.935
321.90 4.93
322.00 4.924
322.10 4.919
322.20 4.913
322.30 4.907
322.40 4.902
322.50 4.896
322.60 4.891
322.70 4.885
322.80 4.879
322.90 4.874
323.00 4.868
323.10 4.863
323.20 4.857
323.30 4.852
323.40 4.846
323.50 4.841
323.60 4.835
323.70 4.83
323.80 4.824
323.90 4.819
324.00 4.813
324.10 4.808
324.20 4.802
324.30 4.797
324.40 4.791
324.50 4.786
324.60 4.781
324.70 4.775
324.80 4.77
324.90 4.764
325.00 4.759
325.10 4.754
325.20 4.748
325.30 4.743
325.40 4.737
325.50 4.732
325.60 4.727
325.70 4.721
325.80 4.716
325.90 4.711
326.00 4.705
326.10 4.7
326.20 4.695
326.30 4.69
326.40 4.684
326.50 4.679
326.60 4.674
326.70 4.668
326.80 4.663
326.90 4.658
327.00 4.653
327.10 4.647
327.20 4.642
327.30 4.637
327.40 4.632
327.50 4.627
327.60 4.621
327.70 4.616
327.80 4.611
327.90 4.606
328.00 4.601
328.10 4.595
328.20 4.59
328.30 4.585
328.40 4.58
328.50 4.575
328.60 4.57
328.70 4.565
328.80 4.56
328.90 4.554
329.00 4.549
329.10 4.544
329.20 4.539
329.30 4.534
329.40 4.529
329.50 4.524
329.60 4.519
329.70 4.514
329.80 4.509
329.90 4.504
330.00 4.499
330.10 4.494
330.20 4.489
330.30 4.484
330.40 4.479
330.50 4.474
330.60 4.469
330.70 4.464
330.80 4.459
330.90 4.454
331.00 4.449
331.10 4.444
331.20 4.439
331.30 4.434
331.40 4.429
331.50 4.424
331.60 4.419
331.70 4.414
331.80 4.409
331.90 4.405
332.00 4.4
332.10 4.395
332.20 4.39
332.30 4.385
332.40 4.38
332.50 4.375
332.60 4.371
332.70 4.366
332.80 4.361
332.90 4.356
333.00 4.351
333.10 4.346
333.20 4.342
333.30 4.337
333.40 4.332
333.50 4.327
333.60 4.322
333.70 4.318
333.80 4.313
333.90 4.308
334.00 4.303
334.10 4.299
334.20 4.294
334.30 4.289
334.40 4.284
334.50 4.28
334.60 4.275
334.70 4.27
334.80 4.266
334.90 4.261
335.00 4.256
335.10 4.251
335.20 4.247
335.30 4.242
335.40 4.237
335.50 4.233
335.60 4.228
335.70 4.223
335.80 4.219
335.90 4.214
336.00 4.21
336.10 4.205
336.20 4.2
336.30 4.196
336.40 4.191
336.50 4.187
336.60 4.182
336.70 4.177
336.80 4.173
336.90 4.168
337.00 4.164
337.10 4.159
337.20 4.155
337.30 4.15
337.40 4.146
337.50 4.141
337.60 4.136
337.70 4.132
337.80 4.127
337.90 4.123
338.00 4.118
338.10 4.114
338.20 4.109
338.30 4.105
338.40 4.1
338.50 4.096
338.60 4.092
338.70 4.087
338.80 4.083
338.90 4.078
339.00 4.074
339.10 4.069
339.20 4.065
339.30 4.06
339.40 4.056
339.50 4.052
339.60 4.047
339.70 4.043
339.80 4.038
339.90 4.034
340.00 4.03
340.10 4.025
340.20 4.021
340.30 4.017
340.40 4.012
340.50 4.008
340.60 4.004
340.70 3.999
340.80 3.995
340.90 3.991
341.00 3.986
341.10 3.982
341.20 3.978
341.30 3.973
341.40 3.969
341.50 3.965
341.60 3.96
341.70 3.956
341.80 3.952
341.90 3.948
342.00 3.943
342.10 3.939
342.20 3.935
342.30 3.931
342.40 3.926
342.50 3.922
342.60 3.918
342.70 3.914
342.80 3.909
342.90 3.905
343.00 3.901
343.10 3.897
343.20 3.893
343.30 3.888
343.40 3.884
343.50 3.88
343.60 3.876
343.70 3.872
343.80 3.868
343.90 3.863
344.00 3.859
344.10 3.855
344.20 3.851
344.30 3.847
344.40 3.843
344.50 3.839
344.60 3.834
344.70 3.83
344.80 3.826
344.90 3.822
345.00 3.818
345.10 3.814
345.20 3.81
345.30 3.806
345.40 3.802
345.50 3.798
345.60 3.794
345.70 3.79
345.80 3.786
345.90 3.781
346.00 3.777
346.10 3.773
346.20 3.769
346.30 3.765
346.40 3.761
346.50 3.757
346.60 3.753
346.70 3.749
346.80 3.745
346.90 3.741
347.00 3.737
347.10 3.733
347.20 3.729
347.30 3.725
347.40 3.721
347.50 3.718
347.60 3.714
347.70 3.71
347.80 3.706
347.90 3.702
348.00 3.698
348.10 3.694
348.20 3.69
348.30 3.686
348.40 3.682
348.50 3.678
348.60 3.674
348.70 3.67
348.80 3.667
348.90 3.663
349.00 3.659
349.10 3.655
349.20 3.651
349.30 3.647
349.40 3.643
349.50 3.639
349.60 3.636
349.70 3.632
349.80 3.628
349.90 3.624
350.00 3.62
350.10 3.616
350.20 3.613
350.30 3.609
350.40 3.605
350.50 3.601
350.60 3.597
350.70 3.594
350.80 3.59
350.90 3.586
351.00 3.582
351.10 3.578
351.20 3.575
351.30 3.571
351.40 3.567
351.50 3.563
351.60 3.56
351.70 3.556
351.80 3.552
351.90 3.548
352.00 3.545
352.10 3.541
352.20 3.537
352.30 3.534
352.40 3.53
352.50 3.526
352.60 3.522
352.70 3.519
352.80 3.515
352.90 3.511
353.00 3.508
353.10 3.504
353.20 3.5
353.30 3.497
353.40 3.493
353.50 3.489
353.60 3.486
353.70 3.482
353.80 3.478
353.90 3.475
354.00 3.471
354.10 3.467
354.20 3.464
354.30 3.46
354.40 3.457
354.50 3.453
354.60 3.449
354.70 3.446
354.80 3.442
354.90 3.439
355.00 3.435
355.10 3.432
355.20 3.428
355.30 3.424
355.40 3.421
355.50 3.417
355.60 3.414
355.70 3.41
355.80 3.407
355.90 3.403
356.00 3.399
356.10 3.396
356.20 3.392
356.30 3.389
356.40 3.385
356.50 3.382
356.60 3.378
356.70 3.375
356.80 3.371
356.90 3.368
357.00 3.364
357.10 3.361
357.20 3.357
357.30 3.354
357.40 3.35
357.50 3.347
357.60 3.343
357.70 3.34
357.80 3.337
357.90 3.333
358.00 3.33
358.10 3.326
358.20 3.323
358.30 3.319
358.40 3.316
358.50 3.313
358.60 3.309
358.70 3.306
358.80 3.302
358.90 3.299
359.00 3.295
359.10 3.292
359.20 3.289
359.30 3.285
359.40 3.282
359.50 3.278
359.60 3.275
359.70 3.272
359.80 3.268
359.90 3.265
360.00 3.262
360.10 3.258
360.20 3.255
360.30 3.252
360.40 3.248
360.50 3.245
360.60 3.242
360.70 3.238
360.80 3.235
360.90 3.232
361.00 3.228
361.10 3.225
361.20 3.222
361.30 3.218
361.40 3.215
361.50 3.212
361.60 3.208
361.70 3.205
361.80 3.202
361.90 3.199
362.00 3.195
362.10 3.192
362.20 3.189
362.30 3.186
362.40 3.182
362.50 3.179
362.60 3.176
362.70 3.172
362.80 3.169
362.90 3.166
363.00 3.163
363.10 3.16
363.20 3.156
363.30 3.153
363.40 3.15
363.50 3.147
363.60 3.143
363.70 3.14
363.80 3.137
363.90 3.134
364.00 3.131
364.10 3.128
364.20 3.124
364.30 3.121
364.40 3.118
364.50 3.115
364.60 3.112
364.70 3.108
364.80 3.105
364.90 3.102
365.00 3.099
365.10 3.096
365.20 3.093
365.30 3.09
365.40 3.086
365.50 3.083
365.60 3.08
365.70 3.077
365.80 3.074
365.90 3.071
366.00 3.068
366.10 3.064
366.20 3.061
366.30 3.058
366.40 3.055
366.50 3.052
366.60 3.048
366.70 3.045
366.80 3.042
366.90 3.039
367.00 3.036
367.10 3.032
367.20 3.029
367.30 3.026
367.40 3.023
367.50 3.02
367.60 3.017
367.70 3.013
367.80 3.01
367.90 3.007
368.00 3.004
368.10 3.001
368.20 2.998
368.30 2.994
368.40 2.991
368.50 2.988
368.60 2.985
368.70 2.982
368.80 2.979
368.90 2.976
369.00 2.973
369.10 2.97
369.20 2.967
369.30 2.963
369.40 2.96
369.50 2.957
369.60 2.954
369.70 2.951
369.80 2.948
369.90 2.945
370.00 2.942
370.10 2.939
370.20 2.936
370.30 2.933
370.40 2.93
370.50 2.927
370.60 2.924
370.70 2.921
370.80 2.918
370.90 2.915
371.00 2.912
371.10 2.909
371.20 2.906
371.30 2.903
371.40 2.9
371.50 2.897
371.60 2.894
371.70 2.891
371.80 2.888
371.90 2.885
372.00 2.882
372.10 2.879
372.20 2.877
372.30 2.874
372.40 2.871
372.50 2.868
372.60 2.866
372.70 2.863
372.80 2.86
372.90 2.857
373.00 2.855
373.10 2.852
373.20 2.849
373.30 2.846
373.40 2.844
373.50 2.841
373.60 2.838
373.70 2.835
373.80 2.833
373.90 2.83
374.00 2.827
374.10 2.825
374.20 2.822
374.30 2.82
374.40 2.817
374.50 2.815
374.60 2.812
374.70 2.809
374.80 2.807
374.90 2.804
375.00 2.802
375.10 2.799
375.20 2.797
375.30 2.794
375.40 2.792
375.50 2.789
375.60 2.787
375.70 2.784
375.80 2.782
375.90 2.779
376.00 2.777
376.10 2.773
376.20 2.77
376.30 2.767
376.40 2.764
376.50 2.761
376.60 2.757
376.70 2.754
376.80 2.751
376.90 2.748
377.00 2.745
377.10 2.743
377.20 2.742
377.30 2.74
377.40 2.739
377.50 2.737
377.60 2.736
377.70 2.734
377.80 2.733
377.90 2.731
378.00 2.73
378.10 2.727
378.20 2.723
378.30 2.72
378.40 2.717
378.50 2.714
378.60 2.711
378.70 2.707
378.80 2.704
378.90 2.701
379.00 2.698
379.10 2.694
379.20 2.69
379.30 2.687
379.40 2.683
379.50 2.679
379.60 2.676
379.70 2.672
379.80 2.668
379.90 2.665
380.00 2.661
380.10 2.661
380.20 2.662
380.30 2.662
380.40 2.662
380.50 2.663
380.60 2.663
380.70 2.663
380.80 2.664
380.90 2.664
381.00 2.664
381.10 2.662
381.20 2.661
381.30 2.659
381.40 2.657
381.50 2.655
381.60 2.652
381.70 2.649
381.80 2.645
381.90 2.641
382.00 2.637
382.10 2.632
382.20 2.626
382.30 2.619
382.40 2.611
382.50 2.604
382.60 2.596
382.70 2.588
382.80 2.581
382.90 2.573
383.00 2.566
383.10 2.558
383.20 2.55
383.30 2.541
383.40 2.532
383.50 2.525
383.60 2.524
383.70 2.528
383.80 2.533
383.90 2.538
384.00 2.544
384.10 2.549
384.20 2.554
384.30 2.558
384.40 2.562
384.50 2.566
384.60 2.569
384.70 2.572
384.80 2.574
384.90 2.576
385.00 2.578
385.10 2.579
385.20 2.58
385.30 2.58
385.40 2.58
385.50 2.58
385.60 2.579
385.70 2.578
385.80 2.577
385.90 2.576
386.00 2.574
386.10 2.571
386.20 2.569
386.30 2.565
386.40 2.562
386.50 2.558
386.60 2.554
386.70 2.549
386.80 2.545
386.90 2.539
387.00 2.533
387.10 2.527
387.20 2.52
387.30 2.512
387.40 2.504
387.50 2.495
387.60 2.486
387.70 2.476
387.80 2.466
387.90 2.454
388.00 2.443
388.10 2.43
388.20 2.416
388.30 2.402
388.40 2.387
388.50 2.372
388.60 2.356
388.70 2.341
388.80 2.329
388.90 2.321
389.00 2.324
389.10 2.332
389.20 2.343
389.30 2.354
389.40 2.366
389.50 2.377
389.60 2.386
389.70 2.396
389.80 2.404
389.90 2.412
390.00 2.419
390.10 2.426
390.20 2.432
390.30 2.437
390.40 2.442
390.50 2.446
390.60 2.45
390.70 2.453
390.80 2.456
390.90 2.459
391.00 2.461
391.10 2.462
391.20 2.464
391.30 2.465
391.40 2.465
391.50 2.466
391.60 2.466
391.70 2.466
391.80 2.465
391.90 2.465
392.00 2.464
392.10 2.463
392.20 2.462
392.30 2.461
392.40 2.459
392.50 2.458
392.60 2.456
392.70 2.454
392.80 2.452
392.90 2.45
393.00 2.448
393.10 2.445
393.20 2.442
393.30 2.44
393.40 2.437
393.50 2.433
393.60 2.43
393.70 2.427
393.80 2.423
393.90 2.419
394.00 2.415
394.10 2.41
394.20 2.406
394.30 2.401
394.40 2.396
394.50 2.39
394.60 2.384
394.70 2.378
394.80 2.371
394.90 2.364
395.00 2.357
395.10 2.349
395.20 2.34
395.30 2.331
395.40 2.321
395.50 2.311
395.60 2.299
395.70 2.287
395.80 2.274
395.90 2.26
396.00 2.245
396.10 2.23
396.20 2.213
396.30 2.195
396.40 2.176
396.50 2.155
396.60 2.134
396.70 2.112
396.80 2.087
396.90 2.063
397.00 2.039
397.10 2.057
397.20 2.077
397.30 2.097
397.40 2.116
397.50 2.134
397.60 2.15
397.70 2.165
397.80 2.179
397.90 2.193
398.00 2.204
398.10 2.215
398.20 2.225
398.30 2.234
398.40 2.241
398.50 2.249
398.60 2.255
398.70 2.261
398.80 2.266
398.90 2.27
399.00 2.274
399.10 2.277
399.20 2.28
399.30 2.283
399.40 2.285
399.50 2.286
399.60 2.288
399.70 2.289
399.80 2.29
399.90 2.29
400.00 2.291
400.10 2.291
400.20 2.291
400.30 2.291
400.40 2.29
400.50 2.29
400.60 2.289
400.70 2.288
400.80 2.288
400.90 2.287
401.00 2.286
401.10 2.284
401.20 2.283
401.30 2.282
401.40 2.281
401.50 2.279
401.60 2.278
401.70 2.276
401.80 2.275
401.90 2.273
402.00 2.271
402.10 2.27
402.20 2.268
402.30 2.266
402.40 2.264
402.50 2.263
402.60 2.261
402.70 2.259
402.80 2.257
402.90 2.255
403.00 2.253
403.10 2.251
403.20 2.249
403.30 2.247
403.40 2.245
403.50 2.243
403.60 2.241
403.70 2.239
403.80 2.237
403.90 2.235
404.00 2.232
404.10 2.23
404.20 2.228
404.30 2.226
404.40 2.224
404.50 2.221
404.60 2.219
404.70 2.217
404.80 2.214
404.90 2.212
405.00 2.209
405.10 2.207
405.20 2.204
405.30 2.202
405.40 2.199
405.50 2.197
405.60 2.194
405.70 2.191
405.80 2.189
405.90 2.186
406.00 2.183
406.10 2.18
406.20 2.177
406.30 2.174
406.40 2.17
406.50 2.167
406.60 2.164
406.70 2.16
406.80 2.157
406.90 2.153
407.00 2.149
407.10 2.145
407.20 2.14
407.30 2.136
407.40 2.131
407.50 2.126
407.60 2.12
407.70 2.115
407.80 2.109
407.90 2.102
408.00 2.096
408.10 2.089
408.20 2.081
408.30 2.072
408.40 2.064
408.50 2.054
408.60 2.043
408.70 2.033
408.80 2.02
408.90 2.008
409.00 1.994
409.10 1.979
409.20 1.963
409.30 1.946
409.40 1.926
409.50 1.906
409.60 1.885
409.70 1.862
409.80 1.836
409.90 1.809
410.00 1.776
410.10 1.753
410.20 1.738
410.30 1.761
410.40 1.787
410.50 1.814
410.60 1.837
410.70 1.857
410.80 1.877
410.90 1.893
411.00 1.909
411.10 1.924
411.20 1.936
411.30 1.948
411.40 1.959
411.50 1.968
411.60 1.977
411.70 1.985
411.80 1.991
411.90 1.997
412.00 2.003
412.10 2.007
412.20 2.011
412.30 2.015
412.40 2.018
412.50 2.02
412.60 2.023
412.70 2.024
412.80 2.026
412.90 2.027
413.00 2.028
413.10 2.029
413.20 2.029
413.30 2.03
413.40 2.03
413.50 2.03
413.60 2.03
413.70 2.029
413.80 2.029
413.90 2.028
414.00 2.028
414.10 2.027
414.20 2.026
414.30 2.025
414.40 2.024
414.50 2.023
414.60 2.022
414.70 2.021
414.80 2.02
414.90 2.019
415.00 2.017
415.10 2.016
415.20 2.015
415.30 2.013
415.40 2.012
415.50 2.011
415.60 2.009
415.70 2.008
415.80 2.006
415.90 2.005
416.00 2.003
416.10 2.002
416.20 2
416.30 1.999
416.40 1.997
416.50 1.995
416.60 1.994
416.70 1.992
416.80 1.991
416.90 1.989
417.00 1.987
417.10 1.986
417.20 1.984
417.30 1.982
417.40 1.981
417.50 1.979
417.60 1.977
417.70 1.976
417.80 1.974
417.90 1.972
418.00 1.971
418.10 1.969
418.20 1.967
418.30 1.966
418.40 1.964
418.50 1.962
418.60 1.961
418.70 1.959
418.80 1.957
418.90 1.956
419.00 1.954
419.10 1.952
419.20 1.95
419.30 1.949
419.40 1.947
419.50 1.945
419.60 1.944
419.70 1.942
419.80 1.94
419.90 1.938
420.00 1.937
420.10 1.935
420.20 1.933
420.30 1.932
420.40 1.93
420.50 1.928
420.60 1.927
420.70 1.925
420.80 1.923
420.90 1.921
421.00 1.92
421.10 1.918
421.20 1.916
421.30 1.915
421.40 1.913
421.50 1.911
421.60 1.909
421.70 1.908
421.80 1.906
421.90 1.904
422.00 1.903
422.10 1.901
422.20 1.899
422.30 1.897
422.40 1.896
422.50 1.894
422.60 1.892
422.70 1.891
422.80 1.889
422.90 1.887
423.00 1.886
423.10 1.884
423.20 1.882
423.30 1.881
423.40 1.879
423.50 1.877
423.60 1.875
423.70 1.874
423.80 1.872
423.90 1.87
424.00 1.869
424.10 1.867
424.20 1.865
424.30 1.864
424.40 1.862
424.50 1.86
424.60 1.858
424.70 1.857
424.80 1.855
424.90 1.853
425.00 1.852
425.10 1.85
425.20 1.848
425.30 1.847
425.40 1.845
425.50 1.843
425.60 1.841
425.70 1.84
425.80 1.838
425.90 1.836
426.00 1.835
426.10 1.833
426.20 1.831
426.30 1.829
426.40 1.828
426.50 1.826
426.60 1.824
426.70 1.822
426.80 1.821
426.90 1.819
427.00 1.817
427.10 1.815
427.20 1.814
427.30 1.812
427.40 1.81
427.50 1.808
427.60 1.807
427.70 1.805
427.80 1.803
427.90 1.801
428.00 1.799
428.10 1.798
428.20 1.796
428.30 1.794
428.40 1.792
428.50 1.79
428.60 1.788
428.70 1.786
428.80 1.784
428.90 1.782
429.00 1.78
429.10 1.778
429.20 1.776
429.30 1.774
429.40 1.772
429.50 1.77
429.60 1.768
429.70 1.766
429.80 1.763
429.90 1.761
430.00 1.759
430.10 1.756
430.20 1.754
430.30 1.751
430.40 1.749
430.50 1.746
430.60 1.743
430.70 1.74
430.80 1.737
430.90 1.734
431.00 1.731
431.10 1.727
431.20 1.724
431.30 1.72
431.40 1.716
431.50 1.712
431.60 1.707
431.70 1.703
431.80 1.698
431.90 1.692
432.00 1.686
432.10 1.68
432.20 1.673
432.30 1.666
432.40 1.658
432.50 1.649
432.60 1.64
432.70 1.63
432.80 1.619
432.90 1.607
433.00 1.595
433.10 1.58
433.20 1.565
433.30 1.549
433.40 1.53
433.50 1.511
433.60 1.49
433.70 1.466
433.80 1.437
433.90 1.404
434.00 1.367
434.10 1.367
434.20 1.403
434.30 1.433
434.40 1.459
434.50 1.481
434.60 1.499
434.70 1.515
434.80 1.531
434.90 1.544
435.00 1.557
435.10 1.568
435.20 1.578
435.30 1.587
435.40 1.595
435.50 1.601
435.60 1.608
435.70 1.613
435.80 1.618
435.90 1.622
436.00 1.626
436.10 1.629
436.20 1.632
436.30 1.634
436.40 1.636
436.50 1.638
436.60 1.639
436.70 1.64
436.80 1.641
436.90 1.642
437.00 1.643
437.10 1.643
437.20 1.643
437.30 1.643
437.40 1.643
437.50 1.643
437.60 1.643
437.70 1.642
437.80 1.642
437.90 1.641
438.00 1.641
438.10 1.64
438.20 1.639
438.30 1.639
438.40 1.638
438.50 1.637
438.60 1.636
438.70 1.635
438.80 1.634
438.90 1.633
439.00 1.632
439.10 1.631
439.20 1.63
439.30 1.629
439.40 1.628
439.50 1.627
439.60 1.626
439.70 1.625
439.80 1.624
439.90 1.622
440.00 1.621
440.10 1.62
440.20 1.619
440.30 1.618
440.40 1.616
440.50 1.615
440.60 1.614
440.70 1.613
440.80 1.612
440.90 1.61
441.00 1.609
441.10 1.608
441.20 1.607
441.30 1.605
441.40 1.604
441.50 1.603
441.60 1.601
441.70 1.6
441.80 1.599
441.90 1.598
442.00 1.596
442.10 1.595
442.20 1.594
442.30 1.592
442.40 1.591
442.50 1.59
442.60 1.589
442.70 1.587
442.80 1.586
442.90 1.585
443.00 1.583
443.10 1.582
443.20 1.581
443.30 1.579
443.40 1.578
443.50 1.577
443.60 1.575
443.70 1.574
443.80 1.573
443.90 1.572
444.00 1.57
444.10 1.569
444.20 1.568
444.30 1.566
444.40 1.565
444.50 1.564
444.60 1.562
444.70 1.561
444.80 1.56
444.90 1.559
445.00 1.557
445.10 1.556
445.20 1.555
445.30 1.553
445.40 1.552
445.50 1.551
445.60 1.549
445.70 1.548
445.80 1.547
445.90 1.546
446.00 1.544
446.10 1.543
446.20 1.542
446.30 1.54
446.40 1.539
446.50 1.538
446.60 1.536
446.70 1.535
446.80 1.534
446.90 1.533
447.00 1.531
447.10 1.53
447.20 1.529
447.30 1.527
447.40 1.526
447.50 1.525
447.60 1.524
447.70 1.522
447.80 1.521
447.90 1.52
448.00 1.518
448.10 1.517
448.20 1.516
448.30 1.515
448.40 1.513
448.50 1.512
448.60 1.511
448.70 1.51
448.80 1.508
448.90 1.507
449.00 1.506
449.10 1.505
449.20 1.503
449.30 1.502
449.40 1.501
449.50 1.499
449.60 1.498
449.70 1.497
449.80 1.496
449.90 1.494
450.00 1.493
450.10 1.492
450.20 1.491
450.30 1.489
450.40 1.488
450.50 1.487
450.60 1.486
450.70 1.484
450.80 1.483
450.90 1.482
451.00 1.481
451.10 1.479
451.20 1.478
451.30 1.477
451.40 1.476
451.50 1.475
451.60 1.473
451.70 1.472
451.80 1.471
451.90 1.47
452.00 1.468
452.10 1.467
452.20 1.466
452.30 1.465
452.40 1.463
452.50 1.462
452.60 1.461
452.70 1.46
452.80 1.459
452.90 1.457
453.00 1.456
453.10 1.455
453.20 1.454
453.30 1.452
453.40 1.451
453.50 1.45
453.60 1.449
453.70 1.448
453.80 1.446
453.90 1.445
454.00 1.444
