# Version 2.1 - nm, norm@500 to 1, cut digits, bergeron_45000_95.dat_45000
# Wavelength(nm)  Flambda(ergs/cm^s/s/nm)
300.00 6.151
300.10 6.143
300.20 6.136
300.30 6.129
300.40 6.121
300.50 6.114
300.60 6.107
300.70 6.099
300.80 6.092
300.90 6.085
301.00 6.078
301.10 6.07
301.20 6.063
301.30 6.056
301.40 6.049
301.50 6.041
301.60 6.034
301.70 6.027
301.80 6.02
301.90 6.012
302.00 6.005
302.10 5.998
302.20 5.991
302.30 5.984
302.40 5.977
302.50 5.97
302.60 5.962
302.70 5.955
302.80 5.948
302.90 5.941
303.00 5.934
303.10 5.927
303.20 5.92
303.30 5.913
303.40 5.906
303.50 5.899
303.60 5.892
303.70 5.885
303.80 5.878
303.90 5.871
304.00 5.864
304.10 5.857
304.20 5.85
304.30 5.843
304.40 5.836
304.50 5.829
304.60 5.822
304.70 5.816
304.80 5.809
304.90 5.802
305.00 5.795
305.10 5.788
305.20 5.781
305.30 5.774
305.40 5.768
305.50 5.761
305.60 5.754
305.70 5.747
305.80 5.74
305.90 5.734
306.00 5.727
306.10 5.72
306.20 5.713
306.30 5.707
306.40 5.7
306.50 5.693
306.60 5.687
306.70 5.68
306.80 5.673
306.90 5.667
307.00 5.66
307.10 5.653
307.20 5.647
307.30 5.64
307.40 5.633
307.50 5.627
307.60 5.62
307.70 5.614
307.80 5.607
307.90 5.6
308.00 5.594
308.10 5.587
308.20 5.581
308.30 5.574
308.40 5.568
308.50 5.561
308.60 5.555
308.70 5.548
308.80 5.542
308.90 5.535
309.00 5.529
309.10 5.522
309.20 5.516
309.30 5.509
309.40 5.503
309.50 5.497
309.60 5.49
309.70 5.484
309.80 5.477
309.90 5.471
310.00 5.465
310.10 5.458
310.20 5.452
310.30 5.446
310.40 5.439
310.50 5.433
310.60 5.427
310.70 5.42
310.80 5.414
310.90 5.408
311.00 5.401
311.10 5.395
311.20 5.389
311.30 5.383
311.40 5.376
311.50 5.37
311.60 5.364
311.70 5.358
311.80 5.351
311.90 5.345
312.00 5.339
312.10 5.333
312.20 5.327
312.30 5.321
312.40 5.314
312.50 5.308
312.60 5.302
312.70 5.296
312.80 5.29
312.90 5.284
313.00 5.278
313.10 5.272
313.20 5.265
313.30 5.259
313.40 5.253
313.50 5.247
313.60 5.241
313.70 5.235
313.80 5.229
313.90 5.223
314.00 5.217
314.10 5.211
314.20 5.205
314.30 5.199
314.40 5.193
314.50 5.187
314.60 5.181
314.70 5.175
314.80 5.169
314.90 5.163
315.00 5.157
315.10 5.152
315.20 5.146
315.30 5.14
315.40 5.134
315.50 5.128
315.60 5.122
315.70 5.116
315.80 5.11
315.90 5.105
316.00 5.099
316.10 5.093
316.20 5.087
316.30 5.081
316.40 5.075
316.50 5.07
316.60 5.064
316.70 5.058
316.80 5.052
316.90 5.046
317.00 5.041
317.10 5.035
317.20 5.029
317.30 5.023
317.40 5.018
317.50 5.012
317.60 5.006
317.70 5.001
317.80 4.995
317.90 4.989
318.00 4.984
318.10 4.978
318.20 4.972
318.30 4.967
318.40 4.961
318.50 4.955
318.60 4.95
318.70 4.944
318.80 4.938
318.90 4.933
319.00 4.927
319.10 4.922
319.20 4.916
319.30 4.911
319.40 4.905
319.50 4.899
319.60 4.894
319.70 4.888
319.80 4.883
319.90 4.877
320.00 4.872
320.10 4.866
320.20 4.861
320.30 4.855
320.40 4.85
320.50 4.844
320.60 4.839
320.70 4.833
320.80 4.828
320.90 4.822
321.00 4.817
321.10 4.812
321.20 4.806
321.30 4.801
321.40 4.795
321.50 4.79
321.60 4.785
321.70 4.779
321.80 4.774
321.90 4.768
322.00 4.763
322.10 4.758
322.20 4.752
322.30 4.747
322.40 4.742
322.50 4.736
322.60 4.731
322.70 4.726
322.80 4.72
322.90 4.715
323.00 4.71
323.10 4.705
323.20 4.699
323.30 4.694
323.40 4.689
323.50 4.683
323.60 4.678
323.70 4.673
323.80 4.668
323.90 4.663
324.00 4.657
324.10 4.652
324.20 4.647
324.30 4.642
324.40 4.637
324.50 4.631
324.60 4.626
324.70 4.621
324.80 4.616
324.90 4.611
325.00 4.606
325.10 4.6
325.20 4.595
325.30 4.59
325.40 4.585
325.50 4.58
325.60 4.575
325.70 4.57
325.80 4.565
325.90 4.56
326.00 4.555
326.10 4.549
326.20 4.544
326.30 4.539
326.40 4.534
326.50 4.529
326.60 4.524
326.70 4.519
326.80 4.514
326.90 4.509
327.00 4.504
327.10 4.499
327.20 4.494
327.30 4.489
327.40 4.484
327.50 4.479
327.60 4.474
327.70 4.469
327.80 4.464
327.90 4.46
328.00 4.455
328.10 4.45
328.20 4.445
328.30 4.44
328.40 4.435
328.50 4.43
328.60 4.425
328.70 4.42
328.80 4.415
328.90 4.411
329.00 4.406
329.10 4.401
329.20 4.396
329.30 4.391
329.40 4.386
329.50 4.381
329.60 4.377
329.70 4.372
329.80 4.367
329.90 4.362
330.00 4.357
330.10 4.353
330.20 4.348
330.30 4.343
330.40 4.338
330.50 4.334
330.60 4.329
330.70 4.324
330.80 4.319
330.90 4.315
331.00 4.31
331.10 4.305
331.20 4.3
331.30 4.296
331.40 4.291
331.50 4.286
331.60 4.282
331.70 4.277
331.80 4.272
331.90 4.268
332.00 4.263
332.10 4.258
332.20 4.254
332.30 4.249
332.40 4.244
332.50 4.24
332.60 4.235
332.70 4.23
332.80 4.226
332.90 4.221
333.00 4.217
333.10 4.212
333.20 4.207
333.30 4.203
333.40 4.198
333.50 4.194
333.60 4.189
333.70 4.185
333.80 4.18
333.90 4.175
334.00 4.171
334.10 4.166
334.20 4.162
334.30 4.157
334.40 4.153
334.50 4.148
334.60 4.144
334.70 4.139
334.80 4.135
334.90 4.13
335.00 4.126
335.10 4.121
335.20 4.117
335.30 4.113
335.40 4.108
335.50 4.104
335.60 4.099
335.70 4.095
335.80 4.09
335.90 4.086
336.00 4.081
336.10 4.077
336.20 4.073
336.30 4.068
336.40 4.064
336.50 4.059
336.60 4.055
336.70 4.051
336.80 4.046
336.90 4.042
337.00 4.038
337.10 4.033
337.20 4.029
337.30 4.025
337.40 4.02
337.50 4.016
337.60 4.012
337.70 4.007
337.80 4.003
337.90 3.999
338.00 3.994
338.10 3.99
338.20 3.986
338.30 3.981
338.40 3.977
338.50 3.973
338.60 3.969
338.70 3.964
338.80 3.96
338.90 3.956
339.00 3.952
339.10 3.947
339.20 3.943
339.30 3.939
339.40 3.935
339.50 3.93
339.60 3.926
339.70 3.922
339.80 3.918
339.90 3.914
340.00 3.909
340.10 3.905
340.20 3.901
340.30 3.897
340.40 3.893
340.50 3.889
340.60 3.885
340.70 3.88
340.80 3.876
340.90 3.872
341.00 3.868
341.10 3.864
341.20 3.86
341.30 3.856
341.40 3.852
341.50 3.847
341.60 3.843
341.70 3.839
341.80 3.835
341.90 3.831
342.00 3.827
342.10 3.823
342.20 3.819
342.30 3.815
342.40 3.811
342.50 3.807
342.60 3.803
342.70 3.799
342.80 3.795
342.90 3.791
343.00 3.787
343.10 3.783
343.20 3.779
343.30 3.774
343.40 3.77
343.50 3.766
343.60 3.762
343.70 3.758
343.80 3.755
343.90 3.751
344.00 3.747
344.10 3.743
344.20 3.739
344.30 3.735
344.40 3.731
344.50 3.727
344.60 3.723
344.70 3.719
344.80 3.715
344.90 3.711
345.00 3.707
345.10 3.703
345.20 3.699
345.30 3.695
345.40 3.692
345.50 3.688
345.60 3.684
345.70 3.68
345.80 3.676
345.90 3.672
346.00 3.668
346.10 3.664
346.20 3.661
346.30 3.657
346.40 3.653
346.50 3.649
346.60 3.645
346.70 3.641
346.80 3.638
346.90 3.634
347.00 3.63
347.10 3.626
347.20 3.622
347.30 3.619
347.40 3.615
347.50 3.611
347.60 3.607
347.70 3.603
347.80 3.6
347.90 3.596
348.00 3.592
348.10 3.588
348.20 3.585
348.30 3.581
348.40 3.577
348.50 3.573
348.60 3.57
348.70 3.566
348.80 3.562
348.90 3.558
349.00 3.555
349.10 3.551
349.20 3.547
349.30 3.544
349.40 3.54
349.50 3.536
349.60 3.533
349.70 3.529
349.80 3.525
349.90 3.522
350.00 3.518
350.10 3.514
350.20 3.511
350.30 3.507
350.40 3.503
350.50 3.5
350.60 3.496
350.70 3.492
350.80 3.489
350.90 3.485
351.00 3.481
351.10 3.478
351.20 3.474
351.30 3.471
351.40 3.467
351.50 3.463
351.60 3.46
351.70 3.456
351.80 3.453
351.90 3.449
352.00 3.445
352.10 3.442
352.20 3.438
352.30 3.435
352.40 3.431
352.50 3.428
352.60 3.424
352.70 3.421
352.80 3.417
352.90 3.414
353.00 3.41
353.10 3.407
353.20 3.403
353.30 3.4
353.40 3.396
353.50 3.392
353.60 3.389
353.70 3.385
353.80 3.382
353.90 3.378
354.00 3.375
354.10 3.372
354.20 3.368
354.30 3.365
354.40 3.361
354.50 3.358
354.60 3.354
354.70 3.351
354.80 3.347
354.90 3.344
355.00 3.34
355.10 3.337
355.20 3.334
355.30 3.33
355.40 3.327
355.50 3.323
355.60 3.32
355.70 3.317
355.80 3.313
355.90 3.31
356.00 3.306
356.10 3.303
356.20 3.3
356.30 3.296
356.40 3.293
356.50 3.289
356.60 3.286
356.70 3.283
356.80 3.279
356.90 3.276
357.00 3.273
357.10 3.269
357.20 3.266
357.30 3.263
357.40 3.259
357.50 3.256
357.60 3.253
357.70 3.249
357.80 3.246
357.90 3.243
358.00 3.239
358.10 3.236
358.20 3.233
358.30 3.23
358.40 3.226
358.50 3.223
358.60 3.22
358.70 3.216
358.80 3.213
358.90 3.21
359.00 3.207
359.10 3.203
359.20 3.2
359.30 3.197
359.40 3.194
359.50 3.19
359.60 3.187
359.70 3.184
359.80 3.181
359.90 3.177
360.00 3.174
360.10 3.171
360.20 3.168
360.30 3.165
360.40 3.161
360.50 3.158
360.60 3.155
360.70 3.152
360.80 3.149
360.90 3.145
361.00 3.142
361.10 3.139
361.20 3.136
361.30 3.133
361.40 3.13
361.50 3.126
361.60 3.123
361.70 3.12
361.80 3.117
361.90 3.114
362.00 3.111
362.10 3.107
362.20 3.104
362.30 3.101
362.40 3.098
362.50 3.095
362.60 3.092
362.70 3.089
362.80 3.086
362.90 3.082
363.00 3.079
363.10 3.076
363.20 3.073
363.30 3.07
363.40 3.067
363.50 3.064
363.60 3.061
363.70 3.058
363.80 3.055
363.90 3.052
364.00 3.049
364.10 3.045
364.20 3.042
364.30 3.039
364.40 3.036
364.50 3.033
364.60 3.03
364.70 3.027
364.80 3.024
364.90 3.021
365.00 3.018
365.10 3.015
365.20 3.012
365.30 3.009
365.40 3.006
365.50 3.003
365.60 3
365.70 2.997
365.80 2.994
365.90 2.991
366.00 2.988
366.10 2.985
366.20 2.982
366.30 2.979
366.40 2.976
366.50 2.973
366.60 2.97
366.70 2.967
366.80 2.964
366.90 2.961
367.00 2.958
367.10 2.955
367.20 2.952
367.30 2.949
367.40 2.946
367.50 2.943
367.60 2.94
367.70 2.937
367.80 2.934
367.90 2.931
368.00 2.928
368.10 2.925
368.20 2.922
368.30 2.919
368.40 2.916
368.50 2.913
368.60 2.91
368.70 2.907
368.80 2.904
368.90 2.901
369.00 2.898
369.10 2.895
369.20 2.892
369.30 2.889
369.40 2.886
369.50 2.883
369.60 2.88
369.70 2.877
369.80 2.874
369.90 2.871
370.00 2.868
370.10 2.865
370.20 2.862
370.30 2.859
370.40 2.856
370.50 2.853
370.60 2.85
370.70 2.847
370.80 2.844
370.90 2.841
371.00 2.838
371.10 2.835
371.20 2.832
371.30 2.829
371.40 2.826
371.50 2.823
371.60 2.82
371.70 2.817
371.80 2.814
371.90 2.811
372.00 2.808
372.10 2.806
372.20 2.803
372.30 2.8
372.40 2.798
372.50 2.795
372.60 2.792
372.70 2.79
372.80 2.787
372.90 2.784
373.00 2.782
373.10 2.779
373.20 2.776
373.30 2.774
373.40 2.771
373.50 2.768
373.60 2.766
373.70 2.763
373.80 2.76
373.90 2.758
374.00 2.755
374.10 2.752
374.20 2.749
374.30 2.747
374.40 2.744
374.50 2.741
374.60 2.738
374.70 2.735
374.80 2.732
374.90 2.73
375.00 2.727
375.10 2.724
375.20 2.721
375.30 2.718
375.40 2.715
375.50 2.713
375.60 2.71
375.70 2.707
375.80 2.704
375.90 2.701
376.00 2.699
376.10 2.696
376.20 2.693
376.30 2.69
376.40 2.688
376.50 2.685
376.60 2.682
376.70 2.679
376.80 2.677
376.90 2.674
377.00 2.671
377.10 2.668
377.20 2.666
377.30 2.663
377.40 2.66
377.50 2.658
377.60 2.655
377.70 2.653
377.80 2.65
377.90 2.647
378.00 2.645
378.10 2.642
378.20 2.639
378.30 2.637
378.40 2.634
378.50 2.632
378.60 2.629
378.70 2.626
378.80 2.624
378.90 2.621
379.00 2.619
379.10 2.616
379.20 2.613
379.30 2.611
379.40 2.608
379.50 2.606
379.60 2.603
379.70 2.601
379.80 2.598
379.90 2.595
380.00 2.593
380.10 2.59
380.20 2.588
380.30 2.585
380.40 2.583
380.50 2.58
380.60 2.578
380.70 2.575
380.80 2.573
380.90 2.57
381.00 2.568
381.10 2.565
381.20 2.563
381.30 2.56
381.40 2.558
381.50 2.555
381.60 2.553
381.70 2.551
381.80 2.548
381.90 2.546
382.00 2.543
382.10 2.541
382.20 2.538
382.30 2.536
382.40 2.533
382.50 2.531
382.60 2.529
382.70 2.526
382.80 2.524
382.90 2.521
383.00 2.519
383.10 2.517
383.20 2.514
383.30 2.512
383.40 2.509
383.50 2.507
383.60 2.505
383.70 2.502
383.80 2.5
383.90 2.498
384.00 2.495
384.10 2.493
384.20 2.491
384.30 2.489
384.40 2.486
384.50 2.484
384.60 2.482
384.70 2.48
384.80 2.477
384.90 2.475
385.00 2.473
385.10 2.47
385.20 2.468
385.30 2.466
385.40 2.464
385.50 2.461
385.60 2.459
385.70 2.457
385.80 2.455
385.90 2.452
386.00 2.45
386.10 2.448
386.20 2.446
386.30 2.443
386.40 2.441
386.50 2.439
386.60 2.437
386.70 2.434
386.80 2.432
386.90 2.43
387.00 2.428
387.10 2.425
387.20 2.423
387.30 2.421
387.40 2.419
387.50 2.416
387.60 2.414
387.70 2.412
387.80 2.41
387.90 2.408
388.00 2.405
388.10 2.403
388.20 2.401
388.30 2.399
388.40 2.397
388.50 2.394
388.60 2.392
388.70 2.39
388.80 2.388
388.90 2.386
389.00 2.384
389.10 2.382
389.20 2.38
389.30 2.378
389.40 2.376
389.50 2.374
389.60 2.372
389.70 2.37
389.80 2.368
389.90 2.366
390.00 2.364
390.10 2.362
390.20 2.36
390.30 2.359
390.40 2.357
390.50 2.355
390.60 2.353
390.70 2.351
390.80 2.349
390.90 2.347
391.00 2.345
391.10 2.343
391.20 2.341
391.30 2.339
391.40 2.337
391.50 2.335
391.60 2.333
391.70 2.331
391.80 2.329
391.90 2.327
392.00 2.325
392.10 2.323
392.20 2.321
392.30 2.319
392.40 2.317
392.50 2.315
392.60 2.313
392.70 2.311
392.80 2.308
392.90 2.306
393.00 2.304
393.10 2.302
393.20 2.3
393.30 2.298
393.40 2.295
393.50 2.293
393.60 2.291
393.70 2.289
393.80 2.286
393.90 2.284
394.00 2.282
394.10 2.28
394.20 2.277
394.30 2.275
394.40 2.273
394.50 2.27
394.60 2.268
394.70 2.266
394.80 2.263
394.90 2.261
395.00 2.258
395.10 2.256
395.20 2.254
395.30 2.251
395.40 2.249
395.50 2.246
395.60 2.244
395.70 2.242
395.80 2.239
395.90 2.237
396.00 2.234
396.10 2.232
396.20 2.229
396.30 2.227
396.40 2.225
396.50 2.222
396.60 2.22
396.70 2.218
396.80 2.216
396.90 2.213
397.00 2.211
397.10 2.21
397.20 2.209
397.30 2.207
397.40 2.206
397.50 2.205
397.60 2.204
397.70 2.203
397.80 2.202
397.90 2.2
398.00 2.199
398.10 2.198
398.20 2.197
398.30 2.196
398.40 2.195
398.50 2.194
398.60 2.193
398.70 2.192
398.80 2.191
398.90 2.189
399.00 2.188
399.10 2.187
399.20 2.186
399.30 2.185
399.40 2.184
399.50 2.182
399.60 2.181
399.70 2.18
399.80 2.179
399.90 2.177
400.00 2.176
400.10 2.175
400.20 2.173
400.30 2.172
400.40 2.17
400.50 2.169
400.60 2.167
400.70 2.166
400.80 2.164
400.90 2.163
401.00 2.161
401.10 2.16
401.20 2.158
401.30 2.157
401.40 2.155
401.50 2.153
401.60 2.152
401.70 2.15
401.80 2.148
401.90 2.146
402.00 2.144
402.10 2.143
402.20 2.141
402.30 2.139
402.40 2.137
402.50 2.135
402.60 2.133
402.70 2.131
402.80 2.129
402.90 2.127
403.00 2.125
403.10 2.123
403.20 2.121
403.30 2.119
403.40 2.116
403.50 2.114
403.60 2.112
403.70 2.11
403.80 2.107
403.90 2.105
404.00 2.103
404.10 2.1
404.20 2.098
404.30 2.095
404.40 2.093
404.50 2.09
404.60 2.088
404.70 2.085
404.80 2.082
404.90 2.08
405.00 2.077
405.10 2.074
405.20 2.072
405.30 2.069
405.40 2.066
405.50 2.063
405.60 2.06
405.70 2.057
405.80 2.054
405.90 2.051
406.00 2.048
406.10 2.045
406.20 2.042
406.30 2.039
406.40 2.036
406.50 2.033
406.60 2.029
406.70 2.026
406.80 2.023
406.90 2.02
407.00 2.016
407.10 2.013
407.20 2.009
407.30 2.006
407.40 2.003
407.50 1.999
407.60 1.996
407.70 1.992
407.80 1.988
407.90 1.985
408.00 1.981
408.10 1.978
408.20 1.974
408.30 1.97
408.40 1.967
408.50 1.963
408.60 1.96
408.70 1.956
408.80 1.953
408.90 1.949
409.00 1.946
409.10 1.942
409.20 1.939
409.30 1.936
409.40 1.933
409.50 1.93
409.60 1.927
409.70 1.925
409.80 1.923
409.90 1.921
410.00 1.92
410.10 1.919
410.20 1.918
410.30 1.916
410.40 1.914
410.50 1.912
410.60 1.911
410.70 1.911
410.80 1.91
410.90 1.91
411.00 1.91
411.10 1.91
411.20 1.91
411.30 1.911
411.40 1.911
411.50 1.911
411.60 1.912
411.70 1.912
411.80 1.913
411.90 1.913
412.00 1.914
412.10 1.915
412.20 1.915
412.30 1.916
412.40 1.916
412.50 1.917
412.60 1.917
412.70 1.918
412.80 1.918
412.90 1.919
413.00 1.919
413.10 1.919
413.20 1.92
413.30 1.92
413.40 1.92
413.50 1.921
413.60 1.921
413.70 1.921
413.80 1.921
413.90 1.922
414.00 1.922
414.10 1.922
414.20 1.922
414.30 1.922
414.40 1.922
414.50 1.922
414.60 1.922
414.70 1.922
414.80 1.921
414.90 1.921
415.00 1.921
415.10 1.921
415.20 1.921
415.30 1.92
415.40 1.92
415.50 1.92
415.60 1.919
415.70 1.919
415.80 1.918
415.90 1.918
416.00 1.917
416.10 1.917
416.20 1.916
416.30 1.916
416.40 1.915
416.50 1.915
416.60 1.914
416.70 1.913
416.80 1.912
416.90 1.912
417.00 1.911
417.10 1.91
417.20 1.909
417.30 1.909
417.40 1.908
417.50 1.907
417.60 1.906
417.70 1.905
417.80 1.904
417.90 1.903
418.00 1.902
418.10 1.901
418.20 1.9
418.30 1.899
418.40 1.898
418.50 1.897
418.60 1.896
418.70 1.895
418.80 1.893
418.90 1.892
419.00 1.891
419.10 1.89
419.20 1.889
419.30 1.887
419.40 1.886
419.50 1.885
419.60 1.884
419.70 1.882
419.80 1.881
419.90 1.879
420.00 1.878
420.10 1.877
420.20 1.875
420.30 1.874
420.40 1.872
420.50 1.871
420.60 1.869
420.70 1.868
420.80 1.866
420.90 1.865
421.00 1.863
421.10 1.862
421.20 1.86
421.30 1.858
421.40 1.857
421.50 1.855
421.60 1.853
421.70 1.852
421.80 1.85
421.90 1.848
422.00 1.847
422.10 1.845
422.20 1.843
422.30 1.841
422.40 1.839
422.50 1.837
422.60 1.836
422.70 1.834
422.80 1.832
422.90 1.83
423.00 1.828
423.10 1.826
423.20 1.824
423.30 1.822
423.40 1.82
423.50 1.818
423.60 1.816
423.70 1.814
423.80 1.812
423.90 1.81
424.00 1.807
424.10 1.805
424.20 1.803
424.30 1.801
424.40 1.799
424.50 1.796
424.60 1.794
424.70 1.792
424.80 1.789
424.90 1.787
425.00 1.785
425.10 1.782
425.20 1.78
425.30 1.777
425.40 1.775
425.50 1.772
425.60 1.77
425.70 1.767
425.80 1.765
425.90 1.762
426.00 1.76
426.10 1.757
426.20 1.754
426.30 1.751
426.40 1.749
426.50 1.746
426.60 1.743
426.70 1.74
426.80 1.737
426.90 1.734
427.00 1.731
427.10 1.728
427.20 1.725
427.30 1.722
427.40 1.719
427.50 1.716
427.60 1.713
427.70 1.71
427.80 1.706
427.90 1.703
428.00 1.7
428.10 1.697
428.20 1.693
428.30 1.69
428.40 1.686
428.50 1.683
428.60 1.679
428.70 1.676
428.80 1.672
428.90 1.668
429.00 1.665
429.10 1.661
429.20 1.657
429.30 1.653
429.40 1.649
429.50 1.645
429.60 1.641
429.70 1.637
429.80 1.633
429.90 1.629
430.00 1.625
430.10 1.621
430.20 1.616
430.30 1.612
430.40 1.608
430.50 1.603
430.60 1.599
430.70 1.594
430.80 1.59
430.90 1.585
431.00 1.58
431.10 1.576
431.20 1.571
431.30 1.566
431.40 1.561
431.50 1.556
431.60 1.551
431.70 1.546
431.80 1.541
431.90 1.536
432.00 1.531
432.10 1.526
432.20 1.521
432.30 1.516
432.40 1.511
432.50 1.505
432.60 1.5
432.70 1.495
432.80 1.489
432.90 1.484
433.00 1.478
433.10 1.473
433.20 1.467
433.30 1.461
433.40 1.455
433.50 1.449
433.60 1.442
433.70 1.435
433.80 1.427
433.90 1.419
434.00 1.412
434.10 1.411
434.20 1.416
434.30 1.422
434.40 1.428
434.50 1.433
434.60 1.437
434.70 1.441
434.80 1.445
434.90 1.449
435.00 1.452
435.10 1.455
435.20 1.459
435.30 1.462
435.40 1.465
435.50 1.468
435.60 1.471
435.70 1.473
435.80 1.476
435.90 1.479
436.00 1.482
436.10 1.484
436.20 1.487
436.30 1.489
436.40 1.492
436.50 1.494
436.60 1.497
436.70 1.499
436.80 1.501
436.90 1.504
437.00 1.506
437.10 1.508
437.20 1.51
437.30 1.512
437.40 1.514
437.50 1.516
437.60 1.518
437.70 1.52
437.80 1.521
437.90 1.523
438.00 1.525
438.10 1.526
438.20 1.528
438.30 1.529
438.40 1.531
438.50 1.532
438.60 1.533
438.70 1.535
438.80 1.536
438.90 1.537
439.00 1.538
439.10 1.539
439.20 1.54
439.30 1.541
439.40 1.542
439.50 1.543
439.60 1.544
439.70 1.545
439.80 1.545
439.90 1.546
440.00 1.547
440.10 1.547
440.20 1.548
440.30 1.549
440.40 1.549
440.50 1.55
440.60 1.55
440.70 1.55
440.80 1.551
440.90 1.551
441.00 1.551
441.10 1.552
441.20 1.552
441.30 1.552
441.40 1.552
441.50 1.552
441.60 1.552
441.70 1.552
441.80 1.552
441.90 1.552
442.00 1.552
442.10 1.552
442.20 1.552
442.30 1.552
442.40 1.552
442.50 1.552
442.60 1.552
442.70 1.552
442.80 1.551
442.90 1.551
443.00 1.551
443.10 1.551
443.20 1.55
443.30 1.55
443.40 1.55
443.50 1.549
443.60 1.549
443.70 1.548
443.80 1.548
443.90 1.547
444.00 1.547
444.10 1.547
444.20 1.546
444.30 1.546
444.40 1.545
444.50 1.544
444.60 1.544
444.70 1.543
444.80 1.543
444.90 1.542
445.00 1.541
445.10 1.541
445.20 1.54
445.30 1.539
445.40 1.539
445.50 1.538
445.60 1.537
445.70 1.537
445.80 1.536
445.90 1.535
446.00 1.534
446.10 1.534
446.20 1.533
446.30 1.532
446.40 1.531
446.50 1.531
446.60 1.53
446.70 1.529
446.80 1.528
446.90 1.527
447.00 1.526
447.10 1.526
447.20 1.525
447.30 1.524
447.40 1.523
447.50 1.522
447.60 1.521
447.70 1.52
447.80 1.519
447.90 1.518
448.00 1.517
448.10 1.517
448.20 1.516
448.30 1.515
448.40 1.514
448.50 1.513
448.60 1.512
448.70 1.511
448.80 1.51
448.90 1.509
449.00 1.508
449.10 1.507
449.20 1.506
449.30 1.505
449.40 1.504
449.50 1.503
449.60 1.502
449.70 1.501
449.80 1.5
449.90 1.499
450.00 1.498
450.10 1.497
450.20 1.496
450.30 1.495
450.40 1.494
450.50 1.493
450.60 1.492
450.70 1.491
450.80 1.489
450.90 1.488
451.00 1.487
451.10 1.486
451.20 1.485
451.30 1.484
451.40 1.483
451.50 1.482
451.60 1.481
451.70 1.48
451.80 1.479
451.90 1.478
452.00 1.477
452.10 1.475
452.20 1.474
452.30 1.473
452.40 1.472
452.50 1.471
452.60 1.47
452.70 1.469
452.80 1.468
452.90 1.467
453.00 1.466
453.10 1.464
453.20 1.463
453.30 1.462
453.40 1.461
453.50 1.46
453.60 1.459
453.70 1.458
453.80 1.457
453.90 1.455
454.00 1.454
454.10 1.453
454.20 1.452
