# Version 2.1 - nm, norm@500 to 1, cut digits, bergeron_120000_70.dat_120000
# Wavelength(nm)  Flambda(ergs/cm^s/s/nm)
300.00 6.949
300.10 6.941
300.20 6.932
300.30 6.923
300.40 6.914
300.50 6.906
300.60 6.897
300.70 6.888
300.80 6.879
300.90 6.871
301.00 6.862
301.10 6.853
301.20 6.845
301.30 6.836
301.40 6.828
301.50 6.819
301.60 6.81
301.70 6.802
301.80 6.793
301.90 6.785
302.00 6.776
302.10 6.768
302.20 6.759
302.30 6.751
302.40 6.742
302.50 6.734
302.60 6.725
302.70 6.717
302.80 6.709
302.90 6.7
303.00 6.692
303.10 6.683
303.20 6.675
303.30 6.667
303.40 6.658
303.50 6.65
303.60 6.642
303.70 6.633
303.80 6.625
303.90 6.617
304.00 6.609
304.10 6.6
304.20 6.592
304.30 6.584
304.40 6.576
304.50 6.567
304.60 6.559
304.70 6.551
304.80 6.543
304.90 6.535
305.00 6.527
305.10 6.518
305.20 6.51
305.30 6.502
305.40 6.494
305.50 6.486
305.60 6.478
305.70 6.47
305.80 6.462
305.90 6.454
306.00 6.446
306.10 6.438
306.20 6.43
306.30 6.422
306.40 6.414
306.50 6.406
306.60 6.398
306.70 6.39
306.80 6.382
306.90 6.374
307.00 6.367
307.10 6.359
307.20 6.351
307.30 6.343
307.40 6.335
307.50 6.327
307.60 6.319
307.70 6.312
307.80 6.304
307.90 6.296
308.00 6.288
308.10 6.281
308.20 6.273
308.30 6.265
308.40 6.257
308.50 6.25
308.60 6.242
308.70 6.234
308.80 6.227
308.90 6.219
309.00 6.211
309.10 6.204
309.20 6.196
309.30 6.188
309.40 6.181
309.50 6.173
309.60 6.166
309.70 6.158
309.80 6.151
309.90 6.143
310.00 6.136
310.10 6.128
310.20 6.121
310.30 6.113
310.40 6.106
310.50 6.098
310.60 6.091
310.70 6.083
310.80 6.076
310.90 6.068
311.00 6.061
311.10 6.053
311.20 6.046
311.30 6.039
311.40 6.031
311.50 6.024
311.60 6.017
311.70 6.009
311.80 6.002
311.90 5.995
312.00 5.987
312.10 5.98
312.20 5.973
312.30 5.966
312.40 5.958
312.50 5.951
312.60 5.944
312.70 5.937
312.80 5.929
312.90 5.922
313.00 5.915
313.10 5.908
313.20 5.901
313.30 5.893
313.40 5.886
313.50 5.879
313.60 5.872
313.70 5.865
313.80 5.858
313.90 5.851
314.00 5.844
314.10 5.837
314.20 5.829
314.30 5.822
314.40 5.815
314.50 5.808
314.60 5.801
314.70 5.794
314.80 5.787
314.90 5.78
315.00 5.773
315.10 5.766
315.20 5.759
315.30 5.752
315.40 5.746
315.50 5.739
315.60 5.732
315.70 5.725
315.80 5.718
315.90 5.711
316.00 5.704
316.10 5.697
316.20 5.69
316.30 5.684
316.40 5.677
316.50 5.67
316.60 5.663
316.70 5.656
316.80 5.65
316.90 5.643
317.00 5.636
317.10 5.629
317.20 5.623
317.30 5.616
317.40 5.609
317.50 5.602
317.60 5.596
317.70 5.589
317.80 5.582
317.90 5.576
318.00 5.569
318.10 5.562
318.20 5.556
318.30 5.549
318.40 5.542
318.50 5.536
318.60 5.529
318.70 5.522
318.80 5.516
318.90 5.509
319.00 5.503
319.10 5.496
319.20 5.49
319.30 5.483
319.40 5.477
319.50 5.47
319.60 5.464
319.70 5.457
319.80 5.451
319.90 5.444
320.00 5.438
320.10 5.431
320.20 5.425
320.30 5.418
320.40 5.412
320.50 5.405
320.60 5.399
320.70 5.393
320.80 5.386
320.90 5.38
321.00 5.373
321.10 5.367
321.20 5.361
321.30 5.354
321.40 5.348
321.50 5.342
321.60 5.335
321.70 5.329
321.80 5.323
321.90 5.316
322.00 5.31
322.10 5.304
322.20 5.298
322.30 5.291
322.40 5.285
322.50 5.279
322.60 5.273
322.70 5.266
322.80 5.26
322.90 5.254
323.00 5.248
323.10 5.242
323.20 5.236
323.30 5.229
323.40 5.223
323.50 5.217
323.60 5.211
323.70 5.205
323.80 5.199
323.90 5.193
324.00 5.186
324.10 5.18
324.20 5.174
324.30 5.168
324.40 5.162
324.50 5.156
324.60 5.15
324.70 5.144
324.80 5.138
324.90 5.132
325.00 5.126
325.10 5.12
325.20 5.114
325.30 5.108
325.40 5.102
325.50 5.096
325.60 5.09
325.70 5.084
325.80 5.078
325.90 5.072
326.00 5.066
326.10 5.06
326.20 5.055
326.30 5.049
326.40 5.043
326.50 5.037
326.60 5.031
326.70 5.025
326.80 5.019
326.90 5.013
327.00 5.008
327.10 5.002
327.20 4.996
327.30 4.99
327.40 4.984
327.50 4.979
327.60 4.973
327.70 4.967
327.80 4.961
327.90 4.955
328.00 4.95
328.10 4.944
328.20 4.938
328.30 4.932
328.40 4.927
328.50 4.921
328.60 4.915
328.70 4.91
328.80 4.904
328.90 4.898
329.00 4.893
329.10 4.887
329.20 4.881
329.30 4.876
329.40 4.87
329.50 4.864
329.60 4.859
329.70 4.853
329.80 4.848
329.90 4.842
330.00 4.836
330.10 4.831
330.20 4.825
330.30 4.82
330.40 4.814
330.50 4.809
330.60 4.803
330.70 4.798
330.80 4.792
330.90 4.787
331.00 4.781
331.10 4.776
331.20 4.77
331.30 4.765
331.40 4.759
331.50 4.754
331.60 4.748
331.70 4.743
331.80 4.737
331.90 4.732
332.00 4.726
332.10 4.721
332.20 4.716
332.30 4.71
332.40 4.705
332.50 4.699
332.60 4.694
332.70 4.689
332.80 4.683
332.90 4.678
333.00 4.673
333.10 4.667
333.20 4.662
333.30 4.657
333.40 4.651
333.50 4.646
333.60 4.641
333.70 4.635
333.80 4.63
333.90 4.625
334.00 4.619
334.10 4.614
334.20 4.609
334.30 4.604
334.40 4.598
334.50 4.593
334.60 4.588
334.70 4.583
334.80 4.578
334.90 4.572
335.00 4.567
335.10 4.562
335.20 4.557
335.30 4.552
335.40 4.546
335.50 4.541
335.60 4.536
335.70 4.531
335.80 4.526
335.90 4.521
336.00 4.515
336.10 4.51
336.20 4.505
336.30 4.5
336.40 4.495
336.50 4.49
336.60 4.485
336.70 4.48
336.80 4.475
336.90 4.47
337.00 4.465
337.10 4.46
337.20 4.455
337.30 4.449
337.40 4.444
337.50 4.439
337.60 4.434
337.70 4.429
337.80 4.424
337.90 4.419
338.00 4.414
338.10 4.409
338.20 4.404
338.30 4.4
338.40 4.395
338.50 4.39
338.60 4.385
338.70 4.38
338.80 4.375
338.90 4.37
339.00 4.365
339.10 4.36
339.20 4.355
339.30 4.35
339.40 4.345
339.50 4.341
339.60 4.336
339.70 4.331
339.80 4.326
339.90 4.321
340.00 4.316
340.10 4.311
340.20 4.307
340.30 4.302
340.40 4.297
340.50 4.292
340.60 4.287
340.70 4.283
340.80 4.278
340.90 4.273
341.00 4.268
341.10 4.263
341.20 4.259
341.30 4.254
341.40 4.249
341.50 4.244
341.60 4.24
341.70 4.235
341.80 4.23
341.90 4.225
342.00 4.221
342.10 4.216
342.20 4.211
342.30 4.207
342.40 4.202
342.50 4.197
342.60 4.193
342.70 4.188
342.80 4.183
342.90 4.179
343.00 4.174
343.10 4.169
343.20 4.165
343.30 4.16
343.40 4.155
343.50 4.151
343.60 4.146
343.70 4.142
343.80 4.137
343.90 4.132
344.00 4.128
344.10 4.123
344.20 4.119
344.30 4.114
344.40 4.11
344.50 4.105
344.60 4.101
344.70 4.096
344.80 4.091
344.90 4.087
345.00 4.082
345.10 4.078
345.20 4.073
345.30 4.069
345.40 4.064
345.50 4.06
345.60 4.055
345.70 4.051
345.80 4.046
345.90 4.042
346.00 4.038
346.10 4.033
346.20 4.029
346.30 4.024
346.40 4.02
346.50 4.015
346.60 4.011
346.70 4.007
346.80 4.002
346.90 3.998
347.00 3.993
347.10 3.989
347.20 3.985
347.30 3.98
347.40 3.976
347.50 3.971
347.60 3.967
347.70 3.963
347.80 3.958
347.90 3.954
348.00 3.95
348.10 3.945
348.20 3.941
348.30 3.937
348.40 3.932
348.50 3.928
348.60 3.924
348.70 3.92
348.80 3.915
348.90 3.911
349.00 3.907
349.10 3.902
349.20 3.898
349.30 3.894
349.40 3.89
349.50 3.885
349.60 3.881
349.70 3.877
349.80 3.873
349.90 3.868
350.00 3.864
350.10 3.86
350.20 3.856
350.30 3.852
350.40 3.847
350.50 3.843
350.60 3.839
350.70 3.835
350.80 3.831
350.90 3.827
351.00 3.822
351.10 3.818
351.20 3.814
351.30 3.81
351.40 3.806
351.50 3.802
351.60 3.798
351.70 3.793
351.80 3.789
351.90 3.785
352.00 3.781
352.10 3.777
352.20 3.773
352.30 3.769
352.40 3.765
352.50 3.761
352.60 3.757
352.70 3.753
352.80 3.748
352.90 3.744
353.00 3.74
353.10 3.736
353.20 3.732
353.30 3.728
353.40 3.724
353.50 3.72
353.60 3.716
353.70 3.712
353.80 3.708
353.90 3.704
354.00 3.7
354.10 3.696
354.20 3.692
354.30 3.688
354.40 3.684
354.50 3.68
354.60 3.676
354.70 3.672
354.80 3.668
354.90 3.664
355.00 3.661
355.10 3.657
355.20 3.653
355.30 3.649
355.40 3.645
355.50 3.641
355.60 3.637
355.70 3.633
355.80 3.629
355.90 3.625
356.00 3.621
356.10 3.617
356.20 3.614
356.30 3.61
356.40 3.606
356.50 3.602
356.60 3.598
356.70 3.594
356.80 3.59
356.90 3.587
357.00 3.583
357.10 3.579
357.20 3.575
357.30 3.571
357.40 3.567
357.50 3.564
357.60 3.56
357.70 3.556
357.80 3.552
357.90 3.548
358.00 3.545
358.10 3.541
358.20 3.537
358.30 3.533
358.40 3.53
358.50 3.526
358.60 3.522
358.70 3.518
358.80 3.515
358.90 3.511
359.00 3.507
359.10 3.503
359.20 3.5
359.30 3.496
359.40 3.492
359.50 3.488
359.60 3.485
359.70 3.481
359.80 3.477
359.90 3.474
360.00 3.47
360.10 3.466
360.20 3.463
360.30 3.459
360.40 3.455
360.50 3.452
360.60 3.448
360.70 3.444
360.80 3.441
360.90 3.437
361.00 3.433
361.10 3.43
361.20 3.426
361.30 3.423
361.40 3.419
361.50 3.415
361.60 3.412
361.70 3.408
361.80 3.404
361.90 3.401
362.00 3.397
362.10 3.394
362.20 3.39
362.30 3.387
362.40 3.383
362.50 3.379
362.60 3.376
362.70 3.372
362.80 3.369
362.90 3.365
363.00 3.362
363.10 3.358
363.20 3.355
363.30 3.351
363.40 3.348
363.50 3.344
363.60 3.34
363.70 3.337
363.80 3.333
363.90 3.33
364.00 3.326
364.10 3.323
364.20 3.319
364.30 3.316
364.40 3.313
364.50 3.309
364.60 3.306
364.70 3.302
364.80 3.299
364.90 3.295
365.00 3.292
365.10 3.288
365.20 3.285
365.30 3.281
365.40 3.278
365.50 3.275
365.60 3.271
365.70 3.268
365.80 3.264
365.90 3.261
366.00 3.257
366.10 3.254
366.20 3.251
366.30 3.247
366.40 3.244
366.50 3.24
366.60 3.237
366.70 3.234
366.80 3.23
366.90 3.227
367.00 3.223
367.10 3.22
367.20 3.217
367.30 3.213
367.40 3.21
367.50 3.206
367.60 3.203
367.70 3.2
367.80 3.196
367.90 3.193
368.00 3.189
368.10 3.186
368.20 3.183
368.30 3.179
368.40 3.176
368.50 3.173
368.60 3.169
368.70 3.166
368.80 3.163
368.90 3.159
369.00 3.156
369.10 3.153
369.20 3.15
369.30 3.146
369.40 3.143
369.50 3.14
369.60 3.136
369.70 3.133
369.80 3.13
369.90 3.126
370.00 3.123
370.10 3.12
370.20 3.117
370.30 3.113
370.40 3.11
370.50 3.107
370.60 3.104
370.70 3.1
370.80 3.097
370.90 3.094
371.00 3.091
371.10 3.088
371.20 3.084
371.30 3.081
371.40 3.078
371.50 3.075
371.60 3.071
371.70 3.068
371.80 3.065
371.90 3.062
372.00 3.059
372.10 3.055
372.20 3.052
372.30 3.049
372.40 3.046
372.50 3.043
372.60 3.04
372.70 3.037
372.80 3.034
372.90 3.03
373.00 3.027
373.10 3.024
373.20 3.021
373.30 3.018
373.40 3.015
373.50 3.012
373.60 3.009
373.70 3.005
373.80 3.002
373.90 2.999
374.00 2.996
374.10 2.993
374.20 2.99
374.30 2.987
374.40 2.984
374.50 2.981
374.60 2.978
374.70 2.975
374.80 2.972
374.90 2.969
375.00 2.966
375.10 2.963
375.20 2.96
375.30 2.957
375.40 2.954
375.50 2.951
375.60 2.948
375.70 2.945
375.80 2.942
375.90 2.939
376.00 2.936
376.10 2.933
376.20 2.93
376.30 2.927
376.40 2.924
376.50 2.921
376.60 2.918
376.70 2.915
376.80 2.912
376.90 2.909
377.00 2.906
377.10 2.903
377.20 2.901
377.30 2.898
377.40 2.895
377.50 2.892
377.60 2.889
377.70 2.887
377.80 2.884
377.90 2.881
378.00 2.878
378.10 2.875
378.20 2.872
378.30 2.869
378.40 2.867
378.50 2.864
378.60 2.861
378.70 2.858
378.80 2.855
378.90 2.852
379.00 2.849
379.10 2.846
379.20 2.843
379.30 2.841
379.40 2.838
379.50 2.835
379.60 2.832
379.70 2.829
379.80 2.826
379.90 2.823
380.00 2.82
380.10 2.818
380.20 2.816
380.30 2.813
380.40 2.811
380.50 2.808
380.60 2.806
380.70 2.803
380.80 2.801
380.90 2.798
381.00 2.796
381.10 2.793
381.20 2.79
381.30 2.788
381.40 2.785
381.50 2.782
381.60 2.78
381.70 2.777
381.80 2.774
381.90 2.771
382.00 2.768
382.10 2.765
382.20 2.762
382.30 2.758
382.40 2.755
382.50 2.752
382.60 2.748
382.70 2.745
382.80 2.741
382.90 2.738
383.00 2.735
383.10 2.731
383.20 2.728
383.30 2.725
383.40 2.721
383.50 2.719
383.60 2.716
383.70 2.714
383.80 2.712
383.90 2.711
384.00 2.709
384.10 2.708
384.20 2.706
384.30 2.704
384.40 2.703
384.50 2.701
384.60 2.699
384.70 2.697
384.80 2.695
384.90 2.694
385.00 2.692
385.10 2.689
385.20 2.687
385.30 2.685
385.40 2.683
385.50 2.68
385.60 2.678
385.70 2.676
385.80 2.673
385.90 2.67
386.00 2.668
386.10 2.665
386.20 2.662
386.30 2.659
386.40 2.656
386.50 2.653
386.60 2.65
386.70 2.647
386.80 2.644
386.90 2.64
387.00 2.637
387.10 2.633
387.20 2.629
387.30 2.626
387.40 2.622
387.50 2.618
387.60 2.614
387.70 2.61
387.80 2.605
387.90 2.601
388.00 2.597
388.10 2.592
388.20 2.587
388.30 2.583
388.40 2.578
388.50 2.573
388.60 2.568
388.70 2.564
388.80 2.561
388.90 2.558
389.00 2.556
389.10 2.555
389.20 2.554
389.30 2.554
389.40 2.554
389.50 2.554
389.60 2.554
389.70 2.554
389.80 2.554
389.90 2.554
390.00 2.553
390.10 2.553
390.20 2.552
390.30 2.552
390.40 2.551
390.50 2.55
390.60 2.549
390.70 2.548
390.80 2.547
390.90 2.546
391.00 2.544
391.10 2.543
391.20 2.542
391.30 2.54
391.40 2.538
391.50 2.537
391.60 2.535
391.70 2.533
391.80 2.531
391.90 2.53
392.00 2.528
392.10 2.526
392.20 2.523
392.30 2.521
392.40 2.519
392.50 2.517
392.60 2.514
392.70 2.512
392.80 2.51
392.90 2.507
393.00 2.505
393.10 2.502
393.20 2.499
393.30 2.497
393.40 2.494
393.50 2.491
393.60 2.488
393.70 2.485
393.80 2.482
393.90 2.479
394.00 2.475
394.10 2.472
394.20 2.469
394.30 2.465
394.40 2.461
394.50 2.458
394.60 2.454
394.70 2.45
394.80 2.446
394.90 2.441
395.00 2.437
395.10 2.433
395.20 2.428
395.30 2.423
395.40 2.418
395.50 2.413
395.60 2.408
395.70 2.402
395.80 2.396
395.90 2.39
396.00 2.384
396.10 2.378
396.20 2.371
396.30 2.364
396.40 2.357
396.50 2.35
396.60 2.343
396.70 2.335
396.80 2.327
396.90 2.319
397.00 2.312
397.10 2.314
397.20 2.317
397.30 2.321
397.40 2.324
397.50 2.328
397.60 2.331
397.70 2.333
397.80 2.336
397.90 2.338
398.00 2.34
398.10 2.341
398.20 2.343
398.30 2.344
398.40 2.345
398.50 2.346
398.60 2.347
398.70 2.347
398.80 2.348
398.90 2.348
399.00 2.348
399.10 2.348
399.20 2.348
399.30 2.347
399.40 2.347
399.50 2.346
399.60 2.345
399.70 2.345
399.80 2.344
399.90 2.343
400.00 2.342
400.10 2.34
400.20 2.339
400.30 2.338
400.40 2.337
400.50 2.335
400.60 2.334
400.70 2.332
400.80 2.331
400.90 2.329
401.00 2.328
401.10 2.326
401.20 2.324
401.30 2.323
401.40 2.321
401.50 2.319
401.60 2.317
401.70 2.315
401.80 2.313
401.90 2.311
402.00 2.31
402.10 2.308
402.20 2.306
402.30 2.304
402.40 2.302
402.50 2.3
402.60 2.298
402.70 2.296
402.80 2.294
402.90 2.291
403.00 2.289
403.10 2.287
403.20 2.285
403.30 2.283
403.40 2.281
403.50 2.279
403.60 2.277
403.70 2.274
403.80 2.272
403.90 2.27
404.00 2.268
404.10 2.266
404.20 2.263
404.30 2.261
404.40 2.259
404.50 2.256
404.60 2.254
404.70 2.252
404.80 2.249
404.90 2.247
405.00 2.245
405.10 2.242
405.20 2.24
405.30 2.237
405.40 2.235
405.50 2.232
405.60 2.23
405.70 2.227
405.80 2.225
405.90 2.222
406.00 2.219
406.10 2.217
406.20 2.214
406.30 2.211
406.40 2.208
406.50 2.205
406.60 2.202
406.70 2.199
406.80 2.196
406.90 2.193
407.00 2.19
407.10 2.187
407.20 2.183
407.30 2.18
407.40 2.176
407.50 2.172
407.60 2.168
407.70 2.164
407.80 2.16
407.90 2.156
408.00 2.151
408.10 2.146
408.20 2.141
408.30 2.136
408.40 2.131
408.50 2.125
408.60 2.119
408.70 2.113
408.80 2.106
408.90 2.099
409.00 2.092
409.10 2.085
409.20 2.077
409.30 2.068
409.40 2.059
409.50 2.05
409.60 2.04
409.70 2.029
409.80 2.017
409.90 2.005
410.00 1.995
410.10 1.99
410.20 1.991
410.30 1.989
410.40 1.992
410.50 2
410.60 2.008
410.70 2.015
410.80 2.022
410.90 2.028
411.00 2.033
411.10 2.038
411.20 2.042
411.30 2.046
411.40 2.05
411.50 2.053
411.60 2.056
411.70 2.058
411.80 2.06
411.90 2.062
412.00 2.063
412.10 2.065
412.20 2.066
412.30 2.066
412.40 2.067
412.50 2.067
412.60 2.068
412.70 2.068
412.80 2.068
412.90 2.068
413.00 2.067
413.10 2.067
413.20 2.066
413.30 2.066
413.40 2.065
413.50 2.064
413.60 2.063
413.70 2.062
413.80 2.061
413.90 2.06
414.00 2.059
414.10 2.058
414.20 2.056
414.30 2.055
414.40 2.054
414.50 2.053
414.60 2.051
414.70 2.05
414.80 2.048
414.90 2.047
415.00 2.045
415.10 2.044
415.20 2.042
415.30 2.041
415.40 2.039
415.50 2.037
415.60 2.036
415.70 2.034
415.80 2.033
415.90 2.031
416.00 2.029
416.10 2.028
416.20 2.026
416.30 2.024
416.40 2.022
416.50 2.021
416.60 2.019
416.70 2.017
416.80 2.016
416.90 2.014
417.00 2.012
417.10 2.01
417.20 2.009
417.30 2.007
417.40 2.005
417.50 2.003
417.60 2.002
417.70 2
417.80 1.998
417.90 1.996
418.00 1.995
418.10 1.993
418.20 1.991
418.30 1.989
418.40 1.988
418.50 1.986
418.60 1.984
418.70 1.982
418.80 1.98
418.90 1.979
419.00 1.977
419.10 1.975
419.20 1.973
419.30 1.972
419.40 1.97
419.50 1.968
419.60 1.966
419.70 1.965
419.80 1.963
419.90 1.961
420.00 1.959
420.10 1.957
420.20 1.956
420.30 1.954
420.40 1.952
420.50 1.95
420.60 1.949
420.70 1.947
420.80 1.945
420.90 1.943
421.00 1.942
421.10 1.94
421.20 1.938
421.30 1.936
421.40 1.934
421.50 1.933
421.60 1.931
421.70 1.929
421.80 1.927
421.90 1.926
422.00 1.924
422.10 1.922
422.20 1.92
422.30 1.919
422.40 1.917
422.50 1.915
422.60 1.913
422.70 1.912
422.80 1.91
422.90 1.908
423.00 1.906
423.10 1.905
423.20 1.903
423.30 1.901
423.40 1.899
423.50 1.898
423.60 1.896
423.70 1.894
423.80 1.892
423.90 1.891
424.00 1.889
424.10 1.887
424.20 1.885
424.30 1.884
424.40 1.882
424.50 1.88
424.60 1.879
424.70 1.877
424.80 1.875
424.90 1.873
425.00 1.872
425.10 1.87
425.20 1.868
425.30 1.866
425.40 1.865
425.50 1.863
425.60 1.861
425.70 1.859
425.80 1.858
425.90 1.856
426.00 1.854
426.10 1.853
426.20 1.851
426.30 1.849
426.40 1.847
426.50 1.846
426.60 1.844
426.70 1.842
426.80 1.84
426.90 1.839
427.00 1.837
427.10 1.835
427.20 1.833
427.30 1.832
427.40 1.83
427.50 1.828
427.60 1.826
427.70 1.824
427.80 1.823
427.90 1.821
428.00 1.819
428.10 1.817
428.20 1.815
428.30 1.814
428.40 1.812
428.50 1.81
428.60 1.808
428.70 1.806
428.80 1.804
428.90 1.802
429.00 1.801
429.10 1.799
429.20 1.797
429.30 1.795
429.40 1.793
429.50 1.791
429.60 1.789
429.70 1.787
429.80 1.785
429.90 1.782
430.00 1.78
430.10 1.778
430.20 1.776
430.30 1.774
430.40 1.771
430.50 1.769
430.60 1.767
430.70 1.764
430.80 1.761
430.90 1.759
431.00 1.756
431.10 1.753
431.20 1.75
431.30 1.747
431.40 1.744
431.50 1.741
431.60 1.737
431.70 1.734
431.80 1.73
431.90 1.726
432.00 1.722
432.10 1.718
432.20 1.713
432.30 1.708
432.40 1.703
432.50 1.697
432.60 1.691
432.70 1.685
432.80 1.678
432.90 1.671
433.00 1.663
433.10 1.655
433.20 1.646
433.30 1.637
433.40 1.626
433.50 1.615
433.60 1.604
433.70 1.59
433.80 1.575
433.90 1.559
434.00 1.543
434.10 1.542
434.20 1.556
434.30 1.569
434.40 1.581
434.50 1.592
434.60 1.601
434.70 1.609
434.80 1.616
434.90 1.623
435.00 1.628
435.10 1.634
435.20 1.638
435.30 1.642
435.40 1.646
435.50 1.649
435.60 1.652
435.70 1.655
435.80 1.657
435.90 1.659
436.00 1.66
436.10 1.662
436.20 1.663
436.30 1.664
436.40 1.664
436.50 1.665
436.60 1.665
436.70 1.665
436.80 1.665
436.90 1.665
437.00 1.665
437.10 1.665
437.20 1.664
437.30 1.664
437.40 1.663
437.50 1.663
437.60 1.662
437.70 1.661
437.80 1.66
437.90 1.66
438.00 1.659
438.10 1.658
438.20 1.657
438.30 1.656
438.40 1.655
438.50 1.654
438.60 1.653
438.70 1.651
438.80 1.65
438.90 1.649
439.00 1.648
439.10 1.647
439.20 1.646
439.30 1.644
439.40 1.643
439.50 1.642
439.60 1.641
439.70 1.639
439.80 1.638
439.90 1.637
440.00 1.636
440.10 1.634
440.20 1.633
440.30 1.632
440.40 1.63
440.50 1.629
440.60 1.628
440.70 1.627
440.80 1.625
440.90 1.624
441.00 1.623
441.10 1.621
441.20 1.62
441.30 1.619
441.40 1.617
441.50 1.616
441.60 1.615
441.70 1.613
441.80 1.612
441.90 1.61
442.00 1.609
442.10 1.608
442.20 1.606
442.30 1.605
442.40 1.604
442.50 1.602
442.60 1.601
442.70 1.6
442.80 1.598
442.90 1.597
443.00 1.596
443.10 1.594
443.20 1.593
443.30 1.592
443.40 1.59
443.50 1.589
443.60 1.587
443.70 1.586
443.80 1.585
443.90 1.583
444.00 1.582
444.10 1.581
444.20 1.579
444.30 1.578
444.40 1.577
444.50 1.575
444.60 1.574
444.70 1.573
444.80 1.571
444.90 1.57
445.00 1.569
445.10 1.567
445.20 1.566
445.30 1.565
445.40 1.563
445.50 1.562
445.60 1.561
445.70 1.559
445.80 1.558
445.90 1.557
446.00 1.555
446.10 1.554
446.20 1.553
446.30 1.551
446.40 1.55
446.50 1.549
446.60 1.547
446.70 1.546
446.80 1.545
446.90 1.543
447.00 1.542
447.10 1.541
447.20 1.539
447.30 1.538
447.40 1.537
447.50 1.535
447.60 1.534
447.70 1.533
447.80 1.531
447.90 1.53
448.00 1.529
448.10 1.527
448.20 1.526
448.30 1.525
448.40 1.524
448.50 1.522
448.60 1.521
448.70 1.52
448.80 1.518
448.90 1.517
449.00 1.516
449.10 1.514
449.20 1.513
449.30 1.512
449.40 1.511
449.50 1.509
449.60 1.508
449.70 1.507
449.80 1.505
449.90 1.504
450.00 1.503
450.10 1.502
450.20 1.5
450.30 1.499
450.40 1.498
450.50 1.496
450.60 1.495
450.70 1.494
450.80 1.493
450.90 1.491
451.00 1.49
451.10 1.489
451.20 1.487
451.30 1.486
451.40 1.485
451.50 1.484
451.60 1.482
451.70 1.481
451.80 1.48
451.90 1.479
452.00 1.477
452.10 1.476
452.20 1.475
452.30 1.474
452.40 1.472
452.50 1.471
452.60 1.47
452.70 1.469
452.80 1.467
452.90 1.466
453.00 1.465
453.10 1.464
453.20 1.462
453.30 1.461
453.40 1.46
453.50 1.459
453.60 1.457
453.70 1.456
453.80 1.455
453.90 1.454
454.00 1.452
454.10 1.451
