# Version 2.1 - nm, norm@500 to 1, cut digits, bergeron_5500_75.dat_5500
# Wavelength(nm)  Flambda(ergs/cm^s/s/nm)
300.00 0.5086
300.10 0.5091
300.20 0.5096
300.30 0.5101
300.40 0.5106
300.50 0.5111
300.60 0.5116
300.70 0.5121
300.80 0.5126
300.90 0.5131
301.00 0.5136
301.10 0.5141
301.20 0.5145
301.30 0.515
301.40 0.5155
301.50 0.516
301.60 0.5165
301.70 0.517
301.80 0.5175
301.90 0.518
302.00 0.5184
302.10 0.5189
302.20 0.5194
302.30 0.5199
302.40 0.5204
302.50 0.5209
302.60 0.5214
302.70 0.5219
302.80 0.5224
302.90 0.5229
303.00 0.5233
303.10 0.5238
303.20 0.5243
303.30 0.5248
303.40 0.5253
303.50 0.5258
303.60 0.5263
303.70 0.5267
303.80 0.5272
303.90 0.5277
304.00 0.5282
304.10 0.5287
304.20 0.5292
304.30 0.5297
304.40 0.5302
304.50 0.5306
304.60 0.5311
304.70 0.5316
304.80 0.5321
304.90 0.5326
305.00 0.5331
305.10 0.5336
305.20 0.534
305.30 0.5345
305.40 0.535
305.50 0.5355
305.60 0.536
305.70 0.5365
305.80 0.5369
305.90 0.5374
306.00 0.5379
306.10 0.5384
306.20 0.5389
306.30 0.5394
306.40 0.5399
306.50 0.5403
306.60 0.5408
306.70 0.5413
306.80 0.5418
306.90 0.5423
307.00 0.5428
307.10 0.5432
307.20 0.5437
307.30 0.5442
307.40 0.5447
307.50 0.5452
307.60 0.5456
307.70 0.5461
307.80 0.5466
307.90 0.5471
308.00 0.5476
308.10 0.548
308.20 0.5485
308.30 0.549
308.40 0.5495
308.50 0.55
308.60 0.5505
308.70 0.5509
308.80 0.5514
308.90 0.5519
309.00 0.5524
309.10 0.5529
309.20 0.5533
309.30 0.5538
309.40 0.5543
309.50 0.5548
309.60 0.5553
309.70 0.5557
309.80 0.5562
309.90 0.5567
310.00 0.5572
310.10 0.5576
310.20 0.5581
310.30 0.5586
310.40 0.5591
310.50 0.5596
310.60 0.56
310.70 0.5605
310.80 0.561
310.90 0.5615
311.00 0.562
311.10 0.5624
311.20 0.5629
311.30 0.5634
311.40 0.5639
311.50 0.5643
311.60 0.5648
311.70 0.5653
311.80 0.5658
311.90 0.5662
312.00 0.5667
312.10 0.5672
312.20 0.5676
312.30 0.5681
312.40 0.5686
312.50 0.5691
312.60 0.5696
312.70 0.57
312.80 0.5705
312.90 0.571
313.00 0.5715
313.10 0.5719
313.20 0.5724
313.30 0.5729
313.40 0.5733
313.50 0.5738
313.60 0.5743
313.70 0.5748
313.80 0.5752
313.90 0.5757
314.00 0.5762
314.10 0.5766
314.20 0.5771
314.30 0.5776
314.40 0.5781
314.50 0.5785
314.60 0.579
314.70 0.5795
314.80 0.58
314.90 0.5804
315.00 0.5809
315.10 0.5814
315.20 0.5818
315.30 0.5823
315.40 0.5828
315.50 0.5832
315.60 0.5837
315.70 0.5842
315.80 0.5846
315.90 0.5851
316.00 0.5856
316.10 0.586
316.20 0.5865
316.30 0.587
316.40 0.5874
316.50 0.5879
316.60 0.5884
316.70 0.5889
316.80 0.5893
316.90 0.5898
317.00 0.5903
317.10 0.5907
317.20 0.5912
317.30 0.5917
317.40 0.5921
317.50 0.5926
317.60 0.593
317.70 0.5935
317.80 0.594
317.90 0.5944
318.00 0.5949
318.10 0.5954
318.20 0.5958
318.30 0.5963
318.40 0.5968
318.50 0.5972
318.60 0.5977
318.70 0.5982
318.80 0.5986
318.90 0.5991
319.00 0.5995
319.10 0.6
319.20 0.6005
319.30 0.6009
319.40 0.6014
319.50 0.6019
319.60 0.6023
319.70 0.6028
319.80 0.6032
319.90 0.6037
320.00 0.6041
320.10 0.6046
320.20 0.6051
320.30 0.6055
320.40 0.606
320.50 0.6065
320.60 0.6069
320.70 0.6074
320.80 0.6079
320.90 0.6083
321.00 0.6088
321.10 0.6092
321.20 0.6097
321.30 0.6101
321.40 0.6106
321.50 0.6111
321.60 0.6115
321.70 0.612
321.80 0.6124
321.90 0.6129
322.00 0.6133
322.10 0.6138
322.20 0.6143
322.30 0.6147
322.40 0.6152
322.50 0.6156
322.60 0.6161
322.70 0.6166
322.80 0.617
322.90 0.6175
323.00 0.6179
323.10 0.6184
323.20 0.6188
323.30 0.6193
323.40 0.6197
323.50 0.6202
323.60 0.6206
323.70 0.6211
323.80 0.6215
323.90 0.622
324.00 0.6224
324.10 0.6229
324.20 0.6233
324.30 0.6238
324.40 0.6243
324.50 0.6247
324.60 0.6252
324.70 0.6256
324.80 0.6261
324.90 0.6265
325.00 0.627
325.10 0.6274
325.20 0.6279
325.30 0.6283
325.40 0.6288
325.50 0.6292
325.60 0.6297
325.70 0.6301
325.80 0.6305
325.90 0.631
326.00 0.6314
326.10 0.6319
326.20 0.6323
326.30 0.6328
326.40 0.6332
326.50 0.6337
326.60 0.6341
326.70 0.6346
326.80 0.635
326.90 0.6355
327.00 0.6359
327.10 0.6364
327.20 0.6368
327.30 0.6372
327.40 0.6377
327.50 0.6381
327.60 0.6386
327.70 0.639
327.80 0.6395
327.90 0.6399
328.00 0.6403
328.10 0.6408
328.20 0.6412
328.30 0.6417
328.40 0.6421
328.50 0.6426
328.60 0.643
328.70 0.6435
328.80 0.6439
328.90 0.6443
329.00 0.6448
329.10 0.6452
329.20 0.6457
329.30 0.6461
329.40 0.6466
329.50 0.647
329.60 0.6474
329.70 0.6479
329.80 0.6483
329.90 0.6487
330.00 0.6492
330.10 0.6496
330.20 0.6501
330.30 0.6505
330.40 0.651
330.50 0.6514
330.60 0.6518
330.70 0.6523
330.80 0.6527
330.90 0.6532
331.00 0.6536
331.10 0.654
331.20 0.6545
331.30 0.6549
331.40 0.6553
331.50 0.6558
331.60 0.6562
331.70 0.6566
331.80 0.6571
331.90 0.6575
332.00 0.6579
332.10 0.6584
332.20 0.6588
332.30 0.6592
332.40 0.6597
332.50 0.6601
332.60 0.6605
332.70 0.661
332.80 0.6614
332.90 0.6618
333.00 0.6623
333.10 0.6627
333.20 0.6631
333.30 0.6636
333.40 0.664
333.50 0.6644
333.60 0.6648
333.70 0.6653
333.80 0.6657
333.90 0.6661
334.00 0.6665
334.10 0.667
334.20 0.6674
334.30 0.6678
334.40 0.6683
334.50 0.6687
334.60 0.6691
334.70 0.6696
334.80 0.67
334.90 0.6704
335.00 0.6709
335.10 0.6713
335.20 0.6717
335.30 0.6721
335.40 0.6726
335.50 0.673
335.60 0.6734
335.70 0.6738
335.80 0.6743
335.90 0.6747
336.00 0.6751
336.10 0.6755
336.20 0.676
336.30 0.6764
336.40 0.6768
336.50 0.6773
336.60 0.6777
336.70 0.6781
336.80 0.6785
336.90 0.679
337.00 0.6794
337.10 0.6798
337.20 0.6802
337.30 0.6806
337.40 0.6811
337.50 0.6815
337.60 0.6819
337.70 0.6823
337.80 0.6827
337.90 0.6832
338.00 0.6836
338.10 0.684
338.20 0.6844
338.30 0.6848
338.40 0.6853
338.50 0.6857
338.60 0.6861
338.70 0.6865
338.80 0.6869
338.90 0.6874
339.00 0.6878
339.10 0.6882
339.20 0.6886
339.30 0.689
339.40 0.6894
339.50 0.6899
339.60 0.6903
339.70 0.6907
339.80 0.6911
339.90 0.6915
340.00 0.6919
340.10 0.6923
340.20 0.6927
340.30 0.6932
340.40 0.6936
340.50 0.694
340.60 0.6944
340.70 0.6948
340.80 0.6952
340.90 0.6956
341.00 0.6961
341.10 0.6965
341.20 0.6969
341.30 0.6973
341.40 0.6977
341.50 0.6981
341.60 0.6985
341.70 0.6989
341.80 0.6993
341.90 0.6997
342.00 0.7002
342.10 0.7006
342.20 0.701
342.30 0.7014
342.40 0.7018
342.50 0.7022
342.60 0.7026
342.70 0.703
342.80 0.7034
342.90 0.7038
343.00 0.7043
343.10 0.7047
343.20 0.7051
343.30 0.7055
343.40 0.7059
343.50 0.7063
343.60 0.7067
343.70 0.7071
343.80 0.7075
343.90 0.7079
344.00 0.7083
344.10 0.7087
344.20 0.7091
344.30 0.7095
344.40 0.7099
344.50 0.7103
344.60 0.7107
344.70 0.7111
344.80 0.7115
344.90 0.7119
345.00 0.7123
345.10 0.7127
345.20 0.7131
345.30 0.7135
345.40 0.7139
345.50 0.7143
345.60 0.7147
345.70 0.7151
345.80 0.7155
345.90 0.7159
346.00 0.7163
346.10 0.7167
346.20 0.7171
346.30 0.7175
346.40 0.7179
346.50 0.7183
346.60 0.7187
346.70 0.7191
346.80 0.7195
346.90 0.7199
347.00 0.7203
347.10 0.7207
347.20 0.7211
347.30 0.7215
347.40 0.7219
347.50 0.7223
347.60 0.7227
347.70 0.7231
347.80 0.7235
347.90 0.7239
348.00 0.7243
348.10 0.7246
348.20 0.725
348.30 0.7254
348.40 0.7258
348.50 0.7262
348.60 0.7266
348.70 0.727
348.80 0.7274
348.90 0.7278
349.00 0.7282
349.10 0.7286
349.20 0.729
349.30 0.7293
349.40 0.7297
349.50 0.7301
349.60 0.7305
349.70 0.7309
349.80 0.7313
349.90 0.7317
350.00 0.7321
350.10 0.7324
350.20 0.7328
350.30 0.7332
350.40 0.7336
350.50 0.734
350.60 0.7344
350.70 0.7348
350.80 0.7352
350.90 0.7356
351.00 0.7359
351.10 0.7363
351.20 0.7367
351.30 0.7371
351.40 0.7375
351.50 0.7379
351.60 0.7382
351.70 0.7386
351.80 0.739
351.90 0.7394
352.00 0.7398
352.10 0.7402
352.20 0.7405
352.30 0.7409
352.40 0.7413
352.50 0.7417
352.60 0.7421
352.70 0.7425
352.80 0.7428
352.90 0.7432
353.00 0.7436
353.10 0.744
353.20 0.7444
353.30 0.7447
353.40 0.7451
353.50 0.7455
353.60 0.7459
353.70 0.7462
353.80 0.7466
353.90 0.747
354.00 0.7474
354.10 0.7477
354.20 0.7481
354.30 0.7485
354.40 0.7489
354.50 0.7493
354.60 0.7496
354.70 0.75
354.80 0.7504
354.90 0.7508
355.00 0.7511
355.10 0.7515
355.20 0.7519
355.30 0.7523
355.40 0.7526
355.50 0.753
355.60 0.7534
355.70 0.7537
355.80 0.7541
355.90 0.7545
356.00 0.7548
356.10 0.7552
356.20 0.7556
356.30 0.756
356.40 0.7563
356.50 0.7567
356.60 0.7571
356.70 0.7574
356.80 0.7578
356.90 0.7582
357.00 0.7585
357.10 0.7589
357.20 0.7593
357.30 0.7596
357.40 0.76
357.50 0.7604
357.60 0.7607
357.70 0.7611
357.80 0.7615
357.90 0.7618
358.00 0.7622
358.10 0.7626
358.20 0.7629
358.30 0.7633
358.40 0.7637
358.50 0.764
358.60 0.7644
358.70 0.7647
358.80 0.7651
358.90 0.7655
359.00 0.7658
359.10 0.7662
359.20 0.7666
359.30 0.7669
359.40 0.7673
359.50 0.7676
359.60 0.768
359.70 0.7684
359.80 0.7687
359.90 0.7691
360.00 0.7694
360.10 0.7698
360.20 0.7702
360.30 0.7705
360.40 0.7709
360.50 0.7712
360.60 0.7716
360.70 0.772
360.80 0.7723
360.90 0.7727
361.00 0.773
361.10 0.7734
361.20 0.7737
361.30 0.7741
361.40 0.7745
361.50 0.7748
361.60 0.7752
361.70 0.7755
361.80 0.7759
361.90 0.7762
362.00 0.7766
362.10 0.7769
362.20 0.7773
362.30 0.7776
362.40 0.778
362.50 0.7783
362.60 0.7787
362.70 0.779
362.80 0.7794
362.90 0.7797
363.00 0.7801
363.10 0.7804
363.20 0.7808
363.30 0.7811
363.40 0.7815
363.50 0.7818
363.60 0.7822
363.70 0.7825
363.80 0.7829
363.90 0.7832
364.00 0.7836
364.10 0.7839
364.20 0.7843
364.30 0.7846
364.40 0.785
364.50 0.7853
364.60 0.7857
364.70 0.786
364.80 0.7864
364.90 0.7867
365.00 0.7871
365.10 0.7874
365.20 0.7878
365.30 0.7881
365.40 0.7884
365.50 0.7888
365.60 0.7891
365.70 0.7895
365.80 0.7898
365.90 0.7901
366.00 0.7905
366.10 0.7908
366.20 0.7912
366.30 0.7915
366.40 0.7919
366.50 0.7922
366.60 0.7925
366.70 0.7929
366.80 0.7932
366.90 0.7936
367.00 0.7939
367.10 0.7942
367.20 0.7946
367.30 0.7949
367.40 0.7953
367.50 0.7956
367.60 0.7959
367.70 0.7963
367.80 0.7966
367.90 0.7969
368.00 0.7973
368.10 0.7976
368.20 0.7979
368.30 0.7983
368.40 0.7986
368.50 0.7989
368.60 0.7993
368.70 0.7996
368.80 0.7999
368.90 0.8003
369.00 0.8006
369.10 0.8009
369.20 0.8013
369.30 0.8016
369.40 0.8019
369.50 0.8023
369.60 0.8026
369.70 0.8029
369.80 0.8033
369.90 0.8036
370.00 0.8039
370.10 0.8042
370.20 0.8046
370.30 0.8049
370.40 0.8052
370.50 0.8056
370.60 0.8059
370.70 0.8062
370.80 0.8065
370.90 0.8069
371.00 0.8072
371.10 0.8075
371.20 0.8078
371.30 0.8082
371.40 0.8085
371.50 0.8088
371.60 0.8091
371.70 0.8095
371.80 0.8098
371.90 0.8101
372.00 0.8104
372.10 0.8108
372.20 0.8111
372.30 0.8114
372.40 0.8117
372.50 0.8121
372.60 0.8124
372.70 0.8127
372.80 0.813
372.90 0.8134
373.00 0.8137
373.10 0.814
373.20 0.8143
373.30 0.8146
373.40 0.815
373.50 0.8153
373.60 0.8156
373.70 0.8159
373.80 0.8162
373.90 0.8166
374.00 0.8169
374.10 0.8172
374.20 0.8175
374.30 0.8178
374.40 0.8182
374.50 0.8185
374.60 0.8188
374.70 0.8191
374.80 0.8194
374.90 0.8197
375.00 0.8201
375.10 0.8204
375.20 0.8207
375.30 0.821
375.40 0.8213
375.50 0.8216
375.60 0.822
375.70 0.8223
375.80 0.8226
375.90 0.8229
376.00 0.8232
376.10 0.8235
376.20 0.8238
376.30 0.8242
376.40 0.8245
376.50 0.8248
376.60 0.8251
376.70 0.8254
376.80 0.8257
376.90 0.826
377.00 0.8263
377.10 0.8267
377.20 0.827
377.30 0.8273
377.40 0.8276
377.50 0.8279
377.60 0.8282
377.70 0.8285
377.80 0.8288
377.90 0.8291
378.00 0.8294
378.10 0.8297
378.20 0.83
378.30 0.8304
378.40 0.8307
378.50 0.831
378.60 0.8313
378.70 0.8316
378.80 0.8319
378.90 0.8322
379.00 0.8325
379.10 0.8327
379.20 0.833
379.30 0.8333
379.40 0.8335
379.50 0.8338
379.60 0.8341
379.70 0.8344
379.80 0.8346
379.90 0.8349
380.00 0.8352
380.10 0.8355
380.20 0.8359
380.30 0.8362
380.40 0.8366
380.50 0.8369
380.60 0.8373
380.70 0.8376
380.80 0.838
380.90 0.8383
381.00 0.8387
381.10 0.839
381.20 0.8393
381.30 0.8396
381.40 0.8399
381.50 0.8402
381.60 0.8405
381.70 0.8408
381.80 0.8411
381.90 0.8414
382.00 0.8417
382.10 0.842
382.20 0.8423
382.30 0.8425
382.40 0.8427
382.50 0.8429
382.60 0.8431
382.70 0.8433
382.80 0.8435
382.90 0.8436
383.00 0.8438
383.10 0.844
383.20 0.8442
383.30 0.844
383.40 0.8436
383.50 0.8426
383.60 0.8432
383.70 0.8447
383.80 0.8457
383.90 0.8464
384.00 0.847
384.10 0.8475
384.20 0.848
384.30 0.8484
384.40 0.8487
384.50 0.8491
384.60 0.8494
384.70 0.8497
384.80 0.85
384.90 0.8504
385.00 0.8507
385.10 0.851
385.20 0.8513
385.30 0.8516
385.40 0.8519
385.50 0.8522
385.60 0.8524
385.70 0.8528
385.80 0.8531
385.90 0.8534
386.00 0.8537
386.10 0.8539
386.20 0.8542
386.30 0.8545
386.40 0.8548
386.50 0.8551
386.60 0.8554
386.70 0.8556
386.80 0.8559
386.90 0.8562
387.00 0.8565
387.10 0.8567
387.20 0.857
387.30 0.8573
387.40 0.8575
387.50 0.8578
387.60 0.858
387.70 0.8583
387.80 0.8585
387.90 0.8587
388.00 0.8589
388.10 0.859
388.20 0.859
388.30 0.859
388.40 0.8588
388.50 0.8583
388.60 0.8575
388.70 0.8558
388.80 0.8531
388.90 0.8493
389.00 0.8534
389.10 0.8567
389.20 0.8591
389.30 0.8605
389.40 0.8615
389.50 0.8623
389.60 0.8629
389.70 0.8634
389.80 0.8639
389.90 0.8643
390.00 0.8647
390.10 0.865
390.20 0.8653
390.30 0.8657
390.40 0.866
390.50 0.8663
390.60 0.8666
390.70 0.8669
390.80 0.8672
390.90 0.8675
391.00 0.8677
391.10 0.868
391.20 0.8683
391.30 0.8686
391.40 0.8689
391.50 0.8692
391.60 0.8694
391.70 0.8697
391.80 0.87
391.90 0.8702
392.00 0.8705
392.10 0.8708
392.20 0.8711
392.30 0.8713
392.40 0.8716
392.50 0.8719
392.60 0.8722
392.70 0.8724
392.80 0.8727
392.90 0.8729
393.00 0.8732
393.10 0.8735
393.20 0.8738
393.30 0.874
393.40 0.8743
393.50 0.8745
393.60 0.8748
393.70 0.8751
393.80 0.8753
393.90 0.8756
394.00 0.8758
394.10 0.8761
394.20 0.8763
394.30 0.8766
394.40 0.8768
394.50 0.8771
394.60 0.8774
394.70 0.8776
394.80 0.8778
394.90 0.8781
395.00 0.8783
395.10 0.8785
395.20 0.8787
395.30 0.879
395.40 0.8792
395.50 0.8794
395.60 0.8796
395.70 0.8797
395.80 0.8799
395.90 0.88
396.00 0.88
396.10 0.8801
396.20 0.88
396.30 0.8798
396.40 0.8794
396.50 0.8785
396.60 0.8771
396.70 0.8751
396.80 0.8703
396.90 0.8631
397.00 0.8534
397.10 0.8629
397.20 0.8705
397.30 0.8761
397.40 0.8788
397.50 0.8809
397.60 0.8823
397.70 0.8832
397.80 0.884
397.90 0.8846
398.00 0.8851
398.10 0.8856
398.20 0.886
398.30 0.8863
398.40 0.8866
398.50 0.887
398.60 0.8873
398.70 0.8876
398.80 0.8879
398.90 0.8881
399.00 0.8884
399.10 0.8887
399.20 0.889
399.30 0.8892
399.40 0.8895
399.50 0.8898
399.60 0.89
399.70 0.8903
399.80 0.8905
399.90 0.8908
400.00 0.891
400.10 0.8913
400.20 0.8915
400.30 0.8918
400.40 0.892
400.50 0.8923
400.60 0.8925
400.70 0.8928
400.80 0.893
400.90 0.8933
401.00 0.8935
401.10 0.8938
401.20 0.894
401.30 0.8942
401.40 0.8945
401.50 0.8947
401.60 0.895
401.70 0.8952
401.80 0.8954
401.90 0.8957
402.00 0.8959
402.10 0.8961
402.20 0.8964
402.30 0.8966
402.40 0.8968
402.50 0.8971
402.60 0.8973
402.70 0.8975
402.80 0.8978
402.90 0.898
403.00 0.8982
403.10 0.8985
403.20 0.8987
403.30 0.8989
403.40 0.8992
403.50 0.8994
403.60 0.8996
403.70 0.8999
403.80 0.9001
403.90 0.9003
404.00 0.9006
404.10 0.9008
404.20 0.901
404.30 0.9013
404.40 0.9015
404.50 0.9017
404.60 0.9019
404.70 0.9022
404.80 0.9024
404.90 0.9026
405.00 0.9028
405.10 0.9031
405.20 0.9033
405.30 0.9035
405.40 0.9038
405.50 0.904
405.60 0.9042
405.70 0.9044
405.80 0.9046
405.90 0.9048
406.00 0.9051
406.10 0.9053
406.20 0.9055
406.30 0.9057
406.40 0.9059
406.50 0.9062
406.60 0.9064
406.70 0.9066
406.80 0.9068
406.90 0.907
407.00 0.9072
407.10 0.9074
407.20 0.9076
407.30 0.9078
407.40 0.908
407.50 0.9082
407.60 0.9084
407.70 0.9086
407.80 0.9088
407.90 0.909
408.00 0.9092
408.10 0.9094
408.20 0.9095
408.30 0.9097
408.40 0.9099
408.50 0.91
408.60 0.9101
408.70 0.9102
408.80 0.9103
408.90 0.9104
409.00 0.9104
409.10 0.9103
409.20 0.9102
409.30 0.9099
409.40 0.9094
409.50 0.9086
409.60 0.9076
409.70 0.9053
409.80 0.9016
409.90 0.8963
410.00 0.8828
410.10 0.8678
410.20 0.8511
410.30 0.8747
410.40 0.8915
410.50 0.9014
410.60 0.9057
410.70 0.9089
410.80 0.911
410.90 0.9122
411.00 0.9132
411.10 0.914
411.20 0.9146
411.30 0.9151
411.40 0.9156
411.50 0.916
411.60 0.9163
411.70 0.9167
411.80 0.917
411.90 0.9173
412.00 0.9175
412.10 0.9178
412.20 0.918
412.30 0.9183
412.40 0.9185
412.50 0.9188
412.60 0.919
412.70 0.9192
412.80 0.9195
412.90 0.9197
413.00 0.9199
413.10 0.9201
413.20 0.9203
413.30 0.9206
413.40 0.9208
413.50 0.921
413.60 0.9212
413.70 0.9214
413.80 0.9216
413.90 0.9218
414.00 0.922
414.10 0.9222
414.20 0.9224
414.30 0.9226
414.40 0.9228
414.50 0.923
414.60 0.9232
414.70 0.9235
414.80 0.9237
414.90 0.9239
415.00 0.9241
415.10 0.9243
415.20 0.9245
415.30 0.9247
415.40 0.9248
415.50 0.925
415.60 0.9252
415.70 0.9255
415.80 0.9257
415.90 0.9259
416.00 0.926
416.10 0.9262
416.20 0.9264
416.30 0.9266
416.40 0.9268
416.50 0.927
416.60 0.9272
416.70 0.9274
416.80 0.9276
416.90 0.9278
417.00 0.928
417.10 0.9282
417.20 0.9284
417.30 0.9285
417.40 0.9287
417.50 0.9289
417.60 0.9291
417.70 0.9293
417.80 0.9295
417.90 0.9297
418.00 0.9299
418.10 0.9301
418.20 0.9303
418.30 0.9305
418.40 0.9306
418.50 0.9308
418.60 0.931
418.70 0.9312
418.80 0.9314
418.90 0.9316
419.00 0.9318
419.10 0.9319
419.20 0.9321
419.30 0.9323
419.40 0.9325
419.50 0.9327
419.60 0.9329
419.70 0.9331
419.80 0.9332
419.90 0.9334
420.00 0.9336
420.10 0.9338
420.20 0.934
420.30 0.9341
420.40 0.9343
420.50 0.9345
420.60 0.9347
420.70 0.9349
420.80 0.9351
420.90 0.9352
421.00 0.9354
421.10 0.9356
421.20 0.9358
421.30 0.9359
421.40 0.9361
421.50 0.9363
421.60 0.9365
421.70 0.9367
421.80 0.9368
421.90 0.937
422.00 0.9372
422.10 0.9374
422.20 0.9375
422.30 0.9377
422.40 0.9379
422.50 0.9381
422.60 0.9382
422.70 0.9384
422.80 0.9386
422.90 0.9388
423.00 0.9389
423.10 0.9391
423.20 0.9393
423.30 0.9395
423.40 0.9396
423.50 0.9398
423.60 0.94
423.70 0.9402
423.80 0.9403
423.90 0.9405
424.00 0.9407
424.10 0.9408
424.20 0.941
424.30 0.9412
424.40 0.9414
424.50 0.9415
424.60 0.9417
424.70 0.9419
424.80 0.942
424.90 0.9422
425.00 0.9424
425.10 0.9425
425.20 0.9427
425.30 0.9429
425.40 0.943
425.50 0.9432
425.60 0.9434
425.70 0.9435
425.80 0.9437
425.90 0.9438
426.00 0.944
426.10 0.9442
426.20 0.9443
426.30 0.9445
426.40 0.9447
426.50 0.9448
426.60 0.945
426.70 0.9452
426.80 0.9453
426.90 0.9455
427.00 0.9457
427.10 0.9458
427.20 0.946
427.30 0.9461
427.40 0.9463
427.50 0.9464
427.60 0.9466
427.70 0.9468
427.80 0.9469
427.90 0.9471
428.00 0.9473
428.10 0.9474
428.20 0.9475
428.30 0.9477
428.40 0.9479
428.50 0.948
428.60 0.9482
428.70 0.9483
428.80 0.9485
428.90 0.9486
429.00 0.9488
429.10 0.9489
429.20 0.9491
429.30 0.9493
429.40 0.9494
429.50 0.9495
429.60 0.9497
429.70 0.9498
429.80 0.95
429.90 0.9501
430.00 0.9503
430.10 0.9504
430.20 0.9506
430.30 0.9507
430.40 0.9508
430.50 0.951
430.60 0.9511
430.70 0.9513
430.80 0.9514
430.90 0.9515
431.00 0.9516
431.10 0.9518
431.20 0.9519
431.30 0.952
431.40 0.9521
431.50 0.9522
431.60 0.9523
431.70 0.9524
431.80 0.9525
431.90 0.9526
432.00 0.9527
432.10 0.9528
432.20 0.9528
432.30 0.9528
432.40 0.9528
432.50 0.9528
432.60 0.9527
432.70 0.9526
432.80 0.9525
432.90 0.9522
433.00 0.9518
433.10 0.9512
433.20 0.9504
433.30 0.9494
433.40 0.9474
433.50 0.9445
433.60 0.9407
433.70 0.9318
433.80 0.9155
433.90 0.8918
434.00 0.8348
434.10 0.836
434.20 0.8953
434.30 0.918
434.40 0.9337
434.50 0.9424
434.60 0.9465
434.70 0.9495
434.80 0.9517
434.90 0.953
435.00 0.9541
435.10 0.9549
435.20 0.9556
435.30 0.9561
435.40 0.9566
435.50 0.957
435.60 0.9573
435.70 0.9576
435.80 0.9579
435.90 0.9581
436.00 0.9584
436.10 0.9586
436.20 0.9588
436.30 0.959
436.40 0.9592
436.50 0.9594
436.60 0.9596
436.70 0.9598
436.80 0.9599
436.90 0.9601
437.00 0.9603
437.10 0.9604
437.20 0.9606
437.30 0.9608
437.40 0.9609
437.50 0.961
437.60 0.9612
437.70 0.9614
437.80 0.9615
437.90 0.9616
438.00 0.9618
438.10 0.9619
438.20 0.9621
438.30 0.9622
438.40 0.9624
438.50 0.9625
438.60 0.9626
438.70 0.9628
438.80 0.9629
438.90 0.9631
439.00 0.9632
439.10 0.9633
439.20 0.9635
439.30 0.9636
439.40 0.9637
439.50 0.9639
439.60 0.964
439.70 0.9641
439.80 0.9643
439.90 0.9644
440.00 0.9645
440.10 0.9647
440.20 0.9648
440.30 0.9649
440.40 0.9651
440.50 0.9652
440.60 0.9653
440.70 0.9654
440.80 0.9656
440.90 0.9657
441.00 0.9658
441.10 0.9659
441.20 0.9661
441.30 0.9662
441.40 0.9663
441.50 0.9665
441.60 0.9666
441.70 0.9667
441.80 0.9668
441.90 0.967
442.00 0.9671
442.10 0.9672
442.20 0.9673
442.30 0.9675
442.40 0.9676
442.50 0.9677
442.60 0.9678
442.70 0.9679
442.80 0.9681
442.90 0.9682
443.00 0.9683
443.10 0.9684
