# Version 2.1 - nm, norm@500 to 1, cut digits, bergeron_14500_95.dat_14500
# Wavelength(nm)  Flambda(ergs/cm^s/s/nm)
300.00 2.773
300.10 2.77
300.20 2.768
300.30 2.766
300.40 2.764
300.50 2.762
300.60 2.76
300.70 2.758
300.80 2.756
300.90 2.754
301.00 2.752
301.10 2.75
301.20 2.748
301.30 2.746
301.40 2.744
301.50 2.742
301.60 2.74
301.70 2.738
301.80 2.736
301.90 2.734
302.00 2.732
302.10 2.73
302.20 2.727
302.30 2.725
302.40 2.723
302.50 2.721
302.60 2.719
302.70 2.717
302.80 2.715
302.90 2.713
303.00 2.711
303.10 2.709
303.20 2.707
303.30 2.705
303.40 2.703
303.50 2.701
303.60 2.699
303.70 2.697
303.80 2.695
303.90 2.693
304.00 2.691
304.10 2.689
304.20 2.687
304.30 2.685
304.40 2.683
304.50 2.681
304.60 2.679
304.70 2.677
304.80 2.675
304.90 2.673
305.00 2.671
305.10 2.669
305.20 2.667
305.30 2.665
305.40 2.663
305.50 2.661
305.60 2.659
305.70 2.657
305.80 2.656
305.90 2.654
306.00 2.652
306.10 2.65
306.20 2.648
306.30 2.646
306.40 2.644
306.50 2.642
306.60 2.64
306.70 2.638
306.80 2.636
306.90 2.634
307.00 2.632
307.10 2.63
307.20 2.628
307.30 2.626
307.40 2.624
307.50 2.622
307.60 2.62
307.70 2.618
307.80 2.616
307.90 2.615
308.00 2.613
308.10 2.611
308.20 2.609
308.30 2.607
308.40 2.605
308.50 2.603
308.60 2.601
308.70 2.599
308.80 2.597
308.90 2.595
309.00 2.593
309.10 2.592
309.20 2.59
309.30 2.588
309.40 2.586
309.50 2.584
309.60 2.582
309.70 2.58
309.80 2.578
309.90 2.576
310.00 2.574
310.10 2.573
310.20 2.571
310.30 2.569
310.40 2.567
310.50 2.565
310.60 2.563
310.70 2.561
310.80 2.559
310.90 2.557
311.00 2.555
311.10 2.554
311.20 2.552
311.30 2.55
311.40 2.548
311.50 2.546
311.60 2.544
311.70 2.542
311.80 2.54
311.90 2.539
312.00 2.537
312.10 2.535
312.20 2.533
312.30 2.531
312.40 2.529
312.50 2.527
312.60 2.526
312.70 2.524
312.80 2.522
312.90 2.52
313.00 2.518
313.10 2.516
313.20 2.515
313.30 2.513
313.40 2.511
313.50 2.509
313.60 2.507
313.70 2.505
313.80 2.503
313.90 2.502
314.00 2.5
314.10 2.498
314.20 2.496
314.30 2.494
314.40 2.493
314.50 2.491
314.60 2.489
314.70 2.487
314.80 2.485
314.90 2.483
315.00 2.482
315.10 2.48
315.20 2.478
315.30 2.476
315.40 2.474
315.50 2.473
315.60 2.471
315.70 2.469
315.80 2.467
315.90 2.465
316.00 2.464
316.10 2.462
316.20 2.46
316.30 2.458
316.40 2.456
316.50 2.455
316.60 2.453
316.70 2.451
316.80 2.449
316.90 2.447
317.00 2.446
317.10 2.444
317.20 2.442
317.30 2.44
317.40 2.439
317.50 2.437
317.60 2.435
317.70 2.433
317.80 2.431
317.90 2.43
318.00 2.428
318.10 2.426
318.20 2.424
318.30 2.423
318.40 2.421
318.50 2.419
318.60 2.417
318.70 2.416
318.80 2.414
318.90 2.412
319.00 2.41
319.10 2.408
319.20 2.407
319.30 2.405
319.40 2.403
319.50 2.401
319.60 2.4
319.70 2.398
319.80 2.396
319.90 2.394
320.00 2.393
320.10 2.391
320.20 2.389
320.30 2.387
320.40 2.386
320.50 2.384
320.60 2.382
320.70 2.381
320.80 2.379
320.90 2.377
321.00 2.375
321.10 2.374
321.20 2.372
321.30 2.37
321.40 2.369
321.50 2.367
321.60 2.365
321.70 2.363
321.80 2.362
321.90 2.36
322.00 2.358
322.10 2.357
322.20 2.355
322.30 2.353
322.40 2.351
322.50 2.35
322.60 2.348
322.70 2.346
322.80 2.345
322.90 2.343
323.00 2.341
323.10 2.34
323.20 2.338
323.30 2.336
323.40 2.334
323.50 2.333
323.60 2.331
323.70 2.329
323.80 2.328
323.90 2.326
324.00 2.324
324.10 2.323
324.20 2.321
324.30 2.319
324.40 2.318
324.50 2.316
324.60 2.314
324.70 2.313
324.80 2.311
324.90 2.309
325.00 2.308
325.10 2.306
325.20 2.304
325.30 2.303
325.40 2.301
325.50 2.299
325.60 2.298
325.70 2.296
325.80 2.294
325.90 2.293
326.00 2.291
326.10 2.289
326.20 2.288
326.30 2.286
326.40 2.284
326.50 2.283
326.60 2.281
326.70 2.279
326.80 2.278
326.90 2.276
327.00 2.275
327.10 2.273
327.20 2.271
327.30 2.27
327.40 2.268
327.50 2.266
327.60 2.265
327.70 2.263
327.80 2.262
327.90 2.26
328.00 2.258
328.10 2.257
328.20 2.255
328.30 2.253
328.40 2.252
328.50 2.25
328.60 2.249
328.70 2.247
328.80 2.245
328.90 2.244
329.00 2.242
329.10 2.24
329.20 2.239
329.30 2.237
329.40 2.236
329.50 2.234
329.60 2.232
329.70 2.231
329.80 2.229
329.90 2.228
330.00 2.226
330.10 2.224
330.20 2.223
330.30 2.221
330.40 2.22
330.50 2.218
330.60 2.217
330.70 2.215
330.80 2.213
330.90 2.212
331.00 2.21
331.10 2.209
331.20 2.207
331.30 2.206
331.40 2.204
331.50 2.202
331.60 2.201
331.70 2.199
331.80 2.198
331.90 2.196
332.00 2.195
332.10 2.193
332.20 2.191
332.30 2.19
332.40 2.188
332.50 2.187
332.60 2.185
332.70 2.184
332.80 2.182
332.90 2.18
333.00 2.179
333.10 2.177
333.20 2.176
333.30 2.174
333.40 2.173
333.50 2.171
333.60 2.17
333.70 2.168
333.80 2.166
333.90 2.165
334.00 2.163
334.10 2.162
334.20 2.16
334.30 2.159
334.40 2.157
334.50 2.156
334.60 2.154
334.70 2.153
334.80 2.151
334.90 2.15
335.00 2.148
335.10 2.146
335.20 2.145
335.30 2.143
335.40 2.142
335.50 2.14
335.60 2.139
335.70 2.137
335.80 2.136
335.90 2.134
336.00 2.133
336.10 2.131
336.20 2.13
336.30 2.128
336.40 2.127
336.50 2.125
336.60 2.124
336.70 2.122
336.80 2.121
336.90 2.119
337.00 2.118
337.10 2.116
337.20 2.115
337.30 2.113
337.40 2.112
337.50 2.11
337.60 2.109
337.70 2.107
337.80 2.106
337.90 2.104
338.00 2.103
338.10 2.101
338.20 2.1
338.30 2.098
338.40 2.097
338.50 2.095
338.60 2.094
338.70 2.092
338.80 2.091
338.90 2.089
339.00 2.088
339.10 2.086
339.20 2.085
339.30 2.083
339.40 2.082
339.50 2.08
339.60 2.079
339.70 2.078
339.80 2.076
339.90 2.075
340.00 2.073
340.10 2.072
340.20 2.07
340.30 2.069
340.40 2.067
340.50 2.066
340.60 2.064
340.70 2.063
340.80 2.061
340.90 2.06
341.00 2.059
341.10 2.057
341.20 2.056
341.30 2.054
341.40 2.053
341.50 2.051
341.60 2.05
341.70 2.048
341.80 2.047
341.90 2.045
342.00 2.044
342.10 2.043
342.20 2.041
342.30 2.04
342.40 2.038
342.50 2.037
342.60 2.035
342.70 2.034
342.80 2.032
342.90 2.031
343.00 2.03
343.10 2.028
343.20 2.027
343.30 2.025
343.40 2.024
343.50 2.022
343.60 2.021
343.70 2.02
343.80 2.018
343.90 2.017
344.00 2.015
344.10 2.014
344.20 2.012
344.30 2.011
344.40 2.01
344.50 2.008
344.60 2.007
344.70 2.005
344.80 2.004
344.90 2.003
345.00 2.001
345.10 2
345.20 1.998
345.30 1.997
345.40 1.996
345.50 1.994
345.60 1.993
345.70 1.991
345.80 1.99
345.90 1.989
346.00 1.987
346.10 1.986
346.20 1.984
346.30 1.983
346.40 1.982
346.50 1.98
346.60 1.979
346.70 1.977
346.80 1.976
346.90 1.975
347.00 1.973
347.10 1.972
347.20 1.971
347.30 1.969
347.40 1.968
347.50 1.966
347.60 1.965
347.70 1.964
347.80 1.962
347.90 1.961
348.00 1.96
348.10 1.958
348.20 1.957
348.30 1.955
348.40 1.954
348.50 1.953
348.60 1.951
348.70 1.95
348.80 1.949
348.90 1.947
349.00 1.946
349.10 1.945
349.20 1.943
349.30 1.942
349.40 1.94
349.50 1.939
349.60 1.938
349.70 1.936
349.80 1.935
349.90 1.934
350.00 1.932
350.10 1.931
350.20 1.93
350.30 1.928
350.40 1.927
350.50 1.926
350.60 1.924
350.70 1.923
350.80 1.922
350.90 1.92
351.00 1.919
351.10 1.918
351.20 1.916
351.30 1.915
351.40 1.914
351.50 1.912
351.60 1.911
351.70 1.91
351.80 1.908
351.90 1.907
352.00 1.906
352.10 1.904
352.20 1.903
352.30 1.902
352.40 1.9
352.50 1.899
352.60 1.898
352.70 1.896
352.80 1.895
352.90 1.894
353.00 1.892
353.10 1.891
353.20 1.89
353.30 1.888
353.40 1.887
353.50 1.886
353.60 1.885
353.70 1.883
353.80 1.882
353.90 1.881
354.00 1.879
354.10 1.878
354.20 1.877
354.30 1.875
354.40 1.874
354.50 1.873
354.60 1.872
354.70 1.87
354.80 1.869
354.90 1.868
355.00 1.866
355.10 1.865
355.20 1.864
355.30 1.862
355.40 1.861
355.50 1.86
355.60 1.859
355.70 1.857
355.80 1.856
355.90 1.855
356.00 1.853
356.10 1.852
356.20 1.851
356.30 1.85
356.40 1.848
356.50 1.847
356.60 1.846
356.70 1.845
356.80 1.843
356.90 1.842
357.00 1.841
357.10 1.839
357.20 1.838
357.30 1.837
357.40 1.836
357.50 1.834
357.60 1.833
357.70 1.832
357.80 1.831
357.90 1.829
358.00 1.828
358.10 1.827
358.20 1.826
358.30 1.824
358.40 1.823
358.50 1.822
358.60 1.821
358.70 1.819
358.80 1.818
358.90 1.817
359.00 1.816
359.10 1.814
359.20 1.813
359.30 1.812
359.40 1.811
359.50 1.809
359.60 1.808
359.70 1.807
359.80 1.806
359.90 1.804
360.00 1.803
360.10 1.802
360.20 1.801
360.30 1.799
360.40 1.798
360.50 1.797
360.60 1.796
360.70 1.794
360.80 1.793
360.90 1.792
361.00 1.791
361.10 1.789
361.20 1.788
361.30 1.787
361.40 1.786
361.50 1.785
361.60 1.783
361.70 1.782
361.80 1.781
361.90 1.78
362.00 1.778
362.10 1.777
362.20 1.776
362.30 1.775
362.40 1.774
362.50 1.772
362.60 1.771
362.70 1.77
362.80 1.769
362.90 1.768
363.00 1.766
363.10 1.765
363.20 1.763
363.30 1.762
363.40 1.761
363.50 1.759
363.60 1.758
363.70 1.756
363.80 1.755
363.90 1.753
364.00 1.752
364.10 1.751
364.20 1.749
364.30 1.748
364.40 1.746
364.50 1.745
364.60 1.743
364.70 1.742
364.80 1.74
364.90 1.739
365.00 1.738
365.10 1.736
365.20 1.735
365.30 1.733
365.40 1.732
365.50 1.73
365.60 1.729
365.70 1.727
365.80 1.726
365.90 1.724
366.00 1.723
366.10 1.722
366.20 1.72
366.30 1.719
366.40 1.718
366.50 1.717
366.60 1.716
366.70 1.714
366.80 1.713
366.90 1.712
367.00 1.711
367.10 1.709
367.20 1.708
367.30 1.707
367.40 1.706
367.50 1.704
367.60 1.703
367.70 1.702
367.80 1.701
367.90 1.699
368.00 1.698
368.10 1.697
368.20 1.696
368.30 1.694
368.40 1.693
368.50 1.692
368.60 1.691
368.70 1.69
368.80 1.688
368.90 1.687
369.00 1.686
369.10 1.685
369.20 1.683
369.30 1.682
369.40 1.681
369.50 1.68
369.60 1.678
369.70 1.677
369.80 1.676
369.90 1.675
370.00 1.673
370.10 1.672
370.20 1.671
370.30 1.67
370.40 1.669
370.50 1.667
370.60 1.666
370.70 1.665
370.80 1.664
370.90 1.663
371.00 1.661
371.10 1.66
371.20 1.659
371.30 1.658
371.40 1.657
371.50 1.655
371.60 1.654
371.70 1.653
371.80 1.652
371.90 1.651
372.00 1.649
372.10 1.648
372.20 1.647
372.30 1.646
372.40 1.645
372.50 1.644
372.60 1.643
372.70 1.642
372.80 1.641
372.90 1.639
373.00 1.638
373.10 1.637
373.20 1.636
373.30 1.635
373.40 1.634
373.50 1.633
373.60 1.632
373.70 1.631
373.80 1.629
373.90 1.628
374.00 1.627
374.10 1.626
374.20 1.625
374.30 1.624
374.40 1.623
374.50 1.622
374.60 1.621
374.70 1.62
374.80 1.619
374.90 1.618
375.00 1.617
375.10 1.616
375.20 1.615
375.30 1.614
375.40 1.613
375.50 1.612
375.60 1.611
375.70 1.61
375.80 1.609
375.90 1.608
376.00 1.607
376.10 1.606
376.20 1.605
376.30 1.604
376.40 1.603
376.50 1.602
376.60 1.601
376.70 1.6
376.80 1.599
376.90 1.598
377.00 1.597
377.10 1.596
377.20 1.595
377.30 1.594
377.40 1.593
377.50 1.592
377.60 1.591
377.70 1.59
377.80 1.589
377.90 1.588
378.00 1.587
378.10 1.585
378.20 1.584
378.30 1.583
378.40 1.582
378.50 1.58
378.60 1.579
378.70 1.578
378.80 1.576
378.90 1.575
379.00 1.574
379.10 1.573
379.20 1.572
379.30 1.57
379.40 1.569
379.50 1.568
379.60 1.567
379.70 1.566
379.80 1.565
379.90 1.564
380.00 1.563
380.10 1.563
380.20 1.562
380.30 1.562
380.40 1.562
380.50 1.561
380.60 1.561
380.70 1.561
380.80 1.56
380.90 1.56
381.00 1.56
381.10 1.559
381.20 1.559
381.30 1.558
381.40 1.557
381.50 1.557
381.60 1.556
381.70 1.555
381.80 1.554
381.90 1.553
382.00 1.552
382.10 1.55
382.20 1.549
382.30 1.547
382.40 1.545
382.50 1.543
382.60 1.541
382.70 1.539
382.80 1.538
382.90 1.536
383.00 1.534
383.10 1.532
383.20 1.53
383.30 1.529
383.40 1.527
383.50 1.526
383.60 1.526
383.70 1.526
383.80 1.527
383.90 1.527
384.00 1.528
384.10 1.529
384.20 1.53
384.30 1.532
384.40 1.533
384.50 1.534
384.60 1.535
384.70 1.536
384.80 1.536
384.90 1.537
385.00 1.537
385.10 1.537
385.20 1.537
385.30 1.537
385.40 1.537
385.50 1.536
385.60 1.536
385.70 1.535
385.80 1.535
385.90 1.534
386.00 1.533
386.10 1.532
386.20 1.531
386.30 1.53
386.40 1.528
386.50 1.527
386.60 1.525
386.70 1.523
386.80 1.522
386.90 1.52
387.00 1.517
387.10 1.515
387.20 1.513
387.30 1.51
387.40 1.508
387.50 1.505
387.60 1.502
387.70 1.499
387.80 1.496
387.90 1.492
388.00 1.489
388.10 1.485
388.20 1.48
388.30 1.476
388.40 1.471
388.50 1.467
388.60 1.463
388.70 1.461
388.80 1.459
388.90 1.457
389.00 1.458
389.10 1.46
389.20 1.461
389.30 1.465
389.40 1.468
389.50 1.473
389.60 1.477
389.70 1.481
389.80 1.484
389.90 1.488
390.00 1.491
390.10 1.494
390.20 1.496
390.30 1.498
390.40 1.501
390.50 1.503
390.60 1.505
390.70 1.507
390.80 1.508
390.90 1.51
391.00 1.511
391.10 1.512
391.20 1.513
391.30 1.514
391.40 1.515
391.50 1.516
391.60 1.516
391.70 1.516
391.80 1.517
391.90 1.517
392.00 1.516
392.10 1.516
392.20 1.516
392.30 1.515
392.40 1.514
392.50 1.513
392.60 1.512
392.70 1.511
392.80 1.509
392.90 1.508
393.00 1.506
393.10 1.504
393.20 1.502
393.30 1.5
393.40 1.497
393.50 1.495
393.60 1.492
393.70 1.489
393.80 1.486
393.90 1.482
394.00 1.479
394.10 1.475
394.20 1.471
394.30 1.467
394.40 1.462
394.50 1.458
394.60 1.453
394.70 1.448
394.80 1.442
394.90 1.437
395.00 1.431
395.10 1.425
395.20 1.419
395.30 1.412
395.40 1.406
395.50 1.399
395.60 1.392
395.70 1.384
395.80 1.377
395.90 1.369
396.00 1.361
396.10 1.353
396.20 1.344
396.30 1.334
396.40 1.324
396.50 1.313
396.60 1.301
396.70 1.288
396.80 1.279
396.90 1.271
397.00 1.263
397.10 1.27
397.20 1.277
397.30 1.285
397.40 1.297
397.50 1.309
397.60 1.32
397.70 1.33
397.80 1.339
397.90 1.348
398.00 1.356
398.10 1.363
398.20 1.371
398.30 1.378
398.40 1.385
398.50 1.392
398.60 1.399
398.70 1.405
398.80 1.411
398.90 1.417
399.00 1.423
399.10 1.429
399.20 1.434
399.30 1.439
399.40 1.444
399.50 1.449
399.60 1.454
399.70 1.458
399.80 1.462
399.90 1.466
400.00 1.47
400.10 1.473
400.20 1.477
400.30 1.48
400.40 1.483
400.50 1.486
400.60 1.489
400.70 1.491
400.80 1.494
400.90 1.496
401.00 1.498
401.10 1.5
401.20 1.502
401.30 1.503
401.40 1.505
401.50 1.506
401.60 1.507
401.70 1.508
401.80 1.509
401.90 1.51
402.00 1.511
402.10 1.511
402.20 1.511
402.30 1.511
402.40 1.511
402.50 1.511
402.60 1.511
402.70 1.511
402.80 1.51
402.90 1.509
403.00 1.508
403.10 1.507
403.20 1.506
403.30 1.505
403.40 1.503
403.50 1.502
403.60 1.5
403.70 1.498
403.80 1.496
403.90 1.493
404.00 1.491
404.10 1.488
404.20 1.486
404.30 1.483
404.40 1.48
404.50 1.476
404.60 1.473
404.70 1.469
404.80 1.466
404.90 1.462
405.00 1.458
405.10 1.453
405.20 1.449
405.30 1.444
405.40 1.44
405.50 1.435
405.60 1.43
405.70 1.425
405.80 1.419
405.90 1.413
406.00 1.408
406.10 1.402
406.20 1.395
406.30 1.389
406.40 1.382
406.50 1.376
406.60 1.369
406.70 1.361
406.80 1.354
406.90 1.346
407.00 1.338
407.10 1.33
407.20 1.322
407.30 1.313
407.40 1.304
407.50 1.295
407.60 1.285
407.70 1.276
407.80 1.266
407.90 1.255
408.00 1.245
408.10 1.234
408.20 1.222
408.30 1.211
408.40 1.199
408.50 1.187
408.60 1.174
408.70 1.162
408.80 1.149
408.90 1.135
409.00 1.122
409.10 1.108
409.20 1.094
409.30 1.08
409.40 1.066
409.50 1.051
409.60 1.036
409.70 1.02
409.80 1.003
409.90 0.9865
410.00 0.9745
410.10 0.9672
410.20 0.9644
410.30 0.9696
410.40 0.9791
410.50 0.9929
410.60 1.009
410.70 1.025
410.80 1.04
410.90 1.053
411.00 1.067
411.10 1.08
411.20 1.093
411.30 1.106
411.40 1.118
411.50 1.131
411.60 1.143
411.70 1.155
411.80 1.167
411.90 1.178
412.00 1.189
412.10 1.2
412.20 1.21
412.30 1.22
412.40 1.23
412.50 1.24
412.60 1.249
412.70 1.258
412.80 1.267
412.90 1.275
413.00 1.283
413.10 1.291
413.20 1.299
413.30 1.307
413.40 1.314
413.50 1.321
413.60 1.328
413.70 1.335
413.80 1.341
413.90 1.348
414.00 1.354
414.10 1.36
414.20 1.366
414.30 1.371
414.40 1.377
414.50 1.383
414.60 1.388
414.70 1.393
414.80 1.398
414.90 1.403
415.00 1.408
415.10 1.412
415.20 1.417
415.30 1.421
415.40 1.425
415.50 1.43
415.60 1.434
415.70 1.438
415.80 1.441
415.90 1.445
416.00 1.449
416.10 1.452
416.20 1.456
416.30 1.459
416.40 1.462
416.50 1.465
416.60 1.468
416.70 1.471
416.80 1.473
416.90 1.476
417.00 1.479
417.10 1.481
417.20 1.483
417.30 1.486
417.40 1.488
417.50 1.49
417.60 1.492
417.70 1.494
417.80 1.496
417.90 1.497
418.00 1.499
418.10 1.501
418.20 1.502
418.30 1.504
418.40 1.505
418.50 1.506
418.60 1.508
418.70 1.509
418.80 1.51
418.90 1.511
419.00 1.512
419.10 1.513
419.20 1.514
419.30 1.514
419.40 1.515
419.50 1.516
419.60 1.516
419.70 1.517
419.80 1.517
419.90 1.517
420.00 1.518
420.10 1.518
420.20 1.518
420.30 1.518
420.40 1.518
420.50 1.518
420.60 1.518
420.70 1.517
420.80 1.517
420.90 1.517
421.00 1.516
421.10 1.516
421.20 1.515
421.30 1.515
421.40 1.514
421.50 1.513
421.60 1.513
421.70 1.512
421.80 1.511
421.90 1.51
422.00 1.509
422.10 1.507
422.20 1.506
422.30 1.505
422.40 1.504
422.50 1.502
422.60 1.501
422.70 1.499
422.80 1.498
422.90 1.496
423.00 1.494
423.10 1.493
423.20 1.491
423.30 1.489
423.40 1.487
423.50 1.485
423.60 1.483
423.70 1.48
423.80 1.478
423.90 1.476
424.00 1.473
424.10 1.471
424.20 1.469
424.30 1.466
424.40 1.463
424.50 1.461
424.60 1.458
424.70 1.455
424.80 1.452
424.90 1.449
425.00 1.446
425.10 1.443
425.20 1.439
425.30 1.436
425.40 1.433
425.50 1.429
425.60 1.426
425.70 1.422
425.80 1.419
425.90 1.415
426.00 1.411
426.10 1.407
426.20 1.402
426.30 1.398
426.40 1.394
426.50 1.389
426.60 1.385
426.70 1.381
426.80 1.376
426.90 1.372
427.00 1.367
427.10 1.362
427.20 1.358
427.30 1.353
427.40 1.348
427.50 1.343
427.60 1.337
427.70 1.332
427.80 1.327
427.90 1.321
428.00 1.316
428.10 1.31
428.20 1.304
428.30 1.299
428.40 1.293
428.50 1.287
428.60 1.28
428.70 1.274
428.80 1.268
428.90 1.262
429.00 1.255
429.10 1.248
429.20 1.242
429.30 1.235
429.40 1.228
429.50 1.221
429.60 1.213
429.70 1.206
429.80 1.198
429.90 1.191
430.00 1.183
430.10 1.175
430.20 1.167
430.30 1.158
430.40 1.15
430.50 1.141
430.60 1.133
430.70 1.124
430.80 1.114
430.90 1.105
431.00 1.096
431.10 1.086
431.20 1.076
431.30 1.066
431.40 1.055
431.50 1.045
431.60 1.034
431.70 1.023
431.80 1.011
431.90 0.9995
432.00 0.9875
432.10 0.9754
432.20 0.9628
432.30 0.9499
432.40 0.9368
432.50 0.9229
432.60 0.9087
432.70 0.8942
432.80 0.8791
432.90 0.8639
433.00 0.8486
433.10 0.8334
433.20 0.8182
433.30 0.8029
433.40 0.7874
433.50 0.7715
433.60 0.7553
433.70 0.7347
433.80 0.7091
433.90 0.6786
434.00 0.6475
434.10 0.6481
434.20 0.6804
434.30 0.7098
434.40 0.7343
434.50 0.7538
434.60 0.7692
434.70 0.7842
434.80 0.7989
434.90 0.8133
435.00 0.8276
435.10 0.8419
435.20 0.8562
435.30 0.8704
435.40 0.8845
435.50 0.8979
435.60 0.911
435.70 0.9236
435.80 0.9356
435.90 0.9473
436.00 0.9587
436.10 0.9696
436.20 0.9803
436.30 0.9907
436.40 1.001
436.50 1.011
436.60 1.02
436.70 1.029
436.80 1.039
436.90 1.047
437.00 1.056
437.10 1.064
437.20 1.072
437.30 1.08
437.40 1.088
437.50 1.096
437.60 1.103
437.70 1.11
437.80 1.117
437.90 1.124
438.00 1.131
438.10 1.137
438.20 1.143
438.30 1.15
438.40 1.156
438.50 1.162
438.60 1.168
438.70 1.173
438.80 1.179
438.90 1.184
439.00 1.189
439.10 1.195
439.20 1.2
439.30 1.205
439.40 1.209
439.50 1.214
439.60 1.219
439.70 1.223
439.80 1.228
439.90 1.232
440.00 1.236
440.10 1.24
440.20 1.245
440.30 1.249
440.40 1.253
440.50 1.256
440.60 1.26
440.70 1.264
440.80 1.268
440.90 1.271
441.00 1.274
441.10 1.278
441.20 1.281
441.30 1.284
441.40 1.287
441.50 1.29
441.60 1.293
441.70 1.296
441.80 1.299
441.90 1.302
442.00 1.305
442.10 1.307
442.20 1.31
442.30 1.312
442.40 1.315
442.50 1.317
442.60 1.32
442.70 1.322
442.80 1.324
442.90 1.327
443.00 1.329
443.10 1.331
443.20 1.333
443.30 1.335
443.40 1.337
443.50 1.339
443.60 1.341
443.70 1.343
443.80 1.344
443.90 1.346
444.00 1.348
444.10 1.349
444.20 1.351
444.30 1.352
444.40 1.354
444.50 1.356
444.60 1.357
444.70 1.358
444.80 1.36
444.90 1.361
445.00 1.362
445.10 1.363
445.20 1.365
445.30 1.366
445.40 1.367
445.50 1.368
445.60 1.369
445.70 1.37
445.80 1.371
445.90 1.372
446.00 1.373
446.10 1.374
446.20 1.375
446.30 1.376
446.40 1.377
446.50 1.377
446.60 1.378
446.70 1.379
446.80 1.379
446.90 1.38
447.00 1.381
447.10 1.381
447.20 1.382
447.30 1.382
447.40 1.383
447.50 1.384
447.60 1.384
447.70 1.385
447.80 1.385
447.90 1.385
448.00 1.386
448.10 1.386
448.20 1.387
448.30 1.387
448.40 1.387
448.50 1.387
448.60 1.388
448.70 1.388
448.80 1.388
448.90 1.388
449.00 1.389
449.10 1.389
449.20 1.389
449.30 1.389
449.40 1.389
449.50 1.39
449.60 1.39
449.70 1.39
449.80 1.39
449.90 1.39
450.00 1.39
450.10 1.39
450.20 1.39
450.30 1.39
450.40 1.39
450.50 1.39
450.60 1.389
450.70 1.389
450.80 1.389
450.90 1.389
451.00 1.389
451.10 1.389
451.20 1.389
451.30 1.388
451.40 1.388
451.50 1.388
451.60 1.388
451.70 1.388
451.80 1.387
451.90 1.387
452.00 1.387
452.10 1.387
452.20 1.386
452.30 1.386
452.40 1.386
452.50 1.385
452.60 1.385
452.70 1.384
452.80 1.384
452.90 1.384
453.00 1.383
453.10 1.383
453.20 1.383
453.30 1.382
453.40 1.382
453.50 1.381
453.60 1.381
