# Version 2.1 - nm, norm@500 to 1, cut digits, bergeron_4000_85.dat_4000
# Wavelength(nm)  Flambda(ergs/cm^s/s/nm)
300.00 0.1931
300.10 0.1934
300.20 0.1938
300.30 0.1941
300.40 0.1945
300.50 0.1948
300.60 0.1952
300.70 0.1955
300.80 0.1959
300.90 0.1962
301.00 0.1966
301.10 0.1969
301.20 0.1973
301.30 0.1976
301.40 0.1979
301.50 0.1983
301.60 0.1986
301.70 0.199
301.80 0.1993
301.90 0.1997
302.00 0.2
302.10 0.2004
302.20 0.2007
302.30 0.2011
302.40 0.2014
302.50 0.2018
302.60 0.2021
302.70 0.2025
302.80 0.2028
302.90 0.2032
303.00 0.2035
303.10 0.2039
303.20 0.2042
303.30 0.2046
303.40 0.2049
303.50 0.2053
303.60 0.2056
303.70 0.206
303.80 0.2063
303.90 0.2067
304.00 0.207
304.10 0.2074
304.20 0.2077
304.30 0.2081
304.40 0.2085
304.50 0.2088
304.60 0.2092
304.70 0.2095
304.80 0.2099
304.90 0.2102
305.00 0.2106
305.10 0.211
305.20 0.2113
305.30 0.2117
305.40 0.212
305.50 0.2124
305.60 0.2127
305.70 0.2131
305.80 0.2134
305.90 0.2138
306.00 0.2142
306.10 0.2145
306.20 0.2149
306.30 0.2152
306.40 0.2156
306.50 0.216
306.60 0.2163
306.70 0.2167
306.80 0.2171
306.90 0.2174
307.00 0.2178
307.10 0.2181
307.20 0.2185
307.30 0.2189
307.40 0.2192
307.50 0.2196
307.60 0.2199
307.70 0.2203
307.80 0.2207
307.90 0.221
308.00 0.2214
308.10 0.2218
308.20 0.2221
308.30 0.2225
308.40 0.2229
308.50 0.2232
308.60 0.2236
308.70 0.224
308.80 0.2243
308.90 0.2247
309.00 0.2251
309.10 0.2254
309.20 0.2258
309.30 0.2262
309.40 0.2265
309.50 0.2269
309.60 0.2273
309.70 0.2276
309.80 0.228
309.90 0.2284
310.00 0.2287
310.10 0.2291
310.20 0.2295
310.30 0.2298
310.40 0.2302
310.50 0.2306
310.60 0.231
310.70 0.2313
310.80 0.2317
310.90 0.2321
311.00 0.2325
311.10 0.2328
311.20 0.2332
311.30 0.2336
311.40 0.234
311.50 0.2343
311.60 0.2347
311.70 0.2351
311.80 0.2354
311.90 0.2358
312.00 0.2362
312.10 0.2365
312.20 0.2369
312.30 0.2373
312.40 0.2377
312.50 0.2381
312.60 0.2384
312.70 0.2388
312.80 0.2392
312.90 0.2396
313.00 0.2399
313.10 0.2403
313.20 0.2407
313.30 0.2411
313.40 0.2415
313.50 0.2418
313.60 0.2422
313.70 0.2426
313.80 0.243
313.90 0.2433
314.00 0.2437
314.10 0.2441
314.20 0.2445
314.30 0.2449
314.40 0.2452
314.50 0.2456
314.60 0.246
314.70 0.2464
314.80 0.2468
314.90 0.2472
315.00 0.2475
315.10 0.2479
315.20 0.2483
315.30 0.2487
315.40 0.2491
315.50 0.2494
315.60 0.2498
315.70 0.2502
315.80 0.2506
315.90 0.251
316.00 0.2513
316.10 0.2517
316.20 0.2521
316.30 0.2525
316.40 0.2529
316.50 0.2533
316.60 0.2537
316.70 0.2541
316.80 0.2545
316.90 0.2548
317.00 0.2552
317.10 0.2556
317.20 0.256
317.30 0.2564
317.40 0.2568
317.50 0.2572
317.60 0.2575
317.70 0.2579
317.80 0.2583
317.90 0.2587
318.00 0.2591
318.10 0.2595
318.20 0.2599
318.30 0.2602
318.40 0.2606
318.50 0.261
318.60 0.2614
318.70 0.2618
318.80 0.2622
318.90 0.2626
319.00 0.263
319.10 0.2634
319.20 0.2638
319.30 0.2642
319.40 0.2646
319.50 0.2649
319.60 0.2653
319.70 0.2657
319.80 0.2661
319.90 0.2665
320.00 0.2669
320.10 0.2673
320.20 0.2677
320.30 0.2681
320.40 0.2685
320.50 0.2689
320.60 0.2693
320.70 0.2697
320.80 0.2701
320.90 0.2705
321.00 0.2709
321.10 0.2713
321.20 0.2716
321.30 0.272
321.40 0.2724
321.50 0.2728
321.60 0.2732
321.70 0.2736
321.80 0.274
321.90 0.2744
322.00 0.2748
322.10 0.2752
322.20 0.2756
322.30 0.276
322.40 0.2764
322.50 0.2768
322.60 0.2772
322.70 0.2776
322.80 0.278
322.90 0.2784
323.00 0.2788
323.10 0.2792
323.20 0.2796
323.30 0.28
323.40 0.2804
323.50 0.2808
323.60 0.2812
323.70 0.2816
323.80 0.282
323.90 0.2824
324.00 0.2828
324.10 0.2832
324.20 0.2836
324.30 0.284
324.40 0.2844
324.50 0.2848
324.60 0.2852
324.70 0.2856
324.80 0.2861
324.90 0.2865
325.00 0.2869
325.10 0.2873
325.20 0.2877
325.30 0.2881
325.40 0.2885
325.50 0.2889
325.60 0.2893
325.70 0.2897
325.80 0.2901
325.90 0.2905
326.00 0.2909
326.10 0.2913
326.20 0.2917
326.30 0.2921
326.40 0.2925
326.50 0.2929
326.60 0.2933
326.70 0.2937
326.80 0.2941
326.90 0.2946
327.00 0.295
327.10 0.2954
327.20 0.2958
327.30 0.2962
327.40 0.2966
327.50 0.297
327.60 0.2974
327.70 0.2978
327.80 0.2982
327.90 0.2986
328.00 0.299
328.10 0.2994
328.20 0.2998
328.30 0.3003
328.40 0.3007
328.50 0.3011
328.60 0.3015
328.70 0.3019
328.80 0.3023
328.90 0.3027
329.00 0.3031
329.10 0.3036
329.20 0.304
329.30 0.3044
329.40 0.3048
329.50 0.3052
329.60 0.3056
329.70 0.306
329.80 0.3064
329.90 0.3068
330.00 0.3072
330.10 0.3077
330.20 0.3081
330.30 0.3085
330.40 0.3089
330.50 0.3093
330.60 0.3098
330.70 0.3102
330.80 0.3106
330.90 0.311
331.00 0.3114
331.10 0.3118
331.20 0.3122
331.30 0.3127
331.40 0.3131
331.50 0.3135
331.60 0.3139
331.70 0.3143
331.80 0.3147
331.90 0.3151
332.00 0.3155
332.10 0.316
332.20 0.3164
332.30 0.3168
332.40 0.3172
332.50 0.3177
332.60 0.3181
332.70 0.3185
332.80 0.3189
332.90 0.3193
333.00 0.3198
333.10 0.3202
333.20 0.3206
333.30 0.321
333.40 0.3214
333.50 0.3218
333.60 0.3223
333.70 0.3227
333.80 0.3231
333.90 0.3235
334.00 0.3239
334.10 0.3243
334.20 0.3248
334.30 0.3252
334.40 0.3256
334.50 0.326
334.60 0.3265
334.70 0.3269
334.80 0.3273
334.90 0.3277
335.00 0.3282
335.10 0.3286
335.20 0.329
335.30 0.3294
335.40 0.3298
335.50 0.3303
335.60 0.3307
335.70 0.3311
335.80 0.3315
335.90 0.3319
336.00 0.3324
336.10 0.3328
336.20 0.3332
336.30 0.3336
336.40 0.3341
336.50 0.3345
336.60 0.3349
336.70 0.3354
336.80 0.3358
336.90 0.3362
337.00 0.3366
337.10 0.3371
337.20 0.3375
337.30 0.3379
337.40 0.3383
337.50 0.3388
337.60 0.3392
337.70 0.3396
337.80 0.34
337.90 0.3404
338.00 0.3409
338.10 0.3413
338.20 0.3417
338.30 0.3422
338.40 0.3426
338.50 0.343
338.60 0.3435
338.70 0.3439
338.80 0.3443
338.90 0.3447
339.00 0.3452
339.10 0.3456
339.20 0.346
339.30 0.3465
339.40 0.3469
339.50 0.3473
339.60 0.3477
339.70 0.3482
339.80 0.3486
339.90 0.349
340.00 0.3494
340.10 0.3499
340.20 0.3503
340.30 0.3507
340.40 0.3512
340.50 0.3516
340.60 0.352
340.70 0.3525
340.80 0.3529
340.90 0.3533
341.00 0.3538
341.10 0.3542
341.20 0.3546
341.30 0.3551
341.40 0.3555
341.50 0.3559
341.60 0.3563
341.70 0.3568
341.80 0.3572
341.90 0.3576
342.00 0.358
342.10 0.3585
342.20 0.3589
342.30 0.3594
342.40 0.3598
342.50 0.3602
342.60 0.3607
342.70 0.3611
342.80 0.3615
342.90 0.362
343.00 0.3624
343.10 0.3628
343.20 0.3633
343.30 0.3637
343.40 0.3641
343.50 0.3646
343.60 0.365
343.70 0.3654
343.80 0.3659
343.90 0.3663
344.00 0.3667
344.10 0.3672
344.20 0.3676
344.30 0.368
344.40 0.3685
344.50 0.3689
344.60 0.3694
344.70 0.3698
344.80 0.3702
344.90 0.3707
345.00 0.3711
345.10 0.3715
345.20 0.372
345.30 0.3724
345.40 0.3729
345.50 0.3733
345.60 0.3737
345.70 0.3742
345.80 0.3746
345.90 0.375
346.00 0.3754
346.10 0.3759
346.20 0.3763
346.30 0.3768
346.40 0.3772
346.50 0.3777
346.60 0.3781
346.70 0.3785
346.80 0.379
346.90 0.3794
347.00 0.3799
347.10 0.3803
347.20 0.3807
347.30 0.3812
347.40 0.3816
347.50 0.3821
347.60 0.3825
347.70 0.3829
347.80 0.3834
347.90 0.3838
348.00 0.3842
348.10 0.3847
348.20 0.3851
348.30 0.3856
348.40 0.386
348.50 0.3865
348.60 0.3869
348.70 0.3873
348.80 0.3878
348.90 0.3882
349.00 0.3887
349.10 0.3891
349.20 0.3896
349.30 0.39
349.40 0.3904
349.50 0.3909
349.60 0.3913
349.70 0.3917
349.80 0.3922
349.90 0.3926
350.00 0.3931
350.10 0.3935
350.20 0.394
350.30 0.3944
350.40 0.3948
350.50 0.3953
350.60 0.3957
350.70 0.3962
350.80 0.3966
350.90 0.3971
351.00 0.3975
351.10 0.398
351.20 0.3984
351.30 0.3988
351.40 0.3993
351.50 0.3997
351.60 0.4002
351.70 0.4006
351.80 0.401
351.90 0.4015
352.00 0.4019
352.10 0.4024
352.20 0.4028
352.30 0.4033
352.40 0.4037
352.50 0.4042
352.60 0.4046
352.70 0.4051
352.80 0.4055
352.90 0.4059
353.00 0.4064
353.10 0.4068
353.20 0.4073
353.30 0.4077
353.40 0.4082
353.50 0.4086
353.60 0.4091
353.70 0.4095
353.80 0.4099
353.90 0.4104
354.00 0.4108
354.10 0.4113
354.20 0.4117
354.30 0.4122
354.40 0.4126
354.50 0.4131
354.60 0.4135
354.70 0.414
354.80 0.4144
354.90 0.4149
355.00 0.4153
355.10 0.4158
355.20 0.4162
355.30 0.4167
355.40 0.4171
355.50 0.4175
355.60 0.418
355.70 0.4184
355.80 0.4189
355.90 0.4193
356.00 0.4198
356.10 0.4202
356.20 0.4207
356.30 0.4211
356.40 0.4216
356.50 0.422
356.60 0.4225
356.70 0.4229
356.80 0.4234
356.90 0.4238
357.00 0.4243
357.10 0.4247
357.20 0.4252
357.30 0.4256
357.40 0.4261
357.50 0.4265
357.60 0.4269
357.70 0.4274
357.80 0.4278
357.90 0.4283
358.00 0.4287
358.10 0.4292
358.20 0.4296
358.30 0.4301
358.40 0.4305
358.50 0.431
358.60 0.4315
358.70 0.4319
358.80 0.4324
358.90 0.4328
359.00 0.4333
359.10 0.4337
359.20 0.4342
359.30 0.4346
359.40 0.4351
359.50 0.4355
359.60 0.436
359.70 0.4364
359.80 0.4368
359.90 0.4373
360.00 0.4377
360.10 0.4382
360.20 0.4386
360.30 0.4391
360.40 0.4396
360.50 0.44
360.60 0.4405
360.70 0.4409
360.80 0.4414
360.90 0.4418
361.00 0.4423
361.10 0.4427
361.20 0.4432
361.30 0.4436
361.40 0.4441
361.50 0.4445
361.60 0.445
361.70 0.4454
361.80 0.4459
361.90 0.4463
362.00 0.4468
362.10 0.4472
362.20 0.4477
362.30 0.4481
362.40 0.4486
362.50 0.449
362.60 0.4495
362.70 0.4499
362.80 0.4504
362.90 0.4508
363.00 0.4513
363.10 0.4517
363.20 0.4522
363.30 0.4526
363.40 0.4531
363.50 0.4536
363.60 0.454
363.70 0.4545
363.80 0.4549
363.90 0.4554
364.00 0.4558
364.10 0.4563
364.20 0.4567
364.30 0.4572
364.40 0.4576
364.50 0.4581
364.60 0.4585
364.70 0.459
364.80 0.4594
364.90 0.4599
365.00 0.4604
365.10 0.4608
365.20 0.4613
365.30 0.4617
365.40 0.4622
365.50 0.4626
365.60 0.4631
365.70 0.4635
365.80 0.464
365.90 0.4644
366.00 0.4649
366.10 0.4653
366.20 0.4658
366.30 0.4663
366.40 0.4667
366.50 0.4672
366.60 0.4676
366.70 0.4681
366.80 0.4685
366.90 0.469
367.00 0.4695
367.10 0.4699
367.20 0.4704
367.30 0.4708
367.40 0.4713
367.50 0.4717
367.60 0.4722
367.70 0.4726
367.80 0.4731
367.90 0.4735
368.00 0.474
368.10 0.4744
368.20 0.4749
368.30 0.4754
368.40 0.4758
368.50 0.4763
368.60 0.4767
368.70 0.4772
368.80 0.4777
368.90 0.4781
369.00 0.4786
369.10 0.479
369.20 0.4795
369.30 0.4799
369.40 0.4804
369.50 0.4808
369.60 0.4813
369.70 0.4817
369.80 0.4822
369.90 0.4826
370.00 0.4831
370.10 0.4836
370.20 0.484
370.30 0.4845
370.40 0.4849
370.50 0.4854
370.60 0.4858
370.70 0.4863
370.80 0.4868
370.90 0.4872
371.00 0.4877
371.10 0.4881
371.20 0.4886
371.30 0.489
371.40 0.4895
371.50 0.4899
371.60 0.4904
371.70 0.4908
371.80 0.4913
371.90 0.4917
372.00 0.4922
372.10 0.4927
372.20 0.4931
372.30 0.4936
372.40 0.494
372.50 0.4945
372.60 0.495
372.70 0.4954
372.80 0.4959
372.90 0.4963
373.00 0.4968
373.10 0.4972
373.20 0.4977
373.30 0.4982
373.40 0.4986
373.50 0.4991
373.60 0.4995
373.70 0.5
373.80 0.5004
373.90 0.5009
374.00 0.5013
374.10 0.5018
374.20 0.5023
374.30 0.5027
374.40 0.5032
374.50 0.5036
374.60 0.5041
374.70 0.5046
374.80 0.505
374.90 0.5055
375.00 0.5059
375.10 0.5064
375.20 0.5068
375.30 0.5073
375.40 0.5078
375.50 0.5082
375.60 0.5087
375.70 0.5091
375.80 0.5096
375.90 0.51
376.00 0.5105
376.10 0.5109
376.20 0.5114
376.30 0.5118
376.40 0.5123
376.50 0.5128
376.60 0.5132
376.70 0.5137
376.80 0.5141
376.90 0.5146
377.00 0.515
377.10 0.5155
377.20 0.516
377.30 0.5164
377.40 0.5169
377.50 0.5173
377.60 0.5178
377.70 0.5182
377.80 0.5187
377.90 0.5192
378.00 0.5196
378.10 0.5201
378.20 0.5205
378.30 0.521
378.40 0.5214
378.50 0.5219
378.60 0.5224
378.70 0.5228
378.80 0.5233
378.90 0.5237
379.00 0.5242
379.10 0.5246
379.20 0.5251
379.30 0.5256
379.40 0.526
379.50 0.5265
379.60 0.5269
379.70 0.5274
379.80 0.5278
379.90 0.5283
380.00 0.5287
380.10 0.5292
380.20 0.5297
380.30 0.5301
380.40 0.5306
380.50 0.531
380.60 0.5315
380.70 0.5319
380.80 0.5324
380.90 0.5328
381.00 0.5333
381.10 0.5338
381.20 0.5342
381.30 0.5347
381.40 0.5351
381.50 0.5356
381.60 0.536
381.70 0.5365
381.80 0.537
381.90 0.5374
382.00 0.5379
382.10 0.5383
382.20 0.5388
382.30 0.5392
382.40 0.5397
382.50 0.5402
382.60 0.5406
382.70 0.5411
382.80 0.5415
382.90 0.542
383.00 0.5424
383.10 0.5429
383.20 0.5433
383.30 0.5438
383.40 0.5443
383.50 0.5447
383.60 0.5452
383.70 0.5456
383.80 0.5461
383.90 0.5466
384.00 0.547
384.10 0.5475
384.20 0.5479
384.30 0.5484
384.40 0.5488
384.50 0.5493
384.60 0.5498
384.70 0.5502
384.80 0.5506
384.90 0.5511
385.00 0.5516
385.10 0.552
385.20 0.5525
385.30 0.5529
385.40 0.5534
385.50 0.5538
385.60 0.5543
385.70 0.5548
385.80 0.5552
385.90 0.5557
386.00 0.5561
386.10 0.5566
386.20 0.557
386.30 0.5575
386.40 0.558
386.50 0.5584
386.60 0.5589
386.70 0.5593
386.80 0.5598
386.90 0.5602
387.00 0.5607
387.10 0.5611
387.20 0.5616
387.30 0.5621
387.40 0.5625
387.50 0.563
387.60 0.5634
387.70 0.5639
387.80 0.5643
387.90 0.5648
388.00 0.5652
388.10 0.5657
388.20 0.5662
388.30 0.5666
388.40 0.5671
388.50 0.5675
388.60 0.568
388.70 0.5684
388.80 0.5689
388.90 0.5693
389.00 0.5698
389.10 0.5702
389.20 0.5707
389.30 0.5712
389.40 0.5716
389.50 0.5721
389.60 0.5725
389.70 0.573
389.80 0.5734
389.90 0.5739
390.00 0.5743
390.10 0.5748
390.20 0.5753
390.30 0.5757
390.40 0.5762
390.50 0.5766
390.60 0.5771
390.70 0.5775
390.80 0.578
390.90 0.5784
391.00 0.5789
391.10 0.5793
391.20 0.5798
391.30 0.5802
391.40 0.5807
391.50 0.5812
391.60 0.5816
391.70 0.5821
391.80 0.5825
391.90 0.583
392.00 0.5834
392.10 0.5839
392.20 0.5843
392.30 0.5848
392.40 0.5852
392.50 0.5857
392.60 0.5861
392.70 0.5866
392.80 0.5871
392.90 0.5875
393.00 0.588
393.10 0.5884
393.20 0.5889
393.30 0.5893
393.40 0.5898
393.50 0.5902
393.60 0.5907
393.70 0.5911
393.80 0.5916
393.90 0.592
394.00 0.5925
394.10 0.5929
394.20 0.5934
394.30 0.5938
394.40 0.5943
394.50 0.5948
394.60 0.5952
394.70 0.5957
394.80 0.5961
394.90 0.5966
395.00 0.597
395.10 0.5975
395.20 0.5979
395.30 0.5984
395.40 0.5988
395.50 0.5993
395.60 0.5997
395.70 0.6002
395.80 0.6006
395.90 0.6011
396.00 0.6015
396.10 0.602
396.20 0.6024
396.30 0.6029
396.40 0.6033
396.50 0.6038
396.60 0.6043
396.70 0.6047
396.80 0.6052
396.90 0.6056
397.00 0.606
397.10 0.6065
397.20 0.607
397.30 0.6074
397.40 0.6079
397.50 0.6083
397.60 0.6088
397.70 0.6092
397.80 0.6097
397.90 0.6101
398.00 0.6106
398.10 0.611
398.20 0.6115
398.30 0.6119
398.40 0.6124
398.50 0.6128
398.60 0.6133
398.70 0.6137
398.80 0.6142
398.90 0.6146
399.00 0.6151
399.10 0.6155
399.20 0.616
399.30 0.6164
399.40 0.6169
399.50 0.6173
399.60 0.6178
399.70 0.6182
399.80 0.6187
399.90 0.6191
400.00 0.6196
400.10 0.62
400.20 0.6205
400.30 0.6209
400.40 0.6214
400.50 0.6218
400.60 0.6222
400.70 0.6227
400.80 0.6232
400.90 0.6236
401.00 0.6241
401.10 0.6245
401.20 0.625
401.30 0.6254
401.40 0.6258
401.50 0.6263
401.60 0.6267
401.70 0.6272
401.80 0.6276
401.90 0.6281
402.00 0.6285
402.10 0.629
402.20 0.6294
402.30 0.6299
402.40 0.6303
402.50 0.6308
402.60 0.6312
402.70 0.6317
402.80 0.6321
402.90 0.6326
403.00 0.633
403.10 0.6335
403.20 0.6339
403.30 0.6343
403.40 0.6348
403.50 0.6352
403.60 0.6357
403.70 0.6361
403.80 0.6366
403.90 0.637
404.00 0.6375
404.10 0.6379
404.20 0.6384
404.30 0.6388
404.40 0.6393
404.50 0.6397
404.60 0.6402
404.70 0.6406
404.80 0.641
404.90 0.6415
405.00 0.6419
405.10 0.6424
405.20 0.6428
405.30 0.6433
405.40 0.6437
405.50 0.6442
405.60 0.6446
405.70 0.6451
405.80 0.6455
405.90 0.6459
406.00 0.6464
406.10 0.6468
406.20 0.6473
406.30 0.6477
406.40 0.6482
406.50 0.6486
406.60 0.6491
406.70 0.6495
406.80 0.6499
406.90 0.6504
407.00 0.6508
407.10 0.6513
407.20 0.6517
407.30 0.6522
407.40 0.6526
407.50 0.653
407.60 0.6535
407.70 0.6539
407.80 0.6544
407.90 0.6548
408.00 0.6553
408.10 0.6557
408.20 0.6562
408.30 0.6566
408.40 0.657
408.50 0.6575
408.60 0.6579
408.70 0.6584
408.80 0.6588
408.90 0.6592
409.00 0.6597
409.10 0.6601
409.20 0.6606
409.30 0.661
409.40 0.6615
409.50 0.6619
409.60 0.6623
409.70 0.6628
409.80 0.6632
409.90 0.6637
410.00 0.6641
410.10 0.6646
410.20 0.665
410.30 0.6654
410.40 0.6659
410.50 0.6663
410.60 0.6668
410.70 0.6672
410.80 0.6676
410.90 0.6681
411.00 0.6685
411.10 0.669
411.20 0.6694
411.30 0.6698
411.40 0.6703
411.50 0.6707
411.60 0.6712
411.70 0.6716
411.80 0.672
411.90 0.6725
412.00 0.6729
412.10 0.6733
412.20 0.6738
412.30 0.6742
412.40 0.6747
412.50 0.6751
412.60 0.6755
412.70 0.676
412.80 0.6764
412.90 0.6769
413.00 0.6773
413.10 0.6777
413.20 0.6782
413.30 0.6786
413.40 0.679
413.50 0.6795
413.60 0.6799
413.70 0.6804
413.80 0.6808
413.90 0.6812
414.00 0.6817
414.10 0.6821
414.20 0.6825
414.30 0.683
414.40 0.6834
414.50 0.6839
414.60 0.6843
414.70 0.6847
414.80 0.6852
414.90 0.6856
415.00 0.686
415.10 0.6865
415.20 0.6869
415.30 0.6873
415.40 0.6878
415.50 0.6882
415.60 0.6887
415.70 0.6891
415.80 0.6895
415.90 0.69
416.00 0.6904
416.10 0.6908
416.20 0.6913
416.30 0.6917
416.40 0.6921
416.50 0.6926
416.60 0.693
416.70 0.6934
416.80 0.6939
416.90 0.6943
417.00 0.6947
417.10 0.6952
417.20 0.6956
417.30 0.696
417.40 0.6965
417.50 0.6969
417.60 0.6973
417.70 0.6978
417.80 0.6982
417.90 0.6986
418.00 0.6991
418.10 0.6995
418.20 0.6999
418.30 0.7004
418.40 0.7008
418.50 0.7012
418.60 0.7017
418.70 0.7021
418.80 0.7025
418.90 0.703
419.00 0.7034
419.10 0.7038
419.20 0.7042
419.30 0.7047
419.40 0.7051
419.50 0.7055
419.60 0.706
419.70 0.7064
419.80 0.7068
419.90 0.7073
420.00 0.7077
420.10 0.7081
420.20 0.7086
420.30 0.709
420.40 0.7094
420.50 0.7098
420.60 0.7103
420.70 0.7107
420.80 0.7111
420.90 0.7116
421.00 0.712
421.10 0.7124
421.20 0.7129
421.30 0.7133
421.40 0.7137
421.50 0.7141
421.60 0.7146
421.70 0.715
421.80 0.7154
421.90 0.7159
422.00 0.7163
422.10 0.7167
422.20 0.7171
422.30 0.7176
422.40 0.718
422.50 0.7184
422.60 0.7189
422.70 0.7193
422.80 0.7197
422.90 0.7201
423.00 0.7206
423.10 0.721
423.20 0.7214
423.30 0.7218
423.40 0.7223
423.50 0.7227
423.60 0.7231
423.70 0.7235
423.80 0.724
423.90 0.7244
424.00 0.7248
424.10 0.7252
424.20 0.7257
424.30 0.7261
424.40 0.7265
424.50 0.7269
424.60 0.7274
424.70 0.7278
424.80 0.7282
424.90 0.7286
425.00 0.7291
425.10 0.7295
425.20 0.7299
425.30 0.7303
425.40 0.7308
425.50 0.7312
425.60 0.7316
425.70 0.732
425.80 0.7325
425.90 0.7329
426.00 0.7333
426.10 0.7337
426.20 0.7342
426.30 0.7346
426.40 0.735
426.50 0.7354
426.60 0.7358
426.70 0.7363
426.80 0.7367
426.90 0.7371
427.00 0.7375
427.10 0.7379
427.20 0.7384
427.30 0.7388
427.40 0.7392
427.50 0.7396
427.60 0.7401
427.70 0.7405
427.80 0.7409
427.90 0.7413
428.00 0.7417
428.10 0.7422
428.20 0.7426
428.30 0.743
428.40 0.7434
428.50 0.7438
428.60 0.7443
428.70 0.7447
428.80 0.7451
428.90 0.7455
429.00 0.7459
429.10 0.7464
429.20 0.7468
429.30 0.7472
429.40 0.7476
429.50 0.748
429.60 0.7484
429.70 0.7489
429.80 0.7493
429.90 0.7497
430.00 0.7501
430.10 0.7505
430.20 0.751
430.30 0.7514
430.40 0.7518
430.50 0.7522
430.60 0.7526
430.70 0.753
430.80 0.7534
430.90 0.7539
431.00 0.7543
431.10 0.7547
431.20 0.7551
431.30 0.7555
431.40 0.7559
431.50 0.7564
431.60 0.7568
431.70 0.7572
431.80 0.7576
431.90 0.758
432.00 0.7584
432.10 0.7589
432.20 0.7593
432.30 0.7597
432.40 0.7601
432.50 0.7605
432.60 0.7609
432.70 0.7613
432.80 0.7617
432.90 0.7622
433.00 0.7626
433.10 0.763
433.20 0.7634
433.30 0.7638
433.40 0.7642
433.50 0.7646
433.60 0.7651
433.70 0.7655
433.80 0.7659
433.90 0.7663
434.00 0.7667
434.10 0.7671
434.20 0.7675
434.30 0.7679
434.40 0.7683
434.50 0.7688
434.60 0.7692
434.70 0.7696
434.80 0.77
434.90 0.7704
435.00 0.7708
435.10 0.7712
435.20 0.7716
435.30 0.772
435.40 0.7725
435.50 0.7729
435.60 0.7733
435.70 0.7737
435.80 0.7741
435.90 0.7745
436.00 0.7749
436.10 0.7753
436.20 0.7757
436.30 0.7761
436.40 0.7765
436.50 0.7769
436.60 0.7774
436.70 0.7778
436.80 0.7782
436.90 0.7786
437.00 0.779
437.10 0.7794
437.20 0.7798
437.30 0.7802
437.40 0.7806
437.50 0.781
437.60 0.7814
437.70 0.7818
437.80 0.7822
437.90 0.7826
438.00 0.783
438.10 0.7834
438.20 0.7839
438.30 0.7843
438.40 0.7847
438.50 0.7851
438.60 0.7855
438.70 0.7859
438.80 0.7863
438.90 0.7867
439.00 0.7871
439.10 0.7875
439.20 0.7879
439.30 0.7883
439.40 0.7887
439.50 0.7891
439.60 0.7895
439.70 0.7899
439.80 0.7903
439.90 0.7907
440.00 0.7911
440.10 0.7915
440.20 0.7919
440.30 0.7923
440.40 0.7927
440.50 0.7931
440.60 0.7935
440.70 0.7939
440.80 0.7943
440.90 0.7947
441.00 0.7951
441.10 0.7955
441.20 0.796
441.30 0.7964
441.40 0.7968
441.50 0.7972
441.60 0.7976
441.70 0.798
441.80 0.7984
441.90 0.7988
442.00 0.7992
442.10 0.7995
442.20 0.8
442.30 0.8004
442.40 0.8008
442.50 0.8011
442.60 0.8015
442.70 0.8019
442.80 0.8023
442.90 0.8027
443.00 0.8031
