# Version 2.1 - nm, norm@500 to 1, cut digits, bergeron_3250_75.dat_3250
# Wavelength(nm)  Flambda(ergs/cm^s/s/nm)
300.00 0.09983
300.10 0.1001
300.20 0.1003
300.30 0.1006
300.40 0.1008
300.50 0.1011
300.60 0.1013
300.70 0.1016
300.80 0.1018
300.90 0.1021
301.00 0.1023
301.10 0.1025
301.20 0.1028
301.30 0.103
301.40 0.1033
301.50 0.1035
301.60 0.1038
301.70 0.104
301.80 0.1043
301.90 0.1045
302.00 0.1047
302.10 0.105
302.20 0.1053
302.30 0.1055
302.40 0.1058
302.50 0.106
302.60 0.1063
302.70 0.1065
302.80 0.1068
302.90 0.107
303.00 0.1073
303.10 0.1075
303.20 0.1078
303.30 0.108
303.40 0.1083
303.50 0.1085
303.60 0.1088
303.70 0.109
303.80 0.1093
303.90 0.1095
304.00 0.1098
304.10 0.1101
304.20 0.1103
304.30 0.1106
304.40 0.1108
304.50 0.1111
304.60 0.1114
304.70 0.1116
304.80 0.1119
304.90 0.1122
305.00 0.1124
305.10 0.1127
305.20 0.1129
305.30 0.1132
305.40 0.1135
305.50 0.1137
305.60 0.114
305.70 0.1142
305.80 0.1145
305.90 0.1147
306.00 0.115
306.10 0.1153
306.20 0.1155
306.30 0.1158
306.40 0.1161
306.50 0.1163
306.60 0.1166
306.70 0.1169
306.80 0.1172
306.90 0.1174
307.00 0.1177
307.10 0.118
307.20 0.1182
307.30 0.1185
307.40 0.1188
307.50 0.119
307.60 0.1193
307.70 0.1196
307.80 0.1198
307.90 0.1201
308.00 0.1204
308.10 0.1206
308.20 0.1209
308.30 0.1212
308.40 0.1215
308.50 0.1217
308.60 0.122
308.70 0.1223
308.80 0.1226
308.90 0.1228
309.00 0.1231
309.10 0.1234
309.20 0.1236
309.30 0.1239
309.40 0.1242
309.50 0.1245
309.60 0.1247
309.70 0.125
309.80 0.1253
309.90 0.1256
310.00 0.1258
310.10 0.1261
310.20 0.1264
310.30 0.1267
310.40 0.127
310.50 0.1272
310.60 0.1275
310.70 0.1278
310.80 0.1281
310.90 0.1284
311.00 0.1287
311.10 0.1289
311.20 0.1292
311.30 0.1295
311.40 0.1298
311.50 0.1301
311.60 0.1303
311.70 0.1306
311.80 0.1309
311.90 0.1312
312.00 0.1315
312.10 0.1317
312.20 0.132
312.30 0.1323
312.40 0.1326
312.50 0.1329
312.60 0.1332
312.70 0.1335
312.80 0.1338
312.90 0.1341
313.00 0.1343
313.10 0.1346
313.20 0.1349
313.30 0.1352
313.40 0.1355
313.50 0.1358
313.60 0.1361
313.70 0.1364
313.80 0.1366
313.90 0.1369
314.00 0.1372
314.10 0.1375
314.20 0.1378
314.30 0.1381
314.40 0.1384
314.50 0.1387
314.60 0.139
314.70 0.1393
314.80 0.1396
314.90 0.1399
315.00 0.1402
315.10 0.1405
315.20 0.1408
315.30 0.1411
315.40 0.1414
315.50 0.1417
315.60 0.1419
315.70 0.1422
315.80 0.1425
315.90 0.1428
316.00 0.1431
316.10 0.1434
316.20 0.1437
316.30 0.144
316.40 0.1443
316.50 0.1446
316.60 0.1449
316.70 0.1453
316.80 0.1456
316.90 0.1459
317.00 0.1462
317.10 0.1465
317.20 0.1468
317.30 0.1471
317.40 0.1474
317.50 0.1477
317.60 0.148
317.70 0.1483
317.80 0.1486
317.90 0.1489
318.00 0.1492
318.10 0.1495
318.20 0.1498
318.30 0.1501
318.40 0.1504
318.50 0.1507
318.60 0.151
318.70 0.1513
318.80 0.1517
318.90 0.152
319.00 0.1523
319.10 0.1526
319.20 0.1529
319.30 0.1532
319.40 0.1535
319.50 0.1538
319.60 0.1541
319.70 0.1544
319.80 0.1547
319.90 0.155
320.00 0.1554
320.10 0.1557
320.20 0.156
320.30 0.1563
320.40 0.1566
320.50 0.1569
320.60 0.1573
320.70 0.1576
320.80 0.1579
320.90 0.1582
321.00 0.1585
321.10 0.1588
321.20 0.1592
321.30 0.1595
321.40 0.1598
321.50 0.1601
321.60 0.1604
321.70 0.1607
321.80 0.161
321.90 0.1614
322.00 0.1617
322.10 0.162
322.20 0.1623
322.30 0.1626
322.40 0.163
322.50 0.1633
322.60 0.1636
322.70 0.1639
322.80 0.1643
322.90 0.1646
323.00 0.1649
323.10 0.1652
323.20 0.1656
323.30 0.1659
323.40 0.1662
323.50 0.1665
323.60 0.1668
323.70 0.1672
323.80 0.1675
323.90 0.1678
324.00 0.1681
324.10 0.1685
324.20 0.1688
324.30 0.1691
324.40 0.1695
324.50 0.1698
324.60 0.1701
324.70 0.1704
324.80 0.1708
324.90 0.1711
325.00 0.1714
325.10 0.1718
325.20 0.1721
325.30 0.1724
325.40 0.1728
325.50 0.1731
325.60 0.1734
325.70 0.1737
325.80 0.1741
325.90 0.1744
326.00 0.1747
326.10 0.175
326.20 0.1754
326.30 0.1757
326.40 0.1761
326.50 0.1764
326.60 0.1767
326.70 0.1771
326.80 0.1774
326.90 0.1778
327.00 0.1781
327.10 0.1784
327.20 0.1788
327.30 0.1791
327.40 0.1794
327.50 0.1798
327.60 0.1801
327.70 0.1804
327.80 0.1808
327.90 0.1811
328.00 0.1814
328.10 0.1818
328.20 0.1821
328.30 0.1825
328.40 0.1828
328.50 0.1832
328.60 0.1835
328.70 0.1839
328.80 0.1842
328.90 0.1845
329.00 0.1849
329.10 0.1852
329.20 0.1856
329.30 0.1859
329.40 0.1863
329.50 0.1866
329.60 0.1869
329.70 0.1873
329.80 0.1876
329.90 0.188
330.00 0.1883
330.10 0.1886
330.20 0.189
330.30 0.1893
330.40 0.1897
330.50 0.1901
330.60 0.1904
330.70 0.1908
330.80 0.1911
330.90 0.1915
331.00 0.1918
331.10 0.1922
331.20 0.1925
331.30 0.1929
331.40 0.1932
331.50 0.1935
331.60 0.1939
331.70 0.1942
331.80 0.1946
331.90 0.1949
332.00 0.1953
332.10 0.1956
332.20 0.196
332.30 0.1964
332.40 0.1967
332.50 0.1971
332.60 0.1974
332.70 0.1978
332.80 0.1981
332.90 0.1985
333.00 0.1989
333.10 0.1992
333.20 0.1996
333.30 0.1999
333.40 0.2003
333.50 0.2006
333.60 0.201
333.70 0.2013
333.80 0.2017
333.90 0.202
334.00 0.2024
334.10 0.2028
334.20 0.2031
334.30 0.2035
334.40 0.2039
334.50 0.2042
334.60 0.2046
334.70 0.205
334.80 0.2053
334.90 0.2057
335.00 0.206
335.10 0.2064
335.20 0.2068
335.30 0.2071
335.40 0.2075
335.50 0.2078
335.60 0.2082
335.70 0.2086
335.80 0.2089
335.90 0.2093
336.00 0.2096
336.10 0.21
336.20 0.2104
336.30 0.2108
336.40 0.2111
336.50 0.2115
336.60 0.2119
336.70 0.2122
336.80 0.2126
336.90 0.213
337.00 0.2133
337.10 0.2137
337.20 0.2141
337.30 0.2144
337.40 0.2148
337.50 0.2152
337.60 0.2155
337.70 0.2159
337.80 0.2163
337.90 0.2166
338.00 0.217
338.10 0.2174
338.20 0.2178
338.30 0.2181
338.40 0.2185
338.50 0.2189
338.60 0.2193
338.70 0.2197
338.80 0.22
338.90 0.2204
339.00 0.2208
339.10 0.2212
339.20 0.2215
339.30 0.2219
339.40 0.2223
339.50 0.2226
339.60 0.223
339.70 0.2234
339.80 0.2238
339.90 0.2241
340.00 0.2245
340.10 0.2249
340.20 0.2253
340.30 0.2257
340.40 0.226
340.50 0.2264
340.60 0.2268
340.70 0.2272
340.80 0.2276
340.90 0.2279
341.00 0.2283
341.10 0.2287
341.20 0.2291
341.30 0.2295
341.40 0.2299
341.50 0.2302
341.60 0.2306
341.70 0.231
341.80 0.2314
341.90 0.2317
342.00 0.2321
342.10 0.2325
342.20 0.2329
342.30 0.2333
342.40 0.2337
342.50 0.2341
342.60 0.2345
342.70 0.2348
342.80 0.2352
342.90 0.2356
343.00 0.236
343.10 0.2364
343.20 0.2368
343.30 0.2372
343.40 0.2376
343.50 0.2379
343.60 0.2383
343.70 0.2387
343.80 0.2391
343.90 0.2395
344.00 0.2399
344.10 0.2402
344.20 0.2406
344.30 0.241
344.40 0.2414
344.50 0.2418
344.60 0.2422
344.70 0.2426
344.80 0.243
344.90 0.2434
345.00 0.2438
345.10 0.2442
345.20 0.2446
345.30 0.245
345.40 0.2454
345.50 0.2458
345.60 0.2461
345.70 0.2465
345.80 0.2469
345.90 0.2473
346.00 0.2477
346.10 0.2481
346.20 0.2485
346.30 0.2489
346.40 0.2493
346.50 0.2497
346.60 0.2501
346.70 0.2505
346.80 0.2509
346.90 0.2513
347.00 0.2517
347.10 0.2521
347.20 0.2525
347.30 0.2529
347.40 0.2533
347.50 0.2537
347.60 0.2541
347.70 0.2545
347.80 0.2549
347.90 0.2553
348.00 0.2557
348.10 0.2561
348.20 0.2565
348.30 0.2569
348.40 0.2573
348.50 0.2577
348.60 0.2581
348.70 0.2585
348.80 0.2589
348.90 0.2593
349.00 0.2597
349.10 0.2601
349.20 0.2605
349.30 0.2609
349.40 0.2613
349.50 0.2617
349.60 0.2622
349.70 0.2626
349.80 0.263
349.90 0.2634
350.00 0.2638
350.10 0.2642
350.20 0.2646
350.30 0.265
350.40 0.2654
350.50 0.2658
350.60 0.2662
350.70 0.2666
350.80 0.2671
350.90 0.2675
351.00 0.2679
351.10 0.2683
351.20 0.2687
351.30 0.2691
351.40 0.2695
351.50 0.2699
351.60 0.2703
351.70 0.2707
351.80 0.2711
351.90 0.2715
352.00 0.2719
352.10 0.2724
352.20 0.2728
352.30 0.2732
352.40 0.2736
352.50 0.274
352.60 0.2745
352.70 0.2749
352.80 0.2753
352.90 0.2757
353.00 0.2761
353.10 0.2765
353.20 0.277
353.30 0.2774
353.40 0.2778
353.50 0.2782
353.60 0.2786
353.70 0.279
353.80 0.2794
353.90 0.2798
354.00 0.2802
354.10 0.2807
354.20 0.2811
354.30 0.2815
354.40 0.2819
354.50 0.2824
354.60 0.2828
354.70 0.2832
354.80 0.2836
354.90 0.2841
355.00 0.2845
355.10 0.2849
355.20 0.2853
355.30 0.2857
355.40 0.2862
355.50 0.2866
355.60 0.287
355.70 0.2874
355.80 0.2878
355.90 0.2882
356.00 0.2887
356.10 0.2891
356.20 0.2895
356.30 0.2899
356.40 0.2904
356.50 0.2908
356.60 0.2912
356.70 0.2917
356.80 0.2921
356.90 0.2925
357.00 0.2929
357.10 0.2934
357.20 0.2938
357.30 0.2942
357.40 0.2946
357.50 0.2951
357.60 0.2955
357.70 0.2959
357.80 0.2963
357.90 0.2967
358.00 0.2972
358.10 0.2976
358.20 0.298
358.30 0.2985
358.40 0.2989
358.50 0.2993
358.60 0.2998
358.70 0.3002
358.80 0.3006
358.90 0.3011
359.00 0.3015
359.10 0.3019
359.20 0.3024
359.30 0.3028
359.40 0.3032
359.50 0.3036
359.60 0.3041
359.70 0.3045
359.80 0.3049
359.90 0.3054
360.00 0.3058
360.10 0.3062
360.20 0.3067
360.30 0.3071
360.40 0.3075
360.50 0.308
360.60 0.3084
360.70 0.3089
360.80 0.3093
360.90 0.3097
361.00 0.3102
361.10 0.3106
361.20 0.311
361.30 0.3115
361.40 0.3119
361.50 0.3123
361.60 0.3128
361.70 0.3132
361.80 0.3136
361.90 0.3141
362.00 0.3145
362.10 0.3149
362.20 0.3154
362.30 0.3158
362.40 0.3163
362.50 0.3167
362.60 0.3171
362.70 0.3176
362.80 0.318
362.90 0.3184
363.00 0.3189
363.10 0.3193
363.20 0.3198
363.30 0.3202
363.40 0.3207
363.50 0.3211
363.60 0.3216
363.70 0.322
363.80 0.3224
363.90 0.3229
364.00 0.3233
364.10 0.3238
364.20 0.3242
364.30 0.3246
364.40 0.3251
364.50 0.3255
364.60 0.326
364.70 0.3264
364.80 0.3269
364.90 0.3273
365.00 0.3278
365.10 0.3282
365.20 0.3287
365.30 0.3291
365.40 0.3295
365.50 0.33
365.60 0.3304
365.70 0.3309
365.80 0.3313
365.90 0.3318
366.00 0.3322
366.10 0.3327
366.20 0.3331
366.30 0.3336
366.40 0.334
366.50 0.3345
366.60 0.3349
366.70 0.3354
366.80 0.3358
366.90 0.3363
367.00 0.3367
367.10 0.3372
367.20 0.3376
367.30 0.3381
367.40 0.3385
367.50 0.339
367.60 0.3394
367.70 0.3399
367.80 0.3403
367.90 0.3408
368.00 0.3412
368.10 0.3417
368.20 0.3421
368.30 0.3426
368.40 0.343
368.50 0.3435
368.60 0.3439
368.70 0.3444
368.80 0.3449
368.90 0.3453
369.00 0.3458
369.10 0.3462
369.20 0.3467
369.30 0.3471
369.40 0.3476
369.50 0.348
369.60 0.3485
369.70 0.3489
369.80 0.3494
369.90 0.3498
370.00 0.3503
370.10 0.3507
370.20 0.3512
370.30 0.3517
370.40 0.3521
370.50 0.3526
370.60 0.3531
370.70 0.3535
370.80 0.354
370.90 0.3544
371.00 0.3549
371.10 0.3554
371.20 0.3558
371.30 0.3563
371.40 0.3567
371.50 0.3572
371.60 0.3576
371.70 0.3581
371.80 0.3585
371.90 0.359
372.00 0.3595
372.10 0.3599
372.20 0.3604
372.30 0.3609
372.40 0.3613
372.50 0.3618
372.60 0.3623
372.70 0.3627
372.80 0.3632
372.90 0.3636
373.00 0.3641
373.10 0.3646
373.20 0.365
373.30 0.3655
373.40 0.366
373.50 0.3664
373.60 0.3669
373.70 0.3673
373.80 0.3678
373.90 0.3682
374.00 0.3687
374.10 0.3692
374.20 0.3696
374.30 0.3701
374.40 0.3706
374.50 0.3711
374.60 0.3715
374.70 0.372
374.80 0.3725
374.90 0.3729
375.00 0.3734
375.10 0.3739
375.20 0.3743
375.30 0.3748
375.40 0.3753
375.50 0.3757
375.60 0.3762
375.70 0.3766
375.80 0.3771
375.90 0.3776
376.00 0.378
376.10 0.3785
376.20 0.379
376.30 0.3794
376.40 0.3799
376.50 0.3804
376.60 0.3809
376.70 0.3813
376.80 0.3818
376.90 0.3823
377.00 0.3827
377.10 0.3832
377.20 0.3837
377.30 0.3841
377.40 0.3846
377.50 0.3851
377.60 0.3856
377.70 0.386
377.80 0.3865
377.90 0.387
378.00 0.3874
378.10 0.3879
378.20 0.3884
378.30 0.3889
378.40 0.3893
378.50 0.3898
378.60 0.3903
378.70 0.3908
378.80 0.3912
378.90 0.3917
379.00 0.3922
379.10 0.3927
379.20 0.3931
379.30 0.3936
379.40 0.3941
379.50 0.3946
379.60 0.395
379.70 0.3955
379.80 0.396
379.90 0.3965
380.00 0.3969
380.10 0.3974
380.20 0.3979
380.30 0.3984
380.40 0.3988
380.50 0.3993
380.60 0.3998
380.70 0.4003
380.80 0.4007
380.90 0.4012
381.00 0.4017
381.10 0.4022
381.20 0.4027
381.30 0.4031
381.40 0.4036
381.50 0.4041
381.60 0.4046
381.70 0.405
381.80 0.4055
381.90 0.406
382.00 0.4065
382.10 0.407
382.20 0.4074
382.30 0.4079
382.40 0.4084
382.50 0.4089
382.60 0.4094
382.70 0.4098
382.80 0.4103
382.90 0.4108
383.00 0.4113
383.10 0.4118
383.20 0.4122
383.30 0.4127
383.40 0.4132
383.50 0.4137
383.60 0.4142
383.70 0.4146
383.80 0.4152
383.90 0.4156
384.00 0.4161
384.10 0.4166
384.20 0.4171
384.30 0.4175
384.40 0.418
384.50 0.4185
384.60 0.419
384.70 0.4195
384.80 0.42
384.90 0.4205
385.00 0.4209
385.10 0.4214
385.20 0.4219
385.30 0.4224
385.40 0.4229
385.50 0.4234
385.60 0.4239
385.70 0.4243
385.80 0.4248
385.90 0.4253
386.00 0.4258
386.10 0.4263
386.20 0.4268
386.30 0.4273
386.40 0.4277
386.50 0.4282
386.60 0.4287
386.70 0.4292
386.80 0.4297
386.90 0.4302
387.00 0.4307
387.10 0.4311
387.20 0.4316
387.30 0.4321
387.40 0.4326
387.50 0.4331
387.60 0.4336
387.70 0.4341
387.80 0.4346
387.90 0.4351
388.00 0.4356
388.10 0.436
388.20 0.4365
388.30 0.437
388.40 0.4375
388.50 0.438
388.60 0.4385
388.70 0.439
388.80 0.4395
388.90 0.44
389.00 0.4404
389.10 0.4409
389.20 0.4414
389.30 0.4419
389.40 0.4424
389.50 0.4429
389.60 0.4434
389.70 0.4439
389.80 0.4444
389.90 0.4449
390.00 0.4454
390.10 0.4458
390.20 0.4463
390.30 0.4468
390.40 0.4473
390.50 0.4478
390.60 0.4483
390.70 0.4488
390.80 0.4493
390.90 0.4498
391.00 0.4503
391.10 0.4508
391.20 0.4513
391.30 0.4518
391.40 0.4523
391.50 0.4528
391.60 0.4532
391.70 0.4537
391.80 0.4542
391.90 0.4547
392.00 0.4552
392.10 0.4557
392.20 0.4562
392.30 0.4567
392.40 0.4572
392.50 0.4577
392.60 0.4582
392.70 0.4587
392.80 0.4592
392.90 0.4597
393.00 0.4602
393.10 0.4607
393.20 0.4612
393.30 0.4617
393.40 0.4622
393.50 0.4627
393.60 0.4632
393.70 0.4636
393.80 0.4642
393.90 0.4647
394.00 0.4652
394.10 0.4656
394.20 0.4661
394.30 0.4667
394.40 0.4671
394.50 0.4676
394.60 0.4681
394.70 0.4686
394.80 0.4691
394.90 0.4696
395.00 0.4701
395.10 0.4706
395.20 0.4711
395.30 0.4716
395.40 0.4721
395.50 0.4726
395.60 0.4731
395.70 0.4736
395.80 0.4741
395.90 0.4746
396.00 0.4751
396.10 0.4756
396.20 0.4761
396.30 0.4766
396.40 0.4771
396.50 0.4776
396.60 0.4781
396.70 0.4786
396.80 0.4791
396.90 0.4796
397.00 0.4801
397.10 0.4806
397.20 0.4811
397.30 0.4817
397.40 0.4821
397.50 0.4826
397.60 0.4831
397.70 0.4836
397.80 0.4841
397.90 0.4847
398.00 0.4851
398.10 0.4857
398.20 0.4862
398.30 0.4867
398.40 0.4872
398.50 0.4877
398.60 0.4882
398.70 0.4887
398.80 0.4892
398.90 0.4897
399.00 0.4902
399.10 0.4907
399.20 0.4912
399.30 0.4917
399.40 0.4922
399.50 0.4927
399.60 0.4932
399.70 0.4937
399.80 0.4942
399.90 0.4947
400.00 0.4952
400.10 0.4957
400.20 0.4962
400.30 0.4967
400.40 0.4972
400.50 0.4977
400.60 0.4983
400.70 0.4988
400.80 0.4993
400.90 0.4998
401.00 0.5003
401.10 0.5008
401.20 0.5013
401.30 0.5018
401.40 0.5023
401.50 0.5028
401.60 0.5033
401.70 0.5038
401.80 0.5043
401.90 0.5048
402.00 0.5053
402.10 0.5058
402.20 0.5063
402.30 0.5068
402.40 0.5074
402.50 0.5079
402.60 0.5084
402.70 0.5089
402.80 0.5094
402.90 0.5099
403.00 0.5104
403.10 0.5109
403.20 0.5114
403.30 0.5119
403.40 0.5124
403.50 0.5129
403.60 0.5134
403.70 0.514
403.80 0.5145
403.90 0.515
404.00 0.5155
404.10 0.516
404.20 0.5165
404.30 0.517
404.40 0.5175
404.50 0.518
404.60 0.5185
404.70 0.5191
404.80 0.5196
404.90 0.5201
405.00 0.5206
405.10 0.5211
405.20 0.5216
405.30 0.5221
405.40 0.5226
405.50 0.5231
405.60 0.5236
405.70 0.5241
405.80 0.5247
405.90 0.5252
406.00 0.5257
406.10 0.5262
406.20 0.5267
406.30 0.5272
406.40 0.5277
406.50 0.5282
406.60 0.5287
406.70 0.5293
406.80 0.5298
406.90 0.5303
407.00 0.5308
407.10 0.5313
407.20 0.5318
407.30 0.5323
407.40 0.5328
407.50 0.5333
407.60 0.5339
407.70 0.5344
407.80 0.5349
407.90 0.5354
408.00 0.5359
408.10 0.5364
408.20 0.5369
408.30 0.5374
408.40 0.5379
408.50 0.5385
408.60 0.539
408.70 0.5395
408.80 0.54
408.90 0.5405
409.00 0.541
409.10 0.5415
409.20 0.542
409.30 0.5425
409.40 0.5431
409.50 0.5436
409.60 0.5441
409.70 0.5446
409.80 0.5451
409.90 0.5457
410.00 0.5462
410.10 0.5467
410.20 0.5472
410.30 0.5477
410.40 0.5482
410.50 0.5487
410.60 0.5492
410.70 0.5497
410.80 0.5503
410.90 0.5508
411.00 0.5513
411.10 0.5518
411.20 0.5523
411.30 0.5528
411.40 0.5534
411.50 0.5539
411.60 0.5544
411.70 0.5549
411.80 0.5554
411.90 0.5559
412.00 0.5564
412.10 0.5569
412.20 0.5575
412.30 0.558
412.40 0.5585
412.50 0.559
412.60 0.5595
412.70 0.5601
412.80 0.5606
412.90 0.5611
413.00 0.5616
413.10 0.5621
413.20 0.5626
413.30 0.5631
413.40 0.5636
413.50 0.5642
413.60 0.5647
413.70 0.5652
413.80 0.5657
413.90 0.5662
414.00 0.5668
414.10 0.5673
414.20 0.5678
414.30 0.5683
414.40 0.5688
414.50 0.5693
414.60 0.5698
414.70 0.5704
414.80 0.5709
414.90 0.5714
415.00 0.5719
415.10 0.5724
415.20 0.573
415.30 0.5735
415.40 0.574
415.50 0.5745
415.60 0.575
415.70 0.5755
415.80 0.576
415.90 0.5766
416.00 0.5771
416.10 0.5776
416.20 0.5781
416.30 0.5786
416.40 0.5791
416.50 0.5797
416.60 0.5802
416.70 0.5807
416.80 0.5812
416.90 0.5817
417.00 0.5823
417.10 0.5828
417.20 0.5833
417.30 0.5838
417.40 0.5843
417.50 0.5848
417.60 0.5854
417.70 0.5859
417.80 0.5864
417.90 0.5869
418.00 0.5874
418.10 0.588
418.20 0.5885
418.30 0.589
418.40 0.5895
418.50 0.59
418.60 0.5906
418.70 0.5911
418.80 0.5916
418.90 0.5921
419.00 0.5926
419.10 0.5932
419.20 0.5937
419.30 0.5942
419.40 0.5947
419.50 0.5952
419.60 0.5957
419.70 0.5962
419.80 0.5968
419.90 0.5973
420.00 0.5978
420.10 0.5983
420.20 0.5988
420.30 0.5994
420.40 0.5999
420.50 0.6004
420.60 0.6009
420.70 0.6014
420.80 0.602
420.90 0.6025
421.00 0.603
421.10 0.6035
421.20 0.604
421.30 0.6046
421.40 0.6051
421.50 0.6056
421.60 0.6061
421.70 0.6066
421.80 0.6072
421.90 0.6077
422.00 0.6082
422.10 0.6087
422.20 0.6092
422.30 0.6097
422.40 0.6103
422.50 0.6108
422.60 0.6113
422.70 0.6118
422.80 0.6123
422.90 0.6129
423.00 0.6134
423.10 0.6139
423.20 0.6144
423.30 0.6149
423.40 0.6155
423.50 0.616
423.60 0.6165
423.70 0.617
423.80 0.6175
423.90 0.6181
424.00 0.6186
424.10 0.6191
424.20 0.6196
424.30 0.6201
424.40 0.6207
424.50 0.6212
424.60 0.6217
424.70 0.6222
424.80 0.6228
424.90 0.6233
425.00 0.6238
425.10 0.6243
425.20 0.6248
425.30 0.6254
425.40 0.6259
425.50 0.6264
425.60 0.6269
425.70 0.6274
425.80 0.628
425.90 0.6285
426.00 0.629
426.10 0.6295
426.20 0.63
426.30 0.6306
426.40 0.6311
426.50 0.6316
426.60 0.6321
426.70 0.6326
426.80 0.6332
426.90 0.6337
427.00 0.6342
427.10 0.6347
427.20 0.6352
427.30 0.6358
427.40 0.6363
427.50 0.6368
427.60 0.6373
427.70 0.6378
427.80 0.6384
427.90 0.6389
428.00 0.6394
428.10 0.6399
428.20 0.6405
428.30 0.641
428.40 0.6415
428.50 0.642
428.60 0.6425
428.70 0.6431
428.80 0.6436
428.90 0.6441
429.00 0.6446
429.10 0.6451
429.20 0.6457
429.30 0.6462
429.40 0.6467
429.50 0.6472
429.60 0.6477
429.70 0.6483
429.80 0.6488
429.90 0.6493
430.00 0.6498
430.10 0.6504
430.20 0.6509
430.30 0.6514
430.40 0.6519
430.50 0.6525
430.60 0.653
430.70 0.6535
430.80 0.654
430.90 0.6545
431.00 0.6551
431.10 0.6556
431.20 0.6561
431.30 0.6566
431.40 0.6571
431.50 0.6577
431.60 0.6582
431.70 0.6587
431.80 0.6592
431.90 0.6597
432.00 0.6603
432.10 0.6608
432.20 0.6613
432.30 0.6618
432.40 0.6623
432.50 0.6629
432.60 0.6634
432.70 0.6639
432.80 0.6644
432.90 0.6649
433.00 0.6655
433.10 0.666
433.20 0.6665
433.30 0.667
433.40 0.6676
433.50 0.6681
433.60 0.6686
433.70 0.6691
433.80 0.6696
433.90 0.6702
434.00 0.6707
434.10 0.6712
434.20 0.6717
434.30 0.6722
434.40 0.6728
434.50 0.6733
434.60 0.6738
434.70 0.6743
434.80 0.6748
434.90 0.6754
435.00 0.6759
435.10 0.6764
435.20 0.6769
435.30 0.6775
435.40 0.678
435.50 0.6785
435.60 0.679
435.70 0.6795
435.80 0.6801
435.90 0.6806
436.00 0.6811
436.10 0.6816
436.20 0.6821
436.30 0.6827
436.40 0.6832
436.50 0.6837
436.60 0.6842
436.70 0.6847
436.80 0.6853
436.90 0.6858
437.00 0.6863
437.10 0.6868
437.20 0.6873
437.30 0.6879
437.40 0.6884
437.50 0.6889
437.60 0.6894
437.70 0.69
437.80 0.6905
437.90 0.691
438.00 0.6915
438.10 0.692
438.20 0.6926
438.30 0.6931
438.40 0.6936
438.50 0.6941
438.60 0.6946
438.70 0.6952
438.80 0.6957
438.90 0.6962
439.00 0.6967
439.10 0.6972
439.20 0.6977
439.30 0.6983
439.40 0.6988
439.50 0.6993
439.60 0.6998
439.70 0.7003
439.80 0.7009
439.90 0.7014
440.00 0.7019
440.10 0.7024
440.20 0.703
440.30 0.7035
440.40 0.704
440.50 0.7045
440.60 0.705
440.70 0.7055
440.80 0.7061
440.90 0.7066
441.00 0.7071
441.10 0.7076
441.20 0.7081
441.30 0.7087
441.40 0.7092
441.50 0.7097
441.60 0.7102
441.70 0.7108
441.80 0.7113
441.90 0.7118
442.00 0.7123
442.10 0.7128
442.20 0.7133
442.30 0.7139
442.40 0.7144
442.50 0.7149
442.60 0.7154
442.70 0.716
442.80 0.7165
