# Version 2.1 - nm, norm@500 to 1, cut digits, bergeron_45000_90.dat_45000
# Wavelength(nm)  Flambda(ergs/cm^s/s/nm)
300.00 6.099
300.10 6.092
300.20 6.085
300.30 6.077
300.40 6.07
300.50 6.063
300.60 6.056
300.70 6.048
300.80 6.041
300.90 6.034
301.00 6.027
301.10 6.019
301.20 6.012
301.30 6.005
301.40 5.998
301.50 5.991
301.60 5.984
301.70 5.976
301.80 5.969
301.90 5.962
302.00 5.955
302.10 5.948
302.20 5.941
302.30 5.934
302.40 5.927
302.50 5.92
302.60 5.913
302.70 5.906
302.80 5.899
302.90 5.892
303.00 5.885
303.10 5.878
303.20 5.871
303.30 5.864
303.40 5.857
303.50 5.85
303.60 5.843
303.70 5.836
303.80 5.829
303.90 5.822
304.00 5.815
304.10 5.808
304.20 5.801
304.30 5.795
304.40 5.788
304.50 5.781
304.60 5.774
304.70 5.767
304.80 5.76
304.90 5.754
305.00 5.747
305.10 5.74
305.20 5.733
305.30 5.727
305.40 5.72
305.50 5.713
305.60 5.706
305.70 5.7
305.80 5.693
305.90 5.686
306.00 5.679
306.10 5.673
306.20 5.666
306.30 5.659
306.40 5.653
306.50 5.646
306.60 5.639
306.70 5.633
306.80 5.626
306.90 5.62
307.00 5.613
307.10 5.606
307.20 5.6
307.30 5.593
307.40 5.587
307.50 5.58
307.60 5.574
307.70 5.567
307.80 5.561
307.90 5.554
308.00 5.548
308.10 5.541
308.20 5.535
308.30 5.528
308.40 5.522
308.50 5.515
308.60 5.509
308.70 5.502
308.80 5.496
308.90 5.49
309.00 5.483
309.10 5.477
309.20 5.47
309.30 5.464
309.40 5.458
309.50 5.451
309.60 5.445
309.70 5.439
309.80 5.432
309.90 5.426
310.00 5.42
310.10 5.413
310.20 5.407
310.30 5.401
310.40 5.394
310.50 5.388
310.60 5.382
310.70 5.376
310.80 5.369
310.90 5.363
311.00 5.357
311.10 5.351
311.20 5.345
311.30 5.338
311.40 5.332
311.50 5.326
311.60 5.32
311.70 5.314
311.80 5.308
311.90 5.301
312.00 5.295
312.10 5.289
312.20 5.283
312.30 5.277
312.40 5.271
312.50 5.265
312.60 5.259
312.70 5.253
312.80 5.246
312.90 5.24
313.00 5.234
313.10 5.228
313.20 5.222
313.30 5.216
313.40 5.21
313.50 5.204
313.60 5.198
313.70 5.192
313.80 5.186
313.90 5.18
314.00 5.174
314.10 5.169
314.20 5.163
314.30 5.157
314.40 5.151
314.50 5.145
314.60 5.139
314.70 5.133
314.80 5.127
314.90 5.121
315.00 5.115
315.10 5.109
315.20 5.104
315.30 5.098
315.40 5.092
315.50 5.086
315.60 5.08
315.70 5.075
315.80 5.069
315.90 5.063
316.00 5.057
316.10 5.051
316.20 5.046
316.30 5.04
316.40 5.034
316.50 5.028
316.60 5.023
316.70 5.017
316.80 5.011
316.90 5.005
317.00 5
317.10 4.994
317.20 4.988
317.30 4.983
317.40 4.977
317.50 4.971
317.60 4.966
317.70 4.96
317.80 4.954
317.90 4.949
318.00 4.943
318.10 4.937
318.20 4.932
318.30 4.926
318.40 4.921
318.50 4.915
318.60 4.91
318.70 4.904
318.80 4.898
318.90 4.893
319.00 4.887
319.10 4.882
319.20 4.876
319.30 4.871
319.40 4.865
319.50 4.86
319.60 4.854
319.70 4.849
319.80 4.843
319.90 4.838
320.00 4.832
320.10 4.827
320.20 4.821
320.30 4.816
320.40 4.81
320.50 4.805
320.60 4.8
320.70 4.794
320.80 4.789
320.90 4.783
321.00 4.778
321.10 4.773
321.20 4.767
321.30 4.762
321.40 4.757
321.50 4.751
321.60 4.746
321.70 4.741
321.80 4.735
321.90 4.73
322.00 4.725
322.10 4.719
322.20 4.714
322.30 4.709
322.40 4.703
322.50 4.698
322.60 4.693
322.70 4.688
322.80 4.682
322.90 4.677
323.00 4.672
323.10 4.667
323.20 4.661
323.30 4.656
323.40 4.651
323.50 4.646
323.60 4.641
323.70 4.635
323.80 4.63
323.90 4.625
324.00 4.62
324.10 4.615
324.20 4.61
324.30 4.604
324.40 4.599
324.50 4.594
324.60 4.589
324.70 4.584
324.80 4.579
324.90 4.574
325.00 4.569
325.10 4.564
325.20 4.558
325.30 4.553
325.40 4.548
325.50 4.543
325.60 4.538
325.70 4.533
325.80 4.528
325.90 4.523
326.00 4.518
326.10 4.513
326.20 4.508
326.30 4.503
326.40 4.498
326.50 4.493
326.60 4.488
326.70 4.483
326.80 4.478
326.90 4.473
327.00 4.468
327.10 4.463
327.20 4.458
327.30 4.453
327.40 4.448
327.50 4.444
327.60 4.439
327.70 4.434
327.80 4.429
327.90 4.424
328.00 4.419
328.10 4.414
328.20 4.409
328.30 4.404
328.40 4.4
328.50 4.395
328.60 4.39
328.70 4.385
328.80 4.38
328.90 4.375
329.00 4.371
329.10 4.366
329.20 4.361
329.30 4.356
329.40 4.351
329.50 4.347
329.60 4.342
329.70 4.337
329.80 4.332
329.90 4.327
330.00 4.323
330.10 4.318
330.20 4.313
330.30 4.309
330.40 4.304
330.50 4.299
330.60 4.294
330.70 4.29
330.80 4.285
330.90 4.28
331.00 4.276
331.10 4.271
331.20 4.266
331.30 4.262
331.40 4.257
331.50 4.252
331.60 4.248
331.70 4.243
331.80 4.238
331.90 4.234
332.00 4.229
332.10 4.224
332.20 4.22
332.30 4.215
332.40 4.211
332.50 4.206
332.60 4.201
332.70 4.197
332.80 4.192
332.90 4.188
333.00 4.183
333.10 4.179
333.20 4.174
333.30 4.17
333.40 4.165
333.50 4.16
333.60 4.156
333.70 4.151
333.80 4.147
333.90 4.142
334.00 4.138
334.10 4.133
334.20 4.129
334.30 4.124
334.40 4.12
334.50 4.116
334.60 4.111
334.70 4.107
334.80 4.102
334.90 4.098
335.00 4.093
335.10 4.089
335.20 4.084
335.30 4.08
335.40 4.076
335.50 4.071
335.60 4.067
335.70 4.062
335.80 4.058
335.90 4.054
336.00 4.049
336.10 4.045
336.20 4.04
336.30 4.036
336.40 4.032
336.50 4.027
336.60 4.023
336.70 4.019
336.80 4.014
336.90 4.01
337.00 4.006
337.10 4.001
337.20 3.997
337.30 3.993
337.40 3.989
337.50 3.984
337.60 3.98
337.70 3.976
337.80 3.971
337.90 3.967
338.00 3.963
338.10 3.959
338.20 3.954
338.30 3.95
338.40 3.946
338.50 3.942
338.60 3.937
338.70 3.933
338.80 3.929
338.90 3.925
339.00 3.921
339.10 3.916
339.20 3.912
339.30 3.908
339.40 3.904
339.50 3.9
339.60 3.895
339.70 3.891
339.80 3.887
339.90 3.883
340.00 3.879
340.10 3.875
340.20 3.871
340.30 3.866
340.40 3.862
340.50 3.858
340.60 3.854
340.70 3.85
340.80 3.846
340.90 3.842
341.00 3.838
341.10 3.834
341.20 3.83
341.30 3.825
341.40 3.821
341.50 3.817
341.60 3.813
341.70 3.809
341.80 3.805
341.90 3.801
342.00 3.797
342.10 3.793
342.20 3.789
342.30 3.785
342.40 3.781
342.50 3.777
342.60 3.773
342.70 3.769
342.80 3.765
342.90 3.761
343.00 3.757
343.10 3.753
343.20 3.749
343.30 3.745
343.40 3.741
343.50 3.737
343.60 3.733
343.70 3.729
343.80 3.725
343.90 3.721
344.00 3.717
344.10 3.713
344.20 3.709
344.30 3.706
344.40 3.702
344.50 3.698
344.60 3.694
344.70 3.69
344.80 3.686
344.90 3.682
345.00 3.678
345.10 3.674
345.20 3.671
345.30 3.667
345.40 3.663
345.50 3.659
345.60 3.655
345.70 3.651
345.80 3.647
345.90 3.644
346.00 3.64
346.10 3.636
346.20 3.632
346.30 3.628
346.40 3.625
346.50 3.621
346.60 3.617
346.70 3.613
346.80 3.609
346.90 3.606
347.00 3.602
347.10 3.598
347.20 3.594
347.30 3.59
347.40 3.587
347.50 3.583
347.60 3.579
347.70 3.575
347.80 3.572
347.90 3.568
348.00 3.564
348.10 3.561
348.20 3.557
348.30 3.553
348.40 3.549
348.50 3.546
348.60 3.542
348.70 3.538
348.80 3.535
348.90 3.531
349.00 3.527
349.10 3.524
349.20 3.52
349.30 3.516
349.40 3.513
349.50 3.509
349.60 3.505
349.70 3.502
349.80 3.498
349.90 3.494
350.00 3.491
350.10 3.487
350.20 3.483
350.30 3.48
350.40 3.476
350.50 3.473
350.60 3.469
350.70 3.465
350.80 3.462
350.90 3.458
351.00 3.455
351.10 3.451
351.20 3.447
351.30 3.444
351.40 3.44
351.50 3.437
351.60 3.433
351.70 3.43
351.80 3.426
351.90 3.422
352.00 3.419
352.10 3.415
352.20 3.412
352.30 3.408
352.40 3.405
352.50 3.401
352.60 3.398
352.70 3.394
352.80 3.391
352.90 3.387
353.00 3.384
353.10 3.38
353.20 3.377
353.30 3.373
353.40 3.37
353.50 3.366
353.60 3.363
353.70 3.359
353.80 3.356
353.90 3.353
354.00 3.349
354.10 3.346
354.20 3.342
354.30 3.339
354.40 3.335
354.50 3.332
354.60 3.328
354.70 3.325
354.80 3.322
354.90 3.318
355.00 3.315
355.10 3.311
355.20 3.308
355.30 3.305
355.40 3.301
355.50 3.298
355.60 3.294
355.70 3.291
355.80 3.288
355.90 3.284
356.00 3.281
356.10 3.278
356.20 3.274
356.30 3.271
356.40 3.268
356.50 3.264
356.60 3.261
356.70 3.258
356.80 3.254
356.90 3.251
357.00 3.248
357.10 3.244
357.20 3.241
357.30 3.238
357.40 3.234
357.50 3.231
357.60 3.228
357.70 3.225
357.80 3.221
357.90 3.218
358.00 3.215
358.10 3.211
358.20 3.208
358.30 3.205
358.40 3.202
358.50 3.198
358.60 3.195
358.70 3.192
358.80 3.189
358.90 3.185
359.00 3.182
359.10 3.179
359.20 3.176
359.30 3.172
359.40 3.169
359.50 3.166
359.60 3.163
359.70 3.16
359.80 3.156
359.90 3.153
360.00 3.15
360.10 3.147
360.20 3.144
360.30 3.14
360.40 3.137
360.50 3.134
360.60 3.131
360.70 3.128
360.80 3.125
360.90 3.121
361.00 3.118
361.10 3.115
361.20 3.112
361.30 3.109
361.40 3.106
361.50 3.103
361.60 3.099
361.70 3.096
361.80 3.093
361.90 3.09
362.00 3.087
362.10 3.084
362.20 3.081
362.30 3.078
362.40 3.074
362.50 3.071
362.60 3.068
362.70 3.065
362.80 3.062
362.90 3.059
363.00 3.056
363.10 3.053
363.20 3.05
363.30 3.047
363.40 3.044
363.50 3.041
363.60 3.038
363.70 3.035
363.80 3.032
363.90 3.028
364.00 3.025
364.10 3.022
364.20 3.019
364.30 3.016
364.40 3.013
364.50 3.01
364.60 3.007
364.70 3.004
364.80 3.001
364.90 2.998
365.00 2.995
365.10 2.992
365.20 2.989
365.30 2.986
365.40 2.983
365.50 2.98
365.60 2.977
365.70 2.974
365.80 2.971
365.90 2.968
366.00 2.966
366.10 2.962
366.20 2.959
366.30 2.956
366.40 2.953
366.50 2.95
366.60 2.947
366.70 2.944
366.80 2.942
366.90 2.939
367.00 2.936
367.10 2.933
367.20 2.93
367.30 2.927
367.40 2.924
367.50 2.921
367.60 2.918
367.70 2.915
367.80 2.912
367.90 2.909
368.00 2.906
368.10 2.903
368.20 2.9
368.30 2.897
368.40 2.894
368.50 2.891
368.60 2.888
368.70 2.885
368.80 2.882
368.90 2.879
369.00 2.876
369.10 2.873
369.20 2.87
369.30 2.867
369.40 2.864
369.50 2.861
369.60 2.858
369.70 2.855
369.80 2.852
369.90 2.849
370.00 2.846
370.10 2.843
370.20 2.84
370.30 2.837
370.40 2.834
370.50 2.831
370.60 2.828
370.70 2.825
370.80 2.822
370.90 2.819
371.00 2.816
371.10 2.813
371.20 2.81
371.30 2.808
371.40 2.805
371.50 2.802
371.60 2.799
371.70 2.796
371.80 2.793
371.90 2.79
372.00 2.787
372.10 2.785
372.20 2.782
372.30 2.779
372.40 2.776
372.50 2.774
372.60 2.771
372.70 2.768
372.80 2.766
372.90 2.763
373.00 2.76
373.10 2.757
373.20 2.755
373.30 2.752
373.40 2.749
373.50 2.747
373.60 2.744
373.70 2.741
373.80 2.739
373.90 2.736
374.00 2.733
374.10 2.73
374.20 2.728
374.30 2.725
374.40 2.722
374.50 2.719
374.60 2.717
374.70 2.714
374.80 2.711
374.90 2.708
375.00 2.705
375.10 2.703
375.20 2.7
375.30 2.697
375.40 2.694
375.50 2.692
375.60 2.689
375.70 2.686
375.80 2.683
375.90 2.681
376.00 2.678
376.10 2.675
376.20 2.672
376.30 2.67
376.40 2.667
376.50 2.664
376.60 2.662
376.70 2.659
376.80 2.656
376.90 2.654
377.00 2.651
377.10 2.648
377.20 2.646
377.30 2.643
377.40 2.64
377.50 2.638
377.60 2.635
377.70 2.633
377.80 2.63
377.90 2.628
378.00 2.625
378.10 2.622
378.20 2.62
378.30 2.617
378.40 2.615
378.50 2.612
378.60 2.61
378.70 2.607
378.80 2.605
378.90 2.602
379.00 2.599
379.10 2.597
379.20 2.594
379.30 2.592
379.40 2.589
379.50 2.587
379.60 2.584
379.70 2.582
379.80 2.579
379.90 2.577
380.00 2.574
380.10 2.572
380.20 2.57
380.30 2.567
380.40 2.565
380.50 2.562
380.60 2.56
380.70 2.557
380.80 2.555
380.90 2.553
381.00 2.55
381.10 2.548
381.20 2.545
381.30 2.543
381.40 2.541
381.50 2.538
381.60 2.536
381.70 2.534
381.80 2.531
381.90 2.529
382.00 2.526
382.10 2.524
382.20 2.522
382.30 2.519
382.40 2.517
382.50 2.515
382.60 2.512
382.70 2.51
382.80 2.508
382.90 2.505
383.00 2.503
383.10 2.501
383.20 2.498
383.30 2.496
383.40 2.494
383.50 2.491
383.60 2.489
383.70 2.487
383.80 2.485
383.90 2.483
384.00 2.481
384.10 2.478
384.20 2.476
384.30 2.474
384.40 2.472
384.50 2.47
384.60 2.468
384.70 2.466
384.80 2.464
384.90 2.461
385.00 2.459
385.10 2.457
385.20 2.455
385.30 2.453
385.40 2.451
385.50 2.449
385.60 2.446
385.70 2.444
385.80 2.442
385.90 2.44
386.00 2.438
386.10 2.435
386.20 2.433
386.30 2.431
386.40 2.429
386.50 2.427
386.60 2.424
386.70 2.422
386.80 2.42
386.90 2.417
387.00 2.415
387.10 2.413
387.20 2.411
387.30 2.408
387.40 2.406
387.50 2.404
387.60 2.401
387.70 2.399
387.80 2.397
387.90 2.394
388.00 2.392
388.10 2.39
388.20 2.387
388.30 2.385
388.40 2.383
388.50 2.381
388.60 2.379
388.70 2.376
388.80 2.374
388.90 2.372
389.00 2.371
389.10 2.369
389.20 2.367
389.30 2.365
389.40 2.364
389.50 2.362
389.60 2.36
389.70 2.359
389.80 2.357
389.90 2.356
390.00 2.354
390.10 2.352
390.20 2.351
390.30 2.349
390.40 2.348
390.50 2.346
390.60 2.344
390.70 2.343
390.80 2.341
390.90 2.339
391.00 2.338
391.10 2.336
391.20 2.334
391.30 2.332
391.40 2.331
391.50 2.329
391.60 2.327
391.70 2.325
391.80 2.323
391.90 2.321
392.00 2.319
392.10 2.317
392.20 2.315
392.30 2.313
392.40 2.311
392.50 2.309
392.60 2.306
392.70 2.304
392.80 2.302
392.90 2.3
393.00 2.297
393.10 2.295
393.20 2.292
393.30 2.29
393.40 2.287
393.50 2.285
393.60 2.282
393.70 2.28
393.80 2.277
393.90 2.274
394.00 2.272
394.10 2.269
394.20 2.266
394.30 2.263
394.40 2.261
394.50 2.258
394.60 2.255
394.70 2.252
394.80 2.249
394.90 2.246
395.00 2.243
395.10 2.24
395.20 2.236
395.30 2.233
395.40 2.23
395.50 2.227
395.60 2.224
395.70 2.221
395.80 2.217
395.90 2.214
396.00 2.211
396.10 2.208
396.20 2.204
396.30 2.201
396.40 2.198
396.50 2.195
396.60 2.192
396.70 2.189
396.80 2.186
396.90 2.183
397.00 2.18
397.10 2.18
397.20 2.179
397.30 2.179
397.40 2.178
397.50 2.178
397.60 2.178
397.70 2.178
397.80 2.178
397.90 2.178
398.00 2.177
398.10 2.177
398.20 2.177
398.30 2.177
398.40 2.177
398.50 2.177
398.60 2.177
398.70 2.177
398.80 2.177
398.90 2.176
399.00 2.176
399.10 2.176
399.20 2.175
399.30 2.175
399.40 2.175
399.50 2.174
399.60 2.174
399.70 2.173
399.80 2.173
399.90 2.172
400.00 2.171
400.10 2.171
400.20 2.17
400.30 2.169
400.40 2.168
400.50 2.167
400.60 2.166
400.70 2.165
400.80 2.164
400.90 2.163
401.00 2.162
401.10 2.161
401.20 2.16
401.30 2.159
401.40 2.157
401.50 2.156
401.60 2.155
401.70 2.153
401.80 2.152
401.90 2.15
402.00 2.149
402.10 2.147
402.20 2.146
402.30 2.144
402.40 2.142
402.50 2.14
402.60 2.138
402.70 2.137
402.80 2.135
402.90 2.133
403.00 2.131
403.10 2.128
403.20 2.126
403.30 2.124
403.40 2.122
403.50 2.12
403.60 2.117
403.70 2.115
403.80 2.112
403.90 2.11
404.00 2.107
404.10 2.105
404.20 2.102
404.30 2.099
404.40 2.097
404.50 2.094
404.60 2.091
404.70 2.088
404.80 2.085
404.90 2.082
405.00 2.079
405.10 2.076
405.20 2.072
405.30 2.069
405.40 2.066
405.50 2.062
405.60 2.059
405.70 2.055
405.80 2.051
405.90 2.048
406.00 2.044
406.10 2.04
406.20 2.036
406.30 2.032
406.40 2.028
406.50 2.024
406.60 2.02
406.70 2.016
406.80 2.011
406.90 2.007
407.00 2.002
407.10 1.998
407.20 1.993
407.30 1.989
407.40 1.984
407.50 1.979
407.60 1.974
407.70 1.969
407.80 1.964
407.90 1.959
408.00 1.954
408.10 1.949
408.20 1.943
408.30 1.938
408.40 1.933
408.50 1.927
408.60 1.922
408.70 1.916
408.80 1.911
408.90 1.906
409.00 1.9
409.10 1.895
409.20 1.89
409.30 1.884
409.40 1.879
409.50 1.875
409.60 1.87
409.70 1.866
409.80 1.863
409.90 1.86
410.00 1.859
410.10 1.858
410.20 1.858
410.30 1.855
410.40 1.853
410.50 1.852
410.60 1.852
410.70 1.853
410.80 1.854
410.90 1.856
411.00 1.858
411.10 1.86
411.20 1.862
411.30 1.864
411.40 1.866
411.50 1.869
411.60 1.871
411.70 1.874
411.80 1.876
411.90 1.878
412.00 1.88
412.10 1.883
412.20 1.885
412.30 1.887
412.40 1.889
412.50 1.891
412.60 1.893
412.70 1.895
412.80 1.897
412.90 1.898
413.00 1.9
413.10 1.902
413.20 1.903
413.30 1.905
413.40 1.906
413.50 1.907
413.60 1.909
413.70 1.91
413.80 1.911
413.90 1.912
414.00 1.913
414.10 1.914
414.20 1.915
414.30 1.915
414.40 1.916
414.50 1.917
414.60 1.917
414.70 1.918
414.80 1.918
414.90 1.919
415.00 1.919
415.10 1.92
415.20 1.92
415.30 1.92
415.40 1.92
415.50 1.92
415.60 1.92
415.70 1.92
415.80 1.92
415.90 1.92
416.00 1.92
416.10 1.92
416.20 1.92
416.30 1.92
416.40 1.919
416.50 1.919
416.60 1.919
416.70 1.918
416.80 1.918
416.90 1.917
417.00 1.917
417.10 1.916
417.20 1.916
417.30 1.915
417.40 1.914
417.50 1.914
417.60 1.913
417.70 1.912
417.80 1.912
417.90 1.911
418.00 1.91
418.10 1.909
418.20 1.908
418.30 1.907
418.40 1.906
418.50 1.905
418.60 1.904
418.70 1.903
418.80 1.902
418.90 1.901
419.00 1.9
419.10 1.899
419.20 1.898
419.30 1.897
419.40 1.896
419.50 1.894
419.60 1.893
419.70 1.892
419.80 1.891
419.90 1.889
420.00 1.888
420.10 1.887
420.20 1.886
420.30 1.884
420.40 1.883
420.50 1.881
420.60 1.88
420.70 1.879
420.80 1.877
420.90 1.876
421.00 1.874
421.10 1.873
421.20 1.871
421.30 1.87
421.40 1.868
421.50 1.866
421.60 1.865
421.70 1.863
421.80 1.861
421.90 1.86
422.00 1.858
422.10 1.856
422.20 1.855
422.30 1.853
422.40 1.851
422.50 1.85
422.60 1.848
422.70 1.846
422.80 1.844
422.90 1.842
423.00 1.84
423.10 1.838
423.20 1.837
423.30 1.835
423.40 1.833
423.50 1.831
423.60 1.829
423.70 1.827
423.80 1.825
423.90 1.823
424.00 1.821
424.10 1.819
424.20 1.816
424.30 1.814
424.40 1.812
424.50 1.81
424.60 1.808
424.70 1.806
424.80 1.803
424.90 1.801
425.00 1.799
425.10 1.796
425.20 1.794
425.30 1.792
425.40 1.789
425.50 1.787
425.60 1.784
425.70 1.782
425.80 1.779
425.90 1.777
426.00 1.774
426.10 1.771
426.20 1.769
426.30 1.766
426.40 1.763
426.50 1.761
426.60 1.758
426.70 1.755
426.80 1.752
426.90 1.749
427.00 1.746
427.10 1.743
427.20 1.74
427.30 1.737
427.40 1.734
427.50 1.731
427.60 1.728
427.70 1.724
427.80 1.721
427.90 1.718
428.00 1.714
428.10 1.711
428.20 1.707
428.30 1.703
428.40 1.7
428.50 1.696
428.60 1.692
428.70 1.689
428.80 1.685
428.90 1.681
429.00 1.677
429.10 1.673
429.20 1.669
429.30 1.664
429.40 1.66
429.50 1.656
429.60 1.651
429.70 1.647
429.80 1.642
429.90 1.638
430.00 1.633
430.10 1.628
430.20 1.623
430.30 1.618
430.40 1.613
430.50 1.608
430.60 1.603
430.70 1.598
430.80 1.592
430.90 1.587
431.00 1.581
431.10 1.575
431.20 1.57
431.30 1.564
431.40 1.558
431.50 1.552
431.60 1.546
431.70 1.539
431.80 1.533
431.90 1.527
432.00 1.52
432.10 1.514
432.20 1.507
432.30 1.5
432.40 1.494
432.50 1.487
432.60 1.48
432.70 1.473
432.80 1.466
432.90 1.459
433.00 1.452
433.10 1.445
433.20 1.437
433.30 1.43
433.40 1.423
433.50 1.415
433.60 1.408
433.70 1.399
433.80 1.39
433.90 1.38
434.00 1.371
434.10 1.37
434.20 1.378
434.30 1.386
434.40 1.393
434.50 1.399
434.60 1.404
434.70 1.409
434.80 1.414
434.90 1.419
435.00 1.424
435.10 1.429
435.20 1.433
435.30 1.438
435.40 1.443
435.50 1.447
435.60 1.452
435.70 1.456
435.80 1.46
435.90 1.465
436.00 1.469
436.10 1.473
436.20 1.477
436.30 1.48
436.40 1.484
436.50 1.488
436.60 1.491
436.70 1.495
436.80 1.498
436.90 1.501
437.00 1.504
437.10 1.507
437.20 1.51
437.30 1.513
437.40 1.516
437.50 1.518
437.60 1.521
437.70 1.523
437.80 1.525
437.90 1.528
438.00 1.53
438.10 1.532
438.20 1.534
438.30 1.536
438.40 1.537
438.50 1.539
438.60 1.541
438.70 1.542
438.80 1.544
438.90 1.545
439.00 1.546
439.10 1.548
439.20 1.549
439.30 1.55
439.40 1.551
439.50 1.552
439.60 1.553
439.70 1.554
439.80 1.555
439.90 1.555
440.00 1.556
440.10 1.557
440.20 1.557
440.30 1.558
440.40 1.558
440.50 1.559
440.60 1.559
440.70 1.559
440.80 1.56
440.90 1.56
441.00 1.56
441.10 1.56
441.20 1.56
441.30 1.56
441.40 1.56
441.50 1.56
441.60 1.56
441.70 1.56
441.80 1.56
441.90 1.56
442.00 1.56
442.10 1.56
442.20 1.56
442.30 1.559
442.40 1.559
442.50 1.559
442.60 1.558
442.70 1.558
442.80 1.558
442.90 1.557
443.00 1.557
443.10 1.556
443.20 1.556
443.30 1.555
443.40 1.555
443.50 1.554
443.60 1.554
443.70 1.553
443.80 1.553
443.90 1.552
444.00 1.551
444.10 1.551
444.20 1.55
444.30 1.549
444.40 1.549
444.50 1.548
444.60 1.547
444.70 1.546
444.80 1.546
444.90 1.545
445.00 1.544
445.10 1.543
445.20 1.542
445.30 1.542
445.40 1.541
445.50 1.54
445.60 1.539
445.70 1.538
445.80 1.537
445.90 1.536
446.00 1.536
446.10 1.535
446.20 1.534
446.30 1.533
446.40 1.532
446.50 1.531
446.60 1.53
446.70 1.529
446.80 1.528
446.90 1.527
447.00 1.526
447.10 1.525
447.20 1.524
447.30 1.523
447.40 1.522
447.50 1.521
447.60 1.52
447.70 1.519
447.80 1.518
447.90 1.517
448.00 1.516
448.10 1.515
448.20 1.514
448.30 1.513
448.40 1.512
448.50 1.511
448.60 1.51
448.70 1.509
448.80 1.508
448.90 1.507
449.00 1.506
449.10 1.505
449.20 1.503
449.30 1.502
449.40 1.501
449.50 1.5
449.60 1.499
449.70 1.498
449.80 1.497
449.90 1.496
450.00 1.495
450.10 1.494
450.20 1.493
450.30 1.491
450.40 1.49
450.50 1.489
450.60 1.488
450.70 1.487
450.80 1.486
450.90 1.485
451.00 1.484
451.10 1.482
451.20 1.481
451.30 1.48
451.40 1.479
451.50 1.478
451.60 1.477
451.70 1.476
451.80 1.475
451.90 1.473
452.00 1.472
452.10 1.471
452.20 1.47
452.30 1.469
452.40 1.468
452.50 1.467
452.60 1.465
452.70 1.464
452.80 1.463
452.90 1.462
453.00 1.461
453.10 1.46
453.20 1.459
453.30 1.457
453.40 1.456
453.50 1.455
453.60 1.454
453.70 1.453
453.80 1.452
453.90 1.45
454.00 1.449
454.10 1.448
454.20 1.447
454.30 1.446
