# Version 2.1 - nm, norm@500 to 1, cut digits, bergeron_15000_65.dat_15000
# Wavelength(nm)  Flambda(ergs/cm^s/s/nm)
300.00 2.103
300.10 2.102
300.20 2.1
300.30 2.099
300.40 2.097
300.50 2.096
300.60 2.094
300.70 2.092
300.80 2.091
300.90 2.089
301.00 2.088
301.10 2.086
301.20 2.085
301.30 2.083
301.40 2.081
301.50 2.08
301.60 2.078
301.70 2.077
301.80 2.075
301.90 2.074
302.00 2.072
302.10 2.07
302.20 2.069
302.30 2.067
302.40 2.066
302.50 2.064
302.60 2.063
302.70 2.061
302.80 2.06
302.90 2.058
303.00 2.057
303.10 2.055
303.20 2.053
303.30 2.052
303.40 2.05
303.50 2.049
303.60 2.047
303.70 2.046
303.80 2.044
303.90 2.043
304.00 2.041
304.10 2.04
304.20 2.038
304.30 2.037
304.40 2.035
304.50 2.034
304.60 2.032
304.70 2.031
304.80 2.029
304.90 2.028
305.00 2.026
305.10 2.025
305.20 2.023
305.30 2.022
305.40 2.02
305.50 2.019
305.60 2.017
305.70 2.016
305.80 2.014
305.90 2.013
306.00 2.011
306.10 2.01
306.20 2.008
306.30 2.007
306.40 2.005
306.50 2.004
306.60 2.002
306.70 2.001
306.80 1.999
306.90 1.998
307.00 1.996
307.10 1.995
307.20 1.993
307.30 1.992
307.40 1.99
307.50 1.989
307.60 1.987
307.70 1.986
307.80 1.984
307.90 1.983
308.00 1.981
308.10 1.98
308.20 1.979
308.30 1.977
308.40 1.976
308.50 1.974
308.60 1.973
308.70 1.971
308.80 1.97
308.90 1.968
309.00 1.967
309.10 1.965
309.20 1.964
309.30 1.963
309.40 1.961
309.50 1.96
309.60 1.958
309.70 1.957
309.80 1.955
309.90 1.954
310.00 1.953
310.10 1.951
310.20 1.95
310.30 1.948
310.40 1.947
310.50 1.945
310.60 1.944
310.70 1.943
310.80 1.941
310.90 1.94
311.00 1.938
311.10 1.937
311.20 1.935
311.30 1.934
311.40 1.933
311.50 1.931
311.60 1.93
311.70 1.928
311.80 1.927
311.90 1.926
312.00 1.924
312.10 1.923
312.20 1.921
312.30 1.92
312.40 1.919
312.50 1.917
312.60 1.916
312.70 1.914
312.80 1.913
312.90 1.912
313.00 1.91
313.10 1.909
313.20 1.907
313.30 1.906
313.40 1.905
313.50 1.903
313.60 1.902
313.70 1.9
313.80 1.899
313.90 1.898
314.00 1.896
314.10 1.895
314.20 1.894
314.30 1.892
314.40 1.891
314.50 1.889
314.60 1.888
314.70 1.887
314.80 1.885
314.90 1.884
315.00 1.883
315.10 1.881
315.20 1.88
315.30 1.878
315.40 1.877
315.50 1.876
315.60 1.874
315.70 1.873
315.80 1.872
315.90 1.87
316.00 1.869
316.10 1.868
316.20 1.866
316.30 1.865
316.40 1.864
316.50 1.862
316.60 1.861
316.70 1.86
316.80 1.858
316.90 1.857
317.00 1.856
317.10 1.854
317.20 1.853
317.30 1.852
317.40 1.85
317.50 1.849
317.60 1.848
317.70 1.846
317.80 1.845
317.90 1.844
318.00 1.842
318.10 1.841
318.20 1.84
318.30 1.838
318.40 1.837
318.50 1.836
318.60 1.834
318.70 1.833
318.80 1.832
318.90 1.83
319.00 1.829
319.10 1.828
319.20 1.826
319.30 1.825
319.40 1.824
319.50 1.822
319.60 1.821
319.70 1.82
319.80 1.819
319.90 1.817
320.00 1.816
320.10 1.815
320.20 1.813
320.30 1.812
320.40 1.811
320.50 1.809
320.60 1.808
320.70 1.807
320.80 1.806
320.90 1.804
321.00 1.803
321.10 1.802
321.20 1.8
321.30 1.799
321.40 1.798
321.50 1.797
321.60 1.795
321.70 1.794
321.80 1.793
321.90 1.792
322.00 1.79
322.10 1.789
322.20 1.788
322.30 1.786
322.40 1.785
322.50 1.784
322.60 1.783
322.70 1.781
322.80 1.78
322.90 1.779
323.00 1.778
323.10 1.776
323.20 1.775
323.30 1.774
323.40 1.773
323.50 1.771
323.60 1.77
323.70 1.769
323.80 1.767
323.90 1.766
324.00 1.765
324.10 1.764
324.20 1.762
324.30 1.761
324.40 1.76
324.50 1.759
324.60 1.758
324.70 1.756
324.80 1.755
324.90 1.754
325.00 1.753
325.10 1.751
325.20 1.75
325.30 1.749
325.40 1.748
325.50 1.746
325.60 1.745
325.70 1.744
325.80 1.743
325.90 1.741
326.00 1.74
326.10 1.739
326.20 1.738
326.30 1.737
326.40 1.735
326.50 1.734
326.60 1.733
326.70 1.732
326.80 1.73
326.90 1.729
327.00 1.728
327.10 1.727
327.20 1.726
327.30 1.724
327.40 1.723
327.50 1.722
327.60 1.721
327.70 1.72
327.80 1.718
327.90 1.717
328.00 1.716
328.10 1.715
328.20 1.713
328.30 1.712
328.40 1.711
328.50 1.71
328.60 1.709
328.70 1.707
328.80 1.706
328.90 1.705
329.00 1.704
329.10 1.703
329.20 1.702
329.30 1.7
329.40 1.699
329.50 1.698
329.60 1.697
329.70 1.696
329.80 1.694
329.90 1.693
330.00 1.692
330.10 1.691
330.20 1.69
330.30 1.688
330.40 1.687
330.50 1.686
330.60 1.685
330.70 1.684
330.80 1.683
330.90 1.681
331.00 1.68
331.10 1.679
331.20 1.678
331.30 1.677
331.40 1.676
331.50 1.674
331.60 1.673
331.70 1.672
331.80 1.671
331.90 1.67
332.00 1.669
332.10 1.667
332.20 1.666
332.30 1.665
332.40 1.664
332.50 1.663
332.60 1.662
332.70 1.661
332.80 1.659
332.90 1.658
333.00 1.657
333.10 1.656
333.20 1.655
333.30 1.654
333.40 1.652
333.50 1.651
333.60 1.65
333.70 1.649
333.80 1.648
333.90 1.647
334.00 1.646
334.10 1.644
334.20 1.643
334.30 1.642
334.40 1.641
334.50 1.64
334.60 1.639
334.70 1.638
334.80 1.637
334.90 1.635
335.00 1.634
335.10 1.633
335.20 1.632
335.30 1.631
335.40 1.63
335.50 1.629
335.60 1.628
335.70 1.626
335.80 1.625
335.90 1.624
336.00 1.623
336.10 1.622
336.20 1.621
336.30 1.62
336.40 1.619
336.50 1.617
336.60 1.616
336.70 1.615
336.80 1.614
336.90 1.613
337.00 1.612
337.10 1.611
337.20 1.61
337.30 1.609
337.40 1.608
337.50 1.606
337.60 1.605
337.70 1.604
337.80 1.603
337.90 1.602
338.00 1.601
338.10 1.6
338.20 1.599
338.30 1.598
338.40 1.597
338.50 1.595
338.60 1.594
338.70 1.593
338.80 1.592
338.90 1.591
339.00 1.59
339.10 1.589
339.20 1.588
339.30 1.587
339.40 1.586
339.50 1.585
339.60 1.583
339.70 1.582
339.80 1.581
339.90 1.58
340.00 1.579
340.10 1.578
340.20 1.577
340.30 1.576
340.40 1.575
340.50 1.574
340.60 1.573
340.70 1.572
340.80 1.571
340.90 1.569
341.00 1.568
341.10 1.567
341.20 1.566
341.30 1.565
341.40 1.564
341.50 1.563
341.60 1.562
341.70 1.561
341.80 1.56
341.90 1.559
342.00 1.558
342.10 1.557
342.20 1.556
342.30 1.555
342.40 1.554
342.50 1.552
342.60 1.551
342.70 1.55
342.80 1.549
342.90 1.548
343.00 1.547
343.10 1.546
343.20 1.545
343.30 1.544
343.40 1.543
343.50 1.542
343.60 1.541
343.70 1.54
343.80 1.539
343.90 1.538
344.00 1.537
344.10 1.536
344.20 1.535
344.30 1.534
344.40 1.533
344.50 1.532
344.60 1.531
344.70 1.53
344.80 1.529
344.90 1.527
345.00 1.526
345.10 1.525
345.20 1.524
345.30 1.523
345.40 1.522
345.50 1.521
345.60 1.52
345.70 1.519
345.80 1.518
345.90 1.517
346.00 1.516
346.10 1.515
346.20 1.514
346.30 1.513
346.40 1.512
346.50 1.511
346.60 1.51
346.70 1.509
346.80 1.508
346.90 1.507
347.00 1.506
347.10 1.505
347.20 1.504
347.30 1.503
347.40 1.502
347.50 1.501
347.60 1.5
347.70 1.499
347.80 1.498
347.90 1.497
348.00 1.496
348.10 1.495
348.20 1.494
348.30 1.493
348.40 1.492
348.50 1.491
348.60 1.49
348.70 1.489
348.80 1.488
348.90 1.487
349.00 1.486
349.10 1.485
349.20 1.484
349.30 1.483
349.40 1.482
349.50 1.481
349.60 1.48
349.70 1.479
349.80 1.478
349.90 1.477
350.00 1.476
350.10 1.475
350.20 1.474
350.30 1.473
350.40 1.472
350.50 1.471
350.60 1.47
350.70 1.469
350.80 1.468
350.90 1.467
351.00 1.466
351.10 1.465
351.20 1.464
351.30 1.463
351.40 1.462
351.50 1.461
351.60 1.46
351.70 1.459
351.80 1.458
351.90 1.457
352.00 1.457
352.10 1.456
352.20 1.455
352.30 1.454
352.40 1.453
352.50 1.452
352.60 1.451
352.70 1.45
352.80 1.449
352.90 1.448
353.00 1.447
353.10 1.446
353.20 1.445
353.30 1.444
353.40 1.443
353.50 1.442
353.60 1.441
353.70 1.44
353.80 1.439
353.90 1.438
354.00 1.437
354.10 1.436
354.20 1.435
354.30 1.434
354.40 1.434
354.50 1.433
354.60 1.432
354.70 1.431
354.80 1.43
354.90 1.429
355.00 1.428
355.10 1.427
355.20 1.426
355.30 1.425
355.40 1.424
355.50 1.423
355.60 1.422
355.70 1.421
355.80 1.42
355.90 1.419
356.00 1.418
356.10 1.417
356.20 1.417
356.30 1.416
356.40 1.415
356.50 1.414
356.60 1.413
356.70 1.412
356.80 1.411
356.90 1.41
357.00 1.409
357.10 1.408
357.20 1.407
357.30 1.406
357.40 1.405
357.50 1.404
357.60 1.404
357.70 1.403
357.80 1.402
357.90 1.401
358.00 1.4
358.10 1.399
358.20 1.398
358.30 1.397
358.40 1.396
358.50 1.395
358.60 1.394
358.70 1.393
358.80 1.393
358.90 1.392
359.00 1.391
359.10 1.39
359.20 1.389
359.30 1.388
359.40 1.387
359.50 1.386
359.60 1.385
359.70 1.384
359.80 1.383
359.90 1.383
360.00 1.382
360.10 1.381
360.20 1.38
360.30 1.379
360.40 1.378
360.50 1.377
360.60 1.376
360.70 1.375
360.80 1.374
360.90 1.374
361.00 1.373
361.10 1.372
361.20 1.371
361.30 1.37
361.40 1.369
361.50 1.368
361.60 1.367
361.70 1.366
361.80 1.365
361.90 1.365
362.00 1.364
362.10 1.363
362.20 1.362
362.30 1.361
362.40 1.36
362.50 1.359
362.60 1.358
362.70 1.358
362.80 1.357
362.90 1.356
363.00 1.355
363.10 1.354
363.20 1.353
363.30 1.352
363.40 1.351
363.50 1.35
363.60 1.349
363.70 1.349
363.80 1.348
363.90 1.347
364.00 1.346
364.10 1.345
364.20 1.344
364.30 1.343
364.40 1.342
364.50 1.341
364.60 1.341
364.70 1.34
364.80 1.339
364.90 1.338
365.00 1.337
365.10 1.337
365.20 1.336
365.30 1.335
365.40 1.334
365.50 1.333
365.60 1.333
365.70 1.332
365.80 1.331
365.90 1.33
366.00 1.329
366.10 1.329
366.20 1.328
366.30 1.327
366.40 1.326
366.50 1.326
366.60 1.325
366.70 1.324
366.80 1.324
366.90 1.323
367.00 1.322
367.10 1.321
367.20 1.321
367.30 1.32
367.40 1.319
367.50 1.318
367.60 1.318
367.70 1.317
367.80 1.316
367.90 1.316
368.00 1.315
368.10 1.316
368.20 1.316
368.30 1.317
368.40 1.318
368.50 1.319
368.60 1.319
368.70 1.32
368.80 1.321
368.90 1.322
369.00 1.322
369.10 1.323
369.20 1.324
369.30 1.325
369.40 1.325
369.50 1.326
369.60 1.327
369.70 1.328
369.80 1.328
369.90 1.329
370.00 1.33
370.10 1.334
370.20 1.337
370.30 1.341
370.40 1.344
370.50 1.348
370.60 1.351
370.70 1.355
370.80 1.358
370.90 1.362
371.00 1.365
371.10 1.369
371.20 1.372
371.30 1.376
371.40 1.379
371.50 1.383
371.60 1.386
371.70 1.39
371.80 1.393
371.90 1.397
372.00 1.4
372.10 1.406
372.20 1.412
372.30 1.418
372.40 1.424
372.50 1.429
372.60 1.435
372.70 1.441
372.80 1.447
372.90 1.452
373.00 1.458
373.10 1.464
373.20 1.47
373.30 1.475
373.40 1.481
373.50 1.487
373.60 1.493
373.70 1.498
373.80 1.504
373.90 1.51
374.00 1.515
374.10 1.521
374.20 1.527
374.30 1.533
374.40 1.538
374.50 1.544
374.60 1.55
374.70 1.556
374.80 1.562
374.90 1.567
375.00 1.573
375.10 1.579
375.20 1.585
375.30 1.59
375.40 1.596
375.50 1.602
375.60 1.607
375.70 1.613
375.80 1.619
375.90 1.625
376.00 1.63
376.10 1.633
376.20 1.635
376.30 1.638
376.40 1.641
376.50 1.643
376.60 1.646
376.70 1.648
376.80 1.651
376.90 1.653
377.00 1.656
377.10 1.65
377.20 1.644
377.30 1.638
377.40 1.633
377.50 1.627
377.60 1.621
377.70 1.615
377.80 1.609
377.90 1.604
378.00 1.598
378.10 1.569
378.20 1.54
378.30 1.511
378.40 1.482
378.50 1.453
378.60 1.424
378.70 1.395
378.80 1.367
378.90 1.338
379.00 1.309
379.10 1.285
379.20 1.261
379.30 1.237
379.40 1.214
379.50 1.19
379.60 1.166
379.70 1.142
379.80 1.119
379.90 1.095
380.00 1.071
380.10 1.108
380.20 1.146
380.30 1.183
380.40 1.22
380.50 1.257
380.60 1.294
380.70 1.331
380.80 1.368
380.90 1.404
381.00 1.441
381.10 1.458
381.20 1.474
381.30 1.491
381.40 1.507
381.50 1.524
381.60 1.527
381.70 1.525
381.80 1.518
381.90 1.507
382.00 1.491
382.10 1.471
382.20 1.445
382.30 1.402
382.40 1.359
382.50 1.316
382.60 1.273
382.70 1.23
382.80 1.188
382.90 1.145
383.00 1.102
383.10 1.06
383.20 1.017
383.30 0.9693
383.40 0.9194
383.50 0.8642
383.60 0.8767
383.70 0.9296
383.80 0.9782
383.90 1.025
384.00 1.071
384.10 1.118
384.20 1.165
384.30 1.212
384.40 1.26
384.50 1.308
384.60 1.353
384.70 1.396
384.80 1.436
384.90 1.473
385.00 1.506
385.10 1.535
385.20 1.56
385.30 1.584
385.40 1.603
385.50 1.619
385.60 1.634
385.70 1.645
385.80 1.653
385.90 1.661
386.00 1.664
386.10 1.666
386.20 1.666
386.30 1.663
386.40 1.658
386.50 1.652
386.60 1.642
386.70 1.63
386.80 1.616
386.90 1.599
387.00 1.58
387.10 1.559
387.20 1.534
387.30 1.506
387.40 1.477
387.50 1.442
387.60 1.405
387.70 1.365
387.80 1.32
387.90 1.273
388.00 1.224
388.10 1.173
388.20 1.122
388.30 1.071
388.40 1.021
388.50 0.9716
388.60 0.9221
388.70 0.8699
388.80 0.8119
388.90 0.7481
389.00 0.8075
389.10 0.8631
389.20 0.915
389.30 0.9636
389.40 1.012
389.50 1.061
389.60 1.111
389.70 1.161
389.80 1.212
389.90 1.26
390.00 1.307
390.10 1.352
390.20 1.393
390.30 1.432
390.40 1.469
390.50 1.502
390.60 1.532
390.70 1.561
390.80 1.586
390.90 1.611
391.00 1.633
391.10 1.654
391.20 1.673
391.30 1.691
391.40 1.706
391.50 1.721
391.60 1.735
391.70 1.747
391.80 1.758
391.90 1.768
392.00 1.777
392.10 1.784
392.20 1.791
392.30 1.797
392.40 1.801
392.50 1.805
392.60 1.807
392.70 1.809
392.80 1.81
392.90 1.809
393.00 1.808
393.10 1.806
393.20 1.802
393.30 1.798
393.40 1.793
393.50 1.787
393.60 1.779
393.70 1.771
393.80 1.761
393.90 1.751
394.00 1.739
394.10 1.726
394.20 1.712
394.30 1.697
394.40 1.68
394.50 1.662
394.60 1.643
394.70 1.622
394.80 1.6
394.90 1.577
395.00 1.552
395.10 1.525
395.20 1.498
395.30 1.467
395.40 1.435
395.50 1.402
395.60 1.365
395.70 1.327
395.80 1.287
395.90 1.244
396.00 1.2
396.10 1.154
396.20 1.106
396.30 1.057
396.40 1.008
396.50 0.9597
396.60 0.9115
396.70 0.8637
396.80 0.8117
396.90 0.7441
397.00 0.6609
397.10 0.7381
397.20 0.8028
397.30 0.8549
397.40 0.9019
397.50 0.949
397.60 0.9962
397.70 1.044
397.80 1.092
397.90 1.138
398.00 1.183
398.10 1.226
398.20 1.268
398.30 1.306
398.40 1.343
398.50 1.379
398.60 1.411
398.70 1.442
398.80 1.471
398.90 1.498
399.00 1.524
399.10 1.549
399.20 1.571
399.30 1.593
399.40 1.614
399.50 1.633
399.60 1.651
399.70 1.668
399.80 1.684
399.90 1.699
400.00 1.714
400.10 1.727
400.20 1.739
400.30 1.751
400.40 1.761
400.50 1.771
400.60 1.781
400.70 1.789
400.80 1.797
400.90 1.805
401.00 1.812
401.10 1.818
401.20 1.824
401.30 1.829
401.40 1.834
401.50 1.839
401.60 1.843
401.70 1.847
401.80 1.85
401.90 1.853
402.00 1.856
402.10 1.858
402.20 1.86
402.30 1.862
402.40 1.863
402.50 1.864
402.60 1.865
402.70 1.866
402.80 1.866
402.90 1.866
403.00 1.866
403.10 1.866
403.20 1.866
403.30 1.865
403.40 1.864
403.50 1.863
403.60 1.862
403.70 1.86
403.80 1.858
403.90 1.856
404.00 1.854
404.10 1.852
404.20 1.849
404.30 1.846
404.40 1.843
404.50 1.84
404.60 1.837
404.70 1.833
404.80 1.829
404.90 1.825
405.00 1.82
405.10 1.815
405.20 1.81
405.30 1.804
405.40 1.799
405.50 1.792
405.60 1.786
405.70 1.779
405.80 1.772
405.90 1.764
406.00 1.756
406.10 1.747
406.20 1.738
406.30 1.729
406.40 1.719
406.50 1.708
406.60 1.697
406.70 1.685
406.80 1.673
406.90 1.659
407.00 1.645
407.10 1.63
407.20 1.615
407.30 1.598
407.40 1.58
407.50 1.562
407.60 1.542
407.70 1.521
407.80 1.499
407.90 1.476
408.00 1.453
408.10 1.428
408.20 1.402
408.30 1.375
408.40 1.347
408.50 1.318
408.60 1.288
408.70 1.257
408.80 1.224
408.90 1.19
409.00 1.155
409.10 1.118
409.20 1.08
409.30 1.041
409.40 1
409.50 0.9582
409.60 0.9154
409.70 0.8727
409.80 0.8299
409.90 0.787
410.00 0.7353
410.10 0.6743
410.20 0.6041
410.30 0.6943
410.40 0.7624
410.50 0.8084
410.60 0.85
410.70 0.8917
410.80 0.9335
410.90 0.9746
411.00 1.015
411.10 1.054
411.20 1.09
411.30 1.126
411.40 1.161
411.50 1.193
411.60 1.224
411.70 1.254
411.80 1.283
411.90 1.31
412.00 1.337
412.10 1.361
412.20 1.385
412.30 1.409
412.40 1.43
412.50 1.451
412.60 1.471
412.70 1.49
412.80 1.508
412.90 1.525
413.00 1.54
413.10 1.555
413.20 1.569
413.30 1.581
413.40 1.593
413.50 1.605
413.60 1.615
413.70 1.625
413.80 1.635
413.90 1.643
414.00 1.651
414.10 1.659
414.20 1.665
414.30 1.672
414.40 1.678
414.50 1.684
414.60 1.689
414.70 1.694
414.80 1.699
414.90 1.703
415.00 1.707
415.10 1.711
415.20 1.715
415.30 1.718
415.40 1.721
415.50 1.724
415.60 1.726
415.70 1.728
415.80 1.731
415.90 1.733
416.00 1.734
416.10 1.736
416.20 1.738
416.30 1.739
416.40 1.74
416.50 1.741
416.60 1.742
416.70 1.743
416.80 1.744
416.90 1.745
417.00 1.745
417.10 1.746
417.20 1.746
417.30 1.747
417.40 1.747
417.50 1.747
417.60 1.747
417.70 1.748
417.80 1.748
417.90 1.747
418.00 1.747
418.10 1.747
418.20 1.747
418.30 1.747
418.40 1.746
418.50 1.746
418.60 1.746
418.70 1.745
418.80 1.745
418.90 1.744
419.00 1.744
419.10 1.743
419.20 1.743
419.30 1.742
419.40 1.741
419.50 1.74
419.60 1.74
419.70 1.739
419.80 1.738
419.90 1.737
420.00 1.736
420.10 1.736
420.20 1.735
420.30 1.734
420.40 1.733
420.50 1.732
420.60 1.731
420.70 1.73
420.80 1.729
420.90 1.728
421.00 1.727
421.10 1.726
421.20 1.725
421.30 1.723
421.40 1.722
421.50 1.721
421.60 1.72
421.70 1.719
421.80 1.718
421.90 1.716
422.00 1.715
422.10 1.714
422.20 1.713
422.30 1.711
422.40 1.71
422.50 1.709
422.60 1.707
422.70 1.706
422.80 1.705
422.90 1.703
423.00 1.702
423.10 1.7
423.20 1.699
423.30 1.697
423.40 1.696
423.50 1.694
423.60 1.693
423.70 1.691
423.80 1.69
423.90 1.688
424.00 1.686
424.10 1.685
424.20 1.683
424.30 1.682
424.40 1.68
424.50 1.678
424.60 1.676
424.70 1.674
424.80 1.673
424.90 1.671
425.00 1.669
425.10 1.667
425.20 1.665
425.30 1.663
425.40 1.661
425.50 1.659
425.60 1.657
425.70 1.655
425.80 1.652
425.90 1.65
426.00 1.648
426.10 1.646
426.20 1.643
426.30 1.64
426.40 1.638
426.50 1.635
426.60 1.633
426.70 1.63
426.80 1.627
426.90 1.624
427.00 1.621
427.10 1.619
427.20 1.615
427.30 1.612
427.40 1.609
427.50 1.606
427.60 1.602
427.70 1.599
427.80 1.595
427.90 1.592
428.00 1.588
428.10 1.584
428.20 1.58
428.30 1.575
428.40 1.571
428.50 1.567
428.60 1.562
428.70 1.557
428.80 1.552
428.90 1.547
429.00 1.541
429.10 1.536
429.20 1.53
429.30 1.524
429.40 1.518
429.50 1.511
429.60 1.504
429.70 1.497
429.80 1.49
429.90 1.482
430.00 1.474
430.10 1.466
430.20 1.457
430.30 1.448
430.40 1.439
430.50 1.429
430.60 1.419
430.70 1.408
430.80 1.397
430.90 1.386
431.00 1.373
431.10 1.361
431.20 1.348
431.30 1.334
431.40 1.32
431.50 1.306
431.60 1.29
431.70 1.273
431.80 1.256
431.90 1.237
432.00 1.217
432.10 1.197
432.20 1.174
432.30 1.151
432.40 1.126
432.50 1.1
432.60 1.072
432.70 1.043
432.80 1.013
432.90 0.9827
433.00 0.9528
433.10 0.9237
433.20 0.894
433.30 0.8637
433.40 0.831
433.50 0.7976
433.60 0.7635
433.70 0.7285
433.80 0.6903
433.90 0.649
434.00 0.5413
434.10 0.5425
434.20 0.6522
434.30 0.6922
434.40 0.7292
434.50 0.7633
434.60 0.7964
434.70 0.8288
434.80 0.8603
434.90 0.8893
435.00 0.9178
435.10 0.9456
435.20 0.974
435.30 1.002
435.40 1.031
435.50 1.058
435.60 1.084
435.70 1.109
435.80 1.131
435.90 1.153
436.00 1.173
436.10 1.191
436.20 1.209
436.30 1.225
436.40 1.24
436.50 1.255
436.60 1.268
436.70 1.281
436.80 1.293
436.90 1.304
437.00 1.314
437.10 1.324
437.20 1.334
437.30 1.343
437.40 1.352
437.50 1.36
437.60 1.367
437.70 1.375
437.80 1.382
437.90 1.388
438.00 1.394
438.10 1.4
438.20 1.405
438.30 1.41
438.40 1.415
438.50 1.42
438.60 1.424
438.70 1.428
438.80 1.432
438.90 1.435
439.00 1.438
439.10 1.441
439.20 1.444
439.30 1.447
439.40 1.449
439.50 1.452
439.60 1.454
439.70 1.456
439.80 1.457
439.90 1.459
440.00 1.461
440.10 1.462
440.20 1.464
440.30 1.465
440.40 1.466
440.50 1.467
440.60 1.468
440.70 1.469
440.80 1.469
440.90 1.47
441.00 1.471
441.10 1.471
441.20 1.472
441.30 1.472
441.40 1.472
441.50 1.472
441.60 1.473
441.70 1.473
441.80 1.473
441.90 1.473
442.00 1.473
442.10 1.473
442.20 1.473
442.30 1.473
442.40 1.472
442.50 1.472
442.60 1.472
442.70 1.472
442.80 1.471
442.90 1.471
443.00 1.471
443.10 1.47
443.20 1.47
443.30 1.469
443.40 1.469
443.50 1.468
443.60 1.468
443.70 1.467
443.80 1.467
443.90 1.466
444.00 1.466
444.10 1.465
444.20 1.464
444.30 1.464
444.40 1.463
444.50 1.462
444.60 1.462
444.70 1.461
444.80 1.46
444.90 1.459
445.00 1.459
445.10 1.458
445.20 1.457
445.30 1.457
445.40 1.456
445.50 1.455
445.60 1.454
445.70 1.453
445.80 1.453
445.90 1.452
446.00 1.451
446.10 1.45
446.20 1.449
446.30 1.448
446.40 1.448
446.50 1.447
446.60 1.446
446.70 1.445
446.80 1.444
446.90 1.443
447.00 1.442
447.10 1.442
447.20 1.441
447.30 1.44
447.40 1.439
447.50 1.438
447.60 1.437
447.70 1.436
447.80 1.435
447.90 1.434
448.00 1.434
448.10 1.433
448.20 1.432
448.30 1.431
448.40 1.43
448.50 1.429
448.60 1.428
448.70 1.427
448.80 1.426
448.90 1.425
449.00 1.424
449.10 1.423
449.20 1.423
449.30 1.422
449.40 1.421
449.50 1.42
449.60 1.419
449.70 1.418
449.80 1.417
449.90 1.416
450.00 1.415
450.10 1.414
450.20 1.413
450.30 1.412
450.40 1.411
450.50 1.41
450.60 1.409
450.70 1.408
450.80 1.407
450.90 1.406
451.00 1.406
451.10 1.405
451.20 1.404
451.30 1.403
451.40 1.402
451.50 1.401
451.60 1.4
451.70 1.399
451.80 1.398
451.90 1.397
452.00 1.396
452.10 1.395
452.20 1.394
452.30 1.393
452.40 1.392
452.50 1.391
452.60 1.39
452.70 1.389
452.80 1.388
452.90 1.387
453.00 1.386
453.10 1.386
453.20 1.385
453.30 1.384
453.40 1.383
453.50 1.382
453.60 1.381
