# Version 2.1 - nm, norm@500 to 1, cut digits, bergeron_14500_65.dat_14500
# Wavelength(nm)  Flambda(ergs/cm^s/s/nm)
300.00 1.994
300.10 1.992
300.20 1.991
300.30 1.989
300.40 1.988
300.50 1.986
300.60 1.985
300.70 1.984
300.80 1.982
300.90 1.981
301.00 1.979
301.10 1.978
301.20 1.976
301.30 1.975
301.40 1.973
301.50 1.972
301.60 1.971
301.70 1.969
301.80 1.968
301.90 1.966
302.00 1.965
302.10 1.963
302.20 1.962
302.30 1.961
302.40 1.959
302.50 1.958
302.60 1.956
302.70 1.955
302.80 1.953
302.90 1.952
303.00 1.951
303.10 1.949
303.20 1.948
303.30 1.946
303.40 1.945
303.50 1.944
303.60 1.942
303.70 1.941
303.80 1.939
303.90 1.938
304.00 1.937
304.10 1.935
304.20 1.934
304.30 1.932
304.40 1.931
304.50 1.93
304.60 1.928
304.70 1.927
304.80 1.925
304.90 1.924
305.00 1.923
305.10 1.921
305.20 1.92
305.30 1.918
305.40 1.917
305.50 1.916
305.60 1.914
305.70 1.913
305.80 1.912
305.90 1.91
306.00 1.909
306.10 1.907
306.20 1.906
306.30 1.905
306.40 1.903
306.50 1.902
306.60 1.901
306.70 1.899
306.80 1.898
306.90 1.897
307.00 1.895
307.10 1.894
307.20 1.892
307.30 1.891
307.40 1.89
307.50 1.888
307.60 1.887
307.70 1.886
307.80 1.884
307.90 1.883
308.00 1.882
308.10 1.88
308.20 1.879
308.30 1.878
308.40 1.876
308.50 1.875
308.60 1.874
308.70 1.872
308.80 1.871
308.90 1.87
309.00 1.868
309.10 1.867
309.20 1.866
309.30 1.864
309.40 1.863
309.50 1.862
309.60 1.86
309.70 1.859
309.80 1.858
309.90 1.856
310.00 1.855
310.10 1.854
310.20 1.852
310.30 1.851
310.40 1.85
310.50 1.848
310.60 1.847
310.70 1.846
310.80 1.844
310.90 1.843
311.00 1.842
311.10 1.841
311.20 1.839
311.30 1.838
311.40 1.837
311.50 1.835
311.60 1.834
311.70 1.833
311.80 1.831
311.90 1.83
312.00 1.829
312.10 1.828
312.20 1.826
312.30 1.825
312.40 1.824
312.50 1.822
312.60 1.821
312.70 1.82
312.80 1.819
312.90 1.817
313.00 1.816
313.10 1.815
313.20 1.813
313.30 1.812
313.40 1.811
313.50 1.81
313.60 1.808
313.70 1.807
313.80 1.806
313.90 1.804
314.00 1.803
314.10 1.802
314.20 1.801
314.30 1.799
314.40 1.798
314.50 1.797
314.60 1.796
314.70 1.794
314.80 1.793
314.90 1.792
315.00 1.791
315.10 1.789
315.20 1.788
315.30 1.787
315.40 1.786
315.50 1.784
315.60 1.783
315.70 1.782
315.80 1.781
315.90 1.779
316.00 1.778
316.10 1.777
316.20 1.776
316.30 1.774
316.40 1.773
316.50 1.772
316.60 1.771
316.70 1.769
316.80 1.768
316.90 1.767
317.00 1.766
317.10 1.764
317.20 1.763
317.30 1.762
317.40 1.761
317.50 1.759
317.60 1.758
317.70 1.757
317.80 1.756
317.90 1.755
318.00 1.753
318.10 1.752
318.20 1.751
318.30 1.75
318.40 1.748
318.50 1.747
318.60 1.746
318.70 1.745
318.80 1.744
318.90 1.742
319.00 1.741
319.10 1.74
319.20 1.739
319.30 1.738
319.40 1.736
319.50 1.735
319.60 1.734
319.70 1.733
319.80 1.732
319.90 1.73
320.00 1.729
320.10 1.728
320.20 1.727
320.30 1.726
320.40 1.724
320.50 1.723
320.60 1.722
320.70 1.721
320.80 1.72
320.90 1.718
321.00 1.717
321.10 1.716
321.20 1.715
321.30 1.714
321.40 1.712
321.50 1.711
321.60 1.71
321.70 1.709
321.80 1.708
321.90 1.707
322.00 1.705
322.10 1.704
322.20 1.703
322.30 1.702
322.40 1.701
322.50 1.7
322.60 1.698
322.70 1.697
322.80 1.696
322.90 1.695
323.00 1.694
323.10 1.693
323.20 1.691
323.30 1.69
323.40 1.689
323.50 1.688
323.60 1.687
323.70 1.686
323.80 1.684
323.90 1.683
324.00 1.682
324.10 1.681
324.20 1.68
324.30 1.679
324.40 1.677
324.50 1.676
324.60 1.675
324.70 1.674
324.80 1.673
324.90 1.672
325.00 1.671
325.10 1.669
325.20 1.668
325.30 1.667
325.40 1.666
325.50 1.665
325.60 1.664
325.70 1.663
325.80 1.661
325.90 1.66
326.00 1.659
326.10 1.658
326.20 1.657
326.30 1.656
326.40 1.655
326.50 1.654
326.60 1.652
326.70 1.651
326.80 1.65
326.90 1.649
327.00 1.648
327.10 1.647
327.20 1.646
327.30 1.645
327.40 1.643
327.50 1.642
327.60 1.641
327.70 1.64
327.80 1.639
327.90 1.638
328.00 1.637
328.10 1.636
328.20 1.635
328.30 1.633
328.40 1.632
328.50 1.631
328.60 1.63
328.70 1.629
328.80 1.628
328.90 1.627
329.00 1.626
329.10 1.625
329.20 1.623
329.30 1.622
329.40 1.621
329.50 1.62
329.60 1.619
329.70 1.618
329.80 1.617
329.90 1.616
330.00 1.615
330.10 1.614
330.20 1.612
330.30 1.611
330.40 1.61
330.50 1.609
330.60 1.608
330.70 1.607
330.80 1.606
330.90 1.605
331.00 1.604
331.10 1.603
331.20 1.602
331.30 1.601
331.40 1.599
331.50 1.598
331.60 1.597
331.70 1.596
331.80 1.595
331.90 1.594
332.00 1.593
332.10 1.592
332.20 1.591
332.30 1.59
332.40 1.589
332.50 1.588
332.60 1.587
332.70 1.586
332.80 1.584
332.90 1.583
333.00 1.582
333.10 1.581
333.20 1.58
333.30 1.579
333.40 1.578
333.50 1.577
333.60 1.576
333.70 1.575
333.80 1.574
333.90 1.573
334.00 1.572
334.10 1.571
334.20 1.57
334.30 1.569
334.40 1.568
334.50 1.566
334.60 1.565
334.70 1.564
334.80 1.563
334.90 1.562
335.00 1.561
335.10 1.56
335.20 1.559
335.30 1.558
335.40 1.557
335.50 1.556
335.60 1.555
335.70 1.554
335.80 1.553
335.90 1.552
336.00 1.551
336.10 1.55
336.20 1.549
336.30 1.548
336.40 1.547
336.50 1.546
336.60 1.545
336.70 1.544
336.80 1.543
336.90 1.542
337.00 1.541
337.10 1.539
337.20 1.538
337.30 1.537
337.40 1.536
337.50 1.535
337.60 1.534
337.70 1.533
337.80 1.532
337.90 1.531
338.00 1.53
338.10 1.529
338.20 1.528
338.30 1.527
338.40 1.526
338.50 1.525
338.60 1.524
338.70 1.523
338.80 1.522
338.90 1.521
339.00 1.52
339.10 1.519
339.20 1.518
339.30 1.517
339.40 1.516
339.50 1.515
339.60 1.514
339.70 1.513
339.80 1.512
339.90 1.511
340.00 1.51
340.10 1.509
340.20 1.508
340.30 1.507
340.40 1.506
340.50 1.505
340.60 1.504
340.70 1.503
340.80 1.502
340.90 1.501
341.00 1.5
341.10 1.499
341.20 1.498
341.30 1.497
341.40 1.496
341.50 1.495
341.60 1.494
341.70 1.493
341.80 1.492
341.90 1.491
342.00 1.49
342.10 1.489
342.20 1.488
342.30 1.487
342.40 1.486
342.50 1.485
342.60 1.484
342.70 1.483
342.80 1.482
342.90 1.482
343.00 1.481
343.10 1.48
343.20 1.479
343.30 1.478
343.40 1.477
343.50 1.476
343.60 1.475
343.70 1.474
343.80 1.473
343.90 1.472
344.00 1.471
344.10 1.47
344.20 1.469
344.30 1.468
344.40 1.467
344.50 1.466
344.60 1.465
344.70 1.464
344.80 1.463
344.90 1.462
345.00 1.461
345.10 1.46
345.20 1.459
345.30 1.458
345.40 1.457
345.50 1.456
345.60 1.456
345.70 1.455
345.80 1.454
345.90 1.453
346.00 1.452
346.10 1.451
346.20 1.45
346.30 1.449
346.40 1.448
346.50 1.447
346.60 1.446
346.70 1.445
346.80 1.444
346.90 1.443
347.00 1.442
347.10 1.441
347.20 1.44
347.30 1.439
347.40 1.439
347.50 1.438
347.60 1.437
347.70 1.436
347.80 1.435
347.90 1.434
348.00 1.433
348.10 1.432
348.20 1.431
348.30 1.43
348.40 1.429
348.50 1.428
348.60 1.427
348.70 1.426
348.80 1.425
348.90 1.425
349.00 1.424
349.10 1.423
349.20 1.422
349.30 1.421
349.40 1.42
349.50 1.419
349.60 1.418
349.70 1.417
349.80 1.416
349.90 1.415
350.00 1.414
350.10 1.414
350.20 1.413
350.30 1.412
350.40 1.411
350.50 1.41
350.60 1.409
350.70 1.408
350.80 1.407
350.90 1.406
351.00 1.405
351.10 1.404
351.20 1.403
351.30 1.403
351.40 1.402
351.50 1.401
351.60 1.4
351.70 1.399
351.80 1.398
351.90 1.397
352.00 1.396
352.10 1.395
352.20 1.394
352.30 1.394
352.40 1.393
352.50 1.392
352.60 1.391
352.70 1.39
352.80 1.389
352.90 1.388
353.00 1.387
353.10 1.386
353.20 1.385
353.30 1.385
353.40 1.384
353.50 1.383
353.60 1.382
353.70 1.381
353.80 1.38
353.90 1.379
354.00 1.378
354.10 1.377
354.20 1.377
354.30 1.376
354.40 1.375
354.50 1.374
354.60 1.373
354.70 1.372
354.80 1.371
354.90 1.37
355.00 1.37
355.10 1.369
355.20 1.368
355.30 1.367
355.40 1.366
355.50 1.365
355.60 1.364
355.70 1.363
355.80 1.363
355.90 1.362
356.00 1.361
356.10 1.36
356.20 1.359
356.30 1.358
356.40 1.357
356.50 1.356
356.60 1.356
356.70 1.355
356.80 1.354
356.90 1.353
357.00 1.352
357.10 1.351
357.20 1.35
357.30 1.35
357.40 1.349
357.50 1.348
357.60 1.347
357.70 1.346
357.80 1.345
357.90 1.344
358.00 1.344
358.10 1.343
358.20 1.342
358.30 1.341
358.40 1.34
358.50 1.339
358.60 1.338
358.70 1.338
358.80 1.337
358.90 1.336
359.00 1.335
359.10 1.334
359.20 1.333
359.30 1.332
359.40 1.332
359.50 1.331
359.60 1.33
359.70 1.329
359.80 1.328
359.90 1.327
360.00 1.327
360.10 1.326
360.20 1.325
360.30 1.324
360.40 1.323
360.50 1.322
360.60 1.322
360.70 1.321
360.80 1.32
360.90 1.319
361.00 1.318
361.10 1.317
361.20 1.316
361.30 1.316
361.40 1.315
361.50 1.314
361.60 1.313
361.70 1.312
361.80 1.311
361.90 1.311
362.00 1.31
362.10 1.309
362.20 1.308
362.30 1.307
362.40 1.307
362.50 1.306
362.60 1.305
362.70 1.304
362.80 1.303
362.90 1.302
363.00 1.302
363.10 1.301
363.20 1.3
363.30 1.299
363.40 1.298
363.50 1.297
363.60 1.297
363.70 1.296
363.80 1.295
363.90 1.294
364.00 1.293
364.10 1.292
364.20 1.292
364.30 1.291
364.40 1.29
364.50 1.289
364.60 1.288
364.70 1.288
364.80 1.287
364.90 1.286
365.00 1.285
365.10 1.285
365.20 1.284
365.30 1.283
365.40 1.282
365.50 1.282
365.60 1.281
365.70 1.28
365.80 1.279
365.90 1.279
366.00 1.278
366.10 1.277
366.20 1.277
366.30 1.276
366.40 1.275
366.50 1.275
366.60 1.274
366.70 1.273
366.80 1.273
366.90 1.272
367.00 1.271
367.10 1.271
367.20 1.27
367.30 1.269
367.40 1.269
367.50 1.268
367.60 1.267
367.70 1.267
367.80 1.266
367.90 1.265
368.00 1.265
368.10 1.265
368.20 1.266
368.30 1.267
368.40 1.268
368.50 1.269
368.60 1.27
368.70 1.271
368.80 1.271
368.90 1.272
369.00 1.273
369.10 1.274
369.20 1.275
369.30 1.276
369.40 1.276
369.50 1.277
369.60 1.278
369.70 1.279
369.80 1.28
369.90 1.281
370.00 1.282
370.10 1.285
370.20 1.289
370.30 1.292
370.40 1.296
370.50 1.3
370.60 1.303
370.70 1.307
370.80 1.31
370.90 1.314
371.00 1.318
371.10 1.321
371.20 1.325
371.30 1.328
371.40 1.332
371.50 1.336
371.60 1.339
371.70 1.343
371.80 1.346
371.90 1.35
372.00 1.353
372.10 1.359
372.20 1.365
372.30 1.371
372.40 1.377
372.50 1.382
372.60 1.388
372.70 1.394
372.80 1.4
372.90 1.406
373.00 1.411
373.10 1.417
373.20 1.423
373.30 1.429
373.40 1.434
373.50 1.44
373.60 1.446
373.70 1.452
373.80 1.457
373.90 1.463
374.00 1.469
374.10 1.475
374.20 1.481
374.30 1.486
374.40 1.492
374.50 1.498
374.60 1.504
374.70 1.51
374.80 1.516
374.90 1.521
375.00 1.527
375.10 1.533
375.20 1.539
375.30 1.545
375.40 1.55
375.50 1.556
375.60 1.562
375.70 1.568
375.80 1.573
375.90 1.579
376.00 1.585
376.10 1.587
376.20 1.59
376.30 1.593
376.40 1.595
376.50 1.598
376.60 1.601
376.70 1.603
376.80 1.606
376.90 1.608
377.00 1.611
377.10 1.605
377.20 1.599
377.30 1.593
377.40 1.588
377.50 1.582
377.60 1.576
377.70 1.57
377.80 1.564
377.90 1.559
378.00 1.553
378.10 1.524
378.20 1.495
378.30 1.466
378.40 1.437
378.50 1.409
378.60 1.38
378.70 1.351
378.80 1.322
378.90 1.294
379.00 1.265
379.10 1.241
379.20 1.217
379.30 1.194
379.40 1.17
379.50 1.146
379.60 1.122
379.70 1.099
379.80 1.075
379.90 1.051
380.00 1.028
380.10 1.065
380.20 1.102
380.30 1.139
380.40 1.176
380.50 1.213
380.60 1.25
380.70 1.287
380.80 1.324
380.90 1.361
381.00 1.398
381.10 1.414
381.20 1.431
381.30 1.448
381.40 1.464
381.50 1.481
381.60 1.483
381.70 1.482
381.80 1.475
381.90 1.464
382.00 1.448
382.10 1.428
382.20 1.402
382.30 1.36
382.40 1.317
382.50 1.275
382.60 1.232
382.70 1.19
382.80 1.147
382.90 1.105
383.00 1.063
383.10 1.021
383.20 0.9786
383.30 0.9313
383.40 0.8815
383.50 0.826
383.60 0.8388
383.70 0.8918
383.80 0.9403
383.90 0.9867
384.00 1.032
384.10 1.079
384.20 1.125
384.30 1.172
384.40 1.22
384.50 1.267
384.60 1.312
384.70 1.355
384.80 1.395
384.90 1.431
385.00 1.464
385.10 1.493
385.20 1.519
385.30 1.543
385.40 1.562
385.50 1.579
385.60 1.593
385.70 1.604
385.80 1.613
385.90 1.621
386.00 1.625
386.10 1.627
386.20 1.627
386.30 1.624
386.40 1.619
386.50 1.612
386.60 1.602
386.70 1.59
386.80 1.577
386.90 1.559
387.00 1.54
387.10 1.519
387.20 1.494
387.30 1.466
387.40 1.436
387.50 1.402
387.60 1.364
387.70 1.325
387.80 1.28
387.90 1.234
388.00 1.186
388.10 1.136
388.20 1.086
388.30 1.035
388.40 0.9863
388.50 0.9374
388.60 0.8886
388.70 0.837
388.80 0.7791
388.90 0.715
389.00 0.7748
389.10 0.8304
389.20 0.8817
389.30 0.9297
389.40 0.9777
389.50 1.026
389.60 1.075
389.70 1.124
389.80 1.174
389.90 1.222
390.00 1.269
390.10 1.314
390.20 1.354
390.30 1.393
390.40 1.43
390.50 1.463
390.60 1.494
390.70 1.523
390.80 1.549
390.90 1.573
391.00 1.596
391.10 1.617
391.20 1.636
391.30 1.655
391.40 1.671
391.50 1.686
391.60 1.7
391.70 1.713
391.80 1.724
391.90 1.735
392.00 1.743
392.10 1.751
392.20 1.759
392.30 1.764
392.40 1.769
392.50 1.773
392.60 1.776
392.70 1.777
392.80 1.778
392.90 1.778
393.00 1.776
393.10 1.774
393.20 1.771
393.30 1.767
393.40 1.762
393.50 1.755
393.60 1.747
393.70 1.739
393.80 1.729
393.90 1.718
394.00 1.707
394.10 1.693
394.20 1.679
394.30 1.664
394.40 1.646
394.50 1.628
394.60 1.609
394.70 1.588
394.80 1.565
394.90 1.542
395.00 1.516
395.10 1.489
395.20 1.461
395.30 1.431
395.40 1.399
395.50 1.365
395.60 1.329
395.70 1.291
395.80 1.251
395.90 1.208
396.00 1.164
396.10 1.119
396.20 1.072
396.30 1.024
396.40 0.976
396.50 0.9285
396.60 0.8812
396.70 0.8342
396.80 0.783
396.90 0.7158
397.00 0.6326
397.10 0.7099
397.20 0.7743
397.30 0.8257
397.40 0.8719
397.50 0.9182
397.60 0.9646
397.70 1.012
397.80 1.058
397.90 1.104
398.00 1.148
398.10 1.191
398.20 1.233
398.30 1.271
398.40 1.308
398.50 1.344
398.60 1.376
398.70 1.407
398.80 1.437
398.90 1.464
399.00 1.49
399.10 1.515
399.20 1.538
399.30 1.561
399.40 1.582
399.50 1.601
399.60 1.62
399.70 1.638
399.80 1.654
399.90 1.67
400.00 1.685
400.10 1.698
400.20 1.711
400.30 1.723
400.40 1.734
400.50 1.745
400.60 1.755
400.70 1.764
400.80 1.772
400.90 1.78
401.00 1.787
401.10 1.794
401.20 1.8
401.30 1.806
401.40 1.811
401.50 1.816
401.60 1.82
401.70 1.824
401.80 1.828
401.90 1.831
402.00 1.834
402.10 1.837
402.20 1.839
402.30 1.841
402.40 1.842
402.50 1.844
402.60 1.845
402.70 1.846
402.80 1.846
402.90 1.846
403.00 1.846
403.10 1.846
403.20 1.846
403.30 1.845
403.40 1.844
403.50 1.843
403.60 1.842
403.70 1.84
403.80 1.839
403.90 1.837
404.00 1.835
404.10 1.832
404.20 1.83
404.30 1.827
404.40 1.824
404.50 1.82
404.60 1.817
404.70 1.813
404.80 1.809
404.90 1.804
405.00 1.8
405.10 1.795
405.20 1.789
405.30 1.784
405.40 1.778
405.50 1.771
405.60 1.765
405.70 1.758
405.80 1.75
405.90 1.742
406.00 1.734
406.10 1.725
406.20 1.715
406.30 1.706
406.40 1.695
406.50 1.684
406.60 1.673
406.70 1.66
406.80 1.647
406.90 1.634
407.00 1.619
407.10 1.604
407.20 1.588
407.30 1.57
407.40 1.552
407.50 1.534
407.60 1.513
407.70 1.492
407.80 1.47
407.90 1.447
408.00 1.423
408.10 1.398
408.20 1.371
408.30 1.344
408.40 1.316
408.50 1.287
408.60 1.257
408.70 1.226
408.80 1.193
408.90 1.159
409.00 1.125
409.10 1.088
409.20 1.051
409.30 1.012
409.40 0.9714
409.50 0.9302
409.60 0.8882
409.70 0.8462
409.80 0.8041
409.90 0.7621
410.00 0.7111
410.10 0.6506
410.20 0.5805
410.30 0.6703
410.40 0.7379
410.50 0.7832
410.60 0.8241
410.70 0.8651
410.80 0.9061
410.90 0.9466
411.00 0.9861
411.10 1.025
411.20 1.061
411.30 1.096
411.40 1.131
411.50 1.163
411.60 1.194
411.70 1.224
411.80 1.253
411.90 1.28
412.00 1.307
412.10 1.332
412.20 1.357
412.30 1.38
412.40 1.402
412.50 1.424
412.60 1.444
412.70 1.463
412.80 1.482
412.90 1.499
413.00 1.515
413.10 1.53
413.20 1.545
413.30 1.558
413.40 1.571
413.50 1.583
413.60 1.593
413.70 1.604
413.80 1.613
413.90 1.622
414.00 1.631
414.10 1.639
414.20 1.646
414.30 1.653
414.40 1.66
414.50 1.666
414.60 1.672
414.70 1.677
414.80 1.682
414.90 1.687
415.00 1.691
415.10 1.695
415.20 1.699
415.30 1.702
415.40 1.706
415.50 1.709
415.60 1.711
415.70 1.714
415.80 1.716
415.90 1.719
416.00 1.721
416.10 1.722
416.20 1.724
416.30 1.726
416.40 1.727
416.50 1.728
416.60 1.73
416.70 1.731
416.80 1.732
416.90 1.732
417.00 1.733
417.10 1.734
417.20 1.734
417.30 1.735
417.40 1.735
417.50 1.736
417.60 1.736
417.70 1.736
417.80 1.736
417.90 1.736
418.00 1.736
418.10 1.736
418.20 1.736
418.30 1.736
418.40 1.736
418.50 1.735
418.60 1.735
418.70 1.735
418.80 1.734
418.90 1.734
419.00 1.733
419.10 1.733
419.20 1.732
419.30 1.732
419.40 1.731
419.50 1.73
419.60 1.73
419.70 1.729
419.80 1.728
419.90 1.728
420.00 1.727
420.10 1.726
420.20 1.725
420.30 1.724
420.40 1.723
420.50 1.722
420.60 1.721
420.70 1.721
420.80 1.72
420.90 1.718
421.00 1.717
421.10 1.716
421.20 1.715
421.30 1.714
421.40 1.713
421.50 1.712
421.60 1.711
421.70 1.71
421.80 1.709
421.90 1.707
422.00 1.706
422.10 1.705
422.20 1.704
422.30 1.702
422.40 1.701
422.50 1.7
422.60 1.698
422.70 1.697
422.80 1.696
422.90 1.694
423.00 1.693
423.10 1.691
423.20 1.69
423.30 1.689
423.40 1.687
423.50 1.686
423.60 1.684
423.70 1.682
423.80 1.681
423.90 1.679
424.00 1.678
424.10 1.676
424.20 1.674
424.30 1.673
424.40 1.671
424.50 1.669
424.60 1.667
424.70 1.665
424.80 1.664
424.90 1.662
425.00 1.66
425.10 1.658
425.20 1.656
425.30 1.654
425.40 1.652
425.50 1.65
425.60 1.648
425.70 1.645
425.80 1.643
425.90 1.641
426.00 1.638
426.10 1.636
426.20 1.633
426.30 1.631
426.40 1.628
426.50 1.625
426.60 1.623
426.70 1.62
426.80 1.617
426.90 1.614
427.00 1.611
427.10 1.608
427.20 1.605
427.30 1.602
427.40 1.598
427.50 1.595
427.60 1.592
427.70 1.588
427.80 1.584
427.90 1.58
428.00 1.576
428.10 1.572
428.20 1.568
428.30 1.564
428.40 1.559
428.50 1.554
428.60 1.549
428.70 1.544
428.80 1.539
428.90 1.534
429.00 1.528
429.10 1.522
429.20 1.516
429.30 1.51
429.40 1.504
429.50 1.497
429.60 1.49
429.70 1.482
429.80 1.475
429.90 1.467
430.00 1.458
430.10 1.45
430.20 1.441
430.30 1.431
430.40 1.422
430.50 1.412
430.60 1.401
430.70 1.39
430.80 1.379
430.90 1.367
431.00 1.354
431.10 1.342
431.20 1.328
431.30 1.314
431.40 1.3
431.50 1.285
431.60 1.269
431.70 1.252
431.80 1.234
431.90 1.215
432.00 1.195
432.10 1.175
432.20 1.152
432.30 1.128
432.40 1.104
432.50 1.076
432.60 1.048
432.70 1.019
432.80 0.9893
432.90 0.9595
433.00 0.9299
433.10 0.9011
433.20 0.8717
433.30 0.8418
433.40 0.8096
433.50 0.7767
433.60 0.7431
433.70 0.7087
433.80 0.6711
433.90 0.6302
434.00 0.5231
434.10 0.5242
434.20 0.6335
434.30 0.6729
434.40 0.7095
434.50 0.7431
434.60 0.7757
434.70 0.8076
434.80 0.8387
434.90 0.8674
435.00 0.8956
435.10 0.9232
435.20 0.9515
435.30 0.9798
435.40 1.008
435.50 1.036
435.60 1.062
435.70 1.087
435.80 1.11
435.90 1.131
436.00 1.152
436.10 1.171
436.20 1.188
436.30 1.205
436.40 1.221
436.50 1.235
436.60 1.249
436.70 1.262
436.80 1.274
436.90 1.286
437.00 1.297
437.10 1.307
437.20 1.317
437.30 1.326
437.40 1.335
437.50 1.344
437.60 1.352
437.70 1.36
437.80 1.367
437.90 1.374
438.00 1.38
438.10 1.386
438.20 1.392
438.30 1.397
438.40 1.403
438.50 1.407
438.60 1.412
438.70 1.416
438.80 1.42
438.90 1.424
439.00 1.427
439.10 1.431
439.20 1.434
439.30 1.437
439.40 1.439
439.50 1.442
439.60 1.444
439.70 1.446
439.80 1.448
439.90 1.45
440.00 1.452
440.10 1.454
440.20 1.455
440.30 1.456
440.40 1.458
440.50 1.459
440.60 1.46
440.70 1.461
440.80 1.462
440.90 1.463
441.00 1.463
441.10 1.464
441.20 1.464
441.30 1.465
441.40 1.465
441.50 1.466
441.60 1.466
441.70 1.466
441.80 1.466
441.90 1.466
442.00 1.467
442.10 1.467
442.20 1.467
442.30 1.467
442.40 1.466
442.50 1.466
442.60 1.466
442.70 1.466
442.80 1.466
442.90 1.465
443.00 1.465
443.10 1.465
443.20 1.464
443.30 1.464
443.40 1.463
443.50 1.463
443.60 1.463
443.70 1.462
443.80 1.462
443.90 1.461
444.00 1.461
444.10 1.46
444.20 1.459
444.30 1.459
444.40 1.458
444.50 1.458
444.60 1.457
444.70 1.456
444.80 1.456
444.90 1.455
445.00 1.454
445.10 1.453
445.20 1.453
445.30 1.452
445.40 1.451
445.50 1.451
445.60 1.45
445.70 1.449
445.80 1.448
445.90 1.447
446.00 1.447
446.10 1.446
446.20 1.445
446.30 1.444
446.40 1.443
446.50 1.443
446.60 1.442
446.70 1.441
446.80 1.44
446.90 1.439
447.00 1.438
447.10 1.438
447.20 1.437
447.30 1.436
447.40 1.435
447.50 1.434
447.60 1.433
447.70 1.432
447.80 1.431
447.90 1.431
448.00 1.43
448.10 1.429
448.20 1.428
448.30 1.427
448.40 1.426
448.50 1.425
448.60 1.424
448.70 1.423
448.80 1.422
448.90 1.422
449.00 1.421
449.10 1.42
449.20 1.419
449.30 1.418
449.40 1.417
449.50 1.416
449.60 1.415
449.70 1.414
449.80 1.413
449.90 1.413
450.00 1.412
450.10 1.411
450.20 1.41
450.30 1.409
450.40 1.408
450.50 1.407
450.60 1.406
450.70 1.405
450.80 1.404
450.90 1.403
451.00 1.402
451.10 1.401
451.20 1.4
451.30 1.399
451.40 1.399
451.50 1.398
451.60 1.397
451.70 1.396
451.80 1.395
451.90 1.394
452.00 1.393
452.10 1.392
452.20 1.391
452.30 1.39
452.40 1.389
452.50 1.388
452.60 1.387
452.70 1.386
452.80 1.385
452.90 1.384
453.00 1.383
453.10 1.383
453.20 1.382
453.30 1.381
453.40 1.38
