# Version 2.1 - nm, norm@500 to 1, cut digits, bergeron_2500_75.dat_2500
# Wavelength(nm)  Flambda(ergs/cm^s/s/nm)
300.00 0.05248
300.10 0.05265
300.20 0.05281
300.30 0.05298
300.40 0.05315
300.50 0.05332
300.60 0.05349
300.70 0.05365
300.80 0.05382
300.90 0.05399
301.00 0.05415
301.10 0.05432
301.20 0.05449
301.30 0.05465
301.40 0.05482
301.50 0.05498
301.60 0.05515
301.70 0.05531
301.80 0.05548
301.90 0.05564
302.00 0.05581
302.10 0.05598
302.20 0.05616
302.30 0.05633
302.40 0.05651
302.50 0.05668
302.60 0.05686
302.70 0.05703
302.80 0.05721
302.90 0.05738
303.00 0.05755
303.10 0.05773
303.20 0.0579
303.30 0.05807
303.40 0.05824
303.50 0.05842
303.60 0.05859
303.70 0.05876
303.80 0.05893
303.90 0.0591
304.00 0.05928
304.10 0.05946
304.20 0.05964
304.30 0.05982
304.40 0.06001
304.50 0.06019
304.60 0.06037
304.70 0.06055
304.80 0.06073
304.90 0.06091
305.00 0.06109
305.10 0.06128
305.20 0.06146
305.30 0.06164
305.40 0.06182
305.50 0.062
305.60 0.06217
305.70 0.06235
305.80 0.06253
305.90 0.06271
306.00 0.0629
306.10 0.06308
306.20 0.06327
306.30 0.06346
306.40 0.06365
306.50 0.06384
306.60 0.06403
306.70 0.06422
306.80 0.0644
306.90 0.06459
307.00 0.06478
307.10 0.06497
307.20 0.06516
307.30 0.06534
307.40 0.06553
307.50 0.06572
307.60 0.0659
307.70 0.06609
307.80 0.06628
307.90 0.06646
308.00 0.06665
308.10 0.06685
308.20 0.06704
308.30 0.06724
308.40 0.06744
308.50 0.06763
308.60 0.06783
308.70 0.06803
308.80 0.06822
308.90 0.06842
309.00 0.06861
309.10 0.06881
309.20 0.069
309.30 0.0692
309.40 0.06939
309.50 0.06959
309.60 0.06978
309.70 0.06997
309.80 0.07017
309.90 0.07036
310.00 0.07056
310.10 0.07076
310.20 0.07096
310.30 0.07117
310.40 0.07137
310.50 0.07158
310.60 0.07178
310.70 0.07199
310.80 0.07219
310.90 0.07239
311.00 0.0726
311.10 0.0728
311.20 0.073
311.30 0.07321
311.40 0.07341
311.50 0.07361
311.60 0.07381
311.70 0.07401
311.80 0.07422
311.90 0.07442
312.00 0.07462
312.10 0.07482
312.20 0.07502
312.30 0.07523
312.40 0.07544
312.50 0.07566
312.60 0.07587
312.70 0.07608
312.80 0.07629
312.90 0.0765
313.00 0.07671
313.10 0.07693
313.20 0.07714
313.30 0.07735
313.40 0.07756
313.50 0.07777
313.60 0.07797
313.70 0.07818
313.80 0.07839
313.90 0.0786
314.00 0.07882
314.10 0.07903
314.20 0.07925
314.30 0.07947
314.40 0.07969
314.50 0.07991
314.60 0.08013
314.70 0.08035
314.80 0.08057
314.90 0.08078
315.00 0.081
315.10 0.08122
315.20 0.08144
315.30 0.08165
315.40 0.08187
315.50 0.08209
315.60 0.0823
315.70 0.08252
315.80 0.08273
315.90 0.08295
316.00 0.08317
316.10 0.08339
316.20 0.08362
316.30 0.08385
316.40 0.08408
316.50 0.0843
316.60 0.08453
316.70 0.08476
316.80 0.08498
316.90 0.08521
317.00 0.08543
317.10 0.08566
317.20 0.08588
317.30 0.08611
317.40 0.08633
317.50 0.08656
317.60 0.08678
317.70 0.08701
317.80 0.08723
317.90 0.08746
318.00 0.08768
318.10 0.08791
318.20 0.08815
318.30 0.08838
318.40 0.08862
318.50 0.08885
318.60 0.08909
318.70 0.08932
318.80 0.08955
318.90 0.08979
319.00 0.09002
319.10 0.09025
319.20 0.09049
319.30 0.09072
319.40 0.09095
319.50 0.09118
319.60 0.09141
319.70 0.09165
319.80 0.09188
319.90 0.09211
320.00 0.09235
320.10 0.09259
320.20 0.09282
320.30 0.09307
320.40 0.09331
320.50 0.09355
320.60 0.0938
320.70 0.09404
320.80 0.09428
320.90 0.09452
321.00 0.09476
321.10 0.095
321.20 0.09524
321.30 0.09548
321.40 0.09572
321.50 0.09596
321.60 0.0962
321.70 0.09644
321.80 0.09668
321.90 0.09692
322.00 0.09716
322.10 0.09741
322.20 0.09766
322.30 0.09791
322.40 0.09816
322.50 0.09841
322.60 0.09866
322.70 0.09891
322.80 0.09916
322.90 0.09941
323.00 0.09966
323.10 0.09991
323.20 0.1002
323.30 0.1004
323.40 0.1007
323.50 0.1009
323.60 0.1011
323.70 0.1014
323.80 0.1016
323.90 0.1019
324.00 0.1021
324.10 0.1024
324.20 0.1026
324.30 0.1029
324.40 0.1032
324.50 0.1034
324.60 0.1037
324.70 0.1039
324.80 0.1042
324.90 0.1045
325.00 0.1047
325.10 0.105
325.20 0.1052
325.30 0.1055
325.40 0.1057
325.50 0.106
325.60 0.1062
325.70 0.1065
325.80 0.1068
325.90 0.107
326.00 0.1073
326.10 0.1075
326.20 0.1078
326.30 0.1081
326.40 0.1083
326.50 0.1086
326.60 0.1089
326.70 0.1091
326.80 0.1094
326.90 0.1097
327.00 0.1099
327.10 0.1102
327.20 0.1104
327.30 0.1107
327.40 0.111
327.50 0.1112
327.60 0.1115
327.70 0.1118
327.80 0.112
327.90 0.1123
328.00 0.1126
328.10 0.1128
328.20 0.1131
328.30 0.1134
328.40 0.1136
328.50 0.1139
328.60 0.1142
328.70 0.1145
328.80 0.1147
328.90 0.115
329.00 0.1153
329.10 0.1156
329.20 0.1158
329.30 0.1161
329.40 0.1164
329.50 0.1166
329.60 0.1169
329.70 0.1172
329.80 0.1175
329.90 0.1177
330.00 0.118
330.10 0.1183
330.20 0.1186
330.30 0.1188
330.40 0.1191
330.50 0.1194
330.60 0.1197
330.70 0.12
330.80 0.1203
330.90 0.1205
331.00 0.1208
331.10 0.1211
331.20 0.1214
331.30 0.1217
331.40 0.1219
331.50 0.1222
331.60 0.1225
331.70 0.1228
331.80 0.123
331.90 0.1233
332.00 0.1236
332.10 0.1239
332.20 0.1242
332.30 0.1245
332.40 0.1248
332.50 0.1251
332.60 0.1253
332.70 0.1256
332.80 0.1259
332.90 0.1262
333.00 0.1265
333.10 0.1268
333.20 0.1271
333.30 0.1274
333.40 0.1277
333.50 0.1279
333.60 0.1282
333.70 0.1285
333.80 0.1288
333.90 0.1291
334.00 0.1294
334.10 0.1297
334.20 0.13
334.30 0.1303
334.40 0.1306
334.50 0.1309
334.60 0.1312
334.70 0.1315
334.80 0.1318
334.90 0.1321
335.00 0.1324
335.10 0.1326
335.20 0.1329
335.30 0.1332
335.40 0.1335
335.50 0.1338
335.60 0.1341
335.70 0.1344
335.80 0.1347
335.90 0.135
336.00 0.1353
336.10 0.1356
336.20 0.1359
336.30 0.1362
336.40 0.1365
336.50 0.1368
336.60 0.1371
336.70 0.1374
336.80 0.1377
336.90 0.138
337.00 0.1384
337.10 0.1387
337.20 0.139
337.30 0.1393
337.40 0.1396
337.50 0.1399
337.60 0.1402
337.70 0.1405
337.80 0.1408
337.90 0.1411
338.00 0.1414
338.10 0.1417
338.20 0.142
338.30 0.1423
338.40 0.1426
338.50 0.1429
338.60 0.1433
338.70 0.1436
338.80 0.1439
338.90 0.1442
339.00 0.1445
339.10 0.1448
339.20 0.1451
339.30 0.1454
339.40 0.1458
339.50 0.1461
339.60 0.1464
339.70 0.1467
339.80 0.147
339.90 0.1473
340.00 0.1476
340.10 0.1479
340.20 0.1483
340.30 0.1486
340.40 0.1489
340.50 0.1492
340.60 0.1496
340.70 0.1499
340.80 0.1502
340.90 0.1505
341.00 0.1508
341.10 0.1512
341.20 0.1515
341.30 0.1518
341.40 0.1521
341.50 0.1524
341.60 0.1527
341.70 0.1531
341.80 0.1534
341.90 0.1537
342.00 0.154
342.10 0.1543
342.20 0.1547
342.30 0.155
342.40 0.1553
342.50 0.1557
342.60 0.156
342.70 0.1563
342.80 0.1567
342.90 0.157
343.00 0.1573
343.10 0.1576
343.20 0.158
343.30 0.1583
343.40 0.1586
343.50 0.1589
343.60 0.1593
343.70 0.1596
343.80 0.1599
343.90 0.1602
344.00 0.1606
344.10 0.1609
344.20 0.1613
344.30 0.1616
344.40 0.1619
344.50 0.1623
344.60 0.1626
344.70 0.1629
344.80 0.1633
344.90 0.1636
345.00 0.164
345.10 0.1643
345.20 0.1646
345.30 0.165
345.40 0.1653
345.50 0.1656
345.60 0.166
345.70 0.1663
345.80 0.1666
345.90 0.167
346.00 0.1673
346.10 0.1676
346.20 0.168
346.30 0.1683
346.40 0.1687
346.50 0.169
346.60 0.1694
346.70 0.1697
346.80 0.1701
346.90 0.1704
347.00 0.1707
347.10 0.1711
347.20 0.1714
347.30 0.1718
347.40 0.1721
347.50 0.1725
347.60 0.1728
347.70 0.1731
347.80 0.1735
347.90 0.1738
348.00 0.1742
348.10 0.1745
348.20 0.1749
348.30 0.1752
348.40 0.1756
348.50 0.1759
348.60 0.1763
348.70 0.1766
348.80 0.177
348.90 0.1774
349.00 0.1777
349.10 0.1781
349.20 0.1784
349.30 0.1788
349.40 0.1791
349.50 0.1795
349.60 0.1798
349.70 0.1802
349.80 0.1805
349.90 0.1808
350.00 0.1812
350.10 0.1816
350.20 0.1819
350.30 0.1823
350.40 0.1826
350.50 0.183
350.60 0.1834
350.70 0.1837
350.80 0.1841
350.90 0.1845
351.00 0.1848
351.10 0.1852
351.20 0.1855
351.30 0.1859
351.40 0.1862
351.50 0.1866
351.60 0.187
351.70 0.1873
351.80 0.1877
351.90 0.188
352.00 0.1884
352.10 0.1888
352.20 0.1891
352.30 0.1895
352.40 0.1899
352.50 0.1902
352.60 0.1906
352.70 0.191
352.80 0.1913
352.90 0.1917
353.00 0.1921
353.10 0.1924
353.20 0.1928
353.30 0.1932
353.40 0.1935
353.50 0.1939
353.60 0.1943
353.70 0.1946
353.80 0.195
353.90 0.1954
354.00 0.1957
354.10 0.1961
354.20 0.1965
354.30 0.1969
354.40 0.1972
354.50 0.1976
354.60 0.198
354.70 0.1984
354.80 0.1987
354.90 0.1991
355.00 0.1995
355.10 0.1999
355.20 0.2002
355.30 0.2006
355.40 0.201
355.50 0.2014
355.60 0.2017
355.70 0.2021
355.80 0.2025
355.90 0.2028
356.00 0.2032
356.10 0.2036
356.20 0.204
356.30 0.2044
356.40 0.2048
356.50 0.2051
356.60 0.2055
356.70 0.2059
356.80 0.2063
356.90 0.2067
357.00 0.2071
357.10 0.2074
357.20 0.2078
357.30 0.2082
357.40 0.2086
357.50 0.209
357.60 0.2093
357.70 0.2097
357.80 0.2101
357.90 0.2105
358.00 0.2109
358.10 0.2113
358.20 0.2116
358.30 0.212
358.40 0.2124
358.50 0.2128
358.60 0.2132
358.70 0.2136
358.80 0.214
358.90 0.2144
359.00 0.2148
359.10 0.2152
359.20 0.2156
359.30 0.2159
359.40 0.2163
359.50 0.2167
359.60 0.2171
359.70 0.2175
359.80 0.2179
359.90 0.2183
360.00 0.2187
360.10 0.2191
360.20 0.2195
360.30 0.2199
360.40 0.2203
360.50 0.2207
360.60 0.2211
360.70 0.2215
360.80 0.2219
360.90 0.2223
361.00 0.2227
361.10 0.2231
361.20 0.2235
361.30 0.2238
361.40 0.2242
361.50 0.2246
361.60 0.225
361.70 0.2254
361.80 0.2258
361.90 0.2262
362.00 0.2266
362.10 0.227
362.20 0.2274
362.30 0.2278
362.40 0.2282
362.50 0.2286
362.60 0.229
362.70 0.2294
362.80 0.2298
362.90 0.2302
363.00 0.2306
363.10 0.231
363.20 0.2315
363.30 0.2319
363.40 0.2323
363.50 0.2327
363.60 0.2331
363.70 0.2335
363.80 0.2339
363.90 0.2343
364.00 0.2347
364.10 0.2351
364.20 0.2355
364.30 0.2359
364.40 0.2363
364.50 0.2367
364.60 0.2372
364.70 0.2376
364.80 0.238
364.90 0.2384
365.00 0.2388
365.10 0.2392
365.20 0.2397
365.30 0.2401
365.40 0.2405
365.50 0.2409
365.60 0.2413
365.70 0.2417
365.80 0.2421
365.90 0.2425
366.00 0.2429
366.10 0.2434
366.20 0.2438
366.30 0.2442
366.40 0.2446
366.50 0.2451
366.60 0.2455
366.70 0.2459
366.80 0.2463
366.90 0.2467
367.00 0.2472
367.10 0.2476
367.20 0.248
367.30 0.2484
367.40 0.2488
367.50 0.2493
367.60 0.2497
367.70 0.2501
367.80 0.2505
367.90 0.2509
368.00 0.2513
368.10 0.2518
368.20 0.2522
368.30 0.2526
368.40 0.2531
368.50 0.2535
368.60 0.2539
368.70 0.2543
368.80 0.2548
368.90 0.2552
369.00 0.2556
369.10 0.256
369.20 0.2565
369.30 0.2569
369.40 0.2573
369.50 0.2577
369.60 0.2582
369.70 0.2586
369.80 0.259
369.90 0.2594
370.00 0.2599
370.10 0.2603
370.20 0.2607
370.30 0.2612
370.40 0.2616
370.50 0.2621
370.60 0.2625
370.70 0.2629
370.80 0.2634
370.90 0.2638
371.00 0.2642
371.10 0.2647
371.20 0.2651
371.30 0.2655
371.40 0.266
371.50 0.2664
371.60 0.2668
371.70 0.2672
371.80 0.2677
371.90 0.2681
372.00 0.2685
372.10 0.269
372.20 0.2694
372.30 0.2699
372.40 0.2703
372.50 0.2708
372.60 0.2712
372.70 0.2716
372.80 0.2721
372.90 0.2725
373.00 0.273
373.10 0.2734
373.20 0.2738
373.30 0.2743
373.40 0.2747
373.50 0.2752
373.60 0.2756
373.70 0.276
373.80 0.2765
373.90 0.2769
374.00 0.2773
374.10 0.2778
374.20 0.2783
374.30 0.2787
374.40 0.2792
374.50 0.2796
374.60 0.2801
374.70 0.2805
374.80 0.281
374.90 0.2814
375.00 0.2818
375.10 0.2823
375.20 0.2827
375.30 0.2832
375.40 0.2836
375.50 0.2841
375.60 0.2845
375.70 0.285
375.80 0.2854
375.90 0.2859
376.00 0.2863
376.10 0.2868
376.20 0.2872
376.30 0.2877
376.40 0.2881
376.50 0.2886
376.60 0.289
376.70 0.2895
376.80 0.2899
376.90 0.2904
377.00 0.2908
377.10 0.2913
377.20 0.2917
377.30 0.2922
377.40 0.2927
377.50 0.2931
377.60 0.2936
377.70 0.294
377.80 0.2945
377.90 0.2949
378.00 0.2954
378.10 0.2958
378.20 0.2963
378.30 0.2968
378.40 0.2972
378.50 0.2977
378.60 0.2981
378.70 0.2986
378.80 0.2991
378.90 0.2995
379.00 0.3
379.10 0.3004
379.20 0.3009
379.30 0.3014
379.40 0.3018
379.50 0.3023
379.60 0.3028
379.70 0.3032
379.80 0.3037
379.90 0.3041
380.00 0.3046
380.10 0.3051
380.20 0.3055
380.30 0.306
380.40 0.3065
380.50 0.3069
380.60 0.3074
380.70 0.3079
380.80 0.3083
380.90 0.3088
381.00 0.3093
381.10 0.3097
381.20 0.3102
381.30 0.3107
381.40 0.3111
381.50 0.3116
381.60 0.3121
381.70 0.3125
381.80 0.313
381.90 0.3135
382.00 0.314
382.10 0.3144
382.20 0.3149
382.30 0.3154
382.40 0.3158
382.50 0.3163
382.60 0.3168
382.70 0.3173
382.80 0.3177
382.90 0.3182
383.00 0.3187
383.10 0.3192
383.20 0.3196
383.30 0.3201
383.40 0.3206
383.50 0.321
383.60 0.3215
383.70 0.322
383.80 0.3225
383.90 0.323
384.00 0.3234
384.10 0.3239
384.20 0.3244
384.30 0.3249
384.40 0.3253
384.50 0.3258
384.60 0.3263
384.70 0.3268
384.80 0.3273
384.90 0.3277
385.00 0.3282
385.10 0.3287
385.20 0.3292
385.30 0.3297
385.40 0.3301
385.50 0.3306
385.60 0.3311
385.70 0.3316
385.80 0.3321
385.90 0.3326
386.00 0.333
386.10 0.3335
386.20 0.334
386.30 0.3345
386.40 0.335
386.50 0.3355
386.60 0.3359
386.70 0.3364
386.80 0.3369
386.90 0.3374
387.00 0.3379
387.10 0.3384
387.20 0.3389
387.30 0.3393
387.40 0.3398
387.50 0.3403
387.60 0.3408
387.70 0.3413
387.80 0.3418
387.90 0.3423
388.00 0.3428
388.10 0.3433
388.20 0.3438
388.30 0.3442
388.40 0.3447
388.50 0.3452
388.60 0.3457
388.70 0.3462
388.80 0.3467
388.90 0.3472
389.00 0.3477
389.10 0.3482
389.20 0.3487
389.30 0.3492
389.40 0.3497
389.50 0.3501
389.60 0.3506
389.70 0.3511
389.80 0.3516
389.90 0.3521
390.00 0.3526
390.10 0.3531
390.20 0.3536
390.30 0.3541
390.40 0.3546
390.50 0.3551
390.60 0.3556
390.70 0.3561
390.80 0.3566
390.90 0.3571
391.00 0.3576
391.10 0.3581
391.20 0.3586
391.30 0.3591
391.40 0.3596
391.50 0.3601
391.60 0.3606
391.70 0.3611
391.80 0.3616
391.90 0.3621
392.00 0.3626
392.10 0.3631
392.20 0.3636
392.30 0.3641
392.40 0.3646
392.50 0.3651
392.60 0.3656
392.70 0.3661
392.80 0.3666
392.90 0.3671
393.00 0.3676
393.10 0.3681
393.20 0.3686
393.30 0.3691
393.40 0.3696
393.50 0.3701
393.60 0.3707
393.70 0.3712
393.80 0.3717
393.90 0.3722
394.00 0.3727
394.10 0.3732
394.20 0.3737
394.30 0.3742
394.40 0.3747
394.50 0.3752
394.60 0.3757
394.70 0.3762
394.80 0.3767
394.90 0.3773
395.00 0.3778
395.10 0.3783
395.20 0.3788
395.30 0.3793
395.40 0.3798
395.50 0.3803
395.60 0.3808
395.70 0.3813
395.80 0.3819
395.90 0.3824
396.00 0.3829
396.10 0.3834
396.20 0.3839
396.30 0.3844
396.40 0.3849
396.50 0.3855
396.60 0.386
396.70 0.3865
396.80 0.387
396.90 0.3875
397.00 0.388
397.10 0.3885
397.20 0.3891
397.30 0.3896
397.40 0.3901
397.50 0.3906
397.60 0.3911
397.70 0.3916
397.80 0.3922
397.90 0.3927
398.00 0.3932
398.10 0.3937
398.20 0.3942
398.30 0.3948
398.40 0.3953
398.50 0.3958
398.60 0.3963
398.70 0.3968
398.80 0.3974
398.90 0.3979
399.00 0.3984
399.10 0.3989
399.20 0.3994
399.30 0.4
399.40 0.4005
399.50 0.401
399.60 0.4015
399.70 0.402
399.80 0.4026
399.90 0.4031
400.00 0.4036
400.10 0.4041
400.20 0.4047
400.30 0.4052
400.40 0.4057
400.50 0.4062
400.60 0.4068
400.70 0.4073
400.80 0.4078
400.90 0.4083
401.00 0.4089
401.10 0.4094
401.20 0.4099
401.30 0.4104
401.40 0.411
401.50 0.4115
401.60 0.412
401.70 0.4126
401.80 0.4131
401.90 0.4136
402.00 0.4141
402.10 0.4147
402.20 0.4152
402.30 0.4157
402.40 0.4163
402.50 0.4168
402.60 0.4173
402.70 0.4179
402.80 0.4184
402.90 0.4189
403.00 0.4195
403.10 0.42
403.20 0.4205
403.30 0.4211
403.40 0.4216
403.50 0.4221
403.60 0.4226
403.70 0.4232
403.80 0.4237
403.90 0.4242
404.00 0.4248
404.10 0.4253
404.20 0.4259
404.30 0.4264
404.40 0.4269
404.50 0.4275
404.60 0.428
404.70 0.4285
404.80 0.4291
404.90 0.4296
405.00 0.4301
405.10 0.4307
405.20 0.4312
405.30 0.4317
405.40 0.4323
405.50 0.4328
405.60 0.4334
405.70 0.4339
405.80 0.4344
405.90 0.435
406.00 0.4355
406.10 0.4361
406.20 0.4366
406.30 0.4371
406.40 0.4377
406.50 0.4382
406.60 0.4388
406.70 0.4393
406.80 0.4398
406.90 0.4404
407.00 0.4409
407.10 0.4415
407.20 0.442
407.30 0.4425
407.40 0.4431
407.50 0.4436
407.60 0.4442
407.70 0.4447
407.80 0.4453
407.90 0.4458
408.00 0.4463
408.10 0.4469
408.20 0.4474
408.30 0.448
408.40 0.4485
408.50 0.4491
408.60 0.4496
408.70 0.4502
408.80 0.4507
408.90 0.4512
409.00 0.4518
409.10 0.4523
409.20 0.4529
409.30 0.4534
409.40 0.454
409.50 0.4545
409.60 0.4551
409.70 0.4556
409.80 0.4562
409.90 0.4567
410.00 0.4573
410.10 0.4578
410.20 0.4584
410.30 0.4589
410.40 0.4595
410.50 0.46
410.60 0.4606
410.70 0.4611
410.80 0.4617
410.90 0.4622
411.00 0.4628
411.10 0.4633
411.20 0.4639
411.30 0.4644
411.40 0.465
411.50 0.4655
411.60 0.4661
411.70 0.4666
411.80 0.4672
411.90 0.4677
412.00 0.4683
412.10 0.4688
412.20 0.4694
412.30 0.4699
412.40 0.4705
412.50 0.4711
412.60 0.4716
412.70 0.4722
412.80 0.4727
412.90 0.4733
413.00 0.4738
413.10 0.4744
413.20 0.4749
413.30 0.4755
413.40 0.4761
413.50 0.4766
413.60 0.4772
413.70 0.4777
413.80 0.4783
413.90 0.4788
414.00 0.4794
414.10 0.48
414.20 0.4805
414.30 0.4811
414.40 0.4816
414.50 0.4822
414.60 0.4827
414.70 0.4833
414.80 0.4839
414.90 0.4844
415.00 0.485
415.10 0.4855
415.20 0.4861
415.30 0.4867
415.40 0.4872
415.50 0.4878
415.60 0.4883
415.70 0.4889
415.80 0.4895
415.90 0.49
416.00 0.4906
416.10 0.4912
416.20 0.4917
416.30 0.4923
416.40 0.4928
416.50 0.4934
416.60 0.494
416.70 0.4945
416.80 0.4951
416.90 0.4957
417.00 0.4962
417.10 0.4968
417.20 0.4973
417.30 0.4979
417.40 0.4985
417.50 0.499
417.60 0.4996
417.70 0.5002
417.80 0.5007
417.90 0.5013
418.00 0.5019
418.10 0.5024
418.20 0.503
418.30 0.5036
418.40 0.5041
418.50 0.5047
418.60 0.5053
418.70 0.5058
418.80 0.5064
418.90 0.507
419.00 0.5075
419.10 0.5081
419.20 0.5087
419.30 0.5092
419.40 0.5098
419.50 0.5104
419.60 0.5109
419.70 0.5115
419.80 0.5121
419.90 0.5127
420.00 0.5132
420.10 0.5138
420.20 0.5144
420.30 0.5149
420.40 0.5155
420.50 0.5161
420.60 0.5166
420.70 0.5172
420.80 0.5178
420.90 0.5184
421.00 0.5189
421.10 0.5195
421.20 0.5201
421.30 0.5207
421.40 0.5212
421.50 0.5218
421.60 0.5224
421.70 0.5229
421.80 0.5235
421.90 0.5241
422.00 0.5247
422.10 0.5252
422.20 0.5258
422.30 0.5264
422.40 0.527
422.50 0.5275
422.60 0.5281
422.70 0.5287
422.80 0.5293
422.90 0.5298
423.00 0.5304
423.10 0.531
423.20 0.5316
423.30 0.5321
423.40 0.5327
423.50 0.5333
423.60 0.5339
423.70 0.5344
423.80 0.535
423.90 0.5356
424.00 0.5362
424.10 0.5367
424.20 0.5373
424.30 0.5379
424.40 0.5385
424.50 0.5391
424.60 0.5396
424.70 0.5402
424.80 0.5408
424.90 0.5414
425.00 0.542
425.10 0.5425
425.20 0.5431
425.30 0.5437
425.40 0.5443
425.50 0.5449
425.60 0.5454
425.70 0.546
425.80 0.5466
425.90 0.5472
426.00 0.5478
426.10 0.5483
426.20 0.5489
426.30 0.5495
426.40 0.5501
426.50 0.5507
426.60 0.5512
426.70 0.5518
426.80 0.5524
426.90 0.553
427.00 0.5536
427.10 0.5542
427.20 0.5547
427.30 0.5553
427.40 0.5559
427.50 0.5565
427.60 0.5571
427.70 0.5577
427.80 0.5582
427.90 0.5588
428.00 0.5594
428.10 0.56
428.20 0.5606
428.30 0.5612
428.40 0.5617
428.50 0.5623
428.60 0.5629
428.70 0.5635
428.80 0.5641
428.90 0.5647
429.00 0.5653
429.10 0.5658
429.20 0.5664
429.30 0.567
429.40 0.5676
429.50 0.5682
429.60 0.5688
429.70 0.5694
429.80 0.5699
429.90 0.5705
430.00 0.5711
430.10 0.5717
430.20 0.5723
430.30 0.5729
430.40 0.5735
430.50 0.5741
430.60 0.5746
430.70 0.5752
430.80 0.5758
430.90 0.5764
431.00 0.577
431.10 0.5776
431.20 0.5782
431.30 0.5788
431.40 0.5794
431.50 0.58
431.60 0.5805
431.70 0.5811
431.80 0.5817
431.90 0.5823
432.00 0.5829
432.10 0.5835
432.20 0.5841
432.30 0.5847
432.40 0.5853
432.50 0.5859
432.60 0.5864
432.70 0.587
432.80 0.5876
432.90 0.5882
433.00 0.5888
433.10 0.5894
433.20 0.59
433.30 0.5906
433.40 0.5912
433.50 0.5918
433.60 0.5924
433.70 0.593
433.80 0.5936
433.90 0.5941
434.00 0.5947
434.10 0.5953
434.20 0.5959
434.30 0.5965
434.40 0.5971
434.50 0.5977
434.60 0.5983
434.70 0.5989
434.80 0.5995
434.90 0.6001
435.00 0.6007
435.10 0.6013
435.20 0.6019
435.30 0.6025
435.40 0.6031
435.50 0.6037
435.60 0.6043
435.70 0.6048
435.80 0.6054
435.90 0.606
436.00 0.6066
436.10 0.6072
436.20 0.6078
436.30 0.6084
436.40 0.609
436.50 0.6096
436.60 0.6102
436.70 0.6108
436.80 0.6114
436.90 0.612
437.00 0.6126
437.10 0.6132
437.20 0.6138
437.30 0.6144
437.40 0.615
437.50 0.6156
437.60 0.6162
437.70 0.6168
437.80 0.6174
437.90 0.618
438.00 0.6186
438.10 0.6192
438.20 0.6198
438.30 0.6204
438.40 0.621
438.50 0.6216
438.60 0.6222
438.70 0.6228
438.80 0.6234
438.90 0.624
439.00 0.6246
439.10 0.6252
439.20 0.6258
439.30 0.6264
439.40 0.627
439.50 0.6276
439.60 0.6282
439.70 0.6288
439.80 0.6294
439.90 0.63
440.00 0.6306
440.10 0.6312
440.20 0.6318
440.30 0.6324
440.40 0.633
440.50 0.6336
440.60 0.6342
440.70 0.6348
440.80 0.6354
440.90 0.636
441.00 0.6366
441.10 0.6372
441.20 0.6378
441.30 0.6384
