# Version 2.1 - nm, norm@500 to 1, cut digits, bergeron_16000_80.dat_16000
# Wavelength(nm)  Flambda(ergs/cm^s/s/nm)
300.00 2.48
300.10 2.478
300.20 2.476
300.30 2.474
300.40 2.472
300.50 2.47
300.60 2.468
300.70 2.466
300.80 2.464
300.90 2.462
301.00 2.46
301.10 2.458
301.20 2.456
301.30 2.454
301.40 2.452
301.50 2.45
301.60 2.448
301.70 2.446
301.80 2.444
301.90 2.442
302.00 2.44
302.10 2.438
302.20 2.436
302.30 2.434
302.40 2.432
302.50 2.43
302.60 2.428
302.70 2.426
302.80 2.424
302.90 2.422
303.00 2.42
303.10 2.418
303.20 2.416
303.30 2.414
303.40 2.412
303.50 2.41
303.60 2.408
303.70 2.406
303.80 2.404
303.90 2.402
304.00 2.4
304.10 2.398
304.20 2.396
304.30 2.394
304.40 2.392
304.50 2.39
304.60 2.388
304.70 2.387
304.80 2.385
304.90 2.383
305.00 2.381
305.10 2.379
305.20 2.377
305.30 2.375
305.40 2.373
305.50 2.371
305.60 2.369
305.70 2.367
305.80 2.365
305.90 2.363
306.00 2.361
306.10 2.359
306.20 2.357
306.30 2.356
306.40 2.354
306.50 2.352
306.60 2.35
306.70 2.348
306.80 2.346
306.90 2.344
307.00 2.342
307.10 2.34
307.20 2.338
307.30 2.336
307.40 2.335
307.50 2.333
307.60 2.331
307.70 2.329
307.80 2.327
307.90 2.325
308.00 2.323
308.10 2.321
308.20 2.319
308.30 2.318
308.40 2.316
308.50 2.314
308.60 2.312
308.70 2.31
308.80 2.308
308.90 2.306
309.00 2.305
309.10 2.303
309.20 2.301
309.30 2.299
309.40 2.297
309.50 2.295
309.60 2.293
309.70 2.292
309.80 2.29
309.90 2.288
310.00 2.286
310.10 2.284
310.20 2.282
310.30 2.28
310.40 2.279
310.50 2.277
310.60 2.275
310.70 2.273
310.80 2.271
310.90 2.269
311.00 2.268
311.10 2.266
311.20 2.264
311.30 2.262
311.40 2.26
311.50 2.259
311.60 2.257
311.70 2.255
311.80 2.253
311.90 2.251
312.00 2.25
312.10 2.248
312.20 2.246
312.30 2.244
312.40 2.242
312.50 2.241
312.60 2.239
312.70 2.237
312.80 2.235
312.90 2.233
313.00 2.232
313.10 2.23
313.20 2.228
313.30 2.226
313.40 2.224
313.50 2.223
313.60 2.221
313.70 2.219
313.80 2.217
313.90 2.216
314.00 2.214
314.10 2.212
314.20 2.21
314.30 2.209
314.40 2.207
314.50 2.205
314.60 2.203
314.70 2.202
314.80 2.2
314.90 2.198
315.00 2.196
315.10 2.195
315.20 2.193
315.30 2.191
315.40 2.189
315.50 2.188
315.60 2.186
315.70 2.184
315.80 2.182
315.90 2.181
316.00 2.179
316.10 2.177
316.20 2.176
316.30 2.174
316.40 2.172
316.50 2.17
316.60 2.169
316.70 2.167
316.80 2.165
316.90 2.163
317.00 2.162
317.10 2.16
317.20 2.158
317.30 2.157
317.40 2.155
317.50 2.153
317.60 2.152
317.70 2.15
317.80 2.148
317.90 2.146
318.00 2.145
318.10 2.143
318.20 2.141
318.30 2.14
318.40 2.138
318.50 2.136
318.60 2.135
318.70 2.133
318.80 2.131
318.90 2.13
319.00 2.128
319.10 2.126
319.20 2.125
319.30 2.123
319.40 2.121
319.50 2.12
319.60 2.118
319.70 2.116
319.80 2.115
319.90 2.113
320.00 2.111
320.10 2.11
320.20 2.108
320.30 2.106
320.40 2.105
320.50 2.103
320.60 2.101
320.70 2.1
320.80 2.098
320.90 2.096
321.00 2.095
321.10 2.093
321.20 2.092
321.30 2.09
321.40 2.088
321.50 2.087
321.60 2.085
321.70 2.083
321.80 2.082
321.90 2.08
322.00 2.078
322.10 2.077
322.20 2.075
322.30 2.074
322.40 2.072
322.50 2.07
322.60 2.069
322.70 2.067
322.80 2.066
322.90 2.064
323.00 2.062
323.10 2.061
323.20 2.059
323.30 2.058
323.40 2.056
323.50 2.054
323.60 2.053
323.70 2.051
323.80 2.05
323.90 2.048
324.00 2.046
324.10 2.045
324.20 2.043
324.30 2.042
324.40 2.04
324.50 2.039
324.60 2.037
324.70 2.035
324.80 2.034
324.90 2.032
325.00 2.031
325.10 2.029
325.20 2.027
325.30 2.026
325.40 2.024
325.50 2.023
325.60 2.021
325.70 2.02
325.80 2.018
325.90 2.016
326.00 2.015
326.10 2.013
326.20 2.012
326.30 2.01
326.40 2.009
326.50 2.007
326.60 2.006
326.70 2.004
326.80 2.003
326.90 2.001
327.00 1.999
327.10 1.998
327.20 1.996
327.30 1.995
327.40 1.993
327.50 1.992
327.60 1.99
327.70 1.989
327.80 1.987
327.90 1.986
328.00 1.984
328.10 1.983
328.20 1.981
328.30 1.98
328.40 1.978
328.50 1.977
328.60 1.975
328.70 1.974
328.80 1.972
328.90 1.971
329.00 1.969
329.10 1.967
329.20 1.966
329.30 1.964
329.40 1.963
329.50 1.961
329.60 1.96
329.70 1.958
329.80 1.957
329.90 1.955
330.00 1.954
330.10 1.952
330.20 1.951
330.30 1.95
330.40 1.948
330.50 1.947
330.60 1.945
330.70 1.944
330.80 1.942
330.90 1.941
331.00 1.939
331.10 1.938
331.20 1.936
331.30 1.935
331.40 1.933
331.50 1.932
331.60 1.93
331.70 1.929
331.80 1.927
331.90 1.926
332.00 1.924
332.10 1.923
332.20 1.921
332.30 1.92
332.40 1.919
332.50 1.917
332.60 1.916
332.70 1.914
332.80 1.913
332.90 1.911
333.00 1.91
333.10 1.908
333.20 1.907
333.30 1.905
333.40 1.904
333.50 1.903
333.60 1.901
333.70 1.9
333.80 1.898
333.90 1.897
334.00 1.895
334.10 1.894
334.20 1.893
334.30 1.891
334.40 1.89
334.50 1.888
334.60 1.887
334.70 1.885
334.80 1.884
334.90 1.883
335.00 1.881
335.10 1.88
335.20 1.878
335.30 1.877
335.40 1.875
335.50 1.874
335.60 1.873
335.70 1.871
335.80 1.87
335.90 1.868
336.00 1.867
336.10 1.866
336.20 1.864
336.30 1.863
336.40 1.861
336.50 1.86
336.60 1.859
336.70 1.857
336.80 1.856
336.90 1.854
337.00 1.853
337.10 1.852
337.20 1.85
337.30 1.849
337.40 1.847
337.50 1.846
337.60 1.845
337.70 1.843
337.80 1.842
337.90 1.841
338.00 1.839
338.10 1.838
338.20 1.836
338.30 1.835
338.40 1.834
338.50 1.832
338.60 1.831
338.70 1.83
338.80 1.828
338.90 1.827
339.00 1.825
339.10 1.824
339.20 1.823
339.30 1.821
339.40 1.82
339.50 1.819
339.60 1.817
339.70 1.816
339.80 1.814
339.90 1.813
340.00 1.812
340.10 1.81
340.20 1.809
340.30 1.808
340.40 1.806
340.50 1.805
340.60 1.804
340.70 1.802
340.80 1.801
340.90 1.8
341.00 1.798
341.10 1.797
341.20 1.796
341.30 1.794
341.40 1.793
341.50 1.792
341.60 1.79
341.70 1.789
341.80 1.788
341.90 1.786
342.00 1.785
342.10 1.784
342.20 1.782
342.30 1.781
342.40 1.78
342.50 1.778
342.60 1.777
342.70 1.776
342.80 1.774
342.90 1.773
343.00 1.772
343.10 1.771
343.20 1.769
343.30 1.768
343.40 1.767
343.50 1.765
343.60 1.764
343.70 1.763
343.80 1.761
343.90 1.76
344.00 1.759
344.10 1.757
344.20 1.756
344.30 1.755
344.40 1.754
344.50 1.752
344.60 1.751
344.70 1.75
344.80 1.748
344.90 1.747
345.00 1.746
345.10 1.744
345.20 1.743
345.30 1.742
345.40 1.741
345.50 1.739
345.60 1.738
345.70 1.737
345.80 1.735
345.90 1.734
346.00 1.733
346.10 1.732
346.20 1.73
346.30 1.729
346.40 1.728
346.50 1.727
346.60 1.725
346.70 1.724
346.80 1.723
346.90 1.721
347.00 1.72
347.10 1.719
347.20 1.718
347.30 1.716
347.40 1.715
347.50 1.714
347.60 1.713
347.70 1.711
347.80 1.71
347.90 1.709
348.00 1.708
348.10 1.706
348.20 1.705
348.30 1.704
348.40 1.703
348.50 1.701
348.60 1.7
348.70 1.699
348.80 1.698
348.90 1.696
349.00 1.695
349.10 1.694
349.20 1.693
349.30 1.691
349.40 1.69
349.50 1.689
349.60 1.688
349.70 1.687
349.80 1.685
349.90 1.684
350.00 1.683
350.10 1.682
350.20 1.68
350.30 1.679
350.40 1.678
350.50 1.677
350.60 1.676
350.70 1.674
350.80 1.673
350.90 1.672
351.00 1.671
351.10 1.669
351.20 1.668
351.30 1.667
351.40 1.666
351.50 1.665
351.60 1.663
351.70 1.662
351.80 1.661
351.90 1.66
352.00 1.659
352.10 1.657
352.20 1.656
352.30 1.655
352.40 1.654
352.50 1.653
352.60 1.651
352.70 1.65
352.80 1.649
352.90 1.648
353.00 1.647
353.10 1.645
353.20 1.644
353.30 1.643
353.40 1.642
353.50 1.641
353.60 1.639
353.70 1.638
353.80 1.637
353.90 1.636
354.00 1.635
354.10 1.634
354.20 1.632
354.30 1.631
354.40 1.63
354.50 1.629
354.60 1.628
354.70 1.626
354.80 1.625
354.90 1.624
355.00 1.623
355.10 1.622
355.20 1.621
355.30 1.619
355.40 1.618
355.50 1.617
355.60 1.616
355.70 1.615
355.80 1.614
355.90 1.612
356.00 1.611
356.10 1.61
356.20 1.609
356.30 1.608
356.40 1.607
356.50 1.605
356.60 1.604
356.70 1.603
356.80 1.602
356.90 1.601
357.00 1.6
357.10 1.599
357.20 1.597
357.30 1.596
357.40 1.595
357.50 1.594
357.60 1.593
357.70 1.592
357.80 1.591
357.90 1.589
358.00 1.588
358.10 1.587
358.20 1.586
358.30 1.585
358.40 1.584
358.50 1.583
358.60 1.582
358.70 1.58
358.80 1.579
358.90 1.578
359.00 1.577
359.10 1.576
359.20 1.575
359.30 1.574
359.40 1.573
359.50 1.571
359.60 1.57
359.70 1.569
359.80 1.568
359.90 1.567
360.00 1.566
360.10 1.565
360.20 1.564
360.30 1.562
360.40 1.561
360.50 1.56
360.60 1.559
360.70 1.558
360.80 1.557
360.90 1.556
361.00 1.555
361.10 1.554
361.20 1.552
361.30 1.551
361.40 1.55
361.50 1.549
361.60 1.548
361.70 1.547
361.80 1.546
361.90 1.545
362.00 1.544
362.10 1.542
362.20 1.541
362.30 1.54
362.40 1.539
362.50 1.538
362.60 1.537
362.70 1.536
362.80 1.535
362.90 1.534
363.00 1.533
363.10 1.532
363.20 1.53
363.30 1.529
363.40 1.528
363.50 1.527
363.60 1.526
363.70 1.524
363.80 1.523
363.90 1.522
364.00 1.521
364.10 1.52
364.20 1.519
364.30 1.517
364.40 1.516
364.50 1.515
364.60 1.514
364.70 1.513
364.80 1.511
364.90 1.51
365.00 1.509
365.10 1.508
365.20 1.507
365.30 1.505
365.40 1.504
365.50 1.503
365.60 1.502
365.70 1.501
365.80 1.5
365.90 1.498
366.00 1.497
366.10 1.496
366.20 1.495
366.30 1.494
366.40 1.493
366.50 1.492
366.60 1.491
366.70 1.49
366.80 1.489
366.90 1.487
367.00 1.486
367.10 1.485
367.20 1.484
367.30 1.483
367.40 1.482
367.50 1.481
367.60 1.48
367.70 1.479
367.80 1.478
367.90 1.477
368.00 1.476
368.10 1.475
368.20 1.474
368.30 1.473
368.40 1.472
368.50 1.471
368.60 1.47
368.70 1.469
368.80 1.468
368.90 1.467
369.00 1.466
369.10 1.465
369.20 1.464
369.30 1.463
369.40 1.462
369.50 1.461
369.60 1.46
369.70 1.46
369.80 1.459
369.90 1.458
370.00 1.457
370.10 1.456
370.20 1.456
370.30 1.455
370.40 1.455
370.50 1.454
370.60 1.454
370.70 1.453
370.80 1.453
370.90 1.452
371.00 1.452
371.10 1.451
371.20 1.451
371.30 1.45
371.40 1.45
371.50 1.449
371.60 1.449
371.70 1.448
371.80 1.448
371.90 1.447
372.00 1.447
372.10 1.447
372.20 1.447
372.30 1.448
372.40 1.448
372.50 1.448
372.60 1.448
372.70 1.449
372.80 1.449
372.90 1.449
373.00 1.449
373.10 1.45
373.20 1.45
373.30 1.45
373.40 1.45
373.50 1.451
373.60 1.451
373.70 1.451
373.80 1.451
373.90 1.452
374.00 1.452
374.10 1.452
374.20 1.453
374.30 1.454
374.40 1.455
374.50 1.455
374.60 1.456
374.70 1.457
374.80 1.457
374.90 1.458
375.00 1.459
375.10 1.46
375.20 1.46
375.30 1.461
375.40 1.462
375.50 1.462
375.60 1.463
375.70 1.464
375.80 1.465
375.90 1.465
376.00 1.466
376.10 1.466
376.20 1.466
376.30 1.467
376.40 1.467
376.50 1.467
376.60 1.468
376.70 1.468
376.80 1.468
376.90 1.469
377.00 1.469
377.10 1.468
377.20 1.467
377.30 1.466
377.40 1.465
377.50 1.464
377.60 1.462
377.70 1.461
377.80 1.46
377.90 1.459
378.00 1.458
378.10 1.453
378.20 1.448
378.30 1.443
378.40 1.438
378.50 1.432
378.60 1.427
378.70 1.422
378.80 1.417
378.90 1.412
379.00 1.407
379.10 1.403
379.20 1.4
379.30 1.396
379.40 1.392
379.50 1.389
379.60 1.385
379.70 1.382
379.80 1.378
379.90 1.375
380.00 1.371
380.10 1.376
380.20 1.381
380.30 1.386
380.40 1.391
380.50 1.396
380.60 1.401
380.70 1.406
380.80 1.41
380.90 1.415
381.00 1.42
381.10 1.422
381.20 1.423
381.30 1.424
381.40 1.426
381.50 1.427
381.60 1.426
381.70 1.424
381.80 1.421
381.90 1.417
382.00 1.413
382.10 1.407
382.20 1.4
382.30 1.388
382.40 1.375
382.50 1.363
382.60 1.35
382.70 1.338
382.80 1.325
382.90 1.313
383.00 1.301
383.10 1.288
383.20 1.276
383.30 1.267
383.40 1.257
383.50 1.247
383.60 1.249
383.70 1.26
383.80 1.27
383.90 1.279
384.00 1.29
384.10 1.305
384.20 1.321
384.30 1.337
384.40 1.352
384.50 1.367
384.60 1.379
384.70 1.391
384.80 1.401
384.90 1.41
385.00 1.417
385.10 1.423
385.20 1.429
385.30 1.433
385.40 1.436
385.50 1.439
385.60 1.441
385.70 1.442
385.80 1.442
385.90 1.442
386.00 1.441
386.10 1.439
386.20 1.436
386.30 1.433
386.40 1.428
386.50 1.424
386.60 1.418
386.70 1.412
386.80 1.405
386.90 1.397
387.00 1.388
387.10 1.379
387.20 1.369
387.30 1.358
387.40 1.347
387.50 1.334
387.60 1.319
387.70 1.304
387.80 1.287
387.90 1.269
388.00 1.249
388.10 1.227
388.20 1.203
388.30 1.177
388.40 1.151
388.50 1.126
388.60 1.104
388.70 1.088
388.80 1.073
388.90 1.061
389.00 1.072
389.10 1.085
389.20 1.101
389.30 1.123
389.40 1.147
389.50 1.173
389.60 1.199
389.70 1.224
389.80 1.247
389.90 1.267
390.00 1.287
390.10 1.305
390.20 1.321
390.30 1.337
390.40 1.352
390.50 1.365
390.60 1.378
390.70 1.391
390.80 1.402
390.90 1.413
391.00 1.424
391.10 1.434
391.20 1.443
391.30 1.452
391.40 1.461
391.50 1.469
391.60 1.476
391.70 1.483
391.80 1.489
391.90 1.495
392.00 1.499
392.10 1.504
392.20 1.507
392.30 1.51
392.40 1.512
392.50 1.514
392.60 1.514
392.70 1.514
392.80 1.514
392.90 1.512
393.00 1.51
393.10 1.507
393.20 1.503
393.30 1.499
393.40 1.494
393.50 1.488
393.60 1.481
393.70 1.474
393.80 1.465
393.90 1.457
394.00 1.447
394.10 1.437
394.20 1.425
394.30 1.414
394.40 1.401
394.50 1.388
394.60 1.375
394.70 1.361
394.80 1.346
394.90 1.331
395.00 1.315
395.10 1.299
395.20 1.283
395.30 1.266
395.40 1.248
395.50 1.23
395.60 1.211
395.70 1.192
395.80 1.172
395.90 1.151
396.00 1.13
396.10 1.108
396.20 1.083
396.30 1.056
396.40 1.028
396.50 0.9953
396.60 0.9626
396.70 0.9299
396.80 0.9037
396.90 0.8758
397.00 0.8461
397.10 0.8729
397.20 0.8987
397.30 0.9234
397.40 0.9549
397.50 0.9866
397.60 1.018
397.70 1.046
397.80 1.072
397.90 1.096
398.00 1.118
398.10 1.139
398.20 1.159
398.30 1.178
398.40 1.196
398.50 1.215
398.60 1.232
398.70 1.249
398.80 1.266
398.90 1.283
399.00 1.299
399.10 1.315
399.20 1.33
399.30 1.345
399.40 1.36
399.50 1.375
399.60 1.389
399.70 1.404
399.80 1.417
399.90 1.43
400.00 1.443
400.10 1.455
400.20 1.467
400.30 1.479
400.40 1.49
400.50 1.501
400.60 1.511
400.70 1.521
400.80 1.53
400.90 1.539
401.00 1.548
401.10 1.556
401.20 1.563
401.30 1.571
401.40 1.577
401.50 1.584
401.60 1.59
401.70 1.596
401.80 1.601
401.90 1.606
402.00 1.611
402.10 1.615
402.20 1.619
402.30 1.622
402.40 1.625
402.50 1.628
402.60 1.63
402.70 1.632
402.80 1.634
402.90 1.635
403.00 1.636
403.10 1.636
403.20 1.637
403.30 1.637
403.40 1.636
403.50 1.635
403.60 1.634
403.70 1.632
403.80 1.63
403.90 1.628
404.00 1.625
404.10 1.622
404.20 1.619
404.30 1.615
404.40 1.611
404.50 1.607
404.60 1.602
404.70 1.597
404.80 1.591
404.90 1.585
405.00 1.579
405.10 1.572
405.20 1.565
405.30 1.557
405.40 1.55
405.50 1.541
405.60 1.533
405.70 1.524
405.80 1.514
405.90 1.504
406.00 1.494
406.10 1.484
406.20 1.473
406.30 1.461
406.40 1.449
406.50 1.437
406.60 1.425
406.70 1.412
406.80 1.398
406.90 1.385
407.00 1.371
407.10 1.356
407.20 1.341
407.30 1.326
407.40 1.31
407.50 1.294
407.60 1.277
407.70 1.26
407.80 1.243
407.90 1.226
408.00 1.208
408.10 1.191
408.20 1.173
408.30 1.155
408.40 1.136
408.50 1.118
408.60 1.099
408.70 1.08
408.80 1.061
408.90 1.042
409.00 1.022
409.10 1.002
409.20 0.9823
409.30 0.9618
409.40 0.9394
409.50 0.9152
409.60 0.8894
409.70 0.8595
409.80 0.8284
409.90 0.796
410.00 0.7623
410.10 0.7323
410.20 0.7062
410.30 0.7444
410.40 0.7794
410.50 0.8112
410.60 0.8422
410.70 0.8714
410.80 0.8989
410.90 0.9223
411.00 0.9443
411.10 0.9647
411.20 0.9837
411.30 1.002
411.40 1.021
411.50 1.039
411.60 1.057
411.70 1.074
411.80 1.092
411.90 1.109
412.00 1.126
412.10 1.143
412.20 1.159
412.30 1.176
412.40 1.192
412.50 1.208
412.60 1.224
412.70 1.239
412.80 1.254
412.90 1.269
413.00 1.283
413.10 1.298
413.20 1.311
413.30 1.325
413.40 1.338
413.50 1.351
413.60 1.363
413.70 1.375
413.80 1.387
413.90 1.398
414.00 1.409
414.10 1.42
414.20 1.43
414.30 1.44
414.40 1.45
414.50 1.459
414.60 1.469
414.70 1.478
414.80 1.486
414.90 1.495
415.00 1.503
415.10 1.51
415.20 1.518
415.30 1.525
415.40 1.532
415.50 1.539
415.60 1.545
415.70 1.551
415.80 1.557
415.90 1.563
416.00 1.569
416.10 1.574
416.20 1.579
416.30 1.584
416.40 1.589
416.50 1.594
416.60 1.598
416.70 1.602
416.80 1.606
416.90 1.61
417.00 1.614
417.10 1.617
417.20 1.62
417.30 1.624
417.40 1.627
417.50 1.63
417.60 1.632
417.70 1.635
417.80 1.637
417.90 1.64
418.00 1.642
418.10 1.644
418.20 1.646
418.30 1.648
418.40 1.65
418.50 1.651
418.60 1.653
418.70 1.654
418.80 1.655
418.90 1.657
419.00 1.658
419.10 1.659
419.20 1.66
419.30 1.66
419.40 1.661
419.50 1.662
419.60 1.662
419.70 1.663
419.80 1.663
419.90 1.663
420.00 1.664
420.10 1.664
420.20 1.664
420.30 1.664
420.40 1.664
420.50 1.664
420.60 1.663
420.70 1.663
420.80 1.663
420.90 1.662
421.00 1.662
421.10 1.661
421.20 1.661
421.30 1.66
421.40 1.659
421.50 1.658
421.60 1.657
421.70 1.656
421.80 1.655
421.90 1.654
422.00 1.653
422.10 1.652
422.20 1.651
422.30 1.649
422.40 1.648
422.50 1.646
422.60 1.645
422.70 1.643
422.80 1.642
422.90 1.64
423.00 1.638
423.10 1.636
423.20 1.634
423.30 1.633
423.40 1.63
423.50 1.628
423.60 1.626
423.70 1.624
423.80 1.622
423.90 1.619
424.00 1.617
424.10 1.614
424.20 1.612
424.30 1.609
424.40 1.606
424.50 1.604
424.60 1.601
424.70 1.598
424.80 1.595
424.90 1.592
425.00 1.589
425.10 1.585
425.20 1.582
425.30 1.578
425.40 1.575
425.50 1.571
425.60 1.568
425.70 1.564
425.80 1.56
425.90 1.556
426.00 1.552
426.10 1.547
426.20 1.542
426.30 1.537
426.40 1.533
426.50 1.528
426.60 1.523
426.70 1.519
426.80 1.514
426.90 1.508
427.00 1.503
427.10 1.498
427.20 1.492
427.30 1.487
427.40 1.481
427.50 1.475
427.60 1.469
427.70 1.463
427.80 1.456
427.90 1.45
428.00 1.443
428.10 1.436
428.20 1.429
428.30 1.422
428.40 1.415
428.50 1.407
428.60 1.399
428.70 1.392
428.80 1.383
428.90 1.375
429.00 1.367
429.10 1.358
429.20 1.349
429.30 1.34
429.40 1.331
429.50 1.321
429.60 1.312
429.70 1.302
429.80 1.291
429.90 1.281
430.00 1.271
430.10 1.26
430.20 1.249
430.30 1.238
430.40 1.226
430.50 1.215
430.60 1.203
430.70 1.19
430.80 1.178
430.90 1.166
431.00 1.153
431.10 1.14
431.20 1.127
431.30 1.113
431.40 1.1
431.50 1.086
431.60 1.072
431.70 1.058
431.80 1.043
431.90 1.029
432.00 1.014
432.10 0.9987
432.20 0.9833
432.30 0.9675
432.40 0.9515
432.50 0.9348
432.60 0.9178
432.70 0.9004
432.80 0.8828
432.90 0.8652
433.00 0.8478
433.10 0.8311
433.20 0.8142
433.30 0.7971
433.40 0.7782
433.50 0.7578
433.60 0.7357
433.70 0.7082
433.80 0.6771
433.90 0.6427
434.00 0.5839
434.10 0.5847
434.20 0.6451
434.30 0.6783
434.40 0.7082
434.50 0.7347
434.60 0.7557
434.70 0.7751
434.80 0.793
434.90 0.8091
435.00 0.825
435.10 0.8408
435.20 0.8571
435.30 0.8736
435.40 0.8901
435.50 0.9062
435.60 0.922
435.70 0.9373
435.80 0.952
435.90 0.9663
436.00 0.9804
436.10 0.994
436.20 1.007
436.30 1.021
436.40 1.033
436.50 1.046
436.60 1.058
436.70 1.07
436.80 1.082
436.90 1.094
437.00 1.105
437.10 1.117
437.20 1.128
437.30 1.138
437.40 1.149
437.50 1.159
437.60 1.169
437.70 1.179
437.80 1.188
437.90 1.197
438.00 1.206
438.10 1.215
438.20 1.223
438.30 1.232
438.40 1.24
438.50 1.248
438.60 1.255
438.70 1.263
438.80 1.27
438.90 1.277
439.00 1.283
439.10 1.29
439.20 1.296
439.30 1.302
439.40 1.308
439.50 1.314
439.60 1.319
439.70 1.325
439.80 1.33
439.90 1.335
440.00 1.34
440.10 1.344
440.20 1.349
440.30 1.353
440.40 1.357
440.50 1.361
440.60 1.365
440.70 1.369
440.80 1.373
440.90 1.376
441.00 1.38
441.10 1.383
441.20 1.386
441.30 1.389
441.40 1.392
441.50 1.395
441.60 1.397
441.70 1.4
441.80 1.402
441.90 1.405
442.00 1.407
442.10 1.409
442.20 1.411
442.30 1.413
442.40 1.415
442.50 1.417
442.60 1.419
442.70 1.42
442.80 1.422
442.90 1.423
443.00 1.425
443.10 1.426
443.20 1.427
443.30 1.429
443.40 1.43
443.50 1.431
443.60 1.432
443.70 1.433
443.80 1.434
443.90 1.435
444.00 1.436
444.10 1.436
444.20 1.437
444.30 1.438
444.40 1.438
444.50 1.439
444.60 1.439
444.70 1.44
444.80 1.44
444.90 1.441
445.00 1.441
445.10 1.442
445.20 1.442
445.30 1.442
445.40 1.442
445.50 1.443
445.60 1.443
445.70 1.443
445.80 1.443
445.90 1.443
446.00 1.443
446.10 1.443
446.20 1.443
446.30 1.443
446.40 1.443
446.50 1.443
446.60 1.443
446.70 1.443
446.80 1.442
446.90 1.442
447.00 1.442
447.10 1.442
447.20 1.442
447.30 1.441
447.40 1.441
447.50 1.441
447.60 1.44
447.70 1.44
447.80 1.44
447.90 1.439
448.00 1.439
448.10 1.438
448.20 1.438
448.30 1.438
448.40 1.437
448.50 1.437
448.60 1.436
448.70 1.436
448.80 1.435
448.90 1.435
449.00 1.434
449.10 1.434
449.20 1.433
449.30 1.433
449.40 1.432
449.50 1.432
449.60 1.431
449.70 1.43
449.80 1.43
449.90 1.429
450.00 1.429
450.10 1.428
450.20 1.427
450.30 1.427
450.40 1.426
450.50 1.425
450.60 1.425
450.70 1.424
450.80 1.423
450.90 1.422
451.00 1.422
451.10 1.421
451.20 1.42
451.30 1.419
451.40 1.419
451.50 1.418
451.60 1.417
451.70 1.416
451.80 1.416
451.90 1.415
452.00 1.414
452.10 1.413
452.20 1.413
452.30 1.412
452.40 1.411
452.50 1.41
452.60 1.409
452.70 1.408
452.80 1.408
452.90 1.407
453.00 1.406
453.10 1.405
453.20 1.404
453.30 1.403
453.40 1.403
453.50 1.402
453.60 1.401
