# Version 2.1 - nm, norm@500 to 1, cut digits, bergeron_45000_75.dat_45000
# Wavelength(nm)  Flambda(ergs/cm^s/s/nm)
300.00 6.033
300.10 6.026
300.20 6.018
300.30 6.011
300.40 6.004
300.50 5.997
300.60 5.99
300.70 5.983
300.80 5.976
300.90 5.968
301.00 5.961
301.10 5.954
301.20 5.947
301.30 5.94
301.40 5.933
301.50 5.926
301.60 5.919
301.70 5.912
301.80 5.905
301.90 5.898
302.00 5.891
302.10 5.884
302.20 5.877
302.30 5.87
302.40 5.863
302.50 5.856
302.60 5.849
302.70 5.842
302.80 5.835
302.90 5.828
303.00 5.821
303.10 5.814
303.20 5.807
303.30 5.801
303.40 5.794
303.50 5.787
303.60 5.78
303.70 5.773
303.80 5.766
303.90 5.76
304.00 5.753
304.10 5.746
304.20 5.739
304.30 5.732
304.40 5.726
304.50 5.719
304.60 5.712
304.70 5.705
304.80 5.699
304.90 5.692
305.00 5.685
305.10 5.679
305.20 5.672
305.30 5.665
305.40 5.659
305.50 5.652
305.60 5.645
305.70 5.639
305.80 5.632
305.90 5.625
306.00 5.619
306.10 5.612
306.20 5.606
306.30 5.599
306.40 5.592
306.50 5.586
306.60 5.579
306.70 5.573
306.80 5.566
306.90 5.56
307.00 5.553
307.10 5.547
307.20 5.54
307.30 5.534
307.40 5.527
307.50 5.521
307.60 5.514
307.70 5.508
307.80 5.502
307.90 5.495
308.00 5.489
308.10 5.482
308.20 5.476
308.30 5.47
308.40 5.463
308.50 5.457
308.60 5.451
308.70 5.444
308.80 5.438
308.90 5.431
309.00 5.425
309.10 5.419
309.20 5.413
309.30 5.406
309.40 5.4
309.50 5.394
309.60 5.387
309.70 5.381
309.80 5.375
309.90 5.369
310.00 5.362
310.10 5.356
310.20 5.35
310.30 5.344
310.40 5.338
310.50 5.331
310.60 5.325
310.70 5.319
310.80 5.313
310.90 5.307
311.00 5.301
311.10 5.295
311.20 5.288
311.30 5.282
311.40 5.276
311.50 5.27
311.60 5.264
311.70 5.258
311.80 5.252
311.90 5.246
312.00 5.24
312.10 5.234
312.20 5.228
312.30 5.222
312.40 5.216
312.50 5.21
312.60 5.204
312.70 5.198
312.80 5.192
312.90 5.186
313.00 5.18
313.10 5.174
313.20 5.168
313.30 5.162
313.40 5.156
313.50 5.15
313.60 5.144
313.70 5.138
313.80 5.132
313.90 5.127
314.00 5.121
314.10 5.115
314.20 5.109
314.30 5.103
314.40 5.097
314.50 5.091
314.60 5.086
314.70 5.08
314.80 5.074
314.90 5.068
315.00 5.062
315.10 5.057
315.20 5.051
315.30 5.045
315.40 5.039
315.50 5.033
315.60 5.028
315.70 5.022
315.80 5.016
315.90 5.011
316.00 5.005
316.10 4.999
316.20 4.993
316.30 4.988
316.40 4.982
316.50 4.976
316.60 4.971
316.70 4.965
316.80 4.959
316.90 4.954
317.00 4.948
317.10 4.943
317.20 4.937
317.30 4.931
317.40 4.926
317.50 4.92
317.60 4.915
317.70 4.909
317.80 4.903
317.90 4.898
318.00 4.892
318.10 4.887
318.20 4.881
318.30 4.876
318.40 4.87
318.50 4.865
318.60 4.859
318.70 4.854
318.80 4.848
318.90 4.843
319.00 4.837
319.10 4.832
319.20 4.826
319.30 4.821
319.40 4.815
319.50 4.81
319.60 4.805
319.70 4.799
319.80 4.794
319.90 4.788
320.00 4.783
320.10 4.778
320.20 4.772
320.30 4.767
320.40 4.761
320.50 4.756
320.60 4.751
320.70 4.745
320.80 4.74
320.90 4.735
321.00 4.729
321.10 4.724
321.20 4.719
321.30 4.714
321.40 4.708
321.50 4.703
321.60 4.698
321.70 4.692
321.80 4.687
321.90 4.682
322.00 4.677
322.10 4.671
322.20 4.666
322.30 4.661
322.40 4.656
322.50 4.651
322.60 4.645
322.70 4.64
322.80 4.635
322.90 4.63
323.00 4.625
323.10 4.619
323.20 4.614
323.30 4.609
323.40 4.604
323.50 4.599
323.60 4.594
323.70 4.589
323.80 4.583
323.90 4.578
324.00 4.573
324.10 4.568
324.20 4.563
324.30 4.558
324.40 4.553
324.50 4.548
324.60 4.543
324.70 4.538
324.80 4.533
324.90 4.528
325.00 4.523
325.10 4.518
325.20 4.513
325.30 4.508
325.40 4.503
325.50 4.498
325.60 4.493
325.70 4.488
325.80 4.483
325.90 4.478
326.00 4.473
326.10 4.468
326.20 4.463
326.30 4.458
326.40 4.453
326.50 4.448
326.60 4.443
326.70 4.438
326.80 4.433
326.90 4.428
327.00 4.424
327.10 4.419
327.20 4.414
327.30 4.409
327.40 4.404
327.50 4.399
327.60 4.394
327.70 4.39
327.80 4.385
327.90 4.38
328.00 4.375
328.10 4.37
328.20 4.365
328.30 4.361
328.40 4.356
328.50 4.351
328.60 4.346
328.70 4.341
328.80 4.337
328.90 4.332
329.00 4.327
329.10 4.322
329.20 4.318
329.30 4.313
329.40 4.308
329.50 4.303
329.60 4.299
329.70 4.294
329.80 4.289
329.90 4.285
330.00 4.28
330.10 4.275
330.20 4.271
330.30 4.266
330.40 4.261
330.50 4.257
330.60 4.252
330.70 4.247
330.80 4.243
330.90 4.238
331.00 4.233
331.10 4.229
331.20 4.224
331.30 4.22
331.40 4.215
331.50 4.21
331.60 4.206
331.70 4.201
331.80 4.197
331.90 4.192
332.00 4.187
332.10 4.183
332.20 4.178
332.30 4.174
332.40 4.169
332.50 4.165
332.60 4.16
332.70 4.156
332.80 4.151
332.90 4.147
333.00 4.142
333.10 4.138
333.20 4.133
333.30 4.129
333.40 4.124
333.50 4.12
333.60 4.115
333.70 4.111
333.80 4.106
333.90 4.102
334.00 4.097
334.10 4.093
334.20 4.089
334.30 4.084
334.40 4.08
334.50 4.075
334.60 4.071
334.70 4.067
334.80 4.062
334.90 4.058
335.00 4.053
335.10 4.049
335.20 4.045
335.30 4.04
335.40 4.036
335.50 4.032
335.60 4.027
335.70 4.023
335.80 4.018
335.90 4.014
336.00 4.01
336.10 4.006
336.20 4.001
336.30 3.997
336.40 3.993
336.50 3.988
336.60 3.984
336.70 3.98
336.80 3.975
336.90 3.971
337.00 3.967
337.10 3.963
337.20 3.958
337.30 3.954
337.40 3.95
337.50 3.946
337.60 3.941
337.70 3.937
337.80 3.933
337.90 3.929
338.00 3.925
338.10 3.92
338.20 3.916
338.30 3.912
338.40 3.908
338.50 3.904
338.60 3.899
338.70 3.895
338.80 3.891
338.90 3.887
339.00 3.883
339.10 3.879
339.20 3.875
339.30 3.87
339.40 3.866
339.50 3.862
339.60 3.858
339.70 3.854
339.80 3.85
339.90 3.846
340.00 3.842
340.10 3.837
340.20 3.833
340.30 3.829
340.40 3.825
340.50 3.821
340.60 3.817
340.70 3.813
340.80 3.809
340.90 3.805
341.00 3.801
341.10 3.797
341.20 3.793
341.30 3.789
341.40 3.785
341.50 3.781
341.60 3.777
341.70 3.773
341.80 3.769
341.90 3.765
342.00 3.761
342.10 3.757
342.20 3.753
342.30 3.749
342.40 3.745
342.50 3.741
342.60 3.737
342.70 3.733
342.80 3.729
342.90 3.725
343.00 3.721
343.10 3.717
343.20 3.713
343.30 3.709
343.40 3.705
343.50 3.702
343.60 3.698
343.70 3.694
343.80 3.69
343.90 3.686
344.00 3.682
344.10 3.678
344.20 3.674
344.30 3.67
344.40 3.667
344.50 3.663
344.60 3.659
344.70 3.655
344.80 3.651
344.90 3.647
345.00 3.644
345.10 3.64
345.20 3.636
345.30 3.632
345.40 3.628
345.50 3.624
345.60 3.621
345.70 3.617
345.80 3.613
345.90 3.609
346.00 3.605
346.10 3.602
346.20 3.598
346.30 3.594
346.40 3.59
346.50 3.587
346.60 3.583
346.70 3.579
346.80 3.575
346.90 3.572
347.00 3.568
347.10 3.564
347.20 3.56
347.30 3.557
347.40 3.553
347.50 3.549
347.60 3.546
347.70 3.542
347.80 3.538
347.90 3.534
348.00 3.531
348.10 3.527
348.20 3.523
348.30 3.52
348.40 3.516
348.50 3.512
348.60 3.509
348.70 3.505
348.80 3.501
348.90 3.498
349.00 3.494
349.10 3.491
349.20 3.487
349.30 3.483
349.40 3.48
349.50 3.476
349.60 3.472
349.70 3.469
349.80 3.465
349.90 3.462
350.00 3.458
350.10 3.454
350.20 3.451
350.30 3.447
350.40 3.444
350.50 3.44
350.60 3.437
350.70 3.433
350.80 3.43
350.90 3.426
351.00 3.422
351.10 3.419
351.20 3.415
351.30 3.412
351.40 3.408
351.50 3.405
351.60 3.401
351.70 3.398
351.80 3.394
351.90 3.391
352.00 3.387
352.10 3.384
352.20 3.38
352.30 3.377
352.40 3.373
352.50 3.37
352.60 3.366
352.70 3.363
352.80 3.359
352.90 3.356
353.00 3.353
353.10 3.349
353.20 3.346
353.30 3.342
353.40 3.339
353.50 3.335
353.60 3.332
353.70 3.328
353.80 3.325
353.90 3.322
354.00 3.318
354.10 3.315
354.20 3.311
354.30 3.308
354.40 3.305
354.50 3.301
354.60 3.298
354.70 3.294
354.80 3.291
354.90 3.288
355.00 3.284
355.10 3.281
355.20 3.278
355.30 3.274
355.40 3.271
355.50 3.268
355.60 3.264
355.70 3.261
355.80 3.258
355.90 3.254
356.00 3.251
356.10 3.248
356.20 3.244
356.30 3.241
356.40 3.238
356.50 3.234
356.60 3.231
356.70 3.228
356.80 3.224
356.90 3.221
357.00 3.218
357.10 3.215
357.20 3.211
357.30 3.208
357.40 3.205
357.50 3.202
357.60 3.198
357.70 3.195
357.80 3.192
357.90 3.189
358.00 3.185
358.10 3.182
358.20 3.179
358.30 3.176
358.40 3.172
358.50 3.169
358.60 3.166
358.70 3.163
358.80 3.16
358.90 3.156
359.00 3.153
359.10 3.15
359.20 3.147
359.30 3.144
359.40 3.14
359.50 3.137
359.60 3.134
359.70 3.131
359.80 3.128
359.90 3.125
360.00 3.121
360.10 3.118
360.20 3.115
360.30 3.112
360.40 3.109
360.50 3.106
360.60 3.103
360.70 3.099
360.80 3.096
360.90 3.093
361.00 3.09
361.10 3.087
361.20 3.084
361.30 3.081
361.40 3.078
361.50 3.075
361.60 3.071
361.70 3.068
361.80 3.065
361.90 3.062
362.00 3.059
362.10 3.056
362.20 3.053
362.30 3.05
362.40 3.047
362.50 3.044
362.60 3.041
362.70 3.038
362.80 3.035
362.90 3.032
363.00 3.028
363.10 3.025
363.20 3.022
363.30 3.019
363.40 3.016
363.50 3.013
363.60 3.01
363.70 3.007
363.80 3.004
363.90 3.001
364.00 2.998
364.10 2.995
364.20 2.992
364.30 2.989
364.40 2.986
364.50 2.983
364.60 2.98
364.70 2.977
364.80 2.974
364.90 2.971
365.00 2.968
365.10 2.966
365.20 2.963
365.30 2.96
365.40 2.957
365.50 2.954
365.60 2.951
365.70 2.948
365.80 2.945
365.90 2.942
366.00 2.939
366.10 2.936
366.20 2.933
366.30 2.93
366.40 2.927
366.50 2.924
366.60 2.921
366.70 2.918
366.80 2.915
366.90 2.912
367.00 2.909
367.10 2.906
367.20 2.903
367.30 2.899
367.40 2.896
367.50 2.893
367.60 2.89
367.70 2.887
367.80 2.884
367.90 2.881
368.00 2.878
368.10 2.875
368.20 2.872
368.30 2.869
368.40 2.866
368.50 2.864
368.60 2.861
368.70 2.858
368.80 2.855
368.90 2.852
369.00 2.849
369.10 2.846
369.20 2.843
369.30 2.84
369.40 2.837
369.50 2.834
369.60 2.831
369.70 2.828
369.80 2.825
369.90 2.822
370.00 2.819
370.10 2.816
370.20 2.814
370.30 2.811
370.40 2.808
370.50 2.805
370.60 2.802
370.70 2.799
370.80 2.796
370.90 2.793
371.00 2.791
371.10 2.788
371.20 2.785
371.30 2.782
371.40 2.779
371.50 2.776
371.60 2.773
371.70 2.771
371.80 2.768
371.90 2.765
372.00 2.762
372.10 2.759
372.20 2.757
372.30 2.754
372.40 2.751
372.50 2.748
372.60 2.746
372.70 2.743
372.80 2.74
372.90 2.737
373.00 2.735
373.10 2.732
373.20 2.729
373.30 2.727
373.40 2.724
373.50 2.721
373.60 2.719
373.70 2.716
373.80 2.713
373.90 2.71
374.00 2.708
374.10 2.705
374.20 2.703
374.30 2.7
374.40 2.697
374.50 2.695
374.60 2.692
374.70 2.69
374.80 2.687
374.90 2.685
375.00 2.682
375.10 2.68
375.20 2.677
375.30 2.675
375.40 2.672
375.50 2.669
375.60 2.667
375.70 2.664
375.80 2.662
375.90 2.659
376.00 2.657
376.10 2.654
376.20 2.652
376.30 2.649
376.40 2.647
376.50 2.644
376.60 2.642
376.70 2.639
376.80 2.637
376.90 2.634
377.00 2.632
377.10 2.63
377.20 2.628
377.30 2.625
377.40 2.623
377.50 2.621
377.60 2.619
377.70 2.617
377.80 2.615
377.90 2.613
378.00 2.611
378.10 2.608
378.20 2.606
378.30 2.603
378.40 2.601
378.50 2.598
378.60 2.596
378.70 2.593
378.80 2.591
378.90 2.589
379.00 2.586
379.10 2.584
379.20 2.581
379.30 2.579
379.40 2.577
379.50 2.574
379.60 2.572
379.70 2.569
379.80 2.567
379.90 2.565
380.00 2.562
380.10 2.561
380.20 2.559
380.30 2.558
380.40 2.556
380.50 2.555
380.60 2.553
380.70 2.552
380.80 2.55
380.90 2.549
381.00 2.547
381.10 2.545
381.20 2.543
381.30 2.541
381.40 2.539
381.50 2.536
381.60 2.534
381.70 2.531
381.80 2.529
381.90 2.526
382.00 2.523
382.10 2.519
382.20 2.516
382.30 2.512
382.40 2.508
382.50 2.505
382.60 2.501
382.70 2.497
382.80 2.493
382.90 2.489
383.00 2.486
383.10 2.482
383.20 2.478
383.30 2.474
383.40 2.471
383.50 2.468
383.60 2.467
383.70 2.466
383.80 2.466
383.90 2.466
384.00 2.467
384.10 2.467
384.20 2.468
384.30 2.468
384.40 2.469
384.50 2.469
384.60 2.469
384.70 2.469
384.80 2.469
384.90 2.469
385.00 2.468
385.10 2.468
385.20 2.467
385.30 2.466
385.40 2.465
385.50 2.463
385.60 2.462
385.70 2.46
385.80 2.458
385.90 2.455
386.00 2.453
386.10 2.45
386.20 2.447
386.30 2.444
386.40 2.441
386.50 2.437
386.60 2.433
386.70 2.429
386.80 2.425
386.90 2.42
387.00 2.415
387.10 2.41
387.20 2.405
387.30 2.399
387.40 2.393
387.50 2.387
387.60 2.381
387.70 2.374
387.80 2.367
387.90 2.36
388.00 2.353
388.10 2.346
388.20 2.338
388.30 2.331
388.40 2.323
388.50 2.316
388.60 2.309
388.70 2.304
388.80 2.299
388.90 2.296
389.00 2.296
389.10 2.297
389.20 2.299
389.30 2.302
389.40 2.306
389.50 2.31
389.60 2.314
389.70 2.319
389.80 2.323
389.90 2.327
390.00 2.33
390.10 2.334
390.20 2.337
390.30 2.341
390.40 2.344
390.50 2.346
390.60 2.349
390.70 2.351
390.80 2.353
390.90 2.355
391.00 2.357
391.10 2.358
391.20 2.359
391.30 2.36
391.40 2.361
391.50 2.362
391.60 2.362
391.70 2.362
391.80 2.362
391.90 2.362
392.00 2.361
392.10 2.36
392.20 2.359
392.30 2.358
392.40 2.357
392.50 2.355
392.60 2.353
392.70 2.351
392.80 2.349
392.90 2.346
393.00 2.344
393.10 2.341
393.20 2.338
393.30 2.334
393.40 2.331
393.50 2.327
393.60 2.323
393.70 2.319
393.80 2.314
393.90 2.309
394.00 2.304
394.10 2.299
394.20 2.293
394.30 2.287
394.40 2.281
394.50 2.274
394.60 2.267
394.70 2.26
394.80 2.253
394.90 2.245
395.00 2.237
395.10 2.228
395.20 2.219
395.30 2.21
395.40 2.2
395.50 2.19
395.60 2.179
395.70 2.168
395.80 2.157
395.90 2.146
396.00 2.134
396.10 2.121
396.20 2.109
396.30 2.096
396.40 2.083
396.50 2.07
396.60 2.057
396.70 2.044
396.80 2.031
396.90 2.019
397.00 2.008
397.10 2.015
397.20 2.023
397.30 2.032
397.40 2.042
397.50 2.052
397.60 2.061
397.70 2.071
397.80 2.08
397.90 2.089
398.00 2.098
398.10 2.106
398.20 2.115
398.30 2.122
398.40 2.129
398.50 2.137
398.60 2.143
398.70 2.149
398.80 2.155
398.90 2.161
399.00 2.166
399.10 2.171
399.20 2.175
399.30 2.179
399.40 2.183
399.50 2.187
399.60 2.19
399.70 2.193
399.80 2.196
399.90 2.199
400.00 2.201
400.10 2.203
400.20 2.205
400.30 2.207
400.40 2.208
400.50 2.209
400.60 2.21
400.70 2.211
400.80 2.212
400.90 2.213
401.00 2.213
401.10 2.213
401.20 2.213
401.30 2.213
401.40 2.213
401.50 2.213
401.60 2.213
401.70 2.212
401.80 2.212
401.90 2.211
402.00 2.21
402.10 2.209
402.20 2.208
402.30 2.207
402.40 2.206
402.50 2.205
402.60 2.204
402.70 2.202
402.80 2.201
402.90 2.199
403.00 2.198
403.10 2.196
403.20 2.194
403.30 2.193
403.40 2.191
403.50 2.189
403.60 2.187
403.70 2.184
403.80 2.182
403.90 2.18
404.00 2.178
404.10 2.175
404.20 2.173
404.30 2.17
404.40 2.168
404.50 2.165
404.60 2.162
404.70 2.159
404.80 2.156
404.90 2.153
405.00 2.15
405.10 2.147
405.20 2.143
405.30 2.14
405.40 2.136
405.50 2.132
405.60 2.129
405.70 2.125
405.80 2.12
405.90 2.116
406.00 2.112
406.10 2.107
406.20 2.103
406.30 2.098
406.40 2.093
406.50 2.087
406.60 2.082
406.70 2.076
406.80 2.07
406.90 2.064
407.00 2.058
407.10 2.051
407.20 2.045
407.30 2.037
407.40 2.03
407.50 2.022
407.60 2.014
407.70 2.006
407.80 1.997
407.90 1.988
408.00 1.978
408.10 1.968
408.20 1.958
408.30 1.947
408.40 1.936
408.50 1.924
408.60 1.912
408.70 1.899
408.80 1.886
408.90 1.872
409.00 1.858
409.10 1.843
409.20 1.828
409.30 1.812
409.40 1.795
409.50 1.779
409.60 1.762
409.70 1.744
409.80 1.727
409.90 1.71
410.00 1.696
410.10 1.69
410.20 1.69
410.30 1.69
410.40 1.697
410.50 1.709
410.60 1.724
410.70 1.738
410.80 1.753
410.90 1.766
411.00 1.78
411.10 1.793
411.20 1.805
411.30 1.817
411.40 1.828
411.50 1.838
411.60 1.848
411.70 1.858
411.80 1.867
411.90 1.875
412.00 1.883
412.10 1.891
412.20 1.898
412.30 1.904
412.40 1.91
412.50 1.916
412.60 1.921
412.70 1.926
412.80 1.931
412.90 1.935
413.00 1.939
413.10 1.943
413.20 1.946
413.30 1.949
413.40 1.952
413.50 1.955
413.60 1.957
413.70 1.959
413.80 1.961
413.90 1.963
414.00 1.964
414.10 1.966
414.20 1.967
414.30 1.968
414.40 1.969
414.50 1.969
414.60 1.97
414.70 1.971
414.80 1.971
414.90 1.971
415.00 1.971
415.10 1.971
415.20 1.971
415.30 1.971
415.40 1.971
415.50 1.971
415.60 1.97
415.70 1.97
415.80 1.97
415.90 1.969
416.00 1.968
416.10 1.968
416.20 1.967
416.30 1.966
416.40 1.966
416.50 1.965
416.60 1.964
416.70 1.963
416.80 1.962
416.90 1.961
417.00 1.96
417.10 1.959
417.20 1.958
417.30 1.957
417.40 1.955
417.50 1.954
417.60 1.953
417.70 1.952
417.80 1.951
417.90 1.949
418.00 1.948
418.10 1.947
418.20 1.945
418.30 1.944
418.40 1.943
418.50 1.941
418.60 1.94
418.70 1.939
418.80 1.937
418.90 1.936
419.00 1.934
419.10 1.933
419.20 1.931
419.30 1.93
419.40 1.928
419.50 1.927
419.60 1.925
419.70 1.924
419.80 1.922
419.90 1.921
420.00 1.919
420.10 1.918
420.20 1.916
420.30 1.915
420.40 1.913
420.50 1.911
420.60 1.91
420.70 1.908
420.80 1.907
420.90 1.905
421.00 1.903
421.10 1.902
421.20 1.9
421.30 1.899
421.40 1.897
421.50 1.895
421.60 1.894
421.70 1.892
421.80 1.89
421.90 1.889
422.00 1.887
422.10 1.885
422.20 1.884
422.30 1.882
422.40 1.88
422.50 1.879
422.60 1.877
422.70 1.875
422.80 1.874
422.90 1.872
423.00 1.87
423.10 1.868
423.20 1.867
423.30 1.865
423.40 1.863
423.50 1.861
423.60 1.86
423.70 1.858
423.80 1.856
423.90 1.854
424.00 1.853
424.10 1.851
424.20 1.849
424.30 1.847
424.40 1.846
424.50 1.844
424.60 1.842
424.70 1.84
424.80 1.838
424.90 1.836
425.00 1.835
425.10 1.833
425.20 1.831
425.30 1.829
425.40 1.827
425.50 1.825
425.60 1.823
425.70 1.821
425.80 1.819
425.90 1.817
426.00 1.815
426.10 1.813
426.20 1.811
426.30 1.809
426.40 1.807
426.50 1.805
426.60 1.803
426.70 1.801
426.80 1.799
426.90 1.797
427.00 1.795
427.10 1.793
427.20 1.79
427.30 1.788
427.40 1.786
427.50 1.784
427.60 1.781
427.70 1.779
427.80 1.776
427.90 1.774
428.00 1.772
428.10 1.769
428.20 1.767
428.30 1.764
428.40 1.761
428.50 1.759
428.60 1.756
428.70 1.753
428.80 1.75
428.90 1.747
429.00 1.744
429.10 1.741
429.20 1.738
429.30 1.735
429.40 1.731
429.50 1.728
429.60 1.724
429.70 1.721
429.80 1.717
429.90 1.713
430.00 1.709
430.10 1.705
430.20 1.7
430.30 1.696
430.40 1.691
430.50 1.687
430.60 1.682
430.70 1.676
430.80 1.671
430.90 1.665
431.00 1.66
431.10 1.654
431.20 1.647
431.30 1.641
431.40 1.634
431.50 1.627
431.60 1.619
431.70 1.611
431.80 1.603
431.90 1.594
432.00 1.586
432.10 1.576
432.20 1.566
432.30 1.556
432.40 1.545
432.50 1.534
432.60 1.522
432.70 1.51
432.80 1.497
432.90 1.484
433.00 1.47
433.10 1.456
433.20 1.441
433.30 1.426
433.40 1.41
433.50 1.393
433.60 1.377
433.70 1.361
433.80 1.345
433.90 1.329
434.00 1.315
434.10 1.314
434.20 1.327
434.30 1.341
434.40 1.354
434.50 1.369
434.60 1.383
434.70 1.396
434.80 1.41
434.90 1.423
435.00 1.435
435.10 1.447
435.20 1.458
435.30 1.469
435.40 1.479
435.50 1.488
435.60 1.497
435.70 1.506
435.80 1.514
435.90 1.521
436.00 1.528
436.10 1.535
436.20 1.541
436.30 1.546
436.40 1.552
436.50 1.556
436.60 1.561
436.70 1.565
436.80 1.569
436.90 1.573
437.00 1.576
437.10 1.579
437.20 1.582
437.30 1.584
437.40 1.587
437.50 1.589
437.60 1.591
437.70 1.593
437.80 1.594
437.90 1.596
438.00 1.597
438.10 1.598
438.20 1.599
438.30 1.6
438.40 1.601
438.50 1.601
438.60 1.602
438.70 1.602
438.80 1.602
438.90 1.603
439.00 1.603
439.10 1.603
439.20 1.603
439.30 1.603
439.40 1.603
439.50 1.602
439.60 1.602
439.70 1.602
439.80 1.601
439.90 1.601
440.00 1.601
440.10 1.6
440.20 1.599
440.30 1.599
440.40 1.598
440.50 1.598
440.60 1.597
440.70 1.596
440.80 1.595
440.90 1.595
441.00 1.594
441.10 1.593
441.20 1.592
441.30 1.591
441.40 1.591
441.50 1.59
441.60 1.589
441.70 1.588
441.80 1.587
441.90 1.586
442.00 1.585
442.10 1.584
442.20 1.583
442.30 1.582
442.40 1.581
442.50 1.58
442.60 1.579
442.70 1.578
442.80 1.577
442.90 1.575
443.00 1.574
443.10 1.573
443.20 1.572
443.30 1.571
443.40 1.57
443.50 1.569
443.60 1.568
443.70 1.567
443.80 1.565
443.90 1.564
444.00 1.563
444.10 1.562
444.20 1.561
444.30 1.56
444.40 1.558
444.50 1.557
444.60 1.556
444.70 1.555
444.80 1.554
444.90 1.553
445.00 1.551
445.10 1.55
445.20 1.549
445.30 1.548
445.40 1.547
445.50 1.545
445.60 1.544
445.70 1.543
445.80 1.542
445.90 1.541
446.00 1.539
446.10 1.538
446.20 1.537
446.30 1.536
446.40 1.534
446.50 1.533
446.60 1.532
446.70 1.531
446.80 1.53
446.90 1.528
447.00 1.527
447.10 1.526
447.20 1.525
447.30 1.523
447.40 1.522
447.50 1.521
447.60 1.52
447.70 1.519
447.80 1.517
447.90 1.516
448.00 1.515
448.10 1.514
448.20 1.512
448.30 1.511
448.40 1.51
448.50 1.509
448.60 1.508
448.70 1.506
448.80 1.505
448.90 1.504
449.00 1.503
449.10 1.501
449.20 1.5
449.30 1.499
449.40 1.498
449.50 1.497
449.60 1.495
449.70 1.494
449.80 1.493
449.90 1.492
450.00 1.49
450.10 1.489
450.20 1.488
450.30 1.487
450.40 1.486
450.50 1.484
450.60 1.483
450.70 1.482
450.80 1.481
450.90 1.479
451.00 1.478
451.10 1.477
451.20 1.476
451.30 1.475
451.40 1.473
451.50 1.472
451.60 1.471
451.70 1.47
451.80 1.469
451.90 1.467
452.00 1.466
452.10 1.465
452.20 1.464
452.30 1.463
452.40 1.461
452.50 1.46
452.60 1.459
452.70 1.458
452.80 1.457
452.90 1.455
453.00 1.454
453.10 1.453
453.20 1.452
453.30 1.451
453.40 1.449
453.50 1.448
453.60 1.447
453.70 1.446
453.80 1.445
453.90 1.443
