# Version 2.1 - nm, norm@500 to 1, cut digits, bergeron_3500_65.dat_3500
# Wavelength(nm)  Flambda(ergs/cm^s/s/nm)
300.00 0.09272
300.10 0.09296
300.20 0.0932
300.30 0.09344
300.40 0.09368
300.50 0.09392
300.60 0.09416
300.70 0.0944
300.80 0.09464
300.90 0.09488
301.00 0.09512
301.10 0.09536
301.20 0.0956
301.30 0.09583
301.40 0.09607
301.50 0.09631
301.60 0.09655
301.70 0.09678
301.80 0.09702
301.90 0.09726
302.00 0.0975
302.10 0.09774
302.20 0.09799
302.30 0.09824
302.40 0.09849
302.50 0.09873
302.60 0.09898
302.70 0.09923
302.80 0.09947
302.90 0.09972
303.00 0.09997
303.10 0.1002
303.20 0.1005
303.30 0.1007
303.40 0.1009
303.50 0.1012
303.60 0.1014
303.70 0.1017
303.80 0.1019
303.90 0.1022
304.00 0.1024
304.10 0.1027
304.20 0.1029
304.30 0.1032
304.40 0.1034
304.50 0.1037
304.60 0.1039
304.70 0.1042
304.80 0.1045
304.90 0.1047
305.00 0.105
305.10 0.1052
305.20 0.1055
305.30 0.1057
305.40 0.106
305.50 0.1062
305.60 0.1065
305.70 0.1067
305.80 0.107
305.90 0.1072
306.00 0.1075
306.10 0.1077
306.20 0.108
306.30 0.1083
306.40 0.1085
306.50 0.1088
306.60 0.1091
306.70 0.1093
306.80 0.1096
306.90 0.1098
307.00 0.1101
307.10 0.1104
307.20 0.1106
307.30 0.1109
307.40 0.1111
307.50 0.1114
307.60 0.1117
307.70 0.1119
307.80 0.1122
307.90 0.1124
308.00 0.1127
308.10 0.113
308.20 0.1132
308.30 0.1135
308.40 0.1138
308.50 0.114
308.60 0.1143
308.70 0.1146
308.80 0.1148
308.90 0.1151
309.00 0.1154
309.10 0.1156
309.20 0.1159
309.30 0.1162
309.40 0.1164
309.50 0.1167
309.60 0.117
309.70 0.1172
309.80 0.1175
309.90 0.1178
310.00 0.1181
310.10 0.1183
310.20 0.1186
310.30 0.1189
310.40 0.1192
310.50 0.1194
310.60 0.1197
310.70 0.12
310.80 0.1203
310.90 0.1205
311.00 0.1208
311.10 0.1211
311.20 0.1214
311.30 0.1216
311.40 0.1219
311.50 0.1222
311.60 0.1225
311.70 0.1227
311.80 0.123
311.90 0.1233
312.00 0.1236
312.10 0.1238
312.20 0.1241
312.30 0.1244
312.40 0.1247
312.50 0.125
312.60 0.1252
312.70 0.1255
312.80 0.1258
312.90 0.1261
313.00 0.1264
313.10 0.1267
313.20 0.1269
313.30 0.1272
313.40 0.1275
313.50 0.1278
313.60 0.1281
313.70 0.1283
313.80 0.1286
313.90 0.1289
314.00 0.1292
314.10 0.1295
314.20 0.1298
314.30 0.1301
314.40 0.1304
314.50 0.1306
314.60 0.1309
314.70 0.1312
314.80 0.1315
314.90 0.1318
315.00 0.1321
315.10 0.1324
315.20 0.1327
315.30 0.133
315.40 0.1333
315.50 0.1335
315.60 0.1338
315.70 0.1341
315.80 0.1344
315.90 0.1347
316.00 0.135
316.10 0.1353
316.20 0.1356
316.30 0.1359
316.40 0.1362
316.50 0.1365
316.60 0.1368
316.70 0.1371
316.80 0.1374
316.90 0.1377
317.00 0.138
317.10 0.1383
317.20 0.1386
317.30 0.1389
317.40 0.1392
317.50 0.1394
317.60 0.1397
317.70 0.14
317.80 0.1403
317.90 0.1406
318.00 0.1409
318.10 0.1412
318.20 0.1415
318.30 0.1418
318.40 0.1421
318.50 0.1425
318.60 0.1428
318.70 0.1431
318.80 0.1434
318.90 0.1437
319.00 0.144
319.10 0.1443
319.20 0.1446
319.30 0.1449
319.40 0.1452
319.50 0.1455
319.60 0.1458
319.70 0.1461
319.80 0.1464
319.90 0.1467
320.00 0.147
320.10 0.1473
320.20 0.1476
320.30 0.1479
320.40 0.1483
320.50 0.1486
320.60 0.1489
320.70 0.1492
320.80 0.1495
320.90 0.1498
321.00 0.1501
321.10 0.1504
321.20 0.1507
321.30 0.1511
321.40 0.1514
321.50 0.1517
321.60 0.152
321.70 0.1523
321.80 0.1526
321.90 0.1529
322.00 0.1532
322.10 0.1535
322.20 0.1539
322.30 0.1542
322.40 0.1545
322.50 0.1548
322.60 0.1551
322.70 0.1555
322.80 0.1558
322.90 0.1561
323.00 0.1564
323.10 0.1567
323.20 0.1571
323.30 0.1574
323.40 0.1577
323.50 0.158
323.60 0.1583
323.70 0.1586
323.80 0.159
323.90 0.1593
324.00 0.1596
324.10 0.1599
324.20 0.1602
324.30 0.1606
324.40 0.1609
324.50 0.1612
324.60 0.1616
324.70 0.1619
324.80 0.1622
324.90 0.1625
325.00 0.1629
325.10 0.1632
325.20 0.1635
325.30 0.1638
325.40 0.1641
325.50 0.1645
325.60 0.1648
325.70 0.1651
325.80 0.1654
325.90 0.1658
326.00 0.1661
326.10 0.1664
326.20 0.1668
326.30 0.1671
326.40 0.1674
326.50 0.1678
326.60 0.1681
326.70 0.1684
326.80 0.1688
326.90 0.1691
327.00 0.1694
327.10 0.1698
327.20 0.1701
327.30 0.1704
327.40 0.1707
327.50 0.1711
327.60 0.1714
327.70 0.1717
327.80 0.1721
327.90 0.1724
328.00 0.1727
328.10 0.1731
328.20 0.1734
328.30 0.1738
328.40 0.1741
328.50 0.1744
328.60 0.1748
328.70 0.1751
328.80 0.1755
328.90 0.1758
329.00 0.1761
329.10 0.1765
329.20 0.1768
329.30 0.1772
329.40 0.1775
329.50 0.1778
329.60 0.1782
329.70 0.1785
329.80 0.1788
329.90 0.1792
330.00 0.1795
330.10 0.1799
330.20 0.1802
330.30 0.1806
330.40 0.1809
330.50 0.1813
330.60 0.1816
330.70 0.1819
330.80 0.1823
330.90 0.1826
331.00 0.183
331.10 0.1833
331.20 0.1837
331.30 0.184
331.40 0.1844
331.50 0.1847
331.60 0.1851
331.70 0.1854
331.80 0.1857
331.90 0.1861
332.00 0.1864
332.10 0.1868
332.20 0.1871
332.30 0.1875
332.40 0.1878
332.50 0.1882
332.60 0.1886
332.70 0.1889
332.80 0.1893
332.90 0.1896
333.00 0.19
333.10 0.1903
333.20 0.1907
333.30 0.191
333.40 0.1914
333.50 0.1917
333.60 0.1921
333.70 0.1924
333.80 0.1928
333.90 0.1931
334.00 0.1935
334.10 0.1938
334.20 0.1942
334.30 0.1946
334.40 0.1949
334.50 0.1953
334.60 0.1956
334.70 0.196
334.80 0.1964
334.90 0.1967
335.00 0.1971
335.10 0.1974
335.20 0.1978
335.30 0.1982
335.40 0.1985
335.50 0.1989
335.60 0.1992
335.70 0.1996
335.80 0.1999
335.90 0.2003
336.00 0.2007
336.10 0.201
336.20 0.2014
336.30 0.2018
336.40 0.2021
336.50 0.2025
336.60 0.2029
336.70 0.2032
336.80 0.2036
336.90 0.204
337.00 0.2043
337.10 0.2047
337.20 0.2051
337.30 0.2054
337.40 0.2058
337.50 0.2062
337.60 0.2065
337.70 0.2069
337.80 0.2072
337.90 0.2076
338.00 0.208
338.10 0.2083
338.20 0.2087
338.30 0.2091
338.40 0.2095
338.50 0.2098
338.60 0.2102
338.70 0.2106
338.80 0.211
338.90 0.2113
339.00 0.2117
339.10 0.2121
339.20 0.2125
339.30 0.2128
339.40 0.2132
339.50 0.2136
339.60 0.2139
339.70 0.2143
339.80 0.2147
339.90 0.215
340.00 0.2154
340.10 0.2158
340.20 0.2162
340.30 0.2166
340.40 0.2169
340.50 0.2173
340.60 0.2177
340.70 0.2181
340.80 0.2185
340.90 0.2188
341.00 0.2192
341.10 0.2196
341.20 0.22
341.30 0.2204
341.40 0.2207
341.50 0.2211
341.60 0.2215
341.70 0.2219
341.80 0.2222
341.90 0.2226
342.00 0.223
342.10 0.2234
342.20 0.2238
342.30 0.2242
342.40 0.2245
342.50 0.2249
342.60 0.2253
342.70 0.2257
342.80 0.2261
342.90 0.2265
343.00 0.2269
343.10 0.2272
343.20 0.2276
343.30 0.228
343.40 0.2284
343.50 0.2288
343.60 0.2292
343.70 0.2295
343.80 0.2299
343.90 0.2303
344.00 0.2307
344.10 0.2311
344.20 0.2315
344.30 0.2319
344.40 0.2323
344.50 0.2327
344.60 0.233
344.70 0.2334
344.80 0.2338
344.90 0.2342
345.00 0.2346
345.10 0.235
345.20 0.2354
345.30 0.2358
345.40 0.2362
345.50 0.2366
345.60 0.237
345.70 0.2373
345.80 0.2377
345.90 0.2381
346.00 0.2385
346.10 0.2389
346.20 0.2393
346.30 0.2397
346.40 0.2401
346.50 0.2405
346.60 0.2409
346.70 0.2413
346.80 0.2417
346.90 0.2421
347.00 0.2425
347.10 0.2429
347.20 0.2433
347.30 0.2437
347.40 0.2441
347.50 0.2445
347.60 0.2449
347.70 0.2453
347.80 0.2457
347.90 0.2461
348.00 0.2464
348.10 0.2469
348.20 0.2473
348.30 0.2477
348.40 0.2481
348.50 0.2485
348.60 0.2489
348.70 0.2493
348.80 0.2497
348.90 0.2501
349.00 0.2505
349.10 0.2509
349.20 0.2513
349.30 0.2517
349.40 0.2521
349.50 0.2525
349.60 0.2529
349.70 0.2533
349.80 0.2537
349.90 0.2541
350.00 0.2545
350.10 0.2549
350.20 0.2553
350.30 0.2557
350.40 0.2562
350.50 0.2566
350.60 0.257
350.70 0.2574
350.80 0.2578
350.90 0.2582
351.00 0.2586
351.10 0.259
351.20 0.2594
351.30 0.2598
351.40 0.2602
351.50 0.2607
351.60 0.2611
351.70 0.2615
351.80 0.2619
351.90 0.2623
352.00 0.2627
352.10 0.2631
352.20 0.2635
352.30 0.2639
352.40 0.2644
352.50 0.2648
352.60 0.2652
352.70 0.2656
352.80 0.266
352.90 0.2664
353.00 0.2669
353.10 0.2673
353.20 0.2677
353.30 0.2681
353.40 0.2685
353.50 0.2689
353.60 0.2693
353.70 0.2697
353.80 0.2702
353.90 0.2706
354.00 0.271
354.10 0.2714
354.20 0.2718
354.30 0.2722
354.40 0.2727
354.50 0.2731
354.60 0.2735
354.70 0.2739
354.80 0.2744
354.90 0.2748
355.00 0.2752
355.10 0.2756
355.20 0.276
355.30 0.2765
355.40 0.2769
355.50 0.2773
355.60 0.2777
355.70 0.2781
355.80 0.2785
355.90 0.279
356.00 0.2794
356.10 0.2798
356.20 0.2802
356.30 0.2807
356.40 0.2811
356.50 0.2815
356.60 0.282
356.70 0.2824
356.80 0.2828
356.90 0.2832
357.00 0.2837
357.10 0.2841
357.20 0.2845
357.30 0.2849
357.40 0.2854
357.50 0.2858
357.60 0.2862
357.70 0.2866
357.80 0.2871
357.90 0.2875
358.00 0.2879
358.10 0.2883
358.20 0.2888
358.30 0.2892
358.40 0.2896
358.50 0.2901
358.60 0.2905
358.70 0.2909
358.80 0.2914
358.90 0.2918
359.00 0.2922
359.10 0.2927
359.20 0.2931
359.30 0.2935
359.40 0.2939
359.50 0.2944
359.60 0.2948
359.70 0.2952
359.80 0.2957
359.90 0.2961
360.00 0.2965
360.10 0.297
360.20 0.2974
360.30 0.2978
360.40 0.2983
360.50 0.2987
360.60 0.2992
360.70 0.2996
360.80 0.3
360.90 0.3005
361.00 0.3009
361.10 0.3013
361.20 0.3018
361.30 0.3022
361.40 0.3026
361.50 0.3031
361.60 0.3035
361.70 0.3039
361.80 0.3044
361.90 0.3048
362.00 0.3052
362.10 0.3057
362.20 0.3061
362.30 0.3066
362.40 0.307
362.50 0.3074
362.60 0.3079
362.70 0.3083
362.80 0.3088
362.90 0.3092
363.00 0.3096
363.10 0.3101
363.20 0.3105
363.30 0.311
363.40 0.3114
363.50 0.3119
363.60 0.3123
363.70 0.3128
363.80 0.3132
363.90 0.3136
364.00 0.3141
364.10 0.3145
364.20 0.315
364.30 0.3154
364.40 0.3158
364.50 0.3163
364.60 0.3167
364.70 0.3172
364.80 0.3176
364.90 0.3181
365.00 0.3185
365.10 0.319
365.20 0.3194
365.30 0.3199
365.40 0.3203
365.50 0.3208
365.60 0.3212
365.70 0.3217
365.80 0.3221
365.90 0.3225
366.00 0.323
366.10 0.3234
366.20 0.3239
366.30 0.3244
366.40 0.3248
366.50 0.3253
366.60 0.3257
366.70 0.3262
366.80 0.3266
366.90 0.3271
367.00 0.3275
367.10 0.328
367.20 0.3284
367.30 0.3289
367.40 0.3293
367.50 0.3298
367.60 0.3302
367.70 0.3307
367.80 0.3311
367.90 0.3316
368.00 0.332
368.10 0.3325
368.20 0.3329
368.30 0.3334
368.40 0.3339
368.50 0.3343
368.60 0.3348
368.70 0.3352
368.80 0.3357
368.90 0.3361
369.00 0.3366
369.10 0.3371
369.20 0.3375
369.30 0.338
369.40 0.3384
369.50 0.3389
369.60 0.3393
369.70 0.3398
369.80 0.3402
369.90 0.3407
370.00 0.3411
370.10 0.3416
370.20 0.3421
370.30 0.3425
370.40 0.343
370.50 0.3434
370.60 0.3439
370.70 0.3444
370.80 0.3448
370.90 0.3453
371.00 0.3458
371.10 0.3462
371.20 0.3467
371.30 0.3471
371.40 0.3476
371.50 0.3481
371.60 0.3485
371.70 0.349
371.80 0.3494
371.90 0.3499
372.00 0.3503
372.10 0.3508
372.20 0.3513
372.30 0.3517
372.40 0.3522
372.50 0.3527
372.60 0.3531
372.70 0.3536
372.80 0.3541
372.90 0.3545
373.00 0.355
373.10 0.3555
373.20 0.3559
373.30 0.3564
373.40 0.3569
373.50 0.3573
373.60 0.3578
373.70 0.3582
373.80 0.3587
373.90 0.3592
374.00 0.3596
374.10 0.3601
374.20 0.3606
374.30 0.3611
374.40 0.3615
374.50 0.362
374.60 0.3625
374.70 0.3629
374.80 0.3634
374.90 0.3639
375.00 0.3643
375.10 0.3648
375.20 0.3653
375.30 0.3658
375.40 0.3662
375.50 0.3667
375.60 0.3672
375.70 0.3676
375.80 0.3681
375.90 0.3685
376.00 0.369
376.10 0.3695
376.20 0.37
376.30 0.3704
376.40 0.3709
376.50 0.3714
376.60 0.3718
376.70 0.3723
376.80 0.3728
376.90 0.3733
377.00 0.3737
377.10 0.3742
377.20 0.3747
377.30 0.3752
377.40 0.3756
377.50 0.3761
377.60 0.3766
377.70 0.3771
377.80 0.3775
377.90 0.378
378.00 0.3785
378.10 0.3789
378.20 0.3794
378.30 0.3799
378.40 0.3804
378.50 0.3809
378.60 0.3813
378.70 0.3818
378.80 0.3823
378.90 0.3828
379.00 0.3832
379.10 0.3837
379.20 0.3842
379.30 0.3847
379.40 0.3852
379.50 0.3856
379.60 0.3861
379.70 0.3866
379.80 0.3871
379.90 0.3875
380.00 0.388
380.10 0.3885
380.20 0.389
380.30 0.3895
380.40 0.3899
380.50 0.3904
380.60 0.3909
380.70 0.3914
380.80 0.3919
380.90 0.3923
381.00 0.3928
381.10 0.3933
381.20 0.3938
381.30 0.3943
381.40 0.3947
381.50 0.3952
381.60 0.3957
381.70 0.3962
381.80 0.3967
381.90 0.3971
382.00 0.3976
382.10 0.3981
382.20 0.3986
382.30 0.3991
382.40 0.3996
382.50 0.4001
382.60 0.4005
382.70 0.401
382.80 0.4015
382.90 0.402
383.00 0.4025
383.10 0.403
383.20 0.4034
383.30 0.4039
383.40 0.4044
383.50 0.4049
383.60 0.4054
383.70 0.4059
383.80 0.4063
383.90 0.4068
384.00 0.4073
384.10 0.4078
384.20 0.4083
384.30 0.4088
384.40 0.4092
384.50 0.4098
384.60 0.4102
384.70 0.4107
384.80 0.4112
384.90 0.4117
385.00 0.4122
385.10 0.4127
385.20 0.4132
385.30 0.4136
385.40 0.4141
385.50 0.4146
385.60 0.4151
385.70 0.4156
385.80 0.4161
385.90 0.4166
386.00 0.4171
386.10 0.4176
386.20 0.4181
386.30 0.4185
386.40 0.419
386.50 0.4195
386.60 0.42
386.70 0.4205
386.80 0.421
386.90 0.4215
387.00 0.422
387.10 0.4225
387.20 0.4229
387.30 0.4234
387.40 0.4239
387.50 0.4244
387.60 0.4249
387.70 0.4254
387.80 0.4259
387.90 0.4264
388.00 0.4269
388.10 0.4274
388.20 0.4279
388.30 0.4284
388.40 0.4289
388.50 0.4294
388.60 0.4299
388.70 0.4304
388.80 0.4309
388.90 0.4314
389.00 0.4318
389.10 0.4323
389.20 0.4329
389.30 0.4333
389.40 0.4338
389.50 0.4343
389.60 0.4348
389.70 0.4353
389.80 0.4358
389.90 0.4363
390.00 0.4368
390.10 0.4373
390.20 0.4378
390.30 0.4383
390.40 0.4388
390.50 0.4393
390.60 0.4398
390.70 0.4403
390.80 0.4408
390.90 0.4413
391.00 0.4418
391.10 0.4423
391.20 0.4428
391.30 0.4433
391.40 0.4438
391.50 0.4443
391.60 0.4448
391.70 0.4452
391.80 0.4458
391.90 0.4463
392.00 0.4468
392.10 0.4473
392.20 0.4477
392.30 0.4483
392.40 0.4488
392.50 0.4493
392.60 0.4497
392.70 0.4502
392.80 0.4508
392.90 0.4512
393.00 0.4517
393.10 0.4523
393.20 0.4528
393.30 0.4533
393.40 0.4537
393.50 0.4543
393.60 0.4548
393.70 0.4553
393.80 0.4558
393.90 0.4562
394.00 0.4568
394.10 0.4573
394.20 0.4578
394.30 0.4583
394.40 0.4588
394.50 0.4593
394.60 0.4598
394.70 0.4603
394.80 0.4608
394.90 0.4613
395.00 0.4618
395.10 0.4623
395.20 0.4628
395.30 0.4633
395.40 0.4638
395.50 0.4643
395.60 0.4648
395.70 0.4653
395.80 0.4658
395.90 0.4663
396.00 0.4668
396.10 0.4673
396.20 0.4678
396.30 0.4684
396.40 0.4688
396.50 0.4694
396.60 0.4699
396.70 0.4704
396.80 0.4709
396.90 0.4714
397.00 0.4719
397.10 0.4724
397.20 0.4729
397.30 0.4734
397.40 0.4739
397.50 0.4744
397.60 0.4749
397.70 0.4754
397.80 0.4759
397.90 0.4764
398.00 0.4769
398.10 0.4774
398.20 0.478
398.30 0.4785
398.40 0.479
398.50 0.4795
398.60 0.48
398.70 0.4805
398.80 0.481
398.90 0.4815
399.00 0.482
399.10 0.4825
399.20 0.483
399.30 0.4836
399.40 0.4841
399.50 0.4846
399.60 0.4851
399.70 0.4856
399.80 0.4861
399.90 0.4866
400.00 0.4871
400.10 0.4876
400.20 0.4881
400.30 0.4887
400.40 0.4892
400.50 0.4897
400.60 0.4902
400.70 0.4907
400.80 0.4912
400.90 0.4917
401.00 0.4922
401.10 0.4927
401.20 0.4933
401.30 0.4938
401.40 0.4943
401.50 0.4948
401.60 0.4953
401.70 0.4958
401.80 0.4963
401.90 0.4968
402.00 0.4974
402.10 0.4979
402.20 0.4984
402.30 0.4989
402.40 0.4994
402.50 0.4999
402.60 0.5004
402.70 0.5009
402.80 0.5015
402.90 0.502
403.00 0.5025
403.10 0.503
403.20 0.5035
403.30 0.504
403.40 0.5045
403.50 0.505
403.60 0.5056
403.70 0.5061
403.80 0.5066
403.90 0.5071
404.00 0.5076
404.10 0.5081
404.20 0.5086
404.30 0.5091
404.40 0.5097
404.50 0.5102
404.60 0.5107
404.70 0.5112
404.80 0.5117
404.90 0.5122
405.00 0.5127
405.10 0.5133
405.20 0.5138
405.30 0.5143
405.40 0.5148
405.50 0.5153
405.60 0.5158
405.70 0.5164
405.80 0.5169
405.90 0.5174
406.00 0.5179
406.10 0.5184
406.20 0.5189
406.30 0.5195
406.40 0.52
406.50 0.5205
406.60 0.521
406.70 0.5215
406.80 0.522
406.90 0.5225
407.00 0.5231
407.10 0.5236
407.20 0.5241
407.30 0.5246
407.40 0.5251
407.50 0.5256
407.60 0.5262
407.70 0.5267
407.80 0.5272
407.90 0.5277
408.00 0.5282
408.10 0.5288
408.20 0.5293
408.30 0.5298
408.40 0.5303
408.50 0.5308
408.60 0.5314
408.70 0.5319
408.80 0.5324
408.90 0.5329
409.00 0.5334
409.10 0.534
409.20 0.5345
409.30 0.535
409.40 0.5355
409.50 0.536
409.60 0.5365
409.70 0.5371
409.80 0.5376
409.90 0.5381
410.00 0.5386
410.10 0.5391
410.20 0.5397
410.30 0.5402
410.40 0.5407
410.50 0.5412
410.60 0.5417
410.70 0.5423
410.80 0.5428
410.90 0.5433
411.00 0.5438
411.10 0.5443
411.20 0.5449
411.30 0.5454
411.40 0.5459
411.50 0.5464
411.60 0.547
411.70 0.5475
411.80 0.548
411.90 0.5485
412.00 0.549
412.10 0.5495
412.20 0.5501
412.30 0.5506
412.40 0.5511
412.50 0.5516
412.60 0.5522
412.70 0.5527
412.80 0.5532
412.90 0.5537
413.00 0.5542
413.10 0.5548
413.20 0.5553
413.30 0.5558
413.40 0.5563
413.50 0.5569
413.60 0.5574
413.70 0.5579
413.80 0.5584
413.90 0.5589
414.00 0.5595
414.10 0.56
414.20 0.5605
414.30 0.561
414.40 0.5616
414.50 0.5621
414.60 0.5626
414.70 0.5631
414.80 0.5636
414.90 0.5642
415.00 0.5647
415.10 0.5652
415.20 0.5657
415.30 0.5663
415.40 0.5668
415.50 0.5673
415.60 0.5678
415.70 0.5684
415.80 0.5689
415.90 0.5694
416.00 0.5699
416.10 0.5704
416.20 0.571
416.30 0.5715
416.40 0.572
416.50 0.5725
416.60 0.5731
416.70 0.5736
416.80 0.5741
416.90 0.5747
417.00 0.5752
417.10 0.5757
417.20 0.5762
417.30 0.5767
417.40 0.5773
417.50 0.5778
417.60 0.5783
417.70 0.5788
417.80 0.5794
417.90 0.5799
418.00 0.5804
418.10 0.5809
418.20 0.5815
418.30 0.582
418.40 0.5825
418.50 0.583
418.60 0.5836
418.70 0.5841
418.80 0.5846
418.90 0.5851
419.00 0.5857
419.10 0.5862
419.20 0.5867
419.30 0.5873
419.40 0.5878
419.50 0.5883
419.60 0.5888
419.70 0.5893
419.80 0.5899
419.90 0.5904
420.00 0.5909
420.10 0.5914
420.20 0.592
420.30 0.5925
420.40 0.593
420.50 0.5936
420.60 0.5941
420.70 0.5946
420.80 0.5951
420.90 0.5957
421.00 0.5962
421.10 0.5967
421.20 0.5972
421.30 0.5977
421.40 0.5983
421.50 0.5988
421.60 0.5993
421.70 0.5999
421.80 0.6004
421.90 0.6009
422.00 0.6014
422.10 0.602
422.20 0.6025
422.30 0.603
422.40 0.6035
422.50 0.6041
422.60 0.6046
422.70 0.6051
422.80 0.6056
422.90 0.6062
423.00 0.6067
423.10 0.6072
423.20 0.6078
423.30 0.6083
423.40 0.6088
423.50 0.6093
423.60 0.6099
423.70 0.6104
423.80 0.6109
423.90 0.6115
424.00 0.612
424.10 0.6125
424.20 0.613
424.30 0.6136
424.40 0.6141
424.50 0.6146
424.60 0.6151
424.70 0.6157
424.80 0.6162
424.90 0.6167
425.00 0.6173
425.10 0.6178
425.20 0.6183
425.30 0.6188
425.40 0.6194
425.50 0.6199
425.60 0.6204
425.70 0.6209
425.80 0.6215
425.90 0.622
426.00 0.6225
426.10 0.6231
426.20 0.6236
426.30 0.6241
426.40 0.6247
426.50 0.6252
426.60 0.6257
426.70 0.6262
426.80 0.6268
426.90 0.6273
427.00 0.6278
427.10 0.6283
427.20 0.6289
427.30 0.6294
427.40 0.6299
427.50 0.6304
427.60 0.631
427.70 0.6315
427.80 0.6321
427.90 0.6326
428.00 0.6331
428.10 0.6336
428.20 0.6342
428.30 0.6347
428.40 0.6352
428.50 0.6357
428.60 0.6363
428.70 0.6368
428.80 0.6373
428.90 0.6379
429.00 0.6384
429.10 0.6389
429.20 0.6394
429.30 0.64
429.40 0.6405
429.50 0.641
429.60 0.6415
429.70 0.6421
429.80 0.6426
429.90 0.6431
430.00 0.6437
430.10 0.6442
430.20 0.6447
430.30 0.6453
430.40 0.6458
430.50 0.6463
430.60 0.6468
430.70 0.6474
430.80 0.6479
430.90 0.6484
431.00 0.649
431.10 0.6495
431.20 0.65
431.30 0.6505
431.40 0.6511
431.50 0.6516
431.60 0.6521
431.70 0.6526
431.80 0.6532
431.90 0.6537
432.00 0.6542
432.10 0.6548
432.20 0.6553
432.30 0.6558
432.40 0.6564
432.50 0.6569
432.60 0.6574
432.70 0.658
432.80 0.6585
432.90 0.659
433.00 0.6595
433.10 0.6601
433.20 0.6606
433.30 0.6611
433.40 0.6616
433.50 0.6622
433.60 0.6627
433.70 0.6632
433.80 0.6638
433.90 0.6643
434.00 0.6648
434.10 0.6653
434.20 0.6659
434.30 0.6664
434.40 0.6669
434.50 0.6675
434.60 0.668
434.70 0.6685
434.80 0.669
434.90 0.6696
435.00 0.6701
435.10 0.6706
435.20 0.6712
435.30 0.6717
435.40 0.6722
435.50 0.6728
435.60 0.6733
435.70 0.6738
435.80 0.6743
435.90 0.6749
436.00 0.6754
436.10 0.6759
436.20 0.6764
436.30 0.677
436.40 0.6775
436.50 0.678
436.60 0.6786
436.70 0.6791
436.80 0.6796
436.90 0.6802
437.00 0.6807
437.10 0.6812
437.20 0.6817
437.30 0.6823
437.40 0.6828
437.50 0.6833
437.60 0.6838
437.70 0.6844
437.80 0.6849
437.90 0.6854
438.00 0.686
438.10 0.6865
438.20 0.687
438.30 0.6876
438.40 0.6881
438.50 0.6886
438.60 0.6891
438.70 0.6897
438.80 0.6902
438.90 0.6907
439.00 0.6913
439.10 0.6918
439.20 0.6923
439.30 0.6928
439.40 0.6933
439.50 0.6939
439.60 0.6944
439.70 0.6949
439.80 0.6955
439.90 0.696
440.00 0.6965
440.10 0.6971
440.20 0.6976
440.30 0.6981
440.40 0.6986
440.50 0.6992
440.60 0.6997
440.70 0.7002
440.80 0.7007
440.90 0.7013
441.00 0.7018
441.10 0.7023
441.20 0.7029
441.30 0.7034
441.40 0.7039
441.50 0.7044
441.60 0.705
441.70 0.7055
441.80 0.706
441.90 0.7066
442.00 0.7071
442.10 0.7076
442.20 0.7081
442.30 0.7087
442.40 0.7092
442.50 0.7097
442.60 0.7103
