# Version 2.1 - nm, norm@500 to 1, cut digits, bergeron_3750_95.dat_3750
# Wavelength(nm)  Flambda(ergs/cm^s/s/nm)
300.00 0.2053
300.10 0.2057
300.20 0.206
300.30 0.2064
300.40 0.2067
300.50 0.2071
300.60 0.2074
300.70 0.2078
300.80 0.2082
300.90 0.2085
301.00 0.2089
301.10 0.2092
301.20 0.2096
301.30 0.2099
301.40 0.2103
301.50 0.2106
301.60 0.211
301.70 0.2113
301.80 0.2117
301.90 0.212
302.00 0.2124
302.10 0.2128
302.20 0.2131
302.30 0.2135
302.40 0.2138
302.50 0.2142
302.60 0.2146
302.70 0.2149
302.80 0.2153
302.90 0.2157
303.00 0.216
303.10 0.2164
303.20 0.2167
303.30 0.2171
303.40 0.2174
303.50 0.2178
303.60 0.2182
303.70 0.2185
303.80 0.2189
303.90 0.2192
304.00 0.2196
304.10 0.22
304.20 0.2203
304.30 0.2207
304.40 0.2211
304.50 0.2214
304.60 0.2218
304.70 0.2222
304.80 0.2225
304.90 0.2229
305.00 0.2233
305.10 0.2236
305.20 0.224
305.30 0.2244
305.40 0.2247
305.50 0.2251
305.60 0.2254
305.70 0.2258
305.80 0.2262
305.90 0.2265
306.00 0.2269
306.10 0.2273
306.20 0.2276
306.30 0.228
306.40 0.2284
306.50 0.2288
306.60 0.2291
306.70 0.2295
306.80 0.2299
306.90 0.2302
307.00 0.2306
307.10 0.231
307.20 0.2314
307.30 0.2317
307.40 0.2321
307.50 0.2325
307.60 0.2328
307.70 0.2332
307.80 0.2336
307.90 0.2339
308.00 0.2343
308.10 0.2347
308.20 0.2351
308.30 0.2354
308.40 0.2358
308.50 0.2362
308.60 0.2366
308.70 0.2369
308.80 0.2373
308.90 0.2377
309.00 0.2381
309.10 0.2384
309.20 0.2388
309.30 0.2392
309.40 0.2396
309.50 0.2399
309.60 0.2403
309.70 0.2407
309.80 0.2411
309.90 0.2414
310.00 0.2418
310.10 0.2422
310.20 0.2426
310.30 0.2429
310.40 0.2433
310.50 0.2437
310.60 0.2441
310.70 0.2445
310.80 0.2449
310.90 0.2452
311.00 0.2456
311.10 0.246
311.20 0.2464
311.30 0.2468
311.40 0.2471
311.50 0.2475
311.60 0.2479
311.70 0.2483
311.80 0.2487
311.90 0.249
312.00 0.2494
312.10 0.2498
312.20 0.2502
312.30 0.2505
312.40 0.2509
312.50 0.2513
312.60 0.2517
312.70 0.2521
312.80 0.2525
312.90 0.2529
313.00 0.2533
313.10 0.2536
313.20 0.254
313.30 0.2544
313.40 0.2548
313.50 0.2552
313.60 0.2556
313.70 0.2559
313.80 0.2563
313.90 0.2567
314.00 0.2571
314.10 0.2575
314.20 0.2579
314.30 0.2583
314.40 0.2587
314.50 0.259
314.60 0.2594
314.70 0.2598
314.80 0.2602
314.90 0.2606
315.00 0.261
315.10 0.2614
315.20 0.2618
315.30 0.2622
315.40 0.2626
315.50 0.2629
315.60 0.2633
315.70 0.2637
315.80 0.2641
315.90 0.2645
316.00 0.2649
316.10 0.2653
316.20 0.2657
316.30 0.2661
316.40 0.2665
316.50 0.2669
316.60 0.2672
316.70 0.2676
316.80 0.268
316.90 0.2684
317.00 0.2688
317.10 0.2692
317.20 0.2696
317.30 0.27
317.40 0.2704
317.50 0.2708
317.60 0.2712
317.70 0.2716
317.80 0.272
317.90 0.2724
318.00 0.2727
318.10 0.2731
318.20 0.2735
318.30 0.2739
318.40 0.2743
318.50 0.2747
318.60 0.2751
318.70 0.2755
318.80 0.2759
318.90 0.2763
319.00 0.2767
319.10 0.2771
319.20 0.2775
319.30 0.2779
319.40 0.2783
319.50 0.2787
319.60 0.2791
319.70 0.2795
319.80 0.2799
319.90 0.2803
320.00 0.2807
320.10 0.2811
320.20 0.2815
320.30 0.2819
320.40 0.2823
320.50 0.2827
320.60 0.2831
320.70 0.2835
320.80 0.2839
320.90 0.2843
321.00 0.2847
321.10 0.2851
321.20 0.2855
321.30 0.2859
321.40 0.2863
321.50 0.2867
321.60 0.2871
321.70 0.2875
321.80 0.2879
321.90 0.2883
322.00 0.2887
322.10 0.2891
322.20 0.2895
322.30 0.29
322.40 0.2904
322.50 0.2908
322.60 0.2912
322.70 0.2916
322.80 0.292
322.90 0.2924
323.00 0.2928
323.10 0.2932
323.20 0.2936
323.30 0.294
323.40 0.2944
323.50 0.2948
323.60 0.2952
323.70 0.2956
323.80 0.296
323.90 0.2964
324.00 0.2968
324.10 0.2972
324.20 0.2977
324.30 0.2981
324.40 0.2985
324.50 0.2989
324.60 0.2993
324.70 0.2997
324.80 0.3001
324.90 0.3005
325.00 0.3009
325.10 0.3014
325.20 0.3018
325.30 0.3022
325.40 0.3026
325.50 0.303
325.60 0.3034
325.70 0.3038
325.80 0.3042
325.90 0.3046
326.00 0.305
326.10 0.3054
326.20 0.3058
326.30 0.3063
326.40 0.3067
326.50 0.3071
326.60 0.3075
326.70 0.3079
326.80 0.3083
326.90 0.3088
327.00 0.3092
327.10 0.3096
327.20 0.31
327.30 0.3104
327.40 0.3108
327.50 0.3112
327.60 0.3116
327.70 0.312
327.80 0.3124
327.90 0.3129
328.00 0.3133
328.10 0.3137
328.20 0.3141
328.30 0.3145
328.40 0.3149
328.50 0.3154
328.60 0.3158
328.70 0.3162
328.80 0.3166
328.90 0.317
329.00 0.3175
329.10 0.3179
329.20 0.3183
329.30 0.3187
329.40 0.3191
329.50 0.3195
329.60 0.3199
329.70 0.3204
329.80 0.3208
329.90 0.3212
330.00 0.3216
330.10 0.322
330.20 0.3224
330.30 0.3229
330.40 0.3233
330.50 0.3237
330.60 0.3241
330.70 0.3246
330.80 0.325
330.90 0.3254
331.00 0.3258
331.10 0.3262
331.20 0.3267
331.30 0.3271
331.40 0.3275
331.50 0.3279
331.60 0.3283
331.70 0.3287
331.80 0.3292
331.90 0.3296
332.00 0.33
332.10 0.3304
332.20 0.3308
332.30 0.3313
332.40 0.3317
332.50 0.3321
332.60 0.3325
332.70 0.333
332.80 0.3334
332.90 0.3338
333.00 0.3342
333.10 0.3347
333.20 0.3351
333.30 0.3355
333.40 0.3359
333.50 0.3363
333.60 0.3368
333.70 0.3372
333.80 0.3376
333.90 0.338
334.00 0.3384
334.10 0.3389
334.20 0.3393
334.30 0.3397
334.40 0.3402
334.50 0.3406
334.60 0.341
334.70 0.3415
334.80 0.3419
334.90 0.3423
335.00 0.3427
335.10 0.3432
335.20 0.3436
335.30 0.344
335.40 0.3444
335.50 0.3449
335.60 0.3453
335.70 0.3457
335.80 0.3461
335.90 0.3465
336.00 0.347
336.10 0.3474
336.20 0.3478
336.30 0.3483
336.40 0.3487
336.50 0.3491
336.60 0.3496
336.70 0.35
336.80 0.3504
336.90 0.3509
337.00 0.3513
337.10 0.3517
337.20 0.3521
337.30 0.3526
337.40 0.353
337.50 0.3534
337.60 0.3538
337.70 0.3543
337.80 0.3547
337.90 0.3551
338.00 0.3555
338.10 0.356
338.20 0.3564
338.30 0.3568
338.40 0.3573
338.50 0.3577
338.60 0.3581
338.70 0.3586
338.80 0.359
338.90 0.3594
339.00 0.3599
339.10 0.3603
339.20 0.3607
339.30 0.3612
339.40 0.3616
339.50 0.362
339.60 0.3625
339.70 0.3629
339.80 0.3633
339.90 0.3637
340.00 0.3642
340.10 0.3646
340.20 0.365
340.30 0.3655
340.40 0.3659
340.50 0.3664
340.60 0.3668
340.70 0.3672
340.80 0.3677
340.90 0.3681
341.00 0.3685
341.10 0.369
341.20 0.3694
341.30 0.3698
341.40 0.3703
341.50 0.3707
341.60 0.3711
341.70 0.3715
341.80 0.372
341.90 0.3724
342.00 0.3728
342.10 0.3733
342.20 0.3737
342.30 0.3741
342.40 0.3746
342.50 0.375
342.60 0.3755
342.70 0.3759
342.80 0.3763
342.90 0.3768
343.00 0.3772
343.10 0.3776
343.20 0.3781
343.30 0.3785
343.40 0.379
343.50 0.3794
343.60 0.3798
343.70 0.3802
343.80 0.3807
343.90 0.3811
344.00 0.3815
344.10 0.382
344.20 0.3824
344.30 0.3829
344.40 0.3833
344.50 0.3838
344.60 0.3842
344.70 0.3846
344.80 0.3851
344.90 0.3855
345.00 0.386
345.10 0.3864
345.20 0.3868
345.30 0.3873
345.40 0.3877
345.50 0.3881
345.60 0.3886
345.70 0.389
345.80 0.3894
345.90 0.3899
346.00 0.3903
346.10 0.3908
346.20 0.3912
346.30 0.3916
346.40 0.3921
346.50 0.3925
346.60 0.393
346.70 0.3934
346.80 0.3939
346.90 0.3943
347.00 0.3947
347.10 0.3952
347.20 0.3956
347.30 0.3961
347.40 0.3965
347.50 0.3969
347.60 0.3974
347.70 0.3978
347.80 0.3983
347.90 0.3987
348.00 0.3991
348.10 0.3996
348.20 0.4
348.30 0.4005
348.40 0.4009
348.50 0.4014
348.60 0.4018
348.70 0.4022
348.80 0.4027
348.90 0.4031
349.00 0.4036
349.10 0.404
349.20 0.4044
349.30 0.4049
349.40 0.4053
349.50 0.4058
349.60 0.4062
349.70 0.4066
349.80 0.4071
349.90 0.4075
350.00 0.408
350.10 0.4084
350.20 0.4089
350.30 0.4093
350.40 0.4098
350.50 0.4102
350.60 0.4106
350.70 0.4111
350.80 0.4115
350.90 0.412
351.00 0.4124
351.10 0.4129
351.20 0.4133
351.30 0.4138
351.40 0.4142
351.50 0.4146
351.60 0.4151
351.70 0.4155
351.80 0.416
351.90 0.4164
352.00 0.4169
352.10 0.4173
352.20 0.4178
352.30 0.4182
352.40 0.4187
352.50 0.4191
352.60 0.4196
352.70 0.42
352.80 0.4204
352.90 0.4209
353.00 0.4213
353.10 0.4218
353.20 0.4222
353.30 0.4227
353.40 0.4231
353.50 0.4236
353.60 0.424
353.70 0.4244
353.80 0.4249
353.90 0.4253
354.00 0.4258
354.10 0.4262
354.20 0.4267
354.30 0.4271
354.40 0.4276
354.50 0.428
354.60 0.4285
354.70 0.4289
354.80 0.4294
354.90 0.4298
355.00 0.4303
355.10 0.4307
355.20 0.4311
355.30 0.4316
355.40 0.432
355.50 0.4325
355.60 0.4329
355.70 0.4334
355.80 0.4338
355.90 0.4342
356.00 0.4347
356.10 0.4351
356.20 0.4356
356.30 0.436
356.40 0.4365
356.50 0.437
356.60 0.4374
356.70 0.4379
356.80 0.4383
356.90 0.4388
357.00 0.4392
357.10 0.4396
357.20 0.4401
357.30 0.4405
357.40 0.441
357.50 0.4414
357.60 0.4419
357.70 0.4423
357.80 0.4428
357.90 0.4432
358.00 0.4436
358.10 0.4441
358.20 0.4446
358.30 0.445
358.40 0.4455
358.50 0.4459
358.60 0.4464
358.70 0.4468
358.80 0.4473
358.90 0.4477
359.00 0.4482
359.10 0.4486
359.20 0.4491
359.30 0.4495
359.40 0.45
359.50 0.4504
359.60 0.4509
359.70 0.4513
359.80 0.4517
359.90 0.4522
360.00 0.4526
360.10 0.4531
360.20 0.4535
360.30 0.454
360.40 0.4545
360.50 0.4549
360.60 0.4554
360.70 0.4558
360.80 0.4563
360.90 0.4567
361.00 0.4572
361.10 0.4576
361.20 0.4581
361.30 0.4585
361.40 0.459
361.50 0.4594
361.60 0.4599
361.70 0.4603
361.80 0.4608
361.90 0.4612
362.00 0.4617
362.10 0.4621
362.20 0.4626
362.30 0.463
362.40 0.4635
362.50 0.4639
362.60 0.4644
362.70 0.4648
362.80 0.4653
362.90 0.4657
363.00 0.4662
363.10 0.4666
363.20 0.4671
363.30 0.4675
363.40 0.468
363.50 0.4684
363.60 0.4689
363.70 0.4693
363.80 0.4698
363.90 0.4702
364.00 0.4707
364.10 0.4711
364.20 0.4716
364.30 0.472
364.40 0.4725
364.50 0.4729
364.60 0.4734
364.70 0.4738
364.80 0.4743
364.90 0.4748
365.00 0.4752
365.10 0.4757
365.20 0.4761
365.30 0.4766
365.40 0.477
365.50 0.4775
365.60 0.4779
365.70 0.4784
365.80 0.4788
365.90 0.4793
366.00 0.4797
366.10 0.4802
366.20 0.4806
366.30 0.4811
366.40 0.4815
366.50 0.482
366.60 0.4824
366.70 0.4829
366.80 0.4834
366.90 0.4838
367.00 0.4843
367.10 0.4847
367.20 0.4852
367.30 0.4856
367.40 0.4861
367.50 0.4865
367.60 0.487
367.70 0.4874
367.80 0.4879
367.90 0.4883
368.00 0.4888
368.10 0.4892
368.20 0.4897
368.30 0.4901
368.40 0.4906
368.50 0.491
368.60 0.4915
368.70 0.492
368.80 0.4924
368.90 0.4929
369.00 0.4933
369.10 0.4938
369.20 0.4942
369.30 0.4947
369.40 0.4951
369.50 0.4956
369.60 0.496
369.70 0.4965
369.80 0.4969
369.90 0.4974
370.00 0.4978
370.10 0.4983
370.20 0.4987
370.30 0.4992
370.40 0.4996
370.50 0.5001
370.60 0.5006
370.70 0.501
370.80 0.5015
370.90 0.5019
371.00 0.5024
371.10 0.5028
371.20 0.5033
371.30 0.5037
371.40 0.5042
371.50 0.5046
371.60 0.5051
371.70 0.5055
371.80 0.506
371.90 0.5064
372.00 0.5069
372.10 0.5073
372.20 0.5078
372.30 0.5082
372.40 0.5087
372.50 0.5092
372.60 0.5096
372.70 0.5101
372.80 0.5105
372.90 0.511
373.00 0.5114
373.10 0.5119
373.20 0.5123
373.30 0.5128
373.40 0.5132
373.50 0.5137
373.60 0.5141
373.70 0.5146
373.80 0.515
373.90 0.5155
374.00 0.5159
374.10 0.5164
374.20 0.5168
374.30 0.5173
374.40 0.5178
374.50 0.5182
374.60 0.5187
374.70 0.5191
374.80 0.5196
374.90 0.52
375.00 0.5205
375.10 0.5209
375.20 0.5214
375.30 0.5218
375.40 0.5223
375.50 0.5227
375.60 0.5232
375.70 0.5236
375.80 0.5241
375.90 0.5245
376.00 0.525
376.10 0.5254
376.20 0.5259
376.30 0.5264
376.40 0.5268
376.50 0.5273
376.60 0.5277
376.70 0.5282
376.80 0.5286
376.90 0.5291
377.00 0.5295
377.10 0.53
377.20 0.5304
377.30 0.5309
377.40 0.5313
377.50 0.5318
377.60 0.5322
377.70 0.5327
377.80 0.5331
377.90 0.5336
378.00 0.534
378.10 0.5345
378.20 0.535
378.30 0.5354
378.40 0.5359
378.50 0.5363
378.60 0.5368
378.70 0.5372
378.80 0.5377
378.90 0.5381
379.00 0.5386
379.10 0.539
379.20 0.5395
379.30 0.5399
379.40 0.5404
379.50 0.5408
379.60 0.5413
379.70 0.5417
379.80 0.5422
379.90 0.5426
380.00 0.5431
380.10 0.5435
380.20 0.544
380.30 0.5445
380.40 0.5449
380.50 0.5454
380.60 0.5458
380.70 0.5463
380.80 0.5467
380.90 0.5472
381.00 0.5476
381.10 0.5481
381.20 0.5485
381.30 0.549
381.40 0.5494
381.50 0.5499
381.60 0.5503
381.70 0.5508
381.80 0.5512
381.90 0.5517
382.00 0.5521
382.10 0.5526
382.20 0.553
382.30 0.5535
382.40 0.554
382.50 0.5544
382.60 0.5549
382.70 0.5553
382.80 0.5558
382.90 0.5562
383.00 0.5567
383.10 0.5571
383.20 0.5576
383.30 0.558
383.40 0.5585
383.50 0.5589
383.60 0.5594
383.70 0.5598
383.80 0.5603
383.90 0.5607
384.00 0.5612
384.10 0.5616
384.20 0.5621
384.30 0.5625
384.40 0.563
384.50 0.5634
384.60 0.5639
384.70 0.5643
384.80 0.5648
384.90 0.5652
385.00 0.5657
385.10 0.5661
385.20 0.5666
385.30 0.567
385.40 0.5675
385.50 0.5679
385.60 0.5684
385.70 0.5688
385.80 0.5693
385.90 0.5697
386.00 0.5702
386.10 0.5706
386.20 0.5711
386.30 0.5715
386.40 0.572
386.50 0.5724
386.60 0.5729
386.70 0.5733
386.80 0.5738
386.90 0.5742
387.00 0.5747
387.10 0.5751
387.20 0.5756
387.30 0.576
387.40 0.5765
387.50 0.5769
387.60 0.5774
387.70 0.5778
387.80 0.5783
387.90 0.5787
388.00 0.5792
388.10 0.5796
388.20 0.5801
388.30 0.5805
388.40 0.581
388.50 0.5814
388.60 0.5819
388.70 0.5823
388.80 0.5828
388.90 0.5832
389.00 0.5837
389.10 0.5841
389.20 0.5846
389.30 0.585
389.40 0.5855
389.50 0.5859
389.60 0.5864
389.70 0.5868
389.80 0.5873
389.90 0.5877
390.00 0.5882
390.10 0.5886
390.20 0.5891
390.30 0.5895
390.40 0.59
390.50 0.5904
390.60 0.5908
390.70 0.5913
390.80 0.5917
390.90 0.5922
391.00 0.5926
391.10 0.5931
391.20 0.5935
391.30 0.594
391.40 0.5944
391.50 0.5949
391.60 0.5953
391.70 0.5958
391.80 0.5962
391.90 0.5967
392.00 0.5971
392.10 0.5976
392.20 0.598
392.30 0.5985
392.40 0.5989
392.50 0.5993
392.60 0.5998
392.70 0.6002
392.80 0.6007
392.90 0.6011
393.00 0.6016
393.10 0.602
393.20 0.6025
393.30 0.6029
393.40 0.6034
393.50 0.6038
393.60 0.6043
393.70 0.6047
393.80 0.6052
393.90 0.6056
394.00 0.606
394.10 0.6065
394.20 0.6069
394.30 0.6074
394.40 0.6078
394.50 0.6083
394.60 0.6087
394.70 0.6092
394.80 0.6096
394.90 0.6101
395.00 0.6105
395.10 0.6109
395.20 0.6114
395.30 0.6118
395.40 0.6123
395.50 0.6127
395.60 0.6132
395.70 0.6136
395.80 0.6141
395.90 0.6145
396.00 0.615
396.10 0.6154
396.20 0.6158
396.30 0.6163
396.40 0.6167
396.50 0.6172
396.60 0.6176
396.70 0.6181
396.80 0.6185
396.90 0.619
397.00 0.6194
397.10 0.6198
397.20 0.6203
397.30 0.6207
397.40 0.6212
397.50 0.6216
397.60 0.6221
397.70 0.6225
397.80 0.6229
397.90 0.6234
398.00 0.6238
398.10 0.6243
398.20 0.6247
398.30 0.6252
398.40 0.6256
398.50 0.626
398.60 0.6265
398.70 0.6269
398.80 0.6274
398.90 0.6278
399.00 0.6283
399.10 0.6287
399.20 0.6291
399.30 0.6296
399.40 0.63
399.50 0.6305
399.60 0.6309
399.70 0.6314
399.80 0.6318
399.90 0.6322
400.00 0.6327
400.10 0.6331
400.20 0.6336
400.30 0.634
400.40 0.6344
400.50 0.6349
400.60 0.6353
400.70 0.6358
400.80 0.6362
400.90 0.6367
401.00 0.6371
401.10 0.6375
401.20 0.638
401.30 0.6384
401.40 0.6388
401.50 0.6393
401.60 0.6397
401.70 0.6402
401.80 0.6406
401.90 0.641
402.00 0.6415
402.10 0.6419
402.20 0.6424
402.30 0.6428
402.40 0.6433
402.50 0.6437
402.60 0.6441
402.70 0.6446
402.80 0.645
402.90 0.6454
403.00 0.6459
403.10 0.6463
403.20 0.6468
403.30 0.6472
403.40 0.6476
403.50 0.6481
403.60 0.6485
403.70 0.6489
403.80 0.6494
403.90 0.6498
404.00 0.6503
404.10 0.6507
404.20 0.6511
404.30 0.6516
404.40 0.652
404.50 0.6525
404.60 0.6529
404.70 0.6533
404.80 0.6538
404.90 0.6542
405.00 0.6546
405.10 0.6551
405.20 0.6555
405.30 0.6559
405.40 0.6564
405.50 0.6568
405.60 0.6573
405.70 0.6577
405.80 0.6581
405.90 0.6586
406.00 0.659
406.10 0.6594
406.20 0.6599
406.30 0.6603
406.40 0.6608
406.50 0.6612
406.60 0.6616
406.70 0.6621
406.80 0.6625
406.90 0.6629
407.00 0.6634
407.10 0.6638
407.20 0.6642
407.30 0.6647
407.40 0.6651
407.50 0.6655
407.60 0.666
407.70 0.6664
407.80 0.6668
407.90 0.6673
408.00 0.6677
408.10 0.6681
408.20 0.6686
408.30 0.669
408.40 0.6694
408.50 0.6699
408.60 0.6703
408.70 0.6707
408.80 0.6712
408.90 0.6716
409.00 0.672
409.10 0.6725
409.20 0.6729
409.30 0.6733
409.40 0.6738
409.50 0.6742
409.60 0.6746
409.70 0.6751
409.80 0.6755
409.90 0.6759
410.00 0.6764
410.10 0.6768
410.20 0.6772
410.30 0.6777
410.40 0.6781
410.50 0.6785
410.60 0.679
410.70 0.6794
410.80 0.6798
410.90 0.6802
411.00 0.6807
411.10 0.6811
411.20 0.6815
411.30 0.682
411.40 0.6824
411.50 0.6828
411.60 0.6833
411.70 0.6837
411.80 0.6841
411.90 0.6846
412.00 0.685
412.10 0.6854
412.20 0.6858
412.30 0.6863
412.40 0.6867
412.50 0.6871
412.60 0.6876
412.70 0.688
412.80 0.6884
412.90 0.6888
413.00 0.6893
413.10 0.6897
413.20 0.6901
413.30 0.6906
413.40 0.691
413.50 0.6914
413.60 0.6918
413.70 0.6923
413.80 0.6927
413.90 0.6931
414.00 0.6935
414.10 0.694
414.20 0.6944
414.30 0.6948
414.40 0.6953
414.50 0.6957
414.60 0.6961
414.70 0.6965
414.80 0.697
414.90 0.6974
415.00 0.6978
415.10 0.6982
415.20 0.6987
415.30 0.6991
415.40 0.6995
415.50 0.6999
415.60 0.7004
415.70 0.7008
415.80 0.7012
415.90 0.7016
416.00 0.7021
416.10 0.7025
416.20 0.7029
416.30 0.7033
416.40 0.7038
416.50 0.7042
416.60 0.7046
416.70 0.705
416.80 0.7055
416.90 0.7059
417.00 0.7063
417.10 0.7067
417.20 0.7072
417.30 0.7076
417.40 0.708
417.50 0.7084
417.60 0.7089
417.70 0.7093
417.80 0.7097
417.90 0.7101
418.00 0.7106
418.10 0.711
418.20 0.7114
418.30 0.7118
418.40 0.7122
418.50 0.7127
418.60 0.7131
418.70 0.7135
418.80 0.7139
418.90 0.7143
419.00 0.7148
419.10 0.7152
419.20 0.7156
419.30 0.716
419.40 0.7164
419.50 0.7169
419.60 0.7173
419.70 0.7177
419.80 0.7181
419.90 0.7186
420.00 0.719
420.10 0.7194
420.20 0.7198
420.30 0.7202
420.40 0.7206
420.50 0.7211
420.60 0.7215
420.70 0.7219
420.80 0.7223
420.90 0.7227
421.00 0.7232
421.10 0.7236
421.20 0.724
421.30 0.7244
421.40 0.7248
421.50 0.7253
421.60 0.7257
421.70 0.7261
421.80 0.7265
421.90 0.7269
422.00 0.7273
422.10 0.7278
422.20 0.7282
422.30 0.7286
422.40 0.729
422.50 0.7294
422.60 0.7298
422.70 0.7303
422.80 0.7307
422.90 0.7311
423.00 0.7315
423.10 0.7319
423.20 0.7323
423.30 0.7328
423.40 0.7332
423.50 0.7336
423.60 0.734
423.70 0.7344
423.80 0.7348
423.90 0.7352
424.00 0.7357
424.10 0.7361
424.20 0.7365
424.30 0.7369
424.40 0.7373
424.50 0.7377
424.60 0.7381
424.70 0.7386
424.80 0.739
424.90 0.7394
425.00 0.7398
425.10 0.7402
425.20 0.7406
425.30 0.741
425.40 0.7414
425.50 0.7418
425.60 0.7423
425.70 0.7427
425.80 0.7431
425.90 0.7435
426.00 0.7439
426.10 0.7443
426.20 0.7447
426.30 0.7451
426.40 0.7456
426.50 0.746
426.60 0.7464
426.70 0.7468
426.80 0.7472
426.90 0.7476
427.00 0.748
427.10 0.7484
427.20 0.7488
427.30 0.7493
427.40 0.7497
427.50 0.7501
427.60 0.7505
427.70 0.7509
427.80 0.7513
427.90 0.7517
428.00 0.7521
428.10 0.7525
428.20 0.7529
428.30 0.7533
428.40 0.7537
428.50 0.7542
428.60 0.7546
428.70 0.755
428.80 0.7554
428.90 0.7558
429.00 0.7562
429.10 0.7566
429.20 0.757
429.30 0.7574
429.40 0.7578
429.50 0.7582
429.60 0.7586
429.70 0.759
429.80 0.7595
429.90 0.7599
430.00 0.7603
430.10 0.7607
430.20 0.7611
430.30 0.7615
430.40 0.7619
430.50 0.7623
430.60 0.7627
430.70 0.7631
430.80 0.7635
430.90 0.7639
431.00 0.7643
431.10 0.7647
431.20 0.7651
431.30 0.7655
431.40 0.7659
431.50 0.7663
431.60 0.7667
431.70 0.7671
431.80 0.7675
431.90 0.7679
432.00 0.7683
432.10 0.7688
432.20 0.7692
432.30 0.7696
432.40 0.77
432.50 0.7704
432.60 0.7708
432.70 0.7712
432.80 0.7716
432.90 0.772
433.00 0.7724
433.10 0.7728
433.20 0.7732
433.30 0.7736
433.40 0.774
433.50 0.7744
433.60 0.7748
433.70 0.7752
433.80 0.7756
433.90 0.776
434.00 0.7764
434.10 0.7768
434.20 0.7772
434.30 0.7776
434.40 0.778
434.50 0.7784
434.60 0.7788
434.70 0.7792
434.80 0.7796
434.90 0.78
435.00 0.7804
435.10 0.7808
435.20 0.7812
435.30 0.7816
435.40 0.782
435.50 0.7823
435.60 0.7827
435.70 0.7831
435.80 0.7835
435.90 0.7839
436.00 0.7843
436.10 0.7847
436.20 0.7851
436.30 0.7855
436.40 0.7859
436.50 0.7863
436.60 0.7867
436.70 0.7871
436.80 0.7875
436.90 0.7879
437.00 0.7883
437.10 0.7887
437.20 0.7891
437.30 0.7895
437.40 0.7899
437.50 0.7903
437.60 0.7907
437.70 0.791
437.80 0.7914
437.90 0.7918
438.00 0.7922
438.10 0.7926
438.20 0.793
438.30 0.7934
438.40 0.7938
438.50 0.7942
438.60 0.7946
438.70 0.795
438.80 0.7954
438.90 0.7958
439.00 0.7961
439.10 0.7965
439.20 0.7969
439.30 0.7973
439.40 0.7977
439.50 0.7981
439.60 0.7985
439.70 0.7989
439.80 0.7993
439.90 0.7997
440.00 0.8001
440.10 0.8004
440.20 0.8008
440.30 0.8012
440.40 0.8016
440.50 0.802
440.60 0.8024
440.70 0.8028
440.80 0.8032
440.90 0.8036
441.00 0.8039
441.10 0.8043
441.20 0.8047
441.30 0.8051
441.40 0.8055
441.50 0.8059
441.60 0.8063
441.70 0.8067
441.80 0.8071
441.90 0.8074
442.00 0.8078
442.10 0.8082
442.20 0.8086
442.30 0.809
442.40 0.8094
442.50 0.8098
442.60 0.8101
442.70 0.8105
442.80 0.8109
442.90 0.8113
443.00 0.8117
