# Version 2.1 - nm, norm@500 to 1, cut digits, bergeron_2000_85.dat_2000
# Wavelength(nm)  Flambda(ergs/cm^s/s/nm)
300.00 0.04735
300.10 0.0475
300.20 0.04766
300.30 0.04781
300.40 0.04797
300.50 0.04812
300.60 0.04828
300.70 0.04843
300.80 0.04858
300.90 0.04874
301.00 0.04889
301.10 0.04905
301.20 0.0492
301.30 0.04935
301.40 0.0495
301.50 0.04966
301.60 0.04981
301.70 0.04996
301.80 0.05011
301.90 0.05027
302.00 0.05042
302.10 0.05058
302.20 0.05074
302.30 0.0509
302.40 0.05107
302.50 0.05123
302.60 0.05139
302.70 0.05155
302.80 0.05171
302.90 0.05187
303.00 0.05203
303.10 0.05219
303.20 0.05235
303.30 0.05251
303.40 0.05267
303.50 0.05283
303.60 0.05299
303.70 0.05315
303.80 0.0533
303.90 0.05346
304.00 0.05363
304.10 0.05379
304.20 0.05396
304.30 0.05413
304.40 0.0543
304.50 0.05446
304.60 0.05463
304.70 0.0548
304.80 0.05497
304.90 0.05513
305.00 0.0553
305.10 0.05547
305.20 0.05563
305.30 0.0558
305.40 0.05597
305.50 0.05613
305.60 0.0563
305.70 0.05646
305.80 0.05663
305.90 0.05679
306.00 0.05697
306.10 0.05714
306.20 0.05731
306.30 0.05749
306.40 0.05766
306.50 0.05784
306.60 0.05801
306.70 0.05819
306.80 0.05836
306.90 0.05853
307.00 0.05871
307.10 0.05888
307.20 0.05906
307.30 0.05923
307.40 0.0594
307.50 0.05957
307.60 0.05975
307.70 0.05992
307.80 0.06009
307.90 0.06026
308.00 0.06044
308.10 0.06062
308.20 0.0608
308.30 0.06098
308.40 0.06116
308.50 0.06135
308.60 0.06153
308.70 0.06171
308.80 0.06189
308.90 0.06207
309.00 0.06225
309.10 0.06243
309.20 0.06261
309.30 0.06279
309.40 0.06297
309.50 0.06315
309.60 0.06333
309.70 0.06351
309.80 0.06369
309.90 0.06387
310.00 0.06405
310.10 0.06424
310.20 0.06443
310.30 0.06462
310.40 0.06481
310.50 0.065
310.60 0.06518
310.70 0.06537
310.80 0.06556
310.90 0.06575
311.00 0.06594
311.10 0.06613
311.20 0.06632
311.30 0.0665
311.40 0.06669
311.50 0.06688
311.60 0.06706
311.70 0.06725
311.80 0.06744
311.90 0.06762
312.00 0.06781
312.10 0.068
312.20 0.06819
312.30 0.06838
312.40 0.06858
312.50 0.06877
312.60 0.06897
312.70 0.06917
312.80 0.06936
312.90 0.06956
313.00 0.06975
313.10 0.06995
313.20 0.07014
313.30 0.07034
313.40 0.07053
313.50 0.07073
313.60 0.07092
313.70 0.07111
313.80 0.07131
313.90 0.0715
314.00 0.0717
314.10 0.0719
314.20 0.0721
314.30 0.07231
314.40 0.07251
314.50 0.07271
314.60 0.07292
314.70 0.07312
314.80 0.07332
314.90 0.07353
315.00 0.07373
315.10 0.07393
315.20 0.07413
315.30 0.07433
315.40 0.07453
315.50 0.07473
315.60 0.07494
315.70 0.07514
315.80 0.07534
315.90 0.07554
316.00 0.07574
316.10 0.07595
316.20 0.07616
316.30 0.07637
316.40 0.07658
316.50 0.07679
316.60 0.077
316.70 0.07721
316.80 0.07742
316.90 0.07763
317.00 0.07784
317.10 0.07805
317.20 0.07826
317.30 0.07847
317.40 0.07868
317.50 0.07889
317.60 0.07909
317.70 0.0793
317.80 0.07951
317.90 0.07972
318.00 0.07993
318.10 0.08014
318.20 0.08036
318.30 0.08058
318.40 0.0808
318.50 0.08102
318.60 0.08124
318.70 0.08145
318.80 0.08167
318.90 0.08189
319.00 0.0821
319.10 0.08232
319.20 0.08254
319.30 0.08275
319.40 0.08297
319.50 0.08319
319.60 0.0834
319.70 0.08362
319.80 0.08383
319.90 0.08405
320.00 0.08427
320.10 0.08449
320.20 0.08471
320.30 0.08494
320.40 0.08516
320.50 0.08539
320.60 0.08562
320.70 0.08584
320.80 0.08607
320.90 0.08629
321.00 0.08652
321.10 0.08674
321.20 0.08696
321.30 0.08719
321.40 0.08741
321.50 0.08763
321.60 0.08786
321.70 0.08808
321.80 0.0883
321.90 0.08852
322.00 0.08875
322.10 0.08898
322.20 0.08921
322.30 0.08945
322.40 0.08968
322.50 0.08991
322.60 0.09015
322.70 0.09038
322.80 0.09061
322.90 0.09085
323.00 0.09108
323.10 0.09131
323.20 0.09154
323.30 0.09177
323.40 0.092
323.50 0.09223
323.60 0.09246
323.70 0.09269
323.80 0.09292
323.90 0.09315
324.00 0.09338
324.10 0.09362
324.20 0.09386
324.30 0.09411
324.40 0.09435
324.50 0.09459
324.60 0.09483
324.70 0.09507
324.80 0.09531
324.90 0.09555
325.00 0.09579
325.10 0.09603
325.20 0.09627
325.30 0.09651
325.40 0.09675
325.50 0.09698
325.60 0.09722
325.70 0.09746
325.80 0.0977
325.90 0.09794
326.00 0.09818
326.10 0.09842
326.20 0.09867
326.30 0.09892
326.40 0.09917
326.50 0.09942
326.60 0.09967
326.70 0.09991
326.80 0.1002
326.90 0.1004
327.00 0.1007
327.10 0.1009
327.20 0.1011
327.30 0.1014
327.40 0.1016
327.50 0.1019
327.60 0.1021
327.70 0.1024
327.80 0.1026
327.90 0.1029
328.00 0.1031
328.10 0.1034
328.20 0.1036
328.30 0.1039
328.40 0.1041
328.50 0.1044
328.60 0.1047
328.70 0.1049
328.80 0.1052
328.90 0.1054
329.00 0.1057
329.10 0.1059
329.20 0.1062
329.30 0.1064
329.40 0.1067
329.50 0.1069
329.60 0.1072
329.70 0.1075
329.80 0.1077
329.90 0.108
330.00 0.1082
330.10 0.1085
330.20 0.1087
330.30 0.109
330.40 0.1093
330.50 0.1095
330.60 0.1098
330.70 0.1101
330.80 0.1103
330.90 0.1106
331.00 0.1109
331.10 0.1111
331.20 0.1114
331.30 0.1116
331.40 0.1119
331.50 0.1122
331.60 0.1124
331.70 0.1127
331.80 0.1129
331.90 0.1132
332.00 0.1135
332.10 0.1137
332.20 0.114
332.30 0.1143
332.40 0.1146
332.50 0.1148
332.60 0.1151
332.70 0.1154
332.80 0.1156
332.90 0.1159
333.00 0.1162
333.10 0.1165
333.20 0.1167
333.30 0.117
333.40 0.1173
333.50 0.1175
333.60 0.1178
333.70 0.1181
333.80 0.1183
333.90 0.1186
334.00 0.1189
334.10 0.1191
334.20 0.1194
334.30 0.1197
334.40 0.12
334.50 0.1203
334.60 0.1206
334.70 0.1208
334.80 0.1211
334.90 0.1214
335.00 0.1217
335.10 0.1219
335.20 0.1222
335.30 0.1225
335.40 0.1228
335.50 0.1231
335.60 0.1233
335.70 0.1236
335.80 0.1239
335.90 0.1242
336.00 0.1244
336.10 0.1247
336.20 0.125
336.30 0.1253
336.40 0.1256
336.50 0.1259
336.60 0.1262
336.70 0.1264
336.80 0.1267
336.90 0.127
337.00 0.1273
337.10 0.1276
337.20 0.1279
337.30 0.1282
337.40 0.1285
337.50 0.1287
337.60 0.129
337.70 0.1293
337.80 0.1296
337.90 0.1299
338.00 0.1302
338.10 0.1305
338.20 0.1307
338.30 0.131
338.40 0.1313
338.50 0.1316
338.60 0.1319
338.70 0.1322
338.80 0.1325
338.90 0.1328
339.00 0.1331
339.10 0.1334
339.20 0.1337
339.30 0.134
339.40 0.1343
339.50 0.1346
339.60 0.1349
339.70 0.1352
339.80 0.1355
339.90 0.1357
340.00 0.136
340.10 0.1363
340.20 0.1366
340.30 0.1369
340.40 0.1373
340.50 0.1376
340.60 0.1379
340.70 0.1382
340.80 0.1385
340.90 0.1388
341.00 0.1391
341.10 0.1394
341.20 0.1397
341.30 0.14
341.40 0.1403
341.50 0.1406
341.60 0.1409
341.70 0.1412
341.80 0.1415
341.90 0.1418
342.00 0.1421
342.10 0.1424
342.20 0.1427
342.30 0.143
342.40 0.1433
342.50 0.1436
342.60 0.1439
342.70 0.1443
342.80 0.1446
342.90 0.1449
343.00 0.1452
343.10 0.1455
343.20 0.1458
343.30 0.1461
343.40 0.1464
343.50 0.1467
343.60 0.147
343.70 0.1473
343.80 0.1477
343.90 0.148
344.00 0.1483
344.10 0.1486
344.20 0.1489
344.30 0.1492
344.40 0.1496
344.50 0.1499
344.60 0.1502
344.70 0.1505
344.80 0.1508
344.90 0.1511
345.00 0.1515
345.10 0.1518
345.20 0.1521
345.30 0.1524
345.40 0.1527
345.50 0.153
345.60 0.1534
345.70 0.1537
345.80 0.154
345.90 0.1543
346.00 0.1546
346.10 0.1549
346.20 0.1553
346.30 0.1556
346.40 0.1559
346.50 0.1563
346.60 0.1566
346.70 0.1569
346.80 0.1572
346.90 0.1576
347.00 0.1579
347.10 0.1582
347.20 0.1585
347.30 0.1589
347.40 0.1592
347.50 0.1595
347.60 0.1598
347.70 0.1602
347.80 0.1605
347.90 0.1608
348.00 0.1611
348.10 0.1615
348.20 0.1618
348.30 0.1621
348.40 0.1625
348.50 0.1628
348.60 0.1631
348.70 0.1635
348.80 0.1638
348.90 0.1641
349.00 0.1645
349.10 0.1648
349.20 0.1651
349.30 0.1655
349.40 0.1658
349.50 0.1661
349.60 0.1665
349.70 0.1668
349.80 0.1671
349.90 0.1675
350.00 0.1678
350.10 0.1681
350.20 0.1685
350.30 0.1688
350.40 0.1692
350.50 0.1695
350.60 0.1699
350.70 0.1702
350.80 0.1705
350.90 0.1709
351.00 0.1712
351.10 0.1716
351.20 0.1719
351.30 0.1723
351.40 0.1726
351.50 0.1729
351.60 0.1733
351.70 0.1736
351.80 0.1739
351.90 0.1743
352.00 0.1746
352.10 0.175
352.20 0.1753
352.30 0.1757
352.40 0.176
352.50 0.1764
352.60 0.1767
352.70 0.1771
352.80 0.1774
352.90 0.1778
353.00 0.1781
353.10 0.1785
353.20 0.1788
353.30 0.1792
353.40 0.1795
353.50 0.1799
353.60 0.1802
353.70 0.1806
353.80 0.1809
353.90 0.1813
354.00 0.1816
354.10 0.182
354.20 0.1823
354.30 0.1827
354.40 0.1831
354.50 0.1834
354.60 0.1838
354.70 0.1841
354.80 0.1845
354.90 0.1848
355.00 0.1852
355.10 0.1856
355.20 0.1859
355.30 0.1863
355.40 0.1866
355.50 0.187
355.60 0.1873
355.70 0.1877
355.80 0.188
355.90 0.1884
356.00 0.1888
356.10 0.1891
356.20 0.1895
356.30 0.1899
356.40 0.1902
356.50 0.1906
356.60 0.191
356.70 0.1913
356.80 0.1917
356.90 0.1921
357.00 0.1924
357.10 0.1928
357.20 0.1932
357.30 0.1935
357.40 0.1939
357.50 0.1942
357.60 0.1946
357.70 0.195
357.80 0.1953
357.90 0.1957
358.00 0.196
358.10 0.1964
358.20 0.1968
358.30 0.1972
358.40 0.1976
358.50 0.1979
358.60 0.1983
358.70 0.1987
358.80 0.1991
358.90 0.1994
359.00 0.1998
359.10 0.2002
359.20 0.2005
359.30 0.2009
359.40 0.2013
359.50 0.2017
359.60 0.202
359.70 0.2024
359.80 0.2028
359.90 0.2031
360.00 0.2035
360.10 0.2039
360.20 0.2043
360.30 0.2047
360.40 0.205
360.50 0.2054
360.60 0.2058
360.70 0.2062
360.80 0.2066
360.90 0.2069
361.00 0.2073
361.10 0.2077
361.20 0.2081
361.30 0.2085
361.40 0.2088
361.50 0.2092
361.60 0.2096
361.70 0.21
361.80 0.2103
361.90 0.2107
362.00 0.2111
362.10 0.2115
362.20 0.2119
362.30 0.2123
362.40 0.2126
362.50 0.213
362.60 0.2134
362.70 0.2138
362.80 0.2142
362.90 0.2146
363.00 0.215
363.10 0.2154
363.20 0.2158
363.30 0.2161
363.40 0.2165
363.50 0.2169
363.60 0.2173
363.70 0.2177
363.80 0.2181
363.90 0.2185
364.00 0.2189
364.10 0.2193
364.20 0.2197
364.30 0.2201
364.40 0.2204
364.50 0.2208
364.60 0.2212
364.70 0.2216
364.80 0.222
364.90 0.2224
365.00 0.2228
365.10 0.2232
365.20 0.2236
365.30 0.224
365.40 0.2244
365.50 0.2248
365.60 0.2252
365.70 0.2256
365.80 0.226
365.90 0.2264
366.00 0.2268
366.10 0.2272
366.20 0.2276
366.30 0.228
366.40 0.2284
366.50 0.2288
366.60 0.2292
366.70 0.2296
366.80 0.23
366.90 0.2304
367.00 0.2308
367.10 0.2312
367.20 0.2316
367.30 0.232
367.40 0.2324
367.50 0.2328
367.60 0.2332
367.70 0.2336
367.80 0.234
367.90 0.2344
368.00 0.2348
368.10 0.2353
368.20 0.2357
368.30 0.2361
368.40 0.2365
368.50 0.2369
368.60 0.2373
368.70 0.2377
368.80 0.2382
368.90 0.2386
369.00 0.239
369.10 0.2394
369.20 0.2398
369.30 0.2402
369.40 0.2406
369.50 0.241
369.60 0.2414
369.70 0.2418
369.80 0.2422
369.90 0.2426
370.00 0.2431
370.10 0.2435
370.20 0.2439
370.30 0.2443
370.40 0.2447
370.50 0.2452
370.60 0.2456
370.70 0.246
370.80 0.2464
370.90 0.2468
371.00 0.2473
371.10 0.2477
371.20 0.2481
371.30 0.2485
371.40 0.2489
371.50 0.2494
371.60 0.2498
371.70 0.2502
371.80 0.2506
371.90 0.251
372.00 0.2514
372.10 0.2519
372.20 0.2523
372.30 0.2527
372.40 0.2531
372.50 0.2536
372.60 0.254
372.70 0.2544
372.80 0.2549
372.90 0.2553
373.00 0.2557
373.10 0.2561
373.20 0.2566
373.30 0.257
373.40 0.2574
373.50 0.2578
373.60 0.2583
373.70 0.2587
373.80 0.2591
373.90 0.2595
374.00 0.2599
374.10 0.2604
374.20 0.2608
374.30 0.2613
374.40 0.2617
374.50 0.2621
374.60 0.2626
374.70 0.263
374.80 0.2634
374.90 0.2639
375.00 0.2643
375.10 0.2647
375.20 0.2652
375.30 0.2656
375.40 0.266
375.50 0.2665
375.60 0.2669
375.70 0.2673
375.80 0.2677
375.90 0.2682
376.00 0.2686
376.10 0.269
376.20 0.2695
376.30 0.2699
376.40 0.2704
376.50 0.2708
376.60 0.2712
376.70 0.2717
376.80 0.2721
376.90 0.2725
377.00 0.273
377.10 0.2734
377.20 0.2739
377.30 0.2743
377.40 0.2748
377.50 0.2752
377.60 0.2756
377.70 0.2761
377.80 0.2765
377.90 0.277
378.00 0.2774
378.10 0.2779
378.20 0.2783
378.30 0.2788
378.40 0.2792
378.50 0.2796
378.60 0.2801
378.70 0.2805
378.80 0.281
378.90 0.2814
379.00 0.2819
379.10 0.2823
379.20 0.2828
379.30 0.2832
379.40 0.2837
379.50 0.2841
379.60 0.2846
379.70 0.285
379.80 0.2855
379.90 0.2859
380.00 0.2864
380.10 0.2868
380.20 0.2873
380.30 0.2877
380.40 0.2882
380.50 0.2886
380.60 0.2891
380.70 0.2895
380.80 0.29
380.90 0.2904
381.00 0.2909
381.10 0.2913
381.20 0.2918
381.30 0.2923
381.40 0.2927
381.50 0.2932
381.60 0.2936
381.70 0.2941
381.80 0.2945
381.90 0.295
382.00 0.2955
382.10 0.2959
382.20 0.2964
382.30 0.2968
382.40 0.2973
382.50 0.2978
382.60 0.2982
382.70 0.2987
382.80 0.2991
382.90 0.2996
383.00 0.3001
383.10 0.3005
383.20 0.301
383.30 0.3014
383.40 0.3019
383.50 0.3024
383.60 0.3028
383.70 0.3033
383.80 0.3038
383.90 0.3042
384.00 0.3047
384.10 0.3052
384.20 0.3056
384.30 0.3061
384.40 0.3066
384.50 0.307
384.60 0.3075
384.70 0.3079
384.80 0.3084
384.90 0.3089
385.00 0.3094
385.10 0.3098
385.20 0.3103
385.30 0.3108
385.40 0.3112
385.50 0.3117
385.60 0.3122
385.70 0.3126
385.80 0.3131
385.90 0.3136
386.00 0.3141
386.10 0.3145
386.20 0.315
386.30 0.3155
386.40 0.3159
386.50 0.3164
386.60 0.3169
386.70 0.3174
386.80 0.3178
386.90 0.3183
387.00 0.3188
387.10 0.3193
387.20 0.3197
387.30 0.3202
387.40 0.3207
387.50 0.3212
387.60 0.3217
387.70 0.3221
387.80 0.3226
387.90 0.3231
388.00 0.3236
388.10 0.324
388.20 0.3245
388.30 0.325
388.40 0.3255
388.50 0.326
388.60 0.3264
388.70 0.3269
388.80 0.3274
388.90 0.3279
389.00 0.3284
389.10 0.3289
389.20 0.3293
389.30 0.3298
389.40 0.3303
389.50 0.3308
389.60 0.3313
389.70 0.3318
389.80 0.3322
389.90 0.3327
390.00 0.3332
390.10 0.3337
390.20 0.3342
390.30 0.3347
390.40 0.3352
390.50 0.3356
390.60 0.3361
390.70 0.3366
390.80 0.3371
390.90 0.3376
391.00 0.3381
391.10 0.3386
391.20 0.3391
391.30 0.3396
391.40 0.34
391.50 0.3405
391.60 0.341
391.70 0.3415
391.80 0.342
391.90 0.3425
392.00 0.343
392.10 0.3435
392.20 0.344
392.30 0.3445
392.40 0.345
392.50 0.3454
392.60 0.3459
392.70 0.3464
392.80 0.3469
392.90 0.3474
393.00 0.3479
393.10 0.3484
393.20 0.3489
393.30 0.3494
393.40 0.3499
393.50 0.3504
393.60 0.3509
393.70 0.3514
393.80 0.3519
393.90 0.3524
394.00 0.3529
394.10 0.3534
394.20 0.3539
394.30 0.3544
394.40 0.3549
394.50 0.3554
394.60 0.3559
394.70 0.3564
394.80 0.3569
394.90 0.3574
395.00 0.3579
395.10 0.3584
395.20 0.3589
395.30 0.3594
395.40 0.3599
395.50 0.3604
395.60 0.3609
395.70 0.3614
395.80 0.3619
395.90 0.3624
396.00 0.3629
396.10 0.3634
396.20 0.3639
396.30 0.3645
396.40 0.365
396.50 0.3655
396.60 0.366
396.70 0.3665
396.80 0.367
396.90 0.3675
397.00 0.368
397.10 0.3685
397.20 0.369
397.30 0.3695
397.40 0.37
397.50 0.3705
397.60 0.3711
397.70 0.3716
397.80 0.3721
397.90 0.3726
398.00 0.3731
398.10 0.3736
398.20 0.3741
398.30 0.3746
398.40 0.3751
398.50 0.3757
398.60 0.3762
398.70 0.3767
398.80 0.3772
398.90 0.3777
399.00 0.3782
399.10 0.3787
399.20 0.3793
399.30 0.3798
399.40 0.3803
399.50 0.3808
399.60 0.3813
399.70 0.3818
399.80 0.3824
399.90 0.3829
400.00 0.3834
400.10 0.3839
400.20 0.3844
400.30 0.3849
400.40 0.3855
400.50 0.386
400.60 0.3865
400.70 0.387
400.80 0.3875
400.90 0.3881
401.00 0.3886
401.10 0.3891
401.20 0.3896
401.30 0.3901
401.40 0.3907
401.50 0.3912
401.60 0.3917
401.70 0.3922
401.80 0.3928
401.90 0.3933
402.00 0.3938
402.10 0.3943
402.20 0.3949
402.30 0.3954
402.40 0.3959
402.50 0.3964
402.60 0.3969
402.70 0.3975
402.80 0.398
402.90 0.3985
403.00 0.3991
403.10 0.3996
403.20 0.4001
403.30 0.4006
403.40 0.4012
403.50 0.4017
403.60 0.4022
403.70 0.4027
403.80 0.4033
403.90 0.4038
404.00 0.4043
404.10 0.4049
404.20 0.4054
404.30 0.4059
404.40 0.4065
404.50 0.407
404.60 0.4075
404.70 0.4081
404.80 0.4086
404.90 0.4091
405.00 0.4097
405.10 0.4102
405.20 0.4107
405.30 0.4112
405.40 0.4118
405.50 0.4123
405.60 0.4128
405.70 0.4134
405.80 0.4139
405.90 0.4145
406.00 0.415
406.10 0.4155
406.20 0.4161
406.30 0.4166
406.40 0.4171
406.50 0.4177
406.60 0.4182
406.70 0.4187
406.80 0.4193
406.90 0.4198
407.00 0.4204
407.10 0.4209
407.20 0.4214
407.30 0.422
407.40 0.4225
407.50 0.423
407.60 0.4236
407.70 0.4241
407.80 0.4247
407.90 0.4252
408.00 0.4258
408.10 0.4263
408.20 0.4268
408.30 0.4274
408.40 0.4279
408.50 0.4285
408.60 0.429
408.70 0.4296
408.80 0.4301
408.90 0.4306
409.00 0.4312
409.10 0.4317
409.20 0.4323
409.30 0.4328
409.40 0.4334
409.50 0.4339
409.60 0.4344
409.70 0.435
409.80 0.4355
409.90 0.4361
410.00 0.4366
410.10 0.4372
410.20 0.4377
410.30 0.4383
410.40 0.4388
410.50 0.4394
410.60 0.4399
410.70 0.4405
410.80 0.441
410.90 0.4416
411.00 0.4421
411.10 0.4427
411.20 0.4432
411.30 0.4438
411.40 0.4443
411.50 0.4449
411.60 0.4454
411.70 0.446
411.80 0.4465
411.90 0.4471
412.00 0.4476
412.10 0.4482
412.20 0.4487
412.30 0.4493
412.40 0.4498
412.50 0.4504
412.60 0.451
412.70 0.4515
412.80 0.4521
412.90 0.4526
413.00 0.4532
413.10 0.4537
413.20 0.4543
413.30 0.4548
413.40 0.4554
413.50 0.4559
413.60 0.4565
413.70 0.4571
413.80 0.4576
413.90 0.4582
414.00 0.4587
414.10 0.4593
414.20 0.4598
414.30 0.4604
414.40 0.461
414.50 0.4615
414.60 0.4621
414.70 0.4626
414.80 0.4632
414.90 0.4638
415.00 0.4643
415.10 0.4649
415.20 0.4654
415.30 0.466
415.40 0.4666
415.50 0.4671
415.60 0.4677
415.70 0.4683
415.80 0.4688
415.90 0.4694
416.00 0.4699
416.10 0.4705
416.20 0.4711
416.30 0.4716
416.40 0.4722
416.50 0.4728
416.60 0.4733
416.70 0.4739
416.80 0.4744
416.90 0.475
417.00 0.4756
417.10 0.4761
417.20 0.4767
417.30 0.4773
417.40 0.4778
417.50 0.4784
417.60 0.479
417.70 0.4795
417.80 0.4801
417.90 0.4807
418.00 0.4812
418.10 0.4818
418.20 0.4824
418.30 0.483
418.40 0.4835
418.50 0.4841
418.60 0.4847
418.70 0.4852
418.80 0.4858
418.90 0.4864
419.00 0.4869
419.10 0.4875
419.20 0.4881
419.30 0.4887
419.40 0.4892
419.50 0.4898
419.60 0.4904
419.70 0.4909
419.80 0.4915
419.90 0.4921
420.00 0.4927
420.10 0.4932
420.20 0.4938
420.30 0.4944
420.40 0.495
420.50 0.4955
420.60 0.4961
420.70 0.4967
420.80 0.4973
420.90 0.4978
421.00 0.4984
421.10 0.499
421.20 0.4996
421.30 0.5001
421.40 0.5007
421.50 0.5013
421.60 0.5019
421.70 0.5024
421.80 0.503
421.90 0.5036
422.00 0.5042
422.10 0.5048
422.20 0.5053
422.30 0.5059
422.40 0.5065
422.50 0.5071
422.60 0.5077
422.70 0.5082
422.80 0.5088
422.90 0.5094
423.00 0.51
423.10 0.5105
423.20 0.5111
423.30 0.5117
423.40 0.5123
423.50 0.5129
423.60 0.5135
423.70 0.514
423.80 0.5146
423.90 0.5152
424.00 0.5158
424.10 0.5164
424.20 0.5169
424.30 0.5175
424.40 0.5181
424.50 0.5187
424.60 0.5193
424.70 0.5199
424.80 0.5204
424.90 0.521
425.00 0.5216
425.10 0.5222
425.20 0.5228
425.30 0.5234
425.40 0.524
425.50 0.5246
425.60 0.5251
425.70 0.5257
425.80 0.5263
425.90 0.5269
426.00 0.5275
426.10 0.5281
426.20 0.5287
426.30 0.5292
426.40 0.5298
426.50 0.5304
426.60 0.531
426.70 0.5316
426.80 0.5322
426.90 0.5328
427.00 0.5334
427.10 0.534
427.20 0.5345
427.30 0.5351
427.40 0.5357
427.50 0.5363
427.60 0.5369
427.70 0.5375
427.80 0.5381
427.90 0.5387
428.00 0.5393
428.10 0.5399
428.20 0.5405
428.30 0.5411
428.40 0.5416
428.50 0.5422
428.60 0.5428
428.70 0.5434
428.80 0.544
428.90 0.5446
429.00 0.5452
429.10 0.5458
429.20 0.5464
429.30 0.547
429.40 0.5476
429.50 0.5482
429.60 0.5488
429.70 0.5494
429.80 0.55
429.90 0.5506
430.00 0.5512
430.10 0.5518
430.20 0.5523
430.30 0.5529
430.40 0.5535
430.50 0.5541
430.60 0.5547
430.70 0.5553
430.80 0.5559
430.90 0.5565
431.00 0.5571
431.10 0.5577
431.20 0.5583
431.30 0.5589
431.40 0.5595
431.50 0.5601
431.60 0.5607
431.70 0.5613
431.80 0.5619
431.90 0.5625
432.00 0.5631
432.10 0.5637
432.20 0.5643
432.30 0.5649
432.40 0.5655
432.50 0.5661
432.60 0.5667
432.70 0.5673
432.80 0.5679
432.90 0.5685
433.00 0.5691
433.10 0.5697
433.20 0.5703
433.30 0.5709
433.40 0.5715
433.50 0.5722
433.60 0.5728
433.70 0.5734
433.80 0.574
433.90 0.5746
434.00 0.5752
434.10 0.5758
434.20 0.5764
434.30 0.577
434.40 0.5776
434.50 0.5782
434.60 0.5788
434.70 0.5794
434.80 0.58
434.90 0.5806
435.00 0.5812
435.10 0.5818
435.20 0.5824
435.30 0.583
435.40 0.5836
435.50 0.5843
435.60 0.5849
435.70 0.5855
435.80 0.5861
435.90 0.5867
436.00 0.5873
436.10 0.5879
436.20 0.5885
436.30 0.5891
436.40 0.5897
436.50 0.5903
436.60 0.591
436.70 0.5916
436.80 0.5922
436.90 0.5928
437.00 0.5934
437.10 0.594
437.20 0.5946
437.30 0.5952
437.40 0.5958
437.50 0.5964
437.60 0.5971
437.70 0.5977
437.80 0.5983
437.90 0.5989
438.00 0.5995
438.10 0.6001
438.20 0.6007
438.30 0.6013
438.40 0.6019
438.50 0.6026
438.60 0.6032
438.70 0.6038
438.80 0.6044
438.90 0.605
439.00 0.6056
439.10 0.6062
439.20 0.6069
439.30 0.6075
439.40 0.6081
439.50 0.6087
439.60 0.6093
439.70 0.6099
439.80 0.6106
439.90 0.6112
440.00 0.6118
440.10 0.6124
440.20 0.613
440.30 0.6136
440.40 0.6142
440.50 0.6149
440.60 0.6155
440.70 0.6161
440.80 0.6167
440.90 0.6173
441.00 0.6179
