# Version 2.1 - nm, norm@500 to 1, cut digits, bergeron_5500_65.dat_5500
# Wavelength(nm)  Flambda(ergs/cm^s/s/nm)
300.00 0.5234
300.10 0.5239
300.20 0.5244
300.30 0.5249
300.40 0.5253
300.50 0.5258
300.60 0.5263
300.70 0.5268
300.80 0.5273
300.90 0.5278
301.00 0.5283
301.10 0.5288
301.20 0.5293
301.30 0.5298
301.40 0.5302
301.50 0.5307
301.60 0.5312
301.70 0.5317
301.80 0.5322
301.90 0.5327
302.00 0.5331
302.10 0.5336
302.20 0.5341
302.30 0.5346
302.40 0.5351
302.50 0.5356
302.60 0.5361
302.70 0.5366
302.80 0.5371
302.90 0.5375
303.00 0.538
303.10 0.5385
303.20 0.539
303.30 0.5395
303.40 0.54
303.50 0.5404
303.60 0.5409
303.70 0.5414
303.80 0.5419
303.90 0.5424
304.00 0.5429
304.10 0.5433
304.20 0.5438
304.30 0.5443
304.40 0.5448
304.50 0.5453
304.60 0.5458
304.70 0.5463
304.80 0.5467
304.90 0.5472
305.00 0.5477
305.10 0.5482
305.20 0.5487
305.30 0.5492
305.40 0.5496
305.50 0.5501
305.60 0.5506
305.70 0.5511
305.80 0.5516
305.90 0.552
306.00 0.5525
306.10 0.553
306.20 0.5535
306.30 0.554
306.40 0.5544
306.50 0.5549
306.60 0.5554
306.70 0.5559
306.80 0.5564
306.90 0.5569
307.00 0.5573
307.10 0.5578
307.20 0.5583
307.30 0.5588
307.40 0.5592
307.50 0.5597
307.60 0.5602
307.70 0.5607
307.80 0.5612
307.90 0.5616
308.00 0.5621
308.10 0.5626
308.20 0.5631
308.30 0.5635
308.40 0.564
308.50 0.5645
308.60 0.565
308.70 0.5655
308.80 0.5659
308.90 0.5664
309.00 0.5669
309.10 0.5674
309.20 0.5678
309.30 0.5683
309.40 0.5688
309.50 0.5693
309.60 0.5697
309.70 0.5702
309.80 0.5707
309.90 0.5712
310.00 0.5716
310.10 0.5721
310.20 0.5726
310.30 0.5731
310.40 0.5735
310.50 0.574
310.60 0.5745
310.70 0.575
310.80 0.5754
310.90 0.5759
311.00 0.5764
311.10 0.5769
311.20 0.5773
311.30 0.5778
311.40 0.5783
311.50 0.5787
311.60 0.5792
311.70 0.5797
311.80 0.5801
311.90 0.5806
312.00 0.5811
312.10 0.5815
312.20 0.582
312.30 0.5825
312.40 0.583
312.50 0.5834
312.60 0.5839
312.70 0.5844
312.80 0.5848
312.90 0.5853
313.00 0.5858
313.10 0.5863
313.20 0.5867
313.30 0.5872
313.40 0.5877
313.50 0.5881
313.60 0.5886
313.70 0.5891
313.80 0.5895
313.90 0.59
314.00 0.5905
314.10 0.5909
314.20 0.5914
314.30 0.5919
314.40 0.5923
314.50 0.5928
314.60 0.5933
314.70 0.5937
314.80 0.5942
314.90 0.5947
315.00 0.5951
315.10 0.5956
315.20 0.5961
315.30 0.5965
315.40 0.597
315.50 0.5975
315.60 0.5979
315.70 0.5984
315.80 0.5988
315.90 0.5993
316.00 0.5998
316.10 0.6002
316.20 0.6007
316.30 0.6012
316.40 0.6016
316.50 0.6021
316.60 0.6025
316.70 0.603
316.80 0.6035
316.90 0.6039
317.00 0.6044
317.10 0.6049
317.20 0.6053
317.30 0.6058
317.40 0.6062
317.50 0.6067
317.60 0.6071
317.70 0.6076
317.80 0.608
317.90 0.6085
318.00 0.609
318.10 0.6094
318.20 0.6099
318.30 0.6103
318.40 0.6108
318.50 0.6113
318.60 0.6117
318.70 0.6122
318.80 0.6126
318.90 0.6131
319.00 0.6136
319.10 0.614
319.20 0.6145
319.30 0.6149
319.40 0.6154
319.50 0.6158
319.60 0.6163
319.70 0.6167
319.80 0.6172
319.90 0.6177
320.00 0.6181
320.10 0.6186
320.20 0.619
320.30 0.6195
320.40 0.6199
320.50 0.6204
320.60 0.6208
320.70 0.6213
320.80 0.6218
320.90 0.6222
321.00 0.6227
321.10 0.6231
321.20 0.6236
321.30 0.624
321.40 0.6245
321.50 0.6249
321.60 0.6254
321.70 0.6258
321.80 0.6263
321.90 0.6267
322.00 0.6272
322.10 0.6276
322.20 0.6281
322.30 0.6285
322.40 0.629
322.50 0.6294
322.60 0.6299
322.70 0.6303
322.80 0.6308
322.90 0.6312
323.00 0.6317
323.10 0.6321
323.20 0.6326
323.30 0.633
323.40 0.6334
323.50 0.6339
323.60 0.6343
323.70 0.6348
323.80 0.6352
323.90 0.6357
324.00 0.6361
324.10 0.6366
324.20 0.637
324.30 0.6375
324.40 0.6379
324.50 0.6384
324.60 0.6388
324.70 0.6392
324.80 0.6397
324.90 0.6401
325.00 0.6406
325.10 0.641
325.20 0.6415
325.30 0.6419
325.40 0.6424
325.50 0.6428
325.60 0.6432
325.70 0.6437
325.80 0.6441
325.90 0.6446
326.00 0.645
326.10 0.6455
326.20 0.6459
326.30 0.6463
326.40 0.6468
326.50 0.6472
326.60 0.6477
326.70 0.6481
326.80 0.6485
326.90 0.649
327.00 0.6494
327.10 0.6499
327.20 0.6503
327.30 0.6507
327.40 0.6512
327.50 0.6516
327.60 0.652
327.70 0.6525
327.80 0.6529
327.90 0.6533
328.00 0.6538
328.10 0.6542
328.20 0.6546
328.30 0.6551
328.40 0.6555
328.50 0.6559
328.60 0.6564
328.70 0.6568
328.80 0.6573
328.90 0.6577
329.00 0.6581
329.10 0.6586
329.20 0.659
329.30 0.6594
329.40 0.6598
329.50 0.6603
329.60 0.6607
329.70 0.6611
329.80 0.6616
329.90 0.662
330.00 0.6624
330.10 0.6629
330.20 0.6633
330.30 0.6637
330.40 0.6642
330.50 0.6646
330.60 0.665
330.70 0.6655
330.80 0.6659
330.90 0.6663
331.00 0.6668
331.10 0.6672
331.20 0.6676
331.30 0.6681
331.40 0.6685
331.50 0.6689
331.60 0.6693
331.70 0.6698
331.80 0.6702
331.90 0.6706
332.00 0.671
332.10 0.6715
332.20 0.6719
332.30 0.6723
332.40 0.6728
332.50 0.6732
332.60 0.6736
332.70 0.674
332.80 0.6745
332.90 0.6749
333.00 0.6753
333.10 0.6757
333.20 0.6762
333.30 0.6766
333.40 0.677
333.50 0.6774
333.60 0.6778
333.70 0.6783
333.80 0.6787
333.90 0.6791
334.00 0.6795
334.10 0.6799
334.20 0.6804
334.30 0.6808
334.40 0.6812
334.50 0.6816
334.60 0.6821
334.70 0.6825
334.80 0.6829
334.90 0.6833
335.00 0.6837
335.10 0.6842
335.20 0.6846
335.30 0.685
335.40 0.6854
335.50 0.6858
335.60 0.6862
335.70 0.6867
335.80 0.6871
335.90 0.6875
336.00 0.6879
336.10 0.6883
336.20 0.6887
336.30 0.6892
336.40 0.6896
336.50 0.69
336.60 0.6904
336.70 0.6908
336.80 0.6912
336.90 0.6916
337.00 0.6921
337.10 0.6925
337.20 0.6929
337.30 0.6933
337.40 0.6937
337.50 0.6941
337.60 0.6945
337.70 0.6949
337.80 0.6953
337.90 0.6957
338.00 0.6961
338.10 0.6966
338.20 0.697
338.30 0.6974
338.40 0.6978
338.50 0.6982
338.60 0.6986
338.70 0.699
338.80 0.6994
338.90 0.6998
339.00 0.7003
339.10 0.7007
339.20 0.7011
339.30 0.7015
339.40 0.7019
339.50 0.7023
339.60 0.7027
339.70 0.7031
339.80 0.7035
339.90 0.7039
340.00 0.7043
340.10 0.7047
340.20 0.7051
340.30 0.7055
340.40 0.7059
340.50 0.7063
340.60 0.7068
340.70 0.7072
340.80 0.7076
340.90 0.708
341.00 0.7084
341.10 0.7088
341.20 0.7092
341.30 0.7096
341.40 0.71
341.50 0.7104
341.60 0.7108
341.70 0.7112
341.80 0.7116
341.90 0.712
342.00 0.7124
342.10 0.7128
342.20 0.7132
342.30 0.7136
342.40 0.714
342.50 0.7144
342.60 0.7148
342.70 0.7152
342.80 0.7156
342.90 0.716
343.00 0.7164
343.10 0.7168
343.20 0.7172
343.30 0.7176
343.40 0.718
343.50 0.7184
343.60 0.7187
343.70 0.7191
343.80 0.7195
343.90 0.7199
344.00 0.7203
344.10 0.7207
344.20 0.7211
344.30 0.7215
344.40 0.7219
344.50 0.7223
344.60 0.7227
344.70 0.7231
344.80 0.7235
344.90 0.7239
345.00 0.7243
345.10 0.7246
345.20 0.725
345.30 0.7254
345.40 0.7258
345.50 0.7262
345.60 0.7266
345.70 0.727
345.80 0.7274
345.90 0.7277
346.00 0.7281
346.10 0.7285
346.20 0.7289
346.30 0.7293
346.40 0.7297
346.50 0.7301
346.60 0.7305
346.70 0.7309
346.80 0.7312
346.90 0.7316
347.00 0.732
347.10 0.7324
347.20 0.7328
347.30 0.7332
347.40 0.7336
347.50 0.7339
347.60 0.7343
347.70 0.7347
347.80 0.7351
347.90 0.7355
348.00 0.7359
348.10 0.7362
348.20 0.7366
348.30 0.737
348.40 0.7374
348.50 0.7378
348.60 0.7382
348.70 0.7385
348.80 0.7389
348.90 0.7393
349.00 0.7397
349.10 0.7401
349.20 0.7404
349.30 0.7408
349.40 0.7412
349.50 0.7416
349.60 0.742
349.70 0.7423
349.80 0.7427
349.90 0.7431
350.00 0.7435
350.10 0.7438
350.20 0.7442
350.30 0.7446
350.40 0.745
350.50 0.7454
350.60 0.7457
350.70 0.7461
350.80 0.7465
350.90 0.7469
351.00 0.7472
351.10 0.7476
351.20 0.748
351.30 0.7483
351.40 0.7487
351.50 0.7491
351.60 0.7495
351.70 0.7498
351.80 0.7502
351.90 0.7506
352.00 0.7509
352.10 0.7513
352.20 0.7517
352.30 0.7521
352.40 0.7524
352.50 0.7528
352.60 0.7532
352.70 0.7536
352.80 0.7539
352.90 0.7543
353.00 0.7547
353.10 0.755
353.20 0.7554
353.30 0.7558
353.40 0.7561
353.50 0.7565
353.60 0.7569
353.70 0.7573
353.80 0.7576
353.90 0.758
354.00 0.7583
354.10 0.7587
354.20 0.7591
354.30 0.7594
354.40 0.7598
354.50 0.7602
354.60 0.7605
354.70 0.7609
354.80 0.7613
354.90 0.7616
355.00 0.762
355.10 0.7624
355.20 0.7627
355.30 0.7631
355.40 0.7634
355.50 0.7638
355.60 0.7642
355.70 0.7645
355.80 0.7649
355.90 0.7652
356.00 0.7656
356.10 0.7659
356.20 0.7663
356.30 0.7667
356.40 0.767
356.50 0.7674
356.60 0.7677
356.70 0.7681
356.80 0.7685
356.90 0.7688
357.00 0.7692
357.10 0.7695
357.20 0.7699
357.30 0.7702
357.40 0.7706
357.50 0.771
357.60 0.7713
357.70 0.7717
357.80 0.772
357.90 0.7724
358.00 0.7727
358.10 0.7731
358.20 0.7734
358.30 0.7738
358.40 0.7741
358.50 0.7745
358.60 0.7749
358.70 0.7752
358.80 0.7756
358.90 0.7759
359.00 0.7763
359.10 0.7766
359.20 0.777
359.30 0.7773
359.40 0.7777
359.50 0.778
359.60 0.7784
359.70 0.7787
359.80 0.7791
359.90 0.7794
360.00 0.7798
360.10 0.7801
360.20 0.7805
360.30 0.7808
360.40 0.7812
360.50 0.7815
360.60 0.7819
360.70 0.7822
360.80 0.7826
360.90 0.7829
361.00 0.7832
361.10 0.7836
361.20 0.7839
361.30 0.7843
361.40 0.7846
361.50 0.785
361.60 0.7853
361.70 0.7857
361.80 0.786
361.90 0.7863
362.00 0.7867
362.10 0.787
362.20 0.7874
362.30 0.7877
362.40 0.788
362.50 0.7884
362.60 0.7887
362.70 0.789
362.80 0.7894
362.90 0.7897
363.00 0.79
363.10 0.7904
363.20 0.7907
363.30 0.7911
363.40 0.7914
363.50 0.7917
363.60 0.7921
363.70 0.7924
363.80 0.7928
363.90 0.7931
364.00 0.7934
364.10 0.7938
364.20 0.7941
364.30 0.7944
364.40 0.7948
364.50 0.7951
364.60 0.7955
364.70 0.7958
364.80 0.7961
364.90 0.7964
365.00 0.7968
365.10 0.7971
365.20 0.7974
365.30 0.7978
365.40 0.7981
365.50 0.7984
365.60 0.7988
365.70 0.7991
365.80 0.7994
365.90 0.7997
366.00 0.8001
366.10 0.8004
366.20 0.8007
366.30 0.8011
366.40 0.8014
366.50 0.8017
366.60 0.802
366.70 0.8024
366.80 0.8027
366.90 0.803
367.00 0.8034
367.10 0.8037
367.20 0.804
367.30 0.8043
367.40 0.8047
367.50 0.805
367.60 0.8053
367.70 0.8056
367.80 0.806
367.90 0.8063
368.00 0.8066
368.10 0.8069
368.20 0.8073
368.30 0.8076
368.40 0.8079
368.50 0.8082
368.60 0.8086
368.70 0.8089
368.80 0.8092
368.90 0.8095
369.00 0.8098
369.10 0.8102
369.20 0.8105
369.30 0.8108
369.40 0.8111
369.50 0.8115
369.60 0.8118
369.70 0.8121
369.80 0.8124
369.90 0.8127
370.00 0.813
370.10 0.8134
370.20 0.8137
370.30 0.814
370.40 0.8143
370.50 0.8147
370.60 0.815
370.70 0.8153
370.80 0.8156
370.90 0.816
371.00 0.8163
371.10 0.8166
371.20 0.8169
371.30 0.8172
371.40 0.8176
371.50 0.8179
371.60 0.8182
371.70 0.8185
371.80 0.8188
371.90 0.8192
372.00 0.8195
372.10 0.8198
372.20 0.8202
372.30 0.8205
372.40 0.8208
372.50 0.8212
372.60 0.8215
372.70 0.8218
372.80 0.8222
372.90 0.8225
373.00 0.8229
373.10 0.8232
373.20 0.8235
373.30 0.8239
373.40 0.8242
373.50 0.8245
373.60 0.8249
373.70 0.8252
373.80 0.8255
373.90 0.8259
374.00 0.8262
374.10 0.8265
374.20 0.8269
374.30 0.8273
374.40 0.8276
374.50 0.828
374.60 0.8283
374.70 0.8287
374.80 0.829
374.90 0.8294
375.00 0.8297
375.10 0.8301
375.20 0.8304
375.30 0.8308
375.40 0.8311
375.50 0.8315
375.60 0.8318
375.70 0.8322
375.80 0.8325
375.90 0.8329
376.00 0.8332
376.10 0.8336
376.20 0.8339
376.30 0.8343
376.40 0.8346
376.50 0.835
376.60 0.8353
376.70 0.8357
376.80 0.836
376.90 0.8364
377.00 0.8367
377.10 0.837
377.20 0.8374
377.30 0.8377
377.40 0.838
377.50 0.8384
377.60 0.8387
377.70 0.8391
377.80 0.8394
377.90 0.8397
378.00 0.8401
378.10 0.8403
378.20 0.8406
378.30 0.8409
378.40 0.8412
378.50 0.8415
378.60 0.8417
378.70 0.842
378.80 0.8423
378.90 0.8426
379.00 0.8429
379.10 0.8425
379.20 0.8422
379.30 0.8418
379.40 0.8415
379.50 0.8412
379.60 0.8408
379.70 0.8405
379.80 0.8401
379.90 0.8398
380.00 0.8395
380.10 0.8405
380.20 0.8415
380.30 0.8426
380.40 0.8436
380.50 0.8446
380.60 0.8456
380.70 0.8466
380.80 0.8477
380.90 0.8487
381.00 0.8497
381.10 0.85
381.20 0.8504
381.30 0.8507
381.40 0.851
381.50 0.8514
381.60 0.8517
381.70 0.852
381.80 0.8523
381.90 0.8526
382.00 0.8529
382.10 0.8532
382.20 0.8535
382.30 0.8532
382.40 0.853
382.50 0.8527
382.60 0.8525
382.70 0.8522
382.80 0.852
382.90 0.8517
383.00 0.8515
383.10 0.8512
383.20 0.851
383.30 0.8467
383.40 0.8365
383.50 0.8102
383.60 0.8185
383.70 0.8406
383.80 0.8496
383.90 0.8537
384.00 0.856
384.10 0.8573
384.20 0.8583
384.30 0.859
384.40 0.8596
384.50 0.86
384.60 0.8605
384.70 0.8608
384.80 0.8612
384.90 0.8616
385.00 0.8619
385.10 0.8622
385.20 0.8625
385.30 0.8629
385.40 0.8632
385.50 0.8635
385.60 0.8638
385.70 0.8641
385.80 0.8644
385.90 0.8646
386.00 0.8649
386.10 0.8652
386.20 0.8655
386.30 0.8658
386.40 0.8661
386.50 0.8664
386.60 0.8666
386.70 0.8669
386.80 0.8672
386.90 0.8674
387.00 0.8677
387.10 0.8679
387.20 0.8682
387.30 0.8684
387.40 0.8687
387.50 0.8689
387.60 0.8691
387.70 0.8693
387.80 0.8694
387.90 0.8695
388.00 0.8696
388.10 0.8695
388.20 0.8693
388.30 0.8689
388.40 0.8677
388.50 0.8655
388.60 0.8621
388.70 0.8498
388.80 0.8163
388.90 0.7617
389.00 0.8152
389.10 0.849
389.20 0.8631
389.30 0.8673
389.40 0.8703
389.50 0.8721
389.60 0.873
389.70 0.8738
389.80 0.8745
389.90 0.875
390.00 0.8754
390.10 0.8758
390.20 0.8762
390.30 0.8765
390.40 0.8768
390.50 0.8771
390.60 0.8774
390.70 0.8778
390.80 0.878
390.90 0.8783
391.00 0.8786
391.10 0.8789
391.20 0.8792
391.30 0.8794
391.40 0.8797
391.50 0.88
391.60 0.8803
391.70 0.8805
391.80 0.8808
391.90 0.8811
392.00 0.8813
392.10 0.8816
392.20 0.8818
392.30 0.8821
392.40 0.8824
392.50 0.8826
392.60 0.8829
392.70 0.8831
392.80 0.8834
392.90 0.8837
393.00 0.8839
393.10 0.8842
393.20 0.8844
393.30 0.8847
393.40 0.8849
393.50 0.8852
393.60 0.8854
393.70 0.8857
393.80 0.8859
393.90 0.8861
394.00 0.8864
394.10 0.8866
394.20 0.8869
394.30 0.8871
394.40 0.8874
394.50 0.8876
394.60 0.8878
394.70 0.8881
394.80 0.8883
394.90 0.8885
395.00 0.8887
395.10 0.8889
395.20 0.8892
395.30 0.8894
395.40 0.8896
395.50 0.8898
395.60 0.8899
395.70 0.8901
395.80 0.8902
395.90 0.8902
396.00 0.8902
396.10 0.8902
396.20 0.8899
396.30 0.8895
396.40 0.8888
396.50 0.8871
396.60 0.8839
396.70 0.879
396.80 0.8611
396.90 0.8044
397.00 0.709
397.10 0.8013
397.20 0.8581
397.30 0.8793
397.40 0.8851
397.50 0.8892
397.60 0.8915
397.70 0.8927
397.80 0.8937
397.90 0.8945
398.00 0.895
398.10 0.8955
398.20 0.896
398.30 0.8963
398.40 0.8967
398.50 0.897
398.60 0.8973
398.70 0.8976
398.80 0.8979
398.90 0.8982
399.00 0.8984
399.10 0.8987
399.20 0.8989
399.30 0.8992
399.40 0.8995
399.50 0.8997
399.60 0.9
399.70 0.9002
399.80 0.9004
399.90 0.9007
400.00 0.9009
400.10 0.9011
400.20 0.9014
400.30 0.9016
400.40 0.9019
400.50 0.9021
400.60 0.9023
400.70 0.9026
400.80 0.9028
400.90 0.903
401.00 0.9033
401.10 0.9035
401.20 0.9037
401.30 0.904
401.40 0.9042
401.50 0.9044
401.60 0.9046
401.70 0.9049
401.80 0.9051
401.90 0.9053
402.00 0.9056
402.10 0.9058
402.20 0.906
402.30 0.9062
402.40 0.9065
402.50 0.9067
402.60 0.9069
402.70 0.9071
402.80 0.9073
402.90 0.9076
403.00 0.9078
403.10 0.908
403.20 0.9082
403.30 0.9085
403.40 0.9087
403.50 0.9089
403.60 0.9091
403.70 0.9093
403.80 0.9096
403.90 0.9098
404.00 0.91
404.10 0.9102
404.20 0.9104
404.30 0.9106
404.40 0.9108
404.50 0.9111
404.60 0.9113
404.70 0.9115
404.80 0.9117
404.90 0.9119
405.00 0.9121
405.10 0.9123
405.20 0.9126
405.30 0.9128
405.40 0.913
405.50 0.9132
405.60 0.9134
405.70 0.9136
405.80 0.9138
405.90 0.914
406.00 0.9142
406.10 0.9144
406.20 0.9147
406.30 0.9149
406.40 0.9151
406.50 0.9153
406.60 0.9155
406.70 0.9157
406.80 0.9159
406.90 0.9161
407.00 0.9163
407.10 0.9165
407.20 0.9167
407.30 0.9169
407.40 0.9171
407.50 0.9173
407.60 0.9174
407.70 0.9176
407.80 0.9178
407.90 0.918
408.00 0.9182
408.10 0.9183
408.20 0.9185
408.30 0.9186
408.40 0.9188
408.50 0.9189
408.60 0.9191
408.70 0.9192
408.80 0.9192
408.90 0.9193
409.00 0.9193
409.10 0.9192
409.20 0.919
409.30 0.9187
409.40 0.9182
409.50 0.9173
409.60 0.916
409.70 0.913
409.80 0.9072
409.90 0.8986
410.00 0.8624
410.10 0.7917
410.20 0.6867
410.30 0.8124
410.40 0.8857
410.50 0.9065
410.60 0.9125
410.70 0.9169
410.80 0.9194
410.90 0.9208
411.00 0.9218
411.10 0.9227
411.20 0.9232
411.30 0.9238
411.40 0.9242
411.50 0.9246
411.60 0.9249
411.70 0.9252
411.80 0.9255
411.90 0.9258
412.00 0.9261
412.10 0.9263
412.20 0.9265
412.30 0.9267
412.40 0.927
412.50 0.9272
412.60 0.9274
412.70 0.9276
412.80 0.9279
412.90 0.9281
413.00 0.9283
413.10 0.9285
413.20 0.9287
413.30 0.9289
413.40 0.9291
413.50 0.9293
413.60 0.9295
413.70 0.9297
413.80 0.9299
413.90 0.9301
414.00 0.9303
414.10 0.9305
414.20 0.9307
414.30 0.9308
414.40 0.931
414.50 0.9312
414.60 0.9314
414.70 0.9316
414.80 0.9318
414.90 0.932
415.00 0.9322
415.10 0.9324
415.20 0.9326
415.30 0.9328
415.40 0.9329
415.50 0.9331
415.60 0.9333
415.70 0.9335
415.80 0.9337
415.90 0.9339
416.00 0.9341
416.10 0.9342
416.20 0.9344
416.30 0.9346
416.40 0.9348
416.50 0.935
416.60 0.9352
416.70 0.9353
416.80 0.9355
416.90 0.9357
417.00 0.9359
417.10 0.9361
417.20 0.9362
417.30 0.9364
417.40 0.9366
417.50 0.9368
417.60 0.937
417.70 0.9371
417.80 0.9373
417.90 0.9375
418.00 0.9377
418.10 0.9379
418.20 0.938
418.30 0.9382
418.40 0.9384
418.50 0.9386
418.60 0.9387
418.70 0.9389
418.80 0.9391
418.90 0.9393
419.00 0.9394
419.10 0.9396
419.20 0.9398
419.30 0.94
419.40 0.9401
419.50 0.9403
419.60 0.9405
419.70 0.9406
419.80 0.9408
419.90 0.941
420.00 0.9412
420.10 0.9413
420.20 0.9415
420.30 0.9417
420.40 0.9419
420.50 0.942
420.60 0.9422
420.70 0.9424
420.80 0.9425
420.90 0.9427
421.00 0.9429
421.10 0.943
421.20 0.9432
421.30 0.9434
421.40 0.9435
421.50 0.9437
421.60 0.9439
421.70 0.944
421.80 0.9442
421.90 0.9444
422.00 0.9445
422.10 0.9447
422.20 0.9449
422.30 0.945
422.40 0.9452
422.50 0.9454
422.60 0.9455
422.70 0.9457
422.80 0.9459
422.90 0.946
423.00 0.9462
423.10 0.9464
423.20 0.9465
423.30 0.9467
423.40 0.9468
423.50 0.947
423.60 0.9471
423.70 0.9473
423.80 0.9475
423.90 0.9476
424.00 0.9478
424.10 0.948
424.20 0.9481
424.30 0.9483
424.40 0.9484
424.50 0.9486
424.60 0.9488
424.70 0.9489
424.80 0.9491
424.90 0.9492
425.00 0.9494
425.10 0.9495
425.20 0.9497
425.30 0.9498
425.40 0.95
425.50 0.9502
425.60 0.9503
425.70 0.9505
425.80 0.9506
425.90 0.9508
426.00 0.9509
426.10 0.9511
426.20 0.9512
426.30 0.9514
426.40 0.9515
426.50 0.9517
426.60 0.9518
426.70 0.952
426.80 0.9521
426.90 0.9523
427.00 0.9524
427.10 0.9526
427.20 0.9527
427.30 0.9529
427.40 0.953
427.50 0.9532
427.60 0.9533
427.70 0.9535
427.80 0.9536
427.90 0.9538
428.00 0.9539
428.10 0.9541
428.20 0.9542
428.30 0.9543
428.40 0.9545
428.50 0.9546
428.60 0.9548
428.70 0.9549
428.80 0.9551
428.90 0.9552
429.00 0.9554
429.10 0.9555
429.20 0.9556
429.30 0.9558
429.40 0.9559
429.50 0.956
429.60 0.9562
429.70 0.9563
429.80 0.9565
429.90 0.9566
430.00 0.9567
430.10 0.9569
430.20 0.957
430.30 0.9571
430.40 0.9573
430.50 0.9574
430.60 0.9575
430.70 0.9576
430.80 0.9578
430.90 0.9579
431.00 0.958
431.10 0.9581
431.20 0.9582
431.30 0.9584
431.40 0.9585
431.50 0.9586
431.60 0.9587
431.70 0.9588
431.80 0.9589
431.90 0.9589
432.00 0.959
432.10 0.9591
432.20 0.9591
432.30 0.9592
432.40 0.9592
432.50 0.9592
432.60 0.9591
432.70 0.959
432.80 0.9589
432.90 0.9587
433.00 0.9584
433.10 0.9578
433.20 0.9571
433.30 0.9561
433.40 0.9542
433.50 0.9513
433.60 0.9473
433.70 0.9368
433.80 0.9122
433.90 0.8733
434.00 0.6522
434.10 0.6545
434.20 0.8798
434.30 0.9159
434.40 0.9389
434.50 0.949
434.60 0.9531
434.70 0.9562
434.80 0.9583
434.90 0.9595
435.00 0.9605
435.10 0.9612
435.20 0.9618
435.30 0.9623
435.40 0.9627
435.50 0.963
435.60 0.9633
435.70 0.9636
435.80 0.9638
435.90 0.9641
436.00 0.9643
436.10 0.9645
436.20 0.9647
436.30 0.9649
436.40 0.965
436.50 0.9652
436.60 0.9654
436.70 0.9655
436.80 0.9657
436.90 0.9659
437.00 0.966
437.10 0.9661
437.20 0.9663
437.30 0.9664
437.40 0.9666
437.50 0.9667
437.60 0.9668
437.70 0.967
437.80 0.9671
437.90 0.9672
438.00 0.9674
438.10 0.9675
438.20 0.9676
438.30 0.9678
438.40 0.9679
438.50 0.968
438.60 0.9682
438.70 0.9683
438.80 0.9684
438.90 0.9685
439.00 0.9687
439.10 0.9688
439.20 0.9689
439.30 0.969
439.40 0.9692
439.50 0.9693
439.60 0.9694
439.70 0.9695
439.80 0.9696
439.90 0.9698
440.00 0.9699
440.10 0.97
440.20 0.9701
440.30 0.9702
440.40 0.9704
440.50 0.9705
440.60 0.9706
440.70 0.9707
440.80 0.9708
440.90 0.971
441.00 0.9711
441.10 0.9712
441.20 0.9713
441.30 0.9714
441.40 0.9715
441.50 0.9717
441.60 0.9718
441.70 0.9719
441.80 0.972
441.90 0.9721
442.00 0.9722
442.10 0.9724
442.20 0.9725
442.30 0.9726
442.40 0.9727
442.50 0.9728
442.60 0.9729
442.70 0.973
442.80 0.9731
442.90 0.9733
443.00 0.9734
