# Version 2.1 - nm, norm@500 to 1, cut digits, bergeron_40000_75.dat_40000
# Wavelength(nm)  Flambda(ergs/cm^s/s/nm)
300.00 5.83
300.10 5.823
300.20 5.816
300.30 5.809
300.40 5.802
300.50 5.795
300.60 5.789
300.70 5.782
300.80 5.775
300.90 5.768
301.00 5.761
301.10 5.754
301.20 5.748
301.30 5.741
301.40 5.734
301.50 5.727
301.60 5.721
301.70 5.714
301.80 5.707
301.90 5.701
302.00 5.694
302.10 5.687
302.20 5.68
302.30 5.674
302.40 5.667
302.50 5.661
302.60 5.654
302.70 5.647
302.80 5.641
302.90 5.634
303.00 5.627
303.10 5.621
303.20 5.614
303.30 5.608
303.40 5.601
303.50 5.595
303.60 5.588
303.70 5.582
303.80 5.575
303.90 5.568
304.00 5.562
304.10 5.555
304.20 5.549
304.30 5.543
304.40 5.536
304.50 5.53
304.60 5.523
304.70 5.517
304.80 5.51
304.90 5.504
305.00 5.497
305.10 5.491
305.20 5.485
305.30 5.478
305.40 5.472
305.50 5.466
305.60 5.459
305.70 5.453
305.80 5.447
305.90 5.44
306.00 5.434
306.10 5.428
306.20 5.421
306.30 5.415
306.40 5.409
306.50 5.403
306.60 5.396
306.70 5.39
306.80 5.384
306.90 5.378
307.00 5.371
307.10 5.365
307.20 5.359
307.30 5.353
307.40 5.346
307.50 5.34
307.60 5.334
307.70 5.328
307.80 5.322
307.90 5.316
308.00 5.31
308.10 5.303
308.20 5.297
308.30 5.291
308.40 5.285
308.50 5.279
308.60 5.273
308.70 5.267
308.80 5.261
308.90 5.255
309.00 5.249
309.10 5.243
309.20 5.237
309.30 5.231
309.40 5.225
309.50 5.219
309.60 5.213
309.70 5.207
309.80 5.201
309.90 5.195
310.00 5.189
310.10 5.183
310.20 5.177
310.30 5.171
310.40 5.165
310.50 5.159
310.60 5.153
310.70 5.147
310.80 5.141
310.90 5.136
311.00 5.13
311.10 5.124
311.20 5.118
311.30 5.112
311.40 5.106
311.50 5.1
311.60 5.095
311.70 5.089
311.80 5.083
311.90 5.077
312.00 5.071
312.10 5.066
312.20 5.06
312.30 5.054
312.40 5.048
312.50 5.043
312.60 5.037
312.70 5.031
312.80 5.025
312.90 5.02
313.00 5.014
313.10 5.008
313.20 5.003
313.30 4.997
313.40 4.991
313.50 4.986
313.60 4.98
313.70 4.974
313.80 4.969
313.90 4.963
314.00 4.957
314.10 4.952
314.20 4.946
314.30 4.94
314.40 4.935
314.50 4.929
314.60 4.924
314.70 4.918
314.80 4.913
314.90 4.907
315.00 4.901
315.10 4.896
315.20 4.89
315.30 4.885
315.40 4.879
315.50 4.874
315.60 4.868
315.70 4.863
315.80 4.857
315.90 4.852
316.00 4.846
316.10 4.841
316.20 4.836
316.30 4.83
316.40 4.825
316.50 4.819
316.60 4.814
316.70 4.808
316.80 4.803
316.90 4.798
317.00 4.792
317.10 4.787
317.20 4.781
317.30 4.776
317.40 4.771
317.50 4.765
317.60 4.76
317.70 4.755
317.80 4.749
317.90 4.744
318.00 4.739
318.10 4.733
318.20 4.728
318.30 4.723
318.40 4.717
318.50 4.712
318.60 4.707
318.70 4.702
318.80 4.696
318.90 4.691
319.00 4.686
319.10 4.681
319.20 4.675
319.30 4.67
319.40 4.665
319.50 4.66
319.60 4.655
319.70 4.649
319.80 4.644
319.90 4.639
320.00 4.634
320.10 4.629
320.20 4.624
320.30 4.618
320.40 4.613
320.50 4.608
320.60 4.603
320.70 4.598
320.80 4.593
320.90 4.588
321.00 4.583
321.10 4.577
321.20 4.572
321.30 4.567
321.40 4.562
321.50 4.557
321.60 4.552
321.70 4.547
321.80 4.542
321.90 4.537
322.00 4.532
322.10 4.527
322.20 4.522
322.30 4.517
322.40 4.512
322.50 4.507
322.60 4.502
322.70 4.497
322.80 4.492
322.90 4.487
323.00 4.482
323.10 4.477
323.20 4.472
323.30 4.467
323.40 4.462
323.50 4.457
323.60 4.452
323.70 4.448
323.80 4.443
323.90 4.438
324.00 4.433
324.10 4.428
324.20 4.423
324.30 4.418
324.40 4.413
324.50 4.409
324.60 4.404
324.70 4.399
324.80 4.394
324.90 4.389
325.00 4.384
325.10 4.38
325.20 4.375
325.30 4.37
325.40 4.365
325.50 4.36
325.60 4.356
325.70 4.351
325.80 4.346
325.90 4.341
326.00 4.337
326.10 4.332
326.20 4.327
326.30 4.322
326.40 4.318
326.50 4.313
326.60 4.308
326.70 4.303
326.80 4.299
326.90 4.294
327.00 4.289
327.10 4.285
327.20 4.28
327.30 4.275
327.40 4.271
327.50 4.266
327.60 4.261
327.70 4.257
327.80 4.252
327.90 4.247
328.00 4.243
328.10 4.238
328.20 4.234
328.30 4.229
328.40 4.224
328.50 4.22
328.60 4.215
328.70 4.211
328.80 4.206
328.90 4.201
329.00 4.197
329.10 4.192
329.20 4.188
329.30 4.183
329.40 4.179
329.50 4.174
329.60 4.17
329.70 4.165
329.80 4.161
329.90 4.156
330.00 4.152
330.10 4.147
330.20 4.143
330.30 4.138
330.40 4.134
330.50 4.129
330.60 4.125
330.70 4.12
330.80 4.116
330.90 4.111
331.00 4.107
331.10 4.102
331.20 4.098
331.30 4.094
331.40 4.089
331.50 4.085
331.60 4.08
331.70 4.076
331.80 4.072
331.90 4.067
332.00 4.063
332.10 4.058
332.20 4.054
332.30 4.05
332.40 4.045
332.50 4.041
332.60 4.037
332.70 4.032
332.80 4.028
332.90 4.024
333.00 4.019
333.10 4.015
333.20 4.011
333.30 4.006
333.40 4.002
333.50 3.998
333.60 3.993
333.70 3.989
333.80 3.985
333.90 3.981
334.00 3.976
334.10 3.972
334.20 3.968
334.30 3.964
334.40 3.959
334.50 3.955
334.60 3.951
334.70 3.947
334.80 3.942
334.90 3.938
335.00 3.934
335.10 3.93
335.20 3.926
335.30 3.921
335.40 3.917
335.50 3.913
335.60 3.909
335.70 3.905
335.80 3.901
335.90 3.896
336.00 3.892
336.10 3.888
336.20 3.884
336.30 3.88
336.40 3.876
336.50 3.872
336.60 3.867
336.70 3.863
336.80 3.859
336.90 3.855
337.00 3.851
337.10 3.847
337.20 3.843
337.30 3.839
337.40 3.835
337.50 3.831
337.60 3.827
337.70 3.822
337.80 3.818
337.90 3.814
338.00 3.81
338.10 3.806
338.20 3.802
338.30 3.798
338.40 3.794
338.50 3.79
338.60 3.786
338.70 3.782
338.80 3.778
338.90 3.774
339.00 3.77
339.10 3.766
339.20 3.762
339.30 3.758
339.40 3.754
339.50 3.75
339.60 3.746
339.70 3.742
339.80 3.738
339.90 3.735
340.00 3.731
340.10 3.727
340.20 3.723
340.30 3.719
340.40 3.715
340.50 3.711
340.60 3.707
340.70 3.703
340.80 3.699
340.90 3.695
341.00 3.692
341.10 3.688
341.20 3.684
341.30 3.68
341.40 3.676
341.50 3.672
341.60 3.668
341.70 3.664
341.80 3.661
341.90 3.657
342.00 3.653
342.10 3.649
342.20 3.645
342.30 3.641
342.40 3.638
342.50 3.634
342.60 3.63
342.70 3.626
342.80 3.622
342.90 3.619
343.00 3.615
343.10 3.611
343.20 3.607
343.30 3.604
343.40 3.6
343.50 3.596
343.60 3.592
343.70 3.588
343.80 3.585
343.90 3.581
344.00 3.577
344.10 3.574
344.20 3.57
344.30 3.566
344.40 3.562
344.50 3.559
344.60 3.555
344.70 3.551
344.80 3.548
344.90 3.544
345.00 3.54
345.10 3.537
345.20 3.533
345.30 3.529
345.40 3.526
345.50 3.522
345.60 3.518
345.70 3.515
345.80 3.511
345.90 3.507
346.00 3.504
346.10 3.5
346.20 3.496
346.30 3.493
346.40 3.489
346.50 3.485
346.60 3.482
346.70 3.478
346.80 3.475
346.90 3.471
347.00 3.467
347.10 3.464
347.20 3.46
347.30 3.457
347.40 3.453
347.50 3.45
347.60 3.446
347.70 3.442
347.80 3.439
347.90 3.435
348.00 3.432
348.10 3.428
348.20 3.425
348.30 3.421
348.40 3.418
348.50 3.414
348.60 3.411
348.70 3.407
348.80 3.404
348.90 3.4
349.00 3.397
349.10 3.393
349.20 3.39
349.30 3.386
349.40 3.383
349.50 3.379
349.60 3.376
349.70 3.372
349.80 3.369
349.90 3.365
350.00 3.362
350.10 3.358
350.20 3.355
350.30 3.351
350.40 3.348
350.50 3.345
350.60 3.341
350.70 3.338
350.80 3.334
350.90 3.331
351.00 3.328
351.10 3.324
351.20 3.321
351.30 3.317
351.40 3.314
351.50 3.311
351.60 3.307
351.70 3.304
351.80 3.3
351.90 3.297
352.00 3.294
352.10 3.29
352.20 3.287
352.30 3.284
352.40 3.28
352.50 3.277
352.60 3.274
352.70 3.27
352.80 3.267
352.90 3.264
353.00 3.26
353.10 3.257
353.20 3.254
353.30 3.25
353.40 3.247
353.50 3.244
353.60 3.24
353.70 3.237
353.80 3.234
353.90 3.23
354.00 3.227
354.10 3.224
354.20 3.221
354.30 3.217
354.40 3.214
354.50 3.211
354.60 3.208
354.70 3.204
354.80 3.201
354.90 3.198
355.00 3.195
355.10 3.191
355.20 3.188
355.30 3.185
355.40 3.182
355.50 3.178
355.60 3.175
355.70 3.172
355.80 3.169
355.90 3.166
356.00 3.162
356.10 3.159
356.20 3.156
356.30 3.153
356.40 3.15
356.50 3.146
356.60 3.143
356.70 3.14
356.80 3.137
356.90 3.134
357.00 3.131
357.10 3.128
357.20 3.124
357.30 3.121
357.40 3.118
357.50 3.115
357.60 3.112
357.70 3.109
357.80 3.106
357.90 3.102
358.00 3.099
358.10 3.096
358.20 3.093
358.30 3.09
358.40 3.087
358.50 3.084
358.60 3.081
358.70 3.078
358.80 3.074
358.90 3.071
359.00 3.068
359.10 3.065
359.20 3.062
359.30 3.059
359.40 3.056
359.50 3.053
359.60 3.05
359.70 3.047
359.80 3.044
359.90 3.041
360.00 3.038
360.10 3.035
360.20 3.032
360.30 3.029
360.40 3.026
360.50 3.023
360.60 3.02
360.70 3.017
360.80 3.014
360.90 3.011
361.00 3.008
361.10 3.005
361.20 3.002
361.30 2.999
361.40 2.996
361.50 2.993
361.60 2.99
361.70 2.987
361.80 2.984
361.90 2.981
362.00 2.978
362.10 2.975
362.20 2.972
362.30 2.969
362.40 2.966
362.50 2.963
362.60 2.96
362.70 2.957
362.80 2.954
362.90 2.951
363.00 2.948
363.10 2.945
363.20 2.942
363.30 2.939
363.40 2.936
363.50 2.934
363.60 2.931
363.70 2.928
363.80 2.925
363.90 2.922
364.00 2.919
364.10 2.916
364.20 2.913
364.30 2.91
364.40 2.908
364.50 2.905
364.60 2.902
364.70 2.899
364.80 2.896
364.90 2.893
365.00 2.89
365.10 2.887
365.20 2.885
365.30 2.882
365.40 2.879
365.50 2.876
365.60 2.873
365.70 2.87
365.80 2.868
365.90 2.865
366.00 2.862
366.10 2.859
366.20 2.856
366.30 2.853
366.40 2.85
366.50 2.847
366.60 2.844
366.70 2.841
366.80 2.838
366.90 2.835
367.00 2.832
367.10 2.829
367.20 2.826
367.30 2.823
367.40 2.82
367.50 2.818
367.60 2.815
367.70 2.812
367.80 2.809
367.90 2.806
368.00 2.803
368.10 2.8
368.20 2.797
368.30 2.794
368.40 2.791
368.50 2.788
368.60 2.785
368.70 2.783
368.80 2.78
368.90 2.777
369.00 2.774
369.10 2.771
369.20 2.768
369.30 2.765
369.40 2.763
369.50 2.76
369.60 2.757
369.70 2.754
369.80 2.751
369.90 2.748
370.00 2.745
370.10 2.743
370.20 2.74
370.30 2.737
370.40 2.734
370.50 2.731
370.60 2.729
370.70 2.726
370.80 2.723
370.90 2.72
371.00 2.717
371.10 2.715
371.20 2.712
371.30 2.709
371.40 2.706
371.50 2.704
371.60 2.701
371.70 2.698
371.80 2.695
371.90 2.692
372.00 2.69
372.10 2.687
372.20 2.684
372.30 2.682
372.40 2.679
372.50 2.677
372.60 2.674
372.70 2.671
372.80 2.669
372.90 2.666
373.00 2.663
373.10 2.661
373.20 2.658
373.30 2.656
373.40 2.653
373.50 2.65
373.60 2.648
373.70 2.645
373.80 2.643
373.90 2.64
374.00 2.638
374.10 2.635
374.20 2.633
374.30 2.63
374.40 2.628
374.50 2.625
374.60 2.623
374.70 2.621
374.80 2.618
374.90 2.616
375.00 2.613
375.10 2.611
375.20 2.608
375.30 2.606
375.40 2.604
375.50 2.601
375.60 2.599
375.70 2.596
375.80 2.594
375.90 2.592
376.00 2.589
376.10 2.587
376.20 2.584
376.30 2.582
376.40 2.58
376.50 2.577
376.60 2.575
376.70 2.572
376.80 2.57
376.90 2.568
377.00 2.565
377.10 2.563
377.20 2.561
377.30 2.559
377.40 2.558
377.50 2.556
377.60 2.554
377.70 2.552
377.80 2.55
377.90 2.548
378.00 2.546
378.10 2.544
378.20 2.541
378.30 2.539
378.40 2.537
378.50 2.534
378.60 2.532
378.70 2.53
378.80 2.527
378.90 2.525
379.00 2.522
379.10 2.52
379.20 2.518
379.30 2.515
379.40 2.513
379.50 2.511
379.60 2.508
379.70 2.506
379.80 2.503
379.90 2.501
380.00 2.499
380.10 2.498
380.20 2.497
380.30 2.496
380.40 2.494
380.50 2.493
380.60 2.492
380.70 2.491
380.80 2.49
380.90 2.489
381.00 2.488
381.10 2.486
381.20 2.484
381.30 2.482
381.40 2.48
381.50 2.478
381.60 2.476
381.70 2.473
381.80 2.47
381.90 2.467
382.00 2.464
382.10 2.46
382.20 2.457
382.30 2.452
382.40 2.448
382.50 2.443
382.60 2.439
382.70 2.435
382.80 2.43
382.90 2.426
383.00 2.421
383.10 2.417
383.20 2.413
383.30 2.408
383.40 2.404
383.50 2.401
383.60 2.4
383.70 2.4
383.80 2.401
383.90 2.403
384.00 2.404
384.10 2.406
384.20 2.408
384.30 2.409
384.40 2.411
384.50 2.412
384.60 2.413
384.70 2.414
384.80 2.415
384.90 2.415
385.00 2.415
385.10 2.415
385.20 2.415
385.30 2.415
385.40 2.414
385.50 2.413
385.60 2.412
385.70 2.41
385.80 2.408
385.90 2.406
386.00 2.404
386.10 2.401
386.20 2.398
386.30 2.395
386.40 2.391
386.50 2.388
386.60 2.383
386.70 2.379
386.80 2.374
386.90 2.369
387.00 2.363
387.10 2.357
387.20 2.351
387.30 2.344
387.40 2.338
387.50 2.33
387.60 2.323
387.70 2.315
387.80 2.306
387.90 2.298
388.00 2.289
388.10 2.28
388.20 2.271
388.30 2.262
388.40 2.253
388.50 2.244
388.60 2.235
388.70 2.228
388.80 2.223
388.90 2.219
389.00 2.219
389.10 2.222
389.20 2.226
389.30 2.231
389.40 2.237
389.50 2.243
389.60 2.249
389.70 2.255
389.80 2.261
389.90 2.267
390.00 2.273
390.10 2.278
390.20 2.283
390.30 2.288
390.40 2.293
390.50 2.297
390.60 2.301
390.70 2.304
390.80 2.308
390.90 2.311
391.00 2.313
391.10 2.316
391.20 2.318
391.30 2.32
391.40 2.321
391.50 2.322
391.60 2.323
391.70 2.324
391.80 2.325
391.90 2.325
392.00 2.325
392.10 2.324
392.20 2.324
392.30 2.323
392.40 2.322
392.50 2.32
392.60 2.319
392.70 2.317
392.80 2.315
392.90 2.312
393.00 2.31
393.10 2.307
393.20 2.303
393.30 2.3
393.40 2.296
393.50 2.292
393.60 2.288
393.70 2.283
393.80 2.278
393.90 2.273
394.00 2.267
394.10 2.261
394.20 2.255
394.30 2.249
394.40 2.241
394.50 2.234
394.60 2.226
394.70 2.218
394.80 2.21
394.90 2.201
395.00 2.191
395.10 2.181
395.20 2.171
395.30 2.16
395.40 2.149
395.50 2.137
395.60 2.125
395.70 2.112
395.80 2.099
395.90 2.085
396.00 2.071
396.10 2.056
396.20 2.041
396.30 2.025
396.40 2.01
396.50 1.994
396.60 1.978
396.70 1.962
396.80 1.946
396.90 1.931
397.00 1.917
397.10 1.927
397.20 1.938
397.30 1.95
397.40 1.963
397.50 1.976
397.60 1.989
397.70 2.001
397.80 2.013
397.90 2.025
398.00 2.036
398.10 2.047
398.20 2.058
398.30 2.068
398.40 2.077
398.50 2.086
398.60 2.095
398.70 2.103
398.80 2.11
398.90 2.117
399.00 2.124
399.10 2.13
399.20 2.136
399.30 2.142
399.40 2.147
399.50 2.151
399.60 2.156
399.70 2.16
399.80 2.164
399.90 2.167
400.00 2.17
400.10 2.173
400.20 2.176
400.30 2.178
400.40 2.18
400.50 2.182
400.60 2.184
400.70 2.185
400.80 2.187
400.90 2.188
401.00 2.189
401.10 2.189
401.20 2.19
401.30 2.19
401.40 2.191
401.50 2.191
401.60 2.191
401.70 2.191
401.80 2.19
401.90 2.19
402.00 2.189
402.10 2.189
402.20 2.188
402.30 2.187
402.40 2.186
402.50 2.185
402.60 2.184
402.70 2.183
402.80 2.182
402.90 2.18
403.00 2.179
403.10 2.177
403.20 2.176
403.30 2.174
403.40 2.172
403.50 2.17
403.60 2.168
403.70 2.166
403.80 2.164
403.90 2.162
404.00 2.159
404.10 2.157
404.20 2.154
404.30 2.152
404.40 2.149
404.50 2.146
404.60 2.143
404.70 2.14
404.80 2.137
404.90 2.134
405.00 2.13
405.10 2.127
405.20 2.123
405.30 2.12
405.40 2.116
405.50 2.112
405.60 2.108
405.70 2.103
405.80 2.099
405.90 2.094
406.00 2.09
406.10 2.085
406.20 2.08
406.30 2.074
406.40 2.069
406.50 2.063
406.60 2.057
406.70 2.051
406.80 2.044
406.90 2.038
407.00 2.031
407.10 2.023
407.20 2.016
407.30 2.008
407.40 1.999
407.50 1.991
407.60 1.982
407.70 1.972
407.80 1.963
407.90 1.952
408.00 1.941
408.10 1.93
408.20 1.919
408.30 1.906
408.40 1.894
408.50 1.88
408.60 1.866
408.70 1.852
408.80 1.837
408.90 1.821
409.00 1.805
409.10 1.788
409.20 1.77
409.30 1.752
409.40 1.733
409.50 1.713
409.60 1.693
409.70 1.672
409.80 1.651
409.90 1.63
410.00 1.613
410.10 1.604
410.20 1.603
410.30 1.606
410.40 1.616
410.50 1.633
410.60 1.651
410.70 1.669
410.80 1.687
410.90 1.703
411.00 1.72
411.10 1.735
411.20 1.75
411.30 1.764
411.40 1.778
411.50 1.79
411.60 1.802
411.70 1.814
411.80 1.825
411.90 1.835
412.00 1.844
412.10 1.853
412.20 1.862
412.30 1.87
412.40 1.877
412.50 1.884
412.60 1.89
412.70 1.896
412.80 1.902
412.90 1.907
413.00 1.912
413.10 1.917
413.20 1.921
413.30 1.925
413.40 1.928
413.50 1.932
413.60 1.935
413.70 1.937
413.80 1.94
413.90 1.942
414.00 1.944
414.10 1.946
414.20 1.948
414.30 1.95
414.40 1.951
414.50 1.952
414.60 1.953
414.70 1.954
414.80 1.955
414.90 1.955
415.00 1.956
415.10 1.956
415.20 1.957
415.30 1.957
415.40 1.957
415.50 1.957
415.60 1.957
415.70 1.957
415.80 1.957
415.90 1.956
416.00 1.956
416.10 1.955
416.20 1.955
416.30 1.954
416.40 1.954
416.50 1.953
416.60 1.952
416.70 1.952
416.80 1.951
416.90 1.95
417.00 1.949
417.10 1.948
417.20 1.947
417.30 1.946
417.40 1.945
417.50 1.944
417.60 1.943
417.70 1.942
417.80 1.941
417.90 1.94
418.00 1.938
418.10 1.937
418.20 1.936
418.30 1.935
418.40 1.933
418.50 1.932
418.60 1.931
418.70 1.93
418.80 1.928
418.90 1.927
419.00 1.925
419.10 1.924
419.20 1.923
419.30 1.921
419.40 1.92
419.50 1.918
419.60 1.917
419.70 1.916
419.80 1.914
419.90 1.913
420.00 1.911
420.10 1.91
420.20 1.908
420.30 1.907
420.40 1.905
420.50 1.903
420.60 1.902
420.70 1.9
420.80 1.899
420.90 1.897
421.00 1.896
421.10 1.894
421.20 1.892
421.30 1.891
421.40 1.889
421.50 1.888
421.60 1.886
421.70 1.884
421.80 1.883
421.90 1.881
422.00 1.879
422.10 1.878
422.20 1.876
422.30 1.874
422.40 1.873
422.50 1.871
422.60 1.869
422.70 1.868
422.80 1.866
422.90 1.864
423.00 1.863
423.10 1.861
423.20 1.859
423.30 1.857
423.40 1.856
423.50 1.854
423.60 1.852
423.70 1.851
423.80 1.849
423.90 1.847
424.00 1.845
424.10 1.843
424.20 1.842
424.30 1.84
424.40 1.838
424.50 1.836
424.60 1.834
424.70 1.832
424.80 1.831
424.90 1.829
425.00 1.827
425.10 1.825
425.20 1.823
425.30 1.821
425.40 1.819
425.50 1.817
425.60 1.815
425.70 1.813
425.80 1.811
425.90 1.809
426.00 1.807
426.10 1.805
426.20 1.803
426.30 1.801
426.40 1.799
426.50 1.797
426.60 1.795
426.70 1.793
426.80 1.791
426.90 1.788
427.00 1.786
427.10 1.784
427.20 1.782
427.30 1.779
427.40 1.777
427.50 1.775
427.60 1.772
427.70 1.77
427.80 1.767
427.90 1.765
428.00 1.762
428.10 1.759
428.20 1.757
428.30 1.754
428.40 1.751
428.50 1.748
428.60 1.745
428.70 1.742
428.80 1.739
428.90 1.736
429.00 1.733
429.10 1.729
429.20 1.726
429.30 1.722
429.40 1.719
429.50 1.715
429.60 1.711
429.70 1.707
429.80 1.703
429.90 1.699
430.00 1.694
430.10 1.69
430.20 1.685
430.30 1.68
430.40 1.675
430.50 1.67
430.60 1.664
430.70 1.658
430.80 1.653
430.90 1.646
431.00 1.64
431.10 1.633
431.20 1.626
431.30 1.619
431.40 1.611
431.50 1.603
431.60 1.595
431.70 1.586
431.80 1.577
431.90 1.568
432.00 1.558
432.10 1.548
432.20 1.536
432.30 1.525
432.40 1.513
432.50 1.5
432.60 1.487
432.70 1.474
432.80 1.459
432.90 1.444
433.00 1.429
433.10 1.412
433.20 1.395
433.30 1.377
433.40 1.359
433.50 1.34
433.60 1.321
433.70 1.301
433.80 1.282
433.90 1.263
434.00 1.245
434.10 1.244
434.20 1.261
434.30 1.278
434.40 1.295
434.50 1.313
434.60 1.33
434.70 1.347
434.80 1.363
434.90 1.378
435.00 1.393
435.10 1.407
435.20 1.42
435.30 1.432
435.40 1.444
435.50 1.455
435.60 1.465
435.70 1.475
435.80 1.484
435.90 1.493
436.00 1.501
436.10 1.509
436.20 1.516
436.30 1.522
436.40 1.529
436.50 1.534
436.60 1.54
436.70 1.545
436.80 1.549
436.90 1.554
437.00 1.558
437.10 1.561
437.20 1.565
437.30 1.568
437.40 1.571
437.50 1.574
437.60 1.576
437.70 1.578
437.80 1.581
437.90 1.582
438.00 1.584
438.10 1.586
438.20 1.587
438.30 1.588
438.40 1.589
438.50 1.59
438.60 1.591
438.70 1.592
438.80 1.593
438.90 1.593
439.00 1.593
439.10 1.594
439.20 1.594
439.30 1.594
439.40 1.594
439.50 1.594
439.60 1.594
439.70 1.594
439.80 1.594
439.90 1.594
440.00 1.593
440.10 1.593
440.20 1.593
440.30 1.592
440.40 1.592
440.50 1.591
440.60 1.591
440.70 1.59
440.80 1.589
440.90 1.589
441.00 1.588
441.10 1.587
441.20 1.587
441.30 1.586
441.40 1.585
441.50 1.584
441.60 1.583
441.70 1.583
441.80 1.582
441.90 1.581
442.00 1.58
442.10 1.579
442.20 1.578
442.30 1.577
442.40 1.576
442.50 1.575
442.60 1.574
442.70 1.573
442.80 1.572
442.90 1.571
443.00 1.57
443.10 1.569
443.20 1.568
443.30 1.567
443.40 1.566
443.50 1.565
443.60 1.564
443.70 1.563
443.80 1.561
443.90 1.56
444.00 1.559
444.10 1.558
444.20 1.557
444.30 1.556
444.40 1.555
444.50 1.554
444.60 1.552
444.70 1.551
444.80 1.55
444.90 1.549
445.00 1.548
445.10 1.547
445.20 1.545
445.30 1.544
445.40 1.543
445.50 1.542
445.60 1.541
445.70 1.54
445.80 1.538
445.90 1.537
446.00 1.536
446.10 1.535
446.20 1.534
446.30 1.533
446.40 1.531
446.50 1.53
446.60 1.529
446.70 1.528
446.80 1.527
446.90 1.525
447.00 1.524
447.10 1.523
447.20 1.522
447.30 1.521
447.40 1.519
447.50 1.518
447.60 1.517
447.70 1.516
447.80 1.515
447.90 1.513
448.00 1.512
448.10 1.511
448.20 1.51
448.30 1.508
448.40 1.507
448.50 1.506
448.60 1.505
448.70 1.504
448.80 1.502
448.90 1.501
449.00 1.5
449.10 1.499
449.20 1.498
449.30 1.496
449.40 1.495
449.50 1.494
449.60 1.493
449.70 1.492
449.80 1.49
449.90 1.489
450.00 1.488
450.10 1.487
450.20 1.486
450.30 1.484
450.40 1.483
450.50 1.482
450.60 1.481
450.70 1.479
450.80 1.478
450.90 1.477
451.00 1.476
451.10 1.475
451.20 1.473
451.30 1.472
451.40 1.471
451.50 1.47
451.60 1.469
451.70 1.467
451.80 1.466
451.90 1.465
452.00 1.464
452.10 1.463
452.20 1.462
452.30 1.46
452.40 1.459
452.50 1.458
452.60 1.457
452.70 1.456
452.80 1.454
452.90 1.453
453.00 1.452
453.10 1.451
453.20 1.45
453.30 1.448
453.40 1.447
453.50 1.446
453.60 1.445
453.70 1.444
453.80 1.442
453.90 1.441
454.00 1.44
454.10 1.439
