# Version 2.1 - nm, norm@500 to 1, cut digits, bergeron_85000_90.dat_85000
# Wavelength(nm)  Flambda(ergs/cm^s/s/nm)
300.00 6.742
300.10 6.733
300.20 6.725
300.30 6.716
300.40 6.708
300.50 6.7
300.60 6.691
300.70 6.683
300.80 6.675
300.90 6.666
301.00 6.658
301.10 6.65
301.20 6.641
301.30 6.633
301.40 6.625
301.50 6.617
301.60 6.609
301.70 6.6
301.80 6.592
301.90 6.584
302.00 6.576
302.10 6.568
302.20 6.56
302.30 6.551
302.40 6.543
302.50 6.535
302.60 6.527
302.70 6.519
302.80 6.511
302.90 6.503
303.00 6.495
303.10 6.487
303.20 6.479
303.30 6.471
303.40 6.463
303.50 6.455
303.60 6.447
303.70 6.439
303.80 6.431
303.90 6.423
304.00 6.415
304.10 6.407
304.20 6.399
304.30 6.392
304.40 6.384
304.50 6.376
304.60 6.368
304.70 6.36
304.80 6.352
304.90 6.345
305.00 6.337
305.10 6.329
305.20 6.321
305.30 6.313
305.40 6.306
305.50 6.298
305.60 6.29
305.70 6.283
305.80 6.275
305.90 6.267
306.00 6.259
306.10 6.252
306.20 6.244
306.30 6.237
306.40 6.229
306.50 6.221
306.60 6.214
306.70 6.206
306.80 6.198
306.90 6.191
307.00 6.183
307.10 6.176
307.20 6.168
307.30 6.161
307.40 6.153
307.50 6.146
307.60 6.138
307.70 6.131
307.80 6.123
307.90 6.116
308.00 6.108
308.10 6.101
308.20 6.094
308.30 6.086
308.40 6.079
308.50 6.071
308.60 6.064
308.70 6.057
308.80 6.049
308.90 6.042
309.00 6.035
309.10 6.027
309.20 6.02
309.30 6.013
309.40 6.005
309.50 5.998
309.60 5.991
309.70 5.984
309.80 5.976
309.90 5.969
310.00 5.962
310.10 5.955
310.20 5.948
310.30 5.94
310.40 5.933
310.50 5.926
310.60 5.919
310.70 5.912
310.80 5.905
310.90 5.897
311.00 5.89
311.10 5.883
311.20 5.876
311.30 5.869
311.40 5.862
311.50 5.855
311.60 5.848
311.70 5.841
311.80 5.834
311.90 5.827
312.00 5.82
312.10 5.813
312.20 5.806
312.30 5.799
312.40 5.792
312.50 5.785
312.60 5.778
312.70 5.771
312.80 5.764
312.90 5.757
313.00 5.75
313.10 5.743
313.20 5.737
313.30 5.73
313.40 5.723
313.50 5.716
313.60 5.709
313.70 5.702
313.80 5.696
313.90 5.689
314.00 5.682
314.10 5.675
314.20 5.668
314.30 5.662
314.40 5.655
314.50 5.648
314.60 5.641
314.70 5.635
314.80 5.628
314.90 5.621
315.00 5.615
315.10 5.608
315.20 5.601
315.30 5.594
315.40 5.588
315.50 5.581
315.60 5.575
315.70 5.568
315.80 5.561
315.90 5.555
316.00 5.548
316.10 5.542
316.20 5.535
316.30 5.528
316.40 5.522
316.50 5.515
316.60 5.509
316.70 5.502
316.80 5.496
316.90 5.489
317.00 5.483
317.10 5.476
317.20 5.47
317.30 5.463
317.40 5.457
317.50 5.45
317.60 5.444
317.70 5.437
317.80 5.431
317.90 5.425
318.00 5.418
318.10 5.412
318.20 5.405
318.30 5.399
318.40 5.393
318.50 5.386
318.60 5.38
318.70 5.374
318.80 5.367
318.90 5.361
319.00 5.355
319.10 5.348
319.20 5.342
319.30 5.336
319.40 5.33
319.50 5.323
319.60 5.317
319.70 5.311
319.80 5.305
319.90 5.298
320.00 5.292
320.10 5.286
320.20 5.28
320.30 5.274
320.40 5.267
320.50 5.261
320.60 5.255
320.70 5.249
320.80 5.243
320.90 5.237
321.00 5.23
321.10 5.224
321.20 5.218
321.30 5.212
321.40 5.206
321.50 5.2
321.60 5.194
321.70 5.188
321.80 5.182
321.90 5.176
322.00 5.17
322.10 5.164
322.20 5.158
322.30 5.152
322.40 5.146
322.50 5.14
322.60 5.134
322.70 5.128
322.80 5.122
322.90 5.116
323.00 5.11
323.10 5.104
323.20 5.098
323.30 5.092
323.40 5.086
323.50 5.08
323.60 5.074
323.70 5.068
323.80 5.063
323.90 5.057
324.00 5.051
324.10 5.045
324.20 5.039
324.30 5.033
324.40 5.027
324.50 5.022
324.60 5.016
324.70 5.01
324.80 5.004
324.90 4.998
325.00 4.993
325.10 4.987
325.20 4.981
325.30 4.975
325.40 4.97
325.50 4.964
325.60 4.958
325.70 4.952
325.80 4.947
325.90 4.941
326.00 4.935
326.10 4.93
326.20 4.924
326.30 4.918
326.40 4.913
326.50 4.907
326.60 4.901
326.70 4.896
326.80 4.89
326.90 4.884
327.00 4.879
327.10 4.873
327.20 4.868
327.30 4.862
327.40 4.856
327.50 4.851
327.60 4.845
327.70 4.84
327.80 4.834
327.90 4.829
328.00 4.823
328.10 4.818
328.20 4.812
328.30 4.807
328.40 4.801
328.50 4.796
328.60 4.79
328.70 4.785
328.80 4.779
328.90 4.774
329.00 4.768
329.10 4.763
329.20 4.757
329.30 4.752
329.40 4.746
329.50 4.741
329.60 4.736
329.70 4.73
329.80 4.725
329.90 4.719
330.00 4.714
330.10 4.709
330.20 4.703
330.30 4.698
330.40 4.693
330.50 4.687
330.60 4.682
330.70 4.677
330.80 4.671
330.90 4.666
331.00 4.661
331.10 4.656
331.20 4.65
331.30 4.645
331.40 4.64
331.50 4.634
331.60 4.629
331.70 4.624
331.80 4.619
331.90 4.613
332.00 4.608
332.10 4.603
332.20 4.598
332.30 4.593
332.40 4.587
332.50 4.582
332.60 4.577
332.70 4.572
332.80 4.567
332.90 4.562
333.00 4.556
333.10 4.551
333.20 4.546
333.30 4.541
333.40 4.536
333.50 4.531
333.60 4.526
333.70 4.52
333.80 4.515
333.90 4.51
334.00 4.505
334.10 4.5
334.20 4.495
334.30 4.49
334.40 4.485
334.50 4.48
334.60 4.475
334.70 4.47
334.80 4.465
334.90 4.46
335.00 4.455
335.10 4.45
335.20 4.445
335.30 4.44
335.40 4.435
335.50 4.43
335.60 4.425
335.70 4.42
335.80 4.415
335.90 4.41
336.00 4.405
336.10 4.4
336.20 4.395
336.30 4.39
336.40 4.385
336.50 4.38
336.60 4.376
336.70 4.371
336.80 4.366
336.90 4.361
337.00 4.356
337.10 4.351
337.20 4.346
337.30 4.342
337.40 4.337
337.50 4.332
337.60 4.327
337.70 4.322
337.80 4.317
337.90 4.313
338.00 4.308
338.10 4.303
338.20 4.298
338.30 4.293
338.40 4.289
338.50 4.284
338.60 4.279
338.70 4.274
338.80 4.27
338.90 4.265
339.00 4.26
339.10 4.255
339.20 4.251
339.30 4.246
339.40 4.241
339.50 4.237
339.60 4.232
339.70 4.227
339.80 4.222
339.90 4.218
340.00 4.213
340.10 4.208
340.20 4.204
340.30 4.199
340.40 4.194
340.50 4.19
340.60 4.185
340.70 4.181
340.80 4.176
340.90 4.171
341.00 4.167
341.10 4.162
341.20 4.158
341.30 4.153
341.40 4.148
341.50 4.144
341.60 4.139
341.70 4.135
341.80 4.13
341.90 4.126
342.00 4.121
342.10 4.116
342.20 4.112
342.30 4.107
342.40 4.103
342.50 4.098
342.60 4.094
342.70 4.089
342.80 4.085
342.90 4.08
343.00 4.076
343.10 4.071
343.20 4.067
343.30 4.063
343.40 4.058
343.50 4.054
343.60 4.049
343.70 4.045
343.80 4.04
343.90 4.036
344.00 4.031
344.10 4.027
344.20 4.023
344.30 4.018
344.40 4.014
344.50 4.009
344.60 4.005
344.70 4.001
344.80 3.996
344.90 3.992
345.00 3.988
345.10 3.983
345.20 3.979
345.30 3.975
345.40 3.97
345.50 3.966
345.60 3.962
345.70 3.957
345.80 3.953
345.90 3.949
346.00 3.944
346.10 3.94
346.20 3.936
346.30 3.931
346.40 3.927
346.50 3.923
346.60 3.919
346.70 3.914
346.80 3.91
346.90 3.906
347.00 3.902
347.10 3.897
347.20 3.893
347.30 3.889
347.40 3.885
347.50 3.881
347.60 3.876
347.70 3.872
347.80 3.868
347.90 3.864
348.00 3.859
348.10 3.855
348.20 3.851
348.30 3.847
348.40 3.843
348.50 3.839
348.60 3.835
348.70 3.83
348.80 3.826
348.90 3.822
349.00 3.818
349.10 3.814
349.20 3.81
349.30 3.806
349.40 3.802
349.50 3.797
349.60 3.793
349.70 3.789
349.80 3.785
349.90 3.781
350.00 3.777
350.10 3.773
350.20 3.769
350.30 3.765
350.40 3.761
350.50 3.757
350.60 3.753
350.70 3.749
350.80 3.745
350.90 3.741
351.00 3.737
351.10 3.733
351.20 3.729
351.30 3.725
351.40 3.721
351.50 3.717
351.60 3.713
351.70 3.709
351.80 3.705
351.90 3.701
352.00 3.697
352.10 3.693
352.20 3.689
352.30 3.685
352.40 3.681
352.50 3.677
352.60 3.673
352.70 3.669
352.80 3.665
352.90 3.661
353.00 3.657
353.10 3.653
353.20 3.65
353.30 3.646
353.40 3.642
353.50 3.638
353.60 3.634
353.70 3.63
353.80 3.626
353.90 3.622
354.00 3.619
354.10 3.615
354.20 3.611
354.30 3.607
354.40 3.603
354.50 3.599
354.60 3.596
354.70 3.592
354.80 3.588
354.90 3.584
355.00 3.58
355.10 3.576
355.20 3.573
355.30 3.569
355.40 3.565
355.50 3.561
355.60 3.557
355.70 3.554
355.80 3.55
355.90 3.546
356.00 3.542
356.10 3.539
356.20 3.535
356.30 3.531
356.40 3.527
356.50 3.524
356.60 3.52
356.70 3.516
356.80 3.513
356.90 3.509
357.00 3.505
357.10 3.501
357.20 3.498
357.30 3.494
357.40 3.49
357.50 3.487
357.60 3.483
357.70 3.479
357.80 3.476
357.90 3.472
358.00 3.468
358.10 3.465
358.20 3.461
358.30 3.457
358.40 3.454
358.50 3.45
358.60 3.446
358.70 3.443
358.80 3.439
358.90 3.436
359.00 3.432
359.10 3.428
359.20 3.425
359.30 3.421
359.40 3.418
359.50 3.414
359.60 3.41
359.70 3.407
359.80 3.403
359.90 3.4
360.00 3.396
360.10 3.393
360.20 3.389
360.30 3.385
360.40 3.382
360.50 3.378
360.60 3.375
360.70 3.371
360.80 3.368
360.90 3.364
361.00 3.361
361.10 3.357
361.20 3.354
361.30 3.35
361.40 3.347
361.50 3.343
361.60 3.34
361.70 3.336
361.80 3.333
361.90 3.329
362.00 3.326
362.10 3.322
362.20 3.319
362.30 3.315
362.40 3.312
362.50 3.308
362.60 3.305
362.70 3.302
362.80 3.298
362.90 3.295
363.00 3.291
363.10 3.288
363.20 3.284
363.30 3.281
363.40 3.278
363.50 3.274
363.60 3.271
363.70 3.267
363.80 3.264
363.90 3.261
364.00 3.257
364.10 3.254
364.20 3.251
364.30 3.247
364.40 3.244
364.50 3.24
364.60 3.237
364.70 3.234
364.80 3.23
364.90 3.227
365.00 3.224
365.10 3.22
365.20 3.217
365.30 3.214
365.40 3.21
365.50 3.207
365.60 3.204
365.70 3.2
365.80 3.197
365.90 3.194
366.00 3.191
366.10 3.187
366.20 3.184
366.30 3.181
366.40 3.177
366.50 3.174
366.60 3.171
366.70 3.167
366.80 3.164
366.90 3.161
367.00 3.158
367.10 3.154
367.20 3.151
367.30 3.148
367.40 3.145
367.50 3.141
367.60 3.138
367.70 3.135
367.80 3.132
367.90 3.128
368.00 3.125
368.10 3.122
368.20 3.119
368.30 3.115
368.40 3.112
368.50 3.109
368.60 3.105
368.70 3.102
368.80 3.099
368.90 3.096
369.00 3.092
369.10 3.089
369.20 3.086
369.30 3.083
369.40 3.079
369.50 3.076
369.60 3.073
369.70 3.07
369.80 3.066
369.90 3.063
370.00 3.06
370.10 3.057
370.20 3.054
370.30 3.05
370.40 3.047
370.50 3.044
370.60 3.041
370.70 3.038
370.80 3.035
370.90 3.031
371.00 3.028
371.10 3.025
371.20 3.022
371.30 3.019
371.40 3.016
371.50 3.012
371.60 3.009
371.70 3.006
371.80 3.003
371.90 3
372.00 2.997
372.10 2.994
372.20 2.991
372.30 2.988
372.40 2.985
372.50 2.982
372.60 2.979
372.70 2.976
372.80 2.973
372.90 2.97
373.00 2.967
373.10 2.964
373.20 2.961
373.30 2.958
373.40 2.955
373.50 2.952
373.60 2.949
373.70 2.946
373.80 2.943
373.90 2.94
374.00 2.937
374.10 2.934
374.20 2.931
374.30 2.928
374.40 2.925
374.50 2.922
374.60 2.919
374.70 2.916
374.80 2.913
374.90 2.91
375.00 2.907
375.10 2.904
375.20 2.901
375.30 2.898
375.40 2.895
375.50 2.892
375.60 2.889
375.70 2.886
375.80 2.883
375.90 2.88
376.00 2.877
376.10 2.874
376.20 2.871
376.30 2.868
376.40 2.865
376.50 2.862
376.60 2.859
376.70 2.856
376.80 2.853
376.90 2.85
377.00 2.847
377.10 2.845
377.20 2.842
377.30 2.839
377.40 2.836
377.50 2.833
377.60 2.83
377.70 2.827
377.80 2.824
377.90 2.822
378.00 2.819
378.10 2.816
378.20 2.813
378.30 2.81
378.40 2.807
378.50 2.805
378.60 2.802
378.70 2.799
378.80 2.796
378.90 2.793
379.00 2.79
379.10 2.788
379.20 2.785
379.30 2.782
379.40 2.779
379.50 2.776
379.60 2.774
379.70 2.771
379.80 2.768
379.90 2.765
380.00 2.762
380.10 2.76
380.20 2.757
380.30 2.754
380.40 2.751
380.50 2.749
380.60 2.746
380.70 2.743
380.80 2.741
380.90 2.738
381.00 2.735
381.10 2.732
381.20 2.73
381.30 2.727
381.40 2.724
381.50 2.722
381.60 2.719
381.70 2.716
381.80 2.713
381.90 2.711
382.00 2.708
382.10 2.705
382.20 2.703
382.30 2.7
382.40 2.697
382.50 2.695
382.60 2.692
382.70 2.69
382.80 2.687
382.90 2.684
383.00 2.682
383.10 2.679
383.20 2.676
383.30 2.674
383.40 2.671
383.50 2.669
383.60 2.666
383.70 2.663
383.80 2.661
383.90 2.658
384.00 2.656
384.10 2.653
384.20 2.65
384.30 2.648
384.40 2.645
384.50 2.643
384.60 2.64
384.70 2.638
384.80 2.635
384.90 2.633
385.00 2.63
385.10 2.628
385.20 2.625
385.30 2.623
385.40 2.62
385.50 2.617
385.60 2.615
385.70 2.612
385.80 2.61
385.90 2.607
386.00 2.605
386.10 2.602
386.20 2.6
386.30 2.597
386.40 2.595
386.50 2.592
386.60 2.59
386.70 2.587
386.80 2.585
386.90 2.582
387.00 2.58
387.10 2.577
387.20 2.575
387.30 2.573
387.40 2.57
387.50 2.568
387.60 2.565
387.70 2.563
387.80 2.56
387.90 2.558
388.00 2.555
388.10 2.553
388.20 2.55
388.30 2.548
388.40 2.546
388.50 2.543
388.60 2.541
388.70 2.539
388.80 2.536
388.90 2.534
389.00 2.531
389.10 2.529
389.20 2.527
389.30 2.524
389.40 2.522
389.50 2.52
389.60 2.517
389.70 2.515
389.80 2.513
389.90 2.511
390.00 2.508
390.10 2.506
390.20 2.504
390.30 2.502
390.40 2.499
390.50 2.497
390.60 2.495
390.70 2.493
390.80 2.49
390.90 2.488
391.00 2.486
391.10 2.483
391.20 2.481
391.30 2.479
391.40 2.477
391.50 2.474
391.60 2.472
391.70 2.47
391.80 2.467
391.90 2.465
392.00 2.463
392.10 2.461
392.20 2.458
392.30 2.456
392.40 2.454
392.50 2.451
392.60 2.449
392.70 2.447
392.80 2.444
392.90 2.442
393.00 2.439
393.10 2.437
393.20 2.435
393.30 2.432
393.40 2.43
393.50 2.427
393.60 2.425
393.70 2.423
393.80 2.42
393.90 2.418
394.00 2.415
394.10 2.413
394.20 2.41
394.30 2.408
394.40 2.406
394.50 2.403
394.60 2.401
394.70 2.398
394.80 2.396
394.90 2.393
395.00 2.391
395.10 2.388
395.20 2.386
395.30 2.383
395.40 2.381
395.50 2.378
395.60 2.376
395.70 2.373
395.80 2.371
395.90 2.368
396.00 2.366
396.10 2.363
396.20 2.361
396.30 2.358
396.40 2.356
396.50 2.354
396.60 2.351
396.70 2.349
396.80 2.347
396.90 2.344
397.00 2.342
397.10 2.34
397.20 2.338
397.30 2.337
397.40 2.335
397.50 2.333
397.60 2.331
397.70 2.33
397.80 2.328
397.90 2.326
398.00 2.325
398.10 2.323
398.20 2.321
398.30 2.32
398.40 2.318
398.50 2.316
398.60 2.315
398.70 2.313
398.80 2.311
398.90 2.31
399.00 2.308
399.10 2.306
399.20 2.305
399.30 2.303
399.40 2.301
399.50 2.299
399.60 2.298
399.70 2.296
399.80 2.294
399.90 2.293
400.00 2.291
400.10 2.289
400.20 2.287
400.30 2.285
400.40 2.284
400.50 2.282
400.60 2.28
400.70 2.278
400.80 2.276
400.90 2.274
401.00 2.272
401.10 2.271
401.20 2.269
401.30 2.267
401.40 2.265
401.50 2.263
401.60 2.261
401.70 2.259
401.80 2.257
401.90 2.255
402.00 2.253
402.10 2.251
402.20 2.249
402.30 2.247
402.40 2.245
402.50 2.242
402.60 2.24
402.70 2.238
402.80 2.236
402.90 2.234
403.00 2.232
403.10 2.23
403.20 2.227
403.30 2.225
403.40 2.223
403.50 2.221
403.60 2.218
403.70 2.216
403.80 2.214
403.90 2.211
404.00 2.209
404.10 2.207
404.20 2.204
404.30 2.202
404.40 2.199
404.50 2.197
404.60 2.194
404.70 2.192
404.80 2.19
404.90 2.187
405.00 2.184
405.10 2.182
405.20 2.179
405.30 2.177
405.40 2.174
405.50 2.171
405.60 2.169
405.70 2.166
405.80 2.163
405.90 2.161
406.00 2.158
406.10 2.155
406.20 2.152
406.30 2.15
406.40 2.147
406.50 2.144
406.60 2.141
406.70 2.138
406.80 2.135
406.90 2.132
407.00 2.129
407.10 2.126
407.20 2.123
407.30 2.12
407.40 2.117
407.50 2.114
407.60 2.111
407.70 2.108
407.80 2.105
407.90 2.102
408.00 2.099
408.10 2.096
408.20 2.093
408.30 2.09
408.40 2.086
408.50 2.083
408.60 2.08
408.70 2.077
408.80 2.074
408.90 2.071
409.00 2.068
409.10 2.065
409.20 2.062
409.30 2.059
409.40 2.057
409.50 2.054
409.60 2.052
409.70 2.05
409.80 2.048
409.90 2.046
410.00 2.045
410.10 2.044
410.20 2.042
410.30 2.04
410.40 2.038
410.50 2.035
410.60 2.034
410.70 2.032
410.80 2.031
410.90 2.03
411.00 2.029
411.10 2.028
411.20 2.027
411.30 2.027
411.40 2.026
411.50 2.026
411.60 2.025
411.70 2.025
411.80 2.024
411.90 2.024
412.00 2.023
412.10 2.023
412.20 2.022
412.30 2.022
412.40 2.021
412.50 2.021
412.60 2.02
412.70 2.02
412.80 2.019
412.90 2.018
413.00 2.018
413.10 2.017
413.20 2.017
413.30 2.016
413.40 2.015
413.50 2.015
413.60 2.014
413.70 2.013
413.80 2.012
413.90 2.012
414.00 2.011
414.10 2.01
414.20 2.009
414.30 2.008
414.40 2.008
414.50 2.007
414.60 2.006
414.70 2.005
414.80 2.004
414.90 2.003
415.00 2.002
415.10 2.001
415.20 2
415.30 1.999
415.40 1.998
415.50 1.997
415.60 1.996
415.70 1.995
415.80 1.993
415.90 1.992
416.00 1.991
416.10 1.99
416.20 1.989
416.30 1.988
416.40 1.986
416.50 1.985
416.60 1.984
416.70 1.983
416.80 1.981
416.90 1.98
417.00 1.979
417.10 1.977
417.20 1.976
417.30 1.975
417.40 1.973
417.50 1.972
417.60 1.971
417.70 1.969
417.80 1.968
417.90 1.966
418.00 1.965
418.10 1.964
418.20 1.962
418.30 1.961
418.40 1.959
418.50 1.958
418.60 1.956
418.70 1.955
418.80 1.953
418.90 1.952
419.00 1.95
419.10 1.949
419.20 1.947
419.30 1.946
419.40 1.944
419.50 1.942
419.60 1.941
419.70 1.939
419.80 1.938
419.90 1.936
420.00 1.935
420.10 1.933
420.20 1.931
420.30 1.93
420.40 1.928
420.50 1.926
420.60 1.925
420.70 1.923
420.80 1.921
420.90 1.92
421.00 1.918
421.10 1.916
421.20 1.915
421.30 1.913
421.40 1.911
421.50 1.91
421.60 1.908
421.70 1.906
421.80 1.904
421.90 1.903
422.00 1.901
422.10 1.899
422.20 1.897
422.30 1.896
422.40 1.894
422.50 1.892
422.60 1.89
422.70 1.888
422.80 1.887
422.90 1.885
423.00 1.883
423.10 1.881
423.20 1.879
423.30 1.877
423.40 1.875
423.50 1.874
423.60 1.872
423.70 1.87
423.80 1.868
423.90 1.866
424.00 1.864
424.10 1.862
424.20 1.86
424.30 1.858
424.40 1.856
424.50 1.854
424.60 1.852
424.70 1.85
424.80 1.848
424.90 1.846
425.00 1.844
425.10 1.842
425.20 1.84
425.30 1.838
425.40 1.836
425.50 1.834
425.60 1.832
425.70 1.83
425.80 1.828
425.90 1.825
426.00 1.823
426.10 1.821
426.20 1.819
426.30 1.817
426.40 1.815
426.50 1.812
426.60 1.81
426.70 1.808
426.80 1.806
426.90 1.803
427.00 1.801
427.10 1.799
427.20 1.796
427.30 1.794
427.40 1.791
427.50 1.789
427.60 1.787
427.70 1.784
427.80 1.782
427.90 1.779
428.00 1.777
428.10 1.774
428.20 1.771
428.30 1.769
428.40 1.766
428.50 1.763
428.60 1.761
428.70 1.758
428.80 1.755
428.90 1.753
429.00 1.75
429.10 1.747
429.20 1.744
429.30 1.741
429.40 1.738
429.50 1.735
429.60 1.732
429.70 1.729
429.80 1.726
429.90 1.723
430.00 1.72
430.10 1.717
430.20 1.714
430.30 1.71
430.40 1.707
430.50 1.704
430.60 1.7
430.70 1.697
430.80 1.694
430.90 1.69
431.00 1.687
431.10 1.683
431.20 1.68
431.30 1.676
431.40 1.672
431.50 1.669
431.60 1.665
431.70 1.661
431.80 1.658
431.90 1.654
432.00 1.65
432.10 1.646
432.20 1.643
432.30 1.639
432.40 1.635
432.50 1.631
432.60 1.627
432.70 1.623
432.80 1.619
432.90 1.615
433.00 1.612
433.10 1.608
433.20 1.604
433.30 1.6
433.40 1.595
433.50 1.591
433.60 1.587
433.70 1.582
433.80 1.577
433.90 1.572
434.00 1.568
434.10 1.567
434.20 1.568
434.30 1.571
434.40 1.573
434.50 1.575
434.60 1.577
434.70 1.579
434.80 1.58
434.90 1.582
435.00 1.583
435.10 1.584
435.20 1.585
435.30 1.586
435.40 1.588
435.50 1.589
435.60 1.59
435.70 1.591
435.80 1.592
435.90 1.593
436.00 1.594
436.10 1.595
436.20 1.596
436.30 1.597
436.40 1.598
436.50 1.599
436.60 1.599
436.70 1.6
436.80 1.601
436.90 1.602
437.00 1.602
437.10 1.603
437.20 1.603
437.30 1.604
437.40 1.604
437.50 1.605
437.60 1.605
437.70 1.606
437.80 1.606
437.90 1.606
438.00 1.607
438.10 1.607
438.20 1.607
438.30 1.607
438.40 1.607
438.50 1.607
438.60 1.607
438.70 1.607
438.80 1.607
438.90 1.607
439.00 1.607
439.10 1.607
439.20 1.607
439.30 1.606
439.40 1.606
439.50 1.606
439.60 1.606
439.70 1.605
439.80 1.605
439.90 1.604
440.00 1.604
440.10 1.604
440.20 1.603
440.30 1.603
440.40 1.602
440.50 1.602
440.60 1.601
440.70 1.6
440.80 1.6
440.90 1.599
441.00 1.599
441.10 1.598
441.20 1.597
441.30 1.597
441.40 1.596
441.50 1.595
441.60 1.594
441.70 1.594
441.80 1.593
441.90 1.592
442.00 1.591
442.10 1.59
442.20 1.589
442.30 1.589
442.40 1.588
442.50 1.587
442.60 1.586
442.70 1.585
442.80 1.584
442.90 1.583
443.00 1.582
443.10 1.581
443.20 1.58
443.30 1.579
443.40 1.578
443.50 1.577
443.60 1.576
443.70 1.575
443.80 1.574
443.90 1.573
444.00 1.572
444.10 1.571
444.20 1.57
444.30 1.569
444.40 1.568
444.50 1.567
444.60 1.566
444.70 1.565
444.80 1.564
444.90 1.563
445.00 1.562
445.10 1.56
445.20 1.559
445.30 1.558
445.40 1.557
445.50 1.556
445.60 1.555
445.70 1.554
445.80 1.553
445.90 1.551
446.00 1.55
446.10 1.549
446.20 1.548
446.30 1.547
446.40 1.546
446.50 1.545
446.60 1.543
446.70 1.542
446.80 1.541
446.90 1.54
447.00 1.539
447.10 1.538
447.20 1.536
447.30 1.535
447.40 1.534
447.50 1.533
447.60 1.532
447.70 1.53
447.80 1.529
447.90 1.528
448.00 1.527
448.10 1.526
448.20 1.524
448.30 1.523
448.40 1.522
448.50 1.521
448.60 1.52
448.70 1.518
448.80 1.517
448.90 1.516
449.00 1.515
449.10 1.514
449.20 1.512
449.30 1.511
449.40 1.51
449.50 1.509
449.60 1.508
449.70 1.506
449.80 1.505
449.90 1.504
450.00 1.503
450.10 1.502
450.20 1.5
450.30 1.499
450.40 1.498
450.50 1.497
450.60 1.495
450.70 1.494
450.80 1.493
450.90 1.492
451.00 1.491
451.10 1.489
451.20 1.488
451.30 1.487
451.40 1.486
451.50 1.485
451.60 1.483
451.70 1.482
451.80 1.481
451.90 1.48
452.00 1.478
452.10 1.477
452.20 1.476
452.30 1.475
452.40 1.474
452.50 1.472
452.60 1.471
452.70 1.47
452.80 1.469
452.90 1.468
453.00 1.466
453.10 1.465
453.20 1.464
453.30 1.463
453.40 1.461
453.50 1.46
453.60 1.459
453.70 1.458
453.80 1.457
453.90 1.455
454.00 1.454
454.10 1.453
454.20 1.452
