# Version 2.1 - nm, norm@500 to 1, cut digits, bergeron_12000_65.dat_12000
# Wavelength(nm)  Flambda(ergs/cm^s/s/nm)
300.00 1.46
300.10 1.459
300.20 1.459
300.30 1.458
300.40 1.457
300.50 1.456
300.60 1.455
300.70 1.454
300.80 1.453
300.90 1.453
301.00 1.452
301.10 1.451
301.20 1.45
301.30 1.449
301.40 1.448
301.50 1.447
301.60 1.447
301.70 1.446
301.80 1.445
301.90 1.444
302.00 1.443
302.10 1.442
302.20 1.442
302.30 1.441
302.40 1.44
302.50 1.439
302.60 1.438
302.70 1.437
302.80 1.436
302.90 1.436
303.00 1.435
303.10 1.434
303.20 1.433
303.30 1.432
303.40 1.431
303.50 1.431
303.60 1.43
303.70 1.429
303.80 1.428
303.90 1.427
304.00 1.426
304.10 1.426
304.20 1.425
304.30 1.424
304.40 1.423
304.50 1.422
304.60 1.421
304.70 1.421
304.80 1.42
304.90 1.419
305.00 1.418
305.10 1.417
305.20 1.417
305.30 1.416
305.40 1.415
305.50 1.414
305.60 1.413
305.70 1.412
305.80 1.412
305.90 1.411
306.00 1.41
306.10 1.409
306.20 1.408
306.30 1.408
306.40 1.407
306.50 1.406
306.60 1.405
306.70 1.404
306.80 1.403
306.90 1.403
307.00 1.402
307.10 1.401
307.20 1.4
307.30 1.399
307.40 1.399
307.50 1.398
307.60 1.397
307.70 1.396
307.80 1.395
307.90 1.395
308.00 1.394
308.10 1.393
308.20 1.392
308.30 1.391
308.40 1.39
308.50 1.39
308.60 1.389
308.70 1.388
308.80 1.387
308.90 1.386
309.00 1.386
309.10 1.385
309.20 1.384
309.30 1.383
309.40 1.383
309.50 1.382
309.60 1.381
309.70 1.38
309.80 1.379
309.90 1.379
310.00 1.378
310.10 1.377
310.20 1.376
310.30 1.375
310.40 1.375
310.50 1.374
310.60 1.373
310.70 1.372
310.80 1.371
310.90 1.371
311.00 1.37
311.10 1.369
311.20 1.368
311.30 1.368
311.40 1.367
311.50 1.366
311.60 1.365
311.70 1.364
311.80 1.364
311.90 1.363
312.00 1.362
312.10 1.361
312.20 1.361
312.30 1.36
312.40 1.359
312.50 1.358
312.60 1.357
312.70 1.357
312.80 1.356
312.90 1.355
313.00 1.354
313.10 1.354
313.20 1.353
313.30 1.352
313.40 1.351
313.50 1.35
313.60 1.35
313.70 1.349
313.80 1.348
313.90 1.347
314.00 1.347
314.10 1.346
314.20 1.345
314.30 1.344
314.40 1.344
314.50 1.343
314.60 1.342
314.70 1.341
314.80 1.341
314.90 1.34
315.00 1.339
315.10 1.338
315.20 1.337
315.30 1.337
315.40 1.336
315.50 1.335
315.60 1.334
315.70 1.334
315.80 1.333
315.90 1.332
316.00 1.331
316.10 1.331
316.20 1.33
316.30 1.329
316.40 1.328
316.50 1.328
316.60 1.327
316.70 1.326
316.80 1.325
316.90 1.325
317.00 1.324
317.10 1.323
317.20 1.322
317.30 1.322
317.40 1.321
317.50 1.32
317.60 1.319
317.70 1.319
317.80 1.318
317.90 1.317
318.00 1.316
318.10 1.316
318.20 1.315
318.30 1.314
318.40 1.314
318.50 1.313
318.60 1.312
318.70 1.311
318.80 1.311
318.90 1.31
319.00 1.309
319.10 1.308
319.20 1.308
319.30 1.307
319.40 1.306
319.50 1.305
319.60 1.305
319.70 1.304
319.80 1.303
319.90 1.303
320.00 1.302
320.10 1.301
320.20 1.3
320.30 1.3
320.40 1.299
320.50 1.298
320.60 1.297
320.70 1.297
320.80 1.296
320.90 1.295
321.00 1.295
321.10 1.294
321.20 1.293
321.30 1.292
321.40 1.292
321.50 1.291
321.60 1.29
321.70 1.289
321.80 1.289
321.90 1.288
322.00 1.287
322.10 1.287
322.20 1.286
322.30 1.285
322.40 1.284
322.50 1.284
322.60 1.283
322.70 1.282
322.80 1.282
322.90 1.281
323.00 1.28
323.10 1.279
323.20 1.279
323.30 1.278
323.40 1.277
323.50 1.277
323.60 1.276
323.70 1.275
323.80 1.274
323.90 1.274
324.00 1.273
324.10 1.272
324.20 1.272
324.30 1.271
324.40 1.27
324.50 1.269
324.60 1.269
324.70 1.268
324.80 1.267
324.90 1.267
325.00 1.266
325.10 1.265
325.20 1.265
325.30 1.264
325.40 1.263
325.50 1.262
325.60 1.262
325.70 1.261
325.80 1.26
325.90 1.26
326.00 1.259
326.10 1.258
326.20 1.258
326.30 1.257
326.40 1.256
326.50 1.256
326.60 1.255
326.70 1.254
326.80 1.253
326.90 1.253
327.00 1.252
327.10 1.251
327.20 1.251
327.30 1.25
327.40 1.249
327.50 1.249
327.60 1.248
327.70 1.247
327.80 1.247
327.90 1.246
328.00 1.245
328.10 1.244
328.20 1.244
328.30 1.243
328.40 1.242
328.50 1.242
328.60 1.241
328.70 1.24
328.80 1.24
328.90 1.239
329.00 1.238
329.10 1.238
329.20 1.237
329.30 1.236
329.40 1.236
329.50 1.235
329.60 1.234
329.70 1.234
329.80 1.233
329.90 1.232
330.00 1.232
330.10 1.231
330.20 1.23
330.30 1.229
330.40 1.229
330.50 1.228
330.60 1.227
330.70 1.227
330.80 1.226
330.90 1.225
331.00 1.225
331.10 1.224
331.20 1.223
331.30 1.223
331.40 1.222
331.50 1.221
331.60 1.221
331.70 1.22
331.80 1.219
331.90 1.219
332.00 1.218
332.10 1.217
332.20 1.217
332.30 1.216
332.40 1.215
332.50 1.215
332.60 1.214
332.70 1.213
332.80 1.213
332.90 1.212
333.00 1.211
333.10 1.211
333.20 1.21
333.30 1.209
333.40 1.209
333.50 1.208
333.60 1.208
333.70 1.207
333.80 1.206
333.90 1.206
334.00 1.205
334.10 1.204
334.20 1.204
334.30 1.203
334.40 1.202
334.50 1.202
334.60 1.201
334.70 1.2
334.80 1.2
334.90 1.199
335.00 1.198
335.10 1.198
335.20 1.197
335.30 1.196
335.40 1.196
335.50 1.195
335.60 1.194
335.70 1.194
335.80 1.193
335.90 1.193
336.00 1.192
336.10 1.191
336.20 1.191
336.30 1.19
336.40 1.189
336.50 1.189
336.60 1.188
336.70 1.187
336.80 1.187
336.90 1.186
337.00 1.185
337.10 1.185
337.20 1.184
337.30 1.184
337.40 1.183
337.50 1.182
337.60 1.182
337.70 1.181
337.80 1.18
337.90 1.18
338.00 1.179
338.10 1.178
338.20 1.178
338.30 1.177
338.40 1.177
338.50 1.176
338.60 1.175
338.70 1.175
338.80 1.174
338.90 1.173
339.00 1.173
339.10 1.172
339.20 1.171
339.30 1.171
339.40 1.17
339.50 1.17
339.60 1.169
339.70 1.168
339.80 1.168
339.90 1.167
340.00 1.166
340.10 1.166
340.20 1.165
340.30 1.165
340.40 1.164
340.50 1.163
340.60 1.163
340.70 1.162
340.80 1.161
340.90 1.161
341.00 1.16
341.10 1.16
341.20 1.159
341.30 1.158
341.40 1.158
341.50 1.157
341.60 1.156
341.70 1.156
341.80 1.155
341.90 1.155
342.00 1.154
342.10 1.153
342.20 1.153
342.30 1.152
342.40 1.151
342.50 1.151
342.60 1.15
342.70 1.15
342.80 1.149
342.90 1.148
343.00 1.148
343.10 1.147
343.20 1.147
343.30 1.146
343.40 1.145
343.50 1.145
343.60 1.144
343.70 1.143
343.80 1.143
343.90 1.142
344.00 1.142
344.10 1.141
344.20 1.14
344.30 1.14
344.40 1.139
344.50 1.139
344.60 1.138
344.70 1.137
344.80 1.137
344.90 1.136
345.00 1.136
345.10 1.135
345.20 1.134
345.30 1.134
345.40 1.133
345.50 1.133
345.60 1.132
345.70 1.131
345.80 1.131
345.90 1.13
346.00 1.13
346.10 1.129
346.20 1.128
346.30 1.128
346.40 1.127
346.50 1.127
346.60 1.126
346.70 1.125
346.80 1.125
346.90 1.124
347.00 1.124
347.10 1.123
347.20 1.122
347.30 1.122
347.40 1.121
347.50 1.121
347.60 1.12
347.70 1.119
347.80 1.119
347.90 1.118
348.00 1.118
348.10 1.117
348.20 1.116
348.30 1.116
348.40 1.115
348.50 1.115
348.60 1.114
348.70 1.113
348.80 1.113
348.90 1.112
349.00 1.112
349.10 1.111
349.20 1.11
349.30 1.11
349.40 1.109
349.50 1.109
349.60 1.108
349.70 1.108
349.80 1.107
349.90 1.106
350.00 1.106
350.10 1.105
350.20 1.105
350.30 1.104
350.40 1.103
350.50 1.103
350.60 1.102
350.70 1.102
350.80 1.101
350.90 1.101
351.00 1.1
351.10 1.099
351.20 1.099
351.30 1.098
351.40 1.098
351.50 1.097
351.60 1.097
351.70 1.096
351.80 1.095
351.90 1.095
352.00 1.094
352.10 1.094
352.20 1.093
352.30 1.092
352.40 1.092
352.50 1.091
352.60 1.091
352.70 1.09
352.80 1.09
352.90 1.089
353.00 1.088
353.10 1.088
353.20 1.087
353.30 1.087
353.40 1.086
353.50 1.086
353.60 1.085
353.70 1.084
353.80 1.084
353.90 1.083
354.00 1.083
354.10 1.082
354.20 1.082
354.30 1.081
354.40 1.08
354.50 1.08
354.60 1.079
354.70 1.079
354.80 1.078
354.90 1.078
355.00 1.077
355.10 1.077
355.20 1.076
355.30 1.075
355.40 1.075
355.50 1.074
355.60 1.074
355.70 1.073
355.80 1.073
355.90 1.072
356.00 1.071
356.10 1.071
356.20 1.07
356.30 1.07
356.40 1.069
356.50 1.069
356.60 1.068
356.70 1.068
356.80 1.067
356.90 1.066
357.00 1.066
357.10 1.065
357.20 1.065
357.30 1.064
357.40 1.064
357.50 1.063
357.60 1.063
357.70 1.062
357.80 1.061
357.90 1.061
358.00 1.06
358.10 1.06
358.20 1.059
358.30 1.059
358.40 1.058
358.50 1.058
358.60 1.057
358.70 1.056
358.80 1.056
358.90 1.055
359.00 1.055
359.10 1.054
359.20 1.054
359.30 1.053
359.40 1.053
359.50 1.052
359.60 1.051
359.70 1.051
359.80 1.05
359.90 1.05
360.00 1.049
360.10 1.049
360.20 1.048
360.30 1.048
360.40 1.047
360.50 1.047
360.60 1.046
360.70 1.046
360.80 1.045
360.90 1.044
361.00 1.044
361.10 1.043
361.20 1.043
361.30 1.042
361.40 1.042
361.50 1.041
361.60 1.041
361.70 1.04
361.80 1.04
361.90 1.039
362.00 1.038
362.10 1.038
362.20 1.037
362.30 1.037
362.40 1.036
362.50 1.036
362.60 1.035
362.70 1.035
362.80 1.034
362.90 1.034
363.00 1.033
363.10 1.033
363.20 1.032
363.30 1.031
363.40 1.031
363.50 1.03
363.60 1.03
363.70 1.029
363.80 1.029
363.90 1.028
364.00 1.028
364.10 1.027
364.20 1.027
364.30 1.026
364.40 1.025
364.50 1.025
364.60 1.024
364.70 1.024
364.80 1.024
364.90 1.023
365.00 1.023
365.10 1.022
365.20 1.022
365.30 1.021
365.40 1.021
365.50 1.02
365.60 1.02
365.70 1.02
365.80 1.019
365.90 1.019
366.00 1.018
366.10 1.018
366.20 1.017
366.30 1.017
366.40 1.017
366.50 1.016
366.60 1.016
366.70 1.016
366.80 1.015
366.90 1.015
367.00 1.014
367.10 1.014
367.20 1.014
367.30 1.013
367.40 1.013
367.50 1.013
367.60 1.012
367.70 1.012
367.80 1.011
367.90 1.011
368.00 1.011
368.10 1.012
368.20 1.013
368.30 1.014
368.40 1.016
368.50 1.017
368.60 1.018
368.70 1.019
368.80 1.02
368.90 1.021
369.00 1.023
369.10 1.024
369.20 1.025
369.30 1.026
369.40 1.027
369.50 1.029
369.60 1.03
369.70 1.031
369.80 1.032
369.90 1.033
370.00 1.035
370.10 1.038
370.20 1.042
370.30 1.045
370.40 1.049
370.50 1.053
370.60 1.056
370.70 1.06
370.80 1.064
370.90 1.067
371.00 1.071
371.10 1.074
371.20 1.078
371.30 1.081
371.40 1.085
371.50 1.089
371.60 1.092
371.70 1.096
371.80 1.099
371.90 1.103
372.00 1.106
372.10 1.112
372.20 1.117
372.30 1.122
372.40 1.128
372.50 1.133
372.60 1.138
372.70 1.143
372.80 1.149
372.90 1.154
373.00 1.159
373.10 1.164
373.20 1.169
373.30 1.175
373.40 1.18
373.50 1.185
373.60 1.19
373.70 1.195
373.80 1.201
373.90 1.206
374.00 1.211
374.10 1.216
374.20 1.221
374.30 1.226
374.40 1.231
374.50 1.237
374.60 1.242
374.70 1.247
374.80 1.252
374.90 1.257
375.00 1.262
375.10 1.267
375.20 1.273
375.30 1.278
375.40 1.283
375.50 1.288
375.60 1.293
375.70 1.298
375.80 1.303
375.90 1.308
376.00 1.313
376.10 1.316
376.20 1.318
376.30 1.32
376.40 1.323
376.50 1.325
376.60 1.328
376.70 1.33
376.80 1.332
376.90 1.335
377.00 1.337
377.10 1.332
377.20 1.328
377.30 1.323
377.40 1.318
377.50 1.313
377.60 1.309
377.70 1.304
377.80 1.299
377.90 1.295
378.00 1.29
378.10 1.265
378.20 1.24
378.30 1.215
378.40 1.19
378.50 1.165
378.60 1.14
378.70 1.115
378.80 1.09
378.90 1.065
379.00 1.04
379.10 1.018
379.20 0.9948
379.30 0.9722
379.40 0.9495
379.50 0.9269
379.60 0.9043
379.70 0.8817
379.80 0.8592
379.90 0.8366
380.00 0.8141
380.10 0.8491
380.20 0.884
380.30 0.9189
380.40 0.9538
380.50 0.9886
380.60 1.023
380.70 1.058
380.80 1.093
380.90 1.127
381.00 1.162
381.10 1.176
381.20 1.191
381.30 1.205
381.40 1.219
381.50 1.233
381.60 1.236
381.70 1.234
381.80 1.229
381.90 1.219
382.00 1.206
382.10 1.188
382.20 1.166
382.30 1.128
382.40 1.09
382.50 1.052
382.60 1.014
382.70 0.9758
382.80 0.938
382.90 0.9001
383.00 0.8623
383.10 0.8246
383.20 0.7869
383.30 0.742
383.40 0.6942
383.50 0.6396
383.60 0.6528
383.70 0.7044
383.80 0.7513
383.90 0.7956
384.00 0.8387
384.10 0.8818
384.20 0.9245
384.30 0.9669
384.40 1.009
384.50 1.052
384.60 1.092
384.70 1.13
384.80 1.165
384.90 1.198
385.00 1.227
385.10 1.252
385.20 1.275
385.30 1.296
385.40 1.313
385.50 1.328
385.60 1.341
385.70 1.351
385.80 1.359
385.90 1.365
386.00 1.369
386.10 1.37
386.20 1.371
386.30 1.368
386.40 1.363
386.50 1.357
386.60 1.348
386.70 1.338
386.80 1.325
386.90 1.31
387.00 1.293
387.10 1.274
387.20 1.252
387.30 1.228
387.40 1.202
387.50 1.171
387.60 1.139
387.70 1.105
387.80 1.066
387.90 1.025
388.00 0.9831
388.10 0.9391
388.20 0.895
388.30 0.8508
388.40 0.8069
388.50 0.7628
388.60 0.7185
388.70 0.6709
388.80 0.615
388.90 0.5508
389.00 0.6112
389.10 0.6653
389.20 0.7129
389.30 0.7569
389.40 0.8005
389.50 0.8439
389.60 0.8876
389.70 0.9314
389.80 0.9753
389.90 1.018
390.00 1.059
390.10 1.099
390.20 1.135
390.30 1.17
390.40 1.202
390.50 1.232
390.60 1.26
390.70 1.286
390.80 1.31
390.90 1.333
391.00 1.355
391.10 1.375
391.20 1.394
391.30 1.411
391.40 1.428
391.50 1.443
391.60 1.457
391.70 1.47
391.80 1.482
391.90 1.493
392.00 1.502
392.10 1.511
392.20 1.519
392.30 1.525
392.40 1.53
392.50 1.535
392.60 1.538
392.70 1.54
392.80 1.542
392.90 1.541
393.00 1.54
393.10 1.538
393.20 1.535
393.30 1.53
393.40 1.525
393.50 1.518
393.60 1.511
393.70 1.502
393.80 1.492
393.90 1.481
394.00 1.469
394.10 1.455
394.20 1.441
394.30 1.426
394.40 1.409
394.50 1.391
394.60 1.372
394.70 1.352
394.80 1.331
394.90 1.309
395.00 1.285
395.10 1.26
395.20 1.235
395.30 1.207
395.40 1.179
395.50 1.149
395.60 1.117
395.70 1.084
395.80 1.049
395.90 1.012
396.00 0.9732
396.10 0.9338
396.20 0.8926
396.30 0.851
396.40 0.8089
396.50 0.7669
396.60 0.725
396.70 0.683
396.80 0.6364
396.90 0.572
397.00 0.49
397.10 0.5668
397.20 0.6288
397.30 0.6759
397.40 0.7175
397.50 0.759
397.60 0.8002
397.70 0.8416
397.80 0.8825
397.90 0.9229
398.00 0.9617
398.10 0.9994
398.20 1.036
398.30 1.07
398.40 1.103
398.50 1.135
398.60 1.164
398.70 1.192
398.80 1.22
398.90 1.245
399.00 1.27
399.10 1.294
399.20 1.316
399.30 1.338
399.40 1.359
399.50 1.379
399.60 1.399
399.70 1.417
399.80 1.435
399.90 1.452
400.00 1.469
400.10 1.484
400.20 1.499
400.30 1.513
400.40 1.526
400.50 1.539
400.60 1.551
400.70 1.562
400.80 1.573
400.90 1.583
401.00 1.593
401.10 1.602
401.20 1.61
401.30 1.618
401.40 1.625
401.50 1.632
401.60 1.639
401.70 1.645
401.80 1.65
401.90 1.655
402.00 1.66
402.10 1.664
402.20 1.667
402.30 1.671
402.40 1.674
402.50 1.676
402.60 1.679
402.70 1.68
402.80 1.682
402.90 1.683
403.00 1.684
403.10 1.684
403.20 1.685
403.30 1.685
403.40 1.684
403.50 1.683
403.60 1.683
403.70 1.681
403.80 1.679
403.90 1.678
404.00 1.675
404.10 1.673
404.20 1.67
404.30 1.666
404.40 1.663
404.50 1.659
404.60 1.655
404.70 1.65
404.80 1.645
404.90 1.64
405.00 1.634
405.10 1.628
405.20 1.622
405.30 1.615
405.40 1.608
405.50 1.6
405.60 1.592
405.70 1.583
405.80 1.574
405.90 1.564
406.00 1.554
406.10 1.543
406.20 1.532
406.30 1.521
406.40 1.509
406.50 1.496
406.60 1.483
406.70 1.468
406.80 1.454
406.90 1.439
407.00 1.422
407.10 1.406
407.20 1.388
407.30 1.37
407.40 1.351
407.50 1.332
407.60 1.311
407.70 1.29
407.80 1.268
407.90 1.246
408.00 1.222
408.10 1.199
408.20 1.174
408.30 1.149
408.40 1.124
408.50 1.097
408.60 1.07
408.70 1.042
408.80 1.013
408.90 0.9837
409.00 0.9532
409.10 0.9209
409.20 0.8879
409.30 0.8541
409.40 0.8185
409.50 0.7823
409.60 0.7455
409.70 0.7083
409.80 0.6708
409.90 0.6329
410.00 0.5863
410.10 0.5289
410.20 0.4606
410.30 0.5472
410.40 0.6112
410.50 0.6527
410.60 0.6894
410.70 0.726
410.80 0.7625
410.90 0.7982
411.00 0.8331
411.10 0.8671
411.20 0.8993
411.30 0.9307
411.40 0.9612
411.50 0.9899
411.60 1.018
411.70 1.045
411.80 1.071
411.90 1.096
412.00 1.121
412.10 1.145
412.20 1.168
412.30 1.191
412.40 1.212
412.50 1.234
412.60 1.254
412.70 1.274
412.80 1.293
412.90 1.312
413.00 1.329
413.10 1.346
413.20 1.363
413.30 1.378
413.40 1.393
413.50 1.407
413.60 1.42
413.70 1.433
413.80 1.446
413.90 1.457
414.00 1.468
414.10 1.479
414.20 1.489
414.30 1.499
414.40 1.508
414.50 1.517
414.60 1.525
414.70 1.533
414.80 1.541
414.90 1.548
415.00 1.555
415.10 1.561
415.20 1.567
415.30 1.573
415.40 1.578
415.50 1.584
415.60 1.589
415.70 1.593
415.80 1.597
415.90 1.602
416.00 1.605
416.10 1.609
416.20 1.613
416.30 1.616
416.40 1.619
416.50 1.622
416.60 1.625
416.70 1.627
416.80 1.629
416.90 1.632
417.00 1.634
417.10 1.636
417.20 1.638
417.30 1.639
417.40 1.641
417.50 1.642
417.60 1.644
417.70 1.645
417.80 1.646
417.90 1.647
418.00 1.648
418.10 1.649
418.20 1.65
418.30 1.65
418.40 1.651
418.50 1.651
418.60 1.652
418.70 1.652
418.80 1.653
418.90 1.653
419.00 1.653
419.10 1.653
419.20 1.653
419.30 1.653
419.40 1.653
419.50 1.653
419.60 1.653
419.70 1.653
419.80 1.653
419.90 1.652
420.00 1.652
420.10 1.652
420.20 1.651
420.30 1.651
420.40 1.65
420.50 1.65
420.60 1.649
420.70 1.648
420.80 1.648
420.90 1.647
421.00 1.646
421.10 1.646
421.20 1.645
421.30 1.644
421.40 1.643
421.50 1.642
421.60 1.641
421.70 1.64
421.80 1.639
421.90 1.638
422.00 1.637
422.10 1.636
422.20 1.635
422.30 1.634
422.40 1.633
422.50 1.631
422.60 1.63
422.70 1.629
422.80 1.628
422.90 1.626
423.00 1.625
423.10 1.623
423.20 1.622
423.30 1.62
423.40 1.619
423.50 1.617
423.60 1.616
423.70 1.614
423.80 1.612
423.90 1.611
424.00 1.609
424.10 1.607
424.20 1.605
424.30 1.603
424.40 1.601
424.50 1.599
424.60 1.597
424.70 1.595
424.80 1.593
424.90 1.591
425.00 1.589
425.10 1.586
425.20 1.584
425.30 1.582
425.40 1.579
425.50 1.577
425.60 1.574
425.70 1.571
425.80 1.569
425.90 1.566
426.00 1.563
426.10 1.56
426.20 1.556
426.30 1.553
426.40 1.549
426.50 1.546
426.60 1.543
426.70 1.539
426.80 1.535
426.90 1.532
427.00 1.528
427.10 1.524
427.20 1.52
427.30 1.515
427.40 1.511
427.50 1.506
427.60 1.502
427.70 1.497
427.80 1.492
427.90 1.487
428.00 1.482
428.10 1.476
428.20 1.471
428.30 1.465
428.40 1.459
428.50 1.453
428.60 1.446
428.70 1.44
428.80 1.433
428.90 1.426
429.00 1.418
429.10 1.411
429.20 1.403
429.30 1.395
429.40 1.387
429.50 1.378
429.60 1.369
429.70 1.36
429.80 1.35
429.90 1.34
430.00 1.33
430.10 1.319
430.20 1.309
430.30 1.297
430.40 1.286
430.50 1.274
430.60 1.262
430.70 1.249
430.80 1.236
430.90 1.223
431.00 1.21
431.10 1.196
431.20 1.182
431.30 1.167
431.40 1.152
431.50 1.137
431.60 1.121
431.70 1.104
431.80 1.087
431.90 1.068
432.00 1.049
432.10 1.029
432.20 1.008
432.30 0.9854
432.40 0.9621
432.50 0.937
432.60 0.9111
432.70 0.8844
432.80 0.8572
432.90 0.8304
433.00 0.8039
433.10 0.7783
433.20 0.7521
433.30 0.7254
433.40 0.6965
433.50 0.6668
433.60 0.6363
433.70 0.6052
433.80 0.5707
433.90 0.5326
434.00 0.4277
434.10 0.4288
434.20 0.5358
434.30 0.5728
434.40 0.6065
434.50 0.6369
434.60 0.6667
434.70 0.6957
434.80 0.7239
434.90 0.7497
435.00 0.775
435.10 0.7997
435.20 0.8253
435.30 0.8511
435.40 0.8771
435.50 0.9025
435.60 0.9271
435.70 0.9508
435.80 0.9725
435.90 0.9933
436.00 1.013
436.10 1.031
436.20 1.049
436.30 1.066
436.40 1.081
436.50 1.096
436.60 1.111
436.70 1.124
436.80 1.138
436.90 1.15
437.00 1.163
437.10 1.174
437.20 1.186
437.30 1.197
437.40 1.208
437.50 1.219
437.60 1.229
437.70 1.238
437.80 1.248
437.90 1.257
438.00 1.266
438.10 1.274
438.20 1.282
438.30 1.29
438.40 1.297
438.50 1.304
438.60 1.311
438.70 1.317
438.80 1.323
438.90 1.329
439.00 1.335
439.10 1.34
439.20 1.345
439.30 1.35
439.40 1.354
439.50 1.359
439.60 1.363
439.70 1.367
439.80 1.37
439.90 1.374
440.00 1.377
440.10 1.38
440.20 1.383
440.30 1.386
440.40 1.389
440.50 1.392
440.60 1.394
440.70 1.396
440.80 1.398
440.90 1.4
441.00 1.402
441.10 1.404
441.20 1.406
441.30 1.407
441.40 1.409
441.50 1.41
441.60 1.411
441.70 1.413
441.80 1.414
441.90 1.415
442.00 1.416
442.10 1.416
442.20 1.417
442.30 1.418
442.40 1.419
442.50 1.419
442.60 1.42
442.70 1.42
442.80 1.421
442.90 1.421
443.00 1.421
443.10 1.422
443.20 1.422
443.30 1.422
443.40 1.422
443.50 1.422
443.60 1.422
443.70 1.423
443.80 1.423
443.90 1.423
444.00 1.422
444.10 1.422
444.20 1.422
444.30 1.422
444.40 1.422
444.50 1.422
444.60 1.421
444.70 1.421
444.80 1.421
444.90 1.421
445.00 1.42
445.10 1.42
445.20 1.419
445.30 1.419
445.40 1.419
445.50 1.418
445.60 1.418
445.70 1.417
445.80 1.417
445.90 1.416
446.00 1.416
446.10 1.415
446.20 1.415
446.30 1.414
446.40 1.414
446.50 1.413
446.60 1.413
446.70 1.412
446.80 1.411
446.90 1.411
447.00 1.41
447.10 1.41
447.20 1.409
447.30 1.408
447.40 1.408
447.50 1.407
447.60 1.406
447.70 1.406
447.80 1.405
447.90 1.404
448.00 1.404
448.10 1.403
448.20 1.402
448.30 1.401
448.40 1.401
448.50 1.4
448.60 1.399
448.70 1.399
448.80 1.398
448.90 1.397
449.00 1.396
449.10 1.396
449.20 1.395
449.30 1.394
449.40 1.393
449.50 1.393
449.60 1.392
449.70 1.391
449.80 1.39
449.90 1.39
450.00 1.389
450.10 1.388
450.20 1.387
450.30 1.386
450.40 1.386
450.50 1.385
450.60 1.384
450.70 1.383
450.80 1.382
450.90 1.382
451.00 1.381
451.10 1.38
451.20 1.379
451.30 1.378
451.40 1.378
451.50 1.377
451.60 1.376
451.70 1.375
451.80 1.374
451.90 1.374
452.00 1.373
452.10 1.372
452.20 1.371
452.30 1.37
452.40 1.369
452.50 1.369
452.60 1.368
452.70 1.367
452.80 1.366
452.90 1.365
453.00 1.364
