# Version 2.1 - nm, norm@500 to 1, cut digits, bergeron_13000_85.dat_13000
# Wavelength(nm)  Flambda(ergs/cm^s/s/nm)
300.00 2.156
300.10 2.155
300.20 2.153
300.30 2.152
300.40 2.151
300.50 2.149
300.60 2.148
300.70 2.146
300.80 2.145
300.90 2.143
301.00 2.142
301.10 2.14
301.20 2.139
301.30 2.137
301.40 2.136
301.50 2.135
301.60 2.133
301.70 2.132
301.80 2.13
301.90 2.129
302.00 2.127
302.10 2.126
302.20 2.125
302.30 2.123
302.40 2.122
302.50 2.12
302.60 2.119
302.70 2.117
302.80 2.116
302.90 2.115
303.00 2.113
303.10 2.112
303.20 2.11
303.30 2.109
303.40 2.107
303.50 2.106
303.60 2.105
303.70 2.103
303.80 2.102
303.90 2.1
304.00 2.099
304.10 2.097
304.20 2.096
304.30 2.095
304.40 2.093
304.50 2.092
304.60 2.09
304.70 2.089
304.80 2.088
304.90 2.086
305.00 2.085
305.10 2.083
305.20 2.082
305.30 2.081
305.40 2.079
305.50 2.078
305.60 2.076
305.70 2.075
305.80 2.074
305.90 2.072
306.00 2.071
306.10 2.069
306.20 2.068
306.30 2.067
306.40 2.065
306.50 2.064
306.60 2.063
306.70 2.061
306.80 2.06
306.90 2.058
307.00 2.057
307.10 2.056
307.20 2.054
307.30 2.053
307.40 2.051
307.50 2.05
307.60 2.049
307.70 2.047
307.80 2.046
307.90 2.045
308.00 2.043
308.10 2.042
308.20 2.04
308.30 2.039
308.40 2.038
308.50 2.036
308.60 2.035
308.70 2.034
308.80 2.032
308.90 2.031
309.00 2.03
309.10 2.028
309.20 2.027
309.30 2.026
309.40 2.024
309.50 2.023
309.60 2.021
309.70 2.02
309.80 2.019
309.90 2.017
310.00 2.016
310.10 2.015
310.20 2.013
310.30 2.012
310.40 2.011
310.50 2.009
310.60 2.008
310.70 2.007
310.80 2.005
310.90 2.004
311.00 2.003
311.10 2.001
311.20 2
311.30 1.999
311.40 1.997
311.50 1.996
311.60 1.995
311.70 1.993
311.80 1.992
311.90 1.991
312.00 1.989
312.10 1.988
312.20 1.987
312.30 1.985
312.40 1.984
312.50 1.983
312.60 1.981
312.70 1.98
312.80 1.979
312.90 1.977
313.00 1.976
313.10 1.975
313.20 1.973
313.30 1.972
313.40 1.971
313.50 1.969
313.60 1.968
313.70 1.967
313.80 1.966
313.90 1.964
314.00 1.963
314.10 1.962
314.20 1.96
314.30 1.959
314.40 1.958
314.50 1.956
314.60 1.955
314.70 1.954
314.80 1.953
314.90 1.951
315.00 1.95
315.10 1.949
315.20 1.947
315.30 1.946
315.40 1.945
315.50 1.943
315.60 1.942
315.70 1.941
315.80 1.94
315.90 1.938
316.00 1.937
316.10 1.936
316.20 1.934
316.30 1.933
316.40 1.932
316.50 1.931
316.60 1.929
316.70 1.928
316.80 1.927
316.90 1.925
317.00 1.924
317.10 1.923
317.20 1.922
317.30 1.92
317.40 1.919
317.50 1.918
317.60 1.917
317.70 1.915
317.80 1.914
317.90 1.913
318.00 1.911
318.10 1.91
318.20 1.909
318.30 1.908
318.40 1.906
318.50 1.905
318.60 1.904
318.70 1.903
318.80 1.901
318.90 1.9
319.00 1.899
319.10 1.898
319.20 1.896
319.30 1.895
319.40 1.894
319.50 1.893
319.60 1.891
319.70 1.89
319.80 1.889
319.90 1.888
320.00 1.886
320.10 1.885
320.20 1.884
320.30 1.883
320.40 1.881
320.50 1.88
320.60 1.879
320.70 1.878
320.80 1.876
320.90 1.875
321.00 1.874
321.10 1.873
321.20 1.871
321.30 1.87
321.40 1.869
321.50 1.868
321.60 1.867
321.70 1.865
321.80 1.864
321.90 1.863
322.00 1.862
322.10 1.86
322.20 1.859
322.30 1.858
322.40 1.857
322.50 1.856
322.60 1.854
322.70 1.853
322.80 1.852
322.90 1.851
323.00 1.849
323.10 1.848
323.20 1.847
323.30 1.846
323.40 1.845
323.50 1.843
323.60 1.842
323.70 1.841
323.80 1.84
323.90 1.838
324.00 1.837
324.10 1.836
324.20 1.835
324.30 1.834
324.40 1.832
324.50 1.831
324.60 1.83
324.70 1.829
324.80 1.828
324.90 1.826
325.00 1.825
325.10 1.824
325.20 1.823
325.30 1.822
325.40 1.82
325.50 1.819
325.60 1.818
325.70 1.817
325.80 1.816
325.90 1.815
326.00 1.813
326.10 1.812
326.20 1.811
326.30 1.81
326.40 1.809
326.50 1.807
326.60 1.806
326.70 1.805
326.80 1.804
326.90 1.803
327.00 1.801
327.10 1.8
327.20 1.799
327.30 1.798
327.40 1.797
327.50 1.796
327.60 1.794
327.70 1.793
327.80 1.792
327.90 1.791
328.00 1.79
328.10 1.789
328.20 1.787
328.30 1.786
328.40 1.785
328.50 1.784
328.60 1.783
328.70 1.782
328.80 1.78
328.90 1.779
329.00 1.778
329.10 1.777
329.20 1.776
329.30 1.775
329.40 1.773
329.50 1.772
329.60 1.771
329.70 1.77
329.80 1.769
329.90 1.768
330.00 1.766
330.10 1.765
330.20 1.764
330.30 1.763
330.40 1.762
330.50 1.761
330.60 1.76
330.70 1.758
330.80 1.757
330.90 1.756
331.00 1.755
331.10 1.754
331.20 1.753
331.30 1.752
331.40 1.75
331.50 1.749
331.60 1.748
331.70 1.747
331.80 1.746
331.90 1.745
332.00 1.744
332.10 1.742
332.20 1.741
332.30 1.74
332.40 1.739
332.50 1.738
332.60 1.737
332.70 1.736
332.80 1.735
332.90 1.733
333.00 1.732
333.10 1.731
333.20 1.73
333.30 1.729
333.40 1.728
333.50 1.727
333.60 1.726
333.70 1.724
333.80 1.723
333.90 1.722
334.00 1.721
334.10 1.72
334.20 1.719
334.30 1.718
334.40 1.717
334.50 1.715
334.60 1.714
334.70 1.713
334.80 1.712
334.90 1.711
335.00 1.71
335.10 1.709
335.20 1.708
335.30 1.707
335.40 1.706
335.50 1.704
335.60 1.703
335.70 1.702
335.80 1.701
335.90 1.7
336.00 1.699
336.10 1.698
336.20 1.697
336.30 1.696
336.40 1.694
336.50 1.693
336.60 1.692
336.70 1.691
336.80 1.69
336.90 1.689
337.00 1.688
337.10 1.687
337.20 1.686
337.30 1.685
337.40 1.684
337.50 1.682
337.60 1.681
337.70 1.68
337.80 1.679
337.90 1.678
338.00 1.677
338.10 1.676
338.20 1.675
338.30 1.674
338.40 1.673
338.50 1.672
338.60 1.671
338.70 1.669
338.80 1.668
338.90 1.667
339.00 1.666
339.10 1.665
339.20 1.664
339.30 1.663
339.40 1.662
339.50 1.661
339.60 1.66
339.70 1.659
339.80 1.658
339.90 1.657
340.00 1.656
340.10 1.654
340.20 1.653
340.30 1.652
340.40 1.651
340.50 1.65
340.60 1.649
340.70 1.648
340.80 1.647
340.90 1.646
341.00 1.645
341.10 1.644
341.20 1.643
341.30 1.642
341.40 1.641
341.50 1.64
341.60 1.639
341.70 1.638
341.80 1.636
341.90 1.635
342.00 1.634
342.10 1.633
342.20 1.632
342.30 1.631
342.40 1.63
342.50 1.629
342.60 1.628
342.70 1.627
342.80 1.626
342.90 1.625
343.00 1.624
343.10 1.623
343.20 1.622
343.30 1.621
343.40 1.62
343.50 1.619
343.60 1.618
343.70 1.617
343.80 1.616
343.90 1.615
344.00 1.614
344.10 1.613
344.20 1.611
344.30 1.61
344.40 1.609
344.50 1.608
344.60 1.607
344.70 1.606
344.80 1.605
344.90 1.604
345.00 1.603
345.10 1.602
345.20 1.601
345.30 1.6
345.40 1.599
345.50 1.598
345.60 1.597
345.70 1.596
345.80 1.595
345.90 1.594
346.00 1.593
346.10 1.592
346.20 1.591
346.30 1.59
346.40 1.589
346.50 1.588
346.60 1.587
346.70 1.586
346.80 1.585
346.90 1.584
347.00 1.583
347.10 1.582
347.20 1.581
347.30 1.58
347.40 1.579
347.50 1.578
347.60 1.577
347.70 1.576
347.80 1.575
347.90 1.574
348.00 1.573
348.10 1.572
348.20 1.571
348.30 1.57
348.40 1.569
348.50 1.568
348.60 1.567
348.70 1.566
348.80 1.565
348.90 1.564
349.00 1.563
349.10 1.562
349.20 1.561
349.30 1.56
349.40 1.559
349.50 1.558
349.60 1.557
349.70 1.556
349.80 1.555
349.90 1.554
350.00 1.553
350.10 1.552
350.20 1.551
350.30 1.55
350.40 1.549
350.50 1.548
350.60 1.547
350.70 1.546
350.80 1.545
350.90 1.544
351.00 1.543
351.10 1.542
351.20 1.541
351.30 1.54
351.40 1.539
351.50 1.538
351.60 1.537
351.70 1.536
351.80 1.535
351.90 1.534
352.00 1.533
352.10 1.532
352.20 1.531
352.30 1.53
352.40 1.529
352.50 1.528
352.60 1.527
352.70 1.526
352.80 1.526
352.90 1.525
353.00 1.524
353.10 1.523
353.20 1.522
353.30 1.521
353.40 1.52
353.50 1.519
353.60 1.518
353.70 1.517
353.80 1.516
353.90 1.515
354.00 1.514
354.10 1.513
354.20 1.512
354.30 1.511
354.40 1.51
354.50 1.509
354.60 1.508
354.70 1.507
354.80 1.506
354.90 1.505
355.00 1.504
355.10 1.503
355.20 1.503
355.30 1.502
355.40 1.501
355.50 1.5
355.60 1.499
355.70 1.498
355.80 1.497
355.90 1.496
356.00 1.495
356.10 1.494
356.20 1.493
356.30 1.492
356.40 1.491
356.50 1.49
356.60 1.489
356.70 1.488
356.80 1.487
356.90 1.487
357.00 1.486
357.10 1.485
357.20 1.484
357.30 1.483
357.40 1.482
357.50 1.481
357.60 1.48
357.70 1.479
357.80 1.478
357.90 1.477
358.00 1.476
358.10 1.475
358.20 1.474
358.30 1.473
358.40 1.473
358.50 1.472
358.60 1.471
358.70 1.47
358.80 1.469
358.90 1.468
359.00 1.467
359.10 1.466
359.20 1.465
359.30 1.464
359.40 1.463
359.50 1.462
359.60 1.461
359.70 1.461
359.80 1.46
359.90 1.459
360.00 1.458
360.10 1.457
360.20 1.456
360.30 1.455
360.40 1.454
360.50 1.453
360.60 1.452
360.70 1.451
360.80 1.451
360.90 1.45
361.00 1.449
361.10 1.448
361.20 1.447
361.30 1.446
361.40 1.445
361.50 1.444
361.60 1.443
361.70 1.442
361.80 1.441
361.90 1.441
362.00 1.44
362.10 1.439
362.20 1.438
362.30 1.437
362.40 1.436
362.50 1.435
362.60 1.434
362.70 1.433
362.80 1.432
362.90 1.432
363.00 1.431
363.10 1.43
363.20 1.429
363.30 1.428
363.40 1.427
363.50 1.426
363.60 1.425
363.70 1.424
363.80 1.422
363.90 1.421
364.00 1.42
364.10 1.419
364.20 1.418
364.30 1.417
364.40 1.416
364.50 1.415
364.60 1.414
364.70 1.413
364.80 1.412
364.90 1.411
365.00 1.41
365.10 1.409
365.20 1.408
365.30 1.407
365.40 1.406
365.50 1.405
365.60 1.404
365.70 1.403
365.80 1.402
365.90 1.401
366.00 1.4
366.10 1.399
366.20 1.398
366.30 1.397
366.40 1.396
366.50 1.395
366.60 1.394
366.70 1.393
366.80 1.392
366.90 1.391
367.00 1.39
367.10 1.39
367.20 1.389
367.30 1.388
367.40 1.387
367.50 1.386
367.60 1.385
367.70 1.384
367.80 1.383
367.90 1.382
368.00 1.381
368.10 1.38
368.20 1.38
368.30 1.379
368.40 1.378
368.50 1.377
368.60 1.376
368.70 1.375
368.80 1.374
368.90 1.374
369.00 1.373
369.10 1.372
369.20 1.371
369.30 1.37
369.40 1.369
369.50 1.369
369.60 1.368
369.70 1.367
369.80 1.366
369.90 1.365
370.00 1.364
370.10 1.364
370.20 1.363
370.30 1.363
370.40 1.362
370.50 1.361
370.60 1.361
370.70 1.36
370.80 1.36
370.90 1.359
371.00 1.358
371.10 1.358
371.20 1.357
371.30 1.357
371.40 1.356
371.50 1.356
371.60 1.355
371.70 1.354
371.80 1.354
371.90 1.353
372.00 1.353
372.10 1.353
372.20 1.352
372.30 1.352
372.40 1.352
372.50 1.352
372.60 1.352
372.70 1.352
372.80 1.352
372.90 1.352
373.00 1.352
373.10 1.352
373.20 1.351
373.30 1.351
373.40 1.351
373.50 1.351
373.60 1.351
373.70 1.351
373.80 1.351
373.90 1.351
374.00 1.351
374.10 1.351
374.20 1.351
374.30 1.351
374.40 1.351
374.50 1.352
374.60 1.352
374.70 1.352
374.80 1.352
374.90 1.353
375.00 1.353
375.10 1.353
375.20 1.353
375.30 1.353
375.40 1.354
375.50 1.354
375.60 1.354
375.70 1.354
375.80 1.354
375.90 1.355
376.00 1.355
376.10 1.355
376.20 1.355
376.30 1.355
376.40 1.355
376.50 1.355
376.60 1.355
376.70 1.355
376.80 1.355
376.90 1.355
377.00 1.355
377.10 1.354
377.20 1.353
377.30 1.353
377.40 1.352
377.50 1.351
377.60 1.35
377.70 1.349
377.80 1.349
377.90 1.348
378.00 1.347
378.10 1.344
378.20 1.341
378.30 1.337
378.40 1.334
378.50 1.331
378.60 1.328
378.70 1.324
378.80 1.321
378.90 1.318
379.00 1.315
379.10 1.313
379.20 1.31
379.30 1.308
379.40 1.306
379.50 1.304
379.60 1.302
379.70 1.3
379.80 1.298
379.90 1.295
380.00 1.293
380.10 1.296
380.20 1.299
380.30 1.302
380.40 1.305
380.50 1.308
380.60 1.311
380.70 1.314
380.80 1.317
380.90 1.32
381.00 1.323
381.10 1.324
381.20 1.325
381.30 1.325
381.40 1.326
381.50 1.327
381.60 1.326
381.70 1.325
381.80 1.323
381.90 1.321
382.00 1.318
382.10 1.314
382.20 1.31
382.30 1.302
382.40 1.294
382.50 1.286
382.60 1.278
382.70 1.27
382.80 1.262
382.90 1.254
383.00 1.246
383.10 1.238
383.20 1.23
383.30 1.225
383.40 1.218
383.50 1.211
383.60 1.213
383.70 1.22
383.80 1.227
383.90 1.232
384.00 1.24
384.10 1.25
384.20 1.26
384.30 1.271
384.40 1.281
384.50 1.29
384.60 1.299
384.70 1.306
384.80 1.312
384.90 1.317
385.00 1.322
385.10 1.326
385.20 1.329
385.30 1.331
385.40 1.333
385.50 1.335
385.60 1.336
385.70 1.337
385.80 1.337
385.90 1.336
386.00 1.335
386.10 1.334
386.20 1.332
386.30 1.33
386.40 1.327
386.50 1.324
386.60 1.32
386.70 1.315
386.80 1.311
386.90 1.305
387.00 1.299
387.10 1.293
387.20 1.285
387.30 1.278
387.40 1.269
387.50 1.26
387.60 1.251
387.70 1.24
387.80 1.228
387.90 1.214
388.00 1.2
388.10 1.183
388.20 1.165
388.30 1.145
388.40 1.125
388.50 1.106
388.60 1.089
388.70 1.078
388.80 1.067
388.90 1.059
389.00 1.067
389.10 1.077
389.20 1.088
389.30 1.105
389.40 1.124
389.50 1.145
389.60 1.165
389.70 1.184
389.80 1.201
389.90 1.217
390.00 1.232
390.10 1.245
390.20 1.257
390.30 1.268
390.40 1.278
390.50 1.287
390.60 1.296
390.70 1.305
390.80 1.313
390.90 1.32
391.00 1.327
391.10 1.334
391.20 1.34
391.30 1.345
391.40 1.35
391.50 1.355
391.60 1.359
391.70 1.363
391.80 1.366
391.90 1.369
392.00 1.371
392.10 1.373
392.20 1.375
392.30 1.376
392.40 1.377
392.50 1.377
392.60 1.376
392.70 1.376
392.80 1.375
392.90 1.373
393.00 1.371
393.10 1.368
393.20 1.365
393.30 1.361
393.40 1.357
393.50 1.353
393.60 1.348
393.70 1.342
393.80 1.336
393.90 1.329
394.00 1.322
394.10 1.315
394.20 1.307
394.30 1.298
394.40 1.289
394.50 1.279
394.60 1.269
394.70 1.258
394.80 1.247
394.90 1.235
395.00 1.223
395.10 1.21
395.20 1.196
395.30 1.182
395.40 1.168
395.50 1.153
395.60 1.137
395.70 1.12
395.80 1.103
395.90 1.085
396.00 1.066
396.10 1.047
396.20 1.025
396.30 1.001
396.40 0.9754
396.50 0.9452
396.60 0.9146
396.70 0.8837
396.80 0.8603
396.90 0.8368
397.00 0.8132
397.10 0.8348
397.20 0.8565
397.30 0.8784
397.40 0.9085
397.50 0.9386
397.60 0.9687
397.70 0.9944
397.80 1.018
397.90 1.04
398.00 1.059
398.10 1.078
398.20 1.096
398.30 1.113
398.40 1.13
398.50 1.146
398.60 1.161
398.70 1.175
398.80 1.19
398.90 1.204
399.00 1.217
399.10 1.23
399.20 1.243
399.30 1.255
399.40 1.267
399.50 1.278
399.60 1.289
399.70 1.3
399.80 1.31
399.90 1.319
400.00 1.329
400.10 1.338
400.20 1.346
400.30 1.355
400.40 1.362
400.50 1.37
400.60 1.377
400.70 1.384
400.80 1.391
400.90 1.397
401.00 1.403
401.10 1.409
401.20 1.414
401.30 1.419
401.40 1.424
401.50 1.428
401.60 1.432
401.70 1.436
401.80 1.439
401.90 1.442
402.00 1.445
402.10 1.448
402.20 1.45
402.30 1.453
402.40 1.454
402.50 1.456
402.60 1.457
402.70 1.458
402.80 1.459
402.90 1.46
403.00 1.46
403.10 1.46
403.20 1.46
403.30 1.459
403.40 1.458
403.50 1.457
403.60 1.456
403.70 1.455
403.80 1.453
403.90 1.451
404.00 1.448
404.10 1.446
404.20 1.443
404.30 1.439
404.40 1.436
404.50 1.432
404.60 1.428
404.70 1.424
404.80 1.419
404.90 1.415
405.00 1.409
405.10 1.404
405.20 1.398
405.30 1.392
405.40 1.386
405.50 1.379
405.60 1.372
405.70 1.365
405.80 1.358
405.90 1.35
406.00 1.342
406.10 1.333
406.20 1.325
406.30 1.316
406.40 1.306
406.50 1.297
406.60 1.287
406.70 1.276
406.80 1.266
406.90 1.255
407.00 1.243
407.10 1.231
407.20 1.219
407.30 1.206
407.40 1.193
407.50 1.18
407.60 1.166
407.70 1.152
407.80 1.137
407.90 1.122
408.00 1.107
408.10 1.092
408.20 1.076
408.30 1.06
408.40 1.043
408.50 1.026
408.60 1.008
408.70 0.9903
408.80 0.9715
408.90 0.9524
409.00 0.9332
409.10 0.9138
409.20 0.8943
409.30 0.8746
409.40 0.8529
409.50 0.8296
409.60 0.8049
409.70 0.7764
409.80 0.7465
409.90 0.7153
410.00 0.6862
410.10 0.6627
410.20 0.6449
410.30 0.6724
410.40 0.701
410.50 0.7305
410.60 0.7606
410.70 0.7888
410.80 0.8152
410.90 0.838
411.00 0.8594
411.10 0.8793
411.20 0.898
411.30 0.9165
411.40 0.9349
411.50 0.9531
411.60 0.971
411.70 0.9886
411.80 1.005
411.90 1.022
412.00 1.038
412.10 1.053
412.20 1.068
412.30 1.083
412.40 1.097
412.50 1.111
412.60 1.125
412.70 1.138
412.80 1.151
412.90 1.164
413.00 1.176
413.10 1.188
413.20 1.2
413.30 1.211
413.40 1.222
413.50 1.232
413.60 1.242
413.70 1.252
413.80 1.262
413.90 1.271
414.00 1.28
414.10 1.289
414.20 1.298
414.30 1.306
414.40 1.314
414.50 1.322
414.60 1.33
414.70 1.337
414.80 1.344
414.90 1.351
415.00 1.358
415.10 1.365
415.20 1.371
415.30 1.377
415.40 1.383
415.50 1.389
415.60 1.395
415.70 1.4
415.80 1.406
415.90 1.411
416.00 1.416
416.10 1.421
416.20 1.425
416.30 1.43
416.40 1.434
416.50 1.438
416.60 1.442
416.70 1.446
416.80 1.45
416.90 1.454
417.00 1.457
417.10 1.461
417.20 1.464
417.30 1.467
417.40 1.47
417.50 1.473
417.60 1.476
417.70 1.479
417.80 1.481
417.90 1.484
418.00 1.486
418.10 1.488
418.20 1.49
418.30 1.493
418.40 1.494
418.50 1.496
418.60 1.498
418.70 1.5
418.80 1.501
418.90 1.503
419.00 1.504
419.10 1.505
419.20 1.507
419.30 1.508
419.40 1.509
419.50 1.51
419.60 1.511
419.70 1.511
419.80 1.512
419.90 1.513
420.00 1.513
420.10 1.514
420.20 1.514
420.30 1.515
420.40 1.515
420.50 1.515
420.60 1.515
420.70 1.515
420.80 1.515
420.90 1.515
421.00 1.515
421.10 1.514
421.20 1.514
421.30 1.514
421.40 1.513
421.50 1.513
421.60 1.512
421.70 1.511
421.80 1.511
421.90 1.51
422.00 1.509
422.10 1.508
422.20 1.507
422.30 1.506
422.40 1.505
422.50 1.503
422.60 1.502
422.70 1.501
422.80 1.499
422.90 1.498
423.00 1.496
423.10 1.494
423.20 1.493
423.30 1.491
423.40 1.489
423.50 1.487
423.60 1.485
423.70 1.483
423.80 1.481
423.90 1.478
424.00 1.476
424.10 1.474
424.20 1.471
424.30 1.469
424.40 1.466
424.50 1.463
424.60 1.461
424.70 1.458
424.80 1.455
424.90 1.452
425.00 1.449
425.10 1.446
425.20 1.443
425.30 1.439
425.40 1.436
425.50 1.432
425.60 1.429
425.70 1.425
425.80 1.421
425.90 1.417
426.00 1.414
426.10 1.41
426.20 1.405
426.30 1.4
426.40 1.396
426.50 1.391
426.60 1.387
426.70 1.382
426.80 1.377
426.90 1.373
427.00 1.368
427.10 1.363
427.20 1.357
427.30 1.352
427.40 1.347
427.50 1.341
427.60 1.336
427.70 1.33
427.80 1.324
427.90 1.318
428.00 1.312
428.10 1.306
428.20 1.3
428.30 1.293
428.40 1.287
428.50 1.28
428.60 1.273
428.70 1.266
428.80 1.259
428.90 1.252
429.00 1.244
429.10 1.237
429.20 1.229
429.30 1.221
429.40 1.213
429.50 1.205
429.60 1.196
429.70 1.188
429.80 1.179
429.90 1.17
430.00 1.161
430.10 1.152
430.20 1.142
430.30 1.132
430.40 1.123
430.50 1.112
430.60 1.102
430.70 1.092
430.80 1.081
430.90 1.07
431.00 1.059
431.10 1.047
431.20 1.035
431.30 1.023
431.40 1.011
431.50 0.9986
431.60 0.9858
431.70 0.9729
431.80 0.9597
431.90 0.9461
432.00 0.9322
432.10 0.9181
432.20 0.9034
432.30 0.8883
432.40 0.8727
432.50 0.8562
432.60 0.8391
432.70 0.8216
432.80 0.8036
432.90 0.7857
433.00 0.7678
433.10 0.7506
433.20 0.7335
433.30 0.7166
433.40 0.6989
433.50 0.6799
433.60 0.6595
433.70 0.6336
433.80 0.6041
433.90 0.5711
434.00 0.5221
434.10 0.5229
434.20 0.5735
434.30 0.6056
434.40 0.6342
434.50 0.6592
434.60 0.6787
434.70 0.697
434.80 0.714
434.90 0.7301
435.00 0.7465
435.10 0.7629
435.20 0.78
435.30 0.7971
435.40 0.8141
435.50 0.8307
435.60 0.8467
435.70 0.8621
435.80 0.8766
435.90 0.8906
436.00 0.9042
436.10 0.9172
436.20 0.9298
436.30 0.9422
436.40 0.9542
436.50 0.9659
436.60 0.9774
436.70 0.9886
436.80 0.9995
436.90 1.01
437.00 1.021
437.10 1.031
437.20 1.041
437.30 1.05
437.40 1.06
437.50 1.069
437.60 1.078
437.70 1.086
437.80 1.095
437.90 1.103
438.00 1.111
438.10 1.119
438.20 1.126
438.30 1.134
438.40 1.141
438.50 1.148
438.60 1.155
438.70 1.162
438.80 1.168
438.90 1.175
439.00 1.181
439.10 1.187
439.20 1.193
439.30 1.199
439.40 1.204
439.50 1.209
439.60 1.215
439.70 1.22
439.80 1.225
439.90 1.23
440.00 1.235
440.10 1.239
440.20 1.244
440.30 1.248
440.40 1.253
440.50 1.257
440.60 1.261
440.70 1.265
440.80 1.269
440.90 1.273
441.00 1.276
441.10 1.28
441.20 1.283
441.30 1.287
441.40 1.29
441.50 1.293
441.60 1.296
441.70 1.299
441.80 1.302
441.90 1.305
442.00 1.308
442.10 1.311
442.20 1.313
442.30 1.316
442.40 1.318
442.50 1.321
442.60 1.323
442.70 1.325
442.80 1.327
442.90 1.33
443.00 1.332
443.10 1.334
443.20 1.336
443.30 1.337
443.40 1.339
443.50 1.341
443.60 1.343
443.70 1.344
443.80 1.346
443.90 1.348
444.00 1.349
444.10 1.351
444.20 1.352
444.30 1.353
444.40 1.355
444.50 1.356
444.60 1.357
444.70 1.358
444.80 1.359
444.90 1.361
445.00 1.362
445.10 1.363
445.20 1.364
445.30 1.364
445.40 1.365
445.50 1.366
445.60 1.367
445.70 1.368
445.80 1.369
445.90 1.369
446.00 1.37
446.10 1.371
446.20 1.371
446.30 1.372
446.40 1.372
446.50 1.373
446.60 1.374
446.70 1.374
446.80 1.374
446.90 1.375
447.00 1.375
447.10 1.376
447.20 1.376
447.30 1.376
447.40 1.377
447.50 1.377
447.60 1.377
447.70 1.377
447.80 1.377
447.90 1.378
448.00 1.378
448.10 1.378
448.20 1.378
448.30 1.378
448.40 1.378
448.50 1.378
448.60 1.378
448.70 1.378
448.80 1.378
448.90 1.378
449.00 1.379
449.10 1.379
449.20 1.379
449.30 1.379
449.40 1.378
449.50 1.378
449.60 1.378
449.70 1.378
449.80 1.378
449.90 1.378
450.00 1.378
450.10 1.377
450.20 1.377
450.30 1.377
450.40 1.377
450.50 1.376
450.60 1.376
450.70 1.376
450.80 1.376
450.90 1.375
451.00 1.375
451.10 1.375
451.20 1.374
451.30 1.374
451.40 1.374
451.50 1.373
451.60 1.373
451.70 1.372
451.80 1.372
451.90 1.372
452.00 1.371
452.10 1.371
452.20 1.37
452.30 1.37
452.40 1.369
452.50 1.369
452.60 1.368
452.70 1.368
452.80 1.367
452.90 1.367
453.00 1.366
453.10 1.366
453.20 1.365
453.30 1.365
