# Version 2.1 - nm, norm@500 to 1, cut digits, bergeron_4250_80.dat_4250
# Wavelength(nm)  Flambda(ergs/cm^s/s/nm)
300.00 0.2112
300.10 0.2115
300.20 0.2119
300.30 0.2123
300.40 0.2126
300.50 0.213
300.60 0.2134
300.70 0.2137
300.80 0.2141
300.90 0.2145
301.00 0.2148
301.10 0.2152
301.20 0.2155
301.30 0.2159
301.40 0.2163
301.50 0.2166
301.60 0.217
301.70 0.2173
301.80 0.2177
301.90 0.2181
302.00 0.2184
302.10 0.2188
302.20 0.2192
302.30 0.2195
302.40 0.2199
302.50 0.2203
302.60 0.2206
302.70 0.221
302.80 0.2214
302.90 0.2217
303.00 0.2221
303.10 0.2225
303.20 0.2228
303.30 0.2232
303.40 0.2236
303.50 0.2239
303.60 0.2243
303.70 0.2247
303.80 0.225
303.90 0.2254
304.00 0.2258
304.10 0.2261
304.20 0.2265
304.30 0.2269
304.40 0.2273
304.50 0.2276
304.60 0.228
304.70 0.2284
304.80 0.2288
304.90 0.2291
305.00 0.2295
305.10 0.2299
305.20 0.2302
305.30 0.2306
305.40 0.231
305.50 0.2314
305.60 0.2317
305.70 0.2321
305.80 0.2325
305.90 0.2328
306.00 0.2332
306.10 0.2336
306.20 0.234
306.30 0.2343
306.40 0.2347
306.50 0.2351
306.60 0.2355
306.70 0.2359
306.80 0.2362
306.90 0.2366
307.00 0.237
307.10 0.2374
307.20 0.2377
307.30 0.2381
307.40 0.2385
307.50 0.2389
307.60 0.2392
307.70 0.2396
307.80 0.24
307.90 0.2404
308.00 0.2407
308.10 0.2411
308.20 0.2415
308.30 0.2419
308.40 0.2423
308.50 0.2427
308.60 0.243
308.70 0.2434
308.80 0.2438
308.90 0.2442
309.00 0.2446
309.10 0.245
309.20 0.2453
309.30 0.2457
309.40 0.2461
309.50 0.2465
309.60 0.2469
309.70 0.2472
309.80 0.2476
309.90 0.248
310.00 0.2484
310.10 0.2488
310.20 0.2492
310.30 0.2495
310.40 0.2499
310.50 0.2503
310.60 0.2507
310.70 0.2511
310.80 0.2515
310.90 0.2519
311.00 0.2523
311.10 0.2526
311.20 0.253
311.30 0.2534
311.40 0.2538
311.50 0.2542
311.60 0.2546
311.70 0.255
311.80 0.2553
311.90 0.2557
312.00 0.2561
312.10 0.2565
312.20 0.2569
312.30 0.2573
312.40 0.2577
312.50 0.2581
312.60 0.2585
312.70 0.2588
312.80 0.2592
312.90 0.2596
313.00 0.26
313.10 0.2604
313.20 0.2608
313.30 0.2612
313.40 0.2616
313.50 0.262
313.60 0.2624
313.70 0.2628
313.80 0.2631
313.90 0.2635
314.00 0.2639
314.10 0.2643
314.20 0.2647
314.30 0.2651
314.40 0.2655
314.50 0.2659
314.60 0.2663
314.70 0.2667
314.80 0.2671
314.90 0.2675
315.00 0.2679
315.10 0.2683
315.20 0.2687
315.30 0.2691
315.40 0.2695
315.50 0.2699
315.60 0.2703
315.70 0.2707
315.80 0.271
315.90 0.2714
316.00 0.2718
316.10 0.2722
316.20 0.2726
316.30 0.273
316.40 0.2734
316.50 0.2738
316.60 0.2742
316.70 0.2746
316.80 0.275
316.90 0.2754
317.00 0.2758
317.10 0.2762
317.20 0.2766
317.30 0.277
317.40 0.2774
317.50 0.2778
317.60 0.2782
317.70 0.2786
317.80 0.279
317.90 0.2794
318.00 0.2798
318.10 0.2802
318.20 0.2806
318.30 0.281
318.40 0.2814
318.50 0.2818
318.60 0.2822
318.70 0.2826
318.80 0.2831
318.90 0.2835
319.00 0.2839
319.10 0.2843
319.20 0.2847
319.30 0.2851
319.40 0.2855
319.50 0.2859
319.60 0.2863
319.70 0.2867
319.80 0.2871
319.90 0.2875
320.00 0.2879
320.10 0.2883
320.20 0.2887
320.30 0.2891
320.40 0.2895
320.50 0.2899
320.60 0.2903
320.70 0.2907
320.80 0.2912
320.90 0.2916
321.00 0.292
321.10 0.2924
321.20 0.2928
321.30 0.2932
321.40 0.2936
321.50 0.294
321.60 0.2944
321.70 0.2948
321.80 0.2952
321.90 0.2956
322.00 0.296
322.10 0.2964
322.20 0.2969
322.30 0.2973
322.40 0.2977
322.50 0.2981
322.60 0.2985
322.70 0.2989
322.80 0.2993
322.90 0.2997
323.00 0.3002
323.10 0.3006
323.20 0.301
323.30 0.3014
323.40 0.3018
323.50 0.3022
323.60 0.3026
323.70 0.303
323.80 0.3034
323.90 0.3038
324.00 0.3042
324.10 0.3047
324.20 0.3051
324.30 0.3055
324.40 0.3059
324.50 0.3063
324.60 0.3068
324.70 0.3072
324.80 0.3076
324.90 0.308
325.00 0.3084
325.10 0.3088
325.20 0.3093
325.30 0.3097
325.40 0.3101
325.50 0.3105
325.60 0.3109
325.70 0.3113
325.80 0.3117
325.90 0.3121
326.00 0.3126
326.10 0.313
326.20 0.3134
326.30 0.3138
326.40 0.3142
326.50 0.3147
326.60 0.3151
326.70 0.3155
326.80 0.3159
326.90 0.3163
327.00 0.3168
327.10 0.3172
327.20 0.3176
327.30 0.318
327.40 0.3184
327.50 0.3188
327.60 0.3192
327.70 0.3197
327.80 0.3201
327.90 0.3205
328.00 0.3209
328.10 0.3213
328.20 0.3218
328.30 0.3222
328.40 0.3226
328.50 0.323
328.60 0.3235
328.70 0.3239
328.80 0.3243
328.90 0.3247
329.00 0.3251
329.10 0.3256
329.20 0.326
329.30 0.3264
329.40 0.3268
329.50 0.3272
329.60 0.3277
329.70 0.3281
329.80 0.3285
329.90 0.3289
330.00 0.3293
330.10 0.3298
330.20 0.3302
330.30 0.3306
330.40 0.331
330.50 0.3315
330.60 0.3319
330.70 0.3323
330.80 0.3328
330.90 0.3332
331.00 0.3336
331.10 0.334
331.20 0.3345
331.30 0.3349
331.40 0.3353
331.50 0.3357
331.60 0.3361
331.70 0.3366
331.80 0.337
331.90 0.3374
332.00 0.3378
332.10 0.3382
332.20 0.3387
332.30 0.3391
332.40 0.3395
332.50 0.34
332.60 0.3404
332.70 0.3408
332.80 0.3413
332.90 0.3417
333.00 0.3421
333.10 0.3425
333.20 0.343
333.30 0.3434
333.40 0.3438
333.50 0.3443
333.60 0.3447
333.70 0.3451
333.80 0.3455
333.90 0.3459
334.00 0.3464
334.10 0.3468
334.20 0.3472
334.30 0.3477
334.40 0.3481
334.50 0.3485
334.60 0.349
334.70 0.3494
334.80 0.3498
334.90 0.3503
335.00 0.3507
335.10 0.3511
335.20 0.3516
335.30 0.352
335.40 0.3524
335.50 0.3529
335.60 0.3533
335.70 0.3537
335.80 0.3541
335.90 0.3546
336.00 0.355
336.10 0.3554
336.20 0.3559
336.30 0.3563
336.40 0.3567
336.50 0.3572
336.60 0.3576
336.70 0.358
336.80 0.3585
336.90 0.3589
337.00 0.3593
337.10 0.3598
337.20 0.3602
337.30 0.3606
337.40 0.3611
337.50 0.3615
337.60 0.3619
337.70 0.3624
337.80 0.3628
337.90 0.3632
338.00 0.3636
338.10 0.3641
338.20 0.3645
338.30 0.365
338.40 0.3654
338.50 0.3658
338.60 0.3663
338.70 0.3667
338.80 0.3671
338.90 0.3676
339.00 0.368
339.10 0.3684
339.20 0.3689
339.30 0.3693
339.40 0.3697
339.50 0.3702
339.60 0.3706
339.70 0.371
339.80 0.3715
339.90 0.3719
340.00 0.3723
340.10 0.3728
340.20 0.3732
340.30 0.3737
340.40 0.3741
340.50 0.3745
340.60 0.375
340.70 0.3754
340.80 0.3759
340.90 0.3763
341.00 0.3767
341.10 0.3772
341.20 0.3776
341.30 0.3781
341.40 0.3785
341.50 0.3789
341.60 0.3794
341.70 0.3798
341.80 0.3802
341.90 0.3807
342.00 0.3811
342.10 0.3815
342.20 0.382
342.30 0.3824
342.40 0.3829
342.50 0.3833
342.60 0.3838
342.70 0.3842
342.80 0.3846
342.90 0.3851
343.00 0.3855
343.10 0.386
343.20 0.3864
343.30 0.3868
343.40 0.3873
343.50 0.3877
343.60 0.3881
343.70 0.3886
343.80 0.389
343.90 0.3895
344.00 0.3899
344.10 0.3903
344.20 0.3908
344.30 0.3912
344.40 0.3917
344.50 0.3921
344.60 0.3926
344.70 0.393
344.80 0.3934
344.90 0.3939
345.00 0.3943
345.10 0.3948
345.20 0.3952
345.30 0.3956
345.40 0.3961
345.50 0.3965
345.60 0.397
345.70 0.3974
345.80 0.3978
345.90 0.3983
346.00 0.3987
346.10 0.3992
346.20 0.3996
346.30 0.4001
346.40 0.4005
346.50 0.401
346.60 0.4014
346.70 0.4018
346.80 0.4023
346.90 0.4027
347.00 0.4032
347.10 0.4036
347.20 0.4041
347.30 0.4045
347.40 0.4049
347.50 0.4054
347.60 0.4058
347.70 0.4063
347.80 0.4067
347.90 0.4071
348.00 0.4076
348.10 0.408
348.20 0.4085
348.30 0.4089
348.40 0.4094
348.50 0.4098
348.60 0.4103
348.70 0.4107
348.80 0.4112
348.90 0.4116
349.00 0.4121
349.10 0.4125
349.20 0.413
349.30 0.4134
349.40 0.4138
349.50 0.4143
349.60 0.4147
349.70 0.4152
349.80 0.4156
349.90 0.4161
350.00 0.4165
350.10 0.4169
350.20 0.4174
350.30 0.4178
350.40 0.4183
350.50 0.4187
350.60 0.4192
350.70 0.4196
350.80 0.4201
350.90 0.4205
351.00 0.421
351.10 0.4214
351.20 0.4219
351.30 0.4223
351.40 0.4228
351.50 0.4232
351.60 0.4236
351.70 0.4241
351.80 0.4245
351.90 0.425
352.00 0.4254
352.10 0.4259
352.20 0.4263
352.30 0.4268
352.40 0.4272
352.50 0.4277
352.60 0.4281
352.70 0.4286
352.80 0.429
352.90 0.4295
353.00 0.4299
353.10 0.4304
353.20 0.4308
353.30 0.4313
353.40 0.4317
353.50 0.4322
353.60 0.4326
353.70 0.433
353.80 0.4335
353.90 0.4339
354.00 0.4344
354.10 0.4348
354.20 0.4353
354.30 0.4357
354.40 0.4362
354.50 0.4366
354.60 0.4371
354.70 0.4375
354.80 0.438
354.90 0.4384
355.00 0.4389
355.10 0.4393
355.20 0.4398
355.30 0.4402
355.40 0.4407
355.50 0.4411
355.60 0.4416
355.70 0.442
355.80 0.4425
355.90 0.4429
356.00 0.4434
356.10 0.4438
356.20 0.4443
356.30 0.4447
356.40 0.4452
356.50 0.4456
356.60 0.4461
356.70 0.4465
356.80 0.447
356.90 0.4474
357.00 0.4479
357.10 0.4483
357.20 0.4488
357.30 0.4492
357.40 0.4497
357.50 0.4501
357.60 0.4506
357.70 0.451
357.80 0.4515
357.90 0.4519
358.00 0.4524
358.10 0.4528
358.20 0.4533
358.30 0.4537
358.40 0.4542
358.50 0.4546
358.60 0.4551
358.70 0.4555
358.80 0.456
358.90 0.4564
359.00 0.4569
359.10 0.4573
359.20 0.4578
359.30 0.4582
359.40 0.4587
359.50 0.4591
359.60 0.4596
359.70 0.46
359.80 0.4605
359.90 0.4609
360.00 0.4614
360.10 0.4618
360.20 0.4623
360.30 0.4627
360.40 0.4632
360.50 0.4637
360.60 0.4641
360.70 0.4646
360.80 0.465
360.90 0.4655
361.00 0.4659
361.10 0.4664
361.20 0.4668
361.30 0.4673
361.40 0.4677
361.50 0.4682
361.60 0.4686
361.70 0.4691
361.80 0.4695
361.90 0.47
362.00 0.4704
362.10 0.4709
362.20 0.4713
362.30 0.4718
362.40 0.4722
362.50 0.4727
362.60 0.4731
362.70 0.4736
362.80 0.474
362.90 0.4745
363.00 0.4749
363.10 0.4754
363.20 0.4758
363.30 0.4763
363.40 0.4767
363.50 0.4772
363.60 0.4777
363.70 0.4781
363.80 0.4786
363.90 0.479
364.00 0.4795
364.10 0.4799
364.20 0.4804
364.30 0.4808
364.40 0.4813
364.50 0.4817
364.60 0.4822
364.70 0.4826
364.80 0.4831
364.90 0.4835
365.00 0.484
365.10 0.4845
365.20 0.4849
365.30 0.4854
365.40 0.4858
365.50 0.4863
365.60 0.4867
365.70 0.4872
365.80 0.4876
365.90 0.4881
366.00 0.4885
366.10 0.489
366.20 0.4894
366.30 0.4899
366.40 0.4903
366.50 0.4908
366.60 0.4913
366.70 0.4917
366.80 0.4922
366.90 0.4926
367.00 0.4931
367.10 0.4935
367.20 0.494
367.30 0.4944
367.40 0.4949
367.50 0.4953
367.60 0.4958
367.70 0.4962
367.80 0.4967
367.90 0.4971
368.00 0.4976
368.10 0.498
368.20 0.4985
368.30 0.4989
368.40 0.4994
368.50 0.4999
368.60 0.5003
368.70 0.5008
368.80 0.5012
368.90 0.5017
369.00 0.5021
369.10 0.5026
369.20 0.503
369.30 0.5035
369.40 0.5039
369.50 0.5044
369.60 0.5048
369.70 0.5053
369.80 0.5057
369.90 0.5062
370.00 0.5066
370.10 0.5071
370.20 0.5075
370.30 0.508
370.40 0.5085
370.50 0.5089
370.60 0.5094
370.70 0.5098
370.80 0.5103
370.90 0.5107
371.00 0.5112
371.10 0.5116
371.20 0.5121
371.30 0.5125
371.40 0.513
371.50 0.5134
371.60 0.5139
371.70 0.5143
371.80 0.5148
371.90 0.5152
372.00 0.5157
372.10 0.5161
372.20 0.5166
372.30 0.5171
372.40 0.5175
372.50 0.518
372.60 0.5184
372.70 0.5189
372.80 0.5193
372.90 0.5198
373.00 0.5202
373.10 0.5207
373.20 0.5212
373.30 0.5216
373.40 0.5221
373.50 0.5225
373.60 0.523
373.70 0.5234
373.80 0.5239
373.90 0.5243
374.00 0.5248
374.10 0.5252
374.20 0.5257
374.30 0.5261
374.40 0.5266
374.50 0.527
374.60 0.5275
374.70 0.5279
374.80 0.5284
374.90 0.5289
375.00 0.5293
375.10 0.5298
375.20 0.5302
375.30 0.5307
375.40 0.5311
375.50 0.5316
375.60 0.532
375.70 0.5325
375.80 0.5329
375.90 0.5333
376.00 0.5338
376.10 0.5342
376.20 0.5347
376.30 0.5352
376.40 0.5356
376.50 0.5361
376.60 0.5365
376.70 0.537
376.80 0.5374
376.90 0.5379
377.00 0.5383
377.10 0.5388
377.20 0.5392
377.30 0.5397
377.40 0.5401
377.50 0.5406
377.60 0.541
377.70 0.5415
377.80 0.5419
377.90 0.5424
378.00 0.5429
378.10 0.5433
378.20 0.5438
378.30 0.5442
378.40 0.5447
378.50 0.5451
378.60 0.5456
378.70 0.546
378.80 0.5465
378.90 0.5469
379.00 0.5474
379.10 0.5478
379.20 0.5483
379.30 0.5487
379.40 0.5492
379.50 0.5496
379.60 0.5501
379.70 0.5505
379.80 0.551
379.90 0.5514
380.00 0.5519
380.10 0.5523
380.20 0.5528
380.30 0.5532
380.40 0.5537
380.50 0.5541
380.60 0.5546
380.70 0.555
380.80 0.5555
380.90 0.5559
381.00 0.5564
381.10 0.5568
381.20 0.5573
381.30 0.5577
381.40 0.5582
381.50 0.5586
381.60 0.5591
381.70 0.5595
381.80 0.56
381.90 0.5604
382.00 0.5609
382.10 0.5613
382.20 0.5618
382.30 0.5622
382.40 0.5627
382.50 0.5632
382.60 0.5636
382.70 0.5641
382.80 0.5645
382.90 0.5649
383.00 0.5654
383.10 0.5658
383.20 0.5663
383.30 0.5667
383.40 0.5672
383.50 0.5676
383.60 0.5681
383.70 0.5685
383.80 0.569
383.90 0.5694
384.00 0.5699
384.10 0.5703
384.20 0.5708
384.30 0.5712
384.40 0.5717
384.50 0.5721
384.60 0.5726
384.70 0.573
384.80 0.5735
384.90 0.5739
385.00 0.5744
385.10 0.5748
385.20 0.5753
385.30 0.5757
385.40 0.5762
385.50 0.5766
385.60 0.5771
385.70 0.5775
385.80 0.578
385.90 0.5784
386.00 0.5789
386.10 0.5793
386.20 0.5798
386.30 0.5802
386.40 0.5807
386.50 0.5811
386.60 0.5816
386.70 0.582
386.80 0.5825
386.90 0.5829
387.00 0.5834
387.10 0.5838
387.20 0.5843
387.30 0.5847
387.40 0.5851
387.50 0.5856
387.60 0.586
387.70 0.5865
387.80 0.5869
387.90 0.5874
388.00 0.5878
388.10 0.5883
388.20 0.5887
388.30 0.5892
388.40 0.5896
388.50 0.5901
388.60 0.5905
388.70 0.591
388.80 0.5914
388.90 0.5919
389.00 0.5923
389.10 0.5927
389.20 0.5932
389.30 0.5936
389.40 0.5941
389.50 0.5945
389.60 0.595
389.70 0.5954
389.80 0.5959
389.90 0.5963
390.00 0.5968
390.10 0.5972
390.20 0.5977
390.30 0.5981
390.40 0.5985
390.50 0.599
390.60 0.5994
390.70 0.5999
390.80 0.6003
390.90 0.6008
391.00 0.6012
391.10 0.6017
391.20 0.6021
391.30 0.6025
391.40 0.603
391.50 0.6034
391.60 0.6039
391.70 0.6043
391.80 0.6048
391.90 0.6052
392.00 0.6057
392.10 0.6061
392.20 0.6066
392.30 0.607
392.40 0.6075
392.50 0.6079
392.60 0.6083
392.70 0.6088
392.80 0.6092
392.90 0.6097
393.00 0.6101
393.10 0.6106
393.20 0.611
393.30 0.6114
393.40 0.6119
393.50 0.6123
393.60 0.6128
393.70 0.6132
393.80 0.6137
393.90 0.6141
394.00 0.6145
394.10 0.615
394.20 0.6154
394.30 0.6159
394.40 0.6163
394.50 0.6168
394.60 0.6172
394.70 0.6176
394.80 0.6181
394.90 0.6185
395.00 0.619
395.10 0.6194
395.20 0.6198
395.30 0.6203
395.40 0.6207
395.50 0.6212
395.60 0.6216
395.70 0.6221
395.80 0.6225
395.90 0.623
396.00 0.6234
396.10 0.6238
396.20 0.6243
396.30 0.6247
396.40 0.6252
396.50 0.6256
396.60 0.626
396.70 0.6265
396.80 0.6269
396.90 0.6274
397.00 0.6278
397.10 0.6282
397.20 0.6287
397.30 0.6291
397.40 0.6296
397.50 0.63
397.60 0.6304
397.70 0.6309
397.80 0.6313
397.90 0.6318
398.00 0.6322
398.10 0.6326
398.20 0.6331
398.30 0.6335
398.40 0.634
398.50 0.6344
398.60 0.6348
398.70 0.6353
398.80 0.6357
398.90 0.6362
399.00 0.6366
399.10 0.637
399.20 0.6375
399.30 0.6379
399.40 0.6383
399.50 0.6388
399.60 0.6392
399.70 0.6397
399.80 0.6401
399.90 0.6405
400.00 0.641
400.10 0.6414
400.20 0.6419
400.30 0.6423
400.40 0.6427
400.50 0.6432
400.60 0.6436
400.70 0.644
400.80 0.6445
400.90 0.6449
401.00 0.6453
401.10 0.6458
401.20 0.6462
401.30 0.6467
401.40 0.6471
401.50 0.6475
401.60 0.648
401.70 0.6484
401.80 0.6488
401.90 0.6493
402.00 0.6497
402.10 0.6502
402.20 0.6506
402.30 0.651
402.40 0.6515
402.50 0.6519
402.60 0.6523
402.70 0.6528
402.80 0.6532
402.90 0.6536
403.00 0.6541
403.10 0.6545
403.20 0.6549
403.30 0.6554
403.40 0.6558
403.50 0.6562
403.60 0.6567
403.70 0.6571
403.80 0.6575
403.90 0.658
404.00 0.6584
404.10 0.6588
404.20 0.6593
404.30 0.6597
404.40 0.6601
404.50 0.6606
404.60 0.661
404.70 0.6614
404.80 0.6619
404.90 0.6623
405.00 0.6627
405.10 0.6632
405.20 0.6636
405.30 0.664
405.40 0.6645
405.50 0.6649
405.60 0.6653
405.70 0.6658
405.80 0.6662
405.90 0.6666
406.00 0.6671
406.10 0.6675
406.20 0.6679
406.30 0.6684
406.40 0.6688
406.50 0.6692
406.60 0.6696
406.70 0.6701
406.80 0.6705
406.90 0.6709
407.00 0.6714
407.10 0.6718
407.20 0.6722
407.30 0.6727
407.40 0.6731
407.50 0.6735
407.60 0.674
407.70 0.6744
407.80 0.6748
407.90 0.6752
408.00 0.6757
408.10 0.6761
408.20 0.6765
408.30 0.677
408.40 0.6774
408.50 0.6778
408.60 0.6783
408.70 0.6787
408.80 0.6791
408.90 0.6795
409.00 0.68
409.10 0.6804
409.20 0.6808
409.30 0.6812
409.40 0.6817
409.50 0.6821
409.60 0.6825
409.70 0.683
409.80 0.6834
409.90 0.6838
410.00 0.6842
410.10 0.6847
410.20 0.6851
410.30 0.6855
410.40 0.6859
410.50 0.6864
410.60 0.6868
410.70 0.6872
410.80 0.6877
410.90 0.6881
411.00 0.6885
411.10 0.6889
411.20 0.6893
411.30 0.6898
411.40 0.6902
411.50 0.6906
411.60 0.6911
411.70 0.6915
411.80 0.6919
411.90 0.6923
412.00 0.6928
412.10 0.6932
412.20 0.6936
412.30 0.694
412.40 0.6944
412.50 0.6949
412.60 0.6953
412.70 0.6957
412.80 0.6961
412.90 0.6966
413.00 0.697
413.10 0.6974
413.20 0.6978
413.30 0.6983
413.40 0.6987
413.50 0.6991
413.60 0.6995
413.70 0.7
413.80 0.7004
413.90 0.7008
414.00 0.7012
414.10 0.7016
414.20 0.7021
414.30 0.7025
414.40 0.7029
414.50 0.7033
414.60 0.7038
414.70 0.7042
414.80 0.7046
414.90 0.705
415.00 0.7054
415.10 0.7058
415.20 0.7063
415.30 0.7067
415.40 0.7071
415.50 0.7075
415.60 0.708
415.70 0.7084
415.80 0.7088
415.90 0.7092
416.00 0.7096
416.10 0.7101
416.20 0.7105
416.30 0.7109
416.40 0.7113
416.50 0.7117
416.60 0.7121
416.70 0.7126
416.80 0.713
416.90 0.7134
417.00 0.7138
417.10 0.7142
417.20 0.7147
417.30 0.7151
417.40 0.7155
417.50 0.7159
417.60 0.7163
417.70 0.7167
417.80 0.7172
417.90 0.7176
418.00 0.718
418.10 0.7184
418.20 0.7188
418.30 0.7192
418.40 0.7197
418.50 0.7201
418.60 0.7205
418.70 0.7209
418.80 0.7213
418.90 0.7217
419.00 0.7222
419.10 0.7226
419.20 0.723
419.30 0.7234
419.40 0.7238
419.50 0.7242
419.60 0.7246
419.70 0.7251
419.80 0.7255
419.90 0.7259
420.00 0.7263
420.10 0.7267
420.20 0.7271
420.30 0.7275
420.40 0.728
420.50 0.7284
420.60 0.7288
420.70 0.7292
420.80 0.7296
420.90 0.73
421.00 0.7304
421.10 0.7308
421.20 0.7313
421.30 0.7317
421.40 0.7321
421.50 0.7325
421.60 0.7329
421.70 0.7333
421.80 0.7337
421.90 0.7341
422.00 0.7345
422.10 0.735
422.20 0.7354
422.30 0.7358
422.40 0.7362
422.50 0.7366
422.60 0.737
422.70 0.7374
422.80 0.7378
422.90 0.7382
423.00 0.7386
423.10 0.7391
423.20 0.7395
423.30 0.7399
423.40 0.7403
423.50 0.7407
423.60 0.7411
423.70 0.7415
423.80 0.7419
423.90 0.7423
424.00 0.7427
424.10 0.7431
424.20 0.7436
424.30 0.744
424.40 0.7444
424.50 0.7448
424.60 0.7452
424.70 0.7456
424.80 0.746
424.90 0.7464
425.00 0.7468
425.10 0.7472
425.20 0.7476
425.30 0.748
425.40 0.7484
425.50 0.7488
425.60 0.7493
425.70 0.7497
425.80 0.7501
425.90 0.7505
426.00 0.7509
426.10 0.7513
426.20 0.7517
426.30 0.7521
426.40 0.7525
426.50 0.7529
426.60 0.7533
426.70 0.7537
426.80 0.7541
426.90 0.7545
427.00 0.7549
427.10 0.7553
427.20 0.7557
427.30 0.7561
427.40 0.7565
427.50 0.7569
427.60 0.7573
427.70 0.7577
427.80 0.7581
427.90 0.7585
428.00 0.7589
428.10 0.7593
428.20 0.7597
428.30 0.7601
428.40 0.7605
428.50 0.7609
428.60 0.7613
428.70 0.7617
428.80 0.7621
428.90 0.7625
429.00 0.7629
429.10 0.7633
429.20 0.7638
429.30 0.7642
429.40 0.7645
429.50 0.7649
429.60 0.7653
429.70 0.7657
429.80 0.7661
429.90 0.7665
430.00 0.7669
430.10 0.7673
430.20 0.7677
430.30 0.7681
430.40 0.7685
430.50 0.7689
430.60 0.7693
430.70 0.7697
430.80 0.7701
430.90 0.7705
431.00 0.7709
431.10 0.7713
431.20 0.7717
431.30 0.7721
431.40 0.7725
431.50 0.7729
431.60 0.7733
431.70 0.7737
431.80 0.7741
431.90 0.7745
432.00 0.7749
432.10 0.7753
432.20 0.7757
432.30 0.7761
432.40 0.7765
432.50 0.7769
432.60 0.7772
432.70 0.7776
432.80 0.778
432.90 0.7784
433.00 0.7788
433.10 0.7792
433.20 0.7796
433.30 0.78
433.40 0.7804
433.50 0.7808
433.60 0.7812
433.70 0.7816
433.80 0.782
433.90 0.7823
434.00 0.7827
434.10 0.7831
434.20 0.7835
434.30 0.7839
434.40 0.7843
434.50 0.7847
434.60 0.7851
434.70 0.7855
434.80 0.7859
434.90 0.7863
435.00 0.7867
435.10 0.7871
435.20 0.7874
435.30 0.7878
435.40 0.7882
435.50 0.7886
435.60 0.789
435.70 0.7894
435.80 0.7898
435.90 0.7902
436.00 0.7906
436.10 0.791
436.20 0.7913
436.30 0.7917
436.40 0.7921
436.50 0.7925
436.60 0.7929
436.70 0.7933
436.80 0.7937
436.90 0.7941
437.00 0.7944
437.10 0.7948
437.20 0.7952
437.30 0.7956
437.40 0.796
437.50 0.7964
437.60 0.7968
437.70 0.7972
437.80 0.7975
437.90 0.7979
438.00 0.7983
438.10 0.7987
438.20 0.7991
438.30 0.7995
438.40 0.7999
438.50 0.8002
438.60 0.8006
438.70 0.801
438.80 0.8014
438.90 0.8018
439.00 0.8022
439.10 0.8025
439.20 0.8029
439.30 0.8033
439.40 0.8037
439.50 0.8041
439.60 0.8045
439.70 0.8048
439.80 0.8052
439.90 0.8056
440.00 0.806
440.10 0.8064
440.20 0.8067
440.30 0.8071
440.40 0.8075
440.50 0.8079
440.60 0.8083
440.70 0.8087
440.80 0.809
440.90 0.8094
441.00 0.8098
441.10 0.8102
441.20 0.8106
441.30 0.8109
441.40 0.8113
441.50 0.8117
441.60 0.8121
441.70 0.8125
441.80 0.8128
441.90 0.8132
442.00 0.8136
442.10 0.814
442.20 0.8143
442.30 0.8147
442.40 0.8151
442.50 0.8155
442.60 0.8159
442.70 0.8162
442.80 0.8166
442.90 0.817
443.00 0.8174
