# Version 2.1 - nm, norm@500 to 1, cut digits, bergeron_13500_90.dat_13500
# Wavelength(nm)  Flambda(ergs/cm^s/s/nm)
300.00 2.42
300.10 2.418
300.20 2.416
300.30 2.415
300.40 2.413
300.50 2.411
300.60 2.41
300.70 2.408
300.80 2.406
300.90 2.405
301.00 2.403
301.10 2.401
301.20 2.4
301.30 2.398
301.40 2.396
301.50 2.395
301.60 2.393
301.70 2.391
301.80 2.39
301.90 2.388
302.00 2.386
302.10 2.385
302.20 2.383
302.30 2.381
302.40 2.38
302.50 2.378
302.60 2.376
302.70 2.375
302.80 2.373
302.90 2.371
303.00 2.37
303.10 2.368
303.20 2.366
303.30 2.365
303.40 2.363
303.50 2.362
303.60 2.36
303.70 2.358
303.80 2.357
303.90 2.355
304.00 2.353
304.10 2.352
304.20 2.35
304.30 2.348
304.40 2.347
304.50 2.345
304.60 2.344
304.70 2.342
304.80 2.34
304.90 2.339
305.00 2.337
305.10 2.335
305.20 2.334
305.30 2.332
305.40 2.331
305.50 2.329
305.60 2.327
305.70 2.326
305.80 2.324
305.90 2.323
306.00 2.321
306.10 2.319
306.20 2.318
306.30 2.316
306.40 2.315
306.50 2.313
306.60 2.311
306.70 2.31
306.80 2.308
306.90 2.307
307.00 2.305
307.10 2.303
307.20 2.302
307.30 2.3
307.40 2.299
307.50 2.297
307.60 2.295
307.70 2.294
307.80 2.292
307.90 2.291
308.00 2.289
308.10 2.288
308.20 2.286
308.30 2.284
308.40 2.283
308.50 2.281
308.60 2.28
308.70 2.278
308.80 2.277
308.90 2.275
309.00 2.273
309.10 2.272
309.20 2.27
309.30 2.269
309.40 2.267
309.50 2.266
309.60 2.264
309.70 2.262
309.80 2.261
309.90 2.259
310.00 2.258
310.10 2.256
310.20 2.255
310.30 2.253
310.40 2.252
310.50 2.25
310.60 2.248
310.70 2.247
310.80 2.245
310.90 2.244
311.00 2.242
311.10 2.241
311.20 2.239
311.30 2.238
311.40 2.236
311.50 2.235
311.60 2.233
311.70 2.231
311.80 2.23
311.90 2.228
312.00 2.227
312.10 2.225
312.20 2.224
312.30 2.222
312.40 2.221
312.50 2.219
312.60 2.218
312.70 2.216
312.80 2.215
312.90 2.213
313.00 2.212
313.10 2.21
313.20 2.209
313.30 2.207
313.40 2.206
313.50 2.204
313.60 2.203
313.70 2.201
313.80 2.2
313.90 2.198
314.00 2.197
314.10 2.195
314.20 2.194
314.30 2.192
314.40 2.19
314.50 2.189
314.60 2.187
314.70 2.186
314.80 2.184
314.90 2.183
315.00 2.181
315.10 2.18
315.20 2.179
315.30 2.177
315.40 2.176
315.50 2.174
315.60 2.173
315.70 2.171
315.80 2.17
315.90 2.168
316.00 2.167
316.10 2.165
316.20 2.164
316.30 2.162
316.40 2.161
316.50 2.159
316.60 2.158
316.70 2.156
316.80 2.155
316.90 2.153
317.00 2.152
317.10 2.15
317.20 2.149
317.30 2.147
317.40 2.146
317.50 2.144
317.60 2.143
317.70 2.142
317.80 2.14
317.90 2.139
318.00 2.137
318.10 2.136
318.20 2.134
318.30 2.133
318.40 2.131
318.50 2.13
318.60 2.128
318.70 2.127
318.80 2.126
318.90 2.124
319.00 2.123
319.10 2.121
319.20 2.12
319.30 2.118
319.40 2.117
319.50 2.115
319.60 2.114
319.70 2.112
319.80 2.111
319.90 2.11
320.00 2.108
320.10 2.107
320.20 2.105
320.30 2.104
320.40 2.102
320.50 2.101
320.60 2.1
320.70 2.098
320.80 2.097
320.90 2.095
321.00 2.094
321.10 2.092
321.20 2.091
321.30 2.09
321.40 2.088
321.50 2.087
321.60 2.085
321.70 2.084
321.80 2.082
321.90 2.081
322.00 2.08
322.10 2.078
322.20 2.077
322.30 2.075
322.40 2.074
322.50 2.073
322.60 2.071
322.70 2.07
322.80 2.068
322.90 2.067
323.00 2.066
323.10 2.064
323.20 2.063
323.30 2.061
323.40 2.06
323.50 2.059
323.60 2.057
323.70 2.056
323.80 2.054
323.90 2.053
324.00 2.052
324.10 2.05
324.20 2.049
324.30 2.047
324.40 2.046
324.50 2.045
324.60 2.043
324.70 2.042
324.80 2.04
324.90 2.039
325.00 2.038
325.10 2.036
325.20 2.035
325.30 2.034
325.40 2.032
325.50 2.031
325.60 2.029
325.70 2.028
325.80 2.027
325.90 2.025
326.00 2.024
326.10 2.023
326.20 2.021
326.30 2.02
326.40 2.018
326.50 2.017
326.60 2.016
326.70 2.014
326.80 2.013
326.90 2.012
327.00 2.01
327.10 2.009
327.20 2.008
327.30 2.006
327.40 2.005
327.50 2.004
327.60 2.002
327.70 2.001
327.80 1.999
327.90 1.998
328.00 1.997
328.10 1.995
328.20 1.994
328.30 1.993
328.40 1.991
328.50 1.99
328.60 1.989
328.70 1.987
328.80 1.986
328.90 1.985
329.00 1.983
329.10 1.982
329.20 1.981
329.30 1.979
329.40 1.978
329.50 1.977
329.60 1.975
329.70 1.974
329.80 1.973
329.90 1.971
330.00 1.97
330.10 1.969
330.20 1.967
330.30 1.966
330.40 1.965
330.50 1.963
330.60 1.962
330.70 1.961
330.80 1.959
330.90 1.958
331.00 1.957
331.10 1.955
331.20 1.954
331.30 1.953
331.40 1.951
331.50 1.95
331.60 1.949
331.70 1.948
331.80 1.946
331.90 1.945
332.00 1.944
332.10 1.942
332.20 1.941
332.30 1.94
332.40 1.938
332.50 1.937
332.60 1.936
332.70 1.934
332.80 1.933
332.90 1.932
333.00 1.931
333.10 1.929
333.20 1.928
333.30 1.927
333.40 1.925
333.50 1.924
333.60 1.923
333.70 1.922
333.80 1.92
333.90 1.919
334.00 1.918
334.10 1.916
334.20 1.915
334.30 1.914
334.40 1.913
334.50 1.911
334.60 1.91
334.70 1.909
334.80 1.907
334.90 1.906
335.00 1.905
335.10 1.904
335.20 1.902
335.30 1.901
335.40 1.9
335.50 1.898
335.60 1.897
335.70 1.896
335.80 1.895
335.90 1.893
336.00 1.892
336.10 1.891
336.20 1.89
336.30 1.888
336.40 1.887
336.50 1.886
336.60 1.885
336.70 1.883
336.80 1.882
336.90 1.881
337.00 1.879
337.10 1.878
337.20 1.877
337.30 1.876
337.40 1.874
337.50 1.873
337.60 1.872
337.70 1.871
337.80 1.869
337.90 1.868
338.00 1.867
338.10 1.866
338.20 1.864
338.30 1.863
338.40 1.862
338.50 1.861
338.60 1.86
338.70 1.858
338.80 1.857
338.90 1.856
339.00 1.855
339.10 1.853
339.20 1.852
339.30 1.851
339.40 1.85
339.50 1.848
339.60 1.847
339.70 1.846
339.80 1.845
339.90 1.843
340.00 1.842
340.10 1.841
340.20 1.84
340.30 1.839
340.40 1.837
340.50 1.836
340.60 1.835
340.70 1.834
340.80 1.832
340.90 1.831
341.00 1.83
341.10 1.829
341.20 1.828
341.30 1.826
341.40 1.825
341.50 1.824
341.60 1.823
341.70 1.821
341.80 1.82
341.90 1.819
342.00 1.818
342.10 1.817
342.20 1.815
342.30 1.814
342.40 1.813
342.50 1.812
342.60 1.811
342.70 1.809
342.80 1.808
342.90 1.807
343.00 1.806
343.10 1.805
343.20 1.803
343.30 1.802
343.40 1.801
343.50 1.8
343.60 1.799
343.70 1.797
343.80 1.796
343.90 1.795
344.00 1.794
344.10 1.793
344.20 1.792
344.30 1.79
344.40 1.789
344.50 1.788
344.60 1.787
344.70 1.786
344.80 1.784
344.90 1.783
345.00 1.782
345.10 1.781
345.20 1.78
345.30 1.778
345.40 1.777
345.50 1.776
345.60 1.775
345.70 1.774
345.80 1.773
345.90 1.771
346.00 1.77
346.10 1.769
346.20 1.768
346.30 1.767
346.40 1.766
346.50 1.764
346.60 1.763
346.70 1.762
346.80 1.761
346.90 1.76
347.00 1.759
347.10 1.757
347.20 1.756
347.30 1.755
347.40 1.754
347.50 1.753
347.60 1.752
347.70 1.75
347.80 1.749
347.90 1.748
348.00 1.747
348.10 1.746
348.20 1.745
348.30 1.744
348.40 1.742
348.50 1.741
348.60 1.74
348.70 1.739
348.80 1.738
348.90 1.737
349.00 1.736
349.10 1.734
349.20 1.733
349.30 1.732
349.40 1.731
349.50 1.73
349.60 1.729
349.70 1.728
349.80 1.726
349.90 1.725
350.00 1.724
350.10 1.723
350.20 1.722
350.30 1.721
350.40 1.72
350.50 1.718
350.60 1.717
350.70 1.716
350.80 1.715
350.90 1.714
351.00 1.713
351.10 1.712
351.20 1.711
351.30 1.709
351.40 1.708
351.50 1.707
351.60 1.706
351.70 1.705
351.80 1.704
351.90 1.703
352.00 1.702
352.10 1.7
352.20 1.699
352.30 1.698
352.40 1.697
352.50 1.696
352.60 1.695
352.70 1.694
352.80 1.693
352.90 1.692
353.00 1.69
353.10 1.689
353.20 1.688
353.30 1.687
353.40 1.686
353.50 1.685
353.60 1.684
353.70 1.683
353.80 1.682
353.90 1.681
354.00 1.679
354.10 1.678
354.20 1.677
354.30 1.676
354.40 1.675
354.50 1.674
354.60 1.673
354.70 1.672
354.80 1.671
354.90 1.67
355.00 1.668
355.10 1.667
355.20 1.666
355.30 1.665
355.40 1.664
355.50 1.663
355.60 1.662
355.70 1.661
355.80 1.66
355.90 1.659
356.00 1.658
356.10 1.656
356.20 1.655
356.30 1.654
356.40 1.653
356.50 1.652
356.60 1.651
356.70 1.65
356.80 1.649
356.90 1.648
357.00 1.647
357.10 1.646
357.20 1.645
357.30 1.644
357.40 1.642
357.50 1.641
357.60 1.64
357.70 1.639
357.80 1.638
357.90 1.637
358.00 1.636
358.10 1.635
358.20 1.634
358.30 1.633
358.40 1.632
358.50 1.631
358.60 1.63
358.70 1.629
358.80 1.628
358.90 1.626
359.00 1.625
359.10 1.624
359.20 1.623
359.30 1.622
359.40 1.621
359.50 1.62
359.60 1.619
359.70 1.618
359.80 1.617
359.90 1.616
360.00 1.615
360.10 1.614
360.20 1.613
360.30 1.612
360.40 1.611
360.50 1.61
360.60 1.609
360.70 1.608
360.80 1.606
360.90 1.605
361.00 1.604
361.10 1.603
361.20 1.602
361.30 1.601
361.40 1.6
361.50 1.599
361.60 1.598
361.70 1.597
361.80 1.596
361.90 1.595
362.00 1.594
362.10 1.593
362.20 1.592
362.30 1.591
362.40 1.59
362.50 1.589
362.60 1.588
362.70 1.587
362.80 1.586
362.90 1.585
363.00 1.584
363.10 1.583
363.20 1.581
363.30 1.58
363.40 1.579
363.50 1.578
363.60 1.577
363.70 1.575
363.80 1.574
363.90 1.573
364.00 1.572
364.10 1.571
364.20 1.569
364.30 1.568
364.40 1.567
364.50 1.566
364.60 1.565
364.70 1.563
364.80 1.562
364.90 1.561
365.00 1.56
365.10 1.558
365.20 1.557
365.30 1.556
365.40 1.555
365.50 1.553
365.60 1.552
365.70 1.551
365.80 1.55
365.90 1.549
366.00 1.547
366.10 1.546
366.20 1.545
366.30 1.544
366.40 1.543
366.50 1.542
366.60 1.541
366.70 1.54
366.80 1.539
366.90 1.538
367.00 1.537
367.10 1.536
367.20 1.535
367.30 1.534
367.40 1.532
367.50 1.531
367.60 1.53
367.70 1.529
367.80 1.528
367.90 1.527
368.00 1.526
368.10 1.525
368.20 1.524
368.30 1.523
368.40 1.522
368.50 1.521
368.60 1.52
368.70 1.519
368.80 1.518
368.90 1.517
369.00 1.516
369.10 1.515
369.20 1.514
369.30 1.513
369.40 1.512
369.50 1.511
369.60 1.51
369.70 1.508
369.80 1.507
369.90 1.506
370.00 1.505
370.10 1.504
370.20 1.503
370.30 1.503
370.40 1.502
370.50 1.501
370.60 1.5
370.70 1.499
370.80 1.498
370.90 1.497
371.00 1.496
371.10 1.495
371.20 1.494
371.30 1.493
371.40 1.492
371.50 1.491
371.60 1.49
371.70 1.489
371.80 1.489
371.90 1.488
372.00 1.487
372.10 1.486
372.20 1.485
372.30 1.485
372.40 1.484
372.50 1.483
372.60 1.482
372.70 1.482
372.80 1.481
372.90 1.48
373.00 1.48
373.10 1.479
373.20 1.478
373.30 1.477
373.40 1.477
373.50 1.476
373.60 1.475
373.70 1.475
373.80 1.474
373.90 1.473
374.00 1.473
374.10 1.472
374.20 1.472
374.30 1.471
374.40 1.471
374.50 1.47
374.60 1.47
374.70 1.469
374.80 1.469
374.90 1.468
375.00 1.467
375.10 1.467
375.20 1.466
375.30 1.466
375.40 1.465
375.50 1.465
375.60 1.464
375.70 1.464
375.80 1.463
375.90 1.463
376.00 1.462
376.10 1.462
376.20 1.461
376.30 1.461
376.40 1.46
376.50 1.46
376.60 1.459
376.70 1.459
376.80 1.458
376.90 1.458
377.00 1.457
377.10 1.456
377.20 1.456
377.30 1.455
377.40 1.454
377.50 1.453
377.60 1.452
377.70 1.452
377.80 1.451
377.90 1.45
378.00 1.449
378.10 1.447
378.20 1.445
378.30 1.444
378.40 1.442
378.50 1.44
378.60 1.438
378.70 1.437
378.80 1.435
378.90 1.433
379.00 1.431
379.10 1.43
379.20 1.429
379.30 1.428
379.40 1.426
379.50 1.425
379.60 1.424
379.70 1.423
379.80 1.421
379.90 1.42
380.00 1.419
380.10 1.42
380.20 1.421
380.30 1.421
380.40 1.422
380.50 1.423
380.60 1.424
380.70 1.425
380.80 1.425
380.90 1.426
381.00 1.427
381.10 1.427
381.20 1.427
381.30 1.427
381.40 1.427
381.50 1.427
381.60 1.426
381.70 1.425
381.80 1.424
381.90 1.422
382.00 1.421
382.10 1.419
382.20 1.416
382.30 1.412
382.40 1.409
382.50 1.405
382.60 1.401
382.70 1.397
382.80 1.393
382.90 1.389
383.00 1.385
383.10 1.382
383.20 1.378
383.30 1.376
383.40 1.373
383.50 1.37
383.60 1.37
383.70 1.373
383.80 1.376
383.90 1.378
384.00 1.381
384.10 1.385
384.20 1.39
384.30 1.394
384.40 1.399
384.50 1.403
384.60 1.406
384.70 1.409
384.80 1.412
384.90 1.414
385.00 1.416
385.10 1.417
385.20 1.419
385.30 1.42
385.40 1.42
385.50 1.42
385.60 1.421
385.70 1.42
385.80 1.42
385.90 1.419
386.00 1.418
386.10 1.417
386.20 1.416
386.30 1.414
386.40 1.412
386.50 1.41
386.60 1.407
386.70 1.404
386.80 1.401
386.90 1.398
387.00 1.394
387.10 1.39
387.20 1.386
387.30 1.381
387.40 1.377
387.50 1.371
387.60 1.366
387.70 1.36
387.80 1.353
387.90 1.346
388.00 1.338
388.10 1.329
388.20 1.319
388.30 1.309
388.40 1.298
388.50 1.288
388.60 1.279
388.70 1.274
388.80 1.269
388.90 1.265
389.00 1.269
389.10 1.273
389.20 1.279
389.30 1.287
389.40 1.297
389.50 1.308
389.60 1.319
389.70 1.328
389.80 1.338
389.90 1.346
390.00 1.354
390.10 1.361
390.20 1.367
390.30 1.373
390.40 1.379
390.50 1.384
390.60 1.389
390.70 1.393
390.80 1.398
390.90 1.402
391.00 1.406
391.10 1.409
391.20 1.412
391.30 1.415
391.40 1.417
391.50 1.419
391.60 1.421
391.70 1.423
391.80 1.424
391.90 1.425
392.00 1.426
392.10 1.427
392.20 1.427
392.30 1.427
392.40 1.427
392.50 1.426
392.60 1.425
392.70 1.424
392.80 1.422
392.90 1.421
393.00 1.419
393.10 1.416
393.20 1.413
393.30 1.41
393.40 1.407
393.50 1.404
393.60 1.4
393.70 1.395
393.80 1.391
393.90 1.386
394.00 1.381
394.10 1.375
394.20 1.369
394.30 1.363
394.40 1.356
394.50 1.349
394.60 1.342
394.70 1.334
394.80 1.326
394.90 1.317
395.00 1.308
395.10 1.298
395.20 1.289
395.30 1.278
395.40 1.268
395.50 1.257
395.60 1.245
395.70 1.233
395.80 1.221
395.90 1.208
396.00 1.194
396.10 1.18
396.20 1.165
396.30 1.148
396.40 1.13
396.50 1.109
396.60 1.087
396.70 1.065
396.80 1.049
396.90 1.033
397.00 1.018
397.10 1.032
397.20 1.046
397.30 1.061
397.40 1.083
397.50 1.104
397.60 1.125
397.70 1.143
397.80 1.16
397.90 1.175
398.00 1.189
398.10 1.203
398.20 1.216
398.30 1.228
398.40 1.24
398.50 1.251
398.60 1.262
398.70 1.273
398.80 1.284
398.90 1.294
399.00 1.304
399.10 1.313
399.20 1.322
399.30 1.331
399.40 1.339
399.50 1.347
399.60 1.355
399.70 1.363
399.80 1.37
399.90 1.376
400.00 1.383
400.10 1.389
400.20 1.395
400.30 1.401
400.40 1.406
400.50 1.412
400.60 1.417
400.70 1.421
400.80 1.426
400.90 1.43
401.00 1.434
401.10 1.438
401.20 1.441
401.30 1.444
401.40 1.448
401.50 1.45
401.60 1.453
401.70 1.455
401.80 1.458
401.90 1.46
402.00 1.461
402.10 1.463
402.20 1.464
402.30 1.466
402.40 1.467
402.50 1.467
402.60 1.468
402.70 1.468
402.80 1.468
402.90 1.468
403.00 1.468
403.10 1.467
403.20 1.467
403.30 1.466
403.40 1.465
403.50 1.463
403.60 1.462
403.70 1.46
403.80 1.458
403.90 1.456
404.00 1.453
404.10 1.45
404.20 1.448
404.30 1.445
404.40 1.441
404.50 1.438
404.60 1.434
404.70 1.43
404.80 1.426
404.90 1.422
405.00 1.417
405.10 1.413
405.20 1.408
405.30 1.402
405.40 1.397
405.50 1.391
405.60 1.385
405.70 1.379
405.80 1.373
405.90 1.366
406.00 1.359
406.10 1.352
406.20 1.344
406.30 1.336
406.40 1.328
406.50 1.32
406.60 1.311
406.70 1.302
406.80 1.293
406.90 1.284
407.00 1.274
407.10 1.264
407.20 1.254
407.30 1.243
407.40 1.232
407.50 1.22
407.60 1.209
407.70 1.196
407.80 1.184
407.90 1.171
408.00 1.158
408.10 1.144
408.20 1.13
408.30 1.115
408.40 1.101
408.50 1.085
408.60 1.07
408.70 1.054
408.80 1.037
408.90 1.02
409.00 1.003
409.10 0.9854
409.20 0.9675
409.30 0.9495
409.40 0.9304
409.50 0.9103
409.60 0.8892
409.70 0.865
409.80 0.8395
409.90 0.8127
410.00 0.7909
410.10 0.7758
410.20 0.7674
410.30 0.7819
410.40 0.8011
410.50 0.8251
410.60 0.8507
410.70 0.8746
410.80 0.8968
410.90 0.9162
411.00 0.9347
411.10 0.9525
411.20 0.9695
411.30 0.9862
411.40 1.003
411.50 1.019
411.60 1.034
411.70 1.05
411.80 1.065
411.90 1.079
412.00 1.093
412.10 1.107
412.20 1.12
412.30 1.133
412.40 1.146
412.50 1.158
412.60 1.17
412.70 1.181
412.80 1.192
412.90 1.203
413.00 1.213
413.10 1.223
413.20 1.233
413.30 1.242
413.40 1.252
413.50 1.261
413.60 1.269
413.70 1.278
413.80 1.286
413.90 1.294
414.00 1.302
414.10 1.309
414.20 1.317
414.30 1.324
414.40 1.331
414.50 1.338
414.60 1.344
414.70 1.351
414.80 1.357
414.90 1.363
415.00 1.368
415.10 1.374
415.20 1.38
415.30 1.385
415.40 1.39
415.50 1.395
415.60 1.4
415.70 1.405
415.80 1.409
415.90 1.414
416.00 1.418
416.10 1.422
416.20 1.426
416.30 1.43
416.40 1.434
416.50 1.438
416.60 1.442
416.70 1.445
416.80 1.449
416.90 1.452
417.00 1.455
417.10 1.458
417.20 1.461
417.30 1.464
417.40 1.467
417.50 1.469
417.60 1.472
417.70 1.474
417.80 1.476
417.90 1.479
418.00 1.481
418.10 1.483
418.20 1.485
418.30 1.487
418.40 1.488
418.50 1.49
418.60 1.491
418.70 1.493
418.80 1.494
418.90 1.496
419.00 1.497
419.10 1.498
419.20 1.499
419.30 1.5
419.40 1.501
419.50 1.502
419.60 1.503
419.70 1.503
419.80 1.504
419.90 1.505
420.00 1.505
420.10 1.506
420.20 1.506
420.30 1.506
420.40 1.506
420.50 1.506
420.60 1.507
420.70 1.507
420.80 1.506
420.90 1.506
421.00 1.506
421.10 1.506
421.20 1.505
421.30 1.505
421.40 1.504
421.50 1.504
421.60 1.503
421.70 1.502
421.80 1.502
421.90 1.501
422.00 1.5
422.10 1.499
422.20 1.498
422.30 1.497
422.40 1.496
422.50 1.494
422.60 1.493
422.70 1.492
422.80 1.49
422.90 1.489
423.00 1.487
423.10 1.485
423.20 1.483
423.30 1.482
423.40 1.48
423.50 1.478
423.60 1.476
423.70 1.474
423.80 1.472
423.90 1.469
424.00 1.467
424.10 1.465
424.20 1.462
424.30 1.46
424.40 1.457
424.50 1.455
424.60 1.452
424.70 1.449
424.80 1.446
424.90 1.443
425.00 1.44
425.10 1.437
425.20 1.434
425.30 1.43
425.40 1.427
425.50 1.424
425.60 1.42
425.70 1.417
425.80 1.413
425.90 1.409
426.00 1.405
426.10 1.401
426.20 1.396
426.30 1.392
426.40 1.388
426.50 1.384
426.60 1.379
426.70 1.375
426.80 1.37
426.90 1.365
427.00 1.361
427.10 1.356
427.20 1.351
427.30 1.346
427.40 1.34
427.50 1.335
427.60 1.329
427.70 1.324
427.80 1.318
427.90 1.312
428.00 1.307
428.10 1.301
428.20 1.295
428.30 1.289
428.40 1.282
428.50 1.276
428.60 1.27
428.70 1.263
428.80 1.257
428.90 1.25
429.00 1.243
429.10 1.236
429.20 1.229
429.30 1.221
429.40 1.214
429.50 1.206
429.60 1.198
429.70 1.19
429.80 1.182
429.90 1.174
430.00 1.165
430.10 1.156
430.20 1.147
430.30 1.138
430.40 1.129
430.50 1.12
430.60 1.11
430.70 1.1
430.80 1.09
430.90 1.08
431.00 1.07
431.10 1.059
431.20 1.048
431.30 1.037
431.40 1.025
431.50 1.014
431.60 1.001
431.70 0.9892
431.80 0.9767
431.90 0.9637
432.00 0.9505
432.10 0.9371
432.20 0.9231
432.30 0.9088
432.40 0.8941
432.50 0.8785
432.60 0.8625
432.70 0.846
432.80 0.8289
432.90 0.8118
433.00 0.7947
433.10 0.7779
433.20 0.7612
433.30 0.7446
433.40 0.7277
433.50 0.71
433.60 0.6917
433.70 0.6679
433.80 0.6398
433.90 0.6072
434.00 0.5688
434.10 0.5696
434.20 0.6093
434.30 0.641
434.40 0.6682
434.50 0.6909
434.60 0.7084
434.70 0.7253
434.80 0.7415
434.90 0.7574
435.00 0.7733
435.10 0.7892
435.20 0.8055
435.30 0.8217
435.40 0.8378
435.50 0.8532
435.60 0.8682
435.70 0.8826
435.80 0.8962
435.90 0.9094
436.00 0.9222
436.10 0.9345
436.20 0.9465
436.30 0.9582
436.40 0.9695
436.50 0.9805
436.60 0.9913
436.70 1.002
436.80 1.012
436.90 1.022
437.00 1.031
437.10 1.041
437.20 1.05
437.30 1.059
437.40 1.067
437.50 1.076
437.60 1.084
437.70 1.092
437.80 1.1
437.90 1.107
438.00 1.115
438.10 1.122
438.20 1.129
438.30 1.136
438.40 1.143
438.50 1.149
438.60 1.155
438.70 1.162
438.80 1.168
438.90 1.174
439.00 1.179
439.10 1.185
439.20 1.19
439.30 1.196
439.40 1.201
439.50 1.206
439.60 1.211
439.70 1.216
439.80 1.22
439.90 1.225
440.00 1.229
440.10 1.234
440.20 1.238
440.30 1.242
440.40 1.247
440.50 1.251
440.60 1.255
440.70 1.259
440.80 1.263
440.90 1.267
441.00 1.27
441.10 1.274
441.20 1.277
441.30 1.281
441.40 1.284
441.50 1.287
441.60 1.29
441.70 1.293
441.80 1.296
441.90 1.299
442.00 1.301
442.10 1.304
442.20 1.307
442.30 1.309
442.40 1.312
442.50 1.314
442.60 1.317
442.70 1.319
442.80 1.321
442.90 1.323
443.00 1.325
443.10 1.327
443.20 1.329
443.30 1.331
443.40 1.333
443.50 1.335
443.60 1.337
443.70 1.339
443.80 1.34
443.90 1.342
444.00 1.344
444.10 1.345
444.20 1.347
444.30 1.348
444.40 1.349
444.50 1.351
444.60 1.352
444.70 1.353
444.80 1.355
444.90 1.356
445.00 1.357
445.10 1.358
445.20 1.359
445.30 1.36
445.40 1.361
445.50 1.362
445.60 1.363
445.70 1.364
445.80 1.365
445.90 1.366
446.00 1.367
446.10 1.367
446.20 1.368
446.30 1.369
446.40 1.369
446.50 1.37
446.60 1.371
446.70 1.371
446.80 1.372
446.90 1.372
447.00 1.373
447.10 1.373
447.20 1.374
447.30 1.374
447.40 1.375
447.50 1.375
447.60 1.375
447.70 1.376
447.80 1.376
447.90 1.376
448.00 1.377
448.10 1.377
448.20 1.377
448.30 1.377
448.40 1.377
448.50 1.378
448.60 1.378
448.70 1.378
448.80 1.378
448.90 1.378
449.00 1.378
449.10 1.379
449.20 1.379
449.30 1.379
449.40 1.379
449.50 1.379
449.60 1.378
449.70 1.378
449.80 1.378
449.90 1.378
450.00 1.378
450.10 1.378
450.20 1.378
450.30 1.378
450.40 1.378
450.50 1.378
450.60 1.377
450.70 1.377
450.80 1.377
450.90 1.377
451.00 1.377
451.10 1.376
451.20 1.376
451.30 1.376
451.40 1.376
451.50 1.375
451.60 1.375
451.70 1.375
451.80 1.374
451.90 1.374
452.00 1.374
452.10 1.373
452.20 1.373
452.30 1.373
452.40 1.372
452.50 1.372
452.60 1.371
452.70 1.371
452.80 1.37
452.90 1.37
453.00 1.369
453.10 1.369
453.20 1.369
453.30 1.368
453.40 1.368
453.50 1.367
453.60 1.367
