# Version 2.1 - nm, norm@500 to 1, cut digits, bergeron_13500_70.dat_13500
# Wavelength(nm)  Flambda(ergs/cm^s/s/nm)
300.00 1.83
300.10 1.829
300.20 1.827
300.30 1.826
300.40 1.825
300.50 1.824
300.60 1.822
300.70 1.821
300.80 1.82
300.90 1.819
301.00 1.817
301.10 1.816
301.20 1.815
301.30 1.814
301.40 1.812
301.50 1.811
301.60 1.81
301.70 1.809
301.80 1.807
301.90 1.806
302.00 1.805
302.10 1.804
302.20 1.802
302.30 1.801
302.40 1.8
302.50 1.799
302.60 1.797
302.70 1.796
302.80 1.795
302.90 1.794
303.00 1.792
303.10 1.791
303.20 1.79
303.30 1.789
303.40 1.787
303.50 1.786
303.60 1.785
303.70 1.784
303.80 1.783
303.90 1.781
304.00 1.78
304.10 1.779
304.20 1.778
304.30 1.777
304.40 1.775
304.50 1.774
304.60 1.773
304.70 1.772
304.80 1.77
304.90 1.769
305.00 1.768
305.10 1.767
305.20 1.766
305.30 1.764
305.40 1.763
305.50 1.762
305.60 1.761
305.70 1.76
305.80 1.758
305.90 1.757
306.00 1.756
306.10 1.755
306.20 1.754
306.30 1.752
306.40 1.751
306.50 1.75
306.60 1.749
306.70 1.748
306.80 1.746
306.90 1.745
307.00 1.744
307.10 1.743
307.20 1.742
307.30 1.741
307.40 1.739
307.50 1.738
307.60 1.737
307.70 1.736
307.80 1.735
307.90 1.733
308.00 1.732
308.10 1.731
308.20 1.73
308.30 1.729
308.40 1.728
308.50 1.726
308.60 1.725
308.70 1.724
308.80 1.723
308.90 1.722
309.00 1.721
309.10 1.719
309.20 1.718
309.30 1.717
309.40 1.716
309.50 1.715
309.60 1.714
309.70 1.712
309.80 1.711
309.90 1.71
310.00 1.709
310.10 1.708
310.20 1.707
310.30 1.706
310.40 1.704
310.50 1.703
310.60 1.702
310.70 1.701
310.80 1.7
310.90 1.699
311.00 1.698
311.10 1.696
311.20 1.695
311.30 1.694
311.40 1.693
311.50 1.692
311.60 1.691
311.70 1.69
311.80 1.688
311.90 1.687
312.00 1.686
312.10 1.685
312.20 1.684
312.30 1.683
312.40 1.682
312.50 1.681
312.60 1.679
312.70 1.678
312.80 1.677
312.90 1.676
313.00 1.675
313.10 1.674
313.20 1.673
313.30 1.672
313.40 1.67
313.50 1.669
313.60 1.668
313.70 1.667
313.80 1.666
313.90 1.665
314.00 1.664
314.10 1.663
314.20 1.662
314.30 1.66
314.40 1.659
314.50 1.658
314.60 1.657
314.70 1.656
314.80 1.655
314.90 1.654
315.00 1.653
315.10 1.652
315.20 1.65
315.30 1.649
315.40 1.648
315.50 1.647
315.60 1.646
315.70 1.645
315.80 1.644
315.90 1.643
316.00 1.642
316.10 1.641
316.20 1.64
316.30 1.638
316.40 1.637
316.50 1.636
316.60 1.635
316.70 1.634
316.80 1.633
316.90 1.632
317.00 1.631
317.10 1.63
317.20 1.629
317.30 1.628
317.40 1.627
317.50 1.625
317.60 1.624
317.70 1.623
317.80 1.622
317.90 1.621
318.00 1.62
318.10 1.619
318.20 1.618
318.30 1.617
318.40 1.616
318.50 1.615
318.60 1.614
318.70 1.613
318.80 1.612
318.90 1.611
319.00 1.609
319.10 1.608
319.20 1.607
319.30 1.606
319.40 1.605
319.50 1.604
319.60 1.603
319.70 1.602
319.80 1.601
319.90 1.6
320.00 1.599
320.10 1.598
320.20 1.597
320.30 1.596
320.40 1.595
320.50 1.594
320.60 1.593
320.70 1.592
320.80 1.591
320.90 1.589
321.00 1.588
321.10 1.587
321.20 1.586
321.30 1.585
321.40 1.584
321.50 1.583
321.60 1.582
321.70 1.581
321.80 1.58
321.90 1.579
322.00 1.578
322.10 1.577
322.20 1.576
322.30 1.575
322.40 1.574
322.50 1.573
322.60 1.572
322.70 1.571
322.80 1.57
322.90 1.569
323.00 1.568
323.10 1.567
323.20 1.566
323.30 1.565
323.40 1.564
323.50 1.563
323.60 1.562
323.70 1.561
323.80 1.56
323.90 1.559
324.00 1.558
324.10 1.557
324.20 1.556
324.30 1.555
324.40 1.554
324.50 1.553
324.60 1.552
324.70 1.55
324.80 1.549
324.90 1.548
325.00 1.547
325.10 1.546
325.20 1.545
325.30 1.544
325.40 1.543
325.50 1.542
325.60 1.541
325.70 1.54
325.80 1.539
325.90 1.538
326.00 1.537
326.10 1.536
326.20 1.535
326.30 1.534
326.40 1.533
326.50 1.532
326.60 1.531
326.70 1.53
326.80 1.53
326.90 1.529
327.00 1.528
327.10 1.527
327.20 1.526
327.30 1.525
327.40 1.524
327.50 1.523
327.60 1.522
327.70 1.521
327.80 1.52
327.90 1.519
328.00 1.518
328.10 1.517
328.20 1.516
328.30 1.515
328.40 1.514
328.50 1.513
328.60 1.512
328.70 1.511
328.80 1.51
328.90 1.509
329.00 1.508
329.10 1.507
329.20 1.506
329.30 1.505
329.40 1.504
329.50 1.503
329.60 1.502
329.70 1.501
329.80 1.5
329.90 1.499
330.00 1.498
330.10 1.497
330.20 1.496
330.30 1.495
330.40 1.494
330.50 1.493
330.60 1.492
330.70 1.492
330.80 1.491
330.90 1.49
331.00 1.489
331.10 1.488
331.20 1.487
331.30 1.486
331.40 1.485
331.50 1.484
331.60 1.483
331.70 1.482
331.80 1.481
331.90 1.48
332.00 1.479
332.10 1.478
332.20 1.477
332.30 1.476
332.40 1.475
332.50 1.474
332.60 1.474
332.70 1.473
332.80 1.472
332.90 1.471
333.00 1.47
333.10 1.469
333.20 1.468
333.30 1.467
333.40 1.466
333.50 1.465
333.60 1.464
333.70 1.463
333.80 1.462
333.90 1.461
334.00 1.46
334.10 1.459
334.20 1.459
334.30 1.458
334.40 1.457
334.50 1.456
334.60 1.455
334.70 1.454
334.80 1.453
334.90 1.452
335.00 1.451
335.10 1.45
335.20 1.449
335.30 1.448
335.40 1.447
335.50 1.447
335.60 1.446
335.70 1.445
335.80 1.444
335.90 1.443
336.00 1.442
336.10 1.441
336.20 1.44
336.30 1.439
336.40 1.438
336.50 1.437
336.60 1.436
336.70 1.436
336.80 1.435
336.90 1.434
337.00 1.433
337.10 1.432
337.20 1.431
337.30 1.43
337.40 1.429
337.50 1.428
337.60 1.427
337.70 1.427
337.80 1.426
337.90 1.425
338.00 1.424
338.10 1.423
338.20 1.422
338.30 1.421
338.40 1.42
338.50 1.419
338.60 1.418
338.70 1.418
338.80 1.417
338.90 1.416
339.00 1.415
339.10 1.414
339.20 1.413
339.30 1.412
339.40 1.411
339.50 1.41
339.60 1.41
339.70 1.409
339.80 1.408
339.90 1.407
340.00 1.406
340.10 1.405
340.20 1.404
340.30 1.403
340.40 1.402
340.50 1.402
340.60 1.401
340.70 1.4
340.80 1.399
340.90 1.398
341.00 1.397
341.10 1.396
341.20 1.395
341.30 1.395
341.40 1.394
341.50 1.393
341.60 1.392
341.70 1.391
341.80 1.39
341.90 1.389
342.00 1.388
342.10 1.388
342.20 1.387
342.30 1.386
342.40 1.385
342.50 1.384
342.60 1.383
342.70 1.382
342.80 1.382
342.90 1.381
343.00 1.38
343.10 1.379
343.20 1.378
343.30 1.377
343.40 1.376
343.50 1.376
343.60 1.375
343.70 1.374
343.80 1.373
343.90 1.372
344.00 1.371
344.10 1.37
344.20 1.37
344.30 1.369
344.40 1.368
344.50 1.367
344.60 1.366
344.70 1.365
344.80 1.364
344.90 1.364
345.00 1.363
345.10 1.362
345.20 1.361
345.30 1.36
345.40 1.359
345.50 1.358
345.60 1.358
345.70 1.357
345.80 1.356
345.90 1.355
346.00 1.354
346.10 1.353
346.20 1.353
346.30 1.352
346.40 1.351
346.50 1.35
346.60 1.349
346.70 1.348
346.80 1.348
346.90 1.347
347.00 1.346
347.10 1.345
347.20 1.344
347.30 1.343
347.40 1.343
347.50 1.342
347.60 1.341
347.70 1.34
347.80 1.339
347.90 1.338
348.00 1.338
348.10 1.337
348.20 1.336
348.30 1.335
348.40 1.334
348.50 1.333
348.60 1.333
348.70 1.332
348.80 1.331
348.90 1.33
349.00 1.329
349.10 1.329
349.20 1.328
349.30 1.327
349.40 1.326
349.50 1.325
349.60 1.324
349.70 1.324
349.80 1.323
349.90 1.322
350.00 1.321
350.10 1.32
350.20 1.32
350.30 1.319
350.40 1.318
350.50 1.317
350.60 1.316
350.70 1.315
350.80 1.315
350.90 1.314
351.00 1.313
351.10 1.312
351.20 1.311
351.30 1.311
351.40 1.31
351.50 1.309
351.60 1.308
351.70 1.307
351.80 1.307
351.90 1.306
352.00 1.305
352.10 1.304
352.20 1.303
352.30 1.303
352.40 1.302
352.50 1.301
352.60 1.3
352.70 1.299
352.80 1.299
352.90 1.298
353.00 1.297
353.10 1.296
353.20 1.295
353.30 1.295
353.40 1.294
353.50 1.293
353.60 1.292
353.70 1.291
353.80 1.291
353.90 1.29
354.00 1.289
354.10 1.288
354.20 1.288
354.30 1.287
354.40 1.286
354.50 1.285
354.60 1.284
354.70 1.284
354.80 1.283
354.90 1.282
355.00 1.281
355.10 1.28
355.20 1.28
355.30 1.279
355.40 1.278
355.50 1.277
355.60 1.277
355.70 1.276
355.80 1.275
355.90 1.274
356.00 1.273
356.10 1.273
356.20 1.272
356.30 1.271
356.40 1.27
356.50 1.27
356.60 1.269
356.70 1.268
356.80 1.267
356.90 1.267
357.00 1.266
357.10 1.265
357.20 1.264
357.30 1.263
357.40 1.263
357.50 1.262
357.60 1.261
357.70 1.26
357.80 1.26
357.90 1.259
358.00 1.258
358.10 1.257
358.20 1.257
358.30 1.256
358.40 1.255
358.50 1.254
358.60 1.254
358.70 1.253
358.80 1.252
358.90 1.251
359.00 1.251
359.10 1.25
359.20 1.249
359.30 1.248
359.40 1.247
359.50 1.247
359.60 1.246
359.70 1.245
359.80 1.244
359.90 1.244
360.00 1.243
360.10 1.242
360.20 1.241
360.30 1.241
360.40 1.24
360.50 1.239
360.60 1.238
360.70 1.238
360.80 1.237
360.90 1.236
361.00 1.235
361.10 1.235
361.20 1.234
361.30 1.233
361.40 1.232
361.50 1.232
361.60 1.231
361.70 1.23
361.80 1.23
361.90 1.229
362.00 1.228
362.10 1.227
362.20 1.227
362.30 1.226
362.40 1.225
362.50 1.224
362.60 1.224
362.70 1.223
362.80 1.222
362.90 1.221
363.00 1.221
363.10 1.22
363.20 1.219
363.30 1.218
363.40 1.218
363.50 1.217
363.60 1.216
363.70 1.215
363.80 1.215
363.90 1.214
364.00 1.213
364.10 1.212
364.20 1.212
364.30 1.211
364.40 1.21
364.50 1.209
364.60 1.209
364.70 1.208
364.80 1.207
364.90 1.206
365.00 1.206
365.10 1.205
365.20 1.204
365.30 1.203
365.40 1.203
365.50 1.202
365.60 1.201
365.70 1.201
365.80 1.2
365.90 1.199
366.00 1.198
366.10 1.198
366.20 1.197
366.30 1.196
366.40 1.196
366.50 1.195
366.60 1.194
366.70 1.194
366.80 1.193
366.90 1.192
367.00 1.192
367.10 1.191
367.20 1.19
367.30 1.19
367.40 1.189
367.50 1.188
367.60 1.188
367.70 1.187
367.80 1.186
367.90 1.186
368.00 1.185
368.10 1.185
368.20 1.185
368.30 1.185
368.40 1.186
368.50 1.186
368.60 1.186
368.70 1.186
368.80 1.186
368.90 1.186
369.00 1.186
369.10 1.186
369.20 1.187
369.30 1.187
369.40 1.187
369.50 1.187
369.60 1.187
369.70 1.187
369.80 1.187
369.90 1.187
370.00 1.187
370.10 1.189
370.20 1.191
370.30 1.193
370.40 1.195
370.50 1.197
370.60 1.198
370.70 1.2
370.80 1.202
370.90 1.204
371.00 1.206
371.10 1.207
371.20 1.209
371.30 1.211
371.40 1.213
371.50 1.215
371.60 1.216
371.70 1.218
371.80 1.22
371.90 1.222
372.00 1.223
372.10 1.227
372.20 1.23
372.30 1.234
372.40 1.237
372.50 1.241
372.60 1.244
372.70 1.248
372.80 1.251
372.90 1.255
373.00 1.258
373.10 1.261
373.20 1.265
373.30 1.268
373.40 1.272
373.50 1.275
373.60 1.279
373.70 1.282
373.80 1.285
373.90 1.289
374.00 1.292
374.10 1.296
374.20 1.3
374.30 1.304
374.40 1.308
374.50 1.311
374.60 1.315
374.70 1.319
374.80 1.323
374.90 1.327
375.00 1.33
375.10 1.334
375.20 1.338
375.30 1.342
375.40 1.346
375.50 1.349
375.60 1.353
375.70 1.357
375.80 1.361
375.90 1.364
376.00 1.368
376.10 1.37
376.20 1.372
376.30 1.374
376.40 1.376
376.50 1.378
376.60 1.38
376.70 1.382
376.80 1.383
376.90 1.385
377.00 1.387
377.10 1.384
377.20 1.381
377.30 1.378
377.40 1.374
377.50 1.371
377.60 1.368
377.70 1.365
377.80 1.362
377.90 1.358
378.00 1.355
378.10 1.337
378.20 1.319
378.30 1.3
378.40 1.282
378.50 1.264
378.60 1.246
378.70 1.227
378.80 1.209
378.90 1.191
379.00 1.173
379.10 1.158
379.20 1.143
379.30 1.128
379.40 1.113
379.50 1.098
379.60 1.083
379.70 1.069
379.80 1.054
379.90 1.039
380.00 1.024
380.10 1.048
380.20 1.071
380.30 1.095
380.40 1.118
380.50 1.142
380.60 1.165
380.70 1.188
380.80 1.212
380.90 1.235
381.00 1.258
381.10 1.268
381.20 1.277
381.30 1.287
381.40 1.296
381.50 1.306
381.60 1.306
381.70 1.304
381.80 1.299
381.90 1.291
382.00 1.279
382.10 1.265
382.20 1.247
382.30 1.215
382.40 1.184
382.50 1.152
382.60 1.121
382.70 1.089
382.80 1.058
382.90 1.027
383.00 0.9954
383.10 0.964
383.20 0.9328
383.30 0.9005
383.40 0.8649
383.50 0.8269
383.60 0.835
383.70 0.8724
383.80 0.9072
383.90 0.939
384.00 0.9718
384.10 1.007
384.20 1.044
384.30 1.081
384.40 1.119
384.50 1.155
384.60 1.189
384.70 1.221
384.80 1.249
384.90 1.275
385.00 1.298
385.10 1.318
385.20 1.336
385.30 1.351
385.40 1.364
385.50 1.375
385.60 1.385
385.70 1.392
385.80 1.397
385.90 1.402
386.00 1.403
386.10 1.404
386.20 1.403
386.30 1.4
386.40 1.395
386.50 1.389
386.60 1.381
386.70 1.372
386.80 1.361
386.90 1.347
387.00 1.333
387.10 1.317
387.20 1.298
387.30 1.277
387.40 1.255
387.50 1.23
387.60 1.202
387.70 1.173
387.80 1.139
387.90 1.104
388.00 1.066
388.10 1.025
388.20 0.9842
388.30 0.9424
388.40 0.9013
388.50 0.8618
388.60 0.8236
388.70 0.7839
388.80 0.7423
388.90 0.6988
389.00 0.739
389.10 0.7789
389.20 0.8183
389.30 0.8558
389.40 0.8946
389.50 0.9349
389.60 0.9763
389.70 1.017
389.80 1.058
389.90 1.096
390.00 1.133
390.10 1.167
390.20 1.199
390.30 1.228
390.40 1.256
390.50 1.281
390.60 1.305
390.70 1.327
390.80 1.348
390.90 1.368
391.00 1.387
391.10 1.404
391.20 1.42
391.30 1.436
391.40 1.451
391.50 1.464
391.60 1.477
391.70 1.489
391.80 1.5
391.90 1.51
392.00 1.519
392.10 1.527
392.20 1.534
392.30 1.539
392.40 1.544
392.50 1.549
392.60 1.551
392.70 1.553
392.80 1.554
392.90 1.554
393.00 1.552
393.10 1.55
393.20 1.547
393.30 1.542
393.40 1.537
393.50 1.53
393.60 1.522
393.70 1.514
393.80 1.504
393.90 1.493
394.00 1.481
394.10 1.468
394.20 1.454
394.30 1.439
394.40 1.423
394.50 1.406
394.60 1.388
394.70 1.369
394.80 1.35
394.90 1.329
395.00 1.308
395.10 1.285
395.20 1.262
395.30 1.238
395.40 1.212
395.50 1.186
395.60 1.157
395.70 1.128
395.80 1.097
395.90 1.064
396.00 1.03
396.10 0.9947
396.20 0.9568
396.30 0.9178
396.40 0.8778
396.50 0.8373
396.60 0.7978
396.70 0.7591
396.80 0.7176
396.90 0.6657
397.00 0.6035
397.10 0.661
397.20 0.7105
397.30 0.7522
397.40 0.7902
397.50 0.8289
397.60 0.8683
397.70 0.9077
397.80 0.9459
397.90 0.9831
398.00 1.018
398.10 1.051
398.20 1.083
398.30 1.113
398.40 1.142
398.50 1.17
398.60 1.196
398.70 1.221
398.80 1.245
398.90 1.268
399.00 1.29
399.10 1.312
399.20 1.333
399.30 1.353
399.40 1.373
399.50 1.392
399.60 1.41
399.70 1.428
399.80 1.445
399.90 1.462
400.00 1.478
400.10 1.493
400.20 1.507
400.30 1.521
400.40 1.535
400.50 1.547
400.60 1.559
400.70 1.571
400.80 1.582
400.90 1.592
401.00 1.602
401.10 1.611
401.20 1.62
401.30 1.628
401.40 1.635
401.50 1.642
401.60 1.649
401.70 1.655
401.80 1.661
401.90 1.666
402.00 1.671
402.10 1.675
402.20 1.679
402.30 1.683
402.40 1.686
402.50 1.689
402.60 1.691
402.70 1.693
402.80 1.695
402.90 1.696
403.00 1.697
403.10 1.698
403.20 1.698
403.30 1.698
403.40 1.697
403.50 1.697
403.60 1.696
403.70 1.694
403.80 1.692
403.90 1.691
404.00 1.688
404.10 1.685
404.20 1.682
404.30 1.679
404.40 1.675
404.50 1.671
404.60 1.666
404.70 1.662
404.80 1.656
404.90 1.651
405.00 1.645
405.10 1.638
405.20 1.631
405.30 1.624
405.40 1.617
405.50 1.608
405.60 1.6
405.70 1.591
405.80 1.581
405.90 1.571
406.00 1.561
406.10 1.55
406.20 1.538
406.30 1.526
406.40 1.514
406.50 1.501
406.60 1.487
406.70 1.473
406.80 1.458
406.90 1.443
407.00 1.427
407.10 1.41
407.20 1.393
407.30 1.375
407.40 1.357
407.50 1.338
407.60 1.318
407.70 1.297
407.80 1.276
407.90 1.255
408.00 1.233
408.10 1.211
408.20 1.188
408.30 1.164
408.40 1.141
408.50 1.116
408.60 1.092
408.70 1.066
408.80 1.04
408.90 1.014
409.00 0.9864
409.10 0.9578
409.20 0.9284
409.30 0.8982
409.40 0.8659
409.50 0.8324
409.60 0.7979
409.70 0.7625
409.80 0.7271
409.90 0.6917
410.00 0.648
410.10 0.5985
410.20 0.5432
410.30 0.6159
410.40 0.6713
410.50 0.7094
410.60 0.744
410.70 0.7785
410.80 0.813
410.90 0.8459
411.00 0.8776
411.10 0.9081
411.20 0.9366
411.30 0.9642
411.40 0.9911
411.50 1.017
411.60 1.042
411.70 1.066
411.80 1.089
411.90 1.112
412.00 1.135
412.10 1.157
412.20 1.178
412.30 1.2
412.40 1.22
412.50 1.24
412.60 1.26
412.70 1.279
412.80 1.297
412.90 1.315
413.00 1.332
413.10 1.349
413.20 1.365
413.30 1.38
413.40 1.395
413.50 1.409
413.60 1.423
413.70 1.436
413.80 1.448
413.90 1.46
414.00 1.471
414.10 1.483
414.20 1.493
414.30 1.503
414.40 1.513
414.50 1.522
414.60 1.531
414.70 1.539
414.80 1.547
414.90 1.555
415.00 1.562
415.10 1.569
415.20 1.576
415.30 1.582
415.40 1.588
415.50 1.593
415.60 1.599
415.70 1.604
415.80 1.609
415.90 1.613
416.00 1.618
416.10 1.622
416.20 1.626
416.30 1.629
416.40 1.633
416.50 1.636
416.60 1.639
416.70 1.642
416.80 1.645
416.90 1.647
417.00 1.65
417.10 1.652
417.20 1.654
417.30 1.656
417.40 1.658
417.50 1.66
417.60 1.662
417.70 1.663
417.80 1.665
417.90 1.666
418.00 1.667
418.10 1.668
418.20 1.669
418.30 1.67
418.40 1.671
418.50 1.672
418.60 1.672
418.70 1.673
418.80 1.673
418.90 1.674
419.00 1.674
419.10 1.675
419.20 1.675
419.30 1.675
419.40 1.675
419.50 1.675
419.60 1.675
419.70 1.675
419.80 1.675
419.90 1.675
420.00 1.674
420.10 1.674
420.20 1.674
420.30 1.673
420.40 1.673
420.50 1.672
420.60 1.672
420.70 1.671
420.80 1.671
420.90 1.67
421.00 1.669
421.10 1.669
421.20 1.668
421.30 1.667
421.40 1.666
421.50 1.665
421.60 1.664
421.70 1.663
421.80 1.662
421.90 1.661
422.00 1.66
422.10 1.659
422.20 1.658
422.30 1.657
422.40 1.655
422.50 1.654
422.60 1.653
422.70 1.651
422.80 1.65
422.90 1.649
423.00 1.647
423.10 1.646
423.20 1.644
423.30 1.642
423.40 1.641
423.50 1.639
423.60 1.637
423.70 1.636
423.80 1.634
423.90 1.632
424.00 1.63
424.10 1.628
424.20 1.626
424.30 1.624
424.40 1.622
424.50 1.619
424.60 1.617
424.70 1.615
424.80 1.613
424.90 1.61
425.00 1.608
425.10 1.605
425.20 1.602
425.30 1.6
425.40 1.597
425.50 1.594
425.60 1.591
425.70 1.588
425.80 1.585
425.90 1.582
426.00 1.579
426.10 1.575
426.20 1.571
426.30 1.568
426.40 1.564
426.50 1.56
426.60 1.556
426.70 1.552
426.80 1.548
426.90 1.544
427.00 1.54
427.10 1.536
427.20 1.531
427.30 1.526
427.40 1.522
427.50 1.517
427.60 1.512
427.70 1.506
427.80 1.501
427.90 1.495
428.00 1.49
428.10 1.484
428.20 1.478
428.30 1.471
428.40 1.465
428.50 1.458
428.60 1.452
428.70 1.444
428.80 1.437
428.90 1.43
429.00 1.422
429.10 1.414
429.20 1.406
429.30 1.397
429.40 1.388
429.50 1.379
429.60 1.37
429.70 1.36
429.80 1.35
429.90 1.34
430.00 1.33
430.10 1.319
430.20 1.308
430.30 1.296
430.40 1.284
430.50 1.272
430.60 1.26
430.70 1.247
430.80 1.234
430.90 1.221
431.00 1.207
431.10 1.193
431.20 1.179
431.30 1.164
431.40 1.149
431.50 1.134
431.60 1.118
431.70 1.102
431.80 1.085
431.90 1.067
432.00 1.049
432.10 1.031
432.20 1.011
432.30 0.9904
432.40 0.9692
432.50 0.9464
432.60 0.9229
432.70 0.8988
432.80 0.8741
432.90 0.8498
433.00 0.8258
433.10 0.8029
433.20 0.7797
433.30 0.7562
433.40 0.7305
433.50 0.7037
433.60 0.6757
433.70 0.6461
433.80 0.6132
433.90 0.5772
434.00 0.4876
434.10 0.4887
434.20 0.5802
434.30 0.6149
434.40 0.6468
434.50 0.6757
434.60 0.7029
434.70 0.7289
434.80 0.7537
434.90 0.7762
435.00 0.7985
435.10 0.8205
435.20 0.8435
435.30 0.8667
435.40 0.8902
435.50 0.913
435.60 0.9351
435.70 0.9564
435.80 0.9762
435.90 0.9951
436.00 1.013
436.10 1.03
436.20 1.047
436.30 1.063
436.40 1.078
436.50 1.092
436.60 1.107
436.70 1.12
436.80 1.133
436.90 1.146
437.00 1.158
437.10 1.17
437.20 1.182
437.30 1.193
437.40 1.204
437.50 1.215
437.60 1.225
437.70 1.235
437.80 1.245
437.90 1.254
438.00 1.263
438.10 1.272
438.20 1.28
438.30 1.288
438.40 1.296
438.50 1.303
438.60 1.31
438.70 1.317
438.80 1.323
438.90 1.329
439.00 1.335
439.10 1.341
439.20 1.346
439.30 1.352
439.40 1.357
439.50 1.361
439.60 1.366
439.70 1.37
439.80 1.374
439.90 1.378
440.00 1.382
440.10 1.385
440.20 1.389
440.30 1.392
440.40 1.395
440.50 1.398
440.60 1.401
440.70 1.403
440.80 1.406
440.90 1.408
441.00 1.41
441.10 1.413
441.20 1.414
441.30 1.416
441.40 1.418
441.50 1.42
441.60 1.421
441.70 1.423
441.80 1.424
441.90 1.426
442.00 1.427
442.10 1.428
442.20 1.429
442.30 1.43
442.40 1.431
442.50 1.432
442.60 1.432
442.70 1.433
442.80 1.434
442.90 1.434
443.00 1.435
443.10 1.435
443.20 1.436
443.30 1.436
443.40 1.436
443.50 1.437
443.60 1.437
443.70 1.437
443.80 1.437
443.90 1.437
444.00 1.437
444.10 1.437
444.20 1.437
444.30 1.437
444.40 1.437
444.50 1.437
444.60 1.437
444.70 1.437
444.80 1.437
444.90 1.436
445.00 1.436
445.10 1.436
445.20 1.436
445.30 1.435
445.40 1.435
445.50 1.434
445.60 1.434
445.70 1.434
445.80 1.433
445.90 1.433
446.00 1.432
446.10 1.432
446.20 1.431
446.30 1.431
446.40 1.43
446.50 1.43
446.60 1.429
446.70 1.429
446.80 1.428
446.90 1.427
447.00 1.427
447.10 1.426
447.20 1.426
447.30 1.425
447.40 1.424
447.50 1.424
447.60 1.423
447.70 1.422
447.80 1.422
447.90 1.421
448.00 1.42
448.10 1.42
448.20 1.419
448.30 1.418
448.40 1.418
448.50 1.417
448.60 1.416
448.70 1.415
448.80 1.415
448.90 1.414
449.00 1.413
449.10 1.412
449.20 1.412
449.30 1.411
449.40 1.41
449.50 1.409
449.60 1.409
449.70 1.408
449.80 1.407
449.90 1.406
450.00 1.405
450.10 1.405
450.20 1.404
450.30 1.403
450.40 1.402
450.50 1.401
450.60 1.401
450.70 1.4
450.80 1.399
450.90 1.398
451.00 1.397
451.10 1.396
451.20 1.396
451.30 1.395
451.40 1.394
451.50 1.393
451.60 1.392
451.70 1.391
451.80 1.391
451.90 1.39
452.00 1.389
452.10 1.388
452.20 1.387
452.30 1.386
452.40 1.385
452.50 1.385
452.60 1.384
452.70 1.383
452.80 1.382
452.90 1.381
453.00 1.38
453.10 1.379
453.20 1.378
