# Version 2.1 - nm, norm@500 to 1, cut digits, bergeron_9500_95.dat_9500
# Wavelength(nm)  Flambda(ergs/cm^s/s/nm)
300.00 1.876
300.10 1.876
300.20 1.875
300.30 1.875
300.40 1.874
300.50 1.874
300.60 1.873
300.70 1.873
300.80 1.872
300.90 1.872
301.00 1.871
301.10 1.871
301.20 1.87
301.30 1.87
301.40 1.869
301.50 1.869
301.60 1.868
301.70 1.868
301.80 1.867
301.90 1.867
302.00 1.866
302.10 1.866
302.20 1.865
302.30 1.865
302.40 1.864
302.50 1.864
302.60 1.863
302.70 1.863
302.80 1.862
302.90 1.862
303.00 1.861
303.10 1.861
303.20 1.86
303.30 1.86
303.40 1.859
303.50 1.859
303.60 1.858
303.70 1.858
303.80 1.857
303.90 1.857
304.00 1.856
304.10 1.856
304.20 1.855
304.30 1.855
304.40 1.854
304.50 1.854
304.60 1.853
304.70 1.853
304.80 1.852
304.90 1.852
305.00 1.851
305.10 1.851
305.20 1.85
305.30 1.85
305.40 1.849
305.50 1.849
305.60 1.848
305.70 1.848
305.80 1.847
305.90 1.847
306.00 1.846
306.10 1.845
306.20 1.845
306.30 1.844
306.40 1.844
306.50 1.843
306.60 1.843
306.70 1.842
306.80 1.842
306.90 1.841
307.00 1.841
307.10 1.84
307.20 1.84
307.30 1.839
307.40 1.839
307.50 1.838
307.60 1.838
307.70 1.837
307.80 1.837
307.90 1.836
308.00 1.836
308.10 1.835
308.20 1.835
308.30 1.834
308.40 1.834
308.50 1.833
308.60 1.832
308.70 1.832
308.80 1.831
308.90 1.831
309.00 1.83
309.10 1.83
309.20 1.829
309.30 1.829
309.40 1.828
309.50 1.828
309.60 1.827
309.70 1.827
309.80 1.826
309.90 1.826
310.00 1.825
310.10 1.825
310.20 1.824
310.30 1.824
310.40 1.823
310.50 1.822
310.60 1.822
310.70 1.821
310.80 1.821
310.90 1.82
311.00 1.82
311.10 1.819
311.20 1.819
311.30 1.818
311.40 1.818
311.50 1.817
311.60 1.817
311.70 1.816
311.80 1.816
311.90 1.815
312.00 1.814
312.10 1.814
312.20 1.813
312.30 1.813
312.40 1.812
312.50 1.812
312.60 1.811
312.70 1.811
312.80 1.81
312.90 1.81
313.00 1.809
313.10 1.809
313.20 1.808
313.30 1.807
313.40 1.807
313.50 1.806
313.60 1.806
313.70 1.805
313.80 1.805
313.90 1.804
314.00 1.804
314.10 1.803
314.20 1.803
314.30 1.802
314.40 1.802
314.50 1.801
314.60 1.8
314.70 1.8
314.80 1.799
314.90 1.799
315.00 1.798
315.10 1.798
315.20 1.797
315.30 1.797
315.40 1.796
315.50 1.796
315.60 1.795
315.70 1.794
315.80 1.794
315.90 1.793
316.00 1.793
316.10 1.792
316.20 1.792
316.30 1.791
316.40 1.791
316.50 1.79
316.60 1.79
316.70 1.789
316.80 1.788
316.90 1.788
317.00 1.787
317.10 1.787
317.20 1.786
317.30 1.786
317.40 1.785
317.50 1.785
317.60 1.784
317.70 1.784
317.80 1.783
317.90 1.782
318.00 1.782
318.10 1.781
318.20 1.781
318.30 1.78
318.40 1.78
318.50 1.779
318.60 1.779
318.70 1.778
318.80 1.777
318.90 1.777
319.00 1.776
319.10 1.776
319.20 1.775
319.30 1.775
319.40 1.774
319.50 1.774
319.60 1.773
319.70 1.773
319.80 1.772
319.90 1.771
320.00 1.771
320.10 1.77
320.20 1.77
320.30 1.769
320.40 1.769
320.50 1.768
320.60 1.768
320.70 1.767
320.80 1.766
320.90 1.766
321.00 1.765
321.10 1.765
321.20 1.764
321.30 1.764
321.40 1.763
321.50 1.763
321.60 1.762
321.70 1.761
321.80 1.761
321.90 1.76
322.00 1.76
322.10 1.759
322.20 1.759
322.30 1.758
322.40 1.758
322.50 1.757
322.60 1.756
322.70 1.756
322.80 1.755
322.90 1.755
323.00 1.754
323.10 1.754
323.20 1.753
323.30 1.753
323.40 1.752
323.50 1.751
323.60 1.751
323.70 1.75
323.80 1.75
323.90 1.749
324.00 1.749
324.10 1.748
324.20 1.748
324.30 1.747
324.40 1.746
324.50 1.746
324.60 1.745
324.70 1.745
324.80 1.744
324.90 1.744
325.00 1.743
325.10 1.742
325.20 1.742
325.30 1.741
325.40 1.741
325.50 1.74
325.60 1.74
325.70 1.739
325.80 1.739
325.90 1.738
326.00 1.737
326.10 1.737
326.20 1.736
326.30 1.736
326.40 1.735
326.50 1.735
326.60 1.734
326.70 1.733
326.80 1.733
326.90 1.732
327.00 1.732
327.10 1.731
327.20 1.731
327.30 1.73
327.40 1.73
327.50 1.729
327.60 1.728
327.70 1.728
327.80 1.727
327.90 1.727
328.00 1.726
328.10 1.726
328.20 1.725
328.30 1.724
328.40 1.724
328.50 1.723
328.60 1.723
328.70 1.722
328.80 1.722
328.90 1.721
329.00 1.72
329.10 1.72
329.20 1.719
329.30 1.719
329.40 1.718
329.50 1.718
329.60 1.717
329.70 1.717
329.80 1.716
329.90 1.715
330.00 1.715
330.10 1.714
330.20 1.714
330.30 1.713
330.40 1.713
330.50 1.712
330.60 1.711
330.70 1.711
330.80 1.71
330.90 1.71
331.00 1.709
331.10 1.709
331.20 1.708
331.30 1.707
331.40 1.707
331.50 1.706
331.60 1.706
331.70 1.705
331.80 1.705
331.90 1.704
332.00 1.703
332.10 1.703
332.20 1.702
332.30 1.702
332.40 1.701
332.50 1.701
332.60 1.7
332.70 1.699
332.80 1.699
332.90 1.698
333.00 1.698
333.10 1.697
333.20 1.697
333.30 1.696
333.40 1.695
333.50 1.695
333.60 1.694
333.70 1.694
333.80 1.693
333.90 1.693
334.00 1.692
334.10 1.691
334.20 1.691
334.30 1.69
334.40 1.69
334.50 1.689
334.60 1.689
334.70 1.688
334.80 1.687
334.90 1.687
335.00 1.686
335.10 1.686
335.20 1.685
335.30 1.685
335.40 1.684
335.50 1.683
335.60 1.683
335.70 1.682
335.80 1.682
335.90 1.681
336.00 1.681
336.10 1.68
336.20 1.679
336.30 1.679
336.40 1.678
336.50 1.678
336.60 1.677
336.70 1.677
336.80 1.676
336.90 1.675
337.00 1.675
337.10 1.674
337.20 1.674
337.30 1.673
337.40 1.672
337.50 1.672
337.60 1.671
337.70 1.671
337.80 1.67
337.90 1.67
338.00 1.669
338.10 1.668
338.20 1.668
338.30 1.667
338.40 1.667
338.50 1.666
338.60 1.666
338.70 1.665
338.80 1.664
338.90 1.664
339.00 1.663
339.10 1.663
339.20 1.662
339.30 1.662
339.40 1.661
339.50 1.66
339.60 1.66
339.70 1.659
339.80 1.659
339.90 1.658
340.00 1.658
340.10 1.657
340.20 1.656
340.30 1.656
340.40 1.655
340.50 1.655
340.60 1.654
340.70 1.654
340.80 1.653
340.90 1.652
341.00 1.652
341.10 1.651
341.20 1.651
341.30 1.65
341.40 1.649
341.50 1.649
341.60 1.648
341.70 1.648
341.80 1.647
341.90 1.647
342.00 1.646
342.10 1.645
342.20 1.645
342.30 1.644
342.40 1.644
342.50 1.643
342.60 1.643
342.70 1.642
342.80 1.641
342.90 1.641
343.00 1.64
343.10 1.64
343.20 1.639
343.30 1.639
343.40 1.638
343.50 1.637
343.60 1.637
343.70 1.636
343.80 1.636
343.90 1.635
344.00 1.635
344.10 1.634
344.20 1.633
344.30 1.633
344.40 1.632
344.50 1.632
344.60 1.631
344.70 1.63
344.80 1.63
344.90 1.629
345.00 1.629
345.10 1.628
345.20 1.628
345.30 1.627
345.40 1.626
345.50 1.626
345.60 1.625
345.70 1.625
345.80 1.624
345.90 1.624
346.00 1.623
346.10 1.622
346.20 1.622
346.30 1.621
346.40 1.621
346.50 1.62
346.60 1.62
346.70 1.619
346.80 1.618
346.90 1.618
347.00 1.617
347.10 1.617
347.20 1.616
347.30 1.615
347.40 1.615
347.50 1.614
347.60 1.614
347.70 1.613
347.80 1.613
347.90 1.612
348.00 1.611
348.10 1.611
348.20 1.61
348.30 1.61
348.40 1.609
348.50 1.609
348.60 1.608
348.70 1.607
348.80 1.607
348.90 1.606
349.00 1.606
349.10 1.605
349.20 1.605
349.30 1.604
349.40 1.603
349.50 1.603
349.60 1.602
349.70 1.602
349.80 1.601
349.90 1.6
350.00 1.6
350.10 1.599
350.20 1.599
350.30 1.598
350.40 1.598
350.50 1.597
350.60 1.596
350.70 1.596
350.80 1.595
350.90 1.595
351.00 1.594
351.10 1.594
351.20 1.593
351.30 1.592
351.40 1.592
351.50 1.591
351.60 1.591
351.70 1.59
351.80 1.589
351.90 1.589
352.00 1.588
352.10 1.588
352.20 1.587
352.30 1.587
352.40 1.586
352.50 1.585
352.60 1.585
352.70 1.584
352.80 1.584
352.90 1.583
353.00 1.583
353.10 1.582
353.20 1.581
353.30 1.581
353.40 1.58
353.50 1.58
353.60 1.579
353.70 1.579
353.80 1.578
353.90 1.577
354.00 1.577
354.10 1.576
354.20 1.576
354.30 1.575
354.40 1.574
354.50 1.574
354.60 1.573
354.70 1.573
354.80 1.572
354.90 1.572
355.00 1.571
355.10 1.57
355.20 1.57
355.30 1.569
355.40 1.569
355.50 1.568
355.60 1.568
355.70 1.567
355.80 1.566
355.90 1.566
356.00 1.565
356.10 1.565
356.20 1.564
356.30 1.563
356.40 1.563
356.50 1.562
356.60 1.562
356.70 1.561
356.80 1.561
356.90 1.56
357.00 1.559
357.10 1.559
357.20 1.558
357.30 1.558
357.40 1.557
357.50 1.557
357.60 1.556
357.70 1.555
357.80 1.555
357.90 1.554
358.00 1.554
358.10 1.553
358.20 1.553
358.30 1.552
358.40 1.551
358.50 1.551
358.60 1.55
358.70 1.55
358.80 1.549
358.90 1.549
359.00 1.548
359.10 1.547
359.20 1.547
359.30 1.546
359.40 1.546
359.50 1.545
359.60 1.545
359.70 1.544
359.80 1.543
359.90 1.543
360.00 1.542
360.10 1.542
360.20 1.541
360.30 1.54
360.40 1.54
360.50 1.539
360.60 1.539
360.70 1.538
360.80 1.538
360.90 1.537
361.00 1.536
361.10 1.536
361.20 1.535
361.30 1.535
361.40 1.534
361.50 1.534
361.60 1.533
361.70 1.532
361.80 1.532
361.90 1.531
362.00 1.531
362.10 1.53
362.20 1.53
362.30 1.529
362.40 1.528
362.50 1.528
362.60 1.527
362.70 1.527
362.80 1.526
362.90 1.526
363.00 1.525
363.10 1.524
363.20 1.524
363.30 1.523
363.40 1.522
363.50 1.522
363.60 1.521
363.70 1.521
363.80 1.52
363.90 1.519
364.00 1.519
364.10 1.518
364.20 1.517
364.30 1.517
364.40 1.516
364.50 1.515
364.60 1.515
364.70 1.514
364.80 1.513
364.90 1.513
365.00 1.512
365.10 1.511
365.20 1.511
365.30 1.51
365.40 1.51
365.50 1.509
365.60 1.508
365.70 1.508
365.80 1.507
365.90 1.506
366.00 1.506
366.10 1.505
366.20 1.504
366.30 1.504
366.40 1.503
366.50 1.503
366.60 1.502
366.70 1.502
366.80 1.501
366.90 1.5
367.00 1.5
367.10 1.499
367.20 1.499
367.30 1.498
367.40 1.497
367.50 1.497
367.60 1.496
367.70 1.496
367.80 1.495
367.90 1.494
368.00 1.494
368.10 1.493
368.20 1.493
368.30 1.492
368.40 1.492
368.50 1.491
368.60 1.49
368.70 1.49
368.80 1.489
368.90 1.489
369.00 1.488
369.10 1.487
369.20 1.487
369.30 1.486
369.40 1.486
369.50 1.485
369.60 1.484
369.70 1.484
369.80 1.483
369.90 1.483
370.00 1.482
370.10 1.482
370.20 1.481
370.30 1.48
370.40 1.48
370.50 1.479
370.60 1.479
370.70 1.478
370.80 1.478
370.90 1.477
371.00 1.476
371.10 1.476
371.20 1.475
371.30 1.475
371.40 1.474
371.50 1.474
371.60 1.473
371.70 1.473
371.80 1.472
371.90 1.471
372.00 1.471
372.10 1.47
372.20 1.47
372.30 1.469
372.40 1.469
372.50 1.468
372.60 1.468
372.70 1.467
372.80 1.467
372.90 1.466
373.00 1.466
373.10 1.465
373.20 1.465
373.30 1.464
373.40 1.464
373.50 1.463
373.60 1.463
373.70 1.462
373.80 1.462
373.90 1.461
374.00 1.46
374.10 1.46
374.20 1.46
374.30 1.459
374.40 1.459
374.50 1.458
374.60 1.458
374.70 1.457
374.80 1.457
374.90 1.456
375.00 1.456
375.10 1.455
375.20 1.455
375.30 1.454
375.40 1.454
375.50 1.453
375.60 1.453
375.70 1.452
375.80 1.452
375.90 1.452
376.00 1.451
376.10 1.451
376.20 1.45
376.30 1.45
376.40 1.449
376.50 1.449
376.60 1.448
376.70 1.448
376.80 1.447
376.90 1.447
377.00 1.447
377.10 1.446
377.20 1.445
377.30 1.445
377.40 1.444
377.50 1.444
377.60 1.443
377.70 1.443
377.80 1.442
377.90 1.441
378.00 1.441
378.10 1.44
378.20 1.439
378.30 1.437
378.40 1.436
378.50 1.435
378.60 1.434
378.70 1.433
378.80 1.432
378.90 1.431
379.00 1.43
379.10 1.429
379.20 1.427
379.30 1.426
379.40 1.425
379.50 1.424
379.60 1.423
379.70 1.422
379.80 1.421
379.90 1.42
380.00 1.419
380.10 1.42
380.20 1.42
380.30 1.421
380.40 1.422
380.50 1.423
380.60 1.423
380.70 1.424
380.80 1.425
380.90 1.426
381.00 1.427
381.10 1.426
381.20 1.426
381.30 1.426
381.40 1.426
381.50 1.426
381.60 1.426
381.70 1.425
381.80 1.425
381.90 1.424
382.00 1.423
382.10 1.422
382.20 1.42
382.30 1.418
382.40 1.415
382.50 1.412
382.60 1.409
382.70 1.406
382.80 1.404
382.90 1.401
383.00 1.398
383.10 1.395
383.20 1.393
383.30 1.389
383.40 1.386
383.50 1.383
383.60 1.383
383.70 1.386
383.80 1.389
383.90 1.392
384.00 1.395
384.10 1.399
384.20 1.402
384.30 1.405
384.40 1.408
384.50 1.41
384.60 1.412
384.70 1.414
384.80 1.415
384.90 1.416
385.00 1.417
385.10 1.418
385.20 1.419
385.30 1.419
385.40 1.419
385.50 1.42
385.60 1.42
385.70 1.42
385.80 1.419
385.90 1.419
386.00 1.419
386.10 1.418
386.20 1.418
386.30 1.417
386.40 1.416
386.50 1.415
386.60 1.414
386.70 1.413
386.80 1.412
386.90 1.41
387.00 1.408
387.10 1.407
387.20 1.405
387.30 1.403
387.40 1.4
387.50 1.397
387.60 1.394
387.70 1.391
387.80 1.387
387.90 1.383
388.00 1.378
388.10 1.371
388.20 1.365
388.30 1.357
388.40 1.348
388.50 1.339
388.60 1.33
388.70 1.322
388.80 1.315
388.90 1.31
389.00 1.314
389.10 1.321
389.20 1.329
389.30 1.337
389.40 1.346
389.50 1.355
389.60 1.363
389.70 1.369
389.80 1.376
389.90 1.38
390.00 1.385
390.10 1.389
390.20 1.392
390.30 1.395
390.40 1.397
390.50 1.399
390.60 1.401
390.70 1.403
390.80 1.405
390.90 1.406
391.00 1.407
391.10 1.408
391.20 1.409
391.30 1.41
391.40 1.411
391.50 1.411
391.60 1.412
391.70 1.412
391.80 1.412
391.90 1.412
392.00 1.412
392.10 1.412
392.20 1.412
392.30 1.412
392.40 1.412
392.50 1.411
392.60 1.411
392.70 1.41
392.80 1.409
392.90 1.408
393.00 1.408
393.10 1.407
393.20 1.405
393.30 1.404
393.40 1.403
393.50 1.401
393.60 1.4
393.70 1.398
393.80 1.396
393.90 1.394
394.00 1.392
394.10 1.39
394.20 1.388
394.30 1.385
394.40 1.383
394.50 1.38
394.60 1.377
394.70 1.374
394.80 1.37
394.90 1.367
395.00 1.363
395.10 1.359
395.20 1.354
395.30 1.35
395.40 1.344
395.50 1.339
395.60 1.333
395.70 1.327
395.80 1.32
395.90 1.312
396.00 1.303
396.10 1.294
396.20 1.282
396.30 1.269
396.40 1.254
396.50 1.235
396.60 1.214
396.70 1.192
396.80 1.171
396.90 1.151
397.00 1.132
397.10 1.149
397.20 1.167
397.30 1.188
397.40 1.21
397.50 1.231
397.60 1.25
397.70 1.265
397.80 1.278
397.90 1.29
398.00 1.299
398.10 1.307
398.20 1.315
398.30 1.322
398.40 1.328
398.50 1.334
398.60 1.339
398.70 1.344
398.80 1.348
398.90 1.352
399.00 1.356
399.10 1.36
399.20 1.363
399.30 1.366
399.40 1.369
399.50 1.372
399.60 1.375
399.70 1.377
399.80 1.379
399.90 1.382
400.00 1.384
400.10 1.386
400.20 1.387
400.30 1.389
400.40 1.39
400.50 1.392
400.60 1.393
400.70 1.394
400.80 1.396
400.90 1.397
401.00 1.398
401.10 1.398
401.20 1.399
401.30 1.4
401.40 1.401
401.50 1.401
401.60 1.402
401.70 1.402
401.80 1.402
401.90 1.403
402.00 1.403
402.10 1.403
402.20 1.403
402.30 1.403
402.40 1.403
402.50 1.403
402.60 1.403
402.70 1.402
402.80 1.402
402.90 1.402
403.00 1.401
403.10 1.401
403.20 1.4
403.30 1.4
403.40 1.399
403.50 1.398
403.60 1.397
403.70 1.397
403.80 1.396
403.90 1.395
404.00 1.394
404.10 1.392
404.20 1.391
404.30 1.39
404.40 1.389
404.50 1.387
404.60 1.386
404.70 1.384
404.80 1.382
404.90 1.381
405.00 1.379
405.10 1.377
405.20 1.375
405.30 1.373
405.40 1.371
405.50 1.368
405.60 1.366
405.70 1.364
405.80 1.361
405.90 1.358
406.00 1.355
406.10 1.352
406.20 1.349
406.30 1.346
406.40 1.343
406.50 1.339
406.60 1.335
406.70 1.331
406.80 1.327
406.90 1.323
407.00 1.319
407.10 1.314
407.20 1.309
407.30 1.304
407.40 1.299
407.50 1.293
407.60 1.287
407.70 1.281
407.80 1.275
407.90 1.268
408.00 1.261
408.10 1.253
408.20 1.245
408.30 1.237
408.40 1.228
408.50 1.219
408.60 1.208
408.70 1.198
408.80 1.186
408.90 1.174
409.00 1.161
409.10 1.147
409.20 1.131
409.30 1.115
409.40 1.095
409.50 1.074
409.60 1.049
409.70 1.018
409.80 0.9823
409.90 0.9424
410.00 0.9023
410.10 0.8728
410.20 0.854
410.30 0.8863
410.40 0.9228
410.50 0.9637
410.60 1
410.70 1.032
410.80 1.06
410.90 1.082
411.00 1.102
411.10 1.119
411.20 1.134
411.30 1.148
411.40 1.162
411.50 1.173
411.60 1.184
411.70 1.195
411.80 1.204
411.90 1.213
412.00 1.222
412.10 1.23
412.20 1.237
412.30 1.244
412.40 1.251
412.50 1.257
412.60 1.263
412.70 1.268
412.80 1.274
412.90 1.279
413.00 1.283
413.10 1.288
413.20 1.292
413.30 1.296
413.40 1.3
413.50 1.304
413.60 1.307
413.70 1.311
413.80 1.314
413.90 1.317
414.00 1.319
414.10 1.322
414.20 1.325
414.30 1.327
414.40 1.33
414.50 1.332
414.60 1.334
414.70 1.336
414.80 1.338
414.90 1.34
415.00 1.341
415.10 1.343
415.20 1.344
415.30 1.346
415.40 1.347
415.50 1.349
415.60 1.35
415.70 1.351
415.80 1.352
415.90 1.353
416.00 1.354
416.10 1.355
416.20 1.356
416.30 1.357
416.40 1.358
416.50 1.359
416.60 1.359
416.70 1.36
416.80 1.361
416.90 1.361
417.00 1.362
417.10 1.362
417.20 1.363
417.30 1.363
417.40 1.364
417.50 1.364
417.60 1.364
417.70 1.365
417.80 1.365
417.90 1.365
418.00 1.365
418.10 1.365
418.20 1.366
418.30 1.366
418.40 1.366
418.50 1.366
418.60 1.366
418.70 1.366
418.80 1.366
418.90 1.366
419.00 1.366
419.10 1.366
419.20 1.366
419.30 1.366
419.40 1.366
419.50 1.365
419.60 1.365
419.70 1.365
419.80 1.365
419.90 1.365
420.00 1.364
420.10 1.364
420.20 1.364
420.30 1.364
420.40 1.363
420.50 1.363
420.60 1.363
420.70 1.362
420.80 1.362
420.90 1.362
421.00 1.361
421.10 1.361
421.20 1.36
421.30 1.36
421.40 1.359
421.50 1.359
421.60 1.358
421.70 1.358
421.80 1.357
421.90 1.357
422.00 1.356
422.10 1.356
422.20 1.355
422.30 1.355
422.40 1.354
422.50 1.353
422.60 1.353
422.70 1.352
422.80 1.351
422.90 1.351
423.00 1.35
423.10 1.349
423.20 1.349
423.30 1.348
423.40 1.347
423.50 1.346
423.60 1.345
423.70 1.345
423.80 1.344
423.90 1.343
424.00 1.342
424.10 1.341
424.20 1.34
424.30 1.339
424.40 1.338
424.50 1.337
424.60 1.336
424.70 1.335
424.80 1.334
424.90 1.333
425.00 1.332
425.10 1.331
425.20 1.33
425.30 1.329
425.40 1.327
425.50 1.326
425.60 1.325
425.70 1.324
425.80 1.322
425.90 1.321
426.00 1.32
426.10 1.318
426.20 1.317
426.30 1.315
426.40 1.314
426.50 1.312
426.60 1.311
426.70 1.309
426.80 1.307
426.90 1.306
427.00 1.304
427.10 1.302
427.20 1.3
427.30 1.298
427.40 1.296
427.50 1.294
427.60 1.292
427.70 1.29
427.80 1.288
427.90 1.286
428.00 1.284
428.10 1.281
428.20 1.279
428.30 1.277
428.40 1.274
428.50 1.271
428.60 1.269
428.70 1.266
428.80 1.263
428.90 1.26
429.00 1.257
429.10 1.254
429.20 1.251
429.30 1.247
429.40 1.244
429.50 1.24
429.60 1.237
429.70 1.233
429.80 1.229
429.90 1.225
430.00 1.22
430.10 1.216
430.20 1.211
430.30 1.206
430.40 1.201
430.50 1.196
430.60 1.191
430.70 1.185
430.80 1.179
430.90 1.173
431.00 1.167
431.10 1.16
431.20 1.154
431.30 1.146
431.40 1.139
431.50 1.131
431.60 1.123
431.70 1.114
431.80 1.105
431.90 1.095
432.00 1.085
432.10 1.074
432.20 1.063
432.30 1.05
432.40 1.038
432.50 1.023
432.60 1.008
432.70 0.9922
432.80 0.9743
432.90 0.9554
433.00 0.9356
433.10 0.9137
433.20 0.8906
433.30 0.8662
433.40 0.8379
433.50 0.8062
433.60 0.7711
433.70 0.7229
433.80 0.6694
433.90 0.6106
434.00 0.5604
434.10 0.5619
434.20 0.6149
434.30 0.6733
434.40 0.7259
434.50 0.7728
434.60 0.8069
434.70 0.8376
434.80 0.865
434.90 0.8886
435.00 0.9109
435.10 0.9319
435.20 0.9509
435.30 0.9689
435.40 0.9859
435.50 1.001
435.60 1.015
435.70 1.028
435.80 1.04
435.90 1.052
436.00 1.062
436.10 1.072
436.20 1.081
436.30 1.09
436.40 1.098
436.50 1.106
436.60 1.113
436.70 1.12
436.80 1.127
436.90 1.133
437.00 1.139
437.10 1.144
437.20 1.15
437.30 1.155
437.40 1.159
437.50 1.164
437.60 1.168
437.70 1.173
437.80 1.177
437.90 1.18
438.00 1.184
438.10 1.187
438.20 1.191
438.30 1.194
438.40 1.197
438.50 1.199
438.60 1.202
438.70 1.205
438.80 1.207
438.90 1.21
439.00 1.212
439.10 1.214
439.20 1.216
439.30 1.218
439.40 1.22
439.50 1.221
439.60 1.223
439.70 1.225
439.80 1.226
439.90 1.228
440.00 1.229
440.10 1.23
440.20 1.232
440.30 1.233
440.40 1.234
440.50 1.235
440.60 1.236
440.70 1.237
440.80 1.238
440.90 1.239
441.00 1.24
441.10 1.24
441.20 1.241
441.30 1.242
441.40 1.243
441.50 1.243
441.60 1.244
441.70 1.244
441.80 1.245
441.90 1.245
442.00 1.246
442.10 1.246
442.20 1.247
442.30 1.247
442.40 1.247
442.50 1.248
442.60 1.248
442.70 1.248
442.80 1.249
442.90 1.249
443.00 1.249
443.10 1.249
443.20 1.249
443.30 1.25
443.40 1.25
443.50 1.25
443.60 1.25
443.70 1.25
443.80 1.25
443.90 1.25
444.00 1.25
444.10 1.25
444.20 1.25
444.30 1.25
444.40 1.25
444.50 1.25
444.60 1.25
444.70 1.25
444.80 1.25
444.90 1.25
445.00 1.25
445.10 1.25
445.20 1.249
445.30 1.249
445.40 1.249
445.50 1.249
445.60 1.249
445.70 1.249
445.80 1.249
445.90 1.248
446.00 1.248
446.10 1.248
446.20 1.248
446.30 1.248
446.40 1.247
446.50 1.247
446.60 1.247
446.70 1.247
446.80 1.246
446.90 1.246
447.00 1.246
447.10 1.246
447.20 1.245
447.30 1.245
447.40 1.245
447.50 1.245
447.60 1.244
447.70 1.244
447.80 1.244
447.90 1.243
448.00 1.243
448.10 1.243
448.20 1.242
448.30 1.242
448.40 1.242
448.50 1.241
448.60 1.241
448.70 1.241
448.80 1.24
448.90 1.24
449.00 1.24
449.10 1.239
449.20 1.239
449.30 1.239
449.40 1.238
449.50 1.238
449.60 1.238
449.70 1.237
449.80 1.237
449.90 1.237
450.00 1.236
450.10 1.236
450.20 1.235
450.30 1.235
450.40 1.235
450.50 1.234
450.60 1.234
450.70 1.233
450.80 1.233
450.90 1.233
451.00 1.232
451.10 1.232
451.20 1.231
451.30 1.231
451.40 1.231
451.50 1.23
451.60 1.23
451.70 1.229
451.80 1.229
451.90 1.228
452.00 1.228
452.10 1.228
452.20 1.227
452.30 1.227
452.40 1.226
452.50 1.226
452.60 1.225
452.70 1.225
452.80 1.225
452.90 1.224
453.00 1.224
453.10 1.223
453.20 1.223
453.30 1.222
453.40 1.222
453.50 1.222
453.60 1.221
453.70 1.221
453.80 1.22
453.90 1.22
454.00 1.219
