# Version 2.1 - nm, norm@500 to 1, cut digits, bergeron_9500_70.dat_9500
# Wavelength(nm)  Flambda(ergs/cm^s/s/nm)
300.00 1.373
300.10 1.373
300.20 1.372
300.30 1.372
300.40 1.371
300.50 1.371
300.60 1.37
300.70 1.37
300.80 1.369
300.90 1.369
301.00 1.368
301.10 1.368
301.20 1.367
301.30 1.367
301.40 1.366
301.50 1.366
301.60 1.365
301.70 1.365
301.80 1.364
301.90 1.364
302.00 1.363
302.10 1.363
302.20 1.362
302.30 1.362
302.40 1.361
302.50 1.361
302.60 1.36
302.70 1.36
302.80 1.359
302.90 1.359
303.00 1.358
303.10 1.358
303.20 1.357
303.30 1.357
303.40 1.356
303.50 1.356
303.60 1.355
303.70 1.355
303.80 1.354
303.90 1.354
304.00 1.353
304.10 1.353
304.20 1.352
304.30 1.352
304.40 1.351
304.50 1.351
304.60 1.35
304.70 1.35
304.80 1.349
304.90 1.349
305.00 1.348
305.10 1.348
305.20 1.347
305.30 1.347
305.40 1.346
305.50 1.346
305.60 1.345
305.70 1.345
305.80 1.344
305.90 1.344
306.00 1.343
306.10 1.343
306.20 1.342
306.30 1.342
306.40 1.341
306.50 1.341
306.60 1.34
306.70 1.34
306.80 1.339
306.90 1.339
307.00 1.338
307.10 1.338
307.20 1.337
307.30 1.337
307.40 1.336
307.50 1.336
307.60 1.335
307.70 1.335
307.80 1.334
307.90 1.334
308.00 1.333
308.10 1.333
308.20 1.332
308.30 1.332
308.40 1.331
308.50 1.33
308.60 1.33
308.70 1.329
308.80 1.329
308.90 1.328
309.00 1.328
309.10 1.327
309.20 1.327
309.30 1.326
309.40 1.326
309.50 1.325
309.60 1.325
309.70 1.324
309.80 1.324
309.90 1.323
310.00 1.323
310.10 1.322
310.20 1.322
310.30 1.321
310.40 1.321
310.50 1.32
310.60 1.32
310.70 1.319
310.80 1.319
310.90 1.318
311.00 1.318
311.10 1.317
311.20 1.317
311.30 1.316
311.40 1.316
311.50 1.315
311.60 1.315
311.70 1.314
311.80 1.314
311.90 1.313
312.00 1.313
312.10 1.312
312.20 1.312
312.30 1.311
312.40 1.311
312.50 1.31
312.60 1.31
312.70 1.309
312.80 1.309
312.90 1.308
313.00 1.308
313.10 1.307
313.20 1.307
313.30 1.306
313.40 1.306
313.50 1.305
313.60 1.305
313.70 1.304
313.80 1.304
313.90 1.303
314.00 1.303
314.10 1.302
314.20 1.302
314.30 1.301
314.40 1.301
314.50 1.3
314.60 1.3
314.70 1.299
314.80 1.299
314.90 1.298
315.00 1.298
315.10 1.297
315.20 1.297
315.30 1.296
315.40 1.296
315.50 1.295
315.60 1.295
315.70 1.294
315.80 1.294
315.90 1.293
316.00 1.293
316.10 1.292
316.20 1.292
316.30 1.291
316.40 1.291
316.50 1.29
316.60 1.29
316.70 1.289
316.80 1.289
316.90 1.288
317.00 1.288
317.10 1.287
317.20 1.287
317.30 1.286
317.40 1.286
317.50 1.285
317.60 1.285
317.70 1.284
317.80 1.284
317.90 1.283
318.00 1.283
318.10 1.282
318.20 1.282
318.30 1.281
318.40 1.281
318.50 1.28
318.60 1.28
318.70 1.279
318.80 1.279
318.90 1.278
319.00 1.278
319.10 1.277
319.20 1.277
319.30 1.276
319.40 1.276
319.50 1.275
319.60 1.275
319.70 1.274
319.80 1.274
319.90 1.273
320.00 1.273
320.10 1.272
320.20 1.272
320.30 1.271
320.40 1.271
320.50 1.27
320.60 1.27
320.70 1.269
320.80 1.269
320.90 1.268
321.00 1.268
321.10 1.267
321.20 1.267
321.30 1.266
321.40 1.266
321.50 1.265
321.60 1.265
321.70 1.264
321.80 1.264
321.90 1.263
322.00 1.263
322.10 1.262
322.20 1.262
322.30 1.261
322.40 1.261
322.50 1.26
322.60 1.26
322.70 1.259
322.80 1.259
322.90 1.258
323.00 1.258
323.10 1.257
323.20 1.257
323.30 1.256
323.40 1.256
323.50 1.255
323.60 1.255
323.70 1.254
323.80 1.254
323.90 1.253
324.00 1.253
324.10 1.252
324.20 1.252
324.30 1.251
324.40 1.251
324.50 1.25
324.60 1.25
324.70 1.249
324.80 1.249
324.90 1.248
325.00 1.248
325.10 1.247
325.20 1.247
325.30 1.246
325.40 1.246
325.50 1.245
325.60 1.245
325.70 1.244
325.80 1.244
325.90 1.243
326.00 1.243
326.10 1.242
326.20 1.242
326.30 1.241
326.40 1.241
326.50 1.24
326.60 1.24
326.70 1.239
326.80 1.239
326.90 1.238
327.00 1.238
327.10 1.237
327.20 1.237
327.30 1.236
327.40 1.236
327.50 1.235
327.60 1.235
327.70 1.234
327.80 1.234
327.90 1.233
328.00 1.233
328.10 1.232
328.20 1.232
328.30 1.231
328.40 1.231
328.50 1.23
328.60 1.23
328.70 1.229
328.80 1.229
328.90 1.228
329.00 1.228
329.10 1.227
329.20 1.227
329.30 1.226
329.40 1.226
329.50 1.225
329.60 1.225
329.70 1.224
329.80 1.224
329.90 1.223
330.00 1.223
330.10 1.222
330.20 1.222
330.30 1.221
330.40 1.221
330.50 1.22
330.60 1.22
330.70 1.219
330.80 1.219
330.90 1.218
331.00 1.218
331.10 1.217
331.20 1.217
331.30 1.216
331.40 1.216
331.50 1.215
331.60 1.215
331.70 1.214
331.80 1.214
331.90 1.213
332.00 1.213
332.10 1.212
332.20 1.212
332.30 1.211
332.40 1.211
332.50 1.21
332.60 1.21
332.70 1.209
332.80 1.209
332.90 1.208
333.00 1.208
333.10 1.208
333.20 1.207
333.30 1.207
333.40 1.206
333.50 1.206
333.60 1.205
333.70 1.205
333.80 1.204
333.90 1.204
334.00 1.203
334.10 1.203
334.20 1.202
334.30 1.202
334.40 1.201
334.50 1.201
334.60 1.2
334.70 1.2
334.80 1.199
334.90 1.199
335.00 1.198
335.10 1.198
335.20 1.197
335.30 1.197
335.40 1.196
335.50 1.196
335.60 1.195
335.70 1.195
335.80 1.194
335.90 1.194
336.00 1.193
336.10 1.193
336.20 1.192
336.30 1.192
336.40 1.191
336.50 1.191
336.60 1.19
336.70 1.19
336.80 1.189
336.90 1.189
337.00 1.188
337.10 1.188
337.20 1.188
337.30 1.187
337.40 1.187
337.50 1.186
337.60 1.186
337.70 1.185
337.80 1.185
337.90 1.184
338.00 1.184
338.10 1.183
338.20 1.183
338.30 1.182
338.40 1.182
338.50 1.181
338.60 1.181
338.70 1.18
338.80 1.18
338.90 1.179
339.00 1.179
339.10 1.178
339.20 1.178
339.30 1.177
339.40 1.177
339.50 1.176
339.60 1.176
339.70 1.175
339.80 1.175
339.90 1.174
340.00 1.174
340.10 1.173
340.20 1.173
340.30 1.172
340.40 1.172
340.50 1.172
340.60 1.171
340.70 1.171
340.80 1.17
340.90 1.17
341.00 1.169
341.10 1.169
341.20 1.168
341.30 1.168
341.40 1.167
341.50 1.167
341.60 1.166
341.70 1.166
341.80 1.165
341.90 1.165
342.00 1.164
342.10 1.164
342.20 1.163
342.30 1.163
342.40 1.162
342.50 1.162
342.60 1.161
342.70 1.161
342.80 1.16
342.90 1.16
343.00 1.16
343.10 1.159
343.20 1.159
343.30 1.158
343.40 1.158
343.50 1.157
343.60 1.157
343.70 1.156
343.80 1.156
343.90 1.155
344.00 1.155
344.10 1.154
344.20 1.154
344.30 1.153
344.40 1.153
344.50 1.152
344.60 1.152
344.70 1.151
344.80 1.151
344.90 1.15
345.00 1.15
345.10 1.15
345.20 1.149
345.30 1.149
345.40 1.148
345.50 1.148
345.60 1.147
345.70 1.147
345.80 1.146
345.90 1.146
346.00 1.145
346.10 1.145
346.20 1.144
346.30 1.144
346.40 1.143
346.50 1.143
346.60 1.142
346.70 1.142
346.80 1.141
346.90 1.141
347.00 1.14
347.10 1.14
347.20 1.14
347.30 1.139
347.40 1.139
347.50 1.138
347.60 1.138
347.70 1.137
347.80 1.137
347.90 1.136
348.00 1.136
348.10 1.135
348.20 1.135
348.30 1.134
348.40 1.134
348.50 1.133
348.60 1.133
348.70 1.132
348.80 1.132
348.90 1.132
349.00 1.131
349.10 1.131
349.20 1.13
349.30 1.13
349.40 1.129
349.50 1.129
349.60 1.128
349.70 1.128
349.80 1.127
349.90 1.127
350.00 1.126
350.10 1.126
350.20 1.125
350.30 1.125
350.40 1.125
350.50 1.124
350.60 1.124
350.70 1.123
350.80 1.123
350.90 1.122
351.00 1.122
351.10 1.121
351.20 1.121
351.30 1.12
351.40 1.12
351.50 1.119
351.60 1.119
351.70 1.118
351.80 1.118
351.90 1.118
352.00 1.117
352.10 1.117
352.20 1.116
352.30 1.116
352.40 1.115
352.50 1.115
352.60 1.114
352.70 1.114
352.80 1.113
352.90 1.113
353.00 1.112
353.10 1.112
353.20 1.111
353.30 1.111
353.40 1.111
353.50 1.11
353.60 1.11
353.70 1.109
353.80 1.109
353.90 1.108
354.00 1.108
354.10 1.107
354.20 1.107
354.30 1.106
354.40 1.106
354.50 1.105
354.60 1.105
354.70 1.105
354.80 1.104
354.90 1.104
355.00 1.103
355.10 1.103
355.20 1.102
355.30 1.102
355.40 1.101
355.50 1.101
355.60 1.1
355.70 1.1
355.80 1.099
355.90 1.099
356.00 1.099
356.10 1.098
356.20 1.098
356.30 1.097
356.40 1.097
356.50 1.096
356.60 1.096
356.70 1.095
356.80 1.095
356.90 1.094
357.00 1.094
357.10 1.093
357.20 1.093
357.30 1.093
357.40 1.092
357.50 1.092
357.60 1.091
357.70 1.091
357.80 1.09
357.90 1.09
358.00 1.089
358.10 1.089
358.20 1.088
358.30 1.088
358.40 1.088
358.50 1.087
358.60 1.087
358.70 1.086
358.80 1.086
358.90 1.085
359.00 1.085
359.10 1.084
359.20 1.084
359.30 1.083
359.40 1.083
359.50 1.083
359.60 1.082
359.70 1.082
359.80 1.081
359.90 1.081
360.00 1.08
360.10 1.08
360.20 1.079
360.30 1.079
360.40 1.078
360.50 1.078
360.60 1.078
360.70 1.077
360.80 1.077
360.90 1.076
361.00 1.076
361.10 1.075
361.20 1.075
361.30 1.074
361.40 1.074
361.50 1.073
361.60 1.073
361.70 1.073
361.80 1.072
361.90 1.072
362.00 1.071
362.10 1.071
362.20 1.07
362.30 1.07
362.40 1.069
362.50 1.069
362.60 1.069
362.70 1.068
362.80 1.068
362.90 1.067
363.00 1.067
363.10 1.066
363.20 1.066
363.30 1.065
363.40 1.065
363.50 1.064
363.60 1.064
363.70 1.063
363.80 1.063
363.90 1.062
364.00 1.062
364.10 1.061
364.20 1.061
364.30 1.061
364.40 1.06
364.50 1.06
364.60 1.059
364.70 1.059
364.80 1.058
364.90 1.058
365.00 1.058
365.10 1.057
365.20 1.057
365.30 1.056
365.40 1.056
365.50 1.055
365.60 1.055
365.70 1.055
365.80 1.054
365.90 1.054
366.00 1.053
366.10 1.053
366.20 1.053
366.30 1.052
366.40 1.052
366.50 1.052
366.60 1.051
366.70 1.051
366.80 1.051
366.90 1.05
367.00 1.05
367.10 1.05
367.20 1.049
367.30 1.049
367.40 1.049
367.50 1.048
367.60 1.048
367.70 1.048
367.80 1.047
367.90 1.047
368.00 1.047
368.10 1.048
368.20 1.049
368.30 1.05
368.40 1.051
368.50 1.052
368.60 1.053
368.70 1.054
368.80 1.055
368.90 1.056
369.00 1.057
369.10 1.058
369.20 1.058
369.30 1.059
369.40 1.06
369.50 1.061
369.60 1.062
369.70 1.063
369.80 1.064
369.90 1.065
370.00 1.066
370.10 1.069
370.20 1.072
370.30 1.075
370.40 1.078
370.50 1.081
370.60 1.084
370.70 1.086
370.80 1.089
370.90 1.092
371.00 1.095
371.10 1.098
371.20 1.101
371.30 1.104
371.40 1.106
371.50 1.109
371.60 1.112
371.70 1.115
371.80 1.118
371.90 1.121
372.00 1.123
372.10 1.127
372.20 1.131
372.30 1.135
372.40 1.138
372.50 1.142
372.60 1.146
372.70 1.15
372.80 1.154
372.90 1.157
373.00 1.161
373.10 1.165
373.20 1.168
373.30 1.172
373.40 1.176
373.50 1.18
373.60 1.183
373.70 1.187
373.80 1.191
373.90 1.194
374.00 1.198
374.10 1.201
374.20 1.205
374.30 1.208
374.40 1.211
374.50 1.214
374.60 1.218
374.70 1.221
374.80 1.224
374.90 1.228
375.00 1.231
375.10 1.234
375.20 1.237
375.30 1.24
375.40 1.244
375.50 1.247
375.60 1.25
375.70 1.253
375.80 1.257
375.90 1.26
376.00 1.263
376.10 1.265
376.20 1.266
376.30 1.268
376.40 1.269
376.50 1.271
376.60 1.272
376.70 1.274
376.80 1.275
376.90 1.277
377.00 1.278
377.10 1.276
377.20 1.273
377.30 1.271
377.40 1.269
377.50 1.266
377.60 1.264
377.70 1.262
377.80 1.259
377.90 1.257
378.00 1.255
378.10 1.238
378.20 1.221
378.30 1.204
378.40 1.187
378.50 1.17
378.60 1.153
378.70 1.136
378.80 1.119
378.90 1.102
379.00 1.085
379.10 1.062
379.20 1.039
379.30 1.016
379.40 0.9936
379.50 0.9708
379.60 0.9481
379.70 0.9253
379.80 0.9026
379.90 0.8799
380.00 0.8573
380.10 0.8896
380.20 0.9219
380.30 0.9542
380.40 0.9865
380.50 1.019
380.60 1.051
380.70 1.083
380.80 1.115
380.90 1.147
381.00 1.179
381.10 1.188
381.20 1.197
381.30 1.205
381.40 1.214
381.50 1.223
381.60 1.224
381.70 1.222
381.80 1.219
381.90 1.212
382.00 1.203
382.10 1.191
382.20 1.176
382.30 1.139
382.40 1.101
382.50 1.064
382.60 1.027
382.70 0.9895
382.80 0.9523
382.90 0.9151
383.00 0.878
383.10 0.8409
383.20 0.8038
383.30 0.7467
383.40 0.6852
383.50 0.6228
383.60 0.6364
383.70 0.6988
383.80 0.7602
383.90 0.8167
384.00 0.8697
384.10 0.9207
384.20 0.9691
384.30 1.014
384.40 1.056
384.50 1.094
384.60 1.127
384.70 1.156
384.80 1.181
384.90 1.203
385.00 1.222
385.10 1.237
385.20 1.251
385.30 1.263
385.40 1.272
385.50 1.28
385.60 1.287
385.70 1.292
385.80 1.296
385.90 1.299
386.00 1.3
386.10 1.3
386.20 1.3
386.30 1.298
386.40 1.295
386.50 1.291
386.60 1.285
386.70 1.279
386.80 1.271
386.90 1.262
387.00 1.251
387.10 1.239
387.20 1.225
387.30 1.209
387.40 1.192
387.50 1.17
387.60 1.147
387.70 1.12
387.80 1.089
387.90 1.053
388.00 1.014
388.10 0.967
388.20 0.9172
388.30 0.8644
388.40 0.8075
388.50 0.7496
388.60 0.6906
388.70 0.6281
388.80 0.5651
388.90 0.5015
389.00 0.5608
389.10 0.6217
389.20 0.6842
389.30 0.7433
389.40 0.8013
389.50 0.8583
389.60 0.9116
389.70 0.962
389.80 1.01
389.90 1.05
390.00 1.087
390.10 1.12
390.20 1.148
390.30 1.173
390.40 1.197
390.50 1.216
390.60 1.234
390.70 1.251
390.80 1.266
390.90 1.28
391.00 1.292
391.10 1.304
391.20 1.314
391.30 1.324
391.40 1.333
391.50 1.341
391.60 1.348
391.70 1.355
391.80 1.361
391.90 1.366
392.00 1.371
392.10 1.375
392.20 1.379
392.30 1.382
392.40 1.384
392.50 1.386
392.60 1.388
392.70 1.388
392.80 1.389
392.90 1.388
393.00 1.388
393.10 1.386
393.20 1.384
393.30 1.382
393.40 1.379
393.50 1.375
393.60 1.371
393.70 1.366
393.80 1.361
393.90 1.355
394.00 1.348
394.10 1.34
394.20 1.332
394.30 1.324
394.40 1.314
394.50 1.304
394.60 1.293
394.70 1.28
394.80 1.268
394.90 1.254
395.00 1.239
395.10 1.222
395.20 1.205
395.30 1.186
395.40 1.165
395.50 1.144
395.60 1.119
395.70 1.092
395.80 1.064
395.90 1.03
396.00 0.9932
396.10 0.9534
396.20 0.907
396.30 0.8578
396.40 0.8056
396.50 0.7496
396.60 0.6933
396.70 0.6367
396.80 0.5779
396.90 0.5118
397.00 0.4383
397.10 0.5061
397.20 0.5694
397.30 0.6283
397.40 0.6847
397.50 0.7407
397.60 0.7965
397.70 0.8486
397.80 0.8979
397.90 0.9442
398.00 0.9841
398.10 1.021
398.20 1.054
398.30 1.083
398.40 1.11
398.50 1.134
398.60 1.156
398.70 1.176
398.80 1.196
398.90 1.213
399.00 1.229
399.10 1.245
399.20 1.258
399.30 1.272
399.40 1.285
399.50 1.296
399.60 1.307
399.70 1.318
399.80 1.328
399.90 1.337
400.00 1.346
400.10 1.354
400.20 1.362
400.30 1.369
400.40 1.376
400.50 1.383
400.60 1.389
400.70 1.394
400.80 1.4
400.90 1.405
401.00 1.41
401.10 1.414
401.20 1.418
401.30 1.422
401.40 1.426
401.50 1.429
401.60 1.432
401.70 1.435
401.80 1.437
401.90 1.44
402.00 1.442
402.10 1.444
402.20 1.446
402.30 1.447
402.40 1.449
402.50 1.45
402.60 1.451
402.70 1.452
402.80 1.452
402.90 1.453
403.00 1.453
403.10 1.453
403.20 1.453
403.30 1.453
403.40 1.453
403.50 1.452
403.60 1.452
403.70 1.451
403.80 1.45
403.90 1.449
404.00 1.448
404.10 1.446
404.20 1.445
404.30 1.443
404.40 1.441
404.50 1.439
404.60 1.437
404.70 1.435
404.80 1.432
404.90 1.429
405.00 1.426
405.10 1.423
405.20 1.42
405.30 1.416
405.40 1.413
405.50 1.409
405.60 1.404
405.70 1.4
405.80 1.395
405.90 1.39
406.00 1.385
406.10 1.379
406.20 1.373
406.30 1.367
406.40 1.36
406.50 1.353
406.60 1.346
406.70 1.339
406.80 1.33
406.90 1.322
407.00 1.313
407.10 1.304
407.20 1.294
407.30 1.283
407.40 1.272
407.50 1.261
407.60 1.249
407.70 1.236
407.80 1.222
407.90 1.207
408.00 1.192
408.10 1.176
408.20 1.158
408.30 1.14
408.40 1.121
408.50 1.099
408.60 1.077
408.70 1.055
408.80 1.029
408.90 1.002
409.00 0.9741
409.10 0.9414
409.20 0.9061
409.30 0.8683
409.40 0.8258
409.50 0.781
409.60 0.7341
409.70 0.6845
409.80 0.6345
409.90 0.584
410.00 0.5295
410.10 0.4743
410.20 0.4185
410.30 0.4945
410.40 0.5586
410.50 0.6109
410.60 0.6608
410.70 0.7099
410.80 0.7583
410.90 0.8031
411.00 0.8457
411.10 0.8859
411.20 0.921
411.30 0.9537
411.40 0.9839
411.50 1.01
411.60 1.035
411.70 1.058
411.80 1.08
411.90 1.1
412.00 1.119
412.10 1.137
412.20 1.154
412.30 1.17
412.40 1.185
412.50 1.198
412.60 1.212
412.70 1.224
412.80 1.235
412.90 1.246
413.00 1.257
413.10 1.266
413.20 1.276
413.30 1.284
413.40 1.292
413.50 1.3
413.60 1.307
413.70 1.314
413.80 1.321
413.90 1.327
414.00 1.333
414.10 1.339
414.20 1.344
414.30 1.349
414.40 1.354
414.50 1.359
414.60 1.363
414.70 1.367
414.80 1.371
414.90 1.375
415.00 1.378
415.10 1.381
415.20 1.385
415.30 1.388
415.40 1.39
415.50 1.393
415.60 1.395
415.70 1.398
415.80 1.4
415.90 1.402
416.00 1.404
416.10 1.406
416.20 1.408
416.30 1.409
416.40 1.411
416.50 1.413
416.60 1.414
416.70 1.415
416.80 1.417
416.90 1.418
417.00 1.419
417.10 1.42
417.20 1.421
417.30 1.422
417.40 1.423
417.50 1.424
417.60 1.424
417.70 1.425
417.80 1.426
417.90 1.426
418.00 1.427
418.10 1.427
418.20 1.428
418.30 1.428
418.40 1.428
418.50 1.428
418.60 1.429
418.70 1.429
418.80 1.429
418.90 1.429
419.00 1.429
419.10 1.429
419.20 1.429
419.30 1.429
419.40 1.429
419.50 1.429
419.60 1.429
419.70 1.429
419.80 1.429
419.90 1.429
420.00 1.428
420.10 1.428
420.20 1.428
420.30 1.428
420.40 1.427
420.50 1.427
420.60 1.427
420.70 1.426
420.80 1.426
420.90 1.425
421.00 1.425
421.10 1.425
421.20 1.424
421.30 1.423
421.40 1.423
421.50 1.422
421.60 1.422
421.70 1.421
421.80 1.421
421.90 1.42
422.00 1.419
422.10 1.419
422.20 1.418
422.30 1.417
422.40 1.417
422.50 1.416
422.60 1.415
422.70 1.414
422.80 1.413
422.90 1.413
423.00 1.412
423.10 1.411
423.20 1.41
423.30 1.409
423.40 1.408
423.50 1.407
423.60 1.406
423.70 1.405
423.80 1.404
423.90 1.403
424.00 1.402
424.10 1.401
424.20 1.4
424.30 1.399
424.40 1.398
424.50 1.396
424.60 1.395
424.70 1.394
424.80 1.393
424.90 1.391
425.00 1.39
425.10 1.389
425.20 1.387
425.30 1.386
425.40 1.384
425.50 1.383
425.60 1.381
425.70 1.38
425.80 1.378
425.90 1.377
426.00 1.375
426.10 1.373
426.20 1.371
426.30 1.369
426.40 1.368
426.50 1.366
426.60 1.364
426.70 1.362
426.80 1.36
426.90 1.357
427.00 1.355
427.10 1.353
427.20 1.351
427.30 1.348
427.40 1.346
427.50 1.343
427.60 1.341
427.70 1.338
427.80 1.335
427.90 1.332
428.00 1.329
428.10 1.326
428.20 1.323
428.30 1.32
428.40 1.317
428.50 1.314
428.60 1.31
428.70 1.307
428.80 1.303
428.90 1.299
429.00 1.295
429.10 1.291
429.20 1.287
429.30 1.282
429.40 1.278
429.50 1.273
429.60 1.268
429.70 1.262
429.80 1.257
429.90 1.251
430.00 1.246
430.10 1.239
430.20 1.233
430.30 1.226
430.40 1.22
430.50 1.212
430.60 1.205
430.70 1.197
430.80 1.189
430.90 1.181
431.00 1.173
431.10 1.164
431.20 1.155
431.30 1.146
431.40 1.136
431.50 1.126
431.60 1.115
431.70 1.103
431.80 1.091
431.90 1.077
432.00 1.063
432.10 1.048
432.20 1.03
432.30 1.012
432.40 0.9919
432.50 0.9693
432.60 0.9452
432.70 0.9198
432.80 0.8919
432.90 0.8633
433.00 0.8339
433.10 0.8037
433.20 0.7722
433.30 0.7397
433.40 0.7028
433.50 0.6641
433.60 0.6236
433.70 0.5813
433.80 0.5372
433.90 0.4911
434.00 0.4019
434.10 0.4032
434.20 0.4949
434.30 0.5404
434.40 0.584
434.50 0.6258
434.60 0.6658
434.70 0.7038
434.80 0.7398
434.90 0.7716
435.00 0.8022
435.10 0.8316
435.20 0.8601
435.30 0.8878
435.40 0.9146
435.50 0.939
435.60 0.9618
435.70 0.9833
435.80 1.002
435.90 1.019
436.00 1.035
436.10 1.049
436.20 1.063
436.30 1.075
436.40 1.086
436.50 1.096
436.60 1.106
436.70 1.115
436.80 1.124
436.90 1.132
437.00 1.14
437.10 1.147
437.20 1.154
437.30 1.161
437.40 1.168
437.50 1.174
437.60 1.18
437.70 1.186
437.80 1.192
437.90 1.197
438.00 1.202
438.10 1.207
438.20 1.212
438.30 1.216
438.40 1.22
438.50 1.224
438.60 1.228
438.70 1.231
438.80 1.234
438.90 1.238
439.00 1.241
439.10 1.243
439.20 1.246
439.30 1.249
439.40 1.251
439.50 1.253
439.60 1.256
439.70 1.258
439.80 1.26
439.90 1.262
440.00 1.263
440.10 1.265
440.20 1.267
440.30 1.268
440.40 1.27
440.50 1.271
440.60 1.272
440.70 1.274
440.80 1.275
440.90 1.276
441.00 1.277
441.10 1.278
441.20 1.279
441.30 1.28
441.40 1.281
441.50 1.282
441.60 1.282
441.70 1.283
441.80 1.283
441.90 1.284
442.00 1.285
442.10 1.285
442.20 1.286
442.30 1.286
442.40 1.286
442.50 1.287
442.60 1.287
442.70 1.287
442.80 1.288
442.90 1.288
443.00 1.288
443.10 1.288
443.20 1.288
443.30 1.289
443.40 1.289
443.50 1.289
443.60 1.289
443.70 1.289
443.80 1.289
443.90 1.289
444.00 1.289
444.10 1.289
444.20 1.289
444.30 1.289
444.40 1.289
444.50 1.289
444.60 1.289
444.70 1.289
444.80 1.288
444.90 1.288
445.00 1.288
445.10 1.288
445.20 1.288
445.30 1.288
445.40 1.287
445.50 1.287
445.60 1.287
445.70 1.287
445.80 1.286
445.90 1.286
446.00 1.286
446.10 1.286
446.20 1.285
446.30 1.285
446.40 1.285
446.50 1.285
446.60 1.284
446.70 1.284
446.80 1.284
446.90 1.283
447.00 1.283
447.10 1.283
447.20 1.282
447.30 1.282
447.40 1.281
447.50 1.281
447.60 1.281
447.70 1.28
447.80 1.28
447.90 1.28
448.00 1.279
448.10 1.279
448.20 1.278
448.30 1.278
448.40 1.277
448.50 1.277
448.60 1.277
448.70 1.276
448.80 1.276
448.90 1.275
449.00 1.275
449.10 1.275
449.20 1.274
449.30 1.274
449.40 1.273
449.50 1.273
449.60 1.272
449.70 1.272
449.80 1.271
449.90 1.271
450.00 1.27
450.10 1.27
450.20 1.269
450.30 1.269
450.40 1.268
450.50 1.268
450.60 1.267
450.70 1.267
450.80 1.266
450.90 1.266
451.00 1.265
451.10 1.265
451.20 1.264
451.30 1.264
451.40 1.263
451.50 1.263
451.60 1.262
451.70 1.262
451.80 1.261
451.90 1.261
452.00 1.26
452.10 1.26
452.20 1.259
452.30 1.259
452.40 1.258
452.50 1.258
452.60 1.257
452.70 1.256
452.80 1.256
452.90 1.255
453.00 1.255
453.10 1.254
