# Version 2.1 - nm, norm@500 to 1, cut digits, bergeron_13500_75.dat_13500
# Wavelength(nm)  Flambda(ergs/cm^s/s/nm)
300.00 1.9
300.10 1.899
300.20 1.898
300.30 1.896
300.40 1.895
300.50 1.894
300.60 1.892
300.70 1.891
300.80 1.89
300.90 1.888
301.00 1.887
301.10 1.886
301.20 1.884
301.30 1.883
301.40 1.882
301.50 1.88
301.60 1.879
301.70 1.878
301.80 1.876
301.90 1.875
302.00 1.874
302.10 1.872
302.20 1.871
302.30 1.87
302.40 1.868
302.50 1.867
302.60 1.866
302.70 1.865
302.80 1.863
302.90 1.862
303.00 1.861
303.10 1.859
303.20 1.858
303.30 1.857
303.40 1.855
303.50 1.854
303.60 1.853
303.70 1.852
303.80 1.85
303.90 1.849
304.00 1.848
304.10 1.846
304.20 1.845
304.30 1.844
304.40 1.843
304.50 1.841
304.60 1.84
304.70 1.839
304.80 1.837
304.90 1.836
305.00 1.835
305.10 1.834
305.20 1.832
305.30 1.831
305.40 1.83
305.50 1.828
305.60 1.827
305.70 1.826
305.80 1.825
305.90 1.823
306.00 1.822
306.10 1.821
306.20 1.82
306.30 1.818
306.40 1.817
306.50 1.816
306.60 1.815
306.70 1.813
306.80 1.812
306.90 1.811
307.00 1.809
307.10 1.808
307.20 1.807
307.30 1.806
307.40 1.804
307.50 1.803
307.60 1.802
307.70 1.801
307.80 1.799
307.90 1.798
308.00 1.797
308.10 1.796
308.20 1.795
308.30 1.793
308.40 1.792
308.50 1.791
308.60 1.79
308.70 1.788
308.80 1.787
308.90 1.786
309.00 1.785
309.10 1.783
309.20 1.782
309.30 1.781
309.40 1.78
309.50 1.778
309.60 1.777
309.70 1.776
309.80 1.775
309.90 1.774
310.00 1.772
310.10 1.771
310.20 1.77
310.30 1.769
310.40 1.767
310.50 1.766
310.60 1.765
310.70 1.764
310.80 1.763
310.90 1.761
311.00 1.76
311.10 1.759
311.20 1.758
311.30 1.757
311.40 1.755
311.50 1.754
311.60 1.753
311.70 1.752
311.80 1.751
311.90 1.749
312.00 1.748
312.10 1.747
312.20 1.746
312.30 1.745
312.40 1.743
312.50 1.742
312.60 1.741
312.70 1.74
312.80 1.739
312.90 1.737
313.00 1.736
313.10 1.735
313.20 1.734
313.30 1.733
313.40 1.732
313.50 1.73
313.60 1.729
313.70 1.728
313.80 1.727
313.90 1.726
314.00 1.724
314.10 1.723
314.20 1.722
314.30 1.721
314.40 1.72
314.50 1.719
314.60 1.717
314.70 1.716
314.80 1.715
314.90 1.714
315.00 1.713
315.10 1.712
315.20 1.71
315.30 1.709
315.40 1.708
315.50 1.707
315.60 1.706
315.70 1.705
315.80 1.704
315.90 1.702
316.00 1.701
316.10 1.7
316.20 1.699
316.30 1.698
316.40 1.697
316.50 1.695
316.60 1.694
316.70 1.693
316.80 1.692
316.90 1.691
317.00 1.69
317.10 1.689
317.20 1.687
317.30 1.686
317.40 1.685
317.50 1.684
317.60 1.683
317.70 1.682
317.80 1.681
317.90 1.68
318.00 1.678
318.10 1.677
318.20 1.676
318.30 1.675
318.40 1.674
318.50 1.673
318.60 1.672
318.70 1.67
318.80 1.669
318.90 1.668
319.00 1.667
319.10 1.666
319.20 1.665
319.30 1.664
319.40 1.663
319.50 1.662
319.60 1.66
319.70 1.659
319.80 1.658
319.90 1.657
320.00 1.656
320.10 1.655
320.20 1.654
320.30 1.653
320.40 1.652
320.50 1.65
320.60 1.649
320.70 1.648
320.80 1.647
320.90 1.646
321.00 1.645
321.10 1.644
321.20 1.643
321.30 1.642
321.40 1.64
321.50 1.639
321.60 1.638
321.70 1.637
321.80 1.636
321.90 1.635
322.00 1.634
322.10 1.633
322.20 1.632
322.30 1.631
322.40 1.63
322.50 1.628
322.60 1.627
322.70 1.626
322.80 1.625
322.90 1.624
323.00 1.623
323.10 1.622
323.20 1.621
323.30 1.62
323.40 1.619
323.50 1.618
323.60 1.617
323.70 1.616
323.80 1.614
323.90 1.613
324.00 1.612
324.10 1.611
324.20 1.61
324.30 1.609
324.40 1.608
324.50 1.607
324.60 1.606
324.70 1.605
324.80 1.604
324.90 1.603
325.00 1.602
325.10 1.601
325.20 1.6
325.30 1.598
325.40 1.597
325.50 1.596
325.60 1.595
325.70 1.594
325.80 1.593
325.90 1.592
326.00 1.591
326.10 1.59
326.20 1.589
326.30 1.588
326.40 1.587
326.50 1.586
326.60 1.585
326.70 1.584
326.80 1.583
326.90 1.582
327.00 1.581
327.10 1.58
327.20 1.579
327.30 1.577
327.40 1.576
327.50 1.575
327.60 1.574
327.70 1.573
327.80 1.572
327.90 1.571
328.00 1.57
328.10 1.569
328.20 1.568
328.30 1.567
328.40 1.566
328.50 1.565
328.60 1.564
328.70 1.563
328.80 1.562
328.90 1.561
329.00 1.56
329.10 1.559
329.20 1.558
329.30 1.557
329.40 1.556
329.50 1.555
329.60 1.554
329.70 1.553
329.80 1.552
329.90 1.551
330.00 1.55
330.10 1.549
330.20 1.548
330.30 1.547
330.40 1.546
330.50 1.545
330.60 1.544
330.70 1.543
330.80 1.542
330.90 1.541
331.00 1.54
331.10 1.539
331.20 1.538
331.30 1.537
331.40 1.536
331.50 1.535
331.60 1.534
331.70 1.533
331.80 1.532
331.90 1.531
332.00 1.53
332.10 1.529
332.20 1.528
332.30 1.527
332.40 1.526
332.50 1.525
332.60 1.524
332.70 1.523
332.80 1.522
332.90 1.521
333.00 1.52
333.10 1.519
333.20 1.518
333.30 1.517
333.40 1.516
333.50 1.515
333.60 1.514
333.70 1.513
333.80 1.512
333.90 1.511
334.00 1.51
334.10 1.509
334.20 1.508
334.30 1.507
334.40 1.506
334.50 1.505
334.60 1.504
334.70 1.503
334.80 1.502
334.90 1.501
335.00 1.5
335.10 1.499
335.20 1.498
335.30 1.497
335.40 1.496
335.50 1.495
335.60 1.494
335.70 1.493
335.80 1.492
335.90 1.491
336.00 1.49
336.10 1.489
336.20 1.488
336.30 1.487
336.40 1.487
336.50 1.486
336.60 1.485
336.70 1.484
336.80 1.483
336.90 1.482
337.00 1.481
337.10 1.48
337.20 1.479
337.30 1.478
337.40 1.477
337.50 1.476
337.60 1.475
337.70 1.474
337.80 1.473
337.90 1.472
338.00 1.471
338.10 1.47
338.20 1.469
338.30 1.468
338.40 1.467
338.50 1.467
338.60 1.466
338.70 1.465
338.80 1.464
338.90 1.463
339.00 1.462
339.10 1.461
339.20 1.46
339.30 1.459
339.40 1.458
339.50 1.457
339.60 1.456
339.70 1.455
339.80 1.454
339.90 1.453
340.00 1.452
340.10 1.452
340.20 1.451
340.30 1.45
340.40 1.449
340.50 1.448
340.60 1.447
340.70 1.446
340.80 1.445
340.90 1.444
341.00 1.443
341.10 1.442
341.20 1.441
341.30 1.44
341.40 1.44
341.50 1.439
341.60 1.438
341.70 1.437
341.80 1.436
341.90 1.435
342.00 1.434
342.10 1.433
342.20 1.432
342.30 1.431
342.40 1.43
342.50 1.429
342.60 1.429
342.70 1.428
342.80 1.427
342.90 1.426
343.00 1.425
343.10 1.424
343.20 1.423
343.30 1.422
343.40 1.421
343.50 1.42
343.60 1.419
343.70 1.419
343.80 1.418
343.90 1.417
344.00 1.416
344.10 1.415
344.20 1.414
344.30 1.413
344.40 1.412
344.50 1.411
344.60 1.41
344.70 1.41
344.80 1.409
344.90 1.408
345.00 1.407
345.10 1.406
345.20 1.405
345.30 1.404
345.40 1.403
345.50 1.402
345.60 1.402
345.70 1.401
345.80 1.4
345.90 1.399
346.00 1.398
346.10 1.397
346.20 1.396
346.30 1.395
346.40 1.394
346.50 1.394
346.60 1.393
346.70 1.392
346.80 1.391
346.90 1.39
347.00 1.389
347.10 1.388
347.20 1.387
347.30 1.387
347.40 1.386
347.50 1.385
347.60 1.384
347.70 1.383
347.80 1.382
347.90 1.381
348.00 1.38
348.10 1.38
348.20 1.379
348.30 1.378
348.40 1.377
348.50 1.376
348.60 1.375
348.70 1.374
348.80 1.374
348.90 1.373
349.00 1.372
349.10 1.371
349.20 1.37
349.30 1.369
349.40 1.368
349.50 1.367
349.60 1.367
349.70 1.366
349.80 1.365
349.90 1.364
350.00 1.363
350.10 1.362
350.20 1.361
350.30 1.361
350.40 1.36
350.50 1.359
350.60 1.358
350.70 1.357
350.80 1.356
350.90 1.356
351.00 1.355
351.10 1.354
351.20 1.353
351.30 1.352
351.40 1.351
351.50 1.35
351.60 1.35
351.70 1.349
351.80 1.348
351.90 1.347
352.00 1.346
352.10 1.345
352.20 1.345
352.30 1.344
352.40 1.343
352.50 1.342
352.60 1.341
352.70 1.34
352.80 1.339
352.90 1.339
353.00 1.338
353.10 1.337
353.20 1.336
353.30 1.335
353.40 1.334
353.50 1.334
353.60 1.333
353.70 1.332
353.80 1.331
353.90 1.33
354.00 1.33
354.10 1.329
354.20 1.328
354.30 1.327
354.40 1.326
354.50 1.325
354.60 1.325
354.70 1.324
354.80 1.323
354.90 1.322
355.00 1.321
355.10 1.32
355.20 1.32
355.30 1.319
355.40 1.318
355.50 1.317
355.60 1.316
355.70 1.316
355.80 1.315
355.90 1.314
356.00 1.313
356.10 1.312
356.20 1.311
356.30 1.311
356.40 1.31
356.50 1.309
356.60 1.308
356.70 1.307
356.80 1.307
356.90 1.306
357.00 1.305
357.10 1.304
357.20 1.303
357.30 1.303
357.40 1.302
357.50 1.301
357.60 1.3
357.70 1.299
357.80 1.299
357.90 1.298
358.00 1.297
358.10 1.296
358.20 1.295
358.30 1.295
358.40 1.294
358.50 1.293
358.60 1.292
358.70 1.291
358.80 1.291
358.90 1.29
359.00 1.289
359.10 1.288
359.20 1.287
359.30 1.287
359.40 1.286
359.50 1.285
359.60 1.284
359.70 1.283
359.80 1.283
359.90 1.282
360.00 1.281
360.10 1.28
360.20 1.279
360.30 1.279
360.40 1.278
360.50 1.277
360.60 1.276
360.70 1.276
360.80 1.275
360.90 1.274
361.00 1.273
361.10 1.272
361.20 1.272
361.30 1.271
361.40 1.27
361.50 1.269
361.60 1.268
361.70 1.268
361.80 1.267
361.90 1.266
362.00 1.265
362.10 1.265
362.20 1.264
362.30 1.263
362.40 1.262
362.50 1.261
362.60 1.261
362.70 1.26
362.80 1.259
362.90 1.258
363.00 1.258
363.10 1.257
363.20 1.256
363.30 1.255
363.40 1.254
363.50 1.254
363.60 1.253
363.70 1.252
363.80 1.251
363.90 1.25
364.00 1.249
364.10 1.249
364.20 1.248
364.30 1.247
364.40 1.246
364.50 1.245
364.60 1.244
364.70 1.244
364.80 1.243
364.90 1.242
365.00 1.241
365.10 1.24
365.20 1.24
365.30 1.239
365.40 1.238
365.50 1.237
365.60 1.236
365.70 1.235
365.80 1.235
365.90 1.234
366.00 1.233
366.10 1.232
366.20 1.232
366.30 1.231
366.40 1.23
366.50 1.229
366.60 1.229
366.70 1.228
366.80 1.227
366.90 1.226
367.00 1.226
367.10 1.225
367.20 1.224
367.30 1.223
367.40 1.223
367.50 1.222
367.60 1.221
367.70 1.22
367.80 1.22
367.90 1.219
368.00 1.218
368.10 1.218
368.20 1.217
368.30 1.217
368.40 1.217
368.50 1.216
368.60 1.216
368.70 1.215
368.80 1.215
368.90 1.215
369.00 1.214
369.10 1.214
369.20 1.214
369.30 1.213
369.40 1.213
369.50 1.212
369.60 1.212
369.70 1.212
369.80 1.211
369.90 1.211
370.00 1.211
370.10 1.211
370.20 1.212
370.30 1.212
370.40 1.213
370.50 1.214
370.60 1.214
370.70 1.215
370.80 1.215
370.90 1.216
371.00 1.217
371.10 1.217
371.20 1.218
371.30 1.218
371.40 1.219
371.50 1.22
371.60 1.22
371.70 1.221
371.80 1.221
371.90 1.222
372.00 1.223
372.10 1.224
372.20 1.226
372.30 1.228
372.40 1.23
372.50 1.231
372.60 1.233
372.70 1.235
372.80 1.237
372.90 1.239
373.00 1.24
373.10 1.242
373.20 1.244
373.30 1.246
373.40 1.247
373.50 1.249
373.60 1.251
373.70 1.253
373.80 1.254
373.90 1.256
374.00 1.258
374.10 1.26
374.20 1.262
374.30 1.265
374.40 1.267
374.50 1.269
374.60 1.271
374.70 1.274
374.80 1.276
374.90 1.278
375.00 1.28
375.10 1.282
375.20 1.285
375.30 1.287
375.40 1.289
375.50 1.291
375.60 1.293
375.70 1.295
375.80 1.298
375.90 1.3
376.00 1.302
376.10 1.303
376.20 1.304
376.30 1.305
376.40 1.307
376.50 1.308
376.60 1.309
376.70 1.31
376.80 1.311
376.90 1.312
377.00 1.313
377.10 1.312
377.20 1.31
377.30 1.308
377.40 1.306
377.50 1.305
377.60 1.303
377.70 1.301
377.80 1.3
377.90 1.298
378.00 1.296
378.10 1.285
378.20 1.275
378.30 1.264
378.40 1.254
378.50 1.243
378.60 1.233
378.70 1.222
378.80 1.212
378.90 1.201
379.00 1.191
379.10 1.182
379.20 1.174
379.30 1.166
379.40 1.158
379.50 1.15
379.60 1.142
379.70 1.134
379.80 1.125
379.90 1.117
380.00 1.109
380.10 1.122
380.20 1.135
380.30 1.148
380.40 1.161
380.50 1.173
380.60 1.186
380.70 1.199
380.80 1.212
380.90 1.225
381.00 1.237
381.10 1.242
381.20 1.247
381.30 1.251
381.40 1.256
381.50 1.261
381.60 1.26
381.70 1.258
381.80 1.254
381.90 1.248
382.00 1.241
382.10 1.231
382.20 1.22
382.30 1.198
382.40 1.176
382.50 1.154
382.60 1.132
382.70 1.11
382.80 1.088
382.90 1.066
383.00 1.045
383.10 1.023
383.20 1.001
383.30 0.9818
383.40 0.9594
383.50 0.936
383.60 0.9407
383.70 0.9646
383.80 0.9868
383.90 1.006
384.00 1.028
384.10 1.055
384.20 1.082
384.30 1.11
384.40 1.137
384.50 1.162
384.60 1.186
384.70 1.207
384.80 1.225
384.90 1.242
385.00 1.256
385.10 1.268
385.20 1.279
385.30 1.289
385.40 1.296
385.50 1.302
385.60 1.307
385.70 1.311
385.80 1.314
385.90 1.315
386.00 1.315
386.10 1.314
386.20 1.313
386.30 1.309
386.40 1.305
386.50 1.3
386.60 1.293
386.70 1.286
386.80 1.277
386.90 1.267
387.00 1.256
387.10 1.244
387.20 1.231
387.30 1.216
387.40 1.2
387.50 1.181
387.60 1.161
387.70 1.14
387.80 1.115
387.90 1.089
388.00 1.06
388.10 1.028
388.20 0.9939
388.30 0.959
388.40 0.9233
388.50 0.8901
388.60 0.8593
388.70 0.8304
388.80 0.8025
388.90 0.7757
389.00 0.8001
389.10 0.8266
389.20 0.8552
389.30 0.8853
389.40 0.918
389.50 0.9532
389.60 0.9884
389.70 1.022
389.80 1.055
389.90 1.085
390.00 1.113
390.10 1.139
390.20 1.162
390.30 1.184
390.40 1.205
390.50 1.223
390.60 1.241
390.70 1.258
390.80 1.274
390.90 1.289
391.00 1.303
391.10 1.316
391.20 1.329
391.30 1.342
391.40 1.353
391.50 1.363
391.60 1.374
391.70 1.383
391.80 1.391
391.90 1.399
392.00 1.406
392.10 1.412
392.20 1.417
392.30 1.421
392.40 1.425
392.50 1.428
392.60 1.43
392.70 1.431
392.80 1.431
392.90 1.43
393.00 1.428
393.10 1.426
393.20 1.423
393.30 1.418
393.40 1.413
393.50 1.407
393.60 1.4
393.70 1.392
393.80 1.383
393.90 1.374
394.00 1.364
394.10 1.352
394.20 1.34
394.30 1.327
394.40 1.313
394.50 1.299
394.60 1.284
394.70 1.268
394.80 1.252
394.90 1.235
395.00 1.217
395.10 1.199
395.20 1.18
395.30 1.16
395.40 1.14
395.50 1.119
395.60 1.096
395.70 1.073
395.80 1.049
395.90 1.023
396.00 0.9964
396.10 0.9684
396.20 0.9373
396.30 0.9046
396.40 0.8701
396.50 0.8334
396.60 0.7975
396.70 0.7625
396.80 0.7286
396.90 0.6891
397.00 0.6441
397.10 0.6853
397.20 0.7227
397.30 0.7564
397.40 0.7905
397.50 0.8255
397.60 0.8615
397.70 0.8955
397.80 0.9277
397.90 0.9582
398.00 0.9858
398.10 1.012
398.20 1.037
398.30 1.061
398.40 1.084
398.50 1.106
398.60 1.126
398.70 1.146
398.80 1.166
398.90 1.185
399.00 1.203
399.10 1.222
399.20 1.239
399.30 1.256
399.40 1.273
399.50 1.29
399.60 1.306
399.70 1.321
399.80 1.337
399.90 1.351
400.00 1.366
400.10 1.379
400.20 1.393
400.30 1.406
400.40 1.418
400.50 1.43
400.60 1.441
400.70 1.452
400.80 1.463
400.90 1.473
401.00 1.482
401.10 1.491
401.20 1.5
401.30 1.508
401.40 1.516
401.50 1.523
401.60 1.53
401.70 1.536
401.80 1.542
401.90 1.548
402.00 1.553
402.10 1.558
402.20 1.562
402.30 1.566
402.40 1.57
402.50 1.573
402.60 1.576
402.70 1.578
402.80 1.58
402.90 1.582
403.00 1.583
403.10 1.584
403.20 1.584
403.30 1.584
403.40 1.584
403.50 1.583
403.60 1.582
403.70 1.581
403.80 1.579
403.90 1.577
404.00 1.575
404.10 1.572
404.20 1.569
404.30 1.565
404.40 1.561
404.50 1.556
404.60 1.552
404.70 1.546
404.80 1.541
404.90 1.535
405.00 1.529
405.10 1.522
405.20 1.515
405.30 1.507
405.40 1.499
405.50 1.491
405.60 1.482
405.70 1.473
405.80 1.463
405.90 1.453
406.00 1.442
406.10 1.431
406.20 1.42
406.30 1.408
406.40 1.396
406.50 1.383
406.60 1.37
406.70 1.357
406.80 1.343
406.90 1.328
407.00 1.314
407.10 1.298
407.20 1.283
407.30 1.266
407.40 1.25
407.50 1.233
407.60 1.215
407.70 1.197
407.80 1.179
407.90 1.161
408.00 1.142
408.10 1.123
408.20 1.103
408.30 1.083
408.40 1.064
408.50 1.043
408.60 1.023
408.70 1.002
408.80 0.9804
408.90 0.9586
409.00 0.9365
409.10 0.9134
409.20 0.8896
409.30 0.8651
409.40 0.8383
409.50 0.81
409.60 0.7803
409.70 0.7483
409.80 0.716
409.90 0.6834
410.00 0.6447
410.10 0.6047
410.20 0.5631
410.30 0.6199
410.40 0.6654
410.50 0.6994
410.60 0.7313
410.70 0.7626
410.80 0.7932
410.90 0.821
411.00 0.8474
411.10 0.8723
411.20 0.8953
411.30 0.9176
411.40 0.9393
411.50 0.96
411.60 0.9804
411.70 1.001
411.80 1.02
411.90 1.039
412.00 1.058
412.10 1.077
412.20 1.095
412.30 1.113
412.40 1.13
412.50 1.148
412.60 1.165
412.70 1.182
412.80 1.198
412.90 1.214
413.00 1.229
413.10 1.245
413.20 1.26
413.30 1.274
413.40 1.288
413.50 1.301
413.60 1.314
413.70 1.327
413.80 1.34
413.90 1.352
414.00 1.363
414.10 1.375
414.20 1.385
414.30 1.396
414.40 1.407
414.50 1.416
414.60 1.426
414.70 1.436
414.80 1.444
414.90 1.453
415.00 1.462
415.10 1.47
415.20 1.478
415.30 1.485
415.40 1.492
415.50 1.499
415.60 1.506
415.70 1.513
415.80 1.519
415.90 1.525
416.00 1.53
416.10 1.536
416.20 1.541
416.30 1.546
416.40 1.551
416.50 1.556
416.60 1.56
416.70 1.565
416.80 1.569
416.90 1.573
417.00 1.577
417.10 1.58
417.20 1.584
417.30 1.587
417.40 1.59
417.50 1.593
417.60 1.596
417.70 1.598
417.80 1.601
417.90 1.603
418.00 1.605
418.10 1.608
418.20 1.61
418.30 1.612
418.40 1.613
418.50 1.615
418.60 1.616
418.70 1.618
418.80 1.619
418.90 1.62
419.00 1.622
419.10 1.623
419.20 1.623
419.30 1.624
419.40 1.625
419.50 1.626
419.60 1.626
419.70 1.627
419.80 1.627
419.90 1.628
420.00 1.628
420.10 1.628
420.20 1.628
420.30 1.628
420.40 1.628
420.50 1.628
420.60 1.628
420.70 1.628
420.80 1.627
420.90 1.627
421.00 1.626
421.10 1.626
421.20 1.625
421.30 1.625
421.40 1.624
421.50 1.623
421.60 1.623
421.70 1.622
421.80 1.621
421.90 1.62
422.00 1.619
422.10 1.617
422.20 1.616
422.30 1.615
422.40 1.614
422.50 1.612
422.60 1.611
422.70 1.61
422.80 1.608
422.90 1.606
423.00 1.605
423.10 1.603
423.20 1.601
423.30 1.599
423.40 1.597
423.50 1.595
423.60 1.593
423.70 1.591
423.80 1.589
423.90 1.587
424.00 1.584
424.10 1.582
424.20 1.58
424.30 1.577
424.40 1.575
424.50 1.572
424.60 1.569
424.70 1.566
424.80 1.563
424.90 1.56
425.00 1.557
425.10 1.554
425.20 1.551
425.30 1.548
425.40 1.544
425.50 1.541
425.60 1.537
425.70 1.533
425.80 1.53
425.90 1.526
426.00 1.522
426.10 1.517
426.20 1.512
426.30 1.508
426.40 1.503
426.50 1.499
426.60 1.494
426.70 1.489
426.80 1.484
426.90 1.479
427.00 1.474
427.10 1.469
427.20 1.463
427.30 1.458
427.40 1.452
427.50 1.446
427.60 1.44
427.70 1.434
427.80 1.427
427.90 1.421
428.00 1.414
428.10 1.407
428.20 1.4
428.30 1.393
428.40 1.386
428.50 1.378
428.60 1.37
428.70 1.362
428.80 1.354
428.90 1.346
429.00 1.337
429.10 1.329
429.20 1.32
429.30 1.31
429.40 1.301
429.50 1.291
429.60 1.281
429.70 1.271
429.80 1.261
429.90 1.25
430.00 1.24
430.10 1.228
430.20 1.217
430.30 1.206
430.40 1.194
430.50 1.182
430.60 1.17
430.70 1.157
430.80 1.145
430.90 1.132
431.00 1.119
431.10 1.105
431.20 1.092
431.30 1.078
431.40 1.064
431.50 1.05
431.60 1.036
431.70 1.021
431.80 1.006
431.90 0.991
432.00 0.9752
432.10 0.9591
432.20 0.9423
432.30 0.925
432.40 0.9072
432.50 0.8882
432.60 0.8687
432.70 0.8486
432.80 0.8281
432.90 0.8077
433.00 0.7876
433.10 0.7685
433.20 0.7492
433.30 0.7297
433.40 0.7081
433.50 0.6851
433.60 0.6607
433.70 0.6329
433.80 0.6021
433.90 0.5682
434.00 0.4943
434.10 0.4953
434.20 0.571
434.30 0.6037
434.40 0.6336
434.50 0.6606
434.60 0.6842
434.70 0.7064
434.80 0.727
434.90 0.7457
435.00 0.7642
435.10 0.7825
435.20 0.8017
435.30 0.8211
435.40 0.8406
435.50 0.8596
435.60 0.8779
435.70 0.8957
435.80 0.9122
435.90 0.9282
436.00 0.9437
436.10 0.9584
436.20 0.9728
436.30 0.9869
436.40 1
436.50 1.014
436.60 1.027
436.70 1.039
436.80 1.051
436.90 1.063
437.00 1.075
437.10 1.087
437.20 1.098
437.30 1.109
437.40 1.12
437.50 1.131
437.60 1.141
437.70 1.151
437.80 1.161
437.90 1.171
438.00 1.18
438.10 1.19
438.20 1.198
438.30 1.207
438.40 1.215
438.50 1.224
438.60 1.231
438.70 1.239
438.80 1.247
438.90 1.254
439.00 1.261
439.10 1.267
439.20 1.274
439.30 1.28
439.40 1.286
439.50 1.292
439.60 1.298
439.70 1.303
439.80 1.309
439.90 1.314
440.00 1.319
440.10 1.324
440.20 1.328
440.30 1.333
440.40 1.337
440.50 1.341
440.60 1.345
440.70 1.349
440.80 1.352
440.90 1.356
441.00 1.359
441.10 1.363
441.20 1.366
441.30 1.369
441.40 1.372
441.50 1.375
441.60 1.377
441.70 1.38
441.80 1.382
441.90 1.385
442.00 1.387
442.10 1.389
442.20 1.391
442.30 1.393
442.40 1.395
442.50 1.397
442.60 1.399
442.70 1.4
442.80 1.402
442.90 1.403
443.00 1.404
443.10 1.406
443.20 1.407
443.30 1.408
443.40 1.409
443.50 1.41
443.60 1.412
443.70 1.413
443.80 1.414
443.90 1.414
444.00 1.415
444.10 1.416
444.20 1.416
444.30 1.417
444.40 1.418
444.50 1.418
444.60 1.419
444.70 1.419
444.80 1.42
444.90 1.42
445.00 1.42
445.10 1.421
445.20 1.421
445.30 1.421
445.40 1.421
445.50 1.422
445.60 1.422
445.70 1.422
445.80 1.422
445.90 1.422
446.00 1.422
446.10 1.422
446.20 1.422
446.30 1.422
446.40 1.422
446.50 1.422
446.60 1.422
446.70 1.421
446.80 1.421
446.90 1.421
447.00 1.421
447.10 1.421
447.20 1.42
447.30 1.42
447.40 1.42
447.50 1.419
447.60 1.419
447.70 1.419
447.80 1.418
447.90 1.418
448.00 1.418
448.10 1.417
448.20 1.417
448.30 1.416
448.40 1.416
448.50 1.415
448.60 1.415
448.70 1.414
448.80 1.414
448.90 1.413
449.00 1.413
449.10 1.413
449.20 1.412
449.30 1.412
449.40 1.411
449.50 1.41
449.60 1.41
449.70 1.409
449.80 1.409
449.90 1.408
450.00 1.407
450.10 1.407
450.20 1.406
450.30 1.405
450.40 1.405
450.50 1.404
450.60 1.403
450.70 1.403
450.80 1.402
450.90 1.401
451.00 1.401
451.10 1.4
451.20 1.399
451.30 1.399
451.40 1.398
451.50 1.397
451.60 1.396
451.70 1.396
451.80 1.395
451.90 1.394
452.00 1.393
452.10 1.393
452.20 1.392
452.30 1.391
452.40 1.39
452.50 1.39
452.60 1.389
452.70 1.388
452.80 1.387
452.90 1.386
453.00 1.386
453.10 1.385
453.20 1.384
453.30 1.383
