# Version 2.1 - nm, norm@500 to 1, cut digits, bergeron_90000_95.dat_90000
# Wavelength(nm)  Flambda(ergs/cm^s/s/nm)
300.00 6.81
300.10 6.801
300.20 6.793
300.30 6.784
300.40 6.776
300.50 6.767
300.60 6.759
300.70 6.75
300.80 6.742
300.90 6.734
301.00 6.725
301.10 6.717
301.20 6.708
301.30 6.7
301.40 6.692
301.50 6.683
301.60 6.675
301.70 6.667
301.80 6.658
301.90 6.65
302.00 6.642
302.10 6.634
302.20 6.625
302.30 6.617
302.40 6.609
302.50 6.601
302.60 6.592
302.70 6.584
302.80 6.576
302.90 6.568
303.00 6.56
303.10 6.552
303.20 6.544
303.30 6.535
303.40 6.527
303.50 6.519
303.60 6.511
303.70 6.503
303.80 6.495
303.90 6.487
304.00 6.479
304.10 6.471
304.20 6.463
304.30 6.455
304.40 6.447
304.50 6.439
304.60 6.431
304.70 6.423
304.80 6.415
304.90 6.407
305.00 6.399
305.10 6.392
305.20 6.384
305.30 6.376
305.40 6.368
305.50 6.36
305.60 6.352
305.70 6.345
305.80 6.337
305.90 6.329
306.00 6.321
306.10 6.313
306.20 6.306
306.30 6.298
306.40 6.29
306.50 6.282
306.60 6.275
306.70 6.267
306.80 6.259
306.90 6.252
307.00 6.244
307.10 6.236
307.20 6.229
307.30 6.221
307.40 6.214
307.50 6.206
307.60 6.198
307.70 6.191
307.80 6.183
307.90 6.176
308.00 6.168
308.10 6.161
308.20 6.153
308.30 6.146
308.40 6.138
308.50 6.131
308.60 6.123
308.70 6.116
308.80 6.108
308.90 6.101
309.00 6.093
309.10 6.086
309.20 6.079
309.30 6.071
309.40 6.064
309.50 6.056
309.60 6.049
309.70 6.042
309.80 6.034
309.90 6.027
310.00 6.02
310.10 6.012
310.20 6.005
310.30 5.998
310.40 5.991
310.50 5.983
310.60 5.976
310.70 5.969
310.80 5.962
310.90 5.954
311.00 5.947
311.10 5.94
311.20 5.933
311.30 5.926
311.40 5.918
311.50 5.911
311.60 5.904
311.70 5.897
311.80 5.89
311.90 5.883
312.00 5.876
312.10 5.869
312.20 5.862
312.30 5.855
312.40 5.847
312.50 5.84
312.60 5.833
312.70 5.826
312.80 5.819
312.90 5.812
313.00 5.805
313.10 5.798
313.20 5.791
313.30 5.784
313.40 5.778
313.50 5.771
313.60 5.764
313.70 5.757
313.80 5.75
313.90 5.743
314.00 5.736
314.10 5.729
314.20 5.722
314.30 5.715
314.40 5.709
314.50 5.702
314.60 5.695
314.70 5.688
314.80 5.681
314.90 5.675
315.00 5.668
315.10 5.661
315.20 5.654
315.30 5.647
315.40 5.641
315.50 5.634
315.60 5.627
315.70 5.621
315.80 5.614
315.90 5.607
316.00 5.601
316.10 5.594
316.20 5.587
316.30 5.581
316.40 5.574
316.50 5.567
316.60 5.561
316.70 5.554
316.80 5.547
316.90 5.541
317.00 5.534
317.10 5.528
317.20 5.521
317.30 5.515
317.40 5.508
317.50 5.502
317.60 5.495
317.70 5.488
317.80 5.482
317.90 5.475
318.00 5.469
318.10 5.462
318.20 5.456
318.30 5.45
318.40 5.443
318.50 5.437
318.60 5.43
318.70 5.424
318.80 5.417
318.90 5.411
319.00 5.405
319.10 5.398
319.20 5.392
319.30 5.386
319.40 5.379
319.50 5.373
319.60 5.366
319.70 5.36
319.80 5.354
319.90 5.348
320.00 5.341
320.10 5.335
320.20 5.329
320.30 5.322
320.40 5.316
320.50 5.31
320.60 5.304
320.70 5.297
320.80 5.291
320.90 5.285
321.00 5.279
321.10 5.273
321.20 5.266
321.30 5.26
321.40 5.254
321.50 5.248
321.60 5.242
321.70 5.236
321.80 5.23
321.90 5.223
322.00 5.217
322.10 5.211
322.20 5.205
322.30 5.199
322.40 5.193
322.50 5.187
322.60 5.181
322.70 5.175
322.80 5.169
322.90 5.163
323.00 5.157
323.10 5.151
323.20 5.145
323.30 5.139
323.40 5.133
323.50 5.127
323.60 5.121
323.70 5.115
323.80 5.109
323.90 5.103
324.00 5.097
324.10 5.091
324.20 5.085
324.30 5.079
324.40 5.073
324.50 5.067
324.60 5.061
324.70 5.056
324.80 5.05
324.90 5.044
325.00 5.038
325.10 5.032
325.20 5.026
325.30 5.02
325.40 5.015
325.50 5.009
325.60 5.003
325.70 4.997
325.80 4.992
325.90 4.986
326.00 4.98
326.10 4.974
326.20 4.968
326.30 4.963
326.40 4.957
326.50 4.951
326.60 4.946
326.70 4.94
326.80 4.934
326.90 4.928
327.00 4.923
327.10 4.917
327.20 4.911
327.30 4.906
327.40 4.9
327.50 4.894
327.60 4.889
327.70 4.883
327.80 4.878
327.90 4.872
328.00 4.866
328.10 4.861
328.20 4.855
328.30 4.85
328.40 4.844
328.50 4.838
328.60 4.833
328.70 4.827
328.80 4.822
328.90 4.816
329.00 4.811
329.10 4.805
329.20 4.8
329.30 4.794
329.40 4.789
329.50 4.783
329.60 4.778
329.70 4.772
329.80 4.767
329.90 4.761
330.00 4.756
330.10 4.751
330.20 4.745
330.30 4.74
330.40 4.734
330.50 4.729
330.60 4.724
330.70 4.718
330.80 4.713
330.90 4.707
331.00 4.702
331.10 4.697
331.20 4.691
331.30 4.686
331.40 4.681
331.50 4.675
331.60 4.67
331.70 4.665
331.80 4.659
331.90 4.654
332.00 4.649
332.10 4.644
332.20 4.638
332.30 4.633
332.40 4.628
332.50 4.623
332.60 4.617
332.70 4.612
332.80 4.607
332.90 4.602
333.00 4.596
333.10 4.591
333.20 4.586
333.30 4.581
333.40 4.576
333.50 4.57
333.60 4.565
333.70 4.56
333.80 4.555
333.90 4.55
334.00 4.545
334.10 4.539
334.20 4.534
334.30 4.529
334.40 4.524
334.50 4.519
334.60 4.514
334.70 4.509
334.80 4.504
334.90 4.499
335.00 4.494
335.10 4.489
335.20 4.483
335.30 4.478
335.40 4.473
335.50 4.468
335.60 4.463
335.70 4.458
335.80 4.453
335.90 4.448
336.00 4.443
336.10 4.438
336.20 4.433
336.30 4.428
336.40 4.423
336.50 4.418
336.60 4.413
336.70 4.409
336.80 4.404
336.90 4.399
337.00 4.394
337.10 4.389
337.20 4.384
337.30 4.379
337.40 4.374
337.50 4.369
337.60 4.364
337.70 4.359
337.80 4.354
337.90 4.35
338.00 4.345
338.10 4.34
338.20 4.335
338.30 4.33
338.40 4.325
338.50 4.321
338.60 4.316
338.70 4.311
338.80 4.306
338.90 4.301
339.00 4.297
339.10 4.292
339.20 4.287
339.30 4.282
339.40 4.277
339.50 4.273
339.60 4.268
339.70 4.263
339.80 4.258
339.90 4.254
340.00 4.249
340.10 4.244
340.20 4.24
340.30 4.235
340.40 4.23
340.50 4.225
340.60 4.221
340.70 4.216
340.80 4.211
340.90 4.207
341.00 4.202
341.10 4.197
341.20 4.193
341.30 4.188
341.40 4.184
341.50 4.179
341.60 4.174
341.70 4.17
341.80 4.165
341.90 4.16
342.00 4.156
342.10 4.151
342.20 4.147
342.30 4.142
342.40 4.138
342.50 4.133
342.60 4.128
342.70 4.124
342.80 4.119
342.90 4.115
343.00 4.11
343.10 4.106
343.20 4.101
343.30 4.097
343.40 4.092
343.50 4.088
343.60 4.083
343.70 4.079
343.80 4.074
343.90 4.07
344.00 4.065
344.10 4.061
344.20 4.056
344.30 4.052
344.40 4.047
344.50 4.043
344.60 4.039
344.70 4.034
344.80 4.03
344.90 4.025
345.00 4.021
345.10 4.017
345.20 4.012
345.30 4.008
345.40 4.003
345.50 3.999
345.60 3.995
345.70 3.99
345.80 3.986
345.90 3.981
346.00 3.977
346.10 3.973
346.20 3.968
346.30 3.964
346.40 3.96
346.50 3.955
346.60 3.951
346.70 3.947
346.80 3.943
346.90 3.938
347.00 3.934
347.10 3.93
347.20 3.925
347.30 3.921
347.40 3.917
347.50 3.913
347.60 3.908
347.70 3.904
347.80 3.9
347.90 3.896
348.00 3.891
348.10 3.887
348.20 3.883
348.30 3.879
348.40 3.874
348.50 3.87
348.60 3.866
348.70 3.862
348.80 3.858
348.90 3.854
349.00 3.849
349.10 3.845
349.20 3.841
349.30 3.837
349.40 3.833
349.50 3.829
349.60 3.824
349.70 3.82
349.80 3.816
349.90 3.812
350.00 3.808
350.10 3.804
350.20 3.8
350.30 3.796
350.40 3.792
350.50 3.787
350.60 3.783
350.70 3.779
350.80 3.775
350.90 3.771
351.00 3.767
351.10 3.763
351.20 3.759
351.30 3.755
351.40 3.751
351.50 3.747
351.60 3.743
351.70 3.739
351.80 3.735
351.90 3.731
352.00 3.727
352.10 3.723
352.20 3.719
352.30 3.715
352.40 3.711
352.50 3.707
352.60 3.703
352.70 3.699
352.80 3.695
352.90 3.691
353.00 3.687
353.10 3.683
353.20 3.679
353.30 3.675
353.40 3.671
353.50 3.667
353.60 3.663
353.70 3.659
353.80 3.655
353.90 3.652
354.00 3.648
354.10 3.644
354.20 3.64
354.30 3.636
354.40 3.632
354.50 3.628
354.60 3.624
354.70 3.62
354.80 3.617
354.90 3.613
355.00 3.609
355.10 3.605
355.20 3.601
355.30 3.597
355.40 3.594
355.50 3.59
355.60 3.586
355.70 3.582
355.80 3.578
355.90 3.574
356.00 3.571
356.10 3.567
356.20 3.563
356.30 3.559
356.40 3.556
356.50 3.552
356.60 3.548
356.70 3.544
356.80 3.54
356.90 3.537
357.00 3.533
357.10 3.529
357.20 3.525
357.30 3.522
357.40 3.518
357.50 3.514
357.60 3.511
357.70 3.507
357.80 3.503
357.90 3.499
358.00 3.496
358.10 3.492
358.20 3.488
358.30 3.485
358.40 3.481
358.50 3.477
358.60 3.474
358.70 3.47
358.80 3.466
358.90 3.463
359.00 3.459
359.10 3.455
359.20 3.452
359.30 3.448
359.40 3.444
359.50 3.441
359.60 3.437
359.70 3.434
359.80 3.43
359.90 3.426
360.00 3.423
360.10 3.419
360.20 3.416
360.30 3.412
360.40 3.408
360.50 3.405
360.60 3.401
360.70 3.398
360.80 3.394
360.90 3.391
361.00 3.387
361.10 3.383
361.20 3.38
361.30 3.376
361.40 3.373
361.50 3.369
361.60 3.366
361.70 3.362
361.80 3.359
361.90 3.355
362.00 3.352
362.10 3.348
362.20 3.345
362.30 3.341
362.40 3.338
362.50 3.334
362.60 3.331
362.70 3.327
362.80 3.324
362.90 3.32
363.00 3.317
363.10 3.313
363.20 3.31
363.30 3.306
363.40 3.303
363.50 3.3
363.60 3.296
363.70 3.293
363.80 3.289
363.90 3.286
364.00 3.282
364.10 3.279
364.20 3.276
364.30 3.272
364.40 3.269
364.50 3.265
364.60 3.262
364.70 3.259
364.80 3.255
364.90 3.252
365.00 3.248
365.10 3.245
365.20 3.242
365.30 3.238
365.40 3.235
365.50 3.232
365.60 3.228
365.70 3.225
365.80 3.222
365.90 3.218
366.00 3.215
366.10 3.212
366.20 3.208
366.30 3.205
366.40 3.202
366.50 3.198
366.60 3.195
366.70 3.192
366.80 3.188
366.90 3.185
367.00 3.182
367.10 3.179
367.20 3.175
367.30 3.172
367.40 3.169
367.50 3.165
367.60 3.162
367.70 3.159
367.80 3.156
367.90 3.152
368.00 3.149
368.10 3.146
368.20 3.142
368.30 3.139
368.40 3.136
368.50 3.133
368.60 3.129
368.70 3.126
368.80 3.123
368.90 3.119
369.00 3.116
369.10 3.113
369.20 3.11
369.30 3.106
369.40 3.103
369.50 3.1
369.60 3.097
369.70 3.093
369.80 3.09
369.90 3.087
370.00 3.084
370.10 3.08
370.20 3.077
370.30 3.074
370.40 3.071
370.50 3.067
370.60 3.064
370.70 3.061
370.80 3.058
370.90 3.054
371.00 3.051
371.10 3.048
371.20 3.045
371.30 3.042
371.40 3.038
371.50 3.035
371.60 3.032
371.70 3.029
371.80 3.026
371.90 3.022
372.00 3.019
372.10 3.016
372.20 3.013
372.30 3.01
372.40 3.007
372.50 3.004
372.60 3.001
372.70 2.998
372.80 2.995
372.90 2.992
373.00 2.989
373.10 2.986
373.20 2.983
373.30 2.98
373.40 2.977
373.50 2.974
373.60 2.971
373.70 2.969
373.80 2.966
373.90 2.963
374.00 2.96
374.10 2.957
374.20 2.954
374.30 2.95
374.40 2.947
374.50 2.944
374.60 2.941
374.70 2.938
374.80 2.935
374.90 2.932
375.00 2.929
375.10 2.926
375.20 2.923
375.30 2.92
375.40 2.917
375.50 2.914
375.60 2.911
375.70 2.908
375.80 2.905
375.90 2.902
376.00 2.899
376.10 2.896
376.20 2.893
376.30 2.89
376.40 2.887
376.50 2.884
376.60 2.881
376.70 2.878
376.80 2.875
376.90 2.872
377.00 2.869
377.10 2.866
377.20 2.863
377.30 2.86
377.40 2.857
377.50 2.854
377.60 2.851
377.70 2.848
377.80 2.845
377.90 2.843
378.00 2.84
378.10 2.837
378.20 2.834
378.30 2.831
378.40 2.828
378.50 2.825
378.60 2.823
378.70 2.82
378.80 2.817
378.90 2.814
379.00 2.811
379.10 2.808
379.20 2.805
379.30 2.803
379.40 2.8
379.50 2.797
379.60 2.794
379.70 2.791
379.80 2.788
379.90 2.785
380.00 2.783
380.10 2.78
380.20 2.777
380.30 2.774
380.40 2.771
380.50 2.769
380.60 2.766
380.70 2.763
380.80 2.76
380.90 2.758
381.00 2.755
381.10 2.752
381.20 2.749
381.30 2.747
381.40 2.744
381.50 2.741
381.60 2.738
381.70 2.736
381.80 2.733
381.90 2.73
382.00 2.727
382.10 2.725
382.20 2.722
382.30 2.719
382.40 2.717
382.50 2.714
382.60 2.711
382.70 2.708
382.80 2.706
382.90 2.703
383.00 2.7
383.10 2.698
383.20 2.695
383.30 2.692
383.40 2.69
383.50 2.687
383.60 2.684
383.70 2.682
383.80 2.679
383.90 2.676
384.00 2.674
384.10 2.671
384.20 2.668
384.30 2.666
384.40 2.663
384.50 2.661
384.60 2.658
384.70 2.655
384.80 2.653
384.90 2.65
385.00 2.647
385.10 2.645
385.20 2.642
385.30 2.64
385.40 2.637
385.50 2.635
385.60 2.632
385.70 2.629
385.80 2.627
385.90 2.624
386.00 2.622
386.10 2.619
386.20 2.617
386.30 2.614
386.40 2.611
386.50 2.609
386.60 2.606
386.70 2.604
386.80 2.601
386.90 2.599
387.00 2.596
387.10 2.594
387.20 2.591
387.30 2.589
387.40 2.586
387.50 2.584
387.60 2.581
387.70 2.579
387.80 2.576
387.90 2.574
388.00 2.571
388.10 2.569
388.20 2.566
388.30 2.564
388.40 2.561
388.50 2.559
388.60 2.556
388.70 2.554
388.80 2.552
388.90 2.549
389.00 2.547
389.10 2.544
389.20 2.542
389.30 2.539
389.40 2.537
389.50 2.535
389.60 2.532
389.70 2.53
389.80 2.527
389.90 2.525
390.00 2.523
390.10 2.52
390.20 2.518
390.30 2.515
390.40 2.513
390.50 2.511
390.60 2.508
390.70 2.506
390.80 2.504
390.90 2.501
391.00 2.499
391.10 2.497
391.20 2.494
391.30 2.492
391.40 2.489
391.50 2.487
391.60 2.485
391.70 2.482
391.80 2.48
391.90 2.478
392.00 2.475
392.10 2.473
392.20 2.471
392.30 2.468
392.40 2.466
392.50 2.464
392.60 2.461
392.70 2.459
392.80 2.457
392.90 2.454
393.00 2.452
393.10 2.45
393.20 2.447
393.30 2.445
393.40 2.443
393.50 2.44
393.60 2.438
393.70 2.436
393.80 2.433
393.90 2.431
394.00 2.429
394.10 2.426
394.20 2.424
394.30 2.422
394.40 2.419
394.50 2.417
394.60 2.415
394.70 2.412
394.80 2.41
394.90 2.408
395.00 2.405
395.10 2.403
395.20 2.401
395.30 2.398
395.40 2.396
395.50 2.394
395.60 2.391
395.70 2.389
395.80 2.387
395.90 2.384
396.00 2.382
396.10 2.38
396.20 2.378
396.30 2.375
396.40 2.373
396.50 2.371
396.60 2.369
396.70 2.366
396.80 2.364
396.90 2.362
397.00 2.36
397.10 2.358
397.20 2.356
397.30 2.353
397.40 2.351
397.50 2.349
397.60 2.347
397.70 2.345
397.80 2.343
397.90 2.341
398.00 2.339
398.10 2.337
398.20 2.335
398.30 2.333
398.40 2.331
398.50 2.329
398.60 2.327
398.70 2.325
398.80 2.323
398.90 2.321
399.00 2.319
399.10 2.317
399.20 2.315
399.30 2.313
399.40 2.311
399.50 2.309
399.60 2.307
399.70 2.305
399.80 2.303
399.90 2.301
400.00 2.299
400.10 2.297
400.20 2.295
400.30 2.293
400.40 2.291
400.50 2.289
400.60 2.287
400.70 2.285
400.80 2.283
400.90 2.281
401.00 2.279
401.10 2.277
401.20 2.275
401.30 2.273
401.40 2.271
401.50 2.269
401.60 2.267
401.70 2.265
401.80 2.263
401.90 2.261
402.00 2.258
402.10 2.256
402.20 2.254
402.30 2.252
402.40 2.25
402.50 2.248
402.60 2.246
402.70 2.244
402.80 2.241
402.90 2.239
403.00 2.237
403.10 2.235
403.20 2.233
403.30 2.231
403.40 2.228
403.50 2.226
403.60 2.224
403.70 2.222
403.80 2.22
403.90 2.217
404.00 2.215
404.10 2.213
404.20 2.211
404.30 2.209
404.40 2.206
404.50 2.204
404.60 2.202
404.70 2.199
404.80 2.197
404.90 2.195
405.00 2.193
405.10 2.19
405.20 2.188
405.30 2.186
405.40 2.183
405.50 2.181
405.60 2.179
405.70 2.176
405.80 2.174
405.90 2.172
406.00 2.169
406.10 2.167
406.20 2.165
406.30 2.162
406.40 2.16
406.50 2.157
406.60 2.155
406.70 2.153
406.80 2.15
406.90 2.148
407.00 2.145
407.10 2.143
407.20 2.141
407.30 2.138
407.40 2.136
407.50 2.133
407.60 2.131
407.70 2.129
407.80 2.126
407.90 2.124
408.00 2.121
408.10 2.119
408.20 2.116
408.30 2.114
408.40 2.112
408.50 2.109
408.60 2.107
408.70 2.105
408.80 2.102
408.90 2.1
409.00 2.098
409.10 2.096
409.20 2.093
409.30 2.091
409.40 2.089
409.50 2.087
409.60 2.085
409.70 2.083
409.80 2.082
409.90 2.08
410.00 2.079
410.10 2.077
410.20 2.075
410.30 2.073
410.40 2.071
410.50 2.069
410.60 2.067
410.70 2.065
410.80 2.064
410.90 2.062
411.00 2.061
411.10 2.059
411.20 2.058
411.30 2.056
411.40 2.055
411.50 2.054
411.60 2.052
411.70 2.051
411.80 2.05
411.90 2.048
412.00 2.047
412.10 2.046
412.20 2.045
412.30 2.044
412.40 2.042
412.50 2.041
412.60 2.04
412.70 2.039
412.80 2.037
412.90 2.036
413.00 2.035
413.10 2.034
413.20 2.033
413.30 2.031
413.40 2.03
413.50 2.029
413.60 2.028
413.70 2.026
413.80 2.025
413.90 2.024
414.00 2.023
414.10 2.021
414.20 2.02
414.30 2.019
414.40 2.017
414.50 2.016
414.60 2.015
414.70 2.014
414.80 2.012
414.90 2.011
415.00 2.01
415.10 2.008
415.20 2.007
415.30 2.006
415.40 2.004
415.50 2.003
415.60 2.001
415.70 2
415.80 1.999
415.90 1.997
416.00 1.996
416.10 1.994
416.20 1.993
416.30 1.991
416.40 1.99
416.50 1.989
416.60 1.987
416.70 1.986
416.80 1.984
416.90 1.983
417.00 1.981
417.10 1.98
417.20 1.978
417.30 1.977
417.40 1.975
417.50 1.974
417.60 1.972
417.70 1.971
417.80 1.969
417.90 1.968
418.00 1.966
418.10 1.964
418.20 1.963
418.30 1.961
418.40 1.96
418.50 1.958
418.60 1.957
418.70 1.955
418.80 1.953
418.90 1.952
419.00 1.95
419.10 1.948
419.20 1.947
419.30 1.945
419.40 1.944
419.50 1.942
419.60 1.94
419.70 1.939
419.80 1.937
419.90 1.935
420.00 1.934
420.10 1.932
420.20 1.93
420.30 1.928
420.40 1.927
420.50 1.925
420.60 1.923
420.70 1.922
420.80 1.92
420.90 1.918
421.00 1.916
421.10 1.915
421.20 1.913
421.30 1.911
421.40 1.909
421.50 1.908
421.60 1.906
421.70 1.904
421.80 1.902
421.90 1.901
422.00 1.899
422.10 1.897
422.20 1.895
422.30 1.893
422.40 1.891
422.50 1.89
422.60 1.888
422.70 1.886
422.80 1.884
422.90 1.882
423.00 1.88
423.10 1.878
423.20 1.877
423.30 1.875
423.40 1.873
423.50 1.871
423.60 1.869
423.70 1.867
423.80 1.865
423.90 1.863
424.00 1.861
424.10 1.859
424.20 1.857
424.30 1.855
424.40 1.853
424.50 1.851
424.60 1.849
424.70 1.847
424.80 1.845
424.90 1.843
425.00 1.841
425.10 1.839
425.20 1.837
425.30 1.835
425.40 1.833
425.50 1.831
425.60 1.829
425.70 1.827
425.80 1.825
425.90 1.823
426.00 1.821
426.10 1.818
426.20 1.816
426.30 1.814
426.40 1.812
426.50 1.81
426.60 1.808
426.70 1.805
426.80 1.803
426.90 1.801
427.00 1.799
427.10 1.796
427.20 1.794
427.30 1.792
427.40 1.79
427.50 1.787
427.60 1.785
427.70 1.783
427.80 1.78
427.90 1.778
428.00 1.776
428.10 1.773
428.20 1.771
428.30 1.768
428.40 1.766
428.50 1.763
428.60 1.761
428.70 1.759
428.80 1.756
428.90 1.754
429.00 1.751
429.10 1.748
429.20 1.746
429.30 1.743
429.40 1.741
429.50 1.738
429.60 1.736
429.70 1.733
429.80 1.73
429.90 1.728
430.00 1.725
430.10 1.722
430.20 1.72
430.30 1.717
430.40 1.714
430.50 1.711
430.60 1.709
430.70 1.706
430.80 1.703
430.90 1.7
431.00 1.697
431.10 1.695
431.20 1.692
431.30 1.689
431.40 1.686
431.50 1.683
431.60 1.68
431.70 1.677
431.80 1.674
431.90 1.672
432.00 1.669
432.10 1.666
432.20 1.663
432.30 1.66
432.40 1.657
432.50 1.654
432.60 1.651
432.70 1.648
432.80 1.645
432.90 1.641
433.00 1.638
433.10 1.635
433.20 1.632
433.30 1.628
433.40 1.625
433.50 1.621
433.60 1.618
433.70 1.614
433.80 1.61
433.90 1.606
434.00 1.603
434.10 1.602
434.20 1.603
434.30 1.604
434.40 1.605
434.50 1.607
434.60 1.608
434.70 1.608
434.80 1.609
434.90 1.61
435.00 1.61
435.10 1.611
435.20 1.611
435.30 1.612
435.40 1.612
435.50 1.612
435.60 1.613
435.70 1.613
435.80 1.613
435.90 1.613
436.00 1.613
436.10 1.614
436.20 1.614
436.30 1.614
436.40 1.614
436.50 1.614
436.60 1.614
436.70 1.614
436.80 1.614
436.90 1.614
437.00 1.614
437.10 1.614
437.20 1.614
437.30 1.614
437.40 1.614
437.50 1.614
437.60 1.613
437.70 1.613
437.80 1.613
437.90 1.613
438.00 1.613
438.10 1.613
438.20 1.612
438.30 1.612
438.40 1.612
438.50 1.612
438.60 1.611
438.70 1.611
438.80 1.611
438.90 1.61
439.00 1.61
439.10 1.609
439.20 1.609
439.30 1.609
439.40 1.608
439.50 1.608
439.60 1.607
439.70 1.607
439.80 1.606
439.90 1.606
440.00 1.605
440.10 1.604
440.20 1.604
440.30 1.603
440.40 1.603
440.50 1.602
440.60 1.601
440.70 1.601
440.80 1.6
440.90 1.599
441.00 1.599
441.10 1.598
441.20 1.597
441.30 1.597
441.40 1.596
441.50 1.595
441.60 1.594
441.70 1.593
441.80 1.593
441.90 1.592
442.00 1.591
442.10 1.59
442.20 1.589
442.30 1.589
442.40 1.588
442.50 1.587
442.60 1.586
442.70 1.585
442.80 1.584
442.90 1.583
443.00 1.582
443.10 1.581
443.20 1.58
443.30 1.579
443.40 1.579
443.50 1.578
443.60 1.577
443.70 1.576
443.80 1.575
443.90 1.574
444.00 1.573
444.10 1.572
444.20 1.571
444.30 1.57
444.40 1.569
444.50 1.568
444.60 1.567
444.70 1.566
444.80 1.564
444.90 1.563
445.00 1.562
445.10 1.561
445.20 1.56
445.30 1.559
445.40 1.558
445.50 1.557
445.60 1.556
445.70 1.555
445.80 1.554
445.90 1.553
446.00 1.552
446.10 1.55
446.20 1.549
446.30 1.548
446.40 1.547
446.50 1.546
446.60 1.545
446.70 1.544
446.80 1.543
446.90 1.541
447.00 1.54
447.10 1.539
447.20 1.538
447.30 1.537
447.40 1.536
447.50 1.535
447.60 1.533
447.70 1.532
447.80 1.531
447.90 1.53
448.00 1.529
448.10 1.528
448.20 1.527
448.30 1.525
448.40 1.524
448.50 1.523
448.60 1.522
448.70 1.521
448.80 1.52
448.90 1.518
449.00 1.517
449.10 1.516
449.20 1.515
449.30 1.514
449.40 1.512
449.50 1.511
449.60 1.51
449.70 1.509
449.80 1.508
449.90 1.507
450.00 1.505
450.10 1.504
450.20 1.503
450.30 1.502
450.40 1.501
450.50 1.499
450.60 1.498
450.70 1.497
450.80 1.496
450.90 1.495
451.00 1.493
451.10 1.492
451.20 1.491
451.30 1.49
451.40 1.489
451.50 1.487
451.60 1.486
451.70 1.485
451.80 1.484
451.90 1.483
452.00 1.481
452.10 1.48
452.20 1.479
452.30 1.478
452.40 1.477
452.50 1.475
452.60 1.474
452.70 1.473
452.80 1.472
452.90 1.471
453.00 1.469
453.10 1.468
453.20 1.467
453.30 1.466
453.40 1.465
453.50 1.463
453.60 1.462
453.70 1.461
453.80 1.46
453.90 1.459
