# Version 2.1 - nm, norm@500 to 1, cut digits, bergeron_25000_75.dat_25000
# Wavelength(nm)  Flambda(ergs/cm^s/s/nm)
300.00 4.121
300.10 4.117
300.20 4.113
300.30 4.108
300.40 4.104
300.50 4.1
300.60 4.095
300.70 4.091
300.80 4.087
300.90 4.082
301.00 4.078
301.10 4.074
301.20 4.069
301.30 4.065
301.40 4.061
301.50 4.056
301.60 4.052
301.70 4.048
301.80 4.044
301.90 4.039
302.00 4.035
302.10 4.031
302.20 4.027
302.30 4.022
302.40 4.018
302.50 4.014
302.60 4.01
302.70 4.005
302.80 4.001
302.90 3.997
303.00 3.993
303.10 3.989
303.20 3.984
303.30 3.98
303.40 3.976
303.50 3.972
303.60 3.968
303.70 3.964
303.80 3.959
303.90 3.955
304.00 3.951
304.10 3.947
304.20 3.943
304.30 3.939
304.40 3.935
304.50 3.931
304.60 3.926
304.70 3.922
304.80 3.918
304.90 3.914
305.00 3.91
305.10 3.906
305.20 3.902
305.30 3.898
305.40 3.894
305.50 3.89
305.60 3.886
305.70 3.882
305.80 3.878
305.90 3.874
306.00 3.869
306.10 3.865
306.20 3.861
306.30 3.857
306.40 3.853
306.50 3.849
306.60 3.845
306.70 3.841
306.80 3.837
306.90 3.833
307.00 3.829
307.10 3.825
307.20 3.822
307.30 3.818
307.40 3.814
307.50 3.81
307.60 3.806
307.70 3.802
307.80 3.798
307.90 3.794
308.00 3.79
308.10 3.786
308.20 3.782
308.30 3.778
308.40 3.774
308.50 3.77
308.60 3.767
308.70 3.763
308.80 3.759
308.90 3.755
309.00 3.751
309.10 3.747
309.20 3.743
309.30 3.739
309.40 3.736
309.50 3.732
309.60 3.728
309.70 3.724
309.80 3.72
309.90 3.716
310.00 3.713
310.10 3.709
310.20 3.705
310.30 3.701
310.40 3.697
310.50 3.693
310.60 3.69
310.70 3.686
310.80 3.682
310.90 3.678
311.00 3.675
311.10 3.671
311.20 3.667
311.30 3.663
311.40 3.66
311.50 3.656
311.60 3.652
311.70 3.648
311.80 3.645
311.90 3.641
312.00 3.637
312.10 3.633
312.20 3.63
312.30 3.626
312.40 3.622
312.50 3.619
312.60 3.615
312.70 3.611
312.80 3.607
312.90 3.604
313.00 3.6
313.10 3.596
313.20 3.593
313.30 3.589
313.40 3.585
313.50 3.582
313.60 3.578
313.70 3.575
313.80 3.571
313.90 3.567
314.00 3.564
314.10 3.56
314.20 3.556
314.30 3.553
314.40 3.549
314.50 3.546
314.60 3.542
314.70 3.538
314.80 3.535
314.90 3.531
315.00 3.528
315.10 3.524
315.20 3.52
315.30 3.517
315.40 3.513
315.50 3.51
315.60 3.506
315.70 3.503
315.80 3.499
315.90 3.496
316.00 3.492
316.10 3.489
316.20 3.485
316.30 3.482
316.40 3.478
316.50 3.474
316.60 3.471
316.70 3.467
316.80 3.464
316.90 3.461
317.00 3.457
317.10 3.454
317.20 3.45
317.30 3.447
317.40 3.443
317.50 3.44
317.60 3.436
317.70 3.433
317.80 3.429
317.90 3.426
318.00 3.422
318.10 3.419
318.20 3.415
318.30 3.412
318.40 3.409
318.50 3.405
318.60 3.402
318.70 3.398
318.80 3.395
318.90 3.392
319.00 3.388
319.10 3.385
319.20 3.381
319.30 3.378
319.40 3.375
319.50 3.371
319.60 3.368
319.70 3.365
319.80 3.361
319.90 3.358
320.00 3.354
320.10 3.351
320.20 3.348
320.30 3.344
320.40 3.341
320.50 3.338
320.60 3.334
320.70 3.331
320.80 3.328
320.90 3.324
321.00 3.321
321.10 3.318
321.20 3.314
321.30 3.311
321.40 3.308
321.50 3.305
321.60 3.301
321.70 3.298
321.80 3.295
321.90 3.291
322.00 3.288
322.10 3.285
322.20 3.282
322.30 3.278
322.40 3.275
322.50 3.272
322.60 3.269
322.70 3.265
322.80 3.262
322.90 3.259
323.00 3.256
323.10 3.253
323.20 3.249
323.30 3.246
323.40 3.243
323.50 3.24
323.60 3.236
323.70 3.233
323.80 3.23
323.90 3.227
324.00 3.224
324.10 3.22
324.20 3.217
324.30 3.214
324.40 3.211
324.50 3.208
324.60 3.205
324.70 3.201
324.80 3.198
324.90 3.195
325.00 3.192
325.10 3.189
325.20 3.186
325.30 3.183
325.40 3.179
325.50 3.176
325.60 3.173
325.70 3.17
325.80 3.167
325.90 3.164
326.00 3.161
326.10 3.158
326.20 3.155
326.30 3.151
326.40 3.148
326.50 3.145
326.60 3.142
326.70 3.139
326.80 3.136
326.90 3.133
327.00 3.13
327.10 3.127
327.20 3.124
327.30 3.121
327.40 3.118
327.50 3.115
327.60 3.111
327.70 3.108
327.80 3.105
327.90 3.102
328.00 3.099
328.10 3.096
328.20 3.093
328.30 3.09
328.40 3.087
328.50 3.084
328.60 3.081
328.70 3.078
328.80 3.075
328.90 3.072
329.00 3.069
329.10 3.066
329.20 3.063
329.30 3.06
329.40 3.057
329.50 3.054
329.60 3.051
329.70 3.048
329.80 3.045
329.90 3.042
330.00 3.04
330.10 3.037
330.20 3.034
330.30 3.031
330.40 3.028
330.50 3.025
330.60 3.022
330.70 3.019
330.80 3.016
330.90 3.013
331.00 3.01
331.10 3.007
331.20 3.004
331.30 3.001
331.40 2.999
331.50 2.996
331.60 2.993
331.70 2.99
331.80 2.987
331.90 2.984
332.00 2.981
332.10 2.978
332.20 2.975
332.30 2.973
332.40 2.97
332.50 2.967
332.60 2.964
332.70 2.961
332.80 2.958
332.90 2.955
333.00 2.953
333.10 2.95
333.20 2.947
333.30 2.944
333.40 2.941
333.50 2.938
333.60 2.935
333.70 2.933
333.80 2.93
333.90 2.927
334.00 2.924
334.10 2.921
334.20 2.919
334.30 2.916
334.40 2.913
334.50 2.91
334.60 2.907
334.70 2.905
334.80 2.902
334.90 2.899
335.00 2.896
335.10 2.893
335.20 2.891
335.30 2.888
335.40 2.885
335.50 2.882
335.60 2.88
335.70 2.877
335.80 2.874
335.90 2.871
336.00 2.869
336.10 2.866
336.20 2.863
336.30 2.86
336.40 2.858
336.50 2.855
336.60 2.852
336.70 2.85
336.80 2.847
336.90 2.844
337.00 2.841
337.10 2.839
337.20 2.836
337.30 2.833
337.40 2.831
337.50 2.828
337.60 2.825
337.70 2.822
337.80 2.82
337.90 2.817
338.00 2.814
338.10 2.812
338.20 2.809
338.30 2.806
338.40 2.804
338.50 2.801
338.60 2.798
338.70 2.796
338.80 2.793
338.90 2.79
339.00 2.788
339.10 2.785
339.20 2.783
339.30 2.78
339.40 2.777
339.50 2.775
339.60 2.772
339.70 2.769
339.80 2.767
339.90 2.764
340.00 2.762
340.10 2.759
340.20 2.756
340.30 2.754
340.40 2.751
340.50 2.749
340.60 2.746
340.70 2.743
340.80 2.741
340.90 2.738
341.00 2.736
341.10 2.733
341.20 2.73
341.30 2.728
341.40 2.725
341.50 2.723
341.60 2.72
341.70 2.718
341.80 2.715
341.90 2.712
342.00 2.71
342.10 2.707
342.20 2.705
342.30 2.702
342.40 2.7
342.50 2.697
342.60 2.695
342.70 2.692
342.80 2.69
342.90 2.687
343.00 2.685
343.10 2.682
343.20 2.68
343.30 2.677
343.40 2.674
343.50 2.672
343.60 2.669
343.70 2.667
343.80 2.664
343.90 2.662
344.00 2.659
344.10 2.657
344.20 2.655
344.30 2.652
344.40 2.65
344.50 2.647
344.60 2.645
344.70 2.642
344.80 2.64
344.90 2.637
345.00 2.635
345.10 2.632
345.20 2.63
345.30 2.627
345.40 2.625
345.50 2.622
345.60 2.62
345.70 2.618
345.80 2.615
345.90 2.613
346.00 2.61
346.10 2.608
346.20 2.605
346.30 2.603
346.40 2.601
346.50 2.598
346.60 2.596
346.70 2.593
346.80 2.591
346.90 2.589
347.00 2.586
347.10 2.584
347.20 2.581
347.30 2.579
347.40 2.577
347.50 2.574
347.60 2.572
347.70 2.569
347.80 2.567
347.90 2.565
348.00 2.562
348.10 2.56
348.20 2.557
348.30 2.555
348.40 2.553
348.50 2.55
348.60 2.548
348.70 2.546
348.80 2.543
348.90 2.541
349.00 2.539
349.10 2.536
349.20 2.534
349.30 2.532
349.40 2.529
349.50 2.527
349.60 2.525
349.70 2.522
349.80 2.52
349.90 2.518
350.00 2.515
350.10 2.513
350.20 2.511
350.30 2.508
350.40 2.506
350.50 2.504
350.60 2.501
350.70 2.499
350.80 2.497
350.90 2.495
351.00 2.492
351.10 2.49
351.20 2.488
351.30 2.485
351.40 2.483
351.50 2.481
351.60 2.479
351.70 2.476
351.80 2.474
351.90 2.472
352.00 2.469
352.10 2.467
352.20 2.465
352.30 2.463
352.40 2.46
352.50 2.458
352.60 2.456
352.70 2.454
352.80 2.451
352.90 2.449
353.00 2.447
353.10 2.445
353.20 2.442
353.30 2.44
353.40 2.438
353.50 2.436
353.60 2.434
353.70 2.431
353.80 2.429
353.90 2.427
354.00 2.425
354.10 2.422
354.20 2.42
354.30 2.418
354.40 2.416
354.50 2.414
354.60 2.411
354.70 2.409
354.80 2.407
354.90 2.405
355.00 2.403
355.10 2.4
355.20 2.398
355.30 2.396
355.40 2.394
355.50 2.392
355.60 2.39
355.70 2.387
355.80 2.385
355.90 2.383
356.00 2.381
356.10 2.379
356.20 2.377
356.30 2.374
356.40 2.372
356.50 2.37
356.60 2.368
356.70 2.366
356.80 2.364
356.90 2.362
357.00 2.359
357.10 2.357
357.20 2.355
357.30 2.353
357.40 2.351
357.50 2.349
357.60 2.347
357.70 2.345
357.80 2.342
357.90 2.34
358.00 2.338
358.10 2.336
358.20 2.334
358.30 2.332
358.40 2.33
358.50 2.328
358.60 2.326
358.70 2.323
358.80 2.321
358.90 2.319
359.00 2.317
359.10 2.315
359.20 2.313
359.30 2.311
359.40 2.309
359.50 2.307
359.60 2.305
359.70 2.303
359.80 2.301
359.90 2.298
360.00 2.296
360.10 2.294
360.20 2.292
360.30 2.29
360.40 2.288
360.50 2.286
360.60 2.284
360.70 2.282
360.80 2.28
360.90 2.278
361.00 2.276
361.10 2.274
361.20 2.272
361.30 2.27
361.40 2.268
361.50 2.266
361.60 2.264
361.70 2.262
361.80 2.26
361.90 2.258
362.00 2.256
362.10 2.254
362.20 2.252
362.30 2.25
362.40 2.248
362.50 2.246
362.60 2.244
362.70 2.242
362.80 2.24
362.90 2.238
363.00 2.236
363.10 2.234
363.20 2.232
363.30 2.23
363.40 2.228
363.50 2.226
363.60 2.224
363.70 2.222
363.80 2.22
363.90 2.218
364.00 2.216
364.10 2.214
364.20 2.212
364.30 2.21
364.40 2.208
364.50 2.206
364.60 2.204
364.70 2.202
364.80 2.2
364.90 2.198
365.00 2.196
365.10 2.194
365.20 2.192
365.30 2.19
365.40 2.188
365.50 2.186
365.60 2.184
365.70 2.183
365.80 2.181
365.90 2.179
366.00 2.177
366.10 2.174
366.20 2.172
366.30 2.17
366.40 2.168
366.50 2.165
366.60 2.163
366.70 2.161
366.80 2.159
366.90 2.156
367.00 2.154
367.10 2.152
367.20 2.149
367.30 2.147
367.40 2.145
367.50 2.143
367.60 2.14
367.70 2.138
367.80 2.136
367.90 2.134
368.00 2.132
368.10 2.129
368.20 2.127
368.30 2.125
368.40 2.123
368.50 2.121
368.60 2.119
368.70 2.116
368.80 2.114
368.90 2.112
369.00 2.11
369.10 2.108
369.20 2.106
369.30 2.104
369.40 2.101
369.50 2.099
369.60 2.097
369.70 2.095
369.80 2.093
369.90 2.091
370.00 2.089
370.10 2.087
370.20 2.085
370.30 2.083
370.40 2.081
370.50 2.079
370.60 2.077
370.70 2.075
370.80 2.073
370.90 2.071
371.00 2.069
371.10 2.067
371.20 2.065
371.30 2.063
371.40 2.061
371.50 2.059
371.60 2.057
371.70 2.055
371.80 2.053
371.90 2.051
372.00 2.049
372.10 2.047
372.20 2.046
372.30 2.044
372.40 2.042
372.50 2.041
372.60 2.039
372.70 2.038
372.80 2.036
372.90 2.035
373.00 2.033
373.10 2.032
373.20 2.03
373.30 2.029
373.40 2.027
373.50 2.025
373.60 2.024
373.70 2.022
373.80 2.021
373.90 2.019
374.00 2.018
374.10 2.017
374.20 2.015
374.30 2.014
374.40 2.013
374.50 2.012
374.60 2.011
374.70 2.01
374.80 2.008
374.90 2.007
375.00 2.006
375.10 2.005
375.20 2.004
375.30 2.003
375.40 2.001
375.50 2
375.60 1.999
375.70 1.998
375.80 1.997
375.90 1.996
376.00 1.994
376.10 1.992
376.20 1.989
376.30 1.986
376.40 1.984
376.50 1.981
376.60 1.978
376.70 1.976
376.80 1.973
376.90 1.97
377.00 1.967
377.10 1.969
377.20 1.97
377.30 1.971
377.40 1.972
377.50 1.973
377.60 1.974
377.70 1.976
377.80 1.977
377.90 1.978
378.00 1.979
378.10 1.976
378.20 1.974
378.30 1.971
378.40 1.969
378.50 1.966
378.60 1.963
378.70 1.961
378.80 1.958
378.90 1.956
379.00 1.953
379.10 1.949
379.20 1.946
379.30 1.942
379.40 1.938
379.50 1.934
379.60 1.931
379.70 1.927
379.80 1.923
379.90 1.92
380.00 1.916
380.10 1.921
380.20 1.925
380.30 1.93
380.40 1.935
380.50 1.939
380.60 1.944
380.70 1.949
380.80 1.954
380.90 1.958
381.00 1.963
381.10 1.963
381.20 1.963
381.30 1.963
381.40 1.963
381.50 1.963
381.60 1.96
381.70 1.957
381.80 1.953
381.90 1.948
382.00 1.943
382.10 1.936
382.20 1.929
382.30 1.916
382.40 1.904
382.50 1.892
382.60 1.88
382.70 1.868
382.80 1.856
382.90 1.844
383.00 1.832
383.10 1.82
383.20 1.808
383.30 1.793
383.40 1.778
383.50 1.765
383.60 1.768
383.70 1.781
383.80 1.796
383.90 1.811
384.00 1.826
384.10 1.84
384.20 1.854
384.30 1.867
384.40 1.88
384.50 1.892
384.60 1.903
384.70 1.913
384.80 1.923
384.90 1.931
385.00 1.939
385.10 1.946
385.20 1.952
385.30 1.957
385.40 1.962
385.50 1.965
385.60 1.968
385.70 1.969
385.80 1.97
385.90 1.97
386.00 1.969
386.10 1.967
386.20 1.964
386.30 1.96
386.40 1.955
386.50 1.95
386.60 1.943
386.70 1.935
386.80 1.926
386.90 1.916
387.00 1.905
387.10 1.893
387.20 1.88
387.30 1.866
387.40 1.851
387.50 1.834
387.60 1.817
387.70 1.799
387.80 1.779
387.90 1.759
388.00 1.737
388.10 1.714
388.20 1.691
388.30 1.666
388.40 1.64
388.50 1.614
388.60 1.587
388.70 1.561
388.80 1.539
388.90 1.521
389.00 1.536
389.10 1.556
389.20 1.581
389.30 1.606
389.40 1.631
389.50 1.655
389.60 1.679
389.70 1.701
389.80 1.723
389.90 1.744
390.00 1.764
390.10 1.784
390.20 1.802
390.30 1.819
390.40 1.836
390.50 1.851
390.60 1.866
390.70 1.881
390.80 1.894
390.90 1.906
391.00 1.918
391.10 1.928
391.20 1.939
391.30 1.948
391.40 1.956
391.50 1.964
391.60 1.972
391.70 1.978
391.80 1.984
391.90 1.989
392.00 1.993
392.10 1.997
392.20 2
392.30 2.002
392.40 2.004
392.50 2.005
392.60 2.005
392.70 2.005
392.80 2.004
392.90 2.002
393.00 2
393.10 1.997
393.20 1.993
393.30 1.989
393.40 1.984
393.50 1.978
393.60 1.971
393.70 1.964
393.80 1.956
393.90 1.947
394.00 1.938
394.10 1.927
394.20 1.916
394.30 1.905
394.40 1.892
394.50 1.878
394.60 1.864
394.70 1.849
394.80 1.833
394.90 1.816
395.00 1.798
395.10 1.779
395.20 1.76
395.30 1.739
395.40 1.717
395.50 1.695
395.60 1.671
395.70 1.647
395.80 1.622
395.90 1.595
396.00 1.568
396.10 1.54
396.20 1.51
396.30 1.479
396.40 1.448
396.50 1.414
396.60 1.379
396.70 1.343
396.80 1.304
396.90 1.263
397.00 1.22
397.10 1.258
397.20 1.295
397.30 1.333
397.40 1.367
397.50 1.4
397.60 1.432
397.70 1.462
397.80 1.49
397.90 1.518
398.00 1.544
398.10 1.57
398.20 1.594
398.30 1.617
398.40 1.64
398.50 1.661
398.60 1.682
398.70 1.701
398.80 1.72
398.90 1.738
399.00 1.755
399.10 1.772
399.20 1.787
399.30 1.802
399.40 1.816
399.50 1.83
399.60 1.842
399.70 1.855
399.80 1.866
399.90 1.877
400.00 1.887
400.10 1.896
400.20 1.906
400.30 1.914
400.40 1.922
400.50 1.93
400.60 1.937
400.70 1.943
400.80 1.949
400.90 1.955
401.00 1.961
401.10 1.966
401.20 1.97
401.30 1.974
401.40 1.978
401.50 1.982
401.60 1.985
401.70 1.988
401.80 1.99
401.90 1.993
402.00 1.995
402.10 1.997
402.20 1.998
402.30 1.999
402.40 2
402.50 2.001
402.60 2.001
402.70 2.002
402.80 2.002
402.90 2.002
403.00 2.001
403.10 2
403.20 2
403.30 1.999
403.40 1.997
403.50 1.996
403.60 1.994
403.70 1.992
403.80 1.99
403.90 1.988
404.00 1.985
404.10 1.983
404.20 1.98
404.30 1.976
404.40 1.973
404.50 1.969
404.60 1.965
404.70 1.961
404.80 1.957
404.90 1.952
405.00 1.947
405.10 1.942
405.20 1.937
405.30 1.931
405.40 1.925
405.50 1.919
405.60 1.912
405.70 1.905
405.80 1.898
405.90 1.89
406.00 1.882
406.10 1.874
406.20 1.865
406.30 1.856
406.40 1.847
406.50 1.837
406.60 1.826
406.70 1.815
406.80 1.804
406.90 1.793
407.00 1.78
407.10 1.767
407.20 1.754
407.30 1.74
407.40 1.726
407.50 1.711
407.60 1.696
407.70 1.679
407.80 1.663
407.90 1.645
408.00 1.627
408.10 1.608
408.20 1.589
408.30 1.568
408.40 1.548
408.50 1.526
408.60 1.503
408.70 1.48
408.80 1.456
408.90 1.431
409.00 1.405
409.10 1.378
409.20 1.351
409.30 1.322
409.40 1.292
409.50 1.261
409.60 1.228
409.70 1.193
409.80 1.155
409.90 1.115
410.00 1.066
410.10 1.027
410.20 0.9957
410.30 1.043
410.40 1.089
410.50 1.133
410.60 1.169
410.70 1.204
410.80 1.236
410.90 1.265
411.00 1.294
411.10 1.321
411.20 1.347
411.30 1.372
411.40 1.396
411.50 1.419
411.60 1.441
411.70 1.462
411.80 1.482
411.90 1.502
412.00 1.52
412.10 1.538
412.20 1.555
412.30 1.572
412.40 1.587
412.50 1.602
412.60 1.617
412.70 1.63
412.80 1.643
412.90 1.656
413.00 1.667
413.10 1.679
413.20 1.689
413.30 1.699
413.40 1.709
413.50 1.718
413.60 1.727
413.70 1.735
413.80 1.743
413.90 1.75
414.00 1.757
414.10 1.764
414.20 1.77
414.30 1.776
414.40 1.782
414.50 1.787
414.60 1.792
414.70 1.797
414.80 1.801
414.90 1.805
415.00 1.809
415.10 1.813
415.20 1.816
415.30 1.819
415.40 1.822
415.50 1.825
415.60 1.828
415.70 1.83
415.80 1.832
415.90 1.834
416.00 1.836
416.10 1.838
416.20 1.839
416.30 1.841
416.40 1.842
416.50 1.843
416.60 1.844
416.70 1.845
416.80 1.846
416.90 1.847
417.00 1.847
417.10 1.848
417.20 1.848
417.30 1.849
417.40 1.849
417.50 1.849
417.60 1.849
417.70 1.849
417.80 1.849
417.90 1.849
418.00 1.849
418.10 1.849
418.20 1.848
418.30 1.848
418.40 1.848
418.50 1.847
418.60 1.847
418.70 1.846
418.80 1.846
418.90 1.845
419.00 1.844
419.10 1.844
419.20 1.843
419.30 1.842
419.40 1.841
419.50 1.84
419.60 1.839
419.70 1.839
419.80 1.838
419.90 1.837
420.00 1.836
420.10 1.835
420.20 1.834
420.30 1.832
420.40 1.831
420.50 1.83
420.60 1.829
420.70 1.828
420.80 1.827
420.90 1.825
421.00 1.824
421.10 1.823
421.20 1.821
421.30 1.82
421.40 1.819
421.50 1.817
421.60 1.816
421.70 1.815
421.80 1.813
421.90 1.812
422.00 1.81
422.10 1.809
422.20 1.807
422.30 1.806
422.40 1.804
422.50 1.802
422.60 1.801
422.70 1.799
422.80 1.798
422.90 1.796
423.00 1.794
423.10 1.793
423.20 1.791
423.30 1.789
423.40 1.787
423.50 1.786
423.60 1.784
423.70 1.782
423.80 1.78
423.90 1.778
424.00 1.776
424.10 1.774
424.20 1.773
424.30 1.771
424.40 1.769
424.50 1.767
424.60 1.765
424.70 1.762
424.80 1.76
424.90 1.758
425.00 1.756
425.10 1.754
425.20 1.752
425.30 1.749
425.40 1.747
425.50 1.745
425.60 1.742
425.70 1.74
425.80 1.738
425.90 1.735
426.00 1.733
426.10 1.73
426.20 1.727
426.30 1.725
426.40 1.722
426.50 1.719
426.60 1.717
426.70 1.714
426.80 1.711
426.90 1.708
427.00 1.705
427.10 1.701
427.20 1.698
427.30 1.695
427.40 1.691
427.50 1.688
427.60 1.684
427.70 1.681
427.80 1.677
427.90 1.673
428.00 1.669
428.10 1.665
428.20 1.661
428.30 1.656
428.40 1.652
428.50 1.647
428.60 1.642
428.70 1.637
428.80 1.632
428.90 1.627
429.00 1.621
429.10 1.616
429.20 1.61
429.30 1.603
429.40 1.597
429.50 1.591
429.60 1.584
429.70 1.577
429.80 1.569
429.90 1.562
430.00 1.554
430.10 1.546
430.20 1.537
430.30 1.529
430.40 1.52
430.50 1.51
430.60 1.501
430.70 1.491
430.80 1.48
430.90 1.47
431.00 1.458
431.10 1.447
431.20 1.435
431.30 1.423
431.40 1.41
431.50 1.397
431.60 1.383
431.70 1.369
431.80 1.355
431.90 1.339
432.00 1.324
432.10 1.308
432.20 1.291
432.30 1.273
432.40 1.255
432.50 1.236
432.60 1.217
432.70 1.197
432.80 1.176
432.90 1.155
433.00 1.133
433.10 1.109
433.20 1.085
433.30 1.06
433.40 1.033
433.50 1.005
433.60 0.9743
433.70 0.9388
433.80 0.8978
433.90 0.8512
434.00 0.7845
434.10 0.7854
434.20 0.8537
434.30 0.8982
434.40 0.9374
434.50 0.9712
434.60 0.9997
434.70 1.027
434.80 1.052
434.90 1.075
435.00 1.098
435.10 1.119
435.20 1.139
435.30 1.159
435.40 1.178
435.50 1.195
435.60 1.213
435.70 1.229
435.80 1.245
435.90 1.26
436.00 1.275
436.10 1.289
436.20 1.302
436.30 1.315
436.40 1.327
436.50 1.339
436.60 1.35
436.70 1.36
436.80 1.37
436.90 1.38
437.00 1.389
437.10 1.398
437.20 1.407
437.30 1.415
437.40 1.422
437.50 1.43
437.60 1.436
437.70 1.443
437.80 1.449
437.90 1.455
438.00 1.461
438.10 1.466
438.20 1.471
438.30 1.476
438.40 1.48
438.50 1.485
438.60 1.489
438.70 1.492
438.80 1.496
438.90 1.499
439.00 1.502
439.10 1.505
439.20 1.508
439.30 1.51
439.40 1.513
439.50 1.515
439.60 1.517
439.70 1.519
439.80 1.52
439.90 1.522
440.00 1.523
440.10 1.525
440.20 1.526
440.30 1.527
440.40 1.528
440.50 1.529
440.60 1.529
440.70 1.53
440.80 1.531
440.90 1.531
441.00 1.532
441.10 1.532
441.20 1.532
441.30 1.533
441.40 1.533
441.50 1.533
441.60 1.533
441.70 1.533
441.80 1.533
441.90 1.533
442.00 1.533
442.10 1.533
442.20 1.533
442.30 1.532
442.40 1.532
442.50 1.532
442.60 1.531
442.70 1.531
442.80 1.531
442.90 1.53
443.00 1.53
443.10 1.529
443.20 1.529
443.30 1.528
443.40 1.528
443.50 1.527
443.60 1.526
443.70 1.526
443.80 1.525
443.90 1.525
444.00 1.524
444.10 1.523
444.20 1.522
444.30 1.522
444.40 1.521
444.50 1.52
444.60 1.519
444.70 1.519
444.80 1.518
444.90 1.517
445.00 1.516
445.10 1.515
445.20 1.515
445.30 1.514
445.40 1.513
445.50 1.512
445.60 1.511
445.70 1.51
445.80 1.509
445.90 1.509
446.00 1.508
446.10 1.507
446.20 1.506
446.30 1.505
446.40 1.504
446.50 1.503
446.60 1.502
446.70 1.501
446.80 1.5
446.90 1.499
447.00 1.498
447.10 1.497
447.20 1.496
447.30 1.495
447.40 1.494
447.50 1.493
447.60 1.492
447.70 1.491
447.80 1.49
447.90 1.489
448.00 1.488
448.10 1.487
448.20 1.486
448.30 1.485
448.40 1.484
448.50 1.483
448.60 1.482
448.70 1.481
448.80 1.48
448.90 1.479
449.00 1.478
449.10 1.477
449.20 1.476
449.30 1.475
449.40 1.474
449.50 1.472
449.60 1.471
449.70 1.47
449.80 1.469
449.90 1.468
450.00 1.467
450.10 1.466
450.20 1.465
450.30 1.464
450.40 1.463
450.50 1.462
450.60 1.461
450.70 1.46
450.80 1.459
450.90 1.457
451.00 1.456
451.10 1.455
451.20 1.454
451.30 1.453
451.40 1.452
451.50 1.451
451.60 1.45
451.70 1.449
451.80 1.448
451.90 1.447
452.00 1.446
452.10 1.444
452.20 1.443
452.30 1.442
452.40 1.441
452.50 1.44
452.60 1.439
452.70 1.438
452.80 1.437
452.90 1.436
453.00 1.435
453.10 1.433
453.20 1.432
453.30 1.431
453.40 1.43
453.50 1.429
453.60 1.428
453.70 1.427
453.80 1.426
453.90 1.425
454.00 1.424
454.10 1.423
