# Version 2.1 - nm, norm@500 to 1, cut digits, bergeron_16500_70.dat_16500
# Wavelength(nm)  Flambda(ergs/cm^s/s/nm)
300.00 2.464
300.10 2.462
300.20 2.459
300.30 2.457
300.40 2.455
300.50 2.453
300.60 2.451
300.70 2.449
300.80 2.447
300.90 2.445
301.00 2.443
301.10 2.441
301.20 2.439
301.30 2.437
301.40 2.435
301.50 2.433
301.60 2.431
301.70 2.429
301.80 2.427
301.90 2.425
302.00 2.423
302.10 2.421
302.20 2.419
302.30 2.417
302.40 2.415
302.50 2.413
302.60 2.411
302.70 2.409
302.80 2.407
302.90 2.405
303.00 2.404
303.10 2.402
303.20 2.4
303.30 2.398
303.40 2.396
303.50 2.394
303.60 2.392
303.70 2.39
303.80 2.388
303.90 2.386
304.00 2.384
304.10 2.382
304.20 2.38
304.30 2.378
304.40 2.376
304.50 2.374
304.60 2.372
304.70 2.37
304.80 2.368
304.90 2.366
305.00 2.365
305.10 2.363
305.20 2.361
305.30 2.359
305.40 2.357
305.50 2.355
305.60 2.353
305.70 2.351
305.80 2.349
305.90 2.347
306.00 2.345
306.10 2.343
306.20 2.342
306.30 2.34
306.40 2.338
306.50 2.336
306.60 2.334
306.70 2.332
306.80 2.33
306.90 2.328
307.00 2.326
307.10 2.324
307.20 2.323
307.30 2.321
307.40 2.319
307.50 2.317
307.60 2.315
307.70 2.313
307.80 2.311
307.90 2.309
308.00 2.308
308.10 2.306
308.20 2.304
308.30 2.302
308.40 2.3
308.50 2.298
308.60 2.296
308.70 2.295
308.80 2.293
308.90 2.291
309.00 2.289
309.10 2.287
309.20 2.285
309.30 2.283
309.40 2.282
309.50 2.28
309.60 2.278
309.70 2.276
309.80 2.274
309.90 2.272
310.00 2.271
310.10 2.269
310.20 2.267
310.30 2.265
310.40 2.263
310.50 2.261
310.60 2.26
310.70 2.258
310.80 2.256
310.90 2.254
311.00 2.252
311.10 2.251
311.20 2.249
311.30 2.247
311.40 2.245
311.50 2.243
311.60 2.242
311.70 2.24
311.80 2.238
311.90 2.236
312.00 2.234
312.10 2.233
312.20 2.231
312.30 2.229
312.40 2.227
312.50 2.226
312.60 2.224
312.70 2.222
312.80 2.22
312.90 2.218
313.00 2.217
313.10 2.215
313.20 2.213
313.30 2.211
313.40 2.21
313.50 2.208
313.60 2.206
313.70 2.204
313.80 2.203
313.90 2.201
314.00 2.199
314.10 2.197
314.20 2.196
314.30 2.194
314.40 2.192
314.50 2.19
314.60 2.189
314.70 2.187
314.80 2.185
314.90 2.183
315.00 2.182
315.10 2.18
315.20 2.178
315.30 2.177
315.40 2.175
315.50 2.173
315.60 2.171
315.70 2.17
315.80 2.168
315.90 2.166
316.00 2.165
316.10 2.163
316.20 2.161
316.30 2.159
316.40 2.158
316.50 2.156
316.60 2.154
316.70 2.153
316.80 2.151
316.90 2.149
317.00 2.147
317.10 2.146
317.20 2.144
317.30 2.142
317.40 2.141
317.50 2.139
317.60 2.137
317.70 2.136
317.80 2.134
317.90 2.132
318.00 2.131
318.10 2.129
318.20 2.127
318.30 2.126
318.40 2.124
318.50 2.122
318.60 2.121
318.70 2.119
318.80 2.117
318.90 2.116
319.00 2.114
319.10 2.112
319.20 2.111
319.30 2.109
319.40 2.107
319.50 2.106
319.60 2.104
319.70 2.102
319.80 2.101
319.90 2.099
320.00 2.097
320.10 2.096
320.20 2.094
320.30 2.092
320.40 2.091
320.50 2.089
320.60 2.088
320.70 2.086
320.80 2.084
320.90 2.083
321.00 2.081
321.10 2.079
321.20 2.078
321.30 2.076
321.40 2.074
321.50 2.073
321.60 2.071
321.70 2.07
321.80 2.068
321.90 2.066
322.00 2.065
322.10 2.063
322.20 2.062
322.30 2.06
322.40 2.058
322.50 2.057
322.60 2.055
322.70 2.054
322.80 2.052
322.90 2.05
323.00 2.049
323.10 2.047
323.20 2.046
323.30 2.044
323.40 2.042
323.50 2.041
323.60 2.039
323.70 2.038
323.80 2.036
323.90 2.035
324.00 2.033
324.10 2.031
324.20 2.03
324.30 2.028
324.40 2.027
324.50 2.025
324.60 2.024
324.70 2.022
324.80 2.02
324.90 2.019
325.00 2.017
325.10 2.016
325.20 2.014
325.30 2.013
325.40 2.011
325.50 2.01
325.60 2.008
325.70 2.006
325.80 2.005
325.90 2.003
326.00 2.002
326.10 2
326.20 1.999
326.30 1.997
326.40 1.996
326.50 1.994
326.60 1.993
326.70 1.991
326.80 1.989
326.90 1.988
327.00 1.986
327.10 1.985
327.20 1.983
327.30 1.982
327.40 1.98
327.50 1.979
327.60 1.977
327.70 1.976
327.80 1.974
327.90 1.973
328.00 1.971
328.10 1.97
328.20 1.968
328.30 1.967
328.40 1.965
328.50 1.964
328.60 1.962
328.70 1.961
328.80 1.959
328.90 1.958
329.00 1.956
329.10 1.955
329.20 1.953
329.30 1.952
329.40 1.95
329.50 1.949
329.60 1.947
329.70 1.946
329.80 1.944
329.90 1.943
330.00 1.941
330.10 1.94
330.20 1.938
330.30 1.937
330.40 1.935
330.50 1.934
330.60 1.932
330.70 1.931
330.80 1.929
330.90 1.928
331.00 1.926
331.10 1.925
331.20 1.923
331.30 1.922
331.40 1.921
331.50 1.919
331.60 1.918
331.70 1.916
331.80 1.915
331.90 1.913
332.00 1.912
332.10 1.91
332.20 1.909
332.30 1.907
332.40 1.906
332.50 1.905
332.60 1.903
332.70 1.902
332.80 1.9
332.90 1.899
333.00 1.897
333.10 1.896
333.20 1.895
333.30 1.893
333.40 1.892
333.50 1.89
333.60 1.889
333.70 1.887
333.80 1.886
333.90 1.885
334.00 1.883
334.10 1.882
334.20 1.88
334.30 1.879
334.40 1.877
334.50 1.876
334.60 1.875
334.70 1.873
334.80 1.872
334.90 1.87
335.00 1.869
335.10 1.868
335.20 1.866
335.30 1.865
335.40 1.863
335.50 1.862
335.60 1.861
335.70 1.859
335.80 1.858
335.90 1.856
336.00 1.855
336.10 1.854
336.20 1.852
336.30 1.851
336.40 1.849
336.50 1.848
336.60 1.847
336.70 1.845
336.80 1.844
336.90 1.842
337.00 1.841
337.10 1.84
337.20 1.838
337.30 1.837
337.40 1.836
337.50 1.834
337.60 1.833
337.70 1.831
337.80 1.83
337.90 1.829
338.00 1.827
338.10 1.826
338.20 1.825
338.30 1.823
338.40 1.822
338.50 1.82
338.60 1.819
338.70 1.818
338.80 1.816
338.90 1.815
339.00 1.814
339.10 1.812
339.20 1.811
339.30 1.81
339.40 1.808
339.50 1.807
339.60 1.806
339.70 1.804
339.80 1.803
339.90 1.801
340.00 1.8
340.10 1.799
340.20 1.797
340.30 1.796
340.40 1.795
340.50 1.793
340.60 1.792
340.70 1.791
340.80 1.789
340.90 1.788
341.00 1.787
341.10 1.785
341.20 1.784
341.30 1.783
341.40 1.781
341.50 1.78
341.60 1.779
341.70 1.778
341.80 1.776
341.90 1.775
342.00 1.774
342.10 1.772
342.20 1.771
342.30 1.77
342.40 1.768
342.50 1.767
342.60 1.766
342.70 1.764
342.80 1.763
342.90 1.762
343.00 1.761
343.10 1.759
343.20 1.758
343.30 1.757
343.40 1.755
343.50 1.754
343.60 1.753
343.70 1.751
343.80 1.75
343.90 1.749
344.00 1.748
344.10 1.746
344.20 1.745
344.30 1.744
344.40 1.742
344.50 1.741
344.60 1.74
344.70 1.739
344.80 1.737
344.90 1.736
345.00 1.735
345.10 1.733
345.20 1.732
345.30 1.731
345.40 1.73
345.50 1.728
345.60 1.727
345.70 1.726
345.80 1.725
345.90 1.723
346.00 1.722
346.10 1.721
346.20 1.719
346.30 1.718
346.40 1.717
346.50 1.716
346.60 1.714
346.70 1.713
346.80 1.712
346.90 1.711
347.00 1.709
347.10 1.708
347.20 1.707
347.30 1.706
347.40 1.704
347.50 1.703
347.60 1.702
347.70 1.701
347.80 1.699
347.90 1.698
348.00 1.697
348.10 1.696
348.20 1.694
348.30 1.693
348.40 1.692
348.50 1.691
348.60 1.689
348.70 1.688
348.80 1.687
348.90 1.686
349.00 1.685
349.10 1.683
349.20 1.682
349.30 1.681
349.40 1.68
349.50 1.678
349.60 1.677
349.70 1.676
349.80 1.675
349.90 1.673
350.00 1.672
350.10 1.671
350.20 1.67
350.30 1.669
350.40 1.667
350.50 1.666
350.60 1.665
350.70 1.664
350.80 1.663
350.90 1.661
351.00 1.66
351.10 1.659
351.20 1.658
351.30 1.657
351.40 1.655
351.50 1.654
351.60 1.653
351.70 1.652
351.80 1.651
351.90 1.649
352.00 1.648
352.10 1.647
352.20 1.646
352.30 1.645
352.40 1.643
352.50 1.642
352.60 1.641
352.70 1.64
352.80 1.639
352.90 1.637
353.00 1.636
353.10 1.635
353.20 1.634
353.30 1.633
353.40 1.632
353.50 1.63
353.60 1.629
353.70 1.628
353.80 1.627
353.90 1.626
354.00 1.624
354.10 1.623
354.20 1.622
354.30 1.621
354.40 1.62
354.50 1.619
354.60 1.617
354.70 1.616
354.80 1.615
354.90 1.614
355.00 1.613
355.10 1.612
355.20 1.611
355.30 1.609
355.40 1.608
355.50 1.607
355.60 1.606
355.70 1.605
355.80 1.604
355.90 1.602
356.00 1.601
356.10 1.6
356.20 1.599
356.30 1.598
356.40 1.597
356.50 1.596
356.60 1.594
356.70 1.593
356.80 1.592
356.90 1.591
357.00 1.59
357.10 1.589
357.20 1.587
357.30 1.586
357.40 1.585
357.50 1.584
357.60 1.583
357.70 1.582
357.80 1.581
357.90 1.58
358.00 1.578
358.10 1.577
358.20 1.576
358.30 1.575
358.40 1.574
358.50 1.573
358.60 1.572
358.70 1.571
358.80 1.569
358.90 1.568
359.00 1.567
359.10 1.566
359.20 1.565
359.30 1.564
359.40 1.563
359.50 1.562
359.60 1.56
359.70 1.559
359.80 1.558
359.90 1.557
360.00 1.556
360.10 1.555
360.20 1.554
360.30 1.553
360.40 1.552
360.50 1.551
360.60 1.549
360.70 1.548
360.80 1.547
360.90 1.546
361.00 1.545
361.10 1.544
361.20 1.543
361.30 1.542
361.40 1.541
361.50 1.54
361.60 1.538
361.70 1.537
361.80 1.536
361.90 1.535
362.00 1.534
362.10 1.533
362.20 1.532
362.30 1.531
362.40 1.53
362.50 1.529
362.60 1.528
362.70 1.526
362.80 1.525
362.90 1.524
363.00 1.523
363.10 1.522
363.20 1.521
363.30 1.52
363.40 1.519
363.50 1.518
363.60 1.517
363.70 1.515
363.80 1.514
363.90 1.513
364.00 1.512
364.10 1.511
364.20 1.51
364.30 1.509
364.40 1.508
364.50 1.507
364.60 1.506
364.70 1.504
364.80 1.503
364.90 1.502
365.00 1.501
365.10 1.5
365.20 1.499
365.30 1.498
365.40 1.497
365.50 1.496
365.60 1.495
365.70 1.494
365.80 1.493
365.90 1.492
366.00 1.491
366.10 1.49
366.20 1.488
366.30 1.487
366.40 1.486
366.50 1.485
366.60 1.484
366.70 1.483
366.80 1.482
366.90 1.481
367.00 1.48
367.10 1.479
367.20 1.478
367.30 1.477
367.40 1.476
367.50 1.475
367.60 1.474
367.70 1.473
367.80 1.472
367.90 1.471
368.00 1.47
368.10 1.47
368.20 1.47
368.30 1.469
368.40 1.469
368.50 1.469
368.60 1.468
368.70 1.468
368.80 1.468
368.90 1.467
369.00 1.467
369.10 1.467
369.20 1.467
369.30 1.466
369.40 1.466
369.50 1.466
369.60 1.465
369.70 1.465
369.80 1.465
369.90 1.464
370.00 1.464
370.10 1.465
370.20 1.467
370.30 1.468
370.40 1.469
370.50 1.471
370.60 1.472
370.70 1.473
370.80 1.475
370.90 1.476
371.00 1.478
371.10 1.479
371.20 1.48
371.30 1.482
371.40 1.483
371.50 1.484
371.60 1.486
371.70 1.487
371.80 1.488
371.90 1.49
372.00 1.491
372.10 1.494
372.20 1.497
372.30 1.501
372.40 1.504
372.50 1.507
372.60 1.51
372.70 1.513
372.80 1.517
372.90 1.52
373.00 1.523
373.10 1.526
373.20 1.529
373.30 1.533
373.40 1.536
373.50 1.539
373.60 1.542
373.70 1.545
373.80 1.549
373.90 1.552
374.00 1.555
374.10 1.559
374.20 1.562
374.30 1.566
374.40 1.57
374.50 1.574
374.60 1.577
374.70 1.581
374.80 1.585
374.90 1.589
375.00 1.592
375.10 1.596
375.20 1.6
375.30 1.603
375.40 1.607
375.50 1.611
375.60 1.615
375.70 1.618
375.80 1.622
375.90 1.626
376.00 1.629
376.10 1.631
376.20 1.633
376.30 1.635
376.40 1.637
376.50 1.638
376.60 1.64
376.70 1.642
376.80 1.644
376.90 1.646
377.00 1.647
377.10 1.644
377.20 1.64
377.30 1.637
377.40 1.633
377.50 1.63
377.60 1.627
377.70 1.623
377.80 1.62
377.90 1.616
378.00 1.613
378.10 1.594
378.20 1.575
378.30 1.556
378.40 1.537
378.50 1.519
378.60 1.5
378.70 1.481
378.80 1.462
378.90 1.444
379.00 1.425
379.10 1.411
379.20 1.397
379.30 1.382
379.40 1.368
379.50 1.354
379.60 1.34
379.70 1.326
379.80 1.312
379.90 1.298
380.00 1.284
380.10 1.306
380.20 1.328
380.30 1.351
380.40 1.373
380.50 1.395
380.60 1.417
380.70 1.439
380.80 1.462
380.90 1.484
381.00 1.506
381.10 1.515
381.20 1.525
381.30 1.534
381.40 1.544
381.50 1.553
381.60 1.553
381.70 1.551
381.80 1.545
381.90 1.536
382.00 1.524
382.10 1.509
382.20 1.49
382.30 1.457
382.40 1.424
382.50 1.391
382.60 1.358
382.70 1.325
382.80 1.292
382.90 1.26
383.00 1.227
383.10 1.194
383.20 1.162
383.30 1.131
383.40 1.098
383.50 1.062
383.60 1.069
383.70 1.104
383.80 1.136
383.90 1.167
384.00 1.199
384.10 1.235
384.20 1.272
384.30 1.312
384.40 1.351
384.50 1.389
384.60 1.424
384.70 1.457
384.80 1.486
384.90 1.513
385.00 1.537
385.10 1.557
385.20 1.575
385.30 1.591
385.40 1.603
385.50 1.614
385.60 1.624
385.70 1.631
385.80 1.636
385.90 1.64
386.00 1.642
386.10 1.642
386.20 1.641
386.30 1.637
386.40 1.632
386.50 1.626
386.60 1.617
386.70 1.607
386.80 1.596
386.90 1.582
387.00 1.567
387.10 1.55
387.20 1.53
387.30 1.509
387.40 1.486
387.50 1.458
387.60 1.429
387.70 1.398
387.80 1.362
387.90 1.324
388.00 1.283
388.10 1.239
388.20 1.194
388.30 1.148
388.40 1.104
388.50 1.061
388.60 1.021
388.70 0.981
388.80 0.9408
388.90 0.9004
389.00 0.9371
389.10 0.9752
389.20 1.014
389.30 1.054
389.40 1.095
389.50 1.138
389.60 1.183
389.70 1.227
389.80 1.271
389.90 1.312
390.00 1.35
390.10 1.387
390.20 1.42
390.30 1.45
390.40 1.479
390.50 1.505
390.60 1.529
390.70 1.552
390.80 1.573
390.90 1.592
391.00 1.611
391.10 1.628
391.20 1.644
391.30 1.659
391.40 1.673
391.50 1.686
391.60 1.698
391.70 1.709
391.80 1.719
391.90 1.728
392.00 1.736
392.10 1.744
392.20 1.75
392.30 1.755
392.40 1.759
392.50 1.763
392.60 1.765
392.70 1.766
392.80 1.767
392.90 1.766
393.00 1.765
393.10 1.763
393.20 1.759
393.30 1.754
393.40 1.749
393.50 1.743
393.60 1.735
393.70 1.727
393.80 1.717
393.90 1.707
394.00 1.695
394.10 1.682
394.20 1.668
394.30 1.654
394.40 1.638
394.50 1.621
394.60 1.603
394.70 1.584
394.80 1.564
394.90 1.543
395.00 1.521
395.10 1.498
395.20 1.474
395.30 1.448
395.40 1.421
395.50 1.394
395.60 1.363
395.70 1.332
395.80 1.299
395.90 1.264
396.00 1.227
396.10 1.188
396.20 1.147
396.30 1.104
396.40 1.059
396.50 1.014
396.60 0.9706
396.70 0.9277
396.80 0.884
396.90 0.8315
397.00 0.7702
397.10 0.8262
397.20 0.876
397.30 0.9195
397.40 0.9611
397.50 1.004
397.60 1.047
397.70 1.09
397.80 1.132
397.90 1.173
398.00 1.21
398.10 1.246
398.20 1.28
398.30 1.311
398.40 1.342
398.50 1.371
398.60 1.398
398.70 1.423
398.80 1.448
398.90 1.471
399.00 1.494
399.10 1.515
399.20 1.536
399.30 1.556
399.40 1.575
399.50 1.593
399.60 1.61
399.70 1.627
399.80 1.643
399.90 1.658
400.00 1.672
400.10 1.686
400.20 1.698
400.30 1.711
400.40 1.722
400.50 1.733
400.60 1.743
400.70 1.753
400.80 1.762
400.90 1.77
401.00 1.778
401.10 1.785
401.20 1.792
401.30 1.798
401.40 1.804
401.50 1.81
401.60 1.815
401.70 1.819
401.80 1.824
401.90 1.827
402.00 1.831
402.10 1.834
402.20 1.837
402.30 1.839
402.40 1.841
402.50 1.843
402.60 1.844
402.70 1.845
402.80 1.846
402.90 1.847
403.00 1.847
403.10 1.847
403.20 1.847
403.30 1.846
403.40 1.845
403.50 1.844
403.60 1.843
403.70 1.841
403.80 1.84
403.90 1.838
404.00 1.835
404.10 1.833
404.20 1.83
404.30 1.826
404.40 1.823
404.50 1.819
404.60 1.815
404.70 1.811
404.80 1.807
404.90 1.802
405.00 1.796
405.10 1.791
405.20 1.785
405.30 1.779
405.40 1.772
405.50 1.765
405.60 1.758
405.70 1.75
405.80 1.741
405.90 1.733
406.00 1.724
406.10 1.714
406.20 1.704
406.30 1.694
406.40 1.683
406.50 1.671
406.60 1.659
406.70 1.646
406.80 1.633
406.90 1.619
407.00 1.604
407.10 1.589
407.20 1.573
407.30 1.555
407.40 1.538
407.50 1.519
407.60 1.5
407.70 1.48
407.80 1.459
407.90 1.438
408.00 1.415
408.10 1.393
408.20 1.369
408.30 1.345
408.40 1.32
408.50 1.295
408.60 1.268
408.70 1.242
408.80 1.214
408.90 1.185
409.00 1.156
409.10 1.125
409.20 1.093
409.30 1.061
409.40 1.025
409.50 0.9883
409.60 0.9501
409.70 0.9107
409.80 0.8714
409.90 0.8322
410.00 0.7852
410.10 0.7345
410.20 0.6799
410.30 0.7528
410.40 0.8098
410.50 0.8509
410.60 0.8892
410.70 0.9273
410.80 0.9653
410.90 1.001
411.00 1.036
411.10 1.069
411.20 1.099
411.30 1.128
411.40 1.157
411.50 1.184
411.60 1.21
411.70 1.236
411.80 1.261
411.90 1.284
412.00 1.308
412.10 1.33
412.20 1.352
412.30 1.373
412.40 1.393
412.50 1.412
412.60 1.431
412.70 1.449
412.80 1.467
412.90 1.483
413.00 1.499
413.10 1.514
413.20 1.529
413.30 1.542
413.40 1.555
413.50 1.567
413.60 1.578
413.70 1.589
413.80 1.6
413.90 1.609
414.00 1.619
414.10 1.627
414.20 1.636
414.30 1.643
414.40 1.651
414.50 1.658
414.60 1.665
414.70 1.671
414.80 1.677
414.90 1.682
415.00 1.688
415.10 1.692
415.20 1.697
415.30 1.701
415.40 1.705
415.50 1.709
415.60 1.713
415.70 1.716
415.80 1.719
415.90 1.722
416.00 1.725
416.10 1.727
416.20 1.73
416.30 1.732
416.40 1.734
416.50 1.736
416.60 1.738
416.70 1.739
416.80 1.741
416.90 1.742
417.00 1.743
417.10 1.745
417.20 1.746
417.30 1.747
417.40 1.747
417.50 1.748
417.60 1.749
417.70 1.749
417.80 1.75
417.90 1.75
418.00 1.75
418.10 1.751
418.20 1.751
418.30 1.751
418.40 1.751
418.50 1.751
418.60 1.751
418.70 1.751
418.80 1.751
418.90 1.75
419.00 1.75
419.10 1.75
419.20 1.75
419.30 1.749
419.40 1.749
419.50 1.748
419.60 1.748
419.70 1.747
419.80 1.746
419.90 1.746
420.00 1.745
420.10 1.744
420.20 1.744
420.30 1.743
420.40 1.742
420.50 1.741
420.60 1.74
420.70 1.739
420.80 1.738
420.90 1.738
421.00 1.737
421.10 1.736
421.20 1.735
421.30 1.733
421.40 1.732
421.50 1.731
421.60 1.73
421.70 1.729
421.80 1.728
421.90 1.727
422.00 1.725
422.10 1.724
422.20 1.723
422.30 1.721
422.40 1.72
422.50 1.719
422.60 1.717
422.70 1.716
422.80 1.714
422.90 1.713
423.00 1.712
423.10 1.71
423.20 1.709
423.30 1.707
423.40 1.705
423.50 1.704
423.60 1.702
423.70 1.7
423.80 1.699
423.90 1.697
424.00 1.695
424.10 1.693
424.20 1.691
424.30 1.689
424.40 1.688
424.50 1.686
424.60 1.684
424.70 1.681
424.80 1.679
424.90 1.677
425.00 1.675
425.10 1.673
425.20 1.671
425.30 1.668
425.40 1.666
425.50 1.663
425.60 1.661
425.70 1.658
425.80 1.656
425.90 1.653
426.00 1.651
426.10 1.648
426.20 1.644
426.30 1.641
426.40 1.638
426.50 1.635
426.60 1.632
426.70 1.629
426.80 1.626
426.90 1.622
427.00 1.619
427.10 1.615
427.20 1.612
427.30 1.608
427.40 1.604
427.50 1.6
427.60 1.596
427.70 1.592
427.80 1.587
427.90 1.583
428.00 1.578
428.10 1.574
428.20 1.569
428.30 1.564
428.40 1.558
428.50 1.553
428.60 1.547
428.70 1.542
428.80 1.536
428.90 1.53
429.00 1.523
429.10 1.517
429.20 1.51
429.30 1.503
429.40 1.496
429.50 1.488
429.60 1.48
429.70 1.472
429.80 1.464
429.90 1.455
430.00 1.446
430.10 1.437
430.20 1.428
430.30 1.418
430.40 1.407
430.50 1.397
430.60 1.386
430.70 1.374
430.80 1.362
430.90 1.35
431.00 1.337
431.10 1.324
431.20 1.311
431.30 1.297
431.40 1.282
431.50 1.267
431.60 1.252
431.70 1.235
431.80 1.219
431.90 1.201
432.00 1.183
432.10 1.164
432.20 1.143
432.30 1.122
432.40 1.101
432.50 1.077
432.60 1.053
432.70 1.028
432.80 1.003
432.90 0.9771
433.00 0.9517
433.10 0.927
433.20 0.9019
433.30 0.8763
433.40 0.8483
433.50 0.819
433.60 0.7886
433.70 0.7561
433.80 0.7205
433.90 0.6818
434.00 0.591
434.10 0.5921
434.20 0.6848
434.30 0.7219
434.40 0.7563
434.50 0.7878
434.60 0.8171
434.70 0.8452
434.80 0.872
434.90 0.8963
435.00 0.9202
435.10 0.9436
435.20 0.9676
435.30 0.9917
435.40 1.016
435.50 1.039
435.60 1.061
435.70 1.083
435.80 1.103
435.90 1.122
436.00 1.14
436.10 1.157
436.20 1.173
436.30 1.189
436.40 1.204
436.50 1.218
436.60 1.231
436.70 1.244
436.80 1.256
436.90 1.268
437.00 1.279
437.10 1.29
437.20 1.3
437.30 1.31
437.40 1.319
437.50 1.328
437.60 1.337
437.70 1.345
437.80 1.353
437.90 1.36
438.00 1.367
438.10 1.374
438.20 1.38
438.30 1.386
438.40 1.392
438.50 1.398
438.60 1.403
438.70 1.408
438.80 1.413
438.90 1.417
439.00 1.421
439.10 1.425
439.20 1.429
439.30 1.432
439.40 1.436
439.50 1.439
439.60 1.442
439.70 1.445
439.80 1.447
439.90 1.45
440.00 1.452
440.10 1.454
440.20 1.456
440.30 1.458
440.40 1.46
440.50 1.462
440.60 1.463
440.70 1.464
440.80 1.466
440.90 1.467
441.00 1.468
441.10 1.469
441.20 1.47
441.30 1.471
441.40 1.472
441.50 1.473
441.60 1.473
441.70 1.474
441.80 1.474
441.90 1.475
442.00 1.475
442.10 1.476
442.20 1.476
442.30 1.476
442.40 1.476
442.50 1.476
442.60 1.476
442.70 1.476
442.80 1.476
442.90 1.476
443.00 1.476
443.10 1.476
443.20 1.476
443.30 1.476
443.40 1.475
443.50 1.475
443.60 1.475
443.70 1.475
443.80 1.474
443.90 1.474
444.00 1.473
444.10 1.473
444.20 1.472
444.30 1.472
444.40 1.472
444.50 1.471
444.60 1.47
444.70 1.47
444.80 1.469
444.90 1.469
445.00 1.468
445.10 1.467
445.20 1.467
445.30 1.466
445.40 1.465
445.50 1.465
445.60 1.464
445.70 1.463
445.80 1.462
445.90 1.462
446.00 1.461
446.10 1.46
446.20 1.459
446.30 1.459
446.40 1.458
446.50 1.457
446.60 1.456
446.70 1.455
446.80 1.455
446.90 1.454
447.00 1.453
447.10 1.452
447.20 1.451
447.30 1.45
447.40 1.45
447.50 1.449
447.60 1.448
447.70 1.447
447.80 1.446
447.90 1.445
448.00 1.444
448.10 1.443
448.20 1.443
448.30 1.442
448.40 1.441
448.50 1.44
448.60 1.439
448.70 1.438
448.80 1.437
448.90 1.436
449.00 1.435
449.10 1.435
449.20 1.434
449.30 1.433
449.40 1.432
449.50 1.431
449.60 1.43
449.70 1.429
449.80 1.428
449.90 1.427
450.00 1.426
450.10 1.425
450.20 1.424
450.30 1.423
450.40 1.422
450.50 1.421
450.60 1.421
450.70 1.42
450.80 1.419
450.90 1.418
451.00 1.417
451.10 1.416
451.20 1.415
451.30 1.414
451.40 1.413
451.50 1.412
451.60 1.411
451.70 1.41
451.80 1.409
451.90 1.408
452.00 1.407
452.10 1.406
452.20 1.405
452.30 1.404
452.40 1.403
452.50 1.402
452.60 1.401
452.70 1.4
452.80 1.399
452.90 1.398
453.00 1.397
453.10 1.396
453.20 1.395
453.30 1.395
453.40 1.394
453.50 1.393
453.60 1.392
