# Version 2.1 - nm, norm@500 to 1, cut digits, bergeron_6000_70.dat_6000
# Wavelength(nm)  Flambda(ergs/cm^s/s/nm)
300.00 0.7098
300.10 0.7103
300.20 0.7108
300.30 0.7112
300.40 0.7117
300.50 0.7122
300.60 0.7126
300.70 0.7131
300.80 0.7136
300.90 0.7141
301.00 0.7145
301.10 0.715
301.20 0.7154
301.30 0.7159
301.40 0.7164
301.50 0.7168
301.60 0.7173
301.70 0.7177
301.80 0.7182
301.90 0.7187
302.00 0.7191
302.10 0.7196
302.20 0.7201
302.30 0.7205
302.40 0.721
302.50 0.7215
302.60 0.7219
302.70 0.7224
302.80 0.7228
302.90 0.7233
303.00 0.7238
303.10 0.7242
303.20 0.7247
303.30 0.7251
303.40 0.7256
303.50 0.7261
303.60 0.7265
303.70 0.727
303.80 0.7274
303.90 0.7279
304.00 0.7283
304.10 0.7288
304.20 0.7292
304.30 0.7297
304.40 0.7302
304.50 0.7306
304.60 0.7311
304.70 0.7315
304.80 0.732
304.90 0.7324
305.00 0.7329
305.10 0.7333
305.20 0.7338
305.30 0.7342
305.40 0.7347
305.50 0.7351
305.60 0.7356
305.70 0.736
305.80 0.7365
305.90 0.7369
306.00 0.7373
306.10 0.7378
306.20 0.7382
306.30 0.7387
306.40 0.7391
306.50 0.7396
306.60 0.74
306.70 0.7405
306.80 0.7409
306.90 0.7414
307.00 0.7418
307.10 0.7423
307.20 0.7427
307.30 0.7432
307.40 0.7436
307.50 0.744
307.60 0.7445
307.70 0.7449
307.80 0.7454
307.90 0.7458
308.00 0.7462
308.10 0.7467
308.20 0.7471
308.30 0.7476
308.40 0.748
308.50 0.7485
308.60 0.7489
308.70 0.7493
308.80 0.7498
308.90 0.7502
309.00 0.7507
309.10 0.7511
309.20 0.7515
309.30 0.752
309.40 0.7524
309.50 0.7528
309.60 0.7533
309.70 0.7537
309.80 0.7541
309.90 0.7546
310.00 0.755
310.10 0.7554
310.20 0.7559
310.30 0.7563
310.40 0.7567
310.50 0.7572
310.60 0.7576
310.70 0.758
310.80 0.7585
310.90 0.7589
311.00 0.7593
311.10 0.7598
311.20 0.7602
311.30 0.7606
311.40 0.761
311.50 0.7615
311.60 0.7619
311.70 0.7623
311.80 0.7627
311.90 0.7632
312.00 0.7636
312.10 0.764
312.20 0.7644
312.30 0.7649
312.40 0.7653
312.50 0.7657
312.60 0.7662
312.70 0.7666
312.80 0.767
312.90 0.7674
313.00 0.7679
313.10 0.7683
313.20 0.7687
313.30 0.7691
313.40 0.7695
313.50 0.77
313.60 0.7704
313.70 0.7708
313.80 0.7712
313.90 0.7716
314.00 0.772
314.10 0.7725
314.20 0.7729
314.30 0.7733
314.40 0.7737
314.50 0.7742
314.60 0.7746
314.70 0.775
314.80 0.7754
314.90 0.7758
315.00 0.7762
315.10 0.7767
315.20 0.7771
315.30 0.7775
315.40 0.7779
315.50 0.7783
315.60 0.7787
315.70 0.7791
315.80 0.7795
315.90 0.78
316.00 0.7804
316.10 0.7808
316.20 0.7812
316.30 0.7816
316.40 0.782
316.50 0.7824
316.60 0.7828
316.70 0.7833
316.80 0.7837
316.90 0.7841
317.00 0.7845
317.10 0.7849
317.20 0.7853
317.30 0.7857
317.40 0.7861
317.50 0.7865
317.60 0.7869
317.70 0.7873
317.80 0.7877
317.90 0.7881
318.00 0.7885
318.10 0.7889
318.20 0.7893
318.30 0.7897
318.40 0.7902
318.50 0.7906
318.60 0.791
318.70 0.7914
318.80 0.7918
318.90 0.7922
319.00 0.7926
319.10 0.793
319.20 0.7934
319.30 0.7938
319.40 0.7941
319.50 0.7945
319.60 0.7949
319.70 0.7953
319.80 0.7957
319.90 0.7961
320.00 0.7965
320.10 0.7969
320.20 0.7973
320.30 0.7977
320.40 0.7981
320.50 0.7985
320.60 0.7989
320.70 0.7993
320.80 0.7997
320.90 0.8001
321.00 0.8005
321.10 0.8009
321.20 0.8013
321.30 0.8017
321.40 0.8021
321.50 0.8024
321.60 0.8028
321.70 0.8032
321.80 0.8036
321.90 0.804
322.00 0.8044
322.10 0.8048
322.20 0.8052
322.30 0.8056
322.40 0.8059
322.50 0.8063
322.60 0.8067
322.70 0.8071
322.80 0.8075
322.90 0.8079
323.00 0.8083
323.10 0.8086
323.20 0.809
323.30 0.8094
323.40 0.8098
323.50 0.8102
323.60 0.8106
323.70 0.8109
323.80 0.8113
323.90 0.8117
324.00 0.8121
324.10 0.8125
324.20 0.8128
324.30 0.8132
324.40 0.8136
324.50 0.814
324.60 0.8144
324.70 0.8147
324.80 0.8151
324.90 0.8155
325.00 0.8159
325.10 0.8163
325.20 0.8166
325.30 0.817
325.40 0.8174
325.50 0.8178
325.60 0.8181
325.70 0.8185
325.80 0.8189
325.90 0.8193
326.00 0.8196
326.10 0.82
326.20 0.8204
326.30 0.8208
326.40 0.8211
326.50 0.8215
326.60 0.8219
326.70 0.8222
326.80 0.8226
326.90 0.823
327.00 0.8233
327.10 0.8237
327.20 0.8241
327.30 0.8245
327.40 0.8248
327.50 0.8252
327.60 0.8256
327.70 0.8259
327.80 0.8263
327.90 0.8266
328.00 0.827
328.10 0.8274
328.20 0.8277
328.30 0.8281
328.40 0.8285
328.50 0.8288
328.60 0.8292
328.70 0.8296
328.80 0.8299
328.90 0.8303
329.00 0.8307
329.10 0.831
329.20 0.8314
329.30 0.8318
329.40 0.8321
329.50 0.8325
329.60 0.8328
329.70 0.8332
329.80 0.8335
329.90 0.8339
330.00 0.8343
330.10 0.8346
330.20 0.835
330.30 0.8353
330.40 0.8357
330.50 0.8361
330.60 0.8364
330.70 0.8368
330.80 0.8371
330.90 0.8375
331.00 0.8378
331.10 0.8382
331.20 0.8385
331.30 0.8389
331.40 0.8392
331.50 0.8396
331.60 0.8399
331.70 0.8403
331.80 0.8406
331.90 0.841
332.00 0.8413
332.10 0.8417
332.20 0.8421
332.30 0.8424
332.40 0.8428
332.50 0.8431
332.60 0.8435
332.70 0.8438
332.80 0.8441
332.90 0.8445
333.00 0.8448
333.10 0.8452
333.20 0.8455
333.30 0.8459
333.40 0.8462
333.50 0.8466
333.60 0.8469
333.70 0.8473
333.80 0.8476
333.90 0.8479
334.00 0.8483
334.10 0.8486
334.20 0.849
334.30 0.8493
334.40 0.8496
334.50 0.85
334.60 0.8503
334.70 0.8507
334.80 0.851
334.90 0.8514
335.00 0.8517
335.10 0.852
335.20 0.8524
335.30 0.8527
335.40 0.853
335.50 0.8534
335.60 0.8537
335.70 0.854
335.80 0.8544
335.90 0.8547
336.00 0.855
336.10 0.8554
336.20 0.8557
336.30 0.8561
336.40 0.8564
336.50 0.8567
336.60 0.8571
336.70 0.8574
336.80 0.8577
336.90 0.8581
337.00 0.8584
337.10 0.8587
337.20 0.859
337.30 0.8594
337.40 0.8597
337.50 0.86
337.60 0.8604
337.70 0.8607
337.80 0.861
337.90 0.8613
338.00 0.8617
338.10 0.862
338.20 0.8623
338.30 0.8627
338.40 0.863
338.50 0.8633
338.60 0.8636
338.70 0.864
338.80 0.8643
338.90 0.8646
339.00 0.8649
339.10 0.8653
339.20 0.8656
339.30 0.8659
339.40 0.8662
339.50 0.8665
339.60 0.8669
339.70 0.8672
339.80 0.8675
339.90 0.8678
340.00 0.8681
340.10 0.8685
340.20 0.8688
340.30 0.8691
340.40 0.8694
340.50 0.8697
340.60 0.8701
340.70 0.8704
340.80 0.8707
340.90 0.871
341.00 0.8713
341.10 0.8716
341.20 0.872
341.30 0.8723
341.40 0.8726
341.50 0.8729
341.60 0.8732
341.70 0.8735
341.80 0.8738
341.90 0.8741
342.00 0.8744
342.10 0.8748
342.20 0.8751
342.30 0.8754
342.40 0.8757
342.50 0.876
342.60 0.8763
342.70 0.8766
342.80 0.8769
342.90 0.8772
343.00 0.8776
343.10 0.8779
343.20 0.8782
343.30 0.8785
343.40 0.8788
343.50 0.8791
343.60 0.8794
343.70 0.8797
343.80 0.88
343.90 0.8803
344.00 0.8806
344.10 0.8809
344.20 0.8812
344.30 0.8815
344.40 0.8818
344.50 0.8821
344.60 0.8824
344.70 0.8827
344.80 0.883
344.90 0.8833
345.00 0.8836
345.10 0.8839
345.20 0.8842
345.30 0.8845
345.40 0.8848
345.50 0.8851
345.60 0.8854
345.70 0.8857
345.80 0.886
345.90 0.8863
346.00 0.8866
346.10 0.8869
346.20 0.8872
346.30 0.8875
346.40 0.8878
346.50 0.8881
346.60 0.8884
346.70 0.8887
346.80 0.889
346.90 0.8893
347.00 0.8896
347.10 0.8898
347.20 0.8901
347.30 0.8904
347.40 0.8907
347.50 0.891
347.60 0.8913
347.70 0.8916
347.80 0.8919
347.90 0.8922
348.00 0.8925
348.10 0.8927
348.20 0.893
348.30 0.8933
348.40 0.8936
348.50 0.8939
348.60 0.8942
348.70 0.8945
348.80 0.8947
348.90 0.895
349.00 0.8953
349.10 0.8956
349.20 0.8959
349.30 0.8962
349.40 0.8964
349.50 0.8967
349.60 0.897
349.70 0.8973
349.80 0.8976
349.90 0.8978
350.00 0.8981
350.10 0.8984
350.20 0.8987
350.30 0.899
350.40 0.8993
350.50 0.8995
350.60 0.8998
350.70 0.9001
350.80 0.9004
350.90 0.9006
351.00 0.9009
351.10 0.9012
351.20 0.9015
351.30 0.9018
351.40 0.902
351.50 0.9023
351.60 0.9026
351.70 0.9029
351.80 0.9031
351.90 0.9034
352.00 0.9037
352.10 0.9039
352.20 0.9042
352.30 0.9045
352.40 0.9048
352.50 0.905
352.60 0.9053
352.70 0.9056
352.80 0.9059
352.90 0.9061
353.00 0.9064
353.10 0.9067
353.20 0.9069
353.30 0.9072
353.40 0.9075
353.50 0.9077
353.60 0.908
353.70 0.9083
353.80 0.9085
353.90 0.9088
354.00 0.9091
354.10 0.9093
354.20 0.9096
354.30 0.9099
354.40 0.9101
354.50 0.9104
354.60 0.9107
354.70 0.9109
354.80 0.9112
354.90 0.9115
355.00 0.9117
355.10 0.912
355.20 0.9122
355.30 0.9125
355.40 0.9128
355.50 0.913
355.60 0.9133
355.70 0.9135
355.80 0.9138
355.90 0.9141
356.00 0.9143
356.10 0.9146
356.20 0.9148
356.30 0.9151
356.40 0.9153
356.50 0.9156
356.60 0.9159
356.70 0.9161
356.80 0.9164
356.90 0.9166
357.00 0.9169
357.10 0.9171
357.20 0.9174
357.30 0.9176
357.40 0.9179
357.50 0.9181
357.60 0.9184
357.70 0.9186
357.80 0.9189
357.90 0.9191
358.00 0.9194
358.10 0.9196
358.20 0.9199
358.30 0.9201
358.40 0.9204
358.50 0.9206
358.60 0.9209
358.70 0.9211
358.80 0.9214
358.90 0.9216
359.00 0.9219
359.10 0.9221
359.20 0.9224
359.30 0.9226
359.40 0.9229
359.50 0.9231
359.60 0.9234
359.70 0.9236
359.80 0.9238
359.90 0.9241
360.00 0.9243
360.10 0.9246
360.20 0.9248
360.30 0.9251
360.40 0.9253
360.50 0.9255
360.60 0.9258
360.70 0.926
360.80 0.9263
360.90 0.9265
361.00 0.9267
361.10 0.927
361.20 0.9272
361.30 0.9275
361.40 0.9277
361.50 0.9279
361.60 0.9282
361.70 0.9284
361.80 0.9287
361.90 0.9289
362.00 0.9291
362.10 0.9294
362.20 0.9296
362.30 0.9298
362.40 0.9301
362.50 0.9303
362.60 0.9305
362.70 0.9308
362.80 0.931
362.90 0.9312
363.00 0.9315
363.10 0.9317
363.20 0.9319
363.30 0.9322
363.40 0.9324
363.50 0.9326
363.60 0.9329
363.70 0.9331
363.80 0.9333
363.90 0.9336
364.00 0.9338
364.10 0.934
364.20 0.9342
364.30 0.9345
364.40 0.9347
364.50 0.9349
364.60 0.9351
364.70 0.9354
364.80 0.9356
364.90 0.9358
365.00 0.936
365.10 0.9363
365.20 0.9365
365.30 0.9367
365.40 0.9369
365.50 0.9371
365.60 0.9373
365.70 0.9376
365.80 0.9378
365.90 0.938
366.00 0.9382
366.10 0.9384
366.20 0.9387
366.30 0.9389
366.40 0.9391
366.50 0.9393
366.60 0.9395
366.70 0.9398
366.80 0.94
366.90 0.9402
367.00 0.9404
367.10 0.9406
367.20 0.9409
367.30 0.9411
367.40 0.9413
367.50 0.9415
367.60 0.9417
367.70 0.9419
367.80 0.9422
367.90 0.9424
368.00 0.9426
368.10 0.9428
368.20 0.943
368.30 0.9432
368.40 0.9434
368.50 0.9436
368.60 0.9439
368.70 0.9441
368.80 0.9443
368.90 0.9445
369.00 0.9447
369.10 0.9449
369.20 0.9451
369.30 0.9453
369.40 0.9455
369.50 0.9458
369.60 0.946
369.70 0.9462
369.80 0.9464
369.90 0.9466
370.00 0.9468
370.10 0.947
370.20 0.9472
370.30 0.9475
370.40 0.9477
370.50 0.9479
370.60 0.9481
370.70 0.9483
370.80 0.9485
370.90 0.9488
371.00 0.949
371.10 0.9492
371.20 0.9494
371.30 0.9496
371.40 0.9498
371.50 0.95
371.60 0.9503
371.70 0.9505
371.80 0.9507
371.90 0.9509
372.00 0.9511
372.10 0.9514
372.20 0.9516
372.30 0.9519
372.40 0.9521
372.50 0.9524
372.60 0.9527
372.70 0.9529
372.80 0.9532
372.90 0.9534
373.00 0.9537
373.10 0.9539
373.20 0.9542
373.30 0.9544
373.40 0.9547
373.50 0.9549
373.60 0.9552
373.70 0.9554
373.80 0.9557
373.90 0.9559
374.00 0.9562
374.10 0.9565
374.20 0.9568
374.30 0.9571
374.40 0.9574
374.50 0.9577
374.60 0.958
374.70 0.9583
374.80 0.9586
374.90 0.9589
375.00 0.9592
375.10 0.9595
375.20 0.9598
375.30 0.9601
375.40 0.9604
375.50 0.9607
375.60 0.961
375.70 0.9613
375.80 0.9616
375.90 0.9619
376.00 0.9622
376.10 0.9625
376.20 0.9628
376.30 0.9631
376.40 0.9634
376.50 0.9637
376.60 0.964
376.70 0.9643
376.80 0.9646
376.90 0.9649
377.00 0.9652
377.10 0.9655
377.20 0.9657
377.30 0.966
377.40 0.9663
377.50 0.9665
377.60 0.9668
377.70 0.9671
377.80 0.9673
377.90 0.9676
378.00 0.9679
378.10 0.9679
378.20 0.9679
378.30 0.968
378.40 0.968
378.50 0.968
378.60 0.9681
378.70 0.9681
378.80 0.9681
378.90 0.9682
379.00 0.9682
379.10 0.967
379.20 0.9658
379.30 0.9646
379.40 0.9635
379.50 0.9623
379.60 0.9611
379.70 0.9599
379.80 0.9587
379.90 0.9576
380.00 0.9564
380.10 0.9583
380.20 0.9602
380.30 0.962
380.40 0.9639
380.50 0.9658
380.60 0.9676
380.70 0.9695
380.80 0.9714
380.90 0.9732
381.00 0.9751
381.10 0.9754
381.20 0.9758
381.30 0.9761
381.40 0.9765
381.50 0.9768
381.60 0.9771
381.70 0.9773
381.80 0.9775
381.90 0.9776
382.00 0.9777
382.10 0.9778
382.20 0.9778
382.30 0.9762
382.40 0.9746
382.50 0.973
382.60 0.9715
382.70 0.9699
382.80 0.9683
382.90 0.9667
383.00 0.9651
383.10 0.9635
383.20 0.9619
383.30 0.9526
383.40 0.9369
383.50 0.9075
383.60 0.9165
383.70 0.9419
383.80 0.9563
383.90 0.9651
384.00 0.9707
384.10 0.9744
384.20 0.977
384.30 0.9789
384.40 0.9803
384.50 0.9813
384.60 0.9822
384.70 0.9829
384.80 0.9834
384.90 0.984
385.00 0.9844
385.10 0.9848
385.20 0.9851
385.30 0.9854
385.40 0.9857
385.50 0.986
385.60 0.9862
385.70 0.9865
385.80 0.9867
385.90 0.9869
386.00 0.9871
386.10 0.9873
386.20 0.9875
386.30 0.9877
386.40 0.9879
386.50 0.988
386.60 0.9882
386.70 0.9883
386.80 0.9885
386.90 0.9886
387.00 0.9886
387.10 0.9887
387.20 0.9887
387.30 0.9887
387.40 0.9887
387.50 0.9886
387.60 0.9884
387.70 0.9881
387.80 0.9877
387.90 0.987
388.00 0.9862
388.10 0.9848
388.20 0.9827
388.30 0.9801
388.40 0.9752
388.50 0.9676
388.60 0.9573
388.70 0.9336
388.80 0.8891
388.90 0.8237
389.00 0.887
389.10 0.9313
389.20 0.9568
389.30 0.968
389.40 0.9764
389.50 0.9819
389.60 0.9849
389.70 0.9874
389.80 0.9892
389.90 0.9904
390.00 0.9915
390.10 0.9923
390.20 0.9929
390.30 0.9935
390.40 0.9939
390.50 0.9943
390.60 0.9947
390.70 0.995
390.80 0.9953
390.90 0.9956
391.00 0.9958
391.10 0.9961
391.20 0.9963
391.30 0.9965
391.40 0.9967
391.50 0.9969
391.60 0.9971
391.70 0.9973
391.80 0.9975
391.90 0.9976
392.00 0.9978
392.10 0.998
392.20 0.9981
392.30 0.9983
392.40 0.9985
392.50 0.9986
392.60 0.9988
392.70 0.9989
392.80 0.9991
392.90 0.9992
393.00 0.9994
393.10 0.9995
393.20 0.9996
393.30 0.9998
393.40 0.9999
393.50 1
393.60 1
393.70 1
393.80 1
393.90 1.001
394.00 1.001
394.10 1.001
394.20 1.001
394.30 1.001
394.40 1.001
394.50 1.001
394.60 1.001
394.70 1.001
394.80 1.001
394.90 1.001
395.00 1.001
395.10 1.001
395.20 1.001
395.30 1.001
395.40 1.001
395.50 1.001
395.60 1.001
395.70 1
395.80 0.9999
395.90 0.9992
396.00 0.9982
396.10 0.9971
396.20 0.995
396.30 0.9923
396.40 0.9887
396.50 0.9818
396.60 0.9709
396.70 0.9561
396.80 0.9194
396.90 0.8432
397.00 0.7275
397.10 0.8378
397.20 0.9132
397.30 0.9538
397.40 0.9701
397.50 0.982
397.60 0.9896
397.70 0.9937
397.80 0.9969
397.90 0.9992
398.00 1.001
398.10 1.002
398.20 1.003
398.30 1.004
398.40 1.004
398.50 1.005
398.60 1.005
398.70 1.006
398.80 1.006
398.90 1.006
399.00 1.007
399.10 1.007
399.20 1.007
399.30 1.007
399.40 1.007
399.50 1.008
399.60 1.008
399.70 1.008
399.80 1.008
399.90 1.008
400.00 1.008
400.10 1.009
400.20 1.009
400.30 1.009
400.40 1.009
400.50 1.009
400.60 1.009
400.70 1.009
400.80 1.01
400.90 1.01
401.00 1.01
401.10 1.01
401.20 1.01
401.30 1.01
401.40 1.01
401.50 1.01
401.60 1.011
401.70 1.011
401.80 1.011
401.90 1.011
402.00 1.011
402.10 1.011
402.20 1.011
402.30 1.011
402.40 1.012
402.50 1.012
402.60 1.012
402.70 1.012
402.80 1.012
402.90 1.012
403.00 1.012
403.10 1.012
403.20 1.012
403.30 1.012
403.40 1.013
403.50 1.013
403.60 1.013
403.70 1.013
403.80 1.013
403.90 1.013
404.00 1.013
404.10 1.013
404.20 1.013
404.30 1.013
404.40 1.014
404.50 1.014
404.60 1.014
404.70 1.014
404.80 1.014
404.90 1.014
405.00 1.014
405.10 1.014
405.20 1.014
405.30 1.014
405.40 1.015
405.50 1.015
405.60 1.015
405.70 1.015
405.80 1.015
405.90 1.015
406.00 1.015
406.10 1.015
406.20 1.015
406.30 1.015
406.40 1.015
406.50 1.015
406.60 1.015
406.70 1.016
406.80 1.016
406.90 1.016
407.00 1.016
407.10 1.016
407.20 1.016
407.30 1.016
407.40 1.016
407.50 1.016
407.60 1.016
407.70 1.016
407.80 1.016
407.90 1.016
408.00 1.016
408.10 1.016
408.20 1.016
408.30 1.016
408.40 1.015
408.50 1.015
408.60 1.015
408.70 1.015
408.80 1.014
408.90 1.014
409.00 1.013
409.10 1.012
409.20 1.01
409.30 1.009
409.40 1.006
409.50 1.001
409.60 0.9961
409.70 0.9857
409.80 0.9687
409.90 0.9451
410.00 0.8797
410.10 0.7861
410.20 0.6644
410.30 0.819
410.40 0.9183
410.50 0.9623
410.60 0.9797
410.70 0.9926
410.80 1.001
410.90 1.005
411.00 1.009
411.10 1.011
411.20 1.013
411.30 1.014
411.40 1.015
411.50 1.016
411.60 1.017
411.70 1.017
411.80 1.018
411.90 1.018
412.00 1.019
412.10 1.019
412.20 1.019
412.30 1.019
412.40 1.02
412.50 1.02
412.60 1.02
412.70 1.02
412.80 1.02
412.90 1.02
413.00 1.021
413.10 1.021
413.20 1.021
413.30 1.021
413.40 1.021
413.50 1.021
413.60 1.021
413.70 1.021
413.80 1.021
413.90 1.022
414.00 1.022
414.10 1.022
414.20 1.022
414.30 1.022
414.40 1.022
414.50 1.022
414.60 1.022
414.70 1.022
414.80 1.022
414.90 1.022
415.00 1.022
415.10 1.023
415.20 1.023
415.30 1.023
415.40 1.023
415.50 1.023
415.60 1.023
415.70 1.023
415.80 1.023
415.90 1.023
416.00 1.023
416.10 1.023
416.20 1.023
416.30 1.023
416.40 1.023
416.50 1.024
416.60 1.024
416.70 1.024
416.80 1.024
416.90 1.024
417.00 1.024
417.10 1.024
417.20 1.024
417.30 1.024
417.40 1.024
417.50 1.024
417.60 1.024
417.70 1.024
417.80 1.024
417.90 1.024
418.00 1.025
418.10 1.025
418.20 1.025
418.30 1.025
418.40 1.025
418.50 1.025
418.60 1.025
418.70 1.025
418.80 1.025
418.90 1.025
419.00 1.025
419.10 1.025
419.20 1.025
419.30 1.025
419.40 1.025
419.50 1.025
419.60 1.025
419.70 1.026
419.80 1.026
419.90 1.026
420.00 1.026
420.10 1.026
420.20 1.026
420.30 1.026
420.40 1.026
420.50 1.026
420.60 1.026
420.70 1.026
420.80 1.026
420.90 1.026
421.00 1.026
421.10 1.026
421.20 1.026
421.30 1.026
421.40 1.026
421.50 1.026
421.60 1.027
421.70 1.027
421.80 1.027
421.90 1.027
422.00 1.027
422.10 1.027
422.20 1.027
422.30 1.027
422.40 1.027
422.50 1.027
422.60 1.027
422.70 1.027
422.80 1.027
422.90 1.027
423.00 1.027
423.10 1.027
423.20 1.027
423.30 1.027
423.40 1.027
423.50 1.027
423.60 1.027
423.70 1.028
423.80 1.028
423.90 1.028
424.00 1.028
424.10 1.028
424.20 1.028
424.30 1.028
424.40 1.028
424.50 1.028
424.60 1.028
424.70 1.028
424.80 1.028
424.90 1.028
425.00 1.028
425.10 1.028
425.20 1.028
425.30 1.028
425.40 1.028
425.50 1.028
425.60 1.028
425.70 1.028
425.80 1.028
425.90 1.028
426.00 1.028
426.10 1.028
426.20 1.028
426.30 1.028
426.40 1.028
426.50 1.029
426.60 1.029
426.70 1.029
426.80 1.029
426.90 1.029
427.00 1.029
427.10 1.029
427.20 1.029
427.30 1.029
427.40 1.029
427.50 1.029
427.60 1.029
427.70 1.029
427.80 1.029
427.90 1.029
428.00 1.029
428.10 1.029
428.20 1.029
428.30 1.029
428.40 1.029
428.50 1.029
428.60 1.029
428.70 1.029
428.80 1.029
428.90 1.029
429.00 1.029
429.10 1.029
429.20 1.029
429.30 1.029
429.40 1.029
429.50 1.029
429.60 1.029
429.70 1.029
429.80 1.029
429.90 1.029
430.00 1.029
430.10 1.029
430.20 1.029
430.30 1.029
430.40 1.029
430.50 1.029
430.60 1.029
430.70 1.029
430.80 1.029
430.90 1.029
431.00 1.029
431.10 1.029
431.20 1.029
431.30 1.029
431.40 1.029
431.50 1.029
431.60 1.029
431.70 1.028
431.80 1.028
431.90 1.028
432.00 1.028
432.10 1.028
432.20 1.027
432.30 1.027
432.40 1.027
432.50 1.026
432.60 1.026
432.70 1.025
432.80 1.024
432.90 1.023
433.00 1.021
433.10 1.019
433.20 1.016
433.30 1.012
433.40 1.006
433.50 0.9971
433.60 0.9853
433.70 0.9599
433.80 0.9131
433.90 0.8448
434.00 0.596
434.10 0.5993
434.20 0.8541
434.30 0.9185
434.40 0.9628
434.50 0.987
434.60 0.9984
434.70 1.007
434.80 1.013
434.90 1.017
435.00 1.02
435.10 1.022
435.20 1.023
435.30 1.025
435.40 1.026
435.50 1.026
435.60 1.027
435.70 1.027
435.80 1.028
435.90 1.028
436.00 1.028
436.10 1.029
436.20 1.029
436.30 1.029
436.40 1.029
436.50 1.029
436.60 1.03
436.70 1.03
436.80 1.03
436.90 1.03
437.00 1.03
437.10 1.03
437.20 1.03
437.30 1.03
437.40 1.03
437.50 1.03
437.60 1.03
437.70 1.03
437.80 1.031
437.90 1.031
438.00 1.031
438.10 1.031
438.20 1.031
438.30 1.031
438.40 1.031
438.50 1.031
438.60 1.031
438.70 1.031
438.80 1.031
438.90 1.031
439.00 1.031
439.10 1.031
439.20 1.031
439.30 1.031
439.40 1.031
439.50 1.031
439.60 1.031
439.70 1.031
439.80 1.031
439.90 1.031
440.00 1.031
440.10 1.031
440.20 1.031
440.30 1.031
440.40 1.031
440.50 1.031
440.60 1.031
440.70 1.031
440.80 1.031
440.90 1.031
441.00 1.031
441.10 1.031
441.20 1.031
441.30 1.031
441.40 1.031
441.50 1.031
441.60 1.031
441.70 1.031
441.80 1.031
441.90 1.031
442.00 1.031
442.10 1.031
442.20 1.031
442.30 1.031
442.40 1.031
442.50 1.031
442.60 1.031
442.70 1.031
442.80 1.031
442.90 1.031
443.00 1.031
443.10 1.031
443.20 1.031
443.30 1.031
443.40 1.031
443.50 1.031
443.60 1.031
443.70 1.031
443.80 1.031
443.90 1.031
444.00 1.031
444.10 1.031
444.20 1.031
444.30 1.031
444.40 1.031
444.50 1.031
444.60 1.031
444.70 1.031
444.80 1.031
444.90 1.031
445.00 1.031
445.10 1.031
445.20 1.031
445.30 1.031
445.40 1.031
445.50 1.031
445.60 1.031
445.70 1.031
445.80 1.031
445.90 1.031
446.00 1.031
446.10 1.031
446.20 1.031
446.30 1.031
446.40 1.031
446.50 1.031
