# Version 2.1 - nm, norm@500 to 1, cut digits, bergeron_1750_95.dat_1750
# Wavelength(nm)  Flambda(ergs/cm^s/s/nm)
300.00 0.05186
300.10 0.05202
300.20 0.05219
300.30 0.05236
300.40 0.05253
300.50 0.0527
300.60 0.05286
300.70 0.05303
300.80 0.0532
300.90 0.05337
301.00 0.05353
301.10 0.0537
301.20 0.05387
301.30 0.05403
301.40 0.0542
301.50 0.05437
301.60 0.05453
301.70 0.0547
301.80 0.05486
301.90 0.05503
302.00 0.0552
302.10 0.05537
302.20 0.05554
302.30 0.05572
302.40 0.05589
302.50 0.05607
302.60 0.05624
302.70 0.05642
302.80 0.05659
302.90 0.05676
303.00 0.05694
303.10 0.05711
303.20 0.05728
303.30 0.05746
303.40 0.05763
303.50 0.0578
303.60 0.05797
303.70 0.05814
303.80 0.05832
303.90 0.05849
304.00 0.05866
304.10 0.05884
304.20 0.05902
304.30 0.0592
304.40 0.05938
304.50 0.05956
304.60 0.05975
304.70 0.05993
304.80 0.06011
304.90 0.06029
305.00 0.06047
305.10 0.06064
305.20 0.06082
305.30 0.061
305.40 0.06118
305.50 0.06136
305.60 0.06154
305.70 0.06172
305.80 0.06189
305.90 0.06207
306.00 0.06226
306.10 0.06244
306.20 0.06263
306.30 0.06281
306.40 0.063
306.50 0.06319
306.60 0.06338
306.70 0.06356
306.80 0.06375
306.90 0.06394
307.00 0.06412
307.10 0.06431
307.20 0.06449
307.30 0.06468
307.40 0.06486
307.50 0.06505
307.60 0.06523
307.70 0.06542
307.80 0.0656
307.90 0.06578
308.00 0.06598
308.10 0.06617
308.20 0.06636
308.30 0.06655
308.40 0.06675
308.50 0.06694
308.60 0.06714
308.70 0.06733
308.80 0.06752
308.90 0.06772
309.00 0.06791
309.10 0.0681
309.20 0.06829
309.30 0.06849
309.40 0.06868
309.50 0.06887
309.60 0.06906
309.70 0.06925
309.80 0.06944
309.90 0.06963
310.00 0.06983
310.10 0.07003
310.20 0.07023
310.30 0.07043
310.40 0.07063
310.50 0.07083
310.60 0.07104
310.70 0.07124
310.80 0.07144
310.90 0.07164
311.00 0.07184
311.10 0.07204
311.20 0.07224
311.30 0.07244
311.40 0.07264
311.50 0.07284
311.60 0.07303
311.70 0.07323
311.80 0.07343
311.90 0.07363
312.00 0.07383
312.10 0.07402
312.20 0.07423
312.30 0.07443
312.40 0.07464
312.50 0.07485
312.60 0.07506
312.70 0.07527
312.80 0.07547
312.90 0.07568
313.00 0.07589
313.10 0.0761
313.20 0.0763
313.30 0.07651
313.40 0.07671
313.50 0.07692
313.60 0.07713
313.70 0.07733
313.80 0.07754
313.90 0.07774
314.00 0.07796
314.10 0.07816
314.20 0.07838
314.30 0.0786
314.40 0.07881
314.50 0.07903
314.60 0.07924
314.70 0.07946
314.80 0.07967
314.90 0.07988
315.00 0.0801
315.10 0.08031
315.20 0.08053
315.30 0.08074
315.40 0.08095
315.50 0.08116
315.60 0.08138
315.70 0.08159
315.80 0.0818
315.90 0.08201
316.00 0.08223
316.10 0.08245
316.20 0.08267
316.30 0.08289
316.40 0.08312
316.50 0.08334
316.60 0.08356
316.70 0.08378
316.80 0.08401
316.90 0.08423
317.00 0.08445
317.10 0.08467
317.20 0.08489
317.30 0.08511
317.40 0.08533
317.50 0.08555
317.60 0.08577
317.70 0.08599
317.80 0.08621
317.90 0.08643
318.00 0.08665
318.10 0.08688
318.20 0.08711
318.30 0.08734
318.40 0.08757
318.50 0.0878
318.60 0.08803
318.70 0.08826
318.80 0.08849
318.90 0.08872
319.00 0.08894
319.10 0.08917
319.20 0.0894
319.30 0.08963
319.40 0.08986
319.50 0.09008
319.60 0.09031
319.70 0.09054
319.80 0.09076
319.90 0.09099
320.00 0.09122
320.10 0.09146
320.20 0.09169
320.30 0.09193
320.40 0.09217
320.50 0.0924
320.60 0.09264
320.70 0.09288
320.80 0.09312
320.90 0.09335
321.00 0.09359
321.10 0.09382
321.20 0.09406
321.30 0.09429
321.40 0.09453
321.50 0.09476
321.60 0.095
321.70 0.09523
321.80 0.09546
321.90 0.0957
322.00 0.09594
322.10 0.09618
322.20 0.09642
322.30 0.09667
322.40 0.09692
322.50 0.09716
322.60 0.09741
322.70 0.09765
322.80 0.09789
322.90 0.09814
323.00 0.09838
323.10 0.09862
323.20 0.09887
323.30 0.09911
323.40 0.09935
323.50 0.09959
323.60 0.09984
323.70 0.1001
323.80 0.1003
323.90 0.1006
324.00 0.1008
324.10 0.1011
324.20 0.1013
324.30 0.1016
324.40 0.1018
324.50 0.1021
324.60 0.1023
324.70 0.1026
324.80 0.1028
324.90 0.1031
325.00 0.1033
325.10 0.1036
325.20 0.1038
325.30 0.1041
325.40 0.1043
325.50 0.1046
325.60 0.1048
325.70 0.1051
325.80 0.1053
325.90 0.1056
326.00 0.1058
326.10 0.1061
326.20 0.1063
326.30 0.1066
326.40 0.1069
326.50 0.1071
326.60 0.1074
326.70 0.1076
326.80 0.1079
326.90 0.1082
327.00 0.1084
327.10 0.1087
327.20 0.1089
327.30 0.1092
327.40 0.1095
327.50 0.1097
327.60 0.11
327.70 0.1102
327.80 0.1105
327.90 0.1107
328.00 0.111
328.10 0.1113
328.20 0.1115
328.30 0.1118
328.40 0.1121
328.50 0.1123
328.60 0.1126
328.70 0.1129
328.80 0.1131
328.90 0.1134
329.00 0.1137
329.10 0.1139
329.20 0.1142
329.30 0.1145
329.40 0.1147
329.50 0.115
329.60 0.1153
329.70 0.1155
329.80 0.1158
329.90 0.1161
330.00 0.1163
330.10 0.1166
330.20 0.1169
330.30 0.1172
330.40 0.1174
330.50 0.1177
330.60 0.118
330.70 0.1183
330.80 0.1185
330.90 0.1188
331.00 0.1191
331.10 0.1194
331.20 0.1196
331.30 0.1199
331.40 0.1202
331.50 0.1205
331.60 0.1207
331.70 0.121
331.80 0.1213
331.90 0.1215
332.00 0.1218
332.10 0.1221
332.20 0.1224
332.30 0.1227
332.40 0.123
332.50 0.1232
332.60 0.1235
332.70 0.1238
332.80 0.1241
332.90 0.1244
333.00 0.1247
333.10 0.1249
333.20 0.1252
333.30 0.1255
333.40 0.1258
333.50 0.1261
333.60 0.1263
333.70 0.1266
333.80 0.1269
333.90 0.1272
334.00 0.1275
334.10 0.1278
334.20 0.128
334.30 0.1283
334.40 0.1286
334.50 0.1289
334.60 0.1292
334.70 0.1295
334.80 0.1298
334.90 0.1301
335.00 0.1304
335.10 0.1307
335.20 0.131
335.30 0.1312
335.40 0.1315
335.50 0.1318
335.60 0.1321
335.70 0.1324
335.80 0.1327
335.90 0.133
336.00 0.1333
336.10 0.1336
336.20 0.1339
336.30 0.1342
336.40 0.1345
336.50 0.1348
336.60 0.1351
336.70 0.1354
336.80 0.1357
336.90 0.136
337.00 0.1363
337.10 0.1366
337.20 0.1369
337.30 0.1372
337.40 0.1375
337.50 0.1377
337.60 0.138
337.70 0.1383
337.80 0.1386
337.90 0.1389
338.00 0.1392
338.10 0.1395
338.20 0.1398
338.30 0.1402
338.40 0.1405
338.50 0.1408
338.60 0.1411
338.70 0.1414
338.80 0.1417
338.90 0.142
339.00 0.1423
339.10 0.1426
339.20 0.1429
339.30 0.1432
339.40 0.1435
339.50 0.1438
339.60 0.1441
339.70 0.1444
339.80 0.1447
339.90 0.145
340.00 0.1453
340.10 0.1457
340.20 0.146
340.30 0.1463
340.40 0.1466
340.50 0.1469
340.60 0.1472
340.70 0.1476
340.80 0.1479
340.90 0.1482
341.00 0.1485
341.10 0.1488
341.20 0.1491
341.30 0.1494
341.40 0.1498
341.50 0.1501
341.60 0.1504
341.70 0.1507
341.80 0.151
341.90 0.1513
342.00 0.1516
342.10 0.1519
342.20 0.1523
342.30 0.1526
342.40 0.1529
342.50 0.1532
342.60 0.1536
342.70 0.1539
342.80 0.1542
342.90 0.1545
343.00 0.1549
343.10 0.1552
343.20 0.1555
343.30 0.1558
343.40 0.1561
343.50 0.1565
343.60 0.1568
343.70 0.1571
343.80 0.1574
343.90 0.1577
344.00 0.1581
344.10 0.1584
344.20 0.1587
344.30 0.1591
344.40 0.1594
344.50 0.1597
344.60 0.16
344.70 0.1604
344.80 0.1607
344.90 0.161
345.00 0.1614
345.10 0.1617
345.20 0.162
345.30 0.1624
345.40 0.1627
345.50 0.163
345.60 0.1633
345.70 0.1637
345.80 0.164
345.90 0.1643
346.00 0.1646
346.10 0.165
346.20 0.1653
346.30 0.1657
346.40 0.166
346.50 0.1664
346.60 0.1667
346.70 0.167
346.80 0.1674
346.90 0.1677
347.00 0.168
347.10 0.1684
347.20 0.1687
347.30 0.1691
347.40 0.1694
347.50 0.1697
347.60 0.1701
347.70 0.1704
347.80 0.1707
347.90 0.1711
348.00 0.1714
348.10 0.1717
348.20 0.1721
348.30 0.1724
348.40 0.1728
348.50 0.1731
348.60 0.1735
348.70 0.1738
348.80 0.1742
348.90 0.1745
349.00 0.1749
349.10 0.1752
349.20 0.1756
349.30 0.1759
349.40 0.1763
349.50 0.1766
349.60 0.1769
349.70 0.1773
349.80 0.1776
349.90 0.178
350.00 0.1783
350.10 0.1787
350.20 0.179
350.30 0.1794
350.40 0.1797
350.50 0.1801
350.60 0.1805
350.70 0.1808
350.80 0.1812
350.90 0.1815
351.00 0.1819
351.10 0.1822
351.20 0.1826
351.30 0.1829
351.40 0.1833
351.50 0.1836
351.60 0.184
351.70 0.1843
351.80 0.1847
351.90 0.185
352.00 0.1854
352.10 0.1857
352.20 0.1861
352.30 0.1865
352.40 0.1868
352.50 0.1872
352.60 0.1876
352.70 0.1879
352.80 0.1883
352.90 0.1886
353.00 0.189
353.10 0.1894
353.20 0.1897
353.30 0.1901
353.40 0.1905
353.50 0.1908
353.60 0.1912
353.70 0.1915
353.80 0.1919
353.90 0.1922
354.00 0.1926
354.10 0.193
354.20 0.1933
354.30 0.1937
354.40 0.1941
354.50 0.1945
354.60 0.1948
354.70 0.1952
354.80 0.1956
354.90 0.1959
355.00 0.1963
355.10 0.1967
355.20 0.1971
355.30 0.1974
355.40 0.1978
355.50 0.1982
355.60 0.1985
355.70 0.1989
355.80 0.1993
355.90 0.1996
356.00 0.2
356.10 0.2004
356.20 0.2007
356.30 0.2011
356.40 0.2015
356.50 0.2019
356.60 0.2023
356.70 0.2026
356.80 0.203
356.90 0.2034
357.00 0.2038
357.10 0.2042
357.20 0.2045
357.30 0.2049
357.40 0.2053
357.50 0.2057
357.60 0.206
357.70 0.2064
357.80 0.2068
357.90 0.2072
358.00 0.2075
358.10 0.2079
358.20 0.2083
358.30 0.2087
358.40 0.2091
358.50 0.2095
358.60 0.2099
358.70 0.2102
358.80 0.2106
358.90 0.211
359.00 0.2114
359.10 0.2118
359.20 0.2122
359.30 0.2125
359.40 0.2129
359.50 0.2133
359.60 0.2137
359.70 0.2141
359.80 0.2145
359.90 0.2148
360.00 0.2152
360.10 0.2156
360.20 0.216
360.30 0.2164
360.40 0.2168
360.50 0.2172
360.60 0.2176
360.70 0.218
360.80 0.2184
360.90 0.2188
361.00 0.2192
361.10 0.2196
361.20 0.22
361.30 0.2203
361.40 0.2207
361.50 0.2211
361.60 0.2215
361.70 0.2219
361.80 0.2223
361.90 0.2227
362.00 0.2231
362.10 0.2235
362.20 0.2239
362.30 0.2243
362.40 0.2247
362.50 0.2251
362.60 0.2255
362.70 0.2259
362.80 0.2263
362.90 0.2267
363.00 0.2271
363.10 0.2275
363.20 0.2279
363.30 0.2283
363.40 0.2287
363.50 0.2291
363.60 0.2295
363.70 0.2299
363.80 0.2303
363.90 0.2307
364.00 0.2311
364.10 0.2315
364.20 0.2319
364.30 0.2323
364.40 0.2327
364.50 0.2331
364.60 0.2335
364.70 0.2339
364.80 0.2343
364.90 0.2347
365.00 0.2352
365.10 0.2356
365.20 0.236
365.30 0.2364
365.40 0.2368
365.50 0.2372
365.60 0.2376
365.70 0.238
365.80 0.2384
365.90 0.2388
366.00 0.2392
366.10 0.2397
366.20 0.2401
366.30 0.2405
366.40 0.2409
366.50 0.2413
366.60 0.2417
366.70 0.2422
366.80 0.2426
366.90 0.243
367.00 0.2434
367.10 0.2438
367.20 0.2442
367.30 0.2447
367.40 0.2451
367.50 0.2455
367.60 0.2459
367.70 0.2463
367.80 0.2467
367.90 0.2471
368.00 0.2475
368.10 0.248
368.20 0.2484
368.30 0.2488
368.40 0.2492
368.50 0.2497
368.60 0.2501
368.70 0.2505
368.80 0.2509
368.90 0.2514
369.00 0.2518
369.10 0.2522
369.20 0.2526
369.30 0.2531
369.40 0.2535
369.50 0.2539
369.60 0.2543
369.70 0.2547
369.80 0.2552
369.90 0.2556
370.00 0.256
370.10 0.2564
370.20 0.2569
370.30 0.2573
370.40 0.2577
370.50 0.2582
370.60 0.2586
370.70 0.259
370.80 0.2595
370.90 0.2599
371.00 0.2603
371.10 0.2607
371.20 0.2612
371.30 0.2616
371.40 0.262
371.50 0.2625
371.60 0.2629
371.70 0.2633
371.80 0.2637
371.90 0.2642
372.00 0.2646
372.10 0.265
372.20 0.2655
372.30 0.2659
372.40 0.2664
372.50 0.2668
372.60 0.2672
372.70 0.2677
372.80 0.2681
372.90 0.2686
373.00 0.269
373.10 0.2694
373.20 0.2699
373.30 0.2703
373.40 0.2707
373.50 0.2712
373.60 0.2716
373.70 0.272
373.80 0.2725
373.90 0.2729
374.00 0.2733
374.10 0.2738
374.20 0.2742
374.30 0.2747
374.40 0.2751
374.50 0.2756
374.60 0.276
374.70 0.2765
374.80 0.2769
374.90 0.2774
375.00 0.2778
375.10 0.2783
375.20 0.2787
375.30 0.2792
375.40 0.2796
375.50 0.28
375.60 0.2805
375.70 0.2809
375.80 0.2814
375.90 0.2818
376.00 0.2822
376.10 0.2827
376.20 0.2831
376.30 0.2836
376.40 0.284
376.50 0.2845
376.60 0.2849
376.70 0.2854
376.80 0.2858
376.90 0.2863
377.00 0.2867
377.10 0.2872
377.20 0.2877
377.30 0.2881
377.40 0.2886
377.50 0.289
377.60 0.2895
377.70 0.2899
377.80 0.2904
377.90 0.2908
378.00 0.2913
378.10 0.2917
378.20 0.2922
378.30 0.2927
378.40 0.2931
378.50 0.2936
378.60 0.294
378.70 0.2945
378.80 0.295
378.90 0.2954
379.00 0.2959
379.10 0.2963
379.20 0.2968
379.30 0.2973
379.40 0.2977
379.50 0.2982
379.60 0.2986
379.70 0.2991
379.80 0.2996
379.90 0.3
380.00 0.3005
380.10 0.3009
380.20 0.3014
380.30 0.3019
380.40 0.3023
380.50 0.3028
380.60 0.3033
380.70 0.3037
380.80 0.3042
380.90 0.3046
381.00 0.3051
381.10 0.3056
381.20 0.306
381.30 0.3065
381.40 0.307
381.50 0.3074
381.60 0.3079
381.70 0.3084
381.80 0.3088
381.90 0.3093
382.00 0.3098
382.10 0.3102
382.20 0.3107
382.30 0.3112
382.40 0.3117
382.50 0.3121
382.60 0.3126
382.70 0.3131
382.80 0.3136
382.90 0.314
383.00 0.3145
383.10 0.315
383.20 0.3154
383.30 0.3159
383.40 0.3164
383.50 0.3169
383.60 0.3173
383.70 0.3178
383.80 0.3183
383.90 0.3188
384.00 0.3192
384.10 0.3197
384.20 0.3202
384.30 0.3207
384.40 0.3211
384.50 0.3216
384.60 0.3221
384.70 0.3226
384.80 0.3231
384.90 0.3235
385.00 0.324
385.10 0.3245
385.20 0.325
385.30 0.3255
385.40 0.3259
385.50 0.3264
385.60 0.3269
385.70 0.3274
385.80 0.3279
385.90 0.3284
386.00 0.3288
386.10 0.3293
386.20 0.3298
386.30 0.3303
386.40 0.3308
386.50 0.3313
386.60 0.3317
386.70 0.3322
386.80 0.3327
386.90 0.3332
387.00 0.3337
387.10 0.3342
387.20 0.3347
387.30 0.3351
387.40 0.3356
387.50 0.3361
387.60 0.3366
387.70 0.3371
387.80 0.3376
387.90 0.3381
388.00 0.3386
388.10 0.3391
388.20 0.3396
388.30 0.34
388.40 0.3405
388.50 0.341
388.60 0.3415
388.70 0.342
388.80 0.3425
388.90 0.343
389.00 0.3435
389.10 0.344
389.20 0.3445
389.30 0.345
389.40 0.3455
389.50 0.346
389.60 0.3464
389.70 0.3469
389.80 0.3474
389.90 0.3479
390.00 0.3484
390.10 0.3489
390.20 0.3494
390.30 0.3499
390.40 0.3504
390.50 0.3509
390.60 0.3514
390.70 0.3519
390.80 0.3524
390.90 0.3529
391.00 0.3534
391.10 0.3539
391.20 0.3544
391.30 0.3549
391.40 0.3554
391.50 0.3559
391.60 0.3564
391.70 0.3569
391.80 0.3574
391.90 0.3579
392.00 0.3584
392.10 0.3589
392.20 0.3594
392.30 0.3599
392.40 0.3604
392.50 0.3609
392.60 0.3614
392.70 0.362
392.80 0.3625
392.90 0.363
393.00 0.3635
393.10 0.364
393.20 0.3645
393.30 0.365
393.40 0.3655
393.50 0.366
393.60 0.3665
393.70 0.367
393.80 0.3675
393.90 0.368
394.00 0.3685
394.10 0.3691
394.20 0.3696
394.30 0.3701
394.40 0.3706
394.50 0.3711
394.60 0.3716
394.70 0.3721
394.80 0.3726
394.90 0.3731
395.00 0.3736
395.10 0.3742
395.20 0.3747
395.30 0.3752
395.40 0.3757
395.50 0.3762
395.60 0.3767
395.70 0.3772
395.80 0.3778
395.90 0.3783
396.00 0.3788
396.10 0.3793
396.20 0.3798
396.30 0.3803
396.40 0.3809
396.50 0.3814
396.60 0.3819
396.70 0.3824
396.80 0.3829
396.90 0.3834
397.00 0.384
397.10 0.3845
397.20 0.385
397.30 0.3855
397.40 0.386
397.50 0.3866
397.60 0.3871
397.70 0.3876
397.80 0.3881
397.90 0.3886
398.00 0.3892
398.10 0.3897
398.20 0.3902
398.30 0.3907
398.40 0.3912
398.50 0.3918
398.60 0.3923
398.70 0.3928
398.80 0.3933
398.90 0.3939
399.00 0.3944
399.10 0.3949
399.20 0.3954
399.30 0.396
399.40 0.3965
399.50 0.397
399.60 0.3975
399.70 0.3981
399.80 0.3986
399.90 0.3991
400.00 0.3996
400.10 0.4002
400.20 0.4007
400.30 0.4012
400.40 0.4018
400.50 0.4023
400.60 0.4028
400.70 0.4033
400.80 0.4039
400.90 0.4044
401.00 0.4049
401.10 0.4055
401.20 0.406
401.30 0.4065
401.40 0.4071
401.50 0.4076
401.60 0.4081
401.70 0.4087
401.80 0.4092
401.90 0.4097
402.00 0.4102
402.10 0.4108
402.20 0.4113
402.30 0.4118
402.40 0.4124
402.50 0.4129
402.60 0.4135
402.70 0.414
402.80 0.4145
402.90 0.4151
403.00 0.4156
403.10 0.4161
403.20 0.4167
403.30 0.4172
403.40 0.4177
403.50 0.4183
403.60 0.4188
403.70 0.4194
403.80 0.4199
403.90 0.4204
404.00 0.421
404.10 0.4215
404.20 0.4221
404.30 0.4226
404.40 0.4231
404.50 0.4237
404.60 0.4242
404.70 0.4247
404.80 0.4253
404.90 0.4258
405.00 0.4264
405.10 0.4269
405.20 0.4275
405.30 0.428
405.40 0.4285
405.50 0.4291
405.60 0.4296
405.70 0.4302
405.80 0.4307
405.90 0.4313
406.00 0.4318
406.10 0.4324
406.20 0.4329
406.30 0.4334
406.40 0.434
406.50 0.4345
406.60 0.4351
406.70 0.4356
406.80 0.4362
406.90 0.4367
407.00 0.4373
407.10 0.4378
407.20 0.4384
407.30 0.4389
407.40 0.4395
407.50 0.44
407.60 0.4406
407.70 0.4411
407.80 0.4417
407.90 0.4422
408.00 0.4428
408.10 0.4433
408.20 0.4439
408.30 0.4444
408.40 0.4449
408.50 0.4455
408.60 0.4461
408.70 0.4466
408.80 0.4472
408.90 0.4477
409.00 0.4483
409.10 0.4488
409.20 0.4494
409.30 0.4499
409.40 0.4505
409.50 0.451
409.60 0.4516
409.70 0.4521
409.80 0.4527
409.90 0.4532
410.00 0.4538
410.10 0.4544
410.20 0.4549
410.30 0.4555
410.40 0.456
410.50 0.4566
410.60 0.4571
410.70 0.4577
410.80 0.4583
410.90 0.4588
411.00 0.4594
411.10 0.4599
411.20 0.4605
411.30 0.461
411.40 0.4616
411.50 0.4622
411.60 0.4627
411.70 0.4633
411.80 0.4638
411.90 0.4644
412.00 0.465
412.10 0.4655
412.20 0.4661
412.30 0.4666
412.40 0.4672
412.50 0.4678
412.60 0.4683
412.70 0.4689
412.80 0.4695
412.90 0.47
413.00 0.4706
413.10 0.4711
413.20 0.4717
413.30 0.4723
413.40 0.4728
413.50 0.4734
413.60 0.474
413.70 0.4745
413.80 0.4751
413.90 0.4757
414.00 0.4762
414.10 0.4768
414.20 0.4774
414.30 0.4779
414.40 0.4785
414.50 0.479
414.60 0.4796
414.70 0.4802
414.80 0.4807
414.90 0.4813
415.00 0.4819
415.10 0.4825
415.20 0.483
415.30 0.4836
415.40 0.4842
415.50 0.4847
415.60 0.4853
415.70 0.4859
415.80 0.4864
415.90 0.487
416.00 0.4876
416.10 0.4881
416.20 0.4887
416.30 0.4893
416.40 0.4899
416.50 0.4904
416.60 0.491
416.70 0.4916
416.80 0.4921
416.90 0.4927
417.00 0.4933
417.10 0.4939
417.20 0.4944
417.30 0.495
417.40 0.4956
417.50 0.4962
417.60 0.4967
417.70 0.4973
417.80 0.4979
417.90 0.4985
418.00 0.499
418.10 0.4996
418.20 0.5002
418.30 0.5008
418.40 0.5013
418.50 0.5019
418.60 0.5025
418.70 0.5031
418.80 0.5036
418.90 0.5042
419.00 0.5048
419.10 0.5054
419.20 0.5059
419.30 0.5065
419.40 0.5071
419.50 0.5077
419.60 0.5083
419.70 0.5088
419.80 0.5094
419.90 0.51
420.00 0.5106
420.10 0.5112
420.20 0.5117
420.30 0.5123
420.40 0.5129
420.50 0.5135
420.60 0.5141
420.70 0.5146
420.80 0.5152
420.90 0.5158
421.00 0.5164
421.10 0.517
421.20 0.5175
421.30 0.5181
421.40 0.5187
421.50 0.5193
421.60 0.5199
421.70 0.5205
421.80 0.521
421.90 0.5216
422.00 0.5222
422.10 0.5228
422.20 0.5234
422.30 0.524
422.40 0.5245
422.50 0.5251
422.60 0.5257
422.70 0.5263
422.80 0.5269
422.90 0.5275
423.00 0.5281
423.10 0.5286
423.20 0.5292
423.30 0.5298
423.40 0.5304
423.50 0.531
423.60 0.5316
423.70 0.5322
423.80 0.5328
423.90 0.5333
424.00 0.5339
424.10 0.5345
424.20 0.5351
424.30 0.5357
424.40 0.5363
424.50 0.5369
424.60 0.5375
424.70 0.5381
424.80 0.5386
424.90 0.5392
425.00 0.5398
425.10 0.5404
425.20 0.541
425.30 0.5416
425.40 0.5422
425.50 0.5428
425.60 0.5434
425.70 0.544
425.80 0.5446
425.90 0.5451
426.00 0.5457
426.10 0.5463
426.20 0.5469
426.30 0.5475
426.40 0.5481
426.50 0.5487
426.60 0.5493
426.70 0.5499
426.80 0.5505
426.90 0.5511
427.00 0.5517
427.10 0.5523
427.20 0.5529
427.30 0.5535
427.40 0.554
427.50 0.5546
427.60 0.5552
427.70 0.5558
427.80 0.5564
427.90 0.557
428.00 0.5576
428.10 0.5582
428.20 0.5588
428.30 0.5594
428.40 0.56
428.50 0.5606
428.60 0.5612
428.70 0.5618
428.80 0.5624
428.90 0.563
429.00 0.5636
429.10 0.5642
429.20 0.5648
429.30 0.5654
429.40 0.566
429.50 0.5666
429.60 0.5672
429.70 0.5678
429.80 0.5684
429.90 0.569
430.00 0.5696
430.10 0.5702
430.20 0.5708
430.30 0.5714
430.40 0.572
430.50 0.5726
430.60 0.5732
430.70 0.5738
430.80 0.5744
430.90 0.575
431.00 0.5756
431.10 0.5762
431.20 0.5768
431.30 0.5774
431.40 0.578
431.50 0.5786
431.60 0.5792
431.70 0.5798
431.80 0.5804
431.90 0.581
432.00 0.5816
432.10 0.5822
432.20 0.5828
432.30 0.5834
432.40 0.584
432.50 0.5846
432.60 0.5852
432.70 0.5858
432.80 0.5865
432.90 0.5871
433.00 0.5877
433.10 0.5883
433.20 0.5889
433.30 0.5895
433.40 0.5901
433.50 0.5907
433.60 0.5913
433.70 0.5919
433.80 0.5925
433.90 0.5931
434.00 0.5937
434.10 0.5943
434.20 0.5949
434.30 0.5955
434.40 0.5961
434.50 0.5968
434.60 0.5974
434.70 0.598
434.80 0.5986
434.90 0.5992
435.00 0.5998
435.10 0.6004
435.20 0.601
435.30 0.6016
435.40 0.6022
435.50 0.6028
435.60 0.6035
435.70 0.6041
435.80 0.6047
435.90 0.6053
436.00 0.6059
436.10 0.6065
436.20 0.6071
436.30 0.6077
436.40 0.6083
436.50 0.6089
436.60 0.6096
436.70 0.6102
436.80 0.6108
436.90 0.6114
437.00 0.612
437.10 0.6126
437.20 0.6132
437.30 0.6138
437.40 0.6145
437.50 0.6151
437.60 0.6157
437.70 0.6163
437.80 0.6169
437.90 0.6175
438.00 0.6181
438.10 0.6187
438.20 0.6194
438.30 0.62
438.40 0.6206
438.50 0.6212
438.60 0.6218
438.70 0.6224
438.80 0.623
438.90 0.6237
439.00 0.6243
439.10 0.6249
439.20 0.6255
439.30 0.6261
439.40 0.6267
439.50 0.6273
439.60 0.628
439.70 0.6286
439.80 0.6292
439.90 0.6298
440.00 0.6304
440.10 0.631
440.20 0.6316
440.30 0.6323
440.40 0.6329
440.50 0.6335
440.60 0.6341
440.70 0.6347
440.80 0.6353
440.90 0.636
441.00 0.6366
441.10 0.6372
441.20 0.6378
441.30 0.6384
441.40 0.6391
