# Version 2.1 - nm, norm@500 to 1, cut digits, bergeron_25000_65.dat_25000
# Wavelength(nm)  Flambda(ergs/cm^s/s/nm)
300.00 4.051
300.10 4.047
300.20 4.043
300.30 4.038
300.40 4.034
300.50 4.03
300.60 4.026
300.70 4.021
300.80 4.017
300.90 4.013
301.00 4.009
301.10 4.005
301.20 4
301.30 3.996
301.40 3.992
301.50 3.988
301.60 3.984
301.70 3.98
301.80 3.975
301.90 3.971
302.00 3.967
302.10 3.963
302.20 3.959
302.30 3.955
302.40 3.951
302.50 3.947
302.60 3.942
302.70 3.938
302.80 3.934
302.90 3.93
303.00 3.926
303.10 3.922
303.20 3.918
303.30 3.914
303.40 3.91
303.50 3.906
303.60 3.902
303.70 3.898
303.80 3.893
303.90 3.889
304.00 3.885
304.10 3.881
304.20 3.877
304.30 3.873
304.40 3.869
304.50 3.865
304.60 3.861
304.70 3.857
304.80 3.853
304.90 3.849
305.00 3.845
305.10 3.841
305.20 3.837
305.30 3.833
305.40 3.83
305.50 3.826
305.60 3.822
305.70 3.818
305.80 3.814
305.90 3.81
306.00 3.806
306.10 3.802
306.20 3.798
306.30 3.794
306.40 3.79
306.50 3.786
306.60 3.782
306.70 3.779
306.80 3.775
306.90 3.771
307.00 3.767
307.10 3.763
307.20 3.759
307.30 3.755
307.40 3.751
307.50 3.748
307.60 3.744
307.70 3.74
307.80 3.736
307.90 3.732
308.00 3.728
308.10 3.725
308.20 3.721
308.30 3.717
308.40 3.713
308.50 3.709
308.60 3.706
308.70 3.702
308.80 3.698
308.90 3.694
309.00 3.69
309.10 3.687
309.20 3.683
309.30 3.679
309.40 3.675
309.50 3.672
309.60 3.668
309.70 3.664
309.80 3.66
309.90 3.657
310.00 3.653
310.10 3.649
310.20 3.645
310.30 3.642
310.40 3.638
310.50 3.634
310.60 3.631
310.70 3.627
310.80 3.623
310.90 3.62
311.00 3.616
311.10 3.612
311.20 3.609
311.30 3.605
311.40 3.601
311.50 3.598
311.60 3.594
311.70 3.59
311.80 3.587
311.90 3.583
312.00 3.579
312.10 3.576
312.20 3.572
312.30 3.569
312.40 3.565
312.50 3.561
312.60 3.558
312.70 3.554
312.80 3.551
312.90 3.547
313.00 3.543
313.10 3.54
313.20 3.536
313.30 3.533
313.40 3.529
313.50 3.526
313.60 3.522
313.70 3.518
313.80 3.515
313.90 3.511
314.00 3.508
314.10 3.504
314.20 3.501
314.30 3.497
314.40 3.494
314.50 3.49
314.60 3.487
314.70 3.483
314.80 3.48
314.90 3.476
315.00 3.473
315.10 3.469
315.20 3.466
315.30 3.462
315.40 3.459
315.50 3.455
315.60 3.452
315.70 3.448
315.80 3.445
315.90 3.441
316.00 3.438
316.10 3.435
316.20 3.431
316.30 3.428
316.40 3.424
316.50 3.421
316.60 3.417
316.70 3.414
316.80 3.411
316.90 3.407
317.00 3.404
317.10 3.4
317.20 3.397
317.30 3.394
317.40 3.39
317.50 3.387
317.60 3.383
317.70 3.38
317.80 3.377
317.90 3.373
318.00 3.37
318.10 3.367
318.20 3.363
318.30 3.36
318.40 3.357
318.50 3.353
318.60 3.35
318.70 3.347
318.80 3.343
318.90 3.34
319.00 3.337
319.10 3.333
319.20 3.33
319.30 3.327
319.40 3.323
319.50 3.32
319.60 3.317
319.70 3.314
319.80 3.31
319.90 3.307
320.00 3.304
320.10 3.3
320.20 3.297
320.30 3.294
320.40 3.291
320.50 3.287
320.60 3.284
320.70 3.281
320.80 3.278
320.90 3.274
321.00 3.271
321.10 3.268
321.20 3.265
321.30 3.262
321.40 3.258
321.50 3.255
321.60 3.252
321.70 3.249
321.80 3.246
321.90 3.242
322.00 3.239
322.10 3.236
322.20 3.233
322.30 3.23
322.40 3.226
322.50 3.223
322.60 3.22
322.70 3.217
322.80 3.214
322.90 3.211
323.00 3.207
323.10 3.204
323.20 3.201
323.30 3.198
323.40 3.195
323.50 3.192
323.60 3.189
323.70 3.185
323.80 3.182
323.90 3.179
324.00 3.176
324.10 3.173
324.20 3.17
324.30 3.167
324.40 3.164
324.50 3.161
324.60 3.157
324.70 3.154
324.80 3.151
324.90 3.148
325.00 3.145
325.10 3.142
325.20 3.139
325.30 3.136
325.40 3.133
325.50 3.13
325.60 3.127
325.70 3.124
325.80 3.121
325.90 3.118
326.00 3.115
326.10 3.112
326.20 3.109
326.30 3.106
326.40 3.103
326.50 3.1
326.60 3.097
326.70 3.094
326.80 3.091
326.90 3.088
327.00 3.085
327.10 3.082
327.20 3.079
327.30 3.076
327.40 3.073
327.50 3.07
327.60 3.067
327.70 3.064
327.80 3.061
327.90 3.058
328.00 3.055
328.10 3.052
328.20 3.049
328.30 3.046
328.40 3.043
328.50 3.04
328.60 3.037
328.70 3.034
328.80 3.031
328.90 3.028
329.00 3.025
329.10 3.022
329.20 3.019
329.30 3.017
329.40 3.014
329.50 3.011
329.60 3.008
329.70 3.005
329.80 3.002
329.90 2.999
330.00 2.996
330.10 2.993
330.20 2.991
330.30 2.988
330.40 2.985
330.50 2.982
330.60 2.979
330.70 2.976
330.80 2.973
330.90 2.97
331.00 2.968
331.10 2.965
331.20 2.962
331.30 2.959
331.40 2.956
331.50 2.953
331.60 2.951
331.70 2.948
331.80 2.945
331.90 2.942
332.00 2.939
332.10 2.936
332.20 2.934
332.30 2.931
332.40 2.928
332.50 2.925
332.60 2.922
332.70 2.92
332.80 2.917
332.90 2.914
333.00 2.911
333.10 2.909
333.20 2.906
333.30 2.903
333.40 2.9
333.50 2.897
333.60 2.895
333.70 2.892
333.80 2.889
333.90 2.886
334.00 2.884
334.10 2.881
334.20 2.878
334.30 2.875
334.40 2.873
334.50 2.87
334.60 2.867
334.70 2.864
334.80 2.862
334.90 2.859
335.00 2.856
335.10 2.854
335.20 2.851
335.30 2.848
335.40 2.845
335.50 2.843
335.60 2.84
335.70 2.837
335.80 2.835
335.90 2.832
336.00 2.829
336.10 2.827
336.20 2.824
336.30 2.821
336.40 2.819
336.50 2.816
336.60 2.813
336.70 2.811
336.80 2.808
336.90 2.805
337.00 2.803
337.10 2.8
337.20 2.797
337.30 2.795
337.40 2.792
337.50 2.789
337.60 2.787
337.70 2.784
337.80 2.782
337.90 2.779
338.00 2.776
338.10 2.774
338.20 2.771
338.30 2.768
338.40 2.766
338.50 2.763
338.60 2.761
338.70 2.758
338.80 2.756
338.90 2.753
339.00 2.75
339.10 2.748
339.20 2.745
339.30 2.743
339.40 2.74
339.50 2.737
339.60 2.735
339.70 2.732
339.80 2.73
339.90 2.727
340.00 2.725
340.10 2.722
340.20 2.719
340.30 2.717
340.40 2.714
340.50 2.712
340.60 2.709
340.70 2.707
340.80 2.704
340.90 2.702
341.00 2.699
341.10 2.697
341.20 2.694
341.30 2.692
341.40 2.689
341.50 2.687
341.60 2.684
341.70 2.682
341.80 2.679
341.90 2.677
342.00 2.674
342.10 2.672
342.20 2.669
342.30 2.667
342.40 2.664
342.50 2.662
342.60 2.659
342.70 2.657
342.80 2.654
342.90 2.652
343.00 2.649
343.10 2.647
343.20 2.644
343.30 2.642
343.40 2.639
343.50 2.637
343.60 2.635
343.70 2.632
343.80 2.63
343.90 2.627
344.00 2.625
344.10 2.622
344.20 2.62
344.30 2.617
344.40 2.615
344.50 2.613
344.60 2.61
344.70 2.608
344.80 2.605
344.90 2.603
345.00 2.601
345.10 2.598
345.20 2.596
345.30 2.593
345.40 2.591
345.50 2.589
345.60 2.586
345.70 2.584
345.80 2.581
345.90 2.579
346.00 2.577
346.10 2.574
346.20 2.572
346.30 2.57
346.40 2.567
346.50 2.565
346.60 2.562
346.70 2.56
346.80 2.558
346.90 2.555
347.00 2.553
347.10 2.551
347.20 2.548
347.30 2.546
347.40 2.544
347.50 2.541
347.60 2.539
347.70 2.537
347.80 2.534
347.90 2.532
348.00 2.53
348.10 2.527
348.20 2.525
348.30 2.523
348.40 2.52
348.50 2.518
348.60 2.516
348.70 2.513
348.80 2.511
348.90 2.509
349.00 2.507
349.10 2.504
349.20 2.502
349.30 2.5
349.40 2.497
349.50 2.495
349.60 2.493
349.70 2.49
349.80 2.488
349.90 2.486
350.00 2.484
350.10 2.481
350.20 2.479
350.30 2.477
350.40 2.475
350.50 2.472
350.60 2.47
350.70 2.468
350.80 2.466
350.90 2.463
351.00 2.461
351.10 2.459
351.20 2.457
351.30 2.454
351.40 2.452
351.50 2.45
351.60 2.448
351.70 2.445
351.80 2.443
351.90 2.441
352.00 2.439
352.10 2.437
352.20 2.434
352.30 2.432
352.40 2.43
352.50 2.428
352.60 2.426
352.70 2.423
352.80 2.421
352.90 2.419
353.00 2.417
353.10 2.415
353.20 2.412
353.30 2.41
353.40 2.408
353.50 2.406
353.60 2.404
353.70 2.401
353.80 2.399
353.90 2.397
354.00 2.395
354.10 2.393
354.20 2.391
354.30 2.388
354.40 2.386
354.50 2.384
354.60 2.382
354.70 2.38
354.80 2.378
354.90 2.376
355.00 2.373
355.10 2.371
355.20 2.369
355.30 2.367
355.40 2.365
355.50 2.363
355.60 2.361
355.70 2.358
355.80 2.356
355.90 2.354
356.00 2.352
356.10 2.35
356.20 2.348
356.30 2.346
356.40 2.344
356.50 2.342
356.60 2.339
356.70 2.337
356.80 2.335
356.90 2.333
357.00 2.331
357.10 2.329
357.20 2.327
357.30 2.325
357.40 2.323
357.50 2.321
357.60 2.319
357.70 2.316
357.80 2.314
357.90 2.312
358.00 2.31
358.10 2.308
358.20 2.306
358.30 2.304
358.40 2.302
358.50 2.3
358.60 2.298
358.70 2.296
358.80 2.294
358.90 2.292
359.00 2.29
359.10 2.288
359.20 2.286
359.30 2.284
359.40 2.282
359.50 2.279
359.60 2.277
359.70 2.275
359.80 2.273
359.90 2.271
360.00 2.269
360.10 2.267
360.20 2.265
360.30 2.263
360.40 2.261
360.50 2.259
360.60 2.257
360.70 2.255
360.80 2.253
360.90 2.251
361.00 2.249
361.10 2.247
361.20 2.245
361.30 2.243
361.40 2.241
361.50 2.239
361.60 2.237
361.70 2.235
361.80 2.233
361.90 2.231
362.00 2.229
362.10 2.227
362.20 2.225
362.30 2.223
362.40 2.221
362.50 2.219
362.60 2.218
362.70 2.216
362.80 2.214
362.90 2.212
363.00 2.21
363.10 2.208
363.20 2.206
363.30 2.204
363.40 2.202
363.50 2.2
363.60 2.198
363.70 2.196
363.80 2.194
363.90 2.192
364.00 2.19
364.10 2.188
364.20 2.186
364.30 2.184
364.40 2.183
364.50 2.181
364.60 2.179
364.70 2.177
364.80 2.175
364.90 2.173
365.00 2.171
365.10 2.169
365.20 2.167
365.30 2.165
365.40 2.163
365.50 2.161
365.60 2.16
365.70 2.158
365.80 2.156
365.90 2.154
366.00 2.152
366.10 2.15
366.20 2.147
366.30 2.145
366.40 2.143
366.50 2.14
366.60 2.138
366.70 2.136
366.80 2.133
366.90 2.131
367.00 2.129
367.10 2.127
367.20 2.124
367.30 2.122
367.40 2.12
367.50 2.117
367.60 2.115
367.70 2.113
367.80 2.111
367.90 2.108
368.00 2.106
368.10 2.104
368.20 2.102
368.30 2.1
368.40 2.098
368.50 2.096
368.60 2.093
368.70 2.091
368.80 2.089
368.90 2.087
369.00 2.085
369.10 2.083
369.20 2.081
369.30 2.079
369.40 2.077
369.50 2.075
369.60 2.072
369.70 2.07
369.80 2.068
369.90 2.066
370.00 2.064
370.10 2.063
370.20 2.061
370.30 2.059
370.40 2.058
370.50 2.056
370.60 2.054
370.70 2.053
370.80 2.051
370.90 2.049
371.00 2.048
371.10 2.046
371.20 2.044
371.30 2.043
371.40 2.041
371.50 2.039
371.60 2.038
371.70 2.036
371.80 2.034
371.90 2.033
372.00 2.031
372.10 2.031
372.20 2.03
372.30 2.029
372.40 2.029
372.50 2.028
372.60 2.027
372.70 2.027
372.80 2.026
372.90 2.026
373.00 2.025
373.10 2.024
373.20 2.024
373.30 2.023
373.40 2.023
373.50 2.022
373.60 2.021
373.70 2.021
373.80 2.02
373.90 2.02
374.00 2.019
374.10 2.019
374.20 2.018
374.30 2.018
374.40 2.017
374.50 2.017
374.60 2.017
374.70 2.016
374.80 2.016
374.90 2.016
375.00 2.015
375.10 2.015
375.20 2.015
375.30 2.014
375.40 2.014
375.50 2.014
375.60 2.013
375.70 2.013
375.80 2.012
375.90 2.012
376.00 2.012
376.10 2.001
376.20 1.99
376.30 1.98
376.40 1.969
376.50 1.959
376.60 1.948
376.70 1.938
376.80 1.927
376.90 1.916
377.00 1.906
377.10 1.917
377.20 1.928
377.30 1.939
377.40 1.95
377.50 1.961
377.60 1.971
377.70 1.982
377.80 1.993
377.90 2.004
378.00 2.015
378.10 2.008
378.20 2.002
378.30 1.995
378.40 1.989
378.50 1.982
378.60 1.976
378.70 1.969
378.80 1.963
378.90 1.957
379.00 1.95
379.10 1.935
379.20 1.921
379.30 1.906
379.40 1.892
379.50 1.877
379.60 1.863
379.70 1.848
379.80 1.834
379.90 1.819
380.00 1.805
380.10 1.827
380.20 1.85
380.30 1.872
380.40 1.895
380.50 1.917
380.60 1.939
380.70 1.962
380.80 1.984
380.90 2.006
381.00 2.028
381.10 2.035
381.20 2.041
381.30 2.047
381.40 2.053
381.50 2.059
381.60 2.058
381.70 2.054
381.80 2.048
381.90 2.04
382.00 2.028
382.10 2.014
382.20 1.998
382.30 1.965
382.40 1.933
382.50 1.901
382.60 1.869
382.70 1.837
382.80 1.805
382.90 1.773
383.00 1.741
383.10 1.709
383.20 1.677
383.30 1.63
383.40 1.583
383.50 1.536
383.60 1.545
383.70 1.592
383.80 1.638
383.90 1.683
384.00 1.726
384.10 1.766
384.20 1.804
384.30 1.84
384.40 1.874
384.50 1.905
384.60 1.934
384.70 1.961
384.80 1.986
384.90 2.009
385.00 2.029
385.10 2.047
385.20 2.064
385.30 2.079
385.40 2.091
385.50 2.102
385.60 2.112
385.70 2.119
385.80 2.124
385.90 2.128
386.00 2.13
386.10 2.13
386.20 2.129
386.30 2.126
386.40 2.121
386.50 2.114
386.60 2.105
386.70 2.095
386.80 2.083
386.90 2.069
387.00 2.052
387.10 2.035
387.20 2.014
387.30 1.991
387.40 1.967
387.50 1.94
387.60 1.91
387.70 1.879
387.80 1.844
387.90 1.808
388.00 1.769
388.10 1.727
388.20 1.682
388.30 1.636
388.40 1.586
388.50 1.533
388.60 1.478
388.70 1.418
388.80 1.36
388.90 1.305
389.00 1.354
389.10 1.409
389.20 1.467
389.30 1.52
389.40 1.571
389.50 1.619
389.60 1.664
389.70 1.706
389.80 1.747
389.90 1.784
390.00 1.819
390.10 1.852
390.20 1.882
390.30 1.911
390.40 1.938
390.50 1.962
390.60 1.985
390.70 2.007
390.80 2.026
390.90 2.044
391.00 2.061
391.10 2.076
391.20 2.089
391.30 2.102
391.40 2.113
391.50 2.123
391.60 2.133
391.70 2.141
391.80 2.148
391.90 2.154
392.00 2.16
392.10 2.164
392.20 2.168
392.30 2.171
392.40 2.173
392.50 2.175
392.60 2.176
392.70 2.176
392.80 2.176
392.90 2.174
393.00 2.172
393.10 2.17
393.20 2.167
393.30 2.163
393.40 2.158
393.50 2.153
393.60 2.147
393.70 2.14
393.80 2.133
393.90 2.124
394.00 2.115
394.10 2.105
394.20 2.094
394.30 2.083
394.40 2.07
394.50 2.056
394.60 2.041
394.70 2.024
394.80 2.006
394.90 1.988
395.00 1.967
395.10 1.945
395.20 1.922
395.30 1.896
395.40 1.869
395.50 1.841
395.60 1.809
395.70 1.777
395.80 1.742
395.90 1.705
396.00 1.666
396.10 1.625
396.20 1.581
396.30 1.534
396.40 1.487
396.50 1.434
396.60 1.38
396.70 1.323
396.80 1.256
396.90 1.182
397.00 1.1
397.10 1.174
397.20 1.243
397.30 1.309
397.40 1.365
397.50 1.418
397.60 1.468
397.70 1.514
397.80 1.558
397.90 1.599
398.00 1.638
398.10 1.674
398.20 1.709
398.30 1.741
398.40 1.771
398.50 1.799
398.60 1.825
398.70 1.849
398.80 1.872
398.90 1.893
399.00 1.912
399.10 1.93
399.20 1.946
399.30 1.962
399.40 1.976
399.50 1.988
399.60 2
399.70 2.011
399.80 2.021
399.90 2.03
400.00 2.038
400.10 2.046
400.20 2.053
400.30 2.059
400.40 2.065
400.50 2.07
400.60 2.074
400.70 2.078
400.80 2.082
400.90 2.086
401.00 2.088
401.10 2.091
401.20 2.093
401.30 2.095
401.40 2.097
401.50 2.099
401.60 2.1
401.70 2.101
401.80 2.101
401.90 2.102
402.00 2.102
402.10 2.103
402.20 2.103
402.30 2.102
402.40 2.102
402.50 2.102
402.60 2.101
402.70 2.101
402.80 2.1
402.90 2.099
403.00 2.098
403.10 2.097
403.20 2.095
403.30 2.094
403.40 2.092
403.50 2.091
403.60 2.089
403.70 2.087
403.80 2.085
403.90 2.083
404.00 2.081
404.10 2.079
404.20 2.077
404.30 2.074
404.40 2.072
404.50 2.069
404.60 2.066
404.70 2.063
404.80 2.06
404.90 2.057
405.00 2.054
405.10 2.05
405.20 2.046
405.30 2.043
405.40 2.039
405.50 2.034
405.60 2.03
405.70 2.025
405.80 2.02
405.90 2.015
406.00 2.009
406.10 2.003
406.20 1.997
406.30 1.991
406.40 1.984
406.50 1.977
406.60 1.969
406.70 1.961
406.80 1.952
406.90 1.943
407.00 1.933
407.10 1.923
407.20 1.912
407.30 1.9
407.40 1.888
407.50 1.875
407.60 1.861
407.70 1.846
407.80 1.831
407.90 1.814
408.00 1.796
408.10 1.777
408.20 1.757
408.30 1.735
408.40 1.713
408.50 1.688
408.60 1.663
408.70 1.636
408.80 1.606
408.90 1.575
409.00 1.543
409.10 1.509
409.20 1.472
409.30 1.434
409.40 1.393
409.50 1.351
409.60 1.306
409.70 1.258
409.80 1.206
409.90 1.15
410.00 1.08
410.10 1.012
410.20 0.9456
410.30 1.038
410.40 1.115
410.50 1.177
410.60 1.227
410.70 1.275
410.80 1.32
410.90 1.36
411.00 1.399
411.10 1.437
411.20 1.471
411.30 1.504
411.40 1.535
411.50 1.563
411.60 1.59
411.70 1.615
411.80 1.638
411.90 1.66
412.00 1.68
412.10 1.699
412.20 1.716
412.30 1.733
412.40 1.747
412.50 1.761
412.60 1.774
412.70 1.785
412.80 1.796
412.90 1.807
413.00 1.816
413.10 1.824
413.20 1.832
413.30 1.839
413.40 1.846
413.50 1.852
413.60 1.857
413.70 1.862
413.80 1.867
413.90 1.871
414.00 1.875
414.10 1.878
414.20 1.881
414.30 1.884
414.40 1.886
414.50 1.888
414.60 1.89
414.70 1.892
414.80 1.893
414.90 1.894
415.00 1.895
415.10 1.896
415.20 1.897
415.30 1.898
415.40 1.898
415.50 1.898
415.60 1.899
415.70 1.899
415.80 1.899
415.90 1.898
416.00 1.898
416.10 1.898
416.20 1.898
416.30 1.897
416.40 1.897
416.50 1.896
416.60 1.896
416.70 1.895
416.80 1.894
416.90 1.894
417.00 1.893
417.10 1.892
417.20 1.891
417.30 1.89
417.40 1.889
417.50 1.888
417.60 1.887
417.70 1.886
417.80 1.885
417.90 1.884
418.00 1.883
418.10 1.882
418.20 1.881
418.30 1.88
418.40 1.879
418.50 1.877
418.60 1.876
418.70 1.875
418.80 1.874
418.90 1.872
419.00 1.871
419.10 1.87
419.20 1.869
419.30 1.867
419.40 1.866
419.50 1.865
419.60 1.863
419.70 1.862
419.80 1.861
419.90 1.859
420.00 1.858
420.10 1.856
420.20 1.855
420.30 1.854
420.40 1.852
420.50 1.851
420.60 1.849
420.70 1.848
420.80 1.846
420.90 1.845
421.00 1.843
421.10 1.842
421.20 1.841
421.30 1.839
421.40 1.838
421.50 1.836
421.60 1.835
421.70 1.833
421.80 1.832
421.90 1.83
422.00 1.828
422.10 1.827
422.20 1.825
422.30 1.824
422.40 1.822
422.50 1.821
422.60 1.819
422.70 1.818
422.80 1.816
422.90 1.814
423.00 1.813
423.10 1.811
423.20 1.81
423.30 1.808
423.40 1.806
423.50 1.805
423.60 1.803
423.70 1.801
423.80 1.8
423.90 1.798
424.00 1.796
424.10 1.795
424.20 1.793
424.30 1.791
424.40 1.79
424.50 1.788
424.60 1.786
424.70 1.784
424.80 1.783
424.90 1.781
425.00 1.779
425.10 1.777
425.20 1.776
425.30 1.774
425.40 1.772
425.50 1.77
425.60 1.768
425.70 1.766
425.80 1.765
425.90 1.763
426.00 1.761
426.10 1.759
426.20 1.757
426.30 1.755
426.40 1.753
426.50 1.751
426.60 1.749
426.70 1.747
426.80 1.745
426.90 1.742
427.00 1.74
427.10 1.738
427.20 1.736
427.30 1.733
427.40 1.731
427.50 1.729
427.60 1.726
427.70 1.724
427.80 1.721
427.90 1.719
428.00 1.716
428.10 1.714
428.20 1.711
428.30 1.708
428.40 1.705
428.50 1.702
428.60 1.699
428.70 1.696
428.80 1.693
428.90 1.689
429.00 1.686
429.10 1.682
429.20 1.679
429.30 1.675
429.40 1.671
429.50 1.667
429.60 1.663
429.70 1.658
429.80 1.654
429.90 1.649
430.00 1.644
430.10 1.639
430.20 1.633
430.30 1.627
430.40 1.621
430.50 1.615
430.60 1.608
430.70 1.601
430.80 1.594
430.90 1.586
431.00 1.578
431.10 1.569
431.20 1.56
431.30 1.55
431.40 1.539
431.50 1.528
431.60 1.517
431.70 1.504
431.80 1.491
431.90 1.477
432.00 1.462
432.10 1.446
432.20 1.428
432.30 1.41
432.40 1.391
432.50 1.37
432.60 1.349
432.70 1.326
432.80 1.301
432.90 1.275
433.00 1.248
433.10 1.219
433.20 1.188
433.30 1.156
433.40 1.121
433.50 1.084
433.60 1.045
433.70 1.001
433.80 0.95
433.90 0.8922
434.00 0.7906
434.10 0.7919
434.20 0.8958
434.30 0.9511
434.40 1
434.50 1.042
434.60 1.079
434.70 1.114
434.80 1.147
434.90 1.177
435.00 1.205
435.10 1.233
435.20 1.257
435.30 1.281
435.40 1.303
435.50 1.324
435.60 1.343
435.70 1.361
435.80 1.377
435.90 1.393
436.00 1.407
436.10 1.42
436.20 1.433
436.30 1.444
436.40 1.454
436.50 1.464
436.60 1.473
436.70 1.481
436.80 1.489
436.90 1.496
437.00 1.502
437.10 1.508
437.20 1.513
437.30 1.518
437.40 1.523
437.50 1.527
437.60 1.53
437.70 1.534
437.80 1.537
437.90 1.54
438.00 1.542
438.10 1.545
438.20 1.547
438.30 1.549
438.40 1.55
438.50 1.552
438.60 1.553
438.70 1.554
438.80 1.555
438.90 1.556
439.00 1.557
439.10 1.558
439.20 1.558
439.30 1.559
439.40 1.559
439.50 1.559
439.60 1.56
439.70 1.56
439.80 1.56
439.90 1.56
440.00 1.56
440.10 1.559
440.20 1.559
440.30 1.559
440.40 1.559
440.50 1.558
440.60 1.558
440.70 1.557
440.80 1.557
440.90 1.556
441.00 1.556
441.10 1.555
441.20 1.555
441.30 1.554
441.40 1.553
441.50 1.553
441.60 1.552
441.70 1.551
441.80 1.55
441.90 1.55
442.00 1.549
442.10 1.548
442.20 1.547
442.30 1.546
442.40 1.545
442.50 1.544
442.60 1.544
442.70 1.543
442.80 1.542
442.90 1.541
443.00 1.54
443.10 1.539
443.20 1.538
443.30 1.537
443.40 1.536
443.50 1.535
443.60 1.534
443.70 1.533
443.80 1.532
443.90 1.531
444.00 1.53
444.10 1.529
444.20 1.528
444.30 1.527
444.40 1.526
444.50 1.525
444.60 1.523
444.70 1.522
444.80 1.521
444.90 1.52
445.00 1.519
445.10 1.518
445.20 1.517
445.30 1.516
445.40 1.515
445.50 1.514
445.60 1.513
445.70 1.511
445.80 1.51
445.90 1.509
446.00 1.508
446.10 1.507
446.20 1.506
446.30 1.505
446.40 1.504
446.50 1.503
446.60 1.501
446.70 1.5
446.80 1.499
446.90 1.498
447.00 1.497
447.10 1.496
447.20 1.495
447.30 1.494
447.40 1.492
447.50 1.491
447.60 1.49
447.70 1.489
447.80 1.488
447.90 1.487
448.00 1.486
448.10 1.485
448.20 1.483
448.30 1.482
448.40 1.481
448.50 1.48
448.60 1.479
448.70 1.478
448.80 1.477
448.90 1.475
449.00 1.474
449.10 1.473
449.20 1.472
449.30 1.471
449.40 1.47
449.50 1.469
449.60 1.467
449.70 1.466
449.80 1.465
449.90 1.464
450.00 1.463
450.10 1.462
450.20 1.461
450.30 1.46
450.40 1.458
450.50 1.457
450.60 1.456
450.70 1.455
450.80 1.454
450.90 1.453
451.00 1.452
451.10 1.45
451.20 1.449
451.30 1.448
451.40 1.447
451.50 1.446
451.60 1.445
451.70 1.444
451.80 1.443
451.90 1.441
452.00 1.44
452.10 1.439
452.20 1.438
452.30 1.437
452.40 1.436
452.50 1.435
452.60 1.434
452.70 1.432
452.80 1.431
452.90 1.43
453.00 1.429
453.10 1.428
453.20 1.427
453.30 1.426
453.40 1.425
453.50 1.424
453.60 1.422
453.70 1.421
453.80 1.42
453.90 1.419
454.00 1.418
454.10 1.417
