# Version 2.1 - nm, norm@500 to 1, cut digits, bergeron_2750_65.dat_2750
# Wavelength(nm)  Flambda(ergs/cm^s/s/nm)
300.00 0.04171
300.10 0.04185
300.20 0.042
300.30 0.04214
300.40 0.04229
300.50 0.04243
300.60 0.04258
300.70 0.04272
300.80 0.04286
300.90 0.04301
301.00 0.04315
301.10 0.0433
301.20 0.04344
301.30 0.04358
301.40 0.04373
301.50 0.04387
301.60 0.04401
301.70 0.04415
301.80 0.0443
301.90 0.04444
302.00 0.04458
302.10 0.04473
302.20 0.04488
302.30 0.04503
302.40 0.04519
302.50 0.04534
302.60 0.04549
302.70 0.04564
302.80 0.04579
302.90 0.04594
303.00 0.04609
303.10 0.04624
303.20 0.04639
303.30 0.04654
303.40 0.04669
303.50 0.04684
303.60 0.04699
303.70 0.04714
303.80 0.04729
303.90 0.04744
304.00 0.04759
304.10 0.04775
304.20 0.04791
304.30 0.04806
304.40 0.04822
304.50 0.04838
304.60 0.04854
304.70 0.0487
304.80 0.04886
304.90 0.04901
305.00 0.04917
305.10 0.04933
305.20 0.04949
305.30 0.04964
305.40 0.0498
305.50 0.04996
305.60 0.05011
305.70 0.05027
305.80 0.05043
305.90 0.05058
306.00 0.05074
306.10 0.05091
306.20 0.05107
306.30 0.05124
306.40 0.0514
306.50 0.05157
306.60 0.05173
306.70 0.0519
306.80 0.05206
306.90 0.05223
307.00 0.05239
307.10 0.05256
307.20 0.05272
307.30 0.05289
307.40 0.05305
307.50 0.05321
307.60 0.05338
307.70 0.05354
307.80 0.0537
307.90 0.05387
308.00 0.05404
308.10 0.05421
308.20 0.05438
308.30 0.05455
308.40 0.05472
308.50 0.0549
308.60 0.05507
308.70 0.05524
308.80 0.05541
308.90 0.05559
309.00 0.05576
309.10 0.05593
309.20 0.0561
309.30 0.05627
309.40 0.05644
309.50 0.05662
309.60 0.05679
309.70 0.05696
309.80 0.05713
309.90 0.0573
310.00 0.05747
310.10 0.05765
310.20 0.05783
310.30 0.05801
310.40 0.05819
310.50 0.05837
310.60 0.05856
310.70 0.05874
310.80 0.05892
310.90 0.0591
311.00 0.05928
311.10 0.05946
311.20 0.05964
311.30 0.05981
311.40 0.05999
311.50 0.06017
311.60 0.06035
311.70 0.06053
311.80 0.06071
311.90 0.06089
312.00 0.06106
312.10 0.06124
312.20 0.06142
312.30 0.06161
312.40 0.0618
312.50 0.06198
312.60 0.06217
312.70 0.06236
312.80 0.06255
312.90 0.06274
313.00 0.06292
313.10 0.06311
313.20 0.0633
313.30 0.06349
313.40 0.06367
313.50 0.06386
313.60 0.06404
313.70 0.06423
313.80 0.06442
313.90 0.0646
314.00 0.06479
314.10 0.06498
314.20 0.06518
314.30 0.06538
314.40 0.06557
314.50 0.06577
314.60 0.06596
314.70 0.06616
314.80 0.06635
314.90 0.06655
315.00 0.06674
315.10 0.06694
315.20 0.06713
315.30 0.06733
315.40 0.06752
315.50 0.06771
315.60 0.06791
315.70 0.0681
315.80 0.06829
315.90 0.06849
316.00 0.06868
316.10 0.06888
316.20 0.06908
316.30 0.06929
316.40 0.06949
316.50 0.0697
316.60 0.0699
316.70 0.0701
316.80 0.0703
316.90 0.07051
317.00 0.07071
317.10 0.07091
317.20 0.07111
317.30 0.07131
317.40 0.07152
317.50 0.07172
317.60 0.07192
317.70 0.07212
317.80 0.07232
317.90 0.07252
318.00 0.07273
318.10 0.07293
318.20 0.07314
318.30 0.07335
318.40 0.07357
318.50 0.07378
318.60 0.07399
318.70 0.0742
318.80 0.07441
318.90 0.07462
319.00 0.07483
319.10 0.07504
319.20 0.07525
319.30 0.07546
319.40 0.07567
319.50 0.07588
319.60 0.07608
319.70 0.07629
319.80 0.0765
319.90 0.07671
320.00 0.07693
320.10 0.07714
320.20 0.07736
320.30 0.07758
320.40 0.0778
320.50 0.07802
320.60 0.07823
320.70 0.07845
320.80 0.07867
320.90 0.07889
321.00 0.07911
321.10 0.07933
321.20 0.07954
321.30 0.07976
321.40 0.07998
321.50 0.08019
321.60 0.08041
321.70 0.08063
321.80 0.08084
321.90 0.08106
322.00 0.08128
322.10 0.0815
322.20 0.08173
322.30 0.08196
322.40 0.08219
322.50 0.08241
322.60 0.08264
322.70 0.08287
322.80 0.08309
322.90 0.08332
323.00 0.08355
323.10 0.08377
323.20 0.084
323.30 0.08422
323.40 0.08445
323.50 0.08467
323.60 0.0849
323.70 0.08512
323.80 0.08535
323.90 0.08557
324.00 0.08579
324.10 0.08603
324.20 0.08626
324.30 0.0865
324.40 0.08674
324.50 0.08697
324.60 0.08721
324.70 0.08744
324.80 0.08768
324.90 0.08791
325.00 0.08815
325.10 0.08838
325.20 0.08861
325.30 0.08885
325.40 0.08908
325.50 0.08931
325.60 0.08954
325.70 0.08978
325.80 0.09001
325.90 0.09024
326.00 0.09048
326.10 0.09071
326.20 0.09096
326.30 0.0912
326.40 0.09145
326.50 0.09169
326.60 0.09194
326.70 0.09218
326.80 0.09242
326.90 0.09266
327.00 0.09291
327.10 0.09315
327.20 0.09339
327.30 0.09363
327.40 0.09387
327.50 0.09411
327.60 0.09435
327.70 0.09459
327.80 0.09483
327.90 0.09508
328.00 0.09532
328.10 0.09557
328.20 0.09582
328.30 0.09607
328.40 0.09632
328.50 0.09658
328.60 0.09683
328.70 0.09708
328.80 0.09733
328.90 0.09758
329.00 0.09783
329.10 0.09808
329.20 0.09833
329.30 0.09858
329.40 0.09883
329.50 0.09908
329.60 0.09933
329.70 0.09958
329.80 0.09982
329.90 0.1001
330.00 0.1003
330.10 0.1006
330.20 0.1008
330.30 0.1011
330.40 0.1014
330.50 0.1016
330.60 0.1019
330.70 0.1021
330.80 0.1024
330.90 0.1027
331.00 0.1029
331.10 0.1032
331.20 0.1034
331.30 0.1037
331.40 0.104
331.50 0.1042
331.60 0.1045
331.70 0.1047
331.80 0.105
331.90 0.1052
332.00 0.1055
332.10 0.1058
332.20 0.106
332.30 0.1063
332.40 0.1066
332.50 0.1068
332.60 0.1071
332.70 0.1074
332.80 0.1076
332.90 0.1079
333.00 0.1082
333.10 0.1084
333.20 0.1087
333.30 0.109
333.40 0.1092
333.50 0.1095
333.60 0.1098
333.70 0.11
333.80 0.1103
333.90 0.1106
334.00 0.1108
334.10 0.1111
334.20 0.1114
334.30 0.1117
334.40 0.1119
334.50 0.1122
334.60 0.1125
334.70 0.1128
334.80 0.1131
334.90 0.1133
335.00 0.1136
335.10 0.1139
335.20 0.1142
335.30 0.1144
335.40 0.1147
335.50 0.115
335.60 0.1152
335.70 0.1155
335.80 0.1158
335.90 0.1161
336.00 0.1163
336.10 0.1166
336.20 0.1169
336.30 0.1172
336.40 0.1175
336.50 0.1178
336.60 0.1181
336.70 0.1183
336.80 0.1186
336.90 0.1189
337.00 0.1192
337.10 0.1195
337.20 0.1198
337.30 0.12
337.40 0.1203
337.50 0.1206
337.60 0.1209
337.70 0.1212
337.80 0.1215
337.90 0.1217
338.00 0.122
338.10 0.1223
338.20 0.1226
338.30 0.1229
338.40 0.1232
338.50 0.1235
338.60 0.1238
338.70 0.1241
338.80 0.1244
338.90 0.1247
339.00 0.125
339.10 0.1252
339.20 0.1255
339.30 0.1258
339.40 0.1261
339.50 0.1264
339.60 0.1267
339.70 0.127
339.80 0.1273
339.90 0.1276
340.00 0.1279
340.10 0.1282
340.20 0.1285
340.30 0.1288
340.40 0.1291
340.50 0.1294
340.60 0.1297
340.70 0.13
340.80 0.1303
340.90 0.1306
341.00 0.1309
341.10 0.1312
341.20 0.1315
341.30 0.1318
341.40 0.1321
341.50 0.1324
341.60 0.1327
341.70 0.133
341.80 0.1333
341.90 0.1336
342.00 0.1339
342.10 0.1342
342.20 0.1345
342.30 0.1348
342.40 0.1351
342.50 0.1354
342.60 0.1357
342.70 0.1361
342.80 0.1364
342.90 0.1367
343.00 0.137
343.10 0.1373
343.20 0.1376
343.30 0.1379
343.40 0.1382
343.50 0.1385
343.60 0.1388
343.70 0.1391
343.80 0.1394
343.90 0.1397
344.00 0.1401
344.10 0.1404
344.20 0.1407
344.30 0.141
344.40 0.1413
344.50 0.1417
344.60 0.142
344.70 0.1423
344.80 0.1426
344.90 0.1429
345.00 0.1432
345.10 0.1436
345.20 0.1439
345.30 0.1442
345.40 0.1445
345.50 0.1448
345.60 0.1451
345.70 0.1455
345.80 0.1458
345.90 0.1461
346.00 0.1464
346.10 0.1467
346.20 0.1471
346.30 0.1474
346.40 0.1477
346.50 0.148
346.60 0.1484
346.70 0.1487
346.80 0.149
346.90 0.1494
347.00 0.1497
347.10 0.15
347.20 0.1503
347.30 0.1507
347.40 0.151
347.50 0.1513
347.60 0.1516
347.70 0.152
347.80 0.1523
347.90 0.1526
348.00 0.1529
348.10 0.1533
348.20 0.1536
348.30 0.1539
348.40 0.1543
348.50 0.1546
348.60 0.1549
348.70 0.1553
348.80 0.1556
348.90 0.156
349.00 0.1563
349.10 0.1566
349.20 0.157
349.30 0.1573
349.40 0.1576
349.50 0.158
349.60 0.1583
349.70 0.1586
349.80 0.159
349.90 0.1593
350.00 0.1596
350.10 0.16
350.20 0.1603
350.30 0.1607
350.40 0.161
350.50 0.1613
350.60 0.1617
350.70 0.162
350.80 0.1624
350.90 0.1627
351.00 0.1631
351.10 0.1634
351.20 0.1638
351.30 0.1641
351.40 0.1644
351.50 0.1648
351.60 0.1651
351.70 0.1655
351.80 0.1658
351.90 0.1661
352.00 0.1665
352.10 0.1668
352.20 0.1672
352.30 0.1675
352.40 0.1679
352.50 0.1682
352.60 0.1686
352.70 0.169
352.80 0.1693
352.90 0.1697
353.00 0.17
353.10 0.1704
353.20 0.1707
353.30 0.1711
353.40 0.1714
353.50 0.1718
353.60 0.1721
353.70 0.1725
353.80 0.1728
353.90 0.1732
354.00 0.1735
354.10 0.1739
354.20 0.1742
354.30 0.1746
354.40 0.175
354.50 0.1753
354.60 0.1757
354.70 0.176
354.80 0.1764
354.90 0.1768
355.00 0.1771
355.10 0.1775
355.20 0.1778
355.30 0.1782
355.40 0.1786
355.50 0.1789
355.60 0.1793
355.70 0.1796
355.80 0.18
355.90 0.1803
356.00 0.1807
356.10 0.1811
356.20 0.1814
356.30 0.1818
356.40 0.1822
356.50 0.1826
356.60 0.1829
356.70 0.1833
356.80 0.1837
356.90 0.184
357.00 0.1844
357.10 0.1848
357.20 0.1851
357.30 0.1855
357.40 0.1859
357.50 0.1862
357.60 0.1866
357.70 0.187
357.80 0.1873
357.90 0.1877
358.00 0.1881
358.10 0.1884
358.20 0.1888
358.30 0.1892
358.40 0.1896
358.50 0.19
358.60 0.1903
358.70 0.1907
358.80 0.1911
358.90 0.1915
359.00 0.1918
359.10 0.1922
359.20 0.1926
359.30 0.193
359.40 0.1933
359.50 0.1937
359.60 0.1941
359.70 0.1945
359.80 0.1948
359.90 0.1952
360.00 0.1956
360.10 0.196
360.20 0.1964
360.30 0.1968
360.40 0.1971
360.50 0.1975
360.60 0.1979
360.70 0.1983
360.80 0.1987
360.90 0.1991
361.00 0.1995
361.10 0.1998
361.20 0.2002
361.30 0.2006
361.40 0.201
361.50 0.2014
361.60 0.2018
361.70 0.2021
361.80 0.2025
361.90 0.2029
362.00 0.2033
362.10 0.2037
362.20 0.2041
362.30 0.2045
362.40 0.2049
362.50 0.2052
362.60 0.2056
362.70 0.206
362.80 0.2064
362.90 0.2068
363.00 0.2072
363.10 0.2076
363.20 0.208
363.30 0.2084
363.40 0.2088
363.50 0.2092
363.60 0.2096
363.70 0.21
363.80 0.2104
363.90 0.2108
364.00 0.2112
364.10 0.2116
364.20 0.212
364.30 0.2123
364.40 0.2127
364.50 0.2131
364.60 0.2135
364.70 0.2139
364.80 0.2144
364.90 0.2148
365.00 0.2152
365.10 0.2156
365.20 0.216
365.30 0.2164
365.40 0.2168
365.50 0.2172
365.60 0.2176
365.70 0.218
365.80 0.2184
365.90 0.2188
366.00 0.2192
366.10 0.2196
366.20 0.22
366.30 0.2204
366.40 0.2208
366.50 0.2212
366.60 0.2216
366.70 0.2221
366.80 0.2225
366.90 0.2229
367.00 0.2233
367.10 0.2237
367.20 0.2241
367.30 0.2245
367.40 0.2249
367.50 0.2253
367.60 0.2257
367.70 0.2261
367.80 0.2265
367.90 0.227
368.00 0.2274
368.10 0.2278
368.20 0.2282
368.30 0.2286
368.40 0.229
368.50 0.2295
368.60 0.2299
368.70 0.2303
368.80 0.2307
368.90 0.2311
369.00 0.2316
369.10 0.232
369.20 0.2324
369.30 0.2328
369.40 0.2332
369.50 0.2336
369.60 0.234
369.70 0.2345
369.80 0.2349
369.90 0.2353
370.00 0.2357
370.10 0.2361
370.20 0.2366
370.30 0.237
370.40 0.2374
370.50 0.2378
370.60 0.2383
370.70 0.2387
370.80 0.2391
370.90 0.2396
371.00 0.24
371.10 0.2404
371.20 0.2408
371.30 0.2412
371.40 0.2417
371.50 0.2421
371.60 0.2425
371.70 0.2429
371.80 0.2434
371.90 0.2438
372.00 0.2442
372.10 0.2446
372.20 0.2451
372.30 0.2455
372.40 0.246
372.50 0.2464
372.60 0.2468
372.70 0.2473
372.80 0.2477
372.90 0.2481
373.00 0.2486
373.10 0.249
373.20 0.2494
373.30 0.2499
373.40 0.2503
373.50 0.2507
373.60 0.2512
373.70 0.2516
373.80 0.252
373.90 0.2524
374.00 0.2529
374.10 0.2533
374.20 0.2538
374.30 0.2542
374.40 0.2546
374.50 0.2551
374.60 0.2555
374.70 0.256
374.80 0.2564
374.90 0.2569
375.00 0.2573
375.10 0.2577
375.20 0.2582
375.30 0.2586
375.40 0.2591
375.50 0.2595
375.60 0.2599
375.70 0.2604
375.80 0.2608
375.90 0.2612
376.00 0.2617
376.10 0.2621
376.20 0.2626
376.30 0.263
376.40 0.2635
376.50 0.2639
376.60 0.2644
376.70 0.2648
376.80 0.2653
376.90 0.2657
377.00 0.2662
377.10 0.2666
377.20 0.2671
377.30 0.2675
377.40 0.268
377.50 0.2684
377.60 0.2689
377.70 0.2693
377.80 0.2698
377.90 0.2702
378.00 0.2707
378.10 0.2711
378.20 0.2716
378.30 0.272
378.40 0.2725
378.50 0.2729
378.60 0.2734
378.70 0.2738
378.80 0.2743
378.90 0.2748
379.00 0.2752
379.10 0.2757
379.20 0.2761
379.30 0.2766
379.40 0.277
379.50 0.2775
379.60 0.278
379.70 0.2784
379.80 0.2789
379.90 0.2793
380.00 0.2798
380.10 0.2802
380.20 0.2807
380.30 0.2812
380.40 0.2816
380.50 0.2821
380.60 0.2826
380.70 0.283
380.80 0.2835
380.90 0.2839
381.00 0.2844
381.10 0.2849
381.20 0.2853
381.30 0.2858
381.40 0.2863
381.50 0.2867
381.60 0.2872
381.70 0.2877
381.80 0.2881
381.90 0.2886
382.00 0.2891
382.10 0.2895
382.20 0.29
382.30 0.2905
382.40 0.2909
382.50 0.2914
382.60 0.2919
382.70 0.2923
382.80 0.2928
382.90 0.2933
383.00 0.2938
383.10 0.2942
383.20 0.2947
383.30 0.2952
383.40 0.2956
383.50 0.2961
383.60 0.2966
383.70 0.2971
383.80 0.2975
383.90 0.298
384.00 0.2985
384.10 0.299
384.20 0.2994
384.30 0.2999
384.40 0.3004
384.50 0.3009
384.60 0.3013
384.70 0.3018
384.80 0.3023
384.90 0.3028
385.00 0.3032
385.10 0.3037
385.20 0.3042
385.30 0.3047
385.40 0.3052
385.50 0.3056
385.60 0.3061
385.70 0.3066
385.80 0.3071
385.90 0.3076
386.00 0.308
386.10 0.3085
386.20 0.309
386.30 0.3095
386.40 0.31
386.50 0.3105
386.60 0.3109
386.70 0.3114
386.80 0.3119
386.90 0.3124
387.00 0.3129
387.10 0.3134
387.20 0.3139
387.30 0.3143
387.40 0.3148
387.50 0.3153
387.60 0.3158
387.70 0.3163
387.80 0.3168
387.90 0.3173
388.00 0.3178
388.10 0.3182
388.20 0.3187
388.30 0.3192
388.40 0.3197
388.50 0.3202
388.60 0.3207
388.70 0.3212
388.80 0.3217
388.90 0.3222
389.00 0.3227
389.10 0.3232
389.20 0.3237
389.30 0.3241
389.40 0.3246
389.50 0.3251
389.60 0.3256
389.70 0.3261
389.80 0.3266
389.90 0.3271
390.00 0.3276
390.10 0.3281
390.20 0.3286
390.30 0.3291
390.40 0.3296
390.50 0.3301
390.60 0.3306
390.70 0.3311
390.80 0.3316
390.90 0.3321
391.00 0.3326
391.10 0.3331
391.20 0.3336
391.30 0.3341
391.40 0.3346
391.50 0.3351
391.60 0.3356
391.70 0.3361
391.80 0.3366
391.90 0.3371
392.00 0.3376
392.10 0.3381
392.20 0.3386
392.30 0.3391
392.40 0.3396
392.50 0.3401
392.60 0.3406
392.70 0.3411
392.80 0.3416
392.90 0.3421
393.00 0.3426
393.10 0.3431
393.20 0.3437
393.30 0.3442
393.40 0.3447
393.50 0.3452
393.60 0.3457
393.70 0.3462
393.80 0.3467
393.90 0.3472
394.00 0.3477
394.10 0.3482
394.20 0.3487
394.30 0.3493
394.40 0.3498
394.50 0.3503
394.60 0.3508
394.70 0.3513
394.80 0.3518
394.90 0.3523
395.00 0.3528
395.10 0.3533
395.20 0.3539
395.30 0.3544
395.40 0.3549
395.50 0.3554
395.60 0.3559
395.70 0.3564
395.80 0.357
395.90 0.3575
396.00 0.358
396.10 0.3585
396.20 0.359
396.30 0.3595
396.40 0.3601
396.50 0.3606
396.60 0.3611
396.70 0.3616
396.80 0.3621
396.90 0.3626
397.00 0.3632
397.10 0.3637
397.20 0.3642
397.30 0.3647
397.40 0.3652
397.50 0.3658
397.60 0.3663
397.70 0.3668
397.80 0.3673
397.90 0.3678
398.00 0.3684
398.10 0.3689
398.20 0.3694
398.30 0.3699
398.40 0.3705
398.50 0.371
398.60 0.3715
398.70 0.372
398.80 0.3726
398.90 0.3731
399.00 0.3736
399.10 0.3741
399.20 0.3747
399.30 0.3752
399.40 0.3757
399.50 0.3763
399.60 0.3768
399.70 0.3773
399.80 0.3778
399.90 0.3784
400.00 0.3789
400.10 0.3794
400.20 0.38
400.30 0.3805
400.40 0.381
400.50 0.3815
400.60 0.3821
400.70 0.3826
400.80 0.3831
400.90 0.3837
401.00 0.3842
401.10 0.3847
401.20 0.3853
401.30 0.3858
401.40 0.3863
401.50 0.3869
401.60 0.3874
401.70 0.3879
401.80 0.3885
401.90 0.389
402.00 0.3895
402.10 0.3901
402.20 0.3906
402.30 0.3911
402.40 0.3917
402.50 0.3922
402.60 0.3927
402.70 0.3933
402.80 0.3938
402.90 0.3944
403.00 0.3949
403.10 0.3954
403.20 0.396
403.30 0.3965
403.40 0.3971
403.50 0.3976
403.60 0.3981
403.70 0.3987
403.80 0.3992
403.90 0.3998
404.00 0.4003
404.10 0.4008
404.20 0.4014
404.30 0.4019
404.40 0.4025
404.50 0.403
404.60 0.4035
404.70 0.4041
404.80 0.4046
404.90 0.4052
405.00 0.4057
405.10 0.4063
405.20 0.4068
405.30 0.4074
405.40 0.4079
405.50 0.4085
405.60 0.409
405.70 0.4095
405.80 0.4101
405.90 0.4106
406.00 0.4112
406.10 0.4117
406.20 0.4123
406.30 0.4128
406.40 0.4134
406.50 0.4139
406.60 0.4145
406.70 0.415
406.80 0.4156
406.90 0.4161
407.00 0.4167
407.10 0.4172
407.20 0.4178
407.30 0.4183
407.40 0.4189
407.50 0.4194
407.60 0.42
407.70 0.4205
407.80 0.4211
407.90 0.4216
408.00 0.4222
408.10 0.4227
408.20 0.4233
408.30 0.4238
408.40 0.4244
408.50 0.4249
408.60 0.4255
408.70 0.4261
408.80 0.4266
408.90 0.4272
409.00 0.4277
409.10 0.4283
409.20 0.4288
409.30 0.4294
409.40 0.43
409.50 0.4305
409.60 0.4311
409.70 0.4316
409.80 0.4322
409.90 0.4327
410.00 0.4333
410.10 0.4339
410.20 0.4344
410.30 0.435
410.40 0.4355
410.50 0.4361
410.60 0.4367
410.70 0.4372
410.80 0.4378
410.90 0.4383
411.00 0.4389
411.10 0.4395
411.20 0.44
411.30 0.4406
411.40 0.4411
411.50 0.4417
411.60 0.4423
411.70 0.4428
411.80 0.4434
411.90 0.444
412.00 0.4445
412.10 0.4451
412.20 0.4457
412.30 0.4462
412.40 0.4468
412.50 0.4473
412.60 0.4479
412.70 0.4485
412.80 0.449
412.90 0.4496
413.00 0.4502
413.10 0.4507
413.20 0.4513
413.30 0.4519
413.40 0.4524
413.50 0.453
413.60 0.4536
413.70 0.4542
413.80 0.4547
413.90 0.4553
414.00 0.4559
414.10 0.4564
414.20 0.457
414.30 0.4576
414.40 0.4581
414.50 0.4587
414.60 0.4593
414.70 0.4599
414.80 0.4604
414.90 0.461
415.00 0.4616
415.10 0.4621
415.20 0.4627
415.30 0.4633
415.40 0.4639
415.50 0.4644
415.60 0.465
415.70 0.4656
415.80 0.4661
415.90 0.4667
416.00 0.4673
416.10 0.4679
416.20 0.4684
416.30 0.469
416.40 0.4696
416.50 0.4702
416.60 0.4707
416.70 0.4713
416.80 0.4719
416.90 0.4725
417.00 0.473
417.10 0.4736
417.20 0.4742
417.30 0.4748
417.40 0.4754
417.50 0.4759
417.60 0.4765
417.70 0.4771
417.80 0.4777
417.90 0.4783
418.00 0.4788
418.10 0.4794
418.20 0.48
418.30 0.4806
418.40 0.4812
418.50 0.4817
418.60 0.4823
418.70 0.4829
418.80 0.4835
418.90 0.4841
419.00 0.4846
419.10 0.4852
419.20 0.4858
419.30 0.4864
419.40 0.487
419.50 0.4876
419.60 0.4881
419.70 0.4887
419.80 0.4893
419.90 0.4899
420.00 0.4905
420.10 0.4911
420.20 0.4916
420.30 0.4922
420.40 0.4928
420.50 0.4934
420.60 0.494
420.70 0.4946
420.80 0.4952
420.90 0.4957
421.00 0.4963
421.10 0.4969
421.20 0.4975
421.30 0.4981
421.40 0.4987
421.50 0.4993
421.60 0.4998
421.70 0.5004
421.80 0.501
421.90 0.5016
422.00 0.5022
422.10 0.5028
422.20 0.5034
422.30 0.504
422.40 0.5046
422.50 0.5052
422.60 0.5057
422.70 0.5063
422.80 0.5069
422.90 0.5075
423.00 0.5081
423.10 0.5087
423.20 0.5093
423.30 0.5099
423.40 0.5105
423.50 0.5111
423.60 0.5117
423.70 0.5123
423.80 0.5128
423.90 0.5134
424.00 0.514
424.10 0.5146
424.20 0.5152
424.30 0.5158
424.40 0.5164
424.50 0.517
424.60 0.5176
424.70 0.5182
424.80 0.5188
424.90 0.5194
425.00 0.52
425.10 0.5206
425.20 0.5212
425.30 0.5218
425.40 0.5224
425.50 0.523
425.60 0.5236
425.70 0.5241
425.80 0.5247
425.90 0.5253
426.00 0.5259
426.10 0.5265
426.20 0.5271
426.30 0.5277
426.40 0.5283
426.50 0.5289
426.60 0.5295
426.70 0.5301
426.80 0.5307
426.90 0.5313
427.00 0.5319
427.10 0.5325
427.20 0.5331
427.30 0.5337
427.40 0.5343
427.50 0.5349
427.60 0.5355
427.70 0.5361
427.80 0.5367
427.90 0.5373
428.00 0.5379
428.10 0.5385
428.20 0.5391
428.30 0.5397
428.40 0.5404
428.50 0.541
428.60 0.5416
428.70 0.5422
428.80 0.5428
428.90 0.5434
429.00 0.544
429.10 0.5446
429.20 0.5452
429.30 0.5458
429.40 0.5464
429.50 0.547
429.60 0.5476
429.70 0.5482
429.80 0.5488
429.90 0.5494
430.00 0.55
430.10 0.5506
430.20 0.5512
430.30 0.5518
430.40 0.5524
430.50 0.5531
430.60 0.5537
430.70 0.5543
430.80 0.5549
430.90 0.5555
431.00 0.5561
431.10 0.5567
431.20 0.5573
431.30 0.5579
431.40 0.5585
431.50 0.5591
431.60 0.5597
431.70 0.5604
431.80 0.561
431.90 0.5616
432.00 0.5622
432.10 0.5628
432.20 0.5634
432.30 0.564
432.40 0.5646
432.50 0.5652
432.60 0.5658
432.70 0.5665
432.80 0.5671
432.90 0.5677
433.00 0.5683
433.10 0.5689
433.20 0.5695
433.30 0.5701
433.40 0.5707
433.50 0.5714
433.60 0.572
433.70 0.5726
433.80 0.5732
433.90 0.5738
434.00 0.5744
434.10 0.575
434.20 0.5756
434.30 0.5763
434.40 0.5769
434.50 0.5775
434.60 0.5781
434.70 0.5787
434.80 0.5793
434.90 0.5799
435.00 0.5806
435.10 0.5812
435.20 0.5818
435.30 0.5824
435.40 0.583
435.50 0.5836
435.60 0.5843
435.70 0.5849
435.80 0.5855
435.90 0.5861
436.00 0.5867
436.10 0.5873
436.20 0.588
436.30 0.5886
436.40 0.5892
436.50 0.5898
436.60 0.5904
436.70 0.5911
436.80 0.5917
436.90 0.5923
437.00 0.5929
437.10 0.5935
437.20 0.5941
437.30 0.5948
437.40 0.5954
437.50 0.596
437.60 0.5966
437.70 0.5972
437.80 0.5979
437.90 0.5985
438.00 0.5991
438.10 0.5997
438.20 0.6003
438.30 0.601
438.40 0.6016
438.50 0.6022
438.60 0.6028
438.70 0.6035
438.80 0.6041
438.90 0.6047
439.00 0.6053
439.10 0.6059
439.20 0.6066
439.30 0.6072
439.40 0.6078
439.50 0.6084
439.60 0.609
439.70 0.6097
439.80 0.6103
439.90 0.6109
440.00 0.6115
440.10 0.6122
440.20 0.6128
440.30 0.6134
440.40 0.614
440.50 0.6147
440.60 0.6153
440.70 0.6159
440.80 0.6165
440.90 0.6172
