# Version 2.1 - nm, norm@500 to 1, cut digits, bergeron_2250_85.dat_2250
# Wavelength(nm)  Flambda(ergs/cm^s/s/nm)
300.00 0.06189
300.10 0.06207
300.20 0.06225
300.30 0.06244
300.40 0.06262
300.50 0.06281
300.60 0.06299
300.70 0.06317
300.80 0.06336
300.90 0.06354
301.00 0.06373
301.10 0.06391
301.20 0.06409
301.30 0.06427
301.40 0.06446
301.50 0.06464
301.60 0.06482
301.70 0.065
301.80 0.06518
301.90 0.06537
302.00 0.06555
302.10 0.06574
302.20 0.06593
302.30 0.06612
302.40 0.06632
302.50 0.06651
302.60 0.0667
302.70 0.06689
302.80 0.06708
302.90 0.06727
303.00 0.06746
303.10 0.06765
303.20 0.06785
303.30 0.06803
303.40 0.06822
303.50 0.06841
303.60 0.0686
303.70 0.06879
303.80 0.06898
303.90 0.06917
304.00 0.06936
304.10 0.06956
304.20 0.06976
304.30 0.06996
304.40 0.07016
304.50 0.07035
304.60 0.07055
304.70 0.07075
304.80 0.07095
304.90 0.07115
305.00 0.07135
305.10 0.07154
305.20 0.07174
305.30 0.07194
305.40 0.07213
305.50 0.07233
305.60 0.07253
305.70 0.07272
305.80 0.07292
305.90 0.07311
306.00 0.07332
306.10 0.07352
306.20 0.07372
306.30 0.07393
306.40 0.07414
306.50 0.07434
306.60 0.07455
306.70 0.07476
306.80 0.07496
306.90 0.07517
307.00 0.07537
307.10 0.07558
307.20 0.07578
307.30 0.07599
307.40 0.07619
307.50 0.07639
307.60 0.0766
307.70 0.0768
307.80 0.077
307.90 0.07721
308.00 0.07742
308.10 0.07763
308.20 0.07784
308.30 0.07805
308.40 0.07827
308.50 0.07848
308.60 0.07869
308.70 0.07891
308.80 0.07912
308.90 0.07933
309.00 0.07954
309.10 0.07976
309.20 0.07997
309.30 0.08018
309.40 0.08039
309.50 0.0806
309.60 0.08081
309.70 0.08102
309.80 0.08123
309.90 0.08144
310.00 0.08166
310.10 0.08188
310.20 0.0821
310.30 0.08232
310.40 0.08254
310.50 0.08276
310.60 0.08298
310.70 0.08321
310.80 0.08343
310.90 0.08365
311.00 0.08387
311.10 0.08409
311.20 0.08431
311.30 0.08453
311.40 0.08475
311.50 0.08496
311.60 0.08518
311.70 0.0854
311.80 0.08562
311.90 0.08584
312.00 0.08605
312.10 0.08627
312.20 0.08649
312.30 0.08672
312.40 0.08695
312.50 0.08718
312.60 0.08741
312.70 0.08763
312.80 0.08786
312.90 0.08809
313.00 0.08832
313.10 0.08855
313.20 0.08877
313.30 0.089
313.40 0.08923
313.50 0.08945
313.60 0.08968
313.70 0.08991
313.80 0.09013
313.90 0.09036
314.00 0.09059
314.10 0.09082
314.20 0.09106
314.30 0.09129
314.40 0.09153
314.50 0.09177
314.60 0.092
314.70 0.09224
314.80 0.09247
314.90 0.09271
315.00 0.09294
315.10 0.09318
315.20 0.09341
315.30 0.09364
315.40 0.09388
315.50 0.09411
315.60 0.09434
315.70 0.09457
315.80 0.09481
315.90 0.09504
316.00 0.09528
316.10 0.09552
316.20 0.09576
316.30 0.096
316.40 0.09625
316.50 0.09649
316.60 0.09674
316.70 0.09698
316.80 0.09722
316.90 0.09746
317.00 0.09771
317.10 0.09795
317.20 0.09819
317.30 0.09843
317.40 0.09867
317.50 0.09891
317.60 0.09915
317.70 0.09939
317.80 0.09963
317.90 0.09988
318.00 0.1001
318.10 0.1004
318.20 0.1006
318.30 0.1009
318.40 0.1011
318.50 0.1014
318.60 0.1016
318.70 0.1019
318.80 0.1021
318.90 0.1024
319.00 0.1026
319.10 0.1029
319.20 0.1031
319.30 0.1034
319.40 0.1036
319.50 0.1039
319.60 0.1041
319.70 0.1044
319.80 0.1046
319.90 0.1049
320.00 0.1051
320.10 0.1054
320.20 0.1056
320.30 0.1059
320.40 0.1061
320.50 0.1064
320.60 0.1067
320.70 0.1069
320.80 0.1072
320.90 0.1074
321.00 0.1077
321.10 0.1079
321.20 0.1082
321.30 0.1085
321.40 0.1087
321.50 0.109
321.60 0.1092
321.70 0.1095
321.80 0.1097
321.90 0.11
322.00 0.1102
322.10 0.1105
322.20 0.1108
322.30 0.111
322.40 0.1113
322.50 0.1116
322.60 0.1118
322.70 0.1121
322.80 0.1124
322.90 0.1126
323.00 0.1129
323.10 0.1132
323.20 0.1134
323.30 0.1137
323.40 0.114
323.50 0.1142
323.60 0.1145
323.70 0.1148
323.80 0.115
323.90 0.1153
324.00 0.1155
324.10 0.1158
324.20 0.1161
324.30 0.1164
324.40 0.1166
324.50 0.1169
324.60 0.1172
324.70 0.1175
324.80 0.1177
324.90 0.118
325.00 0.1183
325.10 0.1186
325.20 0.1188
325.30 0.1191
325.40 0.1194
325.50 0.1196
325.60 0.1199
325.70 0.1202
325.80 0.1204
325.90 0.1207
326.00 0.121
326.10 0.1213
326.20 0.1216
326.30 0.1218
326.40 0.1221
326.50 0.1224
326.60 0.1227
326.70 0.123
326.80 0.1232
326.90 0.1235
327.00 0.1238
327.10 0.1241
327.20 0.1244
327.30 0.1246
327.40 0.1249
327.50 0.1252
327.60 0.1255
327.70 0.1257
327.80 0.126
327.90 0.1263
328.00 0.1266
328.10 0.1269
328.20 0.1272
328.30 0.1275
328.40 0.1277
328.50 0.128
328.60 0.1283
328.70 0.1286
328.80 0.1289
328.90 0.1292
329.00 0.1295
329.10 0.1298
329.20 0.13
329.30 0.1303
329.40 0.1306
329.50 0.1309
329.60 0.1312
329.70 0.1315
329.80 0.1318
329.90 0.132
330.00 0.1323
330.10 0.1326
330.20 0.1329
330.30 0.1332
330.40 0.1335
330.50 0.1338
330.60 0.1341
330.70 0.1344
330.80 0.1347
330.90 0.135
331.00 0.1353
331.10 0.1356
331.20 0.1359
331.30 0.1362
331.40 0.1365
331.50 0.1368
331.60 0.1371
331.70 0.1374
331.80 0.1376
331.90 0.1379
332.00 0.1382
332.10 0.1385
332.20 0.1388
332.30 0.1392
332.40 0.1395
332.50 0.1398
332.60 0.1401
332.70 0.1404
332.80 0.1407
332.90 0.141
333.00 0.1413
333.10 0.1416
333.20 0.1419
333.30 0.1422
333.40 0.1425
333.50 0.1428
333.60 0.1431
333.70 0.1434
333.80 0.1437
333.90 0.144
334.00 0.1443
334.10 0.1446
334.20 0.1449
334.30 0.1452
334.40 0.1455
334.50 0.1459
334.60 0.1462
334.70 0.1465
334.80 0.1468
334.90 0.1471
335.00 0.1474
335.10 0.1477
335.20 0.148
335.30 0.1483
335.40 0.1487
335.50 0.149
335.60 0.1493
335.70 0.1496
335.80 0.1499
335.90 0.1502
336.00 0.1505
336.10 0.1508
336.20 0.1511
336.30 0.1515
336.40 0.1518
336.50 0.1521
336.60 0.1524
336.70 0.1527
336.80 0.1531
336.90 0.1534
337.00 0.1537
337.10 0.154
337.20 0.1543
337.30 0.1547
337.40 0.155
337.50 0.1553
337.60 0.1556
337.70 0.1559
337.80 0.1562
337.90 0.1565
338.00 0.1569
338.10 0.1572
338.20 0.1575
338.30 0.1578
338.40 0.1582
338.50 0.1585
338.60 0.1588
338.70 0.1592
338.80 0.1595
338.90 0.1598
339.00 0.1601
339.10 0.1605
339.20 0.1608
339.30 0.1611
339.40 0.1614
339.50 0.1618
339.60 0.1621
339.70 0.1624
339.80 0.1627
339.90 0.163
340.00 0.1634
340.10 0.1637
340.20 0.164
340.30 0.1644
340.40 0.1647
340.50 0.165
340.60 0.1654
340.70 0.1657
340.80 0.166
340.90 0.1664
341.00 0.1667
341.10 0.167
341.20 0.1674
341.30 0.1677
341.40 0.168
341.50 0.1684
341.60 0.1687
341.70 0.169
341.80 0.1694
341.90 0.1697
342.00 0.17
342.10 0.1704
342.20 0.1707
342.30 0.1711
342.40 0.1714
342.50 0.1717
342.60 0.1721
342.70 0.1724
342.80 0.1728
342.90 0.1731
343.00 0.1735
343.10 0.1738
343.20 0.1741
343.30 0.1745
343.40 0.1748
343.50 0.1752
343.60 0.1755
343.70 0.1758
343.80 0.1762
343.90 0.1765
344.00 0.1768
344.10 0.1772
344.20 0.1775
344.30 0.1779
344.40 0.1782
344.50 0.1786
344.60 0.1789
344.70 0.1793
344.80 0.1796
344.90 0.18
345.00 0.1803
345.10 0.1807
345.20 0.181
345.30 0.1814
345.40 0.1817
345.50 0.1821
345.60 0.1824
345.70 0.1828
345.80 0.1831
345.90 0.1834
346.00 0.1838
346.10 0.1842
346.20 0.1845
346.30 0.1849
346.40 0.1852
346.50 0.1856
346.60 0.1859
346.70 0.1863
346.80 0.1867
346.90 0.187
347.00 0.1874
347.10 0.1877
347.20 0.1881
347.30 0.1884
347.40 0.1888
347.50 0.1891
347.60 0.1895
347.70 0.1899
347.80 0.1902
347.90 0.1906
348.00 0.1909
348.10 0.1913
348.20 0.1916
348.30 0.192
348.40 0.1924
348.50 0.1927
348.60 0.1931
348.70 0.1935
348.80 0.1938
348.90 0.1942
349.00 0.1946
349.10 0.1949
349.20 0.1953
349.30 0.1956
349.40 0.196
349.50 0.1964
349.60 0.1967
349.70 0.1971
349.80 0.1974
349.90 0.1978
350.00 0.1982
350.10 0.1985
350.20 0.1989
350.30 0.1993
350.40 0.1997
350.50 0.2
350.60 0.2004
350.70 0.2008
350.80 0.2011
350.90 0.2015
351.00 0.2019
351.10 0.2022
351.20 0.2026
351.30 0.203
351.40 0.2034
351.50 0.2037
351.60 0.2041
351.70 0.2045
351.80 0.2048
351.90 0.2052
352.00 0.2056
352.10 0.2059
352.20 0.2063
352.30 0.2067
352.40 0.2071
352.50 0.2075
352.60 0.2078
352.70 0.2082
352.80 0.2086
352.90 0.209
353.00 0.2093
353.10 0.2097
353.20 0.2101
353.30 0.2105
353.40 0.2109
353.50 0.2112
353.60 0.2116
353.70 0.212
353.80 0.2124
353.90 0.2127
354.00 0.2131
354.10 0.2135
354.20 0.2139
354.30 0.2143
354.40 0.2147
354.50 0.215
354.60 0.2154
354.70 0.2158
354.80 0.2162
354.90 0.2166
355.00 0.217
355.10 0.2173
355.20 0.2177
355.30 0.2181
355.40 0.2185
355.50 0.2189
355.60 0.2193
355.70 0.2196
355.80 0.22
355.90 0.2204
356.00 0.2208
356.10 0.2212
356.20 0.2216
356.30 0.222
356.40 0.2224
356.50 0.2228
356.60 0.2232
356.70 0.2235
356.80 0.2239
356.90 0.2243
357.00 0.2247
357.10 0.2251
357.20 0.2255
357.30 0.2259
357.40 0.2263
357.50 0.2267
357.60 0.2271
357.70 0.2275
357.80 0.2278
357.90 0.2282
358.00 0.2286
358.10 0.229
358.20 0.2294
358.30 0.2298
358.40 0.2302
358.50 0.2306
358.60 0.231
358.70 0.2314
358.80 0.2318
358.90 0.2322
359.00 0.2326
359.10 0.233
359.20 0.2334
359.30 0.2338
359.40 0.2342
359.50 0.2346
359.60 0.235
359.70 0.2354
359.80 0.2358
359.90 0.2362
360.00 0.2366
360.10 0.237
360.20 0.2374
360.30 0.2378
360.40 0.2382
360.50 0.2386
360.60 0.239
360.70 0.2394
360.80 0.2399
360.90 0.2403
361.00 0.2407
361.10 0.2411
361.20 0.2415
361.30 0.2419
361.40 0.2423
361.50 0.2427
361.60 0.2431
361.70 0.2435
361.80 0.2439
361.90 0.2443
362.00 0.2447
362.10 0.2451
362.20 0.2455
362.30 0.2459
362.40 0.2463
362.50 0.2467
362.60 0.2472
362.70 0.2476
362.80 0.248
362.90 0.2484
363.00 0.2488
363.10 0.2492
363.20 0.2496
363.30 0.25
363.40 0.2505
363.50 0.2509
363.60 0.2513
363.70 0.2517
363.80 0.2521
363.90 0.2525
364.00 0.2529
364.10 0.2534
364.20 0.2538
364.30 0.2542
364.40 0.2546
364.50 0.255
364.60 0.2554
364.70 0.2559
364.80 0.2563
364.90 0.2567
365.00 0.2571
365.10 0.2575
365.20 0.258
365.30 0.2584
365.40 0.2588
365.50 0.2592
365.60 0.2596
365.70 0.2601
365.80 0.2605
365.90 0.2609
366.00 0.2613
366.10 0.2617
366.20 0.2622
366.30 0.2626
366.40 0.263
366.50 0.2634
366.60 0.2639
366.70 0.2643
366.80 0.2647
366.90 0.2652
367.00 0.2656
367.10 0.266
367.20 0.2664
367.30 0.2669
367.40 0.2673
367.50 0.2677
367.60 0.2681
367.70 0.2685
367.80 0.269
367.90 0.2694
368.00 0.2698
368.10 0.2702
368.20 0.2707
368.30 0.2711
368.40 0.2716
368.50 0.272
368.60 0.2724
368.70 0.2729
368.80 0.2733
368.90 0.2737
369.00 0.2742
369.10 0.2746
369.20 0.275
369.30 0.2755
369.40 0.2759
369.50 0.2763
369.60 0.2767
369.70 0.2772
369.80 0.2776
369.90 0.278
370.00 0.2785
370.10 0.2789
370.20 0.2793
370.30 0.2798
370.40 0.2802
370.50 0.2807
370.60 0.2811
370.70 0.2815
370.80 0.282
370.90 0.2824
371.00 0.2829
371.10 0.2833
371.20 0.2837
371.30 0.2842
371.40 0.2846
371.50 0.2851
371.60 0.2855
371.70 0.2859
371.80 0.2864
371.90 0.2868
372.00 0.2872
372.10 0.2877
372.20 0.2881
372.30 0.2886
372.40 0.289
372.50 0.2895
372.60 0.2899
372.70 0.2904
372.80 0.2908
372.90 0.2913
373.00 0.2917
373.10 0.2921
373.20 0.2926
373.30 0.293
373.40 0.2935
373.50 0.2939
373.60 0.2944
373.70 0.2948
373.80 0.2952
373.90 0.2957
374.00 0.2961
374.10 0.2966
374.20 0.297
374.30 0.2975
374.40 0.2979
374.50 0.2984
374.60 0.2988
374.70 0.2993
374.80 0.2998
374.90 0.3002
375.00 0.3007
375.10 0.3011
375.20 0.3016
375.30 0.302
375.40 0.3025
375.50 0.3029
375.60 0.3033
375.70 0.3038
375.80 0.3042
375.90 0.3047
376.00 0.3051
376.10 0.3056
376.20 0.3061
376.30 0.3065
376.40 0.307
376.50 0.3074
376.60 0.3079
376.70 0.3083
376.80 0.3088
376.90 0.3092
377.00 0.3097
377.10 0.3102
377.20 0.3106
377.30 0.3111
377.40 0.3115
377.50 0.312
377.60 0.3125
377.70 0.3129
377.80 0.3134
377.90 0.3138
378.00 0.3143
378.10 0.3147
378.20 0.3152
378.30 0.3157
378.40 0.3161
378.50 0.3166
378.60 0.3171
378.70 0.3175
378.80 0.318
378.90 0.3184
379.00 0.3189
379.10 0.3194
379.20 0.3198
379.30 0.3203
379.40 0.3208
379.50 0.3212
379.60 0.3217
379.70 0.3222
379.80 0.3226
379.90 0.3231
380.00 0.3235
380.10 0.324
380.20 0.3245
380.30 0.325
380.40 0.3254
380.50 0.3259
380.60 0.3264
380.70 0.3268
380.80 0.3273
380.90 0.3278
381.00 0.3282
381.10 0.3287
381.20 0.3292
381.30 0.3296
381.40 0.3301
381.50 0.3306
381.60 0.331
381.70 0.3315
381.80 0.332
381.90 0.3325
382.00 0.3329
382.10 0.3334
382.20 0.3339
382.30 0.3343
382.40 0.3348
382.50 0.3353
382.60 0.3358
382.70 0.3362
382.80 0.3367
382.90 0.3372
383.00 0.3377
383.10 0.3381
383.20 0.3386
383.30 0.3391
383.40 0.3396
383.50 0.34
383.60 0.3405
383.70 0.341
383.80 0.3415
383.90 0.3419
384.00 0.3424
384.10 0.3429
384.20 0.3434
384.30 0.3439
384.40 0.3443
384.50 0.3448
384.60 0.3453
384.70 0.3458
384.80 0.3463
384.90 0.3467
385.00 0.3472
385.10 0.3477
385.20 0.3482
385.30 0.3487
385.40 0.3491
385.50 0.3496
385.60 0.3501
385.70 0.3506
385.80 0.3511
385.90 0.3516
386.00 0.352
386.10 0.3525
386.20 0.353
386.30 0.3535
386.40 0.354
386.50 0.3545
386.60 0.3549
386.70 0.3554
386.80 0.3559
386.90 0.3564
387.00 0.3569
387.10 0.3574
387.20 0.3578
387.30 0.3583
387.40 0.3588
387.50 0.3593
387.60 0.3598
387.70 0.3603
387.80 0.3608
387.90 0.3613
388.00 0.3617
388.10 0.3622
388.20 0.3627
388.30 0.3632
388.40 0.3637
388.50 0.3642
388.60 0.3647
388.70 0.3652
388.80 0.3657
388.90 0.3662
389.00 0.3667
389.10 0.3671
389.20 0.3676
389.30 0.3681
389.40 0.3686
389.50 0.3691
389.60 0.3696
389.70 0.3701
389.80 0.3706
389.90 0.3711
390.00 0.3716
390.10 0.3721
390.20 0.3726
390.30 0.3731
390.40 0.3736
390.50 0.3741
390.60 0.3745
390.70 0.375
390.80 0.3755
390.90 0.376
391.00 0.3765
391.10 0.377
391.20 0.3775
391.30 0.378
391.40 0.3785
391.50 0.379
391.60 0.3795
391.70 0.38
391.80 0.3805
391.90 0.381
392.00 0.3815
392.10 0.382
392.20 0.3825
392.30 0.383
392.40 0.3835
392.50 0.384
392.60 0.3845
392.70 0.385
392.80 0.3855
392.90 0.386
393.00 0.3865
393.10 0.387
393.20 0.3875
393.30 0.388
393.40 0.3885
393.50 0.389
393.60 0.3895
393.70 0.39
393.80 0.3905
393.90 0.391
394.00 0.3916
394.10 0.3921
394.20 0.3926
394.30 0.3931
394.40 0.3936
394.50 0.3941
394.60 0.3946
394.70 0.3951
394.80 0.3956
394.90 0.3961
395.00 0.3966
395.10 0.3971
395.20 0.3976
395.30 0.3981
395.40 0.3986
395.50 0.3991
395.60 0.3997
395.70 0.4002
395.80 0.4007
395.90 0.4012
396.00 0.4017
396.10 0.4022
396.20 0.4027
396.30 0.4032
396.40 0.4037
396.50 0.4042
396.60 0.4047
396.70 0.4053
396.80 0.4058
396.90 0.4063
397.00 0.4068
397.10 0.4073
397.20 0.4078
397.30 0.4083
397.40 0.4088
397.50 0.4094
397.60 0.4099
397.70 0.4104
397.80 0.4109
397.90 0.4114
398.00 0.4119
398.10 0.4124
398.20 0.413
398.30 0.4135
398.40 0.414
398.50 0.4145
398.60 0.415
398.70 0.4155
398.80 0.416
398.90 0.4166
399.00 0.4171
399.10 0.4176
399.20 0.4181
399.30 0.4186
399.40 0.4191
399.50 0.4197
399.60 0.4202
399.70 0.4207
399.80 0.4212
399.90 0.4217
400.00 0.4223
400.10 0.4228
400.20 0.4233
400.30 0.4238
400.40 0.4243
400.50 0.4248
400.60 0.4254
400.70 0.4259
400.80 0.4264
400.90 0.4269
401.00 0.4275
401.10 0.428
401.20 0.4285
401.30 0.429
401.40 0.4295
401.50 0.4301
401.60 0.4306
401.70 0.4311
401.80 0.4316
401.90 0.4321
402.00 0.4327
402.10 0.4332
402.20 0.4337
402.30 0.4342
402.40 0.4348
402.50 0.4353
402.60 0.4358
402.70 0.4363
402.80 0.4369
402.90 0.4374
403.00 0.4379
403.10 0.4384
403.20 0.439
403.30 0.4395
403.40 0.44
403.50 0.4406
403.60 0.4411
403.70 0.4416
403.80 0.4421
403.90 0.4427
404.00 0.4432
404.10 0.4437
404.20 0.4442
404.30 0.4448
404.40 0.4453
404.50 0.4458
404.60 0.4464
404.70 0.4469
404.80 0.4474
404.90 0.4479
405.00 0.4485
405.10 0.449
405.20 0.4495
405.30 0.4501
405.40 0.4506
405.50 0.4511
405.60 0.4517
405.70 0.4522
405.80 0.4527
405.90 0.4533
406.00 0.4538
406.10 0.4543
406.20 0.4549
406.30 0.4554
406.40 0.4559
406.50 0.4564
406.60 0.457
406.70 0.4575
406.80 0.4581
406.90 0.4586
407.00 0.4591
407.10 0.4597
407.20 0.4602
407.30 0.4607
407.40 0.4613
407.50 0.4618
407.60 0.4623
407.70 0.4629
407.80 0.4634
407.90 0.4639
408.00 0.4645
408.10 0.465
408.20 0.4655
408.30 0.4661
408.40 0.4666
408.50 0.4672
408.60 0.4677
408.70 0.4682
408.80 0.4688
408.90 0.4693
409.00 0.4698
409.10 0.4704
409.20 0.4709
409.30 0.4715
409.40 0.472
409.50 0.4725
409.60 0.4731
409.70 0.4736
409.80 0.4742
409.90 0.4747
410.00 0.4752
410.10 0.4758
410.20 0.4763
410.30 0.4769
410.40 0.4774
410.50 0.4779
410.60 0.4785
410.70 0.479
410.80 0.4796
410.90 0.4801
411.00 0.4807
411.10 0.4812
411.20 0.4817
411.30 0.4823
411.40 0.4828
411.50 0.4834
411.60 0.4839
411.70 0.4845
411.80 0.485
411.90 0.4855
412.00 0.4861
412.10 0.4866
412.20 0.4872
412.30 0.4877
412.40 0.4883
412.50 0.4888
412.60 0.4894
412.70 0.4899
412.80 0.4904
412.90 0.491
413.00 0.4915
413.10 0.4921
413.20 0.4926
413.30 0.4932
413.40 0.4937
413.50 0.4943
413.60 0.4948
413.70 0.4954
413.80 0.4959
413.90 0.4965
414.00 0.497
414.10 0.4976
414.20 0.4981
414.30 0.4986
414.40 0.4992
414.50 0.4997
414.60 0.5003
414.70 0.5008
414.80 0.5014
414.90 0.5019
415.00 0.5025
415.10 0.503
415.20 0.5036
415.30 0.5041
415.40 0.5047
415.50 0.5052
415.60 0.5058
415.70 0.5063
415.80 0.5069
415.90 0.5074
416.00 0.508
416.10 0.5085
416.20 0.5091
416.30 0.5097
416.40 0.5102
416.50 0.5108
416.60 0.5113
416.70 0.5119
416.80 0.5124
416.90 0.513
417.00 0.5135
417.10 0.5141
417.20 0.5146
417.30 0.5152
417.40 0.5157
417.50 0.5163
417.60 0.5168
417.70 0.5174
417.80 0.518
417.90 0.5185
418.00 0.5191
418.10 0.5196
418.20 0.5202
418.30 0.5207
418.40 0.5213
418.50 0.5218
418.60 0.5224
418.70 0.523
418.80 0.5235
418.90 0.5241
419.00 0.5246
419.10 0.5252
419.20 0.5257
419.30 0.5263
419.40 0.5269
419.50 0.5274
419.60 0.528
419.70 0.5285
419.80 0.5291
419.90 0.5296
420.00 0.5302
420.10 0.5308
420.20 0.5313
420.30 0.5319
420.40 0.5324
420.50 0.533
420.60 0.5336
420.70 0.5341
420.80 0.5347
420.90 0.5352
421.00 0.5358
421.10 0.5363
421.20 0.5369
421.30 0.5375
421.40 0.538
421.50 0.5386
421.60 0.5392
421.70 0.5397
421.80 0.5403
421.90 0.5408
422.00 0.5414
422.10 0.542
422.20 0.5425
422.30 0.5431
422.40 0.5436
422.50 0.5442
422.60 0.5448
422.70 0.5453
422.80 0.5459
422.90 0.5465
423.00 0.547
423.10 0.5476
423.20 0.5481
423.30 0.5487
423.40 0.5493
423.50 0.5498
423.60 0.5504
423.70 0.551
423.80 0.5515
423.90 0.5521
424.00 0.5527
424.10 0.5532
424.20 0.5538
424.30 0.5544
424.40 0.5549
424.50 0.5555
424.60 0.556
424.70 0.5566
424.80 0.5572
424.90 0.5577
425.00 0.5583
425.10 0.5589
425.20 0.5594
425.30 0.56
425.40 0.5606
425.50 0.5611
425.60 0.5617
425.70 0.5623
425.80 0.5628
425.90 0.5634
426.00 0.564
426.10 0.5645
426.20 0.5651
426.30 0.5657
426.40 0.5662
426.50 0.5668
426.60 0.5674
426.70 0.568
426.80 0.5685
426.90 0.5691
427.00 0.5697
427.10 0.5702
427.20 0.5708
427.30 0.5714
427.40 0.5719
427.50 0.5725
427.60 0.5731
427.70 0.5736
427.80 0.5742
427.90 0.5748
428.00 0.5754
428.10 0.5759
428.20 0.5765
428.30 0.5771
428.40 0.5776
428.50 0.5782
428.60 0.5788
428.70 0.5794
428.80 0.5799
428.90 0.5805
429.00 0.5811
429.10 0.5816
429.20 0.5822
429.30 0.5828
429.40 0.5834
429.50 0.5839
429.60 0.5845
429.70 0.5851
429.80 0.5856
429.90 0.5862
430.00 0.5868
430.10 0.5874
430.20 0.5879
430.30 0.5885
430.40 0.5891
430.50 0.5897
430.60 0.5902
430.70 0.5908
430.80 0.5914
430.90 0.5919
431.00 0.5925
431.10 0.5931
431.20 0.5937
431.30 0.5942
431.40 0.5948
431.50 0.5954
431.60 0.596
431.70 0.5965
431.80 0.5971
431.90 0.5977
432.00 0.5983
432.10 0.5988
432.20 0.5994
432.30 0.6
432.40 0.6006
432.50 0.6011
432.60 0.6017
432.70 0.6023
432.80 0.6029
432.90 0.6035
433.00 0.604
433.10 0.6046
433.20 0.6052
433.30 0.6058
433.40 0.6063
433.50 0.6069
433.60 0.6075
433.70 0.6081
433.80 0.6086
433.90 0.6092
434.00 0.6098
434.10 0.6104
434.20 0.611
434.30 0.6115
434.40 0.6121
434.50 0.6127
434.60 0.6133
434.70 0.6138
434.80 0.6144
434.90 0.615
435.00 0.6156
435.10 0.6162
435.20 0.6167
435.30 0.6173
435.40 0.6179
435.50 0.6185
435.60 0.6191
435.70 0.6196
435.80 0.6202
435.90 0.6208
436.00 0.6214
436.10 0.622
436.20 0.6225
436.30 0.6231
436.40 0.6237
436.50 0.6243
436.60 0.6249
436.70 0.6254
436.80 0.626
436.90 0.6266
437.00 0.6272
437.10 0.6278
437.20 0.6283
437.30 0.6289
437.40 0.6295
437.50 0.6301
437.60 0.6307
437.70 0.6313
437.80 0.6318
437.90 0.6324
438.00 0.633
438.10 0.6336
438.20 0.6342
438.30 0.6347
438.40 0.6353
438.50 0.6359
438.60 0.6365
438.70 0.6371
438.80 0.6377
438.90 0.6383
439.00 0.6389
439.10 0.6394
439.20 0.64
439.30 0.6406
439.40 0.6411
439.50 0.6417
439.60 0.6423
439.70 0.6429
439.80 0.6435
439.90 0.6441
440.00 0.6447
440.10 0.6452
440.20 0.6458
440.30 0.6464
440.40 0.647
440.50 0.6476
440.60 0.6482
440.70 0.6488
440.80 0.6494
440.90 0.6499
441.00 0.6505
441.10 0.6511
441.20 0.6516
441.30 0.6522
441.40 0.6528
441.50 0.6534
441.60 0.654
441.70 0.6546
441.80 0.6552
