# Version 2.1 - nm, norm@500 to 1, cut digits, bergeron_4500_75.dat_4500
# Wavelength(nm)  Flambda(ergs/cm^s/s/nm)
300.00 0.2439
300.10 0.2443
300.20 0.2447
300.30 0.2451
300.40 0.2455
300.50 0.2459
300.60 0.2463
300.70 0.2467
300.80 0.2471
300.90 0.2475
301.00 0.2478
301.10 0.2482
301.20 0.2486
301.30 0.249
301.40 0.2494
301.50 0.2498
301.60 0.2502
301.70 0.2505
301.80 0.2509
301.90 0.2513
302.00 0.2517
302.10 0.2521
302.20 0.2525
302.30 0.2529
302.40 0.2533
302.50 0.2537
302.60 0.2541
302.70 0.2545
302.80 0.2549
302.90 0.2553
303.00 0.2557
303.10 0.256
303.20 0.2564
303.30 0.2568
303.40 0.2572
303.50 0.2576
303.60 0.258
303.70 0.2584
303.80 0.2588
303.90 0.2592
304.00 0.2596
304.10 0.26
304.20 0.2604
304.30 0.2608
304.40 0.2612
304.50 0.2616
304.60 0.262
304.70 0.2624
304.80 0.2628
304.90 0.2631
305.00 0.2635
305.10 0.2639
305.20 0.2643
305.30 0.2647
305.40 0.2651
305.50 0.2655
305.60 0.2659
305.70 0.2663
305.80 0.2667
305.90 0.2671
306.00 0.2675
306.10 0.2679
306.20 0.2683
306.30 0.2687
306.40 0.2691
306.50 0.2695
306.60 0.2699
306.70 0.2703
306.80 0.2707
306.90 0.2711
307.00 0.2715
307.10 0.2719
307.20 0.2723
307.30 0.2727
307.40 0.2731
307.50 0.2735
307.60 0.2739
307.70 0.2743
307.80 0.2747
307.90 0.2751
308.00 0.2755
308.10 0.2759
308.20 0.2763
308.30 0.2767
308.40 0.2771
308.50 0.2776
308.60 0.278
308.70 0.2784
308.80 0.2788
308.90 0.2792
309.00 0.2796
309.10 0.28
309.20 0.2804
309.30 0.2808
309.40 0.2812
309.50 0.2816
309.60 0.282
309.70 0.2824
309.80 0.2828
309.90 0.2832
310.00 0.2836
310.10 0.284
310.20 0.2844
310.30 0.2849
310.40 0.2853
310.50 0.2857
310.60 0.2861
310.70 0.2865
310.80 0.2869
310.90 0.2873
311.00 0.2877
311.10 0.2881
311.20 0.2885
311.30 0.289
311.40 0.2894
311.50 0.2898
311.60 0.2902
311.70 0.2906
311.80 0.291
311.90 0.2914
312.00 0.2918
312.10 0.2922
312.20 0.2926
312.30 0.293
312.40 0.2934
312.50 0.2938
312.60 0.2943
312.70 0.2947
312.80 0.2951
312.90 0.2955
313.00 0.2959
313.10 0.2963
313.20 0.2967
313.30 0.2972
313.40 0.2976
313.50 0.298
313.60 0.2984
313.70 0.2988
313.80 0.2992
313.90 0.2996
314.00 0.3
314.10 0.3004
314.20 0.3009
314.30 0.3013
314.40 0.3017
314.50 0.3021
314.60 0.3025
314.70 0.303
314.80 0.3034
314.90 0.3038
315.00 0.3042
315.10 0.3046
315.20 0.305
315.30 0.3055
315.40 0.3059
315.50 0.3063
315.60 0.3067
315.70 0.3071
315.80 0.3075
315.90 0.3079
316.00 0.3083
316.10 0.3088
316.20 0.3092
316.30 0.3096
316.40 0.31
316.50 0.3105
316.60 0.3109
316.70 0.3113
316.80 0.3117
316.90 0.3121
317.00 0.3126
317.10 0.313
317.20 0.3134
317.30 0.3138
317.40 0.3142
317.50 0.3147
317.60 0.3151
317.70 0.3155
317.80 0.3159
317.90 0.3163
318.00 0.3167
318.10 0.3172
318.20 0.3176
318.30 0.318
318.40 0.3184
318.50 0.3189
318.60 0.3193
318.70 0.3197
318.80 0.3201
318.90 0.3206
319.00 0.321
319.10 0.3214
319.20 0.3218
319.30 0.3222
319.40 0.3227
319.50 0.3231
319.60 0.3235
319.70 0.3239
319.80 0.3243
319.90 0.3248
320.00 0.3252
320.10 0.3256
320.20 0.326
320.30 0.3265
320.40 0.3269
320.50 0.3273
320.60 0.3277
320.70 0.3282
320.80 0.3286
320.90 0.329
321.00 0.3295
321.10 0.3299
321.20 0.3303
321.30 0.3307
321.40 0.3312
321.50 0.3316
321.60 0.332
321.70 0.3324
321.80 0.3328
321.90 0.3333
322.00 0.3337
322.10 0.3341
322.20 0.3346
322.30 0.335
322.40 0.3354
322.50 0.3358
322.60 0.3363
322.70 0.3367
322.80 0.3371
322.90 0.3376
323.00 0.338
323.10 0.3384
323.20 0.3389
323.30 0.3393
323.40 0.3397
323.50 0.3401
323.60 0.3406
323.70 0.341
323.80 0.3414
323.90 0.3418
324.00 0.3423
324.10 0.3427
324.20 0.3431
324.30 0.3436
324.40 0.344
324.50 0.3444
324.60 0.3449
324.70 0.3453
324.80 0.3457
324.90 0.3462
325.00 0.3466
325.10 0.347
325.20 0.3474
325.30 0.3479
325.40 0.3483
325.50 0.3487
325.60 0.3492
325.70 0.3496
325.80 0.35
325.90 0.3504
326.00 0.3509
326.10 0.3513
326.20 0.3517
326.30 0.3522
326.40 0.3526
326.50 0.353
326.60 0.3535
326.70 0.3539
326.80 0.3544
326.90 0.3548
327.00 0.3552
327.10 0.3557
327.20 0.3561
327.30 0.3565
327.40 0.357
327.50 0.3574
327.60 0.3578
327.70 0.3582
327.80 0.3587
327.90 0.3591
328.00 0.3595
328.10 0.36
328.20 0.3604
328.30 0.3609
328.40 0.3613
328.50 0.3617
328.60 0.3622
328.70 0.3626
328.80 0.363
328.90 0.3635
329.00 0.3639
329.10 0.3644
329.20 0.3648
329.30 0.3652
329.40 0.3657
329.50 0.3661
329.60 0.3665
329.70 0.3669
329.80 0.3674
329.90 0.3678
330.00 0.3682
330.10 0.3687
330.20 0.3691
330.30 0.3696
330.40 0.37
330.50 0.3704
330.60 0.3709
330.70 0.3713
330.80 0.3718
330.90 0.3722
331.00 0.3726
331.10 0.3731
331.20 0.3735
331.30 0.374
331.40 0.3744
331.50 0.3748
331.60 0.3753
331.70 0.3757
331.80 0.3761
331.90 0.3766
332.00 0.377
332.10 0.3774
332.20 0.3779
332.30 0.3783
332.40 0.3788
332.50 0.3792
332.60 0.3796
332.70 0.3801
332.80 0.3805
332.90 0.381
333.00 0.3814
333.10 0.3819
333.20 0.3823
333.30 0.3827
333.40 0.3832
333.50 0.3836
333.60 0.384
333.70 0.3845
333.80 0.3849
333.90 0.3853
334.00 0.3858
334.10 0.3862
334.20 0.3867
334.30 0.3871
334.40 0.3876
334.50 0.388
334.60 0.3884
334.70 0.3889
334.80 0.3893
334.90 0.3898
335.00 0.3902
335.10 0.3907
335.20 0.3911
335.30 0.3915
335.40 0.392
335.50 0.3924
335.60 0.3929
335.70 0.3933
335.80 0.3937
335.90 0.3942
336.00 0.3946
336.10 0.395
336.20 0.3955
336.30 0.3959
336.40 0.3964
336.50 0.3968
336.60 0.3973
336.70 0.3977
336.80 0.3982
336.90 0.3986
337.00 0.3991
337.10 0.3995
337.20 0.3999
337.30 0.4004
337.40 0.4008
337.50 0.4013
337.60 0.4017
337.70 0.4021
337.80 0.4026
337.90 0.403
338.00 0.4035
338.10 0.4039
338.20 0.4044
338.30 0.4048
338.40 0.4052
338.50 0.4057
338.60 0.4061
338.70 0.4066
338.80 0.407
338.90 0.4075
339.00 0.4079
339.10 0.4084
339.20 0.4088
339.30 0.4093
339.40 0.4097
339.50 0.4101
339.60 0.4106
339.70 0.411
339.80 0.4115
339.90 0.4119
340.00 0.4123
340.10 0.4128
340.20 0.4132
340.30 0.4137
340.40 0.4141
340.50 0.4146
340.60 0.415
340.70 0.4155
340.80 0.4159
340.90 0.4164
341.00 0.4168
341.10 0.4173
341.20 0.4177
341.30 0.4182
341.40 0.4186
341.50 0.419
341.60 0.4195
341.70 0.4199
341.80 0.4204
341.90 0.4208
342.00 0.4212
342.10 0.4217
342.20 0.4222
342.30 0.4226
342.40 0.4231
342.50 0.4235
342.60 0.424
342.70 0.4244
342.80 0.4249
342.90 0.4253
343.00 0.4257
343.10 0.4262
343.20 0.4266
343.30 0.4271
343.40 0.4275
343.50 0.428
343.60 0.4284
343.70 0.4289
343.80 0.4293
343.90 0.4298
344.00 0.4302
344.10 0.4306
344.20 0.4311
344.30 0.4316
344.40 0.432
344.50 0.4325
344.60 0.4329
344.70 0.4334
344.80 0.4338
344.90 0.4342
345.00 0.4347
345.10 0.4351
345.20 0.4356
345.30 0.436
345.40 0.4365
345.50 0.4369
345.60 0.4374
345.70 0.4378
345.80 0.4383
345.90 0.4387
346.00 0.4391
346.10 0.4396
346.20 0.44
346.30 0.4405
346.40 0.441
346.50 0.4414
346.60 0.4419
346.70 0.4423
346.80 0.4428
346.90 0.4432
347.00 0.4437
347.10 0.4441
347.20 0.4445
347.30 0.445
347.40 0.4454
347.50 0.4459
347.60 0.4463
347.70 0.4468
347.80 0.4472
347.90 0.4477
348.00 0.4481
348.10 0.4486
348.20 0.449
348.30 0.4495
348.40 0.4499
348.50 0.4504
348.60 0.4508
348.70 0.4513
348.80 0.4517
348.90 0.4522
349.00 0.4526
349.10 0.4531
349.20 0.4535
349.30 0.454
349.40 0.4544
349.50 0.4549
349.60 0.4553
349.70 0.4558
349.80 0.4562
349.90 0.4566
350.00 0.4571
350.10 0.4575
350.20 0.458
350.30 0.4584
350.40 0.4589
350.50 0.4594
350.60 0.4598
350.70 0.4603
350.80 0.4607
350.90 0.4612
351.00 0.4616
351.10 0.4621
351.20 0.4625
351.30 0.4629
351.40 0.4634
351.50 0.4638
351.60 0.4643
351.70 0.4647
351.80 0.4652
351.90 0.4656
352.00 0.4661
352.10 0.4665
352.20 0.467
352.30 0.4674
352.40 0.4679
352.50 0.4683
352.60 0.4688
352.70 0.4692
352.80 0.4697
352.90 0.4701
353.00 0.4706
353.10 0.471
353.20 0.4715
353.30 0.4719
353.40 0.4724
353.50 0.4728
353.60 0.4733
353.70 0.4737
353.80 0.4742
353.90 0.4746
354.00 0.4751
354.10 0.4755
354.20 0.476
354.30 0.4764
354.40 0.4769
354.50 0.4773
354.60 0.4778
354.70 0.4782
354.80 0.4787
354.90 0.4791
355.00 0.4796
355.10 0.48
355.20 0.4805
355.30 0.4809
355.40 0.4814
355.50 0.4818
355.60 0.4823
355.70 0.4827
355.80 0.4832
355.90 0.4836
356.00 0.4841
356.10 0.4845
356.20 0.485
356.30 0.4854
356.40 0.4859
356.50 0.4863
356.60 0.4868
356.70 0.4872
356.80 0.4877
356.90 0.4881
357.00 0.4886
357.10 0.489
357.20 0.4895
357.30 0.4899
357.40 0.4904
357.50 0.4908
357.60 0.4913
357.70 0.4917
357.80 0.4922
357.90 0.4926
358.00 0.493
358.10 0.4935
358.20 0.4939
358.30 0.4944
358.40 0.4949
358.50 0.4953
358.60 0.4958
358.70 0.4962
358.80 0.4967
358.90 0.4971
359.00 0.4976
359.10 0.498
359.20 0.4985
359.30 0.4989
359.40 0.4994
359.50 0.4998
359.60 0.5002
359.70 0.5007
359.80 0.5011
359.90 0.5016
360.00 0.502
360.10 0.5025
360.20 0.5029
360.30 0.5034
360.40 0.5038
360.50 0.5043
360.60 0.5047
360.70 0.5052
360.80 0.5056
360.90 0.5061
361.00 0.5065
361.10 0.507
361.20 0.5074
361.30 0.5079
361.40 0.5083
361.50 0.5088
361.60 0.5092
361.70 0.5097
361.80 0.5101
361.90 0.5106
362.00 0.511
362.10 0.5115
362.20 0.5119
362.30 0.5124
362.40 0.5128
362.50 0.5133
362.60 0.5137
362.70 0.5142
362.80 0.5146
362.90 0.5151
363.00 0.5155
363.10 0.516
363.20 0.5164
363.30 0.5169
363.40 0.5173
363.50 0.5178
363.60 0.5182
363.70 0.5187
363.80 0.5191
363.90 0.5195
364.00 0.52
364.10 0.5204
364.20 0.5209
364.30 0.5213
364.40 0.5218
364.50 0.5222
364.60 0.5227
364.70 0.5231
364.80 0.5236
364.90 0.524
365.00 0.5245
365.10 0.5249
365.20 0.5254
365.30 0.5258
365.40 0.5263
365.50 0.5267
365.60 0.5272
365.70 0.5276
365.80 0.5281
365.90 0.5285
366.00 0.5289
366.10 0.5294
366.20 0.5298
366.30 0.5303
366.40 0.5307
366.50 0.5312
366.60 0.5316
366.70 0.5321
366.80 0.5325
366.90 0.533
367.00 0.5334
367.10 0.5339
367.20 0.5343
367.30 0.5348
367.40 0.5352
367.50 0.5357
367.60 0.5361
367.70 0.5366
367.80 0.537
367.90 0.5374
368.00 0.5379
368.10 0.5383
368.20 0.5388
368.30 0.5392
368.40 0.5397
368.50 0.5401
368.60 0.5406
368.70 0.541
368.80 0.5415
368.90 0.5419
369.00 0.5424
369.10 0.5428
369.20 0.5433
369.30 0.5437
369.40 0.5442
369.50 0.5446
369.60 0.5451
369.70 0.5455
369.80 0.5459
369.90 0.5464
370.00 0.5468
370.10 0.5473
370.20 0.5477
370.30 0.5482
370.40 0.5486
370.50 0.5491
370.60 0.5495
370.70 0.55
370.80 0.5504
370.90 0.5509
371.00 0.5513
371.10 0.5518
371.20 0.5522
371.30 0.5526
371.40 0.5531
371.50 0.5535
371.60 0.554
371.70 0.5544
371.80 0.5549
371.90 0.5553
372.00 0.5557
372.10 0.5562
372.20 0.5566
372.30 0.5571
372.40 0.5575
372.50 0.558
372.60 0.5584
372.70 0.5589
372.80 0.5593
372.90 0.5598
373.00 0.5602
373.10 0.5606
373.20 0.5611
373.30 0.5615
373.40 0.562
373.50 0.5624
373.60 0.5629
373.70 0.5633
373.80 0.5637
373.90 0.5642
374.00 0.5646
374.10 0.5651
374.20 0.5655
374.30 0.566
374.40 0.5664
374.50 0.5669
374.60 0.5673
374.70 0.5677
374.80 0.5682
374.90 0.5686
375.00 0.5691
375.10 0.5695
375.20 0.57
375.30 0.5704
375.40 0.5708
375.50 0.5713
375.60 0.5717
375.70 0.5722
375.80 0.5726
375.90 0.573
376.00 0.5735
376.10 0.5739
376.20 0.5744
376.30 0.5748
376.40 0.5752
376.50 0.5757
376.60 0.5761
376.70 0.5766
376.80 0.577
376.90 0.5774
377.00 0.5779
377.10 0.5783
377.20 0.5788
377.30 0.5792
377.40 0.5797
377.50 0.5801
377.60 0.5805
377.70 0.581
377.80 0.5814
377.90 0.5819
378.00 0.5823
378.10 0.5827
378.20 0.5832
378.30 0.5836
378.40 0.5841
378.50 0.5845
378.60 0.5849
378.70 0.5854
378.80 0.5858
378.90 0.5863
379.00 0.5867
379.10 0.5871
379.20 0.5876
379.30 0.588
379.40 0.5885
379.50 0.5889
379.60 0.5893
379.70 0.5898
379.80 0.5902
379.90 0.5907
380.00 0.5911
380.10 0.5915
380.20 0.592
380.30 0.5924
380.40 0.5929
380.50 0.5933
380.60 0.5937
380.70 0.5942
380.80 0.5946
380.90 0.595
381.00 0.5955
381.10 0.5959
381.20 0.5964
381.30 0.5968
381.40 0.5972
381.50 0.5977
381.60 0.5981
381.70 0.5985
381.80 0.599
381.90 0.5994
382.00 0.5999
382.10 0.6003
382.20 0.6007
382.30 0.6012
382.40 0.6016
382.50 0.602
382.60 0.6025
382.70 0.6029
382.80 0.6034
382.90 0.6038
383.00 0.6042
383.10 0.6047
383.20 0.6051
383.30 0.6055
383.40 0.606
383.50 0.6064
383.60 0.6068
383.70 0.6073
383.80 0.6077
383.90 0.6081
384.00 0.6086
384.10 0.609
384.20 0.6095
384.30 0.6099
384.40 0.6103
384.50 0.6108
384.60 0.6112
384.70 0.6116
384.80 0.6121
384.90 0.6125
385.00 0.6129
385.10 0.6134
385.20 0.6138
385.30 0.6142
385.40 0.6147
385.50 0.6151
385.60 0.6155
385.70 0.616
385.80 0.6164
385.90 0.6168
386.00 0.6173
386.10 0.6177
386.20 0.6181
386.30 0.6186
386.40 0.619
386.50 0.6194
386.60 0.6199
386.70 0.6203
386.80 0.6207
386.90 0.6212
387.00 0.6216
387.10 0.622
387.20 0.6225
387.30 0.6229
387.40 0.6233
387.50 0.6238
387.60 0.6242
387.70 0.6246
387.80 0.6251
387.90 0.6255
388.00 0.6259
388.10 0.6263
388.20 0.6268
388.30 0.6272
388.40 0.6276
388.50 0.6281
388.60 0.6285
388.70 0.6289
388.80 0.6294
388.90 0.6298
389.00 0.6302
389.10 0.6307
389.20 0.6311
389.30 0.6315
389.40 0.6319
389.50 0.6324
389.60 0.6328
389.70 0.6332
389.80 0.6337
389.90 0.6341
390.00 0.6345
390.10 0.635
390.20 0.6354
390.30 0.6358
390.40 0.6362
390.50 0.6367
390.60 0.6371
390.70 0.6375
390.80 0.638
390.90 0.6384
391.00 0.6388
391.10 0.6392
391.20 0.6397
391.30 0.6401
391.40 0.6405
391.50 0.6409
391.60 0.6414
391.70 0.6418
391.80 0.6422
391.90 0.6427
392.00 0.6431
392.10 0.6435
392.20 0.6439
392.30 0.6444
392.40 0.6448
392.50 0.6452
392.60 0.6456
392.70 0.6461
392.80 0.6465
392.90 0.6469
393.00 0.6473
393.10 0.6478
393.20 0.6482
393.30 0.6486
393.40 0.649
393.50 0.6495
393.60 0.6499
393.70 0.6503
393.80 0.6507
393.90 0.6512
394.00 0.6516
394.10 0.652
394.20 0.6524
394.30 0.6529
394.40 0.6533
394.50 0.6537
394.60 0.6541
394.70 0.6546
394.80 0.655
394.90 0.6554
395.00 0.6558
395.10 0.6563
395.20 0.6567
395.30 0.6571
395.40 0.6575
395.50 0.6579
395.60 0.6584
395.70 0.6588
395.80 0.6592
395.90 0.6596
396.00 0.6601
396.10 0.6605
396.20 0.6609
396.30 0.6613
396.40 0.6617
396.50 0.6622
396.60 0.6626
396.70 0.663
396.80 0.6634
396.90 0.6638
397.00 0.6643
397.10 0.6647
397.20 0.6651
397.30 0.6655
397.40 0.666
397.50 0.6664
397.60 0.6668
397.70 0.6672
397.80 0.6676
397.90 0.6681
398.00 0.6685
398.10 0.6689
398.20 0.6693
398.30 0.6697
398.40 0.6701
398.50 0.6706
398.60 0.671
398.70 0.6714
398.80 0.6718
398.90 0.6722
399.00 0.6727
399.10 0.6731
399.20 0.6735
399.30 0.6739
399.40 0.6743
399.50 0.6747
399.60 0.6752
399.70 0.6756
399.80 0.676
399.90 0.6764
400.00 0.6768
400.10 0.6772
400.20 0.6777
400.30 0.6781
400.40 0.6785
400.50 0.6789
400.60 0.6793
400.70 0.6797
400.80 0.6802
400.90 0.6806
401.00 0.681
401.10 0.6814
401.20 0.6818
401.30 0.6822
401.40 0.6826
401.50 0.6831
401.60 0.6835
401.70 0.6839
401.80 0.6843
401.90 0.6847
402.00 0.6851
402.10 0.6855
402.20 0.686
402.30 0.6864
402.40 0.6868
402.50 0.6872
402.60 0.6876
402.70 0.688
402.80 0.6884
402.90 0.6888
403.00 0.6893
403.10 0.6897
403.20 0.6901
403.30 0.6905
403.40 0.6909
403.50 0.6913
403.60 0.6917
403.70 0.6921
403.80 0.6926
403.90 0.693
404.00 0.6934
404.10 0.6938
404.20 0.6942
404.30 0.6946
404.40 0.695
404.50 0.6954
404.60 0.6958
404.70 0.6962
404.80 0.6967
404.90 0.6971
405.00 0.6975
405.10 0.6979
405.20 0.6983
405.30 0.6987
405.40 0.6991
405.50 0.6995
405.60 0.6999
405.70 0.7003
405.80 0.7007
405.90 0.7012
406.00 0.7016
406.10 0.702
406.20 0.7024
406.30 0.7028
406.40 0.7032
406.50 0.7036
406.60 0.704
406.70 0.7044
406.80 0.7048
406.90 0.7052
407.00 0.7056
407.10 0.706
407.20 0.7064
407.30 0.7068
407.40 0.7073
407.50 0.7077
407.60 0.7081
407.70 0.7085
407.80 0.7089
407.90 0.7093
408.00 0.7097
408.10 0.7101
408.20 0.7105
408.30 0.7109
408.40 0.7113
408.50 0.7117
408.60 0.7121
408.70 0.7125
408.80 0.7129
408.90 0.7133
409.00 0.7137
409.10 0.7141
409.20 0.7145
409.30 0.7149
409.40 0.7153
409.50 0.7157
409.60 0.7161
409.70 0.7165
409.80 0.7169
409.90 0.7173
410.00 0.7176
410.10 0.718
410.20 0.7183
410.30 0.7188
410.40 0.7192
410.50 0.7197
410.60 0.7201
410.70 0.7205
410.80 0.7209
410.90 0.7213
411.00 0.7217
411.10 0.7221
411.20 0.7225
411.30 0.7229
411.40 0.7234
411.50 0.7237
411.60 0.7242
411.70 0.7246
411.80 0.725
411.90 0.7253
412.00 0.7258
412.10 0.7261
412.20 0.7265
412.30 0.7269
412.40 0.7273
412.50 0.7277
412.60 0.7281
412.70 0.7285
412.80 0.7289
412.90 0.7293
413.00 0.7297
413.10 0.7301
413.20 0.7305
413.30 0.7309
413.40 0.7313
413.50 0.7317
413.60 0.7321
413.70 0.7325
413.80 0.7329
413.90 0.7333
414.00 0.7337
414.10 0.7341
414.20 0.7345
414.30 0.7349
414.40 0.7353
414.50 0.7357
414.60 0.7361
414.70 0.7365
414.80 0.7368
414.90 0.7372
415.00 0.7376
415.10 0.738
415.20 0.7384
415.30 0.7388
415.40 0.7392
415.50 0.7396
415.60 0.74
415.70 0.7404
415.80 0.7408
415.90 0.7412
416.00 0.7416
416.10 0.7419
416.20 0.7423
416.30 0.7427
416.40 0.7431
416.50 0.7435
416.60 0.7439
416.70 0.7443
416.80 0.7447
416.90 0.7451
417.00 0.7455
417.10 0.7459
417.20 0.7462
417.30 0.7466
417.40 0.747
417.50 0.7474
417.60 0.7478
417.70 0.7482
417.80 0.7486
417.90 0.749
418.00 0.7494
418.10 0.7498
418.20 0.7501
418.30 0.7505
418.40 0.7509
418.50 0.7513
418.60 0.7517
418.70 0.7521
418.80 0.7525
418.90 0.7528
419.00 0.7532
419.10 0.7536
419.20 0.754
419.30 0.7544
419.40 0.7548
419.50 0.7552
419.60 0.7555
419.70 0.7559
419.80 0.7563
419.90 0.7567
420.00 0.7571
420.10 0.7575
420.20 0.7579
420.30 0.7582
420.40 0.7586
420.50 0.759
420.60 0.7594
420.70 0.7598
420.80 0.7602
420.90 0.7605
421.00 0.7609
421.10 0.7613
421.20 0.7617
421.30 0.7621
421.40 0.7625
421.50 0.7628
421.60 0.7632
421.70 0.7636
421.80 0.764
421.90 0.7644
422.00 0.7647
422.10 0.7651
422.20 0.7655
422.30 0.7659
422.40 0.7663
422.50 0.7667
422.60 0.767
422.70 0.7674
422.80 0.7678
422.90 0.7682
423.00 0.7686
423.10 0.7689
423.20 0.7693
423.30 0.7697
423.40 0.7701
423.50 0.7704
423.60 0.7708
423.70 0.7712
423.80 0.7716
423.90 0.772
424.00 0.7723
424.10 0.7727
424.20 0.7731
424.30 0.7735
424.40 0.7738
424.50 0.7742
424.60 0.7746
424.70 0.775
424.80 0.7754
424.90 0.7757
425.00 0.7761
425.10 0.7765
425.20 0.7769
425.30 0.7772
425.40 0.7776
425.50 0.778
425.60 0.7784
425.70 0.7787
425.80 0.7791
425.90 0.7795
426.00 0.7799
426.10 0.7802
426.20 0.7806
426.30 0.781
426.40 0.7814
426.50 0.7817
426.60 0.7821
426.70 0.7825
426.80 0.7828
426.90 0.7832
427.00 0.7836
427.10 0.784
427.20 0.7843
427.30 0.7847
427.40 0.7851
427.50 0.7854
427.60 0.7858
427.70 0.7862
427.80 0.7866
427.90 0.7869
428.00 0.7873
428.10 0.7877
428.20 0.788
428.30 0.7884
428.40 0.7888
428.50 0.7891
428.60 0.7895
428.70 0.7899
428.80 0.7902
428.90 0.7906
429.00 0.791
429.10 0.7914
429.20 0.7917
429.30 0.7921
429.40 0.7925
429.50 0.7928
429.60 0.7932
429.70 0.7936
429.80 0.7939
429.90 0.7943
430.00 0.7947
430.10 0.795
430.20 0.7954
430.30 0.7958
430.40 0.7961
430.50 0.7965
430.60 0.7969
430.70 0.7972
430.80 0.7976
430.90 0.7979
431.00 0.7983
431.10 0.7987
431.20 0.799
431.30 0.7994
431.40 0.7998
431.50 0.8001
431.60 0.8005
431.70 0.8009
431.80 0.8012
431.90 0.8016
432.00 0.8019
432.10 0.8023
432.20 0.8027
432.30 0.803
432.40 0.8034
432.50 0.8037
432.60 0.8041
432.70 0.8045
432.80 0.8048
432.90 0.8052
433.00 0.8055
433.10 0.8059
433.20 0.8062
433.30 0.8066
433.40 0.8069
433.50 0.8072
433.60 0.8075
433.70 0.8078
433.80 0.808
433.90 0.8082
434.00 0.8084
434.10 0.8087
434.20 0.8093
434.30 0.8099
434.40 0.8103
434.50 0.8108
434.60 0.8112
434.70 0.8116
434.80 0.812
434.90 0.8123
435.00 0.8127
435.10 0.8131
435.20 0.8134
435.30 0.8138
435.40 0.8141
435.50 0.8145
435.60 0.8149
435.70 0.8152
435.80 0.8156
435.90 0.8159
436.00 0.8163
436.10 0.8166
436.20 0.817
436.30 0.8174
436.40 0.8177
436.50 0.8181
436.60 0.8184
436.70 0.8188
436.80 0.8191
436.90 0.8195
437.00 0.8198
437.10 0.8202
437.20 0.8205
437.30 0.8209
437.40 0.8212
437.50 0.8216
437.60 0.8219
437.70 0.8223
437.80 0.8226
437.90 0.823
438.00 0.8234
438.10 0.8237
438.20 0.8241
438.30 0.8244
438.40 0.8248
438.50 0.8251
438.60 0.8255
438.70 0.8258
438.80 0.8262
438.90 0.8265
439.00 0.8268
439.10 0.8272
439.20 0.8275
439.30 0.8279
439.40 0.8282
439.50 0.8286
439.60 0.8289
439.70 0.8293
439.80 0.8296
439.90 0.83
440.00 0.8303
440.10 0.8307
440.20 0.831
440.30 0.8314
440.40 0.8317
440.50 0.8321
440.60 0.8324
440.70 0.8328
440.80 0.8331
440.90 0.8334
441.00 0.8338
441.10 0.8341
441.20 0.8345
441.30 0.8348
441.40 0.8352
441.50 0.8355
441.60 0.8359
441.70 0.8362
441.80 0.8365
441.90 0.8369
442.00 0.8372
442.10 0.8376
442.20 0.8379
442.30 0.8383
442.40 0.8386
442.50 0.8389
442.60 0.8393
442.70 0.8396
442.80 0.84
442.90 0.8403
443.00 0.8406
