# Version 2.1 - nm, norm@500 to 1, cut digits, bergeron_50000_90.dat_50000
# Wavelength(nm)  Flambda(ergs/cm^s/s/nm)
300.00 6.238
300.10 6.231
300.20 6.223
300.30 6.216
300.40 6.208
300.50 6.201
300.60 6.193
300.70 6.186
300.80 6.178
300.90 6.171
301.00 6.163
301.10 6.156
301.20 6.149
301.30 6.141
301.40 6.134
301.50 6.126
301.60 6.119
301.70 6.112
301.80 6.104
301.90 6.097
302.00 6.09
302.10 6.082
302.20 6.075
302.30 6.068
302.40 6.06
302.50 6.053
302.60 6.046
302.70 6.039
302.80 6.031
302.90 6.024
303.00 6.017
303.10 6.01
303.20 6.003
303.30 5.995
303.40 5.988
303.50 5.981
303.60 5.974
303.70 5.967
303.80 5.96
303.90 5.952
304.00 5.945
304.10 5.938
304.20 5.931
304.30 5.924
304.40 5.917
304.50 5.91
304.60 5.903
304.70 5.896
304.80 5.889
304.90 5.882
305.00 5.875
305.10 5.868
305.20 5.861
305.30 5.854
305.40 5.847
305.50 5.84
305.60 5.833
305.70 5.826
305.80 5.819
305.90 5.812
306.00 5.805
306.10 5.799
306.20 5.792
306.30 5.785
306.40 5.778
306.50 5.771
306.60 5.764
306.70 5.757
306.80 5.751
306.90 5.744
307.00 5.737
307.10 5.73
307.20 5.723
307.30 5.717
307.40 5.71
307.50 5.703
307.60 5.696
307.70 5.69
307.80 5.683
307.90 5.676
308.00 5.67
308.10 5.663
308.20 5.656
308.30 5.65
308.40 5.643
308.50 5.636
308.60 5.63
308.70 5.623
308.80 5.616
308.90 5.61
309.00 5.603
309.10 5.597
309.20 5.59
309.30 5.583
309.40 5.577
309.50 5.57
309.60 5.564
309.70 5.557
309.80 5.551
309.90 5.544
310.00 5.538
310.10 5.531
310.20 5.525
310.30 5.518
310.40 5.512
310.50 5.505
310.60 5.499
310.70 5.492
310.80 5.486
310.90 5.48
311.00 5.473
311.10 5.467
311.20 5.46
311.30 5.454
311.40 5.448
311.50 5.441
311.60 5.435
311.70 5.429
311.80 5.422
311.90 5.416
312.00 5.41
312.10 5.403
312.20 5.397
312.30 5.391
312.40 5.384
312.50 5.378
312.60 5.372
312.70 5.366
312.80 5.359
312.90 5.353
313.00 5.347
313.10 5.341
313.20 5.335
313.30 5.328
313.40 5.322
313.50 5.316
313.60 5.31
313.70 5.304
313.80 5.298
313.90 5.291
314.00 5.285
314.10 5.279
314.20 5.273
314.30 5.267
314.40 5.261
314.50 5.255
314.60 5.249
314.70 5.243
314.80 5.236
314.90 5.23
315.00 5.224
315.10 5.218
315.20 5.212
315.30 5.206
315.40 5.2
315.50 5.194
315.60 5.188
315.70 5.182
315.80 5.176
315.90 5.17
316.00 5.164
316.10 5.158
316.20 5.153
316.30 5.147
316.40 5.141
316.50 5.135
316.60 5.129
316.70 5.123
316.80 5.117
316.90 5.111
317.00 5.105
317.10 5.099
317.20 5.094
317.30 5.088
317.40 5.082
317.50 5.076
317.60 5.07
317.70 5.064
317.80 5.059
317.90 5.053
318.00 5.047
318.10 5.041
318.20 5.035
318.30 5.03
318.40 5.024
318.50 5.018
318.60 5.012
318.70 5.007
318.80 5.001
318.90 4.995
319.00 4.99
319.10 4.984
319.20 4.978
319.30 4.973
319.40 4.967
319.50 4.961
319.60 4.956
319.70 4.95
319.80 4.944
319.90 4.939
320.00 4.933
320.10 4.927
320.20 4.922
320.30 4.916
320.40 4.911
320.50 4.905
320.60 4.899
320.70 4.894
320.80 4.888
320.90 4.883
321.00 4.877
321.10 4.872
321.20 4.866
321.30 4.861
321.40 4.855
321.50 4.85
321.60 4.844
321.70 4.839
321.80 4.833
321.90 4.828
322.00 4.822
322.10 4.817
322.20 4.811
322.30 4.806
322.40 4.8
322.50 4.795
322.60 4.79
322.70 4.784
322.80 4.779
322.90 4.773
323.00 4.768
323.10 4.763
323.20 4.757
323.30 4.752
323.40 4.746
323.50 4.741
323.60 4.736
323.70 4.73
323.80 4.725
323.90 4.72
324.00 4.714
324.10 4.709
324.20 4.704
324.30 4.699
324.40 4.693
324.50 4.688
324.60 4.683
324.70 4.677
324.80 4.672
324.90 4.667
325.00 4.662
325.10 4.657
325.20 4.651
325.30 4.646
325.40 4.641
325.50 4.636
325.60 4.63
325.70 4.625
325.80 4.62
325.90 4.615
326.00 4.61
326.10 4.605
326.20 4.599
326.30 4.594
326.40 4.589
326.50 4.584
326.60 4.579
326.70 4.574
326.80 4.569
326.90 4.564
327.00 4.558
327.10 4.553
327.20 4.548
327.30 4.543
327.40 4.538
327.50 4.533
327.60 4.528
327.70 4.523
327.80 4.518
327.90 4.513
328.00 4.508
328.10 4.503
328.20 4.498
328.30 4.493
328.40 4.488
328.50 4.483
328.60 4.478
328.70 4.473
328.80 4.468
328.90 4.463
329.00 4.458
329.10 4.453
329.20 4.448
329.30 4.443
329.40 4.438
329.50 4.433
329.60 4.429
329.70 4.424
329.80 4.419
329.90 4.414
330.00 4.409
330.10 4.404
330.20 4.399
330.30 4.394
330.40 4.39
330.50 4.385
330.60 4.38
330.70 4.375
330.80 4.37
330.90 4.365
331.00 4.361
331.10 4.356
331.20 4.351
331.30 4.346
331.40 4.341
331.50 4.337
331.60 4.332
331.70 4.327
331.80 4.322
331.90 4.317
332.00 4.313
332.10 4.308
332.20 4.303
332.30 4.298
332.40 4.294
332.50 4.289
332.60 4.284
332.70 4.28
332.80 4.275
332.90 4.27
333.00 4.266
333.10 4.261
333.20 4.256
333.30 4.252
333.40 4.247
333.50 4.242
333.60 4.238
333.70 4.233
333.80 4.228
333.90 4.224
334.00 4.219
334.10 4.214
334.20 4.21
334.30 4.205
334.40 4.201
334.50 4.196
334.60 4.191
334.70 4.187
334.80 4.182
334.90 4.178
335.00 4.173
335.10 4.169
335.20 4.164
335.30 4.16
335.40 4.155
335.50 4.15
335.60 4.146
335.70 4.141
335.80 4.137
335.90 4.132
336.00 4.128
336.10 4.123
336.20 4.119
336.30 4.114
336.40 4.11
336.50 4.105
336.60 4.101
336.70 4.097
336.80 4.092
336.90 4.088
337.00 4.083
337.10 4.079
337.20 4.074
337.30 4.07
337.40 4.066
337.50 4.061
337.60 4.057
337.70 4.052
337.80 4.048
337.90 4.044
338.00 4.039
338.10 4.035
338.20 4.03
338.30 4.026
338.40 4.022
338.50 4.017
338.60 4.013
338.70 4.009
338.80 4.004
338.90 4
339.00 3.996
339.10 3.991
339.20 3.987
339.30 3.983
339.40 3.979
339.50 3.974
339.60 3.97
339.70 3.966
339.80 3.961
339.90 3.957
340.00 3.953
340.10 3.949
340.20 3.944
340.30 3.94
340.40 3.936
340.50 3.932
340.60 3.927
340.70 3.923
340.80 3.919
340.90 3.915
341.00 3.911
341.10 3.906
341.20 3.902
341.30 3.898
341.40 3.894
341.50 3.89
341.60 3.886
341.70 3.881
341.80 3.877
341.90 3.873
342.00 3.869
342.10 3.865
342.20 3.861
342.30 3.856
342.40 3.852
342.50 3.848
342.60 3.844
342.70 3.84
342.80 3.836
342.90 3.832
343.00 3.828
343.10 3.824
343.20 3.82
343.30 3.816
343.40 3.811
343.50 3.807
343.60 3.803
343.70 3.799
343.80 3.795
343.90 3.791
344.00 3.787
344.10 3.783
344.20 3.779
344.30 3.775
344.40 3.771
344.50 3.767
344.60 3.763
344.70 3.759
344.80 3.755
344.90 3.751
345.00 3.747
345.10 3.743
345.20 3.739
345.30 3.735
345.40 3.731
345.50 3.727
345.60 3.723
345.70 3.719
345.80 3.715
345.90 3.711
346.00 3.707
346.10 3.704
346.20 3.7
346.30 3.696
346.40 3.692
346.50 3.688
346.60 3.684
346.70 3.68
346.80 3.676
346.90 3.672
347.00 3.669
347.10 3.665
347.20 3.661
347.30 3.657
347.40 3.653
347.50 3.649
347.60 3.645
347.70 3.641
347.80 3.638
347.90 3.634
348.00 3.63
348.10 3.626
348.20 3.622
348.30 3.619
348.40 3.615
348.50 3.611
348.60 3.607
348.70 3.603
348.80 3.6
348.90 3.596
349.00 3.592
349.10 3.588
349.20 3.584
349.30 3.581
349.40 3.577
349.50 3.573
349.60 3.569
349.70 3.566
349.80 3.562
349.90 3.558
350.00 3.554
350.10 3.551
350.20 3.547
350.30 3.543
350.40 3.54
350.50 3.536
350.60 3.532
350.70 3.529
350.80 3.525
350.90 3.521
351.00 3.517
351.10 3.514
351.20 3.51
351.30 3.506
351.40 3.503
351.50 3.499
351.60 3.495
351.70 3.492
351.80 3.488
351.90 3.485
352.00 3.481
352.10 3.477
352.20 3.474
352.30 3.47
352.40 3.466
352.50 3.463
352.60 3.459
352.70 3.456
352.80 3.452
352.90 3.448
353.00 3.445
353.10 3.441
353.20 3.438
353.30 3.434
353.40 3.431
353.50 3.427
353.60 3.423
353.70 3.42
353.80 3.416
353.90 3.413
354.00 3.409
354.10 3.406
354.20 3.402
354.30 3.399
354.40 3.395
354.50 3.392
354.60 3.388
354.70 3.385
354.80 3.381
354.90 3.378
355.00 3.374
355.10 3.371
355.20 3.367
355.30 3.364
355.40 3.36
355.50 3.357
355.60 3.353
355.70 3.35
355.80 3.346
355.90 3.343
356.00 3.339
356.10 3.336
356.20 3.333
356.30 3.329
356.40 3.326
356.50 3.322
356.60 3.319
356.70 3.315
356.80 3.312
356.90 3.309
357.00 3.305
357.10 3.302
357.20 3.298
357.30 3.295
357.40 3.292
357.50 3.288
357.60 3.285
357.70 3.282
357.80 3.278
357.90 3.275
358.00 3.271
358.10 3.268
358.20 3.265
358.30 3.261
358.40 3.258
358.50 3.255
358.60 3.251
358.70 3.248
358.80 3.245
358.90 3.241
359.00 3.238
359.10 3.235
359.20 3.231
359.30 3.228
359.40 3.225
359.50 3.222
359.60 3.218
359.70 3.215
359.80 3.212
359.90 3.208
360.00 3.205
360.10 3.202
360.20 3.199
360.30 3.195
360.40 3.192
360.50 3.189
360.60 3.186
360.70 3.182
360.80 3.179
360.90 3.176
361.00 3.173
361.10 3.169
361.20 3.166
361.30 3.163
361.40 3.16
361.50 3.157
361.60 3.153
361.70 3.15
361.80 3.147
361.90 3.144
362.00 3.141
362.10 3.137
362.20 3.134
362.30 3.131
362.40 3.128
362.50 3.125
362.60 3.121
362.70 3.118
362.80 3.115
362.90 3.112
363.00 3.109
363.10 3.106
363.20 3.103
363.30 3.099
363.40 3.096
363.50 3.093
363.60 3.09
363.70 3.087
363.80 3.084
363.90 3.081
364.00 3.078
364.10 3.074
364.20 3.071
364.30 3.068
364.40 3.065
364.50 3.062
364.60 3.059
364.70 3.056
364.80 3.053
364.90 3.05
365.00 3.047
365.10 3.044
365.20 3.041
365.30 3.037
365.40 3.034
365.50 3.031
365.60 3.028
365.70 3.025
365.80 3.022
365.90 3.019
366.00 3.016
366.10 3.013
366.20 3.01
366.30 3.007
366.40 3.004
366.50 3.001
366.60 2.998
366.70 2.995
366.80 2.992
366.90 2.989
367.00 2.986
367.10 2.982
367.20 2.979
367.30 2.976
367.40 2.973
367.50 2.97
367.60 2.967
367.70 2.964
367.80 2.961
367.90 2.958
368.00 2.955
368.10 2.952
368.20 2.949
368.30 2.946
368.40 2.943
368.50 2.94
368.60 2.937
368.70 2.934
368.80 2.931
368.90 2.927
369.00 2.924
369.10 2.921
369.20 2.918
369.30 2.915
369.40 2.912
369.50 2.909
369.60 2.906
369.70 2.903
369.80 2.9
369.90 2.897
370.00 2.894
370.10 2.891
370.20 2.888
370.30 2.885
370.40 2.882
370.50 2.879
370.60 2.876
370.70 2.873
370.80 2.87
370.90 2.867
371.00 2.864
371.10 2.861
371.20 2.858
371.30 2.855
371.40 2.852
371.50 2.849
371.60 2.846
371.70 2.843
371.80 2.84
371.90 2.838
372.00 2.835
372.10 2.832
372.20 2.829
372.30 2.826
372.40 2.823
372.50 2.821
372.60 2.818
372.70 2.815
372.80 2.812
372.90 2.81
373.00 2.807
373.10 2.804
373.20 2.801
373.30 2.799
373.40 2.796
373.50 2.793
373.60 2.79
373.70 2.788
373.80 2.785
373.90 2.782
374.00 2.779
374.10 2.776
374.20 2.774
374.30 2.771
374.40 2.768
374.50 2.765
374.60 2.762
374.70 2.759
374.80 2.757
374.90 2.754
375.00 2.751
375.10 2.748
375.20 2.745
375.30 2.742
375.40 2.74
375.50 2.737
375.60 2.734
375.70 2.731
375.80 2.728
375.90 2.726
376.00 2.723
376.10 2.72
376.20 2.717
376.30 2.715
376.40 2.712
376.50 2.709
376.60 2.706
376.70 2.704
376.80 2.701
376.90 2.698
377.00 2.695
377.10 2.693
377.20 2.69
377.30 2.687
377.40 2.685
377.50 2.682
377.60 2.679
377.70 2.677
377.80 2.674
377.90 2.671
378.00 2.669
378.10 2.666
378.20 2.664
378.30 2.661
378.40 2.658
378.50 2.656
378.60 2.653
378.70 2.65
378.80 2.648
378.90 2.645
379.00 2.643
379.10 2.64
379.20 2.637
379.30 2.635
379.40 2.632
379.50 2.63
379.60 2.627
379.70 2.625
379.80 2.622
379.90 2.619
380.00 2.617
380.10 2.614
380.20 2.612
380.30 2.609
380.40 2.607
380.50 2.604
380.60 2.602
380.70 2.599
380.80 2.597
380.90 2.594
381.00 2.592
381.10 2.59
381.20 2.587
381.30 2.585
381.40 2.582
381.50 2.58
381.60 2.577
381.70 2.575
381.80 2.572
381.90 2.57
382.00 2.567
382.10 2.565
382.20 2.563
382.30 2.56
382.40 2.558
382.50 2.555
382.60 2.553
382.70 2.55
382.80 2.548
382.90 2.546
383.00 2.543
383.10 2.541
383.20 2.538
383.30 2.536
383.40 2.534
383.50 2.531
383.60 2.529
383.70 2.527
383.80 2.525
383.90 2.522
384.00 2.52
384.10 2.518
384.20 2.516
384.30 2.513
384.40 2.511
384.50 2.509
384.60 2.507
384.70 2.504
384.80 2.502
384.90 2.5
385.00 2.498
385.10 2.496
385.20 2.493
385.30 2.491
385.40 2.489
385.50 2.487
385.60 2.484
385.70 2.482
385.80 2.48
385.90 2.478
386.00 2.475
386.10 2.473
386.20 2.471
386.30 2.469
386.40 2.466
386.50 2.464
386.60 2.462
386.70 2.459
386.80 2.457
386.90 2.455
387.00 2.452
387.10 2.45
387.20 2.448
387.30 2.445
387.40 2.443
387.50 2.441
387.60 2.438
387.70 2.436
387.80 2.434
387.90 2.431
388.00 2.429
388.10 2.427
388.20 2.424
388.30 2.422
388.40 2.42
388.50 2.418
388.60 2.416
388.70 2.413
388.80 2.411
388.90 2.409
389.00 2.407
389.10 2.405
389.20 2.403
389.30 2.402
389.40 2.4
389.50 2.398
389.60 2.396
389.70 2.394
389.80 2.393
389.90 2.391
390.00 2.389
390.10 2.387
390.20 2.385
390.30 2.384
390.40 2.382
390.50 2.38
390.60 2.378
390.70 2.377
390.80 2.375
390.90 2.373
391.00 2.371
391.10 2.369
391.20 2.367
391.30 2.365
391.40 2.363
391.50 2.361
391.60 2.359
391.70 2.357
391.80 2.355
391.90 2.353
392.00 2.351
392.10 2.349
392.20 2.347
392.30 2.345
392.40 2.343
392.50 2.341
392.60 2.338
392.70 2.336
392.80 2.334
392.90 2.331
393.00 2.329
393.10 2.327
393.20 2.324
393.30 2.322
393.40 2.32
393.50 2.317
393.60 2.315
393.70 2.312
393.80 2.309
393.90 2.307
394.00 2.304
394.10 2.302
394.20 2.299
394.30 2.296
394.40 2.294
394.50 2.291
394.60 2.288
394.70 2.285
394.80 2.282
394.90 2.28
395.00 2.277
395.10 2.274
395.20 2.271
395.30 2.268
395.40 2.265
395.50 2.262
395.60 2.259
395.70 2.256
395.80 2.253
395.90 2.25
396.00 2.247
396.10 2.244
396.20 2.241
396.30 2.238
396.40 2.235
396.50 2.232
396.60 2.23
396.70 2.227
396.80 2.224
396.90 2.222
397.00 2.219
397.10 2.218
397.20 2.217
397.30 2.216
397.40 2.216
397.50 2.215
397.60 2.214
397.70 2.214
397.80 2.213
397.90 2.213
398.00 2.212
398.10 2.212
398.20 2.211
398.30 2.211
398.40 2.21
398.50 2.209
398.60 2.209
398.70 2.208
398.80 2.208
398.90 2.207
399.00 2.206
399.10 2.206
399.20 2.205
399.30 2.204
399.40 2.204
399.50 2.203
399.60 2.202
399.70 2.201
399.80 2.2
399.90 2.199
400.00 2.198
400.10 2.197
400.20 2.196
400.30 2.195
400.40 2.194
400.50 2.193
400.60 2.192
400.70 2.191
400.80 2.189
400.90 2.188
401.00 2.187
401.10 2.186
401.20 2.184
401.30 2.183
401.40 2.181
401.50 2.18
401.60 2.178
401.70 2.177
401.80 2.175
401.90 2.173
402.00 2.172
402.10 2.17
402.20 2.168
402.30 2.167
402.40 2.165
402.50 2.163
402.60 2.161
402.70 2.159
402.80 2.157
402.90 2.155
403.00 2.153
403.10 2.151
403.20 2.149
403.30 2.146
403.40 2.144
403.50 2.142
403.60 2.139
403.70 2.137
403.80 2.135
403.90 2.132
404.00 2.13
404.10 2.127
404.20 2.124
404.30 2.122
404.40 2.119
404.50 2.116
404.60 2.114
404.70 2.111
404.80 2.108
404.90 2.105
405.00 2.102
405.10 2.099
405.20 2.096
405.30 2.093
405.40 2.09
405.50 2.086
405.60 2.083
405.70 2.08
405.80 2.076
405.90 2.073
406.00 2.069
406.10 2.066
406.20 2.062
406.30 2.058
406.40 2.055
406.50 2.051
406.60 2.047
406.70 2.043
406.80 2.039
406.90 2.035
407.00 2.031
407.10 2.027
407.20 2.023
407.30 2.018
407.40 2.014
407.50 2.01
407.60 2.005
407.70 2.001
407.80 1.996
407.90 1.992
408.00 1.987
408.10 1.983
408.20 1.978
408.30 1.973
408.40 1.968
408.50 1.964
408.60 1.959
408.70 1.954
408.80 1.949
408.90 1.944
409.00 1.94
409.10 1.935
409.20 1.93
409.30 1.926
409.40 1.922
409.50 1.918
409.60 1.914
409.70 1.91
409.80 1.908
409.90 1.905
410.00 1.904
410.10 1.903
410.20 1.903
410.30 1.9
410.40 1.898
410.50 1.896
410.60 1.896
410.70 1.896
410.80 1.896
410.90 1.897
411.00 1.898
411.10 1.9
411.20 1.901
411.30 1.903
411.40 1.904
411.50 1.906
411.60 1.907
411.70 1.909
411.80 1.911
411.90 1.912
412.00 1.914
412.10 1.915
412.20 1.917
412.30 1.918
412.40 1.92
412.50 1.921
412.60 1.922
412.70 1.924
412.80 1.925
412.90 1.926
413.00 1.927
413.10 1.928
413.20 1.929
413.30 1.93
413.40 1.931
413.50 1.932
413.60 1.932
413.70 1.933
413.80 1.934
413.90 1.934
414.00 1.935
414.10 1.935
414.20 1.936
414.30 1.936
414.40 1.937
414.50 1.937
414.60 1.937
414.70 1.937
414.80 1.938
414.90 1.938
415.00 1.938
415.10 1.938
415.20 1.938
415.30 1.938
415.40 1.937
415.50 1.937
415.60 1.937
415.70 1.937
415.80 1.937
415.90 1.936
416.00 1.936
416.10 1.935
416.20 1.935
416.30 1.935
416.40 1.934
416.50 1.934
416.60 1.933
416.70 1.932
416.80 1.932
416.90 1.931
417.00 1.93
417.10 1.93
417.20 1.929
417.30 1.928
417.40 1.927
417.50 1.926
417.60 1.926
417.70 1.925
417.80 1.924
417.90 1.923
418.00 1.922
418.10 1.921
418.20 1.92
418.30 1.919
418.40 1.918
418.50 1.917
418.60 1.916
418.70 1.915
418.80 1.913
418.90 1.912
419.00 1.911
419.10 1.91
419.20 1.909
419.30 1.907
419.40 1.906
419.50 1.905
419.60 1.904
419.70 1.902
419.80 1.901
419.90 1.9
420.00 1.898
420.10 1.897
420.20 1.895
420.30 1.894
420.40 1.893
420.50 1.891
420.60 1.89
420.70 1.888
420.80 1.887
420.90 1.885
421.00 1.884
421.10 1.882
421.20 1.88
421.30 1.879
421.40 1.877
421.50 1.876
421.60 1.874
421.70 1.872
421.80 1.871
421.90 1.869
422.00 1.867
422.10 1.866
422.20 1.864
422.30 1.862
422.40 1.86
422.50 1.859
422.60 1.857
422.70 1.855
422.80 1.853
422.90 1.851
423.00 1.849
423.10 1.848
423.20 1.846
423.30 1.844
423.40 1.842
423.50 1.84
423.60 1.838
423.70 1.836
423.80 1.834
423.90 1.832
424.00 1.83
424.10 1.828
424.20 1.826
424.30 1.824
424.40 1.822
424.50 1.819
424.60 1.817
424.70 1.815
424.80 1.813
424.90 1.811
425.00 1.808
425.10 1.806
425.20 1.804
425.30 1.802
425.40 1.799
425.50 1.797
425.60 1.794
425.70 1.792
425.80 1.79
425.90 1.787
426.00 1.785
426.10 1.782
426.20 1.78
426.30 1.777
426.40 1.774
426.50 1.772
426.60 1.769
426.70 1.766
426.80 1.764
426.90 1.761
427.00 1.758
427.10 1.755
427.20 1.752
427.30 1.749
427.40 1.746
427.50 1.743
427.60 1.74
427.70 1.737
427.80 1.734
427.90 1.731
428.00 1.728
428.10 1.724
428.20 1.721
428.30 1.718
428.40 1.714
428.50 1.711
428.60 1.707
428.70 1.704
428.80 1.7
428.90 1.696
429.00 1.693
429.10 1.689
429.20 1.685
429.30 1.681
429.40 1.677
429.50 1.673
429.60 1.669
429.70 1.665
429.80 1.661
429.90 1.656
430.00 1.652
430.10 1.647
430.20 1.643
430.30 1.638
430.40 1.634
430.50 1.629
430.60 1.624
430.70 1.619
430.80 1.614
430.90 1.609
431.00 1.604
431.10 1.599
431.20 1.594
431.30 1.589
431.40 1.583
431.50 1.578
431.60 1.572
431.70 1.566
431.80 1.561
431.90 1.555
432.00 1.549
432.10 1.543
432.20 1.537
432.30 1.531
432.40 1.525
432.50 1.519
432.60 1.513
432.70 1.507
432.80 1.5
432.90 1.494
433.00 1.488
433.10 1.482
433.20 1.475
433.30 1.469
433.40 1.462
433.50 1.456
433.60 1.449
433.70 1.441
433.80 1.433
433.90 1.424
434.00 1.416
434.10 1.415
434.20 1.422
434.30 1.428
434.40 1.434
434.50 1.439
434.60 1.444
434.70 1.448
434.80 1.452
434.90 1.456
435.00 1.46
435.10 1.464
435.20 1.468
435.30 1.472
435.40 1.475
435.50 1.479
435.60 1.483
435.70 1.486
435.80 1.49
435.90 1.493
436.00 1.497
436.10 1.5
436.20 1.503
436.30 1.506
436.40 1.509
436.50 1.512
436.60 1.515
436.70 1.518
436.80 1.521
436.90 1.523
437.00 1.526
437.10 1.528
437.20 1.531
437.30 1.533
437.40 1.535
437.50 1.537
437.60 1.539
437.70 1.541
437.80 1.543
437.90 1.545
438.00 1.547
438.10 1.548
438.20 1.55
438.30 1.551
438.40 1.553
438.50 1.554
438.60 1.555
438.70 1.556
438.80 1.558
438.90 1.559
439.00 1.56
439.10 1.561
439.20 1.561
439.30 1.562
439.40 1.563
439.50 1.564
439.60 1.564
439.70 1.565
439.80 1.565
439.90 1.566
440.00 1.566
440.10 1.567
440.20 1.567
440.30 1.567
440.40 1.568
440.50 1.568
440.60 1.568
440.70 1.568
440.80 1.568
440.90 1.568
441.00 1.568
441.10 1.568
441.20 1.568
441.30 1.568
441.40 1.568
441.50 1.568
441.60 1.568
441.70 1.568
441.80 1.567
441.90 1.567
442.00 1.567
442.10 1.566
442.20 1.566
442.30 1.566
442.40 1.565
442.50 1.565
442.60 1.564
442.70 1.564
442.80 1.563
442.90 1.563
443.00 1.562
443.10 1.562
443.20 1.561
443.30 1.56
443.40 1.56
443.50 1.559
443.60 1.559
443.70 1.558
443.80 1.557
443.90 1.556
444.00 1.556
444.10 1.555
444.20 1.554
444.30 1.553
444.40 1.553
444.50 1.552
444.60 1.551
444.70 1.55
444.80 1.549
444.90 1.549
445.00 1.548
445.10 1.547
445.20 1.546
445.30 1.545
445.40 1.544
445.50 1.543
445.60 1.542
445.70 1.541
445.80 1.541
445.90 1.54
446.00 1.539
446.10 1.538
446.20 1.537
446.30 1.536
446.40 1.535
446.50 1.534
446.60 1.533
446.70 1.532
446.80 1.531
446.90 1.53
447.00 1.529
447.10 1.528
447.20 1.527
447.30 1.526
447.40 1.525
447.50 1.524
447.60 1.523
447.70 1.522
447.80 1.52
447.90 1.519
448.00 1.518
448.10 1.517
448.20 1.516
448.30 1.515
448.40 1.514
448.50 1.513
448.60 1.512
448.70 1.511
448.80 1.51
448.90 1.509
449.00 1.507
449.10 1.506
449.20 1.505
449.30 1.504
449.40 1.503
449.50 1.502
449.60 1.501
449.70 1.5
449.80 1.499
449.90 1.497
450.00 1.496
450.10 1.495
450.20 1.494
450.30 1.493
450.40 1.492
450.50 1.491
450.60 1.49
450.70 1.488
450.80 1.487
450.90 1.486
451.00 1.485
451.10 1.484
451.20 1.483
451.30 1.482
451.40 1.48
451.50 1.479
451.60 1.478
451.70 1.477
451.80 1.476
451.90 1.475
452.00 1.473
452.10 1.472
452.20 1.471
452.30 1.47
452.40 1.469
452.50 1.468
452.60 1.466
452.70 1.465
452.80 1.464
452.90 1.463
453.00 1.462
453.10 1.461
453.20 1.46
453.30 1.458
453.40 1.457
453.50 1.456
453.60 1.455
453.70 1.454
453.80 1.453
453.90 1.451
454.00 1.45
