# Version 2.1 - nm, norm@500 to 1, cut digits, bergeron_13000_65.dat_13000
# Wavelength(nm)  Flambda(ergs/cm^s/s/nm)
300.00 1.67
300.10 1.669
300.20 1.668
300.30 1.667
300.40 1.666
300.50 1.665
300.60 1.664
300.70 1.663
300.80 1.662
300.90 1.661
301.00 1.659
301.10 1.658
301.20 1.657
301.30 1.656
301.40 1.655
301.50 1.654
301.60 1.653
301.70 1.652
301.80 1.651
301.90 1.65
302.00 1.649
302.10 1.648
302.20 1.647
302.30 1.646
302.40 1.644
302.50 1.643
302.60 1.642
302.70 1.641
302.80 1.64
302.90 1.639
303.00 1.638
303.10 1.637
303.20 1.636
303.30 1.635
303.40 1.634
303.50 1.633
303.60 1.632
303.70 1.631
303.80 1.63
303.90 1.629
304.00 1.628
304.10 1.627
304.20 1.625
304.30 1.624
304.40 1.623
304.50 1.622
304.60 1.621
304.70 1.62
304.80 1.619
304.90 1.618
305.00 1.617
305.10 1.616
305.20 1.615
305.30 1.614
305.40 1.613
305.50 1.612
305.60 1.611
305.70 1.61
305.80 1.609
305.90 1.608
306.00 1.607
306.10 1.606
306.20 1.605
306.30 1.604
306.40 1.603
306.50 1.602
306.60 1.601
306.70 1.6
306.80 1.599
306.90 1.598
307.00 1.597
307.10 1.596
307.20 1.595
307.30 1.593
307.40 1.592
307.50 1.591
307.60 1.59
307.70 1.589
307.80 1.588
307.90 1.587
308.00 1.586
308.10 1.585
308.20 1.584
308.30 1.583
308.40 1.582
308.50 1.581
308.60 1.58
308.70 1.579
308.80 1.578
308.90 1.577
309.00 1.576
309.10 1.575
309.20 1.574
309.30 1.573
309.40 1.572
309.50 1.571
309.60 1.57
309.70 1.569
309.80 1.568
309.90 1.567
310.00 1.566
310.10 1.565
310.20 1.564
310.30 1.563
310.40 1.562
310.50 1.561
310.60 1.56
310.70 1.559
310.80 1.558
310.90 1.557
311.00 1.556
311.10 1.555
311.20 1.555
311.30 1.554
311.40 1.553
311.50 1.552
311.60 1.551
311.70 1.55
311.80 1.549
311.90 1.548
312.00 1.547
312.10 1.546
312.20 1.545
312.30 1.544
312.40 1.543
312.50 1.542
312.60 1.541
312.70 1.54
312.80 1.539
312.90 1.538
313.00 1.537
313.10 1.536
313.20 1.535
313.30 1.534
313.40 1.533
313.50 1.532
313.60 1.531
313.70 1.53
313.80 1.529
313.90 1.528
314.00 1.527
314.10 1.526
314.20 1.525
314.30 1.524
314.40 1.523
314.50 1.523
314.60 1.522
314.70 1.521
314.80 1.52
314.90 1.519
315.00 1.518
315.10 1.517
315.20 1.516
315.30 1.515
315.40 1.514
315.50 1.513
315.60 1.512
315.70 1.511
315.80 1.51
315.90 1.509
316.00 1.508
316.10 1.507
316.20 1.506
316.30 1.506
316.40 1.505
316.50 1.504
316.60 1.503
316.70 1.502
316.80 1.501
316.90 1.5
317.00 1.499
317.10 1.498
317.20 1.497
317.30 1.496
317.40 1.495
317.50 1.494
317.60 1.493
317.70 1.492
317.80 1.491
317.90 1.491
318.00 1.49
318.10 1.489
318.20 1.488
318.30 1.487
318.40 1.486
318.50 1.485
318.60 1.484
318.70 1.483
318.80 1.482
318.90 1.481
319.00 1.48
319.10 1.48
319.20 1.479
319.30 1.478
319.40 1.477
319.50 1.476
319.60 1.475
319.70 1.474
319.80 1.473
319.90 1.472
320.00 1.471
320.10 1.47
320.20 1.469
320.30 1.469
320.40 1.468
320.50 1.467
320.60 1.466
320.70 1.465
320.80 1.464
320.90 1.463
321.00 1.462
321.10 1.461
321.20 1.46
321.30 1.46
321.40 1.459
321.50 1.458
321.60 1.457
321.70 1.456
321.80 1.455
321.90 1.454
322.00 1.453
322.10 1.452
322.20 1.451
322.30 1.451
322.40 1.45
322.50 1.449
322.60 1.448
322.70 1.447
322.80 1.446
322.90 1.445
323.00 1.444
323.10 1.443
323.20 1.443
323.30 1.442
323.40 1.441
323.50 1.44
323.60 1.439
323.70 1.438
323.80 1.437
323.90 1.436
324.00 1.435
324.10 1.435
324.20 1.434
324.30 1.433
324.40 1.432
324.50 1.431
324.60 1.43
324.70 1.429
324.80 1.428
324.90 1.428
325.00 1.427
325.10 1.426
325.20 1.425
325.30 1.424
325.40 1.423
325.50 1.422
325.60 1.422
325.70 1.421
325.80 1.42
325.90 1.419
326.00 1.418
326.10 1.417
326.20 1.416
326.30 1.415
326.40 1.415
326.50 1.414
326.60 1.413
326.70 1.412
326.80 1.411
326.90 1.41
327.00 1.409
327.10 1.409
327.20 1.408
327.30 1.407
327.40 1.406
327.50 1.405
327.60 1.404
327.70 1.403
327.80 1.403
327.90 1.402
328.00 1.401
328.10 1.4
328.20 1.399
328.30 1.398
328.40 1.397
328.50 1.397
328.60 1.396
328.70 1.395
328.80 1.394
328.90 1.393
329.00 1.392
329.10 1.392
329.20 1.391
329.30 1.39
329.40 1.389
329.50 1.388
329.60 1.387
329.70 1.386
329.80 1.386
329.90 1.385
330.00 1.384
330.10 1.383
330.20 1.382
330.30 1.381
330.40 1.381
330.50 1.38
330.60 1.379
330.70 1.378
330.80 1.377
330.90 1.376
331.00 1.376
331.10 1.375
331.20 1.374
331.30 1.373
331.40 1.372
331.50 1.372
331.60 1.371
331.70 1.37
331.80 1.369
331.90 1.368
332.00 1.367
332.10 1.367
332.20 1.366
332.30 1.365
332.40 1.364
332.50 1.363
332.60 1.362
332.70 1.362
332.80 1.361
332.90 1.36
333.00 1.359
333.10 1.358
333.20 1.358
333.30 1.357
333.40 1.356
333.50 1.355
333.60 1.354
333.70 1.353
333.80 1.353
333.90 1.352
334.00 1.351
334.10 1.35
334.20 1.349
334.30 1.349
334.40 1.348
334.50 1.347
334.60 1.346
334.70 1.345
334.80 1.345
334.90 1.344
335.00 1.343
335.10 1.342
335.20 1.341
335.30 1.341
335.40 1.34
335.50 1.339
335.60 1.338
335.70 1.337
335.80 1.337
335.90 1.336
336.00 1.335
336.10 1.334
336.20 1.333
336.30 1.333
336.40 1.332
336.50 1.331
336.60 1.33
336.70 1.329
336.80 1.329
336.90 1.328
337.00 1.327
337.10 1.326
337.20 1.325
337.30 1.325
337.40 1.324
337.50 1.323
337.60 1.322
337.70 1.322
337.80 1.321
337.90 1.32
338.00 1.319
338.10 1.318
338.20 1.318
338.30 1.317
338.40 1.316
338.50 1.315
338.60 1.314
338.70 1.314
338.80 1.313
338.90 1.312
339.00 1.311
339.10 1.311
339.20 1.31
339.30 1.309
339.40 1.308
339.50 1.307
339.60 1.307
339.70 1.306
339.80 1.305
339.90 1.304
340.00 1.304
340.10 1.303
340.20 1.302
340.30 1.301
340.40 1.3
340.50 1.3
340.60 1.299
340.70 1.298
340.80 1.297
340.90 1.297
341.00 1.296
341.10 1.295
341.20 1.294
341.30 1.294
341.40 1.293
341.50 1.292
341.60 1.291
341.70 1.291
341.80 1.29
341.90 1.289
342.00 1.288
342.10 1.287
342.20 1.287
342.30 1.286
342.40 1.285
342.50 1.284
342.60 1.284
342.70 1.283
342.80 1.282
342.90 1.281
343.00 1.281
343.10 1.28
343.20 1.279
343.30 1.278
343.40 1.278
343.50 1.277
343.60 1.276
343.70 1.275
343.80 1.275
343.90 1.274
344.00 1.273
344.10 1.272
344.20 1.272
344.30 1.271
344.40 1.27
344.50 1.269
344.60 1.269
344.70 1.268
344.80 1.267
344.90 1.266
345.00 1.266
345.10 1.265
345.20 1.264
345.30 1.264
345.40 1.263
345.50 1.262
345.60 1.261
345.70 1.261
345.80 1.26
345.90 1.259
346.00 1.258
346.10 1.258
346.20 1.257
346.30 1.256
346.40 1.255
346.50 1.255
346.60 1.254
346.70 1.253
346.80 1.252
346.90 1.252
347.00 1.251
347.10 1.25
347.20 1.25
347.30 1.249
347.40 1.248
347.50 1.247
347.60 1.247
347.70 1.246
347.80 1.245
347.90 1.244
348.00 1.244
348.10 1.243
348.20 1.242
348.30 1.242
348.40 1.241
348.50 1.24
348.60 1.239
348.70 1.239
348.80 1.238
348.90 1.237
349.00 1.236
349.10 1.236
349.20 1.235
349.30 1.234
349.40 1.234
349.50 1.233
349.60 1.232
349.70 1.231
349.80 1.231
349.90 1.23
350.00 1.229
350.10 1.229
350.20 1.228
350.30 1.227
350.40 1.226
350.50 1.226
350.60 1.225
350.70 1.224
350.80 1.224
350.90 1.223
351.00 1.222
351.10 1.221
351.20 1.221
351.30 1.22
351.40 1.219
351.50 1.219
351.60 1.218
351.70 1.217
351.80 1.217
351.90 1.216
352.00 1.215
352.10 1.214
352.20 1.214
352.30 1.213
352.40 1.212
352.50 1.212
352.60 1.211
352.70 1.21
352.80 1.21
352.90 1.209
353.00 1.208
353.10 1.207
353.20 1.207
353.30 1.206
353.40 1.205
353.50 1.205
353.60 1.204
353.70 1.203
353.80 1.203
353.90 1.202
354.00 1.201
354.10 1.2
354.20 1.2
354.30 1.199
354.40 1.198
354.50 1.198
354.60 1.197
354.70 1.196
354.80 1.196
354.90 1.195
355.00 1.194
355.10 1.194
355.20 1.193
355.30 1.192
355.40 1.192
355.50 1.191
355.60 1.19
355.70 1.189
355.80 1.189
355.90 1.188
356.00 1.187
356.10 1.187
356.20 1.186
356.30 1.185
356.40 1.185
356.50 1.184
356.60 1.183
356.70 1.183
356.80 1.182
356.90 1.181
357.00 1.181
357.10 1.18
357.20 1.179
357.30 1.179
357.40 1.178
357.50 1.177
357.60 1.177
357.70 1.176
357.80 1.175
357.90 1.175
358.00 1.174
358.10 1.173
358.20 1.173
358.30 1.172
358.40 1.171
358.50 1.171
358.60 1.17
358.70 1.169
358.80 1.169
358.90 1.168
359.00 1.167
359.10 1.167
359.20 1.166
359.30 1.165
359.40 1.165
359.50 1.164
359.60 1.163
359.70 1.163
359.80 1.162
359.90 1.161
360.00 1.161
360.10 1.16
360.20 1.159
360.30 1.159
360.40 1.158
360.50 1.157
360.60 1.157
360.70 1.156
360.80 1.155
360.90 1.155
361.00 1.154
361.10 1.153
361.20 1.153
361.30 1.152
361.40 1.151
361.50 1.151
361.60 1.15
361.70 1.149
361.80 1.149
361.90 1.148
362.00 1.147
362.10 1.147
362.20 1.146
362.30 1.145
362.40 1.145
362.50 1.144
362.60 1.143
362.70 1.143
362.80 1.142
362.90 1.142
363.00 1.141
363.10 1.14
363.20 1.14
363.30 1.139
363.40 1.138
363.50 1.138
363.60 1.137
363.70 1.136
363.80 1.136
363.90 1.135
364.00 1.134
364.10 1.134
364.20 1.133
364.30 1.132
364.40 1.132
364.50 1.131
364.60 1.13
364.70 1.13
364.80 1.129
364.90 1.129
365.00 1.128
365.10 1.128
365.20 1.127
365.30 1.126
365.40 1.126
365.50 1.125
365.60 1.125
365.70 1.124
365.80 1.124
365.90 1.123
366.00 1.123
366.10 1.122
366.20 1.122
366.30 1.121
366.40 1.121
366.50 1.12
366.60 1.12
366.70 1.119
366.80 1.119
366.90 1.118
367.00 1.118
367.10 1.117
367.20 1.117
367.30 1.116
367.40 1.116
367.50 1.115
367.60 1.115
367.70 1.114
367.80 1.114
367.90 1.113
368.00 1.113
368.10 1.114
368.20 1.115
368.30 1.116
368.40 1.117
368.50 1.118
368.60 1.119
368.70 1.12
368.80 1.121
368.90 1.122
369.00 1.123
369.10 1.124
369.20 1.125
369.30 1.127
369.40 1.128
369.50 1.129
369.60 1.13
369.70 1.131
369.80 1.132
369.90 1.133
370.00 1.134
370.10 1.138
370.20 1.141
370.30 1.145
370.40 1.148
370.50 1.152
370.60 1.156
370.70 1.159
370.80 1.163
370.90 1.167
371.00 1.17
371.10 1.174
371.20 1.178
371.30 1.181
371.40 1.185
371.50 1.188
371.60 1.192
371.70 1.196
371.80 1.199
371.90 1.203
372.00 1.206
372.10 1.212
372.20 1.217
372.30 1.223
372.40 1.229
372.50 1.234
372.60 1.24
372.70 1.245
372.80 1.251
372.90 1.256
373.00 1.262
373.10 1.267
373.20 1.273
373.30 1.278
373.40 1.284
373.50 1.289
373.60 1.295
373.70 1.3
373.80 1.306
373.90 1.311
374.00 1.317
374.10 1.322
374.20 1.328
374.30 1.334
374.40 1.339
374.50 1.345
374.60 1.35
374.70 1.356
374.80 1.361
374.90 1.367
375.00 1.373
375.10 1.378
375.20 1.384
375.30 1.389
375.40 1.395
375.50 1.4
375.60 1.406
375.70 1.411
375.80 1.417
375.90 1.422
376.00 1.428
376.10 1.43
376.20 1.433
376.30 1.436
376.40 1.438
376.50 1.441
376.60 1.443
376.70 1.446
376.80 1.449
376.90 1.451
377.00 1.454
377.10 1.448
377.20 1.443
377.30 1.438
377.40 1.432
377.50 1.427
377.60 1.422
377.70 1.416
377.80 1.411
377.90 1.406
378.00 1.4
378.10 1.373
378.20 1.346
378.30 1.319
378.40 1.292
378.50 1.265
378.60 1.238
378.70 1.211
378.80 1.184
378.90 1.157
379.00 1.131
379.10 1.107
379.20 1.084
379.30 1.061
379.40 1.038
379.50 1.015
379.60 0.9918
379.70 0.9687
379.80 0.9457
379.90 0.9226
380.00 0.8997
380.10 0.9357
380.20 0.9717
380.30 1.008
380.40 1.044
380.50 1.079
380.60 1.115
380.70 1.151
380.80 1.187
380.90 1.223
381.00 1.258
381.10 1.274
381.20 1.29
381.30 1.305
381.40 1.321
381.50 1.336
381.60 1.339
381.70 1.337
381.80 1.331
381.90 1.321
382.00 1.306
382.10 1.287
382.20 1.263
382.30 1.223
382.40 1.183
382.50 1.143
382.60 1.103
382.70 1.063
382.80 1.023
382.90 0.9829
383.00 0.9431
383.10 0.9034
383.20 0.8637
383.30 0.8178
383.40 0.769
383.50 0.7138
383.60 0.7268
383.70 0.7793
383.80 0.827
383.90 0.8721
384.00 0.9163
384.10 0.9607
384.20 1.005
384.30 1.049
384.40 1.094
384.50 1.138
384.60 1.181
384.70 1.222
384.80 1.259
384.90 1.294
385.00 1.326
385.10 1.353
385.20 1.378
385.30 1.401
385.40 1.419
385.50 1.436
385.60 1.45
385.70 1.461
385.80 1.47
385.90 1.477
386.00 1.481
386.10 1.483
386.20 1.483
386.30 1.48
386.40 1.475
386.50 1.469
386.60 1.459
386.70 1.448
386.80 1.434
386.90 1.418
387.00 1.399
387.10 1.379
387.20 1.355
387.30 1.328
387.40 1.3
387.50 1.267
387.60 1.232
387.70 1.195
387.80 1.153
387.90 1.11
388.00 1.065
388.10 1.018
388.20 0.9716
388.30 0.925
388.40 0.8789
388.50 0.8328
388.60 0.7867
388.70 0.7373
388.80 0.6805
388.90 0.6161
389.00 0.6765
389.10 0.7313
389.20 0.7806
389.30 0.8262
389.40 0.8717
389.50 0.9169
389.60 0.963
389.70 1.009
389.80 1.056
389.90 1.101
390.00 1.145
390.10 1.187
390.20 1.226
390.30 1.263
390.40 1.298
390.50 1.33
390.60 1.36
390.70 1.388
390.80 1.414
390.90 1.438
391.00 1.461
391.10 1.482
391.20 1.502
391.30 1.521
391.40 1.538
391.50 1.554
391.60 1.569
391.70 1.582
391.80 1.594
391.90 1.605
392.00 1.615
392.10 1.624
392.20 1.632
392.30 1.638
392.40 1.643
392.50 1.648
392.60 1.651
392.70 1.653
392.80 1.654
392.90 1.654
393.00 1.653
393.10 1.651
393.20 1.647
393.30 1.643
393.40 1.637
393.50 1.63
393.60 1.623
393.70 1.614
393.80 1.603
393.90 1.592
394.00 1.58
394.10 1.566
394.20 1.551
394.30 1.535
394.40 1.517
394.50 1.499
394.60 1.479
394.70 1.458
394.80 1.435
394.90 1.412
395.00 1.386
395.10 1.36
395.20 1.333
395.30 1.303
395.40 1.272
395.50 1.24
395.60 1.205
395.70 1.169
395.80 1.132
395.90 1.092
396.00 1.051
396.10 1.009
396.20 0.9652
396.30 0.9209
396.40 0.8762
396.50 0.8319
396.60 0.7877
396.70 0.7437
396.80 0.6951
396.90 0.6295
397.00 0.5469
397.10 0.6241
397.20 0.6871
397.30 0.736
397.40 0.7796
397.50 0.823
397.60 0.8664
397.70 0.9102
397.80 0.9535
397.90 0.9964
398.00 1.038
398.10 1.078
398.20 1.117
398.30 1.153
398.40 1.189
398.50 1.223
398.60 1.254
398.70 1.284
398.80 1.313
398.90 1.341
399.00 1.367
399.10 1.392
399.20 1.416
399.30 1.439
399.40 1.461
399.50 1.481
399.60 1.501
399.70 1.52
399.80 1.538
399.90 1.555
400.00 1.571
400.10 1.586
400.20 1.601
400.30 1.614
400.40 1.627
400.50 1.639
400.60 1.651
400.70 1.661
400.80 1.671
400.90 1.68
401.00 1.689
401.10 1.697
401.20 1.705
401.30 1.712
401.40 1.718
401.50 1.724
401.60 1.73
401.70 1.735
401.80 1.739
401.90 1.744
402.00 1.747
402.10 1.751
402.20 1.754
402.30 1.757
402.40 1.759
402.50 1.761
402.60 1.763
402.70 1.764
402.80 1.765
402.90 1.766
403.00 1.766
403.10 1.766
403.20 1.766
403.30 1.766
403.40 1.765
403.50 1.764
403.60 1.763
403.70 1.762
403.80 1.76
403.90 1.758
404.00 1.756
404.10 1.753
404.20 1.751
404.30 1.748
404.40 1.744
404.50 1.741
404.60 1.737
404.70 1.732
404.80 1.728
404.90 1.723
405.00 1.718
405.10 1.712
405.20 1.706
405.30 1.7
405.40 1.693
405.50 1.686
405.60 1.678
405.70 1.67
405.80 1.662
405.90 1.653
406.00 1.643
406.10 1.633
406.20 1.623
406.30 1.612
406.40 1.6
406.50 1.588
406.60 1.575
406.70 1.562
406.80 1.547
406.90 1.533
407.00 1.517
407.10 1.5
407.20 1.483
407.30 1.464
407.40 1.445
407.50 1.425
407.60 1.404
407.70 1.382
407.80 1.359
407.90 1.336
408.00 1.311
408.10 1.286
408.20 1.26
408.30 1.233
408.40 1.206
408.50 1.178
408.60 1.149
408.70 1.119
408.80 1.088
408.90 1.056
409.00 1.024
409.10 0.9892
409.20 0.9541
409.30 0.9181
409.40 0.8804
409.50 0.842
409.60 0.8029
409.70 0.7638
409.80 0.7244
409.90 0.6848
410.00 0.6364
410.10 0.5776
410.20 0.5083
410.30 0.5964
410.40 0.662
410.50 0.7051
410.60 0.7436
410.70 0.782
410.80 0.8204
410.90 0.8581
411.00 0.895
411.10 0.9311
411.20 0.9652
411.30 0.9985
411.40 1.031
411.50 1.062
411.60 1.091
411.70 1.12
411.80 1.148
411.90 1.175
412.00 1.201
412.10 1.226
412.20 1.251
412.30 1.275
412.40 1.297
412.50 1.319
412.60 1.341
412.70 1.361
412.80 1.38
412.90 1.399
413.00 1.417
413.10 1.433
413.20 1.45
413.30 1.464
413.40 1.479
413.50 1.492
413.60 1.505
413.70 1.517
413.80 1.528
413.90 1.539
414.00 1.549
414.10 1.559
414.20 1.568
414.30 1.576
414.40 1.584
414.50 1.592
414.60 1.599
414.70 1.606
414.80 1.612
414.90 1.618
415.00 1.624
415.10 1.629
415.20 1.634
415.30 1.639
415.40 1.643
415.50 1.647
415.60 1.651
415.70 1.655
415.80 1.658
415.90 1.661
416.00 1.664
416.10 1.667
416.20 1.67
416.30 1.672
416.40 1.674
416.50 1.676
416.60 1.678
416.70 1.68
416.80 1.682
416.90 1.683
417.00 1.685
417.10 1.686
417.20 1.687
417.30 1.688
417.40 1.689
417.50 1.69
417.60 1.691
417.70 1.691
417.80 1.692
417.90 1.693
418.00 1.693
418.10 1.693
418.20 1.694
418.30 1.694
418.40 1.694
418.50 1.694
418.60 1.694
418.70 1.694
418.80 1.694
418.90 1.694
419.00 1.694
419.10 1.693
419.20 1.693
419.30 1.693
419.40 1.693
419.50 1.692
419.60 1.692
419.70 1.691
419.80 1.691
419.90 1.69
420.00 1.69
420.10 1.689
420.20 1.688
420.30 1.688
420.40 1.687
420.50 1.686
420.60 1.685
420.70 1.685
420.80 1.684
420.90 1.683
421.00 1.682
421.10 1.681
421.20 1.68
421.30 1.679
421.40 1.678
421.50 1.677
421.60 1.676
421.70 1.675
421.80 1.674
421.90 1.673
422.00 1.672
422.10 1.671
422.20 1.669
422.30 1.668
422.40 1.667
422.50 1.666
422.60 1.664
422.70 1.663
422.80 1.662
422.90 1.66
423.00 1.659
423.10 1.658
423.20 1.656
423.30 1.655
423.40 1.653
423.50 1.652
423.60 1.65
423.70 1.649
423.80 1.647
423.90 1.645
424.00 1.644
424.10 1.642
424.20 1.64
424.30 1.638
424.40 1.637
424.50 1.635
424.60 1.633
424.70 1.631
424.80 1.629
424.90 1.627
425.00 1.625
425.10 1.623
425.20 1.62
425.30 1.618
425.40 1.616
425.50 1.614
425.60 1.611
425.70 1.609
425.80 1.607
425.90 1.604
426.00 1.601
426.10 1.599
426.20 1.596
426.30 1.593
426.40 1.59
426.50 1.587
426.60 1.584
426.70 1.581
426.80 1.577
426.90 1.574
427.00 1.571
427.10 1.567
427.20 1.563
427.30 1.56
427.40 1.556
427.50 1.552
427.60 1.548
427.70 1.544
427.80 1.539
427.90 1.535
428.00 1.53
428.10 1.525
428.20 1.521
428.30 1.515
428.40 1.51
428.50 1.505
428.60 1.499
428.70 1.493
428.80 1.487
428.90 1.481
429.00 1.474
429.10 1.467
429.20 1.46
429.30 1.453
429.40 1.445
429.50 1.438
429.60 1.429
429.70 1.421
429.80 1.412
429.90 1.403
430.00 1.394
430.10 1.384
430.20 1.374
430.30 1.363
430.40 1.352
430.50 1.341
430.60 1.329
430.70 1.317
430.80 1.304
430.90 1.292
431.00 1.278
431.10 1.264
431.20 1.25
431.30 1.236
431.40 1.22
431.50 1.205
431.60 1.188
431.70 1.171
431.80 1.153
431.90 1.134
432.00 1.113
432.10 1.093
432.20 1.07
432.30 1.047
432.40 1.022
432.50 0.9957
432.60 0.9684
432.70 0.9402
432.80 0.9115
432.90 0.8832
433.00 0.8552
433.10 0.8281
433.20 0.8005
433.30 0.7724
433.40 0.7421
433.50 0.711
433.60 0.6793
433.70 0.6468
433.80 0.611
433.90 0.5718
434.00 0.466
434.10 0.4671
434.20 0.575
434.30 0.613
434.40 0.6478
434.50 0.6796
434.60 0.7106
434.70 0.7408
434.80 0.7702
434.90 0.7973
435.00 0.8239
435.10 0.85
435.20 0.8769
435.30 0.904
435.40 0.9314
435.50 0.9581
435.60 0.9838
435.70 1.009
435.80 1.031
435.90 1.053
436.00 1.074
436.10 1.093
436.20 1.111
436.30 1.129
436.40 1.145
436.50 1.16
436.60 1.175
436.70 1.188
436.80 1.201
436.90 1.214
437.00 1.226
437.10 1.237
437.20 1.249
437.30 1.259
437.40 1.269
437.50 1.279
437.60 1.289
437.70 1.298
437.80 1.306
437.90 1.315
438.00 1.322
438.10 1.33
438.20 1.337
438.30 1.344
438.40 1.35
438.50 1.356
438.60 1.362
438.70 1.367
438.80 1.372
438.90 1.377
439.00 1.382
439.10 1.386
439.20 1.39
439.30 1.394
439.40 1.398
439.50 1.401
439.60 1.405
439.70 1.408
439.80 1.41
439.90 1.413
440.00 1.416
440.10 1.418
440.20 1.42
440.30 1.422
440.40 1.424
440.50 1.426
440.60 1.428
440.70 1.43
440.80 1.431
440.90 1.432
441.00 1.434
441.10 1.435
441.20 1.436
441.30 1.437
441.40 1.438
441.50 1.439
441.60 1.439
441.70 1.44
441.80 1.441
441.90 1.441
442.00 1.442
442.10 1.442
442.20 1.442
442.30 1.443
442.40 1.443
442.50 1.443
442.60 1.443
442.70 1.443
442.80 1.444
442.90 1.444
443.00 1.443
443.10 1.443
443.20 1.443
443.30 1.443
443.40 1.443
443.50 1.443
443.60 1.443
443.70 1.442
443.80 1.442
443.90 1.442
444.00 1.441
444.10 1.441
444.20 1.441
444.30 1.44
444.40 1.44
444.50 1.44
444.60 1.439
444.70 1.439
444.80 1.438
444.90 1.438
445.00 1.437
445.10 1.436
445.20 1.436
445.30 1.435
445.40 1.435
445.50 1.434
445.60 1.434
445.70 1.433
445.80 1.432
445.90 1.432
446.00 1.431
446.10 1.43
446.20 1.43
446.30 1.429
446.40 1.428
446.50 1.427
446.60 1.427
446.70 1.426
446.80 1.425
446.90 1.425
447.00 1.424
447.10 1.423
447.20 1.422
447.30 1.422
447.40 1.421
447.50 1.42
447.60 1.419
447.70 1.419
447.80 1.418
447.90 1.417
448.00 1.416
448.10 1.415
448.20 1.414
448.30 1.414
448.40 1.413
448.50 1.412
448.60 1.411
448.70 1.41
448.80 1.41
448.90 1.409
449.00 1.408
449.10 1.407
449.20 1.406
449.30 1.406
449.40 1.405
449.50 1.404
449.60 1.403
449.70 1.402
449.80 1.401
449.90 1.4
450.00 1.4
450.10 1.399
450.20 1.398
450.30 1.397
450.40 1.396
450.50 1.395
450.60 1.394
450.70 1.394
450.80 1.393
450.90 1.392
451.00 1.391
451.10 1.39
451.20 1.389
451.30 1.388
451.40 1.387
451.50 1.387
451.60 1.386
451.70 1.385
451.80 1.384
451.90 1.383
452.00 1.382
452.10 1.381
452.20 1.38
452.30 1.38
452.40 1.379
452.50 1.378
452.60 1.377
452.70 1.376
452.80 1.375
452.90 1.374
453.00 1.373
453.10 1.372
453.20 1.372
453.30 1.371
