# Version 2.1 - nm, norm@500 to 1, cut digits, bergeron_90000_90.dat_90000
# Wavelength(nm)  Flambda(ergs/cm^s/s/nm)
300.00 6.784
300.10 6.776
300.20 6.767
300.30 6.759
300.40 6.75
300.50 6.742
300.60 6.733
300.70 6.725
300.80 6.717
300.90 6.708
301.00 6.7
301.10 6.692
301.20 6.683
301.30 6.675
301.40 6.667
301.50 6.658
301.60 6.65
301.70 6.642
301.80 6.633
301.90 6.625
302.00 6.617
302.10 6.609
302.20 6.6
302.30 6.592
302.40 6.584
302.50 6.576
302.60 6.568
302.70 6.56
302.80 6.552
302.90 6.543
303.00 6.535
303.10 6.527
303.20 6.519
303.30 6.511
303.40 6.503
303.50 6.495
303.60 6.487
303.70 6.479
303.80 6.471
303.90 6.463
304.00 6.455
304.10 6.447
304.20 6.439
304.30 6.431
304.40 6.423
304.50 6.415
304.60 6.407
304.70 6.399
304.80 6.391
304.90 6.384
305.00 6.376
305.10 6.368
305.20 6.36
305.30 6.352
305.40 6.344
305.50 6.337
305.60 6.329
305.70 6.321
305.80 6.313
305.90 6.306
306.00 6.298
306.10 6.29
306.20 6.282
306.30 6.275
306.40 6.267
306.50 6.259
306.60 6.252
306.70 6.244
306.80 6.236
306.90 6.229
307.00 6.221
307.10 6.213
307.20 6.206
307.30 6.198
307.40 6.191
307.50 6.183
307.60 6.175
307.70 6.168
307.80 6.16
307.90 6.153
308.00 6.145
308.10 6.138
308.20 6.13
308.30 6.123
308.40 6.115
308.50 6.108
308.60 6.101
308.70 6.093
308.80 6.086
308.90 6.078
309.00 6.071
309.10 6.064
309.20 6.056
309.30 6.049
309.40 6.042
309.50 6.034
309.60 6.027
309.70 6.02
309.80 6.012
309.90 6.005
310.00 5.998
310.10 5.99
310.20 5.983
310.30 5.976
310.40 5.969
310.50 5.961
310.60 5.954
310.70 5.947
310.80 5.94
310.90 5.933
311.00 5.925
311.10 5.918
311.20 5.911
311.30 5.904
311.40 5.897
311.50 5.89
311.60 5.883
311.70 5.876
311.80 5.868
311.90 5.861
312.00 5.854
312.10 5.847
312.20 5.84
312.30 5.833
312.40 5.826
312.50 5.819
312.60 5.812
312.70 5.805
312.80 5.798
312.90 5.791
313.00 5.784
313.10 5.777
313.20 5.77
313.30 5.763
313.40 5.756
313.50 5.75
313.60 5.743
313.70 5.736
313.80 5.729
313.90 5.722
314.00 5.715
314.10 5.708
314.20 5.702
314.30 5.695
314.40 5.688
314.50 5.681
314.60 5.674
314.70 5.668
314.80 5.661
314.90 5.654
315.00 5.647
315.10 5.64
315.20 5.634
315.30 5.627
315.40 5.62
315.50 5.614
315.60 5.607
315.70 5.6
315.80 5.594
315.90 5.587
316.00 5.58
316.10 5.574
316.20 5.567
316.30 5.56
316.40 5.554
316.50 5.547
316.60 5.541
316.70 5.534
316.80 5.527
316.90 5.521
317.00 5.514
317.10 5.508
317.20 5.501
317.30 5.495
317.40 5.488
317.50 5.482
317.60 5.475
317.70 5.469
317.80 5.462
317.90 5.456
318.00 5.449
318.10 5.443
318.20 5.436
318.30 5.43
318.40 5.424
318.50 5.417
318.60 5.411
318.70 5.404
318.80 5.398
318.90 5.392
319.00 5.385
319.10 5.379
319.20 5.373
319.30 5.366
319.40 5.36
319.50 5.354
319.60 5.347
319.70 5.341
319.80 5.335
319.90 5.328
320.00 5.322
320.10 5.316
320.20 5.31
320.30 5.303
320.40 5.297
320.50 5.291
320.60 5.285
320.70 5.279
320.80 5.272
320.90 5.266
321.00 5.26
321.10 5.254
321.20 5.248
321.30 5.241
321.40 5.235
321.50 5.229
321.60 5.223
321.70 5.217
321.80 5.211
321.90 5.205
322.00 5.199
322.10 5.193
322.20 5.187
322.30 5.18
322.40 5.174
322.50 5.168
322.60 5.162
322.70 5.156
322.80 5.15
322.90 5.144
323.00 5.138
323.10 5.132
323.20 5.126
323.30 5.12
323.40 5.114
323.50 5.108
323.60 5.103
323.70 5.097
323.80 5.091
323.90 5.085
324.00 5.079
324.10 5.073
324.20 5.067
324.30 5.061
324.40 5.055
324.50 5.049
324.60 5.044
324.70 5.038
324.80 5.032
324.90 5.026
325.00 5.02
325.10 5.014
325.20 5.009
325.30 5.003
325.40 4.997
325.50 4.991
325.60 4.985
325.70 4.98
325.80 4.974
325.90 4.968
326.00 4.962
326.10 4.957
326.20 4.951
326.30 4.945
326.40 4.94
326.50 4.934
326.60 4.928
326.70 4.922
326.80 4.917
326.90 4.911
327.00 4.905
327.10 4.9
327.20 4.894
327.30 4.888
327.40 4.883
327.50 4.877
327.60 4.872
327.70 4.866
327.80 4.86
327.90 4.855
328.00 4.849
328.10 4.844
328.20 4.838
328.30 4.833
328.40 4.827
328.50 4.822
328.60 4.816
328.70 4.81
328.80 4.805
328.90 4.799
329.00 4.794
329.10 4.788
329.20 4.783
329.30 4.777
329.40 4.772
329.50 4.767
329.60 4.761
329.70 4.756
329.80 4.75
329.90 4.745
330.00 4.739
330.10 4.734
330.20 4.729
330.30 4.723
330.40 4.718
330.50 4.712
330.60 4.707
330.70 4.702
330.80 4.696
330.90 4.691
331.00 4.686
331.10 4.68
331.20 4.675
331.30 4.67
331.40 4.664
331.50 4.659
331.60 4.654
331.70 4.648
331.80 4.643
331.90 4.638
332.00 4.633
332.10 4.627
332.20 4.622
332.30 4.617
332.40 4.612
332.50 4.606
332.60 4.601
332.70 4.596
332.80 4.591
332.90 4.586
333.00 4.58
333.10 4.575
333.20 4.57
333.30 4.565
333.40 4.56
333.50 4.555
333.60 4.549
333.70 4.544
333.80 4.539
333.90 4.534
334.00 4.529
334.10 4.524
334.20 4.519
334.30 4.514
334.40 4.508
334.50 4.503
334.60 4.498
334.70 4.493
334.80 4.488
334.90 4.483
335.00 4.478
335.10 4.473
335.20 4.468
335.30 4.463
335.40 4.458
335.50 4.453
335.60 4.448
335.70 4.443
335.80 4.438
335.90 4.433
336.00 4.428
336.10 4.423
336.20 4.418
336.30 4.413
336.40 4.408
336.50 4.403
336.60 4.398
336.70 4.393
336.80 4.388
336.90 4.384
337.00 4.379
337.10 4.374
337.20 4.369
337.30 4.364
337.40 4.359
337.50 4.354
337.60 4.349
337.70 4.344
337.80 4.34
337.90 4.335
338.00 4.33
338.10 4.325
338.20 4.32
338.30 4.315
338.40 4.311
338.50 4.306
338.60 4.301
338.70 4.296
338.80 4.291
338.90 4.287
339.00 4.282
339.10 4.277
339.20 4.272
339.30 4.268
339.40 4.263
339.50 4.258
339.60 4.253
339.70 4.249
339.80 4.244
339.90 4.239
340.00 4.234
340.10 4.23
340.20 4.225
340.30 4.22
340.40 4.216
340.50 4.211
340.60 4.206
340.70 4.202
340.80 4.197
340.90 4.192
341.00 4.188
341.10 4.183
341.20 4.179
341.30 4.174
341.40 4.169
341.50 4.165
341.60 4.16
341.70 4.155
341.80 4.151
341.90 4.146
342.00 4.142
342.10 4.137
342.20 4.133
342.30 4.128
342.40 4.124
342.50 4.119
342.60 4.114
342.70 4.11
342.80 4.105
342.90 4.101
343.00 4.096
343.10 4.092
343.20 4.087
343.30 4.083
343.40 4.078
343.50 4.074
343.60 4.069
343.70 4.065
343.80 4.06
343.90 4.056
344.00 4.051
344.10 4.047
344.20 4.043
344.30 4.038
344.40 4.034
344.50 4.029
344.60 4.025
344.70 4.021
344.80 4.016
344.90 4.012
345.00 4.007
345.10 4.003
345.20 3.999
345.30 3.994
345.40 3.99
345.50 3.985
345.60 3.981
345.70 3.977
345.80 3.972
345.90 3.968
346.00 3.964
346.10 3.959
346.20 3.955
346.30 3.951
346.40 3.946
346.50 3.942
346.60 3.938
346.70 3.934
346.80 3.929
346.90 3.925
347.00 3.921
347.10 3.917
347.20 3.912
347.30 3.908
347.40 3.904
347.50 3.899
347.60 3.895
347.70 3.891
347.80 3.887
347.90 3.883
348.00 3.878
348.10 3.874
348.20 3.87
348.30 3.866
348.40 3.862
348.50 3.857
348.60 3.853
348.70 3.849
348.80 3.845
348.90 3.841
349.00 3.837
349.10 3.832
349.20 3.828
349.30 3.824
349.40 3.82
349.50 3.816
349.60 3.812
349.70 3.808
349.80 3.803
349.90 3.799
350.00 3.795
350.10 3.791
350.20 3.787
350.30 3.783
350.40 3.779
350.50 3.775
350.60 3.771
350.70 3.767
350.80 3.763
350.90 3.759
351.00 3.755
351.10 3.751
351.20 3.746
351.30 3.742
351.40 3.738
351.50 3.734
351.60 3.73
351.70 3.726
351.80 3.722
351.90 3.718
352.00 3.714
352.10 3.71
352.20 3.706
352.30 3.702
352.40 3.698
352.50 3.694
352.60 3.691
352.70 3.687
352.80 3.683
352.90 3.679
353.00 3.675
353.10 3.671
353.20 3.667
353.30 3.663
353.40 3.659
353.50 3.655
353.60 3.651
353.70 3.647
353.80 3.643
353.90 3.639
354.00 3.636
354.10 3.632
354.20 3.628
354.30 3.624
354.40 3.62
354.50 3.616
354.60 3.612
354.70 3.609
354.80 3.605
354.90 3.601
355.00 3.597
355.10 3.593
355.20 3.589
355.30 3.586
355.40 3.582
355.50 3.578
355.60 3.574
355.70 3.57
355.80 3.567
355.90 3.563
356.00 3.559
356.10 3.555
356.20 3.551
356.30 3.548
356.40 3.544
356.50 3.54
356.60 3.536
356.70 3.533
356.80 3.529
356.90 3.525
357.00 3.521
357.10 3.518
357.20 3.514
357.30 3.51
357.40 3.507
357.50 3.503
357.60 3.499
357.70 3.495
357.80 3.492
357.90 3.488
358.00 3.484
358.10 3.481
358.20 3.477
358.30 3.473
358.40 3.47
358.50 3.466
358.60 3.462
358.70 3.459
358.80 3.455
358.90 3.451
359.00 3.448
359.10 3.444
359.20 3.44
359.30 3.437
359.40 3.433
359.50 3.43
359.60 3.426
359.70 3.422
359.80 3.419
359.90 3.415
360.00 3.412
360.10 3.408
360.20 3.404
360.30 3.401
360.40 3.397
360.50 3.394
360.60 3.39
360.70 3.387
360.80 3.383
360.90 3.38
361.00 3.376
361.10 3.372
361.20 3.369
361.30 3.365
361.40 3.362
361.50 3.358
361.60 3.355
361.70 3.351
361.80 3.348
361.90 3.344
362.00 3.341
362.10 3.337
362.20 3.334
362.30 3.33
362.40 3.327
362.50 3.323
362.60 3.32
362.70 3.316
362.80 3.313
362.90 3.31
363.00 3.306
363.10 3.303
363.20 3.299
363.30 3.296
363.40 3.292
363.50 3.289
363.60 3.285
363.70 3.282
363.80 3.279
363.90 3.275
364.00 3.272
364.10 3.268
364.20 3.265
364.30 3.262
364.40 3.258
364.50 3.255
364.60 3.251
364.70 3.248
364.80 3.245
364.90 3.241
365.00 3.238
365.10 3.235
365.20 3.231
365.30 3.228
365.40 3.225
365.50 3.221
365.60 3.218
365.70 3.215
365.80 3.211
365.90 3.208
366.00 3.205
366.10 3.201
366.20 3.198
366.30 3.195
366.40 3.191
366.50 3.188
366.60 3.185
366.70 3.181
366.80 3.178
366.90 3.175
367.00 3.172
367.10 3.168
367.20 3.165
367.30 3.162
367.40 3.158
367.50 3.155
367.60 3.152
367.70 3.149
367.80 3.145
367.90 3.142
368.00 3.139
368.10 3.135
368.20 3.132
368.30 3.129
368.40 3.126
368.50 3.122
368.60 3.119
368.70 3.116
368.80 3.112
368.90 3.109
369.00 3.106
369.10 3.103
369.20 3.099
369.30 3.096
369.40 3.093
369.50 3.09
369.60 3.086
369.70 3.083
369.80 3.08
369.90 3.077
370.00 3.073
370.10 3.07
370.20 3.067
370.30 3.064
370.40 3.061
370.50 3.057
370.60 3.054
370.70 3.051
370.80 3.048
370.90 3.045
371.00 3.041
371.10 3.038
371.20 3.035
371.30 3.032
371.40 3.029
371.50 3.026
371.60 3.022
371.70 3.019
371.80 3.016
371.90 3.013
372.00 3.01
372.10 3.007
372.20 3.004
372.30 3.001
372.40 2.998
372.50 2.995
372.60 2.992
372.70 2.989
372.80 2.986
372.90 2.983
373.00 2.98
373.10 2.977
373.20 2.974
373.30 2.971
373.40 2.968
373.50 2.965
373.60 2.962
373.70 2.959
373.80 2.956
373.90 2.953
374.00 2.95
374.10 2.947
374.20 2.944
374.30 2.941
374.40 2.938
374.50 2.934
374.60 2.931
374.70 2.928
374.80 2.925
374.90 2.922
375.00 2.919
375.10 2.916
375.20 2.913
375.30 2.91
375.40 2.907
375.50 2.904
375.60 2.901
375.70 2.898
375.80 2.895
375.90 2.892
376.00 2.889
376.10 2.886
376.20 2.883
376.30 2.88
376.40 2.877
376.50 2.874
376.60 2.871
376.70 2.868
376.80 2.866
376.90 2.863
377.00 2.86
377.10 2.857
377.20 2.854
377.30 2.851
377.40 2.848
377.50 2.845
377.60 2.842
377.70 2.839
377.80 2.837
377.90 2.834
378.00 2.831
378.10 2.828
378.20 2.825
378.30 2.822
378.40 2.819
378.50 2.817
378.60 2.814
378.70 2.811
378.80 2.808
378.90 2.805
379.00 2.802
379.10 2.799
379.20 2.797
379.30 2.794
379.40 2.791
379.50 2.788
379.60 2.785
379.70 2.783
379.80 2.78
379.90 2.777
380.00 2.774
380.10 2.771
380.20 2.769
380.30 2.766
380.40 2.763
380.50 2.76
380.60 2.758
380.70 2.755
380.80 2.752
380.90 2.749
381.00 2.747
381.10 2.744
381.20 2.741
381.30 2.738
381.40 2.736
381.50 2.733
381.60 2.73
381.70 2.728
381.80 2.725
381.90 2.722
382.00 2.719
382.10 2.717
382.20 2.714
382.30 2.711
382.40 2.709
382.50 2.706
382.60 2.703
382.70 2.701
382.80 2.698
382.90 2.695
383.00 2.693
383.10 2.69
383.20 2.687
383.30 2.685
383.40 2.682
383.50 2.68
383.60 2.677
383.70 2.674
383.80 2.672
383.90 2.669
384.00 2.666
384.10 2.664
384.20 2.661
384.30 2.659
384.40 2.656
384.50 2.654
384.60 2.651
384.70 2.648
384.80 2.646
384.90 2.643
385.00 2.641
385.10 2.638
385.20 2.636
385.30 2.633
385.40 2.631
385.50 2.628
385.60 2.626
385.70 2.623
385.80 2.62
385.90 2.618
386.00 2.615
386.10 2.613
386.20 2.61
386.30 2.608
386.40 2.605
386.50 2.603
386.60 2.6
386.70 2.598
386.80 2.595
386.90 2.593
387.00 2.59
387.10 2.588
387.20 2.585
387.30 2.583
387.40 2.58
387.50 2.578
387.60 2.575
387.70 2.573
387.80 2.57
387.90 2.568
388.00 2.565
388.10 2.563
388.20 2.561
388.30 2.558
388.40 2.556
388.50 2.553
388.60 2.551
388.70 2.548
388.80 2.546
388.90 2.544
389.00 2.541
389.10 2.539
389.20 2.537
389.30 2.534
389.40 2.532
389.50 2.53
389.60 2.527
389.70 2.525
389.80 2.523
389.90 2.52
390.00 2.518
390.10 2.516
390.20 2.513
390.30 2.511
390.40 2.509
390.50 2.506
390.60 2.504
390.70 2.502
390.80 2.5
390.90 2.497
391.00 2.495
391.10 2.493
391.20 2.49
391.30 2.488
391.40 2.486
391.50 2.483
391.60 2.481
391.70 2.479
391.80 2.477
391.90 2.474
392.00 2.472
392.10 2.47
392.20 2.467
392.30 2.465
392.40 2.463
392.50 2.46
392.60 2.458
392.70 2.455
392.80 2.453
392.90 2.451
393.00 2.448
393.10 2.446
393.20 2.444
393.30 2.441
393.40 2.439
393.50 2.436
393.60 2.434
393.70 2.432
393.80 2.429
393.90 2.427
394.00 2.424
394.10 2.422
394.20 2.419
394.30 2.417
394.40 2.414
394.50 2.412
394.60 2.41
394.70 2.407
394.80 2.405
394.90 2.402
395.00 2.4
395.10 2.397
395.20 2.395
395.30 2.392
395.40 2.39
395.50 2.387
395.60 2.385
395.70 2.382
395.80 2.38
395.90 2.377
396.00 2.375
396.10 2.373
396.20 2.37
396.30 2.368
396.40 2.365
396.50 2.363
396.60 2.361
396.70 2.358
396.80 2.356
396.90 2.354
397.00 2.351
397.10 2.35
397.20 2.348
397.30 2.346
397.40 2.344
397.50 2.342
397.60 2.34
397.70 2.338
397.80 2.337
397.90 2.335
398.00 2.333
398.10 2.331
398.20 2.33
398.30 2.328
398.40 2.326
398.50 2.325
398.60 2.323
398.70 2.321
398.80 2.319
398.90 2.318
399.00 2.316
399.10 2.314
399.20 2.312
399.30 2.311
399.40 2.309
399.50 2.307
399.60 2.305
399.70 2.304
399.80 2.302
399.90 2.3
400.00 2.298
400.10 2.296
400.20 2.294
400.30 2.293
400.40 2.291
400.50 2.289
400.60 2.287
400.70 2.285
400.80 2.283
400.90 2.281
401.00 2.279
401.10 2.277
401.20 2.276
401.30 2.274
401.40 2.272
401.50 2.27
401.60 2.268
401.70 2.266
401.80 2.264
401.90 2.262
402.00 2.259
402.10 2.257
402.20 2.255
402.30 2.253
402.40 2.251
402.50 2.249
402.60 2.247
402.70 2.245
402.80 2.243
402.90 2.24
403.00 2.238
403.10 2.236
403.20 2.234
403.30 2.232
403.40 2.229
403.50 2.227
403.60 2.225
403.70 2.223
403.80 2.22
403.90 2.218
404.00 2.216
404.10 2.213
404.20 2.211
404.30 2.208
404.40 2.206
404.50 2.204
404.60 2.201
404.70 2.199
404.80 2.196
404.90 2.194
405.00 2.191
405.10 2.189
405.20 2.186
405.30 2.184
405.40 2.181
405.50 2.178
405.60 2.176
405.70 2.173
405.80 2.17
405.90 2.168
406.00 2.165
406.10 2.162
406.20 2.16
406.30 2.157
406.40 2.154
406.50 2.151
406.60 2.149
406.70 2.146
406.80 2.143
406.90 2.14
407.00 2.137
407.10 2.134
407.20 2.131
407.30 2.128
407.40 2.125
407.50 2.122
407.60 2.12
407.70 2.117
407.80 2.114
407.90 2.111
408.00 2.108
408.10 2.105
408.20 2.102
408.30 2.098
408.40 2.095
408.50 2.092
408.60 2.089
408.70 2.086
408.80 2.084
408.90 2.081
409.00 2.078
409.10 2.075
409.20 2.072
409.30 2.069
409.40 2.067
409.50 2.064
409.60 2.062
409.70 2.06
409.80 2.058
409.90 2.057
410.00 2.055
410.10 2.054
410.20 2.053
410.30 2.05
410.40 2.048
410.50 2.046
410.60 2.044
410.70 2.042
410.80 2.041
410.90 2.04
411.00 2.039
411.10 2.038
411.20 2.037
411.30 2.036
411.40 2.035
411.50 2.035
411.60 2.034
411.70 2.033
411.80 2.033
411.90 2.032
412.00 2.031
412.10 2.031
412.20 2.03
412.30 2.03
412.40 2.029
412.50 2.028
412.60 2.028
412.70 2.027
412.80 2.026
412.90 2.026
413.00 2.025
413.10 2.024
413.20 2.023
413.30 2.023
413.40 2.022
413.50 2.021
413.60 2.02
413.70 2.02
413.80 2.019
413.90 2.018
414.00 2.017
414.10 2.016
414.20 2.015
414.30 2.014
414.40 2.013
414.50 2.012
414.60 2.011
414.70 2.01
414.80 2.009
414.90 2.008
415.00 2.007
415.10 2.006
415.20 2.005
415.30 2.004
415.40 2.003
415.50 2.002
415.60 2
415.70 1.999
415.80 1.998
415.90 1.997
416.00 1.996
416.10 1.994
416.20 1.993
416.30 1.992
416.40 1.991
416.50 1.989
416.60 1.988
416.70 1.987
416.80 1.985
416.90 1.984
417.00 1.983
417.10 1.981
417.20 1.98
417.30 1.979
417.40 1.977
417.50 1.976
417.60 1.974
417.70 1.973
417.80 1.972
417.90 1.97
418.00 1.969
418.10 1.967
418.20 1.966
418.30 1.964
418.40 1.963
418.50 1.961
418.60 1.96
418.70 1.958
418.80 1.957
418.90 1.955
419.00 1.954
419.10 1.952
419.20 1.95
419.30 1.949
419.40 1.947
419.50 1.946
419.60 1.944
419.70 1.942
419.80 1.941
419.90 1.939
420.00 1.938
420.10 1.936
420.20 1.934
420.30 1.933
420.40 1.931
420.50 1.929
420.60 1.928
420.70 1.926
420.80 1.924
420.90 1.923
421.00 1.921
421.10 1.919
421.20 1.918
421.30 1.916
421.40 1.914
421.50 1.912
421.60 1.911
421.70 1.909
421.80 1.907
421.90 1.905
422.00 1.904
422.10 1.902
422.20 1.9
422.30 1.898
422.40 1.897
422.50 1.895
422.60 1.893
422.70 1.891
422.80 1.889
422.90 1.888
423.00 1.886
423.10 1.884
423.20 1.882
423.30 1.88
423.40 1.878
423.50 1.876
423.60 1.875
423.70 1.873
423.80 1.871
423.90 1.869
424.00 1.867
424.10 1.865
424.20 1.863
424.30 1.861
424.40 1.859
424.50 1.857
424.60 1.855
424.70 1.853
424.80 1.851
424.90 1.849
425.00 1.847
425.10 1.845
425.20 1.843
425.30 1.841
425.40 1.839
425.50 1.837
425.60 1.835
425.70 1.833
425.80 1.831
425.90 1.829
426.00 1.827
426.10 1.824
426.20 1.822
426.30 1.82
426.40 1.818
426.50 1.816
426.60 1.814
426.70 1.811
426.80 1.809
426.90 1.807
427.00 1.804
427.10 1.802
427.20 1.8
427.30 1.798
427.40 1.795
427.50 1.793
427.60 1.79
427.70 1.788
427.80 1.786
427.90 1.783
428.00 1.781
428.10 1.778
428.20 1.776
428.30 1.773
428.40 1.77
428.50 1.768
428.60 1.765
428.70 1.763
428.80 1.76
428.90 1.757
429.00 1.754
429.10 1.752
429.20 1.749
429.30 1.746
429.40 1.743
429.50 1.74
429.60 1.737
429.70 1.735
429.80 1.732
429.90 1.729
430.00 1.726
430.10 1.722
430.20 1.719
430.30 1.716
430.40 1.713
430.50 1.71
430.60 1.707
430.70 1.703
430.80 1.7
430.90 1.697
431.00 1.693
431.10 1.69
431.20 1.687
431.30 1.683
431.40 1.68
431.50 1.676
431.60 1.673
431.70 1.669
431.80 1.666
431.90 1.662
432.00 1.658
432.10 1.655
432.20 1.651
432.30 1.647
432.40 1.644
432.50 1.64
432.60 1.636
432.70 1.633
432.80 1.629
432.90 1.625
433.00 1.621
433.10 1.618
433.20 1.614
433.30 1.61
433.40 1.606
433.50 1.602
433.60 1.598
433.70 1.593
433.80 1.588
433.90 1.583
434.00 1.58
434.10 1.578
434.20 1.58
434.30 1.582
434.40 1.584
434.50 1.586
434.60 1.588
434.70 1.589
434.80 1.59
434.90 1.591
435.00 1.592
435.10 1.593
435.20 1.594
435.30 1.595
435.40 1.596
435.50 1.597
435.60 1.598
435.70 1.599
435.80 1.6
435.90 1.601
436.00 1.602
436.10 1.603
436.20 1.603
436.30 1.604
436.40 1.605
436.50 1.605
436.60 1.606
436.70 1.607
436.80 1.607
436.90 1.608
437.00 1.608
437.10 1.609
437.20 1.609
437.30 1.61
437.40 1.61
437.50 1.61
437.60 1.611
437.70 1.611
437.80 1.611
437.90 1.611
438.00 1.611
438.10 1.612
438.20 1.612
438.30 1.612
438.40 1.612
438.50 1.612
438.60 1.611
438.70 1.611
438.80 1.611
438.90 1.611
439.00 1.611
439.10 1.611
439.20 1.61
439.30 1.61
439.40 1.61
439.50 1.609
439.60 1.609
439.70 1.609
439.80 1.608
439.90 1.608
440.00 1.607
440.10 1.607
440.20 1.606
440.30 1.606
440.40 1.605
440.50 1.604
440.60 1.604
440.70 1.603
440.80 1.602
440.90 1.602
441.00 1.601
441.10 1.6
441.20 1.6
441.30 1.599
441.40 1.598
441.50 1.597
441.60 1.597
441.70 1.596
441.80 1.595
441.90 1.594
442.00 1.593
442.10 1.592
442.20 1.591
442.30 1.591
442.40 1.59
442.50 1.589
442.60 1.588
442.70 1.587
442.80 1.586
442.90 1.585
443.00 1.584
443.10 1.583
443.20 1.582
443.30 1.581
443.40 1.58
443.50 1.579
443.60 1.578
443.70 1.577
443.80 1.576
443.90 1.575
444.00 1.574
444.10 1.573
444.20 1.572
444.30 1.57
444.40 1.569
444.50 1.568
444.60 1.567
444.70 1.566
444.80 1.565
444.90 1.564
445.00 1.563
445.10 1.562
445.20 1.561
445.30 1.559
445.40 1.558
445.50 1.557
445.60 1.556
445.70 1.555
445.80 1.554
445.90 1.553
446.00 1.551
446.10 1.55
446.20 1.549
446.30 1.548
446.40 1.547
446.50 1.546
446.60 1.544
446.70 1.543
446.80 1.542
446.90 1.541
447.00 1.54
447.10 1.538
447.20 1.537
447.30 1.536
447.40 1.535
447.50 1.534
447.60 1.532
447.70 1.531
447.80 1.53
447.90 1.529
448.00 1.528
448.10 1.526
448.20 1.525
448.30 1.524
448.40 1.523
448.50 1.522
448.60 1.52
448.70 1.519
448.80 1.518
448.90 1.517
449.00 1.516
449.10 1.514
449.20 1.513
449.30 1.512
449.40 1.511
449.50 1.509
449.60 1.508
449.70 1.507
449.80 1.506
449.90 1.505
450.00 1.503
450.10 1.502
450.20 1.501
450.30 1.5
450.40 1.498
450.50 1.497
450.60 1.496
450.70 1.495
450.80 1.494
450.90 1.492
451.00 1.491
451.10 1.49
451.20 1.489
451.30 1.488
451.40 1.486
451.50 1.485
451.60 1.484
451.70 1.483
451.80 1.481
451.90 1.48
452.00 1.479
452.10 1.478
452.20 1.477
452.30 1.475
452.40 1.474
452.50 1.473
452.60 1.472
452.70 1.47
452.80 1.469
452.90 1.468
453.00 1.467
453.10 1.466
453.20 1.464
453.30 1.463
453.40 1.462
453.50 1.461
453.60 1.459
453.70 1.458
453.80 1.457
453.90 1.456
454.00 1.455
454.10 1.453
