# Version 2.1 - nm, norm@500 to 1, cut digits, bergeron_60000_90.dat_60000
# Wavelength(nm)  Flambda(ergs/cm^s/s/nm)
300.00 6.439
300.10 6.431
300.20 6.424
300.30 6.416
300.40 6.408
300.50 6.4
300.60 6.392
300.70 6.384
300.80 6.377
300.90 6.369
301.00 6.361
301.10 6.353
301.20 6.346
301.30 6.338
301.40 6.33
301.50 6.322
301.60 6.315
301.70 6.307
301.80 6.299
301.90 6.292
302.00 6.284
302.10 6.276
302.20 6.269
302.30 6.261
302.40 6.254
302.50 6.246
302.60 6.238
302.70 6.231
302.80 6.223
302.90 6.216
303.00 6.208
303.10 6.201
303.20 6.193
303.30 6.186
303.40 6.178
303.50 6.171
303.60 6.163
303.70 6.156
303.80 6.148
303.90 6.141
304.00 6.133
304.10 6.126
304.20 6.119
304.30 6.111
304.40 6.104
304.50 6.096
304.60 6.089
304.70 6.082
304.80 6.074
304.90 6.067
305.00 6.06
305.10 6.052
305.20 6.045
305.30 6.038
305.40 6.031
305.50 6.023
305.60 6.016
305.70 6.009
305.80 6.002
305.90 5.994
306.00 5.987
306.10 5.98
306.20 5.973
306.30 5.966
306.40 5.959
306.50 5.951
306.60 5.944
306.70 5.937
306.80 5.93
306.90 5.923
307.00 5.916
307.10 5.909
307.20 5.902
307.30 5.895
307.40 5.888
307.50 5.88
307.60 5.873
307.70 5.866
307.80 5.859
307.90 5.852
308.00 5.845
308.10 5.838
308.20 5.831
308.30 5.825
308.40 5.818
308.50 5.811
308.60 5.804
308.70 5.797
308.80 5.79
308.90 5.783
309.00 5.776
309.10 5.769
309.20 5.762
309.30 5.755
309.40 5.749
309.50 5.742
309.60 5.735
309.70 5.728
309.80 5.721
309.90 5.715
310.00 5.708
310.10 5.701
310.20 5.694
310.30 5.688
310.40 5.681
310.50 5.674
310.60 5.667
310.70 5.661
310.80 5.654
310.90 5.647
311.00 5.641
311.10 5.634
311.20 5.627
311.30 5.621
311.40 5.614
311.50 5.607
311.60 5.601
311.70 5.594
311.80 5.587
311.90 5.581
312.00 5.574
312.10 5.568
312.20 5.561
312.30 5.555
312.40 5.548
312.50 5.541
312.60 5.535
312.70 5.528
312.80 5.522
312.90 5.515
313.00 5.509
313.10 5.502
313.20 5.496
313.30 5.489
313.40 5.483
313.50 5.477
313.60 5.47
313.70 5.464
313.80 5.457
313.90 5.451
314.00 5.445
314.10 5.438
314.20 5.432
314.30 5.425
314.40 5.419
314.50 5.413
314.60 5.406
314.70 5.4
314.80 5.394
314.90 5.387
315.00 5.381
315.10 5.375
315.20 5.369
315.30 5.362
315.40 5.356
315.50 5.35
315.60 5.343
315.70 5.337
315.80 5.331
315.90 5.325
316.00 5.319
316.10 5.312
316.20 5.306
316.30 5.3
316.40 5.294
316.50 5.288
316.60 5.282
316.70 5.275
316.80 5.269
316.90 5.263
317.00 5.257
317.10 5.251
317.20 5.245
317.30 5.239
317.40 5.233
317.50 5.227
317.60 5.221
317.70 5.214
317.80 5.208
317.90 5.202
318.00 5.196
318.10 5.19
318.20 5.184
318.30 5.178
318.40 5.172
318.50 5.166
318.60 5.16
318.70 5.154
318.80 5.148
318.90 5.142
319.00 5.136
319.10 5.131
319.20 5.125
319.30 5.119
319.40 5.113
319.50 5.107
319.60 5.101
319.70 5.095
319.80 5.089
319.90 5.083
320.00 5.078
320.10 5.072
320.20 5.066
320.30 5.06
320.40 5.054
320.50 5.048
320.60 5.043
320.70 5.037
320.80 5.031
320.90 5.025
321.00 5.019
321.10 5.014
321.20 5.008
321.30 5.002
321.40 4.996
321.50 4.991
321.60 4.985
321.70 4.979
321.80 4.974
321.90 4.968
322.00 4.962
322.10 4.956
322.20 4.951
322.30 4.945
322.40 4.939
322.50 4.934
322.60 4.928
322.70 4.923
322.80 4.917
322.90 4.911
323.00 4.906
323.10 4.9
323.20 4.894
323.30 4.889
323.40 4.883
323.50 4.878
323.60 4.872
323.70 4.867
323.80 4.861
323.90 4.856
324.00 4.85
324.10 4.844
324.20 4.839
324.30 4.833
324.40 4.828
324.50 4.822
324.60 4.817
324.70 4.812
324.80 4.806
324.90 4.801
325.00 4.795
325.10 4.79
325.20 4.784
325.30 4.779
325.40 4.773
325.50 4.768
325.60 4.763
325.70 4.757
325.80 4.752
325.90 4.746
326.00 4.741
326.10 4.736
326.20 4.73
326.30 4.725
326.40 4.72
326.50 4.714
326.60 4.709
326.70 4.704
326.80 4.698
326.90 4.693
327.00 4.688
327.10 4.682
327.20 4.677
327.30 4.672
327.40 4.667
327.50 4.661
327.60 4.656
327.70 4.651
327.80 4.646
327.90 4.64
328.00 4.635
328.10 4.63
328.20 4.625
328.30 4.619
328.40 4.614
328.50 4.609
328.60 4.604
328.70 4.599
328.80 4.594
328.90 4.588
329.00 4.583
329.10 4.578
329.20 4.573
329.30 4.568
329.40 4.563
329.50 4.558
329.60 4.553
329.70 4.547
329.80 4.542
329.90 4.537
330.00 4.532
330.10 4.527
330.20 4.522
330.30 4.517
330.40 4.512
330.50 4.507
330.60 4.502
330.70 4.497
330.80 4.492
330.90 4.487
331.00 4.482
331.10 4.477
331.20 4.472
331.30 4.467
331.40 4.462
331.50 4.457
331.60 4.452
331.70 4.447
331.80 4.442
331.90 4.437
332.00 4.432
332.10 4.427
332.20 4.422
332.30 4.417
332.40 4.412
332.50 4.408
332.60 4.403
332.70 4.398
332.80 4.393
332.90 4.388
333.00 4.383
333.10 4.378
333.20 4.373
333.30 4.369
333.40 4.364
333.50 4.359
333.60 4.354
333.70 4.349
333.80 4.344
333.90 4.34
334.00 4.335
334.10 4.33
334.20 4.325
334.30 4.32
334.40 4.316
334.50 4.311
334.60 4.306
334.70 4.301
334.80 4.297
334.90 4.292
335.00 4.287
335.10 4.282
335.20 4.278
335.30 4.273
335.40 4.268
335.50 4.264
335.60 4.259
335.70 4.254
335.80 4.249
335.90 4.245
336.00 4.24
336.10 4.235
336.20 4.231
336.30 4.226
336.40 4.221
336.50 4.217
336.60 4.212
336.70 4.208
336.80 4.203
336.90 4.198
337.00 4.194
337.10 4.189
337.20 4.185
337.30 4.18
337.40 4.175
337.50 4.171
337.60 4.166
337.70 4.162
337.80 4.157
337.90 4.152
338.00 4.148
338.10 4.143
338.20 4.139
338.30 4.134
338.40 4.13
338.50 4.125
338.60 4.121
338.70 4.116
338.80 4.112
338.90 4.107
339.00 4.103
339.10 4.098
339.20 4.094
339.30 4.089
339.40 4.085
339.50 4.081
339.60 4.076
339.70 4.072
339.80 4.067
339.90 4.063
340.00 4.058
340.10 4.054
340.20 4.05
340.30 4.045
340.40 4.041
340.50 4.036
340.60 4.032
340.70 4.028
340.80 4.023
340.90 4.019
341.00 4.014
341.10 4.01
341.20 4.006
341.30 4.001
341.40 3.997
341.50 3.993
341.60 3.988
341.70 3.984
341.80 3.98
341.90 3.975
342.00 3.971
342.10 3.967
342.20 3.963
342.30 3.958
342.40 3.954
342.50 3.95
342.60 3.945
342.70 3.941
342.80 3.937
342.90 3.933
343.00 3.928
343.10 3.924
343.20 3.92
343.30 3.916
343.40 3.912
343.50 3.907
343.60 3.903
343.70 3.899
343.80 3.895
343.90 3.89
344.00 3.886
344.10 3.882
344.20 3.878
344.30 3.874
344.40 3.87
344.50 3.865
344.60 3.861
344.70 3.857
344.80 3.853
344.90 3.849
345.00 3.845
345.10 3.841
345.20 3.836
345.30 3.832
345.40 3.828
345.50 3.824
345.60 3.82
345.70 3.816
345.80 3.812
345.90 3.808
346.00 3.804
346.10 3.8
346.20 3.796
346.30 3.791
346.40 3.787
346.50 3.783
346.60 3.779
346.70 3.775
346.80 3.771
346.90 3.767
347.00 3.763
347.10 3.759
347.20 3.755
347.30 3.751
347.40 3.747
347.50 3.743
347.60 3.739
347.70 3.735
347.80 3.731
347.90 3.727
348.00 3.723
348.10 3.719
348.20 3.715
348.30 3.711
348.40 3.707
348.50 3.704
348.60 3.7
348.70 3.696
348.80 3.692
348.90 3.688
349.00 3.684
349.10 3.68
349.20 3.676
349.30 3.672
349.40 3.668
349.50 3.664
349.60 3.661
349.70 3.657
349.80 3.653
349.90 3.649
350.00 3.645
350.10 3.641
350.20 3.637
350.30 3.633
350.40 3.63
350.50 3.626
350.60 3.622
350.70 3.618
350.80 3.614
350.90 3.61
351.00 3.607
351.10 3.603
351.20 3.599
351.30 3.595
351.40 3.591
351.50 3.588
351.60 3.584
351.70 3.58
351.80 3.576
351.90 3.573
352.00 3.569
352.10 3.565
352.20 3.561
352.30 3.558
352.40 3.554
352.50 3.55
352.60 3.546
352.70 3.543
352.80 3.539
352.90 3.535
353.00 3.531
353.10 3.528
353.20 3.524
353.30 3.52
353.40 3.517
353.50 3.513
353.60 3.509
353.70 3.506
353.80 3.502
353.90 3.498
354.00 3.495
354.10 3.491
354.20 3.487
354.30 3.484
354.40 3.48
354.50 3.476
354.60 3.473
354.70 3.469
354.80 3.465
354.90 3.462
355.00 3.458
355.10 3.455
355.20 3.451
355.30 3.447
355.40 3.444
355.50 3.44
355.60 3.437
355.70 3.433
355.80 3.429
355.90 3.426
356.00 3.422
356.10 3.419
356.20 3.415
356.30 3.412
356.40 3.408
356.50 3.404
356.60 3.401
356.70 3.397
356.80 3.394
356.90 3.39
357.00 3.387
357.10 3.383
357.20 3.38
357.30 3.376
357.40 3.373
357.50 3.369
357.60 3.366
357.70 3.362
357.80 3.359
357.90 3.355
358.00 3.352
358.10 3.348
358.20 3.345
358.30 3.341
358.40 3.338
358.50 3.334
358.60 3.331
358.70 3.328
358.80 3.324
358.90 3.321
359.00 3.317
359.10 3.314
359.20 3.31
359.30 3.307
359.40 3.304
359.50 3.3
359.60 3.297
359.70 3.293
359.80 3.29
359.90 3.286
360.00 3.283
360.10 3.28
360.20 3.276
360.30 3.273
360.40 3.27
360.50 3.266
360.60 3.263
360.70 3.26
360.80 3.256
360.90 3.253
361.00 3.249
361.10 3.246
361.20 3.243
361.30 3.239
361.40 3.236
361.50 3.233
361.60 3.229
361.70 3.226
361.80 3.223
361.90 3.22
362.00 3.216
362.10 3.213
362.20 3.21
362.30 3.206
362.40 3.203
362.50 3.2
362.60 3.196
362.70 3.193
362.80 3.19
362.90 3.187
363.00 3.183
363.10 3.18
363.20 3.177
363.30 3.174
363.40 3.17
363.50 3.167
363.60 3.164
363.70 3.161
363.80 3.157
363.90 3.154
364.00 3.151
364.10 3.148
364.20 3.145
364.30 3.141
364.40 3.138
364.50 3.135
364.60 3.132
364.70 3.129
364.80 3.125
364.90 3.122
365.00 3.119
365.10 3.116
365.20 3.113
365.30 3.11
365.40 3.106
365.50 3.103
365.60 3.1
365.70 3.097
365.80 3.094
365.90 3.091
366.00 3.087
366.10 3.084
366.20 3.081
366.30 3.078
366.40 3.075
366.50 3.072
366.60 3.069
366.70 3.065
366.80 3.062
366.90 3.059
367.00 3.056
367.10 3.053
367.20 3.05
367.30 3.047
367.40 3.043
367.50 3.04
367.60 3.037
367.70 3.034
367.80 3.031
367.90 3.028
368.00 3.025
368.10 3.022
368.20 3.018
368.30 3.015
368.40 3.012
368.50 3.009
368.60 3.006
368.70 3.003
368.80 3
368.90 2.996
369.00 2.993
369.10 2.99
369.20 2.987
369.30 2.984
369.40 2.981
369.50 2.978
369.60 2.974
369.70 2.971
369.80 2.968
369.90 2.965
370.00 2.962
370.10 2.959
370.20 2.956
370.30 2.953
370.40 2.95
370.50 2.947
370.60 2.944
370.70 2.941
370.80 2.937
370.90 2.934
371.00 2.931
371.10 2.928
371.20 2.925
371.30 2.922
371.40 2.919
371.50 2.916
371.60 2.913
371.70 2.91
371.80 2.907
371.90 2.904
372.00 2.901
372.10 2.898
372.20 2.895
372.30 2.892
372.40 2.89
372.50 2.887
372.60 2.884
372.70 2.881
372.80 2.878
372.90 2.875
373.00 2.872
373.10 2.87
373.20 2.867
373.30 2.864
373.40 2.861
373.50 2.858
373.60 2.855
373.70 2.853
373.80 2.85
373.90 2.847
374.00 2.844
374.10 2.841
374.20 2.838
374.30 2.835
374.40 2.832
374.50 2.829
374.60 2.827
374.70 2.824
374.80 2.821
374.90 2.818
375.00 2.815
375.10 2.812
375.20 2.809
375.30 2.806
375.40 2.803
375.50 2.8
375.60 2.798
375.70 2.795
375.80 2.792
375.90 2.789
376.00 2.786
376.10 2.783
376.20 2.78
376.30 2.778
376.40 2.775
376.50 2.772
376.60 2.769
376.70 2.766
376.80 2.763
376.90 2.761
377.00 2.758
377.10 2.755
377.20 2.752
377.30 2.75
377.40 2.747
377.50 2.744
377.60 2.741
377.70 2.739
377.80 2.736
377.90 2.733
378.00 2.73
378.10 2.728
378.20 2.725
378.30 2.722
378.40 2.719
378.50 2.717
378.60 2.714
378.70 2.711
378.80 2.709
378.90 2.706
379.00 2.703
379.10 2.701
379.20 2.698
379.30 2.695
379.40 2.693
379.50 2.69
379.60 2.687
379.70 2.685
379.80 2.682
379.90 2.679
380.00 2.677
380.10 2.674
380.20 2.671
380.30 2.669
380.40 2.666
380.50 2.664
380.60 2.661
380.70 2.658
380.80 2.656
380.90 2.653
381.00 2.651
381.10 2.648
381.20 2.646
381.30 2.643
381.40 2.64
381.50 2.638
381.60 2.635
381.70 2.633
381.80 2.63
381.90 2.628
382.00 2.625
382.10 2.623
382.20 2.62
382.30 2.618
382.40 2.615
382.50 2.613
382.60 2.61
382.70 2.608
382.80 2.605
382.90 2.603
383.00 2.6
383.10 2.598
383.20 2.595
383.30 2.593
383.40 2.59
383.50 2.588
383.60 2.585
383.70 2.583
383.80 2.58
383.90 2.578
384.00 2.576
384.10 2.573
384.20 2.571
384.30 2.569
384.40 2.566
384.50 2.564
384.60 2.561
384.70 2.559
384.80 2.557
384.90 2.554
385.00 2.552
385.10 2.55
385.20 2.547
385.30 2.545
385.40 2.543
385.50 2.54
385.60 2.538
385.70 2.536
385.80 2.533
385.90 2.531
386.00 2.528
386.10 2.526
386.20 2.524
386.30 2.521
386.40 2.519
386.50 2.517
386.60 2.514
386.70 2.512
386.80 2.509
386.90 2.507
387.00 2.505
387.10 2.502
387.20 2.5
387.30 2.498
387.40 2.495
387.50 2.493
387.60 2.49
387.70 2.488
387.80 2.486
387.90 2.483
388.00 2.481
388.10 2.479
388.20 2.476
388.30 2.474
388.40 2.472
388.50 2.47
388.60 2.467
388.70 2.465
388.80 2.463
388.90 2.461
389.00 2.459
389.10 2.456
389.20 2.454
389.30 2.452
389.40 2.45
389.50 2.448
389.60 2.446
389.70 2.444
389.80 2.442
389.90 2.44
390.00 2.438
390.10 2.436
390.20 2.434
390.30 2.432
390.40 2.43
390.50 2.428
390.60 2.426
390.70 2.424
390.80 2.422
390.90 2.42
391.00 2.418
391.10 2.416
391.20 2.414
391.30 2.412
391.40 2.41
391.50 2.408
391.60 2.405
391.70 2.403
391.80 2.401
391.90 2.399
392.00 2.397
392.10 2.395
392.20 2.392
392.30 2.39
392.40 2.388
392.50 2.386
392.60 2.383
392.70 2.381
392.80 2.379
392.90 2.377
393.00 2.374
393.10 2.372
393.20 2.37
393.30 2.367
393.40 2.365
393.50 2.362
393.60 2.36
393.70 2.357
393.80 2.355
393.90 2.352
394.00 2.35
394.10 2.347
394.20 2.345
394.30 2.342
394.40 2.34
394.50 2.337
394.60 2.335
394.70 2.332
394.80 2.329
394.90 2.327
395.00 2.324
395.10 2.321
395.20 2.319
395.30 2.316
395.40 2.313
395.50 2.311
395.60 2.308
395.70 2.305
395.80 2.302
395.90 2.3
396.00 2.297
396.10 2.294
396.20 2.292
396.30 2.289
396.40 2.286
396.50 2.284
396.60 2.281
396.70 2.279
396.80 2.276
396.90 2.274
397.00 2.271
397.10 2.27
397.20 2.269
397.30 2.267
397.40 2.266
397.50 2.265
397.60 2.264
397.70 2.263
397.80 2.261
397.90 2.26
398.00 2.259
398.10 2.258
398.20 2.257
398.30 2.256
398.40 2.255
398.50 2.254
398.60 2.253
398.70 2.252
398.80 2.251
398.90 2.25
399.00 2.249
399.10 2.248
399.20 2.246
399.30 2.245
399.40 2.244
399.50 2.243
399.60 2.242
399.70 2.24
399.80 2.239
399.90 2.238
400.00 2.236
400.10 2.235
400.20 2.234
400.30 2.232
400.40 2.231
400.50 2.229
400.60 2.228
400.70 2.226
400.80 2.225
400.90 2.223
401.00 2.222
401.10 2.22
401.20 2.219
401.30 2.217
401.40 2.215
401.50 2.214
401.60 2.212
401.70 2.21
401.80 2.208
401.90 2.206
402.00 2.205
402.10 2.203
402.20 2.201
402.30 2.199
402.40 2.197
402.50 2.195
402.60 2.193
402.70 2.191
402.80 2.189
402.90 2.187
403.00 2.185
403.10 2.182
403.20 2.18
403.30 2.178
403.40 2.176
403.50 2.174
403.60 2.171
403.70 2.169
403.80 2.167
403.90 2.164
404.00 2.162
404.10 2.159
404.20 2.157
404.30 2.154
404.40 2.152
404.50 2.149
404.60 2.146
404.70 2.144
404.80 2.141
404.90 2.138
405.00 2.135
405.10 2.133
405.20 2.13
405.30 2.127
405.40 2.124
405.50 2.121
405.60 2.118
405.70 2.115
405.80 2.112
405.90 2.109
406.00 2.105
406.10 2.102
406.20 2.099
406.30 2.096
406.40 2.092
406.50 2.089
406.60 2.085
406.70 2.082
406.80 2.079
406.90 2.075
407.00 2.071
407.10 2.068
407.20 2.064
407.30 2.06
407.40 2.057
407.50 2.053
407.60 2.049
407.70 2.045
407.80 2.041
407.90 2.038
408.00 2.034
408.10 2.03
408.20 2.026
408.30 2.022
408.40 2.018
408.50 2.014
408.60 2.01
408.70 2.006
408.80 2.002
408.90 1.998
409.00 1.994
409.10 1.99
409.20 1.986
409.30 1.983
409.40 1.979
409.50 1.976
409.60 1.973
409.70 1.97
409.80 1.968
409.90 1.966
410.00 1.965
410.10 1.964
410.20 1.963
410.30 1.96
410.40 1.958
410.50 1.956
410.60 1.955
410.70 1.954
410.80 1.954
410.90 1.954
411.00 1.954
411.10 1.954
411.20 1.955
411.30 1.955
411.40 1.956
411.50 1.956
411.60 1.957
411.70 1.958
411.80 1.958
411.90 1.959
412.00 1.96
412.10 1.96
412.20 1.961
412.30 1.961
412.40 1.962
412.50 1.963
412.60 1.963
412.70 1.964
412.80 1.964
412.90 1.964
413.00 1.965
413.10 1.965
413.20 1.965
413.30 1.966
413.40 1.966
413.50 1.966
413.60 1.966
413.70 1.966
413.80 1.966
413.90 1.966
414.00 1.966
414.10 1.966
414.20 1.966
414.30 1.966
414.40 1.966
414.50 1.965
414.60 1.965
414.70 1.965
414.80 1.965
414.90 1.964
415.00 1.964
415.10 1.963
415.20 1.963
415.30 1.963
415.40 1.962
415.50 1.961
415.60 1.961
415.70 1.96
415.80 1.96
415.90 1.959
416.00 1.958
416.10 1.958
416.20 1.957
416.30 1.956
416.40 1.955
416.50 1.954
416.60 1.954
416.70 1.953
416.80 1.952
416.90 1.951
417.00 1.95
417.10 1.949
417.20 1.948
417.30 1.947
417.40 1.946
417.50 1.945
417.60 1.944
417.70 1.943
417.80 1.942
417.90 1.94
418.00 1.939
418.10 1.938
418.20 1.937
418.30 1.936
418.40 1.934
418.50 1.933
418.60 1.932
418.70 1.931
418.80 1.929
418.90 1.928
419.00 1.927
419.10 1.925
419.20 1.924
419.30 1.923
419.40 1.921
419.50 1.92
419.60 1.918
419.70 1.917
419.80 1.916
419.90 1.914
420.00 1.913
420.10 1.911
420.20 1.91
420.30 1.908
420.40 1.907
420.50 1.905
420.60 1.904
420.70 1.902
420.80 1.9
420.90 1.899
421.00 1.897
421.10 1.896
421.20 1.894
421.30 1.892
421.40 1.891
421.50 1.889
421.60 1.887
421.70 1.886
421.80 1.884
421.90 1.882
422.00 1.881
422.10 1.879
422.20 1.877
422.30 1.875
422.40 1.874
422.50 1.872
422.60 1.87
422.70 1.868
422.80 1.866
422.90 1.865
423.00 1.863
423.10 1.861
423.20 1.859
423.30 1.857
423.40 1.855
423.50 1.853
423.60 1.851
423.70 1.849
423.80 1.847
423.90 1.845
424.00 1.843
424.10 1.841
424.20 1.839
424.30 1.837
424.40 1.835
424.50 1.833
424.60 1.831
424.70 1.829
424.80 1.827
424.90 1.825
425.00 1.823
425.10 1.821
425.20 1.818
425.30 1.816
425.40 1.814
425.50 1.812
425.60 1.809
425.70 1.807
425.80 1.805
425.90 1.802
426.00 1.8
426.10 1.798
426.20 1.795
426.30 1.793
426.40 1.79
426.50 1.788
426.60 1.785
426.70 1.783
426.80 1.78
426.90 1.778
427.00 1.775
427.10 1.772
427.20 1.77
427.30 1.767
427.40 1.764
427.50 1.762
427.60 1.759
427.70 1.756
427.80 1.753
427.90 1.75
428.00 1.747
428.10 1.744
428.20 1.741
428.30 1.738
428.40 1.735
428.50 1.732
428.60 1.729
428.70 1.725
428.80 1.722
428.90 1.719
429.00 1.716
429.10 1.712
429.20 1.709
429.30 1.705
429.40 1.702
429.50 1.698
429.60 1.694
429.70 1.691
429.80 1.687
429.90 1.683
430.00 1.679
430.10 1.675
430.20 1.671
430.30 1.667
430.40 1.663
430.50 1.659
430.60 1.655
430.70 1.651
430.80 1.646
430.90 1.642
431.00 1.638
431.10 1.633
431.20 1.629
431.30 1.624
431.40 1.619
431.50 1.615
431.60 1.61
431.70 1.605
431.80 1.6
431.90 1.595
432.00 1.59
432.10 1.585
432.20 1.58
432.30 1.575
432.40 1.57
432.50 1.565
432.60 1.56
432.70 1.555
432.80 1.549
432.90 1.544
433.00 1.539
433.10 1.534
433.20 1.528
433.30 1.523
433.40 1.518
433.50 1.512
433.60 1.506
433.70 1.5
433.80 1.493
433.90 1.486
434.00 1.48
434.10 1.479
434.20 1.483
434.30 1.488
434.40 1.492
434.50 1.496
434.60 1.499
434.70 1.502
434.80 1.505
434.90 1.508
435.00 1.511
435.10 1.513
435.20 1.516
435.30 1.519
435.40 1.521
435.50 1.524
435.60 1.527
435.70 1.529
435.80 1.532
435.90 1.534
436.00 1.536
436.10 1.539
436.20 1.541
436.30 1.543
436.40 1.545
436.50 1.547
436.60 1.549
436.70 1.551
436.80 1.553
436.90 1.555
437.00 1.557
437.10 1.559
437.20 1.56
437.30 1.562
437.40 1.563
437.50 1.565
437.60 1.566
437.70 1.567
437.80 1.569
437.90 1.57
438.00 1.571
438.10 1.572
438.20 1.573
438.30 1.574
438.40 1.575
438.50 1.575
438.60 1.576
438.70 1.577
438.80 1.578
438.90 1.578
439.00 1.579
439.10 1.579
439.20 1.58
439.30 1.58
439.40 1.58
439.50 1.581
439.60 1.581
439.70 1.581
439.80 1.581
439.90 1.581
440.00 1.582
440.10 1.582
440.20 1.582
440.30 1.582
440.40 1.582
440.50 1.581
440.60 1.581
440.70 1.581
440.80 1.581
440.90 1.581
441.00 1.581
441.10 1.58
441.20 1.58
441.30 1.58
441.40 1.579
441.50 1.579
441.60 1.578
441.70 1.578
441.80 1.577
441.90 1.577
442.00 1.576
442.10 1.576
442.20 1.575
442.30 1.575
442.40 1.574
442.50 1.574
442.60 1.573
442.70 1.572
442.80 1.572
442.90 1.571
443.00 1.57
443.10 1.569
443.20 1.569
443.30 1.568
443.40 1.567
443.50 1.566
443.60 1.566
443.70 1.565
443.80 1.564
443.90 1.563
444.00 1.562
444.10 1.561
444.20 1.561
444.30 1.56
444.40 1.559
444.50 1.558
444.60 1.557
444.70 1.556
444.80 1.555
444.90 1.554
445.00 1.553
445.10 1.552
445.20 1.551
445.30 1.55
445.40 1.549
445.50 1.548
445.60 1.547
445.70 1.546
445.80 1.545
445.90 1.544
446.00 1.543
446.10 1.542
446.20 1.541
446.30 1.54
446.40 1.539
446.50 1.538
446.60 1.537
446.70 1.536
446.80 1.535
446.90 1.534
447.00 1.533
447.10 1.532
447.20 1.53
447.30 1.529
447.40 1.528
447.50 1.527
447.60 1.526
447.70 1.525
447.80 1.524
447.90 1.523
448.00 1.522
448.10 1.521
448.20 1.519
448.30 1.518
448.40 1.517
448.50 1.516
448.60 1.515
448.70 1.514
448.80 1.513
448.90 1.511
449.00 1.51
449.10 1.509
449.20 1.508
449.30 1.507
449.40 1.506
449.50 1.505
449.60 1.503
449.70 1.502
449.80 1.501
449.90 1.5
450.00 1.499
450.10 1.498
450.20 1.496
450.30 1.495
450.40 1.494
450.50 1.493
450.60 1.492
450.70 1.491
450.80 1.489
450.90 1.488
451.00 1.487
451.10 1.486
451.20 1.485
451.30 1.484
451.40 1.482
451.50 1.481
451.60 1.48
451.70 1.479
451.80 1.478
451.90 1.476
452.00 1.475
452.10 1.474
452.20 1.473
452.30 1.472
452.40 1.471
452.50 1.469
452.60 1.468
452.70 1.467
452.80 1.466
452.90 1.465
453.00 1.463
453.10 1.462
453.20 1.461
453.30 1.46
453.40 1.459
453.50 1.458
453.60 1.456
453.70 1.455
453.80 1.454
453.90 1.453
454.00 1.452
454.10 1.45
