# Version 2.1 - nm, norm@500 to 1, cut digits, bergeron_15000_75.dat_15000
# Wavelength(nm)  Flambda(ergs/cm^s/s/nm)
300.00 2.198
300.10 2.196
300.20 2.194
300.30 2.192
300.40 2.191
300.50 2.189
300.60 2.187
300.70 2.186
300.80 2.184
300.90 2.182
301.00 2.181
301.10 2.179
301.20 2.177
301.30 2.176
301.40 2.174
301.50 2.172
301.60 2.17
301.70 2.169
301.80 2.167
301.90 2.165
302.00 2.164
302.10 2.162
302.20 2.16
302.30 2.159
302.40 2.157
302.50 2.155
302.60 2.154
302.70 2.152
302.80 2.15
302.90 2.149
303.00 2.147
303.10 2.145
303.20 2.144
303.30 2.142
303.40 2.141
303.50 2.139
303.60 2.137
303.70 2.136
303.80 2.134
303.90 2.132
304.00 2.131
304.10 2.129
304.20 2.127
304.30 2.126
304.40 2.124
304.50 2.123
304.60 2.121
304.70 2.119
304.80 2.118
304.90 2.116
305.00 2.114
305.10 2.113
305.20 2.111
305.30 2.11
305.40 2.108
305.50 2.106
305.60 2.105
305.70 2.103
305.80 2.102
305.90 2.1
306.00 2.098
306.10 2.097
306.20 2.095
306.30 2.094
306.40 2.092
306.50 2.09
306.60 2.089
306.70 2.087
306.80 2.086
306.90 2.084
307.00 2.082
307.10 2.081
307.20 2.079
307.30 2.078
307.40 2.076
307.50 2.074
307.60 2.073
307.70 2.071
307.80 2.07
307.90 2.068
308.00 2.067
308.10 2.065
308.20 2.063
308.30 2.062
308.40 2.06
308.50 2.059
308.60 2.057
308.70 2.056
308.80 2.054
308.90 2.053
309.00 2.051
309.10 2.049
309.20 2.048
309.30 2.046
309.40 2.045
309.50 2.043
309.60 2.042
309.70 2.04
309.80 2.039
309.90 2.037
310.00 2.036
310.10 2.034
310.20 2.032
310.30 2.031
310.40 2.029
310.50 2.028
310.60 2.026
310.70 2.025
310.80 2.023
310.90 2.022
311.00 2.02
311.10 2.019
311.20 2.017
311.30 2.016
311.40 2.014
311.50 2.013
311.60 2.011
311.70 2.01
311.80 2.008
311.90 2.007
312.00 2.005
312.10 2.004
312.20 2.002
312.30 2.001
312.40 1.999
312.50 1.998
312.60 1.996
312.70 1.995
312.80 1.993
312.90 1.992
313.00 1.99
313.10 1.989
313.20 1.987
313.30 1.986
313.40 1.984
313.50 1.983
313.60 1.981
313.70 1.98
313.80 1.978
313.90 1.977
314.00 1.975
314.10 1.974
314.20 1.972
314.30 1.971
314.40 1.969
314.50 1.968
314.60 1.966
314.70 1.965
314.80 1.963
314.90 1.962
315.00 1.961
315.10 1.959
315.20 1.958
315.30 1.956
315.40 1.955
315.50 1.953
315.60 1.952
315.70 1.95
315.80 1.949
315.90 1.947
316.00 1.946
316.10 1.945
316.20 1.943
316.30 1.942
316.40 1.94
316.50 1.939
316.60 1.937
316.70 1.936
316.80 1.934
316.90 1.933
317.00 1.932
317.10 1.93
317.20 1.929
317.30 1.927
317.40 1.926
317.50 1.924
317.60 1.923
317.70 1.922
317.80 1.92
317.90 1.919
318.00 1.917
318.10 1.916
318.20 1.914
318.30 1.913
318.40 1.912
318.50 1.91
318.60 1.909
318.70 1.907
318.80 1.906
318.90 1.905
319.00 1.903
319.10 1.902
319.20 1.9
319.30 1.899
319.40 1.898
319.50 1.896
319.60 1.895
319.70 1.893
319.80 1.892
319.90 1.891
320.00 1.889
320.10 1.888
320.20 1.886
320.30 1.885
320.40 1.884
320.50 1.882
320.60 1.881
320.70 1.88
320.80 1.878
320.90 1.877
321.00 1.875
321.10 1.874
321.20 1.873
321.30 1.871
321.40 1.87
321.50 1.869
321.60 1.867
321.70 1.866
321.80 1.864
321.90 1.863
322.00 1.862
322.10 1.86
322.20 1.859
322.30 1.858
322.40 1.856
322.50 1.855
322.60 1.854
322.70 1.852
322.80 1.851
322.90 1.849
323.00 1.848
323.10 1.847
323.20 1.845
323.30 1.844
323.40 1.843
323.50 1.841
323.60 1.84
323.70 1.839
323.80 1.837
323.90 1.836
324.00 1.835
324.10 1.833
324.20 1.832
324.30 1.831
324.40 1.829
324.50 1.828
324.60 1.827
324.70 1.825
324.80 1.824
324.90 1.823
325.00 1.821
325.10 1.82
325.20 1.819
325.30 1.817
325.40 1.816
325.50 1.815
325.60 1.813
325.70 1.812
325.80 1.811
325.90 1.81
326.00 1.808
326.10 1.807
326.20 1.806
326.30 1.804
326.40 1.803
326.50 1.802
326.60 1.8
326.70 1.799
326.80 1.798
326.90 1.796
327.00 1.795
327.10 1.794
327.20 1.793
327.30 1.791
327.40 1.79
327.50 1.789
327.60 1.787
327.70 1.786
327.80 1.785
327.90 1.784
328.00 1.782
328.10 1.781
328.20 1.78
328.30 1.778
328.40 1.777
328.50 1.776
328.60 1.775
328.70 1.773
328.80 1.772
328.90 1.771
329.00 1.769
329.10 1.768
329.20 1.767
329.30 1.766
329.40 1.764
329.50 1.763
329.60 1.762
329.70 1.761
329.80 1.759
329.90 1.758
330.00 1.757
330.10 1.756
330.20 1.754
330.30 1.753
330.40 1.752
330.50 1.75
330.60 1.749
330.70 1.748
330.80 1.747
330.90 1.745
331.00 1.744
331.10 1.743
331.20 1.742
331.30 1.74
331.40 1.739
331.50 1.738
331.60 1.737
331.70 1.736
331.80 1.734
331.90 1.733
332.00 1.732
332.10 1.731
332.20 1.729
332.30 1.728
332.40 1.727
332.50 1.726
332.60 1.724
332.70 1.723
332.80 1.722
332.90 1.721
333.00 1.719
333.10 1.718
333.20 1.717
333.30 1.716
333.40 1.715
333.50 1.713
333.60 1.712
333.70 1.711
333.80 1.71
333.90 1.708
334.00 1.707
334.10 1.706
334.20 1.705
334.30 1.704
334.40 1.702
334.50 1.701
334.60 1.7
334.70 1.699
334.80 1.698
334.90 1.696
335.00 1.695
335.10 1.694
335.20 1.693
335.30 1.692
335.40 1.69
335.50 1.689
335.60 1.688
335.70 1.687
335.80 1.686
335.90 1.684
336.00 1.683
336.10 1.682
336.20 1.681
336.30 1.68
336.40 1.678
336.50 1.677
336.60 1.676
336.70 1.675
336.80 1.674
336.90 1.673
337.00 1.671
337.10 1.67
337.20 1.669
337.30 1.668
337.40 1.667
337.50 1.665
337.60 1.664
337.70 1.663
337.80 1.662
337.90 1.661
338.00 1.66
338.10 1.658
338.20 1.657
338.30 1.656
338.40 1.655
338.50 1.654
338.60 1.653
338.70 1.651
338.80 1.65
338.90 1.649
339.00 1.648
339.10 1.647
339.20 1.646
339.30 1.645
339.40 1.643
339.50 1.642
339.60 1.641
339.70 1.64
339.80 1.639
339.90 1.638
340.00 1.636
340.10 1.635
340.20 1.634
340.30 1.633
340.40 1.632
340.50 1.631
340.60 1.63
340.70 1.628
340.80 1.627
340.90 1.626
341.00 1.625
341.10 1.624
341.20 1.623
341.30 1.622
341.40 1.62
341.50 1.619
341.60 1.618
341.70 1.617
341.80 1.616
341.90 1.615
342.00 1.614
342.10 1.613
342.20 1.611
342.30 1.61
342.40 1.609
342.50 1.608
342.60 1.607
342.70 1.606
342.80 1.605
342.90 1.604
343.00 1.602
343.10 1.601
343.20 1.6
343.30 1.599
343.40 1.598
343.50 1.597
343.60 1.596
343.70 1.595
343.80 1.594
343.90 1.592
344.00 1.591
344.10 1.59
344.20 1.589
344.30 1.588
344.40 1.587
344.50 1.586
344.60 1.585
344.70 1.584
344.80 1.583
344.90 1.581
345.00 1.58
345.10 1.579
345.20 1.578
345.30 1.577
345.40 1.576
345.50 1.575
345.60 1.574
345.70 1.573
345.80 1.572
345.90 1.571
346.00 1.569
346.10 1.568
346.20 1.567
346.30 1.566
346.40 1.565
346.50 1.564
346.60 1.563
346.70 1.562
346.80 1.561
346.90 1.56
347.00 1.559
347.10 1.558
347.20 1.557
347.30 1.555
347.40 1.554
347.50 1.553
347.60 1.552
347.70 1.551
347.80 1.55
347.90 1.549
348.00 1.548
348.10 1.547
348.20 1.546
348.30 1.545
348.40 1.544
348.50 1.543
348.60 1.542
348.70 1.541
348.80 1.539
348.90 1.538
349.00 1.537
349.10 1.536
349.20 1.535
349.30 1.534
349.40 1.533
349.50 1.532
349.60 1.531
349.70 1.53
349.80 1.529
349.90 1.528
350.00 1.527
350.10 1.526
350.20 1.525
350.30 1.524
350.40 1.523
350.50 1.522
350.60 1.521
350.70 1.52
350.80 1.518
350.90 1.517
351.00 1.516
351.10 1.515
351.20 1.514
351.30 1.513
351.40 1.512
351.50 1.511
351.60 1.51
351.70 1.509
351.80 1.508
351.90 1.507
352.00 1.506
352.10 1.505
352.20 1.504
352.30 1.503
352.40 1.502
352.50 1.501
352.60 1.5
352.70 1.499
352.80 1.498
352.90 1.497
353.00 1.496
353.10 1.495
353.20 1.494
353.30 1.493
353.40 1.492
353.50 1.491
353.60 1.49
353.70 1.489
353.80 1.488
353.90 1.487
354.00 1.486
354.10 1.485
354.20 1.484
354.30 1.483
354.40 1.482
354.50 1.481
354.60 1.48
354.70 1.479
354.80 1.478
354.90 1.477
355.00 1.476
355.10 1.475
355.20 1.474
355.30 1.473
355.40 1.472
355.50 1.471
355.60 1.47
355.70 1.469
355.80 1.468
355.90 1.467
356.00 1.466
356.10 1.465
356.20 1.464
356.30 1.463
356.40 1.462
356.50 1.461
356.60 1.46
356.70 1.459
356.80 1.458
356.90 1.457
357.00 1.456
357.10 1.455
357.20 1.454
357.30 1.453
357.40 1.452
357.50 1.451
357.60 1.45
357.70 1.449
357.80 1.448
357.90 1.447
358.00 1.446
358.10 1.445
358.20 1.444
358.30 1.443
358.40 1.442
358.50 1.441
358.60 1.44
358.70 1.439
358.80 1.438
358.90 1.437
359.00 1.436
359.10 1.435
359.20 1.434
359.30 1.433
359.40 1.432
359.50 1.431
359.60 1.43
359.70 1.43
359.80 1.429
359.90 1.428
360.00 1.427
360.10 1.426
360.20 1.425
360.30 1.424
360.40 1.423
360.50 1.422
360.60 1.421
360.70 1.42
360.80 1.419
360.90 1.418
361.00 1.417
361.10 1.416
361.20 1.415
361.30 1.414
361.40 1.413
361.50 1.412
361.60 1.411
361.70 1.41
361.80 1.41
361.90 1.409
362.00 1.408
362.10 1.407
362.20 1.406
362.30 1.405
362.40 1.404
362.50 1.403
362.60 1.402
362.70 1.401
362.80 1.4
362.90 1.399
363.00 1.398
363.10 1.397
363.20 1.396
363.30 1.395
363.40 1.394
363.50 1.393
363.60 1.392
363.70 1.391
363.80 1.39
363.90 1.389
364.00 1.388
364.10 1.387
364.20 1.386
364.30 1.385
364.40 1.384
364.50 1.383
364.60 1.382
364.70 1.382
364.80 1.381
364.90 1.38
365.00 1.379
365.10 1.378
365.20 1.377
365.30 1.376
365.40 1.375
365.50 1.374
365.60 1.373
365.70 1.372
365.80 1.371
365.90 1.37
366.00 1.369
366.10 1.368
366.20 1.367
366.30 1.366
366.40 1.365
366.50 1.364
366.60 1.363
366.70 1.362
366.80 1.362
366.90 1.361
367.00 1.36
367.10 1.359
367.20 1.358
367.30 1.357
367.40 1.356
367.50 1.355
367.60 1.354
367.70 1.353
367.80 1.352
367.90 1.352
368.00 1.351
368.10 1.35
368.20 1.35
368.30 1.349
368.40 1.348
368.50 1.348
368.60 1.347
368.70 1.347
368.80 1.346
368.90 1.346
369.00 1.345
369.10 1.345
369.20 1.344
369.30 1.343
369.40 1.343
369.50 1.342
369.60 1.342
369.70 1.341
369.80 1.341
369.90 1.34
370.00 1.339
370.10 1.34
370.20 1.34
370.30 1.341
370.40 1.341
370.50 1.341
370.60 1.342
370.70 1.342
370.80 1.343
370.90 1.343
371.00 1.343
371.10 1.344
371.20 1.344
371.30 1.345
371.40 1.345
371.50 1.345
371.60 1.346
371.70 1.346
371.80 1.347
371.90 1.347
372.00 1.347
372.10 1.349
372.20 1.351
372.30 1.352
372.40 1.354
372.50 1.356
372.60 1.357
372.70 1.359
372.80 1.36
372.90 1.362
373.00 1.364
373.10 1.365
373.20 1.367
373.30 1.369
373.40 1.37
373.50 1.372
373.60 1.373
373.70 1.375
373.80 1.377
373.90 1.378
374.00 1.38
374.10 1.382
374.20 1.384
374.30 1.386
374.40 1.389
374.50 1.391
374.60 1.393
374.70 1.395
374.80 1.397
374.90 1.4
375.00 1.402
375.10 1.404
375.20 1.406
375.30 1.408
375.40 1.41
375.50 1.412
375.60 1.415
375.70 1.417
375.80 1.419
375.90 1.421
376.00 1.423
376.10 1.424
376.20 1.425
376.30 1.427
376.40 1.428
376.50 1.429
376.60 1.43
376.70 1.431
376.80 1.432
376.90 1.433
377.00 1.434
377.10 1.433
377.20 1.431
377.30 1.429
377.40 1.427
377.50 1.425
377.60 1.423
377.70 1.422
377.80 1.42
377.90 1.418
378.00 1.416
378.10 1.405
378.20 1.395
378.30 1.384
378.40 1.374
378.50 1.363
378.60 1.352
378.70 1.342
378.80 1.331
378.90 1.32
379.00 1.31
379.10 1.302
379.20 1.294
379.30 1.286
379.40 1.279
379.50 1.271
379.60 1.263
379.70 1.255
379.80 1.247
379.90 1.24
380.00 1.232
380.10 1.244
380.20 1.256
380.30 1.268
380.40 1.28
380.50 1.293
380.60 1.305
380.70 1.317
380.80 1.329
380.90 1.341
381.00 1.353
381.10 1.357
381.20 1.362
381.30 1.366
381.40 1.371
381.50 1.375
381.60 1.374
381.70 1.372
381.80 1.368
381.90 1.362
382.00 1.354
382.10 1.344
382.20 1.332
382.30 1.309
382.40 1.287
382.50 1.265
382.60 1.243
382.70 1.221
382.80 1.199
382.90 1.177
383.00 1.156
383.10 1.134
383.20 1.112
383.30 1.094
383.40 1.073
383.50 1.051
383.60 1.055
383.70 1.078
383.80 1.098
383.90 1.116
384.00 1.138
384.10 1.163
384.20 1.191
384.30 1.218
384.40 1.246
384.50 1.271
384.60 1.295
384.70 1.316
384.80 1.335
384.90 1.352
385.00 1.367
385.10 1.38
385.20 1.391
385.30 1.4
385.40 1.408
385.50 1.414
385.60 1.42
385.70 1.423
385.80 1.426
385.90 1.428
386.00 1.428
386.10 1.427
386.20 1.425
386.30 1.421
386.40 1.416
386.50 1.411
386.60 1.404
386.70 1.396
386.80 1.387
386.90 1.376
387.00 1.364
387.10 1.352
387.20 1.337
387.30 1.322
387.40 1.305
387.50 1.286
387.60 1.265
387.70 1.243
387.80 1.217
387.90 1.189
388.00 1.16
388.10 1.127
388.20 1.092
388.30 1.056
388.40 1.02
388.50 0.9868
388.60 0.9559
388.70 0.9279
388.80 0.9014
388.90 0.8763
389.00 0.8988
389.10 0.9239
389.20 0.9513
389.30 0.9812
389.40 1.014
389.50 1.05
389.60 1.085
389.70 1.12
389.80 1.154
389.90 1.184
390.00 1.212
390.10 1.239
390.20 1.263
390.30 1.286
390.40 1.307
390.50 1.326
390.60 1.345
390.70 1.362
390.80 1.379
390.90 1.394
391.00 1.409
391.10 1.423
391.20 1.437
391.30 1.45
391.40 1.461
391.50 1.473
391.60 1.483
391.70 1.493
391.80 1.502
391.90 1.51
392.00 1.517
392.10 1.524
392.20 1.53
392.30 1.534
392.40 1.538
392.50 1.541
392.60 1.543
392.70 1.544
392.80 1.545
392.90 1.544
393.00 1.542
393.10 1.54
393.20 1.536
393.30 1.531
393.40 1.526
393.50 1.52
393.60 1.512
393.70 1.504
393.80 1.495
393.90 1.484
394.00 1.473
394.10 1.461
394.20 1.448
394.30 1.435
394.40 1.42
394.50 1.405
394.60 1.389
394.70 1.372
394.80 1.354
394.90 1.336
395.00 1.317
395.10 1.298
395.20 1.278
395.30 1.257
395.40 1.236
395.50 1.214
395.60 1.19
395.70 1.166
395.80 1.141
395.90 1.114
396.00 1.086
396.10 1.057
396.20 1.025
396.30 0.9911
396.40 0.9554
396.50 0.9173
396.60 0.8801
396.70 0.8437
396.80 0.8096
396.90 0.7705
397.00 0.7264
397.10 0.7665
397.20 0.8034
397.30 0.837
397.40 0.8722
397.50 0.9084
397.60 0.9455
397.70 0.9806
397.80 1.014
397.90 1.045
398.00 1.073
398.10 1.101
398.20 1.127
398.30 1.151
398.40 1.174
398.50 1.197
398.60 1.219
398.70 1.24
398.80 1.26
398.90 1.28
399.00 1.299
399.10 1.318
399.20 1.336
399.30 1.354
399.40 1.372
399.50 1.389
399.60 1.406
399.70 1.422
399.80 1.438
399.90 1.453
400.00 1.468
400.10 1.482
400.20 1.496
400.30 1.509
400.40 1.522
400.50 1.534
400.60 1.546
400.70 1.557
400.80 1.567
400.90 1.577
401.00 1.587
401.10 1.596
401.20 1.604
401.30 1.612
401.40 1.62
401.50 1.627
401.60 1.633
401.70 1.64
401.80 1.645
401.90 1.651
402.00 1.656
402.10 1.66
402.20 1.664
402.30 1.668
402.40 1.671
402.50 1.674
402.60 1.677
402.70 1.679
402.80 1.68
402.90 1.682
403.00 1.683
403.10 1.684
403.20 1.684
403.30 1.684
403.40 1.683
403.50 1.683
403.60 1.682
403.70 1.68
403.80 1.678
403.90 1.676
404.00 1.673
404.10 1.671
404.20 1.667
404.30 1.664
404.40 1.66
404.50 1.656
404.60 1.651
404.70 1.646
404.80 1.64
404.90 1.634
405.00 1.628
405.10 1.621
405.20 1.614
405.30 1.607
405.40 1.599
405.50 1.59
405.60 1.581
405.70 1.572
405.80 1.563
405.90 1.552
406.00 1.542
406.10 1.531
406.20 1.519
406.30 1.507
406.40 1.495
406.50 1.482
406.60 1.469
406.70 1.455
406.80 1.44
406.90 1.426
407.00 1.41
407.10 1.394
407.20 1.378
407.30 1.361
407.40 1.343
407.50 1.325
407.60 1.307
407.70 1.288
407.80 1.269
407.90 1.249
408.00 1.229
408.10 1.209
408.20 1.188
408.30 1.167
408.40 1.146
408.50 1.125
408.60 1.103
408.70 1.081
408.80 1.059
408.90 1.036
409.00 1.013
409.10 0.989
409.20 0.9643
409.30 0.939
409.40 0.9113
409.50 0.882
409.60 0.8511
409.70 0.8177
409.80 0.784
409.90 0.7499
410.00 0.7104
410.10 0.6703
410.20 0.6299
410.30 0.6857
410.40 0.7312
410.50 0.7663
410.60 0.7995
410.70 0.832
410.80 0.8637
410.90 0.8924
411.00 0.9196
411.10 0.9452
411.20 0.9688
411.30 0.9918
411.40 1.014
411.50 1.036
411.60 1.057
411.70 1.078
411.80 1.098
411.90 1.118
412.00 1.138
412.10 1.157
412.20 1.176
412.30 1.195
412.40 1.214
412.50 1.232
412.60 1.25
412.70 1.267
412.80 1.284
412.90 1.301
413.00 1.317
413.10 1.333
413.20 1.348
413.30 1.363
413.40 1.377
413.50 1.391
413.60 1.404
413.70 1.417
413.80 1.429
413.90 1.441
414.00 1.452
414.10 1.463
414.20 1.474
414.30 1.484
414.40 1.494
414.50 1.504
414.60 1.513
414.70 1.522
414.80 1.53
414.90 1.538
415.00 1.546
415.10 1.553
415.20 1.561
415.30 1.568
415.40 1.574
415.50 1.58
415.60 1.586
415.70 1.592
415.80 1.597
415.90 1.603
416.00 1.608
416.10 1.612
416.20 1.617
416.30 1.621
416.40 1.625
416.50 1.629
416.60 1.633
416.70 1.636
416.80 1.64
416.90 1.643
417.00 1.646
417.10 1.649
417.20 1.652
417.30 1.654
417.40 1.657
417.50 1.659
417.60 1.661
417.70 1.663
417.80 1.665
417.90 1.667
418.00 1.668
418.10 1.67
418.20 1.671
418.30 1.673
418.40 1.674
418.50 1.675
418.60 1.676
418.70 1.677
418.80 1.678
418.90 1.678
419.00 1.679
419.10 1.679
419.20 1.68
419.30 1.68
419.40 1.681
419.50 1.681
419.60 1.681
419.70 1.681
419.80 1.681
419.90 1.681
420.00 1.681
420.10 1.681
420.20 1.681
420.30 1.681
420.40 1.68
420.50 1.68
420.60 1.68
420.70 1.679
420.80 1.679
420.90 1.678
421.00 1.677
421.10 1.677
421.20 1.676
421.30 1.675
421.40 1.674
421.50 1.674
421.60 1.673
421.70 1.672
421.80 1.671
421.90 1.669
422.00 1.668
422.10 1.667
422.20 1.666
422.30 1.665
422.40 1.663
422.50 1.662
422.60 1.661
422.70 1.659
422.80 1.658
422.90 1.656
423.00 1.654
423.10 1.653
423.20 1.651
423.30 1.649
423.40 1.647
423.50 1.645
423.60 1.643
423.70 1.641
423.80 1.639
423.90 1.637
424.00 1.635
424.10 1.633
424.20 1.631
424.30 1.628
424.40 1.626
424.50 1.623
424.60 1.621
424.70 1.618
424.80 1.616
424.90 1.613
425.00 1.61
425.10 1.607
425.20 1.604
425.30 1.601
425.40 1.598
425.50 1.595
425.60 1.591
425.70 1.588
425.80 1.585
425.90 1.581
426.00 1.577
426.10 1.574
426.20 1.569
426.30 1.565
426.40 1.561
426.50 1.556
426.60 1.552
426.70 1.548
426.80 1.543
426.90 1.539
427.00 1.534
427.10 1.529
427.20 1.524
427.30 1.519
427.40 1.513
427.50 1.508
427.60 1.502
427.70 1.497
427.80 1.491
427.90 1.485
428.00 1.479
428.10 1.472
428.20 1.466
428.30 1.459
428.40 1.452
428.50 1.445
428.60 1.438
428.70 1.43
428.80 1.422
428.90 1.414
429.00 1.406
429.10 1.398
429.20 1.389
429.30 1.38
429.40 1.371
429.50 1.362
429.60 1.352
429.70 1.342
429.80 1.332
429.90 1.322
430.00 1.311
430.10 1.3
430.20 1.289
430.30 1.277
430.40 1.265
430.50 1.253
430.60 1.241
430.70 1.228
430.80 1.215
430.90 1.202
431.00 1.189
431.10 1.175
431.20 1.161
431.30 1.147
431.40 1.132
431.50 1.118
431.60 1.102
431.70 1.087
431.80 1.071
431.90 1.055
432.00 1.038
432.10 1.021
432.20 1.004
432.30 0.9857
432.40 0.9672
432.50 0.9475
432.60 0.9274
432.70 0.9067
432.80 0.8856
432.90 0.8647
433.00 0.8441
433.10 0.8244
433.20 0.8044
433.30 0.7842
433.40 0.7619
433.50 0.7381
433.60 0.7129
433.70 0.684
433.80 0.6521
433.90 0.6173
434.00 0.5439
434.10 0.5449
434.20 0.62
434.30 0.6536
434.40 0.6843
434.50 0.7123
434.60 0.7366
434.70 0.7594
434.80 0.7807
434.90 0.7999
435.00 0.8189
435.10 0.8377
435.20 0.8573
435.30 0.877
435.40 0.8969
435.50 0.9163
435.60 0.9351
435.70 0.9533
435.80 0.9704
435.90 0.987
436.00 1.003
436.10 1.018
436.20 1.033
436.30 1.048
436.40 1.062
436.50 1.076
436.60 1.089
436.70 1.102
436.80 1.115
436.90 1.128
437.00 1.14
437.10 1.151
437.20 1.163
437.30 1.174
437.40 1.185
437.50 1.196
437.60 1.206
437.70 1.216
437.80 1.226
437.90 1.235
438.00 1.244
438.10 1.253
438.20 1.262
438.30 1.27
438.40 1.278
438.50 1.285
438.60 1.293
438.70 1.3
438.80 1.307
438.90 1.313
439.00 1.32
439.10 1.326
439.20 1.332
439.30 1.337
439.40 1.343
439.50 1.348
439.60 1.353
439.70 1.358
439.80 1.362
439.90 1.367
440.00 1.371
440.10 1.375
440.20 1.379
440.30 1.383
440.40 1.386
440.50 1.39
440.60 1.393
440.70 1.396
440.80 1.399
440.90 1.402
441.00 1.405
441.10 1.407
441.20 1.41
441.30 1.412
441.40 1.414
441.50 1.416
441.60 1.418
441.70 1.42
441.80 1.422
441.90 1.424
442.00 1.426
442.10 1.427
442.20 1.429
442.30 1.43
442.40 1.431
442.50 1.433
442.60 1.434
442.70 1.435
442.80 1.436
442.90 1.437
443.00 1.438
443.10 1.438
443.20 1.439
443.30 1.44
443.40 1.44
443.50 1.441
443.60 1.442
443.70 1.442
443.80 1.443
443.90 1.443
444.00 1.443
444.10 1.444
444.20 1.444
444.30 1.444
444.40 1.444
444.50 1.444
444.60 1.445
444.70 1.445
444.80 1.445
444.90 1.445
445.00 1.445
445.10 1.445
445.20 1.444
445.30 1.444
445.40 1.444
445.50 1.444
445.60 1.444
445.70 1.444
445.80 1.443
445.90 1.443
446.00 1.443
446.10 1.442
446.20 1.442
446.30 1.442
446.40 1.441
446.50 1.441
446.60 1.441
446.70 1.44
446.80 1.44
446.90 1.439
447.00 1.439
447.10 1.438
447.20 1.438
447.30 1.437
447.40 1.437
447.50 1.436
447.60 1.436
447.70 1.435
447.80 1.434
447.90 1.434
448.00 1.433
448.10 1.433
448.20 1.432
448.30 1.431
448.40 1.431
448.50 1.43
448.60 1.429
448.70 1.429
448.80 1.428
448.90 1.427
449.00 1.427
449.10 1.426
449.20 1.425
449.30 1.425
449.40 1.424
449.50 1.423
449.60 1.423
449.70 1.422
449.80 1.421
449.90 1.42
450.00 1.42
450.10 1.419
450.20 1.418
450.30 1.417
450.40 1.416
450.50 1.416
450.60 1.415
450.70 1.414
450.80 1.413
450.90 1.412
451.00 1.412
451.10 1.411
451.20 1.41
451.30 1.409
451.40 1.408
451.50 1.408
451.60 1.407
451.70 1.406
451.80 1.405
451.90 1.404
452.00 1.403
452.10 1.402
452.20 1.402
452.30 1.401
452.40 1.4
452.50 1.399
452.60 1.398
452.70 1.397
452.80 1.396
452.90 1.395
453.00 1.395
453.10 1.394
453.20 1.393
453.30 1.392
453.40 1.391
