# Version 2.1 - nm, norm@500 to 1, cut digits, bergeron_30000_65.dat_30000
# Wavelength(nm)  Flambda(ergs/cm^s/s/nm)
300.00 4.89
300.10 4.884
300.20 4.879
300.30 4.873
300.40 4.868
300.50 4.862
300.60 4.857
300.70 4.851
300.80 4.846
300.90 4.84
301.00 4.835
301.10 4.829
301.20 4.824
301.30 4.819
301.40 4.813
301.50 4.808
301.60 4.802
301.70 4.797
301.80 4.792
301.90 4.786
302.00 4.781
302.10 4.776
302.20 4.77
302.30 4.765
302.40 4.76
302.50 4.754
302.60 4.749
302.70 4.744
302.80 4.738
302.90 4.733
303.00 4.728
303.10 4.722
303.20 4.717
303.30 4.712
303.40 4.707
303.50 4.701
303.60 4.696
303.70 4.691
303.80 4.686
303.90 4.681
304.00 4.675
304.10 4.67
304.20 4.665
304.30 4.66
304.40 4.655
304.50 4.649
304.60 4.644
304.70 4.639
304.80 4.634
304.90 4.629
305.00 4.624
305.10 4.619
305.20 4.613
305.30 4.608
305.40 4.603
305.50 4.598
305.60 4.593
305.70 4.588
305.80 4.583
305.90 4.578
306.00 4.573
306.10 4.568
306.20 4.563
306.30 4.558
306.40 4.552
306.50 4.547
306.60 4.542
306.70 4.537
306.80 4.532
306.90 4.527
307.00 4.522
307.10 4.517
307.20 4.512
307.30 4.507
307.40 4.503
307.50 4.498
307.60 4.493
307.70 4.488
307.80 4.483
307.90 4.478
308.00 4.473
308.10 4.468
308.20 4.463
308.30 4.458
308.40 4.453
308.50 4.448
308.60 4.443
308.70 4.439
308.80 4.434
308.90 4.429
309.00 4.424
309.10 4.419
309.20 4.414
309.30 4.409
309.40 4.405
309.50 4.4
309.60 4.395
309.70 4.39
309.80 4.385
309.90 4.381
310.00 4.376
310.10 4.371
310.20 4.366
310.30 4.361
310.40 4.357
310.50 4.352
310.60 4.347
310.70 4.342
310.80 4.338
310.90 4.333
311.00 4.328
311.10 4.324
311.20 4.319
311.30 4.314
311.40 4.309
311.50 4.305
311.60 4.3
311.70 4.295
311.80 4.291
311.90 4.286
312.00 4.281
312.10 4.277
312.20 4.272
312.30 4.267
312.40 4.263
312.50 4.258
312.60 4.254
312.70 4.249
312.80 4.244
312.90 4.24
313.00 4.235
313.10 4.231
313.20 4.226
313.30 4.221
313.40 4.217
313.50 4.212
313.60 4.208
313.70 4.203
313.80 4.199
313.90 4.194
314.00 4.19
314.10 4.185
314.20 4.181
314.30 4.176
314.40 4.171
314.50 4.167
314.60 4.162
314.70 4.158
314.80 4.154
314.90 4.149
315.00 4.145
315.10 4.14
315.20 4.136
315.30 4.131
315.40 4.127
315.50 4.122
315.60 4.118
315.70 4.113
315.80 4.109
315.90 4.105
316.00 4.1
316.10 4.096
316.20 4.091
316.30 4.087
316.40 4.083
316.50 4.078
316.60 4.074
316.70 4.07
316.80 4.065
316.90 4.061
317.00 4.056
317.10 4.052
317.20 4.048
317.30 4.043
317.40 4.039
317.50 4.035
317.60 4.03
317.70 4.026
317.80 4.022
317.90 4.018
318.00 4.013
318.10 4.009
318.20 4.005
318.30 4
318.40 3.996
318.50 3.992
318.60 3.988
318.70 3.983
318.80 3.979
318.90 3.975
319.00 3.971
319.10 3.966
319.20 3.962
319.30 3.958
319.40 3.954
319.50 3.95
319.60 3.945
319.70 3.941
319.80 3.937
319.90 3.933
320.00 3.929
320.10 3.924
320.20 3.92
320.30 3.916
320.40 3.912
320.50 3.908
320.60 3.904
320.70 3.9
320.80 3.895
320.90 3.891
321.00 3.887
321.10 3.883
321.20 3.879
321.30 3.875
321.40 3.871
321.50 3.867
321.60 3.863
321.70 3.858
321.80 3.854
321.90 3.85
322.00 3.846
322.10 3.842
322.20 3.838
322.30 3.834
322.40 3.83
322.50 3.826
322.60 3.822
322.70 3.818
322.80 3.814
322.90 3.81
323.00 3.806
323.10 3.802
323.20 3.798
323.30 3.794
323.40 3.79
323.50 3.786
323.60 3.782
323.70 3.778
323.80 3.774
323.90 3.77
324.00 3.766
324.10 3.762
324.20 3.758
324.30 3.754
324.40 3.75
324.50 3.746
324.60 3.742
324.70 3.739
324.80 3.735
324.90 3.731
325.00 3.727
325.10 3.723
325.20 3.719
325.30 3.715
325.40 3.711
325.50 3.707
325.60 3.703
325.70 3.7
325.80 3.696
325.90 3.692
326.00 3.688
326.10 3.684
326.20 3.68
326.30 3.676
326.40 3.673
326.50 3.669
326.60 3.665
326.70 3.661
326.80 3.657
326.90 3.654
327.00 3.65
327.10 3.646
327.20 3.642
327.30 3.638
327.40 3.635
327.50 3.631
327.60 3.627
327.70 3.623
327.80 3.619
327.90 3.616
328.00 3.612
328.10 3.608
328.20 3.604
328.30 3.601
328.40 3.597
328.50 3.593
328.60 3.59
328.70 3.586
328.80 3.582
328.90 3.578
329.00 3.575
329.10 3.571
329.20 3.567
329.30 3.564
329.40 3.56
329.50 3.556
329.60 3.553
329.70 3.549
329.80 3.545
329.90 3.542
330.00 3.538
330.10 3.534
330.20 3.531
330.30 3.527
330.40 3.523
330.50 3.52
330.60 3.516
330.70 3.512
330.80 3.509
330.90 3.505
331.00 3.502
331.10 3.498
331.20 3.494
331.30 3.491
331.40 3.487
331.50 3.484
331.60 3.48
331.70 3.476
331.80 3.473
331.90 3.469
332.00 3.466
332.10 3.462
332.20 3.459
332.30 3.455
332.40 3.452
332.50 3.448
332.60 3.444
332.70 3.441
332.80 3.437
332.90 3.434
333.00 3.43
333.10 3.427
333.20 3.423
333.30 3.42
333.40 3.416
333.50 3.413
333.60 3.409
333.70 3.406
333.80 3.402
333.90 3.399
334.00 3.395
334.10 3.392
334.20 3.389
334.30 3.385
334.40 3.382
334.50 3.378
334.60 3.375
334.70 3.371
334.80 3.368
334.90 3.364
335.00 3.361
335.10 3.358
335.20 3.354
335.30 3.351
335.40 3.347
335.50 3.344
335.60 3.341
335.70 3.337
335.80 3.334
335.90 3.33
336.00 3.327
336.10 3.324
336.20 3.32
336.30 3.317
336.40 3.313
336.50 3.31
336.60 3.307
336.70 3.303
336.80 3.3
336.90 3.297
337.00 3.293
337.10 3.29
337.20 3.287
337.30 3.283
337.40 3.28
337.50 3.277
337.60 3.273
337.70 3.27
337.80 3.267
337.90 3.263
338.00 3.26
338.10 3.257
338.20 3.254
338.30 3.25
338.40 3.247
338.50 3.244
338.60 3.241
338.70 3.237
338.80 3.234
338.90 3.231
339.00 3.227
339.10 3.224
339.20 3.221
339.30 3.218
339.40 3.214
339.50 3.211
339.60 3.208
339.70 3.205
339.80 3.202
339.90 3.198
340.00 3.195
340.10 3.192
340.20 3.189
340.30 3.186
340.40 3.182
340.50 3.179
340.60 3.176
340.70 3.173
340.80 3.17
340.90 3.166
341.00 3.163
341.10 3.16
341.20 3.157
341.30 3.154
341.40 3.151
341.50 3.147
341.60 3.144
341.70 3.141
341.80 3.138
341.90 3.135
342.00 3.132
342.10 3.129
342.20 3.125
342.30 3.122
342.40 3.119
342.50 3.116
342.60 3.113
342.70 3.11
342.80 3.107
342.90 3.104
343.00 3.101
343.10 3.098
343.20 3.094
343.30 3.091
343.40 3.088
343.50 3.085
343.60 3.082
343.70 3.079
343.80 3.076
343.90 3.073
344.00 3.07
344.10 3.067
344.20 3.064
344.30 3.061
344.40 3.058
344.50 3.055
344.60 3.052
344.70 3.049
344.80 3.046
344.90 3.043
345.00 3.04
345.10 3.037
345.20 3.033
345.30 3.03
345.40 3.027
345.50 3.024
345.60 3.021
345.70 3.018
345.80 3.015
345.90 3.012
346.00 3.01
346.10 3.007
346.20 3.004
346.30 3.001
346.40 2.998
346.50 2.995
346.60 2.992
346.70 2.989
346.80 2.986
346.90 2.983
347.00 2.98
347.10 2.977
347.20 2.974
347.30 2.971
347.40 2.968
347.50 2.965
347.60 2.962
347.70 2.959
347.80 2.957
347.90 2.954
348.00 2.951
348.10 2.948
348.20 2.945
348.30 2.942
348.40 2.939
348.50 2.936
348.60 2.933
348.70 2.93
348.80 2.928
348.90 2.925
349.00 2.922
349.10 2.919
349.20 2.916
349.30 2.913
349.40 2.91
349.50 2.908
349.60 2.905
349.70 2.902
349.80 2.899
349.90 2.896
350.00 2.893
350.10 2.891
350.20 2.888
350.30 2.885
350.40 2.882
350.50 2.879
350.60 2.876
350.70 2.874
350.80 2.871
350.90 2.868
351.00 2.865
351.10 2.862
351.20 2.86
351.30 2.857
351.40 2.854
351.50 2.851
351.60 2.848
351.70 2.846
351.80 2.843
351.90 2.84
352.00 2.837
352.10 2.835
352.20 2.832
352.30 2.829
352.40 2.826
352.50 2.824
352.60 2.821
352.70 2.818
352.80 2.815
352.90 2.813
353.00 2.81
353.10 2.807
353.20 2.804
353.30 2.802
353.40 2.799
353.50 2.796
353.60 2.794
353.70 2.791
353.80 2.788
353.90 2.785
354.00 2.783
354.10 2.78
354.20 2.777
354.30 2.775
354.40 2.772
354.50 2.769
354.60 2.767
354.70 2.764
354.80 2.761
354.90 2.759
355.00 2.756
355.10 2.753
355.20 2.751
355.30 2.748
355.40 2.745
355.50 2.743
355.60 2.74
355.70 2.737
355.80 2.735
355.90 2.732
356.00 2.729
356.10 2.727
356.20 2.724
356.30 2.722
356.40 2.719
356.50 2.716
356.60 2.714
356.70 2.711
356.80 2.709
356.90 2.706
357.00 2.703
357.10 2.701
357.20 2.698
357.30 2.696
357.40 2.693
357.50 2.69
357.60 2.688
357.70 2.685
357.80 2.683
357.90 2.68
358.00 2.677
358.10 2.675
358.20 2.672
358.30 2.67
358.40 2.667
358.50 2.665
358.60 2.662
358.70 2.66
358.80 2.657
358.90 2.655
359.00 2.652
359.10 2.649
359.20 2.647
359.30 2.644
359.40 2.642
359.50 2.639
359.60 2.637
359.70 2.634
359.80 2.632
359.90 2.629
360.00 2.627
360.10 2.624
360.20 2.622
360.30 2.619
360.40 2.617
360.50 2.614
360.60 2.612
360.70 2.609
360.80 2.607
360.90 2.604
361.00 2.602
361.10 2.599
361.20 2.597
361.30 2.594
361.40 2.592
361.50 2.589
361.60 2.587
361.70 2.585
361.80 2.582
361.90 2.58
362.00 2.577
362.10 2.575
362.20 2.572
362.30 2.57
362.40 2.567
362.50 2.565
362.60 2.563
362.70 2.56
362.80 2.558
362.90 2.555
363.00 2.553
363.10 2.55
363.20 2.548
363.30 2.546
363.40 2.543
363.50 2.541
363.60 2.538
363.70 2.536
363.80 2.534
363.90 2.531
364.00 2.529
364.10 2.526
364.20 2.524
364.30 2.522
364.40 2.519
364.50 2.517
364.60 2.515
364.70 2.512
364.80 2.51
364.90 2.507
365.00 2.505
365.10 2.503
365.20 2.5
365.30 2.498
365.40 2.496
365.50 2.493
365.60 2.491
365.70 2.489
365.80 2.486
365.90 2.484
366.00 2.482
366.10 2.479
366.20 2.476
366.30 2.473
366.40 2.471
366.50 2.468
366.60 2.465
366.70 2.463
366.80 2.46
366.90 2.457
367.00 2.455
367.10 2.452
367.20 2.449
367.30 2.447
367.40 2.444
367.50 2.441
367.60 2.439
367.70 2.436
367.80 2.434
367.90 2.431
368.00 2.428
368.10 2.426
368.20 2.423
368.30 2.421
368.40 2.418
368.50 2.416
368.60 2.413
368.70 2.411
368.80 2.408
368.90 2.406
369.00 2.403
369.10 2.401
369.20 2.398
369.30 2.396
369.40 2.393
369.50 2.391
369.60 2.388
369.70 2.386
369.80 2.383
369.90 2.381
370.00 2.378
370.10 2.376
370.20 2.374
370.30 2.372
370.40 2.369
370.50 2.367
370.60 2.365
370.70 2.363
370.80 2.361
370.90 2.359
371.00 2.356
371.10 2.354
371.20 2.352
371.30 2.35
371.40 2.348
371.50 2.346
371.60 2.343
371.70 2.341
371.80 2.339
371.90 2.337
372.00 2.335
372.10 2.333
372.20 2.332
372.30 2.331
372.40 2.329
372.50 2.328
372.60 2.327
372.70 2.325
372.80 2.324
372.90 2.322
373.00 2.321
373.10 2.32
373.20 2.318
373.30 2.317
373.40 2.316
373.50 2.314
373.60 2.313
373.70 2.311
373.80 2.31
373.90 2.309
374.00 2.307
374.10 2.306
374.20 2.305
374.30 2.304
374.40 2.303
374.50 2.302
374.60 2.301
374.70 2.3
374.80 2.299
374.90 2.298
375.00 2.297
375.10 2.295
375.20 2.294
375.30 2.293
375.40 2.292
375.50 2.291
375.60 2.29
375.70 2.289
375.80 2.288
375.90 2.287
376.00 2.286
376.10 2.279
376.20 2.271
376.30 2.264
376.40 2.257
376.50 2.249
376.60 2.242
376.70 2.235
376.80 2.228
376.90 2.22
377.00 2.213
377.10 2.219
377.20 2.225
377.30 2.231
377.40 2.237
377.50 2.243
377.60 2.249
377.70 2.255
377.80 2.261
377.90 2.267
378.00 2.273
378.10 2.268
378.20 2.262
378.30 2.257
378.40 2.251
378.50 2.246
378.60 2.24
378.70 2.235
378.80 2.229
378.90 2.224
379.00 2.218
379.10 2.208
379.20 2.197
379.30 2.186
379.40 2.176
379.50 2.165
379.60 2.155
379.70 2.144
379.80 2.134
379.90 2.123
380.00 2.113
380.10 2.128
380.20 2.143
380.30 2.158
380.40 2.173
380.50 2.187
380.60 2.202
380.70 2.217
380.80 2.232
380.90 2.247
381.00 2.262
381.10 2.265
381.20 2.268
381.30 2.271
381.40 2.274
381.50 2.278
381.60 2.276
381.70 2.272
381.80 2.266
381.90 2.259
382.00 2.249
382.10 2.238
382.20 2.225
382.30 2.199
382.40 2.173
382.50 2.148
382.60 2.122
382.70 2.097
382.80 2.071
382.90 2.046
383.00 2.02
383.10 1.995
383.20 1.969
383.30 1.933
383.40 1.897
383.50 1.864
383.60 1.87
383.70 1.902
383.80 1.937
383.90 1.971
384.00 2.004
384.10 2.036
384.20 2.066
384.30 2.093
384.40 2.119
384.50 2.143
384.60 2.165
384.70 2.184
384.80 2.203
384.90 2.219
385.00 2.234
385.10 2.246
385.20 2.258
385.30 2.268
385.40 2.277
385.50 2.284
385.60 2.29
385.70 2.294
385.80 2.297
385.90 2.299
386.00 2.3
386.10 2.299
386.20 2.297
386.30 2.294
386.40 2.289
386.50 2.284
386.60 2.276
386.70 2.267
386.80 2.257
386.90 2.245
387.00 2.232
387.10 2.218
387.20 2.201
387.30 2.182
387.40 2.163
387.50 2.14
387.60 2.116
387.70 2.09
387.80 2.061
387.90 2.03
388.00 1.997
388.10 1.96
388.20 1.921
388.30 1.881
388.40 1.836
388.50 1.788
388.60 1.739
388.70 1.687
388.80 1.642
388.90 1.603
389.00 1.636
389.10 1.678
389.20 1.727
389.30 1.774
389.40 1.818
389.50 1.861
389.60 1.899
389.70 1.935
389.80 1.97
389.90 2
390.00 2.029
390.10 2.056
390.20 2.08
390.30 2.103
390.40 2.124
390.50 2.142
390.60 2.16
390.70 2.176
390.80 2.19
390.90 2.203
391.00 2.216
391.10 2.226
391.20 2.236
391.30 2.245
391.40 2.253
391.50 2.26
391.60 2.266
391.70 2.271
391.80 2.276
391.90 2.28
392.00 2.283
392.10 2.285
392.20 2.288
392.30 2.289
392.40 2.29
392.50 2.29
392.60 2.29
392.70 2.29
392.80 2.289
392.90 2.287
393.00 2.285
393.10 2.282
393.20 2.279
393.30 2.276
393.40 2.272
393.50 2.267
393.60 2.262
393.70 2.257
393.80 2.25
393.90 2.243
394.00 2.236
394.10 2.228
394.20 2.219
394.30 2.209
394.40 2.199
394.50 2.187
394.60 2.175
394.70 2.162
394.80 2.147
394.90 2.132
395.00 2.115
395.10 2.097
395.20 2.078
395.30 2.056
395.40 2.034
395.50 2.01
395.60 1.983
395.70 1.955
395.80 1.925
395.90 1.893
396.00 1.858
396.10 1.821
396.20 1.781
396.30 1.738
396.40 1.693
396.50 1.643
396.60 1.59
396.70 1.534
396.80 1.472
396.90 1.408
397.00 1.343
397.10 1.401
397.20 1.459
397.30 1.519
397.40 1.573
397.50 1.624
397.60 1.671
397.70 1.714
397.80 1.754
397.90 1.792
398.00 1.825
398.10 1.857
398.20 1.887
398.30 1.913
398.40 1.938
398.50 1.961
398.60 1.982
398.70 2.001
398.80 2.02
398.90 2.035
399.00 2.05
399.10 2.064
399.20 2.076
399.30 2.087
399.40 2.098
399.50 2.107
399.60 2.115
399.70 2.123
399.80 2.13
399.90 2.136
400.00 2.142
400.10 2.147
400.20 2.151
400.30 2.155
400.40 2.159
400.50 2.162
400.60 2.165
400.70 2.167
400.80 2.169
400.90 2.171
401.00 2.173
401.10 2.174
401.20 2.175
401.30 2.175
401.40 2.176
401.50 2.177
401.60 2.177
401.70 2.177
401.80 2.177
401.90 2.176
402.00 2.176
402.10 2.175
402.20 2.175
402.30 2.174
402.40 2.173
402.50 2.172
402.60 2.171
402.70 2.17
402.80 2.169
402.90 2.167
403.00 2.166
403.10 2.164
403.20 2.163
403.30 2.161
403.40 2.16
403.50 2.158
403.60 2.156
403.70 2.154
403.80 2.152
403.90 2.15
404.00 2.148
404.10 2.145
404.20 2.143
404.30 2.141
404.40 2.138
404.50 2.136
404.60 2.133
404.70 2.13
404.80 2.127
404.90 2.124
405.00 2.121
405.10 2.118
405.20 2.115
405.30 2.112
405.40 2.108
405.50 2.104
405.60 2.1
405.70 2.097
405.80 2.092
405.90 2.088
406.00 2.083
406.10 2.079
406.20 2.073
406.30 2.068
406.40 2.063
406.50 2.057
406.60 2.051
406.70 2.044
406.80 2.037
406.90 2.03
407.00 2.022
407.10 2.014
407.20 2.005
407.30 1.996
407.40 1.986
407.50 1.976
407.60 1.964
407.70 1.952
407.80 1.94
407.90 1.926
408.00 1.911
408.10 1.896
408.20 1.879
408.30 1.861
408.40 1.842
408.50 1.822
408.60 1.8
408.70 1.777
408.80 1.751
408.90 1.724
409.00 1.695
409.10 1.664
409.20 1.63
409.30 1.595
409.40 1.556
409.50 1.514
409.60 1.471
409.70 1.421
409.80 1.368
409.90 1.312
410.00 1.246
410.10 1.189
410.20 1.14
410.30 1.211
410.40 1.277
410.50 1.337
410.60 1.389
410.70 1.437
410.80 1.481
410.90 1.52
411.00 1.557
411.10 1.592
411.20 1.623
411.30 1.652
411.40 1.679
411.50 1.703
411.60 1.726
411.70 1.747
411.80 1.766
411.90 1.784
412.00 1.8
412.10 1.815
412.20 1.828
412.30 1.841
412.40 1.852
412.50 1.862
412.60 1.872
412.70 1.881
412.80 1.888
412.90 1.896
413.00 1.902
413.10 1.908
413.20 1.913
413.30 1.918
413.40 1.922
413.50 1.926
413.60 1.929
413.70 1.933
413.80 1.935
413.90 1.938
414.00 1.94
414.10 1.942
414.20 1.943
414.30 1.944
414.40 1.946
414.50 1.947
414.60 1.947
414.70 1.948
414.80 1.948
414.90 1.949
415.00 1.949
415.10 1.949
415.20 1.949
415.30 1.949
415.40 1.948
415.50 1.948
415.60 1.948
415.70 1.947
415.80 1.946
415.90 1.946
416.00 1.945
416.10 1.944
416.20 1.944
416.30 1.943
416.40 1.942
416.50 1.941
416.60 1.94
416.70 1.939
416.80 1.938
416.90 1.937
417.00 1.936
417.10 1.934
417.20 1.933
417.30 1.932
417.40 1.931
417.50 1.93
417.60 1.928
417.70 1.927
417.80 1.926
417.90 1.924
418.00 1.923
418.10 1.922
418.20 1.92
418.30 1.919
418.40 1.918
418.50 1.916
418.60 1.915
418.70 1.913
418.80 1.912
418.90 1.91
419.00 1.909
419.10 1.908
419.20 1.906
419.30 1.905
419.40 1.903
419.50 1.902
419.60 1.9
419.70 1.899
419.80 1.897
419.90 1.896
420.00 1.894
420.10 1.893
420.20 1.891
420.30 1.889
420.40 1.888
420.50 1.886
420.60 1.885
420.70 1.883
420.80 1.882
420.90 1.88
421.00 1.879
421.10 1.877
421.20 1.875
421.30 1.874
421.40 1.872
421.50 1.871
421.60 1.869
421.70 1.867
421.80 1.866
421.90 1.864
422.00 1.863
422.10 1.861
422.20 1.859
422.30 1.858
422.40 1.856
422.50 1.854
422.60 1.853
422.70 1.851
422.80 1.85
422.90 1.848
423.00 1.846
423.10 1.845
423.20 1.843
423.30 1.841
423.40 1.84
423.50 1.838
423.60 1.836
423.70 1.835
423.80 1.833
423.90 1.831
424.00 1.83
424.10 1.828
424.20 1.826
424.30 1.825
424.40 1.823
424.50 1.821
424.60 1.819
424.70 1.818
424.80 1.816
424.90 1.814
425.00 1.812
425.10 1.811
425.20 1.809
425.30 1.807
425.40 1.805
425.50 1.804
425.60 1.802
425.70 1.8
425.80 1.798
425.90 1.796
426.00 1.794
426.10 1.793
426.20 1.791
426.30 1.789
426.40 1.787
426.50 1.785
426.60 1.783
426.70 1.781
426.80 1.779
426.90 1.777
427.00 1.775
427.10 1.773
427.20 1.771
427.30 1.769
427.40 1.767
427.50 1.765
427.60 1.763
427.70 1.76
427.80 1.758
427.90 1.756
428.00 1.753
428.10 1.751
428.20 1.749
428.30 1.746
428.40 1.744
428.50 1.741
428.60 1.739
428.70 1.736
428.80 1.733
428.90 1.73
429.00 1.728
429.10 1.725
429.20 1.722
429.30 1.718
429.40 1.715
429.50 1.712
429.60 1.708
429.70 1.705
429.80 1.701
429.90 1.697
430.00 1.693
430.10 1.689
430.20 1.684
430.30 1.68
430.40 1.675
430.50 1.67
430.60 1.665
430.70 1.659
430.80 1.653
430.90 1.647
431.00 1.64
431.10 1.633
431.20 1.626
431.30 1.618
431.40 1.61
431.50 1.601
431.60 1.592
431.70 1.581
431.80 1.571
431.90 1.559
432.00 1.547
432.10 1.533
432.20 1.519
432.30 1.504
432.40 1.487
432.50 1.469
432.60 1.45
432.70 1.43
432.80 1.408
432.90 1.385
433.00 1.36
433.10 1.332
433.20 1.303
433.30 1.272
433.40 1.237
433.50 1.2
433.60 1.16
433.70 1.114
433.80 1.063
433.90 1.007
434.00 0.9333
434.10 0.9341
434.20 1.01
434.30 1.063
434.40 1.112
434.50 1.156
434.60 1.194
434.70 1.228
434.80 1.261
434.90 1.289
435.00 1.316
435.10 1.341
435.20 1.363
435.30 1.384
435.40 1.404
435.50 1.421
435.60 1.437
435.70 1.452
435.80 1.465
435.90 1.478
436.00 1.489
436.10 1.5
436.20 1.509
436.30 1.518
436.40 1.525
436.50 1.533
436.60 1.539
436.70 1.545
436.80 1.55
436.90 1.555
437.00 1.559
437.10 1.563
437.20 1.567
437.30 1.57
437.40 1.573
437.50 1.576
437.60 1.578
437.70 1.58
437.80 1.582
437.90 1.583
438.00 1.585
438.10 1.586
438.20 1.587
438.30 1.588
438.40 1.588
438.50 1.589
438.60 1.589
438.70 1.59
438.80 1.59
438.90 1.59
439.00 1.59
439.10 1.59
439.20 1.59
439.30 1.59
439.40 1.59
439.50 1.59
439.60 1.589
439.70 1.589
439.80 1.588
439.90 1.588
440.00 1.587
440.10 1.587
440.20 1.586
440.30 1.586
440.40 1.585
440.50 1.584
440.60 1.583
440.70 1.583
440.80 1.582
440.90 1.581
441.00 1.58
441.10 1.579
441.20 1.578
441.30 1.577
441.40 1.577
441.50 1.576
441.60 1.575
441.70 1.574
441.80 1.573
441.90 1.572
442.00 1.571
442.10 1.57
442.20 1.569
442.30 1.568
442.40 1.567
442.50 1.565
442.60 1.564
442.70 1.563
442.80 1.562
442.90 1.561
443.00 1.56
443.10 1.559
443.20 1.558
443.30 1.557
443.40 1.556
443.50 1.554
443.60 1.553
443.70 1.552
443.80 1.551
443.90 1.55
444.00 1.549
444.10 1.548
444.20 1.546
444.30 1.545
444.40 1.544
444.50 1.543
444.60 1.542
444.70 1.541
444.80 1.539
444.90 1.538
445.00 1.537
445.10 1.536
445.20 1.535
445.30 1.533
445.40 1.532
445.50 1.531
445.60 1.53
445.70 1.529
445.80 1.527
445.90 1.526
446.00 1.525
446.10 1.524
446.20 1.523
446.30 1.522
446.40 1.52
446.50 1.519
446.60 1.518
446.70 1.517
446.80 1.516
446.90 1.514
447.00 1.513
447.10 1.512
447.20 1.511
447.30 1.51
447.40 1.508
447.50 1.507
447.60 1.506
447.70 1.505
447.80 1.504
447.90 1.502
448.00 1.501
448.10 1.5
448.20 1.499
448.30 1.498
448.40 1.496
448.50 1.495
448.60 1.494
448.70 1.493
448.80 1.492
448.90 1.49
449.00 1.489
449.10 1.488
449.20 1.487
449.30 1.486
449.40 1.484
449.50 1.483
449.60 1.482
449.70 1.481
449.80 1.48
449.90 1.478
450.00 1.477
450.10 1.476
450.20 1.475
450.30 1.474
450.40 1.472
450.50 1.471
450.60 1.47
450.70 1.469
450.80 1.468
450.90 1.467
451.00 1.465
451.10 1.464
451.20 1.463
451.30 1.462
451.40 1.461
451.50 1.459
451.60 1.458
451.70 1.457
451.80 1.456
451.90 1.455
452.00 1.454
452.10 1.452
452.20 1.451
452.30 1.45
452.40 1.449
452.50 1.448
452.60 1.447
452.70 1.445
452.80 1.444
452.90 1.443
453.00 1.442
453.10 1.441
453.20 1.44
453.30 1.438
453.40 1.437
453.50 1.436
453.60 1.435
453.70 1.434
453.80 1.433
453.90 1.431
454.00 1.43
454.10 1.429
454.20 1.428
