# Version 2.1 - nm, norm@500 to 1, cut digits, bergeron_2000_95.dat_2000
# Wavelength(nm)  Flambda(ergs/cm^s/s/nm)
300.00 0.06502
300.10 0.0652
300.20 0.06538
300.30 0.06557
300.40 0.06576
300.50 0.06595
300.60 0.06614
300.70 0.06632
300.80 0.06651
300.90 0.0667
301.00 0.06688
301.10 0.06707
301.20 0.06726
301.30 0.06744
301.40 0.06763
301.50 0.06781
301.60 0.068
301.70 0.06818
301.80 0.06837
301.90 0.06855
302.00 0.06874
302.10 0.06893
302.20 0.06913
302.30 0.06932
302.40 0.06952
302.50 0.06971
302.60 0.0699
302.70 0.0701
302.80 0.07029
302.90 0.07049
303.00 0.07068
303.10 0.07087
303.20 0.07107
303.30 0.07126
303.40 0.07145
303.50 0.07164
303.60 0.07183
303.70 0.07203
303.80 0.07222
303.90 0.07241
304.00 0.0726
304.10 0.0728
304.20 0.073
304.30 0.07321
304.40 0.07341
304.50 0.07361
304.60 0.07381
304.70 0.07401
304.80 0.07421
304.90 0.07441
305.00 0.07461
305.10 0.07481
305.20 0.07501
305.30 0.07521
305.40 0.07541
305.50 0.07561
305.60 0.07581
305.70 0.07601
305.80 0.07621
305.90 0.0764
306.00 0.07661
306.10 0.07681
306.20 0.07702
306.30 0.07723
306.40 0.07744
306.50 0.07765
306.60 0.07786
306.70 0.07806
306.80 0.07827
306.90 0.07848
307.00 0.07869
307.10 0.07889
307.20 0.0791
307.30 0.07931
307.40 0.07951
307.50 0.07972
307.60 0.07993
307.70 0.08013
307.80 0.08034
307.90 0.08054
308.00 0.08075
308.10 0.08097
308.20 0.08118
308.30 0.0814
308.40 0.08161
308.50 0.08183
308.60 0.08204
308.70 0.08226
308.80 0.08247
308.90 0.08269
309.00 0.0829
309.10 0.08312
309.20 0.08333
309.30 0.08355
309.40 0.08376
309.50 0.08397
309.60 0.08418
309.70 0.0844
309.80 0.08461
309.90 0.08482
310.00 0.08504
310.10 0.08526
310.20 0.08548
310.30 0.08571
310.40 0.08593
310.50 0.08615
310.60 0.08638
310.70 0.0866
310.80 0.08682
310.90 0.08705
311.00 0.08727
311.10 0.08749
311.20 0.08771
311.30 0.08793
311.40 0.08816
311.50 0.08838
311.60 0.0886
311.70 0.08882
311.80 0.08904
311.90 0.08926
312.00 0.08948
312.10 0.08969
312.20 0.08992
312.30 0.09015
312.40 0.09038
312.50 0.09061
312.60 0.09084
312.70 0.09107
312.80 0.0913
312.90 0.09153
313.00 0.09176
313.10 0.09199
313.20 0.09222
313.30 0.09245
313.40 0.09267
313.50 0.0929
313.60 0.09313
313.70 0.09336
313.80 0.09358
313.90 0.09381
314.00 0.09405
314.10 0.09428
314.20 0.09452
314.30 0.09475
314.40 0.09499
314.50 0.09523
314.60 0.09547
314.70 0.0957
314.80 0.09594
314.90 0.09618
315.00 0.09641
315.10 0.09665
315.20 0.09689
315.30 0.09712
315.40 0.09736
315.50 0.09759
315.60 0.09782
315.70 0.09806
315.80 0.09829
315.90 0.09853
316.00 0.09877
316.10 0.09901
316.20 0.09925
316.30 0.0995
316.40 0.09974
316.50 0.09999
316.60 0.1002
316.70 0.1005
316.80 0.1007
316.90 0.101
317.00 0.1012
317.10 0.1015
317.20 0.1017
317.30 0.1019
317.40 0.1022
317.50 0.1024
317.60 0.1027
317.70 0.1029
317.80 0.1031
317.90 0.1034
318.00 0.1036
318.10 0.1039
318.20 0.1041
318.30 0.1044
318.40 0.1046
318.50 0.1049
318.60 0.1051
318.70 0.1054
318.80 0.1057
318.90 0.1059
319.00 0.1062
319.10 0.1064
319.20 0.1067
319.30 0.1069
319.40 0.1072
319.50 0.1074
319.60 0.1077
319.70 0.1079
319.80 0.1081
319.90 0.1084
320.00 0.1087
320.10 0.1089
320.20 0.1092
320.30 0.1094
320.40 0.1097
320.50 0.1099
320.60 0.1102
320.70 0.1105
320.80 0.1107
320.90 0.111
321.00 0.1112
321.10 0.1115
321.20 0.1118
321.30 0.112
321.40 0.1123
321.50 0.1125
321.60 0.1128
321.70 0.113
321.80 0.1133
321.90 0.1136
322.00 0.1138
322.10 0.1141
322.20 0.1143
322.30 0.1146
322.40 0.1149
322.50 0.1152
322.60 0.1154
322.70 0.1157
322.80 0.116
322.90 0.1162
323.00 0.1165
323.10 0.1167
323.20 0.117
323.30 0.1173
323.40 0.1175
323.50 0.1178
323.60 0.1181
323.70 0.1183
323.80 0.1186
323.90 0.1189
324.00 0.1191
324.10 0.1194
324.20 0.1197
324.30 0.12
324.40 0.1202
324.50 0.1205
324.60 0.1208
324.70 0.1211
324.80 0.1213
324.90 0.1216
325.00 0.1219
325.10 0.1221
325.20 0.1224
325.30 0.1227
325.40 0.123
325.50 0.1232
325.60 0.1235
325.70 0.1238
325.80 0.124
325.90 0.1243
326.00 0.1246
326.10 0.1249
326.20 0.1252
326.30 0.1254
326.40 0.1257
326.50 0.126
326.60 0.1263
326.70 0.1266
326.80 0.1269
326.90 0.1271
327.00 0.1274
327.10 0.1277
327.20 0.128
327.30 0.1283
327.40 0.1285
327.50 0.1288
327.60 0.1291
327.70 0.1294
327.80 0.1296
327.90 0.1299
328.00 0.1302
328.10 0.1305
328.20 0.1308
328.30 0.1311
328.40 0.1314
328.50 0.1317
328.60 0.1319
328.70 0.1322
328.80 0.1325
328.90 0.1328
329.00 0.1331
329.10 0.1334
329.20 0.1337
329.30 0.134
329.40 0.1343
329.50 0.1345
329.60 0.1348
329.70 0.1351
329.80 0.1354
329.90 0.1357
330.00 0.136
330.10 0.1363
330.20 0.1366
330.30 0.1369
330.40 0.1372
330.50 0.1375
330.60 0.1378
330.70 0.1381
330.80 0.1383
330.90 0.1386
331.00 0.1389
331.10 0.1392
331.20 0.1395
331.30 0.1398
331.40 0.1401
331.50 0.1404
331.60 0.1407
331.70 0.141
331.80 0.1413
331.90 0.1416
332.00 0.1419
332.10 0.1422
332.20 0.1425
332.30 0.1428
332.40 0.1431
332.50 0.1434
332.60 0.1437
332.70 0.144
332.80 0.1443
332.90 0.1446
333.00 0.1449
333.10 0.1452
333.20 0.1455
333.30 0.1458
333.40 0.1461
333.50 0.1464
333.60 0.1467
333.70 0.147
333.80 0.1473
333.90 0.1476
334.00 0.1479
334.10 0.1483
334.20 0.1486
334.30 0.1489
334.40 0.1492
334.50 0.1495
334.60 0.1498
334.70 0.1501
334.80 0.1504
334.90 0.1508
335.00 0.1511
335.10 0.1514
335.20 0.1517
335.30 0.152
335.40 0.1523
335.50 0.1526
335.60 0.1529
335.70 0.1532
335.80 0.1535
335.90 0.1539
336.00 0.1542
336.10 0.1545
336.20 0.1548
336.30 0.1551
336.40 0.1554
336.50 0.1558
336.60 0.1561
336.70 0.1564
336.80 0.1567
336.90 0.157
337.00 0.1574
337.10 0.1577
337.20 0.158
337.30 0.1583
337.40 0.1586
337.50 0.1589
337.60 0.1593
337.70 0.1596
337.80 0.1599
337.90 0.1602
338.00 0.1605
338.10 0.1608
338.20 0.1612
338.30 0.1615
338.40 0.1618
338.50 0.1622
338.60 0.1625
338.70 0.1628
338.80 0.1631
338.90 0.1635
339.00 0.1638
339.10 0.1641
339.20 0.1644
339.30 0.1648
339.40 0.1651
339.50 0.1654
339.60 0.1657
339.70 0.1661
339.80 0.1664
339.90 0.1667
340.00 0.167
340.10 0.1674
340.20 0.1677
340.30 0.168
340.40 0.1684
340.50 0.1687
340.60 0.169
340.70 0.1694
340.80 0.1697
340.90 0.17
341.00 0.1704
341.10 0.1707
341.20 0.171
341.30 0.1714
341.40 0.1717
341.50 0.172
341.60 0.1724
341.70 0.1727
341.80 0.173
341.90 0.1734
342.00 0.1737
342.10 0.174
342.20 0.1744
342.30 0.1747
342.40 0.1751
342.50 0.1754
342.60 0.1757
342.70 0.1761
342.80 0.1764
342.90 0.1768
343.00 0.1771
343.10 0.1775
343.20 0.1778
343.30 0.1781
343.40 0.1785
343.50 0.1788
343.60 0.1792
343.70 0.1795
343.80 0.1798
343.90 0.1802
344.00 0.1805
344.10 0.1809
344.20 0.1812
344.30 0.1816
344.40 0.1819
344.50 0.1823
344.60 0.1826
344.70 0.183
344.80 0.1833
344.90 0.1837
345.00 0.184
345.10 0.1844
345.20 0.1847
345.30 0.185
345.40 0.1854
345.50 0.1857
345.60 0.1861
345.70 0.1864
345.80 0.1868
345.90 0.1871
346.00 0.1875
346.10 0.1878
346.20 0.1882
346.30 0.1885
346.40 0.1889
346.50 0.1893
346.60 0.1896
346.70 0.19
346.80 0.1903
346.90 0.1907
347.00 0.191
347.10 0.1914
347.20 0.1917
347.30 0.1921
347.40 0.1924
347.50 0.1928
347.60 0.1932
347.70 0.1935
347.80 0.1939
347.90 0.1942
348.00 0.1946
348.10 0.1949
348.20 0.1953
348.30 0.1957
348.40 0.196
348.50 0.1964
348.60 0.1968
348.70 0.1971
348.80 0.1975
348.90 0.1978
349.00 0.1982
349.10 0.1986
349.20 0.1989
349.30 0.1993
349.40 0.1997
349.50 0.2
349.60 0.2004
349.70 0.2007
349.80 0.2011
349.90 0.2015
350.00 0.2018
350.10 0.2022
350.20 0.2026
350.30 0.2029
350.40 0.2033
350.50 0.2037
350.60 0.204
350.70 0.2044
350.80 0.2048
350.90 0.2052
351.00 0.2055
351.10 0.2059
351.20 0.2063
351.30 0.2066
351.40 0.207
351.50 0.2074
351.60 0.2077
351.70 0.2081
351.80 0.2085
351.90 0.2088
352.00 0.2092
352.10 0.2096
352.20 0.21
352.30 0.2103
352.40 0.2107
352.50 0.2111
352.60 0.2115
352.70 0.2119
352.80 0.2122
352.90 0.2126
353.00 0.213
353.10 0.2134
353.20 0.2137
353.30 0.2141
353.40 0.2145
353.50 0.2149
353.60 0.2152
353.70 0.2156
353.80 0.216
353.90 0.2164
354.00 0.2167
354.10 0.2171
354.20 0.2175
354.30 0.2179
354.40 0.2183
354.50 0.2187
354.60 0.2191
354.70 0.2194
354.80 0.2198
354.90 0.2202
355.00 0.2206
355.10 0.221
355.20 0.2214
355.30 0.2217
355.40 0.2221
355.50 0.2225
355.60 0.2229
355.70 0.2233
355.80 0.2237
355.90 0.224
356.00 0.2244
356.10 0.2248
356.20 0.2252
356.30 0.2256
356.40 0.226
356.50 0.2264
356.60 0.2268
356.70 0.2272
356.80 0.2276
356.90 0.228
357.00 0.2283
357.10 0.2287
357.20 0.2291
357.30 0.2295
357.40 0.2299
357.50 0.2303
357.60 0.2307
357.70 0.2311
357.80 0.2315
357.90 0.2318
358.00 0.2322
358.10 0.2326
358.20 0.233
358.30 0.2334
358.40 0.2338
358.50 0.2342
358.60 0.2346
358.70 0.235
358.80 0.2354
358.90 0.2358
359.00 0.2362
359.10 0.2366
359.20 0.237
359.30 0.2374
359.40 0.2378
359.50 0.2382
359.60 0.2386
359.70 0.239
359.80 0.2394
359.90 0.2398
360.00 0.2402
360.10 0.2406
360.20 0.241
360.30 0.2414
360.40 0.2418
360.50 0.2422
360.60 0.2426
360.70 0.243
360.80 0.2434
360.90 0.2438
361.00 0.2443
361.10 0.2447
361.20 0.2451
361.30 0.2455
361.40 0.2459
361.50 0.2463
361.60 0.2467
361.70 0.2471
361.80 0.2475
361.90 0.2479
362.00 0.2483
362.10 0.2487
362.20 0.2491
362.30 0.2495
362.40 0.2499
362.50 0.2503
362.60 0.2507
362.70 0.2511
362.80 0.2516
362.90 0.252
363.00 0.2524
363.10 0.2528
363.20 0.2532
363.30 0.2536
363.40 0.254
363.50 0.2545
363.60 0.2549
363.70 0.2553
363.80 0.2557
363.90 0.2561
364.00 0.2565
364.10 0.2569
364.20 0.2573
364.30 0.2578
364.40 0.2582
364.50 0.2586
364.60 0.259
364.70 0.2594
364.80 0.2599
364.90 0.2603
365.00 0.2607
365.10 0.2611
365.20 0.2615
365.30 0.262
365.40 0.2624
365.50 0.2628
365.60 0.2632
365.70 0.2636
365.80 0.264
365.90 0.2645
366.00 0.2649
366.10 0.2653
366.20 0.2657
366.30 0.2662
366.40 0.2666
366.50 0.267
366.60 0.2674
366.70 0.2679
366.80 0.2683
366.90 0.2687
367.00 0.2691
367.10 0.2696
367.20 0.27
367.30 0.2704
367.40 0.2708
367.50 0.2713
367.60 0.2717
367.70 0.2721
367.80 0.2725
367.90 0.2729
368.00 0.2734
368.10 0.2738
368.20 0.2742
368.30 0.2747
368.40 0.2751
368.50 0.2755
368.60 0.276
368.70 0.2764
368.80 0.2768
368.90 0.2773
369.00 0.2777
369.10 0.2781
369.20 0.2786
369.30 0.279
369.40 0.2794
369.50 0.2799
369.60 0.2803
369.70 0.2807
369.80 0.2811
369.90 0.2816
370.00 0.282
370.10 0.2824
370.20 0.2829
370.30 0.2833
370.40 0.2838
370.50 0.2842
370.60 0.2846
370.70 0.2851
370.80 0.2855
370.90 0.286
371.00 0.2864
371.10 0.2868
371.20 0.2873
371.30 0.2877
371.40 0.2881
371.50 0.2886
371.60 0.289
371.70 0.2894
371.80 0.2899
371.90 0.2903
372.00 0.2907
372.10 0.2912
372.20 0.2916
372.30 0.2921
372.40 0.2925
372.50 0.293
372.60 0.2934
372.70 0.2939
372.80 0.2943
372.90 0.2948
373.00 0.2952
373.10 0.2957
373.20 0.2961
373.30 0.2965
373.40 0.297
373.50 0.2974
373.60 0.2979
373.70 0.2983
373.80 0.2987
373.90 0.2992
374.00 0.2996
374.10 0.3001
374.20 0.3005
374.30 0.301
374.40 0.3014
374.50 0.3019
374.60 0.3024
374.70 0.3028
374.80 0.3033
374.90 0.3037
375.00 0.3042
375.10 0.3046
375.20 0.3051
375.30 0.3055
375.40 0.306
375.50 0.3064
375.60 0.3069
375.70 0.3073
375.80 0.3077
375.90 0.3082
376.00 0.3086
376.10 0.3091
376.20 0.3096
376.30 0.31
376.40 0.3105
376.50 0.3109
376.60 0.3114
376.70 0.3118
376.80 0.3123
376.90 0.3127
377.00 0.3132
377.10 0.3136
377.20 0.3141
377.30 0.3146
377.40 0.315
377.50 0.3155
377.60 0.3159
377.70 0.3164
377.80 0.3168
377.90 0.3173
378.00 0.3178
378.10 0.3182
378.20 0.3187
378.30 0.3192
378.40 0.3196
378.50 0.3201
378.60 0.3205
378.70 0.321
378.80 0.3215
378.90 0.3219
379.00 0.3224
379.10 0.3228
379.20 0.3233
379.30 0.3238
379.40 0.3242
379.50 0.3247
379.60 0.3252
379.70 0.3256
379.80 0.3261
379.90 0.3266
380.00 0.327
380.10 0.3275
380.20 0.328
380.30 0.3284
380.40 0.3289
380.50 0.3294
380.60 0.3298
380.70 0.3303
380.80 0.3308
380.90 0.3312
381.00 0.3317
381.10 0.3322
381.20 0.3326
381.30 0.3331
381.40 0.3336
381.50 0.334
381.60 0.3345
381.70 0.335
381.80 0.3354
381.90 0.3359
382.00 0.3364
382.10 0.3369
382.20 0.3373
382.30 0.3378
382.40 0.3383
382.50 0.3388
382.60 0.3392
382.70 0.3397
382.80 0.3402
382.90 0.3407
383.00 0.3411
383.10 0.3416
383.20 0.3421
383.30 0.3425
383.40 0.343
383.50 0.3435
383.60 0.344
383.70 0.3444
383.80 0.3449
383.90 0.3454
384.00 0.3459
384.10 0.3463
384.20 0.3468
384.30 0.3473
384.40 0.3478
384.50 0.3483
384.60 0.3487
384.70 0.3492
384.80 0.3497
384.90 0.3502
385.00 0.3507
385.10 0.3511
385.20 0.3516
385.30 0.3521
385.40 0.3526
385.50 0.3531
385.60 0.3535
385.70 0.354
385.80 0.3545
385.90 0.355
386.00 0.3555
386.10 0.356
386.20 0.3564
386.30 0.3569
386.40 0.3574
386.50 0.3579
386.60 0.3584
386.70 0.3589
386.80 0.3593
386.90 0.3598
387.00 0.3603
387.10 0.3608
387.20 0.3613
387.30 0.3618
387.40 0.3623
387.50 0.3627
387.60 0.3632
387.70 0.3637
387.80 0.3642
387.90 0.3647
388.00 0.3652
388.10 0.3657
388.20 0.3662
388.30 0.3666
388.40 0.3671
388.50 0.3676
388.60 0.3681
388.70 0.3686
388.80 0.3691
388.90 0.3696
389.00 0.3701
389.10 0.3706
389.20 0.3711
389.30 0.3715
389.40 0.372
389.50 0.3725
389.60 0.373
389.70 0.3735
389.80 0.374
389.90 0.3745
390.00 0.375
390.10 0.3755
390.20 0.376
390.30 0.3765
390.40 0.377
390.50 0.3775
390.60 0.378
390.70 0.3785
390.80 0.379
390.90 0.3795
391.00 0.38
391.10 0.3804
391.20 0.3809
391.30 0.3814
391.40 0.3819
391.50 0.3824
391.60 0.3829
391.70 0.3834
391.80 0.3839
391.90 0.3844
392.00 0.3849
392.10 0.3854
392.20 0.3859
392.30 0.3864
392.40 0.3869
392.50 0.3874
392.60 0.3879
392.70 0.3884
392.80 0.3889
392.90 0.3894
393.00 0.3899
393.10 0.3904
393.20 0.3909
393.30 0.3914
393.40 0.3919
393.50 0.3924
393.60 0.3929
393.70 0.3934
393.80 0.3939
393.90 0.3944
394.00 0.395
394.10 0.3955
394.20 0.396
394.30 0.3965
394.40 0.397
394.50 0.3975
394.60 0.398
394.70 0.3985
394.80 0.399
394.90 0.3995
395.00 0.4
395.10 0.4005
395.20 0.401
395.30 0.4015
395.40 0.402
395.50 0.4025
395.60 0.4031
395.70 0.4036
395.80 0.4041
395.90 0.4046
396.00 0.4051
396.10 0.4056
396.20 0.4061
396.30 0.4066
396.40 0.4071
396.50 0.4076
396.60 0.4081
396.70 0.4087
396.80 0.4092
396.90 0.4097
397.00 0.4102
397.10 0.4107
397.20 0.4112
397.30 0.4117
397.40 0.4122
397.50 0.4128
397.60 0.4133
397.70 0.4138
397.80 0.4143
397.90 0.4148
398.00 0.4153
398.10 0.4158
398.20 0.4163
398.30 0.4169
398.40 0.4174
398.50 0.4179
398.60 0.4184
398.70 0.4189
398.80 0.4194
398.90 0.4199
399.00 0.4205
399.10 0.421
399.20 0.4215
399.30 0.422
399.40 0.4225
399.50 0.4231
399.60 0.4236
399.70 0.4241
399.80 0.4246
399.90 0.4251
400.00 0.4256
400.10 0.4262
400.20 0.4267
400.30 0.4272
400.40 0.4277
400.50 0.4282
400.60 0.4288
400.70 0.4293
400.80 0.4298
400.90 0.4303
401.00 0.4308
401.10 0.4314
401.20 0.4319
401.30 0.4324
401.40 0.4329
401.50 0.4335
401.60 0.434
401.70 0.4345
401.80 0.435
401.90 0.4355
402.00 0.4361
402.10 0.4366
402.20 0.4371
402.30 0.4376
402.40 0.4382
402.50 0.4387
402.60 0.4392
402.70 0.4397
402.80 0.4403
402.90 0.4408
403.00 0.4413
403.10 0.4418
403.20 0.4424
403.30 0.4429
403.40 0.4434
403.50 0.4439
403.60 0.4445
403.70 0.445
403.80 0.4455
403.90 0.446
404.00 0.4466
404.10 0.4471
404.20 0.4476
404.30 0.4482
404.40 0.4487
404.50 0.4492
404.60 0.4497
404.70 0.4503
404.80 0.4508
404.90 0.4513
405.00 0.4519
405.10 0.4524
405.20 0.4529
405.30 0.4535
405.40 0.454
405.50 0.4545
405.60 0.455
405.70 0.4556
405.80 0.4561
405.90 0.4566
406.00 0.4572
406.10 0.4577
406.20 0.4582
406.30 0.4588
406.40 0.4593
406.50 0.4598
406.60 0.4604
406.70 0.4609
406.80 0.4614
406.90 0.462
407.00 0.4625
407.10 0.463
407.20 0.4636
407.30 0.4641
407.40 0.4646
407.50 0.4652
407.60 0.4657
407.70 0.4662
407.80 0.4668
407.90 0.4673
408.00 0.4679
408.10 0.4684
408.20 0.4689
408.30 0.4695
408.40 0.47
408.50 0.4705
408.60 0.4711
408.70 0.4716
408.80 0.4722
408.90 0.4727
409.00 0.4732
409.10 0.4738
409.20 0.4743
409.30 0.4748
409.40 0.4754
409.50 0.4759
409.60 0.4765
409.70 0.477
409.80 0.4775
409.90 0.4781
410.00 0.4786
410.10 0.4792
410.20 0.4797
410.30 0.4802
410.40 0.4808
410.50 0.4813
410.60 0.4819
410.70 0.4824
410.80 0.483
410.90 0.4835
411.00 0.484
411.10 0.4846
411.20 0.4851
411.30 0.4857
411.40 0.4862
411.50 0.4868
411.60 0.4873
411.70 0.4878
411.80 0.4884
411.90 0.4889
412.00 0.4895
412.10 0.49
412.20 0.4906
412.30 0.4911
412.40 0.4917
412.50 0.4922
412.60 0.4927
412.70 0.4933
412.80 0.4938
412.90 0.4944
413.00 0.4949
413.10 0.4955
413.20 0.496
413.30 0.4966
413.40 0.4971
413.50 0.4977
413.60 0.4982
413.70 0.4988
413.80 0.4993
413.90 0.4999
414.00 0.5004
414.10 0.501
414.20 0.5015
414.30 0.5021
414.40 0.5026
414.50 0.5031
414.60 0.5037
414.70 0.5042
414.80 0.5048
414.90 0.5053
415.00 0.5059
415.10 0.5064
415.20 0.507
415.30 0.5075
415.40 0.5081
415.50 0.5086
415.60 0.5092
415.70 0.5097
415.80 0.5103
415.90 0.5108
416.00 0.5114
416.10 0.512
416.20 0.5125
416.30 0.5131
416.40 0.5136
416.50 0.5142
416.60 0.5147
416.70 0.5153
416.80 0.5158
416.90 0.5164
417.00 0.5169
417.10 0.5175
417.20 0.518
417.30 0.5186
417.40 0.5192
417.50 0.5197
417.60 0.5203
417.70 0.5208
417.80 0.5214
417.90 0.5219
418.00 0.5225
418.10 0.523
418.20 0.5236
418.30 0.5241
418.40 0.5247
418.50 0.5253
418.60 0.5258
418.70 0.5264
418.80 0.5269
418.90 0.5275
419.00 0.528
419.10 0.5286
419.20 0.5292
419.30 0.5297
419.40 0.5303
419.50 0.5308
419.60 0.5314
419.70 0.5319
419.80 0.5325
419.90 0.5331
420.00 0.5336
420.10 0.5342
420.20 0.5347
420.30 0.5353
420.40 0.5359
420.50 0.5364
420.60 0.537
420.70 0.5375
420.80 0.5381
420.90 0.5387
421.00 0.5392
421.10 0.5398
421.20 0.5403
421.30 0.5409
421.40 0.5415
421.50 0.542
421.60 0.5426
421.70 0.5431
421.80 0.5437
421.90 0.5443
422.00 0.5448
422.10 0.5454
422.20 0.546
422.30 0.5465
422.40 0.5471
422.50 0.5476
422.60 0.5482
422.70 0.5488
422.80 0.5493
422.90 0.5499
423.00 0.5505
423.10 0.551
423.20 0.5516
423.30 0.5521
423.40 0.5527
423.50 0.5533
423.60 0.5538
423.70 0.5544
423.80 0.555
423.90 0.5555
424.00 0.5561
424.10 0.5567
424.20 0.5572
424.30 0.5578
424.40 0.5584
424.50 0.5589
424.60 0.5595
424.70 0.5601
424.80 0.5606
424.90 0.5612
425.00 0.5618
425.10 0.5623
425.20 0.5629
425.30 0.5635
425.40 0.564
425.50 0.5646
425.60 0.5652
425.70 0.5657
425.80 0.5663
425.90 0.5669
426.00 0.5674
426.10 0.568
426.20 0.5686
426.30 0.5691
426.40 0.5697
426.50 0.5703
426.60 0.5708
426.70 0.5714
426.80 0.572
426.90 0.5726
427.00 0.5731
427.10 0.5737
427.20 0.5743
427.30 0.5748
427.40 0.5754
427.50 0.576
427.60 0.5765
427.70 0.5771
427.80 0.5777
427.90 0.5782
428.00 0.5788
428.10 0.5794
428.20 0.58
428.30 0.5805
428.40 0.5811
428.50 0.5817
428.60 0.5823
428.70 0.5828
428.80 0.5834
428.90 0.584
429.00 0.5845
429.10 0.5851
429.20 0.5857
429.30 0.5863
429.40 0.5868
429.50 0.5874
429.60 0.588
429.70 0.5885
429.80 0.5891
429.90 0.5897
430.00 0.5903
430.10 0.5908
430.20 0.5914
430.30 0.592
430.40 0.5926
430.50 0.5931
430.60 0.5937
430.70 0.5943
430.80 0.5949
430.90 0.5954
431.00 0.596
431.10 0.5966
431.20 0.5972
431.30 0.5977
431.40 0.5983
431.50 0.5989
431.60 0.5995
431.70 0.6
431.80 0.6006
431.90 0.6012
432.00 0.6018
432.10 0.6023
432.20 0.6029
432.30 0.6035
432.40 0.6041
432.50 0.6046
432.60 0.6052
432.70 0.6058
432.80 0.6064
432.90 0.607
433.00 0.6075
433.10 0.6081
433.20 0.6087
433.30 0.6093
433.40 0.6098
433.50 0.6104
433.60 0.611
433.70 0.6116
433.80 0.6122
433.90 0.6127
434.00 0.6133
434.10 0.6139
434.20 0.6145
434.30 0.615
434.40 0.6156
434.50 0.6162
434.60 0.6168
434.70 0.6174
434.80 0.6179
434.90 0.6185
435.00 0.6191
435.10 0.6197
435.20 0.6203
435.30 0.6208
435.40 0.6214
435.50 0.622
435.60 0.6226
435.70 0.6232
435.80 0.6237
435.90 0.6243
436.00 0.6249
436.10 0.6255
436.20 0.6261
436.30 0.6266
436.40 0.6272
436.50 0.6278
436.60 0.6284
436.70 0.629
436.80 0.6296
436.90 0.6301
437.00 0.6307
437.10 0.6313
437.20 0.6319
437.30 0.6325
437.40 0.633
437.50 0.6336
437.60 0.6342
437.70 0.6348
437.80 0.6354
437.90 0.636
438.00 0.6365
438.10 0.6371
438.20 0.6377
438.30 0.6383
438.40 0.6389
438.50 0.6395
438.60 0.64
438.70 0.6406
438.80 0.6412
438.90 0.6418
439.00 0.6424
439.10 0.6429
439.20 0.6435
439.30 0.6441
439.40 0.6447
439.50 0.6453
439.60 0.6459
439.70 0.6465
439.80 0.647
439.90 0.6476
440.00 0.6482
440.10 0.6488
440.20 0.6494
440.30 0.65
440.40 0.6505
440.50 0.6511
440.60 0.6517
440.70 0.6523
440.80 0.6529
440.90 0.6535
441.00 0.6541
441.10 0.6546
441.20 0.6552
441.30 0.6558
441.40 0.6564
441.50 0.657
441.60 0.6576
441.70 0.6582
441.80 0.6587
441.90 0.6593
442.00 0.6599
