# Version 2.1 - nm, norm@500 to 1, cut digits, bergeron_20000_95.dat_20000
# Wavelength(nm)  Flambda(ergs/cm^s/s/nm)
300.00 3.642
300.10 3.638
300.20 3.634
300.30 3.631
300.40 3.627
300.50 3.624
300.60 3.62
300.70 3.617
300.80 3.613
300.90 3.609
301.00 3.606
301.10 3.602
301.20 3.599
301.30 3.595
301.40 3.592
301.50 3.588
301.60 3.585
301.70 3.581
301.80 3.578
301.90 3.574
302.00 3.571
302.10 3.567
302.20 3.564
302.30 3.56
302.40 3.557
302.50 3.553
302.60 3.55
302.70 3.546
302.80 3.543
302.90 3.539
303.00 3.536
303.10 3.532
303.20 3.529
303.30 3.526
303.40 3.522
303.50 3.519
303.60 3.515
303.70 3.512
303.80 3.508
303.90 3.505
304.00 3.502
304.10 3.498
304.20 3.495
304.30 3.491
304.40 3.488
304.50 3.485
304.60 3.481
304.70 3.478
304.80 3.474
304.90 3.471
305.00 3.468
305.10 3.464
305.20 3.461
305.30 3.458
305.40 3.454
305.50 3.451
305.60 3.447
305.70 3.444
305.80 3.441
305.90 3.437
306.00 3.434
306.10 3.431
306.20 3.427
306.30 3.424
306.40 3.421
306.50 3.418
306.60 3.414
306.70 3.411
306.80 3.408
306.90 3.404
307.00 3.401
307.10 3.398
307.20 3.394
307.30 3.391
307.40 3.388
307.50 3.385
307.60 3.381
307.70 3.378
307.80 3.375
307.90 3.372
308.00 3.368
308.10 3.365
308.20 3.362
308.30 3.359
308.40 3.355
308.50 3.352
308.60 3.349
308.70 3.346
308.80 3.343
308.90 3.339
309.00 3.336
309.10 3.333
309.20 3.33
309.30 3.327
309.40 3.323
309.50 3.32
309.60 3.317
309.70 3.314
309.80 3.311
309.90 3.307
310.00 3.304
310.10 3.301
310.20 3.298
310.30 3.295
310.40 3.292
310.50 3.288
310.60 3.285
310.70 3.282
310.80 3.279
310.90 3.276
311.00 3.273
311.10 3.27
311.20 3.267
311.30 3.263
311.40 3.26
311.50 3.257
311.60 3.254
311.70 3.251
311.80 3.248
311.90 3.245
312.00 3.242
312.10 3.239
312.20 3.236
312.30 3.233
312.40 3.229
312.50 3.226
312.60 3.223
312.70 3.22
312.80 3.217
312.90 3.214
313.00 3.211
313.10 3.208
313.20 3.205
313.30 3.202
313.40 3.199
313.50 3.196
313.60 3.193
313.70 3.19
313.80 3.187
313.90 3.184
314.00 3.181
314.10 3.178
314.20 3.175
314.30 3.172
314.40 3.169
314.50 3.166
314.60 3.163
314.70 3.16
314.80 3.157
314.90 3.154
315.00 3.151
315.10 3.148
315.20 3.145
315.30 3.142
315.40 3.139
315.50 3.136
315.60 3.133
315.70 3.13
315.80 3.127
315.90 3.124
316.00 3.121
316.10 3.118
316.20 3.115
316.30 3.112
316.40 3.11
316.50 3.107
316.60 3.104
316.70 3.101
316.80 3.098
316.90 3.095
317.00 3.092
317.10 3.089
317.20 3.086
317.30 3.083
317.40 3.08
317.50 3.078
317.60 3.075
317.70 3.072
317.80 3.069
317.90 3.066
318.00 3.063
318.10 3.06
318.20 3.057
318.30 3.055
318.40 3.052
318.50 3.049
318.60 3.046
318.70 3.043
318.80 3.04
318.90 3.038
319.00 3.035
319.10 3.032
319.20 3.029
319.30 3.026
319.40 3.023
319.50 3.021
319.60 3.018
319.70 3.015
319.80 3.012
319.90 3.009
320.00 3.007
320.10 3.004
320.20 3.001
320.30 2.998
320.40 2.995
320.50 2.993
320.60 2.99
320.70 2.987
320.80 2.984
320.90 2.981
321.00 2.979
321.10 2.976
321.20 2.973
321.30 2.97
321.40 2.968
321.50 2.965
321.60 2.962
321.70 2.959
321.80 2.957
321.90 2.954
322.00 2.951
322.10 2.949
322.20 2.946
322.30 2.943
322.40 2.94
322.50 2.938
322.60 2.935
322.70 2.932
322.80 2.929
322.90 2.927
323.00 2.924
323.10 2.921
323.20 2.919
323.30 2.916
323.40 2.913
323.50 2.911
323.60 2.908
323.70 2.905
323.80 2.903
323.90 2.9
324.00 2.897
324.10 2.895
324.20 2.892
324.30 2.889
324.40 2.887
324.50 2.884
324.60 2.881
324.70 2.879
324.80 2.876
324.90 2.873
325.00 2.871
325.10 2.868
325.20 2.865
325.30 2.863
325.40 2.86
325.50 2.858
325.60 2.855
325.70 2.852
325.80 2.85
325.90 2.847
326.00 2.845
326.10 2.842
326.20 2.839
326.30 2.837
326.40 2.834
326.50 2.832
326.60 2.829
326.70 2.826
326.80 2.824
326.90 2.821
327.00 2.819
327.10 2.816
327.20 2.814
327.30 2.811
327.40 2.808
327.50 2.806
327.60 2.803
327.70 2.801
327.80 2.798
327.90 2.796
328.00 2.793
328.10 2.791
328.20 2.788
328.30 2.785
328.40 2.783
328.50 2.78
328.60 2.778
328.70 2.775
328.80 2.773
328.90 2.77
329.00 2.768
329.10 2.765
329.20 2.763
329.30 2.76
329.40 2.758
329.50 2.755
329.60 2.753
329.70 2.75
329.80 2.748
329.90 2.745
330.00 2.743
330.10 2.74
330.20 2.738
330.30 2.735
330.40 2.733
330.50 2.73
330.60 2.728
330.70 2.726
330.80 2.723
330.90 2.721
331.00 2.718
331.10 2.716
331.20 2.713
331.30 2.711
331.40 2.708
331.50 2.706
331.60 2.703
331.70 2.701
331.80 2.699
331.90 2.696
332.00 2.694
332.10 2.691
332.20 2.689
332.30 2.686
332.40 2.684
332.50 2.682
332.60 2.679
332.70 2.677
332.80 2.674
332.90 2.672
333.00 2.67
333.10 2.667
333.20 2.665
333.30 2.662
333.40 2.66
333.50 2.658
333.60 2.655
333.70 2.653
333.80 2.65
333.90 2.648
334.00 2.646
334.10 2.643
334.20 2.641
334.30 2.639
334.40 2.636
334.50 2.634
334.60 2.632
334.70 2.629
334.80 2.627
334.90 2.625
335.00 2.622
335.10 2.62
335.20 2.618
335.30 2.615
335.40 2.613
335.50 2.61
335.60 2.608
335.70 2.606
335.80 2.604
335.90 2.601
336.00 2.599
336.10 2.597
336.20 2.594
336.30 2.592
336.40 2.59
336.50 2.587
336.60 2.585
336.70 2.583
336.80 2.58
336.90 2.578
337.00 2.576
337.10 2.574
337.20 2.571
337.30 2.569
337.40 2.567
337.50 2.564
337.60 2.562
337.70 2.56
337.80 2.558
337.90 2.555
338.00 2.553
338.10 2.551
338.20 2.549
338.30 2.546
338.40 2.544
338.50 2.542
338.60 2.54
338.70 2.537
338.80 2.535
338.90 2.533
339.00 2.531
339.10 2.528
339.20 2.526
339.30 2.524
339.40 2.522
339.50 2.519
339.60 2.517
339.70 2.515
339.80 2.513
339.90 2.511
340.00 2.508
340.10 2.506
340.20 2.504
340.30 2.502
340.40 2.5
340.50 2.497
340.60 2.495
340.70 2.493
340.80 2.491
340.90 2.489
341.00 2.486
341.10 2.484
341.20 2.482
341.30 2.48
341.40 2.478
341.50 2.475
341.60 2.473
341.70 2.471
341.80 2.469
341.90 2.467
342.00 2.465
342.10 2.462
342.20 2.46
342.30 2.458
342.40 2.456
342.50 2.454
342.60 2.452
342.70 2.45
342.80 2.447
342.90 2.445
343.00 2.443
343.10 2.441
343.20 2.439
343.30 2.437
343.40 2.435
343.50 2.432
343.60 2.43
343.70 2.428
343.80 2.426
343.90 2.424
344.00 2.422
344.10 2.42
344.20 2.418
344.30 2.415
344.40 2.413
344.50 2.411
344.60 2.409
344.70 2.407
344.80 2.405
344.90 2.403
345.00 2.401
345.10 2.399
345.20 2.397
345.30 2.395
345.40 2.392
345.50 2.39
345.60 2.388
345.70 2.386
345.80 2.384
345.90 2.382
346.00 2.38
346.10 2.378
346.20 2.376
346.30 2.374
346.40 2.372
346.50 2.37
346.60 2.368
346.70 2.366
346.80 2.364
346.90 2.362
347.00 2.359
347.10 2.357
347.20 2.355
347.30 2.353
347.40 2.351
347.50 2.349
347.60 2.347
347.70 2.345
347.80 2.343
347.90 2.341
348.00 2.339
348.10 2.337
348.20 2.335
348.30 2.333
348.40 2.331
348.50 2.329
348.60 2.327
348.70 2.325
348.80 2.323
348.90 2.321
349.00 2.319
349.10 2.317
349.20 2.315
349.30 2.313
349.40 2.311
349.50 2.309
349.60 2.307
349.70 2.305
349.80 2.303
349.90 2.301
350.00 2.299
350.10 2.297
350.20 2.295
350.30 2.293
350.40 2.291
350.50 2.289
350.60 2.287
350.70 2.285
350.80 2.283
350.90 2.281
351.00 2.28
351.10 2.278
351.20 2.276
351.30 2.274
351.40 2.272
351.50 2.27
351.60 2.268
351.70 2.266
351.80 2.264
351.90 2.262
352.00 2.26
352.10 2.258
352.20 2.256
352.30 2.254
352.40 2.252
352.50 2.25
352.60 2.249
352.70 2.247
352.80 2.245
352.90 2.243
353.00 2.241
353.10 2.239
353.20 2.237
353.30 2.235
353.40 2.233
353.50 2.231
353.60 2.229
353.70 2.228
353.80 2.226
353.90 2.224
354.00 2.222
354.10 2.22
354.20 2.218
354.30 2.216
354.40 2.214
354.50 2.212
354.60 2.211
354.70 2.209
354.80 2.207
354.90 2.205
355.00 2.203
355.10 2.201
355.20 2.199
355.30 2.197
355.40 2.196
355.50 2.194
355.60 2.192
355.70 2.19
355.80 2.188
355.90 2.186
356.00 2.184
356.10 2.183
356.20 2.181
356.30 2.179
356.40 2.177
356.50 2.175
356.60 2.173
356.70 2.172
356.80 2.17
356.90 2.168
357.00 2.166
357.10 2.164
357.20 2.162
357.30 2.161
357.40 2.159
357.50 2.157
357.60 2.155
357.70 2.153
357.80 2.151
357.90 2.15
358.00 2.148
358.10 2.146
358.20 2.144
358.30 2.142
358.40 2.141
358.50 2.139
358.60 2.137
358.70 2.135
358.80 2.133
358.90 2.132
359.00 2.13
359.10 2.128
359.20 2.126
359.30 2.124
359.40 2.123
359.50 2.121
359.60 2.119
359.70 2.117
359.80 2.116
359.90 2.114
360.00 2.112
360.10 2.11
360.20 2.108
360.30 2.107
360.40 2.105
360.50 2.103
360.60 2.101
360.70 2.1
360.80 2.098
360.90 2.096
361.00 2.094
361.10 2.093
361.20 2.091
361.30 2.089
361.40 2.087
361.50 2.086
361.60 2.084
361.70 2.082
361.80 2.08
361.90 2.079
362.00 2.077
362.10 2.075
362.20 2.074
362.30 2.072
362.40 2.07
362.50 2.068
362.60 2.067
362.70 2.065
362.80 2.063
362.90 2.061
363.00 2.06
363.10 2.058
363.20 2.056
363.30 2.055
363.40 2.053
363.50 2.051
363.60 2.049
363.70 2.048
363.80 2.046
363.90 2.044
364.00 2.043
364.10 2.041
364.20 2.039
364.30 2.038
364.40 2.036
364.50 2.034
364.60 2.033
364.70 2.031
364.80 2.029
364.90 2.027
365.00 2.026
365.10 2.024
365.20 2.022
365.30 2.021
365.40 2.019
365.50 2.017
365.60 2.016
365.70 2.014
365.80 2.012
365.90 2.011
366.00 2.009
366.10 2.007
366.20 2.005
366.30 2.004
366.40 2.002
366.50 2
366.60 1.998
366.70 1.996
366.80 1.994
366.90 1.993
367.00 1.991
367.10 1.989
367.20 1.987
367.30 1.985
367.40 1.984
367.50 1.982
367.60 1.98
367.70 1.978
367.80 1.976
367.90 1.974
368.00 1.973
368.10 1.971
368.20 1.969
368.30 1.967
368.40 1.965
368.50 1.963
368.60 1.961
368.70 1.959
368.80 1.957
368.90 1.955
369.00 1.953
369.10 1.951
369.20 1.949
369.30 1.947
369.40 1.945
369.50 1.943
369.60 1.941
369.70 1.939
369.80 1.937
369.90 1.935
370.00 1.933
370.10 1.931
370.20 1.929
370.30 1.928
370.40 1.926
370.50 1.924
370.60 1.922
370.70 1.92
370.80 1.918
370.90 1.916
371.00 1.915
371.10 1.913
371.20 1.911
371.30 1.909
371.40 1.907
371.50 1.905
371.60 1.904
371.70 1.902
371.80 1.9
371.90 1.898
372.00 1.896
372.10 1.895
372.20 1.893
372.30 1.892
372.40 1.89
372.50 1.888
372.60 1.887
372.70 1.885
372.80 1.884
372.90 1.882
373.00 1.881
373.10 1.879
373.20 1.878
373.30 1.876
373.40 1.874
373.50 1.873
373.60 1.871
373.70 1.87
373.80 1.868
373.90 1.867
374.00 1.865
374.10 1.864
374.20 1.862
374.30 1.86
374.40 1.858
374.50 1.857
374.60 1.855
374.70 1.853
374.80 1.852
374.90 1.85
375.00 1.848
375.10 1.846
375.20 1.845
375.30 1.843
375.40 1.841
375.50 1.84
375.60 1.838
375.70 1.836
375.80 1.834
375.90 1.833
376.00 1.831
376.10 1.829
376.20 1.828
376.30 1.826
376.40 1.824
376.50 1.823
376.60 1.821
376.70 1.82
376.80 1.818
376.90 1.816
377.00 1.815
377.10 1.813
377.20 1.812
377.30 1.811
377.40 1.809
377.50 1.808
377.60 1.806
377.70 1.805
377.80 1.804
377.90 1.802
378.00 1.801
378.10 1.8
378.20 1.798
378.30 1.797
378.40 1.795
378.50 1.794
378.60 1.793
378.70 1.791
378.80 1.79
378.90 1.788
379.00 1.787
379.10 1.786
379.20 1.784
379.30 1.783
379.40 1.781
379.50 1.78
379.60 1.779
379.70 1.777
379.80 1.776
379.90 1.774
380.00 1.773
380.10 1.772
380.20 1.771
380.30 1.77
380.40 1.769
380.50 1.768
380.60 1.767
380.70 1.766
380.80 1.765
380.90 1.764
381.00 1.763
381.10 1.762
381.20 1.761
381.30 1.76
381.40 1.759
381.50 1.758
381.60 1.756
381.70 1.755
381.80 1.754
381.90 1.752
382.00 1.751
382.10 1.749
382.20 1.748
382.30 1.746
382.40 1.745
382.50 1.743
382.60 1.741
382.70 1.74
382.80 1.738
382.90 1.736
383.00 1.735
383.10 1.733
383.20 1.732
383.30 1.73
383.40 1.728
383.50 1.727
383.60 1.726
383.70 1.726
383.80 1.726
383.90 1.726
384.00 1.726
384.10 1.726
384.20 1.726
384.30 1.726
384.40 1.726
384.50 1.726
384.60 1.726
384.70 1.726
384.80 1.726
384.90 1.725
385.00 1.725
385.10 1.725
385.20 1.724
385.30 1.724
385.40 1.723
385.50 1.722
385.60 1.721
385.70 1.72
385.80 1.72
385.90 1.719
386.00 1.717
386.10 1.716
386.20 1.715
386.30 1.713
386.40 1.712
386.50 1.71
386.60 1.709
386.70 1.707
386.80 1.705
386.90 1.703
387.00 1.701
387.10 1.699
387.20 1.697
387.30 1.695
387.40 1.692
387.50 1.69
387.60 1.688
387.70 1.685
387.80 1.682
387.90 1.68
388.00 1.677
388.10 1.674
388.20 1.672
388.30 1.669
388.40 1.666
388.50 1.664
388.60 1.661
388.70 1.659
388.80 1.657
388.90 1.655
389.00 1.656
389.10 1.657
389.20 1.658
389.30 1.66
389.40 1.662
389.50 1.663
389.60 1.665
389.70 1.667
389.80 1.669
389.90 1.671
390.00 1.672
390.10 1.674
390.20 1.676
390.30 1.677
390.40 1.678
390.50 1.68
390.60 1.681
390.70 1.682
390.80 1.683
390.90 1.684
391.00 1.685
391.10 1.685
391.20 1.686
391.30 1.686
391.40 1.686
391.50 1.686
391.60 1.686
391.70 1.686
391.80 1.686
391.90 1.686
392.00 1.685
392.10 1.684
392.20 1.683
392.30 1.682
392.40 1.681
392.50 1.68
392.60 1.678
392.70 1.676
392.80 1.675
392.90 1.673
393.00 1.67
393.10 1.668
393.20 1.666
393.30 1.663
393.40 1.66
393.50 1.657
393.60 1.654
393.70 1.651
393.80 1.647
393.90 1.644
394.00 1.64
394.10 1.636
394.20 1.632
394.30 1.627
394.40 1.623
394.50 1.618
394.60 1.613
394.70 1.608
394.80 1.603
394.90 1.598
395.00 1.592
395.10 1.586
395.20 1.58
395.30 1.574
395.40 1.568
395.50 1.562
395.60 1.555
395.70 1.549
395.80 1.542
395.90 1.535
396.00 1.528
396.10 1.521
396.20 1.514
396.30 1.506
396.40 1.499
396.50 1.491
396.60 1.484
396.70 1.476
396.80 1.469
396.90 1.462
397.00 1.455
397.10 1.46
397.20 1.466
397.30 1.473
397.40 1.479
397.50 1.486
397.60 1.493
397.70 1.5
397.80 1.506
397.90 1.513
398.00 1.519
398.10 1.526
398.20 1.532
398.30 1.538
398.40 1.544
398.50 1.55
398.60 1.556
398.70 1.561
398.80 1.567
398.90 1.572
399.00 1.577
399.10 1.582
399.20 1.587
399.30 1.592
399.40 1.596
399.50 1.601
399.60 1.605
399.70 1.609
399.80 1.613
399.90 1.617
400.00 1.62
400.10 1.624
400.20 1.627
400.30 1.63
400.40 1.633
400.50 1.636
400.60 1.639
400.70 1.641
400.80 1.643
400.90 1.646
401.00 1.648
401.10 1.649
401.20 1.651
401.30 1.653
401.40 1.654
401.50 1.655
401.60 1.656
401.70 1.657
401.80 1.658
401.90 1.658
402.00 1.658
402.10 1.659
402.20 1.659
402.30 1.659
402.40 1.658
402.50 1.658
402.60 1.657
402.70 1.656
402.80 1.655
402.90 1.654
403.00 1.653
403.10 1.652
403.20 1.65
403.30 1.648
403.40 1.646
403.50 1.644
403.60 1.642
403.70 1.639
403.80 1.637
403.90 1.634
404.00 1.631
404.10 1.628
404.20 1.625
404.30 1.621
404.40 1.618
404.50 1.614
404.60 1.61
404.70 1.606
404.80 1.601
404.90 1.597
405.00 1.592
405.10 1.587
405.20 1.582
405.30 1.577
405.40 1.571
405.50 1.566
405.60 1.56
405.70 1.554
405.80 1.548
405.90 1.542
406.00 1.535
406.10 1.528
406.20 1.521
406.30 1.514
406.40 1.507
406.50 1.5
406.60 1.492
406.70 1.484
406.80 1.476
406.90 1.468
407.00 1.46
407.10 1.451
407.20 1.443
407.30 1.434
407.40 1.425
407.50 1.416
407.60 1.406
407.70 1.396
407.80 1.387
407.90 1.377
408.00 1.367
408.10 1.356
408.20 1.346
408.30 1.335
408.40 1.325
408.50 1.314
408.60 1.303
408.70 1.292
408.80 1.28
408.90 1.269
409.00 1.257
409.10 1.246
409.20 1.234
409.30 1.222
409.40 1.211
409.50 1.199
409.60 1.187
409.70 1.176
409.80 1.165
409.90 1.155
410.00 1.147
410.10 1.142
410.20 1.14
410.30 1.143
410.40 1.148
410.50 1.156
410.60 1.166
410.70 1.176
410.80 1.186
410.90 1.196
411.00 1.207
411.10 1.217
411.20 1.227
411.30 1.238
411.40 1.248
411.50 1.258
411.60 1.268
411.70 1.278
411.80 1.288
411.90 1.297
412.00 1.307
412.10 1.316
412.20 1.325
412.30 1.334
412.40 1.343
412.50 1.352
412.60 1.36
412.70 1.369
412.80 1.377
412.90 1.385
413.00 1.393
413.10 1.401
413.20 1.408
413.30 1.416
413.40 1.423
413.50 1.43
413.60 1.437
413.70 1.444
413.80 1.451
413.90 1.458
414.00 1.464
414.10 1.47
414.20 1.477
414.30 1.483
414.40 1.489
414.50 1.494
414.60 1.5
414.70 1.505
414.80 1.511
414.90 1.516
415.00 1.521
415.10 1.526
415.20 1.531
415.30 1.536
415.40 1.54
415.50 1.544
415.60 1.549
415.70 1.553
415.80 1.557
415.90 1.561
416.00 1.565
416.10 1.569
416.20 1.572
416.30 1.576
416.40 1.579
416.50 1.582
416.60 1.585
416.70 1.589
416.80 1.591
416.90 1.594
417.00 1.597
417.10 1.6
417.20 1.602
417.30 1.605
417.40 1.607
417.50 1.609
417.60 1.611
417.70 1.613
417.80 1.615
417.90 1.617
418.00 1.619
418.10 1.621
418.20 1.622
418.30 1.624
418.40 1.625
418.50 1.626
418.60 1.628
418.70 1.629
418.80 1.63
418.90 1.631
419.00 1.632
419.10 1.632
419.20 1.633
419.30 1.634
419.40 1.634
419.50 1.635
419.60 1.635
419.70 1.636
419.80 1.636
419.90 1.636
420.00 1.636
420.10 1.636
420.20 1.636
420.30 1.636
420.40 1.636
420.50 1.635
420.60 1.635
420.70 1.635
420.80 1.634
420.90 1.633
421.00 1.633
421.10 1.632
421.20 1.631
421.30 1.63
421.40 1.629
421.50 1.628
421.60 1.627
421.70 1.626
421.80 1.625
421.90 1.624
422.00 1.622
422.10 1.621
422.20 1.619
422.30 1.618
422.40 1.616
422.50 1.614
422.60 1.612
422.70 1.61
422.80 1.609
422.90 1.606
423.00 1.604
423.10 1.602
423.20 1.6
423.30 1.598
423.40 1.595
423.50 1.593
423.60 1.59
423.70 1.587
423.80 1.585
423.90 1.582
424.00 1.579
424.10 1.576
424.20 1.573
424.30 1.57
424.40 1.567
424.50 1.563
424.60 1.56
424.70 1.557
424.80 1.553
424.90 1.55
425.00 1.546
425.10 1.542
425.20 1.538
425.30 1.534
425.40 1.53
425.50 1.526
425.60 1.522
425.70 1.518
425.80 1.514
425.90 1.509
426.00 1.505
426.10 1.5
426.20 1.495
426.30 1.49
426.40 1.486
426.50 1.481
426.60 1.476
426.70 1.47
426.80 1.465
426.90 1.46
427.00 1.454
427.10 1.449
427.20 1.443
427.30 1.438
427.40 1.432
427.50 1.426
427.60 1.42
427.70 1.414
427.80 1.408
427.90 1.401
428.00 1.395
428.10 1.389
428.20 1.382
428.30 1.375
428.40 1.369
428.50 1.362
428.60 1.355
428.70 1.348
428.80 1.341
428.90 1.334
429.00 1.326
429.10 1.319
429.20 1.311
429.30 1.304
429.40 1.296
429.50 1.288
429.60 1.28
429.70 1.272
429.80 1.264
429.90 1.256
430.00 1.248
430.10 1.239
430.20 1.231
430.30 1.222
430.40 1.214
430.50 1.205
430.60 1.196
430.70 1.187
430.80 1.178
430.90 1.169
431.00 1.159
431.10 1.15
431.20 1.141
431.30 1.131
431.40 1.121
431.50 1.112
431.60 1.102
431.70 1.092
431.80 1.082
431.90 1.071
432.00 1.061
432.10 1.05
432.20 1.04
432.30 1.029
432.40 1.018
432.50 1.007
432.60 0.9956
432.70 0.9842
432.80 0.9726
432.90 0.9608
433.00 0.9488
433.10 0.9364
433.20 0.9237
433.30 0.9107
433.40 0.897
433.50 0.8827
433.60 0.8679
433.70 0.8512
433.80 0.8324
433.90 0.8115
434.00 0.7788
434.10 0.779
434.20 0.8121
434.30 0.8317
434.40 0.8493
434.50 0.8649
434.60 0.8786
434.70 0.8917
434.80 0.9043
434.90 0.9161
435.00 0.9276
435.10 0.9388
435.20 0.9496
435.30 0.9602
435.40 0.9706
435.50 0.9807
435.60 0.9906
435.70 1
435.80 1.01
435.90 1.019
436.00 1.029
436.10 1.038
436.20 1.047
436.30 1.055
436.40 1.064
436.50 1.073
436.60 1.081
436.70 1.089
436.80 1.097
436.90 1.106
437.00 1.113
437.10 1.121
437.20 1.129
437.30 1.136
437.40 1.144
437.50 1.151
437.60 1.158
437.70 1.166
437.80 1.173
437.90 1.18
438.00 1.186
438.10 1.193
438.20 1.2
438.30 1.206
438.40 1.213
438.50 1.219
438.60 1.225
438.70 1.231
438.80 1.237
438.90 1.243
439.00 1.249
439.10 1.255
439.20 1.26
439.30 1.266
439.40 1.271
439.50 1.277
439.60 1.282
439.70 1.287
439.80 1.292
439.90 1.297
440.00 1.302
440.10 1.307
440.20 1.311
440.30 1.316
440.40 1.321
440.50 1.325
440.60 1.329
440.70 1.334
440.80 1.338
440.90 1.342
441.00 1.346
441.10 1.35
441.20 1.354
441.30 1.358
441.40 1.361
441.50 1.365
441.60 1.368
441.70 1.372
441.80 1.375
441.90 1.378
442.00 1.382
442.10 1.385
442.20 1.388
442.30 1.391
442.40 1.394
442.50 1.397
442.60 1.4
442.70 1.402
442.80 1.405
442.90 1.407
443.00 1.41
443.10 1.412
443.20 1.415
443.30 1.417
443.40 1.419
443.50 1.422
443.60 1.424
443.70 1.426
443.80 1.428
443.90 1.43
444.00 1.432
444.10 1.434
444.20 1.436
444.30 1.437
444.40 1.439
444.50 1.441
444.60 1.442
444.70 1.444
444.80 1.445
444.90 1.447
445.00 1.448
445.10 1.45
445.20 1.451
445.30 1.452
445.40 1.453
445.50 1.455
445.60 1.456
445.70 1.457
445.80 1.458
445.90 1.459
446.00 1.46
446.10 1.461
446.20 1.462
446.30 1.463
446.40 1.463
446.50 1.464
446.60 1.465
446.70 1.466
446.80 1.466
446.90 1.467
447.00 1.468
447.10 1.468
447.20 1.469
447.30 1.469
447.40 1.47
447.50 1.47
447.60 1.471
447.70 1.471
447.80 1.471
447.90 1.472
448.00 1.472
448.10 1.472
448.20 1.473
448.30 1.473
448.40 1.473
448.50 1.473
448.60 1.473
448.70 1.474
448.80 1.474
448.90 1.474
449.00 1.474
449.10 1.474
449.20 1.474
449.30 1.474
449.40 1.474
449.50 1.474
449.60 1.474
449.70 1.474
449.80 1.473
449.90 1.473
450.00 1.473
450.10 1.473
450.20 1.473
450.30 1.473
450.40 1.472
450.50 1.472
450.60 1.472
450.70 1.472
450.80 1.471
450.90 1.471
451.00 1.471
451.10 1.47
451.20 1.47
451.30 1.47
451.40 1.469
451.50 1.469
451.60 1.468
451.70 1.468
451.80 1.467
451.90 1.467
452.00 1.466
452.10 1.466
452.20 1.465
452.30 1.465
452.40 1.464
452.50 1.464
452.60 1.463
452.70 1.463
452.80 1.462
452.90 1.461
453.00 1.461
453.10 1.46
453.20 1.46
453.30 1.459
453.40 1.458
453.50 1.458
453.60 1.457
453.70 1.456
453.80 1.455
