# Version 2.1 - nm, norm@500 to 1, cut digits, bergeron_3000_90.dat_3000
# Wavelength(nm)  Flambda(ergs/cm^s/s/nm)
300.00 0.1255
300.10 0.1258
300.20 0.1261
300.30 0.1264
300.40 0.1266
300.50 0.1269
300.60 0.1272
300.70 0.1275
300.80 0.1277
300.90 0.128
301.00 0.1283
301.10 0.1286
301.20 0.1288
301.30 0.1291
301.40 0.1294
301.50 0.1297
301.60 0.1299
301.70 0.1302
301.80 0.1305
301.90 0.1308
302.00 0.131
302.10 0.1313
302.20 0.1316
302.30 0.1319
302.40 0.1322
302.50 0.1325
302.60 0.1328
302.70 0.133
302.80 0.1333
302.90 0.1336
303.00 0.1339
303.10 0.1342
303.20 0.1344
303.30 0.1347
303.40 0.135
303.50 0.1353
303.60 0.1356
303.70 0.1359
303.80 0.1361
303.90 0.1364
304.00 0.1367
304.10 0.137
304.20 0.1373
304.30 0.1376
304.40 0.1379
304.50 0.1382
304.60 0.1384
304.70 0.1387
304.80 0.139
304.90 0.1393
305.00 0.1396
305.10 0.1399
305.20 0.1402
305.30 0.1405
305.40 0.1408
305.50 0.141
305.60 0.1413
305.70 0.1416
305.80 0.1419
305.90 0.1422
306.00 0.1425
306.10 0.1428
306.20 0.1431
306.30 0.1434
306.40 0.1437
306.50 0.144
306.60 0.1443
306.70 0.1446
306.80 0.1449
306.90 0.1452
307.00 0.1455
307.10 0.1458
307.20 0.1461
307.30 0.1463
307.40 0.1466
307.50 0.1469
307.60 0.1472
307.70 0.1475
307.80 0.1478
307.90 0.1481
308.00 0.1484
308.10 0.1487
308.20 0.149
308.30 0.1493
308.40 0.1496
308.50 0.1499
308.60 0.1502
308.70 0.1505
308.80 0.1508
308.90 0.1511
309.00 0.1515
309.10 0.1518
309.20 0.1521
309.30 0.1524
309.40 0.1527
309.50 0.153
309.60 0.1533
309.70 0.1536
309.80 0.1539
309.90 0.1542
310.00 0.1545
310.10 0.1548
310.20 0.1551
310.30 0.1554
310.40 0.1557
310.50 0.156
310.60 0.1563
310.70 0.1566
310.80 0.157
310.90 0.1573
311.00 0.1576
311.10 0.1579
311.20 0.1582
311.30 0.1585
311.40 0.1588
311.50 0.1591
311.60 0.1594
311.70 0.1597
311.80 0.16
311.90 0.1604
312.00 0.1607
312.10 0.161
312.20 0.1613
312.30 0.1616
312.40 0.1619
312.50 0.1622
312.60 0.1625
312.70 0.1629
312.80 0.1632
312.90 0.1635
313.00 0.1638
313.10 0.1641
313.20 0.1644
313.30 0.1648
313.40 0.1651
313.50 0.1654
313.60 0.1657
313.70 0.166
313.80 0.1663
313.90 0.1666
314.00 0.167
314.10 0.1673
314.20 0.1676
314.30 0.1679
314.40 0.1683
314.50 0.1686
314.60 0.1689
314.70 0.1692
314.80 0.1695
314.90 0.1699
315.00 0.1702
315.10 0.1705
315.20 0.1708
315.30 0.1712
315.40 0.1715
315.50 0.1718
315.60 0.1721
315.70 0.1724
315.80 0.1728
315.90 0.1731
316.00 0.1734
316.10 0.1737
316.20 0.1741
316.30 0.1744
316.40 0.1747
316.50 0.1751
316.60 0.1754
316.70 0.1757
316.80 0.176
316.90 0.1764
317.00 0.1767
317.10 0.177
317.20 0.1774
317.30 0.1777
317.40 0.178
317.50 0.1783
317.60 0.1787
317.70 0.179
317.80 0.1793
317.90 0.1796
318.00 0.18
318.10 0.1803
318.20 0.1806
318.30 0.181
318.40 0.1813
318.50 0.1817
318.60 0.182
318.70 0.1823
318.80 0.1827
318.90 0.183
319.00 0.1833
319.10 0.1837
319.20 0.184
319.30 0.1843
319.40 0.1847
319.50 0.185
319.60 0.1853
319.70 0.1857
319.80 0.186
319.90 0.1863
320.00 0.1867
320.10 0.187
320.20 0.1873
320.30 0.1877
320.40 0.188
320.50 0.1884
320.60 0.1887
320.70 0.1891
320.80 0.1894
320.90 0.1897
321.00 0.1901
321.10 0.1904
321.20 0.1908
321.30 0.1911
321.40 0.1914
321.50 0.1918
321.60 0.1921
321.70 0.1925
321.80 0.1928
321.90 0.1931
322.00 0.1935
322.10 0.1938
322.20 0.1942
322.30 0.1945
322.40 0.1949
322.50 0.1952
322.60 0.1956
322.70 0.1959
322.80 0.1963
322.90 0.1966
323.00 0.197
323.10 0.1973
323.20 0.1977
323.30 0.198
323.40 0.1984
323.50 0.1987
323.60 0.199
323.70 0.1994
323.80 0.1997
323.90 0.2001
324.00 0.2004
324.10 0.2008
324.20 0.2011
324.30 0.2015
324.40 0.2018
324.50 0.2022
324.60 0.2025
324.70 0.2029
324.80 0.2033
324.90 0.2036
325.00 0.204
325.10 0.2043
325.20 0.2047
325.30 0.205
325.40 0.2054
325.50 0.2057
325.60 0.2061
325.70 0.2064
325.80 0.2068
325.90 0.2071
326.00 0.2075
326.10 0.2078
326.20 0.2082
326.30 0.2086
326.40 0.2089
326.50 0.2093
326.60 0.2096
326.70 0.21
326.80 0.2104
326.90 0.2107
327.00 0.2111
327.10 0.2114
327.20 0.2118
327.30 0.2122
327.40 0.2125
327.50 0.2129
327.60 0.2132
327.70 0.2136
327.80 0.2139
327.90 0.2143
328.00 0.2147
328.10 0.215
328.20 0.2154
328.30 0.2158
328.40 0.2161
328.50 0.2165
328.60 0.2169
328.70 0.2172
328.80 0.2176
328.90 0.218
329.00 0.2183
329.10 0.2187
329.20 0.219
329.30 0.2194
329.40 0.2198
329.50 0.2201
329.60 0.2205
329.70 0.2209
329.80 0.2212
329.90 0.2216
330.00 0.2219
330.10 0.2223
330.20 0.2227
330.30 0.2231
330.40 0.2234
330.50 0.2238
330.60 0.2242
330.70 0.2246
330.80 0.2249
330.90 0.2253
331.00 0.2257
331.10 0.226
331.20 0.2264
331.30 0.2268
331.40 0.2271
331.50 0.2275
331.60 0.2279
331.70 0.2283
331.80 0.2286
331.90 0.229
332.00 0.2294
332.10 0.2297
332.20 0.2301
332.30 0.2305
332.40 0.2309
332.50 0.2312
332.60 0.2316
332.70 0.232
332.80 0.2324
332.90 0.2328
333.00 0.2331
333.10 0.2335
333.20 0.2339
333.30 0.2343
333.40 0.2346
333.50 0.235
333.60 0.2354
333.70 0.2358
333.80 0.2361
333.90 0.2365
334.00 0.2369
334.10 0.2373
334.20 0.2376
334.30 0.238
334.40 0.2384
334.50 0.2388
334.60 0.2392
334.70 0.2396
334.80 0.2399
334.90 0.2403
335.00 0.2407
335.10 0.2411
335.20 0.2415
335.30 0.2419
335.40 0.2422
335.50 0.2426
335.60 0.243
335.70 0.2434
335.80 0.2437
335.90 0.2441
336.00 0.2445
336.10 0.2449
336.20 0.2453
336.30 0.2457
336.40 0.2461
336.50 0.2465
336.60 0.2468
336.70 0.2472
336.80 0.2476
336.90 0.248
337.00 0.2484
337.10 0.2488
337.20 0.2492
337.30 0.2496
337.40 0.2499
337.50 0.2503
337.60 0.2507
337.70 0.2511
337.80 0.2515
337.90 0.2519
338.00 0.2522
338.10 0.2526
338.20 0.253
338.30 0.2534
338.40 0.2538
338.50 0.2542
338.60 0.2546
338.70 0.255
338.80 0.2554
338.90 0.2558
339.00 0.2562
339.10 0.2566
339.20 0.257
339.30 0.2574
339.40 0.2578
339.50 0.2581
339.60 0.2585
339.70 0.2589
339.80 0.2593
339.90 0.2597
340.00 0.2601
340.10 0.2605
340.20 0.2609
340.30 0.2613
340.40 0.2617
340.50 0.2621
340.60 0.2625
340.70 0.2629
340.80 0.2633
340.90 0.2637
341.00 0.2641
341.10 0.2645
341.20 0.2649
341.30 0.2653
341.40 0.2657
341.50 0.2661
341.60 0.2665
341.70 0.2669
341.80 0.2673
341.90 0.2676
342.00 0.268
342.10 0.2684
342.20 0.2689
342.30 0.2693
342.40 0.2697
342.50 0.2701
342.60 0.2705
342.70 0.2709
342.80 0.2713
342.90 0.2717
343.00 0.2721
343.10 0.2725
343.20 0.2729
343.30 0.2733
343.40 0.2737
343.50 0.2741
343.60 0.2745
343.70 0.2749
343.80 0.2753
343.90 0.2757
344.00 0.2761
344.10 0.2765
344.20 0.2769
344.30 0.2773
344.40 0.2777
344.50 0.2781
344.60 0.2785
344.70 0.279
344.80 0.2794
344.90 0.2798
345.00 0.2802
345.10 0.2806
345.20 0.281
345.30 0.2814
345.40 0.2818
345.50 0.2822
345.60 0.2826
345.70 0.283
345.80 0.2834
345.90 0.2838
346.00 0.2842
346.10 0.2846
346.20 0.2851
346.30 0.2855
346.40 0.2859
346.50 0.2863
346.60 0.2867
346.70 0.2871
346.80 0.2876
346.90 0.288
347.00 0.2884
347.10 0.2888
347.20 0.2892
347.30 0.2896
347.40 0.29
347.50 0.2904
347.60 0.2908
347.70 0.2913
347.80 0.2917
347.90 0.2921
348.00 0.2925
348.10 0.2929
348.20 0.2933
348.30 0.2937
348.40 0.2942
348.50 0.2946
348.60 0.295
348.70 0.2954
348.80 0.2958
348.90 0.2963
349.00 0.2967
349.10 0.2971
349.20 0.2975
349.30 0.2979
349.40 0.2983
349.50 0.2987
349.60 0.2992
349.70 0.2996
349.80 0.3
349.90 0.3004
350.00 0.3008
350.10 0.3012
350.20 0.3017
350.30 0.3021
350.40 0.3025
350.50 0.3029
350.60 0.3034
350.70 0.3038
350.80 0.3042
350.90 0.3046
351.00 0.3051
351.10 0.3055
351.20 0.3059
351.30 0.3063
351.40 0.3067
351.50 0.3072
351.60 0.3076
351.70 0.308
351.80 0.3084
351.90 0.3088
352.00 0.3092
352.10 0.3097
352.20 0.3101
352.30 0.3105
352.40 0.311
352.50 0.3114
352.60 0.3118
352.70 0.3122
352.80 0.3127
352.90 0.3131
353.00 0.3135
353.10 0.314
353.20 0.3144
353.30 0.3148
353.40 0.3152
353.50 0.3157
353.60 0.3161
353.70 0.3165
353.80 0.3169
353.90 0.3173
354.00 0.3178
354.10 0.3182
354.20 0.3186
354.30 0.3191
354.40 0.3195
354.50 0.3199
354.60 0.3204
354.70 0.3208
354.80 0.3212
354.90 0.3217
355.00 0.3221
355.10 0.3225
355.20 0.3229
355.30 0.3234
355.40 0.3238
355.50 0.3242
355.60 0.3247
355.70 0.3251
355.80 0.3255
355.90 0.3259
356.00 0.3264
356.10 0.3268
356.20 0.3272
356.30 0.3277
356.40 0.3281
356.50 0.3286
356.60 0.329
356.70 0.3294
356.80 0.3299
356.90 0.3303
357.00 0.3307
357.10 0.3312
357.20 0.3316
357.30 0.332
357.40 0.3325
357.50 0.3329
357.60 0.3333
357.70 0.3338
357.80 0.3342
357.90 0.3346
358.00 0.3351
358.10 0.3355
358.20 0.3359
358.30 0.3364
358.40 0.3368
358.50 0.3373
358.60 0.3377
358.70 0.3381
358.80 0.3386
358.90 0.339
359.00 0.3395
359.10 0.3399
359.20 0.3403
359.30 0.3408
359.40 0.3412
359.50 0.3416
359.60 0.3421
359.70 0.3425
359.80 0.343
359.90 0.3434
360.00 0.3438
360.10 0.3443
360.20 0.3447
360.30 0.3452
360.40 0.3456
360.50 0.346
360.60 0.3465
360.70 0.3469
360.80 0.3474
360.90 0.3478
361.00 0.3483
361.10 0.3487
361.20 0.3492
361.30 0.3496
361.40 0.35
361.50 0.3505
361.60 0.3509
361.70 0.3513
361.80 0.3518
361.90 0.3522
362.00 0.3527
362.10 0.3531
362.20 0.3536
362.30 0.354
362.40 0.3544
362.50 0.3549
362.60 0.3553
362.70 0.3558
362.80 0.3562
362.90 0.3567
363.00 0.3571
363.10 0.3576
363.20 0.358
363.30 0.3585
363.40 0.3589
363.50 0.3594
363.60 0.3598
363.70 0.3603
363.80 0.3607
363.90 0.3612
364.00 0.3616
364.10 0.362
364.20 0.3625
364.30 0.3629
364.40 0.3634
364.50 0.3638
364.60 0.3643
364.70 0.3647
364.80 0.3652
364.90 0.3656
365.00 0.3661
365.10 0.3665
365.20 0.367
365.30 0.3674
365.40 0.3679
365.50 0.3683
365.60 0.3688
365.70 0.3692
365.80 0.3697
365.90 0.3701
366.00 0.3706
366.10 0.371
366.20 0.3715
366.30 0.3719
366.40 0.3724
366.50 0.3729
366.60 0.3733
366.70 0.3738
366.80 0.3742
366.90 0.3747
367.00 0.3751
367.10 0.3756
367.20 0.376
367.30 0.3765
367.40 0.3769
367.50 0.3774
367.60 0.3778
367.70 0.3783
367.80 0.3787
367.90 0.3792
368.00 0.3796
368.10 0.3801
368.20 0.3806
368.30 0.381
368.40 0.3815
368.50 0.3819
368.60 0.3824
368.70 0.3829
368.80 0.3833
368.90 0.3838
369.00 0.3842
369.10 0.3847
369.20 0.3851
369.30 0.3856
369.40 0.3861
369.50 0.3865
369.60 0.387
369.70 0.3874
369.80 0.3879
369.90 0.3883
370.00 0.3888
370.10 0.3892
370.20 0.3897
370.30 0.3902
370.40 0.3906
370.50 0.3911
370.60 0.3915
370.70 0.392
370.80 0.3925
370.90 0.3929
371.00 0.3934
371.10 0.3939
371.20 0.3943
371.30 0.3948
371.40 0.3952
371.50 0.3957
371.60 0.3961
371.70 0.3966
371.80 0.3971
371.90 0.3975
372.00 0.398
372.10 0.3984
372.20 0.3989
372.30 0.3994
372.40 0.3998
372.50 0.4003
372.60 0.4008
372.70 0.4012
372.80 0.4017
372.90 0.4021
373.00 0.4026
373.10 0.4031
373.20 0.4035
373.30 0.404
373.40 0.4044
373.50 0.4049
373.60 0.4054
373.70 0.4058
373.80 0.4063
373.90 0.4067
374.00 0.4072
374.10 0.4077
374.20 0.4081
374.30 0.4086
374.40 0.4091
374.50 0.4096
374.60 0.41
374.70 0.4105
374.80 0.411
374.90 0.4114
375.00 0.4119
375.10 0.4124
375.20 0.4128
375.30 0.4133
375.40 0.4138
375.50 0.4142
375.60 0.4147
375.70 0.4151
375.80 0.4156
375.90 0.4161
376.00 0.4165
376.10 0.417
376.20 0.4175
376.30 0.4179
376.40 0.4184
376.50 0.4189
376.60 0.4194
376.70 0.4198
376.80 0.4203
376.90 0.4208
377.00 0.4212
377.10 0.4217
377.20 0.4222
377.30 0.4226
377.40 0.4231
377.50 0.4236
377.60 0.424
377.70 0.4245
377.80 0.425
377.90 0.4254
378.00 0.4259
378.10 0.4264
378.20 0.4268
378.30 0.4273
378.40 0.4278
378.50 0.4283
378.60 0.4287
378.70 0.4292
378.80 0.4297
378.90 0.4301
379.00 0.4306
379.10 0.4311
379.20 0.4316
379.30 0.432
379.40 0.4325
379.50 0.433
379.60 0.4334
379.70 0.4339
379.80 0.4344
379.90 0.4349
380.00 0.4353
380.10 0.4358
380.20 0.4363
380.30 0.4367
380.40 0.4372
380.50 0.4377
380.60 0.4382
380.70 0.4386
380.80 0.4391
380.90 0.4396
381.00 0.44
381.10 0.4405
381.20 0.441
381.30 0.4415
381.40 0.4419
381.50 0.4424
381.60 0.4429
381.70 0.4433
381.80 0.4438
381.90 0.4443
382.00 0.4448
382.10 0.4453
382.20 0.4458
382.30 0.4462
382.40 0.4467
382.50 0.4472
382.60 0.4477
382.70 0.4481
382.80 0.4486
382.90 0.4491
383.00 0.4495
383.10 0.45
383.20 0.4505
383.30 0.451
383.40 0.4514
383.50 0.4519
383.60 0.4524
383.70 0.4529
383.80 0.4534
383.90 0.4538
384.00 0.4543
384.10 0.4548
384.20 0.4552
384.30 0.4557
384.40 0.4562
384.50 0.4567
384.60 0.4572
384.70 0.4576
384.80 0.4581
384.90 0.4586
385.00 0.4591
385.10 0.4596
385.20 0.46
385.30 0.4605
385.40 0.461
385.50 0.4615
385.60 0.4619
385.70 0.4624
385.80 0.4629
385.90 0.4634
386.00 0.4639
386.10 0.4643
386.20 0.4648
386.30 0.4653
386.40 0.4658
386.50 0.4663
386.60 0.4667
386.70 0.4672
386.80 0.4677
386.90 0.4682
387.00 0.4687
387.10 0.4691
387.20 0.4696
387.30 0.4701
387.40 0.4706
387.50 0.4711
387.60 0.4716
387.70 0.472
387.80 0.4725
387.90 0.473
388.00 0.4735
388.10 0.4739
388.20 0.4744
388.30 0.4749
388.40 0.4754
388.50 0.4759
388.60 0.4764
388.70 0.4768
388.80 0.4773
388.90 0.4778
389.00 0.4783
389.10 0.4787
389.20 0.4792
389.30 0.4797
389.40 0.4802
389.50 0.4807
389.60 0.4812
389.70 0.4817
389.80 0.4822
389.90 0.4826
390.00 0.4831
390.10 0.4836
390.20 0.4841
390.30 0.4846
390.40 0.485
390.50 0.4855
390.60 0.486
390.70 0.4865
390.80 0.487
390.90 0.4875
391.00 0.4879
391.10 0.4884
391.20 0.4889
391.30 0.4894
391.40 0.4899
391.50 0.4904
391.60 0.4909
391.70 0.4913
391.80 0.4918
391.90 0.4923
392.00 0.4928
392.10 0.4932
392.20 0.4937
392.30 0.4942
392.40 0.4947
392.50 0.4952
392.60 0.4957
392.70 0.4962
392.80 0.4967
392.90 0.4971
393.00 0.4976
393.10 0.4981
393.20 0.4986
393.30 0.4991
393.40 0.4996
393.50 0.5001
393.60 0.5005
393.70 0.501
393.80 0.5015
393.90 0.502
394.00 0.5025
394.10 0.503
394.20 0.5035
394.30 0.5039
394.40 0.5044
394.50 0.5049
394.60 0.5054
394.70 0.5059
394.80 0.5064
394.90 0.5069
395.00 0.5074
395.10 0.5078
395.20 0.5083
395.30 0.5088
395.40 0.5093
395.50 0.5098
395.60 0.5103
395.70 0.5108
395.80 0.5112
395.90 0.5117
396.00 0.5122
396.10 0.5127
396.20 0.5132
396.30 0.5137
396.40 0.5142
396.50 0.5147
396.60 0.5151
396.70 0.5156
396.80 0.5161
396.90 0.5166
397.00 0.5171
397.10 0.5176
397.20 0.5181
397.30 0.5186
397.40 0.5191
397.50 0.5195
397.60 0.52
397.70 0.5205
397.80 0.521
397.90 0.5215
398.00 0.522
398.10 0.5225
398.20 0.523
398.30 0.5235
398.40 0.5239
398.50 0.5244
398.60 0.5249
398.70 0.5254
398.80 0.5259
398.90 0.5264
399.00 0.5269
399.10 0.5274
399.20 0.5279
399.30 0.5284
399.40 0.5288
399.50 0.5293
399.60 0.5298
399.70 0.5303
399.80 0.5308
399.90 0.5313
400.00 0.5318
400.10 0.5323
400.20 0.5328
400.30 0.5332
400.40 0.5337
400.50 0.5342
400.60 0.5347
400.70 0.5352
400.80 0.5357
400.90 0.5362
401.00 0.5367
401.10 0.5372
401.20 0.5377
401.30 0.5381
401.40 0.5386
401.50 0.5391
401.60 0.5396
401.70 0.5401
401.80 0.5406
401.90 0.5411
402.00 0.5416
402.10 0.5421
402.20 0.5426
402.30 0.5431
402.40 0.5435
402.50 0.544
402.60 0.5445
402.70 0.545
402.80 0.5455
402.90 0.546
403.00 0.5465
403.10 0.547
403.20 0.5475
403.30 0.548
403.40 0.5484
403.50 0.5489
403.60 0.5495
403.70 0.55
403.80 0.5504
403.90 0.5509
404.00 0.5514
404.10 0.5519
404.20 0.5524
404.30 0.5529
404.40 0.5534
404.50 0.5539
404.60 0.5544
404.70 0.5549
404.80 0.5553
404.90 0.5558
405.00 0.5563
405.10 0.5568
405.20 0.5573
405.30 0.5578
405.40 0.5583
405.50 0.5588
405.60 0.5593
405.70 0.5598
405.80 0.5603
405.90 0.5608
406.00 0.5612
406.10 0.5617
406.20 0.5622
406.30 0.5627
406.40 0.5632
406.50 0.5637
406.60 0.5642
406.70 0.5647
406.80 0.5652
406.90 0.5657
407.00 0.5662
407.10 0.5667
407.20 0.5672
407.30 0.5677
407.40 0.5681
407.50 0.5686
407.60 0.5691
407.70 0.5696
407.80 0.5701
407.90 0.5706
408.00 0.5711
408.10 0.5716
408.20 0.5721
408.30 0.5726
408.40 0.5731
408.50 0.5736
408.60 0.5741
408.70 0.5746
408.80 0.5751
408.90 0.5756
409.00 0.576
409.10 0.5765
409.20 0.577
409.30 0.5775
409.40 0.578
409.50 0.5785
409.60 0.579
409.70 0.5795
409.80 0.58
409.90 0.5805
410.00 0.581
410.10 0.5815
410.20 0.582
410.30 0.5825
410.40 0.583
410.50 0.5835
410.60 0.584
410.70 0.5844
410.80 0.5849
410.90 0.5854
411.00 0.5859
411.10 0.5864
411.20 0.5869
411.30 0.5874
411.40 0.5879
411.50 0.5884
411.60 0.5889
411.70 0.5894
411.80 0.5899
411.90 0.5904
412.00 0.5909
412.10 0.5914
412.20 0.5918
412.30 0.5923
412.40 0.5928
412.50 0.5933
412.60 0.5938
412.70 0.5943
412.80 0.5948
412.90 0.5953
413.00 0.5958
413.10 0.5963
413.20 0.5968
413.30 0.5973
413.40 0.5978
413.50 0.5983
413.60 0.5988
413.70 0.5993
413.80 0.5998
413.90 0.6002
414.00 0.6007
414.10 0.6012
414.20 0.6017
414.30 0.6022
414.40 0.6027
414.50 0.6032
414.60 0.6037
414.70 0.6042
414.80 0.6047
414.90 0.6052
415.00 0.6057
415.10 0.6062
415.20 0.6067
415.30 0.6072
415.40 0.6077
415.50 0.6082
415.60 0.6086
415.70 0.6092
415.80 0.6097
415.90 0.6101
416.00 0.6106
416.10 0.6111
416.20 0.6116
416.30 0.6121
416.40 0.6126
416.50 0.6131
416.60 0.6136
416.70 0.6141
416.80 0.6146
416.90 0.6151
417.00 0.6156
417.10 0.6161
417.20 0.6166
417.30 0.6171
417.40 0.6176
417.50 0.618
417.60 0.6185
417.70 0.619
417.80 0.6195
417.90 0.62
418.00 0.6205
418.10 0.621
418.20 0.6215
418.30 0.622
418.40 0.6225
418.50 0.623
418.60 0.6235
418.70 0.624
418.80 0.6245
418.90 0.625
419.00 0.6255
419.10 0.626
419.20 0.6265
419.30 0.627
419.40 0.6274
419.50 0.6279
419.60 0.6284
419.70 0.6289
419.80 0.6294
419.90 0.6299
420.00 0.6304
420.10 0.6309
420.20 0.6314
420.30 0.6319
420.40 0.6324
420.50 0.6329
420.60 0.6334
420.70 0.6339
420.80 0.6344
420.90 0.6348
421.00 0.6353
421.10 0.6358
421.20 0.6363
421.30 0.6368
421.40 0.6373
421.50 0.6378
421.60 0.6383
421.70 0.6388
421.80 0.6393
421.90 0.6398
422.00 0.6403
422.10 0.6408
422.20 0.6413
422.30 0.6418
422.40 0.6423
422.50 0.6428
422.60 0.6433
422.70 0.6437
422.80 0.6442
422.90 0.6447
423.00 0.6452
423.10 0.6457
423.20 0.6462
423.30 0.6467
423.40 0.6472
423.50 0.6477
423.60 0.6482
423.70 0.6487
423.80 0.6492
423.90 0.6497
424.00 0.6502
424.10 0.6507
424.20 0.6511
424.30 0.6516
424.40 0.6521
424.50 0.6526
424.60 0.6531
424.70 0.6536
424.80 0.6541
424.90 0.6546
425.00 0.6551
425.10 0.6556
425.20 0.6561
425.30 0.6566
425.40 0.6571
425.50 0.6576
425.60 0.6581
425.70 0.6586
425.80 0.6591
425.90 0.6595
426.00 0.66
426.10 0.6605
426.20 0.661
426.30 0.6615
426.40 0.662
426.50 0.6625
426.60 0.663
426.70 0.6635
426.80 0.664
426.90 0.6645
427.00 0.6649
427.10 0.6655
427.20 0.666
427.30 0.6664
427.40 0.6669
427.50 0.6674
427.60 0.6679
427.70 0.6684
427.80 0.6689
427.90 0.6694
428.00 0.6699
428.10 0.6704
428.20 0.6709
428.30 0.6714
428.40 0.6718
428.50 0.6723
428.60 0.6728
428.70 0.6733
428.80 0.6738
428.90 0.6743
429.00 0.6748
429.10 0.6753
429.20 0.6758
429.30 0.6763
429.40 0.6768
429.50 0.6773
429.60 0.6778
429.70 0.6783
429.80 0.6787
429.90 0.6792
430.00 0.6797
430.10 0.6802
430.20 0.6807
430.30 0.6812
430.40 0.6817
430.50 0.6822
430.60 0.6827
430.70 0.6832
430.80 0.6836
430.90 0.6841
431.00 0.6846
431.10 0.6851
431.20 0.6856
431.30 0.6861
431.40 0.6866
431.50 0.6871
431.60 0.6876
431.70 0.6881
431.80 0.6886
431.90 0.6891
432.00 0.6895
432.10 0.69
432.20 0.6905
432.30 0.691
432.40 0.6915
432.50 0.692
432.60 0.6925
432.70 0.693
432.80 0.6935
432.90 0.6939
433.00 0.6944
433.10 0.6949
433.20 0.6954
433.30 0.6959
433.40 0.6964
433.50 0.6969
433.60 0.6974
433.70 0.6979
433.80 0.6984
433.90 0.6988
434.00 0.6993
434.10 0.6998
434.20 0.7003
434.30 0.7008
434.40 0.7013
434.50 0.7018
434.60 0.7023
434.70 0.7028
434.80 0.7033
434.90 0.7038
435.00 0.7042
435.10 0.7047
435.20 0.7052
435.30 0.7057
435.40 0.7062
435.50 0.7067
435.60 0.7072
435.70 0.7077
435.80 0.7082
435.90 0.7086
436.00 0.7091
436.10 0.7096
436.20 0.7101
436.30 0.7106
436.40 0.7111
436.50 0.7116
436.60 0.7121
436.70 0.7126
436.80 0.713
436.90 0.7135
437.00 0.714
437.10 0.7145
437.20 0.715
437.30 0.7155
437.40 0.716
437.50 0.7165
437.60 0.7169
437.70 0.7174
437.80 0.7179
437.90 0.7184
438.00 0.7189
438.10 0.7194
438.20 0.7199
438.30 0.7204
438.40 0.7209
438.50 0.7213
438.60 0.7218
438.70 0.7223
438.80 0.7228
438.90 0.7233
439.00 0.7238
439.10 0.7243
439.20 0.7248
439.30 0.7252
439.40 0.7257
439.50 0.7262
439.60 0.7267
439.70 0.7272
439.80 0.7276
439.90 0.7281
440.00 0.7286
440.10 0.7291
440.20 0.7296
440.30 0.7301
440.40 0.7306
440.50 0.7311
440.60 0.7315
440.70 0.732
440.80 0.7325
440.90 0.733
441.00 0.7335
441.10 0.734
441.20 0.7345
441.30 0.7349
441.40 0.7354
441.50 0.7359
441.60 0.7364
441.70 0.7369
441.80 0.7374
441.90 0.7379
442.00 0.7383
442.10 0.7388
442.20 0.7393
442.30 0.7398
442.40 0.7403
442.50 0.7408
442.60 0.7412
442.70 0.7417
442.80 0.7422
442.90 0.7427
443.00 0.7432
