# Version 2.1 - nm, norm@500 to 1, cut digits, bergeron_5250_75.dat_5250
# Wavelength(nm)  Flambda(ergs/cm^s/s/nm)
300.00 0.4316
300.10 0.432
300.20 0.4325
300.30 0.433
300.40 0.4335
300.50 0.434
300.60 0.4344
300.70 0.4349
300.80 0.4354
300.90 0.4359
301.00 0.4363
301.10 0.4368
301.20 0.4373
301.30 0.4378
301.40 0.4382
301.50 0.4387
301.60 0.4392
301.70 0.4397
301.80 0.4401
301.90 0.4406
302.00 0.4411
302.10 0.4415
302.20 0.442
302.30 0.4425
302.40 0.443
302.50 0.4435
302.60 0.4439
302.70 0.4444
302.80 0.4449
302.90 0.4454
303.00 0.4459
303.10 0.4463
303.20 0.4468
303.30 0.4473
303.40 0.4477
303.50 0.4482
303.60 0.4487
303.70 0.4492
303.80 0.4496
303.90 0.4501
304.00 0.4506
304.10 0.4511
304.20 0.4515
304.30 0.452
304.40 0.4525
304.50 0.453
304.60 0.4535
304.70 0.4539
304.80 0.4544
304.90 0.4549
305.00 0.4554
305.10 0.4558
305.20 0.4563
305.30 0.4568
305.40 0.4573
305.50 0.4577
305.60 0.4582
305.70 0.4587
305.80 0.4591
305.90 0.4596
306.00 0.4601
306.10 0.4606
306.20 0.461
306.30 0.4615
306.40 0.462
306.50 0.4625
306.60 0.4629
306.70 0.4634
306.80 0.4639
306.90 0.4644
307.00 0.4649
307.10 0.4653
307.20 0.4658
307.30 0.4663
307.40 0.4667
307.50 0.4672
307.60 0.4677
307.70 0.4682
307.80 0.4686
307.90 0.4691
308.00 0.4696
308.10 0.47
308.20 0.4705
308.30 0.471
308.40 0.4715
308.50 0.472
308.60 0.4724
308.70 0.4729
308.80 0.4734
308.90 0.4739
309.00 0.4743
309.10 0.4748
309.20 0.4753
309.30 0.4757
309.40 0.4762
309.50 0.4767
309.60 0.4772
309.70 0.4776
309.80 0.4781
309.90 0.4786
310.00 0.479
310.10 0.4795
310.20 0.48
310.30 0.4805
310.40 0.4809
310.50 0.4814
310.60 0.4819
310.70 0.4824
310.80 0.4828
310.90 0.4833
311.00 0.4838
311.10 0.4843
311.20 0.4847
311.30 0.4852
311.40 0.4857
311.50 0.4861
311.60 0.4866
311.70 0.4871
311.80 0.4876
311.90 0.488
312.00 0.4885
312.10 0.4889
312.20 0.4894
312.30 0.4899
312.40 0.4904
312.50 0.4908
312.60 0.4913
312.70 0.4918
312.80 0.4923
312.90 0.4927
313.00 0.4932
313.10 0.4937
313.20 0.4942
313.30 0.4946
313.40 0.4951
313.50 0.4956
313.60 0.496
313.70 0.4965
313.80 0.497
313.90 0.4974
314.00 0.4979
314.10 0.4984
314.20 0.4988
314.30 0.4993
314.40 0.4998
314.50 0.5003
314.60 0.5007
314.70 0.5012
314.80 0.5017
314.90 0.5022
315.00 0.5026
315.10 0.5031
315.20 0.5036
315.30 0.504
315.40 0.5045
315.50 0.505
315.60 0.5054
315.70 0.5059
315.80 0.5064
315.90 0.5068
316.00 0.5073
316.10 0.5078
316.20 0.5082
316.30 0.5087
316.40 0.5092
316.50 0.5096
316.60 0.5101
316.70 0.5106
316.80 0.5111
316.90 0.5115
317.00 0.512
317.10 0.5125
317.20 0.5129
317.30 0.5134
317.40 0.5139
317.50 0.5143
317.60 0.5148
317.70 0.5152
317.80 0.5157
317.90 0.5162
318.00 0.5166
318.10 0.5171
318.20 0.5176
318.30 0.518
318.40 0.5185
318.50 0.519
318.60 0.5195
318.70 0.5199
318.80 0.5204
318.90 0.5209
319.00 0.5213
319.10 0.5218
319.20 0.5223
319.30 0.5227
319.40 0.5232
319.50 0.5236
319.60 0.5241
319.70 0.5246
319.80 0.525
319.90 0.5255
320.00 0.526
320.10 0.5264
320.20 0.5269
320.30 0.5274
320.40 0.5278
320.50 0.5283
320.60 0.5288
320.70 0.5292
320.80 0.5297
320.90 0.5302
321.00 0.5306
321.10 0.5311
321.20 0.5315
321.30 0.532
321.40 0.5325
321.50 0.5329
321.60 0.5334
321.70 0.5338
321.80 0.5343
321.90 0.5348
322.00 0.5352
322.10 0.5357
322.20 0.5362
322.30 0.5366
322.40 0.5371
322.50 0.5376
322.60 0.538
322.70 0.5385
322.80 0.5389
322.90 0.5394
323.00 0.5399
323.10 0.5403
323.20 0.5408
323.30 0.5412
323.40 0.5417
323.50 0.5422
323.60 0.5426
323.70 0.5431
323.80 0.5435
323.90 0.544
324.00 0.5444
324.10 0.5449
324.20 0.5454
324.30 0.5458
324.40 0.5463
324.50 0.5468
324.60 0.5472
324.70 0.5477
324.80 0.5482
324.90 0.5486
325.00 0.5491
325.10 0.5495
325.20 0.55
325.30 0.5504
325.40 0.5509
325.50 0.5514
325.60 0.5518
325.70 0.5523
325.80 0.5527
325.90 0.5532
326.00 0.5536
326.10 0.5541
326.20 0.5546
326.30 0.555
326.40 0.5555
326.50 0.5559
326.60 0.5564
326.70 0.5569
326.80 0.5573
326.90 0.5578
327.00 0.5582
327.10 0.5587
327.20 0.5591
327.30 0.5596
327.40 0.56
327.50 0.5605
327.60 0.561
327.70 0.5614
327.80 0.5619
327.90 0.5623
328.00 0.5628
328.10 0.5632
328.20 0.5637
328.30 0.5641
328.40 0.5646
328.50 0.5651
328.60 0.5655
328.70 0.566
328.80 0.5664
328.90 0.5669
329.00 0.5673
329.10 0.5678
329.20 0.5682
329.30 0.5687
329.40 0.5691
329.50 0.5696
329.60 0.57
329.70 0.5705
329.80 0.5709
329.90 0.5714
330.00 0.5718
330.10 0.5723
330.20 0.5727
330.30 0.5732
330.40 0.5737
330.50 0.5741
330.60 0.5746
330.70 0.575
330.80 0.5755
330.90 0.5759
331.00 0.5764
331.10 0.5768
331.20 0.5773
331.30 0.5777
331.40 0.5782
331.50 0.5786
331.60 0.5791
331.70 0.5795
331.80 0.58
331.90 0.5804
332.00 0.5808
332.10 0.5813
332.20 0.5817
332.30 0.5822
332.40 0.5827
332.50 0.5831
332.60 0.5836
332.70 0.584
332.80 0.5845
332.90 0.5849
333.00 0.5853
333.10 0.5858
333.20 0.5862
333.30 0.5867
333.40 0.5871
333.50 0.5876
333.60 0.588
333.70 0.5885
333.80 0.5889
333.90 0.5894
334.00 0.5898
334.10 0.5902
334.20 0.5907
334.30 0.5911
334.40 0.5916
334.50 0.592
334.60 0.5925
334.70 0.5929
334.80 0.5934
334.90 0.5938
335.00 0.5943
335.10 0.5947
335.20 0.5952
335.30 0.5956
335.40 0.596
335.50 0.5965
335.60 0.5969
335.70 0.5974
335.80 0.5978
335.90 0.5982
336.00 0.5987
336.10 0.5991
336.20 0.5996
336.30 0.6
336.40 0.6005
336.50 0.6009
336.60 0.6014
336.70 0.6018
336.80 0.6022
336.90 0.6027
337.00 0.6031
337.10 0.6036
337.20 0.604
337.30 0.6044
337.40 0.6049
337.50 0.6053
337.60 0.6058
337.70 0.6062
337.80 0.6066
337.90 0.6071
338.00 0.6075
338.10 0.6079
338.20 0.6084
338.30 0.6088
338.40 0.6093
338.50 0.6097
338.60 0.6102
338.70 0.6106
338.80 0.611
338.90 0.6115
339.00 0.6119
339.10 0.6124
339.20 0.6128
339.30 0.6132
339.40 0.6137
339.50 0.6141
339.60 0.6145
339.70 0.615
339.80 0.6154
339.90 0.6158
340.00 0.6163
340.10 0.6167
340.20 0.6171
340.30 0.6176
340.40 0.618
340.50 0.6185
340.60 0.6189
340.70 0.6193
340.80 0.6198
340.90 0.6202
341.00 0.6206
341.10 0.6211
341.20 0.6215
341.30 0.6219
341.40 0.6224
341.50 0.6228
341.60 0.6232
341.70 0.6237
341.80 0.6241
341.90 0.6245
342.00 0.6249
342.10 0.6254
342.20 0.6258
342.30 0.6262
342.40 0.6267
342.50 0.6271
342.60 0.6275
342.70 0.628
342.80 0.6284
342.90 0.6288
343.00 0.6293
343.10 0.6297
343.20 0.6301
343.30 0.6306
343.40 0.631
343.50 0.6314
343.60 0.6318
343.70 0.6323
343.80 0.6327
343.90 0.6331
344.00 0.6335
344.10 0.634
344.20 0.6344
344.30 0.6348
344.40 0.6353
344.50 0.6357
344.60 0.6361
344.70 0.6365
344.80 0.637
344.90 0.6374
345.00 0.6378
345.10 0.6383
345.20 0.6387
345.30 0.6391
345.40 0.6395
345.50 0.64
345.60 0.6404
345.70 0.6408
345.80 0.6412
345.90 0.6416
346.00 0.6421
346.10 0.6425
346.20 0.6429
346.30 0.6433
346.40 0.6438
346.50 0.6442
346.60 0.6446
346.70 0.645
346.80 0.6455
346.90 0.6459
347.00 0.6463
347.10 0.6467
347.20 0.6472
347.30 0.6476
347.40 0.648
347.50 0.6484
347.60 0.6488
347.70 0.6493
347.80 0.6497
347.90 0.6501
348.00 0.6505
348.10 0.6509
348.20 0.6514
348.30 0.6518
348.40 0.6522
348.50 0.6526
348.60 0.653
348.70 0.6535
348.80 0.6539
348.90 0.6543
349.00 0.6547
349.10 0.6551
349.20 0.6556
349.30 0.656
349.40 0.6564
349.50 0.6568
349.60 0.6572
349.70 0.6576
349.80 0.658
349.90 0.6584
350.00 0.6589
350.10 0.6593
350.20 0.6597
350.30 0.6601
350.40 0.6605
350.50 0.661
350.60 0.6614
350.70 0.6618
350.80 0.6622
350.90 0.6626
351.00 0.663
351.10 0.6635
351.20 0.6639
351.30 0.6643
351.40 0.6647
351.50 0.6651
351.60 0.6655
351.70 0.6659
351.80 0.6663
351.90 0.6668
352.00 0.6672
352.10 0.6676
352.20 0.668
352.30 0.6684
352.40 0.6688
352.50 0.6692
352.60 0.6696
352.70 0.6701
352.80 0.6705
352.90 0.6709
353.00 0.6713
353.10 0.6717
353.20 0.6721
353.30 0.6725
353.40 0.6729
353.50 0.6733
353.60 0.6737
353.70 0.6741
353.80 0.6745
353.90 0.6749
354.00 0.6753
354.10 0.6758
354.20 0.6762
354.30 0.6766
354.40 0.677
354.50 0.6774
354.60 0.6778
354.70 0.6782
354.80 0.6786
354.90 0.679
355.00 0.6794
355.10 0.6799
355.20 0.6803
355.30 0.6807
355.40 0.6811
355.50 0.6815
355.60 0.6819
355.70 0.6823
355.80 0.6827
355.90 0.6831
356.00 0.6835
356.10 0.6839
356.20 0.6843
356.30 0.6847
356.40 0.6851
356.50 0.6855
356.60 0.6859
356.70 0.6863
356.80 0.6867
356.90 0.6871
357.00 0.6875
357.10 0.6879
357.20 0.6883
357.30 0.6887
357.40 0.6891
357.50 0.6895
357.60 0.6899
357.70 0.6903
357.80 0.6907
357.90 0.6911
358.00 0.6915
358.10 0.6919
358.20 0.6923
358.30 0.6927
358.40 0.6931
358.50 0.6935
358.60 0.6939
358.70 0.6943
358.80 0.6947
358.90 0.6951
359.00 0.6955
359.10 0.6959
359.20 0.6963
359.30 0.6967
359.40 0.697
359.50 0.6974
359.60 0.6978
359.70 0.6982
359.80 0.6986
359.90 0.699
360.00 0.6994
360.10 0.6998
360.20 0.7002
360.30 0.7006
360.40 0.701
360.50 0.7014
360.60 0.7018
360.70 0.7022
360.80 0.7026
360.90 0.703
361.00 0.7034
361.10 0.7037
361.20 0.7041
361.30 0.7045
361.40 0.7049
361.50 0.7053
361.60 0.7057
361.70 0.7061
361.80 0.7065
361.90 0.7069
362.00 0.7072
362.10 0.7076
362.20 0.708
362.30 0.7084
362.40 0.7088
362.50 0.7092
362.60 0.7096
362.70 0.71
362.80 0.7104
362.90 0.7108
363.00 0.7112
363.10 0.7116
363.20 0.7119
363.30 0.7123
363.40 0.7127
363.50 0.7131
363.60 0.7135
363.70 0.7139
363.80 0.7143
363.90 0.7146
364.00 0.715
364.10 0.7154
364.20 0.7158
364.30 0.7162
364.40 0.7166
364.50 0.7169
364.60 0.7173
364.70 0.7177
364.80 0.718
364.90 0.7184
365.00 0.7188
365.10 0.7192
365.20 0.7196
365.30 0.72
365.40 0.7203
365.50 0.7207
365.60 0.7211
365.70 0.7215
365.80 0.7219
365.90 0.7222
366.00 0.7226
366.10 0.723
366.20 0.7234
366.30 0.7238
366.40 0.7241
366.50 0.7245
366.60 0.7249
366.70 0.7253
366.80 0.7257
366.90 0.7261
367.00 0.7264
367.10 0.7268
367.20 0.7272
367.30 0.7276
367.40 0.728
367.50 0.7283
367.60 0.7287
367.70 0.7291
367.80 0.7295
367.90 0.7298
368.00 0.7302
368.10 0.7306
368.20 0.731
368.30 0.7313
368.40 0.7317
368.50 0.7321
368.60 0.7325
368.70 0.7328
368.80 0.7332
368.90 0.7336
369.00 0.734
369.10 0.7343
369.20 0.7347
369.30 0.7351
369.40 0.7354
369.50 0.7358
369.60 0.7362
369.70 0.7365
369.80 0.7369
369.90 0.7373
370.00 0.7377
370.10 0.738
370.20 0.7384
370.30 0.7388
370.40 0.7391
370.50 0.7395
370.60 0.7399
370.70 0.7402
370.80 0.7406
370.90 0.741
371.00 0.7414
371.10 0.7417
371.20 0.7421
371.30 0.7425
371.40 0.7428
371.50 0.7432
371.60 0.7436
371.70 0.7439
371.80 0.7443
371.90 0.7446
372.00 0.745
372.10 0.7454
372.20 0.7457
372.30 0.7461
372.40 0.7465
372.50 0.7468
372.60 0.7472
372.70 0.7476
372.80 0.7479
372.90 0.7483
373.00 0.7487
373.10 0.749
373.20 0.7494
373.30 0.7497
373.40 0.7501
373.50 0.7505
373.60 0.7508
373.70 0.7512
373.80 0.7516
373.90 0.7519
374.00 0.7523
374.10 0.7526
374.20 0.753
374.30 0.7533
374.40 0.7537
374.50 0.7541
374.60 0.7544
374.70 0.7548
374.80 0.7551
374.90 0.7555
375.00 0.7559
375.10 0.7562
375.20 0.7566
375.30 0.7569
375.40 0.7573
375.50 0.7576
375.60 0.758
375.70 0.7583
375.80 0.7587
375.90 0.759
376.00 0.7594
376.10 0.7597
376.20 0.7601
376.30 0.7605
376.40 0.7608
376.50 0.7612
376.60 0.7615
376.70 0.7619
376.80 0.7622
376.90 0.7626
377.00 0.7629
377.10 0.7633
377.20 0.7636
377.30 0.764
377.40 0.7644
377.50 0.7647
377.60 0.7651
377.70 0.7654
377.80 0.7658
377.90 0.7661
378.00 0.7665
378.10 0.7668
378.20 0.7672
378.30 0.7675
378.40 0.7679
378.50 0.7682
378.60 0.7685
378.70 0.7689
378.80 0.7692
378.90 0.7696
379.00 0.7699
379.10 0.7703
379.20 0.7706
379.30 0.771
379.40 0.7713
379.50 0.7716
379.60 0.772
379.70 0.7723
379.80 0.7727
379.90 0.773
380.00 0.7734
380.10 0.7737
380.20 0.7741
380.30 0.7744
380.40 0.7748
380.50 0.7751
380.60 0.7755
380.70 0.7758
380.80 0.7762
380.90 0.7765
381.00 0.7769
381.10 0.7772
381.20 0.7776
381.30 0.7779
381.40 0.7782
381.50 0.7786
381.60 0.779
381.70 0.7793
381.80 0.7796
381.90 0.78
382.00 0.7803
382.10 0.7807
382.20 0.781
382.30 0.7813
382.40 0.7816
382.50 0.7819
382.60 0.7823
382.70 0.7826
382.80 0.7829
382.90 0.7832
383.00 0.7835
383.10 0.7839
383.20 0.7842
383.30 0.7844
383.40 0.7845
383.50 0.7845
383.60 0.785
383.70 0.7856
383.80 0.7861
383.90 0.7866
384.00 0.7869
384.10 0.7873
384.20 0.7877
384.30 0.788
384.40 0.7884
384.50 0.7888
384.60 0.7891
384.70 0.7894
384.80 0.7898
384.90 0.7901
385.00 0.7904
385.10 0.7908
385.20 0.7911
385.30 0.7915
385.40 0.7918
385.50 0.7921
385.60 0.7925
385.70 0.7928
385.80 0.7931
385.90 0.7935
386.00 0.7938
386.10 0.7941
386.20 0.7945
386.30 0.7948
386.40 0.7951
386.50 0.7954
386.60 0.7957
386.70 0.7961
386.80 0.7964
386.90 0.7967
387.00 0.7971
387.10 0.7974
387.20 0.7977
387.30 0.7981
387.40 0.7984
387.50 0.7987
387.60 0.799
387.70 0.7993
387.80 0.7996
387.90 0.7999
388.00 0.8002
388.10 0.8005
388.20 0.8007
388.30 0.801
388.40 0.8012
388.50 0.8013
388.60 0.8013
388.70 0.8011
388.80 0.8006
388.90 0.7998
389.00 0.8012
389.10 0.8023
389.20 0.8032
389.30 0.8038
389.40 0.8044
389.50 0.8049
389.60 0.8053
389.70 0.8057
389.80 0.806
389.90 0.8064
390.00 0.8068
390.10 0.8071
390.20 0.8074
390.30 0.8078
390.40 0.8081
390.50 0.8084
390.60 0.8087
390.70 0.8091
390.80 0.8094
390.90 0.8097
391.00 0.81
391.10 0.8104
391.20 0.8107
391.30 0.811
391.40 0.8113
391.50 0.8116
391.60 0.812
391.70 0.8123
391.80 0.8126
391.90 0.8129
392.00 0.8132
392.10 0.8135
392.20 0.8139
392.30 0.8142
392.40 0.8145
392.50 0.8148
392.60 0.8151
392.70 0.8154
392.80 0.8157
392.90 0.816
393.00 0.8164
393.10 0.8167
393.20 0.817
393.30 0.8173
393.40 0.8176
393.50 0.8179
393.60 0.8182
393.70 0.8186
393.80 0.8189
393.90 0.8192
394.00 0.8195
394.10 0.8198
394.20 0.8201
394.30 0.8204
394.40 0.8207
394.50 0.821
394.60 0.8213
394.70 0.8216
394.80 0.8219
394.90 0.8222
395.00 0.8225
395.10 0.8228
395.20 0.8231
395.30 0.8234
395.40 0.8237
395.50 0.824
395.60 0.8242
395.70 0.8245
395.80 0.8248
395.90 0.825
396.00 0.8252
396.10 0.8255
396.20 0.8256
396.30 0.8258
396.40 0.8258
396.50 0.8258
396.60 0.8255
396.70 0.825
396.80 0.8238
396.90 0.8218
397.00 0.8192
397.10 0.8222
397.20 0.8247
397.30 0.8267
397.40 0.8278
397.50 0.8287
397.60 0.8294
397.70 0.83
397.80 0.8304
397.90 0.8309
398.00 0.8313
398.10 0.8316
398.20 0.832
398.30 0.8323
398.40 0.8327
398.50 0.833
398.60 0.8333
398.70 0.8336
398.80 0.8339
398.90 0.8342
399.00 0.8346
399.10 0.8349
399.20 0.8351
399.30 0.8354
399.40 0.8357
399.50 0.8361
399.60 0.8364
399.70 0.8366
399.80 0.8369
399.90 0.8372
400.00 0.8375
400.10 0.8378
400.20 0.8381
400.30 0.8384
400.40 0.8387
400.50 0.839
400.60 0.8393
400.70 0.8396
400.80 0.8399
400.90 0.8402
401.00 0.8405
401.10 0.8408
401.20 0.8411
401.30 0.8413
401.40 0.8416
401.50 0.8419
401.60 0.8422
401.70 0.8425
401.80 0.8428
401.90 0.8431
402.00 0.8434
402.10 0.8437
402.20 0.8439
402.30 0.8442
402.40 0.8445
402.50 0.8448
402.60 0.8451
402.70 0.8454
402.80 0.8457
402.90 0.8459
403.00 0.8462
403.10 0.8465
403.20 0.8468
403.30 0.8471
403.40 0.8473
403.50 0.8476
403.60 0.8479
403.70 0.8482
403.80 0.8485
403.90 0.8487
404.00 0.849
404.10 0.8493
404.20 0.8496
404.30 0.8499
404.40 0.8501
404.50 0.8504
404.60 0.8507
404.70 0.851
404.80 0.8513
404.90 0.8515
405.00 0.8518
405.10 0.8521
405.20 0.8524
405.30 0.8527
405.40 0.8529
405.50 0.8532
405.60 0.8535
405.70 0.8538
405.80 0.854
405.90 0.8543
406.00 0.8546
406.10 0.8549
406.20 0.8551
406.30 0.8554
406.40 0.8557
406.50 0.856
406.60 0.8562
406.70 0.8565
406.80 0.8567
406.90 0.857
407.00 0.8573
407.10 0.8576
407.20 0.8578
407.30 0.8581
407.40 0.8584
407.50 0.8586
407.60 0.8589
407.70 0.8592
407.80 0.8594
407.90 0.8597
408.00 0.8599
408.10 0.8602
408.20 0.8604
408.30 0.8607
408.40 0.8609
408.50 0.8612
408.60 0.8614
408.70 0.8616
408.80 0.8618
408.90 0.862
409.00 0.8622
409.10 0.8623
409.20 0.8625
409.30 0.8626
409.40 0.8625
409.50 0.8624
409.60 0.8621
409.70 0.8614
409.80 0.8602
409.90 0.8583
410.00 0.8537
410.10 0.8487
410.20 0.8435
410.30 0.8515
410.40 0.8575
410.50 0.8613
410.60 0.8632
410.70 0.8646
410.80 0.8656
410.90 0.8663
411.00 0.8669
411.10 0.8674
411.20 0.8678
411.30 0.8682
411.40 0.8686
411.50 0.8689
411.60 0.8692
411.70 0.8695
411.80 0.8698
411.90 0.8701
412.00 0.8704
412.10 0.8707
412.20 0.871
412.30 0.8712
412.40 0.8715
412.50 0.8718
412.60 0.8721
412.70 0.8724
412.80 0.8726
412.90 0.8729
413.00 0.8731
413.10 0.8734
413.20 0.8737
413.30 0.8739
413.40 0.8742
413.50 0.8744
413.60 0.8747
413.70 0.875
413.80 0.8752
413.90 0.8755
414.00 0.8758
414.10 0.876
414.20 0.8763
414.30 0.8765
414.40 0.8768
414.50 0.877
414.60 0.8773
414.70 0.8775
414.80 0.8778
414.90 0.878
415.00 0.8783
415.10 0.8785
415.20 0.8788
415.30 0.879
415.40 0.8793
415.50 0.8795
415.60 0.8798
415.70 0.88
415.80 0.8803
415.90 0.8805
416.00 0.8808
416.10 0.881
416.20 0.8813
416.30 0.8815
416.40 0.8818
416.50 0.882
416.60 0.8823
416.70 0.8825
416.80 0.8828
416.90 0.883
417.00 0.8833
417.10 0.8835
417.20 0.8838
417.30 0.884
417.40 0.8842
417.50 0.8845
417.60 0.8847
417.70 0.885
417.80 0.8852
417.90 0.8854
418.00 0.8857
418.10 0.8859
418.20 0.8862
418.30 0.8864
418.40 0.8866
418.50 0.8869
418.60 0.8871
418.70 0.8874
418.80 0.8876
418.90 0.8879
419.00 0.8881
419.10 0.8884
419.20 0.8886
419.30 0.8888
419.40 0.8891
419.50 0.8893
419.60 0.8895
419.70 0.8898
419.80 0.89
419.90 0.8902
420.00 0.8905
420.10 0.8907
420.20 0.8909
420.30 0.8912
420.40 0.8915
420.50 0.8917
420.60 0.8919
420.70 0.8922
420.80 0.8924
420.90 0.8926
421.00 0.8928
421.10 0.8931
421.20 0.8933
421.30 0.8935
421.40 0.8938
421.50 0.894
421.60 0.8942
421.70 0.8945
421.80 0.8947
421.90 0.895
422.00 0.8952
422.10 0.8954
422.20 0.8956
422.30 0.8959
422.40 0.8961
422.50 0.8963
422.60 0.8965
422.70 0.8968
422.80 0.897
422.90 0.8973
423.00 0.8975
423.10 0.8977
423.20 0.8979
423.30 0.8982
423.40 0.8984
423.50 0.8986
423.60 0.8988
423.70 0.8991
423.80 0.8993
423.90 0.8995
424.00 0.8998
424.10 0.9
424.20 0.9002
424.30 0.9004
424.40 0.9006
424.50 0.9009
424.60 0.9011
424.70 0.9013
424.80 0.9016
424.90 0.9018
425.00 0.902
425.10 0.9022
425.20 0.9024
425.30 0.9026
425.40 0.9029
425.50 0.9031
425.60 0.9033
425.70 0.9036
425.80 0.9038
425.90 0.904
426.00 0.9042
426.10 0.9044
426.20 0.9046
426.30 0.9049
426.40 0.9051
426.50 0.9053
426.60 0.9055
426.70 0.9057
426.80 0.906
426.90 0.9062
427.00 0.9064
427.10 0.9066
427.20 0.9068
427.30 0.9071
427.40 0.9073
427.50 0.9075
427.60 0.9077
427.70 0.9079
427.80 0.9081
427.90 0.9083
428.00 0.9086
428.10 0.9088
428.20 0.909
428.30 0.9092
428.40 0.9094
428.50 0.9096
428.60 0.9098
428.70 0.91
428.80 0.9102
428.90 0.9104
429.00 0.9107
429.10 0.9109
429.20 0.9111
429.30 0.9113
429.40 0.9115
429.50 0.9117
429.60 0.9119
429.70 0.9121
429.80 0.9123
429.90 0.9125
430.00 0.9127
430.10 0.9129
430.20 0.9131
430.30 0.9133
430.40 0.9135
430.50 0.9137
430.60 0.9139
430.70 0.9142
430.80 0.9144
430.90 0.9146
431.00 0.9148
431.10 0.915
431.20 0.9152
431.30 0.9153
431.40 0.9155
431.50 0.9157
431.60 0.9159
431.70 0.9161
431.80 0.9163
431.90 0.9164
432.00 0.9166
432.10 0.9168
432.20 0.9169
432.30 0.9171
432.40 0.9172
432.50 0.9173
432.60 0.9174
432.70 0.9175
432.80 0.9176
432.90 0.9176
433.00 0.9176
433.10 0.9174
433.20 0.9172
433.30 0.9169
433.40 0.9161
433.50 0.9149
433.60 0.9133
433.70 0.9095
433.80 0.9026
433.90 0.8925
434.00 0.8706
434.10 0.8712
434.20 0.8944
434.30 0.9043
434.40 0.9113
434.50 0.9154
434.60 0.9173
434.70 0.9188
434.80 0.9199
434.90 0.9206
435.00 0.9213
435.10 0.9218
435.20 0.9222
435.30 0.9226
435.40 0.9229
435.50 0.9232
435.60 0.9235
435.70 0.9238
435.80 0.9241
435.90 0.9243
436.00 0.9245
436.10 0.9248
436.20 0.925
436.30 0.9252
436.40 0.9255
436.50 0.9257
436.60 0.9259
436.70 0.9261
436.80 0.9263
436.90 0.9265
437.00 0.9267
437.10 0.9269
437.20 0.9271
437.30 0.9273
437.40 0.9275
437.50 0.9277
437.60 0.9279
437.70 0.9281
437.80 0.9283
437.90 0.9285
438.00 0.9287
438.10 0.9289
438.20 0.9291
438.30 0.9293
438.40 0.9295
438.50 0.9297
438.60 0.9299
438.70 0.93
438.80 0.9302
438.90 0.9304
439.00 0.9306
439.10 0.9308
439.20 0.931
439.30 0.9312
439.40 0.9314
439.50 0.9316
439.60 0.9318
439.70 0.9319
439.80 0.9321
439.90 0.9323
440.00 0.9325
440.10 0.9327
440.20 0.9329
440.30 0.9331
440.40 0.9332
440.50 0.9334
440.60 0.9336
440.70 0.9338
440.80 0.934
440.90 0.9341
441.00 0.9343
441.10 0.9345
441.20 0.9347
441.30 0.9349
441.40 0.9351
441.50 0.9352
441.60 0.9354
441.70 0.9356
441.80 0.9358
441.90 0.9359
442.00 0.9361
442.10 0.9363
442.20 0.9365
442.30 0.9367
442.40 0.9368
442.50 0.937
442.60 0.9372
442.70 0.9374
442.80 0.9376
442.90 0.9377
443.00 0.9379
