# Version 2.1 - nm, norm@500 to 1, cut digits, bergeron_4250_75.dat_4250
# Wavelength(nm)  Flambda(ergs/cm^s/s/nm)
300.00 0.2013
300.10 0.2016
300.20 0.202
300.30 0.2023
300.40 0.2027
300.50 0.203
300.60 0.2034
300.70 0.2038
300.80 0.2041
300.90 0.2045
301.00 0.2048
301.10 0.2052
301.20 0.2055
301.30 0.2059
301.40 0.2062
301.50 0.2066
301.60 0.2069
301.70 0.2073
301.80 0.2076
301.90 0.208
302.00 0.2083
302.10 0.2087
302.20 0.2091
302.30 0.2094
302.40 0.2098
302.50 0.2102
302.60 0.2105
302.70 0.2109
302.80 0.2112
302.90 0.2116
303.00 0.212
303.10 0.2123
303.20 0.2127
303.30 0.213
303.40 0.2134
303.50 0.2138
303.60 0.2141
303.70 0.2145
303.80 0.2148
303.90 0.2152
304.00 0.2155
304.10 0.2159
304.20 0.2163
304.30 0.2166
304.40 0.217
304.50 0.2174
304.60 0.2178
304.70 0.2181
304.80 0.2185
304.90 0.2189
305.00 0.2192
305.10 0.2196
305.20 0.2199
305.30 0.2203
305.40 0.2207
305.50 0.221
305.60 0.2214
305.70 0.2218
305.80 0.2221
305.90 0.2225
306.00 0.2229
306.10 0.2232
306.20 0.2236
306.30 0.224
306.40 0.2243
306.50 0.2247
306.60 0.2251
306.70 0.2255
306.80 0.2258
306.90 0.2262
307.00 0.2266
307.10 0.2269
307.20 0.2273
307.30 0.2277
307.40 0.2281
307.50 0.2284
307.60 0.2288
307.70 0.2292
307.80 0.2295
307.90 0.2299
308.00 0.2303
308.10 0.2306
308.20 0.231
308.30 0.2314
308.40 0.2318
308.50 0.2322
308.60 0.2325
308.70 0.2329
308.80 0.2333
308.90 0.2337
309.00 0.234
309.10 0.2344
309.20 0.2348
309.30 0.2352
309.40 0.2355
309.50 0.2359
309.60 0.2363
309.70 0.2367
309.80 0.237
309.90 0.2374
310.00 0.2378
310.10 0.2382
310.20 0.2385
310.30 0.2389
310.40 0.2393
310.50 0.2397
310.60 0.2401
310.70 0.2405
310.80 0.2408
310.90 0.2412
311.00 0.2416
311.10 0.242
311.20 0.2424
311.30 0.2428
311.40 0.2431
311.50 0.2435
311.60 0.2439
311.70 0.2443
311.80 0.2446
311.90 0.245
312.00 0.2454
312.10 0.2458
312.20 0.2462
312.30 0.2465
312.40 0.2469
312.50 0.2473
312.60 0.2477
312.70 0.2481
312.80 0.2485
312.90 0.2489
313.00 0.2492
313.10 0.2496
313.20 0.25
313.30 0.2504
313.40 0.2508
313.50 0.2512
313.60 0.2515
313.70 0.2519
313.80 0.2523
313.90 0.2527
314.00 0.2531
314.10 0.2535
314.20 0.2539
314.30 0.2542
314.40 0.2546
314.50 0.255
314.60 0.2554
314.70 0.2558
314.80 0.2562
314.90 0.2566
315.00 0.257
315.10 0.2574
315.20 0.2578
315.30 0.2582
315.40 0.2585
315.50 0.2589
315.60 0.2593
315.70 0.2597
315.80 0.2601
315.90 0.2605
316.00 0.2609
316.10 0.2613
316.20 0.2617
316.30 0.2621
316.40 0.2625
316.50 0.2629
316.60 0.2633
316.70 0.2636
316.80 0.264
316.90 0.2644
317.00 0.2648
317.10 0.2652
317.20 0.2656
317.30 0.266
317.40 0.2664
317.50 0.2668
317.60 0.2672
317.70 0.2676
317.80 0.268
317.90 0.2684
318.00 0.2688
318.10 0.2692
318.20 0.2696
318.30 0.27
318.40 0.2704
318.50 0.2708
318.60 0.2712
318.70 0.2716
318.80 0.272
318.90 0.2724
319.00 0.2728
319.10 0.2732
319.20 0.2736
319.30 0.274
319.40 0.2744
319.50 0.2748
319.60 0.2751
319.70 0.2755
319.80 0.2759
319.90 0.2763
320.00 0.2767
320.10 0.2771
320.20 0.2775
320.30 0.2779
320.40 0.2784
320.50 0.2788
320.60 0.2792
320.70 0.2796
320.80 0.28
320.90 0.2804
321.00 0.2808
321.10 0.2812
321.20 0.2816
321.30 0.282
321.40 0.2824
321.50 0.2828
321.60 0.2832
321.70 0.2836
321.80 0.284
321.90 0.2844
322.00 0.2848
322.10 0.2852
322.20 0.2856
322.30 0.286
322.40 0.2864
322.50 0.2868
322.60 0.2872
322.70 0.2877
322.80 0.2881
322.90 0.2885
323.00 0.2889
323.10 0.2893
323.20 0.2897
323.30 0.2901
323.40 0.2905
323.50 0.2909
323.60 0.2913
323.70 0.2917
323.80 0.2921
323.90 0.2925
324.00 0.2929
324.10 0.2933
324.20 0.2937
324.30 0.2942
324.40 0.2946
324.50 0.295
324.60 0.2954
324.70 0.2958
324.80 0.2962
324.90 0.2966
325.00 0.297
325.10 0.2975
325.20 0.2979
325.30 0.2983
325.40 0.2987
325.50 0.2991
325.60 0.2995
325.70 0.2999
325.80 0.3003
325.90 0.3007
326.00 0.3011
326.10 0.3015
326.20 0.302
326.30 0.3024
326.40 0.3028
326.50 0.3032
326.60 0.3036
326.70 0.3041
326.80 0.3045
326.90 0.3049
327.00 0.3053
327.10 0.3057
327.20 0.3061
327.30 0.3065
327.40 0.307
327.50 0.3074
327.60 0.3078
327.70 0.3082
327.80 0.3086
327.90 0.309
328.00 0.3094
328.10 0.3098
328.20 0.3103
328.30 0.3107
328.40 0.3111
328.50 0.3115
328.60 0.3119
328.70 0.3124
328.80 0.3128
328.90 0.3132
329.00 0.3136
329.10 0.314
329.20 0.3145
329.30 0.3149
329.40 0.3153
329.50 0.3157
329.60 0.3161
329.70 0.3165
329.80 0.3169
329.90 0.3173
330.00 0.3178
330.10 0.3182
330.20 0.3186
330.30 0.319
330.40 0.3195
330.50 0.3199
330.60 0.3203
330.70 0.3207
330.80 0.3212
330.90 0.3216
331.00 0.322
331.10 0.3224
331.20 0.3228
331.30 0.3233
331.40 0.3237
331.50 0.3241
331.60 0.3245
331.70 0.3249
331.80 0.3254
331.90 0.3258
332.00 0.3262
332.10 0.3266
332.20 0.327
332.30 0.3275
332.40 0.3279
332.50 0.3283
332.60 0.3288
332.70 0.3292
332.80 0.3296
332.90 0.33
333.00 0.3305
333.10 0.3309
333.20 0.3313
333.30 0.3317
333.40 0.3322
333.50 0.3326
333.60 0.333
333.70 0.3334
333.80 0.3338
333.90 0.3343
334.00 0.3347
334.10 0.3351
334.20 0.3356
334.30 0.336
334.40 0.3364
334.50 0.3368
334.60 0.3373
334.70 0.3377
334.80 0.3381
334.90 0.3386
335.00 0.339
335.10 0.3394
335.20 0.3398
335.30 0.3403
335.40 0.3407
335.50 0.3411
335.60 0.3415
335.70 0.342
335.80 0.3424
335.90 0.3428
336.00 0.3432
336.10 0.3437
336.20 0.3441
336.30 0.3445
336.40 0.345
336.50 0.3454
336.60 0.3458
336.70 0.3463
336.80 0.3467
336.90 0.3471
337.00 0.3476
337.10 0.348
337.20 0.3484
337.30 0.3489
337.40 0.3493
337.50 0.3497
337.60 0.3501
337.70 0.3506
337.80 0.351
337.90 0.3514
338.00 0.3519
338.10 0.3523
338.20 0.3527
338.30 0.3532
338.40 0.3536
338.50 0.354
338.60 0.3545
338.70 0.3549
338.80 0.3553
338.90 0.3558
339.00 0.3562
339.10 0.3566
339.20 0.3571
339.30 0.3575
339.40 0.3579
339.50 0.3584
339.60 0.3588
339.70 0.3592
339.80 0.3597
339.90 0.3601
340.00 0.3605
340.10 0.3609
340.20 0.3614
340.30 0.3618
340.40 0.3623
340.50 0.3627
340.60 0.3631
340.70 0.3636
340.80 0.364
340.90 0.3645
341.00 0.3649
341.10 0.3653
341.20 0.3658
341.30 0.3662
341.40 0.3666
341.50 0.3671
341.60 0.3675
341.70 0.3679
341.80 0.3684
341.90 0.3688
342.00 0.3692
342.10 0.3697
342.20 0.3701
342.30 0.3706
342.40 0.371
342.50 0.3714
342.60 0.3719
342.70 0.3723
342.80 0.3728
342.90 0.3732
343.00 0.3736
343.10 0.3741
343.20 0.3745
343.30 0.3749
343.40 0.3754
343.50 0.3758
343.60 0.3763
343.70 0.3767
343.80 0.3771
343.90 0.3776
344.00 0.378
344.10 0.3784
344.20 0.3789
344.30 0.3793
344.40 0.3798
344.50 0.3802
344.60 0.3807
344.70 0.3811
344.80 0.3815
344.90 0.382
345.00 0.3824
345.10 0.3829
345.20 0.3833
345.30 0.3837
345.40 0.3842
345.50 0.3846
345.60 0.3851
345.70 0.3855
345.80 0.3859
345.90 0.3864
346.00 0.3868
346.10 0.3872
346.20 0.3877
346.30 0.3881
346.40 0.3886
346.50 0.389
346.60 0.3895
346.70 0.3899
346.80 0.3904
346.90 0.3908
347.00 0.3912
347.10 0.3917
347.20 0.3921
347.30 0.3926
347.40 0.393
347.50 0.3934
347.60 0.3939
347.70 0.3943
347.80 0.3948
347.90 0.3952
348.00 0.3956
348.10 0.3961
348.20 0.3965
348.30 0.397
348.40 0.3974
348.50 0.3979
348.60 0.3983
348.70 0.3988
348.80 0.3992
348.90 0.3997
349.00 0.4001
349.10 0.4006
349.20 0.401
349.30 0.4014
349.40 0.4019
349.50 0.4023
349.60 0.4028
349.70 0.4032
349.80 0.4037
349.90 0.4041
350.00 0.4045
350.10 0.405
350.20 0.4054
350.30 0.4059
350.40 0.4063
350.50 0.4068
350.60 0.4072
350.70 0.4077
350.80 0.4081
350.90 0.4086
351.00 0.409
351.10 0.4095
351.20 0.4099
351.30 0.4104
351.40 0.4108
351.50 0.4113
351.60 0.4117
351.70 0.4121
351.80 0.4126
351.90 0.413
352.00 0.4135
352.10 0.4139
352.20 0.4144
352.30 0.4148
352.40 0.4153
352.50 0.4157
352.60 0.4162
352.70 0.4166
352.80 0.4171
352.90 0.4175
353.00 0.418
353.10 0.4184
353.20 0.4189
353.30 0.4193
353.40 0.4198
353.50 0.4202
353.60 0.4206
353.70 0.4211
353.80 0.4215
353.90 0.422
354.00 0.4224
354.10 0.4229
354.20 0.4233
354.30 0.4238
354.40 0.4242
354.50 0.4247
354.60 0.4251
354.70 0.4256
354.80 0.426
354.90 0.4265
355.00 0.4269
355.10 0.4274
355.20 0.4278
355.30 0.4283
355.40 0.4287
355.50 0.4292
355.60 0.4296
355.70 0.4301
355.80 0.4305
355.90 0.431
356.00 0.4314
356.10 0.4319
356.20 0.4323
356.30 0.4328
356.40 0.4332
356.50 0.4337
356.60 0.4341
356.70 0.4346
356.80 0.435
356.90 0.4355
357.00 0.4359
357.10 0.4364
357.20 0.4368
357.30 0.4373
357.40 0.4377
357.50 0.4382
357.60 0.4386
357.70 0.4391
357.80 0.4395
357.90 0.44
358.00 0.4404
358.10 0.4409
358.20 0.4413
358.30 0.4418
358.40 0.4422
358.50 0.4427
358.60 0.4432
358.70 0.4436
358.80 0.4441
358.90 0.4445
359.00 0.445
359.10 0.4454
359.20 0.4459
359.30 0.4463
359.40 0.4468
359.50 0.4472
359.60 0.4477
359.70 0.4481
359.80 0.4486
359.90 0.449
360.00 0.4495
360.10 0.4499
360.20 0.4504
360.30 0.4508
360.40 0.4513
360.50 0.4517
360.60 0.4522
360.70 0.4527
360.80 0.4531
360.90 0.4536
361.00 0.454
361.10 0.4545
361.20 0.4549
361.30 0.4554
361.40 0.4558
361.50 0.4563
361.60 0.4567
361.70 0.4572
361.80 0.4576
361.90 0.4581
362.00 0.4585
362.10 0.459
362.20 0.4594
362.30 0.4599
362.40 0.4603
362.50 0.4608
362.60 0.4612
362.70 0.4617
362.80 0.4622
362.90 0.4626
363.00 0.4631
363.10 0.4635
363.20 0.464
363.30 0.4644
363.40 0.4649
363.50 0.4653
363.60 0.4658
363.70 0.4662
363.80 0.4667
363.90 0.4672
364.00 0.4676
364.10 0.4681
364.20 0.4685
364.30 0.469
364.40 0.4694
364.50 0.4699
364.60 0.4703
364.70 0.4708
364.80 0.4712
364.90 0.4717
365.00 0.4721
365.10 0.4726
365.20 0.4731
365.30 0.4735
365.40 0.474
365.50 0.4744
365.60 0.4749
365.70 0.4753
365.80 0.4758
365.90 0.4762
366.00 0.4767
366.10 0.4771
366.20 0.4776
366.30 0.4781
366.40 0.4785
366.50 0.479
366.60 0.4794
366.70 0.4799
366.80 0.4803
366.90 0.4808
367.00 0.4813
367.10 0.4817
367.20 0.4822
367.30 0.4826
367.40 0.4831
367.50 0.4835
367.60 0.484
367.70 0.4844
367.80 0.4849
367.90 0.4853
368.00 0.4858
368.10 0.4862
368.20 0.4867
368.30 0.4872
368.40 0.4876
368.50 0.4881
368.60 0.4885
368.70 0.489
368.80 0.4895
368.90 0.4899
369.00 0.4904
369.10 0.4908
369.20 0.4913
369.30 0.4917
369.40 0.4922
369.50 0.4926
369.60 0.4931
369.70 0.4935
369.80 0.494
369.90 0.4944
370.00 0.4949
370.10 0.4953
370.20 0.4958
370.30 0.4963
370.40 0.4967
370.50 0.4972
370.60 0.4976
370.70 0.4981
370.80 0.4986
370.90 0.499
371.00 0.4995
371.10 0.4999
371.20 0.5004
371.30 0.5008
371.40 0.5013
371.50 0.5017
371.60 0.5022
371.70 0.5026
371.80 0.5031
371.90 0.5035
372.00 0.504
372.10 0.5045
372.20 0.5049
372.30 0.5054
372.40 0.5058
372.50 0.5063
372.60 0.5068
372.70 0.5072
372.80 0.5077
372.90 0.5081
373.00 0.5086
373.10 0.509
373.20 0.5095
373.30 0.51
373.40 0.5104
373.50 0.5109
373.60 0.5113
373.70 0.5118
373.80 0.5122
373.90 0.5127
374.00 0.5131
374.10 0.5136
374.20 0.514
374.30 0.5145
374.40 0.515
374.50 0.5154
374.60 0.5159
374.70 0.5163
374.80 0.5168
374.90 0.5173
375.00 0.5177
375.10 0.5182
375.20 0.5186
375.30 0.5191
375.40 0.5195
375.50 0.52
375.60 0.5204
375.70 0.5209
375.80 0.5213
375.90 0.5218
376.00 0.5222
376.10 0.5227
376.20 0.5232
376.30 0.5236
376.40 0.5241
376.50 0.5245
376.60 0.525
376.70 0.5254
376.80 0.5259
376.90 0.5263
377.00 0.5268
377.10 0.5273
377.20 0.5277
377.30 0.5282
377.40 0.5286
377.50 0.5291
377.60 0.5295
377.70 0.53
377.80 0.5304
377.90 0.5309
378.00 0.5314
378.10 0.5318
378.20 0.5323
378.30 0.5327
378.40 0.5332
378.50 0.5336
378.60 0.5341
378.70 0.5345
378.80 0.535
378.90 0.5354
379.00 0.5359
379.10 0.5364
379.20 0.5368
379.30 0.5373
379.40 0.5377
379.50 0.5382
379.60 0.5386
379.70 0.5391
379.80 0.5395
379.90 0.54
380.00 0.5405
380.10 0.5409
380.20 0.5414
380.30 0.5418
380.40 0.5423
380.50 0.5427
380.60 0.5432
380.70 0.5436
380.80 0.5441
380.90 0.5446
381.00 0.545
381.10 0.5455
381.20 0.5459
381.30 0.5464
381.40 0.5468
381.50 0.5473
381.60 0.5477
381.70 0.5482
381.80 0.5486
381.90 0.5491
382.00 0.5495
382.10 0.55
382.20 0.5505
382.30 0.5509
382.40 0.5514
382.50 0.5518
382.60 0.5523
382.70 0.5527
382.80 0.5532
382.90 0.5537
383.00 0.5541
383.10 0.5546
383.20 0.555
383.30 0.5555
383.40 0.5559
383.50 0.5564
383.60 0.5568
383.70 0.5573
383.80 0.5577
383.90 0.5582
384.00 0.5586
384.10 0.5591
384.20 0.5595
384.30 0.56
384.40 0.5605
384.50 0.5609
384.60 0.5614
384.70 0.5618
384.80 0.5623
384.90 0.5627
385.00 0.5632
385.10 0.5636
385.20 0.5641
385.30 0.5645
385.40 0.565
385.50 0.5654
385.60 0.5659
385.70 0.5664
385.80 0.5668
385.90 0.5673
386.00 0.5677
386.10 0.5682
386.20 0.5686
386.30 0.5691
386.40 0.5695
386.50 0.57
386.60 0.5704
386.70 0.5709
386.80 0.5713
386.90 0.5718
387.00 0.5722
387.10 0.5727
387.20 0.5731
387.30 0.5736
387.40 0.5741
387.50 0.5745
387.60 0.575
387.70 0.5754
387.80 0.5759
387.90 0.5763
388.00 0.5768
388.10 0.5772
388.20 0.5777
388.30 0.5781
388.40 0.5786
388.50 0.579
388.60 0.5795
388.70 0.5799
388.80 0.5804
388.90 0.5808
389.00 0.5813
389.10 0.5817
389.20 0.5822
389.30 0.5826
389.40 0.5831
389.50 0.5835
389.60 0.584
389.70 0.5844
389.80 0.5849
389.90 0.5853
390.00 0.5858
390.10 0.5863
390.20 0.5867
390.30 0.5872
390.40 0.5876
390.50 0.5881
390.60 0.5885
390.70 0.589
390.80 0.5894
390.90 0.5899
391.00 0.5903
391.10 0.5908
391.20 0.5912
391.30 0.5917
391.40 0.5921
391.50 0.5926
391.60 0.593
391.70 0.5935
391.80 0.5939
391.90 0.5944
392.00 0.5948
392.10 0.5953
392.20 0.5957
392.30 0.5962
392.40 0.5966
392.50 0.5971
392.60 0.5975
392.70 0.598
392.80 0.5984
392.90 0.5989
393.00 0.5993
393.10 0.5998
393.20 0.6002
393.30 0.6007
393.40 0.6011
393.50 0.6016
393.60 0.602
393.70 0.6025
393.80 0.6029
393.90 0.6034
394.00 0.6038
394.10 0.6043
394.20 0.6047
394.30 0.6051
394.40 0.6056
394.50 0.606
394.60 0.6065
394.70 0.6069
394.80 0.6074
394.90 0.6078
395.00 0.6083
395.10 0.6087
395.20 0.6092
395.30 0.6096
395.40 0.6101
395.50 0.6105
395.60 0.611
395.70 0.6114
395.80 0.6119
395.90 0.6123
396.00 0.6128
396.10 0.6132
396.20 0.6137
396.30 0.6141
396.40 0.6146
396.50 0.615
396.60 0.6154
396.70 0.6159
396.80 0.6163
396.90 0.6168
397.00 0.6172
397.10 0.6177
397.20 0.6181
397.30 0.6186
397.40 0.619
397.50 0.6195
397.60 0.6199
397.70 0.6204
397.80 0.6208
397.90 0.6213
398.00 0.6217
398.10 0.6221
398.20 0.6226
398.30 0.623
398.40 0.6235
398.50 0.6239
398.60 0.6244
398.70 0.6248
398.80 0.6253
398.90 0.6257
399.00 0.6262
399.10 0.6266
399.20 0.627
399.30 0.6275
399.40 0.6279
399.50 0.6284
399.60 0.6288
399.70 0.6293
399.80 0.6297
399.90 0.6302
400.00 0.6306
400.10 0.631
400.20 0.6315
400.30 0.6319
400.40 0.6324
400.50 0.6328
400.60 0.6333
400.70 0.6337
400.80 0.6342
400.90 0.6346
401.00 0.635
401.10 0.6355
401.20 0.6359
401.30 0.6364
401.40 0.6368
401.50 0.6373
401.60 0.6377
401.70 0.6381
401.80 0.6386
401.90 0.639
402.00 0.6395
402.10 0.6399
402.20 0.6404
402.30 0.6408
402.40 0.6412
402.50 0.6417
402.60 0.6421
402.70 0.6426
402.80 0.643
402.90 0.6434
403.00 0.6439
403.10 0.6443
403.20 0.6448
403.30 0.6452
403.40 0.6457
403.50 0.6461
403.60 0.6465
403.70 0.647
403.80 0.6474
403.90 0.6479
404.00 0.6483
404.10 0.6487
404.20 0.6492
404.30 0.6496
404.40 0.6501
404.50 0.6505
404.60 0.6509
404.70 0.6514
404.80 0.6518
404.90 0.6523
405.00 0.6527
405.10 0.6531
405.20 0.6536
405.30 0.654
405.40 0.6545
405.50 0.6549
405.60 0.6553
405.70 0.6558
405.80 0.6562
405.90 0.6567
406.00 0.6571
406.10 0.6575
406.20 0.658
406.30 0.6584
406.40 0.6589
406.50 0.6593
406.60 0.6597
406.70 0.6602
406.80 0.6606
406.90 0.661
407.00 0.6615
407.10 0.6619
407.20 0.6624
407.30 0.6628
407.40 0.6632
407.50 0.6637
407.60 0.6641
407.70 0.6645
407.80 0.665
407.90 0.6654
408.00 0.6658
408.10 0.6663
408.20 0.6667
408.30 0.6672
408.40 0.6676
408.50 0.668
408.60 0.6685
408.70 0.6689
408.80 0.6693
408.90 0.6698
409.00 0.6702
409.10 0.6707
409.20 0.6711
409.30 0.6715
409.40 0.6719
409.50 0.6724
409.60 0.6728
409.70 0.6732
409.80 0.6737
409.90 0.6741
410.00 0.6745
410.10 0.675
410.20 0.6754
410.30 0.6758
410.40 0.6763
410.50 0.6767
410.60 0.6772
410.70 0.6776
410.80 0.678
410.90 0.6785
411.00 0.6789
411.10 0.6793
411.20 0.6798
411.30 0.6802
411.40 0.6806
411.50 0.6811
411.60 0.6815
411.70 0.6819
411.80 0.6824
411.90 0.6828
412.00 0.6832
412.10 0.6837
412.20 0.6841
412.30 0.6845
412.40 0.685
412.50 0.6854
412.60 0.6858
412.70 0.6863
412.80 0.6867
412.90 0.6871
413.00 0.6876
413.10 0.688
413.20 0.6884
413.30 0.6888
413.40 0.6893
413.50 0.6897
413.60 0.6901
413.70 0.6906
413.80 0.691
413.90 0.6914
414.00 0.6919
414.10 0.6923
414.20 0.6927
414.30 0.6931
414.40 0.6936
414.50 0.694
414.60 0.6944
414.70 0.6949
414.80 0.6953
414.90 0.6957
415.00 0.6962
415.10 0.6966
415.20 0.697
415.30 0.6974
415.40 0.6979
415.50 0.6983
415.60 0.6987
415.70 0.6991
415.80 0.6996
415.90 0.7
416.00 0.7004
416.10 0.7009
416.20 0.7013
416.30 0.7017
416.40 0.7021
416.50 0.7026
416.60 0.703
416.70 0.7034
416.80 0.7039
416.90 0.7043
417.00 0.7047
417.10 0.7051
417.20 0.7055
417.30 0.706
417.40 0.7064
417.50 0.7068
417.60 0.7073
417.70 0.7077
417.80 0.7081
417.90 0.7085
418.00 0.709
418.10 0.7094
418.20 0.7098
418.30 0.7102
418.40 0.7107
418.50 0.7111
418.60 0.7115
418.70 0.7119
418.80 0.7124
418.90 0.7128
419.00 0.7132
419.10 0.7136
419.20 0.7141
419.30 0.7145
419.40 0.7149
419.50 0.7153
419.60 0.7157
419.70 0.7162
419.80 0.7166
419.90 0.717
420.00 0.7174
420.10 0.7179
420.20 0.7183
420.30 0.7187
420.40 0.7191
420.50 0.7195
420.60 0.72
420.70 0.7204
420.80 0.7208
420.90 0.7212
421.00 0.7216
421.10 0.7221
421.20 0.7225
421.30 0.7229
421.40 0.7233
421.50 0.7238
421.60 0.7242
421.70 0.7246
421.80 0.725
421.90 0.7254
422.00 0.7259
422.10 0.7263
422.20 0.7267
422.30 0.7271
422.40 0.7275
422.50 0.728
422.60 0.7284
422.70 0.7288
422.80 0.7292
422.90 0.7296
423.00 0.73
423.10 0.7305
423.20 0.7309
423.30 0.7313
423.40 0.7317
423.50 0.7321
423.60 0.7326
423.70 0.733
423.80 0.7334
423.90 0.7338
424.00 0.7342
424.10 0.7346
424.20 0.7351
424.30 0.7355
424.40 0.7359
424.50 0.7363
424.60 0.7367
424.70 0.7371
424.80 0.7375
424.90 0.738
425.00 0.7384
425.10 0.7388
425.20 0.7392
425.30 0.7396
425.40 0.74
425.50 0.7405
425.60 0.7409
425.70 0.7413
425.80 0.7417
425.90 0.7421
426.00 0.7425
426.10 0.7429
426.20 0.7434
426.30 0.7438
426.40 0.7442
426.50 0.7446
426.60 0.745
426.70 0.7454
426.80 0.7458
426.90 0.7463
427.00 0.7467
427.10 0.7471
427.20 0.7475
427.30 0.7479
427.40 0.7483
427.50 0.7487
427.60 0.7491
427.70 0.7496
427.80 0.75
427.90 0.7504
428.00 0.7508
428.10 0.7512
428.20 0.7516
428.30 0.752
428.40 0.7524
428.50 0.7528
428.60 0.7533
428.70 0.7537
428.80 0.7541
428.90 0.7545
429.00 0.7549
429.10 0.7553
429.20 0.7557
429.30 0.7561
429.40 0.7565
429.50 0.7569
429.60 0.7573
429.70 0.7578
429.80 0.7582
429.90 0.7586
430.00 0.759
430.10 0.7594
430.20 0.7598
430.30 0.7602
430.40 0.7606
430.50 0.761
430.60 0.7614
430.70 0.7618
430.80 0.7622
430.90 0.7627
431.00 0.7631
431.10 0.7635
431.20 0.7639
431.30 0.7643
431.40 0.7647
431.50 0.7651
431.60 0.7655
431.70 0.7659
431.80 0.7663
431.90 0.7667
432.00 0.7671
432.10 0.7675
432.20 0.7679
432.30 0.7683
432.40 0.7687
432.50 0.7691
432.60 0.7695
432.70 0.7699
432.80 0.7703
432.90 0.7707
433.00 0.7711
433.10 0.7716
433.20 0.772
433.30 0.7723
433.40 0.7727
433.50 0.7731
433.60 0.7735
433.70 0.7739
433.80 0.7743
433.90 0.7747
434.00 0.775
434.10 0.7754
434.20 0.7759
434.30 0.7763
434.40 0.7767
434.50 0.7771
434.60 0.7776
434.70 0.778
434.80 0.7784
434.90 0.7788
435.00 0.7792
435.10 0.7796
435.20 0.78
435.30 0.7804
435.40 0.7808
435.50 0.7812
435.60 0.7816
435.70 0.782
435.80 0.7824
435.90 0.7828
436.00 0.7832
436.10 0.7836
436.20 0.784
436.30 0.7844
436.40 0.7848
436.50 0.7852
436.60 0.7856
436.70 0.786
436.80 0.7864
436.90 0.7868
437.00 0.7872
437.10 0.7876
437.20 0.788
437.30 0.7884
437.40 0.7888
437.50 0.7892
437.60 0.7896
437.70 0.79
437.80 0.7903
437.90 0.7907
438.00 0.7911
438.10 0.7915
438.20 0.7919
438.30 0.7923
438.40 0.7927
438.50 0.7931
438.60 0.7935
438.70 0.7939
438.80 0.7943
438.90 0.7947
439.00 0.7951
439.10 0.7955
439.20 0.7959
439.30 0.7963
439.40 0.7967
439.50 0.7971
439.60 0.7974
439.70 0.7978
439.80 0.7982
439.90 0.7986
440.00 0.799
440.10 0.7994
440.20 0.7998
440.30 0.8002
440.40 0.8006
440.50 0.801
440.60 0.8014
440.70 0.8017
440.80 0.8021
440.90 0.8025
441.00 0.8029
441.10 0.8033
441.20 0.8037
441.30 0.8041
441.40 0.8045
441.50 0.8049
441.60 0.8053
441.70 0.8056
441.80 0.806
441.90 0.8064
442.00 0.8068
442.10 0.8072
442.20 0.8076
442.30 0.808
442.40 0.8084
442.50 0.8088
442.60 0.8091
442.70 0.8095
442.80 0.8099
442.90 0.8103
443.00 0.8107
443.10 0.8111
