# Version 2.1 - nm, norm@500 to 1, cut digits, bergeron_12000_90.dat_12000
# Wavelength(nm)  Flambda(ergs/cm^s/s/nm)
300.00 2.176
300.10 2.175
300.20 2.174
300.30 2.172
300.40 2.171
300.50 2.17
300.60 2.169
300.70 2.167
300.80 2.166
300.90 2.165
301.00 2.164
301.10 2.162
301.20 2.161
301.30 2.16
301.40 2.159
301.50 2.158
301.60 2.156
301.70 2.155
301.80 2.154
301.90 2.153
302.00 2.151
302.10 2.15
302.20 2.149
302.30 2.148
302.40 2.146
302.50 2.145
302.60 2.144
302.70 2.143
302.80 2.141
302.90 2.14
303.00 2.139
303.10 2.138
303.20 2.136
303.30 2.135
303.40 2.134
303.50 2.133
303.60 2.132
303.70 2.13
303.80 2.129
303.90 2.128
304.00 2.127
304.10 2.125
304.20 2.124
304.30 2.123
304.40 2.122
304.50 2.12
304.60 2.119
304.70 2.118
304.80 2.117
304.90 2.116
305.00 2.114
305.10 2.113
305.20 2.112
305.30 2.111
305.40 2.109
305.50 2.108
305.60 2.107
305.70 2.106
305.80 2.105
305.90 2.103
306.00 2.102
306.10 2.101
306.20 2.1
306.30 2.098
306.40 2.097
306.50 2.096
306.60 2.095
306.70 2.094
306.80 2.092
306.90 2.091
307.00 2.09
307.10 2.089
307.20 2.088
307.30 2.086
307.40 2.085
307.50 2.084
307.60 2.083
307.70 2.082
307.80 2.08
307.90 2.079
308.00 2.078
308.10 2.077
308.20 2.076
308.30 2.074
308.40 2.073
308.50 2.072
308.60 2.071
308.70 2.069
308.80 2.068
308.90 2.067
309.00 2.066
309.10 2.065
309.20 2.063
309.30 2.062
309.40 2.061
309.50 2.06
309.60 2.059
309.70 2.058
309.80 2.056
309.90 2.055
310.00 2.054
310.10 2.053
310.20 2.052
310.30 2.05
310.40 2.049
310.50 2.048
310.60 2.047
310.70 2.046
310.80 2.044
310.90 2.043
311.00 2.042
311.10 2.041
311.20 2.04
311.30 2.038
311.40 2.037
311.50 2.036
311.60 2.035
311.70 2.034
311.80 2.033
311.90 2.031
312.00 2.03
312.10 2.029
312.20 2.028
312.30 2.027
312.40 2.025
312.50 2.024
312.60 2.023
312.70 2.022
312.80 2.021
312.90 2.02
313.00 2.018
313.10 2.017
313.20 2.016
313.30 2.015
313.40 2.014
313.50 2.013
313.60 2.011
313.70 2.01
313.80 2.009
313.90 2.008
314.00 2.007
314.10 2.006
314.20 2.004
314.30 2.003
314.40 2.002
314.50 2.001
314.60 2
314.70 1.999
314.80 1.997
314.90 1.996
315.00 1.995
315.10 1.994
315.20 1.993
315.30 1.992
315.40 1.99
315.50 1.989
315.60 1.988
315.70 1.987
315.80 1.986
315.90 1.985
316.00 1.984
316.10 1.982
316.20 1.981
316.30 1.98
316.40 1.979
316.50 1.978
316.60 1.977
316.70 1.975
316.80 1.974
316.90 1.973
317.00 1.972
317.10 1.971
317.20 1.97
317.30 1.969
317.40 1.967
317.50 1.966
317.60 1.965
317.70 1.964
317.80 1.963
317.90 1.962
318.00 1.961
318.10 1.959
318.20 1.958
318.30 1.957
318.40 1.956
318.50 1.955
318.60 1.954
318.70 1.953
318.80 1.951
318.90 1.95
319.00 1.949
319.10 1.948
319.20 1.947
319.30 1.946
319.40 1.945
319.50 1.943
319.60 1.942
319.70 1.941
319.80 1.94
319.90 1.939
320.00 1.938
320.10 1.937
320.20 1.936
320.30 1.934
320.40 1.933
320.50 1.932
320.60 1.931
320.70 1.93
320.80 1.929
320.90 1.928
321.00 1.927
321.10 1.925
321.20 1.924
321.30 1.923
321.40 1.922
321.50 1.921
321.60 1.92
321.70 1.919
321.80 1.918
321.90 1.916
322.00 1.915
322.10 1.914
322.20 1.913
322.30 1.912
322.40 1.911
322.50 1.91
322.60 1.909
322.70 1.908
322.80 1.906
322.90 1.905
323.00 1.904
323.10 1.903
323.20 1.902
323.30 1.901
323.40 1.9
323.50 1.899
323.60 1.898
323.70 1.896
323.80 1.895
323.90 1.894
324.00 1.893
324.10 1.892
324.20 1.891
324.30 1.89
324.40 1.889
324.50 1.888
324.60 1.886
324.70 1.885
324.80 1.884
324.90 1.883
325.00 1.882
325.10 1.881
325.20 1.88
325.30 1.879
325.40 1.878
325.50 1.877
325.60 1.876
325.70 1.874
325.80 1.873
325.90 1.872
326.00 1.871
326.10 1.87
326.20 1.869
326.30 1.868
326.40 1.867
326.50 1.866
326.60 1.865
326.70 1.863
326.80 1.862
326.90 1.861
327.00 1.86
327.10 1.859
327.20 1.858
327.30 1.857
327.40 1.856
327.50 1.855
327.60 1.854
327.70 1.853
327.80 1.852
327.90 1.85
328.00 1.849
328.10 1.848
328.20 1.847
328.30 1.846
328.40 1.845
328.50 1.844
328.60 1.843
328.70 1.842
328.80 1.841
328.90 1.84
329.00 1.839
329.10 1.838
329.20 1.836
329.30 1.835
329.40 1.834
329.50 1.833
329.60 1.832
329.70 1.831
329.80 1.83
329.90 1.829
330.00 1.828
330.10 1.827
330.20 1.826
330.30 1.825
330.40 1.824
330.50 1.823
330.60 1.822
330.70 1.82
330.80 1.819
330.90 1.818
331.00 1.817
331.10 1.816
331.20 1.815
331.30 1.814
331.40 1.813
331.50 1.812
331.60 1.811
331.70 1.81
331.80 1.809
331.90 1.808
332.00 1.807
332.10 1.806
332.20 1.805
332.30 1.804
332.40 1.802
332.50 1.801
332.60 1.8
332.70 1.799
332.80 1.798
332.90 1.797
333.00 1.796
333.10 1.795
333.20 1.794
333.30 1.793
333.40 1.792
333.50 1.791
333.60 1.79
333.70 1.789
333.80 1.788
333.90 1.787
334.00 1.786
334.10 1.785
334.20 1.784
334.30 1.783
334.40 1.782
334.50 1.78
334.60 1.779
334.70 1.778
334.80 1.777
334.90 1.776
335.00 1.775
335.10 1.774
335.20 1.773
335.30 1.772
335.40 1.771
335.50 1.77
335.60 1.769
335.70 1.768
335.80 1.767
335.90 1.766
336.00 1.765
336.10 1.764
336.20 1.763
336.30 1.762
336.40 1.761
336.50 1.76
336.60 1.759
336.70 1.758
336.80 1.757
336.90 1.756
337.00 1.755
337.10 1.754
337.20 1.753
337.30 1.752
337.40 1.751
337.50 1.75
337.60 1.749
337.70 1.748
337.80 1.746
337.90 1.745
338.00 1.744
338.10 1.743
338.20 1.742
338.30 1.741
338.40 1.74
338.50 1.739
338.60 1.738
338.70 1.737
338.80 1.736
338.90 1.735
339.00 1.734
339.10 1.733
339.20 1.732
339.30 1.731
339.40 1.73
339.50 1.729
339.60 1.728
339.70 1.727
339.80 1.726
339.90 1.725
340.00 1.724
340.10 1.723
340.20 1.722
340.30 1.721
340.40 1.72
340.50 1.719
340.60 1.718
340.70 1.717
340.80 1.716
340.90 1.715
341.00 1.714
341.10 1.713
341.20 1.712
341.30 1.711
341.40 1.71
341.50 1.709
341.60 1.708
341.70 1.707
341.80 1.706
341.90 1.705
342.00 1.704
342.10 1.703
342.20 1.702
342.30 1.701
342.40 1.7
342.50 1.699
342.60 1.698
342.70 1.697
342.80 1.696
342.90 1.695
343.00 1.694
343.10 1.693
343.20 1.692
343.30 1.691
343.40 1.69
343.50 1.689
343.60 1.688
343.70 1.687
343.80 1.686
343.90 1.685
344.00 1.684
344.10 1.683
344.20 1.682
344.30 1.681
344.40 1.68
344.50 1.679
344.60 1.679
344.70 1.678
344.80 1.677
344.90 1.676
345.00 1.675
345.10 1.674
345.20 1.673
345.30 1.672
345.40 1.671
345.50 1.67
345.60 1.669
345.70 1.668
345.80 1.667
345.90 1.666
346.00 1.665
346.10 1.664
346.20 1.663
346.30 1.662
346.40 1.661
346.50 1.66
346.60 1.659
346.70 1.658
346.80 1.657
346.90 1.656
347.00 1.655
347.10 1.654
347.20 1.653
347.30 1.652
347.40 1.651
347.50 1.65
347.60 1.649
347.70 1.648
347.80 1.647
347.90 1.647
348.00 1.646
348.10 1.645
348.20 1.644
348.30 1.643
348.40 1.642
348.50 1.641
348.60 1.64
348.70 1.639
348.80 1.638
348.90 1.637
349.00 1.636
349.10 1.635
349.20 1.634
349.30 1.633
349.40 1.632
349.50 1.631
349.60 1.63
349.70 1.629
349.80 1.628
349.90 1.627
350.00 1.626
350.10 1.626
350.20 1.625
350.30 1.624
350.40 1.623
350.50 1.622
350.60 1.621
350.70 1.62
350.80 1.619
350.90 1.618
351.00 1.617
351.10 1.616
351.20 1.615
351.30 1.614
351.40 1.613
351.50 1.612
351.60 1.611
351.70 1.61
351.80 1.61
351.90 1.609
352.00 1.608
352.10 1.607
352.20 1.606
352.30 1.605
352.40 1.604
352.50 1.603
352.60 1.602
352.70 1.601
352.80 1.6
352.90 1.599
353.00 1.598
353.10 1.597
353.20 1.596
353.30 1.595
353.40 1.595
353.50 1.594
353.60 1.593
353.70 1.592
353.80 1.591
353.90 1.59
354.00 1.589
354.10 1.588
354.20 1.587
354.30 1.586
354.40 1.585
354.50 1.584
354.60 1.583
354.70 1.583
354.80 1.582
354.90 1.581
355.00 1.58
355.10 1.579
355.20 1.578
355.30 1.577
355.40 1.576
355.50 1.575
355.60 1.574
355.70 1.573
355.80 1.572
355.90 1.572
356.00 1.571
356.10 1.57
356.20 1.569
356.30 1.568
356.40 1.567
356.50 1.566
356.60 1.565
356.70 1.564
356.80 1.563
356.90 1.562
357.00 1.562
357.10 1.561
357.20 1.56
357.30 1.559
357.40 1.558
357.50 1.557
357.60 1.556
357.70 1.555
357.80 1.554
357.90 1.553
358.00 1.552
358.10 1.552
358.20 1.551
358.30 1.55
358.40 1.549
358.50 1.548
358.60 1.547
358.70 1.546
358.80 1.545
358.90 1.544
359.00 1.543
359.10 1.543
359.20 1.542
359.30 1.541
359.40 1.54
359.50 1.539
359.60 1.538
359.70 1.537
359.80 1.536
359.90 1.535
360.00 1.535
360.10 1.534
360.20 1.533
360.30 1.532
360.40 1.531
360.50 1.53
360.60 1.529
360.70 1.528
360.80 1.527
360.90 1.527
361.00 1.526
361.10 1.525
361.20 1.524
361.30 1.523
361.40 1.522
361.50 1.521
361.60 1.52
361.70 1.519
361.80 1.519
361.90 1.518
362.00 1.517
362.10 1.516
362.20 1.515
362.30 1.514
362.40 1.513
362.50 1.512
362.60 1.512
362.70 1.511
362.80 1.51
362.90 1.509
363.00 1.508
363.10 1.507
363.20 1.506
363.30 1.505
363.40 1.504
363.50 1.503
363.60 1.502
363.70 1.501
363.80 1.5
363.90 1.499
364.00 1.498
364.10 1.497
364.20 1.496
364.30 1.495
364.40 1.494
364.50 1.493
364.60 1.492
364.70 1.491
364.80 1.489
364.90 1.488
365.00 1.487
365.10 1.486
365.20 1.485
365.30 1.484
365.40 1.483
365.50 1.482
365.60 1.481
365.70 1.48
365.80 1.479
365.90 1.478
366.00 1.477
366.10 1.476
366.20 1.475
366.30 1.474
366.40 1.473
366.50 1.472
366.60 1.471
366.70 1.47
366.80 1.47
366.90 1.469
367.00 1.468
367.10 1.467
367.20 1.466
367.30 1.465
367.40 1.464
367.50 1.463
367.60 1.462
367.70 1.461
367.80 1.461
367.90 1.46
368.00 1.459
368.10 1.458
368.20 1.457
368.30 1.456
368.40 1.455
368.50 1.454
368.60 1.453
368.70 1.452
368.80 1.452
368.90 1.451
369.00 1.45
369.10 1.449
369.20 1.448
369.30 1.447
369.40 1.446
369.50 1.445
369.60 1.444
369.70 1.444
369.80 1.443
369.90 1.442
370.00 1.441
370.10 1.44
370.20 1.439
370.30 1.439
370.40 1.438
370.50 1.437
370.60 1.436
370.70 1.436
370.80 1.435
370.90 1.434
371.00 1.433
371.10 1.433
371.20 1.432
371.30 1.431
371.40 1.43
371.50 1.43
371.60 1.429
371.70 1.428
371.80 1.427
371.90 1.427
372.00 1.426
372.10 1.425
372.20 1.425
372.30 1.424
372.40 1.424
372.50 1.423
372.60 1.423
372.70 1.423
372.80 1.422
372.90 1.422
373.00 1.421
373.10 1.421
373.20 1.42
373.30 1.42
373.40 1.419
373.50 1.419
373.60 1.418
373.70 1.418
373.80 1.417
373.90 1.417
374.00 1.416
374.10 1.416
374.20 1.416
374.30 1.416
374.40 1.415
374.50 1.415
374.60 1.415
374.70 1.414
374.80 1.414
374.90 1.414
375.00 1.414
375.10 1.413
375.20 1.413
375.30 1.413
375.40 1.413
375.50 1.412
375.60 1.412
375.70 1.412
375.80 1.412
375.90 1.411
376.00 1.411
376.10 1.411
376.20 1.41
376.30 1.41
376.40 1.41
376.50 1.409
376.60 1.409
376.70 1.409
376.80 1.408
376.90 1.408
377.00 1.408
377.10 1.407
377.20 1.406
377.30 1.406
377.40 1.405
377.50 1.404
377.60 1.403
377.70 1.403
377.80 1.402
377.90 1.401
378.00 1.4
378.10 1.398
378.20 1.396
378.30 1.394
378.40 1.392
378.50 1.39
378.60 1.388
378.70 1.386
378.80 1.384
378.90 1.382
379.00 1.38
379.10 1.379
379.20 1.378
379.30 1.376
379.40 1.375
379.50 1.374
379.60 1.372
379.70 1.371
379.80 1.37
379.90 1.368
380.00 1.367
380.10 1.368
380.20 1.37
380.30 1.371
380.40 1.372
380.50 1.374
380.60 1.375
380.70 1.376
380.80 1.377
380.90 1.379
381.00 1.38
381.10 1.38
381.20 1.38
381.30 1.381
381.40 1.381
381.50 1.381
381.60 1.38
381.70 1.379
381.80 1.378
381.90 1.376
382.00 1.374
382.10 1.372
382.20 1.37
382.30 1.365
382.40 1.36
382.50 1.355
382.60 1.351
382.70 1.346
382.80 1.341
382.90 1.337
383.00 1.332
383.10 1.327
383.20 1.323
383.30 1.32
383.40 1.316
383.50 1.313
383.60 1.313
383.70 1.317
383.80 1.321
383.90 1.324
384.00 1.328
384.10 1.334
384.20 1.34
384.30 1.345
384.40 1.351
384.50 1.356
384.60 1.361
384.70 1.365
384.80 1.368
384.90 1.371
385.00 1.374
385.10 1.376
385.20 1.377
385.30 1.379
385.40 1.38
385.50 1.381
385.60 1.381
385.70 1.381
385.80 1.381
385.90 1.381
386.00 1.38
386.10 1.379
386.20 1.377
386.30 1.375
386.40 1.373
386.50 1.371
386.60 1.369
386.70 1.366
386.80 1.362
386.90 1.359
387.00 1.355
387.10 1.35
387.20 1.346
387.30 1.34
387.40 1.335
387.50 1.329
387.60 1.322
387.70 1.315
387.80 1.307
387.90 1.299
388.00 1.289
388.10 1.278
388.20 1.267
388.30 1.254
388.40 1.24
388.50 1.228
388.60 1.217
388.70 1.21
388.80 1.204
388.90 1.199
389.00 1.204
389.10 1.21
389.20 1.217
389.30 1.228
389.40 1.24
389.50 1.254
389.60 1.267
389.70 1.279
389.80 1.29
389.90 1.3
390.00 1.309
390.10 1.318
390.20 1.325
390.30 1.332
390.40 1.339
390.50 1.345
390.60 1.351
390.70 1.356
390.80 1.361
390.90 1.365
391.00 1.37
391.10 1.374
391.20 1.377
391.30 1.38
391.40 1.383
391.50 1.386
391.60 1.388
391.70 1.39
391.80 1.392
391.90 1.393
392.00 1.394
392.10 1.395
392.20 1.396
392.30 1.396
392.40 1.396
392.50 1.396
392.60 1.395
392.70 1.394
392.80 1.393
392.90 1.391
393.00 1.389
393.10 1.387
393.20 1.384
393.30 1.382
393.40 1.379
393.50 1.375
393.60 1.371
393.70 1.367
393.80 1.363
393.90 1.358
394.00 1.353
394.10 1.347
394.20 1.341
394.30 1.335
394.40 1.328
394.50 1.321
394.60 1.313
394.70 1.305
394.80 1.297
394.90 1.288
395.00 1.279
395.10 1.269
395.20 1.259
395.30 1.248
395.40 1.237
395.50 1.225
395.60 1.212
395.70 1.199
395.80 1.186
395.90 1.171
396.00 1.156
396.10 1.14
396.20 1.122
396.30 1.103
396.40 1.082
396.50 1.057
396.60 1.032
396.70 1.005
396.80 0.986
396.90 0.9674
397.00 0.9494
397.10 0.9659
397.20 0.9831
397.30 1.001
397.40 1.027
397.50 1.053
397.60 1.077
397.70 1.098
397.80 1.118
397.90 1.135
398.00 1.151
398.10 1.167
398.20 1.181
398.30 1.195
398.40 1.208
398.50 1.221
398.60 1.233
398.70 1.244
398.80 1.255
398.90 1.266
399.00 1.276
399.10 1.286
399.20 1.295
399.30 1.304
399.40 1.313
399.50 1.321
399.60 1.328
399.70 1.336
399.80 1.343
399.90 1.35
400.00 1.356
400.10 1.363
400.20 1.368
400.30 1.374
400.40 1.379
400.50 1.384
400.60 1.389
400.70 1.394
400.80 1.398
400.90 1.402
401.00 1.406
401.10 1.409
401.20 1.413
401.30 1.416
401.40 1.419
401.50 1.421
401.60 1.424
401.70 1.426
401.80 1.428
401.90 1.43
402.00 1.432
402.10 1.433
402.20 1.434
402.30 1.435
402.40 1.436
402.50 1.437
402.60 1.438
402.70 1.438
402.80 1.438
402.90 1.438
403.00 1.438
403.10 1.437
403.20 1.437
403.30 1.436
403.40 1.435
403.50 1.434
403.60 1.432
403.70 1.431
403.80 1.429
403.90 1.427
404.00 1.425
404.10 1.423
404.20 1.42
404.30 1.418
404.40 1.415
404.50 1.412
404.60 1.408
404.70 1.405
404.80 1.401
404.90 1.397
405.00 1.393
405.10 1.389
405.20 1.384
405.30 1.38
405.40 1.375
405.50 1.369
405.60 1.364
405.70 1.358
405.80 1.352
405.90 1.346
406.00 1.34
406.10 1.333
406.20 1.326
406.30 1.319
406.40 1.311
406.50 1.303
406.60 1.295
406.70 1.287
406.80 1.278
406.90 1.269
407.00 1.259
407.10 1.249
407.20 1.239
407.30 1.229
407.40 1.218
407.50 1.207
407.60 1.195
407.70 1.183
407.80 1.17
407.90 1.157
408.00 1.144
408.10 1.13
408.20 1.115
408.30 1.1
408.40 1.085
408.50 1.069
408.60 1.052
408.70 1.035
408.80 1.017
408.90 0.9987
409.00 0.98
409.10 0.9606
409.20 0.9407
409.30 0.9204
409.40 0.8988
409.50 0.8759
409.60 0.852
409.70 0.8243
409.80 0.795
409.90 0.7639
410.00 0.7388
410.10 0.7209
410.20 0.7101
410.30 0.7284
410.40 0.7513
410.50 0.779
410.60 0.8088
410.70 0.8364
410.80 0.8619
410.90 0.8842
411.00 0.9055
411.10 0.9258
411.20 0.9449
411.30 0.9637
411.40 0.982
411.50 0.9996
411.60 1.017
411.70 1.033
411.80 1.049
411.90 1.065
412.00 1.08
412.10 1.094
412.20 1.108
412.30 1.121
412.40 1.134
412.50 1.146
412.60 1.158
412.70 1.17
412.80 1.181
412.90 1.192
413.00 1.202
413.10 1.212
413.20 1.222
413.30 1.231
413.40 1.24
413.50 1.249
413.60 1.257
413.70 1.265
413.80 1.273
413.90 1.28
414.00 1.288
414.10 1.295
414.20 1.302
414.30 1.308
414.40 1.315
414.50 1.321
414.60 1.327
414.70 1.332
414.80 1.338
414.90 1.343
415.00 1.349
415.10 1.354
415.20 1.359
415.30 1.363
415.40 1.368
415.50 1.372
415.60 1.377
415.70 1.381
415.80 1.385
415.90 1.389
416.00 1.392
416.10 1.396
416.20 1.4
416.30 1.403
416.40 1.406
416.50 1.409
416.60 1.412
416.70 1.415
416.80 1.418
416.90 1.421
417.00 1.423
417.10 1.426
417.20 1.428
417.30 1.431
417.40 1.433
417.50 1.435
417.60 1.437
417.70 1.439
417.80 1.441
417.90 1.442
418.00 1.444
418.10 1.446
418.20 1.447
418.30 1.449
418.40 1.45
418.50 1.451
418.60 1.453
418.70 1.454
418.80 1.455
418.90 1.456
419.00 1.457
419.10 1.458
419.20 1.459
419.30 1.459
419.40 1.46
419.50 1.461
419.60 1.461
419.70 1.462
419.80 1.462
419.90 1.463
420.00 1.463
420.10 1.463
420.20 1.463
420.30 1.463
420.40 1.464
420.50 1.464
420.60 1.464
420.70 1.463
420.80 1.463
420.90 1.463
421.00 1.463
421.10 1.463
421.20 1.462
421.30 1.462
421.40 1.461
421.50 1.461
421.60 1.46
421.70 1.459
421.80 1.459
421.90 1.458
422.00 1.457
422.10 1.456
422.20 1.455
422.30 1.454
422.40 1.453
422.50 1.452
422.60 1.451
422.70 1.45
422.80 1.449
422.90 1.447
423.00 1.446
423.10 1.445
423.20 1.443
423.30 1.442
423.40 1.44
423.50 1.438
423.60 1.437
423.70 1.435
423.80 1.433
423.90 1.431
424.00 1.43
424.10 1.428
424.20 1.426
424.30 1.423
424.40 1.421
424.50 1.419
424.60 1.417
424.70 1.414
424.80 1.412
424.90 1.41
425.00 1.407
425.10 1.404
425.20 1.402
425.30 1.399
425.40 1.396
425.50 1.393
425.60 1.39
425.70 1.387
425.80 1.384
425.90 1.381
426.00 1.378
426.10 1.375
426.20 1.371
426.30 1.367
426.40 1.363
426.50 1.36
426.60 1.356
426.70 1.352
426.80 1.348
426.90 1.344
427.00 1.34
427.10 1.336
427.20 1.331
427.30 1.327
427.40 1.323
427.50 1.318
427.60 1.314
427.70 1.309
427.80 1.304
427.90 1.299
428.00 1.294
428.10 1.289
428.20 1.283
428.30 1.278
428.40 1.272
428.50 1.267
428.60 1.261
428.70 1.255
428.80 1.249
428.90 1.243
429.00 1.236
429.10 1.23
429.20 1.223
429.30 1.217
429.40 1.21
429.50 1.203
429.60 1.195
429.70 1.188
429.80 1.18
429.90 1.172
430.00 1.164
430.10 1.156
430.20 1.148
430.30 1.139
430.40 1.13
430.50 1.121
430.60 1.112
430.70 1.102
430.80 1.092
430.90 1.082
431.00 1.071
431.10 1.061
431.20 1.05
431.30 1.039
431.40 1.027
431.50 1.015
431.60 1.003
431.70 0.9904
431.80 0.9775
431.90 0.964
432.00 0.9501
432.10 0.9359
432.20 0.9208
432.30 0.9053
432.40 0.8893
432.50 0.8722
432.60 0.8546
432.70 0.8365
432.80 0.8175
432.90 0.7984
433.00 0.7792
433.10 0.7602
433.20 0.7414
433.30 0.723
433.40 0.7045
433.50 0.6852
433.60 0.6649
433.70 0.6394
433.80 0.6098
433.90 0.5762
434.00 0.5351
434.10 0.5358
434.20 0.5785
434.30 0.6113
434.40 0.64
434.50 0.6647
434.60 0.6842
434.70 0.7029
434.80 0.7207
434.90 0.7385
435.00 0.7566
435.10 0.7748
435.20 0.7933
435.30 0.8115
435.40 0.8295
435.50 0.8467
435.60 0.8633
435.70 0.8793
435.80 0.8942
435.90 0.9087
436.00 0.9227
436.10 0.9358
436.20 0.9486
436.30 0.9609
436.40 0.9726
436.50 0.984
436.60 0.9951
436.70 1.006
436.80 1.016
436.90 1.026
437.00 1.036
437.10 1.045
437.20 1.054
437.30 1.063
437.40 1.072
437.50 1.08
437.60 1.088
437.70 1.096
437.80 1.104
437.90 1.111
438.00 1.118
438.10 1.125
438.20 1.132
438.30 1.138
438.40 1.144
438.50 1.15
438.60 1.156
438.70 1.162
438.80 1.167
438.90 1.173
439.00 1.178
439.10 1.183
439.20 1.188
439.30 1.193
439.40 1.198
439.50 1.202
439.60 1.207
439.70 1.211
439.80 1.215
439.90 1.219
440.00 1.223
440.10 1.227
440.20 1.231
440.30 1.235
440.40 1.238
440.50 1.242
440.60 1.245
440.70 1.248
440.80 1.251
440.90 1.254
441.00 1.257
441.10 1.26
441.20 1.263
441.30 1.266
441.40 1.269
441.50 1.271
441.60 1.274
441.70 1.276
441.80 1.279
441.90 1.281
442.00 1.283
442.10 1.285
442.20 1.288
442.30 1.29
442.40 1.291
442.50 1.293
442.60 1.295
442.70 1.297
442.80 1.299
442.90 1.3
443.00 1.302
443.10 1.304
443.20 1.305
443.30 1.307
443.40 1.308
443.50 1.309
443.60 1.311
443.70 1.312
443.80 1.313
443.90 1.315
444.00 1.316
444.10 1.317
444.20 1.318
444.30 1.319
444.40 1.32
444.50 1.321
444.60 1.322
444.70 1.323
444.80 1.324
444.90 1.325
445.00 1.325
445.10 1.326
445.20 1.327
445.30 1.328
445.40 1.328
445.50 1.329
445.60 1.33
445.70 1.33
445.80 1.331
445.90 1.331
446.00 1.332
446.10 1.332
446.20 1.333
446.30 1.333
446.40 1.334
446.50 1.334
446.60 1.335
446.70 1.335
446.80 1.335
446.90 1.336
447.00 1.336
447.10 1.336
447.20 1.336
447.30 1.337
447.40 1.337
447.50 1.337
447.60 1.337
447.70 1.337
447.80 1.337
447.90 1.337
448.00 1.338
448.10 1.338
448.20 1.338
448.30 1.338
448.40 1.338
448.50 1.338
448.60 1.338
448.70 1.338
448.80 1.338
448.90 1.338
449.00 1.338
449.10 1.338
449.20 1.338
449.30 1.338
449.40 1.337
449.50 1.337
449.60 1.337
449.70 1.337
449.80 1.337
449.90 1.337
450.00 1.336
450.10 1.336
450.20 1.336
450.30 1.336
450.40 1.336
450.50 1.335
450.60 1.335
450.70 1.335
450.80 1.335
450.90 1.334
451.00 1.334
451.10 1.334
451.20 1.333
451.30 1.333
451.40 1.333
451.50 1.333
451.60 1.332
451.70 1.332
451.80 1.331
451.90 1.331
452.00 1.331
452.10 1.33
452.20 1.33
452.30 1.33
452.40 1.329
452.50 1.329
452.60 1.328
452.70 1.328
452.80 1.327
452.90 1.327
453.00 1.327
453.10 1.326
453.20 1.326
453.30 1.325
453.40 1.325
453.50 1.324
