# Version 2.1 - nm, norm@500 to 1, cut digits, bergeron_17000_70.dat_17000
# Wavelength(nm)  Flambda(ergs/cm^s/s/nm)
300.00 2.569
300.10 2.567
300.20 2.565
300.30 2.562
300.40 2.56
300.50 2.558
300.60 2.556
300.70 2.554
300.80 2.552
300.90 2.55
301.00 2.547
301.10 2.545
301.20 2.543
301.30 2.541
301.40 2.539
301.50 2.537
301.60 2.535
301.70 2.532
301.80 2.53
301.90 2.528
302.00 2.526
302.10 2.524
302.20 2.522
302.30 2.52
302.40 2.518
302.50 2.515
302.60 2.513
302.70 2.511
302.80 2.509
302.90 2.507
303.00 2.505
303.10 2.503
303.20 2.501
303.30 2.499
303.40 2.497
303.50 2.494
303.60 2.492
303.70 2.49
303.80 2.488
303.90 2.486
304.00 2.484
304.10 2.482
304.20 2.48
304.30 2.478
304.40 2.476
304.50 2.474
304.60 2.472
304.70 2.47
304.80 2.467
304.90 2.465
305.00 2.463
305.10 2.461
305.20 2.459
305.30 2.457
305.40 2.455
305.50 2.453
305.60 2.451
305.70 2.449
305.80 2.447
305.90 2.445
306.00 2.443
306.10 2.441
306.20 2.439
306.30 2.437
306.40 2.435
306.50 2.433
306.60 2.431
306.70 2.429
306.80 2.427
306.90 2.425
307.00 2.423
307.10 2.421
307.20 2.419
307.30 2.417
307.40 2.415
307.50 2.413
307.60 2.411
307.70 2.409
307.80 2.407
307.90 2.405
308.00 2.403
308.10 2.401
308.20 2.399
308.30 2.397
308.40 2.395
308.50 2.393
308.60 2.391
308.70 2.389
308.80 2.387
308.90 2.385
309.00 2.383
309.10 2.381
309.20 2.379
309.30 2.377
309.40 2.375
309.50 2.373
309.60 2.371
309.70 2.369
309.80 2.367
309.90 2.365
310.00 2.363
310.10 2.362
310.20 2.36
310.30 2.358
310.40 2.356
310.50 2.354
310.60 2.352
310.70 2.35
310.80 2.348
310.90 2.346
311.00 2.344
311.10 2.342
311.20 2.34
311.30 2.338
311.40 2.336
311.50 2.335
311.60 2.333
311.70 2.331
311.80 2.329
311.90 2.327
312.00 2.325
312.10 2.323
312.20 2.321
312.30 2.319
312.40 2.317
312.50 2.316
312.60 2.314
312.70 2.312
312.80 2.31
312.90 2.308
313.00 2.306
313.10 2.304
313.20 2.302
313.30 2.3
313.40 2.299
313.50 2.297
313.60 2.295
313.70 2.293
313.80 2.291
313.90 2.289
314.00 2.287
314.10 2.285
314.20 2.284
314.30 2.282
314.40 2.28
314.50 2.278
314.60 2.276
314.70 2.274
314.80 2.273
314.90 2.271
315.00 2.269
315.10 2.267
315.20 2.265
315.30 2.263
315.40 2.261
315.50 2.26
315.60 2.258
315.70 2.256
315.80 2.254
315.90 2.252
316.00 2.251
316.10 2.249
316.20 2.247
316.30 2.245
316.40 2.243
316.50 2.241
316.60 2.24
316.70 2.238
316.80 2.236
316.90 2.234
317.00 2.232
317.10 2.231
317.20 2.229
317.30 2.227
317.40 2.225
317.50 2.223
317.60 2.222
317.70 2.22
317.80 2.218
317.90 2.216
318.00 2.214
318.10 2.213
318.20 2.211
318.30 2.209
318.40 2.207
318.50 2.206
318.60 2.204
318.70 2.202
318.80 2.2
318.90 2.199
319.00 2.197
319.10 2.195
319.20 2.193
319.30 2.191
319.40 2.19
319.50 2.188
319.60 2.186
319.70 2.185
319.80 2.183
319.90 2.181
320.00 2.179
320.10 2.178
320.20 2.176
320.30 2.174
320.40 2.172
320.50 2.171
320.60 2.169
320.70 2.167
320.80 2.165
320.90 2.164
321.00 2.162
321.10 2.16
321.20 2.158
321.30 2.157
321.40 2.155
321.50 2.153
321.60 2.152
321.70 2.15
321.80 2.148
321.90 2.146
322.00 2.145
322.10 2.143
322.20 2.141
322.30 2.14
322.40 2.138
322.50 2.136
322.60 2.135
322.70 2.133
322.80 2.131
322.90 2.129
323.00 2.128
323.10 2.126
323.20 2.124
323.30 2.123
323.40 2.121
323.50 2.119
323.60 2.118
323.70 2.116
323.80 2.114
323.90 2.113
324.00 2.111
324.10 2.109
324.20 2.108
324.30 2.106
324.40 2.104
324.50 2.103
324.60 2.101
324.70 2.099
324.80 2.098
324.90 2.096
325.00 2.094
325.10 2.093
325.20 2.091
325.30 2.089
325.40 2.088
325.50 2.086
325.60 2.084
325.70 2.083
325.80 2.081
325.90 2.079
326.00 2.078
326.10 2.076
326.20 2.075
326.30 2.073
326.40 2.071
326.50 2.07
326.60 2.068
326.70 2.066
326.80 2.065
326.90 2.063
327.00 2.062
327.10 2.06
327.20 2.058
327.30 2.057
327.40 2.055
327.50 2.053
327.60 2.052
327.70 2.05
327.80 2.049
327.90 2.047
328.00 2.045
328.10 2.044
328.20 2.042
328.30 2.041
328.40 2.039
328.50 2.037
328.60 2.036
328.70 2.034
328.80 2.033
328.90 2.031
329.00 2.029
329.10 2.028
329.20 2.026
329.30 2.025
329.40 2.023
329.50 2.022
329.60 2.02
329.70 2.018
329.80 2.017
329.90 2.015
330.00 2.014
330.10 2.012
330.20 2.011
330.30 2.009
330.40 2.007
330.50 2.006
330.60 2.004
330.70 2.003
330.80 2.001
330.90 2
331.00 1.998
331.10 1.997
331.20 1.995
331.30 1.993
331.40 1.992
331.50 1.99
331.60 1.989
331.70 1.987
331.80 1.986
331.90 1.984
332.00 1.983
332.10 1.981
332.20 1.98
332.30 1.978
332.40 1.976
332.50 1.975
332.60 1.973
332.70 1.972
332.80 1.97
332.90 1.969
333.00 1.967
333.10 1.966
333.20 1.964
333.30 1.963
333.40 1.961
333.50 1.96
333.60 1.958
333.70 1.957
333.80 1.955
333.90 1.954
334.00 1.952
334.10 1.951
334.20 1.949
334.30 1.948
334.40 1.946
334.50 1.945
334.60 1.943
334.70 1.942
334.80 1.94
334.90 1.939
335.00 1.937
335.10 1.936
335.20 1.934
335.30 1.933
335.40 1.931
335.50 1.93
335.60 1.928
335.70 1.927
335.80 1.925
335.90 1.924
336.00 1.922
336.10 1.921
336.20 1.919
336.30 1.918
336.40 1.916
336.50 1.915
336.60 1.913
336.70 1.912
336.80 1.91
336.90 1.909
337.00 1.907
337.10 1.906
337.20 1.905
337.30 1.903
337.40 1.902
337.50 1.9
337.60 1.899
337.70 1.897
337.80 1.896
337.90 1.894
338.00 1.893
338.10 1.891
338.20 1.89
338.30 1.889
338.40 1.887
338.50 1.886
338.60 1.884
338.70 1.883
338.80 1.881
338.90 1.88
339.00 1.879
339.10 1.877
339.20 1.876
339.30 1.874
339.40 1.873
339.50 1.871
339.60 1.87
339.70 1.869
339.80 1.867
339.90 1.866
340.00 1.864
340.10 1.863
340.20 1.861
340.30 1.86
340.40 1.859
340.50 1.857
340.60 1.856
340.70 1.854
340.80 1.853
340.90 1.852
341.00 1.85
341.10 1.849
341.20 1.847
341.30 1.846
341.40 1.845
341.50 1.843
341.60 1.842
341.70 1.84
341.80 1.839
341.90 1.838
342.00 1.836
342.10 1.835
342.20 1.833
342.30 1.832
342.40 1.831
342.50 1.829
342.60 1.828
342.70 1.826
342.80 1.825
342.90 1.824
343.00 1.822
343.10 1.821
343.20 1.82
343.30 1.818
343.40 1.817
343.50 1.815
343.60 1.814
343.70 1.813
343.80 1.811
343.90 1.81
344.00 1.809
344.10 1.807
344.20 1.806
344.30 1.805
344.40 1.803
344.50 1.802
344.60 1.8
344.70 1.799
344.80 1.798
344.90 1.796
345.00 1.795
345.10 1.794
345.20 1.792
345.30 1.791
345.40 1.79
345.50 1.788
345.60 1.787
345.70 1.786
345.80 1.784
345.90 1.783
346.00 1.782
346.10 1.78
346.20 1.779
346.30 1.778
346.40 1.776
346.50 1.775
346.60 1.774
346.70 1.772
346.80 1.771
346.90 1.77
347.00 1.768
347.10 1.767
347.20 1.766
347.30 1.764
347.40 1.763
347.50 1.762
347.60 1.76
347.70 1.759
347.80 1.758
347.90 1.756
348.00 1.755
348.10 1.754
348.20 1.752
348.30 1.751
348.40 1.75
348.50 1.749
348.60 1.747
348.70 1.746
348.80 1.745
348.90 1.743
349.00 1.742
349.10 1.741
349.20 1.739
349.30 1.738
349.40 1.737
349.50 1.736
349.60 1.734
349.70 1.733
349.80 1.732
349.90 1.73
350.00 1.729
350.10 1.728
350.20 1.727
350.30 1.725
350.40 1.724
350.50 1.723
350.60 1.721
350.70 1.72
350.80 1.719
350.90 1.718
351.00 1.716
351.10 1.715
351.20 1.714
351.30 1.712
351.40 1.711
351.50 1.71
351.60 1.709
351.70 1.707
351.80 1.706
351.90 1.705
352.00 1.704
352.10 1.702
352.20 1.701
352.30 1.7
352.40 1.699
352.50 1.697
352.60 1.696
352.70 1.695
352.80 1.694
352.90 1.692
353.00 1.691
353.10 1.69
353.20 1.689
353.30 1.687
353.40 1.686
353.50 1.685
353.60 1.684
353.70 1.682
353.80 1.681
353.90 1.68
354.00 1.679
354.10 1.677
354.20 1.676
354.30 1.675
354.40 1.674
354.50 1.672
354.60 1.671
354.70 1.67
354.80 1.669
354.90 1.667
355.00 1.666
355.10 1.665
355.20 1.664
355.30 1.663
355.40 1.661
355.50 1.66
355.60 1.659
355.70 1.658
355.80 1.656
355.90 1.655
356.00 1.654
356.10 1.653
356.20 1.652
356.30 1.65
356.40 1.649
356.50 1.648
356.60 1.647
356.70 1.646
356.80 1.644
356.90 1.643
357.00 1.642
357.10 1.641
357.20 1.64
357.30 1.638
357.40 1.637
357.50 1.636
357.60 1.635
357.70 1.634
357.80 1.632
357.90 1.631
358.00 1.63
358.10 1.629
358.20 1.628
358.30 1.626
358.40 1.625
358.50 1.624
358.60 1.623
358.70 1.622
358.80 1.621
358.90 1.619
359.00 1.618
359.10 1.617
359.20 1.616
359.30 1.615
359.40 1.613
359.50 1.612
359.60 1.611
359.70 1.61
359.80 1.609
359.90 1.608
360.00 1.606
360.10 1.605
360.20 1.604
360.30 1.603
360.40 1.602
360.50 1.601
360.60 1.599
360.70 1.598
360.80 1.597
360.90 1.596
361.00 1.595
361.10 1.594
361.20 1.592
361.30 1.591
361.40 1.59
361.50 1.589
361.60 1.588
361.70 1.587
361.80 1.586
361.90 1.584
362.00 1.583
362.10 1.582
362.20 1.581
362.30 1.58
362.40 1.579
362.50 1.578
362.60 1.576
362.70 1.575
362.80 1.574
362.90 1.573
363.00 1.572
363.10 1.571
363.20 1.569
363.30 1.568
363.40 1.567
363.50 1.566
363.60 1.565
363.70 1.564
363.80 1.562
363.90 1.561
364.00 1.56
364.10 1.559
364.20 1.558
364.30 1.557
364.40 1.556
364.50 1.554
364.60 1.553
364.70 1.552
364.80 1.551
364.90 1.55
365.00 1.549
365.10 1.548
365.20 1.546
365.30 1.545
365.40 1.544
365.50 1.543
365.60 1.542
365.70 1.541
365.80 1.54
365.90 1.539
366.00 1.537
366.10 1.536
366.20 1.535
366.30 1.534
366.40 1.533
366.50 1.532
366.60 1.531
366.70 1.53
366.80 1.529
366.90 1.528
367.00 1.527
367.10 1.526
367.20 1.525
367.30 1.524
367.40 1.522
367.50 1.521
367.60 1.52
367.70 1.519
367.80 1.518
367.90 1.517
368.00 1.516
368.10 1.516
368.20 1.515
368.30 1.515
368.40 1.514
368.50 1.514
368.60 1.514
368.70 1.513
368.80 1.513
368.90 1.512
369.00 1.512
369.10 1.512
369.20 1.511
369.30 1.511
369.40 1.51
369.50 1.51
369.60 1.51
369.70 1.509
369.80 1.509
369.90 1.508
370.00 1.508
370.10 1.509
370.20 1.511
370.30 1.512
370.40 1.513
370.50 1.514
370.60 1.515
370.70 1.517
370.80 1.518
370.90 1.519
371.00 1.52
371.10 1.522
371.20 1.523
371.30 1.524
371.40 1.525
371.50 1.527
371.60 1.528
371.70 1.529
371.80 1.53
371.90 1.531
372.00 1.533
372.10 1.536
372.20 1.539
372.30 1.542
372.40 1.545
372.50 1.548
372.60 1.551
372.70 1.554
372.80 1.557
372.90 1.561
373.00 1.564
373.10 1.567
373.20 1.57
373.30 1.573
373.40 1.576
373.50 1.579
373.60 1.582
373.70 1.585
373.80 1.588
373.90 1.591
374.00 1.594
374.10 1.598
374.20 1.602
374.30 1.605
374.40 1.609
374.50 1.612
374.60 1.616
374.70 1.62
374.80 1.623
374.90 1.627
375.00 1.631
375.10 1.634
375.20 1.638
375.30 1.641
375.40 1.645
375.50 1.649
375.60 1.652
375.70 1.656
375.80 1.659
375.90 1.663
376.00 1.667
376.10 1.668
376.20 1.67
376.30 1.672
376.40 1.673
376.50 1.675
376.60 1.677
376.70 1.679
376.80 1.68
376.90 1.682
377.00 1.684
377.10 1.68
377.20 1.677
377.30 1.674
377.40 1.67
377.50 1.667
377.60 1.663
377.70 1.66
377.80 1.656
377.90 1.653
378.00 1.65
378.10 1.631
378.20 1.613
378.30 1.594
378.40 1.576
378.50 1.557
378.60 1.539
378.70 1.52
378.80 1.502
378.90 1.483
379.00 1.465
379.10 1.451
379.20 1.437
379.30 1.423
379.40 1.409
379.50 1.396
379.60 1.382
379.70 1.368
379.80 1.354
379.90 1.34
380.00 1.326
380.10 1.348
380.20 1.37
380.30 1.392
380.40 1.414
380.50 1.435
380.60 1.457
380.70 1.479
380.80 1.5
380.90 1.522
381.00 1.543
381.10 1.553
381.20 1.562
381.30 1.571
381.40 1.58
381.50 1.589
381.60 1.589
381.70 1.587
381.80 1.581
381.90 1.572
382.00 1.56
382.10 1.545
382.20 1.526
382.30 1.493
382.40 1.461
382.50 1.428
382.60 1.395
382.70 1.363
382.80 1.33
382.90 1.297
383.00 1.265
383.10 1.232
383.20 1.2
383.30 1.169
383.40 1.137
383.50 1.102
383.60 1.109
383.70 1.143
383.80 1.175
383.90 1.204
384.00 1.237
384.10 1.272
384.20 1.31
384.30 1.349
384.40 1.388
384.50 1.425
384.60 1.461
384.70 1.493
384.80 1.522
384.90 1.548
385.00 1.571
385.10 1.591
385.20 1.609
385.30 1.624
385.40 1.636
385.50 1.647
385.60 1.656
385.70 1.663
385.80 1.668
385.90 1.672
386.00 1.673
386.10 1.673
386.20 1.672
386.30 1.669
386.40 1.664
386.50 1.657
386.60 1.649
386.70 1.639
386.80 1.628
386.90 1.614
387.00 1.599
387.10 1.582
387.20 1.563
387.30 1.541
387.40 1.518
387.50 1.492
387.60 1.463
387.70 1.431
387.80 1.396
387.90 1.358
388.00 1.317
388.10 1.273
388.20 1.227
388.30 1.181
388.40 1.137
388.50 1.094
388.60 1.053
388.70 1.013
388.80 0.9735
388.90 0.9337
389.00 0.9699
389.10 1.007
389.20 1.047
389.30 1.086
389.40 1.127
389.50 1.171
389.60 1.216
389.70 1.261
389.80 1.305
389.90 1.345
390.00 1.384
390.10 1.42
390.20 1.452
390.30 1.483
390.40 1.511
390.50 1.536
390.60 1.56
390.70 1.583
390.80 1.603
390.90 1.622
391.00 1.641
391.10 1.657
391.20 1.673
391.30 1.688
391.40 1.702
391.50 1.714
391.60 1.726
391.70 1.737
391.80 1.747
391.90 1.756
392.00 1.763
392.10 1.77
392.20 1.777
392.30 1.781
392.40 1.786
392.50 1.789
392.60 1.791
392.70 1.792
392.80 1.793
392.90 1.792
393.00 1.791
393.10 1.788
393.20 1.785
393.30 1.78
393.40 1.775
393.50 1.768
393.60 1.761
393.70 1.753
393.80 1.743
393.90 1.733
394.00 1.722
394.10 1.709
394.20 1.695
394.30 1.681
394.40 1.665
394.50 1.648
394.60 1.631
394.70 1.612
394.80 1.592
394.90 1.571
395.00 1.549
395.10 1.526
395.20 1.503
395.30 1.477
395.40 1.45
395.50 1.423
395.60 1.393
395.70 1.361
395.80 1.329
395.90 1.293
396.00 1.256
396.10 1.218
396.20 1.176
396.30 1.133
396.40 1.088
396.50 1.042
396.60 0.998
396.70 0.9545
396.80 0.9105
396.90 0.858
397.00 0.7969
397.10 0.8527
397.20 0.9024
397.30 0.946
397.40 0.9882
397.50 1.031
397.60 1.075
397.70 1.119
397.80 1.161
397.90 1.202
398.00 1.239
398.10 1.274
398.20 1.309
398.30 1.34
398.40 1.37
398.50 1.399
398.60 1.425
398.70 1.451
398.80 1.475
398.90 1.498
399.00 1.52
399.10 1.542
399.20 1.562
399.30 1.581
399.40 1.6
399.50 1.618
399.60 1.635
399.70 1.651
399.80 1.667
399.90 1.681
400.00 1.696
400.10 1.709
400.20 1.721
400.30 1.733
400.40 1.744
400.50 1.755
400.60 1.765
400.70 1.774
400.80 1.783
400.90 1.791
401.00 1.798
401.10 1.806
401.20 1.812
401.30 1.818
401.40 1.824
401.50 1.829
401.60 1.834
401.70 1.838
401.80 1.843
401.90 1.846
402.00 1.849
402.10 1.852
402.20 1.855
402.30 1.857
402.40 1.859
402.50 1.86
402.60 1.862
402.70 1.863
402.80 1.863
402.90 1.864
403.00 1.864
403.10 1.864
403.20 1.864
403.30 1.863
403.40 1.862
403.50 1.861
403.60 1.86
403.70 1.858
403.80 1.856
403.90 1.854
404.00 1.852
404.10 1.849
404.20 1.847
404.30 1.843
404.40 1.84
404.50 1.836
404.60 1.832
404.70 1.828
404.80 1.824
404.90 1.819
405.00 1.814
405.10 1.808
405.20 1.802
405.30 1.796
405.40 1.79
405.50 1.783
405.60 1.776
405.70 1.768
405.80 1.76
405.90 1.752
406.00 1.743
406.10 1.733
406.20 1.723
406.30 1.713
406.40 1.702
406.50 1.691
406.60 1.679
406.70 1.666
406.80 1.653
406.90 1.64
407.00 1.625
407.10 1.61
407.20 1.594
407.30 1.577
407.40 1.56
407.50 1.542
407.60 1.522
407.70 1.503
407.80 1.482
407.90 1.461
408.00 1.439
408.10 1.416
408.20 1.393
408.30 1.369
408.40 1.345
408.50 1.319
408.60 1.293
408.70 1.266
408.80 1.238
408.90 1.21
409.00 1.18
409.10 1.15
409.20 1.118
409.30 1.085
409.40 1.049
409.50 1.012
409.60 0.9737
409.70 0.9338
409.80 0.8939
409.90 0.854
410.00 0.8066
410.10 0.7556
410.20 0.7011
410.30 0.7741
410.40 0.8313
410.50 0.8729
410.60 0.9117
410.70 0.9504
410.80 0.9888
410.90 1.025
411.00 1.06
411.10 1.093
411.20 1.123
411.30 1.152
411.40 1.181
411.50 1.208
411.60 1.234
411.70 1.26
411.80 1.284
411.90 1.308
412.00 1.331
412.10 1.353
412.20 1.374
412.30 1.395
412.40 1.415
412.50 1.434
412.60 1.453
412.70 1.47
412.80 1.487
412.90 1.504
413.00 1.519
413.10 1.534
413.20 1.548
413.30 1.561
413.40 1.574
413.50 1.585
413.60 1.597
413.70 1.607
413.80 1.617
413.90 1.627
414.00 1.635
414.10 1.644
414.20 1.652
414.30 1.659
414.40 1.667
414.50 1.673
414.60 1.68
414.70 1.686
414.80 1.691
414.90 1.697
415.00 1.702
415.10 1.706
415.20 1.711
415.30 1.715
415.40 1.719
415.50 1.722
415.60 1.726
415.70 1.729
415.80 1.732
415.90 1.735
416.00 1.737
416.10 1.739
416.20 1.742
416.30 1.744
416.40 1.746
416.50 1.747
416.60 1.749
416.70 1.75
416.80 1.752
416.90 1.753
417.00 1.754
417.10 1.755
417.20 1.756
417.30 1.757
417.40 1.758
417.50 1.758
417.60 1.759
417.70 1.759
417.80 1.76
417.90 1.76
418.00 1.76
418.10 1.76
418.20 1.76
418.30 1.76
418.40 1.76
418.50 1.76
418.60 1.76
418.70 1.76
418.80 1.76
418.90 1.76
419.00 1.759
419.10 1.759
419.20 1.758
419.30 1.758
419.40 1.757
419.50 1.757
419.60 1.756
419.70 1.756
419.80 1.755
419.90 1.754
420.00 1.753
420.10 1.753
420.20 1.752
420.30 1.751
420.40 1.75
420.50 1.749
420.60 1.749
420.70 1.748
420.80 1.747
420.90 1.746
421.00 1.745
421.10 1.744
421.20 1.743
421.30 1.741
421.40 1.74
421.50 1.739
421.60 1.738
421.70 1.737
421.80 1.736
421.90 1.734
422.00 1.733
422.10 1.732
422.20 1.731
422.30 1.729
422.40 1.728
422.50 1.727
422.60 1.725
422.70 1.724
422.80 1.722
422.90 1.721
423.00 1.719
423.10 1.718
423.20 1.716
423.30 1.715
423.40 1.713
423.50 1.711
423.60 1.71
423.70 1.708
423.80 1.706
423.90 1.705
424.00 1.703
424.10 1.701
424.20 1.699
424.30 1.697
424.40 1.695
424.50 1.693
424.60 1.691
424.70 1.689
424.80 1.687
424.90 1.685
425.00 1.683
425.10 1.681
425.20 1.679
425.30 1.676
425.40 1.674
425.50 1.672
425.60 1.669
425.70 1.667
425.80 1.664
425.90 1.662
426.00 1.659
426.10 1.656
426.20 1.653
426.30 1.65
426.40 1.647
426.50 1.644
426.60 1.641
426.70 1.638
426.80 1.634
426.90 1.631
427.00 1.628
427.10 1.624
427.20 1.621
427.30 1.617
427.40 1.613
427.50 1.609
427.60 1.605
427.70 1.601
427.80 1.597
427.90 1.593
428.00 1.588
428.10 1.584
428.20 1.579
428.30 1.574
428.40 1.569
428.50 1.564
428.60 1.558
428.70 1.553
428.80 1.547
428.90 1.541
429.00 1.535
429.10 1.528
429.20 1.522
429.30 1.515
429.40 1.508
429.50 1.5
429.60 1.493
429.70 1.485
429.80 1.477
429.90 1.468
430.00 1.46
430.10 1.451
430.20 1.441
430.30 1.432
430.40 1.421
430.50 1.411
430.60 1.4
430.70 1.389
430.80 1.377
430.90 1.365
431.00 1.353
431.10 1.34
431.20 1.327
431.30 1.313
431.40 1.299
431.50 1.284
431.60 1.268
431.70 1.252
431.80 1.235
431.90 1.218
432.00 1.2
432.10 1.181
432.20 1.161
432.30 1.14
432.40 1.118
432.50 1.095
432.60 1.071
432.70 1.047
432.80 1.021
432.90 0.9956
433.00 0.9702
433.10 0.9454
433.20 0.9202
433.30 0.8944
433.40 0.8661
433.50 0.8366
433.60 0.8059
433.70 0.7729
433.80 0.7368
433.90 0.6977
434.00 0.6065
434.10 0.6075
434.20 0.7006
434.30 0.7382
434.40 0.773
434.50 0.805
434.60 0.8345
434.70 0.8628
434.80 0.8898
434.90 0.9142
435.00 0.9382
435.10 0.9616
435.20 0.9856
435.30 1.01
435.40 1.033
435.50 1.056
435.60 1.079
435.70 1.1
435.80 1.119
435.90 1.138
436.00 1.156
436.10 1.173
436.20 1.189
436.30 1.205
436.40 1.219
436.50 1.233
436.60 1.246
436.70 1.259
436.80 1.271
436.90 1.282
437.00 1.293
437.10 1.304
437.20 1.314
437.30 1.323
437.40 1.333
437.50 1.341
437.60 1.35
437.70 1.358
437.80 1.365
437.90 1.372
438.00 1.379
438.10 1.386
438.20 1.392
438.30 1.397
438.40 1.403
438.50 1.408
438.60 1.413
438.70 1.418
438.80 1.422
438.90 1.427
439.00 1.431
439.10 1.434
439.20 1.438
439.30 1.441
439.40 1.444
439.50 1.447
439.60 1.45
439.70 1.453
439.80 1.455
439.90 1.458
440.00 1.46
440.10 1.462
440.20 1.464
440.30 1.465
440.40 1.467
440.50 1.469
440.60 1.47
440.70 1.471
440.80 1.473
440.90 1.474
441.00 1.475
441.10 1.476
441.20 1.476
441.30 1.477
441.40 1.478
441.50 1.479
441.60 1.479
441.70 1.48
441.80 1.48
441.90 1.48
442.00 1.481
442.10 1.481
442.20 1.481
442.30 1.481
442.40 1.481
442.50 1.481
442.60 1.482
442.70 1.481
442.80 1.481
442.90 1.481
443.00 1.481
443.10 1.481
443.20 1.481
443.30 1.48
443.40 1.48
443.50 1.48
443.60 1.479
443.70 1.479
443.80 1.479
443.90 1.478
444.00 1.478
444.10 1.477
444.20 1.477
444.30 1.476
444.40 1.476
444.50 1.475
444.60 1.474
444.70 1.474
444.80 1.473
444.90 1.473
445.00 1.472
445.10 1.471
445.20 1.471
445.30 1.47
445.40 1.469
445.50 1.468
445.60 1.468
445.70 1.467
445.80 1.466
445.90 1.465
446.00 1.465
446.10 1.464
446.20 1.463
446.30 1.462
446.40 1.461
446.50 1.461
446.60 1.46
446.70 1.459
446.80 1.458
446.90 1.457
447.00 1.456
447.10 1.456
447.20 1.455
447.30 1.454
447.40 1.453
447.50 1.452
447.60 1.451
447.70 1.45
447.80 1.449
447.90 1.448
448.00 1.448
448.10 1.447
448.20 1.446
448.30 1.445
448.40 1.444
448.50 1.443
448.60 1.442
448.70 1.441
448.80 1.44
448.90 1.439
449.00 1.438
449.10 1.438
449.20 1.437
449.30 1.436
449.40 1.435
449.50 1.434
449.60 1.433
449.70 1.432
449.80 1.431
449.90 1.43
450.00 1.429
450.10 1.428
450.20 1.427
450.30 1.426
450.40 1.425
450.50 1.424
450.60 1.423
450.70 1.422
450.80 1.421
450.90 1.42
451.00 1.419
451.10 1.418
451.20 1.417
451.30 1.417
451.40 1.416
451.50 1.415
451.60 1.414
451.70 1.413
451.80 1.412
451.90 1.411
452.00 1.41
452.10 1.409
452.20 1.408
452.30 1.407
452.40 1.406
452.50 1.405
452.60 1.404
452.70 1.403
452.80 1.402
452.90 1.401
453.00 1.4
453.10 1.399
453.20 1.398
453.30 1.397
453.40 1.396
453.50 1.395
453.60 1.394
453.70 1.393
453.80 1.392
