# Version 2.1 - nm, norm@500 to 1, cut digits, bergeron_1500_80.dat_1500
# Wavelength(nm)  Flambda(ergs/cm^s/s/nm)
300.00 0.0166
300.10 0.01667
300.20 0.01675
300.30 0.01683
300.40 0.01691
300.50 0.01699
300.60 0.01707
300.70 0.01715
300.80 0.01723
300.90 0.01731
301.00 0.01739
301.10 0.01747
301.20 0.01755
301.30 0.01762
301.40 0.0177
301.50 0.01778
301.60 0.01786
301.70 0.01794
301.80 0.01802
301.90 0.0181
302.00 0.01817
302.10 0.01826
302.20 0.01834
302.30 0.01842
302.40 0.01851
302.50 0.01859
302.60 0.01868
302.70 0.01876
302.80 0.01884
302.90 0.01893
303.00 0.01901
303.10 0.01909
303.20 0.01918
303.30 0.01926
303.40 0.01934
303.50 0.01942
303.60 0.01951
303.70 0.01959
303.80 0.01967
303.90 0.01975
304.00 0.01984
304.10 0.01993
304.20 0.02001
304.30 0.0201
304.40 0.02019
304.50 0.02028
304.60 0.02037
304.70 0.02045
304.80 0.02054
304.90 0.02063
305.00 0.02072
305.10 0.02081
305.20 0.02089
305.30 0.02098
305.40 0.02107
305.50 0.02115
305.60 0.02124
305.70 0.02133
305.80 0.02142
305.90 0.0215
306.00 0.02159
306.10 0.02168
306.20 0.02178
306.30 0.02187
306.40 0.02196
306.50 0.02206
306.60 0.02215
306.70 0.02224
306.80 0.02233
306.90 0.02243
307.00 0.02252
307.10 0.02261
307.20 0.0227
307.30 0.0228
307.40 0.02289
307.50 0.02298
307.60 0.02307
307.70 0.02316
307.80 0.02325
307.90 0.02335
308.00 0.02344
308.10 0.02354
308.20 0.02363
308.30 0.02373
308.40 0.02383
308.50 0.02393
308.60 0.02403
308.70 0.02413
308.80 0.02422
308.90 0.02432
309.00 0.02442
309.10 0.02452
309.20 0.02461
309.30 0.02471
309.40 0.02481
309.50 0.02491
309.60 0.025
309.70 0.0251
309.80 0.0252
309.90 0.02529
310.00 0.02539
310.10 0.02549
310.20 0.0256
310.30 0.0257
310.40 0.02581
310.50 0.02591
310.60 0.02601
310.70 0.02612
310.80 0.02622
310.90 0.02632
311.00 0.02643
311.10 0.02653
311.20 0.02663
311.30 0.02674
311.40 0.02684
311.50 0.02694
311.60 0.02704
311.70 0.02715
311.80 0.02725
311.90 0.02735
312.00 0.02745
312.10 0.02755
312.20 0.02766
312.30 0.02777
312.40 0.02788
312.50 0.02799
312.60 0.0281
312.70 0.02821
312.80 0.02831
312.90 0.02842
313.00 0.02853
313.10 0.02864
313.20 0.02875
313.30 0.02886
313.40 0.02897
313.50 0.02908
313.60 0.02918
313.70 0.02929
313.80 0.0294
313.90 0.02951
314.00 0.02962
314.10 0.02973
314.20 0.02985
314.30 0.02996
314.40 0.03008
314.50 0.03019
314.60 0.03031
314.70 0.03042
314.80 0.03054
314.90 0.03065
315.00 0.03077
315.10 0.03088
315.20 0.03099
315.30 0.03111
315.40 0.03122
315.50 0.03133
315.60 0.03145
315.70 0.03156
315.80 0.03167
315.90 0.03179
316.00 0.03191
316.10 0.03202
316.20 0.03214
316.30 0.03227
316.40 0.03239
316.50 0.03251
316.60 0.03263
316.70 0.03275
316.80 0.03287
316.90 0.03299
317.00 0.03311
317.10 0.03323
317.20 0.03335
317.30 0.03347
317.40 0.03359
317.50 0.03371
317.60 0.03383
317.70 0.03395
317.80 0.03407
317.90 0.03419
318.00 0.03432
318.10 0.03444
318.20 0.03457
318.30 0.03469
318.40 0.03482
318.50 0.03495
318.60 0.03508
318.70 0.03521
318.80 0.03533
318.90 0.03546
319.00 0.03559
319.10 0.03571
319.20 0.03584
319.30 0.03597
319.40 0.03609
319.50 0.03622
319.60 0.03635
319.70 0.03647
319.80 0.0366
319.90 0.03672
320.00 0.03685
320.10 0.03699
320.20 0.03712
320.30 0.03725
320.40 0.03739
320.50 0.03752
320.60 0.03765
320.70 0.03779
320.80 0.03792
320.90 0.03806
321.00 0.03819
321.10 0.03832
321.20 0.03846
321.30 0.03859
321.40 0.03872
321.50 0.03885
321.60 0.03899
321.70 0.03912
321.80 0.03925
321.90 0.03938
322.00 0.03952
322.10 0.03966
322.20 0.0398
322.30 0.03994
322.40 0.04008
322.50 0.04022
322.60 0.04036
322.70 0.0405
322.80 0.04064
322.90 0.04078
323.00 0.04092
323.10 0.04106
323.20 0.0412
323.30 0.04134
323.40 0.04148
323.50 0.04162
323.60 0.04176
323.70 0.0419
323.80 0.04204
323.90 0.04218
324.00 0.04232
324.10 0.04247
324.20 0.04262
324.30 0.04276
324.40 0.04291
324.50 0.04306
324.60 0.04321
324.70 0.04336
324.80 0.0435
324.90 0.04365
325.00 0.0438
325.10 0.04395
325.20 0.04409
325.30 0.04424
325.40 0.04439
325.50 0.04453
325.60 0.04468
325.70 0.04483
325.80 0.04497
325.90 0.04512
326.00 0.04527
326.10 0.04542
326.20 0.04558
326.30 0.04573
326.40 0.04589
326.50 0.04604
326.60 0.0462
326.70 0.04635
326.80 0.04651
326.90 0.04666
327.00 0.04682
327.10 0.04697
327.20 0.04713
327.30 0.04728
327.40 0.04744
327.50 0.04759
327.60 0.04774
327.70 0.0479
327.80 0.04805
327.90 0.0482
328.00 0.04836
328.10 0.04852
328.20 0.04868
328.30 0.04885
328.40 0.04901
328.50 0.04917
328.60 0.04934
328.70 0.0495
328.80 0.04966
328.90 0.04982
329.00 0.04999
329.10 0.05015
329.20 0.05031
329.30 0.05047
329.40 0.05063
329.50 0.05079
329.60 0.05095
329.70 0.05111
329.80 0.05128
329.90 0.05144
330.00 0.0516
330.10 0.05177
330.20 0.05194
330.30 0.05211
330.40 0.05228
330.50 0.05245
330.60 0.05262
330.70 0.05279
330.80 0.05296
330.90 0.05313
331.00 0.0533
331.10 0.05347
331.20 0.05364
331.30 0.05381
331.40 0.05398
331.50 0.05415
331.60 0.05432
331.70 0.05448
331.80 0.05465
331.90 0.05482
332.00 0.05499
332.10 0.05517
332.20 0.05535
332.30 0.05553
332.40 0.05571
332.50 0.05588
332.60 0.05606
332.70 0.05624
332.80 0.05642
332.90 0.0566
333.00 0.05678
333.10 0.05695
333.20 0.05713
333.30 0.05731
333.40 0.05748
333.50 0.05766
333.60 0.05784
333.70 0.05801
333.80 0.05819
333.90 0.05837
334.00 0.05854
334.10 0.05873
334.20 0.05892
334.30 0.0591
334.40 0.05929
334.50 0.05948
334.60 0.05966
334.70 0.05985
334.80 0.06004
334.90 0.06022
335.00 0.06041
335.10 0.06059
335.20 0.06078
335.30 0.06096
335.40 0.06115
335.50 0.06133
335.60 0.06152
335.70 0.0617
335.80 0.06189
335.90 0.06207
336.00 0.06225
336.10 0.06245
336.20 0.06265
336.30 0.06284
336.40 0.06304
336.50 0.06323
336.60 0.06343
336.70 0.06362
336.80 0.06382
336.90 0.06401
337.00 0.06421
337.10 0.0644
337.20 0.06459
337.30 0.06479
337.40 0.06498
337.50 0.06517
337.60 0.06537
337.70 0.06556
337.80 0.06575
337.90 0.06594
338.00 0.06613
338.10 0.06634
338.20 0.06654
338.30 0.06675
338.40 0.06695
338.50 0.06716
338.60 0.06736
338.70 0.06756
338.80 0.06777
338.90 0.06797
339.00 0.06817
339.10 0.06837
339.20 0.06858
339.30 0.06878
339.40 0.06898
339.50 0.06918
339.60 0.06938
339.70 0.06958
339.80 0.06978
339.90 0.06998
340.00 0.07018
340.10 0.0704
340.20 0.07061
340.30 0.07082
340.40 0.07104
340.50 0.07125
340.60 0.07146
340.70 0.07167
340.80 0.07188
340.90 0.0721
341.00 0.07231
341.10 0.07252
341.20 0.07273
341.30 0.07294
341.40 0.07315
341.50 0.07336
341.60 0.07357
341.70 0.07378
341.80 0.07399
341.90 0.0742
342.00 0.07441
342.10 0.07463
342.20 0.07485
342.30 0.07507
342.40 0.07529
342.50 0.07552
342.60 0.07574
342.70 0.07596
342.80 0.07618
342.90 0.0764
343.00 0.07662
343.10 0.07684
343.20 0.07706
343.30 0.07728
343.40 0.0775
343.50 0.07771
343.60 0.07793
343.70 0.07815
343.80 0.07837
343.90 0.07859
344.00 0.0788
344.10 0.07904
344.20 0.07927
344.30 0.0795
344.40 0.07973
344.50 0.07996
344.60 0.08019
344.70 0.08042
344.80 0.08065
344.90 0.08088
345.00 0.08111
345.10 0.08134
345.20 0.08157
345.30 0.08179
345.40 0.08202
345.50 0.08225
345.60 0.08248
345.70 0.0827
345.80 0.08293
345.90 0.08316
346.00 0.08338
346.10 0.08363
346.20 0.08387
346.30 0.08411
346.40 0.08435
346.50 0.08459
346.60 0.08483
346.70 0.08506
346.80 0.0853
346.90 0.08554
347.00 0.08578
347.10 0.08602
347.20 0.08626
347.30 0.08649
347.40 0.08673
347.50 0.08697
347.60 0.0872
347.70 0.08744
347.80 0.08768
347.90 0.08791
348.00 0.08815
348.10 0.0884
348.20 0.08865
348.30 0.0889
348.40 0.08915
348.50 0.08939
348.60 0.08964
348.70 0.08989
348.80 0.09014
348.90 0.09039
349.00 0.09063
349.10 0.09088
349.20 0.09113
349.30 0.09138
349.40 0.09162
349.50 0.09187
349.60 0.09211
349.70 0.09236
349.80 0.0926
349.90 0.09285
350.00 0.09309
350.10 0.09335
350.20 0.09361
350.30 0.09387
350.40 0.09413
350.50 0.09439
350.60 0.09465
350.70 0.09491
350.80 0.09516
350.90 0.09542
351.00 0.09568
351.10 0.09593
351.20 0.09619
351.30 0.09645
351.40 0.0967
351.50 0.09696
351.60 0.09721
351.70 0.09747
351.80 0.09772
351.90 0.09798
352.00 0.09823
352.10 0.0985
352.20 0.09877
352.30 0.09904
352.40 0.09931
352.50 0.09958
352.60 0.09984
352.70 0.1001
352.80 0.1004
352.90 0.1006
353.00 0.1009
353.10 0.1012
353.20 0.1014
353.30 0.1017
353.40 0.102
353.50 0.1022
353.60 0.1025
353.70 0.1028
353.80 0.103
353.90 0.1033
354.00 0.1036
354.10 0.1038
354.20 0.1041
354.30 0.1044
354.40 0.1047
354.50 0.105
354.60 0.1052
354.70 0.1055
354.80 0.1058
354.90 0.1061
355.00 0.1063
355.10 0.1066
355.20 0.1069
355.30 0.1072
355.40 0.1074
355.50 0.1077
355.60 0.108
355.70 0.1083
355.80 0.1085
355.90 0.1088
356.00 0.1091
356.10 0.1094
356.20 0.1097
356.30 0.11
356.40 0.1102
356.50 0.1105
356.60 0.1108
356.70 0.1111
356.80 0.1114
356.90 0.1117
357.00 0.112
357.10 0.1123
357.20 0.1125
357.30 0.1128
357.40 0.1131
357.50 0.1134
357.60 0.1137
357.70 0.114
357.80 0.1142
357.90 0.1145
358.00 0.1148
358.10 0.1151
358.20 0.1154
358.30 0.1157
358.40 0.116
358.50 0.1163
358.60 0.1166
358.70 0.1169
358.80 0.1172
358.90 0.1175
359.00 0.1178
359.10 0.1181
359.20 0.1184
359.30 0.1187
359.40 0.119
359.50 0.1193
359.60 0.1196
359.70 0.1199
359.80 0.1201
359.90 0.1204
360.00 0.1207
360.10 0.121
360.20 0.1214
360.30 0.1217
360.40 0.122
360.50 0.1223
360.60 0.1226
360.70 0.1229
360.80 0.1232
360.90 0.1235
361.00 0.1238
361.10 0.1241
361.20 0.1244
361.30 0.1247
361.40 0.125
361.50 0.1253
361.60 0.1256
361.70 0.1259
361.80 0.1263
361.90 0.1266
362.00 0.1269
362.10 0.1272
362.20 0.1275
362.30 0.1278
362.40 0.1281
362.50 0.1284
362.60 0.1287
362.70 0.1291
362.80 0.1294
362.90 0.1297
363.00 0.13
363.10 0.1303
363.20 0.1306
363.30 0.131
363.40 0.1313
363.50 0.1316
363.60 0.1319
363.70 0.1323
363.80 0.1326
363.90 0.1329
364.00 0.1332
364.10 0.1335
364.20 0.1338
364.30 0.1342
364.40 0.1345
364.50 0.1348
364.60 0.1351
364.70 0.1355
364.80 0.1358
364.90 0.1361
365.00 0.1365
365.10 0.1368
365.20 0.1371
365.30 0.1374
365.40 0.1378
365.50 0.1381
365.60 0.1384
365.70 0.1387
365.80 0.1391
365.90 0.1394
366.00 0.1397
366.10 0.1401
366.20 0.1404
366.30 0.1407
366.40 0.1411
366.50 0.1414
366.60 0.1418
366.70 0.1421
366.80 0.1424
366.90 0.1428
367.00 0.1431
367.10 0.1435
367.20 0.1438
367.30 0.1441
367.40 0.1445
367.50 0.1448
367.60 0.1451
367.70 0.1455
367.80 0.1458
367.90 0.1461
368.00 0.1465
368.10 0.1468
368.20 0.1472
368.30 0.1475
368.40 0.1479
368.50 0.1482
368.60 0.1486
368.70 0.1489
368.80 0.1493
368.90 0.1496
369.00 0.15
369.10 0.1503
369.20 0.1507
369.30 0.151
369.40 0.1514
369.50 0.1517
369.60 0.152
369.70 0.1524
369.80 0.1527
369.90 0.1531
370.00 0.1534
370.10 0.1538
370.20 0.1541
370.30 0.1545
370.40 0.1549
370.50 0.1552
370.60 0.1556
370.70 0.1559
370.80 0.1563
370.90 0.1567
371.00 0.157
371.10 0.1574
371.20 0.1577
371.30 0.1581
371.40 0.1585
371.50 0.1588
371.60 0.1592
371.70 0.1595
371.80 0.1599
371.90 0.1602
372.00 0.1606
372.10 0.161
372.20 0.1613
372.30 0.1617
372.40 0.1621
372.50 0.1624
372.60 0.1628
372.70 0.1632
372.80 0.1636
372.90 0.1639
373.00 0.1643
373.10 0.1647
373.20 0.165
373.30 0.1654
373.40 0.1658
373.50 0.1661
373.60 0.1665
373.70 0.1669
373.80 0.1672
373.90 0.1676
374.00 0.168
374.10 0.1683
374.20 0.1687
374.30 0.1691
374.40 0.1695
374.50 0.1699
374.60 0.1703
374.70 0.1706
374.80 0.171
374.90 0.1714
375.00 0.1718
375.10 0.1722
375.20 0.1725
375.30 0.1729
375.40 0.1733
375.50 0.1737
375.60 0.1741
375.70 0.1744
375.80 0.1748
375.90 0.1752
376.00 0.1756
376.10 0.1759
376.20 0.1763
376.30 0.1767
376.40 0.1771
376.50 0.1775
376.60 0.1779
376.70 0.1783
376.80 0.1787
376.90 0.179
377.00 0.1794
377.10 0.1798
377.20 0.1802
377.30 0.1806
377.40 0.181
377.50 0.1814
377.60 0.1818
377.70 0.1822
377.80 0.1826
377.90 0.183
378.00 0.1834
378.10 0.1838
378.20 0.1842
378.30 0.1846
378.40 0.185
378.50 0.1854
378.60 0.1858
378.70 0.1862
378.80 0.1865
378.90 0.1869
379.00 0.1873
379.10 0.1877
379.20 0.1882
379.30 0.1886
379.40 0.189
379.50 0.1894
379.60 0.1898
379.70 0.1902
379.80 0.1906
379.90 0.191
380.00 0.1914
380.10 0.1918
380.20 0.1922
380.30 0.1926
380.40 0.193
380.50 0.1934
380.60 0.1938
380.70 0.1942
380.80 0.1947
380.90 0.1951
381.00 0.1955
381.10 0.1959
381.20 0.1963
381.30 0.1967
381.40 0.1971
381.50 0.1975
381.60 0.1979
381.70 0.1984
381.80 0.1988
381.90 0.1992
382.00 0.1996
382.10 0.2
382.20 0.2005
382.30 0.2009
382.40 0.2013
382.50 0.2017
382.60 0.2021
382.70 0.2026
382.80 0.203
382.90 0.2034
383.00 0.2038
383.10 0.2042
383.20 0.2047
383.30 0.2051
383.40 0.2055
383.50 0.2059
383.60 0.2064
383.70 0.2068
383.80 0.2072
383.90 0.2076
384.00 0.2081
384.10 0.2085
384.20 0.2089
384.30 0.2094
384.40 0.2098
384.50 0.2102
384.60 0.2106
384.70 0.2111
384.80 0.2115
384.90 0.2119
385.00 0.2124
385.10 0.2128
385.20 0.2132
385.30 0.2137
385.40 0.2141
385.50 0.2145
385.60 0.215
385.70 0.2154
385.80 0.2159
385.90 0.2163
386.00 0.2167
386.10 0.2172
386.20 0.2176
386.30 0.2181
386.40 0.2185
386.50 0.2189
386.60 0.2194
386.70 0.2198
386.80 0.2203
386.90 0.2207
387.00 0.2211
387.10 0.2216
387.20 0.222
387.30 0.2225
387.40 0.2229
387.50 0.2234
387.60 0.2238
387.70 0.2243
387.80 0.2247
387.90 0.2252
388.00 0.2256
388.10 0.2261
388.20 0.2265
388.30 0.227
388.40 0.2274
388.50 0.2279
388.60 0.2283
388.70 0.2288
388.80 0.2292
388.90 0.2297
389.00 0.2301
389.10 0.2306
389.20 0.2311
389.30 0.2315
389.40 0.232
389.50 0.2324
389.60 0.2329
389.70 0.2333
389.80 0.2338
389.90 0.2343
390.00 0.2347
390.10 0.2352
390.20 0.2356
390.30 0.2361
390.40 0.2366
390.50 0.237
390.60 0.2375
390.70 0.238
390.80 0.2384
390.90 0.2389
391.00 0.2394
391.10 0.2398
391.20 0.2403
391.30 0.2408
391.40 0.2412
391.50 0.2417
391.60 0.2422
391.70 0.2426
391.80 0.2431
391.90 0.2436
392.00 0.244
392.10 0.2445
392.20 0.245
392.30 0.2455
392.40 0.2459
392.50 0.2464
392.60 0.2469
392.70 0.2473
392.80 0.2478
392.90 0.2483
393.00 0.2488
393.10 0.2492
393.20 0.2497
393.30 0.2502
393.40 0.2507
393.50 0.2512
393.60 0.2517
393.70 0.2521
393.80 0.2526
393.90 0.2531
394.00 0.2536
394.10 0.254
394.20 0.2545
394.30 0.255
394.40 0.2555
394.50 0.256
394.60 0.2565
394.70 0.257
394.80 0.2574
394.90 0.2579
395.00 0.2584
395.10 0.2589
395.20 0.2594
395.30 0.2599
395.40 0.2604
395.50 0.2609
395.60 0.2613
395.70 0.2618
395.80 0.2623
395.90 0.2628
396.00 0.2633
396.10 0.2638
396.20 0.2643
396.30 0.2648
396.40 0.2653
396.50 0.2658
396.60 0.2663
396.70 0.2668
396.80 0.2673
396.90 0.2678
397.00 0.2683
397.10 0.2688
397.20 0.2693
397.30 0.2698
397.40 0.2703
397.50 0.2708
397.60 0.2713
397.70 0.2718
397.80 0.2723
397.90 0.2728
398.00 0.2733
398.10 0.2738
398.20 0.2743
398.30 0.2748
398.40 0.2753
398.50 0.2758
398.60 0.2763
398.70 0.2768
398.80 0.2773
398.90 0.2778
399.00 0.2783
399.10 0.2789
399.20 0.2794
399.30 0.2799
399.40 0.2804
399.50 0.2809
399.60 0.2814
399.70 0.2819
399.80 0.2824
399.90 0.2829
400.00 0.2835
400.10 0.284
400.20 0.2845
400.30 0.285
400.40 0.2855
400.50 0.286
400.60 0.2865
400.70 0.2871
400.80 0.2876
400.90 0.2881
401.00 0.2886
401.10 0.2891
401.20 0.2897
401.30 0.2902
401.40 0.2907
401.50 0.2912
401.60 0.2917
401.70 0.2923
401.80 0.2928
401.90 0.2933
402.00 0.2939
402.10 0.2944
402.20 0.2949
402.30 0.2954
402.40 0.296
402.50 0.2965
402.60 0.297
402.70 0.2975
402.80 0.2981
402.90 0.2986
403.00 0.2991
403.10 0.2996
403.20 0.3002
403.30 0.3007
403.40 0.3012
403.50 0.3018
403.60 0.3023
403.70 0.3028
403.80 0.3034
403.90 0.3039
404.00 0.3044
404.10 0.305
404.20 0.3055
404.30 0.3061
404.40 0.3066
404.50 0.3071
404.60 0.3077
404.70 0.3082
404.80 0.3087
404.90 0.3093
405.00 0.3098
405.10 0.3104
405.20 0.3109
405.30 0.3114
405.40 0.312
405.50 0.3125
405.60 0.3131
405.70 0.3136
405.80 0.3142
405.90 0.3147
406.00 0.3153
406.10 0.3158
406.20 0.3163
406.30 0.3169
406.40 0.3174
406.50 0.318
406.60 0.3185
406.70 0.3191
406.80 0.3196
406.90 0.3202
407.00 0.3207
407.10 0.3213
407.20 0.3218
407.30 0.3224
407.40 0.3229
407.50 0.3235
407.60 0.324
407.70 0.3246
407.80 0.3251
407.90 0.3257
408.00 0.3263
408.10 0.3268
408.20 0.3274
408.30 0.3279
408.40 0.3285
408.50 0.3291
408.60 0.3296
408.70 0.3302
408.80 0.3307
408.90 0.3313
409.00 0.3319
409.10 0.3324
409.20 0.333
409.30 0.3335
409.40 0.3341
409.50 0.3347
409.60 0.3352
409.70 0.3358
409.80 0.3364
409.90 0.3369
410.00 0.3375
410.10 0.3381
410.20 0.3386
410.30 0.3392
410.40 0.3398
410.50 0.3403
410.60 0.3409
410.70 0.3415
410.80 0.342
410.90 0.3426
411.00 0.3432
411.10 0.3438
411.20 0.3443
411.30 0.3449
411.40 0.3455
411.50 0.346
411.60 0.3466
411.70 0.3472
411.80 0.3478
411.90 0.3483
412.00 0.3489
412.10 0.3495
412.20 0.3501
412.30 0.3507
412.40 0.3512
412.50 0.3518
412.60 0.3524
412.70 0.353
412.80 0.3535
412.90 0.3541
413.00 0.3547
413.10 0.3553
413.20 0.3559
413.30 0.3565
413.40 0.357
413.50 0.3576
413.60 0.3582
413.70 0.3588
413.80 0.3594
413.90 0.36
414.00 0.3605
414.10 0.3611
414.20 0.3617
414.30 0.3623
414.40 0.3629
414.50 0.3635
414.60 0.3641
414.70 0.3647
414.80 0.3653
414.90 0.3659
415.00 0.3665
415.10 0.367
415.20 0.3676
415.30 0.3682
415.40 0.3688
415.50 0.3694
415.60 0.37
415.70 0.3706
415.80 0.3712
415.90 0.3718
416.00 0.3724
416.10 0.373
416.20 0.3736
416.30 0.3742
416.40 0.3748
416.50 0.3754
416.60 0.376
416.70 0.3766
416.80 0.3772
416.90 0.3778
417.00 0.3784
417.10 0.379
417.20 0.3796
417.30 0.3802
417.40 0.3808
417.50 0.3814
417.60 0.382
417.70 0.3826
417.80 0.3832
417.90 0.3838
418.00 0.3844
418.10 0.385
418.20 0.3856
418.30 0.3862
418.40 0.3868
418.50 0.3875
418.60 0.3881
418.70 0.3887
418.80 0.3893
418.90 0.3899
419.00 0.3905
419.10 0.3911
419.20 0.3917
419.30 0.3923
419.40 0.393
419.50 0.3936
419.60 0.3942
419.70 0.3948
419.80 0.3954
419.90 0.396
420.00 0.3966
420.10 0.3973
420.20 0.3979
420.30 0.3985
420.40 0.3991
420.50 0.3997
420.60 0.4003
420.70 0.401
420.80 0.4016
420.90 0.4022
421.00 0.4028
421.10 0.4034
421.20 0.4041
421.30 0.4047
421.40 0.4053
421.50 0.4059
421.60 0.4066
421.70 0.4072
421.80 0.4078
421.90 0.4084
422.00 0.4091
422.10 0.4097
422.20 0.4103
422.30 0.4109
422.40 0.4116
422.50 0.4122
422.60 0.4128
422.70 0.4135
422.80 0.4141
422.90 0.4147
423.00 0.4154
423.10 0.416
423.20 0.4166
423.30 0.4172
423.40 0.4179
423.50 0.4185
423.60 0.4191
423.70 0.4198
423.80 0.4204
423.90 0.421
424.00 0.4217
424.10 0.4223
424.20 0.4229
424.30 0.4236
424.40 0.4242
424.50 0.4249
424.60 0.4255
424.70 0.4261
424.80 0.4268
424.90 0.4274
425.00 0.428
425.10 0.4287
425.20 0.4293
425.30 0.43
425.40 0.4306
425.50 0.4313
425.60 0.4319
425.70 0.4325
425.80 0.4332
425.90 0.4338
426.00 0.4345
426.10 0.4351
426.20 0.4358
426.30 0.4364
426.40 0.4371
426.50 0.4377
426.60 0.4383
426.70 0.439
426.80 0.4396
426.90 0.4403
427.00 0.4409
427.10 0.4416
427.20 0.4422
427.30 0.4429
427.40 0.4435
427.50 0.4442
427.60 0.4448
427.70 0.4455
427.80 0.4461
427.90 0.4468
428.00 0.4475
428.10 0.4481
428.20 0.4488
428.30 0.4494
428.40 0.4501
428.50 0.4507
428.60 0.4514
428.70 0.452
428.80 0.4527
428.90 0.4533
429.00 0.454
429.10 0.4547
429.20 0.4553
429.30 0.456
429.40 0.4566
429.50 0.4573
429.60 0.458
429.70 0.4586
429.80 0.4593
429.90 0.46
430.00 0.4606
430.10 0.4613
430.20 0.4619
430.30 0.4626
430.40 0.4633
430.50 0.4639
430.60 0.4646
430.70 0.4653
430.80 0.4659
430.90 0.4666
431.00 0.4673
431.10 0.4679
431.20 0.4686
431.30 0.4693
431.40 0.4699
431.50 0.4706
431.60 0.4713
431.70 0.4719
431.80 0.4726
431.90 0.4733
432.00 0.474
432.10 0.4746
432.20 0.4753
432.30 0.476
432.40 0.4766
432.50 0.4773
432.60 0.478
432.70 0.4787
432.80 0.4793
432.90 0.48
433.00 0.4807
433.10 0.4814
433.20 0.482
433.30 0.4827
433.40 0.4834
433.50 0.4841
433.60 0.4848
433.70 0.4854
433.80 0.4861
433.90 0.4868
434.00 0.4875
434.10 0.4882
434.20 0.4888
434.30 0.4895
434.40 0.4902
434.50 0.4909
434.60 0.4916
434.70 0.4923
434.80 0.4929
434.90 0.4936
435.00 0.4943
435.10 0.495
435.20 0.4957
435.30 0.4964
435.40 0.4971
435.50 0.4977
435.60 0.4984
435.70 0.4991
435.80 0.4998
435.90 0.5005
436.00 0.5012
436.10 0.5019
436.20 0.5026
436.30 0.5032
436.40 0.5039
436.50 0.5046
436.60 0.5053
436.70 0.506
436.80 0.5067
436.90 0.5074
437.00 0.5081
437.10 0.5088
437.20 0.5095
437.30 0.5102
437.40 0.5108
437.50 0.5115
437.60 0.5122
437.70 0.5129
437.80 0.5136
437.90 0.5143
438.00 0.515
438.10 0.5157
438.20 0.5164
438.30 0.5171
438.40 0.5178
438.50 0.5185
438.60 0.5192
438.70 0.5199
438.80 0.5206
438.90 0.5213
439.00 0.522
439.10 0.5227
439.20 0.5234
