# Version 2.1 - nm, norm@500 to 1, cut digits, bergeron_55000_95.dat_55000
# Wavelength(nm)  Flambda(ergs/cm^s/s/nm)
300.00 6.39
300.10 6.382
300.20 6.374
300.30 6.366
300.40 6.359
300.50 6.351
300.60 6.343
300.70 6.335
300.80 6.328
300.90 6.32
301.00 6.312
301.10 6.305
301.20 6.297
301.30 6.289
301.40 6.282
301.50 6.274
301.60 6.267
301.70 6.259
301.80 6.251
301.90 6.244
302.00 6.236
302.10 6.229
302.20 6.221
302.30 6.214
302.40 6.206
302.50 6.199
302.60 6.191
302.70 6.184
302.80 6.176
302.90 6.169
303.00 6.161
303.10 6.154
303.20 6.146
303.30 6.139
303.40 6.132
303.50 6.124
303.60 6.117
303.70 6.109
303.80 6.102
303.90 6.095
304.00 6.087
304.10 6.08
304.20 6.073
304.30 6.065
304.40 6.058
304.50 6.051
304.60 6.044
304.70 6.036
304.80 6.029
304.90 6.022
305.00 6.015
305.10 6.007
305.20 6
305.30 5.993
305.40 5.986
305.50 5.979
305.60 5.972
305.70 5.964
305.80 5.957
305.90 5.95
306.00 5.943
306.10 5.936
306.20 5.929
306.30 5.922
306.40 5.915
306.50 5.908
306.60 5.901
306.70 5.893
306.80 5.886
306.90 5.879
307.00 5.872
307.10 5.865
307.20 5.858
307.30 5.851
307.40 5.844
307.50 5.838
307.60 5.831
307.70 5.824
307.80 5.817
307.90 5.81
308.00 5.803
308.10 5.796
308.20 5.789
308.30 5.782
308.40 5.775
308.50 5.768
308.60 5.762
308.70 5.755
308.80 5.748
308.90 5.741
309.00 5.734
309.10 5.728
309.20 5.721
309.30 5.714
309.40 5.707
309.50 5.7
309.60 5.694
309.70 5.687
309.80 5.68
309.90 5.674
310.00 5.667
310.10 5.66
310.20 5.653
310.30 5.647
310.40 5.64
310.50 5.633
310.60 5.627
310.70 5.62
310.80 5.614
310.90 5.607
311.00 5.6
311.10 5.594
311.20 5.587
311.30 5.581
311.40 5.574
311.50 5.567
311.60 5.561
311.70 5.554
311.80 5.548
311.90 5.541
312.00 5.535
312.10 5.528
312.20 5.522
312.30 5.515
312.40 5.509
312.50 5.502
312.60 5.496
312.70 5.489
312.80 5.483
312.90 5.477
313.00 5.47
313.10 5.464
313.20 5.457
313.30 5.451
313.40 5.445
313.50 5.438
313.60 5.432
313.70 5.426
313.80 5.419
313.90 5.413
314.00 5.407
314.10 5.4
314.20 5.394
314.30 5.388
314.40 5.381
314.50 5.375
314.60 5.369
314.70 5.363
314.80 5.356
314.90 5.35
315.00 5.344
315.10 5.338
315.20 5.331
315.30 5.325
315.40 5.319
315.50 5.313
315.60 5.307
315.70 5.301
315.80 5.294
315.90 5.288
316.00 5.282
316.10 5.276
316.20 5.27
316.30 5.264
316.40 5.258
316.50 5.252
316.60 5.245
316.70 5.239
316.80 5.233
316.90 5.227
317.00 5.221
317.10 5.215
317.20 5.209
317.30 5.203
317.40 5.197
317.50 5.191
317.60 5.185
317.70 5.179
317.80 5.173
317.90 5.167
318.00 5.161
318.10 5.155
318.20 5.149
318.30 5.143
318.40 5.137
318.50 5.131
318.60 5.126
318.70 5.12
318.80 5.114
318.90 5.108
319.00 5.102
319.10 5.096
319.20 5.09
319.30 5.084
319.40 5.079
319.50 5.073
319.60 5.067
319.70 5.061
319.80 5.055
319.90 5.049
320.00 5.044
320.10 5.038
320.20 5.032
320.30 5.026
320.40 5.021
320.50 5.015
320.60 5.009
320.70 5.003
320.80 4.998
320.90 4.992
321.00 4.986
321.10 4.981
321.20 4.975
321.30 4.969
321.40 4.963
321.50 4.958
321.60 4.952
321.70 4.946
321.80 4.941
321.90 4.935
322.00 4.93
322.10 4.924
322.20 4.918
322.30 4.913
322.40 4.907
322.50 4.902
322.60 4.896
322.70 4.89
322.80 4.885
322.90 4.879
323.00 4.874
323.10 4.868
323.20 4.863
323.30 4.857
323.40 4.852
323.50 4.846
323.60 4.841
323.70 4.835
323.80 4.83
323.90 4.824
324.00 4.819
324.10 4.813
324.20 4.808
324.30 4.802
324.40 4.797
324.50 4.791
324.60 4.786
324.70 4.781
324.80 4.775
324.90 4.77
325.00 4.764
325.10 4.759
325.20 4.754
325.30 4.748
325.40 4.743
325.50 4.738
325.60 4.732
325.70 4.727
325.80 4.721
325.90 4.716
326.00 4.711
326.10 4.706
326.20 4.7
326.30 4.695
326.40 4.69
326.50 4.684
326.60 4.679
326.70 4.674
326.80 4.669
326.90 4.663
327.00 4.658
327.10 4.653
327.20 4.648
327.30 4.642
327.40 4.637
327.50 4.632
327.60 4.627
327.70 4.622
327.80 4.616
327.90 4.611
328.00 4.606
328.10 4.601
328.20 4.596
328.30 4.591
328.40 4.585
328.50 4.58
328.60 4.575
328.70 4.57
328.80 4.565
328.90 4.56
329.00 4.555
329.10 4.55
329.20 4.545
329.30 4.539
329.40 4.534
329.50 4.529
329.60 4.524
329.70 4.519
329.80 4.514
329.90 4.509
330.00 4.504
330.10 4.499
330.20 4.494
330.30 4.489
330.40 4.484
330.50 4.479
330.60 4.474
330.70 4.469
330.80 4.464
330.90 4.459
331.00 4.454
331.10 4.449
331.20 4.444
331.30 4.44
331.40 4.435
331.50 4.43
331.60 4.425
331.70 4.42
331.80 4.415
331.90 4.41
332.00 4.405
332.10 4.4
332.20 4.395
332.30 4.391
332.40 4.386
332.50 4.381
332.60 4.376
332.70 4.371
332.80 4.366
332.90 4.361
333.00 4.357
333.10 4.352
333.20 4.347
333.30 4.342
333.40 4.337
333.50 4.333
333.60 4.328
333.70 4.323
333.80 4.318
333.90 4.314
334.00 4.309
334.10 4.304
334.20 4.299
334.30 4.295
334.40 4.29
334.50 4.285
334.60 4.28
334.70 4.276
334.80 4.271
334.90 4.266
335.00 4.262
335.10 4.257
335.20 4.252
335.30 4.248
335.40 4.243
335.50 4.238
335.60 4.234
335.70 4.229
335.80 4.224
335.90 4.22
336.00 4.215
336.10 4.21
336.20 4.206
336.30 4.201
336.40 4.197
336.50 4.192
336.60 4.187
336.70 4.183
336.80 4.178
336.90 4.174
337.00 4.169
337.10 4.165
337.20 4.16
337.30 4.156
337.40 4.151
337.50 4.146
337.60 4.142
337.70 4.137
337.80 4.133
337.90 4.128
338.00 4.124
338.10 4.119
338.20 4.115
338.30 4.11
338.40 4.106
338.50 4.101
338.60 4.097
338.70 4.093
338.80 4.088
338.90 4.084
339.00 4.079
339.10 4.075
339.20 4.07
339.30 4.066
339.40 4.062
339.50 4.057
339.60 4.053
339.70 4.048
339.80 4.044
339.90 4.04
340.00 4.035
340.10 4.031
340.20 4.026
340.30 4.022
340.40 4.018
340.50 4.013
340.60 4.009
340.70 4.005
340.80 4
340.90 3.996
341.00 3.992
341.10 3.987
341.20 3.983
341.30 3.979
341.40 3.974
341.50 3.97
341.60 3.966
341.70 3.962
341.80 3.957
341.90 3.953
342.00 3.949
342.10 3.945
342.20 3.94
342.30 3.936
342.40 3.932
342.50 3.928
342.60 3.923
342.70 3.919
342.80 3.915
342.90 3.911
343.00 3.907
343.10 3.902
343.20 3.898
343.30 3.894
343.40 3.89
343.50 3.886
343.60 3.881
343.70 3.877
343.80 3.873
343.90 3.869
344.00 3.865
344.10 3.861
344.20 3.856
344.30 3.852
344.40 3.848
344.50 3.844
344.60 3.84
344.70 3.836
344.80 3.832
344.90 3.828
345.00 3.824
345.10 3.82
345.20 3.815
345.30 3.811
345.40 3.807
345.50 3.803
345.60 3.799
345.70 3.795
345.80 3.791
345.90 3.787
346.00 3.783
346.10 3.779
346.20 3.775
346.30 3.771
346.40 3.767
346.50 3.763
346.60 3.759
346.70 3.755
346.80 3.751
346.90 3.747
347.00 3.743
347.10 3.739
347.20 3.735
347.30 3.731
347.40 3.727
347.50 3.723
347.60 3.719
347.70 3.715
347.80 3.711
347.90 3.707
348.00 3.703
348.10 3.699
348.20 3.695
348.30 3.692
348.40 3.688
348.50 3.684
348.60 3.68
348.70 3.676
348.80 3.672
348.90 3.668
349.00 3.664
349.10 3.66
349.20 3.657
349.30 3.653
349.40 3.649
349.50 3.645
349.60 3.641
349.70 3.637
349.80 3.633
349.90 3.63
350.00 3.626
350.10 3.622
350.20 3.618
350.30 3.614
350.40 3.611
350.50 3.607
350.60 3.603
350.70 3.599
350.80 3.595
350.90 3.592
351.00 3.588
351.10 3.584
351.20 3.58
351.30 3.576
351.40 3.573
351.50 3.569
351.60 3.565
351.70 3.561
351.80 3.558
351.90 3.554
352.00 3.55
352.10 3.546
352.20 3.543
352.30 3.539
352.40 3.535
352.50 3.532
352.60 3.528
352.70 3.524
352.80 3.521
352.90 3.517
353.00 3.513
353.10 3.51
353.20 3.506
353.30 3.502
353.40 3.499
353.50 3.495
353.60 3.491
353.70 3.488
353.80 3.484
353.90 3.48
354.00 3.477
354.10 3.473
354.20 3.469
354.30 3.466
354.40 3.462
354.50 3.459
354.60 3.455
354.70 3.451
354.80 3.448
354.90 3.444
355.00 3.441
355.10 3.437
355.20 3.433
355.30 3.43
355.40 3.426
355.50 3.423
355.60 3.419
355.70 3.416
355.80 3.412
355.90 3.409
356.00 3.405
356.10 3.401
356.20 3.398
356.30 3.394
356.40 3.391
356.50 3.387
356.60 3.384
356.70 3.38
356.80 3.377
356.90 3.373
357.00 3.37
357.10 3.366
357.20 3.363
357.30 3.359
357.40 3.356
357.50 3.352
357.60 3.349
357.70 3.346
357.80 3.342
357.90 3.339
358.00 3.335
358.10 3.332
358.20 3.328
358.30 3.325
358.40 3.321
358.50 3.318
358.60 3.315
358.70 3.311
358.80 3.308
358.90 3.304
359.00 3.301
359.10 3.298
359.20 3.294
359.30 3.291
359.40 3.287
359.50 3.284
359.60 3.281
359.70 3.277
359.80 3.274
359.90 3.27
360.00 3.267
360.10 3.264
360.20 3.26
360.30 3.257
360.40 3.254
360.50 3.25
360.60 3.247
360.70 3.244
360.80 3.24
360.90 3.237
361.00 3.234
361.10 3.23
361.20 3.227
361.30 3.224
361.40 3.221
361.50 3.217
361.60 3.214
361.70 3.211
361.80 3.207
361.90 3.204
362.00 3.201
362.10 3.198
362.20 3.194
362.30 3.191
362.40 3.188
362.50 3.185
362.60 3.181
362.70 3.178
362.80 3.175
362.90 3.172
363.00 3.168
363.10 3.165
363.20 3.162
363.30 3.159
363.40 3.155
363.50 3.152
363.60 3.149
363.70 3.146
363.80 3.143
363.90 3.139
364.00 3.136
364.10 3.133
364.20 3.13
364.30 3.127
364.40 3.123
364.50 3.12
364.60 3.117
364.70 3.114
364.80 3.111
364.90 3.108
365.00 3.105
365.10 3.101
365.20 3.098
365.30 3.095
365.40 3.092
365.50 3.089
365.60 3.086
365.70 3.083
365.80 3.079
365.90 3.076
366.00 3.073
366.10 3.07
366.20 3.067
366.30 3.064
366.40 3.061
366.50 3.058
366.60 3.055
366.70 3.051
366.80 3.048
366.90 3.045
367.00 3.042
367.10 3.039
367.20 3.036
367.30 3.033
367.40 3.03
367.50 3.027
367.60 3.024
367.70 3.02
367.80 3.017
367.90 3.014
368.00 3.011
368.10 3.008
368.20 3.005
368.30 3.002
368.40 2.999
368.50 2.996
368.60 2.992
368.70 2.989
368.80 2.986
368.90 2.983
369.00 2.98
369.10 2.977
369.20 2.974
369.30 2.971
369.40 2.967
369.50 2.964
369.60 2.961
369.70 2.958
369.80 2.955
369.90 2.952
370.00 2.949
370.10 2.946
370.20 2.943
370.30 2.94
370.40 2.937
370.50 2.933
370.60 2.93
370.70 2.927
370.80 2.924
370.90 2.921
371.00 2.918
371.10 2.915
371.20 2.912
371.30 2.909
371.40 2.906
371.50 2.903
371.60 2.9
371.70 2.897
371.80 2.894
371.90 2.891
372.00 2.888
372.10 2.885
372.20 2.882
372.30 2.879
372.40 2.876
372.50 2.874
372.60 2.871
372.70 2.868
372.80 2.865
372.90 2.863
373.00 2.86
373.10 2.857
373.20 2.854
373.30 2.851
373.40 2.849
373.50 2.846
373.60 2.843
373.70 2.84
373.80 2.838
373.90 2.835
374.00 2.832
374.10 2.829
374.20 2.826
374.30 2.823
374.40 2.82
374.50 2.818
374.60 2.815
374.70 2.812
374.80 2.809
374.90 2.806
375.00 2.803
375.10 2.8
375.20 2.797
375.30 2.794
375.40 2.791
375.50 2.789
375.60 2.786
375.70 2.783
375.80 2.78
375.90 2.777
376.00 2.774
376.10 2.771
376.20 2.768
376.30 2.766
376.40 2.763
376.50 2.76
376.60 2.757
376.70 2.754
376.80 2.751
376.90 2.748
377.00 2.746
377.10 2.743
377.20 2.74
377.30 2.737
377.40 2.735
377.50 2.732
377.60 2.729
377.70 2.726
377.80 2.724
377.90 2.721
378.00 2.718
378.10 2.716
378.20 2.713
378.30 2.71
378.40 2.707
378.50 2.705
378.60 2.702
378.70 2.699
378.80 2.697
378.90 2.694
379.00 2.691
379.10 2.689
379.20 2.686
379.30 2.683
379.40 2.681
379.50 2.678
379.60 2.675
379.70 2.672
379.80 2.67
379.90 2.667
380.00 2.664
380.10 2.662
380.20 2.659
380.30 2.657
380.40 2.654
380.50 2.651
380.60 2.649
380.70 2.646
380.80 2.644
380.90 2.641
381.00 2.638
381.10 2.636
381.20 2.633
381.30 2.631
381.40 2.628
381.50 2.625
381.60 2.623
381.70 2.62
381.80 2.618
381.90 2.615
382.00 2.613
382.10 2.61
382.20 2.608
382.30 2.605
382.40 2.603
382.50 2.6
382.60 2.597
382.70 2.595
382.80 2.592
382.90 2.59
383.00 2.587
383.10 2.585
383.20 2.582
383.30 2.58
383.40 2.577
383.50 2.575
383.60 2.572
383.70 2.57
383.80 2.568
383.90 2.565
384.00 2.563
384.10 2.56
384.20 2.558
384.30 2.555
384.40 2.553
384.50 2.551
384.60 2.548
384.70 2.546
384.80 2.543
384.90 2.541
385.00 2.539
385.10 2.536
385.20 2.534
385.30 2.531
385.40 2.529
385.50 2.527
385.60 2.524
385.70 2.522
385.80 2.519
385.90 2.517
386.00 2.515
386.10 2.512
386.20 2.51
386.30 2.508
386.40 2.505
386.50 2.503
386.60 2.501
386.70 2.498
386.80 2.496
386.90 2.494
387.00 2.491
387.10 2.489
387.20 2.486
387.30 2.484
387.40 2.482
387.50 2.479
387.60 2.477
387.70 2.475
387.80 2.473
387.90 2.47
388.00 2.468
388.10 2.466
388.20 2.463
388.30 2.461
388.40 2.459
388.50 2.457
388.60 2.454
388.70 2.452
388.80 2.45
388.90 2.448
389.00 2.445
389.10 2.443
389.20 2.441
389.30 2.439
389.40 2.437
389.50 2.435
389.60 2.432
389.70 2.43
389.80 2.428
389.90 2.426
390.00 2.424
390.10 2.422
390.20 2.42
390.30 2.418
390.40 2.415
390.50 2.413
390.60 2.411
390.70 2.409
390.80 2.407
390.90 2.405
391.00 2.403
391.10 2.401
391.20 2.399
391.30 2.396
391.40 2.394
391.50 2.392
391.60 2.39
391.70 2.388
391.80 2.386
391.90 2.384
392.00 2.382
392.10 2.379
392.20 2.377
392.30 2.375
392.40 2.373
392.50 2.371
392.60 2.368
392.70 2.366
392.80 2.364
392.90 2.362
393.00 2.36
393.10 2.357
393.20 2.355
393.30 2.353
393.40 2.351
393.50 2.349
393.60 2.346
393.70 2.344
393.80 2.342
393.90 2.34
394.00 2.337
394.10 2.335
394.20 2.333
394.30 2.331
394.40 2.328
394.50 2.326
394.60 2.324
394.70 2.321
394.80 2.319
394.90 2.317
395.00 2.314
395.10 2.312
395.20 2.31
395.30 2.307
395.40 2.305
395.50 2.303
395.60 2.3
395.70 2.298
395.80 2.296
395.90 2.294
396.00 2.291
396.10 2.289
396.20 2.287
396.30 2.284
396.40 2.282
396.50 2.28
396.60 2.278
396.70 2.275
396.80 2.273
396.90 2.271
397.00 2.269
397.10 2.267
397.20 2.266
397.30 2.264
397.40 2.262
397.50 2.261
397.60 2.259
397.70 2.258
397.80 2.256
397.90 2.255
398.00 2.253
398.10 2.252
398.20 2.25
398.30 2.249
398.40 2.247
398.50 2.246
398.60 2.244
398.70 2.243
398.80 2.241
398.90 2.24
399.00 2.238
399.10 2.237
399.20 2.235
399.30 2.234
399.40 2.232
399.50 2.231
399.60 2.229
399.70 2.227
399.80 2.226
399.90 2.224
400.00 2.222
400.10 2.221
400.20 2.219
400.30 2.218
400.40 2.216
400.50 2.214
400.60 2.212
400.70 2.211
400.80 2.209
400.90 2.207
401.00 2.205
401.10 2.204
401.20 2.202
401.30 2.2
401.40 2.198
401.50 2.196
401.60 2.194
401.70 2.193
401.80 2.191
401.90 2.189
402.00 2.187
402.10 2.185
402.20 2.183
402.30 2.181
402.40 2.179
402.50 2.177
402.60 2.175
402.70 2.173
402.80 2.171
402.90 2.169
403.00 2.167
403.10 2.164
403.20 2.162
403.30 2.16
403.40 2.158
403.50 2.156
403.60 2.154
403.70 2.151
403.80 2.149
403.90 2.147
404.00 2.144
404.10 2.142
404.20 2.14
404.30 2.137
404.40 2.135
404.50 2.133
404.60 2.13
404.70 2.128
404.80 2.125
404.90 2.123
405.00 2.12
405.10 2.118
405.20 2.115
405.30 2.113
405.40 2.11
405.50 2.107
405.60 2.105
405.70 2.102
405.80 2.1
405.90 2.097
406.00 2.094
406.10 2.091
406.20 2.089
406.30 2.086
406.40 2.083
406.50 2.08
406.60 2.077
406.70 2.074
406.80 2.072
406.90 2.069
407.00 2.066
407.10 2.063
407.20 2.06
407.30 2.057
407.40 2.054
407.50 2.051
407.60 2.048
407.70 2.045
407.80 2.042
407.90 2.039
408.00 2.036
408.10 2.033
408.20 2.03
408.30 2.027
408.40 2.024
408.50 2.021
408.60 2.018
408.70 2.015
408.80 2.012
408.90 2.009
409.00 2.006
409.10 2.003
409.20 2.001
409.30 1.998
409.40 1.996
409.50 1.993
409.60 1.991
409.70 1.989
409.80 1.987
409.90 1.986
410.00 1.984
410.10 1.983
410.20 1.981
410.30 1.98
410.40 1.978
410.50 1.976
410.60 1.974
410.70 1.973
410.80 1.972
410.90 1.971
411.00 1.971
411.10 1.97
411.20 1.969
411.30 1.969
411.40 1.968
411.50 1.968
411.60 1.968
411.70 1.967
411.80 1.967
411.90 1.967
412.00 1.967
412.10 1.966
412.20 1.966
412.30 1.966
412.40 1.966
412.50 1.966
412.60 1.965
412.70 1.965
412.80 1.965
412.90 1.965
413.00 1.964
413.10 1.964
413.20 1.964
413.30 1.963
413.40 1.963
413.50 1.963
413.60 1.962
413.70 1.962
413.80 1.961
413.90 1.961
414.00 1.96
414.10 1.96
414.20 1.959
414.30 1.959
414.40 1.958
414.50 1.958
414.60 1.957
414.70 1.957
414.80 1.956
414.90 1.955
415.00 1.955
415.10 1.954
415.20 1.953
415.30 1.952
415.40 1.952
415.50 1.951
415.60 1.95
415.70 1.949
415.80 1.948
415.90 1.948
416.00 1.947
416.10 1.946
416.20 1.945
416.30 1.944
416.40 1.943
416.50 1.942
416.60 1.941
416.70 1.94
416.80 1.939
416.90 1.938
417.00 1.937
417.10 1.936
417.20 1.935
417.30 1.934
417.40 1.933
417.50 1.932
417.60 1.93
417.70 1.929
417.80 1.928
417.90 1.927
418.00 1.926
418.10 1.924
418.20 1.923
418.30 1.922
418.40 1.921
418.50 1.919
418.60 1.918
418.70 1.917
418.80 1.915
418.90 1.914
419.00 1.913
419.10 1.911
419.20 1.91
419.30 1.908
419.40 1.907
419.50 1.906
419.60 1.904
419.70 1.903
419.80 1.901
419.90 1.9
420.00 1.898
420.10 1.897
420.20 1.895
420.30 1.894
420.40 1.892
420.50 1.891
420.60 1.889
420.70 1.887
420.80 1.886
420.90 1.884
421.00 1.882
421.10 1.881
421.20 1.879
421.30 1.877
421.40 1.876
421.50 1.874
421.60 1.872
421.70 1.871
421.80 1.869
421.90 1.867
422.00 1.865
422.10 1.864
422.20 1.862
422.30 1.86
422.40 1.858
422.50 1.856
422.60 1.854
422.70 1.853
422.80 1.851
422.90 1.849
423.00 1.847
423.10 1.845
423.20 1.843
423.30 1.841
423.40 1.839
423.50 1.837
423.60 1.835
423.70 1.833
423.80 1.831
423.90 1.829
424.00 1.827
424.10 1.825
424.20 1.823
424.30 1.821
424.40 1.818
424.50 1.816
424.60 1.814
424.70 1.812
424.80 1.81
424.90 1.807
425.00 1.805
425.10 1.803
425.20 1.801
425.30 1.798
425.40 1.796
425.50 1.794
425.60 1.791
425.70 1.789
425.80 1.787
425.90 1.784
426.00 1.782
426.10 1.779
426.20 1.777
426.30 1.774
426.40 1.772
426.50 1.769
426.60 1.767
426.70 1.764
426.80 1.761
426.90 1.759
427.00 1.756
427.10 1.753
427.20 1.75
427.30 1.748
427.40 1.745
427.50 1.742
427.60 1.739
427.70 1.736
427.80 1.734
427.90 1.731
428.00 1.728
428.10 1.725
428.20 1.722
428.30 1.719
428.40 1.716
428.50 1.712
428.60 1.709
428.70 1.706
428.80 1.703
428.90 1.7
429.00 1.696
429.10 1.693
429.20 1.69
429.30 1.687
429.40 1.683
429.50 1.68
429.60 1.676
429.70 1.673
429.80 1.669
429.90 1.666
430.00 1.662
430.10 1.658
430.20 1.655
430.30 1.651
430.40 1.647
430.50 1.644
430.60 1.64
430.70 1.636
430.80 1.632
430.90 1.628
431.00 1.624
431.10 1.62
431.20 1.616
431.30 1.612
431.40 1.608
431.50 1.604
431.60 1.6
431.70 1.596
431.80 1.592
431.90 1.588
432.00 1.584
432.10 1.579
432.20 1.575
432.30 1.571
432.40 1.567
432.50 1.562
432.60 1.558
432.70 1.554
432.80 1.549
432.90 1.545
433.00 1.54
433.10 1.535
433.20 1.531
433.30 1.526
433.40 1.521
433.50 1.516
433.60 1.51
433.70 1.504
433.80 1.498
433.90 1.491
434.00 1.486
434.10 1.485
434.20 1.489
434.30 1.493
434.40 1.497
434.50 1.5
434.60 1.503
434.70 1.506
434.80 1.509
434.90 1.511
435.00 1.513
435.10 1.516
435.20 1.518
435.30 1.52
435.40 1.522
435.50 1.523
435.60 1.525
435.70 1.527
435.80 1.529
435.90 1.53
436.00 1.532
436.10 1.534
436.20 1.535
436.30 1.537
436.40 1.538
436.50 1.54
436.60 1.541
436.70 1.543
436.80 1.544
436.90 1.546
437.00 1.547
437.10 1.548
437.20 1.549
437.30 1.551
437.40 1.552
437.50 1.553
437.60 1.554
437.70 1.555
437.80 1.556
437.90 1.557
438.00 1.558
438.10 1.559
438.20 1.56
438.30 1.56
438.40 1.561
438.50 1.562
438.60 1.563
438.70 1.563
438.80 1.564
438.90 1.564
439.00 1.565
439.10 1.565
439.20 1.566
439.30 1.566
439.40 1.567
439.50 1.567
439.60 1.567
439.70 1.568
439.80 1.568
439.90 1.568
440.00 1.568
440.10 1.569
440.20 1.569
440.30 1.569
440.40 1.569
440.50 1.569
440.60 1.569
440.70 1.569
440.80 1.569
440.90 1.569
441.00 1.569
441.10 1.569
441.20 1.569
441.30 1.568
441.40 1.568
441.50 1.568
441.60 1.568
441.70 1.568
441.80 1.567
441.90 1.567
442.00 1.567
442.10 1.566
442.20 1.566
442.30 1.566
442.40 1.565
442.50 1.565
442.60 1.564
442.70 1.564
442.80 1.563
442.90 1.563
443.00 1.562
443.10 1.562
443.20 1.561
443.30 1.561
443.40 1.56
443.50 1.559
443.60 1.559
443.70 1.558
443.80 1.558
443.90 1.557
444.00 1.556
444.10 1.556
444.20 1.555
444.30 1.554
444.40 1.554
444.50 1.553
444.60 1.552
444.70 1.551
444.80 1.551
444.90 1.55
445.00 1.549
445.10 1.548
445.20 1.547
445.30 1.547
445.40 1.546
445.50 1.545
445.60 1.544
445.70 1.543
445.80 1.542
445.90 1.541
446.00 1.541
446.10 1.54
446.20 1.539
446.30 1.538
446.40 1.537
446.50 1.536
446.60 1.535
446.70 1.534
446.80 1.533
446.90 1.532
447.00 1.531
447.10 1.53
447.20 1.529
447.30 1.528
447.40 1.527
447.50 1.526
447.60 1.525
447.70 1.524
447.80 1.523
447.90 1.522
448.00 1.521
448.10 1.52
448.20 1.519
448.30 1.518
448.40 1.517
448.50 1.516
448.60 1.515
448.70 1.514
448.80 1.513
448.90 1.512
449.00 1.511
449.10 1.51
449.20 1.509
449.30 1.508
449.40 1.507
449.50 1.506
449.60 1.505
449.70 1.504
449.80 1.502
449.90 1.501
450.00 1.5
450.10 1.499
450.20 1.498
450.30 1.497
450.40 1.496
450.50 1.495
450.60 1.494
450.70 1.493
450.80 1.491
450.90 1.49
451.00 1.489
451.10 1.488
451.20 1.487
451.30 1.486
451.40 1.485
451.50 1.484
451.60 1.483
451.70 1.481
451.80 1.48
451.90 1.479
452.00 1.478
452.10 1.477
452.20 1.476
452.30 1.475
452.40 1.473
452.50 1.472
452.60 1.471
452.70 1.47
452.80 1.469
452.90 1.468
453.00 1.467
453.10 1.465
453.20 1.464
453.30 1.463
453.40 1.462
453.50 1.461
453.60 1.46
453.70 1.459
453.80 1.457
453.90 1.456
454.00 1.455
454.10 1.454
