# Version 2.1 - nm, norm@500 to 1, cut digits, bergeron_20000_70.dat_20000
# Wavelength(nm)  Flambda(ergs/cm^s/s/nm)
300.00 3.186
300.10 3.183
300.20 3.18
300.30 3.177
300.40 3.174
300.50 3.171
300.60 3.169
300.70 3.166
300.80 3.163
300.90 3.16
301.00 3.157
301.10 3.154
301.20 3.151
301.30 3.148
301.40 3.145
301.50 3.142
301.60 3.139
301.70 3.136
301.80 3.133
301.90 3.13
302.00 3.127
302.10 3.124
302.20 3.121
302.30 3.118
302.40 3.115
302.50 3.113
302.60 3.11
302.70 3.107
302.80 3.104
302.90 3.101
303.00 3.098
303.10 3.095
303.20 3.092
303.30 3.089
303.40 3.086
303.50 3.084
303.60 3.081
303.70 3.078
303.80 3.075
303.90 3.072
304.00 3.069
304.10 3.066
304.20 3.064
304.30 3.061
304.40 3.058
304.50 3.055
304.60 3.052
304.70 3.049
304.80 3.047
304.90 3.044
305.00 3.041
305.10 3.038
305.20 3.035
305.30 3.032
305.40 3.03
305.50 3.027
305.60 3.024
305.70 3.021
305.80 3.018
305.90 3.016
306.00 3.013
306.10 3.01
306.20 3.007
306.30 3.004
306.40 3.002
306.50 2.999
306.60 2.996
306.70 2.993
306.80 2.991
306.90 2.988
307.00 2.985
307.10 2.982
307.20 2.98
307.30 2.977
307.40 2.974
307.50 2.971
307.60 2.969
307.70 2.966
307.80 2.963
307.90 2.96
308.00 2.958
308.10 2.955
308.20 2.952
308.30 2.949
308.40 2.947
308.50 2.944
308.60 2.941
308.70 2.939
308.80 2.936
308.90 2.933
309.00 2.931
309.10 2.928
309.20 2.925
309.30 2.923
309.40 2.92
309.50 2.917
309.60 2.915
309.70 2.912
309.80 2.909
309.90 2.906
310.00 2.904
310.10 2.901
310.20 2.899
310.30 2.896
310.40 2.893
310.50 2.891
310.60 2.888
310.70 2.885
310.80 2.883
310.90 2.88
311.00 2.877
311.10 2.875
311.20 2.872
311.30 2.87
311.40 2.867
311.50 2.864
311.60 2.862
311.70 2.859
311.80 2.856
311.90 2.854
312.00 2.851
312.10 2.849
312.20 2.846
312.30 2.844
312.40 2.841
312.50 2.838
312.60 2.836
312.70 2.833
312.80 2.831
312.90 2.828
313.00 2.825
313.10 2.823
313.20 2.82
313.30 2.818
313.40 2.815
313.50 2.813
313.60 2.81
313.70 2.808
313.80 2.805
313.90 2.803
314.00 2.8
314.10 2.797
314.20 2.795
314.30 2.792
314.40 2.79
314.50 2.787
314.60 2.785
314.70 2.782
314.80 2.78
314.90 2.777
315.00 2.775
315.10 2.772
315.20 2.77
315.30 2.767
315.40 2.765
315.50 2.762
315.60 2.76
315.70 2.757
315.80 2.755
315.90 2.752
316.00 2.75
316.10 2.747
316.20 2.745
316.30 2.742
316.40 2.74
316.50 2.738
316.60 2.735
316.70 2.733
316.80 2.73
316.90 2.728
317.00 2.725
317.10 2.723
317.20 2.72
317.30 2.718
317.40 2.715
317.50 2.713
317.60 2.711
317.70 2.708
317.80 2.706
317.90 2.703
318.00 2.701
318.10 2.699
318.20 2.696
318.30 2.694
318.40 2.691
318.50 2.689
318.60 2.686
318.70 2.684
318.80 2.682
318.90 2.679
319.00 2.677
319.10 2.674
319.20 2.672
319.30 2.67
319.40 2.667
319.50 2.665
319.60 2.663
319.70 2.66
319.80 2.658
319.90 2.655
320.00 2.653
320.10 2.651
320.20 2.648
320.30 2.646
320.40 2.644
320.50 2.641
320.60 2.639
320.70 2.637
320.80 2.634
320.90 2.632
321.00 2.63
321.10 2.627
321.20 2.625
321.30 2.623
321.40 2.62
321.50 2.618
321.60 2.616
321.70 2.613
321.80 2.611
321.90 2.609
322.00 2.606
322.10 2.604
322.20 2.602
322.30 2.599
322.40 2.597
322.50 2.595
322.60 2.593
322.70 2.59
322.80 2.588
322.90 2.586
323.00 2.583
323.10 2.581
323.20 2.579
323.30 2.577
323.40 2.574
323.50 2.572
323.60 2.57
323.70 2.568
323.80 2.565
323.90 2.563
324.00 2.561
324.10 2.558
324.20 2.556
324.30 2.554
324.40 2.552
324.50 2.549
324.60 2.547
324.70 2.545
324.80 2.543
324.90 2.541
325.00 2.538
325.10 2.536
325.20 2.534
325.30 2.532
325.40 2.529
325.50 2.527
325.60 2.525
325.70 2.523
325.80 2.521
325.90 2.518
326.00 2.516
326.10 2.514
326.20 2.512
326.30 2.51
326.40 2.507
326.50 2.505
326.60 2.503
326.70 2.501
326.80 2.499
326.90 2.496
327.00 2.494
327.10 2.492
327.20 2.49
327.30 2.488
327.40 2.485
327.50 2.483
327.60 2.481
327.70 2.479
327.80 2.477
327.90 2.475
328.00 2.473
328.10 2.47
328.20 2.468
328.30 2.466
328.40 2.464
328.50 2.462
328.60 2.46
328.70 2.457
328.80 2.455
328.90 2.453
329.00 2.451
329.10 2.449
329.20 2.447
329.30 2.445
329.40 2.443
329.50 2.44
329.60 2.438
329.70 2.436
329.80 2.434
329.90 2.432
330.00 2.43
330.10 2.428
330.20 2.426
330.30 2.424
330.40 2.421
330.50 2.419
330.60 2.417
330.70 2.415
330.80 2.413
330.90 2.411
331.00 2.409
331.10 2.407
331.20 2.405
331.30 2.403
331.40 2.401
331.50 2.399
331.60 2.396
331.70 2.394
331.80 2.392
331.90 2.39
332.00 2.388
332.10 2.386
332.20 2.384
332.30 2.382
332.40 2.38
332.50 2.378
332.60 2.376
332.70 2.374
332.80 2.372
332.90 2.37
333.00 2.368
333.10 2.366
333.20 2.364
333.30 2.362
333.40 2.36
333.50 2.358
333.60 2.356
333.70 2.353
333.80 2.351
333.90 2.349
334.00 2.347
334.10 2.345
334.20 2.343
334.30 2.341
334.40 2.339
334.50 2.337
334.60 2.335
334.70 2.333
334.80 2.331
334.90 2.329
335.00 2.327
335.10 2.325
335.20 2.323
335.30 2.321
335.40 2.319
335.50 2.317
335.60 2.315
335.70 2.313
335.80 2.312
335.90 2.31
336.00 2.308
336.10 2.306
336.20 2.304
336.30 2.302
336.40 2.3
336.50 2.298
336.60 2.296
336.70 2.294
336.80 2.292
336.90 2.29
337.00 2.288
337.10 2.286
337.20 2.284
337.30 2.282
337.40 2.28
337.50 2.278
337.60 2.276
337.70 2.274
337.80 2.272
337.90 2.271
338.00 2.269
338.10 2.267
338.20 2.265
338.30 2.263
338.40 2.261
338.50 2.259
338.60 2.257
338.70 2.255
338.80 2.253
338.90 2.251
339.00 2.249
339.10 2.248
339.20 2.246
339.30 2.244
339.40 2.242
339.50 2.24
339.60 2.238
339.70 2.236
339.80 2.234
339.90 2.232
340.00 2.23
340.10 2.229
340.20 2.227
340.30 2.225
340.40 2.223
340.50 2.221
340.60 2.219
340.70 2.217
340.80 2.215
340.90 2.214
341.00 2.212
341.10 2.21
341.20 2.208
341.30 2.206
341.40 2.204
341.50 2.202
341.60 2.201
341.70 2.199
341.80 2.197
341.90 2.195
342.00 2.193
342.10 2.191
342.20 2.189
342.30 2.188
342.40 2.186
342.50 2.184
342.60 2.182
342.70 2.18
342.80 2.178
342.90 2.177
343.00 2.175
343.10 2.173
343.20 2.171
343.30 2.169
343.40 2.167
343.50 2.166
343.60 2.164
343.70 2.162
343.80 2.16
343.90 2.158
344.00 2.157
344.10 2.155
344.20 2.153
344.30 2.151
344.40 2.149
344.50 2.148
344.60 2.146
344.70 2.144
344.80 2.142
344.90 2.14
345.00 2.139
345.10 2.137
345.20 2.135
345.30 2.133
345.40 2.132
345.50 2.13
345.60 2.128
345.70 2.126
345.80 2.124
345.90 2.123
346.00 2.121
346.10 2.119
346.20 2.117
346.30 2.116
346.40 2.114
346.50 2.112
346.60 2.11
346.70 2.109
346.80 2.107
346.90 2.105
347.00 2.103
347.10 2.102
347.20 2.1
347.30 2.098
347.40 2.096
347.50 2.095
347.60 2.093
347.70 2.091
347.80 2.089
347.90 2.088
348.00 2.086
348.10 2.084
348.20 2.082
348.30 2.081
348.40 2.079
348.50 2.077
348.60 2.076
348.70 2.074
348.80 2.072
348.90 2.07
349.00 2.069
349.10 2.067
349.20 2.065
349.30 2.064
349.40 2.062
349.50 2.06
349.60 2.059
349.70 2.057
349.80 2.055
349.90 2.053
350.00 2.052
350.10 2.05
350.20 2.048
350.30 2.047
350.40 2.045
350.50 2.043
350.60 2.042
350.70 2.04
350.80 2.038
350.90 2.037
351.00 2.035
351.10 2.033
351.20 2.032
351.30 2.03
351.40 2.028
351.50 2.027
351.60 2.025
351.70 2.023
351.80 2.022
351.90 2.02
352.00 2.018
352.10 2.017
352.20 2.015
352.30 2.013
352.40 2.012
352.50 2.01
352.60 2.008
352.70 2.007
352.80 2.005
352.90 2.003
353.00 2.002
353.10 2
353.20 1.998
353.30 1.997
353.40 1.995
353.50 1.994
353.60 1.992
353.70 1.99
353.80 1.989
353.90 1.987
354.00 1.985
354.10 1.984
354.20 1.982
354.30 1.981
354.40 1.979
354.50 1.977
354.60 1.976
354.70 1.974
354.80 1.973
354.90 1.971
355.00 1.969
355.10 1.968
355.20 1.966
355.30 1.964
355.40 1.963
355.50 1.961
355.60 1.96
355.70 1.958
355.80 1.957
355.90 1.955
356.00 1.953
356.10 1.952
356.20 1.95
356.30 1.949
356.40 1.947
356.50 1.945
356.60 1.944
356.70 1.942
356.80 1.941
356.90 1.939
357.00 1.938
357.10 1.936
357.20 1.934
357.30 1.933
357.40 1.931
357.50 1.93
357.60 1.928
357.70 1.927
357.80 1.925
357.90 1.923
358.00 1.922
358.10 1.92
358.20 1.919
358.30 1.917
358.40 1.916
358.50 1.914
358.60 1.913
358.70 1.911
358.80 1.909
358.90 1.908
359.00 1.906
359.10 1.905
359.20 1.903
359.30 1.902
359.40 1.9
359.50 1.899
359.60 1.897
359.70 1.896
359.80 1.894
359.90 1.893
360.00 1.891
360.10 1.89
360.20 1.888
360.30 1.887
360.40 1.885
360.50 1.883
360.60 1.882
360.70 1.88
360.80 1.879
360.90 1.877
361.00 1.876
361.10 1.874
361.20 1.873
361.30 1.871
361.40 1.87
361.50 1.868
361.60 1.867
361.70 1.865
361.80 1.864
361.90 1.862
362.00 1.861
362.10 1.859
362.20 1.858
362.30 1.856
362.40 1.855
362.50 1.853
362.60 1.852
362.70 1.851
362.80 1.849
362.90 1.848
363.00 1.846
363.10 1.845
363.20 1.843
363.30 1.842
363.40 1.84
363.50 1.839
363.60 1.837
363.70 1.836
363.80 1.834
363.90 1.833
364.00 1.831
364.10 1.83
364.20 1.828
364.30 1.827
364.40 1.826
364.50 1.824
364.60 1.823
364.70 1.821
364.80 1.82
364.90 1.818
365.00 1.817
365.10 1.815
365.20 1.814
365.30 1.812
365.40 1.811
365.50 1.81
365.60 1.808
365.70 1.807
365.80 1.805
365.90 1.804
366.00 1.802
366.10 1.801
366.20 1.799
366.30 1.797
366.40 1.795
366.50 1.793
366.60 1.791
366.70 1.79
366.80 1.788
366.90 1.786
367.00 1.784
367.10 1.782
367.20 1.78
367.30 1.779
367.40 1.777
367.50 1.775
367.60 1.773
367.70 1.771
367.80 1.769
367.90 1.768
368.00 1.766
368.10 1.764
368.20 1.762
368.30 1.761
368.40 1.759
368.50 1.757
368.60 1.756
368.70 1.754
368.80 1.752
368.90 1.751
369.00 1.749
369.10 1.747
369.20 1.746
369.30 1.744
369.40 1.742
369.50 1.741
369.60 1.739
369.70 1.737
369.80 1.736
369.90 1.734
370.00 1.732
370.10 1.731
370.20 1.73
370.30 1.728
370.40 1.727
370.50 1.726
370.60 1.724
370.70 1.723
370.80 1.722
370.90 1.72
371.00 1.719
371.10 1.718
371.20 1.716
371.30 1.715
371.40 1.714
371.50 1.712
371.60 1.711
371.70 1.71
371.80 1.708
371.90 1.707
372.00 1.706
372.10 1.705
372.20 1.705
372.30 1.704
372.40 1.704
372.50 1.703
372.60 1.703
372.70 1.702
372.80 1.702
372.90 1.701
373.00 1.701
373.10 1.7
373.20 1.7
373.30 1.699
373.40 1.699
373.50 1.698
373.60 1.698
373.70 1.697
373.80 1.697
373.90 1.696
374.00 1.696
374.10 1.696
374.20 1.696
374.30 1.695
374.40 1.695
374.50 1.695
374.60 1.695
374.70 1.695
374.80 1.695
374.90 1.694
375.00 1.694
375.10 1.694
375.20 1.694
375.30 1.694
375.40 1.693
375.50 1.693
375.60 1.693
375.70 1.693
375.80 1.693
375.90 1.692
376.00 1.692
376.10 1.686
376.20 1.679
376.30 1.672
376.40 1.666
376.50 1.659
376.60 1.652
376.70 1.646
376.80 1.639
376.90 1.632
377.00 1.626
377.10 1.633
377.20 1.64
377.30 1.647
377.40 1.655
377.50 1.662
377.60 1.669
377.70 1.676
377.80 1.683
377.90 1.691
378.00 1.698
378.10 1.693
378.20 1.688
378.30 1.683
378.40 1.678
378.50 1.673
378.60 1.668
378.70 1.663
378.80 1.657
378.90 1.652
379.00 1.647
379.10 1.638
379.20 1.628
379.30 1.618
379.40 1.608
379.50 1.598
379.60 1.589
379.70 1.579
379.80 1.569
379.90 1.559
380.00 1.55
380.10 1.566
380.20 1.583
380.30 1.599
380.40 1.616
380.50 1.632
380.60 1.649
380.70 1.665
380.80 1.682
380.90 1.698
381.00 1.715
381.10 1.719
381.20 1.724
381.30 1.728
381.40 1.733
381.50 1.737
381.60 1.736
381.70 1.732
381.80 1.726
381.90 1.719
382.00 1.709
382.10 1.696
382.20 1.682
382.30 1.656
382.40 1.631
382.50 1.605
382.60 1.579
382.70 1.554
382.80 1.528
382.90 1.503
383.00 1.478
383.10 1.452
383.20 1.427
383.30 1.393
383.40 1.359
383.50 1.326
383.60 1.333
383.70 1.367
383.80 1.4
383.90 1.433
384.00 1.466
384.10 1.498
384.20 1.529
384.30 1.558
384.40 1.587
384.50 1.613
384.60 1.639
384.70 1.663
384.80 1.685
384.90 1.706
385.00 1.725
385.10 1.742
385.20 1.757
385.30 1.772
385.40 1.784
385.50 1.794
385.60 1.804
385.70 1.81
385.80 1.816
385.90 1.82
386.00 1.821
386.10 1.822
386.20 1.821
386.30 1.817
386.40 1.812
386.50 1.805
386.60 1.796
386.70 1.785
386.80 1.773
386.90 1.759
387.00 1.742
387.10 1.725
387.20 1.704
387.30 1.683
387.40 1.659
387.50 1.633
387.60 1.606
387.70 1.577
387.80 1.545
387.90 1.513
388.00 1.479
388.10 1.442
388.20 1.405
388.30 1.366
388.40 1.326
388.50 1.285
388.60 1.243
388.70 1.199
388.80 1.157
388.90 1.117
389.00 1.153
389.10 1.192
389.20 1.235
389.30 1.276
389.40 1.316
389.50 1.355
389.60 1.392
389.70 1.429
389.80 1.464
389.90 1.497
390.00 1.53
390.10 1.561
390.20 1.591
390.30 1.619
390.40 1.646
390.50 1.671
390.60 1.695
390.70 1.718
390.80 1.739
390.90 1.759
391.00 1.778
391.10 1.795
391.20 1.811
391.30 1.826
391.40 1.84
391.50 1.853
391.60 1.865
391.70 1.875
391.80 1.885
391.90 1.893
392.00 1.901
392.10 1.907
392.20 1.913
392.30 1.918
392.40 1.922
392.50 1.925
392.60 1.926
392.70 1.927
392.80 1.928
392.90 1.927
393.00 1.925
393.10 1.923
393.20 1.919
393.30 1.915
393.40 1.91
393.50 1.904
393.60 1.897
393.70 1.889
393.80 1.88
393.90 1.87
394.00 1.859
394.10 1.846
394.20 1.833
394.30 1.819
394.40 1.804
394.50 1.787
394.60 1.77
394.70 1.75
394.80 1.73
394.90 1.709
395.00 1.686
395.10 1.662
395.20 1.637
395.30 1.61
395.40 1.582
395.50 1.553
395.60 1.522
395.70 1.491
395.80 1.458
395.90 1.423
396.00 1.387
396.10 1.351
396.20 1.312
396.30 1.273
396.40 1.233
396.50 1.191
396.60 1.147
396.70 1.103
396.80 1.055
396.90 0.999
397.00 0.936
397.10 0.9931
397.20 1.046
397.30 1.093
397.40 1.136
397.50 1.178
397.60 1.219
397.70 1.257
397.80 1.295
397.90 1.332
398.00 1.367
398.10 1.401
398.20 1.433
398.30 1.464
398.40 1.494
398.50 1.523
398.60 1.551
398.70 1.577
398.80 1.602
398.90 1.626
399.00 1.648
399.10 1.67
399.20 1.69
399.30 1.709
399.40 1.727
399.50 1.744
399.60 1.76
399.70 1.776
399.80 1.79
399.90 1.803
400.00 1.816
400.10 1.828
400.20 1.839
400.30 1.849
400.40 1.858
400.50 1.867
400.60 1.876
400.70 1.884
400.80 1.891
400.90 1.898
401.00 1.904
401.10 1.909
401.20 1.915
401.30 1.919
401.40 1.924
401.50 1.928
401.60 1.932
401.70 1.935
401.80 1.938
401.90 1.941
402.00 1.943
402.10 1.945
402.20 1.947
402.30 1.948
402.40 1.95
402.50 1.95
402.60 1.951
402.70 1.952
402.80 1.952
402.90 1.952
403.00 1.952
403.10 1.951
403.20 1.951
403.30 1.95
403.40 1.949
403.50 1.948
403.60 1.946
403.70 1.945
403.80 1.943
403.90 1.941
404.00 1.938
404.10 1.936
404.20 1.933
404.30 1.93
404.40 1.927
404.50 1.924
404.60 1.92
404.70 1.916
404.80 1.912
404.90 1.908
405.00 1.903
405.10 1.898
405.20 1.893
405.30 1.887
405.40 1.881
405.50 1.875
405.60 1.869
405.70 1.862
405.80 1.855
405.90 1.847
406.00 1.839
406.10 1.83
406.20 1.821
406.30 1.812
406.40 1.802
406.50 1.792
406.60 1.781
406.70 1.77
406.80 1.758
406.90 1.745
407.00 1.732
407.10 1.718
407.20 1.703
407.30 1.688
407.40 1.672
407.50 1.655
407.60 1.638
407.70 1.619
407.80 1.6
407.90 1.58
408.00 1.559
408.10 1.537
408.20 1.514
408.30 1.49
408.40 1.466
408.50 1.44
408.60 1.413
408.70 1.385
408.80 1.356
408.90 1.326
409.00 1.295
409.10 1.263
409.20 1.23
409.30 1.196
409.40 1.161
409.50 1.125
409.60 1.088
409.70 1.049
409.80 1.008
409.90 0.9659
410.00 0.9147
410.10 0.8622
410.20 0.8082
410.30 0.8813
410.40 0.9405
410.50 0.9859
410.60 1.025
410.70 1.063
410.80 1.1
410.90 1.135
411.00 1.168
411.10 1.201
411.20 1.233
411.30 1.263
411.40 1.293
411.50 1.321
411.60 1.348
411.70 1.374
411.80 1.399
411.90 1.423
412.00 1.446
412.10 1.467
412.20 1.488
412.30 1.508
412.40 1.527
412.50 1.544
412.60 1.562
412.70 1.577
412.80 1.593
412.90 1.607
413.00 1.621
413.10 1.634
413.20 1.646
413.30 1.657
413.40 1.668
413.50 1.679
413.60 1.688
413.70 1.697
413.80 1.706
413.90 1.714
414.00 1.721
414.10 1.728
414.20 1.735
414.30 1.741
414.40 1.747
414.50 1.752
414.60 1.757
414.70 1.762
414.80 1.766
414.90 1.77
415.00 1.774
415.10 1.778
415.20 1.781
415.30 1.784
415.40 1.787
415.50 1.789
415.60 1.792
415.70 1.794
415.80 1.796
415.90 1.798
416.00 1.799
416.10 1.801
416.20 1.802
416.30 1.803
416.40 1.805
416.50 1.806
416.60 1.806
416.70 1.807
416.80 1.808
416.90 1.808
417.00 1.809
417.10 1.809
417.20 1.809
417.30 1.809
417.40 1.81
417.50 1.81
417.60 1.81
417.70 1.81
417.80 1.809
417.90 1.809
418.00 1.809
418.10 1.809
418.20 1.808
418.30 1.808
418.40 1.807
418.50 1.807
418.60 1.806
418.70 1.806
418.80 1.805
418.90 1.804
419.00 1.804
419.10 1.803
419.20 1.802
419.30 1.801
419.40 1.8
419.50 1.8
419.60 1.799
419.70 1.798
419.80 1.797
419.90 1.796
420.00 1.795
420.10 1.794
420.20 1.793
420.30 1.792
420.40 1.791
420.50 1.789
420.60 1.788
420.70 1.787
420.80 1.786
420.90 1.785
421.00 1.784
421.10 1.782
421.20 1.781
421.30 1.78
421.40 1.778
421.50 1.777
421.60 1.776
421.70 1.774
421.80 1.773
421.90 1.772
422.00 1.77
422.10 1.769
422.20 1.767
422.30 1.766
422.40 1.765
422.50 1.763
422.60 1.762
422.70 1.76
422.80 1.759
422.90 1.757
423.00 1.755
423.10 1.754
423.20 1.752
423.30 1.751
423.40 1.749
423.50 1.747
423.60 1.746
423.70 1.744
423.80 1.742
423.90 1.74
424.00 1.739
424.10 1.737
424.20 1.735
424.30 1.733
424.40 1.731
424.50 1.729
424.60 1.727
424.70 1.726
424.80 1.724
424.90 1.722
425.00 1.72
425.10 1.717
425.20 1.715
425.30 1.713
425.40 1.711
425.50 1.709
425.60 1.707
425.70 1.704
425.80 1.702
425.90 1.7
426.00 1.697
426.10 1.695
426.20 1.693
426.30 1.69
426.40 1.688
426.50 1.685
426.60 1.682
426.70 1.68
426.80 1.677
426.90 1.674
427.00 1.671
427.10 1.668
427.20 1.665
427.30 1.662
427.40 1.659
427.50 1.655
427.60 1.652
427.70 1.649
427.80 1.645
427.90 1.641
428.00 1.638
428.10 1.634
428.20 1.63
428.30 1.626
428.40 1.621
428.50 1.617
428.60 1.612
428.70 1.608
428.80 1.603
428.90 1.598
429.00 1.593
429.10 1.587
429.20 1.582
429.30 1.576
429.40 1.57
429.50 1.564
429.60 1.557
429.70 1.55
429.80 1.543
429.90 1.536
430.00 1.528
430.10 1.52
430.20 1.512
430.30 1.503
430.40 1.494
430.50 1.485
430.60 1.475
430.70 1.465
430.80 1.454
430.90 1.443
431.00 1.431
431.10 1.419
431.20 1.407
431.30 1.393
431.40 1.379
431.50 1.365
431.60 1.35
431.70 1.334
431.80 1.318
431.90 1.301
432.00 1.283
432.10 1.265
432.20 1.245
432.30 1.225
432.40 1.205
432.50 1.183
432.60 1.16
432.70 1.137
432.80 1.113
432.90 1.088
433.00 1.063
433.10 1.036
433.20 1.008
433.30 0.9803
433.40 0.9506
433.50 0.92
433.60 0.8885
433.70 0.8541
433.80 0.8153
433.90 0.7721
434.00 0.6774
434.10 0.6783
434.20 0.7749
434.30 0.8162
434.40 0.8534
434.50 0.8865
434.60 0.9167
434.70 0.9459
434.80 0.9741
434.90 1.001
435.00 1.027
435.10 1.052
435.20 1.076
435.30 1.099
435.40 1.121
435.50 1.142
435.60 1.163
435.70 1.182
435.80 1.201
435.90 1.219
436.00 1.236
436.10 1.252
436.20 1.268
436.30 1.282
436.40 1.296
436.50 1.31
436.60 1.322
436.70 1.334
436.80 1.345
436.90 1.356
437.00 1.366
437.10 1.376
437.20 1.385
437.30 1.393
437.40 1.401
437.50 1.409
437.60 1.416
437.70 1.423
437.80 1.429
437.90 1.435
438.00 1.441
438.10 1.446
438.20 1.451
438.30 1.456
438.40 1.46
438.50 1.464
438.60 1.468
438.70 1.471
438.80 1.475
438.90 1.478
439.00 1.481
439.10 1.483
439.20 1.486
439.30 1.488
439.40 1.49
439.50 1.492
439.60 1.494
439.70 1.496
439.80 1.497
439.90 1.499
440.00 1.5
440.10 1.501
440.20 1.502
440.30 1.503
440.40 1.504
440.50 1.505
440.60 1.506
440.70 1.506
440.80 1.507
440.90 1.507
441.00 1.508
441.10 1.508
441.20 1.508
441.30 1.509
441.40 1.509
441.50 1.509
441.60 1.509
441.70 1.509
441.80 1.509
441.90 1.509
442.00 1.509
442.10 1.509
442.20 1.508
442.30 1.508
442.40 1.508
442.50 1.507
442.60 1.507
442.70 1.507
442.80 1.506
442.90 1.506
443.00 1.505
443.10 1.505
443.20 1.504
443.30 1.504
443.40 1.503
443.50 1.503
443.60 1.502
443.70 1.502
443.80 1.501
443.90 1.5
444.00 1.5
444.10 1.499
444.20 1.498
444.30 1.498
444.40 1.497
444.50 1.496
444.60 1.495
444.70 1.495
444.80 1.494
444.90 1.493
445.00 1.492
445.10 1.491
445.20 1.491
445.30 1.49
445.40 1.489
445.50 1.488
445.60 1.487
445.70 1.486
445.80 1.485
445.90 1.485
446.00 1.484
446.10 1.483
446.20 1.482
446.30 1.481
446.40 1.48
446.50 1.479
446.60 1.478
446.70 1.477
446.80 1.476
446.90 1.475
447.00 1.475
447.10 1.474
447.20 1.473
447.30 1.472
447.40 1.471
447.50 1.47
447.60 1.469
447.70 1.468
447.80 1.467
447.90 1.466
448.00 1.465
448.10 1.464
448.20 1.463
448.30 1.462
448.40 1.461
448.50 1.46
448.60 1.459
448.70 1.458
448.80 1.457
448.90 1.456
449.00 1.455
449.10 1.454
449.20 1.453
449.30 1.452
449.40 1.451
449.50 1.45
449.60 1.449
449.70 1.448
449.80 1.447
449.90 1.446
450.00 1.445
450.10 1.444
450.20 1.443
450.30 1.442
450.40 1.441
450.50 1.44
450.60 1.439
450.70 1.438
450.80 1.436
450.90 1.435
451.00 1.434
451.10 1.433
451.20 1.432
451.30 1.431
451.40 1.43
451.50 1.429
451.60 1.428
451.70 1.427
451.80 1.426
451.90 1.425
452.00 1.424
452.10 1.423
452.20 1.422
452.30 1.421
452.40 1.42
452.50 1.419
452.60 1.418
452.70 1.417
452.80 1.416
452.90 1.415
453.00 1.414
453.10 1.413
453.20 1.412
453.30 1.411
453.40 1.409
453.50 1.408
453.60 1.407
453.70 1.406
453.80 1.405
453.90 1.404
