# Version 2.1 - nm, norm@500 to 1, cut digits, bergeron_8000_95.dat_8000
# Wavelength(nm)  Flambda(ergs/cm^s/s/nm)
300.00 1.454
300.10 1.454
300.20 1.454
300.30 1.454
300.40 1.454
300.50 1.454
300.60 1.454
300.70 1.455
300.80 1.455
300.90 1.455
301.00 1.455
301.10 1.455
301.20 1.455
301.30 1.455
301.40 1.455
301.50 1.455
301.60 1.455
301.70 1.455
301.80 1.455
301.90 1.455
302.00 1.455
302.10 1.455
302.20 1.455
302.30 1.455
302.40 1.455
302.50 1.455
302.60 1.455
302.70 1.455
302.80 1.455
302.90 1.455
303.00 1.455
303.10 1.455
303.20 1.455
303.30 1.455
303.40 1.455
303.50 1.455
303.60 1.455
303.70 1.455
303.80 1.455
303.90 1.455
304.00 1.455
304.10 1.455
304.20 1.455
304.30 1.455
304.40 1.455
304.50 1.455
304.60 1.455
304.70 1.455
304.80 1.456
304.90 1.456
305.00 1.456
305.10 1.456
305.20 1.456
305.30 1.456
305.40 1.456
305.50 1.456
305.60 1.456
305.70 1.456
305.80 1.456
305.90 1.456
306.00 1.456
306.10 1.456
306.20 1.456
306.30 1.456
306.40 1.456
306.50 1.456
306.60 1.456
306.70 1.456
306.80 1.456
306.90 1.456
307.00 1.456
307.10 1.456
307.20 1.456
307.30 1.456
307.40 1.456
307.50 1.456
307.60 1.456
307.70 1.456
307.80 1.456
307.90 1.456
308.00 1.456
308.10 1.456
308.20 1.456
308.30 1.456
308.40 1.456
308.50 1.456
308.60 1.455
308.70 1.455
308.80 1.455
308.90 1.455
309.00 1.455
309.10 1.455
309.20 1.455
309.30 1.455
309.40 1.455
309.50 1.455
309.60 1.455
309.70 1.455
309.80 1.455
309.90 1.455
310.00 1.455
310.10 1.455
310.20 1.455
310.30 1.455
310.40 1.455
310.50 1.455
310.60 1.455
310.70 1.455
310.80 1.455
310.90 1.455
311.00 1.455
311.10 1.455
311.20 1.455
311.30 1.455
311.40 1.455
311.50 1.455
311.60 1.455
311.70 1.455
311.80 1.455
311.90 1.455
312.00 1.455
312.10 1.455
312.20 1.455
312.30 1.455
312.40 1.455
312.50 1.455
312.60 1.455
312.70 1.454
312.80 1.454
312.90 1.454
313.00 1.454
313.10 1.454
313.20 1.454
313.30 1.454
313.40 1.454
313.50 1.454
313.60 1.454
313.70 1.454
313.80 1.454
313.90 1.454
314.00 1.454
314.10 1.454
314.20 1.454
314.30 1.454
314.40 1.454
314.50 1.454
314.60 1.454
314.70 1.454
314.80 1.454
314.90 1.453
315.00 1.453
315.10 1.453
315.20 1.453
315.30 1.453
315.40 1.453
315.50 1.453
315.60 1.453
315.70 1.453
315.80 1.453
315.90 1.453
316.00 1.453
316.10 1.453
316.20 1.453
316.30 1.453
316.40 1.453
316.50 1.453
316.60 1.453
316.70 1.452
316.80 1.452
316.90 1.452
317.00 1.452
317.10 1.452
317.20 1.452
317.30 1.452
317.40 1.452
317.50 1.452
317.60 1.452
317.70 1.452
317.80 1.452
317.90 1.452
318.00 1.452
318.10 1.452
318.20 1.452
318.30 1.451
318.40 1.451
318.50 1.451
318.60 1.451
318.70 1.451
318.80 1.451
318.90 1.451
319.00 1.451
319.10 1.451
319.20 1.451
319.30 1.451
319.40 1.451
319.50 1.451
319.60 1.451
319.70 1.45
319.80 1.45
319.90 1.45
320.00 1.45
320.10 1.45
320.20 1.45
320.30 1.45
320.40 1.45
320.50 1.45
320.60 1.45
320.70 1.45
320.80 1.45
320.90 1.449
321.00 1.449
321.10 1.449
321.20 1.449
321.30 1.449
321.40 1.449
321.50 1.449
321.60 1.449
321.70 1.449
321.80 1.449
321.90 1.449
322.00 1.448
322.10 1.448
322.20 1.448
322.30 1.448
322.40 1.448
322.50 1.448
322.60 1.448
322.70 1.448
322.80 1.448
322.90 1.448
323.00 1.448
323.10 1.447
323.20 1.447
323.30 1.447
323.40 1.447
323.50 1.447
323.60 1.447
323.70 1.447
323.80 1.447
323.90 1.447
324.00 1.447
324.10 1.447
324.20 1.446
324.30 1.446
324.40 1.446
324.50 1.446
324.60 1.446
324.70 1.446
324.80 1.446
324.90 1.446
325.00 1.446
325.10 1.445
325.20 1.445
325.30 1.445
325.40 1.445
325.50 1.445
325.60 1.445
325.70 1.445
325.80 1.445
325.90 1.445
326.00 1.445
326.10 1.444
326.20 1.444
326.30 1.444
326.40 1.444
326.50 1.444
326.60 1.444
326.70 1.444
326.80 1.444
326.90 1.444
327.00 1.443
327.10 1.443
327.20 1.443
327.30 1.443
327.40 1.443
327.50 1.443
327.60 1.443
327.70 1.443
327.80 1.442
327.90 1.442
328.00 1.442
328.10 1.442
328.20 1.442
328.30 1.442
328.40 1.442
328.50 1.442
328.60 1.442
328.70 1.441
328.80 1.441
328.90 1.441
329.00 1.441
329.10 1.441
329.20 1.441
329.30 1.441
329.40 1.441
329.50 1.44
329.60 1.44
329.70 1.44
329.80 1.44
329.90 1.44
330.00 1.44
330.10 1.44
330.20 1.44
330.30 1.439
330.40 1.439
330.50 1.439
330.60 1.439
330.70 1.439
330.80 1.439
330.90 1.439
331.00 1.439
331.10 1.438
331.20 1.438
331.30 1.438
331.40 1.438
331.50 1.438
331.60 1.438
331.70 1.438
331.80 1.437
331.90 1.437
332.00 1.437
332.10 1.437
332.20 1.437
332.30 1.437
332.40 1.437
332.50 1.436
332.60 1.436
332.70 1.436
332.80 1.436
332.90 1.436
333.00 1.436
333.10 1.436
333.20 1.435
333.30 1.435
333.40 1.435
333.50 1.435
333.60 1.435
333.70 1.435
333.80 1.435
333.90 1.434
334.00 1.434
334.10 1.434
334.20 1.434
334.30 1.434
334.40 1.434
334.50 1.434
334.60 1.433
334.70 1.433
334.80 1.433
334.90 1.433
335.00 1.433
335.10 1.433
335.20 1.433
335.30 1.432
335.40 1.432
335.50 1.432
335.60 1.432
335.70 1.432
335.80 1.432
335.90 1.432
336.00 1.431
336.10 1.431
336.20 1.431
336.30 1.431
336.40 1.431
336.50 1.431
336.60 1.43
336.70 1.43
336.80 1.43
336.90 1.43
337.00 1.43
337.10 1.43
337.20 1.43
337.30 1.429
337.40 1.429
337.50 1.429
337.60 1.429
337.70 1.429
337.80 1.429
337.90 1.428
338.00 1.428
338.10 1.428
338.20 1.428
338.30 1.428
338.40 1.428
338.50 1.427
338.60 1.427
338.70 1.427
338.80 1.427
338.90 1.427
339.00 1.427
339.10 1.426
339.20 1.426
339.30 1.426
339.40 1.426
339.50 1.426
339.60 1.426
339.70 1.425
339.80 1.425
339.90 1.425
340.00 1.425
340.10 1.425
340.20 1.425
340.30 1.424
340.40 1.424
340.50 1.424
340.60 1.424
340.70 1.424
340.80 1.424
340.90 1.423
341.00 1.423
341.10 1.423
341.20 1.423
341.30 1.423
341.40 1.422
341.50 1.422
341.60 1.422
341.70 1.422
341.80 1.422
341.90 1.422
342.00 1.421
342.10 1.421
342.20 1.421
342.30 1.421
342.40 1.421
342.50 1.421
342.60 1.42
342.70 1.42
342.80 1.42
342.90 1.42
343.00 1.42
343.10 1.419
343.20 1.419
343.30 1.419
343.40 1.419
343.50 1.419
343.60 1.419
343.70 1.418
343.80 1.418
343.90 1.418
344.00 1.418
344.10 1.418
344.20 1.417
344.30 1.417
344.40 1.417
344.50 1.417
344.60 1.417
344.70 1.417
344.80 1.416
344.90 1.416
345.00 1.416
345.10 1.416
345.20 1.416
345.30 1.415
345.40 1.415
345.50 1.415
345.60 1.415
345.70 1.415
345.80 1.414
345.90 1.414
346.00 1.414
346.10 1.414
346.20 1.414
346.30 1.414
346.40 1.413
346.50 1.413
346.60 1.413
346.70 1.413
346.80 1.413
346.90 1.412
347.00 1.412
347.10 1.412
347.20 1.412
347.30 1.412
347.40 1.411
347.50 1.411
347.60 1.411
347.70 1.411
347.80 1.411
347.90 1.41
348.00 1.41
348.10 1.41
348.20 1.41
348.30 1.41
348.40 1.409
348.50 1.409
348.60 1.409
348.70 1.409
348.80 1.409
348.90 1.408
349.00 1.408
349.10 1.408
349.20 1.408
349.30 1.408
349.40 1.407
349.50 1.407
349.60 1.407
349.70 1.407
349.80 1.407
349.90 1.406
350.00 1.406
350.10 1.406
350.20 1.406
350.30 1.406
350.40 1.405
350.50 1.405
350.60 1.405
350.70 1.405
350.80 1.405
350.90 1.404
351.00 1.404
351.10 1.404
351.20 1.404
351.30 1.404
351.40 1.403
351.50 1.403
351.60 1.403
351.70 1.403
351.80 1.402
351.90 1.402
352.00 1.402
352.10 1.402
352.20 1.402
352.30 1.401
352.40 1.401
352.50 1.401
352.60 1.401
352.70 1.401
352.80 1.4
352.90 1.4
353.00 1.4
353.10 1.4
353.20 1.399
353.30 1.399
353.40 1.399
353.50 1.399
353.60 1.399
353.70 1.398
353.80 1.398
353.90 1.398
354.00 1.398
354.10 1.398
354.20 1.397
354.30 1.397
354.40 1.397
354.50 1.397
354.60 1.396
354.70 1.396
354.80 1.396
354.90 1.396
355.00 1.396
355.10 1.395
355.20 1.395
355.30 1.395
355.40 1.395
355.50 1.394
355.60 1.394
355.70 1.394
355.80 1.394
355.90 1.394
356.00 1.393
356.10 1.393
356.20 1.393
356.30 1.393
356.40 1.392
356.50 1.392
356.60 1.392
356.70 1.392
356.80 1.392
356.90 1.391
357.00 1.391
357.10 1.391
357.20 1.391
357.30 1.39
357.40 1.39
357.50 1.39
357.60 1.39
357.70 1.39
357.80 1.389
357.90 1.389
358.00 1.389
358.10 1.389
358.20 1.388
358.30 1.388
358.40 1.388
358.50 1.388
358.60 1.387
358.70 1.387
358.80 1.387
358.90 1.387
359.00 1.387
359.10 1.386
359.20 1.386
359.30 1.386
359.40 1.386
359.50 1.385
359.60 1.385
359.70 1.385
359.80 1.385
359.90 1.384
360.00 1.384
360.10 1.384
360.20 1.384
360.30 1.384
360.40 1.383
360.50 1.383
360.60 1.383
360.70 1.383
360.80 1.382
360.90 1.382
361.00 1.382
361.10 1.382
361.20 1.381
361.30 1.381
361.40 1.381
361.50 1.381
361.60 1.38
361.70 1.38
361.80 1.38
361.90 1.38
362.00 1.379
362.10 1.379
362.20 1.379
362.30 1.379
362.40 1.379
362.50 1.378
362.60 1.378
362.70 1.378
362.80 1.378
362.90 1.377
363.00 1.377
363.10 1.377
363.20 1.377
363.30 1.376
363.40 1.376
363.50 1.376
363.60 1.376
363.70 1.375
363.80 1.375
363.90 1.375
364.00 1.375
364.10 1.374
364.20 1.374
364.30 1.374
364.40 1.374
364.50 1.373
364.60 1.373
364.70 1.373
364.80 1.372
364.90 1.372
365.00 1.372
365.10 1.372
365.20 1.371
365.30 1.371
365.40 1.371
365.50 1.371
365.60 1.37
365.70 1.37
365.80 1.37
365.90 1.37
366.00 1.369
366.10 1.369
366.20 1.369
366.30 1.369
366.40 1.368
366.50 1.368
366.60 1.368
366.70 1.368
366.80 1.367
366.90 1.367
367.00 1.367
367.10 1.367
367.20 1.366
367.30 1.366
367.40 1.366
367.50 1.365
367.60 1.365
367.70 1.365
367.80 1.365
367.90 1.364
368.00 1.364
368.10 1.364
368.20 1.364
368.30 1.363
368.40 1.363
368.50 1.363
368.60 1.363
368.70 1.362
368.80 1.362
368.90 1.362
369.00 1.362
369.10 1.361
369.20 1.361
369.30 1.361
369.40 1.361
369.50 1.36
369.60 1.36
369.70 1.36
369.80 1.36
369.90 1.359
370.00 1.359
370.10 1.359
370.20 1.359
370.30 1.358
370.40 1.358
370.50 1.358
370.60 1.358
370.70 1.357
370.80 1.357
370.90 1.357
371.00 1.356
371.10 1.356
371.20 1.356
371.30 1.356
371.40 1.355
371.50 1.355
371.60 1.355
371.70 1.355
371.80 1.354
371.90 1.354
372.00 1.354
372.10 1.354
372.20 1.353
372.30 1.353
372.40 1.353
372.50 1.353
372.60 1.352
372.70 1.352
372.80 1.352
372.90 1.351
373.00 1.351
373.10 1.351
373.20 1.351
373.30 1.35
373.40 1.35
373.50 1.35
373.60 1.35
373.70 1.349
373.80 1.349
373.90 1.349
374.00 1.349
374.10 1.348
374.20 1.348
374.30 1.348
374.40 1.347
374.50 1.347
374.60 1.347
374.70 1.347
374.80 1.346
374.90 1.346
375.00 1.346
375.10 1.346
375.20 1.345
375.30 1.345
375.40 1.345
375.50 1.344
375.60 1.344
375.70 1.344
375.80 1.344
375.90 1.343
376.00 1.343
376.10 1.343
376.20 1.343
376.30 1.342
376.40 1.342
376.50 1.342
376.60 1.341
376.70 1.341
376.80 1.341
376.90 1.341
377.00 1.34
377.10 1.34
377.20 1.34
377.30 1.34
377.40 1.339
377.50 1.339
377.60 1.339
377.70 1.338
377.80 1.338
377.90 1.338
378.00 1.338
378.10 1.337
378.20 1.337
378.30 1.337
378.40 1.336
378.50 1.336
378.60 1.336
378.70 1.335
378.80 1.335
378.90 1.335
379.00 1.334
379.10 1.334
379.20 1.333
379.30 1.333
379.40 1.332
379.50 1.332
379.60 1.331
379.70 1.331
379.80 1.33
379.90 1.33
380.00 1.329
380.10 1.329
380.20 1.329
380.30 1.329
380.40 1.329
380.50 1.33
380.60 1.33
380.70 1.33
380.80 1.33
380.90 1.33
381.00 1.33
381.10 1.329
381.20 1.329
381.30 1.329
381.40 1.329
381.50 1.329
381.60 1.328
381.70 1.328
381.80 1.328
381.90 1.327
382.00 1.327
382.10 1.327
382.20 1.326
382.30 1.326
382.40 1.325
382.50 1.324
382.60 1.323
382.70 1.323
382.80 1.322
382.90 1.321
383.00 1.32
383.10 1.32
383.20 1.319
383.30 1.317
383.40 1.315
383.50 1.312
383.60 1.312
383.70 1.315
383.80 1.317
383.90 1.318
384.00 1.319
384.10 1.32
384.20 1.32
384.30 1.321
384.40 1.321
384.50 1.321
384.60 1.321
384.70 1.321
384.80 1.321
384.90 1.321
385.00 1.321
385.10 1.321
385.20 1.321
385.30 1.321
385.40 1.321
385.50 1.321
385.60 1.321
385.70 1.321
385.80 1.32
385.90 1.32
386.00 1.32
386.10 1.32
386.20 1.319
386.30 1.319
386.40 1.319
386.50 1.318
386.60 1.318
386.70 1.318
386.80 1.317
386.90 1.317
387.00 1.316
387.10 1.316
387.20 1.315
387.30 1.314
387.40 1.314
387.50 1.313
387.60 1.312
387.70 1.311
387.80 1.31
387.90 1.309
388.00 1.308
388.10 1.306
388.20 1.304
388.30 1.303
388.40 1.3
388.50 1.297
388.60 1.294
388.70 1.289
388.80 1.284
388.90 1.278
389.00 1.283
389.10 1.288
389.20 1.293
389.30 1.296
389.40 1.299
389.50 1.301
389.60 1.303
389.70 1.304
389.80 1.305
389.90 1.306
390.00 1.307
390.10 1.308
390.20 1.309
390.30 1.309
390.40 1.31
390.50 1.31
390.60 1.311
390.70 1.311
390.80 1.311
390.90 1.311
391.00 1.312
391.10 1.312
391.20 1.312
391.30 1.312
391.40 1.312
391.50 1.312
391.60 1.312
391.70 1.312
391.80 1.312
391.90 1.312
392.00 1.312
392.10 1.312
392.20 1.312
392.30 1.311
392.40 1.311
392.50 1.311
392.60 1.311
392.70 1.31
392.80 1.31
392.90 1.31
393.00 1.309
393.10 1.309
393.20 1.309
393.30 1.308
393.40 1.308
393.50 1.307
393.60 1.306
393.70 1.306
393.80 1.305
393.90 1.305
394.00 1.304
394.10 1.303
394.20 1.302
394.30 1.301
394.40 1.3
394.50 1.299
394.60 1.298
394.70 1.297
394.80 1.296
394.90 1.295
395.00 1.294
395.10 1.292
395.20 1.291
395.30 1.289
395.40 1.287
395.50 1.285
395.60 1.283
395.70 1.281
395.80 1.279
395.90 1.276
396.00 1.273
396.10 1.27
396.20 1.266
396.30 1.261
396.40 1.256
396.50 1.25
396.60 1.243
396.70 1.235
396.80 1.224
396.90 1.211
397.00 1.194
397.10 1.209
397.20 1.222
397.30 1.233
397.40 1.241
397.50 1.248
397.60 1.254
397.70 1.259
397.80 1.263
397.90 1.266
398.00 1.269
398.10 1.272
398.20 1.275
398.30 1.277
398.40 1.279
398.50 1.28
398.60 1.282
398.70 1.284
398.80 1.285
398.90 1.286
399.00 1.287
399.10 1.288
399.20 1.289
399.30 1.29
399.40 1.291
399.50 1.292
399.60 1.292
399.70 1.293
399.80 1.294
399.90 1.294
400.00 1.295
400.10 1.295
400.20 1.295
400.30 1.296
400.40 1.296
400.50 1.296
400.60 1.297
400.70 1.297
400.80 1.297
400.90 1.297
401.00 1.297
401.10 1.297
401.20 1.297
401.30 1.298
401.40 1.298
401.50 1.298
401.60 1.298
401.70 1.298
401.80 1.297
401.90 1.297
402.00 1.297
402.10 1.297
402.20 1.297
402.30 1.297
402.40 1.297
402.50 1.297
402.60 1.296
402.70 1.296
402.80 1.296
402.90 1.296
403.00 1.296
403.10 1.295
403.20 1.295
403.30 1.295
403.40 1.294
403.50 1.294
403.60 1.294
403.70 1.293
403.80 1.293
403.90 1.293
404.00 1.292
404.10 1.292
404.20 1.291
404.30 1.291
404.40 1.291
404.50 1.29
404.60 1.29
404.70 1.289
404.80 1.288
404.90 1.288
405.00 1.287
405.10 1.287
405.20 1.286
405.30 1.285
405.40 1.285
405.50 1.284
405.60 1.283
405.70 1.282
405.80 1.281
405.90 1.28
406.00 1.28
406.10 1.279
406.20 1.278
406.30 1.276
406.40 1.275
406.50 1.274
406.60 1.273
406.70 1.271
406.80 1.27
406.90 1.269
407.00 1.267
407.10 1.265
407.20 1.264
407.30 1.262
407.40 1.26
407.50 1.258
407.60 1.256
407.70 1.253
407.80 1.251
407.90 1.248
408.00 1.245
408.10 1.242
408.20 1.239
408.30 1.236
408.40 1.232
408.50 1.228
408.60 1.224
408.70 1.219
408.80 1.214
408.90 1.209
409.00 1.203
409.10 1.197
409.20 1.19
409.30 1.182
409.40 1.174
409.50 1.164
409.60 1.153
409.70 1.139
409.80 1.123
409.90 1.104
410.00 1.078
410.10 1.052
410.20 1.026
410.30 1.062
410.40 1.092
410.50 1.114
410.60 1.13
410.70 1.144
410.80 1.157
410.90 1.166
411.00 1.175
411.10 1.183
411.20 1.19
411.30 1.196
411.40 1.201
411.50 1.206
411.60 1.211
411.70 1.215
411.80 1.219
411.90 1.223
412.00 1.226
412.10 1.229
412.20 1.232
412.30 1.234
412.40 1.237
412.50 1.239
412.60 1.241
412.70 1.243
412.80 1.245
412.90 1.246
413.00 1.248
413.10 1.249
413.20 1.25
413.30 1.251
413.40 1.253
413.50 1.254
413.60 1.254
413.70 1.255
413.80 1.256
413.90 1.257
414.00 1.257
414.10 1.258
414.20 1.259
414.30 1.259
414.40 1.26
414.50 1.26
414.60 1.26
414.70 1.261
414.80 1.261
414.90 1.261
415.00 1.262
415.10 1.262
415.20 1.262
415.30 1.262
415.40 1.262
415.50 1.262
415.60 1.263
415.70 1.263
415.80 1.263
415.90 1.263
416.00 1.263
416.10 1.263
416.20 1.263
416.30 1.263
416.40 1.263
416.50 1.263
416.60 1.263
416.70 1.263
416.80 1.262
416.90 1.262
417.00 1.262
417.10 1.262
417.20 1.262
417.30 1.262
417.40 1.262
417.50 1.262
417.60 1.261
417.70 1.261
417.80 1.261
417.90 1.261
418.00 1.261
418.10 1.261
418.20 1.26
418.30 1.26
418.40 1.26
418.50 1.26
418.60 1.26
418.70 1.259
418.80 1.259
418.90 1.259
419.00 1.259
419.10 1.259
419.20 1.258
419.30 1.258
419.40 1.258
419.50 1.258
419.60 1.257
419.70 1.257
419.80 1.257
419.90 1.257
420.00 1.256
420.10 1.256
420.20 1.256
420.30 1.256
420.40 1.255
420.50 1.255
420.60 1.255
420.70 1.254
420.80 1.254
420.90 1.254
421.00 1.254
421.10 1.253
421.20 1.253
421.30 1.253
421.40 1.252
421.50 1.252
421.60 1.252
421.70 1.251
421.80 1.251
421.90 1.251
422.00 1.25
422.10 1.25
422.20 1.25
422.30 1.249
422.40 1.249
422.50 1.249
422.60 1.248
422.70 1.248
422.80 1.248
422.90 1.247
423.00 1.247
423.10 1.247
423.20 1.246
423.30 1.246
423.40 1.246
423.50 1.245
423.60 1.245
423.70 1.245
423.80 1.244
423.90 1.244
424.00 1.243
424.10 1.243
424.20 1.243
424.30 1.242
424.40 1.242
424.50 1.241
424.60 1.241
424.70 1.241
424.80 1.24
424.90 1.24
425.00 1.239
425.10 1.239
425.20 1.238
425.30 1.238
425.40 1.238
425.50 1.237
425.60 1.237
425.70 1.236
425.80 1.236
425.90 1.235
426.00 1.235
426.10 1.234
426.20 1.234
426.30 1.233
426.40 1.232
426.50 1.232
426.60 1.231
426.70 1.231
426.80 1.23
426.90 1.23
427.00 1.229
427.10 1.229
427.20 1.228
427.30 1.227
427.40 1.227
427.50 1.226
427.60 1.225
427.70 1.225
427.80 1.224
427.90 1.223
428.00 1.222
428.10 1.222
428.20 1.221
428.30 1.22
428.40 1.219
428.50 1.219
428.60 1.218
428.70 1.217
428.80 1.216
428.90 1.215
429.00 1.214
429.10 1.213
429.20 1.212
429.30 1.21
429.40 1.209
429.50 1.208
429.60 1.207
429.70 1.205
429.80 1.204
429.90 1.203
430.00 1.201
430.10 1.199
430.20 1.198
430.30 1.196
430.40 1.194
430.50 1.192
430.60 1.19
430.70 1.188
430.80 1.185
430.90 1.183
431.00 1.18
431.10 1.178
431.20 1.175
431.30 1.172
431.40 1.168
431.50 1.165
431.60 1.161
431.70 1.157
431.80 1.153
431.90 1.148
432.00 1.143
432.10 1.137
432.20 1.131
432.30 1.125
432.40 1.118
432.50 1.11
432.60 1.102
432.70 1.093
432.80 1.083
432.90 1.073
433.00 1.061
433.10 1.048
433.20 1.033
433.30 1.018
433.40 0.9985
433.50 0.9764
433.60 0.9516
433.70 0.9176
433.80 0.8765
433.90 0.8285
434.00 0.7564
434.10 0.7579
434.20 0.8328
434.30 0.8796
434.40 0.9194
434.50 0.9524
434.60 0.9764
434.70 0.9977
434.80 1.016
434.90 1.031
435.00 1.045
435.10 1.058
435.20 1.069
435.30 1.079
435.40 1.088
435.50 1.096
435.60 1.104
435.70 1.111
435.80 1.117
435.90 1.123
436.00 1.128
436.10 1.133
436.20 1.137
436.30 1.141
436.40 1.145
436.50 1.148
436.60 1.151
436.70 1.154
436.80 1.157
436.90 1.159
437.00 1.161
437.10 1.163
437.20 1.165
437.30 1.167
437.40 1.169
437.50 1.17
437.60 1.172
437.70 1.173
437.80 1.174
437.90 1.175
438.00 1.176
438.10 1.177
438.20 1.178
438.30 1.179
438.40 1.18
438.50 1.18
438.60 1.181
438.70 1.181
438.80 1.182
438.90 1.182
439.00 1.183
439.10 1.183
439.20 1.183
439.30 1.184
439.40 1.184
439.50 1.184
439.60 1.185
439.70 1.185
439.80 1.185
439.90 1.185
440.00 1.185
440.10 1.185
440.20 1.185
440.30 1.185
440.40 1.186
440.50 1.186
440.60 1.186
440.70 1.186
440.80 1.186
440.90 1.186
441.00 1.186
441.10 1.185
441.20 1.185
441.30 1.185
441.40 1.185
441.50 1.185
441.60 1.185
441.70 1.185
441.80 1.185
441.90 1.185
442.00 1.185
442.10 1.184
442.20 1.184
442.30 1.184
442.40 1.184
442.50 1.184
442.60 1.184
442.70 1.183
442.80 1.183
442.90 1.183
443.00 1.183
443.10 1.183
443.20 1.182
443.30 1.182
443.40 1.182
443.50 1.182
443.60 1.182
443.70 1.181
443.80 1.181
443.90 1.181
444.00 1.181
444.10 1.18
444.20 1.18
444.30 1.18
444.40 1.18
444.50 1.179
444.60 1.179
444.70 1.179
444.80 1.179
444.90 1.178
445.00 1.178
445.10 1.178
445.20 1.178
445.30 1.177
445.40 1.177
445.50 1.177
445.60 1.177
445.70 1.176
445.80 1.176
445.90 1.176
446.00 1.175
446.10 1.175
446.20 1.175
446.30 1.175
446.40 1.174
446.50 1.174
446.60 1.174
446.70 1.174
446.80 1.173
446.90 1.173
447.00 1.173
447.10 1.172
447.20 1.172
447.30 1.172
447.40 1.171
447.50 1.171
447.60 1.171
447.70 1.171
447.80 1.17
447.90 1.17
448.00 1.17
448.10 1.169
448.20 1.169
448.30 1.169
448.40 1.168
448.50 1.168
448.60 1.168
448.70 1.168
448.80 1.167
448.90 1.167
449.00 1.167
449.10 1.166
449.20 1.166
449.30 1.166
449.40 1.165
449.50 1.165
449.60 1.165
449.70 1.165
449.80 1.164
449.90 1.164
450.00 1.164
450.10 1.163
450.20 1.163
450.30 1.163
450.40 1.162
450.50 1.162
450.60 1.162
450.70 1.161
450.80 1.161
450.90 1.161
451.00 1.16
451.10 1.16
451.20 1.16
451.30 1.16
451.40 1.159
451.50 1.159
451.60 1.159
451.70 1.158
451.80 1.158
451.90 1.158
452.00 1.157
452.10 1.157
452.20 1.157
452.30 1.156
452.40 1.156
452.50 1.156
452.60 1.155
452.70 1.155
452.80 1.155
452.90 1.154
453.00 1.154
453.10 1.154
453.20 1.153
453.30 1.153
453.40 1.153
453.50 1.152
453.60 1.152
453.70 1.152
453.80 1.151
