# Version 2.1 - nm, norm@500 to 1, cut digits, bergeron_120000_90.dat_120000
# Wavelength(nm)  Flambda(ergs/cm^s/s/nm)
300.00 6.976
300.10 6.967
300.20 6.959
300.30 6.95
300.40 6.941
300.50 6.932
300.60 6.924
300.70 6.915
300.80 6.906
300.90 6.897
301.00 6.889
301.10 6.88
301.20 6.871
301.30 6.863
301.40 6.854
301.50 6.845
301.60 6.837
301.70 6.828
301.80 6.819
301.90 6.811
302.00 6.802
302.10 6.794
302.20 6.785
302.30 6.777
302.40 6.768
302.50 6.76
302.60 6.751
302.70 6.743
302.80 6.734
302.90 6.726
303.00 6.717
303.10 6.709
303.20 6.7
303.30 6.692
303.40 6.684
303.50 6.675
303.60 6.667
303.70 6.659
303.80 6.65
303.90 6.642
304.00 6.634
304.10 6.625
304.20 6.617
304.30 6.609
304.40 6.6
304.50 6.592
304.60 6.584
304.70 6.576
304.80 6.568
304.90 6.559
305.00 6.551
305.10 6.543
305.20 6.535
305.30 6.527
305.40 6.519
305.50 6.511
305.60 6.502
305.70 6.494
305.80 6.486
305.90 6.478
306.00 6.47
306.10 6.462
306.20 6.454
306.30 6.446
306.40 6.438
306.50 6.43
306.60 6.422
306.70 6.414
306.80 6.406
306.90 6.398
307.00 6.39
307.10 6.382
307.20 6.374
307.30 6.367
307.40 6.359
307.50 6.351
307.60 6.343
307.70 6.335
307.80 6.327
307.90 6.319
308.00 6.312
308.10 6.304
308.20 6.296
308.30 6.288
308.40 6.281
308.50 6.273
308.60 6.265
308.70 6.257
308.80 6.25
308.90 6.242
309.00 6.234
309.10 6.227
309.20 6.219
309.30 6.211
309.40 6.204
309.50 6.196
309.60 6.188
309.70 6.181
309.80 6.173
309.90 6.166
310.00 6.158
310.10 6.151
310.20 6.143
310.30 6.135
310.40 6.128
310.50 6.12
310.60 6.113
310.70 6.105
310.80 6.098
310.90 6.09
311.00 6.083
311.10 6.076
311.20 6.068
311.30 6.061
311.40 6.053
311.50 6.046
311.60 6.039
311.70 6.031
311.80 6.024
311.90 6.016
312.00 6.009
312.10 6.002
312.20 5.994
312.30 5.987
312.40 5.98
312.50 5.973
312.60 5.965
312.70 5.958
312.80 5.951
312.90 5.944
313.00 5.936
313.10 5.929
313.20 5.922
313.30 5.915
313.40 5.908
313.50 5.9
313.60 5.893
313.70 5.886
313.80 5.879
313.90 5.872
314.00 5.865
314.10 5.858
314.20 5.85
314.30 5.843
314.40 5.836
314.50 5.829
314.60 5.822
314.70 5.815
314.80 5.808
314.90 5.801
315.00 5.794
315.10 5.787
315.20 5.78
315.30 5.773
315.40 5.766
315.50 5.759
315.60 5.752
315.70 5.745
315.80 5.738
315.90 5.731
316.00 5.725
316.10 5.718
316.20 5.711
316.30 5.704
316.40 5.697
316.50 5.69
316.60 5.683
316.70 5.676
316.80 5.67
316.90 5.663
317.00 5.656
317.10 5.649
317.20 5.642
317.30 5.636
317.40 5.629
317.50 5.622
317.60 5.615
317.70 5.609
317.80 5.602
317.90 5.595
318.00 5.589
318.10 5.582
318.20 5.575
318.30 5.569
318.40 5.562
318.50 5.555
318.60 5.549
318.70 5.542
318.80 5.535
318.90 5.529
319.00 5.522
319.10 5.515
319.20 5.509
319.30 5.502
319.40 5.496
319.50 5.489
319.60 5.483
319.70 5.476
319.80 5.47
319.90 5.463
320.00 5.457
320.10 5.45
320.20 5.444
320.30 5.437
320.40 5.431
320.50 5.424
320.60 5.418
320.70 5.411
320.80 5.405
320.90 5.399
321.00 5.392
321.10 5.386
321.20 5.379
321.30 5.373
321.40 5.367
321.50 5.36
321.60 5.354
321.70 5.348
321.80 5.341
321.90 5.335
322.00 5.329
322.10 5.322
322.20 5.316
322.30 5.31
322.40 5.303
322.50 5.297
322.60 5.291
322.70 5.285
322.80 5.278
322.90 5.272
323.00 5.266
323.10 5.26
323.20 5.254
323.30 5.247
323.40 5.241
323.50 5.235
323.60 5.229
323.70 5.223
323.80 5.216
323.90 5.21
324.00 5.204
324.10 5.198
324.20 5.192
324.30 5.186
324.40 5.18
324.50 5.174
324.60 5.168
324.70 5.162
324.80 5.156
324.90 5.149
325.00 5.143
325.10 5.137
325.20 5.131
325.30 5.125
325.40 5.119
325.50 5.113
325.60 5.107
325.70 5.101
325.80 5.095
325.90 5.089
326.00 5.084
326.10 5.078
326.20 5.072
326.30 5.066
326.40 5.06
326.50 5.054
326.60 5.048
326.70 5.042
326.80 5.036
326.90 5.03
327.00 5.024
327.10 5.019
327.20 5.013
327.30 5.007
327.40 5.001
327.50 4.995
327.60 4.989
327.70 4.984
327.80 4.978
327.90 4.972
328.00 4.966
328.10 4.961
328.20 4.955
328.30 4.949
328.40 4.943
328.50 4.938
328.60 4.932
328.70 4.926
328.80 4.92
328.90 4.915
329.00 4.909
329.10 4.903
329.20 4.898
329.30 4.892
329.40 4.886
329.50 4.881
329.60 4.875
329.70 4.869
329.80 4.864
329.90 4.858
330.00 4.852
330.10 4.847
330.20 4.841
330.30 4.836
330.40 4.83
330.50 4.825
330.60 4.819
330.70 4.814
330.80 4.808
330.90 4.802
331.00 4.797
331.10 4.791
331.20 4.786
331.30 4.78
331.40 4.775
331.50 4.769
331.60 4.764
331.70 4.758
331.80 4.753
331.90 4.747
332.00 4.742
332.10 4.736
332.20 4.731
332.30 4.726
332.40 4.72
332.50 4.715
332.60 4.709
332.70 4.704
332.80 4.699
332.90 4.693
333.00 4.688
333.10 4.683
333.20 4.677
333.30 4.672
333.40 4.666
333.50 4.661
333.60 4.656
333.70 4.65
333.80 4.645
333.90 4.64
334.00 4.634
334.10 4.629
334.20 4.624
334.30 4.619
334.40 4.613
334.50 4.608
334.60 4.603
334.70 4.598
334.80 4.592
334.90 4.587
335.00 4.582
335.10 4.577
335.20 4.572
335.30 4.566
335.40 4.561
335.50 4.556
335.60 4.551
335.70 4.546
335.80 4.54
335.90 4.535
336.00 4.53
336.10 4.525
336.20 4.52
336.30 4.515
336.40 4.51
336.50 4.504
336.60 4.499
336.70 4.494
336.80 4.489
336.90 4.484
337.00 4.479
337.10 4.474
337.20 4.469
337.30 4.464
337.40 4.459
337.50 4.454
337.60 4.449
337.70 4.444
337.80 4.439
337.90 4.434
338.00 4.429
338.10 4.424
338.20 4.419
338.30 4.414
338.40 4.409
338.50 4.404
338.60 4.399
338.70 4.394
338.80 4.389
338.90 4.384
339.00 4.379
339.10 4.374
339.20 4.369
339.30 4.364
339.40 4.359
339.50 4.354
339.60 4.349
339.70 4.345
339.80 4.34
339.90 4.335
340.00 4.33
340.10 4.325
340.20 4.32
340.30 4.315
340.40 4.311
340.50 4.306
340.60 4.301
340.70 4.296
340.80 4.291
340.90 4.286
341.00 4.282
341.10 4.277
341.20 4.272
341.30 4.267
341.40 4.263
341.50 4.258
341.60 4.253
341.70 4.248
341.80 4.243
341.90 4.239
342.00 4.234
342.10 4.229
342.20 4.225
342.30 4.22
342.40 4.215
342.50 4.21
342.60 4.206
342.70 4.201
342.80 4.196
342.90 4.192
343.00 4.187
343.10 4.182
343.20 4.178
343.30 4.173
343.40 4.168
343.50 4.164
343.60 4.159
343.70 4.155
343.80 4.15
343.90 4.145
344.00 4.141
344.10 4.136
344.20 4.132
344.30 4.127
344.40 4.122
344.50 4.118
344.60 4.113
344.70 4.109
344.80 4.104
344.90 4.1
345.00 4.095
345.10 4.091
345.20 4.086
345.30 4.082
345.40 4.077
345.50 4.073
345.60 4.068
345.70 4.063
345.80 4.059
345.90 4.054
346.00 4.05
346.10 4.046
346.20 4.041
346.30 4.037
346.40 4.032
346.50 4.028
346.60 4.023
346.70 4.019
346.80 4.015
346.90 4.01
347.00 4.006
347.10 4.001
347.20 3.997
347.30 3.992
347.40 3.988
347.50 3.984
347.60 3.979
347.70 3.975
347.80 3.971
347.90 3.966
348.00 3.962
348.10 3.957
348.20 3.953
348.30 3.949
348.40 3.944
348.50 3.94
348.60 3.936
348.70 3.932
348.80 3.927
348.90 3.923
349.00 3.919
349.10 3.914
349.20 3.91
349.30 3.906
349.40 3.902
349.50 3.897
349.60 3.893
349.70 3.889
349.80 3.884
349.90 3.88
350.00 3.876
350.10 3.872
350.20 3.868
350.30 3.863
350.40 3.859
350.50 3.855
350.60 3.851
350.70 3.847
350.80 3.842
350.90 3.838
351.00 3.834
351.10 3.83
351.20 3.826
351.30 3.821
351.40 3.817
351.50 3.813
351.60 3.809
351.70 3.805
351.80 3.801
351.90 3.797
352.00 3.792
352.10 3.788
352.20 3.784
352.30 3.78
352.40 3.776
352.50 3.772
352.60 3.768
352.70 3.764
352.80 3.76
352.90 3.756
353.00 3.752
353.10 3.748
353.20 3.743
353.30 3.739
353.40 3.735
353.50 3.731
353.60 3.727
353.70 3.723
353.80 3.719
353.90 3.715
354.00 3.711
354.10 3.707
354.20 3.703
354.30 3.699
354.40 3.695
354.50 3.691
354.60 3.687
354.70 3.683
354.80 3.679
354.90 3.675
355.00 3.671
355.10 3.667
355.20 3.664
355.30 3.66
355.40 3.656
355.50 3.652
355.60 3.648
355.70 3.644
355.80 3.64
355.90 3.636
356.00 3.632
356.10 3.628
356.20 3.624
356.30 3.62
356.40 3.617
356.50 3.613
356.60 3.609
356.70 3.605
356.80 3.601
356.90 3.597
357.00 3.593
357.10 3.59
357.20 3.586
357.30 3.582
357.40 3.578
357.50 3.574
357.60 3.57
357.70 3.567
357.80 3.563
357.90 3.559
358.00 3.555
358.10 3.551
358.20 3.548
358.30 3.544
358.40 3.54
358.50 3.536
358.60 3.532
358.70 3.529
358.80 3.525
358.90 3.521
359.00 3.517
359.10 3.514
359.20 3.51
359.30 3.506
359.40 3.502
359.50 3.499
359.60 3.495
359.70 3.491
359.80 3.488
359.90 3.484
360.00 3.48
360.10 3.476
360.20 3.473
360.30 3.469
360.40 3.465
360.50 3.462
360.60 3.458
360.70 3.454
360.80 3.451
360.90 3.447
361.00 3.443
361.10 3.44
361.20 3.436
361.30 3.433
361.40 3.429
361.50 3.425
361.60 3.422
361.70 3.418
361.80 3.414
361.90 3.411
362.00 3.407
362.10 3.404
362.20 3.4
362.30 3.396
362.40 3.393
362.50 3.389
362.60 3.386
362.70 3.382
362.80 3.378
362.90 3.375
363.00 3.371
363.10 3.368
363.20 3.364
363.30 3.361
363.40 3.357
363.50 3.354
363.60 3.35
363.70 3.347
363.80 3.343
363.90 3.34
364.00 3.336
364.10 3.333
364.20 3.329
364.30 3.326
364.40 3.322
364.50 3.319
364.60 3.315
364.70 3.312
364.80 3.308
364.90 3.305
365.00 3.301
365.10 3.298
365.20 3.294
365.30 3.291
365.40 3.287
365.50 3.284
365.60 3.281
365.70 3.277
365.80 3.274
365.90 3.27
366.00 3.267
366.10 3.263
366.20 3.26
366.30 3.257
366.40 3.253
366.50 3.25
366.60 3.246
366.70 3.243
366.80 3.24
366.90 3.236
367.00 3.233
367.10 3.229
367.20 3.226
367.30 3.223
367.40 3.219
367.50 3.216
367.60 3.213
367.70 3.209
367.80 3.206
367.90 3.203
368.00 3.199
368.10 3.196
368.20 3.192
368.30 3.189
368.40 3.186
368.50 3.182
368.60 3.179
368.70 3.176
368.80 3.172
368.90 3.169
369.00 3.166
369.10 3.162
369.20 3.159
369.30 3.156
369.40 3.152
369.50 3.149
369.60 3.146
369.70 3.142
369.80 3.139
369.90 3.136
370.00 3.132
370.10 3.129
370.20 3.126
370.30 3.123
370.40 3.119
370.50 3.116
370.60 3.113
370.70 3.109
370.80 3.106
370.90 3.103
371.00 3.1
371.10 3.096
371.20 3.093
371.30 3.09
371.40 3.087
371.50 3.083
371.60 3.08
371.70 3.077
371.80 3.074
371.90 3.07
372.00 3.067
372.10 3.064
372.20 3.061
372.30 3.058
372.40 3.055
372.50 3.052
372.60 3.049
372.70 3.045
372.80 3.042
372.90 3.039
373.00 3.036
373.10 3.033
373.20 3.03
373.30 3.027
373.40 3.024
373.50 3.021
373.60 3.018
373.70 3.015
373.80 3.011
373.90 3.008
374.00 3.005
374.10 3.002
374.20 2.999
374.30 2.996
374.40 2.993
374.50 2.99
374.60 2.987
374.70 2.984
374.80 2.98
374.90 2.977
375.00 2.974
375.10 2.971
375.20 2.968
375.30 2.965
375.40 2.962
375.50 2.959
375.60 2.956
375.70 2.953
375.80 2.95
375.90 2.947
376.00 2.944
376.10 2.94
376.20 2.937
376.30 2.934
376.40 2.931
376.50 2.928
376.60 2.925
376.70 2.922
376.80 2.919
376.90 2.916
377.00 2.913
377.10 2.91
377.20 2.907
377.30 2.904
377.40 2.901
377.50 2.898
377.60 2.895
377.70 2.892
377.80 2.889
377.90 2.887
378.00 2.884
378.10 2.881
378.20 2.878
378.30 2.875
378.40 2.872
378.50 2.869
378.60 2.866
378.70 2.863
378.80 2.86
378.90 2.857
379.00 2.854
379.10 2.851
379.20 2.849
379.30 2.846
379.40 2.843
379.50 2.84
379.60 2.837
379.70 2.834
379.80 2.831
379.90 2.828
380.00 2.825
380.10 2.823
380.20 2.82
380.30 2.817
380.40 2.814
380.50 2.811
380.60 2.808
380.70 2.805
380.80 2.803
380.90 2.8
381.00 2.797
381.10 2.794
381.20 2.791
381.30 2.789
381.40 2.786
381.50 2.783
381.60 2.78
381.70 2.777
381.80 2.775
381.90 2.772
382.00 2.769
382.10 2.766
382.20 2.763
382.30 2.761
382.40 2.758
382.50 2.755
382.60 2.752
382.70 2.75
382.80 2.747
382.90 2.744
383.00 2.741
383.10 2.739
383.20 2.736
383.30 2.733
383.40 2.731
383.50 2.728
383.60 2.725
383.70 2.722
383.80 2.72
383.90 2.717
384.00 2.714
384.10 2.712
384.20 2.709
384.30 2.706
384.40 2.704
384.50 2.701
384.60 2.698
384.70 2.696
384.80 2.693
384.90 2.69
385.00 2.688
385.10 2.685
385.20 2.682
385.30 2.68
385.40 2.677
385.50 2.674
385.60 2.672
385.70 2.669
385.80 2.666
385.90 2.664
386.00 2.661
386.10 2.659
386.20 2.656
386.30 2.653
386.40 2.651
386.50 2.648
386.60 2.646
386.70 2.643
386.80 2.64
386.90 2.638
387.00 2.635
387.10 2.633
387.20 2.63
387.30 2.628
387.40 2.625
387.50 2.622
387.60 2.62
387.70 2.617
387.80 2.615
387.90 2.612
388.00 2.61
388.10 2.607
388.20 2.605
388.30 2.602
388.40 2.6
388.50 2.597
388.60 2.595
388.70 2.592
388.80 2.59
388.90 2.587
389.00 2.585
389.10 2.582
389.20 2.58
389.30 2.577
389.40 2.575
389.50 2.572
389.60 2.57
389.70 2.567
389.80 2.565
389.90 2.562
390.00 2.56
390.10 2.558
390.20 2.555
390.30 2.553
390.40 2.55
390.50 2.548
390.60 2.545
390.70 2.543
390.80 2.541
390.90 2.538
391.00 2.536
391.10 2.533
391.20 2.531
391.30 2.529
391.40 2.526
391.50 2.524
391.60 2.521
391.70 2.519
391.80 2.516
391.90 2.514
392.00 2.512
392.10 2.509
392.20 2.507
392.30 2.504
392.40 2.502
392.50 2.5
392.60 2.497
392.70 2.495
392.80 2.492
392.90 2.49
393.00 2.487
393.10 2.485
393.20 2.483
393.30 2.48
393.40 2.478
393.50 2.475
393.60 2.473
393.70 2.47
393.80 2.468
393.90 2.466
394.00 2.463
394.10 2.461
394.20 2.458
394.30 2.456
394.40 2.453
394.50 2.451
394.60 2.449
394.70 2.446
394.80 2.444
394.90 2.441
395.00 2.439
395.10 2.436
395.20 2.434
395.30 2.431
395.40 2.429
395.50 2.427
395.60 2.424
395.70 2.422
395.80 2.419
395.90 2.417
396.00 2.415
396.10 2.412
396.20 2.41
396.30 2.407
396.40 2.405
396.50 2.403
396.60 2.4
396.70 2.398
396.80 2.396
396.90 2.394
397.00 2.391
397.10 2.389
397.20 2.387
397.30 2.385
397.40 2.383
397.50 2.381
397.60 2.379
397.70 2.377
397.80 2.375
397.90 2.373
398.00 2.371
398.10 2.369
398.20 2.367
398.30 2.365
398.40 2.363
398.50 2.361
398.60 2.359
398.70 2.357
398.80 2.355
398.90 2.353
399.00 2.351
399.10 2.349
399.20 2.347
399.30 2.345
399.40 2.343
399.50 2.341
399.60 2.339
399.70 2.337
399.80 2.335
399.90 2.333
400.00 2.331
400.10 2.329
400.20 2.326
400.30 2.324
400.40 2.322
400.50 2.32
400.60 2.318
400.70 2.316
400.80 2.314
400.90 2.312
401.00 2.31
401.10 2.308
401.20 2.306
401.30 2.304
401.40 2.302
401.50 2.3
401.60 2.297
401.70 2.295
401.80 2.293
401.90 2.291
402.00 2.289
402.10 2.287
402.20 2.285
402.30 2.282
402.40 2.28
402.50 2.278
402.60 2.276
402.70 2.274
402.80 2.272
402.90 2.269
403.00 2.267
403.10 2.265
403.20 2.263
403.30 2.26
403.40 2.258
403.50 2.256
403.60 2.254
403.70 2.251
403.80 2.249
403.90 2.247
404.00 2.245
404.10 2.242
404.20 2.24
404.30 2.238
404.40 2.235
404.50 2.233
404.60 2.231
404.70 2.228
404.80 2.226
404.90 2.223
405.00 2.221
405.10 2.219
405.20 2.216
405.30 2.214
405.40 2.211
405.50 2.209
405.60 2.206
405.70 2.204
405.80 2.202
405.90 2.199
406.00 2.197
406.10 2.194
406.20 2.192
406.30 2.189
406.40 2.186
406.50 2.184
406.60 2.181
406.70 2.179
406.80 2.176
406.90 2.174
407.00 2.171
407.10 2.169
407.20 2.166
407.30 2.163
407.40 2.161
407.50 2.158
407.60 2.155
407.70 2.153
407.80 2.15
407.90 2.148
408.00 2.145
408.10 2.142
408.20 2.14
408.30 2.137
408.40 2.134
408.50 2.132
408.60 2.129
408.70 2.127
408.80 2.124
408.90 2.122
409.00 2.119
409.10 2.117
409.20 2.114
409.30 2.112
409.40 2.11
409.50 2.107
409.60 2.105
409.70 2.103
409.80 2.102
409.90 2.1
410.00 2.099
410.10 2.097
410.20 2.095
410.30 2.093
410.40 2.091
410.50 2.089
410.60 2.087
410.70 2.085
410.80 2.083
410.90 2.081
411.00 2.08
411.10 2.078
411.20 2.077
411.30 2.076
411.40 2.074
411.50 2.073
411.60 2.072
411.70 2.071
411.80 2.069
411.90 2.068
412.00 2.067
412.10 2.066
412.20 2.065
412.30 2.064
412.40 2.063
412.50 2.061
412.60 2.06
412.70 2.059
412.80 2.058
412.90 2.057
413.00 2.055
413.10 2.054
413.20 2.053
413.30 2.052
413.40 2.051
413.50 2.049
413.60 2.048
413.70 2.047
413.80 2.046
413.90 2.044
414.00 2.043
414.10 2.042
414.20 2.041
414.30 2.039
414.40 2.038
414.50 2.037
414.60 2.035
414.70 2.034
414.80 2.033
414.90 2.031
415.00 2.03
415.10 2.028
415.20 2.027
415.30 2.026
415.40 2.024
415.50 2.023
415.60 2.021
415.70 2.02
415.80 2.019
415.90 2.017
416.00 2.016
416.10 2.014
416.20 2.013
416.30 2.011
416.40 2.01
416.50 2.008
416.60 2.007
416.70 2.005
416.80 2.004
416.90 2.002
417.00 2
417.10 1.999
417.20 1.997
417.30 1.996
417.40 1.994
417.50 1.993
417.60 1.991
417.70 1.99
417.80 1.988
417.90 1.986
418.00 1.985
418.10 1.983
418.20 1.981
418.30 1.98
418.40 1.978
418.50 1.977
418.60 1.975
418.70 1.973
418.80 1.972
418.90 1.97
419.00 1.968
419.10 1.967
419.20 1.965
419.30 1.963
419.40 1.962
419.50 1.96
419.60 1.958
419.70 1.957
419.80 1.955
419.90 1.953
420.00 1.952
420.10 1.95
420.20 1.948
420.30 1.946
420.40 1.945
420.50 1.943
420.60 1.941
420.70 1.94
420.80 1.938
420.90 1.936
421.00 1.934
421.10 1.933
421.20 1.931
421.30 1.929
421.40 1.927
421.50 1.926
421.60 1.924
421.70 1.922
421.80 1.92
421.90 1.918
422.00 1.917
422.10 1.915
422.20 1.913
422.30 1.911
422.40 1.91
422.50 1.908
422.60 1.906
422.70 1.904
422.80 1.902
422.90 1.9
423.00 1.899
423.10 1.897
423.20 1.895
423.30 1.893
423.40 1.891
423.50 1.889
423.60 1.888
423.70 1.886
423.80 1.884
423.90 1.882
424.00 1.88
424.10 1.878
424.20 1.876
424.30 1.875
424.40 1.873
424.50 1.871
424.60 1.869
424.70 1.867
424.80 1.865
424.90 1.863
425.00 1.861
425.10 1.859
425.20 1.857
425.30 1.855
425.40 1.853
425.50 1.851
425.60 1.849
425.70 1.847
425.80 1.845
425.90 1.843
426.00 1.841
426.10 1.839
426.20 1.837
426.30 1.835
426.40 1.833
426.50 1.831
426.60 1.829
426.70 1.827
426.80 1.825
426.90 1.823
427.00 1.821
427.10 1.819
427.20 1.816
427.30 1.814
427.40 1.812
427.50 1.81
427.60 1.808
427.70 1.805
427.80 1.803
427.90 1.801
428.00 1.799
428.10 1.797
428.20 1.794
428.30 1.792
428.40 1.79
428.50 1.787
428.60 1.785
428.70 1.783
428.80 1.78
428.90 1.778
429.00 1.775
429.10 1.773
429.20 1.771
429.30 1.768
429.40 1.766
429.50 1.763
429.60 1.761
429.70 1.758
429.80 1.755
429.90 1.753
430.00 1.75
430.10 1.748
430.20 1.745
430.30 1.742
430.40 1.74
430.50 1.737
430.60 1.734
430.70 1.731
430.80 1.729
430.90 1.726
431.00 1.723
431.10 1.72
431.20 1.717
431.30 1.714
431.40 1.712
431.50 1.709
431.60 1.706
431.70 1.703
431.80 1.7
431.90 1.697
432.00 1.694
432.10 1.691
432.20 1.688
432.30 1.685
432.40 1.682
432.50 1.679
432.60 1.676
432.70 1.673
432.80 1.67
432.90 1.667
433.00 1.664
433.10 1.661
433.20 1.658
433.30 1.654
433.40 1.651
433.50 1.648
433.60 1.644
433.70 1.641
433.80 1.637
433.90 1.633
434.00 1.63
434.10 1.629
434.20 1.629
434.30 1.63
434.40 1.631
434.50 1.632
434.60 1.633
434.70 1.633
434.80 1.634
434.90 1.634
435.00 1.634
435.10 1.635
435.20 1.635
435.30 1.635
435.40 1.635
435.50 1.635
435.60 1.635
435.70 1.635
435.80 1.636
435.90 1.636
436.00 1.636
436.10 1.636
436.20 1.636
436.30 1.636
436.40 1.636
436.50 1.636
436.60 1.636
436.70 1.636
436.80 1.636
436.90 1.636
437.00 1.635
437.10 1.635
437.20 1.635
437.30 1.635
437.40 1.635
437.50 1.634
437.60 1.634
437.70 1.634
437.80 1.634
437.90 1.633
438.00 1.633
438.10 1.633
438.20 1.632
438.30 1.632
438.40 1.631
438.50 1.631
438.60 1.63
438.70 1.63
438.80 1.629
438.90 1.629
439.00 1.628
439.10 1.627
439.20 1.627
439.30 1.626
439.40 1.625
439.50 1.625
439.60 1.624
439.70 1.623
439.80 1.622
439.90 1.622
440.00 1.621
440.10 1.62
440.20 1.619
440.30 1.618
440.40 1.618
440.50 1.617
440.60 1.616
440.70 1.615
440.80 1.614
440.90 1.613
441.00 1.612
441.10 1.611
441.20 1.61
441.30 1.609
441.40 1.608
441.50 1.607
441.60 1.606
441.70 1.605
441.80 1.604
441.90 1.603
442.00 1.602
442.10 1.601
442.20 1.6
442.30 1.599
442.40 1.598
442.50 1.597
442.60 1.596
442.70 1.595
442.80 1.594
442.90 1.593
443.00 1.592
443.10 1.59
443.20 1.589
443.30 1.588
443.40 1.587
443.50 1.586
443.60 1.585
443.70 1.584
443.80 1.582
443.90 1.581
444.00 1.58
444.10 1.579
444.20 1.578
444.30 1.577
444.40 1.575
444.50 1.574
444.60 1.573
444.70 1.572
444.80 1.571
444.90 1.569
445.00 1.568
445.10 1.567
445.20 1.566
445.30 1.565
445.40 1.563
445.50 1.562
445.60 1.561
445.70 1.56
445.80 1.559
445.90 1.557
446.00 1.556
446.10 1.555
446.20 1.554
446.30 1.552
446.40 1.551
446.50 1.55
446.60 1.549
446.70 1.548
446.80 1.546
446.90 1.545
447.00 1.544
447.10 1.543
447.20 1.541
447.30 1.54
447.40 1.539
447.50 1.538
447.60 1.536
447.70 1.535
447.80 1.534
447.90 1.533
448.00 1.531
448.10 1.53
448.20 1.529
448.30 1.528
448.40 1.526
448.50 1.525
448.60 1.524
448.70 1.523
448.80 1.521
448.90 1.52
449.00 1.519
449.10 1.518
449.20 1.516
449.30 1.515
449.40 1.514
449.50 1.513
449.60 1.511
449.70 1.51
449.80 1.509
449.90 1.508
450.00 1.506
450.10 1.505
450.20 1.504
450.30 1.503
450.40 1.501
450.50 1.5
450.60 1.499
450.70 1.498
450.80 1.496
450.90 1.495
451.00 1.494
451.10 1.493
451.20 1.491
451.30 1.49
451.40 1.489
451.50 1.488
451.60 1.486
451.70 1.485
451.80 1.484
451.90 1.483
452.00 1.481
452.10 1.48
452.20 1.479
452.30 1.478
452.40 1.476
452.50 1.475
452.60 1.474
452.70 1.473
452.80 1.471
452.90 1.47
453.00 1.469
453.10 1.468
453.20 1.467
453.30 1.465
453.40 1.464
453.50 1.463
453.60 1.462
453.70 1.46
453.80 1.459
453.90 1.458
454.00 1.457
454.10 1.455
