# Version 2.1 - nm, norm@500 to 1, cut digits, bergeron_6000_75.dat_6000
# Wavelength(nm)  Flambda(ergs/cm^s/s/nm)
300.00 0.6947
300.10 0.6952
300.20 0.6957
300.30 0.6962
300.40 0.6966
300.50 0.6971
300.60 0.6976
300.70 0.6981
300.80 0.6985
300.90 0.699
301.00 0.6995
301.10 0.7
301.20 0.7004
301.30 0.7009
301.40 0.7014
301.50 0.7019
301.60 0.7023
301.70 0.7028
301.80 0.7033
301.90 0.7037
302.00 0.7042
302.10 0.7047
302.20 0.7052
302.30 0.7056
302.40 0.7061
302.50 0.7066
302.60 0.707
302.70 0.7075
302.80 0.708
302.90 0.7085
303.00 0.7089
303.10 0.7094
303.20 0.7099
303.30 0.7103
303.40 0.7108
303.50 0.7113
303.60 0.7117
303.70 0.7122
303.80 0.7126
303.90 0.7131
304.00 0.7136
304.10 0.714
304.20 0.7145
304.30 0.715
304.40 0.7154
304.50 0.7159
304.60 0.7164
304.70 0.7168
304.80 0.7173
304.90 0.7177
305.00 0.7182
305.10 0.7187
305.20 0.7191
305.30 0.7196
305.40 0.72
305.50 0.7205
305.60 0.721
305.70 0.7214
305.80 0.7219
305.90 0.7223
306.00 0.7228
306.10 0.7232
306.20 0.7237
306.30 0.7242
306.40 0.7246
306.50 0.7251
306.60 0.7255
306.70 0.726
306.80 0.7265
306.90 0.7269
307.00 0.7274
307.10 0.7278
307.20 0.7283
307.30 0.7287
307.40 0.7292
307.50 0.7296
307.60 0.7301
307.70 0.7305
307.80 0.731
307.90 0.7314
308.00 0.7319
308.10 0.7323
308.20 0.7328
308.30 0.7332
308.40 0.7337
308.50 0.7341
308.60 0.7346
308.70 0.735
308.80 0.7355
308.90 0.7359
309.00 0.7364
309.10 0.7368
309.20 0.7373
309.30 0.7377
309.40 0.7382
309.50 0.7386
309.60 0.739
309.70 0.7395
309.80 0.7399
309.90 0.7404
310.00 0.7408
310.10 0.7413
310.20 0.7417
310.30 0.7422
310.40 0.7426
310.50 0.7431
310.60 0.7435
310.70 0.7439
310.80 0.7444
310.90 0.7448
311.00 0.7453
311.10 0.7457
311.20 0.7462
311.30 0.7466
311.40 0.747
311.50 0.7475
311.60 0.7479
311.70 0.7483
311.80 0.7488
311.90 0.7492
312.00 0.7497
312.10 0.7501
312.20 0.7505
312.30 0.751
312.40 0.7514
312.50 0.7519
312.60 0.7523
312.70 0.7527
312.80 0.7532
312.90 0.7536
313.00 0.754
313.10 0.7545
313.20 0.7549
313.30 0.7553
313.40 0.7558
313.50 0.7562
313.60 0.7566
313.70 0.7571
313.80 0.7575
313.90 0.7579
314.00 0.7583
314.10 0.7588
314.20 0.7592
314.30 0.7596
314.40 0.7601
314.50 0.7605
314.60 0.7609
314.70 0.7614
314.80 0.7618
314.90 0.7622
315.00 0.7626
315.10 0.7631
315.20 0.7635
315.30 0.7639
315.40 0.7643
315.50 0.7648
315.60 0.7652
315.70 0.7656
315.80 0.766
315.90 0.7664
316.00 0.7669
316.10 0.7673
316.20 0.7677
316.30 0.7681
316.40 0.7686
316.50 0.769
316.60 0.7694
316.70 0.7698
316.80 0.7703
316.90 0.7707
317.00 0.7711
317.10 0.7715
317.20 0.7719
317.30 0.7723
317.40 0.7728
317.50 0.7732
317.60 0.7736
317.70 0.774
317.80 0.7744
317.90 0.7748
318.00 0.7752
318.10 0.7757
318.20 0.7761
318.30 0.7765
318.40 0.7769
318.50 0.7773
318.60 0.7777
318.70 0.7782
318.80 0.7786
318.90 0.779
319.00 0.7794
319.10 0.7798
319.20 0.7802
319.30 0.7806
319.40 0.781
319.50 0.7814
319.60 0.7818
319.70 0.7822
319.80 0.7827
319.90 0.7831
320.00 0.7835
320.10 0.7839
320.20 0.7843
320.30 0.7847
320.40 0.7851
320.50 0.7855
320.60 0.7859
320.70 0.7863
320.80 0.7867
320.90 0.7871
321.00 0.7875
321.10 0.788
321.20 0.7884
321.30 0.7888
321.40 0.7892
321.50 0.7896
321.60 0.79
321.70 0.7904
321.80 0.7908
321.90 0.7912
322.00 0.7916
322.10 0.792
322.20 0.7924
322.30 0.7928
322.40 0.7932
322.50 0.7936
322.60 0.794
322.70 0.7944
322.80 0.7948
322.90 0.7952
323.00 0.7956
323.10 0.796
323.20 0.7964
323.30 0.7968
323.40 0.7972
323.50 0.7976
323.60 0.798
323.70 0.7984
323.80 0.7987
323.90 0.7991
324.00 0.7995
324.10 0.7999
324.20 0.8003
324.30 0.8007
324.40 0.8011
324.50 0.8015
324.60 0.8019
324.70 0.8023
324.80 0.8027
324.90 0.8031
325.00 0.8034
325.10 0.8038
325.20 0.8042
325.30 0.8046
325.40 0.805
325.50 0.8054
325.60 0.8058
325.70 0.8062
325.80 0.8065
325.90 0.8069
326.00 0.8073
326.10 0.8077
326.20 0.8081
326.30 0.8085
326.40 0.8088
326.50 0.8092
326.60 0.8096
326.70 0.81
326.80 0.8104
326.90 0.8108
327.00 0.8112
327.10 0.8115
327.20 0.8119
327.30 0.8123
327.40 0.8127
327.50 0.8131
327.60 0.8134
327.70 0.8138
327.80 0.8142
327.90 0.8146
328.00 0.8149
328.10 0.8153
328.20 0.8157
328.30 0.8161
328.40 0.8165
328.50 0.8168
328.60 0.8172
328.70 0.8176
328.80 0.818
328.90 0.8183
329.00 0.8187
329.10 0.8191
329.20 0.8195
329.30 0.8198
329.40 0.8202
329.50 0.8206
329.60 0.821
329.70 0.8213
329.80 0.8217
329.90 0.8221
330.00 0.8224
330.10 0.8228
330.20 0.8232
330.30 0.8236
330.40 0.8239
330.50 0.8243
330.60 0.8247
330.70 0.825
330.80 0.8254
330.90 0.8258
331.00 0.8261
331.10 0.8265
331.20 0.8269
331.30 0.8272
331.40 0.8276
331.50 0.828
331.60 0.8283
331.70 0.8287
331.80 0.8291
331.90 0.8294
332.00 0.8298
332.10 0.8301
332.20 0.8305
332.30 0.8309
332.40 0.8312
332.50 0.8316
332.60 0.8319
332.70 0.8323
332.80 0.8327
332.90 0.833
333.00 0.8334
333.10 0.8337
333.20 0.8341
333.30 0.8345
333.40 0.8348
333.50 0.8352
333.60 0.8355
333.70 0.8359
333.80 0.8362
333.90 0.8366
334.00 0.8369
334.10 0.8373
334.20 0.8377
334.30 0.838
334.40 0.8384
334.50 0.8387
334.60 0.8391
334.70 0.8394
334.80 0.8398
334.90 0.8401
335.00 0.8405
335.10 0.8408
335.20 0.8412
335.30 0.8415
335.40 0.8419
335.50 0.8422
335.60 0.8426
335.70 0.8429
335.80 0.8433
335.90 0.8436
336.00 0.844
336.10 0.8443
336.20 0.8447
336.30 0.845
336.40 0.8454
336.50 0.8457
336.60 0.8461
336.70 0.8464
336.80 0.8468
336.90 0.8471
337.00 0.8475
337.10 0.8478
337.20 0.8481
337.30 0.8485
337.40 0.8488
337.50 0.8492
337.60 0.8495
337.70 0.8498
337.80 0.8502
337.90 0.8505
338.00 0.8509
338.10 0.8512
338.20 0.8515
338.30 0.8519
338.40 0.8522
338.50 0.8526
338.60 0.8529
338.70 0.8532
338.80 0.8536
338.90 0.8539
339.00 0.8543
339.10 0.8546
339.20 0.8549
339.30 0.8553
339.40 0.8556
339.50 0.8559
339.60 0.8563
339.70 0.8566
339.80 0.8569
339.90 0.8573
340.00 0.8576
340.10 0.8579
340.20 0.8583
340.30 0.8586
340.40 0.8589
340.50 0.8593
340.60 0.8596
340.70 0.8599
340.80 0.8602
340.90 0.8606
341.00 0.8609
341.10 0.8612
341.20 0.8616
341.30 0.8619
341.40 0.8622
341.50 0.8625
341.60 0.8629
341.70 0.8632
341.80 0.8635
341.90 0.8638
342.00 0.8641
342.10 0.8645
342.20 0.8648
342.30 0.8651
342.40 0.8655
342.50 0.8658
342.60 0.8661
342.70 0.8664
342.80 0.8667
342.90 0.8671
343.00 0.8674
343.10 0.8677
343.20 0.868
343.30 0.8684
343.40 0.8687
343.50 0.869
343.60 0.8693
343.70 0.8696
343.80 0.87
343.90 0.8703
344.00 0.8706
344.10 0.8709
344.20 0.8712
344.30 0.8715
344.40 0.8719
344.50 0.8722
344.60 0.8725
344.70 0.8728
344.80 0.8731
344.90 0.8734
345.00 0.8737
345.10 0.8741
345.20 0.8744
345.30 0.8747
345.40 0.875
345.50 0.8753
345.60 0.8756
345.70 0.8759
345.80 0.8762
345.90 0.8765
346.00 0.8769
346.10 0.8772
346.20 0.8775
346.30 0.8778
346.40 0.8781
346.50 0.8784
346.60 0.8787
346.70 0.879
346.80 0.8793
346.90 0.8796
347.00 0.8799
347.10 0.8802
347.20 0.8806
347.30 0.8809
347.40 0.8812
347.50 0.8815
347.60 0.8818
347.70 0.8821
347.80 0.8824
347.90 0.8827
348.00 0.883
348.10 0.8833
348.20 0.8836
348.30 0.8839
348.40 0.8842
348.50 0.8845
348.60 0.8848
348.70 0.8851
348.80 0.8854
348.90 0.8857
349.00 0.886
349.10 0.8863
349.20 0.8866
349.30 0.8869
349.40 0.8872
349.50 0.8875
349.60 0.8878
349.70 0.8881
349.80 0.8884
349.90 0.8887
350.00 0.8889
350.10 0.8892
350.20 0.8895
350.30 0.8898
350.40 0.8901
350.50 0.8904
350.60 0.8907
350.70 0.891
350.80 0.8913
350.90 0.8916
351.00 0.8919
351.10 0.8922
351.20 0.8924
351.30 0.8927
351.40 0.893
351.50 0.8933
351.60 0.8936
351.70 0.8939
351.80 0.8942
351.90 0.8945
352.00 0.8947
352.10 0.895
352.20 0.8953
352.30 0.8956
352.40 0.8959
352.50 0.8962
352.60 0.8965
352.70 0.8967
352.80 0.897
352.90 0.8973
353.00 0.8976
353.10 0.8979
353.20 0.8982
353.30 0.8984
353.40 0.8987
353.50 0.899
353.60 0.8993
353.70 0.8996
353.80 0.8998
353.90 0.9001
354.00 0.9004
354.10 0.9007
354.20 0.901
354.30 0.9012
354.40 0.9015
354.50 0.9018
354.60 0.9021
354.70 0.9023
354.80 0.9026
354.90 0.9029
355.00 0.9032
355.10 0.9035
355.20 0.9037
355.30 0.904
355.40 0.9043
355.50 0.9046
355.60 0.9048
355.70 0.9051
355.80 0.9054
355.90 0.9056
356.00 0.9059
356.10 0.9062
356.20 0.9065
356.30 0.9067
356.40 0.907
356.50 0.9073
356.60 0.9075
356.70 0.9078
356.80 0.9081
356.90 0.9083
357.00 0.9086
357.10 0.9089
357.20 0.9091
357.30 0.9094
357.40 0.9097
357.50 0.9099
357.60 0.9102
357.70 0.9105
357.80 0.9107
357.90 0.911
358.00 0.9113
358.10 0.9115
358.20 0.9118
358.30 0.9121
358.40 0.9123
358.50 0.9126
358.60 0.9128
358.70 0.9131
358.80 0.9134
358.90 0.9136
359.00 0.9139
359.10 0.9141
359.20 0.9144
359.30 0.9147
359.40 0.9149
359.50 0.9152
359.60 0.9154
359.70 0.9157
359.80 0.9159
359.90 0.9162
360.00 0.9165
360.10 0.9167
360.20 0.917
360.30 0.9172
360.40 0.9175
360.50 0.9177
360.60 0.918
360.70 0.9183
360.80 0.9185
360.90 0.9188
361.00 0.919
361.10 0.9193
361.20 0.9195
361.30 0.9198
361.40 0.92
361.50 0.9203
361.60 0.9205
361.70 0.9208
361.80 0.921
361.90 0.9213
362.00 0.9215
362.10 0.9218
362.20 0.922
362.30 0.9223
362.40 0.9225
362.50 0.9228
362.60 0.923
362.70 0.9233
362.80 0.9235
362.90 0.9238
363.00 0.924
363.10 0.9242
363.20 0.9245
363.30 0.9247
363.40 0.925
363.50 0.9252
363.60 0.9255
363.70 0.9257
363.80 0.926
363.90 0.9262
364.00 0.9265
364.10 0.9267
364.20 0.9269
364.30 0.9272
364.40 0.9274
364.50 0.9277
364.60 0.9279
364.70 0.9281
364.80 0.9284
364.90 0.9286
365.00 0.9288
365.10 0.9291
365.20 0.9293
365.30 0.9295
365.40 0.9298
365.50 0.93
365.60 0.9302
365.70 0.9305
365.80 0.9307
365.90 0.9309
366.00 0.9312
366.10 0.9314
366.20 0.9316
366.30 0.9319
366.40 0.9321
366.50 0.9323
366.60 0.9326
366.70 0.9328
366.80 0.933
366.90 0.9333
367.00 0.9335
367.10 0.9337
367.20 0.934
367.30 0.9342
367.40 0.9344
367.50 0.9347
367.60 0.9349
367.70 0.9351
367.80 0.9354
367.90 0.9356
368.00 0.9358
368.10 0.936
368.20 0.9363
368.30 0.9365
368.40 0.9367
368.50 0.9369
368.60 0.9372
368.70 0.9374
368.80 0.9376
368.90 0.9378
369.00 0.9381
369.10 0.9383
369.20 0.9385
369.30 0.9387
369.40 0.939
369.50 0.9392
369.60 0.9394
369.70 0.9396
369.80 0.9398
369.90 0.9401
370.00 0.9403
370.10 0.9405
370.20 0.9407
370.30 0.9409
370.40 0.9412
370.50 0.9414
370.60 0.9416
370.70 0.9418
370.80 0.942
370.90 0.9423
371.00 0.9425
371.10 0.9427
371.20 0.9429
371.30 0.9431
371.40 0.9433
371.50 0.9436
371.60 0.9438
371.70 0.944
371.80 0.9442
371.90 0.9444
372.00 0.9446
372.10 0.9449
372.20 0.9451
372.30 0.9453
372.40 0.9455
372.50 0.9457
372.60 0.946
372.70 0.9462
372.80 0.9464
372.90 0.9466
373.00 0.9468
373.10 0.947
373.20 0.9472
373.30 0.9475
373.40 0.9477
373.50 0.9479
373.60 0.9481
373.70 0.9483
373.80 0.9485
373.90 0.9487
374.00 0.949
374.10 0.9492
374.20 0.9494
374.30 0.9496
374.40 0.9499
374.50 0.9501
374.60 0.9503
374.70 0.9506
374.80 0.9508
374.90 0.951
375.00 0.9512
375.10 0.9515
375.20 0.9517
375.30 0.9519
375.40 0.9521
375.50 0.9524
375.60 0.9526
375.70 0.9528
375.80 0.953
375.90 0.9532
376.00 0.9535
376.10 0.9537
376.20 0.9539
376.30 0.9542
376.40 0.9544
376.50 0.9546
376.60 0.9549
376.70 0.9551
376.80 0.9554
376.90 0.9556
377.00 0.9558
377.10 0.9561
377.20 0.9563
377.30 0.9565
377.40 0.9567
377.50 0.957
377.60 0.9572
377.70 0.9574
377.80 0.9577
377.90 0.9579
378.00 0.9581
378.10 0.9583
378.20 0.9584
378.30 0.9586
378.40 0.9587
378.50 0.9589
378.60 0.959
378.70 0.9592
378.80 0.9593
378.90 0.9595
379.00 0.9596
379.10 0.9594
379.20 0.9593
379.30 0.9591
379.40 0.9589
379.50 0.9587
379.60 0.9585
379.70 0.9584
379.80 0.9582
379.90 0.958
380.00 0.9578
380.10 0.9586
380.20 0.9593
380.30 0.96
380.40 0.9607
380.50 0.9615
380.60 0.9622
380.70 0.9629
380.80 0.9636
380.90 0.9643
381.00 0.965
381.10 0.9653
381.20 0.9656
381.30 0.9659
381.40 0.9661
381.50 0.9664
381.60 0.9666
381.70 0.9668
381.80 0.967
381.90 0.9672
382.00 0.9673
382.10 0.9675
382.20 0.9676
382.30 0.9669
382.40 0.9663
382.50 0.9657
382.60 0.9651
382.70 0.9645
382.80 0.9639
382.90 0.9633
383.00 0.9626
383.10 0.962
383.20 0.9614
383.30 0.958
383.40 0.9528
383.50 0.9441
383.60 0.947
383.70 0.9548
383.80 0.96
383.90 0.9636
384.00 0.9661
384.10 0.9679
384.20 0.9693
384.30 0.9703
384.40 0.9711
384.50 0.9718
384.60 0.9724
384.70 0.9728
384.80 0.9733
384.90 0.9736
385.00 0.974
385.10 0.9743
385.20 0.9746
385.30 0.9749
385.40 0.9751
385.50 0.9754
385.60 0.9756
385.70 0.9759
385.80 0.9761
385.90 0.9763
386.00 0.9765
386.10 0.9767
386.20 0.9769
386.30 0.9771
386.40 0.9773
386.50 0.9775
386.60 0.9776
386.70 0.9778
386.80 0.9779
386.90 0.978
387.00 0.9782
387.10 0.9783
387.20 0.9783
387.30 0.9784
387.40 0.9784
387.50 0.9784
387.60 0.9783
387.70 0.9782
387.80 0.9779
387.90 0.9775
388.00 0.977
388.10 0.9761
388.20 0.9748
388.30 0.9732
388.40 0.9703
388.50 0.966
388.60 0.9605
388.70 0.9496
388.80 0.9325
388.90 0.9092
389.00 0.9318
389.10 0.949
389.20 0.9608
389.30 0.967
389.40 0.9718
389.50 0.9752
389.60 0.9773
389.70 0.9789
389.80 0.9802
389.90 0.9812
390.00 0.9819
390.10 0.9826
390.20 0.9831
390.30 0.9836
390.40 0.984
390.50 0.9843
390.60 0.9847
390.70 0.985
390.80 0.9852
390.90 0.9855
391.00 0.9858
391.10 0.986
391.20 0.9862
391.30 0.9864
391.40 0.9866
391.50 0.9868
391.60 0.987
391.70 0.9872
391.80 0.9874
391.90 0.9876
392.00 0.9878
392.10 0.988
392.20 0.9881
392.30 0.9883
392.40 0.9885
392.50 0.9886
392.60 0.9888
392.70 0.989
392.80 0.9891
392.90 0.9893
393.00 0.9894
393.10 0.9896
393.20 0.9897
393.30 0.9899
393.40 0.99
393.50 0.9902
393.60 0.9903
393.70 0.9905
393.80 0.9906
393.90 0.9907
394.00 0.9909
394.10 0.991
394.20 0.9911
394.30 0.9912
394.40 0.9913
394.50 0.9914
394.60 0.9915
394.70 0.9916
394.80 0.9917
394.90 0.9917
395.00 0.9917
395.10 0.9918
395.20 0.9918
395.30 0.9917
395.40 0.9916
395.50 0.9915
395.60 0.9913
395.70 0.991
395.80 0.9907
395.90 0.9901
396.00 0.9893
396.10 0.9883
396.20 0.9867
396.30 0.9845
396.40 0.9817
396.50 0.9766
396.60 0.9689
396.70 0.9587
396.80 0.9371
396.90 0.9017
397.00 0.8525
397.10 0.899
397.20 0.934
397.30 0.9576
397.40 0.9688
397.50 0.9772
397.60 0.983
397.70 0.9862
397.80 0.9888
397.90 0.9908
398.00 0.9921
398.10 0.9932
398.20 0.994
398.30 0.9947
398.40 0.9953
398.50 0.9958
398.60 0.9962
398.70 0.9966
398.80 0.9969
398.90 0.9972
399.00 0.9975
399.10 0.9977
399.20 0.998
399.30 0.9982
399.40 0.9984
399.50 0.9986
399.60 0.9988
399.70 0.999
399.80 0.9991
399.90 0.9993
400.00 0.9995
400.10 0.9996
400.20 0.9998
400.30 0.9999
400.40 1
400.50 1
400.60 1
400.70 1.001
400.80 1.001
400.90 1.001
401.00 1.001
401.10 1.001
401.20 1.001
401.30 1.001
401.40 1.002
401.50 1.002
401.60 1.002
401.70 1.002
401.80 1.002
401.90 1.002
402.00 1.002
402.10 1.002
402.20 1.003
402.30 1.003
402.40 1.003
402.50 1.003
402.60 1.003
402.70 1.003
402.80 1.003
402.90 1.003
403.00 1.004
403.10 1.004
403.20 1.004
403.30 1.004
403.40 1.004
403.50 1.004
403.60 1.004
403.70 1.004
403.80 1.004
403.90 1.005
404.00 1.005
404.10 1.005
404.20 1.005
404.30 1.005
404.40 1.005
404.50 1.005
404.60 1.005
404.70 1.005
404.80 1.006
404.90 1.006
405.00 1.006
405.10 1.006
405.20 1.006
405.30 1.006
405.40 1.006
405.50 1.006
405.60 1.006
405.70 1.006
405.80 1.007
405.90 1.007
406.00 1.007
406.10 1.007
406.20 1.007
406.30 1.007
406.40 1.007
406.50 1.007
406.60 1.007
406.70 1.007
406.80 1.007
406.90 1.007
407.00 1.008
407.10 1.008
407.20 1.008
407.30 1.008
407.40 1.008
407.50 1.008
407.60 1.008
407.70 1.008
407.80 1.008
407.90 1.008
408.00 1.008
408.10 1.008
408.20 1.008
408.30 1.008
408.40 1.007
408.50 1.007
408.60 1.007
408.70 1.007
408.80 1.006
408.90 1.006
409.00 1.005
409.10 1.004
409.20 1.003
409.30 1.001
409.40 0.9981
409.50 0.9943
409.60 0.9895
409.70 0.9804
409.80 0.9662
409.90 0.9469
410.00 0.9008
410.10 0.8459
410.20 0.7821
410.30 0.868
410.40 0.9275
410.50 0.9608
410.60 0.9756
410.70 0.9866
410.80 0.994
410.90 0.998
411.00 1.001
411.10 1.004
411.20 1.005
411.30 1.007
411.40 1.008
411.50 1.008
411.60 1.009
411.70 1.01
411.80 1.01
411.90 1.011
412.00 1.011
412.10 1.011
412.20 1.012
412.30 1.012
412.40 1.012
412.50 1.012
412.60 1.012
412.70 1.013
412.80 1.013
412.90 1.013
413.00 1.013
413.10 1.013
413.20 1.013
413.30 1.013
413.40 1.014
413.50 1.014
413.60 1.014
413.70 1.014
413.80 1.014
413.90 1.014
414.00 1.014
414.10 1.014
414.20 1.015
414.30 1.015
414.40 1.015
414.50 1.015
414.60 1.015
414.70 1.015
414.80 1.015
414.90 1.015
415.00 1.015
415.10 1.015
415.20 1.015
415.30 1.016
415.40 1.016
415.50 1.016
415.60 1.016
415.70 1.016
415.80 1.016
415.90 1.016
416.00 1.016
416.10 1.016
416.20 1.016
416.30 1.016
416.40 1.016
416.50 1.017
416.60 1.017
416.70 1.017
416.80 1.017
416.90 1.017
417.00 1.017
417.10 1.017
417.20 1.017
417.30 1.017
417.40 1.017
417.50 1.017
417.60 1.017
417.70 1.017
417.80 1.018
417.90 1.018
418.00 1.018
418.10 1.018
418.20 1.018
418.30 1.018
418.40 1.018
418.50 1.018
418.60 1.018
418.70 1.018
418.80 1.018
418.90 1.018
419.00 1.018
419.10 1.018
419.20 1.019
419.30 1.019
419.40 1.019
419.50 1.019
419.60 1.019
419.70 1.019
419.80 1.019
419.90 1.019
420.00 1.019
420.10 1.019
420.20 1.019
420.30 1.019
420.40 1.019
420.50 1.019
420.60 1.019
420.70 1.019
420.80 1.02
420.90 1.02
421.00 1.02
421.10 1.02
421.20 1.02
421.30 1.02
421.40 1.02
421.50 1.02
421.60 1.02
421.70 1.02
421.80 1.02
421.90 1.02
422.00 1.02
422.10 1.02
422.20 1.02
422.30 1.02
422.40 1.021
422.50 1.021
422.60 1.021
422.70 1.021
422.80 1.021
422.90 1.021
423.00 1.021
423.10 1.021
423.20 1.021
423.30 1.021
423.40 1.021
423.50 1.021
423.60 1.021
423.70 1.021
423.80 1.021
423.90 1.021
424.00 1.021
424.10 1.021
424.20 1.021
424.30 1.022
424.40 1.022
424.50 1.022
424.60 1.022
424.70 1.022
424.80 1.022
424.90 1.022
425.00 1.022
425.10 1.022
425.20 1.022
425.30 1.022
425.40 1.022
425.50 1.022
425.60 1.022
425.70 1.022
425.80 1.022
425.90 1.022
426.00 1.022
426.10 1.022
426.20 1.022
426.30 1.022
426.40 1.022
426.50 1.023
426.60 1.023
426.70 1.023
426.80 1.023
426.90 1.023
427.00 1.023
427.10 1.023
427.20 1.023
427.30 1.023
427.40 1.023
427.50 1.023
427.60 1.023
427.70 1.023
427.80 1.023
427.90 1.023
428.00 1.023
428.10 1.023
428.20 1.023
428.30 1.023
428.40 1.023
428.50 1.023
428.60 1.023
428.70 1.023
428.80 1.023
428.90 1.023
429.00 1.023
429.10 1.023
429.20 1.023
429.30 1.023
429.40 1.024
429.50 1.024
429.60 1.024
429.70 1.024
429.80 1.024
429.90 1.024
430.00 1.024
430.10 1.024
430.20 1.024
430.30 1.024
430.40 1.024
430.50 1.024
430.60 1.024
430.70 1.024
430.80 1.024
430.90 1.023
431.00 1.023
431.10 1.023
431.20 1.023
431.30 1.023
431.40 1.023
431.50 1.023
431.60 1.023
431.70 1.023
431.80 1.023
431.90 1.023
432.00 1.022
432.10 1.022
432.20 1.022
432.30 1.021
432.40 1.021
432.50 1.02
432.60 1.02
432.70 1.019
432.80 1.018
432.90 1.017
433.00 1.015
433.10 1.013
433.20 1.01
433.30 1.006
433.40 0.9998
433.50 0.9908
433.60 0.9791
433.70 0.9548
433.80 0.9133
433.90 0.8545
434.00 0.6942
434.10 0.6968
434.20 0.862
434.30 0.9179
434.40 0.9575
434.50 0.9808
434.60 0.9921
434.70 1.001
434.80 1.007
434.90 1.011
435.00 1.014
435.10 1.016
435.20 1.018
435.30 1.019
435.40 1.02
435.50 1.021
435.60 1.021
435.70 1.022
435.80 1.022
435.90 1.023
436.00 1.023
436.10 1.024
436.20 1.024
436.30 1.024
436.40 1.024
436.50 1.024
436.60 1.025
436.70 1.025
436.80 1.025
436.90 1.025
437.00 1.025
437.10 1.025
437.20 1.025
437.30 1.025
437.40 1.025
437.50 1.026
437.60 1.026
437.70 1.026
437.80 1.026
437.90 1.026
438.00 1.026
438.10 1.026
438.20 1.026
438.30 1.026
438.40 1.026
438.50 1.026
438.60 1.026
438.70 1.026
438.80 1.026
438.90 1.026
439.00 1.026
439.10 1.026
439.20 1.026
439.30 1.026
439.40 1.026
439.50 1.026
439.60 1.026
439.70 1.026
439.80 1.026
439.90 1.026
440.00 1.026
440.10 1.027
440.20 1.027
440.30 1.027
440.40 1.027
440.50 1.027
440.60 1.027
440.70 1.027
440.80 1.027
440.90 1.027
441.00 1.027
441.10 1.027
441.20 1.027
441.30 1.027
441.40 1.027
441.50 1.027
441.60 1.027
441.70 1.027
441.80 1.027
441.90 1.027
442.00 1.027
442.10 1.027
442.20 1.027
442.30 1.027
442.40 1.027
442.50 1.027
442.60 1.027
442.70 1.027
442.80 1.027
442.90 1.027
443.00 1.027
443.10 1.027
443.20 1.027
443.30 1.027
443.40 1.027
443.50 1.027
443.60 1.027
443.70 1.027
443.80 1.027
443.90 1.027
444.00 1.027
444.10 1.027
444.20 1.027
444.30 1.027
444.40 1.027
444.50 1.027
444.60 1.027
444.70 1.027
444.80 1.027
444.90 1.027
445.00 1.027
445.10 1.027
445.20 1.027
445.30 1.027
445.40 1.027
445.50 1.027
445.60 1.027
445.70 1.027
445.80 1.027
445.90 1.027
446.00 1.027
446.10 1.027
