# Version 2.1 - nm, norm@500 to 1, cut digits, bergeron_10500_70.dat_10500
# Wavelength(nm)  Flambda(ergs/cm^s/s/nm)
300.00 1.413
300.10 1.412
300.20 1.412
300.30 1.411
300.40 1.41
300.50 1.409
300.60 1.409
300.70 1.408
300.80 1.407
300.90 1.407
301.00 1.406
301.10 1.405
301.20 1.404
301.30 1.404
301.40 1.403
301.50 1.402
301.60 1.402
301.70 1.401
301.80 1.4
301.90 1.399
302.00 1.399
302.10 1.398
302.20 1.397
302.30 1.397
302.40 1.396
302.50 1.395
302.60 1.394
302.70 1.394
302.80 1.393
302.90 1.392
303.00 1.392
303.10 1.391
303.20 1.39
303.30 1.389
303.40 1.389
303.50 1.388
303.60 1.387
303.70 1.387
303.80 1.386
303.90 1.385
304.00 1.385
304.10 1.384
304.20 1.383
304.30 1.382
304.40 1.382
304.50 1.381
304.60 1.38
304.70 1.38
304.80 1.379
304.90 1.378
305.00 1.378
305.10 1.377
305.20 1.376
305.30 1.375
305.40 1.375
305.50 1.374
305.60 1.373
305.70 1.373
305.80 1.372
305.90 1.371
306.00 1.371
306.10 1.37
306.20 1.369
306.30 1.368
306.40 1.368
306.50 1.367
306.60 1.366
306.70 1.366
306.80 1.365
306.90 1.364
307.00 1.364
307.10 1.363
307.20 1.362
307.30 1.361
307.40 1.361
307.50 1.36
307.60 1.359
307.70 1.359
307.80 1.358
307.90 1.357
308.00 1.357
308.10 1.356
308.20 1.355
308.30 1.355
308.40 1.354
308.50 1.353
308.60 1.352
308.70 1.352
308.80 1.351
308.90 1.35
309.00 1.35
309.10 1.349
309.20 1.348
309.30 1.348
309.40 1.347
309.50 1.346
309.60 1.346
309.70 1.345
309.80 1.344
309.90 1.344
310.00 1.343
310.10 1.342
310.20 1.342
310.30 1.341
310.40 1.34
310.50 1.339
310.60 1.339
310.70 1.338
310.80 1.337
310.90 1.337
311.00 1.336
311.10 1.335
311.20 1.335
311.30 1.334
311.40 1.333
311.50 1.333
311.60 1.332
311.70 1.331
311.80 1.331
311.90 1.33
312.00 1.329
312.10 1.329
312.20 1.328
312.30 1.327
312.40 1.327
312.50 1.326
312.60 1.325
312.70 1.325
312.80 1.324
312.90 1.323
313.00 1.323
313.10 1.322
313.20 1.321
313.30 1.32
313.40 1.32
313.50 1.319
313.60 1.318
313.70 1.318
313.80 1.317
313.90 1.316
314.00 1.316
314.10 1.315
314.20 1.314
314.30 1.314
314.40 1.313
314.50 1.312
314.60 1.312
314.70 1.311
314.80 1.31
314.90 1.31
315.00 1.309
315.10 1.308
315.20 1.308
315.30 1.307
315.40 1.306
315.50 1.306
315.60 1.305
315.70 1.304
315.80 1.304
315.90 1.303
316.00 1.303
316.10 1.302
316.20 1.301
316.30 1.301
316.40 1.3
316.50 1.299
316.60 1.299
316.70 1.298
316.80 1.297
316.90 1.297
317.00 1.296
317.10 1.295
317.20 1.295
317.30 1.294
317.40 1.293
317.50 1.293
317.60 1.292
317.70 1.291
317.80 1.291
317.90 1.29
318.00 1.289
318.10 1.289
318.20 1.288
318.30 1.287
318.40 1.287
318.50 1.286
318.60 1.285
318.70 1.285
318.80 1.284
318.90 1.283
319.00 1.283
319.10 1.282
319.20 1.281
319.30 1.281
319.40 1.28
319.50 1.28
319.60 1.279
319.70 1.278
319.80 1.278
319.90 1.277
320.00 1.276
320.10 1.276
320.20 1.275
320.30 1.274
320.40 1.274
320.50 1.273
320.60 1.272
320.70 1.272
320.80 1.271
320.90 1.27
321.00 1.27
321.10 1.269
321.20 1.269
321.30 1.268
321.40 1.267
321.50 1.267
321.60 1.266
321.70 1.265
321.80 1.265
321.90 1.264
322.00 1.263
322.10 1.263
322.20 1.262
322.30 1.261
322.40 1.261
322.50 1.26
322.60 1.26
322.70 1.259
322.80 1.258
322.90 1.258
323.00 1.257
323.10 1.256
323.20 1.256
323.30 1.255
323.40 1.254
323.50 1.254
323.60 1.253
323.70 1.253
323.80 1.252
323.90 1.251
324.00 1.251
324.10 1.25
324.20 1.249
324.30 1.249
324.40 1.248
324.50 1.248
324.60 1.247
324.70 1.246
324.80 1.246
324.90 1.245
325.00 1.244
325.10 1.244
325.20 1.243
325.30 1.242
325.40 1.242
325.50 1.241
325.60 1.241
325.70 1.24
325.80 1.239
325.90 1.239
326.00 1.238
326.10 1.237
326.20 1.237
326.30 1.236
326.40 1.236
326.50 1.235
326.60 1.234
326.70 1.234
326.80 1.233
326.90 1.232
327.00 1.232
327.10 1.231
327.20 1.231
327.30 1.23
327.40 1.229
327.50 1.229
327.60 1.228
327.70 1.228
327.80 1.227
327.90 1.226
328.00 1.226
328.10 1.225
328.20 1.224
328.30 1.224
328.40 1.223
328.50 1.223
328.60 1.222
328.70 1.221
328.80 1.221
328.90 1.22
329.00 1.219
329.10 1.219
329.20 1.218
329.30 1.218
329.40 1.217
329.50 1.216
329.60 1.216
329.70 1.215
329.80 1.215
329.90 1.214
330.00 1.213
330.10 1.213
330.20 1.212
330.30 1.212
330.40 1.211
330.50 1.21
330.60 1.21
330.70 1.209
330.80 1.208
330.90 1.208
331.00 1.207
331.10 1.207
331.20 1.206
331.30 1.205
331.40 1.205
331.50 1.204
331.60 1.204
331.70 1.203
331.80 1.202
331.90 1.202
332.00 1.201
332.10 1.201
332.20 1.2
332.30 1.199
332.40 1.199
332.50 1.198
332.60 1.198
332.70 1.197
332.80 1.196
332.90 1.196
333.00 1.195
333.10 1.195
333.20 1.194
333.30 1.193
333.40 1.193
333.50 1.192
333.60 1.192
333.70 1.191
333.80 1.19
333.90 1.19
334.00 1.189
334.10 1.189
334.20 1.188
334.30 1.187
334.40 1.187
334.50 1.186
334.60 1.186
334.70 1.185
334.80 1.184
334.90 1.184
335.00 1.183
335.10 1.183
335.20 1.182
335.30 1.181
335.40 1.181
335.50 1.18
335.60 1.18
335.70 1.179
335.80 1.178
335.90 1.178
336.00 1.177
336.10 1.177
336.20 1.176
336.30 1.175
336.40 1.175
336.50 1.174
336.60 1.174
336.70 1.173
336.80 1.173
336.90 1.172
337.00 1.171
337.10 1.171
337.20 1.17
337.30 1.17
337.40 1.169
337.50 1.168
337.60 1.168
337.70 1.167
337.80 1.167
337.90 1.166
338.00 1.165
338.10 1.165
338.20 1.164
338.30 1.164
338.40 1.163
338.50 1.163
338.60 1.162
338.70 1.161
338.80 1.161
338.90 1.16
339.00 1.16
339.10 1.159
339.20 1.158
339.30 1.158
339.40 1.157
339.50 1.157
339.60 1.156
339.70 1.156
339.80 1.155
339.90 1.154
340.00 1.154
340.10 1.153
340.20 1.153
340.30 1.152
340.40 1.152
340.50 1.151
340.60 1.15
340.70 1.15
340.80 1.149
340.90 1.149
341.00 1.148
341.10 1.148
341.20 1.147
341.30 1.146
341.40 1.146
341.50 1.145
341.60 1.145
341.70 1.144
341.80 1.144
341.90 1.143
342.00 1.142
342.10 1.142
342.20 1.141
342.30 1.141
342.40 1.14
342.50 1.14
342.60 1.139
342.70 1.138
342.80 1.138
342.90 1.137
343.00 1.137
343.10 1.136
343.20 1.136
343.30 1.135
343.40 1.134
343.50 1.134
343.60 1.133
343.70 1.133
343.80 1.132
343.90 1.132
344.00 1.131
344.10 1.13
344.20 1.13
344.30 1.129
344.40 1.129
344.50 1.128
344.60 1.128
344.70 1.127
344.80 1.127
344.90 1.126
345.00 1.125
345.10 1.125
345.20 1.124
345.30 1.124
345.40 1.123
345.50 1.123
345.60 1.122
345.70 1.122
345.80 1.121
345.90 1.12
346.00 1.12
346.10 1.119
346.20 1.119
346.30 1.118
346.40 1.118
346.50 1.117
346.60 1.116
346.70 1.116
346.80 1.115
346.90 1.115
347.00 1.114
347.10 1.114
347.20 1.113
347.30 1.113
347.40 1.112
347.50 1.112
347.60 1.111
347.70 1.11
347.80 1.11
347.90 1.109
348.00 1.109
348.10 1.108
348.20 1.108
348.30 1.107
348.40 1.107
348.50 1.106
348.60 1.105
348.70 1.105
348.80 1.104
348.90 1.104
349.00 1.103
349.10 1.103
349.20 1.102
349.30 1.102
349.40 1.101
349.50 1.101
349.60 1.1
349.70 1.099
349.80 1.099
349.90 1.098
350.00 1.098
350.10 1.097
350.20 1.097
350.30 1.096
350.40 1.096
350.50 1.095
350.60 1.095
350.70 1.094
350.80 1.093
350.90 1.093
351.00 1.092
351.10 1.092
351.20 1.091
351.30 1.091
351.40 1.09
351.50 1.09
351.60 1.089
351.70 1.089
351.80 1.088
351.90 1.088
352.00 1.087
352.10 1.086
352.20 1.086
352.30 1.085
352.40 1.085
352.50 1.084
352.60 1.084
352.70 1.083
352.80 1.083
352.90 1.082
353.00 1.082
353.10 1.081
353.20 1.081
353.30 1.08
353.40 1.079
353.50 1.079
353.60 1.078
353.70 1.078
353.80 1.077
353.90 1.077
354.00 1.076
354.10 1.076
354.20 1.075
354.30 1.075
354.40 1.074
354.50 1.074
354.60 1.073
354.70 1.073
354.80 1.072
354.90 1.071
355.00 1.071
355.10 1.07
355.20 1.07
355.30 1.069
355.40 1.069
355.50 1.068
355.60 1.068
355.70 1.067
355.80 1.067
355.90 1.066
356.00 1.066
356.10 1.065
356.20 1.065
356.30 1.064
356.40 1.064
356.50 1.063
356.60 1.063
356.70 1.062
356.80 1.062
356.90 1.061
357.00 1.06
357.10 1.06
357.20 1.059
357.30 1.059
357.40 1.058
357.50 1.058
357.60 1.057
357.70 1.057
357.80 1.056
357.90 1.056
358.00 1.055
358.10 1.055
358.20 1.054
358.30 1.054
358.40 1.053
358.50 1.053
358.60 1.052
358.70 1.052
358.80 1.051
358.90 1.051
359.00 1.05
359.10 1.05
359.20 1.049
359.30 1.049
359.40 1.048
359.50 1.048
359.60 1.047
359.70 1.046
359.80 1.046
359.90 1.045
360.00 1.045
360.10 1.044
360.20 1.044
360.30 1.043
360.40 1.043
360.50 1.042
360.60 1.042
360.70 1.041
360.80 1.041
360.90 1.04
361.00 1.04
361.10 1.039
361.20 1.039
361.30 1.038
361.40 1.038
361.50 1.037
361.60 1.037
361.70 1.036
361.80 1.036
361.90 1.035
362.00 1.035
362.10 1.034
362.20 1.034
362.30 1.033
362.40 1.033
362.50 1.032
362.60 1.032
362.70 1.031
362.80 1.031
362.90 1.03
363.00 1.03
363.10 1.029
363.20 1.029
363.30 1.028
363.40 1.028
363.50 1.027
363.60 1.026
363.70 1.026
363.80 1.025
363.90 1.025
364.00 1.024
364.10 1.024
364.20 1.023
364.30 1.023
364.40 1.022
364.50 1.022
364.60 1.021
364.70 1.021
364.80 1.02
364.90 1.02
365.00 1.019
365.10 1.019
365.20 1.018
365.30 1.018
365.40 1.017
365.50 1.017
365.60 1.016
365.70 1.016
365.80 1.015
365.90 1.015
366.00 1.014
366.10 1.014
366.20 1.014
366.30 1.013
366.40 1.013
366.50 1.012
366.60 1.012
366.70 1.012
366.80 1.011
366.90 1.011
367.00 1.01
367.10 1.01
367.20 1.009
367.30 1.009
367.40 1.009
367.50 1.008
367.60 1.008
367.70 1.007
367.80 1.007
367.90 1.007
368.00 1.006
368.10 1.007
368.20 1.007
368.30 1.008
368.40 1.009
368.50 1.009
368.60 1.01
368.70 1.011
368.80 1.011
368.90 1.012
369.00 1.013
369.10 1.013
369.20 1.014
369.30 1.015
369.40 1.015
369.50 1.016
369.60 1.016
369.70 1.017
369.80 1.018
369.90 1.018
370.00 1.019
370.10 1.022
370.20 1.024
370.30 1.027
370.40 1.029
370.50 1.032
370.60 1.034
370.70 1.037
370.80 1.04
370.90 1.042
371.00 1.045
371.10 1.047
371.20 1.05
371.30 1.052
371.40 1.055
371.50 1.057
371.60 1.06
371.70 1.062
371.80 1.065
371.90 1.067
372.00 1.07
372.10 1.074
372.20 1.078
372.30 1.082
372.40 1.086
372.50 1.09
372.60 1.094
372.70 1.098
372.80 1.102
372.90 1.105
373.00 1.109
373.10 1.113
373.20 1.117
373.30 1.121
373.40 1.125
373.50 1.129
373.60 1.133
373.70 1.137
373.80 1.141
373.90 1.144
374.00 1.148
374.10 1.152
374.20 1.156
374.30 1.16
374.40 1.164
374.50 1.167
374.60 1.171
374.70 1.175
374.80 1.179
374.90 1.183
375.00 1.186
375.10 1.19
375.20 1.194
375.30 1.198
375.40 1.201
375.50 1.205
375.60 1.209
375.70 1.213
375.80 1.217
375.90 1.22
376.00 1.224
376.10 1.226
376.20 1.228
376.30 1.229
376.40 1.231
376.50 1.233
376.60 1.235
376.70 1.237
376.80 1.238
376.90 1.24
377.00 1.242
377.10 1.239
377.20 1.236
377.30 1.233
377.40 1.23
377.50 1.227
377.60 1.224
377.70 1.221
377.80 1.218
377.90 1.215
378.00 1.213
378.10 1.194
378.20 1.175
378.30 1.157
378.40 1.138
378.50 1.12
378.60 1.101
378.70 1.083
378.80 1.064
378.90 1.046
379.00 1.027
379.10 1.008
379.20 0.9897
379.30 0.971
379.40 0.9524
379.50 0.9338
379.60 0.9152
379.70 0.8966
379.80 0.878
379.90 0.8595
380.00 0.8409
380.10 0.8691
380.20 0.8973
380.30 0.9255
380.40 0.9536
380.50 0.9817
380.60 1.01
380.70 1.038
380.80 1.066
380.90 1.094
381.00 1.122
381.10 1.132
381.20 1.142
381.30 1.152
381.40 1.162
381.50 1.172
381.60 1.173
381.70 1.171
381.80 1.166
381.90 1.159
382.00 1.149
382.10 1.135
382.20 1.117
382.30 1.082
382.40 1.048
382.50 1.014
382.60 0.9792
382.70 0.9449
382.80 0.9106
382.90 0.8764
383.00 0.8421
383.10 0.808
383.20 0.7738
383.30 0.7332
383.40 0.6897
383.50 0.6437
383.60 0.6541
383.70 0.699
383.80 0.7425
383.90 0.783
384.00 0.8234
384.10 0.8654
384.20 0.9079
384.30 0.9499
384.40 0.9902
384.50 1.028
384.60 1.062
384.70 1.094
384.80 1.123
384.90 1.148
385.00 1.171
385.10 1.19
385.20 1.206
385.30 1.22
385.40 1.232
385.50 1.241
385.60 1.25
385.70 1.256
385.80 1.261
385.90 1.264
386.00 1.266
386.10 1.267
386.20 1.266
386.30 1.263
386.40 1.259
386.50 1.255
386.60 1.247
386.70 1.239
386.80 1.23
386.90 1.218
387.00 1.206
387.10 1.191
387.20 1.174
387.30 1.155
387.40 1.135
387.50 1.11
387.60 1.083
387.70 1.054
387.80 1.02
387.90 0.9829
388.00 0.9439
388.10 0.9005
388.20 0.856
388.30 0.8104
388.40 0.765
388.50 0.7206
388.60 0.6773
388.70 0.6324
388.80 0.5846
388.90 0.5337
389.00 0.5813
389.10 0.6275
389.20 0.6724
389.30 0.7155
389.40 0.7595
389.50 0.8046
389.60 0.8504
389.70 0.8953
389.80 0.9393
389.90 0.9796
390.00 1.018
390.10 1.053
390.20 1.085
390.30 1.114
390.40 1.141
390.50 1.165
390.60 1.187
390.70 1.208
390.80 1.226
390.90 1.243
391.00 1.259
391.10 1.274
391.20 1.288
391.30 1.301
391.40 1.313
391.50 1.324
391.60 1.334
391.70 1.343
391.80 1.352
391.90 1.36
392.00 1.366
392.10 1.372
392.20 1.378
392.30 1.382
392.40 1.385
392.50 1.388
392.60 1.39
392.70 1.392
392.80 1.392
392.90 1.392
393.00 1.391
393.10 1.389
393.20 1.386
393.30 1.383
393.40 1.379
393.50 1.374
393.60 1.368
393.70 1.362
393.80 1.354
393.90 1.345
394.00 1.337
394.10 1.326
394.20 1.315
394.30 1.304
394.40 1.29
394.50 1.277
394.60 1.262
394.70 1.246
394.80 1.23
394.90 1.212
395.00 1.193
395.10 1.173
395.20 1.152
395.30 1.129
395.40 1.105
395.50 1.079
395.60 1.052
395.70 1.022
395.80 0.9912
395.90 0.9569
396.00 0.9208
396.10 0.8831
396.20 0.8424
396.30 0.8007
396.40 0.7579
396.50 0.7148
396.60 0.6725
396.70 0.6311
396.80 0.5872
396.90 0.5318
397.00 0.465
397.10 0.5272
397.20 0.5804
397.30 0.6247
397.40 0.6657
397.50 0.7074
397.60 0.7499
397.70 0.7923
397.80 0.8337
397.90 0.874
398.00 0.9115
398.10 0.9473
398.20 0.9813
398.30 1.012
398.40 1.041
398.50 1.069
398.60 1.094
398.70 1.119
398.80 1.142
398.90 1.163
399.00 1.183
399.10 1.203
399.20 1.221
399.30 1.238
399.40 1.255
399.50 1.271
399.60 1.286
399.70 1.301
399.80 1.314
399.90 1.327
400.00 1.34
400.10 1.351
400.20 1.362
400.30 1.373
400.40 1.383
400.50 1.392
400.60 1.402
400.70 1.41
400.80 1.418
400.90 1.426
401.00 1.433
401.10 1.439
401.20 1.446
401.30 1.451
401.40 1.457
401.50 1.462
401.60 1.467
401.70 1.471
401.80 1.475
401.90 1.479
402.00 1.483
402.10 1.486
402.20 1.489
402.30 1.491
402.40 1.494
402.50 1.496
402.60 1.497
402.70 1.499
402.80 1.5
402.90 1.501
403.00 1.502
403.10 1.502
403.20 1.502
403.30 1.503
403.40 1.502
403.50 1.502
403.60 1.501
403.70 1.5
403.80 1.499
403.90 1.497
404.00 1.495
404.10 1.493
404.20 1.491
404.30 1.489
404.40 1.486
404.50 1.483
404.60 1.48
404.70 1.476
404.80 1.472
404.90 1.468
405.00 1.464
405.10 1.459
405.20 1.454
405.30 1.449
405.40 1.443
405.50 1.437
405.60 1.431
405.70 1.424
405.80 1.417
405.90 1.41
406.00 1.402
406.10 1.394
406.20 1.386
406.30 1.377
406.40 1.367
406.50 1.358
406.60 1.347
406.70 1.336
406.80 1.325
406.90 1.313
407.00 1.301
407.10 1.288
407.20 1.274
407.30 1.26
407.40 1.245
407.50 1.229
407.60 1.213
407.70 1.196
407.80 1.178
407.90 1.159
408.00 1.14
408.10 1.12
408.20 1.098
408.30 1.076
408.40 1.054
408.50 1.03
408.60 1.005
408.70 0.9802
408.80 0.9533
408.90 0.9256
409.00 0.897
409.10 0.8664
409.20 0.8348
409.30 0.8022
409.40 0.7675
409.50 0.732
409.60 0.6955
409.70 0.6582
409.80 0.621
409.90 0.5839
410.00 0.5399
410.10 0.4894
410.20 0.4325
410.30 0.5067
410.40 0.5637
410.50 0.6033
410.60 0.64
410.70 0.6767
410.80 0.7133
410.90 0.7486
411.00 0.7828
411.10 0.816
411.20 0.8471
411.30 0.8772
411.40 0.9062
411.50 0.9332
411.60 0.9594
411.70 0.9846
411.80 1.008
411.90 1.031
412.00 1.054
412.10 1.075
412.20 1.095
412.30 1.115
412.40 1.133
412.50 1.151
412.60 1.168
412.70 1.185
412.80 1.2
412.90 1.215
413.00 1.229
413.10 1.243
413.20 1.256
413.30 1.268
413.40 1.28
413.50 1.291
413.60 1.302
413.70 1.312
413.80 1.322
413.90 1.331
414.00 1.339
414.10 1.348
414.20 1.356
414.30 1.364
414.40 1.371
414.50 1.378
414.60 1.385
414.70 1.391
414.80 1.397
414.90 1.403
415.00 1.409
415.10 1.414
415.20 1.419
415.30 1.424
415.40 1.429
415.50 1.433
415.60 1.437
415.70 1.441
415.80 1.445
415.90 1.449
416.00 1.452
416.10 1.456
416.20 1.459
416.30 1.462
416.40 1.465
416.50 1.468
416.60 1.47
416.70 1.473
416.80 1.475
416.90 1.477
417.00 1.479
417.10 1.481
417.20 1.483
417.30 1.485
417.40 1.487
417.50 1.488
417.60 1.49
417.70 1.491
417.80 1.493
417.90 1.494
418.00 1.495
418.10 1.496
418.20 1.497
418.30 1.498
418.40 1.499
418.50 1.5
418.60 1.501
418.70 1.501
418.80 1.502
418.90 1.502
419.00 1.503
419.10 1.503
419.20 1.504
419.30 1.504
419.40 1.504
419.50 1.504
419.60 1.504
419.70 1.505
419.80 1.505
419.90 1.505
420.00 1.505
420.10 1.505
420.20 1.504
420.30 1.504
420.40 1.504
420.50 1.504
420.60 1.503
420.70 1.503
420.80 1.503
420.90 1.502
421.00 1.502
421.10 1.501
421.20 1.501
421.30 1.5
421.40 1.5
421.50 1.499
421.60 1.499
421.70 1.498
421.80 1.497
421.90 1.496
422.00 1.496
422.10 1.495
422.20 1.494
422.30 1.493
422.40 1.492
422.50 1.491
422.60 1.49
422.70 1.489
422.80 1.488
422.90 1.487
423.00 1.486
423.10 1.484
423.20 1.483
423.30 1.482
423.40 1.481
423.50 1.479
423.60 1.478
423.70 1.476
423.80 1.475
423.90 1.473
424.00 1.472
424.10 1.47
424.20 1.469
424.30 1.467
424.40 1.465
424.50 1.464
424.60 1.462
424.70 1.46
424.80 1.458
424.90 1.456
425.00 1.454
425.10 1.452
425.20 1.45
425.30 1.448
425.40 1.446
425.50 1.443
425.60 1.441
425.70 1.439
425.80 1.436
425.90 1.434
426.00 1.431
426.10 1.429
426.20 1.425
426.30 1.422
426.40 1.42
426.50 1.417
426.60 1.414
426.70 1.411
426.80 1.407
426.90 1.404
427.00 1.401
427.10 1.397
427.20 1.394
427.30 1.39
427.40 1.386
427.50 1.383
427.60 1.379
427.70 1.375
427.80 1.37
427.90 1.366
428.00 1.362
428.10 1.357
428.20 1.352
428.30 1.348
428.40 1.343
428.50 1.337
428.60 1.332
428.70 1.327
428.80 1.321
428.90 1.315
429.00 1.309
429.10 1.303
429.20 1.296
429.30 1.29
429.40 1.283
429.50 1.276
429.60 1.269
429.70 1.261
429.80 1.253
429.90 1.245
430.00 1.237
430.10 1.228
430.20 1.219
430.30 1.21
430.40 1.2
430.50 1.191
430.60 1.18
430.70 1.17
430.80 1.159
430.90 1.148
431.00 1.136
431.10 1.124
431.20 1.112
431.30 1.1
431.40 1.087
431.50 1.073
431.60 1.059
431.70 1.044
431.80 1.029
431.90 1.013
432.00 0.9954
432.10 0.9774
432.20 0.9578
432.30 0.9371
432.40 0.9154
432.50 0.8914
432.60 0.8663
432.70 0.8402
432.80 0.8134
432.90 0.7869
433.00 0.7609
433.10 0.7361
433.20 0.7111
433.30 0.6857
433.40 0.6579
433.50 0.6288
433.60 0.5986
433.70 0.5674
433.80 0.5334
433.90 0.4968
434.00 0.4048
434.10 0.406
434.20 0.5
434.30 0.5357
434.40 0.5689
434.50 0.5997
434.60 0.6294
434.70 0.6578
434.80 0.685
434.90 0.7096
435.00 0.7339
435.10 0.758
435.20 0.7834
435.30 0.809
435.40 0.8349
435.50 0.8599
435.60 0.8838
435.70 0.9066
435.80 0.9271
435.90 0.9465
436.00 0.9649
436.10 0.9815
436.20 0.9975
436.30 1.013
436.40 1.027
436.50 1.04
436.60 1.053
436.70 1.065
436.80 1.076
436.90 1.088
437.00 1.098
437.10 1.109
437.20 1.119
437.30 1.128
437.40 1.138
437.50 1.147
437.60 1.156
437.70 1.164
437.80 1.172
437.90 1.18
438.00 1.187
438.10 1.194
438.20 1.201
438.30 1.207
438.40 1.214
438.50 1.22
438.60 1.225
438.70 1.231
438.80 1.236
438.90 1.241
439.00 1.246
439.10 1.251
439.20 1.255
439.30 1.259
439.40 1.263
439.50 1.267
439.60 1.271
439.70 1.274
439.80 1.278
439.90 1.281
440.00 1.284
440.10 1.287
440.20 1.29
440.30 1.293
440.40 1.295
440.50 1.298
440.60 1.3
440.70 1.303
440.80 1.305
440.90 1.307
441.00 1.309
441.10 1.311
441.20 1.313
441.30 1.314
441.40 1.316
441.50 1.318
441.60 1.319
441.70 1.321
441.80 1.322
441.90 1.323
442.00 1.324
442.10 1.325
442.20 1.327
442.30 1.328
442.40 1.329
442.50 1.33
442.60 1.33
442.70 1.331
442.80 1.332
442.90 1.333
443.00 1.333
443.10 1.334
443.20 1.335
443.30 1.335
443.40 1.336
443.50 1.336
443.60 1.337
443.70 1.337
443.80 1.338
443.90 1.338
444.00 1.338
444.10 1.338
444.20 1.339
444.30 1.339
444.40 1.339
444.50 1.339
444.60 1.339
444.70 1.34
444.80 1.34
444.90 1.34
445.00 1.34
445.10 1.34
445.20 1.34
445.30 1.34
445.40 1.34
445.50 1.34
445.60 1.34
445.70 1.34
445.80 1.339
445.90 1.339
446.00 1.339
446.10 1.339
446.20 1.339
446.30 1.339
446.40 1.339
446.50 1.338
446.60 1.338
446.70 1.338
446.80 1.338
446.90 1.337
447.00 1.337
447.10 1.337
447.20 1.336
447.30 1.336
447.40 1.336
447.50 1.335
447.60 1.335
447.70 1.335
447.80 1.334
447.90 1.334
448.00 1.334
448.10 1.333
448.20 1.333
448.30 1.332
448.40 1.332
448.50 1.332
448.60 1.331
448.70 1.331
448.80 1.33
448.90 1.33
449.00 1.329
449.10 1.329
449.20 1.329
449.30 1.328
449.40 1.328
449.50 1.327
449.60 1.327
449.70 1.326
449.80 1.326
449.90 1.325
450.00 1.324
450.10 1.324
450.20 1.323
450.30 1.323
450.40 1.322
450.50 1.322
450.60 1.321
450.70 1.321
450.80 1.32
450.90 1.32
451.00 1.319
451.10 1.318
451.20 1.318
451.30 1.317
451.40 1.317
451.50 1.316
451.60 1.315
451.70 1.315
451.80 1.314
451.90 1.314
452.00 1.313
452.10 1.312
452.20 1.312
452.30 1.311
452.40 1.311
452.50 1.31
452.60 1.309
452.70 1.309
452.80 1.308
452.90 1.307
453.00 1.307
