# Version 2.1 - nm, norm@500 to 1, cut digits, bergeron_130000_75.dat_130000
# Wavelength(nm)  Flambda(ergs/cm^s/s/nm)
300.00 7.001
300.10 6.992
300.20 6.983
300.30 6.974
300.40 6.965
300.50 6.957
300.60 6.948
300.70 6.939
300.80 6.93
300.90 6.921
301.00 6.913
301.10 6.904
301.20 6.895
301.30 6.887
301.40 6.878
301.50 6.869
301.60 6.86
301.70 6.852
301.80 6.843
301.90 6.835
302.00 6.826
302.10 6.817
302.20 6.809
302.30 6.8
302.40 6.792
302.50 6.783
302.60 6.774
302.70 6.766
302.80 6.757
302.90 6.749
303.00 6.74
303.10 6.732
303.20 6.724
303.30 6.715
303.40 6.707
303.50 6.698
303.60 6.69
303.70 6.681
303.80 6.673
303.90 6.665
304.00 6.656
304.10 6.648
304.20 6.64
304.30 6.631
304.40 6.623
304.50 6.615
304.60 6.607
304.70 6.598
304.80 6.59
304.90 6.582
305.00 6.574
305.10 6.565
305.20 6.557
305.30 6.549
305.40 6.541
305.50 6.533
305.60 6.525
305.70 6.516
305.80 6.508
305.90 6.5
306.00 6.492
306.10 6.484
306.20 6.476
306.30 6.468
306.40 6.46
306.50 6.452
306.60 6.444
306.70 6.436
306.80 6.428
306.90 6.42
307.00 6.412
307.10 6.404
307.20 6.396
307.30 6.388
307.40 6.38
307.50 6.372
307.60 6.364
307.70 6.356
307.80 6.349
307.90 6.341
308.00 6.333
308.10 6.325
308.20 6.317
308.30 6.309
308.40 6.302
308.50 6.294
308.60 6.286
308.70 6.278
308.80 6.271
308.90 6.263
309.00 6.255
309.10 6.247
309.20 6.24
309.30 6.232
309.40 6.224
309.50 6.217
309.60 6.209
309.70 6.201
309.80 6.194
309.90 6.186
310.00 6.178
310.10 6.171
310.20 6.163
310.30 6.156
310.40 6.148
310.50 6.141
310.60 6.133
310.70 6.126
310.80 6.118
310.90 6.111
311.00 6.103
311.10 6.096
311.20 6.088
311.30 6.081
311.40 6.073
311.50 6.066
311.60 6.058
311.70 6.051
311.80 6.044
311.90 6.036
312.00 6.029
312.10 6.021
312.20 6.014
312.30 6.007
312.40 5.999
312.50 5.992
312.60 5.985
312.70 5.977
312.80 5.97
312.90 5.963
313.00 5.956
313.10 5.948
313.20 5.941
313.30 5.934
313.40 5.927
313.50 5.919
313.60 5.912
313.70 5.905
313.80 5.898
313.90 5.891
314.00 5.884
314.10 5.876
314.20 5.869
314.30 5.862
314.40 5.855
314.50 5.848
314.60 5.841
314.70 5.834
314.80 5.827
314.90 5.82
315.00 5.813
315.10 5.806
315.20 5.799
315.30 5.792
315.40 5.785
315.50 5.778
315.60 5.771
315.70 5.764
315.80 5.757
315.90 5.75
316.00 5.743
316.10 5.736
316.20 5.729
316.30 5.722
316.40 5.715
316.50 5.708
316.60 5.701
316.70 5.694
316.80 5.688
316.90 5.681
317.00 5.674
317.10 5.667
317.20 5.66
317.30 5.654
317.40 5.647
317.50 5.64
317.60 5.633
317.70 5.626
317.80 5.62
317.90 5.613
318.00 5.606
318.10 5.599
318.20 5.593
318.30 5.586
318.40 5.579
318.50 5.573
318.60 5.566
318.70 5.559
318.80 5.553
318.90 5.546
319.00 5.539
319.10 5.533
319.20 5.526
319.30 5.52
319.40 5.513
319.50 5.506
319.60 5.5
319.70 5.493
319.80 5.487
319.90 5.48
320.00 5.474
320.10 5.467
320.20 5.461
320.30 5.454
320.40 5.448
320.50 5.441
320.60 5.435
320.70 5.428
320.80 5.422
320.90 5.415
321.00 5.409
321.10 5.402
321.20 5.396
321.30 5.39
321.40 5.383
321.50 5.377
321.60 5.37
321.70 5.364
321.80 5.358
321.90 5.351
322.00 5.345
322.10 5.339
322.20 5.332
322.30 5.326
322.40 5.32
322.50 5.313
322.60 5.307
322.70 5.301
322.80 5.295
322.90 5.288
323.00 5.282
323.10 5.276
323.20 5.27
323.30 5.263
323.40 5.257
323.50 5.251
323.60 5.245
323.70 5.239
323.80 5.232
323.90 5.226
324.00 5.22
324.10 5.214
324.20 5.208
324.30 5.202
324.40 5.196
324.50 5.189
324.60 5.183
324.70 5.177
324.80 5.171
324.90 5.165
325.00 5.159
325.10 5.153
325.20 5.147
325.30 5.141
325.40 5.135
325.50 5.129
325.60 5.123
325.70 5.117
325.80 5.111
325.90 5.105
326.00 5.099
326.10 5.093
326.20 5.087
326.30 5.081
326.40 5.075
326.50 5.069
326.60 5.063
326.70 5.057
326.80 5.051
326.90 5.045
327.00 5.039
327.10 5.034
327.20 5.028
327.30 5.022
327.40 5.016
327.50 5.01
327.60 5.004
327.70 4.999
327.80 4.993
327.90 4.987
328.00 4.981
328.10 4.975
328.20 4.969
328.30 4.964
328.40 4.958
328.50 4.952
328.60 4.946
328.70 4.941
328.80 4.935
328.90 4.929
329.00 4.923
329.10 4.918
329.20 4.912
329.30 4.906
329.40 4.901
329.50 4.895
329.60 4.889
329.70 4.884
329.80 4.878
329.90 4.872
330.00 4.867
330.10 4.861
330.20 4.855
330.30 4.85
330.40 4.844
330.50 4.839
330.60 4.833
330.70 4.828
330.80 4.822
330.90 4.816
331.00 4.811
331.10 4.805
331.20 4.8
331.30 4.794
331.40 4.789
331.50 4.783
331.60 4.778
331.70 4.772
331.80 4.767
331.90 4.761
332.00 4.756
332.10 4.75
332.20 4.745
332.30 4.739
332.40 4.734
332.50 4.728
332.60 4.723
332.70 4.718
332.80 4.712
332.90 4.707
333.00 4.701
333.10 4.696
333.20 4.691
333.30 4.685
333.40 4.68
333.50 4.674
333.60 4.669
333.70 4.664
333.80 4.658
333.90 4.653
334.00 4.648
334.10 4.642
334.20 4.637
334.30 4.632
334.40 4.627
334.50 4.621
334.60 4.616
334.70 4.611
334.80 4.605
334.90 4.6
335.00 4.595
335.10 4.59
335.20 4.585
335.30 4.579
335.40 4.574
335.50 4.569
335.60 4.564
335.70 4.558
335.80 4.553
335.90 4.548
336.00 4.543
336.10 4.538
336.20 4.533
336.30 4.527
336.40 4.522
336.50 4.517
336.60 4.512
336.70 4.507
336.80 4.502
336.90 4.497
337.00 4.492
337.10 4.487
337.20 4.481
337.30 4.476
337.40 4.471
337.50 4.466
337.60 4.461
337.70 4.456
337.80 4.451
337.90 4.446
338.00 4.441
338.10 4.436
338.20 4.431
338.30 4.426
338.40 4.421
338.50 4.416
338.60 4.411
338.70 4.406
338.80 4.401
338.90 4.396
339.00 4.391
339.10 4.386
339.20 4.381
339.30 4.376
339.40 4.371
339.50 4.366
339.60 4.361
339.70 4.357
339.80 4.352
339.90 4.347
340.00 4.342
340.10 4.337
340.20 4.332
340.30 4.327
340.40 4.322
340.50 4.318
340.60 4.313
340.70 4.308
340.80 4.303
340.90 4.298
341.00 4.293
341.10 4.289
341.20 4.284
341.30 4.279
341.40 4.274
341.50 4.269
341.60 4.265
341.70 4.26
341.80 4.255
341.90 4.25
342.00 4.246
342.10 4.241
342.20 4.236
342.30 4.231
342.40 4.227
342.50 4.222
342.60 4.217
342.70 4.213
342.80 4.208
342.90 4.203
343.00 4.198
343.10 4.194
343.20 4.189
343.30 4.184
343.40 4.18
343.50 4.175
343.60 4.17
343.70 4.166
343.80 4.161
343.90 4.156
344.00 4.152
344.10 4.147
344.20 4.143
344.30 4.138
344.40 4.133
344.50 4.129
344.60 4.124
344.70 4.12
344.80 4.115
344.90 4.111
345.00 4.106
345.10 4.102
345.20 4.097
345.30 4.092
345.40 4.088
345.50 4.083
345.60 4.079
345.70 4.074
345.80 4.07
345.90 4.065
346.00 4.061
346.10 4.056
346.20 4.052
346.30 4.047
346.40 4.043
346.50 4.038
346.60 4.034
346.70 4.03
346.80 4.025
346.90 4.021
347.00 4.016
347.10 4.012
347.20 4.007
347.30 4.003
347.40 3.999
347.50 3.994
347.60 3.99
347.70 3.985
347.80 3.981
347.90 3.977
348.00 3.972
348.10 3.968
348.20 3.964
348.30 3.959
348.40 3.955
348.50 3.951
348.60 3.946
348.70 3.942
348.80 3.938
348.90 3.933
349.00 3.929
349.10 3.925
349.20 3.92
349.30 3.916
349.40 3.912
349.50 3.907
349.60 3.903
349.70 3.899
349.80 3.895
349.90 3.89
350.00 3.886
350.10 3.882
350.20 3.878
350.30 3.873
350.40 3.869
350.50 3.865
350.60 3.861
350.70 3.856
350.80 3.852
350.90 3.848
351.00 3.844
351.10 3.84
351.20 3.836
351.30 3.831
351.40 3.827
351.50 3.823
351.60 3.819
351.70 3.815
351.80 3.81
351.90 3.806
352.00 3.802
352.10 3.798
352.20 3.794
352.30 3.79
352.40 3.786
352.50 3.782
352.60 3.778
352.70 3.773
352.80 3.769
352.90 3.765
353.00 3.761
353.10 3.757
353.20 3.753
353.30 3.749
353.40 3.745
353.50 3.741
353.60 3.737
353.70 3.733
353.80 3.729
353.90 3.725
354.00 3.721
354.10 3.717
354.20 3.713
354.30 3.709
354.40 3.705
354.50 3.701
354.60 3.697
354.70 3.693
354.80 3.689
354.90 3.685
355.00 3.681
355.10 3.677
355.20 3.673
355.30 3.669
355.40 3.665
355.50 3.661
355.60 3.657
355.70 3.653
355.80 3.649
355.90 3.645
356.00 3.641
356.10 3.637
356.20 3.633
356.30 3.629
356.40 3.626
356.50 3.622
356.60 3.618
356.70 3.614
356.80 3.61
356.90 3.606
357.00 3.602
357.10 3.598
357.20 3.595
357.30 3.591
357.40 3.587
357.50 3.583
357.60 3.579
357.70 3.575
357.80 3.572
357.90 3.568
358.00 3.564
358.10 3.56
358.20 3.556
358.30 3.552
358.40 3.549
358.50 3.545
358.60 3.541
358.70 3.537
358.80 3.534
358.90 3.53
359.00 3.526
359.10 3.522
359.20 3.519
359.30 3.515
359.40 3.511
359.50 3.507
359.60 3.504
359.70 3.5
359.80 3.496
359.90 3.492
360.00 3.489
360.10 3.485
360.20 3.481
360.30 3.478
360.40 3.474
360.50 3.47
360.60 3.466
360.70 3.463
360.80 3.459
360.90 3.455
361.00 3.452
361.10 3.448
361.20 3.444
361.30 3.441
361.40 3.437
361.50 3.434
361.60 3.43
361.70 3.426
361.80 3.423
361.90 3.419
362.00 3.415
362.10 3.412
362.20 3.408
362.30 3.405
362.40 3.401
362.50 3.397
362.60 3.394
362.70 3.39
362.80 3.387
362.90 3.383
363.00 3.379
363.10 3.376
363.20 3.372
363.30 3.369
363.40 3.365
363.50 3.362
363.60 3.358
363.70 3.355
363.80 3.351
363.90 3.348
364.00 3.344
364.10 3.341
364.20 3.337
364.30 3.333
364.40 3.33
364.50 3.326
364.60 3.323
364.70 3.319
364.80 3.316
364.90 3.313
365.00 3.309
365.10 3.306
365.20 3.302
365.30 3.299
365.40 3.295
365.50 3.292
365.60 3.288
365.70 3.285
365.80 3.281
365.90 3.278
366.00 3.275
366.10 3.271
366.20 3.268
366.30 3.264
366.40 3.261
366.50 3.257
366.60 3.254
366.70 3.25
366.80 3.247
366.90 3.244
367.00 3.24
367.10 3.237
367.20 3.233
367.30 3.23
367.40 3.227
367.50 3.223
367.60 3.22
367.70 3.216
367.80 3.213
367.90 3.21
368.00 3.206
368.10 3.203
368.20 3.199
368.30 3.196
368.40 3.193
368.50 3.189
368.60 3.186
368.70 3.183
368.80 3.179
368.90 3.176
369.00 3.173
369.10 3.169
369.20 3.166
369.30 3.163
369.40 3.159
369.50 3.156
369.60 3.153
369.70 3.149
369.80 3.146
369.90 3.143
370.00 3.139
370.10 3.136
370.20 3.133
370.30 3.13
370.40 3.126
370.50 3.123
370.60 3.12
370.70 3.117
370.80 3.113
370.90 3.11
371.00 3.107
371.10 3.104
371.20 3.1
371.30 3.097
371.40 3.094
371.50 3.091
371.60 3.087
371.70 3.084
371.80 3.081
371.90 3.078
372.00 3.075
372.10 3.071
372.20 3.068
372.30 3.065
372.40 3.062
372.50 3.059
372.60 3.056
372.70 3.052
372.80 3.049
372.90 3.046
373.00 3.043
373.10 3.04
373.20 3.037
373.30 3.034
373.40 3.03
373.50 3.027
373.60 3.024
373.70 3.021
373.80 3.018
373.90 3.015
374.00 3.012
374.10 3.009
374.20 3.005
374.30 3.002
374.40 2.999
374.50 2.996
374.60 2.993
374.70 2.99
374.80 2.987
374.90 2.984
375.00 2.981
375.10 2.978
375.20 2.975
375.30 2.972
375.40 2.969
375.50 2.965
375.60 2.962
375.70 2.959
375.80 2.956
375.90 2.953
376.00 2.95
376.10 2.947
376.20 2.944
376.30 2.941
376.40 2.938
376.50 2.935
376.60 2.932
376.70 2.929
376.80 2.926
376.90 2.923
377.00 2.92
377.10 2.917
377.20 2.915
377.30 2.912
377.40 2.909
377.50 2.906
377.60 2.903
377.70 2.9
377.80 2.897
377.90 2.894
378.00 2.891
378.10 2.888
378.20 2.885
378.30 2.882
378.40 2.879
378.50 2.877
378.60 2.874
378.70 2.871
378.80 2.868
378.90 2.865
379.00 2.862
379.10 2.859
379.20 2.856
379.30 2.854
379.40 2.851
379.50 2.848
379.60 2.845
379.70 2.842
379.80 2.839
379.90 2.837
380.00 2.834
380.10 2.831
380.20 2.828
380.30 2.826
380.40 2.823
380.50 2.82
380.60 2.817
380.70 2.815
380.80 2.812
380.90 2.809
381.00 2.806
381.10 2.804
381.20 2.801
381.30 2.798
381.40 2.795
381.50 2.793
381.60 2.79
381.70 2.787
381.80 2.784
381.90 2.781
382.00 2.779
382.10 2.776
382.20 2.773
382.30 2.77
382.40 2.767
382.50 2.764
382.60 2.762
382.70 2.759
382.80 2.756
382.90 2.753
383.00 2.75
383.10 2.747
383.20 2.745
383.30 2.742
383.40 2.739
383.50 2.736
383.60 2.734
383.70 2.731
383.80 2.729
383.90 2.726
384.00 2.724
384.10 2.721
384.20 2.719
384.30 2.717
384.40 2.714
384.50 2.712
384.60 2.71
384.70 2.707
384.80 2.705
384.90 2.702
385.00 2.7
385.10 2.697
385.20 2.695
385.30 2.692
385.40 2.69
385.50 2.687
385.60 2.685
385.70 2.682
385.80 2.679
385.90 2.677
386.00 2.674
386.10 2.671
386.20 2.668
386.30 2.666
386.40 2.663
386.50 2.66
386.60 2.657
386.70 2.654
386.80 2.651
386.90 2.649
387.00 2.646
387.10 2.643
387.20 2.64
387.30 2.637
387.40 2.634
387.50 2.63
387.60 2.627
387.70 2.624
387.80 2.621
387.90 2.618
388.00 2.615
388.10 2.612
388.20 2.608
388.30 2.605
388.40 2.602
388.50 2.599
388.60 2.596
388.70 2.593
388.80 2.591
388.90 2.589
389.00 2.586
389.10 2.584
389.20 2.582
389.30 2.58
389.40 2.578
389.50 2.576
389.60 2.575
389.70 2.573
389.80 2.571
389.90 2.57
390.00 2.568
390.10 2.566
390.20 2.565
390.30 2.563
390.40 2.561
390.50 2.559
390.60 2.558
390.70 2.556
390.80 2.554
390.90 2.552
391.00 2.55
391.10 2.548
391.20 2.546
391.30 2.544
391.40 2.542
391.50 2.54
391.60 2.538
391.70 2.536
391.80 2.534
391.90 2.531
392.00 2.529
392.10 2.527
392.20 2.524
392.30 2.522
392.40 2.52
392.50 2.517
392.60 2.515
392.70 2.512
392.80 2.51
392.90 2.507
393.00 2.504
393.10 2.502
393.20 2.499
393.30 2.496
393.40 2.494
393.50 2.491
393.60 2.488
393.70 2.485
393.80 2.482
393.90 2.479
394.00 2.476
394.10 2.473
394.20 2.47
394.30 2.467
394.40 2.463
394.50 2.46
394.60 2.457
394.70 2.453
394.80 2.45
394.90 2.446
395.00 2.443
395.10 2.439
395.20 2.435
395.30 2.432
395.40 2.428
395.50 2.424
395.60 2.42
395.70 2.416
395.80 2.412
395.90 2.408
396.00 2.404
396.10 2.4
396.20 2.395
396.30 2.391
396.40 2.387
396.50 2.383
396.60 2.378
396.70 2.374
396.80 2.37
396.90 2.366
397.00 2.362
397.10 2.361
397.20 2.361
397.30 2.361
397.40 2.36
397.50 2.36
397.60 2.36
397.70 2.36
397.80 2.36
397.90 2.36
398.00 2.359
398.10 2.359
398.20 2.359
398.30 2.358
398.40 2.358
398.50 2.357
398.60 2.357
398.70 2.356
398.80 2.355
398.90 2.355
399.00 2.354
399.10 2.353
399.20 2.352
399.30 2.351
399.40 2.35
399.50 2.349
399.60 2.348
399.70 2.347
399.80 2.345
399.90 2.344
400.00 2.343
400.10 2.341
400.20 2.34
400.30 2.339
400.40 2.337
400.50 2.336
400.60 2.334
400.70 2.333
400.80 2.331
400.90 2.329
401.00 2.328
401.10 2.326
401.20 2.324
401.30 2.322
401.40 2.321
401.50 2.319
401.60 2.317
401.70 2.315
401.80 2.313
401.90 2.311
402.00 2.309
402.10 2.307
402.20 2.305
402.30 2.303
402.40 2.301
402.50 2.299
402.60 2.297
402.70 2.295
402.80 2.293
402.90 2.291
403.00 2.289
403.10 2.287
403.20 2.285
403.30 2.283
403.40 2.281
403.50 2.278
403.60 2.276
403.70 2.274
403.80 2.272
403.90 2.269
404.00 2.267
404.10 2.265
404.20 2.263
404.30 2.26
404.40 2.258
404.50 2.256
404.60 2.253
404.70 2.251
404.80 2.248
404.90 2.246
405.00 2.243
405.10 2.241
405.20 2.238
405.30 2.236
405.40 2.233
405.50 2.231
405.60 2.228
405.70 2.225
405.80 2.223
405.90 2.22
406.00 2.217
406.10 2.214
406.20 2.212
406.30 2.209
406.40 2.206
406.50 2.203
406.60 2.2
406.70 2.197
406.80 2.193
406.90 2.19
407.00 2.187
407.10 2.184
407.20 2.18
407.30 2.177
407.40 2.173
407.50 2.169
407.60 2.166
407.70 2.162
407.80 2.158
407.90 2.154
408.00 2.15
408.10 2.146
408.20 2.141
408.30 2.137
408.40 2.132
408.50 2.127
408.60 2.123
408.70 2.118
408.80 2.113
408.90 2.107
409.00 2.102
409.10 2.096
409.20 2.091
409.30 2.085
409.40 2.079
409.50 2.073
409.60 2.067
409.70 2.061
409.80 2.056
409.90 2.05
410.00 2.048
410.10 2.047
410.20 2.047
410.30 2.043
410.40 2.041
410.50 2.041
410.60 2.043
410.70 2.045
410.80 2.047
410.90 2.049
411.00 2.051
411.10 2.053
411.20 2.055
411.30 2.057
411.40 2.058
411.50 2.059
411.60 2.061
411.70 2.062
411.80 2.063
411.90 2.064
412.00 2.064
412.10 2.065
412.20 2.065
412.30 2.066
412.40 2.066
412.50 2.066
412.60 2.066
412.70 2.066
412.80 2.065
412.90 2.065
413.00 2.065
413.10 2.064
413.20 2.064
413.30 2.063
413.40 2.062
413.50 2.062
413.60 2.061
413.70 2.06
413.80 2.059
413.90 2.058
414.00 2.057
414.10 2.056
414.20 2.055
414.30 2.054
414.40 2.053
414.50 2.051
414.60 2.05
414.70 2.049
414.80 2.047
414.90 2.046
415.00 2.045
415.10 2.043
415.20 2.042
415.30 2.04
415.40 2.039
415.50 2.037
415.60 2.036
415.70 2.034
415.80 2.033
415.90 2.031
416.00 2.03
416.10 2.028
416.20 2.026
416.30 2.025
416.40 2.023
416.50 2.022
416.60 2.02
416.70 2.018
416.80 2.017
416.90 2.015
417.00 2.013
417.10 2.012
417.20 2.01
417.30 2.008
417.40 2.006
417.50 2.005
417.60 2.003
417.70 2.001
417.80 2
417.90 1.998
418.00 1.996
418.10 1.994
418.20 1.993
418.30 1.991
418.40 1.989
418.50 1.988
418.60 1.986
418.70 1.984
418.80 1.982
418.90 1.981
419.00 1.979
419.10 1.977
419.20 1.975
419.30 1.974
419.40 1.972
419.50 1.97
419.60 1.968
419.70 1.966
419.80 1.965
419.90 1.963
420.00 1.961
420.10 1.959
420.20 1.958
420.30 1.956
420.40 1.954
420.50 1.952
420.60 1.951
420.70 1.949
420.80 1.947
420.90 1.945
421.00 1.944
421.10 1.942
421.20 1.94
421.30 1.938
421.40 1.937
421.50 1.935
421.60 1.933
421.70 1.931
421.80 1.929
421.90 1.928
422.00 1.926
422.10 1.924
422.20 1.922
422.30 1.921
422.40 1.919
422.50 1.917
422.60 1.915
422.70 1.914
422.80 1.912
422.90 1.91
423.00 1.908
423.10 1.907
423.20 1.905
423.30 1.903
423.40 1.901
423.50 1.9
423.60 1.898
423.70 1.896
423.80 1.894
423.90 1.893
424.00 1.891
424.10 1.889
424.20 1.887
424.30 1.886
424.40 1.884
424.50 1.882
424.60 1.88
424.70 1.878
424.80 1.877
424.90 1.875
425.00 1.873
425.10 1.871
425.20 1.87
425.30 1.868
425.40 1.866
425.50 1.864
425.60 1.863
425.70 1.861
425.80 1.859
425.90 1.857
426.00 1.855
426.10 1.854
426.20 1.852
426.30 1.85
426.40 1.848
426.50 1.847
426.60 1.845
426.70 1.843
426.80 1.841
426.90 1.839
427.00 1.838
427.10 1.836
427.20 1.834
427.30 1.832
427.40 1.83
427.50 1.828
427.60 1.826
427.70 1.825
427.80 1.823
427.90 1.821
428.00 1.819
428.10 1.817
428.20 1.815
428.30 1.813
428.40 1.811
428.50 1.809
428.60 1.807
428.70 1.805
428.80 1.803
428.90 1.801
429.00 1.799
429.10 1.797
429.20 1.795
429.30 1.793
429.40 1.791
429.50 1.789
429.60 1.787
429.70 1.784
429.80 1.782
429.90 1.78
430.00 1.777
430.10 1.775
430.20 1.773
430.30 1.77
430.40 1.768
430.50 1.765
430.60 1.762
430.70 1.76
430.80 1.757
430.90 1.754
431.00 1.751
431.10 1.748
431.20 1.745
431.30 1.742
431.40 1.738
431.50 1.735
431.60 1.731
431.70 1.728
431.80 1.724
431.90 1.72
432.00 1.716
432.10 1.711
432.20 1.707
432.30 1.702
432.40 1.698
432.50 1.693
432.60 1.688
432.70 1.682
432.80 1.677
432.90 1.671
433.00 1.665
433.10 1.659
433.20 1.653
433.30 1.647
433.40 1.64
433.50 1.633
433.60 1.627
433.70 1.62
433.80 1.613
433.90 1.605
434.00 1.598
434.10 1.597
434.20 1.602
434.30 1.606
434.40 1.61
434.50 1.614
434.60 1.618
434.70 1.622
434.80 1.626
434.90 1.629
435.00 1.632
435.10 1.636
435.20 1.638
435.30 1.641
435.40 1.644
435.50 1.646
435.60 1.648
435.70 1.65
435.80 1.652
435.90 1.653
436.00 1.655
436.10 1.656
436.20 1.657
436.30 1.658
436.40 1.658
436.50 1.659
436.60 1.659
436.70 1.66
436.80 1.66
436.90 1.66
437.00 1.66
437.10 1.66
437.20 1.66
437.30 1.66
437.40 1.659
437.50 1.659
437.60 1.658
437.70 1.658
437.80 1.657
437.90 1.657
438.00 1.656
438.10 1.655
438.20 1.654
438.30 1.654
438.40 1.653
438.50 1.652
438.60 1.651
438.70 1.65
438.80 1.649
438.90 1.648
439.00 1.647
439.10 1.646
439.20 1.645
439.30 1.644
439.40 1.643
439.50 1.641
439.60 1.64
439.70 1.639
439.80 1.638
439.90 1.637
440.00 1.636
440.10 1.634
440.20 1.633
440.30 1.632
440.40 1.631
440.50 1.629
440.60 1.628
440.70 1.627
440.80 1.626
440.90 1.624
441.00 1.623
441.10 1.622
441.20 1.621
441.30 1.619
441.40 1.618
441.50 1.617
441.60 1.615
441.70 1.614
441.80 1.613
441.90 1.611
442.00 1.61
442.10 1.609
442.20 1.607
442.30 1.606
442.40 1.605
442.50 1.603
442.60 1.602
442.70 1.601
442.80 1.599
442.90 1.598
443.00 1.597
443.10 1.595
443.20 1.594
443.30 1.593
443.40 1.591
443.50 1.59
443.60 1.589
443.70 1.587
443.80 1.586
443.90 1.585
444.00 1.583
444.10 1.582
444.20 1.581
444.30 1.579
444.40 1.578
444.50 1.577
444.60 1.575
444.70 1.574
444.80 1.573
444.90 1.571
445.00 1.57
445.10 1.569
445.20 1.567
445.30 1.566
445.40 1.565
445.50 1.563
445.60 1.562
445.70 1.561
445.80 1.559
445.90 1.558
446.00 1.557
446.10 1.555
446.20 1.554
446.30 1.553
446.40 1.551
446.50 1.55
446.60 1.549
446.70 1.547
446.80 1.546
446.90 1.545
447.00 1.543
447.10 1.542
447.20 1.541
447.30 1.54
447.40 1.538
447.50 1.537
447.60 1.536
447.70 1.534
447.80 1.533
447.90 1.532
448.00 1.53
448.10 1.529
448.20 1.528
448.30 1.526
448.40 1.525
448.50 1.524
448.60 1.522
448.70 1.521
448.80 1.52
448.90 1.519
449.00 1.517
449.10 1.516
449.20 1.515
449.30 1.513
449.40 1.512
449.50 1.511
449.60 1.509
449.70 1.508
449.80 1.507
449.90 1.506
450.00 1.504
450.10 1.503
450.20 1.502
450.30 1.5
450.40 1.499
450.50 1.498
450.60 1.497
450.70 1.495
450.80 1.494
450.90 1.493
451.00 1.492
451.10 1.49
451.20 1.489
451.30 1.488
451.40 1.486
451.50 1.485
451.60 1.484
451.70 1.483
451.80 1.481
451.90 1.48
452.00 1.479
452.10 1.478
452.20 1.476
452.30 1.475
452.40 1.474
452.50 1.473
452.60 1.471
452.70 1.47
452.80 1.469
452.90 1.468
453.00 1.466
453.10 1.465
453.20 1.464
453.30 1.463
453.40 1.461
453.50 1.46
453.60 1.459
453.70 1.458
453.80 1.456
453.90 1.455
454.00 1.454
454.10 1.453
