# Version 2.1 - nm, norm@500 to 1, cut digits, bergeron_2250_80.dat_2250
# Wavelength(nm)  Flambda(ergs/cm^s/s/nm)
300.00 0.05021
300.10 0.05037
300.20 0.05053
300.30 0.05069
300.40 0.05085
300.50 0.05101
300.60 0.05118
300.70 0.05134
300.80 0.0515
300.90 0.05166
301.00 0.05182
301.10 0.05198
301.20 0.05214
301.30 0.0523
301.40 0.05246
301.50 0.05262
301.60 0.05278
301.70 0.05294
301.80 0.0531
301.90 0.05326
302.00 0.05342
302.10 0.05358
302.20 0.05375
302.30 0.05392
302.40 0.05409
302.50 0.05426
302.60 0.05443
302.70 0.0546
302.80 0.05477
302.90 0.05493
303.00 0.0551
303.10 0.05527
303.20 0.05544
303.30 0.0556
303.40 0.05577
303.50 0.05594
303.60 0.0561
303.70 0.05627
303.80 0.05643
303.90 0.0566
304.00 0.05677
304.10 0.05694
304.20 0.05712
304.30 0.0573
304.40 0.05747
304.50 0.05765
304.60 0.05782
304.70 0.058
304.80 0.05817
304.90 0.05835
305.00 0.05852
305.10 0.0587
305.20 0.05887
305.30 0.05905
305.40 0.05922
305.50 0.05939
305.60 0.05957
305.70 0.05974
305.80 0.05991
305.90 0.06008
306.00 0.06026
306.10 0.06044
306.20 0.06063
306.30 0.06081
306.40 0.06099
306.50 0.06118
306.60 0.06136
306.70 0.06154
306.80 0.06172
306.90 0.06191
307.00 0.06209
307.10 0.06227
307.20 0.06245
307.30 0.06263
307.40 0.06281
307.50 0.06299
307.60 0.06317
307.70 0.06335
307.80 0.06353
307.90 0.06371
308.00 0.0639
308.10 0.06409
308.20 0.06428
308.30 0.06447
308.40 0.06466
308.50 0.06485
308.60 0.06504
308.70 0.06523
308.80 0.06542
308.90 0.06561
309.00 0.0658
309.10 0.06598
309.20 0.06617
309.30 0.06636
309.40 0.06655
309.50 0.06674
309.60 0.06693
309.70 0.06711
309.80 0.0673
309.90 0.06749
310.00 0.06768
310.10 0.06788
310.20 0.06807
310.30 0.06827
310.40 0.06847
310.50 0.06867
310.60 0.06887
310.70 0.06906
310.80 0.06926
310.90 0.06946
311.00 0.06966
311.10 0.06985
311.20 0.07005
311.30 0.07025
311.40 0.07044
311.50 0.07064
311.60 0.07083
311.70 0.07103
311.80 0.07122
311.90 0.07142
312.00 0.07161
312.10 0.07181
312.20 0.07201
312.30 0.07221
312.40 0.07241
312.50 0.07262
312.60 0.07283
312.70 0.07303
312.80 0.07324
312.90 0.07344
313.00 0.07365
313.10 0.07385
313.20 0.07406
313.30 0.07426
313.40 0.07446
313.50 0.07467
313.60 0.07487
313.70 0.07507
313.80 0.07527
313.90 0.07548
314.00 0.07569
314.10 0.07589
314.20 0.07611
314.30 0.07632
314.40 0.07653
314.50 0.07675
314.60 0.07696
314.70 0.07717
314.80 0.07738
314.90 0.0776
315.00 0.07781
315.10 0.07802
315.20 0.07823
315.30 0.07844
315.40 0.07865
315.50 0.07886
315.60 0.07907
315.70 0.07928
315.80 0.07949
315.90 0.0797
316.00 0.07992
316.10 0.08013
316.20 0.08035
316.30 0.08057
316.40 0.08079
316.50 0.08101
316.60 0.08123
316.70 0.08145
316.80 0.08167
316.90 0.08189
317.00 0.08211
317.10 0.08233
317.20 0.08255
317.30 0.08277
317.40 0.08299
317.50 0.0832
317.60 0.08342
317.70 0.08364
317.80 0.08386
317.90 0.08408
318.00 0.0843
318.10 0.08452
318.20 0.08475
318.30 0.08498
318.40 0.08521
318.50 0.08543
318.60 0.08566
318.70 0.08589
318.80 0.08612
318.90 0.08634
319.00 0.08657
319.10 0.0868
319.20 0.08702
319.30 0.08725
319.40 0.08748
319.50 0.0877
319.60 0.08793
319.70 0.08815
319.80 0.08838
319.90 0.0886
320.00 0.08883
320.10 0.08907
320.20 0.0893
320.30 0.08954
320.40 0.08977
320.50 0.09001
320.60 0.09024
320.70 0.09048
320.80 0.09072
320.90 0.09095
321.00 0.09119
321.10 0.09142
321.20 0.09165
321.30 0.09189
321.40 0.09212
321.50 0.09235
321.60 0.09259
321.70 0.09282
321.80 0.09305
321.90 0.09328
322.00 0.09352
322.10 0.09376
322.20 0.09401
322.30 0.09425
322.40 0.09449
322.50 0.09474
322.60 0.09498
322.70 0.09523
322.80 0.09547
322.90 0.09571
323.00 0.09595
323.10 0.0962
323.20 0.09644
323.30 0.09668
323.40 0.09692
323.50 0.09716
323.60 0.0974
323.70 0.09764
323.80 0.09788
323.90 0.09813
324.00 0.09837
324.10 0.09862
324.20 0.09887
324.30 0.09912
324.40 0.09937
324.50 0.09963
324.60 0.09988
324.70 0.1001
324.80 0.1004
324.90 0.1006
325.00 0.1009
325.10 0.1011
325.20 0.1014
325.30 0.1016
325.40 0.1019
325.50 0.1021
325.60 0.1024
325.70 0.1026
325.80 0.1029
325.90 0.1031
326.00 0.1034
326.10 0.1036
326.20 0.1039
326.30 0.1042
326.40 0.1044
326.50 0.1047
326.60 0.1049
326.70 0.1052
326.80 0.1054
326.90 0.1057
327.00 0.106
327.10 0.1062
327.20 0.1065
327.30 0.1067
327.40 0.107
327.50 0.1073
327.60 0.1075
327.70 0.1078
327.80 0.108
327.90 0.1083
328.00 0.1085
328.10 0.1088
328.20 0.1091
328.30 0.1093
328.40 0.1096
328.50 0.1099
328.60 0.1101
328.70 0.1104
328.80 0.1107
328.90 0.1109
329.00 0.1112
329.10 0.1115
329.20 0.1117
329.30 0.112
329.40 0.1123
329.50 0.1125
329.60 0.1128
329.70 0.1131
329.80 0.1133
329.90 0.1136
330.00 0.1139
330.10 0.1141
330.20 0.1144
330.30 0.1147
330.40 0.115
330.50 0.1152
330.60 0.1155
330.70 0.1158
330.80 0.1161
330.90 0.1163
331.00 0.1166
331.10 0.1169
331.20 0.1172
331.30 0.1174
331.40 0.1177
331.50 0.118
331.60 0.1183
331.70 0.1185
331.80 0.1188
331.90 0.1191
332.00 0.1193
332.10 0.1196
332.20 0.1199
332.30 0.1202
332.40 0.1205
332.50 0.1208
332.60 0.121
332.70 0.1213
332.80 0.1216
332.90 0.1219
333.00 0.1222
333.10 0.1225
333.20 0.1227
333.30 0.123
333.40 0.1233
333.50 0.1236
333.60 0.1239
333.70 0.1241
333.80 0.1244
333.90 0.1247
334.00 0.125
334.10 0.1253
334.20 0.1256
334.30 0.1259
334.40 0.1262
334.50 0.1264
334.60 0.1267
334.70 0.127
334.80 0.1273
334.90 0.1276
335.00 0.1279
335.10 0.1282
335.20 0.1285
335.30 0.1288
335.40 0.1291
335.50 0.1294
335.60 0.1296
335.70 0.1299
335.80 0.1302
335.90 0.1305
336.00 0.1308
336.10 0.1311
336.20 0.1314
336.30 0.1317
336.40 0.132
336.50 0.1323
336.60 0.1326
336.70 0.1329
336.80 0.1332
336.90 0.1335
337.00 0.1338
337.10 0.1341
337.20 0.1344
337.30 0.1347
337.40 0.135
337.50 0.1353
337.60 0.1356
337.70 0.1359
337.80 0.1362
337.90 0.1365
338.00 0.1368
338.10 0.1371
338.20 0.1374
338.30 0.1377
338.40 0.138
338.50 0.1383
338.60 0.1386
338.70 0.1389
338.80 0.1392
338.90 0.1395
339.00 0.1398
339.10 0.1401
339.20 0.1405
339.30 0.1408
339.40 0.1411
339.50 0.1414
339.60 0.1417
339.70 0.142
339.80 0.1423
339.90 0.1426
340.00 0.1429
340.10 0.1432
340.20 0.1435
340.30 0.1438
340.40 0.1442
340.50 0.1445
340.60 0.1448
340.70 0.1451
340.80 0.1454
340.90 0.1457
341.00 0.146
341.10 0.1464
341.20 0.1467
341.30 0.147
341.40 0.1473
341.50 0.1476
341.60 0.1479
341.70 0.1482
341.80 0.1486
341.90 0.1489
342.00 0.1492
342.10 0.1495
342.20 0.1498
342.30 0.1502
342.40 0.1505
342.50 0.1508
342.60 0.1511
342.70 0.1515
342.80 0.1518
342.90 0.1521
343.00 0.1524
343.10 0.1527
343.20 0.1531
343.30 0.1534
343.40 0.1537
343.50 0.154
343.60 0.1544
343.70 0.1547
343.80 0.155
343.90 0.1553
344.00 0.1556
344.10 0.156
344.20 0.1563
344.30 0.1566
344.40 0.157
344.50 0.1573
344.60 0.1576
344.70 0.158
344.80 0.1583
344.90 0.1586
345.00 0.159
345.10 0.1593
345.20 0.1596
345.30 0.1599
345.40 0.1603
345.50 0.1606
345.60 0.1609
345.70 0.1613
345.80 0.1616
345.90 0.1619
346.00 0.1622
346.10 0.1626
346.20 0.1629
346.30 0.1633
346.40 0.1636
346.50 0.164
346.60 0.1643
346.70 0.1646
346.80 0.165
346.90 0.1653
347.00 0.1657
347.10 0.166
347.20 0.1663
347.30 0.1667
347.40 0.167
347.50 0.1673
347.60 0.1677
347.70 0.168
347.80 0.1683
347.90 0.1687
348.00 0.169
348.10 0.1694
348.20 0.1697
348.30 0.1701
348.40 0.1704
348.50 0.1708
348.60 0.1711
348.70 0.1715
348.80 0.1718
348.90 0.1722
349.00 0.1725
349.10 0.1729
349.20 0.1732
349.30 0.1735
349.40 0.1739
349.50 0.1742
349.60 0.1746
349.70 0.1749
349.80 0.1753
349.90 0.1756
350.00 0.176
350.10 0.1763
350.20 0.1767
350.30 0.177
350.40 0.1774
350.50 0.1777
350.60 0.1781
350.70 0.1785
350.80 0.1788
350.90 0.1792
351.00 0.1795
351.10 0.1799
351.20 0.1802
351.30 0.1806
351.40 0.1809
351.50 0.1813
351.60 0.1816
351.70 0.182
351.80 0.1823
351.90 0.1827
352.00 0.183
352.10 0.1834
352.20 0.1838
352.30 0.1841
352.40 0.1845
352.50 0.1849
352.60 0.1852
352.70 0.1856
352.80 0.186
352.90 0.1863
353.00 0.1867
353.10 0.1871
353.20 0.1874
353.30 0.1878
353.40 0.1881
353.50 0.1885
353.60 0.1889
353.70 0.1892
353.80 0.1896
353.90 0.1899
354.00 0.1903
354.10 0.1907
354.20 0.191
354.30 0.1914
354.40 0.1918
354.50 0.1922
354.60 0.1925
354.70 0.1929
354.80 0.1933
354.90 0.1937
355.00 0.194
355.10 0.1944
355.20 0.1948
355.30 0.1951
355.40 0.1955
355.50 0.1959
355.60 0.1962
355.70 0.1966
355.80 0.197
355.90 0.1973
356.00 0.1977
356.10 0.1981
356.20 0.1985
356.30 0.1989
356.40 0.1992
356.50 0.1996
356.60 0.2
356.70 0.2004
356.80 0.2008
356.90 0.2011
357.00 0.2015
357.10 0.2019
357.20 0.2023
357.30 0.2026
357.40 0.203
357.50 0.2034
357.60 0.2038
357.70 0.2042
357.80 0.2045
357.90 0.2049
358.00 0.2053
358.10 0.2057
358.20 0.2061
358.30 0.2064
358.40 0.2068
358.50 0.2072
358.60 0.2076
358.70 0.208
358.80 0.2084
358.90 0.2088
359.00 0.2092
359.10 0.2095
359.20 0.2099
359.30 0.2103
359.40 0.2107
359.50 0.2111
359.60 0.2115
359.70 0.2119
359.80 0.2122
359.90 0.2126
360.00 0.213
360.10 0.2134
360.20 0.2138
360.30 0.2142
360.40 0.2146
360.50 0.215
360.60 0.2154
360.70 0.2158
360.80 0.2162
360.90 0.2166
361.00 0.217
361.10 0.2174
361.20 0.2178
361.30 0.2181
361.40 0.2185
361.50 0.2189
361.60 0.2193
361.70 0.2197
361.80 0.2201
361.90 0.2205
362.00 0.2209
362.10 0.2213
362.20 0.2217
362.30 0.2221
362.40 0.2225
362.50 0.2229
362.60 0.2233
362.70 0.2237
362.80 0.2241
362.90 0.2245
363.00 0.2249
363.10 0.2253
363.20 0.2257
363.30 0.2261
363.40 0.2265
363.50 0.2269
363.60 0.2273
363.70 0.2277
363.80 0.2281
363.90 0.2285
364.00 0.2289
364.10 0.2293
364.20 0.2297
364.30 0.2301
364.40 0.2305
364.50 0.231
364.60 0.2314
364.70 0.2318
364.80 0.2322
364.90 0.2326
365.00 0.233
365.10 0.2334
365.20 0.2338
365.30 0.2342
365.40 0.2347
365.50 0.2351
365.60 0.2355
365.70 0.2359
365.80 0.2363
365.90 0.2367
366.00 0.2371
366.10 0.2375
366.20 0.2379
366.30 0.2384
366.40 0.2388
366.50 0.2392
366.60 0.2396
366.70 0.24
366.80 0.2405
366.90 0.2409
367.00 0.2413
367.10 0.2417
367.20 0.2421
367.30 0.2425
367.40 0.243
367.50 0.2434
367.60 0.2438
367.70 0.2442
367.80 0.2446
367.90 0.245
368.00 0.2454
368.10 0.2459
368.20 0.2463
368.30 0.2467
368.40 0.2472
368.50 0.2476
368.60 0.248
368.70 0.2484
368.80 0.2489
368.90 0.2493
369.00 0.2497
369.10 0.2501
369.20 0.2506
369.30 0.251
369.40 0.2514
369.50 0.2518
369.60 0.2523
369.70 0.2527
369.80 0.2531
369.90 0.2535
370.00 0.2539
370.10 0.2544
370.20 0.2548
370.30 0.2552
370.40 0.2557
370.50 0.2561
370.60 0.2565
370.70 0.257
370.80 0.2574
370.90 0.2578
371.00 0.2583
371.10 0.2587
371.20 0.2591
371.30 0.2596
371.40 0.26
371.50 0.2604
371.60 0.2609
371.70 0.2613
371.80 0.2617
371.90 0.2621
372.00 0.2626
372.10 0.263
372.20 0.2635
372.30 0.2639
372.40 0.2643
372.50 0.2648
372.60 0.2652
372.70 0.2657
372.80 0.2661
372.90 0.2665
373.00 0.267
373.10 0.2674
373.20 0.2679
373.30 0.2683
373.40 0.2687
373.50 0.2692
373.60 0.2696
373.70 0.27
373.80 0.2705
373.90 0.2709
374.00 0.2713
374.10 0.2718
374.20 0.2722
374.30 0.2727
374.40 0.2731
374.50 0.2736
374.60 0.274
374.70 0.2745
374.80 0.2749
374.90 0.2754
375.00 0.2758
375.10 0.2763
375.20 0.2767
375.30 0.2772
375.40 0.2776
375.50 0.2781
375.60 0.2785
375.70 0.2789
375.80 0.2794
375.90 0.2798
376.00 0.2803
376.10 0.2807
376.20 0.2812
376.30 0.2816
376.40 0.2821
376.50 0.2825
376.60 0.283
376.70 0.2834
376.80 0.2839
376.90 0.2843
377.00 0.2848
377.10 0.2852
377.20 0.2857
377.30 0.2861
377.40 0.2866
377.50 0.2871
377.60 0.2875
377.70 0.288
377.80 0.2884
377.90 0.2889
378.00 0.2893
378.10 0.2898
378.20 0.2903
378.30 0.2907
378.40 0.2912
378.50 0.2916
378.60 0.2921
378.70 0.2925
378.80 0.293
378.90 0.2935
379.00 0.2939
379.10 0.2944
379.20 0.2948
379.30 0.2953
379.40 0.2958
379.50 0.2962
379.60 0.2967
379.70 0.2972
379.80 0.2976
379.90 0.2981
380.00 0.2985
380.10 0.299
380.20 0.2995
380.30 0.2999
380.40 0.3004
380.50 0.3009
380.60 0.3013
380.70 0.3018
380.80 0.3023
380.90 0.3027
381.00 0.3032
381.10 0.3037
381.20 0.3041
381.30 0.3046
381.40 0.3051
381.50 0.3055
381.60 0.306
381.70 0.3065
381.80 0.3069
381.90 0.3074
382.00 0.3079
382.10 0.3083
382.20 0.3088
382.30 0.3093
382.40 0.3098
382.50 0.3102
382.60 0.3107
382.70 0.3112
382.80 0.3117
382.90 0.3121
383.00 0.3126
383.10 0.3131
383.20 0.3136
383.30 0.314
383.40 0.3145
383.50 0.315
383.60 0.3154
383.70 0.3159
383.80 0.3164
383.90 0.3169
384.00 0.3174
384.10 0.3178
384.20 0.3183
384.30 0.3188
384.40 0.3193
384.50 0.3197
384.60 0.3202
384.70 0.3207
384.80 0.3212
384.90 0.3217
385.00 0.3221
385.10 0.3226
385.20 0.3231
385.30 0.3236
385.40 0.3241
385.50 0.3246
385.60 0.325
385.70 0.3255
385.80 0.326
385.90 0.3265
386.00 0.327
386.10 0.3275
386.20 0.3279
386.30 0.3284
386.40 0.3289
386.50 0.3294
386.60 0.3299
386.70 0.3304
386.80 0.3309
386.90 0.3313
387.00 0.3318
387.10 0.3323
387.20 0.3328
387.30 0.3333
387.40 0.3338
387.50 0.3343
387.60 0.3348
387.70 0.3352
387.80 0.3357
387.90 0.3362
388.00 0.3367
388.10 0.3372
388.20 0.3377
388.30 0.3382
388.40 0.3387
388.50 0.3392
388.60 0.3397
388.70 0.3402
388.80 0.3406
388.90 0.3411
389.00 0.3416
389.10 0.3421
389.20 0.3426
389.30 0.3431
389.40 0.3436
389.50 0.3441
389.60 0.3446
389.70 0.3451
389.80 0.3456
389.90 0.3461
390.00 0.3466
390.10 0.3471
390.20 0.3476
390.30 0.3481
390.40 0.3486
390.50 0.3491
390.60 0.3496
390.70 0.3501
390.80 0.3506
390.90 0.3511
391.00 0.3516
391.10 0.3521
391.20 0.3526
391.30 0.3531
391.40 0.3536
391.50 0.3541
391.60 0.3546
391.70 0.3551
391.80 0.3556
391.90 0.3561
392.00 0.3566
392.10 0.3571
392.20 0.3576
392.30 0.3581
392.40 0.3586
392.50 0.3591
392.60 0.3596
392.70 0.3601
392.80 0.3606
392.90 0.3611
393.00 0.3616
393.10 0.3621
393.20 0.3626
393.30 0.3631
393.40 0.3636
393.50 0.3642
393.60 0.3647
393.70 0.3652
393.80 0.3657
393.90 0.3662
394.00 0.3667
394.10 0.3672
394.20 0.3677
394.30 0.3682
394.40 0.3687
394.50 0.3692
394.60 0.3698
394.70 0.3703
394.80 0.3708
394.90 0.3713
395.00 0.3718
395.10 0.3723
395.20 0.3728
395.30 0.3733
395.40 0.3739
395.50 0.3744
395.60 0.3749
395.70 0.3754
395.80 0.3759
395.90 0.3764
396.00 0.3769
396.10 0.3774
396.20 0.378
396.30 0.3785
396.40 0.379
396.50 0.3795
396.60 0.38
396.70 0.3805
396.80 0.3811
396.90 0.3816
397.00 0.3821
397.10 0.3826
397.20 0.3831
397.30 0.3837
397.40 0.3842
397.50 0.3847
397.60 0.3852
397.70 0.3857
397.80 0.3863
397.90 0.3868
398.00 0.3873
398.10 0.3878
398.20 0.3883
398.30 0.3889
398.40 0.3894
398.50 0.3899
398.60 0.3904
398.70 0.3909
398.80 0.3915
398.90 0.392
399.00 0.3925
399.10 0.393
399.20 0.3936
399.30 0.3941
399.40 0.3946
399.50 0.3951
399.60 0.3957
399.70 0.3962
399.80 0.3967
399.90 0.3972
400.00 0.3978
400.10 0.3983
400.20 0.3988
400.30 0.3993
400.40 0.3999
400.50 0.4004
400.60 0.4009
400.70 0.4015
400.80 0.402
400.90 0.4025
401.00 0.403
401.10 0.4036
401.20 0.4041
401.30 0.4046
401.40 0.4052
401.50 0.4057
401.60 0.4062
401.70 0.4068
401.80 0.4073
401.90 0.4078
402.00 0.4084
402.10 0.4089
402.20 0.4094
402.30 0.4099
402.40 0.4105
402.50 0.411
402.60 0.4115
402.70 0.4121
402.80 0.4126
402.90 0.4131
403.00 0.4137
403.10 0.4142
403.20 0.4148
403.30 0.4153
403.40 0.4158
403.50 0.4164
403.60 0.4169
403.70 0.4174
403.80 0.418
403.90 0.4185
404.00 0.419
404.10 0.4196
404.20 0.4201
404.30 0.4207
404.40 0.4212
404.50 0.4217
404.60 0.4223
404.70 0.4228
404.80 0.4234
404.90 0.4239
405.00 0.4244
405.10 0.425
405.20 0.4255
405.30 0.4261
405.40 0.4266
405.50 0.4271
405.60 0.4277
405.70 0.4282
405.80 0.4288
405.90 0.4293
406.00 0.4298
406.10 0.4304
406.20 0.4309
406.30 0.4315
406.40 0.432
406.50 0.4326
406.60 0.4331
406.70 0.4336
406.80 0.4342
406.90 0.4347
407.00 0.4353
407.10 0.4358
407.20 0.4364
407.30 0.4369
407.40 0.4375
407.50 0.438
407.60 0.4386
407.70 0.4391
407.80 0.4397
407.90 0.4402
408.00 0.4407
408.10 0.4413
408.20 0.4418
408.30 0.4424
408.40 0.4429
408.50 0.4435
408.60 0.444
408.70 0.4446
408.80 0.4451
408.90 0.4457
409.00 0.4462
409.10 0.4468
409.20 0.4473
409.30 0.4479
409.40 0.4484
409.50 0.449
409.60 0.4495
409.70 0.4501
409.80 0.4506
409.90 0.4512
410.00 0.4517
410.10 0.4523
410.20 0.4529
410.30 0.4534
410.40 0.454
410.50 0.4545
410.60 0.4551
410.70 0.4556
410.80 0.4562
410.90 0.4567
411.00 0.4573
411.10 0.4578
411.20 0.4584
411.30 0.459
411.40 0.4595
411.50 0.4601
411.60 0.4606
411.70 0.4612
411.80 0.4617
411.90 0.4623
412.00 0.4628
412.10 0.4634
412.20 0.464
412.30 0.4645
412.40 0.4651
412.50 0.4656
412.60 0.4662
412.70 0.4668
412.80 0.4673
412.90 0.4679
413.00 0.4684
413.10 0.469
413.20 0.4696
413.30 0.4701
413.40 0.4707
413.50 0.4712
413.60 0.4718
413.70 0.4724
413.80 0.4729
413.90 0.4735
414.00 0.4741
414.10 0.4746
414.20 0.4752
414.30 0.4757
414.40 0.4763
414.50 0.4769
414.60 0.4774
414.70 0.478
414.80 0.4786
414.90 0.4791
415.00 0.4797
415.10 0.4802
415.20 0.4808
415.30 0.4814
415.40 0.4819
415.50 0.4825
415.60 0.4831
415.70 0.4836
415.80 0.4842
415.90 0.4848
416.00 0.4853
416.10 0.4859
416.20 0.4865
416.30 0.487
416.40 0.4876
416.50 0.4882
416.60 0.4887
416.70 0.4893
416.80 0.4899
416.90 0.4904
417.00 0.491
417.10 0.4916
417.20 0.4922
417.30 0.4927
417.40 0.4933
417.50 0.4939
417.60 0.4944
417.70 0.495
417.80 0.4956
417.90 0.4961
418.00 0.4967
418.10 0.4973
418.20 0.4979
418.30 0.4984
418.40 0.499
418.50 0.4996
418.60 0.5001
418.70 0.5007
418.80 0.5013
418.90 0.5019
419.00 0.5024
419.10 0.503
419.20 0.5036
419.30 0.5042
419.40 0.5047
419.50 0.5053
419.60 0.5059
419.70 0.5064
419.80 0.507
419.90 0.5076
420.00 0.5082
420.10 0.5088
420.20 0.5093
420.30 0.5099
420.40 0.5105
420.50 0.5111
420.60 0.5116
420.70 0.5122
420.80 0.5128
420.90 0.5134
421.00 0.5139
421.10 0.5145
421.20 0.5151
421.30 0.5157
421.40 0.5162
421.50 0.5168
421.60 0.5174
421.70 0.518
421.80 0.5186
421.90 0.5191
422.00 0.5197
422.10 0.5203
422.20 0.5209
422.30 0.5215
422.40 0.522
422.50 0.5226
422.60 0.5232
422.70 0.5238
422.80 0.5244
422.90 0.5249
423.00 0.5255
423.10 0.5261
423.20 0.5267
423.30 0.5273
423.40 0.5278
423.50 0.5284
423.60 0.529
423.70 0.5296
423.80 0.5302
423.90 0.5308
424.00 0.5313
424.10 0.5319
424.20 0.5325
424.30 0.5331
424.40 0.5337
424.50 0.5343
424.60 0.5348
424.70 0.5354
424.80 0.536
424.90 0.5366
425.00 0.5372
425.10 0.5378
425.20 0.5384
425.30 0.5389
425.40 0.5395
425.50 0.5401
425.60 0.5407
425.70 0.5413
425.80 0.5419
425.90 0.5425
426.00 0.543
426.10 0.5436
426.20 0.5442
426.30 0.5448
426.40 0.5454
426.50 0.546
426.60 0.5466
426.70 0.5472
426.80 0.5477
426.90 0.5483
427.00 0.5489
427.10 0.5495
427.20 0.5501
427.30 0.5507
427.40 0.5513
427.50 0.5519
427.60 0.5525
427.70 0.553
427.80 0.5536
427.90 0.5542
428.00 0.5548
428.10 0.5554
428.20 0.556
428.30 0.5566
428.40 0.5572
428.50 0.5578
428.60 0.5584
428.70 0.5589
428.80 0.5595
428.90 0.5601
429.00 0.5607
429.10 0.5613
429.20 0.5619
429.30 0.5625
429.40 0.5631
429.50 0.5637
429.60 0.5643
429.70 0.5649
429.80 0.5655
429.90 0.5661
430.00 0.5667
430.10 0.5672
430.20 0.5678
430.30 0.5684
430.40 0.569
430.50 0.5696
430.60 0.5702
430.70 0.5708
430.80 0.5714
430.90 0.572
431.00 0.5726
431.10 0.5732
431.20 0.5738
431.30 0.5744
431.40 0.575
431.50 0.5756
431.60 0.5762
431.70 0.5768
431.80 0.5774
431.90 0.578
432.00 0.5786
432.10 0.5792
432.20 0.5798
432.30 0.5803
432.40 0.5809
432.50 0.5815
432.60 0.5821
432.70 0.5827
432.80 0.5833
432.90 0.5839
433.00 0.5845
433.10 0.5851
433.20 0.5857
433.30 0.5863
433.40 0.5869
433.50 0.5875
433.60 0.5881
433.70 0.5887
433.80 0.5893
433.90 0.5899
434.00 0.5905
434.10 0.5911
434.20 0.5917
434.30 0.5923
434.40 0.5929
434.50 0.5935
434.60 0.5941
434.70 0.5947
434.80 0.5953
434.90 0.5959
435.00 0.5965
435.10 0.5971
435.20 0.5977
435.30 0.5983
435.40 0.5989
435.50 0.5995
435.60 0.6001
435.70 0.6007
435.80 0.6013
435.90 0.602
436.00 0.6026
436.10 0.6032
436.20 0.6038
436.30 0.6044
436.40 0.605
436.50 0.6056
436.60 0.6062
436.70 0.6068
436.80 0.6074
436.90 0.608
437.00 0.6086
437.10 0.6092
437.20 0.6098
437.30 0.6104
437.40 0.611
437.50 0.6116
437.60 0.6122
437.70 0.6128
437.80 0.6134
437.90 0.614
438.00 0.6146
438.10 0.6152
438.20 0.6158
438.30 0.6165
438.40 0.6171
438.50 0.6177
438.60 0.6183
438.70 0.6189
438.80 0.6195
438.90 0.6201
439.00 0.6207
439.10 0.6213
439.20 0.6219
439.30 0.6225
439.40 0.6231
439.50 0.6237
439.60 0.6243
439.70 0.625
439.80 0.6256
439.90 0.6262
440.00 0.6268
440.10 0.6274
440.20 0.628
440.30 0.6286
440.40 0.6292
440.50 0.6298
440.60 0.6304
440.70 0.631
440.80 0.6316
440.90 0.6323
441.00 0.6329
441.10 0.6335
