# Version 2.1 - nm, norm@500 to 1, cut digits, bergeron_11000_95.dat_11000
# Wavelength(nm)  Flambda(ergs/cm^s/s/nm)
300.00 2.145
300.10 2.144
300.20 2.143
300.30 2.142
300.40 2.141
300.50 2.14
300.60 2.139
300.70 2.138
300.80 2.137
300.90 2.136
301.00 2.135
301.10 2.134
301.20 2.133
301.30 2.132
301.40 2.131
301.50 2.13
301.60 2.129
301.70 2.128
301.80 2.127
301.90 2.126
302.00 2.125
302.10 2.124
302.20 2.123
302.30 2.122
302.40 2.121
302.50 2.12
302.60 2.119
302.70 2.118
302.80 2.117
302.90 2.116
303.00 2.115
303.10 2.114
303.20 2.113
303.30 2.112
303.40 2.111
303.50 2.11
303.60 2.109
303.70 2.108
303.80 2.107
303.90 2.107
304.00 2.106
304.10 2.105
304.20 2.104
304.30 2.103
304.40 2.102
304.50 2.101
304.60 2.1
304.70 2.099
304.80 2.098
304.90 2.097
305.00 2.096
305.10 2.095
305.20 2.094
305.30 2.093
305.40 2.092
305.50 2.091
305.60 2.09
305.70 2.089
305.80 2.088
305.90 2.087
306.00 2.086
306.10 2.085
306.20 2.084
306.30 2.083
306.40 2.082
306.50 2.081
306.60 2.08
306.70 2.079
306.80 2.078
306.90 2.077
307.00 2.076
307.10 2.075
307.20 2.074
307.30 2.073
307.40 2.072
307.50 2.071
307.60 2.07
307.70 2.069
307.80 2.068
307.90 2.067
308.00 2.066
308.10 2.065
308.20 2.064
308.30 2.063
308.40 2.062
308.50 2.061
308.60 2.06
308.70 2.059
308.80 2.058
308.90 2.057
309.00 2.056
309.10 2.055
309.20 2.054
309.30 2.053
309.40 2.052
309.50 2.051
309.60 2.05
309.70 2.049
309.80 2.048
309.90 2.048
310.00 2.047
310.10 2.046
310.20 2.045
310.30 2.044
310.40 2.043
310.50 2.042
310.60 2.041
310.70 2.04
310.80 2.039
310.90 2.038
311.00 2.037
311.10 2.036
311.20 2.035
311.30 2.034
311.40 2.033
311.50 2.032
311.60 2.031
311.70 2.03
311.80 2.029
311.90 2.028
312.00 2.027
312.10 2.026
312.20 2.025
312.30 2.024
312.40 2.023
312.50 2.022
312.60 2.021
312.70 2.02
312.80 2.019
312.90 2.018
313.00 2.017
313.10 2.016
313.20 2.015
313.30 2.014
313.40 2.013
313.50 2.012
313.60 2.011
313.70 2.011
313.80 2.01
313.90 2.009
314.00 2.008
314.10 2.007
314.20 2.006
314.30 2.005
314.40 2.004
314.50 2.003
314.60 2.002
314.70 2.001
314.80 2
314.90 1.999
315.00 1.998
315.10 1.997
315.20 1.996
315.30 1.995
315.40 1.994
315.50 1.993
315.60 1.992
315.70 1.991
315.80 1.99
315.90 1.989
316.00 1.988
316.10 1.987
316.20 1.986
316.30 1.985
316.40 1.984
316.50 1.983
316.60 1.983
316.70 1.982
316.80 1.981
316.90 1.98
317.00 1.979
317.10 1.978
317.20 1.977
317.30 1.976
317.40 1.975
317.50 1.974
317.60 1.973
317.70 1.972
317.80 1.971
317.90 1.97
318.00 1.969
318.10 1.968
318.20 1.967
318.30 1.966
318.40 1.965
318.50 1.964
318.60 1.963
318.70 1.962
318.80 1.961
318.90 1.96
319.00 1.96
319.10 1.959
319.20 1.958
319.30 1.957
319.40 1.956
319.50 1.955
319.60 1.954
319.70 1.953
319.80 1.952
319.90 1.951
320.00 1.95
320.10 1.949
320.20 1.948
320.30 1.947
320.40 1.946
320.50 1.945
320.60 1.944
320.70 1.943
320.80 1.942
320.90 1.941
321.00 1.94
321.10 1.94
321.20 1.939
321.30 1.938
321.40 1.937
321.50 1.936
321.60 1.935
321.70 1.934
321.80 1.933
321.90 1.932
322.00 1.931
322.10 1.93
322.20 1.929
322.30 1.928
322.40 1.927
322.50 1.926
322.60 1.925
322.70 1.924
322.80 1.923
322.90 1.922
323.00 1.922
323.10 1.921
323.20 1.92
323.30 1.919
323.40 1.918
323.50 1.917
323.60 1.916
323.70 1.915
323.80 1.914
323.90 1.913
324.00 1.912
324.10 1.911
324.20 1.91
324.30 1.909
324.40 1.908
324.50 1.907
324.60 1.907
324.70 1.906
324.80 1.905
324.90 1.904
325.00 1.903
325.10 1.902
325.20 1.901
325.30 1.9
325.40 1.899
325.50 1.898
325.60 1.897
325.70 1.896
325.80 1.895
325.90 1.894
326.00 1.893
326.10 1.892
326.20 1.892
326.30 1.891
326.40 1.89
326.50 1.889
326.60 1.888
326.70 1.887
326.80 1.886
326.90 1.885
327.00 1.884
327.10 1.883
327.20 1.882
327.30 1.881
327.40 1.88
327.50 1.879
327.60 1.878
327.70 1.878
327.80 1.877
327.90 1.876
328.00 1.875
328.10 1.874
328.20 1.873
328.30 1.872
328.40 1.871
328.50 1.87
328.60 1.869
328.70 1.868
328.80 1.867
328.90 1.866
329.00 1.865
329.10 1.865
329.20 1.864
329.30 1.863
329.40 1.862
329.50 1.861
329.60 1.86
329.70 1.859
329.80 1.858
329.90 1.857
330.00 1.856
330.10 1.855
330.20 1.854
330.30 1.853
330.40 1.853
330.50 1.852
330.60 1.851
330.70 1.85
330.80 1.849
330.90 1.848
331.00 1.847
331.10 1.846
331.20 1.845
331.30 1.844
331.40 1.843
331.50 1.842
331.60 1.842
331.70 1.841
331.80 1.84
331.90 1.839
332.00 1.838
332.10 1.837
332.20 1.836
332.30 1.835
332.40 1.834
332.50 1.833
332.60 1.832
332.70 1.831
332.80 1.831
332.90 1.83
333.00 1.829
333.10 1.828
333.20 1.827
333.30 1.826
333.40 1.825
333.50 1.824
333.60 1.823
333.70 1.822
333.80 1.821
333.90 1.821
334.00 1.82
334.10 1.819
334.20 1.818
334.30 1.817
334.40 1.816
334.50 1.815
334.60 1.814
334.70 1.813
334.80 1.812
334.90 1.811
335.00 1.811
335.10 1.81
335.20 1.809
335.30 1.808
335.40 1.807
335.50 1.806
335.60 1.805
335.70 1.804
335.80 1.803
335.90 1.802
336.00 1.802
336.10 1.801
336.20 1.8
336.30 1.799
336.40 1.798
336.50 1.797
336.60 1.796
336.70 1.795
336.80 1.794
336.90 1.793
337.00 1.792
337.10 1.792
337.20 1.791
337.30 1.79
337.40 1.789
337.50 1.788
337.60 1.787
337.70 1.786
337.80 1.785
337.90 1.784
338.00 1.784
338.10 1.783
338.20 1.782
338.30 1.781
338.40 1.78
338.50 1.779
338.60 1.778
338.70 1.777
338.80 1.776
338.90 1.775
339.00 1.775
339.10 1.774
339.20 1.773
339.30 1.772
339.40 1.771
339.50 1.77
339.60 1.769
339.70 1.768
339.80 1.767
339.90 1.767
340.00 1.766
340.10 1.765
340.20 1.764
340.30 1.763
340.40 1.762
340.50 1.761
340.60 1.76
340.70 1.759
340.80 1.759
340.90 1.758
341.00 1.757
341.10 1.756
341.20 1.755
341.30 1.754
341.40 1.753
341.50 1.752
341.60 1.751
341.70 1.751
341.80 1.75
341.90 1.749
342.00 1.748
342.10 1.747
342.20 1.746
342.30 1.745
342.40 1.744
342.50 1.744
342.60 1.743
342.70 1.742
342.80 1.741
342.90 1.74
343.00 1.739
343.10 1.738
343.20 1.737
343.30 1.737
343.40 1.736
343.50 1.735
343.60 1.734
343.70 1.733
343.80 1.732
343.90 1.731
344.00 1.73
344.10 1.73
344.20 1.729
344.30 1.728
344.40 1.727
344.50 1.726
344.60 1.725
344.70 1.724
344.80 1.723
344.90 1.723
345.00 1.722
345.10 1.721
345.20 1.72
345.30 1.719
345.40 1.718
345.50 1.717
345.60 1.716
345.70 1.716
345.80 1.715
345.90 1.714
346.00 1.713
346.10 1.712
346.20 1.711
346.30 1.71
346.40 1.709
346.50 1.709
346.60 1.708
346.70 1.707
346.80 1.706
346.90 1.705
347.00 1.704
347.10 1.703
347.20 1.703
347.30 1.702
347.40 1.701
347.50 1.7
347.60 1.699
347.70 1.698
347.80 1.697
347.90 1.697
348.00 1.696
348.10 1.695
348.20 1.694
348.30 1.693
348.40 1.692
348.50 1.691
348.60 1.691
348.70 1.69
348.80 1.689
348.90 1.688
349.00 1.687
349.10 1.686
349.20 1.685
349.30 1.685
349.40 1.684
349.50 1.683
349.60 1.682
349.70 1.681
349.80 1.68
349.90 1.679
350.00 1.679
350.10 1.678
350.20 1.677
350.30 1.676
350.40 1.675
350.50 1.674
350.60 1.673
350.70 1.673
350.80 1.672
350.90 1.671
351.00 1.67
351.10 1.669
351.20 1.668
351.30 1.667
351.40 1.667
351.50 1.666
351.60 1.665
351.70 1.664
351.80 1.663
351.90 1.662
352.00 1.662
352.10 1.661
352.20 1.66
352.30 1.659
352.40 1.658
352.50 1.657
352.60 1.656
352.70 1.656
352.80 1.655
352.90 1.654
353.00 1.653
353.10 1.652
353.20 1.651
353.30 1.651
353.40 1.65
353.50 1.649
353.60 1.648
353.70 1.647
353.80 1.646
353.90 1.646
354.00 1.645
354.10 1.644
354.20 1.643
354.30 1.642
354.40 1.641
354.50 1.64
354.60 1.64
354.70 1.639
354.80 1.638
354.90 1.637
355.00 1.636
355.10 1.635
355.20 1.635
355.30 1.634
355.40 1.633
355.50 1.632
355.60 1.631
355.70 1.63
355.80 1.63
355.90 1.629
356.00 1.628
356.10 1.627
356.20 1.626
356.30 1.625
356.40 1.625
356.50 1.624
356.60 1.623
356.70 1.622
356.80 1.621
356.90 1.62
357.00 1.62
357.10 1.619
357.20 1.618
357.30 1.617
357.40 1.616
357.50 1.616
357.60 1.615
357.70 1.614
357.80 1.613
357.90 1.612
358.00 1.611
358.10 1.611
358.20 1.61
358.30 1.609
358.40 1.608
358.50 1.607
358.60 1.606
358.70 1.606
358.80 1.605
358.90 1.604
359.00 1.603
359.10 1.602
359.20 1.602
359.30 1.601
359.40 1.6
359.50 1.599
359.60 1.598
359.70 1.597
359.80 1.597
359.90 1.596
360.00 1.595
360.10 1.594
360.20 1.593
360.30 1.593
360.40 1.592
360.50 1.591
360.60 1.59
360.70 1.589
360.80 1.588
360.90 1.588
361.00 1.587
361.10 1.586
361.20 1.585
361.30 1.584
361.40 1.584
361.50 1.583
361.60 1.582
361.70 1.581
361.80 1.58
361.90 1.58
362.00 1.579
362.10 1.578
362.20 1.577
362.30 1.576
362.40 1.576
362.50 1.575
362.60 1.574
362.70 1.573
362.80 1.572
362.90 1.571
363.00 1.571
363.10 1.57
363.20 1.569
363.30 1.568
363.40 1.567
363.50 1.566
363.60 1.565
363.70 1.564
363.80 1.563
363.90 1.562
364.00 1.561
364.10 1.56
364.20 1.559
364.30 1.558
364.40 1.558
364.50 1.557
364.60 1.556
364.70 1.555
364.80 1.554
364.90 1.553
365.00 1.552
365.10 1.551
365.20 1.55
365.30 1.549
365.40 1.548
365.50 1.547
365.60 1.546
365.70 1.545
365.80 1.544
365.90 1.543
366.00 1.542
366.10 1.541
366.20 1.54
366.30 1.539
366.40 1.539
366.50 1.538
366.60 1.537
366.70 1.536
366.80 1.535
366.90 1.534
367.00 1.534
367.10 1.533
367.20 1.532
367.30 1.531
367.40 1.53
367.50 1.529
367.60 1.529
367.70 1.528
367.80 1.527
367.90 1.526
368.00 1.525
368.10 1.524
368.20 1.524
368.30 1.523
368.40 1.522
368.50 1.521
368.60 1.52
368.70 1.519
368.80 1.519
368.90 1.518
369.00 1.517
369.10 1.516
369.20 1.515
369.30 1.514
369.40 1.514
369.50 1.513
369.60 1.512
369.70 1.511
369.80 1.51
369.90 1.509
370.00 1.509
370.10 1.508
370.20 1.507
370.30 1.506
370.40 1.505
370.50 1.505
370.60 1.504
370.70 1.503
370.80 1.502
370.90 1.501
371.00 1.501
371.10 1.5
371.20 1.499
371.30 1.498
371.40 1.498
371.50 1.497
371.60 1.496
371.70 1.495
371.80 1.494
371.90 1.494
372.00 1.493
372.10 1.492
372.20 1.492
372.30 1.491
372.40 1.49
372.50 1.49
372.60 1.489
372.70 1.488
372.80 1.488
372.90 1.487
373.00 1.486
373.10 1.486
373.20 1.485
373.30 1.484
373.40 1.484
373.50 1.483
373.60 1.482
373.70 1.482
373.80 1.481
373.90 1.48
374.00 1.48
374.10 1.479
374.20 1.479
374.30 1.478
374.40 1.478
374.50 1.477
374.60 1.477
374.70 1.476
374.80 1.476
374.90 1.475
375.00 1.474
375.10 1.474
375.20 1.473
375.30 1.473
375.40 1.472
375.50 1.472
375.60 1.471
375.70 1.471
375.80 1.47
375.90 1.47
376.00 1.469
376.10 1.469
376.20 1.468
376.30 1.468
376.40 1.467
376.50 1.467
376.60 1.466
376.70 1.465
376.80 1.465
376.90 1.464
377.00 1.464
377.10 1.463
377.20 1.462
377.30 1.462
377.40 1.461
377.50 1.46
377.60 1.459
377.70 1.459
377.80 1.458
377.90 1.457
378.00 1.457
378.10 1.455
378.20 1.454
378.30 1.452
378.40 1.451
378.50 1.45
378.60 1.448
378.70 1.447
378.80 1.445
378.90 1.444
379.00 1.442
379.10 1.441
379.20 1.44
379.30 1.439
379.40 1.438
379.50 1.437
379.60 1.436
379.70 1.435
379.80 1.434
379.90 1.433
380.00 1.432
380.10 1.433
380.20 1.433
380.30 1.434
380.40 1.434
380.50 1.435
380.60 1.435
380.70 1.436
380.80 1.436
380.90 1.437
381.00 1.437
381.10 1.437
381.20 1.437
381.30 1.437
381.40 1.436
381.50 1.436
381.60 1.436
381.70 1.435
381.80 1.434
381.90 1.433
382.00 1.431
382.10 1.43
382.20 1.428
382.30 1.425
382.40 1.422
382.50 1.419
382.60 1.416
382.70 1.414
382.80 1.411
382.90 1.408
383.00 1.405
383.10 1.402
383.20 1.399
383.30 1.397
383.40 1.395
383.50 1.393
383.60 1.393
383.70 1.395
383.80 1.397
383.90 1.399
384.00 1.401
384.10 1.404
384.20 1.407
384.30 1.411
384.40 1.414
384.50 1.417
384.60 1.419
384.70 1.421
384.80 1.423
384.90 1.425
385.00 1.426
385.10 1.427
385.20 1.428
385.30 1.429
385.40 1.429
385.50 1.429
385.60 1.429
385.70 1.429
385.80 1.429
385.90 1.429
386.00 1.428
386.10 1.427
386.20 1.426
386.30 1.425
386.40 1.424
386.50 1.422
386.60 1.42
386.70 1.418
386.80 1.416
386.90 1.414
387.00 1.411
387.10 1.409
387.20 1.406
387.30 1.402
387.40 1.399
387.50 1.395
387.60 1.391
387.70 1.386
387.80 1.381
387.90 1.376
388.00 1.369
388.10 1.362
388.20 1.355
388.30 1.347
388.40 1.338
388.50 1.33
388.60 1.323
388.70 1.318
388.80 1.314
388.90 1.311
389.00 1.314
389.10 1.317
389.20 1.322
389.30 1.329
389.40 1.337
389.50 1.345
389.60 1.353
389.70 1.361
389.80 1.368
389.90 1.374
390.00 1.38
390.10 1.385
390.20 1.39
390.30 1.394
390.40 1.398
390.50 1.401
390.60 1.404
390.70 1.407
390.80 1.41
390.90 1.413
391.00 1.415
391.10 1.417
391.20 1.419
391.30 1.421
391.40 1.422
391.50 1.423
391.60 1.425
391.70 1.425
391.80 1.426
391.90 1.427
392.00 1.427
392.10 1.427
392.20 1.427
392.30 1.427
392.40 1.427
392.50 1.426
392.60 1.426
392.70 1.425
392.80 1.424
392.90 1.423
393.00 1.421
393.10 1.42
393.20 1.418
393.30 1.416
393.40 1.414
393.50 1.412
393.60 1.409
393.70 1.407
393.80 1.404
393.90 1.401
394.00 1.397
394.10 1.394
394.20 1.39
394.30 1.386
394.40 1.381
394.50 1.377
394.60 1.372
394.70 1.366
394.80 1.361
394.90 1.355
395.00 1.349
395.10 1.342
395.20 1.335
395.30 1.328
395.40 1.32
395.50 1.312
395.60 1.303
395.70 1.293
395.80 1.284
395.90 1.273
396.00 1.262
396.10 1.25
396.20 1.237
396.30 1.222
396.40 1.206
396.50 1.188
396.60 1.168
396.70 1.148
396.80 1.132
396.90 1.118
397.00 1.105
397.10 1.117
397.20 1.13
397.30 1.144
397.40 1.164
397.50 1.184
397.60 1.203
397.70 1.218
397.80 1.233
397.90 1.246
398.00 1.258
398.10 1.269
398.20 1.28
398.30 1.289
398.40 1.298
398.50 1.307
398.60 1.315
398.70 1.323
398.80 1.331
398.90 1.338
399.00 1.344
399.10 1.351
399.20 1.357
399.30 1.362
399.40 1.367
399.50 1.372
399.60 1.377
399.70 1.382
399.80 1.386
399.90 1.39
400.00 1.394
400.10 1.397
400.20 1.4
400.30 1.404
400.40 1.406
400.50 1.409
400.60 1.412
400.70 1.414
400.80 1.416
400.90 1.418
401.00 1.42
401.10 1.422
401.20 1.424
401.30 1.425
401.40 1.426
401.50 1.428
401.60 1.429
401.70 1.43
401.80 1.431
401.90 1.431
402.00 1.432
402.10 1.432
402.20 1.433
402.30 1.433
402.40 1.433
402.50 1.433
402.60 1.433
402.70 1.433
402.80 1.432
402.90 1.432
403.00 1.431
403.10 1.43
403.20 1.43
403.30 1.429
403.40 1.428
403.50 1.427
403.60 1.425
403.70 1.424
403.80 1.422
403.90 1.421
404.00 1.419
404.10 1.417
404.20 1.415
404.30 1.413
404.40 1.411
404.50 1.408
404.60 1.406
404.70 1.403
404.80 1.401
404.90 1.398
405.00 1.395
405.10 1.391
405.20 1.388
405.30 1.385
405.40 1.381
405.50 1.377
405.60 1.373
405.70 1.369
405.80 1.365
405.90 1.36
406.00 1.356
406.10 1.351
406.20 1.346
406.30 1.34
406.40 1.335
406.50 1.329
406.60 1.323
406.70 1.317
406.80 1.311
406.90 1.304
407.00 1.297
407.10 1.29
407.20 1.282
407.30 1.274
407.40 1.266
407.50 1.257
407.60 1.248
407.70 1.239
407.80 1.229
407.90 1.219
408.00 1.208
408.10 1.197
408.20 1.185
408.30 1.173
408.40 1.16
408.50 1.147
408.60 1.132
408.70 1.118
408.80 1.102
408.90 1.086
409.00 1.069
409.10 1.051
409.20 1.033
409.30 1.014
409.40 0.9934
409.50 0.9716
409.60 0.9487
409.70 0.9221
409.80 0.8938
409.90 0.8636
410.00 0.841
410.10 0.8263
410.20 0.8195
410.30 0.8324
410.40 0.8521
410.50 0.8784
410.60 0.9072
410.70 0.9338
410.80 0.9583
410.90 0.9797
411.00 0.9999
411.10 1.019
411.20 1.037
411.30 1.054
411.40 1.071
411.50 1.086
411.60 1.102
411.70 1.116
411.80 1.13
411.90 1.143
412.00 1.155
412.10 1.167
412.20 1.178
412.30 1.189
412.40 1.199
412.50 1.209
412.60 1.218
412.70 1.227
412.80 1.235
412.90 1.244
413.00 1.251
413.10 1.259
413.20 1.266
413.30 1.273
413.40 1.279
413.50 1.285
413.60 1.291
413.70 1.297
413.80 1.303
413.90 1.308
414.00 1.313
414.10 1.318
414.20 1.323
414.30 1.327
414.40 1.332
414.50 1.336
414.60 1.34
414.70 1.344
414.80 1.348
414.90 1.351
415.00 1.355
415.10 1.358
415.20 1.361
415.30 1.365
415.40 1.367
415.50 1.37
415.60 1.373
415.70 1.376
415.80 1.379
415.90 1.381
416.00 1.383
416.10 1.386
416.20 1.388
416.30 1.39
416.40 1.392
416.50 1.394
416.60 1.396
416.70 1.398
416.80 1.4
416.90 1.401
417.00 1.403
417.10 1.404
417.20 1.406
417.30 1.407
417.40 1.408
417.50 1.41
417.60 1.411
417.70 1.412
417.80 1.413
417.90 1.414
418.00 1.415
418.10 1.416
418.20 1.417
418.30 1.417
418.40 1.418
418.50 1.419
418.60 1.42
418.70 1.42
418.80 1.421
418.90 1.421
419.00 1.422
419.10 1.422
419.20 1.422
419.30 1.423
419.40 1.423
419.50 1.423
419.60 1.423
419.70 1.423
419.80 1.424
419.90 1.424
420.00 1.424
420.10 1.424
420.20 1.424
420.30 1.423
420.40 1.423
420.50 1.423
420.60 1.423
420.70 1.423
420.80 1.422
420.90 1.422
421.00 1.422
421.10 1.421
421.20 1.421
421.30 1.42
421.40 1.42
421.50 1.419
421.60 1.419
421.70 1.418
421.80 1.417
421.90 1.416
422.00 1.416
422.10 1.415
422.20 1.414
422.30 1.413
422.40 1.412
422.50 1.411
422.60 1.41
422.70 1.409
422.80 1.408
422.90 1.407
423.00 1.406
423.10 1.405
423.20 1.404
423.30 1.403
423.40 1.401
423.50 1.4
423.60 1.399
423.70 1.397
423.80 1.396
423.90 1.394
424.00 1.393
424.10 1.391
424.20 1.39
424.30 1.388
424.40 1.386
424.50 1.385
424.60 1.383
424.70 1.381
424.80 1.379
424.90 1.377
425.00 1.375
425.10 1.373
425.20 1.371
425.30 1.369
425.40 1.367
425.50 1.365
425.60 1.362
425.70 1.36
425.80 1.358
425.90 1.355
426.00 1.353
426.10 1.35
426.20 1.347
426.30 1.344
426.40 1.341
426.50 1.338
426.60 1.335
426.70 1.332
426.80 1.329
426.90 1.326
427.00 1.323
427.10 1.32
427.20 1.317
427.30 1.313
427.40 1.31
427.50 1.306
427.60 1.303
427.70 1.299
427.80 1.295
427.90 1.291
428.00 1.287
428.10 1.283
428.20 1.279
428.30 1.274
428.40 1.27
428.50 1.266
428.60 1.261
428.70 1.256
428.80 1.251
428.90 1.246
429.00 1.241
429.10 1.236
429.20 1.23
429.30 1.225
429.40 1.219
429.50 1.213
429.60 1.207
429.70 1.201
429.80 1.195
429.90 1.188
430.00 1.182
430.10 1.175
430.20 1.168
430.30 1.161
430.40 1.153
430.50 1.145
430.60 1.137
430.70 1.129
430.80 1.12
430.90 1.112
431.00 1.103
431.10 1.093
431.20 1.084
431.30 1.073
431.40 1.063
431.50 1.052
431.60 1.041
431.70 1.029
431.80 1.017
431.90 1.005
432.00 0.9914
432.10 0.9778
432.20 0.9631
432.30 0.9479
432.40 0.9321
432.50 0.9151
432.60 0.8974
432.70 0.8789
432.80 0.8591
432.90 0.8388
433.00 0.818
433.10 0.7967
433.20 0.7752
433.30 0.7537
433.40 0.7318
433.50 0.7093
433.60 0.6861
433.70 0.6575
433.80 0.6251
433.90 0.5889
434.00 0.5541
434.10 0.555
434.20 0.5913
434.30 0.627
434.40 0.6586
434.50 0.6863
434.60 0.7089
434.70 0.7308
434.80 0.752
434.90 0.7729
435.00 0.7936
435.10 0.8142
435.20 0.8342
435.30 0.8536
435.40 0.8724
435.50 0.8899
435.60 0.9067
435.70 0.9227
435.80 0.9375
435.90 0.9516
436.00 0.9652
436.10 0.9778
436.20 0.9899
436.30 1.002
436.40 1.012
436.50 1.023
436.60 1.033
436.70 1.043
436.80 1.052
436.90 1.061
437.00 1.07
437.10 1.078
437.20 1.086
437.30 1.093
437.40 1.101
437.50 1.108
437.60 1.114
437.70 1.121
437.80 1.127
437.90 1.133
438.00 1.139
438.10 1.145
438.20 1.15
438.30 1.156
438.40 1.161
438.50 1.166
438.60 1.171
438.70 1.175
438.80 1.18
438.90 1.184
439.00 1.188
439.10 1.192
439.20 1.196
439.30 1.2
439.40 1.204
439.50 1.207
439.60 1.211
439.70 1.214
439.80 1.217
439.90 1.22
440.00 1.223
440.10 1.226
440.20 1.229
440.30 1.232
440.40 1.234
440.50 1.237
440.60 1.239
440.70 1.242
440.80 1.244
440.90 1.246
441.00 1.248
441.10 1.251
441.20 1.253
441.30 1.255
441.40 1.257
441.50 1.258
441.60 1.26
441.70 1.262
441.80 1.264
441.90 1.265
442.00 1.267
442.10 1.268
442.20 1.27
442.30 1.271
442.40 1.272
442.50 1.274
442.60 1.275
442.70 1.276
442.80 1.277
442.90 1.278
443.00 1.28
443.10 1.281
443.20 1.282
443.30 1.283
443.40 1.284
443.50 1.284
443.60 1.285
443.70 1.286
443.80 1.287
443.90 1.288
444.00 1.288
444.10 1.289
444.20 1.29
444.30 1.291
444.40 1.291
444.50 1.292
444.60 1.292
444.70 1.293
444.80 1.293
444.90 1.294
445.00 1.294
445.10 1.295
445.20 1.295
445.30 1.296
445.40 1.296
445.50 1.296
445.60 1.297
445.70 1.297
445.80 1.297
445.90 1.297
446.00 1.298
446.10 1.298
446.20 1.298
446.30 1.298
446.40 1.298
446.50 1.299
446.60 1.299
446.70 1.299
446.80 1.299
446.90 1.299
447.00 1.299
447.10 1.299
447.20 1.299
447.30 1.299
447.40 1.299
447.50 1.299
447.60 1.299
447.70 1.299
447.80 1.299
447.90 1.299
448.00 1.299
448.10 1.299
448.20 1.299
448.30 1.299
448.40 1.299
448.50 1.299
448.60 1.299
448.70 1.298
448.80 1.298
448.90 1.298
449.00 1.298
449.10 1.298
449.20 1.298
449.30 1.298
449.40 1.297
449.50 1.297
449.60 1.297
449.70 1.297
449.80 1.296
449.90 1.296
450.00 1.296
450.10 1.296
450.20 1.295
450.30 1.295
450.40 1.295
450.50 1.294
450.60 1.294
450.70 1.294
450.80 1.294
450.90 1.293
451.00 1.293
451.10 1.293
451.20 1.292
451.30 1.292
451.40 1.292
451.50 1.291
451.60 1.291
451.70 1.29
451.80 1.29
451.90 1.29
452.00 1.289
452.10 1.289
452.20 1.289
452.30 1.288
452.40 1.288
452.50 1.287
452.60 1.287
452.70 1.286
452.80 1.286
452.90 1.285
453.00 1.285
453.10 1.285
453.20 1.284
453.30 1.284
453.40 1.283
453.50 1.283
