# Version 2.1 - nm, norm@500 to 1, cut digits, bergeron_15500_80.dat_15500
# Wavelength(nm)  Flambda(ergs/cm^s/s/nm)
300.00 2.382
300.10 2.38
300.20 2.378
300.30 2.376
300.40 2.374
300.50 2.373
300.60 2.371
300.70 2.369
300.80 2.367
300.90 2.365
301.00 2.363
301.10 2.361
301.20 2.359
301.30 2.357
301.40 2.355
301.50 2.353
301.60 2.352
301.70 2.35
301.80 2.348
301.90 2.346
302.00 2.344
302.10 2.342
302.20 2.34
302.30 2.338
302.40 2.336
302.50 2.335
302.60 2.333
302.70 2.331
302.80 2.329
302.90 2.327
303.00 2.325
303.10 2.323
303.20 2.321
303.30 2.32
303.40 2.318
303.50 2.316
303.60 2.314
303.70 2.312
303.80 2.31
303.90 2.309
304.00 2.307
304.10 2.305
304.20 2.303
304.30 2.301
304.40 2.299
304.50 2.297
304.60 2.296
304.70 2.294
304.80 2.292
304.90 2.29
305.00 2.288
305.10 2.287
305.20 2.285
305.30 2.283
305.40 2.281
305.50 2.279
305.60 2.278
305.70 2.276
305.80 2.274
305.90 2.272
306.00 2.27
306.10 2.269
306.20 2.267
306.30 2.265
306.40 2.263
306.50 2.261
306.60 2.26
306.70 2.258
306.80 2.256
306.90 2.254
307.00 2.252
307.10 2.251
307.20 2.249
307.30 2.247
307.40 2.245
307.50 2.243
307.60 2.242
307.70 2.24
307.80 2.238
307.90 2.236
308.00 2.235
308.10 2.233
308.20 2.231
308.30 2.229
308.40 2.227
308.50 2.226
308.60 2.224
308.70 2.222
308.80 2.22
308.90 2.219
309.00 2.217
309.10 2.215
309.20 2.213
309.30 2.212
309.40 2.21
309.50 2.208
309.60 2.206
309.70 2.205
309.80 2.203
309.90 2.201
310.00 2.199
310.10 2.198
310.20 2.196
310.30 2.194
310.40 2.193
310.50 2.191
310.60 2.189
310.70 2.187
310.80 2.186
310.90 2.184
311.00 2.182
311.10 2.181
311.20 2.179
311.30 2.177
311.40 2.175
311.50 2.174
311.60 2.172
311.70 2.17
311.80 2.169
311.90 2.167
312.00 2.165
312.10 2.164
312.20 2.162
312.30 2.16
312.40 2.159
312.50 2.157
312.60 2.155
312.70 2.153
312.80 2.152
312.90 2.15
313.00 2.148
313.10 2.147
313.20 2.145
313.30 2.143
313.40 2.142
313.50 2.14
313.60 2.138
313.70 2.137
313.80 2.135
313.90 2.133
314.00 2.132
314.10 2.13
314.20 2.128
314.30 2.127
314.40 2.125
314.50 2.123
314.60 2.122
314.70 2.12
314.80 2.118
314.90 2.117
315.00 2.115
315.10 2.114
315.20 2.112
315.30 2.11
315.40 2.109
315.50 2.107
315.60 2.105
315.70 2.104
315.80 2.102
315.90 2.1
316.00 2.099
316.10 2.097
316.20 2.096
316.30 2.094
316.40 2.092
316.50 2.091
316.60 2.089
316.70 2.088
316.80 2.086
316.90 2.084
317.00 2.083
317.10 2.081
317.20 2.079
317.30 2.078
317.40 2.076
317.50 2.075
317.60 2.073
317.70 2.071
317.80 2.07
317.90 2.068
318.00 2.067
318.10 2.065
318.20 2.064
318.30 2.062
318.40 2.06
318.50 2.059
318.60 2.057
318.70 2.056
318.80 2.054
318.90 2.052
319.00 2.051
319.10 2.049
319.20 2.048
319.30 2.046
319.40 2.045
319.50 2.043
319.60 2.041
319.70 2.04
319.80 2.038
319.90 2.037
320.00 2.035
320.10 2.034
320.20 2.032
320.30 2.031
320.40 2.029
320.50 2.027
320.60 2.026
320.70 2.024
320.80 2.023
320.90 2.021
321.00 2.02
321.10 2.018
321.20 2.017
321.30 2.015
321.40 2.014
321.50 2.012
321.60 2.01
321.70 2.009
321.80 2.007
321.90 2.006
322.00 2.004
322.10 2.003
322.20 2.001
322.30 2
322.40 1.998
322.50 1.997
322.60 1.995
322.70 1.994
322.80 1.992
322.90 1.991
323.00 1.989
323.10 1.988
323.20 1.986
323.30 1.985
323.40 1.983
323.50 1.982
323.60 1.98
323.70 1.979
323.80 1.977
323.90 1.976
324.00 1.974
324.10 1.973
324.20 1.971
324.30 1.97
324.40 1.968
324.50 1.967
324.60 1.965
324.70 1.964
324.80 1.962
324.90 1.961
325.00 1.959
325.10 1.958
325.20 1.956
325.30 1.955
325.40 1.953
325.50 1.952
325.60 1.95
325.70 1.949
325.80 1.947
325.90 1.946
326.00 1.944
326.10 1.943
326.20 1.941
326.30 1.94
326.40 1.939
326.50 1.937
326.60 1.936
326.70 1.934
326.80 1.933
326.90 1.931
327.00 1.93
327.10 1.928
327.20 1.927
327.30 1.925
327.40 1.924
327.50 1.922
327.60 1.921
327.70 1.92
327.80 1.918
327.90 1.917
328.00 1.915
328.10 1.914
328.20 1.912
328.30 1.911
328.40 1.91
328.50 1.908
328.60 1.907
328.70 1.905
328.80 1.904
328.90 1.902
329.00 1.901
329.10 1.899
329.20 1.898
329.30 1.897
329.40 1.895
329.50 1.894
329.60 1.892
329.70 1.891
329.80 1.89
329.90 1.888
330.00 1.887
330.10 1.885
330.20 1.884
330.30 1.883
330.40 1.881
330.50 1.88
330.60 1.878
330.70 1.877
330.80 1.876
330.90 1.874
331.00 1.873
331.10 1.871
331.20 1.87
331.30 1.869
331.40 1.867
331.50 1.866
331.60 1.864
331.70 1.863
331.80 1.862
331.90 1.86
332.00 1.859
332.10 1.858
332.20 1.856
332.30 1.855
332.40 1.853
332.50 1.852
332.60 1.851
332.70 1.849
332.80 1.848
332.90 1.846
333.00 1.845
333.10 1.844
333.20 1.842
333.30 1.841
333.40 1.84
333.50 1.838
333.60 1.837
333.70 1.836
333.80 1.834
333.90 1.833
334.00 1.831
334.10 1.83
334.20 1.829
334.30 1.827
334.40 1.826
334.50 1.825
334.60 1.823
334.70 1.822
334.80 1.821
334.90 1.819
335.00 1.818
335.10 1.817
335.20 1.815
335.30 1.814
335.40 1.813
335.50 1.811
335.60 1.81
335.70 1.809
335.80 1.807
335.90 1.806
336.00 1.805
336.10 1.803
336.20 1.802
336.30 1.801
336.40 1.799
336.50 1.798
336.60 1.797
336.70 1.795
336.80 1.794
336.90 1.793
337.00 1.791
337.10 1.79
337.20 1.789
337.30 1.787
337.40 1.786
337.50 1.785
337.60 1.783
337.70 1.782
337.80 1.781
337.90 1.78
338.00 1.778
338.10 1.777
338.20 1.776
338.30 1.774
338.40 1.773
338.50 1.772
338.60 1.77
338.70 1.769
338.80 1.768
338.90 1.767
339.00 1.765
339.10 1.764
339.20 1.763
339.30 1.761
339.40 1.76
339.50 1.759
339.60 1.758
339.70 1.756
339.80 1.755
339.90 1.754
340.00 1.752
340.10 1.751
340.20 1.75
340.30 1.749
340.40 1.747
340.50 1.746
340.60 1.745
340.70 1.744
340.80 1.742
340.90 1.741
341.00 1.74
341.10 1.738
341.20 1.737
341.30 1.736
341.40 1.735
341.50 1.733
341.60 1.732
341.70 1.731
341.80 1.73
341.90 1.728
342.00 1.727
342.10 1.726
342.20 1.725
342.30 1.723
342.40 1.722
342.50 1.721
342.60 1.72
342.70 1.718
342.80 1.717
342.90 1.716
343.00 1.715
343.10 1.713
343.20 1.712
343.30 1.711
343.40 1.71
343.50 1.708
343.60 1.707
343.70 1.706
343.80 1.705
343.90 1.703
344.00 1.702
344.10 1.701
344.20 1.7
344.30 1.699
344.40 1.697
344.50 1.696
344.60 1.695
344.70 1.694
344.80 1.692
344.90 1.691
345.00 1.69
345.10 1.689
345.20 1.688
345.30 1.686
345.40 1.685
345.50 1.684
345.60 1.683
345.70 1.681
345.80 1.68
345.90 1.679
346.00 1.678
346.10 1.677
346.20 1.675
346.30 1.674
346.40 1.673
346.50 1.672
346.60 1.671
346.70 1.669
346.80 1.668
346.90 1.667
347.00 1.666
347.10 1.665
347.20 1.663
347.30 1.662
347.40 1.661
347.50 1.66
347.60 1.659
347.70 1.658
347.80 1.656
347.90 1.655
348.00 1.654
348.10 1.653
348.20 1.652
348.30 1.65
348.40 1.649
348.50 1.648
348.60 1.647
348.70 1.646
348.80 1.644
348.90 1.643
349.00 1.642
349.10 1.641
349.20 1.64
349.30 1.639
349.40 1.637
349.50 1.636
349.60 1.635
349.70 1.634
349.80 1.633
349.90 1.632
350.00 1.63
350.10 1.629
350.20 1.628
350.30 1.627
350.40 1.626
350.50 1.625
350.60 1.624
350.70 1.622
350.80 1.621
350.90 1.62
351.00 1.619
351.10 1.618
351.20 1.617
351.30 1.615
351.40 1.614
351.50 1.613
351.60 1.612
351.70 1.611
351.80 1.61
351.90 1.609
352.00 1.607
352.10 1.606
352.20 1.605
352.30 1.604
352.40 1.603
352.50 1.602
352.60 1.601
352.70 1.599
352.80 1.598
352.90 1.597
353.00 1.596
353.10 1.595
353.20 1.594
353.30 1.593
353.40 1.592
353.50 1.59
353.60 1.589
353.70 1.588
353.80 1.587
353.90 1.586
354.00 1.585
354.10 1.584
354.20 1.583
354.30 1.581
354.40 1.58
354.50 1.579
354.60 1.578
354.70 1.577
354.80 1.576
354.90 1.575
355.00 1.574
355.10 1.573
355.20 1.571
355.30 1.57
355.40 1.569
355.50 1.568
355.60 1.567
355.70 1.566
355.80 1.565
355.90 1.564
356.00 1.563
356.10 1.561
356.20 1.56
356.30 1.559
356.40 1.558
356.50 1.557
356.60 1.556
356.70 1.555
356.80 1.554
356.90 1.553
357.00 1.552
357.10 1.551
357.20 1.549
357.30 1.548
357.40 1.547
357.50 1.546
357.60 1.545
357.70 1.544
357.80 1.543
357.90 1.542
358.00 1.541
358.10 1.54
358.20 1.539
358.30 1.538
358.40 1.536
358.50 1.535
358.60 1.534
358.70 1.533
358.80 1.532
358.90 1.531
359.00 1.53
359.10 1.529
359.20 1.528
359.30 1.527
359.40 1.526
359.50 1.525
359.60 1.524
359.70 1.523
359.80 1.521
359.90 1.52
360.00 1.519
360.10 1.518
360.20 1.517
360.30 1.516
360.40 1.515
360.50 1.514
360.60 1.513
360.70 1.512
360.80 1.511
360.90 1.51
361.00 1.509
361.10 1.508
361.20 1.507
361.30 1.506
361.40 1.505
361.50 1.504
361.60 1.503
361.70 1.501
361.80 1.5
361.90 1.499
362.00 1.498
362.10 1.497
362.20 1.496
362.30 1.495
362.40 1.494
362.50 1.493
362.60 1.492
362.70 1.491
362.80 1.49
362.90 1.489
363.00 1.488
363.10 1.487
363.20 1.486
363.30 1.485
363.40 1.483
363.50 1.482
363.60 1.481
363.70 1.48
363.80 1.479
363.90 1.478
364.00 1.477
364.10 1.476
364.20 1.475
364.30 1.473
364.40 1.472
364.50 1.471
364.60 1.47
364.70 1.469
364.80 1.468
364.90 1.467
365.00 1.465
365.10 1.464
365.20 1.463
365.30 1.462
365.40 1.461
365.50 1.46
365.60 1.459
365.70 1.458
365.80 1.456
365.90 1.455
366.00 1.454
366.10 1.453
366.20 1.452
366.30 1.451
366.40 1.45
366.50 1.449
366.60 1.448
366.70 1.447
366.80 1.446
366.90 1.445
367.00 1.444
367.10 1.443
367.20 1.442
367.30 1.441
367.40 1.44
367.50 1.439
367.60 1.438
367.70 1.437
367.80 1.436
367.90 1.435
368.00 1.434
368.10 1.433
368.20 1.432
368.30 1.431
368.40 1.43
368.50 1.429
368.60 1.428
368.70 1.427
368.80 1.426
368.90 1.426
369.00 1.425
369.10 1.424
369.20 1.423
369.30 1.422
369.40 1.421
369.50 1.42
369.60 1.419
369.70 1.418
369.80 1.418
369.90 1.417
370.00 1.416
370.10 1.415
370.20 1.415
370.30 1.415
370.40 1.414
370.50 1.414
370.60 1.413
370.70 1.413
370.80 1.412
370.90 1.412
371.00 1.412
371.10 1.411
371.20 1.411
371.30 1.41
371.40 1.41
371.50 1.409
371.60 1.409
371.70 1.409
371.80 1.408
371.90 1.408
372.00 1.407
372.10 1.408
372.20 1.408
372.30 1.408
372.40 1.409
372.50 1.409
372.60 1.409
372.70 1.41
372.80 1.41
372.90 1.41
373.00 1.41
373.10 1.411
373.20 1.411
373.30 1.411
373.40 1.412
373.50 1.412
373.60 1.412
373.70 1.413
373.80 1.413
373.90 1.413
374.00 1.414
374.10 1.414
374.20 1.415
374.30 1.416
374.40 1.417
374.50 1.417
374.60 1.418
374.70 1.419
374.80 1.42
374.90 1.42
375.00 1.421
375.10 1.422
375.20 1.423
375.30 1.423
375.40 1.424
375.50 1.425
375.60 1.426
375.70 1.427
375.80 1.427
375.90 1.428
376.00 1.429
376.10 1.429
376.20 1.429
376.30 1.43
376.40 1.43
376.50 1.43
376.60 1.431
376.70 1.431
376.80 1.431
376.90 1.432
377.00 1.432
377.10 1.431
377.20 1.43
377.30 1.429
377.40 1.428
377.50 1.427
377.60 1.426
377.70 1.425
377.80 1.424
377.90 1.423
378.00 1.422
378.10 1.417
378.20 1.411
378.30 1.406
378.40 1.401
378.50 1.396
378.60 1.39
378.70 1.385
378.80 1.38
378.90 1.375
379.00 1.37
379.10 1.366
379.20 1.362
379.30 1.359
379.40 1.355
379.50 1.351
379.60 1.348
379.70 1.344
379.80 1.34
379.90 1.337
380.00 1.333
380.10 1.338
380.20 1.343
380.30 1.349
380.40 1.354
380.50 1.359
380.60 1.364
380.70 1.369
380.80 1.374
380.90 1.379
381.00 1.385
381.10 1.386
381.20 1.388
381.30 1.389
381.40 1.391
381.50 1.392
381.60 1.391
381.70 1.389
381.80 1.386
381.90 1.382
382.00 1.378
382.10 1.372
382.20 1.365
382.30 1.352
382.40 1.34
382.50 1.327
382.60 1.315
382.70 1.302
382.80 1.289
382.90 1.277
383.00 1.264
383.10 1.252
383.20 1.239
383.30 1.231
383.40 1.22
383.50 1.209
383.60 1.211
383.70 1.223
383.80 1.233
383.90 1.243
384.00 1.254
384.10 1.27
384.20 1.286
384.30 1.302
384.40 1.317
384.50 1.332
384.60 1.345
384.70 1.357
384.80 1.367
384.90 1.376
385.00 1.383
385.10 1.389
385.20 1.395
385.30 1.4
385.40 1.403
385.50 1.406
385.60 1.408
385.70 1.409
385.80 1.409
385.90 1.409
386.00 1.407
386.10 1.406
386.20 1.403
386.30 1.4
386.40 1.396
386.50 1.391
386.60 1.385
386.70 1.379
386.80 1.372
386.90 1.364
387.00 1.356
387.10 1.347
387.20 1.337
387.30 1.326
387.40 1.315
387.50 1.302
387.60 1.288
387.70 1.273
387.80 1.255
387.90 1.237
388.00 1.217
388.10 1.195
388.20 1.17
388.30 1.145
388.40 1.118
388.50 1.093
388.60 1.071
388.70 1.055
388.80 1.04
388.90 1.027
389.00 1.038
389.10 1.052
389.20 1.069
389.30 1.09
389.40 1.114
389.50 1.141
389.60 1.167
389.70 1.192
389.80 1.215
389.90 1.236
390.00 1.255
390.10 1.274
390.20 1.29
390.30 1.306
390.40 1.321
390.50 1.334
390.60 1.347
390.70 1.359
390.80 1.371
390.90 1.382
391.00 1.393
391.10 1.402
391.20 1.412
391.30 1.421
391.40 1.429
391.50 1.437
391.60 1.445
391.70 1.451
391.80 1.458
391.90 1.463
392.00 1.468
392.10 1.472
392.20 1.476
392.30 1.478
392.40 1.48
392.50 1.482
392.60 1.483
392.70 1.483
392.80 1.482
392.90 1.481
393.00 1.478
393.10 1.476
393.20 1.472
393.30 1.467
393.40 1.462
393.50 1.456
393.60 1.45
393.70 1.443
393.80 1.434
393.90 1.426
394.00 1.416
394.10 1.406
394.20 1.395
394.30 1.384
394.40 1.371
394.50 1.358
394.60 1.345
394.70 1.331
394.80 1.316
394.90 1.302
395.00 1.286
395.10 1.27
395.20 1.254
395.30 1.237
395.40 1.22
395.50 1.202
395.60 1.183
395.70 1.164
395.80 1.144
395.90 1.124
396.00 1.102
396.10 1.08
396.20 1.055
396.30 1.029
396.40 1
396.50 0.9678
396.60 0.9353
396.70 0.9027
396.80 0.8764
396.90 0.8483
397.00 0.8183
397.10 0.8454
397.20 0.8715
397.30 0.8964
397.40 0.9278
397.50 0.9594
397.60 0.9912
397.70 1.019
397.80 1.045
397.90 1.069
398.00 1.091
398.10 1.111
398.20 1.131
398.30 1.151
398.40 1.169
398.50 1.187
398.60 1.205
398.70 1.222
398.80 1.239
398.90 1.255
399.00 1.271
399.10 1.287
399.20 1.302
399.30 1.317
399.40 1.332
399.50 1.347
399.60 1.361
399.70 1.375
399.80 1.389
399.90 1.402
400.00 1.415
400.10 1.427
400.20 1.439
400.30 1.45
400.40 1.461
400.50 1.472
400.60 1.482
400.70 1.492
400.80 1.501
400.90 1.511
401.00 1.519
401.10 1.527
401.20 1.535
401.30 1.542
401.40 1.549
401.50 1.556
401.60 1.562
401.70 1.568
401.80 1.573
401.90 1.578
402.00 1.583
402.10 1.587
402.20 1.591
402.30 1.594
402.40 1.598
402.50 1.6
402.60 1.603
402.70 1.605
402.80 1.606
402.90 1.608
403.00 1.609
403.10 1.609
403.20 1.61
403.30 1.609
403.40 1.609
403.50 1.608
403.60 1.607
403.70 1.605
403.80 1.603
403.90 1.601
404.00 1.598
404.10 1.595
404.20 1.592
404.30 1.588
404.40 1.584
404.50 1.58
404.60 1.575
404.70 1.57
404.80 1.564
404.90 1.558
405.00 1.552
405.10 1.545
405.20 1.538
405.30 1.53
405.40 1.523
405.50 1.514
405.60 1.506
405.70 1.497
405.80 1.487
405.90 1.477
406.00 1.467
406.10 1.457
406.20 1.446
406.30 1.434
406.40 1.422
406.50 1.41
406.60 1.398
406.70 1.385
406.80 1.372
406.90 1.358
407.00 1.344
407.10 1.329
407.20 1.315
407.30 1.299
407.40 1.284
407.50 1.268
407.60 1.251
407.70 1.235
407.80 1.218
407.90 1.201
408.00 1.184
408.10 1.166
408.20 1.148
408.30 1.13
408.40 1.112
408.50 1.094
408.60 1.075
408.70 1.057
408.80 1.038
408.90 1.019
409.00 0.9993
409.10 0.9797
409.20 0.9597
409.30 0.9393
409.40 0.917
409.50 0.8929
409.60 0.8672
409.70 0.8376
409.80 0.8068
409.90 0.7747
410.00 0.7411
410.10 0.711
410.20 0.6845
410.30 0.7231
410.40 0.7583
410.50 0.7899
410.60 0.8206
410.70 0.8497
410.80 0.877
410.90 0.9003
411.00 0.9222
411.10 0.9426
411.20 0.9616
411.30 0.9802
411.40 0.9984
411.50 1.016
411.60 1.034
411.70 1.052
411.80 1.069
411.90 1.086
412.00 1.103
412.10 1.119
412.20 1.136
412.30 1.152
412.40 1.168
412.50 1.184
412.60 1.2
412.70 1.215
412.80 1.23
412.90 1.245
413.00 1.259
413.10 1.273
413.20 1.287
413.30 1.3
413.40 1.313
413.50 1.326
413.60 1.338
413.70 1.351
413.80 1.362
413.90 1.374
414.00 1.385
414.10 1.396
414.20 1.406
414.30 1.416
414.40 1.426
414.50 1.436
414.60 1.445
414.70 1.454
414.80 1.463
414.90 1.471
415.00 1.48
415.10 1.487
415.20 1.495
415.30 1.503
415.40 1.51
415.50 1.517
415.60 1.523
415.70 1.53
415.80 1.536
415.90 1.542
416.00 1.548
416.10 1.553
416.20 1.559
416.30 1.564
416.40 1.569
416.50 1.573
416.60 1.578
416.70 1.582
416.80 1.587
416.90 1.591
417.00 1.594
417.10 1.598
417.20 1.602
417.30 1.605
417.40 1.608
417.50 1.611
417.60 1.614
417.70 1.617
417.80 1.62
417.90 1.622
418.00 1.624
418.10 1.627
418.20 1.629
418.30 1.631
418.40 1.633
418.50 1.634
418.60 1.636
418.70 1.638
418.80 1.639
418.90 1.64
419.00 1.642
419.10 1.643
419.20 1.644
419.30 1.645
419.40 1.645
419.50 1.646
419.60 1.647
419.70 1.647
419.80 1.648
419.90 1.648
420.00 1.649
420.10 1.649
420.20 1.649
420.30 1.649
420.40 1.649
420.50 1.649
420.60 1.649
420.70 1.649
420.80 1.648
420.90 1.648
421.00 1.647
421.10 1.647
421.20 1.646
421.30 1.646
421.40 1.645
421.50 1.644
421.60 1.643
421.70 1.642
421.80 1.641
421.90 1.64
422.00 1.639
422.10 1.638
422.20 1.637
422.30 1.635
422.40 1.634
422.50 1.633
422.60 1.631
422.70 1.629
422.80 1.628
422.90 1.626
423.00 1.624
423.10 1.623
423.20 1.621
423.30 1.619
423.40 1.617
423.50 1.614
423.60 1.612
423.70 1.61
423.80 1.608
423.90 1.605
424.00 1.603
424.10 1.6
424.20 1.598
424.30 1.595
424.40 1.592
424.50 1.589
424.60 1.586
424.70 1.583
424.80 1.58
424.90 1.577
425.00 1.574
425.10 1.571
425.20 1.567
425.30 1.564
425.40 1.56
425.50 1.556
425.60 1.553
425.70 1.549
425.80 1.545
425.90 1.541
426.00 1.536
426.10 1.532
426.20 1.527
426.30 1.522
426.40 1.517
426.50 1.512
426.60 1.507
426.70 1.502
426.80 1.497
426.90 1.492
427.00 1.487
427.10 1.481
427.20 1.475
427.30 1.47
427.40 1.464
427.50 1.458
427.60 1.452
427.70 1.445
427.80 1.439
427.90 1.432
428.00 1.425
428.10 1.418
428.20 1.411
428.30 1.404
428.40 1.396
428.50 1.389
428.60 1.381
428.70 1.373
428.80 1.365
428.90 1.356
429.00 1.348
429.10 1.339
429.20 1.33
429.30 1.321
429.40 1.311
429.50 1.302
429.60 1.292
429.70 1.282
429.80 1.272
429.90 1.261
430.00 1.251
430.10 1.24
430.20 1.229
430.30 1.218
430.40 1.206
430.50 1.195
430.60 1.183
430.70 1.171
430.80 1.159
430.90 1.146
431.00 1.133
431.10 1.12
431.20 1.107
431.30 1.094
431.40 1.081
431.50 1.067
431.60 1.053
431.70 1.039
431.80 1.025
431.90 1.011
432.00 0.9958
432.10 0.9809
432.20 0.9656
432.30 0.9501
432.40 0.9342
432.50 0.9177
432.60 0.9008
432.70 0.8835
432.80 0.8659
432.90 0.8485
433.00 0.8311
433.10 0.8144
433.20 0.7976
433.30 0.7806
433.40 0.7619
433.50 0.7415
433.60 0.7196
433.70 0.6923
433.80 0.6616
433.90 0.6275
434.00 0.5687
434.10 0.5696
434.20 0.63
434.30 0.6629
434.40 0.6925
434.50 0.7188
434.60 0.7397
434.70 0.759
434.80 0.7767
434.90 0.7928
435.00 0.8087
435.10 0.8244
435.20 0.8408
435.30 0.8572
435.40 0.8737
435.50 0.8897
435.60 0.9054
435.70 0.9207
435.80 0.9352
435.90 0.9495
436.00 0.9634
436.10 0.9769
436.20 0.9901
436.30 1.003
436.40 1.016
436.50 1.028
436.60 1.041
436.70 1.053
436.80 1.064
436.90 1.076
437.00 1.087
437.10 1.099
437.20 1.11
437.30 1.12
437.40 1.131
437.50 1.141
437.60 1.151
437.70 1.161
437.80 1.17
437.90 1.179
438.00 1.188
438.10 1.197
438.20 1.206
438.30 1.214
438.40 1.223
438.50 1.231
438.60 1.238
438.70 1.246
438.80 1.253
438.90 1.26
439.00 1.267
439.10 1.274
439.20 1.28
439.30 1.286
439.40 1.293
439.50 1.298
439.60 1.304
439.70 1.31
439.80 1.315
439.90 1.32
440.00 1.325
440.10 1.33
440.20 1.335
440.30 1.339
440.40 1.344
440.50 1.348
440.60 1.352
440.70 1.356
440.80 1.36
440.90 1.364
441.00 1.367
441.10 1.371
441.20 1.374
441.30 1.377
441.40 1.38
441.50 1.383
441.60 1.386
441.70 1.389
441.80 1.391
441.90 1.394
442.00 1.396
442.10 1.399
442.20 1.401
442.30 1.403
442.40 1.405
442.50 1.407
442.60 1.409
442.70 1.411
442.80 1.412
442.90 1.414
443.00 1.416
443.10 1.417
443.20 1.418
443.30 1.42
443.40 1.421
443.50 1.422
443.60 1.424
443.70 1.425
443.80 1.426
443.90 1.427
444.00 1.428
444.10 1.429
444.20 1.429
444.30 1.43
444.40 1.431
444.50 1.432
444.60 1.432
444.70 1.433
444.80 1.433
444.90 1.434
445.00 1.434
445.10 1.435
445.20 1.435
445.30 1.436
445.40 1.436
445.50 1.436
445.60 1.437
445.70 1.437
445.80 1.437
445.90 1.437
446.00 1.437
446.10 1.437
446.20 1.437
446.30 1.437
446.40 1.437
446.50 1.437
446.60 1.437
446.70 1.437
446.80 1.437
446.90 1.437
447.00 1.437
447.10 1.437
447.20 1.437
447.30 1.437
447.40 1.436
447.50 1.436
447.60 1.436
447.70 1.436
447.80 1.435
447.90 1.435
448.00 1.435
448.10 1.434
448.20 1.434
448.30 1.434
448.40 1.433
448.50 1.433
448.60 1.432
448.70 1.432
448.80 1.431
448.90 1.431
449.00 1.431
449.10 1.43
449.20 1.43
449.30 1.429
449.40 1.429
449.50 1.428
449.60 1.428
449.70 1.427
449.80 1.426
449.90 1.426
450.00 1.425
450.10 1.425
450.20 1.424
450.30 1.423
450.40 1.423
450.50 1.422
450.60 1.422
450.70 1.421
450.80 1.42
450.90 1.419
451.00 1.419
451.10 1.418
451.20 1.417
451.30 1.417
451.40 1.416
451.50 1.415
451.60 1.415
451.70 1.414
451.80 1.413
451.90 1.412
452.00 1.412
452.10 1.411
452.20 1.41
452.30 1.409
452.40 1.409
452.50 1.408
452.60 1.407
452.70 1.406
452.80 1.405
452.90 1.405
453.00 1.404
453.10 1.403
453.20 1.402
453.30 1.401
453.40 1.401
453.50 1.4
