# Version 2.1 - nm, norm@500 to 1, cut digits, bergeron_40000_85.dat_40000
# Wavelength(nm)  Flambda(ergs/cm^s/s/nm)
300.00 5.872
300.10 5.865
300.20 5.858
300.30 5.851
300.40 5.845
300.50 5.838
300.60 5.831
300.70 5.824
300.80 5.817
300.90 5.81
301.00 5.803
301.10 5.796
301.20 5.79
301.30 5.783
301.40 5.776
301.50 5.769
301.60 5.762
301.70 5.755
301.80 5.749
301.90 5.742
302.00 5.735
302.10 5.728
302.20 5.722
302.30 5.715
302.40 5.708
302.50 5.702
302.60 5.695
302.70 5.688
302.80 5.681
302.90 5.675
303.00 5.668
303.10 5.661
303.20 5.655
303.30 5.648
303.40 5.642
303.50 5.635
303.60 5.628
303.70 5.622
303.80 5.615
303.90 5.609
304.00 5.602
304.10 5.595
304.20 5.589
304.30 5.582
304.40 5.576
304.50 5.569
304.60 5.563
304.70 5.556
304.80 5.55
304.90 5.543
305.00 5.537
305.10 5.53
305.20 5.524
305.30 5.518
305.40 5.511
305.50 5.505
305.60 5.498
305.70 5.492
305.80 5.486
305.90 5.479
306.00 5.473
306.10 5.466
306.20 5.46
306.30 5.454
306.40 5.447
306.50 5.441
306.60 5.435
306.70 5.428
306.80 5.422
306.90 5.416
307.00 5.41
307.10 5.403
307.20 5.397
307.30 5.391
307.40 5.384
307.50 5.378
307.60 5.372
307.70 5.366
307.80 5.36
307.90 5.353
308.00 5.347
308.10 5.341
308.20 5.335
308.30 5.329
308.40 5.323
308.50 5.316
308.60 5.31
308.70 5.304
308.80 5.298
308.90 5.292
309.00 5.286
309.10 5.28
309.20 5.274
309.30 5.268
309.40 5.261
309.50 5.255
309.60 5.249
309.70 5.243
309.80 5.237
309.90 5.231
310.00 5.225
310.10 5.219
310.20 5.213
310.30 5.207
310.40 5.201
310.50 5.195
310.60 5.189
310.70 5.183
310.80 5.177
310.90 5.172
311.00 5.166
311.10 5.16
311.20 5.154
311.30 5.148
311.40 5.142
311.50 5.136
311.60 5.13
311.70 5.124
311.80 5.118
311.90 5.113
312.00 5.107
312.10 5.101
312.20 5.095
312.30 5.089
312.40 5.084
312.50 5.078
312.60 5.072
312.70 5.066
312.80 5.06
312.90 5.055
313.00 5.049
313.10 5.043
313.20 5.037
313.30 5.032
313.40 5.026
313.50 5.02
313.60 5.014
313.70 5.009
313.80 5.003
313.90 4.997
314.00 4.992
314.10 4.986
314.20 4.98
314.30 4.975
314.40 4.969
314.50 4.963
314.60 4.958
314.70 4.952
314.80 4.947
314.90 4.941
315.00 4.935
315.10 4.93
315.20 4.924
315.30 4.919
315.40 4.913
315.50 4.907
315.60 4.902
315.70 4.896
315.80 4.891
315.90 4.885
316.00 4.88
316.10 4.874
316.20 4.869
316.30 4.863
316.40 4.858
316.50 4.852
316.60 4.847
316.70 4.841
316.80 4.836
316.90 4.83
317.00 4.825
317.10 4.82
317.20 4.814
317.30 4.809
317.40 4.803
317.50 4.798
317.60 4.793
317.70 4.787
317.80 4.782
317.90 4.776
318.00 4.771
318.10 4.766
318.20 4.76
318.30 4.755
318.40 4.75
318.50 4.744
318.60 4.739
318.70 4.734
318.80 4.728
318.90 4.723
319.00 4.718
319.10 4.713
319.20 4.707
319.30 4.702
319.40 4.697
319.50 4.691
319.60 4.686
319.70 4.681
319.80 4.676
319.90 4.671
320.00 4.665
320.10 4.66
320.20 4.655
320.30 4.65
320.40 4.645
320.50 4.639
320.60 4.634
320.70 4.629
320.80 4.624
320.90 4.619
321.00 4.614
321.10 4.608
321.20 4.603
321.30 4.598
321.40 4.593
321.50 4.588
321.60 4.583
321.70 4.578
321.80 4.573
321.90 4.568
322.00 4.563
322.10 4.557
322.20 4.552
322.30 4.547
322.40 4.542
322.50 4.537
322.60 4.532
322.70 4.527
322.80 4.522
322.90 4.517
323.00 4.512
323.10 4.507
323.20 4.502
323.30 4.497
323.40 4.492
323.50 4.487
323.60 4.482
323.70 4.477
323.80 4.472
323.90 4.467
324.00 4.463
324.10 4.458
324.20 4.453
324.30 4.448
324.40 4.443
324.50 4.438
324.60 4.433
324.70 4.428
324.80 4.423
324.90 4.418
325.00 4.414
325.10 4.409
325.20 4.404
325.30 4.399
325.40 4.394
325.50 4.389
325.60 4.385
325.70 4.38
325.80 4.375
325.90 4.37
326.00 4.365
326.10 4.361
326.20 4.356
326.30 4.351
326.40 4.346
326.50 4.341
326.60 4.337
326.70 4.332
326.80 4.327
326.90 4.322
327.00 4.318
327.10 4.313
327.20 4.308
327.30 4.304
327.40 4.299
327.50 4.294
327.60 4.289
327.70 4.285
327.80 4.28
327.90 4.275
328.00 4.271
328.10 4.266
328.20 4.261
328.30 4.257
328.40 4.252
328.50 4.247
328.60 4.243
328.70 4.238
328.80 4.234
328.90 4.229
329.00 4.224
329.10 4.22
329.20 4.215
329.30 4.211
329.40 4.206
329.50 4.201
329.60 4.197
329.70 4.192
329.80 4.188
329.90 4.183
330.00 4.179
330.10 4.174
330.20 4.17
330.30 4.165
330.40 4.161
330.50 4.156
330.60 4.152
330.70 4.147
330.80 4.143
330.90 4.138
331.00 4.134
331.10 4.129
331.20 4.125
331.30 4.12
331.40 4.116
331.50 4.111
331.60 4.107
331.70 4.102
331.80 4.098
331.90 4.094
332.00 4.089
332.10 4.085
332.20 4.08
332.30 4.076
332.40 4.072
332.50 4.067
332.60 4.063
332.70 4.058
332.80 4.054
332.90 4.05
333.00 4.045
333.10 4.041
333.20 4.037
333.30 4.032
333.40 4.028
333.50 4.024
333.60 4.019
333.70 4.015
333.80 4.011
333.90 4.006
334.00 4.002
334.10 3.998
334.20 3.993
334.30 3.989
334.40 3.985
334.50 3.981
334.60 3.976
334.70 3.972
334.80 3.968
334.90 3.964
335.00 3.959
335.10 3.955
335.20 3.951
335.30 3.947
335.40 3.942
335.50 3.938
335.60 3.934
335.70 3.93
335.80 3.926
335.90 3.921
336.00 3.917
336.10 3.913
336.20 3.909
336.30 3.905
336.40 3.901
336.50 3.896
336.60 3.892
336.70 3.888
336.80 3.884
336.90 3.88
337.00 3.876
337.10 3.872
337.20 3.867
337.30 3.863
337.40 3.859
337.50 3.855
337.60 3.851
337.70 3.847
337.80 3.843
337.90 3.839
338.00 3.835
338.10 3.831
338.20 3.826
338.30 3.822
338.40 3.818
338.50 3.814
338.60 3.81
338.70 3.806
338.80 3.802
338.90 3.798
339.00 3.794
339.10 3.79
339.20 3.786
339.30 3.782
339.40 3.778
339.50 3.774
339.60 3.77
339.70 3.766
339.80 3.762
339.90 3.758
340.00 3.754
340.10 3.75
340.20 3.746
340.30 3.742
340.40 3.738
340.50 3.734
340.60 3.731
340.70 3.727
340.80 3.723
340.90 3.719
341.00 3.715
341.10 3.711
341.20 3.707
341.30 3.703
341.40 3.699
341.50 3.695
341.60 3.691
341.70 3.687
341.80 3.684
341.90 3.68
342.00 3.676
342.10 3.672
342.20 3.668
342.30 3.664
342.40 3.66
342.50 3.657
342.60 3.653
342.70 3.649
342.80 3.645
342.90 3.641
343.00 3.638
343.10 3.634
343.20 3.63
343.30 3.626
343.40 3.622
343.50 3.619
343.60 3.615
343.70 3.611
343.80 3.607
343.90 3.603
344.00 3.6
344.10 3.596
344.20 3.592
344.30 3.588
344.40 3.585
344.50 3.581
344.60 3.577
344.70 3.573
344.80 3.57
344.90 3.566
345.00 3.562
345.10 3.559
345.20 3.555
345.30 3.551
345.40 3.547
345.50 3.544
345.60 3.54
345.70 3.536
345.80 3.533
345.90 3.529
346.00 3.525
346.10 3.522
346.20 3.518
346.30 3.514
346.40 3.511
346.50 3.507
346.60 3.503
346.70 3.5
346.80 3.496
346.90 3.493
347.00 3.489
347.10 3.485
347.20 3.482
347.30 3.478
347.40 3.474
347.50 3.471
347.60 3.467
347.70 3.464
347.80 3.46
347.90 3.457
348.00 3.453
348.10 3.449
348.20 3.446
348.30 3.442
348.40 3.439
348.50 3.435
348.60 3.432
348.70 3.428
348.80 3.425
348.90 3.421
349.00 3.417
349.10 3.414
349.20 3.41
349.30 3.407
349.40 3.403
349.50 3.4
349.60 3.396
349.70 3.393
349.80 3.389
349.90 3.386
350.00 3.382
350.10 3.379
350.20 3.375
350.30 3.372
350.40 3.369
350.50 3.365
350.60 3.362
350.70 3.358
350.80 3.355
350.90 3.351
351.00 3.348
351.10 3.344
351.20 3.341
351.30 3.338
351.40 3.334
351.50 3.331
351.60 3.327
351.70 3.324
351.80 3.32
351.90 3.317
352.00 3.314
352.10 3.31
352.20 3.307
352.30 3.304
352.40 3.3
352.50 3.297
352.60 3.293
352.70 3.29
352.80 3.287
352.90 3.283
353.00 3.28
353.10 3.277
353.20 3.273
353.30 3.27
353.40 3.267
353.50 3.263
353.60 3.26
353.70 3.257
353.80 3.253
353.90 3.25
354.00 3.247
354.10 3.243
354.20 3.24
354.30 3.237
354.40 3.234
354.50 3.23
354.60 3.227
354.70 3.224
354.80 3.22
354.90 3.217
355.00 3.214
355.10 3.211
355.20 3.207
355.30 3.204
355.40 3.201
355.50 3.198
355.60 3.194
355.70 3.191
355.80 3.188
355.90 3.185
356.00 3.181
356.10 3.178
356.20 3.175
356.30 3.172
356.40 3.169
356.50 3.165
356.60 3.162
356.70 3.159
356.80 3.156
356.90 3.153
357.00 3.149
357.10 3.146
357.20 3.143
357.30 3.14
357.40 3.137
357.50 3.134
357.60 3.13
357.70 3.127
357.80 3.124
357.90 3.121
358.00 3.118
358.10 3.115
358.20 3.111
358.30 3.108
358.40 3.105
358.50 3.102
358.60 3.099
358.70 3.096
358.80 3.093
358.90 3.09
359.00 3.087
359.10 3.083
359.20 3.08
359.30 3.077
359.40 3.074
359.50 3.071
359.60 3.068
359.70 3.065
359.80 3.062
359.90 3.059
360.00 3.056
360.10 3.053
360.20 3.05
360.30 3.047
360.40 3.043
360.50 3.04
360.60 3.037
360.70 3.034
360.80 3.031
360.90 3.028
361.00 3.025
361.10 3.022
361.20 3.019
361.30 3.016
361.40 3.013
361.50 3.01
361.60 3.007
361.70 3.004
361.80 3.001
361.90 2.998
362.00 2.995
362.10 2.992
362.20 2.989
362.30 2.986
362.40 2.983
362.50 2.98
362.60 2.977
362.70 2.974
362.80 2.971
362.90 2.968
363.00 2.965
363.10 2.963
363.20 2.96
363.30 2.957
363.40 2.954
363.50 2.951
363.60 2.948
363.70 2.945
363.80 2.942
363.90 2.939
364.00 2.936
364.10 2.933
364.20 2.93
364.30 2.927
364.40 2.925
364.50 2.922
364.60 2.919
364.70 2.916
364.80 2.913
364.90 2.91
365.00 2.907
365.10 2.904
365.20 2.901
365.30 2.899
365.40 2.896
365.50 2.893
365.60 2.89
365.70 2.887
365.80 2.884
365.90 2.881
366.00 2.879
366.10 2.876
366.20 2.873
366.30 2.87
366.40 2.867
366.50 2.864
366.60 2.861
366.70 2.858
366.80 2.855
366.90 2.852
367.00 2.849
367.10 2.846
367.20 2.843
367.30 2.841
367.40 2.838
367.50 2.835
367.60 2.832
367.70 2.829
367.80 2.826
367.90 2.823
368.00 2.82
368.10 2.817
368.20 2.814
368.30 2.811
368.40 2.809
368.50 2.806
368.60 2.803
368.70 2.8
368.80 2.797
368.90 2.794
369.00 2.791
369.10 2.788
369.20 2.785
369.30 2.782
369.40 2.779
369.50 2.776
369.60 2.774
369.70 2.771
369.80 2.768
369.90 2.765
370.00 2.762
370.10 2.759
370.20 2.756
370.30 2.754
370.40 2.751
370.50 2.748
370.60 2.745
370.70 2.742
370.80 2.739
370.90 2.737
371.00 2.734
371.10 2.731
371.20 2.728
371.30 2.725
371.40 2.723
371.50 2.72
371.60 2.717
371.70 2.714
371.80 2.711
371.90 2.709
372.00 2.706
372.10 2.703
372.20 2.701
372.30 2.698
372.40 2.695
372.50 2.693
372.60 2.69
372.70 2.687
372.80 2.685
372.90 2.682
373.00 2.679
373.10 2.677
373.20 2.674
373.30 2.671
373.40 2.669
373.50 2.666
373.60 2.663
373.70 2.661
373.80 2.658
373.90 2.656
374.00 2.653
374.10 2.65
374.20 2.648
374.30 2.645
374.40 2.642
374.50 2.64
374.60 2.637
374.70 2.634
374.80 2.632
374.90 2.629
375.00 2.626
375.10 2.624
375.20 2.621
375.30 2.619
375.40 2.616
375.50 2.613
375.60 2.611
375.70 2.608
375.80 2.605
375.90 2.603
376.00 2.6
376.10 2.598
376.20 2.595
376.30 2.593
376.40 2.59
376.50 2.587
376.60 2.585
376.70 2.582
376.80 2.58
376.90 2.577
377.00 2.575
377.10 2.572
377.20 2.57
377.30 2.568
377.40 2.565
377.50 2.563
377.60 2.56
377.70 2.558
377.80 2.556
377.90 2.553
378.00 2.551
378.10 2.548
378.20 2.546
378.30 2.544
378.40 2.541
378.50 2.539
378.60 2.536
378.70 2.534
378.80 2.532
378.90 2.529
379.00 2.527
379.10 2.525
379.20 2.522
379.30 2.52
379.40 2.518
379.50 2.516
379.60 2.513
379.70 2.511
379.80 2.509
379.90 2.506
380.00 2.504
380.10 2.502
380.20 2.5
380.30 2.498
380.40 2.496
380.50 2.493
380.60 2.491
380.70 2.489
380.80 2.487
380.90 2.485
381.00 2.483
381.10 2.481
381.20 2.479
381.30 2.476
381.40 2.474
381.50 2.472
381.60 2.47
381.70 2.468
381.80 2.465
381.90 2.463
382.00 2.461
382.10 2.459
382.20 2.456
382.30 2.454
382.40 2.452
382.50 2.449
382.60 2.447
382.70 2.444
382.80 2.442
382.90 2.44
383.00 2.437
383.10 2.435
383.20 2.433
383.30 2.43
383.40 2.428
383.50 2.426
383.60 2.424
383.70 2.423
383.80 2.421
383.90 2.419
384.00 2.418
384.10 2.416
384.20 2.415
384.30 2.413
384.40 2.412
384.50 2.41
384.60 2.409
384.70 2.407
384.80 2.405
384.90 2.404
385.00 2.402
385.10 2.4
385.20 2.398
385.30 2.397
385.40 2.395
385.50 2.393
385.60 2.391
385.70 2.389
385.80 2.387
385.90 2.384
386.00 2.382
386.10 2.38
386.20 2.378
386.30 2.375
386.40 2.373
386.50 2.37
386.60 2.368
386.70 2.365
386.80 2.363
386.90 2.36
387.00 2.357
387.10 2.354
387.20 2.352
387.30 2.349
387.40 2.346
387.50 2.343
387.60 2.34
387.70 2.337
387.80 2.333
387.90 2.33
388.00 2.327
388.10 2.324
388.20 2.321
388.30 2.318
388.40 2.315
388.50 2.312
388.60 2.31
388.70 2.307
388.80 2.305
388.90 2.303
389.00 2.302
389.10 2.301
389.20 2.3
389.30 2.299
389.40 2.299
389.50 2.298
389.60 2.298
389.70 2.298
389.80 2.298
389.90 2.298
390.00 2.297
390.10 2.297
390.20 2.297
390.30 2.296
390.40 2.296
390.50 2.296
390.60 2.295
390.70 2.295
390.80 2.294
390.90 2.293
391.00 2.293
391.10 2.292
391.20 2.291
391.30 2.29
391.40 2.289
391.50 2.287
391.60 2.286
391.70 2.285
391.80 2.283
391.90 2.282
392.00 2.28
392.10 2.278
392.20 2.277
392.30 2.275
392.40 2.273
392.50 2.27
392.60 2.268
392.70 2.266
392.80 2.263
392.90 2.261
393.00 2.258
393.10 2.255
393.20 2.252
393.30 2.249
393.40 2.246
393.50 2.243
393.60 2.24
393.70 2.236
393.80 2.233
393.90 2.229
394.00 2.225
394.10 2.221
394.20 2.217
394.30 2.213
394.40 2.209
394.50 2.204
394.60 2.2
394.70 2.195
394.80 2.19
394.90 2.185
395.00 2.18
395.10 2.175
395.20 2.17
395.30 2.165
395.40 2.159
395.50 2.154
395.60 2.148
395.70 2.142
395.80 2.136
395.90 2.131
396.00 2.125
396.10 2.119
396.20 2.113
396.30 2.107
396.40 2.101
396.50 2.095
396.60 2.089
396.70 2.083
396.80 2.078
396.90 2.072
397.00 2.068
397.10 2.069
397.20 2.071
397.30 2.073
397.40 2.076
397.50 2.079
397.60 2.082
397.70 2.085
397.80 2.088
397.90 2.091
398.00 2.094
398.10 2.097
398.20 2.1
398.30 2.102
398.40 2.105
398.50 2.108
398.60 2.11
398.70 2.113
398.80 2.115
398.90 2.117
399.00 2.119
399.10 2.121
399.20 2.123
399.30 2.125
399.40 2.127
399.50 2.128
399.60 2.13
399.70 2.131
399.80 2.133
399.90 2.134
400.00 2.135
400.10 2.136
400.20 2.137
400.30 2.137
400.40 2.138
400.50 2.138
400.60 2.139
400.70 2.139
400.80 2.139
400.90 2.14
401.00 2.14
401.10 2.14
401.20 2.139
401.30 2.139
401.40 2.139
401.50 2.138
401.60 2.138
401.70 2.137
401.80 2.136
401.90 2.136
402.00 2.135
402.10 2.134
402.20 2.133
402.30 2.131
402.40 2.13
402.50 2.129
402.60 2.128
402.70 2.126
402.80 2.124
402.90 2.123
403.00 2.121
403.10 2.119
403.20 2.117
403.30 2.115
403.40 2.113
403.50 2.111
403.60 2.109
403.70 2.106
403.80 2.104
403.90 2.101
404.00 2.099
404.10 2.096
404.20 2.093
404.30 2.09
404.40 2.087
404.50 2.084
404.60 2.081
404.70 2.078
404.80 2.074
404.90 2.071
405.00 2.067
405.10 2.063
405.20 2.06
405.30 2.056
405.40 2.052
405.50 2.047
405.60 2.043
405.70 2.039
405.80 2.034
405.90 2.03
406.00 2.025
406.10 2.02
406.20 2.015
406.30 2.01
406.40 2.004
406.50 1.999
406.60 1.993
406.70 1.987
406.80 1.981
406.90 1.975
407.00 1.969
407.10 1.963
407.20 1.956
407.30 1.949
407.40 1.943
407.50 1.936
407.60 1.928
407.70 1.921
407.80 1.913
407.90 1.905
408.00 1.898
408.10 1.889
408.20 1.881
408.30 1.873
408.40 1.864
408.50 1.855
408.60 1.846
408.70 1.837
408.80 1.827
408.90 1.818
409.00 1.808
409.10 1.798
409.20 1.788
409.30 1.779
409.40 1.769
409.50 1.759
409.60 1.75
409.70 1.741
409.80 1.733
409.90 1.726
410.00 1.723
410.10 1.722
410.20 1.723
410.30 1.719
410.40 1.718
410.50 1.72
410.60 1.725
410.70 1.731
410.80 1.737
410.90 1.744
411.00 1.751
411.10 1.758
411.20 1.765
411.30 1.772
411.40 1.778
411.50 1.785
411.60 1.791
411.70 1.797
411.80 1.804
411.90 1.809
412.00 1.815
412.10 1.821
412.20 1.826
412.30 1.831
412.40 1.836
412.50 1.841
412.60 1.845
412.70 1.849
412.80 1.854
412.90 1.858
413.00 1.861
413.10 1.865
413.20 1.869
413.30 1.872
413.40 1.875
413.50 1.878
413.60 1.881
413.70 1.884
413.80 1.886
413.90 1.889
414.00 1.891
414.10 1.893
414.20 1.895
414.30 1.897
414.40 1.899
414.50 1.901
414.60 1.902
414.70 1.904
414.80 1.905
414.90 1.906
415.00 1.907
415.10 1.908
415.20 1.909
415.30 1.91
415.40 1.911
415.50 1.912
415.60 1.913
415.70 1.913
415.80 1.914
415.90 1.914
416.00 1.914
416.10 1.915
416.20 1.915
416.30 1.915
416.40 1.915
416.50 1.915
416.60 1.915
416.70 1.915
416.80 1.915
416.90 1.915
417.00 1.914
417.10 1.914
417.20 1.914
417.30 1.913
417.40 1.913
417.50 1.912
417.60 1.912
417.70 1.911
417.80 1.911
417.90 1.91
418.00 1.909
418.10 1.909
418.20 1.908
418.30 1.907
418.40 1.906
418.50 1.905
418.60 1.904
418.70 1.904
418.80 1.903
418.90 1.902
419.00 1.901
419.10 1.9
419.20 1.899
419.30 1.897
419.40 1.896
419.50 1.895
419.60 1.894
419.70 1.893
419.80 1.892
419.90 1.89
420.00 1.889
420.10 1.888
420.20 1.887
420.30 1.885
420.40 1.884
420.50 1.883
420.60 1.881
420.70 1.88
420.80 1.879
420.90 1.877
421.00 1.876
421.10 1.874
421.20 1.873
421.30 1.871
421.40 1.87
421.50 1.868
421.60 1.867
421.70 1.865
421.80 1.864
421.90 1.862
422.00 1.86
422.10 1.859
422.20 1.857
422.30 1.855
422.40 1.854
422.50 1.852
422.60 1.85
422.70 1.849
422.80 1.847
422.90 1.845
423.00 1.843
423.10 1.841
423.20 1.84
423.30 1.838
423.40 1.836
423.50 1.834
423.60 1.832
423.70 1.83
423.80 1.828
423.90 1.826
424.00 1.824
424.10 1.822
424.20 1.82
424.30 1.818
424.40 1.816
424.50 1.814
424.60 1.812
424.70 1.81
424.80 1.808
424.90 1.806
425.00 1.803
425.10 1.801
425.20 1.799
425.30 1.797
425.40 1.794
425.50 1.792
425.60 1.79
425.70 1.787
425.80 1.785
425.90 1.782
426.00 1.78
426.10 1.777
426.20 1.775
426.30 1.772
426.40 1.769
426.50 1.767
426.60 1.764
426.70 1.761
426.80 1.758
426.90 1.755
427.00 1.752
427.10 1.749
427.20 1.746
427.30 1.743
427.40 1.74
427.50 1.737
427.60 1.734
427.70 1.73
427.80 1.727
427.90 1.724
428.00 1.72
428.10 1.717
428.20 1.713
428.30 1.709
428.40 1.705
428.50 1.702
428.60 1.698
428.70 1.694
428.80 1.689
428.90 1.685
429.00 1.681
429.10 1.677
429.20 1.672
429.30 1.668
429.40 1.663
429.50 1.658
429.60 1.653
429.70 1.648
429.80 1.643
429.90 1.638
430.00 1.632
430.10 1.627
430.20 1.621
430.30 1.616
430.40 1.61
430.50 1.604
430.60 1.597
430.70 1.591
430.80 1.585
430.90 1.578
431.00 1.571
431.10 1.564
431.20 1.557
431.30 1.55
431.40 1.542
431.50 1.534
431.60 1.526
431.70 1.518
431.80 1.51
431.90 1.501
432.00 1.493
432.10 1.484
432.20 1.474
432.30 1.465
432.40 1.456
432.50 1.446
432.60 1.436
432.70 1.425
432.80 1.415
432.90 1.404
433.00 1.394
433.10 1.383
433.20 1.372
433.30 1.36
433.40 1.349
433.50 1.338
433.60 1.327
433.70 1.316
433.80 1.304
433.90 1.292
434.00 1.277
434.10 1.277
434.20 1.29
434.30 1.3
434.40 1.31
434.50 1.319
434.60 1.328
434.70 1.337
434.80 1.346
434.90 1.355
435.00 1.363
435.10 1.372
435.20 1.38
435.30 1.389
435.40 1.397
435.50 1.405
435.60 1.412
435.70 1.419
435.80 1.427
435.90 1.433
436.00 1.44
436.10 1.446
436.20 1.453
436.30 1.459
436.40 1.464
436.50 1.47
436.60 1.475
436.70 1.48
436.80 1.485
436.90 1.489
437.00 1.494
437.10 1.498
437.20 1.502
437.30 1.506
437.40 1.51
437.50 1.513
437.60 1.517
437.70 1.52
437.80 1.523
437.90 1.526
438.00 1.529
438.10 1.531
438.20 1.534
438.30 1.536
438.40 1.539
438.50 1.541
438.60 1.543
438.70 1.545
438.80 1.546
438.90 1.548
439.00 1.55
439.10 1.551
439.20 1.553
439.30 1.554
439.40 1.555
439.50 1.556
439.60 1.557
439.70 1.558
439.80 1.559
439.90 1.56
440.00 1.561
440.10 1.561
440.20 1.562
440.30 1.562
440.40 1.563
440.50 1.563
440.60 1.564
440.70 1.564
440.80 1.564
440.90 1.564
441.00 1.564
441.10 1.564
441.20 1.564
441.30 1.564
441.40 1.564
441.50 1.564
441.60 1.564
441.70 1.564
441.80 1.564
441.90 1.563
442.00 1.563
442.10 1.563
442.20 1.562
442.30 1.562
442.40 1.562
442.50 1.561
442.60 1.561
442.70 1.56
442.80 1.56
442.90 1.559
443.00 1.559
443.10 1.558
443.20 1.557
443.30 1.557
443.40 1.556
443.50 1.555
443.60 1.555
443.70 1.554
443.80 1.553
443.90 1.553
444.00 1.552
444.10 1.551
444.20 1.55
444.30 1.549
444.40 1.549
444.50 1.548
444.60 1.547
444.70 1.546
444.80 1.545
444.90 1.544
445.00 1.543
445.10 1.542
445.20 1.542
445.30 1.541
445.40 1.54
445.50 1.539
445.60 1.538
445.70 1.537
445.80 1.536
445.90 1.535
446.00 1.534
446.10 1.533
446.20 1.532
446.30 1.531
446.40 1.53
446.50 1.529
446.60 1.528
446.70 1.527
446.80 1.526
446.90 1.525
447.00 1.524
447.10 1.523
447.20 1.522
447.30 1.52
447.40 1.519
447.50 1.518
447.60 1.517
447.70 1.516
447.80 1.515
447.90 1.514
448.00 1.513
448.10 1.512
448.20 1.511
448.30 1.51
448.40 1.509
448.50 1.507
448.60 1.506
448.70 1.505
448.80 1.504
448.90 1.503
449.00 1.502
449.10 1.501
449.20 1.5
449.30 1.498
449.40 1.497
449.50 1.496
449.60 1.495
449.70 1.494
449.80 1.493
449.90 1.492
450.00 1.491
450.10 1.489
450.20 1.488
450.30 1.487
450.40 1.486
450.50 1.485
450.60 1.484
450.70 1.483
450.80 1.481
450.90 1.48
451.00 1.479
451.10 1.478
451.20 1.477
451.30 1.476
451.40 1.475
451.50 1.473
451.60 1.472
451.70 1.471
451.80 1.47
451.90 1.469
452.00 1.468
452.10 1.466
452.20 1.465
452.30 1.464
452.40 1.463
452.50 1.462
452.60 1.461
452.70 1.459
452.80 1.458
452.90 1.457
453.00 1.456
453.10 1.455
453.20 1.454
453.30 1.453
453.40 1.451
453.50 1.45
453.60 1.449
453.70 1.448
453.80 1.447
453.90 1.446
454.00 1.444
454.10 1.443
