# Version 2.1 - nm, norm@500 to 1, cut digits, bergeron_85000_85.dat_85000
# Wavelength(nm)  Flambda(ergs/cm^s/s/nm)
300.00 6.725
300.10 6.717
300.20 6.709
300.30 6.7
300.40 6.692
300.50 6.684
300.60 6.675
300.70 6.667
300.80 6.659
300.90 6.65
301.00 6.642
301.10 6.634
301.20 6.626
301.30 6.617
301.40 6.609
301.50 6.601
301.60 6.593
301.70 6.585
301.80 6.576
301.90 6.568
302.00 6.56
302.10 6.552
302.20 6.544
302.30 6.536
302.40 6.528
302.50 6.52
302.60 6.512
302.70 6.504
302.80 6.495
302.90 6.487
303.00 6.479
303.10 6.471
303.20 6.463
303.30 6.455
303.40 6.448
303.50 6.44
303.60 6.432
303.70 6.424
303.80 6.416
303.90 6.408
304.00 6.4
304.10 6.392
304.20 6.384
304.30 6.376
304.40 6.369
304.50 6.361
304.60 6.353
304.70 6.345
304.80 6.337
304.90 6.33
305.00 6.322
305.10 6.314
305.20 6.306
305.30 6.299
305.40 6.291
305.50 6.283
305.60 6.275
305.70 6.268
305.80 6.26
305.90 6.252
306.00 6.245
306.10 6.237
306.20 6.229
306.30 6.222
306.40 6.214
306.50 6.207
306.60 6.199
306.70 6.192
306.80 6.184
306.90 6.176
307.00 6.169
307.10 6.161
307.20 6.154
307.30 6.146
307.40 6.139
307.50 6.131
307.60 6.124
307.70 6.116
307.80 6.109
307.90 6.102
308.00 6.094
308.10 6.087
308.20 6.079
308.30 6.072
308.40 6.065
308.50 6.057
308.60 6.05
308.70 6.043
308.80 6.035
308.90 6.028
309.00 6.021
309.10 6.013
309.20 6.006
309.30 5.999
309.40 5.991
309.50 5.984
309.60 5.977
309.70 5.97
309.80 5.963
309.90 5.955
310.00 5.948
310.10 5.941
310.20 5.934
310.30 5.927
310.40 5.919
310.50 5.912
310.60 5.905
310.70 5.898
310.80 5.891
310.90 5.884
311.00 5.877
311.10 5.87
311.20 5.863
311.30 5.856
311.40 5.849
311.50 5.841
311.60 5.834
311.70 5.827
311.80 5.82
311.90 5.813
312.00 5.806
312.10 5.799
312.20 5.793
312.30 5.786
312.40 5.779
312.50 5.772
312.60 5.765
312.70 5.758
312.80 5.751
312.90 5.744
313.00 5.737
313.10 5.73
313.20 5.723
313.30 5.717
313.40 5.71
313.50 5.703
313.60 5.696
313.70 5.689
313.80 5.683
313.90 5.676
314.00 5.669
314.10 5.662
314.20 5.655
314.30 5.649
314.40 5.642
314.50 5.635
314.60 5.629
314.70 5.622
314.80 5.615
314.90 5.608
315.00 5.602
315.10 5.595
315.20 5.588
315.30 5.582
315.40 5.575
315.50 5.569
315.60 5.562
315.70 5.555
315.80 5.549
315.90 5.542
316.00 5.536
316.10 5.529
316.20 5.522
316.30 5.516
316.40 5.509
316.50 5.503
316.60 5.496
316.70 5.49
316.80 5.483
316.90 5.477
317.00 5.47
317.10 5.464
317.20 5.457
317.30 5.451
317.40 5.445
317.50 5.438
317.60 5.432
317.70 5.425
317.80 5.419
317.90 5.412
318.00 5.406
318.10 5.4
318.20 5.393
318.30 5.387
318.40 5.381
318.50 5.374
318.60 5.368
318.70 5.362
318.80 5.355
318.90 5.349
319.00 5.343
319.10 5.336
319.20 5.33
319.30 5.324
319.40 5.318
319.50 5.311
319.60 5.305
319.70 5.299
319.80 5.293
319.90 5.287
320.00 5.28
320.10 5.274
320.20 5.268
320.30 5.262
320.40 5.256
320.50 5.249
320.60 5.243
320.70 5.237
320.80 5.231
320.90 5.225
321.00 5.219
321.10 5.213
321.20 5.207
321.30 5.201
321.40 5.195
321.50 5.188
321.60 5.182
321.70 5.176
321.80 5.17
321.90 5.164
322.00 5.158
322.10 5.152
322.20 5.146
322.30 5.14
322.40 5.134
322.50 5.128
322.60 5.122
322.70 5.116
322.80 5.11
322.90 5.104
323.00 5.099
323.10 5.093
323.20 5.087
323.30 5.081
323.40 5.075
323.50 5.069
323.60 5.063
323.70 5.057
323.80 5.051
323.90 5.046
324.00 5.04
324.10 5.034
324.20 5.028
324.30 5.022
324.40 5.016
324.50 5.011
324.60 5.005
324.70 4.999
324.80 4.993
324.90 4.987
325.00 4.982
325.10 4.976
325.20 4.97
325.30 4.964
325.40 4.959
325.50 4.953
325.60 4.947
325.70 4.942
325.80 4.936
325.90 4.93
326.00 4.925
326.10 4.919
326.20 4.913
326.30 4.908
326.40 4.902
326.50 4.896
326.60 4.891
326.70 4.885
326.80 4.879
326.90 4.874
327.00 4.868
327.10 4.863
327.20 4.857
327.30 4.851
327.40 4.846
327.50 4.84
327.60 4.835
327.70 4.829
327.80 4.824
327.90 4.818
328.00 4.813
328.10 4.807
328.20 4.802
328.30 4.796
328.40 4.791
328.50 4.785
328.60 4.78
328.70 4.774
328.80 4.769
328.90 4.763
329.00 4.758
329.10 4.752
329.20 4.747
329.30 4.742
329.40 4.736
329.50 4.731
329.60 4.725
329.70 4.72
329.80 4.715
329.90 4.709
330.00 4.704
330.10 4.699
330.20 4.693
330.30 4.688
330.40 4.683
330.50 4.677
330.60 4.672
330.70 4.667
330.80 4.661
330.90 4.656
331.00 4.651
331.10 4.646
331.20 4.64
331.30 4.635
331.40 4.63
331.50 4.625
331.60 4.619
331.70 4.614
331.80 4.609
331.90 4.604
332.00 4.598
332.10 4.593
332.20 4.588
332.30 4.583
332.40 4.578
332.50 4.572
332.60 4.567
332.70 4.562
332.80 4.557
332.90 4.552
333.00 4.547
333.10 4.542
333.20 4.536
333.30 4.531
333.40 4.526
333.50 4.521
333.60 4.516
333.70 4.511
333.80 4.506
333.90 4.501
334.00 4.496
334.10 4.491
334.20 4.486
334.30 4.481
334.40 4.475
334.50 4.47
334.60 4.465
334.70 4.46
334.80 4.455
334.90 4.45
335.00 4.445
335.10 4.44
335.20 4.435
335.30 4.43
335.40 4.426
335.50 4.421
335.60 4.416
335.70 4.411
335.80 4.406
335.90 4.401
336.00 4.396
336.10 4.391
336.20 4.386
336.30 4.381
336.40 4.376
336.50 4.371
336.60 4.366
336.70 4.362
336.80 4.357
336.90 4.352
337.00 4.347
337.10 4.342
337.20 4.337
337.30 4.332
337.40 4.328
337.50 4.323
337.60 4.318
337.70 4.313
337.80 4.308
337.90 4.304
338.00 4.299
338.10 4.294
338.20 4.289
338.30 4.284
338.40 4.28
338.50 4.275
338.60 4.27
338.70 4.265
338.80 4.261
338.90 4.256
339.00 4.251
339.10 4.247
339.20 4.242
339.30 4.237
339.40 4.232
339.50 4.228
339.60 4.223
339.70 4.218
339.80 4.214
339.90 4.209
340.00 4.204
340.10 4.2
340.20 4.195
340.30 4.19
340.40 4.186
340.50 4.181
340.60 4.177
340.70 4.172
340.80 4.167
340.90 4.163
341.00 4.158
341.10 4.154
341.20 4.149
341.30 4.144
341.40 4.14
341.50 4.135
341.60 4.131
341.70 4.126
341.80 4.122
341.90 4.117
342.00 4.113
342.10 4.108
342.20 4.103
342.30 4.099
342.40 4.095
342.50 4.09
342.60 4.086
342.70 4.081
342.80 4.077
342.90 4.072
343.00 4.068
343.10 4.063
343.20 4.059
343.30 4.054
343.40 4.05
343.50 4.045
343.60 4.041
343.70 4.036
343.80 4.032
343.90 4.028
344.00 4.023
344.10 4.019
344.20 4.014
344.30 4.01
344.40 4.006
344.50 4.001
344.60 3.997
344.70 3.993
344.80 3.988
344.90 3.984
345.00 3.98
345.10 3.975
345.20 3.971
345.30 3.967
345.40 3.962
345.50 3.958
345.60 3.954
345.70 3.949
345.80 3.945
345.90 3.941
346.00 3.936
346.10 3.932
346.20 3.928
346.30 3.924
346.40 3.919
346.50 3.915
346.60 3.911
346.70 3.907
346.80 3.902
346.90 3.898
347.00 3.894
347.10 3.89
347.20 3.885
347.30 3.881
347.40 3.877
347.50 3.873
347.60 3.869
347.70 3.864
347.80 3.86
347.90 3.856
348.00 3.852
348.10 3.848
348.20 3.843
348.30 3.839
348.40 3.835
348.50 3.831
348.60 3.827
348.70 3.823
348.80 3.819
348.90 3.815
349.00 3.81
349.10 3.806
349.20 3.802
349.30 3.798
349.40 3.794
349.50 3.79
349.60 3.786
349.70 3.782
349.80 3.778
349.90 3.774
350.00 3.769
350.10 3.765
350.20 3.761
350.30 3.757
350.40 3.753
350.50 3.749
350.60 3.745
350.70 3.741
350.80 3.737
350.90 3.733
351.00 3.729
351.10 3.725
351.20 3.721
351.30 3.717
351.40 3.713
351.50 3.709
351.60 3.705
351.70 3.701
351.80 3.697
351.90 3.693
352.00 3.689
352.10 3.685
352.20 3.682
352.30 3.678
352.40 3.674
352.50 3.67
352.60 3.666
352.70 3.662
352.80 3.658
352.90 3.654
353.00 3.65
353.10 3.646
353.20 3.642
353.30 3.639
353.40 3.635
353.50 3.631
353.60 3.627
353.70 3.623
353.80 3.619
353.90 3.615
354.00 3.611
354.10 3.608
354.20 3.604
354.30 3.6
354.40 3.596
354.50 3.592
354.60 3.588
354.70 3.585
354.80 3.581
354.90 3.577
355.00 3.573
355.10 3.569
355.20 3.566
355.30 3.562
355.40 3.558
355.50 3.554
355.60 3.551
355.70 3.547
355.80 3.543
355.90 3.539
356.00 3.535
356.10 3.532
356.20 3.528
356.30 3.524
356.40 3.521
356.50 3.517
356.60 3.513
356.70 3.509
356.80 3.506
356.90 3.502
357.00 3.498
357.10 3.495
357.20 3.491
357.30 3.487
357.40 3.484
357.50 3.48
357.60 3.476
357.70 3.473
357.80 3.469
357.90 3.465
358.00 3.462
358.10 3.458
358.20 3.454
358.30 3.451
358.40 3.447
358.50 3.443
358.60 3.44
358.70 3.436
358.80 3.433
358.90 3.429
359.00 3.425
359.10 3.422
359.20 3.418
359.30 3.415
359.40 3.411
359.50 3.407
359.60 3.404
359.70 3.4
359.80 3.397
359.90 3.393
360.00 3.39
360.10 3.386
360.20 3.382
360.30 3.379
360.40 3.375
360.50 3.372
360.60 3.368
360.70 3.365
360.80 3.361
360.90 3.358
361.00 3.354
361.10 3.351
361.20 3.347
361.30 3.344
361.40 3.34
361.50 3.337
361.60 3.333
361.70 3.33
361.80 3.326
361.90 3.323
362.00 3.319
362.10 3.316
362.20 3.313
362.30 3.309
362.40 3.306
362.50 3.302
362.60 3.299
362.70 3.295
362.80 3.292
362.90 3.288
363.00 3.285
363.10 3.282
363.20 3.278
363.30 3.275
363.40 3.271
363.50 3.268
363.60 3.265
363.70 3.261
363.80 3.258
363.90 3.255
364.00 3.251
364.10 3.248
364.20 3.244
364.30 3.241
364.40 3.238
364.50 3.234
364.60 3.231
364.70 3.228
364.80 3.224
364.90 3.221
365.00 3.218
365.10 3.214
365.20 3.211
365.30 3.208
365.40 3.204
365.50 3.201
365.60 3.198
365.70 3.194
365.80 3.191
365.90 3.188
366.00 3.185
366.10 3.181
366.20 3.178
366.30 3.175
366.40 3.171
366.50 3.168
366.60 3.165
366.70 3.161
366.80 3.158
366.90 3.155
367.00 3.152
367.10 3.148
367.20 3.145
367.30 3.142
367.40 3.139
367.50 3.135
367.60 3.132
367.70 3.129
367.80 3.126
367.90 3.122
368.00 3.119
368.10 3.116
368.20 3.112
368.30 3.109
368.40 3.106
368.50 3.103
368.60 3.099
368.70 3.096
368.80 3.093
368.90 3.09
369.00 3.086
369.10 3.083
369.20 3.08
369.30 3.077
369.40 3.074
369.50 3.07
369.60 3.067
369.70 3.064
369.80 3.061
369.90 3.057
370.00 3.054
370.10 3.051
370.20 3.048
370.30 3.045
370.40 3.042
370.50 3.038
370.60 3.035
370.70 3.032
370.80 3.029
370.90 3.026
371.00 3.023
371.10 3.02
371.20 3.016
371.30 3.013
371.40 3.01
371.50 3.007
371.60 3.004
371.70 3.001
371.80 2.998
371.90 2.994
372.00 2.991
372.10 2.988
372.20 2.985
372.30 2.982
372.40 2.979
372.50 2.976
372.60 2.973
372.70 2.97
372.80 2.967
372.90 2.964
373.00 2.961
373.10 2.958
373.20 2.955
373.30 2.952
373.40 2.949
373.50 2.946
373.60 2.943
373.70 2.94
373.80 2.937
373.90 2.934
374.00 2.931
374.10 2.928
374.20 2.925
374.30 2.922
374.40 2.919
374.50 2.916
374.60 2.913
374.70 2.91
374.80 2.907
374.90 2.904
375.00 2.901
375.10 2.898
375.20 2.895
375.30 2.892
375.40 2.889
375.50 2.886
375.60 2.883
375.70 2.88
375.80 2.877
375.90 2.874
376.00 2.871
376.10 2.869
376.20 2.866
376.30 2.863
376.40 2.86
376.50 2.857
376.60 2.854
376.70 2.851
376.80 2.848
376.90 2.845
377.00 2.842
377.10 2.839
377.20 2.837
377.30 2.834
377.40 2.831
377.50 2.828
377.60 2.825
377.70 2.822
377.80 2.819
377.90 2.817
378.00 2.814
378.10 2.811
378.20 2.808
378.30 2.805
378.40 2.803
378.50 2.8
378.60 2.797
378.70 2.794
378.80 2.791
378.90 2.789
379.00 2.786
379.10 2.783
379.20 2.78
379.30 2.777
379.40 2.775
379.50 2.772
379.60 2.769
379.70 2.766
379.80 2.764
379.90 2.761
380.00 2.758
380.10 2.756
380.20 2.753
380.30 2.75
380.40 2.747
380.50 2.745
380.60 2.742
380.70 2.739
380.80 2.737
380.90 2.734
381.00 2.731
381.10 2.729
381.20 2.726
381.30 2.723
381.40 2.721
381.50 2.718
381.60 2.715
381.70 2.713
381.80 2.71
381.90 2.707
382.00 2.705
382.10 2.702
382.20 2.699
382.30 2.697
382.40 2.694
382.50 2.692
382.60 2.689
382.70 2.686
382.80 2.684
382.90 2.681
383.00 2.679
383.10 2.676
383.20 2.673
383.30 2.671
383.40 2.668
383.50 2.666
383.60 2.663
383.70 2.661
383.80 2.658
383.90 2.656
384.00 2.653
384.10 2.651
384.20 2.648
384.30 2.646
384.40 2.643
384.50 2.641
384.60 2.638
384.70 2.636
384.80 2.633
384.90 2.631
385.00 2.628
385.10 2.626
385.20 2.623
385.30 2.621
385.40 2.619
385.50 2.616
385.60 2.614
385.70 2.611
385.80 2.609
385.90 2.606
386.00 2.604
386.10 2.601
386.20 2.599
386.30 2.596
386.40 2.594
386.50 2.591
386.60 2.589
386.70 2.586
386.80 2.583
386.90 2.581
387.00 2.578
387.10 2.576
387.20 2.573
387.30 2.571
387.40 2.568
387.50 2.566
387.60 2.563
387.70 2.561
387.80 2.558
387.90 2.556
388.00 2.553
388.10 2.551
388.20 2.548
388.30 2.546
388.40 2.543
388.50 2.541
388.60 2.538
388.70 2.536
388.80 2.534
388.90 2.532
389.00 2.529
389.10 2.527
389.20 2.525
389.30 2.523
389.40 2.52
389.50 2.518
389.60 2.516
389.70 2.514
389.80 2.512
389.90 2.51
390.00 2.508
390.10 2.506
390.20 2.504
390.30 2.502
390.40 2.499
390.50 2.497
390.60 2.495
390.70 2.493
390.80 2.491
390.90 2.489
391.00 2.487
391.10 2.485
391.20 2.482
391.30 2.48
391.40 2.478
391.50 2.476
391.60 2.474
391.70 2.471
391.80 2.469
391.90 2.467
392.00 2.465
392.10 2.462
392.20 2.46
392.30 2.458
392.40 2.455
392.50 2.453
392.60 2.45
392.70 2.448
392.80 2.445
392.90 2.443
393.00 2.441
393.10 2.438
393.20 2.435
393.30 2.433
393.40 2.43
393.50 2.428
393.60 2.425
393.70 2.422
393.80 2.42
393.90 2.417
394.00 2.414
394.10 2.412
394.20 2.409
394.30 2.406
394.40 2.403
394.50 2.4
394.60 2.398
394.70 2.395
394.80 2.392
394.90 2.389
395.00 2.386
395.10 2.383
395.20 2.38
395.30 2.377
395.40 2.374
395.50 2.371
395.60 2.368
395.70 2.365
395.80 2.362
395.90 2.359
396.00 2.356
396.10 2.353
396.20 2.35
396.30 2.347
396.40 2.344
396.50 2.341
396.60 2.339
396.70 2.336
396.80 2.333
396.90 2.331
397.00 2.328
397.10 2.327
397.20 2.325
397.30 2.324
397.40 2.322
397.50 2.321
397.60 2.32
397.70 2.319
397.80 2.318
397.90 2.317
398.00 2.315
398.10 2.314
398.20 2.313
398.30 2.312
398.40 2.311
398.50 2.31
398.60 2.309
398.70 2.308
398.80 2.307
398.90 2.306
399.00 2.304
399.10 2.303
399.20 2.302
399.30 2.301
399.40 2.3
399.50 2.298
399.60 2.297
399.70 2.296
399.80 2.295
399.90 2.293
400.00 2.292
400.10 2.29
400.20 2.289
400.30 2.288
400.40 2.286
400.50 2.285
400.60 2.283
400.70 2.282
400.80 2.28
400.90 2.278
401.00 2.277
401.10 2.275
401.20 2.273
401.30 2.272
401.40 2.27
401.50 2.268
401.60 2.267
401.70 2.265
401.80 2.263
401.90 2.261
402.00 2.259
402.10 2.257
402.20 2.255
402.30 2.253
402.40 2.251
402.50 2.249
402.60 2.247
402.70 2.245
402.80 2.243
402.90 2.241
403.00 2.239
403.10 2.237
403.20 2.235
403.30 2.233
403.40 2.23
403.50 2.228
403.60 2.226
403.70 2.223
403.80 2.221
403.90 2.219
404.00 2.216
404.10 2.214
404.20 2.211
404.30 2.209
404.40 2.206
404.50 2.204
404.60 2.201
404.70 2.199
404.80 2.196
404.90 2.193
405.00 2.191
405.10 2.188
405.20 2.185
405.30 2.182
405.40 2.179
405.50 2.176
405.60 2.173
405.70 2.17
405.80 2.167
405.90 2.164
406.00 2.161
406.10 2.158
406.20 2.155
406.30 2.152
406.40 2.148
406.50 2.145
406.60 2.142
406.70 2.138
406.80 2.135
406.90 2.131
407.00 2.128
407.10 2.124
407.20 2.121
407.30 2.117
407.40 2.113
407.50 2.109
407.60 2.106
407.70 2.102
407.80 2.098
407.90 2.094
408.00 2.09
408.10 2.086
408.20 2.082
408.30 2.078
408.40 2.074
408.50 2.069
408.60 2.065
408.70 2.061
408.80 2.057
408.90 2.052
409.00 2.048
409.10 2.044
409.20 2.04
409.30 2.036
409.40 2.032
409.50 2.028
409.60 2.025
409.70 2.022
409.80 2.019
409.90 2.017
410.00 2.017
410.10 2.016
410.20 2.015
410.30 2.012
410.40 2.009
410.50 2.007
410.60 2.006
410.70 2.005
410.80 2.005
410.90 2.005
411.00 2.005
411.10 2.005
411.20 2.006
411.30 2.006
411.40 2.007
411.50 2.008
411.60 2.008
411.70 2.009
411.80 2.009
411.90 2.01
412.00 2.01
412.10 2.011
412.20 2.011
412.30 2.012
412.40 2.012
412.50 2.012
412.60 2.013
412.70 2.013
412.80 2.013
412.90 2.013
413.00 2.013
413.10 2.013
413.20 2.013
413.30 2.013
413.40 2.013
413.50 2.013
413.60 2.013
413.70 2.012
413.80 2.012
413.90 2.012
414.00 2.011
414.10 2.011
414.20 2.01
414.30 2.01
414.40 2.009
414.50 2.009
414.60 2.008
414.70 2.007
414.80 2.007
414.90 2.006
415.00 2.005
415.10 2.004
415.20 2.003
415.30 2.003
415.40 2.002
415.50 2.001
415.60 2
415.70 1.999
415.80 1.998
415.90 1.997
416.00 1.996
416.10 1.995
416.20 1.994
416.30 1.993
416.40 1.991
416.50 1.99
416.60 1.989
416.70 1.988
416.80 1.987
416.90 1.985
417.00 1.984
417.10 1.983
417.20 1.982
417.30 1.98
417.40 1.979
417.50 1.978
417.60 1.976
417.70 1.975
417.80 1.973
417.90 1.972
418.00 1.971
418.10 1.969
418.20 1.968
418.30 1.966
418.40 1.965
418.50 1.963
418.60 1.962
418.70 1.96
418.80 1.959
418.90 1.957
419.00 1.956
419.10 1.954
419.20 1.953
419.30 1.951
419.40 1.95
419.50 1.948
419.60 1.947
419.70 1.945
419.80 1.943
419.90 1.942
420.00 1.94
420.10 1.939
420.20 1.937
420.30 1.935
420.40 1.934
420.50 1.932
420.60 1.93
420.70 1.929
420.80 1.927
420.90 1.926
421.00 1.924
421.10 1.922
421.20 1.92
421.30 1.919
421.40 1.917
421.50 1.915
421.60 1.914
421.70 1.912
421.80 1.91
421.90 1.909
422.00 1.907
422.10 1.905
422.20 1.903
422.30 1.902
422.40 1.9
422.50 1.898
422.60 1.896
422.70 1.895
422.80 1.893
422.90 1.891
423.00 1.889
423.10 1.887
423.20 1.886
423.30 1.884
423.40 1.882
423.50 1.88
423.60 1.878
423.70 1.876
423.80 1.875
423.90 1.873
424.00 1.871
424.10 1.869
424.20 1.867
424.30 1.865
424.40 1.863
424.50 1.862
424.60 1.86
424.70 1.858
424.80 1.856
424.90 1.854
425.00 1.852
425.10 1.85
425.20 1.848
425.30 1.846
425.40 1.844
425.50 1.842
425.60 1.84
425.70 1.838
425.80 1.836
425.90 1.834
426.00 1.832
426.10 1.83
426.20 1.828
426.30 1.826
426.40 1.823
426.50 1.821
426.60 1.819
426.70 1.817
426.80 1.815
426.90 1.813
427.00 1.81
427.10 1.808
427.20 1.806
427.30 1.804
427.40 1.801
427.50 1.799
427.60 1.797
427.70 1.794
427.80 1.792
427.90 1.789
428.00 1.787
428.10 1.784
428.20 1.782
428.30 1.779
428.40 1.777
428.50 1.774
428.60 1.771
428.70 1.769
428.80 1.766
428.90 1.763
429.00 1.76
429.10 1.758
429.20 1.755
429.30 1.752
429.40 1.749
429.50 1.746
429.60 1.743
429.70 1.739
429.80 1.736
429.90 1.733
430.00 1.73
430.10 1.726
430.20 1.723
430.30 1.72
430.40 1.716
430.50 1.712
430.60 1.709
430.70 1.705
430.80 1.701
430.90 1.698
431.00 1.694
431.10 1.69
431.20 1.686
431.30 1.681
431.40 1.677
431.50 1.673
431.60 1.669
431.70 1.664
431.80 1.66
431.90 1.655
432.00 1.651
432.10 1.646
432.20 1.641
432.30 1.636
432.40 1.632
432.50 1.627
432.60 1.622
432.70 1.617
432.80 1.612
432.90 1.607
433.00 1.602
433.10 1.597
433.20 1.592
433.30 1.588
433.40 1.583
433.50 1.578
433.60 1.573
433.70 1.568
433.80 1.563
433.90 1.557
434.00 1.553
434.10 1.552
434.20 1.554
434.30 1.557
434.40 1.559
434.50 1.562
434.60 1.564
434.70 1.566
434.80 1.568
434.90 1.57
435.00 1.572
435.10 1.575
435.20 1.577
435.30 1.579
435.40 1.581
435.50 1.583
435.60 1.585
435.70 1.587
435.80 1.589
435.90 1.591
436.00 1.593
436.10 1.595
436.20 1.597
436.30 1.598
436.40 1.6
436.50 1.601
436.60 1.603
436.70 1.604
436.80 1.605
436.90 1.607
437.00 1.608
437.10 1.609
437.20 1.61
437.30 1.61
437.40 1.611
437.50 1.612
437.60 1.613
437.70 1.613
437.80 1.614
437.90 1.614
438.00 1.615
438.10 1.615
438.20 1.615
438.30 1.615
438.40 1.615
438.50 1.616
438.60 1.616
438.70 1.616
438.80 1.615
438.90 1.615
439.00 1.615
439.10 1.615
439.20 1.615
439.30 1.614
439.40 1.614
439.50 1.614
439.60 1.613
439.70 1.613
439.80 1.613
439.90 1.612
440.00 1.611
440.10 1.611
440.20 1.61
440.30 1.61
440.40 1.609
440.50 1.608
440.60 1.608
440.70 1.607
440.80 1.606
440.90 1.605
441.00 1.605
441.10 1.604
441.20 1.603
441.30 1.602
441.40 1.601
441.50 1.6
441.60 1.6
441.70 1.599
441.80 1.598
441.90 1.597
442.00 1.596
442.10 1.595
442.20 1.594
442.30 1.593
442.40 1.592
442.50 1.591
442.60 1.59
442.70 1.589
442.80 1.588
442.90 1.587
443.00 1.586
443.10 1.585
443.20 1.584
443.30 1.582
443.40 1.581
443.50 1.58
443.60 1.579
443.70 1.578
443.80 1.577
443.90 1.576
444.00 1.575
444.10 1.573
444.20 1.572
444.30 1.571
444.40 1.57
444.50 1.569
444.60 1.568
444.70 1.566
444.80 1.565
444.90 1.564
445.00 1.563
445.10 1.562
445.20 1.561
445.30 1.559
445.40 1.558
445.50 1.557
445.60 1.556
445.70 1.555
445.80 1.553
445.90 1.552
446.00 1.551
446.10 1.55
446.20 1.549
446.30 1.547
446.40 1.546
446.50 1.545
446.60 1.544
446.70 1.542
446.80 1.541
446.90 1.54
447.00 1.539
447.10 1.537
447.20 1.536
447.30 1.535
447.40 1.534
447.50 1.533
447.60 1.531
447.70 1.53
447.80 1.529
447.90 1.528
448.00 1.526
448.10 1.525
448.20 1.524
448.30 1.523
448.40 1.521
448.50 1.52
448.60 1.519
448.70 1.518
448.80 1.516
448.90 1.515
449.00 1.514
449.10 1.513
449.20 1.511
449.30 1.51
449.40 1.509
449.50 1.508
449.60 1.506
449.70 1.505
449.80 1.504
449.90 1.503
450.00 1.502
450.10 1.5
450.20 1.499
450.30 1.498
450.40 1.497
450.50 1.495
450.60 1.494
450.70 1.493
450.80 1.492
450.90 1.49
451.00 1.489
451.10 1.488
451.20 1.487
451.30 1.485
451.40 1.484
451.50 1.483
451.60 1.482
451.70 1.48
451.80 1.479
451.90 1.478
452.00 1.477
452.10 1.476
452.20 1.474
452.30 1.473
452.40 1.472
452.50 1.471
452.60 1.469
452.70 1.468
452.80 1.467
452.90 1.466
453.00 1.464
453.10 1.463
453.20 1.462
453.30 1.461
453.40 1.46
453.50 1.458
453.60 1.457
453.70 1.456
453.80 1.455
453.90 1.453
454.00 1.452
