# Version 2.1 - nm, norm@500 to 1, cut digits, bergeron_6500_65.dat_6500
# Wavelength(nm)  Flambda(ergs/cm^s/s/nm)
300.00 0.9073
300.10 0.9077
300.20 0.908
300.30 0.9084
300.40 0.9088
300.50 0.9092
300.60 0.9095
300.70 0.9099
300.80 0.9103
300.90 0.9106
301.00 0.911
301.10 0.9114
301.20 0.9117
301.30 0.9121
301.40 0.9124
301.50 0.9128
301.60 0.9132
301.70 0.9135
301.80 0.9139
301.90 0.9142
302.00 0.9146
302.10 0.915
302.20 0.9153
302.30 0.9157
302.40 0.916
302.50 0.9164
302.60 0.9168
302.70 0.9171
302.80 0.9175
302.90 0.9178
303.00 0.9182
303.10 0.9185
303.20 0.9189
303.30 0.9193
303.40 0.9196
303.50 0.92
303.60 0.9203
303.70 0.9207
303.80 0.921
303.90 0.9214
304.00 0.9217
304.10 0.9221
304.20 0.9224
304.30 0.9228
304.40 0.9231
304.50 0.9235
304.60 0.9238
304.70 0.9242
304.80 0.9245
304.90 0.9249
305.00 0.9252
305.10 0.9256
305.20 0.9259
305.30 0.9262
305.40 0.9266
305.50 0.9269
305.60 0.9273
305.70 0.9276
305.80 0.9279
305.90 0.9283
306.00 0.9286
306.10 0.929
306.20 0.9293
306.30 0.9296
306.40 0.93
306.50 0.9303
306.60 0.9307
306.70 0.931
306.80 0.9313
306.90 0.9317
307.00 0.932
307.10 0.9323
307.20 0.9327
307.30 0.933
307.40 0.9333
307.50 0.9337
307.60 0.934
307.70 0.9343
307.80 0.9347
307.90 0.935
308.00 0.9353
308.10 0.9356
308.20 0.936
308.30 0.9363
308.40 0.9366
308.50 0.937
308.60 0.9373
308.70 0.9376
308.80 0.9379
308.90 0.9383
309.00 0.9386
309.10 0.9389
309.20 0.9393
309.30 0.9396
309.40 0.9399
309.50 0.9402
309.60 0.9405
309.70 0.9409
309.80 0.9412
309.90 0.9415
310.00 0.9418
310.10 0.9422
310.20 0.9425
310.30 0.9428
310.40 0.9431
310.50 0.9434
310.60 0.9437
310.70 0.9441
310.80 0.9444
310.90 0.9447
311.00 0.945
311.10 0.9453
311.20 0.9456
311.30 0.9459
311.40 0.9462
311.50 0.9466
311.60 0.9469
311.70 0.9472
311.80 0.9475
311.90 0.9478
312.00 0.9481
312.10 0.9484
312.20 0.9487
312.30 0.949
312.40 0.9494
312.50 0.9497
312.60 0.95
312.70 0.9503
312.80 0.9506
312.90 0.9509
313.00 0.9512
313.10 0.9515
313.20 0.9518
313.30 0.9521
313.40 0.9524
313.50 0.9527
313.60 0.953
313.70 0.9533
313.80 0.9536
313.90 0.9539
314.00 0.9542
314.10 0.9545
314.20 0.9548
314.30 0.9551
314.40 0.9554
314.50 0.9557
314.60 0.956
314.70 0.9563
314.80 0.9566
314.90 0.9569
315.00 0.9572
315.10 0.9575
315.20 0.9578
315.30 0.9581
315.40 0.9584
315.50 0.9586
315.60 0.9589
315.70 0.9592
315.80 0.9595
315.90 0.9598
316.00 0.9601
316.10 0.9604
316.20 0.9607
316.30 0.961
316.40 0.9613
316.50 0.9615
316.60 0.9618
316.70 0.9621
316.80 0.9624
316.90 0.9627
317.00 0.963
317.10 0.9633
317.20 0.9635
317.30 0.9638
317.40 0.9641
317.50 0.9644
317.60 0.9647
317.70 0.9649
317.80 0.9652
317.90 0.9655
318.00 0.9658
318.10 0.9661
318.20 0.9664
318.30 0.9666
318.40 0.9669
318.50 0.9672
318.60 0.9675
318.70 0.9677
318.80 0.968
318.90 0.9683
319.00 0.9686
319.10 0.9688
319.20 0.9691
319.30 0.9694
319.40 0.9697
319.50 0.9699
319.60 0.9702
319.70 0.9705
319.80 0.9708
319.90 0.971
320.00 0.9713
320.10 0.9716
320.20 0.9718
320.30 0.9721
320.40 0.9724
320.50 0.9726
320.60 0.9729
320.70 0.9732
320.80 0.9735
320.90 0.9737
321.00 0.974
321.10 0.9742
321.20 0.9745
321.30 0.9748
321.40 0.975
321.50 0.9753
321.60 0.9756
321.70 0.9758
321.80 0.9761
321.90 0.9764
322.00 0.9766
322.10 0.9769
322.20 0.9771
322.30 0.9774
322.40 0.9777
322.50 0.9779
322.60 0.9782
322.70 0.9784
322.80 0.9787
322.90 0.9789
323.00 0.9792
323.10 0.9795
323.20 0.9797
323.30 0.98
323.40 0.9802
323.50 0.9805
323.60 0.9807
323.70 0.981
323.80 0.9812
323.90 0.9815
324.00 0.9817
324.10 0.982
324.20 0.9822
324.30 0.9825
324.40 0.9827
324.50 0.983
324.60 0.9832
324.70 0.9835
324.80 0.9837
324.90 0.984
325.00 0.9842
325.10 0.9845
325.20 0.9847
325.30 0.985
325.40 0.9852
325.50 0.9854
325.60 0.9857
325.70 0.9859
325.80 0.9862
325.90 0.9864
326.00 0.9867
326.10 0.9869
326.20 0.9871
326.30 0.9874
326.40 0.9876
326.50 0.9879
326.60 0.9881
326.70 0.9883
326.80 0.9886
326.90 0.9888
327.00 0.9891
327.10 0.9893
327.20 0.9895
327.30 0.9898
327.40 0.99
327.50 0.9902
327.60 0.9905
327.70 0.9907
327.80 0.9909
327.90 0.9912
328.00 0.9914
328.10 0.9916
328.20 0.9919
328.30 0.9921
328.40 0.9923
328.50 0.9926
328.60 0.9928
328.70 0.993
328.80 0.9932
328.90 0.9935
329.00 0.9937
329.10 0.9939
329.20 0.9942
329.30 0.9944
329.40 0.9946
329.50 0.9948
329.60 0.9951
329.70 0.9953
329.80 0.9955
329.90 0.9957
330.00 0.9959
330.10 0.9962
330.20 0.9964
330.30 0.9966
330.40 0.9968
330.50 0.997
330.60 0.9973
330.70 0.9975
330.80 0.9977
330.90 0.9979
331.00 0.9981
331.10 0.9984
331.20 0.9986
331.30 0.9988
331.40 0.999
331.50 0.9992
331.60 0.9994
331.70 0.9997
331.80 0.9999
331.90 1
332.00 1
332.10 1.001
332.20 1.001
332.30 1.001
332.40 1.001
332.50 1.001
332.60 1.002
332.70 1.002
332.80 1.002
332.90 1.002
333.00 1.002
333.10 1.003
333.20 1.003
333.30 1.003
333.40 1.003
333.50 1.003
333.60 1.004
333.70 1.004
333.80 1.004
333.90 1.004
334.00 1.004
334.10 1.005
334.20 1.005
334.30 1.005
334.40 1.005
334.50 1.006
334.60 1.006
334.70 1.006
334.80 1.006
334.90 1.006
335.00 1.007
335.10 1.007
335.20 1.007
335.30 1.007
335.40 1.007
335.50 1.008
335.60 1.008
335.70 1.008
335.80 1.008
335.90 1.008
336.00 1.008
336.10 1.009
336.20 1.009
336.30 1.009
336.40 1.009
336.50 1.009
336.60 1.01
336.70 1.01
336.80 1.01
336.90 1.01
337.00 1.01
337.10 1.011
337.20 1.011
337.30 1.011
337.40 1.011
337.50 1.011
337.60 1.012
337.70 1.012
337.80 1.012
337.90 1.012
338.00 1.012
338.10 1.013
338.20 1.013
338.30 1.013
338.40 1.013
338.50 1.013
338.60 1.013
338.70 1.014
338.80 1.014
338.90 1.014
339.00 1.014
339.10 1.014
339.20 1.015
339.30 1.015
339.40 1.015
339.50 1.015
339.60 1.015
339.70 1.015
339.80 1.016
339.90 1.016
340.00 1.016
340.10 1.016
340.20 1.016
340.30 1.017
340.40 1.017
340.50 1.017
340.60 1.017
340.70 1.017
340.80 1.017
340.90 1.018
341.00 1.018
341.10 1.018
341.20 1.018
341.30 1.018
341.40 1.018
341.50 1.019
341.60 1.019
341.70 1.019
341.80 1.019
341.90 1.019
342.00 1.019
342.10 1.02
342.20 1.02
342.30 1.02
342.40 1.02
342.50 1.02
342.60 1.02
342.70 1.021
342.80 1.021
342.90 1.021
343.00 1.021
343.10 1.021
343.20 1.021
343.30 1.022
343.40 1.022
343.50 1.022
343.60 1.022
343.70 1.022
343.80 1.022
343.90 1.023
344.00 1.023
344.10 1.023
344.20 1.023
344.30 1.023
344.40 1.023
344.50 1.024
344.60 1.024
344.70 1.024
344.80 1.024
344.90 1.024
345.00 1.024
345.10 1.025
345.20 1.025
345.30 1.025
345.40 1.025
345.50 1.025
345.60 1.025
345.70 1.025
345.80 1.026
345.90 1.026
346.00 1.026
346.10 1.026
346.20 1.026
346.30 1.026
346.40 1.027
346.50 1.027
346.60 1.027
346.70 1.027
346.80 1.027
346.90 1.027
347.00 1.027
347.10 1.028
347.20 1.028
347.30 1.028
347.40 1.028
347.50 1.028
347.60 1.028
347.70 1.028
347.80 1.029
347.90 1.029
348.00 1.029
348.10 1.029
348.20 1.029
348.30 1.029
348.40 1.029
348.50 1.03
348.60 1.03
348.70 1.03
348.80 1.03
348.90 1.03
349.00 1.03
349.10 1.03
349.20 1.031
349.30 1.031
349.40 1.031
349.50 1.031
349.60 1.031
349.70 1.031
349.80 1.031
349.90 1.032
350.00 1.032
350.10 1.032
350.20 1.032
350.30 1.032
350.40 1.032
350.50 1.032
350.60 1.032
350.70 1.033
350.80 1.033
350.90 1.033
351.00 1.033
351.10 1.033
351.20 1.033
351.30 1.033
351.40 1.034
351.50 1.034
351.60 1.034
351.70 1.034
351.80 1.034
351.90 1.034
352.00 1.034
352.10 1.034
352.20 1.035
352.30 1.035
352.40 1.035
352.50 1.035
352.60 1.035
352.70 1.035
352.80 1.035
352.90 1.035
353.00 1.036
353.10 1.036
353.20 1.036
353.30 1.036
353.40 1.036
353.50 1.036
353.60 1.036
353.70 1.036
353.80 1.037
353.90 1.037
354.00 1.037
354.10 1.037
354.20 1.037
354.30 1.037
354.40 1.037
354.50 1.037
354.60 1.038
354.70 1.038
354.80 1.038
354.90 1.038
355.00 1.038
355.10 1.038
355.20 1.038
355.30 1.038
355.40 1.038
355.50 1.039
355.60 1.039
355.70 1.039
355.80 1.039
355.90 1.039
356.00 1.039
356.10 1.039
356.20 1.039
356.30 1.039
356.40 1.04
356.50 1.04
356.60 1.04
356.70 1.04
356.80 1.04
356.90 1.04
357.00 1.04
357.10 1.04
357.20 1.04
357.30 1.041
357.40 1.041
357.50 1.041
357.60 1.041
357.70 1.041
357.80 1.041
357.90 1.041
358.00 1.041
358.10 1.041
358.20 1.042
358.30 1.042
358.40 1.042
358.50 1.042
358.60 1.042
358.70 1.042
358.80 1.042
358.90 1.042
359.00 1.042
359.10 1.042
359.20 1.043
359.30 1.043
359.40 1.043
359.50 1.043
359.60 1.043
359.70 1.043
359.80 1.043
359.90 1.043
360.00 1.043
360.10 1.043
360.20 1.043
360.30 1.044
360.40 1.044
360.50 1.044
360.60 1.044
360.70 1.044
360.80 1.044
360.90 1.044
361.00 1.044
361.10 1.044
361.20 1.044
361.30 1.045
361.40 1.045
361.50 1.045
361.60 1.045
361.70 1.045
361.80 1.045
361.90 1.045
362.00 1.045
362.10 1.045
362.20 1.045
362.30 1.045
362.40 1.046
362.50 1.046
362.60 1.046
362.70 1.046
362.80 1.046
362.90 1.046
363.00 1.046
363.10 1.046
363.20 1.046
363.30 1.046
363.40 1.046
363.50 1.046
363.60 1.047
363.70 1.047
363.80 1.047
363.90 1.047
364.00 1.047
364.10 1.047
364.20 1.047
364.30 1.047
364.40 1.047
364.50 1.047
364.60 1.047
364.70 1.047
364.80 1.048
364.90 1.048
365.00 1.048
365.10 1.048
365.20 1.048
365.30 1.048
365.40 1.048
365.50 1.048
365.60 1.048
365.70 1.048
365.80 1.048
365.90 1.048
366.00 1.048
366.10 1.048
366.20 1.049
366.30 1.049
366.40 1.049
366.50 1.049
366.60 1.049
366.70 1.049
366.80 1.049
366.90 1.049
367.00 1.049
367.10 1.049
367.20 1.049
367.30 1.049
367.40 1.049
367.50 1.05
367.60 1.05
367.70 1.05
367.80 1.05
367.90 1.05
368.00 1.05
368.10 1.05
368.20 1.05
368.30 1.05
368.40 1.05
368.50 1.05
368.60 1.05
368.70 1.05
368.80 1.05
368.90 1.05
369.00 1.051
369.10 1.051
369.20 1.051
369.30 1.051
369.40 1.051
369.50 1.051
369.60 1.051
369.70 1.051
369.80 1.051
369.90 1.051
370.00 1.051
370.10 1.052
370.20 1.052
370.30 1.053
370.40 1.054
370.50 1.054
370.60 1.055
370.70 1.056
370.80 1.057
370.90 1.057
371.00 1.058
371.10 1.059
371.20 1.059
371.30 1.06
371.40 1.06
371.50 1.061
371.60 1.062
371.70 1.062
371.80 1.063
371.90 1.064
372.00 1.064
372.10 1.065
372.20 1.066
372.30 1.067
372.40 1.068
372.50 1.068
372.60 1.069
372.70 1.07
372.80 1.071
372.90 1.072
373.00 1.072
373.10 1.073
373.20 1.074
373.30 1.075
373.40 1.076
373.50 1.076
373.60 1.077
373.70 1.078
373.80 1.079
373.90 1.08
374.00 1.08
374.10 1.081
374.20 1.082
374.30 1.082
374.40 1.083
374.50 1.084
374.60 1.084
374.70 1.085
374.80 1.086
374.90 1.086
375.00 1.087
375.10 1.088
375.20 1.088
375.30 1.089
375.40 1.089
375.50 1.09
375.60 1.091
375.70 1.091
375.80 1.092
375.90 1.093
376.00 1.093
376.10 1.094
376.20 1.094
376.30 1.095
376.40 1.095
376.50 1.095
376.60 1.096
376.70 1.096
376.80 1.097
376.90 1.097
377.00 1.098
377.10 1.098
377.20 1.098
377.30 1.098
377.40 1.098
377.50 1.098
377.60 1.098
377.70 1.098
377.80 1.099
377.90 1.099
378.00 1.099
378.10 1.097
378.20 1.096
378.30 1.094
378.40 1.092
378.50 1.091
378.60 1.089
378.70 1.087
378.80 1.086
378.90 1.084
379.00 1.083
379.10 1.075
379.20 1.068
379.30 1.06
379.40 1.053
379.50 1.045
379.60 1.038
379.70 1.031
379.80 1.023
379.90 1.016
380.00 1.008
380.10 1.018
380.20 1.027
380.30 1.036
380.40 1.045
380.50 1.054
380.60 1.063
380.70 1.072
380.80 1.081
380.90 1.09
381.00 1.099
381.10 1.1
381.20 1.101
381.30 1.102
381.40 1.103
381.50 1.104
381.60 1.104
381.70 1.105
381.80 1.104
381.90 1.104
382.00 1.104
382.10 1.103
382.20 1.102
382.30 1.093
382.40 1.085
382.50 1.077
382.60 1.069
382.70 1.061
382.80 1.053
382.90 1.045
383.00 1.037
383.10 1.029
383.20 1.02
383.30 0.9862
383.40 0.9313
383.50 0.8065
383.60 0.8504
383.70 0.9467
383.80 0.9958
383.90 1.027
384.00 1.049
384.10 1.064
384.20 1.075
384.30 1.084
384.40 1.09
384.50 1.095
384.60 1.099
384.70 1.102
384.80 1.105
384.90 1.107
385.00 1.108
385.10 1.109
385.20 1.11
385.30 1.111
385.40 1.112
385.50 1.113
385.60 1.113
385.70 1.113
385.80 1.114
385.90 1.114
386.00 1.114
386.10 1.114
386.20 1.114
386.30 1.114
386.40 1.114
386.50 1.114
386.60 1.114
386.70 1.114
386.80 1.114
386.90 1.113
387.00 1.113
387.10 1.112
387.20 1.112
387.30 1.111
387.40 1.11
387.50 1.108
387.60 1.106
387.70 1.104
387.80 1.101
387.90 1.097
388.00 1.092
388.10 1.085
388.20 1.076
388.30 1.065
388.40 1.047
388.50 1.022
388.60 0.9898
388.70 0.9264
388.80 0.7877
388.90 0.5738
389.00 0.7816
389.10 0.9189
389.20 0.9859
389.30 1.019
389.40 1.046
389.50 1.064
389.60 1.076
389.70 1.085
389.80 1.093
389.90 1.098
390.00 1.102
390.10 1.105
390.20 1.108
390.30 1.11
390.40 1.111
390.50 1.113
390.60 1.114
390.70 1.115
390.80 1.115
390.90 1.116
391.00 1.117
391.10 1.117
391.20 1.118
391.30 1.118
391.40 1.118
391.50 1.118
391.60 1.119
391.70 1.119
391.80 1.119
391.90 1.119
392.00 1.119
392.10 1.119
392.20 1.12
392.30 1.12
392.40 1.12
392.50 1.12
392.60 1.12
392.70 1.12
392.80 1.12
392.90 1.12
393.00 1.12
393.10 1.12
393.20 1.12
393.30 1.12
393.40 1.12
393.50 1.12
393.60 1.12
393.70 1.12
393.80 1.12
393.90 1.12
394.00 1.119
394.10 1.119
394.20 1.119
394.30 1.119
394.40 1.119
394.50 1.118
394.60 1.118
394.70 1.118
394.80 1.117
394.90 1.117
395.00 1.116
395.10 1.115
395.20 1.115
395.30 1.114
395.40 1.113
395.50 1.111
395.60 1.11
395.70 1.107
395.80 1.105
395.90 1.101
396.00 1.097
396.10 1.092
396.20 1.084
396.30 1.074
396.40 1.061
396.50 1.04
396.60 1.011
396.70 0.9742
396.80 0.897
396.90 0.7201
397.00 0.4438
397.10 0.709
397.20 0.8835
397.30 0.9673
397.40 1.007
397.50 1.037
397.60 1.059
397.70 1.072
397.80 1.083
397.90 1.091
398.00 1.097
398.10 1.101
398.20 1.105
398.30 1.107
398.40 1.109
398.50 1.111
398.60 1.112
398.70 1.114
398.80 1.115
398.90 1.115
399.00 1.116
399.10 1.117
399.20 1.117
399.30 1.118
399.40 1.118
399.50 1.118
399.60 1.119
399.70 1.119
399.80 1.119
399.90 1.119
400.00 1.119
400.10 1.119
400.20 1.12
400.30 1.12
400.40 1.12
400.50 1.12
400.60 1.12
400.70 1.12
400.80 1.12
400.90 1.12
401.00 1.12
401.10 1.12
401.20 1.12
401.30 1.12
401.40 1.12
401.50 1.12
401.60 1.12
401.70 1.12
401.80 1.12
401.90 1.12
402.00 1.12
402.10 1.12
402.20 1.12
402.30 1.12
402.40 1.12
402.50 1.12
402.60 1.12
402.70 1.12
402.80 1.12
402.90 1.12
403.00 1.12
403.10 1.12
403.20 1.12
403.30 1.12
403.40 1.12
403.50 1.12
403.60 1.12
403.70 1.12
403.80 1.12
403.90 1.12
404.00 1.12
404.10 1.12
404.20 1.12
404.30 1.12
404.40 1.12
404.50 1.12
404.60 1.119
404.70 1.119
404.80 1.119
404.90 1.119
405.00 1.119
405.10 1.119
405.20 1.119
405.30 1.119
405.40 1.119
405.50 1.119
405.60 1.119
405.70 1.119
405.80 1.119
405.90 1.119
406.00 1.119
406.10 1.118
406.20 1.118
406.30 1.118
406.40 1.118
406.50 1.118
406.60 1.118
406.70 1.118
406.80 1.118
406.90 1.118
407.00 1.117
407.10 1.117
407.20 1.117
407.30 1.117
407.40 1.116
407.50 1.116
407.60 1.116
407.70 1.115
407.80 1.115
407.90 1.114
408.00 1.114
408.10 1.113
408.20 1.112
408.30 1.111
408.40 1.11
408.50 1.109
408.60 1.108
408.70 1.106
408.80 1.104
408.90 1.101
409.00 1.098
409.10 1.094
409.20 1.089
409.30 1.083
409.40 1.074
409.50 1.062
409.60 1.047
409.70 1.022
409.80 0.9858
409.90 0.9393
410.00 0.8325
410.10 0.6698
410.20 0.4515
410.30 0.7212
410.40 0.8941
410.50 0.9703
410.60 1.007
410.70 1.035
410.80 1.056
410.90 1.068
411.00 1.078
411.10 1.086
411.20 1.091
411.30 1.096
411.40 1.099
411.50 1.102
411.60 1.104
411.70 1.106
411.80 1.107
411.90 1.108
412.00 1.109
412.10 1.11
412.20 1.111
412.30 1.111
412.40 1.112
412.50 1.112
412.60 1.113
412.70 1.113
412.80 1.113
412.90 1.114
413.00 1.114
413.10 1.114
413.20 1.114
413.30 1.114
413.40 1.114
413.50 1.114
413.60 1.114
413.70 1.114
413.80 1.114
413.90 1.114
414.00 1.114
414.10 1.114
414.20 1.114
414.30 1.114
414.40 1.114
414.50 1.114
414.60 1.114
414.70 1.114
414.80 1.114
414.90 1.114
415.00 1.114
415.10 1.114
415.20 1.114
415.30 1.114
415.40 1.114
415.50 1.114
415.60 1.114
415.70 1.114
415.80 1.114
415.90 1.114
416.00 1.114
416.10 1.114
416.20 1.114
416.30 1.113
416.40 1.113
416.50 1.113
416.60 1.113
416.70 1.113
416.80 1.113
416.90 1.113
417.00 1.113
417.10 1.113
417.20 1.113
417.30 1.113
417.40 1.113
417.50 1.113
417.60 1.113
417.70 1.113
417.80 1.113
417.90 1.112
418.00 1.112
418.10 1.112
418.20 1.112
418.30 1.112
418.40 1.112
418.50 1.112
418.60 1.112
418.70 1.112
418.80 1.112
418.90 1.112
419.00 1.112
419.10 1.112
419.20 1.112
419.30 1.111
419.40 1.111
419.50 1.111
419.60 1.111
419.70 1.111
419.80 1.111
419.90 1.111
420.00 1.111
420.10 1.111
420.20 1.111
420.30 1.111
420.40 1.111
420.50 1.111
420.60 1.111
420.70 1.11
420.80 1.11
420.90 1.11
421.00 1.11
421.10 1.11
421.20 1.11
421.30 1.11
421.40 1.11
421.50 1.11
421.60 1.11
421.70 1.11
421.80 1.11
421.90 1.109
422.00 1.109
422.10 1.109
422.20 1.109
422.30 1.109
422.40 1.109
422.50 1.109
422.60 1.109
422.70 1.109
422.80 1.109
422.90 1.109
423.00 1.109
423.10 1.108
423.20 1.108
423.30 1.108
423.40 1.108
423.50 1.108
423.60 1.108
423.70 1.108
423.80 1.108
423.90 1.108
424.00 1.108
424.10 1.108
424.20 1.108
424.30 1.107
424.40 1.107
424.50 1.107
424.60 1.107
424.70 1.107
424.80 1.107
424.90 1.107
425.00 1.107
425.10 1.107
425.20 1.107
425.30 1.107
425.40 1.106
425.50 1.106
425.60 1.106
425.70 1.106
425.80 1.106
425.90 1.106
426.00 1.106
426.10 1.106
426.20 1.106
426.30 1.106
426.40 1.106
426.50 1.105
426.60 1.105
426.70 1.105
426.80 1.105
426.90 1.105
427.00 1.105
427.10 1.105
427.20 1.105
427.30 1.105
427.40 1.105
427.50 1.104
427.60 1.104
427.70 1.104
427.80 1.104
427.90 1.104
428.00 1.104
428.10 1.104
428.20 1.104
428.30 1.104
428.40 1.103
428.50 1.103
428.60 1.103
428.70 1.103
428.80 1.103
428.90 1.103
429.00 1.103
429.10 1.103
429.20 1.102
429.30 1.102
429.40 1.102
429.50 1.102
429.60 1.102
429.70 1.102
429.80 1.102
429.90 1.102
430.00 1.101
430.10 1.101
430.20 1.101
430.30 1.101
430.40 1.101
430.50 1.101
430.60 1.1
430.70 1.1
430.80 1.1
430.90 1.1
431.00 1.1
431.10 1.099
431.20 1.099
431.30 1.099
431.40 1.098
431.50 1.098
431.60 1.097
431.70 1.097
431.80 1.096
431.90 1.095
432.00 1.094
432.10 1.093
432.20 1.092
432.30 1.091
432.40 1.09
432.50 1.088
432.60 1.086
432.70 1.084
432.80 1.081
432.90 1.077
433.00 1.073
433.10 1.067
433.20 1.06
433.30 1.051
433.40 1.036
433.50 1.018
433.60 0.9942
433.70 0.9523
433.80 0.8839
433.90 0.7891
434.00 0.4797
434.10 0.4838
434.20 0.801
434.30 0.8909
434.40 0.956
434.50 0.9962
434.60 1.019
434.70 1.037
434.80 1.05
434.90 1.059
435.00 1.066
435.10 1.071
435.20 1.075
435.30 1.079
435.40 1.081
435.50 1.083
435.60 1.085
435.70 1.087
435.80 1.088
435.90 1.089
436.00 1.09
436.10 1.09
436.20 1.091
436.30 1.091
436.40 1.092
436.50 1.092
436.60 1.093
436.70 1.093
436.80 1.093
436.90 1.093
437.00 1.093
437.10 1.093
437.20 1.093
437.30 1.093
437.40 1.093
437.50 1.093
437.60 1.093
437.70 1.093
437.80 1.093
437.90 1.093
438.00 1.093
438.10 1.093
438.20 1.093
438.30 1.093
438.40 1.093
438.50 1.093
438.60 1.093
438.70 1.093
438.80 1.092
438.90 1.092
439.00 1.092
439.10 1.092
439.20 1.092
439.30 1.092
439.40 1.092
439.50 1.092
439.60 1.092
439.70 1.092
439.80 1.092
439.90 1.091
440.00 1.091
440.10 1.091
440.20 1.091
440.30 1.091
440.40 1.091
440.50 1.091
440.60 1.091
440.70 1.091
440.80 1.09
440.90 1.09
441.00 1.09
441.10 1.09
441.20 1.09
441.30 1.09
441.40 1.09
441.50 1.09
441.60 1.09
441.70 1.089
441.80 1.089
441.90 1.089
442.00 1.089
442.10 1.089
442.20 1.089
442.30 1.089
442.40 1.089
442.50 1.089
442.60 1.088
442.70 1.088
442.80 1.088
442.90 1.088
443.00 1.088
443.10 1.088
443.20 1.088
443.30 1.088
443.40 1.087
443.50 1.087
443.60 1.087
443.70 1.087
443.80 1.087
443.90 1.087
444.00 1.087
444.10 1.087
444.20 1.087
444.30 1.086
444.40 1.086
444.50 1.086
444.60 1.086
444.70 1.086
444.80 1.086
444.90 1.086
445.00 1.086
445.10 1.085
445.20 1.085
445.30 1.085
445.40 1.085
445.50 1.085
445.60 1.085
445.70 1.085
445.80 1.085
445.90 1.084
446.00 1.084
446.10 1.084
446.20 1.084
446.30 1.084
446.40 1.084
446.50 1.084
446.60 1.084
446.70 1.083
446.80 1.083
446.90 1.083
447.00 1.083
447.10 1.083
447.20 1.083
447.30 1.083
447.40 1.083
447.50 1.082
447.60 1.082
447.70 1.082
447.80 1.082
447.90 1.082
448.00 1.082
448.10 1.082
448.20 1.082
448.30 1.081
448.40 1.081
448.50 1.081
448.60 1.081
448.70 1.081
448.80 1.081
448.90 1.081
449.00 1.081
449.10 1.08
449.20 1.08
449.30 1.08
449.40 1.08
449.50 1.08
449.60 1.08
449.70 1.08
449.80 1.079
449.90 1.079
450.00 1.079
450.10 1.079
450.20 1.079
450.30 1.079
450.40 1.079
450.50 1.079
450.60 1.078
450.70 1.078
450.80 1.078
450.90 1.078
451.00 1.078
451.10 1.078
451.20 1.078
451.30 1.078
451.40 1.077
451.50 1.077
451.60 1.077
451.70 1.077
451.80 1.077
