# Version 2.1 - nm, norm@500 to 1, cut digits, bergeron_16000_90.dat_16000
# Wavelength(nm)  Flambda(ergs/cm^s/s/nm)
300.00 2.763
300.10 2.76
300.20 2.758
300.30 2.756
300.40 2.753
300.50 2.751
300.60 2.749
300.70 2.746
300.80 2.744
300.90 2.742
301.00 2.74
301.10 2.737
301.20 2.735
301.30 2.733
301.40 2.73
301.50 2.728
301.60 2.726
301.70 2.724
301.80 2.721
301.90 2.719
302.00 2.717
302.10 2.714
302.20 2.712
302.30 2.71
302.40 2.708
302.50 2.705
302.60 2.703
302.70 2.701
302.80 2.699
302.90 2.696
303.00 2.694
303.10 2.692
303.20 2.69
303.30 2.687
303.40 2.685
303.50 2.683
303.60 2.681
303.70 2.678
303.80 2.676
303.90 2.674
304.00 2.672
304.10 2.67
304.20 2.667
304.30 2.665
304.40 2.663
304.50 2.661
304.60 2.659
304.70 2.656
304.80 2.654
304.90 2.652
305.00 2.65
305.10 2.648
305.20 2.645
305.30 2.643
305.40 2.641
305.50 2.639
305.60 2.637
305.70 2.635
305.80 2.632
305.90 2.63
306.00 2.628
306.10 2.626
306.20 2.624
306.30 2.622
306.40 2.619
306.50 2.617
306.60 2.615
306.70 2.613
306.80 2.611
306.90 2.609
307.00 2.606
307.10 2.604
307.20 2.602
307.30 2.6
307.40 2.598
307.50 2.596
307.60 2.594
307.70 2.591
307.80 2.589
307.90 2.587
308.00 2.585
308.10 2.583
308.20 2.581
308.30 2.579
308.40 2.577
308.50 2.574
308.60 2.572
308.70 2.57
308.80 2.568
308.90 2.566
309.00 2.564
309.10 2.562
309.20 2.56
309.30 2.558
309.40 2.556
309.50 2.553
309.60 2.551
309.70 2.549
309.80 2.547
309.90 2.545
310.00 2.543
310.10 2.541
310.20 2.539
310.30 2.537
310.40 2.535
310.50 2.533
310.60 2.531
310.70 2.529
310.80 2.526
310.90 2.524
311.00 2.522
311.10 2.52
311.20 2.518
311.30 2.516
311.40 2.514
311.50 2.512
311.60 2.51
311.70 2.508
311.80 2.506
311.90 2.504
312.00 2.502
312.10 2.5
312.20 2.498
312.30 2.496
312.40 2.494
312.50 2.492
312.60 2.49
312.70 2.488
312.80 2.486
312.90 2.484
313.00 2.482
313.10 2.48
313.20 2.478
313.30 2.476
313.40 2.474
313.50 2.472
313.60 2.47
313.70 2.468
313.80 2.466
313.90 2.464
314.00 2.462
314.10 2.46
314.20 2.458
314.30 2.456
314.40 2.454
314.50 2.452
314.60 2.45
314.70 2.448
314.80 2.446
314.90 2.444
315.00 2.442
315.10 2.44
315.20 2.438
315.30 2.436
315.40 2.434
315.50 2.432
315.60 2.43
315.70 2.428
315.80 2.426
315.90 2.424
316.00 2.422
316.10 2.42
316.20 2.419
316.30 2.417
316.40 2.415
316.50 2.413
316.60 2.411
316.70 2.409
316.80 2.407
316.90 2.405
317.00 2.403
317.10 2.401
317.20 2.399
317.30 2.397
317.40 2.395
317.50 2.393
317.60 2.392
317.70 2.39
317.80 2.388
317.90 2.386
318.00 2.384
318.10 2.382
318.20 2.38
318.30 2.378
318.40 2.376
318.50 2.374
318.60 2.373
318.70 2.371
318.80 2.369
318.90 2.367
319.00 2.365
319.10 2.363
319.20 2.361
319.30 2.359
319.40 2.357
319.50 2.356
319.60 2.354
319.70 2.352
319.80 2.35
319.90 2.348
320.00 2.346
320.10 2.344
320.20 2.343
320.30 2.341
320.40 2.339
320.50 2.337
320.60 2.335
320.70 2.333
320.80 2.331
320.90 2.33
321.00 2.328
321.10 2.326
321.20 2.324
321.30 2.322
321.40 2.32
321.50 2.318
321.60 2.317
321.70 2.315
321.80 2.313
321.90 2.311
322.00 2.309
322.10 2.307
322.20 2.306
322.30 2.304
322.40 2.302
322.50 2.3
322.60 2.298
322.70 2.297
322.80 2.295
322.90 2.293
323.00 2.291
323.10 2.289
323.20 2.287
323.30 2.286
323.40 2.284
323.50 2.282
323.60 2.28
323.70 2.278
323.80 2.277
323.90 2.275
324.00 2.273
324.10 2.271
324.20 2.27
324.30 2.268
324.40 2.266
324.50 2.264
324.60 2.262
324.70 2.261
324.80 2.259
324.90 2.257
325.00 2.255
325.10 2.253
325.20 2.252
325.30 2.25
325.40 2.248
325.50 2.246
325.60 2.245
325.70 2.243
325.80 2.241
325.90 2.239
326.00 2.238
326.10 2.236
326.20 2.234
326.30 2.232
326.40 2.231
326.50 2.229
326.60 2.227
326.70 2.225
326.80 2.224
326.90 2.222
327.00 2.22
327.10 2.218
327.20 2.217
327.30 2.215
327.40 2.213
327.50 2.212
327.60 2.21
327.70 2.208
327.80 2.206
327.90 2.205
328.00 2.203
328.10 2.201
328.20 2.2
328.30 2.198
328.40 2.196
328.50 2.194
328.60 2.193
328.70 2.191
328.80 2.189
328.90 2.188
329.00 2.186
329.10 2.184
329.20 2.182
329.30 2.181
329.40 2.179
329.50 2.177
329.60 2.176
329.70 2.174
329.80 2.172
329.90 2.171
330.00 2.169
330.10 2.167
330.20 2.165
330.30 2.164
330.40 2.162
330.50 2.16
330.60 2.159
330.70 2.157
330.80 2.155
330.90 2.154
331.00 2.152
331.10 2.15
331.20 2.149
331.30 2.147
331.40 2.145
331.50 2.144
331.60 2.142
331.70 2.14
331.80 2.139
331.90 2.137
332.00 2.136
332.10 2.134
332.20 2.132
332.30 2.131
332.40 2.129
332.50 2.127
332.60 2.126
332.70 2.124
332.80 2.122
332.90 2.121
333.00 2.119
333.10 2.117
333.20 2.116
333.30 2.114
333.40 2.113
333.50 2.111
333.60 2.109
333.70 2.108
333.80 2.106
333.90 2.104
334.00 2.103
334.10 2.101
334.20 2.1
334.30 2.098
334.40 2.096
334.50 2.095
334.60 2.093
334.70 2.092
334.80 2.09
334.90 2.088
335.00 2.087
335.10 2.085
335.20 2.084
335.30 2.082
335.40 2.08
335.50 2.079
335.60 2.077
335.70 2.076
335.80 2.074
335.90 2.072
336.00 2.071
336.10 2.069
336.20 2.068
336.30 2.066
336.40 2.065
336.50 2.063
336.60 2.061
336.70 2.06
336.80 2.058
336.90 2.057
337.00 2.055
337.10 2.053
337.20 2.052
337.30 2.05
337.40 2.049
337.50 2.047
337.60 2.046
337.70 2.044
337.80 2.043
337.90 2.041
338.00 2.039
338.10 2.038
338.20 2.036
338.30 2.035
338.40 2.033
338.50 2.032
338.60 2.03
338.70 2.029
338.80 2.027
338.90 2.025
339.00 2.024
339.10 2.022
339.20 2.021
339.30 2.019
339.40 2.018
339.50 2.016
339.60 2.015
339.70 2.013
339.80 2.012
339.90 2.01
340.00 2.009
340.10 2.007
340.20 2.006
340.30 2.004
340.40 2.003
340.50 2.001
340.60 1.999
340.70 1.998
340.80 1.996
340.90 1.995
341.00 1.993
341.10 1.992
341.20 1.99
341.30 1.989
341.40 1.987
341.50 1.986
341.60 1.984
341.70 1.983
341.80 1.981
341.90 1.98
342.00 1.978
342.10 1.977
342.20 1.976
342.30 1.974
342.40 1.973
342.50 1.971
342.60 1.97
342.70 1.968
342.80 1.967
342.90 1.965
343.00 1.964
343.10 1.962
343.20 1.961
343.30 1.959
343.40 1.958
343.50 1.956
343.60 1.955
343.70 1.953
343.80 1.952
343.90 1.95
344.00 1.949
344.10 1.947
344.20 1.946
344.30 1.944
344.40 1.943
344.50 1.942
344.60 1.94
344.70 1.939
344.80 1.937
344.90 1.936
345.00 1.934
345.10 1.933
345.20 1.931
345.30 1.93
345.40 1.928
345.50 1.927
345.60 1.926
345.70 1.924
345.80 1.923
345.90 1.921
346.00 1.92
346.10 1.918
346.20 1.917
346.30 1.916
346.40 1.914
346.50 1.913
346.60 1.911
346.70 1.91
346.80 1.908
346.90 1.907
347.00 1.906
347.10 1.904
347.20 1.903
347.30 1.901
347.40 1.9
347.50 1.898
347.60 1.897
347.70 1.896
347.80 1.894
347.90 1.893
348.00 1.891
348.10 1.89
348.20 1.889
348.30 1.887
348.40 1.886
348.50 1.884
348.60 1.883
348.70 1.882
348.80 1.88
348.90 1.879
349.00 1.877
349.10 1.876
349.20 1.875
349.30 1.873
349.40 1.872
349.50 1.87
349.60 1.869
349.70 1.868
349.80 1.866
349.90 1.865
350.00 1.863
350.10 1.862
350.20 1.861
350.30 1.859
350.40 1.858
350.50 1.857
350.60 1.855
350.70 1.854
350.80 1.852
350.90 1.851
351.00 1.85
351.10 1.848
351.20 1.847
351.30 1.846
351.40 1.844
351.50 1.843
351.60 1.842
351.70 1.84
351.80 1.839
351.90 1.837
352.00 1.836
352.10 1.835
352.20 1.833
352.30 1.832
352.40 1.831
352.50 1.829
352.60 1.828
352.70 1.827
352.80 1.825
352.90 1.824
353.00 1.823
353.10 1.821
353.20 1.82
353.30 1.819
353.40 1.817
353.50 1.816
353.60 1.815
353.70 1.813
353.80 1.812
353.90 1.811
354.00 1.809
354.10 1.808
354.20 1.807
354.30 1.805
354.40 1.804
354.50 1.803
354.60 1.801
354.70 1.8
354.80 1.799
354.90 1.797
355.00 1.796
355.10 1.795
355.20 1.793
355.30 1.792
355.40 1.791
355.50 1.789
355.60 1.788
355.70 1.787
355.80 1.786
355.90 1.784
356.00 1.783
356.10 1.782
356.20 1.78
356.30 1.779
356.40 1.778
356.50 1.776
356.60 1.775
356.70 1.774
356.80 1.772
356.90 1.771
357.00 1.77
357.10 1.769
357.20 1.767
357.30 1.766
357.40 1.765
357.50 1.763
357.60 1.762
357.70 1.761
357.80 1.76
357.90 1.758
358.00 1.757
358.10 1.756
358.20 1.754
358.30 1.753
358.40 1.752
358.50 1.751
358.60 1.749
358.70 1.748
358.80 1.747
358.90 1.746
359.00 1.744
359.10 1.743
359.20 1.742
359.30 1.74
359.40 1.739
359.50 1.738
359.60 1.737
359.70 1.735
359.80 1.734
359.90 1.733
360.00 1.732
360.10 1.73
360.20 1.729
360.30 1.728
360.40 1.727
360.50 1.725
360.60 1.724
360.70 1.723
360.80 1.722
360.90 1.72
361.00 1.719
361.10 1.718
361.20 1.717
361.30 1.715
361.40 1.714
361.50 1.713
361.60 1.712
361.70 1.71
361.80 1.709
361.90 1.708
362.00 1.707
362.10 1.705
362.20 1.704
362.30 1.703
362.40 1.702
362.50 1.7
362.60 1.699
362.70 1.698
362.80 1.697
362.90 1.696
363.00 1.694
363.10 1.693
363.20 1.692
363.30 1.69
363.40 1.689
363.50 1.687
363.60 1.686
363.70 1.685
363.80 1.683
363.90 1.682
364.00 1.68
364.10 1.679
364.20 1.677
364.30 1.676
364.40 1.675
364.50 1.673
364.60 1.672
364.70 1.67
364.80 1.669
364.90 1.667
365.00 1.666
365.10 1.665
365.20 1.663
365.30 1.662
365.40 1.66
365.50 1.659
365.60 1.657
365.70 1.656
365.80 1.654
365.90 1.653
366.00 1.652
366.10 1.65
366.20 1.649
366.30 1.648
366.40 1.647
366.50 1.645
366.60 1.644
366.70 1.643
366.80 1.642
366.90 1.64
367.00 1.639
367.10 1.638
367.20 1.637
367.30 1.635
367.40 1.634
367.50 1.633
367.60 1.632
367.70 1.63
367.80 1.629
367.90 1.628
368.00 1.627
368.10 1.625
368.20 1.624
368.30 1.623
368.40 1.622
368.50 1.62
368.60 1.619
368.70 1.618
368.80 1.617
368.90 1.616
369.00 1.614
369.10 1.613
369.20 1.612
369.30 1.611
369.40 1.609
369.50 1.608
369.60 1.607
369.70 1.606
369.80 1.604
369.90 1.603
370.00 1.602
370.10 1.601
370.20 1.6
370.30 1.599
370.40 1.597
370.50 1.596
370.60 1.595
370.70 1.594
370.80 1.593
370.90 1.592
371.00 1.59
371.10 1.589
371.20 1.588
371.30 1.587
371.40 1.586
371.50 1.585
371.60 1.584
371.70 1.582
371.80 1.581
371.90 1.58
372.00 1.579
372.10 1.578
372.20 1.577
372.30 1.576
372.40 1.575
372.50 1.574
372.60 1.573
372.70 1.572
372.80 1.571
372.90 1.57
373.00 1.569
373.10 1.568
373.20 1.567
373.30 1.566
373.40 1.565
373.50 1.564
373.60 1.563
373.70 1.562
373.80 1.561
373.90 1.56
374.00 1.559
374.10 1.559
374.20 1.558
374.30 1.557
374.40 1.556
374.50 1.555
374.60 1.555
374.70 1.554
374.80 1.553
374.90 1.552
375.00 1.551
375.10 1.551
375.20 1.55
375.30 1.549
375.40 1.548
375.50 1.547
375.60 1.547
375.70 1.546
375.80 1.545
375.90 1.544
376.00 1.543
376.10 1.543
376.20 1.542
376.30 1.541
376.40 1.54
376.50 1.54
376.60 1.539
376.70 1.538
376.80 1.537
376.90 1.537
377.00 1.536
377.10 1.535
377.20 1.534
377.30 1.533
377.40 1.532
377.50 1.531
377.60 1.53
377.70 1.529
377.80 1.528
377.90 1.527
378.00 1.526
378.10 1.525
378.20 1.523
378.30 1.522
378.40 1.52
378.50 1.519
378.60 1.517
378.70 1.515
378.80 1.514
378.90 1.512
379.00 1.511
379.10 1.509
379.20 1.508
379.30 1.507
379.40 1.506
379.50 1.505
379.60 1.504
379.70 1.502
379.80 1.501
379.90 1.5
380.00 1.499
380.10 1.499
380.20 1.499
380.30 1.5
380.40 1.5
380.50 1.5
380.60 1.501
380.70 1.501
380.80 1.501
380.90 1.502
381.00 1.502
381.10 1.502
381.20 1.501
381.30 1.501
381.40 1.501
381.50 1.5
381.60 1.499
381.70 1.498
381.80 1.497
381.90 1.496
382.00 1.494
382.10 1.493
382.20 1.491
382.30 1.488
382.40 1.485
382.50 1.481
382.60 1.478
382.70 1.475
382.80 1.472
382.90 1.469
383.00 1.466
383.10 1.463
383.20 1.46
383.30 1.458
383.40 1.456
383.50 1.454
383.60 1.454
383.70 1.456
383.80 1.457
383.90 1.459
384.00 1.461
384.10 1.464
384.20 1.467
384.30 1.471
384.40 1.474
384.50 1.476
384.60 1.479
384.70 1.481
384.80 1.482
384.90 1.484
385.00 1.485
385.10 1.486
385.20 1.486
385.30 1.487
385.40 1.487
385.50 1.487
385.60 1.486
385.70 1.486
385.80 1.485
385.90 1.484
386.00 1.483
386.10 1.481
386.20 1.48
386.30 1.478
386.40 1.476
386.50 1.474
386.60 1.471
386.70 1.469
386.80 1.466
386.90 1.463
387.00 1.46
387.10 1.456
387.20 1.453
387.30 1.449
387.40 1.444
387.50 1.44
387.60 1.435
387.70 1.43
387.80 1.424
387.90 1.419
388.00 1.412
388.10 1.406
388.20 1.398
388.30 1.39
388.40 1.382
388.50 1.374
388.60 1.367
388.70 1.363
388.80 1.36
388.90 1.357
389.00 1.359
389.10 1.362
389.20 1.366
389.30 1.373
389.40 1.38
389.50 1.389
389.60 1.397
389.70 1.404
389.80 1.411
389.90 1.417
390.00 1.423
390.10 1.429
390.20 1.434
390.30 1.439
390.40 1.443
390.50 1.448
390.60 1.452
390.70 1.455
390.80 1.459
390.90 1.462
391.00 1.465
391.10 1.468
391.20 1.47
391.30 1.473
391.40 1.475
391.50 1.476
391.60 1.478
391.70 1.479
391.80 1.48
391.90 1.481
392.00 1.482
392.10 1.482
392.20 1.482
392.30 1.482
392.40 1.481
392.50 1.48
392.60 1.479
392.70 1.478
392.80 1.476
392.90 1.474
393.00 1.472
393.10 1.469
393.20 1.466
393.30 1.463
393.40 1.459
393.50 1.455
393.60 1.451
393.70 1.447
393.80 1.442
393.90 1.437
394.00 1.431
394.10 1.425
394.20 1.419
394.30 1.413
394.40 1.406
394.50 1.399
394.60 1.392
394.70 1.384
394.80 1.376
394.90 1.368
395.00 1.359
395.10 1.351
395.20 1.342
395.30 1.332
395.40 1.323
395.50 1.313
395.60 1.302
395.70 1.292
395.80 1.281
395.90 1.269
396.00 1.258
396.10 1.246
396.20 1.233
396.30 1.22
396.40 1.205
396.50 1.188
396.60 1.17
396.70 1.151
396.80 1.138
396.90 1.125
397.00 1.113
397.10 1.124
397.20 1.135
397.30 1.147
397.40 1.165
397.50 1.183
397.60 1.2
397.70 1.214
397.80 1.228
397.90 1.24
398.00 1.251
398.10 1.263
398.20 1.274
398.30 1.284
398.40 1.295
398.50 1.305
398.60 1.315
398.70 1.325
398.80 1.334
398.90 1.343
399.00 1.352
399.10 1.361
399.20 1.369
399.30 1.378
399.40 1.386
399.50 1.394
399.60 1.401
399.70 1.409
399.80 1.416
399.90 1.423
400.00 1.43
400.10 1.436
400.20 1.442
400.30 1.448
400.40 1.454
400.50 1.459
400.60 1.465
400.70 1.469
400.80 1.474
400.90 1.479
401.00 1.483
401.10 1.487
401.20 1.491
401.30 1.494
401.40 1.497
401.50 1.5
401.60 1.503
401.70 1.506
401.80 1.508
401.90 1.51
402.00 1.512
402.10 1.514
402.20 1.515
402.30 1.516
402.40 1.517
402.50 1.518
402.60 1.519
402.70 1.519
402.80 1.519
402.90 1.519
403.00 1.518
403.10 1.518
403.20 1.517
403.30 1.516
403.40 1.514
403.50 1.513
403.60 1.511
403.70 1.509
403.80 1.507
403.90 1.504
404.00 1.502
404.10 1.499
404.20 1.495
404.30 1.492
404.40 1.488
404.50 1.484
404.60 1.48
404.70 1.476
404.80 1.471
404.90 1.466
405.00 1.461
405.10 1.456
405.20 1.45
405.30 1.445
405.40 1.439
405.50 1.432
405.60 1.426
405.70 1.419
405.80 1.412
405.90 1.405
406.00 1.397
406.10 1.389
406.20 1.381
406.30 1.373
406.40 1.365
406.50 1.356
406.60 1.347
406.70 1.338
406.80 1.328
406.90 1.318
407.00 1.308
407.10 1.298
407.20 1.287
407.30 1.276
407.40 1.265
407.50 1.254
407.60 1.242
407.70 1.23
407.80 1.218
407.90 1.206
408.00 1.193
408.10 1.18
408.20 1.167
408.30 1.154
408.40 1.14
408.50 1.127
408.60 1.112
408.70 1.098
408.80 1.083
408.90 1.068
409.00 1.053
409.10 1.038
409.20 1.023
409.30 1.008
409.40 0.9919
409.50 0.9753
409.60 0.9579
409.70 0.938
409.80 0.917
409.90 0.8952
410.00 0.8767
410.10 0.8643
410.20 0.8578
410.30 0.8689
410.40 0.8845
410.50 0.9044
410.60 0.9249
410.70 0.9442
410.80 0.9623
410.90 0.978
411.00 0.993
411.10 1.008
411.20 1.022
411.30 1.036
411.40 1.05
411.50 1.064
411.60 1.077
411.70 1.091
411.80 1.104
411.90 1.117
412.00 1.129
412.10 1.141
412.20 1.153
412.30 1.165
412.40 1.177
412.50 1.188
412.60 1.2
412.70 1.21
412.80 1.221
412.90 1.232
413.00 1.242
413.10 1.252
413.20 1.262
413.30 1.271
413.40 1.281
413.50 1.29
413.60 1.299
413.70 1.307
413.80 1.316
413.90 1.324
414.00 1.332
414.10 1.34
414.20 1.348
414.30 1.356
414.40 1.363
414.50 1.37
414.60 1.377
414.70 1.384
414.80 1.391
414.90 1.398
415.00 1.404
415.10 1.41
415.20 1.416
415.30 1.422
415.40 1.428
415.50 1.434
415.60 1.439
415.70 1.445
415.80 1.45
415.90 1.455
416.00 1.46
416.10 1.465
416.20 1.47
416.30 1.474
416.40 1.479
416.50 1.483
416.60 1.487
416.70 1.492
416.80 1.496
416.90 1.499
417.00 1.503
417.10 1.507
417.20 1.51
417.30 1.514
417.40 1.517
417.50 1.52
417.60 1.523
417.70 1.526
417.80 1.529
417.90 1.531
418.00 1.534
418.10 1.536
418.20 1.539
418.30 1.541
418.40 1.543
418.50 1.545
418.60 1.547
418.70 1.549
418.80 1.551
418.90 1.553
419.00 1.554
419.10 1.556
419.20 1.557
419.30 1.558
419.40 1.559
419.50 1.561
419.60 1.562
419.70 1.562
419.80 1.563
419.90 1.564
420.00 1.565
420.10 1.565
420.20 1.566
420.30 1.566
420.40 1.566
420.50 1.567
420.60 1.567
420.70 1.567
420.80 1.567
420.90 1.567
421.00 1.566
421.10 1.566
421.20 1.566
421.30 1.565
421.40 1.564
421.50 1.564
421.60 1.563
421.70 1.562
421.80 1.561
421.90 1.56
422.00 1.559
422.10 1.558
422.20 1.557
422.30 1.556
422.40 1.554
422.50 1.553
422.60 1.551
422.70 1.549
422.80 1.548
422.90 1.546
423.00 1.544
423.10 1.542
423.20 1.54
423.30 1.538
423.40 1.535
423.50 1.533
423.60 1.531
423.70 1.528
423.80 1.526
423.90 1.523
424.00 1.52
424.10 1.517
424.20 1.514
424.30 1.511
424.40 1.508
424.50 1.505
424.60 1.502
424.70 1.499
424.80 1.495
424.90 1.492
425.00 1.488
425.10 1.484
425.20 1.48
425.30 1.477
425.40 1.473
425.50 1.468
425.60 1.464
425.70 1.46
425.80 1.456
425.90 1.451
426.00 1.447
426.10 1.442
426.20 1.436
426.30 1.431
426.40 1.426
426.50 1.421
426.60 1.416
426.70 1.411
426.80 1.406
426.90 1.4
427.00 1.395
427.10 1.389
427.20 1.383
427.30 1.378
427.40 1.372
427.50 1.366
427.60 1.36
427.70 1.353
427.80 1.347
427.90 1.341
428.00 1.334
428.10 1.328
428.20 1.321
428.30 1.314
428.40 1.307
428.50 1.3
428.60 1.293
428.70 1.286
428.80 1.279
428.90 1.271
429.00 1.264
429.10 1.256
429.20 1.248
429.30 1.24
429.40 1.232
429.50 1.224
429.60 1.216
429.70 1.208
429.80 1.199
429.90 1.19
430.00 1.182
430.10 1.173
430.20 1.164
430.30 1.155
430.40 1.145
430.50 1.136
430.60 1.126
430.70 1.116
430.80 1.107
430.90 1.097
431.00 1.086
431.10 1.076
431.20 1.065
431.30 1.055
431.40 1.044
431.50 1.033
431.60 1.021
431.70 1.01
431.80 0.9982
431.90 0.9863
432.00 0.9743
432.10 0.9621
432.20 0.9495
432.30 0.9368
432.40 0.9238
432.50 0.9103
432.60 0.8965
432.70 0.8824
432.80 0.8681
432.90 0.8537
433.00 0.8394
433.10 0.8253
433.20 0.8112
433.30 0.7972
433.40 0.7828
433.50 0.7676
433.60 0.7516
433.70 0.7303
433.80 0.704
433.90 0.6726
434.00 0.6362
434.10 0.6368
434.20 0.6744
434.30 0.7047
434.40 0.7299
434.50 0.75
434.60 0.765
434.70 0.7793
434.80 0.7929
434.90 0.806
435.00 0.8191
435.10 0.8323
435.20 0.8456
435.30 0.859
435.40 0.8722
435.50 0.8852
435.60 0.8978
435.70 0.9101
435.80 0.9219
435.90 0.9334
436.00 0.9447
436.10 0.9556
436.20 0.9664
436.30 0.9769
436.40 0.9872
436.50 0.9972
436.60 1.007
436.70 1.017
436.80 1.026
436.90 1.036
437.00 1.045
437.10 1.054
437.20 1.063
437.30 1.071
437.40 1.079
437.50 1.088
437.60 1.095
437.70 1.103
437.80 1.111
437.90 1.119
438.00 1.126
438.10 1.133
438.20 1.14
438.30 1.147
438.40 1.154
438.50 1.161
438.60 1.168
438.70 1.174
438.80 1.181
438.90 1.187
439.00 1.193
439.10 1.199
439.20 1.205
439.30 1.211
439.40 1.216
439.50 1.222
439.60 1.227
439.70 1.233
439.80 1.238
439.90 1.243
440.00 1.248
440.10 1.253
440.20 1.258
440.30 1.262
440.40 1.267
440.50 1.272
440.60 1.276
440.70 1.281
440.80 1.285
440.90 1.289
441.00 1.293
441.10 1.297
441.20 1.301
441.30 1.305
441.40 1.309
441.50 1.312
441.60 1.316
441.70 1.32
441.80 1.323
441.90 1.326
442.00 1.33
442.10 1.333
442.20 1.336
442.30 1.339
442.40 1.342
442.50 1.345
442.60 1.348
442.70 1.351
442.80 1.353
442.90 1.356
443.00 1.358
443.10 1.361
443.20 1.363
443.30 1.366
443.40 1.368
443.50 1.37
443.60 1.373
443.70 1.375
443.80 1.377
443.90 1.379
444.00 1.381
444.10 1.383
444.20 1.385
444.30 1.386
444.40 1.388
444.50 1.39
444.60 1.392
444.70 1.393
444.80 1.395
444.90 1.396
445.00 1.398
445.10 1.399
445.20 1.401
445.30 1.402
445.40 1.403
445.50 1.404
445.60 1.406
445.70 1.407
445.80 1.408
445.90 1.409
446.00 1.41
446.10 1.411
446.20 1.412
446.30 1.413
446.40 1.414
446.50 1.415
446.60 1.415
446.70 1.416
446.80 1.417
446.90 1.418
447.00 1.418
447.10 1.419
447.20 1.42
447.30 1.42
447.40 1.421
447.50 1.421
447.60 1.422
447.70 1.422
447.80 1.423
447.90 1.423
448.00 1.423
448.10 1.424
448.20 1.424
448.30 1.424
448.40 1.425
448.50 1.425
448.60 1.425
448.70 1.425
448.80 1.426
448.90 1.426
449.00 1.426
449.10 1.426
449.20 1.426
449.30 1.427
449.40 1.427
449.50 1.427
449.60 1.427
449.70 1.427
449.80 1.427
449.90 1.427
450.00 1.427
450.10 1.426
450.20 1.426
450.30 1.426
450.40 1.426
450.50 1.426
450.60 1.426
450.70 1.426
450.80 1.425
450.90 1.425
451.00 1.425
451.10 1.425
451.20 1.424
451.30 1.424
451.40 1.424
451.50 1.424
451.60 1.423
451.70 1.423
451.80 1.423
451.90 1.422
452.00 1.422
452.10 1.421
452.20 1.421
452.30 1.421
452.40 1.42
452.50 1.42
452.60 1.419
452.70 1.419
452.80 1.418
452.90 1.418
453.00 1.417
453.10 1.417
453.20 1.416
453.30 1.416
453.40 1.415
453.50 1.415
453.60 1.414
453.70 1.413
