# Version 2.1 - nm, norm@500 to 1, cut digits, bergeron_10000_80.dat_10000
# Wavelength(nm)  Flambda(ergs/cm^s/s/nm)
300.00 1.656
300.10 1.656
300.20 1.655
300.30 1.655
300.40 1.654
300.50 1.653
300.60 1.653
300.70 1.652
300.80 1.651
300.90 1.651
301.00 1.65
301.10 1.649
301.20 1.649
301.30 1.648
301.40 1.648
301.50 1.647
301.60 1.646
301.70 1.646
301.80 1.645
301.90 1.644
302.00 1.644
302.10 1.643
302.20 1.642
302.30 1.642
302.40 1.641
302.50 1.64
302.60 1.64
302.70 1.639
302.80 1.639
302.90 1.638
303.00 1.637
303.10 1.637
303.20 1.636
303.30 1.635
303.40 1.635
303.50 1.634
303.60 1.633
303.70 1.633
303.80 1.632
303.90 1.632
304.00 1.631
304.10 1.63
304.20 1.63
304.30 1.629
304.40 1.628
304.50 1.628
304.60 1.627
304.70 1.626
304.80 1.626
304.90 1.625
305.00 1.624
305.10 1.624
305.20 1.623
305.30 1.623
305.40 1.622
305.50 1.621
305.60 1.621
305.70 1.62
305.80 1.619
305.90 1.619
306.00 1.618
306.10 1.617
306.20 1.617
306.30 1.616
306.40 1.616
306.50 1.615
306.60 1.614
306.70 1.614
306.80 1.613
306.90 1.612
307.00 1.612
307.10 1.611
307.20 1.61
307.30 1.61
307.40 1.609
307.50 1.608
307.60 1.608
307.70 1.607
307.80 1.607
307.90 1.606
308.00 1.605
308.10 1.605
308.20 1.604
308.30 1.603
308.40 1.603
308.50 1.602
308.60 1.601
308.70 1.601
308.80 1.6
308.90 1.6
309.00 1.599
309.10 1.598
309.20 1.598
309.30 1.597
309.40 1.596
309.50 1.596
309.60 1.595
309.70 1.594
309.80 1.594
309.90 1.593
310.00 1.592
310.10 1.592
310.20 1.591
310.30 1.591
310.40 1.59
310.50 1.589
310.60 1.589
310.70 1.588
310.80 1.587
310.90 1.587
311.00 1.586
311.10 1.585
311.20 1.585
311.30 1.584
311.40 1.583
311.50 1.583
311.60 1.582
311.70 1.582
311.80 1.581
311.90 1.58
312.00 1.58
312.10 1.579
312.20 1.578
312.30 1.578
312.40 1.577
312.50 1.576
312.60 1.576
312.70 1.575
312.80 1.575
312.90 1.574
313.00 1.573
313.10 1.573
313.20 1.572
313.30 1.571
313.40 1.571
313.50 1.57
313.60 1.569
313.70 1.569
313.80 1.568
313.90 1.567
314.00 1.567
314.10 1.566
314.20 1.566
314.30 1.565
314.40 1.564
314.50 1.564
314.60 1.563
314.70 1.562
314.80 1.562
314.90 1.561
315.00 1.56
315.10 1.56
315.20 1.559
315.30 1.559
315.40 1.558
315.50 1.557
315.60 1.557
315.70 1.556
315.80 1.555
315.90 1.555
316.00 1.554
316.10 1.553
316.20 1.553
316.30 1.552
316.40 1.552
316.50 1.551
316.60 1.55
316.70 1.55
316.80 1.549
316.90 1.548
317.00 1.548
317.10 1.547
317.20 1.546
317.30 1.546
317.40 1.545
317.50 1.544
317.60 1.544
317.70 1.543
317.80 1.543
317.90 1.542
318.00 1.541
318.10 1.541
318.20 1.54
318.30 1.539
318.40 1.539
318.50 1.538
318.60 1.537
318.70 1.537
318.80 1.536
318.90 1.536
319.00 1.535
319.10 1.534
319.20 1.534
319.30 1.533
319.40 1.532
319.50 1.532
319.60 1.531
319.70 1.53
319.80 1.53
319.90 1.529
320.00 1.529
320.10 1.528
320.20 1.527
320.30 1.527
320.40 1.526
320.50 1.525
320.60 1.525
320.70 1.524
320.80 1.523
320.90 1.523
321.00 1.522
321.10 1.521
321.20 1.521
321.30 1.52
321.40 1.52
321.50 1.519
321.60 1.518
321.70 1.518
321.80 1.517
321.90 1.516
322.00 1.516
322.10 1.515
322.20 1.515
322.30 1.514
322.40 1.513
322.50 1.513
322.60 1.512
322.70 1.511
322.80 1.511
322.90 1.51
323.00 1.509
323.10 1.509
323.20 1.508
323.30 1.508
323.40 1.507
323.50 1.506
323.60 1.506
323.70 1.505
323.80 1.504
323.90 1.504
324.00 1.503
324.10 1.502
324.20 1.502
324.30 1.501
324.40 1.501
324.50 1.5
324.60 1.499
324.70 1.499
324.80 1.498
324.90 1.497
325.00 1.497
325.10 1.496
325.20 1.496
325.30 1.495
325.40 1.494
325.50 1.494
325.60 1.493
325.70 1.492
325.80 1.492
325.90 1.491
326.00 1.49
326.10 1.49
326.20 1.489
326.30 1.489
326.40 1.488
326.50 1.487
326.60 1.487
326.70 1.486
326.80 1.485
326.90 1.485
327.00 1.484
327.10 1.484
327.20 1.483
327.30 1.482
327.40 1.482
327.50 1.481
327.60 1.48
327.70 1.48
327.80 1.479
327.90 1.478
328.00 1.478
328.10 1.477
328.20 1.477
328.30 1.476
328.40 1.475
328.50 1.475
328.60 1.474
328.70 1.473
328.80 1.473
328.90 1.472
329.00 1.472
329.10 1.471
329.20 1.47
329.30 1.47
329.40 1.469
329.50 1.468
329.60 1.468
329.70 1.467
329.80 1.467
329.90 1.466
330.00 1.465
330.10 1.465
330.20 1.464
330.30 1.463
330.40 1.463
330.50 1.462
330.60 1.461
330.70 1.461
330.80 1.46
330.90 1.46
331.00 1.459
331.10 1.458
331.20 1.458
331.30 1.457
331.40 1.456
331.50 1.456
331.60 1.455
331.70 1.455
331.80 1.454
331.90 1.453
332.00 1.453
332.10 1.452
332.20 1.451
332.30 1.451
332.40 1.45
332.50 1.45
332.60 1.449
332.70 1.448
332.80 1.448
332.90 1.447
333.00 1.446
333.10 1.446
333.20 1.445
333.30 1.445
333.40 1.444
333.50 1.443
333.60 1.443
333.70 1.442
333.80 1.442
333.90 1.441
334.00 1.44
334.10 1.44
334.20 1.439
334.30 1.438
334.40 1.438
334.50 1.437
334.60 1.437
334.70 1.436
334.80 1.435
334.90 1.435
335.00 1.434
335.10 1.433
335.20 1.433
335.30 1.432
335.40 1.432
335.50 1.431
335.60 1.43
335.70 1.43
335.80 1.429
335.90 1.428
336.00 1.428
336.10 1.427
336.20 1.427
336.30 1.426
336.40 1.425
336.50 1.425
336.60 1.424
336.70 1.424
336.80 1.423
336.90 1.422
337.00 1.422
337.10 1.421
337.20 1.42
337.30 1.42
337.40 1.419
337.50 1.419
337.60 1.418
337.70 1.417
337.80 1.417
337.90 1.416
338.00 1.416
338.10 1.415
338.20 1.414
338.30 1.414
338.40 1.413
338.50 1.412
338.60 1.412
338.70 1.411
338.80 1.411
338.90 1.41
339.00 1.409
339.10 1.409
339.20 1.408
339.30 1.407
339.40 1.407
339.50 1.406
339.60 1.406
339.70 1.405
339.80 1.404
339.90 1.404
340.00 1.403
340.10 1.403
340.20 1.402
340.30 1.401
340.40 1.401
340.50 1.4
340.60 1.4
340.70 1.399
340.80 1.398
340.90 1.398
341.00 1.397
341.10 1.396
341.20 1.396
341.30 1.395
341.40 1.395
341.50 1.394
341.60 1.393
341.70 1.393
341.80 1.392
341.90 1.392
342.00 1.391
342.10 1.39
342.20 1.39
342.30 1.389
342.40 1.389
342.50 1.388
342.60 1.387
342.70 1.387
342.80 1.386
342.90 1.385
343.00 1.385
343.10 1.384
343.20 1.384
343.30 1.383
343.40 1.382
343.50 1.382
343.60 1.381
343.70 1.381
343.80 1.38
343.90 1.379
344.00 1.379
344.10 1.378
344.20 1.378
344.30 1.377
344.40 1.376
344.50 1.376
344.60 1.375
344.70 1.375
344.80 1.374
344.90 1.373
345.00 1.373
345.10 1.372
345.20 1.372
345.30 1.371
345.40 1.37
345.50 1.37
345.60 1.369
345.70 1.369
345.80 1.368
345.90 1.367
346.00 1.367
346.10 1.366
346.20 1.365
346.30 1.365
346.40 1.364
346.50 1.364
346.60 1.363
346.70 1.362
346.80 1.362
346.90 1.361
347.00 1.361
347.10 1.36
347.20 1.359
347.30 1.359
347.40 1.358
347.50 1.358
347.60 1.357
347.70 1.356
347.80 1.356
347.90 1.355
348.00 1.355
348.10 1.354
348.20 1.353
348.30 1.353
348.40 1.352
348.50 1.352
348.60 1.351
348.70 1.35
348.80 1.35
348.90 1.349
349.00 1.349
349.10 1.348
349.20 1.347
349.30 1.347
349.40 1.346
349.50 1.346
349.60 1.345
349.70 1.344
349.80 1.344
349.90 1.343
350.00 1.343
350.10 1.342
350.20 1.342
350.30 1.341
350.40 1.34
350.50 1.34
350.60 1.339
350.70 1.339
350.80 1.338
350.90 1.337
351.00 1.337
351.10 1.336
351.20 1.336
351.30 1.335
351.40 1.334
351.50 1.334
351.60 1.333
351.70 1.333
351.80 1.332
351.90 1.331
352.00 1.331
352.10 1.33
352.20 1.33
352.30 1.329
352.40 1.328
352.50 1.328
352.60 1.327
352.70 1.327
352.80 1.326
352.90 1.325
353.00 1.325
353.10 1.324
353.20 1.324
353.30 1.323
353.40 1.323
353.50 1.322
353.60 1.321
353.70 1.321
353.80 1.32
353.90 1.32
354.00 1.319
354.10 1.318
354.20 1.318
354.30 1.317
354.40 1.317
354.50 1.316
354.60 1.315
354.70 1.315
354.80 1.314
354.90 1.314
355.00 1.313
355.10 1.312
355.20 1.312
355.30 1.311
355.40 1.311
355.50 1.31
355.60 1.31
355.70 1.309
355.80 1.308
355.90 1.308
356.00 1.307
356.10 1.307
356.20 1.306
356.30 1.305
356.40 1.305
356.50 1.304
356.60 1.304
356.70 1.303
356.80 1.303
356.90 1.302
357.00 1.301
357.10 1.301
357.20 1.3
357.30 1.3
357.40 1.299
357.50 1.298
357.60 1.298
357.70 1.297
357.80 1.297
357.90 1.296
358.00 1.296
358.10 1.295
358.20 1.294
358.30 1.294
358.40 1.293
358.50 1.293
358.60 1.292
358.70 1.291
358.80 1.291
358.90 1.29
359.00 1.29
359.10 1.289
359.20 1.289
359.30 1.288
359.40 1.287
359.50 1.287
359.60 1.286
359.70 1.286
359.80 1.285
359.90 1.285
360.00 1.284
360.10 1.283
360.20 1.283
360.30 1.282
360.40 1.282
360.50 1.281
360.60 1.28
360.70 1.28
360.80 1.279
360.90 1.279
361.00 1.278
361.10 1.278
361.20 1.277
361.30 1.276
361.40 1.276
361.50 1.275
361.60 1.275
361.70 1.274
361.80 1.274
361.90 1.273
362.00 1.272
362.10 1.272
362.20 1.271
362.30 1.271
362.40 1.27
362.50 1.27
362.60 1.269
362.70 1.268
362.80 1.268
362.90 1.267
363.00 1.267
363.10 1.266
363.20 1.265
363.30 1.265
363.40 1.264
363.50 1.264
363.60 1.263
363.70 1.262
363.80 1.262
363.90 1.261
364.00 1.26
364.10 1.26
364.20 1.259
364.30 1.258
364.40 1.258
364.50 1.257
364.60 1.257
364.70 1.256
364.80 1.255
364.90 1.255
365.00 1.254
365.10 1.253
365.20 1.253
365.30 1.252
365.40 1.251
365.50 1.251
365.60 1.25
365.70 1.249
365.80 1.249
365.90 1.248
366.00 1.248
366.10 1.247
366.20 1.246
366.30 1.246
366.40 1.245
366.50 1.245
366.60 1.244
366.70 1.243
366.80 1.243
366.90 1.242
367.00 1.242
367.10 1.241
367.20 1.241
367.30 1.24
367.40 1.239
367.50 1.239
367.60 1.238
367.70 1.238
367.80 1.237
367.90 1.237
368.00 1.236
368.10 1.236
368.20 1.235
368.30 1.235
368.40 1.235
368.50 1.235
368.60 1.234
368.70 1.234
368.80 1.234
368.90 1.233
369.00 1.233
369.10 1.233
369.20 1.233
369.30 1.232
369.40 1.232
369.50 1.232
369.60 1.231
369.70 1.231
369.80 1.231
369.90 1.23
370.00 1.23
370.10 1.231
370.20 1.231
370.30 1.232
370.40 1.232
370.50 1.233
370.60 1.233
370.70 1.234
370.80 1.234
370.90 1.235
371.00 1.235
371.10 1.236
371.20 1.236
371.30 1.237
371.40 1.237
371.50 1.238
371.60 1.238
371.70 1.239
371.80 1.239
371.90 1.24
372.00 1.24
372.10 1.241
372.20 1.243
372.30 1.244
372.40 1.245
372.50 1.246
372.60 1.248
372.70 1.249
372.80 1.25
372.90 1.251
373.00 1.253
373.10 1.254
373.20 1.255
373.30 1.257
373.40 1.258
373.50 1.259
373.60 1.26
373.70 1.262
373.80 1.263
373.90 1.264
374.00 1.265
374.10 1.267
374.20 1.268
374.30 1.27
374.40 1.271
374.50 1.272
374.60 1.274
374.70 1.275
374.80 1.276
374.90 1.278
375.00 1.279
375.10 1.281
375.20 1.282
375.30 1.283
375.40 1.285
375.50 1.286
375.60 1.288
375.70 1.289
375.80 1.29
375.90 1.292
376.00 1.293
376.10 1.294
376.20 1.294
376.30 1.295
376.40 1.296
376.50 1.296
376.60 1.297
376.70 1.298
376.80 1.298
376.90 1.299
377.00 1.3
377.10 1.299
377.20 1.298
377.30 1.297
377.40 1.296
377.50 1.295
377.60 1.294
377.70 1.293
377.80 1.292
377.90 1.29
378.00 1.289
378.10 1.282
378.20 1.275
378.30 1.267
378.40 1.26
378.50 1.252
378.60 1.245
378.70 1.237
378.80 1.23
378.90 1.223
379.00 1.215
379.10 1.208
379.20 1.2
379.30 1.192
379.40 1.184
379.50 1.176
379.60 1.169
379.70 1.161
379.80 1.153
379.90 1.145
380.00 1.138
380.10 1.149
380.20 1.161
380.30 1.173
380.40 1.185
380.50 1.196
380.60 1.208
380.70 1.219
380.80 1.231
380.90 1.243
381.00 1.254
381.10 1.258
381.20 1.261
381.30 1.264
381.40 1.268
381.50 1.271
381.60 1.271
381.70 1.269
381.80 1.267
381.90 1.263
382.00 1.258
382.10 1.252
382.20 1.244
382.30 1.224
382.40 1.205
382.50 1.185
382.60 1.166
382.70 1.146
382.80 1.127
382.90 1.107
383.00 1.088
383.10 1.068
383.20 1.049
383.30 1.025
383.40 0.9993
383.50 0.9738
383.60 0.979
383.70 1.006
383.80 1.032
383.90 1.056
384.00 1.082
384.10 1.109
384.20 1.136
384.30 1.161
384.40 1.184
384.50 1.205
384.60 1.222
384.70 1.237
384.80 1.25
384.90 1.261
385.00 1.271
385.10 1.278
385.20 1.285
385.30 1.291
385.40 1.295
385.50 1.299
385.60 1.302
385.70 1.303
385.80 1.305
385.90 1.306
386.00 1.305
386.10 1.305
386.20 1.303
386.30 1.301
386.40 1.298
386.50 1.295
386.60 1.291
386.70 1.286
386.80 1.28
386.90 1.274
387.00 1.266
387.10 1.258
387.20 1.249
387.30 1.238
387.40 1.227
387.50 1.213
387.60 1.198
387.70 1.182
387.80 1.162
387.90 1.139
388.00 1.113
388.10 1.082
388.20 1.047
388.30 1.008
388.40 0.965
388.50 0.9224
388.60 0.8804
388.70 0.8412
388.80 0.8058
388.90 0.7744
389.00 0.8033
389.10 0.8374
389.20 0.8766
389.30 0.9185
389.40 0.9614
389.50 1.005
389.60 1.045
389.70 1.081
389.80 1.113
389.90 1.14
390.00 1.164
390.10 1.186
390.20 1.204
390.30 1.22
390.40 1.235
390.50 1.248
390.60 1.26
390.70 1.272
390.80 1.282
390.90 1.291
391.00 1.3
391.10 1.308
391.20 1.315
391.30 1.322
391.40 1.328
391.50 1.334
391.60 1.339
391.70 1.343
391.80 1.347
391.90 1.351
392.00 1.354
392.10 1.357
392.20 1.359
392.30 1.361
392.40 1.362
392.50 1.363
392.60 1.363
392.70 1.363
392.80 1.363
392.90 1.362
393.00 1.361
393.10 1.359
393.20 1.357
393.30 1.354
393.40 1.351
393.50 1.348
393.60 1.344
393.70 1.339
393.80 1.334
393.90 1.328
394.00 1.322
394.10 1.316
394.20 1.308
394.30 1.301
394.40 1.292
394.50 1.283
394.60 1.273
394.70 1.263
394.80 1.252
394.90 1.24
395.00 1.227
395.10 1.214
395.20 1.199
395.30 1.184
395.40 1.167
395.50 1.15
395.60 1.131
395.70 1.11
395.80 1.088
395.90 1.063
396.00 1.036
396.10 1.006
396.20 0.9705
396.30 0.9306
396.40 0.8865
396.50 0.8342
396.60 0.7809
396.70 0.7265
396.80 0.6784
396.90 0.6293
397.00 0.5794
397.10 0.625
397.20 0.6714
397.30 0.7186
397.40 0.7724
397.50 0.8255
397.60 0.8779
397.70 0.9223
397.80 0.9626
397.90 0.9986
398.00 1.028
398.10 1.056
398.20 1.081
398.30 1.103
398.40 1.123
398.50 1.143
398.60 1.16
398.70 1.176
398.80 1.192
398.90 1.207
399.00 1.22
399.10 1.234
399.20 1.246
399.30 1.257
399.40 1.269
399.50 1.279
399.60 1.289
399.70 1.298
399.80 1.307
399.90 1.316
400.00 1.324
400.10 1.331
400.20 1.338
400.30 1.345
400.40 1.351
400.50 1.357
400.60 1.363
400.70 1.368
400.80 1.373
400.90 1.378
401.00 1.383
401.10 1.387
401.20 1.391
401.30 1.395
401.40 1.398
401.50 1.401
401.60 1.404
401.70 1.407
401.80 1.41
401.90 1.412
402.00 1.414
402.10 1.416
402.20 1.418
402.30 1.419
402.40 1.421
402.50 1.422
402.60 1.423
402.70 1.424
402.80 1.424
402.90 1.425
403.00 1.425
403.10 1.425
403.20 1.425
403.30 1.425
403.40 1.425
403.50 1.424
403.60 1.423
403.70 1.422
403.80 1.421
403.90 1.42
404.00 1.419
404.10 1.417
404.20 1.416
404.30 1.414
404.40 1.411
404.50 1.409
404.60 1.407
404.70 1.404
404.80 1.401
404.90 1.398
405.00 1.395
405.10 1.392
405.20 1.388
405.30 1.384
405.40 1.38
405.50 1.376
405.60 1.371
405.70 1.366
405.80 1.361
405.90 1.356
406.00 1.35
406.10 1.344
406.20 1.338
406.30 1.332
406.40 1.325
406.50 1.318
406.60 1.311
406.70 1.303
406.80 1.295
406.90 1.286
407.00 1.277
407.10 1.268
407.20 1.258
407.30 1.247
407.40 1.236
407.50 1.225
407.60 1.213
407.70 1.2
407.80 1.187
407.90 1.173
408.00 1.159
408.10 1.144
408.20 1.128
408.30 1.111
408.40 1.093
408.50 1.075
408.60 1.055
408.70 1.035
408.80 1.013
408.90 0.9896
409.00 0.9655
409.10 0.9387
409.20 0.9102
409.30 0.8798
409.40 0.844
409.50 0.8048
409.60 0.7621
409.70 0.7132
409.80 0.6637
409.90 0.6138
410.00 0.5683
410.10 0.5275
410.20 0.4914
410.30 0.5441
410.40 0.5933
410.50 0.639
410.60 0.6894
410.70 0.7378
410.80 0.7842
410.90 0.8237
411.00 0.8599
411.10 0.8928
411.20 0.921
411.30 0.9475
411.40 0.9725
411.50 0.995
411.60 1.017
411.70 1.037
411.80 1.056
411.90 1.074
412.00 1.091
412.10 1.107
412.20 1.123
412.30 1.138
412.40 1.152
412.50 1.165
412.60 1.177
412.70 1.189
412.80 1.201
412.90 1.212
413.00 1.222
413.10 1.231
413.20 1.241
413.30 1.25
413.40 1.258
413.50 1.266
413.60 1.274
413.70 1.281
413.80 1.288
413.90 1.294
414.00 1.301
414.10 1.307
414.20 1.313
414.30 1.318
414.40 1.323
414.50 1.328
414.60 1.333
414.70 1.338
414.80 1.342
414.90 1.346
415.00 1.35
415.10 1.354
415.20 1.358
415.30 1.361
415.40 1.364
415.50 1.368
415.60 1.371
415.70 1.374
415.80 1.376
415.90 1.379
416.00 1.381
416.10 1.384
416.20 1.386
416.30 1.388
416.40 1.39
416.50 1.392
416.60 1.394
416.70 1.396
416.80 1.398
416.90 1.399
417.00 1.401
417.10 1.402
417.20 1.403
417.30 1.405
417.40 1.406
417.50 1.407
417.60 1.408
417.70 1.409
417.80 1.41
417.90 1.411
418.00 1.412
418.10 1.413
418.20 1.413
418.30 1.414
418.40 1.415
418.50 1.415
418.60 1.416
418.70 1.416
418.80 1.417
418.90 1.417
419.00 1.417
419.10 1.418
419.20 1.418
419.30 1.418
419.40 1.418
419.50 1.418
419.60 1.418
419.70 1.418
419.80 1.419
419.90 1.418
420.00 1.418
420.10 1.418
420.20 1.418
420.30 1.418
420.40 1.418
420.50 1.418
420.60 1.417
420.70 1.417
420.80 1.417
420.90 1.417
421.00 1.416
421.10 1.416
421.20 1.415
421.30 1.415
421.40 1.414
421.50 1.414
421.60 1.413
421.70 1.413
421.80 1.412
421.90 1.412
422.00 1.411
422.10 1.41
422.20 1.41
422.30 1.409
422.40 1.408
422.50 1.407
422.60 1.407
422.70 1.406
422.80 1.405
422.90 1.404
423.00 1.403
423.10 1.402
423.20 1.401
423.30 1.4
423.40 1.399
423.50 1.398
423.60 1.397
423.70 1.396
423.80 1.395
423.90 1.394
424.00 1.393
424.10 1.391
424.20 1.39
424.30 1.389
424.40 1.387
424.50 1.386
424.60 1.385
424.70 1.383
424.80 1.382
424.90 1.38
425.00 1.379
425.10 1.377
425.20 1.376
425.30 1.374
425.40 1.372
425.50 1.37
425.60 1.369
425.70 1.367
425.80 1.365
425.90 1.363
426.00 1.361
426.10 1.359
426.20 1.357
426.30 1.354
426.40 1.352
426.50 1.35
426.60 1.348
426.70 1.345
426.80 1.343
426.90 1.34
427.00 1.338
427.10 1.335
427.20 1.332
427.30 1.33
427.40 1.327
427.50 1.324
427.60 1.321
427.70 1.318
427.80 1.315
427.90 1.311
428.00 1.308
428.10 1.304
428.20 1.301
428.30 1.297
428.40 1.293
428.50 1.29
428.60 1.286
428.70 1.281
428.80 1.277
428.90 1.273
429.00 1.268
429.10 1.264
429.20 1.259
429.30 1.254
429.40 1.249
429.50 1.243
429.60 1.238
429.70 1.232
429.80 1.226
429.90 1.22
430.00 1.214
430.10 1.207
430.20 1.2
430.30 1.193
430.40 1.186
430.50 1.178
430.60 1.17
430.70 1.162
430.80 1.153
430.90 1.144
431.00 1.135
431.10 1.126
431.20 1.116
431.30 1.106
431.40 1.095
431.50 1.084
431.60 1.073
431.70 1.061
431.80 1.048
431.90 1.035
432.00 1.021
432.10 1.006
432.20 0.9899
432.30 0.9729
432.40 0.9551
432.50 0.9349
432.60 0.9135
432.70 0.8908
432.80 0.8658
432.90 0.8402
433.00 0.8138
433.10 0.787
433.20 0.7594
433.30 0.7309
433.40 0.6985
433.50 0.6636
433.60 0.6264
433.70 0.5862
433.80 0.5469
433.90 0.5084
434.00 0.4455
434.10 0.4465
434.20 0.5115
434.30 0.5496
434.40 0.5885
434.50 0.6283
434.60 0.6648
434.70 0.6989
434.80 0.7305
434.90 0.7582
435.00 0.7851
435.10 0.8112
435.20 0.8367
435.30 0.8614
435.40 0.8854
435.50 0.9071
435.60 0.9275
435.70 0.9465
435.80 0.9633
435.90 0.9792
436.00 0.9942
436.10 1.008
436.20 1.021
436.30 1.033
436.40 1.044
436.50 1.055
436.60 1.066
436.70 1.075
436.80 1.085
436.90 1.094
437.00 1.102
437.10 1.111
437.20 1.119
437.30 1.126
437.40 1.134
437.50 1.141
437.60 1.147
437.70 1.154
437.80 1.16
437.90 1.166
438.00 1.171
438.10 1.177
438.20 1.182
438.30 1.187
438.40 1.191
438.50 1.196
438.60 1.2
438.70 1.204
438.80 1.208
438.90 1.212
439.00 1.215
439.10 1.219
439.20 1.222
439.30 1.225
439.40 1.228
439.50 1.231
439.60 1.234
439.70 1.237
439.80 1.239
439.90 1.242
440.00 1.244
440.10 1.246
440.20 1.248
440.30 1.25
440.40 1.252
440.50 1.254
440.60 1.256
440.70 1.258
440.80 1.259
440.90 1.261
441.00 1.262
441.10 1.264
441.20 1.265
441.30 1.266
441.40 1.268
441.50 1.269
441.60 1.27
441.70 1.271
441.80 1.272
441.90 1.273
442.00 1.274
442.10 1.275
442.20 1.276
442.30 1.277
442.40 1.277
442.50 1.278
442.60 1.279
442.70 1.279
442.80 1.28
442.90 1.281
443.00 1.281
443.10 1.282
443.20 1.282
443.30 1.282
443.40 1.283
443.50 1.283
443.60 1.284
443.70 1.284
443.80 1.284
443.90 1.285
444.00 1.285
444.10 1.285
444.20 1.285
444.30 1.285
444.40 1.286
444.50 1.286
444.60 1.286
444.70 1.286
444.80 1.286
444.90 1.286
445.00 1.286
445.10 1.286
445.20 1.286
445.30 1.286
445.40 1.286
445.50 1.286
445.60 1.286
445.70 1.286
445.80 1.286
445.90 1.286
446.00 1.286
446.10 1.286
446.20 1.286
446.30 1.286
446.40 1.285
446.50 1.285
446.60 1.285
446.70 1.285
446.80 1.285
446.90 1.285
447.00 1.284
447.10 1.284
447.20 1.284
447.30 1.284
447.40 1.283
447.50 1.283
447.60 1.283
447.70 1.283
447.80 1.282
447.90 1.282
448.00 1.282
448.10 1.281
448.20 1.281
448.30 1.281
448.40 1.28
448.50 1.28
448.60 1.28
448.70 1.279
448.80 1.279
448.90 1.279
449.00 1.279
449.10 1.278
449.20 1.278
449.30 1.277
449.40 1.277
449.50 1.277
449.60 1.276
449.70 1.276
449.80 1.275
449.90 1.275
450.00 1.275
450.10 1.274
450.20 1.274
450.30 1.273
450.40 1.273
450.50 1.273
450.60 1.272
450.70 1.272
450.80 1.271
450.90 1.271
451.00 1.27
451.10 1.27
451.20 1.269
451.30 1.269
451.40 1.269
451.50 1.268
451.60 1.268
451.70 1.267
451.80 1.267
451.90 1.266
452.00 1.266
452.10 1.265
452.20 1.265
452.30 1.264
452.40 1.264
452.50 1.263
452.60 1.263
452.70 1.262
452.80 1.262
452.90 1.261
453.00 1.261
453.10 1.26
453.20 1.26
