# Version 2.1 - nm, norm@500 to 1, cut digits, bergeron_2750_85.dat_2750
# Wavelength(nm)  Flambda(ergs/cm^s/s/nm)
300.00 0.09474
300.10 0.09497
300.20 0.09521
300.30 0.09545
300.40 0.09569
300.50 0.09593
300.60 0.09617
300.70 0.0964
300.80 0.09664
300.90 0.09688
301.00 0.09712
301.10 0.09735
301.20 0.09759
301.30 0.09783
301.40 0.09806
301.50 0.0983
301.60 0.09853
301.70 0.09877
301.80 0.099
301.90 0.09924
302.00 0.09948
302.10 0.09972
302.20 0.09997
302.30 0.1002
302.40 0.1005
302.50 0.1007
302.60 0.101
302.70 0.1012
302.80 0.1014
302.90 0.1017
303.00 0.1019
303.10 0.1022
303.20 0.1024
303.30 0.1027
303.40 0.1029
303.50 0.1032
303.60 0.1034
303.70 0.1036
303.80 0.1039
303.90 0.1041
304.00 0.1044
304.10 0.1046
304.20 0.1049
304.30 0.1051
304.40 0.1054
304.50 0.1056
304.60 0.1059
304.70 0.1061
304.80 0.1064
304.90 0.1066
305.00 0.1069
305.10 0.1071
305.20 0.1074
305.30 0.1076
305.40 0.1079
305.50 0.1081
305.60 0.1084
305.70 0.1086
305.80 0.1089
305.90 0.1091
306.00 0.1094
306.10 0.1097
306.20 0.1099
306.30 0.1102
306.40 0.1104
306.50 0.1107
306.60 0.111
306.70 0.1112
306.80 0.1115
306.90 0.1117
307.00 0.112
307.10 0.1123
307.20 0.1125
307.30 0.1128
307.40 0.113
307.50 0.1133
307.60 0.1135
307.70 0.1138
307.80 0.1141
307.90 0.1143
308.00 0.1146
308.10 0.1148
308.20 0.1151
308.30 0.1154
308.40 0.1156
308.50 0.1159
308.60 0.1162
308.70 0.1164
308.80 0.1167
308.90 0.117
309.00 0.1172
309.10 0.1175
309.20 0.1178
309.30 0.118
309.40 0.1183
309.50 0.1186
309.60 0.1188
309.70 0.1191
309.80 0.1194
309.90 0.1196
310.00 0.1199
310.10 0.1202
310.20 0.1204
310.30 0.1207
310.40 0.121
310.50 0.1213
310.60 0.1215
310.70 0.1218
310.80 0.1221
310.90 0.1224
311.00 0.1226
311.10 0.1229
311.20 0.1232
311.30 0.1235
311.40 0.1237
311.50 0.124
311.60 0.1243
311.70 0.1245
311.80 0.1248
311.90 0.1251
312.00 0.1253
312.10 0.1256
312.20 0.1259
312.30 0.1262
312.40 0.1265
312.50 0.1267
312.60 0.127
312.70 0.1273
312.80 0.1276
312.90 0.1279
313.00 0.1282
313.10 0.1284
313.20 0.1287
313.30 0.129
313.40 0.1293
313.50 0.1295
313.60 0.1298
313.70 0.1301
313.80 0.1304
313.90 0.1307
314.00 0.1309
314.10 0.1312
314.20 0.1315
314.30 0.1318
314.40 0.1321
314.50 0.1324
314.60 0.1327
314.70 0.133
314.80 0.1333
314.90 0.1335
315.00 0.1338
315.10 0.1341
315.20 0.1344
315.30 0.1347
315.40 0.135
315.50 0.1353
315.60 0.1355
315.70 0.1358
315.80 0.1361
315.90 0.1364
316.00 0.1367
316.10 0.137
316.20 0.1373
316.30 0.1376
316.40 0.1379
316.50 0.1382
316.60 0.1385
316.70 0.1388
316.80 0.139
316.90 0.1393
317.00 0.1396
317.10 0.1399
317.20 0.1402
317.30 0.1405
317.40 0.1408
317.50 0.1411
317.60 0.1414
317.70 0.1417
317.80 0.142
317.90 0.1423
318.00 0.1426
318.10 0.1429
318.20 0.1432
318.30 0.1435
318.40 0.1438
318.50 0.1441
318.60 0.1444
318.70 0.1447
318.80 0.145
318.90 0.1453
319.00 0.1456
319.10 0.1459
319.20 0.1462
319.30 0.1465
319.40 0.1468
319.50 0.1471
319.60 0.1474
319.70 0.1477
319.80 0.148
319.90 0.1483
320.00 0.1486
320.10 0.1489
320.20 0.1492
320.30 0.1495
320.40 0.1498
320.50 0.1501
320.60 0.1504
320.70 0.1508
320.80 0.1511
320.90 0.1514
321.00 0.1517
321.10 0.152
321.20 0.1523
321.30 0.1526
321.40 0.1529
321.50 0.1532
321.60 0.1535
321.70 0.1538
321.80 0.1541
321.90 0.1544
322.00 0.1547
322.10 0.1551
322.20 0.1554
322.30 0.1557
322.40 0.156
322.50 0.1563
322.60 0.1566
322.70 0.157
322.80 0.1573
322.90 0.1576
323.00 0.1579
323.10 0.1582
323.20 0.1585
323.30 0.1589
323.40 0.1592
323.50 0.1595
323.60 0.1598
323.70 0.1601
323.80 0.1604
323.90 0.1607
324.00 0.161
324.10 0.1614
324.20 0.1617
324.30 0.162
324.40 0.1623
324.50 0.1627
324.60 0.163
324.70 0.1633
324.80 0.1636
324.90 0.164
325.00 0.1643
325.10 0.1646
325.20 0.1649
325.30 0.1652
325.40 0.1656
325.50 0.1659
325.60 0.1662
325.70 0.1665
325.80 0.1668
325.90 0.1672
326.00 0.1675
326.10 0.1678
326.20 0.1681
326.30 0.1685
326.40 0.1688
326.50 0.1691
326.60 0.1695
326.70 0.1698
326.80 0.1701
326.90 0.1705
327.00 0.1708
327.10 0.1711
327.20 0.1714
327.30 0.1718
327.40 0.1721
327.50 0.1724
327.60 0.1728
327.70 0.1731
327.80 0.1734
327.90 0.1737
328.00 0.1741
328.10 0.1744
328.20 0.1747
328.30 0.1751
328.40 0.1754
328.50 0.1757
328.60 0.1761
328.70 0.1764
328.80 0.1768
328.90 0.1771
329.00 0.1774
329.10 0.1778
329.20 0.1781
329.30 0.1784
329.40 0.1788
329.50 0.1791
329.60 0.1794
329.70 0.1798
329.80 0.1801
329.90 0.1804
330.00 0.1808
330.10 0.1811
330.20 0.1815
330.30 0.1818
330.40 0.1821
330.50 0.1825
330.60 0.1828
330.70 0.1832
330.80 0.1835
330.90 0.1839
331.00 0.1842
331.10 0.1845
331.20 0.1849
331.30 0.1852
331.40 0.1856
331.50 0.1859
331.60 0.1862
331.70 0.1866
331.80 0.1869
331.90 0.1873
332.00 0.1876
332.10 0.188
332.20 0.1883
332.30 0.1887
332.40 0.189
332.50 0.1894
332.60 0.1897
332.70 0.1901
332.80 0.1904
332.90 0.1908
333.00 0.1911
333.10 0.1915
333.20 0.1918
333.30 0.1922
333.40 0.1925
333.50 0.1929
333.60 0.1932
333.70 0.1935
333.80 0.1939
333.90 0.1942
334.00 0.1946
334.10 0.1949
334.20 0.1953
334.30 0.1957
334.40 0.196
334.50 0.1964
334.60 0.1967
334.70 0.1971
334.80 0.1974
334.90 0.1978
335.00 0.1982
335.10 0.1985
335.20 0.1989
335.30 0.1992
335.40 0.1996
335.50 0.1999
335.60 0.2003
335.70 0.2006
335.80 0.201
335.90 0.2013
336.00 0.2017
336.10 0.2021
336.20 0.2024
336.30 0.2028
336.40 0.2032
336.50 0.2035
336.60 0.2039
336.70 0.2042
336.80 0.2046
336.90 0.205
337.00 0.2053
337.10 0.2057
337.20 0.2061
337.30 0.2064
337.40 0.2068
337.50 0.2071
337.60 0.2075
337.70 0.2079
337.80 0.2082
337.90 0.2086
338.00 0.2089
338.10 0.2093
338.20 0.2097
338.30 0.21
338.40 0.2104
338.50 0.2108
338.60 0.2112
338.70 0.2115
338.80 0.2119
338.90 0.2123
339.00 0.2126
339.10 0.213
339.20 0.2134
339.30 0.2137
339.40 0.2141
339.50 0.2145
339.60 0.2148
339.70 0.2152
339.80 0.2156
339.90 0.2159
340.00 0.2163
340.10 0.2167
340.20 0.217
340.30 0.2174
340.40 0.2178
340.50 0.2182
340.60 0.2186
340.70 0.2189
340.80 0.2193
340.90 0.2197
341.00 0.2201
341.10 0.2204
341.20 0.2208
341.30 0.2212
341.40 0.2216
341.50 0.2219
341.60 0.2223
341.70 0.2227
341.80 0.223
341.90 0.2234
342.00 0.2238
342.10 0.2242
342.20 0.2245
342.30 0.2249
342.40 0.2253
342.50 0.2257
342.60 0.2261
342.70 0.2265
342.80 0.2268
342.90 0.2272
343.00 0.2276
343.10 0.228
343.20 0.2284
343.30 0.2287
343.40 0.2291
343.50 0.2295
343.60 0.2299
343.70 0.2303
343.80 0.2306
343.90 0.231
344.00 0.2314
344.10 0.2318
344.20 0.2322
344.30 0.2326
344.40 0.233
344.50 0.2333
344.60 0.2337
344.70 0.2341
344.80 0.2345
344.90 0.2349
345.00 0.2353
345.10 0.2357
345.20 0.2361
345.30 0.2364
345.40 0.2368
345.50 0.2372
345.60 0.2376
345.70 0.238
345.80 0.2384
345.90 0.2387
346.00 0.2391
346.10 0.2395
346.20 0.2399
346.30 0.2403
346.40 0.2407
346.50 0.2411
346.60 0.2415
346.70 0.2419
346.80 0.2423
346.90 0.2427
347.00 0.2431
347.10 0.2435
347.20 0.2439
347.30 0.2443
347.40 0.2446
347.50 0.245
347.60 0.2454
347.70 0.2458
347.80 0.2462
347.90 0.2466
348.00 0.247
348.10 0.2474
348.20 0.2478
348.30 0.2482
348.40 0.2486
348.50 0.249
348.60 0.2494
348.70 0.2498
348.80 0.2502
348.90 0.2506
349.00 0.251
349.10 0.2514
349.20 0.2518
349.30 0.2522
349.40 0.2526
349.50 0.253
349.60 0.2534
349.70 0.2538
349.80 0.2542
349.90 0.2546
350.00 0.255
350.10 0.2554
350.20 0.2558
350.30 0.2562
350.40 0.2566
350.50 0.257
350.60 0.2574
350.70 0.2578
350.80 0.2582
350.90 0.2586
351.00 0.259
351.10 0.2594
351.20 0.2598
351.30 0.2602
351.40 0.2606
351.50 0.261
351.60 0.2615
351.70 0.2619
351.80 0.2623
351.90 0.2627
352.00 0.2631
352.10 0.2635
352.20 0.2639
352.30 0.2643
352.40 0.2647
352.50 0.2651
352.60 0.2655
352.70 0.2659
352.80 0.2664
352.90 0.2668
353.00 0.2672
353.10 0.2676
353.20 0.268
353.30 0.2684
353.40 0.2688
353.50 0.2692
353.60 0.2696
353.70 0.27
353.80 0.2704
353.90 0.2709
354.00 0.2713
354.10 0.2717
354.20 0.2721
354.30 0.2725
354.40 0.2729
354.50 0.2734
354.60 0.2738
354.70 0.2742
354.80 0.2746
354.90 0.275
355.00 0.2754
355.10 0.2759
355.20 0.2763
355.30 0.2767
355.40 0.2771
355.50 0.2775
355.60 0.2779
355.70 0.2783
355.80 0.2787
355.90 0.2792
356.00 0.2796
356.10 0.28
356.20 0.2804
356.30 0.2808
356.40 0.2813
356.50 0.2817
356.60 0.2821
356.70 0.2825
356.80 0.283
356.90 0.2834
357.00 0.2838
357.10 0.2842
357.20 0.2847
357.30 0.2851
357.40 0.2855
357.50 0.2859
357.60 0.2863
357.70 0.2867
357.80 0.2872
357.90 0.2876
358.00 0.288
358.10 0.2884
358.20 0.2889
358.30 0.2893
358.40 0.2897
358.50 0.2901
358.60 0.2906
358.70 0.291
358.80 0.2914
358.90 0.2919
359.00 0.2923
359.10 0.2927
359.20 0.2931
359.30 0.2936
359.40 0.294
359.50 0.2944
359.60 0.2948
359.70 0.2953
359.80 0.2957
359.90 0.2961
360.00 0.2965
360.10 0.297
360.20 0.2974
360.30 0.2978
360.40 0.2983
360.50 0.2987
360.60 0.2991
360.70 0.2996
360.80 0.3
360.90 0.3004
361.00 0.3009
361.10 0.3013
361.20 0.3017
361.30 0.3022
361.40 0.3026
361.50 0.303
361.60 0.3035
361.70 0.3039
361.80 0.3043
361.90 0.3047
362.00 0.3052
362.10 0.3056
362.20 0.306
362.30 0.3065
362.40 0.3069
362.50 0.3074
362.60 0.3078
362.70 0.3082
362.80 0.3087
362.90 0.3091
363.00 0.3095
363.10 0.31
363.20 0.3104
363.30 0.3108
363.40 0.3113
363.50 0.3117
363.60 0.3122
363.70 0.3126
363.80 0.313
363.90 0.3135
364.00 0.3139
364.10 0.3144
364.20 0.3148
364.30 0.3152
364.40 0.3157
364.50 0.3161
364.60 0.3166
364.70 0.317
364.80 0.3174
364.90 0.3179
365.00 0.3183
365.10 0.3188
365.20 0.3192
365.30 0.3197
365.40 0.3201
365.50 0.3205
365.60 0.321
365.70 0.3214
365.80 0.3219
365.90 0.3223
366.00 0.3227
366.10 0.3232
366.20 0.3236
366.30 0.3241
366.40 0.3245
366.50 0.325
366.60 0.3254
366.70 0.3259
366.80 0.3263
366.90 0.3268
367.00 0.3272
367.10 0.3277
367.20 0.3281
367.30 0.3286
367.40 0.329
367.50 0.3295
367.60 0.3299
367.70 0.3304
367.80 0.3308
367.90 0.3312
368.00 0.3317
368.10 0.3321
368.20 0.3326
368.30 0.333
368.40 0.3335
368.50 0.334
368.60 0.3344
368.70 0.3349
368.80 0.3353
368.90 0.3358
369.00 0.3362
369.10 0.3367
369.20 0.3371
369.30 0.3376
369.40 0.338
369.50 0.3385
369.60 0.3389
369.70 0.3394
369.80 0.3398
369.90 0.3403
370.00 0.3407
370.10 0.3412
370.20 0.3416
370.30 0.3421
370.40 0.3426
370.50 0.343
370.60 0.3435
370.70 0.3439
370.80 0.3444
370.90 0.3448
371.00 0.3453
371.10 0.3458
371.20 0.3462
371.30 0.3467
371.40 0.3471
371.50 0.3476
371.60 0.348
371.70 0.3485
371.80 0.3489
371.90 0.3494
372.00 0.3498
372.10 0.3503
372.20 0.3508
372.30 0.3512
372.40 0.3517
372.50 0.3522
372.60 0.3526
372.70 0.3531
372.80 0.3535
372.90 0.354
373.00 0.3545
373.10 0.3549
373.20 0.3554
373.30 0.3558
373.40 0.3563
373.50 0.3568
373.60 0.3572
373.70 0.3577
373.80 0.3581
373.90 0.3586
374.00 0.359
374.10 0.3595
374.20 0.36
374.30 0.3604
374.40 0.3609
374.50 0.3614
374.60 0.3619
374.70 0.3623
374.80 0.3628
374.90 0.3633
375.00 0.3637
375.10 0.3642
375.20 0.3646
375.30 0.3651
375.40 0.3656
375.50 0.366
375.60 0.3665
375.70 0.367
375.80 0.3674
375.90 0.3679
376.00 0.3683
376.10 0.3688
376.20 0.3693
376.30 0.3697
376.40 0.3702
376.50 0.3707
376.60 0.3712
376.70 0.3716
376.80 0.3721
376.90 0.3726
377.00 0.373
377.10 0.3735
377.20 0.374
377.30 0.3744
377.40 0.3749
377.50 0.3754
377.60 0.3758
377.70 0.3763
377.80 0.3768
377.90 0.3773
378.00 0.3777
378.10 0.3782
378.20 0.3787
378.30 0.3791
378.40 0.3796
378.50 0.3801
378.60 0.3806
378.70 0.381
378.80 0.3815
378.90 0.382
379.00 0.3824
379.10 0.3829
379.20 0.3834
379.30 0.3839
379.40 0.3843
379.50 0.3848
379.60 0.3853
379.70 0.3858
379.80 0.3862
379.90 0.3867
380.00 0.3872
380.10 0.3877
380.20 0.3881
380.30 0.3886
380.40 0.3891
380.50 0.3896
380.60 0.39
380.70 0.3905
380.80 0.391
380.90 0.3915
381.00 0.3919
381.10 0.3924
381.20 0.3929
381.30 0.3934
381.40 0.3938
381.50 0.3943
381.60 0.3948
381.70 0.3953
381.80 0.3958
381.90 0.3962
382.00 0.3967
382.10 0.3972
382.20 0.3977
382.30 0.3982
382.40 0.3986
382.50 0.3991
382.60 0.3996
382.70 0.4001
382.80 0.4006
382.90 0.401
383.00 0.4015
383.10 0.402
383.20 0.4025
383.30 0.403
383.40 0.4034
383.50 0.4039
383.60 0.4044
383.70 0.4049
383.80 0.4054
383.90 0.4058
384.00 0.4063
384.10 0.4068
384.20 0.4073
384.30 0.4078
384.40 0.4083
384.50 0.4087
384.60 0.4092
384.70 0.4097
384.80 0.4102
384.90 0.4107
385.00 0.4112
385.10 0.4116
385.20 0.4121
385.30 0.4126
385.40 0.4131
385.50 0.4136
385.60 0.4141
385.70 0.4146
385.80 0.415
385.90 0.4155
386.00 0.416
386.10 0.4165
386.20 0.417
386.30 0.4175
386.40 0.418
386.50 0.4184
386.60 0.4189
386.70 0.4194
386.80 0.4199
386.90 0.4204
387.00 0.4209
387.10 0.4214
387.20 0.4219
387.30 0.4223
387.40 0.4228
387.50 0.4233
387.60 0.4238
387.70 0.4243
387.80 0.4248
387.90 0.4253
388.00 0.4258
388.10 0.4263
388.20 0.4267
388.30 0.4272
388.40 0.4277
388.50 0.4282
388.60 0.4287
388.70 0.4292
388.80 0.4297
388.90 0.4302
389.00 0.4307
389.10 0.4312
389.20 0.4317
389.30 0.4321
389.40 0.4326
389.50 0.4331
389.60 0.4336
389.70 0.4341
389.80 0.4346
389.90 0.4351
390.00 0.4356
390.10 0.4361
390.20 0.4366
390.30 0.4371
390.40 0.4376
390.50 0.4381
390.60 0.4385
390.70 0.439
390.80 0.4395
390.90 0.44
391.00 0.4405
391.10 0.441
391.20 0.4415
391.30 0.442
391.40 0.4425
391.50 0.443
391.60 0.4435
391.70 0.444
391.80 0.4445
391.90 0.445
392.00 0.4455
392.10 0.446
392.20 0.4465
392.30 0.447
392.40 0.4475
392.50 0.448
392.60 0.4485
392.70 0.4489
392.80 0.4494
392.90 0.4499
393.00 0.4504
393.10 0.4509
393.20 0.4514
393.30 0.4519
393.40 0.4524
393.50 0.4529
393.60 0.4534
393.70 0.4539
393.80 0.4544
393.90 0.4549
394.00 0.4554
394.10 0.4559
394.20 0.4564
394.30 0.4569
394.40 0.4574
394.50 0.4579
394.60 0.4584
394.70 0.4589
394.80 0.4594
394.90 0.4599
395.00 0.4604
395.10 0.4609
395.20 0.4614
395.30 0.4619
395.40 0.4624
395.50 0.4629
395.60 0.4634
395.70 0.4639
395.80 0.4644
395.90 0.4649
396.00 0.4654
396.10 0.4659
396.20 0.4664
396.30 0.4669
396.40 0.4674
396.50 0.4679
396.60 0.4684
396.70 0.4689
396.80 0.4694
396.90 0.4699
397.00 0.4704
397.10 0.4709
397.20 0.4715
397.30 0.472
397.40 0.4725
397.50 0.473
397.60 0.4734
397.70 0.474
397.80 0.4745
397.90 0.475
398.00 0.4755
398.10 0.476
398.20 0.4765
398.30 0.477
398.40 0.4775
398.50 0.478
398.60 0.4785
398.70 0.479
398.80 0.4795
398.90 0.48
399.00 0.4805
399.10 0.481
399.20 0.4815
399.30 0.482
399.40 0.4826
399.50 0.4831
399.60 0.4836
399.70 0.4841
399.80 0.4846
399.90 0.4851
400.00 0.4856
400.10 0.4861
400.20 0.4866
400.30 0.4871
400.40 0.4876
400.50 0.4881
400.60 0.4886
400.70 0.4891
400.80 0.4896
400.90 0.4901
401.00 0.4907
401.10 0.4912
401.20 0.4917
401.30 0.4922
401.40 0.4927
401.50 0.4932
401.60 0.4937
401.70 0.4942
401.80 0.4947
401.90 0.4952
402.00 0.4958
402.10 0.4963
402.20 0.4968
402.30 0.4973
402.40 0.4978
402.50 0.4983
402.60 0.4988
402.70 0.4993
402.80 0.4998
402.90 0.5003
403.00 0.5008
403.10 0.5014
403.20 0.5019
403.30 0.5024
403.40 0.5029
403.50 0.5034
403.60 0.5039
403.70 0.5044
403.80 0.5049
403.90 0.5054
404.00 0.5059
404.10 0.5065
404.20 0.507
404.30 0.5075
404.40 0.508
404.50 0.5085
404.60 0.509
404.70 0.5095
404.80 0.51
404.90 0.5106
405.00 0.5111
405.10 0.5116
405.20 0.5121
405.30 0.5126
405.40 0.5131
405.50 0.5136
405.60 0.5142
405.70 0.5147
405.80 0.5152
405.90 0.5157
406.00 0.5162
406.10 0.5167
406.20 0.5172
406.30 0.5177
406.40 0.5183
406.50 0.5188
406.60 0.5193
406.70 0.5198
406.80 0.5203
406.90 0.5209
407.00 0.5213
407.10 0.5218
407.20 0.5224
407.30 0.5229
407.40 0.5234
407.50 0.5239
407.60 0.5244
407.70 0.5249
407.80 0.5255
407.90 0.526
408.00 0.5265
408.10 0.527
408.20 0.5275
408.30 0.528
408.40 0.5286
408.50 0.5291
408.60 0.5296
408.70 0.5301
408.80 0.5306
408.90 0.5311
409.00 0.5316
409.10 0.5322
409.20 0.5327
409.30 0.5332
409.40 0.5337
409.50 0.5343
409.60 0.5348
409.70 0.5353
409.80 0.5358
409.90 0.5363
410.00 0.5368
410.10 0.5373
410.20 0.5378
410.30 0.5384
410.40 0.5389
410.50 0.5394
410.60 0.54
410.70 0.5405
410.80 0.541
410.90 0.5415
411.00 0.542
411.10 0.5425
411.20 0.5431
411.30 0.5436
411.40 0.5441
411.50 0.5446
411.60 0.5451
411.70 0.5457
411.80 0.5462
411.90 0.5467
412.00 0.5472
412.10 0.5477
412.20 0.5482
412.30 0.5488
412.40 0.5493
412.50 0.5498
412.60 0.5503
412.70 0.5508
412.80 0.5513
412.90 0.5518
413.00 0.5524
413.10 0.5529
413.20 0.5534
413.30 0.5539
413.40 0.5545
413.50 0.555
413.60 0.5555
413.70 0.556
413.80 0.5566
413.90 0.5571
414.00 0.5576
414.10 0.5581
414.20 0.5586
414.30 0.5592
414.40 0.5597
414.50 0.5602
414.60 0.5607
414.70 0.5612
414.80 0.5617
414.90 0.5623
415.00 0.5628
415.10 0.5633
415.20 0.5639
415.30 0.5644
415.40 0.5649
415.50 0.5654
415.60 0.5659
415.70 0.5664
415.80 0.567
415.90 0.5675
416.00 0.568
416.10 0.5685
416.20 0.5691
416.30 0.5696
416.40 0.5701
416.50 0.5706
416.60 0.5711
416.70 0.5717
416.80 0.5722
416.90 0.5727
417.00 0.5732
417.10 0.5737
417.20 0.5743
417.30 0.5748
417.40 0.5753
417.50 0.5759
417.60 0.5764
417.70 0.5769
417.80 0.5774
417.90 0.578
418.00 0.5785
418.10 0.579
418.20 0.5795
418.30 0.58
418.40 0.5806
418.50 0.5811
418.60 0.5816
418.70 0.5822
418.80 0.5827
418.90 0.5832
419.00 0.5837
419.10 0.5842
419.20 0.5847
419.30 0.5853
419.40 0.5858
419.50 0.5863
419.60 0.5868
419.70 0.5874
419.80 0.5879
419.90 0.5884
420.00 0.589
420.10 0.5895
420.20 0.59
420.30 0.5905
420.40 0.5911
420.50 0.5916
420.60 0.5921
420.70 0.5926
420.80 0.5931
420.90 0.5937
421.00 0.5942
421.10 0.5947
421.20 0.5953
421.30 0.5958
421.40 0.5963
421.50 0.5968
421.60 0.5973
421.70 0.5979
421.80 0.5984
421.90 0.5989
422.00 0.5995
422.10 0.6
422.20 0.6005
422.30 0.601
422.40 0.6015
422.50 0.6021
422.60 0.6026
422.70 0.6031
422.80 0.6037
422.90 0.6042
423.00 0.6047
423.10 0.6052
423.20 0.6058
423.30 0.6063
423.40 0.6068
423.50 0.6073
423.60 0.6079
423.70 0.6084
423.80 0.6089
423.90 0.6094
424.00 0.61
424.10 0.6105
424.20 0.611
424.30 0.6116
424.40 0.6121
424.50 0.6126
424.60 0.6131
424.70 0.6136
424.80 0.6142
424.90 0.6147
425.00 0.6152
425.10 0.6158
425.20 0.6163
425.30 0.6168
425.40 0.6173
425.50 0.6179
425.60 0.6184
425.70 0.6189
425.80 0.6194
425.90 0.62
426.00 0.6205
426.10 0.621
426.20 0.6216
426.30 0.6221
426.40 0.6226
426.50 0.6231
426.60 0.6237
426.70 0.6242
426.80 0.6247
426.90 0.6253
427.00 0.6258
427.10 0.6263
427.20 0.6268
427.30 0.6274
427.40 0.6279
427.50 0.6284
427.60 0.6289
427.70 0.6295
427.80 0.63
427.90 0.6305
428.00 0.6311
428.10 0.6316
428.20 0.6321
428.30 0.6326
428.40 0.6332
428.50 0.6337
428.60 0.6342
428.70 0.6347
428.80 0.6353
428.90 0.6358
429.00 0.6363
429.10 0.6369
429.20 0.6374
429.30 0.6379
429.40 0.6384
429.50 0.639
429.60 0.6395
429.70 0.64
429.80 0.6405
429.90 0.6411
430.00 0.6416
430.10 0.6421
430.20 0.6427
430.30 0.6432
430.40 0.6437
430.50 0.6442
430.60 0.6448
430.70 0.6453
430.80 0.6458
430.90 0.6464
431.00 0.6469
431.10 0.6474
431.20 0.6479
431.30 0.6485
431.40 0.649
431.50 0.6495
431.60 0.65
431.70 0.6506
431.80 0.6511
431.90 0.6516
432.00 0.6522
432.10 0.6527
432.20 0.6532
432.30 0.6538
432.40 0.6543
432.50 0.6548
432.60 0.6553
432.70 0.6559
432.80 0.6564
432.90 0.6569
433.00 0.6574
433.10 0.658
433.20 0.6585
433.30 0.6591
433.40 0.6596
433.50 0.6601
433.60 0.6606
433.70 0.6612
433.80 0.6617
433.90 0.6622
434.00 0.6627
434.10 0.6633
434.20 0.6638
434.30 0.6643
434.40 0.6649
434.50 0.6654
434.60 0.6659
434.70 0.6665
434.80 0.667
434.90 0.6675
435.00 0.668
435.10 0.6686
435.20 0.6691
435.30 0.6696
435.40 0.6701
435.50 0.6707
435.60 0.6712
435.70 0.6717
435.80 0.6723
435.90 0.6728
436.00 0.6733
436.10 0.6739
436.20 0.6744
436.30 0.6749
436.40 0.6754
436.50 0.676
436.60 0.6765
436.70 0.677
436.80 0.6776
436.90 0.6781
437.00 0.6786
437.10 0.6791
437.20 0.6797
437.30 0.6802
437.40 0.6807
437.50 0.6812
437.60 0.6818
437.70 0.6823
437.80 0.6828
437.90 0.6834
438.00 0.6839
438.10 0.6844
438.20 0.685
438.30 0.6855
438.40 0.686
438.50 0.6865
438.60 0.6871
438.70 0.6876
438.80 0.6881
438.90 0.6887
439.00 0.6892
439.10 0.6897
439.20 0.6903
439.30 0.6908
439.40 0.6913
439.50 0.6918
439.60 0.6924
439.70 0.6929
439.80 0.6934
439.90 0.6939
440.00 0.6945
440.10 0.695
440.20 0.6955
440.30 0.6961
440.40 0.6966
440.50 0.6971
440.60 0.6976
440.70 0.6982
440.80 0.6987
440.90 0.6992
441.00 0.6998
441.10 0.7003
441.20 0.7008
441.30 0.7013
441.40 0.7019
441.50 0.7024
441.60 0.7029
441.70 0.7034
441.80 0.704
441.90 0.7045
442.00 0.7051
442.10 0.7056
442.20 0.7061
442.30 0.7066
442.40 0.7072
442.50 0.7077
442.60 0.7082
442.70 0.7087
442.80 0.7093
442.90 0.7098
443.00 0.7103
