# Version 2.1 - nm, norm@500 to 1, cut digits, bergeron_2750_95.dat_2750
# Wavelength(nm)  Flambda(ergs/cm^s/s/nm)
300.00 0.1145
300.10 0.1147
300.20 0.115
300.30 0.1152
300.40 0.1155
300.50 0.1158
300.60 0.116
300.70 0.1163
300.80 0.1165
300.90 0.1168
301.00 0.1171
301.10 0.1173
301.20 0.1176
301.30 0.1179
301.40 0.1181
301.50 0.1184
301.60 0.1186
301.70 0.1189
301.80 0.1191
301.90 0.1194
302.00 0.1197
302.10 0.1199
302.20 0.1202
302.30 0.1205
302.40 0.1207
302.50 0.121
302.60 0.1213
302.70 0.1215
302.80 0.1218
302.90 0.1221
303.00 0.1223
303.10 0.1226
303.20 0.1229
303.30 0.1231
303.40 0.1234
303.50 0.1237
303.60 0.1239
303.70 0.1242
303.80 0.1245
303.90 0.1247
304.00 0.125
304.10 0.1253
304.20 0.1256
304.30 0.1258
304.40 0.1261
304.50 0.1264
304.60 0.1267
304.70 0.1269
304.80 0.1272
304.90 0.1275
305.00 0.1278
305.10 0.128
305.20 0.1283
305.30 0.1286
305.40 0.1289
305.50 0.1291
305.60 0.1294
305.70 0.1297
305.80 0.1299
305.90 0.1302
306.00 0.1305
306.10 0.1308
306.20 0.1311
306.30 0.1313
306.40 0.1316
306.50 0.1319
306.60 0.1322
306.70 0.1325
306.80 0.1327
306.90 0.133
307.00 0.1333
307.10 0.1336
307.20 0.1339
307.30 0.1342
307.40 0.1344
307.50 0.1347
307.60 0.135
307.70 0.1353
307.80 0.1355
307.90 0.1358
308.00 0.1361
308.10 0.1364
308.20 0.1367
308.30 0.137
308.40 0.1373
308.50 0.1376
308.60 0.1378
308.70 0.1381
308.80 0.1384
308.90 0.1387
309.00 0.139
309.10 0.1393
309.20 0.1396
309.30 0.1399
309.40 0.1401
309.50 0.1404
309.60 0.1407
309.70 0.141
309.80 0.1413
309.90 0.1416
310.00 0.1419
310.10 0.1422
310.20 0.1424
310.30 0.1427
310.40 0.143
310.50 0.1433
310.60 0.1436
310.70 0.1439
310.80 0.1442
310.90 0.1445
311.00 0.1448
311.10 0.1451
311.20 0.1454
311.30 0.1457
311.40 0.146
311.50 0.1463
311.60 0.1466
311.70 0.1469
311.80 0.1472
311.90 0.1475
312.00 0.1478
312.10 0.148
312.20 0.1483
312.30 0.1486
312.40 0.1489
312.50 0.1492
312.60 0.1496
312.70 0.1499
312.80 0.1502
312.90 0.1505
313.00 0.1508
313.10 0.1511
313.20 0.1514
313.30 0.1517
313.40 0.152
313.50 0.1523
313.60 0.1526
313.70 0.1529
313.80 0.1532
313.90 0.1535
314.00 0.1538
314.10 0.1541
314.20 0.1544
314.30 0.1547
314.40 0.155
314.50 0.1553
314.60 0.1556
314.70 0.1559
314.80 0.1562
314.90 0.1565
315.00 0.1569
315.10 0.1572
315.20 0.1575
315.30 0.1578
315.40 0.1581
315.50 0.1584
315.60 0.1587
315.70 0.159
315.80 0.1593
315.90 0.1596
316.00 0.1599
316.10 0.1602
316.20 0.1605
316.30 0.1609
316.40 0.1612
316.50 0.1615
316.60 0.1618
316.70 0.1621
316.80 0.1624
316.90 0.1628
317.00 0.1631
317.10 0.1634
317.20 0.1637
317.30 0.164
317.40 0.1643
317.50 0.1646
317.60 0.165
317.70 0.1653
317.80 0.1656
317.90 0.1659
318.00 0.1662
318.10 0.1665
318.20 0.1668
318.30 0.1672
318.40 0.1675
318.50 0.1678
318.60 0.1681
318.70 0.1685
318.80 0.1688
318.90 0.1691
319.00 0.1694
319.10 0.1697
319.20 0.1701
319.30 0.1704
319.40 0.1707
319.50 0.171
319.60 0.1713
319.70 0.1717
319.80 0.172
319.90 0.1723
320.00 0.1726
320.10 0.1729
320.20 0.1733
320.30 0.1736
320.40 0.1739
320.50 0.1743
320.60 0.1746
320.70 0.1749
320.80 0.1752
320.90 0.1756
321.00 0.1759
321.10 0.1762
321.20 0.1766
321.30 0.1769
321.40 0.1772
321.50 0.1775
321.60 0.1779
321.70 0.1782
321.80 0.1785
321.90 0.1788
322.00 0.1792
322.10 0.1795
322.20 0.1798
322.30 0.1802
322.40 0.1805
322.50 0.1808
322.60 0.1812
322.70 0.1815
322.80 0.1818
322.90 0.1822
323.00 0.1825
323.10 0.1828
323.20 0.1832
323.30 0.1835
323.40 0.1838
323.50 0.1842
323.60 0.1845
323.70 0.1848
323.80 0.1852
323.90 0.1855
324.00 0.1858
324.10 0.1862
324.20 0.1865
324.30 0.1869
324.40 0.1872
324.50 0.1875
324.60 0.1879
324.70 0.1882
324.80 0.1886
324.90 0.1889
325.00 0.1892
325.10 0.1896
325.20 0.1899
325.30 0.1903
325.40 0.1906
325.50 0.1909
325.60 0.1913
325.70 0.1916
325.80 0.1919
325.90 0.1923
326.00 0.1926
326.10 0.193
326.20 0.1933
326.30 0.1937
326.40 0.194
326.50 0.1944
326.60 0.1947
326.70 0.1951
326.80 0.1954
326.90 0.1958
327.00 0.1961
327.10 0.1965
327.20 0.1968
327.30 0.1971
327.40 0.1975
327.50 0.1978
327.60 0.1982
327.70 0.1985
327.80 0.1989
327.90 0.1992
328.00 0.1996
328.10 0.1999
328.20 0.2003
328.30 0.2006
328.40 0.201
328.50 0.2013
328.60 0.2017
328.70 0.202
328.80 0.2024
328.90 0.2027
329.00 0.2031
329.10 0.2034
329.20 0.2038
329.30 0.2041
329.40 0.2045
329.50 0.2048
329.60 0.2052
329.70 0.2055
329.80 0.2059
329.90 0.2062
330.00 0.2066
330.10 0.207
330.20 0.2073
330.30 0.2077
330.40 0.208
330.50 0.2084
330.60 0.2088
330.70 0.2091
330.80 0.2095
330.90 0.2098
331.00 0.2102
331.10 0.2106
331.20 0.2109
331.30 0.2113
331.40 0.2116
331.50 0.212
331.60 0.2123
331.70 0.2127
331.80 0.213
331.90 0.2134
332.00 0.2138
332.10 0.2141
332.20 0.2145
332.30 0.2149
332.40 0.2152
332.50 0.2156
332.60 0.216
332.70 0.2163
332.80 0.2167
332.90 0.2171
333.00 0.2174
333.10 0.2178
333.20 0.2182
333.30 0.2185
333.40 0.2189
333.50 0.2192
333.60 0.2196
333.70 0.22
333.80 0.2203
333.90 0.2207
334.00 0.2211
334.10 0.2214
334.20 0.2218
334.30 0.2222
334.40 0.2225
334.50 0.2229
334.60 0.2233
334.70 0.2237
334.80 0.224
334.90 0.2244
335.00 0.2248
335.10 0.2251
335.20 0.2255
335.30 0.2259
335.40 0.2263
335.50 0.2266
335.60 0.227
335.70 0.2274
335.80 0.2277
335.90 0.2281
336.00 0.2285
336.10 0.2288
336.20 0.2292
336.30 0.2296
336.40 0.23
336.50 0.2304
336.60 0.2307
336.70 0.2311
336.80 0.2315
336.90 0.2319
337.00 0.2322
337.10 0.2326
337.20 0.233
337.30 0.2334
337.40 0.2337
337.50 0.2341
337.60 0.2345
337.70 0.2349
337.80 0.2352
337.90 0.2356
338.00 0.236
338.10 0.2364
338.20 0.2368
338.30 0.2371
338.40 0.2375
338.50 0.2379
338.60 0.2383
338.70 0.2387
338.80 0.2391
338.90 0.2394
339.00 0.2398
339.10 0.2402
339.20 0.2406
339.30 0.241
339.40 0.2413
339.50 0.2417
339.60 0.2421
339.70 0.2425
339.80 0.2429
339.90 0.2432
340.00 0.2436
340.10 0.244
340.20 0.2444
340.30 0.2448
340.40 0.2452
340.50 0.2456
340.60 0.246
340.70 0.2464
340.80 0.2467
340.90 0.2471
341.00 0.2475
341.10 0.2479
341.20 0.2483
341.30 0.2487
341.40 0.2491
341.50 0.2495
341.60 0.2498
341.70 0.2502
341.80 0.2506
341.90 0.251
342.00 0.2514
342.10 0.2518
342.20 0.2522
342.30 0.2526
342.40 0.253
342.50 0.2534
342.60 0.2538
342.70 0.2541
342.80 0.2545
342.90 0.2549
343.00 0.2553
343.10 0.2557
343.20 0.2561
343.30 0.2565
343.40 0.2569
343.50 0.2573
343.60 0.2577
343.70 0.2581
343.80 0.2585
343.90 0.2588
344.00 0.2592
344.10 0.2596
344.20 0.26
344.30 0.2604
344.40 0.2608
344.50 0.2612
344.60 0.2616
344.70 0.262
344.80 0.2624
344.90 0.2628
345.00 0.2632
345.10 0.2636
345.20 0.264
345.30 0.2644
345.40 0.2648
345.50 0.2652
345.60 0.2656
345.70 0.266
345.80 0.2664
345.90 0.2668
346.00 0.2672
346.10 0.2676
346.20 0.268
346.30 0.2684
346.40 0.2688
346.50 0.2692
346.60 0.2696
346.70 0.27
346.80 0.2705
346.90 0.2709
347.00 0.2713
347.10 0.2717
347.20 0.2721
347.30 0.2725
347.40 0.2729
347.50 0.2733
347.60 0.2737
347.70 0.2741
347.80 0.2745
347.90 0.2749
348.00 0.2753
348.10 0.2757
348.20 0.2761
348.30 0.2765
348.40 0.2769
348.50 0.2773
348.60 0.2777
348.70 0.2782
348.80 0.2786
348.90 0.279
349.00 0.2794
349.10 0.2798
349.20 0.2802
349.30 0.2806
349.40 0.281
349.50 0.2814
349.60 0.2818
349.70 0.2822
349.80 0.2826
349.90 0.283
350.00 0.2835
350.10 0.2839
350.20 0.2843
350.30 0.2847
350.40 0.2851
350.50 0.2855
350.60 0.286
350.70 0.2864
350.80 0.2868
350.90 0.2872
351.00 0.2876
351.10 0.288
351.20 0.2884
351.30 0.2889
351.40 0.2893
351.50 0.2897
351.60 0.2901
351.70 0.2905
351.80 0.2909
351.90 0.2913
352.00 0.2917
352.10 0.2922
352.20 0.2926
352.30 0.293
352.40 0.2934
352.50 0.2938
352.60 0.2943
352.70 0.2947
352.80 0.2951
352.90 0.2955
353.00 0.2959
353.10 0.2964
353.20 0.2968
353.30 0.2972
353.40 0.2976
353.50 0.298
353.60 0.2984
353.70 0.2989
353.80 0.2993
353.90 0.2997
354.00 0.3001
354.10 0.3005
354.20 0.301
354.30 0.3014
354.40 0.3018
354.50 0.3022
354.60 0.3027
354.70 0.3031
354.80 0.3035
354.90 0.3039
355.00 0.3044
355.10 0.3048
355.20 0.3052
355.30 0.3056
355.40 0.3061
355.50 0.3065
355.60 0.3069
355.70 0.3073
355.80 0.3077
355.90 0.3082
356.00 0.3086
356.10 0.309
356.20 0.3094
356.30 0.3099
356.40 0.3103
356.50 0.3107
356.60 0.3112
356.70 0.3116
356.80 0.312
356.90 0.3125
357.00 0.3129
357.10 0.3133
357.20 0.3137
357.30 0.3142
357.40 0.3146
357.50 0.315
357.60 0.3154
357.70 0.3159
357.80 0.3163
357.90 0.3167
358.00 0.3171
358.10 0.3176
358.20 0.318
358.30 0.3185
358.40 0.3189
358.50 0.3193
358.60 0.3198
358.70 0.3202
358.80 0.3206
358.90 0.3211
359.00 0.3215
359.10 0.3219
359.20 0.3224
359.30 0.3228
359.40 0.3232
359.50 0.3237
359.60 0.3241
359.70 0.3245
359.80 0.3249
359.90 0.3254
360.00 0.3258
360.10 0.3262
360.20 0.3267
360.30 0.3271
360.40 0.3276
360.50 0.328
360.60 0.3284
360.70 0.3289
360.80 0.3293
360.90 0.3298
361.00 0.3302
361.10 0.3306
361.20 0.3311
361.30 0.3315
361.40 0.3319
361.50 0.3324
361.60 0.3328
361.70 0.3332
361.80 0.3337
361.90 0.3341
362.00 0.3345
362.10 0.335
362.20 0.3354
362.30 0.3359
362.40 0.3363
362.50 0.3368
362.60 0.3372
362.70 0.3376
362.80 0.3381
362.90 0.3385
363.00 0.339
363.10 0.3394
363.20 0.3398
363.30 0.3403
363.40 0.3407
363.50 0.3412
363.60 0.3416
363.70 0.3421
363.80 0.3425
363.90 0.343
364.00 0.3434
364.10 0.3438
364.20 0.3443
364.30 0.3447
364.40 0.3452
364.50 0.3456
364.60 0.346
364.70 0.3465
364.80 0.3469
364.90 0.3474
365.00 0.3478
365.10 0.3483
365.20 0.3487
365.30 0.3492
365.40 0.3496
365.50 0.3501
365.60 0.3505
365.70 0.351
365.80 0.3514
365.90 0.3519
366.00 0.3523
366.10 0.3528
366.20 0.3532
366.30 0.3537
366.40 0.3541
366.50 0.3546
366.60 0.355
366.70 0.3555
366.80 0.3559
366.90 0.3564
367.00 0.3568
367.10 0.3573
367.20 0.3577
367.30 0.3582
367.40 0.3586
367.50 0.3591
367.60 0.3595
367.70 0.36
367.80 0.3604
367.90 0.3608
368.00 0.3613
368.10 0.3617
368.20 0.3622
368.30 0.3627
368.40 0.3631
368.50 0.3636
368.60 0.364
368.70 0.3645
368.80 0.3649
368.90 0.3654
369.00 0.3659
369.10 0.3663
369.20 0.3668
369.30 0.3672
369.40 0.3677
369.50 0.3681
369.60 0.3686
369.70 0.369
369.80 0.3695
369.90 0.3699
370.00 0.3704
370.10 0.3708
370.20 0.3713
370.30 0.3717
370.40 0.3722
370.50 0.3727
370.60 0.3731
370.70 0.3736
370.80 0.374
370.90 0.3745
371.00 0.375
371.10 0.3754
371.20 0.3759
371.30 0.3763
371.40 0.3768
371.50 0.3772
371.60 0.3777
371.70 0.3782
371.80 0.3786
371.90 0.3791
372.00 0.3795
372.10 0.38
372.20 0.3804
372.30 0.3809
372.40 0.3814
372.50 0.3818
372.60 0.3823
372.70 0.3828
372.80 0.3832
372.90 0.3837
373.00 0.3841
373.10 0.3846
373.20 0.3851
373.30 0.3855
373.40 0.386
373.50 0.3864
373.60 0.3869
373.70 0.3874
373.80 0.3878
373.90 0.3883
374.00 0.3887
374.10 0.3892
374.20 0.3897
374.30 0.3901
374.40 0.3906
374.50 0.3911
374.60 0.3915
374.70 0.392
374.80 0.3925
374.90 0.3929
375.00 0.3934
375.10 0.3939
375.20 0.3943
375.30 0.3948
375.40 0.3953
375.50 0.3957
375.60 0.3962
375.70 0.3966
375.80 0.3971
375.90 0.3976
376.00 0.398
376.10 0.3985
376.20 0.399
376.30 0.3994
376.40 0.3999
376.50 0.4004
376.60 0.4008
376.70 0.4013
376.80 0.4018
376.90 0.4022
377.00 0.4027
377.10 0.4032
377.20 0.4036
377.30 0.4041
377.40 0.4046
377.50 0.405
377.60 0.4055
377.70 0.406
377.80 0.4064
377.90 0.4069
378.00 0.4074
378.10 0.4078
378.20 0.4083
378.30 0.4088
378.40 0.4093
378.50 0.4097
378.60 0.4102
378.70 0.4107
378.80 0.4111
378.90 0.4116
379.00 0.4121
379.10 0.4126
379.20 0.413
379.30 0.4135
379.40 0.414
379.50 0.4144
379.60 0.4149
379.70 0.4154
379.80 0.4159
379.90 0.4163
380.00 0.4168
380.10 0.4173
380.20 0.4177
380.30 0.4182
380.40 0.4187
380.50 0.4192
380.60 0.4196
380.70 0.4201
380.80 0.4206
380.90 0.4211
381.00 0.4215
381.10 0.422
381.20 0.4225
381.30 0.423
381.40 0.4234
381.50 0.4239
381.60 0.4244
381.70 0.4248
381.80 0.4253
381.90 0.4258
382.00 0.4263
382.10 0.4268
382.20 0.4272
382.30 0.4277
382.40 0.4282
382.50 0.4287
382.60 0.4291
382.70 0.4296
382.80 0.4301
382.90 0.4306
383.00 0.431
383.10 0.4315
383.20 0.432
383.30 0.4325
383.40 0.4329
383.50 0.4334
383.60 0.4339
383.70 0.4344
383.80 0.4349
383.90 0.4353
384.00 0.4358
384.10 0.4363
384.20 0.4368
384.30 0.4372
384.40 0.4378
384.50 0.4382
384.60 0.4387
384.70 0.4392
384.80 0.4396
384.90 0.4401
385.00 0.4406
385.10 0.4411
385.20 0.4416
385.30 0.4421
385.40 0.4425
385.50 0.443
385.60 0.4435
385.70 0.444
385.80 0.4444
385.90 0.4449
386.00 0.4454
386.10 0.4459
386.20 0.4464
386.30 0.4469
386.40 0.4473
386.50 0.4478
386.60 0.4483
386.70 0.4488
386.80 0.4493
386.90 0.4497
387.00 0.4502
387.10 0.4507
387.20 0.4512
387.30 0.4517
387.40 0.4522
387.50 0.4526
387.60 0.4531
387.70 0.4536
387.80 0.4541
387.90 0.4546
388.00 0.4551
388.10 0.4555
388.20 0.456
388.30 0.4565
388.40 0.457
388.50 0.4575
388.60 0.458
388.70 0.4584
388.80 0.4589
388.90 0.4594
389.00 0.4599
389.10 0.4604
389.20 0.4609
389.30 0.4614
389.40 0.4619
389.50 0.4623
389.60 0.4628
389.70 0.4633
389.80 0.4638
389.90 0.4643
390.00 0.4648
390.10 0.4652
390.20 0.4657
390.30 0.4662
390.40 0.4667
390.50 0.4672
390.60 0.4677
390.70 0.4682
390.80 0.4687
390.90 0.4691
391.00 0.4696
391.10 0.4701
391.20 0.4706
391.30 0.4711
391.40 0.4716
391.50 0.472
391.60 0.4725
391.70 0.473
391.80 0.4735
391.90 0.474
392.00 0.4745
392.10 0.475
392.20 0.4755
392.30 0.4759
392.40 0.4764
392.50 0.477
392.60 0.4774
392.70 0.4779
392.80 0.4784
392.90 0.4789
393.00 0.4794
393.10 0.4799
393.20 0.4804
393.30 0.4808
393.40 0.4813
393.50 0.4818
393.60 0.4823
393.70 0.4828
393.80 0.4833
393.90 0.4838
394.00 0.4843
394.10 0.4848
394.20 0.4853
394.30 0.4858
394.40 0.4862
394.50 0.4867
394.60 0.4872
394.70 0.4877
394.80 0.4882
394.90 0.4887
395.00 0.4892
395.10 0.4897
395.20 0.4902
395.30 0.4907
395.40 0.4912
395.50 0.4917
395.60 0.4922
395.70 0.4926
395.80 0.4931
395.90 0.4936
396.00 0.4941
396.10 0.4946
396.20 0.4951
396.30 0.4956
396.40 0.4961
396.50 0.4966
396.60 0.4971
396.70 0.4976
396.80 0.498
396.90 0.4985
397.00 0.4991
397.10 0.4995
397.20 0.5
397.30 0.5005
397.40 0.501
397.50 0.5015
397.60 0.502
397.70 0.5025
397.80 0.503
397.90 0.5035
398.00 0.504
398.10 0.5045
398.20 0.505
398.30 0.5054
398.40 0.5059
398.50 0.5064
398.60 0.507
398.70 0.5074
398.80 0.5079
398.90 0.5084
399.00 0.5089
399.10 0.5094
399.20 0.5099
399.30 0.5104
399.40 0.5109
399.50 0.5114
399.60 0.5119
399.70 0.5124
399.80 0.5129
399.90 0.5134
400.00 0.5139
400.10 0.5144
400.20 0.5149
400.30 0.5154
400.40 0.5159
400.50 0.5163
400.60 0.5168
400.70 0.5173
400.80 0.5178
400.90 0.5184
401.00 0.5188
401.10 0.5193
401.20 0.5198
401.30 0.5203
401.40 0.5208
401.50 0.5213
401.60 0.5218
401.70 0.5223
401.80 0.5228
401.90 0.5233
402.00 0.5238
402.10 0.5243
402.20 0.5248
402.30 0.5253
402.40 0.5258
402.50 0.5263
402.60 0.5268
402.70 0.5273
402.80 0.5278
402.90 0.5283
403.00 0.5288
403.10 0.5293
403.20 0.5298
403.30 0.5303
403.40 0.5308
403.50 0.5313
403.60 0.5318
403.70 0.5323
403.80 0.5328
403.90 0.5333
404.00 0.5338
404.10 0.5343
404.20 0.5348
404.30 0.5353
404.40 0.5358
404.50 0.5363
404.60 0.5368
404.70 0.5373
404.80 0.5378
404.90 0.5383
405.00 0.5388
405.10 0.5393
405.20 0.5398
405.30 0.5403
405.40 0.5408
405.50 0.5413
405.60 0.5418
405.70 0.5423
405.80 0.5428
405.90 0.5433
406.00 0.5438
406.10 0.5443
406.20 0.5448
406.30 0.5453
406.40 0.5458
406.50 0.5463
406.60 0.5468
406.70 0.5473
406.80 0.5478
406.90 0.5483
407.00 0.5488
407.10 0.5493
407.20 0.5498
407.30 0.5503
407.40 0.5508
407.50 0.5513
407.60 0.5518
407.70 0.5523
407.80 0.5528
407.90 0.5533
408.00 0.5538
408.10 0.5543
408.20 0.5548
408.30 0.5553
408.40 0.5558
408.50 0.5563
408.60 0.5568
408.70 0.5573
408.80 0.5578
408.90 0.5583
409.00 0.5588
409.10 0.5593
409.20 0.5598
409.30 0.5603
409.40 0.5608
409.50 0.5613
409.60 0.5618
409.70 0.5623
409.80 0.5628
409.90 0.5633
410.00 0.5638
410.10 0.5643
410.20 0.5648
410.30 0.5653
410.40 0.5658
410.50 0.5664
410.60 0.5668
410.70 0.5673
410.80 0.5679
410.90 0.5684
411.00 0.5689
411.10 0.5694
411.20 0.5699
411.30 0.5703
411.40 0.5709
411.50 0.5714
411.60 0.5719
411.70 0.5724
411.80 0.5729
411.90 0.5734
412.00 0.5739
412.10 0.5744
412.20 0.5749
412.30 0.5754
412.40 0.5759
412.50 0.5764
412.60 0.5769
412.70 0.5774
412.80 0.5779
412.90 0.5784
413.00 0.5789
413.10 0.5794
413.20 0.5799
413.30 0.5804
413.40 0.5809
413.50 0.5814
413.60 0.582
413.70 0.5825
413.80 0.583
413.90 0.5835
414.00 0.584
414.10 0.5845
414.20 0.585
414.30 0.5855
414.40 0.586
414.50 0.5865
414.60 0.587
414.70 0.5875
414.80 0.588
414.90 0.5885
415.00 0.589
415.10 0.5895
415.20 0.59
415.30 0.5905
415.40 0.591
415.50 0.5915
415.60 0.592
415.70 0.5925
415.80 0.593
415.90 0.5936
416.00 0.5941
416.10 0.5946
416.20 0.595
416.30 0.5956
416.40 0.5961
416.50 0.5966
416.60 0.5971
416.70 0.5976
416.80 0.5981
416.90 0.5986
417.00 0.5991
417.10 0.5996
417.20 0.6001
417.30 0.6006
417.40 0.6011
417.50 0.6016
417.60 0.6021
417.70 0.6026
417.80 0.6031
417.90 0.6037
418.00 0.6042
418.10 0.6047
418.20 0.6052
418.30 0.6057
418.40 0.6062
418.50 0.6067
418.60 0.6072
418.70 0.6077
418.80 0.6082
418.90 0.6087
419.00 0.6092
419.10 0.6097
419.20 0.6102
419.30 0.6107
419.40 0.6112
419.50 0.6117
419.60 0.6122
419.70 0.6127
419.80 0.6132
419.90 0.6138
420.00 0.6143
420.10 0.6148
420.20 0.6153
420.30 0.6158
420.40 0.6163
420.50 0.6168
420.60 0.6173
420.70 0.6178
420.80 0.6183
420.90 0.6188
421.00 0.6193
421.10 0.6198
421.20 0.6203
421.30 0.6208
421.40 0.6214
421.50 0.6219
421.60 0.6224
421.70 0.6229
421.80 0.6234
421.90 0.6239
422.00 0.6244
422.10 0.6249
422.20 0.6254
422.30 0.6259
422.40 0.6264
422.50 0.6269
422.60 0.6274
422.70 0.6279
422.80 0.6284
422.90 0.6289
423.00 0.6294
423.10 0.6299
423.20 0.6305
423.30 0.631
423.40 0.6315
423.50 0.632
423.60 0.6325
423.70 0.633
423.80 0.6335
423.90 0.634
424.00 0.6345
424.10 0.635
424.20 0.6355
424.30 0.636
424.40 0.6365
424.50 0.637
424.60 0.6375
424.70 0.638
424.80 0.6385
424.90 0.6391
425.00 0.6396
425.10 0.6401
425.20 0.6406
425.30 0.6411
425.40 0.6416
425.50 0.6421
425.60 0.6426
425.70 0.6431
425.80 0.6436
425.90 0.6441
426.00 0.6446
426.10 0.6451
426.20 0.6456
426.30 0.6461
426.40 0.6466
426.50 0.6471
426.60 0.6476
426.70 0.6481
426.80 0.6487
426.90 0.6492
427.00 0.6497
427.10 0.6502
427.20 0.6507
427.30 0.6512
427.40 0.6517
427.50 0.6522
427.60 0.6527
427.70 0.6532
427.80 0.6537
427.90 0.6542
428.00 0.6547
428.10 0.6552
428.20 0.6558
428.30 0.6562
428.40 0.6568
428.50 0.6573
428.60 0.6578
428.70 0.6583
428.80 0.6588
428.90 0.6593
429.00 0.6598
429.10 0.6603
429.20 0.6608
429.30 0.6613
429.40 0.6618
429.50 0.6623
429.60 0.6628
429.70 0.6633
429.80 0.6638
429.90 0.6643
430.00 0.6648
430.10 0.6653
430.20 0.6659
430.30 0.6664
430.40 0.6669
430.50 0.6674
430.60 0.6679
430.70 0.6684
430.80 0.6689
430.90 0.6694
431.00 0.6699
431.10 0.6704
431.20 0.6709
431.30 0.6714
431.40 0.6719
431.50 0.6724
431.60 0.6729
431.70 0.6734
431.80 0.674
431.90 0.6745
432.00 0.675
432.10 0.6755
432.20 0.676
432.30 0.6765
432.40 0.677
432.50 0.6775
432.60 0.678
432.70 0.6785
432.80 0.679
432.90 0.6795
433.00 0.68
433.10 0.6805
433.20 0.681
433.30 0.6815
433.40 0.682
433.50 0.6825
433.60 0.683
433.70 0.6835
433.80 0.6841
433.90 0.6846
434.00 0.6851
434.10 0.6856
434.20 0.6861
434.30 0.6866
434.40 0.6871
434.50 0.6876
434.60 0.6881
434.70 0.6886
434.80 0.6891
434.90 0.6896
435.00 0.6901
435.10 0.6906
435.20 0.6911
435.30 0.6916
435.40 0.6921
435.50 0.6926
435.60 0.6931
435.70 0.6936
435.80 0.6941
435.90 0.6946
436.00 0.6951
436.10 0.6957
436.20 0.6962
436.30 0.6967
436.40 0.6972
436.50 0.6977
436.60 0.6982
436.70 0.6987
436.80 0.6992
436.90 0.6997
437.00 0.7002
437.10 0.7007
437.20 0.7012
437.30 0.7017
437.40 0.7022
437.50 0.7027
437.60 0.7032
437.70 0.7037
437.80 0.7042
437.90 0.7047
438.00 0.7052
438.10 0.7057
438.20 0.7062
438.30 0.7067
438.40 0.7072
438.50 0.7077
438.60 0.7082
438.70 0.7087
438.80 0.7093
438.90 0.7098
439.00 0.7103
439.10 0.7108
439.20 0.7113
439.30 0.7118
439.40 0.7123
439.50 0.7128
439.60 0.7133
439.70 0.7138
439.80 0.7143
439.90 0.7148
440.00 0.7153
440.10 0.7158
440.20 0.7163
440.30 0.7168
440.40 0.7173
440.50 0.7178
440.60 0.7183
440.70 0.7188
440.80 0.7193
440.90 0.7198
441.00 0.7203
441.10 0.7208
441.20 0.7213
441.30 0.7218
441.40 0.7223
441.50 0.7228
441.60 0.7233
441.70 0.7238
441.80 0.7243
441.90 0.7248
442.00 0.7253
442.10 0.7258
442.20 0.7263
442.30 0.7268
442.40 0.7273
442.50 0.7278
442.60 0.7284
442.70 0.7289
442.80 0.7293
442.90 0.7298
