# Version 2.1 - nm, norm@500 to 1, cut digits, bergeron_7000_75.dat_7000
# Wavelength(nm)  Flambda(ergs/cm^s/s/nm)
300.00 1.08
300.10 1.08
300.20 1.08
300.30 1.081
300.40 1.081
300.50 1.081
300.60 1.082
300.70 1.082
300.80 1.082
300.90 1.082
301.00 1.083
301.10 1.083
301.20 1.083
301.30 1.084
301.40 1.084
301.50 1.084
301.60 1.084
301.70 1.085
301.80 1.085
301.90 1.085
302.00 1.085
302.10 1.086
302.20 1.086
302.30 1.086
302.40 1.087
302.50 1.087
302.60 1.087
302.70 1.087
302.80 1.088
302.90 1.088
303.00 1.088
303.10 1.088
303.20 1.089
303.30 1.089
303.40 1.089
303.50 1.089
303.60 1.09
303.70 1.09
303.80 1.09
303.90 1.09
304.00 1.091
304.10 1.091
304.20 1.091
304.30 1.092
304.40 1.092
304.50 1.092
304.60 1.092
304.70 1.093
304.80 1.093
304.90 1.093
305.00 1.093
305.10 1.094
305.20 1.094
305.30 1.094
305.40 1.094
305.50 1.095
305.60 1.095
305.70 1.095
305.80 1.095
305.90 1.096
306.00 1.096
306.10 1.096
306.20 1.096
306.30 1.097
306.40 1.097
306.50 1.097
306.60 1.097
306.70 1.098
306.80 1.098
306.90 1.098
307.00 1.098
307.10 1.099
307.20 1.099
307.30 1.099
307.40 1.099
307.50 1.1
307.60 1.1
307.70 1.1
307.80 1.1
307.90 1.1
308.00 1.101
308.10 1.101
308.20 1.101
308.30 1.101
308.40 1.102
308.50 1.102
308.60 1.102
308.70 1.102
308.80 1.103
308.90 1.103
309.00 1.103
309.10 1.103
309.20 1.104
309.30 1.104
309.40 1.104
309.50 1.104
309.60 1.104
309.70 1.105
309.80 1.105
309.90 1.105
310.00 1.105
310.10 1.106
310.20 1.106
310.30 1.106
310.40 1.106
310.50 1.106
310.60 1.107
310.70 1.107
310.80 1.107
310.90 1.107
311.00 1.108
311.10 1.108
311.20 1.108
311.30 1.108
311.40 1.108
311.50 1.109
311.60 1.109
311.70 1.109
311.80 1.109
311.90 1.11
312.00 1.11
312.10 1.11
312.20 1.11
312.30 1.11
312.40 1.111
312.50 1.111
312.60 1.111
312.70 1.111
312.80 1.111
312.90 1.112
313.00 1.112
313.10 1.112
313.20 1.112
313.30 1.112
313.40 1.113
313.50 1.113
313.60 1.113
313.70 1.113
313.80 1.113
313.90 1.114
314.00 1.114
314.10 1.114
314.20 1.114
314.30 1.115
314.40 1.115
314.50 1.115
314.60 1.115
314.70 1.115
314.80 1.116
314.90 1.116
315.00 1.116
315.10 1.116
315.20 1.116
315.30 1.117
315.40 1.117
315.50 1.117
315.60 1.117
315.70 1.117
315.80 1.117
315.90 1.118
316.00 1.118
316.10 1.118
316.20 1.118
316.30 1.118
316.40 1.119
316.50 1.119
316.60 1.119
316.70 1.119
316.80 1.119
316.90 1.12
317.00 1.12
317.10 1.12
317.20 1.12
317.30 1.12
317.40 1.12
317.50 1.121
317.60 1.121
317.70 1.121
317.80 1.121
317.90 1.121
318.00 1.122
318.10 1.122
318.20 1.122
318.30 1.122
318.40 1.122
318.50 1.122
318.60 1.123
318.70 1.123
318.80 1.123
318.90 1.123
319.00 1.123
319.10 1.124
319.20 1.124
319.30 1.124
319.40 1.124
319.50 1.124
319.60 1.124
319.70 1.125
319.80 1.125
319.90 1.125
320.00 1.125
320.10 1.125
320.20 1.125
320.30 1.126
320.40 1.126
320.50 1.126
320.60 1.126
320.70 1.126
320.80 1.126
320.90 1.127
321.00 1.127
321.10 1.127
321.20 1.127
321.30 1.127
321.40 1.127
321.50 1.128
321.60 1.128
321.70 1.128
321.80 1.128
321.90 1.128
322.00 1.128
322.10 1.129
322.20 1.129
322.30 1.129
322.40 1.129
322.50 1.129
322.60 1.129
322.70 1.13
322.80 1.13
322.90 1.13
323.00 1.13
323.10 1.13
323.20 1.13
323.30 1.13
323.40 1.131
323.50 1.131
323.60 1.131
323.70 1.131
323.80 1.131
323.90 1.131
324.00 1.131
324.10 1.132
324.20 1.132
324.30 1.132
324.40 1.132
324.50 1.132
324.60 1.132
324.70 1.133
324.80 1.133
324.90 1.133
325.00 1.133
325.10 1.133
325.20 1.133
325.30 1.133
325.40 1.134
325.50 1.134
325.60 1.134
325.70 1.134
325.80 1.134
325.90 1.134
326.00 1.134
326.10 1.135
326.20 1.135
326.30 1.135
326.40 1.135
326.50 1.135
326.60 1.135
326.70 1.135
326.80 1.135
326.90 1.136
327.00 1.136
327.10 1.136
327.20 1.136
327.30 1.136
327.40 1.136
327.50 1.136
327.60 1.137
327.70 1.137
327.80 1.137
327.90 1.137
328.00 1.137
328.10 1.137
328.20 1.137
328.30 1.137
328.40 1.138
328.50 1.138
328.60 1.138
328.70 1.138
328.80 1.138
328.90 1.138
329.00 1.138
329.10 1.138
329.20 1.139
329.30 1.139
329.40 1.139
329.50 1.139
329.60 1.139
329.70 1.139
329.80 1.139
329.90 1.139
330.00 1.14
330.10 1.14
330.20 1.14
330.30 1.14
330.40 1.14
330.50 1.14
330.60 1.14
330.70 1.14
330.80 1.14
330.90 1.141
331.00 1.141
331.10 1.141
331.20 1.141
331.30 1.141
331.40 1.141
331.50 1.141
331.60 1.141
331.70 1.141
331.80 1.142
331.90 1.142
332.00 1.142
332.10 1.142
332.20 1.142
332.30 1.142
332.40 1.142
332.50 1.142
332.60 1.142
332.70 1.143
332.80 1.143
332.90 1.143
333.00 1.143
333.10 1.143
333.20 1.143
333.30 1.143
333.40 1.143
333.50 1.143
333.60 1.144
333.70 1.144
333.80 1.144
333.90 1.144
334.00 1.144
334.10 1.144
334.20 1.144
334.30 1.144
334.40 1.144
334.50 1.144
334.60 1.145
334.70 1.145
334.80 1.145
334.90 1.145
335.00 1.145
335.10 1.145
335.20 1.145
335.30 1.145
335.40 1.145
335.50 1.145
335.60 1.145
335.70 1.146
335.80 1.146
335.90 1.146
336.00 1.146
336.10 1.146
336.20 1.146
336.30 1.146
336.40 1.146
336.50 1.146
336.60 1.146
336.70 1.146
336.80 1.147
336.90 1.147
337.00 1.147
337.10 1.147
337.20 1.147
337.30 1.147
337.40 1.147
337.50 1.147
337.60 1.147
337.70 1.147
337.80 1.147
337.90 1.147
338.00 1.148
338.10 1.148
338.20 1.148
338.30 1.148
338.40 1.148
338.50 1.148
338.60 1.148
338.70 1.148
338.80 1.148
338.90 1.148
339.00 1.148
339.10 1.148
339.20 1.149
339.30 1.149
339.40 1.149
339.50 1.149
339.60 1.149
339.70 1.149
339.80 1.149
339.90 1.149
340.00 1.149
340.10 1.149
340.20 1.149
340.30 1.149
340.40 1.149
340.50 1.149
340.60 1.15
340.70 1.15
340.80 1.15
340.90 1.15
341.00 1.15
341.10 1.15
341.20 1.15
341.30 1.15
341.40 1.15
341.50 1.15
341.60 1.15
341.70 1.15
341.80 1.15
341.90 1.15
342.00 1.15
342.10 1.151
342.20 1.151
342.30 1.151
342.40 1.151
342.50 1.151
342.60 1.151
342.70 1.151
342.80 1.151
342.90 1.151
343.00 1.151
343.10 1.151
343.20 1.151
343.30 1.151
343.40 1.151
343.50 1.151
343.60 1.151
343.70 1.151
343.80 1.152
343.90 1.152
344.00 1.152
344.10 1.152
344.20 1.152
344.30 1.152
344.40 1.152
344.50 1.152
344.60 1.152
344.70 1.152
344.80 1.152
344.90 1.152
345.00 1.152
345.10 1.152
345.20 1.152
345.30 1.152
345.40 1.152
345.50 1.152
345.60 1.152
345.70 1.153
345.80 1.153
345.90 1.153
346.00 1.153
346.10 1.153
346.20 1.153
346.30 1.153
346.40 1.153
346.50 1.153
346.60 1.153
346.70 1.153
346.80 1.153
346.90 1.153
347.00 1.153
347.10 1.153
347.20 1.153
347.30 1.153
347.40 1.153
347.50 1.153
347.60 1.153
347.70 1.153
347.80 1.153
347.90 1.153
348.00 1.154
348.10 1.154
348.20 1.154
348.30 1.154
348.40 1.154
348.50 1.154
348.60 1.154
348.70 1.154
348.80 1.154
348.90 1.154
349.00 1.154
349.10 1.154
349.20 1.154
349.30 1.154
349.40 1.154
349.50 1.154
349.60 1.154
349.70 1.154
349.80 1.154
349.90 1.154
350.00 1.154
350.10 1.154
350.20 1.154
350.30 1.154
350.40 1.154
350.50 1.154
350.60 1.154
350.70 1.154
350.80 1.154
350.90 1.154
351.00 1.154
351.10 1.155
351.20 1.155
351.30 1.155
351.40 1.155
351.50 1.155
351.60 1.155
351.70 1.155
351.80 1.155
351.90 1.155
352.00 1.155
352.10 1.155
352.20 1.155
352.30 1.155
352.40 1.155
352.50 1.155
352.60 1.155
352.70 1.155
352.80 1.155
352.90 1.155
353.00 1.155
353.10 1.155
353.20 1.155
353.30 1.155
353.40 1.155
353.50 1.155
353.60 1.155
353.70 1.155
353.80 1.155
353.90 1.155
354.00 1.155
354.10 1.155
354.20 1.155
354.30 1.155
354.40 1.155
354.50 1.155
354.60 1.155
354.70 1.155
354.80 1.155
354.90 1.155
355.00 1.155
355.10 1.155
355.20 1.155
355.30 1.155
355.40 1.155
355.50 1.155
355.60 1.155
355.70 1.155
355.80 1.155
355.90 1.155
356.00 1.155
356.10 1.155
356.20 1.155
356.30 1.155
356.40 1.155
356.50 1.155
356.60 1.155
356.70 1.155
356.80 1.155
356.90 1.155
357.00 1.155
357.10 1.155
357.20 1.155
357.30 1.155
357.40 1.155
357.50 1.155
357.60 1.155
357.70 1.155
357.80 1.155
357.90 1.155
358.00 1.155
358.10 1.155
358.20 1.155
358.30 1.155
358.40 1.155
358.50 1.155
358.60 1.155
358.70 1.155
358.80 1.155
358.90 1.155
359.00 1.155
359.10 1.155
359.20 1.155
359.30 1.155
359.40 1.155
359.50 1.155
359.60 1.155
359.70 1.155
359.80 1.155
359.90 1.155
360.00 1.155
360.10 1.155
360.20 1.155
360.30 1.155
360.40 1.155
360.50 1.155
360.60 1.155
360.70 1.155
360.80 1.155
360.90 1.155
361.00 1.155
361.10 1.155
361.20 1.155
361.30 1.155
361.40 1.155
361.50 1.155
361.60 1.155
361.70 1.155
361.80 1.155
361.90 1.155
362.00 1.155
362.10 1.155
362.20 1.155
362.30 1.155
362.40 1.155
362.50 1.155
362.60 1.155
362.70 1.155
362.80 1.155
362.90 1.155
363.00 1.155
363.10 1.155
363.20 1.155
363.30 1.155
363.40 1.155
363.50 1.155
363.60 1.155
363.70 1.155
363.80 1.155
363.90 1.155
364.00 1.155
364.10 1.155
364.20 1.155
364.30 1.155
364.40 1.155
364.50 1.155
364.60 1.154
364.70 1.154
364.80 1.154
364.90 1.154
365.00 1.154
365.10 1.154
365.20 1.154
365.30 1.154
365.40 1.154
365.50 1.154
365.60 1.154
365.70 1.154
365.80 1.154
365.90 1.154
366.00 1.154
366.10 1.154
366.20 1.154
366.30 1.154
366.40 1.154
366.50 1.154
366.60 1.154
366.70 1.154
366.80 1.154
366.90 1.154
367.00 1.154
367.10 1.154
367.20 1.154
367.30 1.154
367.40 1.154
367.50 1.154
367.60 1.154
367.70 1.153
367.80 1.153
367.90 1.153
368.00 1.153
368.10 1.153
368.20 1.153
368.30 1.153
368.40 1.153
368.50 1.153
368.60 1.153
368.70 1.153
368.80 1.153
368.90 1.153
369.00 1.153
369.10 1.153
369.20 1.153
369.30 1.153
369.40 1.153
369.50 1.153
369.60 1.153
369.70 1.153
369.80 1.153
369.90 1.153
370.00 1.153
370.10 1.153
370.20 1.153
370.30 1.153
370.40 1.153
370.50 1.153
370.60 1.153
370.70 1.153
370.80 1.153
370.90 1.153
371.00 1.153
371.10 1.153
371.20 1.153
371.30 1.153
371.40 1.153
371.50 1.153
371.60 1.154
371.70 1.154
371.80 1.154
371.90 1.154
372.00 1.154
372.10 1.154
372.20 1.154
372.30 1.155
372.40 1.155
372.50 1.155
372.60 1.155
372.70 1.156
372.80 1.156
372.90 1.156
373.00 1.156
373.10 1.157
373.20 1.157
373.30 1.157
373.40 1.157
373.50 1.158
373.60 1.158
373.70 1.158
373.80 1.158
373.90 1.159
374.00 1.159
374.10 1.159
374.20 1.16
374.30 1.16
374.40 1.161
374.50 1.161
374.60 1.162
374.70 1.162
374.80 1.162
374.90 1.163
375.00 1.163
375.10 1.164
375.20 1.164
375.30 1.165
375.40 1.165
375.50 1.165
375.60 1.166
375.70 1.166
375.80 1.167
375.90 1.167
376.00 1.168
376.10 1.168
376.20 1.168
376.30 1.169
376.40 1.169
376.50 1.169
376.60 1.17
376.70 1.17
376.80 1.171
376.90 1.171
377.00 1.171
377.10 1.171
377.20 1.171
377.30 1.172
377.40 1.172
377.50 1.172
377.60 1.172
377.70 1.172
377.80 1.172
377.90 1.172
378.00 1.172
378.10 1.171
378.20 1.169
378.30 1.168
378.40 1.167
378.50 1.165
378.60 1.164
378.70 1.163
378.80 1.161
378.90 1.16
379.00 1.159
379.10 1.155
379.20 1.152
379.30 1.149
379.40 1.146
379.50 1.142
379.60 1.139
379.70 1.136
379.80 1.132
379.90 1.129
380.00 1.126
380.10 1.13
380.20 1.135
380.30 1.14
380.40 1.144
380.50 1.149
380.60 1.154
380.70 1.158
380.80 1.163
380.90 1.168
381.00 1.172
381.10 1.173
381.20 1.174
381.30 1.175
381.40 1.176
381.50 1.177
381.60 1.177
381.70 1.177
381.80 1.176
381.90 1.176
382.00 1.175
382.10 1.174
382.20 1.172
382.30 1.165
382.40 1.159
382.50 1.153
382.60 1.146
382.70 1.14
382.80 1.133
382.90 1.127
383.00 1.12
383.10 1.114
383.20 1.108
383.30 1.09
383.40 1.063
383.50 1.004
383.60 1.022
383.70 1.07
383.80 1.095
383.90 1.112
384.00 1.125
384.10 1.136
384.20 1.145
384.30 1.152
384.40 1.159
384.50 1.164
384.60 1.168
384.70 1.172
384.80 1.175
384.90 1.177
385.00 1.18
385.10 1.181
385.20 1.183
385.30 1.184
385.40 1.185
385.50 1.186
385.60 1.186
385.70 1.187
385.80 1.187
385.90 1.187
386.00 1.188
386.10 1.188
386.20 1.188
386.30 1.188
386.40 1.187
386.50 1.187
386.60 1.187
386.70 1.186
386.80 1.186
386.90 1.185
387.00 1.184
387.10 1.183
387.20 1.181
387.30 1.179
387.40 1.177
387.50 1.175
387.60 1.171
387.70 1.168
387.80 1.163
387.90 1.157
388.00 1.15
388.10 1.141
388.20 1.13
388.30 1.116
388.40 1.098
388.50 1.076
388.60 1.051
388.70 1.011
388.80 0.9364
388.90 0.8289
389.00 0.9327
389.10 1.006
389.20 1.048
389.30 1.074
389.40 1.097
389.50 1.115
389.60 1.129
389.70 1.14
389.80 1.15
389.90 1.157
390.00 1.163
390.10 1.168
390.20 1.172
390.30 1.175
390.40 1.178
390.50 1.18
390.60 1.182
390.70 1.184
390.80 1.185
390.90 1.187
391.00 1.188
391.10 1.188
391.20 1.189
391.30 1.19
391.40 1.191
391.50 1.191
391.60 1.191
391.70 1.192
391.80 1.192
391.90 1.192
392.00 1.193
392.10 1.193
392.20 1.193
392.30 1.193
392.40 1.193
392.50 1.193
392.60 1.193
392.70 1.193
392.80 1.193
392.90 1.193
393.00 1.193
393.10 1.193
393.20 1.193
393.30 1.193
393.40 1.193
393.50 1.192
393.60 1.192
393.70 1.192
393.80 1.191
393.90 1.191
394.00 1.191
394.10 1.19
394.20 1.19
394.30 1.189
394.40 1.188
394.50 1.188
394.60 1.187
394.70 1.186
394.80 1.185
394.90 1.183
395.00 1.182
395.10 1.18
395.20 1.178
395.30 1.176
395.40 1.174
395.50 1.171
395.60 1.167
395.70 1.163
395.80 1.158
395.90 1.152
396.00 1.145
396.10 1.136
396.20 1.124
396.30 1.108
396.40 1.091
396.50 1.064
396.60 1.032
396.70 0.9933
396.80 0.9304
396.90 0.8129
397.00 0.6409
397.10 0.8045
397.20 0.9198
397.30 0.9867
397.40 1.027
397.50 1.06
397.60 1.087
397.70 1.106
397.80 1.121
397.90 1.134
398.00 1.143
398.10 1.15
398.20 1.156
398.30 1.161
398.40 1.165
398.50 1.169
398.60 1.171
398.70 1.174
398.80 1.176
398.90 1.178
399.00 1.179
399.10 1.181
399.20 1.182
399.30 1.183
399.40 1.184
399.50 1.184
399.60 1.185
399.70 1.186
399.80 1.186
399.90 1.187
400.00 1.187
400.10 1.187
400.20 1.188
400.30 1.188
400.40 1.188
400.50 1.188
400.60 1.189
400.70 1.189
400.80 1.189
400.90 1.189
401.00 1.189
401.10 1.189
401.20 1.189
401.30 1.189
401.40 1.189
401.50 1.189
401.60 1.189
401.70 1.189
401.80 1.189
401.90 1.189
402.00 1.189
402.10 1.189
402.20 1.189
402.30 1.189
402.40 1.189
402.50 1.189
402.60 1.189
402.70 1.189
402.80 1.189
402.90 1.189
403.00 1.188
403.10 1.188
403.20 1.188
403.30 1.188
403.40 1.188
403.50 1.188
403.60 1.188
403.70 1.188
403.80 1.187
403.90 1.187
404.00 1.187
404.10 1.187
404.20 1.187
404.30 1.187
404.40 1.187
404.50 1.186
404.60 1.186
404.70 1.186
404.80 1.186
404.90 1.186
405.00 1.185
405.10 1.185
405.20 1.185
405.30 1.185
405.40 1.185
405.50 1.184
405.60 1.184
405.70 1.184
405.80 1.184
405.90 1.183
406.00 1.183
406.10 1.183
406.20 1.182
406.30 1.182
406.40 1.181
406.50 1.181
406.60 1.181
406.70 1.18
406.80 1.18
406.90 1.179
407.00 1.179
407.10 1.178
407.20 1.177
407.30 1.177
407.40 1.176
407.50 1.175
407.60 1.174
407.70 1.173
407.80 1.172
407.90 1.17
408.00 1.169
408.10 1.167
408.20 1.165
408.30 1.163
408.40 1.16
408.50 1.157
408.60 1.154
408.70 1.15
408.80 1.146
408.90 1.141
409.00 1.135
409.10 1.127
409.20 1.117
409.30 1.107
409.40 1.091
409.50 1.072
409.60 1.049
409.70 1.014
409.80 0.9693
409.90 0.9144
410.00 0.814
410.10 0.6847
410.20 0.5266
410.30 0.7305
410.40 0.8711
410.50 0.9485
410.60 0.9948
410.70 1.033
410.80 1.062
410.90 1.082
411.00 1.098
411.10 1.111
411.20 1.121
411.30 1.129
411.40 1.136
411.50 1.141
411.60 1.145
411.70 1.149
411.80 1.152
411.90 1.155
412.00 1.157
412.10 1.159
412.20 1.161
412.30 1.163
412.40 1.164
412.50 1.165
412.60 1.166
412.70 1.167
412.80 1.168
412.90 1.168
413.00 1.169
413.10 1.169
413.20 1.17
413.30 1.17
413.40 1.17
413.50 1.171
413.60 1.171
413.70 1.171
413.80 1.171
413.90 1.171
414.00 1.172
414.10 1.172
414.20 1.172
414.30 1.172
414.40 1.172
414.50 1.172
414.60 1.172
414.70 1.172
414.80 1.172
414.90 1.172
415.00 1.172
415.10 1.172
415.20 1.172
415.30 1.172
415.40 1.172
415.50 1.172
415.60 1.172
415.70 1.172
415.80 1.171
415.90 1.171
416.00 1.171
416.10 1.171
416.20 1.171
416.30 1.171
416.40 1.171
416.50 1.171
416.60 1.171
416.70 1.171
416.80 1.17
416.90 1.17
417.00 1.17
417.10 1.17
417.20 1.17
417.30 1.17
417.40 1.17
417.50 1.17
417.60 1.17
417.70 1.169
417.80 1.169
417.90 1.169
418.00 1.169
418.10 1.169
418.20 1.169
418.30 1.169
418.40 1.168
418.50 1.168
418.60 1.168
418.70 1.168
418.80 1.168
418.90 1.168
419.00 1.168
419.10 1.167
419.20 1.167
419.30 1.167
419.40 1.167
419.50 1.167
419.60 1.167
419.70 1.167
419.80 1.166
419.90 1.166
420.00 1.166
420.10 1.166
420.20 1.166
420.30 1.166
420.40 1.165
420.50 1.165
420.60 1.165
420.70 1.165
420.80 1.165
420.90 1.165
421.00 1.164
421.10 1.164
421.20 1.164
421.30 1.164
421.40 1.164
421.50 1.164
421.60 1.164
421.70 1.163
421.80 1.163
421.90 1.163
422.00 1.163
422.10 1.163
422.20 1.162
422.30 1.162
422.40 1.162
422.50 1.162
422.60 1.162
422.70 1.162
422.80 1.161
422.90 1.161
423.00 1.161
423.10 1.161
423.20 1.161
423.30 1.161
423.40 1.16
423.50 1.16
423.60 1.16
423.70 1.16
423.80 1.16
423.90 1.16
424.00 1.159
424.10 1.159
424.20 1.159
424.30 1.159
424.40 1.159
424.50 1.158
424.60 1.158
424.70 1.158
424.80 1.158
424.90 1.158
425.00 1.158
425.10 1.157
425.20 1.157
425.30 1.157
425.40 1.157
425.50 1.157
425.60 1.156
425.70 1.156
425.80 1.156
425.90 1.156
426.00 1.156
426.10 1.156
426.20 1.155
426.30 1.155
426.40 1.155
426.50 1.155
426.60 1.155
426.70 1.154
426.80 1.154
426.90 1.154
427.00 1.154
427.10 1.153
427.20 1.153
427.30 1.153
427.40 1.153
427.50 1.153
427.60 1.152
427.70 1.152
427.80 1.152
427.90 1.152
428.00 1.151
428.10 1.151
428.20 1.151
428.30 1.151
428.40 1.15
428.50 1.15
428.60 1.15
428.70 1.149
428.80 1.149
428.90 1.149
429.00 1.148
429.10 1.148
429.20 1.148
429.30 1.147
429.40 1.147
429.50 1.147
429.60 1.146
429.70 1.146
429.80 1.146
429.90 1.145
430.00 1.145
430.10 1.144
430.20 1.144
430.30 1.143
430.40 1.143
430.50 1.142
430.60 1.142
430.70 1.141
430.80 1.14
430.90 1.14
431.00 1.139
431.10 1.138
431.20 1.137
431.30 1.137
431.40 1.136
431.50 1.135
431.60 1.133
431.70 1.132
431.80 1.131
431.90 1.129
432.00 1.127
432.10 1.125
432.20 1.122
432.30 1.12
432.40 1.116
432.50 1.112
432.60 1.108
432.70 1.102
432.80 1.095
432.90 1.088
433.00 1.079
433.10 1.068
433.20 1.055
433.30 1.04
433.40 1.018
433.50 0.9903
433.60 0.9564
433.70 0.9009
433.80 0.8224
433.90 0.7209
434.00 0.4881
434.10 0.4921
434.20 0.7326
434.30 0.83
434.40 0.9055
434.50 0.9591
434.60 0.9919
434.70 1.019
434.80 1.04
434.90 1.054
435.00 1.066
435.10 1.077
435.20 1.085
435.30 1.092
435.40 1.099
435.50 1.103
435.60 1.108
435.70 1.111
435.80 1.114
435.90 1.116
436.00 1.119
436.10 1.12
436.20 1.122
436.30 1.123
436.40 1.124
436.50 1.125
436.60 1.126
436.70 1.126
436.80 1.127
436.90 1.127
437.00 1.128
437.10 1.128
437.20 1.129
437.30 1.129
437.40 1.129
437.50 1.129
437.60 1.129
437.70 1.13
437.80 1.13
437.90 1.13
438.00 1.13
438.10 1.13
438.20 1.13
438.30 1.13
438.40 1.13
438.50 1.13
438.60 1.13
438.70 1.13
438.80 1.13
438.90 1.13
439.00 1.13
439.10 1.13
439.20 1.13
439.30 1.13
439.40 1.13
439.50 1.13
439.60 1.13
439.70 1.129
439.80 1.129
439.90 1.129
440.00 1.129
440.10 1.129
440.20 1.129
440.30 1.129
440.40 1.129
440.50 1.129
440.60 1.128
440.70 1.128
440.80 1.128
440.90 1.128
441.00 1.128
441.10 1.128
441.20 1.127
441.30 1.127
441.40 1.127
441.50 1.127
441.60 1.127
441.70 1.127
441.80 1.126
441.90 1.126
442.00 1.126
442.10 1.126
442.20 1.126
442.30 1.126
442.40 1.125
442.50 1.125
442.60 1.125
442.70 1.125
442.80 1.125
442.90 1.124
443.00 1.124
443.10 1.124
443.20 1.124
443.30 1.124
443.40 1.124
443.50 1.123
443.60 1.123
443.70 1.123
443.80 1.123
443.90 1.123
444.00 1.122
444.10 1.122
444.20 1.122
444.30 1.122
444.40 1.122
444.50 1.121
444.60 1.121
444.70 1.121
444.80 1.121
444.90 1.121
445.00 1.121
445.10 1.12
445.20 1.12
445.30 1.12
445.40 1.12
445.50 1.12
445.60 1.119
445.70 1.119
445.80 1.119
445.90 1.119
446.00 1.119
446.10 1.118
446.20 1.118
446.30 1.118
446.40 1.118
446.50 1.118
446.60 1.117
446.70 1.117
446.80 1.117
446.90 1.117
447.00 1.117
447.10 1.116
447.20 1.116
447.30 1.116
447.40 1.116
447.50 1.116
447.60 1.115
447.70 1.115
447.80 1.115
447.90 1.115
448.00 1.115
448.10 1.114
448.20 1.114
448.30 1.114
448.40 1.114
448.50 1.114
448.60 1.113
448.70 1.113
448.80 1.113
448.90 1.113
449.00 1.113
449.10 1.112
449.20 1.112
449.30 1.112
449.40 1.112
449.50 1.112
449.60 1.111
449.70 1.111
449.80 1.111
449.90 1.111
450.00 1.111
450.10 1.11
450.20 1.11
450.30 1.11
450.40 1.11
450.50 1.11
450.60 1.109
450.70 1.109
450.80 1.109
450.90 1.109
451.00 1.108
451.10 1.108
451.20 1.108
451.30 1.108
451.40 1.108
451.50 1.107
451.60 1.107
451.70 1.107
451.80 1.107
451.90 1.107
452.00 1.106
452.10 1.106
452.20 1.106
452.30 1.106
452.40 1.106
452.50 1.105
452.60 1.105
452.70 1.105
452.80 1.105
452.90 1.105
453.00 1.104
453.10 1.104
453.20 1.104
453.30 1.104
453.40 1.104
453.50 1.103
453.60 1.103
453.70 1.103
