# Version 2.1 - nm, norm@500 to 1, cut digits, bergeron_10500_95.dat_10500
# Wavelength(nm)  Flambda(ergs/cm^s/s/nm)
300.00 2.061
300.10 2.06
300.20 2.059
300.30 2.058
300.40 2.058
300.50 2.057
300.60 2.056
300.70 2.055
300.80 2.054
300.90 2.053
301.00 2.053
301.10 2.052
301.20 2.051
301.30 2.05
301.40 2.049
301.50 2.048
301.60 2.048
301.70 2.047
301.80 2.046
301.90 2.045
302.00 2.044
302.10 2.043
302.20 2.043
302.30 2.042
302.40 2.041
302.50 2.04
302.60 2.039
302.70 2.038
302.80 2.038
302.90 2.037
303.00 2.036
303.10 2.035
303.20 2.034
303.30 2.033
303.40 2.033
303.50 2.032
303.60 2.031
303.70 2.03
303.80 2.029
303.90 2.028
304.00 2.028
304.10 2.027
304.20 2.026
304.30 2.025
304.40 2.024
304.50 2.023
304.60 2.023
304.70 2.022
304.80 2.021
304.90 2.02
305.00 2.019
305.10 2.018
305.20 2.018
305.30 2.017
305.40 2.016
305.50 2.015
305.60 2.014
305.70 2.013
305.80 2.013
305.90 2.012
306.00 2.011
306.10 2.01
306.20 2.009
306.30 2.008
306.40 2.008
306.50 2.007
306.60 2.006
306.70 2.005
306.80 2.004
306.90 2.003
307.00 2.003
307.10 2.002
307.20 2.001
307.30 2
307.40 1.999
307.50 1.998
307.60 1.998
307.70 1.997
307.80 1.996
307.90 1.995
308.00 1.994
308.10 1.993
308.20 1.993
308.30 1.992
308.40 1.991
308.50 1.99
308.60 1.989
308.70 1.988
308.80 1.988
308.90 1.987
309.00 1.986
309.10 1.985
309.20 1.984
309.30 1.983
309.40 1.983
309.50 1.982
309.60 1.981
309.70 1.98
309.80 1.979
309.90 1.978
310.00 1.978
310.10 1.977
310.20 1.976
310.30 1.975
310.40 1.974
310.50 1.973
310.60 1.973
310.70 1.972
310.80 1.971
310.90 1.97
311.00 1.969
311.10 1.968
311.20 1.968
311.30 1.967
311.40 1.966
311.50 1.965
311.60 1.964
311.70 1.963
311.80 1.963
311.90 1.962
312.00 1.961
312.10 1.96
312.20 1.959
312.30 1.958
312.40 1.958
312.50 1.957
312.60 1.956
312.70 1.955
312.80 1.954
312.90 1.953
313.00 1.953
313.10 1.952
313.20 1.951
313.30 1.95
313.40 1.949
313.50 1.948
313.60 1.948
313.70 1.947
313.80 1.946
313.90 1.945
314.00 1.944
314.10 1.944
314.20 1.943
314.30 1.942
314.40 1.941
314.50 1.94
314.60 1.939
314.70 1.939
314.80 1.938
314.90 1.937
315.00 1.936
315.10 1.935
315.20 1.934
315.30 1.934
315.40 1.933
315.50 1.932
315.60 1.931
315.70 1.93
315.80 1.929
315.90 1.929
316.00 1.928
316.10 1.927
316.20 1.926
316.30 1.925
316.40 1.924
316.50 1.924
316.60 1.923
316.70 1.922
316.80 1.921
316.90 1.92
317.00 1.919
317.10 1.919
317.20 1.918
317.30 1.917
317.40 1.916
317.50 1.915
317.60 1.914
317.70 1.914
317.80 1.913
317.90 1.912
318.00 1.911
318.10 1.91
318.20 1.909
318.30 1.909
318.40 1.908
318.50 1.907
318.60 1.906
318.70 1.905
318.80 1.905
318.90 1.904
319.00 1.903
319.10 1.902
319.20 1.901
319.30 1.9
319.40 1.9
319.50 1.899
319.60 1.898
319.70 1.897
319.80 1.896
319.90 1.895
320.00 1.895
320.10 1.894
320.20 1.893
320.30 1.892
320.40 1.891
320.50 1.89
320.60 1.89
320.70 1.889
320.80 1.888
320.90 1.887
321.00 1.886
321.10 1.886
321.20 1.885
321.30 1.884
321.40 1.883
321.50 1.882
321.60 1.881
321.70 1.881
321.80 1.88
321.90 1.879
322.00 1.878
322.10 1.877
322.20 1.876
322.30 1.876
322.40 1.875
322.50 1.874
322.60 1.873
322.70 1.872
322.80 1.872
322.90 1.871
323.00 1.87
323.10 1.869
323.20 1.868
323.30 1.867
323.40 1.867
323.50 1.866
323.60 1.865
323.70 1.864
323.80 1.863
323.90 1.863
324.00 1.862
324.10 1.861
324.20 1.86
324.30 1.859
324.40 1.858
324.50 1.858
324.60 1.857
324.70 1.856
324.80 1.855
324.90 1.854
325.00 1.853
325.10 1.853
325.20 1.852
325.30 1.851
325.40 1.85
325.50 1.849
325.60 1.849
325.70 1.848
325.80 1.847
325.90 1.846
326.00 1.845
326.10 1.844
326.20 1.844
326.30 1.843
326.40 1.842
326.50 1.841
326.60 1.84
326.70 1.84
326.80 1.839
326.90 1.838
327.00 1.837
327.10 1.836
327.20 1.835
327.30 1.835
327.40 1.834
327.50 1.833
327.60 1.832
327.70 1.831
327.80 1.831
327.90 1.83
328.00 1.829
328.10 1.828
328.20 1.827
328.30 1.827
328.40 1.826
328.50 1.825
328.60 1.824
328.70 1.823
328.80 1.822
328.90 1.822
329.00 1.821
329.10 1.82
329.20 1.819
329.30 1.818
329.40 1.818
329.50 1.817
329.60 1.816
329.70 1.815
329.80 1.814
329.90 1.814
330.00 1.813
330.10 1.812
330.20 1.811
330.30 1.81
330.40 1.809
330.50 1.809
330.60 1.808
330.70 1.807
330.80 1.806
330.90 1.805
331.00 1.805
331.10 1.804
331.20 1.803
331.30 1.802
331.40 1.801
331.50 1.801
331.60 1.8
331.70 1.799
331.80 1.798
331.90 1.797
332.00 1.797
332.10 1.796
332.20 1.795
332.30 1.794
332.40 1.793
332.50 1.793
332.60 1.792
332.70 1.791
332.80 1.79
332.90 1.789
333.00 1.788
333.10 1.788
333.20 1.787
333.30 1.786
333.40 1.785
333.50 1.784
333.60 1.784
333.70 1.783
333.80 1.782
333.90 1.781
334.00 1.78
334.10 1.78
334.20 1.779
334.30 1.778
334.40 1.777
334.50 1.776
334.60 1.776
334.70 1.775
334.80 1.774
334.90 1.773
335.00 1.772
335.10 1.772
335.20 1.771
335.30 1.77
335.40 1.769
335.50 1.768
335.60 1.768
335.70 1.767
335.80 1.766
335.90 1.765
336.00 1.764
336.10 1.764
336.20 1.763
336.30 1.762
336.40 1.761
336.50 1.76
336.60 1.76
336.70 1.759
336.80 1.758
336.90 1.757
337.00 1.756
337.10 1.756
337.20 1.755
337.30 1.754
337.40 1.753
337.50 1.752
337.60 1.752
337.70 1.751
337.80 1.75
337.90 1.749
338.00 1.748
338.10 1.748
338.20 1.747
338.30 1.746
338.40 1.745
338.50 1.744
338.60 1.744
338.70 1.743
338.80 1.742
338.90 1.741
339.00 1.74
339.10 1.74
339.20 1.739
339.30 1.738
339.40 1.737
339.50 1.737
339.60 1.736
339.70 1.735
339.80 1.734
339.90 1.733
340.00 1.733
340.10 1.732
340.20 1.731
340.30 1.73
340.40 1.729
340.50 1.729
340.60 1.728
340.70 1.727
340.80 1.726
340.90 1.725
341.00 1.725
341.10 1.724
341.20 1.723
341.30 1.722
341.40 1.721
341.50 1.721
341.60 1.72
341.70 1.719
341.80 1.718
341.90 1.718
342.00 1.717
342.10 1.716
342.20 1.715
342.30 1.714
342.40 1.714
342.50 1.713
342.60 1.712
342.70 1.711
342.80 1.71
342.90 1.71
343.00 1.709
343.10 1.708
343.20 1.707
343.30 1.707
343.40 1.706
343.50 1.705
343.60 1.704
343.70 1.703
343.80 1.703
343.90 1.702
344.00 1.701
344.10 1.7
344.20 1.699
344.30 1.699
344.40 1.698
344.50 1.697
344.60 1.696
344.70 1.696
344.80 1.695
344.90 1.694
345.00 1.693
345.10 1.692
345.20 1.692
345.30 1.691
345.40 1.69
345.50 1.689
345.60 1.689
345.70 1.688
345.80 1.687
345.90 1.686
346.00 1.685
346.10 1.685
346.20 1.684
346.30 1.683
346.40 1.682
346.50 1.682
346.60 1.681
346.70 1.68
346.80 1.679
346.90 1.678
347.00 1.678
347.10 1.677
347.20 1.676
347.30 1.675
347.40 1.675
347.50 1.674
347.60 1.673
347.70 1.672
347.80 1.671
347.90 1.671
348.00 1.67
348.10 1.669
348.20 1.668
348.30 1.668
348.40 1.667
348.50 1.666
348.60 1.665
348.70 1.664
348.80 1.664
348.90 1.663
349.00 1.662
349.10 1.661
349.20 1.661
349.30 1.66
349.40 1.659
349.50 1.658
349.60 1.658
349.70 1.657
349.80 1.656
349.90 1.655
350.00 1.654
350.10 1.654
350.20 1.653
350.30 1.652
350.40 1.651
350.50 1.651
350.60 1.65
350.70 1.649
350.80 1.648
350.90 1.648
351.00 1.647
351.10 1.646
351.20 1.645
351.30 1.644
351.40 1.644
351.50 1.643
351.60 1.642
351.70 1.641
351.80 1.641
351.90 1.64
352.00 1.639
352.10 1.638
352.20 1.638
352.30 1.637
352.40 1.636
352.50 1.635
352.60 1.635
352.70 1.634
352.80 1.633
352.90 1.632
353.00 1.632
353.10 1.631
353.20 1.63
353.30 1.629
353.40 1.628
353.50 1.628
353.60 1.627
353.70 1.626
353.80 1.625
353.90 1.625
354.00 1.624
354.10 1.623
354.20 1.622
354.30 1.622
354.40 1.621
354.50 1.62
354.60 1.619
354.70 1.619
354.80 1.618
354.90 1.617
355.00 1.616
355.10 1.616
355.20 1.615
355.30 1.614
355.40 1.613
355.50 1.613
355.60 1.612
355.70 1.611
355.80 1.61
355.90 1.61
356.00 1.609
356.10 1.608
356.20 1.607
356.30 1.607
356.40 1.606
356.50 1.605
356.60 1.604
356.70 1.603
356.80 1.603
356.90 1.602
357.00 1.601
357.10 1.6
357.20 1.6
357.30 1.599
357.40 1.598
357.50 1.597
357.60 1.597
357.70 1.596
357.80 1.595
357.90 1.595
358.00 1.594
358.10 1.593
358.20 1.592
358.30 1.592
358.40 1.591
358.50 1.59
358.60 1.589
358.70 1.589
358.80 1.588
358.90 1.587
359.00 1.586
359.10 1.586
359.20 1.585
359.30 1.584
359.40 1.583
359.50 1.583
359.60 1.582
359.70 1.581
359.80 1.58
359.90 1.58
360.00 1.579
360.10 1.578
360.20 1.577
360.30 1.577
360.40 1.576
360.50 1.575
360.60 1.574
360.70 1.574
360.80 1.573
360.90 1.572
361.00 1.571
361.10 1.571
361.20 1.57
361.30 1.569
361.40 1.568
361.50 1.568
361.60 1.567
361.70 1.566
361.80 1.565
361.90 1.565
362.00 1.564
362.10 1.563
362.20 1.563
362.30 1.562
362.40 1.561
362.50 1.56
362.60 1.56
362.70 1.559
362.80 1.558
362.90 1.557
363.00 1.557
363.10 1.556
363.20 1.555
363.30 1.554
363.40 1.553
363.50 1.552
363.60 1.552
363.70 1.551
363.80 1.55
363.90 1.549
364.00 1.548
364.10 1.547
364.20 1.546
364.30 1.546
364.40 1.545
364.50 1.544
364.60 1.543
364.70 1.542
364.80 1.541
364.90 1.54
365.00 1.54
365.10 1.539
365.20 1.538
365.30 1.537
365.40 1.536
365.50 1.535
365.60 1.534
365.70 1.533
365.80 1.533
365.90 1.532
366.00 1.531
366.10 1.53
366.20 1.529
366.30 1.529
366.40 1.528
366.50 1.527
366.60 1.526
366.70 1.525
366.80 1.525
366.90 1.524
367.00 1.523
367.10 1.522
367.20 1.522
367.30 1.521
367.40 1.52
367.50 1.519
367.60 1.519
367.70 1.518
367.80 1.517
367.90 1.516
368.00 1.516
368.10 1.515
368.20 1.514
368.30 1.513
368.40 1.513
368.50 1.512
368.60 1.511
368.70 1.51
368.80 1.51
368.90 1.509
369.00 1.508
369.10 1.507
369.20 1.506
369.30 1.506
369.40 1.505
369.50 1.504
369.60 1.503
369.70 1.503
369.80 1.502
369.90 1.501
370.00 1.5
370.10 1.5
370.20 1.499
370.30 1.498
370.40 1.498
370.50 1.497
370.60 1.496
370.70 1.495
370.80 1.495
370.90 1.494
371.00 1.493
371.10 1.493
371.20 1.492
371.30 1.491
371.40 1.49
371.50 1.49
371.60 1.489
371.70 1.488
371.80 1.488
371.90 1.487
372.00 1.486
372.10 1.486
372.20 1.485
372.30 1.484
372.40 1.484
372.50 1.483
372.60 1.483
372.70 1.482
372.80 1.481
372.90 1.481
373.00 1.48
373.10 1.48
373.20 1.479
373.30 1.478
373.40 1.478
373.50 1.477
373.60 1.477
373.70 1.476
373.80 1.475
373.90 1.475
374.00 1.474
374.10 1.474
374.20 1.473
374.30 1.473
374.40 1.472
374.50 1.472
374.60 1.471
374.70 1.471
374.80 1.47
374.90 1.47
375.00 1.469
375.10 1.469
375.20 1.468
375.30 1.468
375.40 1.467
375.50 1.467
375.60 1.466
375.70 1.466
375.80 1.465
375.90 1.465
376.00 1.464
376.10 1.464
376.20 1.464
376.30 1.463
376.40 1.463
376.50 1.462
376.60 1.462
376.70 1.461
376.80 1.461
376.90 1.46
377.00 1.46
377.10 1.459
377.20 1.458
377.30 1.458
377.40 1.457
377.50 1.456
377.60 1.455
377.70 1.455
377.80 1.454
377.90 1.453
378.00 1.453
378.10 1.451
378.20 1.45
378.30 1.448
378.40 1.447
378.50 1.445
378.60 1.444
378.70 1.443
378.80 1.441
378.90 1.44
379.00 1.438
379.10 1.437
379.20 1.436
379.30 1.435
379.40 1.434
379.50 1.433
379.60 1.432
379.70 1.431
379.80 1.43
379.90 1.429
380.00 1.427
380.10 1.428
380.20 1.429
380.30 1.43
380.40 1.43
380.50 1.431
380.60 1.432
380.70 1.432
380.80 1.433
380.90 1.434
381.00 1.434
381.10 1.434
381.20 1.434
381.30 1.434
381.40 1.434
381.50 1.434
381.60 1.434
381.70 1.433
381.80 1.432
381.90 1.431
382.00 1.429
382.10 1.428
382.20 1.426
382.30 1.423
382.40 1.42
382.50 1.417
382.60 1.414
382.70 1.411
382.80 1.407
382.90 1.404
383.00 1.401
383.10 1.398
383.20 1.395
383.30 1.393
383.40 1.39
383.50 1.388
383.60 1.388
383.70 1.39
383.80 1.393
383.90 1.395
384.00 1.397
384.10 1.401
384.20 1.405
384.30 1.408
384.40 1.412
384.50 1.415
384.60 1.417
384.70 1.42
384.80 1.421
384.90 1.423
385.00 1.424
385.10 1.426
385.20 1.426
385.30 1.427
385.40 1.428
385.50 1.428
385.60 1.428
385.70 1.428
385.80 1.428
385.90 1.427
386.00 1.427
386.10 1.426
386.20 1.425
386.30 1.424
386.40 1.423
386.50 1.422
386.60 1.42
386.70 1.419
386.80 1.417
386.90 1.414
387.00 1.412
387.10 1.41
387.20 1.407
387.30 1.404
387.40 1.4
387.50 1.396
387.60 1.392
387.70 1.388
387.80 1.383
387.90 1.377
388.00 1.371
388.10 1.363
388.20 1.355
388.30 1.347
388.40 1.337
388.50 1.328
388.60 1.32
388.70 1.314
388.80 1.309
388.90 1.306
389.00 1.309
389.10 1.313
389.20 1.319
389.30 1.327
389.40 1.335
389.50 1.345
389.60 1.354
389.70 1.362
389.80 1.369
389.90 1.376
390.00 1.381
390.10 1.386
390.20 1.391
390.30 1.395
390.40 1.399
390.50 1.402
390.60 1.405
390.70 1.408
390.80 1.41
390.90 1.412
391.00 1.415
391.10 1.416
391.20 1.418
391.30 1.419
391.40 1.421
391.50 1.422
391.60 1.423
391.70 1.424
391.80 1.424
391.90 1.425
392.00 1.425
392.10 1.425
392.20 1.425
392.30 1.425
392.40 1.424
392.50 1.424
392.60 1.423
392.70 1.423
392.80 1.422
392.90 1.421
393.00 1.419
393.10 1.418
393.20 1.416
393.30 1.415
393.40 1.413
393.50 1.411
393.60 1.409
393.70 1.406
393.80 1.404
393.90 1.401
394.00 1.398
394.10 1.395
394.20 1.391
394.30 1.388
394.40 1.384
394.50 1.38
394.60 1.375
394.70 1.371
394.80 1.366
394.90 1.36
395.00 1.355
395.10 1.349
395.20 1.342
395.30 1.335
395.40 1.328
395.50 1.321
395.60 1.312
395.70 1.304
395.80 1.294
395.90 1.284
396.00 1.273
396.10 1.261
396.20 1.247
396.30 1.232
396.40 1.216
396.50 1.195
396.60 1.174
396.70 1.151
396.80 1.134
396.90 1.118
397.00 1.103
397.10 1.116
397.20 1.131
397.30 1.148
397.40 1.17
397.50 1.191
397.60 1.212
397.70 1.228
397.80 1.243
397.90 1.257
398.00 1.269
398.10 1.28
398.20 1.29
398.30 1.299
398.40 1.308
398.50 1.316
398.60 1.324
398.70 1.331
398.80 1.337
398.90 1.344
399.00 1.35
399.10 1.355
399.20 1.36
399.30 1.365
399.40 1.37
399.50 1.374
399.60 1.378
399.70 1.382
399.80 1.386
399.90 1.389
400.00 1.393
400.10 1.396
400.20 1.398
400.30 1.401
400.40 1.404
400.50 1.406
400.60 1.408
400.70 1.41
400.80 1.412
400.90 1.414
401.00 1.415
401.10 1.417
401.20 1.418
401.30 1.419
401.40 1.421
401.50 1.422
401.60 1.422
401.70 1.423
401.80 1.424
401.90 1.424
402.00 1.425
402.10 1.425
402.20 1.425
402.30 1.426
402.40 1.426
402.50 1.426
402.60 1.425
402.70 1.425
402.80 1.425
402.90 1.424
403.00 1.424
403.10 1.423
403.20 1.423
403.30 1.422
403.40 1.421
403.50 1.42
403.60 1.419
403.70 1.417
403.80 1.416
403.90 1.415
404.00 1.413
404.10 1.411
404.20 1.41
404.30 1.408
404.40 1.406
404.50 1.404
404.60 1.402
404.70 1.399
404.80 1.397
404.90 1.394
405.00 1.392
405.10 1.389
405.20 1.386
405.30 1.383
405.40 1.38
405.50 1.376
405.60 1.373
405.70 1.369
405.80 1.365
405.90 1.361
406.00 1.357
406.10 1.353
406.20 1.348
406.30 1.344
406.40 1.339
406.50 1.334
406.60 1.329
406.70 1.323
406.80 1.317
406.90 1.311
407.00 1.305
407.10 1.299
407.20 1.292
407.30 1.285
407.40 1.277
407.50 1.27
407.60 1.261
407.70 1.253
407.80 1.244
407.90 1.235
408.00 1.225
408.10 1.215
408.20 1.204
408.30 1.192
408.40 1.181
408.50 1.168
408.60 1.155
408.70 1.141
408.80 1.126
408.90 1.11
409.00 1.094
409.10 1.076
409.20 1.058
409.30 1.039
409.40 1.017
409.50 0.9943
409.60 0.9695
409.70 0.9396
409.80 0.9072
409.90 0.8721
410.00 0.8441
410.10 0.8255
410.20 0.8165
410.30 0.8336
410.40 0.858
410.50 0.8899
410.60 0.923
410.70 0.9532
410.80 0.9805
410.90 1.003
411.00 1.025
411.10 1.044
411.20 1.062
411.30 1.079
411.40 1.096
411.50 1.111
411.60 1.125
411.70 1.139
411.80 1.152
411.90 1.164
412.00 1.176
412.10 1.186
412.20 1.197
412.30 1.207
412.40 1.216
412.50 1.224
412.60 1.233
412.70 1.241
412.80 1.248
412.90 1.256
413.00 1.262
413.10 1.269
413.20 1.275
413.30 1.281
413.40 1.287
413.50 1.293
413.60 1.298
413.70 1.303
413.80 1.308
413.90 1.312
414.00 1.317
414.10 1.321
414.20 1.325
414.30 1.329
414.40 1.333
414.50 1.336
414.60 1.34
414.70 1.343
414.80 1.346
414.90 1.349
415.00 1.352
415.10 1.355
415.20 1.358
415.30 1.361
415.40 1.363
415.50 1.366
415.60 1.368
415.70 1.37
415.80 1.372
415.90 1.374
416.00 1.376
416.10 1.378
416.20 1.38
416.30 1.382
416.40 1.383
416.50 1.385
416.60 1.386
416.70 1.388
416.80 1.389
416.90 1.391
417.00 1.392
417.10 1.393
417.20 1.394
417.30 1.395
417.40 1.396
417.50 1.397
417.60 1.398
417.70 1.399
417.80 1.4
417.90 1.4
418.00 1.401
418.10 1.402
418.20 1.402
418.30 1.403
418.40 1.404
418.50 1.404
418.60 1.404
418.70 1.405
418.80 1.405
418.90 1.406
419.00 1.406
419.10 1.406
419.20 1.406
419.30 1.406
419.40 1.407
419.50 1.407
419.60 1.407
419.70 1.407
419.80 1.407
419.90 1.407
420.00 1.407
420.10 1.407
420.20 1.406
420.30 1.406
420.40 1.406
420.50 1.406
420.60 1.406
420.70 1.405
420.80 1.405
420.90 1.405
421.00 1.404
421.10 1.404
421.20 1.403
421.30 1.403
421.40 1.402
421.50 1.402
421.60 1.401
421.70 1.401
421.80 1.4
421.90 1.399
422.00 1.399
422.10 1.398
422.20 1.397
422.30 1.396
422.40 1.396
422.50 1.395
422.60 1.394
422.70 1.393
422.80 1.392
422.90 1.391
423.00 1.39
423.10 1.389
423.20 1.388
423.30 1.387
423.40 1.386
423.50 1.385
423.60 1.383
423.70 1.382
423.80 1.381
423.90 1.38
424.00 1.378
424.10 1.377
424.20 1.376
424.30 1.374
424.40 1.373
424.50 1.371
424.60 1.37
424.70 1.368
424.80 1.366
424.90 1.365
425.00 1.363
425.10 1.361
425.20 1.36
425.30 1.358
425.40 1.356
425.50 1.354
425.60 1.352
425.70 1.35
425.80 1.348
425.90 1.346
426.00 1.344
426.10 1.342
426.20 1.339
426.30 1.336
426.40 1.334
426.50 1.332
426.60 1.329
426.70 1.327
426.80 1.324
426.90 1.321
427.00 1.319
427.10 1.316
427.20 1.313
427.30 1.31
427.40 1.307
427.50 1.304
427.60 1.301
427.70 1.298
427.80 1.294
427.90 1.291
428.00 1.287
428.10 1.284
428.20 1.28
428.30 1.277
428.40 1.273
428.50 1.269
428.60 1.265
428.70 1.261
428.80 1.256
428.90 1.252
429.00 1.247
429.10 1.243
429.20 1.238
429.30 1.233
429.40 1.228
429.50 1.223
429.60 1.218
429.70 1.212
429.80 1.206
429.90 1.201
430.00 1.195
430.10 1.188
430.20 1.182
430.30 1.175
430.40 1.169
430.50 1.162
430.60 1.154
430.70 1.147
430.80 1.139
430.90 1.131
431.00 1.123
431.10 1.114
431.20 1.105
431.30 1.096
431.40 1.086
431.50 1.076
431.60 1.065
431.70 1.054
431.80 1.043
431.90 1.031
432.00 1.018
432.10 1.005
432.20 0.9913
432.30 0.9766
432.40 0.9613
432.50 0.9445
432.60 0.9269
432.70 0.9085
432.80 0.8884
432.90 0.8676
433.00 0.8461
433.10 0.8234
433.20 0.8002
433.30 0.7765
433.40 0.7515
433.50 0.7252
433.60 0.6975
433.70 0.6628
433.80 0.6245
433.90 0.5826
434.00 0.5458
434.10 0.5468
434.20 0.5853
434.30 0.6269
434.40 0.6645
434.50 0.6982
434.60 0.7252
434.70 0.7508
434.80 0.7751
434.90 0.7981
435.00 0.8205
435.10 0.8424
435.20 0.8631
435.30 0.8831
435.40 0.9022
435.50 0.9197
435.60 0.9363
435.70 0.952
435.80 0.9663
435.90 0.98
436.00 0.9931
436.10 1.005
436.20 1.017
436.30 1.028
436.40 1.038
436.50 1.048
436.60 1.057
436.70 1.066
436.80 1.075
436.90 1.083
437.00 1.091
437.10 1.098
437.20 1.106
437.30 1.112
437.40 1.119
437.50 1.126
437.60 1.132
437.70 1.138
437.80 1.143
437.90 1.149
438.00 1.154
438.10 1.159
438.20 1.164
438.30 1.168
438.40 1.173
438.50 1.177
438.60 1.181
438.70 1.185
438.80 1.189
438.90 1.193
439.00 1.197
439.10 1.2
439.20 1.203
439.30 1.207
439.40 1.21
439.50 1.213
439.60 1.216
439.70 1.218
439.80 1.221
439.90 1.224
440.00 1.226
440.10 1.229
440.20 1.231
440.30 1.233
440.40 1.235
440.50 1.237
440.60 1.239
440.70 1.241
440.80 1.243
440.90 1.245
441.00 1.247
441.10 1.249
441.20 1.25
441.30 1.252
441.40 1.253
441.50 1.255
441.60 1.256
441.70 1.257
441.80 1.259
441.90 1.26
442.00 1.261
442.10 1.262
442.20 1.263
442.30 1.264
442.40 1.266
442.50 1.266
442.60 1.267
442.70 1.268
442.80 1.269
442.90 1.27
443.00 1.271
443.10 1.272
443.20 1.272
443.30 1.273
443.40 1.274
443.50 1.274
443.60 1.275
443.70 1.276
443.80 1.276
443.90 1.277
444.00 1.277
444.10 1.278
444.20 1.278
444.30 1.278
444.40 1.279
444.50 1.279
444.60 1.28
444.70 1.28
444.80 1.28
444.90 1.28
445.00 1.281
445.10 1.281
445.20 1.281
445.30 1.281
445.40 1.282
445.50 1.282
445.60 1.282
445.70 1.282
445.80 1.282
445.90 1.282
446.00 1.282
446.10 1.282
446.20 1.283
446.30 1.283
446.40 1.283
446.50 1.283
446.60 1.283
446.70 1.283
446.80 1.283
446.90 1.283
447.00 1.282
447.10 1.282
447.20 1.282
447.30 1.282
447.40 1.282
447.50 1.282
447.60 1.282
447.70 1.282
447.80 1.282
447.90 1.282
448.00 1.281
448.10 1.281
448.20 1.281
448.30 1.281
448.40 1.281
448.50 1.28
448.60 1.28
448.70 1.28
448.80 1.28
448.90 1.28
449.00 1.279
449.10 1.279
449.20 1.279
449.30 1.279
449.40 1.278
449.50 1.278
449.60 1.278
449.70 1.277
449.80 1.277
449.90 1.277
450.00 1.277
450.10 1.276
450.20 1.276
450.30 1.276
450.40 1.275
450.50 1.275
450.60 1.274
450.70 1.274
450.80 1.274
450.90 1.273
451.00 1.273
451.10 1.273
451.20 1.272
451.30 1.272
451.40 1.272
451.50 1.271
451.60 1.271
451.70 1.27
451.80 1.27
451.90 1.27
452.00 1.269
452.10 1.269
452.20 1.268
452.30 1.268
452.40 1.267
452.50 1.267
452.60 1.267
452.70 1.266
452.80 1.266
452.90 1.265
453.00 1.265
453.10 1.264
453.20 1.264
453.30 1.263
453.40 1.263
453.50 1.262
453.60 1.262
