# Version 2.1 - nm, norm@500 to 1, cut digits, bergeron_8500_85.dat_8500
# Wavelength(nm)  Flambda(ergs/cm^s/s/nm)
300.00 1.539
300.10 1.539
300.20 1.539
300.30 1.539
300.40 1.539
300.50 1.539
300.60 1.538
300.70 1.538
300.80 1.538
300.90 1.538
301.00 1.538
301.10 1.538
301.20 1.538
301.30 1.537
301.40 1.537
301.50 1.537
301.60 1.537
301.70 1.537
301.80 1.537
301.90 1.536
302.00 1.536
302.10 1.536
302.20 1.536
302.30 1.536
302.40 1.536
302.50 1.535
302.60 1.535
302.70 1.535
302.80 1.535
302.90 1.535
303.00 1.535
303.10 1.534
303.20 1.534
303.30 1.534
303.40 1.534
303.50 1.534
303.60 1.534
303.70 1.533
303.80 1.533
303.90 1.533
304.00 1.533
304.10 1.533
304.20 1.532
304.30 1.532
304.40 1.532
304.50 1.532
304.60 1.532
304.70 1.532
304.80 1.531
304.90 1.531
305.00 1.531
305.10 1.531
305.20 1.531
305.30 1.53
305.40 1.53
305.50 1.53
305.60 1.53
305.70 1.53
305.80 1.53
305.90 1.529
306.00 1.529
306.10 1.529
306.20 1.529
306.30 1.529
306.40 1.528
306.50 1.528
306.60 1.528
306.70 1.528
306.80 1.528
306.90 1.528
307.00 1.527
307.10 1.527
307.20 1.527
307.30 1.527
307.40 1.527
307.50 1.526
307.60 1.526
307.70 1.526
307.80 1.526
307.90 1.526
308.00 1.525
308.10 1.525
308.20 1.525
308.30 1.525
308.40 1.525
308.50 1.524
308.60 1.524
308.70 1.524
308.80 1.524
308.90 1.524
309.00 1.523
309.10 1.523
309.20 1.523
309.30 1.523
309.40 1.523
309.50 1.522
309.60 1.522
309.70 1.522
309.80 1.522
309.90 1.522
310.00 1.521
310.10 1.521
310.20 1.521
310.30 1.521
310.40 1.521
310.50 1.52
310.60 1.52
310.70 1.52
310.80 1.52
310.90 1.519
311.00 1.519
311.10 1.519
311.20 1.519
311.30 1.519
311.40 1.518
311.50 1.518
311.60 1.518
311.70 1.518
311.80 1.518
311.90 1.517
312.00 1.517
312.10 1.517
312.20 1.517
312.30 1.516
312.40 1.516
312.50 1.516
312.60 1.516
312.70 1.516
312.80 1.515
312.90 1.515
313.00 1.515
313.10 1.515
313.20 1.515
313.30 1.514
313.40 1.514
313.50 1.514
313.60 1.514
313.70 1.513
313.80 1.513
313.90 1.513
314.00 1.513
314.10 1.513
314.20 1.512
314.30 1.512
314.40 1.512
314.50 1.512
314.60 1.511
314.70 1.511
314.80 1.511
314.90 1.511
315.00 1.51
315.10 1.51
315.20 1.51
315.30 1.51
315.40 1.51
315.50 1.509
315.60 1.509
315.70 1.509
315.80 1.509
315.90 1.508
316.00 1.508
316.10 1.508
316.20 1.508
316.30 1.507
316.40 1.507
316.50 1.507
316.60 1.507
316.70 1.507
316.80 1.506
316.90 1.506
317.00 1.506
317.10 1.506
317.20 1.505
317.30 1.505
317.40 1.505
317.50 1.505
317.60 1.504
317.70 1.504
317.80 1.504
317.90 1.504
318.00 1.503
318.10 1.503
318.20 1.503
318.30 1.503
318.40 1.502
318.50 1.502
318.60 1.502
318.70 1.502
318.80 1.501
318.90 1.501
319.00 1.501
319.10 1.501
319.20 1.5
319.30 1.5
319.40 1.5
319.50 1.5
319.60 1.499
319.70 1.499
319.80 1.499
319.90 1.499
320.00 1.498
320.10 1.498
320.20 1.498
320.30 1.498
320.40 1.497
320.50 1.497
320.60 1.497
320.70 1.497
320.80 1.496
320.90 1.496
321.00 1.496
321.10 1.496
321.20 1.495
321.30 1.495
321.40 1.495
321.50 1.495
321.60 1.494
321.70 1.494
321.80 1.494
321.90 1.494
322.00 1.493
322.10 1.493
322.20 1.493
322.30 1.493
322.40 1.492
322.50 1.492
322.60 1.492
322.70 1.492
322.80 1.491
322.90 1.491
323.00 1.491
323.10 1.491
323.20 1.49
323.30 1.49
323.40 1.49
323.50 1.489
323.60 1.489
323.70 1.489
323.80 1.489
323.90 1.488
324.00 1.488
324.10 1.488
324.20 1.488
324.30 1.487
324.40 1.487
324.50 1.487
324.60 1.487
324.70 1.486
324.80 1.486
324.90 1.486
325.00 1.485
325.10 1.485
325.20 1.485
325.30 1.485
325.40 1.484
325.50 1.484
325.60 1.484
325.70 1.484
325.80 1.483
325.90 1.483
326.00 1.483
326.10 1.483
326.20 1.482
326.30 1.482
326.40 1.482
326.50 1.481
326.60 1.481
326.70 1.481
326.80 1.481
326.90 1.48
327.00 1.48
327.10 1.48
327.20 1.479
327.30 1.479
327.40 1.479
327.50 1.479
327.60 1.478
327.70 1.478
327.80 1.478
327.90 1.478
328.00 1.477
328.10 1.477
328.20 1.477
328.30 1.476
328.40 1.476
328.50 1.476
328.60 1.476
328.70 1.475
328.80 1.475
328.90 1.475
329.00 1.474
329.10 1.474
329.20 1.474
329.30 1.474
329.40 1.473
329.50 1.473
329.60 1.473
329.70 1.472
329.80 1.472
329.90 1.472
330.00 1.472
330.10 1.471
330.20 1.471
330.30 1.471
330.40 1.47
330.50 1.47
330.60 1.47
330.70 1.47
330.80 1.469
330.90 1.469
331.00 1.469
331.10 1.468
331.20 1.468
331.30 1.468
331.40 1.468
331.50 1.467
331.60 1.467
331.70 1.467
331.80 1.466
331.90 1.466
332.00 1.466
332.10 1.466
332.20 1.465
332.30 1.465
332.40 1.465
332.50 1.464
332.60 1.464
332.70 1.464
332.80 1.463
332.90 1.463
333.00 1.463
333.10 1.463
333.20 1.462
333.30 1.462
333.40 1.462
333.50 1.461
333.60 1.461
333.70 1.461
333.80 1.461
333.90 1.46
334.00 1.46
334.10 1.46
334.20 1.459
334.30 1.459
334.40 1.459
334.50 1.458
334.60 1.458
334.70 1.458
334.80 1.458
334.90 1.457
335.00 1.457
335.10 1.457
335.20 1.456
335.30 1.456
335.40 1.456
335.50 1.455
335.60 1.455
335.70 1.455
335.80 1.455
335.90 1.454
336.00 1.454
336.10 1.454
336.20 1.453
336.30 1.453
336.40 1.453
336.50 1.452
336.60 1.452
336.70 1.452
336.80 1.451
336.90 1.451
337.00 1.451
337.10 1.451
337.20 1.45
337.30 1.45
337.40 1.45
337.50 1.449
337.60 1.449
337.70 1.449
337.80 1.448
337.90 1.448
338.00 1.448
338.10 1.447
338.20 1.447
338.30 1.447
338.40 1.446
338.50 1.446
338.60 1.446
338.70 1.446
338.80 1.445
338.90 1.445
339.00 1.445
339.10 1.444
339.20 1.444
339.30 1.444
339.40 1.443
339.50 1.443
339.60 1.443
339.70 1.442
339.80 1.442
339.90 1.442
340.00 1.441
340.10 1.441
340.20 1.441
340.30 1.441
340.40 1.44
340.50 1.44
340.60 1.44
340.70 1.439
340.80 1.439
340.90 1.439
341.00 1.438
341.10 1.438
341.20 1.438
341.30 1.437
341.40 1.437
341.50 1.437
341.60 1.436
341.70 1.436
341.80 1.436
341.90 1.435
342.00 1.435
342.10 1.435
342.20 1.435
342.30 1.434
342.40 1.434
342.50 1.434
342.60 1.433
342.70 1.433
342.80 1.433
342.90 1.432
343.00 1.432
343.10 1.432
343.20 1.431
343.30 1.431
343.40 1.431
343.50 1.43
343.60 1.43
343.70 1.43
343.80 1.429
343.90 1.429
344.00 1.429
344.10 1.428
344.20 1.428
344.30 1.428
344.40 1.427
344.50 1.427
344.60 1.427
344.70 1.426
344.80 1.426
344.90 1.426
345.00 1.425
345.10 1.425
345.20 1.425
345.30 1.424
345.40 1.424
345.50 1.424
345.60 1.423
345.70 1.423
345.80 1.423
345.90 1.422
346.00 1.422
346.10 1.422
346.20 1.421
346.30 1.421
346.40 1.421
346.50 1.42
346.60 1.42
346.70 1.42
346.80 1.42
346.90 1.419
347.00 1.419
347.10 1.419
347.20 1.418
347.30 1.418
347.40 1.418
347.50 1.417
347.60 1.417
347.70 1.417
347.80 1.416
347.90 1.416
348.00 1.416
348.10 1.415
348.20 1.415
348.30 1.415
348.40 1.414
348.50 1.414
348.60 1.414
348.70 1.413
348.80 1.413
348.90 1.413
349.00 1.412
349.10 1.412
349.20 1.412
349.30 1.411
349.40 1.411
349.50 1.411
349.60 1.41
349.70 1.41
349.80 1.41
349.90 1.409
350.00 1.409
350.10 1.409
350.20 1.408
350.30 1.408
350.40 1.407
350.50 1.407
350.60 1.407
350.70 1.406
350.80 1.406
350.90 1.406
351.00 1.405
351.10 1.405
351.20 1.405
351.30 1.404
351.40 1.404
351.50 1.404
351.60 1.403
351.70 1.403
351.80 1.403
351.90 1.402
352.00 1.402
352.10 1.402
352.20 1.401
352.30 1.401
352.40 1.401
352.50 1.4
352.60 1.4
352.70 1.4
352.80 1.399
352.90 1.399
353.00 1.399
353.10 1.398
353.20 1.398
353.30 1.398
353.40 1.397
353.50 1.397
353.60 1.397
353.70 1.396
353.80 1.396
353.90 1.396
354.00 1.395
354.10 1.395
354.20 1.394
354.30 1.394
354.40 1.394
354.50 1.393
354.60 1.393
354.70 1.393
354.80 1.392
354.90 1.392
355.00 1.392
355.10 1.391
355.20 1.391
355.30 1.391
355.40 1.39
355.50 1.39
355.60 1.39
355.70 1.389
355.80 1.389
355.90 1.389
356.00 1.388
356.10 1.388
356.20 1.388
356.30 1.387
356.40 1.387
356.50 1.387
356.60 1.386
356.70 1.386
356.80 1.385
356.90 1.385
357.00 1.385
357.10 1.384
357.20 1.384
357.30 1.384
357.40 1.383
357.50 1.383
357.60 1.383
357.70 1.382
357.80 1.382
357.90 1.382
358.00 1.381
358.10 1.381
358.20 1.381
358.30 1.38
358.40 1.38
358.50 1.38
358.60 1.379
358.70 1.379
358.80 1.378
358.90 1.378
359.00 1.378
359.10 1.377
359.20 1.377
359.30 1.377
359.40 1.376
359.50 1.376
359.60 1.376
359.70 1.375
359.80 1.375
359.90 1.375
360.00 1.374
360.10 1.374
360.20 1.374
360.30 1.373
360.40 1.373
360.50 1.372
360.60 1.372
360.70 1.372
360.80 1.371
360.90 1.371
361.00 1.371
361.10 1.37
361.20 1.37
361.30 1.37
361.40 1.369
361.50 1.369
361.60 1.369
361.70 1.368
361.80 1.368
361.90 1.368
362.00 1.367
362.10 1.367
362.20 1.366
362.30 1.366
362.40 1.366
362.50 1.365
362.60 1.365
362.70 1.365
362.80 1.364
362.90 1.364
363.00 1.364
363.10 1.363
363.20 1.363
363.30 1.362
363.40 1.362
363.50 1.362
363.60 1.361
363.70 1.361
363.80 1.36
363.90 1.36
364.00 1.36
364.10 1.359
364.20 1.359
364.30 1.359
364.40 1.358
364.50 1.358
364.60 1.357
364.70 1.357
364.80 1.357
364.90 1.356
365.00 1.356
365.10 1.355
365.20 1.355
365.30 1.354
365.40 1.354
365.50 1.354
365.60 1.353
365.70 1.353
365.80 1.352
365.90 1.352
366.00 1.352
366.10 1.351
366.20 1.351
366.30 1.351
366.40 1.35
366.50 1.35
366.60 1.349
366.70 1.349
366.80 1.349
366.90 1.348
367.00 1.348
367.10 1.348
367.20 1.347
367.30 1.347
367.40 1.346
367.50 1.346
367.60 1.346
367.70 1.345
367.80 1.345
367.90 1.345
368.00 1.344
368.10 1.344
368.20 1.344
368.30 1.343
368.40 1.343
368.50 1.343
368.60 1.342
368.70 1.342
368.80 1.342
368.90 1.341
369.00 1.341
369.10 1.341
369.20 1.34
369.30 1.34
369.40 1.34
369.50 1.339
369.60 1.339
369.70 1.338
369.80 1.338
369.90 1.338
370.00 1.337
370.10 1.337
370.20 1.337
370.30 1.337
370.40 1.336
370.50 1.336
370.60 1.336
370.70 1.336
370.80 1.335
370.90 1.335
371.00 1.335
371.10 1.335
371.20 1.334
371.30 1.334
371.40 1.334
371.50 1.334
371.60 1.333
371.70 1.333
371.80 1.333
371.90 1.333
372.00 1.332
372.10 1.332
372.20 1.332
372.30 1.332
372.40 1.332
372.50 1.332
372.60 1.332
372.70 1.332
372.80 1.332
372.90 1.332
373.00 1.332
373.10 1.332
373.20 1.331
373.30 1.331
373.40 1.331
373.50 1.331
373.60 1.331
373.70 1.331
373.80 1.331
373.90 1.331
374.00 1.331
374.10 1.331
374.20 1.331
374.30 1.331
374.40 1.331
374.50 1.331
374.60 1.331
374.70 1.332
374.80 1.332
374.90 1.332
375.00 1.332
375.10 1.332
375.20 1.332
375.30 1.332
375.40 1.332
375.50 1.332
375.60 1.332
375.70 1.333
375.80 1.333
375.90 1.333
376.00 1.333
376.10 1.333
376.20 1.333
376.30 1.333
376.40 1.333
376.50 1.333
376.60 1.333
376.70 1.333
376.80 1.333
376.90 1.334
377.00 1.334
377.10 1.333
377.20 1.333
377.30 1.333
377.40 1.333
377.50 1.333
377.60 1.332
377.70 1.332
377.80 1.332
377.90 1.332
378.00 1.332
378.10 1.33
378.20 1.328
378.30 1.326
378.40 1.325
378.50 1.323
378.60 1.321
378.70 1.32
378.80 1.318
378.90 1.316
379.00 1.315
379.10 1.311
379.20 1.308
379.30 1.305
379.40 1.302
379.50 1.299
379.60 1.295
379.70 1.292
379.80 1.289
379.90 1.286
380.00 1.283
380.10 1.287
380.20 1.291
380.30 1.295
380.40 1.3
380.50 1.304
380.60 1.308
380.70 1.312
380.80 1.316
380.90 1.321
381.00 1.325
381.10 1.325
381.20 1.326
381.30 1.327
381.40 1.327
381.50 1.328
381.60 1.328
381.70 1.327
381.80 1.326
381.90 1.325
382.00 1.324
382.10 1.322
382.20 1.32
382.30 1.313
382.40 1.306
382.50 1.299
382.60 1.292
382.70 1.285
382.80 1.278
382.90 1.271
383.00 1.264
383.10 1.257
383.20 1.251
383.30 1.235
383.40 1.216
383.50 1.196
383.60 1.2
383.70 1.221
383.80 1.24
383.90 1.255
384.00 1.267
384.10 1.278
384.20 1.288
384.30 1.296
384.40 1.303
384.50 1.309
384.60 1.314
384.70 1.318
384.80 1.322
384.90 1.325
385.00 1.327
385.10 1.329
385.20 1.331
385.30 1.332
385.40 1.333
385.50 1.334
385.60 1.335
385.70 1.335
385.80 1.335
385.90 1.335
386.00 1.335
386.10 1.335
386.20 1.334
386.30 1.333
386.40 1.332
386.50 1.331
386.60 1.329
386.70 1.327
386.80 1.325
386.90 1.323
387.00 1.32
387.10 1.317
387.20 1.314
387.30 1.31
387.40 1.306
387.50 1.301
387.60 1.296
387.70 1.29
387.80 1.282
387.90 1.274
388.00 1.264
388.10 1.252
388.20 1.238
388.30 1.222
388.40 1.201
388.50 1.178
388.60 1.152
388.70 1.118
388.80 1.082
388.90 1.044
389.00 1.08
389.10 1.115
389.20 1.149
389.30 1.176
389.40 1.199
389.50 1.221
389.60 1.237
389.70 1.252
389.80 1.264
389.90 1.274
390.00 1.283
390.10 1.29
390.20 1.297
390.30 1.303
390.40 1.308
390.50 1.312
390.60 1.316
390.70 1.32
390.80 1.323
390.90 1.326
391.00 1.329
391.10 1.332
391.20 1.334
391.30 1.336
391.40 1.338
391.50 1.34
391.60 1.341
391.70 1.342
391.80 1.344
391.90 1.345
392.00 1.345
392.10 1.346
392.20 1.347
392.30 1.347
392.40 1.347
392.50 1.347
392.60 1.347
392.70 1.347
392.80 1.347
392.90 1.346
393.00 1.345
393.10 1.345
393.20 1.343
393.30 1.342
393.40 1.341
393.50 1.34
393.60 1.338
393.70 1.336
393.80 1.334
393.90 1.332
394.00 1.33
394.10 1.327
394.20 1.324
394.30 1.321
394.40 1.318
394.50 1.314
394.60 1.31
394.70 1.306
394.80 1.301
394.90 1.296
395.00 1.291
395.10 1.285
395.20 1.279
395.30 1.272
395.40 1.265
395.50 1.257
395.60 1.248
395.70 1.239
395.80 1.229
395.90 1.217
396.00 1.203
396.10 1.189
396.20 1.17
396.30 1.148
396.40 1.124
396.50 1.09
396.60 1.05
396.70 1.005
396.80 0.9453
396.90 0.8773
397.00 0.8006
397.10 0.8706
397.20 0.936
397.30 0.9968
397.40 1.043
397.50 1.083
397.60 1.118
397.70 1.143
397.80 1.165
397.90 1.184
398.00 1.199
398.10 1.212
398.20 1.224
398.30 1.234
398.40 1.243
398.50 1.252
398.60 1.259
398.70 1.266
398.80 1.273
398.90 1.279
399.00 1.284
399.10 1.29
399.20 1.294
399.30 1.299
399.40 1.303
399.50 1.307
399.60 1.311
399.70 1.314
399.80 1.317
399.90 1.32
400.00 1.323
400.10 1.325
400.20 1.328
400.30 1.33
400.40 1.332
400.50 1.334
400.60 1.335
400.70 1.337
400.80 1.338
400.90 1.34
401.00 1.341
401.10 1.342
401.20 1.343
401.30 1.344
401.40 1.345
401.50 1.346
401.60 1.346
401.70 1.347
401.80 1.348
401.90 1.348
402.00 1.348
402.10 1.349
402.20 1.349
402.30 1.349
402.40 1.35
402.50 1.35
402.60 1.35
402.70 1.35
402.80 1.35
402.90 1.35
403.00 1.349
403.10 1.349
403.20 1.349
403.30 1.349
403.40 1.348
403.50 1.348
403.60 1.348
403.70 1.347
403.80 1.347
403.90 1.346
404.00 1.345
404.10 1.345
404.20 1.344
404.30 1.343
404.40 1.342
404.50 1.341
404.60 1.34
404.70 1.339
404.80 1.338
404.90 1.337
405.00 1.336
405.10 1.335
405.20 1.333
405.30 1.332
405.40 1.33
405.50 1.329
405.60 1.327
405.70 1.325
405.80 1.323
405.90 1.321
406.00 1.319
406.10 1.317
406.20 1.315
406.30 1.312
406.40 1.309
406.50 1.307
406.60 1.304
406.70 1.301
406.80 1.297
406.90 1.294
407.00 1.29
407.10 1.286
407.20 1.282
407.30 1.277
407.40 1.273
407.50 1.268
407.60 1.262
407.70 1.256
407.80 1.25
407.90 1.243
408.00 1.236
408.10 1.229
408.20 1.221
408.30 1.212
408.40 1.203
408.50 1.193
408.60 1.182
408.70 1.17
408.80 1.157
408.90 1.144
409.00 1.129
409.10 1.112
409.20 1.094
409.30 1.073
409.40 1.048
409.50 1.019
409.60 0.9848
409.70 0.9374
409.80 0.8805
409.90 0.8139
410.00 0.7257
410.10 0.6483
410.20 0.5815
410.30 0.6831
410.40 0.7735
410.50 0.8526
410.60 0.9115
410.70 0.9616
410.80 1.003
410.90 1.032
411.00 1.059
411.10 1.081
411.20 1.099
411.30 1.116
411.40 1.132
411.50 1.145
411.60 1.157
411.70 1.169
411.80 1.179
411.90 1.189
412.00 1.198
412.10 1.206
412.20 1.214
412.30 1.221
412.40 1.228
412.50 1.234
412.60 1.24
412.70 1.245
412.80 1.25
412.90 1.254
413.00 1.259
413.10 1.263
413.20 1.266
413.30 1.27
413.40 1.273
413.50 1.276
413.60 1.279
413.70 1.281
413.80 1.284
413.90 1.286
414.00 1.288
414.10 1.29
414.20 1.292
414.30 1.293
414.40 1.295
414.50 1.296
414.60 1.298
414.70 1.299
414.80 1.3
414.90 1.301
415.00 1.302
415.10 1.303
415.20 1.304
415.30 1.305
415.40 1.306
415.50 1.306
415.60 1.307
415.70 1.308
415.80 1.308
415.90 1.309
416.00 1.309
416.10 1.31
416.20 1.31
416.30 1.31
416.40 1.311
416.50 1.311
416.60 1.311
416.70 1.311
416.80 1.312
416.90 1.312
417.00 1.312
417.10 1.312
417.20 1.312
417.30 1.312
417.40 1.312
417.50 1.312
417.60 1.312
417.70 1.312
417.80 1.312
417.90 1.312
418.00 1.312
418.10 1.312
418.20 1.312
418.30 1.312
418.40 1.312
418.50 1.311
418.60 1.311
418.70 1.311
418.80 1.311
418.90 1.311
419.00 1.311
419.10 1.31
419.20 1.31
419.30 1.31
419.40 1.31
419.50 1.31
419.60 1.309
419.70 1.309
419.80 1.309
419.90 1.308
420.00 1.308
420.10 1.308
420.20 1.308
420.30 1.307
420.40 1.307
420.50 1.307
420.60 1.306
420.70 1.306
420.80 1.306
420.90 1.305
421.00 1.305
421.10 1.305
421.20 1.304
421.30 1.304
421.40 1.304
421.50 1.303
421.60 1.303
421.70 1.302
421.80 1.302
421.90 1.302
422.00 1.301
422.10 1.301
422.20 1.3
422.30 1.3
422.40 1.299
422.50 1.299
422.60 1.299
422.70 1.298
422.80 1.298
422.90 1.297
423.00 1.297
423.10 1.296
423.20 1.296
423.30 1.295
423.40 1.295
423.50 1.294
423.60 1.294
423.70 1.293
423.80 1.293
423.90 1.292
424.00 1.291
424.10 1.291
424.20 1.29
424.30 1.29
424.40 1.289
424.50 1.289
424.60 1.288
424.70 1.287
424.80 1.287
424.90 1.286
425.00 1.285
425.10 1.285
425.20 1.284
425.30 1.283
425.40 1.283
425.50 1.282
425.60 1.281
425.70 1.281
425.80 1.28
425.90 1.279
426.00 1.278
426.10 1.278
426.20 1.277
426.30 1.276
426.40 1.275
426.50 1.274
426.60 1.274
426.70 1.273
426.80 1.272
426.90 1.271
427.00 1.27
427.10 1.269
427.20 1.268
427.30 1.267
427.40 1.266
427.50 1.265
427.60 1.264
427.70 1.263
427.80 1.262
427.90 1.26
428.00 1.259
428.10 1.258
428.20 1.257
428.30 1.255
428.40 1.254
428.50 1.253
428.60 1.251
428.70 1.25
428.80 1.248
428.90 1.246
429.00 1.245
429.10 1.243
429.20 1.241
429.30 1.239
429.40 1.237
429.50 1.235
429.60 1.233
429.70 1.23
429.80 1.228
429.90 1.225
430.00 1.223
430.10 1.22
430.20 1.217
430.30 1.214
430.40 1.211
430.50 1.207
430.60 1.204
430.70 1.2
430.80 1.196
430.90 1.192
431.00 1.188
431.10 1.183
431.20 1.178
431.30 1.173
431.40 1.168
431.50 1.162
431.60 1.156
431.70 1.149
431.80 1.142
431.90 1.134
432.00 1.126
432.10 1.117
432.20 1.107
432.30 1.097
432.40 1.086
432.50 1.073
432.60 1.059
432.70 1.044
432.80 1.027
432.90 1.009
433.00 0.989
433.10 0.967
433.20 0.943
433.30 0.917
433.40 0.8839
433.50 0.8443
433.60 0.7982
433.70 0.7294
433.80 0.651
433.90 0.5629
434.00 0.4767
434.10 0.4792
434.20 0.5702
434.30 0.6574
434.40 0.7345
434.50 0.8014
434.60 0.8462
434.70 0.8846
434.80 0.9166
434.90 0.9417
435.00 0.9649
435.10 0.9861
435.20 1.005
435.30 1.022
435.40 1.039
435.50 1.053
435.60 1.066
435.70 1.078
435.80 1.088
435.90 1.098
436.00 1.107
436.10 1.114
436.20 1.122
436.30 1.129
436.40 1.135
436.50 1.141
436.60 1.146
436.70 1.151
436.80 1.155
436.90 1.16
437.00 1.164
437.10 1.167
437.20 1.171
437.30 1.174
437.40 1.177
437.50 1.18
437.60 1.183
437.70 1.185
437.80 1.188
437.90 1.19
438.00 1.192
438.10 1.194
438.20 1.195
438.30 1.197
438.40 1.199
438.50 1.2
438.60 1.201
438.70 1.203
438.80 1.204
438.90 1.205
439.00 1.206
439.10 1.207
439.20 1.208
439.30 1.208
439.40 1.209
439.50 1.21
439.60 1.21
439.70 1.211
439.80 1.212
439.90 1.212
440.00 1.213
440.10 1.213
440.20 1.213
440.30 1.214
440.40 1.214
440.50 1.214
440.60 1.214
440.70 1.215
440.80 1.215
440.90 1.215
441.00 1.215
441.10 1.215
441.20 1.215
441.30 1.215
441.40 1.216
441.50 1.216
441.60 1.216
441.70 1.216
441.80 1.216
441.90 1.216
442.00 1.216
442.10 1.215
442.20 1.215
442.30 1.215
442.40 1.215
442.50 1.215
442.60 1.215
442.70 1.215
442.80 1.215
442.90 1.215
443.00 1.215
443.10 1.214
443.20 1.214
443.30 1.214
443.40 1.214
443.50 1.214
443.60 1.214
443.70 1.213
443.80 1.213
443.90 1.213
444.00 1.213
444.10 1.212
444.20 1.212
444.30 1.212
444.40 1.212
444.50 1.212
444.60 1.211
444.70 1.211
444.80 1.211
444.90 1.211
445.00 1.21
445.10 1.21
445.20 1.21
445.30 1.209
445.40 1.209
445.50 1.209
445.60 1.209
445.70 1.208
445.80 1.208
445.90 1.208
446.00 1.207
446.10 1.207
446.20 1.207
446.30 1.206
446.40 1.206
446.50 1.206
446.60 1.205
446.70 1.205
446.80 1.205
446.90 1.204
447.00 1.204
447.10 1.204
447.20 1.203
447.30 1.203
447.40 1.203
447.50 1.202
447.60 1.202
447.70 1.202
447.80 1.201
447.90 1.201
448.00 1.201
448.10 1.2
448.20 1.2
448.30 1.2
448.40 1.199
448.50 1.199
448.60 1.199
448.70 1.198
448.80 1.198
448.90 1.197
449.00 1.197
449.10 1.197
449.20 1.196
449.30 1.196
449.40 1.196
449.50 1.195
449.60 1.195
449.70 1.195
449.80 1.194
449.90 1.194
450.00 1.193
450.10 1.193
450.20 1.193
450.30 1.192
450.40 1.192
450.50 1.192
450.60 1.191
450.70 1.191
450.80 1.19
450.90 1.19
451.00 1.19
451.10 1.189
451.20 1.189
451.30 1.189
451.40 1.188
451.50 1.188
451.60 1.187
451.70 1.187
451.80 1.187
451.90 1.186
452.00 1.186
452.10 1.185
452.20 1.185
452.30 1.185
452.40 1.184
452.50 1.184
452.60 1.183
452.70 1.183
452.80 1.183
452.90 1.182
453.00 1.182
453.10 1.182
453.20 1.181
453.30 1.181
453.40 1.18
453.50 1.18
453.60 1.18
453.70 1.179
453.80 1.179
