# Version 2.1 - nm, norm@500 to 1, cut digits, bergeron_80000_80.dat_80000
# Wavelength(nm)  Flambda(ergs/cm^s/s/nm)
300.00 6.667
300.10 6.659
300.20 6.651
300.30 6.643
300.40 6.634
300.50 6.626
300.60 6.618
300.70 6.61
300.80 6.602
300.90 6.593
301.00 6.585
301.10 6.577
301.20 6.569
301.30 6.561
301.40 6.553
301.50 6.545
301.60 6.536
301.70 6.528
301.80 6.52
301.90 6.512
302.00 6.504
302.10 6.496
302.20 6.488
302.30 6.48
302.40 6.472
302.50 6.464
302.60 6.456
302.70 6.448
302.80 6.44
302.90 6.432
303.00 6.425
303.10 6.417
303.20 6.409
303.30 6.401
303.40 6.393
303.50 6.385
303.60 6.377
303.70 6.369
303.80 6.362
303.90 6.354
304.00 6.346
304.10 6.338
304.20 6.331
304.30 6.323
304.40 6.315
304.50 6.307
304.60 6.3
304.70 6.292
304.80 6.284
304.90 6.276
305.00 6.269
305.10 6.261
305.20 6.254
305.30 6.246
305.40 6.238
305.50 6.231
305.60 6.223
305.70 6.215
305.80 6.208
305.90 6.2
306.00 6.193
306.10 6.185
306.20 6.178
306.30 6.17
306.40 6.163
306.50 6.155
306.60 6.148
306.70 6.14
306.80 6.133
306.90 6.125
307.00 6.118
307.10 6.11
307.20 6.103
307.30 6.096
307.40 6.088
307.50 6.081
307.60 6.073
307.70 6.066
307.80 6.059
307.90 6.051
308.00 6.044
308.10 6.037
308.20 6.029
308.30 6.022
308.40 6.015
308.50 6.007
308.60 6
308.70 5.993
308.80 5.986
308.90 5.978
309.00 5.971
309.10 5.964
309.20 5.957
309.30 5.95
309.40 5.942
309.50 5.935
309.60 5.928
309.70 5.921
309.80 5.914
309.90 5.907
310.00 5.9
310.10 5.893
310.20 5.885
310.30 5.878
310.40 5.871
310.50 5.864
310.60 5.857
310.70 5.85
310.80 5.843
310.90 5.836
311.00 5.829
311.10 5.822
311.20 5.815
311.30 5.808
311.40 5.801
311.50 5.794
311.60 5.787
311.70 5.78
311.80 5.773
311.90 5.767
312.00 5.76
312.10 5.753
312.20 5.746
312.30 5.739
312.40 5.732
312.50 5.725
312.60 5.718
312.70 5.712
312.80 5.705
312.90 5.698
313.00 5.691
313.10 5.684
313.20 5.678
313.30 5.671
313.40 5.664
313.50 5.657
313.60 5.651
313.70 5.644
313.80 5.637
313.90 5.63
314.00 5.624
314.10 5.617
314.20 5.61
314.30 5.604
314.40 5.597
314.50 5.59
314.60 5.584
314.70 5.577
314.80 5.571
314.90 5.564
315.00 5.557
315.10 5.551
315.20 5.544
315.30 5.538
315.40 5.531
315.50 5.524
315.60 5.518
315.70 5.511
315.80 5.505
315.90 5.498
316.00 5.492
316.10 5.485
316.20 5.479
316.30 5.472
316.40 5.466
316.50 5.459
316.60 5.453
316.70 5.447
316.80 5.44
316.90 5.434
317.00 5.427
317.10 5.421
317.20 5.415
317.30 5.408
317.40 5.402
317.50 5.396
317.60 5.389
317.70 5.383
317.80 5.376
317.90 5.37
318.00 5.364
318.10 5.358
318.20 5.351
318.30 5.345
318.40 5.339
318.50 5.332
318.60 5.326
318.70 5.32
318.80 5.314
318.90 5.307
319.00 5.301
319.10 5.295
319.20 5.289
319.30 5.283
319.40 5.276
319.50 5.27
319.60 5.264
319.70 5.258
319.80 5.252
319.90 5.246
320.00 5.24
320.10 5.233
320.20 5.227
320.30 5.221
320.40 5.215
320.50 5.209
320.60 5.203
320.70 5.197
320.80 5.191
320.90 5.185
321.00 5.179
321.10 5.173
321.20 5.167
321.30 5.161
321.40 5.155
321.50 5.149
321.60 5.143
321.70 5.137
321.80 5.131
321.90 5.125
322.00 5.119
322.10 5.113
322.20 5.107
322.30 5.101
322.40 5.095
322.50 5.089
322.60 5.083
322.70 5.077
322.80 5.072
322.90 5.066
323.00 5.06
323.10 5.054
323.20 5.048
323.30 5.042
323.40 5.036
323.50 5.031
323.60 5.025
323.70 5.019
323.80 5.013
323.90 5.007
324.00 5.002
324.10 4.996
324.20 4.99
324.30 4.984
324.40 4.979
324.50 4.973
324.60 4.967
324.70 4.961
324.80 4.956
324.90 4.95
325.00 4.944
325.10 4.939
325.20 4.933
325.30 4.927
325.40 4.922
325.50 4.916
325.60 4.91
325.70 4.905
325.80 4.899
325.90 4.893
326.00 4.888
326.10 4.882
326.20 4.876
326.30 4.871
326.40 4.865
326.50 4.86
326.60 4.854
326.70 4.849
326.80 4.843
326.90 4.838
327.00 4.832
327.10 4.826
327.20 4.821
327.30 4.815
327.40 4.81
327.50 4.804
327.60 4.799
327.70 4.793
327.80 4.788
327.90 4.783
328.00 4.777
328.10 4.772
328.20 4.766
328.30 4.761
328.40 4.755
328.50 4.75
328.60 4.744
328.70 4.739
328.80 4.734
328.90 4.728
329.00 4.723
329.10 4.718
329.20 4.712
329.30 4.707
329.40 4.701
329.50 4.696
329.60 4.691
329.70 4.685
329.80 4.68
329.90 4.675
330.00 4.67
330.10 4.664
330.20 4.659
330.30 4.654
330.40 4.648
330.50 4.643
330.60 4.638
330.70 4.633
330.80 4.627
330.90 4.622
331.00 4.617
331.10 4.612
331.20 4.607
331.30 4.601
331.40 4.596
331.50 4.591
331.60 4.586
331.70 4.581
331.80 4.575
331.90 4.57
332.00 4.565
332.10 4.56
332.20 4.555
332.30 4.55
332.40 4.545
332.50 4.539
332.60 4.534
332.70 4.529
332.80 4.524
332.90 4.519
333.00 4.514
333.10 4.509
333.20 4.504
333.30 4.499
333.40 4.494
333.50 4.489
333.60 4.484
333.70 4.479
333.80 4.473
333.90 4.468
334.00 4.463
334.10 4.458
334.20 4.453
334.30 4.448
334.40 4.443
334.50 4.439
334.60 4.434
334.70 4.429
334.80 4.424
334.90 4.419
335.00 4.414
335.10 4.409
335.20 4.404
335.30 4.399
335.40 4.394
335.50 4.389
335.60 4.384
335.70 4.379
335.80 4.374
335.90 4.37
336.00 4.365
336.10 4.36
336.20 4.355
336.30 4.35
336.40 4.345
336.50 4.34
336.60 4.336
336.70 4.331
336.80 4.326
336.90 4.321
337.00 4.316
337.10 4.312
337.20 4.307
337.30 4.302
337.40 4.297
337.50 4.292
337.60 4.288
337.70 4.283
337.80 4.278
337.90 4.273
338.00 4.269
338.10 4.264
338.20 4.259
338.30 4.254
338.40 4.25
338.50 4.245
338.60 4.24
338.70 4.236
338.80 4.231
338.90 4.226
339.00 4.222
339.10 4.217
339.20 4.212
339.30 4.208
339.40 4.203
339.50 4.198
339.60 4.194
339.70 4.189
339.80 4.184
339.90 4.18
340.00 4.175
340.10 4.171
340.20 4.166
340.30 4.161
340.40 4.157
340.50 4.152
340.60 4.148
340.70 4.143
340.80 4.139
340.90 4.134
341.00 4.129
341.10 4.125
341.20 4.12
341.30 4.116
341.40 4.111
341.50 4.107
341.60 4.102
341.70 4.098
341.80 4.093
341.90 4.089
342.00 4.084
342.10 4.08
342.20 4.075
342.30 4.071
342.40 4.066
342.50 4.062
342.60 4.058
342.70 4.053
342.80 4.049
342.90 4.044
343.00 4.04
343.10 4.035
343.20 4.031
343.30 4.027
343.40 4.022
343.50 4.018
343.60 4.013
343.70 4.009
343.80 4.005
343.90 4
344.00 3.996
344.10 3.992
344.20 3.987
344.30 3.983
344.40 3.979
344.50 3.974
344.60 3.97
344.70 3.966
344.80 3.961
344.90 3.957
345.00 3.953
345.10 3.948
345.20 3.944
345.30 3.94
345.40 3.935
345.50 3.931
345.60 3.927
345.70 3.923
345.80 3.918
345.90 3.914
346.00 3.91
346.10 3.906
346.20 3.901
346.30 3.897
346.40 3.893
346.50 3.889
346.60 3.885
346.70 3.88
346.80 3.876
346.90 3.872
347.00 3.868
347.10 3.864
347.20 3.859
347.30 3.855
347.40 3.851
347.50 3.847
347.60 3.843
347.70 3.839
347.80 3.834
347.90 3.83
348.00 3.826
348.10 3.822
348.20 3.818
348.30 3.814
348.40 3.81
348.50 3.806
348.60 3.802
348.70 3.797
348.80 3.793
348.90 3.789
349.00 3.785
349.10 3.781
349.20 3.777
349.30 3.773
349.40 3.769
349.50 3.765
349.60 3.761
349.70 3.757
349.80 3.753
349.90 3.749
350.00 3.745
350.10 3.741
350.20 3.737
350.30 3.733
350.40 3.729
350.50 3.725
350.60 3.721
350.70 3.717
350.80 3.713
350.90 3.709
351.00 3.705
351.10 3.701
351.20 3.697
351.30 3.693
351.40 3.689
351.50 3.685
351.60 3.681
351.70 3.677
351.80 3.673
351.90 3.669
352.00 3.665
352.10 3.661
352.20 3.658
352.30 3.654
352.40 3.65
352.50 3.646
352.60 3.642
352.70 3.638
352.80 3.634
352.90 3.63
353.00 3.627
353.10 3.623
353.20 3.619
353.30 3.615
353.40 3.611
353.50 3.607
353.60 3.603
353.70 3.6
353.80 3.596
353.90 3.592
354.00 3.588
354.10 3.584
354.20 3.581
354.30 3.577
354.40 3.573
354.50 3.569
354.60 3.565
354.70 3.562
354.80 3.558
354.90 3.554
355.00 3.55
355.10 3.547
355.20 3.543
355.30 3.539
355.40 3.535
355.50 3.532
355.60 3.528
355.70 3.524
355.80 3.52
355.90 3.517
356.00 3.513
356.10 3.509
356.20 3.506
356.30 3.502
356.40 3.498
356.50 3.495
356.60 3.491
356.70 3.487
356.80 3.484
356.90 3.48
357.00 3.476
357.10 3.473
357.20 3.469
357.30 3.465
357.40 3.462
357.50 3.458
357.60 3.454
357.70 3.451
357.80 3.447
357.90 3.443
358.00 3.44
358.10 3.436
358.20 3.433
358.30 3.429
358.40 3.425
358.50 3.422
358.60 3.418
358.70 3.415
358.80 3.411
358.90 3.407
359.00 3.404
359.10 3.4
359.20 3.397
359.30 3.393
359.40 3.39
359.50 3.386
359.60 3.383
359.70 3.379
359.80 3.376
359.90 3.372
360.00 3.368
360.10 3.365
360.20 3.361
360.30 3.358
360.40 3.354
360.50 3.351
360.60 3.347
360.70 3.344
360.80 3.34
360.90 3.337
361.00 3.334
361.10 3.33
361.20 3.327
361.30 3.323
361.40 3.32
361.50 3.316
361.60 3.313
361.70 3.309
361.80 3.306
361.90 3.302
362.00 3.299
362.10 3.296
362.20 3.292
362.30 3.289
362.40 3.285
362.50 3.282
362.60 3.279
362.70 3.275
362.80 3.272
362.90 3.268
363.00 3.265
363.10 3.262
363.20 3.258
363.30 3.255
363.40 3.251
363.50 3.248
363.60 3.245
363.70 3.241
363.80 3.238
363.90 3.235
364.00 3.231
364.10 3.228
364.20 3.225
364.30 3.221
364.40 3.218
364.50 3.215
364.60 3.211
364.70 3.208
364.80 3.205
364.90 3.201
365.00 3.198
365.10 3.195
365.20 3.192
365.30 3.188
365.40 3.185
365.50 3.182
365.60 3.178
365.70 3.175
365.80 3.172
365.90 3.169
366.00 3.165
366.10 3.162
366.20 3.159
366.30 3.155
366.40 3.152
366.50 3.149
366.60 3.146
366.70 3.142
366.80 3.139
366.90 3.136
367.00 3.133
367.10 3.129
367.20 3.126
367.30 3.123
367.40 3.12
367.50 3.116
367.60 3.113
367.70 3.11
367.80 3.107
367.90 3.103
368.00 3.1
368.10 3.097
368.20 3.094
368.30 3.09
368.40 3.087
368.50 3.084
368.60 3.081
368.70 3.077
368.80 3.074
368.90 3.071
369.00 3.068
369.10 3.065
369.20 3.061
369.30 3.058
369.40 3.055
369.50 3.052
369.60 3.049
369.70 3.045
369.80 3.042
369.90 3.039
370.00 3.036
370.10 3.033
370.20 3.03
370.30 3.026
370.40 3.023
370.50 3.02
370.60 3.017
370.70 3.014
370.80 3.011
370.90 3.008
371.00 3.005
371.10 3.002
371.20 2.998
371.30 2.995
371.40 2.992
371.50 2.989
371.60 2.986
371.70 2.983
371.80 2.98
371.90 2.977
372.00 2.974
372.10 2.971
372.20 2.968
372.30 2.965
372.40 2.962
372.50 2.959
372.60 2.956
372.70 2.952
372.80 2.949
372.90 2.946
373.00 2.943
373.10 2.94
373.20 2.937
373.30 2.934
373.40 2.931
373.50 2.928
373.60 2.925
373.70 2.923
373.80 2.92
373.90 2.917
374.00 2.914
374.10 2.911
374.20 2.908
374.30 2.905
374.40 2.902
374.50 2.899
374.60 2.896
374.70 2.893
374.80 2.89
374.90 2.887
375.00 2.884
375.10 2.881
375.20 2.878
375.30 2.875
375.40 2.872
375.50 2.869
375.60 2.866
375.70 2.863
375.80 2.861
375.90 2.858
376.00 2.855
376.10 2.852
376.20 2.849
376.30 2.846
376.40 2.843
376.50 2.84
376.60 2.838
376.70 2.835
376.80 2.832
376.90 2.829
377.00 2.826
377.10 2.823
377.20 2.821
377.30 2.818
377.40 2.815
377.50 2.812
377.60 2.809
377.70 2.807
377.80 2.804
377.90 2.801
378.00 2.798
378.10 2.795
378.20 2.793
378.30 2.79
378.40 2.787
378.50 2.784
378.60 2.782
378.70 2.779
378.80 2.776
378.90 2.774
379.00 2.771
379.10 2.768
379.20 2.765
379.30 2.763
379.40 2.76
379.50 2.757
379.60 2.755
379.70 2.752
379.80 2.749
379.90 2.747
380.00 2.744
380.10 2.741
380.20 2.739
380.30 2.736
380.40 2.734
380.50 2.731
380.60 2.728
380.70 2.726
380.80 2.723
380.90 2.721
381.00 2.718
381.10 2.716
381.20 2.713
381.30 2.71
381.40 2.708
381.50 2.705
381.60 2.703
381.70 2.7
381.80 2.697
381.90 2.695
382.00 2.692
382.10 2.689
382.20 2.687
382.30 2.684
382.40 2.682
382.50 2.679
382.60 2.676
382.70 2.674
382.80 2.671
382.90 2.668
383.00 2.666
383.10 2.663
383.20 2.661
383.30 2.658
383.40 2.656
383.50 2.653
383.60 2.651
383.70 2.648
383.80 2.646
383.90 2.644
384.00 2.641
384.10 2.639
384.20 2.637
384.30 2.635
384.40 2.632
384.50 2.63
384.60 2.628
384.70 2.626
384.80 2.623
384.90 2.621
385.00 2.619
385.10 2.616
385.20 2.614
385.30 2.612
385.40 2.609
385.50 2.607
385.60 2.604
385.70 2.602
385.80 2.599
385.90 2.597
386.00 2.594
386.10 2.592
386.20 2.589
386.30 2.587
386.40 2.584
386.50 2.581
386.60 2.579
386.70 2.576
386.80 2.573
386.90 2.57
387.00 2.568
387.10 2.565
387.20 2.562
387.30 2.559
387.40 2.556
387.50 2.553
387.60 2.551
387.70 2.548
387.80 2.545
387.90 2.542
388.00 2.539
388.10 2.536
388.20 2.533
388.30 2.53
388.40 2.528
388.50 2.525
388.60 2.522
388.70 2.52
388.80 2.518
388.90 2.515
389.00 2.513
389.10 2.511
389.20 2.509
389.30 2.507
389.40 2.506
389.50 2.504
389.60 2.503
389.70 2.501
389.80 2.5
389.90 2.498
390.00 2.497
390.10 2.495
390.20 2.494
390.30 2.492
390.40 2.49
390.50 2.489
390.60 2.487
390.70 2.486
390.80 2.484
390.90 2.482
391.00 2.481
391.10 2.479
391.20 2.477
391.30 2.475
391.40 2.473
391.50 2.471
391.60 2.47
391.70 2.468
391.80 2.465
391.90 2.463
392.00 2.461
392.10 2.459
392.20 2.457
392.30 2.455
392.40 2.452
392.50 2.45
392.60 2.447
392.70 2.445
392.80 2.442
392.90 2.44
393.00 2.437
393.10 2.434
393.20 2.432
393.30 2.429
393.40 2.426
393.50 2.423
393.60 2.42
393.70 2.417
393.80 2.414
393.90 2.411
394.00 2.408
394.10 2.404
394.20 2.401
394.30 2.398
394.40 2.394
394.50 2.391
394.60 2.387
394.70 2.383
394.80 2.38
394.90 2.376
395.00 2.372
395.10 2.368
395.20 2.364
395.30 2.36
395.40 2.356
395.50 2.352
395.60 2.348
395.70 2.344
395.80 2.34
395.90 2.335
396.00 2.331
396.10 2.327
396.20 2.323
396.30 2.318
396.40 2.314
396.50 2.31
396.60 2.306
396.70 2.302
396.80 2.298
396.90 2.295
397.00 2.291
397.10 2.29
397.20 2.29
397.30 2.29
397.40 2.29
397.50 2.29
397.60 2.29
397.70 2.29
397.80 2.29
397.90 2.291
398.00 2.291
398.10 2.291
398.20 2.291
398.30 2.291
398.40 2.292
398.50 2.292
398.60 2.292
398.70 2.292
398.80 2.292
398.90 2.292
399.00 2.291
399.10 2.291
399.20 2.291
399.30 2.291
399.40 2.29
399.50 2.29
399.60 2.289
399.70 2.289
399.80 2.288
399.90 2.288
400.00 2.287
400.10 2.286
400.20 2.285
400.30 2.285
400.40 2.284
400.50 2.283
400.60 2.282
400.70 2.281
400.80 2.28
400.90 2.278
401.00 2.277
401.10 2.276
401.20 2.275
401.30 2.273
401.40 2.272
401.50 2.27
401.60 2.269
401.70 2.267
401.80 2.266
401.90 2.264
402.00 2.263
402.10 2.261
402.20 2.259
402.30 2.258
402.40 2.256
402.50 2.254
402.60 2.252
402.70 2.25
402.80 2.248
402.90 2.246
403.00 2.244
403.10 2.242
403.20 2.24
403.30 2.238
403.40 2.236
403.50 2.234
403.60 2.232
403.70 2.229
403.80 2.227
403.90 2.225
404.00 2.222
404.10 2.22
404.20 2.218
404.30 2.215
404.40 2.213
404.50 2.21
404.60 2.207
404.70 2.205
404.80 2.202
404.90 2.199
405.00 2.196
405.10 2.194
405.20 2.191
405.30 2.188
405.40 2.185
405.50 2.182
405.60 2.178
405.70 2.175
405.80 2.172
405.90 2.169
406.00 2.165
406.10 2.162
406.20 2.158
406.30 2.155
406.40 2.151
406.50 2.147
406.60 2.144
406.70 2.14
406.80 2.136
406.90 2.132
407.00 2.127
407.10 2.123
407.20 2.119
407.30 2.114
407.40 2.11
407.50 2.105
407.60 2.101
407.70 2.096
407.80 2.091
407.90 2.086
408.00 2.081
408.10 2.075
408.20 2.07
408.30 2.064
408.40 2.059
408.50 2.053
408.60 2.047
408.70 2.041
408.80 2.035
408.90 2.029
409.00 2.023
409.10 2.017
409.20 2.011
409.30 2.004
409.40 1.998
409.50 1.992
409.60 1.986
409.70 1.981
409.80 1.976
409.90 1.972
410.00 1.97
410.10 1.97
410.20 1.971
410.30 1.966
410.40 1.963
410.50 1.962
410.60 1.963
410.70 1.965
410.80 1.967
410.90 1.97
411.00 1.972
411.10 1.975
411.20 1.978
411.30 1.98
411.40 1.983
411.50 1.986
411.60 1.988
411.70 1.99
411.80 1.992
411.90 1.995
412.00 1.996
412.10 1.998
412.20 2
412.30 2.002
412.40 2.003
412.50 2.004
412.60 2.006
412.70 2.007
412.80 2.008
412.90 2.009
413.00 2.01
413.10 2.01
413.20 2.011
413.30 2.011
413.40 2.012
413.50 2.012
413.60 2.012
413.70 2.013
413.80 2.013
413.90 2.013
414.00 2.013
414.10 2.013
414.20 2.012
414.30 2.012
414.40 2.012
414.50 2.011
414.60 2.011
414.70 2.01
414.80 2.01
414.90 2.009
415.00 2.009
415.10 2.008
415.20 2.007
415.30 2.006
415.40 2.005
415.50 2.005
415.60 2.004
415.70 2.003
415.80 2.002
415.90 2.001
416.00 2
416.10 1.999
416.20 1.997
416.30 1.996
416.40 1.995
416.50 1.994
416.60 1.993
416.70 1.992
416.80 1.99
416.90 1.989
417.00 1.988
417.10 1.986
417.20 1.985
417.30 1.984
417.40 1.982
417.50 1.981
417.60 1.979
417.70 1.978
417.80 1.977
417.90 1.975
418.00 1.974
418.10 1.972
418.20 1.971
418.30 1.969
418.40 1.968
418.50 1.966
418.60 1.965
418.70 1.963
418.80 1.962
418.90 1.96
419.00 1.959
419.10 1.957
419.20 1.955
419.30 1.954
419.40 1.952
419.50 1.951
419.60 1.949
419.70 1.947
419.80 1.946
419.90 1.944
420.00 1.943
420.10 1.941
420.20 1.939
420.30 1.938
420.40 1.936
420.50 1.934
420.60 1.933
420.70 1.931
420.80 1.929
420.90 1.928
421.00 1.926
421.10 1.924
421.20 1.923
421.30 1.921
421.40 1.919
421.50 1.917
421.60 1.916
421.70 1.914
421.80 1.912
421.90 1.911
422.00 1.909
422.10 1.907
422.20 1.905
422.30 1.904
422.40 1.902
422.50 1.9
422.60 1.898
422.70 1.897
422.80 1.895
422.90 1.893
423.00 1.891
423.10 1.89
423.20 1.888
423.30 1.886
423.40 1.884
423.50 1.883
423.60 1.881
423.70 1.879
423.80 1.877
423.90 1.875
424.00 1.874
424.10 1.872
424.20 1.87
424.30 1.868
424.40 1.866
424.50 1.865
424.60 1.863
424.70 1.861
424.80 1.859
424.90 1.857
425.00 1.855
425.10 1.853
425.20 1.852
425.30 1.85
425.40 1.848
425.50 1.846
425.60 1.844
425.70 1.842
425.80 1.84
425.90 1.838
426.00 1.836
426.10 1.834
426.20 1.832
426.30 1.83
426.40 1.828
426.50 1.826
426.60 1.824
426.70 1.822
426.80 1.82
426.90 1.818
427.00 1.816
427.10 1.814
427.20 1.812
427.30 1.81
427.40 1.808
427.50 1.805
427.60 1.803
427.70 1.801
427.80 1.799
427.90 1.796
428.00 1.794
428.10 1.792
428.20 1.789
428.30 1.787
428.40 1.785
428.50 1.782
428.60 1.78
428.70 1.777
428.80 1.774
428.90 1.772
429.00 1.769
429.10 1.766
429.20 1.764
429.30 1.761
429.40 1.758
429.50 1.755
429.60 1.752
429.70 1.749
429.80 1.746
429.90 1.743
430.00 1.739
430.10 1.736
430.20 1.733
430.30 1.729
430.40 1.726
430.50 1.722
430.60 1.718
430.70 1.714
430.80 1.71
430.90 1.706
431.00 1.702
431.10 1.698
431.20 1.693
431.30 1.689
431.40 1.684
431.50 1.679
431.60 1.674
431.70 1.669
431.80 1.664
431.90 1.659
432.00 1.653
432.10 1.648
432.20 1.642
432.30 1.636
432.40 1.63
432.50 1.624
432.60 1.618
432.70 1.611
432.80 1.605
432.90 1.598
433.00 1.591
433.10 1.585
433.20 1.578
433.30 1.571
433.40 1.565
433.50 1.558
433.60 1.552
433.70 1.546
433.80 1.54
433.90 1.534
434.00 1.529
434.10 1.528
434.20 1.53
434.30 1.534
434.40 1.537
434.50 1.541
434.60 1.544
434.70 1.548
434.80 1.552
434.90 1.556
435.00 1.56
435.10 1.564
435.20 1.568
435.30 1.572
435.40 1.575
435.50 1.579
435.60 1.583
435.70 1.586
435.80 1.589
435.90 1.592
436.00 1.595
436.10 1.598
436.20 1.6
436.30 1.603
436.40 1.605
436.50 1.607
436.60 1.609
436.70 1.611
436.80 1.612
436.90 1.614
437.00 1.615
437.10 1.616
437.20 1.618
437.30 1.619
437.40 1.62
437.50 1.62
437.60 1.621
437.70 1.622
437.80 1.622
437.90 1.623
438.00 1.623
438.10 1.623
438.20 1.623
438.30 1.623
438.40 1.624
438.50 1.624
438.60 1.623
438.70 1.623
438.80 1.623
438.90 1.623
439.00 1.623
439.10 1.622
439.20 1.622
439.30 1.621
439.40 1.621
439.50 1.62
439.60 1.62
439.70 1.619
439.80 1.618
439.90 1.618
440.00 1.617
440.10 1.616
440.20 1.616
440.30 1.615
440.40 1.614
440.50 1.613
440.60 1.612
440.70 1.611
440.80 1.61
440.90 1.609
441.00 1.609
441.10 1.608
441.20 1.607
441.30 1.606
441.40 1.605
441.50 1.604
441.60 1.603
441.70 1.602
441.80 1.6
441.90 1.599
442.00 1.598
442.10 1.597
442.20 1.596
442.30 1.595
442.40 1.594
442.50 1.593
442.60 1.592
442.70 1.59
442.80 1.589
442.90 1.588
443.00 1.587
443.10 1.586
443.20 1.585
443.30 1.583
443.40 1.582
443.50 1.581
443.60 1.58
443.70 1.579
443.80 1.577
443.90 1.576
444.00 1.575
444.10 1.574
444.20 1.573
444.30 1.571
444.40 1.57
444.50 1.569
444.60 1.568
444.70 1.566
444.80 1.565
444.90 1.564
445.00 1.563
445.10 1.561
445.20 1.56
445.30 1.559
445.40 1.558
445.50 1.556
445.60 1.555
445.70 1.554
445.80 1.553
445.90 1.551
446.00 1.55
446.10 1.549
446.20 1.548
446.30 1.546
446.40 1.545
446.50 1.544
446.60 1.543
446.70 1.541
446.80 1.54
446.90 1.539
447.00 1.538
447.10 1.536
447.20 1.535
447.30 1.534
447.40 1.533
447.50 1.531
447.60 1.53
447.70 1.529
447.80 1.527
447.90 1.526
448.00 1.525
448.10 1.524
448.20 1.522
448.30 1.521
448.40 1.52
448.50 1.519
448.60 1.517
448.70 1.516
448.80 1.515
448.90 1.514
449.00 1.512
449.10 1.511
449.20 1.51
449.30 1.509
449.40 1.507
449.50 1.506
449.60 1.505
449.70 1.504
449.80 1.502
449.90 1.501
450.00 1.5
450.10 1.499
450.20 1.497
450.30 1.496
450.40 1.495
450.50 1.493
450.60 1.492
450.70 1.491
450.80 1.49
450.90 1.489
451.00 1.487
451.10 1.486
451.20 1.485
451.30 1.484
451.40 1.482
451.50 1.481
451.60 1.48
451.70 1.479
451.80 1.477
451.90 1.476
452.00 1.475
452.10 1.474
452.20 1.472
452.30 1.471
452.40 1.47
452.50 1.469
452.60 1.467
452.70 1.466
452.80 1.465
452.90 1.464
453.00 1.463
453.10 1.461
453.20 1.46
453.30 1.459
453.40 1.458
453.50 1.456
453.60 1.455
453.70 1.454
453.80 1.453
453.90 1.452
454.00 1.45
454.10 1.449
454.20 1.448
