# Version 2.1 - nm, norm@500 to 1, cut digits, bergeron_130000_95.dat_130000
# Wavelength(nm)  Flambda(ergs/cm^s/s/nm)
300.00 7.043
300.10 7.034
300.20 7.025
300.30 7.016
300.40 7.007
300.50 6.998
300.60 6.989
300.70 6.98
300.80 6.971
300.90 6.963
301.00 6.954
301.10 6.945
301.20 6.936
301.30 6.927
301.40 6.918
301.50 6.91
301.60 6.901
301.70 6.892
301.80 6.884
301.90 6.875
302.00 6.866
302.10 6.857
302.20 6.849
302.30 6.84
302.40 6.832
302.50 6.823
302.60 6.814
302.70 6.806
302.80 6.797
302.90 6.789
303.00 6.78
303.10 6.771
303.20 6.763
303.30 6.754
303.40 6.746
303.50 6.737
303.60 6.729
303.70 6.721
303.80 6.712
303.90 6.704
304.00 6.695
304.10 6.687
304.20 6.678
304.30 6.67
304.40 6.662
304.50 6.653
304.60 6.645
304.70 6.637
304.80 6.628
304.90 6.62
305.00 6.612
305.10 6.604
305.20 6.595
305.30 6.587
305.40 6.579
305.50 6.571
305.60 6.562
305.70 6.554
305.80 6.546
305.90 6.538
306.00 6.53
306.10 6.522
306.20 6.513
306.30 6.505
306.40 6.497
306.50 6.489
306.60 6.481
306.70 6.473
306.80 6.465
306.90 6.457
307.00 6.449
307.10 6.441
307.20 6.433
307.30 6.425
307.40 6.417
307.50 6.409
307.60 6.401
307.70 6.393
307.80 6.385
307.90 6.377
308.00 6.369
308.10 6.361
308.20 6.353
308.30 6.346
308.40 6.338
308.50 6.33
308.60 6.322
308.70 6.314
308.80 6.306
308.90 6.299
309.00 6.291
309.10 6.283
309.20 6.275
309.30 6.267
309.40 6.26
309.50 6.252
309.60 6.244
309.70 6.237
309.80 6.229
309.90 6.221
310.00 6.214
310.10 6.206
310.20 6.198
310.30 6.191
310.40 6.183
310.50 6.175
310.60 6.168
310.70 6.16
310.80 6.153
310.90 6.145
311.00 6.138
311.10 6.13
311.20 6.123
311.30 6.115
311.40 6.108
311.50 6.1
311.60 6.093
311.70 6.085
311.80 6.078
311.90 6.07
312.00 6.063
312.10 6.055
312.20 6.048
312.30 6.041
312.40 6.033
312.50 6.026
312.60 6.018
312.70 6.011
312.80 6.004
312.90 5.996
313.00 5.989
313.10 5.982
313.20 5.974
313.30 5.967
313.40 5.96
313.50 5.953
313.60 5.945
313.70 5.938
313.80 5.931
313.90 5.924
314.00 5.916
314.10 5.909
314.20 5.902
314.30 5.895
314.40 5.888
314.50 5.881
314.60 5.873
314.70 5.866
314.80 5.859
314.90 5.852
315.00 5.845
315.10 5.838
315.20 5.831
315.30 5.824
315.40 5.817
315.50 5.81
315.60 5.803
315.70 5.796
315.80 5.789
315.90 5.782
316.00 5.775
316.10 5.768
316.20 5.761
316.30 5.754
316.40 5.747
316.50 5.74
316.60 5.733
316.70 5.726
316.80 5.719
316.90 5.712
317.00 5.705
317.10 5.698
317.20 5.691
317.30 5.685
317.40 5.678
317.50 5.671
317.60 5.664
317.70 5.657
317.80 5.65
317.90 5.644
318.00 5.637
318.10 5.63
318.20 5.623
318.30 5.617
318.40 5.61
318.50 5.603
318.60 5.596
318.70 5.59
318.80 5.583
318.90 5.576
319.00 5.57
319.10 5.563
319.20 5.556
319.30 5.55
319.40 5.543
319.50 5.536
319.60 5.53
319.70 5.523
319.80 5.516
319.90 5.51
320.00 5.503
320.10 5.497
320.20 5.49
320.30 5.484
320.40 5.477
320.50 5.471
320.60 5.464
320.70 5.458
320.80 5.451
320.90 5.445
321.00 5.438
321.10 5.432
321.20 5.425
321.30 5.419
321.40 5.412
321.50 5.406
321.60 5.399
321.70 5.393
321.80 5.387
321.90 5.38
322.00 5.374
322.10 5.367
322.20 5.361
322.30 5.355
322.40 5.348
322.50 5.342
322.60 5.336
322.70 5.329
322.80 5.323
322.90 5.317
323.00 5.31
323.10 5.304
323.20 5.298
323.30 5.292
323.40 5.285
323.50 5.279
323.60 5.273
323.70 5.267
323.80 5.26
323.90 5.254
324.00 5.248
324.10 5.242
324.20 5.236
324.30 5.229
324.40 5.223
324.50 5.217
324.60 5.211
324.70 5.205
324.80 5.199
324.90 5.192
325.00 5.186
325.10 5.18
325.20 5.174
325.30 5.168
325.40 5.162
325.50 5.156
325.60 5.15
325.70 5.144
325.80 5.138
325.90 5.132
326.00 5.126
326.10 5.12
326.20 5.114
326.30 5.108
326.40 5.102
326.50 5.096
326.60 5.09
326.70 5.084
326.80 5.078
326.90 5.072
327.00 5.066
327.10 5.06
327.20 5.054
327.30 5.048
327.40 5.042
327.50 5.036
327.60 5.031
327.70 5.025
327.80 5.019
327.90 5.013
328.00 5.007
328.10 5.001
328.20 4.995
328.30 4.99
328.40 4.984
328.50 4.978
328.60 4.972
328.70 4.966
328.80 4.961
328.90 4.955
329.00 4.949
329.10 4.943
329.20 4.938
329.30 4.932
329.40 4.926
329.50 4.92
329.60 4.915
329.70 4.909
329.80 4.903
329.90 4.898
330.00 4.892
330.10 4.886
330.20 4.881
330.30 4.875
330.40 4.869
330.50 4.864
330.60 4.858
330.70 4.853
330.80 4.847
330.90 4.841
331.00 4.836
331.10 4.83
331.20 4.825
331.30 4.819
331.40 4.813
331.50 4.808
331.60 4.802
331.70 4.797
331.80 4.791
331.90 4.786
332.00 4.78
332.10 4.775
332.20 4.769
332.30 4.764
332.40 4.758
332.50 4.753
332.60 4.747
332.70 4.742
332.80 4.736
332.90 4.731
333.00 4.725
333.10 4.72
333.20 4.715
333.30 4.709
333.40 4.704
333.50 4.698
333.60 4.693
333.70 4.688
333.80 4.682
333.90 4.677
334.00 4.671
334.10 4.666
334.20 4.661
334.30 4.655
334.40 4.65
334.50 4.645
334.60 4.639
334.70 4.634
334.80 4.629
334.90 4.624
335.00 4.618
335.10 4.613
335.20 4.608
335.30 4.602
335.40 4.597
335.50 4.592
335.60 4.587
335.70 4.581
335.80 4.576
335.90 4.571
336.00 4.566
336.10 4.561
336.20 4.555
336.30 4.55
336.40 4.545
336.50 4.54
336.60 4.535
336.70 4.53
336.80 4.524
336.90 4.519
337.00 4.514
337.10 4.509
337.20 4.504
337.30 4.499
337.40 4.494
337.50 4.489
337.60 4.483
337.70 4.478
337.80 4.473
337.90 4.468
338.00 4.463
338.10 4.458
338.20 4.453
338.30 4.448
338.40 4.443
338.50 4.438
338.60 4.433
338.70 4.428
338.80 4.423
338.90 4.418
339.00 4.413
339.10 4.408
339.20 4.403
339.30 4.398
339.40 4.393
339.50 4.388
339.60 4.383
339.70 4.378
339.80 4.373
339.90 4.368
340.00 4.363
340.10 4.358
340.20 4.354
340.30 4.349
340.40 4.344
340.50 4.339
340.60 4.334
340.70 4.329
340.80 4.324
340.90 4.319
341.00 4.315
341.10 4.31
341.20 4.305
341.30 4.3
341.40 4.295
341.50 4.29
341.60 4.286
341.70 4.281
341.80 4.276
341.90 4.271
342.00 4.266
342.10 4.262
342.20 4.257
342.30 4.252
342.40 4.247
342.50 4.243
342.60 4.238
342.70 4.233
342.80 4.228
342.90 4.224
343.00 4.219
343.10 4.214
343.20 4.21
343.30 4.205
343.40 4.2
343.50 4.195
343.60 4.191
343.70 4.186
343.80 4.181
343.90 4.177
344.00 4.172
344.10 4.167
344.20 4.163
344.30 4.158
344.40 4.154
344.50 4.149
344.60 4.144
344.70 4.14
344.80 4.135
344.90 4.131
345.00 4.126
345.10 4.121
345.20 4.117
345.30 4.112
345.40 4.108
345.50 4.103
345.60 4.099
345.70 4.094
345.80 4.089
345.90 4.085
346.00 4.08
346.10 4.076
346.20 4.071
346.30 4.067
346.40 4.062
346.50 4.058
346.60 4.053
346.70 4.049
346.80 4.044
346.90 4.04
347.00 4.036
347.10 4.031
347.20 4.027
347.30 4.022
347.40 4.018
347.50 4.013
347.60 4.009
347.70 4.004
347.80 4
347.90 3.996
348.00 3.991
348.10 3.987
348.20 3.982
348.30 3.978
348.40 3.974
348.50 3.969
348.60 3.965
348.70 3.961
348.80 3.956
348.90 3.952
349.00 3.948
349.10 3.943
349.20 3.939
349.30 3.935
349.40 3.93
349.50 3.926
349.60 3.922
349.70 3.917
349.80 3.913
349.90 3.909
350.00 3.904
350.10 3.9
350.20 3.896
350.30 3.892
350.40 3.887
350.50 3.883
350.60 3.879
350.70 3.875
350.80 3.87
350.90 3.866
351.00 3.862
351.10 3.858
351.20 3.854
351.30 3.849
351.40 3.845
351.50 3.841
351.60 3.837
351.70 3.833
351.80 3.828
351.90 3.824
352.00 3.82
352.10 3.816
352.20 3.812
352.30 3.808
352.40 3.803
352.50 3.799
352.60 3.795
352.70 3.791
352.80 3.787
352.90 3.783
353.00 3.779
353.10 3.775
353.20 3.771
353.30 3.766
353.40 3.762
353.50 3.758
353.60 3.754
353.70 3.75
353.80 3.746
353.90 3.742
354.00 3.738
354.10 3.734
354.20 3.73
354.30 3.726
354.40 3.722
354.50 3.718
354.60 3.714
354.70 3.71
354.80 3.706
354.90 3.702
355.00 3.698
355.10 3.694
355.20 3.69
355.30 3.686
355.40 3.682
355.50 3.678
355.60 3.674
355.70 3.67
355.80 3.666
355.90 3.662
356.00 3.658
356.10 3.654
356.20 3.65
356.30 3.646
356.40 3.642
356.50 3.638
356.60 3.634
356.70 3.631
356.80 3.627
356.90 3.623
357.00 3.619
357.10 3.615
357.20 3.611
357.30 3.607
357.40 3.603
357.50 3.599
357.60 3.596
357.70 3.592
357.80 3.588
357.90 3.584
358.00 3.58
358.10 3.576
358.20 3.572
358.30 3.569
358.40 3.565
358.50 3.561
358.60 3.557
358.70 3.553
358.80 3.55
358.90 3.546
359.00 3.542
359.10 3.538
359.20 3.534
359.30 3.531
359.40 3.527
359.50 3.523
359.60 3.519
359.70 3.516
359.80 3.512
359.90 3.508
360.00 3.504
360.10 3.501
360.20 3.497
360.30 3.493
360.40 3.49
360.50 3.486
360.60 3.482
360.70 3.478
360.80 3.475
360.90 3.471
361.00 3.467
361.10 3.464
361.20 3.46
361.30 3.456
361.40 3.453
361.50 3.449
361.60 3.445
361.70 3.442
361.80 3.438
361.90 3.434
362.00 3.431
362.10 3.427
362.20 3.423
362.30 3.42
362.40 3.416
362.50 3.413
362.60 3.409
362.70 3.405
362.80 3.402
362.90 3.398
363.00 3.394
363.10 3.391
363.20 3.387
363.30 3.384
363.40 3.38
363.50 3.377
363.60 3.373
363.70 3.37
363.80 3.366
363.90 3.362
364.00 3.359
364.10 3.355
364.20 3.352
364.30 3.348
364.40 3.345
364.50 3.341
364.60 3.338
364.70 3.334
364.80 3.331
364.90 3.327
365.00 3.324
365.10 3.32
365.20 3.317
365.30 3.313
365.40 3.31
365.50 3.306
365.60 3.303
365.70 3.299
365.80 3.296
365.90 3.292
366.00 3.289
366.10 3.285
366.20 3.282
366.30 3.279
366.40 3.275
366.50 3.272
366.60 3.268
366.70 3.265
366.80 3.261
366.90 3.258
367.00 3.255
367.10 3.251
367.20 3.248
367.30 3.244
367.40 3.241
367.50 3.238
367.60 3.234
367.70 3.231
367.80 3.227
367.90 3.224
368.00 3.221
368.10 3.217
368.20 3.214
368.30 3.21
368.40 3.207
368.50 3.204
368.60 3.2
368.70 3.197
368.80 3.194
368.90 3.19
369.00 3.187
369.10 3.184
369.20 3.18
369.30 3.177
369.40 3.173
369.50 3.17
369.60 3.167
369.70 3.163
369.80 3.16
369.90 3.157
370.00 3.153
370.10 3.15
370.20 3.147
370.30 3.143
370.40 3.14
370.50 3.137
370.60 3.133
370.70 3.13
370.80 3.127
370.90 3.124
371.00 3.12
371.10 3.117
371.20 3.114
371.30 3.11
371.40 3.107
371.50 3.104
371.60 3.101
371.70 3.097
371.80 3.094
371.90 3.091
372.00 3.087
372.10 3.084
372.20 3.081
372.30 3.078
372.40 3.075
372.50 3.072
372.60 3.069
372.70 3.066
372.80 3.062
372.90 3.059
373.00 3.056
373.10 3.053
373.20 3.05
373.30 3.047
373.40 3.044
373.50 3.041
373.60 3.038
373.70 3.035
373.80 3.032
373.90 3.028
374.00 3.025
374.10 3.022
374.20 3.019
374.30 3.016
374.40 3.013
374.50 3.01
374.60 3.007
374.70 3.003
374.80 3
374.90 2.997
375.00 2.994
375.10 2.991
375.20 2.988
375.30 2.985
375.40 2.982
375.50 2.978
375.60 2.975
375.70 2.972
375.80 2.969
375.90 2.966
376.00 2.963
376.10 2.96
376.20 2.957
376.30 2.954
376.40 2.951
376.50 2.947
376.60 2.944
376.70 2.941
376.80 2.938
376.90 2.935
377.00 2.932
377.10 2.929
377.20 2.926
377.30 2.923
377.40 2.92
377.50 2.917
377.60 2.914
377.70 2.911
377.80 2.908
377.90 2.905
378.00 2.902
378.10 2.899
378.20 2.896
378.30 2.893
378.40 2.89
378.50 2.887
378.60 2.884
378.70 2.882
378.80 2.879
378.90 2.876
379.00 2.873
379.10 2.87
379.20 2.867
379.30 2.864
379.40 2.861
379.50 2.858
379.60 2.855
379.70 2.852
379.80 2.849
379.90 2.846
380.00 2.843
380.10 2.84
380.20 2.838
380.30 2.835
380.40 2.832
380.50 2.829
380.60 2.826
380.70 2.823
380.80 2.82
380.90 2.817
381.00 2.815
381.10 2.812
381.20 2.809
381.30 2.806
381.40 2.803
381.50 2.8
381.60 2.798
381.70 2.795
381.80 2.792
381.90 2.789
382.00 2.786
382.10 2.783
382.20 2.781
382.30 2.778
382.40 2.775
382.50 2.772
382.60 2.769
382.70 2.767
382.80 2.764
382.90 2.761
383.00 2.758
383.10 2.756
383.20 2.753
383.30 2.75
383.40 2.747
383.50 2.744
383.60 2.742
383.70 2.739
383.80 2.736
383.90 2.733
384.00 2.731
384.10 2.728
384.20 2.725
384.30 2.722
384.40 2.72
384.50 2.717
384.60 2.714
384.70 2.712
384.80 2.709
384.90 2.706
385.00 2.703
385.10 2.701
385.20 2.698
385.30 2.695
385.40 2.693
385.50 2.69
385.60 2.687
385.70 2.685
385.80 2.682
385.90 2.679
386.00 2.677
386.10 2.674
386.20 2.671
386.30 2.669
386.40 2.666
386.50 2.663
386.60 2.661
386.70 2.658
386.80 2.656
386.90 2.653
387.00 2.65
387.10 2.648
387.20 2.645
387.30 2.642
387.40 2.64
387.50 2.637
387.60 2.635
387.70 2.632
387.80 2.629
387.90 2.627
388.00 2.624
388.10 2.622
388.20 2.619
388.30 2.617
388.40 2.614
388.50 2.611
388.60 2.609
388.70 2.606
388.80 2.604
388.90 2.601
389.00 2.599
389.10 2.596
389.20 2.594
389.30 2.591
389.40 2.588
389.50 2.586
389.60 2.583
389.70 2.581
389.80 2.578
389.90 2.576
390.00 2.573
390.10 2.571
390.20 2.568
390.30 2.566
390.40 2.563
390.50 2.561
390.60 2.558
390.70 2.556
390.80 2.553
390.90 2.551
391.00 2.548
391.10 2.546
391.20 2.544
391.30 2.541
391.40 2.539
391.50 2.536
391.60 2.534
391.70 2.531
391.80 2.529
391.90 2.526
392.00 2.524
392.10 2.521
392.20 2.519
392.30 2.517
392.40 2.514
392.50 2.512
392.60 2.509
392.70 2.507
392.80 2.504
392.90 2.502
393.00 2.5
393.10 2.497
393.20 2.495
393.30 2.492
393.40 2.49
393.50 2.487
393.60 2.485
393.70 2.483
393.80 2.48
393.90 2.478
394.00 2.475
394.10 2.473
394.20 2.471
394.30 2.468
394.40 2.466
394.50 2.463
394.60 2.461
394.70 2.459
394.80 2.456
394.90 2.454
395.00 2.451
395.10 2.449
395.20 2.447
395.30 2.444
395.40 2.442
395.50 2.44
395.60 2.437
395.70 2.435
395.80 2.433
395.90 2.43
396.00 2.428
396.10 2.426
396.20 2.423
396.30 2.421
396.40 2.419
396.50 2.416
396.60 2.414
396.70 2.412
396.80 2.409
396.90 2.407
397.00 2.405
397.10 2.403
397.20 2.4
397.30 2.398
397.40 2.396
397.50 2.394
397.60 2.391
397.70 2.389
397.80 2.387
397.90 2.385
398.00 2.383
398.10 2.38
398.20 2.378
398.30 2.376
398.40 2.374
398.50 2.372
398.60 2.37
398.70 2.367
398.80 2.365
398.90 2.363
399.00 2.361
399.10 2.359
399.20 2.357
399.30 2.354
399.40 2.352
399.50 2.35
399.60 2.348
399.70 2.346
399.80 2.344
399.90 2.341
400.00 2.339
400.10 2.337
400.20 2.335
400.30 2.333
400.40 2.331
400.50 2.328
400.60 2.326
400.70 2.324
400.80 2.322
400.90 2.32
401.00 2.318
401.10 2.315
401.20 2.313
401.30 2.311
401.40 2.309
401.50 2.307
401.60 2.305
401.70 2.302
401.80 2.3
401.90 2.298
402.00 2.296
402.10 2.294
402.20 2.292
402.30 2.289
402.40 2.287
402.50 2.285
402.60 2.283
402.70 2.281
402.80 2.278
402.90 2.276
403.00 2.274
403.10 2.272
403.20 2.27
403.30 2.267
403.40 2.265
403.50 2.263
403.60 2.261
403.70 2.259
403.80 2.256
403.90 2.254
404.00 2.252
404.10 2.25
404.20 2.248
404.30 2.245
404.40 2.243
404.50 2.241
404.60 2.239
404.70 2.236
404.80 2.234
404.90 2.232
405.00 2.23
405.10 2.228
405.20 2.225
405.30 2.223
405.40 2.221
405.50 2.219
405.60 2.216
405.70 2.214
405.80 2.212
405.90 2.21
406.00 2.207
406.10 2.205
406.20 2.203
406.30 2.201
406.40 2.198
406.50 2.196
406.60 2.194
406.70 2.192
406.80 2.189
406.90 2.187
407.00 2.185
407.10 2.183
407.20 2.18
407.30 2.178
407.40 2.176
407.50 2.174
407.60 2.171
407.70 2.169
407.80 2.167
407.90 2.165
408.00 2.162
408.10 2.16
408.20 2.158
408.30 2.156
408.40 2.153
408.50 2.151
408.60 2.149
408.70 2.147
408.80 2.145
408.90 2.143
409.00 2.141
409.10 2.138
409.20 2.136
409.30 2.134
409.40 2.132
409.50 2.13
409.60 2.128
409.70 2.127
409.80 2.125
409.90 2.123
410.00 2.121
410.10 2.119
410.20 2.117
410.30 2.116
410.40 2.114
410.50 2.112
410.60 2.11
410.70 2.108
410.80 2.106
410.90 2.104
411.00 2.102
411.10 2.1
411.20 2.098
411.30 2.097
411.40 2.095
411.50 2.093
411.60 2.092
411.70 2.09
411.80 2.088
411.90 2.087
412.00 2.085
412.10 2.083
412.20 2.082
412.30 2.08
412.40 2.079
412.50 2.077
412.60 2.075
412.70 2.074
412.80 2.072
412.90 2.071
413.00 2.069
413.10 2.068
413.20 2.066
413.30 2.064
413.40 2.063
413.50 2.061
413.60 2.06
413.70 2.058
413.80 2.057
413.90 2.055
414.00 2.053
414.10 2.052
414.20 2.05
414.30 2.049
414.40 2.047
414.50 2.045
414.60 2.044
414.70 2.042
414.80 2.041
414.90 2.039
415.00 2.037
415.10 2.036
415.20 2.034
415.30 2.032
415.40 2.031
415.50 2.029
415.60 2.028
415.70 2.026
415.80 2.024
415.90 2.023
416.00 2.021
416.10 2.019
416.20 2.018
416.30 2.016
416.40 2.014
416.50 2.013
416.60 2.011
416.70 2.009
416.80 2.008
416.90 2.006
417.00 2.004
417.10 2.003
417.20 2.001
417.30 1.999
417.40 1.998
417.50 1.996
417.60 1.994
417.70 1.993
417.80 1.991
417.90 1.989
418.00 1.987
418.10 1.986
418.20 1.984
418.30 1.982
418.40 1.981
418.50 1.979
418.60 1.977
418.70 1.975
418.80 1.974
418.90 1.972
419.00 1.97
419.10 1.969
419.20 1.967
419.30 1.965
419.40 1.963
419.50 1.962
419.60 1.96
419.70 1.958
419.80 1.956
419.90 1.955
420.00 1.953
420.10 1.951
420.20 1.949
420.30 1.948
420.40 1.946
420.50 1.944
420.60 1.942
420.70 1.94
420.80 1.939
420.90 1.937
421.00 1.935
421.10 1.933
421.20 1.932
421.30 1.93
421.40 1.928
421.50 1.926
421.60 1.924
421.70 1.923
421.80 1.921
421.90 1.919
422.00 1.917
422.10 1.915
422.20 1.913
422.30 1.912
422.40 1.91
422.50 1.908
422.60 1.906
422.70 1.904
422.80 1.903
422.90 1.901
423.00 1.899
423.10 1.897
423.20 1.895
423.30 1.893
423.40 1.891
423.50 1.89
423.60 1.888
423.70 1.886
423.80 1.884
423.90 1.882
424.00 1.88
424.10 1.878
424.20 1.876
424.30 1.875
424.40 1.873
424.50 1.871
424.60 1.869
424.70 1.867
424.80 1.865
424.90 1.863
425.00 1.861
425.10 1.859
425.20 1.857
425.30 1.855
425.40 1.853
425.50 1.851
425.60 1.849
425.70 1.848
425.80 1.846
425.90 1.844
426.00 1.842
426.10 1.84
426.20 1.838
426.30 1.836
426.40 1.834
426.50 1.832
426.60 1.83
426.70 1.828
426.80 1.826
426.90 1.824
427.00 1.821
427.10 1.819
427.20 1.817
427.30 1.815
427.40 1.813
427.50 1.811
427.60 1.809
427.70 1.807
427.80 1.805
427.90 1.803
428.00 1.801
428.10 1.799
428.20 1.796
428.30 1.794
428.40 1.792
428.50 1.79
428.60 1.788
428.70 1.786
428.80 1.784
428.90 1.781
429.00 1.779
429.10 1.777
429.20 1.775
429.30 1.773
429.40 1.77
429.50 1.768
429.60 1.766
429.70 1.764
429.80 1.761
429.90 1.759
430.00 1.757
430.10 1.755
430.20 1.752
430.30 1.75
430.40 1.748
430.50 1.745
430.60 1.743
430.70 1.741
430.80 1.739
430.90 1.736
431.00 1.734
431.10 1.732
431.20 1.729
431.30 1.727
431.40 1.725
431.50 1.722
431.60 1.72
431.70 1.717
431.80 1.715
431.90 1.713
432.00 1.71
432.10 1.708
432.20 1.705
432.30 1.703
432.40 1.701
432.50 1.698
432.60 1.696
432.70 1.693
432.80 1.691
432.90 1.688
433.00 1.686
433.10 1.683
433.20 1.68
433.30 1.678
433.40 1.675
433.50 1.672
433.60 1.669
433.70 1.666
433.80 1.663
433.90 1.66
434.00 1.658
434.10 1.657
434.20 1.657
434.30 1.657
434.40 1.657
434.50 1.658
434.60 1.658
434.70 1.658
434.80 1.657
434.90 1.657
435.00 1.657
435.10 1.657
435.20 1.656
435.30 1.656
435.40 1.656
435.50 1.655
435.60 1.655
435.70 1.654
435.80 1.654
435.90 1.653
436.00 1.653
436.10 1.652
436.20 1.652
436.30 1.651
436.40 1.651
436.50 1.65
436.60 1.649
436.70 1.649
436.80 1.648
436.90 1.648
437.00 1.647
437.10 1.646
437.20 1.646
437.30 1.645
437.40 1.644
437.50 1.644
437.60 1.643
437.70 1.642
437.80 1.642
437.90 1.641
438.00 1.64
438.10 1.639
438.20 1.639
438.30 1.638
438.40 1.637
438.50 1.636
438.60 1.636
438.70 1.635
438.80 1.634
438.90 1.633
439.00 1.632
439.10 1.632
439.20 1.631
439.30 1.63
439.40 1.629
439.50 1.628
439.60 1.627
439.70 1.626
439.80 1.626
439.90 1.625
440.00 1.624
440.10 1.623
440.20 1.622
440.30 1.621
440.40 1.62
440.50 1.619
440.60 1.618
440.70 1.617
440.80 1.616
440.90 1.615
441.00 1.614
441.10 1.613
441.20 1.612
441.30 1.611
441.40 1.61
441.50 1.609
441.60 1.608
441.70 1.607
441.80 1.606
441.90 1.605
442.00 1.604
442.10 1.603
442.20 1.602
442.30 1.601
442.40 1.6
442.50 1.599
442.60 1.597
442.70 1.596
442.80 1.595
442.90 1.594
443.00 1.593
443.10 1.592
443.20 1.591
443.30 1.59
443.40 1.588
443.50 1.587
443.60 1.586
443.70 1.585
443.80 1.584
443.90 1.583
444.00 1.582
444.10 1.58
444.20 1.579
444.30 1.578
444.40 1.577
444.50 1.576
444.60 1.575
444.70 1.573
444.80 1.572
444.90 1.571
445.00 1.57
445.10 1.569
445.20 1.568
445.30 1.566
445.40 1.565
445.50 1.564
445.60 1.563
445.70 1.562
445.80 1.56
445.90 1.559
446.00 1.558
446.10 1.557
446.20 1.555
446.30 1.554
446.40 1.553
446.50 1.552
446.60 1.551
446.70 1.549
446.80 1.548
446.90 1.547
447.00 1.546
447.10 1.545
447.20 1.543
447.30 1.542
447.40 1.541
447.50 1.54
447.60 1.538
447.70 1.537
447.80 1.536
447.90 1.535
448.00 1.533
448.10 1.532
448.20 1.531
448.30 1.53
448.40 1.529
448.50 1.527
448.60 1.526
448.70 1.525
448.80 1.524
448.90 1.522
449.00 1.521
449.10 1.52
449.20 1.519
449.30 1.517
449.40 1.516
449.50 1.515
449.60 1.514
449.70 1.512
449.80 1.511
449.90 1.51
450.00 1.509
450.10 1.507
450.20 1.506
450.30 1.505
450.40 1.504
450.50 1.502
450.60 1.501
450.70 1.5
450.80 1.499
450.90 1.498
451.00 1.496
451.10 1.495
451.20 1.494
451.30 1.493
451.40 1.491
451.50 1.49
451.60 1.489
451.70 1.488
451.80 1.486
451.90 1.485
452.00 1.484
452.10 1.483
452.20 1.481
452.30 1.48
452.40 1.479
452.50 1.478
452.60 1.477
452.70 1.475
452.80 1.474
452.90 1.473
453.00 1.472
453.10 1.47
453.20 1.469
453.30 1.468
453.40 1.467
453.50 1.465
453.60 1.464
453.70 1.463
453.80 1.462
453.90 1.461
454.00 1.459
454.10 1.458
