# Version 2.1 - nm, norm@500 to 1, cut digits, bergeron_13000_95.dat_13000
# Wavelength(nm)  Flambda(ergs/cm^s/s/nm)
300.00 2.505
300.10 2.503
300.20 2.501
300.30 2.5
300.40 2.498
300.50 2.496
300.60 2.495
300.70 2.493
300.80 2.492
300.90 2.49
301.00 2.488
301.10 2.487
301.20 2.485
301.30 2.484
301.40 2.482
301.50 2.48
301.60 2.479
301.70 2.477
301.80 2.476
301.90 2.474
302.00 2.473
302.10 2.471
302.20 2.469
302.30 2.468
302.40 2.466
302.50 2.465
302.60 2.463
302.70 2.461
302.80 2.46
302.90 2.458
303.00 2.457
303.10 2.455
303.20 2.454
303.30 2.452
303.40 2.45
303.50 2.449
303.60 2.447
303.70 2.446
303.80 2.444
303.90 2.442
304.00 2.441
304.10 2.439
304.20 2.438
304.30 2.436
304.40 2.435
304.50 2.433
304.60 2.432
304.70 2.43
304.80 2.428
304.90 2.427
305.00 2.425
305.10 2.424
305.20 2.422
305.30 2.421
305.40 2.419
305.50 2.417
305.60 2.416
305.70 2.414
305.80 2.413
305.90 2.411
306.00 2.41
306.10 2.408
306.20 2.407
306.30 2.405
306.40 2.404
306.50 2.402
306.60 2.4
306.70 2.399
306.80 2.397
306.90 2.396
307.00 2.394
307.10 2.393
307.20 2.391
307.30 2.39
307.40 2.388
307.50 2.387
307.60 2.385
307.70 2.383
307.80 2.382
307.90 2.38
308.00 2.379
308.10 2.377
308.20 2.376
308.30 2.374
308.40 2.373
308.50 2.371
308.60 2.37
308.70 2.368
308.80 2.367
308.90 2.365
309.00 2.364
309.10 2.362
309.20 2.361
309.30 2.359
309.40 2.358
309.50 2.356
309.60 2.355
309.70 2.353
309.80 2.352
309.90 2.35
310.00 2.348
310.10 2.347
310.20 2.345
310.30 2.344
310.40 2.342
310.50 2.341
310.60 2.339
310.70 2.338
310.80 2.336
310.90 2.335
311.00 2.333
311.10 2.332
311.20 2.33
311.30 2.329
311.40 2.327
311.50 2.326
311.60 2.324
311.70 2.323
311.80 2.321
311.90 2.32
312.00 2.318
312.10 2.317
312.20 2.315
312.30 2.314
312.40 2.313
312.50 2.311
312.60 2.31
312.70 2.308
312.80 2.307
312.90 2.305
313.00 2.304
313.10 2.302
313.20 2.301
313.30 2.299
313.40 2.298
313.50 2.296
313.60 2.295
313.70 2.293
313.80 2.292
313.90 2.29
314.00 2.289
314.10 2.287
314.20 2.286
314.30 2.284
314.40 2.283
314.50 2.281
314.60 2.28
314.70 2.279
314.80 2.277
314.90 2.276
315.00 2.274
315.10 2.273
315.20 2.271
315.30 2.27
315.40 2.268
315.50 2.267
315.60 2.265
315.70 2.264
315.80 2.263
315.90 2.261
316.00 2.26
316.10 2.258
316.20 2.257
316.30 2.255
316.40 2.254
316.50 2.252
316.60 2.251
316.70 2.249
316.80 2.248
316.90 2.247
317.00 2.245
317.10 2.244
317.20 2.242
317.30 2.241
317.40 2.239
317.50 2.238
317.60 2.236
317.70 2.235
317.80 2.234
317.90 2.232
318.00 2.231
318.10 2.229
318.20 2.228
318.30 2.226
318.40 2.225
318.50 2.224
318.60 2.222
318.70 2.221
318.80 2.219
318.90 2.218
319.00 2.216
319.10 2.215
319.20 2.214
319.30 2.212
319.40 2.211
319.50 2.209
319.60 2.208
319.70 2.207
319.80 2.205
319.90 2.204
320.00 2.202
320.10 2.201
320.20 2.199
320.30 2.198
320.40 2.197
320.50 2.195
320.60 2.194
320.70 2.192
320.80 2.191
320.90 2.19
321.00 2.188
321.10 2.187
321.20 2.185
321.30 2.184
321.40 2.183
321.50 2.181
321.60 2.18
321.70 2.178
321.80 2.177
321.90 2.176
322.00 2.174
322.10 2.173
322.20 2.171
322.30 2.17
322.40 2.169
322.50 2.167
322.60 2.166
322.70 2.164
322.80 2.163
322.90 2.162
323.00 2.16
323.10 2.159
323.20 2.158
323.30 2.156
323.40 2.155
323.50 2.153
323.60 2.152
323.70 2.151
323.80 2.149
323.90 2.148
324.00 2.147
324.10 2.145
324.20 2.144
324.30 2.142
324.40 2.141
324.50 2.14
324.60 2.138
324.70 2.137
324.80 2.136
324.90 2.134
325.00 2.133
325.10 2.131
325.20 2.13
325.30 2.129
325.40 2.127
325.50 2.126
325.60 2.125
325.70 2.123
325.80 2.122
325.90 2.121
326.00 2.119
326.10 2.118
326.20 2.116
326.30 2.115
326.40 2.114
326.50 2.112
326.60 2.111
326.70 2.11
326.80 2.108
326.90 2.107
327.00 2.106
327.10 2.104
327.20 2.103
327.30 2.102
327.40 2.1
327.50 2.099
327.60 2.098
327.70 2.096
327.80 2.095
327.90 2.094
328.00 2.092
328.10 2.091
328.20 2.089
328.30 2.088
328.40 2.087
328.50 2.085
328.60 2.084
328.70 2.083
328.80 2.081
328.90 2.08
329.00 2.079
329.10 2.077
329.20 2.076
329.30 2.075
329.40 2.074
329.50 2.072
329.60 2.071
329.70 2.07
329.80 2.068
329.90 2.067
330.00 2.066
330.10 2.064
330.20 2.063
330.30 2.062
330.40 2.06
330.50 2.059
330.60 2.058
330.70 2.056
330.80 2.055
330.90 2.054
331.00 2.052
331.10 2.051
331.20 2.05
331.30 2.048
331.40 2.047
331.50 2.046
331.60 2.045
331.70 2.043
331.80 2.042
331.90 2.041
332.00 2.039
332.10 2.038
332.20 2.037
332.30 2.035
332.40 2.034
332.50 2.033
332.60 2.032
332.70 2.03
332.80 2.029
332.90 2.028
333.00 2.026
333.10 2.025
333.20 2.024
333.30 2.022
333.40 2.021
333.50 2.02
333.60 2.019
333.70 2.017
333.80 2.016
333.90 2.015
334.00 2.013
334.10 2.012
334.20 2.011
334.30 2.01
334.40 2.008
334.50 2.007
334.60 2.006
334.70 2.004
334.80 2.003
334.90 2.002
335.00 2.001
335.10 1.999
335.20 1.998
335.30 1.997
335.40 1.996
335.50 1.994
335.60 1.993
335.70 1.992
335.80 1.99
335.90 1.989
336.00 1.988
336.10 1.987
336.20 1.985
336.30 1.984
336.40 1.983
336.50 1.982
336.60 1.98
336.70 1.979
336.80 1.978
336.90 1.977
337.00 1.975
337.10 1.974
337.20 1.973
337.30 1.971
337.40 1.97
337.50 1.969
337.60 1.968
337.70 1.966
337.80 1.965
337.90 1.964
338.00 1.963
338.10 1.961
338.20 1.96
338.30 1.959
338.40 1.958
338.50 1.956
338.60 1.955
338.70 1.954
338.80 1.953
338.90 1.951
339.00 1.95
339.10 1.949
339.20 1.948
339.30 1.947
339.40 1.945
339.50 1.944
339.60 1.943
339.70 1.942
339.80 1.94
339.90 1.939
340.00 1.938
340.10 1.937
340.20 1.935
340.30 1.934
340.40 1.933
340.50 1.932
340.60 1.93
340.70 1.929
340.80 1.928
340.90 1.927
341.00 1.926
341.10 1.924
341.20 1.923
341.30 1.922
341.40 1.921
341.50 1.919
341.60 1.918
341.70 1.917
341.80 1.916
341.90 1.915
342.00 1.913
342.10 1.912
342.20 1.911
342.30 1.91
342.40 1.909
342.50 1.907
342.60 1.906
342.70 1.905
342.80 1.904
342.90 1.902
343.00 1.901
343.10 1.9
343.20 1.899
343.30 1.898
343.40 1.896
343.50 1.895
343.60 1.894
343.70 1.893
343.80 1.892
343.90 1.89
344.00 1.889
344.10 1.888
344.20 1.887
344.30 1.886
344.40 1.884
344.50 1.883
344.60 1.882
344.70 1.881
344.80 1.88
344.90 1.878
345.00 1.877
345.10 1.876
345.20 1.875
345.30 1.874
345.40 1.873
345.50 1.871
345.60 1.87
345.70 1.869
345.80 1.868
345.90 1.867
346.00 1.865
346.10 1.864
346.20 1.863
346.30 1.862
346.40 1.861
346.50 1.859
346.60 1.858
346.70 1.857
346.80 1.856
346.90 1.855
347.00 1.854
347.10 1.852
347.20 1.851
347.30 1.85
347.40 1.849
347.50 1.848
347.60 1.847
347.70 1.845
347.80 1.844
347.90 1.843
348.00 1.842
348.10 1.841
348.20 1.84
348.30 1.838
348.40 1.837
348.50 1.836
348.60 1.835
348.70 1.834
348.80 1.833
348.90 1.831
349.00 1.83
349.10 1.829
349.20 1.828
349.30 1.827
349.40 1.826
349.50 1.825
349.60 1.823
349.70 1.822
349.80 1.821
349.90 1.82
350.00 1.819
350.10 1.818
350.20 1.816
350.30 1.815
350.40 1.814
350.50 1.813
350.60 1.812
350.70 1.811
350.80 1.81
350.90 1.808
351.00 1.807
351.10 1.806
351.20 1.805
351.30 1.804
351.40 1.803
351.50 1.802
351.60 1.8
351.70 1.799
351.80 1.798
351.90 1.797
352.00 1.796
352.10 1.795
352.20 1.794
352.30 1.793
352.40 1.791
352.50 1.79
352.60 1.789
352.70 1.788
352.80 1.787
352.90 1.786
353.00 1.785
353.10 1.783
353.20 1.782
353.30 1.781
353.40 1.78
353.50 1.779
353.60 1.778
353.70 1.777
353.80 1.776
353.90 1.774
354.00 1.773
354.10 1.772
354.20 1.771
354.30 1.77
354.40 1.769
354.50 1.768
354.60 1.767
354.70 1.766
354.80 1.764
354.90 1.763
355.00 1.762
355.10 1.761
355.20 1.76
355.30 1.759
355.40 1.758
355.50 1.757
355.60 1.756
355.70 1.754
355.80 1.753
355.90 1.752
356.00 1.751
356.10 1.75
356.20 1.749
356.30 1.748
356.40 1.747
356.50 1.746
356.60 1.745
356.70 1.743
356.80 1.742
356.90 1.741
357.00 1.74
357.10 1.739
357.20 1.738
357.30 1.737
357.40 1.736
357.50 1.735
357.60 1.734
357.70 1.733
357.80 1.731
357.90 1.73
358.00 1.729
358.10 1.728
358.20 1.727
358.30 1.726
358.40 1.725
358.50 1.724
358.60 1.723
358.70 1.722
358.80 1.721
358.90 1.719
359.00 1.718
359.10 1.717
359.20 1.716
359.30 1.715
359.40 1.714
359.50 1.713
359.60 1.712
359.70 1.711
359.80 1.71
359.90 1.709
360.00 1.708
360.10 1.707
360.20 1.706
360.30 1.704
360.40 1.703
360.50 1.702
360.60 1.701
360.70 1.7
360.80 1.699
360.90 1.698
361.00 1.697
361.10 1.696
361.20 1.695
361.30 1.694
361.40 1.693
361.50 1.692
361.60 1.691
361.70 1.69
361.80 1.688
361.90 1.687
362.00 1.686
362.10 1.685
362.20 1.684
362.30 1.683
362.40 1.682
362.50 1.681
362.60 1.68
362.70 1.679
362.80 1.678
362.90 1.677
363.00 1.676
363.10 1.675
363.20 1.673
363.30 1.672
363.40 1.671
363.50 1.67
363.60 1.668
363.70 1.667
363.80 1.666
363.90 1.665
364.00 1.663
364.10 1.662
364.20 1.661
364.30 1.66
364.40 1.658
364.50 1.657
364.60 1.656
364.70 1.655
364.80 1.653
364.90 1.652
365.00 1.651
365.10 1.649
365.20 1.648
365.30 1.647
365.40 1.646
365.50 1.644
365.60 1.643
365.70 1.642
365.80 1.641
365.90 1.639
366.00 1.638
366.10 1.637
366.20 1.636
366.30 1.635
366.40 1.634
366.50 1.633
366.60 1.631
366.70 1.63
366.80 1.629
366.90 1.628
367.00 1.627
367.10 1.626
367.20 1.625
367.30 1.624
367.40 1.623
367.50 1.622
367.60 1.621
367.70 1.62
367.80 1.619
367.90 1.617
368.00 1.616
368.10 1.615
368.20 1.614
368.30 1.613
368.40 1.612
368.50 1.611
368.60 1.61
368.70 1.609
368.80 1.608
368.90 1.607
369.00 1.605
369.10 1.604
369.20 1.603
369.30 1.602
369.40 1.601
369.50 1.6
369.60 1.599
369.70 1.598
369.80 1.597
369.90 1.596
370.00 1.595
370.10 1.594
370.20 1.593
370.30 1.592
370.40 1.59
370.50 1.589
370.60 1.588
370.70 1.587
370.80 1.586
370.90 1.585
371.00 1.584
371.10 1.583
371.20 1.582
371.30 1.581
371.40 1.58
371.50 1.579
371.60 1.578
371.70 1.577
371.80 1.576
371.90 1.575
372.00 1.574
372.10 1.573
372.20 1.572
372.30 1.571
372.40 1.57
372.50 1.569
372.60 1.568
372.70 1.567
372.80 1.566
372.90 1.565
373.00 1.564
373.10 1.564
373.20 1.563
373.30 1.562
373.40 1.561
373.50 1.56
373.60 1.559
373.70 1.558
373.80 1.557
373.90 1.556
374.00 1.555
374.10 1.554
374.20 1.553
374.30 1.553
374.40 1.552
374.50 1.551
374.60 1.55
374.70 1.549
374.80 1.548
374.90 1.548
375.00 1.547
375.10 1.546
375.20 1.545
375.30 1.544
375.40 1.543
375.50 1.543
375.60 1.542
375.70 1.541
375.80 1.54
375.90 1.539
376.00 1.538
376.10 1.538
376.20 1.537
376.30 1.536
376.40 1.535
376.50 1.534
376.60 1.534
376.70 1.533
376.80 1.532
376.90 1.531
377.00 1.531
377.10 1.53
377.20 1.529
377.30 1.528
377.40 1.527
377.50 1.526
377.60 1.525
377.70 1.524
377.80 1.523
377.90 1.523
378.00 1.522
378.10 1.52
378.20 1.519
378.30 1.518
378.40 1.517
378.50 1.515
378.60 1.514
378.70 1.513
378.80 1.511
378.90 1.51
379.00 1.509
379.10 1.508
379.20 1.507
379.30 1.506
379.40 1.505
379.50 1.504
379.60 1.503
379.70 1.502
379.80 1.501
379.90 1.5
380.00 1.499
380.10 1.499
380.20 1.499
380.30 1.499
380.40 1.499
380.50 1.499
380.60 1.498
380.70 1.498
380.80 1.498
380.90 1.498
381.00 1.498
381.10 1.498
381.20 1.497
381.30 1.497
381.40 1.496
381.50 1.496
381.60 1.495
381.70 1.494
381.80 1.493
381.90 1.492
382.00 1.491
382.10 1.49
382.20 1.488
382.30 1.486
382.40 1.484
382.50 1.482
382.60 1.48
382.70 1.478
382.80 1.476
382.90 1.473
383.00 1.471
383.10 1.469
383.20 1.467
383.30 1.466
383.40 1.464
383.50 1.463
383.60 1.463
383.70 1.464
383.80 1.465
383.90 1.465
384.00 1.467
384.10 1.468
384.20 1.47
384.30 1.472
384.40 1.474
384.50 1.475
384.60 1.477
384.70 1.478
384.80 1.479
384.90 1.48
385.00 1.48
385.10 1.481
385.20 1.481
385.30 1.481
385.40 1.481
385.50 1.481
385.60 1.481
385.70 1.48
385.80 1.48
385.90 1.479
386.00 1.478
386.10 1.477
386.20 1.476
386.30 1.475
386.40 1.473
386.50 1.472
386.60 1.47
386.70 1.468
386.80 1.466
386.90 1.464
387.00 1.462
387.10 1.459
387.20 1.457
387.30 1.454
387.40 1.451
387.50 1.448
387.60 1.444
387.70 1.441
387.80 1.437
387.90 1.433
388.00 1.429
388.10 1.424
388.20 1.419
388.30 1.414
388.40 1.408
388.50 1.403
388.60 1.398
388.70 1.395
388.80 1.393
388.90 1.391
389.00 1.392
389.10 1.395
389.20 1.397
389.30 1.401
389.40 1.406
389.50 1.412
389.60 1.417
389.70 1.422
389.80 1.426
389.90 1.43
390.00 1.434
390.10 1.438
390.20 1.441
390.30 1.444
390.40 1.447
390.50 1.45
390.60 1.452
390.70 1.454
390.80 1.457
390.90 1.459
391.00 1.46
391.10 1.462
391.20 1.464
391.30 1.465
391.40 1.466
391.50 1.467
391.60 1.468
391.70 1.469
391.80 1.469
391.90 1.469
392.00 1.47
392.10 1.469
392.20 1.469
392.30 1.469
392.40 1.468
392.50 1.468
392.60 1.467
392.70 1.465
392.80 1.464
392.90 1.463
393.00 1.461
393.10 1.459
393.20 1.457
393.30 1.455
393.40 1.452
393.50 1.45
393.60 1.447
393.70 1.444
393.80 1.441
393.90 1.437
394.00 1.434
394.10 1.43
394.20 1.425
394.30 1.421
394.40 1.416
394.50 1.411
394.60 1.406
394.70 1.401
394.80 1.395
394.90 1.389
395.00 1.383
395.10 1.377
395.20 1.37
395.30 1.363
395.40 1.356
395.50 1.348
395.60 1.34
395.70 1.332
395.80 1.324
395.90 1.315
396.00 1.306
396.10 1.296
396.20 1.286
396.30 1.276
396.40 1.264
396.50 1.251
396.60 1.237
396.70 1.222
396.80 1.212
396.90 1.202
397.00 1.193
397.10 1.201
397.20 1.21
397.30 1.219
397.40 1.234
397.50 1.247
397.60 1.26
397.70 1.272
397.80 1.282
397.90 1.292
398.00 1.301
398.10 1.31
398.20 1.319
398.30 1.327
398.40 1.335
398.50 1.343
398.60 1.35
398.70 1.357
398.80 1.364
398.90 1.371
399.00 1.377
399.10 1.384
399.20 1.39
399.30 1.395
399.40 1.401
399.50 1.406
399.60 1.411
399.70 1.416
399.80 1.42
399.90 1.424
400.00 1.428
400.10 1.432
400.20 1.436
400.30 1.439
400.40 1.443
400.50 1.446
400.60 1.449
400.70 1.451
400.80 1.454
400.90 1.456
401.00 1.459
401.10 1.461
401.20 1.463
401.30 1.464
401.40 1.466
401.50 1.467
401.60 1.469
401.70 1.47
401.80 1.471
401.90 1.472
402.00 1.472
402.10 1.473
402.20 1.473
402.30 1.473
402.40 1.473
402.50 1.473
402.60 1.473
402.70 1.473
402.80 1.472
402.90 1.472
403.00 1.471
403.10 1.47
403.20 1.469
403.30 1.468
403.40 1.466
403.50 1.465
403.60 1.463
403.70 1.461
403.80 1.459
403.90 1.457
404.00 1.455
404.10 1.453
404.20 1.45
404.30 1.448
404.40 1.445
404.50 1.442
404.60 1.439
404.70 1.435
404.80 1.432
404.90 1.428
405.00 1.425
405.10 1.421
405.20 1.416
405.30 1.412
405.40 1.408
405.50 1.403
405.60 1.398
405.70 1.393
405.80 1.388
405.90 1.382
406.00 1.377
406.10 1.371
406.20 1.365
406.30 1.359
406.40 1.352
406.50 1.345
406.60 1.338
406.70 1.331
406.80 1.324
406.90 1.316
407.00 1.308
407.10 1.3
407.20 1.291
407.30 1.282
407.40 1.273
407.50 1.264
407.60 1.254
407.70 1.244
407.80 1.234
407.90 1.223
408.00 1.212
408.10 1.201
408.20 1.189
408.30 1.177
408.40 1.165
408.50 1.152
408.60 1.138
408.70 1.125
408.80 1.11
408.90 1.096
409.00 1.081
409.10 1.066
409.20 1.051
409.30 1.036
409.40 1.02
409.50 1.003
409.60 0.9866
409.70 0.968
409.80 0.9486
409.90 0.9284
410.00 0.9142
410.10 0.9052
410.20 0.9014
410.30 0.9086
410.40 0.9204
410.50 0.937
410.60 0.9563
410.70 0.9745
410.80 0.9916
410.90 1.007
411.00 1.022
411.10 1.037
411.20 1.052
411.30 1.066
411.40 1.08
411.50 1.094
411.60 1.107
411.70 1.12
411.80 1.133
411.90 1.145
412.00 1.157
412.10 1.168
412.20 1.179
412.30 1.19
412.40 1.2
412.50 1.21
412.60 1.22
412.70 1.229
412.80 1.239
412.90 1.247
413.00 1.256
413.10 1.264
413.20 1.272
413.30 1.28
413.40 1.287
413.50 1.295
413.60 1.302
413.70 1.308
413.80 1.315
413.90 1.321
414.00 1.327
414.10 1.333
414.20 1.339
414.30 1.345
414.40 1.35
414.50 1.356
414.60 1.361
414.70 1.366
414.80 1.37
414.90 1.375
415.00 1.38
415.10 1.384
415.20 1.388
415.30 1.393
415.40 1.397
415.50 1.4
415.60 1.404
415.70 1.408
415.80 1.411
415.90 1.415
416.00 1.418
416.10 1.421
416.20 1.424
416.30 1.427
416.40 1.43
416.50 1.433
416.60 1.436
416.70 1.438
416.80 1.441
416.90 1.443
417.00 1.445
417.10 1.448
417.20 1.45
417.30 1.452
417.40 1.454
417.50 1.456
417.60 1.458
417.70 1.46
417.80 1.461
417.90 1.463
418.00 1.464
418.10 1.466
418.20 1.467
418.30 1.468
418.40 1.47
418.50 1.471
418.60 1.472
418.70 1.473
418.80 1.474
418.90 1.475
419.00 1.476
419.10 1.476
419.20 1.477
419.30 1.478
419.40 1.478
419.50 1.479
419.60 1.479
419.70 1.48
419.80 1.48
419.90 1.48
420.00 1.48
420.10 1.481
420.20 1.481
420.30 1.481
420.40 1.481
420.50 1.481
420.60 1.48
420.70 1.48
420.80 1.48
420.90 1.48
421.00 1.479
421.10 1.479
421.20 1.478
421.30 1.478
421.40 1.477
421.50 1.477
421.60 1.476
421.70 1.475
421.80 1.474
421.90 1.473
422.00 1.472
422.10 1.471
422.20 1.47
422.30 1.469
422.40 1.468
422.50 1.467
422.60 1.465
422.70 1.464
422.80 1.463
422.90 1.461
423.00 1.46
423.10 1.458
423.20 1.456
423.30 1.455
423.40 1.453
423.50 1.451
423.60 1.449
423.70 1.447
423.80 1.445
423.90 1.443
424.00 1.441
424.10 1.439
424.20 1.437
424.30 1.434
424.40 1.432
424.50 1.43
424.60 1.427
424.70 1.425
424.80 1.422
424.90 1.419
425.00 1.416
425.10 1.414
425.20 1.411
425.30 1.408
425.40 1.405
425.50 1.402
425.60 1.399
425.70 1.395
425.80 1.392
425.90 1.389
426.00 1.385
426.10 1.382
426.20 1.377
426.30 1.373
426.40 1.369
426.50 1.365
426.60 1.362
426.70 1.358
426.80 1.353
426.90 1.349
427.00 1.345
427.10 1.341
427.20 1.336
427.30 1.332
427.40 1.327
427.50 1.322
427.60 1.318
427.70 1.313
427.80 1.308
427.90 1.303
428.00 1.298
428.10 1.292
428.20 1.287
428.30 1.281
428.40 1.276
428.50 1.27
428.60 1.264
428.70 1.258
428.80 1.252
428.90 1.246
429.00 1.24
429.10 1.234
429.20 1.227
429.30 1.22
429.40 1.214
429.50 1.207
429.60 1.2
429.70 1.193
429.80 1.185
429.90 1.178
430.00 1.17
430.10 1.162
430.20 1.154
430.30 1.146
430.40 1.137
430.50 1.129
430.60 1.12
430.70 1.111
430.80 1.101
430.90 1.092
431.00 1.082
431.10 1.072
431.20 1.062
431.30 1.052
431.40 1.041
431.50 1.03
431.60 1.019
431.70 1.007
431.80 0.9953
431.90 0.983
432.00 0.9704
432.10 0.9576
432.20 0.9441
432.30 0.9303
432.40 0.9161
432.50 0.9012
432.60 0.8858
432.70 0.8701
432.80 0.8538
432.90 0.8373
433.00 0.8207
433.10 0.804
433.20 0.7874
433.30 0.7708
433.40 0.7544
433.50 0.7376
433.60 0.7203
433.70 0.6986
433.80 0.672
433.90 0.6405
434.00 0.6078
434.10 0.6085
434.20 0.6425
434.30 0.673
434.40 0.6986
434.50 0.7193
434.60 0.7358
434.70 0.752
434.80 0.7677
434.90 0.7834
435.00 0.7992
435.10 0.8151
435.20 0.8309
435.30 0.8464
435.40 0.8618
435.50 0.8765
435.60 0.8907
435.70 0.9046
435.80 0.9177
435.90 0.9304
436.00 0.9427
436.10 0.9545
436.20 0.9659
436.30 0.977
436.40 0.9875
436.50 0.9979
436.60 1.008
436.70 1.018
436.80 1.027
436.90 1.036
437.00 1.045
437.10 1.054
437.20 1.062
437.30 1.07
437.40 1.078
437.50 1.086
437.60 1.094
437.70 1.101
437.80 1.108
437.90 1.115
438.00 1.122
438.10 1.128
438.20 1.134
438.30 1.141
438.40 1.147
438.50 1.152
438.60 1.158
438.70 1.164
438.80 1.169
438.90 1.174
439.00 1.179
439.10 1.184
439.20 1.189
439.30 1.194
439.40 1.199
439.50 1.203
439.60 1.208
439.70 1.212
439.80 1.216
439.90 1.221
440.00 1.225
440.10 1.228
440.20 1.232
440.30 1.236
440.40 1.24
440.50 1.243
440.60 1.247
440.70 1.25
440.80 1.253
440.90 1.257
441.00 1.26
441.10 1.263
441.20 1.266
441.30 1.269
441.40 1.272
441.50 1.275
441.60 1.277
441.70 1.28
441.80 1.282
441.90 1.285
442.00 1.287
442.10 1.29
442.20 1.292
442.30 1.294
442.40 1.297
442.50 1.299
442.60 1.301
442.70 1.303
442.80 1.305
442.90 1.307
443.00 1.309
443.10 1.31
443.20 1.312
443.30 1.314
443.40 1.316
443.50 1.317
443.60 1.319
443.70 1.32
443.80 1.322
443.90 1.323
444.00 1.325
444.10 1.326
444.20 1.328
444.30 1.329
444.40 1.33
444.50 1.331
444.60 1.333
444.70 1.334
444.80 1.335
444.90 1.336
445.00 1.337
445.10 1.338
445.20 1.339
445.30 1.34
445.40 1.341
445.50 1.342
445.60 1.343
445.70 1.343
445.80 1.344
445.90 1.345
446.00 1.346
446.10 1.347
446.20 1.347
446.30 1.348
446.40 1.348
446.50 1.349
446.60 1.35
446.70 1.35
446.80 1.351
446.90 1.351
447.00 1.352
447.10 1.352
447.20 1.353
447.30 1.353
447.40 1.353
447.50 1.354
447.60 1.354
447.70 1.354
447.80 1.355
447.90 1.355
448.00 1.355
448.10 1.356
448.20 1.356
448.30 1.356
448.40 1.356
448.50 1.356
448.60 1.357
448.70 1.357
448.80 1.357
448.90 1.357
449.00 1.357
449.10 1.357
449.20 1.357
449.30 1.357
449.40 1.357
449.50 1.357
449.60 1.357
449.70 1.357
449.80 1.357
449.90 1.357
450.00 1.357
450.10 1.357
450.20 1.357
450.30 1.357
450.40 1.357
450.50 1.357
450.60 1.356
450.70 1.356
450.80 1.356
450.90 1.356
451.00 1.356
451.10 1.356
451.20 1.355
451.30 1.355
451.40 1.355
451.50 1.355
451.60 1.354
451.70 1.354
451.80 1.354
451.90 1.354
452.00 1.353
452.10 1.353
452.20 1.353
452.30 1.352
452.40 1.352
452.50 1.352
452.60 1.351
452.70 1.351
452.80 1.35
452.90 1.35
453.00 1.35
453.10 1.349
453.20 1.349
453.30 1.348
453.40 1.348
453.50 1.348
453.60 1.347
453.70 1.347
