# Version 2.1 - nm, norm@500 to 1, cut digits, bergeron_11000_90.dat_11000
# Wavelength(nm)  Flambda(ergs/cm^s/s/nm)
300.00 2.02
300.10 2.019
300.20 2.018
300.30 2.017
300.40 2.016
300.50 2.015
300.60 2.014
300.70 2.013
300.80 2.012
300.90 2.011
301.00 2.01
301.10 2.009
301.20 2.008
301.30 2.007
301.40 2.006
301.50 2.006
301.60 2.005
301.70 2.004
301.80 2.003
301.90 2.002
302.00 2.001
302.10 2
302.20 1.999
302.30 1.998
302.40 1.997
302.50 1.996
302.60 1.995
302.70 1.994
302.80 1.993
302.90 1.992
303.00 1.991
303.10 1.99
303.20 1.989
303.30 1.988
303.40 1.987
303.50 1.986
303.60 1.985
303.70 1.985
303.80 1.984
303.90 1.983
304.00 1.982
304.10 1.981
304.20 1.98
304.30 1.979
304.40 1.978
304.50 1.977
304.60 1.976
304.70 1.975
304.80 1.974
304.90 1.973
305.00 1.972
305.10 1.971
305.20 1.97
305.30 1.969
305.40 1.968
305.50 1.967
305.60 1.966
305.70 1.966
305.80 1.965
305.90 1.964
306.00 1.963
306.10 1.962
306.20 1.961
306.30 1.96
306.40 1.959
306.50 1.958
306.60 1.957
306.70 1.956
306.80 1.955
306.90 1.954
307.00 1.953
307.10 1.952
307.20 1.951
307.30 1.95
307.40 1.949
307.50 1.948
307.60 1.948
307.70 1.947
307.80 1.946
307.90 1.945
308.00 1.944
308.10 1.943
308.20 1.942
308.30 1.941
308.40 1.94
308.50 1.939
308.60 1.938
308.70 1.937
308.80 1.936
308.90 1.935
309.00 1.934
309.10 1.933
309.20 1.932
309.30 1.932
309.40 1.931
309.50 1.93
309.60 1.929
309.70 1.928
309.80 1.927
309.90 1.926
310.00 1.925
310.10 1.924
310.20 1.923
310.30 1.922
310.40 1.921
310.50 1.92
310.60 1.919
310.70 1.918
310.80 1.917
310.90 1.917
311.00 1.916
311.10 1.915
311.20 1.914
311.30 1.913
311.40 1.912
311.50 1.911
311.60 1.91
311.70 1.909
311.80 1.908
311.90 1.907
312.00 1.906
312.10 1.905
312.20 1.904
312.30 1.903
312.40 1.903
312.50 1.902
312.60 1.901
312.70 1.9
312.80 1.899
312.90 1.898
313.00 1.897
313.10 1.896
313.20 1.895
313.30 1.894
313.40 1.893
313.50 1.892
313.60 1.891
313.70 1.89
313.80 1.89
313.90 1.889
314.00 1.888
314.10 1.887
314.20 1.886
314.30 1.885
314.40 1.884
314.50 1.883
314.60 1.882
314.70 1.881
314.80 1.88
314.90 1.879
315.00 1.878
315.10 1.877
315.20 1.877
315.30 1.876
315.40 1.875
315.50 1.874
315.60 1.873
315.70 1.872
315.80 1.871
315.90 1.87
316.00 1.869
316.10 1.868
316.20 1.867
316.30 1.866
316.40 1.865
316.50 1.865
316.60 1.864
316.70 1.863
316.80 1.862
316.90 1.861
317.00 1.86
317.10 1.859
317.20 1.858
317.30 1.857
317.40 1.856
317.50 1.855
317.60 1.854
317.70 1.854
317.80 1.853
317.90 1.852
318.00 1.851
318.10 1.85
318.20 1.849
318.30 1.848
318.40 1.847
318.50 1.846
318.60 1.845
318.70 1.844
318.80 1.843
318.90 1.843
319.00 1.842
319.10 1.841
319.20 1.84
319.30 1.839
319.40 1.838
319.50 1.837
319.60 1.836
319.70 1.835
319.80 1.834
319.90 1.833
320.00 1.833
320.10 1.832
320.20 1.831
320.30 1.83
320.40 1.829
320.50 1.828
320.60 1.827
320.70 1.826
320.80 1.825
320.90 1.824
321.00 1.823
321.10 1.823
321.20 1.822
321.30 1.821
321.40 1.82
321.50 1.819
321.60 1.818
321.70 1.817
321.80 1.816
321.90 1.815
322.00 1.814
322.10 1.813
322.20 1.813
322.30 1.812
322.40 1.811
322.50 1.81
322.60 1.809
322.70 1.808
322.80 1.807
322.90 1.806
323.00 1.805
323.10 1.804
323.20 1.804
323.30 1.803
323.40 1.802
323.50 1.801
323.60 1.8
323.70 1.799
323.80 1.798
323.90 1.797
324.00 1.796
324.10 1.795
324.20 1.795
324.30 1.794
324.40 1.793
324.50 1.792
324.60 1.791
324.70 1.79
324.80 1.789
324.90 1.788
325.00 1.787
325.10 1.786
325.20 1.786
325.30 1.785
325.40 1.784
325.50 1.783
325.60 1.782
325.70 1.781
325.80 1.78
325.90 1.779
326.00 1.778
326.10 1.778
326.20 1.777
326.30 1.776
326.40 1.775
326.50 1.774
326.60 1.773
326.70 1.772
326.80 1.771
326.90 1.77
327.00 1.77
327.10 1.769
327.20 1.768
327.30 1.767
327.40 1.766
327.50 1.765
327.60 1.764
327.70 1.763
327.80 1.762
327.90 1.762
328.00 1.761
328.10 1.76
328.20 1.759
328.30 1.758
328.40 1.757
328.50 1.756
328.60 1.755
328.70 1.754
328.80 1.754
328.90 1.753
329.00 1.752
329.10 1.751
329.20 1.75
329.30 1.749
329.40 1.748
329.50 1.747
329.60 1.747
329.70 1.746
329.80 1.745
329.90 1.744
330.00 1.743
330.10 1.742
330.20 1.741
330.30 1.74
330.40 1.74
330.50 1.739
330.60 1.738
330.70 1.737
330.80 1.736
330.90 1.735
331.00 1.734
331.10 1.733
331.20 1.732
331.30 1.732
331.40 1.731
331.50 1.73
331.60 1.729
331.70 1.728
331.80 1.727
331.90 1.726
332.00 1.726
332.10 1.725
332.20 1.724
332.30 1.723
332.40 1.722
332.50 1.721
332.60 1.72
332.70 1.719
332.80 1.719
332.90 1.718
333.00 1.717
333.10 1.716
333.20 1.715
333.30 1.714
333.40 1.713
333.50 1.712
333.60 1.712
333.70 1.711
333.80 1.71
333.90 1.709
334.00 1.708
334.10 1.707
334.20 1.706
334.30 1.706
334.40 1.705
334.50 1.704
334.60 1.703
334.70 1.702
334.80 1.701
334.90 1.7
335.00 1.699
335.10 1.699
335.20 1.698
335.30 1.697
335.40 1.696
335.50 1.695
335.60 1.694
335.70 1.693
335.80 1.693
335.90 1.692
336.00 1.691
336.10 1.69
336.20 1.689
336.30 1.688
336.40 1.687
336.50 1.687
336.60 1.686
336.70 1.685
336.80 1.684
336.90 1.683
337.00 1.682
337.10 1.681
337.20 1.681
337.30 1.68
337.40 1.679
337.50 1.678
337.60 1.677
337.70 1.676
337.80 1.675
337.90 1.675
338.00 1.674
338.10 1.673
338.20 1.672
338.30 1.671
338.40 1.67
338.50 1.67
338.60 1.669
338.70 1.668
338.80 1.667
338.90 1.666
339.00 1.665
339.10 1.664
339.20 1.664
339.30 1.663
339.40 1.662
339.50 1.661
339.60 1.66
339.70 1.659
339.80 1.659
339.90 1.658
340.00 1.657
340.10 1.656
340.20 1.655
340.30 1.654
340.40 1.653
340.50 1.653
340.60 1.652
340.70 1.651
340.80 1.65
340.90 1.649
341.00 1.648
341.10 1.648
341.20 1.647
341.30 1.646
341.40 1.645
341.50 1.644
341.60 1.643
341.70 1.643
341.80 1.642
341.90 1.641
342.00 1.64
342.10 1.639
342.20 1.638
342.30 1.637
342.40 1.637
342.50 1.636
342.60 1.635
342.70 1.634
342.80 1.633
342.90 1.632
343.00 1.632
343.10 1.631
343.20 1.63
343.30 1.629
343.40 1.628
343.50 1.627
343.60 1.627
343.70 1.626
343.80 1.625
343.90 1.624
344.00 1.623
344.10 1.622
344.20 1.622
344.30 1.621
344.40 1.62
344.50 1.619
344.60 1.618
344.70 1.617
344.80 1.617
344.90 1.616
345.00 1.615
345.10 1.614
345.20 1.613
345.30 1.613
345.40 1.612
345.50 1.611
345.60 1.61
345.70 1.609
345.80 1.608
345.90 1.608
346.00 1.607
346.10 1.606
346.20 1.605
346.30 1.604
346.40 1.603
346.50 1.603
346.60 1.602
346.70 1.601
346.80 1.6
346.90 1.599
347.00 1.599
347.10 1.598
347.20 1.597
347.30 1.596
347.40 1.595
347.50 1.594
347.60 1.594
347.70 1.593
347.80 1.592
347.90 1.591
348.00 1.59
348.10 1.59
348.20 1.589
348.30 1.588
348.40 1.587
348.50 1.586
348.60 1.585
348.70 1.585
348.80 1.584
348.90 1.583
349.00 1.582
349.10 1.581
349.20 1.581
349.30 1.58
349.40 1.579
349.50 1.578
349.60 1.577
349.70 1.577
349.80 1.576
349.90 1.575
350.00 1.574
350.10 1.573
350.20 1.572
350.30 1.572
350.40 1.571
350.50 1.57
350.60 1.569
350.70 1.568
350.80 1.568
350.90 1.567
351.00 1.566
351.10 1.565
351.20 1.564
351.30 1.564
351.40 1.563
351.50 1.562
351.60 1.561
351.70 1.56
351.80 1.56
351.90 1.559
352.00 1.558
352.10 1.557
352.20 1.556
352.30 1.556
352.40 1.555
352.50 1.554
352.60 1.553
352.70 1.552
352.80 1.552
352.90 1.551
353.00 1.55
353.10 1.549
353.20 1.548
353.30 1.548
353.40 1.547
353.50 1.546
353.60 1.545
353.70 1.544
353.80 1.544
353.90 1.543
354.00 1.542
354.10 1.541
354.20 1.54
354.30 1.54
354.40 1.539
354.50 1.538
354.60 1.537
354.70 1.536
354.80 1.536
354.90 1.535
355.00 1.534
355.10 1.533
355.20 1.533
355.30 1.532
355.40 1.531
355.50 1.53
355.60 1.529
355.70 1.529
355.80 1.528
355.90 1.527
356.00 1.526
356.10 1.525
356.20 1.525
356.30 1.524
356.40 1.523
356.50 1.522
356.60 1.522
356.70 1.521
356.80 1.52
356.90 1.519
357.00 1.518
357.10 1.518
357.20 1.517
357.30 1.516
357.40 1.515
357.50 1.514
357.60 1.514
357.70 1.513
357.80 1.512
357.90 1.511
358.00 1.511
358.10 1.51
358.20 1.509
358.30 1.508
358.40 1.507
358.50 1.507
358.60 1.506
358.70 1.505
358.80 1.504
358.90 1.504
359.00 1.503
359.10 1.502
359.20 1.501
359.30 1.5
359.40 1.5
359.50 1.499
359.60 1.498
359.70 1.497
359.80 1.497
359.90 1.496
360.00 1.495
360.10 1.494
360.20 1.493
360.30 1.493
360.40 1.492
360.50 1.491
360.60 1.49
360.70 1.49
360.80 1.489
360.90 1.488
361.00 1.487
361.10 1.487
361.20 1.486
361.30 1.485
361.40 1.484
361.50 1.483
361.60 1.483
361.70 1.482
361.80 1.481
361.90 1.48
362.00 1.48
362.10 1.479
362.20 1.478
362.30 1.477
362.40 1.477
362.50 1.476
362.60 1.475
362.70 1.474
362.80 1.474
362.90 1.473
363.00 1.472
363.10 1.471
363.20 1.47
363.30 1.469
363.40 1.468
363.50 1.468
363.60 1.467
363.70 1.466
363.80 1.465
363.90 1.464
364.00 1.463
364.10 1.462
364.20 1.461
364.30 1.461
364.40 1.46
364.50 1.459
364.60 1.458
364.70 1.457
364.80 1.456
364.90 1.455
365.00 1.454
365.10 1.453
365.20 1.452
365.30 1.451
365.40 1.45
365.50 1.45
365.60 1.449
365.70 1.448
365.80 1.447
365.90 1.446
366.00 1.445
366.10 1.444
366.20 1.443
366.30 1.443
366.40 1.442
366.50 1.441
366.60 1.44
366.70 1.439
366.80 1.439
366.90 1.438
367.00 1.437
367.10 1.436
367.20 1.435
367.30 1.435
367.40 1.434
367.50 1.433
367.60 1.432
367.70 1.432
367.80 1.431
367.90 1.43
368.00 1.429
368.10 1.428
368.20 1.428
368.30 1.427
368.40 1.426
368.50 1.425
368.60 1.425
368.70 1.424
368.80 1.423
368.90 1.422
369.00 1.421
369.10 1.421
369.20 1.42
369.30 1.419
369.40 1.418
369.50 1.418
369.60 1.417
369.70 1.416
369.80 1.415
369.90 1.415
370.00 1.414
370.10 1.413
370.20 1.413
370.30 1.412
370.40 1.411
370.50 1.411
370.60 1.41
370.70 1.41
370.80 1.409
370.90 1.408
371.00 1.408
371.10 1.407
371.20 1.406
371.30 1.406
371.40 1.405
371.50 1.405
371.60 1.404
371.70 1.403
371.80 1.403
371.90 1.402
372.00 1.402
372.10 1.401
372.20 1.401
372.30 1.401
372.40 1.4
372.50 1.4
372.60 1.4
372.70 1.399
372.80 1.399
372.90 1.399
373.00 1.399
373.10 1.398
373.20 1.398
373.30 1.398
373.40 1.397
373.50 1.397
373.60 1.397
373.70 1.396
373.80 1.396
373.90 1.396
374.00 1.395
374.10 1.395
374.20 1.395
374.30 1.395
374.40 1.395
374.50 1.395
374.60 1.395
374.70 1.395
374.80 1.395
374.90 1.395
375.00 1.395
375.10 1.395
375.20 1.394
375.30 1.394
375.40 1.394
375.50 1.394
375.60 1.394
375.70 1.394
375.80 1.394
375.90 1.394
376.00 1.394
376.10 1.394
376.20 1.393
376.30 1.393
376.40 1.393
376.50 1.393
376.60 1.393
376.70 1.392
376.80 1.392
376.90 1.392
377.00 1.392
377.10 1.391
377.20 1.39
377.30 1.39
377.40 1.389
377.50 1.388
377.60 1.388
377.70 1.387
377.80 1.386
377.90 1.385
378.00 1.385
378.10 1.382
378.20 1.38
378.30 1.378
378.40 1.375
378.50 1.373
378.60 1.371
378.70 1.369
378.80 1.366
378.90 1.364
379.00 1.362
379.10 1.36
379.20 1.358
379.30 1.357
379.40 1.355
379.50 1.354
379.60 1.352
379.70 1.35
379.80 1.349
379.90 1.347
380.00 1.346
380.10 1.348
380.20 1.35
380.30 1.352
380.40 1.354
380.50 1.356
380.60 1.357
380.70 1.359
380.80 1.361
380.90 1.363
381.00 1.365
381.10 1.366
381.20 1.366
381.30 1.367
381.40 1.367
381.50 1.368
381.60 1.367
381.70 1.366
381.80 1.365
381.90 1.363
382.00 1.361
382.10 1.359
382.20 1.356
382.30 1.35
382.40 1.344
382.50 1.338
382.60 1.333
382.70 1.327
382.80 1.321
382.90 1.316
383.00 1.31
383.10 1.304
383.20 1.299
383.30 1.295
383.40 1.29
383.50 1.286
383.60 1.286
383.70 1.291
383.80 1.296
383.90 1.3
384.00 1.306
384.10 1.313
384.20 1.32
384.30 1.328
384.40 1.335
384.50 1.341
384.60 1.347
384.70 1.351
384.80 1.356
384.90 1.359
385.00 1.362
385.10 1.365
385.20 1.367
385.30 1.369
385.40 1.37
385.50 1.371
385.60 1.372
385.70 1.372
385.80 1.372
385.90 1.372
386.00 1.371
386.10 1.37
386.20 1.369
386.30 1.367
386.40 1.366
386.50 1.363
386.60 1.361
386.70 1.358
386.80 1.355
386.90 1.351
387.00 1.347
387.10 1.343
387.20 1.338
387.30 1.333
387.40 1.327
387.50 1.32
387.60 1.313
387.70 1.306
387.80 1.297
387.90 1.287
388.00 1.276
388.10 1.263
388.20 1.249
388.30 1.233
388.40 1.217
388.50 1.202
388.60 1.188
388.70 1.178
388.80 1.17
388.90 1.164
389.00 1.17
389.10 1.178
389.20 1.187
389.30 1.201
389.40 1.216
389.50 1.233
389.60 1.249
389.70 1.263
389.80 1.277
389.90 1.288
390.00 1.299
390.10 1.308
390.20 1.316
390.30 1.324
390.40 1.331
390.50 1.337
390.60 1.343
390.70 1.349
390.80 1.354
390.90 1.358
391.00 1.363
391.10 1.366
391.20 1.37
391.30 1.373
391.40 1.376
391.50 1.378
391.60 1.381
391.70 1.383
391.80 1.384
391.90 1.386
392.00 1.387
392.10 1.388
392.20 1.388
392.30 1.388
392.40 1.388
392.50 1.388
392.60 1.387
392.70 1.387
392.80 1.386
392.90 1.384
393.00 1.382
393.10 1.381
393.20 1.378
393.30 1.376
393.40 1.373
393.50 1.37
393.60 1.366
393.70 1.363
393.80 1.359
393.90 1.354
394.00 1.35
394.10 1.344
394.20 1.339
394.30 1.333
394.40 1.327
394.50 1.32
394.60 1.313
394.70 1.306
394.80 1.298
394.90 1.29
395.00 1.28
395.10 1.271
395.20 1.261
395.30 1.25
395.40 1.239
395.50 1.227
395.60 1.215
395.70 1.201
395.80 1.187
395.90 1.171
396.00 1.155
396.10 1.137
396.20 1.117
396.30 1.095
396.40 1.07
396.50 1.041
396.60 1.01
396.70 0.9786
396.80 0.9549
396.90 0.9322
397.00 0.9105
397.10 0.9304
397.20 0.9515
397.30 0.9737
397.40 1.005
397.50 1.035
397.60 1.065
397.70 1.09
397.80 1.112
397.90 1.133
398.00 1.15
398.10 1.167
398.20 1.183
398.30 1.197
398.40 1.21
398.50 1.223
398.60 1.235
398.70 1.247
398.80 1.258
398.90 1.268
399.00 1.278
399.10 1.287
399.20 1.296
399.30 1.304
399.40 1.312
399.50 1.32
399.60 1.327
399.70 1.334
399.80 1.34
399.90 1.346
400.00 1.352
400.10 1.358
400.20 1.363
400.30 1.368
400.40 1.373
400.50 1.377
400.60 1.381
400.70 1.385
400.80 1.389
400.90 1.393
401.00 1.396
401.10 1.399
401.20 1.402
401.30 1.404
401.40 1.407
401.50 1.409
401.60 1.411
401.70 1.413
401.80 1.415
401.90 1.417
402.00 1.418
402.10 1.419
402.20 1.42
402.30 1.421
402.40 1.422
402.50 1.423
402.60 1.423
402.70 1.423
402.80 1.424
402.90 1.423
403.00 1.423
403.10 1.423
403.20 1.422
403.30 1.422
403.40 1.421
403.50 1.42
403.60 1.419
403.70 1.417
403.80 1.416
403.90 1.414
404.00 1.413
404.10 1.411
404.20 1.408
404.30 1.406
404.40 1.404
404.50 1.401
404.60 1.398
404.70 1.395
404.80 1.392
404.90 1.389
405.00 1.385
405.10 1.381
405.20 1.377
405.30 1.373
405.40 1.369
405.50 1.364
405.60 1.36
405.70 1.355
405.80 1.349
405.90 1.344
406.00 1.338
406.10 1.332
406.20 1.326
406.30 1.32
406.40 1.313
406.50 1.306
406.60 1.299
406.70 1.291
406.80 1.283
406.90 1.275
407.00 1.266
407.10 1.258
407.20 1.248
407.30 1.239
407.40 1.228
407.50 1.218
407.60 1.207
407.70 1.196
407.80 1.184
407.90 1.171
408.00 1.158
408.10 1.145
408.20 1.131
408.30 1.116
408.40 1.101
408.50 1.084
408.60 1.067
408.70 1.05
408.80 1.031
408.90 1.012
409.00 0.9922
409.10 0.971
409.20 0.9491
409.30 0.9264
409.40 0.9014
409.50 0.8745
409.60 0.846
409.70 0.8125
409.80 0.7769
409.90 0.739
410.00 0.7087
410.10 0.6869
410.20 0.6737
410.30 0.6963
410.40 0.7244
410.50 0.758
410.60 0.7945
410.70 0.8282
410.80 0.8591
410.90 0.8856
411.00 0.9106
411.10 0.9339
411.20 0.9553
411.30 0.9759
411.40 0.9957
411.50 1.014
411.60 1.032
411.70 1.05
411.80 1.066
411.90 1.082
412.00 1.097
412.10 1.111
412.20 1.124
412.30 1.138
412.40 1.15
412.50 1.162
412.60 1.173
412.70 1.184
412.80 1.194
412.90 1.204
413.00 1.214
413.10 1.223
413.20 1.232
413.30 1.24
413.40 1.248
413.50 1.256
413.60 1.263
413.70 1.271
413.80 1.278
413.90 1.284
414.00 1.291
414.10 1.297
414.20 1.303
414.30 1.308
414.40 1.314
414.50 1.319
414.60 1.324
414.70 1.329
414.80 1.334
414.90 1.338
415.00 1.343
415.10 1.347
415.20 1.351
415.30 1.355
415.40 1.359
415.50 1.362
415.60 1.366
415.70 1.369
415.80 1.373
415.90 1.376
416.00 1.379
416.10 1.382
416.20 1.385
416.30 1.387
416.40 1.39
416.50 1.392
416.60 1.395
416.70 1.397
416.80 1.399
416.90 1.401
417.00 1.403
417.10 1.405
417.20 1.407
417.30 1.409
417.40 1.41
417.50 1.412
417.60 1.414
417.70 1.415
417.80 1.416
417.90 1.418
418.00 1.419
418.10 1.42
418.20 1.421
418.30 1.422
418.40 1.423
418.50 1.424
418.60 1.425
418.70 1.426
418.80 1.426
418.90 1.427
419.00 1.428
419.10 1.428
419.20 1.429
419.30 1.429
419.40 1.43
419.50 1.43
419.60 1.431
419.70 1.431
419.80 1.431
419.90 1.431
420.00 1.431
420.10 1.432
420.20 1.432
420.30 1.432
420.40 1.432
420.50 1.431
420.60 1.431
420.70 1.431
420.80 1.431
420.90 1.431
421.00 1.43
421.10 1.43
421.20 1.43
421.30 1.429
421.40 1.429
421.50 1.428
421.60 1.428
421.70 1.427
421.80 1.426
421.90 1.426
422.00 1.425
422.10 1.424
422.20 1.423
422.30 1.423
422.40 1.422
422.50 1.421
422.60 1.42
422.70 1.419
422.80 1.418
422.90 1.417
423.00 1.416
423.10 1.414
423.20 1.413
423.30 1.412
423.40 1.411
423.50 1.409
423.60 1.408
423.70 1.407
423.80 1.405
423.90 1.404
424.00 1.402
424.10 1.4
424.20 1.399
424.30 1.397
424.40 1.395
424.50 1.394
424.60 1.392
424.70 1.39
424.80 1.388
424.90 1.386
425.00 1.384
425.10 1.382
425.20 1.38
425.30 1.377
425.40 1.375
425.50 1.373
425.60 1.37
425.70 1.368
425.80 1.366
425.90 1.363
426.00 1.36
426.10 1.358
426.20 1.354
426.30 1.351
426.40 1.348
426.50 1.345
426.60 1.342
426.70 1.339
426.80 1.336
426.90 1.333
427.00 1.33
427.10 1.326
427.20 1.323
427.30 1.319
427.40 1.315
427.50 1.312
427.60 1.308
427.70 1.304
427.80 1.3
427.90 1.296
428.00 1.291
428.10 1.287
428.20 1.283
428.30 1.278
428.40 1.273
428.50 1.269
428.60 1.264
428.70 1.259
428.80 1.253
428.90 1.248
429.00 1.243
429.10 1.237
429.20 1.231
429.30 1.225
429.40 1.219
429.50 1.213
429.60 1.206
429.70 1.2
429.80 1.193
429.90 1.186
430.00 1.179
430.10 1.171
430.20 1.164
430.30 1.156
430.40 1.148
430.50 1.139
430.60 1.131
430.70 1.122
430.80 1.113
430.90 1.103
431.00 1.094
431.10 1.084
431.20 1.073
431.30 1.062
431.40 1.051
431.50 1.04
431.60 1.028
431.70 1.015
431.80 1.003
431.90 0.9891
432.00 0.9751
432.10 0.9606
432.20 0.945
432.30 0.9289
432.40 0.9121
432.50 0.8939
432.60 0.8748
432.70 0.855
432.80 0.8339
432.90 0.8123
433.00 0.7903
433.10 0.7683
433.20 0.7463
433.30 0.7244
433.40 0.7019
433.50 0.6784
433.60 0.6539
433.70 0.6238
433.80 0.5911
433.90 0.5557
434.00 0.5139
434.10 0.5148
434.20 0.5582
434.30 0.593
434.40 0.6251
434.50 0.6544
434.60 0.6782
434.70 0.7011
434.80 0.7229
434.90 0.7442
435.00 0.7655
435.10 0.7868
435.20 0.808
435.30 0.8287
435.40 0.8489
435.50 0.8678
435.60 0.8858
435.70 0.903
435.80 0.9187
435.90 0.9339
436.00 0.9483
436.10 0.9618
436.20 0.9747
436.30 0.9872
436.40 0.9988
436.50 1.01
436.60 1.021
436.70 1.031
436.80 1.041
436.90 1.051
437.00 1.06
437.10 1.069
437.20 1.077
437.30 1.086
437.40 1.093
437.50 1.101
437.60 1.108
437.70 1.116
437.80 1.122
437.90 1.129
438.00 1.135
438.10 1.142
438.20 1.147
438.30 1.153
438.40 1.159
438.50 1.164
438.60 1.169
438.70 1.174
438.80 1.179
438.90 1.184
439.00 1.188
439.10 1.193
439.20 1.197
439.30 1.201
439.40 1.205
439.50 1.209
439.60 1.212
439.70 1.216
439.80 1.219
439.90 1.223
440.00 1.226
440.10 1.229
440.20 1.232
440.30 1.235
440.40 1.238
440.50 1.24
440.60 1.243
440.70 1.246
440.80 1.248
440.90 1.251
441.00 1.253
441.10 1.255
441.20 1.257
441.30 1.259
441.40 1.261
441.50 1.263
441.60 1.265
441.70 1.267
441.80 1.269
441.90 1.27
442.00 1.272
442.10 1.274
442.20 1.275
442.30 1.277
442.40 1.278
442.50 1.279
442.60 1.281
442.70 1.282
442.80 1.283
442.90 1.284
443.00 1.286
443.10 1.287
443.20 1.288
443.30 1.289
443.40 1.29
443.50 1.291
443.60 1.292
443.70 1.292
443.80 1.293
443.90 1.294
444.00 1.295
444.10 1.296
444.20 1.296
444.30 1.297
444.40 1.298
444.50 1.298
444.60 1.299
444.70 1.299
444.80 1.3
444.90 1.3
445.00 1.301
445.10 1.301
445.20 1.302
445.30 1.302
445.40 1.302
445.50 1.303
445.60 1.303
445.70 1.303
445.80 1.304
445.90 1.304
446.00 1.304
446.10 1.304
446.20 1.305
446.30 1.305
446.40 1.305
446.50 1.305
446.60 1.305
446.70 1.305
446.80 1.305
446.90 1.305
447.00 1.306
447.10 1.306
447.20 1.306
447.30 1.306
447.40 1.306
447.50 1.306
447.60 1.306
447.70 1.306
447.80 1.305
447.90 1.305
448.00 1.305
448.10 1.305
448.20 1.305
448.30 1.305
448.40 1.305
448.50 1.305
448.60 1.305
448.70 1.304
448.80 1.304
448.90 1.304
449.00 1.304
449.10 1.304
449.20 1.304
449.30 1.304
449.40 1.303
449.50 1.303
449.60 1.303
449.70 1.303
449.80 1.302
449.90 1.302
450.00 1.302
450.10 1.301
450.20 1.301
450.30 1.301
450.40 1.301
450.50 1.3
450.60 1.3
450.70 1.3
450.80 1.299
450.90 1.299
451.00 1.299
451.10 1.298
451.20 1.298
451.30 1.297
451.40 1.297
451.50 1.297
451.60 1.296
451.70 1.296
451.80 1.296
451.90 1.295
452.00 1.295
452.10 1.294
452.20 1.294
452.30 1.293
452.40 1.293
452.50 1.293
452.60 1.292
452.70 1.292
452.80 1.291
452.90 1.291
453.00 1.29
453.10 1.29
453.20 1.289
453.30 1.289
453.40 1.288
453.50 1.288
