# Version 2.1 - nm, norm@500 to 1, cut digits, bergeron_13500_80.dat_13500
# Wavelength(nm)  Flambda(ergs/cm^s/s/nm)
300.00 2.021
300.10 2.019
300.20 2.018
300.30 2.017
300.40 2.015
300.50 2.014
300.60 2.012
300.70 2.011
300.80 2.009
300.90 2.008
301.00 2.006
301.10 2.005
301.20 2.004
301.30 2.002
301.40 2.001
301.50 1.999
301.60 1.998
301.70 1.997
301.80 1.995
301.90 1.994
302.00 1.992
302.10 1.991
302.20 1.989
302.30 1.988
302.40 1.987
302.50 1.985
302.60 1.984
302.70 1.982
302.80 1.981
302.90 1.98
303.00 1.978
303.10 1.977
303.20 1.975
303.30 1.974
303.40 1.973
303.50 1.971
303.60 1.97
303.70 1.968
303.80 1.967
303.90 1.966
304.00 1.964
304.10 1.963
304.20 1.962
304.30 1.96
304.40 1.959
304.50 1.957
304.60 1.956
304.70 1.955
304.80 1.953
304.90 1.952
305.00 1.95
305.10 1.949
305.20 1.948
305.30 1.946
305.40 1.945
305.50 1.944
305.60 1.942
305.70 1.941
305.80 1.94
305.90 1.938
306.00 1.937
306.10 1.935
306.20 1.934
306.30 1.933
306.40 1.931
306.50 1.93
306.60 1.929
306.70 1.927
306.80 1.926
306.90 1.925
307.00 1.923
307.10 1.922
307.20 1.921
307.30 1.919
307.40 1.918
307.50 1.917
307.60 1.915
307.70 1.914
307.80 1.913
307.90 1.911
308.00 1.91
308.10 1.909
308.20 1.907
308.30 1.906
308.40 1.905
308.50 1.903
308.60 1.902
308.70 1.901
308.80 1.899
308.90 1.898
309.00 1.897
309.10 1.895
309.20 1.894
309.30 1.893
309.40 1.891
309.50 1.89
309.60 1.889
309.70 1.887
309.80 1.886
309.90 1.885
310.00 1.883
310.10 1.882
310.20 1.881
310.30 1.879
310.40 1.878
310.50 1.877
310.60 1.876
310.70 1.874
310.80 1.873
310.90 1.872
311.00 1.87
311.10 1.869
311.20 1.868
311.30 1.866
311.40 1.865
311.50 1.864
311.60 1.863
311.70 1.861
311.80 1.86
311.90 1.859
312.00 1.857
312.10 1.856
312.20 1.855
312.30 1.854
312.40 1.852
312.50 1.851
312.60 1.85
312.70 1.848
312.80 1.847
312.90 1.846
313.00 1.845
313.10 1.843
313.20 1.842
313.30 1.841
313.40 1.84
313.50 1.838
313.60 1.837
313.70 1.836
313.80 1.834
313.90 1.833
314.00 1.832
314.10 1.831
314.20 1.829
314.30 1.828
314.40 1.827
314.50 1.826
314.60 1.824
314.70 1.823
314.80 1.822
314.90 1.821
315.00 1.819
315.10 1.818
315.20 1.817
315.30 1.816
315.40 1.814
315.50 1.813
315.60 1.812
315.70 1.811
315.80 1.809
315.90 1.808
316.00 1.807
316.10 1.806
316.20 1.804
316.30 1.803
316.40 1.802
316.50 1.801
316.60 1.799
316.70 1.798
316.80 1.797
316.90 1.796
317.00 1.795
317.10 1.793
317.20 1.792
317.30 1.791
317.40 1.79
317.50 1.788
317.60 1.787
317.70 1.786
317.80 1.785
317.90 1.784
318.00 1.782
318.10 1.781
318.20 1.78
318.30 1.779
318.40 1.777
318.50 1.776
318.60 1.775
318.70 1.774
318.80 1.773
318.90 1.771
319.00 1.77
319.10 1.769
319.20 1.768
319.30 1.767
319.40 1.765
319.50 1.764
319.60 1.763
319.70 1.762
319.80 1.761
319.90 1.759
320.00 1.758
320.10 1.757
320.20 1.756
320.30 1.755
320.40 1.753
320.50 1.752
320.60 1.751
320.70 1.75
320.80 1.749
320.90 1.747
321.00 1.746
321.10 1.745
321.20 1.744
321.30 1.743
321.40 1.742
321.50 1.74
321.60 1.739
321.70 1.738
321.80 1.737
321.90 1.736
322.00 1.735
322.10 1.733
322.20 1.732
322.30 1.731
322.40 1.73
322.50 1.729
322.60 1.727
322.70 1.726
322.80 1.725
322.90 1.724
323.00 1.723
323.10 1.722
323.20 1.721
323.30 1.719
323.40 1.718
323.50 1.717
323.60 1.716
323.70 1.715
323.80 1.714
323.90 1.712
324.00 1.711
324.10 1.71
324.20 1.709
324.30 1.708
324.40 1.707
324.50 1.705
324.60 1.704
324.70 1.703
324.80 1.702
324.90 1.701
325.00 1.7
325.10 1.699
325.20 1.697
325.30 1.696
325.40 1.695
325.50 1.694
325.60 1.693
325.70 1.692
325.80 1.691
325.90 1.69
326.00 1.688
326.10 1.687
326.20 1.686
326.30 1.685
326.40 1.684
326.50 1.683
326.60 1.682
326.70 1.68
326.80 1.679
326.90 1.678
327.00 1.677
327.10 1.676
327.20 1.675
327.30 1.674
327.40 1.673
327.50 1.671
327.60 1.67
327.70 1.669
327.80 1.668
327.90 1.667
328.00 1.666
328.10 1.665
328.20 1.664
328.30 1.663
328.40 1.661
328.50 1.66
328.60 1.659
328.70 1.658
328.80 1.657
328.90 1.656
329.00 1.655
329.10 1.654
329.20 1.653
329.30 1.652
329.40 1.65
329.50 1.649
329.60 1.648
329.70 1.647
329.80 1.646
329.90 1.645
330.00 1.644
330.10 1.643
330.20 1.642
330.30 1.641
330.40 1.639
330.50 1.638
330.60 1.637
330.70 1.636
330.80 1.635
330.90 1.634
331.00 1.633
331.10 1.632
331.20 1.631
331.30 1.63
331.40 1.629
331.50 1.628
331.60 1.626
331.70 1.625
331.80 1.624
331.90 1.623
332.00 1.622
332.10 1.621
332.20 1.62
332.30 1.619
332.40 1.618
332.50 1.617
332.60 1.616
332.70 1.615
332.80 1.614
332.90 1.613
333.00 1.611
333.10 1.61
333.20 1.609
333.30 1.608
333.40 1.607
333.50 1.606
333.60 1.605
333.70 1.604
333.80 1.603
333.90 1.602
334.00 1.601
334.10 1.6
334.20 1.599
334.30 1.598
334.40 1.597
334.50 1.596
334.60 1.595
334.70 1.593
334.80 1.592
334.90 1.591
335.00 1.59
335.10 1.589
335.20 1.588
335.30 1.587
335.40 1.586
335.50 1.585
335.60 1.584
335.70 1.583
335.80 1.582
335.90 1.581
336.00 1.58
336.10 1.579
336.20 1.578
336.30 1.577
336.40 1.576
336.50 1.575
336.60 1.574
336.70 1.573
336.80 1.572
336.90 1.571
337.00 1.57
337.10 1.569
337.20 1.568
337.30 1.566
337.40 1.565
337.50 1.564
337.60 1.563
337.70 1.562
337.80 1.561
337.90 1.56
338.00 1.559
338.10 1.558
338.20 1.557
338.30 1.556
338.40 1.555
338.50 1.554
338.60 1.553
338.70 1.552
338.80 1.551
338.90 1.55
339.00 1.549
339.10 1.548
339.20 1.547
339.30 1.546
339.40 1.545
339.50 1.544
339.60 1.543
339.70 1.542
339.80 1.541
339.90 1.54
340.00 1.539
340.10 1.538
340.20 1.537
340.30 1.536
340.40 1.535
340.50 1.534
340.60 1.533
340.70 1.532
340.80 1.531
340.90 1.53
341.00 1.529
341.10 1.528
341.20 1.527
341.30 1.526
341.40 1.525
341.50 1.524
341.60 1.523
341.70 1.522
341.80 1.521
341.90 1.52
342.00 1.519
342.10 1.518
342.20 1.517
342.30 1.516
342.40 1.515
342.50 1.514
342.60 1.513
342.70 1.512
342.80 1.511
342.90 1.51
343.00 1.509
343.10 1.508
343.20 1.507
343.30 1.506
343.40 1.505
343.50 1.504
343.60 1.504
343.70 1.503
343.80 1.502
343.90 1.501
344.00 1.5
344.10 1.499
344.20 1.498
344.30 1.497
344.40 1.496
344.50 1.495
344.60 1.494
344.70 1.493
344.80 1.492
344.90 1.491
345.00 1.49
345.10 1.489
345.20 1.488
345.30 1.487
345.40 1.486
345.50 1.485
345.60 1.484
345.70 1.483
345.80 1.482
345.90 1.481
346.00 1.48
346.10 1.479
346.20 1.479
346.30 1.478
346.40 1.477
346.50 1.476
346.60 1.475
346.70 1.474
346.80 1.473
346.90 1.472
347.00 1.471
347.10 1.47
347.20 1.469
347.30 1.468
347.40 1.467
347.50 1.466
347.60 1.465
347.70 1.464
347.80 1.463
347.90 1.462
348.00 1.461
348.10 1.461
348.20 1.46
348.30 1.459
348.40 1.458
348.50 1.457
348.60 1.456
348.70 1.455
348.80 1.454
348.90 1.453
349.00 1.452
349.10 1.451
349.20 1.45
349.30 1.449
349.40 1.448
349.50 1.448
349.60 1.447
349.70 1.446
349.80 1.445
349.90 1.444
350.00 1.443
350.10 1.442
350.20 1.441
350.30 1.44
350.40 1.439
350.50 1.438
350.60 1.437
350.70 1.436
350.80 1.436
350.90 1.435
351.00 1.434
351.10 1.433
351.20 1.432
351.30 1.431
351.40 1.43
351.50 1.429
351.60 1.428
351.70 1.427
351.80 1.426
351.90 1.426
352.00 1.425
352.10 1.424
352.20 1.423
352.30 1.422
352.40 1.421
352.50 1.42
352.60 1.419
352.70 1.418
352.80 1.417
352.90 1.416
353.00 1.416
353.10 1.415
353.20 1.414
353.30 1.413
353.40 1.412
353.50 1.411
353.60 1.41
353.70 1.409
353.80 1.408
353.90 1.408
354.00 1.407
354.10 1.406
354.20 1.405
354.30 1.404
354.40 1.403
354.50 1.402
354.60 1.401
354.70 1.4
354.80 1.399
354.90 1.399
355.00 1.398
355.10 1.397
355.20 1.396
355.30 1.395
355.40 1.394
355.50 1.393
355.60 1.392
355.70 1.392
355.80 1.391
355.90 1.39
356.00 1.389
356.10 1.388
356.20 1.387
356.30 1.386
356.40 1.385
356.50 1.385
356.60 1.384
356.70 1.383
356.80 1.382
356.90 1.381
357.00 1.38
357.10 1.379
357.20 1.378
357.30 1.378
357.40 1.377
357.50 1.376
357.60 1.375
357.70 1.374
357.80 1.373
357.90 1.372
358.00 1.371
358.10 1.371
358.20 1.37
358.30 1.369
358.40 1.368
358.50 1.367
358.60 1.366
358.70 1.365
358.80 1.365
358.90 1.364
359.00 1.363
359.10 1.362
359.20 1.361
359.30 1.36
359.40 1.359
359.50 1.359
359.60 1.358
359.70 1.357
359.80 1.356
359.90 1.355
360.00 1.354
360.10 1.354
360.20 1.353
360.30 1.352
360.40 1.351
360.50 1.35
360.60 1.349
360.70 1.348
360.80 1.348
360.90 1.347
361.00 1.346
361.10 1.345
361.20 1.344
361.30 1.343
361.40 1.343
361.50 1.342
361.60 1.341
361.70 1.34
361.80 1.339
361.90 1.338
362.00 1.337
362.10 1.337
362.20 1.336
362.30 1.335
362.40 1.334
362.50 1.333
362.60 1.332
362.70 1.332
362.80 1.331
362.90 1.33
363.00 1.329
363.10 1.328
363.20 1.327
363.30 1.326
363.40 1.325
363.50 1.325
363.60 1.324
363.70 1.323
363.80 1.322
363.90 1.321
364.00 1.32
364.10 1.319
364.20 1.318
364.30 1.317
364.40 1.316
364.50 1.315
364.60 1.314
364.70 1.314
364.80 1.313
364.90 1.312
365.00 1.311
365.10 1.31
365.20 1.309
365.30 1.308
365.40 1.307
365.50 1.306
365.60 1.305
365.70 1.304
365.80 1.303
365.90 1.302
366.00 1.301
366.10 1.301
366.20 1.3
366.30 1.299
366.40 1.298
366.50 1.297
366.60 1.296
366.70 1.296
366.80 1.295
366.90 1.294
367.00 1.293
367.10 1.292
367.20 1.291
367.30 1.291
367.40 1.29
367.50 1.289
367.60 1.288
367.70 1.287
367.80 1.286
367.90 1.286
368.00 1.285
368.10 1.284
368.20 1.283
368.30 1.283
368.40 1.282
368.50 1.281
368.60 1.281
368.70 1.28
368.80 1.279
368.90 1.279
369.00 1.278
369.10 1.277
369.20 1.277
369.30 1.276
369.40 1.275
369.50 1.275
369.60 1.274
369.70 1.273
369.80 1.273
369.90 1.272
370.00 1.271
370.10 1.271
370.20 1.271
370.30 1.271
370.40 1.271
370.50 1.271
370.60 1.27
370.70 1.27
370.80 1.27
370.90 1.27
371.00 1.27
371.10 1.27
371.20 1.27
371.30 1.269
371.40 1.269
371.50 1.269
371.60 1.269
371.70 1.269
371.80 1.269
371.90 1.269
372.00 1.268
372.10 1.269
372.20 1.27
372.30 1.27
372.40 1.271
372.50 1.271
372.60 1.272
372.70 1.273
372.80 1.273
372.90 1.274
373.00 1.275
373.10 1.275
373.20 1.276
373.30 1.276
373.40 1.277
373.50 1.278
373.60 1.278
373.70 1.279
373.80 1.279
373.90 1.28
374.00 1.281
374.10 1.282
374.20 1.283
374.30 1.284
374.40 1.285
374.50 1.286
374.60 1.287
374.70 1.288
374.80 1.289
374.90 1.29
375.00 1.291
375.10 1.292
375.20 1.293
375.30 1.294
375.40 1.295
375.50 1.296
375.60 1.297
375.70 1.298
375.80 1.299
375.90 1.3
376.00 1.301
376.10 1.301
376.20 1.302
376.30 1.302
376.40 1.303
376.50 1.303
376.60 1.304
376.70 1.304
376.80 1.305
376.90 1.305
377.00 1.306
377.10 1.305
377.20 1.304
377.30 1.303
377.40 1.302
377.50 1.301
377.60 1.3
377.70 1.299
377.80 1.298
377.90 1.297
378.00 1.296
378.10 1.29
378.20 1.284
378.30 1.278
378.40 1.273
378.50 1.267
378.60 1.261
378.70 1.256
378.80 1.25
378.90 1.244
379.00 1.239
379.10 1.235
379.20 1.231
379.30 1.227
379.40 1.222
379.50 1.218
379.60 1.214
379.70 1.21
379.80 1.206
379.90 1.202
380.00 1.198
380.10 1.204
380.20 1.211
380.30 1.217
380.40 1.223
380.50 1.229
380.60 1.236
380.70 1.242
380.80 1.248
380.90 1.254
381.00 1.26
381.10 1.263
381.20 1.265
381.30 1.267
381.40 1.269
381.50 1.271
381.60 1.27
381.70 1.268
381.80 1.265
381.90 1.262
382.00 1.257
382.10 1.251
382.20 1.244
382.30 1.23
382.40 1.217
382.50 1.203
382.60 1.19
382.70 1.176
382.80 1.162
382.90 1.149
383.00 1.135
383.10 1.122
383.20 1.109
383.30 1.099
383.40 1.086
383.50 1.073
383.60 1.076
383.70 1.09
383.80 1.102
383.90 1.112
384.00 1.126
384.10 1.143
384.20 1.16
384.30 1.178
384.40 1.195
384.50 1.211
384.60 1.225
384.70 1.238
384.80 1.249
384.90 1.258
385.00 1.266
385.10 1.273
385.20 1.279
385.30 1.284
385.40 1.288
385.50 1.291
385.60 1.294
385.70 1.295
385.80 1.296
385.90 1.296
386.00 1.295
386.10 1.294
386.20 1.292
386.30 1.289
386.40 1.285
386.50 1.281
386.60 1.275
386.70 1.27
386.80 1.263
386.90 1.256
387.00 1.247
387.10 1.239
387.20 1.229
387.30 1.218
387.40 1.207
387.50 1.193
387.60 1.179
387.70 1.164
387.80 1.146
387.90 1.127
388.00 1.107
388.10 1.083
388.20 1.057
388.30 1.03
388.40 1.002
388.50 0.9757
388.60 0.9521
388.70 0.9331
388.80 0.916
388.90 0.9008
389.00 0.9146
389.10 0.9309
389.20 0.9497
389.30 0.9728
389.40 0.9987
389.50 1.028
389.60 1.055
389.70 1.081
389.80 1.106
389.90 1.128
390.00 1.148
390.10 1.167
390.20 1.184
390.30 1.2
390.40 1.215
390.50 1.229
390.60 1.242
390.70 1.254
390.80 1.265
390.90 1.276
391.00 1.286
391.10 1.296
391.20 1.305
391.30 1.314
391.40 1.322
391.50 1.329
391.60 1.336
391.70 1.342
391.80 1.348
391.90 1.353
392.00 1.357
392.10 1.361
392.20 1.365
392.30 1.367
392.40 1.369
392.50 1.37
392.60 1.371
392.70 1.371
392.80 1.371
392.90 1.369
393.00 1.367
393.10 1.365
393.20 1.361
393.30 1.357
393.40 1.353
393.50 1.347
393.60 1.341
393.70 1.335
393.80 1.327
393.90 1.319
394.00 1.311
394.10 1.301
394.20 1.291
394.30 1.28
394.40 1.269
394.50 1.257
394.60 1.245
394.70 1.231
394.80 1.218
394.90 1.204
395.00 1.189
395.10 1.174
395.20 1.158
395.30 1.142
395.40 1.125
395.50 1.107
395.60 1.089
395.70 1.07
395.80 1.05
395.90 1.029
396.00 1.007
396.10 0.9842
396.20 0.9588
396.30 0.9314
396.40 0.9021
396.50 0.8688
396.60 0.8357
396.70 0.8029
396.80 0.7753
396.90 0.7456
397.00 0.7136
397.10 0.7428
397.20 0.7706
397.30 0.7971
397.40 0.829
397.50 0.8613
397.60 0.8942
397.70 0.9233
397.80 0.9504
397.90 0.9754
398.00 0.9978
398.10 1.019
398.20 1.04
398.30 1.059
398.40 1.078
398.50 1.097
398.60 1.114
398.70 1.131
398.80 1.147
398.90 1.163
399.00 1.179
399.10 1.194
399.20 1.209
399.30 1.224
399.40 1.238
399.50 1.252
399.60 1.265
399.70 1.279
399.80 1.291
399.90 1.303
400.00 1.316
400.10 1.327
400.20 1.338
400.30 1.349
400.40 1.359
400.50 1.369
400.60 1.378
400.70 1.387
400.80 1.396
400.90 1.405
401.00 1.412
401.10 1.42
401.20 1.427
401.30 1.434
401.40 1.44
401.50 1.447
401.60 1.452
401.70 1.458
401.80 1.463
401.90 1.467
402.00 1.472
402.10 1.476
402.20 1.479
402.30 1.482
402.40 1.486
402.50 1.488
402.60 1.49
402.70 1.492
402.80 1.494
402.90 1.495
403.00 1.496
403.10 1.497
403.20 1.497
403.30 1.497
403.40 1.496
403.50 1.495
403.60 1.494
403.70 1.493
403.80 1.491
403.90 1.489
404.00 1.486
404.10 1.484
404.20 1.481
404.30 1.477
404.40 1.473
404.50 1.469
404.60 1.464
404.70 1.46
404.80 1.454
404.90 1.449
405.00 1.443
405.10 1.437
405.20 1.43
405.30 1.423
405.40 1.416
405.50 1.408
405.60 1.4
405.70 1.392
405.80 1.383
405.90 1.374
406.00 1.365
406.10 1.355
406.20 1.345
406.30 1.335
406.40 1.324
406.50 1.312
406.60 1.301
406.70 1.289
406.80 1.277
406.90 1.264
407.00 1.251
407.10 1.238
407.20 1.224
407.30 1.21
407.40 1.195
407.50 1.181
407.60 1.165
407.70 1.15
407.80 1.134
407.90 1.118
408.00 1.101
408.10 1.084
408.20 1.067
408.30 1.05
408.40 1.032
408.50 1.014
408.60 0.9963
408.70 0.9779
408.80 0.959
408.90 0.94
409.00 0.9207
409.10 0.9008
409.20 0.8805
409.30 0.8597
409.40 0.8369
409.50 0.8126
409.60 0.7866
409.70 0.7571
409.80 0.7266
409.90 0.6952
410.00 0.6615
410.10 0.6303
410.20 0.6015
410.30 0.6429
410.40 0.6792
410.50 0.7105
410.60 0.741
410.70 0.77
410.80 0.7976
410.90 0.8215
411.00 0.844
411.10 0.865
411.20 0.8845
411.30 0.9036
411.40 0.9222
411.50 0.9404
411.60 0.9582
411.70 0.9759
411.80 0.993
411.90 1.01
412.00 1.027
412.10 1.043
412.20 1.059
412.30 1.075
412.40 1.09
412.50 1.106
412.60 1.121
412.70 1.135
412.80 1.149
412.90 1.163
413.00 1.177
413.10 1.19
413.20 1.203
413.30 1.216
413.40 1.228
413.50 1.24
413.60 1.252
413.70 1.263
413.80 1.274
413.90 1.285
414.00 1.296
414.10 1.306
414.20 1.316
414.30 1.325
414.40 1.335
414.50 1.344
414.60 1.353
414.70 1.362
414.80 1.37
414.90 1.378
415.00 1.386
415.10 1.394
415.20 1.402
415.30 1.409
415.40 1.416
415.50 1.423
415.60 1.43
415.70 1.436
415.80 1.442
415.90 1.448
416.00 1.454
416.10 1.46
416.20 1.466
416.30 1.471
416.40 1.476
416.50 1.481
416.60 1.486
416.70 1.491
416.80 1.495
416.90 1.499
417.00 1.504
417.10 1.508
417.20 1.512
417.30 1.515
417.40 1.519
417.50 1.522
417.60 1.526
417.70 1.529
417.80 1.532
417.90 1.535
418.00 1.538
418.10 1.54
418.20 1.543
418.30 1.545
418.40 1.547
418.50 1.55
418.60 1.552
418.70 1.554
418.80 1.555
418.90 1.557
419.00 1.559
419.10 1.56
419.20 1.562
419.30 1.563
419.40 1.564
419.50 1.565
419.60 1.566
419.70 1.567
419.80 1.568
419.90 1.569
420.00 1.569
420.10 1.57
420.20 1.57
420.30 1.571
420.40 1.571
420.50 1.571
420.60 1.571
420.70 1.571
420.80 1.571
420.90 1.571
421.00 1.571
421.10 1.571
421.20 1.57
421.30 1.57
421.40 1.569
421.50 1.569
421.60 1.568
421.70 1.567
421.80 1.567
421.90 1.566
422.00 1.565
422.10 1.564
422.20 1.563
422.30 1.561
422.40 1.56
422.50 1.559
422.60 1.557
422.70 1.556
422.80 1.554
422.90 1.552
423.00 1.551
423.10 1.549
423.20 1.547
423.30 1.545
423.40 1.543
423.50 1.541
423.60 1.539
423.70 1.536
423.80 1.534
423.90 1.532
424.00 1.529
424.10 1.526
424.20 1.524
424.30 1.521
424.40 1.518
424.50 1.515
424.60 1.512
424.70 1.509
424.80 1.506
424.90 1.503
425.00 1.499
425.10 1.496
425.20 1.492
425.30 1.489
425.40 1.485
425.50 1.481
425.60 1.477
425.70 1.473
425.80 1.469
425.90 1.465
426.00 1.46
426.10 1.456
426.20 1.45
426.30 1.445
426.40 1.44
426.50 1.436
426.60 1.431
426.70 1.425
426.80 1.42
426.90 1.415
427.00 1.409
427.10 1.404
427.20 1.398
427.30 1.392
427.40 1.386
427.50 1.38
427.60 1.374
427.70 1.368
427.80 1.361
427.90 1.354
428.00 1.348
428.10 1.341
428.20 1.334
428.30 1.327
428.40 1.319
428.50 1.312
428.60 1.304
428.70 1.296
428.80 1.288
428.90 1.28
429.00 1.272
429.10 1.264
429.20 1.255
429.30 1.246
429.40 1.237
429.50 1.228
429.60 1.219
429.70 1.209
429.80 1.199
429.90 1.19
430.00 1.18
430.10 1.169
430.20 1.159
430.30 1.148
430.40 1.138
430.50 1.127
430.60 1.116
430.70 1.104
430.80 1.093
430.90 1.081
431.00 1.069
431.10 1.057
431.20 1.045
431.30 1.032
431.40 1.019
431.50 1.007
431.60 0.9934
431.70 0.98
431.80 0.9664
431.90 0.9524
432.00 0.9381
432.10 0.9237
432.20 0.9086
432.30 0.8932
432.40 0.8775
432.50 0.8608
432.60 0.8437
432.70 0.8261
432.80 0.8081
432.90 0.7903
433.00 0.7725
433.10 0.7556
433.20 0.7386
433.30 0.7217
433.40 0.703
433.50 0.6828
433.60 0.6609
433.70 0.6341
433.80 0.6041
433.90 0.5709
434.00 0.5105
434.10 0.5114
434.20 0.5735
434.30 0.6057
434.40 0.6347
434.50 0.6606
434.60 0.6816
434.70 0.701
434.80 0.7189
434.90 0.7351
435.00 0.7513
435.10 0.7674
435.20 0.7844
435.30 0.8013
435.40 0.8184
435.50 0.8349
435.60 0.8509
435.70 0.8665
435.80 0.8811
435.90 0.8953
436.00 0.9092
436.10 0.9225
436.20 0.9355
436.30 0.9482
436.40 0.9605
436.50 0.9726
436.60 0.9844
436.70 0.9959
436.80 1.007
436.90 1.018
437.00 1.029
437.10 1.04
437.20 1.05
437.30 1.06
437.40 1.07
437.50 1.08
437.60 1.09
437.70 1.099
437.80 1.108
437.90 1.117
438.00 1.126
438.10 1.135
438.20 1.143
438.30 1.151
438.40 1.159
438.50 1.167
438.60 1.175
438.70 1.182
438.80 1.189
438.90 1.196
439.00 1.203
439.10 1.21
439.20 1.216
439.30 1.223
439.40 1.229
439.50 1.235
439.60 1.241
439.70 1.246
439.80 1.252
439.90 1.258
440.00 1.263
440.10 1.268
440.20 1.273
440.30 1.278
440.40 1.283
440.50 1.287
440.60 1.292
440.70 1.296
440.80 1.3
440.90 1.304
441.00 1.308
441.10 1.312
441.20 1.316
441.30 1.32
441.40 1.323
441.50 1.327
441.60 1.33
441.70 1.333
441.80 1.336
441.90 1.34
442.00 1.343
442.10 1.345
442.20 1.348
442.30 1.351
442.40 1.353
442.50 1.356
442.60 1.358
442.70 1.361
442.80 1.363
442.90 1.365
443.00 1.367
443.10 1.369
443.20 1.371
443.30 1.373
443.40 1.375
443.50 1.376
443.60 1.378
443.70 1.38
443.80 1.381
443.90 1.383
444.00 1.384
444.10 1.386
444.20 1.387
444.30 1.388
444.40 1.39
444.50 1.391
444.60 1.392
444.70 1.393
444.80 1.394
444.90 1.395
445.00 1.396
445.10 1.397
445.20 1.398
445.30 1.399
445.40 1.399
445.50 1.4
445.60 1.401
445.70 1.401
445.80 1.402
445.90 1.403
446.00 1.403
446.10 1.404
446.20 1.404
446.30 1.405
446.40 1.405
446.50 1.405
446.60 1.406
446.70 1.406
446.80 1.406
446.90 1.407
447.00 1.407
447.10 1.407
447.20 1.407
447.30 1.407
447.40 1.408
447.50 1.408
447.60 1.408
447.70 1.408
447.80 1.408
447.90 1.408
448.00 1.408
448.10 1.408
448.20 1.408
448.30 1.408
448.40 1.408
448.50 1.407
448.60 1.407
448.70 1.407
448.80 1.407
448.90 1.407
449.00 1.407
449.10 1.407
449.20 1.407
449.30 1.406
449.40 1.406
449.50 1.406
449.60 1.406
449.70 1.405
449.80 1.405
449.90 1.404
450.00 1.404
450.10 1.404
450.20 1.403
450.30 1.403
450.40 1.403
450.50 1.402
450.60 1.402
450.70 1.401
450.80 1.401
450.90 1.4
451.00 1.4
451.10 1.399
451.20 1.399
451.30 1.398
451.40 1.398
451.50 1.397
451.60 1.397
451.70 1.396
451.80 1.396
451.90 1.395
452.00 1.395
452.10 1.394
452.20 1.393
452.30 1.393
452.40 1.392
452.50 1.392
452.60 1.391
452.70 1.39
452.80 1.39
452.90 1.389
453.00 1.388
453.10 1.388
453.20 1.387
