# Version 2.1 - nm, norm@500 to 1, cut digits, bergeron_12000_70.dat_12000
# Wavelength(nm)  Flambda(ergs/cm^s/s/nm)
300.00 1.539
300.10 1.538
300.20 1.537
300.30 1.536
300.40 1.535
300.50 1.534
300.60 1.533
300.70 1.532
300.80 1.531
300.90 1.53
301.00 1.529
301.10 1.529
301.20 1.528
301.30 1.527
301.40 1.526
301.50 1.525
301.60 1.524
301.70 1.523
301.80 1.522
301.90 1.521
302.00 1.52
302.10 1.519
302.20 1.518
302.30 1.518
302.40 1.517
302.50 1.516
302.60 1.515
302.70 1.514
302.80 1.513
302.90 1.512
303.00 1.511
303.10 1.51
303.20 1.509
303.30 1.508
303.40 1.508
303.50 1.507
303.60 1.506
303.70 1.505
303.80 1.504
303.90 1.503
304.00 1.502
304.10 1.501
304.20 1.5
304.30 1.499
304.40 1.498
304.50 1.498
304.60 1.497
304.70 1.496
304.80 1.495
304.90 1.494
305.00 1.493
305.10 1.492
305.20 1.491
305.30 1.49
305.40 1.49
305.50 1.489
305.60 1.488
305.70 1.487
305.80 1.486
305.90 1.485
306.00 1.484
306.10 1.483
306.20 1.482
306.30 1.482
306.40 1.481
306.50 1.48
306.60 1.479
306.70 1.478
306.80 1.477
306.90 1.476
307.00 1.475
307.10 1.474
307.20 1.474
307.30 1.473
307.40 1.472
307.50 1.471
307.60 1.47
307.70 1.469
307.80 1.468
307.90 1.468
308.00 1.467
308.10 1.466
308.20 1.465
308.30 1.464
308.40 1.463
308.50 1.462
308.60 1.461
308.70 1.461
308.80 1.46
308.90 1.459
309.00 1.458
309.10 1.457
309.20 1.456
309.30 1.455
309.40 1.455
309.50 1.454
309.60 1.453
309.70 1.452
309.80 1.451
309.90 1.45
310.00 1.449
310.10 1.448
310.20 1.448
310.30 1.447
310.40 1.446
310.50 1.445
310.60 1.444
310.70 1.443
310.80 1.443
310.90 1.442
311.00 1.441
311.10 1.44
311.20 1.439
311.30 1.438
311.40 1.437
311.50 1.437
311.60 1.436
311.70 1.435
311.80 1.434
311.90 1.433
312.00 1.432
312.10 1.432
312.20 1.431
312.30 1.43
312.40 1.429
312.50 1.428
312.60 1.427
312.70 1.426
312.80 1.426
312.90 1.425
313.00 1.424
313.10 1.423
313.20 1.422
313.30 1.421
313.40 1.421
313.50 1.42
313.60 1.419
313.70 1.418
313.80 1.417
313.90 1.416
314.00 1.416
314.10 1.415
314.20 1.414
314.30 1.413
314.40 1.412
314.50 1.411
314.60 1.411
314.70 1.41
314.80 1.409
314.90 1.408
315.00 1.407
315.10 1.407
315.20 1.406
315.30 1.405
315.40 1.404
315.50 1.403
315.60 1.402
315.70 1.402
315.80 1.401
315.90 1.4
316.00 1.399
316.10 1.398
316.20 1.398
316.30 1.397
316.40 1.396
316.50 1.395
316.60 1.394
316.70 1.393
316.80 1.393
316.90 1.392
317.00 1.391
317.10 1.39
317.20 1.389
317.30 1.389
317.40 1.388
317.50 1.387
317.60 1.386
317.70 1.385
317.80 1.385
317.90 1.384
318.00 1.383
318.10 1.382
318.20 1.381
318.30 1.381
318.40 1.38
318.50 1.379
318.60 1.378
318.70 1.377
318.80 1.377
318.90 1.376
319.00 1.375
319.10 1.374
319.20 1.373
319.30 1.373
319.40 1.372
319.50 1.371
319.60 1.37
319.70 1.369
319.80 1.369
319.90 1.368
320.00 1.367
320.10 1.366
320.20 1.365
320.30 1.365
320.40 1.364
320.50 1.363
320.60 1.362
320.70 1.362
320.80 1.361
320.90 1.36
321.00 1.359
321.10 1.358
321.20 1.358
321.30 1.357
321.40 1.356
321.50 1.355
321.60 1.355
321.70 1.354
321.80 1.353
321.90 1.352
322.00 1.351
322.10 1.351
322.20 1.35
322.30 1.349
322.40 1.348
322.50 1.348
322.60 1.347
322.70 1.346
322.80 1.345
322.90 1.344
323.00 1.344
323.10 1.343
323.20 1.342
323.30 1.341
323.40 1.341
323.50 1.34
323.60 1.339
323.70 1.338
323.80 1.338
323.90 1.337
324.00 1.336
324.10 1.335
324.20 1.334
324.30 1.334
324.40 1.333
324.50 1.332
324.60 1.331
324.70 1.331
324.80 1.33
324.90 1.329
325.00 1.328
325.10 1.328
325.20 1.327
325.30 1.326
325.40 1.325
325.50 1.325
325.60 1.324
325.70 1.323
325.80 1.322
325.90 1.322
326.00 1.321
326.10 1.32
326.20 1.319
326.30 1.319
326.40 1.318
326.50 1.317
326.60 1.316
326.70 1.316
326.80 1.315
326.90 1.314
327.00 1.313
327.10 1.313
327.20 1.312
327.30 1.311
327.40 1.31
327.50 1.31
327.60 1.309
327.70 1.308
327.80 1.307
327.90 1.307
328.00 1.306
328.10 1.305
328.20 1.304
328.30 1.304
328.40 1.303
328.50 1.302
328.60 1.301
328.70 1.301
328.80 1.3
328.90 1.299
329.00 1.298
329.10 1.298
329.20 1.297
329.30 1.296
329.40 1.296
329.50 1.295
329.60 1.294
329.70 1.293
329.80 1.293
329.90 1.292
330.00 1.291
330.10 1.29
330.20 1.29
330.30 1.289
330.40 1.288
330.50 1.287
330.60 1.287
330.70 1.286
330.80 1.285
330.90 1.285
331.00 1.284
331.10 1.283
331.20 1.282
331.30 1.282
331.40 1.281
331.50 1.28
331.60 1.28
331.70 1.279
331.80 1.278
331.90 1.277
332.00 1.277
332.10 1.276
332.20 1.275
332.30 1.274
332.40 1.274
332.50 1.273
332.60 1.272
332.70 1.272
332.80 1.271
332.90 1.27
333.00 1.269
333.10 1.269
333.20 1.268
333.30 1.267
333.40 1.267
333.50 1.266
333.60 1.265
333.70 1.264
333.80 1.264
333.90 1.263
334.00 1.262
334.10 1.262
334.20 1.261
334.30 1.26
334.40 1.26
334.50 1.259
334.60 1.258
334.70 1.257
334.80 1.257
334.90 1.256
335.00 1.255
335.10 1.255
335.20 1.254
335.30 1.253
335.40 1.253
335.50 1.252
335.60 1.251
335.70 1.25
335.80 1.25
335.90 1.249
336.00 1.248
336.10 1.248
336.20 1.247
336.30 1.246
336.40 1.246
336.50 1.245
336.60 1.244
336.70 1.243
336.80 1.243
336.90 1.242
337.00 1.241
337.10 1.241
337.20 1.24
337.30 1.239
337.40 1.239
337.50 1.238
337.60 1.237
337.70 1.237
337.80 1.236
337.90 1.235
338.00 1.234
338.10 1.234
338.20 1.233
338.30 1.232
338.40 1.232
338.50 1.231
338.60 1.23
338.70 1.23
338.80 1.229
338.90 1.228
339.00 1.228
339.10 1.227
339.20 1.226
339.30 1.226
339.40 1.225
339.50 1.224
339.60 1.224
339.70 1.223
339.80 1.222
339.90 1.221
340.00 1.221
340.10 1.22
340.20 1.219
340.30 1.219
340.40 1.218
340.50 1.217
340.60 1.217
340.70 1.216
340.80 1.215
340.90 1.215
341.00 1.214
341.10 1.213
341.20 1.213
341.30 1.212
341.40 1.211
341.50 1.211
341.60 1.21
341.70 1.209
341.80 1.209
341.90 1.208
342.00 1.207
342.10 1.207
342.20 1.206
342.30 1.205
342.40 1.205
342.50 1.204
342.60 1.203
342.70 1.203
342.80 1.202
342.90 1.201
343.00 1.201
343.10 1.2
343.20 1.199
343.30 1.199
343.40 1.198
343.50 1.197
343.60 1.197
343.70 1.196
343.80 1.195
343.90 1.195
344.00 1.194
344.10 1.193
344.20 1.193
344.30 1.192
344.40 1.192
344.50 1.191
344.60 1.19
344.70 1.19
344.80 1.189
344.90 1.188
345.00 1.188
345.10 1.187
345.20 1.186
345.30 1.186
345.40 1.185
345.50 1.184
345.60 1.184
345.70 1.183
345.80 1.182
345.90 1.182
346.00 1.181
346.10 1.18
346.20 1.18
346.30 1.179
346.40 1.179
346.50 1.178
346.60 1.177
346.70 1.177
346.80 1.176
346.90 1.175
347.00 1.175
347.10 1.174
347.20 1.173
347.30 1.173
347.40 1.172
347.50 1.171
347.60 1.171
347.70 1.17
347.80 1.17
347.90 1.169
348.00 1.168
348.10 1.168
348.20 1.167
348.30 1.166
348.40 1.166
348.50 1.165
348.60 1.164
348.70 1.164
348.80 1.163
348.90 1.163
349.00 1.162
349.10 1.161
349.20 1.161
349.30 1.16
349.40 1.159
349.50 1.159
349.60 1.158
349.70 1.157
349.80 1.157
349.90 1.156
350.00 1.156
350.10 1.155
350.20 1.154
350.30 1.154
350.40 1.153
350.50 1.152
350.60 1.152
350.70 1.151
350.80 1.151
350.90 1.15
351.00 1.149
351.10 1.149
351.20 1.148
351.30 1.147
351.40 1.147
351.50 1.146
351.60 1.146
351.70 1.145
351.80 1.144
351.90 1.144
352.00 1.143
352.10 1.142
352.20 1.142
352.30 1.141
352.40 1.141
352.50 1.14
352.60 1.139
352.70 1.139
352.80 1.138
352.90 1.138
353.00 1.137
353.10 1.136
353.20 1.136
353.30 1.135
353.40 1.134
353.50 1.134
353.60 1.133
353.70 1.133
353.80 1.132
353.90 1.131
354.00 1.131
354.10 1.13
354.20 1.13
354.30 1.129
354.40 1.128
354.50 1.128
354.60 1.127
354.70 1.126
354.80 1.126
354.90 1.125
355.00 1.125
355.10 1.124
355.20 1.123
355.30 1.123
355.40 1.122
355.50 1.122
355.60 1.121
355.70 1.12
355.80 1.12
355.90 1.119
356.00 1.119
356.10 1.118
356.20 1.117
356.30 1.117
356.40 1.116
356.50 1.116
356.60 1.115
356.70 1.114
356.80 1.114
356.90 1.113
357.00 1.113
357.10 1.112
357.20 1.111
357.30 1.111
357.40 1.11
357.50 1.11
357.60 1.109
357.70 1.108
357.80 1.108
357.90 1.107
358.00 1.107
358.10 1.106
358.20 1.105
358.30 1.105
358.40 1.104
358.50 1.104
358.60 1.103
358.70 1.102
358.80 1.102
358.90 1.101
359.00 1.101
359.10 1.1
359.20 1.1
359.30 1.099
359.40 1.098
359.50 1.098
359.60 1.097
359.70 1.097
359.80 1.096
359.90 1.095
360.00 1.095
360.10 1.094
360.20 1.094
360.30 1.093
360.40 1.092
360.50 1.092
360.60 1.091
360.70 1.091
360.80 1.09
360.90 1.09
361.00 1.089
361.10 1.088
361.20 1.088
361.30 1.087
361.40 1.087
361.50 1.086
361.60 1.085
361.70 1.085
361.80 1.084
361.90 1.084
362.00 1.083
362.10 1.083
362.20 1.082
362.30 1.081
362.40 1.081
362.50 1.08
362.60 1.08
362.70 1.079
362.80 1.079
362.90 1.078
363.00 1.077
363.10 1.077
363.20 1.076
363.30 1.076
363.40 1.075
363.50 1.074
363.60 1.074
363.70 1.073
363.80 1.073
363.90 1.072
364.00 1.071
364.10 1.071
364.20 1.07
364.30 1.07
364.40 1.069
364.50 1.068
364.60 1.068
364.70 1.067
364.80 1.067
364.90 1.066
365.00 1.066
365.10 1.065
365.20 1.064
365.30 1.064
365.40 1.063
365.50 1.063
365.60 1.062
365.70 1.062
365.80 1.061
365.90 1.061
366.00 1.06
366.10 1.059
366.20 1.059
366.30 1.058
366.40 1.058
366.50 1.057
366.60 1.057
366.70 1.056
366.80 1.056
366.90 1.055
367.00 1.055
367.10 1.054
367.20 1.054
367.30 1.053
367.40 1.053
367.50 1.052
367.60 1.052
367.70 1.051
367.80 1.051
367.90 1.05
368.00 1.05
368.10 1.05
368.20 1.051
368.30 1.051
368.40 1.051
368.50 1.052
368.60 1.052
368.70 1.052
368.80 1.053
368.90 1.053
369.00 1.053
369.10 1.054
369.20 1.054
369.30 1.054
369.40 1.055
369.50 1.055
369.60 1.055
369.70 1.056
369.80 1.056
369.90 1.056
370.00 1.057
370.10 1.059
370.20 1.061
370.30 1.063
370.40 1.065
370.50 1.067
370.60 1.069
370.70 1.071
370.80 1.073
370.90 1.075
371.00 1.077
371.10 1.079
371.20 1.081
371.30 1.083
371.40 1.084
371.50 1.086
371.60 1.088
371.70 1.09
371.80 1.092
371.90 1.094
372.00 1.096
372.10 1.1
372.20 1.103
372.30 1.107
372.40 1.11
372.50 1.114
372.60 1.117
372.70 1.12
372.80 1.124
372.90 1.127
373.00 1.131
373.10 1.134
373.20 1.138
373.30 1.141
373.40 1.144
373.50 1.148
373.60 1.151
373.70 1.155
373.80 1.158
373.90 1.161
374.00 1.165
374.10 1.168
374.20 1.172
374.30 1.176
374.40 1.179
374.50 1.183
374.60 1.186
374.70 1.19
374.80 1.194
374.90 1.197
375.00 1.201
375.10 1.204
375.20 1.208
375.30 1.211
375.40 1.215
375.50 1.219
375.60 1.222
375.70 1.226
375.80 1.229
375.90 1.233
376.00 1.236
376.10 1.238
376.20 1.24
376.30 1.242
376.40 1.243
376.50 1.245
376.60 1.247
376.70 1.249
376.80 1.251
376.90 1.252
377.00 1.254
377.10 1.251
377.20 1.248
377.30 1.245
377.40 1.242
377.50 1.24
377.60 1.237
377.70 1.234
377.80 1.231
377.90 1.228
378.00 1.225
378.10 1.208
378.20 1.191
378.30 1.173
378.40 1.156
378.50 1.139
378.60 1.122
378.70 1.105
378.80 1.087
378.90 1.07
379.00 1.053
379.10 1.038
379.20 1.023
379.30 1.007
379.40 0.9919
379.50 0.9766
379.60 0.9614
379.70 0.9461
379.80 0.9309
379.90 0.9157
380.00 0.9005
380.10 0.9243
380.20 0.9482
380.30 0.972
380.40 0.9957
380.50 1.019
380.60 1.043
380.70 1.067
380.80 1.091
380.90 1.114
381.00 1.138
381.10 1.147
381.20 1.156
381.30 1.165
381.40 1.174
381.50 1.183
381.60 1.183
381.70 1.181
381.80 1.177
381.90 1.169
382.00 1.159
382.10 1.146
382.20 1.13
382.30 1.099
382.40 1.069
382.50 1.038
382.60 1.008
382.70 0.9773
382.80 0.947
382.90 0.9166
383.00 0.8863
383.10 0.8561
383.20 0.8259
383.30 0.7924
383.40 0.7558
383.50 0.7164
383.60 0.7252
383.70 0.7636
383.80 0.7998
383.90 0.8328
384.00 0.8663
384.10 0.9021
384.20 0.9384
384.30 0.9744
384.40 1.01
384.50 1.045
384.60 1.078
384.70 1.107
384.80 1.134
384.90 1.158
385.00 1.18
385.10 1.198
385.20 1.214
385.30 1.228
385.40 1.24
385.50 1.25
385.60 1.259
385.70 1.265
385.80 1.27
385.90 1.274
386.00 1.276
386.10 1.276
386.20 1.275
386.30 1.272
386.40 1.268
386.50 1.263
386.60 1.255
386.70 1.247
386.80 1.237
386.90 1.225
387.00 1.211
387.10 1.197
387.20 1.18
387.30 1.161
387.40 1.141
387.50 1.117
387.60 1.092
387.70 1.064
387.80 1.033
387.90 0.9995
388.00 0.9639
388.10 0.9253
388.20 0.8861
388.30 0.8462
388.40 0.8066
388.50 0.768
388.60 0.7306
388.70 0.691
388.80 0.6485
388.90 0.6031
389.00 0.6454
389.10 0.6863
389.20 0.7258
389.30 0.7628
389.40 0.8009
389.50 0.8401
389.60 0.8798
389.70 0.9191
389.80 0.958
389.90 0.9945
390.00 1.029
390.10 1.062
390.20 1.091
390.30 1.119
390.40 1.145
390.50 1.168
390.60 1.19
390.70 1.211
390.80 1.23
390.90 1.248
391.00 1.265
391.10 1.281
391.20 1.296
391.30 1.311
391.40 1.324
391.50 1.337
391.60 1.348
391.70 1.359
391.80 1.369
391.90 1.378
392.00 1.386
392.10 1.393
392.20 1.399
392.30 1.405
392.40 1.409
392.50 1.413
392.60 1.415
392.70 1.417
392.80 1.418
392.90 1.417
393.00 1.416
393.10 1.414
393.20 1.411
393.30 1.407
393.40 1.402
393.50 1.395
393.60 1.388
393.70 1.381
393.80 1.371
393.90 1.362
394.00 1.351
394.10 1.339
394.20 1.326
394.30 1.313
394.40 1.298
394.50 1.283
394.60 1.267
394.70 1.249
394.80 1.231
394.90 1.213
395.00 1.193
395.10 1.173
395.20 1.152
395.30 1.129
395.40 1.106
395.50 1.081
395.60 1.055
395.70 1.028
395.80 0.9993
395.90 0.9684
396.00 0.9363
396.10 0.9029
396.20 0.867
396.30 0.8301
396.40 0.7922
396.50 0.7538
396.60 0.7161
396.70 0.6789
396.80 0.6384
396.90 0.5864
397.00 0.5231
397.10 0.5818
397.20 0.6317
397.30 0.6727
397.40 0.7093
397.50 0.7465
397.60 0.7842
397.70 0.8215
397.80 0.8579
397.90 0.8932
398.00 0.9262
398.10 0.9578
398.20 0.9883
398.30 1.016
398.40 1.043
398.50 1.069
398.60 1.093
398.70 1.117
398.80 1.139
398.90 1.16
399.00 1.181
399.10 1.201
399.20 1.22
399.30 1.239
399.40 1.257
399.50 1.275
399.60 1.292
399.70 1.309
399.80 1.324
399.90 1.34
400.00 1.355
400.10 1.369
400.20 1.383
400.30 1.396
400.40 1.409
400.50 1.421
400.60 1.433
400.70 1.444
400.80 1.454
400.90 1.464
401.00 1.474
401.10 1.483
401.20 1.492
401.30 1.5
401.40 1.507
401.50 1.515
401.60 1.521
401.70 1.528
401.80 1.534
401.90 1.539
402.00 1.544
402.10 1.549
402.20 1.553
402.30 1.557
402.40 1.561
402.50 1.564
402.60 1.566
402.70 1.569
402.80 1.571
402.90 1.572
403.00 1.574
403.10 1.574
403.20 1.575
403.30 1.575
403.40 1.575
403.50 1.574
403.60 1.573
403.70 1.572
403.80 1.57
403.90 1.569
404.00 1.566
404.10 1.563
404.20 1.561
404.30 1.557
404.40 1.553
404.50 1.549
404.60 1.545
404.70 1.54
404.80 1.535
404.90 1.529
405.00 1.523
405.10 1.516
405.20 1.509
405.30 1.502
405.40 1.495
405.50 1.486
405.60 1.478
405.70 1.469
405.80 1.46
405.90 1.45
406.00 1.44
406.10 1.429
406.20 1.418
406.30 1.406
406.40 1.394
406.50 1.382
406.60 1.369
406.70 1.355
406.80 1.341
406.90 1.327
407.00 1.312
407.10 1.297
407.20 1.281
407.30 1.264
407.40 1.247
407.50 1.229
407.60 1.211
407.70 1.192
407.80 1.173
407.90 1.153
408.00 1.133
408.10 1.113
408.20 1.092
408.30 1.07
408.40 1.048
408.50 1.026
408.60 1.003
408.70 0.9794
408.80 0.955
408.90 0.9301
409.00 0.9046
409.10 0.8777
409.20 0.8499
409.30 0.8212
409.40 0.7905
409.50 0.7588
409.60 0.726
409.70 0.6923
409.80 0.6585
409.90 0.6246
410.00 0.5821
410.10 0.5329
410.20 0.4769
410.30 0.5499
410.40 0.605
410.50 0.642
410.60 0.6752
410.70 0.7082
410.80 0.7411
410.90 0.7725
411.00 0.8027
411.10 0.8319
411.20 0.859
411.30 0.8852
411.40 0.9107
411.50 0.9347
411.60 0.9582
411.70 0.9811
411.80 1.003
411.90 1.025
412.00 1.046
412.10 1.066
412.20 1.086
412.30 1.106
412.40 1.125
412.50 1.143
412.60 1.162
412.70 1.179
412.80 1.196
412.90 1.213
413.00 1.229
413.10 1.245
413.20 1.26
413.30 1.275
413.40 1.289
413.50 1.302
413.60 1.316
413.70 1.328
413.80 1.341
413.90 1.352
414.00 1.364
414.10 1.375
414.20 1.386
414.30 1.396
414.40 1.406
414.50 1.415
414.60 1.425
414.70 1.434
414.80 1.442
414.90 1.451
415.00 1.459
415.10 1.466
415.20 1.474
415.30 1.481
415.40 1.487
415.50 1.494
415.60 1.5
415.70 1.506
415.80 1.512
415.90 1.517
416.00 1.523
416.10 1.528
416.20 1.533
416.30 1.537
416.40 1.542
416.50 1.546
416.60 1.55
416.70 1.554
416.80 1.557
416.90 1.561
417.00 1.564
417.10 1.567
417.20 1.57
417.30 1.573
417.40 1.576
417.50 1.578
417.60 1.581
417.70 1.583
417.80 1.585
417.90 1.587
418.00 1.589
418.10 1.591
418.20 1.593
418.30 1.594
418.40 1.596
418.50 1.597
418.60 1.598
418.70 1.6
418.80 1.601
418.90 1.602
419.00 1.603
419.10 1.603
419.20 1.604
419.30 1.605
419.40 1.605
419.50 1.606
419.60 1.606
419.70 1.607
419.80 1.607
419.90 1.607
420.00 1.607
420.10 1.607
420.20 1.607
420.30 1.607
420.40 1.607
420.50 1.607
420.60 1.607
420.70 1.606
420.80 1.606
420.90 1.606
421.00 1.605
421.10 1.605
421.20 1.604
421.30 1.604
421.40 1.603
421.50 1.602
421.60 1.601
421.70 1.6
421.80 1.6
421.90 1.599
422.00 1.598
422.10 1.597
422.20 1.595
422.30 1.594
422.40 1.593
422.50 1.592
422.60 1.591
422.70 1.589
422.80 1.588
422.90 1.586
423.00 1.585
423.10 1.583
423.20 1.582
423.30 1.58
423.40 1.578
423.50 1.576
423.60 1.574
423.70 1.573
423.80 1.571
423.90 1.569
424.00 1.566
424.10 1.564
424.20 1.562
424.30 1.56
424.40 1.557
424.50 1.555
424.60 1.553
424.70 1.55
424.80 1.547
424.90 1.545
425.00 1.542
425.10 1.539
425.20 1.536
425.30 1.533
425.40 1.53
425.50 1.527
425.60 1.524
425.70 1.52
425.80 1.517
425.90 1.513
426.00 1.51
426.10 1.506
426.20 1.501
426.30 1.497
426.40 1.493
426.50 1.489
426.60 1.484
426.70 1.48
426.80 1.475
426.90 1.471
427.00 1.466
427.10 1.461
427.20 1.456
427.30 1.451
427.40 1.446
427.50 1.44
427.60 1.435
427.70 1.429
427.80 1.423
427.90 1.417
428.00 1.411
428.10 1.405
428.20 1.398
428.30 1.391
428.40 1.384
428.50 1.377
428.60 1.37
428.70 1.363
428.80 1.355
428.90 1.347
429.00 1.339
429.10 1.331
429.20 1.322
429.30 1.313
429.40 1.304
429.50 1.295
429.60 1.285
429.70 1.276
429.80 1.266
429.90 1.255
430.00 1.245
430.10 1.234
430.20 1.223
430.30 1.212
430.40 1.2
430.50 1.188
430.60 1.176
430.70 1.164
430.80 1.151
430.90 1.139
431.00 1.126
431.10 1.112
431.20 1.099
431.30 1.085
431.40 1.071
431.50 1.057
431.60 1.042
431.70 1.027
431.80 1.012
431.90 0.9953
432.00 0.9784
432.10 0.961
432.20 0.9424
432.30 0.9231
432.40 0.9032
432.50 0.8816
432.60 0.8592
432.70 0.8362
432.80 0.8127
432.90 0.7895
433.00 0.7666
433.10 0.7448
433.20 0.7227
433.30 0.7002
433.40 0.6754
433.50 0.6495
433.60 0.6225
433.70 0.594
433.80 0.5622
433.90 0.527
434.00 0.4365
434.10 0.4375
434.20 0.5301
434.30 0.5641
434.40 0.5951
434.50 0.623
434.60 0.6493
434.70 0.6745
434.80 0.6985
434.90 0.7202
435.00 0.7416
435.10 0.7626
435.20 0.7847
435.30 0.807
435.40 0.8295
435.50 0.8514
435.60 0.8726
435.70 0.893
435.80 0.9117
435.90 0.9297
436.00 0.9469
436.10 0.9629
436.20 0.9785
436.30 0.9935
436.40 1.008
436.50 1.021
436.60 1.035
436.70 1.047
436.80 1.06
436.90 1.072
437.00 1.084
437.10 1.095
437.20 1.107
437.30 1.118
437.40 1.129
437.50 1.139
437.60 1.15
437.70 1.16
437.80 1.169
437.90 1.179
438.00 1.188
438.10 1.197
438.20 1.205
438.30 1.214
438.40 1.222
438.50 1.23
438.60 1.237
438.70 1.245
438.80 1.252
438.90 1.258
439.00 1.265
439.10 1.271
439.20 1.277
439.30 1.283
439.40 1.289
439.50 1.294
439.60 1.3
439.70 1.305
439.80 1.31
439.90 1.314
440.00 1.319
440.10 1.323
440.20 1.327
440.30 1.331
440.40 1.335
440.50 1.339
440.60 1.342
440.70 1.346
440.80 1.349
440.90 1.352
441.00 1.355
441.10 1.358
441.20 1.361
441.30 1.364
441.40 1.366
441.50 1.369
441.60 1.371
441.70 1.373
441.80 1.375
441.90 1.377
442.00 1.379
442.10 1.381
442.20 1.383
442.30 1.384
442.40 1.386
442.50 1.387
442.60 1.389
442.70 1.39
442.80 1.391
442.90 1.392
443.00 1.394
443.10 1.395
443.20 1.396
443.30 1.397
443.40 1.397
443.50 1.398
443.60 1.399
443.70 1.4
443.80 1.4
443.90 1.401
444.00 1.402
444.10 1.402
444.20 1.403
444.30 1.403
444.40 1.403
444.50 1.404
444.60 1.404
444.70 1.404
444.80 1.405
444.90 1.405
445.00 1.405
445.10 1.405
445.20 1.405
445.30 1.405
445.40 1.405
445.50 1.405
445.60 1.405
445.70 1.405
445.80 1.405
445.90 1.405
446.00 1.405
446.10 1.405
446.20 1.405
446.30 1.405
446.40 1.404
446.50 1.404
446.60 1.404
446.70 1.404
446.80 1.403
446.90 1.403
447.00 1.403
447.10 1.402
447.20 1.402
447.30 1.402
447.40 1.401
447.50 1.401
447.60 1.4
447.70 1.4
447.80 1.4
447.90 1.399
448.00 1.399
448.10 1.398
448.20 1.398
448.30 1.397
448.40 1.397
448.50 1.396
448.60 1.396
448.70 1.395
448.80 1.395
448.90 1.394
449.00 1.394
449.10 1.393
449.20 1.393
449.30 1.392
449.40 1.391
449.50 1.391
449.60 1.39
449.70 1.39
449.80 1.389
449.90 1.388
450.00 1.388
450.10 1.387
450.20 1.386
450.30 1.386
450.40 1.385
450.50 1.384
450.60 1.384
450.70 1.383
450.80 1.382
450.90 1.382
451.00 1.381
451.10 1.38
451.20 1.38
451.30 1.379
451.40 1.378
451.50 1.377
451.60 1.377
451.70 1.376
451.80 1.375
451.90 1.374
452.00 1.374
452.10 1.373
452.20 1.372
452.30 1.371
452.40 1.371
452.50 1.37
452.60 1.369
452.70 1.368
452.80 1.368
452.90 1.367
