# Version 2.1 - nm, norm@500 to 1, cut digits, bergeron_12000_95.dat_12000
# Wavelength(nm)  Flambda(ergs/cm^s/s/nm)
300.00 2.318
300.10 2.317
300.20 2.316
300.30 2.314
300.40 2.313
300.50 2.312
300.60 2.31
300.70 2.309
300.80 2.308
300.90 2.306
301.00 2.305
301.10 2.304
301.20 2.303
301.30 2.301
301.40 2.3
301.50 2.299
301.60 2.297
301.70 2.296
301.80 2.295
301.90 2.293
302.00 2.292
302.10 2.291
302.20 2.29
302.30 2.288
302.40 2.287
302.50 2.286
302.60 2.284
302.70 2.283
302.80 2.282
302.90 2.281
303.00 2.279
303.10 2.278
303.20 2.277
303.30 2.275
303.40 2.274
303.50 2.273
303.60 2.272
303.70 2.27
303.80 2.269
303.90 2.268
304.00 2.266
304.10 2.265
304.20 2.264
304.30 2.263
304.40 2.261
304.50 2.26
304.60 2.259
304.70 2.257
304.80 2.256
304.90 2.255
305.00 2.254
305.10 2.252
305.20 2.251
305.30 2.25
305.40 2.248
305.50 2.247
305.60 2.246
305.70 2.245
305.80 2.243
305.90 2.242
306.00 2.241
306.10 2.24
306.20 2.238
306.30 2.237
306.40 2.236
306.50 2.234
306.60 2.233
306.70 2.232
306.80 2.231
306.90 2.229
307.00 2.228
307.10 2.227
307.20 2.226
307.30 2.224
307.40 2.223
307.50 2.222
307.60 2.221
307.70 2.219
307.80 2.218
307.90 2.217
308.00 2.216
308.10 2.214
308.20 2.213
308.30 2.212
308.40 2.21
308.50 2.209
308.60 2.208
308.70 2.207
308.80 2.205
308.90 2.204
309.00 2.203
309.10 2.202
309.20 2.2
309.30 2.199
309.40 2.198
309.50 2.197
309.60 2.195
309.70 2.194
309.80 2.193
309.90 2.192
310.00 2.19
310.10 2.189
310.20 2.188
310.30 2.187
310.40 2.185
310.50 2.184
310.60 2.183
310.70 2.182
310.80 2.18
310.90 2.179
311.00 2.178
311.10 2.177
311.20 2.175
311.30 2.174
311.40 2.173
311.50 2.172
311.60 2.17
311.70 2.169
311.80 2.168
311.90 2.167
312.00 2.166
312.10 2.164
312.20 2.163
312.30 2.162
312.40 2.161
312.50 2.159
312.60 2.158
312.70 2.157
312.80 2.156
312.90 2.154
313.00 2.153
313.10 2.152
313.20 2.151
313.30 2.15
313.40 2.148
313.50 2.147
313.60 2.146
313.70 2.145
313.80 2.143
313.90 2.142
314.00 2.141
314.10 2.14
314.20 2.138
314.30 2.137
314.40 2.136
314.50 2.135
314.60 2.134
314.70 2.132
314.80 2.131
314.90 2.13
315.00 2.129
315.10 2.127
315.20 2.126
315.30 2.125
315.40 2.124
315.50 2.123
315.60 2.121
315.70 2.12
315.80 2.119
315.90 2.118
316.00 2.117
316.10 2.115
316.20 2.114
316.30 2.113
316.40 2.112
316.50 2.111
316.60 2.109
316.70 2.108
316.80 2.107
316.90 2.106
317.00 2.104
317.10 2.103
317.20 2.102
317.30 2.101
317.40 2.1
317.50 2.098
317.60 2.097
317.70 2.096
317.80 2.095
317.90 2.094
318.00 2.092
318.10 2.091
318.20 2.09
318.30 2.089
318.40 2.088
318.50 2.086
318.60 2.085
318.70 2.084
318.80 2.083
318.90 2.082
319.00 2.08
319.10 2.079
319.20 2.078
319.30 2.077
319.40 2.076
319.50 2.075
319.60 2.073
319.70 2.072
319.80 2.071
319.90 2.07
320.00 2.069
320.10 2.067
320.20 2.066
320.30 2.065
320.40 2.064
320.50 2.063
320.60 2.061
320.70 2.06
320.80 2.059
320.90 2.058
321.00 2.057
321.10 2.056
321.20 2.054
321.30 2.053
321.40 2.052
321.50 2.051
321.60 2.05
321.70 2.048
321.80 2.047
321.90 2.046
322.00 2.045
322.10 2.044
322.20 2.043
322.30 2.041
322.40 2.04
322.50 2.039
322.60 2.038
322.70 2.037
322.80 2.036
322.90 2.034
323.00 2.033
323.10 2.032
323.20 2.031
323.30 2.03
323.40 2.028
323.50 2.027
323.60 2.026
323.70 2.025
323.80 2.024
323.90 2.023
324.00 2.022
324.10 2.02
324.20 2.019
324.30 2.018
324.40 2.017
324.50 2.016
324.60 2.015
324.70 2.013
324.80 2.012
324.90 2.011
325.00 2.01
325.10 2.009
325.20 2.008
325.30 2.006
325.40 2.005
325.50 2.004
325.60 2.003
325.70 2.002
325.80 2.001
325.90 2
326.00 1.998
326.10 1.997
326.20 1.996
326.30 1.995
326.40 1.994
326.50 1.993
326.60 1.991
326.70 1.99
326.80 1.989
326.90 1.988
327.00 1.987
327.10 1.986
327.20 1.985
327.30 1.983
327.40 1.982
327.50 1.981
327.60 1.98
327.70 1.979
327.80 1.978
327.90 1.977
328.00 1.975
328.10 1.974
328.20 1.973
328.30 1.972
328.40 1.971
328.50 1.97
328.60 1.969
328.70 1.967
328.80 1.966
328.90 1.965
329.00 1.964
329.10 1.963
329.20 1.962
329.30 1.961
329.40 1.96
329.50 1.958
329.60 1.957
329.70 1.956
329.80 1.955
329.90 1.954
330.00 1.953
330.10 1.952
330.20 1.951
330.30 1.949
330.40 1.948
330.50 1.947
330.60 1.946
330.70 1.945
330.80 1.944
330.90 1.943
331.00 1.942
331.10 1.94
331.20 1.939
331.30 1.938
331.40 1.937
331.50 1.936
331.60 1.935
331.70 1.934
331.80 1.933
331.90 1.932
332.00 1.93
332.10 1.929
332.20 1.928
332.30 1.927
332.40 1.926
332.50 1.925
332.60 1.924
332.70 1.923
332.80 1.921
332.90 1.92
333.00 1.919
333.10 1.918
333.20 1.917
333.30 1.916
333.40 1.915
333.50 1.914
333.60 1.913
333.70 1.912
333.80 1.91
333.90 1.909
334.00 1.908
334.10 1.907
334.20 1.906
334.30 1.905
334.40 1.904
334.50 1.903
334.60 1.902
334.70 1.901
334.80 1.899
334.90 1.898
335.00 1.897
335.10 1.896
335.20 1.895
335.30 1.894
335.40 1.893
335.50 1.892
335.60 1.891
335.70 1.89
335.80 1.888
335.90 1.887
336.00 1.886
336.10 1.885
336.20 1.884
336.30 1.883
336.40 1.882
336.50 1.881
336.60 1.88
336.70 1.879
336.80 1.878
336.90 1.876
337.00 1.875
337.10 1.874
337.20 1.873
337.30 1.872
337.40 1.871
337.50 1.87
337.60 1.869
337.70 1.868
337.80 1.867
337.90 1.866
338.00 1.865
338.10 1.864
338.20 1.862
338.30 1.861
338.40 1.86
338.50 1.859
338.60 1.858
338.70 1.857
338.80 1.856
338.90 1.855
339.00 1.854
339.10 1.853
339.20 1.852
339.30 1.851
339.40 1.85
339.50 1.848
339.60 1.847
339.70 1.846
339.80 1.845
339.90 1.844
340.00 1.843
340.10 1.842
340.20 1.841
340.30 1.84
340.40 1.839
340.50 1.838
340.60 1.837
340.70 1.836
340.80 1.835
340.90 1.834
341.00 1.833
341.10 1.831
341.20 1.83
341.30 1.829
341.40 1.828
341.50 1.827
341.60 1.826
341.70 1.825
341.80 1.824
341.90 1.823
342.00 1.822
342.10 1.821
342.20 1.82
342.30 1.819
342.40 1.818
342.50 1.817
342.60 1.816
342.70 1.815
342.80 1.814
342.90 1.812
343.00 1.811
343.10 1.81
343.20 1.809
343.30 1.808
343.40 1.807
343.50 1.806
343.60 1.805
343.70 1.804
343.80 1.803
343.90 1.802
344.00 1.801
344.10 1.8
344.20 1.799
344.30 1.798
344.40 1.797
344.50 1.796
344.60 1.795
344.70 1.794
344.80 1.793
344.90 1.792
345.00 1.791
345.10 1.79
345.20 1.789
345.30 1.787
345.40 1.786
345.50 1.785
345.60 1.784
345.70 1.783
345.80 1.782
345.90 1.781
346.00 1.78
346.10 1.779
346.20 1.778
346.30 1.777
346.40 1.776
346.50 1.775
346.60 1.774
346.70 1.773
346.80 1.772
346.90 1.771
347.00 1.77
347.10 1.769
347.20 1.768
347.30 1.767
347.40 1.766
347.50 1.765
347.60 1.764
347.70 1.763
347.80 1.762
347.90 1.761
348.00 1.76
348.10 1.759
348.20 1.758
348.30 1.757
348.40 1.756
348.50 1.755
348.60 1.754
348.70 1.753
348.80 1.752
348.90 1.751
349.00 1.75
349.10 1.749
349.20 1.748
349.30 1.747
349.40 1.746
349.50 1.745
349.60 1.744
349.70 1.743
349.80 1.742
349.90 1.741
350.00 1.74
350.10 1.739
350.20 1.738
350.30 1.737
350.40 1.736
350.50 1.735
350.60 1.734
350.70 1.732
350.80 1.731
350.90 1.73
351.00 1.729
351.10 1.728
351.20 1.727
351.30 1.726
351.40 1.725
351.50 1.724
351.60 1.723
351.70 1.723
351.80 1.722
351.90 1.721
352.00 1.72
352.10 1.719
352.20 1.718
352.30 1.717
352.40 1.716
352.50 1.715
352.60 1.714
352.70 1.713
352.80 1.712
352.90 1.711
353.00 1.71
353.10 1.709
353.20 1.708
353.30 1.707
353.40 1.706
353.50 1.705
353.60 1.704
353.70 1.703
353.80 1.702
353.90 1.701
354.00 1.7
354.10 1.699
354.20 1.698
354.30 1.697
354.40 1.696
354.50 1.695
354.60 1.694
354.70 1.693
354.80 1.692
354.90 1.691
355.00 1.69
355.10 1.689
355.20 1.688
355.30 1.687
355.40 1.686
355.50 1.685
355.60 1.684
355.70 1.683
355.80 1.682
355.90 1.681
356.00 1.68
356.10 1.679
356.20 1.678
356.30 1.677
356.40 1.676
356.50 1.675
356.60 1.674
356.70 1.673
356.80 1.672
356.90 1.671
357.00 1.671
357.10 1.67
357.20 1.669
357.30 1.668
357.40 1.667
357.50 1.666
357.60 1.665
357.70 1.664
357.80 1.663
357.90 1.662
358.00 1.661
358.10 1.66
358.20 1.659
358.30 1.658
358.40 1.657
358.50 1.656
358.60 1.655
358.70 1.654
358.80 1.653
358.90 1.652
359.00 1.651
359.10 1.65
359.20 1.649
359.30 1.648
359.40 1.648
359.50 1.647
359.60 1.646
359.70 1.645
359.80 1.644
359.90 1.643
360.00 1.642
360.10 1.641
360.20 1.64
360.30 1.639
360.40 1.638
360.50 1.637
360.60 1.636
360.70 1.635
360.80 1.634
360.90 1.633
361.00 1.632
361.10 1.631
361.20 1.63
361.30 1.63
361.40 1.629
361.50 1.628
361.60 1.627
361.70 1.626
361.80 1.625
361.90 1.624
362.00 1.623
362.10 1.622
362.20 1.621
362.30 1.62
362.40 1.619
362.50 1.618
362.60 1.617
362.70 1.616
362.80 1.615
362.90 1.615
363.00 1.614
363.10 1.612
363.20 1.611
363.30 1.61
363.40 1.609
363.50 1.608
363.60 1.607
363.70 1.606
363.80 1.605
363.90 1.604
364.00 1.603
364.10 1.601
364.20 1.6
364.30 1.599
364.40 1.598
364.50 1.597
364.60 1.596
364.70 1.595
364.80 1.594
364.90 1.592
365.00 1.591
365.10 1.59
365.20 1.589
365.30 1.588
365.40 1.587
365.50 1.586
365.60 1.585
365.70 1.583
365.80 1.582
365.90 1.581
366.00 1.58
366.10 1.579
366.20 1.578
366.30 1.577
366.40 1.576
366.50 1.575
366.60 1.574
366.70 1.573
366.80 1.572
366.90 1.571
367.00 1.57
367.10 1.569
367.20 1.568
367.30 1.567
367.40 1.566
367.50 1.565
367.60 1.565
367.70 1.564
367.80 1.563
367.90 1.562
368.00 1.561
368.10 1.56
368.20 1.559
368.30 1.558
368.40 1.557
368.50 1.556
368.60 1.555
368.70 1.554
368.80 1.553
368.90 1.552
369.00 1.551
369.10 1.55
369.20 1.549
369.30 1.548
369.40 1.547
369.50 1.546
369.60 1.545
369.70 1.544
369.80 1.543
369.90 1.542
370.00 1.541
370.10 1.54
370.20 1.54
370.30 1.539
370.40 1.538
370.50 1.537
370.60 1.536
370.70 1.535
370.80 1.534
370.90 1.533
371.00 1.532
371.10 1.531
371.20 1.53
371.30 1.529
371.40 1.528
371.50 1.528
371.60 1.527
371.70 1.526
371.80 1.525
371.90 1.524
372.00 1.523
372.10 1.522
372.20 1.521
372.30 1.521
372.40 1.52
372.50 1.519
372.60 1.518
372.70 1.517
372.80 1.517
372.90 1.516
373.00 1.515
373.10 1.514
373.20 1.513
373.30 1.513
373.40 1.512
373.50 1.511
373.60 1.51
373.70 1.509
373.80 1.509
373.90 1.508
374.00 1.507
374.10 1.506
374.20 1.506
374.30 1.505
374.40 1.504
374.50 1.504
374.60 1.503
374.70 1.502
374.80 1.501
374.90 1.501
375.00 1.5
375.10 1.499
375.20 1.499
375.30 1.498
375.40 1.497
375.50 1.497
375.60 1.496
375.70 1.495
375.80 1.495
375.90 1.494
376.00 1.493
376.10 1.493
376.20 1.492
376.30 1.491
376.40 1.491
376.50 1.49
376.60 1.489
376.70 1.489
376.80 1.488
376.90 1.487
377.00 1.487
377.10 1.486
377.20 1.485
377.30 1.484
377.40 1.484
377.50 1.483
377.60 1.482
377.70 1.481
377.80 1.48
377.90 1.48
378.00 1.479
378.10 1.477
378.20 1.476
378.30 1.475
378.40 1.474
378.50 1.472
378.60 1.471
378.70 1.47
378.80 1.468
378.90 1.467
379.00 1.466
379.10 1.465
379.20 1.464
379.30 1.463
379.40 1.462
379.50 1.461
379.60 1.46
379.70 1.459
379.80 1.458
379.90 1.457
380.00 1.456
380.10 1.456
380.20 1.456
380.30 1.457
380.40 1.457
380.50 1.457
380.60 1.457
380.70 1.457
380.80 1.457
380.90 1.457
381.00 1.458
381.10 1.457
381.20 1.457
381.30 1.457
381.40 1.456
381.50 1.456
381.60 1.455
381.70 1.454
381.80 1.453
381.90 1.452
382.00 1.451
382.10 1.45
382.20 1.448
382.30 1.446
382.40 1.443
382.50 1.441
382.60 1.439
382.70 1.436
382.80 1.434
382.90 1.432
383.00 1.429
383.10 1.427
383.20 1.424
383.30 1.423
383.40 1.421
383.50 1.419
383.60 1.419
383.70 1.421
383.80 1.422
383.90 1.423
384.00 1.425
384.10 1.427
384.20 1.43
384.30 1.432
384.40 1.435
384.50 1.437
384.60 1.438
384.70 1.44
384.80 1.441
384.90 1.442
385.00 1.443
385.10 1.444
385.20 1.445
385.30 1.445
385.40 1.445
385.50 1.445
385.60 1.445
385.70 1.445
385.80 1.444
385.90 1.444
386.00 1.443
386.10 1.442
386.20 1.441
386.30 1.439
386.40 1.438
386.50 1.436
386.60 1.435
386.70 1.433
386.80 1.431
386.90 1.428
387.00 1.426
387.10 1.423
387.20 1.42
387.30 1.417
387.40 1.414
387.50 1.41
387.60 1.407
387.70 1.403
387.80 1.398
387.90 1.393
388.00 1.388
388.10 1.383
388.20 1.377
388.30 1.37
388.40 1.364
388.50 1.358
388.60 1.352
388.70 1.349
388.80 1.346
388.90 1.343
389.00 1.345
389.10 1.348
389.20 1.351
389.30 1.357
389.40 1.362
389.50 1.369
389.60 1.375
389.70 1.381
389.80 1.387
389.90 1.392
390.00 1.397
390.10 1.401
390.20 1.405
390.30 1.409
390.40 1.412
390.50 1.415
390.60 1.418
390.70 1.421
390.80 1.424
390.90 1.426
391.00 1.428
391.10 1.43
391.20 1.432
391.30 1.434
391.40 1.435
391.50 1.437
391.60 1.438
391.70 1.439
391.80 1.439
391.90 1.44
392.00 1.44
392.10 1.44
392.20 1.44
392.30 1.44
392.40 1.44
392.50 1.439
392.60 1.438
392.70 1.437
392.80 1.436
392.90 1.435
393.00 1.433
393.10 1.431
393.20 1.429
393.30 1.427
393.40 1.425
393.50 1.422
393.60 1.419
393.70 1.416
393.80 1.413
393.90 1.41
394.00 1.406
394.10 1.402
394.20 1.398
394.30 1.393
394.40 1.388
394.50 1.383
394.60 1.378
394.70 1.372
394.80 1.367
394.90 1.36
395.00 1.354
395.10 1.347
395.20 1.34
395.30 1.332
395.40 1.324
395.50 1.316
395.60 1.308
395.70 1.299
395.80 1.29
395.90 1.28
396.00 1.27
396.10 1.259
396.20 1.248
396.30 1.235
396.40 1.222
396.50 1.207
396.60 1.191
396.70 1.175
396.80 1.162
396.90 1.151
397.00 1.14
397.10 1.15
397.20 1.16
397.30 1.172
397.40 1.188
397.50 1.204
397.60 1.219
397.70 1.232
397.80 1.244
397.90 1.255
398.00 1.266
398.10 1.276
398.20 1.285
398.30 1.295
398.40 1.303
398.50 1.312
398.60 1.32
398.70 1.328
398.80 1.335
398.90 1.343
399.00 1.349
399.10 1.356
399.20 1.362
399.30 1.368
399.40 1.374
399.50 1.38
399.60 1.385
399.70 1.39
399.80 1.394
399.90 1.399
400.00 1.403
400.10 1.407
400.20 1.411
400.30 1.414
400.40 1.418
400.50 1.421
400.60 1.424
400.70 1.427
400.80 1.429
400.90 1.432
401.00 1.434
401.10 1.436
401.20 1.438
401.30 1.44
401.40 1.441
401.50 1.443
401.60 1.444
401.70 1.445
401.80 1.446
401.90 1.447
402.00 1.448
402.10 1.448
402.20 1.449
402.30 1.449
402.40 1.449
402.50 1.449
402.60 1.449
402.70 1.449
402.80 1.448
402.90 1.448
403.00 1.447
403.10 1.446
403.20 1.446
403.30 1.444
403.40 1.443
403.50 1.442
403.60 1.44
403.70 1.439
403.80 1.437
403.90 1.435
404.00 1.433
404.10 1.431
404.20 1.429
404.30 1.426
404.40 1.423
404.50 1.421
404.60 1.418
404.70 1.415
404.80 1.411
404.90 1.408
405.00 1.404
405.10 1.401
405.20 1.397
405.30 1.393
405.40 1.389
405.50 1.384
405.60 1.38
405.70 1.375
405.80 1.37
405.90 1.365
406.00 1.359
406.10 1.354
406.20 1.348
406.30 1.342
406.40 1.335
406.50 1.329
406.60 1.322
406.70 1.315
406.80 1.308
406.90 1.301
407.00 1.293
407.10 1.285
407.20 1.276
407.30 1.267
407.40 1.258
407.50 1.249
407.60 1.239
407.70 1.229
407.80 1.219
407.90 1.208
408.00 1.196
408.10 1.185
408.20 1.172
408.30 1.16
408.40 1.147
408.50 1.133
408.60 1.119
408.70 1.104
408.80 1.089
408.90 1.074
409.00 1.058
409.10 1.041
409.20 1.025
409.30 1.008
409.40 0.9904
409.50 0.9721
409.60 0.9532
409.70 0.9322
409.80 0.9101
409.90 0.8869
410.00 0.8702
410.10 0.8594
410.20 0.8545
410.30 0.8637
410.40 0.878
410.50 0.8975
410.60 0.9197
410.70 0.9405
410.80 0.9599
410.90 0.9776
411.00 0.9947
411.10 1.011
411.20 1.027
411.30 1.043
411.40 1.058
411.50 1.073
411.60 1.088
411.70 1.102
411.80 1.115
411.90 1.128
412.00 1.141
412.10 1.153
412.20 1.164
412.30 1.176
412.40 1.186
412.50 1.197
412.60 1.207
412.70 1.216
412.80 1.226
412.90 1.234
413.00 1.243
413.10 1.251
413.20 1.259
413.30 1.267
413.40 1.274
413.50 1.281
413.60 1.288
413.70 1.295
413.80 1.301
413.90 1.307
414.00 1.313
414.10 1.319
414.20 1.325
414.30 1.33
414.40 1.335
414.50 1.34
414.60 1.345
414.70 1.35
414.80 1.354
414.90 1.359
415.00 1.363
415.10 1.367
415.20 1.371
415.30 1.375
415.40 1.378
415.50 1.382
415.60 1.386
415.70 1.389
415.80 1.392
415.90 1.395
416.00 1.398
416.10 1.401
416.20 1.404
416.30 1.407
416.40 1.409
416.50 1.412
416.60 1.414
416.70 1.417
416.80 1.419
416.90 1.421
417.00 1.423
417.10 1.425
417.20 1.427
417.30 1.429
417.40 1.431
417.50 1.432
417.60 1.434
417.70 1.435
417.80 1.437
417.90 1.438
418.00 1.44
418.10 1.441
418.20 1.442
418.30 1.443
418.40 1.444
418.50 1.445
418.60 1.446
418.70 1.447
418.80 1.448
418.90 1.449
419.00 1.449
419.10 1.45
419.20 1.45
419.30 1.451
419.40 1.451
419.50 1.452
419.60 1.452
419.70 1.453
419.80 1.453
419.90 1.453
420.00 1.453
420.10 1.453
420.20 1.453
420.30 1.453
420.40 1.453
420.50 1.453
420.60 1.453
420.70 1.453
420.80 1.452
420.90 1.452
421.00 1.452
421.10 1.451
421.20 1.451
421.30 1.45
421.40 1.45
421.50 1.449
421.60 1.448
421.70 1.448
421.80 1.447
421.90 1.446
422.00 1.445
422.10 1.444
422.20 1.443
422.30 1.442
422.40 1.441
422.50 1.44
422.60 1.439
422.70 1.438
422.80 1.437
422.90 1.435
423.00 1.434
423.10 1.433
423.20 1.431
423.30 1.43
423.40 1.428
423.50 1.426
423.60 1.425
423.70 1.423
423.80 1.421
423.90 1.419
424.00 1.418
424.10 1.416
424.20 1.414
424.30 1.412
424.40 1.41
424.50 1.407
424.60 1.405
424.70 1.403
424.80 1.401
424.90 1.398
425.00 1.396
425.10 1.393
425.20 1.391
425.30 1.388
425.40 1.385
425.50 1.383
425.60 1.38
425.70 1.377
425.80 1.374
425.90 1.371
426.00 1.368
426.10 1.365
426.20 1.361
426.30 1.357
426.40 1.354
426.50 1.35
426.60 1.347
426.70 1.343
426.80 1.34
426.90 1.336
427.00 1.332
427.10 1.328
427.20 1.324
427.30 1.32
427.40 1.316
427.50 1.311
427.60 1.307
427.70 1.303
427.80 1.298
427.90 1.293
428.00 1.289
428.10 1.284
428.20 1.279
428.30 1.274
428.40 1.269
428.50 1.263
428.60 1.258
428.70 1.252
428.80 1.247
428.90 1.241
429.00 1.235
429.10 1.229
429.20 1.223
429.30 1.216
429.40 1.21
429.50 1.203
429.60 1.196
429.70 1.19
429.80 1.182
429.90 1.175
430.00 1.168
430.10 1.16
430.20 1.152
430.30 1.144
430.40 1.136
430.50 1.127
430.60 1.119
430.70 1.11
430.80 1.1
430.90 1.091
431.00 1.081
431.10 1.071
431.20 1.061
431.30 1.05
431.40 1.039
431.50 1.028
431.60 1.016
431.70 1.004
431.80 0.9921
431.90 0.9792
432.00 0.966
432.10 0.9524
432.20 0.9381
432.30 0.9233
432.40 0.9082
432.50 0.8922
432.60 0.8758
432.70 0.8588
432.80 0.8412
432.90 0.8234
433.00 0.8055
433.10 0.7875
433.20 0.7696
433.30 0.7519
433.40 0.7345
433.50 0.7165
433.60 0.6982
433.70 0.6752
433.80 0.6476
433.90 0.6153
434.00 0.5817
434.10 0.5824
434.20 0.6175
434.30 0.6489
434.40 0.6756
434.50 0.6976
434.60 0.7153
434.70 0.7326
434.80 0.7494
434.90 0.7664
435.00 0.7835
435.10 0.8008
435.20 0.8179
435.30 0.8349
435.40 0.8516
435.50 0.8675
435.60 0.883
435.70 0.8979
435.80 0.912
435.90 0.9257
436.00 0.939
436.10 0.9514
436.20 0.9635
436.30 0.9753
436.40 0.9864
436.50 0.9973
436.60 1.008
436.70 1.018
436.80 1.028
436.90 1.037
437.00 1.046
437.10 1.055
437.20 1.063
437.30 1.071
437.40 1.079
437.50 1.087
437.60 1.095
437.70 1.102
437.80 1.109
437.90 1.116
438.00 1.122
438.10 1.129
438.20 1.135
438.30 1.141
438.40 1.147
438.50 1.152
438.60 1.158
438.70 1.163
438.80 1.168
438.90 1.173
439.00 1.178
439.10 1.183
439.20 1.187
439.30 1.192
439.40 1.196
439.50 1.201
439.60 1.205
439.70 1.209
439.80 1.213
439.90 1.216
440.00 1.22
440.10 1.224
440.20 1.227
440.30 1.231
440.40 1.234
440.50 1.237
440.60 1.24
440.70 1.243
440.80 1.246
440.90 1.249
441.00 1.252
441.10 1.255
441.20 1.257
441.30 1.26
441.40 1.263
441.50 1.265
441.60 1.267
441.70 1.27
441.80 1.272
441.90 1.274
442.00 1.276
442.10 1.278
442.20 1.28
442.30 1.282
442.40 1.284
442.50 1.286
442.60 1.288
442.70 1.289
442.80 1.291
442.90 1.293
443.00 1.294
443.10 1.296
443.20 1.297
443.30 1.299
443.40 1.3
443.50 1.302
443.60 1.303
443.70 1.304
443.80 1.305
443.90 1.307
444.00 1.308
444.10 1.309
444.20 1.31
444.30 1.311
444.40 1.312
444.50 1.313
444.60 1.314
444.70 1.315
444.80 1.316
444.90 1.317
445.00 1.317
445.10 1.318
445.20 1.319
445.30 1.32
445.40 1.32
445.50 1.321
445.60 1.322
445.70 1.322
445.80 1.323
445.90 1.324
446.00 1.324
446.10 1.325
446.20 1.325
446.30 1.326
446.40 1.326
446.50 1.326
446.60 1.327
446.70 1.327
446.80 1.328
446.90 1.328
447.00 1.328
447.10 1.328
447.20 1.329
447.30 1.329
447.40 1.329
447.50 1.329
447.60 1.33
447.70 1.33
447.80 1.33
447.90 1.33
448.00 1.33
448.10 1.33
448.20 1.331
448.30 1.331
448.40 1.331
448.50 1.331
448.60 1.331
448.70 1.331
448.80 1.331
448.90 1.331
449.00 1.331
449.10 1.331
449.20 1.331
449.30 1.331
449.40 1.331
449.50 1.331
449.60 1.331
449.70 1.331
449.80 1.33
449.90 1.33
450.00 1.33
450.10 1.33
450.20 1.33
450.30 1.33
450.40 1.329
450.50 1.329
450.60 1.329
450.70 1.329
450.80 1.329
450.90 1.328
451.00 1.328
451.10 1.328
451.20 1.328
451.30 1.327
451.40 1.327
451.50 1.327
451.60 1.326
451.70 1.326
451.80 1.326
451.90 1.326
452.00 1.325
452.10 1.325
452.20 1.324
452.30 1.324
452.40 1.324
452.50 1.323
452.60 1.323
452.70 1.323
452.80 1.322
452.90 1.322
453.00 1.321
453.10 1.321
453.20 1.321
453.30 1.32
453.40 1.32
453.50 1.319
453.60 1.319
