# Version 2.1 - nm, norm@500 to 1, cut digits, bergeron_75000_85.dat_75000
# Wavelength(nm)  Flambda(ergs/cm^s/s/nm)
300.00 6.624
300.10 6.616
300.20 6.607
300.30 6.599
300.40 6.591
300.50 6.583
300.60 6.575
300.70 6.567
300.80 6.558
300.90 6.55
301.00 6.542
301.10 6.534
301.20 6.526
301.30 6.518
301.40 6.51
301.50 6.502
301.60 6.494
301.70 6.486
301.80 6.478
301.90 6.47
302.00 6.462
302.10 6.454
302.20 6.446
302.30 6.438
302.40 6.43
302.50 6.422
302.60 6.415
302.70 6.407
302.80 6.399
302.90 6.391
303.00 6.383
303.10 6.375
303.20 6.367
303.30 6.36
303.40 6.352
303.50 6.344
303.60 6.336
303.70 6.329
303.80 6.321
303.90 6.313
304.00 6.305
304.10 6.298
304.20 6.29
304.30 6.282
304.40 6.275
304.50 6.267
304.60 6.259
304.70 6.252
304.80 6.244
304.90 6.236
305.00 6.229
305.10 6.221
305.20 6.214
305.30 6.206
305.40 6.198
305.50 6.191
305.60 6.183
305.70 6.176
305.80 6.168
305.90 6.161
306.00 6.153
306.10 6.146
306.20 6.138
306.30 6.131
306.40 6.123
306.50 6.116
306.60 6.109
306.70 6.101
306.80 6.094
306.90 6.086
307.00 6.079
307.10 6.072
307.20 6.064
307.30 6.057
307.40 6.05
307.50 6.042
307.60 6.035
307.70 6.028
307.80 6.02
307.90 6.013
308.00 6.006
308.10 5.999
308.20 5.991
308.30 5.984
308.40 5.977
308.50 5.97
308.60 5.963
308.70 5.955
308.80 5.948
308.90 5.941
309.00 5.934
309.10 5.927
309.20 5.92
309.30 5.912
309.40 5.905
309.50 5.898
309.60 5.891
309.70 5.884
309.80 5.877
309.90 5.87
310.00 5.863
310.10 5.856
310.20 5.849
310.30 5.842
310.40 5.835
310.50 5.828
310.60 5.821
310.70 5.814
310.80 5.807
310.90 5.8
311.00 5.793
311.10 5.786
311.20 5.779
311.30 5.772
311.40 5.765
311.50 5.758
311.60 5.751
311.70 5.745
311.80 5.738
311.90 5.731
312.00 5.724
312.10 5.717
312.20 5.71
312.30 5.704
312.40 5.697
312.50 5.69
312.60 5.683
312.70 5.676
312.80 5.67
312.90 5.663
313.00 5.656
313.10 5.649
313.20 5.643
313.30 5.636
313.40 5.629
313.50 5.623
313.60 5.616
313.70 5.609
313.80 5.603
313.90 5.596
314.00 5.589
314.10 5.583
314.20 5.576
314.30 5.569
314.40 5.563
314.50 5.556
314.60 5.55
314.70 5.543
314.80 5.537
314.90 5.53
315.00 5.523
315.10 5.517
315.20 5.51
315.30 5.504
315.40 5.497
315.50 5.491
315.60 5.484
315.70 5.478
315.80 5.472
315.90 5.465
316.00 5.459
316.10 5.452
316.20 5.446
316.30 5.439
316.40 5.433
316.50 5.426
316.60 5.42
316.70 5.414
316.80 5.407
316.90 5.401
317.00 5.395
317.10 5.388
317.20 5.382
317.30 5.376
317.40 5.369
317.50 5.363
317.60 5.357
317.70 5.35
317.80 5.344
317.90 5.338
318.00 5.332
318.10 5.325
318.20 5.319
318.30 5.313
318.40 5.307
318.50 5.301
318.60 5.294
318.70 5.288
318.80 5.282
318.90 5.276
319.00 5.27
319.10 5.263
319.20 5.257
319.30 5.251
319.40 5.245
319.50 5.239
319.60 5.233
319.70 5.227
319.80 5.221
319.90 5.214
320.00 5.208
320.10 5.202
320.20 5.196
320.30 5.19
320.40 5.184
320.50 5.178
320.60 5.172
320.70 5.166
320.80 5.16
320.90 5.154
321.00 5.148
321.10 5.142
321.20 5.136
321.30 5.13
321.40 5.124
321.50 5.118
321.60 5.112
321.70 5.106
321.80 5.101
321.90 5.095
322.00 5.089
322.10 5.083
322.20 5.077
322.30 5.071
322.40 5.065
322.50 5.059
322.60 5.053
322.70 5.048
322.80 5.042
322.90 5.036
323.00 5.03
323.10 5.024
323.20 5.019
323.30 5.013
323.40 5.007
323.50 5.001
323.60 4.995
323.70 4.99
323.80 4.984
323.90 4.978
324.00 4.972
324.10 4.967
324.20 4.961
324.30 4.955
324.40 4.95
324.50 4.944
324.60 4.938
324.70 4.933
324.80 4.927
324.90 4.921
325.00 4.916
325.10 4.91
325.20 4.904
325.30 4.899
325.40 4.893
325.50 4.887
325.60 4.882
325.70 4.876
325.80 4.871
325.90 4.865
326.00 4.859
326.10 4.854
326.20 4.848
326.30 4.843
326.40 4.837
326.50 4.832
326.60 4.826
326.70 4.821
326.80 4.815
326.90 4.81
327.00 4.804
327.10 4.799
327.20 4.793
327.30 4.788
327.40 4.782
327.50 4.777
327.60 4.771
327.70 4.766
327.80 4.761
327.90 4.755
328.00 4.75
328.10 4.744
328.20 4.739
328.30 4.734
328.40 4.728
328.50 4.723
328.60 4.717
328.70 4.712
328.80 4.707
328.90 4.701
329.00 4.696
329.10 4.691
329.20 4.685
329.30 4.68
329.40 4.675
329.50 4.669
329.60 4.664
329.70 4.659
329.80 4.654
329.90 4.648
330.00 4.643
330.10 4.638
330.20 4.633
330.30 4.627
330.40 4.622
330.50 4.617
330.60 4.612
330.70 4.607
330.80 4.601
330.90 4.596
331.00 4.591
331.10 4.586
331.20 4.581
331.30 4.575
331.40 4.57
331.50 4.565
331.60 4.56
331.70 4.555
331.80 4.55
331.90 4.545
332.00 4.539
332.10 4.534
332.20 4.529
332.30 4.524
332.40 4.519
332.50 4.514
332.60 4.509
332.70 4.504
332.80 4.499
332.90 4.494
333.00 4.489
333.10 4.484
333.20 4.479
333.30 4.474
333.40 4.469
333.50 4.464
333.60 4.459
333.70 4.454
333.80 4.449
333.90 4.444
334.00 4.439
334.10 4.434
334.20 4.429
334.30 4.424
334.40 4.419
334.50 4.414
334.60 4.409
334.70 4.404
334.80 4.399
334.90 4.394
335.00 4.389
335.10 4.384
335.20 4.38
335.30 4.375
335.40 4.37
335.50 4.365
335.60 4.36
335.70 4.355
335.80 4.35
335.90 4.345
336.00 4.341
336.10 4.336
336.20 4.331
336.30 4.326
336.40 4.321
336.50 4.317
336.60 4.312
336.70 4.307
336.80 4.302
336.90 4.297
337.00 4.293
337.10 4.288
337.20 4.283
337.30 4.278
337.40 4.274
337.50 4.269
337.60 4.264
337.70 4.259
337.80 4.255
337.90 4.25
338.00 4.245
338.10 4.241
338.20 4.236
338.30 4.231
338.40 4.227
338.50 4.222
338.60 4.217
338.70 4.213
338.80 4.208
338.90 4.203
339.00 4.199
339.10 4.194
339.20 4.189
339.30 4.185
339.40 4.18
339.50 4.176
339.60 4.171
339.70 4.166
339.80 4.162
339.90 4.157
340.00 4.153
340.10 4.148
340.20 4.144
340.30 4.139
340.40 4.134
340.50 4.13
340.60 4.125
340.70 4.121
340.80 4.116
340.90 4.112
341.00 4.107
341.10 4.103
341.20 4.098
341.30 4.094
341.40 4.089
341.50 4.085
341.60 4.08
341.70 4.076
341.80 4.071
341.90 4.067
342.00 4.062
342.10 4.058
342.20 4.054
342.30 4.049
342.40 4.045
342.50 4.04
342.60 4.036
342.70 4.032
342.80 4.027
342.90 4.023
343.00 4.018
343.10 4.014
343.20 4.01
343.30 4.005
343.40 4.001
343.50 3.996
343.60 3.992
343.70 3.988
343.80 3.983
343.90 3.979
344.00 3.975
344.10 3.97
344.20 3.966
344.30 3.962
344.40 3.957
344.50 3.953
344.60 3.949
344.70 3.945
344.80 3.94
344.90 3.936
345.00 3.932
345.10 3.928
345.20 3.923
345.30 3.919
345.40 3.915
345.50 3.911
345.60 3.906
345.70 3.902
345.80 3.898
345.90 3.894
346.00 3.889
346.10 3.885
346.20 3.881
346.30 3.877
346.40 3.873
346.50 3.868
346.60 3.864
346.70 3.86
346.80 3.856
346.90 3.852
347.00 3.848
347.10 3.843
347.20 3.839
347.30 3.835
347.40 3.831
347.50 3.827
347.60 3.823
347.70 3.819
347.80 3.814
347.90 3.81
348.00 3.806
348.10 3.802
348.20 3.798
348.30 3.794
348.40 3.79
348.50 3.786
348.60 3.782
348.70 3.778
348.80 3.774
348.90 3.77
349.00 3.766
349.10 3.762
349.20 3.758
349.30 3.754
349.40 3.749
349.50 3.745
349.60 3.741
349.70 3.737
349.80 3.733
349.90 3.729
350.00 3.725
350.10 3.721
350.20 3.717
350.30 3.713
350.40 3.71
350.50 3.706
350.60 3.702
350.70 3.698
350.80 3.694
350.90 3.69
351.00 3.686
351.10 3.682
351.20 3.678
351.30 3.674
351.40 3.67
351.50 3.666
351.60 3.662
351.70 3.658
351.80 3.654
351.90 3.651
352.00 3.647
352.10 3.643
352.20 3.639
352.30 3.635
352.40 3.631
352.50 3.627
352.60 3.624
352.70 3.62
352.80 3.616
352.90 3.612
353.00 3.608
353.10 3.604
353.20 3.601
353.30 3.597
353.40 3.593
353.50 3.589
353.60 3.585
353.70 3.581
353.80 3.578
353.90 3.574
354.00 3.57
354.10 3.566
354.20 3.563
354.30 3.559
354.40 3.555
354.50 3.551
354.60 3.547
354.70 3.544
354.80 3.54
354.90 3.536
355.00 3.533
355.10 3.529
355.20 3.525
355.30 3.521
355.40 3.518
355.50 3.514
355.60 3.51
355.70 3.506
355.80 3.503
355.90 3.499
356.00 3.495
356.10 3.492
356.20 3.488
356.30 3.484
356.40 3.481
356.50 3.477
356.60 3.473
356.70 3.47
356.80 3.466
356.90 3.462
357.00 3.459
357.10 3.455
357.20 3.452
357.30 3.448
357.40 3.444
357.50 3.441
357.60 3.437
357.70 3.433
357.80 3.43
357.90 3.426
358.00 3.423
358.10 3.419
358.20 3.416
358.30 3.412
358.40 3.408
358.50 3.405
358.60 3.401
358.70 3.398
358.80 3.394
358.90 3.391
359.00 3.387
359.10 3.384
359.20 3.38
359.30 3.377
359.40 3.373
359.50 3.369
359.60 3.366
359.70 3.362
359.80 3.359
359.90 3.355
360.00 3.352
360.10 3.348
360.20 3.345
360.30 3.341
360.40 3.338
360.50 3.335
360.60 3.331
360.70 3.328
360.80 3.324
360.90 3.321
361.00 3.317
361.10 3.314
361.20 3.31
361.30 3.307
361.40 3.303
361.50 3.3
361.60 3.297
361.70 3.293
361.80 3.29
361.90 3.286
362.00 3.283
362.10 3.28
362.20 3.276
362.30 3.273
362.40 3.269
362.50 3.266
362.60 3.263
362.70 3.259
362.80 3.256
362.90 3.252
363.00 3.249
363.10 3.246
363.20 3.242
363.30 3.239
363.40 3.236
363.50 3.232
363.60 3.229
363.70 3.226
363.80 3.222
363.90 3.219
364.00 3.216
364.10 3.212
364.20 3.209
364.30 3.206
364.40 3.202
364.50 3.199
364.60 3.196
364.70 3.193
364.80 3.189
364.90 3.186
365.00 3.183
365.10 3.18
365.20 3.176
365.30 3.173
365.40 3.17
365.50 3.166
365.60 3.163
365.70 3.16
365.80 3.157
365.90 3.153
366.00 3.15
366.10 3.147
366.20 3.144
366.30 3.14
366.40 3.137
366.50 3.134
366.60 3.131
366.70 3.127
366.80 3.124
366.90 3.121
367.00 3.118
367.10 3.115
367.20 3.111
367.30 3.108
367.40 3.105
367.50 3.102
367.60 3.098
367.70 3.095
367.80 3.092
367.90 3.089
368.00 3.086
368.10 3.082
368.20 3.079
368.30 3.076
368.40 3.073
368.50 3.069
368.60 3.066
368.70 3.063
368.80 3.06
368.90 3.057
369.00 3.053
369.10 3.05
369.20 3.047
369.30 3.044
369.40 3.041
369.50 3.037
369.60 3.034
369.70 3.031
369.80 3.028
369.90 3.025
370.00 3.022
370.10 3.018
370.20 3.015
370.30 3.012
370.40 3.009
370.50 3.006
370.60 3.003
370.70 3
370.80 2.997
370.90 2.993
371.00 2.99
371.10 2.987
371.20 2.984
371.30 2.981
371.40 2.978
371.50 2.975
371.60 2.972
371.70 2.969
371.80 2.966
371.90 2.963
372.00 2.96
372.10 2.957
372.20 2.954
372.30 2.951
372.40 2.948
372.50 2.945
372.60 2.942
372.70 2.939
372.80 2.936
372.90 2.933
373.00 2.93
373.10 2.927
373.20 2.924
373.30 2.921
373.40 2.918
373.50 2.915
373.60 2.912
373.70 2.909
373.80 2.906
373.90 2.903
374.00 2.9
374.10 2.897
374.20 2.894
374.30 2.891
374.40 2.888
374.50 2.885
374.60 2.882
374.70 2.879
374.80 2.876
374.90 2.874
375.00 2.871
375.10 2.868
375.20 2.865
375.30 2.862
375.40 2.859
375.50 2.856
375.60 2.853
375.70 2.85
375.80 2.847
375.90 2.844
376.00 2.841
376.10 2.838
376.20 2.835
376.30 2.833
376.40 2.83
376.50 2.827
376.60 2.824
376.70 2.821
376.80 2.818
376.90 2.815
377.00 2.813
377.10 2.81
377.20 2.807
377.30 2.804
377.40 2.801
377.50 2.798
377.60 2.796
377.70 2.793
377.80 2.79
377.90 2.787
378.00 2.784
378.10 2.782
378.20 2.779
378.30 2.776
378.40 2.773
378.50 2.771
378.60 2.768
378.70 2.765
378.80 2.762
378.90 2.76
379.00 2.757
379.10 2.754
379.20 2.751
379.30 2.749
379.40 2.746
379.50 2.743
379.60 2.741
379.70 2.738
379.80 2.735
379.90 2.733
380.00 2.73
380.10 2.727
380.20 2.725
380.30 2.722
380.40 2.719
380.50 2.717
380.60 2.714
380.70 2.711
380.80 2.709
380.90 2.706
381.00 2.703
381.10 2.701
381.20 2.698
381.30 2.696
381.40 2.693
381.50 2.69
381.60 2.688
381.70 2.685
381.80 2.683
381.90 2.68
382.00 2.677
382.10 2.675
382.20 2.672
382.30 2.67
382.40 2.667
382.50 2.664
382.60 2.662
382.70 2.659
382.80 2.657
382.90 2.654
383.00 2.652
383.10 2.649
383.20 2.647
383.30 2.644
383.40 2.642
383.50 2.639
383.60 2.637
383.70 2.634
383.80 2.632
383.90 2.629
384.00 2.627
384.10 2.624
384.20 2.622
384.30 2.62
384.40 2.617
384.50 2.615
384.60 2.613
384.70 2.61
384.80 2.608
384.90 2.605
385.00 2.603
385.10 2.601
385.20 2.598
385.30 2.596
385.40 2.593
385.50 2.591
385.60 2.588
385.70 2.586
385.80 2.584
385.90 2.581
386.00 2.579
386.10 2.576
386.20 2.574
386.30 2.571
386.40 2.569
386.50 2.566
386.60 2.564
386.70 2.561
386.80 2.559
386.90 2.556
387.00 2.554
387.10 2.551
387.20 2.549
387.30 2.546
387.40 2.544
387.50 2.541
387.60 2.539
387.70 2.536
387.80 2.534
387.90 2.531
388.00 2.529
388.10 2.526
388.20 2.524
388.30 2.521
388.40 2.519
388.50 2.516
388.60 2.514
388.70 2.512
388.80 2.509
388.90 2.507
389.00 2.505
389.10 2.503
389.20 2.501
389.30 2.499
389.40 2.496
389.50 2.494
389.60 2.492
389.70 2.491
389.80 2.489
389.90 2.487
390.00 2.485
390.10 2.483
390.20 2.481
390.30 2.479
390.40 2.477
390.50 2.475
390.60 2.473
390.70 2.471
390.80 2.469
390.90 2.467
391.00 2.465
391.10 2.463
391.20 2.461
391.30 2.459
391.40 2.457
391.50 2.455
391.60 2.452
391.70 2.45
391.80 2.448
391.90 2.446
392.00 2.444
392.10 2.441
392.20 2.439
392.30 2.437
392.40 2.434
392.50 2.432
392.60 2.43
392.70 2.427
392.80 2.425
392.90 2.422
393.00 2.42
393.10 2.417
393.20 2.415
393.30 2.412
393.40 2.409
393.50 2.407
393.60 2.404
393.70 2.401
393.80 2.399
393.90 2.396
394.00 2.393
394.10 2.39
394.20 2.387
394.30 2.384
394.40 2.382
394.50 2.379
394.60 2.376
394.70 2.373
394.80 2.37
394.90 2.367
395.00 2.364
395.10 2.36
395.20 2.357
395.30 2.354
395.40 2.351
395.50 2.348
395.60 2.345
395.70 2.341
395.80 2.338
395.90 2.335
396.00 2.332
396.10 2.329
396.20 2.326
396.30 2.322
396.40 2.319
396.50 2.316
396.60 2.313
396.70 2.31
396.80 2.307
396.90 2.305
397.00 2.302
397.10 2.301
397.20 2.299
397.30 2.298
397.40 2.297
397.50 2.296
397.60 2.296
397.70 2.295
397.80 2.294
397.90 2.293
398.00 2.292
398.10 2.292
398.20 2.291
398.30 2.29
398.40 2.289
398.50 2.289
398.60 2.288
398.70 2.287
398.80 2.286
398.90 2.285
399.00 2.284
399.10 2.284
399.20 2.283
399.30 2.282
399.40 2.281
399.50 2.28
399.60 2.279
399.70 2.278
399.80 2.277
399.90 2.275
400.00 2.274
400.10 2.273
400.20 2.272
400.30 2.271
400.40 2.269
400.50 2.268
400.60 2.267
400.70 2.265
400.80 2.264
400.90 2.263
401.00 2.261
401.10 2.26
401.20 2.258
401.30 2.256
401.40 2.255
401.50 2.253
401.60 2.252
401.70 2.25
401.80 2.248
401.90 2.246
402.00 2.245
402.10 2.243
402.20 2.241
402.30 2.239
402.40 2.237
402.50 2.235
402.60 2.233
402.70 2.231
402.80 2.229
402.90 2.227
403.00 2.225
403.10 2.223
403.20 2.221
403.30 2.219
403.40 2.217
403.50 2.214
403.60 2.212
403.70 2.21
403.80 2.207
403.90 2.205
404.00 2.202
404.10 2.2
404.20 2.197
404.30 2.195
404.40 2.192
404.50 2.19
404.60 2.187
404.70 2.184
404.80 2.182
404.90 2.179
405.00 2.176
405.10 2.173
405.20 2.17
405.30 2.167
405.40 2.164
405.50 2.161
405.60 2.158
405.70 2.155
405.80 2.152
405.90 2.149
406.00 2.145
406.10 2.142
406.20 2.139
406.30 2.135
406.40 2.132
406.50 2.128
406.60 2.125
406.70 2.121
406.80 2.117
406.90 2.114
407.00 2.11
407.10 2.106
407.20 2.102
407.30 2.098
407.40 2.094
407.50 2.09
407.60 2.086
407.70 2.081
407.80 2.077
407.90 2.073
408.00 2.068
408.10 2.064
408.20 2.059
408.30 2.055
408.40 2.05
408.50 2.046
408.60 2.041
408.70 2.036
408.80 2.032
408.90 2.027
409.00 2.022
409.10 2.018
409.20 2.013
409.30 2.008
409.40 2.004
409.50 2
409.60 1.996
409.70 1.992
409.80 1.99
409.90 1.987
410.00 1.986
410.10 1.986
410.20 1.985
410.30 1.982
410.40 1.979
410.50 1.977
410.60 1.976
410.70 1.976
410.80 1.976
410.90 1.977
411.00 1.978
411.10 1.979
411.20 1.98
411.30 1.981
411.40 1.982
411.50 1.983
411.60 1.984
411.70 1.986
411.80 1.987
411.90 1.988
412.00 1.989
412.10 1.99
412.20 1.991
412.30 1.992
412.40 1.992
412.50 1.993
412.60 1.994
412.70 1.995
412.80 1.995
412.90 1.996
413.00 1.996
413.10 1.996
413.20 1.997
413.30 1.997
413.40 1.997
413.50 1.997
413.60 1.998
413.70 1.998
413.80 1.998
413.90 1.998
414.00 1.997
414.10 1.997
414.20 1.997
414.30 1.997
414.40 1.997
414.50 1.996
414.60 1.996
414.70 1.995
414.80 1.995
414.90 1.994
415.00 1.994
415.10 1.993
415.20 1.993
415.30 1.992
415.40 1.991
415.50 1.99
415.60 1.99
415.70 1.989
415.80 1.988
415.90 1.987
416.00 1.986
416.10 1.985
416.20 1.984
416.30 1.983
416.40 1.982
416.50 1.981
416.60 1.98
416.70 1.979
416.80 1.978
416.90 1.977
417.00 1.976
417.10 1.975
417.20 1.973
417.30 1.972
417.40 1.971
417.50 1.97
417.60 1.969
417.70 1.967
417.80 1.966
417.90 1.965
418.00 1.963
418.10 1.962
418.20 1.961
418.30 1.959
418.40 1.958
418.50 1.956
418.60 1.955
418.70 1.954
418.80 1.952
418.90 1.951
419.00 1.949
419.10 1.948
419.20 1.946
419.30 1.945
419.40 1.943
419.50 1.942
419.60 1.94
419.70 1.939
419.80 1.937
419.90 1.936
420.00 1.934
420.10 1.933
420.20 1.931
420.30 1.929
420.40 1.928
420.50 1.926
420.60 1.925
420.70 1.923
420.80 1.921
420.90 1.92
421.00 1.918
421.10 1.916
421.20 1.915
421.30 1.913
421.40 1.911
421.50 1.91
421.60 1.908
421.70 1.906
421.80 1.905
421.90 1.903
422.00 1.901
422.10 1.899
422.20 1.898
422.30 1.896
422.40 1.894
422.50 1.892
422.60 1.891
422.70 1.889
422.80 1.887
422.90 1.885
423.00 1.884
423.10 1.882
423.20 1.88
423.30 1.878
423.40 1.876
423.50 1.875
423.60 1.873
423.70 1.871
423.80 1.869
423.90 1.867
424.00 1.865
424.10 1.863
424.20 1.861
424.30 1.86
424.40 1.858
424.50 1.856
424.60 1.854
424.70 1.852
424.80 1.85
424.90 1.848
425.00 1.846
425.10 1.844
425.20 1.842
425.30 1.84
425.40 1.838
425.50 1.836
425.60 1.834
425.70 1.832
425.80 1.83
425.90 1.828
426.00 1.826
426.10 1.823
426.20 1.821
426.30 1.819
426.40 1.817
426.50 1.815
426.60 1.812
426.70 1.81
426.80 1.808
426.90 1.806
427.00 1.803
427.10 1.801
427.20 1.799
427.30 1.796
427.40 1.794
427.50 1.791
427.60 1.789
427.70 1.786
427.80 1.784
427.90 1.781
428.00 1.779
428.10 1.776
428.20 1.774
428.30 1.771
428.40 1.768
428.50 1.765
428.60 1.763
428.70 1.76
428.80 1.757
428.90 1.754
429.00 1.751
429.10 1.748
429.20 1.745
429.30 1.742
429.40 1.739
429.50 1.735
429.60 1.732
429.70 1.729
429.80 1.725
429.90 1.722
430.00 1.718
430.10 1.715
430.20 1.711
430.30 1.707
430.40 1.704
430.50 1.7
430.60 1.696
430.70 1.692
430.80 1.688
430.90 1.683
431.00 1.679
431.10 1.675
431.20 1.671
431.30 1.666
431.40 1.661
431.50 1.657
431.60 1.652
431.70 1.647
431.80 1.642
431.90 1.637
432.00 1.632
432.10 1.627
432.20 1.622
432.30 1.617
432.40 1.611
432.50 1.606
432.60 1.6
432.70 1.595
432.80 1.589
432.90 1.584
433.00 1.578
433.10 1.573
433.20 1.567
433.30 1.562
433.40 1.557
433.50 1.551
433.60 1.546
433.70 1.541
433.80 1.535
433.90 1.528
434.00 1.523
434.10 1.522
434.20 1.525
434.30 1.529
434.40 1.532
434.50 1.535
434.60 1.538
434.70 1.54
434.80 1.543
434.90 1.546
435.00 1.549
435.10 1.551
435.20 1.554
435.30 1.557
435.40 1.56
435.50 1.563
435.60 1.565
435.70 1.568
435.80 1.57
435.90 1.573
436.00 1.575
436.10 1.578
436.20 1.58
436.30 1.582
436.40 1.584
436.50 1.586
436.60 1.588
436.70 1.59
436.80 1.591
436.90 1.593
437.00 1.594
437.10 1.596
437.20 1.597
437.30 1.598
437.40 1.599
437.50 1.6
437.60 1.601
437.70 1.602
437.80 1.603
437.90 1.604
438.00 1.604
438.10 1.605
438.20 1.606
438.30 1.606
438.40 1.606
438.50 1.607
438.60 1.607
438.70 1.607
438.80 1.607
438.90 1.607
439.00 1.608
439.10 1.608
439.20 1.607
439.30 1.607
439.40 1.607
439.50 1.607
439.60 1.607
439.70 1.607
439.80 1.606
439.90 1.606
440.00 1.605
440.10 1.605
440.20 1.605
440.30 1.604
440.40 1.604
440.50 1.603
440.60 1.602
440.70 1.602
440.80 1.601
440.90 1.601
441.00 1.6
441.10 1.599
441.20 1.598
441.30 1.598
441.40 1.597
441.50 1.596
441.60 1.595
441.70 1.594
441.80 1.594
441.90 1.593
442.00 1.592
442.10 1.591
442.20 1.59
442.30 1.589
442.40 1.588
442.50 1.587
442.60 1.586
442.70 1.585
442.80 1.584
442.90 1.583
443.00 1.582
443.10 1.581
443.20 1.58
443.30 1.579
443.40 1.578
443.50 1.577
443.60 1.576
443.70 1.575
443.80 1.574
443.90 1.573
444.00 1.572
444.10 1.571
444.20 1.57
444.30 1.568
444.40 1.567
444.50 1.566
444.60 1.565
444.70 1.564
444.80 1.563
444.90 1.562
445.00 1.56
445.10 1.559
445.20 1.558
445.30 1.557
445.40 1.556
445.50 1.555
445.60 1.553
445.70 1.552
445.80 1.551
445.90 1.55
446.00 1.549
446.10 1.548
446.20 1.546
446.30 1.545
446.40 1.544
446.50 1.543
446.60 1.542
446.70 1.54
446.80 1.539
446.90 1.538
447.00 1.537
447.10 1.536
447.20 1.534
447.30 1.533
447.40 1.532
447.50 1.531
447.60 1.529
447.70 1.528
447.80 1.527
447.90 1.526
448.00 1.525
448.10 1.523
448.20 1.522
448.30 1.521
448.40 1.52
448.50 1.518
448.60 1.517
448.70 1.516
448.80 1.515
448.90 1.514
449.00 1.512
449.10 1.511
449.20 1.51
449.30 1.509
449.40 1.507
449.50 1.506
449.60 1.505
449.70 1.504
449.80 1.503
449.90 1.501
450.00 1.5
450.10 1.499
450.20 1.498
450.30 1.496
450.40 1.495
450.50 1.494
450.60 1.493
450.70 1.491
450.80 1.49
450.90 1.489
451.00 1.488
451.10 1.487
451.20 1.485
451.30 1.484
451.40 1.483
451.50 1.482
451.60 1.48
451.70 1.479
451.80 1.478
451.90 1.477
452.00 1.476
452.10 1.474
452.20 1.473
452.30 1.472
452.40 1.471
452.50 1.469
452.60 1.468
452.70 1.467
452.80 1.466
452.90 1.465
453.00 1.463
453.10 1.462
453.20 1.461
453.30 1.46
453.40 1.458
453.50 1.457
453.60 1.456
453.70 1.455
453.80 1.454
453.90 1.452
454.00 1.451
