# Version 2.1 - nm, norm@500 to 1, cut digits, bergeron_12500_95.dat_12500
# Wavelength(nm)  Flambda(ergs/cm^s/s/nm)
300.00 2.411
300.10 2.409
300.20 2.408
300.30 2.406
300.40 2.405
300.50 2.403
300.60 2.402
300.70 2.401
300.80 2.399
300.90 2.398
301.00 2.396
301.10 2.395
301.20 2.393
301.30 2.392
301.40 2.39
301.50 2.389
301.60 2.387
301.70 2.386
301.80 2.385
301.90 2.383
302.00 2.382
302.10 2.38
302.20 2.379
302.30 2.377
302.40 2.376
302.50 2.375
302.60 2.373
302.70 2.372
302.80 2.37
302.90 2.369
303.00 2.367
303.10 2.366
303.20 2.364
303.30 2.363
303.40 2.362
303.50 2.36
303.60 2.359
303.70 2.357
303.80 2.356
303.90 2.354
304.00 2.353
304.10 2.352
304.20 2.35
304.30 2.349
304.40 2.347
304.50 2.346
304.60 2.344
304.70 2.343
304.80 2.342
304.90 2.34
305.00 2.339
305.10 2.337
305.20 2.336
305.30 2.334
305.40 2.333
305.50 2.332
305.60 2.33
305.70 2.329
305.80 2.327
305.90 2.326
306.00 2.325
306.10 2.323
306.20 2.322
306.30 2.32
306.40 2.319
306.50 2.318
306.60 2.316
306.70 2.315
306.80 2.313
306.90 2.312
307.00 2.311
307.10 2.309
307.20 2.308
307.30 2.306
307.40 2.305
307.50 2.304
307.60 2.302
307.70 2.301
307.80 2.299
307.90 2.298
308.00 2.297
308.10 2.295
308.20 2.294
308.30 2.292
308.40 2.291
308.50 2.29
308.60 2.288
308.70 2.287
308.80 2.285
308.90 2.284
309.00 2.283
309.10 2.281
309.20 2.28
309.30 2.278
309.40 2.277
309.50 2.276
309.60 2.274
309.70 2.273
309.80 2.272
309.90 2.27
310.00 2.269
310.10 2.267
310.20 2.266
310.30 2.265
310.40 2.263
310.50 2.262
310.60 2.261
310.70 2.259
310.80 2.258
310.90 2.256
311.00 2.255
311.10 2.254
311.20 2.252
311.30 2.251
311.40 2.25
311.50 2.248
311.60 2.247
311.70 2.245
311.80 2.244
311.90 2.243
312.00 2.241
312.10 2.24
312.20 2.239
312.30 2.237
312.40 2.236
312.50 2.235
312.60 2.233
312.70 2.232
312.80 2.23
312.90 2.229
313.00 2.228
313.10 2.226
313.20 2.225
313.30 2.224
313.40 2.222
313.50 2.221
313.60 2.22
313.70 2.218
313.80 2.217
313.90 2.216
314.00 2.214
314.10 2.213
314.20 2.212
314.30 2.21
314.40 2.209
314.50 2.207
314.60 2.206
314.70 2.205
314.80 2.203
314.90 2.202
315.00 2.201
315.10 2.199
315.20 2.198
315.30 2.197
315.40 2.195
315.50 2.194
315.60 2.193
315.70 2.191
315.80 2.19
315.90 2.189
316.00 2.187
316.10 2.186
316.20 2.185
316.30 2.183
316.40 2.182
316.50 2.181
316.60 2.179
316.70 2.178
316.80 2.177
316.90 2.175
317.00 2.174
317.10 2.173
317.20 2.171
317.30 2.17
317.40 2.169
317.50 2.167
317.60 2.166
317.70 2.165
317.80 2.164
317.90 2.162
318.00 2.161
318.10 2.16
318.20 2.158
318.30 2.157
318.40 2.156
318.50 2.154
318.60 2.153
318.70 2.152
318.80 2.15
318.90 2.149
319.00 2.148
319.10 2.146
319.20 2.145
319.30 2.144
319.40 2.143
319.50 2.141
319.60 2.14
319.70 2.139
319.80 2.137
319.90 2.136
320.00 2.135
320.10 2.133
320.20 2.132
320.30 2.131
320.40 2.129
320.50 2.128
320.60 2.127
320.70 2.126
320.80 2.124
320.90 2.123
321.00 2.122
321.10 2.12
321.20 2.119
321.30 2.118
321.40 2.117
321.50 2.115
321.60 2.114
321.70 2.113
321.80 2.111
321.90 2.11
322.00 2.109
322.10 2.108
322.20 2.106
322.30 2.105
322.40 2.104
322.50 2.102
322.60 2.101
322.70 2.1
322.80 2.099
322.90 2.097
323.00 2.096
323.10 2.095
323.20 2.093
323.30 2.092
323.40 2.091
323.50 2.09
323.60 2.088
323.70 2.087
323.80 2.086
323.90 2.085
324.00 2.083
324.10 2.082
324.20 2.081
324.30 2.079
324.40 2.078
324.50 2.077
324.60 2.076
324.70 2.074
324.80 2.073
324.90 2.072
325.00 2.071
325.10 2.069
325.20 2.068
325.30 2.067
325.40 2.066
325.50 2.064
325.60 2.063
325.70 2.062
325.80 2.061
325.90 2.059
326.00 2.058
326.10 2.057
326.20 2.055
326.30 2.054
326.40 2.053
326.50 2.052
326.60 2.05
326.70 2.049
326.80 2.048
326.90 2.047
327.00 2.045
327.10 2.044
327.20 2.043
327.30 2.042
327.40 2.04
327.50 2.039
327.60 2.038
327.70 2.037
327.80 2.036
327.90 2.034
328.00 2.033
328.10 2.032
328.20 2.031
328.30 2.029
328.40 2.028
328.50 2.027
328.60 2.026
328.70 2.024
328.80 2.023
328.90 2.022
329.00 2.021
329.10 2.019
329.20 2.018
329.30 2.017
329.40 2.016
329.50 2.015
329.60 2.013
329.70 2.012
329.80 2.011
329.90 2.01
330.00 2.008
330.10 2.007
330.20 2.006
330.30 2.005
330.40 2.003
330.50 2.002
330.60 2.001
330.70 2
330.80 1.999
330.90 1.997
331.00 1.996
331.10 1.995
331.20 1.994
331.30 1.993
331.40 1.991
331.50 1.99
331.60 1.989
331.70 1.988
331.80 1.986
331.90 1.985
332.00 1.984
332.10 1.983
332.20 1.982
332.30 1.98
332.40 1.979
332.50 1.978
332.60 1.977
332.70 1.976
332.80 1.974
332.90 1.973
333.00 1.972
333.10 1.971
333.20 1.97
333.30 1.968
333.40 1.967
333.50 1.966
333.60 1.965
333.70 1.964
333.80 1.962
333.90 1.961
334.00 1.96
334.10 1.959
334.20 1.958
334.30 1.956
334.40 1.955
334.50 1.954
334.60 1.953
334.70 1.952
334.80 1.95
334.90 1.949
335.00 1.948
335.10 1.947
335.20 1.946
335.30 1.945
335.40 1.943
335.50 1.942
335.60 1.941
335.70 1.94
335.80 1.939
335.90 1.937
336.00 1.936
336.10 1.935
336.20 1.934
336.30 1.933
336.40 1.932
336.50 1.93
336.60 1.929
336.70 1.928
336.80 1.927
336.90 1.926
337.00 1.924
337.10 1.923
337.20 1.922
337.30 1.921
337.40 1.92
337.50 1.919
337.60 1.917
337.70 1.916
337.80 1.915
337.90 1.914
338.00 1.913
338.10 1.912
338.20 1.91
338.30 1.909
338.40 1.908
338.50 1.907
338.60 1.906
338.70 1.905
338.80 1.903
338.90 1.902
339.00 1.901
339.10 1.9
339.20 1.899
339.30 1.898
339.40 1.897
339.50 1.895
339.60 1.894
339.70 1.893
339.80 1.892
339.90 1.891
340.00 1.89
340.10 1.888
340.20 1.887
340.30 1.886
340.40 1.885
340.50 1.884
340.60 1.883
340.70 1.882
340.80 1.88
340.90 1.879
341.00 1.878
341.10 1.877
341.20 1.876
341.30 1.875
341.40 1.874
341.50 1.872
341.60 1.871
341.70 1.87
341.80 1.869
341.90 1.868
342.00 1.867
342.10 1.866
342.20 1.864
342.30 1.863
342.40 1.862
342.50 1.861
342.60 1.86
342.70 1.859
342.80 1.858
342.90 1.857
343.00 1.855
343.10 1.854
343.20 1.853
343.30 1.852
343.40 1.851
343.50 1.85
343.60 1.849
343.70 1.848
343.80 1.846
343.90 1.845
344.00 1.844
344.10 1.843
344.20 1.842
344.30 1.841
344.40 1.84
344.50 1.839
344.60 1.837
344.70 1.836
344.80 1.835
344.90 1.834
345.00 1.833
345.10 1.832
345.20 1.831
345.30 1.83
345.40 1.829
345.50 1.827
345.60 1.826
345.70 1.825
345.80 1.824
345.90 1.823
346.00 1.822
346.10 1.821
346.20 1.82
346.30 1.819
346.40 1.817
346.50 1.816
346.60 1.815
346.70 1.814
346.80 1.813
346.90 1.812
347.00 1.811
347.10 1.81
347.20 1.809
347.30 1.808
347.40 1.806
347.50 1.805
347.60 1.804
347.70 1.803
347.80 1.802
347.90 1.801
348.00 1.8
348.10 1.799
348.20 1.798
348.30 1.797
348.40 1.796
348.50 1.794
348.60 1.793
348.70 1.792
348.80 1.791
348.90 1.79
349.00 1.789
349.10 1.788
349.20 1.787
349.30 1.786
349.40 1.785
349.50 1.784
349.60 1.783
349.70 1.781
349.80 1.78
349.90 1.779
350.00 1.778
350.10 1.777
350.20 1.776
350.30 1.775
350.40 1.774
350.50 1.773
350.60 1.772
350.70 1.771
350.80 1.77
350.90 1.768
351.00 1.767
351.10 1.766
351.20 1.765
351.30 1.764
351.40 1.763
351.50 1.762
351.60 1.761
351.70 1.76
351.80 1.759
351.90 1.758
352.00 1.757
352.10 1.756
352.20 1.755
352.30 1.754
352.40 1.752
352.50 1.751
352.60 1.75
352.70 1.749
352.80 1.748
352.90 1.747
353.00 1.746
353.10 1.745
353.20 1.744
353.30 1.743
353.40 1.742
353.50 1.741
353.60 1.74
353.70 1.739
353.80 1.738
353.90 1.737
354.00 1.736
354.10 1.735
354.20 1.733
354.30 1.732
354.40 1.731
354.50 1.73
354.60 1.729
354.70 1.728
354.80 1.727
354.90 1.726
355.00 1.725
355.10 1.724
355.20 1.723
355.30 1.722
355.40 1.721
355.50 1.72
355.60 1.719
355.70 1.718
355.80 1.717
355.90 1.716
356.00 1.715
356.10 1.714
356.20 1.713
356.30 1.712
356.40 1.711
356.50 1.709
356.60 1.708
356.70 1.707
356.80 1.706
356.90 1.705
357.00 1.704
357.10 1.703
357.20 1.702
357.30 1.701
357.40 1.7
357.50 1.699
357.60 1.698
357.70 1.697
357.80 1.696
357.90 1.695
358.00 1.694
358.10 1.693
358.20 1.692
358.30 1.691
358.40 1.69
358.50 1.689
358.60 1.688
358.70 1.687
358.80 1.686
358.90 1.685
359.00 1.684
359.10 1.683
359.20 1.682
359.30 1.681
359.40 1.68
359.50 1.679
359.60 1.678
359.70 1.677
359.80 1.676
359.90 1.675
360.00 1.674
360.10 1.673
360.20 1.672
360.30 1.671
360.40 1.67
360.50 1.669
360.60 1.668
360.70 1.667
360.80 1.666
360.90 1.665
361.00 1.664
361.10 1.663
361.20 1.662
361.30 1.661
361.40 1.66
361.50 1.659
361.60 1.658
361.70 1.657
361.80 1.656
361.90 1.655
362.00 1.654
362.10 1.653
362.20 1.652
362.30 1.651
362.40 1.65
362.50 1.649
362.60 1.648
362.70 1.647
362.80 1.646
362.90 1.645
363.00 1.644
363.10 1.642
363.20 1.641
363.30 1.64
363.40 1.639
363.50 1.638
363.60 1.637
363.70 1.635
363.80 1.634
363.90 1.633
364.00 1.632
364.10 1.631
364.20 1.63
364.30 1.628
364.40 1.627
364.50 1.626
364.60 1.625
364.70 1.624
364.80 1.622
364.90 1.621
365.00 1.62
365.10 1.619
365.20 1.618
365.30 1.616
365.40 1.615
365.50 1.614
365.60 1.613
365.70 1.611
365.80 1.61
365.90 1.609
366.00 1.608
366.10 1.607
366.20 1.606
366.30 1.605
366.40 1.604
366.50 1.603
366.60 1.602
366.70 1.601
366.80 1.6
366.90 1.599
367.00 1.598
367.10 1.597
367.20 1.596
367.30 1.595
367.40 1.593
367.50 1.592
367.60 1.591
367.70 1.59
367.80 1.589
367.90 1.588
368.00 1.587
368.10 1.586
368.20 1.585
368.30 1.584
368.40 1.583
368.50 1.582
368.60 1.581
368.70 1.58
368.80 1.579
368.90 1.578
369.00 1.577
369.10 1.576
369.20 1.575
369.30 1.574
369.40 1.573
369.50 1.572
369.60 1.571
369.70 1.57
369.80 1.569
369.90 1.568
370.00 1.567
370.10 1.566
370.20 1.565
370.30 1.564
370.40 1.563
370.50 1.562
370.60 1.561
370.70 1.56
370.80 1.559
370.90 1.558
371.00 1.557
371.10 1.556
371.20 1.555
371.30 1.554
371.40 1.553
371.50 1.552
371.60 1.551
371.70 1.55
371.80 1.549
371.90 1.548
372.00 1.547
372.10 1.546
372.20 1.545
372.30 1.545
372.40 1.544
372.50 1.543
372.60 1.542
372.70 1.541
372.80 1.54
372.90 1.539
373.00 1.538
373.10 1.538
373.20 1.537
373.30 1.536
373.40 1.535
373.50 1.534
373.60 1.533
373.70 1.532
373.80 1.532
373.90 1.531
374.00 1.53
374.10 1.529
374.20 1.528
374.30 1.527
374.40 1.527
374.50 1.526
374.60 1.525
374.70 1.524
374.80 1.524
374.90 1.523
375.00 1.522
375.10 1.521
375.20 1.521
375.30 1.52
375.40 1.519
375.50 1.518
375.60 1.518
375.70 1.517
375.80 1.516
375.90 1.515
376.00 1.515
376.10 1.514
376.20 1.513
376.30 1.512
376.40 1.512
376.50 1.511
376.60 1.51
376.70 1.509
376.80 1.509
376.90 1.508
377.00 1.507
377.10 1.506
377.20 1.506
377.30 1.505
377.40 1.504
377.50 1.503
377.60 1.502
377.70 1.501
377.80 1.501
377.90 1.5
378.00 1.499
378.10 1.498
378.20 1.496
378.30 1.495
378.40 1.494
378.50 1.493
378.60 1.491
378.70 1.49
378.80 1.489
378.90 1.487
379.00 1.486
379.10 1.485
379.20 1.484
379.30 1.483
379.40 1.482
379.50 1.481
379.60 1.48
379.70 1.479
379.80 1.478
379.90 1.477
380.00 1.476
380.10 1.476
380.20 1.476
380.30 1.476
380.40 1.476
380.50 1.477
380.60 1.477
380.70 1.477
380.80 1.477
380.90 1.477
381.00 1.477
381.10 1.476
381.20 1.476
381.30 1.475
381.40 1.475
381.50 1.475
381.60 1.474
381.70 1.473
381.80 1.472
381.90 1.471
382.00 1.47
382.10 1.468
382.20 1.467
382.30 1.465
382.40 1.462
382.50 1.46
382.60 1.458
382.70 1.456
382.80 1.454
382.90 1.451
383.00 1.449
383.10 1.447
383.20 1.445
383.30 1.443
383.40 1.442
383.50 1.44
383.60 1.44
383.70 1.441
383.80 1.442
383.90 1.443
384.00 1.445
384.10 1.447
384.20 1.449
384.30 1.451
384.40 1.453
384.50 1.455
384.60 1.456
384.70 1.458
384.80 1.459
384.90 1.46
385.00 1.461
385.10 1.461
385.20 1.461
385.30 1.462
385.40 1.462
385.50 1.462
385.60 1.461
385.70 1.461
385.80 1.461
385.90 1.46
386.00 1.459
386.10 1.458
386.20 1.457
386.30 1.456
386.40 1.454
386.50 1.453
386.60 1.451
386.70 1.449
386.80 1.447
386.90 1.445
387.00 1.442
387.10 1.44
387.20 1.437
387.30 1.434
387.40 1.431
387.50 1.428
387.60 1.424
387.70 1.42
387.80 1.416
387.90 1.412
388.00 1.407
388.10 1.402
388.20 1.397
388.30 1.391
388.40 1.385
388.50 1.379
388.60 1.374
388.70 1.371
388.80 1.369
388.90 1.367
389.00 1.368
389.10 1.371
389.20 1.374
389.30 1.378
389.40 1.383
389.50 1.389
389.60 1.395
389.70 1.4
389.80 1.406
389.90 1.41
390.00 1.414
390.10 1.418
390.20 1.422
390.30 1.425
390.40 1.428
390.50 1.431
390.60 1.434
390.70 1.437
390.80 1.439
390.90 1.441
391.00 1.443
391.10 1.445
391.20 1.447
391.30 1.448
391.40 1.449
391.50 1.451
391.60 1.452
391.70 1.452
391.80 1.453
391.90 1.453
392.00 1.454
392.10 1.454
392.20 1.454
392.30 1.453
392.40 1.453
392.50 1.452
392.60 1.451
392.70 1.45
392.80 1.449
392.90 1.447
393.00 1.446
393.10 1.444
393.20 1.442
393.30 1.44
393.40 1.437
393.50 1.435
393.60 1.432
393.70 1.429
393.80 1.426
393.90 1.422
394.00 1.418
394.10 1.414
394.20 1.41
394.30 1.406
394.40 1.401
394.50 1.396
394.60 1.391
394.70 1.385
394.80 1.379
394.90 1.373
395.00 1.367
395.10 1.36
395.20 1.353
395.30 1.346
395.40 1.338
395.50 1.331
395.60 1.322
395.70 1.314
395.80 1.305
395.90 1.296
396.00 1.286
396.10 1.276
396.20 1.266
396.30 1.254
396.40 1.242
396.50 1.228
396.60 1.213
396.70 1.198
396.80 1.186
396.90 1.176
397.00 1.166
397.10 1.175
397.20 1.184
397.30 1.195
397.40 1.21
397.50 1.224
397.60 1.238
397.70 1.25
397.80 1.262
397.90 1.272
398.00 1.282
398.10 1.291
398.20 1.301
398.30 1.309
398.40 1.318
398.50 1.326
398.60 1.334
398.70 1.341
398.80 1.348
398.90 1.355
399.00 1.362
399.10 1.368
399.20 1.375
399.30 1.38
399.40 1.386
399.50 1.391
399.60 1.396
399.70 1.401
399.80 1.406
399.90 1.41
400.00 1.415
400.10 1.419
400.20 1.422
400.30 1.426
400.40 1.429
400.50 1.432
400.60 1.435
400.70 1.438
400.80 1.441
400.90 1.443
401.00 1.445
401.10 1.447
401.20 1.449
401.30 1.451
401.40 1.453
401.50 1.454
401.60 1.456
401.70 1.457
401.80 1.458
401.90 1.459
402.00 1.459
402.10 1.46
402.20 1.46
402.30 1.46
402.40 1.461
402.50 1.461
402.60 1.46
402.70 1.46
402.80 1.46
402.90 1.459
403.00 1.458
403.10 1.457
403.20 1.456
403.30 1.455
403.40 1.454
403.50 1.453
403.60 1.451
403.70 1.449
403.80 1.448
403.90 1.446
404.00 1.443
404.10 1.441
404.20 1.439
404.30 1.436
404.40 1.433
404.50 1.431
404.60 1.427
404.70 1.424
404.80 1.421
404.90 1.417
405.00 1.414
405.10 1.41
405.20 1.406
405.30 1.402
405.40 1.397
405.50 1.393
405.60 1.388
405.70 1.383
405.80 1.378
405.90 1.372
406.00 1.367
406.10 1.361
406.20 1.355
406.30 1.349
406.40 1.342
406.50 1.336
406.60 1.329
406.70 1.322
406.80 1.314
406.90 1.307
407.00 1.299
407.10 1.291
407.20 1.282
407.30 1.273
407.40 1.264
407.50 1.255
407.60 1.245
407.70 1.235
407.80 1.225
407.90 1.214
408.00 1.202
408.10 1.191
408.20 1.179
408.30 1.166
408.40 1.154
408.50 1.14
408.60 1.127
408.70 1.112
408.80 1.098
408.90 1.083
409.00 1.068
409.10 1.052
409.20 1.036
409.30 1.02
409.40 1.003
409.50 0.9862
409.60 0.9685
409.70 0.9489
409.80 0.9284
409.90 0.9069
410.00 0.8918
410.10 0.882
410.20 0.8777
410.30 0.8858
410.40 0.8987
410.50 0.9164
410.60 0.9369
410.70 0.9562
410.80 0.9743
410.90 0.9908
411.00 1.007
411.10 1.023
411.20 1.038
411.30 1.052
411.40 1.067
411.50 1.081
411.60 1.095
411.70 1.109
411.80 1.122
411.90 1.135
412.00 1.147
412.10 1.159
412.20 1.17
412.30 1.181
412.40 1.192
412.50 1.202
412.60 1.212
412.70 1.221
412.80 1.23
412.90 1.239
413.00 1.248
413.10 1.256
413.20 1.264
413.30 1.272
413.40 1.279
413.50 1.287
413.60 1.293
413.70 1.3
413.80 1.307
413.90 1.313
414.00 1.319
414.10 1.325
414.20 1.331
414.30 1.336
414.40 1.342
414.50 1.347
414.60 1.352
414.70 1.357
414.80 1.361
414.90 1.366
415.00 1.371
415.10 1.375
415.20 1.379
415.30 1.383
415.40 1.387
415.50 1.391
415.60 1.394
415.70 1.398
415.80 1.401
415.90 1.404
416.00 1.408
416.10 1.411
416.20 1.414
416.30 1.417
416.40 1.419
416.50 1.422
416.60 1.425
416.70 1.427
416.80 1.43
416.90 1.432
417.00 1.434
417.10 1.436
417.20 1.438
417.30 1.44
417.40 1.442
417.50 1.444
417.60 1.446
417.70 1.447
417.80 1.449
417.90 1.451
418.00 1.452
418.10 1.453
418.20 1.455
418.30 1.456
418.40 1.457
418.50 1.458
418.60 1.459
418.70 1.46
418.80 1.461
418.90 1.462
419.00 1.463
419.10 1.463
419.20 1.464
419.30 1.465
419.40 1.465
419.50 1.466
419.60 1.466
419.70 1.466
419.80 1.467
419.90 1.467
420.00 1.467
420.10 1.467
420.20 1.467
420.30 1.467
420.40 1.467
420.50 1.467
420.60 1.467
420.70 1.467
420.80 1.466
420.90 1.466
421.00 1.466
421.10 1.465
421.20 1.465
421.30 1.464
421.40 1.464
421.50 1.463
421.60 1.462
421.70 1.462
421.80 1.461
421.90 1.46
422.00 1.459
422.10 1.458
422.20 1.457
422.30 1.456
422.40 1.455
422.50 1.454
422.60 1.452
422.70 1.451
422.80 1.45
422.90 1.448
423.00 1.447
423.10 1.445
423.20 1.444
423.30 1.442
423.40 1.441
423.50 1.439
423.60 1.437
423.70 1.435
423.80 1.433
423.90 1.431
424.00 1.429
424.10 1.427
424.20 1.425
424.30 1.423
424.40 1.421
424.50 1.418
424.60 1.416
424.70 1.414
424.80 1.411
424.90 1.409
425.00 1.406
425.10 1.403
425.20 1.401
425.30 1.398
425.40 1.395
425.50 1.392
425.60 1.389
425.70 1.386
425.80 1.383
425.90 1.38
426.00 1.376
426.10 1.373
426.20 1.369
426.30 1.365
426.40 1.361
426.50 1.357
426.60 1.354
426.70 1.35
426.80 1.346
426.90 1.342
427.00 1.338
427.10 1.334
427.20 1.329
427.30 1.325
427.40 1.321
427.50 1.316
427.60 1.312
427.70 1.307
427.80 1.302
427.90 1.297
428.00 1.292
428.10 1.287
428.20 1.282
428.30 1.277
428.40 1.271
428.50 1.266
428.60 1.26
428.70 1.255
428.80 1.249
428.90 1.243
429.00 1.237
429.10 1.23
429.20 1.224
429.30 1.217
429.40 1.211
429.50 1.204
429.60 1.197
429.70 1.19
429.80 1.182
429.90 1.175
430.00 1.167
430.10 1.159
430.20 1.151
430.30 1.143
430.40 1.135
430.50 1.126
430.60 1.117
430.70 1.108
430.80 1.099
430.90 1.09
431.00 1.08
431.10 1.07
431.20 1.06
431.30 1.049
431.40 1.038
431.50 1.027
431.60 1.016
431.70 1.004
431.80 0.9918
431.90 0.9792
432.00 0.9663
432.10 0.953
432.20 0.9391
432.30 0.9249
432.40 0.9103
432.50 0.8948
432.60 0.879
432.70 0.8627
432.80 0.8459
432.90 0.8288
433.00 0.8116
433.10 0.7944
433.20 0.7773
433.30 0.7604
433.40 0.7436
433.50 0.7265
433.60 0.7088
433.70 0.6868
433.80 0.6599
433.90 0.6281
434.00 0.5949
434.10 0.5957
434.20 0.6302
434.30 0.661
434.40 0.687
434.50 0.7081
434.60 0.725
434.70 0.7414
434.80 0.7575
434.90 0.7737
435.00 0.79
435.10 0.8065
435.20 0.8228
435.30 0.839
435.40 0.8549
435.50 0.8702
435.60 0.885
435.70 0.8994
435.80 0.9129
435.90 0.9261
436.00 0.9389
436.10 0.951
436.20 0.9628
436.30 0.9742
436.40 0.9851
436.50 0.9957
436.60 1.006
436.70 1.016
436.80 1.026
436.90 1.035
437.00 1.044
437.10 1.053
437.20 1.061
437.30 1.069
437.40 1.077
437.50 1.085
437.60 1.092
437.70 1.1
437.80 1.107
437.90 1.114
438.00 1.12
438.10 1.127
438.20 1.133
438.30 1.139
438.40 1.145
438.50 1.151
438.60 1.157
438.70 1.162
438.80 1.168
438.90 1.173
439.00 1.178
439.10 1.183
439.20 1.188
439.30 1.192
439.40 1.197
439.50 1.201
439.60 1.205
439.70 1.21
439.80 1.214
439.90 1.218
440.00 1.222
440.10 1.225
440.20 1.229
440.30 1.233
440.40 1.236
440.50 1.24
440.60 1.243
440.70 1.246
440.80 1.249
440.90 1.252
441.00 1.255
441.10 1.258
441.20 1.261
441.30 1.264
441.40 1.267
441.50 1.269
441.60 1.272
441.70 1.274
441.80 1.277
441.90 1.279
442.00 1.282
442.10 1.284
442.20 1.286
442.30 1.288
442.40 1.29
442.50 1.292
442.60 1.294
442.70 1.296
442.80 1.298
442.90 1.3
443.00 1.301
443.10 1.303
443.20 1.305
443.30 1.306
443.40 1.308
443.50 1.309
443.60 1.311
443.70 1.312
443.80 1.314
443.90 1.315
444.00 1.316
444.10 1.318
444.20 1.319
444.30 1.32
444.40 1.321
444.50 1.322
444.60 1.324
444.70 1.325
444.80 1.326
444.90 1.327
445.00 1.328
445.10 1.328
445.20 1.329
445.30 1.33
445.40 1.331
445.50 1.332
445.60 1.333
445.70 1.333
445.80 1.334
445.90 1.335
446.00 1.335
446.10 1.336
446.20 1.337
446.30 1.337
446.40 1.338
446.50 1.338
446.60 1.339
446.70 1.339
446.80 1.34
446.90 1.34
447.00 1.34
447.10 1.341
447.20 1.341
447.30 1.342
447.40 1.342
447.50 1.342
447.60 1.343
447.70 1.343
447.80 1.343
447.90 1.343
448.00 1.344
448.10 1.344
448.20 1.344
448.30 1.344
448.40 1.344
448.50 1.344
448.60 1.344
448.70 1.344
448.80 1.345
448.90 1.345
449.00 1.345
449.10 1.345
449.20 1.345
449.30 1.345
449.40 1.345
449.50 1.345
449.60 1.345
449.70 1.345
449.80 1.345
449.90 1.345
450.00 1.344
450.10 1.344
450.20 1.344
450.30 1.344
450.40 1.344
450.50 1.344
450.60 1.344
450.70 1.343
450.80 1.343
450.90 1.343
451.00 1.343
451.10 1.343
451.20 1.342
451.30 1.342
451.40 1.342
451.50 1.342
451.60 1.341
451.70 1.341
451.80 1.341
451.90 1.34
452.00 1.34
452.10 1.34
452.20 1.339
452.30 1.339
452.40 1.339
452.50 1.338
452.60 1.338
452.70 1.338
452.80 1.337
452.90 1.337
453.00 1.336
453.10 1.336
453.20 1.336
453.30 1.335
453.40 1.335
453.50 1.334
453.60 1.334
