# Version 2.1 - nm, norm@500 to 1, cut digits, bergeron_3750_65.dat_3750
# Wavelength(nm)  Flambda(ergs/cm^s/s/nm)
300.00 0.1166
300.10 0.1169
300.20 0.1172
300.30 0.1174
300.40 0.1177
300.50 0.118
300.60 0.1183
300.70 0.1185
300.80 0.1188
300.90 0.1191
301.00 0.1193
301.10 0.1196
301.20 0.1199
301.30 0.1202
301.40 0.1204
301.50 0.1207
301.60 0.121
301.70 0.1212
301.80 0.1215
301.90 0.1218
302.00 0.122
302.10 0.1223
302.20 0.1226
302.30 0.1229
302.40 0.1232
302.50 0.1234
302.60 0.1237
302.70 0.124
302.80 0.1243
302.90 0.1246
303.00 0.1248
303.10 0.1251
303.20 0.1254
303.30 0.1257
303.40 0.1259
303.50 0.1262
303.60 0.1265
303.70 0.1268
303.80 0.127
303.90 0.1273
304.00 0.1276
304.10 0.1279
304.20 0.1282
304.30 0.1285
304.40 0.1287
304.50 0.129
304.60 0.1293
304.70 0.1296
304.80 0.1299
304.90 0.1302
305.00 0.1305
305.10 0.1307
305.20 0.131
305.30 0.1313
305.40 0.1316
305.50 0.1319
305.60 0.1322
305.70 0.1324
305.80 0.1327
305.90 0.133
306.00 0.1333
306.10 0.1336
306.20 0.1339
306.30 0.1342
306.40 0.1345
306.50 0.1348
306.60 0.1351
306.70 0.1354
306.80 0.1356
306.90 0.1359
307.00 0.1362
307.10 0.1365
307.20 0.1368
307.30 0.1371
307.40 0.1374
307.50 0.1377
307.60 0.138
307.70 0.1383
307.80 0.1386
307.90 0.1388
308.00 0.1391
308.10 0.1394
308.20 0.1397
308.30 0.14
308.40 0.1403
308.50 0.1406
308.60 0.1409
308.70 0.1412
308.80 0.1415
308.90 0.1418
309.00 0.1421
309.10 0.1424
309.20 0.1427
309.30 0.143
309.40 0.1433
309.50 0.1436
309.60 0.1439
309.70 0.1442
309.80 0.1445
309.90 0.1448
310.00 0.1451
310.10 0.1454
310.20 0.1457
310.30 0.146
310.40 0.1463
310.50 0.1466
310.60 0.147
310.70 0.1473
310.80 0.1476
310.90 0.1479
311.00 0.1482
311.10 0.1485
311.20 0.1488
311.30 0.1491
311.40 0.1494
311.50 0.1497
311.60 0.15
311.70 0.1503
311.80 0.1506
311.90 0.1509
312.00 0.1512
312.10 0.1515
312.20 0.1518
312.30 0.1521
312.40 0.1525
312.50 0.1528
312.60 0.1531
312.70 0.1534
312.80 0.1537
312.90 0.154
313.00 0.1543
313.10 0.1547
313.20 0.155
313.30 0.1553
313.40 0.1556
313.50 0.1559
313.60 0.1562
313.70 0.1565
313.80 0.1568
313.90 0.1571
314.00 0.1575
314.10 0.1578
314.20 0.1581
314.30 0.1584
314.40 0.1587
314.50 0.1591
314.60 0.1594
314.70 0.1597
314.80 0.16
314.90 0.1603
315.00 0.1607
315.10 0.161
315.20 0.1613
315.30 0.1616
315.40 0.1619
315.50 0.1623
315.60 0.1626
315.70 0.1629
315.80 0.1632
315.90 0.1635
316.00 0.1638
316.10 0.1642
316.20 0.1645
316.30 0.1648
316.40 0.1652
316.50 0.1655
316.60 0.1658
316.70 0.1661
316.80 0.1665
316.90 0.1668
317.00 0.1671
317.10 0.1674
317.20 0.1678
317.30 0.1681
317.40 0.1684
317.50 0.1687
317.60 0.1691
317.70 0.1694
317.80 0.1697
317.90 0.17
318.00 0.1704
318.10 0.1707
318.20 0.171
318.30 0.1714
318.40 0.1717
318.50 0.172
318.60 0.1724
318.70 0.1727
318.80 0.173
318.90 0.1734
319.00 0.1737
319.10 0.174
319.20 0.1744
319.30 0.1747
319.40 0.175
319.50 0.1753
319.60 0.1757
319.70 0.176
319.80 0.1763
319.90 0.1767
320.00 0.177
320.10 0.1773
320.20 0.1777
320.30 0.178
320.40 0.1784
320.50 0.1787
320.60 0.179
320.70 0.1794
320.80 0.1797
320.90 0.1801
321.00 0.1804
321.10 0.1807
321.20 0.1811
321.30 0.1814
321.40 0.1818
321.50 0.1821
321.60 0.1824
321.70 0.1828
321.80 0.1831
321.90 0.1834
322.00 0.1838
322.10 0.1841
322.20 0.1845
322.30 0.1848
322.40 0.1852
322.50 0.1855
322.60 0.1859
322.70 0.1862
322.80 0.1865
322.90 0.1869
323.00 0.1872
323.10 0.1876
323.20 0.1879
323.30 0.1883
323.40 0.1886
323.50 0.189
323.60 0.1893
323.70 0.1896
323.80 0.19
323.90 0.1903
324.00 0.1907
324.10 0.191
324.20 0.1914
324.30 0.1917
324.40 0.1921
324.50 0.1924
324.60 0.1928
324.70 0.1931
324.80 0.1935
324.90 0.1938
325.00 0.1942
325.10 0.1946
325.20 0.1949
325.30 0.1953
325.40 0.1956
325.50 0.196
325.60 0.1963
325.70 0.1967
325.80 0.197
325.90 0.1974
326.00 0.1977
326.10 0.1981
326.20 0.1984
326.30 0.1988
326.40 0.1991
326.50 0.1995
326.60 0.1999
326.70 0.2002
326.80 0.2006
326.90 0.2009
327.00 0.2013
327.10 0.2016
327.20 0.202
327.30 0.2024
327.40 0.2027
327.50 0.2031
327.60 0.2034
327.70 0.2038
327.80 0.2041
327.90 0.2045
328.00 0.2049
328.10 0.2052
328.20 0.2056
328.30 0.2059
328.40 0.2063
328.50 0.2067
328.60 0.207
328.70 0.2074
328.80 0.2078
328.90 0.2081
329.00 0.2085
329.10 0.2089
329.20 0.2092
329.30 0.2096
329.40 0.21
329.50 0.2103
329.60 0.2107
329.70 0.211
329.80 0.2114
329.90 0.2118
330.00 0.2121
330.10 0.2125
330.20 0.2129
330.30 0.2132
330.40 0.2136
330.50 0.214
330.60 0.2144
330.70 0.2147
330.80 0.2151
330.90 0.2155
331.00 0.2158
331.10 0.2162
331.20 0.2166
331.30 0.2169
331.40 0.2173
331.50 0.2177
331.60 0.2181
331.70 0.2184
331.80 0.2188
331.90 0.2191
332.00 0.2195
332.10 0.2199
332.20 0.2203
332.30 0.2207
332.40 0.221
332.50 0.2214
332.60 0.2218
332.70 0.2222
332.80 0.2225
332.90 0.2229
333.00 0.2233
333.10 0.2237
333.20 0.224
333.30 0.2244
333.40 0.2248
333.50 0.2252
333.60 0.2255
333.70 0.2259
333.80 0.2263
333.90 0.2267
334.00 0.227
334.10 0.2274
334.20 0.2278
334.30 0.2282
334.40 0.2286
334.50 0.229
334.60 0.2293
334.70 0.2297
334.80 0.2301
334.90 0.2305
335.00 0.2309
335.10 0.2312
335.20 0.2316
335.30 0.232
335.40 0.2324
335.50 0.2328
335.60 0.2331
335.70 0.2335
335.80 0.2339
335.90 0.2343
336.00 0.2347
336.10 0.235
336.20 0.2354
336.30 0.2358
336.40 0.2362
336.50 0.2366
336.60 0.237
336.70 0.2374
336.80 0.2378
336.90 0.2382
337.00 0.2386
337.10 0.2389
337.20 0.2393
337.30 0.2397
337.40 0.2401
337.50 0.2405
337.60 0.2409
337.70 0.2413
337.80 0.2416
337.90 0.242
338.00 0.2424
338.10 0.2428
338.20 0.2432
338.30 0.2436
338.40 0.244
338.50 0.2444
338.60 0.2448
338.70 0.2452
338.80 0.2456
338.90 0.246
339.00 0.2464
339.10 0.2467
339.20 0.2471
339.30 0.2475
339.40 0.2479
339.50 0.2483
339.60 0.2487
339.70 0.2491
339.80 0.2495
339.90 0.2499
340.00 0.2503
340.10 0.2507
340.20 0.2511
340.30 0.2515
340.40 0.2519
340.50 0.2523
340.60 0.2527
340.70 0.2531
340.80 0.2535
340.90 0.2539
341.00 0.2543
341.10 0.2547
341.20 0.2551
341.30 0.2555
341.40 0.2559
341.50 0.2562
341.60 0.2566
341.70 0.257
341.80 0.2574
341.90 0.2578
342.00 0.2582
342.10 0.2586
342.20 0.259
342.30 0.2594
342.40 0.2598
342.50 0.2603
342.60 0.2607
342.70 0.2611
342.80 0.2615
342.90 0.2619
343.00 0.2623
343.10 0.2627
343.20 0.2631
343.30 0.2635
343.40 0.2639
343.50 0.2643
343.60 0.2647
343.70 0.2651
343.80 0.2655
343.90 0.2659
344.00 0.2663
344.10 0.2667
344.20 0.2671
344.30 0.2675
344.40 0.2679
344.50 0.2683
344.60 0.2688
344.70 0.2692
344.80 0.2696
344.90 0.27
345.00 0.2704
345.10 0.2708
345.20 0.2712
345.30 0.2716
345.40 0.272
345.50 0.2724
345.60 0.2728
345.70 0.2732
345.80 0.2737
345.90 0.2741
346.00 0.2745
346.10 0.2749
346.20 0.2753
346.30 0.2757
346.40 0.2761
346.50 0.2766
346.60 0.277
346.70 0.2774
346.80 0.2778
346.90 0.2782
347.00 0.2786
347.10 0.279
347.20 0.2795
347.30 0.2799
347.40 0.2803
347.50 0.2807
347.60 0.2811
347.70 0.2815
347.80 0.2819
347.90 0.2823
348.00 0.2827
348.10 0.2832
348.20 0.2836
348.30 0.284
348.40 0.2844
348.50 0.2849
348.60 0.2853
348.70 0.2857
348.80 0.2861
348.90 0.2865
349.00 0.287
349.10 0.2874
349.20 0.2878
349.30 0.2882
349.40 0.2886
349.50 0.289
349.60 0.2895
349.70 0.2899
349.80 0.2903
349.90 0.2907
350.00 0.2911
350.10 0.2915
350.20 0.292
350.30 0.2924
350.40 0.2928
350.50 0.2933
350.60 0.2937
350.70 0.2941
350.80 0.2945
350.90 0.295
351.00 0.2954
351.10 0.2958
351.20 0.2962
351.30 0.2966
351.40 0.2971
351.50 0.2975
351.60 0.2979
351.70 0.2983
351.80 0.2987
351.90 0.2992
352.00 0.2996
352.10 0.3
352.20 0.3004
352.30 0.3009
352.40 0.3013
352.50 0.3017
352.60 0.3022
352.70 0.3026
352.80 0.303
352.90 0.3035
353.00 0.3039
353.10 0.3043
353.20 0.3047
353.30 0.3052
353.40 0.3056
353.50 0.306
353.60 0.3065
353.70 0.3069
353.80 0.3073
353.90 0.3077
354.00 0.3081
354.10 0.3086
354.20 0.309
354.30 0.3095
354.40 0.3099
354.50 0.3103
354.60 0.3108
354.70 0.3112
354.80 0.3116
354.90 0.3121
355.00 0.3125
355.10 0.3129
355.20 0.3134
355.30 0.3138
355.40 0.3142
355.50 0.3147
355.60 0.3151
355.70 0.3155
355.80 0.3159
355.90 0.3164
356.00 0.3168
356.10 0.3172
356.20 0.3177
356.30 0.3181
356.40 0.3186
356.50 0.319
356.60 0.3194
356.70 0.3199
356.80 0.3203
356.90 0.3208
357.00 0.3212
357.10 0.3216
357.20 0.3221
357.30 0.3225
357.40 0.3229
357.50 0.3234
357.60 0.3238
357.70 0.3242
357.80 0.3247
357.90 0.3251
358.00 0.3255
358.10 0.326
358.20 0.3264
358.30 0.3269
358.40 0.3273
358.50 0.3278
358.60 0.3282
358.70 0.3287
358.80 0.3291
358.90 0.3295
359.00 0.33
359.10 0.3304
359.20 0.3309
359.30 0.3313
359.40 0.3317
359.50 0.3322
359.60 0.3326
359.70 0.3331
359.80 0.3335
359.90 0.3339
360.00 0.3344
360.10 0.3348
360.20 0.3353
360.30 0.3357
360.40 0.3362
360.50 0.3366
360.60 0.3371
360.70 0.3375
360.80 0.338
360.90 0.3384
361.00 0.3389
361.10 0.3393
361.20 0.3397
361.30 0.3402
361.40 0.3406
361.50 0.3411
361.60 0.3415
361.70 0.342
361.80 0.3424
361.90 0.3428
362.00 0.3433
362.10 0.3437
362.20 0.3442
362.30 0.3446
362.40 0.3451
362.50 0.3455
362.60 0.346
362.70 0.3464
362.80 0.3469
362.90 0.3473
363.00 0.3478
363.10 0.3482
363.20 0.3487
363.30 0.3491
363.40 0.3496
363.50 0.35
363.60 0.3505
363.70 0.3509
363.80 0.3514
363.90 0.3518
364.00 0.3523
364.10 0.3527
364.20 0.3532
364.30 0.3536
364.40 0.3541
364.50 0.3545
364.60 0.355
364.70 0.3554
364.80 0.3559
364.90 0.3563
365.00 0.3568
365.10 0.3573
365.20 0.3577
365.30 0.3582
365.40 0.3586
365.50 0.3591
365.60 0.3595
365.70 0.36
365.80 0.3604
365.90 0.3609
366.00 0.3613
366.10 0.3618
366.20 0.3623
366.30 0.3627
366.40 0.3632
366.50 0.3636
366.60 0.3641
366.70 0.3646
366.80 0.365
366.90 0.3655
367.00 0.3659
367.10 0.3664
367.20 0.3668
367.30 0.3673
367.40 0.3678
367.50 0.3682
367.60 0.3687
367.70 0.3691
367.80 0.3696
367.90 0.37
368.00 0.3705
368.10 0.3709
368.20 0.3714
368.30 0.3719
368.40 0.3723
368.50 0.3728
368.60 0.3733
368.70 0.3737
368.80 0.3742
368.90 0.3746
369.00 0.3751
369.10 0.3756
369.20 0.376
369.30 0.3765
369.40 0.3769
369.50 0.3774
369.60 0.3779
369.70 0.3783
369.80 0.3788
369.90 0.3792
370.00 0.3797
370.10 0.3802
370.20 0.3806
370.30 0.3811
370.40 0.3816
370.50 0.382
370.60 0.3825
370.70 0.383
370.80 0.3834
370.90 0.3839
371.00 0.3844
371.10 0.3848
371.20 0.3853
371.30 0.3857
371.40 0.3862
371.50 0.3867
371.60 0.3871
371.70 0.3876
371.80 0.388
371.90 0.3885
372.00 0.389
372.10 0.3894
372.20 0.3899
372.30 0.3904
372.40 0.3908
372.50 0.3913
372.60 0.3918
372.70 0.3923
372.80 0.3927
372.90 0.3932
373.00 0.3937
373.10 0.3941
373.20 0.3946
373.30 0.3951
373.40 0.3955
373.50 0.396
373.60 0.3965
373.70 0.3969
373.80 0.3974
373.90 0.3978
374.00 0.3983
374.10 0.3988
374.20 0.3993
374.30 0.3997
374.40 0.4002
374.50 0.4007
374.60 0.4012
374.70 0.4016
374.80 0.4021
374.90 0.4026
375.00 0.403
375.10 0.4035
375.20 0.404
375.30 0.4045
375.40 0.4049
375.50 0.4054
375.60 0.4059
375.70 0.4063
375.80 0.4068
375.90 0.4073
376.00 0.4077
376.10 0.4082
376.20 0.4087
376.30 0.4092
376.40 0.4096
376.50 0.4101
376.60 0.4106
376.70 0.411
376.80 0.4115
376.90 0.412
377.00 0.4125
377.10 0.4129
377.20 0.4134
377.30 0.4139
377.40 0.4144
377.50 0.4148
377.60 0.4153
377.70 0.4158
377.80 0.4163
377.90 0.4167
378.00 0.4172
378.10 0.4177
378.20 0.4181
378.30 0.4186
378.40 0.4191
378.50 0.4196
378.60 0.42
378.70 0.4205
378.80 0.421
378.90 0.4215
379.00 0.4219
379.10 0.4224
379.20 0.4229
379.30 0.4234
379.40 0.4238
379.50 0.4243
379.60 0.4248
379.70 0.4253
379.80 0.4257
379.90 0.4262
380.00 0.4267
380.10 0.4272
380.20 0.4277
380.30 0.4281
380.40 0.4286
380.50 0.4291
380.60 0.4296
380.70 0.4301
380.80 0.4305
380.90 0.431
381.00 0.4315
381.10 0.432
381.20 0.4324
381.30 0.4329
381.40 0.4334
381.50 0.4339
381.60 0.4344
381.70 0.4348
381.80 0.4353
381.90 0.4358
382.00 0.4363
382.10 0.4368
382.20 0.4372
382.30 0.4377
382.40 0.4382
382.50 0.4387
382.60 0.4392
382.70 0.4396
382.80 0.4401
382.90 0.4406
383.00 0.4411
383.10 0.4416
383.20 0.4421
383.30 0.4425
383.40 0.443
383.50 0.4435
383.60 0.444
383.70 0.4445
383.80 0.4449
383.90 0.4454
384.00 0.4459
384.10 0.4464
384.20 0.4469
384.30 0.4473
384.40 0.4478
384.50 0.4483
384.60 0.4488
384.70 0.4493
384.80 0.4498
384.90 0.4502
385.00 0.4507
385.10 0.4512
385.20 0.4517
385.30 0.4522
385.40 0.4527
385.50 0.4531
385.60 0.4536
385.70 0.4541
385.80 0.4546
385.90 0.4551
386.00 0.4556
386.10 0.4561
386.20 0.4565
386.30 0.457
386.40 0.4575
386.50 0.458
386.60 0.4585
386.70 0.459
386.80 0.4594
386.90 0.4599
387.00 0.4604
387.10 0.4609
387.20 0.4614
387.30 0.4619
387.40 0.4624
387.50 0.4629
387.60 0.4633
387.70 0.4638
387.80 0.4643
387.90 0.4648
388.00 0.4653
388.10 0.4658
388.20 0.4662
388.30 0.4667
388.40 0.4672
388.50 0.4677
388.60 0.4682
388.70 0.4687
388.80 0.4692
388.90 0.4697
389.00 0.4701
389.10 0.4706
389.20 0.4711
389.30 0.4716
389.40 0.4721
389.50 0.4726
389.60 0.4731
389.70 0.4736
389.80 0.4741
389.90 0.4746
390.00 0.475
390.10 0.4755
390.20 0.476
390.30 0.4765
390.40 0.477
390.50 0.4775
390.60 0.478
390.70 0.4785
390.80 0.4789
390.90 0.4794
391.00 0.4799
391.10 0.4804
391.20 0.4809
391.30 0.4814
391.40 0.4819
391.50 0.4824
391.60 0.4829
391.70 0.4834
391.80 0.4838
391.90 0.4843
392.00 0.4848
392.10 0.4853
392.20 0.4858
392.30 0.4863
392.40 0.4868
392.50 0.4873
392.60 0.4878
392.70 0.4883
392.80 0.4887
392.90 0.4892
393.00 0.4897
393.10 0.4902
393.20 0.4907
393.30 0.4912
393.40 0.4917
393.50 0.4922
393.60 0.4927
393.70 0.4932
393.80 0.4937
393.90 0.4942
394.00 0.4946
394.10 0.4952
394.20 0.4956
394.30 0.4961
394.40 0.4966
394.50 0.4971
394.60 0.4976
394.70 0.4981
394.80 0.4986
394.90 0.4991
395.00 0.4996
395.10 0.5001
395.20 0.5006
395.30 0.5011
395.40 0.5016
395.50 0.5021
395.60 0.5025
395.70 0.503
395.80 0.5035
395.90 0.504
396.00 0.5045
396.10 0.505
396.20 0.5055
396.30 0.506
396.40 0.5065
396.50 0.507
396.60 0.5075
396.70 0.508
396.80 0.5085
396.90 0.509
397.00 0.5095
397.10 0.51
397.20 0.5105
397.30 0.5109
397.40 0.5114
397.50 0.5119
397.60 0.5124
397.70 0.5129
397.80 0.5134
397.90 0.5139
398.00 0.5144
398.10 0.5149
398.20 0.5154
398.30 0.5159
398.40 0.5164
398.50 0.5169
398.60 0.5174
398.70 0.5179
398.80 0.5184
398.90 0.5189
399.00 0.5194
399.10 0.5199
399.20 0.5204
399.30 0.5209
399.40 0.5213
399.50 0.5218
399.60 0.5223
399.70 0.5228
399.80 0.5233
399.90 0.5238
400.00 0.5243
400.10 0.5248
400.20 0.5253
400.30 0.5258
400.40 0.5263
400.50 0.5268
400.60 0.5273
400.70 0.5278
400.80 0.5283
400.90 0.5288
401.00 0.5293
401.10 0.5298
401.20 0.5303
401.30 0.5308
401.40 0.5313
401.50 0.5318
401.60 0.5323
401.70 0.5328
401.80 0.5333
401.90 0.5338
402.00 0.5343
402.10 0.5348
402.20 0.5353
402.30 0.5358
402.40 0.5363
402.50 0.5368
402.60 0.5373
402.70 0.5377
402.80 0.5382
402.90 0.5387
403.00 0.5392
403.10 0.5397
403.20 0.5402
403.30 0.5407
403.40 0.5412
403.50 0.5417
403.60 0.5422
403.70 0.5427
403.80 0.5432
403.90 0.5437
404.00 0.5442
404.10 0.5447
404.20 0.5452
404.30 0.5457
404.40 0.5462
404.50 0.5467
404.60 0.5472
404.70 0.5477
404.80 0.5482
404.90 0.5487
405.00 0.5492
405.10 0.5497
405.20 0.5502
405.30 0.5507
405.40 0.5512
405.50 0.5517
405.60 0.5522
405.70 0.5527
405.80 0.5532
405.90 0.5537
406.00 0.5542
406.10 0.5547
406.20 0.5552
406.30 0.5557
406.40 0.5562
406.50 0.5567
406.60 0.5572
406.70 0.5577
406.80 0.5582
406.90 0.5587
407.00 0.5592
407.10 0.5597
407.20 0.5602
407.30 0.5607
407.40 0.5612
407.50 0.5617
407.60 0.5622
407.70 0.5627
407.80 0.5632
407.90 0.5637
408.00 0.5642
408.10 0.5647
408.20 0.5652
408.30 0.5657
408.40 0.5662
408.50 0.5667
408.60 0.5672
408.70 0.5677
408.80 0.5682
408.90 0.5687
409.00 0.5692
409.10 0.5697
409.20 0.5702
409.30 0.5707
409.40 0.5712
409.50 0.5717
409.60 0.5722
409.70 0.5727
409.80 0.5732
409.90 0.5737
410.00 0.5742
410.10 0.5747
410.20 0.5752
410.30 0.5757
410.40 0.5762
410.50 0.5767
410.60 0.5772
410.70 0.5777
410.80 0.5782
410.90 0.5787
411.00 0.5792
411.10 0.5797
411.20 0.5802
411.30 0.5807
411.40 0.5812
411.50 0.5817
411.60 0.5822
411.70 0.5827
411.80 0.5832
411.90 0.5837
412.00 0.5842
412.10 0.5847
412.20 0.5852
412.30 0.5857
412.40 0.5862
412.50 0.5867
412.60 0.5872
412.70 0.5877
412.80 0.5882
412.90 0.5887
413.00 0.5892
413.10 0.5897
413.20 0.5902
413.30 0.5907
413.40 0.5912
413.50 0.5917
413.60 0.5922
413.70 0.5927
413.80 0.5932
413.90 0.5937
414.00 0.5942
414.10 0.5947
414.20 0.5952
414.30 0.5957
414.40 0.5962
414.50 0.5967
414.60 0.5972
414.70 0.5977
414.80 0.5982
414.90 0.5987
415.00 0.5992
415.10 0.5997
415.20 0.6002
415.30 0.6007
415.40 0.6012
415.50 0.6017
415.60 0.6023
415.70 0.6028
415.80 0.6033
415.90 0.6038
416.00 0.6042
416.10 0.6048
416.20 0.6053
416.30 0.6058
416.40 0.6063
416.50 0.6068
416.60 0.6073
416.70 0.6078
416.80 0.6083
416.90 0.6088
417.00 0.6093
417.10 0.6098
417.20 0.6103
417.30 0.6108
417.40 0.6113
417.50 0.6118
417.60 0.6123
417.70 0.6128
417.80 0.6133
417.90 0.6138
418.00 0.6143
418.10 0.6148
418.20 0.6153
418.30 0.6158
418.40 0.6163
418.50 0.6168
418.60 0.6173
418.70 0.6178
418.80 0.6183
418.90 0.6188
419.00 0.6193
419.10 0.6198
419.20 0.6203
419.30 0.6208
419.40 0.6213
419.50 0.6218
419.60 0.6223
419.70 0.6228
419.80 0.6233
419.90 0.6238
420.00 0.6243
420.10 0.6248
420.20 0.6253
420.30 0.6258
420.40 0.6263
420.50 0.6268
420.60 0.6273
420.70 0.6278
420.80 0.6283
420.90 0.6288
421.00 0.6293
421.10 0.6298
421.20 0.6303
421.30 0.6308
421.40 0.6313
421.50 0.6318
421.60 0.6323
421.70 0.6328
421.80 0.6333
421.90 0.6338
422.00 0.6343
422.10 0.6348
422.20 0.6353
422.30 0.6358
422.40 0.6363
422.50 0.6369
422.60 0.6373
422.70 0.6378
422.80 0.6383
422.90 0.6388
423.00 0.6393
423.10 0.6398
423.20 0.6404
423.30 0.6408
423.40 0.6413
423.50 0.6418
423.60 0.6424
423.70 0.6429
423.80 0.6434
423.90 0.6438
424.00 0.6444
424.10 0.6449
424.20 0.6454
424.30 0.6459
424.40 0.6464
424.50 0.6469
424.60 0.6474
424.70 0.6479
424.80 0.6484
424.90 0.6489
425.00 0.6494
425.10 0.6499
425.20 0.6504
425.30 0.6509
425.40 0.6514
425.50 0.6519
425.60 0.6524
425.70 0.6529
425.80 0.6534
425.90 0.6539
426.00 0.6544
426.10 0.6549
426.20 0.6554
426.30 0.6559
426.40 0.6564
426.50 0.6569
426.60 0.6574
426.70 0.6579
426.80 0.6584
426.90 0.6589
427.00 0.6594
427.10 0.6599
427.20 0.6604
427.30 0.6609
427.40 0.6614
427.50 0.6619
427.60 0.6624
427.70 0.6629
427.80 0.6634
427.90 0.6639
428.00 0.6644
428.10 0.6649
428.20 0.6654
428.30 0.6659
428.40 0.6664
428.50 0.6669
428.60 0.6674
428.70 0.6679
428.80 0.6684
428.90 0.6689
429.00 0.6694
429.10 0.6699
429.20 0.6704
429.30 0.6709
429.40 0.6714
429.50 0.6719
429.60 0.6724
429.70 0.6729
429.80 0.6734
429.90 0.6739
430.00 0.6744
430.10 0.6748
430.20 0.6753
430.30 0.6759
430.40 0.6764
430.50 0.6768
430.60 0.6773
430.70 0.6778
430.80 0.6783
430.90 0.6788
431.00 0.6793
431.10 0.6798
431.20 0.6803
431.30 0.6808
431.40 0.6813
431.50 0.6818
431.60 0.6823
431.70 0.6828
431.80 0.6833
431.90 0.6838
432.00 0.6843
432.10 0.6848
432.20 0.6853
432.30 0.6858
432.40 0.6863
432.50 0.6868
432.60 0.6873
432.70 0.6878
432.80 0.6883
432.90 0.6888
433.00 0.6893
433.10 0.6898
433.20 0.6903
433.30 0.6908
433.40 0.6913
433.50 0.6918
433.60 0.6923
433.70 0.6928
433.80 0.6933
433.90 0.6937
434.00 0.6942
434.10 0.6947
434.20 0.6952
434.30 0.6957
434.40 0.6963
434.50 0.6968
434.60 0.6973
434.70 0.6977
434.80 0.6982
434.90 0.6987
435.00 0.6992
435.10 0.6997
435.20 0.7002
435.30 0.7007
435.40 0.7012
435.50 0.7017
435.60 0.7022
435.70 0.7027
435.80 0.7032
435.90 0.7037
436.00 0.7042
436.10 0.7047
436.20 0.7052
436.30 0.7057
436.40 0.7062
436.50 0.7067
436.60 0.7072
436.70 0.7077
436.80 0.7082
436.90 0.7087
437.00 0.7092
437.10 0.7097
437.20 0.7102
437.30 0.7107
437.40 0.7112
437.50 0.7116
437.60 0.7121
437.70 0.7126
437.80 0.7131
437.90 0.7136
438.00 0.7141
438.10 0.7146
438.20 0.7151
438.30 0.7156
438.40 0.7161
438.50 0.7166
438.60 0.7171
438.70 0.7176
438.80 0.7181
438.90 0.7186
439.00 0.7191
439.10 0.7196
439.20 0.7201
439.30 0.7205
439.40 0.721
439.50 0.7215
439.60 0.722
439.70 0.7225
439.80 0.723
439.90 0.7235
440.00 0.724
440.10 0.7245
440.20 0.725
440.30 0.7255
440.40 0.726
440.50 0.7265
440.60 0.727
440.70 0.7275
440.80 0.7279
440.90 0.7284
441.00 0.7289
441.10 0.7294
441.20 0.7299
441.30 0.7304
441.40 0.7309
441.50 0.7314
441.60 0.7319
441.70 0.7324
441.80 0.7329
441.90 0.7334
442.00 0.7339
442.10 0.7344
442.20 0.7349
442.30 0.7353
442.40 0.7358
442.50 0.7363
442.60 0.7368
442.70 0.7373
442.80 0.7378
