# Version 2.1 - nm, norm@500 to 1, cut digits, bergeron_4750_90.dat_4750
# Wavelength(nm)  Flambda(ergs/cm^s/s/nm)
300.00 0.3188
300.10 0.3192
300.20 0.3197
300.30 0.3201
300.40 0.3205
300.50 0.321
300.60 0.3214
300.70 0.3218
300.80 0.3223
300.90 0.3227
301.00 0.3231
301.10 0.3236
301.20 0.324
301.30 0.3244
301.40 0.3249
301.50 0.3253
301.60 0.3257
301.70 0.3261
301.80 0.3266
301.90 0.327
302.00 0.3274
302.10 0.3279
302.20 0.3283
302.30 0.3287
302.40 0.3292
302.50 0.3296
302.60 0.33
302.70 0.3305
302.80 0.3309
302.90 0.3313
303.00 0.3318
303.10 0.3322
303.20 0.3326
303.30 0.3331
303.40 0.3335
303.50 0.3339
303.60 0.3344
303.70 0.3348
303.80 0.3352
303.90 0.3356
304.00 0.3361
304.10 0.3365
304.20 0.337
304.30 0.3374
304.40 0.3378
304.50 0.3383
304.60 0.3387
304.70 0.3391
304.80 0.3396
304.90 0.34
305.00 0.3405
305.10 0.3409
305.20 0.3413
305.30 0.3418
305.40 0.3422
305.50 0.3426
305.60 0.3431
305.70 0.3435
305.80 0.3439
305.90 0.3443
306.00 0.3448
306.10 0.3452
306.20 0.3457
306.30 0.3461
306.40 0.3465
306.50 0.347
306.60 0.3474
306.70 0.3479
306.80 0.3483
306.90 0.3487
307.00 0.3492
307.10 0.3496
307.20 0.3501
307.30 0.3505
307.40 0.3509
307.50 0.3514
307.60 0.3518
307.70 0.3522
307.80 0.3527
307.90 0.3531
308.00 0.3535
308.10 0.354
308.20 0.3544
308.30 0.3549
308.40 0.3553
308.50 0.3557
308.60 0.3562
308.70 0.3566
308.80 0.3571
308.90 0.3575
309.00 0.3579
309.10 0.3584
309.20 0.3588
309.30 0.3593
309.40 0.3597
309.50 0.3601
309.60 0.3606
309.70 0.361
309.80 0.3614
309.90 0.3619
310.00 0.3623
310.10 0.3628
310.20 0.3632
310.30 0.3637
310.40 0.3641
310.50 0.3645
310.60 0.365
310.70 0.3654
310.80 0.3659
310.90 0.3663
311.00 0.3668
311.10 0.3672
311.20 0.3677
311.30 0.3681
311.40 0.3685
311.50 0.369
311.60 0.3694
311.70 0.3698
311.80 0.3703
311.90 0.3707
312.00 0.3712
312.10 0.3716
312.20 0.372
312.30 0.3725
312.40 0.3729
312.50 0.3734
312.60 0.3738
312.70 0.3743
312.80 0.3747
312.90 0.3752
313.00 0.3756
313.10 0.376
313.20 0.3765
313.30 0.3769
313.40 0.3774
313.50 0.3778
313.60 0.3783
313.70 0.3787
313.80 0.3791
313.90 0.3796
314.00 0.38
314.10 0.3805
314.20 0.3809
314.30 0.3814
314.40 0.3818
314.50 0.3823
314.60 0.3827
314.70 0.3831
314.80 0.3836
314.90 0.384
315.00 0.3845
315.10 0.3849
315.20 0.3854
315.30 0.3858
315.40 0.3863
315.50 0.3867
315.60 0.3871
315.70 0.3876
315.80 0.388
315.90 0.3885
316.00 0.3889
316.10 0.3894
316.20 0.3898
316.30 0.3903
316.40 0.3907
316.50 0.3912
316.60 0.3916
316.70 0.392
316.80 0.3925
316.90 0.3929
317.00 0.3934
317.10 0.3938
317.20 0.3943
317.30 0.3947
317.40 0.3952
317.50 0.3956
317.60 0.3961
317.70 0.3965
317.80 0.3969
317.90 0.3974
318.00 0.3978
318.10 0.3983
318.20 0.3987
318.30 0.3992
318.40 0.3996
318.50 0.4001
318.60 0.4005
318.70 0.401
318.80 0.4014
318.90 0.4019
319.00 0.4023
319.10 0.4028
319.20 0.4032
319.30 0.4037
319.40 0.4041
319.50 0.4045
319.60 0.405
319.70 0.4054
319.80 0.4059
319.90 0.4063
320.00 0.4068
320.10 0.4072
320.20 0.4077
320.30 0.4081
320.40 0.4086
320.50 0.409
320.60 0.4095
320.70 0.4099
320.80 0.4104
320.90 0.4108
321.00 0.4113
321.10 0.4117
321.20 0.4122
321.30 0.4126
321.40 0.4131
321.50 0.4135
321.60 0.414
321.70 0.4144
321.80 0.4148
321.90 0.4153
322.00 0.4157
322.10 0.4162
322.20 0.4166
322.30 0.4171
322.40 0.4175
322.50 0.418
322.60 0.4184
322.70 0.4189
322.80 0.4193
322.90 0.4198
323.00 0.4202
323.10 0.4207
323.20 0.4211
323.30 0.4216
323.40 0.422
323.50 0.4225
323.60 0.4229
323.70 0.4234
323.80 0.4238
323.90 0.4243
324.00 0.4247
324.10 0.4252
324.20 0.4256
324.30 0.4261
324.40 0.4265
324.50 0.427
324.60 0.4274
324.70 0.4279
324.80 0.4283
324.90 0.4288
325.00 0.4292
325.10 0.4297
325.20 0.4301
325.30 0.4306
325.40 0.431
325.50 0.4315
325.60 0.4319
325.70 0.4324
325.80 0.4328
325.90 0.4333
326.00 0.4337
326.10 0.4341
326.20 0.4346
326.30 0.4351
326.40 0.4355
326.50 0.436
326.60 0.4364
326.70 0.4369
326.80 0.4373
326.90 0.4378
327.00 0.4382
327.10 0.4387
327.20 0.4391
327.30 0.4396
327.40 0.44
327.50 0.4405
327.60 0.4409
327.70 0.4414
327.80 0.4418
327.90 0.4422
328.00 0.4427
328.10 0.4431
328.20 0.4436
328.30 0.444
328.40 0.4445
328.50 0.445
328.60 0.4454
328.70 0.4459
328.80 0.4463
328.90 0.4468
329.00 0.4472
329.10 0.4477
329.20 0.4481
329.30 0.4486
329.40 0.449
329.50 0.4495
329.60 0.4499
329.70 0.4503
329.80 0.4508
329.90 0.4512
330.00 0.4517
330.10 0.4521
330.20 0.4526
330.30 0.453
330.40 0.4535
330.50 0.454
330.60 0.4544
330.70 0.4549
330.80 0.4553
330.90 0.4558
331.00 0.4562
331.10 0.4567
331.20 0.4571
331.30 0.4576
331.40 0.458
331.50 0.4585
331.60 0.4589
331.70 0.4593
331.80 0.4598
331.90 0.4602
332.00 0.4607
332.10 0.4611
332.20 0.4616
332.30 0.462
332.40 0.4625
332.50 0.463
332.60 0.4634
332.70 0.4639
332.80 0.4643
332.90 0.4648
333.00 0.4652
333.10 0.4657
333.20 0.4661
333.30 0.4666
333.40 0.467
333.50 0.4674
333.60 0.4679
333.70 0.4683
333.80 0.4688
333.90 0.4692
334.00 0.4697
334.10 0.4701
334.20 0.4706
334.30 0.471
334.40 0.4715
334.50 0.4719
334.60 0.4724
334.70 0.4728
334.80 0.4733
334.90 0.4737
335.00 0.4742
335.10 0.4746
335.20 0.4751
335.30 0.4755
335.40 0.476
335.50 0.4764
335.60 0.4769
335.70 0.4773
335.80 0.4778
335.90 0.4782
336.00 0.4787
336.10 0.4791
336.20 0.4796
336.30 0.48
336.40 0.4805
336.50 0.4809
336.60 0.4814
336.70 0.4818
336.80 0.4823
336.90 0.4827
337.00 0.4832
337.10 0.4836
337.20 0.4841
337.30 0.4845
337.40 0.485
337.50 0.4854
337.60 0.4859
337.70 0.4863
337.80 0.4868
337.90 0.4872
338.00 0.4876
338.10 0.4881
338.20 0.4886
338.30 0.489
338.40 0.4895
338.50 0.4899
338.60 0.4904
338.70 0.4908
338.80 0.4913
338.90 0.4917
339.00 0.4922
339.10 0.4926
339.20 0.4931
339.30 0.4935
339.40 0.4939
339.50 0.4944
339.60 0.4948
339.70 0.4953
339.80 0.4957
339.90 0.4962
340.00 0.4966
340.10 0.4971
340.20 0.4975
340.30 0.498
340.40 0.4984
340.50 0.4989
340.60 0.4993
340.70 0.4998
340.80 0.5002
340.90 0.5007
341.00 0.5011
341.10 0.5016
341.20 0.502
341.30 0.5025
341.40 0.5029
341.50 0.5033
341.60 0.5038
341.70 0.5042
341.80 0.5047
341.90 0.5051
342.00 0.5056
342.10 0.506
342.20 0.5065
342.30 0.5069
342.40 0.5074
342.50 0.5078
342.60 0.5083
342.70 0.5087
342.80 0.5092
342.90 0.5096
343.00 0.5101
343.10 0.5105
343.20 0.5109
343.30 0.5114
343.40 0.5118
343.50 0.5123
343.60 0.5127
343.70 0.5132
343.80 0.5136
343.90 0.514
344.00 0.5145
344.10 0.5149
344.20 0.5154
344.30 0.5158
344.40 0.5163
344.50 0.5167
344.60 0.5172
344.70 0.5176
344.80 0.5181
344.90 0.5185
345.00 0.519
345.10 0.5194
345.20 0.5199
345.30 0.5203
345.40 0.5208
345.50 0.5212
345.60 0.5216
345.70 0.5221
345.80 0.5225
345.90 0.523
346.00 0.5234
346.10 0.5239
346.20 0.5243
346.30 0.5248
346.40 0.5252
346.50 0.5256
346.60 0.5261
346.70 0.5265
346.80 0.527
346.90 0.5274
347.00 0.5279
347.10 0.5283
347.20 0.5288
347.30 0.5292
347.40 0.5296
347.50 0.5301
347.60 0.5305
347.70 0.531
347.80 0.5314
347.90 0.5318
348.00 0.5323
348.10 0.5327
348.20 0.5332
348.30 0.5336
348.40 0.5341
348.50 0.5345
348.60 0.535
348.70 0.5354
348.80 0.5359
348.90 0.5363
349.00 0.5367
349.10 0.5372
349.20 0.5376
349.30 0.5381
349.40 0.5385
349.50 0.5389
349.60 0.5394
349.70 0.5398
349.80 0.5403
349.90 0.5407
350.00 0.5411
350.10 0.5416
350.20 0.542
350.30 0.5425
350.40 0.5429
350.50 0.5434
350.60 0.5438
350.70 0.5442
350.80 0.5447
350.90 0.5451
351.00 0.5456
351.10 0.546
351.20 0.5465
351.30 0.5469
351.40 0.5473
351.50 0.5478
351.60 0.5482
351.70 0.5486
351.80 0.5491
351.90 0.5495
352.00 0.55
352.10 0.5504
352.20 0.5508
352.30 0.5513
352.40 0.5517
352.50 0.5522
352.60 0.5526
352.70 0.5531
352.80 0.5535
352.90 0.5539
353.00 0.5544
353.10 0.5548
353.20 0.5553
353.30 0.5557
353.40 0.5561
353.50 0.5566
353.60 0.557
353.70 0.5574
353.80 0.5579
353.90 0.5583
354.00 0.5587
354.10 0.5592
354.20 0.5596
354.30 0.5601
354.40 0.5605
354.50 0.561
354.60 0.5614
354.70 0.5618
354.80 0.5623
354.90 0.5627
355.00 0.5631
355.10 0.5636
355.20 0.564
355.30 0.5645
355.40 0.5649
355.50 0.5653
355.60 0.5658
355.70 0.5662
355.80 0.5666
355.90 0.5671
356.00 0.5675
356.10 0.5679
356.20 0.5684
356.30 0.5688
356.40 0.5693
356.50 0.5697
356.60 0.5701
356.70 0.5706
356.80 0.571
356.90 0.5714
357.00 0.5719
357.10 0.5723
357.20 0.5727
357.30 0.5732
357.40 0.5736
357.50 0.5741
357.60 0.5745
357.70 0.5749
357.80 0.5753
357.90 0.5758
358.00 0.5762
358.10 0.5766
358.20 0.5771
358.30 0.5775
358.40 0.578
358.50 0.5784
358.60 0.5788
358.70 0.5793
358.80 0.5797
358.90 0.5801
359.00 0.5806
359.10 0.581
359.20 0.5814
359.30 0.5819
359.40 0.5823
359.50 0.5827
359.60 0.5832
359.70 0.5836
359.80 0.584
359.90 0.5844
360.00 0.5849
360.10 0.5853
360.20 0.5857
360.30 0.5862
360.40 0.5866
360.50 0.5871
360.60 0.5875
360.70 0.5879
360.80 0.5884
360.90 0.5888
361.00 0.5892
361.10 0.5896
361.20 0.5901
361.30 0.5905
361.40 0.5909
361.50 0.5914
361.60 0.5918
361.70 0.5922
361.80 0.5927
361.90 0.5931
362.00 0.5935
362.10 0.5939
362.20 0.5944
362.30 0.5948
362.40 0.5952
362.50 0.5957
362.60 0.5961
362.70 0.5965
362.80 0.5969
362.90 0.5974
363.00 0.5978
363.10 0.5982
363.20 0.5987
363.30 0.5991
363.40 0.5995
363.50 0.5999
363.60 0.6004
363.70 0.6008
363.80 0.6012
363.90 0.6017
364.00 0.6021
364.10 0.6025
364.20 0.6029
364.30 0.6034
364.40 0.6038
364.50 0.6042
364.60 0.6046
364.70 0.6051
364.80 0.6055
364.90 0.6059
365.00 0.6064
365.10 0.6068
365.20 0.6072
365.30 0.6076
365.40 0.6081
365.50 0.6085
365.60 0.6089
365.70 0.6093
365.80 0.6098
365.90 0.6102
366.00 0.6106
366.10 0.611
366.20 0.6115
366.30 0.6119
366.40 0.6123
366.50 0.6127
366.60 0.6132
366.70 0.6136
366.80 0.614
366.90 0.6144
367.00 0.6149
367.10 0.6153
367.20 0.6157
367.30 0.6161
367.40 0.6166
367.50 0.617
367.60 0.6174
367.70 0.6178
367.80 0.6182
367.90 0.6187
368.00 0.6191
368.10 0.6195
368.20 0.6199
368.30 0.6204
368.40 0.6208
368.50 0.6212
368.60 0.6216
368.70 0.6221
368.80 0.6225
368.90 0.6229
369.00 0.6233
369.10 0.6237
369.20 0.6242
369.30 0.6246
369.40 0.625
369.50 0.6254
369.60 0.6258
369.70 0.6263
369.80 0.6267
369.90 0.6271
370.00 0.6275
370.10 0.6279
370.20 0.6283
370.30 0.6288
370.40 0.6292
370.50 0.6296
370.60 0.63
370.70 0.6305
370.80 0.6309
370.90 0.6313
371.00 0.6317
371.10 0.6321
371.20 0.6325
371.30 0.633
371.40 0.6334
371.50 0.6338
371.60 0.6342
371.70 0.6346
371.80 0.635
371.90 0.6355
372.00 0.6359
372.10 0.6363
372.20 0.6367
372.30 0.6371
372.40 0.6375
372.50 0.638
372.60 0.6384
372.70 0.6388
372.80 0.6392
372.90 0.6396
373.00 0.64
373.10 0.6405
373.20 0.6409
373.30 0.6413
373.40 0.6417
373.50 0.6421
373.60 0.6425
373.70 0.6429
373.80 0.6434
373.90 0.6438
374.00 0.6442
374.10 0.6446
374.20 0.645
374.30 0.6454
374.40 0.6458
374.50 0.6463
374.60 0.6467
374.70 0.6471
374.80 0.6475
374.90 0.6479
375.00 0.6483
375.10 0.6487
375.20 0.6492
375.30 0.6496
375.40 0.65
375.50 0.6504
375.60 0.6508
375.70 0.6512
375.80 0.6516
375.90 0.652
376.00 0.6524
376.10 0.6528
376.20 0.6533
376.30 0.6537
376.40 0.6541
376.50 0.6545
376.60 0.6549
376.70 0.6553
376.80 0.6557
376.90 0.6561
377.00 0.6565
377.10 0.6569
377.20 0.6573
377.30 0.6578
377.40 0.6582
377.50 0.6586
377.60 0.659
377.70 0.6594
377.80 0.6598
377.90 0.6602
378.00 0.6606
378.10 0.661
378.20 0.6614
378.30 0.6618
378.40 0.6622
378.50 0.6626
378.60 0.6631
378.70 0.6635
378.80 0.6639
378.90 0.6643
379.00 0.6647
379.10 0.6651
379.20 0.6655
379.30 0.6659
379.40 0.6663
379.50 0.6667
379.60 0.6671
379.70 0.6675
379.80 0.6679
379.90 0.6683
380.00 0.6687
380.10 0.6691
380.20 0.6695
380.30 0.6699
380.40 0.6703
380.50 0.6708
380.60 0.6712
380.70 0.6716
380.80 0.672
380.90 0.6724
381.00 0.6728
381.10 0.6732
381.20 0.6736
381.30 0.674
381.40 0.6744
381.50 0.6748
381.60 0.6752
381.70 0.6756
381.80 0.676
381.90 0.6764
382.00 0.6768
382.10 0.6772
382.20 0.6776
382.30 0.678
382.40 0.6784
382.50 0.6788
382.60 0.6792
382.70 0.6796
382.80 0.68
382.90 0.6804
383.00 0.6808
383.10 0.6812
383.20 0.6816
383.30 0.682
383.40 0.6824
383.50 0.6828
383.60 0.6832
383.70 0.6836
383.80 0.684
383.90 0.6844
384.00 0.6848
384.10 0.6852
384.20 0.6856
384.30 0.6859
384.40 0.6863
384.50 0.6867
384.60 0.6871
384.70 0.6875
384.80 0.6879
384.90 0.6883
385.00 0.6887
385.10 0.6891
385.20 0.6895
385.30 0.6899
385.40 0.6903
385.50 0.6907
385.60 0.6911
385.70 0.6915
385.80 0.6919
385.90 0.6923
386.00 0.6927
386.10 0.6931
386.20 0.6935
386.30 0.6938
386.40 0.6942
386.50 0.6946
386.60 0.695
386.70 0.6954
386.80 0.6958
386.90 0.6962
387.00 0.6966
387.10 0.697
387.20 0.6974
387.30 0.6978
387.40 0.6982
387.50 0.6986
387.60 0.6989
387.70 0.6993
387.80 0.6997
387.90 0.7001
388.00 0.7005
388.10 0.7009
388.20 0.7013
388.30 0.7017
388.40 0.7021
388.50 0.7025
388.60 0.7028
388.70 0.7032
388.80 0.7036
388.90 0.704
389.00 0.7044
389.10 0.7048
389.20 0.7052
389.30 0.7056
389.40 0.7059
389.50 0.7063
389.60 0.7067
389.70 0.7071
389.80 0.7075
389.90 0.7079
390.00 0.7083
390.10 0.7087
390.20 0.709
390.30 0.7094
390.40 0.7098
390.50 0.7102
390.60 0.7106
390.70 0.711
390.80 0.7114
390.90 0.7117
391.00 0.7121
391.10 0.7125
391.20 0.7129
391.30 0.7133
391.40 0.7137
391.50 0.714
391.60 0.7144
391.70 0.7148
391.80 0.7152
391.90 0.7156
392.00 0.716
392.10 0.7164
392.20 0.7167
392.30 0.7171
392.40 0.7175
392.50 0.7179
392.60 0.7183
392.70 0.7186
392.80 0.719
392.90 0.7194
393.00 0.7198
393.10 0.7202
393.20 0.7205
393.30 0.7209
393.40 0.7213
393.50 0.7217
393.60 0.7221
393.70 0.7224
393.80 0.7228
393.90 0.7232
394.00 0.7236
394.10 0.724
394.20 0.7243
394.30 0.7247
394.40 0.7251
394.50 0.7255
394.60 0.7258
394.70 0.7262
394.80 0.7266
394.90 0.727
395.00 0.7274
395.10 0.7277
395.20 0.7281
395.30 0.7285
395.40 0.7289
395.50 0.7292
395.60 0.7296
395.70 0.73
395.80 0.7304
395.90 0.7307
396.00 0.7311
396.10 0.7315
396.20 0.7319
396.30 0.7322
396.40 0.7326
396.50 0.733
396.60 0.7334
396.70 0.7337
396.80 0.7341
396.90 0.7345
397.00 0.7349
397.10 0.7352
397.20 0.7356
397.30 0.736
397.40 0.7363
397.50 0.7367
397.60 0.7371
397.70 0.7375
397.80 0.7378
397.90 0.7382
398.00 0.7386
398.10 0.7389
398.20 0.7393
398.30 0.7397
398.40 0.7401
398.50 0.7404
398.60 0.7408
398.70 0.7412
398.80 0.7415
398.90 0.7419
399.00 0.7423
399.10 0.7426
399.20 0.743
399.30 0.7434
399.40 0.7437
399.50 0.7441
399.60 0.7445
399.70 0.7448
399.80 0.7452
399.90 0.7456
400.00 0.7459
400.10 0.7463
400.20 0.7467
400.30 0.747
400.40 0.7474
400.50 0.7478
400.60 0.7481
400.70 0.7485
400.80 0.7489
400.90 0.7492
401.00 0.7496
401.10 0.75
401.20 0.7503
401.30 0.7507
401.40 0.7511
401.50 0.7514
401.60 0.7518
401.70 0.7522
401.80 0.7525
401.90 0.7529
402.00 0.7532
402.10 0.7536
402.20 0.754
402.30 0.7543
402.40 0.7547
402.50 0.7551
402.60 0.7554
402.70 0.7558
402.80 0.7561
402.90 0.7565
403.00 0.7569
403.10 0.7572
403.20 0.7576
403.30 0.7579
403.40 0.7583
403.50 0.7587
403.60 0.759
403.70 0.7594
403.80 0.7597
403.90 0.7601
404.00 0.7604
404.10 0.7608
404.20 0.7612
404.30 0.7616
404.40 0.7619
404.50 0.7622
404.60 0.7626
404.70 0.763
404.80 0.7633
404.90 0.7637
405.00 0.764
405.10 0.7644
405.20 0.7647
405.30 0.7651
405.40 0.7655
405.50 0.7658
405.60 0.7662
405.70 0.7665
405.80 0.7669
405.90 0.7672
406.00 0.7676
406.10 0.768
406.20 0.7683
406.30 0.7686
406.40 0.769
406.50 0.7694
406.60 0.7697
406.70 0.7701
406.80 0.7704
406.90 0.7708
407.00 0.7711
407.10 0.7715
407.20 0.7718
407.30 0.7722
407.40 0.7725
407.50 0.7729
407.60 0.7732
407.70 0.7736
407.80 0.7739
407.90 0.7743
408.00 0.7746
408.10 0.775
408.20 0.7753
408.30 0.7757
408.40 0.776
408.50 0.7764
408.60 0.7767
408.70 0.7771
408.80 0.7774
408.90 0.7778
409.00 0.7781
409.10 0.7785
409.20 0.7788
409.30 0.7792
409.40 0.7795
409.50 0.7798
409.60 0.7802
409.70 0.7805
409.80 0.7809
409.90 0.7813
410.00 0.7816
410.10 0.7819
410.20 0.7822
410.30 0.7826
410.40 0.783
410.50 0.7833
410.60 0.7837
410.70 0.784
410.80 0.7844
410.90 0.7847
411.00 0.785
411.10 0.7853
411.20 0.7857
411.30 0.786
411.40 0.7864
411.50 0.7867
411.60 0.7871
411.70 0.7874
411.80 0.7878
411.90 0.7881
412.00 0.7885
412.10 0.7888
412.20 0.7891
412.30 0.7894
412.40 0.7898
412.50 0.7901
412.60 0.7905
412.70 0.7908
412.80 0.7912
412.90 0.7915
413.00 0.7919
413.10 0.7922
413.20 0.7925
413.30 0.7929
413.40 0.7932
413.50 0.7936
413.60 0.7939
413.70 0.7942
413.80 0.7946
413.90 0.7949
414.00 0.7953
414.10 0.7956
414.20 0.7959
414.30 0.7963
414.40 0.7966
414.50 0.7969
414.60 0.7973
414.70 0.7976
414.80 0.7979
414.90 0.7983
415.00 0.7986
415.10 0.7989
415.20 0.7993
415.30 0.7996
415.40 0.7999
415.50 0.8003
415.60 0.8006
415.70 0.8009
415.80 0.8013
415.90 0.8016
416.00 0.8019
416.10 0.8023
416.20 0.8026
416.30 0.8029
416.40 0.8032
416.50 0.8036
416.60 0.8039
416.70 0.8043
416.80 0.8046
416.90 0.805
417.00 0.8053
417.10 0.8056
417.20 0.8059
417.30 0.8063
417.40 0.8066
417.50 0.8069
417.60 0.8072
417.70 0.8075
417.80 0.8079
417.90 0.8082
418.00 0.8085
418.10 0.8089
418.20 0.8092
418.30 0.8095
418.40 0.8099
418.50 0.8102
418.60 0.8105
418.70 0.8108
418.80 0.8111
418.90 0.8115
419.00 0.8118
419.10 0.8122
419.20 0.8125
419.30 0.8128
419.40 0.8131
419.50 0.8134
419.60 0.8137
419.70 0.8141
419.80 0.8144
419.90 0.8148
420.00 0.8151
420.10 0.8154
420.20 0.8157
420.30 0.816
420.40 0.8163
420.50 0.8167
420.60 0.817
420.70 0.8173
420.80 0.8176
420.90 0.818
421.00 0.8183
421.10 0.8186
421.20 0.8189
421.30 0.8193
421.40 0.8196
421.50 0.8199
421.60 0.8202
421.70 0.8205
421.80 0.8209
421.90 0.8212
422.00 0.8215
422.10 0.8218
422.20 0.8222
422.30 0.8225
422.40 0.8228
422.50 0.8231
422.60 0.8234
422.70 0.8237
422.80 0.824
422.90 0.8244
423.00 0.8247
423.10 0.825
423.20 0.8253
423.30 0.8256
423.40 0.8259
423.50 0.8262
423.60 0.8266
423.70 0.8269
423.80 0.8272
423.90 0.8275
424.00 0.8278
424.10 0.8281
424.20 0.8285
424.30 0.8288
424.40 0.8291
424.50 0.8294
424.60 0.8297
424.70 0.83
424.80 0.8303
424.90 0.8307
425.00 0.831
425.10 0.8313
425.20 0.8316
425.30 0.8319
425.40 0.8322
425.50 0.8325
425.60 0.8328
425.70 0.8331
425.80 0.8334
425.90 0.8338
426.00 0.8341
426.10 0.8344
426.20 0.8347
426.30 0.835
426.40 0.8353
426.50 0.8356
426.60 0.8359
426.70 0.8362
426.80 0.8365
426.90 0.8368
427.00 0.8372
427.10 0.8375
427.20 0.8378
427.30 0.8381
427.40 0.8384
427.50 0.8387
427.60 0.839
427.70 0.8393
427.80 0.8396
427.90 0.8399
428.00 0.8402
428.10 0.8405
428.20 0.8409
428.30 0.8411
428.40 0.8414
428.50 0.8418
428.60 0.8421
428.70 0.8424
428.80 0.8427
428.90 0.843
429.00 0.8433
429.10 0.8436
429.20 0.8439
429.30 0.8442
429.40 0.8445
429.50 0.8448
429.60 0.8451
429.70 0.8454
429.80 0.8457
429.90 0.846
430.00 0.8463
430.10 0.8466
430.20 0.8469
430.30 0.8472
430.40 0.8475
430.50 0.8478
430.60 0.8481
430.70 0.8484
430.80 0.8487
430.90 0.849
431.00 0.8493
431.10 0.8496
431.20 0.8498
431.30 0.8502
431.40 0.8505
431.50 0.8508
431.60 0.8511
431.70 0.8513
431.80 0.8517
431.90 0.852
432.00 0.8523
432.10 0.8525
432.20 0.8528
432.30 0.8531
432.40 0.8534
432.50 0.8537
432.60 0.854
432.70 0.8543
432.80 0.8546
432.90 0.8549
433.00 0.8552
433.10 0.8555
433.20 0.8558
433.30 0.8561
433.40 0.8564
433.50 0.8567
433.60 0.8569
433.70 0.8572
433.80 0.8575
433.90 0.8578
434.00 0.8581
434.10 0.8584
434.20 0.8587
434.30 0.859
434.40 0.8593
434.50 0.8595
434.60 0.8598
434.70 0.8601
434.80 0.8604
434.90 0.8607
435.00 0.861
435.10 0.8613
435.20 0.8616
435.30 0.8619
435.40 0.8622
435.50 0.8625
435.60 0.8628
435.70 0.863
435.80 0.8633
435.90 0.8636
436.00 0.8639
436.10 0.8642
436.20 0.8645
436.30 0.8647
436.40 0.865
436.50 0.8653
436.60 0.8656
436.70 0.8659
436.80 0.8662
436.90 0.8665
437.00 0.8668
437.10 0.867
437.20 0.8673
437.30 0.8676
437.40 0.8679
437.50 0.8682
437.60 0.8684
437.70 0.8687
437.80 0.869
437.90 0.8693
438.00 0.8696
438.10 0.8699
438.20 0.8702
438.30 0.8704
438.40 0.8707
438.50 0.871
438.60 0.8713
438.70 0.8716
438.80 0.8719
438.90 0.8721
439.00 0.8724
439.10 0.8727
439.20 0.873
439.30 0.8732
439.40 0.8735
439.50 0.8738
439.60 0.8741
439.70 0.8744
439.80 0.8747
439.90 0.8749
440.00 0.8752
440.10 0.8755
440.20 0.8757
440.30 0.876
440.40 0.8763
440.50 0.8766
440.60 0.8769
440.70 0.8771
440.80 0.8774
440.90 0.8777
441.00 0.8779
441.10 0.8782
441.20 0.8785
441.30 0.8788
441.40 0.8791
441.50 0.8793
441.60 0.8796
441.70 0.8799
441.80 0.8802
441.90 0.8804
442.00 0.8807
442.10 0.881
442.20 0.8812
442.30 0.8815
442.40 0.8818
442.50 0.882
442.60 0.8823
442.70 0.8826
442.80 0.8829
442.90 0.8831
