# Version 2.1 - nm, norm@500 to 1, cut digits, bergeron_13000_80.dat_13000
# Wavelength(nm)  Flambda(ergs/cm^s/s/nm)
300.00 1.954
300.10 1.952
300.20 1.951
300.30 1.95
300.40 1.948
300.50 1.947
300.60 1.946
300.70 1.944
300.80 1.943
300.90 1.942
301.00 1.94
301.10 1.939
301.20 1.938
301.30 1.936
301.40 1.935
301.50 1.934
301.60 1.932
301.70 1.931
301.80 1.93
301.90 1.929
302.00 1.927
302.10 1.926
302.20 1.925
302.30 1.923
302.40 1.922
302.50 1.921
302.60 1.919
302.70 1.918
302.80 1.917
302.90 1.915
303.00 1.914
303.10 1.913
303.20 1.912
303.30 1.91
303.40 1.909
303.50 1.908
303.60 1.906
303.70 1.905
303.80 1.904
303.90 1.903
304.00 1.901
304.10 1.9
304.20 1.899
304.30 1.897
304.40 1.896
304.50 1.895
304.60 1.894
304.70 1.892
304.80 1.891
304.90 1.89
305.00 1.888
305.10 1.887
305.20 1.886
305.30 1.885
305.40 1.883
305.50 1.882
305.60 1.881
305.70 1.88
305.80 1.878
305.90 1.877
306.00 1.876
306.10 1.874
306.20 1.873
306.30 1.872
306.40 1.871
306.50 1.869
306.60 1.868
306.70 1.867
306.80 1.866
306.90 1.864
307.00 1.863
307.10 1.862
307.20 1.861
307.30 1.859
307.40 1.858
307.50 1.857
307.60 1.856
307.70 1.854
307.80 1.853
307.90 1.852
308.00 1.851
308.10 1.849
308.20 1.848
308.30 1.847
308.40 1.846
308.50 1.844
308.60 1.843
308.70 1.842
308.80 1.841
308.90 1.84
309.00 1.838
309.10 1.837
309.20 1.836
309.30 1.835
309.40 1.833
309.50 1.832
309.60 1.831
309.70 1.83
309.80 1.828
309.90 1.827
310.00 1.826
310.10 1.825
310.20 1.824
310.30 1.822
310.40 1.821
310.50 1.82
310.60 1.819
310.70 1.818
310.80 1.816
310.90 1.815
311.00 1.814
311.10 1.813
311.20 1.811
311.30 1.81
311.40 1.809
311.50 1.808
311.60 1.807
311.70 1.805
311.80 1.804
311.90 1.803
312.00 1.802
312.10 1.801
312.20 1.799
312.30 1.798
312.40 1.797
312.50 1.796
312.60 1.795
312.70 1.793
312.80 1.792
312.90 1.791
313.00 1.79
313.10 1.789
313.20 1.787
313.30 1.786
313.40 1.785
313.50 1.784
313.60 1.783
313.70 1.782
313.80 1.78
313.90 1.779
314.00 1.778
314.10 1.777
314.20 1.776
314.30 1.774
314.40 1.773
314.50 1.772
314.60 1.771
314.70 1.77
314.80 1.769
314.90 1.767
315.00 1.766
315.10 1.765
315.20 1.764
315.30 1.763
315.40 1.762
315.50 1.76
315.60 1.759
315.70 1.758
315.80 1.757
315.90 1.756
316.00 1.755
316.10 1.753
316.20 1.752
316.30 1.751
316.40 1.75
316.50 1.749
316.60 1.748
316.70 1.747
316.80 1.745
316.90 1.744
317.00 1.743
317.10 1.742
317.20 1.741
317.30 1.74
317.40 1.739
317.50 1.737
317.60 1.736
317.70 1.735
317.80 1.734
317.90 1.733
318.00 1.732
318.10 1.731
318.20 1.729
318.30 1.728
318.40 1.727
318.50 1.726
318.60 1.725
318.70 1.724
318.80 1.723
318.90 1.721
319.00 1.72
319.10 1.719
319.20 1.718
319.30 1.717
319.40 1.716
319.50 1.715
319.60 1.714
319.70 1.712
319.80 1.711
319.90 1.71
320.00 1.709
320.10 1.708
320.20 1.707
320.30 1.706
320.40 1.705
320.50 1.703
320.60 1.702
320.70 1.701
320.80 1.7
320.90 1.699
321.00 1.698
321.10 1.697
321.20 1.696
321.30 1.695
321.40 1.693
321.50 1.692
321.60 1.691
321.70 1.69
321.80 1.689
321.90 1.688
322.00 1.687
322.10 1.686
322.20 1.685
322.30 1.684
322.40 1.682
322.50 1.681
322.60 1.68
322.70 1.679
322.80 1.678
322.90 1.677
323.00 1.676
323.10 1.675
323.20 1.674
323.30 1.673
323.40 1.672
323.50 1.67
323.60 1.669
323.70 1.668
323.80 1.667
323.90 1.666
324.00 1.665
324.10 1.664
324.20 1.663
324.30 1.662
324.40 1.661
324.50 1.66
324.60 1.658
324.70 1.657
324.80 1.656
324.90 1.655
325.00 1.654
325.10 1.653
325.20 1.652
325.30 1.651
325.40 1.65
325.50 1.649
325.60 1.648
325.70 1.647
325.80 1.646
325.90 1.645
326.00 1.643
326.10 1.642
326.20 1.641
326.30 1.64
326.40 1.639
326.50 1.638
326.60 1.637
326.70 1.636
326.80 1.635
326.90 1.634
327.00 1.633
327.10 1.632
327.20 1.631
327.30 1.63
327.40 1.629
327.50 1.628
327.60 1.627
327.70 1.626
327.80 1.624
327.90 1.623
328.00 1.622
328.10 1.621
328.20 1.62
328.30 1.619
328.40 1.618
328.50 1.617
328.60 1.616
328.70 1.615
328.80 1.614
328.90 1.613
329.00 1.612
329.10 1.611
329.20 1.61
329.30 1.609
329.40 1.608
329.50 1.607
329.60 1.606
329.70 1.605
329.80 1.604
329.90 1.603
330.00 1.602
330.10 1.601
330.20 1.6
330.30 1.598
330.40 1.597
330.50 1.596
330.60 1.595
330.70 1.594
330.80 1.593
330.90 1.592
331.00 1.591
331.10 1.59
331.20 1.589
331.30 1.588
331.40 1.587
331.50 1.586
331.60 1.585
331.70 1.584
331.80 1.583
331.90 1.582
332.00 1.581
332.10 1.58
332.20 1.579
332.30 1.578
332.40 1.577
332.50 1.576
332.60 1.575
332.70 1.574
332.80 1.573
332.90 1.572
333.00 1.571
333.10 1.57
333.20 1.569
333.30 1.568
333.40 1.567
333.50 1.566
333.60 1.565
333.70 1.564
333.80 1.563
333.90 1.562
334.00 1.561
334.10 1.56
334.20 1.559
334.30 1.558
334.40 1.557
334.50 1.556
334.60 1.555
334.70 1.554
334.80 1.553
334.90 1.552
335.00 1.551
335.10 1.55
335.20 1.549
335.30 1.548
335.40 1.547
335.50 1.546
335.60 1.545
335.70 1.544
335.80 1.543
335.90 1.542
336.00 1.541
336.10 1.54
336.20 1.539
336.30 1.538
336.40 1.537
336.50 1.536
336.60 1.535
336.70 1.534
336.80 1.533
336.90 1.532
337.00 1.531
337.10 1.53
337.20 1.53
337.30 1.529
337.40 1.528
337.50 1.527
337.60 1.526
337.70 1.525
337.80 1.524
337.90 1.523
338.00 1.522
338.10 1.521
338.20 1.52
338.30 1.519
338.40 1.518
338.50 1.517
338.60 1.516
338.70 1.515
338.80 1.514
338.90 1.513
339.00 1.512
339.10 1.511
339.20 1.51
339.30 1.509
339.40 1.508
339.50 1.507
339.60 1.506
339.70 1.505
339.80 1.505
339.90 1.504
340.00 1.503
340.10 1.502
340.20 1.501
340.30 1.5
340.40 1.499
340.50 1.498
340.60 1.497
340.70 1.496
340.80 1.495
340.90 1.494
341.00 1.493
341.10 1.492
341.20 1.491
341.30 1.49
341.40 1.489
341.50 1.488
341.60 1.488
341.70 1.487
341.80 1.486
341.90 1.485
342.00 1.484
342.10 1.483
342.20 1.482
342.30 1.481
342.40 1.48
342.50 1.479
342.60 1.478
342.70 1.477
342.80 1.476
342.90 1.475
343.00 1.474
343.10 1.474
343.20 1.473
343.30 1.472
343.40 1.471
343.50 1.47
343.60 1.469
343.70 1.468
343.80 1.467
343.90 1.466
344.00 1.465
344.10 1.464
344.20 1.463
344.30 1.462
344.40 1.462
344.50 1.461
344.60 1.46
344.70 1.459
344.80 1.458
344.90 1.457
345.00 1.456
345.10 1.455
345.20 1.454
345.30 1.453
345.40 1.452
345.50 1.452
345.60 1.451
345.70 1.45
345.80 1.449
345.90 1.448
346.00 1.447
346.10 1.446
346.20 1.445
346.30 1.444
346.40 1.443
346.50 1.442
346.60 1.442
346.70 1.441
346.80 1.44
346.90 1.439
347.00 1.438
347.10 1.437
347.20 1.436
347.30 1.435
347.40 1.434
347.50 1.433
347.60 1.433
347.70 1.432
347.80 1.431
347.90 1.43
348.00 1.429
348.10 1.428
348.20 1.427
348.30 1.426
348.40 1.425
348.50 1.425
348.60 1.424
348.70 1.423
348.80 1.422
348.90 1.421
349.00 1.42
349.10 1.419
349.20 1.418
349.30 1.417
349.40 1.417
349.50 1.416
349.60 1.415
349.70 1.414
349.80 1.413
349.90 1.412
350.00 1.411
350.10 1.41
350.20 1.41
350.30 1.409
350.40 1.408
350.50 1.407
350.60 1.406
350.70 1.405
350.80 1.404
350.90 1.403
351.00 1.403
351.10 1.402
351.20 1.401
351.30 1.4
351.40 1.399
351.50 1.398
351.60 1.397
351.70 1.397
351.80 1.396
351.90 1.395
352.00 1.394
352.10 1.393
352.20 1.392
352.30 1.391
352.40 1.39
352.50 1.39
352.60 1.389
352.70 1.388
352.80 1.387
352.90 1.386
353.00 1.385
353.10 1.384
353.20 1.384
353.30 1.383
353.40 1.382
353.50 1.381
353.60 1.38
353.70 1.379
353.80 1.379
353.90 1.378
354.00 1.377
354.10 1.376
354.20 1.375
354.30 1.374
354.40 1.373
354.50 1.373
354.60 1.372
354.70 1.371
354.80 1.37
354.90 1.369
355.00 1.368
355.10 1.368
355.20 1.367
355.30 1.366
355.40 1.365
355.50 1.364
355.60 1.363
355.70 1.362
355.80 1.362
355.90 1.361
356.00 1.36
356.10 1.359
356.20 1.358
356.30 1.357
356.40 1.357
356.50 1.356
356.60 1.355
356.70 1.354
356.80 1.353
356.90 1.352
357.00 1.352
357.10 1.351
357.20 1.35
357.30 1.349
357.40 1.348
357.50 1.347
357.60 1.347
357.70 1.346
357.80 1.345
357.90 1.344
358.00 1.343
358.10 1.343
358.20 1.342
358.30 1.341
358.40 1.34
358.50 1.339
358.60 1.338
358.70 1.338
358.80 1.337
358.90 1.336
359.00 1.335
359.10 1.334
359.20 1.334
359.30 1.333
359.40 1.332
359.50 1.331
359.60 1.33
359.70 1.329
359.80 1.329
359.90 1.328
360.00 1.327
360.10 1.326
360.20 1.325
360.30 1.325
360.40 1.324
360.50 1.323
360.60 1.322
360.70 1.321
360.80 1.321
360.90 1.32
361.00 1.319
361.10 1.318
361.20 1.317
361.30 1.316
361.40 1.316
361.50 1.315
361.60 1.314
361.70 1.313
361.80 1.312
361.90 1.312
362.00 1.311
362.10 1.31
362.20 1.309
362.30 1.308
362.40 1.308
362.50 1.307
362.60 1.306
362.70 1.305
362.80 1.305
362.90 1.304
363.00 1.303
363.10 1.302
363.20 1.301
363.30 1.3
363.40 1.299
363.50 1.299
363.60 1.298
363.70 1.297
363.80 1.296
363.90 1.295
364.00 1.294
364.10 1.293
364.20 1.292
364.30 1.292
364.40 1.291
364.50 1.29
364.60 1.289
364.70 1.288
364.80 1.287
364.90 1.286
365.00 1.285
365.10 1.284
365.20 1.283
365.30 1.283
365.40 1.282
365.50 1.281
365.60 1.28
365.70 1.279
365.80 1.278
365.90 1.277
366.00 1.276
366.10 1.276
366.20 1.275
366.30 1.274
366.40 1.273
366.50 1.272
366.60 1.272
366.70 1.271
366.80 1.27
366.90 1.269
367.00 1.268
367.10 1.268
367.20 1.267
367.30 1.266
367.40 1.265
367.50 1.264
367.60 1.264
367.70 1.263
367.80 1.262
367.90 1.261
368.00 1.26
368.10 1.26
368.20 1.259
368.30 1.259
368.40 1.258
368.50 1.257
368.60 1.257
368.70 1.256
368.80 1.255
368.90 1.255
369.00 1.254
369.10 1.253
369.20 1.253
369.30 1.252
369.40 1.252
369.50 1.251
369.60 1.25
369.70 1.25
369.80 1.249
369.90 1.248
370.00 1.248
370.10 1.248
370.20 1.248
370.30 1.248
370.40 1.248
370.50 1.247
370.60 1.247
370.70 1.247
370.80 1.247
370.90 1.247
371.00 1.247
371.10 1.247
371.20 1.247
371.30 1.247
371.40 1.247
371.50 1.247
371.60 1.247
371.70 1.247
371.80 1.246
371.90 1.246
372.00 1.246
372.10 1.247
372.20 1.248
372.30 1.248
372.40 1.249
372.50 1.25
372.60 1.251
372.70 1.251
372.80 1.252
372.90 1.253
373.00 1.253
373.10 1.254
373.20 1.255
373.30 1.255
373.40 1.256
373.50 1.257
373.60 1.258
373.70 1.258
373.80 1.259
373.90 1.26
374.00 1.26
374.10 1.261
374.20 1.263
374.30 1.264
374.40 1.265
374.50 1.266
374.60 1.267
374.70 1.268
374.80 1.269
374.90 1.27
375.00 1.271
375.10 1.272
375.20 1.274
375.30 1.275
375.40 1.276
375.50 1.277
375.60 1.278
375.70 1.279
375.80 1.28
375.90 1.281
376.00 1.282
376.10 1.283
376.20 1.283
376.30 1.284
376.40 1.284
376.50 1.285
376.60 1.285
376.70 1.286
376.80 1.287
376.90 1.287
377.00 1.288
377.10 1.287
377.20 1.286
377.30 1.285
377.40 1.284
377.50 1.282
377.60 1.281
377.70 1.28
377.80 1.279
377.90 1.278
378.00 1.277
378.10 1.271
378.20 1.265
378.30 1.26
378.40 1.254
378.50 1.248
378.60 1.242
378.70 1.236
378.80 1.23
378.90 1.224
379.00 1.218
379.10 1.214
379.20 1.21
379.30 1.205
379.40 1.201
379.50 1.197
379.60 1.192
379.70 1.188
379.80 1.184
379.90 1.18
380.00 1.175
380.10 1.182
380.20 1.189
380.30 1.195
380.40 1.202
380.50 1.208
380.60 1.215
380.70 1.222
380.80 1.228
380.90 1.235
381.00 1.241
381.10 1.244
381.20 1.246
381.30 1.248
381.40 1.25
381.50 1.253
381.60 1.252
381.70 1.25
381.80 1.247
381.90 1.244
382.00 1.239
382.10 1.233
382.20 1.225
382.30 1.211
382.40 1.197
382.50 1.183
382.60 1.169
382.70 1.155
382.80 1.141
382.90 1.127
383.00 1.113
383.10 1.099
383.20 1.085
383.30 1.074
383.40 1.061
383.50 1.048
383.60 1.051
383.70 1.065
383.80 1.078
383.90 1.089
384.00 1.103
384.10 1.121
384.20 1.139
384.30 1.158
384.40 1.175
384.50 1.192
384.60 1.206
384.70 1.219
384.80 1.231
384.90 1.241
385.00 1.25
385.10 1.257
385.20 1.263
385.30 1.268
385.40 1.272
385.50 1.275
385.60 1.278
385.70 1.28
385.80 1.28
385.90 1.281
386.00 1.28
386.10 1.279
386.20 1.277
386.30 1.274
386.40 1.27
386.50 1.266
386.60 1.261
386.70 1.255
386.80 1.249
386.90 1.241
387.00 1.233
387.10 1.224
387.20 1.214
387.30 1.203
387.40 1.191
387.50 1.178
387.60 1.163
387.70 1.148
387.80 1.129
387.90 1.11
388.00 1.088
388.10 1.064
388.20 1.038
388.30 1.01
388.40 0.9802
388.50 0.9531
388.60 0.9287
388.70 0.9087
388.80 0.8907
388.90 0.8746
389.00 0.8892
389.10 0.9065
389.20 0.9263
389.30 0.9503
389.40 0.9773
389.50 1.007
389.60 1.036
389.70 1.063
389.80 1.088
389.90 1.111
390.00 1.132
390.10 1.152
390.20 1.169
390.30 1.185
390.40 1.2
390.50 1.214
390.60 1.227
390.70 1.24
390.80 1.251
390.90 1.262
391.00 1.273
391.10 1.283
391.20 1.292
391.30 1.301
391.40 1.309
391.50 1.316
391.60 1.323
391.70 1.329
391.80 1.335
391.90 1.34
392.00 1.344
392.10 1.348
392.20 1.351
392.30 1.354
392.40 1.356
392.50 1.357
392.60 1.358
392.70 1.358
392.80 1.357
392.90 1.356
393.00 1.354
393.10 1.351
393.20 1.348
393.30 1.344
393.40 1.34
393.50 1.334
393.60 1.328
393.70 1.322
393.80 1.315
393.90 1.307
394.00 1.298
394.10 1.289
394.20 1.279
394.30 1.269
394.40 1.257
394.50 1.245
394.60 1.233
394.70 1.22
394.80 1.206
394.90 1.192
395.00 1.177
395.10 1.161
395.20 1.146
395.30 1.129
395.40 1.112
395.50 1.094
395.60 1.075
395.70 1.055
395.80 1.035
395.90 1.014
396.00 0.9911
396.10 0.9676
396.20 0.9415
396.30 0.9134
396.40 0.8833
396.50 0.8491
396.60 0.8153
396.70 0.7819
396.80 0.7537
396.90 0.7232
397.00 0.6903
397.10 0.7204
397.20 0.749
397.30 0.7762
397.40 0.8087
397.50 0.8418
397.60 0.8756
397.70 0.9054
397.80 0.9333
397.90 0.9592
398.00 0.9824
398.10 1.005
398.20 1.026
398.30 1.046
398.40 1.065
398.50 1.084
398.60 1.102
398.70 1.119
398.80 1.136
398.90 1.152
399.00 1.168
399.10 1.184
399.20 1.199
399.30 1.213
399.40 1.228
399.50 1.241
399.60 1.255
399.70 1.268
399.80 1.28
399.90 1.293
400.00 1.304
400.10 1.316
400.20 1.327
400.30 1.337
400.40 1.347
400.50 1.357
400.60 1.366
400.70 1.375
400.80 1.383
400.90 1.392
401.00 1.399
401.10 1.406
401.20 1.413
401.30 1.42
401.40 1.426
401.50 1.432
401.60 1.437
401.70 1.443
401.80 1.447
401.90 1.452
402.00 1.456
402.10 1.46
402.20 1.463
402.30 1.466
402.40 1.469
402.50 1.472
402.60 1.474
402.70 1.476
402.80 1.477
402.90 1.478
403.00 1.479
403.10 1.48
403.20 1.48
403.30 1.48
403.40 1.479
403.50 1.478
403.60 1.477
403.70 1.476
403.80 1.474
403.90 1.472
404.00 1.47
404.10 1.467
404.20 1.464
404.30 1.461
404.40 1.457
404.50 1.453
404.60 1.449
404.70 1.444
404.80 1.439
404.90 1.434
405.00 1.428
405.10 1.422
405.20 1.416
405.30 1.409
405.40 1.402
405.50 1.395
405.60 1.387
405.70 1.379
405.80 1.37
405.90 1.362
406.00 1.353
406.10 1.343
406.20 1.333
406.30 1.323
406.40 1.313
406.50 1.302
406.60 1.291
406.70 1.279
406.80 1.267
406.90 1.254
407.00 1.241
407.10 1.228
407.20 1.215
407.30 1.201
407.40 1.186
407.50 1.171
407.60 1.156
407.70 1.14
407.80 1.125
407.90 1.108
408.00 1.091
408.10 1.075
408.20 1.057
408.30 1.04
408.40 1.022
408.50 1.003
408.60 0.9847
408.70 0.9659
408.80 0.9466
408.90 0.9271
409.00 0.9073
409.10 0.887
409.20 0.8661
409.30 0.8448
409.40 0.8215
409.50 0.7967
409.60 0.7703
409.70 0.7404
409.80 0.7097
409.90 0.6781
410.00 0.6442
410.10 0.6124
410.20 0.5828
410.30 0.6252
410.40 0.6621
410.50 0.6937
410.60 0.7244
410.70 0.7537
410.80 0.7818
410.90 0.8061
411.00 0.8291
411.10 0.8507
411.20 0.8708
411.30 0.8904
411.40 0.9096
411.50 0.9283
411.60 0.9466
411.70 0.9648
411.80 0.9824
411.90 0.9997
412.00 1.017
412.10 1.033
412.20 1.05
412.30 1.066
412.40 1.082
412.50 1.097
412.60 1.112
412.70 1.127
412.80 1.141
412.90 1.155
413.00 1.169
413.10 1.182
413.20 1.195
413.30 1.208
413.40 1.22
413.50 1.232
413.60 1.243
413.70 1.254
413.80 1.265
413.90 1.276
414.00 1.286
414.10 1.296
414.20 1.306
414.30 1.315
414.40 1.324
414.50 1.333
414.60 1.342
414.70 1.35
414.80 1.358
414.90 1.366
415.00 1.374
415.10 1.381
415.20 1.388
415.30 1.395
415.40 1.402
415.50 1.409
415.60 1.415
415.70 1.421
415.80 1.427
415.90 1.433
416.00 1.439
416.10 1.444
416.20 1.449
416.30 1.454
416.40 1.459
416.50 1.464
416.60 1.469
416.70 1.473
416.80 1.477
416.90 1.481
417.00 1.485
417.10 1.489
417.20 1.493
417.30 1.496
417.40 1.5
417.50 1.503
417.60 1.506
417.70 1.509
417.80 1.512
417.90 1.515
418.00 1.518
418.10 1.52
418.20 1.522
418.30 1.525
418.40 1.527
418.50 1.529
418.60 1.531
418.70 1.533
418.80 1.534
418.90 1.536
419.00 1.538
419.10 1.539
419.20 1.54
419.30 1.542
419.40 1.543
419.50 1.544
419.60 1.545
419.70 1.546
419.80 1.546
419.90 1.547
420.00 1.548
420.10 1.548
420.20 1.549
420.30 1.549
420.40 1.549
420.50 1.549
420.60 1.55
420.70 1.55
420.80 1.55
420.90 1.549
421.00 1.549
421.10 1.549
421.20 1.549
421.30 1.548
421.40 1.548
421.50 1.547
421.60 1.547
421.70 1.546
421.80 1.545
421.90 1.544
422.00 1.543
422.10 1.542
422.20 1.541
422.30 1.54
422.40 1.539
422.50 1.537
422.60 1.536
422.70 1.535
422.80 1.533
422.90 1.531
423.00 1.53
423.10 1.528
423.20 1.526
423.30 1.524
423.40 1.522
423.50 1.52
423.60 1.518
423.70 1.516
423.80 1.514
423.90 1.511
424.00 1.509
424.10 1.507
424.20 1.504
424.30 1.501
424.40 1.499
424.50 1.496
424.60 1.493
424.70 1.49
424.80 1.487
424.90 1.484
425.00 1.481
425.10 1.477
425.20 1.474
425.30 1.47
425.40 1.467
425.50 1.463
425.60 1.46
425.70 1.456
425.80 1.452
425.90 1.448
426.00 1.444
426.10 1.439
426.20 1.434
426.30 1.429
426.40 1.425
426.50 1.42
426.60 1.415
426.70 1.41
426.80 1.405
426.90 1.4
427.00 1.395
427.10 1.39
427.20 1.384
427.30 1.379
427.40 1.373
427.50 1.367
427.60 1.361
427.70 1.355
427.80 1.349
427.90 1.343
428.00 1.336
428.10 1.329
428.20 1.323
428.30 1.316
428.40 1.309
428.50 1.302
428.60 1.294
428.70 1.287
428.80 1.279
428.90 1.271
429.00 1.263
429.10 1.255
429.20 1.247
429.30 1.238
429.40 1.23
429.50 1.221
429.60 1.212
429.70 1.202
429.80 1.193
429.90 1.183
430.00 1.173
430.10 1.163
430.20 1.153
430.30 1.143
430.40 1.132
430.50 1.121
430.60 1.11
430.70 1.099
430.80 1.087
430.90 1.076
431.00 1.064
431.10 1.052
431.20 1.039
431.30 1.027
431.40 1.014
431.50 1.001
431.60 0.9878
431.70 0.9742
431.80 0.9605
431.90 0.9462
432.00 0.9317
432.10 0.917
432.20 0.9016
432.30 0.8858
432.40 0.8697
432.50 0.8526
432.60 0.835
432.70 0.817
432.80 0.7985
432.90 0.7802
433.00 0.762
433.10 0.7447
433.20 0.7275
433.30 0.7102
433.40 0.6914
433.50 0.6709
433.60 0.6489
433.70 0.622
433.80 0.592
433.90 0.5588
434.00 0.4975
434.10 0.4984
434.20 0.5614
434.30 0.5936
434.40 0.6227
434.50 0.6487
434.60 0.67
434.70 0.6896
434.80 0.7077
434.90 0.7242
435.00 0.7407
435.10 0.7573
435.20 0.7747
435.30 0.7921
435.40 0.8097
435.50 0.8267
435.60 0.8432
435.70 0.8592
435.80 0.8743
435.90 0.8889
436.00 0.9031
436.10 0.9167
436.20 0.93
436.30 0.943
436.40 0.9555
436.50 0.9678
436.60 0.9798
436.70 0.9914
436.80 1.003
436.90 1.014
437.00 1.025
437.10 1.036
437.20 1.046
437.30 1.056
437.40 1.066
437.50 1.076
437.60 1.086
437.70 1.095
437.80 1.104
437.90 1.113
438.00 1.121
438.10 1.13
438.20 1.138
438.30 1.146
438.40 1.154
438.50 1.162
438.60 1.169
438.70 1.176
438.80 1.183
438.90 1.19
439.00 1.197
439.10 1.203
439.20 1.21
439.30 1.216
439.40 1.222
439.50 1.227
439.60 1.233
439.70 1.239
439.80 1.244
439.90 1.249
440.00 1.254
440.10 1.259
440.20 1.264
440.30 1.269
440.40 1.273
440.50 1.278
440.60 1.282
440.70 1.286
440.80 1.29
440.90 1.294
441.00 1.298
441.10 1.302
441.20 1.305
441.30 1.309
441.40 1.312
441.50 1.315
441.60 1.319
441.70 1.322
441.80 1.325
441.90 1.328
442.00 1.331
442.10 1.333
442.20 1.336
442.30 1.339
442.40 1.341
442.50 1.343
442.60 1.346
442.70 1.348
442.80 1.35
442.90 1.352
443.00 1.354
443.10 1.356
443.20 1.358
443.30 1.36
443.40 1.362
443.50 1.363
443.60 1.365
443.70 1.367
443.80 1.368
443.90 1.37
444.00 1.371
444.10 1.373
444.20 1.374
444.30 1.375
444.40 1.376
444.50 1.377
444.60 1.379
444.70 1.38
444.80 1.381
444.90 1.382
445.00 1.383
445.10 1.384
445.20 1.384
445.30 1.385
445.40 1.386
445.50 1.387
445.60 1.387
445.70 1.388
445.80 1.389
445.90 1.389
446.00 1.39
446.10 1.39
446.20 1.391
446.30 1.391
446.40 1.392
446.50 1.392
446.60 1.393
446.70 1.393
446.80 1.393
446.90 1.394
447.00 1.394
447.10 1.394
447.20 1.394
447.30 1.394
447.40 1.395
447.50 1.395
447.60 1.395
447.70 1.395
447.80 1.395
447.90 1.395
448.00 1.395
448.10 1.395
448.20 1.395
448.30 1.395
448.40 1.395
448.50 1.395
448.60 1.395
448.70 1.395
448.80 1.394
448.90 1.394
449.00 1.395
449.10 1.394
449.20 1.394
449.30 1.394
449.40 1.394
449.50 1.394
449.60 1.393
449.70 1.393
449.80 1.393
449.90 1.392
450.00 1.392
450.10 1.392
450.20 1.392
450.30 1.391
450.40 1.391
450.50 1.39
450.60 1.39
450.70 1.39
450.80 1.389
450.90 1.389
451.00 1.388
451.10 1.388
451.20 1.388
451.30 1.387
451.40 1.387
451.50 1.386
451.60 1.386
451.70 1.385
451.80 1.385
451.90 1.384
452.00 1.384
452.10 1.383
452.20 1.383
452.30 1.382
452.40 1.381
452.50 1.381
452.60 1.38
452.70 1.38
452.80 1.379
452.90 1.378
453.00 1.378
453.10 1.377
