# Version 2.1 - nm, norm@500 to 1, cut digits, bergeron_14500_70.dat_14500
# Wavelength(nm)  Flambda(ergs/cm^s/s/nm)
300.00 2.037
300.10 2.036
300.20 2.034
300.30 2.033
300.40 2.031
300.50 2.03
300.60 2.028
300.70 2.027
300.80 2.025
300.90 2.024
301.00 2.022
301.10 2.021
301.20 2.019
301.30 2.018
301.40 2.016
301.50 2.015
301.60 2.013
301.70 2.012
301.80 2.01
301.90 2.009
302.00 2.007
302.10 2.006
302.20 2.004
302.30 2.003
302.40 2.002
302.50 2
302.60 1.999
302.70 1.997
302.80 1.996
302.90 1.994
303.00 1.993
303.10 1.991
303.20 1.99
303.30 1.988
303.40 1.987
303.50 1.985
303.60 1.984
303.70 1.982
303.80 1.981
303.90 1.98
304.00 1.978
304.10 1.977
304.20 1.975
304.30 1.974
304.40 1.972
304.50 1.971
304.60 1.969
304.70 1.968
304.80 1.967
304.90 1.965
305.00 1.964
305.10 1.962
305.20 1.961
305.30 1.959
305.40 1.958
305.50 1.956
305.60 1.955
305.70 1.954
305.80 1.952
305.90 1.951
306.00 1.949
306.10 1.948
306.20 1.946
306.30 1.945
306.40 1.944
306.50 1.942
306.60 1.941
306.70 1.939
306.80 1.938
306.90 1.937
307.00 1.935
307.10 1.934
307.20 1.932
307.30 1.931
307.40 1.93
307.50 1.928
307.60 1.927
307.70 1.925
307.80 1.924
307.90 1.923
308.00 1.921
308.10 1.92
308.20 1.918
308.30 1.917
308.40 1.916
308.50 1.914
308.60 1.913
308.70 1.911
308.80 1.91
308.90 1.909
309.00 1.907
309.10 1.906
309.20 1.905
309.30 1.903
309.40 1.902
309.50 1.9
309.60 1.899
309.70 1.898
309.80 1.896
309.90 1.895
310.00 1.894
310.10 1.892
310.20 1.891
310.30 1.889
310.40 1.888
310.50 1.887
310.60 1.885
310.70 1.884
310.80 1.883
310.90 1.881
311.00 1.88
311.10 1.879
311.20 1.877
311.30 1.876
311.40 1.875
311.50 1.873
311.60 1.872
311.70 1.87
311.80 1.869
311.90 1.868
312.00 1.866
312.10 1.865
312.20 1.864
312.30 1.862
312.40 1.861
312.50 1.86
312.60 1.858
312.70 1.857
312.80 1.856
312.90 1.854
313.00 1.853
313.10 1.852
313.20 1.85
313.30 1.849
313.40 1.848
313.50 1.846
313.60 1.845
313.70 1.844
313.80 1.843
313.90 1.841
314.00 1.84
314.10 1.839
314.20 1.837
314.30 1.836
314.40 1.835
314.50 1.833
314.60 1.832
314.70 1.831
314.80 1.829
314.90 1.828
315.00 1.827
315.10 1.825
315.20 1.824
315.30 1.823
315.40 1.822
315.50 1.82
315.60 1.819
315.70 1.818
315.80 1.816
315.90 1.815
316.00 1.814
316.10 1.813
316.20 1.811
316.30 1.81
316.40 1.809
316.50 1.807
316.60 1.806
316.70 1.805
316.80 1.804
316.90 1.802
317.00 1.801
317.10 1.8
317.20 1.798
317.30 1.797
317.40 1.796
317.50 1.795
317.60 1.793
317.70 1.792
317.80 1.791
317.90 1.79
318.00 1.788
318.10 1.787
318.20 1.786
318.30 1.784
318.40 1.783
318.50 1.782
318.60 1.781
318.70 1.779
318.80 1.778
318.90 1.777
319.00 1.776
319.10 1.774
319.20 1.773
319.30 1.772
319.40 1.771
319.50 1.769
319.60 1.768
319.70 1.767
319.80 1.766
319.90 1.764
320.00 1.763
320.10 1.762
320.20 1.761
320.30 1.76
320.40 1.758
320.50 1.757
320.60 1.756
320.70 1.755
320.80 1.753
320.90 1.752
321.00 1.751
321.10 1.75
321.20 1.748
321.30 1.747
321.40 1.746
321.50 1.745
321.60 1.744
321.70 1.742
321.80 1.741
321.90 1.74
322.00 1.739
322.10 1.737
322.20 1.736
322.30 1.735
322.40 1.734
322.50 1.733
322.60 1.731
322.70 1.73
322.80 1.729
322.90 1.728
323.00 1.727
323.10 1.725
323.20 1.724
323.30 1.723
323.40 1.722
323.50 1.72
323.60 1.719
323.70 1.718
323.80 1.717
323.90 1.716
324.00 1.715
324.10 1.713
324.20 1.712
324.30 1.711
324.40 1.71
324.50 1.709
324.60 1.707
324.70 1.706
324.80 1.705
324.90 1.704
325.00 1.703
325.10 1.701
325.20 1.7
325.30 1.699
325.40 1.698
325.50 1.697
325.60 1.696
325.70 1.694
325.80 1.693
325.90 1.692
326.00 1.691
326.10 1.69
326.20 1.688
326.30 1.687
326.40 1.686
326.50 1.685
326.60 1.684
326.70 1.683
326.80 1.681
326.90 1.68
327.00 1.679
327.10 1.678
327.20 1.677
327.30 1.676
327.40 1.675
327.50 1.673
327.60 1.672
327.70 1.671
327.80 1.67
327.90 1.669
328.00 1.668
328.10 1.666
328.20 1.665
328.30 1.664
328.40 1.663
328.50 1.662
328.60 1.661
328.70 1.66
328.80 1.658
328.90 1.657
329.00 1.656
329.10 1.655
329.20 1.654
329.30 1.653
329.40 1.652
329.50 1.65
329.60 1.649
329.70 1.648
329.80 1.647
329.90 1.646
330.00 1.645
330.10 1.644
330.20 1.643
330.30 1.641
330.40 1.64
330.50 1.639
330.60 1.638
330.70 1.637
330.80 1.636
330.90 1.635
331.00 1.634
331.10 1.632
331.20 1.631
331.30 1.63
331.40 1.629
331.50 1.628
331.60 1.627
331.70 1.626
331.80 1.625
331.90 1.623
332.00 1.622
332.10 1.621
332.20 1.62
332.30 1.619
332.40 1.618
332.50 1.617
332.60 1.616
332.70 1.615
332.80 1.614
332.90 1.612
333.00 1.611
333.10 1.61
333.20 1.609
333.30 1.608
333.40 1.607
333.50 1.606
333.60 1.605
333.70 1.604
333.80 1.603
333.90 1.601
334.00 1.6
334.10 1.599
334.20 1.598
334.30 1.597
334.40 1.596
334.50 1.595
334.60 1.594
334.70 1.593
334.80 1.592
334.90 1.591
335.00 1.59
335.10 1.588
335.20 1.587
335.30 1.586
335.40 1.585
335.50 1.584
335.60 1.583
335.70 1.582
335.80 1.581
335.90 1.58
336.00 1.579
336.10 1.578
336.20 1.577
336.30 1.576
336.40 1.575
336.50 1.573
336.60 1.572
336.70 1.571
336.80 1.57
336.90 1.569
337.00 1.568
337.10 1.567
337.20 1.566
337.30 1.565
337.40 1.564
337.50 1.563
337.60 1.562
337.70 1.561
337.80 1.56
337.90 1.559
338.00 1.558
338.10 1.557
338.20 1.556
338.30 1.554
338.40 1.553
338.50 1.552
338.60 1.551
338.70 1.55
338.80 1.549
338.90 1.548
339.00 1.547
339.10 1.546
339.20 1.545
339.30 1.544
339.40 1.543
339.50 1.542
339.60 1.541
339.70 1.54
339.80 1.539
339.90 1.538
340.00 1.537
340.10 1.536
340.20 1.535
340.30 1.534
340.40 1.533
340.50 1.532
340.60 1.531
340.70 1.53
340.80 1.529
340.90 1.528
341.00 1.526
341.10 1.525
341.20 1.524
341.30 1.523
341.40 1.522
341.50 1.521
341.60 1.52
341.70 1.519
341.80 1.518
341.90 1.517
342.00 1.516
342.10 1.515
342.20 1.514
342.30 1.513
342.40 1.512
342.50 1.511
342.60 1.51
342.70 1.509
342.80 1.508
342.90 1.507
343.00 1.506
343.10 1.505
343.20 1.504
343.30 1.503
343.40 1.502
343.50 1.501
343.60 1.5
343.70 1.499
343.80 1.498
343.90 1.497
344.00 1.496
344.10 1.495
344.20 1.494
344.30 1.493
344.40 1.492
344.50 1.491
344.60 1.49
344.70 1.489
344.80 1.488
344.90 1.487
345.00 1.486
345.10 1.485
345.20 1.484
345.30 1.483
345.40 1.482
345.50 1.481
345.60 1.48
345.70 1.479
345.80 1.478
345.90 1.477
346.00 1.476
346.10 1.475
346.20 1.475
346.30 1.474
346.40 1.473
346.50 1.472
346.60 1.471
346.70 1.47
346.80 1.469
346.90 1.468
347.00 1.467
347.10 1.466
347.20 1.465
347.30 1.464
347.40 1.463
347.50 1.462
347.60 1.461
347.70 1.46
347.80 1.459
347.90 1.458
348.00 1.457
348.10 1.456
348.20 1.455
348.30 1.454
348.40 1.453
348.50 1.452
348.60 1.451
348.70 1.45
348.80 1.449
348.90 1.448
349.00 1.447
349.10 1.447
349.20 1.446
349.30 1.445
349.40 1.444
349.50 1.443
349.60 1.442
349.70 1.441
349.80 1.44
349.90 1.439
350.00 1.438
350.10 1.437
350.20 1.436
350.30 1.435
350.40 1.434
350.50 1.433
350.60 1.432
350.70 1.431
350.80 1.43
350.90 1.43
351.00 1.429
351.10 1.428
351.20 1.427
351.30 1.426
351.40 1.425
351.50 1.424
351.60 1.423
351.70 1.422
351.80 1.421
351.90 1.42
352.00 1.419
352.10 1.418
352.20 1.417
352.30 1.416
352.40 1.416
352.50 1.415
352.60 1.414
352.70 1.413
352.80 1.412
352.90 1.411
353.00 1.41
353.10 1.409
353.20 1.408
353.30 1.407
353.40 1.406
353.50 1.405
353.60 1.404
353.70 1.404
353.80 1.403
353.90 1.402
354.00 1.401
354.10 1.4
354.20 1.399
354.30 1.398
354.40 1.397
354.50 1.396
354.60 1.395
354.70 1.394
354.80 1.394
354.90 1.393
355.00 1.392
355.10 1.391
355.20 1.39
355.30 1.389
355.40 1.388
355.50 1.387
355.60 1.386
355.70 1.385
355.80 1.385
355.90 1.384
356.00 1.383
356.10 1.382
356.20 1.381
356.30 1.38
356.40 1.379
356.50 1.378
356.60 1.377
356.70 1.376
356.80 1.376
356.90 1.375
357.00 1.374
357.10 1.373
357.20 1.372
357.30 1.371
357.40 1.37
357.50 1.369
357.60 1.368
357.70 1.368
357.80 1.367
357.90 1.366
358.00 1.365
358.10 1.364
358.20 1.363
358.30 1.362
358.40 1.361
358.50 1.361
358.60 1.36
358.70 1.359
358.80 1.358
358.90 1.357
359.00 1.356
359.10 1.355
359.20 1.354
359.30 1.354
359.40 1.353
359.50 1.352
359.60 1.351
359.70 1.35
359.80 1.349
359.90 1.348
360.00 1.347
360.10 1.347
360.20 1.346
360.30 1.345
360.40 1.344
360.50 1.343
360.60 1.342
360.70 1.341
360.80 1.34
360.90 1.34
361.00 1.339
361.10 1.338
361.20 1.337
361.30 1.336
361.40 1.335
361.50 1.334
361.60 1.334
361.70 1.333
361.80 1.332
361.90 1.331
362.00 1.33
362.10 1.329
362.20 1.328
362.30 1.328
362.40 1.327
362.50 1.326
362.60 1.325
362.70 1.324
362.80 1.323
362.90 1.323
363.00 1.322
363.10 1.321
363.20 1.32
363.30 1.319
363.40 1.318
363.50 1.317
363.60 1.316
363.70 1.316
363.80 1.315
363.90 1.314
364.00 1.313
364.10 1.312
364.20 1.311
364.30 1.31
364.40 1.309
364.50 1.309
364.60 1.308
364.70 1.307
364.80 1.306
364.90 1.305
365.00 1.304
365.10 1.304
365.20 1.303
365.30 1.302
365.40 1.301
365.50 1.3
365.60 1.299
365.70 1.299
365.80 1.298
365.90 1.297
366.00 1.296
366.10 1.295
366.20 1.294
366.30 1.294
366.40 1.293
366.50 1.292
366.60 1.291
366.70 1.291
366.80 1.29
366.90 1.289
367.00 1.288
367.10 1.287
367.20 1.287
367.30 1.286
367.40 1.285
367.50 1.284
367.60 1.284
367.70 1.283
367.80 1.282
367.90 1.281
368.00 1.281
368.10 1.281
368.20 1.281
368.30 1.28
368.40 1.28
368.50 1.28
368.60 1.28
368.70 1.28
368.80 1.28
368.90 1.28
369.00 1.28
369.10 1.28
369.20 1.28
369.30 1.28
369.40 1.28
369.50 1.28
369.60 1.28
369.70 1.28
369.80 1.28
369.90 1.28
370.00 1.28
370.10 1.282
370.20 1.284
370.30 1.285
370.40 1.287
370.50 1.289
370.60 1.29
370.70 1.292
370.80 1.294
370.90 1.296
371.00 1.297
371.10 1.299
371.20 1.301
371.30 1.302
371.40 1.304
371.50 1.306
371.60 1.307
371.70 1.309
371.80 1.311
371.90 1.312
372.00 1.314
372.10 1.318
372.20 1.321
372.30 1.325
372.40 1.328
372.50 1.332
372.60 1.335
372.70 1.338
372.80 1.342
372.90 1.345
373.00 1.349
373.10 1.352
373.20 1.356
373.30 1.359
373.40 1.363
373.50 1.366
373.60 1.37
373.70 1.373
373.80 1.376
373.90 1.38
374.00 1.383
374.10 1.387
374.20 1.391
374.30 1.395
374.40 1.399
374.50 1.403
374.60 1.407
374.70 1.411
374.80 1.415
374.90 1.419
375.00 1.423
375.10 1.427
375.20 1.431
375.30 1.434
375.40 1.438
375.50 1.442
375.60 1.446
375.70 1.45
375.80 1.454
375.90 1.458
376.00 1.462
376.10 1.464
376.20 1.466
376.30 1.468
376.40 1.47
376.50 1.471
376.60 1.473
376.70 1.475
376.80 1.477
376.90 1.479
377.00 1.481
377.10 1.478
377.20 1.474
377.30 1.471
377.40 1.468
377.50 1.464
377.60 1.461
377.70 1.457
377.80 1.454
377.90 1.451
378.00 1.447
378.10 1.428
378.20 1.409
378.30 1.39
378.40 1.371
378.50 1.352
378.60 1.333
378.70 1.314
378.80 1.295
378.90 1.277
379.00 1.258
379.10 1.243
379.20 1.228
379.30 1.213
379.40 1.198
379.50 1.183
379.60 1.169
379.70 1.154
379.80 1.139
379.90 1.124
380.00 1.109
380.10 1.133
380.20 1.157
380.30 1.18
380.40 1.204
380.50 1.227
380.60 1.25
380.70 1.274
380.80 1.297
380.90 1.321
381.00 1.344
381.10 1.354
381.20 1.364
381.30 1.374
381.40 1.383
381.50 1.393
381.60 1.394
381.70 1.391
381.80 1.386
381.90 1.377
382.00 1.365
382.10 1.35
382.20 1.331
382.30 1.299
382.40 1.266
382.50 1.234
382.60 1.202
382.70 1.169
382.80 1.137
382.90 1.105
383.00 1.072
383.10 1.04
383.20 1.008
383.30 0.9759
383.40 0.9408
383.50 0.9035
383.60 0.9112
383.70 0.9481
383.80 0.9822
383.90 1.014
384.00 1.046
384.10 1.082
384.20 1.12
384.30 1.158
384.40 1.197
384.50 1.234
384.60 1.269
384.70 1.302
384.80 1.332
384.90 1.359
385.00 1.383
385.10 1.403
385.20 1.422
385.30 1.438
385.40 1.451
385.50 1.463
385.60 1.473
385.70 1.48
385.80 1.486
385.90 1.49
386.00 1.492
386.10 1.493
386.20 1.492
386.30 1.488
386.40 1.484
386.50 1.478
386.60 1.469
386.70 1.459
386.80 1.448
386.90 1.434
387.00 1.418
387.10 1.402
387.20 1.382
387.30 1.361
387.40 1.338
387.50 1.311
387.60 1.282
387.70 1.251
387.80 1.216
387.90 1.179
388.00 1.14
388.10 1.097
388.20 1.055
388.30 1.011
388.40 0.9689
388.50 0.9283
388.60 0.8893
388.70 0.8493
388.80 0.808
388.90 0.7653
389.00 0.8045
389.10 0.844
389.20 0.8836
389.30 0.9217
389.40 0.9615
389.50 1.003
389.60 1.046
389.70 1.088
389.80 1.13
389.90 1.17
390.00 1.208
390.10 1.244
390.20 1.276
390.30 1.307
390.40 1.336
390.50 1.362
390.60 1.386
390.70 1.41
390.80 1.431
390.90 1.451
391.00 1.471
391.10 1.488
391.20 1.505
391.30 1.521
391.40 1.536
391.50 1.55
391.60 1.563
391.70 1.574
391.80 1.585
391.90 1.595
392.00 1.604
392.10 1.612
392.20 1.619
392.30 1.625
392.40 1.63
392.50 1.634
392.60 1.636
392.70 1.638
392.80 1.639
392.90 1.638
393.00 1.637
393.10 1.635
393.20 1.631
393.30 1.627
393.40 1.621
393.50 1.614
393.60 1.607
393.70 1.598
393.80 1.588
393.90 1.577
394.00 1.565
394.10 1.552
394.20 1.538
394.30 1.523
394.40 1.506
394.50 1.489
394.60 1.471
394.70 1.451
394.80 1.431
394.90 1.41
395.00 1.387
395.10 1.364
395.20 1.34
395.30 1.315
395.40 1.288
395.50 1.261
395.60 1.231
395.70 1.2
395.80 1.168
395.90 1.134
396.00 1.098
396.10 1.061
396.20 1.022
396.30 0.981
396.40 0.9392
396.50 0.8972
396.60 0.8561
396.70 0.816
396.80 0.7737
396.90 0.7214
397.00 0.6594
397.10 0.7165
397.20 0.7662
397.30 0.8087
397.40 0.8479
397.50 0.888
397.60 0.9289
397.70 0.9697
397.80 1.009
397.90 1.048
398.00 1.084
398.10 1.119
398.20 1.152
398.30 1.183
398.40 1.213
398.50 1.242
398.60 1.269
398.70 1.295
398.80 1.32
398.90 1.344
399.00 1.367
399.10 1.389
399.20 1.41
399.30 1.431
399.40 1.451
399.50 1.47
399.60 1.488
399.70 1.506
399.80 1.523
399.90 1.539
400.00 1.555
400.10 1.57
400.20 1.584
400.30 1.598
400.40 1.61
400.50 1.623
400.60 1.634
400.70 1.645
400.80 1.655
400.90 1.665
401.00 1.674
401.10 1.683
401.20 1.691
401.30 1.698
401.40 1.705
401.50 1.712
401.60 1.718
401.70 1.723
401.80 1.729
401.90 1.733
402.00 1.738
402.10 1.742
402.20 1.745
402.30 1.748
402.40 1.751
402.50 1.753
402.60 1.755
402.70 1.757
402.80 1.758
402.90 1.759
403.00 1.76
403.10 1.76
403.20 1.76
403.30 1.76
403.40 1.759
403.50 1.759
403.60 1.757
403.70 1.756
403.80 1.754
403.90 1.752
404.00 1.75
404.10 1.747
404.20 1.744
404.30 1.741
404.40 1.737
404.50 1.733
404.60 1.729
404.70 1.724
404.80 1.719
404.90 1.714
405.00 1.708
405.10 1.702
405.20 1.696
405.30 1.689
405.40 1.681
405.50 1.674
405.60 1.665
405.70 1.657
405.80 1.648
405.90 1.638
406.00 1.628
406.10 1.618
406.20 1.607
406.30 1.595
406.40 1.583
406.50 1.571
406.60 1.557
406.70 1.544
406.80 1.529
406.90 1.514
407.00 1.498
407.10 1.482
407.20 1.465
407.30 1.447
407.40 1.428
407.50 1.409
407.60 1.389
407.70 1.368
407.80 1.347
407.90 1.325
408.00 1.302
408.10 1.279
408.20 1.255
408.30 1.231
408.40 1.207
408.50 1.181
408.60 1.156
408.70 1.129
408.80 1.102
408.90 1.074
409.00 1.046
409.10 1.016
409.20 0.9857
409.30 0.9543
409.40 0.9206
409.50 0.8858
409.60 0.8498
409.70 0.813
409.80 0.7763
409.90 0.7396
410.00 0.6948
410.10 0.6448
410.20 0.5896
410.30 0.6625
410.40 0.7185
410.50 0.7577
410.60 0.7935
410.70 0.8293
410.80 0.865
410.90 0.8992
411.00 0.9321
411.10 0.9637
411.20 0.9932
411.30 1.022
411.40 1.05
411.50 1.076
411.60 1.102
411.70 1.127
411.80 1.152
411.90 1.176
412.00 1.199
412.10 1.221
412.20 1.244
412.30 1.265
412.40 1.286
412.50 1.306
412.60 1.326
412.70 1.345
412.80 1.364
412.90 1.382
413.00 1.399
413.10 1.415
413.20 1.431
413.30 1.446
413.40 1.46
413.50 1.474
413.60 1.486
413.70 1.499
413.80 1.511
413.90 1.522
414.00 1.532
414.10 1.543
414.20 1.552
414.30 1.562
414.40 1.571
414.50 1.579
414.60 1.587
414.70 1.595
414.80 1.602
414.90 1.608
415.00 1.615
415.10 1.621
415.20 1.627
415.30 1.632
415.40 1.637
415.50 1.642
415.60 1.647
415.70 1.651
415.80 1.655
415.90 1.659
416.00 1.663
416.10 1.666
416.20 1.67
416.30 1.673
416.40 1.676
416.50 1.678
416.60 1.681
416.70 1.683
416.80 1.685
416.90 1.687
417.00 1.689
417.10 1.691
417.20 1.693
417.30 1.694
417.40 1.696
417.50 1.697
417.60 1.698
417.70 1.699
417.80 1.7
417.90 1.701
418.00 1.702
418.10 1.703
418.20 1.704
418.30 1.704
418.40 1.704
418.50 1.705
418.60 1.705
418.70 1.706
418.80 1.706
418.90 1.706
419.00 1.706
419.10 1.706
419.20 1.706
419.30 1.706
419.40 1.706
419.50 1.705
419.60 1.705
419.70 1.705
419.80 1.705
419.90 1.704
420.00 1.704
420.10 1.703
420.20 1.703
420.30 1.702
420.40 1.701
420.50 1.701
420.60 1.7
420.70 1.699
420.80 1.699
420.90 1.698
421.00 1.697
421.10 1.696
421.20 1.695
421.30 1.694
421.40 1.694
421.50 1.693
421.60 1.692
421.70 1.69
421.80 1.689
421.90 1.688
422.00 1.687
422.10 1.686
422.20 1.685
422.30 1.683
422.40 1.682
422.50 1.681
422.60 1.68
422.70 1.678
422.80 1.677
422.90 1.675
423.00 1.674
423.10 1.672
423.20 1.671
423.30 1.669
423.40 1.668
423.50 1.666
423.60 1.664
423.70 1.663
423.80 1.661
423.90 1.659
424.00 1.657
424.10 1.655
424.20 1.653
424.30 1.651
424.40 1.649
424.50 1.647
424.60 1.645
424.70 1.643
424.80 1.641
424.90 1.638
425.00 1.636
425.10 1.634
425.20 1.631
425.30 1.629
425.40 1.626
425.50 1.623
425.60 1.621
425.70 1.618
425.80 1.615
425.90 1.612
426.00 1.609
426.10 1.606
426.20 1.602
426.30 1.599
426.40 1.596
426.50 1.592
426.60 1.589
426.70 1.585
426.80 1.581
426.90 1.577
427.00 1.573
427.10 1.569
427.20 1.565
427.30 1.561
427.40 1.557
427.50 1.552
427.60 1.547
427.70 1.543
427.80 1.538
427.90 1.533
428.00 1.527
428.10 1.522
428.20 1.516
428.30 1.511
428.40 1.505
428.50 1.499
428.60 1.492
428.70 1.486
428.80 1.479
428.90 1.472
429.00 1.465
429.10 1.457
429.20 1.45
429.30 1.442
429.40 1.434
429.50 1.425
429.60 1.416
429.70 1.407
429.80 1.398
429.90 1.388
430.00 1.378
430.10 1.368
430.20 1.357
430.30 1.346
430.40 1.335
430.50 1.323
430.60 1.311
430.70 1.299
430.80 1.286
430.90 1.273
431.00 1.259
431.10 1.245
431.20 1.231
431.30 1.217
431.40 1.202
431.50 1.186
431.60 1.17
431.70 1.154
431.80 1.136
431.90 1.118
432.00 1.1
432.10 1.081
432.20 1.06
432.30 1.039
432.40 1.018
432.50 0.9941
432.60 0.9699
432.70 0.945
432.80 0.9197
432.90 0.8946
433.00 0.8698
433.10 0.8461
433.20 0.822
433.30 0.7977
433.40 0.771
433.50 0.7433
433.60 0.7145
433.70 0.6838
433.80 0.65
433.90 0.6132
434.00 0.5234
434.10 0.5245
434.20 0.6162
434.30 0.6517
434.40 0.6843
434.50 0.7142
434.60 0.7422
434.70 0.7689
434.80 0.7945
434.90 0.8179
435.00 0.8409
435.10 0.8635
435.20 0.8872
435.30 0.911
435.40 0.9351
435.50 0.9585
435.60 0.9811
435.70 1.003
435.80 1.023
435.90 1.043
436.00 1.061
436.10 1.079
436.20 1.095
436.30 1.112
436.40 1.127
436.50 1.141
436.60 1.156
436.70 1.169
436.80 1.182
436.90 1.195
437.00 1.207
437.10 1.218
437.20 1.23
437.30 1.241
437.40 1.251
437.50 1.261
437.60 1.271
437.70 1.28
437.80 1.29
437.90 1.298
438.00 1.306
438.10 1.314
438.20 1.322
438.30 1.329
438.40 1.336
438.50 1.343
438.60 1.349
438.70 1.355
438.80 1.361
438.90 1.367
439.00 1.372
439.10 1.377
439.20 1.382
439.30 1.386
439.40 1.39
439.50 1.394
439.60 1.398
439.70 1.402
439.80 1.405
439.90 1.409
440.00 1.412
440.10 1.415
440.20 1.418
440.30 1.42
440.40 1.423
440.50 1.425
440.60 1.427
440.70 1.43
440.80 1.432
440.90 1.433
441.00 1.435
441.10 1.437
441.20 1.438
441.30 1.44
441.40 1.441
441.50 1.442
441.60 1.444
441.70 1.445
441.80 1.446
441.90 1.447
442.00 1.447
442.10 1.448
442.20 1.449
442.30 1.45
442.40 1.45
442.50 1.451
442.60 1.451
442.70 1.451
442.80 1.452
442.90 1.452
443.00 1.452
443.10 1.452
443.20 1.453
443.30 1.453
443.40 1.453
443.50 1.453
443.60 1.453
443.70 1.453
443.80 1.453
443.90 1.453
444.00 1.452
444.10 1.452
444.20 1.452
444.30 1.452
444.40 1.451
444.50 1.451
444.60 1.451
444.70 1.45
444.80 1.45
444.90 1.45
445.00 1.449
445.10 1.449
445.20 1.448
445.30 1.448
445.40 1.447
445.50 1.447
445.60 1.446
445.70 1.446
445.80 1.445
445.90 1.445
446.00 1.444
446.10 1.443
446.20 1.443
446.30 1.442
446.40 1.441
446.50 1.441
446.60 1.44
446.70 1.439
446.80 1.439
446.90 1.438
447.00 1.437
447.10 1.437
447.20 1.436
447.30 1.435
447.40 1.434
447.50 1.434
447.60 1.433
447.70 1.432
447.80 1.431
447.90 1.431
448.00 1.43
448.10 1.429
448.20 1.428
448.30 1.427
448.40 1.427
448.50 1.426
448.60 1.425
448.70 1.424
448.80 1.423
448.90 1.423
449.00 1.422
449.10 1.421
449.20 1.42
449.30 1.419
449.40 1.418
449.50 1.418
449.60 1.417
449.70 1.416
449.80 1.415
449.90 1.414
450.00 1.413
450.10 1.413
450.20 1.412
450.30 1.411
450.40 1.41
450.50 1.409
450.60 1.408
450.70 1.407
450.80 1.406
450.90 1.406
451.00 1.405
451.10 1.404
451.20 1.403
451.30 1.402
451.40 1.401
451.50 1.4
451.60 1.399
451.70 1.398
451.80 1.398
451.90 1.397
452.00 1.396
452.10 1.395
452.20 1.394
452.30 1.393
452.40 1.392
452.50 1.391
452.60 1.39
452.70 1.389
452.80 1.388
452.90 1.388
453.00 1.387
453.10 1.386
453.20 1.385
453.30 1.384
453.40 1.383
453.50 1.382
