# Version 2.1 - nm, norm@500 to 1, cut digits, bergeron_4000_65.dat_4000
# Wavelength(nm)  Flambda(ergs/cm^s/s/nm)
300.00 0.1467
300.10 0.147
300.20 0.1473
300.30 0.1476
300.40 0.1479
300.50 0.1482
300.60 0.1485
300.70 0.1488
300.80 0.1491
300.90 0.1495
301.00 0.1498
301.10 0.1501
301.20 0.1504
301.30 0.1507
301.40 0.151
301.50 0.1513
301.60 0.1516
301.70 0.1519
301.80 0.1522
301.90 0.1525
302.00 0.1528
302.10 0.1531
302.20 0.1534
302.30 0.1537
302.40 0.1541
302.50 0.1544
302.60 0.1547
302.70 0.155
302.80 0.1553
302.90 0.1556
303.00 0.1559
303.10 0.1563
303.20 0.1566
303.30 0.1569
303.40 0.1572
303.50 0.1575
303.60 0.1578
303.70 0.1581
303.80 0.1584
303.90 0.1587
304.00 0.159
304.10 0.1594
304.20 0.1597
304.30 0.16
304.40 0.1603
304.50 0.1606
304.60 0.161
304.70 0.1613
304.80 0.1616
304.90 0.1619
305.00 0.1622
305.10 0.1626
305.20 0.1629
305.30 0.1632
305.40 0.1635
305.50 0.1638
305.60 0.1642
305.70 0.1645
305.80 0.1648
305.90 0.1651
306.00 0.1654
306.10 0.1657
306.20 0.1661
306.30 0.1664
306.40 0.1667
306.50 0.1671
306.60 0.1674
306.70 0.1677
306.80 0.168
306.90 0.1684
307.00 0.1687
307.10 0.169
307.20 0.1693
307.30 0.1697
307.40 0.17
307.50 0.1703
307.60 0.1706
307.70 0.1709
307.80 0.1713
307.90 0.1716
308.00 0.1719
308.10 0.1722
308.20 0.1726
308.30 0.1729
308.40 0.1732
308.50 0.1736
308.60 0.1739
308.70 0.1742
308.80 0.1746
308.90 0.1749
309.00 0.1752
309.10 0.1756
309.20 0.1759
309.30 0.1762
309.40 0.1766
309.50 0.1769
309.60 0.1772
309.70 0.1776
309.80 0.1779
309.90 0.1782
310.00 0.1785
310.10 0.1789
310.20 0.1792
310.30 0.1796
310.40 0.1799
310.50 0.1802
310.60 0.1806
310.70 0.1809
310.80 0.1813
310.90 0.1816
311.00 0.1819
311.10 0.1823
311.20 0.1826
311.30 0.183
311.40 0.1833
311.50 0.1836
311.60 0.184
311.70 0.1843
311.80 0.1846
311.90 0.185
312.00 0.1853
312.10 0.1856
312.20 0.186
312.30 0.1863
312.40 0.1867
312.50 0.187
312.60 0.1874
312.70 0.1877
312.80 0.188
312.90 0.1884
313.00 0.1887
313.10 0.1891
313.20 0.1894
313.30 0.1898
313.40 0.1901
313.50 0.1905
313.60 0.1908
313.70 0.1911
313.80 0.1915
313.90 0.1918
314.00 0.1922
314.10 0.1925
314.20 0.1929
314.30 0.1932
314.40 0.1936
314.50 0.1939
314.60 0.1943
314.70 0.1946
314.80 0.195
314.90 0.1953
315.00 0.1957
315.10 0.196
315.20 0.1964
315.30 0.1967
315.40 0.1971
315.50 0.1974
315.60 0.1978
315.70 0.1981
315.80 0.1985
315.90 0.1988
316.00 0.1992
316.10 0.1995
316.20 0.1999
316.30 0.2002
316.40 0.2006
316.50 0.2009
316.60 0.2013
316.70 0.2017
316.80 0.202
316.90 0.2024
317.00 0.2027
317.10 0.2031
317.20 0.2034
317.30 0.2038
317.40 0.2041
317.50 0.2045
317.60 0.2048
317.70 0.2052
317.80 0.2056
317.90 0.2059
318.00 0.2063
318.10 0.2066
318.20 0.207
318.30 0.2074
318.40 0.2077
318.50 0.2081
318.60 0.2084
318.70 0.2088
318.80 0.2092
318.90 0.2095
319.00 0.2099
319.10 0.2103
319.20 0.2106
319.30 0.211
319.40 0.2113
319.50 0.2117
319.60 0.2121
319.70 0.2124
319.80 0.2128
319.90 0.2131
320.00 0.2135
320.10 0.2139
320.20 0.2142
320.30 0.2146
320.40 0.215
320.50 0.2153
320.60 0.2157
320.70 0.2161
320.80 0.2164
320.90 0.2168
321.00 0.2172
321.10 0.2175
321.20 0.2179
321.30 0.2183
321.40 0.2186
321.50 0.219
321.60 0.2194
321.70 0.2197
321.80 0.2201
321.90 0.2205
322.00 0.2208
322.10 0.2212
322.20 0.2216
322.30 0.2219
322.40 0.2223
322.50 0.2227
322.60 0.2231
322.70 0.2234
322.80 0.2238
322.90 0.2242
323.00 0.2246
323.10 0.2249
323.20 0.2253
323.30 0.2257
323.40 0.2261
323.50 0.2264
323.60 0.2268
323.70 0.2272
323.80 0.2275
323.90 0.2279
324.00 0.2283
324.10 0.2286
324.20 0.229
324.30 0.2294
324.40 0.2298
324.50 0.2302
324.60 0.2306
324.70 0.2309
324.80 0.2313
324.90 0.2317
325.00 0.2321
325.10 0.2324
325.20 0.2328
325.30 0.2332
325.40 0.2336
325.50 0.234
325.60 0.2343
325.70 0.2347
325.80 0.2351
325.90 0.2355
326.00 0.2358
326.10 0.2362
326.20 0.2366
326.30 0.237
326.40 0.2374
326.50 0.2378
326.60 0.2381
326.70 0.2385
326.80 0.2389
326.90 0.2393
327.00 0.2397
327.10 0.2401
327.20 0.2404
327.30 0.2408
327.40 0.2412
327.50 0.2416
327.60 0.242
327.70 0.2424
327.80 0.2427
327.90 0.2431
328.00 0.2435
328.10 0.2439
328.20 0.2443
328.30 0.2447
328.40 0.2451
328.50 0.2455
328.60 0.2458
328.70 0.2462
328.80 0.2466
328.90 0.247
329.00 0.2474
329.10 0.2478
329.20 0.2482
329.30 0.2486
329.40 0.2489
329.50 0.2493
329.60 0.2497
329.70 0.2501
329.80 0.2505
329.90 0.2509
330.00 0.2513
330.10 0.2517
330.20 0.2521
330.30 0.2525
330.40 0.2528
330.50 0.2532
330.60 0.2536
330.70 0.254
330.80 0.2544
330.90 0.2548
331.00 0.2552
331.10 0.2556
331.20 0.256
331.30 0.2564
331.40 0.2568
331.50 0.2572
331.60 0.2576
331.70 0.258
331.80 0.2583
331.90 0.2587
332.00 0.2591
332.10 0.2595
332.20 0.2599
332.30 0.2603
332.40 0.2607
332.50 0.2611
332.60 0.2615
332.70 0.2619
332.80 0.2623
332.90 0.2627
333.00 0.2631
333.10 0.2635
333.20 0.2639
333.30 0.2643
333.40 0.2647
333.50 0.2651
333.60 0.2655
333.70 0.2659
333.80 0.2663
333.90 0.2667
334.00 0.2671
334.10 0.2675
334.20 0.2679
334.30 0.2683
334.40 0.2687
334.50 0.2691
334.60 0.2695
334.70 0.2699
334.80 0.2703
334.90 0.2707
335.00 0.2711
335.10 0.2716
335.20 0.272
335.30 0.2724
335.40 0.2728
335.50 0.2732
335.60 0.2736
335.70 0.274
335.80 0.2744
335.90 0.2748
336.00 0.2752
336.10 0.2756
336.20 0.276
336.30 0.2764
336.40 0.2768
336.50 0.2772
336.60 0.2776
336.70 0.278
336.80 0.2784
336.90 0.2789
337.00 0.2793
337.10 0.2797
337.20 0.2801
337.30 0.2805
337.40 0.2809
337.50 0.2813
337.60 0.2817
337.70 0.2821
337.80 0.2825
337.90 0.2829
338.00 0.2833
338.10 0.2837
338.20 0.2841
338.30 0.2846
338.40 0.285
338.50 0.2854
338.60 0.2858
338.70 0.2862
338.80 0.2866
338.90 0.287
339.00 0.2875
339.10 0.2879
339.20 0.2883
339.30 0.2887
339.40 0.2891
339.50 0.2895
339.60 0.2899
339.70 0.2903
339.80 0.2907
339.90 0.2911
340.00 0.2916
340.10 0.292
340.20 0.2924
340.30 0.2928
340.40 0.2932
340.50 0.2937
340.60 0.2941
340.70 0.2945
340.80 0.2949
340.90 0.2953
341.00 0.2958
341.10 0.2962
341.20 0.2966
341.30 0.297
341.40 0.2974
341.50 0.2978
341.60 0.2982
341.70 0.2987
341.80 0.2991
341.90 0.2995
342.00 0.2999
342.10 0.3003
342.20 0.3007
342.30 0.3012
342.40 0.3016
342.50 0.302
342.60 0.3024
342.70 0.3029
342.80 0.3033
342.90 0.3037
343.00 0.3041
343.10 0.3045
343.20 0.305
343.30 0.3054
343.40 0.3058
343.50 0.3062
343.60 0.3066
343.70 0.3071
343.80 0.3075
343.90 0.3079
344.00 0.3083
344.10 0.3087
344.20 0.3092
344.30 0.3096
344.40 0.31
344.50 0.3104
344.60 0.3109
344.70 0.3113
344.80 0.3117
344.90 0.3122
345.00 0.3126
345.10 0.313
345.20 0.3134
345.30 0.3139
345.40 0.3143
345.50 0.3147
345.60 0.3151
345.70 0.3156
345.80 0.316
345.90 0.3164
346.00 0.3168
346.10 0.3172
346.20 0.3177
346.30 0.3181
346.40 0.3185
346.50 0.319
346.60 0.3194
346.70 0.3198
346.80 0.3203
346.90 0.3207
347.00 0.3211
347.10 0.3215
347.20 0.322
347.30 0.3224
347.40 0.3228
347.50 0.3233
347.60 0.3237
347.70 0.3241
347.80 0.3245
347.90 0.325
348.00 0.3254
348.10 0.3258
348.20 0.3262
348.30 0.3267
348.40 0.3271
348.50 0.3276
348.60 0.328
348.70 0.3284
348.80 0.3289
348.90 0.3293
349.00 0.3297
349.10 0.3302
349.20 0.3306
349.30 0.331
349.40 0.3315
349.50 0.3319
349.60 0.3323
349.70 0.3327
349.80 0.3332
349.90 0.3336
350.00 0.334
350.10 0.3345
350.20 0.3349
350.30 0.3354
350.40 0.3358
350.50 0.3362
350.60 0.3367
350.70 0.3371
350.80 0.3375
350.90 0.338
351.00 0.3384
351.10 0.3389
351.20 0.3393
351.30 0.3397
351.40 0.3402
351.50 0.3406
351.60 0.341
351.70 0.3415
351.80 0.3419
351.90 0.3423
352.00 0.3428
352.10 0.3432
352.20 0.3436
352.30 0.3441
352.40 0.3445
352.50 0.345
352.60 0.3454
352.70 0.3459
352.80 0.3463
352.90 0.3467
353.00 0.3472
353.10 0.3476
353.20 0.3481
353.30 0.3485
353.40 0.3489
353.50 0.3494
353.60 0.3498
353.70 0.3503
353.80 0.3507
353.90 0.3511
354.00 0.3516
354.10 0.352
354.20 0.3525
354.30 0.3529
354.40 0.3534
354.50 0.3538
354.60 0.3542
354.70 0.3547
354.80 0.3551
354.90 0.3556
355.00 0.356
355.10 0.3565
355.20 0.3569
355.30 0.3573
355.40 0.3578
355.50 0.3582
355.60 0.3587
355.70 0.3591
355.80 0.3595
355.90 0.36
356.00 0.3604
356.10 0.3609
356.20 0.3613
356.30 0.3618
356.40 0.3622
356.50 0.3627
356.60 0.3631
356.70 0.3636
356.80 0.364
356.90 0.3645
357.00 0.3649
357.10 0.3653
357.20 0.3658
357.30 0.3662
357.40 0.3667
357.50 0.3671
357.60 0.3676
357.70 0.368
357.80 0.3685
357.90 0.3689
358.00 0.3693
358.10 0.3698
358.20 0.3702
358.30 0.3707
358.40 0.3712
358.50 0.3716
358.60 0.3721
358.70 0.3725
358.80 0.373
358.90 0.3734
359.00 0.3739
359.10 0.3743
359.20 0.3748
359.30 0.3752
359.40 0.3757
359.50 0.3761
359.60 0.3766
359.70 0.377
359.80 0.3775
359.90 0.3779
360.00 0.3783
360.10 0.3788
360.20 0.3793
360.30 0.3797
360.40 0.3802
360.50 0.3806
360.60 0.3811
360.70 0.3815
360.80 0.382
360.90 0.3824
361.00 0.3829
361.10 0.3833
361.20 0.3838
361.30 0.3842
361.40 0.3847
361.50 0.3851
361.60 0.3856
361.70 0.386
361.80 0.3865
361.90 0.3869
362.00 0.3874
362.10 0.3878
362.20 0.3883
362.30 0.3887
362.40 0.3892
362.50 0.3896
362.60 0.3901
362.70 0.3906
362.80 0.391
362.90 0.3915
363.00 0.3919
363.10 0.3924
363.20 0.3928
363.30 0.3933
363.40 0.3938
363.50 0.3942
363.60 0.3947
363.70 0.3951
363.80 0.3956
363.90 0.396
364.00 0.3965
364.10 0.3969
364.20 0.3974
364.30 0.3979
364.40 0.3983
364.50 0.3988
364.60 0.3992
364.70 0.3997
364.80 0.4001
364.90 0.4006
365.00 0.4011
365.10 0.4015
365.20 0.402
365.30 0.4024
365.40 0.4029
365.50 0.4033
365.60 0.4038
365.70 0.4043
365.80 0.4047
365.90 0.4052
366.00 0.4056
366.10 0.4061
366.20 0.4065
366.30 0.407
366.40 0.4075
366.50 0.4079
366.60 0.4084
366.70 0.4089
366.80 0.4093
366.90 0.4098
367.00 0.4102
367.10 0.4107
367.20 0.4112
367.30 0.4116
367.40 0.4121
367.50 0.4125
367.60 0.413
367.70 0.4135
367.80 0.4139
367.90 0.4144
368.00 0.4148
368.10 0.4153
368.20 0.4158
368.30 0.4162
368.40 0.4167
368.50 0.4172
368.60 0.4176
368.70 0.4181
368.80 0.4185
368.90 0.419
369.00 0.4195
369.10 0.4199
369.20 0.4204
369.30 0.4209
369.40 0.4213
369.50 0.4218
369.60 0.4222
369.70 0.4227
369.80 0.4232
369.90 0.4236
370.00 0.4241
370.10 0.4245
370.20 0.425
370.30 0.4255
370.40 0.4259
370.50 0.4264
370.60 0.4269
370.70 0.4273
370.80 0.4278
370.90 0.4283
371.00 0.4287
371.10 0.4292
371.20 0.4297
371.30 0.4301
371.40 0.4306
371.50 0.4311
371.60 0.4315
371.70 0.432
371.80 0.4324
371.90 0.4329
372.00 0.4334
372.10 0.4338
372.20 0.4343
372.30 0.4348
372.40 0.4352
372.50 0.4357
372.60 0.4362
372.70 0.4366
372.80 0.4371
372.90 0.4376
373.00 0.438
373.10 0.4385
373.20 0.439
373.30 0.4394
373.40 0.4399
373.50 0.4404
373.60 0.4408
373.70 0.4413
373.80 0.4418
373.90 0.4422
374.00 0.4427
374.10 0.4432
374.20 0.4436
374.30 0.4441
374.40 0.4446
374.50 0.445
374.60 0.4455
374.70 0.446
374.80 0.4465
374.90 0.4469
375.00 0.4474
375.10 0.4479
375.20 0.4483
375.30 0.4488
375.40 0.4493
375.50 0.4497
375.60 0.4502
375.70 0.4507
375.80 0.4511
375.90 0.4516
376.00 0.452
376.10 0.4525
376.20 0.453
376.30 0.4535
376.40 0.4539
376.50 0.4544
376.60 0.4549
376.70 0.4553
376.80 0.4558
376.90 0.4563
377.00 0.4567
377.10 0.4572
377.20 0.4577
377.30 0.4581
377.40 0.4586
377.50 0.4591
377.60 0.4596
377.70 0.46
377.80 0.4605
377.90 0.461
378.00 0.4614
378.10 0.4619
378.20 0.4624
378.30 0.4629
378.40 0.4633
378.50 0.4638
378.60 0.4643
378.70 0.4647
378.80 0.4652
378.90 0.4657
379.00 0.4662
379.10 0.4666
379.20 0.4671
379.30 0.4676
379.40 0.468
379.50 0.4685
379.60 0.469
379.70 0.4695
379.80 0.4699
379.90 0.4704
380.00 0.4709
380.10 0.4713
380.20 0.4718
380.30 0.4723
380.40 0.4728
380.50 0.4732
380.60 0.4737
380.70 0.4742
380.80 0.4747
380.90 0.4751
381.00 0.4756
381.10 0.4761
381.20 0.4765
381.30 0.477
381.40 0.4775
381.50 0.478
381.60 0.4784
381.70 0.4789
381.80 0.4794
381.90 0.4799
382.00 0.4803
382.10 0.4808
382.20 0.4813
382.30 0.4818
382.40 0.4822
382.50 0.4827
382.60 0.4832
382.70 0.4837
382.80 0.4841
382.90 0.4846
383.00 0.4851
383.10 0.4855
383.20 0.486
383.30 0.4865
383.40 0.487
383.50 0.4874
383.60 0.4879
383.70 0.4884
383.80 0.4888
383.90 0.4893
384.00 0.4898
384.10 0.4903
384.20 0.4908
384.30 0.4912
384.40 0.4917
384.50 0.4922
384.60 0.4926
384.70 0.4931
384.80 0.4936
384.90 0.4941
385.00 0.4946
385.10 0.495
385.20 0.4955
385.30 0.496
385.40 0.4965
385.50 0.4969
385.60 0.4974
385.70 0.4979
385.80 0.4983
385.90 0.4988
386.00 0.4993
386.10 0.4998
386.20 0.5003
386.30 0.5007
386.40 0.5012
386.50 0.5017
386.60 0.5022
386.70 0.5026
386.80 0.5031
386.90 0.5036
387.00 0.5041
387.10 0.5045
387.20 0.505
387.30 0.5055
387.40 0.506
387.50 0.5064
387.60 0.5069
387.70 0.5074
387.80 0.5079
387.90 0.5083
388.00 0.5088
388.10 0.5093
388.20 0.5098
388.30 0.5103
388.40 0.5107
388.50 0.5112
388.60 0.5117
388.70 0.5122
388.80 0.5126
388.90 0.5131
389.00 0.5136
389.10 0.5141
389.20 0.5145
389.30 0.515
389.40 0.5155
389.50 0.516
389.60 0.5164
389.70 0.5169
389.80 0.5174
389.90 0.5179
390.00 0.5184
390.10 0.5188
390.20 0.5193
390.30 0.5198
390.40 0.5203
390.50 0.5207
390.60 0.5212
390.70 0.5217
390.80 0.5222
390.90 0.5227
391.00 0.5231
391.10 0.5236
391.20 0.5241
391.30 0.5246
391.40 0.525
391.50 0.5255
391.60 0.526
391.70 0.5265
391.80 0.527
391.90 0.5274
392.00 0.5279
392.10 0.5284
392.20 0.5289
392.30 0.5293
392.40 0.5298
392.50 0.5303
392.60 0.5308
392.70 0.5313
392.80 0.5317
392.90 0.5322
393.00 0.5327
393.10 0.5332
393.20 0.5336
393.30 0.5341
393.40 0.5346
393.50 0.5351
393.60 0.5356
393.70 0.536
393.80 0.5365
393.90 0.537
394.00 0.5375
394.10 0.5379
394.20 0.5384
394.30 0.5389
394.40 0.5394
394.50 0.5399
394.60 0.5403
394.70 0.5408
394.80 0.5413
394.90 0.5418
395.00 0.5422
395.10 0.5427
395.20 0.5432
395.30 0.5437
395.40 0.5442
395.50 0.5446
395.60 0.5451
395.70 0.5456
395.80 0.5461
395.90 0.5465
396.00 0.547
396.10 0.5475
396.20 0.548
396.30 0.5485
396.40 0.5489
396.50 0.5494
396.60 0.5499
396.70 0.5504
396.80 0.5509
396.90 0.5513
397.00 0.5518
397.10 0.5523
397.20 0.5528
397.30 0.5532
397.40 0.5537
397.50 0.5542
397.60 0.5547
397.70 0.5552
397.80 0.5556
397.90 0.5561
398.00 0.5566
398.10 0.5571
398.20 0.5576
398.30 0.558
398.40 0.5585
398.50 0.559
398.60 0.5595
398.70 0.5599
398.80 0.5604
398.90 0.5609
399.00 0.5614
399.10 0.5619
399.20 0.5623
399.30 0.5628
399.40 0.5633
399.50 0.5638
399.60 0.5643
399.70 0.5647
399.80 0.5652
399.90 0.5657
400.00 0.5662
400.10 0.5666
400.20 0.5671
400.30 0.5676
400.40 0.5681
400.50 0.5686
400.60 0.569
400.70 0.5695
400.80 0.57
400.90 0.5705
401.00 0.571
401.10 0.5714
401.20 0.5719
401.30 0.5724
401.40 0.5729
401.50 0.5733
401.60 0.5738
401.70 0.5743
401.80 0.5748
401.90 0.5753
402.00 0.5758
402.10 0.5762
402.20 0.5767
402.30 0.5772
402.40 0.5777
402.50 0.5781
402.60 0.5786
402.70 0.5791
402.80 0.5796
402.90 0.5801
403.00 0.5805
403.10 0.581
403.20 0.5815
403.30 0.582
403.40 0.5824
403.50 0.5829
403.60 0.5834
403.70 0.5839
403.80 0.5844
403.90 0.5848
404.00 0.5853
404.10 0.5858
404.20 0.5863
404.30 0.5868
404.40 0.5872
404.50 0.5877
404.60 0.5882
404.70 0.5887
404.80 0.5891
404.90 0.5896
405.00 0.5901
405.10 0.5906
405.20 0.591
405.30 0.5915
405.40 0.592
405.50 0.5925
405.60 0.593
405.70 0.5934
405.80 0.5939
405.90 0.5944
406.00 0.5949
406.10 0.5954
406.20 0.5958
406.30 0.5963
406.40 0.5968
406.50 0.5973
406.60 0.5977
406.70 0.5982
406.80 0.5987
406.90 0.5992
407.00 0.5996
407.10 0.6001
407.20 0.6006
407.30 0.6011
407.40 0.6016
407.50 0.602
407.60 0.6025
407.70 0.603
407.80 0.6035
407.90 0.604
408.00 0.6044
408.10 0.6049
408.20 0.6054
408.30 0.6059
408.40 0.6063
408.50 0.6068
408.60 0.6073
408.70 0.6078
408.80 0.6082
408.90 0.6087
409.00 0.6092
409.10 0.6097
409.20 0.6102
409.30 0.6106
409.40 0.6111
409.50 0.6116
409.60 0.612
409.70 0.6125
409.80 0.613
409.90 0.6135
410.00 0.6139
410.10 0.6144
410.20 0.6148
410.30 0.6153
410.40 0.6158
410.50 0.6163
410.60 0.6168
410.70 0.6173
410.80 0.6178
410.90 0.6183
411.00 0.6187
411.10 0.6192
411.20 0.6197
411.30 0.6202
411.40 0.6206
411.50 0.6211
411.60 0.6216
411.70 0.6221
411.80 0.6225
411.90 0.623
412.00 0.6235
412.10 0.624
412.20 0.6245
412.30 0.6249
412.40 0.6254
412.50 0.6259
412.60 0.6264
412.70 0.6268
412.80 0.6273
412.90 0.6278
413.00 0.6283
413.10 0.6287
413.20 0.6292
413.30 0.6297
413.40 0.6302
413.50 0.6306
413.60 0.6311
413.70 0.6316
413.80 0.6321
413.90 0.6325
414.00 0.633
414.10 0.6335
414.20 0.634
414.30 0.6344
414.40 0.6349
414.50 0.6354
414.60 0.6359
414.70 0.6363
414.80 0.6368
414.90 0.6373
415.00 0.6378
415.10 0.6382
415.20 0.6387
415.30 0.6392
415.40 0.6397
415.50 0.6401
415.60 0.6406
415.70 0.6411
415.80 0.6416
415.90 0.642
416.00 0.6425
416.10 0.643
416.20 0.6435
416.30 0.6439
416.40 0.6444
416.50 0.6449
416.60 0.6453
416.70 0.6458
416.80 0.6463
416.90 0.6468
417.00 0.6473
417.10 0.6477
417.20 0.6482
417.30 0.6487
417.40 0.6491
417.50 0.6496
417.60 0.6501
417.70 0.6506
417.80 0.651
417.90 0.6515
418.00 0.652
418.10 0.6525
418.20 0.6529
418.30 0.6534
418.40 0.6539
418.50 0.6544
418.60 0.6548
418.70 0.6553
418.80 0.6558
418.90 0.6562
419.00 0.6567
419.10 0.6572
419.20 0.6577
419.30 0.6581
419.40 0.6586
419.50 0.6591
419.60 0.6595
419.70 0.66
419.80 0.6605
419.90 0.661
420.00 0.6614
420.10 0.6619
420.20 0.6624
420.30 0.6629
420.40 0.6633
420.50 0.6638
420.60 0.6643
420.70 0.6647
420.80 0.6652
420.90 0.6657
421.00 0.6662
421.10 0.6666
421.20 0.6671
421.30 0.6676
421.40 0.668
421.50 0.6685
421.60 0.669
421.70 0.6695
421.80 0.6699
421.90 0.6704
422.00 0.6709
422.10 0.6713
422.20 0.6718
422.30 0.6723
422.40 0.6727
422.50 0.6732
422.60 0.6737
422.70 0.6742
422.80 0.6746
422.90 0.6751
423.00 0.6756
423.10 0.676
423.20 0.6765
423.30 0.677
423.40 0.6774
423.50 0.6779
423.60 0.6784
423.70 0.6789
423.80 0.6793
423.90 0.6798
424.00 0.6803
424.10 0.6807
424.20 0.6812
424.30 0.6817
424.40 0.6821
424.50 0.6826
424.60 0.6831
424.70 0.6835
424.80 0.684
424.90 0.6845
425.00 0.685
425.10 0.6854
425.20 0.6859
425.30 0.6864
425.40 0.6868
425.50 0.6873
425.60 0.6878
425.70 0.6882
425.80 0.6887
425.90 0.6892
426.00 0.6896
426.10 0.6901
426.20 0.6906
426.30 0.691
426.40 0.6915
426.50 0.692
426.60 0.6924
426.70 0.6929
426.80 0.6934
426.90 0.6938
427.00 0.6943
427.10 0.6948
427.20 0.6952
427.30 0.6957
427.40 0.6962
427.50 0.6966
427.60 0.6971
427.70 0.6976
427.80 0.698
427.90 0.6985
428.00 0.699
428.10 0.6994
428.20 0.6999
428.30 0.7004
428.40 0.7008
428.50 0.7013
428.60 0.7018
428.70 0.7022
428.80 0.7027
428.90 0.7032
429.00 0.7036
429.10 0.7041
429.20 0.7046
429.30 0.705
429.40 0.7055
429.50 0.706
429.60 0.7064
429.70 0.7069
429.80 0.7073
429.90 0.7078
430.00 0.7083
430.10 0.7088
430.20 0.7092
430.30 0.7097
430.40 0.7101
430.50 0.7106
430.60 0.7111
430.70 0.7115
430.80 0.712
430.90 0.7124
431.00 0.7129
431.10 0.7134
431.20 0.7139
431.30 0.7143
431.40 0.7148
431.50 0.7152
431.60 0.7157
431.70 0.7162
431.80 0.7166
431.90 0.7171
432.00 0.7175
432.10 0.718
432.20 0.7185
432.30 0.7189
432.40 0.7194
432.50 0.7199
432.60 0.7203
432.70 0.7208
432.80 0.7212
432.90 0.7217
433.00 0.7222
433.10 0.7226
433.20 0.7231
433.30 0.7236
433.40 0.724
433.50 0.7245
433.60 0.7249
433.70 0.7254
433.80 0.7258
433.90 0.7262
434.00 0.7264
434.10 0.7269
434.20 0.7276
434.30 0.7281
434.40 0.7286
434.50 0.7291
434.60 0.7295
434.70 0.73
434.80 0.7305
434.90 0.7309
435.00 0.7314
435.10 0.7318
435.20 0.7323
435.30 0.7328
435.40 0.7332
435.50 0.7337
435.60 0.7341
435.70 0.7346
435.80 0.7351
435.90 0.7355
436.00 0.736
436.10 0.7364
436.20 0.7369
436.30 0.7373
436.40 0.7378
436.50 0.7383
436.60 0.7387
436.70 0.7392
436.80 0.7396
436.90 0.7401
437.00 0.7406
437.10 0.741
437.20 0.7415
437.30 0.7419
437.40 0.7424
437.50 0.7428
437.60 0.7433
437.70 0.7438
437.80 0.7442
437.90 0.7447
438.00 0.7451
438.10 0.7456
438.20 0.746
438.30 0.7465
438.40 0.747
438.50 0.7474
438.60 0.7479
438.70 0.7483
438.80 0.7488
438.90 0.7492
439.00 0.7497
439.10 0.7501
439.20 0.7506
439.30 0.7511
439.40 0.7515
439.50 0.752
439.60 0.7524
439.70 0.7529
439.80 0.7533
439.90 0.7538
440.00 0.7542
440.10 0.7547
440.20 0.7551
440.30 0.7556
440.40 0.756
440.50 0.7565
440.60 0.757
440.70 0.7574
440.80 0.7579
440.90 0.7583
441.00 0.7588
441.10 0.7592
441.20 0.7597
441.30 0.7601
441.40 0.7606
441.50 0.761
441.60 0.7615
441.70 0.7619
441.80 0.7624
441.90 0.7628
442.00 0.7633
442.10 0.7637
442.20 0.7642
442.30 0.7647
442.40 0.7651
442.50 0.7656
442.60 0.766
442.70 0.7665
442.80 0.7669
442.90 0.7674
443.00 0.7678
