# Version 2.1 - nm, norm@500 to 1, cut digits, bergeron_11500_90.dat_11500
# Wavelength(nm)  Flambda(ergs/cm^s/s/nm)
300.00 2.096
300.10 2.095
300.20 2.094
300.30 2.093
300.40 2.091
300.50 2.09
300.60 2.089
300.70 2.088
300.80 2.087
300.90 2.086
301.00 2.085
301.10 2.084
301.20 2.083
301.30 2.081
301.40 2.08
301.50 2.079
301.60 2.078
301.70 2.077
301.80 2.076
301.90 2.075
302.00 2.074
302.10 2.073
302.20 2.072
302.30 2.07
302.40 2.069
302.50 2.068
302.60 2.067
302.70 2.066
302.80 2.065
302.90 2.064
303.00 2.063
303.10 2.062
303.20 2.061
303.30 2.059
303.40 2.058
303.50 2.057
303.60 2.056
303.70 2.055
303.80 2.054
303.90 2.053
304.00 2.052
304.10 2.051
304.20 2.05
304.30 2.049
304.40 2.047
304.50 2.046
304.60 2.045
304.70 2.044
304.80 2.043
304.90 2.042
305.00 2.041
305.10 2.04
305.20 2.039
305.30 2.038
305.40 2.037
305.50 2.035
305.60 2.034
305.70 2.033
305.80 2.032
305.90 2.031
306.00 2.03
306.10 2.029
306.20 2.028
306.30 2.027
306.40 2.026
306.50 2.025
306.60 2.024
306.70 2.022
306.80 2.021
306.90 2.02
307.00 2.019
307.10 2.018
307.20 2.017
307.30 2.016
307.40 2.015
307.50 2.014
307.60 2.013
307.70 2.012
307.80 2.011
307.90 2.01
308.00 2.008
308.10 2.007
308.20 2.006
308.30 2.005
308.40 2.004
308.50 2.003
308.60 2.002
308.70 2.001
308.80 2
308.90 1.999
309.00 1.998
309.10 1.997
309.20 1.996
309.30 1.995
309.40 1.993
309.50 1.992
309.60 1.991
309.70 1.99
309.80 1.989
309.90 1.988
310.00 1.987
310.10 1.986
310.20 1.985
310.30 1.984
310.40 1.983
310.50 1.982
310.60 1.981
310.70 1.98
310.80 1.979
310.90 1.977
311.00 1.976
311.10 1.975
311.20 1.974
311.30 1.973
311.40 1.972
311.50 1.971
311.60 1.97
311.70 1.969
311.80 1.968
311.90 1.967
312.00 1.966
312.10 1.965
312.20 1.964
312.30 1.963
312.40 1.962
312.50 1.961
312.60 1.959
312.70 1.958
312.80 1.957
312.90 1.956
313.00 1.955
313.10 1.954
313.20 1.953
313.30 1.952
313.40 1.951
313.50 1.95
313.60 1.949
313.70 1.948
313.80 1.947
313.90 1.946
314.00 1.945
314.10 1.944
314.20 1.943
314.30 1.942
314.40 1.941
314.50 1.939
314.60 1.938
314.70 1.937
314.80 1.936
314.90 1.935
315.00 1.934
315.10 1.933
315.20 1.932
315.30 1.931
315.40 1.93
315.50 1.929
315.60 1.928
315.70 1.927
315.80 1.926
315.90 1.925
316.00 1.924
316.10 1.923
316.20 1.922
316.30 1.921
316.40 1.92
316.50 1.919
316.60 1.918
316.70 1.917
316.80 1.916
316.90 1.914
317.00 1.913
317.10 1.912
317.20 1.911
317.30 1.91
317.40 1.909
317.50 1.908
317.60 1.907
317.70 1.906
317.80 1.905
317.90 1.904
318.00 1.903
318.10 1.902
318.20 1.901
318.30 1.9
318.40 1.899
318.50 1.898
318.60 1.897
318.70 1.896
318.80 1.895
318.90 1.894
319.00 1.893
319.10 1.892
319.20 1.891
319.30 1.89
319.40 1.889
319.50 1.888
319.60 1.887
319.70 1.886
319.80 1.885
319.90 1.884
320.00 1.883
320.10 1.882
320.20 1.881
320.30 1.88
320.40 1.878
320.50 1.877
320.60 1.876
320.70 1.875
320.80 1.874
320.90 1.873
321.00 1.872
321.10 1.871
321.20 1.87
321.30 1.869
321.40 1.868
321.50 1.867
321.60 1.866
321.70 1.865
321.80 1.864
321.90 1.863
322.00 1.862
322.10 1.861
322.20 1.86
322.30 1.859
322.40 1.858
322.50 1.857
322.60 1.856
322.70 1.855
322.80 1.854
322.90 1.853
323.00 1.852
323.10 1.851
323.20 1.85
323.30 1.849
323.40 1.848
323.50 1.847
323.60 1.846
323.70 1.845
323.80 1.844
323.90 1.843
324.00 1.842
324.10 1.841
324.20 1.84
324.30 1.839
324.40 1.838
324.50 1.837
324.60 1.836
324.70 1.835
324.80 1.834
324.90 1.833
325.00 1.832
325.10 1.831
325.20 1.83
325.30 1.829
325.40 1.828
325.50 1.827
325.60 1.826
325.70 1.825
325.80 1.824
325.90 1.823
326.00 1.822
326.10 1.821
326.20 1.82
326.30 1.819
326.40 1.818
326.50 1.817
326.60 1.816
326.70 1.815
326.80 1.814
326.90 1.813
327.00 1.812
327.10 1.811
327.20 1.81
327.30 1.809
327.40 1.808
327.50 1.807
327.60 1.806
327.70 1.805
327.80 1.804
327.90 1.803
328.00 1.802
328.10 1.801
328.20 1.8
328.30 1.799
328.40 1.798
328.50 1.797
328.60 1.796
328.70 1.795
328.80 1.794
328.90 1.793
329.00 1.792
329.10 1.791
329.20 1.791
329.30 1.79
329.40 1.789
329.50 1.788
329.60 1.787
329.70 1.786
329.80 1.785
329.90 1.784
330.00 1.783
330.10 1.782
330.20 1.781
330.30 1.78
330.40 1.779
330.50 1.778
330.60 1.777
330.70 1.776
330.80 1.775
330.90 1.774
331.00 1.773
331.10 1.772
331.20 1.771
331.30 1.77
331.40 1.769
331.50 1.768
331.60 1.767
331.70 1.766
331.80 1.765
331.90 1.764
332.00 1.763
332.10 1.762
332.20 1.761
332.30 1.76
332.40 1.759
332.50 1.758
332.60 1.757
332.70 1.757
332.80 1.756
332.90 1.755
333.00 1.754
333.10 1.753
333.20 1.752
333.30 1.751
333.40 1.75
333.50 1.749
333.60 1.748
333.70 1.747
333.80 1.746
333.90 1.745
334.00 1.744
334.10 1.743
334.20 1.742
334.30 1.741
334.40 1.74
334.50 1.739
334.60 1.738
334.70 1.737
334.80 1.736
334.90 1.735
335.00 1.735
335.10 1.734
335.20 1.733
335.30 1.732
335.40 1.731
335.50 1.73
335.60 1.729
335.70 1.728
335.80 1.727
335.90 1.726
336.00 1.725
336.10 1.724
336.20 1.723
336.30 1.722
336.40 1.721
336.50 1.72
336.60 1.719
336.70 1.718
336.80 1.717
336.90 1.717
337.00 1.716
337.10 1.715
337.20 1.714
337.30 1.713
337.40 1.712
337.50 1.711
337.60 1.71
337.70 1.709
337.80 1.708
337.90 1.707
338.00 1.706
338.10 1.705
338.20 1.704
338.30 1.703
338.40 1.702
338.50 1.702
338.60 1.701
338.70 1.7
338.80 1.699
338.90 1.698
339.00 1.697
339.10 1.696
339.20 1.695
339.30 1.694
339.40 1.693
339.50 1.692
339.60 1.691
339.70 1.69
339.80 1.689
339.90 1.688
340.00 1.688
340.10 1.687
340.20 1.686
340.30 1.685
340.40 1.684
340.50 1.683
340.60 1.682
340.70 1.681
340.80 1.68
340.90 1.679
341.00 1.678
341.10 1.677
341.20 1.676
341.30 1.676
341.40 1.675
341.50 1.674
341.60 1.673
341.70 1.672
341.80 1.671
341.90 1.67
342.00 1.669
342.10 1.668
342.20 1.667
342.30 1.666
342.40 1.665
342.50 1.665
342.60 1.664
342.70 1.663
342.80 1.662
342.90 1.661
343.00 1.66
343.10 1.659
343.20 1.658
343.30 1.657
343.40 1.656
343.50 1.655
343.60 1.654
343.70 1.654
343.80 1.653
343.90 1.652
344.00 1.651
344.10 1.65
344.20 1.649
344.30 1.648
344.40 1.647
344.50 1.646
344.60 1.645
344.70 1.644
344.80 1.644
344.90 1.643
345.00 1.642
345.10 1.641
345.20 1.64
345.30 1.639
345.40 1.638
345.50 1.637
345.60 1.636
345.70 1.635
345.80 1.635
345.90 1.634
346.00 1.633
346.10 1.632
346.20 1.631
346.30 1.63
346.40 1.629
346.50 1.628
346.60 1.627
346.70 1.626
346.80 1.626
346.90 1.625
347.00 1.624
347.10 1.623
347.20 1.622
347.30 1.621
347.40 1.62
347.50 1.619
347.60 1.618
347.70 1.618
347.80 1.617
347.90 1.616
348.00 1.615
348.10 1.614
348.20 1.613
348.30 1.612
348.40 1.611
348.50 1.61
348.60 1.61
348.70 1.609
348.80 1.608
348.90 1.607
349.00 1.606
349.10 1.605
349.20 1.604
349.30 1.603
349.40 1.602
349.50 1.602
349.60 1.601
349.70 1.6
349.80 1.599
349.90 1.598
350.00 1.597
350.10 1.596
350.20 1.595
350.30 1.595
350.40 1.594
350.50 1.593
350.60 1.592
350.70 1.591
350.80 1.59
350.90 1.589
351.00 1.588
351.10 1.588
351.20 1.587
351.30 1.586
351.40 1.585
351.50 1.584
351.60 1.583
351.70 1.582
351.80 1.581
351.90 1.581
352.00 1.58
352.10 1.579
352.20 1.578
352.30 1.577
352.40 1.576
352.50 1.575
352.60 1.574
352.70 1.574
352.80 1.573
352.90 1.572
353.00 1.571
353.10 1.57
353.20 1.569
353.30 1.568
353.40 1.568
353.50 1.567
353.60 1.566
353.70 1.565
353.80 1.564
353.90 1.563
354.00 1.562
354.10 1.562
354.20 1.561
354.30 1.56
354.40 1.559
354.50 1.558
354.60 1.557
354.70 1.556
354.80 1.555
354.90 1.555
355.00 1.554
355.10 1.553
355.20 1.552
355.30 1.551
355.40 1.55
355.50 1.549
355.60 1.549
355.70 1.548
355.80 1.547
355.90 1.546
356.00 1.545
356.10 1.544
356.20 1.544
356.30 1.543
356.40 1.542
356.50 1.541
356.60 1.54
356.70 1.539
356.80 1.538
356.90 1.538
357.00 1.537
357.10 1.536
357.20 1.535
357.30 1.534
357.40 1.533
357.50 1.533
357.60 1.532
357.70 1.531
357.80 1.53
357.90 1.529
358.00 1.528
358.10 1.527
358.20 1.527
358.30 1.526
358.40 1.525
358.50 1.524
358.60 1.523
358.70 1.522
358.80 1.522
358.90 1.521
359.00 1.52
359.10 1.519
359.20 1.518
359.30 1.517
359.40 1.517
359.50 1.516
359.60 1.515
359.70 1.514
359.80 1.513
359.90 1.512
360.00 1.512
360.10 1.511
360.20 1.51
360.30 1.509
360.40 1.508
360.50 1.507
360.60 1.507
360.70 1.506
360.80 1.505
360.90 1.504
361.00 1.503
361.10 1.502
361.20 1.502
361.30 1.501
361.40 1.5
361.50 1.499
361.60 1.498
361.70 1.497
361.80 1.497
361.90 1.496
362.00 1.495
362.10 1.494
362.20 1.493
362.30 1.493
362.40 1.492
362.50 1.491
362.60 1.49
362.70 1.489
362.80 1.488
362.90 1.488
363.00 1.487
363.10 1.486
363.20 1.485
363.30 1.484
363.40 1.483
363.50 1.482
363.60 1.481
363.70 1.48
363.80 1.479
363.90 1.478
364.00 1.477
364.10 1.476
364.20 1.475
364.30 1.474
364.40 1.473
364.50 1.472
364.60 1.471
364.70 1.47
364.80 1.469
364.90 1.468
365.00 1.467
365.10 1.466
365.20 1.465
365.30 1.464
365.40 1.463
365.50 1.462
365.60 1.461
365.70 1.461
365.80 1.46
365.90 1.459
366.00 1.458
366.10 1.457
366.20 1.456
366.30 1.455
366.40 1.454
366.50 1.453
366.60 1.452
366.70 1.452
366.80 1.451
366.90 1.45
367.00 1.449
367.10 1.448
367.20 1.447
367.30 1.446
367.40 1.446
367.50 1.445
367.60 1.444
367.70 1.443
367.80 1.442
367.90 1.441
368.00 1.441
368.10 1.44
368.20 1.439
368.30 1.438
368.40 1.437
368.50 1.436
368.60 1.436
368.70 1.435
368.80 1.434
368.90 1.433
369.00 1.432
369.10 1.431
369.20 1.431
369.30 1.43
369.40 1.429
369.50 1.428
369.60 1.427
369.70 1.426
369.80 1.426
369.90 1.425
370.00 1.424
370.10 1.423
370.20 1.423
370.30 1.422
370.40 1.421
370.50 1.421
370.60 1.42
370.70 1.419
370.80 1.418
370.90 1.418
371.00 1.417
371.10 1.416
371.20 1.416
371.30 1.415
371.40 1.414
371.50 1.414
371.60 1.413
371.70 1.412
371.80 1.412
371.90 1.411
372.00 1.41
372.10 1.41
372.20 1.409
372.30 1.409
372.40 1.409
372.50 1.408
372.60 1.408
372.70 1.408
372.80 1.407
372.90 1.407
373.00 1.406
373.10 1.406
373.20 1.406
373.30 1.405
373.40 1.405
373.50 1.404
373.60 1.404
373.70 1.404
373.80 1.403
373.90 1.403
374.00 1.402
374.10 1.402
374.20 1.402
374.30 1.402
374.40 1.402
374.50 1.402
374.60 1.401
374.70 1.401
374.80 1.401
374.90 1.401
375.00 1.401
375.10 1.401
375.20 1.4
375.30 1.4
375.40 1.4
375.50 1.4
375.60 1.4
375.70 1.4
375.80 1.399
375.90 1.399
376.00 1.399
376.10 1.399
376.20 1.399
376.30 1.398
376.40 1.398
376.50 1.398
376.60 1.398
376.70 1.397
376.80 1.397
376.90 1.397
377.00 1.396
377.10 1.396
377.20 1.395
377.30 1.394
377.40 1.394
377.50 1.393
377.60 1.392
377.70 1.391
377.80 1.391
377.90 1.39
378.00 1.389
378.10 1.387
378.20 1.385
378.30 1.383
378.40 1.381
378.50 1.379
378.60 1.376
378.70 1.374
378.80 1.372
378.90 1.37
379.00 1.368
379.10 1.366
379.20 1.365
379.30 1.364
379.40 1.362
379.50 1.361
379.60 1.359
379.70 1.358
379.80 1.356
379.90 1.355
380.00 1.353
380.10 1.355
380.20 1.357
380.30 1.358
380.40 1.36
380.50 1.361
380.60 1.363
380.70 1.365
380.80 1.366
380.90 1.368
381.00 1.369
381.10 1.37
381.20 1.37
381.30 1.37
381.40 1.371
381.50 1.371
381.60 1.37
381.70 1.369
381.80 1.368
381.90 1.366
382.00 1.364
382.10 1.362
382.20 1.359
382.30 1.354
382.40 1.349
382.50 1.344
382.60 1.339
382.70 1.333
382.80 1.328
382.90 1.323
383.00 1.318
383.10 1.313
383.20 1.308
383.30 1.305
383.40 1.301
383.50 1.296
383.60 1.297
383.70 1.302
383.80 1.306
383.90 1.309
384.00 1.314
384.10 1.32
384.20 1.327
384.30 1.333
384.40 1.34
384.50 1.345
384.60 1.351
384.70 1.355
384.80 1.359
384.90 1.362
385.00 1.365
385.10 1.367
385.20 1.369
385.30 1.371
385.40 1.372
385.50 1.373
385.60 1.373
385.70 1.373
385.80 1.373
385.90 1.373
386.00 1.372
386.10 1.371
386.20 1.37
386.30 1.368
386.40 1.366
386.50 1.364
386.60 1.361
386.70 1.358
386.80 1.355
386.90 1.351
387.00 1.347
387.10 1.343
387.20 1.338
387.30 1.333
387.40 1.327
387.50 1.321
387.60 1.314
387.70 1.307
387.80 1.298
387.90 1.289
388.00 1.279
388.10 1.267
388.20 1.254
388.30 1.24
388.40 1.225
388.50 1.212
388.60 1.2
388.70 1.191
388.80 1.185
388.90 1.179
389.00 1.184
389.10 1.191
389.20 1.199
389.30 1.211
389.40 1.225
389.50 1.24
389.60 1.254
389.70 1.267
389.80 1.28
389.90 1.291
390.00 1.3
390.10 1.309
390.20 1.317
390.30 1.325
390.40 1.332
390.50 1.338
390.60 1.344
390.70 1.349
390.80 1.354
390.90 1.359
391.00 1.363
391.10 1.367
391.20 1.371
391.30 1.374
391.40 1.377
391.50 1.38
391.60 1.382
391.70 1.384
391.80 1.386
391.90 1.387
392.00 1.388
392.10 1.389
392.20 1.39
392.30 1.39
392.40 1.39
392.50 1.39
392.60 1.389
392.70 1.388
392.80 1.387
392.90 1.385
393.00 1.383
393.10 1.381
393.20 1.379
393.30 1.376
393.40 1.373
393.50 1.37
393.60 1.366
393.70 1.362
393.80 1.358
393.90 1.353
394.00 1.349
394.10 1.343
394.20 1.337
394.30 1.331
394.40 1.325
394.50 1.318
394.60 1.31
394.70 1.302
394.80 1.294
394.90 1.285
395.00 1.276
395.10 1.266
395.20 1.256
395.30 1.245
395.40 1.234
395.50 1.222
395.60 1.209
395.70 1.196
395.80 1.182
395.90 1.166
396.00 1.151
396.10 1.134
396.20 1.115
396.30 1.094
396.40 1.072
396.50 1.045
396.60 1.017
396.70 0.9888
396.80 0.9676
396.90 0.9474
397.00 0.9279
397.10 0.9458
397.20 0.9646
397.30 0.9842
397.40 1.012
397.50 1.04
397.60 1.067
397.70 1.089
397.80 1.11
397.90 1.129
398.00 1.146
398.10 1.162
398.20 1.177
398.30 1.191
398.40 1.205
398.50 1.218
398.60 1.23
398.70 1.241
398.80 1.253
398.90 1.263
399.00 1.273
399.10 1.283
399.20 1.292
399.30 1.301
399.40 1.309
399.50 1.317
399.60 1.325
399.70 1.332
399.80 1.339
399.90 1.346
400.00 1.352
400.10 1.358
400.20 1.364
400.30 1.369
400.40 1.374
400.50 1.379
400.60 1.383
400.70 1.388
400.80 1.392
400.90 1.396
401.00 1.399
401.10 1.403
401.20 1.406
401.30 1.409
401.40 1.412
401.50 1.414
401.60 1.416
401.70 1.419
401.80 1.421
401.90 1.422
402.00 1.424
402.10 1.425
402.20 1.427
402.30 1.428
402.40 1.428
402.50 1.429
402.60 1.429
402.70 1.43
402.80 1.43
402.90 1.43
403.00 1.43
403.10 1.429
403.20 1.429
403.30 1.428
403.40 1.427
403.50 1.426
403.60 1.425
403.70 1.423
403.80 1.422
403.90 1.42
404.00 1.418
404.10 1.416
404.20 1.413
404.30 1.411
404.40 1.408
404.50 1.405
404.60 1.402
404.70 1.399
404.80 1.396
404.90 1.392
405.00 1.388
405.10 1.384
405.20 1.38
405.30 1.375
405.40 1.37
405.50 1.365
405.60 1.36
405.70 1.355
405.80 1.349
405.90 1.343
406.00 1.337
406.10 1.331
406.20 1.324
406.30 1.317
406.40 1.31
406.50 1.302
406.60 1.295
406.70 1.286
406.80 1.278
406.90 1.269
407.00 1.26
407.10 1.251
407.20 1.241
407.30 1.231
407.40 1.22
407.50 1.209
407.60 1.198
407.70 1.186
407.80 1.173
407.90 1.16
408.00 1.147
408.10 1.133
408.20 1.119
408.30 1.104
408.40 1.088
408.50 1.072
408.60 1.055
408.70 1.037
408.80 1.019
408.90 1
409.00 0.9809
409.10 0.9606
409.20 0.9399
409.30 0.9185
409.40 0.8955
409.50 0.871
409.60 0.8452
409.70 0.8153
409.80 0.7835
409.90 0.7499
410.00 0.7228
410.10 0.7034
410.20 0.6916
410.30 0.7117
410.40 0.7366
410.50 0.7665
410.60 0.7989
410.70 0.8289
410.80 0.8565
410.90 0.8805
411.00 0.9033
411.10 0.9249
411.20 0.945
411.30 0.9646
411.40 0.9837
411.50 1.002
411.60 1.02
411.70 1.037
411.80 1.053
411.90 1.069
412.00 1.084
412.10 1.098
412.20 1.112
412.30 1.125
412.40 1.138
412.50 1.15
412.60 1.162
412.70 1.174
412.80 1.184
412.90 1.195
413.00 1.205
413.10 1.215
413.20 1.224
413.30 1.233
413.40 1.242
413.50 1.25
413.60 1.258
413.70 1.266
413.80 1.273
413.90 1.28
414.00 1.287
414.10 1.294
414.20 1.3
414.30 1.307
414.40 1.313
414.50 1.318
414.60 1.324
414.70 1.33
414.80 1.335
414.90 1.34
415.00 1.345
415.10 1.35
415.20 1.354
415.30 1.359
415.40 1.363
415.50 1.367
415.60 1.371
415.70 1.375
415.80 1.378
415.90 1.382
416.00 1.385
416.10 1.388
416.20 1.392
416.30 1.395
416.40 1.398
416.50 1.401
416.60 1.403
416.70 1.406
416.80 1.408
416.90 1.411
417.00 1.413
417.10 1.415
417.20 1.418
417.30 1.42
417.40 1.422
417.50 1.424
417.60 1.425
417.70 1.427
417.80 1.429
417.90 1.43
418.00 1.432
418.10 1.433
418.20 1.435
418.30 1.436
418.40 1.437
418.50 1.438
418.60 1.439
418.70 1.44
418.80 1.441
418.90 1.442
419.00 1.443
419.10 1.444
419.20 1.444
419.30 1.445
419.40 1.445
419.50 1.446
419.60 1.446
419.70 1.447
419.80 1.447
419.90 1.447
420.00 1.448
420.10 1.448
420.20 1.448
420.30 1.448
420.40 1.448
420.50 1.448
420.60 1.448
420.70 1.448
420.80 1.448
420.90 1.447
421.00 1.447
421.10 1.447
421.20 1.446
421.30 1.446
421.40 1.446
421.50 1.445
421.60 1.444
421.70 1.444
421.80 1.443
421.90 1.442
422.00 1.442
422.10 1.441
422.20 1.44
422.30 1.439
422.40 1.438
422.50 1.437
422.60 1.436
422.70 1.435
422.80 1.434
422.90 1.433
423.00 1.431
423.10 1.43
423.20 1.429
423.30 1.427
423.40 1.426
423.50 1.424
423.60 1.423
423.70 1.421
423.80 1.42
423.90 1.418
424.00 1.416
424.10 1.414
424.20 1.412
424.30 1.411
424.40 1.409
424.50 1.407
424.60 1.404
424.70 1.402
424.80 1.4
424.90 1.398
425.00 1.396
425.10 1.393
425.20 1.391
425.30 1.388
425.40 1.386
425.50 1.383
425.60 1.381
425.70 1.378
425.80 1.375
425.90 1.372
426.00 1.369
426.10 1.366
426.20 1.362
426.30 1.359
426.40 1.356
426.50 1.352
426.60 1.349
426.70 1.345
426.80 1.342
426.90 1.338
427.00 1.334
427.10 1.331
427.20 1.327
427.30 1.323
427.40 1.318
427.50 1.314
427.60 1.31
427.70 1.306
427.80 1.301
427.90 1.296
428.00 1.292
428.10 1.287
428.20 1.282
428.30 1.277
428.40 1.272
428.50 1.267
428.60 1.261
428.70 1.256
428.80 1.25
428.90 1.244
429.00 1.238
429.10 1.232
429.20 1.226
429.30 1.219
429.40 1.213
429.50 1.206
429.60 1.199
429.70 1.192
429.80 1.184
429.90 1.177
430.00 1.169
430.10 1.161
430.20 1.153
430.30 1.145
430.40 1.136
430.50 1.127
430.60 1.118
430.70 1.109
430.80 1.1
430.90 1.09
431.00 1.08
431.10 1.069
431.20 1.058
431.30 1.047
431.40 1.036
431.50 1.024
431.60 1.012
431.70 0.999
431.80 0.9861
431.90 0.9724
432.00 0.9583
432.10 0.9439
432.20 0.9284
432.30 0.9125
432.40 0.8961
432.50 0.8784
432.60 0.8601
432.70 0.8412
432.80 0.8213
432.90 0.8011
433.00 0.7808
433.10 0.7606
433.20 0.7407
433.30 0.721
433.40 0.7011
433.50 0.6803
433.60 0.6585
433.70 0.6315
433.80 0.6008
433.90 0.5666
434.00 0.5249
434.10 0.5257
434.20 0.569
434.30 0.6025
434.40 0.6324
434.50 0.6586
434.60 0.6796
434.70 0.6998
434.80 0.719
434.90 0.7381
435.00 0.7574
435.10 0.7768
435.20 0.7964
435.30 0.8157
435.40 0.8347
435.50 0.8527
435.60 0.87
435.70 0.8866
435.80 0.902
435.90 0.9169
436.00 0.9312
436.10 0.9446
436.20 0.9575
436.30 0.9701
436.40 0.9819
436.50 0.9934
436.60 1.005
436.70 1.015
436.80 1.025
436.90 1.035
437.00 1.045
437.10 1.054
437.20 1.063
437.30 1.071
437.40 1.08
437.50 1.088
437.60 1.096
437.70 1.103
437.80 1.11
437.90 1.117
438.00 1.124
438.10 1.131
438.20 1.137
438.30 1.143
438.40 1.15
438.50 1.155
438.60 1.161
438.70 1.167
438.80 1.172
438.90 1.177
439.00 1.182
439.10 1.187
439.20 1.191
439.30 1.196
439.40 1.2
439.50 1.205
439.60 1.209
439.70 1.213
439.80 1.216
439.90 1.22
440.00 1.224
440.10 1.227
440.20 1.231
440.30 1.234
440.40 1.237
440.50 1.24
440.60 1.243
440.70 1.246
440.80 1.249
440.90 1.252
441.00 1.255
441.10 1.257
441.20 1.26
441.30 1.262
441.40 1.265
441.50 1.267
441.60 1.269
441.70 1.271
441.80 1.274
441.90 1.276
442.00 1.278
442.10 1.279
442.20 1.281
442.30 1.283
442.40 1.285
442.50 1.287
442.60 1.288
442.70 1.29
442.80 1.291
442.90 1.293
443.00 1.294
443.10 1.295
443.20 1.297
443.30 1.298
443.40 1.299
443.50 1.3
443.60 1.301
443.70 1.303
443.80 1.304
443.90 1.305
444.00 1.306
444.10 1.307
444.20 1.307
444.30 1.308
444.40 1.309
444.50 1.31
444.60 1.311
444.70 1.312
444.80 1.312
444.90 1.313
445.00 1.314
445.10 1.314
445.20 1.315
445.30 1.316
445.40 1.316
445.50 1.317
445.60 1.317
445.70 1.318
445.80 1.318
445.90 1.318
446.00 1.319
446.10 1.319
446.20 1.319
446.30 1.32
446.40 1.32
446.50 1.32
446.60 1.321
446.70 1.321
446.80 1.321
446.90 1.321
447.00 1.321
447.10 1.322
447.20 1.322
447.30 1.322
447.40 1.322
447.50 1.322
447.60 1.322
447.70 1.322
447.80 1.322
447.90 1.322
448.00 1.322
448.10 1.322
448.20 1.322
448.30 1.322
448.40 1.322
448.50 1.322
448.60 1.322
448.70 1.322
448.80 1.322
448.90 1.322
449.00 1.322
449.10 1.322
449.20 1.322
449.30 1.322
449.40 1.321
449.50 1.321
449.60 1.321
449.70 1.321
449.80 1.321
449.90 1.32
450.00 1.32
450.10 1.32
450.20 1.32
450.30 1.32
450.40 1.319
450.50 1.319
450.60 1.319
450.70 1.318
450.80 1.318
450.90 1.318
451.00 1.317
451.10 1.317
451.20 1.317
451.30 1.316
451.40 1.316
451.50 1.316
451.60 1.315
451.70 1.315
451.80 1.315
451.90 1.314
452.00 1.314
452.10 1.313
452.20 1.313
452.30 1.313
452.40 1.312
452.50 1.312
452.60 1.311
452.70 1.311
452.80 1.31
452.90 1.31
453.00 1.31
453.10 1.309
453.20 1.309
453.30 1.308
453.40 1.308
453.50 1.307
453.60 1.307
