# Version 2.1 - nm, norm@500 to 1, cut digits, bergeron_4750_70.dat_4750
# Wavelength(nm)  Flambda(ergs/cm^s/s/nm)
300.00 0.2938
300.10 0.2942
300.20 0.2946
300.30 0.295
300.40 0.2955
300.50 0.2959
300.60 0.2963
300.70 0.2967
300.80 0.2972
300.90 0.2976
301.00 0.298
301.10 0.2984
301.20 0.2989
301.30 0.2993
301.40 0.2997
301.50 0.3001
301.60 0.3005
301.70 0.3009
301.80 0.3014
301.90 0.3018
302.00 0.3022
302.10 0.3026
302.20 0.3031
302.30 0.3035
302.40 0.3039
302.50 0.3043
302.60 0.3048
302.70 0.3052
302.80 0.3056
302.90 0.306
303.00 0.3065
303.10 0.3069
303.20 0.3073
303.30 0.3077
303.40 0.3082
303.50 0.3086
303.60 0.309
303.70 0.3094
303.80 0.3098
303.90 0.3103
304.00 0.3107
304.10 0.3111
304.20 0.3116
304.30 0.312
304.40 0.3124
304.50 0.3128
304.60 0.3133
304.70 0.3137
304.80 0.3141
304.90 0.3146
305.00 0.315
305.10 0.3154
305.20 0.3159
305.30 0.3163
305.40 0.3167
305.50 0.3171
305.60 0.3176
305.70 0.318
305.80 0.3184
305.90 0.3188
306.00 0.3193
306.10 0.3197
306.20 0.3201
306.30 0.3206
306.40 0.321
306.50 0.3214
306.60 0.3219
306.70 0.3223
306.80 0.3227
306.90 0.3232
307.00 0.3236
307.10 0.324
307.20 0.3244
307.30 0.3249
307.40 0.3253
307.50 0.3257
307.60 0.3262
307.70 0.3266
307.80 0.327
307.90 0.3274
308.00 0.3279
308.10 0.3283
308.20 0.3287
308.30 0.3292
308.40 0.3296
308.50 0.3301
308.60 0.3305
308.70 0.3309
308.80 0.3314
308.90 0.3318
309.00 0.3322
309.10 0.3327
309.20 0.3331
309.30 0.3335
309.40 0.334
309.50 0.3344
309.60 0.3348
309.70 0.3352
309.80 0.3357
309.90 0.3361
310.00 0.3365
310.10 0.337
310.20 0.3374
310.30 0.3379
310.40 0.3383
310.50 0.3387
310.60 0.3392
310.70 0.3396
310.80 0.3401
310.90 0.3405
311.00 0.3409
311.10 0.3414
311.20 0.3418
311.30 0.3422
311.40 0.3427
311.50 0.3431
311.60 0.3435
311.70 0.344
311.80 0.3444
311.90 0.3448
312.00 0.3453
312.10 0.3457
312.20 0.3461
312.30 0.3466
312.40 0.347
312.50 0.3474
312.60 0.3479
312.70 0.3483
312.80 0.3488
312.90 0.3492
313.00 0.3497
313.10 0.3501
313.20 0.3505
313.30 0.351
313.40 0.3514
313.50 0.3518
313.60 0.3523
313.70 0.3527
313.80 0.3531
313.90 0.3536
314.00 0.354
314.10 0.3545
314.20 0.3549
314.30 0.3553
314.40 0.3558
314.50 0.3562
314.60 0.3567
314.70 0.3571
314.80 0.3576
314.90 0.358
315.00 0.3584
315.10 0.3589
315.20 0.3593
315.30 0.3598
315.40 0.3602
315.50 0.3606
315.60 0.3611
315.70 0.3615
315.80 0.3619
315.90 0.3624
316.00 0.3628
316.10 0.3633
316.20 0.3637
316.30 0.3642
316.40 0.3646
316.50 0.365
316.60 0.3655
316.70 0.3659
316.80 0.3664
316.90 0.3668
317.00 0.3673
317.10 0.3677
317.20 0.3682
317.30 0.3686
317.40 0.369
317.50 0.3695
317.60 0.3699
317.70 0.3704
317.80 0.3708
317.90 0.3712
318.00 0.3717
318.10 0.3721
318.20 0.3726
318.30 0.373
318.40 0.3735
318.50 0.3739
318.60 0.3744
318.70 0.3748
318.80 0.3752
318.90 0.3757
319.00 0.3761
319.10 0.3766
319.20 0.377
319.30 0.3775
319.40 0.3779
319.50 0.3783
319.60 0.3788
319.70 0.3792
319.80 0.3797
319.90 0.3801
320.00 0.3805
320.10 0.381
320.20 0.3814
320.30 0.3819
320.40 0.3823
320.50 0.3828
320.60 0.3832
320.70 0.3837
320.80 0.3841
320.90 0.3846
321.00 0.385
321.10 0.3855
321.20 0.3859
321.30 0.3864
321.40 0.3868
321.50 0.3872
321.60 0.3877
321.70 0.3881
321.80 0.3886
321.90 0.389
322.00 0.3895
322.10 0.3899
322.20 0.3904
322.30 0.3908
322.40 0.3913
322.50 0.3917
322.60 0.3922
322.70 0.3926
322.80 0.3931
322.90 0.3935
323.00 0.3939
323.10 0.3944
323.20 0.3948
323.30 0.3953
323.40 0.3957
323.50 0.3962
323.60 0.3966
323.70 0.3971
323.80 0.3975
323.90 0.3979
324.00 0.3984
324.10 0.3988
324.20 0.3993
324.30 0.3997
324.40 0.4002
324.50 0.4006
324.60 0.4011
324.70 0.4015
324.80 0.402
324.90 0.4024
325.00 0.4029
325.10 0.4033
325.20 0.4038
325.30 0.4042
325.40 0.4047
325.50 0.4051
325.60 0.4056
325.70 0.406
325.80 0.4065
325.90 0.4069
326.00 0.4074
326.10 0.4078
326.20 0.4083
326.30 0.4087
326.40 0.4092
326.50 0.4096
326.60 0.4101
326.70 0.4105
326.80 0.411
326.90 0.4114
327.00 0.4119
327.10 0.4123
327.20 0.4128
327.30 0.4132
327.40 0.4137
327.50 0.4141
327.60 0.4145
327.70 0.415
327.80 0.4154
327.90 0.4159
328.00 0.4163
328.10 0.4168
328.20 0.4172
328.30 0.4177
328.40 0.4181
328.50 0.4186
328.60 0.419
328.70 0.4195
328.80 0.42
328.90 0.4204
329.00 0.4209
329.10 0.4213
329.20 0.4218
329.30 0.4222
329.40 0.4226
329.50 0.4231
329.60 0.4235
329.70 0.424
329.80 0.4244
329.90 0.4249
330.00 0.4253
330.10 0.4258
330.20 0.4262
330.30 0.4267
330.40 0.4271
330.50 0.4276
330.60 0.428
330.70 0.4285
330.80 0.429
330.90 0.4294
331.00 0.4299
331.10 0.4303
331.20 0.4308
331.30 0.4312
331.40 0.4317
331.50 0.4321
331.60 0.4325
331.70 0.433
331.80 0.4334
331.90 0.4339
332.00 0.4343
332.10 0.4348
332.20 0.4352
332.30 0.4357
332.40 0.4362
332.50 0.4366
332.60 0.4371
332.70 0.4375
332.80 0.438
332.90 0.4384
333.00 0.4389
333.10 0.4393
333.20 0.4398
333.30 0.4402
333.40 0.4407
333.50 0.4411
333.60 0.4416
333.70 0.442
333.80 0.4425
333.90 0.4429
334.00 0.4434
334.10 0.4438
334.20 0.4443
334.30 0.4447
334.40 0.4452
334.50 0.4456
334.60 0.4461
334.70 0.4465
334.80 0.447
334.90 0.4474
335.00 0.4479
335.10 0.4483
335.20 0.4488
335.30 0.4492
335.40 0.4497
335.50 0.4501
335.60 0.4506
335.70 0.451
335.80 0.4515
335.90 0.4519
336.00 0.4524
336.10 0.4528
336.20 0.4533
336.30 0.4537
336.40 0.4542
336.50 0.4547
336.60 0.4551
336.70 0.4556
336.80 0.456
336.90 0.4565
337.00 0.4569
337.10 0.4574
337.20 0.4578
337.30 0.4583
337.40 0.4587
337.50 0.4592
337.60 0.4596
337.70 0.4601
337.80 0.4605
337.90 0.461
338.00 0.4614
338.10 0.4619
338.20 0.4623
338.30 0.4628
338.40 0.4632
338.50 0.4637
338.60 0.4641
338.70 0.4646
338.80 0.465
338.90 0.4655
339.00 0.4659
339.10 0.4664
339.20 0.4668
339.30 0.4673
339.40 0.4677
339.50 0.4682
339.60 0.4686
339.70 0.4691
339.80 0.4695
339.90 0.47
340.00 0.4704
340.10 0.4709
340.20 0.4713
340.30 0.4718
340.40 0.4722
340.50 0.4727
340.60 0.4732
340.70 0.4736
340.80 0.4741
340.90 0.4745
341.00 0.475
341.10 0.4754
341.20 0.4759
341.30 0.4763
341.40 0.4768
341.50 0.4772
341.60 0.4777
341.70 0.4781
341.80 0.4785
341.90 0.479
342.00 0.4794
342.10 0.4799
342.20 0.4804
342.30 0.4808
342.40 0.4813
342.50 0.4817
342.60 0.4822
342.70 0.4826
342.80 0.4831
342.90 0.4835
343.00 0.484
343.10 0.4844
343.20 0.4849
343.30 0.4853
343.40 0.4858
343.50 0.4862
343.60 0.4867
343.70 0.4871
343.80 0.4876
343.90 0.488
344.00 0.4884
344.10 0.4889
344.20 0.4894
344.30 0.4898
344.40 0.4903
344.50 0.4907
344.60 0.4912
344.70 0.4916
344.80 0.4921
344.90 0.4925
345.00 0.493
345.10 0.4934
345.20 0.4939
345.30 0.4943
345.40 0.4948
345.50 0.4952
345.60 0.4957
345.70 0.4961
345.80 0.4966
345.90 0.497
346.00 0.4974
346.10 0.4979
346.20 0.4984
346.30 0.4988
346.40 0.4993
346.50 0.4997
346.60 0.5002
346.70 0.5006
346.80 0.5011
346.90 0.5015
347.00 0.502
347.10 0.5024
347.20 0.5029
347.30 0.5033
347.40 0.5038
347.50 0.5042
347.60 0.5046
347.70 0.5051
347.80 0.5055
347.90 0.506
348.00 0.5064
348.10 0.5069
348.20 0.5073
348.30 0.5078
348.40 0.5082
348.50 0.5087
348.60 0.5091
348.70 0.5096
348.80 0.51
348.90 0.5105
349.00 0.5109
349.10 0.5114
349.20 0.5118
349.30 0.5123
349.40 0.5127
349.50 0.5132
349.60 0.5136
349.70 0.5141
349.80 0.5145
349.90 0.5149
350.00 0.5154
350.10 0.5158
350.20 0.5163
350.30 0.5167
350.40 0.5172
350.50 0.5176
350.60 0.5181
350.70 0.5185
350.80 0.519
350.90 0.5194
351.00 0.5199
351.10 0.5203
351.20 0.5208
351.30 0.5212
351.40 0.5217
351.50 0.5221
351.60 0.5226
351.70 0.523
351.80 0.5235
351.90 0.5239
352.00 0.5243
352.10 0.5248
352.20 0.5252
352.30 0.5257
352.40 0.5261
352.50 0.5266
352.60 0.527
352.70 0.5275
352.80 0.5279
352.90 0.5284
353.00 0.5288
353.10 0.5293
353.20 0.5297
353.30 0.5302
353.40 0.5306
353.50 0.5311
353.60 0.5315
353.70 0.5319
353.80 0.5324
353.90 0.5328
354.00 0.5333
354.10 0.5337
354.20 0.5342
354.30 0.5346
354.40 0.5351
354.50 0.5355
354.60 0.536
354.70 0.5364
354.80 0.5368
354.90 0.5373
355.00 0.5377
355.10 0.5382
355.20 0.5386
355.30 0.5391
355.40 0.5395
355.50 0.54
355.60 0.5404
355.70 0.5408
355.80 0.5413
355.90 0.5417
356.00 0.5422
356.10 0.5426
356.20 0.5431
356.30 0.5435
356.40 0.5439
356.50 0.5444
356.60 0.5448
356.70 0.5453
356.80 0.5457
356.90 0.5462
357.00 0.5466
357.10 0.5471
357.20 0.5475
357.30 0.5479
357.40 0.5484
357.50 0.5488
357.60 0.5493
357.70 0.5497
357.80 0.5501
357.90 0.5506
358.00 0.551
358.10 0.5515
358.20 0.5519
358.30 0.5524
358.40 0.5528
358.50 0.5532
358.60 0.5537
358.70 0.5541
358.80 0.5546
358.90 0.555
359.00 0.5555
359.10 0.5559
359.20 0.5563
359.30 0.5568
359.40 0.5572
359.50 0.5577
359.60 0.5581
359.70 0.5585
359.80 0.559
359.90 0.5594
360.00 0.5598
360.10 0.5603
360.20 0.5607
360.30 0.5612
360.40 0.5616
360.50 0.5621
360.60 0.5625
360.70 0.563
360.80 0.5634
360.90 0.5638
361.00 0.5643
361.10 0.5647
361.20 0.5652
361.30 0.5656
361.40 0.566
361.50 0.5665
361.60 0.5669
361.70 0.5673
361.80 0.5678
361.90 0.5682
362.00 0.5686
362.10 0.5691
362.20 0.5695
362.30 0.57
362.40 0.5704
362.50 0.5708
362.60 0.5713
362.70 0.5717
362.80 0.5722
362.90 0.5726
363.00 0.573
363.10 0.5735
363.20 0.5739
363.30 0.5743
363.40 0.5748
363.50 0.5752
363.60 0.5757
363.70 0.5761
363.80 0.5765
363.90 0.577
364.00 0.5774
364.10 0.5778
364.20 0.5783
364.30 0.5787
364.40 0.5791
364.50 0.5796
364.60 0.58
364.70 0.5805
364.80 0.5809
364.90 0.5813
365.00 0.5818
365.10 0.5822
365.20 0.5826
365.30 0.5831
365.40 0.5835
365.50 0.584
365.60 0.5844
365.70 0.5848
365.80 0.5852
365.90 0.5857
366.00 0.5861
366.10 0.5866
366.20 0.587
366.30 0.5874
366.40 0.5879
366.50 0.5883
366.60 0.5887
366.70 0.5892
366.80 0.5896
366.90 0.5901
367.00 0.5905
367.10 0.5909
367.20 0.5914
367.30 0.5918
367.40 0.5922
367.50 0.5927
367.60 0.5931
367.70 0.5935
367.80 0.5939
367.90 0.5944
368.00 0.5948
368.10 0.5952
368.20 0.5957
368.30 0.5961
368.40 0.5965
368.50 0.597
368.60 0.5974
368.70 0.5978
368.80 0.5983
368.90 0.5987
369.00 0.5991
369.10 0.5996
369.20 0.6
369.30 0.6004
369.40 0.6009
369.50 0.6013
369.60 0.6017
369.70 0.6022
369.80 0.6026
369.90 0.603
370.00 0.6034
370.10 0.6039
370.20 0.6043
370.30 0.6047
370.40 0.6052
370.50 0.6056
370.60 0.606
370.70 0.6065
370.80 0.6069
370.90 0.6073
371.00 0.6078
371.10 0.6082
371.20 0.6086
371.30 0.609
371.40 0.6095
371.50 0.6099
371.60 0.6103
371.70 0.6107
371.80 0.6112
371.90 0.6116
372.00 0.612
372.10 0.6124
372.20 0.6129
372.30 0.6133
372.40 0.6137
372.50 0.6142
372.60 0.6146
372.70 0.615
372.80 0.6155
372.90 0.6159
373.00 0.6163
373.10 0.6167
373.20 0.6172
373.30 0.6176
373.40 0.618
373.50 0.6184
373.60 0.6189
373.70 0.6193
373.80 0.6197
373.90 0.6201
374.00 0.6205
374.10 0.621
374.20 0.6214
374.30 0.6218
374.40 0.6223
374.50 0.6227
374.60 0.6231
374.70 0.6235
374.80 0.624
374.90 0.6244
375.00 0.6248
375.10 0.6252
375.20 0.6257
375.30 0.6261
375.40 0.6265
375.50 0.6269
375.60 0.6274
375.70 0.6278
375.80 0.6282
375.90 0.6286
376.00 0.629
376.10 0.6295
376.20 0.6299
376.30 0.6303
376.40 0.6307
376.50 0.6311
376.60 0.6316
376.70 0.632
376.80 0.6324
376.90 0.6328
377.00 0.6333
377.10 0.6337
377.20 0.6341
377.30 0.6345
377.40 0.6349
377.50 0.6354
377.60 0.6358
377.70 0.6362
377.80 0.6366
377.90 0.637
378.00 0.6375
378.10 0.6379
378.20 0.6383
378.30 0.6387
378.40 0.6391
378.50 0.6396
378.60 0.64
378.70 0.6404
378.80 0.6408
378.90 0.6412
379.00 0.6417
379.10 0.6421
379.20 0.6425
379.30 0.6429
379.40 0.6433
379.50 0.6437
379.60 0.6442
379.70 0.6446
379.80 0.645
379.90 0.6454
380.00 0.6458
380.10 0.6463
380.20 0.6467
380.30 0.6471
380.40 0.6475
380.50 0.6479
380.60 0.6483
380.70 0.6488
380.80 0.6492
380.90 0.6496
381.00 0.65
381.10 0.6504
381.20 0.6508
381.30 0.6512
381.40 0.6517
381.50 0.6521
381.60 0.6525
381.70 0.6529
381.80 0.6533
381.90 0.6537
382.00 0.6542
382.10 0.6546
382.20 0.655
382.30 0.6554
382.40 0.6558
382.50 0.6562
382.60 0.6566
382.70 0.657
382.80 0.6575
382.90 0.6579
383.00 0.6583
383.10 0.6587
383.20 0.6591
383.30 0.6595
383.40 0.6599
383.50 0.6603
383.60 0.6608
383.70 0.6612
383.80 0.6616
383.90 0.662
384.00 0.6624
384.10 0.6628
384.20 0.6632
384.30 0.6636
384.40 0.6641
384.50 0.6645
384.60 0.6649
384.70 0.6653
384.80 0.6657
384.90 0.6661
385.00 0.6665
385.10 0.6669
385.20 0.6673
385.30 0.6677
385.40 0.6682
385.50 0.6686
385.60 0.669
385.70 0.6694
385.80 0.6698
385.90 0.6702
386.00 0.6706
386.10 0.671
386.20 0.6714
386.30 0.6718
386.40 0.6722
386.50 0.6726
386.60 0.6731
386.70 0.6735
386.80 0.6739
386.90 0.6743
387.00 0.6747
387.10 0.6751
387.20 0.6755
387.30 0.6759
387.40 0.6763
387.50 0.6767
387.60 0.6771
387.70 0.6775
387.80 0.6779
387.90 0.6783
388.00 0.6787
388.10 0.6791
388.20 0.6795
388.30 0.68
388.40 0.6804
388.50 0.6808
388.60 0.6812
388.70 0.6816
388.80 0.682
388.90 0.6824
389.00 0.6828
389.10 0.6832
389.20 0.6836
389.30 0.684
389.40 0.6844
389.50 0.6848
389.60 0.6852
389.70 0.6856
389.80 0.686
389.90 0.6864
390.00 0.6868
390.10 0.6872
390.20 0.6876
390.30 0.688
390.40 0.6884
390.50 0.6888
390.60 0.6892
390.70 0.6896
390.80 0.69
390.90 0.6904
391.00 0.6908
391.10 0.6912
391.20 0.6916
391.30 0.692
391.40 0.6924
391.50 0.6928
391.60 0.6932
391.70 0.6936
391.80 0.694
391.90 0.6944
392.00 0.6948
392.10 0.6952
392.20 0.6956
392.30 0.696
392.40 0.6964
392.50 0.6968
392.60 0.6972
392.70 0.6976
392.80 0.698
392.90 0.6984
393.00 0.6988
393.10 0.6992
393.20 0.6996
393.30 0.7
393.40 0.7004
393.50 0.7008
393.60 0.7012
393.70 0.7015
393.80 0.7019
393.90 0.7023
394.00 0.7027
394.10 0.7031
394.20 0.7035
394.30 0.7039
394.40 0.7043
394.50 0.7047
394.60 0.7051
394.70 0.7055
394.80 0.7059
394.90 0.7063
395.00 0.7067
395.10 0.7071
395.20 0.7075
395.30 0.7078
395.40 0.7082
395.50 0.7086
395.60 0.709
395.70 0.7094
395.80 0.7098
395.90 0.7102
396.00 0.7106
396.10 0.711
396.20 0.7114
396.30 0.7118
396.40 0.7122
396.50 0.7125
396.60 0.7129
396.70 0.7133
396.80 0.7137
396.90 0.7141
397.00 0.7145
397.10 0.7149
397.20 0.7153
397.30 0.7157
397.40 0.716
397.50 0.7164
397.60 0.7168
397.70 0.7172
397.80 0.7176
397.90 0.718
398.00 0.7184
398.10 0.7188
398.20 0.7191
398.30 0.7195
398.40 0.7199
398.50 0.7203
398.60 0.7207
398.70 0.7211
398.80 0.7215
398.90 0.7218
399.00 0.7222
399.10 0.7226
399.20 0.723
399.30 0.7234
399.40 0.7238
399.50 0.7242
399.60 0.7245
399.70 0.7249
399.80 0.7253
399.90 0.7257
400.00 0.7261
400.10 0.7265
400.20 0.7268
400.30 0.7272
400.40 0.7276
400.50 0.728
400.60 0.7284
400.70 0.7288
400.80 0.7291
400.90 0.7295
401.00 0.7299
401.10 0.7303
401.20 0.7307
401.30 0.731
401.40 0.7314
401.50 0.7318
401.60 0.7322
401.70 0.7326
401.80 0.7329
401.90 0.7333
402.00 0.7337
402.10 0.7341
402.20 0.7345
402.30 0.7348
402.40 0.7352
402.50 0.7356
402.60 0.736
402.70 0.7364
402.80 0.7367
402.90 0.7371
403.00 0.7375
403.10 0.7379
403.20 0.7382
403.30 0.7386
403.40 0.739
403.50 0.7394
403.60 0.7397
403.70 0.7401
403.80 0.7405
403.90 0.7409
404.00 0.7412
404.10 0.7416
404.20 0.742
404.30 0.7424
404.40 0.7427
404.50 0.7431
404.60 0.7435
404.70 0.7439
404.80 0.7442
404.90 0.7446
405.00 0.745
405.10 0.7454
405.20 0.7457
405.30 0.7461
405.40 0.7465
405.50 0.7469
405.60 0.7472
405.70 0.7476
405.80 0.748
405.90 0.7483
406.00 0.7487
406.10 0.7491
406.20 0.7495
406.30 0.7498
406.40 0.7502
406.50 0.7506
406.60 0.7509
406.70 0.7513
406.80 0.7517
406.90 0.752
407.00 0.7524
407.10 0.7528
407.20 0.7532
407.30 0.7535
407.40 0.7539
407.50 0.7543
407.60 0.7546
407.70 0.755
407.80 0.7554
407.90 0.7557
408.00 0.7561
408.10 0.7565
408.20 0.7568
408.30 0.7572
408.40 0.7575
408.50 0.7579
408.60 0.7583
408.70 0.7586
408.80 0.759
408.90 0.7593
409.00 0.7597
409.10 0.76
409.20 0.7604
409.30 0.7607
409.40 0.7611
409.50 0.7614
409.60 0.7617
409.70 0.7619
409.80 0.762
409.90 0.762
410.00 0.7613
410.10 0.7603
410.20 0.7592
410.30 0.7616
410.40 0.7633
410.50 0.7644
410.60 0.765
410.70 0.7656
410.80 0.7661
410.90 0.7665
411.00 0.7669
411.10 0.7673
411.20 0.7677
411.30 0.768
411.40 0.7684
411.50 0.7688
411.60 0.7692
411.70 0.7695
411.80 0.7699
411.90 0.7703
412.00 0.7706
412.10 0.771
412.20 0.7713
412.30 0.7717
412.40 0.7721
412.50 0.7724
412.60 0.7728
412.70 0.7731
412.80 0.7735
412.90 0.7739
413.00 0.7742
413.10 0.7746
413.20 0.7749
413.30 0.7753
413.40 0.7757
413.50 0.776
413.60 0.7764
413.70 0.7767
413.80 0.7771
413.90 0.7774
414.00 0.7778
414.10 0.7781
414.20 0.7785
414.30 0.7789
414.40 0.7792
414.50 0.7796
414.60 0.7799
414.70 0.7803
414.80 0.7806
414.90 0.781
415.00 0.7813
415.10 0.7817
415.20 0.782
415.30 0.7824
415.40 0.7828
415.50 0.7831
415.60 0.7835
415.70 0.7838
415.80 0.7842
415.90 0.7845
416.00 0.7848
416.10 0.7852
416.20 0.7855
416.30 0.7859
416.40 0.7863
416.50 0.7866
416.60 0.787
416.70 0.7873
416.80 0.7876
416.90 0.788
417.00 0.7883
417.10 0.7887
417.20 0.7891
417.30 0.7894
417.40 0.7897
417.50 0.7901
417.60 0.7904
417.70 0.7908
417.80 0.7912
417.90 0.7915
418.00 0.7918
418.10 0.7922
418.20 0.7925
418.30 0.7929
418.40 0.7932
418.50 0.7936
418.60 0.7939
418.70 0.7942
418.80 0.7946
418.90 0.795
419.00 0.7953
419.10 0.7956
419.20 0.796
419.30 0.7963
419.40 0.7967
419.50 0.797
419.60 0.7973
419.70 0.7977
419.80 0.7981
419.90 0.7984
420.00 0.7987
420.10 0.7991
420.20 0.7994
420.30 0.7998
420.40 0.8001
420.50 0.8004
420.60 0.8008
420.70 0.8011
420.80 0.8015
420.90 0.8018
421.00 0.8021
421.10 0.8025
421.20 0.8028
421.30 0.8032
421.40 0.8035
421.50 0.8038
421.60 0.8042
421.70 0.8045
421.80 0.8048
421.90 0.8052
422.00 0.8055
422.10 0.8059
422.20 0.8062
422.30 0.8066
422.40 0.8069
422.50 0.8072
422.60 0.8076
422.70 0.8079
422.80 0.8082
422.90 0.8086
423.00 0.8089
423.10 0.8092
423.20 0.8096
423.30 0.8099
423.40 0.8102
423.50 0.8106
423.60 0.8109
423.70 0.8112
423.80 0.8116
423.90 0.8119
424.00 0.8122
424.10 0.8126
424.20 0.8129
424.30 0.8132
424.40 0.8136
424.50 0.8139
424.60 0.8142
424.70 0.8146
424.80 0.8149
424.90 0.8152
425.00 0.8156
425.10 0.8159
425.20 0.8162
425.30 0.8166
425.40 0.8169
425.50 0.8172
425.60 0.8176
425.70 0.8179
425.80 0.8182
425.90 0.8185
426.00 0.8189
426.10 0.8192
426.20 0.8195
426.30 0.8199
426.40 0.8202
426.50 0.8205
426.60 0.8208
426.70 0.8212
426.80 0.8215
426.90 0.8218
427.00 0.8222
427.10 0.8225
427.20 0.8228
427.30 0.8231
427.40 0.8235
427.50 0.8238
427.60 0.8241
427.70 0.8244
427.80 0.8248
427.90 0.8251
428.00 0.8254
428.10 0.8257
428.20 0.8261
428.30 0.8264
428.40 0.8267
428.50 0.827
428.60 0.8274
428.70 0.8277
428.80 0.828
428.90 0.8283
429.00 0.8286
429.10 0.829
429.20 0.8293
429.30 0.8296
429.40 0.8299
429.50 0.8303
429.60 0.8306
429.70 0.8309
429.80 0.8312
429.90 0.8315
430.00 0.8319
430.10 0.8322
430.20 0.8325
430.30 0.8328
430.40 0.8331
430.50 0.8335
430.60 0.8338
430.70 0.8341
430.80 0.8344
430.90 0.8347
431.00 0.835
431.10 0.8354
431.20 0.8356
431.30 0.836
431.40 0.8363
431.50 0.8366
431.60 0.8369
431.70 0.8372
431.80 0.8375
431.90 0.8379
432.00 0.8382
432.10 0.8384
432.20 0.8388
432.30 0.8391
432.40 0.8394
432.50 0.8397
432.60 0.84
432.70 0.8403
432.80 0.8406
432.90 0.8409
433.00 0.8412
433.10 0.8414
433.20 0.8417
433.30 0.8419
433.40 0.842
433.50 0.8421
433.60 0.8422
433.70 0.8417
433.80 0.8405
433.90 0.8386
434.00 0.8324
434.10 0.8329
434.20 0.8398
434.30 0.8423
434.40 0.844
434.50 0.845
434.60 0.8456
434.70 0.8461
434.80 0.8466
434.90 0.847
435.00 0.8473
435.10 0.8477
435.20 0.848
435.30 0.8484
435.40 0.8487
435.50 0.849
435.60 0.8494
435.70 0.8497
435.80 0.85
435.90 0.8503
436.00 0.8506
436.10 0.8509
436.20 0.8512
436.30 0.8515
436.40 0.8518
436.50 0.8522
436.60 0.8525
436.70 0.8528
436.80 0.8531
436.90 0.8534
437.00 0.8537
437.10 0.854
437.20 0.8543
437.30 0.8546
437.40 0.8549
437.50 0.8552
437.60 0.8555
437.70 0.8558
437.80 0.8561
437.90 0.8565
438.00 0.8568
438.10 0.8571
438.20 0.8574
438.30 0.8577
438.40 0.858
438.50 0.8583
438.60 0.8586
438.70 0.8589
438.80 0.8592
438.90 0.8595
439.00 0.8598
439.10 0.8601
439.20 0.8604
439.30 0.8607
439.40 0.861
439.50 0.8613
439.60 0.8616
439.70 0.8619
439.80 0.8622
439.90 0.8625
440.00 0.8628
440.10 0.8631
440.20 0.8634
440.30 0.8637
440.40 0.8639
440.50 0.8642
440.60 0.8645
440.70 0.8648
440.80 0.8651
440.90 0.8654
441.00 0.8657
441.10 0.866
441.20 0.8663
441.30 0.8666
441.40 0.8669
441.50 0.8672
441.60 0.8675
441.70 0.8678
441.80 0.8681
441.90 0.8684
442.00 0.8687
442.10 0.869
442.20 0.8693
442.30 0.8696
442.40 0.8699
442.50 0.8701
442.60 0.8704
442.70 0.8707
442.80 0.871
442.90 0.8713
443.00 0.8716
443.10 0.8719
