# Version 2.1 - nm, norm@500 to 1, cut digits, bergeron_2500_90.dat_2500
# Wavelength(nm)  Flambda(ergs/cm^s/s/nm)
300.00 0.08669
300.10 0.08691
300.20 0.08713
300.30 0.08736
300.40 0.08758
300.50 0.0878
300.60 0.08803
300.70 0.08825
300.80 0.08847
300.90 0.08869
301.00 0.08892
301.10 0.08914
301.20 0.08936
301.30 0.08958
301.40 0.0898
301.50 0.09002
301.60 0.09024
301.70 0.09046
301.80 0.09068
301.90 0.0909
302.00 0.09112
302.10 0.09134
302.20 0.09158
302.30 0.09181
302.40 0.09204
302.50 0.09227
302.60 0.0925
302.70 0.09273
302.80 0.09295
302.90 0.09318
303.00 0.09341
303.10 0.09364
303.20 0.09387
303.30 0.09409
303.40 0.09432
303.50 0.09455
303.60 0.09477
303.70 0.095
303.80 0.09523
303.90 0.09545
304.00 0.09568
304.10 0.09592
304.20 0.09615
304.30 0.09639
304.40 0.09663
304.50 0.09687
304.60 0.0971
304.70 0.09734
304.80 0.09757
304.90 0.09781
305.00 0.09805
305.10 0.09828
305.20 0.09852
305.30 0.09875
305.40 0.09898
305.50 0.09922
305.60 0.09945
305.70 0.09968
305.80 0.09992
305.90 0.1001
306.00 0.1004
306.10 0.1006
306.20 0.1009
306.30 0.1011
306.40 0.1014
306.50 0.1016
306.60 0.1018
306.70 0.1021
306.80 0.1023
306.90 0.1026
307.00 0.1028
307.10 0.1031
307.20 0.1033
307.30 0.1035
307.40 0.1038
307.50 0.104
307.60 0.1043
307.70 0.1045
307.80 0.1047
307.90 0.105
308.00 0.1052
308.10 0.1055
308.20 0.1057
308.30 0.106
308.40 0.1062
308.50 0.1065
308.60 0.1067
308.70 0.107
308.80 0.1072
308.90 0.1075
309.00 0.1077
309.10 0.108
309.20 0.1082
309.30 0.1085
309.40 0.1087
309.50 0.109
309.60 0.1092
309.70 0.1095
309.80 0.1097
309.90 0.11
310.00 0.1102
310.10 0.1105
310.20 0.1107
310.30 0.111
310.40 0.1112
310.50 0.1115
310.60 0.1118
310.70 0.112
310.80 0.1123
310.90 0.1125
311.00 0.1128
311.10 0.1131
311.20 0.1133
311.30 0.1136
311.40 0.1138
311.50 0.1141
311.60 0.1143
311.70 0.1146
311.80 0.1148
311.90 0.1151
312.00 0.1153
312.10 0.1156
312.20 0.1159
312.30 0.1161
312.40 0.1164
312.50 0.1166
312.60 0.1169
312.70 0.1172
312.80 0.1174
312.90 0.1177
313.00 0.118
313.10 0.1182
313.20 0.1185
313.30 0.1188
313.40 0.119
313.50 0.1193
313.60 0.1196
313.70 0.1198
313.80 0.1201
313.90 0.1203
314.00 0.1206
314.10 0.1209
314.20 0.1211
314.30 0.1214
314.40 0.1217
314.50 0.122
314.60 0.1222
314.70 0.1225
314.80 0.1228
314.90 0.123
315.00 0.1233
315.10 0.1236
315.20 0.1239
315.30 0.1241
315.40 0.1244
315.50 0.1247
315.60 0.1249
315.70 0.1252
315.80 0.1255
315.90 0.1257
316.00 0.126
316.10 0.1263
316.20 0.1266
316.30 0.1268
316.40 0.1271
316.50 0.1274
316.60 0.1277
316.70 0.128
316.80 0.1282
316.90 0.1285
317.00 0.1288
317.10 0.1291
317.20 0.1293
317.30 0.1296
317.40 0.1299
317.50 0.1302
317.60 0.1304
317.70 0.1307
317.80 0.131
317.90 0.1313
318.00 0.1316
318.10 0.1318
318.20 0.1321
318.30 0.1324
318.40 0.1327
318.50 0.133
318.60 0.1333
318.70 0.1336
318.80 0.1338
318.90 0.1341
319.00 0.1344
319.10 0.1347
319.20 0.135
319.30 0.1353
319.40 0.1355
319.50 0.1358
319.60 0.1361
319.70 0.1364
319.80 0.1367
319.90 0.1369
320.00 0.1372
320.10 0.1375
320.20 0.1378
320.30 0.1381
320.40 0.1384
320.50 0.1387
320.60 0.139
320.70 0.1393
320.80 0.1396
320.90 0.1399
321.00 0.1402
321.10 0.1405
321.20 0.1407
321.30 0.141
321.40 0.1413
321.50 0.1416
321.60 0.1419
321.70 0.1422
321.80 0.1425
321.90 0.1428
322.00 0.1431
322.10 0.1434
322.20 0.1437
322.30 0.144
322.40 0.1443
322.50 0.1446
322.60 0.1449
322.70 0.1452
322.80 0.1455
322.90 0.1458
323.00 0.1461
323.10 0.1464
323.20 0.1466
323.30 0.1469
323.40 0.1472
323.50 0.1475
323.60 0.1478
323.70 0.1481
323.80 0.1484
323.90 0.1487
324.00 0.149
324.10 0.1493
324.20 0.1496
324.30 0.1499
324.40 0.1502
324.50 0.1506
324.60 0.1509
324.70 0.1512
324.80 0.1515
324.90 0.1518
325.00 0.1521
325.10 0.1524
325.20 0.1527
325.30 0.153
325.40 0.1533
325.50 0.1536
325.60 0.1539
325.70 0.1542
325.80 0.1545
325.90 0.1548
326.00 0.1551
326.10 0.1554
326.20 0.1557
326.30 0.1561
326.40 0.1564
326.50 0.1567
326.60 0.157
326.70 0.1573
326.80 0.1576
326.90 0.1579
327.00 0.1583
327.10 0.1586
327.20 0.1589
327.30 0.1592
327.40 0.1595
327.50 0.1598
327.60 0.1601
327.70 0.1604
327.80 0.1607
327.90 0.1611
328.00 0.1614
328.10 0.1617
328.20 0.162
328.30 0.1623
328.40 0.1626
328.50 0.163
328.60 0.1633
328.70 0.1636
328.80 0.1639
328.90 0.1643
329.00 0.1646
329.10 0.1649
329.20 0.1652
329.30 0.1655
329.40 0.1658
329.50 0.1662
329.60 0.1665
329.70 0.1668
329.80 0.1671
329.90 0.1674
330.00 0.1677
330.10 0.1681
330.20 0.1684
330.30 0.1687
330.40 0.1691
330.50 0.1694
330.60 0.1697
330.70 0.17
330.80 0.1704
330.90 0.1707
331.00 0.171
331.10 0.1713
331.20 0.1717
331.30 0.172
331.40 0.1723
331.50 0.1726
331.60 0.173
331.70 0.1733
331.80 0.1736
331.90 0.1739
332.00 0.1743
332.10 0.1746
332.20 0.1749
332.30 0.1753
332.40 0.1756
332.50 0.1759
332.60 0.1763
332.70 0.1766
332.80 0.1769
332.90 0.1773
333.00 0.1776
333.10 0.1779
333.20 0.1783
333.30 0.1786
333.40 0.1789
333.50 0.1792
333.60 0.1796
333.70 0.1799
333.80 0.1802
333.90 0.1806
334.00 0.1809
334.10 0.1812
334.20 0.1816
334.30 0.1819
334.40 0.1823
334.50 0.1826
334.60 0.1829
334.70 0.1833
334.80 0.1836
334.90 0.184
335.00 0.1843
335.10 0.1847
335.20 0.185
335.30 0.1853
335.40 0.1857
335.50 0.186
335.60 0.1863
335.70 0.1867
335.80 0.187
335.90 0.1873
336.00 0.1877
336.10 0.188
336.20 0.1884
336.30 0.1887
336.40 0.1891
336.50 0.1894
336.60 0.1898
336.70 0.1901
336.80 0.1905
336.90 0.1908
337.00 0.1912
337.10 0.1915
337.20 0.1919
337.30 0.1922
337.40 0.1925
337.50 0.1929
337.60 0.1932
337.70 0.1936
337.80 0.1939
337.90 0.1943
338.00 0.1946
338.10 0.195
338.20 0.1953
338.30 0.1957
338.40 0.196
338.50 0.1964
338.60 0.1967
338.70 0.1971
338.80 0.1974
338.90 0.1978
339.00 0.1981
339.10 0.1985
339.20 0.1988
339.30 0.1992
339.40 0.1996
339.50 0.1999
339.60 0.2003
339.70 0.2006
339.80 0.2009
339.90 0.2013
340.00 0.2016
340.10 0.202
340.20 0.2024
340.30 0.2027
340.40 0.2031
340.50 0.2035
340.60 0.2038
340.70 0.2042
340.80 0.2045
340.90 0.2049
341.00 0.2053
341.10 0.2056
341.20 0.206
341.30 0.2063
341.40 0.2067
341.50 0.2071
341.60 0.2074
341.70 0.2078
341.80 0.2081
341.90 0.2085
342.00 0.2088
342.10 0.2092
342.20 0.2096
342.30 0.2099
342.40 0.2103
342.50 0.2107
342.60 0.211
342.70 0.2114
342.80 0.2118
342.90 0.2121
343.00 0.2125
343.10 0.2129
343.20 0.2132
343.30 0.2136
343.40 0.214
343.50 0.2143
343.60 0.2147
343.70 0.2151
343.80 0.2154
343.90 0.2158
344.00 0.2161
344.10 0.2165
344.20 0.2169
344.30 0.2173
344.40 0.2176
344.50 0.218
344.60 0.2184
344.70 0.2188
344.80 0.2191
344.90 0.2195
345.00 0.2199
345.10 0.2203
345.20 0.2206
345.30 0.221
345.40 0.2214
345.50 0.2217
345.60 0.2221
345.70 0.2225
345.80 0.2228
345.90 0.2232
346.00 0.2236
346.10 0.224
346.20 0.2243
346.30 0.2247
346.40 0.2251
346.50 0.2255
346.60 0.2259
346.70 0.2263
346.80 0.2266
346.90 0.227
347.00 0.2274
347.10 0.2278
347.20 0.2281
347.30 0.2285
347.40 0.2289
347.50 0.2293
347.60 0.2296
347.70 0.23
347.80 0.2304
347.90 0.2308
348.00 0.2311
348.10 0.2315
348.20 0.2319
348.30 0.2323
348.40 0.2327
348.50 0.2331
348.60 0.2335
348.70 0.2339
348.80 0.2342
348.90 0.2346
349.00 0.235
349.10 0.2354
349.20 0.2358
349.30 0.2362
349.40 0.2366
349.50 0.2369
349.60 0.2373
349.70 0.2377
349.80 0.2381
349.90 0.2385
350.00 0.2388
350.10 0.2392
350.20 0.2396
350.30 0.24
350.40 0.2404
350.50 0.2408
350.60 0.2412
350.70 0.2416
350.80 0.242
350.90 0.2424
351.00 0.2428
351.10 0.2432
351.20 0.2436
351.30 0.2439
351.40 0.2443
351.50 0.2447
351.60 0.2451
351.70 0.2455
351.80 0.2459
351.90 0.2463
352.00 0.2467
352.10 0.2471
352.20 0.2475
352.30 0.2479
352.40 0.2483
352.50 0.2487
352.60 0.2491
352.70 0.2495
352.80 0.2499
352.90 0.2503
353.00 0.2507
353.10 0.251
353.20 0.2514
353.30 0.2518
353.40 0.2522
353.50 0.2526
353.60 0.253
353.70 0.2534
353.80 0.2538
353.90 0.2542
354.00 0.2546
354.10 0.255
354.20 0.2554
354.30 0.2558
354.40 0.2562
354.50 0.2566
354.60 0.257
354.70 0.2574
354.80 0.2578
354.90 0.2582
355.00 0.2586
355.10 0.259
355.20 0.2595
355.30 0.2599
355.40 0.2603
355.50 0.2607
355.60 0.2611
355.70 0.2615
355.80 0.2619
355.90 0.2622
356.00 0.2626
356.10 0.2631
356.20 0.2635
356.30 0.2639
356.40 0.2643
356.50 0.2647
356.60 0.2651
356.70 0.2655
356.80 0.2659
356.90 0.2664
357.00 0.2668
357.10 0.2672
357.20 0.2676
357.30 0.268
357.40 0.2684
357.50 0.2688
357.60 0.2692
357.70 0.2696
357.80 0.27
357.90 0.2704
358.00 0.2708
358.10 0.2712
358.20 0.2717
358.30 0.2721
358.40 0.2725
358.50 0.2729
358.60 0.2733
358.70 0.2738
358.80 0.2742
358.90 0.2746
359.00 0.275
359.10 0.2754
359.20 0.2758
359.30 0.2762
359.40 0.2767
359.50 0.2771
359.60 0.2775
359.70 0.2779
359.80 0.2783
359.90 0.2787
360.00 0.2791
360.10 0.2795
360.20 0.28
360.30 0.2804
360.40 0.2808
360.50 0.2812
360.60 0.2817
360.70 0.2821
360.80 0.2825
360.90 0.2829
361.00 0.2833
361.10 0.2838
361.20 0.2842
361.30 0.2846
361.40 0.285
361.50 0.2854
361.60 0.2859
361.70 0.2863
361.80 0.2867
361.90 0.2871
362.00 0.2875
362.10 0.288
362.20 0.2884
362.30 0.2888
362.40 0.2892
362.50 0.2897
362.60 0.2901
362.70 0.2905
362.80 0.2909
362.90 0.2913
363.00 0.2918
363.10 0.2922
363.20 0.2926
363.30 0.2931
363.40 0.2935
363.50 0.2939
363.60 0.2944
363.70 0.2948
363.80 0.2952
363.90 0.2956
364.00 0.2961
364.10 0.2965
364.20 0.2969
364.30 0.2973
364.40 0.2978
364.50 0.2982
364.60 0.2986
364.70 0.2991
364.80 0.2995
364.90 0.2999
365.00 0.3004
365.10 0.3008
365.20 0.3012
365.30 0.3017
365.40 0.3021
365.50 0.3025
365.60 0.303
365.70 0.3034
365.80 0.3038
365.90 0.3042
366.00 0.3047
366.10 0.3051
366.20 0.3056
366.30 0.306
366.40 0.3064
366.50 0.3069
366.60 0.3073
366.70 0.3078
366.80 0.3082
366.90 0.3086
367.00 0.3091
367.10 0.3095
367.20 0.3099
367.30 0.3104
367.40 0.3108
367.50 0.3112
367.60 0.3117
367.70 0.3121
367.80 0.3125
367.90 0.313
368.00 0.3134
368.10 0.3139
368.20 0.3143
368.30 0.3148
368.40 0.3152
368.50 0.3156
368.60 0.3161
368.70 0.3165
368.80 0.317
368.90 0.3174
369.00 0.3179
369.10 0.3183
369.20 0.3187
369.30 0.3192
369.40 0.3196
369.50 0.3201
369.60 0.3205
369.70 0.3209
369.80 0.3214
369.90 0.3218
370.00 0.3223
370.10 0.3227
370.20 0.3232
370.30 0.3236
370.40 0.3241
370.50 0.3245
370.60 0.325
370.70 0.3254
370.80 0.3259
370.90 0.3263
371.00 0.3268
371.10 0.3272
371.20 0.3277
371.30 0.3281
371.40 0.3285
371.50 0.329
371.60 0.3294
371.70 0.3299
371.80 0.3303
371.90 0.3308
372.00 0.3312
372.10 0.3317
372.20 0.3321
372.30 0.3326
372.40 0.333
372.50 0.3335
372.60 0.3339
372.70 0.3344
372.80 0.3348
372.90 0.3353
373.00 0.3358
373.10 0.3362
373.20 0.3367
373.30 0.3371
373.40 0.3376
373.50 0.338
373.60 0.3385
373.70 0.3389
373.80 0.3394
373.90 0.3398
374.00 0.3403
374.10 0.3407
374.20 0.3412
374.30 0.3416
374.40 0.3421
374.50 0.3426
374.60 0.343
374.70 0.3435
374.80 0.3439
374.90 0.3444
375.00 0.3449
375.10 0.3453
375.20 0.3458
375.30 0.3462
375.40 0.3467
375.50 0.3471
375.60 0.3476
375.70 0.348
375.80 0.3485
375.90 0.349
376.00 0.3494
376.10 0.3499
376.20 0.3503
376.30 0.3508
376.40 0.3513
376.50 0.3517
376.60 0.3522
376.70 0.3526
376.80 0.3531
376.90 0.3536
377.00 0.354
377.10 0.3545
377.20 0.3549
377.30 0.3554
377.40 0.3559
377.50 0.3563
377.60 0.3568
377.70 0.3573
377.80 0.3577
377.90 0.3582
378.00 0.3586
378.10 0.3591
378.20 0.3596
378.30 0.36
378.40 0.3605
378.50 0.361
378.60 0.3614
378.70 0.3619
378.80 0.3624
378.90 0.3628
379.00 0.3633
379.10 0.3638
379.20 0.3642
379.30 0.3647
379.40 0.3652
379.50 0.3657
379.60 0.3661
379.70 0.3666
379.80 0.3671
379.90 0.3675
380.00 0.368
380.10 0.3685
380.20 0.3689
380.30 0.3694
380.40 0.3699
380.50 0.3703
380.60 0.3708
380.70 0.3713
380.80 0.3718
380.90 0.3722
381.00 0.3727
381.10 0.3732
381.20 0.3736
381.30 0.3741
381.40 0.3746
381.50 0.375
381.60 0.3755
381.70 0.376
381.80 0.3765
381.90 0.3769
382.00 0.3774
382.10 0.3779
382.20 0.3784
382.30 0.3788
382.40 0.3793
382.50 0.3798
382.60 0.3803
382.70 0.3807
382.80 0.3812
382.90 0.3817
383.00 0.3822
383.10 0.3826
383.20 0.3831
383.30 0.3836
383.40 0.3841
383.50 0.3845
383.60 0.385
383.70 0.3855
383.80 0.386
383.90 0.3865
384.00 0.3869
384.10 0.3874
384.20 0.3879
384.30 0.3884
384.40 0.3888
384.50 0.3893
384.60 0.3898
384.70 0.3903
384.80 0.3908
384.90 0.3912
385.00 0.3917
385.10 0.3922
385.20 0.3927
385.30 0.3932
385.40 0.3936
385.50 0.3941
385.60 0.3946
385.70 0.3951
385.80 0.3956
385.90 0.3961
386.00 0.3965
386.10 0.397
386.20 0.3975
386.30 0.398
386.40 0.3985
386.50 0.399
386.60 0.3994
386.70 0.3999
386.80 0.4004
386.90 0.4009
387.00 0.4014
387.10 0.4019
387.20 0.4023
387.30 0.4028
387.40 0.4033
387.50 0.4038
387.60 0.4043
387.70 0.4048
387.80 0.4053
387.90 0.4057
388.00 0.4062
388.10 0.4067
388.20 0.4072
388.30 0.4077
388.40 0.4082
388.50 0.4087
388.60 0.4091
388.70 0.4096
388.80 0.4101
388.90 0.4106
389.00 0.4111
389.10 0.4116
389.20 0.4121
389.30 0.4126
389.40 0.4131
389.50 0.4135
389.60 0.414
389.70 0.4145
389.80 0.415
389.90 0.4155
390.00 0.416
390.10 0.4165
390.20 0.417
390.30 0.4175
390.40 0.418
390.50 0.4185
390.60 0.4189
390.70 0.4194
390.80 0.4199
390.90 0.4204
391.00 0.4209
391.10 0.4214
391.20 0.4219
391.30 0.4224
391.40 0.4229
391.50 0.4234
391.60 0.4239
391.70 0.4244
391.80 0.4249
391.90 0.4254
392.00 0.4259
392.10 0.4263
392.20 0.4268
392.30 0.4273
392.40 0.4278
392.50 0.4283
392.60 0.4288
392.70 0.4293
392.80 0.4298
392.90 0.4303
393.00 0.4308
393.10 0.4313
393.20 0.4318
393.30 0.4323
393.40 0.4328
393.50 0.4333
393.60 0.4338
393.70 0.4343
393.80 0.4348
393.90 0.4353
394.00 0.4358
394.10 0.4363
394.20 0.4368
394.30 0.4373
394.40 0.4378
394.50 0.4383
394.60 0.4388
394.70 0.4393
394.80 0.4398
394.90 0.4403
395.00 0.4408
395.10 0.4413
395.20 0.4418
395.30 0.4423
395.40 0.4428
395.50 0.4433
395.60 0.4438
395.70 0.4443
395.80 0.4448
395.90 0.4453
396.00 0.4458
396.10 0.4463
396.20 0.4468
396.30 0.4473
396.40 0.4478
396.50 0.4483
396.60 0.4488
396.70 0.4493
396.80 0.4498
396.90 0.4503
397.00 0.4508
397.10 0.4513
397.20 0.4518
397.30 0.4523
397.40 0.4528
397.50 0.4533
397.60 0.4538
397.70 0.4543
397.80 0.4548
397.90 0.4553
398.00 0.4558
398.10 0.4563
398.20 0.4569
398.30 0.4574
398.40 0.4579
398.50 0.4584
398.60 0.4589
398.70 0.4594
398.80 0.4599
398.90 0.4604
399.00 0.4609
399.10 0.4614
399.20 0.4619
399.30 0.4624
399.40 0.4629
399.50 0.4634
399.60 0.4639
399.70 0.4645
399.80 0.465
399.90 0.4655
400.00 0.466
400.10 0.4665
400.20 0.467
400.30 0.4675
400.40 0.468
400.50 0.4685
400.60 0.469
400.70 0.4695
400.80 0.4701
400.90 0.4706
401.00 0.4711
401.10 0.4716
401.20 0.4721
401.30 0.4726
401.40 0.4731
401.50 0.4736
401.60 0.4741
401.70 0.4747
401.80 0.4752
401.90 0.4757
402.00 0.4762
402.10 0.4767
402.20 0.4772
402.30 0.4777
402.40 0.4782
402.50 0.4787
402.60 0.4793
402.70 0.4798
402.80 0.4803
402.90 0.4808
403.00 0.4813
403.10 0.4818
403.20 0.4823
403.30 0.4828
403.40 0.4834
403.50 0.4839
403.60 0.4844
403.70 0.4849
403.80 0.4854
403.90 0.4859
404.00 0.4865
404.10 0.487
404.20 0.4875
404.30 0.488
404.40 0.4885
404.50 0.489
404.60 0.4895
404.70 0.4901
404.80 0.4906
404.90 0.4911
405.00 0.4916
405.10 0.4921
405.20 0.4926
405.30 0.4932
405.40 0.4937
405.50 0.4942
405.60 0.4947
405.70 0.4952
405.80 0.4957
405.90 0.4963
406.00 0.4968
406.10 0.4973
406.20 0.4978
406.30 0.4983
406.40 0.4989
406.50 0.4994
406.60 0.4999
406.70 0.5004
406.80 0.5009
406.90 0.5014
407.00 0.502
407.10 0.5025
407.20 0.503
407.30 0.5035
407.40 0.504
407.50 0.5046
407.60 0.5051
407.70 0.5056
407.80 0.5061
407.90 0.5066
408.00 0.5072
408.10 0.5077
408.20 0.5082
408.30 0.5087
408.40 0.5092
408.50 0.5098
408.60 0.5103
408.70 0.5108
408.80 0.5113
408.90 0.5119
409.00 0.5124
409.10 0.5129
409.20 0.5134
409.30 0.5139
409.40 0.5145
409.50 0.515
409.60 0.5155
409.70 0.516
409.80 0.5166
409.90 0.5171
410.00 0.5176
410.10 0.5181
410.20 0.5186
410.30 0.5192
410.40 0.5197
410.50 0.5202
410.60 0.5207
410.70 0.5212
410.80 0.5218
410.90 0.5223
411.00 0.5228
411.10 0.5233
411.20 0.5239
411.30 0.5244
411.40 0.525
411.50 0.5255
411.60 0.526
411.70 0.5265
411.80 0.527
411.90 0.5276
412.00 0.5281
412.10 0.5286
412.20 0.5292
412.30 0.5297
412.40 0.5302
412.50 0.5307
412.60 0.5312
412.70 0.5318
412.80 0.5323
412.90 0.5328
413.00 0.5333
413.10 0.5339
413.20 0.5344
413.30 0.5349
413.40 0.5355
413.50 0.536
413.60 0.5365
413.70 0.537
413.80 0.5376
413.90 0.5381
414.00 0.5386
414.10 0.5391
414.20 0.5397
414.30 0.5402
414.40 0.5407
414.50 0.5413
414.60 0.5418
414.70 0.5423
414.80 0.5429
414.90 0.5434
415.00 0.5439
415.10 0.5444
415.20 0.545
415.30 0.5455
415.40 0.546
415.50 0.5466
415.60 0.5471
415.70 0.5476
415.80 0.5481
415.90 0.5487
416.00 0.5492
416.10 0.5497
416.20 0.5503
416.30 0.5508
416.40 0.5513
416.50 0.5519
416.60 0.5524
416.70 0.5529
416.80 0.5535
416.90 0.554
417.00 0.5545
417.10 0.5551
417.20 0.5556
417.30 0.5561
417.40 0.5567
417.50 0.5572
417.60 0.5577
417.70 0.5583
417.80 0.5588
417.90 0.5593
418.00 0.5599
418.10 0.5604
418.20 0.5609
418.30 0.5615
418.40 0.562
418.50 0.5625
418.60 0.563
418.70 0.5636
418.80 0.5641
418.90 0.5646
419.00 0.5652
419.10 0.5657
419.20 0.5662
419.30 0.5668
419.40 0.5673
419.50 0.5679
419.60 0.5684
419.70 0.5689
419.80 0.5694
419.90 0.57
420.00 0.5705
420.10 0.571
420.20 0.5716
420.30 0.5721
420.40 0.5726
420.50 0.5732
420.60 0.5737
420.70 0.5742
420.80 0.5748
420.90 0.5753
421.00 0.5759
421.10 0.5764
421.20 0.5769
421.30 0.5775
421.40 0.578
421.50 0.5785
421.60 0.5791
421.70 0.5796
421.80 0.5801
421.90 0.5807
422.00 0.5812
422.10 0.5817
422.20 0.5823
422.30 0.5828
422.40 0.5834
422.50 0.5839
422.60 0.5844
422.70 0.585
422.80 0.5855
422.90 0.586
423.00 0.5866
423.10 0.5871
423.20 0.5877
423.30 0.5882
423.40 0.5887
423.50 0.5893
423.60 0.5898
423.70 0.5904
423.80 0.5909
423.90 0.5914
424.00 0.592
424.10 0.5925
424.20 0.593
424.30 0.5936
424.40 0.5941
424.50 0.5946
424.60 0.5952
424.70 0.5957
424.80 0.5963
424.90 0.5968
425.00 0.5973
425.10 0.5979
425.20 0.5984
425.30 0.599
425.40 0.5995
425.50 0.6
425.60 0.6006
425.70 0.6011
425.80 0.6016
425.90 0.6022
426.00 0.6027
426.10 0.6033
426.20 0.6038
426.30 0.6043
426.40 0.6049
426.50 0.6054
426.60 0.606
426.70 0.6065
426.80 0.6071
426.90 0.6076
427.00 0.6081
427.10 0.6086
427.20 0.6092
427.30 0.6097
427.40 0.6103
427.50 0.6108
427.60 0.6114
427.70 0.6119
427.80 0.6124
427.90 0.613
428.00 0.6135
428.10 0.6141
428.20 0.6146
428.30 0.6152
428.40 0.6157
428.50 0.6162
428.60 0.6168
428.70 0.6173
428.80 0.6179
428.90 0.6184
429.00 0.6189
429.10 0.6195
429.20 0.62
429.30 0.6206
429.40 0.6211
429.50 0.6217
429.60 0.6222
429.70 0.6227
429.80 0.6233
429.90 0.6238
430.00 0.6244
430.10 0.6249
430.20 0.6254
430.30 0.626
430.40 0.6265
430.50 0.6271
430.60 0.6276
430.70 0.6282
430.80 0.6287
430.90 0.6292
431.00 0.6298
431.10 0.6303
431.20 0.6309
431.30 0.6314
431.40 0.6319
431.50 0.6325
431.60 0.633
431.70 0.6336
431.80 0.6341
431.90 0.6347
432.00 0.6352
432.10 0.6358
432.20 0.6363
432.30 0.6368
432.40 0.6374
432.50 0.6379
432.60 0.6385
432.70 0.639
432.80 0.6395
432.90 0.6401
433.00 0.6407
433.10 0.6412
433.20 0.6417
433.30 0.6423
433.40 0.6428
433.50 0.6434
433.60 0.6439
433.70 0.6444
433.80 0.645
433.90 0.6456
434.00 0.6461
434.10 0.6466
434.20 0.6472
434.30 0.6477
434.40 0.6483
434.50 0.6488
434.60 0.6493
434.70 0.6499
434.80 0.6505
434.90 0.651
435.00 0.6515
435.10 0.6521
435.20 0.6526
435.30 0.6532
435.40 0.6537
435.50 0.6543
435.60 0.6548
435.70 0.6554
435.80 0.6559
435.90 0.6564
436.00 0.657
436.10 0.6575
436.20 0.6581
436.30 0.6586
436.40 0.6592
436.50 0.6597
436.60 0.6602
436.70 0.6608
436.80 0.6613
436.90 0.6619
437.00 0.6624
437.10 0.663
437.20 0.6635
437.30 0.664
437.40 0.6646
437.50 0.6651
437.60 0.6657
437.70 0.6662
437.80 0.6668
437.90 0.6673
438.00 0.6679
438.10 0.6685
438.20 0.669
438.30 0.6695
438.40 0.6701
438.50 0.6706
438.60 0.6712
438.70 0.6717
438.80 0.6722
438.90 0.6728
439.00 0.6734
439.10 0.6739
439.20 0.6744
439.30 0.675
439.40 0.6755
439.50 0.6761
439.60 0.6766
439.70 0.6772
439.80 0.6777
439.90 0.6783
440.00 0.6788
440.10 0.6794
440.20 0.6799
440.30 0.6804
440.40 0.681
440.50 0.6815
440.60 0.6821
440.70 0.6826
440.80 0.6832
440.90 0.6837
441.00 0.6843
441.10 0.6848
441.20 0.6854
441.30 0.6859
441.40 0.6865
441.50 0.687
441.60 0.6876
441.70 0.6881
441.80 0.6886
441.90 0.6892
442.00 0.6897
442.10 0.6903
442.20 0.6908
442.30 0.6914
442.40 0.6919
442.50 0.6925
442.60 0.693
