# Version 2.1 - nm, norm@500 to 1, cut digits, bergeron_2750_70.dat_2750
# Wavelength(nm)  Flambda(ergs/cm^s/s/nm)
300.00 0.05361
300.10 0.05378
300.20 0.05395
300.30 0.05412
300.40 0.05429
300.50 0.05446
300.60 0.05463
300.70 0.05481
300.80 0.05498
300.90 0.05515
301.00 0.05532
301.10 0.05549
301.20 0.05565
301.30 0.05582
301.40 0.05599
301.50 0.05616
301.60 0.05633
301.70 0.0565
301.80 0.05667
301.90 0.05684
302.00 0.05701
302.10 0.05718
302.20 0.05736
302.30 0.05754
302.40 0.05772
302.50 0.05789
302.60 0.05807
302.70 0.05825
302.80 0.05843
302.90 0.05861
303.00 0.05878
303.10 0.05896
303.20 0.05914
303.30 0.05931
303.40 0.05949
303.50 0.05966
303.60 0.05984
303.70 0.06001
303.80 0.06019
303.90 0.06036
304.00 0.06054
304.10 0.06073
304.20 0.06091
304.30 0.0611
304.40 0.06128
304.50 0.06147
304.60 0.06166
304.70 0.06184
304.80 0.06203
304.90 0.06221
305.00 0.06239
305.10 0.06258
305.20 0.06276
305.30 0.06295
305.40 0.06313
305.50 0.06331
305.60 0.0635
305.70 0.06368
305.80 0.06386
305.90 0.06404
306.00 0.06423
306.10 0.06442
306.20 0.06461
306.30 0.06481
306.40 0.065
306.50 0.06519
306.60 0.06538
306.70 0.06558
306.80 0.06577
306.90 0.06596
307.00 0.06615
307.10 0.06634
307.20 0.06653
307.30 0.06673
307.40 0.06692
307.50 0.06711
307.60 0.0673
307.70 0.06749
307.80 0.06768
307.90 0.06787
308.00 0.06806
308.10 0.06826
308.20 0.06846
308.30 0.06866
308.40 0.06886
308.50 0.06906
308.60 0.06926
308.70 0.06946
308.80 0.06966
308.90 0.06986
309.00 0.07006
309.10 0.07026
309.20 0.07046
309.30 0.07065
309.40 0.07085
309.50 0.07105
309.60 0.07125
309.70 0.07145
309.80 0.07164
309.90 0.07184
310.00 0.07205
310.10 0.07225
310.20 0.07246
310.30 0.07266
310.40 0.07287
310.50 0.07308
310.60 0.07329
310.70 0.0735
310.80 0.07371
310.90 0.07391
311.00 0.07412
311.10 0.07433
311.20 0.07454
311.30 0.07474
311.40 0.07495
311.50 0.07515
311.60 0.07536
311.70 0.07556
311.80 0.07577
311.90 0.07597
312.00 0.07618
312.10 0.07638
312.20 0.07659
312.30 0.07681
312.40 0.07702
312.50 0.07724
312.60 0.07745
312.70 0.07767
312.80 0.07789
312.90 0.0781
313.00 0.07832
313.10 0.07853
313.20 0.07875
313.30 0.07896
313.40 0.07917
313.50 0.07939
313.60 0.0796
313.70 0.07981
313.80 0.08003
313.90 0.08024
314.00 0.08046
314.10 0.08068
314.20 0.0809
314.30 0.08112
314.40 0.08135
314.50 0.08157
314.60 0.0818
314.70 0.08202
314.80 0.08224
314.90 0.08246
315.00 0.08269
315.10 0.08291
315.20 0.08313
315.30 0.08335
315.40 0.08357
315.50 0.08379
315.60 0.08401
315.70 0.08423
315.80 0.08445
315.90 0.08467
316.00 0.0849
316.10 0.08512
316.20 0.08535
316.30 0.08559
316.40 0.08582
316.50 0.08605
316.60 0.08628
316.70 0.08651
316.80 0.08674
316.90 0.08697
317.00 0.0872
317.10 0.08743
317.20 0.08766
317.30 0.08789
317.40 0.08812
317.50 0.08835
317.60 0.08857
317.70 0.0888
317.80 0.08903
317.90 0.08926
318.00 0.08949
318.10 0.08972
318.20 0.08996
318.30 0.0902
318.40 0.09044
318.50 0.09068
318.60 0.09092
318.70 0.09116
318.80 0.0914
318.90 0.09164
319.00 0.09187
319.10 0.09211
319.20 0.09235
319.30 0.09258
319.40 0.09282
319.50 0.09306
319.60 0.09329
319.70 0.09353
319.80 0.09376
319.90 0.094
320.00 0.09424
320.10 0.09449
320.20 0.09473
320.30 0.09498
320.40 0.09522
320.50 0.09547
320.60 0.09572
320.70 0.09596
320.80 0.09621
320.90 0.09646
321.00 0.0967
321.10 0.09695
321.20 0.09719
321.30 0.09744
321.40 0.09768
321.50 0.09793
321.60 0.09817
321.70 0.09841
321.80 0.09865
321.90 0.0989
322.00 0.09915
322.10 0.0994
322.20 0.09965
322.30 0.09991
322.40 0.1002
322.50 0.1004
322.60 0.1007
322.70 0.1009
322.80 0.1012
322.90 0.1014
323.00 0.1017
323.10 0.1019
323.20 0.1022
323.30 0.1024
323.40 0.1027
323.50 0.103
323.60 0.1032
323.70 0.1035
323.80 0.1037
323.90 0.104
324.00 0.1042
324.10 0.1045
324.20 0.1047
324.30 0.105
324.40 0.1053
324.50 0.1055
324.60 0.1058
324.70 0.106
324.80 0.1063
324.90 0.1066
325.00 0.1068
325.10 0.1071
325.20 0.1074
325.30 0.1076
325.40 0.1079
325.50 0.1081
325.60 0.1084
325.70 0.1087
325.80 0.1089
325.90 0.1092
326.00 0.1094
326.10 0.1097
326.20 0.11
326.30 0.1102
326.40 0.1105
326.50 0.1108
326.60 0.1111
326.70 0.1113
326.80 0.1116
326.90 0.1119
327.00 0.1121
327.10 0.1124
327.20 0.1127
327.30 0.1129
327.40 0.1132
327.50 0.1135
327.60 0.1138
327.70 0.114
327.80 0.1143
327.90 0.1146
328.00 0.1148
328.10 0.1151
328.20 0.1154
328.30 0.1157
328.40 0.1159
328.50 0.1162
328.60 0.1165
328.70 0.1168
328.80 0.1171
328.90 0.1173
329.00 0.1176
329.10 0.1179
329.20 0.1182
329.30 0.1184
329.40 0.1187
329.50 0.119
329.60 0.1193
329.70 0.1195
329.80 0.1198
329.90 0.1201
330.00 0.1204
330.10 0.1206
330.20 0.1209
330.30 0.1212
330.40 0.1215
330.50 0.1218
330.60 0.1221
330.70 0.1224
330.80 0.1227
330.90 0.1229
331.00 0.1232
331.10 0.1235
331.20 0.1238
331.30 0.1241
331.40 0.1244
331.50 0.1246
331.60 0.1249
331.70 0.1252
331.80 0.1255
331.90 0.1258
332.00 0.1261
332.10 0.1264
332.20 0.1267
332.30 0.1269
332.40 0.1272
332.50 0.1275
332.60 0.1278
332.70 0.1281
332.80 0.1284
332.90 0.1287
333.00 0.129
333.10 0.1293
333.20 0.1296
333.30 0.1299
333.40 0.1302
333.50 0.1305
333.60 0.1308
333.70 0.1311
333.80 0.1313
333.90 0.1316
334.00 0.1319
334.10 0.1322
334.20 0.1325
334.30 0.1328
334.40 0.1331
334.50 0.1334
334.60 0.1338
334.70 0.1341
334.80 0.1344
334.90 0.1347
335.00 0.135
335.10 0.1353
335.20 0.1356
335.30 0.1359
335.40 0.1362
335.50 0.1365
335.60 0.1368
335.70 0.1371
335.80 0.1374
335.90 0.1377
336.00 0.138
336.10 0.1383
336.20 0.1386
336.30 0.1389
336.40 0.1392
336.50 0.1395
336.60 0.1398
336.70 0.1401
336.80 0.1404
336.90 0.1408
337.00 0.1411
337.10 0.1414
337.20 0.1417
337.30 0.142
337.40 0.1423
337.50 0.1426
337.60 0.1429
337.70 0.1432
337.80 0.1435
337.90 0.1438
338.00 0.1441
338.10 0.1445
338.20 0.1448
338.30 0.1451
338.40 0.1454
338.50 0.1457
338.60 0.1461
338.70 0.1464
338.80 0.1467
338.90 0.147
339.00 0.1473
339.10 0.1476
339.20 0.148
339.30 0.1483
339.40 0.1486
339.50 0.1489
339.60 0.1492
339.70 0.1495
339.80 0.1499
339.90 0.1502
340.00 0.1505
340.10 0.1508
340.20 0.1511
340.30 0.1515
340.40 0.1518
340.50 0.1521
340.60 0.1525
340.70 0.1528
340.80 0.1531
340.90 0.1534
341.00 0.1538
341.10 0.1541
341.20 0.1544
341.30 0.1547
341.40 0.1551
341.50 0.1554
341.60 0.1557
341.70 0.156
341.80 0.1563
341.90 0.1567
342.00 0.157
342.10 0.1573
342.20 0.1577
342.30 0.158
342.40 0.1583
342.50 0.1587
342.60 0.159
342.70 0.1593
342.80 0.1597
342.90 0.16
343.00 0.1603
343.10 0.1607
343.20 0.161
343.30 0.1613
343.40 0.1617
343.50 0.162
343.60 0.1623
343.70 0.1627
343.80 0.163
343.90 0.1633
344.00 0.1637
344.10 0.164
344.20 0.1643
344.30 0.1647
344.40 0.165
344.50 0.1654
344.60 0.1657
344.70 0.1661
344.80 0.1664
344.90 0.1667
345.00 0.1671
345.10 0.1674
345.20 0.1678
345.30 0.1681
345.40 0.1684
345.50 0.1688
345.60 0.1691
345.70 0.1695
345.80 0.1698
345.90 0.1701
346.00 0.1705
346.10 0.1708
346.20 0.1712
346.30 0.1715
346.40 0.1719
346.50 0.1722
346.60 0.1726
346.70 0.1729
346.80 0.1733
346.90 0.1736
347.00 0.174
347.10 0.1743
347.20 0.1747
347.30 0.175
347.40 0.1754
347.50 0.1757
347.60 0.1761
347.70 0.1764
347.80 0.1768
347.90 0.1771
348.00 0.1775
348.10 0.1778
348.20 0.1782
348.30 0.1785
348.40 0.1789
348.50 0.1793
348.60 0.1796
348.70 0.18
348.80 0.1803
348.90 0.1807
349.00 0.181
349.10 0.1814
349.20 0.1818
349.30 0.1821
349.40 0.1825
349.50 0.1828
349.60 0.1832
349.70 0.1835
349.80 0.1839
349.90 0.1842
350.00 0.1846
350.10 0.185
350.20 0.1853
350.30 0.1857
350.40 0.1861
350.50 0.1864
350.60 0.1868
350.70 0.1872
350.80 0.1875
350.90 0.1879
351.00 0.1883
351.10 0.1886
351.20 0.189
351.30 0.1894
351.40 0.1897
351.50 0.1901
351.60 0.1904
351.70 0.1908
351.80 0.1912
351.90 0.1915
352.00 0.1919
352.10 0.1923
352.20 0.1926
352.30 0.193
352.40 0.1934
352.50 0.1938
352.60 0.1941
352.70 0.1945
352.80 0.1949
352.90 0.1953
353.00 0.1956
353.10 0.196
353.20 0.1964
353.30 0.1968
353.40 0.1971
353.50 0.1975
353.60 0.1979
353.70 0.1982
353.80 0.1986
353.90 0.199
354.00 0.1993
354.10 0.1997
354.20 0.2001
354.30 0.2005
354.40 0.2009
354.50 0.2013
354.60 0.2016
354.70 0.202
354.80 0.2024
354.90 0.2028
355.00 0.2032
355.10 0.2035
355.20 0.2039
355.30 0.2043
355.40 0.2047
355.50 0.2051
355.60 0.2054
355.70 0.2058
355.80 0.2062
355.90 0.2066
356.00 0.2069
356.10 0.2073
356.20 0.2077
356.30 0.2081
356.40 0.2085
356.50 0.2089
356.60 0.2093
356.70 0.2097
356.80 0.2101
356.90 0.2105
357.00 0.2108
357.10 0.2112
357.20 0.2116
357.30 0.212
357.40 0.2124
357.50 0.2128
357.60 0.2132
357.70 0.2135
357.80 0.2139
357.90 0.2143
358.00 0.2147
358.10 0.2151
358.20 0.2155
358.30 0.2159
358.40 0.2163
358.50 0.2167
358.60 0.2171
358.70 0.2175
358.80 0.2179
358.90 0.2183
359.00 0.2187
359.10 0.2191
359.20 0.2195
359.30 0.2199
359.40 0.2203
359.50 0.2206
359.60 0.221
359.70 0.2214
359.80 0.2218
359.90 0.2222
360.00 0.2226
360.10 0.223
360.20 0.2234
360.30 0.2238
360.40 0.2242
360.50 0.2246
360.60 0.225
360.70 0.2254
360.80 0.2258
360.90 0.2263
361.00 0.2267
361.10 0.2271
361.20 0.2275
361.30 0.2279
361.40 0.2283
361.50 0.2287
361.60 0.2291
361.70 0.2295
361.80 0.2299
361.90 0.2303
362.00 0.2307
362.10 0.2311
362.20 0.2315
362.30 0.2319
362.40 0.2323
362.50 0.2327
362.60 0.2331
362.70 0.2335
362.80 0.2339
362.90 0.2343
363.00 0.2347
363.10 0.2352
363.20 0.2356
363.30 0.236
363.40 0.2364
363.50 0.2368
363.60 0.2372
363.70 0.2376
363.80 0.2381
363.90 0.2385
364.00 0.2389
364.10 0.2393
364.20 0.2397
364.30 0.2401
364.40 0.2405
364.50 0.2409
364.60 0.2414
364.70 0.2418
364.80 0.2422
364.90 0.2426
365.00 0.243
365.10 0.2435
365.20 0.2439
365.30 0.2443
365.40 0.2447
365.50 0.2451
365.60 0.2455
365.70 0.246
365.80 0.2464
365.90 0.2468
366.00 0.2472
366.10 0.2476
366.20 0.2481
366.30 0.2485
366.40 0.2489
366.50 0.2494
366.60 0.2498
366.70 0.2502
366.80 0.2506
366.90 0.2511
367.00 0.2515
367.10 0.2519
367.20 0.2523
367.30 0.2527
367.40 0.2532
367.50 0.2536
367.60 0.254
367.70 0.2544
367.80 0.2549
367.90 0.2553
368.00 0.2557
368.10 0.2561
368.20 0.2566
368.30 0.257
368.40 0.2574
368.50 0.2579
368.60 0.2583
368.70 0.2587
368.80 0.2592
368.90 0.2596
369.00 0.26
369.10 0.2605
369.20 0.2609
369.30 0.2613
369.40 0.2618
369.50 0.2622
369.60 0.2626
369.70 0.2631
369.80 0.2635
369.90 0.2639
370.00 0.2643
370.10 0.2648
370.20 0.2652
370.30 0.2657
370.40 0.2661
370.50 0.2665
370.60 0.267
370.70 0.2674
370.80 0.2679
370.90 0.2683
371.00 0.2687
371.10 0.2692
371.20 0.2696
371.30 0.2701
371.40 0.2705
371.50 0.2709
371.60 0.2714
371.70 0.2718
371.80 0.2722
371.90 0.2727
372.00 0.2731
372.10 0.2736
372.20 0.274
372.30 0.2745
372.40 0.2749
372.50 0.2754
372.60 0.2758
372.70 0.2763
372.80 0.2767
372.90 0.2771
373.00 0.2776
373.10 0.278
373.20 0.2785
373.30 0.2789
373.40 0.2794
373.50 0.2798
373.60 0.2803
373.70 0.2807
373.80 0.2811
373.90 0.2816
374.00 0.282
374.10 0.2825
374.20 0.2829
374.30 0.2834
374.40 0.2838
374.50 0.2843
374.60 0.2848
374.70 0.2852
374.80 0.2857
374.90 0.2861
375.00 0.2866
375.10 0.287
375.20 0.2875
375.30 0.2879
375.40 0.2884
375.50 0.2888
375.60 0.2893
375.70 0.2897
375.80 0.2902
375.90 0.2906
376.00 0.2911
376.10 0.2915
376.20 0.292
376.30 0.2924
376.40 0.2929
376.50 0.2934
376.60 0.2938
376.70 0.2943
376.80 0.2947
376.90 0.2952
377.00 0.2956
377.10 0.2961
377.20 0.2966
377.30 0.297
377.40 0.2975
377.50 0.298
377.60 0.2984
377.70 0.2989
377.80 0.2993
377.90 0.2998
378.00 0.3002
378.10 0.3007
378.20 0.3012
378.30 0.3016
378.40 0.3021
378.50 0.3026
378.60 0.303
378.70 0.3035
378.80 0.304
378.90 0.3044
379.00 0.3049
379.10 0.3054
379.20 0.3058
379.30 0.3063
379.40 0.3068
379.50 0.3072
379.60 0.3077
379.70 0.3082
379.80 0.3086
379.90 0.3091
380.00 0.3096
380.10 0.31
380.20 0.3105
380.30 0.311
380.40 0.3114
380.50 0.3119
380.60 0.3124
380.70 0.3129
380.80 0.3133
380.90 0.3138
381.00 0.3143
381.10 0.3147
381.20 0.3152
381.30 0.3157
381.40 0.3162
381.50 0.3166
381.60 0.3171
381.70 0.3176
381.80 0.318
381.90 0.3185
382.00 0.319
382.10 0.3195
382.20 0.32
382.30 0.3204
382.40 0.3209
382.50 0.3214
382.60 0.3219
382.70 0.3223
382.80 0.3228
382.90 0.3233
383.00 0.3238
383.10 0.3243
383.20 0.3247
383.30 0.3252
383.40 0.3257
383.50 0.3262
383.60 0.3266
383.70 0.3271
383.80 0.3276
383.90 0.3281
384.00 0.3286
384.10 0.3291
384.20 0.3295
384.30 0.33
384.40 0.3305
384.50 0.331
384.60 0.3315
384.70 0.3319
384.80 0.3324
384.90 0.3329
385.00 0.3334
385.10 0.3339
385.20 0.3344
385.30 0.3349
385.40 0.3353
385.50 0.3358
385.60 0.3363
385.70 0.3368
385.80 0.3373
385.90 0.3378
386.00 0.3383
386.10 0.3388
386.20 0.3392
386.30 0.3397
386.40 0.3402
386.50 0.3407
386.60 0.3412
386.70 0.3417
386.80 0.3422
386.90 0.3427
387.00 0.3431
387.10 0.3436
387.20 0.3441
387.30 0.3446
387.40 0.3451
387.50 0.3456
387.60 0.3461
387.70 0.3466
387.80 0.3471
387.90 0.3476
388.00 0.3481
388.10 0.3486
388.20 0.3491
388.30 0.3496
388.40 0.35
388.50 0.3505
388.60 0.351
388.70 0.3515
388.80 0.352
388.90 0.3525
389.00 0.353
389.10 0.3535
389.20 0.354
389.30 0.3545
389.40 0.355
389.50 0.3555
389.60 0.356
389.70 0.3565
389.80 0.357
389.90 0.3575
390.00 0.358
390.10 0.3585
390.20 0.359
390.30 0.3595
390.40 0.36
390.50 0.3605
390.60 0.361
390.70 0.3615
390.80 0.362
390.90 0.3625
391.00 0.363
391.10 0.3635
391.20 0.364
391.30 0.3645
391.40 0.365
391.50 0.3655
391.60 0.366
391.70 0.3665
391.80 0.367
391.90 0.3675
392.00 0.368
392.10 0.3686
392.20 0.3691
392.30 0.3696
392.40 0.3701
392.50 0.3706
392.60 0.3711
392.70 0.3716
392.80 0.3721
392.90 0.3726
393.00 0.3731
393.10 0.3736
393.20 0.3741
393.30 0.3746
393.40 0.3751
393.50 0.3757
393.60 0.3762
393.70 0.3767
393.80 0.3772
393.90 0.3777
394.00 0.3782
394.10 0.3787
394.20 0.3792
394.30 0.3797
394.40 0.3802
394.50 0.3808
394.60 0.3813
394.70 0.3818
394.80 0.3823
394.90 0.3828
395.00 0.3833
395.10 0.3838
395.20 0.3844
395.30 0.3849
395.40 0.3854
395.50 0.3859
395.60 0.3864
395.70 0.3869
395.80 0.3874
395.90 0.388
396.00 0.3885
396.10 0.389
396.20 0.3895
396.30 0.39
396.40 0.3905
396.50 0.3911
396.60 0.3916
396.70 0.3921
396.80 0.3926
396.90 0.3931
397.00 0.3936
397.10 0.3942
397.20 0.3947
397.30 0.3952
397.40 0.3957
397.50 0.3962
397.60 0.3968
397.70 0.3973
397.80 0.3978
397.90 0.3983
398.00 0.3988
398.10 0.3994
398.20 0.3999
398.30 0.4004
398.40 0.4009
398.50 0.4015
398.60 0.402
398.70 0.4025
398.80 0.403
398.90 0.4035
399.00 0.4041
399.10 0.4046
399.20 0.4051
399.30 0.4056
399.40 0.4062
399.50 0.4067
399.60 0.4072
399.70 0.4077
399.80 0.4083
399.90 0.4088
400.00 0.4093
400.10 0.4099
400.20 0.4104
400.30 0.4109
400.40 0.4114
400.50 0.412
400.60 0.4125
400.70 0.413
400.80 0.4135
400.90 0.4141
401.00 0.4146
401.10 0.4151
401.20 0.4157
401.30 0.4162
401.40 0.4167
401.50 0.4172
401.60 0.4178
401.70 0.4183
401.80 0.4188
401.90 0.4194
402.00 0.4199
402.10 0.4204
402.20 0.421
402.30 0.4215
402.40 0.422
402.50 0.4226
402.60 0.4231
402.70 0.4236
402.80 0.4242
402.90 0.4247
403.00 0.4252
403.10 0.4258
403.20 0.4263
403.30 0.4268
403.40 0.4274
403.50 0.4279
403.60 0.4284
403.70 0.429
403.80 0.4295
403.90 0.43
404.00 0.4306
404.10 0.4311
404.20 0.4317
404.30 0.4322
404.40 0.4327
404.50 0.4333
404.60 0.4338
404.70 0.4343
404.80 0.4349
404.90 0.4354
405.00 0.436
405.10 0.4365
405.20 0.437
405.30 0.4376
405.40 0.4381
405.50 0.4387
405.60 0.4392
405.70 0.4397
405.80 0.4403
405.90 0.4408
406.00 0.4414
406.10 0.4419
406.20 0.4424
406.30 0.443
406.40 0.4435
406.50 0.4441
406.60 0.4446
406.70 0.4452
406.80 0.4457
406.90 0.4462
407.00 0.4468
407.10 0.4473
407.20 0.4479
407.30 0.4484
407.40 0.449
407.50 0.4495
407.60 0.45
407.70 0.4506
407.80 0.4511
407.90 0.4517
408.00 0.4522
408.10 0.4528
408.20 0.4533
408.30 0.4539
408.40 0.4544
408.50 0.455
408.60 0.4555
408.70 0.4561
408.80 0.4566
408.90 0.4571
409.00 0.4577
409.10 0.4582
409.20 0.4588
409.30 0.4593
409.40 0.4599
409.50 0.4604
409.60 0.461
409.70 0.4615
409.80 0.4621
409.90 0.4626
410.00 0.4632
410.10 0.4637
410.20 0.4643
410.30 0.4648
410.40 0.4654
410.50 0.4659
410.60 0.4665
410.70 0.467
410.80 0.4676
410.90 0.4681
411.00 0.4687
411.10 0.4692
411.20 0.4698
411.30 0.4704
411.40 0.4709
411.50 0.4715
411.60 0.472
411.70 0.4726
411.80 0.4731
411.90 0.4737
412.00 0.4742
412.10 0.4748
412.20 0.4753
412.30 0.4759
412.40 0.4764
412.50 0.477
412.60 0.4776
412.70 0.4781
412.80 0.4787
412.90 0.4792
413.00 0.4798
413.10 0.4803
413.20 0.4809
413.30 0.4815
413.40 0.482
413.50 0.4826
413.60 0.4831
413.70 0.4837
413.80 0.4842
413.90 0.4848
414.00 0.4854
414.10 0.4859
414.20 0.4865
414.30 0.487
414.40 0.4876
414.50 0.4881
414.60 0.4887
414.70 0.4893
414.80 0.4898
414.90 0.4904
415.00 0.4909
415.10 0.4915
415.20 0.4921
415.30 0.4926
415.40 0.4932
415.50 0.4938
415.60 0.4943
415.70 0.4949
415.80 0.4954
415.90 0.496
416.00 0.4966
416.10 0.4971
416.20 0.4977
416.30 0.4982
416.40 0.4988
416.50 0.4994
416.60 0.4999
416.70 0.5005
416.80 0.5011
416.90 0.5016
417.00 0.5022
417.10 0.5028
417.20 0.5033
417.30 0.5039
417.40 0.5045
417.50 0.505
417.60 0.5056
417.70 0.5061
417.80 0.5067
417.90 0.5073
418.00 0.5078
418.10 0.5084
418.20 0.509
418.30 0.5095
418.40 0.5101
418.50 0.5107
418.60 0.5112
418.70 0.5118
418.80 0.5124
418.90 0.5129
419.00 0.5135
419.10 0.5141
419.20 0.5146
419.30 0.5152
419.40 0.5158
419.50 0.5164
419.60 0.5169
419.70 0.5175
419.80 0.5181
419.90 0.5186
420.00 0.5192
420.10 0.5198
420.20 0.5203
420.30 0.5209
420.40 0.5215
420.50 0.5221
420.60 0.5226
420.70 0.5232
420.80 0.5238
420.90 0.5243
421.00 0.5249
421.10 0.5255
421.20 0.5261
421.30 0.5266
421.40 0.5272
421.50 0.5278
421.60 0.5283
421.70 0.5289
421.80 0.5295
421.90 0.5301
422.00 0.5306
422.10 0.5312
422.20 0.5318
422.30 0.5324
422.40 0.5329
422.50 0.5335
422.60 0.5341
422.70 0.5347
422.80 0.5352
422.90 0.5358
423.00 0.5364
423.10 0.5369
423.20 0.5375
423.30 0.5381
423.40 0.5387
423.50 0.5392
423.60 0.5398
423.70 0.5404
423.80 0.541
423.90 0.5416
424.00 0.5421
424.10 0.5427
424.20 0.5433
424.30 0.5439
424.40 0.5444
424.50 0.545
424.60 0.5456
424.70 0.5462
424.80 0.5467
424.90 0.5473
425.00 0.5479
425.10 0.5485
425.20 0.5491
425.30 0.5496
425.40 0.5502
425.50 0.5508
425.60 0.5514
425.70 0.552
425.80 0.5525
425.90 0.5531
426.00 0.5537
426.10 0.5543
426.20 0.5549
426.30 0.5554
426.40 0.556
426.50 0.5566
426.60 0.5572
426.70 0.5578
426.80 0.5583
426.90 0.5589
427.00 0.5595
427.10 0.5601
427.20 0.5607
427.30 0.5612
427.40 0.5618
427.50 0.5624
427.60 0.563
427.70 0.5635
427.80 0.5641
427.90 0.5647
428.00 0.5653
428.10 0.5659
428.20 0.5665
428.30 0.5671
428.40 0.5676
428.50 0.5682
428.60 0.5688
428.70 0.5694
428.80 0.57
428.90 0.5706
429.00 0.5712
429.10 0.5717
429.20 0.5723
429.30 0.5729
429.40 0.5735
429.50 0.5741
429.60 0.5747
429.70 0.5753
429.80 0.5758
429.90 0.5764
430.00 0.577
430.10 0.5776
430.20 0.5782
430.30 0.5788
430.40 0.5794
430.50 0.5799
430.60 0.5805
430.70 0.5811
430.80 0.5817
430.90 0.5823
431.00 0.5828
431.10 0.5834
431.20 0.584
431.30 0.5846
431.40 0.5852
431.50 0.5858
431.60 0.5864
431.70 0.587
431.80 0.5876
431.90 0.5882
432.00 0.5887
432.10 0.5893
432.20 0.5899
432.30 0.5905
432.40 0.5911
432.50 0.5917
432.60 0.5923
432.70 0.5929
432.80 0.5935
432.90 0.594
433.00 0.5946
433.10 0.5952
433.20 0.5958
433.30 0.5964
433.40 0.597
433.50 0.5976
433.60 0.5982
433.70 0.5987
433.80 0.5993
433.90 0.5999
434.00 0.6005
434.10 0.6011
434.20 0.6017
434.30 0.6023
434.40 0.6029
434.50 0.6035
434.60 0.6041
434.70 0.6046
434.80 0.6052
434.90 0.6058
435.00 0.6064
435.10 0.607
435.20 0.6076
435.30 0.6082
435.40 0.6088
435.50 0.6094
435.60 0.61
435.70 0.6106
435.80 0.6112
435.90 0.6118
436.00 0.6124
436.10 0.613
436.20 0.6136
436.30 0.6141
436.40 0.6147
436.50 0.6153
436.60 0.6159
436.70 0.6165
436.80 0.6171
436.90 0.6177
437.00 0.6183
437.10 0.6189
437.20 0.6195
437.30 0.6201
437.40 0.6207
437.50 0.6213
437.60 0.6219
437.70 0.6225
437.80 0.6231
437.90 0.6237
438.00 0.6243
438.10 0.6248
438.20 0.6255
438.30 0.626
438.40 0.6266
438.50 0.6272
438.60 0.6278
438.70 0.6284
438.80 0.629
438.90 0.6296
439.00 0.6302
439.10 0.6308
439.20 0.6314
439.30 0.632
439.40 0.6326
439.50 0.6332
439.60 0.6338
439.70 0.6344
439.80 0.635
439.90 0.6356
440.00 0.6362
440.10 0.6368
440.20 0.6374
440.30 0.638
440.40 0.6385
440.50 0.6391
440.60 0.6398
440.70 0.6404
440.80 0.641
440.90 0.6416
441.00 0.6422
441.10 0.6428
441.20 0.6433
441.30 0.6439
441.40 0.6445
