# Version 2.1 - nm, norm@500 to 1, cut digits, bergeron_2500_70.dat_2500
# Wavelength(nm)  Flambda(ergs/cm^s/s/nm)
300.00 0.04089
300.10 0.04102
300.20 0.04117
300.30 0.04131
300.40 0.04145
300.50 0.04159
300.60 0.04174
300.70 0.04188
300.80 0.04202
300.90 0.04216
301.00 0.0423
301.10 0.04244
301.20 0.04258
301.30 0.04273
301.40 0.04287
301.50 0.04301
301.60 0.04315
301.70 0.04329
301.80 0.04343
301.90 0.04357
302.00 0.04371
302.10 0.04386
302.20 0.04401
302.30 0.04416
302.40 0.04431
302.50 0.04446
302.60 0.0446
302.70 0.04475
302.80 0.0449
302.90 0.04505
303.00 0.0452
303.10 0.04535
303.20 0.04549
303.30 0.04564
303.40 0.04579
303.50 0.04594
303.60 0.04608
303.70 0.04623
303.80 0.04638
303.90 0.04652
304.00 0.04667
304.10 0.04683
304.20 0.04699
304.30 0.04714
304.40 0.0473
304.50 0.04745
304.60 0.04761
304.70 0.04777
304.80 0.04792
304.90 0.04808
305.00 0.04823
305.10 0.04839
305.20 0.04854
305.30 0.0487
305.40 0.04885
305.50 0.04901
305.60 0.04916
305.70 0.04931
305.80 0.04947
305.90 0.04962
306.00 0.04978
306.10 0.04994
306.20 0.0501
306.30 0.05027
306.40 0.05043
306.50 0.05059
306.60 0.05076
306.70 0.05092
306.80 0.05108
306.90 0.05124
307.00 0.05141
307.10 0.05157
307.20 0.05173
307.30 0.05189
307.40 0.05205
307.50 0.05221
307.60 0.05238
307.70 0.05254
307.80 0.0527
307.90 0.05286
308.00 0.05303
308.10 0.05319
308.20 0.05336
308.30 0.05353
308.40 0.0537
308.50 0.05387
308.60 0.05404
308.70 0.05421
308.80 0.05438
308.90 0.05455
309.00 0.05472
309.10 0.05489
309.20 0.05506
309.30 0.05523
309.40 0.0554
309.50 0.05557
309.60 0.05574
309.70 0.05591
309.80 0.05607
309.90 0.05624
310.00 0.05642
310.10 0.05659
310.20 0.05677
310.30 0.05695
310.40 0.05712
310.50 0.0573
310.60 0.05748
310.70 0.05766
310.80 0.05784
310.90 0.05802
311.00 0.05819
311.10 0.05837
311.20 0.05855
311.30 0.05872
311.40 0.0589
311.50 0.05908
311.60 0.05925
311.70 0.05943
311.80 0.0596
311.90 0.05978
312.00 0.05996
312.10 0.06013
312.20 0.06031
312.30 0.06049
312.40 0.06068
312.50 0.06086
312.60 0.06105
312.70 0.06124
312.80 0.06142
312.90 0.06161
313.00 0.06179
313.10 0.06198
313.20 0.06216
313.30 0.06235
313.40 0.06253
313.50 0.06271
313.60 0.0629
313.70 0.06308
313.80 0.06326
313.90 0.06345
314.00 0.06364
314.10 0.06383
314.20 0.06402
314.30 0.06421
314.40 0.06441
314.50 0.0646
314.60 0.06479
314.70 0.06498
314.80 0.06518
314.90 0.06537
315.00 0.06556
315.10 0.06575
315.20 0.06594
315.30 0.06614
315.40 0.06633
315.50 0.06652
315.60 0.06671
315.70 0.0669
315.80 0.06709
315.90 0.06728
316.00 0.06748
316.10 0.06767
316.20 0.06787
316.30 0.06807
316.40 0.06827
316.50 0.06848
316.60 0.06868
316.70 0.06888
316.80 0.06908
316.90 0.06928
317.00 0.06948
317.10 0.06968
317.20 0.06988
317.30 0.07007
317.40 0.07027
317.50 0.07047
317.60 0.07067
317.70 0.07087
317.80 0.07106
317.90 0.07127
318.00 0.07147
318.10 0.07167
318.20 0.07188
318.30 0.07209
318.40 0.0723
318.50 0.07251
318.60 0.07272
318.70 0.07292
318.80 0.07313
318.90 0.07334
319.00 0.07355
319.10 0.07375
319.20 0.07396
319.30 0.07417
319.40 0.07437
319.50 0.07458
319.60 0.07479
319.70 0.07499
319.80 0.0752
319.90 0.0754
320.00 0.07562
320.10 0.07583
320.20 0.07604
320.30 0.07626
320.40 0.07648
320.50 0.0767
320.60 0.07691
320.70 0.07713
320.80 0.07734
320.90 0.07756
321.00 0.07777
321.10 0.07799
321.20 0.0782
321.30 0.07842
321.40 0.07863
321.50 0.07885
321.60 0.07906
321.70 0.07927
321.80 0.07949
321.90 0.0797
322.00 0.07992
322.10 0.08014
322.20 0.08037
322.30 0.08059
322.40 0.08082
322.50 0.08104
322.60 0.08127
322.70 0.08149
322.80 0.08171
322.90 0.08194
323.00 0.08216
323.10 0.08238
323.20 0.08261
323.30 0.08283
323.40 0.08305
323.50 0.08327
323.60 0.0835
323.70 0.08372
323.80 0.08394
323.90 0.08416
324.00 0.08438
324.10 0.08461
324.20 0.08485
324.30 0.08508
324.40 0.08532
324.50 0.08555
324.60 0.08578
324.70 0.08601
324.80 0.08625
324.90 0.08648
325.00 0.08671
325.10 0.08694
325.20 0.08717
325.30 0.0874
325.40 0.08763
325.50 0.08786
325.60 0.08809
325.70 0.08832
325.80 0.08855
325.90 0.08878
326.00 0.08902
326.10 0.08925
326.20 0.08949
326.30 0.08973
326.40 0.08998
326.50 0.09022
326.60 0.09046
326.70 0.0907
326.80 0.09094
326.90 0.09118
327.00 0.09142
327.10 0.09166
327.20 0.0919
327.30 0.09214
327.40 0.09237
327.50 0.09261
327.60 0.09285
327.70 0.09309
327.80 0.09332
327.90 0.09356
328.00 0.09381
328.10 0.09405
328.20 0.0943
328.30 0.09455
328.40 0.0948
328.50 0.09505
328.60 0.0953
328.70 0.09555
328.80 0.0958
328.90 0.09604
329.00 0.09629
329.10 0.09654
329.20 0.09679
329.30 0.09703
329.40 0.09728
329.50 0.09753
329.60 0.09777
329.70 0.09802
329.80 0.09826
329.90 0.09851
330.00 0.09875
330.10 0.09901
330.20 0.09927
330.30 0.09953
330.40 0.09979
330.50 0.1
330.60 0.1003
330.70 0.1006
330.80 0.1008
330.90 0.1011
331.00 0.1013
331.10 0.1016
331.20 0.1018
331.30 0.1021
331.40 0.1024
331.50 0.1026
331.60 0.1029
331.70 0.1031
331.80 0.1034
331.90 0.1036
332.00 0.1039
332.10 0.1041
332.20 0.1044
332.30 0.1047
332.40 0.1049
332.50 0.1052
332.60 0.1055
332.70 0.1057
332.80 0.106
332.90 0.1063
333.00 0.1065
333.10 0.1068
333.20 0.1071
333.30 0.1073
333.40 0.1076
333.50 0.1079
333.60 0.1081
333.70 0.1084
333.80 0.1086
333.90 0.1089
334.00 0.1092
334.10 0.1094
334.20 0.1097
334.30 0.11
334.40 0.1103
334.50 0.1105
334.60 0.1108
334.70 0.1111
334.80 0.1114
334.90 0.1116
335.00 0.1119
335.10 0.1122
335.20 0.1125
335.30 0.1127
335.40 0.113
335.50 0.1133
335.60 0.1135
335.70 0.1138
335.80 0.1141
335.90 0.1143
336.00 0.1146
336.10 0.1149
336.20 0.1152
336.30 0.1155
336.40 0.1158
336.50 0.116
336.60 0.1163
336.70 0.1166
336.80 0.1169
336.90 0.1172
337.00 0.1174
337.10 0.1177
337.20 0.118
337.30 0.1183
337.40 0.1186
337.50 0.1188
337.60 0.1191
337.70 0.1194
337.80 0.1197
337.90 0.12
338.00 0.1202
338.10 0.1205
338.20 0.1208
338.30 0.1211
338.40 0.1214
338.50 0.1217
338.60 0.122
338.70 0.1223
338.80 0.1226
338.90 0.1229
339.00 0.1232
339.10 0.1234
339.20 0.1237
339.30 0.124
339.40 0.1243
339.50 0.1246
339.60 0.1249
339.70 0.1252
339.80 0.1255
339.90 0.1257
340.00 0.126
340.10 0.1263
340.20 0.1266
340.30 0.1269
340.40 0.1272
340.50 0.1275
340.60 0.1278
340.70 0.1281
340.80 0.1284
340.90 0.1287
341.00 0.129
341.10 0.1293
341.20 0.1296
341.30 0.1299
341.40 0.1302
341.50 0.1305
341.60 0.1308
341.70 0.1311
341.80 0.1314
341.90 0.1317
342.00 0.132
342.10 0.1323
342.20 0.1326
342.30 0.1329
342.40 0.1332
342.50 0.1335
342.60 0.1339
342.70 0.1342
342.80 0.1345
342.90 0.1348
343.00 0.1351
343.10 0.1354
343.20 0.1357
343.30 0.136
343.40 0.1363
343.50 0.1366
343.60 0.1369
343.70 0.1372
343.80 0.1375
343.90 0.1378
344.00 0.1381
344.10 0.1384
344.20 0.1388
344.30 0.1391
344.40 0.1394
344.50 0.1397
344.60 0.14
344.70 0.1403
344.80 0.1407
344.90 0.141
345.00 0.1413
345.10 0.1416
345.20 0.1419
345.30 0.1422
345.40 0.1426
345.50 0.1429
345.60 0.1432
345.70 0.1435
345.80 0.1438
345.90 0.1441
346.00 0.1444
346.10 0.1448
346.20 0.1451
346.30 0.1454
346.40 0.1457
346.50 0.1461
346.60 0.1464
346.70 0.1467
346.80 0.147
346.90 0.1474
347.00 0.1477
347.10 0.148
347.20 0.1483
347.30 0.1487
347.40 0.149
347.50 0.1493
347.60 0.1496
347.70 0.1499
347.80 0.1503
347.90 0.1506
348.00 0.1509
348.10 0.1512
348.20 0.1516
348.30 0.1519
348.40 0.1522
348.50 0.1526
348.60 0.1529
348.70 0.1532
348.80 0.1536
348.90 0.1539
349.00 0.1542
349.10 0.1546
349.20 0.1549
349.30 0.1552
349.40 0.1556
349.50 0.1559
349.60 0.1562
349.70 0.1566
349.80 0.1569
349.90 0.1572
350.00 0.1575
350.10 0.1579
350.20 0.1582
350.30 0.1586
350.40 0.1589
350.50 0.1593
350.60 0.1596
350.70 0.1599
350.80 0.1603
350.90 0.1606
351.00 0.161
351.10 0.1613
351.20 0.1616
351.30 0.162
351.40 0.1623
351.50 0.1627
351.60 0.163
351.70 0.1633
351.80 0.1637
351.90 0.164
352.00 0.1644
352.10 0.1647
352.20 0.1651
352.30 0.1654
352.40 0.1658
352.50 0.1661
352.60 0.1665
352.70 0.1668
352.80 0.1672
352.90 0.1675
353.00 0.1679
353.10 0.1682
353.20 0.1686
353.30 0.1689
353.40 0.1693
353.50 0.1696
353.60 0.17
353.70 0.1703
353.80 0.1706
353.90 0.171
354.00 0.1713
354.10 0.1717
354.20 0.1721
354.30 0.1724
354.40 0.1728
354.50 0.1731
354.60 0.1735
354.70 0.1739
354.80 0.1742
354.90 0.1746
355.00 0.1749
355.10 0.1753
355.20 0.1757
355.30 0.176
355.40 0.1764
355.50 0.1767
355.60 0.1771
355.70 0.1774
355.80 0.1778
355.90 0.1781
356.00 0.1785
356.10 0.1789
356.20 0.1792
356.30 0.1796
356.40 0.18
356.50 0.1803
356.60 0.1807
356.70 0.1811
356.80 0.1814
356.90 0.1818
357.00 0.1822
357.10 0.1825
357.20 0.1829
357.30 0.1833
357.40 0.1836
357.50 0.184
357.60 0.1844
357.70 0.1847
357.80 0.1851
357.90 0.1854
358.00 0.1858
358.10 0.1862
358.20 0.1866
358.30 0.1869
358.40 0.1873
358.50 0.1877
358.60 0.1881
358.70 0.1884
358.80 0.1888
358.90 0.1892
359.00 0.1896
359.10 0.1899
359.20 0.1903
359.30 0.1907
359.40 0.1911
359.50 0.1914
359.60 0.1918
359.70 0.1922
359.80 0.1926
359.90 0.1929
360.00 0.1933
360.10 0.1937
360.20 0.1941
360.30 0.1945
360.40 0.1948
360.50 0.1952
360.60 0.1956
360.70 0.196
360.80 0.1964
360.90 0.1968
361.00 0.1971
361.10 0.1975
361.20 0.1979
361.30 0.1983
361.40 0.1987
361.50 0.1991
361.60 0.1994
361.70 0.1998
361.80 0.2002
361.90 0.2006
362.00 0.2009
362.10 0.2013
362.20 0.2017
362.30 0.2021
362.40 0.2025
362.50 0.2029
362.60 0.2033
362.70 0.2037
362.80 0.2041
362.90 0.2045
363.00 0.2048
363.10 0.2052
363.20 0.2056
363.30 0.206
363.40 0.2064
363.50 0.2068
363.60 0.2072
363.70 0.2076
363.80 0.208
363.90 0.2084
364.00 0.2088
364.10 0.2092
364.20 0.2096
364.30 0.21
364.40 0.2104
364.50 0.2107
364.60 0.2111
364.70 0.2116
364.80 0.212
364.90 0.2124
365.00 0.2128
365.10 0.2132
365.20 0.2136
365.30 0.214
365.40 0.2144
365.50 0.2148
365.60 0.2152
365.70 0.2156
365.80 0.216
365.90 0.2164
366.00 0.2168
366.10 0.2172
366.20 0.2176
366.30 0.218
366.40 0.2184
366.50 0.2188
366.60 0.2192
366.70 0.2196
366.80 0.22
366.90 0.2204
367.00 0.2208
367.10 0.2213
367.20 0.2217
367.30 0.2221
367.40 0.2225
367.50 0.2229
367.60 0.2233
367.70 0.2237
367.80 0.2241
367.90 0.2245
368.00 0.2249
368.10 0.2253
368.20 0.2257
368.30 0.2262
368.40 0.2266
368.50 0.227
368.60 0.2274
368.70 0.2278
368.80 0.2282
368.90 0.2287
369.00 0.2291
369.10 0.2295
369.20 0.2299
369.30 0.2303
369.40 0.2307
369.50 0.2311
369.60 0.2316
369.70 0.232
369.80 0.2324
369.90 0.2328
370.00 0.2332
370.10 0.2336
370.20 0.2341
370.30 0.2345
370.40 0.2349
370.50 0.2353
370.60 0.2358
370.70 0.2362
370.80 0.2366
370.90 0.237
371.00 0.2375
371.10 0.2379
371.20 0.2383
371.30 0.2387
371.40 0.2392
371.50 0.2396
371.60 0.24
371.70 0.2404
371.80 0.2408
371.90 0.2413
372.00 0.2417
372.10 0.2421
372.20 0.2425
372.30 0.243
372.40 0.2434
372.50 0.2439
372.60 0.2443
372.70 0.2447
372.80 0.2452
372.90 0.2456
373.00 0.246
373.10 0.2465
373.20 0.2469
373.30 0.2473
373.40 0.2477
373.50 0.2482
373.60 0.2486
373.70 0.249
373.80 0.2495
373.90 0.2499
374.00 0.2503
374.10 0.2508
374.20 0.2512
374.30 0.2516
374.40 0.2521
374.50 0.2525
374.60 0.253
374.70 0.2534
374.80 0.2539
374.90 0.2543
375.00 0.2547
375.10 0.2552
375.20 0.2556
375.30 0.256
375.40 0.2565
375.50 0.2569
375.60 0.2574
375.70 0.2578
375.80 0.2582
375.90 0.2587
376.00 0.2591
376.10 0.2595
376.20 0.26
376.30 0.2604
376.40 0.2609
376.50 0.2613
376.60 0.2618
376.70 0.2622
376.80 0.2627
376.90 0.2631
377.00 0.2635
377.10 0.264
377.20 0.2644
377.30 0.2649
377.40 0.2654
377.50 0.2658
377.60 0.2662
377.70 0.2667
377.80 0.2671
377.90 0.2676
378.00 0.268
378.10 0.2685
378.20 0.2689
378.30 0.2694
378.40 0.2699
378.50 0.2703
378.60 0.2708
378.70 0.2712
378.80 0.2717
378.90 0.2721
379.00 0.2726
379.10 0.273
379.20 0.2735
379.30 0.2739
379.40 0.2744
379.50 0.2749
379.60 0.2753
379.70 0.2758
379.80 0.2762
379.90 0.2767
380.00 0.2771
380.10 0.2776
380.20 0.2781
380.30 0.2785
380.40 0.279
380.50 0.2794
380.60 0.2799
380.70 0.2804
380.80 0.2808
380.90 0.2813
381.00 0.2817
381.10 0.2822
381.20 0.2827
381.30 0.2831
381.40 0.2836
381.50 0.2841
381.60 0.2845
381.70 0.285
381.80 0.2854
381.90 0.2859
382.00 0.2864
382.10 0.2868
382.20 0.2873
382.30 0.2878
382.40 0.2883
382.50 0.2887
382.60 0.2892
382.70 0.2897
382.80 0.2901
382.90 0.2906
383.00 0.2911
383.10 0.2915
383.20 0.292
383.30 0.2925
383.40 0.2929
383.50 0.2934
383.60 0.2939
383.70 0.2944
383.80 0.2948
383.90 0.2953
384.00 0.2958
384.10 0.2962
384.20 0.2967
384.30 0.2972
384.40 0.2977
384.50 0.2982
384.60 0.2986
384.70 0.2991
384.80 0.2996
384.90 0.3001
385.00 0.3005
385.10 0.301
385.20 0.3015
385.30 0.302
385.40 0.3024
385.50 0.3029
385.60 0.3034
385.70 0.3039
385.80 0.3044
385.90 0.3048
386.00 0.3053
386.10 0.3058
386.20 0.3063
386.30 0.3068
386.40 0.3072
386.50 0.3077
386.60 0.3082
386.70 0.3087
386.80 0.3092
386.90 0.3097
387.00 0.3101
387.10 0.3106
387.20 0.3111
387.30 0.3116
387.40 0.3121
387.50 0.3126
387.60 0.3131
387.70 0.3135
387.80 0.314
387.90 0.3145
388.00 0.315
388.10 0.3155
388.20 0.316
388.30 0.3165
388.40 0.317
388.50 0.3175
388.60 0.3179
388.70 0.3184
388.80 0.3189
388.90 0.3194
389.00 0.3199
389.10 0.3204
389.20 0.3209
389.30 0.3214
389.40 0.3219
389.50 0.3224
389.60 0.3229
389.70 0.3234
389.80 0.3239
389.90 0.3243
390.00 0.3248
390.10 0.3253
390.20 0.3258
390.30 0.3263
390.40 0.3268
390.50 0.3273
390.60 0.3278
390.70 0.3283
390.80 0.3288
390.90 0.3293
391.00 0.3298
391.10 0.3303
391.20 0.3308
391.30 0.3313
391.40 0.3318
391.50 0.3323
391.60 0.3328
391.70 0.3333
391.80 0.3338
391.90 0.3343
392.00 0.3348
392.10 0.3353
392.20 0.3358
392.30 0.3363
392.40 0.3368
392.50 0.3373
392.60 0.3378
392.70 0.3383
392.80 0.3388
392.90 0.3393
393.00 0.3399
393.10 0.3404
393.20 0.3409
393.30 0.3414
393.40 0.3419
393.50 0.3424
393.60 0.3429
393.70 0.3434
393.80 0.3439
393.90 0.3444
394.00 0.3449
394.10 0.3454
394.20 0.3459
394.30 0.3465
394.40 0.347
394.50 0.3475
394.60 0.348
394.70 0.3485
394.80 0.349
394.90 0.3495
395.00 0.35
395.10 0.3505
395.20 0.3511
395.30 0.3516
395.40 0.3521
395.50 0.3526
395.60 0.3531
395.70 0.3536
395.80 0.3541
395.90 0.3547
396.00 0.3552
396.10 0.3557
396.20 0.3562
396.30 0.3567
396.40 0.3572
396.50 0.3577
396.60 0.3583
396.70 0.3588
396.80 0.3593
396.90 0.3598
397.00 0.3603
397.10 0.3609
397.20 0.3614
397.30 0.3619
397.40 0.3624
397.50 0.3629
397.60 0.3635
397.70 0.364
397.80 0.3645
397.90 0.365
398.00 0.3655
398.10 0.3661
398.20 0.3666
398.30 0.3671
398.40 0.3676
398.50 0.3682
398.60 0.3687
398.70 0.3692
398.80 0.3697
398.90 0.3703
399.00 0.3708
399.10 0.3713
399.20 0.3718
399.30 0.3724
399.40 0.3729
399.50 0.3734
399.60 0.3739
399.70 0.3745
399.80 0.375
399.90 0.3755
400.00 0.3761
400.10 0.3766
400.20 0.3771
400.30 0.3776
400.40 0.3782
400.50 0.3787
400.60 0.3792
400.70 0.3798
400.80 0.3803
400.90 0.3808
401.00 0.3814
401.10 0.3819
401.20 0.3824
401.30 0.383
401.40 0.3835
401.50 0.384
401.60 0.3846
401.70 0.3851
401.80 0.3856
401.90 0.3862
402.00 0.3867
402.10 0.3872
402.20 0.3878
402.30 0.3883
402.40 0.3888
402.50 0.3894
402.60 0.3899
402.70 0.3904
402.80 0.391
402.90 0.3915
403.00 0.3921
403.10 0.3926
403.20 0.3931
403.30 0.3937
403.40 0.3942
403.50 0.3947
403.60 0.3953
403.70 0.3958
403.80 0.3964
403.90 0.3969
404.00 0.3975
404.10 0.398
404.20 0.3985
404.30 0.3991
404.40 0.3996
404.50 0.4002
404.60 0.4007
404.70 0.4012
404.80 0.4018
404.90 0.4023
405.00 0.4029
405.10 0.4034
405.20 0.404
405.30 0.4045
405.40 0.405
405.50 0.4056
405.60 0.4061
405.70 0.4067
405.80 0.4072
405.90 0.4078
406.00 0.4083
406.10 0.4089
406.20 0.4094
406.30 0.41
406.40 0.4105
406.50 0.4111
406.60 0.4116
406.70 0.4122
406.80 0.4127
406.90 0.4133
407.00 0.4138
407.10 0.4144
407.20 0.4149
407.30 0.4155
407.40 0.416
407.50 0.4166
407.60 0.4171
407.70 0.4177
407.80 0.4182
407.90 0.4188
408.00 0.4193
408.10 0.4199
408.20 0.4204
408.30 0.421
408.40 0.4215
408.50 0.4221
408.60 0.4227
408.70 0.4232
408.80 0.4238
408.90 0.4243
409.00 0.4249
409.10 0.4254
409.20 0.426
409.30 0.4265
409.40 0.4271
409.50 0.4277
409.60 0.4282
409.70 0.4288
409.80 0.4293
409.90 0.4299
410.00 0.4304
410.10 0.431
410.20 0.4316
410.30 0.4321
410.40 0.4327
410.50 0.4332
410.60 0.4338
410.70 0.4344
410.80 0.4349
410.90 0.4355
411.00 0.436
411.10 0.4366
411.20 0.4372
411.30 0.4377
411.40 0.4383
411.50 0.4389
411.60 0.4394
411.70 0.44
411.80 0.4405
411.90 0.4411
412.00 0.4417
412.10 0.4422
412.20 0.4428
412.30 0.4434
412.40 0.4439
412.50 0.4445
412.60 0.4451
412.70 0.4456
412.80 0.4462
412.90 0.4468
413.00 0.4473
413.10 0.4479
413.20 0.4485
413.30 0.449
413.40 0.4496
413.50 0.4502
413.60 0.4507
413.70 0.4513
413.80 0.4519
413.90 0.4524
414.00 0.453
414.10 0.4536
414.20 0.4541
414.30 0.4547
414.40 0.4553
414.50 0.4559
414.60 0.4564
414.70 0.457
414.80 0.4576
414.90 0.4581
415.00 0.4587
415.10 0.4593
415.20 0.4599
415.30 0.4604
415.40 0.461
415.50 0.4616
415.60 0.4622
415.70 0.4627
415.80 0.4633
415.90 0.4639
416.00 0.4645
416.10 0.465
416.20 0.4656
416.30 0.4662
416.40 0.4668
416.50 0.4673
416.60 0.4679
416.70 0.4685
416.80 0.4691
416.90 0.4696
417.00 0.4702
417.10 0.4708
417.20 0.4714
417.30 0.472
417.40 0.4725
417.50 0.4731
417.60 0.4737
417.70 0.4743
417.80 0.4749
417.90 0.4754
418.00 0.476
418.10 0.4766
418.20 0.4772
418.30 0.4778
418.40 0.4783
418.50 0.4789
418.60 0.4795
418.70 0.4801
418.80 0.4807
418.90 0.4812
419.00 0.4818
419.10 0.4824
419.20 0.483
419.30 0.4836
419.40 0.4842
419.50 0.4847
419.60 0.4853
419.70 0.4859
419.80 0.4865
419.90 0.4871
420.00 0.4877
420.10 0.4882
420.20 0.4888
420.30 0.4894
420.40 0.49
420.50 0.4906
420.60 0.4912
420.70 0.4918
420.80 0.4923
420.90 0.4929
421.00 0.4935
421.10 0.4941
421.20 0.4947
421.30 0.4953
421.40 0.4959
421.50 0.4965
421.60 0.497
421.70 0.4976
421.80 0.4982
421.90 0.4988
422.00 0.4994
422.10 0.5
422.20 0.5006
422.30 0.5012
422.40 0.5018
422.50 0.5024
422.60 0.5029
422.70 0.5035
422.80 0.5041
422.90 0.5047
423.00 0.5053
423.10 0.5059
423.20 0.5065
423.30 0.5071
423.40 0.5077
423.50 0.5083
423.60 0.5089
423.70 0.5095
423.80 0.5101
423.90 0.5107
424.00 0.5112
424.10 0.5118
424.20 0.5124
424.30 0.513
424.40 0.5136
424.50 0.5142
424.60 0.5148
424.70 0.5154
424.80 0.516
424.90 0.5166
425.00 0.5172
425.10 0.5178
425.20 0.5184
425.30 0.519
425.40 0.5196
425.50 0.5202
425.60 0.5208
425.70 0.5214
425.80 0.522
425.90 0.5226
426.00 0.5232
426.10 0.5238
426.20 0.5244
426.30 0.525
426.40 0.5256
426.50 0.5262
426.60 0.5268
426.70 0.5274
426.80 0.528
426.90 0.5286
427.00 0.5292
427.10 0.5298
427.20 0.5304
427.30 0.531
427.40 0.5316
427.50 0.5322
427.60 0.5328
427.70 0.5334
427.80 0.534
427.90 0.5346
428.00 0.5352
428.10 0.5358
428.20 0.5364
428.30 0.537
428.40 0.5376
428.50 0.5382
428.60 0.5388
428.70 0.5394
428.80 0.54
428.90 0.5406
429.00 0.5412
429.10 0.5419
429.20 0.5425
429.30 0.5431
429.40 0.5437
429.50 0.5443
429.60 0.5449
429.70 0.5455
429.80 0.5461
429.90 0.5467
430.00 0.5473
430.10 0.5479
430.20 0.5485
430.30 0.5491
430.40 0.5497
430.50 0.5503
430.60 0.551
430.70 0.5516
430.80 0.5522
430.90 0.5528
431.00 0.5534
431.10 0.554
431.20 0.5546
431.30 0.5552
431.40 0.5558
431.50 0.5564
431.60 0.5571
431.70 0.5577
431.80 0.5583
431.90 0.5589
432.00 0.5595
432.10 0.5601
432.20 0.5607
432.30 0.5613
432.40 0.5619
432.50 0.5626
432.60 0.5632
432.70 0.5638
432.80 0.5644
432.90 0.565
433.00 0.5656
433.10 0.5662
433.20 0.5668
433.30 0.5675
433.40 0.5681
433.50 0.5687
433.60 0.5693
433.70 0.5699
433.80 0.5705
433.90 0.5711
434.00 0.5718
434.10 0.5724
434.20 0.573
434.30 0.5736
434.40 0.5742
434.50 0.5748
434.60 0.5755
434.70 0.5761
434.80 0.5767
434.90 0.5773
435.00 0.5779
435.10 0.5785
435.20 0.5792
435.30 0.5798
435.40 0.5804
435.50 0.581
435.60 0.5816
435.70 0.5822
435.80 0.5829
435.90 0.5835
436.00 0.5841
436.10 0.5847
436.20 0.5853
436.30 0.586
436.40 0.5866
436.50 0.5872
436.60 0.5878
436.70 0.5884
436.80 0.5891
436.90 0.5897
437.00 0.5903
437.10 0.5909
437.20 0.5915
437.30 0.5922
437.40 0.5928
437.50 0.5934
437.60 0.594
437.70 0.5947
437.80 0.5953
437.90 0.5959
438.00 0.5965
438.10 0.5971
438.20 0.5978
438.30 0.5984
438.40 0.599
438.50 0.5996
438.60 0.6003
438.70 0.6009
438.80 0.6015
438.90 0.6021
439.00 0.6027
439.10 0.6034
439.20 0.604
439.30 0.6046
439.40 0.6052
439.50 0.6059
439.60 0.6065
439.70 0.6071
439.80 0.6077
439.90 0.6084
440.00 0.609
440.10 0.6096
440.20 0.6103
440.30 0.6109
440.40 0.6115
440.50 0.6121
440.60 0.6128
440.70 0.6134
440.80 0.614
