# Version 2.1 - nm, norm@500 to 1, cut digits, bergeron_130000_85.dat_130000
# Wavelength(nm)  Flambda(ergs/cm^s/s/nm)
300.00 7.013
300.10 7.004
300.20 6.995
300.30 6.986
300.40 6.977
300.50 6.968
300.60 6.959
300.70 6.951
300.80 6.942
300.90 6.933
301.00 6.924
301.10 6.916
301.20 6.907
301.30 6.898
301.40 6.889
301.50 6.881
301.60 6.872
301.70 6.863
301.80 6.855
301.90 6.846
302.00 6.837
302.10 6.829
302.20 6.82
302.30 6.811
302.40 6.803
302.50 6.794
302.60 6.786
302.70 6.777
302.80 6.769
302.90 6.76
303.00 6.752
303.10 6.743
303.20 6.735
303.30 6.726
303.40 6.718
303.50 6.709
303.60 6.701
303.70 6.692
303.80 6.684
303.90 6.676
304.00 6.667
304.10 6.659
304.20 6.651
304.30 6.642
304.40 6.634
304.50 6.626
304.60 6.617
304.70 6.609
304.80 6.601
304.90 6.593
305.00 6.584
305.10 6.576
305.20 6.568
305.30 6.56
305.40 6.551
305.50 6.543
305.60 6.535
305.70 6.527
305.80 6.519
305.90 6.511
306.00 6.503
306.10 6.494
306.20 6.486
306.30 6.478
306.40 6.47
306.50 6.462
306.60 6.454
306.70 6.446
306.80 6.438
306.90 6.43
307.00 6.422
307.10 6.414
307.20 6.406
307.30 6.398
307.40 6.39
307.50 6.382
307.60 6.374
307.70 6.367
307.80 6.359
307.90 6.351
308.00 6.343
308.10 6.335
308.20 6.327
308.30 6.319
308.40 6.312
308.50 6.304
308.60 6.296
308.70 6.288
308.80 6.28
308.90 6.273
309.00 6.265
309.10 6.257
309.20 6.25
309.30 6.242
309.40 6.234
309.50 6.226
309.60 6.219
309.70 6.211
309.80 6.203
309.90 6.196
310.00 6.188
310.10 6.181
310.20 6.173
310.30 6.165
310.40 6.158
310.50 6.15
310.60 6.143
310.70 6.135
310.80 6.128
310.90 6.12
311.00 6.113
311.10 6.105
311.20 6.098
311.30 6.09
311.40 6.083
311.50 6.075
311.60 6.068
311.70 6.06
311.80 6.053
311.90 6.046
312.00 6.038
312.10 6.031
312.20 6.023
312.30 6.016
312.40 6.009
312.50 6.001
312.60 5.994
312.70 5.987
312.80 5.979
312.90 5.972
313.00 5.965
313.10 5.958
313.20 5.95
313.30 5.943
313.40 5.936
313.50 5.929
313.60 5.921
313.70 5.914
313.80 5.907
313.90 5.9
314.00 5.893
314.10 5.885
314.20 5.878
314.30 5.871
314.40 5.864
314.50 5.857
314.60 5.85
314.70 5.843
314.80 5.836
314.90 5.829
315.00 5.821
315.10 5.814
315.20 5.807
315.30 5.8
315.40 5.793
315.50 5.786
315.60 5.779
315.70 5.772
315.80 5.765
315.90 5.758
316.00 5.751
316.10 5.745
316.20 5.738
316.30 5.731
316.40 5.724
316.50 5.717
316.60 5.71
316.70 5.703
316.80 5.696
316.90 5.689
317.00 5.682
317.10 5.676
317.20 5.669
317.30 5.662
317.40 5.655
317.50 5.648
317.60 5.642
317.70 5.635
317.80 5.628
317.90 5.621
318.00 5.615
318.10 5.608
318.20 5.601
318.30 5.594
318.40 5.588
318.50 5.581
318.60 5.574
318.70 5.568
318.80 5.561
318.90 5.554
319.00 5.548
319.10 5.541
319.20 5.534
319.30 5.528
319.40 5.521
319.50 5.515
319.60 5.508
319.70 5.501
319.80 5.495
319.90 5.488
320.00 5.482
320.10 5.475
320.20 5.469
320.30 5.462
320.40 5.456
320.50 5.449
320.60 5.443
320.70 5.436
320.80 5.43
320.90 5.423
321.00 5.417
321.10 5.41
321.20 5.404
321.30 5.397
321.40 5.391
321.50 5.385
321.60 5.378
321.70 5.372
321.80 5.365
321.90 5.359
322.00 5.353
322.10 5.346
322.20 5.34
322.30 5.334
322.40 5.327
322.50 5.321
322.60 5.315
322.70 5.308
322.80 5.302
322.90 5.296
323.00 5.29
323.10 5.283
323.20 5.277
323.30 5.271
323.40 5.265
323.50 5.258
323.60 5.252
323.70 5.246
323.80 5.24
323.90 5.234
324.00 5.228
324.10 5.221
324.20 5.215
324.30 5.209
324.40 5.203
324.50 5.197
324.60 5.191
324.70 5.185
324.80 5.178
324.90 5.172
325.00 5.166
325.10 5.16
325.20 5.154
325.30 5.148
325.40 5.142
325.50 5.136
325.60 5.13
325.70 5.124
325.80 5.118
325.90 5.112
326.00 5.106
326.10 5.1
326.20 5.094
326.30 5.088
326.40 5.082
326.50 5.076
326.60 5.07
326.70 5.064
326.80 5.058
326.90 5.052
327.00 5.047
327.10 5.041
327.20 5.035
327.30 5.029
327.40 5.023
327.50 5.017
327.60 5.011
327.70 5.005
327.80 5
327.90 4.994
328.00 4.988
328.10 4.982
328.20 4.976
328.30 4.971
328.40 4.965
328.50 4.959
328.60 4.953
328.70 4.948
328.80 4.942
328.90 4.936
329.00 4.93
329.10 4.925
329.20 4.919
329.30 4.913
329.40 4.907
329.50 4.902
329.60 4.896
329.70 4.89
329.80 4.885
329.90 4.879
330.00 4.873
330.10 4.868
330.20 4.862
330.30 4.857
330.40 4.851
330.50 4.845
330.60 4.84
330.70 4.834
330.80 4.829
330.90 4.823
331.00 4.817
331.10 4.812
331.20 4.806
331.30 4.801
331.40 4.795
331.50 4.79
331.60 4.784
331.70 4.779
331.80 4.773
331.90 4.768
332.00 4.762
332.10 4.757
332.20 4.751
332.30 4.746
332.40 4.74
332.50 4.735
332.60 4.729
332.70 4.724
332.80 4.719
332.90 4.713
333.00 4.708
333.10 4.702
333.20 4.697
333.30 4.692
333.40 4.686
333.50 4.681
333.60 4.675
333.70 4.67
333.80 4.665
333.90 4.659
334.00 4.654
334.10 4.649
334.20 4.643
334.30 4.638
334.40 4.633
334.50 4.627
334.60 4.622
334.70 4.617
334.80 4.612
334.90 4.606
335.00 4.601
335.10 4.596
335.20 4.591
335.30 4.585
335.40 4.58
335.50 4.575
335.60 4.57
335.70 4.564
335.80 4.559
335.90 4.554
336.00 4.549
336.10 4.544
336.20 4.539
336.30 4.533
336.40 4.528
336.50 4.523
336.60 4.518
336.70 4.513
336.80 4.508
336.90 4.503
337.00 4.497
337.10 4.492
337.20 4.487
337.30 4.482
337.40 4.477
337.50 4.472
337.60 4.467
337.70 4.462
337.80 4.457
337.90 4.452
338.00 4.447
338.10 4.442
338.20 4.437
338.30 4.432
338.40 4.427
338.50 4.422
338.60 4.417
338.70 4.412
338.80 4.407
338.90 4.402
339.00 4.397
339.10 4.392
339.20 4.387
339.30 4.382
339.40 4.377
339.50 4.372
339.60 4.367
339.70 4.362
339.80 4.357
339.90 4.352
340.00 4.347
340.10 4.343
340.20 4.338
340.30 4.333
340.40 4.328
340.50 4.323
340.60 4.318
340.70 4.313
340.80 4.309
340.90 4.304
341.00 4.299
341.10 4.294
341.20 4.289
341.30 4.284
341.40 4.28
341.50 4.275
341.60 4.27
341.70 4.265
341.80 4.26
341.90 4.256
342.00 4.251
342.10 4.246
342.20 4.241
342.30 4.237
342.40 4.232
342.50 4.227
342.60 4.223
342.70 4.218
342.80 4.213
342.90 4.208
343.00 4.204
343.10 4.199
343.20 4.194
343.30 4.19
343.40 4.185
343.50 4.18
343.60 4.176
343.70 4.171
343.80 4.166
343.90 4.162
344.00 4.157
344.10 4.152
344.20 4.148
344.30 4.143
344.40 4.139
344.50 4.134
344.60 4.129
344.70 4.125
344.80 4.12
344.90 4.116
345.00 4.111
345.10 4.107
345.20 4.102
345.30 4.098
345.40 4.093
345.50 4.088
345.60 4.084
345.70 4.079
345.80 4.075
345.90 4.07
346.00 4.066
346.10 4.061
346.20 4.057
346.30 4.052
346.40 4.048
346.50 4.043
346.60 4.039
346.70 4.035
346.80 4.03
346.90 4.026
347.00 4.021
347.10 4.017
347.20 4.012
347.30 4.008
347.40 4.003
347.50 3.999
347.60 3.995
347.70 3.99
347.80 3.986
347.90 3.981
348.00 3.977
348.10 3.973
348.20 3.968
348.30 3.964
348.40 3.96
348.50 3.955
348.60 3.951
348.70 3.947
348.80 3.942
348.90 3.938
349.00 3.934
349.10 3.929
349.20 3.925
349.30 3.921
349.40 3.916
349.50 3.912
349.60 3.908
349.70 3.904
349.80 3.899
349.90 3.895
350.00 3.891
350.10 3.886
350.20 3.882
350.30 3.878
350.40 3.874
350.50 3.87
350.60 3.865
350.70 3.861
350.80 3.857
350.90 3.853
351.00 3.848
351.10 3.844
351.20 3.84
351.30 3.836
351.40 3.832
351.50 3.828
351.60 3.823
351.70 3.819
351.80 3.815
351.90 3.811
352.00 3.807
352.10 3.803
352.20 3.798
352.30 3.794
352.40 3.79
352.50 3.786
352.60 3.782
352.70 3.778
352.80 3.774
352.90 3.77
353.00 3.766
353.10 3.762
353.20 3.757
353.30 3.753
353.40 3.749
353.50 3.745
353.60 3.741
353.70 3.737
353.80 3.733
353.90 3.729
354.00 3.725
354.10 3.721
354.20 3.717
354.30 3.713
354.40 3.709
354.50 3.705
354.60 3.701
354.70 3.697
354.80 3.693
354.90 3.689
355.00 3.685
355.10 3.681
355.20 3.677
355.30 3.673
355.40 3.669
355.50 3.665
355.60 3.661
355.70 3.657
355.80 3.653
355.90 3.649
356.00 3.645
356.10 3.641
356.20 3.638
356.30 3.634
356.40 3.63
356.50 3.626
356.60 3.622
356.70 3.618
356.80 3.614
356.90 3.61
357.00 3.606
357.10 3.603
357.20 3.599
357.30 3.595
357.40 3.591
357.50 3.587
357.60 3.583
357.70 3.579
357.80 3.576
357.90 3.572
358.00 3.568
358.10 3.564
358.20 3.56
358.30 3.557
358.40 3.553
358.50 3.549
358.60 3.545
358.70 3.541
358.80 3.538
358.90 3.534
359.00 3.53
359.10 3.526
359.20 3.523
359.30 3.519
359.40 3.515
359.50 3.511
359.60 3.507
359.70 3.504
359.80 3.5
359.90 3.496
360.00 3.493
360.10 3.489
360.20 3.485
360.30 3.481
360.40 3.478
360.50 3.474
360.60 3.47
360.70 3.467
360.80 3.463
360.90 3.459
361.00 3.456
361.10 3.452
361.20 3.448
361.30 3.445
361.40 3.441
361.50 3.437
361.60 3.434
361.70 3.43
361.80 3.426
361.90 3.423
362.00 3.419
362.10 3.416
362.20 3.412
362.30 3.408
362.40 3.405
362.50 3.401
362.60 3.397
362.70 3.394
362.80 3.39
362.90 3.387
363.00 3.383
363.10 3.38
363.20 3.376
363.30 3.372
363.40 3.369
363.50 3.365
363.60 3.362
363.70 3.358
363.80 3.355
363.90 3.351
364.00 3.348
364.10 3.344
364.20 3.341
364.30 3.337
364.40 3.334
364.50 3.33
364.60 3.327
364.70 3.323
364.80 3.32
364.90 3.316
365.00 3.313
365.10 3.309
365.20 3.306
365.30 3.302
365.40 3.299
365.50 3.295
365.60 3.292
365.70 3.288
365.80 3.285
365.90 3.281
366.00 3.278
366.10 3.275
366.20 3.271
366.30 3.268
366.40 3.264
366.50 3.261
366.60 3.257
366.70 3.254
366.80 3.251
366.90 3.247
367.00 3.244
367.10 3.24
367.20 3.237
367.30 3.234
367.40 3.23
367.50 3.227
367.60 3.223
367.70 3.22
367.80 3.217
367.90 3.213
368.00 3.21
368.10 3.207
368.20 3.203
368.30 3.2
368.40 3.196
368.50 3.193
368.60 3.19
368.70 3.186
368.80 3.183
368.90 3.18
369.00 3.176
369.10 3.173
369.20 3.17
369.30 3.166
369.40 3.163
369.50 3.16
369.60 3.156
369.70 3.153
369.80 3.15
369.90 3.146
370.00 3.143
370.10 3.14
370.20 3.136
370.30 3.133
370.40 3.13
370.50 3.126
370.60 3.123
370.70 3.12
370.80 3.117
370.90 3.113
371.00 3.11
371.10 3.107
371.20 3.104
371.30 3.1
371.40 3.097
371.50 3.094
371.60 3.091
371.70 3.087
371.80 3.084
371.90 3.081
372.00 3.078
372.10 3.075
372.20 3.071
372.30 3.068
372.40 3.065
372.50 3.062
372.60 3.059
372.70 3.056
372.80 3.053
372.90 3.049
373.00 3.046
373.10 3.043
373.20 3.04
373.30 3.037
373.40 3.034
373.50 3.031
373.60 3.028
373.70 3.024
373.80 3.021
373.90 3.018
374.00 3.015
374.10 3.012
374.20 3.009
374.30 3.006
374.40 3.003
374.50 2.999
374.60 2.996
374.70 2.993
374.80 2.99
374.90 2.987
375.00 2.984
375.10 2.981
375.20 2.978
375.30 2.975
375.40 2.972
375.50 2.969
375.60 2.965
375.70 2.962
375.80 2.959
375.90 2.956
376.00 2.953
376.10 2.95
376.20 2.947
376.30 2.944
376.40 2.941
376.50 2.938
376.60 2.935
376.70 2.932
376.80 2.929
376.90 2.926
377.00 2.923
377.10 2.92
377.20 2.917
377.30 2.914
377.40 2.911
377.50 2.908
377.60 2.905
377.70 2.902
377.80 2.899
377.90 2.896
378.00 2.893
378.10 2.89
378.20 2.887
378.30 2.884
378.40 2.881
378.50 2.878
378.60 2.876
378.70 2.873
378.80 2.87
378.90 2.867
379.00 2.864
379.10 2.861
379.20 2.858
379.30 2.855
379.40 2.852
379.50 2.849
379.60 2.846
379.70 2.844
379.80 2.841
379.90 2.838
380.00 2.835
380.10 2.832
380.20 2.829
380.30 2.826
380.40 2.824
380.50 2.821
380.60 2.818
380.70 2.815
380.80 2.812
380.90 2.809
381.00 2.807
381.10 2.804
381.20 2.801
381.30 2.798
381.40 2.795
381.50 2.792
381.60 2.79
381.70 2.787
381.80 2.784
381.90 2.781
382.00 2.779
382.10 2.776
382.20 2.773
382.30 2.77
382.40 2.767
382.50 2.765
382.60 2.762
382.70 2.759
382.80 2.757
382.90 2.754
383.00 2.751
383.10 2.748
383.20 2.746
383.30 2.743
383.40 2.74
383.50 2.737
383.60 2.735
383.70 2.732
383.80 2.729
383.90 2.727
384.00 2.724
384.10 2.721
384.20 2.719
384.30 2.716
384.40 2.713
384.50 2.711
384.60 2.708
384.70 2.705
384.80 2.703
384.90 2.7
385.00 2.697
385.10 2.695
385.20 2.692
385.30 2.689
385.40 2.687
385.50 2.684
385.60 2.682
385.70 2.679
385.80 2.676
385.90 2.674
386.00 2.671
386.10 2.668
386.20 2.666
386.30 2.663
386.40 2.661
386.50 2.658
386.60 2.655
386.70 2.653
386.80 2.65
386.90 2.648
387.00 2.645
387.10 2.642
387.20 2.64
387.30 2.637
387.40 2.635
387.50 2.632
387.60 2.629
387.70 2.627
387.80 2.624
387.90 2.622
388.00 2.619
388.10 2.616
388.20 2.614
388.30 2.611
388.40 2.609
388.50 2.606
388.60 2.604
388.70 2.601
388.80 2.599
388.90 2.597
389.00 2.594
389.10 2.592
389.20 2.589
389.30 2.587
389.40 2.584
389.50 2.582
389.60 2.579
389.70 2.577
389.80 2.574
389.90 2.572
390.00 2.57
390.10 2.567
390.20 2.565
390.30 2.563
390.40 2.56
390.50 2.558
390.60 2.555
390.70 2.553
390.80 2.551
390.90 2.548
391.00 2.546
391.10 2.543
391.20 2.541
391.30 2.539
391.40 2.536
391.50 2.534
391.60 2.531
391.70 2.529
391.80 2.527
391.90 2.524
392.00 2.522
392.10 2.519
392.20 2.517
392.30 2.514
392.40 2.512
392.50 2.51
392.60 2.507
392.70 2.505
392.80 2.502
392.90 2.5
393.00 2.497
393.10 2.495
393.20 2.492
393.30 2.49
393.40 2.487
393.50 2.485
393.60 2.482
393.70 2.479
393.80 2.477
393.90 2.474
394.00 2.472
394.10 2.469
394.20 2.467
394.30 2.464
394.40 2.461
394.50 2.459
394.60 2.456
394.70 2.454
394.80 2.451
394.90 2.448
395.00 2.446
395.10 2.443
395.20 2.44
395.30 2.438
395.40 2.435
395.50 2.433
395.60 2.43
395.70 2.427
395.80 2.425
395.90 2.422
396.00 2.419
396.10 2.417
396.20 2.414
396.30 2.412
396.40 2.409
396.50 2.407
396.60 2.404
396.70 2.402
396.80 2.399
396.90 2.397
397.00 2.394
397.10 2.392
397.20 2.39
397.30 2.388
397.40 2.386
397.50 2.385
397.60 2.383
397.70 2.381
397.80 2.379
397.90 2.377
398.00 2.375
398.10 2.374
398.20 2.372
398.30 2.37
398.40 2.368
398.50 2.366
398.60 2.365
398.70 2.363
398.80 2.361
398.90 2.359
399.00 2.357
399.10 2.356
399.20 2.354
399.30 2.352
399.40 2.35
399.50 2.348
399.60 2.346
399.70 2.345
399.80 2.343
399.90 2.341
400.00 2.339
400.10 2.337
400.20 2.335
400.30 2.333
400.40 2.331
400.50 2.329
400.60 2.328
400.70 2.326
400.80 2.324
400.90 2.322
401.00 2.32
401.10 2.318
401.20 2.316
401.30 2.314
401.40 2.312
401.50 2.31
401.60 2.308
401.70 2.306
401.80 2.303
401.90 2.301
402.00 2.299
402.10 2.297
402.20 2.295
402.30 2.293
402.40 2.291
402.50 2.289
402.60 2.287
402.70 2.284
402.80 2.282
402.90 2.28
403.00 2.278
403.10 2.276
403.20 2.273
403.30 2.271
403.40 2.269
403.50 2.267
403.60 2.264
403.70 2.262
403.80 2.26
403.90 2.257
404.00 2.255
404.10 2.253
404.20 2.25
404.30 2.248
404.40 2.246
404.50 2.243
404.60 2.241
404.70 2.238
404.80 2.236
404.90 2.233
405.00 2.231
405.10 2.228
405.20 2.226
405.30 2.223
405.40 2.221
405.50 2.218
405.60 2.216
405.70 2.213
405.80 2.21
405.90 2.208
406.00 2.205
406.10 2.202
406.20 2.2
406.30 2.197
406.40 2.194
406.50 2.191
406.60 2.189
406.70 2.186
406.80 2.183
406.90 2.18
407.00 2.177
407.10 2.174
407.20 2.171
407.30 2.168
407.40 2.166
407.50 2.163
407.60 2.16
407.70 2.157
407.80 2.154
407.90 2.15
408.00 2.147
408.10 2.144
408.20 2.141
408.30 2.138
408.40 2.135
408.50 2.132
408.60 2.129
408.70 2.126
408.80 2.123
408.90 2.119
409.00 2.116
409.10 2.113
409.20 2.11
409.30 2.107
409.40 2.105
409.50 2.102
409.60 2.099
409.70 2.097
409.80 2.095
409.90 2.094
410.00 2.092
410.10 2.091
410.20 2.09
410.30 2.087
410.40 2.084
410.50 2.082
410.60 2.08
410.70 2.078
410.80 2.077
410.90 2.076
411.00 2.075
411.10 2.074
411.20 2.073
411.30 2.072
411.40 2.071
411.50 2.071
411.60 2.07
411.70 2.069
411.80 2.069
411.90 2.068
412.00 2.067
412.10 2.066
412.20 2.066
412.30 2.065
412.40 2.064
412.50 2.063
412.60 2.062
412.70 2.062
412.80 2.061
412.90 2.06
413.00 2.059
413.10 2.058
413.20 2.057
413.30 2.056
413.40 2.055
413.50 2.054
413.60 2.053
413.70 2.052
413.80 2.051
413.90 2.05
414.00 2.049
414.10 2.047
414.20 2.046
414.30 2.045
414.40 2.044
414.50 2.043
414.60 2.041
414.70 2.04
414.80 2.039
414.90 2.038
415.00 2.036
415.10 2.035
415.20 2.034
415.30 2.032
415.40 2.031
415.50 2.029
415.60 2.028
415.70 2.027
415.80 2.025
415.90 2.024
416.00 2.022
416.10 2.021
416.20 2.019
416.30 2.018
416.40 2.016
416.50 2.015
416.60 2.013
416.70 2.012
416.80 2.01
416.90 2.009
417.00 2.007
417.10 2.006
417.20 2.004
417.30 2.003
417.40 2.001
417.50 1.999
417.60 1.998
417.70 1.996
417.80 1.995
417.90 1.993
418.00 1.991
418.10 1.99
418.20 1.988
418.30 1.986
418.40 1.985
418.50 1.983
418.60 1.982
418.70 1.98
418.80 1.978
418.90 1.977
419.00 1.975
419.10 1.973
419.20 1.972
419.30 1.97
419.40 1.968
419.50 1.966
419.60 1.965
419.70 1.963
419.80 1.961
419.90 1.96
420.00 1.958
420.10 1.956
420.20 1.954
420.30 1.953
420.40 1.951
420.50 1.949
420.60 1.948
420.70 1.946
420.80 1.944
420.90 1.942
421.00 1.941
421.10 1.939
421.20 1.937
421.30 1.935
421.40 1.934
421.50 1.932
421.60 1.93
421.70 1.928
421.80 1.927
421.90 1.925
422.00 1.923
422.10 1.921
422.20 1.92
422.30 1.918
422.40 1.916
422.50 1.914
422.60 1.912
422.70 1.911
422.80 1.909
422.90 1.907
423.00 1.905
423.10 1.904
423.20 1.902
423.30 1.9
423.40 1.898
423.50 1.896
423.60 1.894
423.70 1.893
423.80 1.891
423.90 1.889
424.00 1.887
424.10 1.885
424.20 1.884
424.30 1.882
424.40 1.88
424.50 1.878
424.60 1.876
424.70 1.874
424.80 1.872
424.90 1.871
425.00 1.869
425.10 1.867
425.20 1.865
425.30 1.863
425.40 1.861
425.50 1.859
425.60 1.857
425.70 1.856
425.80 1.854
425.90 1.852
426.00 1.85
426.10 1.848
426.20 1.846
426.30 1.844
426.40 1.842
426.50 1.84
426.60 1.838
426.70 1.836
426.80 1.834
426.90 1.832
427.00 1.83
427.10 1.828
427.20 1.826
427.30 1.824
427.40 1.822
427.50 1.82
427.60 1.818
427.70 1.815
427.80 1.813
427.90 1.811
428.00 1.809
428.10 1.807
428.20 1.805
428.30 1.802
428.40 1.8
428.50 1.798
428.60 1.796
428.70 1.793
428.80 1.791
428.90 1.789
429.00 1.786
429.10 1.784
429.20 1.782
429.30 1.779
429.40 1.777
429.50 1.774
429.60 1.772
429.70 1.769
429.80 1.767
429.90 1.764
430.00 1.761
430.10 1.759
430.20 1.756
430.30 1.753
430.40 1.751
430.50 1.748
430.60 1.745
430.70 1.742
430.80 1.739
430.90 1.736
431.00 1.733
431.10 1.73
431.20 1.727
431.30 1.724
431.40 1.721
431.50 1.717
431.60 1.714
431.70 1.711
431.80 1.708
431.90 1.704
432.00 1.701
432.10 1.697
432.20 1.694
432.30 1.691
432.40 1.687
432.50 1.684
432.60 1.68
432.70 1.677
432.80 1.673
432.90 1.67
433.00 1.666
433.10 1.663
433.20 1.659
433.30 1.656
433.40 1.653
433.50 1.649
433.60 1.646
433.70 1.642
433.80 1.638
433.90 1.633
434.00 1.631
434.10 1.629
434.20 1.629
434.30 1.631
434.40 1.632
434.50 1.633
434.60 1.634
434.70 1.634
434.80 1.635
434.90 1.635
435.00 1.636
435.10 1.637
435.20 1.637
435.30 1.638
435.40 1.638
435.50 1.639
435.60 1.639
435.70 1.64
435.80 1.641
435.90 1.641
436.00 1.641
436.10 1.642
436.20 1.642
436.30 1.643
436.40 1.643
436.50 1.643
436.60 1.643
436.70 1.644
436.80 1.644
436.90 1.644
437.00 1.644
437.10 1.644
437.20 1.644
437.30 1.644
437.40 1.644
437.50 1.643
437.60 1.643
437.70 1.643
437.80 1.643
437.90 1.642
438.00 1.642
438.10 1.642
438.20 1.641
438.30 1.641
438.40 1.64
438.50 1.64
438.60 1.639
438.70 1.638
438.80 1.638
438.90 1.637
439.00 1.636
439.10 1.636
439.20 1.635
439.30 1.634
439.40 1.633
439.50 1.633
439.60 1.632
439.70 1.631
439.80 1.63
439.90 1.629
440.00 1.628
440.10 1.627
440.20 1.626
440.30 1.625
440.40 1.624
440.50 1.623
440.60 1.622
440.70 1.621
440.80 1.62
440.90 1.619
441.00 1.618
441.10 1.617
441.20 1.616
441.30 1.615
441.40 1.614
441.50 1.613
441.60 1.612
441.70 1.61
441.80 1.609
441.90 1.608
442.00 1.607
442.10 1.606
442.20 1.605
442.30 1.604
442.40 1.602
442.50 1.601
442.60 1.6
442.70 1.599
442.80 1.598
442.90 1.596
443.00 1.595
443.10 1.594
443.20 1.593
443.30 1.591
443.40 1.59
443.50 1.589
443.60 1.588
443.70 1.587
443.80 1.585
443.90 1.584
444.00 1.583
444.10 1.582
444.20 1.58
444.30 1.579
444.40 1.578
444.50 1.576
444.60 1.575
444.70 1.574
444.80 1.573
444.90 1.571
445.00 1.57
445.10 1.569
445.20 1.568
445.30 1.566
445.40 1.565
445.50 1.564
445.60 1.562
445.70 1.561
445.80 1.56
445.90 1.559
446.00 1.557
446.10 1.556
446.20 1.555
446.30 1.554
446.40 1.552
446.50 1.551
446.60 1.55
446.70 1.548
446.80 1.547
446.90 1.546
447.00 1.545
447.10 1.543
447.20 1.542
447.30 1.541
447.40 1.539
447.50 1.538
447.60 1.537
447.70 1.535
447.80 1.534
447.90 1.533
448.00 1.532
448.10 1.53
448.20 1.529
448.30 1.528
448.40 1.527
448.50 1.525
448.60 1.524
448.70 1.523
448.80 1.521
448.90 1.52
449.00 1.519
449.10 1.518
449.20 1.516
449.30 1.515
449.40 1.514
449.50 1.512
449.60 1.511
449.70 1.51
449.80 1.509
449.90 1.507
450.00 1.506
450.10 1.505
450.20 1.503
450.30 1.502
450.40 1.501
450.50 1.5
450.60 1.498
450.70 1.497
450.80 1.496
450.90 1.495
451.00 1.493
451.10 1.492
451.20 1.491
451.30 1.49
451.40 1.488
451.50 1.487
451.60 1.486
451.70 1.484
451.80 1.483
451.90 1.482
452.00 1.481
452.10 1.479
452.20 1.478
452.30 1.477
452.40 1.476
452.50 1.474
452.60 1.473
452.70 1.472
452.80 1.471
452.90 1.469
453.00 1.468
453.10 1.467
453.20 1.466
453.30 1.464
453.40 1.463
453.50 1.462
453.60 1.461
453.70 1.46
453.80 1.458
453.90 1.457
454.00 1.456
454.10 1.455
