# Version 2.1 - nm, norm@500 to 1, cut digits, bergeron_1750_65.dat_1750
# Wavelength(nm)  Flambda(ergs/cm^s/s/nm)
300.00 0.01017
300.10 0.01022
300.20 0.01027
300.30 0.01032
300.40 0.01037
300.50 0.01042
300.60 0.01047
300.70 0.01052
300.80 0.01056
300.90 0.01061
301.00 0.01066
301.10 0.01071
301.20 0.01076
301.30 0.01081
301.40 0.01086
301.50 0.0109
301.60 0.01095
301.70 0.011
301.80 0.01105
301.90 0.0111
302.00 0.01115
302.10 0.0112
302.20 0.01125
302.30 0.0113
302.40 0.01136
302.50 0.01141
302.60 0.01146
302.70 0.01151
302.80 0.01157
302.90 0.01162
303.00 0.01167
303.10 0.01172
303.20 0.01178
303.30 0.01183
303.40 0.01188
303.50 0.01193
303.60 0.01198
303.70 0.01203
303.80 0.01209
303.90 0.01214
304.00 0.01219
304.10 0.01225
304.20 0.0123
304.30 0.01236
304.40 0.01242
304.50 0.01247
304.60 0.01253
304.70 0.01259
304.80 0.01264
304.90 0.0127
305.00 0.01275
305.10 0.01281
305.20 0.01287
305.30 0.01292
305.40 0.01298
305.50 0.01303
305.60 0.01309
305.70 0.01314
305.80 0.0132
305.90 0.01325
306.00 0.01331
306.10 0.01337
306.20 0.01343
306.30 0.01349
306.40 0.01355
306.50 0.01361
306.60 0.01367
306.70 0.01373
306.80 0.01379
306.90 0.01385
307.00 0.01391
307.10 0.01397
307.20 0.01403
307.30 0.01409
307.40 0.01415
307.50 0.01421
307.60 0.01427
307.70 0.01433
307.80 0.01439
307.90 0.01445
308.00 0.01451
308.10 0.01458
308.20 0.01464
308.30 0.01471
308.40 0.01477
308.50 0.01483
308.60 0.0149
308.70 0.01496
308.80 0.01503
308.90 0.01509
309.00 0.01516
309.10 0.01522
309.20 0.01529
309.30 0.01535
309.40 0.01541
309.50 0.01548
309.60 0.01554
309.70 0.0156
309.80 0.01567
309.90 0.01573
310.00 0.0158
310.10 0.01587
310.20 0.01593
310.30 0.016
310.40 0.01607
310.50 0.01614
310.60 0.01621
310.70 0.01628
310.80 0.01635
310.90 0.01642
311.00 0.01649
311.10 0.01656
311.20 0.01663
311.30 0.0167
311.40 0.01676
311.50 0.01683
311.60 0.0169
311.70 0.01697
311.80 0.01704
311.90 0.01711
312.00 0.01717
312.10 0.01724
312.20 0.01731
312.30 0.01739
312.40 0.01746
312.50 0.01753
312.60 0.01761
312.70 0.01768
312.80 0.01776
312.90 0.01783
313.00 0.0179
313.10 0.01798
313.20 0.01805
313.30 0.01812
313.40 0.0182
313.50 0.01827
313.60 0.01834
313.70 0.01842
313.80 0.01849
313.90 0.01856
314.00 0.01864
314.10 0.01871
314.20 0.01879
314.30 0.01887
314.40 0.01895
314.50 0.01903
314.60 0.01911
314.70 0.01919
314.80 0.01926
314.90 0.01934
315.00 0.01942
315.10 0.0195
315.20 0.01958
315.30 0.01965
315.40 0.01973
315.50 0.01981
315.60 0.01989
315.70 0.01997
315.80 0.02004
315.90 0.02012
316.00 0.0202
316.10 0.02028
316.20 0.02037
316.30 0.02045
316.40 0.02053
316.50 0.02062
316.60 0.0207
316.70 0.02078
316.80 0.02087
316.90 0.02095
317.00 0.02103
317.10 0.02112
317.20 0.0212
317.30 0.02128
317.40 0.02137
317.50 0.02145
317.60 0.02153
317.70 0.02161
317.80 0.0217
317.90 0.02178
318.00 0.02187
318.10 0.02195
318.20 0.02204
318.30 0.02213
318.40 0.02222
318.50 0.02231
318.60 0.0224
318.70 0.02249
318.80 0.02257
318.90 0.02266
319.00 0.02275
319.10 0.02284
319.20 0.02293
319.30 0.02302
319.40 0.02311
319.50 0.02319
319.60 0.02328
319.70 0.02337
319.80 0.02346
319.90 0.02354
320.00 0.02364
320.10 0.02373
320.20 0.02382
320.30 0.02392
320.40 0.02401
320.50 0.02411
320.60 0.0242
320.70 0.0243
320.80 0.02439
320.90 0.02448
321.00 0.02458
321.10 0.02467
321.20 0.02477
321.30 0.02486
321.40 0.02495
321.50 0.02505
321.60 0.02514
321.70 0.02523
321.80 0.02533
321.90 0.02542
322.00 0.02552
322.10 0.02562
322.20 0.02571
322.30 0.02581
322.40 0.02592
322.50 0.02602
322.60 0.02612
322.70 0.02622
322.80 0.02632
322.90 0.02642
323.00 0.02652
323.10 0.02662
323.20 0.02672
323.30 0.02682
323.40 0.02691
323.50 0.02701
323.60 0.02711
323.70 0.02721
323.80 0.02731
323.90 0.02741
324.00 0.02751
324.10 0.02762
324.20 0.02772
324.30 0.02783
324.40 0.02794
324.50 0.02804
324.60 0.02815
324.70 0.02825
324.80 0.02836
324.90 0.02847
325.00 0.02857
325.10 0.02868
325.20 0.02878
325.30 0.02889
325.40 0.02899
325.50 0.0291
325.60 0.0292
325.70 0.02931
325.80 0.02941
325.90 0.02952
326.00 0.02963
326.10 0.02974
326.20 0.02985
326.30 0.02996
326.40 0.03008
326.50 0.03019
326.60 0.0303
326.70 0.03041
326.80 0.03053
326.90 0.03064
327.00 0.03075
327.10 0.03086
327.20 0.03097
327.30 0.03109
327.40 0.0312
327.50 0.03131
327.60 0.03142
327.70 0.03153
327.80 0.03164
327.90 0.03175
328.00 0.03187
328.10 0.03199
328.20 0.0321
328.30 0.03222
328.40 0.03234
328.50 0.03246
328.60 0.03258
328.70 0.0327
328.80 0.03282
328.90 0.03294
329.00 0.03306
329.10 0.03317
329.20 0.03329
329.30 0.03341
329.40 0.03353
329.50 0.03365
329.60 0.03376
329.70 0.03388
329.80 0.034
329.90 0.03411
330.00 0.03423
330.10 0.03436
330.20 0.03448
330.30 0.03461
330.40 0.03474
330.50 0.03486
330.60 0.03499
330.70 0.03511
330.80 0.03524
330.90 0.03537
331.00 0.03549
331.10 0.03562
331.20 0.03574
331.30 0.03586
331.40 0.03599
331.50 0.03611
331.60 0.03624
331.70 0.03636
331.80 0.03649
331.90 0.03661
332.00 0.03673
332.10 0.03687
332.20 0.037
332.30 0.03713
332.40 0.03727
332.50 0.0374
332.60 0.03753
332.70 0.03767
332.80 0.0378
332.90 0.03793
333.00 0.03806
333.10 0.03819
333.20 0.03833
333.30 0.03846
333.40 0.03859
333.50 0.03872
333.60 0.03885
333.70 0.03898
333.80 0.03911
333.90 0.03924
334.00 0.03938
334.10 0.03952
334.20 0.03966
334.30 0.0398
334.40 0.03994
334.50 0.04008
334.60 0.04022
334.70 0.04036
334.80 0.0405
334.90 0.04064
335.00 0.04077
335.10 0.04091
335.20 0.04105
335.30 0.04119
335.40 0.04133
335.50 0.04147
335.60 0.04161
335.70 0.04174
335.80 0.04188
335.90 0.04202
336.00 0.04216
336.10 0.0423
336.20 0.04245
336.30 0.0426
336.40 0.04275
336.50 0.0429
336.60 0.04304
336.70 0.04319
336.80 0.04334
336.90 0.04349
337.00 0.04363
337.10 0.04378
337.20 0.04392
337.30 0.04407
337.40 0.04422
337.50 0.04436
337.60 0.04451
337.70 0.04465
337.80 0.0448
337.90 0.04494
338.00 0.04509
338.10 0.04525
338.20 0.0454
338.30 0.04556
338.40 0.04571
338.50 0.04587
338.60 0.04602
338.70 0.04618
338.80 0.04633
338.90 0.04648
339.00 0.04664
339.10 0.04679
339.20 0.04695
339.30 0.0471
339.40 0.04725
339.50 0.04741
339.60 0.04756
339.70 0.04771
339.80 0.04786
339.90 0.04802
340.00 0.04817
340.10 0.04833
340.20 0.0485
340.30 0.04866
340.40 0.04882
340.50 0.04899
340.60 0.04915
340.70 0.04931
340.80 0.04948
340.90 0.04964
341.00 0.0498
341.10 0.04996
341.20 0.05012
341.30 0.05029
341.40 0.05045
341.50 0.05061
341.60 0.05077
341.70 0.05093
341.80 0.05109
341.90 0.05125
342.00 0.05141
342.10 0.05158
342.20 0.05175
342.30 0.05193
342.40 0.0521
342.50 0.05227
342.60 0.05244
342.70 0.05261
342.80 0.05278
342.90 0.05295
343.00 0.05312
343.10 0.05329
343.20 0.05346
343.30 0.05363
343.40 0.0538
343.50 0.05397
343.60 0.05414
343.70 0.0543
343.80 0.05447
343.90 0.05464
344.00 0.05481
344.10 0.05499
344.20 0.05517
344.30 0.05535
344.40 0.05553
344.50 0.05571
344.60 0.05589
344.70 0.05607
344.80 0.05625
344.90 0.05643
345.00 0.0566
345.10 0.05678
345.20 0.05696
345.30 0.05714
345.40 0.05732
345.50 0.05749
345.60 0.05767
345.70 0.05785
345.80 0.05802
345.90 0.0582
346.00 0.05838
346.10 0.05857
346.20 0.05875
346.30 0.05894
346.40 0.05913
346.50 0.05932
346.60 0.05951
346.70 0.05969
346.80 0.05988
346.90 0.06007
347.00 0.06026
347.10 0.06044
347.20 0.06063
347.30 0.06082
347.40 0.061
347.50 0.06119
347.60 0.06137
347.70 0.06156
347.80 0.06174
347.90 0.06193
348.00 0.06211
348.10 0.06231
348.20 0.06251
348.30 0.06271
348.40 0.0629
348.50 0.0631
348.60 0.0633
348.70 0.06349
348.80 0.06369
348.90 0.06389
349.00 0.06408
349.10 0.06428
349.20 0.06447
349.30 0.06467
349.40 0.06486
349.50 0.06506
349.60 0.06525
349.70 0.06545
349.80 0.06564
349.90 0.06583
350.00 0.06603
350.10 0.06623
350.20 0.06644
350.30 0.06665
350.40 0.06685
350.50 0.06706
350.60 0.06726
350.70 0.06747
350.80 0.06767
350.90 0.06788
351.00 0.06808
351.10 0.06829
351.20 0.06849
351.30 0.0687
351.40 0.0689
351.50 0.0691
351.60 0.06931
351.70 0.06951
351.80 0.06971
351.90 0.06991
352.00 0.07012
352.10 0.07033
352.20 0.07055
352.30 0.07076
352.40 0.07098
352.50 0.07119
352.60 0.07141
352.70 0.07162
352.80 0.07184
352.90 0.07205
353.00 0.07227
353.10 0.07248
353.20 0.07269
353.30 0.07291
353.40 0.07312
353.50 0.07333
353.60 0.07354
353.70 0.07376
353.80 0.07397
353.90 0.07418
354.00 0.07439
354.10 0.07462
354.20 0.07484
354.30 0.07507
354.40 0.07529
354.50 0.07552
354.60 0.07574
354.70 0.07596
354.80 0.07619
354.90 0.07641
355.00 0.07663
355.10 0.07686
355.20 0.07708
355.30 0.0773
355.40 0.07752
355.50 0.07775
355.60 0.07797
355.70 0.07819
355.80 0.07841
355.90 0.07863
356.00 0.07885
356.10 0.07909
356.20 0.07932
356.30 0.07956
356.40 0.07979
356.50 0.08002
356.60 0.08026
356.70 0.08049
356.80 0.08072
356.90 0.08096
357.00 0.08119
357.10 0.08142
357.20 0.08166
357.30 0.08189
357.40 0.08212
357.50 0.08235
357.60 0.08258
357.70 0.08281
357.80 0.08304
357.90 0.08327
358.00 0.0835
358.10 0.08375
358.20 0.08399
358.30 0.08424
358.40 0.08448
358.50 0.08473
358.60 0.08497
358.70 0.08521
358.80 0.08546
358.90 0.0857
359.00 0.08594
359.10 0.08618
359.20 0.08643
359.30 0.08667
359.40 0.08691
359.50 0.08715
359.60 0.08739
359.70 0.08763
359.80 0.08787
359.90 0.08811
360.00 0.08835
360.10 0.08861
360.20 0.08886
360.30 0.08912
360.40 0.08937
360.50 0.08963
360.60 0.08988
360.70 0.09013
360.80 0.09039
360.90 0.09064
361.00 0.09089
361.10 0.09114
361.20 0.0914
361.30 0.09165
361.40 0.0919
361.50 0.09215
361.60 0.0924
361.70 0.09265
361.80 0.0929
361.90 0.09315
362.00 0.0934
362.10 0.09366
362.20 0.09392
362.30 0.09418
362.40 0.09444
362.50 0.09471
362.60 0.09497
362.70 0.09522
362.80 0.09548
362.90 0.09574
363.00 0.096
363.10 0.09627
363.20 0.09654
363.30 0.09681
363.40 0.09707
363.50 0.09734
363.60 0.09761
363.70 0.09787
363.80 0.09814
363.90 0.09841
364.00 0.09867
364.10 0.09894
364.20 0.0992
364.30 0.09947
364.40 0.09973
364.50 0.1
364.60 0.1003
364.70 0.1006
364.80 0.1008
364.90 0.1011
365.00 0.1014
365.10 0.1017
365.20 0.1019
365.30 0.1022
365.40 0.1025
365.50 0.1027
365.60 0.103
365.70 0.1033
365.80 0.1036
365.90 0.1038
366.00 0.1041
366.10 0.1044
366.20 0.1047
366.30 0.105
366.40 0.1053
366.50 0.1055
366.60 0.1058
366.70 0.1061
366.80 0.1064
366.90 0.1067
367.00 0.107
367.10 0.1072
367.20 0.1075
367.30 0.1078
367.40 0.1081
367.50 0.1084
367.60 0.1087
367.70 0.1089
367.80 0.1092
367.90 0.1095
368.00 0.1098
368.10 0.1101
368.20 0.1104
368.30 0.1107
368.40 0.111
368.50 0.1113
368.60 0.1116
368.70 0.1119
368.80 0.1122
368.90 0.1124
369.00 0.1127
369.10 0.113
369.20 0.1133
369.30 0.1136
369.40 0.1139
369.50 0.1142
369.60 0.1145
369.70 0.1148
369.80 0.1151
369.90 0.1154
370.00 0.1157
370.10 0.116
370.20 0.1163
370.30 0.1166
370.40 0.1169
370.50 0.1172
370.60 0.1175
370.70 0.1178
370.80 0.1181
370.90 0.1184
371.00 0.1187
371.10 0.119
371.20 0.1193
371.30 0.1196
371.40 0.12
371.50 0.1203
371.60 0.1206
371.70 0.1209
371.80 0.1212
371.90 0.1215
372.00 0.1218
372.10 0.1221
372.20 0.1224
372.30 0.1227
372.40 0.123
372.50 0.1234
372.60 0.1237
372.70 0.124
372.80 0.1243
372.90 0.1246
373.00 0.1249
373.10 0.1253
373.20 0.1256
373.30 0.1259
373.40 0.1262
373.50 0.1265
373.60 0.1268
373.70 0.1272
373.80 0.1275
373.90 0.1278
374.00 0.1281
374.10 0.1284
374.20 0.1288
374.30 0.1291
374.40 0.1294
374.50 0.1297
374.60 0.1301
374.70 0.1304
374.80 0.1307
374.90 0.1311
375.00 0.1314
375.10 0.1317
375.20 0.132
375.30 0.1324
375.40 0.1327
375.50 0.133
375.60 0.1333
375.70 0.1337
375.80 0.134
375.90 0.1343
376.00 0.1346
376.10 0.135
376.20 0.1353
376.30 0.1356
376.40 0.136
376.50 0.1363
376.60 0.1367
376.70 0.137
376.80 0.1373
376.90 0.1377
377.00 0.138
377.10 0.1383
377.20 0.1387
377.30 0.139
377.40 0.1394
377.50 0.1397
377.60 0.14
377.70 0.1404
377.80 0.1407
377.90 0.1411
378.00 0.1414
378.10 0.1418
378.20 0.1421
378.30 0.1425
378.40 0.1428
378.50 0.1431
378.60 0.1435
378.70 0.1438
378.80 0.1442
378.90 0.1445
379.00 0.1449
379.10 0.1452
379.20 0.1456
379.30 0.1459
379.40 0.1463
379.50 0.1467
379.60 0.147
379.70 0.1474
379.80 0.1477
379.90 0.1481
380.00 0.1484
380.10 0.1488
380.20 0.1491
380.30 0.1495
380.40 0.1499
380.50 0.1502
380.60 0.1506
380.70 0.1509
380.80 0.1513
380.90 0.1516
381.00 0.152
381.10 0.1524
381.20 0.1527
381.30 0.1531
381.40 0.1535
381.50 0.1538
381.60 0.1542
381.70 0.1545
381.80 0.1549
381.90 0.1553
382.00 0.1556
382.10 0.156
382.20 0.1564
382.30 0.1568
382.40 0.1571
382.50 0.1575
382.60 0.1579
382.70 0.1582
382.80 0.1586
382.90 0.159
383.00 0.1594
383.10 0.1597
383.20 0.1601
383.30 0.1605
383.40 0.1609
383.50 0.1612
383.60 0.1616
383.70 0.162
383.80 0.1624
383.90 0.1627
384.00 0.1631
384.10 0.1635
384.20 0.1639
384.30 0.1643
384.40 0.1646
384.50 0.165
384.60 0.1654
384.70 0.1658
384.80 0.1662
384.90 0.1666
385.00 0.1669
385.10 0.1673
385.20 0.1677
385.30 0.1681
385.40 0.1685
385.50 0.1689
385.60 0.1693
385.70 0.1697
385.80 0.17
385.90 0.1704
386.00 0.1708
386.10 0.1712
386.20 0.1716
386.30 0.172
386.40 0.1724
386.50 0.1728
386.60 0.1732
386.70 0.1736
386.80 0.174
386.90 0.1744
387.00 0.1748
387.10 0.1752
387.20 0.1756
387.30 0.176
387.40 0.1764
387.50 0.1768
387.60 0.1772
387.70 0.1776
387.80 0.178
387.90 0.1784
388.00 0.1788
388.10 0.1792
388.20 0.1796
388.30 0.18
388.40 0.1804
388.50 0.1808
388.60 0.1812
388.70 0.1816
388.80 0.182
388.90 0.1824
389.00 0.1828
389.10 0.1832
389.20 0.1837
389.30 0.1841
389.40 0.1845
389.50 0.1849
389.60 0.1853
389.70 0.1857
389.80 0.1861
389.90 0.1865
390.00 0.187
390.10 0.1874
390.20 0.1878
390.30 0.1882
390.40 0.1886
390.50 0.189
390.60 0.1895
390.70 0.1899
390.80 0.1903
390.90 0.1907
391.00 0.1911
391.10 0.1916
391.20 0.192
391.30 0.1924
391.40 0.1928
391.50 0.1933
391.60 0.1937
391.70 0.1941
391.80 0.1945
391.90 0.195
392.00 0.1954
392.10 0.1958
392.20 0.1962
392.30 0.1967
392.40 0.1971
392.50 0.1975
392.60 0.198
392.70 0.1984
392.80 0.1988
392.90 0.1993
393.00 0.1997
393.10 0.2001
393.20 0.2006
393.30 0.201
393.40 0.2014
393.50 0.2019
393.60 0.2023
393.70 0.2027
393.80 0.2032
393.90 0.2036
394.00 0.2041
394.10 0.2045
394.20 0.2049
394.30 0.2054
394.40 0.2058
394.50 0.2063
394.60 0.2067
394.70 0.2072
394.80 0.2076
394.90 0.208
395.00 0.2085
395.10 0.2089
395.20 0.2094
395.30 0.2098
395.40 0.2103
395.50 0.2107
395.60 0.2112
395.70 0.2116
395.80 0.2121
395.90 0.2125
396.00 0.213
396.10 0.2134
396.20 0.2139
396.30 0.2143
396.40 0.2148
396.50 0.2153
396.60 0.2157
396.70 0.2162
396.80 0.2166
396.90 0.2171
397.00 0.2175
397.10 0.218
397.20 0.2185
397.30 0.2189
397.40 0.2194
397.50 0.2198
397.60 0.2203
397.70 0.2208
397.80 0.2212
397.90 0.2217
398.00 0.2222
398.10 0.2226
398.20 0.2231
398.30 0.2236
398.40 0.224
398.50 0.2245
398.60 0.225
398.70 0.2254
398.80 0.2259
398.90 0.2264
399.00 0.2268
399.10 0.2273
399.20 0.2278
399.30 0.2282
399.40 0.2287
399.50 0.2292
399.60 0.2297
399.70 0.2301
399.80 0.2306
399.90 0.2311
400.00 0.2316
400.10 0.2321
400.20 0.2325
400.30 0.233
400.40 0.2335
400.50 0.234
400.60 0.2344
400.70 0.2349
400.80 0.2354
400.90 0.2359
401.00 0.2364
401.10 0.2369
401.20 0.2373
401.30 0.2378
401.40 0.2383
401.50 0.2388
401.60 0.2393
401.70 0.2398
401.80 0.2403
401.90 0.2408
402.00 0.2412
402.10 0.2417
402.20 0.2422
402.30 0.2427
402.40 0.2432
402.50 0.2437
402.60 0.2442
402.70 0.2447
402.80 0.2452
402.90 0.2457
403.00 0.2462
403.10 0.2467
403.20 0.2472
403.30 0.2477
403.40 0.2482
403.50 0.2487
403.60 0.2491
403.70 0.2497
403.80 0.2502
403.90 0.2507
404.00 0.2512
404.10 0.2517
404.20 0.2522
404.30 0.2527
404.40 0.2532
404.50 0.2537
404.60 0.2542
404.70 0.2547
404.80 0.2552
404.90 0.2557
405.00 0.2562
405.10 0.2567
405.20 0.2572
405.30 0.2577
405.40 0.2583
405.50 0.2588
405.60 0.2593
405.70 0.2598
405.80 0.2603
405.90 0.2608
406.00 0.2613
406.10 0.2619
406.20 0.2624
406.30 0.2629
406.40 0.2634
406.50 0.2639
406.60 0.2644
406.70 0.265
406.80 0.2655
406.90 0.266
407.00 0.2665
407.10 0.267
407.20 0.2676
407.30 0.2681
407.40 0.2686
407.50 0.2691
407.60 0.2697
407.70 0.2702
407.80 0.2707
407.90 0.2712
408.00 0.2718
408.10 0.2723
408.20 0.2728
408.30 0.2733
408.40 0.2739
408.50 0.2744
408.60 0.2749
408.70 0.2755
408.80 0.276
408.90 0.2765
409.00 0.277
409.10 0.2776
409.20 0.2781
409.30 0.2787
409.40 0.2792
409.50 0.2797
409.60 0.2803
409.70 0.2808
409.80 0.2814
409.90 0.2819
410.00 0.2824
410.10 0.283
410.20 0.2835
410.30 0.284
410.40 0.2846
410.50 0.2851
410.60 0.2857
410.70 0.2862
410.80 0.2868
410.90 0.2873
411.00 0.2879
411.10 0.2884
411.20 0.289
411.30 0.2895
411.40 0.2901
411.50 0.2906
411.60 0.2911
411.70 0.2917
411.80 0.2923
411.90 0.2928
412.00 0.2934
412.10 0.2939
412.20 0.2945
412.30 0.295
412.40 0.2956
412.50 0.2961
412.60 0.2967
412.70 0.2972
412.80 0.2978
412.90 0.2984
413.00 0.2989
413.10 0.2995
413.20 0.3
413.30 0.3006
413.40 0.3012
413.50 0.3017
413.60 0.3023
413.70 0.3028
413.80 0.3034
413.90 0.304
414.00 0.3045
414.10 0.3051
414.20 0.3057
414.30 0.3062
414.40 0.3068
414.50 0.3074
414.60 0.3079
414.70 0.3085
414.80 0.3091
414.90 0.3096
415.00 0.3102
415.10 0.3108
415.20 0.3114
415.30 0.3119
415.40 0.3125
415.50 0.3131
415.60 0.3137
415.70 0.3142
415.80 0.3148
415.90 0.3154
416.00 0.316
416.10 0.3165
416.20 0.3171
416.30 0.3177
416.40 0.3183
416.50 0.3189
416.60 0.3194
416.70 0.32
416.80 0.3206
416.90 0.3212
417.00 0.3218
417.10 0.3223
417.20 0.3229
417.30 0.3235
417.40 0.3241
417.50 0.3247
417.60 0.3253
417.70 0.3259
417.80 0.3265
417.90 0.3271
418.00 0.3277
418.10 0.3282
418.20 0.3288
418.30 0.3294
418.40 0.33
418.50 0.3306
418.60 0.3312
418.70 0.3318
418.80 0.3324
418.90 0.333
419.00 0.3336
419.10 0.3342
419.20 0.3348
419.30 0.3354
419.40 0.336
419.50 0.3366
419.60 0.3372
419.70 0.3378
419.80 0.3384
419.90 0.339
420.00 0.3396
420.10 0.3402
420.20 0.3408
420.30 0.3414
420.40 0.342
420.50 0.3426
420.60 0.3432
420.70 0.3438
420.80 0.3444
420.90 0.345
421.00 0.3456
421.10 0.3462
421.20 0.3469
421.30 0.3475
421.40 0.3481
421.50 0.3487
421.60 0.3493
421.70 0.3499
421.80 0.3505
421.90 0.3511
422.00 0.3518
422.10 0.3524
422.20 0.353
422.30 0.3536
422.40 0.3542
422.50 0.3549
422.60 0.3555
422.70 0.3561
422.80 0.3567
422.90 0.3573
423.00 0.358
423.10 0.3586
423.20 0.3592
423.30 0.3598
423.40 0.3604
423.50 0.3611
423.60 0.3617
423.70 0.3623
423.80 0.3629
423.90 0.3636
424.00 0.3642
424.10 0.3648
424.20 0.3655
424.30 0.3661
424.40 0.3667
424.50 0.3674
424.60 0.368
424.70 0.3686
424.80 0.3692
424.90 0.3699
425.00 0.3705
425.10 0.3711
425.20 0.3718
425.30 0.3724
425.40 0.3731
425.50 0.3737
425.60 0.3743
425.70 0.375
425.80 0.3756
425.90 0.3762
426.00 0.3769
426.10 0.3775
426.20 0.3782
426.30 0.3788
426.40 0.3795
426.50 0.3801
426.60 0.3807
426.70 0.3814
426.80 0.382
426.90 0.3827
427.00 0.3833
427.10 0.384
427.20 0.3846
427.30 0.3853
427.40 0.3859
427.50 0.3866
427.60 0.3872
427.70 0.3879
427.80 0.3885
427.90 0.3892
428.00 0.3898
428.10 0.3905
428.20 0.3911
428.30 0.3918
428.40 0.3924
428.50 0.3931
428.60 0.3937
428.70 0.3944
428.80 0.3951
428.90 0.3957
429.00 0.3964
429.10 0.397
429.20 0.3977
429.30 0.3984
429.40 0.399
429.50 0.3997
429.60 0.4003
429.70 0.401
429.80 0.4017
429.90 0.4023
430.00 0.403
430.10 0.4037
430.20 0.4043
430.30 0.405
430.40 0.4057
430.50 0.4063
430.60 0.407
430.70 0.4077
430.80 0.4083
430.90 0.409
431.00 0.4097
431.10 0.4103
431.20 0.411
431.30 0.4117
431.40 0.4124
431.50 0.413
431.60 0.4137
431.70 0.4144
431.80 0.4151
431.90 0.4157
432.00 0.4164
432.10 0.4171
432.20 0.4178
432.30 0.4184
432.40 0.4191
432.50 0.4198
432.60 0.4205
432.70 0.4212
432.80 0.4219
432.90 0.4225
433.00 0.4232
433.10 0.4239
433.20 0.4246
433.30 0.4253
433.40 0.426
433.50 0.4266
433.60 0.4273
433.70 0.428
433.80 0.4287
433.90 0.4294
434.00 0.4301
434.10 0.4308
434.20 0.4315
434.30 0.4322
434.40 0.4328
434.50 0.4335
434.60 0.4342
434.70 0.4349
434.80 0.4356
434.90 0.4363
435.00 0.437
435.10 0.4377
435.20 0.4384
435.30 0.4391
435.40 0.4398
435.50 0.4405
435.60 0.4412
435.70 0.4419
435.80 0.4426
435.90 0.4433
436.00 0.444
436.10 0.4447
436.20 0.4454
436.30 0.4461
436.40 0.4468
436.50 0.4475
436.60 0.4482
436.70 0.4489
436.80 0.4496
436.90 0.4503
437.00 0.451
437.10 0.4517
437.20 0.4524
437.30 0.4532
437.40 0.4539
437.50 0.4546
437.60 0.4553
437.70 0.456
437.80 0.4567
437.90 0.4574
438.00 0.4581
438.10 0.4588
438.20 0.4596
438.30 0.4603
438.40 0.461
438.50 0.4617
