# Version 2.1 - nm, norm@500 to 1, cut digits, bergeron_14500_85.dat_14500
# Wavelength(nm)  Flambda(ergs/cm^s/s/nm)
300.00 2.339
300.10 2.338
300.20 2.336
300.30 2.334
300.40 2.332
300.50 2.33
300.60 2.329
300.70 2.327
300.80 2.325
300.90 2.323
301.00 2.322
301.10 2.32
301.20 2.318
301.30 2.316
301.40 2.314
301.50 2.313
301.60 2.311
301.70 2.309
301.80 2.307
301.90 2.306
302.00 2.304
302.10 2.302
302.20 2.3
302.30 2.299
302.40 2.297
302.50 2.295
302.60 2.293
302.70 2.292
302.80 2.29
302.90 2.288
303.00 2.286
303.10 2.285
303.20 2.283
303.30 2.281
303.40 2.279
303.50 2.278
303.60 2.276
303.70 2.274
303.80 2.273
303.90 2.271
304.00 2.269
304.10 2.267
304.20 2.266
304.30 2.264
304.40 2.262
304.50 2.261
304.60 2.259
304.70 2.257
304.80 2.255
304.90 2.254
305.00 2.252
305.10 2.25
305.20 2.249
305.30 2.247
305.40 2.245
305.50 2.244
305.60 2.242
305.70 2.24
305.80 2.238
305.90 2.237
306.00 2.235
306.10 2.233
306.20 2.232
306.30 2.23
306.40 2.228
306.50 2.227
306.60 2.225
306.70 2.223
306.80 2.222
306.90 2.22
307.00 2.218
307.10 2.217
307.20 2.215
307.30 2.213
307.40 2.212
307.50 2.21
307.60 2.208
307.70 2.207
307.80 2.205
307.90 2.203
308.00 2.202
308.10 2.2
308.20 2.198
308.30 2.197
308.40 2.195
308.50 2.193
308.60 2.192
308.70 2.19
308.80 2.189
308.90 2.187
309.00 2.185
309.10 2.184
309.20 2.182
309.30 2.18
309.40 2.179
309.50 2.177
309.60 2.175
309.70 2.174
309.80 2.172
309.90 2.171
310.00 2.169
310.10 2.167
310.20 2.166
310.30 2.164
310.40 2.162
310.50 2.161
310.60 2.159
310.70 2.158
310.80 2.156
310.90 2.154
311.00 2.153
311.10 2.151
311.20 2.15
311.30 2.148
311.40 2.146
311.50 2.145
311.60 2.143
311.70 2.142
311.80 2.14
311.90 2.138
312.00 2.137
312.10 2.135
312.20 2.134
312.30 2.132
312.40 2.131
312.50 2.129
312.60 2.127
312.70 2.126
312.80 2.124
312.90 2.123
313.00 2.121
313.10 2.12
313.20 2.118
313.30 2.116
313.40 2.115
313.50 2.113
313.60 2.112
313.70 2.11
313.80 2.109
313.90 2.107
314.00 2.105
314.10 2.104
314.20 2.102
314.30 2.101
314.40 2.099
314.50 2.098
314.60 2.096
314.70 2.095
314.80 2.093
314.90 2.091
315.00 2.09
315.10 2.088
315.20 2.087
315.30 2.085
315.40 2.084
315.50 2.082
315.60 2.081
315.70 2.079
315.80 2.078
315.90 2.076
316.00 2.075
316.10 2.073
316.20 2.072
316.30 2.07
316.40 2.068
316.50 2.067
316.60 2.065
316.70 2.064
316.80 2.062
316.90 2.061
317.00 2.059
317.10 2.058
317.20 2.056
317.30 2.055
317.40 2.053
317.50 2.052
317.60 2.05
317.70 2.049
317.80 2.047
317.90 2.046
318.00 2.044
318.10 2.043
318.20 2.041
318.30 2.04
318.40 2.038
318.50 2.037
318.60 2.035
318.70 2.034
318.80 2.032
318.90 2.031
319.00 2.029
319.10 2.028
319.20 2.026
319.30 2.025
319.40 2.024
319.50 2.022
319.60 2.021
319.70 2.019
319.80 2.018
319.90 2.016
320.00 2.015
320.10 2.013
320.20 2.012
320.30 2.01
320.40 2.009
320.50 2.007
320.60 2.006
320.70 2.004
320.80 2.003
320.90 2.001
321.00 2
321.10 1.999
321.20 1.997
321.30 1.996
321.40 1.994
321.50 1.993
321.60 1.991
321.70 1.99
321.80 1.988
321.90 1.987
322.00 1.986
322.10 1.984
322.20 1.983
322.30 1.981
322.40 1.98
322.50 1.978
322.60 1.977
322.70 1.975
322.80 1.974
322.90 1.973
323.00 1.971
323.10 1.97
323.20 1.968
323.30 1.967
323.40 1.965
323.50 1.964
323.60 1.963
323.70 1.961
323.80 1.96
323.90 1.958
324.00 1.957
324.10 1.956
324.20 1.954
324.30 1.953
324.40 1.951
324.50 1.95
324.60 1.949
324.70 1.947
324.80 1.946
324.90 1.944
325.00 1.943
325.10 1.942
325.20 1.94
325.30 1.939
325.40 1.937
325.50 1.936
325.60 1.935
325.70 1.933
325.80 1.932
325.90 1.93
326.00 1.929
326.10 1.928
326.20 1.926
326.30 1.925
326.40 1.923
326.50 1.922
326.60 1.921
326.70 1.919
326.80 1.918
326.90 1.917
327.00 1.915
327.10 1.914
327.20 1.912
327.30 1.911
327.40 1.91
327.50 1.908
327.60 1.907
327.70 1.906
327.80 1.904
327.90 1.903
328.00 1.901
328.10 1.9
328.20 1.899
328.30 1.897
328.40 1.896
328.50 1.895
328.60 1.893
328.70 1.892
328.80 1.891
328.90 1.889
329.00 1.888
329.10 1.887
329.20 1.885
329.30 1.884
329.40 1.883
329.50 1.881
329.60 1.88
329.70 1.878
329.80 1.877
329.90 1.876
330.00 1.874
330.10 1.873
330.20 1.872
330.30 1.87
330.40 1.869
330.50 1.868
330.60 1.866
330.70 1.865
330.80 1.864
330.90 1.862
331.00 1.861
331.10 1.86
331.20 1.859
331.30 1.857
331.40 1.856
331.50 1.855
331.60 1.853
331.70 1.852
331.80 1.851
331.90 1.849
332.00 1.848
332.10 1.847
332.20 1.845
332.30 1.844
332.40 1.843
332.50 1.841
332.60 1.84
332.70 1.839
332.80 1.838
332.90 1.836
333.00 1.835
333.10 1.834
333.20 1.832
333.30 1.831
333.40 1.83
333.50 1.828
333.60 1.827
333.70 1.826
333.80 1.825
333.90 1.823
334.00 1.822
334.10 1.821
334.20 1.819
334.30 1.818
334.40 1.817
334.50 1.816
334.60 1.814
334.70 1.813
334.80 1.812
334.90 1.81
335.00 1.809
335.10 1.808
335.20 1.807
335.30 1.805
335.40 1.804
335.50 1.803
335.60 1.802
335.70 1.8
335.80 1.799
335.90 1.798
336.00 1.796
336.10 1.795
336.20 1.794
336.30 1.793
336.40 1.791
336.50 1.79
336.60 1.789
336.70 1.788
336.80 1.786
336.90 1.785
337.00 1.784
337.10 1.783
337.20 1.781
337.30 1.78
337.40 1.779
337.50 1.778
337.60 1.776
337.70 1.775
337.80 1.774
337.90 1.773
338.00 1.771
338.10 1.77
338.20 1.769
338.30 1.768
338.40 1.766
338.50 1.765
338.60 1.764
338.70 1.763
338.80 1.761
338.90 1.76
339.00 1.759
339.10 1.758
339.20 1.757
339.30 1.755
339.40 1.754
339.50 1.753
339.60 1.752
339.70 1.75
339.80 1.749
339.90 1.748
340.00 1.747
340.10 1.746
340.20 1.744
340.30 1.743
340.40 1.742
340.50 1.741
340.60 1.739
340.70 1.738
340.80 1.737
340.90 1.736
341.00 1.735
341.10 1.733
341.20 1.732
341.30 1.731
341.40 1.73
341.50 1.729
341.60 1.727
341.70 1.726
341.80 1.725
341.90 1.724
342.00 1.723
342.10 1.721
342.20 1.72
342.30 1.719
342.40 1.718
342.50 1.717
342.60 1.715
342.70 1.714
342.80 1.713
342.90 1.712
343.00 1.711
343.10 1.709
343.20 1.708
343.30 1.707
343.40 1.706
343.50 1.705
343.60 1.704
343.70 1.702
343.80 1.701
343.90 1.7
344.00 1.699
344.10 1.698
344.20 1.696
344.30 1.695
344.40 1.694
344.50 1.693
344.60 1.692
344.70 1.691
344.80 1.689
344.90 1.688
345.00 1.687
345.10 1.686
345.20 1.685
345.30 1.684
345.40 1.682
345.50 1.681
345.60 1.68
345.70 1.679
345.80 1.678
345.90 1.677
346.00 1.676
346.10 1.674
346.20 1.673
346.30 1.672
346.40 1.671
346.50 1.67
346.60 1.669
346.70 1.667
346.80 1.666
346.90 1.665
347.00 1.664
347.10 1.663
347.20 1.662
347.30 1.661
347.40 1.659
347.50 1.658
347.60 1.657
347.70 1.656
347.80 1.655
347.90 1.654
348.00 1.653
348.10 1.651
348.20 1.65
348.30 1.649
348.40 1.648
348.50 1.647
348.60 1.646
348.70 1.645
348.80 1.644
348.90 1.642
349.00 1.641
349.10 1.64
349.20 1.639
349.30 1.638
349.40 1.637
349.50 1.636
349.60 1.635
349.70 1.633
349.80 1.632
349.90 1.631
350.00 1.63
350.10 1.629
350.20 1.628
350.30 1.627
350.40 1.626
350.50 1.625
350.60 1.623
350.70 1.622
350.80 1.621
350.90 1.62
351.00 1.619
351.10 1.618
351.20 1.617
351.30 1.616
351.40 1.615
351.50 1.613
351.60 1.612
351.70 1.611
351.80 1.61
351.90 1.609
352.00 1.608
352.10 1.607
352.20 1.606
352.30 1.605
352.40 1.604
352.50 1.602
352.60 1.601
352.70 1.6
352.80 1.599
352.90 1.598
353.00 1.597
353.10 1.596
353.20 1.595
353.30 1.594
353.40 1.593
353.50 1.592
353.60 1.591
353.70 1.589
353.80 1.588
353.90 1.587
354.00 1.586
354.10 1.585
354.20 1.584
354.30 1.583
354.40 1.582
354.50 1.581
354.60 1.58
354.70 1.579
354.80 1.578
354.90 1.577
355.00 1.575
355.10 1.574
355.20 1.573
355.30 1.572
355.40 1.571
355.50 1.57
355.60 1.569
355.70 1.568
355.80 1.567
355.90 1.566
356.00 1.565
356.10 1.564
356.20 1.563
356.30 1.562
356.40 1.561
356.50 1.56
356.60 1.559
356.70 1.557
356.80 1.556
356.90 1.555
357.00 1.554
357.10 1.553
357.20 1.552
357.30 1.551
357.40 1.55
357.50 1.549
357.60 1.548
357.70 1.547
357.80 1.546
357.90 1.545
358.00 1.544
358.10 1.543
358.20 1.542
358.30 1.541
358.40 1.54
358.50 1.539
358.60 1.538
358.70 1.537
358.80 1.536
358.90 1.535
359.00 1.534
359.10 1.532
359.20 1.531
359.30 1.53
359.40 1.529
359.50 1.528
359.60 1.527
359.70 1.526
359.80 1.525
359.90 1.524
360.00 1.523
360.10 1.522
360.20 1.521
360.30 1.52
360.40 1.519
360.50 1.518
360.60 1.517
360.70 1.516
360.80 1.515
360.90 1.514
361.00 1.513
361.10 1.512
361.20 1.511
361.30 1.51
361.40 1.509
361.50 1.508
361.60 1.507
361.70 1.506
361.80 1.505
361.90 1.504
362.00 1.503
362.10 1.502
362.20 1.501
362.30 1.5
362.40 1.499
362.50 1.498
362.60 1.497
362.70 1.496
362.80 1.495
362.90 1.494
363.00 1.493
363.10 1.492
363.20 1.491
363.30 1.49
363.40 1.488
363.50 1.487
363.60 1.486
363.70 1.485
363.80 1.484
363.90 1.483
364.00 1.482
364.10 1.481
364.20 1.479
364.30 1.478
364.40 1.477
364.50 1.476
364.60 1.475
364.70 1.474
364.80 1.473
364.90 1.471
365.00 1.47
365.10 1.469
365.20 1.468
365.30 1.467
365.40 1.466
365.50 1.464
365.60 1.463
365.70 1.462
365.80 1.461
365.90 1.46
366.00 1.459
366.10 1.458
366.20 1.457
366.30 1.456
366.40 1.455
366.50 1.454
366.60 1.453
366.70 1.452
366.80 1.451
366.90 1.45
367.00 1.448
367.10 1.447
367.20 1.446
367.30 1.445
367.40 1.444
367.50 1.443
367.60 1.442
367.70 1.441
367.80 1.44
367.90 1.439
368.00 1.438
368.10 1.437
368.20 1.436
368.30 1.435
368.40 1.435
368.50 1.434
368.60 1.433
368.70 1.432
368.80 1.431
368.90 1.43
369.00 1.429
369.10 1.428
369.20 1.427
369.30 1.426
369.40 1.425
369.50 1.424
369.60 1.423
369.70 1.422
369.80 1.421
369.90 1.42
370.00 1.419
370.10 1.418
370.20 1.418
370.30 1.417
370.40 1.416
370.50 1.415
370.60 1.415
370.70 1.414
370.80 1.413
370.90 1.413
371.00 1.412
371.10 1.411
371.20 1.41
371.30 1.41
371.40 1.409
371.50 1.408
371.60 1.407
371.70 1.407
371.80 1.406
371.90 1.405
372.00 1.404
372.10 1.404
372.20 1.404
372.30 1.403
372.40 1.403
372.50 1.403
372.60 1.402
372.70 1.402
372.80 1.402
372.90 1.402
373.00 1.401
373.10 1.401
373.20 1.401
373.30 1.4
373.40 1.4
373.50 1.4
373.60 1.399
373.70 1.399
373.80 1.399
373.90 1.398
374.00 1.398
374.10 1.398
374.20 1.398
374.30 1.398
374.40 1.398
374.50 1.398
374.60 1.398
374.70 1.398
374.80 1.398
374.90 1.398
375.00 1.398
375.10 1.398
375.20 1.398
375.30 1.398
375.40 1.398
375.50 1.398
375.60 1.398
375.70 1.398
375.80 1.398
375.90 1.398
376.00 1.398
376.10 1.397
376.20 1.397
376.30 1.397
376.40 1.397
376.50 1.397
376.60 1.397
376.70 1.397
376.80 1.396
376.90 1.396
377.00 1.396
377.10 1.395
377.20 1.394
377.30 1.394
377.40 1.393
377.50 1.392
377.60 1.391
377.70 1.391
377.80 1.39
377.90 1.389
378.00 1.388
378.10 1.385
378.20 1.383
378.30 1.38
378.40 1.377
378.50 1.374
378.60 1.371
378.70 1.369
378.80 1.366
378.90 1.363
379.00 1.36
379.10 1.358
379.20 1.357
379.30 1.355
379.40 1.353
379.50 1.351
379.60 1.349
379.70 1.347
379.80 1.345
379.90 1.343
380.00 1.342
380.10 1.344
380.20 1.346
380.30 1.348
380.40 1.351
380.50 1.353
380.60 1.355
380.70 1.357
380.80 1.36
380.90 1.362
381.00 1.364
381.10 1.364
381.20 1.365
381.30 1.365
381.40 1.366
381.50 1.366
381.60 1.366
381.70 1.364
381.80 1.363
381.90 1.36
382.00 1.358
382.10 1.354
382.20 1.351
382.30 1.344
382.40 1.337
382.50 1.33
382.60 1.323
382.70 1.316
382.80 1.31
382.90 1.303
383.00 1.296
383.10 1.289
383.20 1.282
383.30 1.278
383.40 1.273
383.50 1.267
383.60 1.268
383.70 1.274
383.80 1.279
383.90 1.284
384.00 1.29
384.10 1.299
384.20 1.307
384.30 1.316
384.40 1.324
384.50 1.332
384.60 1.339
384.70 1.345
384.80 1.35
384.90 1.354
385.00 1.358
385.10 1.361
385.20 1.364
385.30 1.366
385.40 1.367
385.50 1.368
385.60 1.369
385.70 1.369
385.80 1.369
385.90 1.368
386.00 1.367
386.10 1.365
386.20 1.363
386.30 1.361
386.40 1.358
386.50 1.354
386.60 1.351
386.70 1.346
386.80 1.342
386.90 1.337
387.00 1.331
387.10 1.325
387.20 1.319
387.30 1.312
387.40 1.304
387.50 1.296
387.60 1.287
387.70 1.277
387.80 1.266
387.90 1.255
388.00 1.242
388.10 1.228
388.20 1.212
388.30 1.196
388.40 1.178
388.50 1.162
388.60 1.147
388.70 1.137
388.80 1.129
388.90 1.122
389.00 1.128
389.10 1.137
389.20 1.146
389.30 1.161
389.40 1.177
389.50 1.195
389.60 1.212
389.70 1.228
389.80 1.243
389.90 1.257
390.00 1.269
390.10 1.281
390.20 1.291
390.30 1.301
390.40 1.311
390.50 1.319
390.60 1.328
390.70 1.335
390.80 1.343
390.90 1.349
391.00 1.356
391.10 1.362
391.20 1.367
391.30 1.373
391.40 1.377
391.50 1.382
391.60 1.386
391.70 1.39
391.80 1.393
391.90 1.396
392.00 1.398
392.10 1.4
392.20 1.401
392.30 1.402
392.40 1.402
392.50 1.403
392.60 1.402
392.70 1.401
392.80 1.4
392.90 1.398
393.00 1.396
393.10 1.393
393.20 1.39
393.30 1.386
393.40 1.382
393.50 1.377
393.60 1.372
393.70 1.366
393.80 1.36
393.90 1.353
394.00 1.346
394.10 1.338
394.20 1.33
394.30 1.322
394.40 1.312
394.50 1.303
394.60 1.293
394.70 1.282
394.80 1.271
394.90 1.26
395.00 1.248
395.10 1.236
395.20 1.223
395.30 1.21
395.40 1.196
395.50 1.182
395.60 1.167
395.70 1.152
395.80 1.137
395.90 1.12
396.00 1.103
396.10 1.086
396.20 1.066
396.30 1.045
396.40 1.023
396.50 0.9962
396.60 0.969
396.70 0.9411
396.80 0.9204
396.90 0.8995
397.00 0.8785
397.10 0.8975
397.20 0.9166
397.30 0.9358
397.40 0.9628
397.50 0.9895
397.60 1.016
397.70 1.038
397.80 1.059
397.90 1.078
398.00 1.095
398.10 1.112
398.20 1.128
398.30 1.143
398.40 1.158
398.50 1.173
398.60 1.187
398.70 1.201
398.80 1.214
398.90 1.227
399.00 1.24
399.10 1.252
399.20 1.264
399.30 1.276
399.40 1.288
399.50 1.299
399.60 1.31
399.70 1.32
399.80 1.331
399.90 1.34
400.00 1.35
400.10 1.359
400.20 1.368
400.30 1.377
400.40 1.385
400.50 1.393
400.60 1.4
400.70 1.407
400.80 1.414
400.90 1.421
401.00 1.427
401.10 1.433
401.20 1.439
401.30 1.444
401.40 1.449
401.50 1.454
401.60 1.458
401.70 1.462
401.80 1.466
401.90 1.47
402.00 1.473
402.10 1.476
402.20 1.479
402.30 1.481
402.40 1.483
402.50 1.485
402.60 1.486
402.70 1.488
402.80 1.489
402.90 1.489
403.00 1.49
403.10 1.49
403.20 1.489
403.30 1.489
403.40 1.488
403.50 1.487
403.60 1.486
403.70 1.484
403.80 1.482
403.90 1.48
404.00 1.477
404.10 1.474
404.20 1.471
404.30 1.468
404.40 1.464
404.50 1.46
404.60 1.455
404.70 1.451
404.80 1.446
404.90 1.441
405.00 1.435
405.10 1.429
405.20 1.423
405.30 1.417
405.40 1.41
405.50 1.403
405.60 1.396
405.70 1.388
405.80 1.38
405.90 1.372
406.00 1.364
406.10 1.355
406.20 1.346
406.30 1.336
406.40 1.326
406.50 1.316
406.60 1.306
406.70 1.295
406.80 1.284
406.90 1.273
407.00 1.262
407.10 1.25
407.20 1.238
407.30 1.225
407.40 1.212
407.50 1.199
407.60 1.185
407.70 1.171
407.80 1.157
407.90 1.143
408.00 1.128
408.10 1.113
408.20 1.098
408.30 1.083
408.40 1.067
408.50 1.051
408.60 1.034
408.70 1.018
408.80 1.001
408.90 0.9835
409.00 0.9661
409.10 0.9485
409.20 0.9306
409.30 0.9125
409.40 0.8931
409.50 0.8723
409.60 0.8502
409.70 0.8243
409.80 0.7968
409.90 0.7677
410.00 0.7403
410.10 0.7186
410.20 0.7027
410.30 0.7275
410.40 0.7537
410.50 0.7815
410.60 0.8091
410.70 0.8347
410.80 0.8584
410.90 0.8785
411.00 0.8974
411.10 0.9153
411.20 0.9322
411.30 0.949
411.40 0.9655
411.50 0.9817
411.60 0.9977
411.70 1.014
411.80 1.029
411.90 1.044
412.00 1.059
412.10 1.073
412.20 1.088
412.30 1.102
412.40 1.115
412.50 1.129
412.60 1.142
412.70 1.155
412.80 1.167
412.90 1.18
413.00 1.192
413.10 1.203
413.20 1.215
413.30 1.226
413.40 1.237
413.50 1.248
413.60 1.258
413.70 1.268
413.80 1.278
413.90 1.288
414.00 1.297
414.10 1.306
414.20 1.315
414.30 1.324
414.40 1.332
414.50 1.341
414.60 1.349
414.70 1.357
414.80 1.364
414.90 1.372
415.00 1.379
415.10 1.386
415.20 1.393
415.30 1.4
415.40 1.407
415.50 1.413
415.60 1.419
415.70 1.425
415.80 1.431
415.90 1.437
416.00 1.443
416.10 1.448
416.20 1.453
416.30 1.458
416.40 1.463
416.50 1.468
416.60 1.473
416.70 1.477
416.80 1.482
416.90 1.486
417.00 1.49
417.10 1.494
417.20 1.498
417.30 1.502
417.40 1.505
417.50 1.509
417.60 1.512
417.70 1.515
417.80 1.518
417.90 1.521
418.00 1.524
418.10 1.526
418.20 1.529
418.30 1.532
418.40 1.534
418.50 1.536
418.60 1.538
418.70 1.54
418.80 1.542
418.90 1.544
419.00 1.546
419.10 1.547
419.20 1.549
419.30 1.55
419.40 1.551
419.50 1.553
419.60 1.554
419.70 1.555
419.80 1.556
419.90 1.557
420.00 1.557
420.10 1.558
420.20 1.558
420.30 1.559
420.40 1.559
420.50 1.56
420.60 1.56
420.70 1.56
420.80 1.56
420.90 1.56
421.00 1.56
421.10 1.559
421.20 1.559
421.30 1.559
421.40 1.558
421.50 1.558
421.60 1.557
421.70 1.556
421.80 1.555
421.90 1.555
422.00 1.554
422.10 1.552
422.20 1.551
422.30 1.55
422.40 1.549
422.50 1.547
422.60 1.546
422.70 1.544
422.80 1.543
422.90 1.541
423.00 1.539
423.10 1.537
423.20 1.535
423.30 1.533
423.40 1.531
423.50 1.529
423.60 1.526
423.70 1.524
423.80 1.522
423.90 1.519
424.00 1.517
424.10 1.514
424.20 1.511
424.30 1.508
424.40 1.505
424.50 1.502
424.60 1.499
424.70 1.496
424.80 1.492
424.90 1.489
425.00 1.485
425.10 1.482
425.20 1.478
425.30 1.474
425.40 1.47
425.50 1.466
425.60 1.462
425.70 1.458
425.80 1.454
425.90 1.449
426.00 1.445
426.10 1.44
426.20 1.435
426.30 1.429
426.40 1.425
426.50 1.419
426.60 1.414
426.70 1.409
426.80 1.404
426.90 1.399
427.00 1.393
427.10 1.387
427.20 1.382
427.30 1.376
427.40 1.37
427.50 1.364
427.60 1.358
427.70 1.351
427.80 1.345
427.90 1.338
428.00 1.332
428.10 1.325
428.20 1.318
428.30 1.311
428.40 1.304
428.50 1.296
428.60 1.289
428.70 1.282
428.80 1.274
428.90 1.266
429.00 1.258
429.10 1.25
429.20 1.242
429.30 1.233
429.40 1.225
429.50 1.216
429.60 1.208
429.70 1.199
429.80 1.189
429.90 1.18
430.00 1.171
430.10 1.161
430.20 1.152
430.30 1.142
430.40 1.132
430.50 1.122
430.60 1.111
430.70 1.101
430.80 1.09
430.90 1.079
431.00 1.068
431.10 1.057
431.20 1.045
431.30 1.034
431.40 1.022
431.50 1.01
431.60 0.9975
431.70 0.9851
431.80 0.9725
431.90 0.9595
432.00 0.9463
432.10 0.933
432.20 0.9191
432.30 0.905
432.40 0.8907
432.50 0.8756
432.60 0.8602
432.70 0.8445
432.80 0.8284
432.90 0.8123
433.00 0.7962
433.10 0.7806
433.20 0.7651
433.30 0.7498
433.40 0.7334
433.50 0.7158
433.60 0.6967
433.70 0.6716
433.80 0.6426
433.90 0.6096
434.00 0.5622
434.10 0.563
434.20 0.6118
434.30 0.6438
434.40 0.6718
434.50 0.6959
434.60 0.714
434.70 0.7308
434.80 0.7463
434.90 0.7609
435.00 0.7756
435.10 0.7903
435.20 0.8055
435.30 0.8206
435.40 0.8358
435.50 0.8505
435.60 0.8648
435.70 0.8787
435.80 0.8919
435.90 0.9048
436.00 0.9175
436.10 0.9296
436.20 0.9415
436.30 0.9533
436.40 0.9646
436.50 0.9757
436.60 0.9867
436.70 0.9973
436.80 1.008
436.90 1.018
437.00 1.028
437.10 1.038
437.20 1.047
437.30 1.057
437.40 1.066
437.50 1.075
437.60 1.084
437.70 1.092
437.80 1.101
437.90 1.109
438.00 1.117
438.10 1.125
438.20 1.133
438.30 1.141
438.40 1.148
438.50 1.155
438.60 1.163
438.70 1.17
438.80 1.176
438.90 1.183
439.00 1.19
439.10 1.196
439.20 1.202
439.30 1.208
439.40 1.214
439.50 1.22
439.60 1.226
439.70 1.232
439.80 1.237
439.90 1.242
440.00 1.248
440.10 1.253
440.20 1.258
440.30 1.263
440.40 1.267
440.50 1.272
440.60 1.277
440.70 1.281
440.80 1.285
440.90 1.29
441.00 1.294
441.10 1.298
441.20 1.302
441.30 1.306
441.40 1.309
441.50 1.313
441.60 1.317
441.70 1.32
441.80 1.323
441.90 1.327
442.00 1.33
442.10 1.333
442.20 1.336
442.30 1.339
442.40 1.342
442.50 1.345
442.60 1.347
442.70 1.35
442.80 1.353
442.90 1.355
443.00 1.357
443.10 1.36
443.20 1.362
443.30 1.364
443.40 1.366
443.50 1.368
443.60 1.37
443.70 1.372
443.80 1.374
443.90 1.376
444.00 1.378
444.10 1.38
444.20 1.381
444.30 1.383
444.40 1.385
444.50 1.386
444.60 1.387
444.70 1.389
444.80 1.39
444.90 1.392
445.00 1.393
445.10 1.394
445.20 1.395
445.30 1.396
445.40 1.397
445.50 1.398
445.60 1.399
445.70 1.4
445.80 1.401
445.90 1.402
446.00 1.403
446.10 1.404
446.20 1.405
446.30 1.405
446.40 1.406
446.50 1.407
446.60 1.407
446.70 1.408
446.80 1.408
446.90 1.409
447.00 1.409
447.10 1.41
447.20 1.41
447.30 1.411
447.40 1.411
447.50 1.411
447.60 1.412
447.70 1.412
447.80 1.412
447.90 1.412
448.00 1.413
448.10 1.413
448.20 1.413
448.30 1.413
448.40 1.413
448.50 1.413
448.60 1.413
448.70 1.413
448.80 1.413
448.90 1.413
449.00 1.414
449.10 1.414
449.20 1.414
449.30 1.414
449.40 1.414
449.50 1.414
449.60 1.413
449.70 1.413
449.80 1.413
449.90 1.413
450.00 1.413
450.10 1.413
450.20 1.412
450.30 1.412
450.40 1.412
450.50 1.412
450.60 1.411
450.70 1.411
450.80 1.411
450.90 1.41
451.00 1.41
451.10 1.41
451.20 1.409
451.30 1.409
451.40 1.409
451.50 1.408
451.60 1.408
451.70 1.407
451.80 1.407
451.90 1.406
452.00 1.406
452.10 1.406
452.20 1.405
452.30 1.405
452.40 1.404
452.50 1.404
452.60 1.403
452.70 1.402
452.80 1.402
452.90 1.401
453.00 1.401
453.10 1.4
453.20 1.4
453.30 1.399
453.40 1.399
