# Version 2.1 - nm, norm@500 to 1, cut digits, bergeron_100000_65.dat_100000
# Wavelength(nm)  Flambda(ergs/cm^s/s/nm)
300.00 6.824
300.10 6.816
300.20 6.807
300.30 6.799
300.40 6.79
300.50 6.782
300.60 6.773
300.70 6.765
300.80 6.756
300.90 6.748
301.00 6.739
301.10 6.731
301.20 6.722
301.30 6.714
301.40 6.706
301.50 6.697
301.60 6.689
301.70 6.68
301.80 6.672
301.90 6.664
302.00 6.656
302.10 6.647
302.20 6.639
302.30 6.631
302.40 6.622
302.50 6.614
302.60 6.606
302.70 6.598
302.80 6.59
302.90 6.581
303.00 6.573
303.10 6.565
303.20 6.557
303.30 6.549
303.40 6.541
303.50 6.532
303.60 6.524
303.70 6.516
303.80 6.508
303.90 6.5
304.00 6.492
304.10 6.484
304.20 6.476
304.30 6.468
304.40 6.46
304.50 6.452
304.60 6.444
304.70 6.436
304.80 6.428
304.90 6.42
305.00 6.412
305.10 6.404
305.20 6.396
305.30 6.388
305.40 6.381
305.50 6.373
305.60 6.365
305.70 6.357
305.80 6.349
305.90 6.341
306.00 6.334
306.10 6.326
306.20 6.318
306.30 6.31
306.40 6.302
306.50 6.295
306.60 6.287
306.70 6.279
306.80 6.272
306.90 6.264
307.00 6.256
307.10 6.248
307.20 6.241
307.30 6.233
307.40 6.226
307.50 6.218
307.60 6.21
307.70 6.203
307.80 6.195
307.90 6.187
308.00 6.18
308.10 6.172
308.20 6.165
308.30 6.157
308.40 6.15
308.50 6.142
308.60 6.135
308.70 6.127
308.80 6.12
308.90 6.112
309.00 6.105
309.10 6.097
309.20 6.09
309.30 6.083
309.40 6.075
309.50 6.068
309.60 6.06
309.70 6.053
309.80 6.046
309.90 6.038
310.00 6.031
310.10 6.024
310.20 6.016
310.30 6.009
310.40 6.002
310.50 5.994
310.60 5.987
310.70 5.98
310.80 5.973
310.90 5.965
311.00 5.958
311.10 5.951
311.20 5.944
311.30 5.936
311.40 5.929
311.50 5.922
311.60 5.915
311.70 5.908
311.80 5.901
311.90 5.894
312.00 5.886
312.10 5.879
312.20 5.872
312.30 5.865
312.40 5.858
312.50 5.851
312.60 5.844
312.70 5.837
312.80 5.83
312.90 5.823
313.00 5.816
313.10 5.809
313.20 5.802
313.30 5.795
313.40 5.788
313.50 5.781
313.60 5.774
313.70 5.767
313.80 5.76
313.90 5.753
314.00 5.746
314.10 5.739
314.20 5.732
314.30 5.725
314.40 5.719
314.50 5.712
314.60 5.705
314.70 5.698
314.80 5.691
314.90 5.684
315.00 5.678
315.10 5.671
315.20 5.664
315.30 5.657
315.40 5.65
315.50 5.644
315.60 5.637
315.70 5.63
315.80 5.623
315.90 5.617
316.00 5.61
316.10 5.603
316.20 5.597
316.30 5.59
316.40 5.583
316.50 5.577
316.60 5.57
316.70 5.563
316.80 5.557
316.90 5.55
317.00 5.543
317.10 5.537
317.20 5.53
317.30 5.524
317.40 5.517
317.50 5.511
317.60 5.504
317.70 5.498
317.80 5.491
317.90 5.484
318.00 5.478
318.10 5.471
318.20 5.465
318.30 5.458
318.40 5.452
318.50 5.446
318.60 5.439
318.70 5.433
318.80 5.426
318.90 5.42
319.00 5.413
319.10 5.407
319.20 5.401
319.30 5.394
319.40 5.388
319.50 5.381
319.60 5.375
319.70 5.369
319.80 5.362
319.90 5.356
320.00 5.35
320.10 5.343
320.20 5.337
320.30 5.331
320.40 5.325
320.50 5.318
320.60 5.312
320.70 5.306
320.80 5.3
320.90 5.293
321.00 5.287
321.10 5.281
321.20 5.275
321.30 5.268
321.40 5.262
321.50 5.256
321.60 5.25
321.70 5.244
321.80 5.238
321.90 5.231
322.00 5.225
322.10 5.219
322.20 5.213
322.30 5.207
322.40 5.201
322.50 5.195
322.60 5.189
322.70 5.183
322.80 5.177
322.90 5.17
323.00 5.164
323.10 5.158
323.20 5.152
323.30 5.146
323.40 5.14
323.50 5.134
323.60 5.128
323.70 5.122
323.80 5.116
323.90 5.11
324.00 5.104
324.10 5.098
324.20 5.093
324.30 5.087
324.40 5.081
324.50 5.075
324.60 5.069
324.70 5.063
324.80 5.057
324.90 5.051
325.00 5.045
325.10 5.039
325.20 5.034
325.30 5.028
325.40 5.022
325.50 5.016
325.60 5.01
325.70 5.004
325.80 4.999
325.90 4.993
326.00 4.987
326.10 4.981
326.20 4.975
326.30 4.97
326.40 4.964
326.50 4.958
326.60 4.953
326.70 4.947
326.80 4.941
326.90 4.935
327.00 4.93
327.10 4.924
327.20 4.918
327.30 4.913
327.40 4.907
327.50 4.901
327.60 4.896
327.70 4.89
327.80 4.884
327.90 4.879
328.00 4.873
328.10 4.867
328.20 4.862
328.30 4.856
328.40 4.851
328.50 4.845
328.60 4.839
328.70 4.834
328.80 4.828
328.90 4.823
329.00 4.817
329.10 4.812
329.20 4.806
329.30 4.801
329.40 4.795
329.50 4.79
329.60 4.784
329.70 4.779
329.80 4.773
329.90 4.768
330.00 4.762
330.10 4.757
330.20 4.751
330.30 4.746
330.40 4.741
330.50 4.735
330.60 4.73
330.70 4.724
330.80 4.719
330.90 4.714
331.00 4.708
331.10 4.703
331.20 4.697
331.30 4.692
331.40 4.687
331.50 4.681
331.60 4.676
331.70 4.671
331.80 4.665
331.90 4.66
332.00 4.655
332.10 4.649
332.20 4.644
332.30 4.639
332.40 4.634
332.50 4.628
332.60 4.623
332.70 4.618
332.80 4.612
332.90 4.607
333.00 4.602
333.10 4.597
333.20 4.592
333.30 4.586
333.40 4.581
333.50 4.576
333.60 4.571
333.70 4.566
333.80 4.56
333.90 4.555
334.00 4.55
334.10 4.545
334.20 4.54
334.30 4.535
334.40 4.529
334.50 4.524
334.60 4.519
334.70 4.514
334.80 4.509
334.90 4.504
335.00 4.499
335.10 4.494
335.20 4.489
335.30 4.484
335.40 4.479
335.50 4.474
335.60 4.468
335.70 4.463
335.80 4.458
335.90 4.453
336.00 4.448
336.10 4.443
336.20 4.438
336.30 4.433
336.40 4.428
336.50 4.423
336.60 4.418
336.70 4.413
336.80 4.409
336.90 4.404
337.00 4.399
337.10 4.394
337.20 4.389
337.30 4.384
337.40 4.379
337.50 4.374
337.60 4.369
337.70 4.364
337.80 4.359
337.90 4.354
338.00 4.349
338.10 4.345
338.20 4.34
338.30 4.335
338.40 4.33
338.50 4.325
338.60 4.32
338.70 4.316
338.80 4.311
338.90 4.306
339.00 4.301
339.10 4.296
339.20 4.292
339.30 4.287
339.40 4.282
339.50 4.277
339.60 4.272
339.70 4.268
339.80 4.263
339.90 4.258
340.00 4.253
340.10 4.249
340.20 4.244
340.30 4.239
340.40 4.234
340.50 4.23
340.60 4.225
340.70 4.22
340.80 4.216
340.90 4.211
341.00 4.206
341.10 4.202
341.20 4.197
341.30 4.192
341.40 4.188
341.50 4.183
341.60 4.178
341.70 4.174
341.80 4.169
341.90 4.164
342.00 4.16
342.10 4.155
342.20 4.151
342.30 4.146
342.40 4.142
342.50 4.137
342.60 4.132
342.70 4.128
342.80 4.123
342.90 4.119
343.00 4.114
343.10 4.11
343.20 4.105
343.30 4.101
343.40 4.096
343.50 4.091
343.60 4.087
343.70 4.082
343.80 4.078
343.90 4.073
344.00 4.069
344.10 4.064
344.20 4.06
344.30 4.056
344.40 4.051
344.50 4.047
344.60 4.042
344.70 4.038
344.80 4.033
344.90 4.029
345.00 4.024
345.10 4.02
345.20 4.016
345.30 4.011
345.40 4.007
345.50 4.002
345.60 3.998
345.70 3.994
345.80 3.989
345.90 3.985
346.00 3.98
346.10 3.976
346.20 3.972
346.30 3.967
346.40 3.963
346.50 3.959
346.60 3.954
346.70 3.95
346.80 3.946
346.90 3.942
347.00 3.937
347.10 3.933
347.20 3.929
347.30 3.924
347.40 3.92
347.50 3.916
347.60 3.911
347.70 3.907
347.80 3.903
347.90 3.899
348.00 3.894
348.10 3.89
348.20 3.886
348.30 3.882
348.40 3.878
348.50 3.873
348.60 3.869
348.70 3.865
348.80 3.861
348.90 3.857
349.00 3.852
349.10 3.848
349.20 3.844
349.30 3.84
349.40 3.836
349.50 3.831
349.60 3.827
349.70 3.823
349.80 3.819
349.90 3.815
350.00 3.811
350.10 3.807
350.20 3.802
350.30 3.798
350.40 3.794
350.50 3.79
350.60 3.786
350.70 3.782
350.80 3.778
350.90 3.774
351.00 3.77
351.10 3.766
351.20 3.762
351.30 3.758
351.40 3.753
351.50 3.749
351.60 3.745
351.70 3.741
351.80 3.737
351.90 3.733
352.00 3.729
352.10 3.725
352.20 3.721
352.30 3.717
352.40 3.713
352.50 3.709
352.60 3.705
352.70 3.701
352.80 3.697
352.90 3.693
353.00 3.689
353.10 3.685
353.20 3.681
353.30 3.677
353.40 3.673
353.50 3.67
353.60 3.666
353.70 3.662
353.80 3.658
353.90 3.654
354.00 3.65
354.10 3.646
354.20 3.642
354.30 3.638
354.40 3.634
354.50 3.63
354.60 3.627
354.70 3.623
354.80 3.619
354.90 3.615
355.00 3.611
355.10 3.607
355.20 3.603
355.30 3.599
355.40 3.596
355.50 3.592
355.60 3.588
355.70 3.584
355.80 3.58
355.90 3.576
356.00 3.573
356.10 3.569
356.20 3.565
356.30 3.561
356.40 3.557
356.50 3.554
356.60 3.55
356.70 3.546
356.80 3.542
356.90 3.539
357.00 3.535
357.10 3.531
357.20 3.527
357.30 3.524
357.40 3.52
357.50 3.516
357.60 3.512
357.70 3.509
357.80 3.505
357.90 3.501
358.00 3.497
358.10 3.494
358.20 3.49
358.30 3.486
358.40 3.483
358.50 3.479
358.60 3.475
358.70 3.472
358.80 3.468
358.90 3.464
359.00 3.461
359.10 3.457
359.20 3.453
359.30 3.45
359.40 3.446
359.50 3.442
359.60 3.439
359.70 3.435
359.80 3.431
359.90 3.428
360.00 3.424
360.10 3.421
360.20 3.417
360.30 3.413
360.40 3.41
360.50 3.406
360.60 3.403
360.70 3.399
360.80 3.396
360.90 3.392
361.00 3.388
361.10 3.385
361.20 3.381
361.30 3.378
361.40 3.374
361.50 3.371
361.60 3.367
361.70 3.364
361.80 3.36
361.90 3.356
362.00 3.353
362.10 3.349
362.20 3.346
362.30 3.342
362.40 3.339
362.50 3.335
362.60 3.332
362.70 3.328
362.80 3.325
362.90 3.321
363.00 3.318
363.10 3.314
363.20 3.311
363.30 3.308
363.40 3.304
363.50 3.301
363.60 3.297
363.70 3.294
363.80 3.29
363.90 3.287
364.00 3.283
364.10 3.28
364.20 3.277
364.30 3.273
364.40 3.27
364.50 3.266
364.60 3.263
364.70 3.26
364.80 3.256
364.90 3.253
365.00 3.249
365.10 3.246
365.20 3.243
365.30 3.239
365.40 3.236
365.50 3.233
365.60 3.229
365.70 3.226
365.80 3.222
365.90 3.219
366.00 3.216
366.10 3.212
366.20 3.209
366.30 3.206
366.40 3.202
366.50 3.199
366.60 3.195
366.70 3.192
366.80 3.189
366.90 3.185
367.00 3.182
367.10 3.179
367.20 3.175
367.30 3.172
367.40 3.169
367.50 3.165
367.60 3.162
367.70 3.159
367.80 3.155
367.90 3.152
368.00 3.149
368.10 3.145
368.20 3.142
368.30 3.139
368.40 3.135
368.50 3.132
368.60 3.129
368.70 3.126
368.80 3.122
368.90 3.119
369.00 3.116
369.10 3.112
369.20 3.109
369.30 3.106
369.40 3.103
369.50 3.099
369.60 3.096
369.70 3.093
369.80 3.09
369.90 3.086
370.00 3.083
370.10 3.08
370.20 3.077
370.30 3.074
370.40 3.07
370.50 3.067
370.60 3.064
370.70 3.061
370.80 3.058
370.90 3.054
371.00 3.051
371.10 3.048
371.20 3.045
371.30 3.042
371.40 3.039
371.50 3.035
371.60 3.032
371.70 3.029
371.80 3.026
371.90 3.023
372.00 3.02
372.10 3.017
372.20 3.014
372.30 3.011
372.40 3.007
372.50 3.004
372.60 3.001
372.70 2.998
372.80 2.995
372.90 2.992
373.00 2.989
373.10 2.986
373.20 2.983
373.30 2.98
373.40 2.977
373.50 2.974
373.60 2.971
373.70 2.968
373.80 2.965
373.90 2.962
374.00 2.959
374.10 2.956
374.20 2.953
374.30 2.95
374.40 2.947
374.50 2.945
374.60 2.942
374.70 2.939
374.80 2.936
374.90 2.933
375.00 2.93
375.10 2.927
375.20 2.924
375.30 2.922
375.40 2.919
375.50 2.916
375.60 2.913
375.70 2.91
375.80 2.907
375.90 2.904
376.00 2.902
376.10 2.898
376.20 2.895
376.30 2.892
376.40 2.889
376.50 2.886
376.60 2.883
376.70 2.88
376.80 2.876
376.90 2.873
377.00 2.87
377.10 2.868
377.20 2.866
377.30 2.863
377.40 2.861
377.50 2.859
377.60 2.856
377.70 2.854
377.80 2.852
377.90 2.849
378.00 2.847
378.10 2.844
378.20 2.841
378.30 2.838
378.40 2.835
378.50 2.832
378.60 2.829
378.70 2.826
378.80 2.822
378.90 2.819
379.00 2.816
379.10 2.813
379.20 2.81
379.30 2.806
379.40 2.803
379.50 2.8
379.60 2.797
379.70 2.793
379.80 2.79
379.90 2.787
380.00 2.783
380.10 2.782
380.20 2.781
380.30 2.779
380.40 2.778
380.50 2.776
380.60 2.775
380.70 2.774
380.80 2.772
380.90 2.771
381.00 2.769
381.10 2.767
381.20 2.765
381.30 2.762
381.40 2.76
381.50 2.757
381.60 2.754
381.70 2.751
381.80 2.748
381.90 2.745
382.00 2.741
382.10 2.737
382.20 2.733
382.30 2.728
382.40 2.723
382.50 2.718
382.60 2.713
382.70 2.708
382.80 2.702
382.90 2.697
383.00 2.692
383.10 2.687
383.20 2.682
383.30 2.676
383.40 2.67
383.50 2.665
383.60 2.663
383.70 2.664
383.80 2.665
383.90 2.666
384.00 2.668
384.10 2.669
384.20 2.67
384.30 2.67
384.40 2.671
384.50 2.671
384.60 2.671
384.70 2.671
384.80 2.671
384.90 2.67
385.00 2.669
385.10 2.668
385.20 2.667
385.30 2.666
385.40 2.665
385.50 2.663
385.60 2.661
385.70 2.659
385.80 2.657
385.90 2.655
386.00 2.652
386.10 2.65
386.20 2.647
386.30 2.644
386.40 2.641
386.50 2.638
386.60 2.634
386.70 2.63
386.80 2.627
386.90 2.622
387.00 2.618
387.10 2.614
387.20 2.609
387.30 2.604
387.40 2.598
387.50 2.593
387.60 2.587
387.70 2.58
387.80 2.574
387.90 2.566
388.00 2.559
388.10 2.551
388.20 2.543
388.30 2.534
388.40 2.524
388.50 2.515
388.60 2.505
388.70 2.495
388.80 2.487
388.90 2.482
389.00 2.482
389.10 2.485
389.20 2.49
389.30 2.496
389.40 2.501
389.50 2.506
389.60 2.51
389.70 2.514
389.80 2.517
389.90 2.52
390.00 2.522
390.10 2.524
390.20 2.526
390.30 2.527
390.40 2.529
390.50 2.529
390.60 2.53
390.70 2.53
390.80 2.53
390.90 2.53
391.00 2.53
391.10 2.53
391.20 2.529
391.30 2.528
391.40 2.527
391.50 2.526
391.60 2.525
391.70 2.524
391.80 2.522
391.90 2.521
392.00 2.519
392.10 2.517
392.20 2.515
392.30 2.513
392.40 2.511
392.50 2.509
392.60 2.507
392.70 2.505
392.80 2.503
392.90 2.5
393.00 2.498
393.10 2.495
393.20 2.493
393.30 2.49
393.40 2.487
393.50 2.484
393.60 2.481
393.70 2.478
393.80 2.475
393.90 2.472
394.00 2.469
394.10 2.465
394.20 2.461
394.30 2.458
394.40 2.454
394.50 2.45
394.60 2.445
394.70 2.441
394.80 2.436
394.90 2.431
395.00 2.426
395.10 2.421
395.20 2.415
395.30 2.409
395.40 2.402
395.50 2.395
395.60 2.388
395.70 2.38
395.80 2.372
395.90 2.363
396.00 2.353
396.10 2.343
396.20 2.332
396.30 2.32
396.40 2.307
396.50 2.293
396.60 2.278
396.70 2.262
396.80 2.244
396.90 2.227
397.00 2.209
397.10 2.221
397.20 2.234
397.30 2.248
397.40 2.26
397.50 2.27
397.60 2.28
397.70 2.289
397.80 2.296
397.90 2.303
398.00 2.309
398.10 2.314
398.20 2.319
398.30 2.322
398.40 2.326
398.50 2.329
398.60 2.331
398.70 2.333
398.80 2.335
398.90 2.336
399.00 2.337
399.10 2.338
399.20 2.338
399.30 2.339
399.40 2.339
399.50 2.338
399.60 2.338
399.70 2.338
399.80 2.337
399.90 2.336
400.00 2.335
400.10 2.334
400.20 2.333
400.30 2.332
400.40 2.331
400.50 2.329
400.60 2.328
400.70 2.326
400.80 2.325
400.90 2.323
401.00 2.322
401.10 2.32
401.20 2.318
401.30 2.316
401.40 2.315
401.50 2.313
401.60 2.311
401.70 2.309
401.80 2.307
401.90 2.305
402.00 2.303
402.10 2.301
402.20 2.299
402.30 2.297
402.40 2.295
402.50 2.293
402.60 2.291
402.70 2.289
402.80 2.287
402.90 2.285
403.00 2.283
403.10 2.281
403.20 2.279
403.30 2.277
403.40 2.274
403.50 2.272
403.60 2.27
403.70 2.268
403.80 2.266
403.90 2.264
404.00 2.262
404.10 2.259
404.20 2.257
404.30 2.255
404.40 2.253
404.50 2.25
404.60 2.248
404.70 2.246
404.80 2.244
404.90 2.241
405.00 2.239
405.10 2.237
405.20 2.234
405.30 2.232
405.40 2.23
405.50 2.227
405.60 2.225
405.70 2.222
405.80 2.22
405.90 2.217
406.00 2.215
406.10 2.212
406.20 2.21
406.30 2.207
406.40 2.204
406.50 2.201
406.60 2.199
406.70 2.196
406.80 2.193
406.90 2.19
407.00 2.187
407.10 2.183
407.20 2.18
407.30 2.177
407.40 2.173
407.50 2.169
407.60 2.165
407.70 2.161
407.80 2.157
407.90 2.152
408.00 2.148
408.10 2.143
408.20 2.137
408.30 2.132
408.40 2.126
408.50 2.119
408.60 2.112
408.70 2.104
408.80 2.096
408.90 2.087
409.00 2.078
409.10 2.068
409.20 2.056
409.30 2.044
409.40 2.03
409.50 2.016
409.60 2
409.70 1.981
409.80 1.96
409.90 1.937
410.00 1.908
410.10 1.889
410.20 1.881
410.30 1.896
410.40 1.915
410.50 1.939
410.60 1.956
410.70 1.972
410.80 1.986
410.90 1.997
411.00 2.008
411.10 2.017
411.20 2.024
411.30 2.031
411.40 2.037
411.50 2.042
411.60 2.047
411.70 2.051
411.80 2.054
411.90 2.057
412.00 2.059
412.10 2.061
412.20 2.062
412.30 2.063
412.40 2.064
412.50 2.065
412.60 2.065
412.70 2.065
412.80 2.065
412.90 2.065
413.00 2.065
413.10 2.064
413.20 2.064
413.30 2.063
413.40 2.062
413.50 2.061
413.60 2.06
413.70 2.059
413.80 2.058
413.90 2.057
414.00 2.055
414.10 2.054
414.20 2.053
414.30 2.051
414.40 2.05
414.50 2.048
414.60 2.047
414.70 2.045
414.80 2.044
414.90 2.042
415.00 2.041
415.10 2.039
415.20 2.037
415.30 2.036
415.40 2.034
415.50 2.032
415.60 2.031
415.70 2.029
415.80 2.027
415.90 2.026
416.00 2.024
416.10 2.022
416.20 2.021
416.30 2.019
416.40 2.017
416.50 2.015
416.60 2.014
416.70 2.012
416.80 2.01
416.90 2.008
417.00 2.007
417.10 2.005
417.20 2.003
417.30 2.001
417.40 2
417.50 1.998
417.60 1.996
417.70 1.994
417.80 1.992
417.90 1.991
418.00 1.989
418.10 1.987
418.20 1.985
418.30 1.984
418.40 1.982
418.50 1.98
418.60 1.978
418.70 1.976
418.80 1.975
418.90 1.973
419.00 1.971
419.10 1.969
419.20 1.968
419.30 1.966
419.40 1.964
419.50 1.962
419.60 1.961
419.70 1.959
419.80 1.957
419.90 1.955
420.00 1.953
420.10 1.952
420.20 1.95
420.30 1.948
420.40 1.946
420.50 1.945
420.60 1.943
420.70 1.941
420.80 1.939
420.90 1.938
421.00 1.936
421.10 1.934
421.20 1.932
421.30 1.931
421.40 1.929
421.50 1.927
421.60 1.925
421.70 1.924
421.80 1.922
421.90 1.92
422.00 1.918
422.10 1.917
422.20 1.915
422.30 1.913
422.40 1.911
422.50 1.91
422.60 1.908
422.70 1.906
422.80 1.904
422.90 1.903
423.00 1.901
423.10 1.899
423.20 1.898
423.30 1.896
423.40 1.894
423.50 1.892
423.60 1.891
423.70 1.889
423.80 1.887
423.90 1.886
424.00 1.884
424.10 1.882
424.20 1.88
424.30 1.879
424.40 1.877
424.50 1.875
424.60 1.873
424.70 1.872
424.80 1.87
424.90 1.868
425.00 1.867
425.10 1.865
425.20 1.863
425.30 1.862
425.40 1.86
425.50 1.858
425.60 1.856
425.70 1.855
425.80 1.853
425.90 1.851
426.00 1.85
426.10 1.848
426.20 1.846
426.30 1.844
426.40 1.843
426.50 1.841
426.60 1.839
426.70 1.838
426.80 1.836
426.90 1.834
427.00 1.832
427.10 1.831
427.20 1.829
427.30 1.827
427.40 1.826
427.50 1.824
427.60 1.822
427.70 1.82
427.80 1.819
427.90 1.817
428.00 1.815
428.10 1.813
428.20 1.812
428.30 1.81
428.40 1.808
428.50 1.806
428.60 1.805
428.70 1.803
428.80 1.801
428.90 1.799
429.00 1.797
429.10 1.796
429.20 1.794
429.30 1.792
429.40 1.79
429.50 1.788
429.60 1.786
429.70 1.784
429.80 1.782
429.90 1.78
430.00 1.778
430.10 1.776
430.20 1.774
430.30 1.772
430.40 1.77
430.50 1.768
430.60 1.765
430.70 1.763
430.80 1.761
430.90 1.758
431.00 1.756
431.10 1.753
431.20 1.751
431.30 1.748
431.40 1.745
431.50 1.742
431.60 1.738
431.70 1.735
431.80 1.731
431.90 1.727
432.00 1.723
432.10 1.719
432.20 1.714
432.30 1.709
432.40 1.703
432.50 1.697
432.60 1.691
432.70 1.684
432.80 1.676
432.90 1.667
433.00 1.658
433.10 1.647
433.20 1.635
433.30 1.622
433.40 1.607
433.50 1.591
433.60 1.572
433.70 1.548
433.80 1.519
433.90 1.484
434.00 1.451
434.10 1.451
434.20 1.483
434.30 1.515
434.40 1.541
434.50 1.562
434.60 1.577
434.70 1.591
434.80 1.603
434.90 1.612
435.00 1.621
435.10 1.629
435.20 1.635
435.30 1.64
435.40 1.645
435.50 1.649
435.60 1.653
435.70 1.656
435.80 1.658
435.90 1.66
436.00 1.662
436.10 1.663
436.20 1.664
436.30 1.665
436.40 1.665
436.50 1.666
436.60 1.666
436.70 1.666
436.80 1.666
436.90 1.665
437.00 1.665
437.10 1.665
437.20 1.664
437.30 1.663
437.40 1.663
437.50 1.662
437.60 1.661
437.70 1.66
437.80 1.659
437.90 1.658
438.00 1.657
438.10 1.656
438.20 1.655
438.30 1.654
438.40 1.653
438.50 1.652
438.60 1.65
438.70 1.649
438.80 1.648
438.90 1.647
439.00 1.646
439.10 1.644
439.20 1.643
439.30 1.642
439.40 1.641
439.50 1.639
439.60 1.638
439.70 1.637
439.80 1.635
439.90 1.634
440.00 1.633
440.10 1.632
440.20 1.63
440.30 1.629
440.40 1.628
440.50 1.626
440.60 1.625
440.70 1.624
440.80 1.622
440.90 1.621
441.00 1.62
441.10 1.618
441.20 1.617
441.30 1.615
441.40 1.614
441.50 1.613
441.60 1.611
441.70 1.61
441.80 1.609
441.90 1.607
442.00 1.606
442.10 1.605
442.20 1.603
442.30 1.602
442.40 1.601
442.50 1.599
442.60 1.598
442.70 1.596
442.80 1.595
442.90 1.594
443.00 1.592
443.10 1.591
443.20 1.59
443.30 1.588
443.40 1.587
443.50 1.586
443.60 1.584
443.70 1.583
443.80 1.582
443.90 1.58
444.00 1.579
444.10 1.578
444.20 1.576
444.30 1.575
444.40 1.574
444.50 1.572
444.60 1.571
444.70 1.569
444.80 1.568
444.90 1.567
445.00 1.565
445.10 1.564
445.20 1.563
445.30 1.561
445.40 1.56
445.50 1.559
445.60 1.557
445.70 1.556
445.80 1.555
445.90 1.553
446.00 1.552
446.10 1.551
446.20 1.549
446.30 1.548
446.40 1.547
446.50 1.546
446.60 1.544
446.70 1.543
446.80 1.542
446.90 1.54
447.00 1.539
447.10 1.538
447.20 1.536
447.30 1.535
447.40 1.534
447.50 1.532
447.60 1.531
447.70 1.53
447.80 1.528
447.90 1.527
448.00 1.526
448.10 1.525
448.20 1.523
448.30 1.522
448.40 1.521
448.50 1.519
448.60 1.518
448.70 1.517
448.80 1.515
448.90 1.514
449.00 1.513
449.10 1.512
449.20 1.51
449.30 1.509
449.40 1.508
449.50 1.506
449.60 1.505
449.70 1.504
449.80 1.503
449.90 1.501
450.00 1.5
450.10 1.499
450.20 1.497
450.30 1.496
450.40 1.495
450.50 1.494
450.60 1.492
450.70 1.491
450.80 1.49
450.90 1.489
451.00 1.487
451.10 1.486
451.20 1.485
451.30 1.483
451.40 1.482
451.50 1.481
451.60 1.48
451.70 1.478
451.80 1.477
451.90 1.476
452.00 1.475
452.10 1.473
452.20 1.472
452.30 1.471
452.40 1.47
452.50 1.468
452.60 1.467
452.70 1.466
452.80 1.465
452.90 1.463
453.00 1.462
453.10 1.461
453.20 1.46
453.30 1.459
453.40 1.457
453.50 1.456
453.60 1.455
453.70 1.454
453.80 1.452
453.90 1.451
454.00 1.45
454.10 1.449
