# Version 2.1 - nm, norm@500 to 1, cut digits, bergeron_3500_95.dat_3500
# Wavelength(nm)  Flambda(ergs/cm^s/s/nm)
300.00 0.1817
300.10 0.182
300.20 0.1824
300.30 0.1827
300.40 0.183
300.50 0.1834
300.60 0.1837
300.70 0.184
300.80 0.1844
300.90 0.1847
301.00 0.185
301.10 0.1854
301.20 0.1857
301.30 0.186
301.40 0.1864
301.50 0.1867
301.60 0.187
301.70 0.1874
301.80 0.1877
301.90 0.188
302.00 0.1884
302.10 0.1887
302.20 0.1891
302.30 0.1894
302.40 0.1897
302.50 0.1901
302.60 0.1904
302.70 0.1908
302.80 0.1911
302.90 0.1915
303.00 0.1918
303.10 0.1921
303.20 0.1925
303.30 0.1928
303.40 0.1931
303.50 0.1935
303.60 0.1938
303.70 0.1942
303.80 0.1945
303.90 0.1948
304.00 0.1952
304.10 0.1955
304.20 0.1959
304.30 0.1962
304.40 0.1966
304.50 0.1969
304.60 0.1973
304.70 0.1976
304.80 0.198
304.90 0.1983
305.00 0.1986
305.10 0.199
305.20 0.1993
305.30 0.1997
305.40 0.2
305.50 0.2004
305.60 0.2007
305.70 0.2011
305.80 0.2014
305.90 0.2017
306.00 0.2021
306.10 0.2024
306.20 0.2028
306.30 0.2031
306.40 0.2035
306.50 0.2039
306.60 0.2042
306.70 0.2046
306.80 0.2049
306.90 0.2053
307.00 0.2056
307.10 0.206
307.20 0.2063
307.30 0.2067
307.40 0.207
307.50 0.2074
307.60 0.2077
307.70 0.2081
307.80 0.2084
307.90 0.2088
308.00 0.2091
308.10 0.2095
308.20 0.2098
308.30 0.2102
308.40 0.2106
308.50 0.2109
308.60 0.2113
308.70 0.2116
308.80 0.212
308.90 0.2123
309.00 0.2127
309.10 0.2131
309.20 0.2134
309.30 0.2138
309.40 0.2141
309.50 0.2145
309.60 0.2148
309.70 0.2152
309.80 0.2155
309.90 0.2159
310.00 0.2163
310.10 0.2166
310.20 0.217
310.30 0.2173
310.40 0.2177
310.50 0.2181
310.60 0.2184
310.70 0.2188
310.80 0.2192
310.90 0.2195
311.00 0.2199
311.10 0.2203
311.20 0.2206
311.30 0.221
311.40 0.2213
311.50 0.2217
311.60 0.2221
311.70 0.2224
311.80 0.2228
311.90 0.2231
312.00 0.2235
312.10 0.2239
312.20 0.2242
312.30 0.2246
312.40 0.225
312.50 0.2253
312.60 0.2257
312.70 0.2261
312.80 0.2264
312.90 0.2268
313.00 0.2272
313.10 0.2276
313.20 0.2279
313.30 0.2283
313.40 0.2287
313.50 0.229
313.60 0.2294
313.70 0.2297
313.80 0.2301
313.90 0.2305
314.00 0.2309
314.10 0.2312
314.20 0.2316
314.30 0.232
314.40 0.2323
314.50 0.2327
314.60 0.2331
314.70 0.2335
314.80 0.2338
314.90 0.2342
315.00 0.2346
315.10 0.235
315.20 0.2353
315.30 0.2357
315.40 0.2361
315.50 0.2364
315.60 0.2368
315.70 0.2372
315.80 0.2376
315.90 0.2379
316.00 0.2383
316.10 0.2387
316.20 0.2391
316.30 0.2394
316.40 0.2398
316.50 0.2402
316.60 0.2406
316.70 0.241
316.80 0.2413
316.90 0.2417
317.00 0.2421
317.10 0.2425
317.20 0.2428
317.30 0.2432
317.40 0.2436
317.50 0.244
317.60 0.2443
317.70 0.2447
317.80 0.2451
317.90 0.2455
318.00 0.2458
318.10 0.2462
318.20 0.2466
318.30 0.247
318.40 0.2474
318.50 0.2478
318.60 0.2482
318.70 0.2485
318.80 0.2489
318.90 0.2493
319.00 0.2497
319.10 0.2501
319.20 0.2505
319.30 0.2508
319.40 0.2512
319.50 0.2516
319.60 0.252
319.70 0.2524
319.80 0.2527
319.90 0.2531
320.00 0.2535
320.10 0.2539
320.20 0.2543
320.30 0.2547
320.40 0.2551
320.50 0.2554
320.60 0.2558
320.70 0.2562
320.80 0.2566
320.90 0.257
321.00 0.2574
321.10 0.2578
321.20 0.2582
321.30 0.2585
321.40 0.2589
321.50 0.2593
321.60 0.2597
321.70 0.2601
321.80 0.2605
321.90 0.2608
322.00 0.2612
322.10 0.2616
322.20 0.262
322.30 0.2624
322.40 0.2628
322.50 0.2632
322.60 0.2636
322.70 0.264
322.80 0.2644
322.90 0.2648
323.00 0.2652
323.10 0.2656
323.20 0.266
323.30 0.2663
323.40 0.2667
323.50 0.2671
323.60 0.2675
323.70 0.2679
323.80 0.2683
323.90 0.2687
324.00 0.2691
324.10 0.2695
324.20 0.2699
324.30 0.2703
324.40 0.2707
324.50 0.2711
324.60 0.2715
324.70 0.2719
324.80 0.2723
324.90 0.2726
325.00 0.273
325.10 0.2734
325.20 0.2738
325.30 0.2742
325.40 0.2746
325.50 0.275
325.60 0.2754
325.70 0.2758
325.80 0.2762
325.90 0.2766
326.00 0.277
326.10 0.2774
326.20 0.2778
326.30 0.2782
326.40 0.2786
326.50 0.279
326.60 0.2794
326.70 0.2798
326.80 0.2802
326.90 0.2806
327.00 0.281
327.10 0.2814
327.20 0.2818
327.30 0.2822
327.40 0.2826
327.50 0.283
327.60 0.2834
327.70 0.2838
327.80 0.2842
327.90 0.2846
328.00 0.285
328.10 0.2854
328.20 0.2858
328.30 0.2862
328.40 0.2866
328.50 0.287
328.60 0.2874
328.70 0.2878
328.80 0.2882
328.90 0.2887
329.00 0.2891
329.10 0.2895
329.20 0.2899
329.30 0.2903
329.40 0.2907
329.50 0.2911
329.60 0.2915
329.70 0.2919
329.80 0.2923
329.90 0.2927
330.00 0.2931
330.10 0.2935
330.20 0.2939
330.30 0.2943
330.40 0.2947
330.50 0.2951
330.60 0.2955
330.70 0.296
330.80 0.2964
330.90 0.2968
331.00 0.2972
331.10 0.2976
331.20 0.298
331.30 0.2984
331.40 0.2988
331.50 0.2992
331.60 0.2996
331.70 0.3
331.80 0.3004
331.90 0.3008
332.00 0.3012
332.10 0.3017
332.20 0.3021
332.30 0.3025
332.40 0.3029
332.50 0.3033
332.60 0.3037
332.70 0.3042
332.80 0.3046
332.90 0.305
333.00 0.3054
333.10 0.3058
333.20 0.3062
333.30 0.3066
333.40 0.307
333.50 0.3074
333.60 0.3079
333.70 0.3083
333.80 0.3087
333.90 0.3091
334.00 0.3095
334.10 0.3099
334.20 0.3103
334.30 0.3107
334.40 0.3112
334.50 0.3116
334.60 0.312
334.70 0.3124
334.80 0.3128
334.90 0.3133
335.00 0.3137
335.10 0.3141
335.20 0.3145
335.30 0.3149
335.40 0.3153
335.50 0.3157
335.60 0.3162
335.70 0.3166
335.80 0.317
335.90 0.3174
336.00 0.3178
336.10 0.3182
336.20 0.3187
336.30 0.3191
336.40 0.3195
336.50 0.3199
336.60 0.3204
336.70 0.3208
336.80 0.3212
336.90 0.3216
337.00 0.322
337.10 0.3225
337.20 0.3229
337.30 0.3233
337.40 0.3237
337.50 0.3241
337.60 0.3245
337.70 0.325
337.80 0.3254
337.90 0.3258
338.00 0.3262
338.10 0.3266
338.20 0.3271
338.30 0.3275
338.40 0.3279
338.50 0.3283
338.60 0.3288
338.70 0.3292
338.80 0.3296
338.90 0.33
339.00 0.3305
339.10 0.3309
339.20 0.3313
339.30 0.3317
339.40 0.3321
339.50 0.3326
339.60 0.333
339.70 0.3334
339.80 0.3338
339.90 0.3342
340.00 0.3347
340.10 0.3351
340.20 0.3355
340.30 0.3359
340.40 0.3364
340.50 0.3368
340.60 0.3372
340.70 0.3377
340.80 0.3381
340.90 0.3385
341.00 0.339
341.10 0.3394
341.20 0.3398
341.30 0.3402
341.40 0.3407
341.50 0.3411
341.60 0.3415
341.70 0.3419
341.80 0.3424
341.90 0.3428
342.00 0.3432
342.10 0.3436
342.20 0.3441
342.30 0.3445
342.40 0.3449
342.50 0.3454
342.60 0.3458
342.70 0.3462
342.80 0.3467
342.90 0.3471
343.00 0.3475
343.10 0.3479
343.20 0.3484
343.30 0.3488
343.40 0.3492
343.50 0.3496
343.60 0.3501
343.70 0.3505
343.80 0.3509
343.90 0.3513
344.00 0.3518
344.10 0.3522
344.20 0.3526
344.30 0.3531
344.40 0.3535
344.50 0.354
344.60 0.3544
344.70 0.3548
344.80 0.3553
344.90 0.3557
345.00 0.3561
345.10 0.3566
345.20 0.357
345.30 0.3574
345.40 0.3579
345.50 0.3583
345.60 0.3587
345.70 0.3591
345.80 0.3596
345.90 0.36
346.00 0.3604
346.10 0.3609
346.20 0.3613
346.30 0.3618
346.40 0.3622
346.50 0.3626
346.60 0.3631
346.70 0.3635
346.80 0.3639
346.90 0.3644
347.00 0.3648
347.10 0.3652
347.20 0.3657
347.30 0.3661
347.40 0.3665
347.50 0.367
347.60 0.3674
347.70 0.3678
347.80 0.3683
347.90 0.3687
348.00 0.3691
348.10 0.3696
348.20 0.37
348.30 0.3705
348.40 0.3709
348.50 0.3713
348.60 0.3718
348.70 0.3722
348.80 0.3727
348.90 0.3731
349.00 0.3735
349.10 0.374
349.20 0.3744
349.30 0.3749
349.40 0.3753
349.50 0.3757
349.60 0.3762
349.70 0.3766
349.80 0.377
349.90 0.3775
350.00 0.3779
350.10 0.3783
350.20 0.3788
350.30 0.3792
350.40 0.3797
350.50 0.3801
350.60 0.3806
350.70 0.381
350.80 0.3814
350.90 0.3819
351.00 0.3823
351.10 0.3828
351.20 0.3832
351.30 0.3836
351.40 0.3841
351.50 0.3845
351.60 0.385
351.70 0.3854
351.80 0.3858
351.90 0.3863
352.00 0.3867
352.10 0.3871
352.20 0.3876
352.30 0.388
352.40 0.3885
352.50 0.3889
352.60 0.3894
352.70 0.3898
352.80 0.3903
352.90 0.3907
353.00 0.3912
353.10 0.3916
353.20 0.392
353.30 0.3925
353.40 0.3929
353.50 0.3934
353.60 0.3938
353.70 0.3942
353.80 0.3947
353.90 0.3951
354.00 0.3956
354.10 0.396
354.20 0.3965
354.30 0.3969
354.40 0.3974
354.50 0.3978
354.60 0.3983
354.70 0.3987
354.80 0.3991
354.90 0.3996
355.00 0.4
355.10 0.4005
355.20 0.4009
355.30 0.4014
355.40 0.4018
355.50 0.4022
355.60 0.4027
355.70 0.4031
355.80 0.4036
355.90 0.404
356.00 0.4044
356.10 0.4049
356.20 0.4053
356.30 0.4058
356.40 0.4063
356.50 0.4067
356.60 0.4072
356.70 0.4076
356.80 0.4081
356.90 0.4085
357.00 0.4089
357.10 0.4094
357.20 0.4098
357.30 0.4103
357.40 0.4107
357.50 0.4112
357.60 0.4116
357.70 0.4121
357.80 0.4125
357.90 0.413
358.00 0.4134
358.10 0.4138
358.20 0.4143
358.30 0.4148
358.40 0.4152
358.50 0.4157
358.60 0.4161
358.70 0.4166
358.80 0.417
358.90 0.4175
359.00 0.4179
359.10 0.4184
359.20 0.4188
359.30 0.4193
359.40 0.4197
359.50 0.4202
359.60 0.4206
359.70 0.421
359.80 0.4215
359.90 0.4219
360.00 0.4224
360.10 0.4228
360.20 0.4233
360.30 0.4237
360.40 0.4242
360.50 0.4247
360.60 0.4251
360.70 0.4256
360.80 0.426
360.90 0.4265
361.00 0.4269
361.10 0.4274
361.20 0.4278
361.30 0.4283
361.40 0.4287
361.50 0.4292
361.60 0.4296
361.70 0.4301
361.80 0.4305
361.90 0.4309
362.00 0.4314
362.10 0.4318
362.20 0.4323
362.30 0.4328
362.40 0.4332
362.50 0.4337
362.60 0.4341
362.70 0.4346
362.80 0.435
362.90 0.4355
363.00 0.4359
363.10 0.4364
363.20 0.4368
363.30 0.4373
363.40 0.4377
363.50 0.4382
363.60 0.4386
363.70 0.4391
363.80 0.4395
363.90 0.44
364.00 0.4404
364.10 0.4409
364.20 0.4413
364.30 0.4418
364.40 0.4422
364.50 0.4427
364.60 0.4432
364.70 0.4436
364.80 0.4441
364.90 0.4445
365.00 0.445
365.10 0.4454
365.20 0.4459
365.30 0.4464
365.40 0.4468
365.50 0.4473
365.60 0.4477
365.70 0.4482
365.80 0.4486
365.90 0.4491
366.00 0.4495
366.10 0.45
366.20 0.4504
366.30 0.4509
366.40 0.4514
366.50 0.4518
366.60 0.4523
366.70 0.4527
366.80 0.4532
366.90 0.4536
367.00 0.4541
367.10 0.4546
367.20 0.455
367.30 0.4555
367.40 0.4559
367.50 0.4564
367.60 0.4568
367.70 0.4573
367.80 0.4577
367.90 0.4582
368.00 0.4586
368.10 0.4591
368.20 0.4595
368.30 0.46
368.40 0.4605
368.50 0.4609
368.60 0.4614
368.70 0.4618
368.80 0.4623
368.90 0.4628
369.00 0.4632
369.10 0.4637
369.20 0.4641
369.30 0.4646
369.40 0.465
369.50 0.4655
369.60 0.4659
369.70 0.4664
369.80 0.4668
369.90 0.4673
370.00 0.4677
370.10 0.4682
370.20 0.4687
370.30 0.4691
370.40 0.4696
370.50 0.4701
370.60 0.4705
370.70 0.471
370.80 0.4714
370.90 0.4719
371.00 0.4723
371.10 0.4728
371.20 0.4733
371.30 0.4737
371.40 0.4742
371.50 0.4746
371.60 0.4751
371.70 0.4755
371.80 0.476
371.90 0.4764
372.00 0.4769
372.10 0.4774
372.20 0.4778
372.30 0.4783
372.40 0.4787
372.50 0.4792
372.60 0.4797
372.70 0.4801
372.80 0.4806
372.90 0.481
373.00 0.4815
373.10 0.482
373.20 0.4824
373.30 0.4829
373.40 0.4833
373.50 0.4838
373.60 0.4842
373.70 0.4847
373.80 0.4851
373.90 0.4856
374.00 0.4861
374.10 0.4865
374.20 0.487
374.30 0.4874
374.40 0.4879
374.50 0.4884
374.60 0.4888
374.70 0.4893
374.80 0.4898
374.90 0.4902
375.00 0.4907
375.10 0.4911
375.20 0.4916
375.30 0.492
375.40 0.4925
375.50 0.493
375.60 0.4934
375.70 0.4939
375.80 0.4943
375.90 0.4948
376.00 0.4952
376.10 0.4957
376.20 0.4962
376.30 0.4966
376.40 0.4971
376.50 0.4975
376.60 0.498
376.70 0.4985
376.80 0.4989
376.90 0.4994
377.00 0.4998
377.10 0.5003
377.20 0.5007
377.30 0.5012
377.40 0.5017
377.50 0.5021
377.60 0.5026
377.70 0.5031
377.80 0.5035
377.90 0.504
378.00 0.5044
378.10 0.5049
378.20 0.5053
378.30 0.5058
378.40 0.5063
378.50 0.5067
378.60 0.5072
378.70 0.5076
378.80 0.5081
378.90 0.5086
379.00 0.509
379.10 0.5095
379.20 0.5099
379.30 0.5104
379.40 0.5109
379.50 0.5113
379.60 0.5118
379.70 0.5122
379.80 0.5127
379.90 0.5132
380.00 0.5136
380.10 0.5141
380.20 0.5145
380.30 0.515
380.40 0.5155
380.50 0.5159
380.60 0.5164
380.70 0.5168
380.80 0.5173
380.90 0.5178
381.00 0.5182
381.10 0.5187
381.20 0.5191
381.30 0.5196
381.40 0.5201
381.50 0.5205
381.60 0.521
381.70 0.5214
381.80 0.5219
381.90 0.5224
382.00 0.5228
382.10 0.5233
382.20 0.5238
382.30 0.5242
382.40 0.5247
382.50 0.5251
382.60 0.5256
382.70 0.5261
382.80 0.5265
382.90 0.527
383.00 0.5274
383.10 0.5279
383.20 0.5283
383.30 0.5288
383.40 0.5293
383.50 0.5297
383.60 0.5302
383.70 0.5306
383.80 0.5311
383.90 0.5316
384.00 0.532
384.10 0.5325
384.20 0.533
384.30 0.5334
384.40 0.5339
384.50 0.5343
384.60 0.5348
384.70 0.5353
384.80 0.5357
384.90 0.5362
385.00 0.5366
385.10 0.5371
385.20 0.5376
385.30 0.538
385.40 0.5385
385.50 0.5389
385.60 0.5394
385.70 0.5399
385.80 0.5403
385.90 0.5408
386.00 0.5412
386.10 0.5417
386.20 0.5422
386.30 0.5426
386.40 0.5431
386.50 0.5435
386.60 0.544
386.70 0.5445
386.80 0.5449
386.90 0.5454
387.00 0.5458
387.10 0.5463
387.20 0.5468
387.30 0.5472
387.40 0.5477
387.50 0.5481
387.60 0.5486
387.70 0.5491
387.80 0.5495
387.90 0.55
388.00 0.5504
388.10 0.5509
388.20 0.5514
388.30 0.5518
388.40 0.5523
388.50 0.5528
388.60 0.5532
388.70 0.5537
388.80 0.5541
388.90 0.5546
389.00 0.555
389.10 0.5555
389.20 0.556
389.30 0.5564
389.40 0.5569
389.50 0.5573
389.60 0.5578
389.70 0.5583
389.80 0.5587
389.90 0.5592
390.00 0.5596
390.10 0.5601
390.20 0.5606
390.30 0.561
390.40 0.5615
390.50 0.5619
390.60 0.5624
390.70 0.5629
390.80 0.5633
390.90 0.5638
391.00 0.5642
391.10 0.5647
391.20 0.5652
391.30 0.5656
391.40 0.5661
391.50 0.5665
391.60 0.567
391.70 0.5675
391.80 0.5679
391.90 0.5684
392.00 0.5688
392.10 0.5693
392.20 0.5698
392.30 0.5702
392.40 0.5707
392.50 0.5711
392.60 0.5716
392.70 0.5721
392.80 0.5725
392.90 0.573
393.00 0.5734
393.10 0.5739
393.20 0.5744
393.30 0.5748
393.40 0.5753
393.50 0.5757
393.60 0.5762
393.70 0.5766
393.80 0.5771
393.90 0.5776
394.00 0.578
394.10 0.5785
394.20 0.5789
394.30 0.5794
394.40 0.5799
394.50 0.5803
394.60 0.5808
394.70 0.5812
394.80 0.5817
394.90 0.5821
395.00 0.5826
395.10 0.5831
395.20 0.5835
395.30 0.584
395.40 0.5844
395.50 0.5849
395.60 0.5854
395.70 0.5858
395.80 0.5863
395.90 0.5867
396.00 0.5872
396.10 0.5876
396.20 0.5881
396.30 0.5886
396.40 0.589
396.50 0.5895
396.60 0.5899
396.70 0.5904
396.80 0.5909
396.90 0.5913
397.00 0.5918
397.10 0.5922
397.20 0.5927
397.30 0.5932
397.40 0.5936
397.50 0.5941
397.60 0.5945
397.70 0.595
397.80 0.5954
397.90 0.5959
398.00 0.5964
398.10 0.5968
398.20 0.5973
398.30 0.5977
398.40 0.5982
398.50 0.5986
398.60 0.5991
398.70 0.5995
398.80 0.6
398.90 0.6005
399.00 0.6009
399.10 0.6014
399.20 0.6018
399.30 0.6023
399.40 0.6028
399.50 0.6032
399.60 0.6037
399.70 0.6041
399.80 0.6046
399.90 0.605
400.00 0.6055
400.10 0.6059
400.20 0.6064
400.30 0.6069
400.40 0.6073
400.50 0.6078
400.60 0.6082
400.70 0.6087
400.80 0.6091
400.90 0.6096
401.00 0.6101
401.10 0.6105
401.20 0.611
401.30 0.6114
401.40 0.6119
401.50 0.6123
401.60 0.6128
401.70 0.6132
401.80 0.6137
401.90 0.6141
402.00 0.6146
402.10 0.6151
402.20 0.6155
402.30 0.616
402.40 0.6164
402.50 0.6169
402.60 0.6173
402.70 0.6178
402.80 0.6182
402.90 0.6187
403.00 0.6192
403.10 0.6196
403.20 0.6201
403.30 0.6205
403.40 0.621
403.50 0.6214
403.60 0.6219
403.70 0.6223
403.80 0.6228
403.90 0.6233
404.00 0.6237
404.10 0.6242
404.20 0.6246
404.30 0.6251
404.40 0.6255
404.50 0.626
404.60 0.6264
404.70 0.6269
404.80 0.6273
404.90 0.6278
405.00 0.6282
405.10 0.6287
405.20 0.6292
405.30 0.6296
405.40 0.6301
405.50 0.6305
405.60 0.631
405.70 0.6314
405.80 0.6319
405.90 0.6323
406.00 0.6328
406.10 0.6332
406.20 0.6337
406.30 0.6341
406.40 0.6346
406.50 0.6351
406.60 0.6355
406.70 0.6359
406.80 0.6364
406.90 0.6369
407.00 0.6373
407.10 0.6378
407.20 0.6382
407.30 0.6387
407.40 0.6391
407.50 0.6396
407.60 0.64
407.70 0.6405
407.80 0.6409
407.90 0.6414
408.00 0.6418
408.10 0.6423
408.20 0.6427
408.30 0.6432
408.40 0.6436
408.50 0.6441
408.60 0.6445
408.70 0.645
408.80 0.6454
408.90 0.6459
409.00 0.6463
409.10 0.6468
409.20 0.6472
409.30 0.6477
409.40 0.6481
409.50 0.6486
409.60 0.649
409.70 0.6495
409.80 0.65
409.90 0.6504
410.00 0.6509
410.10 0.6513
410.20 0.6517
410.30 0.6522
410.40 0.6526
410.50 0.6531
410.60 0.6535
410.70 0.654
410.80 0.6544
410.90 0.6549
411.00 0.6553
411.10 0.6558
411.20 0.6562
411.30 0.6567
411.40 0.6571
411.50 0.6576
411.60 0.658
411.70 0.6585
411.80 0.6589
411.90 0.6594
412.00 0.6598
412.10 0.6603
412.20 0.6607
412.30 0.6612
412.40 0.6616
412.50 0.6621
412.60 0.6625
412.70 0.663
412.80 0.6634
412.90 0.6639
413.00 0.6643
413.10 0.6648
413.20 0.6652
413.30 0.6657
413.40 0.6661
413.50 0.6665
413.60 0.667
413.70 0.6674
413.80 0.6679
413.90 0.6683
414.00 0.6688
414.10 0.6692
414.20 0.6697
414.30 0.6701
414.40 0.6706
414.50 0.671
414.60 0.6715
414.70 0.6719
414.80 0.6724
414.90 0.6728
415.00 0.6732
415.10 0.6737
415.20 0.6741
415.30 0.6746
415.40 0.675
415.50 0.6755
415.60 0.6759
415.70 0.6764
415.80 0.6768
415.90 0.6773
416.00 0.6777
416.10 0.6782
416.20 0.6786
416.30 0.679
416.40 0.6795
416.50 0.6799
416.60 0.6804
416.70 0.6808
416.80 0.6813
416.90 0.6817
417.00 0.6822
417.10 0.6826
417.20 0.683
417.30 0.6835
417.40 0.6839
417.50 0.6844
417.60 0.6848
417.70 0.6853
417.80 0.6857
417.90 0.6861
418.00 0.6866
418.10 0.687
418.20 0.6875
418.30 0.6879
418.40 0.6884
418.50 0.6888
418.60 0.6892
418.70 0.6897
418.80 0.6901
418.90 0.6906
419.00 0.691
419.10 0.6915
419.20 0.6919
419.30 0.6923
419.40 0.6928
419.50 0.6932
419.60 0.6937
419.70 0.6941
419.80 0.6945
419.90 0.695
420.00 0.6954
420.10 0.6959
420.20 0.6963
420.30 0.6968
420.40 0.6972
420.50 0.6976
420.60 0.6981
420.70 0.6985
420.80 0.699
420.90 0.6994
421.00 0.6998
421.10 0.7003
421.20 0.7007
421.30 0.7012
421.40 0.7016
421.50 0.702
421.60 0.7025
421.70 0.7029
421.80 0.7034
421.90 0.7038
422.00 0.7042
422.10 0.7047
422.20 0.7051
422.30 0.7055
422.40 0.706
422.50 0.7064
422.60 0.7069
422.70 0.7073
422.80 0.7077
422.90 0.7082
423.00 0.7086
423.10 0.7091
423.20 0.7095
423.30 0.7099
423.40 0.7104
423.50 0.7108
423.60 0.7112
423.70 0.7117
423.80 0.7121
423.90 0.7126
424.00 0.713
424.10 0.7134
424.20 0.7139
424.30 0.7143
424.40 0.7147
424.50 0.7152
424.60 0.7156
424.70 0.716
424.80 0.7165
424.90 0.7169
425.00 0.7174
425.10 0.7178
425.20 0.7182
425.30 0.7187
425.40 0.7191
425.50 0.7195
425.60 0.72
425.70 0.7204
425.80 0.7208
425.90 0.7213
426.00 0.7217
426.10 0.7221
426.20 0.7226
426.30 0.723
426.40 0.7234
426.50 0.7239
426.60 0.7243
426.70 0.7247
426.80 0.7252
426.90 0.7256
427.00 0.7261
427.10 0.7265
427.20 0.7269
427.30 0.7274
427.40 0.7278
427.50 0.7282
427.60 0.7286
427.70 0.7291
427.80 0.7295
427.90 0.7299
428.00 0.7304
428.10 0.7308
428.20 0.7312
428.30 0.7317
428.40 0.7321
428.50 0.7325
428.60 0.733
428.70 0.7334
428.80 0.7338
428.90 0.7343
429.00 0.7347
429.10 0.7351
429.20 0.7356
429.30 0.736
429.40 0.7364
429.50 0.7368
429.60 0.7373
429.70 0.7377
429.80 0.7381
429.90 0.7386
430.00 0.739
430.10 0.7394
430.20 0.7399
430.30 0.7403
430.40 0.7407
430.50 0.7411
430.60 0.7416
430.70 0.742
430.80 0.7424
430.90 0.7429
431.00 0.7433
431.10 0.7437
431.20 0.7441
431.30 0.7446
431.40 0.745
431.50 0.7454
431.60 0.7459
431.70 0.7463
431.80 0.7467
431.90 0.7471
432.00 0.7476
432.10 0.748
432.20 0.7484
432.30 0.7488
432.40 0.7493
432.50 0.7497
432.60 0.7501
432.70 0.7506
432.80 0.751
432.90 0.7514
433.00 0.7518
433.10 0.7523
433.20 0.7527
433.30 0.7531
433.40 0.7535
433.50 0.7539
433.60 0.7544
433.70 0.7548
433.80 0.7552
433.90 0.7557
434.00 0.7561
434.10 0.7565
434.20 0.7569
434.30 0.7574
434.40 0.7578
434.50 0.7582
434.60 0.7586
434.70 0.759
434.80 0.7595
434.90 0.7599
435.00 0.7603
435.10 0.7607
435.20 0.7612
435.30 0.7616
435.40 0.762
435.50 0.7624
435.60 0.7629
435.70 0.7633
435.80 0.7637
435.90 0.7641
436.00 0.7645
436.10 0.765
436.20 0.7654
436.30 0.7658
436.40 0.7662
436.50 0.7666
436.60 0.7671
436.70 0.7675
436.80 0.7679
436.90 0.7683
437.00 0.7687
437.10 0.7692
437.20 0.7696
437.30 0.77
437.40 0.7704
437.50 0.7709
437.60 0.7713
437.70 0.7717
437.80 0.7721
437.90 0.7725
438.00 0.773
438.10 0.7734
438.20 0.7738
438.30 0.7742
438.40 0.7746
438.50 0.775
438.60 0.7755
438.70 0.7759
438.80 0.7763
438.90 0.7767
439.00 0.7771
439.10 0.7776
439.20 0.778
439.30 0.7784
439.40 0.7788
439.50 0.7792
439.60 0.7796
439.70 0.7801
439.80 0.7805
439.90 0.7809
440.00 0.7813
440.10 0.7817
440.20 0.7821
440.30 0.7826
440.40 0.783
440.50 0.7834
440.60 0.7838
440.70 0.7842
440.80 0.7846
440.90 0.785
441.00 0.7855
441.10 0.7859
441.20 0.7863
441.30 0.7867
441.40 0.7871
441.50 0.7875
441.60 0.788
441.70 0.7884
441.80 0.7888
441.90 0.7892
442.00 0.7896
442.10 0.79
442.20 0.7904
442.30 0.7908
442.40 0.7913
442.50 0.7917
442.60 0.7921
442.70 0.7925
442.80 0.7929
442.90 0.7933
443.00 0.7937
443.10 0.7941
