# Version 2.1 - nm, norm@500 to 1, cut digits, bergeron_1750_75.dat_1750
# Wavelength(nm)  Flambda(ergs/cm^s/s/nm)
300.00 0.01883
300.10 0.01891
300.20 0.01899
300.30 0.01907
300.40 0.01915
300.50 0.01924
300.60 0.01932
300.70 0.0194
300.80 0.01948
300.90 0.01956
301.00 0.01964
301.10 0.01972
301.20 0.0198
301.30 0.01988
301.40 0.01996
301.50 0.02004
301.60 0.02012
301.70 0.0202
301.80 0.02028
301.90 0.02036
302.00 0.02045
302.10 0.02053
302.20 0.02062
302.30 0.0207
302.40 0.02079
302.50 0.02087
302.60 0.02096
302.70 0.02105
302.80 0.02113
302.90 0.02122
303.00 0.0213
303.10 0.02139
303.20 0.02148
303.30 0.02156
303.40 0.02165
303.50 0.02173
303.60 0.02182
303.70 0.0219
303.80 0.02199
303.90 0.02207
304.00 0.02216
304.10 0.02225
304.20 0.02234
304.30 0.02243
304.40 0.02252
304.50 0.02261
304.60 0.0227
304.70 0.02279
304.80 0.02289
304.90 0.02298
305.00 0.02307
305.10 0.02316
305.20 0.02325
305.30 0.02334
305.40 0.02343
305.50 0.02352
305.60 0.02361
305.70 0.0237
305.80 0.02379
305.90 0.02388
306.00 0.02397
306.10 0.02407
306.20 0.02416
306.30 0.02426
306.40 0.02436
306.50 0.02445
306.60 0.02455
306.70 0.02464
306.80 0.02474
306.90 0.02484
307.00 0.02493
307.10 0.02503
307.20 0.02512
307.30 0.02522
307.40 0.02532
307.50 0.02541
307.60 0.02551
307.70 0.0256
307.80 0.0257
307.90 0.02579
308.00 0.02589
308.10 0.02599
308.20 0.02609
308.30 0.02619
308.40 0.0263
308.50 0.0264
308.60 0.0265
308.70 0.0266
308.80 0.0267
308.90 0.02681
309.00 0.02691
309.10 0.02701
309.20 0.02711
309.30 0.02721
309.40 0.02731
309.50 0.02741
309.60 0.02751
309.70 0.02761
309.80 0.02771
309.90 0.02782
310.00 0.02792
310.10 0.02803
310.20 0.02813
310.30 0.02824
310.40 0.02835
310.50 0.02846
310.60 0.02857
310.70 0.02867
310.80 0.02878
310.90 0.02889
311.00 0.029
311.10 0.0291
311.20 0.02921
311.30 0.02932
311.40 0.02943
311.50 0.02953
311.60 0.02964
311.70 0.02975
311.80 0.02985
311.90 0.02996
312.00 0.03007
312.10 0.03017
312.20 0.03028
312.30 0.03039
312.40 0.03051
312.50 0.03062
312.60 0.03073
312.70 0.03085
312.80 0.03096
312.90 0.03108
313.00 0.03119
313.10 0.0313
313.20 0.03142
313.30 0.03153
313.40 0.03164
313.50 0.03176
313.60 0.03187
313.70 0.03198
313.80 0.03209
313.90 0.03221
314.00 0.03232
314.10 0.03244
314.20 0.03256
314.30 0.03268
314.40 0.0328
314.50 0.03292
314.60 0.03304
314.70 0.03316
314.80 0.03328
314.90 0.0334
315.00 0.03352
315.10 0.03364
315.20 0.03376
315.30 0.03387
315.40 0.03399
315.50 0.03411
315.60 0.03423
315.70 0.03435
315.80 0.03447
315.90 0.03459
316.00 0.03471
316.10 0.03483
316.20 0.03496
316.30 0.03508
316.40 0.03521
316.50 0.03534
316.60 0.03546
316.70 0.03559
316.80 0.03571
316.90 0.03584
317.00 0.03597
317.10 0.03609
317.20 0.03622
317.30 0.03634
317.40 0.03647
317.50 0.03659
317.60 0.03672
317.70 0.03684
317.80 0.03697
317.90 0.03709
318.00 0.03722
318.10 0.03735
318.20 0.03748
318.30 0.03761
318.40 0.03775
318.50 0.03788
318.60 0.03801
318.70 0.03815
318.80 0.03828
318.90 0.03841
319.00 0.03854
319.10 0.03868
319.20 0.03881
319.30 0.03894
319.40 0.03907
319.50 0.0392
319.60 0.03933
319.70 0.03946
319.80 0.03959
319.90 0.03973
320.00 0.03986
320.10 0.04
320.20 0.04014
320.30 0.04028
320.40 0.04042
320.50 0.04056
320.60 0.0407
320.70 0.04084
320.80 0.04098
320.90 0.04111
321.00 0.04125
321.10 0.04139
321.20 0.04153
321.30 0.04167
321.40 0.04181
321.50 0.04195
321.60 0.04208
321.70 0.04222
321.80 0.04236
321.90 0.0425
322.00 0.04264
322.10 0.04278
322.20 0.04293
322.30 0.04308
322.40 0.04322
322.50 0.04337
322.60 0.04352
322.70 0.04366
322.80 0.04381
322.90 0.04395
323.00 0.0441
323.10 0.04425
323.20 0.04439
323.30 0.04454
323.40 0.04468
323.50 0.04483
323.60 0.04497
323.70 0.04512
323.80 0.04526
323.90 0.04541
324.00 0.04555
324.10 0.0457
324.20 0.04586
324.30 0.04601
324.40 0.04617
324.50 0.04632
324.60 0.04647
324.70 0.04663
324.80 0.04678
324.90 0.04693
325.00 0.04709
325.10 0.04724
325.20 0.04739
325.30 0.04755
325.40 0.0477
325.50 0.04785
325.60 0.048
325.70 0.04815
325.80 0.04831
325.90 0.04846
326.00 0.04861
326.10 0.04877
326.20 0.04893
326.30 0.04909
326.40 0.04925
326.50 0.04942
326.60 0.04958
326.70 0.04974
326.80 0.0499
326.90 0.05006
327.00 0.05022
327.10 0.05038
327.20 0.05054
327.30 0.0507
327.40 0.05086
327.50 0.05102
327.60 0.05118
327.70 0.05134
327.80 0.0515
327.90 0.05166
328.00 0.05182
328.10 0.05199
328.20 0.05215
328.30 0.05232
328.40 0.05249
328.50 0.05266
328.60 0.05283
328.70 0.053
328.80 0.05316
328.90 0.05333
329.00 0.0535
329.10 0.05367
329.20 0.05384
329.30 0.054
329.40 0.05417
329.50 0.05434
329.60 0.0545
329.70 0.05467
329.80 0.05484
329.90 0.055
330.00 0.05517
330.10 0.05534
330.20 0.05552
330.30 0.0557
330.40 0.05588
330.50 0.05605
330.60 0.05623
330.70 0.05641
330.80 0.05658
330.90 0.05676
331.00 0.05693
331.10 0.05711
331.20 0.05728
331.30 0.05746
331.40 0.05763
331.50 0.05781
331.60 0.05798
331.70 0.05815
331.80 0.05833
331.90 0.0585
332.00 0.05867
332.10 0.05886
332.20 0.05905
332.30 0.05923
332.40 0.05942
332.50 0.0596
332.60 0.05978
332.70 0.05997
332.80 0.06015
332.90 0.06034
333.00 0.06052
333.10 0.0607
333.20 0.06089
333.30 0.06107
333.40 0.06125
333.50 0.06143
333.60 0.06162
333.70 0.0618
333.80 0.06198
333.90 0.06216
334.00 0.06234
334.10 0.06254
334.20 0.06273
334.30 0.06292
334.40 0.06311
334.50 0.06331
334.60 0.0635
334.70 0.06369
334.80 0.06388
334.90 0.06408
335.00 0.06427
335.10 0.06446
335.20 0.06465
335.30 0.06484
335.40 0.06503
335.50 0.06522
335.60 0.06541
335.70 0.0656
335.80 0.06579
335.90 0.06598
336.00 0.06617
336.10 0.06637
336.20 0.06657
336.30 0.06677
336.40 0.06697
336.50 0.06718
336.60 0.06738
336.70 0.06758
336.80 0.06778
336.90 0.06798
337.00 0.06818
337.10 0.06838
337.20 0.06858
337.30 0.06877
337.40 0.06897
337.50 0.06917
337.60 0.06937
337.70 0.06957
337.80 0.06977
337.90 0.06996
338.00 0.07016
338.10 0.07037
338.20 0.07058
338.30 0.07079
338.40 0.071
338.50 0.07121
338.60 0.07142
338.70 0.07163
338.80 0.07184
338.90 0.07204
339.00 0.07225
339.10 0.07246
339.20 0.07267
339.30 0.07287
339.40 0.07308
339.50 0.07329
339.60 0.07349
339.70 0.0737
339.80 0.07391
339.90 0.07411
340.00 0.07432
340.10 0.07454
340.20 0.07476
340.30 0.07497
340.40 0.07519
340.50 0.07541
340.60 0.07563
340.70 0.07585
340.80 0.07606
340.90 0.07628
341.00 0.0765
341.10 0.07671
341.20 0.07693
341.30 0.07714
341.40 0.07736
341.50 0.07757
341.60 0.07779
341.70 0.078
341.80 0.07822
341.90 0.07843
342.00 0.07865
342.10 0.07887
342.20 0.0791
342.30 0.07933
342.40 0.07956
342.50 0.07978
342.60 0.08001
342.70 0.08024
342.80 0.08046
342.90 0.08069
343.00 0.08091
343.10 0.08114
343.20 0.08136
343.30 0.08159
343.40 0.08181
343.50 0.08203
343.60 0.08226
343.70 0.08248
343.80 0.0827
343.90 0.08293
344.00 0.08315
344.10 0.08339
344.20 0.08362
344.30 0.08386
344.40 0.08409
344.50 0.08433
344.60 0.08457
344.70 0.0848
344.80 0.08504
344.90 0.08527
345.00 0.0855
345.10 0.08574
345.20 0.08597
345.30 0.0862
345.40 0.08644
345.50 0.08667
345.60 0.0869
345.70 0.08713
345.80 0.08737
345.90 0.0876
346.00 0.08783
346.10 0.08808
346.20 0.08832
346.30 0.08857
346.40 0.08881
346.50 0.08906
346.60 0.0893
346.70 0.08954
346.80 0.08979
346.90 0.09003
347.00 0.09027
347.10 0.09052
347.20 0.09076
347.30 0.091
347.40 0.09124
347.50 0.09148
347.60 0.09173
347.70 0.09197
347.80 0.09221
347.90 0.09245
348.00 0.09269
348.10 0.09294
348.20 0.0932
348.30 0.09345
348.40 0.09371
348.50 0.09396
348.60 0.09421
348.70 0.09447
348.80 0.09472
348.90 0.09497
349.00 0.09522
349.10 0.09548
349.20 0.09573
349.30 0.09598
349.40 0.09623
349.50 0.09648
349.60 0.09673
349.70 0.09698
349.80 0.09723
349.90 0.09748
350.00 0.09773
350.10 0.09799
350.20 0.09826
350.30 0.09852
350.40 0.09878
350.50 0.09905
350.60 0.09931
350.70 0.09957
350.80 0.09983
350.90 0.1001
351.00 0.1004
351.10 0.1006
351.20 0.1009
351.30 0.1011
351.40 0.1014
351.50 0.1017
351.60 0.1019
351.70 0.1022
351.80 0.1024
351.90 0.1027
352.00 0.103
352.10 0.1032
352.20 0.1035
352.30 0.1038
352.40 0.104
352.50 0.1043
352.60 0.1046
352.70 0.1049
352.80 0.1051
352.90 0.1054
353.00 0.1057
353.10 0.1059
353.20 0.1062
353.30 0.1065
353.40 0.1068
353.50 0.107
353.60 0.1073
353.70 0.1076
353.80 0.1078
353.90 0.1081
354.00 0.1084
354.10 0.1087
354.20 0.1089
354.30 0.1092
354.40 0.1095
354.50 0.1098
354.60 0.1101
354.70 0.1103
354.80 0.1106
354.90 0.1109
355.00 0.1112
355.10 0.1115
355.20 0.1117
355.30 0.112
355.40 0.1123
355.50 0.1126
355.60 0.1129
355.70 0.1131
355.80 0.1134
355.90 0.1137
356.00 0.114
356.10 0.1143
356.20 0.1146
356.30 0.1148
356.40 0.1151
356.50 0.1154
356.60 0.1157
356.70 0.116
356.80 0.1163
356.90 0.1166
357.00 0.1169
357.10 0.1172
357.20 0.1175
357.30 0.1177
357.40 0.118
357.50 0.1183
357.60 0.1186
357.70 0.1189
357.80 0.1192
357.90 0.1195
358.00 0.1198
358.10 0.1201
358.20 0.1204
358.30 0.1207
358.40 0.121
358.50 0.1213
358.60 0.1216
358.70 0.1219
358.80 0.1222
358.90 0.1225
359.00 0.1228
359.10 0.1231
359.20 0.1234
359.30 0.1237
359.40 0.124
359.50 0.1243
359.60 0.1246
359.70 0.1249
359.80 0.1252
359.90 0.1255
360.00 0.1257
360.10 0.1261
360.20 0.1264
360.30 0.1267
360.40 0.127
360.50 0.1273
360.60 0.1276
360.70 0.1279
360.80 0.1282
360.90 0.1286
361.00 0.1289
361.10 0.1292
361.20 0.1295
361.30 0.1298
361.40 0.1301
361.50 0.1304
361.60 0.1307
361.70 0.131
361.80 0.1313
361.90 0.1316
362.00 0.1319
362.10 0.1323
362.20 0.1326
362.30 0.1329
362.40 0.1332
362.50 0.1335
362.60 0.1338
362.70 0.1342
362.80 0.1345
362.90 0.1348
363.00 0.1351
363.10 0.1354
363.20 0.1357
363.30 0.1361
363.40 0.1364
363.50 0.1367
363.60 0.137
363.70 0.1374
363.80 0.1377
363.90 0.138
364.00 0.1383
364.10 0.1387
364.20 0.139
364.30 0.1393
364.40 0.1396
364.50 0.1399
364.60 0.1403
364.70 0.1406
364.80 0.1409
364.90 0.1413
365.00 0.1416
365.10 0.1419
365.20 0.1423
365.30 0.1426
365.40 0.1429
365.50 0.1433
365.60 0.1436
365.70 0.1439
365.80 0.1442
365.90 0.1446
366.00 0.1449
366.10 0.1452
366.20 0.1456
366.30 0.1459
366.40 0.1463
366.50 0.1466
366.60 0.1469
366.70 0.1473
366.80 0.1476
366.90 0.148
367.00 0.1483
367.10 0.1486
367.20 0.149
367.30 0.1493
367.40 0.1497
367.50 0.15
367.60 0.1503
367.70 0.1507
367.80 0.151
367.90 0.1513
368.00 0.1517
368.10 0.152
368.20 0.1524
368.30 0.1527
368.40 0.1531
368.50 0.1534
368.60 0.1538
368.70 0.1541
368.80 0.1545
368.90 0.1548
369.00 0.1552
369.10 0.1555
369.20 0.1559
369.30 0.1562
369.40 0.1566
369.50 0.1569
369.60 0.1573
369.70 0.1576
369.80 0.158
369.90 0.1583
370.00 0.1587
370.10 0.159
370.20 0.1594
370.30 0.1597
370.40 0.1601
370.50 0.1605
370.60 0.1608
370.70 0.1612
370.80 0.1616
370.90 0.1619
371.00 0.1623
371.10 0.1626
371.20 0.163
371.30 0.1634
371.40 0.1637
371.50 0.1641
371.60 0.1644
371.70 0.1648
371.80 0.1651
371.90 0.1655
372.00 0.1658
372.10 0.1662
372.20 0.1666
372.30 0.167
372.40 0.1673
372.50 0.1677
372.60 0.1681
372.70 0.1685
372.80 0.1688
372.90 0.1692
373.00 0.1696
373.10 0.1699
373.20 0.1703
373.30 0.1707
373.40 0.171
373.50 0.1714
373.60 0.1718
373.70 0.1721
373.80 0.1725
373.90 0.1729
374.00 0.1732
374.10 0.1736
374.20 0.174
374.30 0.1744
374.40 0.1748
374.50 0.1752
374.60 0.1755
374.70 0.1759
374.80 0.1763
374.90 0.1767
375.00 0.1771
375.10 0.1774
375.20 0.1778
375.30 0.1782
375.40 0.1786
375.50 0.179
375.60 0.1793
375.70 0.1797
375.80 0.1801
375.90 0.1805
376.00 0.1808
376.10 0.1812
376.20 0.1816
376.30 0.182
376.40 0.1824
376.50 0.1828
376.60 0.1832
376.70 0.1836
376.80 0.1839
376.90 0.1843
377.00 0.1847
377.10 0.1851
377.20 0.1855
377.30 0.1859
377.40 0.1863
377.50 0.1867
377.60 0.1871
377.70 0.1875
377.80 0.1879
377.90 0.1882
378.00 0.1886
378.10 0.189
378.20 0.1894
378.30 0.1898
378.40 0.1902
378.50 0.1906
378.60 0.191
378.70 0.1914
378.80 0.1918
378.90 0.1922
379.00 0.1926
379.10 0.193
379.20 0.1934
379.30 0.1938
379.40 0.1942
379.50 0.1946
379.60 0.195
379.70 0.1954
379.80 0.1959
379.90 0.1963
380.00 0.1967
380.10 0.1971
380.20 0.1975
380.30 0.1979
380.40 0.1983
380.50 0.1987
380.60 0.1991
380.70 0.1995
380.80 0.1999
380.90 0.2003
381.00 0.2007
381.10 0.2012
381.20 0.2016
381.30 0.202
381.40 0.2024
381.50 0.2028
381.60 0.2032
381.70 0.2036
381.80 0.204
381.90 0.2044
382.00 0.2049
382.10 0.2053
382.20 0.2057
382.30 0.2061
382.40 0.2065
382.50 0.207
382.60 0.2074
382.70 0.2078
382.80 0.2082
382.90 0.2086
383.00 0.2091
383.10 0.2095
383.20 0.2099
383.30 0.2103
383.40 0.2107
383.50 0.2112
383.60 0.2116
383.70 0.212
383.80 0.2124
383.90 0.2129
384.00 0.2133
384.10 0.2137
384.20 0.2141
384.30 0.2146
384.40 0.215
384.50 0.2154
384.60 0.2159
384.70 0.2163
384.80 0.2167
384.90 0.2171
385.00 0.2176
385.10 0.218
385.20 0.2184
385.30 0.2189
385.40 0.2193
385.50 0.2197
385.60 0.2202
385.70 0.2206
385.80 0.221
385.90 0.2215
386.00 0.2219
386.10 0.2224
386.20 0.2228
386.30 0.2232
386.40 0.2237
386.50 0.2241
386.60 0.2245
386.70 0.225
386.80 0.2254
386.90 0.2259
387.00 0.2263
387.10 0.2268
387.20 0.2272
387.30 0.2277
387.40 0.2281
387.50 0.2285
387.60 0.229
387.70 0.2294
387.80 0.2299
387.90 0.2303
388.00 0.2308
388.10 0.2312
388.20 0.2317
388.30 0.2321
388.40 0.2326
388.50 0.233
388.60 0.2335
388.70 0.2339
388.80 0.2344
388.90 0.2348
389.00 0.2353
389.10 0.2357
389.20 0.2362
389.30 0.2366
389.40 0.2371
389.50 0.2375
389.60 0.238
389.70 0.2384
389.80 0.2389
389.90 0.2394
390.00 0.2398
390.10 0.2403
390.20 0.2407
390.30 0.2412
390.40 0.2416
390.50 0.2421
390.60 0.2426
390.70 0.243
390.80 0.2435
390.90 0.244
391.00 0.2444
391.10 0.2449
391.20 0.2453
391.30 0.2458
391.40 0.2463
391.50 0.2467
391.60 0.2472
391.70 0.2477
391.80 0.2481
391.90 0.2486
392.00 0.2491
392.10 0.2495
392.20 0.25
392.30 0.2505
392.40 0.2509
392.50 0.2514
392.60 0.2519
392.70 0.2524
392.80 0.2528
392.90 0.2533
393.00 0.2538
393.10 0.2542
393.20 0.2547
393.30 0.2552
393.40 0.2557
393.50 0.2561
393.60 0.2566
393.70 0.2571
393.80 0.2576
393.90 0.258
394.00 0.2585
394.10 0.259
394.20 0.2595
394.30 0.26
394.40 0.2604
394.50 0.2609
394.60 0.2614
394.70 0.2619
394.80 0.2624
394.90 0.2629
395.00 0.2633
395.10 0.2638
395.20 0.2643
395.30 0.2648
395.40 0.2653
395.50 0.2658
395.60 0.2662
395.70 0.2667
395.80 0.2672
395.90 0.2677
396.00 0.2682
396.10 0.2687
396.20 0.2692
396.30 0.2697
396.40 0.2702
396.50 0.2706
396.60 0.2711
396.70 0.2716
396.80 0.2721
396.90 0.2726
397.00 0.2731
397.10 0.2736
397.20 0.2741
397.30 0.2746
397.40 0.2751
397.50 0.2756
397.60 0.2761
397.70 0.2766
397.80 0.2771
397.90 0.2776
398.00 0.2781
398.10 0.2786
398.20 0.2791
398.30 0.2796
398.40 0.2801
398.50 0.2806
398.60 0.2811
398.70 0.2816
398.80 0.2821
398.90 0.2826
399.00 0.2831
399.10 0.2836
399.20 0.2841
399.30 0.2846
399.40 0.2851
399.50 0.2856
399.60 0.2861
399.70 0.2866
399.80 0.2871
399.90 0.2876
400.00 0.2881
400.10 0.2887
400.20 0.2892
400.30 0.2897
400.40 0.2902
400.50 0.2907
400.60 0.2912
400.70 0.2917
400.80 0.2922
400.90 0.2928
401.00 0.2933
401.10 0.2938
401.20 0.2943
401.30 0.2948
401.40 0.2953
401.50 0.2959
401.60 0.2964
401.70 0.2969
401.80 0.2974
401.90 0.2979
402.00 0.2984
402.10 0.299
402.20 0.2995
402.30 0.3
402.40 0.3005
402.50 0.301
402.60 0.3016
402.70 0.3021
402.80 0.3026
402.90 0.3031
403.00 0.3037
403.10 0.3042
403.20 0.3047
403.30 0.3052
403.40 0.3058
403.50 0.3063
403.60 0.3068
403.70 0.3073
403.80 0.3079
403.90 0.3084
404.00 0.3089
404.10 0.3095
404.20 0.31
404.30 0.3105
404.40 0.3111
404.50 0.3116
404.60 0.3121
404.70 0.3126
404.80 0.3132
404.90 0.3137
405.00 0.3142
405.10 0.3148
405.20 0.3153
405.30 0.3159
405.40 0.3164
405.50 0.3169
405.60 0.3175
405.70 0.318
405.80 0.3185
405.90 0.3191
406.00 0.3196
406.10 0.3202
406.20 0.3207
406.30 0.3212
406.40 0.3218
406.50 0.3223
406.60 0.3229
406.70 0.3234
406.80 0.324
406.90 0.3245
407.00 0.325
407.10 0.3256
407.20 0.3261
407.30 0.3267
407.40 0.3272
407.50 0.3278
407.60 0.3283
407.70 0.3289
407.80 0.3294
407.90 0.33
408.00 0.3305
408.10 0.3311
408.20 0.3316
408.30 0.3322
408.40 0.3327
408.50 0.3333
408.60 0.3338
408.70 0.3344
408.80 0.3349
408.90 0.3355
409.00 0.336
409.10 0.3366
409.20 0.3371
409.30 0.3377
409.40 0.3383
409.50 0.3388
409.60 0.3394
409.70 0.3399
409.80 0.3405
409.90 0.341
410.00 0.3416
410.10 0.3422
410.20 0.3427
410.30 0.3433
410.40 0.3438
410.50 0.3444
410.60 0.345
410.70 0.3455
410.80 0.3461
410.90 0.3467
411.00 0.3472
411.10 0.3478
411.20 0.3483
411.30 0.3489
411.40 0.3495
411.50 0.35
411.60 0.3506
411.70 0.3512
411.80 0.3517
411.90 0.3523
412.00 0.3529
412.10 0.3534
412.20 0.354
412.30 0.3546
412.40 0.3552
412.50 0.3557
412.60 0.3563
412.70 0.3569
412.80 0.3575
412.90 0.358
413.00 0.3586
413.10 0.3592
413.20 0.3597
413.30 0.3603
413.40 0.3609
413.50 0.3615
413.60 0.3621
413.70 0.3626
413.80 0.3632
413.90 0.3638
414.00 0.3644
414.10 0.3649
414.20 0.3655
414.30 0.3661
414.40 0.3667
414.50 0.3673
414.60 0.3678
414.70 0.3684
414.80 0.369
414.90 0.3696
415.00 0.3702
415.10 0.3708
415.20 0.3713
415.30 0.3719
415.40 0.3725
415.50 0.3731
415.60 0.3737
415.70 0.3743
415.80 0.3749
415.90 0.3755
416.00 0.376
416.10 0.3766
416.20 0.3772
416.30 0.3778
416.40 0.3784
416.50 0.379
416.60 0.3796
416.70 0.3802
416.80 0.3808
416.90 0.3814
417.00 0.3819
417.10 0.3825
417.20 0.3831
417.30 0.3837
417.40 0.3843
417.50 0.3849
417.60 0.3855
417.70 0.3861
417.80 0.3867
417.90 0.3873
418.00 0.3879
418.10 0.3885
418.20 0.3891
418.30 0.3897
418.40 0.3903
418.50 0.3909
418.60 0.3915
418.70 0.3921
418.80 0.3927
418.90 0.3933
419.00 0.3939
419.10 0.3945
419.20 0.3951
419.30 0.3957
419.40 0.3963
419.50 0.3969
419.60 0.3975
419.70 0.3981
419.80 0.3987
419.90 0.3994
420.00 0.4
420.10 0.4006
420.20 0.4012
420.30 0.4018
420.40 0.4024
420.50 0.403
420.60 0.4036
420.70 0.4042
420.80 0.4048
420.90 0.4054
421.00 0.406
421.10 0.4067
421.20 0.4073
421.30 0.4079
421.40 0.4085
421.50 0.4091
421.60 0.4097
421.70 0.4103
421.80 0.411
421.90 0.4116
422.00 0.4122
422.10 0.4128
422.20 0.4134
422.30 0.4141
422.40 0.4147
422.50 0.4153
422.60 0.4159
422.70 0.4165
422.80 0.4172
422.90 0.4178
423.00 0.4184
423.10 0.419
423.20 0.4196
423.30 0.4203
423.40 0.4209
423.50 0.4215
423.60 0.4221
423.70 0.4227
423.80 0.4234
423.90 0.424
424.00 0.4246
424.10 0.4252
424.20 0.4259
424.30 0.4265
424.40 0.4271
424.50 0.4278
424.60 0.4284
424.70 0.429
424.80 0.4297
424.90 0.4303
425.00 0.4309
425.10 0.4315
425.20 0.4322
425.30 0.4328
425.40 0.4334
425.50 0.4341
425.60 0.4347
425.70 0.4353
425.80 0.436
425.90 0.4366
426.00 0.4372
426.10 0.4379
426.20 0.4385
426.30 0.4391
426.40 0.4398
426.50 0.4404
426.60 0.441
426.70 0.4417
426.80 0.4423
426.90 0.443
427.00 0.4436
427.10 0.4442
427.20 0.4449
427.30 0.4455
427.40 0.4462
427.50 0.4468
427.60 0.4474
427.70 0.4481
427.80 0.4487
427.90 0.4494
428.00 0.45
428.10 0.4507
428.20 0.4513
428.30 0.452
428.40 0.4526
428.50 0.4532
428.60 0.4539
428.70 0.4545
428.80 0.4552
428.90 0.4558
429.00 0.4565
429.10 0.4571
429.20 0.4578
429.30 0.4584
429.40 0.4591
429.50 0.4597
429.60 0.4604
429.70 0.461
429.80 0.4617
429.90 0.4623
430.00 0.463
430.10 0.4636
430.20 0.4643
430.30 0.4649
430.40 0.4656
430.50 0.4663
430.60 0.4669
430.70 0.4676
430.80 0.4682
430.90 0.4689
431.00 0.4695
431.10 0.4702
431.20 0.4708
431.30 0.4715
431.40 0.4722
431.50 0.4728
431.60 0.4735
431.70 0.4741
431.80 0.4748
431.90 0.4755
432.00 0.4761
432.10 0.4768
432.20 0.4775
432.30 0.4781
432.40 0.4788
432.50 0.4794
432.60 0.4801
432.70 0.4808
432.80 0.4814
432.90 0.4821
433.00 0.4828
433.10 0.4834
433.20 0.4841
433.30 0.4847
433.40 0.4854
433.50 0.4861
433.60 0.4868
433.70 0.4874
433.80 0.4881
433.90 0.4888
434.00 0.4894
434.10 0.4901
434.20 0.4908
434.30 0.4914
434.40 0.4921
434.50 0.4928
434.60 0.4935
434.70 0.4941
434.80 0.4948
434.90 0.4955
435.00 0.4961
435.10 0.4968
435.20 0.4975
435.30 0.4982
435.40 0.4989
435.50 0.4995
435.60 0.5002
435.70 0.5009
435.80 0.5016
435.90 0.5022
436.00 0.5029
436.10 0.5036
436.20 0.5043
436.30 0.5049
436.40 0.5056
436.50 0.5063
436.60 0.507
436.70 0.5077
436.80 0.5083
436.90 0.509
437.00 0.5097
437.10 0.5104
437.20 0.5111
437.30 0.5118
437.40 0.5124
437.50 0.5131
437.60 0.5138
437.70 0.5145
437.80 0.5152
437.90 0.5159
438.00 0.5166
438.10 0.5172
438.20 0.5179
438.30 0.5186
438.40 0.5193
438.50 0.52
438.60 0.5207
438.70 0.5214
438.80 0.522
438.90 0.5227
439.00 0.5234
439.10 0.5241
439.20 0.5248
439.30 0.5255
439.40 0.5262
