# Version 2.1 - nm, norm@500 to 1, cut digits, bergeron_5250_85.dat_5250
# Wavelength(nm)  Flambda(ergs/cm^s/s/nm)
300.00 0.4366
300.10 0.4371
300.20 0.4376
300.30 0.4381
300.40 0.4385
300.50 0.439
300.60 0.4395
300.70 0.44
300.80 0.4404
300.90 0.4409
301.00 0.4414
301.10 0.4419
301.20 0.4423
301.30 0.4428
301.40 0.4433
301.50 0.4437
301.60 0.4442
301.70 0.4447
301.80 0.4452
301.90 0.4456
302.00 0.4461
302.10 0.4466
302.20 0.447
302.30 0.4475
302.40 0.448
302.50 0.4485
302.60 0.449
302.70 0.4494
302.80 0.4499
302.90 0.4504
303.00 0.4509
303.10 0.4513
303.20 0.4518
303.30 0.4523
303.40 0.4527
303.50 0.4532
303.60 0.4537
303.70 0.4542
303.80 0.4546
303.90 0.4551
304.00 0.4556
304.10 0.456
304.20 0.4565
304.30 0.457
304.40 0.4575
304.50 0.4579
304.60 0.4584
304.70 0.4589
304.80 0.4594
304.90 0.4598
305.00 0.4603
305.10 0.4608
305.20 0.4613
305.30 0.4617
305.40 0.4622
305.50 0.4627
305.60 0.4631
305.70 0.4636
305.80 0.4641
305.90 0.4645
306.00 0.465
306.10 0.4655
306.20 0.466
306.30 0.4664
306.40 0.4669
306.50 0.4674
306.60 0.4679
306.70 0.4683
306.80 0.4688
306.90 0.4693
307.00 0.4698
307.10 0.4702
307.20 0.4707
307.30 0.4712
307.40 0.4716
307.50 0.4721
307.60 0.4726
307.70 0.473
307.80 0.4735
307.90 0.474
308.00 0.4745
308.10 0.4749
308.20 0.4754
308.30 0.4759
308.40 0.4764
308.50 0.4768
308.60 0.4773
308.70 0.4778
308.80 0.4782
308.90 0.4787
309.00 0.4792
309.10 0.4797
309.20 0.4801
309.30 0.4806
309.40 0.4811
309.50 0.4815
309.60 0.482
309.70 0.4825
309.80 0.4829
309.90 0.4834
310.00 0.4839
310.10 0.4843
310.20 0.4848
310.30 0.4853
310.40 0.4858
310.50 0.4862
310.60 0.4867
310.70 0.4872
310.80 0.4877
310.90 0.4881
311.00 0.4886
311.10 0.4891
311.20 0.4895
311.30 0.49
311.40 0.4905
311.50 0.4909
311.60 0.4914
311.70 0.4919
311.80 0.4923
311.90 0.4928
312.00 0.4933
312.10 0.4937
312.20 0.4942
312.30 0.4947
312.40 0.4951
312.50 0.4956
312.60 0.4961
312.70 0.4966
312.80 0.497
312.90 0.4975
313.00 0.498
313.10 0.4984
313.20 0.4989
313.30 0.4994
313.40 0.4998
313.50 0.5003
313.60 0.5008
313.70 0.5012
313.80 0.5017
313.90 0.5022
314.00 0.5026
314.10 0.5031
314.20 0.5036
314.30 0.504
314.40 0.5045
314.50 0.505
314.60 0.5055
314.70 0.5059
314.80 0.5064
314.90 0.5069
315.00 0.5073
315.10 0.5078
315.20 0.5083
315.30 0.5087
315.40 0.5092
315.50 0.5097
315.60 0.5101
315.70 0.5106
315.80 0.511
315.90 0.5115
316.00 0.512
316.10 0.5124
316.20 0.5129
316.30 0.5134
316.40 0.5138
316.50 0.5143
316.60 0.5148
316.70 0.5153
316.80 0.5157
316.90 0.5162
317.00 0.5166
317.10 0.5171
317.20 0.5176
317.30 0.518
317.40 0.5185
317.50 0.519
317.60 0.5194
317.70 0.5199
317.80 0.5203
317.90 0.5208
318.00 0.5213
318.10 0.5217
318.20 0.5222
318.30 0.5227
318.40 0.5231
318.50 0.5236
318.60 0.5241
318.70 0.5245
318.80 0.525
318.90 0.5255
319.00 0.5259
319.10 0.5264
319.20 0.5269
319.30 0.5273
319.40 0.5278
319.50 0.5282
319.60 0.5287
319.70 0.5292
319.80 0.5296
319.90 0.5301
320.00 0.5305
320.10 0.531
320.20 0.5315
320.30 0.5319
320.40 0.5324
320.50 0.5329
320.60 0.5333
320.70 0.5338
320.80 0.5342
320.90 0.5347
321.00 0.5352
321.10 0.5356
321.20 0.5361
321.30 0.5366
321.40 0.537
321.50 0.5375
321.60 0.5379
321.70 0.5384
321.80 0.5388
321.90 0.5393
322.00 0.5398
322.10 0.5402
322.20 0.5407
322.30 0.5411
322.40 0.5416
322.50 0.5421
322.60 0.5425
322.70 0.543
322.80 0.5435
322.90 0.5439
323.00 0.5444
323.10 0.5448
323.20 0.5453
323.30 0.5457
323.40 0.5462
323.50 0.5467
323.60 0.5471
323.70 0.5476
323.80 0.548
323.90 0.5485
324.00 0.5489
324.10 0.5494
324.20 0.5499
324.30 0.5503
324.40 0.5508
324.50 0.5512
324.60 0.5517
324.70 0.5522
324.80 0.5526
324.90 0.5531
325.00 0.5535
325.10 0.554
325.20 0.5544
325.30 0.5549
325.40 0.5553
325.50 0.5558
325.60 0.5563
325.70 0.5567
325.80 0.5572
325.90 0.5576
326.00 0.5581
326.10 0.5585
326.20 0.559
326.30 0.5594
326.40 0.5599
326.50 0.5603
326.60 0.5608
326.70 0.5613
326.80 0.5617
326.90 0.5622
327.00 0.5626
327.10 0.5631
327.20 0.5635
327.30 0.564
327.40 0.5644
327.50 0.5649
327.60 0.5653
327.70 0.5658
327.80 0.5662
327.90 0.5667
328.00 0.5671
328.10 0.5676
328.20 0.568
328.30 0.5685
328.40 0.569
328.50 0.5694
328.60 0.5699
328.70 0.5703
328.80 0.5708
328.90 0.5712
329.00 0.5717
329.10 0.5721
329.20 0.5726
329.30 0.573
329.40 0.5735
329.50 0.5739
329.60 0.5744
329.70 0.5748
329.80 0.5753
329.90 0.5757
330.00 0.5762
330.10 0.5766
330.20 0.5771
330.30 0.5775
330.40 0.578
330.50 0.5784
330.60 0.5789
330.70 0.5793
330.80 0.5798
330.90 0.5802
331.00 0.5807
331.10 0.5811
331.20 0.5816
331.30 0.582
331.40 0.5825
331.50 0.5829
331.60 0.5833
331.70 0.5838
331.80 0.5842
331.90 0.5847
332.00 0.5851
332.10 0.5856
332.20 0.586
332.30 0.5865
332.40 0.5869
332.50 0.5874
332.60 0.5878
332.70 0.5883
332.80 0.5887
332.90 0.5891
333.00 0.5896
333.10 0.59
333.20 0.5905
333.30 0.5909
333.40 0.5914
333.50 0.5918
333.60 0.5923
333.70 0.5927
333.80 0.5931
333.90 0.5936
334.00 0.594
334.10 0.5945
334.20 0.5949
334.30 0.5954
334.40 0.5958
334.50 0.5962
334.60 0.5967
334.70 0.5971
334.80 0.5976
334.90 0.598
335.00 0.5985
335.10 0.5989
335.20 0.5993
335.30 0.5998
335.40 0.6002
335.50 0.6007
335.60 0.6011
335.70 0.6015
335.80 0.602
335.90 0.6024
336.00 0.6028
336.10 0.6033
336.20 0.6037
336.30 0.6042
336.40 0.6046
336.50 0.6051
336.60 0.6055
336.70 0.6059
336.80 0.6064
336.90 0.6068
337.00 0.6073
337.10 0.6077
337.20 0.6081
337.30 0.6086
337.40 0.609
337.50 0.6094
337.60 0.6099
337.70 0.6103
337.80 0.6107
337.90 0.6112
338.00 0.6116
338.10 0.6121
338.20 0.6125
338.30 0.6129
338.40 0.6134
338.50 0.6138
338.60 0.6143
338.70 0.6147
338.80 0.6151
338.90 0.6156
339.00 0.616
339.10 0.6164
339.20 0.6169
339.30 0.6173
339.40 0.6177
339.50 0.6182
339.60 0.6186
339.70 0.619
339.80 0.6195
339.90 0.6199
340.00 0.6203
340.10 0.6208
340.20 0.6212
340.30 0.6216
340.40 0.6221
340.50 0.6225
340.60 0.6229
340.70 0.6234
340.80 0.6238
340.90 0.6242
341.00 0.6247
341.10 0.6251
341.20 0.6255
341.30 0.626
341.40 0.6264
341.50 0.6268
341.60 0.6272
341.70 0.6277
341.80 0.6281
341.90 0.6285
342.00 0.6289
342.10 0.6294
342.20 0.6298
342.30 0.6302
342.40 0.6307
342.50 0.6311
342.60 0.6315
342.70 0.632
342.80 0.6324
342.90 0.6328
343.00 0.6332
343.10 0.6337
343.20 0.6341
343.30 0.6345
343.40 0.635
343.50 0.6354
343.60 0.6358
343.70 0.6362
343.80 0.6366
343.90 0.6371
344.00 0.6375
344.10 0.6379
344.20 0.6384
344.30 0.6388
344.40 0.6392
344.50 0.6396
344.60 0.6401
344.70 0.6405
344.80 0.6409
344.90 0.6413
345.00 0.6418
345.10 0.6422
345.20 0.6426
345.30 0.643
345.40 0.6434
345.50 0.6439
345.60 0.6443
345.70 0.6447
345.80 0.6451
345.90 0.6455
346.00 0.646
346.10 0.6464
346.20 0.6468
346.30 0.6472
346.40 0.6477
346.50 0.6481
346.60 0.6485
346.70 0.6489
346.80 0.6493
346.90 0.6498
347.00 0.6502
347.10 0.6506
347.20 0.651
347.30 0.6514
347.40 0.6519
347.50 0.6523
347.60 0.6527
347.70 0.6531
347.80 0.6535
347.90 0.6539
348.00 0.6544
348.10 0.6548
348.20 0.6552
348.30 0.6556
348.40 0.656
348.50 0.6565
348.60 0.6569
348.70 0.6573
348.80 0.6577
348.90 0.6581
349.00 0.6585
349.10 0.6589
349.20 0.6594
349.30 0.6598
349.40 0.6602
349.50 0.6606
349.60 0.661
349.70 0.6614
349.80 0.6618
349.90 0.6622
350.00 0.6627
350.10 0.6631
350.20 0.6635
350.30 0.6639
350.40 0.6643
350.50 0.6647
350.60 0.6652
350.70 0.6656
350.80 0.666
350.90 0.6664
351.00 0.6668
351.10 0.6672
351.20 0.6676
351.30 0.668
351.40 0.6685
351.50 0.6689
351.60 0.6693
351.70 0.6697
351.80 0.6701
351.90 0.6705
352.00 0.6709
352.10 0.6713
352.20 0.6717
352.30 0.6721
352.40 0.6725
352.50 0.673
352.60 0.6734
352.70 0.6738
352.80 0.6742
352.90 0.6746
353.00 0.675
353.10 0.6754
353.20 0.6758
353.30 0.6762
353.40 0.6766
353.50 0.677
353.60 0.6774
353.70 0.6778
353.80 0.6782
353.90 0.6786
354.00 0.679
354.10 0.6794
354.20 0.6799
354.30 0.6803
354.40 0.6807
354.50 0.6811
354.60 0.6815
354.70 0.6819
354.80 0.6823
354.90 0.6827
355.00 0.6831
355.10 0.6835
355.20 0.6839
355.30 0.6843
355.40 0.6847
355.50 0.6851
355.60 0.6855
355.70 0.6859
355.80 0.6863
355.90 0.6867
356.00 0.6871
356.10 0.6875
356.20 0.6879
356.30 0.6883
356.40 0.6887
356.50 0.6891
356.60 0.6895
356.70 0.6899
356.80 0.6903
356.90 0.6907
357.00 0.6911
357.10 0.6915
357.20 0.6919
357.30 0.6923
357.40 0.6927
357.50 0.6931
357.60 0.6935
357.70 0.6939
357.80 0.6943
357.90 0.6947
358.00 0.6951
358.10 0.6955
358.20 0.6959
358.30 0.6963
358.40 0.6967
358.50 0.6971
358.60 0.6974
358.70 0.6978
358.80 0.6982
358.90 0.6986
359.00 0.699
359.10 0.6994
359.20 0.6998
359.30 0.7002
359.40 0.7006
359.50 0.701
359.60 0.7014
359.70 0.7018
359.80 0.7022
359.90 0.7026
360.00 0.7029
360.10 0.7033
360.20 0.7037
360.30 0.7041
360.40 0.7045
360.50 0.7049
360.60 0.7053
360.70 0.7057
360.80 0.7061
360.90 0.7065
361.00 0.7069
361.10 0.7072
361.20 0.7076
361.30 0.708
361.40 0.7084
361.50 0.7088
361.60 0.7092
361.70 0.7096
361.80 0.71
361.90 0.7103
362.00 0.7107
362.10 0.7111
362.20 0.7115
362.30 0.7119
362.40 0.7123
362.50 0.7127
362.60 0.7131
362.70 0.7135
362.80 0.7138
362.90 0.7142
363.00 0.7146
363.10 0.715
363.20 0.7154
363.30 0.7158
363.40 0.7162
363.50 0.7165
363.60 0.7169
363.70 0.7173
363.80 0.7177
363.90 0.7181
364.00 0.7184
364.10 0.7188
364.20 0.7192
364.30 0.7196
364.40 0.72
364.50 0.7203
364.60 0.7207
364.70 0.7211
364.80 0.7215
364.90 0.7219
365.00 0.7222
365.10 0.7226
365.20 0.723
365.30 0.7234
365.40 0.7237
365.50 0.7241
365.60 0.7245
365.70 0.7249
365.80 0.7252
365.90 0.7256
366.00 0.726
366.10 0.7264
366.20 0.7268
366.30 0.7271
366.40 0.7275
366.50 0.7279
366.60 0.7283
366.70 0.7287
366.80 0.729
366.90 0.7294
367.00 0.7298
367.10 0.7302
367.20 0.7305
367.30 0.7309
367.40 0.7313
367.50 0.7317
367.60 0.732
367.70 0.7324
367.80 0.7328
367.90 0.7332
368.00 0.7335
368.10 0.7339
368.20 0.7343
368.30 0.7347
368.40 0.735
368.50 0.7354
368.60 0.7358
368.70 0.7361
368.80 0.7365
368.90 0.7369
369.00 0.7373
369.10 0.7376
369.20 0.738
369.30 0.7384
369.40 0.7387
369.50 0.7391
369.60 0.7395
369.70 0.7398
369.80 0.7402
369.90 0.7406
370.00 0.7409
370.10 0.7413
370.20 0.7417
370.30 0.742
370.40 0.7424
370.50 0.7428
370.60 0.7431
370.70 0.7435
370.80 0.7439
370.90 0.7442
371.00 0.7446
371.10 0.745
371.20 0.7453
371.30 0.7457
371.40 0.7461
371.50 0.7464
371.60 0.7468
371.70 0.7471
371.80 0.7475
371.90 0.7479
372.00 0.7482
372.10 0.7486
372.20 0.749
372.30 0.7493
372.40 0.7497
372.50 0.7501
372.60 0.7504
372.70 0.7508
372.80 0.7511
372.90 0.7515
373.00 0.7519
373.10 0.7522
373.20 0.7526
373.30 0.7529
373.40 0.7533
373.50 0.7537
373.60 0.754
373.70 0.7544
373.80 0.7547
373.90 0.7551
374.00 0.7554
374.10 0.7558
374.20 0.7562
374.30 0.7565
374.40 0.7569
374.50 0.7572
374.60 0.7576
374.70 0.7579
374.80 0.7583
374.90 0.7586
375.00 0.759
375.10 0.7594
375.20 0.7597
375.30 0.7601
375.40 0.7604
375.50 0.7608
375.60 0.7611
375.70 0.7615
375.80 0.7618
375.90 0.7622
376.00 0.7625
376.10 0.7629
376.20 0.7632
376.30 0.7636
376.40 0.7639
376.50 0.7643
376.60 0.7646
376.70 0.765
376.80 0.7653
376.90 0.7657
377.00 0.766
377.10 0.7664
377.20 0.7667
377.30 0.7671
377.40 0.7674
377.50 0.7678
377.60 0.7681
377.70 0.7685
377.80 0.7688
377.90 0.7692
378.00 0.7695
378.10 0.7699
378.20 0.7702
378.30 0.7706
378.40 0.7709
378.50 0.7713
378.60 0.7716
378.70 0.772
378.80 0.7723
378.90 0.7727
379.00 0.773
379.10 0.7734
379.20 0.7737
379.30 0.774
379.40 0.7744
379.50 0.7747
379.60 0.7751
379.70 0.7754
379.80 0.7758
379.90 0.7761
380.00 0.7764
380.10 0.7768
380.20 0.7771
380.30 0.7775
380.40 0.7778
380.50 0.7781
380.60 0.7785
380.70 0.7788
380.80 0.7791
380.90 0.7795
381.00 0.7798
381.10 0.7802
381.20 0.7805
381.30 0.7809
381.40 0.7812
381.50 0.7815
381.60 0.7819
381.70 0.7822
381.80 0.7825
381.90 0.7829
382.00 0.7832
382.10 0.7836
382.20 0.7839
382.30 0.7842
382.40 0.7846
382.50 0.7849
382.60 0.7852
382.70 0.7856
382.80 0.7859
382.90 0.7862
383.00 0.7866
383.10 0.7869
383.20 0.7873
383.30 0.7876
383.40 0.7879
383.50 0.7882
383.60 0.7886
383.70 0.7889
383.80 0.7892
383.90 0.7896
384.00 0.7899
384.10 0.7902
384.20 0.7906
384.30 0.7909
384.40 0.7912
384.50 0.7915
384.60 0.7919
384.70 0.7922
384.80 0.7925
384.90 0.7929
385.00 0.7932
385.10 0.7935
385.20 0.7938
385.30 0.7942
385.40 0.7945
385.50 0.7948
385.60 0.7952
385.70 0.7955
385.80 0.7958
385.90 0.7961
386.00 0.7965
386.10 0.7968
386.20 0.7971
386.30 0.7974
386.40 0.7978
386.50 0.7981
386.60 0.7984
386.70 0.7987
386.80 0.7991
386.90 0.7994
387.00 0.7997
387.10 0.8
387.20 0.8004
387.30 0.8007
387.40 0.801
387.50 0.8014
387.60 0.8017
387.70 0.802
387.80 0.8023
387.90 0.8026
388.00 0.803
388.10 0.8033
388.20 0.8036
388.30 0.8039
388.40 0.8042
388.50 0.8045
388.60 0.8049
388.70 0.8052
388.80 0.8055
388.90 0.8057
389.00 0.8061
389.10 0.8064
389.20 0.8068
389.30 0.8071
389.40 0.8074
389.50 0.8077
389.60 0.808
389.70 0.8084
389.80 0.8087
389.90 0.809
390.00 0.8093
390.10 0.8096
390.20 0.8099
390.30 0.8103
390.40 0.8106
390.50 0.8109
390.60 0.8112
390.70 0.8115
390.80 0.8118
390.90 0.8122
391.00 0.8125
391.10 0.8128
391.20 0.8131
391.30 0.8134
391.40 0.8137
391.50 0.814
391.60 0.8144
391.70 0.8147
391.80 0.815
391.90 0.8153
392.00 0.8156
392.10 0.8159
392.20 0.8162
392.30 0.8165
392.40 0.8168
392.50 0.8172
392.60 0.8175
392.70 0.8178
392.80 0.8181
392.90 0.8184
393.00 0.8187
393.10 0.819
393.20 0.8193
393.30 0.8196
393.40 0.8199
393.50 0.8202
393.60 0.8205
393.70 0.8208
393.80 0.8211
393.90 0.8214
394.00 0.8217
394.10 0.8221
394.20 0.8224
394.30 0.8227
394.40 0.8229
394.50 0.8233
394.60 0.8236
394.70 0.8239
394.80 0.8242
394.90 0.8245
395.00 0.8248
395.10 0.8251
395.20 0.8254
395.30 0.8257
395.40 0.826
395.50 0.8263
395.60 0.8266
395.70 0.8269
395.80 0.8272
395.90 0.8275
396.00 0.8277
396.10 0.828
396.20 0.8283
396.30 0.8286
396.40 0.8289
396.50 0.8292
396.60 0.8295
396.70 0.8297
396.80 0.83
396.90 0.8302
397.00 0.8304
397.10 0.8308
397.20 0.8312
397.30 0.8315
397.40 0.8318
397.50 0.8322
397.60 0.8325
397.70 0.8328
397.80 0.8331
397.90 0.8334
398.00 0.8337
398.10 0.834
398.20 0.8343
398.30 0.8346
398.40 0.8349
398.50 0.8352
398.60 0.8355
398.70 0.8358
398.80 0.8361
398.90 0.8364
399.00 0.8367
399.10 0.8369
399.20 0.8372
399.30 0.8375
399.40 0.8378
399.50 0.8381
399.60 0.8384
399.70 0.8387
399.80 0.839
399.90 0.8393
400.00 0.8396
400.10 0.8399
400.20 0.8401
400.30 0.8404
400.40 0.8407
400.50 0.841
400.60 0.8413
400.70 0.8416
400.80 0.8419
400.90 0.8422
401.00 0.8425
401.10 0.8427
401.20 0.843
401.30 0.8433
401.40 0.8436
401.50 0.8439
401.60 0.8442
401.70 0.8444
401.80 0.8447
401.90 0.845
402.00 0.8453
402.10 0.8456
402.20 0.8459
402.30 0.8462
402.40 0.8464
402.50 0.8467
402.60 0.847
402.70 0.8473
402.80 0.8476
402.90 0.8478
403.00 0.8481
403.10 0.8484
403.20 0.8487
403.30 0.8489
403.40 0.8492
403.50 0.8495
403.60 0.8498
403.70 0.8501
403.80 0.8504
403.90 0.8507
404.00 0.8509
404.10 0.8512
404.20 0.8515
404.30 0.8518
404.40 0.852
404.50 0.8523
404.60 0.8526
404.70 0.8529
404.80 0.8531
404.90 0.8534
405.00 0.8537
405.10 0.854
405.20 0.8542
405.30 0.8545
405.40 0.8548
405.50 0.8551
405.60 0.8553
405.70 0.8556
405.80 0.8559
405.90 0.8561
406.00 0.8564
406.10 0.8567
406.20 0.857
406.30 0.8572
406.40 0.8575
406.50 0.8578
406.60 0.858
406.70 0.8583
406.80 0.8586
406.90 0.8588
407.00 0.8591
407.10 0.8594
407.20 0.8597
407.30 0.8599
407.40 0.8602
407.50 0.8604
407.60 0.8607
407.70 0.861
407.80 0.8612
407.90 0.8615
408.00 0.8618
408.10 0.8621
408.20 0.8623
408.30 0.8625
408.40 0.8628
408.50 0.8631
408.60 0.8633
408.70 0.8636
408.80 0.8638
408.90 0.8641
409.00 0.8643
409.10 0.8646
409.20 0.8648
409.30 0.865
409.40 0.8652
409.50 0.8654
409.60 0.8656
409.70 0.8657
409.80 0.8659
409.90 0.866
410.00 0.8661
410.10 0.8662
410.20 0.8662
410.30 0.8667
410.40 0.8672
410.50 0.8676
410.60 0.8681
410.70 0.8684
410.80 0.8688
410.90 0.8691
411.00 0.8694
411.10 0.8697
411.20 0.87
411.30 0.8703
411.40 0.8706
411.50 0.8709
411.60 0.8712
411.70 0.8714
411.80 0.8717
411.90 0.872
412.00 0.8722
412.10 0.8725
412.20 0.8727
412.30 0.873
412.40 0.8733
412.50 0.8735
412.60 0.8738
412.70 0.874
412.80 0.8743
412.90 0.8746
413.00 0.8748
413.10 0.8751
413.20 0.8753
413.30 0.8756
413.40 0.8758
413.50 0.8761
413.60 0.8763
413.70 0.8766
413.80 0.8768
413.90 0.8771
414.00 0.8774
414.10 0.8776
414.20 0.8779
414.30 0.8781
414.40 0.8784
414.50 0.8786
414.60 0.8789
414.70 0.8791
414.80 0.8793
414.90 0.8796
415.00 0.8799
415.10 0.8801
415.20 0.8804
415.30 0.8806
415.40 0.8809
415.50 0.8811
415.60 0.8813
415.70 0.8816
415.80 0.8818
415.90 0.8821
416.00 0.8823
416.10 0.8826
416.20 0.8828
416.30 0.8831
416.40 0.8833
416.50 0.8836
416.60 0.8838
416.70 0.884
416.80 0.8843
416.90 0.8845
417.00 0.8848
417.10 0.885
417.20 0.8853
417.30 0.8855
417.40 0.8857
417.50 0.886
417.60 0.8862
417.70 0.8865
417.80 0.8867
417.90 0.887
418.00 0.8872
418.10 0.8874
418.20 0.8877
418.30 0.8879
418.40 0.8882
418.50 0.8884
418.60 0.8886
418.70 0.8889
418.80 0.8891
418.90 0.8893
419.00 0.8896
419.10 0.8898
419.20 0.8901
419.30 0.8903
419.40 0.8905
419.50 0.8908
419.60 0.891
419.70 0.8912
419.80 0.8915
419.90 0.8917
420.00 0.8919
420.10 0.8922
420.20 0.8924
420.30 0.8926
420.40 0.8929
420.50 0.8931
420.60 0.8934
420.70 0.8936
420.80 0.8938
420.90 0.894
421.00 0.8943
421.10 0.8945
421.20 0.8947
421.30 0.895
421.40 0.8952
421.50 0.8954
421.60 0.8957
421.70 0.8959
421.80 0.8961
421.90 0.8963
422.00 0.8966
422.10 0.8968
422.20 0.8971
422.30 0.8973
422.40 0.8975
422.50 0.8977
422.60 0.8979
422.70 0.8982
422.80 0.8984
422.90 0.8986
423.00 0.8989
423.10 0.8991
423.20 0.8993
423.30 0.8995
423.40 0.8998
423.50 0.9
423.60 0.9002
423.70 0.9004
423.80 0.9007
423.90 0.9009
424.00 0.9011
424.10 0.9013
424.20 0.9015
424.30 0.9018
424.40 0.902
424.50 0.9022
424.60 0.9024
424.70 0.9027
424.80 0.9029
424.90 0.9031
425.00 0.9033
425.10 0.9035
425.20 0.9038
425.30 0.904
425.40 0.9042
425.50 0.9044
425.60 0.9046
425.70 0.9049
425.80 0.9051
425.90 0.9053
426.00 0.9055
426.10 0.9057
426.20 0.906
426.30 0.9062
426.40 0.9064
426.50 0.9066
426.60 0.9068
426.70 0.9071
426.80 0.9073
426.90 0.9075
427.00 0.9077
427.10 0.9079
427.20 0.9081
427.30 0.9083
427.40 0.9085
427.50 0.9088
427.60 0.909
427.70 0.9092
427.80 0.9094
427.90 0.9096
428.00 0.9098
428.10 0.9101
428.20 0.9103
428.30 0.9105
428.40 0.9107
428.50 0.9109
428.60 0.9111
428.70 0.9113
428.80 0.9115
428.90 0.9117
429.00 0.912
429.10 0.9122
429.20 0.9124
429.30 0.9126
429.40 0.9128
429.50 0.913
429.60 0.9132
429.70 0.9134
429.80 0.9136
429.90 0.9138
430.00 0.914
430.10 0.9142
430.20 0.9144
430.30 0.9146
430.40 0.9148
430.50 0.915
430.60 0.9152
430.70 0.9154
430.80 0.9156
430.90 0.9158
431.00 0.916
431.10 0.9162
431.20 0.9164
431.30 0.9166
431.40 0.9168
431.50 0.917
431.60 0.9172
431.70 0.9174
431.80 0.9176
431.90 0.9178
432.00 0.918
432.10 0.9181
432.20 0.9183
432.30 0.9185
432.40 0.9186
432.50 0.9188
432.60 0.919
432.70 0.9191
432.80 0.9192
432.90 0.9194
433.00 0.9195
433.10 0.9195
433.20 0.9196
433.30 0.9196
433.40 0.9196
433.50 0.9195
433.60 0.9193
433.70 0.9189
433.80 0.9185
433.90 0.9179
434.00 0.9171
434.10 0.9173
434.20 0.9186
434.30 0.9195
434.40 0.9204
434.50 0.9211
434.60 0.9217
434.70 0.9222
434.80 0.9226
434.90 0.923
435.00 0.9233
435.10 0.9236
435.20 0.9239
435.30 0.9242
435.40 0.9244
435.50 0.9247
435.60 0.9249
435.70 0.9251
435.80 0.9254
435.90 0.9256
436.00 0.9258
436.10 0.926
436.20 0.9263
436.30 0.9265
436.40 0.9267
436.50 0.9269
436.60 0.9271
436.70 0.9273
436.80 0.9275
436.90 0.9277
437.00 0.9279
437.10 0.9281
437.20 0.9282
437.30 0.9284
437.40 0.9286
437.50 0.9288
437.60 0.929
437.70 0.9292
437.80 0.9294
437.90 0.9296
438.00 0.9298
438.10 0.93
438.20 0.9302
438.30 0.9304
438.40 0.9305
438.50 0.9307
438.60 0.9309
438.70 0.9311
438.80 0.9313
438.90 0.9315
439.00 0.9317
439.10 0.9319
439.20 0.9321
439.30 0.9322
439.40 0.9324
439.50 0.9326
439.60 0.9328
439.70 0.933
439.80 0.9332
439.90 0.9333
440.00 0.9335
440.10 0.9337
440.20 0.9339
440.30 0.9341
440.40 0.9342
440.50 0.9344
440.60 0.9346
440.70 0.9348
440.80 0.935
440.90 0.9351
441.00 0.9353
441.10 0.9355
441.20 0.9357
441.30 0.9359
441.40 0.9361
441.50 0.9362
441.60 0.9364
441.70 0.9366
441.80 0.9368
441.90 0.9369
442.00 0.9371
442.10 0.9373
442.20 0.9375
442.30 0.9376
442.40 0.9378
442.50 0.938
442.60 0.9382
442.70 0.9383
442.80 0.9385
442.90 0.9387
