# Version 2.1 - nm, norm@500 to 1, cut digits, bergeron_4000_95.dat_4000
# Wavelength(nm)  Flambda(ergs/cm^s/s/nm)
300.00 0.2292
300.10 0.2296
300.20 0.23
300.30 0.2303
300.40 0.2307
300.50 0.2311
300.60 0.2315
300.70 0.2319
300.80 0.2322
300.90 0.2326
301.00 0.233
301.10 0.2333
301.20 0.2337
301.30 0.2341
301.40 0.2345
301.50 0.2348
301.60 0.2352
301.70 0.2356
301.80 0.2359
301.90 0.2363
302.00 0.2367
302.10 0.2371
302.20 0.2374
302.30 0.2378
302.40 0.2382
302.50 0.2386
302.60 0.239
302.70 0.2394
302.80 0.2397
302.90 0.2401
303.00 0.2405
303.10 0.2409
303.20 0.2412
303.30 0.2416
303.40 0.242
303.50 0.2424
303.60 0.2427
303.70 0.2431
303.80 0.2435
303.90 0.2439
304.00 0.2442
304.10 0.2446
304.20 0.245
304.30 0.2454
304.40 0.2458
304.50 0.2462
304.60 0.2466
304.70 0.2469
304.80 0.2473
304.90 0.2477
305.00 0.2481
305.10 0.2485
305.20 0.2489
305.30 0.2492
305.40 0.2496
305.50 0.25
305.60 0.2504
305.70 0.2508
305.80 0.2511
305.90 0.2515
306.00 0.2519
306.10 0.2523
306.20 0.2527
306.30 0.2531
306.40 0.2535
306.50 0.2538
306.60 0.2542
306.70 0.2546
306.80 0.255
306.90 0.2554
307.00 0.2558
307.10 0.2562
307.20 0.2566
307.30 0.257
307.40 0.2573
307.50 0.2577
307.60 0.2581
307.70 0.2585
307.80 0.2589
307.90 0.2593
308.00 0.2597
308.10 0.26
308.20 0.2604
308.30 0.2608
308.40 0.2612
308.50 0.2616
308.60 0.262
308.70 0.2624
308.80 0.2628
308.90 0.2632
309.00 0.2636
309.10 0.264
309.20 0.2644
309.30 0.2648
309.40 0.2651
309.50 0.2655
309.60 0.2659
309.70 0.2663
309.80 0.2667
309.90 0.2671
310.00 0.2675
310.10 0.2679
310.20 0.2683
310.30 0.2687
310.40 0.2691
310.50 0.2695
310.60 0.2699
310.70 0.2703
310.80 0.2707
310.90 0.2711
311.00 0.2715
311.10 0.2719
311.20 0.2723
311.30 0.2727
311.40 0.2731
311.50 0.2734
311.60 0.2738
311.70 0.2742
311.80 0.2746
311.90 0.275
312.00 0.2754
312.10 0.2758
312.20 0.2762
312.30 0.2766
312.40 0.277
312.50 0.2774
312.60 0.2778
312.70 0.2782
312.80 0.2786
312.90 0.279
313.00 0.2794
313.10 0.2798
313.20 0.2802
313.30 0.2806
313.40 0.281
313.50 0.2814
313.60 0.2818
313.70 0.2822
313.80 0.2826
313.90 0.283
314.00 0.2834
314.10 0.2838
314.20 0.2842
314.30 0.2846
314.40 0.285
314.50 0.2854
314.60 0.2858
314.70 0.2862
314.80 0.2866
314.90 0.287
315.00 0.2874
315.10 0.2878
315.20 0.2882
315.30 0.2886
315.40 0.289
315.50 0.2894
315.60 0.2898
315.70 0.2902
315.80 0.2906
315.90 0.2911
316.00 0.2915
316.10 0.2919
316.20 0.2923
316.30 0.2927
316.40 0.2931
316.50 0.2935
316.60 0.2939
316.70 0.2943
316.80 0.2947
316.90 0.2952
317.00 0.2956
317.10 0.296
317.20 0.2964
317.30 0.2968
317.40 0.2972
317.50 0.2976
317.60 0.298
317.70 0.2984
317.80 0.2988
317.90 0.2992
318.00 0.2996
318.10 0.3
318.20 0.3004
318.30 0.3009
318.40 0.3013
318.50 0.3017
318.60 0.3021
318.70 0.3025
318.80 0.3029
318.90 0.3033
319.00 0.3037
319.10 0.3042
319.20 0.3046
319.30 0.305
319.40 0.3054
319.50 0.3058
319.60 0.3062
319.70 0.3066
319.80 0.307
319.90 0.3074
320.00 0.3078
320.10 0.3082
320.20 0.3087
320.30 0.3091
320.40 0.3095
320.50 0.3099
320.60 0.3103
320.70 0.3107
320.80 0.3112
320.90 0.3116
321.00 0.312
321.10 0.3124
321.20 0.3128
321.30 0.3132
321.40 0.3137
321.50 0.3141
321.60 0.3145
321.70 0.3149
321.80 0.3153
321.90 0.3157
322.00 0.3161
322.10 0.3165
322.20 0.317
322.30 0.3174
322.40 0.3178
322.50 0.3182
322.60 0.3186
322.70 0.3191
322.80 0.3195
322.90 0.3199
323.00 0.3203
323.10 0.3207
323.20 0.3211
323.30 0.3216
323.40 0.322
323.50 0.3224
323.60 0.3228
323.70 0.3232
323.80 0.3236
323.90 0.324
324.00 0.3245
324.10 0.3249
324.20 0.3253
324.30 0.3257
324.40 0.3262
324.50 0.3266
324.60 0.327
324.70 0.3274
324.80 0.3279
324.90 0.3283
325.00 0.3287
325.10 0.3291
325.20 0.3295
325.30 0.33
325.40 0.3304
325.50 0.3308
325.60 0.3312
325.70 0.3316
325.80 0.332
325.90 0.3325
326.00 0.3329
326.10 0.3333
326.20 0.3337
326.30 0.3342
326.40 0.3346
326.50 0.335
326.60 0.3354
326.70 0.3359
326.80 0.3363
326.90 0.3367
327.00 0.3371
327.10 0.3376
327.20 0.338
327.30 0.3384
327.40 0.3388
327.50 0.3393
327.60 0.3397
327.70 0.3401
327.80 0.3405
327.90 0.3409
328.00 0.3414
328.10 0.3418
328.20 0.3422
328.30 0.3426
328.40 0.3431
328.50 0.3435
328.60 0.3439
328.70 0.3444
328.80 0.3448
328.90 0.3452
329.00 0.3456
329.10 0.3461
329.20 0.3465
329.30 0.3469
329.40 0.3473
329.50 0.3478
329.60 0.3482
329.70 0.3486
329.80 0.349
329.90 0.3494
330.00 0.3499
330.10 0.3503
330.20 0.3507
330.30 0.3512
330.40 0.3516
330.50 0.352
330.60 0.3525
330.70 0.3529
330.80 0.3533
330.90 0.3538
331.00 0.3542
331.10 0.3546
331.20 0.355
331.30 0.3555
331.40 0.3559
331.50 0.3563
331.60 0.3567
331.70 0.3572
331.80 0.3576
331.90 0.358
332.00 0.3584
332.10 0.3589
332.20 0.3593
332.30 0.3598
332.40 0.3602
332.50 0.3606
332.60 0.3611
332.70 0.3615
332.80 0.3619
332.90 0.3624
333.00 0.3628
333.10 0.3632
333.20 0.3636
333.30 0.3641
333.40 0.3645
333.50 0.3649
333.60 0.3654
333.70 0.3658
333.80 0.3662
333.90 0.3666
334.00 0.3671
334.10 0.3675
334.20 0.3679
334.30 0.3684
334.40 0.3688
334.50 0.3693
334.60 0.3697
334.70 0.3701
334.80 0.3706
334.90 0.371
335.00 0.3714
335.10 0.3719
335.20 0.3723
335.30 0.3727
335.40 0.3732
335.50 0.3736
335.60 0.374
335.70 0.3745
335.80 0.3749
335.90 0.3753
336.00 0.3757
336.10 0.3762
336.20 0.3766
336.30 0.3771
336.40 0.3775
336.50 0.3779
336.60 0.3784
336.70 0.3788
336.80 0.3793
336.90 0.3797
337.00 0.3801
337.10 0.3806
337.20 0.381
337.30 0.3814
337.40 0.3819
337.50 0.3823
337.60 0.3827
337.70 0.3832
337.80 0.3836
337.90 0.384
338.00 0.3845
338.10 0.3849
338.20 0.3853
338.30 0.3858
338.40 0.3862
338.50 0.3867
338.60 0.3871
338.70 0.3875
338.80 0.388
338.90 0.3884
339.00 0.3889
339.10 0.3893
339.20 0.3897
339.30 0.3902
339.40 0.3906
339.50 0.391
339.60 0.3915
339.70 0.3919
339.80 0.3923
339.90 0.3928
340.00 0.3932
340.10 0.3937
340.20 0.3941
340.30 0.3945
340.40 0.395
340.50 0.3954
340.60 0.3959
340.70 0.3963
340.80 0.3968
340.90 0.3972
341.00 0.3976
341.10 0.3981
341.20 0.3985
341.30 0.3989
341.40 0.3994
341.50 0.3998
341.60 0.4003
341.70 0.4007
341.80 0.4011
341.90 0.4016
342.00 0.402
342.10 0.4024
342.20 0.4029
342.30 0.4033
342.40 0.4038
342.50 0.4042
342.60 0.4047
342.70 0.4051
342.80 0.4056
342.90 0.406
343.00 0.4064
343.10 0.4069
343.20 0.4073
343.30 0.4078
343.40 0.4082
343.50 0.4086
343.60 0.4091
343.70 0.4095
343.80 0.41
343.90 0.4104
344.00 0.4108
344.10 0.4113
344.20 0.4117
344.30 0.4122
344.40 0.4126
344.50 0.4131
344.60 0.4135
344.70 0.4139
344.80 0.4144
344.90 0.4148
345.00 0.4153
345.10 0.4157
345.20 0.4162
345.30 0.4166
345.40 0.417
345.50 0.4175
345.60 0.4179
345.70 0.4184
345.80 0.4188
345.90 0.4192
346.00 0.4197
346.10 0.4201
346.20 0.4206
346.30 0.421
346.40 0.4215
346.50 0.4219
346.60 0.4224
346.70 0.4228
346.80 0.4232
346.90 0.4237
347.00 0.4241
347.10 0.4246
347.20 0.425
347.30 0.4255
347.40 0.4259
347.50 0.4263
347.60 0.4268
347.70 0.4272
347.80 0.4277
347.90 0.4281
348.00 0.4285
348.10 0.429
348.20 0.4294
348.30 0.4299
348.40 0.4303
348.50 0.4308
348.60 0.4312
348.70 0.4317
348.80 0.4321
348.90 0.4326
349.00 0.433
349.10 0.4335
349.20 0.4339
349.30 0.4343
349.40 0.4348
349.50 0.4352
349.60 0.4357
349.70 0.4361
349.80 0.4366
349.90 0.437
350.00 0.4374
350.10 0.4379
350.20 0.4383
350.30 0.4388
350.40 0.4392
350.50 0.4397
350.60 0.4401
350.70 0.4406
350.80 0.441
350.90 0.4415
351.00 0.4419
351.10 0.4424
351.20 0.4428
351.30 0.4433
351.40 0.4437
351.50 0.4441
351.60 0.4446
351.70 0.445
351.80 0.4455
351.90 0.4459
352.00 0.4464
352.10 0.4468
352.20 0.4473
352.30 0.4477
352.40 0.4482
352.50 0.4486
352.60 0.4491
352.70 0.4495
352.80 0.45
352.90 0.4504
353.00 0.4508
353.10 0.4513
353.20 0.4517
353.30 0.4522
353.40 0.4526
353.50 0.4531
353.60 0.4535
353.70 0.454
353.80 0.4544
353.90 0.4548
354.00 0.4553
354.10 0.4557
354.20 0.4562
354.30 0.4566
354.40 0.4571
354.50 0.4575
354.60 0.458
354.70 0.4584
354.80 0.4589
354.90 0.4593
355.00 0.4598
355.10 0.4602
355.20 0.4607
355.30 0.4611
355.40 0.4616
355.50 0.462
355.60 0.4625
355.70 0.4629
355.80 0.4633
355.90 0.4638
356.00 0.4642
356.10 0.4647
356.20 0.4651
356.30 0.4656
356.40 0.466
356.50 0.4665
356.60 0.4669
356.70 0.4674
356.80 0.4678
356.90 0.4683
357.00 0.4687
357.10 0.4692
357.20 0.4696
357.30 0.4701
357.40 0.4705
357.50 0.471
357.60 0.4714
357.70 0.4719
357.80 0.4723
357.90 0.4727
358.00 0.4732
358.10 0.4736
358.20 0.4741
358.30 0.4745
358.40 0.475
358.50 0.4754
358.60 0.4759
358.70 0.4763
358.80 0.4768
358.90 0.4772
359.00 0.4777
359.10 0.4781
359.20 0.4786
359.30 0.479
359.40 0.4795
359.50 0.4799
359.60 0.4804
359.70 0.4808
359.80 0.4813
359.90 0.4817
360.00 0.4822
360.10 0.4826
360.20 0.4831
360.30 0.4835
360.40 0.484
360.50 0.4844
360.60 0.4849
360.70 0.4853
360.80 0.4858
360.90 0.4862
361.00 0.4867
361.10 0.4871
361.20 0.4876
361.30 0.488
361.40 0.4884
361.50 0.4889
361.60 0.4893
361.70 0.4898
361.80 0.4902
361.90 0.4907
362.00 0.4911
362.10 0.4916
362.20 0.492
362.30 0.4925
362.40 0.4929
362.50 0.4934
362.60 0.4938
362.70 0.4943
362.80 0.4947
362.90 0.4952
363.00 0.4956
363.10 0.4961
363.20 0.4965
363.30 0.497
363.40 0.4974
363.50 0.4979
363.60 0.4983
363.70 0.4988
363.80 0.4992
363.90 0.4996
364.00 0.5001
364.10 0.5005
364.20 0.501
364.30 0.5014
364.40 0.5019
364.50 0.5023
364.60 0.5028
364.70 0.5032
364.80 0.5037
364.90 0.5041
365.00 0.5046
365.10 0.505
365.20 0.5055
365.30 0.5059
365.40 0.5064
365.50 0.5068
365.60 0.5073
365.70 0.5077
365.80 0.5082
365.90 0.5086
366.00 0.509
366.10 0.5095
366.20 0.51
366.30 0.5104
366.40 0.5109
366.50 0.5113
366.60 0.5118
366.70 0.5122
366.80 0.5127
366.90 0.5131
367.00 0.5136
367.10 0.514
367.20 0.5145
367.30 0.5149
367.40 0.5153
367.50 0.5158
367.60 0.5162
367.70 0.5167
367.80 0.5171
367.90 0.5176
368.00 0.518
368.10 0.5185
368.20 0.5189
368.30 0.5194
368.40 0.5198
368.50 0.5203
368.60 0.5207
368.70 0.5212
368.80 0.5216
368.90 0.5221
369.00 0.5225
369.10 0.523
369.20 0.5234
369.30 0.5239
369.40 0.5243
369.50 0.5248
369.60 0.5252
369.70 0.5256
369.80 0.5261
369.90 0.5265
370.00 0.527
370.10 0.5274
370.20 0.5279
370.30 0.5283
370.40 0.5288
370.50 0.5292
370.60 0.5297
370.70 0.5301
370.80 0.5306
370.90 0.531
371.00 0.5315
371.10 0.5319
371.20 0.5324
371.30 0.5328
371.40 0.5333
371.50 0.5337
371.60 0.5341
371.70 0.5346
371.80 0.535
371.90 0.5355
372.00 0.5359
372.10 0.5364
372.20 0.5368
372.30 0.5373
372.40 0.5377
372.50 0.5382
372.60 0.5386
372.70 0.5391
372.80 0.5395
372.90 0.54
373.00 0.5404
373.10 0.5409
373.20 0.5413
373.30 0.5418
373.40 0.5422
373.50 0.5426
373.60 0.5431
373.70 0.5435
373.80 0.544
373.90 0.5444
374.00 0.5449
374.10 0.5453
374.20 0.5458
374.30 0.5462
374.40 0.5467
374.50 0.5471
374.60 0.5476
374.70 0.548
374.80 0.5485
374.90 0.5489
375.00 0.5493
375.10 0.5498
375.20 0.5502
375.30 0.5507
375.40 0.5511
375.50 0.5516
375.60 0.552
375.70 0.5525
375.80 0.5529
375.90 0.5533
376.00 0.5538
376.10 0.5542
376.20 0.5547
376.30 0.5551
376.40 0.5556
376.50 0.556
376.60 0.5565
376.70 0.5569
376.80 0.5574
376.90 0.5578
377.00 0.5582
377.10 0.5587
377.20 0.5591
377.30 0.5596
377.40 0.56
377.50 0.5605
377.60 0.5609
377.70 0.5614
377.80 0.5618
377.90 0.5622
378.00 0.5627
378.10 0.5631
378.20 0.5636
378.30 0.564
378.40 0.5645
378.50 0.5649
378.60 0.5654
378.70 0.5658
378.80 0.5662
378.90 0.5667
379.00 0.5671
379.10 0.5676
379.20 0.568
379.30 0.5685
379.40 0.5689
379.50 0.5693
379.60 0.5698
379.70 0.5702
379.80 0.5707
379.90 0.5711
380.00 0.5716
380.10 0.572
380.20 0.5724
380.30 0.5729
380.40 0.5733
380.50 0.5738
380.60 0.5742
380.70 0.5747
380.80 0.5751
380.90 0.5756
381.00 0.576
381.10 0.5764
381.20 0.5769
381.30 0.5773
381.40 0.5778
381.50 0.5782
381.60 0.5787
381.70 0.5791
381.80 0.5795
381.90 0.58
382.00 0.5804
382.10 0.5809
382.20 0.5813
382.30 0.5818
382.40 0.5822
382.50 0.5826
382.60 0.5831
382.70 0.5835
382.80 0.584
382.90 0.5844
383.00 0.5848
383.10 0.5853
383.20 0.5857
383.30 0.5862
383.40 0.5866
383.50 0.587
383.60 0.5875
383.70 0.5879
383.80 0.5884
383.90 0.5888
384.00 0.5893
384.10 0.5897
384.20 0.5901
384.30 0.5906
384.40 0.591
384.50 0.5914
384.60 0.5919
384.70 0.5923
384.80 0.5928
384.90 0.5932
385.00 0.5937
385.10 0.5941
385.20 0.5945
385.30 0.595
385.40 0.5954
385.50 0.5959
385.60 0.5963
385.70 0.5967
385.80 0.5972
385.90 0.5976
386.00 0.5981
386.10 0.5985
386.20 0.5989
386.30 0.5994
386.40 0.5998
386.50 0.6002
386.60 0.6007
386.70 0.6011
386.80 0.6016
386.90 0.602
387.00 0.6024
387.10 0.6029
387.20 0.6033
387.30 0.6038
387.40 0.6042
387.50 0.6046
387.60 0.6051
387.70 0.6055
387.80 0.6059
387.90 0.6064
388.00 0.6068
388.10 0.6073
388.20 0.6077
388.30 0.6081
388.40 0.6086
388.50 0.609
388.60 0.6095
388.70 0.6099
388.80 0.6103
388.90 0.6108
389.00 0.6112
389.10 0.6116
389.20 0.6121
389.30 0.6125
389.40 0.613
389.50 0.6134
389.60 0.6138
389.70 0.6143
389.80 0.6147
389.90 0.6151
390.00 0.6156
390.10 0.616
390.20 0.6164
390.30 0.6169
390.40 0.6173
390.50 0.6178
390.60 0.6182
390.70 0.6186
390.80 0.619
390.90 0.6195
391.00 0.6199
391.10 0.6204
391.20 0.6208
391.30 0.6212
391.40 0.6217
391.50 0.6221
391.60 0.6225
391.70 0.623
391.80 0.6234
391.90 0.6238
392.00 0.6243
392.10 0.6247
392.20 0.6251
392.30 0.6256
392.40 0.626
392.50 0.6264
392.60 0.6269
392.70 0.6273
392.80 0.6277
392.90 0.6282
393.00 0.6286
393.10 0.629
393.20 0.6295
393.30 0.6299
393.40 0.6303
393.50 0.6308
393.60 0.6312
393.70 0.6316
393.80 0.6321
393.90 0.6325
394.00 0.6329
394.10 0.6334
394.20 0.6338
394.30 0.6342
394.40 0.6347
394.50 0.6351
394.60 0.6355
394.70 0.636
394.80 0.6364
394.90 0.6368
395.00 0.6373
395.10 0.6377
395.20 0.6381
395.30 0.6385
395.40 0.639
395.50 0.6394
395.60 0.6398
395.70 0.6403
395.80 0.6407
395.90 0.6411
396.00 0.6416
396.10 0.642
396.20 0.6424
396.30 0.6429
396.40 0.6433
396.50 0.6437
396.60 0.6441
396.70 0.6446
396.80 0.645
396.90 0.6454
397.00 0.6459
397.10 0.6463
397.20 0.6467
397.30 0.6472
397.40 0.6476
397.50 0.648
397.60 0.6484
397.70 0.6489
397.80 0.6493
397.90 0.6497
398.00 0.6501
398.10 0.6506
398.20 0.651
398.30 0.6514
398.40 0.6519
398.50 0.6523
398.60 0.6527
398.70 0.6531
398.80 0.6536
398.90 0.654
399.00 0.6544
399.10 0.6549
399.20 0.6553
399.30 0.6557
399.40 0.6561
399.50 0.6566
399.60 0.657
399.70 0.6574
399.80 0.6578
399.90 0.6583
400.00 0.6587
400.10 0.6591
400.20 0.6595
400.30 0.66
400.40 0.6604
400.50 0.6608
400.60 0.6613
400.70 0.6617
400.80 0.6621
400.90 0.6625
401.00 0.663
401.10 0.6634
401.20 0.6638
401.30 0.6642
401.40 0.6647
401.50 0.6651
401.60 0.6655
401.70 0.6659
401.80 0.6663
401.90 0.6668
402.00 0.6672
402.10 0.6676
402.20 0.668
402.30 0.6685
402.40 0.6689
402.50 0.6693
402.60 0.6697
402.70 0.6702
402.80 0.6706
402.90 0.671
403.00 0.6714
403.10 0.6718
403.20 0.6723
403.30 0.6727
403.40 0.6731
403.50 0.6735
403.60 0.674
403.70 0.6744
403.80 0.6748
403.90 0.6752
404.00 0.6756
404.10 0.6761
404.20 0.6765
404.30 0.6769
404.40 0.6773
404.50 0.6777
404.60 0.6782
404.70 0.6786
404.80 0.679
404.90 0.6794
405.00 0.6798
405.10 0.6803
405.20 0.6807
405.30 0.6811
405.40 0.6815
405.50 0.6819
405.60 0.6824
405.70 0.6828
405.80 0.6832
405.90 0.6836
406.00 0.684
406.10 0.6845
406.20 0.6849
406.30 0.6853
406.40 0.6857
406.50 0.6861
406.60 0.6866
406.70 0.687
406.80 0.6874
406.90 0.6878
407.00 0.6882
407.10 0.6886
407.20 0.6891
407.30 0.6895
407.40 0.6899
407.50 0.6903
407.60 0.6907
407.70 0.6911
407.80 0.6916
407.90 0.692
408.00 0.6924
408.10 0.6928
408.20 0.6932
408.30 0.6936
408.40 0.6941
408.50 0.6945
408.60 0.6949
408.70 0.6953
408.80 0.6957
408.90 0.6961
409.00 0.6965
409.10 0.697
409.20 0.6974
409.30 0.6978
409.40 0.6982
409.50 0.6986
409.60 0.699
409.70 0.6994
409.80 0.6999
409.90 0.7003
410.00 0.7007
410.10 0.7011
410.20 0.7015
410.30 0.7019
410.40 0.7023
410.50 0.7028
410.60 0.7032
410.70 0.7036
410.80 0.704
410.90 0.7044
411.00 0.7048
411.10 0.7052
411.20 0.7056
411.30 0.7061
411.40 0.7065
411.50 0.7069
411.60 0.7073
411.70 0.7077
411.80 0.7081
411.90 0.7085
412.00 0.7089
412.10 0.7093
412.20 0.7098
412.30 0.7102
412.40 0.7106
412.50 0.711
412.60 0.7114
412.70 0.7118
412.80 0.7122
412.90 0.7126
413.00 0.713
413.10 0.7134
413.20 0.7138
413.30 0.7143
413.40 0.7147
413.50 0.7151
413.60 0.7155
413.70 0.7159
413.80 0.7163
413.90 0.7167
414.00 0.7171
414.10 0.7175
414.20 0.7179
414.30 0.7183
414.40 0.7187
414.50 0.7192
414.60 0.7196
414.70 0.72
414.80 0.7204
414.90 0.7208
415.00 0.7212
415.10 0.7216
415.20 0.722
415.30 0.7224
415.40 0.7228
415.50 0.7232
415.60 0.7236
415.70 0.724
415.80 0.7244
415.90 0.7248
416.00 0.7252
416.10 0.7256
416.20 0.7261
416.30 0.7265
416.40 0.7269
416.50 0.7273
416.60 0.7277
416.70 0.7281
416.80 0.7285
416.90 0.7289
417.00 0.7293
417.10 0.7297
417.20 0.7301
417.30 0.7305
417.40 0.7309
417.50 0.7313
417.60 0.7317
417.70 0.7321
417.80 0.7325
417.90 0.7329
418.00 0.7333
418.10 0.7337
418.20 0.7341
418.30 0.7345
418.40 0.7349
418.50 0.7353
418.60 0.7357
418.70 0.7361
418.80 0.7365
418.90 0.7369
419.00 0.7373
419.10 0.7377
419.20 0.7381
419.30 0.7385
419.40 0.7389
419.50 0.7393
419.60 0.7397
419.70 0.7401
419.80 0.7405
419.90 0.7409
420.00 0.7413
420.10 0.7417
420.20 0.7421
420.30 0.7425
420.40 0.7429
420.50 0.7433
420.60 0.7437
420.70 0.7441
420.80 0.7445
420.90 0.7449
421.00 0.7453
421.10 0.7457
421.20 0.7461
421.30 0.7465
421.40 0.7469
421.50 0.7473
421.60 0.7477
421.70 0.7481
421.80 0.7485
421.90 0.7489
422.00 0.7493
422.10 0.7497
422.20 0.7501
422.30 0.7504
422.40 0.7508
422.50 0.7512
422.60 0.7516
422.70 0.752
422.80 0.7524
422.90 0.7528
423.00 0.7532
423.10 0.7536
423.20 0.754
423.30 0.7544
423.40 0.7548
423.50 0.7552
423.60 0.7556
423.70 0.756
423.80 0.7564
423.90 0.7568
424.00 0.7571
424.10 0.7575
424.20 0.7579
424.30 0.7583
424.40 0.7587
424.50 0.7591
424.60 0.7595
424.70 0.7599
424.80 0.7603
424.90 0.7607
425.00 0.7611
425.10 0.7614
425.20 0.7618
425.30 0.7622
425.40 0.7626
425.50 0.763
425.60 0.7634
425.70 0.7638
425.80 0.7642
425.90 0.7646
426.00 0.765
426.10 0.7653
426.20 0.7657
426.30 0.7661
426.40 0.7665
426.50 0.7669
426.60 0.7673
426.70 0.7677
426.80 0.7681
426.90 0.7685
427.00 0.7688
427.10 0.7692
427.20 0.7696
427.30 0.77
427.40 0.7704
427.50 0.7708
427.60 0.7712
427.70 0.7715
427.80 0.7719
427.90 0.7723
428.00 0.7727
428.10 0.7731
428.20 0.7735
428.30 0.7739
428.40 0.7742
428.50 0.7746
428.60 0.775
428.70 0.7754
428.80 0.7758
428.90 0.7762
429.00 0.7766
429.10 0.7769
429.20 0.7773
429.30 0.7777
429.40 0.7781
429.50 0.7785
429.60 0.7789
429.70 0.7792
429.80 0.7796
429.90 0.78
430.00 0.7804
430.10 0.7808
430.20 0.7811
430.30 0.7815
430.40 0.7819
430.50 0.7823
430.60 0.7827
430.70 0.7831
430.80 0.7834
430.90 0.7838
431.00 0.7842
431.10 0.7846
431.20 0.785
431.30 0.7853
431.40 0.7857
431.50 0.7861
431.60 0.7865
431.70 0.7869
431.80 0.7872
431.90 0.7876
432.00 0.788
432.10 0.7884
432.20 0.7888
432.30 0.7891
432.40 0.7895
432.50 0.7899
432.60 0.7903
432.70 0.7906
432.80 0.791
432.90 0.7914
433.00 0.7918
433.10 0.7922
433.20 0.7925
433.30 0.7929
433.40 0.7933
433.50 0.7937
433.60 0.794
433.70 0.7944
433.80 0.7948
433.90 0.7952
434.00 0.7955
434.10 0.7959
434.20 0.7963
434.30 0.7967
434.40 0.797
434.50 0.7974
434.60 0.7978
434.70 0.7982
434.80 0.7985
434.90 0.7989
435.00 0.7993
435.10 0.7997
435.20 0.8
435.30 0.8004
435.40 0.8008
435.50 0.8012
435.60 0.8015
435.70 0.8019
435.80 0.8023
435.90 0.8026
436.00 0.803
436.10 0.8034
436.20 0.8038
436.30 0.8041
436.40 0.8045
436.50 0.8049
436.60 0.8052
436.70 0.8056
436.80 0.806
436.90 0.8063
437.00 0.8067
437.10 0.8071
437.20 0.8074
437.30 0.8078
437.40 0.8082
437.50 0.8086
437.60 0.8089
437.70 0.8093
437.80 0.8097
437.90 0.81
438.00 0.8104
438.10 0.8108
438.20 0.8111
438.30 0.8115
438.40 0.8119
438.50 0.8122
438.60 0.8126
438.70 0.813
438.80 0.8133
438.90 0.8137
439.00 0.8141
439.10 0.8144
439.20 0.8148
439.30 0.8152
439.40 0.8155
439.50 0.8159
439.60 0.8163
439.70 0.8166
439.80 0.817
439.90 0.8174
440.00 0.8177
440.10 0.8181
440.20 0.8185
440.30 0.8188
440.40 0.8192
440.50 0.8196
440.60 0.8199
440.70 0.8203
440.80 0.8206
440.90 0.821
441.00 0.8214
441.10 0.8217
441.20 0.8221
441.30 0.8224
441.40 0.8228
441.50 0.8232
441.60 0.8235
441.70 0.8239
441.80 0.8243
441.90 0.8246
442.00 0.825
442.10 0.8253
442.20 0.8257
442.30 0.8261
442.40 0.8264
442.50 0.8268
442.60 0.8271
442.70 0.8275
442.80 0.8279
442.90 0.8282
443.00 0.8286
443.10 0.8289
