# Version 2.1 - nm, norm@500 to 1, cut digits, bergeron_15500_75.dat_15500
# Wavelength(nm)  Flambda(ergs/cm^s/s/nm)
300.00 2.3
300.10 2.298
300.20 2.296
300.30 2.294
300.40 2.293
300.50 2.291
300.60 2.289
300.70 2.287
300.80 2.285
300.90 2.284
301.00 2.282
301.10 2.28
301.20 2.278
301.30 2.276
301.40 2.275
301.50 2.273
301.60 2.271
301.70 2.269
301.80 2.267
301.90 2.266
302.00 2.264
302.10 2.262
302.20 2.26
302.30 2.258
302.40 2.257
302.50 2.255
302.60 2.253
302.70 2.251
302.80 2.249
302.90 2.248
303.00 2.246
303.10 2.244
303.20 2.242
303.30 2.241
303.40 2.239
303.50 2.237
303.60 2.235
303.70 2.234
303.80 2.232
303.90 2.23
304.00 2.228
304.10 2.227
304.20 2.225
304.30 2.223
304.40 2.221
304.50 2.22
304.60 2.218
304.70 2.216
304.80 2.214
304.90 2.213
305.00 2.211
305.10 2.209
305.20 2.207
305.30 2.206
305.40 2.204
305.50 2.202
305.60 2.2
305.70 2.199
305.80 2.197
305.90 2.195
306.00 2.193
306.10 2.192
306.20 2.19
306.30 2.188
306.40 2.187
306.50 2.185
306.60 2.183
306.70 2.181
306.80 2.18
306.90 2.178
307.00 2.176
307.10 2.175
307.20 2.173
307.30 2.171
307.40 2.17
307.50 2.168
307.60 2.166
307.70 2.164
307.80 2.163
307.90 2.161
308.00 2.159
308.10 2.158
308.20 2.156
308.30 2.154
308.40 2.153
308.50 2.151
308.60 2.149
308.70 2.148
308.80 2.146
308.90 2.144
309.00 2.143
309.10 2.141
309.20 2.139
309.30 2.138
309.40 2.136
309.50 2.134
309.60 2.133
309.70 2.131
309.80 2.129
309.90 2.128
310.00 2.126
310.10 2.124
310.20 2.123
310.30 2.121
310.40 2.12
310.50 2.118
310.60 2.116
310.70 2.115
310.80 2.113
310.90 2.111
311.00 2.11
311.10 2.108
311.20 2.106
311.30 2.105
311.40 2.103
311.50 2.102
311.60 2.1
311.70 2.098
311.80 2.097
311.90 2.095
312.00 2.093
312.10 2.092
312.20 2.09
312.30 2.089
312.40 2.087
312.50 2.085
312.60 2.084
312.70 2.082
312.80 2.081
312.90 2.079
313.00 2.077
313.10 2.076
313.20 2.074
313.30 2.073
313.40 2.071
313.50 2.069
313.60 2.068
313.70 2.066
313.80 2.065
313.90 2.063
314.00 2.061
314.10 2.06
314.20 2.058
314.30 2.057
314.40 2.055
314.50 2.054
314.60 2.052
314.70 2.05
314.80 2.049
314.90 2.047
315.00 2.046
315.10 2.044
315.20 2.043
315.30 2.041
315.40 2.04
315.50 2.038
315.60 2.036
315.70 2.035
315.80 2.033
315.90 2.032
316.00 2.03
316.10 2.029
316.20 2.027
316.30 2.026
316.40 2.024
316.50 2.022
316.60 2.021
316.70 2.019
316.80 2.018
316.90 2.016
317.00 2.015
317.10 2.013
317.20 2.012
317.30 2.01
317.40 2.009
317.50 2.007
317.60 2.006
317.70 2.004
317.80 2.003
317.90 2.001
318.00 2
318.10 1.998
318.20 1.996
318.30 1.995
318.40 1.993
318.50 1.992
318.60 1.99
318.70 1.989
318.80 1.987
318.90 1.986
319.00 1.984
319.10 1.983
319.20 1.981
319.30 1.98
319.40 1.978
319.50 1.977
319.60 1.975
319.70 1.974
319.80 1.972
319.90 1.971
320.00 1.969
320.10 1.968
320.20 1.966
320.30 1.965
320.40 1.964
320.50 1.962
320.60 1.961
320.70 1.959
320.80 1.958
320.90 1.956
321.00 1.955
321.10 1.953
321.20 1.952
321.30 1.95
321.40 1.949
321.50 1.947
321.60 1.946
321.70 1.944
321.80 1.943
321.90 1.941
322.00 1.94
322.10 1.939
322.20 1.937
322.30 1.936
322.40 1.934
322.50 1.933
322.60 1.931
322.70 1.93
322.80 1.928
322.90 1.927
323.00 1.925
323.10 1.924
323.20 1.923
323.30 1.921
323.40 1.92
323.50 1.918
323.60 1.917
323.70 1.915
323.80 1.914
323.90 1.913
324.00 1.911
324.10 1.91
324.20 1.908
324.30 1.907
324.40 1.905
324.50 1.904
324.60 1.903
324.70 1.901
324.80 1.9
324.90 1.898
325.00 1.897
325.10 1.895
325.20 1.894
325.30 1.893
325.40 1.891
325.50 1.89
325.60 1.888
325.70 1.887
325.80 1.886
325.90 1.884
326.00 1.883
326.10 1.881
326.20 1.88
326.30 1.879
326.40 1.877
326.50 1.876
326.60 1.874
326.70 1.873
326.80 1.872
326.90 1.87
327.00 1.869
327.10 1.868
327.20 1.866
327.30 1.865
327.40 1.863
327.50 1.862
327.60 1.861
327.70 1.859
327.80 1.858
327.90 1.856
328.00 1.855
328.10 1.854
328.20 1.852
328.30 1.851
328.40 1.85
328.50 1.848
328.60 1.847
328.70 1.846
328.80 1.844
328.90 1.843
329.00 1.841
329.10 1.84
329.20 1.839
329.30 1.837
329.40 1.836
329.50 1.835
329.60 1.833
329.70 1.832
329.80 1.831
329.90 1.829
330.00 1.828
330.10 1.827
330.20 1.825
330.30 1.824
330.40 1.823
330.50 1.821
330.60 1.82
330.70 1.819
330.80 1.817
330.90 1.816
331.00 1.814
331.10 1.813
331.20 1.812
331.30 1.811
331.40 1.809
331.50 1.808
331.60 1.807
331.70 1.805
331.80 1.804
331.90 1.803
332.00 1.801
332.10 1.8
332.20 1.799
332.30 1.797
332.40 1.796
332.50 1.795
332.60 1.793
332.70 1.792
332.80 1.791
332.90 1.789
333.00 1.788
333.10 1.787
333.20 1.785
333.30 1.784
333.40 1.783
333.50 1.782
333.60 1.78
333.70 1.779
333.80 1.778
333.90 1.776
334.00 1.775
334.10 1.774
334.20 1.772
334.30 1.771
334.40 1.77
334.50 1.769
334.60 1.767
334.70 1.766
334.80 1.765
334.90 1.763
335.00 1.762
335.10 1.761
335.20 1.76
335.30 1.758
335.40 1.757
335.50 1.756
335.60 1.755
335.70 1.753
335.80 1.752
335.90 1.751
336.00 1.749
336.10 1.748
336.20 1.747
336.30 1.746
336.40 1.744
336.50 1.743
336.60 1.742
336.70 1.741
336.80 1.739
336.90 1.738
337.00 1.737
337.10 1.736
337.20 1.734
337.30 1.733
337.40 1.732
337.50 1.731
337.60 1.729
337.70 1.728
337.80 1.727
337.90 1.726
338.00 1.724
338.10 1.723
338.20 1.722
338.30 1.721
338.40 1.719
338.50 1.718
338.60 1.717
338.70 1.716
338.80 1.714
338.90 1.713
339.00 1.712
339.10 1.711
339.20 1.709
339.30 1.708
339.40 1.707
339.50 1.706
339.60 1.704
339.70 1.703
339.80 1.702
339.90 1.701
340.00 1.7
340.10 1.698
340.20 1.697
340.30 1.696
340.40 1.695
340.50 1.693
340.60 1.692
340.70 1.691
340.80 1.69
340.90 1.689
341.00 1.687
341.10 1.686
341.20 1.685
341.30 1.684
341.40 1.683
341.50 1.681
341.60 1.68
341.70 1.679
341.80 1.678
341.90 1.677
342.00 1.675
342.10 1.674
342.20 1.673
342.30 1.672
342.40 1.671
342.50 1.669
342.60 1.668
342.70 1.667
342.80 1.666
342.90 1.665
343.00 1.663
343.10 1.662
343.20 1.661
343.30 1.66
343.40 1.659
343.50 1.657
343.60 1.656
343.70 1.655
343.80 1.654
343.90 1.653
344.00 1.652
344.10 1.65
344.20 1.649
344.30 1.648
344.40 1.647
344.50 1.646
344.60 1.645
344.70 1.643
344.80 1.642
344.90 1.641
345.00 1.64
345.10 1.639
345.20 1.638
345.30 1.636
345.40 1.635
345.50 1.634
345.60 1.633
345.70 1.632
345.80 1.631
345.90 1.629
346.00 1.628
346.10 1.627
346.20 1.626
346.30 1.625
346.40 1.624
346.50 1.622
346.60 1.621
346.70 1.62
346.80 1.619
346.90 1.618
347.00 1.617
347.10 1.616
347.20 1.614
347.30 1.613
347.40 1.612
347.50 1.611
347.60 1.61
347.70 1.609
347.80 1.608
347.90 1.606
348.00 1.605
348.10 1.604
348.20 1.603
348.30 1.602
348.40 1.601
348.50 1.6
348.60 1.599
348.70 1.597
348.80 1.596
348.90 1.595
349.00 1.594
349.10 1.593
349.20 1.592
349.30 1.591
349.40 1.59
349.50 1.588
349.60 1.587
349.70 1.586
349.80 1.585
349.90 1.584
350.00 1.583
350.10 1.582
350.20 1.581
350.30 1.58
350.40 1.578
350.50 1.577
350.60 1.576
350.70 1.575
350.80 1.574
350.90 1.573
351.00 1.572
351.10 1.571
351.20 1.57
351.30 1.569
351.40 1.567
351.50 1.566
351.60 1.565
351.70 1.564
351.80 1.563
351.90 1.562
352.00 1.561
352.10 1.56
352.20 1.559
352.30 1.558
352.40 1.556
352.50 1.555
352.60 1.554
352.70 1.553
352.80 1.552
352.90 1.551
353.00 1.55
353.10 1.549
353.20 1.548
353.30 1.547
353.40 1.546
353.50 1.545
353.60 1.543
353.70 1.542
353.80 1.541
353.90 1.54
354.00 1.539
354.10 1.538
354.20 1.537
354.30 1.536
354.40 1.535
354.50 1.534
354.60 1.533
354.70 1.532
354.80 1.531
354.90 1.53
355.00 1.528
355.10 1.527
355.20 1.526
355.30 1.525
355.40 1.524
355.50 1.523
355.60 1.522
355.70 1.521
355.80 1.52
355.90 1.519
356.00 1.518
356.10 1.517
356.20 1.516
356.30 1.515
356.40 1.514
356.50 1.513
356.60 1.512
356.70 1.511
356.80 1.51
356.90 1.508
357.00 1.507
357.10 1.506
357.20 1.505
357.30 1.504
357.40 1.503
357.50 1.502
357.60 1.501
357.70 1.5
357.80 1.499
357.90 1.498
358.00 1.497
358.10 1.496
358.20 1.495
358.30 1.494
358.40 1.493
358.50 1.492
358.60 1.491
358.70 1.49
358.80 1.489
358.90 1.488
359.00 1.487
359.10 1.486
359.20 1.485
359.30 1.484
359.40 1.483
359.50 1.482
359.60 1.481
359.70 1.48
359.80 1.479
359.90 1.478
360.00 1.477
360.10 1.476
360.20 1.474
360.30 1.473
360.40 1.472
360.50 1.471
360.60 1.47
360.70 1.469
360.80 1.468
360.90 1.467
361.00 1.466
361.10 1.465
361.20 1.464
361.30 1.463
361.40 1.462
361.50 1.461
361.60 1.46
361.70 1.459
361.80 1.458
361.90 1.457
362.00 1.456
362.10 1.455
362.20 1.454
362.30 1.453
362.40 1.452
362.50 1.451
362.60 1.45
362.70 1.449
362.80 1.448
362.90 1.447
363.00 1.446
363.10 1.445
363.20 1.444
363.30 1.443
363.40 1.442
363.50 1.441
363.60 1.44
363.70 1.439
363.80 1.438
363.90 1.437
364.00 1.436
364.10 1.435
364.20 1.434
364.30 1.433
364.40 1.432
364.50 1.431
364.60 1.43
364.70 1.429
364.80 1.428
364.90 1.427
365.00 1.426
365.10 1.425
365.20 1.424
365.30 1.423
365.40 1.421
365.50 1.42
365.60 1.419
365.70 1.418
365.80 1.417
365.90 1.416
366.00 1.415
366.10 1.414
366.20 1.413
366.30 1.412
366.40 1.411
366.50 1.41
366.60 1.41
366.70 1.409
366.80 1.408
366.90 1.407
367.00 1.406
367.10 1.405
367.20 1.404
367.30 1.403
367.40 1.402
367.50 1.401
367.60 1.4
367.70 1.399
367.80 1.398
367.90 1.397
368.00 1.396
368.10 1.395
368.20 1.395
368.30 1.394
368.40 1.394
368.50 1.393
368.60 1.392
368.70 1.392
368.80 1.391
368.90 1.39
369.00 1.39
369.10 1.389
369.20 1.389
369.30 1.388
369.40 1.387
369.50 1.387
369.60 1.386
369.70 1.385
369.80 1.385
369.90 1.384
370.00 1.384
370.10 1.384
370.20 1.384
370.30 1.385
370.40 1.385
370.50 1.385
370.60 1.386
370.70 1.386
370.80 1.386
370.90 1.387
371.00 1.387
371.10 1.387
371.20 1.388
371.30 1.388
371.40 1.388
371.50 1.388
371.60 1.389
371.70 1.389
371.80 1.389
371.90 1.39
372.00 1.39
372.10 1.392
372.20 1.393
372.30 1.395
372.40 1.396
372.50 1.398
372.60 1.4
372.70 1.401
372.80 1.403
372.90 1.404
373.00 1.406
373.10 1.407
373.20 1.409
373.30 1.411
373.40 1.412
373.50 1.414
373.60 1.415
373.70 1.417
373.80 1.418
373.90 1.42
374.00 1.421
374.10 1.424
374.20 1.426
374.30 1.428
374.40 1.43
374.50 1.432
374.60 1.434
374.70 1.436
374.80 1.439
374.90 1.441
375.00 1.443
375.10 1.445
375.20 1.447
375.30 1.449
375.40 1.451
375.50 1.454
375.60 1.456
375.70 1.458
375.80 1.46
375.90 1.462
376.00 1.464
376.10 1.465
376.20 1.466
376.30 1.467
376.40 1.468
376.50 1.47
376.60 1.471
376.70 1.472
376.80 1.473
376.90 1.474
377.00 1.475
377.10 1.473
377.20 1.471
377.30 1.469
377.40 1.468
377.50 1.466
377.60 1.464
377.70 1.462
377.80 1.46
377.90 1.458
378.00 1.457
378.10 1.446
378.20 1.435
378.30 1.425
378.40 1.414
378.50 1.403
378.60 1.393
378.70 1.382
378.80 1.372
378.90 1.361
379.00 1.35
379.10 1.343
379.20 1.335
379.30 1.327
379.40 1.32
379.50 1.312
379.60 1.304
379.70 1.297
379.80 1.289
379.90 1.281
380.00 1.274
380.10 1.286
380.20 1.297
380.30 1.309
380.40 1.321
380.50 1.333
380.60 1.345
380.70 1.357
380.80 1.369
380.90 1.38
381.00 1.392
381.10 1.397
381.20 1.401
381.30 1.406
381.40 1.41
381.50 1.414
381.60 1.413
381.70 1.411
381.80 1.406
381.90 1.4
382.00 1.392
382.10 1.382
382.20 1.37
382.30 1.348
382.40 1.326
382.50 1.304
382.60 1.282
382.70 1.26
382.80 1.238
382.90 1.216
383.00 1.194
383.10 1.172
383.20 1.15
383.30 1.132
383.40 1.112
383.50 1.09
383.60 1.094
383.70 1.116
383.80 1.136
383.90 1.154
384.00 1.175
384.10 1.201
384.20 1.228
384.30 1.256
384.40 1.283
384.50 1.309
384.60 1.332
384.70 1.354
384.80 1.373
384.90 1.39
385.00 1.405
385.10 1.417
385.20 1.428
385.30 1.438
385.40 1.445
385.50 1.452
385.60 1.457
385.70 1.461
385.80 1.464
385.90 1.465
386.00 1.465
386.10 1.464
386.20 1.462
386.30 1.458
386.40 1.454
386.50 1.448
386.60 1.441
386.70 1.433
386.80 1.423
386.90 1.413
387.00 1.401
387.10 1.388
387.20 1.374
387.30 1.358
387.40 1.341
387.50 1.321
387.60 1.3
387.70 1.278
387.80 1.252
387.90 1.224
388.00 1.195
388.10 1.161
388.20 1.126
388.30 1.09
388.40 1.054
388.50 1.02
388.60 0.989
388.70 0.9614
388.80 0.9353
388.90 0.9107
389.00 0.9327
389.10 0.9572
389.20 0.9843
389.30 1.014
389.40 1.047
389.50 1.083
389.60 1.119
389.70 1.154
389.80 1.188
389.90 1.218
390.00 1.247
390.10 1.274
390.20 1.298
390.30 1.32
390.40 1.342
390.50 1.361
390.60 1.38
390.70 1.398
390.80 1.414
390.90 1.43
391.00 1.445
391.10 1.459
391.20 1.472
391.30 1.485
391.40 1.497
391.50 1.508
391.60 1.519
391.70 1.529
391.80 1.537
391.90 1.546
392.00 1.553
392.10 1.559
392.20 1.565
392.30 1.57
392.40 1.574
392.50 1.577
392.60 1.579
392.70 1.58
392.80 1.58
392.90 1.579
393.00 1.577
393.10 1.575
393.20 1.571
393.30 1.567
393.40 1.561
393.50 1.555
393.60 1.547
393.70 1.539
393.80 1.53
393.90 1.519
394.00 1.508
394.10 1.496
394.20 1.483
394.30 1.469
394.40 1.454
394.50 1.439
394.60 1.423
394.70 1.406
394.80 1.388
394.90 1.37
395.00 1.351
395.10 1.331
395.20 1.311
395.30 1.29
395.40 1.268
395.50 1.246
395.60 1.222
395.70 1.198
395.80 1.172
395.90 1.145
396.00 1.117
396.10 1.088
396.20 1.055
396.30 1.021
396.40 0.9846
396.50 0.946
396.60 0.9082
396.70 0.8714
396.80 0.8371
396.90 0.7981
397.00 0.7542
397.10 0.7941
397.20 0.8309
397.30 0.8644
397.40 0.9001
397.50 0.9367
397.60 0.9743
397.70 1.01
397.80 1.043
397.90 1.075
398.00 1.104
398.10 1.131
398.20 1.157
398.30 1.182
398.40 1.205
398.50 1.228
398.60 1.25
398.70 1.271
398.80 1.292
398.90 1.312
399.00 1.331
399.10 1.35
399.20 1.369
399.30 1.387
399.40 1.404
399.50 1.422
399.60 1.438
399.70 1.455
399.80 1.47
399.90 1.486
400.00 1.501
400.10 1.515
400.20 1.528
400.30 1.541
400.40 1.554
400.50 1.566
400.60 1.577
400.70 1.588
400.80 1.598
400.90 1.608
401.00 1.617
401.10 1.626
401.20 1.634
401.30 1.642
401.40 1.65
401.50 1.657
401.60 1.663
401.70 1.669
401.80 1.675
401.90 1.68
402.00 1.684
402.10 1.689
402.20 1.693
402.30 1.696
402.40 1.699
402.50 1.702
402.60 1.704
402.70 1.706
402.80 1.708
402.90 1.709
403.00 1.71
403.10 1.711
403.20 1.711
403.30 1.711
403.40 1.71
403.50 1.71
403.60 1.709
403.70 1.707
403.80 1.705
403.90 1.703
404.00 1.7
404.10 1.698
404.20 1.694
404.30 1.691
404.40 1.687
404.50 1.683
404.60 1.678
404.70 1.673
404.80 1.668
404.90 1.662
405.00 1.655
405.10 1.649
405.20 1.642
405.30 1.635
405.40 1.627
405.50 1.618
405.60 1.61
405.70 1.601
405.80 1.591
405.90 1.581
406.00 1.571
406.10 1.56
406.20 1.548
406.30 1.537
406.40 1.524
406.50 1.511
406.60 1.498
406.70 1.484
406.80 1.47
406.90 1.455
407.00 1.44
407.10 1.424
407.20 1.408
407.30 1.39
407.40 1.373
407.50 1.355
407.60 1.336
407.70 1.317
407.80 1.298
407.90 1.278
408.00 1.258
408.10 1.238
408.20 1.217
408.30 1.196
408.40 1.174
408.50 1.153
408.60 1.131
408.70 1.108
408.80 1.086
408.90 1.062
409.00 1.039
409.10 1.015
409.20 0.9898
409.30 0.9642
409.40 0.9361
409.50 0.9064
409.60 0.8751
409.70 0.8413
409.80 0.807
409.90 0.7723
410.00 0.7325
410.10 0.6925
410.20 0.6523
410.30 0.7079
410.40 0.7534
410.50 0.7888
410.60 0.8226
410.70 0.8555
410.80 0.8877
410.90 0.9167
411.00 0.9442
411.10 0.9701
411.20 0.9939
411.30 1.017
411.40 1.04
411.50 1.062
411.60 1.083
411.70 1.104
411.80 1.125
411.90 1.145
412.00 1.165
412.10 1.184
412.20 1.204
412.30 1.223
412.40 1.241
412.50 1.26
412.60 1.278
412.70 1.295
412.80 1.312
412.90 1.329
413.00 1.345
413.10 1.36
413.20 1.375
413.30 1.39
413.40 1.404
413.50 1.418
413.60 1.431
413.70 1.443
413.80 1.455
413.90 1.467
414.00 1.478
414.10 1.489
414.20 1.499
414.30 1.509
414.40 1.519
414.50 1.528
414.60 1.537
414.70 1.546
414.80 1.554
414.90 1.562
415.00 1.569
415.10 1.576
415.20 1.583
415.30 1.59
415.40 1.596
415.50 1.602
415.60 1.608
415.70 1.613
415.80 1.618
415.90 1.623
416.00 1.628
416.10 1.632
416.20 1.637
416.30 1.641
416.40 1.644
416.50 1.648
416.60 1.652
416.70 1.655
416.80 1.658
416.90 1.661
417.00 1.664
417.10 1.666
417.20 1.669
417.30 1.671
417.40 1.674
417.50 1.676
417.60 1.678
417.70 1.679
417.80 1.681
417.90 1.683
418.00 1.684
418.10 1.685
418.20 1.687
418.30 1.688
418.40 1.689
418.50 1.69
418.60 1.691
418.70 1.692
418.80 1.692
418.90 1.693
419.00 1.693
419.10 1.694
419.20 1.694
419.30 1.694
419.40 1.695
419.50 1.695
419.60 1.695
419.70 1.695
419.80 1.695
419.90 1.695
420.00 1.695
420.10 1.695
420.20 1.694
420.30 1.694
420.40 1.694
420.50 1.693
420.60 1.693
420.70 1.692
420.80 1.691
420.90 1.691
421.00 1.69
421.10 1.689
421.20 1.689
421.30 1.688
421.40 1.687
421.50 1.686
421.60 1.685
421.70 1.684
421.80 1.683
421.90 1.682
422.00 1.681
422.10 1.68
422.20 1.678
422.30 1.677
422.40 1.676
422.50 1.674
422.60 1.673
422.70 1.671
422.80 1.67
422.90 1.668
423.00 1.667
423.10 1.665
423.20 1.663
423.30 1.661
423.40 1.66
423.50 1.658
423.60 1.656
423.70 1.654
423.80 1.652
423.90 1.65
424.00 1.648
424.10 1.646
424.20 1.643
424.30 1.641
424.40 1.639
424.50 1.636
424.60 1.634
424.70 1.631
424.80 1.629
424.90 1.626
425.00 1.623
425.10 1.62
425.20 1.617
425.30 1.614
425.40 1.611
425.50 1.608
425.60 1.605
425.70 1.602
425.80 1.598
425.90 1.595
426.00 1.591
426.10 1.588
426.20 1.583
426.30 1.579
426.40 1.575
426.50 1.571
426.60 1.567
426.70 1.563
426.80 1.558
426.90 1.554
427.00 1.549
427.10 1.544
427.20 1.54
427.30 1.535
427.40 1.529
427.50 1.524
427.60 1.519
427.70 1.513
427.80 1.507
427.90 1.502
428.00 1.496
428.10 1.489
428.20 1.483
428.30 1.476
428.40 1.47
428.50 1.463
428.60 1.456
428.70 1.448
428.80 1.441
428.90 1.433
429.00 1.425
429.10 1.417
429.20 1.409
429.30 1.4
429.40 1.391
429.50 1.382
429.60 1.372
429.70 1.363
429.80 1.353
429.90 1.342
430.00 1.332
430.10 1.321
430.20 1.31
430.30 1.299
430.40 1.287
430.50 1.275
430.60 1.263
430.70 1.25
430.80 1.237
430.90 1.224
431.00 1.211
431.10 1.197
431.20 1.183
431.30 1.169
431.40 1.154
431.50 1.139
431.60 1.124
431.70 1.108
431.80 1.093
431.90 1.076
432.00 1.059
432.10 1.042
432.20 1.025
432.30 1.006
432.40 0.9875
432.50 0.9677
432.60 0.9474
432.70 0.9265
432.80 0.9052
432.90 0.8842
433.00 0.8634
433.10 0.8434
433.20 0.8232
433.30 0.8028
433.40 0.7801
433.50 0.7561
433.60 0.7306
433.70 0.7013
433.80 0.669
433.90 0.6338
434.00 0.5604
434.10 0.5613
434.20 0.6365
434.30 0.6704
434.40 0.7015
434.50 0.7299
434.60 0.7544
434.70 0.7774
434.80 0.799
434.90 0.8184
435.00 0.8376
435.10 0.8565
435.20 0.8763
435.30 0.8961
435.40 0.9161
435.50 0.9356
435.60 0.9546
435.70 0.9729
435.80 0.9902
435.90 1.007
436.00 1.023
436.10 1.039
436.20 1.054
436.30 1.068
436.40 1.083
436.50 1.096
436.60 1.11
436.70 1.123
436.80 1.136
436.90 1.148
437.00 1.16
437.10 1.172
437.20 1.183
437.30 1.194
437.40 1.205
437.50 1.216
437.60 1.226
437.70 1.235
437.80 1.245
437.90 1.254
438.00 1.263
438.10 1.272
438.20 1.28
438.30 1.288
438.40 1.295
438.50 1.303
438.60 1.31
438.70 1.317
438.80 1.323
438.90 1.33
439.00 1.336
439.10 1.342
439.20 1.347
439.30 1.353
439.40 1.358
439.50 1.363
439.60 1.368
439.70 1.372
439.80 1.376
439.90 1.381
440.00 1.385
440.10 1.388
440.20 1.392
440.30 1.396
440.40 1.399
440.50 1.402
440.60 1.405
440.70 1.408
440.80 1.411
440.90 1.413
441.00 1.416
441.10 1.418
441.20 1.421
441.30 1.423
441.40 1.425
441.50 1.427
441.60 1.429
441.70 1.431
441.80 1.432
441.90 1.434
442.00 1.435
442.10 1.437
442.20 1.438
442.30 1.439
442.40 1.44
442.50 1.441
442.60 1.442
442.70 1.443
442.80 1.444
442.90 1.445
443.00 1.446
443.10 1.446
443.20 1.447
443.30 1.448
443.40 1.448
443.50 1.449
443.60 1.449
443.70 1.45
443.80 1.45
443.90 1.45
444.00 1.45
444.10 1.451
444.20 1.451
444.30 1.451
444.40 1.451
444.50 1.451
444.60 1.451
444.70 1.451
444.80 1.451
444.90 1.451
445.00 1.451
445.10 1.45
445.20 1.45
445.30 1.45
445.40 1.45
445.50 1.45
445.60 1.449
445.70 1.449
445.80 1.449
445.90 1.448
446.00 1.448
446.10 1.448
446.20 1.447
446.30 1.447
446.40 1.446
446.50 1.446
446.60 1.445
446.70 1.445
446.80 1.444
446.90 1.444
447.00 1.443
447.10 1.443
447.20 1.442
447.30 1.442
447.40 1.441
447.50 1.44
447.60 1.44
447.70 1.439
447.80 1.439
447.90 1.438
448.00 1.437
448.10 1.437
448.20 1.436
448.30 1.435
448.40 1.435
448.50 1.434
448.60 1.433
448.70 1.432
448.80 1.432
448.90 1.431
449.00 1.43
449.10 1.43
449.20 1.429
449.30 1.428
449.40 1.428
449.50 1.427
449.60 1.426
449.70 1.425
449.80 1.424
449.90 1.424
450.00 1.423
450.10 1.422
450.20 1.421
450.30 1.42
450.40 1.42
450.50 1.419
450.60 1.418
450.70 1.417
450.80 1.416
450.90 1.415
451.00 1.415
451.10 1.414
451.20 1.413
451.30 1.412
451.40 1.411
451.50 1.41
451.60 1.409
451.70 1.409
451.80 1.408
451.90 1.407
452.00 1.406
452.10 1.405
452.20 1.404
452.30 1.403
452.40 1.403
452.50 1.402
452.60 1.401
452.70 1.4
452.80 1.399
452.90 1.398
453.00 1.397
453.10 1.396
453.20 1.395
453.30 1.394
453.40 1.394
453.50 1.393
453.60 1.392
