# Version 2.1 - nm, norm@500 to 1, cut digits, bergeron_4250_85.dat_4250
# Wavelength(nm)  Flambda(ergs/cm^s/s/nm)
300.00 0.2231
300.10 0.2234
300.20 0.2238
300.30 0.2242
300.40 0.2246
300.50 0.2249
300.60 0.2253
300.70 0.2257
300.80 0.226
300.90 0.2264
301.00 0.2268
301.10 0.2272
301.20 0.2275
301.30 0.2279
301.40 0.2283
301.50 0.2286
301.60 0.229
301.70 0.2294
301.80 0.2297
301.90 0.2301
302.00 0.2305
302.10 0.2308
302.20 0.2312
302.30 0.2316
302.40 0.232
302.50 0.2324
302.60 0.2327
302.70 0.2331
302.80 0.2335
302.90 0.2339
303.00 0.2342
303.10 0.2346
303.20 0.235
303.30 0.2354
303.40 0.2357
303.50 0.2361
303.60 0.2365
303.70 0.2369
303.80 0.2372
303.90 0.2376
304.00 0.238
304.10 0.2384
304.20 0.2387
304.30 0.2391
304.40 0.2395
304.50 0.2399
304.60 0.2403
304.70 0.2407
304.80 0.241
304.90 0.2414
305.00 0.2418
305.10 0.2422
305.20 0.2426
305.30 0.2429
305.40 0.2433
305.50 0.2437
305.60 0.2441
305.70 0.2444
305.80 0.2448
305.90 0.2452
306.00 0.2456
306.10 0.246
306.20 0.2463
306.30 0.2467
306.40 0.2471
306.50 0.2475
306.60 0.2479
306.70 0.2483
306.80 0.2487
306.90 0.249
307.00 0.2494
307.10 0.2498
307.20 0.2502
307.30 0.2506
307.40 0.251
307.50 0.2514
307.60 0.2517
307.70 0.2521
307.80 0.2525
307.90 0.2529
308.00 0.2533
308.10 0.2537
308.20 0.254
308.30 0.2544
308.40 0.2548
308.50 0.2552
308.60 0.2556
308.70 0.256
308.80 0.2564
308.90 0.2568
309.00 0.2572
309.10 0.2576
309.20 0.2579
309.30 0.2583
309.40 0.2587
309.50 0.2591
309.60 0.2595
309.70 0.2599
309.80 0.2603
309.90 0.2607
310.00 0.261
310.10 0.2614
310.20 0.2618
310.30 0.2622
310.40 0.2626
310.50 0.263
310.60 0.2634
310.70 0.2638
310.80 0.2642
310.90 0.2646
311.00 0.265
311.10 0.2654
311.20 0.2658
311.30 0.2662
311.40 0.2666
311.50 0.267
311.60 0.2674
311.70 0.2678
311.80 0.2682
311.90 0.2685
312.00 0.2689
312.10 0.2693
312.20 0.2697
312.30 0.2701
312.40 0.2705
312.50 0.2709
312.60 0.2713
312.70 0.2717
312.80 0.2721
312.90 0.2725
313.00 0.2729
313.10 0.2733
313.20 0.2737
313.30 0.2741
313.40 0.2745
313.50 0.2749
313.60 0.2753
313.70 0.2757
313.80 0.2761
313.90 0.2765
314.00 0.2769
314.10 0.2773
314.20 0.2777
314.30 0.2781
314.40 0.2785
314.50 0.2789
314.60 0.2793
314.70 0.2797
314.80 0.2801
314.90 0.2805
315.00 0.2809
315.10 0.2813
315.20 0.2817
315.30 0.2821
315.40 0.2825
315.50 0.2829
315.60 0.2833
315.70 0.2837
315.80 0.2841
315.90 0.2845
316.00 0.2849
316.10 0.2853
316.20 0.2857
316.30 0.2861
316.40 0.2865
316.50 0.287
316.60 0.2874
316.70 0.2878
316.80 0.2882
316.90 0.2886
317.00 0.289
317.10 0.2894
317.20 0.2898
317.30 0.2902
317.40 0.2906
317.50 0.291
317.60 0.2914
317.70 0.2918
317.80 0.2922
317.90 0.2926
318.00 0.293
318.10 0.2934
318.20 0.2938
318.30 0.2943
318.40 0.2947
318.50 0.2951
318.60 0.2955
318.70 0.2959
318.80 0.2963
318.90 0.2967
319.00 0.2971
319.10 0.2975
319.20 0.298
319.30 0.2984
319.40 0.2988
319.50 0.2992
319.60 0.2996
319.70 0.3
319.80 0.3004
319.90 0.3008
320.00 0.3012
320.10 0.3016
320.20 0.302
320.30 0.3025
320.40 0.3029
320.50 0.3033
320.60 0.3037
320.70 0.3041
320.80 0.3045
320.90 0.305
321.00 0.3054
321.10 0.3058
321.20 0.3062
321.30 0.3066
321.40 0.307
321.50 0.3074
321.60 0.3078
321.70 0.3082
321.80 0.3087
321.90 0.3091
322.00 0.3095
322.10 0.3099
322.20 0.3103
322.30 0.3107
322.40 0.3112
322.50 0.3116
322.60 0.312
322.70 0.3124
322.80 0.3128
322.90 0.3133
323.00 0.3137
323.10 0.3141
323.20 0.3145
323.30 0.3149
323.40 0.3153
323.50 0.3157
323.60 0.3162
323.70 0.3166
323.80 0.317
323.90 0.3174
324.00 0.3178
324.10 0.3182
324.20 0.3187
324.30 0.3191
324.40 0.3195
324.50 0.3199
324.60 0.3203
324.70 0.3208
324.80 0.3212
324.90 0.3216
325.00 0.322
325.10 0.3224
325.20 0.3229
325.30 0.3233
325.40 0.3237
325.50 0.3241
325.60 0.3245
325.70 0.3249
325.80 0.3254
325.90 0.3258
326.00 0.3262
326.10 0.3266
326.20 0.327
326.30 0.3275
326.40 0.3279
326.50 0.3283
326.60 0.3288
326.70 0.3292
326.80 0.3296
326.90 0.33
327.00 0.3304
327.10 0.3309
327.20 0.3313
327.30 0.3317
327.40 0.3321
327.50 0.3326
327.60 0.333
327.70 0.3334
327.80 0.3338
327.90 0.3342
328.00 0.3347
328.10 0.3351
328.20 0.3355
328.30 0.3359
328.40 0.3364
328.50 0.3368
328.60 0.3372
328.70 0.3376
328.80 0.3381
328.90 0.3385
329.00 0.3389
329.10 0.3393
329.20 0.3398
329.30 0.3402
329.40 0.3406
329.50 0.341
329.60 0.3415
329.70 0.3419
329.80 0.3423
329.90 0.3427
330.00 0.3431
330.10 0.3436
330.20 0.344
330.30 0.3444
330.40 0.3449
330.50 0.3453
330.60 0.3457
330.70 0.3462
330.80 0.3466
330.90 0.347
331.00 0.3475
331.10 0.3479
331.20 0.3483
331.30 0.3488
331.40 0.3492
331.50 0.3496
331.60 0.35
331.70 0.3505
331.80 0.3509
331.90 0.3513
332.00 0.3517
332.10 0.3522
332.20 0.3526
332.30 0.353
332.40 0.3535
332.50 0.3539
332.60 0.3543
332.70 0.3548
332.80 0.3552
332.90 0.3556
333.00 0.3561
333.10 0.3565
333.20 0.3569
333.30 0.3573
333.40 0.3578
333.50 0.3582
333.60 0.3586
333.70 0.3591
333.80 0.3595
333.90 0.3599
334.00 0.3603
334.10 0.3608
334.20 0.3612
334.30 0.3616
334.40 0.3621
334.50 0.3625
334.60 0.363
334.70 0.3634
334.80 0.3638
334.90 0.3643
335.00 0.3647
335.10 0.3651
335.20 0.3656
335.30 0.366
335.40 0.3664
335.50 0.3669
335.60 0.3673
335.70 0.3677
335.80 0.3682
335.90 0.3686
336.00 0.369
336.10 0.3695
336.20 0.3699
336.30 0.3703
336.40 0.3708
336.50 0.3712
336.60 0.3716
336.70 0.3721
336.80 0.3725
336.90 0.373
337.00 0.3734
337.10 0.3738
337.20 0.3743
337.30 0.3747
337.40 0.3751
337.50 0.3756
337.60 0.376
337.70 0.3764
337.80 0.3769
337.90 0.3773
338.00 0.3777
338.10 0.3782
338.20 0.3786
338.30 0.379
338.40 0.3795
338.50 0.3799
338.60 0.3804
338.70 0.3808
338.80 0.3812
338.90 0.3817
339.00 0.3821
339.10 0.3826
339.20 0.383
339.30 0.3834
339.40 0.3839
339.50 0.3843
339.60 0.3847
339.70 0.3852
339.80 0.3856
339.90 0.386
340.00 0.3865
340.10 0.3869
340.20 0.3874
340.30 0.3878
340.40 0.3882
340.50 0.3887
340.60 0.3891
340.70 0.3896
340.80 0.39
340.90 0.3905
341.00 0.3909
341.10 0.3913
341.20 0.3918
341.30 0.3922
341.40 0.3927
341.50 0.3931
341.60 0.3935
341.70 0.394
341.80 0.3944
341.90 0.3948
342.00 0.3953
342.10 0.3957
342.20 0.3962
342.30 0.3966
342.40 0.3971
342.50 0.3975
342.60 0.3979
342.70 0.3984
342.80 0.3988
342.90 0.3993
343.00 0.3997
343.10 0.4001
343.20 0.4006
343.30 0.401
343.40 0.4015
343.50 0.4019
343.60 0.4023
343.70 0.4028
343.80 0.4032
343.90 0.4037
344.00 0.4041
344.10 0.4045
344.20 0.405
344.30 0.4054
344.40 0.4059
344.50 0.4063
344.60 0.4068
344.70 0.4072
344.80 0.4077
344.90 0.4081
345.00 0.4086
345.10 0.409
345.20 0.4094
345.30 0.4099
345.40 0.4103
345.50 0.4108
345.60 0.4112
345.70 0.4116
345.80 0.4121
345.90 0.4125
346.00 0.413
346.10 0.4134
346.20 0.4139
346.30 0.4143
346.40 0.4148
346.50 0.4152
346.60 0.4157
346.70 0.4161
346.80 0.4165
346.90 0.417
347.00 0.4174
347.10 0.4179
347.20 0.4183
347.30 0.4188
347.40 0.4192
347.50 0.4196
347.60 0.4201
347.70 0.4205
347.80 0.421
347.90 0.4214
348.00 0.4218
348.10 0.4223
348.20 0.4227
348.30 0.4232
348.40 0.4236
348.50 0.4241
348.60 0.4245
348.70 0.425
348.80 0.4254
348.90 0.4259
349.00 0.4263
349.10 0.4268
349.20 0.4272
349.30 0.4277
349.40 0.4281
349.50 0.4286
349.60 0.429
349.70 0.4294
349.80 0.4299
349.90 0.4303
350.00 0.4308
350.10 0.4312
350.20 0.4317
350.30 0.4321
350.40 0.4326
350.50 0.433
350.60 0.4335
350.70 0.4339
350.80 0.4344
350.90 0.4348
351.00 0.4353
351.10 0.4357
351.20 0.4362
351.30 0.4366
351.40 0.437
351.50 0.4375
351.60 0.4379
351.70 0.4384
351.80 0.4388
351.90 0.4393
352.00 0.4397
352.10 0.4402
352.20 0.4406
352.30 0.4411
352.40 0.4415
352.50 0.442
352.60 0.4424
352.70 0.4429
352.80 0.4433
352.90 0.4438
353.00 0.4442
353.10 0.4447
353.20 0.4451
353.30 0.4455
353.40 0.446
353.50 0.4464
353.60 0.4469
353.70 0.4473
353.80 0.4478
353.90 0.4482
354.00 0.4486
354.10 0.4491
354.20 0.4496
354.30 0.45
354.40 0.4505
354.50 0.4509
354.60 0.4514
354.70 0.4518
354.80 0.4523
354.90 0.4527
355.00 0.4532
355.10 0.4536
355.20 0.4541
355.30 0.4545
355.40 0.455
355.50 0.4554
355.60 0.4559
355.70 0.4563
355.80 0.4567
355.90 0.4572
356.00 0.4576
356.10 0.4581
356.20 0.4585
356.30 0.459
356.40 0.4594
356.50 0.4599
356.60 0.4604
356.70 0.4608
356.80 0.4613
356.90 0.4617
357.00 0.4622
357.10 0.4626
357.20 0.463
357.30 0.4635
357.40 0.4639
357.50 0.4644
357.60 0.4648
357.70 0.4653
357.80 0.4657
357.90 0.4662
358.00 0.4666
358.10 0.4671
358.20 0.4675
358.30 0.468
358.40 0.4684
358.50 0.4689
358.60 0.4693
358.70 0.4698
358.80 0.4702
358.90 0.4707
359.00 0.4711
359.10 0.4716
359.20 0.472
359.30 0.4725
359.40 0.4729
359.50 0.4734
359.60 0.4738
359.70 0.4743
359.80 0.4747
359.90 0.4752
360.00 0.4756
360.10 0.4761
360.20 0.4765
360.30 0.477
360.40 0.4774
360.50 0.4779
360.60 0.4783
360.70 0.4788
360.80 0.4792
360.90 0.4797
361.00 0.4801
361.10 0.4806
361.20 0.481
361.30 0.4815
361.40 0.4819
361.50 0.4824
361.60 0.4828
361.70 0.4833
361.80 0.4837
361.90 0.4842
362.00 0.4846
362.10 0.4851
362.20 0.4855
362.30 0.486
362.40 0.4864
362.50 0.4869
362.60 0.4873
362.70 0.4878
362.80 0.4882
362.90 0.4887
363.00 0.4891
363.10 0.4896
363.20 0.49
363.30 0.4905
363.40 0.4909
363.50 0.4914
363.60 0.4918
363.70 0.4923
363.80 0.4927
363.90 0.4932
364.00 0.4936
364.10 0.4941
364.20 0.4945
364.30 0.495
364.40 0.4954
364.50 0.4959
364.60 0.4963
364.70 0.4968
364.80 0.4972
364.90 0.4977
365.00 0.4981
365.10 0.4986
365.20 0.499
365.30 0.4995
365.40 0.4999
365.50 0.5004
365.60 0.5008
365.70 0.5013
365.80 0.5017
365.90 0.5022
366.00 0.5026
366.10 0.5031
366.20 0.5035
366.30 0.504
366.40 0.5044
366.50 0.5049
366.60 0.5054
366.70 0.5058
366.80 0.5063
366.90 0.5067
367.00 0.5072
367.10 0.5076
367.20 0.5081
367.30 0.5085
367.40 0.509
367.50 0.5094
367.60 0.5099
367.70 0.5103
367.80 0.5108
367.90 0.5112
368.00 0.5116
368.10 0.5121
368.20 0.5126
368.30 0.513
368.40 0.5135
368.50 0.5139
368.60 0.5144
368.70 0.5148
368.80 0.5153
368.90 0.5157
369.00 0.5162
369.10 0.5166
369.20 0.5171
369.30 0.5175
369.40 0.518
369.50 0.5184
369.60 0.5189
369.70 0.5193
369.80 0.5198
369.90 0.5202
370.00 0.5207
370.10 0.5211
370.20 0.5216
370.30 0.522
370.40 0.5225
370.50 0.5229
370.60 0.5234
370.70 0.5238
370.80 0.5243
370.90 0.5247
371.00 0.5252
371.10 0.5256
371.20 0.5261
371.30 0.5265
371.40 0.527
371.50 0.5274
371.60 0.5279
371.70 0.5283
371.80 0.5288
371.90 0.5292
372.00 0.5296
372.10 0.5301
372.20 0.5306
372.30 0.531
372.40 0.5315
372.50 0.5319
372.60 0.5324
372.70 0.5328
372.80 0.5333
372.90 0.5337
373.00 0.5342
373.10 0.5346
373.20 0.5351
373.30 0.5355
373.40 0.536
373.50 0.5364
373.60 0.5369
373.70 0.5373
373.80 0.5377
373.90 0.5382
374.00 0.5386
374.10 0.5391
374.20 0.5395
374.30 0.54
374.40 0.5404
374.50 0.5409
374.60 0.5413
374.70 0.5418
374.80 0.5422
374.90 0.5427
375.00 0.5431
375.10 0.5436
375.20 0.544
375.30 0.5445
375.40 0.5449
375.50 0.5454
375.60 0.5458
375.70 0.5463
375.80 0.5467
375.90 0.5472
376.00 0.5476
376.10 0.5481
376.20 0.5485
376.30 0.549
376.40 0.5494
376.50 0.5499
376.60 0.5503
376.70 0.5507
376.80 0.5512
376.90 0.5516
377.00 0.5521
377.10 0.5525
377.20 0.553
377.30 0.5534
377.40 0.5539
377.50 0.5543
377.60 0.5548
377.70 0.5552
377.80 0.5557
377.90 0.5561
378.00 0.5566
378.10 0.557
378.20 0.5575
378.30 0.5579
378.40 0.5584
378.50 0.5588
378.60 0.5593
378.70 0.5597
378.80 0.5602
378.90 0.5606
379.00 0.561
379.10 0.5615
379.20 0.5619
379.30 0.5624
379.40 0.5628
379.50 0.5633
379.60 0.5637
379.70 0.5642
379.80 0.5646
379.90 0.5651
380.00 0.5655
380.10 0.566
380.20 0.5664
380.30 0.5668
380.40 0.5673
380.50 0.5677
380.60 0.5682
380.70 0.5686
380.80 0.5691
380.90 0.5695
381.00 0.57
381.10 0.5704
381.20 0.5709
381.30 0.5713
381.40 0.5718
381.50 0.5722
381.60 0.5726
381.70 0.5731
381.80 0.5735
381.90 0.574
382.00 0.5744
382.10 0.5749
382.20 0.5753
382.30 0.5758
382.40 0.5762
382.50 0.5767
382.60 0.5771
382.70 0.5775
382.80 0.578
382.90 0.5784
383.00 0.5789
383.10 0.5793
383.20 0.5798
383.30 0.5802
383.40 0.5807
383.50 0.5811
383.60 0.5815
383.70 0.582
383.80 0.5824
383.90 0.5829
384.00 0.5833
384.10 0.5838
384.20 0.5842
384.30 0.5846
384.40 0.5851
384.50 0.5855
384.60 0.586
384.70 0.5864
384.80 0.5869
384.90 0.5873
385.00 0.5878
385.10 0.5882
385.20 0.5886
385.30 0.5891
385.40 0.5895
385.50 0.59
385.60 0.5904
385.70 0.5909
385.80 0.5913
385.90 0.5917
386.00 0.5922
386.10 0.5926
386.20 0.5931
386.30 0.5935
386.40 0.594
386.50 0.5944
386.60 0.5948
386.70 0.5953
386.80 0.5957
386.90 0.5962
387.00 0.5966
387.10 0.5971
387.20 0.5975
387.30 0.5979
387.40 0.5984
387.50 0.5988
387.60 0.5993
387.70 0.5997
387.80 0.6001
387.90 0.6006
388.00 0.601
388.10 0.6015
388.20 0.6019
388.30 0.6024
388.40 0.6028
388.50 0.6032
388.60 0.6037
388.70 0.6041
388.80 0.6046
388.90 0.605
389.00 0.6054
389.10 0.6059
389.20 0.6063
389.30 0.6068
389.40 0.6072
389.50 0.6076
389.60 0.6081
389.70 0.6085
389.80 0.609
389.90 0.6094
390.00 0.6098
390.10 0.6103
390.20 0.6107
390.30 0.6112
390.40 0.6116
390.50 0.612
390.60 0.6125
390.70 0.6129
390.80 0.6134
390.90 0.6138
391.00 0.6142
391.10 0.6147
391.20 0.6151
391.30 0.6156
391.40 0.616
391.50 0.6164
391.60 0.6169
391.70 0.6173
391.80 0.6177
391.90 0.6182
392.00 0.6186
392.10 0.6191
392.20 0.6195
392.30 0.6199
392.40 0.6204
392.50 0.6208
392.60 0.6212
392.70 0.6217
392.80 0.6221
392.90 0.6226
393.00 0.623
393.10 0.6234
393.20 0.6239
393.30 0.6243
393.40 0.6247
393.50 0.6252
393.60 0.6256
393.70 0.626
393.80 0.6265
393.90 0.6269
394.00 0.6274
394.10 0.6278
394.20 0.6282
394.30 0.6287
394.40 0.6291
394.50 0.6295
394.60 0.63
394.70 0.6304
394.80 0.6308
394.90 0.6313
395.00 0.6317
395.10 0.6322
395.20 0.6326
395.30 0.633
395.40 0.6335
395.50 0.6339
395.60 0.6343
395.70 0.6348
395.80 0.6352
395.90 0.6356
396.00 0.6361
396.10 0.6365
396.20 0.6369
396.30 0.6374
396.40 0.6378
396.50 0.6382
396.60 0.6387
396.70 0.6391
396.80 0.6395
396.90 0.64
397.00 0.6404
397.10 0.6408
397.20 0.6413
397.30 0.6417
397.40 0.6421
397.50 0.6426
397.60 0.643
397.70 0.6434
397.80 0.6439
397.90 0.6443
398.00 0.6447
398.10 0.6452
398.20 0.6456
398.30 0.646
398.40 0.6465
398.50 0.6469
398.60 0.6473
398.70 0.6478
398.80 0.6482
398.90 0.6486
399.00 0.649
399.10 0.6495
399.20 0.6499
399.30 0.6503
399.40 0.6508
399.50 0.6512
399.60 0.6516
399.70 0.6521
399.80 0.6525
399.90 0.6529
400.00 0.6534
400.10 0.6538
400.20 0.6542
400.30 0.6546
400.40 0.6551
400.50 0.6555
400.60 0.6559
400.70 0.6564
400.80 0.6568
400.90 0.6572
401.00 0.6576
401.10 0.6581
401.20 0.6585
401.30 0.6589
401.40 0.6594
401.50 0.6598
401.60 0.6602
401.70 0.6606
401.80 0.6611
401.90 0.6615
402.00 0.6619
402.10 0.6624
402.20 0.6628
402.30 0.6632
402.40 0.6636
402.50 0.6641
402.60 0.6645
402.70 0.6649
402.80 0.6654
402.90 0.6658
403.00 0.6662
403.10 0.6666
403.20 0.6671
403.30 0.6675
403.40 0.6679
403.50 0.6683
403.60 0.6688
403.70 0.6692
403.80 0.6696
403.90 0.67
404.00 0.6705
404.10 0.6709
404.20 0.6713
404.30 0.6717
404.40 0.6722
404.50 0.6726
404.60 0.673
404.70 0.6734
404.80 0.6739
404.90 0.6743
405.00 0.6747
405.10 0.6751
405.20 0.6756
405.30 0.676
405.40 0.6764
405.50 0.6768
405.60 0.6773
405.70 0.6777
405.80 0.6781
405.90 0.6785
406.00 0.679
406.10 0.6794
406.20 0.6798
406.30 0.6802
406.40 0.6806
406.50 0.6811
406.60 0.6815
406.70 0.6819
406.80 0.6823
406.90 0.6827
407.00 0.6832
407.10 0.6836
407.20 0.684
407.30 0.6844
407.40 0.6849
407.50 0.6853
407.60 0.6857
407.70 0.6861
407.80 0.6865
407.90 0.687
408.00 0.6874
408.10 0.6878
408.20 0.6882
408.30 0.6886
408.40 0.6891
408.50 0.6895
408.60 0.6899
408.70 0.6903
408.80 0.6908
408.90 0.6912
409.00 0.6916
409.10 0.692
409.20 0.6924
409.30 0.6928
409.40 0.6933
409.50 0.6937
409.60 0.6941
409.70 0.6945
409.80 0.6949
409.90 0.6954
410.00 0.6958
410.10 0.6962
410.20 0.6966
410.30 0.697
410.40 0.6974
410.50 0.6979
410.60 0.6983
410.70 0.6987
410.80 0.6991
410.90 0.6995
411.00 0.6999
411.10 0.7004
411.20 0.7008
411.30 0.7012
411.40 0.7016
411.50 0.702
411.60 0.7024
411.70 0.7029
411.80 0.7033
411.90 0.7037
412.00 0.7041
412.10 0.7045
412.20 0.7049
412.30 0.7054
412.40 0.7058
412.50 0.7062
412.60 0.7066
412.70 0.707
412.80 0.7074
412.90 0.7078
413.00 0.7082
413.10 0.7087
413.20 0.7091
413.30 0.7095
413.40 0.7099
413.50 0.7103
413.60 0.7107
413.70 0.7111
413.80 0.7116
413.90 0.712
414.00 0.7124
414.10 0.7128
414.20 0.7132
414.30 0.7136
414.40 0.714
414.50 0.7144
414.60 0.7149
414.70 0.7153
414.80 0.7157
414.90 0.7161
415.00 0.7165
415.10 0.7169
415.20 0.7173
415.30 0.7177
415.40 0.7181
415.50 0.7186
415.60 0.719
415.70 0.7194
415.80 0.7198
415.90 0.7202
416.00 0.7206
416.10 0.721
416.20 0.7214
416.30 0.7218
416.40 0.7222
416.50 0.7226
416.60 0.7231
416.70 0.7235
416.80 0.7239
416.90 0.7243
417.00 0.7247
417.10 0.7251
417.20 0.7255
417.30 0.7259
417.40 0.7263
417.50 0.7267
417.60 0.7271
417.70 0.7275
417.80 0.728
417.90 0.7284
418.00 0.7288
418.10 0.7292
418.20 0.7296
418.30 0.73
418.40 0.7304
418.50 0.7308
418.60 0.7312
418.70 0.7316
418.80 0.732
418.90 0.7324
419.00 0.7328
419.10 0.7332
419.20 0.7336
419.30 0.734
419.40 0.7344
419.50 0.7348
419.60 0.7352
419.70 0.7357
419.80 0.7361
419.90 0.7365
420.00 0.7369
420.10 0.7373
420.20 0.7377
420.30 0.7381
420.40 0.7385
420.50 0.7389
420.60 0.7393
420.70 0.7397
420.80 0.7401
420.90 0.7405
421.00 0.7409
421.10 0.7413
421.20 0.7417
421.30 0.7421
421.40 0.7425
421.50 0.7429
421.60 0.7433
421.70 0.7437
421.80 0.7441
421.90 0.7445
422.00 0.7449
422.10 0.7453
422.20 0.7457
422.30 0.7461
422.40 0.7465
422.50 0.7469
422.60 0.7473
422.70 0.7477
422.80 0.7481
422.90 0.7485
423.00 0.7489
423.10 0.7493
423.20 0.7497
423.30 0.7501
423.40 0.7505
423.50 0.7509
423.60 0.7513
423.70 0.7517
423.80 0.7521
423.90 0.7525
424.00 0.7529
424.10 0.7533
424.20 0.7537
424.30 0.7541
424.40 0.7545
424.50 0.7549
424.60 0.7553
424.70 0.7557
424.80 0.7561
424.90 0.7565
425.00 0.7569
425.10 0.7573
425.20 0.7576
425.30 0.758
425.40 0.7584
425.50 0.7588
425.60 0.7592
425.70 0.7596
425.80 0.76
425.90 0.7604
426.00 0.7608
426.10 0.7612
426.20 0.7616
426.30 0.762
426.40 0.7624
426.50 0.7628
426.60 0.7632
426.70 0.7636
426.80 0.764
426.90 0.7643
427.00 0.7647
427.10 0.7651
427.20 0.7655
427.30 0.7659
427.40 0.7663
427.50 0.7667
427.60 0.7671
427.70 0.7675
427.80 0.7679
427.90 0.7683
428.00 0.7687
428.10 0.769
428.20 0.7694
428.30 0.7698
428.40 0.7702
428.50 0.7706
428.60 0.771
428.70 0.7714
428.80 0.7718
428.90 0.7722
429.00 0.7726
429.10 0.7729
429.20 0.7733
429.30 0.7737
429.40 0.7741
429.50 0.7745
429.60 0.7749
429.70 0.7753
429.80 0.7757
429.90 0.776
430.00 0.7764
430.10 0.7768
430.20 0.7772
430.30 0.7776
430.40 0.778
430.50 0.7784
430.60 0.7788
430.70 0.7791
430.80 0.7795
430.90 0.7799
431.00 0.7803
431.10 0.7807
431.20 0.7811
431.30 0.7815
431.40 0.7818
431.50 0.7822
431.60 0.7826
431.70 0.783
431.80 0.7834
431.90 0.7838
432.00 0.7841
432.10 0.7845
432.20 0.7849
432.30 0.7853
432.40 0.7857
432.50 0.7861
432.60 0.7864
432.70 0.7868
432.80 0.7872
432.90 0.7876
433.00 0.788
433.10 0.7884
433.20 0.7887
433.30 0.7891
433.40 0.7895
433.50 0.7899
433.60 0.7903
433.70 0.7906
433.80 0.791
433.90 0.7914
434.00 0.7918
434.10 0.7922
434.20 0.7926
434.30 0.7929
434.40 0.7933
434.50 0.7937
434.60 0.7941
434.70 0.7944
434.80 0.7948
434.90 0.7952
435.00 0.7956
435.10 0.796
435.20 0.7963
435.30 0.7967
435.40 0.7971
435.50 0.7975
435.60 0.7979
435.70 0.7982
435.80 0.7986
435.90 0.799
436.00 0.7994
436.10 0.7997
436.20 0.8001
436.30 0.8005
436.40 0.8009
436.50 0.8013
436.60 0.8016
436.70 0.802
436.80 0.8024
436.90 0.8027
437.00 0.8031
437.10 0.8035
437.20 0.8039
437.30 0.8042
437.40 0.8046
437.50 0.805
437.60 0.8054
437.70 0.8057
437.80 0.8061
437.90 0.8065
438.00 0.8069
438.10 0.8072
438.20 0.8076
438.30 0.808
438.40 0.8084
438.50 0.8087
438.60 0.8091
438.70 0.8095
438.80 0.8099
438.90 0.8102
439.00 0.8106
439.10 0.811
439.20 0.8113
439.30 0.8117
439.40 0.8121
439.50 0.8124
439.60 0.8128
439.70 0.8132
439.80 0.8136
439.90 0.8139
440.00 0.8143
440.10 0.8147
440.20 0.815
440.30 0.8154
440.40 0.8158
440.50 0.8162
440.60 0.8165
440.70 0.8169
440.80 0.8172
440.90 0.8176
441.00 0.818
441.10 0.8184
441.20 0.8187
441.30 0.8191
441.40 0.8195
441.50 0.8198
441.60 0.8202
441.70 0.8206
441.80 0.8209
441.90 0.8213
442.00 0.8217
442.10 0.822
442.20 0.8224
442.30 0.8228
442.40 0.8231
442.50 0.8235
442.60 0.8238
442.70 0.8242
442.80 0.8246
442.90 0.8249
443.00 0.8253
