# Version 2.1 - nm, norm@500 to 1, cut digits, bergeron_2000_90.dat_2000
# Wavelength(nm)  Flambda(ergs/cm^s/s/nm)
300.00 0.05287
300.10 0.05303
300.20 0.05319
300.30 0.05335
300.40 0.05351
300.50 0.05368
300.60 0.05384
300.70 0.054
300.80 0.05416
300.90 0.05432
301.00 0.05449
301.10 0.05465
301.20 0.05481
301.30 0.05497
301.40 0.05513
301.50 0.05529
301.60 0.05545
301.70 0.05561
301.80 0.05577
301.90 0.05593
302.00 0.05609
302.10 0.05626
302.20 0.05642
302.30 0.05659
302.40 0.05676
302.50 0.05693
302.60 0.0571
302.70 0.05727
302.80 0.05744
302.90 0.05761
303.00 0.05777
303.10 0.05794
303.20 0.05811
303.30 0.05827
303.40 0.05844
303.50 0.05861
303.60 0.05877
303.70 0.05894
303.80 0.05911
303.90 0.05927
304.00 0.05944
304.10 0.05962
304.20 0.05979
304.30 0.05997
304.40 0.06014
304.50 0.06032
304.60 0.06049
304.70 0.06067
304.80 0.06084
304.90 0.06102
305.00 0.06119
305.10 0.06136
305.20 0.06154
305.30 0.06171
305.40 0.06188
305.50 0.06206
305.60 0.06223
305.70 0.0624
305.80 0.06257
305.90 0.06275
306.00 0.06293
306.10 0.06311
306.20 0.06329
306.30 0.06347
306.40 0.06365
306.50 0.06383
306.60 0.06401
306.70 0.0642
306.80 0.06438
306.90 0.06456
307.00 0.06474
307.10 0.06492
307.20 0.0651
307.30 0.06528
307.40 0.06546
307.50 0.06564
307.60 0.06582
307.70 0.066
307.80 0.06618
307.90 0.06636
308.00 0.06654
308.10 0.06673
308.20 0.06692
308.30 0.06711
308.40 0.06729
308.50 0.06748
308.60 0.06767
308.70 0.06786
308.80 0.06805
308.90 0.06824
309.00 0.06842
309.10 0.06861
309.20 0.0688
309.30 0.06899
309.40 0.06917
309.50 0.06936
309.60 0.06955
309.70 0.06973
309.80 0.06992
309.90 0.0701
310.00 0.0703
310.10 0.07049
310.20 0.07068
310.30 0.07088
310.40 0.07108
310.50 0.07127
310.60 0.07147
310.70 0.07167
310.80 0.07186
310.90 0.07206
311.00 0.07225
311.10 0.07245
311.20 0.07264
311.30 0.07284
311.40 0.07303
311.50 0.07322
311.60 0.07342
311.70 0.07361
311.80 0.0738
311.90 0.074
312.00 0.07419
312.10 0.07438
312.20 0.07458
312.30 0.07478
312.40 0.07498
312.50 0.07519
312.60 0.07539
312.70 0.07559
312.80 0.0758
312.90 0.076
313.00 0.0762
313.10 0.0764
313.20 0.07661
313.30 0.07681
313.40 0.07701
313.50 0.07721
313.60 0.07741
313.70 0.07761
313.80 0.07781
313.90 0.07801
314.00 0.07822
314.10 0.07842
314.20 0.07863
314.30 0.07884
314.40 0.07905
314.50 0.07926
314.60 0.07947
314.70 0.07968
314.80 0.07989
314.90 0.0801
315.00 0.08031
315.10 0.08052
315.20 0.08073
315.30 0.08094
315.40 0.08114
315.50 0.08135
315.60 0.08156
315.70 0.08176
315.80 0.08197
315.90 0.08218
316.00 0.08239
316.10 0.0826
316.20 0.08282
316.30 0.08304
316.40 0.08326
316.50 0.08347
316.60 0.08369
316.70 0.08391
316.80 0.08412
316.90 0.08434
317.00 0.08456
317.10 0.08477
317.20 0.08499
317.30 0.0852
317.40 0.08542
317.50 0.08563
317.60 0.08585
317.70 0.08606
317.80 0.08628
317.90 0.08649
318.00 0.08671
318.10 0.08693
318.20 0.08715
318.30 0.08738
318.40 0.0876
318.50 0.08783
318.60 0.08805
318.70 0.08828
318.80 0.0885
318.90 0.08873
319.00 0.08895
319.10 0.08917
319.20 0.0894
319.30 0.08962
319.40 0.08984
319.50 0.09006
319.60 0.09028
319.70 0.0905
319.80 0.09073
319.90 0.09095
320.00 0.09118
320.10 0.0914
320.20 0.09163
320.30 0.09187
320.40 0.0921
320.50 0.09233
320.60 0.09256
320.70 0.09279
320.80 0.09303
320.90 0.09326
321.00 0.09349
321.10 0.09372
321.20 0.09395
321.30 0.09418
321.40 0.09441
321.50 0.09464
321.60 0.09487
321.70 0.09509
321.80 0.09532
321.90 0.09555
322.00 0.09578
322.10 0.09602
322.20 0.09626
322.30 0.0965
322.40 0.09674
322.50 0.09698
322.60 0.09722
322.70 0.09746
322.80 0.0977
322.90 0.09794
323.00 0.09817
323.10 0.09841
323.20 0.09865
323.30 0.09889
323.40 0.09912
323.50 0.09936
323.60 0.0996
323.70 0.09983
323.80 0.1001
323.90 0.1003
324.00 0.1005
324.10 0.1008
324.20 0.101
324.30 0.1013
324.40 0.1015
324.50 0.1018
324.60 0.102
324.70 0.1023
324.80 0.1025
324.90 0.1028
325.00 0.103
325.10 0.1033
325.20 0.1035
325.30 0.1037
325.40 0.104
325.50 0.1042
325.60 0.1045
325.70 0.1047
325.80 0.105
325.90 0.1052
326.00 0.1055
326.10 0.1057
326.20 0.106
326.30 0.1062
326.40 0.1065
326.50 0.1067
326.60 0.107
326.70 0.1072
326.80 0.1075
326.90 0.1077
327.00 0.108
327.10 0.1082
327.20 0.1085
327.30 0.1088
327.40 0.109
327.50 0.1093
327.60 0.1095
327.70 0.1098
327.80 0.11
327.90 0.1103
328.00 0.1105
328.10 0.1108
328.20 0.111
328.30 0.1113
328.40 0.1116
328.50 0.1118
328.60 0.1121
328.70 0.1124
328.80 0.1126
328.90 0.1129
329.00 0.1131
329.10 0.1134
329.20 0.1137
329.30 0.1139
329.40 0.1142
329.50 0.1144
329.60 0.1147
329.70 0.115
329.80 0.1152
329.90 0.1155
330.00 0.1157
330.10 0.116
330.20 0.1163
330.30 0.1165
330.40 0.1168
330.50 0.1171
330.60 0.1174
330.70 0.1176
330.80 0.1179
330.90 0.1182
331.00 0.1184
331.10 0.1187
331.20 0.119
331.30 0.1192
331.40 0.1195
331.50 0.1198
331.60 0.12
331.70 0.1203
331.80 0.1206
331.90 0.1208
332.00 0.1211
332.10 0.1214
332.20 0.1217
332.30 0.1219
332.40 0.1222
332.50 0.1225
332.60 0.1228
332.70 0.123
332.80 0.1233
332.90 0.1236
333.00 0.1239
333.10 0.1241
333.20 0.1244
333.30 0.1247
333.40 0.125
333.50 0.1252
333.60 0.1255
333.70 0.1258
333.80 0.1261
333.90 0.1263
334.00 0.1266
334.10 0.1269
334.20 0.1272
334.30 0.1275
334.40 0.1278
334.50 0.128
334.60 0.1283
334.70 0.1286
334.80 0.1289
334.90 0.1292
335.00 0.1295
335.10 0.1298
335.20 0.13
335.30 0.1303
335.40 0.1306
335.50 0.1309
335.60 0.1312
335.70 0.1314
335.80 0.1317
335.90 0.132
336.00 0.1323
336.10 0.1326
336.20 0.1329
336.30 0.1332
336.40 0.1335
336.50 0.1338
336.60 0.1341
336.70 0.1343
336.80 0.1346
336.90 0.1349
337.00 0.1352
337.10 0.1355
337.20 0.1358
337.30 0.1361
337.40 0.1364
337.50 0.1367
337.60 0.137
337.70 0.1373
337.80 0.1375
337.90 0.1378
338.00 0.1381
338.10 0.1384
338.20 0.1387
338.30 0.139
338.40 0.1393
338.50 0.1396
338.60 0.1399
338.70 0.1402
338.80 0.1405
338.90 0.1408
339.00 0.1411
339.10 0.1414
339.20 0.1417
339.30 0.142
339.40 0.1423
339.50 0.1426
339.60 0.1429
339.70 0.1432
339.80 0.1435
339.90 0.1438
340.00 0.1441
340.10 0.1444
340.20 0.1447
340.30 0.145
340.40 0.1454
340.50 0.1457
340.60 0.146
340.70 0.1463
340.80 0.1466
340.90 0.1469
341.00 0.1472
341.10 0.1475
341.20 0.1478
341.30 0.1481
341.40 0.1484
341.50 0.1487
341.60 0.149
341.70 0.1493
341.80 0.1496
341.90 0.15
342.00 0.1503
342.10 0.1506
342.20 0.1509
342.30 0.1512
342.40 0.1515
342.50 0.1518
342.60 0.1522
342.70 0.1525
342.80 0.1528
342.90 0.1531
343.00 0.1534
343.10 0.1537
343.20 0.1541
343.30 0.1544
343.40 0.1547
343.50 0.155
343.60 0.1553
343.70 0.1556
343.80 0.1559
343.90 0.1563
344.00 0.1566
344.10 0.1569
344.20 0.1572
344.30 0.1575
344.40 0.1579
344.50 0.1582
344.60 0.1585
344.70 0.1588
344.80 0.1592
344.90 0.1595
345.00 0.1598
345.10 0.1601
345.20 0.1605
345.30 0.1608
345.40 0.1611
345.50 0.1614
345.60 0.1617
345.70 0.1621
345.80 0.1624
345.90 0.1627
346.00 0.163
346.10 0.1634
346.20 0.1637
346.30 0.164
346.40 0.1644
346.50 0.1647
346.60 0.165
346.70 0.1654
346.80 0.1657
346.90 0.166
347.00 0.1663
347.10 0.1667
347.20 0.167
347.30 0.1673
347.40 0.1677
347.50 0.168
347.60 0.1683
347.70 0.1686
347.80 0.169
347.90 0.1693
348.00 0.1696
348.10 0.17
348.20 0.1703
348.30 0.1707
348.40 0.171
348.50 0.1713
348.60 0.1717
348.70 0.172
348.80 0.1724
348.90 0.1727
349.00 0.173
349.10 0.1734
349.20 0.1737
349.30 0.1741
349.40 0.1744
349.50 0.1747
349.60 0.1751
349.70 0.1754
349.80 0.1757
349.90 0.1761
350.00 0.1764
350.10 0.1768
350.20 0.1771
350.30 0.1775
350.40 0.1778
350.50 0.1782
350.60 0.1785
350.70 0.1788
350.80 0.1792
350.90 0.1795
351.00 0.1799
351.10 0.1802
351.20 0.1806
351.30 0.1809
351.40 0.1813
351.50 0.1816
351.60 0.182
351.70 0.1823
351.80 0.1826
351.90 0.183
352.00 0.1833
352.10 0.1837
352.20 0.184
352.30 0.1844
352.40 0.1848
352.50 0.1851
352.60 0.1855
352.70 0.1858
352.80 0.1862
352.90 0.1865
353.00 0.1869
353.10 0.1872
353.20 0.1876
353.30 0.188
353.40 0.1883
353.50 0.1887
353.60 0.189
353.70 0.1894
353.80 0.1897
353.90 0.1901
354.00 0.1904
354.10 0.1908
354.20 0.1911
354.30 0.1915
354.40 0.1919
354.50 0.1922
354.60 0.1926
354.70 0.193
354.80 0.1933
354.90 0.1937
355.00 0.1941
355.10 0.1944
355.20 0.1948
355.30 0.1951
355.40 0.1955
355.50 0.1959
355.60 0.1962
355.70 0.1966
355.80 0.1969
355.90 0.1973
356.00 0.1977
356.10 0.198
356.20 0.1984
356.30 0.1988
356.40 0.1991
356.50 0.1995
356.60 0.1999
356.70 0.2003
356.80 0.2006
356.90 0.201
357.00 0.2014
357.10 0.2017
357.20 0.2021
357.30 0.2025
357.40 0.2028
357.50 0.2032
357.60 0.2036
357.70 0.2039
357.80 0.2043
357.90 0.2047
358.00 0.205
358.10 0.2054
358.20 0.2058
358.30 0.2062
358.40 0.2066
358.50 0.2069
358.60 0.2073
358.70 0.2077
358.80 0.2081
358.90 0.2085
359.00 0.2088
359.10 0.2092
359.20 0.2096
359.30 0.21
359.40 0.2104
359.50 0.2107
359.60 0.2111
359.70 0.2115
359.80 0.2119
359.90 0.2122
360.00 0.2126
360.10 0.213
360.20 0.2134
360.30 0.2138
360.40 0.2142
360.50 0.2145
360.60 0.2149
360.70 0.2153
360.80 0.2157
360.90 0.2161
361.00 0.2165
361.10 0.2169
361.20 0.2172
361.30 0.2176
361.40 0.218
361.50 0.2184
361.60 0.2188
361.70 0.2192
361.80 0.2195
361.90 0.2199
362.00 0.2203
362.10 0.2207
362.20 0.2211
362.30 0.2215
362.40 0.2219
362.50 0.2223
362.60 0.2227
362.70 0.223
362.80 0.2234
362.90 0.2238
363.00 0.2242
363.10 0.2246
363.20 0.225
363.30 0.2254
363.40 0.2258
363.50 0.2262
363.60 0.2266
363.70 0.227
363.80 0.2274
363.90 0.2278
364.00 0.2282
364.10 0.2286
364.20 0.229
364.30 0.2294
364.40 0.2297
364.50 0.2301
364.60 0.2306
364.70 0.231
364.80 0.2314
364.90 0.2318
365.00 0.2322
365.10 0.2326
365.20 0.233
365.30 0.2334
365.40 0.2338
365.50 0.2342
365.60 0.2346
365.70 0.235
365.80 0.2354
365.90 0.2358
366.00 0.2362
366.10 0.2366
366.20 0.237
366.30 0.2374
366.40 0.2378
366.50 0.2382
366.60 0.2386
366.70 0.239
366.80 0.2394
366.90 0.2399
367.00 0.2403
367.10 0.2407
367.20 0.2411
367.30 0.2415
367.40 0.2419
367.50 0.2423
367.60 0.2427
367.70 0.2431
367.80 0.2435
367.90 0.2439
368.00 0.2443
368.10 0.2447
368.20 0.2452
368.30 0.2456
368.40 0.246
368.50 0.2464
368.60 0.2468
368.70 0.2473
368.80 0.2477
368.90 0.2481
369.00 0.2485
369.10 0.2489
369.20 0.2493
369.30 0.2497
369.40 0.2502
369.50 0.2506
369.60 0.251
369.70 0.2514
369.80 0.2518
369.90 0.2522
370.00 0.2526
370.10 0.2531
370.20 0.2535
370.30 0.2539
370.40 0.2543
370.50 0.2548
370.60 0.2552
370.70 0.2556
370.80 0.256
370.90 0.2565
371.00 0.2569
371.10 0.2573
371.20 0.2577
371.30 0.2581
371.40 0.2586
371.50 0.259
371.60 0.2594
371.70 0.2598
371.80 0.2603
371.90 0.2607
372.00 0.2611
372.10 0.2615
372.20 0.262
372.30 0.2624
372.40 0.2628
372.50 0.2633
372.60 0.2637
372.70 0.2641
372.80 0.2646
372.90 0.265
373.00 0.2654
373.10 0.2658
373.20 0.2663
373.30 0.2667
373.40 0.2671
373.50 0.2676
373.60 0.268
373.70 0.2684
373.80 0.2688
373.90 0.2693
374.00 0.2697
374.10 0.2701
374.20 0.2706
374.30 0.271
374.40 0.2715
374.50 0.2719
374.60 0.2723
374.70 0.2728
374.80 0.2732
374.90 0.2736
375.00 0.2741
375.10 0.2745
375.20 0.275
375.30 0.2754
375.40 0.2758
375.50 0.2763
375.60 0.2767
375.70 0.2771
375.80 0.2776
375.90 0.278
376.00 0.2784
376.10 0.2789
376.20 0.2793
376.30 0.2798
376.40 0.2802
376.50 0.2807
376.60 0.2811
376.70 0.2815
376.80 0.282
376.90 0.2824
377.00 0.2829
377.10 0.2833
377.20 0.2838
377.30 0.2842
377.40 0.2847
377.50 0.2851
377.60 0.2855
377.70 0.286
377.80 0.2864
377.90 0.2869
378.00 0.2873
378.10 0.2878
378.20 0.2882
378.30 0.2887
378.40 0.2891
378.50 0.2896
378.60 0.29
378.70 0.2905
378.80 0.2909
378.90 0.2914
379.00 0.2918
379.10 0.2923
379.20 0.2927
379.30 0.2932
379.40 0.2937
379.50 0.2941
379.60 0.2946
379.70 0.295
379.80 0.2955
379.90 0.2959
380.00 0.2964
380.10 0.2968
380.20 0.2973
380.30 0.2977
380.40 0.2982
380.50 0.2987
380.60 0.2991
380.70 0.2996
380.80 0.3
380.90 0.3005
381.00 0.3009
381.10 0.3014
381.20 0.3019
381.30 0.3023
381.40 0.3028
381.50 0.3032
381.60 0.3037
381.70 0.3042
381.80 0.3046
381.90 0.3051
382.00 0.3056
382.10 0.306
382.20 0.3065
382.30 0.3069
382.40 0.3074
382.50 0.3079
382.60 0.3083
382.70 0.3088
382.80 0.3093
382.90 0.3097
383.00 0.3102
383.10 0.3107
383.20 0.3111
383.30 0.3116
383.40 0.3121
383.50 0.3125
383.60 0.313
383.70 0.3135
383.80 0.3139
383.90 0.3144
384.00 0.3149
384.10 0.3153
384.20 0.3158
384.30 0.3163
384.40 0.3167
384.50 0.3172
384.60 0.3177
384.70 0.3182
384.80 0.3186
384.90 0.3191
385.00 0.3196
385.10 0.32
385.20 0.3205
385.30 0.321
385.40 0.3215
385.50 0.3219
385.60 0.3224
385.70 0.3229
385.80 0.3234
385.90 0.3238
386.00 0.3243
386.10 0.3248
386.20 0.3253
386.30 0.3257
386.40 0.3262
386.50 0.3267
386.60 0.3272
386.70 0.3277
386.80 0.3281
386.90 0.3286
387.00 0.3291
387.10 0.3296
387.20 0.3301
387.30 0.3305
387.40 0.331
387.50 0.3315
387.60 0.332
387.70 0.3325
387.80 0.3329
387.90 0.3334
388.00 0.3339
388.10 0.3344
388.20 0.3349
388.30 0.3354
388.40 0.3358
388.50 0.3363
388.60 0.3368
388.70 0.3373
388.80 0.3378
388.90 0.3383
389.00 0.3388
389.10 0.3392
389.20 0.3397
389.30 0.3402
389.40 0.3407
389.50 0.3412
389.60 0.3417
389.70 0.3422
389.80 0.3427
389.90 0.3431
390.00 0.3436
390.10 0.3441
390.20 0.3446
390.30 0.3451
390.40 0.3456
390.50 0.3461
390.60 0.3466
390.70 0.3471
390.80 0.3476
390.90 0.348
391.00 0.3485
391.10 0.349
391.20 0.3495
391.30 0.35
391.40 0.3505
391.50 0.351
391.60 0.3515
391.70 0.352
391.80 0.3525
391.90 0.353
392.00 0.3535
392.10 0.354
392.20 0.3545
392.30 0.355
392.40 0.3555
392.50 0.356
392.60 0.3565
392.70 0.357
392.80 0.3575
392.90 0.358
393.00 0.3585
393.10 0.359
393.20 0.3595
393.30 0.36
393.40 0.3605
393.50 0.361
393.60 0.3615
393.70 0.362
393.80 0.3625
393.90 0.363
394.00 0.3635
394.10 0.364
394.20 0.3645
394.30 0.365
394.40 0.3655
394.50 0.366
394.60 0.3665
394.70 0.367
394.80 0.3675
394.90 0.368
395.00 0.3685
395.10 0.369
395.20 0.3695
395.30 0.37
395.40 0.3705
395.50 0.371
395.60 0.3715
395.70 0.3721
395.80 0.3726
395.90 0.3731
396.00 0.3736
396.10 0.3741
396.20 0.3746
396.30 0.3751
396.40 0.3756
396.50 0.3761
396.60 0.3766
396.70 0.3771
396.80 0.3777
396.90 0.3782
397.00 0.3787
397.10 0.3792
397.20 0.3797
397.30 0.3802
397.40 0.3807
397.50 0.3812
397.60 0.3818
397.70 0.3823
397.80 0.3828
397.90 0.3833
398.00 0.3838
398.10 0.3843
398.20 0.3848
398.30 0.3854
398.40 0.3859
398.50 0.3864
398.60 0.3869
398.70 0.3874
398.80 0.3879
398.90 0.3885
399.00 0.389
399.10 0.3895
399.20 0.39
399.30 0.3905
399.40 0.3911
399.50 0.3916
399.60 0.3921
399.70 0.3926
399.80 0.3931
399.90 0.3937
400.00 0.3942
400.10 0.3947
400.20 0.3952
400.30 0.3957
400.40 0.3963
400.50 0.3968
400.60 0.3973
400.70 0.3978
400.80 0.3983
400.90 0.3989
401.00 0.3994
401.10 0.3999
401.20 0.4004
401.30 0.401
401.40 0.4015
401.50 0.402
401.60 0.4025
401.70 0.4031
401.80 0.4036
401.90 0.4041
402.00 0.4046
402.10 0.4052
402.20 0.4057
402.30 0.4062
402.40 0.4068
402.50 0.4073
402.60 0.4078
402.70 0.4083
402.80 0.4089
402.90 0.4094
403.00 0.4099
403.10 0.4105
403.20 0.411
403.30 0.4115
403.40 0.412
403.50 0.4126
403.60 0.4131
403.70 0.4136
403.80 0.4142
403.90 0.4147
404.00 0.4152
404.10 0.4158
404.20 0.4163
404.30 0.4168
404.40 0.4174
404.50 0.4179
404.60 0.4184
404.70 0.419
404.80 0.4195
404.90 0.42
405.00 0.4206
405.10 0.4211
405.20 0.4217
405.30 0.4222
405.40 0.4227
405.50 0.4233
405.60 0.4238
405.70 0.4243
405.80 0.4249
405.90 0.4254
406.00 0.4259
406.10 0.4265
406.20 0.427
406.30 0.4276
406.40 0.4281
406.50 0.4286
406.60 0.4292
406.70 0.4297
406.80 0.4303
406.90 0.4308
407.00 0.4313
407.10 0.4319
407.20 0.4324
407.30 0.433
407.40 0.4335
407.50 0.4341
407.60 0.4346
407.70 0.4351
407.80 0.4357
407.90 0.4362
408.00 0.4368
408.10 0.4373
408.20 0.4379
408.30 0.4384
408.40 0.4389
408.50 0.4395
408.60 0.44
408.70 0.4406
408.80 0.4411
408.90 0.4417
409.00 0.4422
409.10 0.4428
409.20 0.4433
409.30 0.4439
409.40 0.4444
409.50 0.445
409.60 0.4455
409.70 0.4461
409.80 0.4466
409.90 0.4471
410.00 0.4477
410.10 0.4482
410.20 0.4488
410.30 0.4493
410.40 0.4499
410.50 0.4504
410.60 0.451
410.70 0.4515
410.80 0.4521
410.90 0.4527
411.00 0.4532
411.10 0.4538
411.20 0.4543
411.30 0.4549
411.40 0.4554
411.50 0.456
411.60 0.4565
411.70 0.4571
411.80 0.4576
411.90 0.4582
412.00 0.4587
412.10 0.4593
412.20 0.4598
412.30 0.4604
412.40 0.461
412.50 0.4615
412.60 0.4621
412.70 0.4626
412.80 0.4632
412.90 0.4637
413.00 0.4643
413.10 0.4648
413.20 0.4654
413.30 0.466
413.40 0.4665
413.50 0.4671
413.60 0.4676
413.70 0.4682
413.80 0.4688
413.90 0.4693
414.00 0.4699
414.10 0.4704
414.20 0.471
414.30 0.4716
414.40 0.4721
414.50 0.4727
414.60 0.4732
414.70 0.4738
414.80 0.4744
414.90 0.4749
415.00 0.4755
415.10 0.476
415.20 0.4766
415.30 0.4772
415.40 0.4777
415.50 0.4783
415.60 0.4789
415.70 0.4794
415.80 0.48
415.90 0.4806
416.00 0.4811
416.10 0.4817
416.20 0.4822
416.30 0.4828
416.40 0.4834
416.50 0.4839
416.60 0.4845
416.70 0.4851
416.80 0.4856
416.90 0.4862
417.00 0.4868
417.10 0.4873
417.20 0.4879
417.30 0.4885
417.40 0.489
417.50 0.4896
417.60 0.4902
417.70 0.4907
417.80 0.4913
417.90 0.4919
418.00 0.4925
418.10 0.493
418.20 0.4936
418.30 0.4942
418.40 0.4947
418.50 0.4953
418.60 0.4959
418.70 0.4964
418.80 0.497
418.90 0.4976
419.00 0.4982
419.10 0.4987
419.20 0.4993
419.30 0.4999
419.40 0.5004
419.50 0.501
419.60 0.5016
419.70 0.5022
419.80 0.5027
419.90 0.5033
420.00 0.5039
420.10 0.5045
420.20 0.505
420.30 0.5056
420.40 0.5062
420.50 0.5068
420.60 0.5073
420.70 0.5079
420.80 0.5085
420.90 0.5091
421.00 0.5096
421.10 0.5102
421.20 0.5108
421.30 0.5114
421.40 0.5119
421.50 0.5125
421.60 0.5131
421.70 0.5137
421.80 0.5143
421.90 0.5148
422.00 0.5154
422.10 0.516
422.20 0.5166
422.30 0.5172
422.40 0.5177
422.50 0.5183
422.60 0.5189
422.70 0.5195
422.80 0.52
422.90 0.5206
423.00 0.5212
423.10 0.5218
423.20 0.5224
423.30 0.5229
423.40 0.5235
423.50 0.5241
423.60 0.5247
423.70 0.5253
423.80 0.5259
423.90 0.5264
424.00 0.527
424.10 0.5276
424.20 0.5282
424.30 0.5288
424.40 0.5294
424.50 0.5299
424.60 0.5305
424.70 0.5311
424.80 0.5317
424.90 0.5323
425.00 0.5329
425.10 0.5334
425.20 0.534
425.30 0.5346
425.40 0.5352
425.50 0.5358
425.60 0.5364
425.70 0.537
425.80 0.5376
425.90 0.5381
426.00 0.5387
426.10 0.5393
426.20 0.5399
426.30 0.5405
426.40 0.5411
426.50 0.5417
426.60 0.5423
426.70 0.5428
426.80 0.5434
426.90 0.544
427.00 0.5446
427.10 0.5452
427.20 0.5458
427.30 0.5464
427.40 0.547
427.50 0.5476
427.60 0.5481
427.70 0.5487
427.80 0.5493
427.90 0.5499
428.00 0.5505
428.10 0.5511
428.20 0.5517
428.30 0.5523
428.40 0.5529
428.50 0.5535
428.60 0.5541
428.70 0.5547
428.80 0.5552
428.90 0.5558
429.00 0.5564
429.10 0.557
429.20 0.5576
429.30 0.5582
429.40 0.5588
429.50 0.5594
429.60 0.56
429.70 0.5606
429.80 0.5612
429.90 0.5618
430.00 0.5624
430.10 0.563
430.20 0.5636
430.30 0.5642
430.40 0.5648
430.50 0.5654
430.60 0.5659
430.70 0.5665
430.80 0.5671
430.90 0.5677
431.00 0.5683
431.10 0.5689
431.20 0.5695
431.30 0.5701
431.40 0.5707
431.50 0.5713
431.60 0.5719
431.70 0.5725
431.80 0.5731
431.90 0.5737
432.00 0.5743
432.10 0.5749
432.20 0.5755
432.30 0.5761
432.40 0.5767
432.50 0.5773
432.60 0.5779
432.70 0.5785
432.80 0.5791
432.90 0.5797
433.00 0.5803
433.10 0.5809
433.20 0.5815
433.30 0.5821
433.40 0.5827
433.50 0.5833
433.60 0.5839
433.70 0.5845
433.80 0.5851
433.90 0.5857
434.00 0.5863
434.10 0.5869
434.20 0.5875
434.30 0.5881
434.40 0.5887
434.50 0.5893
434.60 0.5899
434.70 0.5905
434.80 0.5912
434.90 0.5918
435.00 0.5924
435.10 0.593
435.20 0.5936
435.30 0.5942
435.40 0.5948
435.50 0.5954
435.60 0.596
435.70 0.5966
435.80 0.5972
435.90 0.5978
436.00 0.5984
436.10 0.599
436.20 0.5996
436.30 0.6002
436.40 0.6008
436.50 0.6014
436.60 0.602
436.70 0.6027
436.80 0.6033
436.90 0.6039
437.00 0.6045
437.10 0.6051
437.20 0.6057
437.30 0.6063
437.40 0.6069
437.50 0.6075
437.60 0.6081
437.70 0.6087
437.80 0.6093
437.90 0.61
438.00 0.6106
438.10 0.6112
438.20 0.6118
438.30 0.6124
438.40 0.613
438.50 0.6136
438.60 0.6142
438.70 0.6148
438.80 0.6154
438.90 0.616
439.00 0.6167
439.10 0.6173
439.20 0.6179
439.30 0.6185
439.40 0.6191
439.50 0.6197
439.60 0.6203
439.70 0.6209
439.80 0.6215
439.90 0.6222
440.00 0.6228
440.10 0.6234
440.20 0.624
440.30 0.6246
440.40 0.6252
440.50 0.6258
440.60 0.6264
440.70 0.6271
440.80 0.6277
440.90 0.6283
441.00 0.6289
441.10 0.6295
441.20 0.6301
441.30 0.6307
441.40 0.6314
441.50 0.632
441.60 0.6326
