# Version 2.1 - nm, norm@500 to 1, cut digits, bergeron_120000_80.dat_120000
# Wavelength(nm)  Flambda(ergs/cm^s/s/nm)
300.00 6.957
300.10 6.948
300.20 6.939
300.30 6.93
300.40 6.922
300.50 6.913
300.60 6.904
300.70 6.895
300.80 6.887
300.90 6.878
301.00 6.869
301.10 6.861
301.20 6.852
301.30 6.843
301.40 6.835
301.50 6.826
301.60 6.818
301.70 6.809
301.80 6.8
301.90 6.792
302.00 6.783
302.10 6.775
302.20 6.766
302.30 6.758
302.40 6.749
302.50 6.741
302.60 6.732
302.70 6.724
302.80 6.716
302.90 6.707
303.00 6.699
303.10 6.69
303.20 6.682
303.30 6.674
303.40 6.665
303.50 6.657
303.60 6.649
303.70 6.64
303.80 6.632
303.90 6.624
304.00 6.615
304.10 6.607
304.20 6.599
304.30 6.591
304.40 6.582
304.50 6.574
304.60 6.566
304.70 6.558
304.80 6.55
304.90 6.541
305.00 6.533
305.10 6.525
305.20 6.517
305.30 6.509
305.40 6.501
305.50 6.493
305.60 6.485
305.70 6.477
305.80 6.469
305.90 6.461
306.00 6.453
306.10 6.445
306.20 6.437
306.30 6.429
306.40 6.421
306.50 6.413
306.60 6.405
306.70 6.397
306.80 6.389
306.90 6.381
307.00 6.373
307.10 6.365
307.20 6.357
307.30 6.349
307.40 6.342
307.50 6.334
307.60 6.326
307.70 6.318
307.80 6.31
307.90 6.303
308.00 6.295
308.10 6.287
308.20 6.279
308.30 6.271
308.40 6.264
308.50 6.256
308.60 6.248
308.70 6.241
308.80 6.233
308.90 6.225
309.00 6.218
309.10 6.21
309.20 6.202
309.30 6.195
309.40 6.187
309.50 6.18
309.60 6.172
309.70 6.164
309.80 6.157
309.90 6.149
310.00 6.142
310.10 6.134
310.20 6.127
310.30 6.119
310.40 6.112
310.50 6.104
310.60 6.097
310.70 6.089
310.80 6.082
310.90 6.074
311.00 6.067
311.10 6.06
311.20 6.052
311.30 6.045
311.40 6.037
311.50 6.03
311.60 6.023
311.70 6.015
311.80 6.008
311.90 6.001
312.00 5.993
312.10 5.986
312.20 5.979
312.30 5.971
312.40 5.964
312.50 5.957
312.60 5.95
312.70 5.942
312.80 5.935
312.90 5.928
313.00 5.921
313.10 5.914
313.20 5.906
313.30 5.899
313.40 5.892
313.50 5.885
313.60 5.878
313.70 5.871
313.80 5.864
313.90 5.857
314.00 5.849
314.10 5.842
314.20 5.835
314.30 5.828
314.40 5.821
314.50 5.814
314.60 5.807
314.70 5.8
314.80 5.793
314.90 5.786
315.00 5.779
315.10 5.772
315.20 5.765
315.30 5.758
315.40 5.751
315.50 5.744
315.60 5.737
315.70 5.731
315.80 5.724
315.90 5.717
316.00 5.71
316.10 5.703
316.20 5.696
316.30 5.689
316.40 5.682
316.50 5.676
316.60 5.669
316.70 5.662
316.80 5.655
316.90 5.648
317.00 5.642
317.10 5.635
317.20 5.628
317.30 5.621
317.40 5.615
317.50 5.608
317.60 5.601
317.70 5.594
317.80 5.588
317.90 5.581
318.00 5.574
318.10 5.568
318.20 5.561
318.30 5.554
318.40 5.548
318.50 5.541
318.60 5.534
318.70 5.528
318.80 5.521
318.90 5.515
319.00 5.508
319.10 5.502
319.20 5.495
319.30 5.488
319.40 5.482
319.50 5.475
319.60 5.469
319.70 5.462
319.80 5.456
319.90 5.449
320.00 5.443
320.10 5.436
320.20 5.43
320.30 5.424
320.40 5.417
320.50 5.411
320.60 5.404
320.70 5.398
320.80 5.391
320.90 5.385
321.00 5.379
321.10 5.372
321.20 5.366
321.30 5.36
321.40 5.353
321.50 5.347
321.60 5.341
321.70 5.334
321.80 5.328
321.90 5.322
322.00 5.315
322.10 5.309
322.20 5.303
322.30 5.297
322.40 5.29
322.50 5.284
322.60 5.278
322.70 5.272
322.80 5.265
322.90 5.259
323.00 5.253
323.10 5.247
323.20 5.241
323.30 5.234
323.40 5.228
323.50 5.222
323.60 5.216
323.70 5.21
323.80 5.204
323.90 5.198
324.00 5.191
324.10 5.185
324.20 5.179
324.30 5.173
324.40 5.167
324.50 5.161
324.60 5.155
324.70 5.149
324.80 5.143
324.90 5.137
325.00 5.131
325.10 5.125
325.20 5.119
325.30 5.113
325.40 5.107
325.50 5.101
325.60 5.095
325.70 5.089
325.80 5.083
325.90 5.077
326.00 5.071
326.10 5.065
326.20 5.059
326.30 5.053
326.40 5.048
326.50 5.042
326.60 5.036
326.70 5.03
326.80 5.024
326.90 5.018
327.00 5.012
327.10 5.007
327.20 5.001
327.30 4.995
327.40 4.989
327.50 4.983
327.60 4.978
327.70 4.972
327.80 4.966
327.90 4.96
328.00 4.954
328.10 4.949
328.20 4.943
328.30 4.937
328.40 4.931
328.50 4.926
328.60 4.92
328.70 4.914
328.80 4.909
328.90 4.903
329.00 4.897
329.10 4.892
329.20 4.886
329.30 4.88
329.40 4.875
329.50 4.869
329.60 4.863
329.70 4.858
329.80 4.852
329.90 4.847
330.00 4.841
330.10 4.835
330.20 4.83
330.30 4.824
330.40 4.819
330.50 4.813
330.60 4.808
330.70 4.802
330.80 4.797
330.90 4.791
331.00 4.786
331.10 4.78
331.20 4.775
331.30 4.769
331.40 4.764
331.50 4.758
331.60 4.753
331.70 4.747
331.80 4.742
331.90 4.736
332.00 4.731
332.10 4.725
332.20 4.72
332.30 4.715
332.40 4.709
332.50 4.704
332.60 4.698
332.70 4.693
332.80 4.688
332.90 4.682
333.00 4.677
333.10 4.672
333.20 4.666
333.30 4.661
333.40 4.656
333.50 4.65
333.60 4.645
333.70 4.64
333.80 4.634
333.90 4.629
334.00 4.624
334.10 4.618
334.20 4.613
334.30 4.608
334.40 4.603
334.50 4.597
334.60 4.592
334.70 4.587
334.80 4.582
334.90 4.577
335.00 4.571
335.10 4.566
335.20 4.561
335.30 4.556
335.40 4.551
335.50 4.545
335.60 4.54
335.70 4.535
335.80 4.53
335.90 4.525
336.00 4.52
336.10 4.515
336.20 4.509
336.30 4.504
336.40 4.499
336.50 4.494
336.60 4.489
336.70 4.484
336.80 4.479
336.90 4.474
337.00 4.469
337.10 4.464
337.20 4.459
337.30 4.454
337.40 4.449
337.50 4.444
337.60 4.439
337.70 4.434
337.80 4.429
337.90 4.424
338.00 4.419
338.10 4.414
338.20 4.409
338.30 4.404
338.40 4.399
338.50 4.394
338.60 4.389
338.70 4.384
338.80 4.379
338.90 4.374
339.00 4.369
339.10 4.364
339.20 4.359
339.30 4.354
339.40 4.35
339.50 4.345
339.60 4.34
339.70 4.335
339.80 4.33
339.90 4.325
340.00 4.32
340.10 4.315
340.20 4.311
340.30 4.306
340.40 4.301
340.50 4.296
340.60 4.291
340.70 4.287
340.80 4.282
340.90 4.277
341.00 4.272
341.10 4.267
341.20 4.263
341.30 4.258
341.40 4.253
341.50 4.248
341.60 4.244
341.70 4.239
341.80 4.234
341.90 4.229
342.00 4.225
342.10 4.22
342.20 4.215
342.30 4.211
342.40 4.206
342.50 4.201
342.60 4.197
342.70 4.192
342.80 4.187
342.90 4.183
343.00 4.178
343.10 4.173
343.20 4.169
343.30 4.164
343.40 4.159
343.50 4.155
343.60 4.15
343.70 4.146
343.80 4.141
343.90 4.136
344.00 4.132
344.10 4.127
344.20 4.123
344.30 4.118
344.40 4.113
344.50 4.109
344.60 4.104
344.70 4.1
344.80 4.095
344.90 4.091
345.00 4.086
345.10 4.082
345.20 4.077
345.30 4.073
345.40 4.068
345.50 4.064
345.60 4.059
345.70 4.055
345.80 4.05
345.90 4.046
346.00 4.041
346.10 4.037
346.20 4.032
346.30 4.028
346.40 4.024
346.50 4.019
346.60 4.015
346.70 4.01
346.80 4.006
346.90 4.002
347.00 3.997
347.10 3.993
347.20 3.988
347.30 3.984
347.40 3.98
347.50 3.975
347.60 3.971
347.70 3.966
347.80 3.962
347.90 3.958
348.00 3.953
348.10 3.949
348.20 3.945
348.30 3.94
348.40 3.936
348.50 3.932
348.60 3.928
348.70 3.923
348.80 3.919
348.90 3.915
349.00 3.91
349.10 3.906
349.20 3.902
349.30 3.898
349.40 3.893
349.50 3.889
349.60 3.885
349.70 3.881
349.80 3.876
349.90 3.872
350.00 3.868
350.10 3.864
350.20 3.859
350.30 3.855
350.40 3.851
350.50 3.847
350.60 3.843
350.70 3.839
350.80 3.834
350.90 3.83
351.00 3.826
351.10 3.822
351.20 3.818
351.30 3.814
351.40 3.809
351.50 3.805
351.60 3.801
351.70 3.797
351.80 3.793
351.90 3.789
352.00 3.785
352.10 3.78
352.20 3.776
352.30 3.772
352.40 3.768
352.50 3.764
352.60 3.76
352.70 3.756
352.80 3.752
352.90 3.748
353.00 3.744
353.10 3.74
353.20 3.736
353.30 3.732
353.40 3.728
353.50 3.724
353.60 3.72
353.70 3.716
353.80 3.712
353.90 3.708
354.00 3.704
354.10 3.7
354.20 3.696
354.30 3.692
354.40 3.688
354.50 3.684
354.60 3.68
354.70 3.676
354.80 3.672
354.90 3.668
355.00 3.664
355.10 3.66
355.20 3.656
355.30 3.652
355.40 3.648
355.50 3.644
355.60 3.64
355.70 3.636
355.80 3.633
355.90 3.629
356.00 3.625
356.10 3.621
356.20 3.617
356.30 3.613
356.40 3.609
356.50 3.605
356.60 3.602
356.70 3.598
356.80 3.594
356.90 3.59
357.00 3.586
357.10 3.582
357.20 3.579
357.30 3.575
357.40 3.571
357.50 3.567
357.60 3.563
357.70 3.559
357.80 3.556
357.90 3.552
358.00 3.548
358.10 3.544
358.20 3.54
358.30 3.537
358.40 3.533
358.50 3.529
358.60 3.525
358.70 3.522
358.80 3.518
358.90 3.514
359.00 3.51
359.10 3.507
359.20 3.503
359.30 3.499
359.40 3.496
359.50 3.492
359.60 3.488
359.70 3.484
359.80 3.481
359.90 3.477
360.00 3.473
360.10 3.47
360.20 3.466
360.30 3.462
360.40 3.459
360.50 3.455
360.60 3.451
360.70 3.448
360.80 3.444
360.90 3.44
361.00 3.437
361.10 3.433
361.20 3.429
361.30 3.426
361.40 3.422
361.50 3.419
361.60 3.415
361.70 3.411
361.80 3.408
361.90 3.404
362.00 3.4
362.10 3.397
362.20 3.393
362.30 3.39
362.40 3.386
362.50 3.383
362.60 3.379
362.70 3.376
362.80 3.372
362.90 3.368
363.00 3.365
363.10 3.361
363.20 3.358
363.30 3.354
363.40 3.351
363.50 3.347
363.60 3.344
363.70 3.34
363.80 3.337
363.90 3.333
364.00 3.33
364.10 3.326
364.20 3.323
364.30 3.319
364.40 3.316
364.50 3.312
364.60 3.309
364.70 3.305
364.80 3.302
364.90 3.298
365.00 3.295
365.10 3.291
365.20 3.288
365.30 3.285
365.40 3.281
365.50 3.278
365.60 3.274
365.70 3.271
365.80 3.267
365.90 3.264
366.00 3.261
366.10 3.257
366.20 3.254
366.30 3.25
366.40 3.247
366.50 3.244
366.60 3.24
366.70 3.237
366.80 3.233
366.90 3.23
367.00 3.227
367.10 3.223
367.20 3.22
367.30 3.216
367.40 3.213
367.50 3.21
367.60 3.206
367.70 3.203
367.80 3.2
367.90 3.196
368.00 3.193
368.10 3.189
368.20 3.186
368.30 3.183
368.40 3.179
368.50 3.176
368.60 3.173
368.70 3.169
368.80 3.166
368.90 3.163
369.00 3.159
369.10 3.156
369.20 3.153
369.30 3.15
369.40 3.146
369.50 3.143
369.60 3.14
369.70 3.136
369.80 3.133
369.90 3.13
370.00 3.126
370.10 3.123
370.20 3.12
370.30 3.117
370.40 3.113
370.50 3.11
370.60 3.107
370.70 3.104
370.80 3.1
370.90 3.097
371.00 3.094
371.10 3.091
371.20 3.088
371.30 3.084
371.40 3.081
371.50 3.078
371.60 3.075
371.70 3.071
371.80 3.068
371.90 3.065
372.00 3.062
372.10 3.059
372.20 3.056
372.30 3.052
372.40 3.049
372.50 3.046
372.60 3.043
372.70 3.04
372.80 3.037
372.90 3.034
373.00 3.03
373.10 3.027
373.20 3.024
373.30 3.021
373.40 3.018
373.50 3.015
373.60 3.012
373.70 3.009
373.80 3.006
373.90 3.002
374.00 2.999
374.10 2.996
374.20 2.993
374.30 2.99
374.40 2.987
374.50 2.984
374.60 2.981
374.70 2.978
374.80 2.975
374.90 2.972
375.00 2.969
375.10 2.966
375.20 2.962
375.30 2.959
375.40 2.956
375.50 2.953
375.60 2.95
375.70 2.947
375.80 2.944
375.90 2.941
376.00 2.938
376.10 2.935
376.20 2.932
376.30 2.929
376.40 2.926
376.50 2.923
376.60 2.92
376.70 2.917
376.80 2.914
376.90 2.911
377.00 2.908
377.10 2.905
377.20 2.902
377.30 2.899
377.40 2.896
377.50 2.894
377.60 2.891
377.70 2.888
377.80 2.885
377.90 2.882
378.00 2.879
378.10 2.876
378.20 2.873
378.30 2.87
378.40 2.867
378.50 2.864
378.60 2.861
378.70 2.859
378.80 2.856
378.90 2.853
379.00 2.85
379.10 2.847
379.20 2.844
379.30 2.841
379.40 2.839
379.50 2.836
379.60 2.833
379.70 2.83
379.80 2.827
379.90 2.824
380.00 2.822
380.10 2.819
380.20 2.816
380.30 2.813
380.40 2.81
380.50 2.808
380.60 2.805
380.70 2.802
380.80 2.799
380.90 2.797
381.00 2.794
381.10 2.791
381.20 2.788
381.30 2.786
381.40 2.783
381.50 2.78
381.60 2.777
381.70 2.775
381.80 2.772
381.90 2.769
382.00 2.766
382.10 2.764
382.20 2.761
382.30 2.758
382.40 2.755
382.50 2.753
382.60 2.75
382.70 2.747
382.80 2.744
382.90 2.742
383.00 2.739
383.10 2.736
383.20 2.734
383.30 2.731
383.40 2.728
383.50 2.726
383.60 2.723
383.70 2.72
383.80 2.718
383.90 2.715
384.00 2.713
384.10 2.71
384.20 2.708
384.30 2.705
384.40 2.702
384.50 2.7
384.60 2.697
384.70 2.695
384.80 2.692
384.90 2.69
385.00 2.687
385.10 2.685
385.20 2.682
385.30 2.679
385.40 2.677
385.50 2.674
385.60 2.672
385.70 2.669
385.80 2.666
385.90 2.664
386.00 2.661
386.10 2.659
386.20 2.656
386.30 2.653
386.40 2.651
386.50 2.648
386.60 2.645
386.70 2.643
386.80 2.64
386.90 2.637
387.00 2.635
387.10 2.632
387.20 2.629
387.30 2.626
387.40 2.624
387.50 2.621
387.60 2.618
387.70 2.616
387.80 2.613
387.90 2.61
388.00 2.607
388.10 2.605
388.20 2.602
388.30 2.599
388.40 2.597
388.50 2.594
388.60 2.592
388.70 2.589
388.80 2.587
388.90 2.584
389.00 2.582
389.10 2.58
389.20 2.577
389.30 2.575
389.40 2.573
389.50 2.571
389.60 2.568
389.70 2.566
389.80 2.564
389.90 2.562
390.00 2.56
390.10 2.558
390.20 2.556
390.30 2.554
390.40 2.551
390.50 2.549
390.60 2.547
390.70 2.545
390.80 2.543
390.90 2.541
391.00 2.539
391.10 2.536
391.20 2.534
391.30 2.532
391.40 2.53
391.50 2.527
391.60 2.525
391.70 2.523
391.80 2.52
391.90 2.518
392.00 2.516
392.10 2.513
392.20 2.511
392.30 2.509
392.40 2.506
392.50 2.504
392.60 2.501
392.70 2.499
392.80 2.496
392.90 2.493
393.00 2.491
393.10 2.488
393.20 2.486
393.30 2.483
393.40 2.48
393.50 2.478
393.60 2.475
393.70 2.472
393.80 2.469
393.90 2.466
394.00 2.464
394.10 2.461
394.20 2.458
394.30 2.455
394.40 2.452
394.50 2.449
394.60 2.446
394.70 2.443
394.80 2.44
394.90 2.437
395.00 2.434
395.10 2.431
395.20 2.427
395.30 2.424
395.40 2.421
395.50 2.418
395.60 2.415
395.70 2.411
395.80 2.408
395.90 2.405
396.00 2.402
396.10 2.398
396.20 2.395
396.30 2.392
396.40 2.389
396.50 2.386
396.60 2.383
396.70 2.379
396.80 2.377
396.90 2.374
397.00 2.371
397.10 2.369
397.20 2.368
397.30 2.366
397.40 2.365
397.50 2.364
397.60 2.363
397.70 2.362
397.80 2.36
397.90 2.359
398.00 2.358
398.10 2.357
398.20 2.356
398.30 2.355
398.40 2.354
398.50 2.353
398.60 2.351
398.70 2.35
398.80 2.349
398.90 2.348
399.00 2.347
399.10 2.345
399.20 2.344
399.30 2.343
399.40 2.341
399.50 2.34
399.60 2.339
399.70 2.337
399.80 2.336
399.90 2.334
400.00 2.333
400.10 2.331
400.20 2.33
400.30 2.328
400.40 2.327
400.50 2.325
400.60 2.323
400.70 2.322
400.80 2.32
400.90 2.318
401.00 2.317
401.10 2.315
401.20 2.313
401.30 2.311
401.40 2.309
401.50 2.308
401.60 2.306
401.70 2.304
401.80 2.302
401.90 2.3
402.00 2.298
402.10 2.296
402.20 2.294
402.30 2.292
402.40 2.29
402.50 2.288
402.60 2.286
402.70 2.284
402.80 2.282
402.90 2.28
403.00 2.278
403.10 2.276
403.20 2.273
403.30 2.271
403.40 2.269
403.50 2.267
403.60 2.265
403.70 2.262
403.80 2.26
403.90 2.258
404.00 2.255
404.10 2.253
404.20 2.251
404.30 2.248
404.40 2.246
404.50 2.243
404.60 2.241
404.70 2.239
404.80 2.236
404.90 2.233
405.00 2.231
405.10 2.228
405.20 2.226
405.30 2.223
405.40 2.22
405.50 2.218
405.60 2.215
405.70 2.212
405.80 2.209
405.90 2.207
406.00 2.204
406.10 2.201
406.20 2.198
406.30 2.195
406.40 2.192
406.50 2.189
406.60 2.186
406.70 2.183
406.80 2.179
406.90 2.176
407.00 2.173
407.10 2.169
407.20 2.166
407.30 2.163
407.40 2.159
407.50 2.156
407.60 2.152
407.70 2.148
407.80 2.145
407.90 2.141
408.00 2.137
408.10 2.133
408.20 2.129
408.30 2.125
408.40 2.121
408.50 2.117
408.60 2.113
408.70 2.109
408.80 2.104
408.90 2.1
409.00 2.096
409.10 2.091
409.20 2.087
409.30 2.083
409.40 2.078
409.50 2.074
409.60 2.07
409.70 2.067
409.80 2.064
409.90 2.061
410.00 2.06
410.10 2.06
410.20 2.059
410.30 2.055
410.40 2.052
410.50 2.05
410.60 2.049
410.70 2.049
410.80 2.049
410.90 2.049
411.00 2.05
411.10 2.05
411.20 2.051
411.30 2.051
411.40 2.052
411.50 2.052
411.60 2.053
411.70 2.053
411.80 2.053
411.90 2.054
412.00 2.054
412.10 2.054
412.20 2.054
412.30 2.054
412.40 2.054
412.50 2.054
412.60 2.054
412.70 2.054
412.80 2.053
412.90 2.053
413.00 2.053
413.10 2.052
413.20 2.052
413.30 2.051
413.40 2.051
413.50 2.05
413.60 2.049
413.70 2.049
413.80 2.048
413.90 2.047
414.00 2.046
414.10 2.045
414.20 2.044
414.30 2.043
414.40 2.042
414.50 2.041
414.60 2.04
414.70 2.039
414.80 2.038
414.90 2.037
415.00 2.035
415.10 2.034
415.20 2.033
415.30 2.032
415.40 2.03
415.50 2.029
415.60 2.028
415.70 2.026
415.80 2.025
415.90 2.024
416.00 2.022
416.10 2.021
416.20 2.019
416.30 2.018
416.40 2.016
416.50 2.015
416.60 2.013
416.70 2.012
416.80 2.01
416.90 2.009
417.00 2.007
417.10 2.006
417.20 2.004
417.30 2.002
417.40 2.001
417.50 1.999
417.60 1.998
417.70 1.996
417.80 1.994
417.90 1.993
418.00 1.991
418.10 1.99
418.20 1.988
418.30 1.986
418.40 1.985
418.50 1.983
418.60 1.981
418.70 1.98
418.80 1.978
418.90 1.976
419.00 1.975
419.10 1.973
419.20 1.971
419.30 1.969
419.40 1.968
419.50 1.966
419.60 1.964
419.70 1.963
419.80 1.961
419.90 1.959
420.00 1.957
420.10 1.956
420.20 1.954
420.30 1.952
420.40 1.951
420.50 1.949
420.60 1.947
420.70 1.945
420.80 1.944
420.90 1.942
421.00 1.94
421.10 1.938
421.20 1.937
421.30 1.935
421.40 1.933
421.50 1.931
421.60 1.93
421.70 1.928
421.80 1.926
421.90 1.924
422.00 1.923
422.10 1.921
422.20 1.919
422.30 1.917
422.40 1.916
422.50 1.914
422.60 1.912
422.70 1.91
422.80 1.909
422.90 1.907
423.00 1.905
423.10 1.903
423.20 1.902
423.30 1.9
423.40 1.898
423.50 1.896
423.60 1.894
423.70 1.893
423.80 1.891
423.90 1.889
424.00 1.887
424.10 1.885
424.20 1.884
424.30 1.882
424.40 1.88
424.50 1.878
424.60 1.877
424.70 1.875
424.80 1.873
424.90 1.871
425.00 1.869
425.10 1.867
425.20 1.866
425.30 1.864
425.40 1.862
425.50 1.86
425.60 1.858
425.70 1.856
425.80 1.855
425.90 1.853
426.00 1.851
426.10 1.849
426.20 1.847
426.30 1.845
426.40 1.843
426.50 1.842
426.60 1.84
426.70 1.838
426.80 1.836
426.90 1.834
427.00 1.832
427.10 1.83
427.20 1.828
427.30 1.826
427.40 1.824
427.50 1.822
427.60 1.82
427.70 1.818
427.80 1.816
427.90 1.814
428.00 1.812
428.10 1.81
428.20 1.808
428.30 1.806
428.40 1.803
428.50 1.801
428.60 1.799
428.70 1.797
428.80 1.795
428.90 1.792
429.00 1.79
429.10 1.788
429.20 1.785
429.30 1.783
429.40 1.781
429.50 1.778
429.60 1.776
429.70 1.773
429.80 1.771
429.90 1.768
430.00 1.765
430.10 1.763
430.20 1.76
430.30 1.757
430.40 1.754
430.50 1.751
430.60 1.748
430.70 1.745
430.80 1.742
430.90 1.739
431.00 1.736
431.10 1.732
431.20 1.729
431.30 1.726
431.40 1.722
431.50 1.718
431.60 1.715
431.70 1.711
431.80 1.707
431.90 1.703
432.00 1.699
432.10 1.695
432.20 1.69
432.30 1.686
432.40 1.682
432.50 1.677
432.60 1.673
432.70 1.668
432.80 1.663
432.90 1.659
433.00 1.654
433.10 1.649
433.20 1.644
433.30 1.64
433.40 1.635
433.50 1.631
433.60 1.626
433.70 1.622
433.80 1.617
433.90 1.612
434.00 1.608
434.10 1.607
434.20 1.608
434.30 1.61
434.40 1.612
434.50 1.614
434.60 1.615
434.70 1.617
434.80 1.619
434.90 1.621
435.00 1.623
435.10 1.625
435.20 1.626
435.30 1.628
435.40 1.63
435.50 1.632
435.60 1.633
435.70 1.635
435.80 1.636
435.90 1.638
436.00 1.639
436.10 1.64
436.20 1.641
436.30 1.642
436.40 1.643
436.50 1.644
436.60 1.644
436.70 1.645
436.80 1.645
436.90 1.646
437.00 1.646
437.10 1.646
437.20 1.647
437.30 1.647
437.40 1.647
437.50 1.647
437.60 1.646
437.70 1.646
437.80 1.646
437.90 1.646
438.00 1.645
438.10 1.645
438.20 1.645
438.30 1.644
438.40 1.643
438.50 1.643
438.60 1.642
438.70 1.642
438.80 1.641
438.90 1.64
439.00 1.639
439.10 1.639
439.20 1.638
439.30 1.637
439.40 1.636
439.50 1.635
439.60 1.634
439.70 1.633
439.80 1.632
439.90 1.631
440.00 1.63
440.10 1.629
440.20 1.628
440.30 1.627
440.40 1.626
440.50 1.625
440.60 1.624
440.70 1.623
440.80 1.622
440.90 1.621
441.00 1.619
441.10 1.618
441.20 1.617
441.30 1.616
441.40 1.615
441.50 1.614
441.60 1.612
441.70 1.611
441.80 1.61
441.90 1.609
442.00 1.607
442.10 1.606
442.20 1.605
442.30 1.604
442.40 1.602
442.50 1.601
442.60 1.6
442.70 1.599
442.80 1.597
442.90 1.596
443.00 1.595
443.10 1.594
443.20 1.592
443.30 1.591
443.40 1.59
443.50 1.589
443.60 1.587
443.70 1.586
443.80 1.585
443.90 1.583
444.00 1.582
444.10 1.581
444.20 1.58
444.30 1.578
444.40 1.577
444.50 1.576
444.60 1.574
444.70 1.573
444.80 1.572
444.90 1.57
445.00 1.569
445.10 1.568
445.20 1.566
445.30 1.565
445.40 1.564
445.50 1.563
445.60 1.561
445.70 1.56
445.80 1.559
445.90 1.557
446.00 1.556
446.10 1.555
446.20 1.553
446.30 1.552
446.40 1.551
446.50 1.55
446.60 1.548
446.70 1.547
446.80 1.546
446.90 1.544
447.00 1.543
447.10 1.542
447.20 1.54
447.30 1.539
447.40 1.538
447.50 1.537
447.60 1.535
447.70 1.534
447.80 1.533
447.90 1.531
448.00 1.53
448.10 1.529
448.20 1.527
448.30 1.526
448.40 1.525
448.50 1.524
448.60 1.522
448.70 1.521
448.80 1.52
448.90 1.518
449.00 1.517
449.10 1.516
449.20 1.515
449.30 1.513
449.40 1.512
449.50 1.511
449.60 1.509
449.70 1.508
449.80 1.507
449.90 1.506
450.00 1.504
450.10 1.503
450.20 1.502
450.30 1.5
450.40 1.499
450.50 1.498
450.60 1.497
450.70 1.495
450.80 1.494
450.90 1.493
451.00 1.492
451.10 1.49
451.20 1.489
451.30 1.488
451.40 1.486
451.50 1.485
451.60 1.484
451.70 1.483
451.80 1.481
451.90 1.48
452.00 1.479
452.10 1.478
452.20 1.476
452.30 1.475
452.40 1.474
452.50 1.473
452.60 1.471
452.70 1.47
452.80 1.469
452.90 1.468
453.00 1.466
453.10 1.465
453.20 1.464
453.30 1.463
453.40 1.461
453.50 1.46
453.60 1.459
453.70 1.458
453.80 1.456
453.90 1.455
454.00 1.454
