# Version 2.1 - nm, norm@500 to 1, cut digits, bergeron_70000_70.dat_70000
# Wavelength(nm)  Flambda(ergs/cm^s/s/nm)
300.00 6.542
300.10 6.533
300.20 6.525
300.30 6.517
300.40 6.509
300.50 6.501
300.60 6.493
300.70 6.485
300.80 6.477
300.90 6.47
301.00 6.462
301.10 6.454
301.20 6.446
301.30 6.438
301.40 6.43
301.50 6.422
301.60 6.414
301.70 6.406
301.80 6.398
301.90 6.391
302.00 6.383
302.10 6.375
302.20 6.367
302.30 6.359
302.40 6.352
302.50 6.344
302.60 6.336
302.70 6.328
302.80 6.321
302.90 6.313
303.00 6.305
303.10 6.298
303.20 6.29
303.30 6.282
303.40 6.275
303.50 6.267
303.60 6.259
303.70 6.252
303.80 6.244
303.90 6.236
304.00 6.229
304.10 6.221
304.20 6.214
304.30 6.206
304.40 6.199
304.50 6.191
304.60 6.184
304.70 6.176
304.80 6.169
304.90 6.161
305.00 6.154
305.10 6.146
305.20 6.139
305.30 6.131
305.40 6.124
305.50 6.116
305.60 6.109
305.70 6.102
305.80 6.094
305.90 6.087
306.00 6.08
306.10 6.072
306.20 6.065
306.30 6.058
306.40 6.05
306.50 6.043
306.60 6.036
306.70 6.028
306.80 6.021
306.90 6.014
307.00 6.007
307.10 5.999
307.20 5.992
307.30 5.985
307.40 5.978
307.50 5.97
307.60 5.963
307.70 5.956
307.80 5.949
307.90 5.942
308.00 5.935
308.10 5.928
308.20 5.92
308.30 5.913
308.40 5.906
308.50 5.899
308.60 5.892
308.70 5.885
308.80 5.878
308.90 5.871
309.00 5.864
309.10 5.857
309.20 5.85
309.30 5.843
309.40 5.836
309.50 5.829
309.60 5.822
309.70 5.815
309.80 5.808
309.90 5.801
310.00 5.794
310.10 5.787
310.20 5.78
310.30 5.773
310.40 5.767
310.50 5.76
310.60 5.753
310.70 5.746
310.80 5.739
310.90 5.732
311.00 5.725
311.10 5.719
311.20 5.712
311.30 5.705
311.40 5.698
311.50 5.691
311.60 5.685
311.70 5.678
311.80 5.671
311.90 5.664
312.00 5.658
312.10 5.651
312.20 5.644
312.30 5.638
312.40 5.631
312.50 5.624
312.60 5.618
312.70 5.611
312.80 5.604
312.90 5.598
313.00 5.591
313.10 5.584
313.20 5.578
313.30 5.571
313.40 5.565
313.50 5.558
313.60 5.552
313.70 5.545
313.80 5.538
313.90 5.532
314.00 5.525
314.10 5.519
314.20 5.512
314.30 5.506
314.40 5.499
314.50 5.493
314.60 5.486
314.70 5.48
314.80 5.473
314.90 5.467
315.00 5.461
315.10 5.454
315.20 5.448
315.30 5.441
315.40 5.435
315.50 5.429
315.60 5.422
315.70 5.416
315.80 5.409
315.90 5.403
316.00 5.397
316.10 5.39
316.20 5.384
316.30 5.378
316.40 5.371
316.50 5.365
316.60 5.359
316.70 5.353
316.80 5.346
316.90 5.34
317.00 5.334
317.10 5.328
317.20 5.321
317.30 5.315
317.40 5.309
317.50 5.303
317.60 5.297
317.70 5.29
317.80 5.284
317.90 5.278
318.00 5.272
318.10 5.266
318.20 5.26
318.30 5.254
318.40 5.247
318.50 5.241
318.60 5.235
318.70 5.229
318.80 5.223
318.90 5.217
319.00 5.211
319.10 5.205
319.20 5.199
319.30 5.193
319.40 5.187
319.50 5.181
319.60 5.175
319.70 5.169
319.80 5.163
319.90 5.157
320.00 5.151
320.10 5.145
320.20 5.139
320.30 5.133
320.40 5.127
320.50 5.121
320.60 5.115
320.70 5.109
320.80 5.103
320.90 5.097
321.00 5.091
321.10 5.086
321.20 5.08
321.30 5.074
321.40 5.068
321.50 5.062
321.60 5.056
321.70 5.05
321.80 5.045
321.90 5.039
322.00 5.033
322.10 5.027
322.20 5.021
322.30 5.016
322.40 5.01
322.50 5.004
322.60 4.998
322.70 4.993
322.80 4.987
322.90 4.981
323.00 4.975
323.10 4.97
323.20 4.964
323.30 4.958
323.40 4.953
323.50 4.947
323.60 4.941
323.70 4.936
323.80 4.93
323.90 4.924
324.00 4.919
324.10 4.913
324.20 4.907
324.30 4.902
324.40 4.896
324.50 4.891
324.60 4.885
324.70 4.879
324.80 4.874
324.90 4.868
325.00 4.863
325.10 4.857
325.20 4.852
325.30 4.846
325.40 4.84
325.50 4.835
325.60 4.829
325.70 4.824
325.80 4.818
325.90 4.813
326.00 4.807
326.10 4.802
326.20 4.797
326.30 4.791
326.40 4.786
326.50 4.78
326.60 4.775
326.70 4.769
326.80 4.764
326.90 4.758
327.00 4.753
327.10 4.748
327.20 4.742
327.30 4.737
327.40 4.732
327.50 4.726
327.60 4.721
327.70 4.715
327.80 4.71
327.90 4.705
328.00 4.699
328.10 4.694
328.20 4.689
328.30 4.684
328.40 4.678
328.50 4.673
328.60 4.668
328.70 4.662
328.80 4.657
328.90 4.652
329.00 4.647
329.10 4.641
329.20 4.636
329.30 4.631
329.40 4.626
329.50 4.62
329.60 4.615
329.70 4.61
329.80 4.605
329.90 4.6
330.00 4.594
330.10 4.589
330.20 4.584
330.30 4.579
330.40 4.574
330.50 4.569
330.60 4.564
330.70 4.559
330.80 4.553
330.90 4.548
331.00 4.543
331.10 4.538
331.20 4.533
331.30 4.528
331.40 4.523
331.50 4.518
331.60 4.513
331.70 4.508
331.80 4.503
331.90 4.497
332.00 4.492
332.10 4.487
332.20 4.482
332.30 4.477
332.40 4.472
332.50 4.467
332.60 4.462
332.70 4.457
332.80 4.452
332.90 4.447
333.00 4.443
333.10 4.438
333.20 4.433
333.30 4.428
333.40 4.423
333.50 4.418
333.60 4.413
333.70 4.408
333.80 4.403
333.90 4.398
334.00 4.393
334.10 4.388
334.20 4.383
334.30 4.379
334.40 4.374
334.50 4.369
334.60 4.364
334.70 4.359
334.80 4.354
334.90 4.349
335.00 4.345
335.10 4.34
335.20 4.335
335.30 4.33
335.40 4.325
335.50 4.321
335.60 4.316
335.70 4.311
335.80 4.306
335.90 4.301
336.00 4.297
336.10 4.292
336.20 4.287
336.30 4.282
336.40 4.278
336.50 4.273
336.60 4.268
336.70 4.264
336.80 4.259
336.90 4.254
337.00 4.249
337.10 4.245
337.20 4.24
337.30 4.235
337.40 4.231
337.50 4.226
337.60 4.221
337.70 4.217
337.80 4.212
337.90 4.207
338.00 4.203
338.10 4.198
338.20 4.194
338.30 4.189
338.40 4.184
338.50 4.18
338.60 4.175
338.70 4.171
338.80 4.166
338.90 4.161
339.00 4.157
339.10 4.152
339.20 4.148
339.30 4.143
339.40 4.139
339.50 4.134
339.60 4.13
339.70 4.125
339.80 4.121
339.90 4.116
340.00 4.111
340.10 4.107
340.20 4.103
340.30 4.098
340.40 4.094
340.50 4.089
340.60 4.085
340.70 4.08
340.80 4.076
340.90 4.071
341.00 4.067
341.10 4.062
341.20 4.058
341.30 4.054
341.40 4.049
341.50 4.045
341.60 4.04
341.70 4.036
341.80 4.031
341.90 4.027
342.00 4.023
342.10 4.018
342.20 4.014
342.30 4.01
342.40 4.005
342.50 4.001
342.60 3.997
342.70 3.992
342.80 3.988
342.90 3.984
343.00 3.979
343.10 3.975
343.20 3.971
343.30 3.966
343.40 3.962
343.50 3.958
343.60 3.953
343.70 3.949
343.80 3.945
343.90 3.94
344.00 3.936
344.10 3.932
344.20 3.928
344.30 3.923
344.40 3.919
344.50 3.915
344.60 3.911
344.70 3.907
344.80 3.902
344.90 3.898
345.00 3.894
345.10 3.89
345.20 3.886
345.30 3.881
345.40 3.877
345.50 3.873
345.60 3.869
345.70 3.865
345.80 3.86
345.90 3.856
346.00 3.852
346.10 3.848
346.20 3.844
346.30 3.84
346.40 3.836
346.50 3.831
346.60 3.827
346.70 3.823
346.80 3.819
346.90 3.815
347.00 3.811
347.10 3.807
347.20 3.803
347.30 3.799
347.40 3.795
347.50 3.791
347.60 3.786
347.70 3.782
347.80 3.778
347.90 3.774
348.00 3.77
348.10 3.766
348.20 3.762
348.30 3.758
348.40 3.754
348.50 3.75
348.60 3.746
348.70 3.742
348.80 3.738
348.90 3.734
349.00 3.73
349.10 3.726
349.20 3.722
349.30 3.718
349.40 3.714
349.50 3.71
349.60 3.706
349.70 3.702
349.80 3.698
349.90 3.694
350.00 3.69
350.10 3.687
350.20 3.683
350.30 3.679
350.40 3.675
350.50 3.671
350.60 3.667
350.70 3.663
350.80 3.659
350.90 3.655
351.00 3.651
351.10 3.648
351.20 3.644
351.30 3.64
351.40 3.636
351.50 3.632
351.60 3.628
351.70 3.624
351.80 3.621
351.90 3.617
352.00 3.613
352.10 3.609
352.20 3.605
352.30 3.601
352.40 3.598
352.50 3.594
352.60 3.59
352.70 3.586
352.80 3.582
352.90 3.579
353.00 3.575
353.10 3.571
353.20 3.567
353.30 3.564
353.40 3.56
353.50 3.556
353.60 3.552
353.70 3.549
353.80 3.545
353.90 3.541
354.00 3.537
354.10 3.534
354.20 3.53
354.30 3.526
354.40 3.522
354.50 3.519
354.60 3.515
354.70 3.511
354.80 3.508
354.90 3.504
355.00 3.5
355.10 3.497
355.20 3.493
355.30 3.489
355.40 3.486
355.50 3.482
355.60 3.478
355.70 3.475
355.80 3.471
355.90 3.467
356.00 3.464
356.10 3.46
356.20 3.456
356.30 3.453
356.40 3.449
356.50 3.446
356.60 3.442
356.70 3.438
356.80 3.435
356.90 3.431
357.00 3.428
357.10 3.424
357.20 3.421
357.30 3.417
357.40 3.413
357.50 3.41
357.60 3.406
357.70 3.403
357.80 3.399
357.90 3.396
358.00 3.392
358.10 3.388
358.20 3.385
358.30 3.381
358.40 3.378
358.50 3.374
358.60 3.371
358.70 3.367
358.80 3.364
358.90 3.36
359.00 3.357
359.10 3.353
359.20 3.35
359.30 3.346
359.40 3.343
359.50 3.339
359.60 3.336
359.70 3.333
359.80 3.329
359.90 3.326
360.00 3.322
360.10 3.319
360.20 3.315
360.30 3.312
360.40 3.308
360.50 3.305
360.60 3.302
360.70 3.298
360.80 3.295
360.90 3.291
361.00 3.288
361.10 3.285
361.20 3.281
361.30 3.278
361.40 3.274
361.50 3.271
361.60 3.268
361.70 3.264
361.80 3.261
361.90 3.257
362.00 3.254
362.10 3.251
362.20 3.247
362.30 3.244
362.40 3.241
362.50 3.237
362.60 3.234
362.70 3.231
362.80 3.227
362.90 3.224
363.00 3.221
363.10 3.217
363.20 3.214
363.30 3.211
363.40 3.208
363.50 3.204
363.60 3.201
363.70 3.198
363.80 3.194
363.90 3.191
364.00 3.188
364.10 3.185
364.20 3.181
364.30 3.178
364.40 3.175
364.50 3.171
364.60 3.168
364.70 3.165
364.80 3.162
364.90 3.159
365.00 3.155
365.10 3.152
365.20 3.149
365.30 3.146
365.40 3.142
365.50 3.139
365.60 3.136
365.70 3.133
365.80 3.13
365.90 3.126
366.00 3.123
366.10 3.12
366.20 3.117
366.30 3.113
366.40 3.11
366.50 3.107
366.60 3.104
366.70 3.1
366.80 3.097
366.90 3.094
367.00 3.091
367.10 3.087
367.20 3.084
367.30 3.081
367.40 3.078
367.50 3.074
367.60 3.071
367.70 3.068
367.80 3.065
367.90 3.062
368.00 3.058
368.10 3.055
368.20 3.052
368.30 3.049
368.40 3.046
368.50 3.043
368.60 3.039
368.70 3.036
368.80 3.033
368.90 3.03
369.00 3.027
369.10 3.024
369.20 3.02
369.30 3.017
369.40 3.014
369.50 3.011
369.60 3.008
369.70 3.005
369.80 3.002
369.90 2.999
370.00 2.995
370.10 2.992
370.20 2.989
370.30 2.986
370.40 2.983
370.50 2.98
370.60 2.977
370.70 2.974
370.80 2.971
370.90 2.968
371.00 2.965
371.10 2.962
371.20 2.959
371.30 2.955
371.40 2.952
371.50 2.949
371.60 2.946
371.70 2.943
371.80 2.94
371.90 2.937
372.00 2.934
372.10 2.931
372.20 2.928
372.30 2.925
372.40 2.922
372.50 2.919
372.60 2.916
372.70 2.914
372.80 2.911
372.90 2.908
373.00 2.905
373.10 2.902
373.20 2.899
373.30 2.896
373.40 2.893
373.50 2.89
373.60 2.887
373.70 2.884
373.80 2.881
373.90 2.879
374.00 2.876
374.10 2.873
374.20 2.87
374.30 2.867
374.40 2.864
374.50 2.862
374.60 2.859
374.70 2.856
374.80 2.853
374.90 2.851
375.00 2.848
375.10 2.845
375.20 2.842
375.30 2.84
375.40 2.837
375.50 2.834
375.60 2.831
375.70 2.828
375.80 2.826
375.90 2.823
376.00 2.82
376.10 2.817
376.20 2.815
376.30 2.812
376.40 2.809
376.50 2.806
376.60 2.804
376.70 2.801
376.80 2.798
376.90 2.795
377.00 2.792
377.10 2.79
377.20 2.788
377.30 2.785
377.40 2.783
377.50 2.78
377.60 2.778
377.70 2.776
377.80 2.773
377.90 2.771
378.00 2.768
378.10 2.766
378.20 2.763
378.30 2.76
378.40 2.757
378.50 2.755
378.60 2.752
378.70 2.749
378.80 2.746
378.90 2.744
379.00 2.741
379.10 2.738
379.20 2.735
379.30 2.733
379.40 2.73
379.50 2.727
379.60 2.724
379.70 2.722
379.80 2.719
379.90 2.716
380.00 2.713
380.10 2.712
380.20 2.71
380.30 2.708
380.40 2.706
380.50 2.704
380.60 2.703
380.70 2.701
380.80 2.699
380.90 2.697
381.00 2.695
381.10 2.693
381.20 2.691
381.30 2.688
381.40 2.686
381.50 2.683
381.60 2.68
381.70 2.678
381.80 2.675
381.90 2.671
382.00 2.668
382.10 2.665
382.20 2.661
382.30 2.657
382.40 2.653
382.50 2.649
382.60 2.645
382.70 2.641
382.80 2.637
382.90 2.632
383.00 2.628
383.10 2.624
383.20 2.62
383.30 2.616
383.40 2.612
383.50 2.609
383.60 2.607
383.70 2.606
383.80 2.606
383.90 2.606
384.00 2.606
384.10 2.606
384.20 2.606
384.30 2.606
384.40 2.606
384.50 2.606
384.60 2.605
384.70 2.605
384.80 2.604
384.90 2.604
385.00 2.603
385.10 2.602
385.20 2.6
385.30 2.599
385.40 2.597
385.50 2.596
385.60 2.594
385.70 2.592
385.80 2.59
385.90 2.587
386.00 2.585
386.10 2.582
386.20 2.579
386.30 2.576
386.40 2.573
386.50 2.569
386.60 2.566
386.70 2.562
386.80 2.558
386.90 2.554
387.00 2.549
387.10 2.544
387.20 2.539
387.30 2.534
387.40 2.529
387.50 2.523
387.60 2.517
387.70 2.511
387.80 2.505
387.90 2.498
388.00 2.492
388.10 2.485
388.20 2.477
388.30 2.47
388.40 2.463
388.50 2.456
388.60 2.449
388.70 2.443
388.80 2.438
388.90 2.435
389.00 2.434
389.10 2.434
389.20 2.436
389.30 2.439
389.40 2.442
389.50 2.445
389.60 2.448
389.70 2.451
389.80 2.454
389.90 2.456
390.00 2.459
390.10 2.461
390.20 2.463
390.30 2.465
390.40 2.467
390.50 2.468
390.60 2.469
390.70 2.47
390.80 2.471
390.90 2.472
391.00 2.472
391.10 2.472
391.20 2.472
391.30 2.472
391.40 2.472
391.50 2.471
391.60 2.471
391.70 2.47
391.80 2.469
391.90 2.468
392.00 2.467
392.10 2.466
392.20 2.464
392.30 2.462
392.40 2.461
392.50 2.459
392.60 2.457
392.70 2.455
392.80 2.452
392.90 2.45
393.00 2.448
393.10 2.445
393.20 2.442
393.30 2.439
393.40 2.436
393.50 2.433
393.60 2.429
393.70 2.426
393.80 2.422
393.90 2.418
394.00 2.414
394.10 2.41
394.20 2.406
394.30 2.401
394.40 2.396
394.50 2.391
394.60 2.386
394.70 2.38
394.80 2.374
394.90 2.368
395.00 2.362
395.10 2.355
395.20 2.348
395.30 2.341
395.40 2.333
395.50 2.325
395.60 2.317
395.70 2.308
395.80 2.299
395.90 2.289
396.00 2.279
396.10 2.269
396.20 2.259
396.30 2.248
396.40 2.237
396.50 2.225
396.60 2.213
396.70 2.201
396.80 2.189
396.90 2.178
397.00 2.167
397.10 2.173
397.20 2.18
397.30 2.188
397.40 2.196
397.50 2.204
397.60 2.212
397.70 2.219
397.80 2.225
397.90 2.232
398.00 2.238
398.10 2.244
398.20 2.249
398.30 2.254
398.40 2.259
398.50 2.263
398.60 2.267
398.70 2.271
398.80 2.274
398.90 2.277
399.00 2.279
399.10 2.282
399.20 2.284
399.30 2.285
399.40 2.287
399.50 2.288
399.60 2.289
399.70 2.29
399.80 2.291
399.90 2.291
400.00 2.291
400.10 2.292
400.20 2.291
400.30 2.291
400.40 2.291
400.50 2.291
400.60 2.29
400.70 2.29
400.80 2.289
400.90 2.288
401.00 2.287
401.10 2.286
401.20 2.285
401.30 2.284
401.40 2.283
401.50 2.281
401.60 2.28
401.70 2.279
401.80 2.277
401.90 2.276
402.00 2.274
402.10 2.273
402.20 2.271
402.30 2.269
402.40 2.268
402.50 2.266
402.60 2.264
402.70 2.262
402.80 2.26
402.90 2.258
403.00 2.257
403.10 2.255
403.20 2.253
403.30 2.251
403.40 2.249
403.50 2.246
403.60 2.244
403.70 2.242
403.80 2.24
403.90 2.238
404.00 2.236
404.10 2.233
404.20 2.231
404.30 2.229
404.40 2.226
404.50 2.224
404.60 2.222
404.70 2.219
404.80 2.217
404.90 2.214
405.00 2.212
405.10 2.209
405.20 2.206
405.30 2.204
405.40 2.201
405.50 2.198
405.60 2.195
405.70 2.192
405.80 2.189
405.90 2.186
406.00 2.183
406.10 2.18
406.20 2.176
406.30 2.173
406.40 2.17
406.50 2.166
406.60 2.162
406.70 2.158
406.80 2.154
406.90 2.15
407.00 2.146
407.10 2.141
407.20 2.137
407.30 2.132
407.40 2.127
407.50 2.122
407.60 2.116
407.70 2.11
407.80 2.105
407.90 2.098
408.00 2.091
408.10 2.085
408.20 2.077
408.30 2.069
408.40 2.061
408.50 2.053
408.60 2.044
408.70 2.035
408.80 2.025
408.90 2.014
409.00 2.003
409.10 1.992
409.20 1.98
409.30 1.967
409.40 1.954
409.50 1.94
409.60 1.926
409.70 1.911
409.80 1.895
409.90 1.879
410.00 1.864
410.10 1.856
410.20 1.855
410.30 1.857
410.40 1.864
410.50 1.877
410.60 1.889
410.70 1.901
410.80 1.912
410.90 1.923
411.00 1.933
411.10 1.942
411.20 1.951
411.30 1.959
411.40 1.966
411.50 1.973
411.60 1.979
411.70 1.985
411.80 1.991
411.90 1.996
412.00 2
412.10 2.004
412.20 2.008
412.30 2.011
412.40 2.014
412.50 2.016
412.60 2.019
412.70 2.02
412.80 2.022
412.90 2.024
413.00 2.025
413.10 2.026
413.20 2.027
413.30 2.027
413.40 2.028
413.50 2.028
413.60 2.028
413.70 2.028
413.80 2.028
413.90 2.028
414.00 2.027
414.10 2.027
414.20 2.026
414.30 2.026
414.40 2.025
414.50 2.024
414.60 2.023
414.70 2.022
414.80 2.022
414.90 2.02
415.00 2.019
415.10 2.018
415.20 2.017
415.30 2.016
415.40 2.015
415.50 2.014
415.60 2.012
415.70 2.011
415.80 2.01
415.90 2.008
416.00 2.007
416.10 2.005
416.20 2.004
416.30 2.002
416.40 2.001
416.50 2
416.60 1.998
416.70 1.996
416.80 1.995
416.90 1.993
417.00 1.992
417.10 1.99
417.20 1.989
417.30 1.987
417.40 1.985
417.50 1.984
417.60 1.982
417.70 1.981
417.80 1.979
417.90 1.977
418.00 1.976
418.10 1.974
418.20 1.972
418.30 1.971
418.40 1.969
418.50 1.967
418.60 1.966
418.70 1.964
418.80 1.962
418.90 1.961
419.00 1.959
419.10 1.957
419.20 1.956
419.30 1.954
419.40 1.952
419.50 1.951
419.60 1.949
419.70 1.947
419.80 1.945
419.90 1.944
420.00 1.942
420.10 1.94
420.20 1.939
420.30 1.937
420.40 1.935
420.50 1.934
420.60 1.932
420.70 1.93
420.80 1.928
420.90 1.927
421.00 1.925
421.10 1.923
421.20 1.922
421.30 1.92
421.40 1.918
421.50 1.916
421.60 1.915
421.70 1.913
421.80 1.911
421.90 1.91
422.00 1.908
422.10 1.906
422.20 1.904
422.30 1.903
422.40 1.901
422.50 1.899
422.60 1.897
422.70 1.896
422.80 1.894
422.90 1.892
423.00 1.891
423.10 1.889
423.20 1.887
423.30 1.885
423.40 1.884
423.50 1.882
423.60 1.88
423.70 1.879
423.80 1.877
423.90 1.875
424.00 1.873
424.10 1.872
424.20 1.87
424.30 1.868
424.40 1.866
424.50 1.865
424.60 1.863
424.70 1.861
424.80 1.86
424.90 1.858
425.00 1.856
425.10 1.854
425.20 1.853
425.30 1.851
425.40 1.849
425.50 1.847
425.60 1.846
425.70 1.844
425.80 1.842
425.90 1.84
426.00 1.839
426.10 1.837
426.20 1.835
426.30 1.833
426.40 1.831
426.50 1.83
426.60 1.828
426.70 1.826
426.80 1.824
426.90 1.822
427.00 1.821
427.10 1.819
427.20 1.817
427.30 1.815
427.40 1.813
427.50 1.811
427.60 1.81
427.70 1.808
427.80 1.806
427.90 1.804
428.00 1.802
428.10 1.8
428.20 1.798
428.30 1.796
428.40 1.794
428.50 1.792
428.60 1.79
428.70 1.788
428.80 1.786
428.90 1.784
429.00 1.781
429.10 1.779
429.20 1.777
429.30 1.775
429.40 1.773
429.50 1.77
429.60 1.768
429.70 1.765
429.80 1.763
429.90 1.76
430.00 1.758
430.10 1.755
430.20 1.752
430.30 1.75
430.40 1.747
430.50 1.744
430.60 1.74
430.70 1.737
430.80 1.734
430.90 1.73
431.00 1.727
431.10 1.723
431.20 1.719
431.30 1.715
431.40 1.71
431.50 1.706
431.60 1.701
431.70 1.696
431.80 1.691
431.90 1.685
432.00 1.679
432.10 1.673
432.20 1.666
432.30 1.659
432.40 1.651
432.50 1.643
432.60 1.635
432.70 1.626
432.80 1.616
432.90 1.606
433.00 1.595
433.10 1.584
433.20 1.572
433.30 1.56
433.40 1.547
433.50 1.533
433.60 1.519
433.70 1.503
433.80 1.487
433.90 1.469
434.00 1.454
434.10 1.453
434.20 1.467
434.30 1.482
434.40 1.496
434.50 1.508
434.60 1.52
434.70 1.531
434.80 1.541
434.90 1.551
435.00 1.56
435.10 1.568
435.20 1.576
435.30 1.583
435.40 1.59
435.50 1.596
435.60 1.601
435.70 1.606
435.80 1.611
435.90 1.615
436.00 1.619
436.10 1.622
436.20 1.625
436.30 1.627
436.40 1.63
436.50 1.632
436.60 1.633
436.70 1.635
436.80 1.636
436.90 1.637
437.00 1.638
437.10 1.639
437.20 1.639
437.30 1.64
437.40 1.64
437.50 1.64
437.60 1.64
437.70 1.64
437.80 1.64
437.90 1.64
438.00 1.64
438.10 1.639
438.20 1.639
438.30 1.638
438.40 1.638
438.50 1.637
438.60 1.636
438.70 1.635
438.80 1.635
438.90 1.634
439.00 1.633
439.10 1.632
439.20 1.631
439.30 1.63
439.40 1.629
439.50 1.628
439.60 1.627
439.70 1.626
439.80 1.625
439.90 1.624
440.00 1.623
440.10 1.622
440.20 1.621
440.30 1.62
440.40 1.619
440.50 1.617
440.60 1.616
440.70 1.615
440.80 1.614
440.90 1.613
441.00 1.611
441.10 1.61
441.20 1.609
441.30 1.608
441.40 1.607
441.50 1.605
441.60 1.604
441.70 1.603
441.80 1.602
441.90 1.6
442.00 1.599
442.10 1.598
442.20 1.597
442.30 1.595
442.40 1.594
442.50 1.593
442.60 1.591
442.70 1.59
442.80 1.589
442.90 1.588
443.00 1.586
443.10 1.585
443.20 1.584
443.30 1.582
443.40 1.581
443.50 1.58
443.60 1.579
443.70 1.577
443.80 1.576
443.90 1.575
444.00 1.573
444.10 1.572
444.20 1.571
444.30 1.569
444.40 1.568
444.50 1.567
444.60 1.566
444.70 1.564
444.80 1.563
444.90 1.562
445.00 1.56
445.10 1.559
445.20 1.558
445.30 1.556
445.40 1.555
445.50 1.554
445.60 1.553
445.70 1.551
445.80 1.55
445.90 1.549
446.00 1.547
446.10 1.546
446.20 1.545
446.30 1.544
446.40 1.542
446.50 1.541
446.60 1.54
446.70 1.538
446.80 1.537
446.90 1.536
447.00 1.534
447.10 1.533
447.20 1.532
447.30 1.531
447.40 1.529
447.50 1.528
447.60 1.527
447.70 1.525
447.80 1.524
447.90 1.523
448.00 1.522
448.10 1.52
448.20 1.519
448.30 1.518
448.40 1.516
448.50 1.515
448.60 1.514
448.70 1.513
448.80 1.511
448.90 1.51
449.00 1.509
449.10 1.508
449.20 1.506
449.30 1.505
449.40 1.504
449.50 1.502
449.60 1.501
449.70 1.5
449.80 1.499
449.90 1.497
450.00 1.496
450.10 1.495
450.20 1.494
450.30 1.492
450.40 1.491
450.50 1.49
450.60 1.489
450.70 1.487
450.80 1.486
450.90 1.485
451.00 1.484
451.10 1.482
451.20 1.481
451.30 1.48
451.40 1.479
451.50 1.477
451.60 1.476
451.70 1.475
451.80 1.474
451.90 1.472
452.00 1.471
452.10 1.47
452.20 1.469
452.30 1.468
452.40 1.466
452.50 1.465
452.60 1.464
452.70 1.463
452.80 1.461
452.90 1.46
453.00 1.459
453.10 1.458
453.20 1.456
453.30 1.455
453.40 1.454
453.50 1.453
453.60 1.452
453.70 1.45
453.80 1.449
453.90 1.448
454.00 1.447
