# Version 2.1 - nm, norm@500 to 1, cut digits, bergeron_3250_80.dat_3250
# Wavelength(nm)  Flambda(ergs/cm^s/s/nm)
300.00 0.114
300.10 0.1143
300.20 0.1145
300.30 0.1148
300.40 0.1151
300.50 0.1153
300.60 0.1156
300.70 0.1159
300.80 0.1161
300.90 0.1164
301.00 0.1166
301.10 0.1169
301.20 0.1172
301.30 0.1174
301.40 0.1177
301.50 0.118
301.60 0.1182
301.70 0.1185
301.80 0.1187
301.90 0.119
302.00 0.1193
302.10 0.1195
302.20 0.1198
302.30 0.1201
302.40 0.1204
302.50 0.1206
302.60 0.1209
302.70 0.1212
302.80 0.1214
302.90 0.1217
303.00 0.122
303.10 0.1223
303.20 0.1225
303.30 0.1228
303.40 0.1231
303.50 0.1233
303.60 0.1236
303.70 0.1239
303.80 0.1241
303.90 0.1244
304.00 0.1247
304.10 0.125
304.20 0.1252
304.30 0.1255
304.40 0.1258
304.50 0.1261
304.60 0.1264
304.70 0.1266
304.80 0.1269
304.90 0.1272
305.00 0.1275
305.10 0.1277
305.20 0.128
305.30 0.1283
305.40 0.1286
305.50 0.1288
305.60 0.1291
305.70 0.1294
305.80 0.1297
305.90 0.1299
306.00 0.1302
306.10 0.1305
306.20 0.1308
306.30 0.1311
306.40 0.1314
306.50 0.1317
306.60 0.1319
306.70 0.1322
306.80 0.1325
306.90 0.1328
307.00 0.1331
307.10 0.1334
307.20 0.1336
307.30 0.1339
307.40 0.1342
307.50 0.1345
307.60 0.1348
307.70 0.1351
307.80 0.1353
307.90 0.1356
308.00 0.1359
308.10 0.1362
308.20 0.1365
308.30 0.1368
308.40 0.1371
308.50 0.1374
308.60 0.1377
308.70 0.138
308.80 0.1382
308.90 0.1385
309.00 0.1388
309.10 0.1391
309.20 0.1394
309.30 0.1397
309.40 0.14
309.50 0.1403
309.60 0.1406
309.70 0.1409
309.80 0.1411
309.90 0.1414
310.00 0.1417
310.10 0.142
310.20 0.1423
310.30 0.1426
310.40 0.1429
310.50 0.1432
310.60 0.1435
310.70 0.1438
310.80 0.1441
310.90 0.1444
311.00 0.1447
311.10 0.145
311.20 0.1453
311.30 0.1456
311.40 0.1459
311.50 0.1462
311.60 0.1465
311.70 0.1468
311.80 0.1471
311.90 0.1474
312.00 0.1477
312.10 0.148
312.20 0.1483
312.30 0.1486
312.40 0.1489
312.50 0.1492
312.60 0.1495
312.70 0.1498
312.80 0.1501
312.90 0.1504
313.00 0.1507
313.10 0.151
313.20 0.1513
313.30 0.1516
313.40 0.1519
313.50 0.1522
313.60 0.1525
313.70 0.1529
313.80 0.1532
313.90 0.1535
314.00 0.1538
314.10 0.1541
314.20 0.1544
314.30 0.1547
314.40 0.155
314.50 0.1553
314.60 0.1556
314.70 0.156
314.80 0.1563
314.90 0.1566
315.00 0.1569
315.10 0.1572
315.20 0.1575
315.30 0.1578
315.40 0.1581
315.50 0.1584
315.60 0.1587
315.70 0.1591
315.80 0.1594
315.90 0.1597
316.00 0.16
316.10 0.1603
316.20 0.1606
316.30 0.1609
316.40 0.1613
316.50 0.1616
316.60 0.1619
316.70 0.1622
316.80 0.1625
316.90 0.1629
317.00 0.1632
317.10 0.1635
317.20 0.1638
317.30 0.1641
317.40 0.1644
317.50 0.1648
317.60 0.1651
317.70 0.1654
317.80 0.1657
317.90 0.166
318.00 0.1663
318.10 0.1667
318.20 0.167
318.30 0.1673
318.40 0.1676
318.50 0.168
318.60 0.1683
318.70 0.1686
318.80 0.1689
318.90 0.1693
319.00 0.1696
319.10 0.1699
319.20 0.1702
319.30 0.1706
319.40 0.1709
319.50 0.1712
319.60 0.1715
319.70 0.1719
319.80 0.1722
319.90 0.1725
320.00 0.1728
320.10 0.1732
320.20 0.1735
320.30 0.1738
320.40 0.1742
320.50 0.1745
320.60 0.1748
320.70 0.1752
320.80 0.1755
320.90 0.1758
321.00 0.1762
321.10 0.1765
321.20 0.1768
321.30 0.1771
321.40 0.1775
321.50 0.1778
321.60 0.1781
321.70 0.1785
321.80 0.1788
321.90 0.1791
322.00 0.1794
322.10 0.1798
322.20 0.1801
322.30 0.1805
322.40 0.1808
322.50 0.1811
322.60 0.1815
322.70 0.1818
322.80 0.1822
322.90 0.1825
323.00 0.1828
323.10 0.1832
323.20 0.1835
323.30 0.1838
323.40 0.1842
323.50 0.1845
323.60 0.1848
323.70 0.1852
323.80 0.1855
323.90 0.1858
324.00 0.1862
324.10 0.1865
324.20 0.1869
324.30 0.1872
324.40 0.1876
324.50 0.1879
324.60 0.1883
324.70 0.1886
324.80 0.1889
324.90 0.1893
325.00 0.1896
325.10 0.19
325.20 0.1903
325.30 0.1907
325.40 0.191
325.50 0.1913
325.60 0.1917
325.70 0.192
325.80 0.1924
325.90 0.1927
326.00 0.1931
326.10 0.1934
326.20 0.1938
326.30 0.1941
326.40 0.1945
326.50 0.1948
326.60 0.1952
326.70 0.1955
326.80 0.1959
326.90 0.1962
327.00 0.1966
327.10 0.1969
327.20 0.1973
327.30 0.1976
327.40 0.198
327.50 0.1983
327.60 0.1987
327.70 0.199
327.80 0.1993
327.90 0.1997
328.00 0.2001
328.10 0.2004
328.20 0.2008
328.30 0.2011
328.40 0.2015
328.50 0.2018
328.60 0.2022
328.70 0.2026
328.80 0.2029
328.90 0.2033
329.00 0.2036
329.10 0.204
329.20 0.2043
329.30 0.2047
329.40 0.205
329.50 0.2054
329.60 0.2057
329.70 0.2061
329.80 0.2065
329.90 0.2068
330.00 0.2072
330.10 0.2075
330.20 0.2079
330.30 0.2083
330.40 0.2086
330.50 0.209
330.60 0.2093
330.70 0.2097
330.80 0.2101
330.90 0.2104
331.00 0.2108
331.10 0.2112
331.20 0.2115
331.30 0.2119
331.40 0.2122
331.50 0.2126
331.60 0.213
331.70 0.2133
331.80 0.2137
331.90 0.214
332.00 0.2144
332.10 0.2148
332.20 0.2151
332.30 0.2155
332.40 0.2159
332.50 0.2163
332.60 0.2166
332.70 0.217
332.80 0.2174
332.90 0.2177
333.00 0.2181
333.10 0.2185
333.20 0.2188
333.30 0.2192
333.40 0.2196
333.50 0.2199
333.60 0.2203
333.70 0.2207
333.80 0.221
333.90 0.2214
334.00 0.2218
334.10 0.2221
334.20 0.2225
334.30 0.2229
334.40 0.2233
334.50 0.2236
334.60 0.224
334.70 0.2244
334.80 0.2248
334.90 0.2251
335.00 0.2255
335.10 0.2259
335.20 0.2263
335.30 0.2266
335.40 0.227
335.50 0.2274
335.60 0.2278
335.70 0.2281
335.80 0.2285
335.90 0.2289
336.00 0.2292
336.10 0.2296
336.20 0.23
336.30 0.2304
336.40 0.2308
336.50 0.2312
336.60 0.2315
336.70 0.2319
336.80 0.2323
336.90 0.2327
337.00 0.2331
337.10 0.2334
337.20 0.2338
337.30 0.2342
337.40 0.2346
337.50 0.2349
337.60 0.2353
337.70 0.2357
337.80 0.2361
337.90 0.2365
338.00 0.2368
338.10 0.2372
338.20 0.2376
338.30 0.238
338.40 0.2384
338.50 0.2388
338.60 0.2392
338.70 0.2395
338.80 0.2399
338.90 0.2403
339.00 0.2407
339.10 0.2411
339.20 0.2415
339.30 0.2419
339.40 0.2422
339.50 0.2426
339.60 0.243
339.70 0.2434
339.80 0.2438
339.90 0.2442
340.00 0.2445
340.10 0.2449
340.20 0.2453
340.30 0.2457
340.40 0.2461
340.50 0.2465
340.60 0.2469
340.70 0.2473
340.80 0.2477
340.90 0.2481
341.00 0.2485
341.10 0.2489
341.20 0.2492
341.30 0.2496
341.40 0.25
341.50 0.2504
341.60 0.2508
341.70 0.2512
341.80 0.2516
341.90 0.252
342.00 0.2524
342.10 0.2528
342.20 0.2532
342.30 0.2536
342.40 0.254
342.50 0.2544
342.60 0.2548
342.70 0.2551
342.80 0.2555
342.90 0.2559
343.00 0.2563
343.10 0.2567
343.20 0.2571
343.30 0.2575
343.40 0.2579
343.50 0.2583
343.60 0.2587
343.70 0.2591
343.80 0.2595
343.90 0.2599
344.00 0.2603
344.10 0.2607
344.20 0.2611
344.30 0.2615
344.40 0.2619
344.50 0.2623
344.60 0.2627
344.70 0.2631
344.80 0.2635
344.90 0.2639
345.00 0.2643
345.10 0.2647
345.20 0.2651
345.30 0.2655
345.40 0.2659
345.50 0.2663
345.60 0.2667
345.70 0.2671
345.80 0.2675
345.90 0.2679
346.00 0.2683
346.10 0.2687
346.20 0.2691
346.30 0.2696
346.40 0.27
346.50 0.2704
346.60 0.2708
346.70 0.2712
346.80 0.2716
346.90 0.272
347.00 0.2724
347.10 0.2728
347.20 0.2732
347.30 0.2736
347.40 0.274
347.50 0.2744
347.60 0.2748
347.70 0.2752
347.80 0.2756
347.90 0.2761
348.00 0.2765
348.10 0.2769
348.20 0.2773
348.30 0.2777
348.40 0.2781
348.50 0.2785
348.60 0.2789
348.70 0.2794
348.80 0.2798
348.90 0.2802
349.00 0.2806
349.10 0.281
349.20 0.2814
349.30 0.2818
349.40 0.2822
349.50 0.2827
349.60 0.2831
349.70 0.2835
349.80 0.2839
349.90 0.2843
350.00 0.2847
350.10 0.2851
350.20 0.2855
350.30 0.286
350.40 0.2864
350.50 0.2868
350.60 0.2872
350.70 0.2876
350.80 0.2881
350.90 0.2885
351.00 0.2889
351.10 0.2893
351.20 0.2897
351.30 0.2901
351.40 0.2906
351.50 0.291
351.60 0.2914
351.70 0.2918
351.80 0.2922
351.90 0.2926
352.00 0.293
352.10 0.2935
352.20 0.2939
352.30 0.2943
352.40 0.2947
352.50 0.2952
352.60 0.2956
352.70 0.296
352.80 0.2964
352.90 0.2969
353.00 0.2973
353.10 0.2977
353.20 0.2981
353.30 0.2985
353.40 0.299
353.50 0.2994
353.60 0.2998
353.70 0.3002
353.80 0.3006
353.90 0.3011
354.00 0.3015
354.10 0.3019
354.20 0.3023
354.30 0.3028
354.40 0.3032
354.50 0.3036
354.60 0.3041
354.70 0.3045
354.80 0.3049
354.90 0.3053
355.00 0.3058
355.10 0.3062
355.20 0.3066
355.30 0.307
355.40 0.3075
355.50 0.3079
355.60 0.3083
355.70 0.3087
355.80 0.3092
355.90 0.3096
356.00 0.31
356.10 0.3104
356.20 0.3109
356.30 0.3113
356.40 0.3117
356.50 0.3122
356.60 0.3126
356.70 0.313
356.80 0.3135
356.90 0.3139
357.00 0.3143
357.10 0.3148
357.20 0.3152
357.30 0.3156
357.40 0.3161
357.50 0.3165
357.60 0.3169
357.70 0.3173
357.80 0.3178
357.90 0.3182
358.00 0.3186
358.10 0.3191
358.20 0.3195
358.30 0.32
358.40 0.3204
358.50 0.3208
358.60 0.3213
358.70 0.3217
358.80 0.3221
358.90 0.3226
359.00 0.323
359.10 0.3234
359.20 0.3239
359.30 0.3243
359.40 0.3248
359.50 0.3252
359.60 0.3256
359.70 0.3261
359.80 0.3265
359.90 0.3269
360.00 0.3273
360.10 0.3278
360.20 0.3282
360.30 0.3287
360.40 0.3291
360.50 0.3296
360.60 0.33
360.70 0.3304
360.80 0.3309
360.90 0.3313
361.00 0.3318
361.10 0.3322
361.20 0.3326
361.30 0.3331
361.40 0.3335
361.50 0.334
361.60 0.3344
361.70 0.3348
361.80 0.3353
361.90 0.3357
362.00 0.3361
362.10 0.3366
362.20 0.337
362.30 0.3375
362.40 0.3379
362.50 0.3384
362.60 0.3388
362.70 0.3392
362.80 0.3397
362.90 0.3401
363.00 0.3406
363.10 0.341
363.20 0.3415
363.30 0.3419
363.40 0.3424
363.50 0.3428
363.60 0.3433
363.70 0.3437
363.80 0.3442
363.90 0.3446
364.00 0.345
364.10 0.3455
364.20 0.3459
364.30 0.3464
364.40 0.3468
364.50 0.3473
364.60 0.3477
364.70 0.3482
364.80 0.3486
364.90 0.3491
365.00 0.3495
365.10 0.35
365.20 0.3504
365.30 0.3509
365.40 0.3513
365.50 0.3518
365.60 0.3522
365.70 0.3527
365.80 0.3531
365.90 0.3535
366.00 0.354
366.10 0.3544
366.20 0.3549
366.30 0.3554
366.40 0.3558
366.50 0.3563
366.60 0.3567
366.70 0.3572
366.80 0.3576
366.90 0.3581
367.00 0.3585
367.10 0.359
367.20 0.3594
367.30 0.3599
367.40 0.3603
367.50 0.3608
367.60 0.3612
367.70 0.3617
367.80 0.3621
367.90 0.3626
368.00 0.363
368.10 0.3635
368.20 0.364
368.30 0.3644
368.40 0.3649
368.50 0.3653
368.60 0.3658
368.70 0.3663
368.80 0.3667
368.90 0.3672
369.00 0.3676
369.10 0.3681
369.20 0.3685
369.30 0.369
369.40 0.3694
369.50 0.3699
369.60 0.3704
369.70 0.3708
369.80 0.3713
369.90 0.3717
370.00 0.3722
370.10 0.3726
370.20 0.3731
370.30 0.3736
370.40 0.374
370.50 0.3745
370.60 0.3749
370.70 0.3754
370.80 0.3759
370.90 0.3763
371.00 0.3768
371.10 0.3772
371.20 0.3777
371.30 0.3782
371.40 0.3786
371.50 0.3791
371.60 0.3795
371.70 0.38
371.80 0.3804
371.90 0.3809
372.00 0.3814
372.10 0.3818
372.20 0.3823
372.30 0.3828
372.40 0.3832
372.50 0.3837
372.60 0.3842
372.70 0.3846
372.80 0.3851
372.90 0.3856
373.00 0.386
373.10 0.3865
373.20 0.3869
373.30 0.3874
373.40 0.3879
373.50 0.3883
373.60 0.3888
373.70 0.3892
373.80 0.3897
373.90 0.3902
374.00 0.3906
374.10 0.3911
374.20 0.3916
374.30 0.392
374.40 0.3925
374.50 0.393
374.60 0.3934
374.70 0.3939
374.80 0.3944
374.90 0.3949
375.00 0.3953
375.10 0.3958
375.20 0.3962
375.30 0.3967
375.40 0.3972
375.50 0.3976
375.60 0.3981
375.70 0.3986
375.80 0.399
375.90 0.3995
376.00 0.4
376.10 0.4004
376.20 0.4009
376.30 0.4014
376.40 0.4018
376.50 0.4023
376.60 0.4028
376.70 0.4032
376.80 0.4037
376.90 0.4042
377.00 0.4047
377.10 0.4051
377.20 0.4056
377.30 0.4061
377.40 0.4065
377.50 0.407
377.60 0.4075
377.70 0.4079
377.80 0.4084
377.90 0.4089
378.00 0.4093
378.10 0.4098
378.20 0.4103
378.30 0.4108
378.40 0.4112
378.50 0.4117
378.60 0.4122
378.70 0.4127
378.80 0.4131
378.90 0.4136
379.00 0.4141
379.10 0.4145
379.20 0.415
379.30 0.4155
379.40 0.416
379.50 0.4164
379.60 0.4169
379.70 0.4174
379.80 0.4178
379.90 0.4183
380.00 0.4188
380.10 0.4193
380.20 0.4197
380.30 0.4202
380.40 0.4207
380.50 0.4212
380.60 0.4217
380.70 0.4221
380.80 0.4226
380.90 0.4231
381.00 0.4236
381.10 0.424
381.20 0.4245
381.30 0.425
381.40 0.4255
381.50 0.4259
381.60 0.4264
381.70 0.4269
381.80 0.4274
381.90 0.4278
382.00 0.4283
382.10 0.4288
382.20 0.4293
382.30 0.4297
382.40 0.4302
382.50 0.4307
382.60 0.4312
382.70 0.4317
382.80 0.4321
382.90 0.4326
383.00 0.4331
383.10 0.4336
383.20 0.4341
383.30 0.4345
383.40 0.435
383.50 0.4355
383.60 0.436
383.70 0.4364
383.80 0.4369
383.90 0.4374
384.00 0.4379
384.10 0.4384
384.20 0.4388
384.30 0.4393
384.40 0.4398
384.50 0.4403
384.60 0.4408
384.70 0.4412
384.80 0.4417
384.90 0.4422
385.00 0.4427
385.10 0.4432
385.20 0.4436
385.30 0.4442
385.40 0.4446
385.50 0.4451
385.60 0.4456
385.70 0.4461
385.80 0.4465
385.90 0.447
386.00 0.4475
386.10 0.448
386.20 0.4485
386.30 0.449
386.40 0.4495
386.50 0.4499
386.60 0.4504
386.70 0.4509
386.80 0.4514
386.90 0.4519
387.00 0.4523
387.10 0.4528
387.20 0.4533
387.30 0.4538
387.40 0.4543
387.50 0.4548
387.60 0.4552
387.70 0.4557
387.80 0.4562
387.90 0.4567
388.00 0.4572
388.10 0.4577
388.20 0.4582
388.30 0.4586
388.40 0.4591
388.50 0.4596
388.60 0.4601
388.70 0.4606
388.80 0.4611
388.90 0.4616
389.00 0.462
389.10 0.4625
389.20 0.463
389.30 0.4635
389.40 0.464
389.50 0.4645
389.60 0.4649
389.70 0.4654
389.80 0.4659
389.90 0.4664
390.00 0.4669
390.10 0.4674
390.20 0.4679
390.30 0.4684
390.40 0.4689
390.50 0.4693
390.60 0.4698
390.70 0.4703
390.80 0.4708
390.90 0.4713
391.00 0.4718
391.10 0.4723
391.20 0.4728
391.30 0.4733
391.40 0.4737
391.50 0.4742
391.60 0.4747
391.70 0.4752
391.80 0.4757
391.90 0.4762
392.00 0.4767
392.10 0.4772
392.20 0.4777
392.30 0.4782
392.40 0.4786
392.50 0.4791
392.60 0.4796
392.70 0.4801
392.80 0.4806
392.90 0.4811
393.00 0.4816
393.10 0.4821
393.20 0.4825
393.30 0.483
393.40 0.4835
393.50 0.484
393.60 0.4845
393.70 0.485
393.80 0.4855
393.90 0.486
394.00 0.4865
394.10 0.487
394.20 0.4875
394.30 0.488
394.40 0.4885
394.50 0.4889
394.60 0.4894
394.70 0.4899
394.80 0.4904
394.90 0.4909
395.00 0.4914
395.10 0.4919
395.20 0.4924
395.30 0.4929
395.40 0.4934
395.50 0.4939
395.60 0.4944
395.70 0.4949
395.80 0.4953
395.90 0.4958
396.00 0.4963
396.10 0.4968
396.20 0.4973
396.30 0.4978
396.40 0.4983
396.50 0.4988
396.60 0.4993
396.70 0.4998
396.80 0.5003
396.90 0.5008
397.00 0.5013
397.10 0.5017
397.20 0.5022
397.30 0.5027
397.40 0.5032
397.50 0.5037
397.60 0.5042
397.70 0.5047
397.80 0.5052
397.90 0.5057
398.00 0.5062
398.10 0.5067
398.20 0.5072
398.30 0.5077
398.40 0.5082
398.50 0.5087
398.60 0.5092
398.70 0.5097
398.80 0.5102
398.90 0.5107
399.00 0.5112
399.10 0.5117
399.20 0.5121
399.30 0.5126
399.40 0.5131
399.50 0.5136
399.60 0.5141
399.70 0.5146
399.80 0.5151
399.90 0.5156
400.00 0.5161
400.10 0.5166
400.20 0.5171
400.30 0.5176
400.40 0.5181
400.50 0.5186
400.60 0.5191
400.70 0.5196
400.80 0.5201
400.90 0.5206
401.00 0.5211
401.10 0.5216
401.20 0.5221
401.30 0.5226
401.40 0.5231
401.50 0.5236
401.60 0.5241
401.70 0.5246
401.80 0.5251
401.90 0.5256
402.00 0.5261
402.10 0.5266
402.20 0.5271
402.30 0.5276
402.40 0.5281
402.50 0.5286
402.60 0.5291
402.70 0.5296
402.80 0.5301
402.90 0.5306
403.00 0.531
403.10 0.5315
403.20 0.532
403.30 0.5325
403.40 0.5331
403.50 0.5336
403.60 0.534
403.70 0.5345
403.80 0.535
403.90 0.5356
404.00 0.536
404.10 0.5365
404.20 0.537
404.30 0.5375
404.40 0.538
404.50 0.5385
404.60 0.539
404.70 0.5395
404.80 0.5401
404.90 0.5405
405.00 0.541
405.10 0.5415
405.20 0.542
405.30 0.5425
405.40 0.543
405.50 0.5435
405.60 0.544
405.70 0.5445
405.80 0.545
405.90 0.5455
406.00 0.546
406.10 0.5465
406.20 0.547
406.30 0.5475
406.40 0.548
406.50 0.5485
406.60 0.549
406.70 0.5495
406.80 0.55
406.90 0.5505
407.00 0.5511
407.10 0.5516
407.20 0.5521
407.30 0.5525
407.40 0.5531
407.50 0.5536
407.60 0.5541
407.70 0.5546
407.80 0.555
407.90 0.5556
408.00 0.5561
408.10 0.5565
408.20 0.5571
408.30 0.5576
408.40 0.5581
408.50 0.5586
408.60 0.5591
408.70 0.5596
408.80 0.5601
408.90 0.5606
409.00 0.5611
409.10 0.5616
409.20 0.5621
409.30 0.5626
409.40 0.5631
409.50 0.5636
409.60 0.5641
409.70 0.5646
409.80 0.5651
409.90 0.5656
410.00 0.5661
410.10 0.5666
410.20 0.5671
410.30 0.5676
410.40 0.5681
410.50 0.5686
410.60 0.5691
410.70 0.5696
410.80 0.5701
410.90 0.5706
411.00 0.5711
411.10 0.5716
411.20 0.5721
411.30 0.5726
411.40 0.5731
411.50 0.5736
411.60 0.5741
411.70 0.5746
411.80 0.5751
411.90 0.5757
412.00 0.5762
412.10 0.5767
412.20 0.5772
412.30 0.5777
412.40 0.5782
412.50 0.5787
412.60 0.5792
412.70 0.5797
412.80 0.5802
412.90 0.5807
413.00 0.5812
413.10 0.5817
413.20 0.5822
413.30 0.5827
413.40 0.5832
413.50 0.5837
413.60 0.5842
413.70 0.5847
413.80 0.5852
413.90 0.5857
414.00 0.5862
414.10 0.5867
414.20 0.5872
414.30 0.5877
414.40 0.5882
414.50 0.5887
414.60 0.5892
414.70 0.5898
414.80 0.5903
414.90 0.5908
415.00 0.5913
415.10 0.5918
415.20 0.5923
415.30 0.5928
415.40 0.5933
415.50 0.5938
415.60 0.5943
415.70 0.5948
415.80 0.5953
415.90 0.5958
416.00 0.5963
416.10 0.5968
416.20 0.5973
416.30 0.5978
416.40 0.5983
416.50 0.5988
416.60 0.5993
416.70 0.5998
416.80 0.6003
416.90 0.6009
417.00 0.6014
417.10 0.6019
417.20 0.6024
417.30 0.6029
417.40 0.6034
417.50 0.6039
417.60 0.6044
417.70 0.6049
417.80 0.6054
417.90 0.6059
418.00 0.6064
418.10 0.6069
418.20 0.6074
418.30 0.6079
418.40 0.6084
418.50 0.6089
418.60 0.6094
418.70 0.6099
418.80 0.6104
418.90 0.6109
419.00 0.6114
419.10 0.612
419.20 0.6124
419.30 0.613
419.40 0.6135
419.50 0.614
419.60 0.6145
419.70 0.615
419.80 0.6155
419.90 0.616
420.00 0.6165
420.10 0.617
420.20 0.6175
420.30 0.618
420.40 0.6185
420.50 0.619
420.60 0.6195
420.70 0.62
420.80 0.6205
420.90 0.621
421.00 0.6215
421.10 0.6221
421.20 0.6226
421.30 0.6231
421.40 0.6236
421.50 0.6241
421.60 0.6246
421.70 0.6251
421.80 0.6256
421.90 0.6261
422.00 0.6266
422.10 0.6271
422.20 0.6276
422.30 0.6281
422.40 0.6286
422.50 0.6291
422.60 0.6296
422.70 0.6301
422.80 0.6306
422.90 0.6311
423.00 0.6316
423.10 0.6322
423.20 0.6326
423.30 0.6331
423.40 0.6337
423.50 0.6342
423.60 0.6347
423.70 0.6352
423.80 0.6357
423.90 0.6362
424.00 0.6367
424.10 0.6372
424.20 0.6377
424.30 0.6382
424.40 0.6387
424.50 0.6392
424.60 0.6397
424.70 0.6402
424.80 0.6407
424.90 0.6412
425.00 0.6417
425.10 0.6423
425.20 0.6428
425.30 0.6433
425.40 0.6438
425.50 0.6443
425.60 0.6448
425.70 0.6453
425.80 0.6458
425.90 0.6463
426.00 0.6468
426.10 0.6473
426.20 0.6478
426.30 0.6483
426.40 0.6488
426.50 0.6493
426.60 0.6498
426.70 0.6503
426.80 0.6508
426.90 0.6513
427.00 0.6519
427.10 0.6523
427.20 0.6528
427.30 0.6533
427.40 0.6539
427.50 0.6544
427.60 0.6549
427.70 0.6554
427.80 0.6559
427.90 0.6564
428.00 0.6569
428.10 0.6574
428.20 0.6579
428.30 0.6584
428.40 0.6589
428.50 0.6594
428.60 0.6599
428.70 0.6604
428.80 0.6609
428.90 0.6614
429.00 0.6619
429.10 0.6624
429.20 0.6629
429.30 0.6634
429.40 0.6639
429.50 0.6644
429.60 0.6649
429.70 0.6655
429.80 0.666
429.90 0.6665
430.00 0.667
430.10 0.6675
430.20 0.668
430.30 0.6685
430.40 0.669
430.50 0.6695
430.60 0.67
430.70 0.6705
430.80 0.671
430.90 0.6715
431.00 0.672
431.10 0.6725
431.20 0.673
431.30 0.6735
431.40 0.674
431.50 0.6745
431.60 0.675
431.70 0.6755
431.80 0.6761
431.90 0.6766
432.00 0.6771
432.10 0.6776
432.20 0.6781
432.30 0.6786
432.40 0.6791
432.50 0.6796
432.60 0.6801
432.70 0.6806
432.80 0.6811
432.90 0.6816
433.00 0.6821
433.10 0.6826
433.20 0.6831
433.30 0.6836
433.40 0.6841
433.50 0.6846
433.60 0.6851
433.70 0.6856
433.80 0.6861
433.90 0.6866
434.00 0.6871
434.10 0.6876
434.20 0.6881
434.30 0.6886
434.40 0.6891
434.50 0.6896
434.60 0.6902
434.70 0.6907
434.80 0.6911
434.90 0.6916
435.00 0.6922
435.10 0.6927
435.20 0.6932
435.30 0.6937
435.40 0.6942
435.50 0.6947
435.60 0.6952
435.70 0.6957
435.80 0.6962
435.90 0.6967
436.00 0.6972
436.10 0.6977
436.20 0.6982
436.30 0.6987
436.40 0.6992
436.50 0.6997
436.60 0.7002
436.70 0.7007
436.80 0.7012
436.90 0.7017
437.00 0.7022
437.10 0.7027
437.20 0.7032
437.30 0.7037
437.40 0.7042
437.50 0.7047
437.60 0.7052
437.70 0.7057
437.80 0.7062
437.90 0.7067
438.00 0.7072
438.10 0.7077
438.20 0.7082
438.30 0.7087
438.40 0.7092
438.50 0.7097
438.60 0.7102
438.70 0.7107
438.80 0.7112
438.90 0.7117
439.00 0.7122
439.10 0.7127
439.20 0.7132
439.30 0.7137
439.40 0.7142
439.50 0.7147
439.60 0.7152
439.70 0.7157
439.80 0.7162
439.90 0.7167
440.00 0.7172
440.10 0.7177
440.20 0.7182
440.30 0.7187
440.40 0.7192
440.50 0.7197
440.60 0.7202
440.70 0.7207
440.80 0.7212
440.90 0.7217
441.00 0.7222
441.10 0.7228
441.20 0.7232
441.30 0.7237
441.40 0.7243
441.50 0.7247
441.60 0.7252
441.70 0.7258
441.80 0.7262
441.90 0.7267
442.00 0.7272
442.10 0.7277
442.20 0.7282
442.30 0.7287
442.40 0.7292
442.50 0.7297
442.60 0.7303
442.70 0.7307
442.80 0.7312
442.90 0.7317
