# Version 2.1 - nm, norm@500 to 1, cut digits, bergeron_75000_70.dat_75000
# Wavelength(nm)  Flambda(ergs/cm^s/s/nm)
300.00 6.603
300.10 6.595
300.20 6.587
300.30 6.579
300.40 6.571
300.50 6.562
300.60 6.554
300.70 6.546
300.80 6.538
300.90 6.53
301.00 6.522
301.10 6.514
301.20 6.506
301.30 6.498
301.40 6.49
301.50 6.482
301.60 6.474
301.70 6.466
301.80 6.458
301.90 6.45
302.00 6.442
302.10 6.434
302.20 6.426
302.30 6.419
302.40 6.411
302.50 6.403
302.60 6.395
302.70 6.387
302.80 6.379
302.90 6.371
303.00 6.364
303.10 6.356
303.20 6.348
303.30 6.34
303.40 6.333
303.50 6.325
303.60 6.317
303.70 6.309
303.80 6.302
303.90 6.294
304.00 6.286
304.10 6.279
304.20 6.271
304.30 6.263
304.40 6.256
304.50 6.248
304.60 6.24
304.70 6.233
304.80 6.225
304.90 6.218
305.00 6.21
305.10 6.203
305.20 6.195
305.30 6.187
305.40 6.18
305.50 6.172
305.60 6.165
305.70 6.157
305.80 6.15
305.90 6.143
306.00 6.135
306.10 6.128
306.20 6.12
306.30 6.113
306.40 6.105
306.50 6.098
306.60 6.091
306.70 6.083
306.80 6.076
306.90 6.068
307.00 6.061
307.10 6.054
307.20 6.047
307.30 6.039
307.40 6.032
307.50 6.025
307.60 6.017
307.70 6.01
307.80 6.003
307.90 5.996
308.00 5.988
308.10 5.981
308.20 5.974
308.30 5.967
308.40 5.96
308.50 5.952
308.60 5.945
308.70 5.938
308.80 5.931
308.90 5.924
309.00 5.917
309.10 5.91
309.20 5.902
309.30 5.895
309.40 5.888
309.50 5.881
309.60 5.874
309.70 5.867
309.80 5.86
309.90 5.853
310.00 5.846
310.10 5.839
310.20 5.832
310.30 5.825
310.40 5.818
310.50 5.811
310.60 5.804
310.70 5.797
310.80 5.79
310.90 5.783
311.00 5.776
311.10 5.77
311.20 5.763
311.30 5.756
311.40 5.749
311.50 5.742
311.60 5.735
311.70 5.728
311.80 5.721
311.90 5.715
312.00 5.708
312.10 5.701
312.20 5.694
312.30 5.687
312.40 5.681
312.50 5.674
312.60 5.667
312.70 5.66
312.80 5.654
312.90 5.647
313.00 5.64
313.10 5.634
313.20 5.627
313.30 5.62
313.40 5.614
313.50 5.607
313.60 5.6
313.70 5.594
313.80 5.587
313.90 5.58
314.00 5.574
314.10 5.567
314.20 5.561
314.30 5.554
314.40 5.547
314.50 5.541
314.60 5.534
314.70 5.528
314.80 5.521
314.90 5.515
315.00 5.508
315.10 5.502
315.20 5.495
315.30 5.489
315.40 5.482
315.50 5.476
315.60 5.469
315.70 5.463
315.80 5.456
315.90 5.45
316.00 5.444
316.10 5.437
316.20 5.431
316.30 5.424
316.40 5.418
316.50 5.412
316.60 5.405
316.70 5.399
316.80 5.393
316.90 5.386
317.00 5.38
317.10 5.374
317.20 5.367
317.30 5.361
317.40 5.355
317.50 5.349
317.60 5.342
317.70 5.336
317.80 5.33
317.90 5.324
318.00 5.317
318.10 5.311
318.20 5.305
318.30 5.299
318.40 5.292
318.50 5.286
318.60 5.28
318.70 5.274
318.80 5.268
318.90 5.262
319.00 5.255
319.10 5.249
319.20 5.243
319.30 5.237
319.40 5.231
319.50 5.225
319.60 5.219
319.70 5.213
319.80 5.207
319.90 5.201
320.00 5.195
320.10 5.189
320.20 5.183
320.30 5.176
320.40 5.17
320.50 5.164
320.60 5.158
320.70 5.152
320.80 5.147
320.90 5.141
321.00 5.135
321.10 5.129
321.20 5.123
321.30 5.117
321.40 5.111
321.50 5.105
321.60 5.099
321.70 5.093
321.80 5.087
321.90 5.081
322.00 5.075
322.10 5.07
322.20 5.064
322.30 5.058
322.40 5.052
322.50 5.046
322.60 5.04
322.70 5.035
322.80 5.029
322.90 5.023
323.00 5.017
323.10 5.011
323.20 5.006
323.30 5
323.40 4.994
323.50 4.988
323.60 4.983
323.70 4.977
323.80 4.971
323.90 4.965
324.00 4.96
324.10 4.954
324.20 4.948
324.30 4.943
324.40 4.937
324.50 4.931
324.60 4.926
324.70 4.92
324.80 4.914
324.90 4.909
325.00 4.903
325.10 4.897
325.20 4.892
325.30 4.886
325.40 4.881
325.50 4.875
325.60 4.869
325.70 4.864
325.80 4.858
325.90 4.853
326.00 4.847
326.10 4.842
326.20 4.836
326.30 4.831
326.40 4.825
326.50 4.82
326.60 4.814
326.70 4.809
326.80 4.803
326.90 4.798
327.00 4.792
327.10 4.787
327.20 4.781
327.30 4.776
327.40 4.77
327.50 4.765
327.60 4.759
327.70 4.754
327.80 4.749
327.90 4.743
328.00 4.738
328.10 4.733
328.20 4.727
328.30 4.722
328.40 4.716
328.50 4.711
328.60 4.706
328.70 4.7
328.80 4.695
328.90 4.69
329.00 4.684
329.10 4.679
329.20 4.674
329.30 4.668
329.40 4.663
329.50 4.658
329.60 4.653
329.70 4.647
329.80 4.642
329.90 4.637
330.00 4.632
330.10 4.626
330.20 4.621
330.30 4.616
330.40 4.611
330.50 4.606
330.60 4.6
330.70 4.595
330.80 4.59
330.90 4.585
331.00 4.58
331.10 4.575
331.20 4.569
331.30 4.564
331.40 4.559
331.50 4.554
331.60 4.549
331.70 4.544
331.80 4.539
331.90 4.534
332.00 4.528
332.10 4.523
332.20 4.518
332.30 4.513
332.40 4.508
332.50 4.503
332.60 4.498
332.70 4.493
332.80 4.488
332.90 4.483
333.00 4.478
333.10 4.473
333.20 4.468
333.30 4.463
333.40 4.458
333.50 4.453
333.60 4.448
333.70 4.443
333.80 4.438
333.90 4.433
334.00 4.428
334.10 4.423
334.20 4.418
334.30 4.413
334.40 4.408
334.50 4.403
334.60 4.399
334.70 4.394
334.80 4.389
334.90 4.384
335.00 4.379
335.10 4.374
335.20 4.369
335.30 4.364
335.40 4.36
335.50 4.355
335.60 4.35
335.70 4.345
335.80 4.34
335.90 4.335
336.00 4.33
336.10 4.326
336.20 4.321
336.30 4.316
336.40 4.311
336.50 4.307
336.60 4.302
336.70 4.297
336.80 4.292
336.90 4.287
337.00 4.283
337.10 4.278
337.20 4.273
337.30 4.269
337.40 4.264
337.50 4.259
337.60 4.254
337.70 4.25
337.80 4.245
337.90 4.24
338.00 4.236
338.10 4.231
338.20 4.226
338.30 4.222
338.40 4.217
338.50 4.212
338.60 4.208
338.70 4.203
338.80 4.198
338.90 4.194
339.00 4.189
339.10 4.184
339.20 4.18
339.30 4.175
339.40 4.171
339.50 4.166
339.60 4.161
339.70 4.157
339.80 4.152
339.90 4.148
340.00 4.143
340.10 4.139
340.20 4.134
340.30 4.13
340.40 4.125
340.50 4.121
340.60 4.116
340.70 4.112
340.80 4.107
340.90 4.103
341.00 4.098
341.10 4.094
341.20 4.089
341.30 4.085
341.40 4.08
341.50 4.076
341.60 4.071
341.70 4.067
341.80 4.062
341.90 4.058
342.00 4.053
342.10 4.049
342.20 4.045
342.30 4.04
342.40 4.036
342.50 4.031
342.60 4.027
342.70 4.023
342.80 4.018
342.90 4.014
343.00 4.009
343.10 4.005
343.20 4.001
343.30 3.996
343.40 3.992
343.50 3.988
343.60 3.983
343.70 3.979
343.80 3.975
343.90 3.97
344.00 3.966
344.10 3.962
344.20 3.957
344.30 3.953
344.40 3.949
344.50 3.945
344.60 3.94
344.70 3.936
344.80 3.932
344.90 3.927
345.00 3.923
345.10 3.919
345.20 3.915
345.30 3.91
345.40 3.906
345.50 3.902
345.60 3.898
345.70 3.894
345.80 3.889
345.90 3.885
346.00 3.881
346.10 3.877
346.20 3.873
346.30 3.868
346.40 3.864
346.50 3.86
346.60 3.856
346.70 3.852
346.80 3.848
346.90 3.843
347.00 3.839
347.10 3.835
347.20 3.831
347.30 3.827
347.40 3.823
347.50 3.819
347.60 3.815
347.70 3.81
347.80 3.806
347.90 3.802
348.00 3.798
348.10 3.794
348.20 3.79
348.30 3.786
348.40 3.782
348.50 3.778
348.60 3.774
348.70 3.77
348.80 3.766
348.90 3.762
349.00 3.758
349.10 3.754
349.20 3.75
349.30 3.746
349.40 3.742
349.50 3.738
349.60 3.734
349.70 3.73
349.80 3.726
349.90 3.722
350.00 3.718
350.10 3.714
350.20 3.71
350.30 3.706
350.40 3.702
350.50 3.698
350.60 3.694
350.70 3.69
350.80 3.686
350.90 3.682
351.00 3.678
351.10 3.674
351.20 3.67
351.30 3.666
351.40 3.662
351.50 3.659
351.60 3.655
351.70 3.651
351.80 3.647
351.90 3.643
352.00 3.639
352.10 3.635
352.20 3.631
352.30 3.628
352.40 3.624
352.50 3.62
352.60 3.616
352.70 3.612
352.80 3.608
352.90 3.605
353.00 3.601
353.10 3.597
353.20 3.593
353.30 3.589
353.40 3.585
353.50 3.582
353.60 3.578
353.70 3.574
353.80 3.57
353.90 3.567
354.00 3.563
354.10 3.559
354.20 3.555
354.30 3.551
354.40 3.548
354.50 3.544
354.60 3.54
354.70 3.537
354.80 3.533
354.90 3.529
355.00 3.525
355.10 3.522
355.20 3.518
355.30 3.514
355.40 3.511
355.50 3.507
355.60 3.503
355.70 3.499
355.80 3.496
355.90 3.492
356.00 3.488
356.10 3.485
356.20 3.481
356.30 3.477
356.40 3.474
356.50 3.47
356.60 3.466
356.70 3.463
356.80 3.459
356.90 3.456
357.00 3.452
357.10 3.448
357.20 3.445
357.30 3.441
357.40 3.438
357.50 3.434
357.60 3.43
357.70 3.427
357.80 3.423
357.90 3.42
358.00 3.416
358.10 3.412
358.20 3.409
358.30 3.405
358.40 3.402
358.50 3.398
358.60 3.395
358.70 3.391
358.80 3.388
358.90 3.384
359.00 3.38
359.10 3.377
359.20 3.373
359.30 3.37
359.40 3.366
359.50 3.363
359.60 3.359
359.70 3.356
359.80 3.352
359.90 3.349
360.00 3.345
360.10 3.342
360.20 3.338
360.30 3.335
360.40 3.331
360.50 3.328
360.60 3.325
360.70 3.321
360.80 3.318
360.90 3.314
361.00 3.311
361.10 3.307
361.20 3.304
361.30 3.301
361.40 3.297
361.50 3.294
361.60 3.29
361.70 3.287
361.80 3.283
361.90 3.28
362.00 3.277
362.10 3.273
362.20 3.27
362.30 3.266
362.40 3.263
362.50 3.26
362.60 3.256
362.70 3.253
362.80 3.25
362.90 3.246
363.00 3.243
363.10 3.24
363.20 3.236
363.30 3.233
363.40 3.23
363.50 3.226
363.60 3.223
363.70 3.22
363.80 3.216
363.90 3.213
364.00 3.21
364.10 3.206
364.20 3.203
364.30 3.2
364.40 3.196
364.50 3.193
364.60 3.19
364.70 3.187
364.80 3.183
364.90 3.18
365.00 3.177
365.10 3.174
365.20 3.17
365.30 3.167
365.40 3.164
365.50 3.161
365.60 3.157
365.70 3.154
365.80 3.151
365.90 3.148
366.00 3.144
366.10 3.141
366.20 3.138
366.30 3.134
366.40 3.131
366.50 3.128
366.60 3.125
366.70 3.121
366.80 3.118
366.90 3.115
367.00 3.112
367.10 3.108
367.20 3.105
367.30 3.102
367.40 3.099
367.50 3.095
367.60 3.092
367.70 3.089
367.80 3.086
367.90 3.082
368.00 3.079
368.10 3.076
368.20 3.073
368.30 3.07
368.40 3.066
368.50 3.063
368.60 3.06
368.70 3.057
368.80 3.054
368.90 3.05
369.00 3.047
369.10 3.044
369.20 3.041
369.30 3.038
369.40 3.035
369.50 3.031
369.60 3.028
369.70 3.025
369.80 3.022
369.90 3.019
370.00 3.016
370.10 3.013
370.20 3.009
370.30 3.006
370.40 3.003
370.50 3
370.60 2.997
370.70 2.994
370.80 2.991
370.90 2.988
371.00 2.985
371.10 2.982
371.20 2.978
371.30 2.975
371.40 2.972
371.50 2.969
371.60 2.966
371.70 2.963
371.80 2.96
371.90 2.957
372.00 2.954
372.10 2.951
372.20 2.948
372.30 2.945
372.40 2.942
372.50 2.939
372.60 2.936
372.70 2.933
372.80 2.93
372.90 2.927
373.00 2.924
373.10 2.921
373.20 2.918
373.30 2.915
373.40 2.912
373.50 2.909
373.60 2.906
373.70 2.904
373.80 2.901
373.90 2.898
374.00 2.895
374.10 2.892
374.20 2.889
374.30 2.886
374.40 2.883
374.50 2.881
374.60 2.878
374.70 2.875
374.80 2.872
374.90 2.869
375.00 2.867
375.10 2.864
375.20 2.861
375.30 2.858
375.40 2.855
375.50 2.853
375.60 2.85
375.70 2.847
375.80 2.844
375.90 2.841
376.00 2.839
376.10 2.836
376.20 2.833
376.30 2.83
376.40 2.827
376.50 2.824
376.60 2.822
376.70 2.819
376.80 2.816
376.90 2.813
377.00 2.811
377.10 2.808
377.20 2.806
377.30 2.803
377.40 2.801
377.50 2.798
377.60 2.796
377.70 2.793
377.80 2.791
377.90 2.788
378.00 2.786
378.10 2.783
378.20 2.78
378.30 2.777
378.40 2.775
378.50 2.772
378.60 2.769
378.70 2.766
378.80 2.764
378.90 2.761
379.00 2.758
379.10 2.755
379.20 2.753
379.30 2.75
379.40 2.747
379.50 2.744
379.60 2.742
379.70 2.739
379.80 2.736
379.90 2.733
380.00 2.73
380.10 2.729
380.20 2.727
380.30 2.725
380.40 2.723
380.50 2.721
380.60 2.719
380.70 2.717
380.80 2.715
380.90 2.713
381.00 2.711
381.10 2.709
381.20 2.706
381.30 2.704
381.40 2.701
381.50 2.699
381.60 2.696
381.70 2.693
381.80 2.69
381.90 2.687
382.00 2.684
382.10 2.681
382.20 2.677
382.30 2.673
382.40 2.669
382.50 2.665
382.60 2.661
382.70 2.657
382.80 2.653
382.90 2.65
383.00 2.646
383.10 2.642
383.20 2.638
383.30 2.634
383.40 2.63
383.50 2.627
383.60 2.625
383.70 2.624
383.80 2.623
383.90 2.623
384.00 2.623
384.10 2.622
384.20 2.622
384.30 2.622
384.40 2.621
384.50 2.621
384.60 2.62
384.70 2.62
384.80 2.619
384.90 2.618
385.00 2.617
385.10 2.615
385.20 2.614
385.30 2.612
385.40 2.611
385.50 2.609
385.60 2.607
385.70 2.605
385.80 2.603
385.90 2.6
386.00 2.598
386.10 2.595
386.20 2.592
386.30 2.589
386.40 2.586
386.50 2.582
386.60 2.579
386.70 2.575
386.80 2.571
386.90 2.567
387.00 2.563
387.10 2.558
387.20 2.553
387.30 2.549
387.40 2.544
387.50 2.538
387.60 2.533
387.70 2.527
387.80 2.521
387.90 2.515
388.00 2.509
388.10 2.502
388.20 2.496
388.30 2.489
388.40 2.482
388.50 2.475
388.60 2.469
388.70 2.463
388.80 2.459
388.90 2.456
389.00 2.454
389.10 2.454
389.20 2.456
389.30 2.458
389.40 2.46
389.50 2.463
389.60 2.465
389.70 2.468
389.80 2.47
389.90 2.472
390.00 2.474
390.10 2.476
390.20 2.477
390.30 2.479
390.40 2.48
390.50 2.481
390.60 2.482
390.70 2.482
390.80 2.483
390.90 2.483
391.00 2.483
391.10 2.483
391.20 2.483
391.30 2.483
391.40 2.482
391.50 2.481
391.60 2.481
391.70 2.48
391.80 2.479
391.90 2.477
392.00 2.476
392.10 2.475
392.20 2.473
392.30 2.471
392.40 2.469
392.50 2.468
392.60 2.465
392.70 2.463
392.80 2.461
392.90 2.459
393.00 2.456
393.10 2.453
393.20 2.451
393.30 2.448
393.40 2.445
393.50 2.442
393.60 2.438
393.70 2.435
393.80 2.431
393.90 2.427
394.00 2.424
394.10 2.419
394.20 2.415
394.30 2.411
394.40 2.406
394.50 2.401
394.60 2.396
394.70 2.391
394.80 2.385
394.90 2.38
395.00 2.373
395.10 2.367
395.20 2.361
395.30 2.354
395.40 2.346
395.50 2.339
395.60 2.331
395.70 2.323
395.80 2.314
395.90 2.306
396.00 2.296
396.10 2.287
396.20 2.277
396.30 2.267
396.40 2.256
396.50 2.246
396.60 2.235
396.70 2.224
396.80 2.212
396.90 2.202
397.00 2.191
397.10 2.197
397.20 2.203
397.30 2.21
397.40 2.218
397.50 2.224
397.60 2.231
397.70 2.237
397.80 2.243
397.90 2.249
398.00 2.255
398.10 2.26
398.20 2.264
398.30 2.269
398.40 2.273
398.50 2.276
398.60 2.28
398.70 2.283
398.80 2.285
398.90 2.288
399.00 2.29
399.10 2.292
399.20 2.293
399.30 2.295
399.40 2.296
399.50 2.297
399.60 2.298
399.70 2.298
399.80 2.299
399.90 2.299
400.00 2.299
400.10 2.299
400.20 2.299
400.30 2.298
400.40 2.298
400.50 2.297
400.60 2.297
400.70 2.296
400.80 2.295
400.90 2.294
401.00 2.293
401.10 2.292
401.20 2.291
401.30 2.289
401.40 2.288
401.50 2.287
401.60 2.285
401.70 2.284
401.80 2.282
401.90 2.281
402.00 2.279
402.10 2.278
402.20 2.276
402.30 2.274
402.40 2.272
402.50 2.271
402.60 2.269
402.70 2.267
402.80 2.265
402.90 2.263
403.00 2.261
403.10 2.259
403.20 2.257
403.30 2.255
403.40 2.253
403.50 2.251
403.60 2.249
403.70 2.247
403.80 2.245
403.90 2.242
404.00 2.24
404.10 2.238
404.20 2.236
404.30 2.233
404.40 2.231
404.50 2.229
404.60 2.226
404.70 2.224
404.80 2.221
404.90 2.219
405.00 2.216
405.10 2.214
405.20 2.211
405.30 2.209
405.40 2.206
405.50 2.203
405.60 2.2
405.70 2.197
405.80 2.194
405.90 2.191
406.00 2.188
406.10 2.185
406.20 2.182
406.30 2.179
406.40 2.175
406.50 2.172
406.60 2.168
406.70 2.164
406.80 2.161
406.90 2.157
407.00 2.153
407.10 2.148
407.20 2.144
407.30 2.139
407.40 2.134
407.50 2.129
407.60 2.124
407.70 2.119
407.80 2.113
407.90 2.107
408.00 2.101
408.10 2.094
408.20 2.087
408.30 2.08
408.40 2.072
408.50 2.064
408.60 2.056
408.70 2.047
408.80 2.037
408.90 2.028
409.00 2.017
409.10 2.007
409.20 1.995
409.30 1.983
409.40 1.971
409.50 1.958
409.60 1.944
409.70 1.93
409.80 1.915
409.90 1.9
410.00 1.886
410.10 1.879
410.20 1.878
410.30 1.879
410.40 1.885
410.50 1.897
410.60 1.909
410.70 1.92
410.80 1.93
410.90 1.94
411.00 1.949
411.10 1.958
411.20 1.965
411.30 1.973
411.40 1.98
411.50 1.986
411.60 1.991
411.70 1.997
411.80 2.002
411.90 2.006
412.00 2.01
412.10 2.013
412.20 2.017
412.30 2.019
412.40 2.022
412.50 2.024
412.60 2.026
412.70 2.028
412.80 2.029
412.90 2.03
413.00 2.031
413.10 2.032
413.20 2.033
413.30 2.033
413.40 2.033
413.50 2.033
413.60 2.033
413.70 2.033
413.80 2.033
413.90 2.032
414.00 2.032
414.10 2.031
414.20 2.031
414.30 2.03
414.40 2.029
414.50 2.028
414.60 2.027
414.70 2.026
414.80 2.025
414.90 2.024
415.00 2.023
415.10 2.022
415.20 2.021
415.30 2.02
415.40 2.018
415.50 2.017
415.60 2.016
415.70 2.014
415.80 2.013
415.90 2.011
416.00 2.01
416.10 2.008
416.20 2.007
416.30 2.006
416.40 2.004
416.50 2.002
416.60 2.001
416.70 1.999
416.80 1.998
416.90 1.996
417.00 1.995
417.10 1.993
417.20 1.991
417.30 1.99
417.40 1.988
417.50 1.987
417.60 1.985
417.70 1.983
417.80 1.982
417.90 1.98
418.00 1.978
418.10 1.977
418.20 1.975
418.30 1.973
418.40 1.972
418.50 1.97
418.60 1.968
418.70 1.967
418.80 1.965
418.90 1.963
419.00 1.961
419.10 1.96
419.20 1.958
419.30 1.956
419.40 1.955
419.50 1.953
419.60 1.951
419.70 1.95
419.80 1.948
419.90 1.946
420.00 1.944
420.10 1.943
420.20 1.941
420.30 1.939
420.40 1.938
420.50 1.936
420.60 1.934
420.70 1.932
420.80 1.931
420.90 1.929
421.00 1.927
421.10 1.925
421.20 1.924
421.30 1.922
421.40 1.92
421.50 1.919
421.60 1.917
421.70 1.915
421.80 1.913
421.90 1.912
422.00 1.91
422.10 1.908
422.20 1.907
422.30 1.905
422.40 1.903
422.50 1.901
422.60 1.9
422.70 1.898
422.80 1.896
422.90 1.894
423.00 1.893
423.10 1.891
423.20 1.889
423.30 1.888
423.40 1.886
423.50 1.884
423.60 1.882
423.70 1.881
423.80 1.879
423.90 1.877
424.00 1.876
424.10 1.874
424.20 1.872
424.30 1.87
424.40 1.869
424.50 1.867
424.60 1.865
424.70 1.863
424.80 1.862
424.90 1.86
425.00 1.858
425.10 1.856
425.20 1.855
425.30 1.853
425.40 1.851
425.50 1.849
425.60 1.848
425.70 1.846
425.80 1.844
425.90 1.842
426.00 1.841
426.10 1.839
426.20 1.837
426.30 1.835
426.40 1.834
426.50 1.832
426.60 1.83
426.70 1.828
426.80 1.826
426.90 1.825
427.00 1.823
427.10 1.821
427.20 1.819
427.30 1.817
427.40 1.816
427.50 1.814
427.60 1.812
427.70 1.81
427.80 1.808
427.90 1.806
428.00 1.804
428.10 1.802
428.20 1.8
428.30 1.798
428.40 1.797
428.50 1.795
428.60 1.793
428.70 1.79
428.80 1.788
428.90 1.786
429.00 1.784
429.10 1.782
429.20 1.78
429.30 1.778
429.40 1.776
429.50 1.773
429.60 1.771
429.70 1.769
429.80 1.766
429.90 1.764
430.00 1.761
430.10 1.759
430.20 1.756
430.30 1.753
430.40 1.75
430.50 1.747
430.60 1.744
430.70 1.741
430.80 1.738
430.90 1.735
431.00 1.731
431.10 1.727
431.20 1.724
431.30 1.72
431.40 1.716
431.50 1.711
431.60 1.707
431.70 1.702
431.80 1.697
431.90 1.691
432.00 1.686
432.10 1.68
432.20 1.673
432.30 1.666
432.40 1.659
432.50 1.652
432.60 1.644
432.70 1.635
432.80 1.626
432.90 1.616
433.00 1.606
433.10 1.596
433.20 1.584
433.30 1.573
433.40 1.56
433.50 1.547
433.60 1.533
433.70 1.518
433.80 1.502
433.90 1.485
434.00 1.47
434.10 1.47
434.20 1.483
434.30 1.497
434.40 1.511
434.50 1.523
434.60 1.534
434.70 1.544
434.80 1.554
434.90 1.563
435.00 1.571
435.10 1.579
435.20 1.586
435.30 1.593
435.40 1.599
435.50 1.604
435.60 1.609
435.70 1.614
435.80 1.618
435.90 1.622
436.00 1.625
436.10 1.628
436.20 1.631
436.30 1.633
436.40 1.635
436.50 1.637
436.60 1.638
436.70 1.64
436.80 1.641
436.90 1.642
437.00 1.642
437.10 1.643
437.20 1.643
437.30 1.644
437.40 1.644
437.50 1.644
437.60 1.644
437.70 1.643
437.80 1.643
437.90 1.643
438.00 1.642
438.10 1.642
438.20 1.641
438.30 1.641
438.40 1.64
438.50 1.639
438.60 1.639
438.70 1.638
438.80 1.637
438.90 1.636
439.00 1.635
439.10 1.634
439.20 1.633
439.30 1.632
439.40 1.631
439.50 1.63
439.60 1.629
439.70 1.628
439.80 1.627
439.90 1.626
440.00 1.625
440.10 1.624
440.20 1.623
440.30 1.621
440.40 1.62
440.50 1.619
440.60 1.618
440.70 1.617
440.80 1.615
440.90 1.614
441.00 1.613
441.10 1.612
441.20 1.611
441.30 1.609
441.40 1.608
441.50 1.607
441.60 1.606
441.70 1.604
441.80 1.603
441.90 1.602
442.00 1.6
442.10 1.599
442.20 1.598
442.30 1.597
442.40 1.595
442.50 1.594
442.60 1.593
442.70 1.591
442.80 1.59
442.90 1.589
443.00 1.588
443.10 1.586
443.20 1.585
443.30 1.584
443.40 1.582
443.50 1.581
443.60 1.58
443.70 1.578
443.80 1.577
443.90 1.576
444.00 1.575
444.10 1.573
444.20 1.572
444.30 1.571
444.40 1.569
444.50 1.568
444.60 1.567
444.70 1.565
444.80 1.564
444.90 1.563
445.00 1.561
445.10 1.56
445.20 1.559
445.30 1.558
445.40 1.556
445.50 1.555
445.60 1.554
445.70 1.552
445.80 1.551
445.90 1.55
446.00 1.548
446.10 1.547
446.20 1.546
446.30 1.545
446.40 1.543
446.50 1.542
446.60 1.541
446.70 1.539
446.80 1.538
446.90 1.537
447.00 1.535
447.10 1.534
447.20 1.533
447.30 1.532
447.40 1.53
447.50 1.529
447.60 1.528
447.70 1.526
447.80 1.525
447.90 1.524
448.00 1.523
448.10 1.521
448.20 1.52
448.30 1.519
448.40 1.517
448.50 1.516
448.60 1.515
448.70 1.514
448.80 1.512
448.90 1.511
449.00 1.51
449.10 1.508
449.20 1.507
449.30 1.506
449.40 1.505
449.50 1.503
449.60 1.502
449.70 1.501
449.80 1.5
449.90 1.498
450.00 1.497
450.10 1.496
450.20 1.495
450.30 1.493
450.40 1.492
450.50 1.491
450.60 1.489
450.70 1.488
450.80 1.487
450.90 1.486
451.00 1.484
451.10 1.483
451.20 1.482
451.30 1.481
451.40 1.479
451.50 1.478
451.60 1.477
451.70 1.476
451.80 1.474
451.90 1.473
452.00 1.472
452.10 1.471
452.20 1.47
452.30 1.468
452.40 1.467
452.50 1.466
452.60 1.465
452.70 1.463
452.80 1.462
452.90 1.461
453.00 1.46
453.10 1.458
453.20 1.457
453.30 1.456
453.40 1.455
453.50 1.454
453.60 1.452
453.70 1.451
453.80 1.45
453.90 1.449
454.00 1.447
454.10 1.446
