# Version 2.1 - nm, norm@500 to 1, cut digits, bergeron_15500_70.dat_15500
# Wavelength(nm)  Flambda(ergs/cm^s/s/nm)
300.00 2.25
300.10 2.249
300.20 2.247
300.30 2.245
300.40 2.243
300.50 2.242
300.60 2.24
300.70 2.238
300.80 2.236
300.90 2.235
301.00 2.233
301.10 2.231
301.20 2.229
301.30 2.228
301.40 2.226
301.50 2.224
301.60 2.222
301.70 2.221
301.80 2.219
301.90 2.217
302.00 2.215
302.10 2.214
302.20 2.212
302.30 2.21
302.40 2.208
302.50 2.207
302.60 2.205
302.70 2.203
302.80 2.202
302.90 2.2
303.00 2.198
303.10 2.196
303.20 2.195
303.30 2.193
303.40 2.191
303.50 2.19
303.60 2.188
303.70 2.186
303.80 2.184
303.90 2.183
304.00 2.181
304.10 2.179
304.20 2.178
304.30 2.176
304.40 2.174
304.50 2.173
304.60 2.171
304.70 2.169
304.80 2.167
304.90 2.166
305.00 2.164
305.10 2.162
305.20 2.161
305.30 2.159
305.40 2.157
305.50 2.156
305.60 2.154
305.70 2.152
305.80 2.151
305.90 2.149
306.00 2.147
306.10 2.146
306.20 2.144
306.30 2.142
306.40 2.141
306.50 2.139
306.60 2.137
306.70 2.136
306.80 2.134
306.90 2.133
307.00 2.131
307.10 2.129
307.20 2.128
307.30 2.126
307.40 2.124
307.50 2.123
307.60 2.121
307.70 2.119
307.80 2.118
307.90 2.116
308.00 2.115
308.10 2.113
308.20 2.111
308.30 2.11
308.40 2.108
308.50 2.106
308.60 2.105
308.70 2.103
308.80 2.102
308.90 2.1
309.00 2.098
309.10 2.097
309.20 2.095
309.30 2.094
309.40 2.092
309.50 2.09
309.60 2.089
309.70 2.087
309.80 2.086
309.90 2.084
310.00 2.082
310.10 2.081
310.20 2.079
310.30 2.078
310.40 2.076
310.50 2.074
310.60 2.073
310.70 2.071
310.80 2.07
310.90 2.068
311.00 2.066
311.10 2.065
311.20 2.063
311.30 2.062
311.40 2.06
311.50 2.059
311.60 2.057
311.70 2.055
311.80 2.054
311.90 2.052
312.00 2.051
312.10 2.049
312.20 2.048
312.30 2.046
312.40 2.045
312.50 2.043
312.60 2.041
312.70 2.04
312.80 2.038
312.90 2.037
313.00 2.035
313.10 2.034
313.20 2.032
313.30 2.031
313.40 2.029
313.50 2.028
313.60 2.026
313.70 2.024
313.80 2.023
313.90 2.021
314.00 2.02
314.10 2.018
314.20 2.017
314.30 2.015
314.40 2.014
314.50 2.012
314.60 2.011
314.70 2.009
314.80 2.008
314.90 2.006
315.00 2.005
315.10 2.003
315.20 2.002
315.30 2
315.40 1.999
315.50 1.997
315.60 1.996
315.70 1.994
315.80 1.993
315.90 1.991
316.00 1.99
316.10 1.988
316.20 1.987
316.30 1.985
316.40 1.984
316.50 1.982
316.60 1.981
316.70 1.979
316.80 1.978
316.90 1.976
317.00 1.975
317.10 1.973
317.20 1.972
317.30 1.97
317.40 1.969
317.50 1.967
317.60 1.966
317.70 1.964
317.80 1.963
317.90 1.961
318.00 1.96
318.10 1.958
318.20 1.957
318.30 1.955
318.40 1.954
318.50 1.953
318.60 1.951
318.70 1.95
318.80 1.948
318.90 1.947
319.00 1.945
319.10 1.944
319.20 1.942
319.30 1.941
319.40 1.939
319.50 1.938
319.60 1.937
319.70 1.935
319.80 1.934
319.90 1.932
320.00 1.931
320.10 1.929
320.20 1.928
320.30 1.926
320.40 1.925
320.50 1.924
320.60 1.922
320.70 1.921
320.80 1.919
320.90 1.918
321.00 1.916
321.10 1.915
321.20 1.914
321.30 1.912
321.40 1.911
321.50 1.909
321.60 1.908
321.70 1.907
321.80 1.905
321.90 1.904
322.00 1.902
322.10 1.901
322.20 1.899
322.30 1.898
322.40 1.897
322.50 1.895
322.60 1.894
322.70 1.892
322.80 1.891
322.90 1.89
323.00 1.888
323.10 1.887
323.20 1.885
323.30 1.884
323.40 1.883
323.50 1.881
323.60 1.88
323.70 1.878
323.80 1.877
323.90 1.876
324.00 1.874
324.10 1.873
324.20 1.872
324.30 1.87
324.40 1.869
324.50 1.867
324.60 1.866
324.70 1.865
324.80 1.863
324.90 1.862
325.00 1.861
325.10 1.859
325.20 1.858
325.30 1.856
325.40 1.855
325.50 1.854
325.60 1.852
325.70 1.851
325.80 1.85
325.90 1.848
326.00 1.847
326.10 1.846
326.20 1.844
326.30 1.843
326.40 1.841
326.50 1.84
326.60 1.839
326.70 1.837
326.80 1.836
326.90 1.835
327.00 1.833
327.10 1.832
327.20 1.831
327.30 1.829
327.40 1.828
327.50 1.827
327.60 1.825
327.70 1.824
327.80 1.823
327.90 1.821
328.00 1.82
328.10 1.819
328.20 1.817
328.30 1.816
328.40 1.815
328.50 1.813
328.60 1.812
328.70 1.811
328.80 1.809
328.90 1.808
329.00 1.807
329.10 1.805
329.20 1.804
329.30 1.803
329.40 1.802
329.50 1.8
329.60 1.799
329.70 1.798
329.80 1.796
329.90 1.795
330.00 1.794
330.10 1.792
330.20 1.791
330.30 1.79
330.40 1.788
330.50 1.787
330.60 1.786
330.70 1.785
330.80 1.783
330.90 1.782
331.00 1.781
331.10 1.779
331.20 1.778
331.30 1.777
331.40 1.776
331.50 1.774
331.60 1.773
331.70 1.772
331.80 1.77
331.90 1.769
332.00 1.768
332.10 1.767
332.20 1.765
332.30 1.764
332.40 1.763
332.50 1.761
332.60 1.76
332.70 1.759
332.80 1.758
332.90 1.756
333.00 1.755
333.10 1.754
333.20 1.753
333.30 1.751
333.40 1.75
333.50 1.749
333.60 1.748
333.70 1.746
333.80 1.745
333.90 1.744
334.00 1.742
334.10 1.741
334.20 1.74
334.30 1.739
334.40 1.737
334.50 1.736
334.60 1.735
334.70 1.734
334.80 1.732
334.90 1.731
335.00 1.73
335.10 1.729
335.20 1.728
335.30 1.726
335.40 1.725
335.50 1.724
335.60 1.723
335.70 1.721
335.80 1.72
335.90 1.719
336.00 1.718
336.10 1.716
336.20 1.715
336.30 1.714
336.40 1.713
336.50 1.711
336.60 1.71
336.70 1.709
336.80 1.708
336.90 1.707
337.00 1.705
337.10 1.704
337.20 1.703
337.30 1.702
337.40 1.7
337.50 1.699
337.60 1.698
337.70 1.697
337.80 1.696
337.90 1.694
338.00 1.693
338.10 1.692
338.20 1.691
338.30 1.69
338.40 1.688
338.50 1.687
338.60 1.686
338.70 1.685
338.80 1.684
338.90 1.682
339.00 1.681
339.10 1.68
339.20 1.679
339.30 1.678
339.40 1.676
339.50 1.675
339.60 1.674
339.70 1.673
339.80 1.672
339.90 1.67
340.00 1.669
340.10 1.668
340.20 1.667
340.30 1.666
340.40 1.665
340.50 1.663
340.60 1.662
340.70 1.661
340.80 1.66
340.90 1.659
341.00 1.657
341.10 1.656
341.20 1.655
341.30 1.654
341.40 1.653
341.50 1.652
341.60 1.65
341.70 1.649
341.80 1.648
341.90 1.647
342.00 1.646
342.10 1.645
342.20 1.643
342.30 1.642
342.40 1.641
342.50 1.64
342.60 1.639
342.70 1.638
342.80 1.636
342.90 1.635
343.00 1.634
343.10 1.633
343.20 1.632
343.30 1.631
343.40 1.63
343.50 1.628
343.60 1.627
343.70 1.626
343.80 1.625
343.90 1.624
344.00 1.623
344.10 1.622
344.20 1.62
344.30 1.619
344.40 1.618
344.50 1.617
344.60 1.616
344.70 1.615
344.80 1.614
344.90 1.612
345.00 1.611
345.10 1.61
345.20 1.609
345.30 1.608
345.40 1.607
345.50 1.606
345.60 1.605
345.70 1.603
345.80 1.602
345.90 1.601
346.00 1.6
346.10 1.599
346.20 1.598
346.30 1.597
346.40 1.596
346.50 1.594
346.60 1.593
346.70 1.592
346.80 1.591
346.90 1.59
347.00 1.589
347.10 1.588
347.20 1.587
347.30 1.586
347.40 1.584
347.50 1.583
347.60 1.582
347.70 1.581
347.80 1.58
347.90 1.579
348.00 1.578
348.10 1.577
348.20 1.576
348.30 1.575
348.40 1.573
348.50 1.572
348.60 1.571
348.70 1.57
348.80 1.569
348.90 1.568
349.00 1.567
349.10 1.566
349.20 1.565
349.30 1.564
349.40 1.563
349.50 1.561
349.60 1.56
349.70 1.559
349.80 1.558
349.90 1.557
350.00 1.556
350.10 1.555
350.20 1.554
350.30 1.553
350.40 1.552
350.50 1.551
350.60 1.55
350.70 1.548
350.80 1.547
350.90 1.546
351.00 1.545
351.10 1.544
351.20 1.543
351.30 1.542
351.40 1.541
351.50 1.54
351.60 1.539
351.70 1.538
351.80 1.537
351.90 1.536
352.00 1.535
352.10 1.534
352.20 1.532
352.30 1.531
352.40 1.53
352.50 1.529
352.60 1.528
352.70 1.527
352.80 1.526
352.90 1.525
353.00 1.524
353.10 1.523
353.20 1.522
353.30 1.521
353.40 1.52
353.50 1.519
353.60 1.518
353.70 1.517
353.80 1.516
353.90 1.515
354.00 1.514
354.10 1.513
354.20 1.511
354.30 1.51
354.40 1.509
354.50 1.508
354.60 1.507
354.70 1.506
354.80 1.505
354.90 1.504
355.00 1.503
355.10 1.502
355.20 1.501
355.30 1.5
355.40 1.499
355.50 1.498
355.60 1.497
355.70 1.496
355.80 1.495
355.90 1.494
356.00 1.493
356.10 1.492
356.20 1.491
356.30 1.49
356.40 1.489
356.50 1.488
356.60 1.487
356.70 1.486
356.80 1.485
356.90 1.484
357.00 1.483
357.10 1.482
357.20 1.481
357.30 1.48
357.40 1.479
357.50 1.478
357.60 1.477
357.70 1.476
357.80 1.475
357.90 1.474
358.00 1.473
358.10 1.472
358.20 1.471
358.30 1.47
358.40 1.469
358.50 1.468
358.60 1.467
358.70 1.466
358.80 1.465
358.90 1.464
359.00 1.463
359.10 1.462
359.20 1.461
359.30 1.46
359.40 1.459
359.50 1.458
359.60 1.457
359.70 1.456
359.80 1.455
359.90 1.454
360.00 1.453
360.10 1.452
360.20 1.451
360.30 1.45
360.40 1.449
360.50 1.448
360.60 1.447
360.70 1.446
360.80 1.445
360.90 1.444
361.00 1.443
361.10 1.442
361.20 1.441
361.30 1.44
361.40 1.439
361.50 1.438
361.60 1.437
361.70 1.436
361.80 1.435
361.90 1.434
362.00 1.433
362.10 1.432
362.20 1.431
362.30 1.43
362.40 1.429
362.50 1.428
362.60 1.427
362.70 1.426
362.80 1.425
362.90 1.424
363.00 1.423
363.10 1.422
363.20 1.421
363.30 1.42
363.40 1.419
363.50 1.418
363.60 1.417
363.70 1.416
363.80 1.415
363.90 1.414
364.00 1.413
364.10 1.413
364.20 1.412
364.30 1.411
364.40 1.41
364.50 1.409
364.60 1.408
364.70 1.407
364.80 1.406
364.90 1.405
365.00 1.404
365.10 1.403
365.20 1.402
365.30 1.401
365.40 1.4
365.50 1.399
365.60 1.398
365.70 1.397
365.80 1.396
365.90 1.395
366.00 1.394
366.10 1.393
366.20 1.392
366.30 1.392
366.40 1.391
366.50 1.39
366.60 1.389
366.70 1.388
366.80 1.387
366.90 1.386
367.00 1.385
367.10 1.384
367.20 1.384
367.30 1.383
367.40 1.382
367.50 1.381
367.60 1.38
367.70 1.379
367.80 1.378
367.90 1.377
368.00 1.376
368.10 1.376
368.20 1.376
368.30 1.376
368.40 1.376
368.50 1.376
368.60 1.375
368.70 1.375
368.80 1.375
368.90 1.375
369.00 1.375
369.10 1.375
369.20 1.374
369.30 1.374
369.40 1.374
369.50 1.374
369.60 1.374
369.70 1.374
369.80 1.373
369.90 1.373
370.00 1.373
370.10 1.375
370.20 1.376
370.30 1.378
370.40 1.379
370.50 1.381
370.60 1.382
370.70 1.384
370.80 1.386
370.90 1.387
371.00 1.389
371.10 1.39
371.20 1.392
371.30 1.393
371.40 1.395
371.50 1.396
371.60 1.398
371.70 1.399
371.80 1.401
371.90 1.403
372.00 1.404
372.10 1.407
372.20 1.411
372.30 1.414
372.40 1.418
372.50 1.421
372.60 1.425
372.70 1.428
372.80 1.431
372.90 1.435
373.00 1.438
373.10 1.441
373.20 1.445
373.30 1.448
373.40 1.452
373.50 1.455
373.60 1.458
373.70 1.462
373.80 1.465
373.90 1.468
374.00 1.472
374.10 1.476
374.20 1.48
374.30 1.483
374.40 1.487
374.50 1.491
374.60 1.495
374.70 1.499
374.80 1.503
374.90 1.507
375.00 1.511
375.10 1.515
375.20 1.519
375.30 1.522
375.40 1.526
375.50 1.53
375.60 1.534
375.70 1.538
375.80 1.542
375.90 1.546
376.00 1.549
376.10 1.551
376.20 1.553
376.30 1.555
376.40 1.557
376.50 1.559
376.60 1.561
376.70 1.563
376.80 1.565
376.90 1.567
377.00 1.569
377.10 1.565
377.20 1.562
377.30 1.558
377.40 1.555
377.50 1.551
377.60 1.548
377.70 1.544
377.80 1.541
377.90 1.537
378.00 1.534
378.10 1.514
378.20 1.495
378.30 1.476
378.40 1.457
378.50 1.438
378.60 1.419
378.70 1.4
378.80 1.381
378.90 1.362
379.00 1.342
379.10 1.328
379.20 1.313
379.30 1.299
379.40 1.284
379.50 1.269
379.60 1.255
379.70 1.24
379.80 1.226
379.90 1.211
380.00 1.196
380.10 1.22
380.20 1.243
380.30 1.266
380.40 1.289
380.50 1.312
380.60 1.335
380.70 1.358
380.80 1.381
380.90 1.404
381.00 1.427
381.10 1.437
381.20 1.447
381.30 1.457
381.40 1.467
381.50 1.476
381.60 1.477
381.70 1.474
381.80 1.469
381.90 1.46
382.00 1.448
382.10 1.432
382.20 1.413
382.30 1.38
382.40 1.347
382.50 1.314
382.60 1.281
382.70 1.248
382.80 1.216
382.90 1.183
383.00 1.15
383.10 1.117
383.20 1.085
383.30 1.053
383.40 1.019
383.50 0.9823
383.60 0.9897
383.70 1.026
383.80 1.059
383.90 1.09
384.00 1.123
384.10 1.159
384.20 1.197
384.30 1.236
384.40 1.275
384.50 1.313
384.60 1.348
384.70 1.381
384.80 1.411
384.90 1.439
385.00 1.463
385.10 1.483
385.20 1.502
385.30 1.518
385.40 1.531
385.50 1.543
385.60 1.553
385.70 1.56
385.80 1.566
385.90 1.57
386.00 1.572
386.10 1.572
386.20 1.571
386.30 1.568
386.40 1.563
386.50 1.557
386.60 1.548
386.70 1.538
386.80 1.527
386.90 1.512
387.00 1.497
387.10 1.48
387.20 1.46
387.30 1.438
387.40 1.415
387.50 1.388
387.60 1.358
387.70 1.327
387.80 1.291
387.90 1.253
388.00 1.213
388.10 1.169
388.20 1.125
388.30 1.08
388.40 1.037
388.50 0.9952
388.60 0.9555
388.70 0.9153
388.80 0.8744
388.90 0.8328
389.00 0.8709
389.10 0.9097
389.20 0.9494
389.30 0.9881
389.40 1.029
389.50 1.071
389.60 1.115
389.70 1.159
389.80 1.202
389.90 1.243
390.00 1.281
390.10 1.318
390.20 1.351
390.30 1.382
390.40 1.411
390.50 1.437
390.60 1.462
390.70 1.485
390.80 1.506
390.90 1.526
391.00 1.546
391.10 1.563
391.20 1.58
391.30 1.596
391.40 1.61
391.50 1.623
391.60 1.636
391.70 1.647
391.80 1.658
391.90 1.668
392.00 1.676
392.10 1.684
392.20 1.69
392.30 1.696
392.40 1.7
392.50 1.704
392.60 1.707
392.70 1.708
392.80 1.709
392.90 1.708
393.00 1.707
393.10 1.705
393.20 1.701
393.30 1.697
393.40 1.691
393.50 1.684
393.60 1.677
393.70 1.668
393.80 1.658
393.90 1.648
394.00 1.636
394.10 1.623
394.20 1.609
394.30 1.594
394.40 1.577
394.50 1.56
394.60 1.542
394.70 1.523
394.80 1.502
394.90 1.481
395.00 1.459
395.10 1.436
395.20 1.411
395.30 1.385
395.40 1.359
395.50 1.331
395.60 1.3
395.70 1.269
395.80 1.236
395.90 1.201
396.00 1.164
396.10 1.126
396.20 1.086
396.30 1.043
396.40 1
396.50 0.9567
396.60 0.9141
396.70 0.8726
396.80 0.8295
396.90 0.7771
397.00 0.7154
397.10 0.7719
397.20 0.8218
397.30 0.8648
397.40 0.9053
397.50 0.9466
397.60 0.9889
397.70 1.031
397.80 1.072
397.90 1.112
398.00 1.149
398.10 1.184
398.20 1.219
398.30 1.25
398.40 1.281
398.50 1.31
398.60 1.337
398.70 1.363
398.80 1.388
398.90 1.412
399.00 1.435
399.10 1.457
399.20 1.478
399.30 1.498
399.40 1.518
399.50 1.536
399.60 1.554
399.70 1.572
399.80 1.588
399.90 1.604
400.00 1.619
400.10 1.633
400.20 1.647
400.30 1.66
400.40 1.672
400.50 1.683
400.60 1.694
400.70 1.704
400.80 1.714
400.90 1.723
401.00 1.731
401.10 1.739
401.20 1.747
401.30 1.754
401.40 1.76
401.50 1.766
401.60 1.771
401.70 1.777
401.80 1.781
401.90 1.785
402.00 1.789
402.10 1.793
402.20 1.796
402.30 1.798
402.40 1.801
402.50 1.803
402.60 1.804
402.70 1.806
402.80 1.807
402.90 1.808
403.00 1.808
403.10 1.808
403.20 1.808
403.30 1.808
403.40 1.807
403.50 1.806
403.60 1.805
403.70 1.803
403.80 1.801
403.90 1.799
404.00 1.797
404.10 1.794
404.20 1.791
404.30 1.788
404.40 1.785
404.50 1.781
404.60 1.777
404.70 1.772
404.80 1.768
404.90 1.762
405.00 1.757
405.10 1.751
405.20 1.745
405.30 1.738
405.40 1.732
405.50 1.724
405.60 1.716
405.70 1.708
405.80 1.7
405.90 1.691
406.00 1.681
406.10 1.671
406.20 1.661
406.30 1.65
406.40 1.638
406.50 1.626
406.60 1.613
406.70 1.6
406.80 1.586
406.90 1.572
407.00 1.556
407.10 1.54
407.20 1.524
407.30 1.506
407.40 1.488
407.50 1.469
407.60 1.449
407.70 1.429
407.80 1.408
407.90 1.386
408.00 1.363
408.10 1.34
408.20 1.316
408.30 1.292
408.40 1.267
408.50 1.241
408.60 1.215
408.70 1.188
408.80 1.161
408.90 1.132
409.00 1.103
409.10 1.073
409.20 1.041
409.30 1.009
409.40 0.9742
409.50 0.9382
409.60 0.901
409.70 0.8629
409.80 0.8248
409.90 0.7868
410.00 0.7409
410.10 0.6905
410.20 0.6356
410.30 0.7085
410.40 0.765
410.50 0.8052
410.60 0.8423
410.70 0.8793
410.80 0.9163
410.90 0.9515
411.00 0.9854
411.10 1.018
411.20 1.048
411.30 1.077
411.40 1.106
411.50 1.133
411.60 1.159
411.70 1.185
411.80 1.209
411.90 1.233
412.00 1.257
412.10 1.279
412.20 1.302
412.30 1.323
412.40 1.344
412.50 1.364
412.60 1.383
412.70 1.402
412.80 1.42
412.90 1.437
413.00 1.454
413.10 1.469
413.20 1.485
413.30 1.499
413.40 1.512
413.50 1.525
413.60 1.537
413.70 1.549
413.80 1.56
413.90 1.57
414.00 1.58
414.10 1.59
414.20 1.599
414.30 1.607
414.40 1.615
414.50 1.623
414.60 1.63
414.70 1.637
414.80 1.643
414.90 1.649
415.00 1.655
415.10 1.661
415.20 1.666
415.30 1.671
415.40 1.675
415.50 1.679
415.60 1.684
415.70 1.687
415.80 1.691
415.90 1.694
416.00 1.697
416.10 1.7
416.20 1.703
416.30 1.705
416.40 1.708
416.50 1.71
416.60 1.712
416.70 1.714
416.80 1.716
416.90 1.718
417.00 1.719
417.10 1.721
417.20 1.722
417.30 1.723
417.40 1.724
417.50 1.725
417.60 1.726
417.70 1.727
417.80 1.728
417.90 1.728
418.00 1.729
418.10 1.729
418.20 1.729
418.30 1.73
418.40 1.73
418.50 1.73
418.60 1.73
418.70 1.73
418.80 1.73
418.90 1.73
419.00 1.73
419.10 1.73
419.20 1.73
419.30 1.729
419.40 1.729
419.50 1.729
419.60 1.728
419.70 1.728
419.80 1.727
419.90 1.727
420.00 1.726
420.10 1.726
420.20 1.725
420.30 1.724
420.40 1.724
420.50 1.723
420.60 1.722
420.70 1.721
420.80 1.72
420.90 1.719
421.00 1.719
421.10 1.718
421.20 1.717
421.30 1.716
421.40 1.715
421.50 1.714
421.60 1.713
421.70 1.711
421.80 1.71
421.90 1.709
422.00 1.708
422.10 1.707
422.20 1.705
422.30 1.704
422.40 1.703
422.50 1.701
422.60 1.7
422.70 1.699
422.80 1.697
422.90 1.696
423.00 1.694
423.10 1.693
423.20 1.691
423.30 1.69
423.40 1.688
423.50 1.687
423.60 1.685
423.70 1.683
423.80 1.681
423.90 1.68
424.00 1.678
424.10 1.676
424.20 1.674
424.30 1.672
424.40 1.67
424.50 1.668
424.60 1.666
424.70 1.664
424.80 1.662
424.90 1.66
425.00 1.657
425.10 1.655
425.20 1.653
425.30 1.65
425.40 1.648
425.50 1.645
425.60 1.643
425.70 1.64
425.80 1.638
425.90 1.635
426.00 1.632
426.10 1.629
426.20 1.626
426.30 1.622
426.40 1.619
426.50 1.616
426.60 1.613
426.70 1.609
426.80 1.606
426.90 1.602
427.00 1.599
427.10 1.595
427.20 1.591
427.30 1.587
427.40 1.583
427.50 1.579
427.60 1.574
427.70 1.57
427.80 1.565
427.90 1.561
428.00 1.556
428.10 1.551
428.20 1.546
428.30 1.54
428.40 1.535
428.50 1.529
428.60 1.523
428.70 1.517
428.80 1.511
428.90 1.504
429.00 1.497
429.10 1.491
429.20 1.483
429.30 1.476
429.40 1.468
429.50 1.46
429.60 1.452
429.70 1.443
429.80 1.435
429.90 1.425
430.00 1.416
430.10 1.406
430.20 1.396
430.30 1.386
430.40 1.375
430.50 1.364
430.60 1.352
430.70 1.34
430.80 1.328
430.90 1.316
431.00 1.302
431.10 1.289
431.20 1.275
431.30 1.261
431.40 1.246
431.50 1.231
431.60 1.215
431.70 1.198
431.80 1.181
431.90 1.163
432.00 1.145
432.10 1.125
432.20 1.105
432.30 1.084
432.40 1.062
432.50 1.038
432.60 1.014
432.70 0.9888
432.80 0.963
432.90 0.9375
433.00 0.9123
433.10 0.888
433.20 0.8632
433.30 0.8381
433.40 0.8107
433.50 0.7821
433.60 0.7525
433.70 0.7208
433.80 0.6861
433.90 0.6484
434.00 0.5582
434.10 0.5593
434.20 0.6514
434.30 0.6877
434.40 0.7212
434.50 0.7519
434.60 0.7806
434.70 0.8081
434.80 0.8344
434.90 0.8584
435.00 0.8819
435.10 0.9051
435.20 0.9291
435.30 0.9533
435.40 0.9775
435.50 1.001
435.60 1.024
435.70 1.046
435.80 1.066
435.90 1.085
436.00 1.104
436.10 1.121
436.20 1.138
436.30 1.154
436.40 1.169
436.50 1.183
436.60 1.197
436.70 1.21
436.80 1.223
436.90 1.235
437.00 1.247
437.10 1.258
437.20 1.269
437.30 1.279
437.40 1.289
437.50 1.299
437.60 1.308
437.70 1.316
437.80 1.325
437.90 1.333
438.00 1.34
438.10 1.348
438.20 1.355
438.30 1.361
438.40 1.368
438.50 1.374
438.60 1.379
438.70 1.385
438.80 1.39
438.90 1.395
439.00 1.399
439.10 1.404
439.20 1.408
439.30 1.412
439.40 1.416
439.50 1.419
439.60 1.423
439.70 1.426
439.80 1.429
439.90 1.432
440.00 1.434
440.10 1.437
440.20 1.439
440.30 1.441
440.40 1.443
440.50 1.446
440.60 1.447
440.70 1.449
440.80 1.451
440.90 1.452
441.00 1.454
441.10 1.455
441.20 1.456
441.30 1.457
441.40 1.458
441.50 1.459
441.60 1.46
441.70 1.461
441.80 1.462
441.90 1.462
442.00 1.463
442.10 1.463
442.20 1.464
442.30 1.464
442.40 1.464
442.50 1.465
442.60 1.465
442.70 1.465
442.80 1.465
442.90 1.465
443.00 1.465
443.10 1.465
443.20 1.465
443.30 1.465
443.40 1.465
443.50 1.465
443.60 1.465
443.70 1.465
443.80 1.464
443.90 1.464
444.00 1.464
444.10 1.463
444.20 1.463
444.30 1.463
444.40 1.462
444.50 1.462
444.60 1.461
444.70 1.461
444.80 1.46
444.90 1.46
445.00 1.459
445.10 1.459
445.20 1.458
445.30 1.458
445.40 1.457
445.50 1.456
445.60 1.456
445.70 1.455
445.80 1.454
445.90 1.454
446.00 1.453
446.10 1.452
446.20 1.452
446.30 1.451
446.40 1.45
446.50 1.449
446.60 1.449
446.70 1.448
446.80 1.447
446.90 1.446
447.00 1.446
447.10 1.445
447.20 1.444
447.30 1.443
447.40 1.442
447.50 1.442
447.60 1.441
447.70 1.44
447.80 1.439
447.90 1.438
448.00 1.437
448.10 1.437
448.20 1.436
448.30 1.435
448.40 1.434
448.50 1.433
448.60 1.432
448.70 1.431
448.80 1.431
448.90 1.43
449.00 1.429
449.10 1.428
449.20 1.427
449.30 1.426
449.40 1.425
449.50 1.425
449.60 1.424
449.70 1.423
449.80 1.422
449.90 1.421
450.00 1.42
450.10 1.419
450.20 1.418
450.30 1.417
450.40 1.416
450.50 1.416
450.60 1.415
450.70 1.414
450.80 1.413
450.90 1.412
451.00 1.411
451.10 1.41
451.20 1.409
451.30 1.408
451.40 1.407
451.50 1.406
451.60 1.405
451.70 1.404
451.80 1.404
451.90 1.403
452.00 1.402
452.10 1.401
452.20 1.4
452.30 1.399
452.40 1.398
452.50 1.397
452.60 1.396
452.70 1.395
452.80 1.394
452.90 1.393
453.00 1.392
453.10 1.391
453.20 1.39
453.30 1.389
453.40 1.388
453.50 1.388
