# Version 2.1 - nm, norm@500 to 1, cut digits, bergeron_3000_70.dat_3000
# Wavelength(nm)  Flambda(ergs/cm^s/s/nm)
300.00 0.06871
300.10 0.0689
300.20 0.0691
300.30 0.0693
300.40 0.0695
300.50 0.0697
300.60 0.0699
300.70 0.0701
300.80 0.0703
300.90 0.0705
301.00 0.0707
301.10 0.0709
301.20 0.07109
301.30 0.07129
301.40 0.07149
301.50 0.07169
301.60 0.07188
301.70 0.07208
301.80 0.07228
301.90 0.07248
302.00 0.07268
302.10 0.07288
302.20 0.07309
302.30 0.0733
302.40 0.0735
302.50 0.07371
302.60 0.07392
302.70 0.07413
302.80 0.07433
302.90 0.07454
303.00 0.07475
303.10 0.07495
303.20 0.07516
303.30 0.07536
303.40 0.07557
303.50 0.07577
303.60 0.07598
303.70 0.07618
303.80 0.07638
303.90 0.07659
304.00 0.0768
304.10 0.07701
304.20 0.07722
304.30 0.07744
304.40 0.07765
304.50 0.07787
304.60 0.07808
304.70 0.0783
304.80 0.07851
304.90 0.07873
305.00 0.07894
305.10 0.07915
305.20 0.07937
305.30 0.07958
305.40 0.07979
305.50 0.08
305.60 0.08021
305.70 0.08043
305.80 0.08064
305.90 0.08085
306.00 0.08107
306.10 0.08129
306.20 0.08151
306.30 0.08173
306.40 0.08195
306.50 0.08217
306.60 0.0824
306.70 0.08262
306.80 0.08284
306.90 0.08306
307.00 0.08328
307.10 0.0835
307.20 0.08372
307.30 0.08394
307.40 0.08416
307.50 0.08438
307.60 0.0846
307.70 0.08482
307.80 0.08504
307.90 0.08526
308.00 0.08548
308.10 0.08571
308.20 0.08594
308.30 0.08617
308.40 0.0864
308.50 0.08663
308.60 0.08686
308.70 0.08709
308.80 0.08732
308.90 0.08754
309.00 0.08777
309.10 0.088
309.20 0.08823
309.30 0.08846
309.40 0.08868
309.50 0.08891
309.60 0.08914
309.70 0.08936
309.80 0.08959
309.90 0.08982
310.00 0.09005
310.10 0.09028
310.20 0.09052
310.30 0.09076
310.40 0.091
310.50 0.09123
310.60 0.09147
310.70 0.09171
310.80 0.09195
310.90 0.09218
311.00 0.09242
311.10 0.09266
311.20 0.09289
311.30 0.09313
311.40 0.09336
311.50 0.0936
311.60 0.09383
311.70 0.09407
311.80 0.0943
311.90 0.09453
312.00 0.09477
312.10 0.095
312.20 0.09524
312.30 0.09548
312.40 0.09572
312.50 0.09597
312.60 0.09622
312.70 0.09646
312.80 0.09671
312.90 0.09695
313.00 0.09719
313.10 0.09744
313.20 0.09768
313.30 0.09792
313.40 0.09817
313.50 0.09841
313.60 0.09865
313.70 0.09889
313.80 0.09914
313.90 0.09938
314.00 0.09963
314.10 0.09987
314.20 0.1001
314.30 0.1004
314.40 0.1006
314.50 0.1009
314.60 0.1011
314.70 0.1014
314.80 0.1016
314.90 0.1019
315.00 0.1021
315.10 0.1024
315.20 0.1026
315.30 0.1029
315.40 0.1031
315.50 0.1034
315.60 0.1036
315.70 0.1039
315.80 0.1041
315.90 0.1044
316.00 0.1047
316.10 0.1049
316.20 0.1052
316.30 0.1054
316.40 0.1057
316.50 0.1059
316.60 0.1062
316.70 0.1065
316.80 0.1067
316.90 0.107
317.00 0.1072
317.10 0.1075
317.20 0.1078
317.30 0.108
317.40 0.1083
317.50 0.1085
317.60 0.1088
317.70 0.109
317.80 0.1093
317.90 0.1096
318.00 0.1098
318.10 0.1101
318.20 0.1103
318.30 0.1106
318.40 0.1109
318.50 0.1112
318.60 0.1114
318.70 0.1117
318.80 0.112
318.90 0.1122
319.00 0.1125
319.10 0.1128
319.20 0.113
319.30 0.1133
319.40 0.1135
319.50 0.1138
319.60 0.1141
319.70 0.1143
319.80 0.1146
319.90 0.1149
320.00 0.1151
320.10 0.1154
320.20 0.1157
320.30 0.116
320.40 0.1162
320.50 0.1165
320.60 0.1168
320.70 0.1171
320.80 0.1173
320.90 0.1176
321.00 0.1179
321.10 0.1182
321.20 0.1184
321.30 0.1187
321.40 0.119
321.50 0.1193
321.60 0.1195
321.70 0.1198
321.80 0.1201
321.90 0.1203
322.00 0.1206
322.10 0.1209
322.20 0.1212
322.30 0.1215
322.40 0.1217
322.50 0.122
322.60 0.1223
322.70 0.1226
322.80 0.1229
322.90 0.1232
323.00 0.1234
323.10 0.1237
323.20 0.124
323.30 0.1243
323.40 0.1246
323.50 0.1248
323.60 0.1251
323.70 0.1254
323.80 0.1257
323.90 0.126
324.00 0.1262
324.10 0.1265
324.20 0.1268
324.30 0.1271
324.40 0.1274
324.50 0.1277
324.60 0.128
324.70 0.1283
324.80 0.1286
324.90 0.1289
325.00 0.1291
325.10 0.1294
325.20 0.1297
325.30 0.13
325.40 0.1303
325.50 0.1306
325.60 0.1309
325.70 0.1312
325.80 0.1314
325.90 0.1317
326.00 0.132
326.10 0.1323
326.20 0.1326
326.30 0.1329
326.40 0.1332
326.50 0.1335
326.60 0.1338
326.70 0.1341
326.80 0.1344
326.90 0.1347
327.00 0.135
327.10 0.1353
327.20 0.1356
327.30 0.1359
327.40 0.1362
327.50 0.1365
327.60 0.1368
327.70 0.1371
327.80 0.1374
327.90 0.1377
328.00 0.138
328.10 0.1383
328.20 0.1386
328.30 0.1389
328.40 0.1392
328.50 0.1395
328.60 0.1398
328.70 0.1401
328.80 0.1404
328.90 0.1407
329.00 0.141
329.10 0.1413
329.20 0.1416
329.30 0.1419
329.40 0.1422
329.50 0.1425
329.60 0.1428
329.70 0.1431
329.80 0.1434
329.90 0.1437
330.00 0.144
330.10 0.1443
330.20 0.1447
330.30 0.145
330.40 0.1453
330.50 0.1456
330.60 0.1459
330.70 0.1462
330.80 0.1465
330.90 0.1469
331.00 0.1472
331.10 0.1475
331.20 0.1478
331.30 0.1481
331.40 0.1484
331.50 0.1487
331.60 0.149
331.70 0.1493
331.80 0.1496
331.90 0.15
332.00 0.1503
332.10 0.1506
332.20 0.1509
332.30 0.1512
332.40 0.1516
332.50 0.1519
332.60 0.1522
332.70 0.1525
332.80 0.1528
332.90 0.1532
333.00 0.1535
333.10 0.1538
333.20 0.1541
333.30 0.1544
333.40 0.1548
333.50 0.1551
333.60 0.1554
333.70 0.1557
333.80 0.156
333.90 0.1563
334.00 0.1567
334.10 0.157
334.20 0.1573
334.30 0.1576
334.40 0.158
334.50 0.1583
334.60 0.1586
334.70 0.159
334.80 0.1593
334.90 0.1596
335.00 0.1599
335.10 0.1603
335.20 0.1606
335.30 0.1609
335.40 0.1612
335.50 0.1616
335.60 0.1619
335.70 0.1622
335.80 0.1625
335.90 0.1629
336.00 0.1632
336.10 0.1635
336.20 0.1639
336.30 0.1642
336.40 0.1645
336.50 0.1649
336.60 0.1652
336.70 0.1655
336.80 0.1659
336.90 0.1662
337.00 0.1666
337.10 0.1669
337.20 0.1672
337.30 0.1676
337.40 0.1679
337.50 0.1682
337.60 0.1685
337.70 0.1689
337.80 0.1692
337.90 0.1695
338.00 0.1699
338.10 0.1702
338.20 0.1706
338.30 0.1709
338.40 0.1713
338.50 0.1716
338.60 0.1719
338.70 0.1723
338.80 0.1726
338.90 0.173
339.00 0.1733
339.10 0.1737
339.20 0.174
339.30 0.1743
339.40 0.1747
339.50 0.175
339.60 0.1754
339.70 0.1757
339.80 0.176
339.90 0.1764
340.00 0.1767
340.10 0.1771
340.20 0.1774
340.30 0.1778
340.40 0.1781
340.50 0.1785
340.60 0.1788
340.70 0.1792
340.80 0.1795
340.90 0.1799
341.00 0.1802
341.10 0.1806
341.20 0.1809
341.30 0.1813
341.40 0.1816
341.50 0.182
341.60 0.1823
341.70 0.1826
341.80 0.183
341.90 0.1833
342.00 0.1837
342.10 0.184
342.20 0.1844
342.30 0.1848
342.40 0.1851
342.50 0.1855
342.60 0.1858
342.70 0.1862
342.80 0.1866
342.90 0.1869
343.00 0.1873
343.10 0.1876
343.20 0.188
343.30 0.1883
343.40 0.1887
343.50 0.189
343.60 0.1894
343.70 0.1898
343.80 0.1901
343.90 0.1905
344.00 0.1908
344.10 0.1912
344.20 0.1915
344.30 0.1919
344.40 0.1923
344.50 0.1926
344.60 0.193
344.70 0.1934
344.80 0.1937
344.90 0.1941
345.00 0.1945
345.10 0.1948
345.20 0.1952
345.30 0.1956
345.40 0.1959
345.50 0.1963
345.60 0.1966
345.70 0.197
345.80 0.1974
345.90 0.1977
346.00 0.1981
346.10 0.1985
346.20 0.1988
346.30 0.1992
346.40 0.1996
346.50 0.2
346.60 0.2003
346.70 0.2007
346.80 0.2011
346.90 0.2014
347.00 0.2018
347.10 0.2022
347.20 0.2026
347.30 0.2029
347.40 0.2033
347.50 0.2037
347.60 0.204
347.70 0.2044
347.80 0.2048
347.90 0.2051
348.00 0.2055
348.10 0.2059
348.20 0.2063
348.30 0.2066
348.40 0.207
348.50 0.2074
348.60 0.2078
348.70 0.2082
348.80 0.2085
348.90 0.2089
349.00 0.2093
349.10 0.2097
349.20 0.2101
349.30 0.2104
349.40 0.2108
349.50 0.2112
349.60 0.2116
349.70 0.2119
349.80 0.2123
349.90 0.2127
350.00 0.2131
350.10 0.2134
350.20 0.2138
350.30 0.2142
350.40 0.2146
350.50 0.215
350.60 0.2154
350.70 0.2158
350.80 0.2162
350.90 0.2165
351.00 0.2169
351.10 0.2173
351.20 0.2177
351.30 0.2181
351.40 0.2185
351.50 0.2188
351.60 0.2192
351.70 0.2196
351.80 0.22
351.90 0.2204
352.00 0.2207
352.10 0.2211
352.20 0.2215
352.30 0.2219
352.40 0.2223
352.50 0.2227
352.60 0.2231
352.70 0.2235
352.80 0.2239
352.90 0.2243
353.00 0.2247
353.10 0.2251
353.20 0.2255
353.30 0.2259
353.40 0.2263
353.50 0.2266
353.60 0.227
353.70 0.2274
353.80 0.2278
353.90 0.2282
354.00 0.2286
354.10 0.229
354.20 0.2294
354.30 0.2298
354.40 0.2302
354.50 0.2306
354.60 0.231
354.70 0.2314
354.80 0.2318
354.90 0.2322
355.00 0.2326
355.10 0.233
355.20 0.2334
355.30 0.2338
355.40 0.2342
355.50 0.2346
355.60 0.235
355.70 0.2354
355.80 0.2358
355.90 0.2362
356.00 0.2365
356.10 0.237
356.20 0.2374
356.30 0.2378
356.40 0.2382
356.50 0.2386
356.60 0.239
356.70 0.2394
356.80 0.2398
356.90 0.2402
357.00 0.2406
357.10 0.241
357.20 0.2414
357.30 0.2418
357.40 0.2422
357.50 0.2426
357.60 0.243
357.70 0.2434
357.80 0.2438
357.90 0.2442
358.00 0.2446
358.10 0.2451
358.20 0.2455
358.30 0.2459
358.40 0.2463
358.50 0.2467
358.60 0.2471
358.70 0.2476
358.80 0.248
358.90 0.2484
359.00 0.2488
359.10 0.2492
359.20 0.2496
359.30 0.25
359.40 0.2504
359.50 0.2508
359.60 0.2513
359.70 0.2517
359.80 0.2521
359.90 0.2525
360.00 0.2529
360.10 0.2533
360.20 0.2537
360.30 0.2542
360.40 0.2546
360.50 0.255
360.60 0.2554
360.70 0.2558
360.80 0.2563
360.90 0.2567
361.00 0.2571
361.10 0.2575
361.20 0.2579
361.30 0.2583
361.40 0.2588
361.50 0.2592
361.60 0.2596
361.70 0.26
361.80 0.2604
361.90 0.2608
362.00 0.2613
362.10 0.2617
362.20 0.2621
362.30 0.2625
362.40 0.263
362.50 0.2634
362.60 0.2638
362.70 0.2642
362.80 0.2646
362.90 0.2651
363.00 0.2655
363.10 0.2659
363.20 0.2663
363.30 0.2668
363.40 0.2672
363.50 0.2676
363.60 0.2681
363.70 0.2685
363.80 0.2689
363.90 0.2693
364.00 0.2698
364.10 0.2702
364.20 0.2706
364.30 0.271
364.40 0.2715
364.50 0.2719
364.60 0.2723
364.70 0.2728
364.80 0.2732
364.90 0.2736
365.00 0.2741
365.10 0.2745
365.20 0.2749
365.30 0.2754
365.40 0.2758
365.50 0.2762
365.60 0.2767
365.70 0.2771
365.80 0.2775
365.90 0.2779
366.00 0.2784
366.10 0.2788
366.20 0.2793
366.30 0.2797
366.40 0.2801
366.50 0.2806
366.60 0.281
366.70 0.2815
366.80 0.2819
366.90 0.2823
367.00 0.2828
367.10 0.2832
367.20 0.2836
367.30 0.2841
367.40 0.2845
367.50 0.2849
367.60 0.2854
367.70 0.2858
367.80 0.2863
367.90 0.2867
368.00 0.2871
368.10 0.2876
368.20 0.288
368.30 0.2885
368.40 0.2889
368.50 0.2894
368.60 0.2898
368.70 0.2902
368.80 0.2907
368.90 0.2911
369.00 0.2916
369.10 0.292
369.20 0.2925
369.30 0.2929
369.40 0.2933
369.50 0.2938
369.60 0.2942
369.70 0.2947
369.80 0.2951
369.90 0.2955
370.00 0.296
370.10 0.2964
370.20 0.2969
370.30 0.2973
370.40 0.2978
370.50 0.2983
370.60 0.2987
370.70 0.2992
370.80 0.2996
370.90 0.3001
371.00 0.3005
371.10 0.301
371.20 0.3014
371.30 0.3018
371.40 0.3023
371.50 0.3027
371.60 0.3032
371.70 0.3036
371.80 0.3041
371.90 0.3045
372.00 0.305
372.10 0.3054
372.20 0.3059
372.30 0.3063
372.40 0.3068
372.50 0.3073
372.60 0.3077
372.70 0.3082
372.80 0.3086
372.90 0.3091
373.00 0.3095
373.10 0.31
373.20 0.3105
373.30 0.3109
373.40 0.3114
373.50 0.3118
373.60 0.3123
373.70 0.3127
373.80 0.3132
373.90 0.3136
374.00 0.3141
374.10 0.3145
374.20 0.315
374.30 0.3155
374.40 0.3159
374.50 0.3164
374.60 0.3169
374.70 0.3173
374.80 0.3178
374.90 0.3182
375.00 0.3187
375.10 0.3192
375.20 0.3196
375.30 0.3201
375.40 0.3205
375.50 0.321
375.60 0.3215
375.70 0.3219
375.80 0.3224
375.90 0.3228
376.00 0.3233
376.10 0.3238
376.20 0.3242
376.30 0.3247
376.40 0.3252
376.50 0.3256
376.60 0.3261
376.70 0.3266
376.80 0.327
376.90 0.3275
377.00 0.3279
377.10 0.3284
377.20 0.3289
377.30 0.3293
377.40 0.3298
377.50 0.3303
377.60 0.3308
377.70 0.3312
377.80 0.3317
377.90 0.3322
378.00 0.3326
378.10 0.3331
378.20 0.3336
378.30 0.334
378.40 0.3345
378.50 0.335
378.60 0.3354
378.70 0.3359
378.80 0.3364
378.90 0.3369
379.00 0.3373
379.10 0.3378
379.20 0.3383
379.30 0.3387
379.40 0.3392
379.50 0.3397
379.60 0.3402
379.70 0.3406
379.80 0.3411
379.90 0.3416
380.00 0.3421
380.10 0.3425
380.20 0.343
380.30 0.3435
380.40 0.344
380.50 0.3444
380.60 0.3449
380.70 0.3454
380.80 0.3459
380.90 0.3463
381.00 0.3468
381.10 0.3473
381.20 0.3478
381.30 0.3483
381.40 0.3487
381.50 0.3492
381.60 0.3497
381.70 0.3502
381.80 0.3506
381.90 0.3511
382.00 0.3516
382.10 0.3521
382.20 0.3526
382.30 0.353
382.40 0.3535
382.50 0.354
382.60 0.3545
382.70 0.355
382.80 0.3555
382.90 0.3559
383.00 0.3564
383.10 0.3569
383.20 0.3574
383.30 0.3579
383.40 0.3583
383.50 0.3588
383.60 0.3593
383.70 0.3598
383.80 0.3603
383.90 0.3608
384.00 0.3612
384.10 0.3617
384.20 0.3622
384.30 0.3627
384.40 0.3632
384.50 0.3637
384.60 0.3642
384.70 0.3646
384.80 0.3651
384.90 0.3656
385.00 0.3661
385.10 0.3666
385.20 0.3671
385.30 0.3676
385.40 0.3681
385.50 0.3685
385.60 0.369
385.70 0.3695
385.80 0.37
385.90 0.3705
386.00 0.371
386.10 0.3715
386.20 0.372
386.30 0.3725
386.40 0.373
386.50 0.3734
386.60 0.3739
386.70 0.3744
386.80 0.3749
386.90 0.3754
387.00 0.3759
387.10 0.3764
387.20 0.3769
387.30 0.3774
387.40 0.3779
387.50 0.3784
387.60 0.3789
387.70 0.3794
387.80 0.3799
387.90 0.3803
388.00 0.3808
388.10 0.3813
388.20 0.3818
388.30 0.3823
388.40 0.3828
388.50 0.3833
388.60 0.3838
388.70 0.3843
388.80 0.3848
388.90 0.3853
389.00 0.3858
389.10 0.3863
389.20 0.3868
389.30 0.3873
389.40 0.3878
389.50 0.3883
389.60 0.3888
389.70 0.3893
389.80 0.3898
389.90 0.3903
390.00 0.3908
390.10 0.3913
390.20 0.3918
390.30 0.3923
390.40 0.3928
390.50 0.3933
390.60 0.3938
390.70 0.3943
390.80 0.3948
390.90 0.3953
391.00 0.3958
391.10 0.3963
391.20 0.3968
391.30 0.3973
391.40 0.3978
391.50 0.3983
391.60 0.3988
391.70 0.3993
391.80 0.3998
391.90 0.4003
392.00 0.4008
392.10 0.4013
392.20 0.4018
392.30 0.4023
392.40 0.4028
392.50 0.4033
392.60 0.4038
392.70 0.4043
392.80 0.4049
392.90 0.4054
393.00 0.4059
393.10 0.4064
393.20 0.4069
393.30 0.4074
393.40 0.4079
393.50 0.4084
393.60 0.4089
393.70 0.4094
393.80 0.4099
393.90 0.4104
394.00 0.4109
394.10 0.4114
394.20 0.412
394.30 0.4125
394.40 0.413
394.50 0.4135
394.60 0.414
394.70 0.4145
394.80 0.415
394.90 0.4155
395.00 0.416
395.10 0.4165
395.20 0.4171
395.30 0.4176
395.40 0.4181
395.50 0.4186
395.60 0.4191
395.70 0.4196
395.80 0.4201
395.90 0.4206
396.00 0.4212
396.10 0.4217
396.20 0.4222
396.30 0.4227
396.40 0.4232
396.50 0.4237
396.60 0.4242
396.70 0.4247
396.80 0.4253
396.90 0.4258
397.00 0.4263
397.10 0.4268
397.20 0.4273
397.30 0.4278
397.40 0.4283
397.50 0.4289
397.60 0.4294
397.70 0.4299
397.80 0.4304
397.90 0.4309
398.00 0.4314
398.10 0.432
398.20 0.4325
398.30 0.433
398.40 0.4335
398.50 0.434
398.60 0.4345
398.70 0.4351
398.80 0.4356
398.90 0.4361
399.00 0.4366
399.10 0.4371
399.20 0.4377
399.30 0.4382
399.40 0.4387
399.50 0.4392
399.60 0.4397
399.70 0.4403
399.80 0.4408
399.90 0.4413
400.00 0.4418
400.10 0.4423
400.20 0.4429
400.30 0.4434
400.40 0.4439
400.50 0.4444
400.60 0.4449
400.70 0.4455
400.80 0.446
400.90 0.4465
401.00 0.447
401.10 0.4476
401.20 0.4481
401.30 0.4486
401.40 0.4491
401.50 0.4496
401.60 0.4502
401.70 0.4507
401.80 0.4512
401.90 0.4517
402.00 0.4523
402.10 0.4528
402.20 0.4533
402.30 0.4538
402.40 0.4544
402.50 0.4549
402.60 0.4554
402.70 0.4559
402.80 0.4565
402.90 0.457
403.00 0.4575
403.10 0.458
403.20 0.4586
403.30 0.4591
403.40 0.4596
403.50 0.4602
403.60 0.4607
403.70 0.4612
403.80 0.4617
403.90 0.4623
404.00 0.4628
404.10 0.4633
404.20 0.4639
404.30 0.4644
404.40 0.4649
404.50 0.4654
404.60 0.466
404.70 0.4665
404.80 0.467
404.90 0.4676
405.00 0.4681
405.10 0.4686
405.20 0.4691
405.30 0.4697
405.40 0.4702
405.50 0.4707
405.60 0.4713
405.70 0.4718
405.80 0.4723
405.90 0.4729
406.00 0.4734
406.10 0.4739
406.20 0.4745
406.30 0.475
406.40 0.4755
406.50 0.4761
406.60 0.4766
406.70 0.4771
406.80 0.4777
406.90 0.4782
407.00 0.4787
407.10 0.4793
407.20 0.4798
407.30 0.4803
407.40 0.4809
407.50 0.4814
407.60 0.4819
407.70 0.4825
407.80 0.483
407.90 0.4835
408.00 0.4841
408.10 0.4846
408.20 0.4851
408.30 0.4857
408.40 0.4862
408.50 0.4867
408.60 0.4873
408.70 0.4878
408.80 0.4883
408.90 0.4889
409.00 0.4894
409.10 0.49
409.20 0.4905
409.30 0.491
409.40 0.4916
409.50 0.4921
409.60 0.4926
409.70 0.4932
409.80 0.4937
409.90 0.4942
410.00 0.4948
410.10 0.4953
410.20 0.4959
410.30 0.4964
410.40 0.4969
410.50 0.4975
410.60 0.498
410.70 0.4986
410.80 0.4991
410.90 0.4996
411.00 0.5002
411.10 0.5007
411.20 0.5013
411.30 0.5018
411.40 0.5023
411.50 0.5029
411.60 0.5034
411.70 0.504
411.80 0.5045
411.90 0.505
412.00 0.5056
412.10 0.5061
412.20 0.5067
412.30 0.5072
412.40 0.5078
412.50 0.5083
412.60 0.5088
412.70 0.5094
412.80 0.5099
412.90 0.5105
413.00 0.511
413.10 0.5116
413.20 0.5121
413.30 0.5126
413.40 0.5132
413.50 0.5137
413.60 0.5143
413.70 0.5148
413.80 0.5154
413.90 0.5159
414.00 0.5165
414.10 0.517
414.20 0.5175
414.30 0.5181
414.40 0.5186
414.50 0.5192
414.60 0.5197
414.70 0.5203
414.80 0.5208
414.90 0.5214
415.00 0.5219
415.10 0.5225
415.20 0.523
415.30 0.5236
415.40 0.5241
415.50 0.5246
415.60 0.5252
415.70 0.5257
415.80 0.5263
415.90 0.5268
416.00 0.5274
416.10 0.5279
416.20 0.5285
416.30 0.529
416.40 0.5295
416.50 0.5301
416.60 0.5306
416.70 0.5312
416.80 0.5318
416.90 0.5323
417.00 0.5328
417.10 0.5334
417.20 0.5339
417.30 0.5345
417.40 0.535
417.50 0.5356
417.60 0.5361
417.70 0.5367
417.80 0.5372
417.90 0.5378
418.00 0.5383
418.10 0.5389
418.20 0.5394
418.30 0.54
418.40 0.5405
418.50 0.5411
418.60 0.5416
418.70 0.5422
418.80 0.5427
418.90 0.5433
419.00 0.5438
419.10 0.5444
419.20 0.5449
419.30 0.5455
419.40 0.546
419.50 0.5466
419.60 0.5471
419.70 0.5477
419.80 0.5483
419.90 0.5488
420.00 0.5494
420.10 0.5499
420.20 0.5505
420.30 0.551
420.40 0.5516
420.50 0.5521
420.60 0.5527
420.70 0.5532
420.80 0.5538
420.90 0.5543
421.00 0.5549
421.10 0.5554
421.20 0.556
421.30 0.5565
421.40 0.5571
421.50 0.5576
421.60 0.5582
421.70 0.5587
421.80 0.5593
421.90 0.5598
422.00 0.5604
422.10 0.561
422.20 0.5615
422.30 0.5621
422.40 0.5626
422.50 0.5632
422.60 0.5637
422.70 0.5643
422.80 0.5648
422.90 0.5654
423.00 0.566
423.10 0.5665
423.20 0.5671
423.30 0.5676
423.40 0.5682
423.50 0.5687
423.60 0.5693
423.70 0.5699
423.80 0.5704
423.90 0.5709
424.00 0.5715
424.10 0.5721
424.20 0.5726
424.30 0.5732
424.40 0.5737
424.50 0.5743
424.60 0.5748
424.70 0.5754
424.80 0.576
424.90 0.5765
425.00 0.5771
425.10 0.5776
425.20 0.5782
425.30 0.5788
425.40 0.5793
425.50 0.5799
425.60 0.5804
425.70 0.581
425.80 0.5815
425.90 0.5821
426.00 0.5827
426.10 0.5832
426.20 0.5838
426.30 0.5844
426.40 0.5849
426.50 0.5855
426.60 0.586
426.70 0.5866
426.80 0.5871
426.90 0.5877
427.00 0.5883
427.10 0.5888
427.20 0.5894
427.30 0.5899
427.40 0.5905
427.50 0.5911
427.60 0.5916
427.70 0.5922
427.80 0.5927
427.90 0.5933
428.00 0.5939
428.10 0.5944
428.20 0.595
428.30 0.5955
428.40 0.5961
428.50 0.5966
428.60 0.5972
428.70 0.5978
428.80 0.5983
428.90 0.5989
429.00 0.5995
429.10 0.6
429.20 0.6006
429.30 0.6011
429.40 0.6017
429.50 0.6023
429.60 0.6029
429.70 0.6034
429.80 0.604
429.90 0.6045
430.00 0.6051
430.10 0.6056
430.20 0.6062
430.30 0.6068
430.40 0.6073
430.50 0.6079
430.60 0.6084
430.70 0.609
430.80 0.6096
430.90 0.6101
431.00 0.6107
431.10 0.6113
431.20 0.6118
431.30 0.6124
431.40 0.613
431.50 0.6135
431.60 0.6141
431.70 0.6147
431.80 0.6152
431.90 0.6158
432.00 0.6163
432.10 0.6169
432.20 0.6175
432.30 0.618
432.40 0.6186
432.50 0.6192
432.60 0.6197
432.70 0.6203
432.80 0.6209
432.90 0.6214
433.00 0.622
433.10 0.6226
433.20 0.6231
433.30 0.6237
433.40 0.6243
433.50 0.6248
433.60 0.6254
433.70 0.626
433.80 0.6265
433.90 0.6271
434.00 0.6276
434.10 0.6282
434.20 0.6288
434.30 0.6293
434.40 0.6299
434.50 0.6305
434.60 0.631
434.70 0.6316
434.80 0.6322
434.90 0.6327
435.00 0.6333
435.10 0.6339
435.20 0.6344
435.30 0.635
435.40 0.6356
435.50 0.6361
435.60 0.6367
435.70 0.6373
435.80 0.6378
435.90 0.6384
436.00 0.639
436.10 0.6395
436.20 0.6401
436.30 0.6407
436.40 0.6412
436.50 0.6418
436.60 0.6423
436.70 0.6429
436.80 0.6435
436.90 0.6441
437.00 0.6446
437.10 0.6452
437.20 0.6458
437.30 0.6463
437.40 0.6469
437.50 0.6474
437.60 0.648
437.70 0.6486
437.80 0.6492
437.90 0.6497
438.00 0.6503
438.10 0.6509
438.20 0.6514
438.30 0.652
438.40 0.6526
438.50 0.6532
438.60 0.6537
438.70 0.6543
438.80 0.6548
438.90 0.6554
439.00 0.656
439.10 0.6566
439.20 0.6571
439.30 0.6577
439.40 0.6582
439.50 0.6588
439.60 0.6594
439.70 0.66
439.80 0.6605
439.90 0.6611
440.00 0.6617
440.10 0.6622
440.20 0.6628
440.30 0.6634
440.40 0.6639
440.50 0.6645
440.60 0.6651
440.70 0.6656
440.80 0.6662
440.90 0.6668
441.00 0.6673
441.10 0.6679
441.20 0.6685
441.30 0.6691
441.40 0.6696
441.50 0.6702
441.60 0.6708
441.70 0.6713
441.80 0.6719
441.90 0.6725
442.00 0.673
442.10 0.6736
