# Version 2.1 - nm, norm@500 to 1, cut digits, bergeron_8500_75.dat_8500
# Wavelength(nm)  Flambda(ergs/cm^s/s/nm)
300.00 1.421
300.10 1.421
300.20 1.421
300.30 1.421
300.40 1.42
300.50 1.42
300.60 1.42
300.70 1.42
300.80 1.42
300.90 1.419
301.00 1.419
301.10 1.419
301.20 1.419
301.30 1.419
301.40 1.418
301.50 1.418
301.60 1.418
301.70 1.418
301.80 1.418
301.90 1.417
302.00 1.417
302.10 1.417
302.20 1.417
302.30 1.417
302.40 1.416
302.50 1.416
302.60 1.416
302.70 1.416
302.80 1.416
302.90 1.415
303.00 1.415
303.10 1.415
303.20 1.415
303.30 1.415
303.40 1.414
303.50 1.414
303.60 1.414
303.70 1.414
303.80 1.414
303.90 1.413
304.00 1.413
304.10 1.413
304.20 1.413
304.30 1.413
304.40 1.412
304.50 1.412
304.60 1.412
304.70 1.412
304.80 1.412
304.90 1.411
305.00 1.411
305.10 1.411
305.20 1.411
305.30 1.411
305.40 1.41
305.50 1.41
305.60 1.41
305.70 1.41
305.80 1.409
305.90 1.409
306.00 1.409
306.10 1.409
306.20 1.409
306.30 1.408
306.40 1.408
306.50 1.408
306.60 1.408
306.70 1.408
306.80 1.407
306.90 1.407
307.00 1.407
307.10 1.407
307.20 1.406
307.30 1.406
307.40 1.406
307.50 1.406
307.60 1.406
307.70 1.405
307.80 1.405
307.90 1.405
308.00 1.405
308.10 1.404
308.20 1.404
308.30 1.404
308.40 1.404
308.50 1.404
308.60 1.403
308.70 1.403
308.80 1.403
308.90 1.403
309.00 1.402
309.10 1.402
309.20 1.402
309.30 1.402
309.40 1.401
309.50 1.401
309.60 1.401
309.70 1.401
309.80 1.401
309.90 1.4
310.00 1.4
310.10 1.4
310.20 1.4
310.30 1.399
310.40 1.399
310.50 1.399
310.60 1.399
310.70 1.398
310.80 1.398
310.90 1.398
311.00 1.398
311.10 1.397
311.20 1.397
311.30 1.397
311.40 1.397
311.50 1.397
311.60 1.396
311.70 1.396
311.80 1.396
311.90 1.396
312.00 1.395
312.10 1.395
312.20 1.395
312.30 1.395
312.40 1.394
312.50 1.394
312.60 1.394
312.70 1.394
312.80 1.393
312.90 1.393
313.00 1.393
313.10 1.393
313.20 1.392
313.30 1.392
313.40 1.392
313.50 1.392
313.60 1.391
313.70 1.391
313.80 1.391
313.90 1.391
314.00 1.39
314.10 1.39
314.20 1.39
314.30 1.39
314.40 1.389
314.50 1.389
314.60 1.389
314.70 1.389
314.80 1.388
314.90 1.388
315.00 1.388
315.10 1.388
315.20 1.387
315.30 1.387
315.40 1.387
315.50 1.387
315.60 1.386
315.70 1.386
315.80 1.386
315.90 1.386
316.00 1.385
316.10 1.385
316.20 1.385
316.30 1.385
316.40 1.384
316.50 1.384
316.60 1.384
316.70 1.384
316.80 1.383
316.90 1.383
317.00 1.383
317.10 1.383
317.20 1.382
317.30 1.382
317.40 1.382
317.50 1.382
317.60 1.381
317.70 1.381
317.80 1.381
317.90 1.381
318.00 1.38
318.10 1.38
318.20 1.38
318.30 1.379
318.40 1.379
318.50 1.379
318.60 1.379
318.70 1.378
318.80 1.378
318.90 1.378
319.00 1.378
319.10 1.377
319.20 1.377
319.30 1.377
319.40 1.377
319.50 1.376
319.60 1.376
319.70 1.376
319.80 1.376
319.90 1.375
320.00 1.375
320.10 1.375
320.20 1.374
320.30 1.374
320.40 1.374
320.50 1.374
320.60 1.373
320.70 1.373
320.80 1.373
320.90 1.373
321.00 1.372
321.10 1.372
321.20 1.372
321.30 1.371
321.40 1.371
321.50 1.371
321.60 1.371
321.70 1.37
321.80 1.37
321.90 1.37
322.00 1.37
322.10 1.369
322.20 1.369
322.30 1.369
322.40 1.368
322.50 1.368
322.60 1.368
322.70 1.368
322.80 1.367
322.90 1.367
323.00 1.367
323.10 1.366
323.20 1.366
323.30 1.366
323.40 1.366
323.50 1.365
323.60 1.365
323.70 1.365
323.80 1.365
323.90 1.364
324.00 1.364
324.10 1.364
324.20 1.363
324.30 1.363
324.40 1.363
324.50 1.363
324.60 1.362
324.70 1.362
324.80 1.362
324.90 1.361
325.00 1.361
325.10 1.361
325.20 1.361
325.30 1.36
325.40 1.36
325.50 1.36
325.60 1.359
325.70 1.359
325.80 1.359
325.90 1.359
326.00 1.358
326.10 1.358
326.20 1.358
326.30 1.357
326.40 1.357
326.50 1.357
326.60 1.357
326.70 1.356
326.80 1.356
326.90 1.356
327.00 1.355
327.10 1.355
327.20 1.355
327.30 1.355
327.40 1.354
327.50 1.354
327.60 1.354
327.70 1.353
327.80 1.353
327.90 1.353
328.00 1.353
328.10 1.352
328.20 1.352
328.30 1.352
328.40 1.351
328.50 1.351
328.60 1.351
328.70 1.351
328.80 1.35
328.90 1.35
329.00 1.35
329.10 1.349
329.20 1.349
329.30 1.349
329.40 1.348
329.50 1.348
329.60 1.348
329.70 1.348
329.80 1.347
329.90 1.347
330.00 1.347
330.10 1.346
330.20 1.346
330.30 1.346
330.40 1.345
330.50 1.345
330.60 1.345
330.70 1.345
330.80 1.344
330.90 1.344
331.00 1.344
331.10 1.343
331.20 1.343
331.30 1.343
331.40 1.342
331.50 1.342
331.60 1.342
331.70 1.342
331.80 1.341
331.90 1.341
332.00 1.341
332.10 1.34
332.20 1.34
332.30 1.34
332.40 1.339
332.50 1.339
332.60 1.339
332.70 1.339
332.80 1.338
332.90 1.338
333.00 1.338
333.10 1.337
333.20 1.337
333.30 1.337
333.40 1.336
333.50 1.336
333.60 1.336
333.70 1.336
333.80 1.335
333.90 1.335
334.00 1.335
334.10 1.334
334.20 1.334
334.30 1.334
334.40 1.333
334.50 1.333
334.60 1.333
334.70 1.332
334.80 1.332
334.90 1.332
335.00 1.332
335.10 1.331
335.20 1.331
335.30 1.331
335.40 1.33
335.50 1.33
335.60 1.33
335.70 1.329
335.80 1.329
335.90 1.329
336.00 1.328
336.10 1.328
336.20 1.328
336.30 1.328
336.40 1.327
336.50 1.327
336.60 1.327
336.70 1.326
336.80 1.326
336.90 1.326
337.00 1.325
337.10 1.325
337.20 1.325
337.30 1.324
337.40 1.324
337.50 1.324
337.60 1.323
337.70 1.323
337.80 1.323
337.90 1.323
338.00 1.322
338.10 1.322
338.20 1.322
338.30 1.321
338.40 1.321
338.50 1.321
338.60 1.32
338.70 1.32
338.80 1.32
338.90 1.319
339.00 1.319
339.10 1.319
339.20 1.318
339.30 1.318
339.40 1.318
339.50 1.317
339.60 1.317
339.70 1.317
339.80 1.316
339.90 1.316
340.00 1.316
340.10 1.316
340.20 1.315
340.30 1.315
340.40 1.315
340.50 1.314
340.60 1.314
340.70 1.314
340.80 1.313
340.90 1.313
341.00 1.313
341.10 1.312
341.20 1.312
341.30 1.312
341.40 1.311
341.50 1.311
341.60 1.311
341.70 1.31
341.80 1.31
341.90 1.31
342.00 1.31
342.10 1.309
342.20 1.309
342.30 1.309
342.40 1.308
342.50 1.308
342.60 1.308
342.70 1.307
342.80 1.307
342.90 1.307
343.00 1.306
343.10 1.306
343.20 1.306
343.30 1.305
343.40 1.305
343.50 1.305
343.60 1.304
343.70 1.304
343.80 1.304
343.90 1.303
344.00 1.303
344.10 1.303
344.20 1.302
344.30 1.302
344.40 1.302
344.50 1.301
344.60 1.301
344.70 1.301
344.80 1.3
344.90 1.3
345.00 1.3
345.10 1.299
345.20 1.299
345.30 1.299
345.40 1.298
345.50 1.298
345.60 1.298
345.70 1.297
345.80 1.297
345.90 1.297
346.00 1.296
346.10 1.296
346.20 1.296
346.30 1.295
346.40 1.295
346.50 1.295
346.60 1.294
346.70 1.294
346.80 1.294
346.90 1.293
347.00 1.293
347.10 1.293
347.20 1.292
347.30 1.292
347.40 1.292
347.50 1.292
347.60 1.291
347.70 1.291
347.80 1.291
347.90 1.29
348.00 1.29
348.10 1.29
348.20 1.289
348.30 1.289
348.40 1.289
348.50 1.288
348.60 1.288
348.70 1.288
348.80 1.287
348.90 1.287
349.00 1.286
349.10 1.286
349.20 1.286
349.30 1.285
349.40 1.285
349.50 1.285
349.60 1.284
349.70 1.284
349.80 1.284
349.90 1.283
350.00 1.283
350.10 1.283
350.20 1.282
350.30 1.282
350.40 1.282
350.50 1.281
350.60 1.281
350.70 1.281
350.80 1.28
350.90 1.28
351.00 1.28
351.10 1.279
351.20 1.279
351.30 1.279
351.40 1.278
351.50 1.278
351.60 1.278
351.70 1.277
351.80 1.277
351.90 1.277
352.00 1.276
352.10 1.276
352.20 1.276
352.30 1.275
352.40 1.275
352.50 1.275
352.60 1.274
352.70 1.274
352.80 1.274
352.90 1.273
353.00 1.273
353.10 1.273
353.20 1.272
353.30 1.272
353.40 1.272
353.50 1.271
353.60 1.271
353.70 1.271
353.80 1.27
353.90 1.27
354.00 1.27
354.10 1.269
354.20 1.269
354.30 1.269
354.40 1.268
354.50 1.268
354.60 1.268
354.70 1.267
354.80 1.267
354.90 1.267
355.00 1.266
355.10 1.266
355.20 1.266
355.30 1.265
355.40 1.265
355.50 1.265
355.60 1.264
355.70 1.264
355.80 1.263
355.90 1.263
356.00 1.263
356.10 1.262
356.20 1.262
356.30 1.262
356.40 1.261
356.50 1.261
356.60 1.261
356.70 1.26
356.80 1.26
356.90 1.26
357.00 1.259
357.10 1.259
357.20 1.259
357.30 1.258
357.40 1.258
357.50 1.258
357.60 1.257
357.70 1.257
357.80 1.257
357.90 1.256
358.00 1.256
358.10 1.256
358.20 1.255
358.30 1.255
358.40 1.255
358.50 1.254
358.60 1.254
358.70 1.254
358.80 1.253
358.90 1.253
359.00 1.253
359.10 1.252
359.20 1.252
359.30 1.251
359.40 1.251
359.50 1.251
359.60 1.25
359.70 1.25
359.80 1.25
359.90 1.249
360.00 1.249
360.10 1.249
360.20 1.248
360.30 1.248
360.40 1.248
360.50 1.247
360.60 1.247
360.70 1.247
360.80 1.246
360.90 1.246
361.00 1.246
361.10 1.245
361.20 1.245
361.30 1.245
361.40 1.244
361.50 1.244
361.60 1.243
361.70 1.243
361.80 1.243
361.90 1.242
362.00 1.242
362.10 1.242
362.20 1.241
362.30 1.241
362.40 1.241
362.50 1.24
362.60 1.24
362.70 1.24
362.80 1.239
362.90 1.239
363.00 1.239
363.10 1.238
363.20 1.238
363.30 1.237
363.40 1.237
363.50 1.237
363.60 1.236
363.70 1.236
363.80 1.236
363.90 1.235
364.00 1.235
364.10 1.234
364.20 1.234
364.30 1.234
364.40 1.233
364.50 1.233
364.60 1.233
364.70 1.232
364.80 1.232
364.90 1.231
365.00 1.231
365.10 1.231
365.20 1.23
365.30 1.23
365.40 1.23
365.50 1.229
365.60 1.229
365.70 1.229
365.80 1.228
365.90 1.228
366.00 1.228
366.10 1.227
366.20 1.227
366.30 1.227
366.40 1.226
366.50 1.226
366.60 1.226
366.70 1.225
366.80 1.225
366.90 1.225
367.00 1.224
367.10 1.224
367.20 1.224
367.30 1.223
367.40 1.223
367.50 1.223
367.60 1.222
367.70 1.222
367.80 1.222
367.90 1.221
368.00 1.221
368.10 1.221
368.20 1.221
368.30 1.221
368.40 1.221
368.50 1.222
368.60 1.222
368.70 1.222
368.80 1.222
368.90 1.222
369.00 1.222
369.10 1.222
369.20 1.222
369.30 1.222
369.40 1.222
369.50 1.222
369.60 1.223
369.70 1.223
369.80 1.223
369.90 1.223
370.00 1.223
370.10 1.224
370.20 1.225
370.30 1.226
370.40 1.226
370.50 1.227
370.60 1.228
370.70 1.229
370.80 1.23
370.90 1.231
371.00 1.232
371.10 1.232
371.20 1.233
371.30 1.234
371.40 1.235
371.50 1.236
371.60 1.237
371.70 1.237
371.80 1.238
371.90 1.239
372.00 1.24
372.10 1.241
372.20 1.243
372.30 1.244
372.40 1.246
372.50 1.247
372.60 1.249
372.70 1.25
372.80 1.251
372.90 1.253
373.00 1.254
373.10 1.256
373.20 1.257
373.30 1.258
373.40 1.26
373.50 1.261
373.60 1.263
373.70 1.264
373.80 1.266
373.90 1.267
374.00 1.268
374.10 1.27
374.20 1.271
374.30 1.273
374.40 1.274
374.50 1.276
374.60 1.277
374.70 1.278
374.80 1.28
374.90 1.281
375.00 1.283
375.10 1.284
375.20 1.286
375.30 1.287
375.40 1.288
375.50 1.29
375.60 1.291
375.70 1.293
375.80 1.294
375.90 1.296
376.00 1.297
376.10 1.298
376.20 1.299
376.30 1.299
376.40 1.3
376.50 1.301
376.60 1.302
376.70 1.303
376.80 1.303
376.90 1.304
377.00 1.305
377.10 1.304
377.20 1.304
377.30 1.303
377.40 1.302
377.50 1.302
377.60 1.301
377.70 1.3
377.80 1.3
377.90 1.299
378.00 1.298
378.10 1.292
378.20 1.285
378.30 1.278
378.40 1.272
378.50 1.265
378.60 1.258
378.70 1.252
378.80 1.245
378.90 1.238
379.00 1.232
379.10 1.219
379.20 1.206
379.30 1.193
379.40 1.18
379.50 1.167
379.60 1.154
379.70 1.141
379.80 1.128
379.90 1.115
380.00 1.102
380.10 1.119
380.20 1.136
380.30 1.153
380.40 1.17
380.50 1.187
380.60 1.204
380.70 1.221
380.80 1.238
380.90 1.255
381.00 1.272
381.10 1.275
381.20 1.278
381.30 1.281
381.40 1.284
381.50 1.287
381.60 1.287
381.70 1.286
381.80 1.284
381.90 1.281
382.00 1.277
382.10 1.272
382.20 1.265
382.30 1.244
382.40 1.222
382.50 1.201
382.60 1.18
382.70 1.158
382.80 1.137
382.90 1.116
383.00 1.095
383.10 1.073
383.20 1.052
383.30 1.002
383.40 0.9373
383.50 0.8593
383.60 0.8765
383.70 0.9536
383.80 1.016
383.90 1.063
384.00 1.102
384.10 1.135
384.20 1.164
384.30 1.189
384.40 1.211
384.50 1.229
384.60 1.245
384.70 1.258
384.80 1.27
384.90 1.279
385.00 1.287
385.10 1.294
385.20 1.3
385.30 1.305
385.40 1.309
385.50 1.312
385.60 1.315
385.70 1.317
385.80 1.318
385.90 1.32
386.00 1.32
386.10 1.32
386.20 1.319
386.30 1.318
386.40 1.316
386.50 1.314
386.60 1.311
386.70 1.308
386.80 1.304
386.90 1.299
387.00 1.294
387.10 1.288
387.20 1.28
387.30 1.272
387.40 1.263
387.50 1.253
387.60 1.24
387.70 1.227
387.80 1.21
387.90 1.19
388.00 1.168
388.10 1.14
388.20 1.107
388.30 1.071
388.40 1.024
388.50 0.9716
388.60 0.9128
388.70 0.8315
388.80 0.7416
388.90 0.6434
389.00 0.735
389.10 0.8226
389.20 0.9059
389.30 0.9658
389.40 1.019
389.50 1.066
389.60 1.104
389.70 1.137
389.80 1.166
389.90 1.189
390.00 1.209
390.10 1.227
390.20 1.241
390.30 1.254
390.40 1.266
390.50 1.276
390.60 1.285
390.70 1.293
390.80 1.3
390.90 1.307
391.00 1.313
391.10 1.319
391.20 1.324
391.30 1.328
391.40 1.332
391.50 1.336
391.60 1.34
391.70 1.343
391.80 1.345
391.90 1.348
392.00 1.35
392.10 1.352
392.20 1.353
392.30 1.354
392.40 1.355
392.50 1.356
392.60 1.357
392.70 1.357
392.80 1.357
392.90 1.357
393.00 1.356
393.10 1.355
393.20 1.354
393.30 1.353
393.40 1.351
393.50 1.349
393.60 1.347
393.70 1.345
393.80 1.342
393.90 1.339
394.00 1.335
394.10 1.331
394.20 1.327
394.30 1.323
394.40 1.318
394.50 1.312
394.60 1.306
394.70 1.3
394.80 1.293
394.90 1.285
395.00 1.277
395.10 1.268
395.20 1.258
395.30 1.247
395.40 1.236
395.50 1.223
395.60 1.209
395.70 1.193
395.80 1.176
395.90 1.156
396.00 1.133
396.10 1.108
396.20 1.075
396.30 1.038
396.40 0.9949
396.50 0.9389
396.60 0.8746
396.70 0.8022
396.80 0.707
396.90 0.6002
397.00 0.4819
397.10 0.5897
397.20 0.6925
397.30 0.7902
397.40 0.8641
397.50 0.9296
397.60 0.9866
397.70 1.03
397.80 1.068
397.90 1.101
398.00 1.126
398.10 1.149
398.20 1.169
398.30 1.186
398.40 1.202
398.50 1.216
398.60 1.228
398.70 1.239
398.80 1.25
398.90 1.26
399.00 1.268
399.10 1.277
399.20 1.284
399.30 1.291
399.40 1.298
399.50 1.304
399.60 1.309
399.70 1.315
399.80 1.319
399.90 1.324
400.00 1.328
400.10 1.332
400.20 1.335
400.30 1.339
400.40 1.342
400.50 1.344
400.60 1.347
400.70 1.35
400.80 1.352
400.90 1.354
401.00 1.356
401.10 1.357
401.20 1.359
401.30 1.361
401.40 1.362
401.50 1.363
401.60 1.364
401.70 1.365
401.80 1.366
401.90 1.367
402.00 1.368
402.10 1.368
402.20 1.369
402.30 1.369
402.40 1.37
402.50 1.37
402.60 1.37
402.70 1.37
402.80 1.37
402.90 1.37
403.00 1.37
403.10 1.37
403.20 1.37
403.30 1.37
403.40 1.369
403.50 1.369
403.60 1.369
403.70 1.368
403.80 1.368
403.90 1.367
404.00 1.366
404.10 1.366
404.20 1.365
404.30 1.364
404.40 1.363
404.50 1.362
404.60 1.361
404.70 1.36
404.80 1.359
404.90 1.357
405.00 1.356
405.10 1.354
405.20 1.353
405.30 1.351
405.40 1.349
405.50 1.347
405.60 1.345
405.70 1.343
405.80 1.341
405.90 1.339
406.00 1.336
406.10 1.334
406.20 1.331
406.30 1.328
406.40 1.325
406.50 1.321
406.60 1.318
406.70 1.314
406.80 1.31
406.90 1.306
407.00 1.301
407.10 1.296
407.20 1.291
407.30 1.286
407.40 1.28
407.50 1.274
407.60 1.267
407.70 1.26
407.80 1.252
407.90 1.244
408.00 1.235
408.10 1.225
408.20 1.215
408.30 1.204
408.40 1.193
408.50 1.18
408.60 1.166
408.70 1.151
408.80 1.135
408.90 1.117
409.00 1.098
409.10 1.076
409.20 1.051
409.30 1.023
409.40 0.9885
409.50 0.9481
409.60 0.9021
409.70 0.8408
409.80 0.7701
409.90 0.69
410.00 0.5896
410.10 0.503
410.20 0.4304
410.30 0.5419
410.40 0.6438
410.50 0.736
410.60 0.8089
410.70 0.8727
410.80 0.9274
410.90 0.9684
411.00 1.005
411.10 1.036
411.20 1.06
411.30 1.083
411.40 1.103
411.50 1.121
411.60 1.137
411.70 1.152
411.80 1.165
411.90 1.177
412.00 1.189
412.10 1.199
412.20 1.209
412.30 1.218
412.40 1.226
412.50 1.234
412.60 1.241
412.70 1.248
412.80 1.254
412.90 1.26
413.00 1.265
413.10 1.27
413.20 1.275
413.30 1.279
413.40 1.283
413.50 1.286
413.60 1.29
413.70 1.293
413.80 1.296
413.90 1.298
414.00 1.301
414.10 1.303
414.20 1.305
414.30 1.308
414.40 1.309
414.50 1.311
414.60 1.313
414.70 1.314
414.80 1.316
414.90 1.317
415.00 1.318
415.10 1.32
415.20 1.321
415.30 1.322
415.40 1.323
415.50 1.323
415.60 1.324
415.70 1.325
415.80 1.326
415.90 1.326
416.00 1.327
416.10 1.327
416.20 1.328
416.30 1.328
416.40 1.328
416.50 1.329
416.60 1.329
416.70 1.329
416.80 1.33
416.90 1.33
417.00 1.33
417.10 1.33
417.20 1.33
417.30 1.33
417.40 1.33
417.50 1.33
417.60 1.33
417.70 1.33
417.80 1.33
417.90 1.33
418.00 1.33
418.10 1.33
418.20 1.33
418.30 1.33
418.40 1.33
418.50 1.33
418.60 1.33
418.70 1.329
418.80 1.329
418.90 1.329
419.00 1.329
419.10 1.329
419.20 1.328
419.30 1.328
419.40 1.328
419.50 1.328
419.60 1.327
419.70 1.327
419.80 1.327
419.90 1.326
420.00 1.326
420.10 1.326
420.20 1.325
420.30 1.325
420.40 1.325
420.50 1.324
420.60 1.324
420.70 1.324
420.80 1.323
420.90 1.323
421.00 1.323
421.10 1.322
421.20 1.322
421.30 1.321
421.40 1.321
421.50 1.32
421.60 1.32
421.70 1.32
421.80 1.319
421.90 1.319
422.00 1.318
422.10 1.318
422.20 1.317
422.30 1.317
422.40 1.316
422.50 1.316
422.60 1.315
422.70 1.315
422.80 1.314
422.90 1.314
423.00 1.313
423.10 1.313
423.20 1.312
423.30 1.312
423.40 1.311
423.50 1.311
423.60 1.31
423.70 1.31
423.80 1.309
423.90 1.308
424.00 1.308
424.10 1.307
424.20 1.307
424.30 1.306
424.40 1.305
424.50 1.305
424.60 1.304
424.70 1.304
424.80 1.303
424.90 1.302
425.00 1.302
425.10 1.301
425.20 1.3
425.30 1.3
425.40 1.299
425.50 1.298
425.60 1.297
425.70 1.297
425.80 1.296
425.90 1.295
426.00 1.294
426.10 1.294
426.20 1.293
426.30 1.292
426.40 1.291
426.50 1.29
426.60 1.289
426.70 1.288
426.80 1.287
426.90 1.286
427.00 1.285
427.10 1.284
427.20 1.283
427.30 1.282
427.40 1.281
427.50 1.28
427.60 1.279
427.70 1.278
427.80 1.277
427.90 1.275
428.00 1.274
428.10 1.273
428.20 1.271
428.30 1.27
428.40 1.269
428.50 1.267
428.60 1.266
428.70 1.264
428.80 1.262
428.90 1.26
429.00 1.259
429.10 1.257
429.20 1.255
429.30 1.253
429.40 1.25
429.50 1.248
429.60 1.246
429.70 1.243
429.80 1.241
429.90 1.238
430.00 1.235
430.10 1.232
430.20 1.229
430.30 1.226
430.40 1.222
430.50 1.219
430.60 1.215
430.70 1.211
430.80 1.207
430.90 1.202
431.00 1.198
431.10 1.193
431.20 1.188
431.30 1.182
431.40 1.177
431.50 1.171
431.60 1.164
431.70 1.157
431.80 1.15
431.90 1.141
432.00 1.132
432.10 1.123
432.20 1.112
432.30 1.1
432.40 1.087
432.50 1.072
432.60 1.056
432.70 1.038
432.80 1.018
432.90 0.9964
433.00 0.9739
433.10 0.949
433.20 0.9217
433.30 0.892
433.40 0.8532
433.50 0.8075
433.60 0.7548
433.70 0.684
433.80 0.6067
433.90 0.5227
434.00 0.4327
434.10 0.4351
434.20 0.5298
434.30 0.613
434.40 0.6893
434.50 0.7587
434.60 0.81
434.70 0.8544
434.80 0.892
434.90 0.9207
435.00 0.9471
435.10 0.9712
435.20 0.9929
435.30 1.013
435.40 1.033
435.50 1.049
435.60 1.065
435.70 1.079
435.80 1.091
435.90 1.102
436.00 1.112
436.10 1.12
436.20 1.128
436.30 1.136
436.40 1.142
436.50 1.148
436.60 1.154
436.70 1.159
436.80 1.164
436.90 1.168
437.00 1.172
437.10 1.176
437.20 1.18
437.30 1.183
437.40 1.187
437.50 1.19
437.60 1.192
437.70 1.195
437.80 1.198
437.90 1.2
438.00 1.202
438.10 1.204
438.20 1.206
438.30 1.208
438.40 1.209
438.50 1.211
438.60 1.212
438.70 1.214
438.80 1.215
438.90 1.216
439.00 1.217
439.10 1.218
439.20 1.219
439.30 1.22
439.40 1.221
439.50 1.221
439.60 1.222
439.70 1.223
439.80 1.223
439.90 1.224
440.00 1.224
440.10 1.225
440.20 1.225
440.30 1.225
440.40 1.226
440.50 1.226
440.60 1.226
440.70 1.226
440.80 1.227
440.90 1.227
441.00 1.227
441.10 1.227
441.20 1.227
441.30 1.227
441.40 1.227
441.50 1.227
441.60 1.227
441.70 1.227
441.80 1.227
441.90 1.227
442.00 1.227
442.10 1.227
442.20 1.227
442.30 1.227
442.40 1.227
442.50 1.226
442.60 1.226
442.70 1.226
442.80 1.226
442.90 1.226
443.00 1.226
443.10 1.225
443.20 1.225
443.30 1.225
443.40 1.225
443.50 1.225
443.60 1.224
443.70 1.224
443.80 1.224
443.90 1.224
444.00 1.223
444.10 1.223
444.20 1.223
444.30 1.223
444.40 1.222
444.50 1.222
444.60 1.222
444.70 1.222
444.80 1.221
444.90 1.221
445.00 1.221
445.10 1.22
445.20 1.22
445.30 1.22
445.40 1.22
445.50 1.219
445.60 1.219
445.70 1.219
445.80 1.218
445.90 1.218
446.00 1.218
446.10 1.217
446.20 1.217
446.30 1.217
446.40 1.216
446.50 1.216
446.60 1.216
446.70 1.215
446.80 1.215
446.90 1.215
447.00 1.214
447.10 1.214
447.20 1.214
447.30 1.213
447.40 1.213
447.50 1.212
447.60 1.212
447.70 1.212
447.80 1.211
447.90 1.211
448.00 1.211
448.10 1.21
448.20 1.21
448.30 1.209
448.40 1.209
448.50 1.209
448.60 1.208
448.70 1.208
448.80 1.208
448.90 1.207
449.00 1.207
449.10 1.206
449.20 1.206
449.30 1.206
449.40 1.205
449.50 1.205
449.60 1.205
449.70 1.204
449.80 1.204
449.90 1.203
450.00 1.203
450.10 1.203
450.20 1.202
450.30 1.202
450.40 1.201
450.50 1.201
450.60 1.201
450.70 1.2
450.80 1.2
450.90 1.199
451.00 1.199
451.10 1.199
451.20 1.198
451.30 1.198
451.40 1.197
451.50 1.197
451.60 1.197
451.70 1.196
451.80 1.196
451.90 1.195
452.00 1.195
452.10 1.194
452.20 1.194
452.30 1.194
452.40 1.193
452.50 1.193
452.60 1.192
452.70 1.192
452.80 1.192
452.90 1.191
453.00 1.191
453.10 1.19
453.20 1.19
453.30 1.19
453.40 1.189
453.50 1.189
453.60 1.188
453.70 1.188
453.80 1.187
