# Version 2.1 - nm, norm@500 to 1, cut digits, bergeron_12500_90.dat_12500
# Wavelength(nm)  Flambda(ergs/cm^s/s/nm)
300.00 2.261
300.10 2.26
300.20 2.258
300.30 2.257
300.40 2.256
300.50 2.254
300.60 2.253
300.70 2.251
300.80 2.25
300.90 2.249
301.00 2.247
301.10 2.246
301.20 2.244
301.30 2.243
301.40 2.242
301.50 2.24
301.60 2.239
301.70 2.238
301.80 2.236
301.90 2.235
302.00 2.233
302.10 2.232
302.20 2.231
302.30 2.229
302.40 2.228
302.50 2.226
302.60 2.225
302.70 2.224
302.80 2.222
302.90 2.221
303.00 2.22
303.10 2.218
303.20 2.217
303.30 2.215
303.40 2.214
303.50 2.213
303.60 2.211
303.70 2.21
303.80 2.209
303.90 2.207
304.00 2.206
304.10 2.205
304.20 2.203
304.30 2.202
304.40 2.2
304.50 2.199
304.60 2.198
304.70 2.196
304.80 2.195
304.90 2.194
305.00 2.192
305.10 2.191
305.20 2.19
305.30 2.188
305.40 2.187
305.50 2.185
305.60 2.184
305.70 2.183
305.80 2.181
305.90 2.18
306.00 2.179
306.10 2.177
306.20 2.176
306.30 2.175
306.40 2.173
306.50 2.172
306.60 2.171
306.70 2.169
306.80 2.168
306.90 2.167
307.00 2.165
307.10 2.164
307.20 2.163
307.30 2.161
307.40 2.16
307.50 2.159
307.60 2.157
307.70 2.156
307.80 2.155
307.90 2.153
308.00 2.152
308.10 2.151
308.20 2.149
308.30 2.148
308.40 2.147
308.50 2.145
308.60 2.144
308.70 2.143
308.80 2.141
308.90 2.14
309.00 2.139
309.10 2.137
309.20 2.136
309.30 2.135
309.40 2.133
309.50 2.132
309.60 2.131
309.70 2.129
309.80 2.128
309.90 2.127
310.00 2.125
310.10 2.124
310.20 2.123
310.30 2.121
310.40 2.12
310.50 2.119
310.60 2.117
310.70 2.116
310.80 2.115
310.90 2.114
311.00 2.112
311.10 2.111
311.20 2.11
311.30 2.108
311.40 2.107
311.50 2.106
311.60 2.104
311.70 2.103
311.80 2.102
311.90 2.1
312.00 2.099
312.10 2.098
312.20 2.097
312.30 2.095
312.40 2.094
312.50 2.093
312.60 2.091
312.70 2.09
312.80 2.089
312.90 2.087
313.00 2.086
313.10 2.085
313.20 2.084
313.30 2.082
313.40 2.081
313.50 2.08
313.60 2.078
313.70 2.077
313.80 2.076
313.90 2.075
314.00 2.073
314.10 2.072
314.20 2.071
314.30 2.069
314.40 2.068
314.50 2.067
314.60 2.066
314.70 2.064
314.80 2.063
314.90 2.062
315.00 2.06
315.10 2.059
315.20 2.058
315.30 2.057
315.40 2.055
315.50 2.054
315.60 2.053
315.70 2.052
315.80 2.05
315.90 2.049
316.00 2.048
316.10 2.046
316.20 2.045
316.30 2.044
316.40 2.043
316.50 2.041
316.60 2.04
316.70 2.039
316.80 2.038
316.90 2.036
317.00 2.035
317.10 2.034
317.20 2.033
317.30 2.031
317.40 2.03
317.50 2.029
317.60 2.028
317.70 2.026
317.80 2.025
317.90 2.024
318.00 2.023
318.10 2.021
318.20 2.02
318.30 2.019
318.40 2.018
318.50 2.016
318.60 2.015
318.70 2.014
318.80 2.013
318.90 2.011
319.00 2.01
319.10 2.009
319.20 2.008
319.30 2.006
319.40 2.005
319.50 2.004
319.60 2.003
319.70 2.001
319.80 2
319.90 1.999
320.00 1.998
320.10 1.996
320.20 1.995
320.30 1.994
320.40 1.993
320.50 1.991
320.60 1.99
320.70 1.989
320.80 1.988
320.90 1.987
321.00 1.985
321.10 1.984
321.20 1.983
321.30 1.982
321.40 1.98
321.50 1.979
321.60 1.978
321.70 1.977
321.80 1.976
321.90 1.974
322.00 1.973
322.10 1.972
322.20 1.971
322.30 1.969
322.40 1.968
322.50 1.967
322.60 1.966
322.70 1.965
322.80 1.963
322.90 1.962
323.00 1.961
323.10 1.96
323.20 1.958
323.30 1.957
323.40 1.956
323.50 1.955
323.60 1.954
323.70 1.952
323.80 1.951
323.90 1.95
324.00 1.949
324.10 1.948
324.20 1.946
324.30 1.945
324.40 1.944
324.50 1.943
324.60 1.942
324.70 1.94
324.80 1.939
324.90 1.938
325.00 1.937
325.10 1.936
325.20 1.934
325.30 1.933
325.40 1.932
325.50 1.931
325.60 1.93
325.70 1.928
325.80 1.927
325.90 1.926
326.00 1.925
326.10 1.924
326.20 1.922
326.30 1.921
326.40 1.92
326.50 1.919
326.60 1.918
326.70 1.917
326.80 1.915
326.90 1.914
327.00 1.913
327.10 1.912
327.20 1.911
327.30 1.909
327.40 1.908
327.50 1.907
327.60 1.906
327.70 1.905
327.80 1.904
327.90 1.902
328.00 1.901
328.10 1.9
328.20 1.899
328.30 1.898
328.40 1.897
328.50 1.895
328.60 1.894
328.70 1.893
328.80 1.892
328.90 1.891
329.00 1.889
329.10 1.888
329.20 1.887
329.30 1.886
329.40 1.885
329.50 1.884
329.60 1.882
329.70 1.881
329.80 1.88
329.90 1.879
330.00 1.878
330.10 1.877
330.20 1.876
330.30 1.874
330.40 1.873
330.50 1.872
330.60 1.871
330.70 1.87
330.80 1.869
330.90 1.867
331.00 1.866
331.10 1.865
331.20 1.864
331.30 1.863
331.40 1.862
331.50 1.861
331.60 1.859
331.70 1.858
331.80 1.857
331.90 1.856
332.00 1.855
332.10 1.854
332.20 1.853
332.30 1.851
332.40 1.85
332.50 1.849
332.60 1.848
332.70 1.847
332.80 1.846
332.90 1.845
333.00 1.843
333.10 1.842
333.20 1.841
333.30 1.84
333.40 1.839
333.50 1.838
333.60 1.837
333.70 1.835
333.80 1.834
333.90 1.833
334.00 1.832
334.10 1.831
334.20 1.83
334.30 1.829
334.40 1.828
334.50 1.826
334.60 1.825
334.70 1.824
334.80 1.823
334.90 1.822
335.00 1.821
335.10 1.82
335.20 1.819
335.30 1.817
335.40 1.816
335.50 1.815
335.60 1.814
335.70 1.813
335.80 1.812
335.90 1.811
336.00 1.81
336.10 1.809
336.20 1.807
336.30 1.806
336.40 1.805
336.50 1.804
336.60 1.803
336.70 1.802
336.80 1.801
336.90 1.8
337.00 1.799
337.10 1.797
337.20 1.796
337.30 1.795
337.40 1.794
337.50 1.793
337.60 1.792
337.70 1.791
337.80 1.79
337.90 1.789
338.00 1.788
338.10 1.786
338.20 1.785
338.30 1.784
338.40 1.783
338.50 1.782
338.60 1.781
338.70 1.78
338.80 1.779
338.90 1.778
339.00 1.777
339.10 1.775
339.20 1.774
339.30 1.773
339.40 1.772
339.50 1.771
339.60 1.77
339.70 1.769
339.80 1.768
339.90 1.767
340.00 1.766
340.10 1.765
340.20 1.763
340.30 1.762
340.40 1.761
340.50 1.76
340.60 1.759
340.70 1.758
340.80 1.757
340.90 1.756
341.00 1.755
341.10 1.754
341.20 1.753
341.30 1.752
341.40 1.751
341.50 1.749
341.60 1.748
341.70 1.747
341.80 1.746
341.90 1.745
342.00 1.744
342.10 1.743
342.20 1.742
342.30 1.741
342.40 1.74
342.50 1.739
342.60 1.738
342.70 1.737
342.80 1.736
342.90 1.734
343.00 1.733
343.10 1.732
343.20 1.731
343.30 1.73
343.40 1.729
343.50 1.728
343.60 1.727
343.70 1.726
343.80 1.725
343.90 1.724
344.00 1.723
344.10 1.722
344.20 1.721
344.30 1.72
344.40 1.719
344.50 1.718
344.60 1.716
344.70 1.715
344.80 1.714
344.90 1.713
345.00 1.712
345.10 1.711
345.20 1.71
345.30 1.709
345.40 1.708
345.50 1.707
345.60 1.706
345.70 1.705
345.80 1.704
345.90 1.703
346.00 1.702
346.10 1.701
346.20 1.7
346.30 1.699
346.40 1.698
346.50 1.697
346.60 1.696
346.70 1.695
346.80 1.694
346.90 1.692
347.00 1.691
347.10 1.69
347.20 1.689
347.30 1.688
347.40 1.687
347.50 1.686
347.60 1.685
347.70 1.684
347.80 1.683
347.90 1.682
348.00 1.681
348.10 1.68
348.20 1.679
348.30 1.678
348.40 1.677
348.50 1.676
348.60 1.675
348.70 1.674
348.80 1.673
348.90 1.672
349.00 1.671
349.10 1.67
349.20 1.669
349.30 1.668
349.40 1.667
349.50 1.666
349.60 1.665
349.70 1.664
349.80 1.663
349.90 1.662
350.00 1.661
350.10 1.66
350.20 1.659
350.30 1.658
350.40 1.657
350.50 1.656
350.60 1.655
350.70 1.654
350.80 1.653
350.90 1.652
351.00 1.651
351.10 1.65
351.20 1.649
351.30 1.648
351.40 1.647
351.50 1.646
351.60 1.645
351.70 1.644
351.80 1.643
351.90 1.642
352.00 1.641
352.10 1.64
352.20 1.639
352.30 1.638
352.40 1.637
352.50 1.636
352.60 1.635
352.70 1.634
352.80 1.633
352.90 1.632
353.00 1.631
353.10 1.63
353.20 1.629
353.30 1.628
353.40 1.627
353.50 1.626
353.60 1.625
353.70 1.624
353.80 1.623
353.90 1.622
354.00 1.621
354.10 1.62
354.20 1.619
354.30 1.618
354.40 1.617
354.50 1.616
354.60 1.615
354.70 1.614
354.80 1.613
354.90 1.612
355.00 1.611
355.10 1.61
355.20 1.609
355.30 1.608
355.40 1.607
355.50 1.606
355.60 1.605
355.70 1.604
355.80 1.603
355.90 1.602
356.00 1.601
356.10 1.6
356.20 1.599
356.30 1.598
356.40 1.597
356.50 1.596
356.60 1.595
356.70 1.594
356.80 1.593
356.90 1.592
357.00 1.591
357.10 1.59
357.20 1.589
357.30 1.588
357.40 1.587
357.50 1.586
357.60 1.586
357.70 1.585
357.80 1.584
357.90 1.583
358.00 1.582
358.10 1.581
358.20 1.58
358.30 1.579
358.40 1.578
358.50 1.577
358.60 1.576
358.70 1.575
358.80 1.574
358.90 1.573
359.00 1.572
359.10 1.571
359.20 1.57
359.30 1.569
359.40 1.568
359.50 1.567
359.60 1.566
359.70 1.565
359.80 1.564
359.90 1.564
360.00 1.563
360.10 1.562
360.20 1.561
360.30 1.56
360.40 1.559
360.50 1.558
360.60 1.557
360.70 1.556
360.80 1.555
360.90 1.554
361.00 1.553
361.10 1.552
361.20 1.551
361.30 1.55
361.40 1.549
361.50 1.548
361.60 1.547
361.70 1.547
361.80 1.546
361.90 1.545
362.00 1.544
362.10 1.543
362.20 1.542
362.30 1.541
362.40 1.54
362.50 1.539
362.60 1.538
362.70 1.537
362.80 1.536
362.90 1.535
363.00 1.534
363.10 1.533
363.20 1.532
363.30 1.531
363.40 1.53
363.50 1.529
363.60 1.528
363.70 1.527
363.80 1.526
363.90 1.525
364.00 1.524
364.10 1.522
364.20 1.521
364.30 1.52
364.40 1.519
364.50 1.518
364.60 1.517
364.70 1.516
364.80 1.515
364.90 1.514
365.00 1.512
365.10 1.511
365.20 1.51
365.30 1.509
365.40 1.508
365.50 1.507
365.60 1.506
365.70 1.505
365.80 1.504
365.90 1.502
366.00 1.501
366.10 1.5
366.20 1.499
366.30 1.498
366.40 1.497
366.50 1.496
366.60 1.496
366.70 1.495
366.80 1.494
366.90 1.493
367.00 1.492
367.10 1.491
367.20 1.49
367.30 1.489
367.40 1.488
367.50 1.487
367.60 1.486
367.70 1.485
367.80 1.484
367.90 1.483
368.00 1.482
368.10 1.481
368.20 1.48
368.30 1.479
368.40 1.478
368.50 1.477
368.60 1.476
368.70 1.475
368.80 1.475
368.90 1.474
369.00 1.473
369.10 1.472
369.20 1.471
369.30 1.47
369.40 1.469
369.50 1.468
369.60 1.467
369.70 1.466
369.80 1.465
369.90 1.464
370.00 1.463
370.10 1.462
370.20 1.462
370.30 1.461
370.40 1.46
370.50 1.459
370.60 1.458
370.70 1.457
370.80 1.457
370.90 1.456
371.00 1.455
371.10 1.454
371.20 1.453
371.30 1.453
371.40 1.452
371.50 1.451
371.60 1.45
371.70 1.449
371.80 1.448
371.90 1.448
372.00 1.447
372.10 1.446
372.20 1.446
372.30 1.445
372.40 1.445
372.50 1.444
372.60 1.443
372.70 1.443
372.80 1.442
372.90 1.442
373.00 1.441
373.10 1.441
373.20 1.44
373.30 1.44
373.40 1.439
373.50 1.438
373.60 1.438
373.70 1.437
373.80 1.437
373.90 1.436
374.00 1.436
374.10 1.435
374.20 1.435
374.30 1.435
374.40 1.434
374.50 1.434
374.60 1.434
374.70 1.433
374.80 1.433
374.90 1.432
375.00 1.432
375.10 1.432
375.20 1.431
375.30 1.431
375.40 1.431
375.50 1.43
375.60 1.43
375.70 1.43
375.80 1.429
375.90 1.429
376.00 1.429
376.10 1.428
376.20 1.428
376.30 1.427
376.40 1.427
376.50 1.427
376.60 1.426
376.70 1.426
376.80 1.425
376.90 1.425
377.00 1.425
377.10 1.424
377.20 1.423
377.30 1.422
377.40 1.422
377.50 1.421
377.60 1.42
377.70 1.419
377.80 1.419
377.90 1.418
378.00 1.417
378.10 1.415
378.20 1.413
378.30 1.411
378.40 1.409
378.50 1.407
378.60 1.406
378.70 1.404
378.80 1.402
378.90 1.4
379.00 1.398
379.10 1.397
379.20 1.395
379.30 1.394
379.40 1.393
379.50 1.391
379.60 1.39
379.70 1.389
379.80 1.388
379.90 1.386
380.00 1.385
380.10 1.386
380.20 1.387
380.30 1.388
380.40 1.389
380.50 1.391
380.60 1.392
380.70 1.393
380.80 1.394
380.90 1.395
381.00 1.396
381.10 1.396
381.20 1.396
381.30 1.396
381.40 1.396
381.50 1.397
381.60 1.396
381.70 1.395
381.80 1.394
381.90 1.392
382.00 1.39
382.10 1.388
382.20 1.386
382.30 1.381
382.40 1.377
382.50 1.372
382.60 1.368
382.70 1.364
382.80 1.359
382.90 1.355
383.00 1.351
383.10 1.346
383.20 1.342
383.30 1.339
383.40 1.336
383.50 1.333
383.60 1.333
383.70 1.337
383.80 1.34
383.90 1.343
384.00 1.347
384.10 1.352
384.20 1.357
384.30 1.363
384.40 1.368
384.50 1.372
384.60 1.377
384.70 1.38
384.80 1.383
384.90 1.386
385.00 1.388
385.10 1.39
385.20 1.392
385.30 1.393
385.40 1.394
385.50 1.394
385.60 1.394
385.70 1.394
385.80 1.394
385.90 1.393
386.00 1.393
386.10 1.391
386.20 1.39
386.30 1.388
386.40 1.386
386.50 1.384
386.60 1.381
386.70 1.379
386.80 1.375
386.90 1.372
387.00 1.368
387.10 1.364
387.20 1.359
387.30 1.354
387.40 1.349
387.50 1.343
387.60 1.337
387.70 1.331
387.80 1.323
387.90 1.315
388.00 1.306
388.10 1.296
388.20 1.285
388.30 1.273
388.40 1.261
388.50 1.249
388.60 1.239
388.70 1.233
388.80 1.227
388.90 1.223
389.00 1.227
389.10 1.232
389.20 1.239
389.30 1.249
389.40 1.26
389.50 1.273
389.60 1.285
389.70 1.296
389.80 1.307
389.90 1.316
390.00 1.325
390.10 1.333
390.20 1.34
390.30 1.346
390.40 1.353
390.50 1.358
390.60 1.364
390.70 1.369
390.80 1.373
390.90 1.378
391.00 1.382
391.10 1.385
391.20 1.389
391.30 1.392
391.40 1.395
391.50 1.397
391.60 1.399
391.70 1.401
391.80 1.403
391.90 1.404
392.00 1.405
392.10 1.406
392.20 1.406
392.30 1.407
392.40 1.406
392.50 1.406
392.60 1.405
392.70 1.404
392.80 1.403
392.90 1.401
393.00 1.399
393.10 1.397
393.20 1.394
393.30 1.391
393.40 1.388
393.50 1.385
393.60 1.381
393.70 1.376
393.80 1.372
393.90 1.367
394.00 1.362
394.10 1.356
394.20 1.35
394.30 1.344
394.40 1.337
394.50 1.33
394.60 1.322
394.70 1.314
394.80 1.306
394.90 1.297
395.00 1.288
395.10 1.278
395.20 1.268
395.30 1.258
395.40 1.247
395.50 1.235
395.60 1.223
395.70 1.21
395.80 1.197
395.90 1.183
396.00 1.169
396.10 1.154
396.20 1.137
396.30 1.118
396.40 1.099
396.50 1.075
396.60 1.051
396.70 1.026
396.80 1.008
396.90 0.9906
397.00 0.9738
397.10 0.9892
397.20 1.005
397.30 1.022
397.40 1.047
397.50 1.071
397.60 1.094
397.70 1.114
397.80 1.132
397.90 1.149
398.00 1.164
398.10 1.178
398.20 1.192
398.30 1.206
398.40 1.218
398.50 1.231
398.60 1.242
398.70 1.254
398.80 1.264
398.90 1.275
399.00 1.285
399.10 1.294
399.20 1.303
399.30 1.312
399.40 1.321
399.50 1.329
399.60 1.337
399.70 1.344
399.80 1.351
399.90 1.358
400.00 1.365
400.10 1.371
400.20 1.377
400.30 1.383
400.40 1.389
400.50 1.394
400.60 1.399
400.70 1.403
400.80 1.408
400.90 1.412
401.00 1.416
401.10 1.419
401.20 1.423
401.30 1.426
401.40 1.429
401.50 1.432
401.60 1.434
401.70 1.437
401.80 1.439
401.90 1.441
402.00 1.442
402.10 1.444
402.20 1.445
402.30 1.446
402.40 1.447
402.50 1.448
402.60 1.448
402.70 1.449
402.80 1.449
402.90 1.449
403.00 1.448
403.10 1.448
403.20 1.447
403.30 1.446
403.40 1.445
403.50 1.444
403.60 1.443
403.70 1.441
403.80 1.439
403.90 1.437
404.00 1.435
404.10 1.433
404.20 1.43
404.30 1.427
404.40 1.424
404.50 1.421
404.60 1.417
404.70 1.414
404.80 1.41
404.90 1.406
405.00 1.401
405.10 1.397
405.20 1.392
405.30 1.387
405.40 1.382
405.50 1.377
405.60 1.371
405.70 1.365
405.80 1.359
405.90 1.352
406.00 1.346
406.10 1.339
406.20 1.331
406.30 1.324
406.40 1.316
406.50 1.308
406.60 1.3
406.70 1.291
406.80 1.282
406.90 1.273
407.00 1.263
407.10 1.253
407.20 1.243
407.30 1.232
407.40 1.221
407.50 1.21
407.60 1.198
407.70 1.186
407.80 1.174
407.90 1.16
408.00 1.147
408.10 1.133
408.20 1.119
408.30 1.104
408.40 1.089
408.50 1.073
408.60 1.057
408.70 1.04
408.80 1.023
408.90 1.005
409.00 0.987
409.10 0.9683
409.20 0.9492
409.30 0.9297
409.40 0.9089
409.50 0.8871
409.60 0.8643
409.70 0.8379
409.80 0.8099
409.90 0.7803
410.00 0.7566
410.10 0.7398
410.20 0.7299
410.30 0.7467
410.40 0.7682
410.50 0.7945
410.60 0.8228
410.70 0.8491
410.80 0.8733
410.90 0.8945
411.00 0.9148
411.10 0.9342
411.20 0.9526
411.30 0.9706
411.40 0.9881
411.50 1.005
411.60 1.022
411.70 1.038
411.80 1.053
411.90 1.068
412.00 1.083
412.10 1.097
412.20 1.111
412.30 1.124
412.40 1.137
412.50 1.149
412.60 1.161
412.70 1.172
412.80 1.183
412.90 1.194
413.00 1.204
413.10 1.214
413.20 1.224
413.30 1.233
413.40 1.243
413.50 1.251
413.60 1.26
413.70 1.268
413.80 1.276
413.90 1.284
414.00 1.292
414.10 1.299
414.20 1.306
414.30 1.313
414.40 1.32
414.50 1.326
414.60 1.332
414.70 1.338
414.80 1.344
414.90 1.35
415.00 1.355
415.10 1.361
415.20 1.366
415.30 1.371
415.40 1.376
415.50 1.38
415.60 1.385
415.70 1.389
415.80 1.394
415.90 1.398
416.00 1.402
416.10 1.406
416.20 1.409
416.30 1.413
416.40 1.416
416.50 1.42
416.60 1.423
416.70 1.426
416.80 1.429
416.90 1.432
417.00 1.435
417.10 1.438
417.20 1.44
417.30 1.443
417.40 1.445
417.50 1.448
417.60 1.45
417.70 1.452
417.80 1.454
417.90 1.456
418.00 1.458
418.10 1.46
418.20 1.461
418.30 1.463
418.40 1.464
418.50 1.466
418.60 1.467
418.70 1.468
418.80 1.47
418.90 1.471
419.00 1.472
419.10 1.473
419.20 1.474
419.30 1.475
419.40 1.475
419.50 1.476
419.60 1.477
419.70 1.477
419.80 1.478
419.90 1.478
420.00 1.479
420.10 1.479
420.20 1.479
420.30 1.479
420.40 1.48
420.50 1.48
420.60 1.48
420.70 1.479
420.80 1.479
420.90 1.479
421.00 1.479
421.10 1.478
421.20 1.478
421.30 1.478
421.40 1.477
421.50 1.477
421.60 1.476
421.70 1.475
421.80 1.475
421.90 1.474
422.00 1.473
422.10 1.472
422.20 1.471
422.30 1.47
422.40 1.469
422.50 1.468
422.60 1.467
422.70 1.465
422.80 1.464
422.90 1.463
423.00 1.461
423.10 1.46
423.20 1.458
423.30 1.456
423.40 1.455
423.50 1.453
423.60 1.451
423.70 1.449
423.80 1.447
423.90 1.445
424.00 1.443
424.10 1.441
424.20 1.439
424.30 1.437
424.40 1.434
424.50 1.432
424.60 1.429
424.70 1.427
424.80 1.424
424.90 1.422
425.00 1.419
425.10 1.416
425.20 1.413
425.30 1.41
425.40 1.407
425.50 1.404
425.60 1.401
425.70 1.398
425.80 1.394
425.90 1.391
426.00 1.387
426.10 1.384
426.20 1.379
426.30 1.375
426.40 1.372
426.50 1.368
426.60 1.364
426.70 1.36
426.80 1.355
426.90 1.351
427.00 1.347
427.10 1.342
427.20 1.338
427.30 1.333
427.40 1.328
427.50 1.324
427.60 1.319
427.70 1.314
427.80 1.309
427.90 1.303
428.00 1.298
428.10 1.292
428.20 1.287
428.30 1.281
428.40 1.275
428.50 1.269
428.60 1.263
428.70 1.257
428.80 1.25
428.90 1.244
429.00 1.237
429.10 1.231
429.20 1.224
429.30 1.216
429.40 1.209
429.50 1.202
429.60 1.194
429.70 1.186
429.80 1.179
429.90 1.17
430.00 1.162
430.10 1.154
430.20 1.145
430.30 1.136
430.40 1.127
430.50 1.118
430.60 1.109
430.70 1.099
430.80 1.089
430.90 1.079
431.00 1.069
431.10 1.058
431.20 1.047
431.30 1.036
431.40 1.025
431.50 1.013
431.60 1.001
431.70 0.9885
431.80 0.9758
431.90 0.9624
432.00 0.9488
432.10 0.9348
432.20 0.92
432.30 0.9049
432.40 0.8893
432.50 0.8728
432.60 0.8559
432.70 0.8384
432.80 0.8202
432.90 0.8019
433.00 0.7834
433.10 0.7652
433.20 0.7472
433.30 0.7294
433.40 0.7116
433.50 0.6929
433.60 0.6733
433.70 0.6484
433.80 0.6193
433.90 0.586
434.00 0.5458
434.10 0.5466
434.20 0.5883
434.30 0.6207
434.40 0.6489
434.50 0.6729
434.60 0.6917
434.70 0.7097
434.80 0.7269
434.90 0.7439
435.00 0.7612
435.10 0.7787
435.20 0.7963
435.30 0.8138
435.40 0.831
435.50 0.8475
435.60 0.8634
435.70 0.8788
435.80 0.8933
435.90 0.9074
436.00 0.921
436.10 0.9339
436.20 0.9463
436.30 0.9585
436.40 0.97
436.50 0.9812
436.60 0.9922
436.70 1.003
436.80 1.013
436.90 1.023
437.00 1.032
437.10 1.042
437.20 1.051
437.30 1.059
437.40 1.068
437.50 1.076
437.60 1.084
437.70 1.092
437.80 1.1
437.90 1.107
438.00 1.114
438.10 1.121
438.20 1.128
438.30 1.135
438.40 1.142
438.50 1.148
438.60 1.154
438.70 1.16
438.80 1.166
438.90 1.172
439.00 1.177
439.10 1.182
439.20 1.188
439.30 1.193
439.40 1.198
439.50 1.203
439.60 1.207
439.70 1.212
439.80 1.216
439.90 1.221
440.00 1.225
440.10 1.229
440.20 1.233
440.30 1.237
440.40 1.241
440.50 1.245
440.60 1.248
440.70 1.252
440.80 1.255
440.90 1.258
441.00 1.262
441.10 1.265
441.20 1.268
441.30 1.271
441.40 1.274
441.50 1.276
441.60 1.279
441.70 1.282
441.80 1.284
441.90 1.287
442.00 1.289
442.10 1.292
442.20 1.294
442.30 1.296
442.40 1.299
442.50 1.301
442.60 1.303
442.70 1.305
442.80 1.307
442.90 1.308
443.00 1.31
443.10 1.312
443.20 1.314
443.30 1.315
443.40 1.317
443.50 1.319
443.60 1.32
443.70 1.322
443.80 1.323
443.90 1.325
444.00 1.326
444.10 1.327
444.20 1.328
444.30 1.33
444.40 1.331
444.50 1.332
444.60 1.333
444.70 1.334
444.80 1.335
444.90 1.336
445.00 1.337
445.10 1.338
445.20 1.339
445.30 1.34
445.40 1.34
445.50 1.341
445.60 1.342
445.70 1.343
445.80 1.343
445.90 1.344
446.00 1.345
446.10 1.345
446.20 1.346
446.30 1.346
446.40 1.347
446.50 1.348
446.60 1.348
446.70 1.348
446.80 1.349
446.90 1.349
447.00 1.35
447.10 1.35
447.20 1.35
447.30 1.351
447.40 1.351
447.50 1.351
447.60 1.351
447.70 1.352
447.80 1.352
447.90 1.352
448.00 1.352
448.10 1.352
448.20 1.352
448.30 1.352
448.40 1.353
448.50 1.353
448.60 1.353
448.70 1.353
448.80 1.353
448.90 1.353
449.00 1.353
449.10 1.353
449.20 1.353
449.30 1.353
449.40 1.353
449.50 1.353
449.60 1.353
449.70 1.352
449.80 1.352
449.90 1.352
450.00 1.352
450.10 1.352
450.20 1.352
450.30 1.351
450.40 1.351
450.50 1.351
450.60 1.351
450.70 1.351
450.80 1.35
450.90 1.35
451.00 1.35
451.10 1.35
451.20 1.349
451.30 1.349
451.40 1.349
451.50 1.348
451.60 1.348
451.70 1.348
451.80 1.347
451.90 1.347
452.00 1.347
452.10 1.346
452.20 1.346
452.30 1.346
452.40 1.345
452.50 1.345
452.60 1.344
452.70 1.344
452.80 1.343
452.90 1.343
453.00 1.343
453.10 1.342
453.20 1.342
453.30 1.341
