# Version 2.1 - nm, norm@500 to 1, cut digits, bergeron_55000_90.dat_55000
# Wavelength(nm)  Flambda(ergs/cm^s/s/nm)
300.00 6.348
300.10 6.341
300.20 6.333
300.30 6.325
300.40 6.318
300.50 6.31
300.60 6.302
300.70 6.295
300.80 6.287
300.90 6.279
301.00 6.272
301.10 6.264
301.20 6.257
301.30 6.249
301.40 6.241
301.50 6.234
301.60 6.226
301.70 6.219
301.80 6.211
301.90 6.204
302.00 6.196
302.10 6.189
302.20 6.181
302.30 6.174
302.40 6.166
302.50 6.159
302.60 6.151
302.70 6.144
302.80 6.137
302.90 6.129
303.00 6.122
303.10 6.114
303.20 6.107
303.30 6.1
303.40 6.092
303.50 6.085
303.60 6.078
303.70 6.07
303.80 6.063
303.90 6.056
304.00 6.048
304.10 6.041
304.20 6.034
304.30 6.027
304.40 6.019
304.50 6.012
304.60 6.005
304.70 5.998
304.80 5.991
304.90 5.983
305.00 5.976
305.10 5.969
305.20 5.962
305.30 5.955
305.40 5.948
305.50 5.941
305.60 5.933
305.70 5.926
305.80 5.919
305.90 5.912
306.00 5.905
306.10 5.898
306.20 5.891
306.30 5.884
306.40 5.877
306.50 5.87
306.60 5.863
306.70 5.856
306.80 5.849
306.90 5.842
307.00 5.835
307.10 5.828
307.20 5.821
307.30 5.814
307.40 5.807
307.50 5.8
307.60 5.794
307.70 5.787
307.80 5.78
307.90 5.773
308.00 5.766
308.10 5.759
308.20 5.752
308.30 5.746
308.40 5.739
308.50 5.732
308.60 5.725
308.70 5.718
308.80 5.712
308.90 5.705
309.00 5.698
309.10 5.691
309.20 5.685
309.30 5.678
309.40 5.671
309.50 5.664
309.60 5.658
309.70 5.651
309.80 5.644
309.90 5.638
310.00 5.631
310.10 5.624
310.20 5.618
310.30 5.611
310.40 5.604
310.50 5.598
310.60 5.591
310.70 5.585
310.80 5.578
310.90 5.572
311.00 5.565
311.10 5.558
311.20 5.552
311.30 5.545
311.40 5.539
311.50 5.532
311.60 5.526
311.70 5.519
311.80 5.513
311.90 5.506
312.00 5.5
312.10 5.493
312.20 5.487
312.30 5.481
312.40 5.474
312.50 5.468
312.60 5.461
312.70 5.455
312.80 5.449
312.90 5.442
313.00 5.436
313.10 5.429
313.20 5.423
313.30 5.417
313.40 5.41
313.50 5.404
313.60 5.398
313.70 5.392
313.80 5.385
313.90 5.379
314.00 5.373
314.10 5.366
314.20 5.36
314.30 5.354
314.40 5.348
314.50 5.341
314.60 5.335
314.70 5.329
314.80 5.323
314.90 5.317
315.00 5.31
315.10 5.304
315.20 5.298
315.30 5.292
315.40 5.286
315.50 5.28
315.60 5.273
315.70 5.267
315.80 5.261
315.90 5.255
316.00 5.249
316.10 5.243
316.20 5.237
316.30 5.231
316.40 5.225
316.50 5.219
316.60 5.213
316.70 5.207
316.80 5.201
316.90 5.195
317.00 5.189
317.10 5.183
317.20 5.177
317.30 5.171
317.40 5.165
317.50 5.159
317.60 5.153
317.70 5.147
317.80 5.141
317.90 5.135
318.00 5.129
318.10 5.123
318.20 5.117
318.30 5.111
318.40 5.105
318.50 5.1
318.60 5.094
318.70 5.088
318.80 5.082
318.90 5.076
319.00 5.07
319.10 5.064
319.20 5.059
319.30 5.053
319.40 5.047
319.50 5.041
319.60 5.035
319.70 5.03
319.80 5.024
319.90 5.018
320.00 5.012
320.10 5.007
320.20 5.001
320.30 4.995
320.40 4.989
320.50 4.984
320.60 4.978
320.70 4.972
320.80 4.967
320.90 4.961
321.00 4.955
321.10 4.95
321.20 4.944
321.30 4.938
321.40 4.933
321.50 4.927
321.60 4.921
321.70 4.916
321.80 4.91
321.90 4.905
322.00 4.899
322.10 4.893
322.20 4.888
322.30 4.882
322.40 4.877
322.50 4.871
322.60 4.866
322.70 4.86
322.80 4.855
322.90 4.849
323.00 4.844
323.10 4.838
323.20 4.833
323.30 4.827
323.40 4.822
323.50 4.816
323.60 4.811
323.70 4.805
323.80 4.8
323.90 4.794
324.00 4.789
324.10 4.784
324.20 4.778
324.30 4.773
324.40 4.767
324.50 4.762
324.60 4.756
324.70 4.751
324.80 4.746
324.90 4.74
325.00 4.735
325.10 4.73
325.20 4.724
325.30 4.719
325.40 4.714
325.50 4.708
325.60 4.703
325.70 4.698
325.80 4.692
325.90 4.687
326.00 4.682
326.10 4.677
326.20 4.671
326.30 4.666
326.40 4.661
326.50 4.656
326.60 4.65
326.70 4.645
326.80 4.64
326.90 4.635
327.00 4.629
327.10 4.624
327.20 4.619
327.30 4.614
327.40 4.609
327.50 4.604
327.60 4.598
327.70 4.593
327.80 4.588
327.90 4.583
328.00 4.578
328.10 4.573
328.20 4.568
328.30 4.562
328.40 4.557
328.50 4.552
328.60 4.547
328.70 4.542
328.80 4.537
328.90 4.532
329.00 4.527
329.10 4.522
329.20 4.517
329.30 4.512
329.40 4.507
329.50 4.502
329.60 4.497
329.70 4.492
329.80 4.487
329.90 4.482
330.00 4.477
330.10 4.472
330.20 4.467
330.30 4.462
330.40 4.457
330.50 4.452
330.60 4.447
330.70 4.442
330.80 4.437
330.90 4.432
331.00 4.427
331.10 4.422
331.20 4.417
331.30 4.413
331.40 4.408
331.50 4.403
331.60 4.398
331.70 4.393
331.80 4.388
331.90 4.383
332.00 4.378
332.10 4.373
332.20 4.369
332.30 4.364
332.40 4.359
332.50 4.354
332.60 4.349
332.70 4.345
332.80 4.34
332.90 4.335
333.00 4.33
333.10 4.325
333.20 4.321
333.30 4.316
333.40 4.311
333.50 4.306
333.60 4.302
333.70 4.297
333.80 4.292
333.90 4.287
334.00 4.283
334.10 4.278
334.20 4.273
334.30 4.269
334.40 4.264
334.50 4.259
334.60 4.255
334.70 4.25
334.80 4.245
334.90 4.241
335.00 4.236
335.10 4.231
335.20 4.227
335.30 4.222
335.40 4.217
335.50 4.213
335.60 4.208
335.70 4.203
335.80 4.199
335.90 4.194
336.00 4.19
336.10 4.185
336.20 4.18
336.30 4.176
336.40 4.171
336.50 4.167
336.60 4.162
336.70 4.158
336.80 4.153
336.90 4.149
337.00 4.144
337.10 4.14
337.20 4.135
337.30 4.13
337.40 4.126
337.50 4.121
337.60 4.117
337.70 4.112
337.80 4.108
337.90 4.103
338.00 4.099
338.10 4.095
338.20 4.09
338.30 4.086
338.40 4.081
338.50 4.077
338.60 4.072
338.70 4.068
338.80 4.064
338.90 4.059
339.00 4.055
339.10 4.05
339.20 4.046
339.30 4.042
339.40 4.037
339.50 4.033
339.60 4.028
339.70 4.024
339.80 4.02
339.90 4.015
340.00 4.011
340.10 4.007
340.20 4.002
340.30 3.998
340.40 3.994
340.50 3.989
340.60 3.985
340.70 3.981
340.80 3.976
340.90 3.972
341.00 3.968
341.10 3.964
341.20 3.959
341.30 3.955
341.40 3.951
341.50 3.946
341.60 3.942
341.70 3.938
341.80 3.934
341.90 3.929
342.00 3.925
342.10 3.921
342.20 3.917
342.30 3.913
342.40 3.908
342.50 3.904
342.60 3.9
342.70 3.896
342.80 3.892
342.90 3.887
343.00 3.883
343.10 3.879
343.20 3.875
343.30 3.871
343.40 3.867
343.50 3.862
343.60 3.858
343.70 3.854
343.80 3.85
343.90 3.846
344.00 3.842
344.10 3.838
344.20 3.833
344.30 3.829
344.40 3.825
344.50 3.821
344.60 3.817
344.70 3.813
344.80 3.809
344.90 3.805
345.00 3.801
345.10 3.797
345.20 3.793
345.30 3.789
345.40 3.785
345.50 3.781
345.60 3.777
345.70 3.773
345.80 3.768
345.90 3.764
346.00 3.76
346.10 3.756
346.20 3.752
346.30 3.748
346.40 3.744
346.50 3.741
346.60 3.737
346.70 3.733
346.80 3.729
346.90 3.725
347.00 3.721
347.10 3.717
347.20 3.713
347.30 3.709
347.40 3.705
347.50 3.701
347.60 3.697
347.70 3.693
347.80 3.689
347.90 3.685
348.00 3.681
348.10 3.677
348.20 3.674
348.30 3.67
348.40 3.666
348.50 3.662
348.60 3.658
348.70 3.654
348.80 3.65
348.90 3.646
349.00 3.643
349.10 3.639
349.20 3.635
349.30 3.631
349.40 3.627
349.50 3.623
349.60 3.62
349.70 3.616
349.80 3.612
349.90 3.608
350.00 3.604
350.10 3.601
350.20 3.597
350.30 3.593
350.40 3.589
350.50 3.585
350.60 3.582
350.70 3.578
350.80 3.574
350.90 3.57
351.00 3.567
351.10 3.563
351.20 3.559
351.30 3.555
351.40 3.552
351.50 3.548
351.60 3.544
351.70 3.54
351.80 3.537
351.90 3.533
352.00 3.529
352.10 3.526
352.20 3.522
352.30 3.518
352.40 3.515
352.50 3.511
352.60 3.507
352.70 3.504
352.80 3.5
352.90 3.496
353.00 3.493
353.10 3.489
353.20 3.485
353.30 3.482
353.40 3.478
353.50 3.474
353.60 3.471
353.70 3.467
353.80 3.463
353.90 3.46
354.00 3.456
354.10 3.453
354.20 3.449
354.30 3.445
354.40 3.442
354.50 3.438
354.60 3.435
354.70 3.431
354.80 3.428
354.90 3.424
355.00 3.42
355.10 3.417
355.20 3.413
355.30 3.41
355.40 3.406
355.50 3.403
355.60 3.399
355.70 3.396
355.80 3.392
355.90 3.389
356.00 3.385
356.10 3.382
356.20 3.378
356.30 3.375
356.40 3.371
356.50 3.368
356.60 3.364
356.70 3.361
356.80 3.357
356.90 3.354
357.00 3.35
357.10 3.347
357.20 3.343
357.30 3.34
357.40 3.336
357.50 3.333
357.60 3.329
357.70 3.326
357.80 3.323
357.90 3.319
358.00 3.316
358.10 3.312
358.20 3.309
358.30 3.305
358.40 3.302
358.50 3.299
358.60 3.295
358.70 3.292
358.80 3.289
358.90 3.285
359.00 3.282
359.10 3.278
359.20 3.275
359.30 3.272
359.40 3.268
359.50 3.265
359.60 3.262
359.70 3.258
359.80 3.255
359.90 3.251
360.00 3.248
360.10 3.245
360.20 3.241
360.30 3.238
360.40 3.235
360.50 3.232
360.60 3.228
360.70 3.225
360.80 3.222
360.90 3.218
361.00 3.215
361.10 3.212
361.20 3.208
361.30 3.205
361.40 3.202
361.50 3.199
361.60 3.195
361.70 3.192
361.80 3.189
361.90 3.186
362.00 3.182
362.10 3.179
362.20 3.176
362.30 3.173
362.40 3.169
362.50 3.166
362.60 3.163
362.70 3.16
362.80 3.156
362.90 3.153
363.00 3.15
363.10 3.147
363.20 3.144
363.30 3.14
363.40 3.137
363.50 3.134
363.60 3.131
363.70 3.128
363.80 3.124
363.90 3.121
364.00 3.118
364.10 3.115
364.20 3.112
364.30 3.109
364.40 3.105
364.50 3.102
364.60 3.099
364.70 3.096
364.80 3.093
364.90 3.09
365.00 3.087
365.10 3.083
365.20 3.08
365.30 3.077
365.40 3.074
365.50 3.071
365.60 3.068
365.70 3.065
365.80 3.062
365.90 3.059
366.00 3.056
366.10 3.052
366.20 3.049
366.30 3.046
366.40 3.043
366.50 3.04
366.60 3.037
366.70 3.034
366.80 3.031
366.90 3.028
367.00 3.024
367.10 3.021
367.20 3.018
367.30 3.015
367.40 3.012
367.50 3.009
367.60 3.006
367.70 3.003
367.80 3
367.90 2.997
368.00 2.994
368.10 2.99
368.20 2.987
368.30 2.984
368.40 2.981
368.50 2.978
368.60 2.975
368.70 2.972
368.80 2.969
368.90 2.966
369.00 2.962
369.10 2.959
369.20 2.956
369.30 2.953
369.40 2.95
369.50 2.947
369.60 2.944
369.70 2.941
369.80 2.938
369.90 2.935
370.00 2.931
370.10 2.928
370.20 2.925
370.30 2.922
370.40 2.919
370.50 2.916
370.60 2.913
370.70 2.91
370.80 2.907
370.90 2.904
371.00 2.901
371.10 2.898
371.20 2.895
371.30 2.892
371.40 2.889
371.50 2.886
371.60 2.883
371.70 2.88
371.80 2.877
371.90 2.874
372.00 2.871
372.10 2.868
372.20 2.866
372.30 2.863
372.40 2.86
372.50 2.857
372.60 2.854
372.70 2.851
372.80 2.849
372.90 2.846
373.00 2.843
373.10 2.84
373.20 2.837
373.30 2.835
373.40 2.832
373.50 2.829
373.60 2.826
373.70 2.823
373.80 2.821
373.90 2.818
374.00 2.815
374.10 2.812
374.20 2.809
374.30 2.806
374.40 2.804
374.50 2.801
374.60 2.798
374.70 2.795
374.80 2.792
374.90 2.789
375.00 2.786
375.10 2.783
375.20 2.781
375.30 2.778
375.40 2.775
375.50 2.772
375.60 2.769
375.70 2.766
375.80 2.763
375.90 2.761
376.00 2.758
376.10 2.755
376.20 2.752
376.30 2.749
376.40 2.747
376.50 2.744
376.60 2.741
376.70 2.738
376.80 2.735
376.90 2.733
377.00 2.73
377.10 2.727
377.20 2.724
377.30 2.722
377.40 2.719
377.50 2.716
377.60 2.714
377.70 2.711
377.80 2.708
377.90 2.705
378.00 2.703
378.10 2.7
378.20 2.697
378.30 2.695
378.40 2.692
378.50 2.689
378.60 2.687
378.70 2.684
378.80 2.681
378.90 2.679
379.00 2.676
379.10 2.674
379.20 2.671
379.30 2.668
379.40 2.666
379.50 2.663
379.60 2.66
379.70 2.658
379.80 2.655
379.90 2.653
380.00 2.65
380.10 2.647
380.20 2.645
380.30 2.642
380.40 2.64
380.50 2.637
380.60 2.635
380.70 2.632
380.80 2.63
380.90 2.627
381.00 2.624
381.10 2.622
381.20 2.619
381.30 2.617
381.40 2.614
381.50 2.612
381.60 2.609
381.70 2.607
381.80 2.604
381.90 2.602
382.00 2.599
382.10 2.597
382.20 2.594
382.30 2.592
382.40 2.589
382.50 2.587
382.60 2.584
382.70 2.582
382.80 2.58
382.90 2.577
383.00 2.575
383.10 2.572
383.20 2.57
383.30 2.567
383.40 2.565
383.50 2.563
383.60 2.56
383.70 2.558
383.80 2.555
383.90 2.553
384.00 2.551
384.10 2.548
384.20 2.546
384.30 2.544
384.40 2.541
384.50 2.539
384.60 2.537
384.70 2.535
384.80 2.532
384.90 2.53
385.00 2.528
385.10 2.525
385.20 2.523
385.30 2.521
385.40 2.519
385.50 2.516
385.60 2.514
385.70 2.512
385.80 2.509
385.90 2.507
386.00 2.505
386.10 2.502
386.20 2.5
386.30 2.498
386.40 2.495
386.50 2.493
386.60 2.491
386.70 2.488
386.80 2.486
386.90 2.484
387.00 2.481
387.10 2.479
387.20 2.477
387.30 2.474
387.40 2.472
387.50 2.47
387.60 2.467
387.70 2.465
387.80 2.462
387.90 2.46
388.00 2.458
388.10 2.455
388.20 2.453
388.30 2.451
388.40 2.449
388.50 2.446
388.60 2.444
388.70 2.442
388.80 2.44
388.90 2.438
389.00 2.436
389.10 2.434
389.20 2.432
389.30 2.43
389.40 2.428
389.50 2.426
389.60 2.424
389.70 2.422
389.80 2.42
389.90 2.418
390.00 2.416
390.10 2.414
390.20 2.412
390.30 2.41
390.40 2.409
390.50 2.407
390.60 2.405
390.70 2.403
390.80 2.401
390.90 2.399
391.00 2.397
391.10 2.395
391.20 2.393
391.30 2.391
391.40 2.389
391.50 2.387
391.60 2.385
391.70 2.383
391.80 2.381
391.90 2.378
392.00 2.376
392.10 2.374
392.20 2.372
392.30 2.37
392.40 2.368
392.50 2.365
392.60 2.363
392.70 2.361
392.80 2.359
392.90 2.356
393.00 2.354
393.10 2.352
393.20 2.349
393.30 2.347
393.40 2.344
393.50 2.342
393.60 2.34
393.70 2.337
393.80 2.335
393.90 2.332
394.00 2.329
394.10 2.327
394.20 2.324
394.30 2.322
394.40 2.319
394.50 2.316
394.60 2.314
394.70 2.311
394.80 2.308
394.90 2.306
395.00 2.303
395.10 2.3
395.20 2.297
395.30 2.295
395.40 2.292
395.50 2.289
395.60 2.286
395.70 2.283
395.80 2.28
395.90 2.278
396.00 2.275
396.10 2.272
396.20 2.269
396.30 2.266
396.40 2.264
396.50 2.261
396.60 2.258
396.70 2.256
396.80 2.253
396.90 2.251
397.00 2.248
397.10 2.247
397.20 2.246
397.30 2.245
397.40 2.244
397.50 2.243
397.60 2.242
397.70 2.241
397.80 2.24
397.90 2.239
398.00 2.238
398.10 2.238
398.20 2.237
398.30 2.236
398.40 2.235
398.50 2.234
398.60 2.233
398.70 2.233
398.80 2.232
398.90 2.231
399.00 2.23
399.10 2.229
399.20 2.228
399.30 2.227
399.40 2.226
399.50 2.225
399.60 2.224
399.70 2.223
399.80 2.222
399.90 2.221
400.00 2.219
400.10 2.218
400.20 2.217
400.30 2.216
400.40 2.214
400.50 2.213
400.60 2.212
400.70 2.21
400.80 2.209
400.90 2.208
401.00 2.206
401.10 2.205
401.20 2.203
401.30 2.202
401.40 2.2
401.50 2.198
401.60 2.197
401.70 2.195
401.80 2.193
401.90 2.192
402.00 2.19
402.10 2.188
402.20 2.186
402.30 2.184
402.40 2.182
402.50 2.18
402.60 2.179
402.70 2.177
402.80 2.174
402.90 2.172
403.00 2.17
403.10 2.168
403.20 2.166
403.30 2.164
403.40 2.161
403.50 2.159
403.60 2.157
403.70 2.155
403.80 2.152
403.90 2.15
404.00 2.147
404.10 2.145
404.20 2.142
404.30 2.14
404.40 2.137
404.50 2.134
404.60 2.132
404.70 2.129
404.80 2.126
404.90 2.123
405.00 2.12
405.10 2.117
405.20 2.114
405.30 2.111
405.40 2.108
405.50 2.105
405.60 2.102
405.70 2.099
405.80 2.096
405.90 2.092
406.00 2.089
406.10 2.086
406.20 2.082
406.30 2.079
406.40 2.075
406.50 2.072
406.60 2.068
406.70 2.065
406.80 2.061
406.90 2.057
407.00 2.053
407.10 2.05
407.20 2.046
407.30 2.042
407.40 2.038
407.50 2.034
407.60 2.03
407.70 2.026
407.80 2.021
407.90 2.017
408.00 2.013
408.10 2.009
408.20 2.004
408.30 2
408.40 1.996
408.50 1.991
408.60 1.987
408.70 1.983
408.80 1.978
408.90 1.974
409.00 1.97
409.10 1.966
409.20 1.962
409.30 1.957
409.40 1.954
409.50 1.95
409.60 1.947
409.70 1.944
409.80 1.941
409.90 1.939
410.00 1.938
410.10 1.937
410.20 1.936
410.30 1.934
410.40 1.931
410.50 1.93
410.60 1.929
410.70 1.928
410.80 1.928
410.90 1.929
411.00 1.929
411.10 1.93
411.20 1.931
411.30 1.932
411.40 1.933
411.50 1.934
411.60 1.935
411.70 1.936
411.80 1.937
411.90 1.938
412.00 1.939
412.10 1.94
412.20 1.941
412.30 1.942
412.40 1.943
412.50 1.944
412.60 1.945
412.70 1.946
412.80 1.946
412.90 1.947
413.00 1.948
413.10 1.949
413.20 1.949
413.30 1.95
413.40 1.95
413.50 1.951
413.60 1.951
413.70 1.951
413.80 1.952
413.90 1.952
414.00 1.952
414.10 1.952
414.20 1.953
414.30 1.953
414.40 1.953
414.50 1.953
414.60 1.953
414.70 1.953
414.80 1.952
414.90 1.952
415.00 1.952
415.10 1.952
415.20 1.952
415.30 1.951
415.40 1.951
415.50 1.951
415.60 1.95
415.70 1.95
415.80 1.949
415.90 1.949
416.00 1.948
416.10 1.948
416.20 1.947
416.30 1.946
416.40 1.946
416.50 1.945
416.60 1.944
416.70 1.943
416.80 1.943
416.90 1.942
417.00 1.941
417.10 1.94
417.20 1.939
417.30 1.938
417.40 1.937
417.50 1.937
417.60 1.936
417.70 1.935
417.80 1.934
417.90 1.932
418.00 1.931
418.10 1.93
418.20 1.929
418.30 1.928
418.40 1.927
418.50 1.926
418.60 1.925
418.70 1.923
418.80 1.922
418.90 1.921
419.00 1.92
419.10 1.918
419.20 1.917
419.30 1.916
419.40 1.914
419.50 1.913
419.60 1.912
419.70 1.91
419.80 1.909
419.90 1.908
420.00 1.906
420.10 1.905
420.20 1.903
420.30 1.902
420.40 1.9
420.50 1.899
420.60 1.897
420.70 1.896
420.80 1.894
420.90 1.893
421.00 1.891
421.10 1.889
421.20 1.888
421.30 1.886
421.40 1.885
421.50 1.883
421.60 1.881
421.70 1.88
421.80 1.878
421.90 1.876
422.00 1.875
422.10 1.873
422.20 1.871
422.30 1.869
422.40 1.868
422.50 1.866
422.60 1.864
422.70 1.862
422.80 1.86
422.90 1.859
423.00 1.857
423.10 1.855
423.20 1.853
423.30 1.851
423.40 1.849
423.50 1.847
423.60 1.845
423.70 1.843
423.80 1.841
423.90 1.839
424.00 1.837
424.10 1.835
424.20 1.833
424.30 1.831
424.40 1.829
424.50 1.827
424.60 1.825
424.70 1.823
424.80 1.821
424.90 1.818
425.00 1.816
425.10 1.814
425.20 1.812
425.30 1.809
425.40 1.807
425.50 1.805
425.60 1.803
425.70 1.8
425.80 1.798
425.90 1.795
426.00 1.793
426.10 1.791
426.20 1.788
426.30 1.786
426.40 1.783
426.50 1.781
426.60 1.778
426.70 1.775
426.80 1.773
426.90 1.77
427.00 1.767
427.10 1.765
427.20 1.762
427.30 1.759
427.40 1.756
427.50 1.753
427.60 1.75
427.70 1.747
427.80 1.744
427.90 1.741
428.00 1.738
428.10 1.735
428.20 1.732
428.30 1.729
428.40 1.726
428.50 1.722
428.60 1.719
428.70 1.716
428.80 1.712
428.90 1.709
429.00 1.705
429.10 1.702
429.20 1.698
429.30 1.694
429.40 1.691
429.50 1.687
429.60 1.683
429.70 1.679
429.80 1.675
429.90 1.671
430.00 1.667
430.10 1.663
430.20 1.659
430.30 1.654
430.40 1.65
430.50 1.646
430.60 1.641
430.70 1.637
430.80 1.632
430.90 1.627
431.00 1.623
431.10 1.618
431.20 1.613
431.30 1.608
431.40 1.603
431.50 1.598
431.60 1.593
431.70 1.588
431.80 1.583
431.90 1.577
432.00 1.572
432.10 1.566
432.20 1.561
432.30 1.555
432.40 1.55
432.50 1.544
432.60 1.539
432.70 1.533
432.80 1.527
432.90 1.522
433.00 1.516
433.10 1.51
433.20 1.505
433.30 1.499
433.40 1.493
433.50 1.487
433.60 1.481
433.70 1.474
433.80 1.466
433.90 1.458
434.00 1.451
434.10 1.45
434.20 1.455
434.30 1.461
434.40 1.466
434.50 1.471
434.60 1.474
434.70 1.478
434.80 1.481
434.90 1.485
435.00 1.488
435.10 1.491
435.20 1.494
435.30 1.498
435.40 1.501
435.50 1.504
435.60 1.507
435.70 1.51
435.80 1.513
435.90 1.516
436.00 1.519
436.10 1.521
436.20 1.524
436.30 1.527
436.40 1.529
436.50 1.532
436.60 1.534
436.70 1.536
436.80 1.539
436.90 1.541
437.00 1.543
437.10 1.545
437.20 1.547
437.30 1.549
437.40 1.551
437.50 1.552
437.60 1.554
437.70 1.556
437.80 1.557
437.90 1.559
438.00 1.56
438.10 1.561
438.20 1.562
438.30 1.564
438.40 1.565
438.50 1.566
438.60 1.567
438.70 1.568
438.80 1.569
438.90 1.569
439.00 1.57
439.10 1.571
439.20 1.571
439.30 1.572
439.40 1.573
439.50 1.573
439.60 1.573
439.70 1.574
439.80 1.574
439.90 1.574
440.00 1.575
440.10 1.575
440.20 1.575
440.30 1.575
440.40 1.575
440.50 1.575
440.60 1.575
440.70 1.575
440.80 1.575
440.90 1.575
441.00 1.575
441.10 1.575
441.20 1.575
441.30 1.574
441.40 1.574
441.50 1.574
441.60 1.574
441.70 1.573
441.80 1.573
441.90 1.572
442.00 1.572
442.10 1.572
442.20 1.571
442.30 1.571
442.40 1.57
442.50 1.57
442.60 1.569
442.70 1.568
442.80 1.568
442.90 1.567
443.00 1.567
443.10 1.566
443.20 1.565
443.30 1.565
443.40 1.564
443.50 1.563
443.60 1.562
443.70 1.562
443.80 1.561
443.90 1.56
444.00 1.559
444.10 1.558
444.20 1.558
444.30 1.557
444.40 1.556
444.50 1.555
444.60 1.554
444.70 1.553
444.80 1.553
444.90 1.552
445.00 1.551
445.10 1.55
445.20 1.549
445.30 1.548
445.40 1.547
445.50 1.546
445.60 1.545
445.70 1.544
445.80 1.543
445.90 1.542
446.00 1.541
446.10 1.54
446.20 1.539
446.30 1.538
446.40 1.537
446.50 1.536
446.60 1.535
446.70 1.534
446.80 1.533
446.90 1.532
447.00 1.531
447.10 1.53
447.20 1.529
447.30 1.528
447.40 1.527
447.50 1.526
447.60 1.524
447.70 1.523
447.80 1.522
447.90 1.521
448.00 1.52
448.10 1.519
448.20 1.518
448.30 1.517
448.40 1.516
448.50 1.515
448.60 1.513
448.70 1.512
448.80 1.511
448.90 1.51
449.00 1.509
449.10 1.508
449.20 1.507
449.30 1.506
449.40 1.504
449.50 1.503
449.60 1.502
449.70 1.501
449.80 1.5
449.90 1.499
450.00 1.498
450.10 1.496
450.20 1.495
450.30 1.494
450.40 1.493
450.50 1.492
450.60 1.491
450.70 1.49
450.80 1.488
450.90 1.487
451.00 1.486
451.10 1.485
451.20 1.484
451.30 1.483
451.40 1.481
451.50 1.48
451.60 1.479
451.70 1.478
451.80 1.477
451.90 1.476
452.00 1.474
452.10 1.473
452.20 1.472
452.30 1.471
452.40 1.47
452.50 1.469
452.60 1.467
452.70 1.466
452.80 1.465
452.90 1.464
453.00 1.463
453.10 1.462
453.20 1.46
453.30 1.459
453.40 1.458
453.50 1.457
453.60 1.456
453.70 1.455
453.80 1.453
453.90 1.452
454.00 1.451
