# Version 2.1 - nm, norm@500 to 1, cut digits, bergeron_6000_80.dat_6000
# Wavelength(nm)  Flambda(ergs/cm^s/s/nm)
300.00 0.6824
300.10 0.6829
300.20 0.6834
300.30 0.6838
300.40 0.6843
300.50 0.6848
300.60 0.6853
300.70 0.6858
300.80 0.6863
300.90 0.6867
301.00 0.6872
301.10 0.6877
301.20 0.6882
301.30 0.6887
301.40 0.6891
301.50 0.6896
301.60 0.6901
301.70 0.6906
301.80 0.691
301.90 0.6915
302.00 0.692
302.10 0.6925
302.20 0.693
302.30 0.6934
302.40 0.6939
302.50 0.6944
302.60 0.6949
302.70 0.6954
302.80 0.6958
302.90 0.6963
303.00 0.6968
303.10 0.6973
303.20 0.6978
303.30 0.6982
303.40 0.6987
303.50 0.6992
303.60 0.6996
303.70 0.7001
303.80 0.7006
303.90 0.7011
304.00 0.7015
304.10 0.702
304.20 0.7025
304.30 0.703
304.40 0.7034
304.50 0.7039
304.60 0.7044
304.70 0.7048
304.80 0.7053
304.90 0.7058
305.00 0.7063
305.10 0.7067
305.20 0.7072
305.30 0.7077
305.40 0.7081
305.50 0.7086
305.60 0.709
305.70 0.7095
305.80 0.71
305.90 0.7104
306.00 0.7109
306.10 0.7114
306.20 0.7118
306.30 0.7123
306.40 0.7128
306.50 0.7132
306.60 0.7137
306.70 0.7142
306.80 0.7146
306.90 0.7151
307.00 0.7156
307.10 0.716
307.20 0.7165
307.30 0.717
307.40 0.7174
307.50 0.7179
307.60 0.7183
307.70 0.7188
307.80 0.7192
307.90 0.7197
308.00 0.7202
308.10 0.7206
308.20 0.7211
308.30 0.7215
308.40 0.722
308.50 0.7225
308.60 0.7229
308.70 0.7234
308.80 0.7238
308.90 0.7243
309.00 0.7248
309.10 0.7252
309.20 0.7257
309.30 0.7261
309.40 0.7266
309.50 0.727
309.60 0.7275
309.70 0.7279
309.80 0.7284
309.90 0.7288
310.00 0.7293
310.10 0.7297
310.20 0.7302
310.30 0.7306
310.40 0.7311
310.50 0.7316
310.60 0.732
310.70 0.7325
310.80 0.7329
310.90 0.7334
311.00 0.7338
311.10 0.7343
311.20 0.7347
311.30 0.7351
311.40 0.7356
311.50 0.736
311.60 0.7365
311.70 0.7369
311.80 0.7374
311.90 0.7378
312.00 0.7382
312.10 0.7387
312.20 0.7391
312.30 0.7396
312.40 0.74
312.50 0.7405
312.60 0.7409
312.70 0.7414
312.80 0.7418
312.90 0.7423
313.00 0.7427
313.10 0.7432
313.20 0.7436
313.30 0.744
313.40 0.7445
313.50 0.7449
313.60 0.7454
313.70 0.7458
313.80 0.7462
313.90 0.7467
314.00 0.7471
314.10 0.7475
314.20 0.748
314.30 0.7484
314.40 0.7489
314.50 0.7493
314.60 0.7497
314.70 0.7502
314.80 0.7506
314.90 0.7511
315.00 0.7515
315.10 0.7519
315.20 0.7524
315.30 0.7528
315.40 0.7532
315.50 0.7537
315.60 0.7541
315.70 0.7545
315.80 0.7549
315.90 0.7554
316.00 0.7558
316.10 0.7562
316.20 0.7567
316.30 0.7571
316.40 0.7575
316.50 0.758
316.60 0.7584
316.70 0.7588
316.80 0.7593
316.90 0.7597
317.00 0.7601
317.10 0.7605
317.20 0.761
317.30 0.7614
317.40 0.7618
317.50 0.7623
317.60 0.7627
317.70 0.7631
317.80 0.7635
317.90 0.764
318.00 0.7644
318.10 0.7648
318.20 0.7652
318.30 0.7657
318.40 0.7661
318.50 0.7665
318.60 0.7669
318.70 0.7673
318.80 0.7678
318.90 0.7682
319.00 0.7686
319.10 0.769
319.20 0.7695
319.30 0.7699
319.40 0.7703
319.50 0.7707
319.60 0.7711
319.70 0.7715
319.80 0.772
319.90 0.7724
320.00 0.7728
320.10 0.7732
320.20 0.7736
320.30 0.774
320.40 0.7745
320.50 0.7749
320.60 0.7753
320.70 0.7757
320.80 0.7761
320.90 0.7766
321.00 0.777
321.10 0.7774
321.20 0.7778
321.30 0.7782
321.40 0.7786
321.50 0.779
321.60 0.7794
321.70 0.7799
321.80 0.7803
321.90 0.7807
322.00 0.7811
322.10 0.7815
322.20 0.7819
322.30 0.7823
322.40 0.7827
322.50 0.7831
322.60 0.7835
322.70 0.7839
322.80 0.7844
322.90 0.7848
323.00 0.7852
323.10 0.7856
323.20 0.786
323.30 0.7864
323.40 0.7868
323.50 0.7872
323.60 0.7876
323.70 0.788
323.80 0.7884
323.90 0.7888
324.00 0.7892
324.10 0.7896
324.20 0.79
324.30 0.7904
324.40 0.7908
324.50 0.7912
324.60 0.7916
324.70 0.792
324.80 0.7924
324.90 0.7928
325.00 0.7932
325.10 0.7936
325.20 0.794
325.30 0.7944
325.40 0.7948
325.50 0.7952
325.60 0.7956
325.70 0.796
325.80 0.7964
325.90 0.7968
326.00 0.7972
326.10 0.7976
326.20 0.798
326.30 0.7984
326.40 0.7988
326.50 0.7992
326.60 0.7996
326.70 0.8
326.80 0.8004
326.90 0.8007
327.00 0.8011
327.10 0.8015
327.20 0.8019
327.30 0.8023
327.40 0.8027
327.50 0.8031
327.60 0.8035
327.70 0.8039
327.80 0.8043
327.90 0.8046
328.00 0.805
328.10 0.8054
328.20 0.8058
328.30 0.8062
328.40 0.8066
328.50 0.807
328.60 0.8074
328.70 0.8077
328.80 0.8081
328.90 0.8085
329.00 0.8089
329.10 0.8093
329.20 0.8097
329.30 0.81
329.40 0.8104
329.50 0.8108
329.60 0.8112
329.70 0.8116
329.80 0.8119
329.90 0.8123
330.00 0.8127
330.10 0.8131
330.20 0.8135
330.30 0.8138
330.40 0.8142
330.50 0.8146
330.60 0.815
330.70 0.8154
330.80 0.8157
330.90 0.8161
331.00 0.8165
331.10 0.8169
331.20 0.8173
331.30 0.8176
331.40 0.818
331.50 0.8184
331.60 0.8188
331.70 0.8191
331.80 0.8195
331.90 0.8199
332.00 0.8202
332.10 0.8206
332.20 0.821
332.30 0.8214
332.40 0.8217
332.50 0.8221
332.60 0.8225
332.70 0.8229
332.80 0.8232
332.90 0.8236
333.00 0.824
333.10 0.8243
333.20 0.8247
333.30 0.8251
333.40 0.8254
333.50 0.8258
333.60 0.8262
333.70 0.8265
333.80 0.8269
333.90 0.8273
334.00 0.8276
334.10 0.828
334.20 0.8284
334.30 0.8287
334.40 0.8291
334.50 0.8295
334.60 0.8298
334.70 0.8302
334.80 0.8306
334.90 0.8309
335.00 0.8313
335.10 0.8316
335.20 0.832
335.30 0.8324
335.40 0.8327
335.50 0.8331
335.60 0.8334
335.70 0.8338
335.80 0.8342
335.90 0.8345
336.00 0.8349
336.10 0.8352
336.20 0.8356
336.30 0.8359
336.40 0.8363
336.50 0.8367
336.60 0.837
336.70 0.8374
336.80 0.8377
336.90 0.8381
337.00 0.8384
337.10 0.8388
337.20 0.8391
337.30 0.8395
337.40 0.8398
337.50 0.8402
337.60 0.8406
337.70 0.8409
337.80 0.8413
337.90 0.8416
338.00 0.8419
338.10 0.8423
338.20 0.8426
338.30 0.843
338.40 0.8433
338.50 0.8437
338.60 0.844
338.70 0.8444
338.80 0.8447
338.90 0.8451
339.00 0.8454
339.10 0.8458
339.20 0.8461
339.30 0.8465
339.40 0.8468
339.50 0.8472
339.60 0.8475
339.70 0.8478
339.80 0.8482
339.90 0.8485
340.00 0.8489
340.10 0.8492
340.20 0.8496
340.30 0.8499
340.40 0.8502
340.50 0.8506
340.60 0.8509
340.70 0.8513
340.80 0.8516
340.90 0.852
341.00 0.8523
341.10 0.8526
341.20 0.853
341.30 0.8533
341.40 0.8536
341.50 0.854
341.60 0.8543
341.70 0.8547
341.80 0.855
341.90 0.8553
342.00 0.8557
342.10 0.856
342.20 0.8563
342.30 0.8567
342.40 0.857
342.50 0.8573
342.60 0.8577
342.70 0.858
342.80 0.8583
342.90 0.8587
343.00 0.859
343.10 0.8593
343.20 0.8597
343.30 0.86
343.40 0.8603
343.50 0.8606
343.60 0.861
343.70 0.8613
343.80 0.8616
343.90 0.862
344.00 0.8623
344.10 0.8626
344.20 0.8629
344.30 0.8633
344.40 0.8636
344.50 0.8639
344.60 0.8642
344.70 0.8646
344.80 0.8649
344.90 0.8652
345.00 0.8656
345.10 0.8659
345.20 0.8662
345.30 0.8665
345.40 0.8669
345.50 0.8672
345.60 0.8675
345.70 0.8678
345.80 0.8681
345.90 0.8685
346.00 0.8688
346.10 0.8691
346.20 0.8694
346.30 0.8697
346.40 0.8701
346.50 0.8704
346.60 0.8707
346.70 0.871
346.80 0.8713
346.90 0.8717
347.00 0.872
347.10 0.8723
347.20 0.8726
347.30 0.8729
347.40 0.8732
347.50 0.8735
347.60 0.8739
347.70 0.8742
347.80 0.8745
347.90 0.8748
348.00 0.8751
348.10 0.8754
348.20 0.8757
348.30 0.876
348.40 0.8764
348.50 0.8767
348.60 0.877
348.70 0.8773
348.80 0.8776
348.90 0.8779
349.00 0.8782
349.10 0.8785
349.20 0.8788
349.30 0.8791
349.40 0.8794
349.50 0.8797
349.60 0.8801
349.70 0.8804
349.80 0.8807
349.90 0.881
350.00 0.8813
350.10 0.8816
350.20 0.8819
350.30 0.8822
350.40 0.8825
350.50 0.8828
350.60 0.8831
350.70 0.8834
350.80 0.8837
350.90 0.884
351.00 0.8843
351.10 0.8846
351.20 0.8849
351.30 0.8852
351.40 0.8855
351.50 0.8858
351.60 0.8861
351.70 0.8864
351.80 0.8867
351.90 0.887
352.00 0.8873
352.10 0.8876
352.20 0.8879
352.30 0.8882
352.40 0.8885
352.50 0.8888
352.60 0.8891
352.70 0.8894
352.80 0.8897
352.90 0.89
353.00 0.8902
353.10 0.8905
353.20 0.8908
353.30 0.8911
353.40 0.8914
353.50 0.8917
353.60 0.892
353.70 0.8923
353.80 0.8926
353.90 0.8929
354.00 0.8932
354.10 0.8934
354.20 0.8937
354.30 0.894
354.40 0.8943
354.50 0.8946
354.60 0.8949
354.70 0.8952
354.80 0.8955
354.90 0.8958
355.00 0.896
355.10 0.8963
355.20 0.8966
355.30 0.8969
355.40 0.8972
355.50 0.8975
355.60 0.8978
355.70 0.898
355.80 0.8983
355.90 0.8986
356.00 0.8989
356.10 0.8992
356.20 0.8995
356.30 0.8997
356.40 0.9
356.50 0.9003
356.60 0.9006
356.70 0.9009
356.80 0.9011
356.90 0.9014
357.00 0.9017
357.10 0.902
357.20 0.9022
357.30 0.9025
357.40 0.9028
357.50 0.9031
357.60 0.9034
357.70 0.9036
357.80 0.9039
357.90 0.9042
358.00 0.9044
358.10 0.9047
358.20 0.905
358.30 0.9053
358.40 0.9055
358.50 0.9058
358.60 0.9061
358.70 0.9064
358.80 0.9066
358.90 0.9069
359.00 0.9072
359.10 0.9075
359.20 0.9077
359.30 0.908
359.40 0.9083
359.50 0.9085
359.60 0.9088
359.70 0.9091
359.80 0.9093
359.90 0.9096
360.00 0.9099
360.10 0.9101
360.20 0.9104
360.30 0.9107
360.40 0.9109
360.50 0.9112
360.60 0.9115
360.70 0.9117
360.80 0.912
360.90 0.9123
361.00 0.9125
361.10 0.9128
361.20 0.9131
361.30 0.9133
361.40 0.9136
361.50 0.9138
361.60 0.9141
361.70 0.9144
361.80 0.9146
361.90 0.9149
362.00 0.9151
362.10 0.9154
362.20 0.9157
362.30 0.9159
362.40 0.9162
362.50 0.9164
362.60 0.9167
362.70 0.917
362.80 0.9172
362.90 0.9175
363.00 0.9177
363.10 0.918
363.20 0.9182
363.30 0.9185
363.40 0.9188
363.50 0.919
363.60 0.9193
363.70 0.9195
363.80 0.9198
363.90 0.92
364.00 0.9203
364.10 0.9205
364.20 0.9208
364.30 0.921
364.40 0.9213
364.50 0.9215
364.60 0.9218
364.70 0.922
364.80 0.9223
364.90 0.9225
365.00 0.9227
365.10 0.923
365.20 0.9232
365.30 0.9235
365.40 0.9237
365.50 0.924
365.60 0.9242
365.70 0.9245
365.80 0.9247
365.90 0.925
366.00 0.9252
366.10 0.9255
366.20 0.9257
366.30 0.9259
366.40 0.9262
366.50 0.9264
366.60 0.9267
366.70 0.9269
366.80 0.9272
366.90 0.9274
367.00 0.9276
367.10 0.9279
367.20 0.9281
367.30 0.9284
367.40 0.9286
367.50 0.9288
367.60 0.9291
367.70 0.9293
367.80 0.9296
367.90 0.9298
368.00 0.93
368.10 0.9303
368.20 0.9305
368.30 0.9307
368.40 0.931
368.50 0.9312
368.60 0.9315
368.70 0.9317
368.80 0.9319
368.90 0.9322
369.00 0.9324
369.10 0.9326
369.20 0.9329
369.30 0.9331
369.40 0.9333
369.50 0.9336
369.60 0.9338
369.70 0.934
369.80 0.9343
369.90 0.9345
370.00 0.9347
370.10 0.935
370.20 0.9352
370.30 0.9354
370.40 0.9356
370.50 0.9359
370.60 0.9361
370.70 0.9363
370.80 0.9366
370.90 0.9368
371.00 0.937
371.10 0.9373
371.20 0.9375
371.30 0.9377
371.40 0.9379
371.50 0.9382
371.60 0.9384
371.70 0.9386
371.80 0.9388
371.90 0.9391
372.00 0.9393
372.10 0.9395
372.20 0.9397
372.30 0.94
372.40 0.9402
372.50 0.9404
372.60 0.9406
372.70 0.9408
372.80 0.9411
372.90 0.9413
373.00 0.9415
373.10 0.9417
373.20 0.942
373.30 0.9422
373.40 0.9424
373.50 0.9426
373.60 0.9428
373.70 0.943
373.80 0.9433
373.90 0.9435
374.00 0.9437
374.10 0.9439
374.20 0.9441
374.30 0.9444
374.40 0.9446
374.50 0.9448
374.60 0.945
374.70 0.9452
374.80 0.9454
374.90 0.9457
375.00 0.9459
375.10 0.9461
375.20 0.9463
375.30 0.9465
375.40 0.9467
375.50 0.9469
375.60 0.9471
375.70 0.9474
375.80 0.9476
375.90 0.9478
376.00 0.948
376.10 0.9482
376.20 0.9484
376.30 0.9486
376.40 0.9488
376.50 0.9491
376.60 0.9493
376.70 0.9495
376.80 0.9497
376.90 0.9499
377.00 0.9501
377.10 0.9503
377.20 0.9505
377.30 0.9507
377.40 0.9509
377.50 0.9512
377.60 0.9514
377.70 0.9516
377.80 0.9518
377.90 0.952
378.00 0.9522
378.10 0.9524
378.20 0.9526
378.30 0.9528
378.40 0.953
378.50 0.9532
378.60 0.9534
378.70 0.9536
378.80 0.9538
378.90 0.954
379.00 0.9542
379.10 0.9543
379.20 0.9544
379.30 0.9546
379.40 0.9547
379.50 0.9549
379.60 0.955
379.70 0.9552
379.80 0.9553
379.90 0.9555
380.00 0.9556
380.10 0.9559
380.20 0.9562
380.30 0.9565
380.40 0.9568
380.50 0.9571
380.60 0.9574
380.70 0.9577
380.80 0.9579
380.90 0.9582
381.00 0.9585
381.10 0.9587
381.20 0.959
381.30 0.9592
381.40 0.9594
381.50 0.9596
381.60 0.9598
381.70 0.96
381.80 0.9602
381.90 0.9604
382.00 0.9606
382.10 0.9607
382.20 0.9609
382.30 0.9609
382.40 0.9608
382.50 0.9608
382.60 0.9608
382.70 0.9608
382.80 0.9607
382.90 0.9607
383.00 0.9607
383.10 0.9607
383.20 0.9606
383.30 0.96
383.40 0.9591
383.50 0.9572
383.60 0.9581
383.70 0.96
383.80 0.9613
383.90 0.9623
384.00 0.963
384.10 0.9637
384.20 0.9642
384.30 0.9646
384.40 0.9651
384.50 0.9654
384.60 0.9657
384.70 0.966
384.80 0.9663
384.90 0.9666
385.00 0.9668
385.10 0.9671
385.20 0.9673
385.30 0.9675
385.40 0.9678
385.50 0.968
385.60 0.9682
385.70 0.9684
385.80 0.9686
385.90 0.9688
386.00 0.969
386.10 0.9692
386.20 0.9694
386.30 0.9696
386.40 0.9698
386.50 0.97
386.60 0.9701
386.70 0.9703
386.80 0.9704
386.90 0.9706
387.00 0.9707
387.10 0.9709
387.20 0.971
387.30 0.9711
387.40 0.9712
387.50 0.9713
387.60 0.9713
387.70 0.9713
387.80 0.9712
387.90 0.9711
388.00 0.9709
388.10 0.9706
388.20 0.9701
388.30 0.9695
388.40 0.9684
388.50 0.9669
388.60 0.9651
388.70 0.962
388.80 0.9574
388.90 0.9512
389.00 0.9575
389.10 0.9624
389.20 0.9659
389.30 0.9682
389.40 0.9702
389.50 0.9717
389.60 0.9727
389.70 0.9736
389.80 0.9743
389.90 0.9749
390.00 0.9754
390.10 0.9758
390.20 0.9762
390.30 0.9766
390.40 0.9769
390.50 0.9772
390.60 0.9774
390.70 0.9777
390.80 0.9779
390.90 0.9782
391.00 0.9784
391.10 0.9786
391.20 0.9788
391.30 0.979
391.40 0.9792
391.50 0.9794
391.60 0.9796
391.70 0.9798
391.80 0.98
391.90 0.9802
392.00 0.9804
392.10 0.9805
392.20 0.9807
392.30 0.9809
392.40 0.9811
392.50 0.9812
392.60 0.9814
392.70 0.9816
392.80 0.9817
392.90 0.9819
393.00 0.9821
393.10 0.9822
393.20 0.9824
393.30 0.9826
393.40 0.9827
393.50 0.9829
393.60 0.983
393.70 0.9832
393.80 0.9833
393.90 0.9835
394.00 0.9836
394.10 0.9837
394.20 0.9839
394.30 0.984
394.40 0.9841
394.50 0.9842
394.60 0.9843
394.70 0.9844
394.80 0.9845
394.90 0.9846
395.00 0.9847
395.10 0.9847
395.20 0.9847
395.30 0.9847
395.40 0.9847
395.50 0.9847
395.60 0.9845
395.70 0.9844
395.80 0.9841
395.90 0.9837
396.00 0.9832
396.10 0.9826
396.20 0.9816
396.30 0.9802
396.40 0.9785
396.50 0.9757
396.60 0.9718
396.70 0.9669
396.80 0.9586
396.90 0.947
397.00 0.932
397.10 0.9463
397.20 0.9579
397.30 0.967
397.40 0.9724
397.50 0.9768
397.60 0.9801
397.70 0.9821
397.80 0.9839
397.90 0.9852
398.00 0.9862
398.10 0.987
398.20 0.9877
398.30 0.9883
398.40 0.9888
398.50 0.9892
398.60 0.9896
398.70 0.9899
398.80 0.9902
398.90 0.9905
399.00 0.9907
399.10 0.991
399.20 0.9912
399.30 0.9914
399.40 0.9916
399.50 0.9918
399.60 0.992
399.70 0.9922
399.80 0.9924
399.90 0.9926
400.00 0.9927
400.10 0.9929
400.20 0.993
400.30 0.9932
400.40 0.9934
400.50 0.9935
400.60 0.9937
400.70 0.9938
400.80 0.994
400.90 0.9941
401.00 0.9943
401.10 0.9944
401.20 0.9946
401.30 0.9947
401.40 0.9949
401.50 0.995
401.60 0.9951
401.70 0.9953
401.80 0.9954
401.90 0.9956
402.00 0.9957
402.10 0.9958
402.20 0.996
402.30 0.9961
402.40 0.9962
402.50 0.9963
402.60 0.9965
402.70 0.9966
402.80 0.9967
402.90 0.9969
403.00 0.997
403.10 0.9971
403.20 0.9973
403.30 0.9974
403.40 0.9975
403.50 0.9976
403.60 0.9978
403.70 0.9979
403.80 0.998
403.90 0.9981
404.00 0.9983
404.10 0.9984
404.20 0.9985
404.30 0.9986
404.40 0.9987
404.50 0.9988
404.60 0.999
404.70 0.9991
404.80 0.9992
404.90 0.9993
405.00 0.9994
405.10 0.9995
405.20 0.9996
405.30 0.9997
405.40 0.9999
405.50 1
405.60 1
405.70 1
405.80 1
405.90 1
406.00 1
406.10 1.001
406.20 1.001
406.30 1.001
406.40 1.001
406.50 1.001
406.60 1.001
406.70 1.001
406.80 1.001
406.90 1.001
407.00 1.001
407.10 1.001
407.20 1.001
407.30 1.002
407.40 1.002
407.50 1.002
407.60 1.002
407.70 1.002
407.80 1.002
407.90 1.002
408.00 1.002
408.10 1.002
408.20 1.002
408.30 1.002
408.40 1.001
408.50 1.001
408.60 1.001
408.70 1.001
408.80 1
408.90 0.9998
409.00 0.9992
409.10 0.9983
409.20 0.9971
409.30 0.9957
409.40 0.9935
409.50 0.9905
409.60 0.9868
409.70 0.9803
409.80 0.9711
409.90 0.959
410.00 0.9367
410.10 0.914
410.20 0.8909
410.30 0.924
410.40 0.9495
410.50 0.9676
410.60 0.9774
410.70 0.9851
410.80 0.9905
410.90 0.9938
411.00 0.9965
411.10 0.9986
411.20 1
411.30 1.001
411.40 1.002
411.50 1.003
411.60 1.004
411.70 1.004
411.80 1.005
411.90 1.005
412.00 1.005
412.10 1.006
412.20 1.006
412.30 1.006
412.40 1.006
412.50 1.007
412.60 1.007
412.70 1.007
412.80 1.007
412.90 1.007
413.00 1.007
413.10 1.008
413.20 1.008
413.30 1.008
413.40 1.008
413.50 1.008
413.60 1.008
413.70 1.008
413.80 1.009
413.90 1.009
414.00 1.009
414.10 1.009
414.20 1.009
414.30 1.009
414.40 1.009
414.50 1.009
414.60 1.009
414.70 1.01
414.80 1.01
414.90 1.01
415.00 1.01
415.10 1.01
415.20 1.01
415.30 1.01
415.40 1.01
415.50 1.01
415.60 1.01
415.70 1.01
415.80 1.011
415.90 1.011
416.00 1.011
416.10 1.011
416.20 1.011
416.30 1.011
416.40 1.011
416.50 1.011
416.60 1.011
416.70 1.011
416.80 1.011
416.90 1.012
417.00 1.012
417.10 1.012
417.20 1.012
417.30 1.012
417.40 1.012
417.50 1.012
417.60 1.012
417.70 1.012
417.80 1.012
417.90 1.012
418.00 1.012
418.10 1.013
418.20 1.013
418.30 1.013
418.40 1.013
418.50 1.013
418.60 1.013
418.70 1.013
418.80 1.013
418.90 1.013
419.00 1.013
419.10 1.013
419.20 1.013
419.30 1.014
419.40 1.014
419.50 1.014
419.60 1.014
419.70 1.014
419.80 1.014
419.90 1.014
420.00 1.014
420.10 1.014
420.20 1.014
420.30 1.014
420.40 1.014
420.50 1.014
420.60 1.014
420.70 1.015
420.80 1.015
420.90 1.015
421.00 1.015
421.10 1.015
421.20 1.015
421.30 1.015
421.40 1.015
421.50 1.015
421.60 1.015
421.70 1.015
421.80 1.015
421.90 1.015
422.00 1.015
422.10 1.016
422.20 1.016
422.30 1.016
422.40 1.016
422.50 1.016
422.60 1.016
422.70 1.016
422.80 1.016
422.90 1.016
423.00 1.016
423.10 1.016
423.20 1.016
423.30 1.016
423.40 1.016
423.50 1.016
423.60 1.016
423.70 1.017
423.80 1.017
423.90 1.017
424.00 1.017
424.10 1.017
424.20 1.017
424.30 1.017
424.40 1.017
424.50 1.017
424.60 1.017
424.70 1.017
424.80 1.017
424.90 1.017
425.00 1.017
425.10 1.017
425.20 1.017
425.30 1.017
425.40 1.018
425.50 1.018
425.60 1.018
425.70 1.018
425.80 1.018
425.90 1.018
426.00 1.018
426.10 1.018
426.20 1.018
426.30 1.018
426.40 1.018
426.50 1.018
426.60 1.018
426.70 1.018
426.80 1.018
426.90 1.018
427.00 1.018
427.10 1.018
427.20 1.018
427.30 1.018
427.40 1.019
427.50 1.019
427.60 1.019
427.70 1.019
427.80 1.019
427.90 1.019
428.00 1.019
428.10 1.019
428.20 1.019
428.30 1.019
428.40 1.019
428.50 1.019
428.60 1.019
428.70 1.019
428.80 1.019
428.90 1.019
429.00 1.019
429.10 1.019
429.20 1.019
429.30 1.019
429.40 1.019
429.50 1.019
429.60 1.019
429.70 1.019
429.80 1.019
429.90 1.019
430.00 1.019
430.10 1.019
430.20 1.019
430.30 1.019
430.40 1.019
430.50 1.019
430.60 1.019
430.70 1.019
430.80 1.019
430.90 1.019
431.00 1.019
431.10 1.019
431.20 1.019
431.30 1.019
431.40 1.019
431.50 1.019
431.60 1.019
431.70 1.019
431.80 1.018
431.90 1.018
432.00 1.018
432.10 1.018
432.20 1.018
432.30 1.017
432.40 1.017
432.50 1.016
432.60 1.015
432.70 1.015
432.80 1.014
432.90 1.012
433.00 1.011
433.10 1.008
433.20 1.006
433.30 1.002
433.40 0.9961
433.50 0.988
433.60 0.9777
433.70 0.9582
433.80 0.9286
433.90 0.889
434.00 0.8122
434.10 0.8138
434.20 0.8937
434.30 0.9319
434.40 0.9604
434.50 0.9794
434.60 0.9894
434.70 0.9973
434.80 1.003
434.90 1.007
435.00 1.01
435.10 1.012
435.20 1.013
435.30 1.015
435.40 1.016
435.50 1.017
435.60 1.017
435.70 1.018
435.80 1.019
435.90 1.019
436.00 1.019
436.10 1.02
436.20 1.02
436.30 1.02
436.40 1.02
436.50 1.021
436.60 1.021
436.70 1.021
436.80 1.021
436.90 1.021
437.00 1.021
437.10 1.021
437.20 1.022
437.30 1.022
437.40 1.022
437.50 1.022
437.60 1.022
437.70 1.022
437.80 1.022
437.90 1.022
438.00 1.022
438.10 1.022
438.20 1.022
438.30 1.022
438.40 1.022
438.50 1.022
438.60 1.023
438.70 1.023
438.80 1.023
438.90 1.023
439.00 1.023
439.10 1.023
439.20 1.023
439.30 1.023
439.40 1.023
439.50 1.023
439.60 1.023
439.70 1.023
439.80 1.023
439.90 1.023
440.00 1.023
440.10 1.023
440.20 1.023
440.30 1.023
440.40 1.023
440.50 1.023
440.60 1.023
440.70 1.023
440.80 1.023
440.90 1.023
441.00 1.023
441.10 1.023
441.20 1.023
441.30 1.023
441.40 1.023
441.50 1.023
441.60 1.023
441.70 1.024
441.80 1.024
441.90 1.024
442.00 1.024
442.10 1.024
442.20 1.024
442.30 1.024
442.40 1.024
442.50 1.024
442.60 1.024
442.70 1.024
442.80 1.024
442.90 1.024
443.00 1.024
443.10 1.024
443.20 1.024
443.30 1.024
443.40 1.024
443.50 1.024
443.60 1.024
443.70 1.024
443.80 1.024
443.90 1.024
444.00 1.024
444.10 1.024
444.20 1.024
444.30 1.024
444.40 1.024
444.50 1.024
444.60 1.024
444.70 1.024
444.80 1.024
444.90 1.024
445.00 1.024
445.10 1.024
445.20 1.024
445.30 1.024
445.40 1.024
445.50 1.024
445.60 1.024
445.70 1.024
445.80 1.024
445.90 1.024
