# Version 2.1 - nm, norm@500 to 1, cut digits, bergeron_3250_90.dat_3250
# Wavelength(nm)  Flambda(ergs/cm^s/s/nm)
300.00 0.1454
300.10 0.1457
300.20 0.146
300.30 0.1463
300.40 0.1466
300.50 0.1469
300.60 0.1472
300.70 0.1475
300.80 0.1478
300.90 0.1481
301.00 0.1484
301.10 0.1487
301.20 0.149
301.30 0.1493
301.40 0.1496
301.50 0.1499
301.60 0.1502
301.70 0.1505
301.80 0.1508
301.90 0.1511
302.00 0.1514
302.10 0.1517
302.20 0.152
302.30 0.1523
302.40 0.1526
302.50 0.1529
302.60 0.1532
302.70 0.1535
302.80 0.1538
302.90 0.1541
303.00 0.1544
303.10 0.1547
303.20 0.155
303.30 0.1553
303.40 0.1556
303.50 0.1559
303.60 0.1563
303.70 0.1566
303.80 0.1569
303.90 0.1572
304.00 0.1575
304.10 0.1578
304.20 0.1581
304.30 0.1584
304.40 0.1587
304.50 0.159
304.60 0.1593
304.70 0.1597
304.80 0.16
304.90 0.1603
305.00 0.1606
305.10 0.1609
305.20 0.1612
305.30 0.1615
305.40 0.1618
305.50 0.1621
305.60 0.1625
305.70 0.1628
305.80 0.1631
305.90 0.1634
306.00 0.1637
306.10 0.164
306.20 0.1643
306.30 0.1646
306.40 0.165
306.50 0.1653
306.60 0.1656
306.70 0.1659
306.80 0.1662
306.90 0.1666
307.00 0.1669
307.10 0.1672
307.20 0.1675
307.30 0.1678
307.40 0.1682
307.50 0.1685
307.60 0.1688
307.70 0.1691
307.80 0.1694
307.90 0.1697
308.00 0.17
308.10 0.1704
308.20 0.1707
308.30 0.171
308.40 0.1713
308.50 0.1717
308.60 0.172
308.70 0.1723
308.80 0.1727
308.90 0.173
309.00 0.1733
309.10 0.1736
309.20 0.1739
309.30 0.1743
309.40 0.1746
309.50 0.1749
309.60 0.1752
309.70 0.1756
309.80 0.1759
309.90 0.1762
310.00 0.1765
310.10 0.1769
310.20 0.1772
310.30 0.1775
310.40 0.1779
310.50 0.1782
310.60 0.1785
310.70 0.1789
310.80 0.1792
310.90 0.1795
311.00 0.1798
311.10 0.1802
311.20 0.1805
311.30 0.1808
311.40 0.1812
311.50 0.1815
311.60 0.1818
311.70 0.1822
311.80 0.1825
311.90 0.1828
312.00 0.1831
312.10 0.1835
312.20 0.1838
312.30 0.1841
312.40 0.1845
312.50 0.1848
312.60 0.1851
312.70 0.1855
312.80 0.1858
312.90 0.1862
313.00 0.1865
313.10 0.1868
313.20 0.1872
313.30 0.1875
313.40 0.1878
313.50 0.1882
313.60 0.1885
313.70 0.1888
313.80 0.1892
313.90 0.1895
314.00 0.1898
314.10 0.1902
314.20 0.1905
314.30 0.1909
314.40 0.1912
314.50 0.1916
314.60 0.1919
314.70 0.1923
314.80 0.1926
314.90 0.1929
315.00 0.1933
315.10 0.1936
315.20 0.194
315.30 0.1943
315.40 0.1946
315.50 0.195
315.60 0.1953
315.70 0.1957
315.80 0.196
315.90 0.1963
316.00 0.1967
316.10 0.197
316.20 0.1974
316.30 0.1977
316.40 0.1981
316.50 0.1984
316.60 0.1988
316.70 0.1991
316.80 0.1995
316.90 0.1998
317.00 0.2002
317.10 0.2005
317.20 0.2009
317.30 0.2012
317.40 0.2016
317.50 0.2019
317.60 0.2023
317.70 0.2026
317.80 0.203
317.90 0.2033
318.00 0.2036
318.10 0.204
318.20 0.2044
318.30 0.2047
318.40 0.2051
318.50 0.2054
318.60 0.2058
318.70 0.2061
318.80 0.2065
318.90 0.2068
319.00 0.2072
319.10 0.2076
319.20 0.2079
319.30 0.2083
319.40 0.2086
319.50 0.209
319.60 0.2093
319.70 0.2097
319.80 0.21
319.90 0.2104
320.00 0.2107
320.10 0.2111
320.20 0.2114
320.30 0.2118
320.40 0.2122
320.50 0.2125
320.60 0.2129
320.70 0.2133
320.80 0.2136
320.90 0.214
321.00 0.2143
321.10 0.2147
321.20 0.2151
321.30 0.2154
321.40 0.2158
321.50 0.2161
321.60 0.2165
321.70 0.2168
321.80 0.2172
321.90 0.2175
322.00 0.2179
322.10 0.2183
322.20 0.2186
322.30 0.219
322.40 0.2194
322.50 0.2197
322.60 0.2201
322.70 0.2205
322.80 0.2208
322.90 0.2212
323.00 0.2216
323.10 0.2219
323.20 0.2223
323.30 0.2227
323.40 0.223
323.50 0.2234
323.60 0.2238
323.70 0.2241
323.80 0.2245
323.90 0.2248
324.00 0.2252
324.10 0.2256
324.20 0.2259
324.30 0.2263
324.40 0.2267
324.50 0.2271
324.60 0.2274
324.70 0.2278
324.80 0.2282
324.90 0.2286
325.00 0.2289
325.10 0.2293
325.20 0.2297
325.30 0.23
325.40 0.2304
325.50 0.2308
325.60 0.2311
325.70 0.2315
325.80 0.2319
325.90 0.2322
326.00 0.2326
326.10 0.233
326.20 0.2334
326.30 0.2337
326.40 0.2341
326.50 0.2345
326.60 0.2349
326.70 0.2353
326.80 0.2356
326.90 0.236
327.00 0.2364
327.10 0.2368
327.20 0.2371
327.30 0.2375
327.40 0.2379
327.50 0.2383
327.60 0.2386
327.70 0.239
327.80 0.2394
327.90 0.2398
328.00 0.2401
328.10 0.2405
328.20 0.2409
328.30 0.2413
328.40 0.2417
328.50 0.242
328.60 0.2424
328.70 0.2428
328.80 0.2432
328.90 0.2436
329.00 0.244
329.10 0.2443
329.20 0.2447
329.30 0.2451
329.40 0.2455
329.50 0.2459
329.60 0.2462
329.70 0.2466
329.80 0.247
329.90 0.2474
330.00 0.2477
330.10 0.2481
330.20 0.2485
330.30 0.2489
330.40 0.2493
330.50 0.2497
330.60 0.2501
330.70 0.2505
330.80 0.2509
330.90 0.2512
331.00 0.2516
331.10 0.252
331.20 0.2524
331.30 0.2528
331.40 0.2532
331.50 0.2536
331.60 0.2539
331.70 0.2543
331.80 0.2547
331.90 0.2551
332.00 0.2555
332.10 0.2559
332.20 0.2563
332.30 0.2567
332.40 0.257
332.50 0.2574
332.60 0.2578
332.70 0.2582
332.80 0.2586
332.90 0.259
333.00 0.2594
333.10 0.2598
333.20 0.2602
333.30 0.2606
333.40 0.261
333.50 0.2613
333.60 0.2617
333.70 0.2621
333.80 0.2625
333.90 0.2629
334.00 0.2633
334.10 0.2637
334.20 0.2641
334.30 0.2645
334.40 0.2649
334.50 0.2653
334.60 0.2657
334.70 0.2661
334.80 0.2665
334.90 0.2669
335.00 0.2673
335.10 0.2677
335.20 0.2681
335.30 0.2685
335.40 0.2689
335.50 0.2692
335.60 0.2696
335.70 0.27
335.80 0.2704
335.90 0.2708
336.00 0.2712
336.10 0.2716
336.20 0.272
336.30 0.2724
336.40 0.2728
336.50 0.2732
336.60 0.2736
336.70 0.274
336.80 0.2744
336.90 0.2748
337.00 0.2752
337.10 0.2756
337.20 0.276
337.30 0.2764
337.40 0.2768
337.50 0.2772
337.60 0.2776
337.70 0.278
337.80 0.2784
337.90 0.2788
338.00 0.2792
338.10 0.2796
338.20 0.28
338.30 0.2804
338.40 0.2809
338.50 0.2813
338.60 0.2817
338.70 0.2821
338.80 0.2825
338.90 0.2829
339.00 0.2833
339.10 0.2837
339.20 0.2841
339.30 0.2845
339.40 0.2849
339.50 0.2853
339.60 0.2857
339.70 0.2861
339.80 0.2865
339.90 0.2869
340.00 0.2873
340.10 0.2877
340.20 0.2882
340.30 0.2886
340.40 0.289
340.50 0.2894
340.60 0.2898
340.70 0.2902
340.80 0.2906
340.90 0.291
341.00 0.2914
341.10 0.2919
341.20 0.2923
341.30 0.2927
341.40 0.2931
341.50 0.2935
341.60 0.2939
341.70 0.2943
341.80 0.2947
341.90 0.2951
342.00 0.2955
342.10 0.2959
342.20 0.2964
342.30 0.2968
342.40 0.2972
342.50 0.2976
342.60 0.298
342.70 0.2984
342.80 0.2989
342.90 0.2993
343.00 0.2997
343.10 0.3001
343.20 0.3005
343.30 0.3009
343.40 0.3013
343.50 0.3018
343.60 0.3022
343.70 0.3026
343.80 0.303
343.90 0.3034
344.00 0.3038
344.10 0.3042
344.20 0.3046
344.30 0.3051
344.40 0.3055
344.50 0.3059
344.60 0.3063
344.70 0.3068
344.80 0.3072
344.90 0.3076
345.00 0.308
345.10 0.3084
345.20 0.3088
345.30 0.3093
345.40 0.3097
345.50 0.3101
345.60 0.3105
345.70 0.3109
345.80 0.3113
345.90 0.3118
346.00 0.3122
346.10 0.3126
346.20 0.313
346.30 0.3134
346.40 0.3139
346.50 0.3143
346.60 0.3147
346.70 0.3151
346.80 0.3156
346.90 0.316
347.00 0.3164
347.10 0.3168
347.20 0.3173
347.30 0.3177
347.40 0.3181
347.50 0.3185
347.60 0.3189
347.70 0.3194
347.80 0.3198
347.90 0.3202
348.00 0.3206
348.10 0.321
348.20 0.3215
348.30 0.3219
348.40 0.3223
348.50 0.3228
348.60 0.3232
348.70 0.3236
348.80 0.3241
348.90 0.3245
349.00 0.3249
349.10 0.3253
349.20 0.3258
349.30 0.3262
349.40 0.3266
349.50 0.327
349.60 0.3275
349.70 0.3279
349.80 0.3283
349.90 0.3287
350.00 0.3291
350.10 0.3296
350.20 0.33
350.30 0.3304
350.40 0.3309
350.50 0.3313
350.60 0.3317
350.70 0.3322
350.80 0.3326
350.90 0.333
351.00 0.3335
351.10 0.3339
351.20 0.3343
351.30 0.3348
351.40 0.3352
351.50 0.3356
351.60 0.336
351.70 0.3365
351.80 0.3369
351.90 0.3373
352.00 0.3377
352.10 0.3382
352.20 0.3386
352.30 0.3391
352.40 0.3395
352.50 0.3399
352.60 0.3404
352.70 0.3408
352.80 0.3412
352.90 0.3417
353.00 0.3421
353.10 0.3425
353.20 0.343
353.30 0.3434
353.40 0.3438
353.50 0.3443
353.60 0.3447
353.70 0.3451
353.80 0.3456
353.90 0.346
354.00 0.3464
354.10 0.3469
354.20 0.3473
354.30 0.3477
354.40 0.3482
354.50 0.3486
354.60 0.3491
354.70 0.3495
354.80 0.3499
354.90 0.3504
355.00 0.3508
355.10 0.3513
355.20 0.3517
355.30 0.3521
355.40 0.3526
355.50 0.353
355.60 0.3534
355.70 0.3539
355.80 0.3543
355.90 0.3547
356.00 0.3552
356.10 0.3556
356.20 0.3561
356.30 0.3565
356.40 0.357
356.50 0.3574
356.60 0.3578
356.70 0.3583
356.80 0.3587
356.90 0.3592
357.00 0.3596
357.10 0.36
357.20 0.3605
357.30 0.3609
357.40 0.3614
357.50 0.3618
357.60 0.3622
357.70 0.3627
357.80 0.3631
357.90 0.3635
358.00 0.364
358.10 0.3644
358.20 0.3649
358.30 0.3653
358.40 0.3658
358.50 0.3662
358.60 0.3667
358.70 0.3671
358.80 0.3675
358.90 0.368
359.00 0.3684
359.10 0.3689
359.20 0.3693
359.30 0.3698
359.40 0.3702
359.50 0.3706
359.60 0.3711
359.70 0.3715
359.80 0.372
359.90 0.3724
360.00 0.3728
360.10 0.3733
360.20 0.3737
360.30 0.3742
360.40 0.3747
360.50 0.3751
360.60 0.3755
360.70 0.376
360.80 0.3764
360.90 0.3769
361.00 0.3773
361.10 0.3778
361.20 0.3782
361.30 0.3787
361.40 0.3791
361.50 0.3796
361.60 0.38
361.70 0.3805
361.80 0.3809
361.90 0.3813
362.00 0.3818
362.10 0.3822
362.20 0.3827
362.30 0.3831
362.40 0.3836
362.50 0.384
362.60 0.3845
362.70 0.3849
362.80 0.3854
362.90 0.3858
363.00 0.3863
363.10 0.3867
363.20 0.3872
363.30 0.3877
363.40 0.3881
363.50 0.3886
363.60 0.389
363.70 0.3895
363.80 0.3899
363.90 0.3904
364.00 0.3908
364.10 0.3913
364.20 0.3917
364.30 0.3922
364.40 0.3926
364.50 0.3931
364.60 0.3935
364.70 0.394
364.80 0.3944
364.90 0.3949
365.00 0.3953
365.10 0.3958
365.20 0.3962
365.30 0.3967
365.40 0.3971
365.50 0.3976
365.60 0.398
365.70 0.3985
365.80 0.3989
365.90 0.3994
366.00 0.3998
366.10 0.4003
366.20 0.4008
366.30 0.4012
366.40 0.4017
366.50 0.4021
366.60 0.4026
366.70 0.403
366.80 0.4035
366.90 0.404
367.00 0.4044
367.10 0.4049
367.20 0.4053
367.30 0.4058
367.40 0.4062
367.50 0.4067
367.60 0.4071
367.70 0.4076
367.80 0.408
367.90 0.4085
368.00 0.4089
368.10 0.4094
368.20 0.4099
368.30 0.4103
368.40 0.4108
368.50 0.4113
368.60 0.4117
368.70 0.4122
368.80 0.4126
368.90 0.4131
369.00 0.4136
369.10 0.414
369.20 0.4145
369.30 0.4149
369.40 0.4154
369.50 0.4159
369.60 0.4163
369.70 0.4168
369.80 0.4172
369.90 0.4177
370.00 0.4181
370.10 0.4186
370.20 0.4191
370.30 0.4195
370.40 0.42
370.50 0.4205
370.60 0.4209
370.70 0.4214
370.80 0.4218
370.90 0.4223
371.00 0.4228
371.10 0.4232
371.20 0.4237
371.30 0.4241
371.40 0.4246
371.50 0.425
371.60 0.4255
371.70 0.426
371.80 0.4264
371.90 0.4269
372.00 0.4273
372.10 0.4278
372.20 0.4283
372.30 0.4287
372.40 0.4292
372.50 0.4297
372.60 0.4301
372.70 0.4306
372.80 0.4311
372.90 0.4315
373.00 0.432
373.10 0.4324
373.20 0.4329
373.30 0.4334
373.40 0.4338
373.50 0.4343
373.60 0.4347
373.70 0.4352
373.80 0.4357
373.90 0.4361
374.00 0.4366
374.10 0.4371
374.20 0.4375
374.30 0.438
374.40 0.4385
374.50 0.4389
374.60 0.4394
374.70 0.4399
374.80 0.4403
374.90 0.4408
375.00 0.4413
375.10 0.4417
375.20 0.4422
375.30 0.4426
375.40 0.4431
375.50 0.4436
375.60 0.444
375.70 0.4445
375.80 0.445
375.90 0.4454
376.00 0.4459
376.10 0.4463
376.20 0.4468
376.30 0.4473
376.40 0.4477
376.50 0.4482
376.60 0.4487
376.70 0.4491
376.80 0.4496
376.90 0.45
377.00 0.4505
377.10 0.451
377.20 0.4515
377.30 0.4519
377.40 0.4524
377.50 0.4529
377.60 0.4533
377.70 0.4538
377.80 0.4543
377.90 0.4547
378.00 0.4552
378.10 0.4557
378.20 0.4561
378.30 0.4566
378.40 0.4571
378.50 0.4575
378.60 0.458
378.70 0.4585
378.80 0.4589
378.90 0.4594
379.00 0.4599
379.10 0.4603
379.20 0.4608
379.30 0.4613
379.40 0.4618
379.50 0.4622
379.60 0.4627
379.70 0.4632
379.80 0.4636
379.90 0.4641
380.00 0.4646
380.10 0.465
380.20 0.4655
380.30 0.466
380.40 0.4665
380.50 0.4669
380.60 0.4674
380.70 0.4679
380.80 0.4683
380.90 0.4688
381.00 0.4693
381.10 0.4697
381.20 0.4702
381.30 0.4707
381.40 0.4712
381.50 0.4716
381.60 0.4721
381.70 0.4725
381.80 0.473
381.90 0.4735
382.00 0.474
382.10 0.4744
382.20 0.4749
382.30 0.4754
382.40 0.4758
382.50 0.4763
382.60 0.4768
382.70 0.4773
382.80 0.4777
382.90 0.4782
383.00 0.4787
383.10 0.4791
383.20 0.4796
383.30 0.4801
383.40 0.4806
383.50 0.481
383.60 0.4815
383.70 0.482
383.80 0.4824
383.90 0.4829
384.00 0.4834
384.10 0.4839
384.20 0.4843
384.30 0.4848
384.40 0.4853
384.50 0.4858
384.60 0.4862
384.70 0.4867
384.80 0.4872
384.90 0.4876
385.00 0.4881
385.10 0.4886
385.20 0.4891
385.30 0.4895
385.40 0.49
385.50 0.4905
385.60 0.4909
385.70 0.4914
385.80 0.4919
385.90 0.4924
386.00 0.4928
386.10 0.4933
386.20 0.4938
386.30 0.4943
386.40 0.4947
386.50 0.4952
386.60 0.4957
386.70 0.4962
386.80 0.4966
386.90 0.4971
387.00 0.4976
387.10 0.498
387.20 0.4985
387.30 0.499
387.40 0.4995
387.50 0.4999
387.60 0.5004
387.70 0.5009
387.80 0.5014
387.90 0.5018
388.00 0.5023
388.10 0.5028
388.20 0.5033
388.30 0.5037
388.40 0.5042
388.50 0.5047
388.60 0.5052
388.70 0.5056
388.80 0.5061
388.90 0.5066
389.00 0.5071
389.10 0.5075
389.20 0.508
389.30 0.5085
389.40 0.509
389.50 0.5094
389.60 0.5099
389.70 0.5104
389.80 0.5109
389.90 0.5113
390.00 0.5118
390.10 0.5123
390.20 0.5128
390.30 0.5133
390.40 0.5137
390.50 0.5142
390.60 0.5147
390.70 0.5152
390.80 0.5156
390.90 0.5161
391.00 0.5166
391.10 0.5171
391.20 0.5175
391.30 0.518
391.40 0.5185
391.50 0.519
391.60 0.5194
391.70 0.5199
391.80 0.5204
391.90 0.5209
392.00 0.5213
392.10 0.5218
392.20 0.5223
392.30 0.5228
392.40 0.5233
392.50 0.5237
392.60 0.5242
392.70 0.5247
392.80 0.5251
392.90 0.5256
393.00 0.5261
393.10 0.5266
393.20 0.5271
393.30 0.5275
393.40 0.528
393.50 0.5285
393.60 0.529
393.70 0.5295
393.80 0.5299
393.90 0.5304
394.00 0.5309
394.10 0.5313
394.20 0.5318
394.30 0.5323
394.40 0.5328
394.50 0.5333
394.60 0.5338
394.70 0.5342
394.80 0.5347
394.90 0.5352
395.00 0.5356
395.10 0.5361
395.20 0.5366
395.30 0.5371
395.40 0.5376
395.50 0.538
395.60 0.5385
395.70 0.539
395.80 0.5395
395.90 0.54
396.00 0.5404
396.10 0.5409
396.20 0.5414
396.30 0.5419
396.40 0.5423
396.50 0.5428
396.60 0.5433
396.70 0.5438
396.80 0.5443
396.90 0.5447
397.00 0.5452
397.10 0.5457
397.20 0.5461
397.30 0.5466
397.40 0.5471
397.50 0.5476
397.60 0.5481
397.70 0.5485
397.80 0.549
397.90 0.5495
398.00 0.55
398.10 0.5505
398.20 0.5509
398.30 0.5514
398.40 0.5519
398.50 0.5524
398.60 0.5529
398.70 0.5533
398.80 0.5538
398.90 0.5543
399.00 0.5548
399.10 0.5552
399.20 0.5557
399.30 0.5562
399.40 0.5567
399.50 0.5572
399.60 0.5576
399.70 0.5581
399.80 0.5586
399.90 0.5591
400.00 0.5595
400.10 0.56
400.20 0.5605
400.30 0.561
400.40 0.5615
400.50 0.5619
400.60 0.5624
400.70 0.5629
400.80 0.5634
400.90 0.5638
401.00 0.5643
401.10 0.5648
401.20 0.5653
401.30 0.5658
401.40 0.5663
401.50 0.5667
401.60 0.5672
401.70 0.5677
401.80 0.5682
401.90 0.5686
402.00 0.5691
402.10 0.5696
402.20 0.5701
402.30 0.5706
402.40 0.571
402.50 0.5715
402.60 0.572
402.70 0.5725
402.80 0.5729
402.90 0.5734
403.00 0.5739
403.10 0.5744
403.20 0.5749
403.30 0.5753
403.40 0.5758
403.50 0.5763
403.60 0.5768
403.70 0.5773
403.80 0.5777
403.90 0.5782
404.00 0.5787
404.10 0.5792
404.20 0.5796
404.30 0.5801
404.40 0.5806
404.50 0.5811
404.60 0.5816
404.70 0.5821
404.80 0.5825
404.90 0.583
405.00 0.5835
405.10 0.5839
405.20 0.5844
405.30 0.5849
405.40 0.5854
405.50 0.5859
405.60 0.5864
405.70 0.5868
405.80 0.5873
405.90 0.5878
406.00 0.5883
406.10 0.5888
406.20 0.5892
406.30 0.5897
406.40 0.5902
406.50 0.5907
406.60 0.5911
406.70 0.5916
406.80 0.5921
406.90 0.5926
407.00 0.593
407.10 0.5935
407.20 0.594
407.30 0.5945
407.40 0.595
407.50 0.5954
407.60 0.5959
407.70 0.5964
407.80 0.5969
407.90 0.5974
408.00 0.5978
408.10 0.5983
408.20 0.5988
408.30 0.5993
408.40 0.5998
408.50 0.6002
408.60 0.6007
408.70 0.6012
408.80 0.6017
408.90 0.6021
409.00 0.6026
409.10 0.6031
409.20 0.6036
409.30 0.6041
409.40 0.6045
409.50 0.605
409.60 0.6055
409.70 0.606
409.80 0.6064
409.90 0.6069
410.00 0.6074
410.10 0.6079
410.20 0.6084
410.30 0.6088
410.40 0.6093
410.50 0.6098
410.60 0.6103
410.70 0.6107
410.80 0.6112
410.90 0.6117
411.00 0.6122
411.10 0.6127
411.20 0.6131
411.30 0.6136
411.40 0.6141
411.50 0.6146
411.60 0.6151
411.70 0.6155
411.80 0.616
411.90 0.6165
412.00 0.617
412.10 0.6175
412.20 0.6179
412.30 0.6184
412.40 0.6189
412.50 0.6194
412.60 0.6198
412.70 0.6203
412.80 0.6208
412.90 0.6213
413.00 0.6217
413.10 0.6222
413.20 0.6227
413.30 0.6232
413.40 0.6236
413.50 0.6241
413.60 0.6246
413.70 0.6251
413.80 0.6256
413.90 0.626
414.00 0.6265
414.10 0.627
414.20 0.6275
414.30 0.628
414.40 0.6284
414.50 0.6289
414.60 0.6294
414.70 0.6299
414.80 0.6303
414.90 0.6308
415.00 0.6313
415.10 0.6318
415.20 0.6322
415.30 0.6327
415.40 0.6332
415.50 0.6337
415.60 0.6341
415.70 0.6346
415.80 0.6351
415.90 0.6356
416.00 0.6361
416.10 0.6365
416.20 0.637
416.30 0.6375
416.40 0.638
416.50 0.6385
416.60 0.6389
416.70 0.6394
416.80 0.6399
416.90 0.6404
417.00 0.6408
417.10 0.6413
417.20 0.6418
417.30 0.6422
417.40 0.6427
417.50 0.6432
417.60 0.6437
417.70 0.6442
417.80 0.6446
417.90 0.6451
418.00 0.6456
418.10 0.6461
418.20 0.6465
418.30 0.647
418.40 0.6475
418.50 0.648
418.60 0.6484
418.70 0.6489
418.80 0.6494
418.90 0.6499
419.00 0.6503
419.10 0.6508
419.20 0.6513
419.30 0.6518
419.40 0.6522
419.50 0.6527
419.60 0.6532
419.70 0.6537
419.80 0.6541
419.90 0.6546
420.00 0.6551
420.10 0.6556
420.20 0.656
420.30 0.6565
420.40 0.657
420.50 0.6575
420.60 0.6579
420.70 0.6584
420.80 0.6589
420.90 0.6594
421.00 0.6598
421.10 0.6603
421.20 0.6608
421.30 0.6613
421.40 0.6617
421.50 0.6622
421.60 0.6627
421.70 0.6631
421.80 0.6636
421.90 0.6641
422.00 0.6646
422.10 0.6651
422.20 0.6655
422.30 0.666
422.40 0.6665
422.50 0.667
422.60 0.6674
422.70 0.6679
422.80 0.6684
422.90 0.6688
423.00 0.6693
423.10 0.6698
423.20 0.6703
423.30 0.6707
423.40 0.6712
423.50 0.6717
423.60 0.6721
423.70 0.6726
423.80 0.6731
423.90 0.6736
424.00 0.674
424.10 0.6745
424.20 0.675
424.30 0.6755
424.40 0.6759
424.50 0.6764
424.60 0.6769
424.70 0.6774
424.80 0.6778
424.90 0.6783
425.00 0.6788
425.10 0.6792
425.20 0.6797
425.30 0.6802
425.40 0.6807
425.50 0.6811
425.60 0.6816
425.70 0.6821
425.80 0.6825
425.90 0.683
426.00 0.6835
426.10 0.6839
426.20 0.6844
426.30 0.6849
426.40 0.6854
426.50 0.6858
426.60 0.6863
426.70 0.6868
426.80 0.6873
426.90 0.6877
427.00 0.6882
427.10 0.6887
427.20 0.6891
427.30 0.6896
427.40 0.6901
427.50 0.6905
427.60 0.691
427.70 0.6915
427.80 0.692
427.90 0.6924
428.00 0.6929
428.10 0.6934
428.20 0.6938
428.30 0.6943
428.40 0.6948
428.50 0.6952
428.60 0.6957
428.70 0.6962
428.80 0.6966
428.90 0.6971
429.00 0.6976
429.10 0.6981
429.20 0.6985
429.30 0.699
429.40 0.6995
429.50 0.6999
429.60 0.7004
429.70 0.7009
429.80 0.7014
429.90 0.7018
430.00 0.7023
430.10 0.7028
430.20 0.7032
430.30 0.7037
430.40 0.7042
430.50 0.7046
430.60 0.7051
430.70 0.7056
430.80 0.706
430.90 0.7065
431.00 0.707
431.10 0.7074
431.20 0.7079
431.30 0.7084
431.40 0.7088
431.50 0.7093
431.60 0.7098
431.70 0.7103
431.80 0.7107
431.90 0.7112
432.00 0.7117
432.10 0.7121
432.20 0.7126
432.30 0.7131
432.40 0.7135
432.50 0.714
432.60 0.7145
432.70 0.7149
432.80 0.7154
432.90 0.7158
433.00 0.7163
433.10 0.7168
433.20 0.7172
433.30 0.7177
433.40 0.7182
433.50 0.7186
433.60 0.7191
433.70 0.7196
433.80 0.72
433.90 0.7205
434.00 0.721
434.10 0.7214
434.20 0.7219
434.30 0.7224
434.40 0.7228
434.50 0.7233
434.60 0.7238
434.70 0.7242
434.80 0.7247
434.90 0.7252
435.00 0.7256
435.10 0.7261
435.20 0.7265
435.30 0.727
435.40 0.7275
435.50 0.7279
435.60 0.7284
435.70 0.7289
435.80 0.7293
435.90 0.7298
436.00 0.7303
436.10 0.7307
436.20 0.7312
436.30 0.7317
436.40 0.7321
436.50 0.7326
436.60 0.733
436.70 0.7335
436.80 0.734
436.90 0.7344
437.00 0.7349
437.10 0.7354
437.20 0.7358
437.30 0.7363
437.40 0.7368
437.50 0.7372
437.60 0.7377
437.70 0.7381
437.80 0.7386
437.90 0.7391
438.00 0.7395
438.10 0.74
438.20 0.7404
438.30 0.7409
438.40 0.7414
438.50 0.7418
438.60 0.7423
438.70 0.7428
438.80 0.7432
438.90 0.7437
439.00 0.7441
439.10 0.7446
439.20 0.7451
439.30 0.7455
439.40 0.746
439.50 0.7464
439.60 0.7469
439.70 0.7474
439.80 0.7478
439.90 0.7483
440.00 0.7487
440.10 0.7492
440.20 0.7497
440.30 0.7501
440.40 0.7506
440.50 0.7511
440.60 0.7515
440.70 0.752
440.80 0.7524
440.90 0.7529
441.00 0.7533
441.10 0.7538
441.20 0.7543
441.30 0.7547
441.40 0.7552
441.50 0.7556
441.60 0.7561
441.70 0.7565
441.80 0.757
441.90 0.7575
442.00 0.7579
442.10 0.7584
442.20 0.7588
442.30 0.7593
442.40 0.7598
442.50 0.7602
442.60 0.7607
442.70 0.7611
442.80 0.7616
442.90 0.762
443.00 0.7625
