# Version 2.1 - nm, norm@500 to 1, cut digits, bergeron_1750_80.dat_1750
# Wavelength(nm)  Flambda(ergs/cm^s/s/nm)
300.00 0.02619
300.10 0.0263
300.20 0.0264
300.30 0.02651
300.40 0.02661
300.50 0.02672
300.60 0.02682
300.70 0.02693
300.80 0.02703
300.90 0.02714
301.00 0.02725
301.10 0.02735
301.20 0.02746
301.30 0.02756
301.40 0.02766
301.50 0.02777
301.60 0.02787
301.70 0.02798
301.80 0.02808
301.90 0.02819
302.00 0.02829
302.10 0.0284
302.20 0.02851
302.30 0.02863
302.40 0.02874
302.50 0.02885
302.60 0.02896
302.70 0.02907
302.80 0.02918
302.90 0.02929
303.00 0.0294
303.10 0.02951
303.20 0.02962
303.30 0.02973
303.40 0.02984
303.50 0.02995
303.60 0.03006
303.70 0.03017
303.80 0.03028
303.90 0.03039
304.00 0.03051
304.10 0.03062
304.20 0.03074
304.30 0.03086
304.40 0.03097
304.50 0.03109
304.60 0.03121
304.70 0.03132
304.80 0.03144
304.90 0.03156
305.00 0.03167
305.10 0.03179
305.20 0.03191
305.30 0.03202
305.40 0.03214
305.50 0.03226
305.60 0.03237
305.70 0.03249
305.80 0.0326
305.90 0.03272
306.00 0.03284
306.10 0.03296
306.20 0.03308
306.30 0.0332
306.40 0.03333
306.50 0.03345
306.60 0.03357
306.70 0.0337
306.80 0.03382
306.90 0.03394
307.00 0.03406
307.10 0.03419
307.20 0.03431
307.30 0.03443
307.40 0.03455
307.50 0.03467
307.60 0.03479
307.70 0.03492
307.80 0.03504
307.90 0.03516
308.00 0.03528
308.10 0.03541
308.20 0.03554
308.30 0.03567
308.40 0.0358
308.50 0.03593
308.60 0.03606
308.70 0.03619
308.80 0.03632
308.90 0.03645
309.00 0.03657
309.10 0.0367
309.20 0.03683
309.30 0.03696
309.40 0.03709
309.50 0.03722
309.60 0.03734
309.70 0.03747
309.80 0.0376
309.90 0.03773
310.00 0.03786
310.10 0.03799
310.20 0.03813
310.30 0.03826
310.40 0.0384
310.50 0.03854
310.60 0.03867
310.70 0.03881
310.80 0.03895
310.90 0.03908
311.00 0.03922
311.10 0.03935
311.20 0.03949
311.30 0.03962
311.40 0.03976
311.50 0.03989
311.60 0.04003
311.70 0.04016
311.80 0.0403
311.90 0.04043
312.00 0.04056
312.10 0.0407
312.20 0.04084
312.30 0.04098
312.40 0.04112
312.50 0.04126
312.60 0.0414
312.70 0.04155
312.80 0.04169
312.90 0.04183
313.00 0.04198
313.10 0.04212
313.20 0.04226
313.30 0.0424
313.40 0.04254
313.50 0.04269
313.60 0.04283
313.70 0.04297
313.80 0.04311
313.90 0.04325
314.00 0.0434
314.10 0.04354
314.20 0.04369
314.30 0.04384
314.40 0.04399
314.50 0.04414
314.60 0.04429
314.70 0.04444
314.80 0.04459
314.90 0.04474
315.00 0.04489
315.10 0.04504
315.20 0.04518
315.30 0.04533
315.40 0.04548
315.50 0.04563
315.60 0.04577
315.70 0.04592
315.80 0.04607
315.90 0.04622
316.00 0.04637
316.10 0.04652
316.20 0.04668
316.30 0.04684
316.40 0.04699
316.50 0.04715
316.60 0.04731
316.70 0.04746
316.80 0.04762
316.90 0.04778
317.00 0.04793
317.10 0.04809
317.20 0.04824
317.30 0.0484
317.40 0.04855
317.50 0.04871
317.60 0.04886
317.70 0.04902
317.80 0.04917
317.90 0.04933
318.00 0.04949
318.10 0.04964
318.20 0.04981
318.30 0.04997
318.40 0.05014
318.50 0.0503
318.60 0.05046
318.70 0.05063
318.80 0.05079
318.90 0.05096
319.00 0.05112
319.10 0.05128
319.20 0.05144
319.30 0.05161
319.40 0.05177
319.50 0.05193
319.60 0.05209
319.70 0.05225
319.80 0.05241
319.90 0.05258
320.00 0.05275
320.10 0.05291
320.20 0.05308
320.30 0.05325
320.40 0.05343
320.50 0.0536
320.60 0.05377
320.70 0.05394
320.80 0.05411
320.90 0.05428
321.00 0.05445
321.10 0.05462
321.20 0.05479
321.30 0.05496
321.40 0.05513
321.50 0.0553
321.60 0.05547
321.70 0.05564
321.80 0.05581
321.90 0.05598
322.00 0.05615
322.10 0.05633
322.20 0.0565
322.30 0.05668
322.40 0.05686
322.50 0.05704
322.60 0.05722
322.70 0.0574
322.80 0.05758
322.90 0.05776
323.00 0.05793
323.10 0.05811
323.20 0.05829
323.30 0.05847
323.40 0.05864
323.50 0.05882
323.60 0.059
323.70 0.05918
323.80 0.05935
323.90 0.05953
324.00 0.05971
324.10 0.05989
324.20 0.06008
324.30 0.06027
324.40 0.06045
324.50 0.06064
324.60 0.06083
324.70 0.06101
324.80 0.0612
324.90 0.06139
325.00 0.06157
325.10 0.06176
325.20 0.06194
325.30 0.06213
325.40 0.06231
325.50 0.0625
325.60 0.06268
325.70 0.06287
325.80 0.06305
325.90 0.06324
326.00 0.06342
326.10 0.06361
326.20 0.06381
326.30 0.064
326.40 0.0642
326.50 0.06439
326.60 0.06459
326.70 0.06478
326.80 0.06498
326.90 0.06517
327.00 0.06536
327.10 0.06556
327.20 0.06575
327.30 0.06594
327.40 0.06614
327.50 0.06633
327.60 0.06652
327.70 0.06671
327.80 0.06691
327.90 0.0671
328.00 0.0673
328.10 0.0675
328.20 0.0677
328.30 0.0679
328.40 0.0681
328.50 0.06831
328.60 0.06851
328.70 0.06871
328.80 0.06891
328.90 0.06912
329.00 0.06932
329.10 0.06952
329.20 0.06972
329.30 0.06992
329.40 0.07012
329.50 0.07032
329.60 0.07052
329.70 0.07072
329.80 0.07092
329.90 0.07112
330.00 0.07132
330.10 0.07153
330.20 0.07175
330.30 0.07196
330.40 0.07217
330.50 0.07238
330.60 0.07259
330.70 0.0728
330.80 0.07301
330.90 0.07322
331.00 0.07343
331.10 0.07364
331.20 0.07385
331.30 0.07406
331.40 0.07427
331.50 0.07448
331.60 0.07469
331.70 0.07489
331.80 0.0751
331.90 0.07531
332.00 0.07552
332.10 0.07574
332.20 0.07596
332.30 0.07618
332.40 0.0764
332.50 0.07662
332.60 0.07684
332.70 0.07706
332.80 0.07728
332.90 0.07749
333.00 0.07771
333.10 0.07793
333.20 0.07815
333.30 0.07837
333.40 0.07858
333.50 0.0788
333.60 0.07902
333.70 0.07923
333.80 0.07945
333.90 0.07967
334.00 0.07988
334.10 0.08011
334.20 0.08034
334.30 0.08057
334.40 0.0808
334.50 0.08103
334.60 0.08125
334.70 0.08148
334.80 0.08171
334.90 0.08194
335.00 0.08216
335.10 0.08239
335.20 0.08261
335.30 0.08284
335.40 0.08307
335.50 0.08329
335.60 0.08352
335.70 0.08374
335.80 0.08397
335.90 0.08419
336.00 0.08441
336.10 0.08465
336.20 0.08489
336.30 0.08513
336.40 0.08536
336.50 0.0856
336.60 0.08584
336.70 0.08607
336.80 0.08631
336.90 0.08655
337.00 0.08678
337.10 0.08702
337.20 0.08725
337.30 0.08749
337.40 0.08772
337.50 0.08795
337.60 0.08819
337.70 0.08842
337.80 0.08865
337.90 0.08889
338.00 0.08912
338.10 0.08937
338.20 0.08961
338.30 0.08986
338.40 0.0901
338.50 0.09035
338.60 0.09059
338.70 0.09084
338.80 0.09108
338.90 0.09133
339.00 0.09157
339.10 0.09182
339.20 0.09206
339.30 0.0923
339.40 0.09255
339.50 0.09279
339.60 0.09303
339.70 0.09327
339.80 0.09351
339.90 0.09375
340.00 0.094
340.10 0.09425
340.20 0.09451
340.30 0.09476
340.40 0.09502
340.50 0.09527
340.60 0.09553
340.70 0.09578
340.80 0.09603
340.90 0.09629
341.00 0.09654
341.10 0.09679
341.20 0.09704
341.30 0.0973
341.40 0.09755
341.50 0.0978
341.60 0.09805
341.70 0.0983
341.80 0.09855
341.90 0.0988
342.00 0.09905
342.10 0.09932
342.20 0.09958
342.30 0.09984
342.40 0.1001
342.50 0.1004
342.60 0.1006
342.70 0.1009
342.80 0.1012
342.90 0.1014
343.00 0.1017
343.10 0.1019
343.20 0.1022
343.30 0.1025
343.40 0.1027
343.50 0.103
343.60 0.1032
343.70 0.1035
343.80 0.1038
343.90 0.104
344.00 0.1043
344.10 0.1046
344.20 0.1048
344.30 0.1051
344.40 0.1054
344.50 0.1056
344.60 0.1059
344.70 0.1062
344.80 0.1065
344.90 0.1067
345.00 0.107
345.10 0.1073
345.20 0.1075
345.30 0.1078
345.40 0.1081
345.50 0.1084
345.60 0.1086
345.70 0.1089
345.80 0.1092
345.90 0.1094
346.00 0.1097
346.10 0.11
346.20 0.1103
346.30 0.1105
346.40 0.1108
346.50 0.1111
346.60 0.1114
346.70 0.1117
346.80 0.1119
346.90 0.1122
347.00 0.1125
347.10 0.1128
347.20 0.1131
347.30 0.1133
347.40 0.1136
347.50 0.1139
347.60 0.1142
347.70 0.1145
347.80 0.1147
347.90 0.115
348.00 0.1153
348.10 0.1156
348.20 0.1159
348.30 0.1162
348.40 0.1165
348.50 0.1167
348.60 0.117
348.70 0.1173
348.80 0.1176
348.90 0.1179
349.00 0.1182
349.10 0.1185
349.20 0.1188
349.30 0.1191
349.40 0.1193
349.50 0.1196
349.60 0.1199
349.70 0.1202
349.80 0.1205
349.90 0.1208
350.00 0.1211
350.10 0.1214
350.20 0.1217
350.30 0.122
350.40 0.1223
350.50 0.1226
350.60 0.1229
350.70 0.1232
350.80 0.1235
350.90 0.1238
351.00 0.1241
351.10 0.1244
351.20 0.1247
351.30 0.125
351.40 0.1252
351.50 0.1255
351.60 0.1258
351.70 0.1261
351.80 0.1264
351.90 0.1267
352.00 0.127
352.10 0.1273
352.20 0.1276
352.30 0.128
352.40 0.1283
352.50 0.1286
352.60 0.1289
352.70 0.1292
352.80 0.1295
352.90 0.1298
353.00 0.1301
353.10 0.1304
353.20 0.1307
353.30 0.131
353.40 0.1313
353.50 0.1316
353.60 0.132
353.70 0.1323
353.80 0.1326
353.90 0.1329
354.00 0.1332
354.10 0.1335
354.20 0.1338
354.30 0.1341
354.40 0.1344
354.50 0.1348
354.60 0.1351
354.70 0.1354
354.80 0.1357
354.90 0.136
355.00 0.1364
355.10 0.1367
355.20 0.137
355.30 0.1373
355.40 0.1376
355.50 0.1379
355.60 0.1382
355.70 0.1386
355.80 0.1389
355.90 0.1392
356.00 0.1395
356.10 0.1398
356.20 0.1402
356.30 0.1405
356.40 0.1408
356.50 0.1411
356.60 0.1415
356.70 0.1418
356.80 0.1421
356.90 0.1425
357.00 0.1428
357.10 0.1431
357.20 0.1434
357.30 0.1438
357.40 0.1441
357.50 0.1444
357.60 0.1447
357.70 0.145
357.80 0.1454
357.90 0.1457
358.00 0.146
358.10 0.1464
358.20 0.1467
358.30 0.147
358.40 0.1474
358.50 0.1477
358.60 0.148
358.70 0.1484
358.80 0.1487
358.90 0.1491
359.00 0.1494
359.10 0.1497
359.20 0.1501
359.30 0.1504
359.40 0.1507
359.50 0.1511
359.60 0.1514
359.70 0.1517
359.80 0.1521
359.90 0.1524
360.00 0.1527
360.10 0.1531
360.20 0.1534
360.30 0.1538
360.40 0.1541
360.50 0.1545
360.60 0.1548
360.70 0.1552
360.80 0.1555
360.90 0.1558
361.00 0.1562
361.10 0.1565
361.20 0.1569
361.30 0.1572
361.40 0.1576
361.50 0.1579
361.60 0.1583
361.70 0.1586
361.80 0.1589
361.90 0.1593
362.00 0.1596
362.10 0.16
362.20 0.1603
362.30 0.1607
362.40 0.161
362.50 0.1614
362.60 0.1617
362.70 0.1621
362.80 0.1624
362.90 0.1628
363.00 0.1631
363.10 0.1635
363.20 0.1639
363.30 0.1642
363.40 0.1646
363.50 0.1649
363.60 0.1653
363.70 0.1657
363.80 0.166
363.90 0.1664
364.00 0.1667
364.10 0.1671
364.20 0.1674
364.30 0.1678
364.40 0.1681
364.50 0.1685
364.60 0.1689
364.70 0.1692
364.80 0.1696
364.90 0.17
365.00 0.1703
365.10 0.1707
365.20 0.1711
365.30 0.1714
365.40 0.1718
365.50 0.1722
365.60 0.1725
365.70 0.1729
365.80 0.1733
365.90 0.1736
366.00 0.174
366.10 0.1744
366.20 0.1747
366.30 0.1751
366.40 0.1755
366.50 0.1759
366.60 0.1762
366.70 0.1766
366.80 0.177
366.90 0.1774
367.00 0.1777
367.10 0.1781
367.20 0.1785
367.30 0.1788
367.40 0.1792
367.50 0.1796
367.60 0.18
367.70 0.1803
367.80 0.1807
367.90 0.1811
368.00 0.1814
368.10 0.1818
368.20 0.1822
368.30 0.1826
368.40 0.183
368.50 0.1834
368.60 0.1838
368.70 0.1841
368.80 0.1845
368.90 0.1849
369.00 0.1853
369.10 0.1857
369.20 0.1861
369.30 0.1864
369.40 0.1868
369.50 0.1872
369.60 0.1876
369.70 0.188
369.80 0.1883
369.90 0.1887
370.00 0.1891
370.10 0.1895
370.20 0.1899
370.30 0.1903
370.40 0.1907
370.50 0.1911
370.60 0.1915
370.70 0.1919
370.80 0.1923
370.90 0.1926
371.00 0.193
371.10 0.1934
371.20 0.1938
371.30 0.1942
371.40 0.1946
371.50 0.195
371.60 0.1954
371.70 0.1958
371.80 0.1962
371.90 0.1965
372.00 0.1969
372.10 0.1973
372.20 0.1977
372.30 0.1981
372.40 0.1986
372.50 0.199
372.60 0.1994
372.70 0.1998
372.80 0.2002
372.90 0.2006
373.00 0.201
373.10 0.2014
373.20 0.2018
373.30 0.2022
373.40 0.2026
373.50 0.203
373.60 0.2034
373.70 0.2038
373.80 0.2042
373.90 0.2046
374.00 0.205
374.10 0.2054
374.20 0.2058
374.30 0.2062
374.40 0.2066
374.50 0.207
374.60 0.2075
374.70 0.2079
374.80 0.2083
374.90 0.2087
375.00 0.2091
375.10 0.2095
375.20 0.2099
375.30 0.2103
375.40 0.2107
375.50 0.2111
375.60 0.2116
375.70 0.212
375.80 0.2124
375.90 0.2128
376.00 0.2132
376.10 0.2136
376.20 0.214
376.30 0.2144
376.40 0.2149
376.50 0.2153
376.60 0.2157
376.70 0.2161
376.80 0.2165
376.90 0.2169
377.00 0.2174
377.10 0.2178
377.20 0.2182
377.30 0.2186
377.40 0.2191
377.50 0.2195
377.60 0.2199
377.70 0.2203
377.80 0.2207
377.90 0.2212
378.00 0.2216
378.10 0.222
378.20 0.2224
378.30 0.2229
378.40 0.2233
378.50 0.2237
378.60 0.2242
378.70 0.2246
378.80 0.225
378.90 0.2254
379.00 0.2259
379.10 0.2263
379.20 0.2267
379.30 0.2272
379.40 0.2276
379.50 0.228
379.60 0.2285
379.70 0.2289
379.80 0.2293
379.90 0.2298
380.00 0.2302
380.10 0.2306
380.20 0.2311
380.30 0.2315
380.40 0.2319
380.50 0.2324
380.60 0.2328
380.70 0.2332
380.80 0.2337
380.90 0.2341
381.00 0.2345
381.10 0.235
381.20 0.2354
381.30 0.2359
381.40 0.2363
381.50 0.2367
381.60 0.2372
381.70 0.2376
381.80 0.2381
381.90 0.2385
382.00 0.239
382.10 0.2394
382.20 0.2399
382.30 0.2403
382.40 0.2407
382.50 0.2412
382.60 0.2416
382.70 0.2421
382.80 0.2425
382.90 0.243
383.00 0.2434
383.10 0.2439
383.20 0.2443
383.30 0.2448
383.40 0.2452
383.50 0.2457
383.60 0.2461
383.70 0.2466
383.80 0.247
383.90 0.2475
384.00 0.2479
384.10 0.2484
384.20 0.2488
384.30 0.2493
384.40 0.2497
384.50 0.2502
384.60 0.2507
384.70 0.2511
384.80 0.2516
384.90 0.252
385.00 0.2525
385.10 0.2529
385.20 0.2534
385.30 0.2539
385.40 0.2543
385.50 0.2548
385.60 0.2552
385.70 0.2557
385.80 0.2561
385.90 0.2566
386.00 0.2571
386.10 0.2575
386.20 0.258
386.30 0.2585
386.40 0.2589
386.50 0.2594
386.60 0.2598
386.70 0.2603
386.80 0.2608
386.90 0.2612
387.00 0.2617
387.10 0.2622
387.20 0.2626
387.30 0.2631
387.40 0.2636
387.50 0.264
387.60 0.2645
387.70 0.265
387.80 0.2655
387.90 0.2659
388.00 0.2664
388.10 0.2669
388.20 0.2673
388.30 0.2678
388.40 0.2683
388.50 0.2688
388.60 0.2692
388.70 0.2697
388.80 0.2702
388.90 0.2707
389.00 0.2711
389.10 0.2716
389.20 0.2721
389.30 0.2726
389.40 0.273
389.50 0.2735
389.60 0.274
389.70 0.2745
389.80 0.2749
389.90 0.2754
390.00 0.2759
390.10 0.2764
390.20 0.2769
390.30 0.2773
390.40 0.2778
390.50 0.2783
390.60 0.2788
390.70 0.2793
390.80 0.2798
390.90 0.2802
391.00 0.2807
391.10 0.2812
391.20 0.2817
391.30 0.2822
391.40 0.2827
391.50 0.2832
391.60 0.2837
391.70 0.2841
391.80 0.2846
391.90 0.2851
392.00 0.2856
392.10 0.2861
392.20 0.2866
392.30 0.2871
392.40 0.2876
392.50 0.2881
392.60 0.2885
392.70 0.289
392.80 0.2895
392.90 0.29
393.00 0.2905
393.10 0.291
393.20 0.2915
393.30 0.292
393.40 0.2925
393.50 0.293
393.60 0.2935
393.70 0.294
393.80 0.2945
393.90 0.295
394.00 0.2955
394.10 0.296
394.20 0.2965
394.30 0.297
394.40 0.2975
394.50 0.298
394.60 0.2985
394.70 0.299
394.80 0.2995
394.90 0.3
395.00 0.3005
395.10 0.301
395.20 0.3015
395.30 0.302
395.40 0.3025
395.50 0.303
395.60 0.3035
395.70 0.304
395.80 0.3045
395.90 0.305
396.00 0.3055
396.10 0.306
396.20 0.3065
396.30 0.307
396.40 0.3075
396.50 0.3081
396.60 0.3086
396.70 0.3091
396.80 0.3096
396.90 0.3101
397.00 0.3106
397.10 0.3111
397.20 0.3116
397.30 0.3121
397.40 0.3127
397.50 0.3132
397.60 0.3137
397.70 0.3142
397.80 0.3147
397.90 0.3152
398.00 0.3157
398.10 0.3162
398.20 0.3168
398.30 0.3173
398.40 0.3178
398.50 0.3183
398.60 0.3188
398.70 0.3194
398.80 0.3199
398.90 0.3204
399.00 0.3209
399.10 0.3214
399.20 0.3219
399.30 0.3225
399.40 0.323
399.50 0.3235
399.60 0.324
399.70 0.3245
399.80 0.3251
399.90 0.3256
400.00 0.3261
400.10 0.3266
400.20 0.3272
400.30 0.3277
400.40 0.3282
400.50 0.3287
400.60 0.3293
400.70 0.3298
400.80 0.3303
400.90 0.3309
401.00 0.3314
401.10 0.3319
401.20 0.3324
401.30 0.333
401.40 0.3335
401.50 0.334
401.60 0.3346
401.70 0.3351
401.80 0.3356
401.90 0.3361
402.00 0.3367
402.10 0.3372
402.20 0.3378
402.30 0.3383
402.40 0.3388
402.50 0.3394
402.60 0.3399
402.70 0.3404
402.80 0.341
402.90 0.3415
403.00 0.342
403.10 0.3426
403.20 0.3431
403.30 0.3436
403.40 0.3442
403.50 0.3447
403.60 0.3453
403.70 0.3458
403.80 0.3463
403.90 0.3469
404.00 0.3474
404.10 0.3479
404.20 0.3485
404.30 0.349
404.40 0.3496
404.50 0.3501
404.60 0.3507
404.70 0.3512
404.80 0.3518
404.90 0.3523
405.00 0.3528
405.10 0.3534
405.20 0.3539
405.30 0.3545
405.40 0.355
405.50 0.3556
405.60 0.3561
405.70 0.3567
405.80 0.3572
405.90 0.3578
406.00 0.3583
406.10 0.3589
406.20 0.3594
406.30 0.36
406.40 0.3605
406.50 0.3611
406.60 0.3616
406.70 0.3622
406.80 0.3627
406.90 0.3633
407.00 0.3638
407.10 0.3644
407.20 0.3649
407.30 0.3655
407.40 0.366
407.50 0.3666
407.60 0.3671
407.70 0.3677
407.80 0.3683
407.90 0.3688
408.00 0.3694
408.10 0.3699
408.20 0.3705
408.30 0.371
408.40 0.3716
408.50 0.3722
408.60 0.3727
408.70 0.3733
408.80 0.3738
408.90 0.3744
409.00 0.375
409.10 0.3755
409.20 0.3761
409.30 0.3766
409.40 0.3772
409.50 0.3778
409.60 0.3783
409.70 0.3789
409.80 0.3795
409.90 0.38
410.00 0.3806
410.10 0.3812
410.20 0.3817
410.30 0.3823
410.40 0.3829
410.50 0.3834
410.60 0.384
410.70 0.3846
410.80 0.3851
410.90 0.3857
411.00 0.3863
411.10 0.3868
411.20 0.3874
411.30 0.388
411.40 0.3885
411.50 0.3891
411.60 0.3897
411.70 0.3902
411.80 0.3908
411.90 0.3914
412.00 0.392
412.10 0.3925
412.20 0.3931
412.30 0.3937
412.40 0.3943
412.50 0.3948
412.60 0.3954
412.70 0.396
412.80 0.3966
412.90 0.3971
413.00 0.3977
413.10 0.3983
413.20 0.3989
413.30 0.3994
413.40 0.4
413.50 0.4006
413.60 0.4012
413.70 0.4018
413.80 0.4023
413.90 0.4029
414.00 0.4035
414.10 0.4041
414.20 0.4047
414.30 0.4052
414.40 0.4058
414.50 0.4064
414.60 0.407
414.70 0.4076
414.80 0.4082
414.90 0.4087
415.00 0.4093
415.10 0.4099
415.20 0.4105
415.30 0.4111
415.40 0.4117
415.50 0.4123
415.60 0.4128
415.70 0.4134
415.80 0.414
415.90 0.4146
416.00 0.4152
416.10 0.4158
416.20 0.4164
416.30 0.417
416.40 0.4176
416.50 0.4181
416.60 0.4187
416.70 0.4193
416.80 0.4199
416.90 0.4205
417.00 0.4211
417.10 0.4217
417.20 0.4223
417.30 0.4229
417.40 0.4235
417.50 0.4241
417.60 0.4247
417.70 0.4252
417.80 0.4258
417.90 0.4264
418.00 0.427
418.10 0.4276
418.20 0.4282
418.30 0.4288
418.40 0.4294
418.50 0.43
418.60 0.4306
418.70 0.4312
418.80 0.4318
418.90 0.4324
419.00 0.433
419.10 0.4336
419.20 0.4342
419.30 0.4348
419.40 0.4354
419.50 0.436
419.60 0.4366
419.70 0.4372
419.80 0.4378
419.90 0.4384
420.00 0.439
420.10 0.4396
420.20 0.4402
420.30 0.4408
420.40 0.4414
420.50 0.442
420.60 0.4426
420.70 0.4433
420.80 0.4439
420.90 0.4445
421.00 0.4451
421.10 0.4457
421.20 0.4463
421.30 0.4469
421.40 0.4475
421.50 0.4481
421.60 0.4487
421.70 0.4493
421.80 0.4499
421.90 0.4505
422.00 0.4512
422.10 0.4518
422.20 0.4524
422.30 0.453
422.40 0.4536
422.50 0.4542
422.60 0.4548
422.70 0.4554
422.80 0.456
422.90 0.4567
423.00 0.4573
423.10 0.4579
423.20 0.4585
423.30 0.4591
423.40 0.4597
423.50 0.4604
423.60 0.461
423.70 0.4616
423.80 0.4622
423.90 0.4628
424.00 0.4634
424.10 0.464
424.20 0.4647
424.30 0.4653
424.40 0.4659
424.50 0.4665
424.60 0.4671
424.70 0.4678
424.80 0.4684
424.90 0.469
425.00 0.4696
425.10 0.4702
425.20 0.4709
425.30 0.4715
425.40 0.4721
425.50 0.4727
425.60 0.4733
425.70 0.474
425.80 0.4746
425.90 0.4752
426.00 0.4758
426.10 0.4765
426.20 0.4771
426.30 0.4777
426.40 0.4783
426.50 0.479
426.60 0.4796
426.70 0.4802
426.80 0.4808
426.90 0.4815
427.00 0.4821
427.10 0.4827
427.20 0.4834
427.30 0.484
427.40 0.4846
427.50 0.4852
427.60 0.4859
427.70 0.4865
427.80 0.4871
427.90 0.4878
428.00 0.4884
428.10 0.489
428.20 0.4897
428.30 0.4903
428.40 0.4909
428.50 0.4916
428.60 0.4922
428.70 0.4928
428.80 0.4935
428.90 0.4941
429.00 0.4947
429.10 0.4954
429.20 0.496
429.30 0.4966
429.40 0.4973
429.50 0.4979
429.60 0.4985
429.70 0.4992
429.80 0.4998
429.90 0.5004
430.00 0.5011
430.10 0.5017
430.20 0.5024
430.30 0.503
430.40 0.5036
430.50 0.5043
430.60 0.5049
430.70 0.5055
430.80 0.5062
430.90 0.5068
431.00 0.5075
431.10 0.5081
431.20 0.5087
431.30 0.5094
431.40 0.51
431.50 0.5107
431.60 0.5113
431.70 0.512
431.80 0.5126
431.90 0.5132
432.00 0.5139
432.10 0.5145
432.20 0.5152
432.30 0.5158
432.40 0.5165
432.50 0.5171
432.60 0.5178
432.70 0.5184
432.80 0.519
432.90 0.5197
433.00 0.5203
433.10 0.521
433.20 0.5216
433.30 0.5223
433.40 0.5229
433.50 0.5236
433.60 0.5242
433.70 0.5249
433.80 0.5255
433.90 0.5262
434.00 0.5268
434.10 0.5275
434.20 0.5281
434.30 0.5288
434.40 0.5294
434.50 0.5301
434.60 0.5307
434.70 0.5314
434.80 0.532
434.90 0.5327
435.00 0.5333
435.10 0.534
435.20 0.5347
435.30 0.5353
435.40 0.536
435.50 0.5366
435.60 0.5373
435.70 0.5379
435.80 0.5386
435.90 0.5392
436.00 0.5399
436.10 0.5406
436.20 0.5412
436.30 0.5419
436.40 0.5425
436.50 0.5432
436.60 0.5438
436.70 0.5445
436.80 0.5451
436.90 0.5458
437.00 0.5465
437.10 0.5471
437.20 0.5478
437.30 0.5484
437.40 0.5491
437.50 0.5498
437.60 0.5504
437.70 0.5511
437.80 0.5517
437.90 0.5524
438.00 0.5531
438.10 0.5537
438.20 0.5544
438.30 0.5551
438.40 0.5557
438.50 0.5564
438.60 0.557
438.70 0.5577
438.80 0.5584
438.90 0.559
439.00 0.5597
439.10 0.5604
439.20 0.561
439.30 0.5617
439.40 0.5624
439.50 0.563
439.60 0.5637
439.70 0.5644
439.80 0.565
439.90 0.5657
440.00 0.5664
440.10 0.567
440.20 0.5677
