# Version 2.1 - nm, norm@500 to 1, cut digits, bergeron_65000_85.dat_65000
# Wavelength(nm)  Flambda(ergs/cm^s/s/nm)
300.00 6.495
300.10 6.487
300.20 6.479
300.30 6.471
300.40 6.463
300.50 6.455
300.60 6.448
300.70 6.44
300.80 6.432
300.90 6.424
301.00 6.416
301.10 6.408
301.20 6.4
301.30 6.392
301.40 6.385
301.50 6.377
301.60 6.369
301.70 6.361
301.80 6.353
301.90 6.346
302.00 6.338
302.10 6.33
302.20 6.322
302.30 6.315
302.40 6.307
302.50 6.299
302.60 6.292
302.70 6.284
302.80 6.276
302.90 6.269
303.00 6.261
303.10 6.253
303.20 6.246
303.30 6.238
303.40 6.231
303.50 6.223
303.60 6.216
303.70 6.208
303.80 6.2
303.90 6.193
304.00 6.185
304.10 6.178
304.20 6.17
304.30 6.163
304.40 6.155
304.50 6.148
304.60 6.141
304.70 6.133
304.80 6.126
304.90 6.118
305.00 6.111
305.10 6.103
305.20 6.096
305.30 6.089
305.40 6.081
305.50 6.074
305.60 6.067
305.70 6.059
305.80 6.052
305.90 6.045
306.00 6.037
306.10 6.03
306.20 6.023
306.30 6.016
306.40 6.008
306.50 6.001
306.60 5.994
306.70 5.987
306.80 5.979
306.90 5.972
307.00 5.965
307.10 5.958
307.20 5.951
307.30 5.944
307.40 5.936
307.50 5.929
307.60 5.922
307.70 5.915
307.80 5.908
307.90 5.901
308.00 5.894
308.10 5.887
308.20 5.88
308.30 5.873
308.40 5.866
308.50 5.859
308.60 5.852
308.70 5.845
308.80 5.838
308.90 5.831
309.00 5.824
309.10 5.817
309.20 5.81
309.30 5.803
309.40 5.796
309.50 5.789
309.60 5.782
309.70 5.775
309.80 5.768
309.90 5.761
310.00 5.755
310.10 5.748
310.20 5.741
310.30 5.734
310.40 5.727
310.50 5.72
310.60 5.714
310.70 5.707
310.80 5.7
310.90 5.693
311.00 5.686
311.10 5.68
311.20 5.673
311.30 5.666
311.40 5.66
311.50 5.653
311.60 5.646
311.70 5.639
311.80 5.633
311.90 5.626
312.00 5.619
312.10 5.613
312.20 5.606
312.30 5.599
312.40 5.593
312.50 5.586
312.60 5.58
312.70 5.573
312.80 5.566
312.90 5.56
313.00 5.553
313.10 5.547
313.20 5.54
313.30 5.534
313.40 5.527
313.50 5.521
313.60 5.514
313.70 5.508
313.80 5.501
313.90 5.495
314.00 5.488
314.10 5.482
314.20 5.475
314.30 5.469
314.40 5.462
314.50 5.456
314.60 5.45
314.70 5.443
314.80 5.437
314.90 5.43
315.00 5.424
315.10 5.418
315.20 5.411
315.30 5.405
315.40 5.399
315.50 5.392
315.60 5.386
315.70 5.38
315.80 5.373
315.90 5.367
316.00 5.361
316.10 5.354
316.20 5.348
316.30 5.342
316.40 5.336
316.50 5.329
316.60 5.323
316.70 5.317
316.80 5.311
316.90 5.305
317.00 5.298
317.10 5.292
317.20 5.286
317.30 5.28
317.40 5.274
317.50 5.268
317.60 5.261
317.70 5.255
317.80 5.249
317.90 5.243
318.00 5.237
318.10 5.231
318.20 5.225
318.30 5.219
318.40 5.213
318.50 5.207
318.60 5.201
318.70 5.195
318.80 5.189
318.90 5.183
319.00 5.176
319.10 5.17
319.20 5.165
319.30 5.159
319.40 5.153
319.50 5.147
319.60 5.141
319.70 5.135
319.80 5.129
319.90 5.123
320.00 5.117
320.10 5.111
320.20 5.105
320.30 5.099
320.40 5.093
320.50 5.087
320.60 5.081
320.70 5.076
320.80 5.07
320.90 5.064
321.00 5.058
321.10 5.052
321.20 5.046
321.30 5.041
321.40 5.035
321.50 5.029
321.60 5.023
321.70 5.017
321.80 5.012
321.90 5.006
322.00 5
322.10 4.994
322.20 4.989
322.30 4.983
322.40 4.977
322.50 4.971
322.60 4.966
322.70 4.96
322.80 4.954
322.90 4.949
323.00 4.943
323.10 4.937
323.20 4.932
323.30 4.926
323.40 4.92
323.50 4.915
323.60 4.909
323.70 4.904
323.80 4.898
323.90 4.892
324.00 4.887
324.10 4.881
324.20 4.876
324.30 4.87
324.40 4.864
324.50 4.859
324.60 4.853
324.70 4.848
324.80 4.842
324.90 4.837
325.00 4.831
325.10 4.826
325.20 4.82
325.30 4.815
325.40 4.809
325.50 4.804
325.60 4.798
325.70 4.793
325.80 4.787
325.90 4.782
326.00 4.777
326.10 4.771
326.20 4.766
326.30 4.76
326.40 4.755
326.50 4.749
326.60 4.744
326.70 4.739
326.80 4.733
326.90 4.728
327.00 4.723
327.10 4.717
327.20 4.712
327.30 4.707
327.40 4.701
327.50 4.696
327.60 4.691
327.70 4.685
327.80 4.68
327.90 4.675
328.00 4.669
328.10 4.664
328.20 4.659
328.30 4.654
328.40 4.648
328.50 4.643
328.60 4.638
328.70 4.633
328.80 4.627
328.90 4.622
329.00 4.617
329.10 4.612
329.20 4.607
329.30 4.601
329.40 4.596
329.50 4.591
329.60 4.586
329.70 4.581
329.80 4.576
329.90 4.57
330.00 4.565
330.10 4.56
330.20 4.555
330.30 4.55
330.40 4.545
330.50 4.54
330.60 4.535
330.70 4.53
330.80 4.525
330.90 4.52
331.00 4.514
331.10 4.509
331.20 4.504
331.30 4.499
331.40 4.494
331.50 4.489
331.60 4.484
331.70 4.479
331.80 4.474
331.90 4.469
332.00 4.464
332.10 4.459
332.20 4.454
332.30 4.449
332.40 4.444
332.50 4.439
332.60 4.434
332.70 4.429
332.80 4.425
332.90 4.42
333.00 4.415
333.10 4.41
333.20 4.405
333.30 4.4
333.40 4.395
333.50 4.39
333.60 4.385
333.70 4.38
333.80 4.375
333.90 4.371
334.00 4.366
334.10 4.361
334.20 4.356
334.30 4.351
334.40 4.346
334.50 4.342
334.60 4.337
334.70 4.332
334.80 4.327
334.90 4.322
335.00 4.318
335.10 4.313
335.20 4.308
335.30 4.303
335.40 4.299
335.50 4.294
335.60 4.289
335.70 4.284
335.80 4.28
335.90 4.275
336.00 4.27
336.10 4.265
336.20 4.261
336.30 4.256
336.40 4.251
336.50 4.247
336.60 4.242
336.70 4.237
336.80 4.233
336.90 4.228
337.00 4.223
337.10 4.219
337.20 4.214
337.30 4.209
337.40 4.205
337.50 4.2
337.60 4.195
337.70 4.191
337.80 4.186
337.90 4.182
338.00 4.177
338.10 4.172
338.20 4.168
338.30 4.163
338.40 4.159
338.50 4.154
338.60 4.15
338.70 4.145
338.80 4.14
338.90 4.136
339.00 4.131
339.10 4.127
339.20 4.122
339.30 4.118
339.40 4.113
339.50 4.109
339.60 4.104
339.70 4.1
339.80 4.095
339.90 4.091
340.00 4.086
340.10 4.082
340.20 4.077
340.30 4.073
340.40 4.069
340.50 4.064
340.60 4.06
340.70 4.055
340.80 4.051
340.90 4.047
341.00 4.042
341.10 4.038
341.20 4.033
341.30 4.029
341.40 4.025
341.50 4.02
341.60 4.016
341.70 4.011
341.80 4.007
341.90 4.003
342.00 3.998
342.10 3.994
342.20 3.99
342.30 3.985
342.40 3.981
342.50 3.977
342.60 3.972
342.70 3.968
342.80 3.964
342.90 3.959
343.00 3.955
343.10 3.951
343.20 3.947
343.30 3.942
343.40 3.938
343.50 3.934
343.60 3.93
343.70 3.925
343.80 3.921
343.90 3.917
344.00 3.913
344.10 3.908
344.20 3.904
344.30 3.9
344.40 3.896
344.50 3.892
344.60 3.887
344.70 3.883
344.80 3.879
344.90 3.875
345.00 3.871
345.10 3.866
345.20 3.862
345.30 3.858
345.40 3.854
345.50 3.85
345.60 3.846
345.70 3.842
345.80 3.837
345.90 3.833
346.00 3.829
346.10 3.825
346.20 3.821
346.30 3.817
346.40 3.813
346.50 3.809
346.60 3.805
346.70 3.8
346.80 3.796
346.90 3.792
347.00 3.788
347.10 3.784
347.20 3.78
347.30 3.776
347.40 3.772
347.50 3.768
347.60 3.764
347.70 3.76
347.80 3.756
347.90 3.752
348.00 3.748
348.10 3.744
348.20 3.74
348.30 3.736
348.40 3.732
348.50 3.728
348.60 3.724
348.70 3.72
348.80 3.716
348.90 3.712
349.00 3.708
349.10 3.704
349.20 3.7
349.30 3.696
349.40 3.692
349.50 3.688
349.60 3.684
349.70 3.681
349.80 3.677
349.90 3.673
350.00 3.669
350.10 3.665
350.20 3.661
350.30 3.657
350.40 3.653
350.50 3.649
350.60 3.646
350.70 3.642
350.80 3.638
350.90 3.634
351.00 3.63
351.10 3.626
351.20 3.622
351.30 3.619
351.40 3.615
351.50 3.611
351.60 3.607
351.70 3.603
351.80 3.599
351.90 3.596
352.00 3.592
352.10 3.588
352.20 3.584
352.30 3.58
352.40 3.577
352.50 3.573
352.60 3.569
352.70 3.565
352.80 3.562
352.90 3.558
353.00 3.554
353.10 3.55
353.20 3.547
353.30 3.543
353.40 3.539
353.50 3.535
353.60 3.532
353.70 3.528
353.80 3.524
353.90 3.521
354.00 3.517
354.10 3.513
354.20 3.509
354.30 3.506
354.40 3.502
354.50 3.498
354.60 3.495
354.70 3.491
354.80 3.487
354.90 3.484
355.00 3.48
355.10 3.476
355.20 3.473
355.30 3.469
355.40 3.466
355.50 3.462
355.60 3.458
355.70 3.455
355.80 3.451
355.90 3.447
356.00 3.444
356.10 3.44
356.20 3.437
356.30 3.433
356.40 3.429
356.50 3.426
356.60 3.422
356.70 3.419
356.80 3.415
356.90 3.412
357.00 3.408
357.10 3.405
357.20 3.401
357.30 3.397
357.40 3.394
357.50 3.39
357.60 3.387
357.70 3.383
357.80 3.38
357.90 3.376
358.00 3.373
358.10 3.369
358.20 3.366
358.30 3.362
358.40 3.359
358.50 3.355
358.60 3.352
358.70 3.348
358.80 3.345
358.90 3.341
359.00 3.338
359.10 3.334
359.20 3.331
359.30 3.327
359.40 3.324
359.50 3.321
359.60 3.317
359.70 3.314
359.80 3.31
359.90 3.307
360.00 3.303
360.10 3.3
360.20 3.297
360.30 3.293
360.40 3.29
360.50 3.286
360.60 3.283
360.70 3.28
360.80 3.276
360.90 3.273
361.00 3.269
361.10 3.266
361.20 3.263
361.30 3.259
361.40 3.256
361.50 3.253
361.60 3.249
361.70 3.246
361.80 3.243
361.90 3.239
362.00 3.236
362.10 3.233
362.20 3.229
362.30 3.226
362.40 3.223
362.50 3.219
362.60 3.216
362.70 3.213
362.80 3.209
362.90 3.206
363.00 3.203
363.10 3.199
363.20 3.196
363.30 3.193
363.40 3.19
363.50 3.186
363.60 3.183
363.70 3.18
363.80 3.177
363.90 3.173
364.00 3.17
364.10 3.167
364.20 3.164
364.30 3.16
364.40 3.157
364.50 3.154
364.60 3.151
364.70 3.147
364.80 3.144
364.90 3.141
365.00 3.138
365.10 3.135
365.20 3.131
365.30 3.128
365.40 3.125
365.50 3.122
365.60 3.119
365.70 3.115
365.80 3.112
365.90 3.109
366.00 3.106
366.10 3.103
366.20 3.1
366.30 3.096
366.40 3.093
366.50 3.09
366.60 3.087
366.70 3.084
366.80 3.08
366.90 3.077
367.00 3.074
367.10 3.071
367.20 3.068
367.30 3.064
367.40 3.061
367.50 3.058
367.60 3.055
367.70 3.052
367.80 3.049
367.90 3.046
368.00 3.042
368.10 3.039
368.20 3.036
368.30 3.033
368.40 3.03
368.50 3.027
368.60 3.023
368.70 3.02
368.80 3.017
368.90 3.014
369.00 3.011
369.10 3.008
369.20 3.004
369.30 3.001
369.40 2.998
369.50 2.995
369.60 2.992
369.70 2.989
369.80 2.986
369.90 2.982
370.00 2.979
370.10 2.976
370.20 2.973
370.30 2.97
370.40 2.967
370.50 2.964
370.60 2.961
370.70 2.958
370.80 2.955
370.90 2.952
371.00 2.949
371.10 2.946
371.20 2.943
371.30 2.94
371.40 2.936
371.50 2.933
371.60 2.93
371.70 2.927
371.80 2.924
371.90 2.921
372.00 2.918
372.10 2.915
372.20 2.912
372.30 2.91
372.40 2.907
372.50 2.904
372.60 2.901
372.70 2.898
372.80 2.895
372.90 2.892
373.00 2.889
373.10 2.886
373.20 2.883
373.30 2.88
373.40 2.877
373.50 2.875
373.60 2.872
373.70 2.869
373.80 2.866
373.90 2.863
374.00 2.86
374.10 2.857
374.20 2.854
374.30 2.851
374.40 2.848
374.50 2.845
374.60 2.843
374.70 2.84
374.80 2.837
374.90 2.834
375.00 2.831
375.10 2.828
375.20 2.825
375.30 2.822
375.40 2.819
375.50 2.817
375.60 2.814
375.70 2.811
375.80 2.808
375.90 2.805
376.00 2.802
376.10 2.799
376.20 2.796
376.30 2.794
376.40 2.791
376.50 2.788
376.60 2.785
376.70 2.782
376.80 2.78
376.90 2.777
377.00 2.774
377.10 2.771
377.20 2.768
377.30 2.766
377.40 2.763
377.50 2.76
377.60 2.757
377.70 2.755
377.80 2.752
377.90 2.749
378.00 2.746
378.10 2.744
378.20 2.741
378.30 2.738
378.40 2.736
378.50 2.733
378.60 2.73
378.70 2.728
378.80 2.725
378.90 2.722
379.00 2.72
379.10 2.717
379.20 2.714
379.30 2.712
379.40 2.709
379.50 2.706
379.60 2.704
379.70 2.701
379.80 2.698
379.90 2.696
380.00 2.693
380.10 2.691
380.20 2.688
380.30 2.685
380.40 2.683
380.50 2.68
380.60 2.678
380.70 2.675
380.80 2.673
380.90 2.67
381.00 2.668
381.10 2.665
381.20 2.662
381.30 2.66
381.40 2.657
381.50 2.655
381.60 2.652
381.70 2.65
381.80 2.647
381.90 2.645
382.00 2.642
382.10 2.64
382.20 2.637
382.30 2.635
382.40 2.632
382.50 2.63
382.60 2.627
382.70 2.624
382.80 2.622
382.90 2.619
383.00 2.617
383.10 2.614
383.20 2.612
383.30 2.61
383.40 2.607
383.50 2.605
383.60 2.602
383.70 2.6
383.80 2.598
383.90 2.595
384.00 2.593
384.10 2.591
384.20 2.588
384.30 2.586
384.40 2.584
384.50 2.582
384.60 2.579
384.70 2.577
384.80 2.575
384.90 2.572
385.00 2.57
385.10 2.568
385.20 2.566
385.30 2.563
385.40 2.561
385.50 2.559
385.60 2.556
385.70 2.554
385.80 2.551
385.90 2.549
386.00 2.547
386.10 2.544
386.20 2.542
386.30 2.539
386.40 2.537
386.50 2.534
386.60 2.532
386.70 2.529
386.80 2.527
386.90 2.524
387.00 2.522
387.10 2.519
387.20 2.517
387.30 2.514
387.40 2.512
387.50 2.509
387.60 2.507
387.70 2.504
387.80 2.502
387.90 2.499
388.00 2.497
388.10 2.494
388.20 2.492
388.30 2.489
388.40 2.487
388.50 2.484
388.60 2.482
388.70 2.48
388.80 2.477
388.90 2.475
389.00 2.473
389.10 2.471
389.20 2.469
389.30 2.467
389.40 2.465
389.50 2.464
389.60 2.462
389.70 2.46
389.80 2.458
389.90 2.457
390.00 2.455
390.10 2.453
390.20 2.451
390.30 2.45
390.40 2.448
390.50 2.446
390.60 2.444
390.70 2.442
390.80 2.441
390.90 2.439
391.00 2.437
391.10 2.435
391.20 2.433
391.30 2.431
391.40 2.429
391.50 2.427
391.60 2.425
391.70 2.423
391.80 2.421
391.90 2.419
392.00 2.417
392.10 2.414
392.20 2.412
392.30 2.41
392.40 2.408
392.50 2.405
392.60 2.403
392.70 2.4
392.80 2.398
392.90 2.395
393.00 2.393
393.10 2.39
393.20 2.388
393.30 2.385
393.40 2.382
393.50 2.38
393.60 2.377
393.70 2.374
393.80 2.371
393.90 2.368
394.00 2.366
394.10 2.363
394.20 2.36
394.30 2.357
394.40 2.353
394.50 2.35
394.60 2.347
394.70 2.344
394.80 2.341
394.90 2.338
395.00 2.334
395.10 2.331
395.20 2.328
395.30 2.324
395.40 2.321
395.50 2.317
395.60 2.314
395.70 2.31
395.80 2.307
395.90 2.303
396.00 2.3
396.10 2.296
396.20 2.293
396.30 2.289
396.40 2.286
396.50 2.283
396.60 2.279
396.70 2.276
396.80 2.273
396.90 2.27
397.00 2.267
397.10 2.266
397.20 2.265
397.30 2.265
397.40 2.264
397.50 2.264
397.60 2.263
397.70 2.263
397.80 2.262
397.90 2.262
398.00 2.262
398.10 2.262
398.20 2.261
398.30 2.261
398.40 2.261
398.50 2.26
398.60 2.26
398.70 2.26
398.80 2.259
398.90 2.259
399.00 2.258
399.10 2.258
399.20 2.257
399.30 2.257
399.40 2.256
399.50 2.255
399.60 2.255
399.70 2.254
399.80 2.253
399.90 2.252
400.00 2.252
400.10 2.251
400.20 2.25
400.30 2.249
400.40 2.248
400.50 2.247
400.60 2.246
400.70 2.245
400.80 2.243
400.90 2.242
401.00 2.241
401.10 2.24
401.20 2.238
401.30 2.237
401.40 2.236
401.50 2.234
401.60 2.233
401.70 2.231
401.80 2.229
401.90 2.228
402.00 2.226
402.10 2.225
402.20 2.223
402.30 2.221
402.40 2.219
402.50 2.217
402.60 2.215
402.70 2.214
402.80 2.212
402.90 2.21
403.00 2.208
403.10 2.205
403.20 2.203
403.30 2.201
403.40 2.199
403.50 2.197
403.60 2.194
403.70 2.192
403.80 2.19
403.90 2.187
404.00 2.185
404.10 2.182
404.20 2.18
404.30 2.177
404.40 2.174
404.50 2.172
404.60 2.169
404.70 2.166
404.80 2.163
404.90 2.16
405.00 2.158
405.10 2.155
405.20 2.151
405.30 2.148
405.40 2.145
405.50 2.142
405.60 2.139
405.70 2.135
405.80 2.132
405.90 2.129
406.00 2.125
406.10 2.121
406.20 2.118
406.30 2.114
406.40 2.11
406.50 2.107
406.60 2.103
406.70 2.099
406.80 2.095
406.90 2.09
407.00 2.086
407.10 2.082
407.20 2.078
407.30 2.073
407.40 2.069
407.50 2.064
407.60 2.06
407.70 2.055
407.80 2.05
407.90 2.045
408.00 2.04
408.10 2.035
408.20 2.03
408.30 2.025
408.40 2.02
408.50 2.015
408.60 2.009
408.70 2.004
408.80 1.999
408.90 1.993
409.00 1.988
409.10 1.983
409.20 1.977
409.30 1.972
409.40 1.967
409.50 1.962
409.60 1.957
409.70 1.953
409.80 1.95
409.90 1.947
410.00 1.946
410.10 1.946
410.20 1.946
410.30 1.942
410.40 1.939
410.50 1.937
410.60 1.937
410.70 1.938
410.80 1.939
410.90 1.94
411.00 1.942
411.10 1.944
411.20 1.946
411.30 1.948
411.40 1.95
411.50 1.952
411.60 1.953
411.70 1.955
411.80 1.957
411.90 1.959
412.00 1.961
412.10 1.962
412.20 1.964
412.30 1.966
412.40 1.967
412.50 1.968
412.60 1.97
412.70 1.971
412.80 1.972
412.90 1.973
413.00 1.974
413.10 1.975
413.20 1.976
413.30 1.976
413.40 1.977
413.50 1.978
413.60 1.978
413.70 1.979
413.80 1.979
413.90 1.979
414.00 1.98
414.10 1.98
414.20 1.98
414.30 1.98
414.40 1.98
414.50 1.98
414.60 1.98
414.70 1.98
414.80 1.98
414.90 1.98
415.00 1.979
415.10 1.979
415.20 1.979
415.30 1.978
415.40 1.978
415.50 1.977
415.60 1.977
415.70 1.976
415.80 1.975
415.90 1.975
416.00 1.974
416.10 1.973
416.20 1.973
416.30 1.972
416.40 1.971
416.50 1.97
416.60 1.969
416.70 1.968
416.80 1.967
416.90 1.966
417.00 1.965
417.10 1.964
417.20 1.963
417.30 1.962
417.40 1.961
417.50 1.96
417.60 1.959
417.70 1.958
417.80 1.957
417.90 1.955
418.00 1.954
418.10 1.953
418.20 1.952
418.30 1.95
418.40 1.949
418.50 1.948
418.60 1.946
418.70 1.945
418.80 1.944
418.90 1.942
419.00 1.941
419.10 1.94
419.20 1.938
419.30 1.937
419.40 1.935
419.50 1.934
419.60 1.932
419.70 1.931
419.80 1.929
419.90 1.928
420.00 1.926
420.10 1.925
420.20 1.923
420.30 1.922
420.40 1.92
420.50 1.919
420.60 1.917
420.70 1.915
420.80 1.914
420.90 1.912
421.00 1.911
421.10 1.909
421.20 1.907
421.30 1.906
421.40 1.904
421.50 1.902
421.60 1.901
421.70 1.899
421.80 1.897
421.90 1.896
422.00 1.894
422.10 1.892
422.20 1.891
422.30 1.889
422.40 1.887
422.50 1.885
422.60 1.884
422.70 1.882
422.80 1.88
422.90 1.878
423.00 1.877
423.10 1.875
423.20 1.873
423.30 1.871
423.40 1.869
423.50 1.867
423.60 1.866
423.70 1.864
423.80 1.862
423.90 1.86
424.00 1.858
424.10 1.856
424.20 1.854
424.30 1.852
424.40 1.85
424.50 1.848
424.60 1.847
424.70 1.845
424.80 1.843
424.90 1.841
425.00 1.839
425.10 1.837
425.20 1.834
425.30 1.832
425.40 1.83
425.50 1.828
425.60 1.826
425.70 1.824
425.80 1.822
425.90 1.82
426.00 1.818
426.10 1.815
426.20 1.813
426.30 1.811
426.40 1.809
426.50 1.806
426.60 1.804
426.70 1.802
426.80 1.799
426.90 1.797
427.00 1.795
427.10 1.792
427.20 1.79
427.30 1.787
427.40 1.785
427.50 1.782
427.60 1.779
427.70 1.777
427.80 1.774
427.90 1.771
428.00 1.769
428.10 1.766
428.20 1.763
428.30 1.76
428.40 1.757
428.50 1.754
428.60 1.751
428.70 1.748
428.80 1.745
428.90 1.742
429.00 1.739
429.10 1.736
429.20 1.732
429.30 1.729
429.40 1.726
429.50 1.722
429.60 1.719
429.70 1.715
429.80 1.711
429.90 1.708
430.00 1.704
430.10 1.7
430.20 1.696
430.30 1.692
430.40 1.688
430.50 1.683
430.60 1.679
430.70 1.675
430.80 1.67
430.90 1.666
431.00 1.661
431.10 1.656
431.20 1.651
431.30 1.646
431.40 1.641
431.50 1.636
431.60 1.631
431.70 1.625
431.80 1.62
431.90 1.614
432.00 1.609
432.10 1.603
432.20 1.597
432.30 1.591
432.40 1.585
432.50 1.579
432.60 1.573
432.70 1.566
432.80 1.56
432.90 1.554
433.00 1.548
433.10 1.541
433.20 1.535
433.30 1.529
433.40 1.523
433.50 1.517
433.60 1.511
433.70 1.504
433.80 1.498
433.90 1.49
434.00 1.484
434.10 1.483
434.20 1.487
434.30 1.492
434.40 1.496
434.50 1.5
434.60 1.504
434.70 1.507
434.80 1.511
434.90 1.514
435.00 1.518
435.10 1.522
435.20 1.525
435.30 1.529
435.40 1.533
435.50 1.536
435.60 1.54
435.70 1.543
435.80 1.546
435.90 1.549
436.00 1.553
436.10 1.556
436.20 1.558
436.30 1.561
436.40 1.564
436.50 1.566
436.60 1.569
436.70 1.571
436.80 1.573
436.90 1.575
437.00 1.577
437.10 1.579
437.20 1.581
437.30 1.583
437.40 1.584
437.50 1.586
437.60 1.587
437.70 1.588
437.80 1.59
437.90 1.591
438.00 1.592
438.10 1.593
438.20 1.593
438.30 1.594
438.40 1.595
438.50 1.596
438.60 1.596
438.70 1.597
438.80 1.597
438.90 1.597
439.00 1.598
439.10 1.598
439.20 1.598
439.30 1.598
439.40 1.598
439.50 1.598
439.60 1.598
439.70 1.598
439.80 1.598
439.90 1.598
440.00 1.598
440.10 1.598
440.20 1.597
440.30 1.597
440.40 1.597
440.50 1.596
440.60 1.596
440.70 1.595
440.80 1.595
440.90 1.594
441.00 1.594
441.10 1.593
441.20 1.593
441.30 1.592
441.40 1.591
441.50 1.591
441.60 1.59
441.70 1.589
441.80 1.588
441.90 1.588
442.00 1.587
442.10 1.586
442.20 1.585
442.30 1.584
442.40 1.584
442.50 1.583
442.60 1.582
442.70 1.581
442.80 1.58
442.90 1.579
443.00 1.578
443.10 1.577
443.20 1.576
443.30 1.575
443.40 1.574
443.50 1.573
443.60 1.572
443.70 1.571
443.80 1.57
443.90 1.569
444.00 1.568
444.10 1.567
444.20 1.566
444.30 1.565
444.40 1.564
444.50 1.563
444.60 1.562
444.70 1.561
444.80 1.56
444.90 1.559
445.00 1.557
445.10 1.556
445.20 1.555
445.30 1.554
445.40 1.553
445.50 1.552
445.60 1.551
445.70 1.55
445.80 1.548
445.90 1.547
446.00 1.546
446.10 1.545
446.20 1.544
446.30 1.543
446.40 1.541
446.50 1.54
446.60 1.539
446.70 1.538
446.80 1.537
446.90 1.536
447.00 1.534
447.10 1.533
447.20 1.532
447.30 1.531
447.40 1.53
447.50 1.528
447.60 1.527
447.70 1.526
447.80 1.525
447.90 1.524
448.00 1.522
448.10 1.521
448.20 1.52
448.30 1.519
448.40 1.518
448.50 1.516
448.60 1.515
448.70 1.514
448.80 1.513
448.90 1.512
449.00 1.51
449.10 1.509
449.20 1.508
449.30 1.507
449.40 1.506
449.50 1.504
449.60 1.503
449.70 1.502
449.80 1.501
449.90 1.5
450.00 1.498
450.10 1.497
450.20 1.496
450.30 1.495
450.40 1.493
450.50 1.492
450.60 1.491
450.70 1.49
450.80 1.489
450.90 1.487
451.00 1.486
451.10 1.485
451.20 1.484
451.30 1.483
451.40 1.481
451.50 1.48
451.60 1.479
451.70 1.478
451.80 1.476
451.90 1.475
452.00 1.474
452.10 1.473
452.20 1.472
452.30 1.47
452.40 1.469
452.50 1.468
452.60 1.467
452.70 1.466
452.80 1.464
452.90 1.463
453.00 1.462
453.10 1.461
453.20 1.46
453.30 1.458
453.40 1.457
453.50 1.456
453.60 1.455
453.70 1.453
453.80 1.452
453.90 1.451
454.00 1.45
454.10 1.449
454.20 1.447
454.30 1.446
