# Version 2.1 - nm, norm@500 to 1, cut digits, bergeron_110000_70.dat_110000
# Wavelength(nm)  Flambda(ergs/cm^s/s/nm)
300.00 6.893
300.10 6.884
300.20 6.875
300.30 6.867
300.40 6.858
300.50 6.849
300.60 6.841
300.70 6.832
300.80 6.824
300.90 6.815
301.00 6.807
301.10 6.798
301.20 6.789
301.30 6.781
301.40 6.772
301.50 6.764
301.60 6.755
301.70 6.747
301.80 6.739
301.90 6.73
302.00 6.722
302.10 6.713
302.20 6.705
302.30 6.696
302.40 6.688
302.50 6.68
302.60 6.671
302.70 6.663
302.80 6.655
302.90 6.646
303.00 6.638
303.10 6.63
303.20 6.622
303.30 6.613
303.40 6.605
303.50 6.597
303.60 6.589
303.70 6.58
303.80 6.572
303.90 6.564
304.00 6.556
304.10 6.548
304.20 6.54
304.30 6.531
304.40 6.523
304.50 6.515
304.60 6.507
304.70 6.499
304.80 6.491
304.90 6.483
305.00 6.475
305.10 6.467
305.20 6.459
305.30 6.451
305.40 6.443
305.50 6.435
305.60 6.427
305.70 6.419
305.80 6.411
305.90 6.403
306.00 6.395
306.10 6.387
306.20 6.379
306.30 6.372
306.40 6.364
306.50 6.356
306.60 6.348
306.70 6.34
306.80 6.332
306.90 6.325
307.00 6.317
307.10 6.309
307.20 6.301
307.30 6.293
307.40 6.286
307.50 6.278
307.60 6.27
307.70 6.263
307.80 6.255
307.90 6.247
308.00 6.239
308.10 6.232
308.20 6.224
308.30 6.217
308.40 6.209
308.50 6.201
308.60 6.194
308.70 6.186
308.80 6.179
308.90 6.171
309.00 6.163
309.10 6.156
309.20 6.148
309.30 6.141
309.40 6.133
309.50 6.126
309.60 6.118
309.70 6.111
309.80 6.103
309.90 6.096
310.00 6.088
310.10 6.081
310.20 6.074
310.30 6.066
310.40 6.059
310.50 6.051
310.60 6.044
310.70 6.037
310.80 6.029
310.90 6.022
311.00 6.015
311.10 6.007
311.20 6
311.30 5.993
311.40 5.985
311.50 5.978
311.60 5.971
311.70 5.964
311.80 5.956
311.90 5.949
312.00 5.942
312.10 5.935
312.20 5.928
312.30 5.92
312.40 5.913
312.50 5.906
312.60 5.899
312.70 5.892
312.80 5.885
312.90 5.877
313.00 5.87
313.10 5.863
313.20 5.856
313.30 5.849
313.40 5.842
313.50 5.835
313.60 5.828
313.70 5.821
313.80 5.814
313.90 5.807
314.00 5.8
314.10 5.793
314.20 5.786
314.30 5.779
314.40 5.772
314.50 5.765
314.60 5.758
314.70 5.751
314.80 5.744
314.90 5.737
315.00 5.73
315.10 5.723
315.20 5.717
315.30 5.71
315.40 5.703
315.50 5.696
315.60 5.689
315.70 5.682
315.80 5.676
315.90 5.669
316.00 5.662
316.10 5.655
316.20 5.648
316.30 5.642
316.40 5.635
316.50 5.628
316.60 5.621
316.70 5.615
316.80 5.608
316.90 5.601
317.00 5.595
317.10 5.588
317.20 5.581
317.30 5.575
317.40 5.568
317.50 5.561
317.60 5.555
317.70 5.548
317.80 5.541
317.90 5.535
318.00 5.528
318.10 5.522
318.20 5.515
318.30 5.508
318.40 5.502
318.50 5.495
318.60 5.489
318.70 5.482
318.80 5.476
318.90 5.469
319.00 5.463
319.10 5.456
319.20 5.45
319.30 5.443
319.40 5.437
319.50 5.43
319.60 5.424
319.70 5.418
319.80 5.411
319.90 5.405
320.00 5.398
320.10 5.392
320.20 5.386
320.30 5.379
320.40 5.373
320.50 5.366
320.60 5.36
320.70 5.354
320.80 5.347
320.90 5.341
321.00 5.335
321.10 5.329
321.20 5.322
321.30 5.316
321.40 5.31
321.50 5.303
321.60 5.297
321.70 5.291
321.80 5.285
321.90 5.279
322.00 5.272
322.10 5.266
322.20 5.26
322.30 5.254
322.40 5.248
322.50 5.241
322.60 5.235
322.70 5.229
322.80 5.223
322.90 5.217
323.00 5.211
323.10 5.205
323.20 5.198
323.30 5.192
323.40 5.186
323.50 5.18
323.60 5.174
323.70 5.168
323.80 5.162
323.90 5.156
324.00 5.15
324.10 5.144
324.20 5.138
324.30 5.132
324.40 5.126
324.50 5.12
324.60 5.114
324.70 5.108
324.80 5.102
324.90 5.096
325.00 5.09
325.10 5.084
325.20 5.078
325.30 5.072
325.40 5.066
325.50 5.06
325.60 5.055
325.70 5.049
325.80 5.043
325.90 5.037
326.00 5.031
326.10 5.025
326.20 5.019
326.30 5.014
326.40 5.008
326.50 5.002
326.60 4.996
326.70 4.99
326.80 4.984
326.90 4.979
327.00 4.973
327.10 4.967
327.20 4.961
327.30 4.956
327.40 4.95
327.50 4.944
327.60 4.938
327.70 4.933
327.80 4.927
327.90 4.921
328.00 4.916
328.10 4.91
328.20 4.904
328.30 4.899
328.40 4.893
328.50 4.887
328.60 4.882
328.70 4.876
328.80 4.87
328.90 4.865
329.00 4.859
329.10 4.854
329.20 4.848
329.30 4.842
329.40 4.837
329.50 4.831
329.60 4.826
329.70 4.82
329.80 4.815
329.90 4.809
330.00 4.804
330.10 4.798
330.20 4.793
330.30 4.787
330.40 4.782
330.50 4.776
330.60 4.771
330.70 4.765
330.80 4.76
330.90 4.754
331.00 4.749
331.10 4.743
331.20 4.738
331.30 4.732
331.40 4.727
331.50 4.722
331.60 4.716
331.70 4.711
331.80 4.705
331.90 4.7
332.00 4.695
332.10 4.689
332.20 4.684
332.30 4.679
332.40 4.673
332.50 4.668
332.60 4.663
332.70 4.657
332.80 4.652
332.90 4.647
333.00 4.641
333.10 4.636
333.20 4.631
333.30 4.626
333.40 4.62
333.50 4.615
333.60 4.61
333.70 4.604
333.80 4.599
333.90 4.594
334.00 4.589
334.10 4.584
334.20 4.578
334.30 4.573
334.40 4.568
334.50 4.563
334.60 4.558
334.70 4.552
334.80 4.547
334.90 4.542
335.00 4.537
335.10 4.532
335.20 4.527
335.30 4.522
335.40 4.516
335.50 4.511
335.60 4.506
335.70 4.501
335.80 4.496
335.90 4.491
336.00 4.486
336.10 4.481
336.20 4.476
336.30 4.471
336.40 4.466
336.50 4.461
336.60 4.456
336.70 4.451
336.80 4.446
336.90 4.441
337.00 4.436
337.10 4.431
337.20 4.426
337.30 4.421
337.40 4.416
337.50 4.411
337.60 4.406
337.70 4.401
337.80 4.396
337.90 4.391
338.00 4.386
338.10 4.381
338.20 4.376
338.30 4.371
338.40 4.366
338.50 4.361
338.60 4.356
338.70 4.352
338.80 4.347
338.90 4.342
339.00 4.337
339.10 4.332
339.20 4.327
339.30 4.322
339.40 4.318
339.50 4.313
339.60 4.308
339.70 4.303
339.80 4.298
339.90 4.293
340.00 4.289
340.10 4.284
340.20 4.279
340.30 4.274
340.40 4.27
340.50 4.265
340.60 4.26
340.70 4.255
340.80 4.251
340.90 4.246
341.00 4.241
341.10 4.236
341.20 4.232
341.30 4.227
341.40 4.222
341.50 4.218
341.60 4.213
341.70 4.208
341.80 4.203
341.90 4.199
342.00 4.194
342.10 4.189
342.20 4.185
342.30 4.18
342.40 4.176
342.50 4.171
342.60 4.166
342.70 4.162
342.80 4.157
342.90 4.152
343.00 4.148
343.10 4.143
343.20 4.139
343.30 4.134
343.40 4.129
343.50 4.125
343.60 4.12
343.70 4.116
343.80 4.111
343.90 4.107
344.00 4.102
344.10 4.098
344.20 4.093
344.30 4.089
344.40 4.084
344.50 4.08
344.60 4.075
344.70 4.071
344.80 4.066
344.90 4.062
345.00 4.057
345.10 4.053
345.20 4.048
345.30 4.044
345.40 4.039
345.50 4.035
345.60 4.03
345.70 4.026
345.80 4.022
345.90 4.017
346.00 4.013
346.10 4.008
346.20 4.004
346.30 3.999
346.40 3.995
346.50 3.991
346.60 3.986
346.70 3.982
346.80 3.978
346.90 3.973
347.00 3.969
347.10 3.965
347.20 3.96
347.30 3.956
347.40 3.952
347.50 3.947
347.60 3.943
347.70 3.939
347.80 3.934
347.90 3.93
348.00 3.926
348.10 3.921
348.20 3.917
348.30 3.913
348.40 3.909
348.50 3.904
348.60 3.9
348.70 3.896
348.80 3.892
348.90 3.887
349.00 3.883
349.10 3.879
349.20 3.875
349.30 3.87
349.40 3.866
349.50 3.862
349.60 3.858
349.70 3.854
349.80 3.849
349.90 3.845
350.00 3.841
350.10 3.837
350.20 3.833
350.30 3.829
350.40 3.824
350.50 3.82
350.60 3.816
350.70 3.812
350.80 3.808
350.90 3.804
351.00 3.8
351.10 3.795
351.20 3.791
351.30 3.787
351.40 3.783
351.50 3.779
351.60 3.775
351.70 3.771
351.80 3.767
351.90 3.763
352.00 3.759
352.10 3.755
352.20 3.751
352.30 3.746
352.40 3.742
352.50 3.738
352.60 3.734
352.70 3.73
352.80 3.726
352.90 3.722
353.00 3.718
353.10 3.714
353.20 3.71
353.30 3.706
353.40 3.702
353.50 3.698
353.60 3.694
353.70 3.69
353.80 3.686
353.90 3.682
354.00 3.678
354.10 3.674
354.20 3.671
354.30 3.667
354.40 3.663
354.50 3.659
354.60 3.655
354.70 3.651
354.80 3.647
354.90 3.643
355.00 3.639
355.10 3.635
355.20 3.631
355.30 3.628
355.40 3.624
355.50 3.62
355.60 3.616
355.70 3.612
355.80 3.608
355.90 3.604
356.00 3.6
356.10 3.597
356.20 3.593
356.30 3.589
356.40 3.585
356.50 3.581
356.60 3.577
356.70 3.574
356.80 3.57
356.90 3.566
357.00 3.562
357.10 3.558
357.20 3.555
357.30 3.551
357.40 3.547
357.50 3.543
357.60 3.539
357.70 3.536
357.80 3.532
357.90 3.528
358.00 3.524
358.10 3.521
358.20 3.517
358.30 3.513
358.40 3.509
358.50 3.506
358.60 3.502
358.70 3.498
358.80 3.495
358.90 3.491
359.00 3.487
359.10 3.484
359.20 3.48
359.30 3.476
359.40 3.472
359.50 3.469
359.60 3.465
359.70 3.461
359.80 3.458
359.90 3.454
360.00 3.45
360.10 3.447
360.20 3.443
360.30 3.44
360.40 3.436
360.50 3.432
360.60 3.429
360.70 3.425
360.80 3.421
360.90 3.418
361.00 3.414
361.10 3.411
361.20 3.407
361.30 3.403
361.40 3.4
361.50 3.396
361.60 3.393
361.70 3.389
361.80 3.385
361.90 3.382
362.00 3.378
362.10 3.375
362.20 3.371
362.30 3.368
362.40 3.364
362.50 3.361
362.60 3.357
362.70 3.354
362.80 3.35
362.90 3.347
363.00 3.343
363.10 3.34
363.20 3.336
363.30 3.333
363.40 3.329
363.50 3.326
363.60 3.322
363.70 3.319
363.80 3.315
363.90 3.312
364.00 3.308
364.10 3.305
364.20 3.301
364.30 3.298
364.40 3.294
364.50 3.291
364.60 3.287
364.70 3.284
364.80 3.281
364.90 3.277
365.00 3.274
365.10 3.27
365.20 3.267
365.30 3.264
365.40 3.26
365.50 3.257
365.60 3.253
365.70 3.25
365.80 3.247
365.90 3.243
366.00 3.24
366.10 3.236
366.20 3.233
366.30 3.23
366.40 3.226
366.50 3.223
366.60 3.219
366.70 3.216
366.80 3.213
366.90 3.209
367.00 3.206
367.10 3.203
367.20 3.199
367.30 3.196
367.40 3.192
367.50 3.189
367.60 3.186
367.70 3.182
367.80 3.179
367.90 3.176
368.00 3.172
368.10 3.169
368.20 3.166
368.30 3.162
368.40 3.159
368.50 3.156
368.60 3.152
368.70 3.149
368.80 3.146
368.90 3.143
369.00 3.139
369.10 3.136
369.20 3.133
369.30 3.129
369.40 3.126
369.50 3.123
369.60 3.12
369.70 3.116
369.80 3.113
369.90 3.11
370.00 3.106
370.10 3.103
370.20 3.1
370.30 3.097
370.40 3.094
370.50 3.09
370.60 3.087
370.70 3.084
370.80 3.081
370.90 3.077
371.00 3.074
371.10 3.071
371.20 3.068
371.30 3.065
371.40 3.062
371.50 3.058
371.60 3.055
371.70 3.052
371.80 3.049
371.90 3.046
372.00 3.042
372.10 3.039
372.20 3.036
372.30 3.033
372.40 3.03
372.50 3.027
372.60 3.024
372.70 3.021
372.80 3.017
372.90 3.014
373.00 3.011
373.10 3.008
373.20 3.005
373.30 3.002
373.40 2.999
373.50 2.996
373.60 2.993
373.70 2.99
373.80 2.987
373.90 2.984
374.00 2.98
374.10 2.977
374.20 2.974
374.30 2.971
374.40 2.968
374.50 2.965
374.60 2.962
374.70 2.959
374.80 2.956
374.90 2.953
375.00 2.95
375.10 2.948
375.20 2.945
375.30 2.942
375.40 2.939
375.50 2.936
375.60 2.933
375.70 2.93
375.80 2.927
375.90 2.924
376.00 2.921
376.10 2.918
376.20 2.915
376.30 2.912
376.40 2.909
376.50 2.906
376.60 2.903
376.70 2.9
376.80 2.897
376.90 2.894
377.00 2.891
377.10 2.889
377.20 2.886
377.30 2.883
377.40 2.88
377.50 2.878
377.60 2.875
377.70 2.872
377.80 2.869
377.90 2.867
378.00 2.864
378.10 2.861
378.20 2.858
378.30 2.855
378.40 2.852
378.50 2.849
378.60 2.847
378.70 2.844
378.80 2.841
378.90 2.838
379.00 2.835
379.10 2.832
379.20 2.829
379.30 2.826
379.40 2.824
379.50 2.821
379.60 2.818
379.70 2.815
379.80 2.812
379.90 2.809
380.00 2.807
380.10 2.804
380.20 2.802
380.30 2.799
380.40 2.797
380.50 2.795
380.60 2.792
380.70 2.79
380.80 2.787
380.90 2.785
381.00 2.783
381.10 2.78
381.20 2.777
381.30 2.775
381.40 2.772
381.50 2.769
381.60 2.767
381.70 2.764
381.80 2.761
381.90 2.758
382.00 2.755
382.10 2.752
382.20 2.749
382.30 2.745
382.40 2.742
382.50 2.738
382.60 2.735
382.70 2.731
382.80 2.728
382.90 2.725
383.00 2.721
383.10 2.718
383.20 2.714
383.30 2.711
383.40 2.708
383.50 2.705
383.60 2.702
383.70 2.701
383.80 2.699
383.90 2.697
384.00 2.696
384.10 2.695
384.20 2.693
384.30 2.692
384.40 2.69
384.50 2.689
384.60 2.687
384.70 2.685
384.80 2.684
384.90 2.682
385.00 2.68
385.10 2.678
385.20 2.676
385.30 2.674
385.40 2.671
385.50 2.669
385.60 2.667
385.70 2.664
385.80 2.662
385.90 2.659
386.00 2.657
386.10 2.654
386.20 2.651
386.30 2.648
386.40 2.645
386.50 2.642
386.60 2.639
386.70 2.635
386.80 2.632
386.90 2.629
387.00 2.625
387.10 2.621
387.20 2.618
387.30 2.614
387.40 2.61
387.50 2.606
387.60 2.601
387.70 2.597
387.80 2.593
387.90 2.588
388.00 2.583
388.10 2.579
388.20 2.574
388.30 2.569
388.40 2.564
388.50 2.559
388.60 2.554
388.70 2.55
388.80 2.546
388.90 2.544
389.00 2.542
389.10 2.54
389.20 2.54
389.30 2.54
389.40 2.54
389.50 2.541
389.60 2.541
389.70 2.541
389.80 2.541
389.90 2.541
390.00 2.541
390.10 2.541
390.20 2.541
390.30 2.54
390.40 2.54
390.50 2.539
390.60 2.538
390.70 2.538
390.80 2.537
390.90 2.536
391.00 2.535
391.10 2.533
391.20 2.532
391.30 2.531
391.40 2.529
391.50 2.528
391.60 2.526
391.70 2.525
391.80 2.523
391.90 2.521
392.00 2.519
392.10 2.517
392.20 2.515
392.30 2.513
392.40 2.511
392.50 2.509
392.60 2.506
392.70 2.504
392.80 2.502
392.90 2.499
393.00 2.496
393.10 2.494
393.20 2.491
393.30 2.488
393.40 2.486
393.50 2.483
393.60 2.48
393.70 2.477
393.80 2.473
393.90 2.47
394.00 2.467
394.10 2.463
394.20 2.46
394.30 2.456
394.40 2.452
394.50 2.448
394.60 2.444
394.70 2.44
394.80 2.436
394.90 2.432
395.00 2.427
395.10 2.422
395.20 2.417
395.30 2.412
395.40 2.407
395.50 2.402
395.60 2.396
395.70 2.39
395.80 2.384
395.90 2.378
396.00 2.371
396.10 2.364
396.20 2.357
396.30 2.35
396.40 2.343
396.50 2.335
396.60 2.327
396.70 2.319
396.80 2.311
396.90 2.303
397.00 2.295
397.10 2.298
397.20 2.301
397.30 2.305
397.40 2.309
397.50 2.313
397.60 2.316
397.70 2.319
397.80 2.322
397.90 2.325
398.00 2.327
398.10 2.329
398.20 2.331
398.30 2.333
398.40 2.334
398.50 2.335
398.60 2.336
398.70 2.337
398.80 2.338
398.90 2.338
399.00 2.339
399.10 2.339
399.20 2.339
399.30 2.339
399.40 2.339
399.50 2.338
399.60 2.338
399.70 2.337
399.80 2.336
399.90 2.335
400.00 2.335
400.10 2.334
400.20 2.333
400.30 2.331
400.40 2.33
400.50 2.329
400.60 2.328
400.70 2.326
400.80 2.325
400.90 2.323
401.00 2.322
401.10 2.32
401.20 2.318
401.30 2.317
401.40 2.315
401.50 2.313
401.60 2.312
401.70 2.31
401.80 2.308
401.90 2.306
402.00 2.304
402.10 2.302
402.20 2.3
402.30 2.299
402.40 2.297
402.50 2.295
402.60 2.293
402.70 2.291
402.80 2.289
402.90 2.286
403.00 2.284
403.10 2.282
403.20 2.28
403.30 2.278
403.40 2.276
403.50 2.274
403.60 2.272
403.70 2.27
403.80 2.267
403.90 2.265
404.00 2.263
404.10 2.261
404.20 2.258
404.30 2.256
404.40 2.254
404.50 2.252
404.60 2.249
404.70 2.247
404.80 2.245
404.90 2.242
405.00 2.24
405.10 2.237
405.20 2.235
405.30 2.232
405.40 2.23
405.50 2.227
405.60 2.225
405.70 2.222
405.80 2.22
405.90 2.217
406.00 2.214
406.10 2.211
406.20 2.209
406.30 2.206
406.40 2.203
406.50 2.2
406.60 2.197
406.70 2.194
406.80 2.19
406.90 2.187
407.00 2.184
407.10 2.18
407.20 2.177
407.30 2.173
407.40 2.169
407.50 2.165
407.60 2.161
407.70 2.157
407.80 2.152
407.90 2.148
408.00 2.143
408.10 2.138
408.20 2.133
408.30 2.127
408.40 2.122
408.50 2.116
408.60 2.109
408.70 2.103
408.80 2.096
408.90 2.089
409.00 2.081
409.10 2.073
409.20 2.065
409.30 2.056
409.40 2.046
409.50 2.036
409.60 2.026
409.70 2.015
409.80 2.003
409.90 1.991
410.00 1.98
410.10 1.975
410.20 1.975
410.30 1.974
410.40 1.977
410.50 1.985
410.60 1.994
410.70 2.001
410.80 2.009
410.90 2.015
411.00 2.021
411.10 2.026
411.20 2.031
411.30 2.035
411.40 2.039
411.50 2.043
411.60 2.046
411.70 2.049
411.80 2.051
411.90 2.053
412.00 2.055
412.10 2.057
412.20 2.058
412.30 2.059
412.40 2.06
412.50 2.061
412.60 2.061
412.70 2.061
412.80 2.061
412.90 2.062
413.00 2.061
413.10 2.061
413.20 2.061
413.30 2.06
413.40 2.06
413.50 2.059
413.60 2.058
413.70 2.057
413.80 2.056
413.90 2.055
414.00 2.054
414.10 2.053
414.20 2.052
414.30 2.051
414.40 2.05
414.50 2.048
414.60 2.047
414.70 2.046
414.80 2.044
414.90 2.043
415.00 2.041
415.10 2.04
415.20 2.038
415.30 2.037
415.40 2.035
415.50 2.034
415.60 2.032
415.70 2.031
415.80 2.029
415.90 2.027
416.00 2.026
416.10 2.024
416.20 2.022
416.30 2.021
416.40 2.019
416.50 2.017
416.60 2.016
416.70 2.014
416.80 2.012
416.90 2.011
417.00 2.009
417.10 2.007
417.20 2.006
417.30 2.004
417.40 2.002
417.50 2
417.60 1.999
417.70 1.997
417.80 1.995
417.90 1.993
418.00 1.992
418.10 1.99
418.20 1.988
418.30 1.986
418.40 1.985
418.50 1.983
418.60 1.981
418.70 1.979
418.80 1.978
418.90 1.976
419.00 1.974
419.10 1.972
419.20 1.971
419.30 1.969
419.40 1.967
419.50 1.965
419.60 1.963
419.70 1.962
419.80 1.96
419.90 1.958
420.00 1.956
420.10 1.955
420.20 1.953
420.30 1.951
420.40 1.949
420.50 1.948
420.60 1.946
420.70 1.944
420.80 1.942
420.90 1.941
421.00 1.939
421.10 1.937
421.20 1.935
421.30 1.934
421.40 1.932
421.50 1.93
421.60 1.928
421.70 1.927
421.80 1.925
421.90 1.923
422.00 1.921
422.10 1.92
422.20 1.918
422.30 1.916
422.40 1.914
422.50 1.913
422.60 1.911
422.70 1.909
422.80 1.907
422.90 1.906
423.00 1.904
423.10 1.902
423.20 1.9
423.30 1.899
423.40 1.897
423.50 1.895
423.60 1.893
423.70 1.892
423.80 1.89
423.90 1.888
424.00 1.886
424.10 1.885
424.20 1.883
424.30 1.881
424.40 1.88
424.50 1.878
424.60 1.876
424.70 1.874
424.80 1.873
424.90 1.871
425.00 1.869
425.10 1.867
425.20 1.866
425.30 1.864
425.40 1.862
425.50 1.86
425.60 1.859
425.70 1.857
425.80 1.855
425.90 1.853
426.00 1.852
426.10 1.85
426.20 1.848
426.30 1.847
426.40 1.845
426.50 1.843
426.60 1.841
426.70 1.84
426.80 1.838
426.90 1.836
427.00 1.834
427.10 1.832
427.20 1.831
427.30 1.829
427.40 1.827
427.50 1.825
427.60 1.824
427.70 1.822
427.80 1.82
427.90 1.818
428.00 1.816
428.10 1.815
428.20 1.813
428.30 1.811
428.40 1.809
428.50 1.807
428.60 1.805
428.70 1.803
428.80 1.802
428.90 1.8
429.00 1.798
429.10 1.796
429.20 1.794
429.30 1.792
429.40 1.79
429.50 1.788
429.60 1.786
429.70 1.784
429.80 1.781
429.90 1.779
430.00 1.777
430.10 1.775
430.20 1.773
430.30 1.77
430.40 1.768
430.50 1.765
430.60 1.763
430.70 1.76
430.80 1.758
430.90 1.755
431.00 1.752
431.10 1.749
431.20 1.746
431.30 1.743
431.40 1.74
431.50 1.736
431.60 1.733
431.70 1.729
431.80 1.725
431.90 1.721
432.00 1.716
432.10 1.712
432.20 1.707
432.30 1.702
432.40 1.696
432.50 1.69
432.60 1.684
432.70 1.677
432.80 1.67
432.90 1.663
433.00 1.655
433.10 1.646
433.20 1.637
433.30 1.628
433.40 1.617
433.50 1.606
433.60 1.594
433.70 1.581
433.80 1.566
433.90 1.549
434.00 1.534
434.10 1.533
434.20 1.547
434.30 1.56
434.40 1.572
434.50 1.583
434.60 1.592
434.70 1.6
434.80 1.608
434.90 1.614
435.00 1.62
435.10 1.626
435.20 1.631
435.30 1.635
435.40 1.639
435.50 1.643
435.60 1.646
435.70 1.649
435.80 1.651
435.90 1.653
436.00 1.655
436.10 1.656
436.20 1.658
436.30 1.659
436.40 1.66
436.50 1.66
436.60 1.661
436.70 1.661
436.80 1.661
436.90 1.661
437.00 1.661
437.10 1.661
437.20 1.661
437.30 1.66
437.40 1.66
437.50 1.66
437.60 1.659
437.70 1.658
437.80 1.658
437.90 1.657
438.00 1.656
438.10 1.655
438.20 1.654
438.30 1.653
438.40 1.652
438.50 1.651
438.60 1.65
438.70 1.649
438.80 1.648
438.90 1.647
439.00 1.646
439.10 1.645
439.20 1.643
439.30 1.642
439.40 1.641
439.50 1.64
439.60 1.639
439.70 1.637
439.80 1.636
439.90 1.635
440.00 1.634
440.10 1.632
440.20 1.631
440.30 1.63
440.40 1.629
440.50 1.627
440.60 1.626
440.70 1.625
440.80 1.623
440.90 1.622
441.00 1.621
441.10 1.619
441.20 1.618
441.30 1.617
441.40 1.616
441.50 1.614
441.60 1.613
441.70 1.612
441.80 1.61
441.90 1.609
442.00 1.608
442.10 1.606
442.20 1.605
442.30 1.603
442.40 1.602
442.50 1.601
442.60 1.599
442.70 1.598
442.80 1.597
442.90 1.595
443.00 1.594
443.10 1.593
443.20 1.591
443.30 1.59
443.40 1.589
443.50 1.587
443.60 1.586
443.70 1.585
443.80 1.583
443.90 1.582
444.00 1.581
444.10 1.579
444.20 1.578
444.30 1.577
444.40 1.575
444.50 1.574
444.60 1.573
444.70 1.571
444.80 1.57
444.90 1.569
445.00 1.567
445.10 1.566
445.20 1.565
445.30 1.563
445.40 1.562
445.50 1.561
445.60 1.559
445.70 1.558
445.80 1.557
445.90 1.555
446.00 1.554
446.10 1.553
446.20 1.551
446.30 1.55
446.40 1.549
446.50 1.547
446.60 1.546
446.70 1.545
446.80 1.543
446.90 1.542
447.00 1.541
447.10 1.539
447.20 1.538
447.30 1.537
447.40 1.535
447.50 1.534
447.60 1.533
447.70 1.531
447.80 1.53
447.90 1.529
448.00 1.528
448.10 1.526
448.20 1.525
448.30 1.524
448.40 1.522
448.50 1.521
448.60 1.52
448.70 1.518
448.80 1.517
448.90 1.516
449.00 1.515
449.10 1.513
449.20 1.512
449.30 1.511
449.40 1.509
449.50 1.508
449.60 1.507
449.70 1.506
449.80 1.504
449.90 1.503
450.00 1.502
450.10 1.5
450.20 1.499
450.30 1.498
450.40 1.497
450.50 1.495
450.60 1.494
450.70 1.493
450.80 1.491
450.90 1.49
451.00 1.489
451.10 1.488
451.20 1.486
451.30 1.485
451.40 1.484
451.50 1.483
451.60 1.481
451.70 1.48
451.80 1.479
451.90 1.478
452.00 1.476
452.10 1.475
452.20 1.474
452.30 1.473
452.40 1.471
452.50 1.47
452.60 1.469
452.70 1.468
452.80 1.466
452.90 1.465
453.00 1.464
453.10 1.463
453.20 1.461
453.30 1.46
453.40 1.459
453.50 1.458
453.60 1.456
453.70 1.455
453.80 1.454
453.90 1.453
454.00 1.451
454.10 1.45
