# Version 2.1 - nm, norm@500 to 1, cut digits, bergeron_4250_95.dat_4250
# Wavelength(nm)  Flambda(ergs/cm^s/s/nm)
300.00 0.2562
300.10 0.2566
300.20 0.257
300.30 0.2574
300.40 0.2578
300.50 0.2582
300.60 0.2586
300.70 0.259
300.80 0.2594
300.90 0.2598
301.00 0.2601
301.10 0.2605
301.20 0.2609
301.30 0.2613
301.40 0.2617
301.50 0.2621
301.60 0.2625
301.70 0.2629
301.80 0.2633
301.90 0.2637
302.00 0.2641
302.10 0.2645
302.20 0.2649
302.30 0.2653
302.40 0.2657
302.50 0.2661
302.60 0.2665
302.70 0.2669
302.80 0.2672
302.90 0.2676
303.00 0.268
303.10 0.2684
303.20 0.2688
303.30 0.2692
303.40 0.2696
303.50 0.27
303.60 0.2704
303.70 0.2708
303.80 0.2712
303.90 0.2716
304.00 0.272
304.10 0.2724
304.20 0.2728
304.30 0.2732
304.40 0.2736
304.50 0.274
304.60 0.2744
304.70 0.2748
304.80 0.2752
304.90 0.2756
305.00 0.276
305.10 0.2764
305.20 0.2768
305.30 0.2772
305.40 0.2776
305.50 0.278
305.60 0.2784
305.70 0.2788
305.80 0.2792
305.90 0.2796
306.00 0.28
306.10 0.2804
306.20 0.2808
306.30 0.2812
306.40 0.2816
306.50 0.282
306.60 0.2825
306.70 0.2829
306.80 0.2833
306.90 0.2837
307.00 0.2841
307.10 0.2845
307.20 0.2849
307.30 0.2853
307.40 0.2857
307.50 0.2861
307.60 0.2865
307.70 0.2869
307.80 0.2873
307.90 0.2877
308.00 0.2881
308.10 0.2885
308.20 0.2889
308.30 0.2893
308.40 0.2897
308.50 0.2901
308.60 0.2906
308.70 0.291
308.80 0.2914
308.90 0.2918
309.00 0.2922
309.10 0.2926
309.20 0.293
309.30 0.2934
309.40 0.2938
309.50 0.2942
309.60 0.2946
309.70 0.295
309.80 0.2954
309.90 0.2958
310.00 0.2963
310.10 0.2967
310.20 0.2971
310.30 0.2975
310.40 0.2979
310.50 0.2983
310.60 0.2987
310.70 0.2992
310.80 0.2996
310.90 0.3
311.00 0.3004
311.10 0.3008
311.20 0.3012
311.30 0.3016
311.40 0.302
311.50 0.3025
311.60 0.3029
311.70 0.3033
311.80 0.3037
311.90 0.3041
312.00 0.3045
312.10 0.3049
312.20 0.3053
312.30 0.3057
312.40 0.3061
312.50 0.3066
312.60 0.307
312.70 0.3074
312.80 0.3078
312.90 0.3082
313.00 0.3086
313.10 0.3091
313.20 0.3095
313.30 0.3099
313.40 0.3103
313.50 0.3107
313.60 0.3111
313.70 0.3115
313.80 0.312
313.90 0.3124
314.00 0.3128
314.10 0.3132
314.20 0.3136
314.30 0.314
314.40 0.3145
314.50 0.3149
314.60 0.3153
314.70 0.3157
314.80 0.3162
314.90 0.3166
315.00 0.317
315.10 0.3174
315.20 0.3178
315.30 0.3182
315.40 0.3187
315.50 0.3191
315.60 0.3195
315.70 0.3199
315.80 0.3203
315.90 0.3207
316.00 0.3212
316.10 0.3216
316.20 0.322
316.30 0.3224
316.40 0.3228
316.50 0.3233
316.60 0.3237
316.70 0.3241
316.80 0.3245
316.90 0.325
317.00 0.3254
317.10 0.3258
317.20 0.3262
317.30 0.3266
317.40 0.3271
317.50 0.3275
317.60 0.3279
317.70 0.3283
317.80 0.3287
317.90 0.3292
318.00 0.3296
318.10 0.33
318.20 0.3304
318.30 0.3309
318.40 0.3313
318.50 0.3317
318.60 0.3321
318.70 0.3326
318.80 0.333
318.90 0.3334
319.00 0.3338
319.10 0.3343
319.20 0.3347
319.30 0.3351
319.40 0.3355
319.50 0.336
319.60 0.3364
319.70 0.3368
319.80 0.3372
319.90 0.3376
320.00 0.3381
320.10 0.3385
320.20 0.3389
320.30 0.3393
320.40 0.3398
320.50 0.3402
320.60 0.3406
320.70 0.3411
320.80 0.3415
320.90 0.3419
321.00 0.3423
321.10 0.3428
321.20 0.3432
321.30 0.3436
321.40 0.344
321.50 0.3445
321.60 0.3449
321.70 0.3453
321.80 0.3457
321.90 0.3462
322.00 0.3466
322.10 0.347
322.20 0.3475
322.30 0.3479
322.40 0.3483
322.50 0.3487
322.60 0.3492
322.70 0.3496
322.80 0.35
322.90 0.3505
323.00 0.3509
323.10 0.3513
323.20 0.3518
323.30 0.3522
323.40 0.3526
323.50 0.353
323.60 0.3535
323.70 0.3539
323.80 0.3543
323.90 0.3547
324.00 0.3552
324.10 0.3556
324.20 0.356
324.30 0.3565
324.40 0.3569
324.50 0.3573
324.60 0.3578
324.70 0.3582
324.80 0.3586
324.90 0.3591
325.00 0.3595
325.10 0.3599
325.20 0.3604
325.30 0.3608
325.40 0.3612
325.50 0.3617
325.60 0.3621
325.70 0.3625
325.80 0.3629
325.90 0.3634
326.00 0.3638
326.10 0.3642
326.20 0.3647
326.30 0.3651
326.40 0.3656
326.50 0.366
326.60 0.3664
326.70 0.3669
326.80 0.3673
326.90 0.3677
327.00 0.3682
327.10 0.3686
327.20 0.369
327.30 0.3695
327.40 0.3699
327.50 0.3703
327.60 0.3708
327.70 0.3712
327.80 0.3716
327.90 0.3721
328.00 0.3725
328.10 0.3729
328.20 0.3734
328.30 0.3738
328.40 0.3742
328.50 0.3747
328.60 0.3751
328.70 0.3756
328.80 0.376
328.90 0.3764
329.00 0.3769
329.10 0.3773
329.20 0.3777
329.30 0.3782
329.40 0.3786
329.50 0.379
329.60 0.3795
329.70 0.3799
329.80 0.3803
329.90 0.3807
330.00 0.3812
330.10 0.3816
330.20 0.3821
330.30 0.3825
330.40 0.3829
330.50 0.3834
330.60 0.3838
330.70 0.3843
330.80 0.3847
330.90 0.3851
331.00 0.3856
331.10 0.386
331.20 0.3865
331.30 0.3869
331.40 0.3873
331.50 0.3878
331.60 0.3882
331.70 0.3886
331.80 0.3891
331.90 0.3895
332.00 0.3899
332.10 0.3904
332.20 0.3908
332.30 0.3913
332.40 0.3917
332.50 0.3921
332.60 0.3926
332.70 0.393
332.80 0.3935
332.90 0.3939
333.00 0.3943
333.10 0.3948
333.20 0.3952
333.30 0.3957
333.40 0.3961
333.50 0.3965
333.60 0.397
333.70 0.3974
333.80 0.3978
333.90 0.3983
334.00 0.3987
334.10 0.3992
334.20 0.3996
334.30 0.4
334.40 0.4005
334.50 0.4009
334.60 0.4014
334.70 0.4018
334.80 0.4023
334.90 0.4027
335.00 0.4031
335.10 0.4036
335.20 0.404
335.30 0.4045
335.40 0.4049
335.50 0.4053
335.60 0.4058
335.70 0.4062
335.80 0.4066
335.90 0.4071
336.00 0.4075
336.10 0.408
336.20 0.4084
336.30 0.4089
336.40 0.4093
336.50 0.4097
336.60 0.4102
336.70 0.4106
336.80 0.4111
336.90 0.4115
337.00 0.412
337.10 0.4124
337.20 0.4128
337.30 0.4133
337.40 0.4137
337.50 0.4142
337.60 0.4146
337.70 0.415
337.80 0.4155
337.90 0.4159
338.00 0.4164
338.10 0.4168
338.20 0.4173
338.30 0.4177
338.40 0.4181
338.50 0.4186
338.60 0.419
338.70 0.4195
338.80 0.4199
338.90 0.4204
339.00 0.4208
339.10 0.4213
339.20 0.4217
339.30 0.4221
339.40 0.4226
339.50 0.423
339.60 0.4235
339.70 0.4239
339.80 0.4243
339.90 0.4248
340.00 0.4252
340.10 0.4257
340.20 0.4261
340.30 0.4266
340.40 0.427
340.50 0.4275
340.60 0.4279
340.70 0.4283
340.80 0.4288
340.90 0.4292
341.00 0.4297
341.10 0.4301
341.20 0.4306
341.30 0.431
341.40 0.4314
341.50 0.4319
341.60 0.4323
341.70 0.4328
341.80 0.4332
341.90 0.4336
342.00 0.4341
342.10 0.4345
342.20 0.435
342.30 0.4354
342.40 0.4359
342.50 0.4363
342.60 0.4368
342.70 0.4372
342.80 0.4377
342.90 0.4381
343.00 0.4386
343.10 0.439
343.20 0.4395
343.30 0.4399
343.40 0.4403
343.50 0.4408
343.60 0.4412
343.70 0.4417
343.80 0.4421
343.90 0.4425
344.00 0.443
344.10 0.4434
344.20 0.4439
344.30 0.4443
344.40 0.4448
344.50 0.4452
344.60 0.4457
344.70 0.4461
344.80 0.4466
344.90 0.447
345.00 0.4475
345.10 0.4479
345.20 0.4484
345.30 0.4488
345.40 0.4492
345.50 0.4497
345.60 0.4501
345.70 0.4506
345.80 0.451
345.90 0.4514
346.00 0.4519
346.10 0.4523
346.20 0.4528
346.30 0.4532
346.40 0.4537
346.50 0.4541
346.60 0.4546
346.70 0.455
346.80 0.4555
346.90 0.4559
347.00 0.4564
347.10 0.4568
347.20 0.4573
347.30 0.4577
347.40 0.4582
347.50 0.4586
347.60 0.459
347.70 0.4595
347.80 0.4599
347.90 0.4604
348.00 0.4608
348.10 0.4613
348.20 0.4617
348.30 0.4622
348.40 0.4626
348.50 0.4631
348.60 0.4635
348.70 0.464
348.80 0.4644
348.90 0.4648
349.00 0.4653
349.10 0.4657
349.20 0.4662
349.30 0.4666
349.40 0.4671
349.50 0.4675
349.60 0.468
349.70 0.4684
349.80 0.4688
349.90 0.4693
350.00 0.4697
350.10 0.4702
350.20 0.4706
350.30 0.4711
350.40 0.4715
350.50 0.472
350.60 0.4724
350.70 0.4729
350.80 0.4733
350.90 0.4738
351.00 0.4742
351.10 0.4747
351.20 0.4751
351.30 0.4755
351.40 0.476
351.50 0.4764
351.60 0.4769
351.70 0.4773
351.80 0.4778
351.90 0.4782
352.00 0.4786
352.10 0.4791
352.20 0.4795
352.30 0.48
352.40 0.4804
352.50 0.4809
352.60 0.4813
352.70 0.4818
352.80 0.4822
352.90 0.4827
353.00 0.4831
353.10 0.4836
353.20 0.484
353.30 0.4845
353.40 0.4849
353.50 0.4854
353.60 0.4858
353.70 0.4862
353.80 0.4867
353.90 0.4871
354.00 0.4876
354.10 0.488
354.20 0.4885
354.30 0.4889
354.40 0.4894
354.50 0.4898
354.60 0.4903
354.70 0.4907
354.80 0.4912
354.90 0.4916
355.00 0.4921
355.10 0.4925
355.20 0.493
355.30 0.4934
355.40 0.4938
355.50 0.4943
355.60 0.4947
355.70 0.4952
355.80 0.4956
355.90 0.4961
356.00 0.4965
356.10 0.4969
356.20 0.4974
356.30 0.4978
356.40 0.4983
356.50 0.4987
356.60 0.4992
356.70 0.4996
356.80 0.5001
356.90 0.5005
357.00 0.501
357.10 0.5014
357.20 0.5019
357.30 0.5023
357.40 0.5028
357.50 0.5032
357.60 0.5036
357.70 0.5041
357.80 0.5045
357.90 0.505
358.00 0.5054
358.10 0.5059
358.20 0.5063
358.30 0.5068
358.40 0.5072
358.50 0.5077
358.60 0.5081
358.70 0.5086
358.80 0.509
358.90 0.5094
359.00 0.5099
359.10 0.5103
359.20 0.5108
359.30 0.5112
359.40 0.5117
359.50 0.5121
359.60 0.5125
359.70 0.513
359.80 0.5134
359.90 0.5139
360.00 0.5143
360.10 0.5148
360.20 0.5152
360.30 0.5157
360.40 0.5161
360.50 0.5166
360.60 0.517
360.70 0.5174
360.80 0.5179
360.90 0.5183
361.00 0.5188
361.10 0.5192
361.20 0.5197
361.30 0.5201
361.40 0.5206
361.50 0.521
361.60 0.5214
361.70 0.5219
361.80 0.5223
361.90 0.5228
362.00 0.5232
362.10 0.5236
362.20 0.5241
362.30 0.5245
362.40 0.525
362.50 0.5254
362.60 0.5259
362.70 0.5263
362.80 0.5268
362.90 0.5272
363.00 0.5276
363.10 0.5281
363.20 0.5285
363.30 0.529
363.40 0.5294
363.50 0.5299
363.60 0.5303
363.70 0.5308
363.80 0.5312
363.90 0.5317
364.00 0.5321
364.10 0.5325
364.20 0.533
364.30 0.5334
364.40 0.5339
364.50 0.5343
364.60 0.5347
364.70 0.5352
364.80 0.5356
364.90 0.5361
365.00 0.5365
365.10 0.537
365.20 0.5374
365.30 0.5379
365.40 0.5383
365.50 0.5387
365.60 0.5392
365.70 0.5396
365.80 0.5401
365.90 0.5405
366.00 0.541
366.10 0.5414
366.20 0.5418
366.30 0.5423
366.40 0.5427
366.50 0.5432
366.60 0.5436
366.70 0.5441
366.80 0.5445
366.90 0.545
367.00 0.5454
367.10 0.5458
367.20 0.5463
367.30 0.5467
367.40 0.5472
367.50 0.5476
367.60 0.548
367.70 0.5485
367.80 0.5489
367.90 0.5494
368.00 0.5498
368.10 0.5502
368.20 0.5507
368.30 0.5511
368.40 0.5516
368.50 0.552
368.60 0.5525
368.70 0.5529
368.80 0.5534
368.90 0.5538
369.00 0.5542
369.10 0.5547
369.20 0.5551
369.30 0.5556
369.40 0.556
369.50 0.5564
369.60 0.5569
369.70 0.5573
369.80 0.5578
369.90 0.5582
370.00 0.5586
370.10 0.5591
370.20 0.5595
370.30 0.56
370.40 0.5604
370.50 0.5608
370.60 0.5613
370.70 0.5617
370.80 0.5622
370.90 0.5626
371.00 0.5631
371.10 0.5635
371.20 0.5639
371.30 0.5644
371.40 0.5648
371.50 0.5652
371.60 0.5657
371.70 0.5661
371.80 0.5666
371.90 0.567
372.00 0.5674
372.10 0.5679
372.20 0.5683
372.30 0.5688
372.40 0.5692
372.50 0.5696
372.60 0.5701
372.70 0.5705
372.80 0.571
372.90 0.5714
373.00 0.5718
373.10 0.5723
373.20 0.5727
373.30 0.5731
373.40 0.5736
373.50 0.574
373.60 0.5745
373.70 0.5749
373.80 0.5753
373.90 0.5758
374.00 0.5762
374.10 0.5766
374.20 0.5771
374.30 0.5775
374.40 0.578
374.50 0.5784
374.60 0.5788
374.70 0.5793
374.80 0.5797
374.90 0.5801
375.00 0.5806
375.10 0.581
375.20 0.5815
375.30 0.5819
375.40 0.5823
375.50 0.5828
375.60 0.5832
375.70 0.5836
375.80 0.5841
375.90 0.5845
376.00 0.5849
376.10 0.5854
376.20 0.5858
376.30 0.5862
376.40 0.5867
376.50 0.5871
376.60 0.5875
376.70 0.588
376.80 0.5884
376.90 0.5888
377.00 0.5893
377.10 0.5897
377.20 0.5902
377.30 0.5906
377.40 0.591
377.50 0.5915
377.60 0.5919
377.70 0.5923
377.80 0.5928
377.90 0.5932
378.00 0.5936
378.10 0.5941
378.20 0.5945
378.30 0.5949
378.40 0.5954
378.50 0.5958
378.60 0.5962
378.70 0.5967
378.80 0.5971
378.90 0.5975
379.00 0.598
379.10 0.5984
379.20 0.5988
379.30 0.5993
379.40 0.5997
379.50 0.6001
379.60 0.6006
379.70 0.601
379.80 0.6014
379.90 0.6019
380.00 0.6023
380.10 0.6027
380.20 0.6032
380.30 0.6036
380.40 0.604
380.50 0.6045
380.60 0.6049
380.70 0.6053
380.80 0.6058
380.90 0.6062
381.00 0.6066
381.10 0.607
381.20 0.6075
381.30 0.6079
381.40 0.6083
381.50 0.6088
381.60 0.6092
381.70 0.6096
381.80 0.6101
381.90 0.6105
382.00 0.6109
382.10 0.6114
382.20 0.6118
382.30 0.6122
382.40 0.6127
382.50 0.6131
382.60 0.6135
382.70 0.6139
382.80 0.6144
382.90 0.6148
383.00 0.6152
383.10 0.6157
383.20 0.6161
383.30 0.6165
383.40 0.6169
383.50 0.6174
383.60 0.6178
383.70 0.6182
383.80 0.6187
383.90 0.6191
384.00 0.6195
384.10 0.62
384.20 0.6204
384.30 0.6208
384.40 0.6212
384.50 0.6217
384.60 0.6221
384.70 0.6225
384.80 0.623
384.90 0.6234
385.00 0.6238
385.10 0.6242
385.20 0.6247
385.30 0.6251
385.40 0.6255
385.50 0.6259
385.60 0.6264
385.70 0.6268
385.80 0.6272
385.90 0.6276
386.00 0.6281
386.10 0.6285
386.20 0.6289
386.30 0.6294
386.40 0.6298
386.50 0.6302
386.60 0.6306
386.70 0.6311
386.80 0.6315
386.90 0.6319
387.00 0.6323
387.10 0.6328
387.20 0.6332
387.30 0.6336
387.40 0.634
387.50 0.6345
387.60 0.6349
387.70 0.6353
387.80 0.6357
387.90 0.6362
388.00 0.6366
388.10 0.637
388.20 0.6374
388.30 0.6378
388.40 0.6383
388.50 0.6387
388.60 0.6391
388.70 0.6395
388.80 0.64
388.90 0.6404
389.00 0.6408
389.10 0.6412
389.20 0.6417
389.30 0.6421
389.40 0.6425
389.50 0.6429
389.60 0.6434
389.70 0.6438
389.80 0.6442
389.90 0.6446
390.00 0.645
390.10 0.6455
390.20 0.6459
390.30 0.6463
390.40 0.6467
390.50 0.6471
390.60 0.6476
390.70 0.648
390.80 0.6484
390.90 0.6488
391.00 0.6492
391.10 0.6497
391.20 0.6501
391.30 0.6505
391.40 0.6509
391.50 0.6513
391.60 0.6518
391.70 0.6522
391.80 0.6526
391.90 0.653
392.00 0.6534
392.10 0.6539
392.20 0.6543
392.30 0.6547
392.40 0.6551
392.50 0.6555
392.60 0.656
392.70 0.6564
392.80 0.6568
392.90 0.6572
393.00 0.6576
393.10 0.658
393.20 0.6585
393.30 0.6589
393.40 0.6593
393.50 0.6597
393.60 0.6601
393.70 0.6606
393.80 0.661
393.90 0.6614
394.00 0.6618
394.10 0.6622
394.20 0.6626
394.30 0.6631
394.40 0.6635
394.50 0.6639
394.60 0.6643
394.70 0.6647
394.80 0.6651
394.90 0.6656
395.00 0.666
395.10 0.6664
395.20 0.6668
395.30 0.6672
395.40 0.6676
395.50 0.668
395.60 0.6685
395.70 0.6689
395.80 0.6693
395.90 0.6697
396.00 0.6701
396.10 0.6705
396.20 0.6709
396.30 0.6714
396.40 0.6718
396.50 0.6722
396.60 0.6726
396.70 0.673
396.80 0.6734
396.90 0.6738
397.00 0.6742
397.10 0.6747
397.20 0.6751
397.30 0.6755
397.40 0.6759
397.50 0.6763
397.60 0.6767
397.70 0.6771
397.80 0.6775
397.90 0.678
398.00 0.6784
398.10 0.6788
398.20 0.6792
398.30 0.6796
398.40 0.68
398.50 0.6804
398.60 0.6808
398.70 0.6812
398.80 0.6817
398.90 0.6821
399.00 0.6825
399.10 0.6829
399.20 0.6833
399.30 0.6837
399.40 0.6841
399.50 0.6845
399.60 0.6849
399.70 0.6853
399.80 0.6857
399.90 0.6862
400.00 0.6866
400.10 0.687
400.20 0.6874
400.30 0.6878
400.40 0.6882
400.50 0.6886
400.60 0.689
400.70 0.6894
400.80 0.6898
400.90 0.6902
401.00 0.6906
401.10 0.691
401.20 0.6915
401.30 0.6919
401.40 0.6923
401.50 0.6927
401.60 0.6931
401.70 0.6935
401.80 0.6939
401.90 0.6943
402.00 0.6947
402.10 0.6951
402.20 0.6955
402.30 0.6959
402.40 0.6963
402.50 0.6967
402.60 0.6971
402.70 0.6975
402.80 0.6979
402.90 0.6983
403.00 0.6988
403.10 0.6992
403.20 0.6996
403.30 0.7
403.40 0.7004
403.50 0.7008
403.60 0.7012
403.70 0.7016
403.80 0.702
403.90 0.7024
404.00 0.7028
404.10 0.7032
404.20 0.7036
404.30 0.704
404.40 0.7044
404.50 0.7048
404.60 0.7052
404.70 0.7056
404.80 0.706
404.90 0.7064
405.00 0.7068
405.10 0.7072
405.20 0.7076
405.30 0.708
405.40 0.7084
405.50 0.7088
405.60 0.7092
405.70 0.7096
405.80 0.71
405.90 0.7104
406.00 0.7108
406.10 0.7112
406.20 0.7116
406.30 0.712
406.40 0.7124
406.50 0.7128
406.60 0.7132
406.70 0.7136
406.80 0.714
406.90 0.7144
407.00 0.7148
407.10 0.7152
407.20 0.7156
407.30 0.716
407.40 0.7164
407.50 0.7168
407.60 0.7172
407.70 0.7176
407.80 0.718
407.90 0.7184
408.00 0.7188
408.10 0.7191
408.20 0.7195
408.30 0.7199
408.40 0.7203
408.50 0.7207
408.60 0.7211
408.70 0.7215
408.80 0.7219
408.90 0.7223
409.00 0.7227
409.10 0.7231
409.20 0.7235
409.30 0.7239
409.40 0.7243
409.50 0.7247
409.60 0.7251
409.70 0.7255
409.80 0.7259
409.90 0.7263
410.00 0.7266
410.10 0.727
410.20 0.7274
410.30 0.7278
410.40 0.7282
410.50 0.7286
410.60 0.729
410.70 0.7294
410.80 0.7298
410.90 0.7302
411.00 0.7306
411.10 0.731
411.20 0.7313
411.30 0.7317
411.40 0.7321
411.50 0.7325
411.60 0.7329
411.70 0.7333
411.80 0.7337
411.90 0.7341
412.00 0.7345
412.10 0.7349
412.20 0.7352
412.30 0.7356
412.40 0.736
412.50 0.7364
412.60 0.7368
412.70 0.7372
412.80 0.7376
412.90 0.738
413.00 0.7383
413.10 0.7387
413.20 0.7391
413.30 0.7395
413.40 0.7399
413.50 0.7403
413.60 0.7407
413.70 0.7411
413.80 0.7414
413.90 0.7418
414.00 0.7422
414.10 0.7426
414.20 0.743
414.30 0.7434
414.40 0.7438
414.50 0.7441
414.60 0.7445
414.70 0.7449
414.80 0.7453
414.90 0.7457
415.00 0.7461
415.10 0.7465
415.20 0.7468
415.30 0.7472
415.40 0.7476
415.50 0.748
415.60 0.7484
415.70 0.7488
415.80 0.7491
415.90 0.7495
416.00 0.7499
416.10 0.7503
416.20 0.7507
416.30 0.7511
416.40 0.7514
416.50 0.7518
416.60 0.7522
416.70 0.7526
416.80 0.753
416.90 0.7533
417.00 0.7537
417.10 0.7541
417.20 0.7545
417.30 0.7549
417.40 0.7553
417.50 0.7556
417.60 0.756
417.70 0.7564
417.80 0.7568
417.90 0.7571
418.00 0.7575
418.10 0.7579
418.20 0.7583
418.30 0.7587
418.40 0.759
418.50 0.7594
418.60 0.7598
418.70 0.7602
418.80 0.7606
418.90 0.7609
419.00 0.7613
419.10 0.7617
419.20 0.7621
419.30 0.7624
419.40 0.7628
419.50 0.7632
419.60 0.7636
419.70 0.764
419.80 0.7643
419.90 0.7647
420.00 0.7651
420.10 0.7655
420.20 0.7658
420.30 0.7662
420.40 0.7666
420.50 0.7669
420.60 0.7673
420.70 0.7677
420.80 0.7681
420.90 0.7684
421.00 0.7688
421.10 0.7692
421.20 0.7696
421.30 0.7699
421.40 0.7703
421.50 0.7707
421.60 0.7711
421.70 0.7714
421.80 0.7718
421.90 0.7722
422.00 0.7725
422.10 0.7729
422.20 0.7733
422.30 0.7737
422.40 0.774
422.50 0.7744
422.60 0.7748
422.70 0.7751
422.80 0.7755
422.90 0.7759
423.00 0.7763
423.10 0.7766
423.20 0.777
423.30 0.7774
423.40 0.7777
423.50 0.7781
423.60 0.7785
423.70 0.7788
423.80 0.7792
423.90 0.7796
424.00 0.7799
424.10 0.7803
424.20 0.7807
424.30 0.7811
424.40 0.7814
424.50 0.7818
424.60 0.7822
424.70 0.7825
424.80 0.7829
424.90 0.7833
425.00 0.7836
425.10 0.784
425.20 0.7844
425.30 0.7847
425.40 0.7851
425.50 0.7855
425.60 0.7858
425.70 0.7862
425.80 0.7865
425.90 0.7869
426.00 0.7873
426.10 0.7876
426.20 0.788
426.30 0.7884
426.40 0.7887
426.50 0.7891
426.60 0.7895
426.70 0.7898
426.80 0.7902
426.90 0.7905
427.00 0.7909
427.10 0.7913
427.20 0.7916
427.30 0.792
427.40 0.7924
427.50 0.7927
427.60 0.7931
427.70 0.7934
427.80 0.7938
427.90 0.7942
428.00 0.7945
428.10 0.7949
428.20 0.7952
428.30 0.7956
428.40 0.796
428.50 0.7963
428.60 0.7967
428.70 0.797
428.80 0.7974
428.90 0.7978
429.00 0.7981
429.10 0.7985
429.20 0.7988
429.30 0.7992
429.40 0.7996
429.50 0.7999
429.60 0.8003
429.70 0.8006
429.80 0.801
429.90 0.8013
430.00 0.8017
430.10 0.8021
430.20 0.8024
430.30 0.8028
430.40 0.8031
430.50 0.8035
430.60 0.8038
430.70 0.8042
430.80 0.8045
430.90 0.8049
431.00 0.8053
431.10 0.8056
431.20 0.806
431.30 0.8063
431.40 0.8067
431.50 0.807
431.60 0.8074
431.70 0.8077
431.80 0.8081
431.90 0.8084
432.00 0.8088
432.10 0.8092
432.20 0.8095
432.30 0.8099
432.40 0.8102
432.50 0.8106
432.60 0.8109
432.70 0.8113
432.80 0.8116
432.90 0.812
433.00 0.8123
433.10 0.8127
433.20 0.813
433.30 0.8134
433.40 0.8137
433.50 0.8141
433.60 0.8144
433.70 0.8148
433.80 0.8151
433.90 0.8155
434.00 0.8158
434.10 0.8162
434.20 0.8165
434.30 0.8169
434.40 0.8172
434.50 0.8176
434.60 0.8179
434.70 0.8183
434.80 0.8186
434.90 0.8189
435.00 0.8193
435.10 0.8196
435.20 0.82
435.30 0.8203
435.40 0.8207
435.50 0.821
435.60 0.8214
435.70 0.8217
435.80 0.8221
435.90 0.8224
436.00 0.8228
436.10 0.8231
436.20 0.8234
436.30 0.8238
436.40 0.8241
436.50 0.8245
436.60 0.8248
436.70 0.8252
436.80 0.8255
436.90 0.8259
437.00 0.8262
437.10 0.8265
437.20 0.8269
437.30 0.8272
437.40 0.8276
437.50 0.8279
437.60 0.8282
437.70 0.8286
437.80 0.8289
437.90 0.8293
438.00 0.8296
438.10 0.83
438.20 0.8303
438.30 0.8306
438.40 0.831
438.50 0.8313
438.60 0.8317
438.70 0.832
438.80 0.8323
438.90 0.8327
439.00 0.833
439.10 0.8333
439.20 0.8337
439.30 0.834
439.40 0.8344
439.50 0.8347
439.60 0.835
439.70 0.8354
439.80 0.8357
439.90 0.836
440.00 0.8364
440.10 0.8367
440.20 0.8371
440.30 0.8374
440.40 0.8377
440.50 0.8381
440.60 0.8384
440.70 0.8387
440.80 0.8391
440.90 0.8394
441.00 0.8397
441.10 0.8401
441.20 0.8404
441.30 0.8408
441.40 0.8411
441.50 0.8414
441.60 0.8418
441.70 0.8421
441.80 0.8424
441.90 0.8428
442.00 0.8431
442.10 0.8434
442.20 0.8438
442.30 0.8441
442.40 0.8444
442.50 0.8447
442.60 0.8451
442.70 0.8454
442.80 0.8457
442.90 0.8461
443.00 0.8464
443.10 0.8467
