# Version 2.1 - nm, norm@500 to 1, cut digits, bergeron_11000_80.dat_11000
# Wavelength(nm)  Flambda(ergs/cm^s/s/nm)
300.00 1.75
300.10 1.749
300.20 1.748
300.30 1.747
300.40 1.747
300.50 1.746
300.60 1.745
300.70 1.744
300.80 1.743
300.90 1.742
301.00 1.741
301.10 1.74
301.20 1.739
301.30 1.738
301.40 1.737
301.50 1.737
301.60 1.736
301.70 1.735
301.80 1.734
301.90 1.733
302.00 1.732
302.10 1.731
302.20 1.73
302.30 1.729
302.40 1.728
302.50 1.727
302.60 1.727
302.70 1.726
302.80 1.725
302.90 1.724
303.00 1.723
303.10 1.722
303.20 1.721
303.30 1.72
303.40 1.719
303.50 1.718
303.60 1.718
303.70 1.717
303.80 1.716
303.90 1.715
304.00 1.714
304.10 1.713
304.20 1.712
304.30 1.711
304.40 1.71
304.50 1.71
304.60 1.709
304.70 1.708
304.80 1.707
304.90 1.706
305.00 1.705
305.10 1.704
305.20 1.703
305.30 1.702
305.40 1.701
305.50 1.701
305.60 1.7
305.70 1.699
305.80 1.698
305.90 1.697
306.00 1.696
306.10 1.695
306.20 1.694
306.30 1.693
306.40 1.693
306.50 1.692
306.60 1.691
306.70 1.69
306.80 1.689
306.90 1.688
307.00 1.687
307.10 1.686
307.20 1.685
307.30 1.685
307.40 1.684
307.50 1.683
307.60 1.682
307.70 1.681
307.80 1.68
307.90 1.679
308.00 1.678
308.10 1.678
308.20 1.677
308.30 1.676
308.40 1.675
308.50 1.674
308.60 1.673
308.70 1.672
308.80 1.671
308.90 1.67
309.00 1.67
309.10 1.669
309.20 1.668
309.30 1.667
309.40 1.666
309.50 1.665
309.60 1.664
309.70 1.663
309.80 1.663
309.90 1.662
310.00 1.661
310.10 1.66
310.20 1.659
310.30 1.658
310.40 1.657
310.50 1.656
310.60 1.656
310.70 1.655
310.80 1.654
310.90 1.653
311.00 1.652
311.10 1.651
311.20 1.65
311.30 1.649
311.40 1.649
311.50 1.648
311.60 1.647
311.70 1.646
311.80 1.645
311.90 1.644
312.00 1.643
312.10 1.643
312.20 1.642
312.30 1.641
312.40 1.64
312.50 1.639
312.60 1.638
312.70 1.637
312.80 1.636
312.90 1.636
313.00 1.635
313.10 1.634
313.20 1.633
313.30 1.632
313.40 1.631
313.50 1.63
313.60 1.63
313.70 1.629
313.80 1.628
313.90 1.627
314.00 1.626
314.10 1.625
314.20 1.624
314.30 1.624
314.40 1.623
314.50 1.622
314.60 1.621
314.70 1.62
314.80 1.619
314.90 1.618
315.00 1.618
315.10 1.617
315.20 1.616
315.30 1.615
315.40 1.614
315.50 1.613
315.60 1.612
315.70 1.612
315.80 1.611
315.90 1.61
316.00 1.609
316.10 1.608
316.20 1.607
316.30 1.606
316.40 1.606
316.50 1.605
316.60 1.604
316.70 1.603
316.80 1.602
316.90 1.601
317.00 1.601
317.10 1.6
317.20 1.599
317.30 1.598
317.40 1.597
317.50 1.596
317.60 1.595
317.70 1.595
317.80 1.594
317.90 1.593
318.00 1.592
318.10 1.591
318.20 1.59
318.30 1.59
318.40 1.589
318.50 1.588
318.60 1.587
318.70 1.586
318.80 1.585
318.90 1.584
319.00 1.584
319.10 1.583
319.20 1.582
319.30 1.581
319.40 1.58
319.50 1.579
319.60 1.579
319.70 1.578
319.80 1.577
319.90 1.576
320.00 1.575
320.10 1.574
320.20 1.574
320.30 1.573
320.40 1.572
320.50 1.571
320.60 1.57
320.70 1.569
320.80 1.569
320.90 1.568
321.00 1.567
321.10 1.566
321.20 1.565
321.30 1.564
321.40 1.564
321.50 1.563
321.60 1.562
321.70 1.561
321.80 1.56
321.90 1.559
322.00 1.559
322.10 1.558
322.20 1.557
322.30 1.556
322.40 1.555
322.50 1.554
322.60 1.554
322.70 1.553
322.80 1.552
322.90 1.551
323.00 1.55
323.10 1.55
323.20 1.549
323.30 1.548
323.40 1.547
323.50 1.546
323.60 1.545
323.70 1.545
323.80 1.544
323.90 1.543
324.00 1.542
324.10 1.541
324.20 1.541
324.30 1.54
324.40 1.539
324.50 1.538
324.60 1.537
324.70 1.536
324.80 1.536
324.90 1.535
325.00 1.534
325.10 1.533
325.20 1.532
325.30 1.532
325.40 1.531
325.50 1.53
325.60 1.529
325.70 1.528
325.80 1.527
325.90 1.527
326.00 1.526
326.10 1.525
326.20 1.524
326.30 1.523
326.40 1.523
326.50 1.522
326.60 1.521
326.70 1.52
326.80 1.519
326.90 1.519
327.00 1.518
327.10 1.517
327.20 1.516
327.30 1.515
327.40 1.514
327.50 1.514
327.60 1.513
327.70 1.512
327.80 1.511
327.90 1.51
328.00 1.51
328.10 1.509
328.20 1.508
328.30 1.507
328.40 1.506
328.50 1.506
328.60 1.505
328.70 1.504
328.80 1.503
328.90 1.502
329.00 1.502
329.10 1.501
329.20 1.5
329.30 1.499
329.40 1.498
329.50 1.498
329.60 1.497
329.70 1.496
329.80 1.495
329.90 1.494
330.00 1.494
330.10 1.493
330.20 1.492
330.30 1.491
330.40 1.49
330.50 1.49
330.60 1.489
330.70 1.488
330.80 1.487
330.90 1.487
331.00 1.486
331.10 1.485
331.20 1.484
331.30 1.483
331.40 1.483
331.50 1.482
331.60 1.481
331.70 1.48
331.80 1.479
331.90 1.479
332.00 1.478
332.10 1.477
332.20 1.476
332.30 1.475
332.40 1.475
332.50 1.474
332.60 1.473
332.70 1.472
332.80 1.472
332.90 1.471
333.00 1.47
333.10 1.469
333.20 1.468
333.30 1.468
333.40 1.467
333.50 1.466
333.60 1.465
333.70 1.464
333.80 1.464
333.90 1.463
334.00 1.462
334.10 1.461
334.20 1.461
334.30 1.46
334.40 1.459
334.50 1.458
334.60 1.457
334.70 1.457
334.80 1.456
334.90 1.455
335.00 1.454
335.10 1.454
335.20 1.453
335.30 1.452
335.40 1.451
335.50 1.45
335.60 1.45
335.70 1.449
335.80 1.448
335.90 1.447
336.00 1.447
336.10 1.446
336.20 1.445
336.30 1.444
336.40 1.444
336.50 1.443
336.60 1.442
336.70 1.441
336.80 1.44
336.90 1.44
337.00 1.439
337.10 1.438
337.20 1.437
337.30 1.437
337.40 1.436
337.50 1.435
337.60 1.434
337.70 1.434
337.80 1.433
337.90 1.432
338.00 1.431
338.10 1.431
338.20 1.43
338.30 1.429
338.40 1.428
338.50 1.427
338.60 1.427
338.70 1.426
338.80 1.425
338.90 1.424
339.00 1.424
339.10 1.423
339.20 1.422
339.30 1.421
339.40 1.421
339.50 1.42
339.60 1.419
339.70 1.418
339.80 1.418
339.90 1.417
340.00 1.416
340.10 1.415
340.20 1.415
340.30 1.414
340.40 1.413
340.50 1.412
340.60 1.412
340.70 1.411
340.80 1.41
340.90 1.409
341.00 1.409
341.10 1.408
341.20 1.407
341.30 1.406
341.40 1.406
341.50 1.405
341.60 1.404
341.70 1.403
341.80 1.403
341.90 1.402
342.00 1.401
342.10 1.4
342.20 1.4
342.30 1.399
342.40 1.398
342.50 1.397
342.60 1.397
342.70 1.396
342.80 1.395
342.90 1.394
343.00 1.394
343.10 1.393
343.20 1.392
343.30 1.391
343.40 1.391
343.50 1.39
343.60 1.389
343.70 1.388
343.80 1.388
343.90 1.387
344.00 1.386
344.10 1.385
344.20 1.385
344.30 1.384
344.40 1.383
344.50 1.382
344.60 1.382
344.70 1.381
344.80 1.38
344.90 1.38
345.00 1.379
345.10 1.378
345.20 1.377
345.30 1.377
345.40 1.376
345.50 1.375
345.60 1.374
345.70 1.374
345.80 1.373
345.90 1.372
346.00 1.371
346.10 1.371
346.20 1.37
346.30 1.369
346.40 1.369
346.50 1.368
346.60 1.367
346.70 1.366
346.80 1.366
346.90 1.365
347.00 1.364
347.10 1.363
347.20 1.363
347.30 1.362
347.40 1.361
347.50 1.361
347.60 1.36
347.70 1.359
347.80 1.358
347.90 1.358
348.00 1.357
348.10 1.356
348.20 1.355
348.30 1.355
348.40 1.354
348.50 1.353
348.60 1.353
348.70 1.352
348.80 1.351
348.90 1.35
349.00 1.35
349.10 1.349
349.20 1.348
349.30 1.348
349.40 1.347
349.50 1.346
349.60 1.345
349.70 1.345
349.80 1.344
349.90 1.343
350.00 1.343
350.10 1.342
350.20 1.341
350.30 1.34
350.40 1.34
350.50 1.339
350.60 1.338
350.70 1.338
350.80 1.337
350.90 1.336
351.00 1.335
351.10 1.335
351.20 1.334
351.30 1.333
351.40 1.333
351.50 1.332
351.60 1.331
351.70 1.33
351.80 1.33
351.90 1.329
352.00 1.328
352.10 1.328
352.20 1.327
352.30 1.326
352.40 1.325
352.50 1.325
352.60 1.324
352.70 1.323
352.80 1.323
352.90 1.322
353.00 1.321
353.10 1.32
353.20 1.32
353.30 1.319
353.40 1.318
353.50 1.318
353.60 1.317
353.70 1.316
353.80 1.316
353.90 1.315
354.00 1.314
354.10 1.313
354.20 1.313
354.30 1.312
354.40 1.311
354.50 1.311
354.60 1.31
354.70 1.309
354.80 1.309
354.90 1.308
355.00 1.307
355.10 1.306
355.20 1.306
355.30 1.305
355.40 1.304
355.50 1.304
355.60 1.303
355.70 1.302
355.80 1.302
355.90 1.301
356.00 1.3
356.10 1.3
356.20 1.299
356.30 1.298
356.40 1.297
356.50 1.297
356.60 1.296
356.70 1.295
356.80 1.295
356.90 1.294
357.00 1.293
357.10 1.293
357.20 1.292
357.30 1.291
357.40 1.291
357.50 1.29
357.60 1.289
357.70 1.289
357.80 1.288
357.90 1.287
358.00 1.287
358.10 1.286
358.20 1.285
358.30 1.284
358.40 1.284
358.50 1.283
358.60 1.282
358.70 1.282
358.80 1.281
358.90 1.28
359.00 1.28
359.10 1.279
359.20 1.278
359.30 1.278
359.40 1.277
359.50 1.276
359.60 1.276
359.70 1.275
359.80 1.274
359.90 1.274
360.00 1.273
360.10 1.272
360.20 1.272
360.30 1.271
360.40 1.27
360.50 1.269
360.60 1.269
360.70 1.268
360.80 1.267
360.90 1.267
361.00 1.266
361.10 1.265
361.20 1.265
361.30 1.264
361.40 1.263
361.50 1.263
361.60 1.262
361.70 1.261
361.80 1.261
361.90 1.26
362.00 1.259
362.10 1.259
362.20 1.258
362.30 1.257
362.40 1.257
362.50 1.256
362.60 1.255
362.70 1.255
362.80 1.254
362.90 1.253
363.00 1.253
363.10 1.252
363.20 1.251
363.30 1.251
363.40 1.25
363.50 1.249
363.60 1.248
363.70 1.248
363.80 1.247
363.90 1.246
364.00 1.245
364.10 1.245
364.20 1.244
364.30 1.243
364.40 1.242
364.50 1.242
364.60 1.241
364.70 1.24
364.80 1.239
364.90 1.239
365.00 1.238
365.10 1.237
365.20 1.236
365.30 1.236
365.40 1.235
365.50 1.234
365.60 1.233
365.70 1.232
365.80 1.232
365.90 1.231
366.00 1.23
366.10 1.23
366.20 1.229
366.30 1.228
366.40 1.228
366.50 1.227
366.60 1.226
366.70 1.226
366.80 1.225
366.90 1.224
367.00 1.224
367.10 1.223
367.20 1.222
367.30 1.221
367.40 1.221
367.50 1.22
367.60 1.219
367.70 1.219
367.80 1.218
367.90 1.217
368.00 1.217
368.10 1.216
368.20 1.216
368.30 1.216
368.40 1.215
368.50 1.215
368.60 1.214
368.70 1.214
368.80 1.213
368.90 1.213
369.00 1.212
369.10 1.212
369.20 1.212
369.30 1.211
369.40 1.211
369.50 1.21
369.60 1.21
369.70 1.209
369.80 1.209
369.90 1.209
370.00 1.208
370.10 1.208
370.20 1.209
370.30 1.209
370.40 1.209
370.50 1.21
370.60 1.21
370.70 1.21
370.80 1.211
370.90 1.211
371.00 1.211
371.10 1.211
371.20 1.212
371.30 1.212
371.40 1.212
371.50 1.213
371.60 1.213
371.70 1.213
371.80 1.213
371.90 1.214
372.00 1.214
372.10 1.215
372.20 1.216
372.30 1.218
372.40 1.219
372.50 1.22
372.60 1.221
372.70 1.222
372.80 1.224
372.90 1.225
373.00 1.226
373.10 1.227
373.20 1.228
373.30 1.229
373.40 1.231
373.50 1.232
373.60 1.233
373.70 1.234
373.80 1.235
373.90 1.237
374.00 1.238
374.10 1.239
374.20 1.241
374.30 1.242
374.40 1.244
374.50 1.245
374.60 1.247
374.70 1.248
374.80 1.25
374.90 1.251
375.00 1.253
375.10 1.254
375.20 1.256
375.30 1.257
375.40 1.259
375.50 1.26
375.60 1.262
375.70 1.263
375.80 1.264
375.90 1.266
376.00 1.267
376.10 1.268
376.20 1.269
376.30 1.27
376.40 1.27
376.50 1.271
376.60 1.272
376.70 1.273
376.80 1.273
376.90 1.274
377.00 1.275
377.10 1.274
377.20 1.273
377.30 1.271
377.40 1.27
377.50 1.269
377.60 1.268
377.70 1.267
377.80 1.266
377.90 1.264
378.00 1.263
378.10 1.256
378.20 1.248
378.30 1.241
378.40 1.233
378.50 1.226
378.60 1.218
378.70 1.211
378.80 1.204
378.90 1.196
379.00 1.189
379.10 1.183
379.20 1.177
379.30 1.171
379.40 1.165
379.50 1.159
379.60 1.153
379.70 1.147
379.80 1.141
379.90 1.135
380.00 1.129
380.10 1.138
380.20 1.148
380.30 1.158
380.40 1.167
380.50 1.177
380.60 1.186
380.70 1.196
380.80 1.206
380.90 1.215
381.00 1.225
381.10 1.228
381.20 1.231
381.30 1.234
381.40 1.238
381.50 1.241
381.60 1.24
381.70 1.239
381.80 1.236
381.90 1.232
382.00 1.227
382.10 1.22
382.20 1.211
382.30 1.193
382.40 1.175
382.50 1.157
382.60 1.139
382.70 1.121
382.80 1.103
382.90 1.086
383.00 1.068
383.10 1.05
383.20 1.032
383.30 1.016
383.40 0.9979
383.50 0.979
383.60 0.9827
383.70 1.003
383.80 1.021
383.90 1.038
384.00 1.057
384.10 1.08
384.20 1.104
384.30 1.128
384.40 1.15
384.50 1.171
384.60 1.189
384.70 1.205
384.80 1.218
384.90 1.23
385.00 1.24
385.10 1.249
385.20 1.256
385.30 1.262
385.40 1.267
385.50 1.271
385.60 1.275
385.70 1.277
385.80 1.278
385.90 1.279
386.00 1.279
386.10 1.278
386.20 1.276
386.30 1.274
386.40 1.27
386.50 1.267
386.60 1.262
386.70 1.256
386.80 1.25
386.90 1.242
387.00 1.233
387.10 1.224
387.20 1.213
387.30 1.201
387.40 1.189
387.50 1.174
387.60 1.158
387.70 1.14
387.80 1.119
387.90 1.096
388.00 1.07
388.10 1.039
388.20 1.007
388.30 0.9716
388.40 0.9341
388.50 0.8992
388.60 0.8669
388.70 0.8396
388.80 0.8149
388.90 0.7926
389.00 0.8131
389.10 0.8369
389.20 0.8641
389.30 0.8961
389.40 0.931
389.50 0.9688
389.60 1.005
389.70 1.039
389.80 1.07
389.90 1.097
390.00 1.122
390.10 1.145
390.20 1.164
390.30 1.182
390.40 1.199
390.50 1.214
390.60 1.228
390.70 1.241
390.80 1.253
390.90 1.264
391.00 1.274
391.10 1.284
391.20 1.293
391.30 1.301
391.40 1.308
391.50 1.315
391.60 1.321
391.70 1.327
391.80 1.332
391.90 1.336
392.00 1.34
392.10 1.343
392.20 1.346
392.30 1.348
392.40 1.35
392.50 1.351
392.60 1.351
392.70 1.351
392.80 1.351
392.90 1.35
393.00 1.348
393.10 1.346
393.20 1.343
393.30 1.34
393.40 1.336
393.50 1.332
393.60 1.327
393.70 1.321
393.80 1.315
393.90 1.308
394.00 1.3
394.10 1.292
394.20 1.283
394.30 1.274
394.40 1.264
394.50 1.253
394.60 1.241
394.70 1.229
394.80 1.216
394.90 1.202
395.00 1.187
395.10 1.171
395.20 1.155
395.30 1.137
395.40 1.119
395.50 1.1
395.60 1.079
395.70 1.057
395.80 1.035
395.90 1.009
396.00 0.9823
396.10 0.9536
396.20 0.9206
396.30 0.885
396.40 0.8469
396.50 0.8043
396.60 0.7623
396.70 0.721
396.80 0.6864
396.90 0.6493
397.00 0.6096
397.10 0.6461
397.20 0.6811
397.30 0.7148
397.40 0.7553
397.50 0.7967
397.60 0.839
397.70 0.8772
397.80 0.9128
397.90 0.9458
398.00 0.9745
398.10 1.002
398.20 1.027
398.30 1.05
398.40 1.071
398.50 1.092
398.60 1.111
398.70 1.13
398.80 1.148
398.90 1.165
399.00 1.181
399.10 1.196
399.20 1.211
399.30 1.225
399.40 1.238
399.50 1.251
399.60 1.263
399.70 1.275
399.80 1.286
399.90 1.296
400.00 1.306
400.10 1.316
400.20 1.325
400.30 1.334
400.40 1.342
400.50 1.35
400.60 1.358
400.70 1.365
400.80 1.371
400.90 1.378
401.00 1.384
401.10 1.39
401.20 1.395
401.30 1.4
401.40 1.405
401.50 1.409
401.60 1.413
401.70 1.417
401.80 1.421
401.90 1.424
402.00 1.427
402.10 1.43
402.20 1.433
402.30 1.435
402.40 1.437
402.50 1.439
402.60 1.441
402.70 1.442
402.80 1.443
402.90 1.444
403.00 1.444
403.10 1.444
403.20 1.445
403.30 1.444
403.40 1.444
403.50 1.443
403.60 1.442
403.70 1.441
403.80 1.44
403.90 1.438
404.00 1.437
404.10 1.435
404.20 1.432
404.30 1.43
404.40 1.427
404.50 1.424
404.60 1.42
404.70 1.417
404.80 1.413
404.90 1.409
405.00 1.404
405.10 1.4
405.20 1.395
405.30 1.39
405.40 1.384
405.50 1.378
405.60 1.372
405.70 1.366
405.80 1.359
405.90 1.352
406.00 1.345
406.10 1.337
406.20 1.329
406.30 1.321
406.40 1.312
406.50 1.303
406.60 1.293
406.70 1.283
406.80 1.273
406.90 1.262
407.00 1.251
407.10 1.239
407.20 1.227
407.30 1.214
407.40 1.201
407.50 1.188
407.60 1.173
407.70 1.158
407.80 1.143
407.90 1.127
408.00 1.11
408.10 1.092
408.20 1.074
408.30 1.055
408.40 1.036
408.50 1.016
408.60 0.9952
408.70 0.974
408.80 0.9517
408.90 0.9289
409.00 0.9054
409.10 0.8804
409.20 0.8543
409.30 0.8272
409.40 0.7973
409.50 0.7657
409.60 0.7325
409.70 0.6962
409.80 0.6599
409.90 0.6236
410.00 0.5867
410.10 0.5514
410.20 0.5176
410.30 0.5654
410.40 0.6068
410.50 0.6416
410.60 0.6781
410.70 0.7137
410.80 0.7486
410.90 0.7799
411.00 0.8096
411.10 0.8377
411.20 0.8632
411.30 0.8878
411.40 0.9114
411.50 0.9335
411.60 0.9551
411.70 0.976
411.80 0.996
411.90 1.015
412.00 1.034
412.10 1.052
412.20 1.07
412.30 1.087
412.40 1.103
412.50 1.118
412.60 1.133
412.70 1.147
412.80 1.161
412.90 1.174
413.00 1.187
413.10 1.199
413.20 1.21
413.30 1.221
413.40 1.232
413.50 1.242
413.60 1.252
413.70 1.262
413.80 1.271
413.90 1.279
414.00 1.288
414.10 1.296
414.20 1.304
414.30 1.311
414.40 1.318
414.50 1.325
414.60 1.332
414.70 1.338
414.80 1.344
414.90 1.35
415.00 1.356
415.10 1.362
415.20 1.367
415.30 1.372
415.40 1.377
415.50 1.382
415.60 1.386
415.70 1.391
415.80 1.395
415.90 1.399
416.00 1.403
416.10 1.407
416.20 1.41
416.30 1.413
416.40 1.417
416.50 1.42
416.60 1.423
416.70 1.425
416.80 1.428
416.90 1.431
417.00 1.433
417.10 1.435
417.20 1.438
417.30 1.44
417.40 1.442
417.50 1.444
417.60 1.446
417.70 1.448
417.80 1.449
417.90 1.451
418.00 1.452
418.10 1.454
418.20 1.455
418.30 1.457
418.40 1.458
418.50 1.459
418.60 1.46
418.70 1.461
418.80 1.462
418.90 1.463
419.00 1.463
419.10 1.464
419.20 1.465
419.30 1.465
419.40 1.466
419.50 1.466
419.60 1.467
419.70 1.467
419.80 1.468
419.90 1.468
420.00 1.468
420.10 1.468
420.20 1.468
420.30 1.468
420.40 1.468
420.50 1.468
420.60 1.468
420.70 1.468
420.80 1.468
420.90 1.467
421.00 1.467
421.10 1.467
421.20 1.466
421.30 1.466
421.40 1.466
421.50 1.465
421.60 1.464
421.70 1.464
421.80 1.463
421.90 1.462
422.00 1.462
422.10 1.461
422.20 1.46
422.30 1.459
422.40 1.458
422.50 1.457
422.60 1.456
422.70 1.455
422.80 1.454
422.90 1.453
423.00 1.452
423.10 1.451
423.20 1.449
423.30 1.448
423.40 1.447
423.50 1.445
423.60 1.444
423.70 1.442
423.80 1.441
423.90 1.439
424.00 1.437
424.10 1.436
424.20 1.434
424.30 1.432
424.40 1.43
424.50 1.428
424.60 1.427
424.70 1.424
424.80 1.422
424.90 1.42
425.00 1.418
425.10 1.416
425.20 1.414
425.30 1.411
425.40 1.409
425.50 1.406
425.60 1.404
425.70 1.401
425.80 1.399
425.90 1.396
426.00 1.393
426.10 1.39
426.20 1.387
426.30 1.383
426.40 1.38
426.50 1.377
426.60 1.374
426.70 1.37
426.80 1.367
426.90 1.363
427.00 1.36
427.10 1.356
427.20 1.352
427.30 1.348
427.40 1.344
427.50 1.34
427.60 1.336
427.70 1.331
427.80 1.327
427.90 1.322
428.00 1.318
428.10 1.313
428.20 1.308
428.30 1.303
428.40 1.297
428.50 1.292
428.60 1.287
428.70 1.281
428.80 1.275
428.90 1.269
429.00 1.263
429.10 1.257
429.20 1.25
429.30 1.243
429.40 1.236
429.50 1.229
429.60 1.222
429.70 1.214
429.80 1.206
429.90 1.198
430.00 1.19
430.10 1.181
430.20 1.173
430.30 1.164
430.40 1.154
430.50 1.145
430.60 1.135
430.70 1.125
430.80 1.114
430.90 1.103
431.00 1.092
431.10 1.081
431.20 1.069
431.30 1.057
431.40 1.045
431.50 1.032
431.60 1.018
431.70 1.005
431.80 0.9903
431.90 0.9752
432.00 0.9596
432.10 0.9434
432.20 0.9261
432.30 0.9082
432.40 0.8895
432.50 0.8692
432.60 0.8481
432.70 0.8262
432.80 0.8032
432.90 0.78
433.00 0.7568
433.10 0.7346
433.20 0.7126
433.30 0.6907
433.40 0.6673
433.50 0.6423
433.60 0.616
433.70 0.5863
433.80 0.5544
433.90 0.5204
434.00 0.4554
434.10 0.4564
434.20 0.5233
434.30 0.5564
434.40 0.5876
434.50 0.6167
434.60 0.6424
434.70 0.6666
434.80 0.6894
434.90 0.7107
435.00 0.732
435.10 0.7536
435.20 0.776
435.30 0.7983
435.40 0.8205
435.50 0.8414
435.60 0.8615
435.70 0.8807
435.80 0.8982
435.90 0.9151
436.00 0.9313
436.10 0.9463
436.20 0.9607
436.30 0.9747
436.40 0.9877
436.50 1
436.60 1.012
436.70 1.024
436.80 1.035
436.90 1.046
437.00 1.056
437.10 1.067
437.20 1.076
437.30 1.086
437.40 1.095
437.50 1.104
437.60 1.112
437.70 1.121
437.80 1.128
437.90 1.136
438.00 1.143
438.10 1.151
438.20 1.157
438.30 1.164
438.40 1.171
438.50 1.177
438.60 1.183
438.70 1.188
438.80 1.194
438.90 1.199
439.00 1.204
439.10 1.209
439.20 1.214
439.30 1.219
439.40 1.223
439.50 1.227
439.60 1.231
439.70 1.235
439.80 1.239
439.90 1.243
440.00 1.246
440.10 1.25
440.20 1.253
440.30 1.256
440.40 1.259
440.50 1.262
440.60 1.265
440.70 1.268
440.80 1.271
440.90 1.273
441.00 1.276
441.10 1.278
441.20 1.28
441.30 1.283
441.40 1.285
441.50 1.287
441.60 1.289
441.70 1.291
441.80 1.293
441.90 1.294
442.00 1.296
442.10 1.298
442.20 1.299
442.30 1.301
442.40 1.302
442.50 1.303
442.60 1.305
442.70 1.306
442.80 1.307
442.90 1.308
443.00 1.309
443.10 1.311
443.20 1.312
443.30 1.312
443.40 1.313
443.50 1.314
443.60 1.315
443.70 1.316
443.80 1.317
443.90 1.318
444.00 1.318
444.10 1.319
444.20 1.32
444.30 1.32
444.40 1.321
444.50 1.321
444.60 1.322
444.70 1.322
444.80 1.323
444.90 1.323
445.00 1.323
445.10 1.324
445.20 1.324
445.30 1.325
445.40 1.325
445.50 1.325
445.60 1.325
445.70 1.326
445.80 1.326
445.90 1.326
446.00 1.326
446.10 1.326
446.20 1.326
446.30 1.326
446.40 1.326
446.50 1.327
446.60 1.327
446.70 1.327
446.80 1.327
446.90 1.327
447.00 1.327
447.10 1.326
447.20 1.326
447.30 1.326
447.40 1.326
447.50 1.326
447.60 1.326
447.70 1.326
447.80 1.326
447.90 1.326
448.00 1.325
448.10 1.325
448.20 1.325
448.30 1.325
448.40 1.325
448.50 1.324
448.60 1.324
448.70 1.324
448.80 1.324
448.90 1.323
449.00 1.323
449.10 1.323
449.20 1.323
449.30 1.322
449.40 1.322
449.50 1.322
449.60 1.321
449.70 1.321
449.80 1.321
449.90 1.32
450.00 1.32
450.10 1.32
450.20 1.319
450.30 1.319
450.40 1.318
450.50 1.318
450.60 1.318
450.70 1.317
450.80 1.317
450.90 1.316
451.00 1.316
451.10 1.315
451.20 1.315
451.30 1.315
451.40 1.314
451.50 1.314
451.60 1.313
451.70 1.313
451.80 1.312
451.90 1.312
452.00 1.311
452.10 1.311
452.20 1.31
452.30 1.31
452.40 1.309
452.50 1.309
452.60 1.308
452.70 1.308
452.80 1.307
452.90 1.306
453.00 1.306
453.10 1.305
453.20 1.305
