# Version 2.1 - nm, norm@500 to 1, cut digits, bergeron_5000_65.dat_5000
# Wavelength(nm)  Flambda(ergs/cm^s/s/nm)
300.00 0.3549
300.10 0.3554
300.20 0.3558
300.30 0.3563
300.40 0.3567
300.50 0.3572
300.60 0.3577
300.70 0.3581
300.80 0.3586
300.90 0.359
301.00 0.3595
301.10 0.3599
301.20 0.3604
301.30 0.3608
301.40 0.3613
301.50 0.3617
301.60 0.3622
301.70 0.3627
301.80 0.3631
301.90 0.3636
302.00 0.364
302.10 0.3645
302.20 0.3649
302.30 0.3654
302.40 0.3659
302.50 0.3663
302.60 0.3668
302.70 0.3672
302.80 0.3677
302.90 0.3682
303.00 0.3686
303.10 0.3691
303.20 0.3695
303.30 0.37
303.40 0.3704
303.50 0.3709
303.60 0.3714
303.70 0.3718
303.80 0.3723
303.90 0.3727
304.00 0.3732
304.10 0.3736
304.20 0.3741
304.30 0.3746
304.40 0.375
304.50 0.3755
304.60 0.3759
304.70 0.3764
304.80 0.3769
304.90 0.3773
305.00 0.3778
305.10 0.3782
305.20 0.3787
305.30 0.3792
305.40 0.3796
305.50 0.3801
305.60 0.3805
305.70 0.381
305.80 0.3814
305.90 0.3819
306.00 0.3823
306.10 0.3828
306.20 0.3833
306.30 0.3837
306.40 0.3842
306.50 0.3847
306.60 0.3851
306.70 0.3856
306.80 0.3861
306.90 0.3865
307.00 0.387
307.10 0.3874
307.20 0.3879
307.30 0.3883
307.40 0.3888
307.50 0.3893
307.60 0.3897
307.70 0.3902
307.80 0.3906
307.90 0.3911
308.00 0.3915
308.10 0.392
308.20 0.3925
308.30 0.3929
308.40 0.3934
308.50 0.3939
308.60 0.3943
308.70 0.3948
308.80 0.3953
308.90 0.3957
309.00 0.3962
309.10 0.3966
309.20 0.3971
309.30 0.3976
309.40 0.398
309.50 0.3985
309.60 0.3989
309.70 0.3994
309.80 0.3999
309.90 0.4003
310.00 0.4008
310.10 0.4012
310.20 0.4017
310.30 0.4022
310.40 0.4026
310.50 0.4031
310.60 0.4036
310.70 0.404
310.80 0.4045
310.90 0.405
311.00 0.4054
311.10 0.4059
311.20 0.4063
311.30 0.4068
311.40 0.4073
311.50 0.4077
311.60 0.4082
311.70 0.4086
311.80 0.4091
311.90 0.4096
312.00 0.41
312.10 0.4105
312.20 0.4109
312.30 0.4114
312.40 0.4119
312.50 0.4123
312.60 0.4128
312.70 0.4133
312.80 0.4137
312.90 0.4142
313.00 0.4146
313.10 0.4151
313.20 0.4156
313.30 0.416
313.40 0.4165
313.50 0.417
313.60 0.4174
313.70 0.4179
313.80 0.4183
313.90 0.4188
314.00 0.4193
314.10 0.4197
314.20 0.4202
314.30 0.4206
314.40 0.4211
314.50 0.4216
314.60 0.422
314.70 0.4225
314.80 0.423
314.90 0.4234
315.00 0.4239
315.10 0.4244
315.20 0.4248
315.30 0.4253
315.40 0.4257
315.50 0.4262
315.60 0.4267
315.70 0.4271
315.80 0.4276
315.90 0.428
316.00 0.4285
316.10 0.429
316.20 0.4294
316.30 0.4299
316.40 0.4304
316.50 0.4308
316.60 0.4313
316.70 0.4318
316.80 0.4322
316.90 0.4327
317.00 0.4332
317.10 0.4336
317.20 0.4341
317.30 0.4345
317.40 0.435
317.50 0.4355
317.60 0.4359
317.70 0.4364
317.80 0.4368
317.90 0.4373
318.00 0.4378
318.10 0.4382
318.20 0.4387
318.30 0.4392
318.40 0.4396
318.50 0.4401
318.60 0.4406
318.70 0.441
318.80 0.4415
318.90 0.442
319.00 0.4424
319.10 0.4429
319.20 0.4433
319.30 0.4438
319.40 0.4443
319.50 0.4447
319.60 0.4452
319.70 0.4456
319.80 0.4461
319.90 0.4466
320.00 0.447
320.10 0.4475
320.20 0.4479
320.30 0.4484
320.40 0.4489
320.50 0.4493
320.60 0.4498
320.70 0.4503
320.80 0.4507
320.90 0.4512
321.00 0.4517
321.10 0.4521
321.20 0.4526
321.30 0.4531
321.40 0.4535
321.50 0.454
321.60 0.4544
321.70 0.4549
321.80 0.4554
321.90 0.4558
322.00 0.4563
322.10 0.4567
322.20 0.4572
322.30 0.4577
322.40 0.4581
322.50 0.4586
322.60 0.4591
322.70 0.4595
322.80 0.46
322.90 0.4605
323.00 0.4609
323.10 0.4614
323.20 0.4618
323.30 0.4623
323.40 0.4628
323.50 0.4632
323.60 0.4637
323.70 0.4641
323.80 0.4646
323.90 0.4651
324.00 0.4655
324.10 0.466
324.20 0.4664
324.30 0.4669
324.40 0.4674
324.50 0.4678
324.60 0.4683
324.70 0.4688
324.80 0.4692
324.90 0.4697
325.00 0.4702
325.10 0.4706
325.20 0.4711
325.30 0.4715
325.40 0.472
325.50 0.4725
325.60 0.4729
325.70 0.4734
325.80 0.4738
325.90 0.4743
326.00 0.4747
326.10 0.4752
326.20 0.4757
326.30 0.4761
326.40 0.4766
326.50 0.4771
326.60 0.4775
326.70 0.478
326.80 0.4785
326.90 0.4789
327.00 0.4794
327.10 0.4798
327.20 0.4803
327.30 0.4808
327.40 0.4812
327.50 0.4817
327.60 0.4821
327.70 0.4826
327.80 0.483
327.90 0.4835
328.00 0.484
328.10 0.4844
328.20 0.4849
328.30 0.4853
328.40 0.4858
328.50 0.4863
328.60 0.4867
328.70 0.4872
328.80 0.4877
328.90 0.4881
329.00 0.4886
329.10 0.489
329.20 0.4895
329.30 0.49
329.40 0.4904
329.50 0.4909
329.60 0.4913
329.70 0.4918
329.80 0.4922
329.90 0.4927
330.00 0.4931
330.10 0.4936
330.20 0.4941
330.30 0.4945
330.40 0.495
330.50 0.4955
330.60 0.4959
330.70 0.4964
330.80 0.4968
330.90 0.4973
331.00 0.4978
331.10 0.4982
331.20 0.4987
331.30 0.4991
331.40 0.4996
331.50 0.5001
331.60 0.5005
331.70 0.501
331.80 0.5014
331.90 0.5019
332.00 0.5023
332.10 0.5028
332.20 0.5032
332.30 0.5037
332.40 0.5042
332.50 0.5046
332.60 0.5051
332.70 0.5055
332.80 0.506
332.90 0.5065
333.00 0.5069
333.10 0.5074
333.20 0.5078
333.30 0.5083
333.40 0.5087
333.50 0.5092
333.60 0.5097
333.70 0.5101
333.80 0.5106
333.90 0.511
334.00 0.5115
334.10 0.5119
334.20 0.5124
334.30 0.5128
334.40 0.5133
334.50 0.5138
334.60 0.5142
334.70 0.5147
334.80 0.5151
334.90 0.5156
335.00 0.516
335.10 0.5165
335.20 0.517
335.30 0.5174
335.40 0.5179
335.50 0.5183
335.60 0.5188
335.70 0.5192
335.80 0.5197
335.90 0.5201
336.00 0.5206
336.10 0.521
336.20 0.5215
336.30 0.522
336.40 0.5224
336.50 0.5229
336.60 0.5233
336.70 0.5238
336.80 0.5242
336.90 0.5247
337.00 0.5251
337.10 0.5256
337.20 0.5261
337.30 0.5265
337.40 0.527
337.50 0.5274
337.60 0.5279
337.70 0.5283
337.80 0.5288
337.90 0.5292
338.00 0.5297
338.10 0.5301
338.20 0.5306
338.30 0.531
338.40 0.5315
338.50 0.5319
338.60 0.5324
338.70 0.5329
338.80 0.5333
338.90 0.5338
339.00 0.5342
339.10 0.5347
339.20 0.5351
339.30 0.5356
339.40 0.536
339.50 0.5365
339.60 0.5369
339.70 0.5374
339.80 0.5378
339.90 0.5383
340.00 0.5387
340.10 0.5392
340.20 0.5396
340.30 0.5401
340.40 0.5405
340.50 0.541
340.60 0.5414
340.70 0.5419
340.80 0.5423
340.90 0.5428
341.00 0.5432
341.10 0.5437
341.20 0.5441
341.30 0.5446
341.40 0.545
341.50 0.5455
341.60 0.5459
341.70 0.5464
341.80 0.5468
341.90 0.5473
342.00 0.5477
342.10 0.5482
342.20 0.5486
342.30 0.5491
342.40 0.5495
342.50 0.55
342.60 0.5504
342.70 0.5509
342.80 0.5513
342.90 0.5518
343.00 0.5522
343.10 0.5527
343.20 0.5531
343.30 0.5536
343.40 0.554
343.50 0.5544
343.60 0.5549
343.70 0.5553
343.80 0.5558
343.90 0.5562
344.00 0.5567
344.10 0.5571
344.20 0.5576
344.30 0.558
344.40 0.5585
344.50 0.5589
344.60 0.5594
344.70 0.5598
344.80 0.5603
344.90 0.5607
345.00 0.5612
345.10 0.5616
345.20 0.562
345.30 0.5625
345.40 0.5629
345.50 0.5634
345.60 0.5638
345.70 0.5643
345.80 0.5647
345.90 0.5651
346.00 0.5656
346.10 0.566
346.20 0.5665
346.30 0.5669
346.40 0.5674
346.50 0.5678
346.60 0.5683
346.70 0.5687
346.80 0.5692
346.90 0.5696
347.00 0.57
347.10 0.5705
347.20 0.5709
347.30 0.5714
347.40 0.5718
347.50 0.5723
347.60 0.5727
347.70 0.5731
347.80 0.5736
347.90 0.574
348.00 0.5744
348.10 0.5749
348.20 0.5753
348.30 0.5758
348.40 0.5762
348.50 0.5767
348.60 0.5771
348.70 0.5776
348.80 0.578
348.90 0.5784
349.00 0.5789
349.10 0.5793
349.20 0.5798
349.30 0.5802
349.40 0.5806
349.50 0.5811
349.60 0.5815
349.70 0.582
349.80 0.5824
349.90 0.5828
350.00 0.5833
350.10 0.5837
350.20 0.5841
350.30 0.5846
350.40 0.585
350.50 0.5855
350.60 0.5859
350.70 0.5864
350.80 0.5868
350.90 0.5872
351.00 0.5877
351.10 0.5881
351.20 0.5885
351.30 0.589
351.40 0.5894
351.50 0.5899
351.60 0.5903
351.70 0.5907
351.80 0.5912
351.90 0.5916
352.00 0.592
352.10 0.5925
352.20 0.5929
352.30 0.5933
352.40 0.5938
352.50 0.5942
352.60 0.5947
352.70 0.5951
352.80 0.5955
352.90 0.596
353.00 0.5964
353.10 0.5968
353.20 0.5973
353.30 0.5977
353.40 0.5981
353.50 0.5986
353.60 0.599
353.70 0.5994
353.80 0.5999
353.90 0.6003
354.00 0.6007
354.10 0.6012
354.20 0.6016
354.30 0.602
354.40 0.6025
354.50 0.6029
354.60 0.6033
354.70 0.6038
354.80 0.6042
354.90 0.6046
355.00 0.6051
355.10 0.6055
355.20 0.6059
355.30 0.6064
355.40 0.6068
355.50 0.6072
355.60 0.6077
355.70 0.6081
355.80 0.6085
355.90 0.6089
356.00 0.6094
356.10 0.6098
356.20 0.6102
356.30 0.6107
356.40 0.6111
356.50 0.6115
356.60 0.612
356.70 0.6124
356.80 0.6128
356.90 0.6133
357.00 0.6137
357.10 0.6141
357.20 0.6145
357.30 0.615
357.40 0.6154
357.50 0.6158
357.60 0.6162
357.70 0.6167
357.80 0.6171
357.90 0.6175
358.00 0.6179
358.10 0.6184
358.20 0.6188
358.30 0.6192
358.40 0.6197
358.50 0.6201
358.60 0.6205
358.70 0.621
358.80 0.6214
358.90 0.6218
359.00 0.6222
359.10 0.6227
359.20 0.6231
359.30 0.6235
359.40 0.6239
359.50 0.6244
359.60 0.6248
359.70 0.6252
359.80 0.6256
359.90 0.626
360.00 0.6265
360.10 0.6269
360.20 0.6273
360.30 0.6277
360.40 0.6282
360.50 0.6286
360.60 0.629
360.70 0.6294
360.80 0.6299
360.90 0.6303
361.00 0.6307
361.10 0.6311
361.20 0.6316
361.30 0.632
361.40 0.6324
361.50 0.6328
361.60 0.6332
361.70 0.6337
361.80 0.6341
361.90 0.6345
362.00 0.6349
362.10 0.6353
362.20 0.6358
362.30 0.6362
362.40 0.6366
362.50 0.637
362.60 0.6374
362.70 0.6379
362.80 0.6383
362.90 0.6387
363.00 0.6391
363.10 0.6395
363.20 0.64
363.30 0.6404
363.40 0.6408
363.50 0.6412
363.60 0.6416
363.70 0.6421
363.80 0.6425
363.90 0.6429
364.00 0.6433
364.10 0.6437
364.20 0.6441
364.30 0.6446
364.40 0.645
364.50 0.6454
364.60 0.6458
364.70 0.6462
364.80 0.6466
364.90 0.647
365.00 0.6475
365.10 0.6479
365.20 0.6483
365.30 0.6487
365.40 0.6491
365.50 0.6495
365.60 0.65
365.70 0.6504
365.80 0.6508
365.90 0.6512
366.00 0.6516
366.10 0.652
366.20 0.6524
366.30 0.6529
366.40 0.6533
366.50 0.6537
366.60 0.6541
366.70 0.6545
366.80 0.6549
366.90 0.6553
367.00 0.6558
367.10 0.6562
367.20 0.6566
367.30 0.657
367.40 0.6574
367.50 0.6578
367.60 0.6582
367.70 0.6586
367.80 0.659
367.90 0.6594
368.00 0.6598
368.10 0.6603
368.20 0.6607
368.30 0.6611
368.40 0.6615
368.50 0.6619
368.60 0.6623
368.70 0.6627
368.80 0.6631
368.90 0.6635
369.00 0.664
369.10 0.6644
369.20 0.6648
369.30 0.6652
369.40 0.6656
369.50 0.666
369.60 0.6664
369.70 0.6668
369.80 0.6672
369.90 0.6676
370.00 0.668
370.10 0.6684
370.20 0.6688
370.30 0.6692
370.40 0.6696
370.50 0.6701
370.60 0.6705
370.70 0.6709
370.80 0.6713
370.90 0.6717
371.00 0.6721
371.10 0.6725
371.20 0.6729
371.30 0.6733
371.40 0.6737
371.50 0.6741
371.60 0.6745
371.70 0.6749
371.80 0.6753
371.90 0.6757
372.00 0.6761
372.10 0.6765
372.20 0.6769
372.30 0.6773
372.40 0.6777
372.50 0.6781
372.60 0.6785
372.70 0.6789
372.80 0.6793
372.90 0.6797
373.00 0.6801
373.10 0.6806
373.20 0.681
373.30 0.6814
373.40 0.6818
373.50 0.6821
373.60 0.6825
373.70 0.6829
373.80 0.6833
373.90 0.6837
374.00 0.6841
374.10 0.6845
374.20 0.6849
374.30 0.6853
374.40 0.6857
374.50 0.6861
374.60 0.6866
374.70 0.687
374.80 0.6874
374.90 0.6878
375.00 0.6882
375.10 0.6885
375.20 0.6889
375.30 0.6893
375.40 0.6897
375.50 0.6901
375.60 0.6905
375.70 0.6909
375.80 0.6913
375.90 0.6917
376.00 0.6921
376.10 0.6925
376.20 0.6929
376.30 0.6933
376.40 0.6937
376.50 0.6941
376.60 0.6945
376.70 0.6949
376.80 0.6953
376.90 0.6957
377.00 0.6961
377.10 0.6965
377.20 0.6969
377.30 0.6973
377.40 0.6977
377.50 0.6981
377.60 0.6985
377.70 0.6989
377.80 0.6993
377.90 0.6997
378.00 0.7001
378.10 0.7005
378.20 0.7009
378.30 0.7013
378.40 0.7016
378.50 0.702
378.60 0.7024
378.70 0.7028
378.80 0.7032
378.90 0.7036
379.00 0.704
379.10 0.7043
379.20 0.7046
379.30 0.705
379.40 0.7053
379.50 0.7057
379.60 0.706
379.70 0.7064
379.80 0.7067
379.90 0.707
380.00 0.7074
380.10 0.7078
380.20 0.7083
380.30 0.7087
380.40 0.7092
380.50 0.7096
380.60 0.7101
380.70 0.7105
380.80 0.711
380.90 0.7114
381.00 0.7118
381.10 0.7122
381.20 0.7126
381.30 0.713
381.40 0.7134
381.50 0.7138
381.60 0.7142
381.70 0.7146
381.80 0.715
381.90 0.7153
382.00 0.7157
382.10 0.7161
382.20 0.7165
382.30 0.7168
382.40 0.7171
382.50 0.7174
382.60 0.7178
382.70 0.7181
382.80 0.7184
382.90 0.7187
383.00 0.7191
383.10 0.7194
383.20 0.7197
383.30 0.7196
383.40 0.7188
383.50 0.7163
383.60 0.7175
383.70 0.7204
383.80 0.7217
383.90 0.7225
384.00 0.7231
384.10 0.7236
384.20 0.724
384.30 0.7245
384.40 0.7249
384.50 0.7252
384.60 0.7257
384.70 0.726
384.80 0.7265
384.90 0.7268
385.00 0.7272
385.10 0.7276
385.20 0.728
385.30 0.7284
385.40 0.7287
385.50 0.7291
385.60 0.7295
385.70 0.7299
385.80 0.7303
385.90 0.7306
386.00 0.731
386.10 0.7314
386.20 0.7318
386.30 0.7322
386.40 0.7325
386.50 0.7329
386.60 0.7333
386.70 0.7336
386.80 0.734
386.90 0.7344
387.00 0.7347
387.10 0.7351
387.20 0.7355
387.30 0.7359
387.40 0.7362
387.50 0.7366
387.60 0.737
387.70 0.7373
387.80 0.7377
387.90 0.738
388.00 0.7383
388.10 0.7387
388.20 0.739
388.30 0.7392
388.40 0.7394
388.50 0.7394
388.60 0.7393
388.70 0.7378
388.80 0.7337
388.90 0.7268
389.00 0.7342
389.10 0.7391
389.20 0.7414
389.30 0.7424
389.40 0.7431
389.50 0.7437
389.60 0.7441
389.70 0.7446
389.80 0.745
389.90 0.7454
390.00 0.7458
390.10 0.7462
390.20 0.7466
390.30 0.7469
390.40 0.7473
390.50 0.7477
390.60 0.7481
390.70 0.7484
390.80 0.7488
390.90 0.7492
391.00 0.7495
391.10 0.7499
391.20 0.7503
391.30 0.7506
391.40 0.751
391.50 0.7514
391.60 0.7517
391.70 0.7521
391.80 0.7524
391.90 0.7528
392.00 0.7532
392.10 0.7536
392.20 0.7539
392.30 0.7543
392.40 0.7546
392.50 0.755
392.60 0.7554
392.70 0.7557
392.80 0.7561
392.90 0.7564
393.00 0.7568
393.10 0.7572
393.20 0.7575
393.30 0.7579
393.40 0.7582
393.50 0.7586
393.60 0.759
393.70 0.7593
393.80 0.7597
393.90 0.76
394.00 0.7603
394.10 0.7607
394.20 0.7611
394.30 0.7614
394.40 0.7618
394.50 0.7621
394.60 0.7625
394.70 0.7629
394.80 0.7632
394.90 0.7635
395.00 0.7639
395.10 0.7642
395.20 0.7646
395.30 0.7649
395.40 0.7653
395.50 0.7656
395.60 0.7659
395.70 0.7663
395.80 0.7666
395.90 0.7669
396.00 0.7672
396.10 0.7675
396.20 0.7678
396.30 0.768
396.40 0.7682
396.50 0.7682
396.60 0.7679
396.70 0.7674
396.80 0.7644
396.90 0.7551
397.00 0.7395
397.10 0.7552
397.20 0.7651
397.30 0.7692
397.40 0.7706
397.50 0.7716
397.60 0.7724
397.70 0.7729
397.80 0.7733
397.90 0.7738
398.00 0.7742
398.10 0.7746
398.20 0.775
398.30 0.7754
398.40 0.7757
398.50 0.7761
398.60 0.7765
398.70 0.7768
398.80 0.7771
398.90 0.7775
399.00 0.7779
399.10 0.7782
399.20 0.7786
399.30 0.7789
399.40 0.7792
399.50 0.7796
399.60 0.78
399.70 0.7803
399.80 0.7806
399.90 0.781
400.00 0.7813
400.10 0.7817
400.20 0.782
400.30 0.7823
400.40 0.7827
400.50 0.7831
400.60 0.7834
400.70 0.7837
400.80 0.7841
400.90 0.7844
401.00 0.7848
401.10 0.7851
401.20 0.7854
401.30 0.7858
401.40 0.7861
401.50 0.7865
401.60 0.7868
401.70 0.7871
401.80 0.7874
401.90 0.7878
402.00 0.7881
402.10 0.7885
402.20 0.7888
402.30 0.7891
402.40 0.7895
402.50 0.7898
402.60 0.7902
402.70 0.7905
402.80 0.7908
402.90 0.7911
403.00 0.7915
403.10 0.7918
403.20 0.7922
403.30 0.7925
403.40 0.7929
403.50 0.7932
403.60 0.7935
403.70 0.7938
403.80 0.7942
403.90 0.7945
404.00 0.7948
404.10 0.7952
404.20 0.7955
404.30 0.7958
404.40 0.7961
404.50 0.7965
404.60 0.7968
404.70 0.7971
404.80 0.7975
404.90 0.7978
405.00 0.7982
405.10 0.7985
405.20 0.7988
405.30 0.7991
405.40 0.7994
405.50 0.7998
405.60 0.8001
405.70 0.8004
405.80 0.8008
405.90 0.8011
406.00 0.8014
406.10 0.8018
406.20 0.8021
406.30 0.8024
406.40 0.8027
406.50 0.803
406.60 0.8033
406.70 0.8037
406.80 0.804
406.90 0.8043
407.00 0.8047
407.10 0.805
407.20 0.8053
407.30 0.8056
407.40 0.8059
407.50 0.8062
407.60 0.8066
407.70 0.8069
407.80 0.8072
407.90 0.8075
408.00 0.8078
408.10 0.8082
408.20 0.8085
408.30 0.8088
408.40 0.8091
408.50 0.8094
408.60 0.8097
408.70 0.81
408.80 0.8103
408.90 0.8105
409.00 0.8108
409.10 0.8111
409.20 0.8113
409.30 0.8115
409.40 0.8117
409.50 0.8118
409.60 0.8118
409.70 0.8114
409.80 0.8104
409.90 0.8088
410.00 0.8004
410.10 0.7838
410.20 0.759
410.30 0.7894
410.40 0.8071
410.50 0.8122
410.60 0.8138
410.70 0.815
410.80 0.8158
410.90 0.8163
411.00 0.8168
411.10 0.8173
411.20 0.8177
411.30 0.8181
411.40 0.8185
411.50 0.8188
411.60 0.8192
411.70 0.8195
411.80 0.8198
411.90 0.8202
412.00 0.8205
412.10 0.8208
412.20 0.8211
412.30 0.8215
412.40 0.8218
412.50 0.8221
412.60 0.8224
412.70 0.8227
412.80 0.8231
412.90 0.8234
413.00 0.8237
413.10 0.824
413.20 0.8243
413.30 0.8246
413.40 0.8249
413.50 0.8252
413.60 0.8255
413.70 0.8258
413.80 0.8261
413.90 0.8265
414.00 0.8268
414.10 0.8271
414.20 0.8274
414.30 0.8277
414.40 0.828
414.50 0.8283
414.60 0.8286
414.70 0.8289
414.80 0.8292
414.90 0.8295
415.00 0.8299
415.10 0.8302
415.20 0.8305
415.30 0.8308
415.40 0.831
415.50 0.8314
415.60 0.8317
415.70 0.832
415.80 0.8323
415.90 0.8326
416.00 0.8329
416.10 0.8332
416.20 0.8335
416.30 0.8338
416.40 0.8341
416.50 0.8344
416.60 0.8347
416.70 0.835
416.80 0.8353
416.90 0.8356
417.00 0.8359
417.10 0.8362
417.20 0.8365
417.30 0.8368
417.40 0.8371
417.50 0.8374
417.60 0.8377
417.70 0.838
417.80 0.8383
417.90 0.8386
418.00 0.8389
418.10 0.8392
418.20 0.8395
418.30 0.8397
418.40 0.8401
418.50 0.8404
418.60 0.8406
418.70 0.841
418.80 0.8413
418.90 0.8415
419.00 0.8418
419.10 0.8421
419.20 0.8424
419.30 0.8427
419.40 0.843
419.50 0.8433
419.60 0.8436
419.70 0.8439
419.80 0.8442
419.90 0.8445
420.00 0.8448
420.10 0.8451
420.20 0.8454
420.30 0.8457
420.40 0.8459
420.50 0.8462
420.60 0.8465
420.70 0.8468
420.80 0.8471
420.90 0.8474
421.00 0.8477
421.10 0.848
421.20 0.8483
421.30 0.8486
421.40 0.8488
421.50 0.8491
421.60 0.8494
421.70 0.8497
421.80 0.85
421.90 0.8503
422.00 0.8506
422.10 0.8509
422.20 0.8512
422.30 0.8514
422.40 0.8517
422.50 0.852
422.60 0.8523
422.70 0.8526
422.80 0.8529
422.90 0.8531
423.00 0.8534
423.10 0.8537
423.20 0.854
423.30 0.8543
423.40 0.8546
423.50 0.8548
423.60 0.8551
423.70 0.8554
423.80 0.8557
423.90 0.856
424.00 0.8563
424.10 0.8565
424.20 0.8568
424.30 0.8571
424.40 0.8574
424.50 0.8576
424.60 0.8579
424.70 0.8582
424.80 0.8585
424.90 0.8588
425.00 0.8591
425.10 0.8593
425.20 0.8596
425.30 0.8599
425.40 0.8602
425.50 0.8604
425.60 0.8607
425.70 0.861
425.80 0.8613
425.90 0.8616
426.00 0.8618
426.10 0.8621
426.20 0.8624
426.30 0.8627
426.40 0.8629
426.50 0.8632
426.60 0.8635
426.70 0.8638
426.80 0.864
426.90 0.8643
427.00 0.8646
427.10 0.8649
427.20 0.8651
427.30 0.8654
427.40 0.8657
427.50 0.8659
427.60 0.8662
427.70 0.8665
427.80 0.8668
427.90 0.867
428.00 0.8673
428.10 0.8676
428.20 0.8678
428.30 0.8681
428.40 0.8684
428.50 0.8687
428.60 0.8689
428.70 0.8692
428.80 0.8695
428.90 0.8698
429.00 0.87
429.10 0.8703
429.20 0.8705
429.30 0.8708
429.40 0.8711
429.50 0.8713
429.60 0.8716
429.70 0.8719
429.80 0.8722
429.90 0.8724
430.00 0.8727
430.10 0.8729
430.20 0.8732
430.30 0.8734
430.40 0.8737
430.50 0.874
430.60 0.8743
430.70 0.8745
430.80 0.8748
430.90 0.875
431.00 0.8753
431.10 0.8755
431.20 0.8758
431.30 0.8761
431.40 0.8763
431.50 0.8766
431.60 0.8768
431.70 0.8771
431.80 0.8773
431.90 0.8776
432.00 0.8778
432.10 0.878
432.20 0.8783
432.30 0.8785
432.40 0.8787
432.50 0.879
432.60 0.8792
432.70 0.8794
432.80 0.8796
432.90 0.8797
433.00 0.8799
433.10 0.88
433.20 0.88
433.30 0.88
433.40 0.8797
433.50 0.8791
433.60 0.8783
433.70 0.8756
433.80 0.8682
433.90 0.8561
434.00 0.7815
434.10 0.7825
434.20 0.859
434.30 0.8705
434.40 0.8777
434.50 0.8807
434.60 0.882
434.70 0.8831
434.80 0.8838
434.90 0.8844
435.00 0.8849
435.10 0.8853
435.20 0.8857
435.30 0.886
435.40 0.8863
435.50 0.8866
435.60 0.8869
435.70 0.8872
435.80 0.8875
435.90 0.8878
436.00 0.8881
436.10 0.8883
436.20 0.8886
436.30 0.8889
436.40 0.8891
436.50 0.8894
436.60 0.8896
436.70 0.8899
436.80 0.8902
436.90 0.8905
437.00 0.8907
437.10 0.891
437.20 0.8912
437.30 0.8915
437.40 0.8917
437.50 0.892
437.60 0.8922
437.70 0.8925
437.80 0.8927
437.90 0.893
438.00 0.8932
438.10 0.8935
438.20 0.8937
438.30 0.8939
438.40 0.8942
438.50 0.8944
438.60 0.8947
438.70 0.8949
438.80 0.8952
438.90 0.8954
439.00 0.8957
439.10 0.8959
439.20 0.8962
439.30 0.8964
439.40 0.8967
439.50 0.8969
439.60 0.8972
439.70 0.8974
439.80 0.8976
439.90 0.8979
440.00 0.8981
440.10 0.8984
440.20 0.8986
440.30 0.8989
440.40 0.8991
440.50 0.8993
440.60 0.8996
440.70 0.8998
440.80 0.9001
440.90 0.9003
441.00 0.9005
441.10 0.9007
441.20 0.901
441.30 0.9012
441.40 0.9015
441.50 0.9017
441.60 0.9019
441.70 0.9022
441.80 0.9024
441.90 0.9027
442.00 0.9029
442.10 0.9031
442.20 0.9034
442.30 0.9036
442.40 0.9039
442.50 0.9041
442.60 0.9043
442.70 0.9046
442.80 0.9048
442.90 0.905
443.00 0.9053
