# Version 2.1 - nm, norm@500 to 1, cut digits, bergeron_30000_75.dat_30000
# Wavelength(nm)  Flambda(ergs/cm^s/s/nm)
300.00 4.948
300.10 4.942
300.20 4.937
300.30 4.931
300.40 4.926
300.50 4.92
300.60 4.915
300.70 4.909
300.80 4.904
300.90 4.898
301.00 4.892
301.10 4.887
301.20 4.881
301.30 4.876
301.40 4.87
301.50 4.865
301.60 4.859
301.70 4.854
301.80 4.848
301.90 4.843
302.00 4.838
302.10 4.832
302.20 4.827
302.30 4.821
302.40 4.816
302.50 4.81
302.60 4.805
302.70 4.8
302.80 4.794
302.90 4.789
303.00 4.784
303.10 4.778
303.20 4.773
303.30 4.767
303.40 4.762
303.50 4.757
303.60 4.751
303.70 4.746
303.80 4.741
303.90 4.735
304.00 4.73
304.10 4.725
304.20 4.72
304.30 4.714
304.40 4.709
304.50 4.704
304.60 4.699
304.70 4.693
304.80 4.688
304.90 4.683
305.00 4.678
305.10 4.672
305.20 4.667
305.30 4.662
305.40 4.657
305.50 4.652
305.60 4.646
305.70 4.641
305.80 4.636
305.90 4.631
306.00 4.626
306.10 4.621
306.20 4.616
306.30 4.61
306.40 4.605
306.50 4.6
306.60 4.595
306.70 4.59
306.80 4.585
306.90 4.58
307.00 4.575
307.10 4.57
307.20 4.565
307.30 4.56
307.40 4.555
307.50 4.549
307.60 4.544
307.70 4.539
307.80 4.534
307.90 4.529
308.00 4.524
308.10 4.519
308.20 4.514
308.30 4.509
308.40 4.504
308.50 4.499
308.60 4.494
308.70 4.49
308.80 4.485
308.90 4.48
309.00 4.475
309.10 4.47
309.20 4.465
309.30 4.46
309.40 4.455
309.50 4.45
309.60 4.445
309.70 4.44
309.80 4.435
309.90 4.431
310.00 4.426
310.10 4.421
310.20 4.416
310.30 4.411
310.40 4.406
310.50 4.401
310.60 4.397
310.70 4.392
310.80 4.387
310.90 4.382
311.00 4.377
311.10 4.373
311.20 4.368
311.30 4.363
311.40 4.358
311.50 4.354
311.60 4.349
311.70 4.344
311.80 4.339
311.90 4.335
312.00 4.33
312.10 4.325
312.20 4.32
312.30 4.316
312.40 4.311
312.50 4.306
312.60 4.302
312.70 4.297
312.80 4.292
312.90 4.287
313.00 4.283
313.10 4.278
313.20 4.273
313.30 4.269
313.40 4.264
313.50 4.26
313.60 4.255
313.70 4.25
313.80 4.246
313.90 4.241
314.00 4.236
314.10 4.232
314.20 4.227
314.30 4.223
314.40 4.218
314.50 4.214
314.60 4.209
314.70 4.204
314.80 4.2
314.90 4.195
315.00 4.191
315.10 4.186
315.20 4.182
315.30 4.177
315.40 4.173
315.50 4.168
315.60 4.164
315.70 4.159
315.80 4.155
315.90 4.15
316.00 4.146
316.10 4.141
316.20 4.137
316.30 4.132
316.40 4.128
316.50 4.123
316.60 4.119
316.70 4.114
316.80 4.11
316.90 4.106
317.00 4.101
317.10 4.097
317.20 4.092
317.30 4.088
317.40 4.084
317.50 4.079
317.60 4.075
317.70 4.07
317.80 4.066
317.90 4.062
318.00 4.057
318.10 4.053
318.20 4.049
318.30 4.044
318.40 4.04
318.50 4.036
318.60 4.031
318.70 4.027
318.80 4.023
318.90 4.018
319.00 4.014
319.10 4.01
319.20 4.006
319.30 4.001
319.40 3.997
319.50 3.993
319.60 3.988
319.70 3.984
319.80 3.98
319.90 3.976
320.00 3.971
320.10 3.967
320.20 3.963
320.30 3.959
320.40 3.954
320.50 3.95
320.60 3.946
320.70 3.942
320.80 3.938
320.90 3.933
321.00 3.929
321.10 3.925
321.20 3.921
321.30 3.917
321.40 3.913
321.50 3.908
321.60 3.904
321.70 3.9
321.80 3.896
321.90 3.892
322.00 3.888
322.10 3.884
322.20 3.879
322.30 3.875
322.40 3.871
322.50 3.867
322.60 3.863
322.70 3.859
322.80 3.855
322.90 3.851
323.00 3.847
323.10 3.843
323.20 3.839
323.30 3.835
323.40 3.831
323.50 3.826
323.60 3.822
323.70 3.818
323.80 3.814
323.90 3.81
324.00 3.806
324.10 3.802
324.20 3.798
324.30 3.794
324.40 3.79
324.50 3.786
324.60 3.782
324.70 3.778
324.80 3.774
324.90 3.77
325.00 3.766
325.10 3.762
325.20 3.758
325.30 3.755
325.40 3.751
325.50 3.747
325.60 3.743
325.70 3.739
325.80 3.735
325.90 3.731
326.00 3.727
326.10 3.723
326.20 3.719
326.30 3.715
326.40 3.711
326.50 3.708
326.60 3.704
326.70 3.7
326.80 3.696
326.90 3.692
327.00 3.688
327.10 3.684
327.20 3.68
327.30 3.677
327.40 3.673
327.50 3.669
327.60 3.665
327.70 3.661
327.80 3.657
327.90 3.654
328.00 3.65
328.10 3.646
328.20 3.642
328.30 3.638
328.40 3.635
328.50 3.631
328.60 3.627
328.70 3.623
328.80 3.62
328.90 3.616
329.00 3.612
329.10 3.608
329.20 3.604
329.30 3.601
329.40 3.597
329.50 3.593
329.60 3.59
329.70 3.586
329.80 3.582
329.90 3.578
330.00 3.575
330.10 3.571
330.20 3.567
330.30 3.564
330.40 3.56
330.50 3.556
330.60 3.552
330.70 3.549
330.80 3.545
330.90 3.541
331.00 3.538
331.10 3.534
331.20 3.53
331.30 3.527
331.40 3.523
331.50 3.52
331.60 3.516
331.70 3.512
331.80 3.509
331.90 3.505
332.00 3.501
332.10 3.498
332.20 3.494
332.30 3.491
332.40 3.487
332.50 3.483
332.60 3.48
332.70 3.476
332.80 3.473
332.90 3.469
333.00 3.466
333.10 3.462
333.20 3.458
333.30 3.455
333.40 3.451
333.50 3.448
333.60 3.444
333.70 3.441
333.80 3.437
333.90 3.434
334.00 3.43
334.10 3.427
334.20 3.423
334.30 3.42
334.40 3.416
334.50 3.413
334.60 3.409
334.70 3.406
334.80 3.402
334.90 3.399
335.00 3.395
335.10 3.392
335.20 3.388
335.30 3.385
335.40 3.381
335.50 3.378
335.60 3.374
335.70 3.371
335.80 3.367
335.90 3.364
336.00 3.361
336.10 3.357
336.20 3.354
336.30 3.35
336.40 3.347
336.50 3.343
336.60 3.34
336.70 3.337
336.80 3.333
336.90 3.33
337.00 3.326
337.10 3.323
337.20 3.32
337.30 3.316
337.40 3.313
337.50 3.31
337.60 3.306
337.70 3.303
337.80 3.299
337.90 3.296
338.00 3.293
338.10 3.289
338.20 3.286
338.30 3.283
338.40 3.279
338.50 3.276
338.60 3.273
338.70 3.27
338.80 3.266
338.90 3.263
339.00 3.26
339.10 3.256
339.20 3.253
339.30 3.25
339.40 3.246
339.50 3.243
339.60 3.24
339.70 3.237
339.80 3.233
339.90 3.23
340.00 3.227
340.10 3.224
340.20 3.22
340.30 3.217
340.40 3.214
340.50 3.211
340.60 3.207
340.70 3.204
340.80 3.201
340.90 3.198
341.00 3.194
341.10 3.191
341.20 3.188
341.30 3.185
341.40 3.182
341.50 3.178
341.60 3.175
341.70 3.172
341.80 3.169
341.90 3.166
342.00 3.162
342.10 3.159
342.20 3.156
342.30 3.153
342.40 3.15
342.50 3.147
342.60 3.143
342.70 3.14
342.80 3.137
342.90 3.134
343.00 3.131
343.10 3.128
343.20 3.125
343.30 3.121
343.40 3.118
343.50 3.115
343.60 3.112
343.70 3.109
343.80 3.106
343.90 3.103
344.00 3.1
344.10 3.097
344.20 3.093
344.30 3.09
344.40 3.087
344.50 3.084
344.60 3.081
344.70 3.078
344.80 3.075
344.90 3.072
345.00 3.069
345.10 3.066
345.20 3.063
345.30 3.06
345.40 3.057
345.50 3.054
345.60 3.051
345.70 3.048
345.80 3.045
345.90 3.042
346.00 3.038
346.10 3.035
346.20 3.032
346.30 3.029
346.40 3.026
346.50 3.023
346.60 3.02
346.70 3.017
346.80 3.014
346.90 3.012
347.00 3.009
347.10 3.006
347.20 3.003
347.30 3
347.40 2.997
347.50 2.994
347.60 2.991
347.70 2.988
347.80 2.985
347.90 2.982
348.00 2.979
348.10 2.976
348.20 2.973
348.30 2.97
348.40 2.967
348.50 2.964
348.60 2.961
348.70 2.958
348.80 2.955
348.90 2.953
349.00 2.95
349.10 2.947
349.20 2.944
349.30 2.941
349.40 2.938
349.50 2.935
349.60 2.932
349.70 2.929
349.80 2.926
349.90 2.924
350.00 2.921
350.10 2.918
350.20 2.915
350.30 2.912
350.40 2.909
350.50 2.906
350.60 2.904
350.70 2.901
350.80 2.898
350.90 2.895
351.00 2.892
351.10 2.889
351.20 2.886
351.30 2.884
351.40 2.881
351.50 2.878
351.60 2.875
351.70 2.872
351.80 2.87
351.90 2.867
352.00 2.864
352.10 2.861
352.20 2.858
352.30 2.856
352.40 2.853
352.50 2.85
352.60 2.847
352.70 2.844
352.80 2.842
352.90 2.839
353.00 2.836
353.10 2.833
353.20 2.831
353.30 2.828
353.40 2.825
353.50 2.822
353.60 2.82
353.70 2.817
353.80 2.814
353.90 2.811
354.00 2.809
354.10 2.806
354.20 2.803
354.30 2.8
354.40 2.798
354.50 2.795
354.60 2.792
354.70 2.79
354.80 2.787
354.90 2.784
355.00 2.781
355.10 2.779
355.20 2.776
355.30 2.773
355.40 2.771
355.50 2.768
355.60 2.765
355.70 2.763
355.80 2.76
355.90 2.757
356.00 2.755
356.10 2.752
356.20 2.749
356.30 2.747
356.40 2.744
356.50 2.741
356.60 2.739
356.70 2.736
356.80 2.733
356.90 2.731
357.00 2.728
357.10 2.725
357.20 2.723
357.30 2.72
357.40 2.718
357.50 2.715
357.60 2.712
357.70 2.71
357.80 2.707
357.90 2.704
358.00 2.702
358.10 2.699
358.20 2.697
358.30 2.694
358.40 2.691
358.50 2.689
358.60 2.686
358.70 2.684
358.80 2.681
358.90 2.679
359.00 2.676
359.10 2.673
359.20 2.671
359.30 2.668
359.40 2.666
359.50 2.663
359.60 2.661
359.70 2.658
359.80 2.656
359.90 2.653
360.00 2.65
360.10 2.648
360.20 2.645
360.30 2.643
360.40 2.64
360.50 2.638
360.60 2.635
360.70 2.633
360.80 2.63
360.90 2.628
361.00 2.625
361.10 2.623
361.20 2.62
361.30 2.618
361.40 2.615
361.50 2.613
361.60 2.61
361.70 2.608
361.80 2.605
361.90 2.603
362.00 2.6
362.10 2.598
362.20 2.595
362.30 2.593
362.40 2.59
362.50 2.588
362.60 2.585
362.70 2.583
362.80 2.58
362.90 2.578
363.00 2.576
363.10 2.573
363.20 2.571
363.30 2.568
363.40 2.566
363.50 2.563
363.60 2.561
363.70 2.558
363.80 2.556
363.90 2.554
364.00 2.551
364.10 2.549
364.20 2.546
364.30 2.544
364.40 2.542
364.50 2.539
364.60 2.537
364.70 2.534
364.80 2.532
364.90 2.53
365.00 2.527
365.10 2.525
365.20 2.522
365.30 2.52
365.40 2.518
365.50 2.515
365.60 2.513
365.70 2.51
365.80 2.508
365.90 2.506
366.00 2.503
366.10 2.501
366.20 2.498
366.30 2.495
366.40 2.493
366.50 2.49
366.60 2.487
366.70 2.485
366.80 2.482
366.90 2.48
367.00 2.477
367.10 2.474
367.20 2.472
367.30 2.469
367.40 2.466
367.50 2.464
367.60 2.461
367.70 2.459
367.80 2.456
367.90 2.453
368.00 2.451
368.10 2.448
368.20 2.446
368.30 2.443
368.40 2.441
368.50 2.438
368.60 2.436
368.70 2.433
368.80 2.43
368.90 2.428
369.00 2.425
369.10 2.423
369.20 2.42
369.30 2.418
369.40 2.415
369.50 2.413
369.60 2.41
369.70 2.408
369.80 2.405
369.90 2.403
370.00 2.4
370.10 2.398
370.20 2.395
370.30 2.393
370.40 2.391
370.50 2.388
370.60 2.386
370.70 2.383
370.80 2.381
370.90 2.378
371.00 2.376
371.10 2.374
371.20 2.371
371.30 2.369
371.40 2.366
371.50 2.364
371.60 2.362
371.70 2.359
371.80 2.357
371.90 2.354
372.00 2.352
372.10 2.35
372.20 2.348
372.30 2.346
372.40 2.344
372.50 2.342
372.60 2.34
372.70 2.337
372.80 2.335
372.90 2.333
373.00 2.331
373.10 2.329
373.20 2.327
373.30 2.325
373.40 2.323
373.50 2.321
373.60 2.319
373.70 2.317
373.80 2.315
373.90 2.313
374.00 2.311
374.10 2.309
374.20 2.307
374.30 2.305
374.40 2.304
374.50 2.302
374.60 2.3
374.70 2.298
374.80 2.296
374.90 2.295
375.00 2.293
375.10 2.291
375.20 2.289
375.30 2.288
375.40 2.286
375.50 2.284
375.60 2.282
375.70 2.281
375.80 2.279
375.90 2.277
376.00 2.275
376.10 2.273
376.20 2.271
376.30 2.268
376.40 2.266
376.50 2.264
376.60 2.261
376.70 2.259
376.80 2.256
376.90 2.254
377.00 2.252
377.10 2.251
377.20 2.251
377.30 2.25
377.40 2.25
377.50 2.25
377.60 2.249
377.70 2.249
377.80 2.248
377.90 2.248
378.00 2.248
378.10 2.245
378.20 2.243
378.30 2.24
378.40 2.238
378.50 2.235
378.60 2.233
378.70 2.23
378.80 2.228
378.90 2.225
379.00 2.223
379.10 2.22
379.20 2.217
379.30 2.214
379.40 2.212
379.50 2.209
379.60 2.206
379.70 2.203
379.80 2.2
379.90 2.197
380.00 2.194
380.10 2.196
380.20 2.198
380.30 2.2
380.40 2.202
380.50 2.204
380.60 2.206
380.70 2.208
380.80 2.209
380.90 2.211
381.00 2.213
381.10 2.212
381.20 2.211
381.30 2.21
381.40 2.209
381.50 2.208
381.60 2.206
381.70 2.203
381.80 2.199
381.90 2.195
382.00 2.19
382.10 2.185
382.20 2.18
382.30 2.171
382.40 2.162
382.50 2.154
382.60 2.145
382.70 2.137
382.80 2.128
382.90 2.12
383.00 2.111
383.10 2.103
383.20 2.094
383.30 2.084
383.40 2.075
383.50 2.068
383.60 2.069
383.70 2.075
383.80 2.083
383.90 2.092
384.00 2.101
384.10 2.109
384.20 2.118
384.30 2.126
384.40 2.134
384.50 2.141
384.60 2.147
384.70 2.154
384.80 2.159
384.90 2.164
385.00 2.169
385.10 2.172
385.20 2.175
385.30 2.178
385.40 2.18
385.50 2.182
385.60 2.182
385.70 2.182
385.80 2.182
385.90 2.181
386.00 2.179
386.10 2.177
386.20 2.174
386.30 2.17
386.40 2.165
386.50 2.16
386.60 2.154
386.70 2.148
386.80 2.141
386.90 2.132
387.00 2.123
387.10 2.114
387.20 2.104
387.30 2.092
387.40 2.081
387.50 2.068
387.60 2.054
387.70 2.04
387.80 2.024
387.90 2.008
388.00 1.992
388.10 1.974
388.20 1.955
388.30 1.937
388.40 1.917
388.50 1.897
388.60 1.878
388.70 1.86
388.80 1.846
388.90 1.836
389.00 1.843
389.10 1.855
389.20 1.87
389.30 1.888
389.40 1.905
389.50 1.923
389.60 1.94
389.70 1.957
389.80 1.973
389.90 1.988
390.00 2.003
390.10 2.017
390.20 2.03
390.30 2.042
390.40 2.054
390.50 2.065
390.60 2.076
390.70 2.086
390.80 2.095
390.90 2.103
391.00 2.111
391.10 2.118
391.20 2.125
391.30 2.131
391.40 2.136
391.50 2.141
391.60 2.146
391.70 2.149
391.80 2.153
391.90 2.156
392.00 2.158
392.10 2.16
392.20 2.161
392.30 2.162
392.40 2.162
392.50 2.162
392.60 2.162
392.70 2.16
392.80 2.159
392.90 2.157
393.00 2.154
393.10 2.151
393.20 2.147
393.30 2.143
393.40 2.139
393.50 2.134
393.60 2.128
393.70 2.122
393.80 2.115
393.90 2.108
394.00 2.1
394.10 2.091
394.20 2.082
394.30 2.072
394.40 2.062
394.50 2.051
394.60 2.039
394.70 2.026
394.80 2.013
394.90 1.999
395.00 1.984
395.10 1.969
395.20 1.952
395.30 1.935
395.40 1.917
395.50 1.898
395.60 1.878
395.70 1.857
395.80 1.836
395.90 1.813
396.00 1.789
396.10 1.764
396.20 1.738
396.30 1.711
396.40 1.683
396.50 1.654
396.60 1.624
396.70 1.593
396.80 1.562
396.90 1.531
397.00 1.5
397.10 1.526
397.20 1.553
397.30 1.582
397.40 1.611
397.50 1.638
397.60 1.665
397.70 1.69
397.80 1.715
397.90 1.739
398.00 1.761
398.10 1.782
398.20 1.802
398.30 1.821
398.40 1.839
398.50 1.857
398.60 1.873
398.70 1.889
398.80 1.904
398.90 1.918
399.00 1.931
399.10 1.944
399.20 1.955
399.30 1.966
399.40 1.977
399.50 1.987
399.60 1.996
399.70 2.005
399.80 2.013
399.90 2.021
400.00 2.028
400.10 2.035
400.20 2.041
400.30 2.047
400.40 2.053
400.50 2.058
400.60 2.063
400.70 2.067
400.80 2.071
400.90 2.075
401.00 2.078
401.10 2.081
401.20 2.084
401.30 2.086
401.40 2.088
401.50 2.09
401.60 2.092
401.70 2.094
401.80 2.095
401.90 2.096
402.00 2.097
402.10 2.098
402.20 2.098
402.30 2.098
402.40 2.098
402.50 2.098
402.60 2.098
402.70 2.098
402.80 2.097
402.90 2.096
403.00 2.095
403.10 2.094
403.20 2.093
403.30 2.092
403.40 2.09
403.50 2.088
403.60 2.086
403.70 2.084
403.80 2.082
403.90 2.08
404.00 2.077
404.10 2.075
404.20 2.072
404.30 2.069
404.40 2.066
404.50 2.063
404.60 2.059
404.70 2.055
404.80 2.052
404.90 2.047
405.00 2.043
405.10 2.039
405.20 2.034
405.30 2.029
405.40 2.024
405.50 2.019
405.60 2.013
405.70 2.008
405.80 2.002
405.90 1.995
406.00 1.989
406.10 1.982
406.20 1.975
406.30 1.967
406.40 1.959
406.50 1.951
406.60 1.942
406.70 1.933
406.80 1.924
406.90 1.914
407.00 1.904
407.10 1.894
407.20 1.883
407.30 1.871
407.40 1.859
407.50 1.846
407.60 1.833
407.70 1.819
407.80 1.805
407.90 1.79
408.00 1.775
408.10 1.759
408.20 1.741
408.30 1.724
408.40 1.706
408.50 1.686
408.60 1.666
408.70 1.645
408.80 1.623
408.90 1.6
409.00 1.577
409.10 1.551
409.20 1.525
409.30 1.498
409.40 1.469
409.50 1.439
409.60 1.407
409.70 1.373
409.80 1.337
409.90 1.3
410.00 1.261
410.10 1.234
410.20 1.22
410.30 1.246
410.40 1.277
410.50 1.314
410.60 1.348
410.70 1.381
410.80 1.411
410.90 1.44
411.00 1.467
411.10 1.492
411.20 1.516
411.30 1.539
411.40 1.561
411.50 1.581
411.60 1.6
411.70 1.619
411.80 1.636
411.90 1.653
412.00 1.669
412.10 1.684
412.20 1.698
412.30 1.711
412.40 1.724
412.50 1.736
412.60 1.748
412.70 1.758
412.80 1.768
412.90 1.778
413.00 1.787
413.10 1.796
413.20 1.804
413.30 1.811
413.40 1.818
413.50 1.825
413.60 1.831
413.70 1.837
413.80 1.843
413.90 1.848
414.00 1.853
414.10 1.858
414.20 1.862
414.30 1.866
414.40 1.87
414.50 1.873
414.60 1.876
414.70 1.879
414.80 1.882
414.90 1.884
415.00 1.887
415.10 1.889
415.20 1.891
415.30 1.893
415.40 1.894
415.50 1.896
415.60 1.897
415.70 1.898
415.80 1.899
415.90 1.9
416.00 1.901
416.10 1.902
416.20 1.902
416.30 1.903
416.40 1.903
416.50 1.903
416.60 1.903
416.70 1.904
416.80 1.904
416.90 1.904
417.00 1.903
417.10 1.903
417.20 1.903
417.30 1.903
417.40 1.902
417.50 1.902
417.60 1.901
417.70 1.901
417.80 1.9
417.90 1.9
418.00 1.899
418.10 1.898
418.20 1.898
418.30 1.897
418.40 1.896
418.50 1.895
418.60 1.894
418.70 1.893
418.80 1.892
418.90 1.891
419.00 1.89
419.10 1.889
419.20 1.888
419.30 1.887
419.40 1.886
419.50 1.885
419.60 1.884
419.70 1.882
419.80 1.881
419.90 1.88
420.00 1.879
420.10 1.877
420.20 1.876
420.30 1.875
420.40 1.873
420.50 1.872
420.60 1.871
420.70 1.869
420.80 1.868
420.90 1.867
421.00 1.865
421.10 1.864
421.20 1.862
421.30 1.861
421.40 1.859
421.50 1.858
421.60 1.856
421.70 1.855
421.80 1.853
421.90 1.852
422.00 1.85
422.10 1.848
422.20 1.847
422.30 1.845
422.40 1.844
422.50 1.842
422.60 1.84
422.70 1.839
422.80 1.837
422.90 1.835
423.00 1.834
423.10 1.832
423.20 1.83
423.30 1.828
423.40 1.827
423.50 1.825
423.60 1.823
423.70 1.821
423.80 1.819
423.90 1.818
424.00 1.816
424.10 1.814
424.20 1.812
424.30 1.81
424.40 1.808
424.50 1.806
424.60 1.804
424.70 1.802
424.80 1.8
424.90 1.798
425.00 1.796
425.10 1.794
425.20 1.792
425.30 1.79
425.40 1.788
425.50 1.786
425.60 1.784
425.70 1.781
425.80 1.779
425.90 1.777
426.00 1.775
426.10 1.772
426.20 1.77
426.30 1.768
426.40 1.765
426.50 1.763
426.60 1.76
426.70 1.758
426.80 1.755
426.90 1.752
427.00 1.75
427.10 1.747
427.20 1.744
427.30 1.741
427.40 1.738
427.50 1.735
427.60 1.732
427.70 1.729
427.80 1.726
427.90 1.723
428.00 1.719
428.10 1.716
428.20 1.712
428.30 1.709
428.40 1.705
428.50 1.701
428.60 1.697
428.70 1.693
428.80 1.689
428.90 1.684
429.00 1.68
429.10 1.675
429.20 1.67
429.30 1.665
429.40 1.66
429.50 1.655
429.60 1.649
429.70 1.644
429.80 1.638
429.90 1.632
430.00 1.625
430.10 1.619
430.20 1.612
430.30 1.605
430.40 1.597
430.50 1.59
430.60 1.582
430.70 1.574
430.80 1.565
430.90 1.556
431.00 1.547
431.10 1.537
431.20 1.527
431.30 1.517
431.40 1.506
431.50 1.495
431.60 1.483
431.70 1.471
431.80 1.458
431.90 1.445
432.00 1.431
432.10 1.417
432.20 1.401
432.30 1.386
432.40 1.369
432.50 1.352
432.60 1.334
432.70 1.315
432.80 1.295
432.90 1.275
433.00 1.253
433.10 1.23
433.20 1.206
433.30 1.181
433.40 1.153
433.50 1.124
433.60 1.094
433.70 1.06
433.80 1.024
433.90 0.9857
434.00 0.9438
434.10 0.9441
434.20 0.9866
434.30 1.023
434.40 1.057
434.50 1.089
434.60 1.118
434.70 1.145
434.80 1.17
434.90 1.193
435.00 1.215
435.10 1.236
435.20 1.255
435.30 1.274
435.40 1.291
435.50 1.308
435.60 1.323
435.70 1.338
435.80 1.352
435.90 1.365
436.00 1.378
436.10 1.389
436.20 1.401
436.30 1.411
436.40 1.421
436.50 1.431
436.60 1.44
436.70 1.448
436.80 1.456
436.90 1.464
437.00 1.471
437.10 1.478
437.20 1.484
437.30 1.49
437.40 1.496
437.50 1.501
437.60 1.506
437.70 1.511
437.80 1.515
437.90 1.519
438.00 1.523
438.10 1.527
438.20 1.53
438.30 1.534
438.40 1.537
438.50 1.539
438.60 1.542
438.70 1.544
438.80 1.546
438.90 1.548
439.00 1.55
439.10 1.552
439.20 1.553
439.30 1.555
439.40 1.556
439.50 1.557
439.60 1.558
439.70 1.559
439.80 1.56
439.90 1.561
440.00 1.561
440.10 1.562
440.20 1.562
440.30 1.563
440.40 1.563
440.50 1.563
440.60 1.563
440.70 1.563
440.80 1.563
440.90 1.563
441.00 1.563
441.10 1.563
441.20 1.563
441.30 1.562
441.40 1.562
441.50 1.562
441.60 1.561
441.70 1.561
441.80 1.561
441.90 1.56
442.00 1.56
442.10 1.559
442.20 1.558
442.30 1.558
442.40 1.557
442.50 1.557
442.60 1.556
442.70 1.555
442.80 1.555
442.90 1.554
443.00 1.553
443.10 1.552
443.20 1.551
443.30 1.551
443.40 1.55
443.50 1.549
443.60 1.548
443.70 1.547
443.80 1.546
443.90 1.545
444.00 1.545
444.10 1.544
444.20 1.543
444.30 1.542
444.40 1.541
444.50 1.54
444.60 1.539
444.70 1.538
444.80 1.537
444.90 1.536
445.00 1.535
445.10 1.534
445.20 1.533
445.30 1.532
445.40 1.531
445.50 1.53
445.60 1.529
445.70 1.528
445.80 1.527
445.90 1.526
446.00 1.525
446.10 1.524
446.20 1.523
446.30 1.521
446.40 1.52
446.50 1.519
446.60 1.518
446.70 1.517
446.80 1.516
446.90 1.515
447.00 1.514
447.10 1.513
447.20 1.512
447.30 1.511
447.40 1.509
447.50 1.508
447.60 1.507
447.70 1.506
447.80 1.505
447.90 1.504
448.00 1.503
448.10 1.502
448.20 1.5
448.30 1.499
448.40 1.498
448.50 1.497
448.60 1.496
448.70 1.495
448.80 1.494
448.90 1.493
449.00 1.491
449.10 1.49
449.20 1.489
449.30 1.488
449.40 1.487
449.50 1.486
449.60 1.485
449.70 1.483
449.80 1.482
449.90 1.481
450.00 1.48
450.10 1.479
450.20 1.478
450.30 1.477
450.40 1.475
450.50 1.474
450.60 1.473
450.70 1.472
450.80 1.471
450.90 1.47
451.00 1.468
451.10 1.467
451.20 1.466
451.30 1.465
451.40 1.464
451.50 1.463
451.60 1.462
451.70 1.46
451.80 1.459
451.90 1.458
452.00 1.457
452.10 1.456
452.20 1.455
452.30 1.454
452.40 1.452
452.50 1.451
452.60 1.45
452.70 1.449
452.80 1.448
452.90 1.447
453.00 1.445
453.10 1.444
453.20 1.443
453.30 1.442
453.40 1.441
453.50 1.44
453.60 1.439
453.70 1.437
453.80 1.436
453.90 1.435
454.00 1.434
454.10 1.433
454.20 1.432
