# Version 2.1 - nm, norm@500 to 1, cut digits, bergeron_40000_90.dat_40000
# Wavelength(nm)  Flambda(ergs/cm^s/s/nm)
300.00 5.912
300.10 5.905
300.20 5.898
300.30 5.891
300.40 5.885
300.50 5.878
300.60 5.871
300.70 5.864
300.80 5.857
300.90 5.85
301.00 5.843
301.10 5.836
301.20 5.829
301.30 5.822
301.40 5.815
301.50 5.808
301.60 5.802
301.70 5.795
301.80 5.788
301.90 5.781
302.00 5.774
302.10 5.767
302.20 5.761
302.30 5.754
302.40 5.747
302.50 5.74
302.60 5.734
302.70 5.727
302.80 5.72
302.90 5.713
303.00 5.707
303.10 5.7
303.20 5.693
303.30 5.687
303.40 5.68
303.50 5.673
303.60 5.667
303.70 5.66
303.80 5.653
303.90 5.647
304.00 5.64
304.10 5.633
304.20 5.627
304.30 5.62
304.40 5.614
304.50 5.607
304.60 5.601
304.70 5.594
304.80 5.587
304.90 5.581
305.00 5.574
305.10 5.568
305.20 5.561
305.30 5.555
305.40 5.548
305.50 5.542
305.60 5.535
305.70 5.529
305.80 5.523
305.90 5.516
306.00 5.51
306.10 5.503
306.20 5.497
306.30 5.491
306.40 5.484
306.50 5.478
306.60 5.471
306.70 5.465
306.80 5.459
306.90 5.452
307.00 5.446
307.10 5.44
307.20 5.433
307.30 5.427
307.40 5.421
307.50 5.414
307.60 5.408
307.70 5.402
307.80 5.396
307.90 5.389
308.00 5.383
308.10 5.377
308.20 5.371
308.30 5.364
308.40 5.358
308.50 5.352
308.60 5.346
308.70 5.34
308.80 5.334
308.90 5.327
309.00 5.321
309.10 5.315
309.20 5.309
309.30 5.303
309.40 5.297
309.50 5.291
309.60 5.285
309.70 5.278
309.80 5.272
309.90 5.266
310.00 5.26
310.10 5.254
310.20 5.248
310.30 5.242
310.40 5.236
310.50 5.23
310.60 5.224
310.70 5.218
310.80 5.212
310.90 5.206
311.00 5.2
311.10 5.194
311.20 5.188
311.30 5.182
311.40 5.176
311.50 5.17
311.60 5.164
311.70 5.158
311.80 5.153
311.90 5.147
312.00 5.141
312.10 5.135
312.20 5.129
312.30 5.123
312.40 5.117
312.50 5.111
312.60 5.106
312.70 5.1
312.80 5.094
312.90 5.088
313.00 5.082
313.10 5.077
313.20 5.071
313.30 5.065
313.40 5.059
313.50 5.053
313.60 5.048
313.70 5.042
313.80 5.036
313.90 5.03
314.00 5.025
314.10 5.019
314.20 5.013
314.30 5.008
314.40 5.002
314.50 4.996
314.60 4.991
314.70 4.985
314.80 4.979
314.90 4.974
315.00 4.968
315.10 4.962
315.20 4.957
315.30 4.951
315.40 4.945
315.50 4.94
315.60 4.934
315.70 4.929
315.80 4.923
315.90 4.918
316.00 4.912
316.10 4.906
316.20 4.901
316.30 4.895
316.40 4.89
316.50 4.884
316.60 4.879
316.70 4.873
316.80 4.868
316.90 4.862
317.00 4.857
317.10 4.851
317.20 4.846
317.30 4.84
317.40 4.835
317.50 4.829
317.60 4.824
317.70 4.819
317.80 4.813
317.90 4.808
318.00 4.802
318.10 4.797
318.20 4.792
318.30 4.786
318.40 4.781
318.50 4.775
318.60 4.77
318.70 4.765
318.80 4.759
318.90 4.754
319.00 4.749
319.10 4.743
319.20 4.738
319.30 4.733
319.40 4.727
319.50 4.722
319.60 4.717
319.70 4.712
319.80 4.706
319.90 4.701
320.00 4.696
320.10 4.691
320.20 4.685
320.30 4.68
320.40 4.675
320.50 4.67
320.60 4.664
320.70 4.659
320.80 4.654
320.90 4.649
321.00 4.644
321.10 4.638
321.20 4.633
321.30 4.628
321.40 4.623
321.50 4.618
321.60 4.613
321.70 4.608
321.80 4.602
321.90 4.597
322.00 4.592
322.10 4.587
322.20 4.582
322.30 4.577
322.40 4.572
322.50 4.567
322.60 4.562
322.70 4.557
322.80 4.552
322.90 4.547
323.00 4.541
323.10 4.536
323.20 4.531
323.30 4.526
323.40 4.521
323.50 4.516
323.60 4.511
323.70 4.506
323.80 4.501
323.90 4.496
324.00 4.491
324.10 4.487
324.20 4.482
324.30 4.477
324.40 4.472
324.50 4.467
324.60 4.462
324.70 4.457
324.80 4.452
324.90 4.447
325.00 4.442
325.10 4.437
325.20 4.432
325.30 4.427
325.40 4.423
325.50 4.418
325.60 4.413
325.70 4.408
325.80 4.403
325.90 4.398
326.00 4.393
326.10 4.389
326.20 4.384
326.30 4.379
326.40 4.374
326.50 4.369
326.60 4.365
326.70 4.36
326.80 4.355
326.90 4.35
327.00 4.345
327.10 4.341
327.20 4.336
327.30 4.331
327.40 4.326
327.50 4.322
327.60 4.317
327.70 4.312
327.80 4.308
327.90 4.303
328.00 4.298
328.10 4.293
328.20 4.289
328.30 4.284
328.40 4.279
328.50 4.275
328.60 4.27
328.70 4.265
328.80 4.261
328.90 4.256
329.00 4.251
329.10 4.247
329.20 4.242
329.30 4.238
329.40 4.233
329.50 4.228
329.60 4.224
329.70 4.219
329.80 4.215
329.90 4.21
330.00 4.205
330.10 4.201
330.20 4.196
330.30 4.192
330.40 4.187
330.50 4.183
330.60 4.178
330.70 4.174
330.80 4.169
330.90 4.165
331.00 4.16
331.10 4.156
331.20 4.151
331.30 4.147
331.40 4.142
331.50 4.138
331.60 4.133
331.70 4.129
331.80 4.124
331.90 4.12
332.00 4.115
332.10 4.111
332.20 4.106
332.30 4.102
332.40 4.097
332.50 4.093
332.60 4.089
332.70 4.084
332.80 4.08
332.90 4.075
333.00 4.071
333.10 4.067
333.20 4.062
333.30 4.058
333.40 4.054
333.50 4.049
333.60 4.045
333.70 4.04
333.80 4.036
333.90 4.032
334.00 4.027
334.10 4.023
334.20 4.019
334.30 4.014
334.40 4.01
334.50 4.006
334.60 4.002
334.70 3.997
334.80 3.993
334.90 3.989
335.00 3.984
335.10 3.98
335.20 3.976
335.30 3.972
335.40 3.967
335.50 3.963
335.60 3.959
335.70 3.955
335.80 3.95
335.90 3.946
336.00 3.942
336.10 3.938
336.20 3.933
336.30 3.929
336.40 3.925
336.50 3.921
336.60 3.917
336.70 3.913
336.80 3.908
336.90 3.904
337.00 3.9
337.10 3.896
337.20 3.892
337.30 3.888
337.40 3.883
337.50 3.879
337.60 3.875
337.70 3.871
337.80 3.867
337.90 3.863
338.00 3.859
338.10 3.855
338.20 3.85
338.30 3.846
338.40 3.842
338.50 3.838
338.60 3.834
338.70 3.83
338.80 3.826
338.90 3.822
339.00 3.818
339.10 3.814
339.20 3.81
339.30 3.806
339.40 3.802
339.50 3.798
339.60 3.794
339.70 3.79
339.80 3.786
339.90 3.782
340.00 3.778
340.10 3.774
340.20 3.77
340.30 3.766
340.40 3.762
340.50 3.758
340.60 3.754
340.70 3.75
340.80 3.746
340.90 3.742
341.00 3.738
341.10 3.734
341.20 3.73
341.30 3.726
341.40 3.722
341.50 3.718
341.60 3.714
341.70 3.71
341.80 3.707
341.90 3.703
342.00 3.699
342.10 3.695
342.20 3.691
342.30 3.687
342.40 3.683
342.50 3.679
342.60 3.676
342.70 3.672
342.80 3.668
342.90 3.664
343.00 3.66
343.10 3.656
343.20 3.652
343.30 3.649
343.40 3.645
343.50 3.641
343.60 3.637
343.70 3.633
343.80 3.63
343.90 3.626
344.00 3.622
344.10 3.618
344.20 3.614
344.30 3.611
344.40 3.607
344.50 3.603
344.60 3.599
344.70 3.596
344.80 3.592
344.90 3.588
345.00 3.584
345.10 3.581
345.20 3.577
345.30 3.573
345.40 3.569
345.50 3.566
345.60 3.562
345.70 3.558
345.80 3.555
345.90 3.551
346.00 3.547
346.10 3.543
346.20 3.54
346.30 3.536
346.40 3.532
346.50 3.529
346.60 3.525
346.70 3.521
346.80 3.518
346.90 3.514
347.00 3.51
347.10 3.507
347.20 3.503
347.30 3.5
347.40 3.496
347.50 3.492
347.60 3.489
347.70 3.485
347.80 3.481
347.90 3.478
348.00 3.474
348.10 3.471
348.20 3.467
348.30 3.463
348.40 3.46
348.50 3.456
348.60 3.453
348.70 3.449
348.80 3.446
348.90 3.442
349.00 3.438
349.10 3.435
349.20 3.431
349.30 3.428
349.40 3.424
349.50 3.421
349.60 3.417
349.70 3.414
349.80 3.41
349.90 3.407
350.00 3.403
350.10 3.4
350.20 3.396
350.30 3.393
350.40 3.389
350.50 3.386
350.60 3.382
350.70 3.379
350.80 3.375
350.90 3.372
351.00 3.368
351.10 3.365
351.20 3.361
351.30 3.358
351.40 3.355
351.50 3.351
351.60 3.348
351.70 3.344
351.80 3.341
351.90 3.337
352.00 3.334
352.10 3.331
352.20 3.327
352.30 3.324
352.40 3.32
352.50 3.317
352.60 3.314
352.70 3.31
352.80 3.307
352.90 3.303
353.00 3.3
353.10 3.297
353.20 3.293
353.30 3.29
353.40 3.287
353.50 3.283
353.60 3.28
353.70 3.276
353.80 3.273
353.90 3.27
354.00 3.266
354.10 3.263
354.20 3.26
354.30 3.256
354.40 3.253
354.50 3.25
354.60 3.247
354.70 3.243
354.80 3.24
354.90 3.237
355.00 3.233
355.10 3.23
355.20 3.227
355.30 3.224
355.40 3.22
355.50 3.217
355.60 3.214
355.70 3.21
355.80 3.207
355.90 3.204
356.00 3.201
356.10 3.197
356.20 3.194
356.30 3.191
356.40 3.188
356.50 3.185
356.60 3.181
356.70 3.178
356.80 3.175
356.90 3.172
357.00 3.168
357.10 3.165
357.20 3.162
357.30 3.159
357.40 3.156
357.50 3.152
357.60 3.149
357.70 3.146
357.80 3.143
357.90 3.14
358.00 3.137
358.10 3.133
358.20 3.13
358.30 3.127
358.40 3.124
358.50 3.121
358.60 3.118
358.70 3.115
358.80 3.111
358.90 3.108
359.00 3.105
359.10 3.102
359.20 3.099
359.30 3.096
359.40 3.093
359.50 3.09
359.60 3.086
359.70 3.083
359.80 3.08
359.90 3.077
360.00 3.074
360.10 3.071
360.20 3.068
360.30 3.065
360.40 3.062
360.50 3.059
360.60 3.056
360.70 3.053
360.80 3.05
360.90 3.046
361.00 3.043
361.10 3.04
361.20 3.037
361.30 3.034
361.40 3.031
361.50 3.028
361.60 3.025
361.70 3.022
361.80 3.019
361.90 3.016
362.00 3.013
362.10 3.01
362.20 3.007
362.30 3.004
362.40 3.001
362.50 2.998
362.60 2.995
362.70 2.992
362.80 2.989
362.90 2.986
363.00 2.983
363.10 2.98
363.20 2.977
363.30 2.974
363.40 2.971
363.50 2.968
363.60 2.965
363.70 2.963
363.80 2.96
363.90 2.957
364.00 2.954
364.10 2.951
364.20 2.948
364.30 2.945
364.40 2.942
364.50 2.939
364.60 2.936
364.70 2.933
364.80 2.93
364.90 2.927
365.00 2.925
365.10 2.922
365.20 2.919
365.30 2.916
365.40 2.913
365.50 2.91
365.60 2.907
365.70 2.904
365.80 2.901
365.90 2.899
366.00 2.896
366.10 2.893
366.20 2.89
366.30 2.887
366.40 2.884
366.50 2.881
366.60 2.878
366.70 2.875
366.80 2.872
366.90 2.869
367.00 2.867
367.10 2.864
367.20 2.861
367.30 2.858
367.40 2.855
367.50 2.852
367.60 2.849
367.70 2.846
367.80 2.843
367.90 2.841
368.00 2.838
368.10 2.835
368.20 2.832
368.30 2.829
368.40 2.826
368.50 2.823
368.60 2.82
368.70 2.817
368.80 2.814
368.90 2.811
369.00 2.808
369.10 2.805
369.20 2.802
369.30 2.799
369.40 2.796
369.50 2.793
369.60 2.79
369.70 2.788
369.80 2.785
369.90 2.782
370.00 2.779
370.10 2.776
370.20 2.773
370.30 2.77
370.40 2.767
370.50 2.764
370.60 2.762
370.70 2.759
370.80 2.756
370.90 2.753
371.00 2.75
371.10 2.747
371.20 2.745
371.30 2.742
371.40 2.739
371.50 2.736
371.60 2.733
371.70 2.73
371.80 2.728
371.90 2.725
372.00 2.722
372.10 2.719
372.20 2.717
372.30 2.714
372.40 2.711
372.50 2.709
372.60 2.706
372.70 2.704
372.80 2.701
372.90 2.698
373.00 2.696
373.10 2.693
373.20 2.69
373.30 2.688
373.40 2.685
373.50 2.683
373.60 2.68
373.70 2.677
373.80 2.675
373.90 2.672
374.00 2.67
374.10 2.667
374.20 2.664
374.30 2.661
374.40 2.659
374.50 2.656
374.60 2.653
374.70 2.651
374.80 2.648
374.90 2.645
375.00 2.642
375.10 2.64
375.20 2.637
375.30 2.634
375.40 2.632
375.50 2.629
375.60 2.626
375.70 2.624
375.80 2.621
375.90 2.618
376.00 2.616
376.10 2.613
376.20 2.61
376.30 2.608
376.40 2.605
376.50 2.603
376.60 2.6
376.70 2.597
376.80 2.595
376.90 2.592
377.00 2.589
377.10 2.587
377.20 2.584
377.30 2.582
377.40 2.579
377.50 2.577
377.60 2.574
377.70 2.572
377.80 2.569
377.90 2.567
378.00 2.564
378.10 2.562
378.20 2.559
378.30 2.557
378.40 2.555
378.50 2.552
378.60 2.55
378.70 2.547
378.80 2.545
378.90 2.542
379.00 2.54
379.10 2.537
379.20 2.535
379.30 2.533
379.40 2.53
379.50 2.528
379.60 2.525
379.70 2.523
379.80 2.52
379.90 2.518
380.00 2.516
380.10 2.513
380.20 2.511
380.30 2.509
380.40 2.506
380.50 2.504
380.60 2.502
380.70 2.5
380.80 2.497
380.90 2.495
381.00 2.493
381.10 2.49
381.20 2.488
381.30 2.486
381.40 2.484
381.50 2.481
381.60 2.479
381.70 2.477
381.80 2.474
381.90 2.472
382.00 2.47
382.10 2.468
382.20 2.465
382.30 2.463
382.40 2.461
382.50 2.458
382.60 2.456
382.70 2.454
382.80 2.452
382.90 2.449
383.00 2.447
383.10 2.445
383.20 2.442
383.30 2.44
383.40 2.438
383.50 2.436
383.60 2.434
383.70 2.432
383.80 2.43
383.90 2.428
384.00 2.426
384.10 2.424
384.20 2.422
384.30 2.42
384.40 2.418
384.50 2.416
384.60 2.414
384.70 2.412
384.80 2.41
384.90 2.408
385.00 2.406
385.10 2.404
385.20 2.402
385.30 2.4
385.40 2.398
385.50 2.396
385.60 2.394
385.70 2.392
385.80 2.39
385.90 2.388
386.00 2.386
386.10 2.384
386.20 2.381
386.30 2.379
386.40 2.377
386.50 2.375
386.60 2.373
386.70 2.37
386.80 2.368
386.90 2.366
387.00 2.364
387.10 2.361
387.20 2.359
387.30 2.357
387.40 2.354
387.50 2.352
387.60 2.35
387.70 2.347
387.80 2.345
387.90 2.343
388.00 2.34
388.10 2.338
388.20 2.336
388.30 2.333
388.40 2.331
388.50 2.329
388.60 2.327
388.70 2.325
388.80 2.323
388.90 2.321
389.00 2.319
389.10 2.318
389.20 2.316
389.30 2.315
389.40 2.313
389.50 2.312
389.60 2.311
389.70 2.309
389.80 2.308
389.90 2.307
390.00 2.305
390.10 2.304
390.20 2.303
390.30 2.302
390.40 2.3
390.50 2.299
390.60 2.297
390.70 2.296
390.80 2.295
390.90 2.293
391.00 2.292
391.10 2.29
391.20 2.289
391.30 2.287
391.40 2.285
391.50 2.284
391.60 2.282
391.70 2.28
391.80 2.278
391.90 2.277
392.00 2.275
392.10 2.273
392.20 2.271
392.30 2.269
392.40 2.267
392.50 2.265
392.60 2.262
392.70 2.26
392.80 2.258
392.90 2.256
393.00 2.253
393.10 2.251
393.20 2.248
393.30 2.246
393.40 2.243
393.50 2.241
393.60 2.238
393.70 2.235
393.80 2.233
393.90 2.23
394.00 2.227
394.10 2.224
394.20 2.221
394.30 2.218
394.40 2.215
394.50 2.212
394.60 2.208
394.70 2.205
394.80 2.202
394.90 2.199
395.00 2.195
395.10 2.192
395.20 2.188
395.30 2.185
395.40 2.181
395.50 2.178
395.60 2.174
395.70 2.17
395.80 2.167
395.90 2.163
396.00 2.159
396.10 2.156
396.20 2.152
396.30 2.148
396.40 2.145
396.50 2.141
396.60 2.138
396.70 2.134
396.80 2.131
396.90 2.128
397.00 2.125
397.10 2.125
397.20 2.125
397.30 2.125
397.40 2.125
397.50 2.125
397.60 2.126
397.70 2.127
397.80 2.127
397.90 2.128
398.00 2.128
398.10 2.129
398.20 2.13
398.30 2.13
398.40 2.131
398.50 2.131
398.60 2.132
398.70 2.132
398.80 2.133
398.90 2.133
399.00 2.133
399.10 2.134
399.20 2.134
399.30 2.134
399.40 2.134
399.50 2.134
399.60 2.134
399.70 2.134
399.80 2.134
399.90 2.134
400.00 2.134
400.10 2.133
400.20 2.133
400.30 2.133
400.40 2.132
400.50 2.132
400.60 2.131
400.70 2.131
400.80 2.13
400.90 2.129
401.00 2.128
401.10 2.128
401.20 2.127
401.30 2.126
401.40 2.125
401.50 2.124
401.60 2.123
401.70 2.121
401.80 2.12
401.90 2.119
402.00 2.117
402.10 2.116
402.20 2.114
402.30 2.113
402.40 2.111
402.50 2.11
402.60 2.108
402.70 2.106
402.80 2.104
402.90 2.102
403.00 2.1
403.10 2.098
403.20 2.096
403.30 2.094
403.40 2.092
403.50 2.09
403.60 2.087
403.70 2.085
403.80 2.082
403.90 2.08
404.00 2.077
404.10 2.074
404.20 2.072
404.30 2.069
404.40 2.066
404.50 2.063
404.60 2.06
404.70 2.057
404.80 2.054
404.90 2.05
405.00 2.047
405.10 2.044
405.20 2.04
405.30 2.037
405.40 2.033
405.50 2.029
405.60 2.025
405.70 2.021
405.80 2.017
405.90 2.013
406.00 2.009
406.10 2.005
406.20 2.001
406.30 1.996
406.40 1.992
406.50 1.987
406.60 1.983
406.70 1.978
406.80 1.973
406.90 1.968
407.00 1.963
407.10 1.958
407.20 1.953
407.30 1.947
407.40 1.942
407.50 1.937
407.60 1.931
407.70 1.925
407.80 1.92
407.90 1.914
408.00 1.908
408.10 1.902
408.20 1.896
408.30 1.889
408.40 1.883
408.50 1.877
408.60 1.87
408.70 1.864
408.80 1.858
408.90 1.851
409.00 1.845
409.10 1.838
409.20 1.832
409.30 1.826
409.40 1.82
409.50 1.814
409.60 1.809
409.70 1.804
409.80 1.8
409.90 1.796
410.00 1.795
410.10 1.794
410.20 1.794
410.30 1.791
410.40 1.789
410.50 1.789
410.60 1.79
410.70 1.792
410.80 1.794
410.90 1.797
411.00 1.8
411.10 1.803
411.20 1.806
411.30 1.81
411.40 1.813
411.50 1.817
411.60 1.82
411.70 1.824
411.80 1.827
411.90 1.831
412.00 1.834
412.10 1.837
412.20 1.841
412.30 1.844
412.40 1.847
412.50 1.85
412.60 1.852
412.70 1.855
412.80 1.858
412.90 1.86
413.00 1.863
413.10 1.865
413.20 1.867
413.30 1.87
413.40 1.872
413.50 1.874
413.60 1.876
413.70 1.877
413.80 1.879
413.90 1.881
414.00 1.882
414.10 1.884
414.20 1.885
414.30 1.887
414.40 1.888
414.50 1.889
414.60 1.89
414.70 1.891
414.80 1.892
414.90 1.893
415.00 1.894
415.10 1.895
415.20 1.895
415.30 1.896
415.40 1.897
415.50 1.897
415.60 1.898
415.70 1.898
415.80 1.898
415.90 1.899
416.00 1.899
416.10 1.899
416.20 1.899
416.30 1.899
416.40 1.899
416.50 1.899
416.60 1.899
416.70 1.899
416.80 1.899
416.90 1.899
417.00 1.898
417.10 1.898
417.20 1.898
417.30 1.897
417.40 1.897
417.50 1.897
417.60 1.896
417.70 1.896
417.80 1.895
417.90 1.894
418.00 1.894
418.10 1.893
418.20 1.892
418.30 1.892
418.40 1.891
418.50 1.89
418.60 1.889
418.70 1.888
418.80 1.888
418.90 1.887
419.00 1.886
419.10 1.885
419.20 1.884
419.30 1.883
419.40 1.882
419.50 1.881
419.60 1.879
419.70 1.878
419.80 1.877
419.90 1.876
420.00 1.875
420.10 1.874
420.20 1.872
420.30 1.871
420.40 1.87
420.50 1.868
420.60 1.867
420.70 1.866
420.80 1.864
420.90 1.863
421.00 1.861
421.10 1.86
421.20 1.859
421.30 1.857
421.40 1.855
421.50 1.854
421.60 1.852
421.70 1.851
421.80 1.849
421.90 1.848
422.00 1.846
422.10 1.844
422.20 1.843
422.30 1.841
422.40 1.839
422.50 1.837
422.60 1.836
422.70 1.834
422.80 1.832
422.90 1.83
423.00 1.828
423.10 1.826
423.20 1.824
423.30 1.822
423.40 1.821
423.50 1.819
423.60 1.817
423.70 1.814
423.80 1.812
423.90 1.81
424.00 1.808
424.10 1.806
424.20 1.804
424.30 1.802
424.40 1.8
424.50 1.797
424.60 1.795
424.70 1.793
424.80 1.79
424.90 1.788
425.00 1.786
425.10 1.783
425.20 1.781
425.30 1.778
425.40 1.776
425.50 1.773
425.60 1.771
425.70 1.768
425.80 1.765
425.90 1.763
426.00 1.76
426.10 1.757
426.20 1.754
426.30 1.751
426.40 1.749
426.50 1.746
426.60 1.743
426.70 1.74
426.80 1.737
426.90 1.733
427.00 1.73
427.10 1.727
427.20 1.724
427.30 1.721
427.40 1.717
427.50 1.714
427.60 1.71
427.70 1.707
427.80 1.703
427.90 1.7
428.00 1.696
428.10 1.692
428.20 1.688
428.30 1.684
428.40 1.68
428.50 1.676
428.60 1.672
428.70 1.668
428.80 1.664
428.90 1.66
429.00 1.655
429.10 1.651
429.20 1.646
429.30 1.642
429.40 1.637
429.50 1.632
429.60 1.627
429.70 1.622
429.80 1.617
429.90 1.612
430.00 1.607
430.10 1.602
430.20 1.596
430.30 1.591
430.40 1.585
430.50 1.58
430.60 1.574
430.70 1.568
430.80 1.562
430.90 1.556
431.00 1.55
431.10 1.543
431.20 1.537
431.30 1.53
431.40 1.524
431.50 1.517
431.60 1.51
431.70 1.503
431.80 1.496
431.90 1.488
432.00 1.481
432.10 1.474
432.20 1.466
432.30 1.458
432.40 1.451
432.50 1.443
432.60 1.435
432.70 1.427
432.80 1.418
432.90 1.41
433.00 1.402
433.10 1.394
433.20 1.385
433.30 1.377
433.40 1.368
433.50 1.36
433.60 1.351
433.70 1.341
433.80 1.331
433.90 1.319
434.00 1.307
434.10 1.306
434.20 1.317
434.30 1.327
434.40 1.335
434.50 1.342
434.60 1.349
434.70 1.356
434.80 1.362
434.90 1.368
435.00 1.374
435.10 1.38
435.20 1.386
435.30 1.392
435.40 1.398
435.50 1.404
435.60 1.409
435.70 1.415
435.80 1.42
435.90 1.425
436.00 1.431
436.10 1.436
436.20 1.44
436.30 1.445
436.40 1.45
436.50 1.454
436.60 1.459
436.70 1.463
436.80 1.467
436.90 1.471
437.00 1.475
437.10 1.479
437.20 1.482
437.30 1.486
437.40 1.489
437.50 1.492
437.60 1.495
437.70 1.498
437.80 1.501
437.90 1.504
438.00 1.507
438.10 1.509
438.20 1.512
438.30 1.514
438.40 1.516
438.50 1.519
438.60 1.521
438.70 1.523
438.80 1.525
438.90 1.527
439.00 1.528
439.10 1.53
439.20 1.532
439.30 1.533
439.40 1.535
439.50 1.536
439.60 1.537
439.70 1.538
439.80 1.54
439.90 1.541
440.00 1.542
440.10 1.543
440.20 1.544
440.30 1.544
440.40 1.545
440.50 1.546
440.60 1.547
440.70 1.547
440.80 1.548
440.90 1.548
441.00 1.549
441.10 1.549
441.20 1.55
441.30 1.55
441.40 1.55
441.50 1.55
441.60 1.551
441.70 1.551
441.80 1.551
441.90 1.551
442.00 1.551
442.10 1.551
442.20 1.551
442.30 1.551
442.40 1.551
442.50 1.551
442.60 1.55
442.70 1.55
442.80 1.55
442.90 1.55
443.00 1.549
443.10 1.549
443.20 1.549
443.30 1.548
443.40 1.548
443.50 1.548
443.60 1.547
443.70 1.547
443.80 1.546
443.90 1.546
444.00 1.545
444.10 1.545
444.20 1.544
444.30 1.544
444.40 1.543
444.50 1.542
444.60 1.542
444.70 1.541
444.80 1.541
444.90 1.54
445.00 1.539
445.10 1.538
445.20 1.538
445.30 1.537
445.40 1.536
445.50 1.536
445.60 1.535
445.70 1.534
445.80 1.533
445.90 1.532
446.00 1.532
446.10 1.531
446.20 1.53
446.30 1.529
446.40 1.528
446.50 1.527
446.60 1.526
446.70 1.526
446.80 1.525
446.90 1.524
447.00 1.523
447.10 1.522
447.20 1.521
447.30 1.52
447.40 1.519
447.50 1.518
447.60 1.517
447.70 1.516
447.80 1.515
447.90 1.514
448.00 1.513
448.10 1.512
448.20 1.511
448.30 1.51
448.40 1.509
448.50 1.508
448.60 1.507
448.70 1.506
448.80 1.505
448.90 1.504
449.00 1.503
449.10 1.502
449.20 1.501
449.30 1.5
449.40 1.499
449.50 1.498
449.60 1.497
449.70 1.496
449.80 1.495
449.90 1.494
450.00 1.493
450.10 1.492
450.20 1.491
450.30 1.49
450.40 1.488
450.50 1.487
450.60 1.486
450.70 1.485
450.80 1.484
450.90 1.483
451.00 1.482
451.10 1.481
451.20 1.48
451.30 1.479
451.40 1.478
451.50 1.476
451.60 1.475
451.70 1.474
451.80 1.473
451.90 1.472
452.00 1.471
452.10 1.47
452.20 1.469
452.30 1.468
452.40 1.466
452.50 1.465
452.60 1.464
452.70 1.463
452.80 1.462
452.90 1.461
453.00 1.46
453.10 1.458
453.20 1.457
453.30 1.456
453.40 1.455
453.50 1.454
453.60 1.453
453.70 1.452
453.80 1.451
453.90 1.449
454.00 1.448
454.10 1.447
454.20 1.446
454.30 1.445
