# Version 2.1 - nm, norm@500 to 1, cut digits, bergeron_7000_80.dat_7000
# Wavelength(nm)  Flambda(ergs/cm^s/s/nm)
300.00 1.082
300.10 1.083
300.20 1.083
300.30 1.083
300.40 1.084
300.50 1.084
300.60 1.084
300.70 1.084
300.80 1.085
300.90 1.085
301.00 1.085
301.10 1.086
301.20 1.086
301.30 1.086
301.40 1.087
301.50 1.087
301.60 1.087
301.70 1.087
301.80 1.088
301.90 1.088
302.00 1.088
302.10 1.089
302.20 1.089
302.30 1.089
302.40 1.089
302.50 1.09
302.60 1.09
302.70 1.09
302.80 1.091
302.90 1.091
303.00 1.091
303.10 1.091
303.20 1.092
303.30 1.092
303.40 1.092
303.50 1.093
303.60 1.093
303.70 1.093
303.80 1.093
303.90 1.094
304.00 1.094
304.10 1.094
304.20 1.094
304.30 1.095
304.40 1.095
304.50 1.095
304.60 1.096
304.70 1.096
304.80 1.096
304.90 1.096
305.00 1.097
305.10 1.097
305.20 1.097
305.30 1.097
305.40 1.098
305.50 1.098
305.60 1.098
305.70 1.099
305.80 1.099
305.90 1.099
306.00 1.099
306.10 1.1
306.20 1.1
306.30 1.1
306.40 1.1
306.50 1.101
306.60 1.101
306.70 1.101
306.80 1.101
306.90 1.102
307.00 1.102
307.10 1.102
307.20 1.102
307.30 1.103
307.40 1.103
307.50 1.103
307.60 1.104
307.70 1.104
307.80 1.104
307.90 1.104
308.00 1.105
308.10 1.105
308.20 1.105
308.30 1.105
308.40 1.106
308.50 1.106
308.60 1.106
308.70 1.106
308.80 1.107
308.90 1.107
309.00 1.107
309.10 1.107
309.20 1.108
309.30 1.108
309.40 1.108
309.50 1.108
309.60 1.109
309.70 1.109
309.80 1.109
309.90 1.109
310.00 1.11
310.10 1.11
310.20 1.11
310.30 1.11
310.40 1.11
310.50 1.111
310.60 1.111
310.70 1.111
310.80 1.111
310.90 1.112
311.00 1.112
311.10 1.112
311.20 1.112
311.30 1.113
311.40 1.113
311.50 1.113
311.60 1.113
311.70 1.114
311.80 1.114
311.90 1.114
312.00 1.114
312.10 1.114
312.20 1.115
312.30 1.115
312.40 1.115
312.50 1.115
312.60 1.116
312.70 1.116
312.80 1.116
312.90 1.116
313.00 1.116
313.10 1.117
313.20 1.117
313.30 1.117
313.40 1.117
313.50 1.118
313.60 1.118
313.70 1.118
313.80 1.118
313.90 1.118
314.00 1.119
314.10 1.119
314.20 1.119
314.30 1.119
314.40 1.12
314.50 1.12
314.60 1.12
314.70 1.12
314.80 1.12
314.90 1.121
315.00 1.121
315.10 1.121
315.20 1.121
315.30 1.122
315.40 1.122
315.50 1.122
315.60 1.122
315.70 1.122
315.80 1.123
315.90 1.123
316.00 1.123
316.10 1.123
316.20 1.123
316.30 1.124
316.40 1.124
316.50 1.124
316.60 1.124
316.70 1.124
316.80 1.125
316.90 1.125
317.00 1.125
317.10 1.125
317.20 1.125
317.30 1.126
317.40 1.126
317.50 1.126
317.60 1.126
317.70 1.126
317.80 1.127
317.90 1.127
318.00 1.127
318.10 1.127
318.20 1.127
318.30 1.128
318.40 1.128
318.50 1.128
318.60 1.128
318.70 1.128
318.80 1.129
318.90 1.129
319.00 1.129
319.10 1.129
319.20 1.129
319.30 1.13
319.40 1.13
319.50 1.13
319.60 1.13
319.70 1.13
319.80 1.13
319.90 1.131
320.00 1.131
320.10 1.131
320.20 1.131
320.30 1.131
320.40 1.132
320.50 1.132
320.60 1.132
320.70 1.132
320.80 1.132
320.90 1.133
321.00 1.133
321.10 1.133
321.20 1.133
321.30 1.133
321.40 1.133
321.50 1.134
321.60 1.134
321.70 1.134
321.80 1.134
321.90 1.134
322.00 1.134
322.10 1.135
322.20 1.135
322.30 1.135
322.40 1.135
322.50 1.135
322.60 1.136
322.70 1.136
322.80 1.136
322.90 1.136
323.00 1.136
323.10 1.136
323.20 1.137
323.30 1.137
323.40 1.137
323.50 1.137
323.60 1.137
323.70 1.137
323.80 1.138
323.90 1.138
324.00 1.138
324.10 1.138
324.20 1.138
324.30 1.138
324.40 1.139
324.50 1.139
324.60 1.139
324.70 1.139
324.80 1.139
324.90 1.139
325.00 1.139
325.10 1.14
325.20 1.14
325.30 1.14
325.40 1.14
325.50 1.14
325.60 1.14
325.70 1.141
325.80 1.141
325.90 1.141
326.00 1.141
326.10 1.141
326.20 1.141
326.30 1.142
326.40 1.142
326.50 1.142
326.60 1.142
326.70 1.142
326.80 1.142
326.90 1.142
327.00 1.143
327.10 1.143
327.20 1.143
327.30 1.143
327.40 1.143
327.50 1.143
327.60 1.143
327.70 1.144
327.80 1.144
327.90 1.144
328.00 1.144
328.10 1.144
328.20 1.144
328.30 1.144
328.40 1.145
328.50 1.145
328.60 1.145
328.70 1.145
328.80 1.145
328.90 1.145
329.00 1.145
329.10 1.146
329.20 1.146
329.30 1.146
329.40 1.146
329.50 1.146
329.60 1.146
329.70 1.146
329.80 1.147
329.90 1.147
330.00 1.147
330.10 1.147
330.20 1.147
330.30 1.147
330.40 1.147
330.50 1.147
330.60 1.148
330.70 1.148
330.80 1.148
330.90 1.148
331.00 1.148
331.10 1.148
331.20 1.148
331.30 1.149
331.40 1.149
331.50 1.149
331.60 1.149
331.70 1.149
331.80 1.149
331.90 1.149
332.00 1.149
332.10 1.15
332.20 1.15
332.30 1.15
332.40 1.15
332.50 1.15
332.60 1.15
332.70 1.15
332.80 1.15
332.90 1.151
333.00 1.151
333.10 1.151
333.20 1.151
333.30 1.151
333.40 1.151
333.50 1.151
333.60 1.151
333.70 1.151
333.80 1.152
333.90 1.152
334.00 1.152
334.10 1.152
334.20 1.152
334.30 1.152
334.40 1.152
334.50 1.152
334.60 1.152
334.70 1.153
334.80 1.153
334.90 1.153
335.00 1.153
335.10 1.153
335.20 1.153
335.30 1.153
335.40 1.153
335.50 1.153
335.60 1.154
335.70 1.154
335.80 1.154
335.90 1.154
336.00 1.154
336.10 1.154
336.20 1.154
336.30 1.154
336.40 1.154
336.50 1.155
336.60 1.155
336.70 1.155
336.80 1.155
336.90 1.155
337.00 1.155
337.10 1.155
337.20 1.155
337.30 1.155
337.40 1.155
337.50 1.156
337.60 1.156
337.70 1.156
337.80 1.156
337.90 1.156
338.00 1.156
338.10 1.156
338.20 1.156
338.30 1.156
338.40 1.156
338.50 1.156
338.60 1.157
338.70 1.157
338.80 1.157
338.90 1.157
339.00 1.157
339.10 1.157
339.20 1.157
339.30 1.157
339.40 1.157
339.50 1.157
339.60 1.157
339.70 1.158
339.80 1.158
339.90 1.158
340.00 1.158
340.10 1.158
340.20 1.158
340.30 1.158
340.40 1.158
340.50 1.158
340.60 1.158
340.70 1.158
340.80 1.158
340.90 1.159
341.00 1.159
341.10 1.159
341.20 1.159
341.30 1.159
341.40 1.159
341.50 1.159
341.60 1.159
341.70 1.159
341.80 1.159
341.90 1.159
342.00 1.159
342.10 1.16
342.20 1.16
342.30 1.16
342.40 1.16
342.50 1.16
342.60 1.16
342.70 1.16
342.80 1.16
342.90 1.16
343.00 1.16
343.10 1.16
343.20 1.16
343.30 1.16
343.40 1.16
343.50 1.161
343.60 1.161
343.70 1.161
343.80 1.161
343.90 1.161
344.00 1.161
344.10 1.161
344.20 1.161
344.30 1.161
344.40 1.161
344.50 1.161
344.60 1.161
344.70 1.161
344.80 1.161
344.90 1.161
345.00 1.162
345.10 1.162
345.20 1.162
345.30 1.162
345.40 1.162
345.50 1.162
345.60 1.162
345.70 1.162
345.80 1.162
345.90 1.162
346.00 1.162
346.10 1.162
346.20 1.162
346.30 1.162
346.40 1.162
346.50 1.162
346.60 1.163
346.70 1.163
346.80 1.163
346.90 1.163
347.00 1.163
347.10 1.163
347.20 1.163
347.30 1.163
347.40 1.163
347.50 1.163
347.60 1.163
347.70 1.163
347.80 1.163
347.90 1.163
348.00 1.163
348.10 1.163
348.20 1.163
348.30 1.163
348.40 1.163
348.50 1.164
348.60 1.164
348.70 1.164
348.80 1.164
348.90 1.164
349.00 1.164
349.10 1.164
349.20 1.164
349.30 1.164
349.40 1.164
349.50 1.164
349.60 1.164
349.70 1.164
349.80 1.164
349.90 1.164
350.00 1.164
350.10 1.164
350.20 1.164
350.30 1.164
350.40 1.164
350.50 1.164
350.60 1.164
350.70 1.165
350.80 1.165
350.90 1.165
351.00 1.165
351.10 1.165
351.20 1.165
351.30 1.165
351.40 1.165
351.50 1.165
351.60 1.165
351.70 1.165
351.80 1.165
351.90 1.165
352.00 1.165
352.10 1.165
352.20 1.165
352.30 1.165
352.40 1.165
352.50 1.165
352.60 1.165
352.70 1.165
352.80 1.165
352.90 1.165
353.00 1.165
353.10 1.165
353.20 1.165
353.30 1.165
353.40 1.165
353.50 1.165
353.60 1.165
353.70 1.166
353.80 1.166
353.90 1.166
354.00 1.166
354.10 1.166
354.20 1.166
354.30 1.166
354.40 1.166
354.50 1.166
354.60 1.166
354.70 1.166
354.80 1.166
354.90 1.166
355.00 1.166
355.10 1.166
355.20 1.166
355.30 1.166
355.40 1.166
355.50 1.166
355.60 1.166
355.70 1.166
355.80 1.166
355.90 1.166
356.00 1.166
356.10 1.166
356.20 1.166
356.30 1.166
356.40 1.166
356.50 1.166
356.60 1.166
356.70 1.166
356.80 1.166
356.90 1.166
357.00 1.166
357.10 1.166
357.20 1.166
357.30 1.166
357.40 1.166
357.50 1.166
357.60 1.166
357.70 1.166
357.80 1.166
357.90 1.166
358.00 1.166
358.10 1.166
358.20 1.166
358.30 1.166
358.40 1.166
358.50 1.166
358.60 1.166
358.70 1.166
358.80 1.166
358.90 1.166
359.00 1.166
359.10 1.166
359.20 1.166
359.30 1.166
359.40 1.166
359.50 1.166
359.60 1.166
359.70 1.166
359.80 1.167
359.90 1.167
360.00 1.167
360.10 1.167
360.20 1.167
360.30 1.167
360.40 1.167
360.50 1.167
360.60 1.167
360.70 1.167
360.80 1.167
360.90 1.167
361.00 1.167
361.10 1.167
361.20 1.167
361.30 1.167
361.40 1.167
361.50 1.167
361.60 1.167
361.70 1.167
361.80 1.167
361.90 1.167
362.00 1.167
362.10 1.167
362.20 1.167
362.30 1.167
362.40 1.167
362.50 1.166
362.60 1.166
362.70 1.166
362.80 1.166
362.90 1.166
363.00 1.166
363.10 1.166
363.20 1.166
363.30 1.166
363.40 1.166
363.50 1.166
363.60 1.166
363.70 1.166
363.80 1.166
363.90 1.166
364.00 1.166
364.10 1.166
364.20 1.166
364.30 1.166
364.40 1.166
364.50 1.166
364.60 1.166
364.70 1.166
364.80 1.166
364.90 1.166
365.00 1.166
365.10 1.166
365.20 1.166
365.30 1.166
365.40 1.166
365.50 1.166
365.60 1.166
365.70 1.166
365.80 1.166
365.90 1.166
366.00 1.166
366.10 1.166
366.20 1.166
366.30 1.166
366.40 1.166
366.50 1.166
366.60 1.166
366.70 1.166
366.80 1.166
366.90 1.166
367.00 1.166
367.10 1.166
367.20 1.166
367.30 1.166
367.40 1.166
367.50 1.166
367.60 1.166
367.70 1.166
367.80 1.166
367.90 1.165
368.00 1.165
368.10 1.165
368.20 1.165
368.30 1.165
368.40 1.165
368.50 1.165
368.60 1.165
368.70 1.165
368.80 1.165
368.90 1.165
369.00 1.165
369.10 1.165
369.20 1.165
369.30 1.165
369.40 1.165
369.50 1.165
369.60 1.165
369.70 1.165
369.80 1.165
369.90 1.165
370.00 1.165
370.10 1.165
370.20 1.165
370.30 1.165
370.40 1.165
370.50 1.165
370.60 1.165
370.70 1.165
370.80 1.165
370.90 1.165
371.00 1.165
371.10 1.165
371.20 1.165
371.30 1.165
371.40 1.165
371.50 1.165
371.60 1.165
371.70 1.165
371.80 1.165
371.90 1.165
372.00 1.164
372.10 1.165
372.20 1.165
372.30 1.165
372.40 1.165
372.50 1.165
372.60 1.165
372.70 1.165
372.80 1.165
372.90 1.165
373.00 1.165
373.10 1.165
373.20 1.165
373.30 1.165
373.40 1.165
373.50 1.165
373.60 1.165
373.70 1.165
373.80 1.165
373.90 1.165
374.00 1.165
374.10 1.165
374.20 1.165
374.30 1.165
374.40 1.165
374.50 1.165
374.60 1.165
374.70 1.165
374.80 1.165
374.90 1.166
375.00 1.166
375.10 1.166
375.20 1.166
375.30 1.166
375.40 1.166
375.50 1.166
375.60 1.166
375.70 1.166
375.80 1.166
375.90 1.167
376.00 1.167
376.10 1.167
376.20 1.167
376.30 1.167
376.40 1.167
376.50 1.167
376.60 1.167
376.70 1.168
376.80 1.168
376.90 1.168
377.00 1.168
377.10 1.168
377.20 1.168
377.30 1.168
377.40 1.168
377.50 1.168
377.60 1.168
377.70 1.168
377.80 1.169
377.90 1.169
378.00 1.169
378.10 1.168
378.20 1.168
378.30 1.167
378.40 1.167
378.50 1.166
378.60 1.166
378.70 1.166
378.80 1.165
378.90 1.165
379.00 1.164
379.10 1.163
379.20 1.162
379.30 1.161
379.40 1.16
379.50 1.159
379.60 1.158
379.70 1.156
379.80 1.155
379.90 1.154
380.00 1.153
380.10 1.155
380.20 1.157
380.30 1.158
380.40 1.16
380.50 1.162
380.60 1.164
380.70 1.165
380.80 1.167
380.90 1.169
381.00 1.171
381.10 1.171
381.20 1.171
381.30 1.172
381.40 1.172
381.50 1.172
381.60 1.172
381.70 1.172
381.80 1.172
381.90 1.172
382.00 1.171
382.10 1.171
382.20 1.17
382.30 1.167
382.40 1.164
382.50 1.161
382.60 1.158
382.70 1.155
382.80 1.152
382.90 1.149
383.00 1.146
383.10 1.143
383.20 1.14
383.30 1.132
383.40 1.12
383.50 1.096
383.60 1.103
383.70 1.124
383.80 1.135
383.90 1.143
384.00 1.148
384.10 1.153
384.20 1.158
384.30 1.161
384.40 1.164
384.50 1.167
384.60 1.169
384.70 1.171
384.80 1.173
384.90 1.174
385.00 1.175
385.10 1.176
385.20 1.177
385.30 1.178
385.40 1.178
385.50 1.179
385.60 1.179
385.70 1.179
385.80 1.18
385.90 1.18
386.00 1.18
386.10 1.18
386.20 1.18
386.30 1.18
386.40 1.18
386.50 1.179
386.60 1.179
386.70 1.179
386.80 1.178
386.90 1.178
387.00 1.177
387.10 1.176
387.20 1.175
387.30 1.174
387.40 1.173
387.50 1.171
387.60 1.169
387.70 1.166
387.80 1.163
387.90 1.16
388.00 1.155
388.10 1.149
388.20 1.143
388.30 1.135
388.40 1.124
388.50 1.112
388.60 1.098
388.70 1.076
388.80 1.04
388.90 0.9888
389.00 1.038
389.10 1.074
389.20 1.096
389.30 1.111
389.40 1.123
389.50 1.134
389.60 1.142
389.70 1.15
389.80 1.156
389.90 1.16
390.00 1.164
390.10 1.167
390.20 1.17
390.30 1.172
390.40 1.174
390.50 1.175
390.60 1.177
390.70 1.178
390.80 1.179
390.90 1.18
391.00 1.181
391.10 1.181
391.20 1.182
391.30 1.182
391.40 1.183
391.50 1.183
391.60 1.183
391.70 1.184
391.80 1.184
391.90 1.184
392.00 1.184
392.10 1.185
392.20 1.185
392.30 1.185
392.40 1.185
392.50 1.185
392.60 1.185
392.70 1.185
392.80 1.185
392.90 1.185
393.00 1.185
393.10 1.185
393.20 1.184
393.30 1.184
393.40 1.184
393.50 1.184
393.60 1.184
393.70 1.184
393.80 1.183
393.90 1.183
394.00 1.183
394.10 1.182
394.20 1.182
394.30 1.181
394.40 1.181
394.50 1.18
394.60 1.179
394.70 1.178
394.80 1.177
394.90 1.176
395.00 1.175
395.10 1.174
395.20 1.172
395.30 1.17
395.40 1.168
395.50 1.166
395.60 1.163
395.70 1.16
395.80 1.156
395.90 1.151
396.00 1.146
396.10 1.139
396.20 1.13
396.30 1.119
396.40 1.106
396.50 1.087
396.60 1.064
396.70 1.037
396.80 0.997
396.90 0.9282
397.00 0.8312
397.10 0.9231
397.20 0.9903
397.30 1.033
397.40 1.06
397.50 1.084
397.60 1.103
397.70 1.117
397.80 1.128
397.90 1.137
398.00 1.144
398.10 1.15
398.20 1.155
398.30 1.158
398.40 1.162
398.50 1.164
398.60 1.167
398.70 1.169
398.80 1.17
398.90 1.172
399.00 1.173
399.10 1.174
399.20 1.175
399.30 1.176
399.40 1.177
399.50 1.177
399.60 1.178
399.70 1.178
399.80 1.179
399.90 1.179
400.00 1.18
400.10 1.18
400.20 1.18
400.30 1.18
400.40 1.181
400.50 1.181
400.60 1.181
400.70 1.181
400.80 1.181
400.90 1.181
401.00 1.181
401.10 1.181
401.20 1.181
401.30 1.182
401.40 1.182
401.50 1.182
401.60 1.182
401.70 1.182
401.80 1.182
401.90 1.182
402.00 1.182
402.10 1.181
402.20 1.181
402.30 1.181
402.40 1.181
402.50 1.181
402.60 1.181
402.70 1.181
402.80 1.181
402.90 1.181
403.00 1.181
403.10 1.181
403.20 1.181
403.30 1.181
403.40 1.181
403.50 1.18
403.60 1.18
403.70 1.18
403.80 1.18
403.90 1.18
404.00 1.18
404.10 1.18
404.20 1.18
404.30 1.179
404.40 1.179
404.50 1.179
404.60 1.179
404.70 1.179
404.80 1.179
404.90 1.178
405.00 1.178
405.10 1.178
405.20 1.178
405.30 1.178
405.40 1.177
405.50 1.177
405.60 1.177
405.70 1.177
405.80 1.176
405.90 1.176
406.00 1.176
406.10 1.176
406.20 1.175
406.30 1.175
406.40 1.175
406.50 1.174
406.60 1.174
406.70 1.173
406.80 1.173
406.90 1.172
407.00 1.172
407.10 1.171
407.20 1.171
407.30 1.17
407.40 1.169
407.50 1.168
407.60 1.167
407.70 1.166
407.80 1.165
407.90 1.164
408.00 1.163
408.10 1.161
408.20 1.159
408.30 1.157
408.40 1.155
408.50 1.152
408.60 1.149
408.70 1.146
408.80 1.142
408.90 1.137
409.00 1.132
409.10 1.125
409.20 1.117
409.30 1.108
409.40 1.094
409.50 1.078
409.60 1.058
409.70 1.029
409.80 0.9912
409.90 0.9459
410.00 0.87
410.10 0.7783
410.20 0.6709
410.30 0.8118
410.40 0.9126
410.50 0.9736
410.60 1.012
410.70 1.044
410.80 1.069
410.90 1.086
411.00 1.1
411.10 1.112
411.20 1.12
411.30 1.127
411.40 1.133
411.50 1.137
411.60 1.141
411.70 1.145
411.80 1.148
411.90 1.15
412.00 1.152
412.10 1.154
412.20 1.156
412.30 1.157
412.40 1.158
412.50 1.159
412.60 1.16
412.70 1.161
412.80 1.162
412.90 1.163
413.00 1.163
413.10 1.164
413.20 1.164
413.30 1.164
413.40 1.165
413.50 1.165
413.60 1.165
413.70 1.165
413.80 1.166
413.90 1.166
414.00 1.166
414.10 1.166
414.20 1.166
414.30 1.166
414.40 1.166
414.50 1.166
414.60 1.166
414.70 1.166
414.80 1.166
414.90 1.166
415.00 1.166
415.10 1.166
415.20 1.166
415.30 1.166
415.40 1.166
415.50 1.166
415.60 1.166
415.70 1.166
415.80 1.166
415.90 1.166
416.00 1.166
416.10 1.165
416.20 1.165
416.30 1.165
416.40 1.165
416.50 1.165
416.60 1.165
416.70 1.165
416.80 1.165
416.90 1.165
417.00 1.165
417.10 1.164
417.20 1.164
417.30 1.164
417.40 1.164
417.50 1.164
417.60 1.164
417.70 1.164
417.80 1.164
417.90 1.164
418.00 1.163
418.10 1.163
418.20 1.163
418.30 1.163
418.40 1.163
418.50 1.163
418.60 1.163
418.70 1.163
418.80 1.162
418.90 1.162
419.00 1.162
419.10 1.162
419.20 1.162
419.30 1.162
419.40 1.162
419.50 1.161
419.60 1.161
419.70 1.161
419.80 1.161
419.90 1.161
420.00 1.161
420.10 1.161
420.20 1.16
420.30 1.16
420.40 1.16
420.50 1.16
420.60 1.16
420.70 1.16
420.80 1.159
420.90 1.159
421.00 1.159
421.10 1.159
421.20 1.159
421.30 1.159
421.40 1.159
421.50 1.158
421.60 1.158
421.70 1.158
421.80 1.158
421.90 1.158
422.00 1.158
422.10 1.157
422.20 1.157
422.30 1.157
422.40 1.157
422.50 1.157
422.60 1.157
422.70 1.156
422.80 1.156
422.90 1.156
423.00 1.156
423.10 1.156
423.20 1.156
423.30 1.155
423.40 1.155
423.50 1.155
423.60 1.155
423.70 1.155
423.80 1.155
423.90 1.154
424.00 1.154
424.10 1.154
424.20 1.154
424.30 1.154
424.40 1.154
424.50 1.153
424.60 1.153
424.70 1.153
424.80 1.153
424.90 1.153
425.00 1.152
425.10 1.152
425.20 1.152
425.30 1.152
425.40 1.152
425.50 1.152
425.60 1.151
425.70 1.151
425.80 1.151
425.90 1.151
426.00 1.151
426.10 1.15
426.20 1.15
426.30 1.15
426.40 1.15
426.50 1.15
426.60 1.149
426.70 1.149
426.80 1.149
426.90 1.149
427.00 1.149
427.10 1.148
427.20 1.148
427.30 1.148
427.40 1.148
427.50 1.148
427.60 1.147
427.70 1.147
427.80 1.147
427.90 1.147
428.00 1.146
428.10 1.146
428.20 1.146
428.30 1.146
428.40 1.145
428.50 1.145
428.60 1.145
428.70 1.145
428.80 1.144
428.90 1.144
429.00 1.144
429.10 1.144
429.20 1.143
429.30 1.143
429.40 1.142
429.50 1.142
429.60 1.142
429.70 1.141
429.80 1.141
429.90 1.141
430.00 1.14
430.10 1.14
430.20 1.139
430.30 1.139
430.40 1.138
430.50 1.138
430.60 1.137
430.70 1.137
430.80 1.136
430.90 1.135
431.00 1.135
431.10 1.134
431.20 1.133
431.30 1.132
431.40 1.131
431.50 1.13
431.60 1.129
431.70 1.127
431.80 1.126
431.90 1.124
432.00 1.122
432.10 1.12
432.20 1.118
432.30 1.115
432.40 1.112
432.50 1.108
432.60 1.103
432.70 1.098
432.80 1.091
432.90 1.084
433.00 1.075
433.10 1.065
433.20 1.052
433.30 1.038
433.40 1.017
433.50 0.9906
433.60 0.9584
433.70 0.9058
433.80 0.834
433.90 0.743
434.00 0.5406
434.10 0.5441
434.20 0.7531
434.30 0.8407
434.40 0.91
434.50 0.961
434.60 0.992
434.70 1.018
434.80 1.038
434.90 1.051
435.00 1.063
435.10 1.073
435.20 1.081
435.30 1.088
435.40 1.094
435.50 1.099
435.60 1.103
435.70 1.107
435.80 1.11
435.90 1.112
436.00 1.114
436.10 1.116
436.20 1.117
436.30 1.119
436.40 1.12
436.50 1.121
436.60 1.122
436.70 1.122
436.80 1.123
436.90 1.123
437.00 1.124
437.10 1.124
437.20 1.125
437.30 1.125
437.40 1.125
437.50 1.125
437.60 1.126
437.70 1.126
437.80 1.126
437.90 1.126
438.00 1.126
438.10 1.126
438.20 1.126
438.30 1.126
438.40 1.126
438.50 1.126
438.60 1.126
438.70 1.126
438.80 1.126
438.90 1.126
439.00 1.126
439.10 1.126
439.20 1.126
439.30 1.126
439.40 1.126
439.50 1.126
439.60 1.126
439.70 1.126
439.80 1.126
439.90 1.125
440.00 1.125
440.10 1.125
440.20 1.125
440.30 1.125
440.40 1.125
440.50 1.125
440.60 1.125
440.70 1.124
440.80 1.124
440.90 1.124
441.00 1.124
441.10 1.124
441.20 1.124
441.30 1.124
441.40 1.123
441.50 1.123
441.60 1.123
441.70 1.123
441.80 1.123
441.90 1.123
442.00 1.122
442.10 1.122
442.20 1.122
442.30 1.122
442.40 1.122
442.50 1.122
442.60 1.122
442.70 1.121
442.80 1.121
442.90 1.121
443.00 1.121
443.10 1.121
443.20 1.12
443.30 1.12
443.40 1.12
443.50 1.12
443.60 1.12
443.70 1.12
443.80 1.119
443.90 1.119
444.00 1.119
444.10 1.119
444.20 1.119
444.30 1.119
444.40 1.118
444.50 1.118
444.60 1.118
444.70 1.118
444.80 1.118
444.90 1.118
445.00 1.117
445.10 1.117
445.20 1.117
445.30 1.117
445.40 1.117
445.50 1.116
445.60 1.116
445.70 1.116
445.80 1.116
445.90 1.116
446.00 1.116
446.10 1.115
446.20 1.115
446.30 1.115
446.40 1.115
446.50 1.115
446.60 1.114
446.70 1.114
446.80 1.114
446.90 1.114
447.00 1.114
447.10 1.113
447.20 1.113
447.30 1.113
447.40 1.113
447.50 1.113
447.60 1.113
447.70 1.112
447.80 1.112
447.90 1.112
448.00 1.112
448.10 1.112
448.20 1.111
448.30 1.111
448.40 1.111
448.50 1.111
448.60 1.111
448.70 1.11
448.80 1.11
448.90 1.11
449.00 1.11
449.10 1.11
449.20 1.11
449.30 1.109
449.40 1.109
449.50 1.109
449.60 1.109
449.70 1.108
449.80 1.108
449.90 1.108
450.00 1.108
450.10 1.108
450.20 1.108
450.30 1.107
450.40 1.107
450.50 1.107
450.60 1.107
450.70 1.106
450.80 1.106
450.90 1.106
451.00 1.106
451.10 1.106
451.20 1.106
451.30 1.105
451.40 1.105
451.50 1.105
451.60 1.105
451.70 1.105
451.80 1.104
451.90 1.104
452.00 1.104
452.10 1.104
452.20 1.104
452.30 1.103
452.40 1.103
452.50 1.103
452.60 1.103
452.70 1.103
452.80 1.102
452.90 1.102
453.00 1.102
453.10 1.102
453.20 1.102
453.30 1.101
453.40 1.101
453.50 1.101
453.60 1.101
453.70 1.101
