# Version 2.1 - nm, norm@500 to 1, cut digits, bergeron_130000_80.dat_130000
# Wavelength(nm)  Flambda(ergs/cm^s/s/nm)
300.00 7.006
300.10 6.997
300.20 6.988
300.30 6.979
300.40 6.97
300.50 6.961
300.60 6.952
300.70 6.944
300.80 6.935
300.90 6.926
301.00 6.917
301.10 6.909
301.20 6.9
301.30 6.891
301.40 6.882
301.50 6.874
301.60 6.865
301.70 6.856
301.80 6.848
301.90 6.839
302.00 6.83
302.10 6.822
302.20 6.813
302.30 6.805
302.40 6.796
302.50 6.787
302.60 6.779
302.70 6.77
302.80 6.762
302.90 6.753
303.00 6.745
303.10 6.736
303.20 6.728
303.30 6.719
303.40 6.711
303.50 6.703
303.60 6.694
303.70 6.686
303.80 6.677
303.90 6.669
304.00 6.661
304.10 6.652
304.20 6.644
304.30 6.636
304.40 6.627
304.50 6.619
304.60 6.611
304.70 6.603
304.80 6.594
304.90 6.586
305.00 6.578
305.10 6.57
305.20 6.561
305.30 6.553
305.40 6.545
305.50 6.537
305.60 6.529
305.70 6.521
305.80 6.512
305.90 6.504
306.00 6.496
306.10 6.488
306.20 6.48
306.30 6.472
306.40 6.464
306.50 6.456
306.60 6.448
306.70 6.44
306.80 6.432
306.90 6.424
307.00 6.416
307.10 6.408
307.20 6.4
307.30 6.392
307.40 6.384
307.50 6.376
307.60 6.368
307.70 6.36
307.80 6.353
307.90 6.345
308.00 6.337
308.10 6.329
308.20 6.321
308.30 6.313
308.40 6.306
308.50 6.298
308.60 6.29
308.70 6.282
308.80 6.274
308.90 6.267
309.00 6.259
309.10 6.251
309.20 6.244
309.30 6.236
309.40 6.228
309.50 6.22
309.60 6.213
309.70 6.205
309.80 6.198
309.90 6.19
310.00 6.182
310.10 6.175
310.20 6.167
310.30 6.16
310.40 6.152
310.50 6.144
310.60 6.137
310.70 6.129
310.80 6.122
310.90 6.114
311.00 6.107
311.10 6.099
311.20 6.092
311.30 6.084
311.40 6.077
311.50 6.069
311.60 6.062
311.70 6.055
311.80 6.047
311.90 6.04
312.00 6.032
312.10 6.025
312.20 6.018
312.30 6.01
312.40 6.003
312.50 5.996
312.60 5.988
312.70 5.981
312.80 5.974
312.90 5.966
313.00 5.959
313.10 5.952
313.20 5.945
313.30 5.938
313.40 5.93
313.50 5.923
313.60 5.916
313.70 5.909
313.80 5.902
313.90 5.894
314.00 5.887
314.10 5.88
314.20 5.873
314.30 5.866
314.40 5.859
314.50 5.852
314.60 5.844
314.70 5.837
314.80 5.83
314.90 5.823
315.00 5.816
315.10 5.809
315.20 5.802
315.30 5.795
315.40 5.788
315.50 5.781
315.60 5.774
315.70 5.767
315.80 5.76
315.90 5.753
316.00 5.746
316.10 5.739
316.20 5.732
316.30 5.725
316.40 5.719
316.50 5.712
316.60 5.705
316.70 5.698
316.80 5.691
316.90 5.684
317.00 5.677
317.10 5.67
317.20 5.664
317.30 5.657
317.40 5.65
317.50 5.643
317.60 5.637
317.70 5.63
317.80 5.623
317.90 5.616
318.00 5.609
318.10 5.603
318.20 5.596
318.30 5.589
318.40 5.583
318.50 5.576
318.60 5.569
318.70 5.563
318.80 5.556
318.90 5.549
319.00 5.543
319.10 5.536
319.20 5.529
319.30 5.523
319.40 5.516
319.50 5.51
319.60 5.503
319.70 5.496
319.80 5.49
319.90 5.483
320.00 5.477
320.10 5.47
320.20 5.464
320.30 5.457
320.40 5.451
320.50 5.444
320.60 5.438
320.70 5.431
320.80 5.425
320.90 5.418
321.00 5.412
321.10 5.405
321.20 5.399
321.30 5.393
321.40 5.386
321.50 5.38
321.60 5.373
321.70 5.367
321.80 5.361
321.90 5.354
322.00 5.348
322.10 5.342
322.20 5.335
322.30 5.329
322.40 5.323
322.50 5.316
322.60 5.31
322.70 5.304
322.80 5.298
322.90 5.291
323.00 5.285
323.10 5.279
323.20 5.273
323.30 5.266
323.40 5.26
323.50 5.254
323.60 5.248
323.70 5.242
323.80 5.235
323.90 5.229
324.00 5.223
324.10 5.217
324.20 5.211
324.30 5.205
324.40 5.198
324.50 5.192
324.60 5.186
324.70 5.18
324.80 5.174
324.90 5.168
325.00 5.162
325.10 5.156
325.20 5.15
325.30 5.144
325.40 5.138
325.50 5.132
325.60 5.126
325.70 5.12
325.80 5.114
325.90 5.108
326.00 5.102
326.10 5.096
326.20 5.09
326.30 5.084
326.40 5.078
326.50 5.072
326.60 5.066
326.70 5.06
326.80 5.054
326.90 5.048
327.00 5.042
327.10 5.036
327.20 5.031
327.30 5.025
327.40 5.019
327.50 5.013
327.60 5.007
327.70 5.001
327.80 4.995
327.90 4.99
328.00 4.984
328.10 4.978
328.20 4.972
328.30 4.966
328.40 4.961
328.50 4.955
328.60 4.949
328.70 4.943
328.80 4.938
328.90 4.932
329.00 4.926
329.10 4.92
329.20 4.915
329.30 4.909
329.40 4.903
329.50 4.898
329.60 4.892
329.70 4.886
329.80 4.881
329.90 4.875
330.00 4.869
330.10 4.864
330.20 4.858
330.30 4.853
330.40 4.847
330.50 4.841
330.60 4.836
330.70 4.83
330.80 4.825
330.90 4.819
331.00 4.813
331.10 4.808
331.20 4.802
331.30 4.797
331.40 4.791
331.50 4.786
331.60 4.78
331.70 4.775
331.80 4.769
331.90 4.764
332.00 4.758
332.10 4.753
332.20 4.747
332.30 4.742
332.40 4.736
332.50 4.731
332.60 4.726
332.70 4.72
332.80 4.715
332.90 4.709
333.00 4.704
333.10 4.699
333.20 4.693
333.30 4.688
333.40 4.682
333.50 4.677
333.60 4.672
333.70 4.666
333.80 4.661
333.90 4.656
334.00 4.65
334.10 4.645
334.20 4.64
334.30 4.634
334.40 4.629
334.50 4.624
334.60 4.618
334.70 4.613
334.80 4.608
334.90 4.603
335.00 4.597
335.10 4.592
335.20 4.587
335.30 4.582
335.40 4.576
335.50 4.571
335.60 4.566
335.70 4.561
335.80 4.556
335.90 4.55
336.00 4.545
336.10 4.54
336.20 4.535
336.30 4.53
336.40 4.525
336.50 4.52
336.60 4.514
336.70 4.509
336.80 4.504
336.90 4.499
337.00 4.494
337.10 4.489
337.20 4.484
337.30 4.479
337.40 4.474
337.50 4.469
337.60 4.463
337.70 4.458
337.80 4.453
337.90 4.448
338.00 4.443
338.10 4.438
338.20 4.433
338.30 4.428
338.40 4.423
338.50 4.418
338.60 4.413
338.70 4.408
338.80 4.403
338.90 4.398
339.00 4.393
339.10 4.388
339.20 4.383
339.30 4.379
339.40 4.374
339.50 4.369
339.60 4.364
339.70 4.359
339.80 4.354
339.90 4.349
340.00 4.344
340.10 4.339
340.20 4.334
340.30 4.33
340.40 4.325
340.50 4.32
340.60 4.315
340.70 4.31
340.80 4.305
340.90 4.3
341.00 4.296
341.10 4.291
341.20 4.286
341.30 4.281
341.40 4.276
341.50 4.272
341.60 4.267
341.70 4.262
341.80 4.257
341.90 4.252
342.00 4.248
342.10 4.243
342.20 4.238
342.30 4.234
342.40 4.229
342.50 4.224
342.60 4.219
342.70 4.215
342.80 4.21
342.90 4.205
343.00 4.201
343.10 4.196
343.20 4.191
343.30 4.187
343.40 4.182
343.50 4.177
343.60 4.173
343.70 4.168
343.80 4.163
343.90 4.159
344.00 4.154
344.10 4.149
344.20 4.145
344.30 4.14
344.40 4.136
344.50 4.131
344.60 4.126
344.70 4.122
344.80 4.117
344.90 4.113
345.00 4.108
345.10 4.104
345.20 4.099
345.30 4.095
345.40 4.09
345.50 4.085
345.60 4.081
345.70 4.076
345.80 4.072
345.90 4.067
346.00 4.063
346.10 4.058
346.20 4.054
346.30 4.049
346.40 4.045
346.50 4.04
346.60 4.036
346.70 4.032
346.80 4.027
346.90 4.023
347.00 4.018
347.10 4.014
347.20 4.009
347.30 4.005
347.40 4.001
347.50 3.996
347.60 3.992
347.70 3.987
347.80 3.983
347.90 3.979
348.00 3.974
348.10 3.97
348.20 3.965
348.30 3.961
348.40 3.957
348.50 3.952
348.60 3.948
348.70 3.944
348.80 3.939
348.90 3.935
349.00 3.931
349.10 3.927
349.20 3.922
349.30 3.918
349.40 3.914
349.50 3.909
349.60 3.905
349.70 3.901
349.80 3.896
349.90 3.892
350.00 3.888
350.10 3.884
350.20 3.879
350.30 3.875
350.40 3.871
350.50 3.867
350.60 3.863
350.70 3.858
350.80 3.854
350.90 3.85
351.00 3.846
351.10 3.842
351.20 3.837
351.30 3.833
351.40 3.829
351.50 3.825
351.60 3.821
351.70 3.816
351.80 3.812
351.90 3.808
352.00 3.804
352.10 3.8
352.20 3.796
352.30 3.792
352.40 3.788
352.50 3.783
352.60 3.779
352.70 3.775
352.80 3.771
352.90 3.767
353.00 3.763
353.10 3.759
353.20 3.755
353.30 3.751
353.40 3.747
353.50 3.743
353.60 3.739
353.70 3.735
353.80 3.73
353.90 3.726
354.00 3.722
354.10 3.718
354.20 3.714
354.30 3.71
354.40 3.706
354.50 3.702
354.60 3.698
354.70 3.694
354.80 3.69
354.90 3.686
355.00 3.682
355.10 3.678
355.20 3.674
355.30 3.671
355.40 3.667
355.50 3.663
355.60 3.659
355.70 3.655
355.80 3.651
355.90 3.647
356.00 3.643
356.10 3.639
356.20 3.635
356.30 3.631
356.40 3.627
356.50 3.623
356.60 3.62
356.70 3.616
356.80 3.612
356.90 3.608
357.00 3.604
357.10 3.6
357.20 3.596
357.30 3.592
357.40 3.589
357.50 3.585
357.60 3.581
357.70 3.577
357.80 3.573
357.90 3.569
358.00 3.566
358.10 3.562
358.20 3.558
358.30 3.554
358.40 3.55
358.50 3.547
358.60 3.543
358.70 3.539
358.80 3.535
358.90 3.531
359.00 3.528
359.10 3.524
359.20 3.52
359.30 3.516
359.40 3.513
359.50 3.509
359.60 3.505
359.70 3.501
359.80 3.498
359.90 3.494
360.00 3.49
360.10 3.487
360.20 3.483
360.30 3.479
360.40 3.475
360.50 3.472
360.60 3.468
360.70 3.464
360.80 3.461
360.90 3.457
361.00 3.453
361.10 3.45
361.20 3.446
361.30 3.442
361.40 3.439
361.50 3.435
361.60 3.431
361.70 3.428
361.80 3.424
361.90 3.421
362.00 3.417
362.10 3.413
362.20 3.41
362.30 3.406
362.40 3.403
362.50 3.399
362.60 3.395
362.70 3.392
362.80 3.388
362.90 3.385
363.00 3.381
363.10 3.377
363.20 3.374
363.30 3.37
363.40 3.367
363.50 3.363
363.60 3.36
363.70 3.356
363.80 3.353
363.90 3.349
364.00 3.346
364.10 3.342
364.20 3.339
364.30 3.335
364.40 3.331
364.50 3.328
364.60 3.324
364.70 3.321
364.80 3.318
364.90 3.314
365.00 3.311
365.10 3.307
365.20 3.304
365.30 3.3
365.40 3.297
365.50 3.293
365.60 3.29
365.70 3.286
365.80 3.283
365.90 3.279
366.00 3.276
366.10 3.273
366.20 3.269
366.30 3.266
366.40 3.262
366.50 3.259
366.60 3.255
366.70 3.252
366.80 3.249
366.90 3.245
367.00 3.242
367.10 3.238
367.20 3.235
367.30 3.232
367.40 3.228
367.50 3.225
367.60 3.221
367.70 3.218
367.80 3.215
367.90 3.211
368.00 3.208
368.10 3.204
368.20 3.201
368.30 3.198
368.40 3.194
368.50 3.191
368.60 3.188
368.70 3.184
368.80 3.181
368.90 3.178
369.00 3.174
369.10 3.171
369.20 3.168
369.30 3.164
369.40 3.161
369.50 3.158
369.60 3.154
369.70 3.151
369.80 3.148
369.90 3.144
370.00 3.141
370.10 3.138
370.20 3.134
370.30 3.131
370.40 3.128
370.50 3.125
370.60 3.121
370.70 3.118
370.80 3.115
370.90 3.112
371.00 3.108
371.10 3.105
371.20 3.102
371.30 3.099
371.40 3.095
371.50 3.092
371.60 3.089
371.70 3.086
371.80 3.082
371.90 3.079
372.00 3.076
372.10 3.073
372.20 3.07
372.30 3.066
372.40 3.063
372.50 3.06
372.60 3.057
372.70 3.054
372.80 3.051
372.90 3.048
373.00 3.044
373.10 3.041
373.20 3.038
373.30 3.035
373.40 3.032
373.50 3.029
373.60 3.026
373.70 3.022
373.80 3.019
373.90 3.016
374.00 3.013
374.10 3.01
374.20 3.007
374.30 3.004
374.40 3.001
374.50 2.998
374.60 2.994
374.70 2.991
374.80 2.988
374.90 2.985
375.00 2.982
375.10 2.979
375.20 2.976
375.30 2.973
375.40 2.97
375.50 2.967
375.60 2.964
375.70 2.961
375.80 2.958
375.90 2.955
376.00 2.951
376.10 2.948
376.20 2.945
376.30 2.942
376.40 2.939
376.50 2.936
376.60 2.933
376.70 2.93
376.80 2.927
376.90 2.924
377.00 2.921
377.10 2.918
377.20 2.915
377.30 2.912
377.40 2.91
377.50 2.907
377.60 2.904
377.70 2.901
377.80 2.898
377.90 2.895
378.00 2.892
378.10 2.889
378.20 2.886
378.30 2.883
378.40 2.88
378.50 2.877
378.60 2.874
378.70 2.871
378.80 2.868
378.90 2.866
379.00 2.863
379.10 2.86
379.20 2.857
379.30 2.854
379.40 2.851
379.50 2.848
379.60 2.845
379.70 2.843
379.80 2.84
379.90 2.837
380.00 2.834
380.10 2.831
380.20 2.828
380.30 2.826
380.40 2.823
380.50 2.82
380.60 2.817
380.70 2.814
380.80 2.812
380.90 2.809
381.00 2.806
381.10 2.803
381.20 2.8
381.30 2.798
381.40 2.795
381.50 2.792
381.60 2.789
381.70 2.786
381.80 2.784
381.90 2.781
382.00 2.778
382.10 2.775
382.20 2.773
382.30 2.77
382.40 2.767
382.50 2.764
382.60 2.762
382.70 2.759
382.80 2.756
382.90 2.753
383.00 2.751
383.10 2.748
383.20 2.745
383.30 2.743
383.40 2.74
383.50 2.737
383.60 2.735
383.70 2.732
383.80 2.729
383.90 2.727
384.00 2.724
384.10 2.721
384.20 2.719
384.30 2.716
384.40 2.714
384.50 2.711
384.60 2.708
384.70 2.706
384.80 2.703
384.90 2.701
385.00 2.698
385.10 2.696
385.20 2.693
385.30 2.69
385.40 2.688
385.50 2.685
385.60 2.682
385.70 2.68
385.80 2.677
385.90 2.675
386.00 2.672
386.10 2.669
386.20 2.667
386.30 2.664
386.40 2.661
386.50 2.659
386.60 2.656
386.70 2.653
386.80 2.651
386.90 2.648
387.00 2.645
387.10 2.643
387.20 2.64
387.30 2.637
387.40 2.634
387.50 2.632
387.60 2.629
387.70 2.626
387.80 2.624
387.90 2.621
388.00 2.618
388.10 2.615
388.20 2.613
388.30 2.61
388.40 2.608
388.50 2.605
388.60 2.602
388.70 2.6
388.80 2.598
388.90 2.595
389.00 2.593
389.10 2.59
389.20 2.588
389.30 2.585
389.40 2.583
389.50 2.581
389.60 2.579
389.70 2.576
389.80 2.574
389.90 2.572
390.00 2.57
390.10 2.568
390.20 2.566
390.30 2.563
390.40 2.561
390.50 2.559
390.60 2.557
390.70 2.555
390.80 2.552
390.90 2.55
391.00 2.548
391.10 2.546
391.20 2.543
391.30 2.541
391.40 2.539
391.50 2.536
391.60 2.534
391.70 2.532
391.80 2.529
391.90 2.527
392.00 2.525
392.10 2.522
392.20 2.52
392.30 2.517
392.40 2.515
392.50 2.512
392.60 2.51
392.70 2.507
392.80 2.505
392.90 2.502
393.00 2.5
393.10 2.497
393.20 2.494
393.30 2.492
393.40 2.489
393.50 2.486
393.60 2.484
393.70 2.481
393.80 2.478
393.90 2.475
394.00 2.473
394.10 2.47
394.20 2.467
394.30 2.464
394.40 2.461
394.50 2.458
394.60 2.455
394.70 2.452
394.80 2.449
394.90 2.446
395.00 2.443
395.10 2.44
395.20 2.437
395.30 2.434
395.40 2.431
395.50 2.428
395.60 2.425
395.70 2.422
395.80 2.419
395.90 2.416
396.00 2.413
396.10 2.409
396.20 2.406
396.30 2.403
396.40 2.4
396.50 2.397
396.60 2.394
396.70 2.391
396.80 2.388
396.90 2.385
397.00 2.383
397.10 2.381
397.20 2.379
397.30 2.378
397.40 2.376
397.50 2.375
397.60 2.374
397.70 2.372
397.80 2.371
397.90 2.37
398.00 2.368
398.10 2.367
398.20 2.366
398.30 2.365
398.40 2.363
398.50 2.362
398.60 2.361
398.70 2.359
398.80 2.358
398.90 2.357
399.00 2.355
399.10 2.354
399.20 2.352
399.30 2.351
399.40 2.35
399.50 2.348
399.60 2.347
399.70 2.345
399.80 2.343
399.90 2.342
400.00 2.34
400.10 2.339
400.20 2.337
400.30 2.335
400.40 2.334
400.50 2.332
400.60 2.33
400.70 2.328
400.80 2.327
400.90 2.325
401.00 2.323
401.10 2.321
401.20 2.319
401.30 2.318
401.40 2.316
401.50 2.314
401.60 2.312
401.70 2.31
401.80 2.308
401.90 2.306
402.00 2.304
402.10 2.302
402.20 2.3
402.30 2.298
402.40 2.296
402.50 2.294
402.60 2.292
402.70 2.29
402.80 2.288
402.90 2.286
403.00 2.283
403.10 2.281
403.20 2.279
403.30 2.277
403.40 2.275
403.50 2.272
403.60 2.27
403.70 2.268
403.80 2.266
403.90 2.263
404.00 2.261
404.10 2.259
404.20 2.256
404.30 2.254
404.40 2.252
404.50 2.249
404.60 2.247
404.70 2.244
404.80 2.242
404.90 2.239
405.00 2.237
405.10 2.234
405.20 2.232
405.30 2.229
405.40 2.226
405.50 2.224
405.60 2.221
405.70 2.218
405.80 2.216
405.90 2.213
406.00 2.21
406.10 2.207
406.20 2.204
406.30 2.201
406.40 2.199
406.50 2.196
406.60 2.193
406.70 2.19
406.80 2.186
406.90 2.183
407.00 2.18
407.10 2.177
407.20 2.174
407.30 2.17
407.40 2.167
407.50 2.164
407.60 2.16
407.70 2.157
407.80 2.153
407.90 2.15
408.00 2.146
408.10 2.142
408.20 2.138
408.30 2.135
408.40 2.131
408.50 2.127
408.60 2.123
408.70 2.119
408.80 2.115
408.90 2.111
409.00 2.107
409.10 2.103
409.20 2.099
409.30 2.095
409.40 2.091
409.50 2.087
409.60 2.083
409.70 2.08
409.80 2.077
409.90 2.074
410.00 2.073
410.10 2.073
410.20 2.072
410.30 2.068
410.40 2.065
410.50 2.063
410.60 2.062
410.70 2.062
410.80 2.061
410.90 2.061
411.00 2.062
411.10 2.062
411.20 2.062
411.30 2.062
411.40 2.062
411.50 2.063
411.60 2.063
411.70 2.063
411.80 2.063
411.90 2.063
412.00 2.063
412.10 2.063
412.20 2.063
412.30 2.063
412.40 2.062
412.50 2.062
412.60 2.062
412.70 2.061
412.80 2.061
412.90 2.06
413.00 2.06
413.10 2.059
413.20 2.058
413.30 2.058
413.40 2.057
413.50 2.056
413.60 2.055
413.70 2.054
413.80 2.054
413.90 2.053
414.00 2.052
414.10 2.051
414.20 2.049
414.30 2.048
414.40 2.047
414.50 2.046
414.60 2.045
414.70 2.044
414.80 2.042
414.90 2.041
415.00 2.04
415.10 2.039
415.20 2.037
415.30 2.036
415.40 2.035
415.50 2.033
415.60 2.032
415.70 2.03
415.80 2.029
415.90 2.027
416.00 2.026
416.10 2.025
416.20 2.023
416.30 2.022
416.40 2.02
416.50 2.018
416.60 2.017
416.70 2.015
416.80 2.014
416.90 2.012
417.00 2.011
417.10 2.009
417.20 2.007
417.30 2.006
417.40 2.004
417.50 2.003
417.60 2.001
417.70 1.999
417.80 1.998
417.90 1.996
418.00 1.994
418.10 1.993
418.20 1.991
418.30 1.989
418.40 1.988
418.50 1.986
418.60 1.984
418.70 1.982
418.80 1.981
418.90 1.979
419.00 1.977
419.10 1.976
419.20 1.974
419.30 1.972
419.40 1.97
419.50 1.969
419.60 1.967
419.70 1.965
419.80 1.964
419.90 1.962
420.00 1.96
420.10 1.958
420.20 1.957
420.30 1.955
420.40 1.953
420.50 1.951
420.60 1.95
420.70 1.948
420.80 1.946
420.90 1.944
421.00 1.943
421.10 1.941
421.20 1.939
421.30 1.937
421.40 1.936
421.50 1.934
421.60 1.932
421.70 1.93
421.80 1.929
421.90 1.927
422.00 1.925
422.10 1.923
422.20 1.922
422.30 1.92
422.40 1.918
422.50 1.916
422.60 1.915
422.70 1.913
422.80 1.911
422.90 1.909
423.00 1.907
423.10 1.906
423.20 1.904
423.30 1.902
423.40 1.9
423.50 1.899
423.60 1.897
423.70 1.895
423.80 1.893
423.90 1.891
424.00 1.89
424.10 1.888
424.20 1.886
424.30 1.884
424.40 1.883
424.50 1.881
424.60 1.879
424.70 1.877
424.80 1.875
424.90 1.874
425.00 1.872
425.10 1.87
425.20 1.868
425.30 1.866
425.40 1.864
425.50 1.863
425.60 1.861
425.70 1.859
425.80 1.857
425.90 1.855
426.00 1.853
426.10 1.852
426.20 1.85
426.30 1.848
426.40 1.846
426.50 1.844
426.60 1.842
426.70 1.84
426.80 1.838
426.90 1.837
427.00 1.835
427.10 1.833
427.20 1.831
427.30 1.829
427.40 1.827
427.50 1.825
427.60 1.823
427.70 1.821
427.80 1.819
427.90 1.817
428.00 1.815
428.10 1.813
428.20 1.811
428.30 1.809
428.40 1.807
428.50 1.805
428.60 1.802
428.70 1.8
428.80 1.798
428.90 1.796
429.00 1.794
429.10 1.791
429.20 1.789
429.30 1.787
429.40 1.784
429.50 1.782
429.60 1.78
429.70 1.777
429.80 1.775
429.90 1.772
430.00 1.77
430.10 1.767
430.20 1.764
430.30 1.762
430.40 1.759
430.50 1.756
430.60 1.753
430.70 1.75
430.80 1.747
430.90 1.744
431.00 1.741
431.10 1.738
431.20 1.735
431.30 1.731
431.40 1.728
431.50 1.725
431.60 1.721
431.70 1.717
431.80 1.714
431.90 1.71
432.00 1.706
432.10 1.702
432.20 1.698
432.30 1.694
432.40 1.69
432.50 1.686
432.60 1.681
432.70 1.677
432.80 1.673
432.90 1.668
433.00 1.664
433.10 1.659
433.20 1.655
433.30 1.65
433.40 1.646
433.50 1.642
433.60 1.637
433.70 1.633
433.80 1.628
433.90 1.624
434.00 1.62
434.10 1.618
434.20 1.62
434.30 1.622
434.40 1.623
434.50 1.625
434.60 1.626
434.70 1.628
434.80 1.629
434.90 1.631
435.00 1.632
435.10 1.634
435.20 1.635
435.30 1.637
435.40 1.638
435.50 1.64
435.60 1.641
435.70 1.643
435.80 1.644
435.90 1.645
436.00 1.646
436.10 1.647
436.20 1.648
436.30 1.648
436.40 1.649
436.50 1.65
436.60 1.65
436.70 1.65
436.80 1.651
436.90 1.651
437.00 1.651
437.10 1.651
437.20 1.651
437.30 1.651
437.40 1.651
437.50 1.651
437.60 1.651
437.70 1.65
437.80 1.65
437.90 1.649
438.00 1.649
438.10 1.649
438.20 1.648
438.30 1.647
438.40 1.647
438.50 1.646
438.60 1.645
438.70 1.645
438.80 1.644
438.90 1.643
439.00 1.642
439.10 1.641
439.20 1.64
439.30 1.64
439.40 1.639
439.50 1.638
439.60 1.637
439.70 1.636
439.80 1.635
439.90 1.634
440.00 1.633
440.10 1.631
440.20 1.63
440.30 1.629
440.40 1.628
440.50 1.627
440.60 1.626
440.70 1.625
440.80 1.624
440.90 1.622
441.00 1.621
441.10 1.62
441.20 1.619
441.30 1.618
441.40 1.616
441.50 1.615
441.60 1.614
441.70 1.613
441.80 1.612
441.90 1.61
442.00 1.609
442.10 1.608
442.20 1.607
442.30 1.605
442.40 1.604
442.50 1.603
442.60 1.601
442.70 1.6
442.80 1.599
442.90 1.598
443.00 1.596
443.10 1.595
443.20 1.594
443.30 1.592
443.40 1.591
443.50 1.59
443.60 1.589
443.70 1.587
443.80 1.586
443.90 1.585
444.00 1.583
444.10 1.582
444.20 1.581
444.30 1.579
444.40 1.578
444.50 1.577
444.60 1.576
444.70 1.574
444.80 1.573
444.90 1.572
445.00 1.57
445.10 1.569
445.20 1.568
445.30 1.566
445.40 1.565
445.50 1.564
445.60 1.562
445.70 1.561
445.80 1.56
445.90 1.558
446.00 1.557
446.10 1.556
446.20 1.555
446.30 1.553
446.40 1.552
446.50 1.551
446.60 1.549
446.70 1.548
446.80 1.547
446.90 1.545
447.00 1.544
447.10 1.543
447.20 1.541
447.30 1.54
447.40 1.539
447.50 1.537
447.60 1.536
447.70 1.535
447.80 1.534
447.90 1.532
448.00 1.531
448.10 1.53
448.20 1.528
448.30 1.527
448.40 1.526
448.50 1.524
448.60 1.523
448.70 1.522
448.80 1.521
448.90 1.519
449.00 1.518
449.10 1.517
449.20 1.515
449.30 1.514
449.40 1.513
449.50 1.512
449.60 1.51
449.70 1.509
449.80 1.508
449.90 1.506
450.00 1.505
450.10 1.504
450.20 1.503
450.30 1.501
450.40 1.5
450.50 1.499
450.60 1.497
450.70 1.496
450.80 1.495
450.90 1.494
451.00 1.492
451.10 1.491
451.20 1.49
451.30 1.489
451.40 1.487
451.50 1.486
451.60 1.485
451.70 1.483
451.80 1.482
451.90 1.481
452.00 1.48
452.10 1.478
452.20 1.477
452.30 1.476
452.40 1.475
452.50 1.473
452.60 1.472
452.70 1.471
452.80 1.47
452.90 1.468
453.00 1.467
453.10 1.466
453.20 1.465
453.30 1.463
453.40 1.462
453.50 1.461
453.60 1.46
453.70 1.458
453.80 1.457
453.90 1.456
454.00 1.455
454.10 1.453
