# Version 2.1 - nm, norm@500 to 1, cut digits, bergeron_10000_75.dat_10000
# Wavelength(nm)  Flambda(ergs/cm^s/s/nm)
300.00 1.528
300.10 1.527
300.20 1.527
300.30 1.526
300.40 1.525
300.50 1.525
300.60 1.524
300.70 1.523
300.80 1.523
300.90 1.522
301.00 1.521
301.10 1.521
301.20 1.52
301.30 1.52
301.40 1.519
301.50 1.518
301.60 1.518
301.70 1.517
301.80 1.516
301.90 1.516
302.00 1.515
302.10 1.514
302.20 1.514
302.30 1.513
302.40 1.513
302.50 1.512
302.60 1.511
302.70 1.511
302.80 1.51
302.90 1.509
303.00 1.509
303.10 1.508
303.20 1.507
303.30 1.507
303.40 1.506
303.50 1.506
303.60 1.505
303.70 1.504
303.80 1.504
303.90 1.503
304.00 1.502
304.10 1.502
304.20 1.501
304.30 1.501
304.40 1.5
304.50 1.499
304.60 1.499
304.70 1.498
304.80 1.497
304.90 1.497
305.00 1.496
305.10 1.495
305.20 1.495
305.30 1.494
305.40 1.494
305.50 1.493
305.60 1.492
305.70 1.492
305.80 1.491
305.90 1.49
306.00 1.49
306.10 1.489
306.20 1.488
306.30 1.488
306.40 1.487
306.50 1.487
306.60 1.486
306.70 1.485
306.80 1.485
306.90 1.484
307.00 1.483
307.10 1.483
307.20 1.482
307.30 1.481
307.40 1.481
307.50 1.48
307.60 1.48
307.70 1.479
307.80 1.478
307.90 1.478
308.00 1.477
308.10 1.476
308.20 1.476
308.30 1.475
308.40 1.475
308.50 1.474
308.60 1.473
308.70 1.473
308.80 1.472
308.90 1.471
309.00 1.471
309.10 1.47
309.20 1.469
309.30 1.469
309.40 1.468
309.50 1.468
309.60 1.467
309.70 1.466
309.80 1.466
309.90 1.465
310.00 1.464
310.10 1.464
310.20 1.463
310.30 1.463
310.40 1.462
310.50 1.461
310.60 1.461
310.70 1.46
310.80 1.459
310.90 1.459
311.00 1.458
311.10 1.458
311.20 1.457
311.30 1.456
311.40 1.456
311.50 1.455
311.60 1.454
311.70 1.454
311.80 1.453
311.90 1.453
312.00 1.452
312.10 1.451
312.20 1.451
312.30 1.45
312.40 1.449
312.50 1.449
312.60 1.448
312.70 1.447
312.80 1.447
312.90 1.446
313.00 1.446
313.10 1.445
313.20 1.444
313.30 1.444
313.40 1.443
313.50 1.442
313.60 1.442
313.70 1.441
313.80 1.441
313.90 1.44
314.00 1.439
314.10 1.439
314.20 1.438
314.30 1.438
314.40 1.437
314.50 1.436
314.60 1.436
314.70 1.435
314.80 1.434
314.90 1.434
315.00 1.433
315.10 1.432
315.20 1.432
315.30 1.431
315.40 1.431
315.50 1.43
315.60 1.429
315.70 1.429
315.80 1.428
315.90 1.428
316.00 1.427
316.10 1.426
316.20 1.426
316.30 1.425
316.40 1.424
316.50 1.424
316.60 1.423
316.70 1.423
316.80 1.422
316.90 1.421
317.00 1.421
317.10 1.42
317.20 1.419
317.30 1.419
317.40 1.418
317.50 1.418
317.60 1.417
317.70 1.416
317.80 1.416
317.90 1.415
318.00 1.414
318.10 1.414
318.20 1.413
318.30 1.413
318.40 1.412
318.50 1.411
318.60 1.411
318.70 1.41
318.80 1.409
318.90 1.409
319.00 1.408
319.10 1.408
319.20 1.407
319.30 1.406
319.40 1.406
319.50 1.405
319.60 1.405
319.70 1.404
319.80 1.403
319.90 1.403
320.00 1.402
320.10 1.401
320.20 1.401
320.30 1.4
320.40 1.4
320.50 1.399
320.60 1.398
320.70 1.398
320.80 1.397
320.90 1.397
321.00 1.396
321.10 1.395
321.20 1.395
321.30 1.394
321.40 1.393
321.50 1.393
321.60 1.392
321.70 1.392
321.80 1.391
321.90 1.39
322.00 1.39
322.10 1.389
322.20 1.389
322.30 1.388
322.40 1.387
322.50 1.387
322.60 1.386
322.70 1.385
322.80 1.385
322.90 1.384
323.00 1.384
323.10 1.383
323.20 1.382
323.30 1.382
323.40 1.381
323.50 1.381
323.60 1.38
323.70 1.379
323.80 1.379
323.90 1.378
324.00 1.378
324.10 1.377
324.20 1.376
324.30 1.376
324.40 1.375
324.50 1.374
324.60 1.374
324.70 1.373
324.80 1.373
324.90 1.372
325.00 1.371
325.10 1.371
325.20 1.37
325.30 1.37
325.40 1.369
325.50 1.368
325.60 1.368
325.70 1.367
325.80 1.367
325.90 1.366
326.00 1.365
326.10 1.365
326.20 1.364
326.30 1.363
326.40 1.363
326.50 1.362
326.60 1.362
326.70 1.361
326.80 1.36
326.90 1.36
327.00 1.359
327.10 1.359
327.20 1.358
327.30 1.357
327.40 1.357
327.50 1.356
327.60 1.356
327.70 1.355
327.80 1.354
327.90 1.354
328.00 1.353
328.10 1.353
328.20 1.352
328.30 1.351
328.40 1.351
328.50 1.35
328.60 1.35
328.70 1.349
328.80 1.348
328.90 1.348
329.00 1.347
329.10 1.347
329.20 1.346
329.30 1.345
329.40 1.345
329.50 1.344
329.60 1.344
329.70 1.343
329.80 1.342
329.90 1.342
330.00 1.341
330.10 1.341
330.20 1.34
330.30 1.339
330.40 1.339
330.50 1.338
330.60 1.338
330.70 1.337
330.80 1.336
330.90 1.336
331.00 1.335
331.10 1.335
331.20 1.334
331.30 1.333
331.40 1.333
331.50 1.332
331.60 1.332
331.70 1.331
331.80 1.33
331.90 1.33
332.00 1.329
332.10 1.329
332.20 1.328
332.30 1.327
332.40 1.327
332.50 1.326
332.60 1.326
332.70 1.325
332.80 1.324
332.90 1.324
333.00 1.323
333.10 1.323
333.20 1.322
333.30 1.321
333.40 1.321
333.50 1.32
333.60 1.32
333.70 1.319
333.80 1.318
333.90 1.318
334.00 1.317
334.10 1.317
334.20 1.316
334.30 1.315
334.40 1.315
334.50 1.314
334.60 1.314
334.70 1.313
334.80 1.312
334.90 1.312
335.00 1.311
335.10 1.311
335.20 1.31
335.30 1.309
335.40 1.309
335.50 1.308
335.60 1.308
335.70 1.307
335.80 1.307
335.90 1.306
336.00 1.305
336.10 1.305
336.20 1.304
336.30 1.304
336.40 1.303
336.50 1.302
336.60 1.302
336.70 1.301
336.80 1.301
336.90 1.3
337.00 1.299
337.10 1.299
337.20 1.298
337.30 1.298
337.40 1.297
337.50 1.297
337.60 1.296
337.70 1.295
337.80 1.295
337.90 1.294
338.00 1.294
338.10 1.293
338.20 1.292
338.30 1.292
338.40 1.291
338.50 1.291
338.60 1.29
338.70 1.289
338.80 1.289
338.90 1.288
339.00 1.288
339.10 1.287
339.20 1.287
339.30 1.286
339.40 1.285
339.50 1.285
339.60 1.284
339.70 1.284
339.80 1.283
339.90 1.282
340.00 1.282
340.10 1.281
340.20 1.281
340.30 1.28
340.40 1.28
340.50 1.279
340.60 1.278
340.70 1.278
340.80 1.277
340.90 1.277
341.00 1.276
341.10 1.276
341.20 1.275
341.30 1.274
341.40 1.274
341.50 1.273
341.60 1.273
341.70 1.272
341.80 1.271
341.90 1.271
342.00 1.27
342.10 1.27
342.20 1.269
342.30 1.269
342.40 1.268
342.50 1.267
342.60 1.267
342.70 1.266
342.80 1.266
342.90 1.265
343.00 1.265
343.10 1.264
343.20 1.263
343.30 1.263
343.40 1.262
343.50 1.262
343.60 1.261
343.70 1.261
343.80 1.26
343.90 1.259
344.00 1.259
344.10 1.258
344.20 1.258
344.30 1.257
344.40 1.257
344.50 1.256
344.60 1.255
344.70 1.255
344.80 1.254
344.90 1.254
345.00 1.253
345.10 1.252
345.20 1.252
345.30 1.251
345.40 1.251
345.50 1.25
345.60 1.25
345.70 1.249
345.80 1.249
345.90 1.248
346.00 1.247
346.10 1.247
346.20 1.246
346.30 1.246
346.40 1.245
346.50 1.245
346.60 1.244
346.70 1.243
346.80 1.243
346.90 1.242
347.00 1.242
347.10 1.241
347.20 1.241
347.30 1.24
347.40 1.239
347.50 1.239
347.60 1.238
347.70 1.238
347.80 1.237
347.90 1.237
348.00 1.236
348.10 1.235
348.20 1.235
348.30 1.234
348.40 1.234
348.50 1.233
348.60 1.233
348.70 1.232
348.80 1.231
348.90 1.231
349.00 1.23
349.10 1.23
349.20 1.229
349.30 1.229
349.40 1.228
349.50 1.228
349.60 1.227
349.70 1.226
349.80 1.226
349.90 1.225
350.00 1.225
350.10 1.224
350.20 1.224
350.30 1.223
350.40 1.222
350.50 1.222
350.60 1.221
350.70 1.221
350.80 1.22
350.90 1.22
351.00 1.219
351.10 1.219
351.20 1.218
351.30 1.217
351.40 1.217
351.50 1.216
351.60 1.216
351.70 1.215
351.80 1.215
351.90 1.214
352.00 1.214
352.10 1.213
352.20 1.212
352.30 1.212
352.40 1.211
352.50 1.211
352.60 1.21
352.70 1.21
352.80 1.209
352.90 1.209
353.00 1.208
353.10 1.207
353.20 1.207
353.30 1.206
353.40 1.206
353.50 1.205
353.60 1.205
353.70 1.204
353.80 1.204
353.90 1.203
354.00 1.202
354.10 1.202
354.20 1.201
354.30 1.201
354.40 1.2
354.50 1.2
354.60 1.199
354.70 1.199
354.80 1.198
354.90 1.197
355.00 1.197
355.10 1.196
355.20 1.196
355.30 1.195
355.40 1.195
355.50 1.194
355.60 1.194
355.70 1.193
355.80 1.193
355.90 1.192
356.00 1.191
356.10 1.191
356.20 1.19
356.30 1.19
356.40 1.189
356.50 1.189
356.60 1.188
356.70 1.188
356.80 1.187
356.90 1.187
357.00 1.186
357.10 1.185
357.20 1.185
357.30 1.184
357.40 1.184
357.50 1.183
357.60 1.183
357.70 1.182
357.80 1.182
357.90 1.181
358.00 1.181
358.10 1.18
358.20 1.179
358.30 1.179
358.40 1.178
358.50 1.178
358.60 1.177
358.70 1.177
358.80 1.176
358.90 1.176
359.00 1.175
359.10 1.175
359.20 1.174
359.30 1.173
359.40 1.173
359.50 1.172
359.60 1.172
359.70 1.171
359.80 1.171
359.90 1.17
360.00 1.17
360.10 1.169
360.20 1.169
360.30 1.168
360.40 1.168
360.50 1.167
360.60 1.166
360.70 1.166
360.80 1.165
360.90 1.165
361.00 1.164
361.10 1.164
361.20 1.163
361.30 1.163
361.40 1.162
361.50 1.162
361.60 1.161
361.70 1.161
361.80 1.16
361.90 1.159
362.00 1.159
362.10 1.158
362.20 1.158
362.30 1.157
362.40 1.157
362.50 1.156
362.60 1.156
362.70 1.155
362.80 1.155
362.90 1.154
363.00 1.154
363.10 1.153
363.20 1.152
363.30 1.152
363.40 1.151
363.50 1.151
363.60 1.15
363.70 1.15
363.80 1.149
363.90 1.148
364.00 1.148
364.10 1.147
364.20 1.147
364.30 1.146
364.40 1.146
364.50 1.145
364.60 1.144
364.70 1.144
364.80 1.143
364.90 1.143
365.00 1.142
365.10 1.142
365.20 1.141
365.30 1.14
365.40 1.14
365.50 1.139
365.60 1.139
365.70 1.138
365.80 1.138
365.90 1.137
366.00 1.136
366.10 1.136
366.20 1.135
366.30 1.135
366.40 1.134
366.50 1.134
366.60 1.133
366.70 1.133
366.80 1.132
366.90 1.132
367.00 1.131
367.10 1.131
367.20 1.13
367.30 1.13
367.40 1.129
367.50 1.129
367.60 1.128
367.70 1.128
367.80 1.127
367.90 1.127
368.00 1.126
368.10 1.127
368.20 1.127
368.30 1.127
368.40 1.127
368.50 1.127
368.60 1.127
368.70 1.127
368.80 1.128
368.90 1.128
369.00 1.128
369.10 1.128
369.20 1.128
369.30 1.128
369.40 1.128
369.50 1.128
369.60 1.129
369.70 1.129
369.80 1.129
369.90 1.129
370.00 1.129
370.10 1.131
370.20 1.132
370.30 1.134
370.40 1.135
370.50 1.137
370.60 1.138
370.70 1.139
370.80 1.141
370.90 1.142
371.00 1.144
371.10 1.145
371.20 1.147
371.30 1.148
371.40 1.15
371.50 1.151
371.60 1.153
371.70 1.154
371.80 1.156
371.90 1.157
372.00 1.159
372.10 1.161
372.20 1.164
372.30 1.166
372.40 1.169
372.50 1.171
372.60 1.174
372.70 1.176
372.80 1.179
372.90 1.181
373.00 1.184
373.10 1.186
373.20 1.189
373.30 1.191
373.40 1.194
373.50 1.196
373.60 1.199
373.70 1.201
373.80 1.204
373.90 1.206
374.00 1.209
374.10 1.211
374.20 1.214
374.30 1.216
374.40 1.219
374.50 1.221
374.60 1.224
374.70 1.226
374.80 1.229
374.90 1.231
375.00 1.234
375.10 1.236
375.20 1.239
375.30 1.241
375.40 1.244
375.50 1.246
375.60 1.248
375.70 1.251
375.80 1.253
375.90 1.256
376.00 1.258
376.10 1.259
376.20 1.261
376.30 1.262
376.40 1.263
376.50 1.264
376.60 1.265
376.70 1.267
376.80 1.268
376.90 1.269
377.00 1.27
377.10 1.269
377.20 1.267
377.30 1.265
377.40 1.263
377.50 1.262
377.60 1.26
377.70 1.258
377.80 1.256
377.90 1.255
378.00 1.253
378.10 1.241
378.20 1.228
378.30 1.216
378.40 1.203
378.50 1.191
378.60 1.179
378.70 1.166
378.80 1.154
378.90 1.142
379.00 1.129
379.10 1.116
379.20 1.102
379.30 1.088
379.40 1.075
379.50 1.061
379.60 1.047
379.70 1.034
379.80 1.02
379.90 1.007
380.00 0.993
380.10 1.013
380.20 1.034
380.30 1.054
380.40 1.074
380.50 1.095
380.60 1.115
380.70 1.135
380.80 1.156
380.90 1.176
381.00 1.196
381.10 1.202
381.20 1.208
381.30 1.214
381.40 1.22
381.50 1.226
381.60 1.226
381.70 1.225
381.80 1.221
381.90 1.216
382.00 1.208
382.10 1.199
382.20 1.187
382.30 1.158
382.40 1.129
382.50 1.1
382.60 1.072
382.70 1.043
382.80 1.014
382.90 0.9854
383.00 0.9567
383.10 0.9281
383.20 0.8995
383.30 0.8629
383.40 0.8231
383.50 0.7834
383.60 0.7917
383.70 0.8321
383.80 0.8723
383.90 0.9091
384.00 0.9463
384.10 0.985
384.20 1.023
384.30 1.06
384.40 1.093
384.50 1.124
384.60 1.151
384.70 1.174
384.80 1.194
384.90 1.211
385.00 1.226
385.10 1.238
385.20 1.249
385.30 1.259
385.40 1.266
385.50 1.272
385.60 1.277
385.70 1.281
385.80 1.284
385.90 1.286
386.00 1.286
386.10 1.286
386.20 1.285
386.30 1.282
386.40 1.279
386.50 1.275
386.60 1.27
386.70 1.264
386.80 1.257
386.90 1.248
387.00 1.238
387.10 1.228
387.20 1.215
387.30 1.2
387.40 1.185
387.50 1.166
387.60 1.146
387.70 1.123
387.80 1.096
387.90 1.065
388.00 1.031
388.10 0.9899
388.20 0.946
388.30 0.8991
388.40 0.8487
388.50 0.7993
388.60 0.7509
388.70 0.7033
388.80 0.6578
388.90 0.6144
389.00 0.6545
389.10 0.6984
389.20 0.746
389.30 0.7941
389.40 0.8435
389.50 0.8941
389.60 0.9417
389.70 0.9865
389.80 1.029
389.90 1.064
390.00 1.096
390.10 1.125
390.20 1.15
390.30 1.172
390.40 1.193
390.50 1.21
390.60 1.227
390.70 1.242
390.80 1.256
390.90 1.269
391.00 1.281
391.10 1.291
391.20 1.301
391.30 1.31
391.40 1.318
391.50 1.326
391.60 1.333
391.70 1.339
391.80 1.345
391.90 1.35
392.00 1.354
392.10 1.358
392.20 1.361
392.30 1.364
392.40 1.366
392.50 1.368
392.60 1.369
392.70 1.369
392.80 1.369
392.90 1.369
393.00 1.368
393.10 1.366
393.20 1.364
393.30 1.361
393.40 1.358
393.50 1.354
393.60 1.349
393.70 1.344
393.80 1.338
393.90 1.332
394.00 1.325
394.10 1.317
394.20 1.308
394.30 1.299
394.40 1.289
394.50 1.279
394.60 1.268
394.70 1.255
394.80 1.242
394.90 1.228
395.00 1.213
395.10 1.197
395.20 1.18
395.30 1.161
395.40 1.141
395.50 1.12
395.60 1.097
395.70 1.072
395.80 1.046
395.90 1.015
396.00 0.9824
396.10 0.947
396.20 0.9054
396.30 0.8607
396.40 0.8128
396.50 0.7607
396.60 0.7093
396.70 0.6588
396.80 0.611
396.90 0.5586
397.00 0.5014
397.10 0.554
397.20 0.604
397.30 0.6515
397.40 0.7014
397.50 0.7522
397.60 0.8039
397.70 0.8519
397.80 0.8967
397.90 0.9383
398.00 0.9738
398.10 1.007
398.20 1.037
398.30 1.063
398.40 1.088
398.50 1.111
398.60 1.132
398.70 1.152
398.80 1.171
398.90 1.188
399.00 1.205
399.10 1.22
399.20 1.235
399.30 1.248
399.40 1.261
399.50 1.273
399.60 1.285
399.70 1.296
399.80 1.306
399.90 1.316
400.00 1.326
400.10 1.334
400.20 1.343
400.30 1.351
400.40 1.358
400.50 1.365
400.60 1.372
400.70 1.378
400.80 1.384
400.90 1.39
401.00 1.395
401.10 1.4
401.20 1.405
401.30 1.409
401.40 1.413
401.50 1.417
401.60 1.42
401.70 1.424
401.80 1.427
401.90 1.429
402.00 1.432
402.10 1.434
402.20 1.436
402.30 1.438
402.40 1.44
402.50 1.441
402.60 1.443
402.70 1.444
402.80 1.445
402.90 1.445
403.00 1.446
403.10 1.446
403.20 1.446
403.30 1.446
403.40 1.446
403.50 1.445
403.60 1.444
403.70 1.444
403.80 1.443
403.90 1.441
404.00 1.44
404.10 1.438
404.20 1.437
404.30 1.435
404.40 1.432
404.50 1.43
404.60 1.427
404.70 1.424
404.80 1.421
404.90 1.418
405.00 1.414
405.10 1.411
405.20 1.407
405.30 1.402
405.40 1.398
405.50 1.393
405.60 1.388
405.70 1.383
405.80 1.377
405.90 1.371
406.00 1.365
406.10 1.359
406.20 1.352
406.30 1.345
406.40 1.338
406.50 1.33
406.60 1.322
406.70 1.314
406.80 1.305
406.90 1.295
407.00 1.286
407.10 1.275
407.20 1.265
407.30 1.253
407.40 1.241
407.50 1.229
407.60 1.215
407.70 1.201
407.80 1.187
407.90 1.171
408.00 1.155
408.10 1.139
408.20 1.121
408.30 1.102
408.40 1.083
408.50 1.062
408.60 1.04
408.70 1.017
408.80 0.9927
408.90 0.9671
409.00 0.9404
409.10 0.9107
409.20 0.8792
409.30 0.8458
409.40 0.8077
409.50 0.7674
409.60 0.7248
409.70 0.6797
409.80 0.6353
409.90 0.5914
410.00 0.5462
410.10 0.5006
410.20 0.4545
410.30 0.5178
410.40 0.5709
410.50 0.6138
410.60 0.6582
410.70 0.7025
410.80 0.7465
410.90 0.787
411.00 0.825
411.10 0.8606
411.20 0.8918
411.30 0.9212
411.40 0.9489
411.50 0.974
411.60 0.9979
411.70 1.021
411.80 1.042
411.90 1.062
412.00 1.082
412.10 1.099
412.20 1.117
412.30 1.133
412.40 1.148
412.50 1.163
412.60 1.177
412.70 1.19
412.80 1.203
412.90 1.215
413.00 1.226
413.10 1.237
413.20 1.247
413.30 1.257
413.40 1.266
413.50 1.275
413.60 1.283
413.70 1.291
413.80 1.298
413.90 1.305
414.00 1.312
414.10 1.319
414.20 1.325
414.30 1.331
414.40 1.337
414.50 1.342
414.60 1.348
414.70 1.353
414.80 1.357
414.90 1.362
415.00 1.366
415.10 1.37
415.20 1.374
415.30 1.378
415.40 1.382
415.50 1.385
415.60 1.389
415.70 1.392
415.80 1.395
415.90 1.398
416.00 1.401
416.10 1.403
416.20 1.406
416.30 1.408
416.40 1.41
416.50 1.412
416.60 1.414
416.70 1.416
416.80 1.418
416.90 1.419
417.00 1.421
417.10 1.422
417.20 1.424
417.30 1.425
417.40 1.426
417.50 1.427
417.60 1.429
417.70 1.43
417.80 1.431
417.90 1.432
418.00 1.433
418.10 1.433
418.20 1.434
418.30 1.435
418.40 1.435
418.50 1.436
418.60 1.437
418.70 1.437
418.80 1.437
418.90 1.438
419.00 1.438
419.10 1.438
419.20 1.439
419.30 1.439
419.40 1.439
419.50 1.439
419.60 1.439
419.70 1.439
419.80 1.439
419.90 1.439
420.00 1.439
420.10 1.439
420.20 1.439
420.30 1.439
420.40 1.439
420.50 1.438
420.60 1.438
420.70 1.438
420.80 1.437
420.90 1.437
421.00 1.437
421.10 1.436
421.20 1.436
421.30 1.435
421.40 1.435
421.50 1.434
421.60 1.434
421.70 1.433
421.80 1.433
421.90 1.432
422.00 1.431
422.10 1.43
422.20 1.43
422.30 1.429
422.40 1.428
422.50 1.427
422.60 1.427
422.70 1.426
422.80 1.425
422.90 1.424
423.00 1.423
423.10 1.422
423.20 1.421
423.30 1.42
423.40 1.419
423.50 1.418
423.60 1.416
423.70 1.415
423.80 1.414
423.90 1.413
424.00 1.412
424.10 1.41
424.20 1.409
424.30 1.408
424.40 1.406
424.50 1.405
424.60 1.403
424.70 1.402
424.80 1.4
424.90 1.399
425.00 1.397
425.10 1.396
425.20 1.394
425.30 1.392
425.40 1.39
425.50 1.389
425.60 1.387
425.70 1.385
425.80 1.383
425.90 1.381
426.00 1.379
426.10 1.377
426.20 1.374
426.30 1.372
426.40 1.37
426.50 1.367
426.60 1.365
426.70 1.362
426.80 1.36
426.90 1.357
427.00 1.355
427.10 1.352
427.20 1.349
427.30 1.346
427.40 1.343
427.50 1.34
427.60 1.337
427.70 1.334
427.80 1.33
427.90 1.327
428.00 1.324
428.10 1.32
428.20 1.316
428.30 1.312
428.40 1.308
428.50 1.304
428.60 1.3
428.70 1.295
428.80 1.291
428.90 1.286
429.00 1.281
429.10 1.276
429.20 1.271
429.30 1.266
429.40 1.26
429.50 1.255
429.60 1.249
429.70 1.243
429.80 1.236
429.90 1.23
430.00 1.223
430.10 1.216
430.20 1.209
430.30 1.201
430.40 1.194
430.50 1.185
430.60 1.177
430.70 1.168
430.80 1.159
430.90 1.15
431.00 1.14
431.10 1.131
431.20 1.12
431.30 1.11
431.40 1.099
431.50 1.087
431.60 1.075
431.70 1.062
431.80 1.049
431.90 1.035
432.00 1.02
432.10 1.004
432.20 0.9865
432.30 0.968
432.40 0.9485
432.50 0.9265
432.60 0.9031
432.70 0.8783
432.80 0.8515
432.90 0.8244
433.00 0.7968
433.10 0.7694
433.20 0.7414
433.30 0.7129
433.40 0.6812
433.50 0.6478
433.60 0.6126
433.70 0.5761
433.80 0.5388
433.90 0.5006
434.00 0.4231
434.10 0.4242
434.20 0.5038
434.30 0.5413
434.40 0.5781
434.50 0.6143
434.60 0.6488
434.70 0.6816
434.80 0.7125
434.90 0.7403
435.00 0.7676
435.10 0.7943
435.20 0.8211
435.30 0.8473
435.40 0.8731
435.50 0.8968
435.60 0.9191
435.70 0.94
435.80 0.9584
435.90 0.9756
436.00 0.9919
436.10 1.006
436.20 1.02
436.30 1.034
436.40 1.046
436.50 1.057
436.60 1.068
436.70 1.078
436.80 1.088
436.90 1.098
437.00 1.107
437.10 1.115
437.20 1.124
437.30 1.132
437.40 1.139
437.50 1.147
437.60 1.154
437.70 1.16
437.80 1.167
437.90 1.173
438.00 1.179
438.10 1.185
438.20 1.19
438.30 1.195
438.40 1.2
438.50 1.205
438.60 1.21
438.70 1.214
438.80 1.218
438.90 1.222
439.00 1.226
439.10 1.23
439.20 1.233
439.30 1.236
439.40 1.24
439.50 1.243
439.60 1.246
439.70 1.248
439.80 1.251
439.90 1.254
440.00 1.256
440.10 1.258
440.20 1.261
440.30 1.263
440.40 1.265
440.50 1.267
440.60 1.269
440.70 1.27
440.80 1.272
440.90 1.274
441.00 1.275
441.10 1.277
441.20 1.278
441.30 1.279
441.40 1.281
441.50 1.282
441.60 1.283
441.70 1.284
441.80 1.285
441.90 1.286
442.00 1.287
442.10 1.288
442.20 1.289
442.30 1.289
442.40 1.29
442.50 1.291
442.60 1.292
442.70 1.292
442.80 1.293
442.90 1.293
443.00 1.294
443.10 1.294
443.20 1.295
443.30 1.295
443.40 1.296
443.50 1.296
443.60 1.296
443.70 1.297
443.80 1.297
443.90 1.297
444.00 1.297
444.10 1.298
444.20 1.298
444.30 1.298
444.40 1.298
444.50 1.298
444.60 1.298
444.70 1.298
444.80 1.298
444.90 1.299
445.00 1.299
445.10 1.299
445.20 1.299
445.30 1.299
445.40 1.298
445.50 1.298
445.60 1.298
445.70 1.298
445.80 1.298
445.90 1.298
446.00 1.298
446.10 1.298
446.20 1.298
446.30 1.297
446.40 1.297
446.50 1.297
446.60 1.297
446.70 1.297
446.80 1.296
446.90 1.296
447.00 1.296
447.10 1.296
447.20 1.295
447.30 1.295
447.40 1.295
447.50 1.295
447.60 1.294
447.70 1.294
447.80 1.294
447.90 1.293
448.00 1.293
448.10 1.293
448.20 1.292
448.30 1.292
448.40 1.292
448.50 1.291
448.60 1.291
448.70 1.291
448.80 1.29
448.90 1.29
449.00 1.29
449.10 1.289
449.20 1.289
449.30 1.288
449.40 1.288
449.50 1.288
449.60 1.287
449.70 1.287
449.80 1.286
449.90 1.286
450.00 1.285
450.10 1.285
450.20 1.284
450.30 1.284
450.40 1.284
450.50 1.283
450.60 1.283
450.70 1.282
450.80 1.282
450.90 1.281
451.00 1.281
451.10 1.28
451.20 1.28
451.30 1.279
451.40 1.279
451.50 1.278
451.60 1.278
451.70 1.277
451.80 1.277
451.90 1.276
452.00 1.276
452.10 1.275
452.20 1.275
452.30 1.274
452.40 1.274
452.50 1.273
452.60 1.272
452.70 1.272
452.80 1.271
452.90 1.271
453.00 1.27
