# Version 2.1 - nm, norm@500 to 1, cut digits
# Wavelength(nm)  Flambda(ergs/cm^s/s/nm)
300.00 1.121241e-95
300.10 1.121241e-95
300.20 1.121241e-95
300.30 1.121241e-95
300.40 1.121241e-95
300.50 1.121241e-95
300.60 1.121241e-95
300.70 1.121241e-95
300.80 1.121241e-95
300.90 1.121241e-95
301.00 1.121241e-95
301.10 1.121241e-95
301.20 1.121241e-95
301.30 1.121241e-95
301.40 1.121241e-95
301.50 1.121241e-95
301.60 1.121241e-95
301.70 1.121241e-95
301.80 1.121241e-95
301.90 1.121241e-95
302.00 1.121241e-95
302.10 1.121241e-95
302.20 1.121241e-95
302.30 1.121241e-95
302.40 1.121241e-95
302.50 1.121241e-95
302.60 1.121241e-95
302.70 1.121241e-95
302.80 1.121241e-95
302.90 1.121241e-95
303.00 1.121241e-95
303.10 1.121241e-95
303.20 1.121241e-95
303.30 1.121241e-95
303.40 1.121241e-95
303.50 1.121241e-95
303.60 1.121241e-95
303.70 1.121241e-95
303.80 1.121241e-95
303.90 1.121241e-95
304.00 1.121241e-95
304.10 1.121241e-95
304.20 1.121241e-95
304.30 1.121241e-95
304.40 1.121241e-95
304.50 1.121241e-95
304.60 1.121241e-95
304.70 1.121241e-95
304.80 1.121241e-95
304.90 1.121241e-95
305.00 1.121241e-95
305.10 1.121241e-95
305.20 1.121241e-95
305.30 1.121241e-95
305.40 1.121241e-95
305.50 1.121241e-95
305.60 1.121241e-95
305.70 1.121241e-95
305.80 1.121241e-95
305.90 1.121241e-95
306.00 1.121241e-95
306.10 1.121241e-95
306.20 1.121241e-95
306.30 1.121241e-95
306.40 1.121241e-95
306.50 1.121241e-95
306.60 1.121241e-95
306.70 1.121241e-95
306.80 1.121241e-95
306.90 1.121241e-95
307.00 1.121241e-95
307.10 1.121241e-95
307.20 1.121241e-95
307.30 1.121241e-95
307.40 1.121241e-95
307.50 1.121241e-95
307.60 1.121241e-95
307.70 1.121241e-95
307.80 1.121241e-95
307.90 1.121241e-95
308.00 1.121241e-95
308.10 1.121241e-95
308.20 1.121241e-95
308.30 1.121241e-95
308.40 1.121241e-95
308.50 1.121241e-95
308.60 1.121241e-95
308.70 1.121241e-95
308.80 1.121241e-95
308.90 1.121241e-95
309.00 1.121241e-95
309.10 1.121241e-95
309.20 1.121241e-95
309.30 1.121241e-95
309.40 1.121241e-95
309.50 1.121241e-95
309.60 1.121241e-95
309.70 1.121241e-95
309.80 1.121241e-95
309.90 1.121241e-95
310.00 1.121241e-95
310.10 1.121241e-95
310.20 1.121241e-95
310.30 1.121241e-95
310.40 1.121241e-95
310.50 1.121241e-95
310.60 1.121241e-95
310.70 1.121241e-95
310.80 1.121241e-95
310.90 1.121241e-95
311.00 1.121241e-95
311.10 1.121241e-95
311.20 1.121241e-95
311.30 1.121241e-95
311.40 1.121241e-95
311.50 1.121241e-95
311.60 1.121241e-95
311.70 1.121241e-95
311.80 1.121241e-95
311.90 1.121241e-95
312.00 1.121241e-95
312.10 1.121241e-95
312.20 1.121241e-95
312.30 1.121241e-95
312.40 1.121241e-95
312.50 1.121241e-95
312.60 1.121241e-95
312.70 1.121241e-95
312.80 1.121241e-95
312.90 1.121241e-95
313.00 1.121241e-95
313.10 1.121241e-95
313.20 1.121241e-95
313.30 1.121241e-95
313.40 1.121241e-95
313.50 1.121241e-95
313.60 1.121241e-95
313.70 1.121241e-95
313.80 1.121241e-95
313.90 1.121241e-95
314.00 1.121241e-95
314.10 1.121241e-95
314.20 1.121241e-95
314.30 1.121241e-95
314.40 1.121241e-95
314.50 1.121241e-95
314.60 1.121241e-95
314.70 1.121241e-95
314.80 1.121241e-95
314.90 1.121241e-95
315.00 1.121241e-95
315.10 1.121241e-95
315.20 1.121241e-95
315.30 1.121241e-95
315.40 1.121241e-95
315.50 1.121241e-95
315.60 1.121241e-95
315.70 1.121241e-95
315.80 1.121241e-95
315.90 1.121241e-95
316.00 1.121241e-95
316.10 1.121241e-95
316.20 1.121241e-95
316.30 1.121241e-95
316.40 1.121241e-95
316.50 1.121241e-95
316.60 1.121241e-95
316.70 1.121241e-95
316.80 1.121241e-95
316.90 1.121241e-95
317.00 1.121241e-95
317.10 1.121241e-95
317.20 1.121241e-95
317.30 1.121241e-95
317.40 1.121241e-95
317.50 1.121241e-95
317.60 1.121241e-95
317.70 1.121241e-95
317.80 1.121241e-95
317.90 1.121241e-95
318.00 1.121241e-95
318.10 1.121241e-95
318.20 1.121241e-95
318.30 1.121241e-95
318.40 1.121241e-95
318.50 1.121241e-95
318.60 1.121241e-95
318.70 1.121241e-95
318.80 1.121241e-95
318.90 1.121241e-95
319.00 1.121241e-95
319.10 1.121241e-95
319.20 1.121241e-95
319.30 1.121241e-95
319.40 1.121241e-95
319.50 1.121241e-95
319.60 1.121241e-95
319.70 1.121241e-95
319.80 1.121241e-95
319.90 1.121241e-95
320.00 1.121241e-95
320.10 1.121241e-95
320.20 1.121241e-95
320.30 1.121241e-95
320.40 1.121241e-95
320.50 1.121241e-95
320.60 1.121241e-95
320.70 1.121241e-95
320.80 1.121241e-95
320.90 1.121241e-95
321.00 1.121241e-95
321.10 1.121241e-95
321.20 1.121241e-95
321.30 1.121241e-95
321.40 1.121241e-95
321.50 1.121241e-95
321.60 1.121241e-95
321.70 1.121241e-95
321.80 1.121241e-95
321.90 1.121241e-95
322.00 1.121241e-95
322.10 1.121241e-95
322.20 1.121241e-95
322.30 1.121241e-95
322.40 1.121241e-95
322.50 1.121241e-95
322.60 1.121241e-95
322.70 1.121241e-95
322.80 1.121241e-95
322.90 1.121241e-95
323.00 1.121241e-95
323.10 1.121241e-95
323.20 1.121241e-95
323.30 1.121241e-95
323.40 1.121241e-95
323.50 1.121241e-95
323.60 1.121241e-95
323.70 1.121241e-95
323.80 1.121241e-95
323.90 1.121241e-95
324.00 1.121241e-95
324.10 1.121241e-95
324.20 1.121241e-95
324.30 1.121241e-95
324.40 1.121241e-95
324.50 1.121241e-95
324.60 1.121241e-95
324.70 1.121241e-95
324.80 1.121241e-95
324.90 1.121241e-95
325.00 1.121241e-95
325.10 1.121241e-95
325.20 1.121241e-95
325.30 1.121241e-95
325.40 1.121241e-95
325.50 1.121241e-95
325.60 1.121241e-95
325.70 1.121241e-95
325.80 1.121241e-95
325.90 1.121241e-95
326.00 1.121241e-95
326.10 1.121241e-95
326.20 1.121241e-95
326.30 1.121241e-95
326.40 1.121241e-95
326.50 1.121241e-95
326.60 1.121241e-95
326.70 1.121241e-95
326.80 1.121241e-95
326.90 1.121241e-95
327.00 1.121241e-95
327.10 1.121241e-95
327.20 1.121241e-95
327.30 1.121241e-95
327.40 1.121241e-95
327.50 1.121241e-95
327.60 1.121241e-95
327.70 1.121241e-95
327.80 1.121241e-95
327.90 1.121241e-95
328.00 1.121241e-95
328.10 1.121241e-95
328.20 1.121241e-95
328.30 1.121241e-95
328.40 1.121241e-95
328.50 1.121241e-95
328.60 1.121241e-95
328.70 1.121241e-95
328.80 1.121241e-95
328.90 1.121241e-95
329.00 1.121241e-95
329.10 1.121241e-95
329.20 1.121241e-95
329.30 1.121241e-95
329.40 1.121241e-95
329.50 1.121241e-95
329.60 1.121241e-95
329.70 1.121241e-95
329.80 1.121241e-95
329.90 1.121241e-95
330.00 1.121241e-95
330.10 1.121241e-95
330.20 1.121241e-95
330.30 1.121241e-95
330.40 1.121241e-95
330.50 1.121241e-95
330.60 1.121241e-95
330.70 1.121241e-95
330.80 1.121241e-95
330.90 1.121241e-95
331.00 1.121241e-95
331.10 1.121241e-95
331.20 1.121241e-95
331.30 1.121241e-95
331.40 1.121241e-95
331.50 1.121241e-95
331.60 1.121241e-95
331.70 1.121241e-95
331.80 1.121241e-95
331.90 1.121241e-95
332.00 1.121241e-95
332.10 1.121241e-95
332.20 1.121241e-95
332.30 1.121241e-95
332.40 1.121241e-95
332.50 1.121241e-95
332.60 1.121241e-95
332.70 1.121241e-95
332.80 1.121241e-95
332.90 1.121241e-95
333.00 1.121241e-95
333.10 1.121241e-95
333.20 1.121241e-95
333.30 1.121241e-95
333.40 1.121241e-95
333.50 1.121241e-95
333.60 1.121241e-95
333.70 1.121241e-95
333.80 1.121241e-95
333.90 1.121241e-95
334.00 1.121241e-95
334.10 1.121241e-95
334.20 1.121241e-95
334.30 1.121241e-95
334.40 1.121241e-95
334.50 1.121241e-95
334.60 1.121241e-95
334.70 1.121241e-95
334.80 1.121241e-95
334.90 1.121241e-95
335.00 1.121241e-95
335.10 1.121241e-95
335.20 1.121241e-95
335.30 1.121241e-95
335.40 1.121241e-95
335.50 1.121241e-95
335.60 1.121241e-95
335.70 1.121241e-95
335.80 1.121241e-95
335.90 1.121241e-95
336.00 1.121241e-95
336.10 1.121241e-95
336.20 1.121241e-95
336.30 1.121241e-95
336.40 1.121241e-95
336.50 1.121241e-95
336.60 1.121241e-95
336.70 1.121241e-95
336.80 1.121241e-95
336.90 1.121241e-95
337.00 1.121241e-95
337.10 1.121241e-95
337.20 1.121241e-95
337.30 1.121241e-95
337.40 1.121241e-95
337.50 1.121241e-95
337.60 1.121241e-95
337.70 1.121241e-95
337.80 1.121241e-95
337.90 1.121241e-95
338.00 1.121241e-95
338.10 1.121241e-95
338.20 1.121241e-95
338.30 1.121241e-95
338.40 1.121241e-95
338.50 1.121241e-95
338.60 1.121241e-95
338.70 1.121241e-95
338.80 1.121241e-95
338.90 1.121241e-95
339.00 1.121241e-95
339.10 1.121241e-95
339.20 1.121241e-95
339.30 1.121241e-95
339.40 1.121241e-95
339.50 1.121241e-95
339.60 1.121241e-95
339.70 1.121241e-95
339.80 1.121241e-95
339.90 1.121241e-95
340.00 1.121241e-95
340.10 1.121241e-95
340.20 1.121241e-95
340.30 1.121241e-95
340.40 1.121241e-95
340.50 1.121241e-95
340.60 1.121241e-95
340.70 1.121241e-95
340.80 1.121241e-95
340.90 1.121241e-95
341.00 1.121241e-95
341.10 1.121241e-95
341.20 1.121241e-95
341.30 1.121241e-95
341.40 1.121241e-95
341.50 1.121241e-95
341.60 1.121241e-95
341.70 1.121241e-95
341.80 1.121241e-95
341.90 1.121241e-95
342.00 1.121241e-95
342.10 1.121241e-95
342.20 1.121241e-95
342.30 1.121241e-95
342.40 1.121241e-95
342.50 1.121241e-95
342.60 1.121241e-95
342.70 1.121241e-95
342.80 1.121241e-95
342.90 1.121241e-95
343.00 1.121241e-95
343.10 1.121241e-95
343.20 1.121241e-95
343.30 1.121241e-95
343.40 1.121241e-95
343.50 1.121241e-95
343.60 1.121241e-95
343.70 1.121241e-95
343.80 1.121241e-95
343.90 1.121241e-95
344.00 1.121241e-95
344.10 1.121241e-95
344.20 1.121241e-95
344.30 1.121241e-95
344.40 1.121241e-95
344.50 1.121241e-95
344.60 1.121241e-95
344.70 1.121241e-95
344.80 1.121241e-95
344.90 1.121241e-95
345.00 1.121241e-95
345.10 1.121241e-95
345.20 1.121241e-95
345.30 1.121241e-95
345.40 1.121241e-95
345.50 1.121241e-95
345.60 1.121241e-95
345.70 1.121241e-95
345.80 1.121241e-95
345.90 1.121241e-95
346.00 1.121241e-95
346.10 1.121241e-95
346.20 1.121241e-95
346.30 1.121241e-95
346.40 1.121241e-95
346.50 1.121241e-95
346.60 1.121241e-95
346.70 1.121241e-95
346.80 1.121241e-95
346.90 1.121241e-95
347.00 1.121241e-95
347.10 1.121241e-95
347.20 1.121241e-95
347.30 1.121241e-95
347.40 1.121241e-95
347.50 1.121241e-95
347.60 1.121241e-95
347.70 1.121241e-95
347.80 1.121241e-95
347.90 1.121241e-95
348.00 1.121241e-95
348.10 1.121241e-95
348.20 1.121241e-95
348.30 1.121241e-95
348.40 1.121241e-95
348.50 1.121241e-95
348.60 1.121241e-95
348.70 1.121241e-95
348.80 1.121241e-95
348.90 1.121241e-95
349.00 1.121241e-95
349.10 1.121241e-95
349.20 1.121241e-95
349.30 1.121241e-95
349.40 1.121241e-95
349.50 1.121241e-95
349.60 1.121241e-95
349.70 1.121241e-95
349.80 1.121241e-95
349.90 1.121241e-95
350.00 1.121241e-95
350.10 1.121241e-95
350.20 1.121241e-95
350.30 1.121241e-95
350.40 1.121241e-95
350.50 1.121241e-95
350.60 1.121241e-95
350.70 1.121241e-95
350.80 1.121241e-95
350.90 1.121241e-95
351.00 1.121241e-95
351.10 1.121241e-95
351.20 1.121241e-95
351.30 1.121241e-95
351.40 1.121241e-95
351.50 1.121241e-95
351.60 1.121241e-95
351.70 1.121241e-95
351.80 1.121241e-95
351.90 1.121241e-95
352.00 1.121241e-95
352.10 1.121241e-95
352.20 1.121241e-95
352.30 1.121241e-95
352.40 1.121241e-95
352.50 1.121241e-95
352.60 1.121241e-95
352.70 1.121241e-95
352.80 1.121241e-95
352.90 1.121241e-95
353.00 1.121241e-95
353.10 1.121241e-95
353.20 1.121241e-95
353.30 1.121241e-95
353.40 1.121241e-95
353.50 1.121241e-95
353.60 1.121241e-95
353.70 1.121241e-95
353.80 1.121241e-95
353.90 1.121241e-95
354.00 1.121241e-95
354.10 1.121241e-95
354.20 1.121241e-95
354.30 1.121241e-95
354.40 1.121241e-95
354.50 1.121241e-95
354.60 1.121241e-95
354.70 1.121241e-95
354.80 1.121241e-95
354.90 1.121241e-95
355.00 1.121241e-95
355.10 1.121241e-95
355.20 1.121241e-95
355.30 1.121241e-95
355.40 1.121241e-95
355.50 1.121241e-95
355.60 1.121241e-95
355.70 1.121241e-95
355.80 1.121241e-95
355.90 1.121241e-95
356.00 1.121241e-95
356.10 1.121241e-95
356.20 1.121241e-95
356.30 1.121241e-95
356.40 1.121241e-95
356.50 1.121241e-95
356.60 1.121241e-95
356.70 1.121241e-95
356.80 1.121241e-95
356.90 1.121241e-95
357.00 1.121241e-95
357.10 1.121241e-95
357.20 1.121241e-95
357.30 1.121241e-95
357.40 1.121241e-95
357.50 1.121241e-95
357.60 1.121241e-95
357.70 1.121241e-95
357.80 1.121241e-95
357.90 1.121241e-95
358.00 1.121241e-95
358.10 1.121241e-95
358.20 1.121241e-95
358.30 1.121241e-95
358.40 1.121241e-95
358.50 1.121241e-95
358.60 1.121241e-95
358.70 1.121241e-95
358.80 1.121241e-95
358.90 1.121241e-95
359.00 1.121241e-95
359.10 1.121241e-95
359.20 1.121241e-95
359.30 1.121241e-95
359.40 1.121241e-95
359.50 1.121241e-95
359.60 1.121241e-95
359.70 1.121241e-95
359.80 1.121241e-95
359.90 1.121241e-95
360.00 1.121241e-95
360.10 1.121241e-95
360.20 1.121241e-95
360.30 1.121241e-95
360.40 1.121241e-95
360.50 1.121241e-95
360.60 1.121241e-95
360.70 1.121241e-95
360.80 1.121241e-95
360.90 1.121241e-95
361.00 1.121241e-95
361.10 1.121241e-95
361.20 1.121241e-95
361.30 1.121241e-95
361.40 1.121241e-95
361.50 1.121241e-95
361.60 1.121241e-95
361.70 1.121241e-95
361.80 1.121241e-95
361.90 1.121241e-95
362.00 1.121241e-95
362.10 1.121241e-95
362.20 1.121241e-95
362.30 1.121241e-95
362.40 1.121241e-95
362.50 1.121241e-95
362.60 1.121241e-95
362.70 1.121241e-95
362.80 1.121241e-95
362.90 1.121241e-95
363.00 1.121241e-95
363.10 1.121241e-95
363.20 1.121241e-95
363.30 1.121241e-95
363.40 1.121241e-95
363.50 1.121241e-95
363.60 1.121241e-95
363.70 1.121241e-95
363.80 1.121241e-95
363.90 1.121241e-95
364.00 1.121241e-95
364.10 1.121241e-95
364.20 1.121241e-95
364.30 1.121241e-95
364.40 1.121241e-95
364.50 1.121241e-95
364.60 1.121241e-95
364.70 1.121241e-95
364.80 1.121241e-95
364.90 1.121241e-95
365.00 1.121241e-95
365.10 1.121241e-95
365.20 1.121241e-95
365.30 1.121241e-95
365.40 1.121241e-95
365.50 1.121241e-95
365.60 1.121241e-95
365.70 1.121241e-95
365.80 1.121241e-95
365.90 1.121241e-95
366.00 1.121241e-95
366.10 1.121241e-95
366.20 1.121241e-95
366.30 1.121241e-95
366.40 1.121241e-95
366.50 1.121241e-95
366.60 1.121241e-95
366.70 1.121241e-95
366.80 1.121241e-95
366.90 1.121241e-95
367.00 1.121241e-95
367.10 1.121241e-95
367.20 1.121241e-95
367.30 1.121241e-95
367.40 1.121241e-95
367.50 1.121241e-95
367.60 1.121241e-95
367.70 1.121241e-95
367.80 1.121241e-95
367.90 1.121241e-95
368.00 1.121241e-95
368.10 1.121241e-95
368.20 1.121241e-95
368.30 1.121241e-95
368.40 1.121241e-95
368.50 1.121241e-95
368.60 1.121241e-95
368.70 1.121241e-95
368.80 1.121241e-95
368.90 1.121241e-95
369.00 1.121241e-95
369.10 1.121241e-95
369.20 1.121241e-95
369.30 1.121241e-95
369.40 1.121241e-95
369.50 1.121241e-95
369.60 1.121241e-95
369.70 1.121241e-95
369.80 1.121241e-95
369.90 1.121241e-95
370.00 1.121241e-95
370.10 1.121241e-95
370.20 1.121241e-95
370.30 1.121241e-95
370.40 1.121241e-95
370.50 1.121241e-95
370.60 1.121241e-95
370.70 1.121241e-95
370.80 1.121241e-95
370.90 1.121241e-95
371.00 1.121241e-95
371.10 1.121241e-95
371.20 1.121241e-95
371.30 1.121241e-95
371.40 1.121241e-95
371.50 1.121241e-95
371.60 1.121241e-95
371.70 1.121241e-95
371.80 1.121241e-95
371.90 1.121241e-95
372.00 1.121241e-95
372.10 1.121241e-95
372.20 1.121241e-95
372.30 1.121241e-95
372.40 1.121241e-95
372.50 1.121241e-95
372.60 1.121241e-95
372.70 1.121241e-95
372.80 1.121241e-95
372.90 1.121241e-95
373.00 1.121241e-95
373.10 1.121241e-95
373.20 1.121241e-95
373.30 1.121241e-95
373.40 1.121241e-95
373.50 1.121241e-95
373.60 1.121241e-95
373.70 1.121241e-95
373.80 1.121241e-95
373.90 1.121241e-95
374.00 1.121241e-95
374.10 1.121241e-95
374.20 1.121241e-95
374.30 1.121241e-95
374.40 1.121241e-95
374.50 1.121241e-95
374.60 1.121241e-95
374.70 1.121241e-95
374.80 1.121241e-95
374.90 1.121241e-95
375.00 1.121241e-95
375.10 1.121241e-95
375.20 1.121241e-95
375.30 1.121241e-95
375.40 1.121241e-95
375.50 1.121241e-95
375.60 1.121241e-95
375.70 1.121241e-95
375.80 1.121241e-95
375.90 1.121241e-95
376.00 1.121241e-95
376.10 1.121241e-95
376.20 1.121241e-95
376.30 1.121241e-95
376.40 1.121241e-95
376.50 1.121241e-95
376.60 1.121241e-95
376.70 1.121241e-95
376.80 1.121241e-95
376.90 1.121241e-95
377.00 1.121241e-95
377.10 1.121241e-95
377.20 1.121241e-95
377.30 1.121241e-95
377.40 1.121241e-95
377.50 1.121241e-95
377.60 1.121241e-95
377.70 1.121241e-95
377.80 1.121241e-95
377.90 1.121241e-95
378.00 1.121241e-95
378.10 1.121241e-95
378.20 1.121241e-95
378.30 1.121241e-95
378.40 1.121241e-95
378.50 1.121241e-95
378.60 1.121241e-95
378.70 1.121241e-95
378.80 1.121241e-95
378.90 1.121241e-95
379.00 1.121241e-95
379.10 1.121241e-95
379.20 1.121241e-95
379.30 1.121241e-95
379.40 1.121241e-95
379.50 1.121241e-95
379.60 1.121241e-95
379.70 1.121241e-95
379.80 1.121241e-95
379.90 1.121241e-95
380.00 1.121241e-95
380.10 1.121241e-95
380.20 1.121241e-95
380.30 1.121241e-95
380.40 1.121241e-95
380.50 1.121241e-95
380.60 1.121241e-95
380.70 1.121241e-95
380.80 1.121241e-95
380.90 1.121241e-95
381.00 1.121241e-95
381.10 1.121241e-95
381.20 1.121241e-95
381.30 1.121241e-95
381.40 1.121241e-95
381.50 1.121241e-95
381.60 1.121241e-95
381.70 1.121241e-95
381.80 1.121241e-95
381.90 1.121241e-95
382.00 1.121241e-95
382.10 1.121241e-95
382.20 1.121241e-95
382.30 1.121241e-95
382.40 1.121241e-95
382.50 1.121241e-95
382.60 1.121241e-95
382.70 1.121241e-95
382.80 1.121241e-95
382.90 1.121241e-95
383.00 1.121241e-95
383.10 1.121241e-95
383.20 1.121241e-95
383.30 1.121241e-95
383.40 1.121241e-95
383.50 1.121241e-95
383.60 1.121241e-95
383.70 1.121241e-95
383.80 1.121241e-95
383.90 1.121241e-95
384.00 1.121241e-95
384.10 1.121241e-95
384.20 1.121241e-95
384.30 1.121241e-95
384.40 1.121241e-95
384.50 1.121241e-95
384.60 1.121241e-95
384.70 1.121241e-95
384.80 1.121241e-95
384.90 1.121241e-95
385.00 1.121241e-95
385.10 1.121241e-95
385.20 1.121241e-95
385.30 1.121241e-95
385.40 1.121241e-95
385.50 1.121241e-95
385.60 1.121241e-95
385.70 1.121241e-95
385.80 1.121241e-95
385.90 1.121241e-95
386.00 1.121241e-95
386.10 1.121241e-95
386.20 1.121241e-95
386.30 1.121241e-95
386.40 1.121241e-95
386.50 1.121241e-95
386.60 1.121241e-95
386.70 1.121241e-95
386.80 1.121241e-95
386.90 1.121241e-95
387.00 1.121241e-95
387.10 1.121241e-95
387.20 1.121241e-95
387.30 1.121241e-95
387.40 1.121241e-95
387.50 1.121241e-95
387.60 1.121241e-95
387.70 1.121241e-95
387.80 1.121241e-95
387.90 1.121241e-95
388.00 1.121241e-95
388.10 1.121241e-95
388.20 1.121241e-95
388.30 1.121241e-95
388.40 1.121241e-95
388.50 1.121241e-95
388.60 1.121241e-95
388.70 1.121241e-95
388.80 1.121241e-95
388.90 1.121241e-95
389.00 1.121241e-95
389.10 1.121241e-95
389.20 1.121241e-95
389.30 1.121241e-95
389.40 1.121241e-95
389.50 1.121241e-95
389.60 1.121241e-95
389.70 1.121241e-95
389.80 1.121241e-95
389.90 1.121241e-95
390.00 1.121241e-95
390.10 1.121241e-95
390.20 1.121241e-95
390.30 1.121241e-95
390.40 1.121241e-95
390.50 1.121241e-95
390.60 1.121241e-95
390.70 1.121241e-95
390.80 1.121241e-95
390.90 1.121241e-95
391.00 1.121241e-95
391.10 1.121241e-95
391.20 1.121241e-95
391.30 1.121241e-95
391.40 1.121241e-95
391.50 1.121241e-95
391.60 1.121241e-95
391.70 1.121241e-95
391.80 1.121241e-95
391.90 1.121241e-95
392.00 1.121241e-95
392.10 1.121241e-95
392.20 1.121241e-95
392.30 1.121241e-95
392.40 1.121241e-95
392.50 1.121241e-95
392.60 1.121241e-95
392.70 1.121241e-95
392.80 1.121241e-95
392.90 1.121241e-95
393.00 1.121241e-95
393.10 1.121241e-95
393.20 1.121241e-95
393.30 1.121241e-95
393.40 1.121241e-95
393.50 1.121241e-95
393.60 1.121241e-95
393.70 1.121241e-95
393.80 1.121241e-95
393.90 1.121241e-95
394.00 1.121241e-95
394.10 1.121241e-95
394.20 1.121241e-95
394.30 1.121241e-95
394.40 1.121241e-95
394.50 1.121241e-95
394.60 1.121241e-95
394.70 1.121241e-95
394.80 1.121241e-95
394.90 1.121241e-95
395.00 1.110028e-95
395.10 1.098816e-95
395.20 1.087603e-95
395.30 1.076391e-95
395.40 1.065179e-95
395.50 1.053966e-95
395.60 1.042754e-95
395.70 1.031541e-95
395.80 1.020329e-95
395.90 1.009116e-95
396.00 9.979041e-96
396.10 9.866917e-96
396.20 0.001025765
396.30 0.004306257
396.40 0.006984198
396.50 0.006984198
396.60 0.006984198
396.70 0.006984198
396.80 0.006984198
396.90 0.006984198
397.00 0.006984198
397.10 0.006984198
397.20 0.006984198
397.30 0.006984198
397.40 0.006984198
397.50 0.006984198
397.60 0.006984198
397.70 0.006984198
397.80 0.006984198
397.90 0.02335401
398.00 0.05423372
398.10 0.0920469
398.20 0.1285577
398.30 0.1565934
398.40 0.170147
398.50 0.170147
398.60 0.170147
398.70 0.170147
398.80 0.170147
398.90 0.170147
399.00 0.1875431
399.10 0.2234321
399.20 0.2729819
399.30 0.3298064
399.40 0.3885404
399.50 0.4459164
399.60 0.4998647
399.70 0.5504764
399.80 0.6012582
