# Version 2.1 - nm, norm@500 to 1, cut digits
# Wavelength(nm)  Flambda(ergs/cm^s/s/nm)
300.00 9.730555e-96
300.10 9.730555e-96
300.20 9.730555e-96
300.30 9.730555e-96
300.40 9.730555e-96
300.50 9.730555e-96
300.60 9.730555e-96
300.70 9.730555e-96
300.80 9.730555e-96
300.90 9.730555e-96
301.00 9.730555e-96
301.10 9.730555e-96
301.20 9.730555e-96
301.30 9.730555e-96
301.40 9.730555e-96
301.50 9.730555e-96
301.60 9.730555e-96
301.70 9.730555e-96
301.80 9.730555e-96
301.90 9.730555e-96
302.00 9.730555e-96
302.10 9.730555e-96
302.20 9.730555e-96
302.30 9.730555e-96
302.40 9.730555e-96
302.50 9.730555e-96
302.60 9.730555e-96
302.70 9.730555e-96
302.80 9.730555e-96
302.90 9.730555e-96
303.00 9.730555e-96
303.10 9.730555e-96
303.20 9.730555e-96
303.30 9.730555e-96
303.40 9.730555e-96
303.50 9.730555e-96
303.60 9.730555e-96
303.70 9.730555e-96
303.80 9.730555e-96
303.90 9.730555e-96
304.00 9.730555e-96
304.10 9.730555e-96
304.20 9.730555e-96
304.30 9.730555e-96
304.40 9.730555e-96
304.50 9.730555e-96
304.60 9.730555e-96
304.70 9.730555e-96
304.80 9.730555e-96
304.90 9.730555e-96
305.00 9.730555e-96
305.10 9.730555e-96
305.20 9.730555e-96
305.30 9.730555e-96
305.40 9.730555e-96
305.50 9.730555e-96
305.60 9.730555e-96
305.70 9.730555e-96
305.80 9.730555e-96
305.90 9.730555e-96
306.00 9.730555e-96
306.10 9.730555e-96
306.20 9.730555e-96
306.30 9.730555e-96
306.40 9.730555e-96
306.50 9.730555e-96
306.60 9.730555e-96
306.70 9.730555e-96
306.80 9.730555e-96
306.90 9.730555e-96
307.00 9.730555e-96
307.10 9.730555e-96
307.20 9.730555e-96
307.30 9.730555e-96
307.40 9.730555e-96
307.50 9.730555e-96
307.60 9.730555e-96
307.70 9.730555e-96
307.80 9.730555e-96
307.90 9.730555e-96
308.00 9.730555e-96
308.10 9.730555e-96
308.20 9.730555e-96
308.30 9.730555e-96
308.40 9.730555e-96
308.50 9.730555e-96
308.60 9.730555e-96
308.70 9.730555e-96
308.80 9.730555e-96
308.90 9.730555e-96
309.00 9.730555e-96
309.10 9.730555e-96
309.20 9.730555e-96
309.30 9.730555e-96
309.40 9.730555e-96
309.50 9.730555e-96
309.60 9.730555e-96
309.70 9.730555e-96
309.80 9.730555e-96
309.90 9.730555e-96
310.00 9.730555e-96
310.10 9.730555e-96
310.20 9.730555e-96
310.30 9.730555e-96
310.40 9.730555e-96
310.50 9.730555e-96
310.60 9.730555e-96
310.70 9.730555e-96
310.80 9.730555e-96
310.90 9.730555e-96
311.00 9.730555e-96
311.10 9.730555e-96
311.20 9.730555e-96
311.30 9.730555e-96
311.40 9.730555e-96
311.50 9.730555e-96
311.60 9.730555e-96
311.70 9.730555e-96
311.80 9.730555e-96
311.90 9.730555e-96
312.00 9.730555e-96
312.10 9.730555e-96
312.20 9.730555e-96
312.30 9.730555e-96
312.40 9.730555e-96
312.50 9.730555e-96
312.60 9.730555e-96
312.70 9.730555e-96
312.80 9.730555e-96
312.90 9.730555e-96
313.00 9.730555e-96
313.10 9.730555e-96
313.20 9.730555e-96
313.30 9.730555e-96
313.40 9.730555e-96
313.50 9.730555e-96
313.60 9.730555e-96
313.70 9.730555e-96
313.80 9.730555e-96
313.90 9.730555e-96
314.00 9.730555e-96
314.10 9.730555e-96
314.20 9.730555e-96
314.30 9.730555e-96
314.40 9.730555e-96
314.50 9.730555e-96
314.60 9.730555e-96
314.70 9.730555e-96
314.80 9.730555e-96
314.90 9.730555e-96
315.00 9.730555e-96
315.10 9.730555e-96
315.20 9.730555e-96
315.30 9.730555e-96
315.40 9.730555e-96
315.50 9.730555e-96
315.60 9.730555e-96
315.70 9.730555e-96
315.80 9.730555e-96
315.90 9.730555e-96
316.00 9.730555e-96
316.10 9.730555e-96
316.20 9.730555e-96
316.30 9.730555e-96
316.40 9.730555e-96
316.50 9.730555e-96
316.60 9.730555e-96
316.70 9.730555e-96
316.80 9.730555e-96
316.90 9.730555e-96
317.00 9.730555e-96
317.10 9.730555e-96
317.20 9.730555e-96
317.30 9.730555e-96
317.40 9.730555e-96
317.50 9.730555e-96
317.60 9.730555e-96
317.70 9.730555e-96
317.80 9.730555e-96
317.90 9.730555e-96
318.00 9.730555e-96
318.10 9.730555e-96
318.20 9.730555e-96
318.30 9.730555e-96
318.40 9.730555e-96
318.50 9.730555e-96
318.60 9.730555e-96
318.70 9.730555e-96
318.80 9.730555e-96
318.90 9.730555e-96
319.00 9.730555e-96
319.10 9.730555e-96
319.20 9.730555e-96
319.30 9.730555e-96
319.40 9.730555e-96
319.50 9.730555e-96
319.60 9.730555e-96
319.70 9.730555e-96
319.80 9.730555e-96
319.90 9.730555e-96
320.00 9.730555e-96
320.10 9.730555e-96
320.20 9.730555e-96
320.30 9.730555e-96
320.40 9.730555e-96
320.50 9.730555e-96
320.60 9.730555e-96
320.70 9.730555e-96
320.80 9.730555e-96
320.90 9.730555e-96
321.00 9.730555e-96
321.10 9.730555e-96
321.20 9.730555e-96
321.30 9.730555e-96
321.40 9.730555e-96
321.50 9.730555e-96
321.60 9.730555e-96
321.70 9.730555e-96
321.80 9.730555e-96
321.90 9.730555e-96
322.00 9.730555e-96
322.10 9.730555e-96
322.20 9.730555e-96
322.30 9.730555e-96
322.40 9.730555e-96
322.50 9.730555e-96
322.60 9.730555e-96
322.70 9.730555e-96
322.80 9.730555e-96
322.90 9.730555e-96
323.00 9.730555e-96
323.10 9.730555e-96
323.20 9.730555e-96
323.30 9.730555e-96
323.40 9.730555e-96
323.50 9.730555e-96
323.60 9.730555e-96
323.70 9.730555e-96
323.80 9.730555e-96
323.90 9.730555e-96
324.00 9.730555e-96
324.10 9.730555e-96
324.20 9.730555e-96
324.30 9.730555e-96
324.40 9.730555e-96
324.50 9.730555e-96
324.60 9.730555e-96
324.70 9.730555e-96
324.80 9.730555e-96
324.90 9.730555e-96
325.00 9.730555e-96
325.10 9.730555e-96
325.20 9.730555e-96
325.30 9.730555e-96
325.40 9.730555e-96
325.50 9.730555e-96
325.60 9.730555e-96
325.70 9.730555e-96
325.80 9.730555e-96
325.90 9.730555e-96
326.00 9.730555e-96
326.10 9.730555e-96
326.20 9.730555e-96
326.30 9.730555e-96
326.40 9.730555e-96
326.50 9.730555e-96
326.60 9.730555e-96
326.70 9.730555e-96
326.80 9.730555e-96
326.90 9.730555e-96
327.00 9.730555e-96
327.10 9.730555e-96
327.20 9.730555e-96
327.30 9.730555e-96
327.40 9.730555e-96
327.50 9.730555e-96
327.60 9.730555e-96
327.70 9.730555e-96
327.80 9.730555e-96
327.90 9.730555e-96
328.00 9.730555e-96
328.10 9.730555e-96
328.20 9.730555e-96
328.30 9.730555e-96
328.40 9.730555e-96
328.50 9.730555e-96
328.60 9.730555e-96
328.70 9.730555e-96
328.80 9.730555e-96
328.90 9.730555e-96
329.00 9.730555e-96
329.10 9.730555e-96
329.20 9.730555e-96
329.30 9.730555e-96
329.40 9.730555e-96
329.50 9.730555e-96
329.60 9.730555e-96
329.70 9.730555e-96
329.80 9.730555e-96
329.90 9.730555e-96
330.00 9.730555e-96
330.10 9.730555e-96
330.20 9.730555e-96
330.30 9.730555e-96
330.40 9.730555e-96
330.50 9.730555e-96
330.60 9.730555e-96
330.70 9.730555e-96
330.80 9.730555e-96
330.90 9.730555e-96
331.00 9.730555e-96
331.10 9.730555e-96
331.20 9.730555e-96
331.30 9.730555e-96
331.40 9.730555e-96
331.50 9.730555e-96
331.60 9.730555e-96
331.70 9.730555e-96
331.80 9.730555e-96
331.90 9.730555e-96
332.00 9.730555e-96
332.10 9.730555e-96
332.20 9.730555e-96
332.30 9.730555e-96
332.40 9.730555e-96
332.50 9.730555e-96
332.60 9.730555e-96
332.70 9.730555e-96
332.80 9.730555e-96
332.90 9.730555e-96
333.00 9.730555e-96
333.10 9.730555e-96
333.20 9.730555e-96
333.30 9.730555e-96
333.40 9.730555e-96
333.50 9.730555e-96
333.60 9.730555e-96
333.70 9.730555e-96
333.80 9.730555e-96
333.90 9.730555e-96
334.00 9.730555e-96
334.10 9.730555e-96
334.20 9.730555e-96
334.30 9.730555e-96
334.40 9.730555e-96
334.50 9.730555e-96
334.60 9.730555e-96
334.70 9.730555e-96
334.80 9.730555e-96
334.90 9.730555e-96
335.00 9.730555e-96
335.10 9.730555e-96
335.20 9.730555e-96
335.30 9.730555e-96
335.40 9.730555e-96
335.50 9.730555e-96
335.60 9.730555e-96
335.70 9.730555e-96
335.80 9.730555e-96
335.90 9.730555e-96
336.00 9.730555e-96
336.10 9.730555e-96
336.20 9.730555e-96
336.30 9.730555e-96
336.40 9.730555e-96
336.50 9.730555e-96
336.60 9.730555e-96
336.70 9.730555e-96
336.80 9.730555e-96
336.90 9.730555e-96
337.00 9.730555e-96
337.10 9.730555e-96
337.20 9.730555e-96
337.30 9.730555e-96
337.40 9.730555e-96
337.50 9.730555e-96
337.60 9.730555e-96
337.70 9.730555e-96
337.80 9.730555e-96
337.90 9.730555e-96
338.00 9.730555e-96
338.10 9.730555e-96
338.20 9.730555e-96
338.30 9.730555e-96
338.40 9.730555e-96
338.50 9.730555e-96
338.60 9.730555e-96
338.70 9.730555e-96
338.80 9.730555e-96
338.90 9.730555e-96
339.00 9.730555e-96
339.10 9.730555e-96
339.20 9.730555e-96
339.30 9.730555e-96
339.40 9.730555e-96
339.50 9.730555e-96
339.60 9.730555e-96
339.70 9.730555e-96
339.80 9.730555e-96
339.90 9.730555e-96
340.00 9.730555e-96
340.10 9.730555e-96
340.20 9.730555e-96
340.30 9.730555e-96
340.40 9.730555e-96
340.50 9.730555e-96
340.60 9.730555e-96
340.70 9.730555e-96
340.80 9.730555e-96
340.90 9.730555e-96
341.00 9.730555e-96
341.10 9.730555e-96
341.20 9.730555e-96
341.30 9.730555e-96
341.40 9.730555e-96
341.50 9.730555e-96
341.60 9.730555e-96
341.70 9.730555e-96
341.80 9.730555e-96
341.90 9.730555e-96
342.00 9.730555e-96
342.10 9.730555e-96
342.20 9.730555e-96
342.30 9.730555e-96
342.40 9.730555e-96
342.50 9.730555e-96
342.60 9.730555e-96
342.70 9.730555e-96
342.80 9.730555e-96
342.90 9.730555e-96
343.00 9.730555e-96
343.10 9.730555e-96
343.20 9.730555e-96
343.30 9.730555e-96
343.40 9.730555e-96
343.50 9.730555e-96
343.60 9.730555e-96
343.70 9.730555e-96
343.80 9.730555e-96
343.90 9.730555e-96
344.00 9.730555e-96
344.10 9.730555e-96
344.20 9.730555e-96
344.30 9.730555e-96
344.40 9.730555e-96
344.50 9.730555e-96
344.60 9.730555e-96
344.70 9.730555e-96
344.80 9.730555e-96
344.90 9.730555e-96
345.00 9.730555e-96
345.10 9.730555e-96
345.20 9.730555e-96
345.30 9.730555e-96
345.40 9.730555e-96
345.50 9.730555e-96
345.60 9.730555e-96
345.70 9.730555e-96
345.80 9.730555e-96
345.90 9.730555e-96
346.00 9.730555e-96
346.10 9.730555e-96
346.20 9.730555e-96
346.30 9.730555e-96
346.40 9.730555e-96
346.50 9.730555e-96
346.60 9.730555e-96
346.70 9.730555e-96
346.80 9.730555e-96
346.90 9.730555e-96
347.00 9.730555e-96
347.10 9.730555e-96
347.20 9.730555e-96
347.30 9.730555e-96
347.40 9.730555e-96
347.50 9.730555e-96
347.60 9.730555e-96
347.70 9.730555e-96
347.80 9.730555e-96
347.90 9.730555e-96
348.00 9.730555e-96
348.10 9.730555e-96
348.20 9.730555e-96
348.30 9.730555e-96
348.40 9.730555e-96
348.50 9.730555e-96
348.60 9.730555e-96
348.70 9.730555e-96
348.80 9.730555e-96
348.90 9.730555e-96
349.00 9.730555e-96
349.10 9.730555e-96
349.20 9.730555e-96
349.30 9.730555e-96
349.40 9.730555e-96
349.50 9.730555e-96
349.60 9.730555e-96
349.70 9.730555e-96
349.80 9.730555e-96
349.90 9.730555e-96
350.00 9.730555e-96
350.10 9.730555e-96
350.20 9.730555e-96
350.30 9.730555e-96
350.40 9.730555e-96
350.50 9.730555e-96
350.60 9.730555e-96
350.70 9.730555e-96
350.80 9.730555e-96
350.90 9.730555e-96
351.00 9.730555e-96
351.10 9.730555e-96
351.20 9.730555e-96
351.30 9.730555e-96
351.40 9.730555e-96
351.50 9.730555e-96
351.60 9.730555e-96
351.70 9.730555e-96
351.80 9.730555e-96
351.90 9.730555e-96
352.00 9.730555e-96
352.10 9.730555e-96
352.20 9.730555e-96
352.30 9.730555e-96
352.40 9.730555e-96
352.50 9.730555e-96
352.60 9.730555e-96
352.70 9.730555e-96
352.80 9.730555e-96
352.90 9.730555e-96
353.00 9.730555e-96
353.10 9.730555e-96
353.20 9.730555e-96
353.30 9.730555e-96
353.40 9.730555e-96
353.50 9.730555e-96
353.60 9.730555e-96
353.70 9.730555e-96
353.80 9.730555e-96
353.90 9.730555e-96
354.00 9.730555e-96
354.10 9.730555e-96
354.20 9.730555e-96
354.30 9.730555e-96
354.40 9.730555e-96
354.50 9.730555e-96
354.60 9.730555e-96
354.70 9.730555e-96
354.80 9.730555e-96
354.90 9.730555e-96
355.00 9.730555e-96
355.10 9.730555e-96
355.20 9.730555e-96
355.30 9.730555e-96
355.40 9.730555e-96
355.50 9.730555e-96
355.60 9.730555e-96
355.70 9.730555e-96
355.80 9.730555e-96
355.90 9.730555e-96
356.00 9.730555e-96
356.10 9.730555e-96
356.20 9.730555e-96
356.30 9.730555e-96
356.40 9.730555e-96
356.50 9.730555e-96
356.60 9.730555e-96
356.70 9.730555e-96
356.80 9.730555e-96
356.90 9.730555e-96
357.00 9.730555e-96
357.10 9.730555e-96
357.20 9.730555e-96
357.30 9.730555e-96
357.40 9.730555e-96
357.50 9.730555e-96
357.60 9.730555e-96
357.70 9.730555e-96
357.80 9.730555e-96
357.90 9.730555e-96
358.00 9.730555e-96
358.10 9.730555e-96
358.20 9.730555e-96
358.30 9.730555e-96
358.40 9.730555e-96
358.50 9.730555e-96
358.60 9.730555e-96
358.70 9.730555e-96
358.80 9.730555e-96
358.90 9.730555e-96
359.00 9.730555e-96
359.10 9.730555e-96
359.20 9.730555e-96
359.30 9.730555e-96
359.40 9.730555e-96
359.50 9.730555e-96
359.60 9.730555e-96
359.70 9.730555e-96
359.80 9.730555e-96
359.90 9.730555e-96
360.00 9.730555e-96
360.10 9.730555e-96
360.20 9.730555e-96
360.30 9.730555e-96
360.40 9.730555e-96
360.50 9.730555e-96
360.60 9.730555e-96
360.70 9.730555e-96
360.80 9.730555e-96
360.90 9.730555e-96
361.00 9.730555e-96
361.10 9.730555e-96
361.20 9.730555e-96
361.30 9.730555e-96
361.40 9.730555e-96
361.50 9.730555e-96
361.60 9.730555e-96
361.70 9.730555e-96
361.80 9.730555e-96
361.90 9.730555e-96
362.00 9.730555e-96
362.10 9.730555e-96
362.20 9.730555e-96
362.30 9.730555e-96
362.40 9.730555e-96
362.50 9.730555e-96
362.60 9.730555e-96
362.70 9.730555e-96
362.80 9.730555e-96
362.90 9.730555e-96
363.00 9.730555e-96
363.10 9.730555e-96
363.20 9.730555e-96
363.30 9.730555e-96
363.40 9.730555e-96
363.50 9.730555e-96
363.60 9.730555e-96
363.70 9.730555e-96
363.80 9.730555e-96
363.90 9.730555e-96
364.00 9.730555e-96
364.10 9.730555e-96
364.20 9.730555e-96
364.30 9.730555e-96
364.40 9.730555e-96
364.50 9.730555e-96
364.60 9.730555e-96
364.70 9.730555e-96
364.80 9.730555e-96
364.90 9.730555e-96
365.00 9.730555e-96
365.10 9.730555e-96
365.20 9.730555e-96
365.30 9.730555e-96
365.40 9.730555e-96
365.50 9.730555e-96
365.60 9.730555e-96
365.70 9.730555e-96
365.80 9.730555e-96
365.90 9.730555e-96
366.00 9.730555e-96
366.10 9.730555e-96
366.20 9.730555e-96
366.30 9.730555e-96
366.40 9.730555e-96
366.50 9.730555e-96
366.60 9.730555e-96
366.70 9.730555e-96
366.80 9.730555e-96
366.90 9.730555e-96
367.00 9.730555e-96
367.10 9.730555e-96
367.20 9.730555e-96
367.30 9.730555e-96
367.40 9.730555e-96
367.50 9.730555e-96
367.60 9.730555e-96
367.70 9.730555e-96
367.80 9.730555e-96
367.90 9.730555e-96
368.00 9.730555e-96
368.10 9.730555e-96
368.20 9.730555e-96
368.30 9.730555e-96
368.40 9.730555e-96
368.50 9.730555e-96
368.60 9.730555e-96
368.70 9.730555e-96
368.80 9.730555e-96
368.90 9.730555e-96
369.00 9.730555e-96
369.10 9.730555e-96
369.20 9.730555e-96
369.30 9.730555e-96
369.40 9.730555e-96
369.50 9.730555e-96
369.60 9.730555e-96
369.70 9.730555e-96
369.80 9.730555e-96
369.90 9.730555e-96
370.00 9.730555e-96
370.10 9.730555e-96
370.20 9.730555e-96
370.30 9.730555e-96
370.40 9.730555e-96
370.50 9.730555e-96
370.60 9.730555e-96
370.70 9.730555e-96
370.80 9.730555e-96
370.90 9.730555e-96
371.00 9.730555e-96
371.10 9.730555e-96
371.20 9.730555e-96
371.30 9.730555e-96
371.40 9.730555e-96
371.50 9.730555e-96
371.60 9.730555e-96
371.70 9.730555e-96
371.80 9.730555e-96
371.90 9.730555e-96
372.00 9.730555e-96
372.10 9.730555e-96
372.20 9.730555e-96
372.30 9.730555e-96
372.40 9.730555e-96
372.50 9.730555e-96
372.60 9.730555e-96
372.70 9.730555e-96
372.80 9.730555e-96
372.90 9.730555e-96
373.00 9.730555e-96
373.10 9.730555e-96
373.20 9.730555e-96
373.30 9.730555e-96
373.40 9.730555e-96
373.50 9.730555e-96
373.60 9.730555e-96
373.70 9.730555e-96
373.80 9.730555e-96
373.90 9.730555e-96
374.00 9.730555e-96
374.10 9.730555e-96
374.20 9.730555e-96
374.30 9.730555e-96
374.40 9.730555e-96
374.50 9.730555e-96
374.60 9.730555e-96
374.70 9.730555e-96
374.80 9.730555e-96
374.90 9.730555e-96
375.00 9.730555e-96
375.10 9.730555e-96
375.20 9.730555e-96
375.30 9.730555e-96
375.40 9.730555e-96
375.50 9.730555e-96
375.60 9.730555e-96
375.70 9.730555e-96
375.80 9.730555e-96
375.90 9.730555e-96
376.00 9.730555e-96
376.10 9.730555e-96
376.20 9.730555e-96
376.30 9.730555e-96
376.40 9.730555e-96
376.50 9.730555e-96
376.60 9.730555e-96
376.70 9.730555e-96
376.80 9.730555e-96
376.90 9.730555e-96
377.00 9.730555e-96
377.10 9.730555e-96
377.20 9.730555e-96
377.30 9.730555e-96
377.40 9.730555e-96
377.50 9.730555e-96
377.60 9.730555e-96
377.70 9.730555e-96
377.80 9.730555e-96
377.90 9.730555e-96
378.00 9.730555e-96
378.10 9.730555e-96
378.20 9.730555e-96
378.30 9.730555e-96
378.40 9.730555e-96
378.50 9.730555e-96
378.60 9.730555e-96
378.70 9.730555e-96
378.80 9.730555e-96
378.90 9.730555e-96
379.00 9.730555e-96
379.10 9.730555e-96
379.20 9.730555e-96
379.30 9.730555e-96
379.40 9.730555e-96
379.50 9.730555e-96
379.60 9.730555e-96
379.70 9.730555e-96
379.80 9.730555e-96
379.90 9.730555e-96
380.00 9.730555e-96
380.10 9.730555e-96
380.20 9.730555e-96
380.30 9.730555e-96
380.40 9.730555e-96
380.50 9.730555e-96
380.60 9.730555e-96
380.70 9.730555e-96
380.80 9.730555e-96
380.90 9.730555e-96
381.00 9.730555e-96
381.10 9.730555e-96
381.20 9.730555e-96
381.30 9.730555e-96
381.40 9.730555e-96
381.50 9.730555e-96
381.60 9.730555e-96
381.70 9.730555e-96
381.80 9.730555e-96
381.90 9.730555e-96
382.00 9.730555e-96
382.10 9.730555e-96
382.20 9.730555e-96
382.30 9.730555e-96
382.40 9.730555e-96
382.50 9.730555e-96
382.60 9.730555e-96
382.70 9.730555e-96
382.80 9.730555e-96
382.90 9.730555e-96
383.00 9.730555e-96
383.10 9.730555e-96
383.20 9.730555e-96
383.30 9.730555e-96
383.40 9.730555e-96
383.50 9.730555e-96
383.60 9.730555e-96
383.70 9.730555e-96
383.80 9.730555e-96
383.90 9.730555e-96
384.00 9.730555e-96
384.10 9.730555e-96
384.20 9.730555e-96
384.30 9.730555e-96
384.40 9.730555e-96
384.50 9.730555e-96
384.60 9.730555e-96
384.70 9.730555e-96
384.80 9.730555e-96
384.90 9.730555e-96
385.00 9.730555e-96
385.10 9.730555e-96
385.20 9.730555e-96
385.30 9.730555e-96
385.40 9.730555e-96
385.50 9.730555e-96
385.60 9.730555e-96
385.70 9.730555e-96
385.80 9.730555e-96
385.90 9.730555e-96
386.00 9.730555e-96
386.10 9.730555e-96
386.20 9.730555e-96
386.30 9.730555e-96
386.40 9.730555e-96
386.50 9.730555e-96
386.60 9.730555e-96
386.70 9.730555e-96
386.80 9.730555e-96
386.90 9.730555e-96
387.00 9.730555e-96
387.10 9.730555e-96
387.20 9.730555e-96
387.30 9.730555e-96
387.40 9.730555e-96
387.50 9.730555e-96
387.60 9.730555e-96
387.70 9.730555e-96
387.80 9.730555e-96
387.90 9.730555e-96
388.00 9.730555e-96
388.10 9.730555e-96
388.20 9.730555e-96
388.30 9.730555e-96
388.40 9.730555e-96
388.50 9.730555e-96
388.60 9.730555e-96
388.70 9.730555e-96
388.80 9.730555e-96
388.90 9.730555e-96
389.00 9.730555e-96
389.10 9.730555e-96
389.20 9.730555e-96
389.30 9.730555e-96
389.40 9.730555e-96
389.50 9.730555e-96
389.60 9.730555e-96
389.70 9.730555e-96
389.80 9.730555e-96
389.90 9.730555e-96
390.00 9.730555e-96
390.10 9.730555e-96
390.20 9.730555e-96
390.30 9.730555e-96
390.40 9.730555e-96
390.50 9.730555e-96
390.60 9.730555e-96
390.70 9.730555e-96
390.80 9.730555e-96
390.90 9.730555e-96
391.00 9.730555e-96
391.10 9.730555e-96
391.20 9.730555e-96
391.30 9.730555e-96
391.40 9.730555e-96
391.50 9.730555e-96
391.60 9.730555e-96
391.70 9.730555e-96
391.80 9.730555e-96
391.90 9.730555e-96
392.00 9.730555e-96
392.10 9.730555e-96
392.20 9.730555e-96
392.30 9.730555e-96
392.40 9.730555e-96
392.50 9.730555e-96
392.60 9.730555e-96
392.70 9.730555e-96
392.80 9.730555e-96
392.90 9.730555e-96
393.00 9.730555e-96
393.10 9.730555e-96
393.20 9.730555e-96
393.30 9.730555e-96
393.40 9.730555e-96
393.50 9.730555e-96
393.60 9.730555e-96
393.70 9.730555e-96
393.80 9.730555e-96
393.90 9.730555e-96
394.00 9.730555e-96
394.10 9.730555e-96
394.20 9.730555e-96
394.30 9.730555e-96
394.40 9.730555e-96
394.50 9.730555e-96
394.60 9.730555e-96
394.70 9.730555e-96
394.80 9.730555e-96
394.90 9.730555e-96
395.00 9.633249e-96
395.10 9.535944e-96
395.20 9.438638e-96
395.30 9.341333e-96
395.40 9.244027e-96
395.50 9.146722e-96
395.60 9.049416e-96
395.70 8.952111e-96
395.80 8.854805e-96
395.90 8.757499e-96
396.00 8.660194e-96
396.10 8.562888e-96
396.20 8.465583e-96
396.30 8.368277e-96
396.40 8.270972e-96
396.50 8.173666e-96
396.60 8.076361e-96
396.70 7.979055e-96
396.80 7.881749e-96
396.90 7.784444e-96
397.00 7.687138e-96
397.10 7.589833e-96
397.20 7.492527e-96
397.30 7.395222e-96
397.40 7.297916e-96
397.50 7.200611e-96
397.60 7.103305e-96
397.70 7.006e-96
397.80 0.00570212
397.90 0.01976954
398.00 0.0383318
398.10 0.05561059
398.20 0.06643757
398.30 0.06707834
398.40 0.06707834
398.50 0.06707834
398.60 0.06707834
398.70 0.06707834
398.80 0.06707834
398.90 0.06707834
399.00 0.07291278
399.10 0.09431626
399.20 0.1271649
399.30 0.1659372
399.40 0.2059523
399.50 0.244183
399.60 0.2784367
399.70 0.3084714
