# Version 2.1 - nm, norm@500 to 1, cut digits
# Wavelength(nm)  Flambda(ergs/cm^s/s/nm)
300.00 0.00794852
300.10 0.007984919
300.20 0.008055751
300.30 0.008089986
300.40 0.008123347
300.50 0.008155808
300.60 0.008187366
300.70 0.008218041
300.80 0.008247864
300.90 0.008276872
301.00 0.008305104
301.10 0.008332596
301.20 0.008359386
301.30 0.008385504
301.40 0.008410983
301.50 0.008435852
301.60 0.008460138
301.70 0.008483866
301.80 0.008507062
301.90 0.008529748
302.00 0.008551946
302.10 0.008573676
302.20 0.008594959
302.30 0.008615812
302.40 0.008636253
302.50 0.008656298
302.60 0.008675963
302.70 0.008695262
302.80 0.008714209
302.90 0.008732818
303.00 0.008751101
303.10 0.00876907
303.20 0.008786738
303.30 0.008804126
303.40 0.008821268
303.50 0.008838221
303.60 0.008855069
303.70 0.008871934
303.80 0.008888974
303.90 0.008906373
304.00 0.008924335
304.10 0.008943061
304.20 0.008962737
304.30 0.008983516
304.40 0.009005511
304.50 0.009028791
304.60 0.009053388
304.70 0.009079303
304.80 0.009106516
304.90 0.009134999
305.00 0.009217332
305.10 0.009293426
305.20 0.009364159
305.30 0.009430813
305.40 0.009494817
305.50 0.009557504
305.60 0.009619926
305.70 0.009682775
305.80 0.009746384
305.90 0.009810806
306.00 0.009875885
306.10 0.009941382
306.20 0.01000707
306.30 0.01007274
306.40 0.01013823
306.50 0.01020343
306.60 0.01026823
306.70 0.01033261
306.80 0.01039654
306.90 0.01046
307.00 0.01052299
307.10 0.01058552
307.20 0.01064759
307.30 0.01070919
307.40 0.01077037
307.50 0.01083116
307.60 0.01089164
307.70 0.01095192
307.80 0.01101217
307.90 0.01107256
308.00 0.01113333
308.10 0.01119469
308.20 0.01125685
308.30 0.01132003
308.40 0.01138436
308.50 0.01144996
308.60 0.01151691
308.70 0.01158526
308.80 0.01165503
308.90 0.01172622
309.00 0.01179884
309.10 0.01187289
309.20 0.01194838
309.30 0.0120253
309.40 0.01210369
309.50 0.01218361
309.60 0.01226512
309.70 0.01234838
309.80 0.01243355
309.90 0.01252085
310.00 0.01261054
310.10 0.01270285
310.20 0.01279805
310.30 0.01289635
310.40 0.01299793
310.50 0.01310291
310.60 0.01321139
310.70 0.01332342
310.80 0.01343902
310.90 0.0135582
311.00 0.01368097
311.10 0.01380733
311.20 0.01393726
311.30 0.01407075
311.40 0.01420772
311.50 0.01434805
311.60 0.01449153
311.70 0.01463781
311.80 0.01478646
311.90 0.01493692
312.00 0.01508858
312.10 0.0152408
312.20 0.01539294
312.30 0.01554447
312.40 0.01569494
312.50 0.01584402
312.60 0.01599149
312.70 0.01613722
312.80 0.01628115
312.90 0.01642324
313.00 0.0165635
313.10 0.01670193
313.20 0.01683852
313.30 0.01697328
313.40 0.01710626
313.50 0.0172375
313.60 0.0173671
313.70 0.01749522
313.80 0.01762205
313.90 0.01774785
314.00 0.01787288
314.10 0.01799744
314.20 0.01812181
314.30 0.01824624
314.40 0.01837093
314.50 0.01849602
314.60 0.01862162
314.70 0.01874778
314.80 0.01887453
314.90 0.01900188
315.00 0.01912984
315.10 0.01925841
315.20 0.01938759
315.30 0.01951737
315.40 0.01964776
315.50 0.01977877
315.60 0.0199104
315.70 0.02004266
315.80 0.02017557
315.90 0.02030914
316.00 0.0204434
316.10 0.02057837
316.20 0.02071407
316.30 0.02085051
316.40 0.02098771
316.50 0.02112569
316.60 0.02126445
316.70 0.02140399
316.80 0.02154431
316.90 0.02168543
317.00 0.02182733
317.10 0.02197002
317.20 0.0221135
317.30 0.02225778
317.40 0.02240292
317.50 0.02254899
317.60 0.02269613
317.70 0.02284456
317.80 0.02299457
317.90 0.02314649
318.00 0.02330074
318.10 0.02345773
318.20 0.02361786
318.30 0.02378147
318.40 0.02394886
318.50 0.02412024
318.60 0.02429574
318.70 0.02447546
318.80 0.02465943
318.90 0.02484767
319.00 0.02504019
319.10 0.02523698
319.20 0.02543804
319.30 0.02564336
319.40 0.02585291
319.50 0.02606664
319.60 0.02628444
319.70 0.02650618
319.80 0.02673166
319.90 0.02696063
320.00 0.02719283
320.10 0.02742796
320.20 0.02766576
320.30 0.02790599
320.40 0.02814845
320.50 0.02839299
320.60 0.02863953
320.70 0.02888799
320.80 0.02913836
320.90 0.02939062
321.00 0.02964477
321.10 0.0299008
321.20 0.03015874
321.30 0.03041861
321.40 0.03068049
321.50 0.03094458
321.60 0.03121116
321.70 0.03148069
321.80 0.03175377
321.90 0.03203115
322.00 0.03231367
322.10 0.0326022
322.20 0.03289761
322.30 0.03320062
322.40 0.03351185
322.50 0.03383174
322.60 0.03416059
322.70 0.03449859
322.80 0.03484581
322.90 0.0352023
323.00 0.03556806
323.10 0.03594309
323.20 0.03632737
323.30 0.03672084
323.40 0.03712329
323.50 0.03753436
323.60 0.03795342
323.70 0.03837951
323.80 0.03881134
323.90 0.03924733
324.00 0.0396857
324.10 0.04012458
324.20 0.04056217
324.30 0.0409969
324.40 0.04142747
324.50 0.04185294
324.60 0.04227268
324.70 0.0426863
324.80 0.04309363
324.90 0.04349458
325.00 0.04388914
325.10 0.0442773
325.20 0.04465909
325.30 0.04503454
325.40 0.04540378
325.50 0.04576706
325.60 0.04612476
325.70 0.04647752
325.80 0.04682616
325.90 0.04717168
326.00 0.04751526
326.10 0.04785808
326.20 0.0482013
326.30 0.04854593
326.40 0.04889281
326.50 0.04924254
326.60 0.04959554
326.70 0.04995204
326.80 0.05031216
326.90 0.05067596
327.00 0.05104344
327.10 0.05141461
327.20 0.05178944
327.30 0.0521679
327.40 0.05254985
327.50 0.05293501
327.60 0.05332296
327.70 0.05371301
327.80 0.05410427
327.90 0.05449562
328.00 0.05488581
328.10 0.05527352
328.20 0.05565749
328.30 0.05603661
328.40 0.05640997
328.50 0.05677692
328.60 0.05713699
328.70 0.05748993
328.80 0.05783561
328.90 0.05817397
329.00 0.05850501
329.10 0.05882871
329.20 0.05914508
329.30 0.05945408
329.40 0.05975562
329.50 0.06004954
329.60 0.06033557
329.70 0.06061327
329.80 0.06088209
329.90 0.06114132
330.00 0.06139017
330.10 0.06162781
330.20 0.06185345
330.30 0.0620664
330.40 0.06226608
330.50 0.06245208
330.60 0.0626241
330.70 0.062782
330.80 0.06292568
330.90 0.06305511
331.00 0.06317028
331.10 0.0632712
331.20 0.06335787
331.30 0.06343038
331.40 0.06348888
331.50 0.06353372
331.60 0.06356547
331.70 0.06358501
331.80 0.06359348
331.90 0.06359235
332.00 0.06358322
332.10 0.0635678
332.20 0.06354772
332.30 0.0635244
332.40 0.06349902
332.50 0.06347245
332.60 0.06344525
332.70 0.06341777
332.80 0.06339018
332.90 0.06336255
333.00 0.06333489
333.10 0.06330721
333.20 0.0632795
333.30 0.06325182
333.40 0.06322424
333.50 0.06319695
333.60 0.06317025
333.70 0.0631446
333.80 0.06312061
333.90 0.06309903
334.00 0.06308073
334.10 0.06306659
334.20 0.06305748
334.30 0.06305415
334.40 0.06305721
334.50 0.06306712
334.60 0.06308419
334.70 0.06310858
334.80 0.0631404
334.90 0.06317968
335.00 0.06322642
335.10 0.06328063
335.20 0.0633423
335.30 0.06341138
335.40 0.06348776
335.50 0.06357123
335.60 0.06366141
335.70 0.06375774
335.80 0.06385949
335.90 0.06396571
336.00 0.06407538
336.10 0.06418739
336.20 0.0643007
336.30 0.06441439
336.40 0.06452771
336.50 0.0646401
336.60 0.06475119
336.70 0.06486076
336.80 0.0649687
336.90 0.06507497
337.00 0.06517956
337.10 0.06528247
337.20 0.06538369
337.30 0.06548322
337.40 0.06558105
337.50 0.06567713
337.60 0.06577142
337.70 0.06586382
337.80 0.06595421
337.90 0.06604246
338.00 0.0661284
338.10 0.06621185
338.20 0.06629267
338.30 0.06637069
338.40 0.06644581
338.50 0.06651794
338.60 0.06658702
338.70 0.06665302
338.80 0.06671591
338.90 0.0667757
339.00 0.06683238
339.10 0.06688595
339.20 0.06693643
339.30 0.06698387
339.40 0.06702842
339.50 0.06707039
339.60 0.06711028
339.70 0.06714884
339.80 0.0671871
339.90 0.06722633
340.00 0.06726794
340.10 0.06731342
340.20 0.06736421
340.30 0.06742155
340.40 0.06748648
340.50 0.06755976
340.60 0.06764188
340.70 0.06773315
340.80 0.06783372
340.90 0.06794364
341.00 0.06806294
341.10 0.0681916
341.20 0.06832963
341.30 0.06847698
341.40 0.06863357
341.50 0.06879923
341.60 0.06897365
341.70 0.06915639
341.80 0.06934684
341.90 0.06954427
342.00 0.06974784
342.10 0.06995667
342.20 0.07016991
342.30 0.07038683
342.40 0.07060683
342.50 0.07082946
342.60 0.07105442
342.70 0.07128153
342.80 0.07151071
342.90 0.07174192
343.00 0.07197516
343.10 0.07221042
343.20 0.07244772
343.30 0.07268709
343.40 0.07292866
343.50 0.07317265
343.60 0.07341946
343.70 0.07366965
343.80 0.07392401
343.90 0.07418351
344.00 0.07444924
344.10 0.07472234
344.20 0.07500389
344.30 0.07529486
344.40 0.07559603
344.50 0.07590798
344.60 0.07623111
344.70 0.07656563
344.80 0.07691166
344.90 0.07726925
345.00 0.07763841
345.10 0.07801914
345.20 0.07841141
345.30 0.07881515
345.40 0.07923014
345.50 0.07965594
345.60 0.08009185
345.70 0.08053677
345.80 0.08098923
345.90 0.08144744
346.00 0.08190935
346.10 0.08237283
346.20 0.08283584
346.30 0.08329657
346.40 0.08375356
346.50 0.08420573
346.60 0.08465235
346.70 0.08509299
346.80 0.08552744
346.90 0.08595562
347.00 0.0863775
347.10 0.08679308
347.20 0.0872024
347.30 0.08760563
347.40 0.08800316
347.50 0.08839581
347.60 0.08878493
347.70 0.08917258
347.80 0.08956151
347.90 0.08995514
348.00 0.09035732
348.10 0.09077205
348.20 0.09120319
348.30 0.09165415
348.40 0.09212768
348.50 0.09262585
348.60 0.09315
348.70 0.09370094
348.80 0.09427909
348.90 0.0948846
349.00 0.09551751
349.10 0.09617782
349.20 0.09686546
349.30 0.0975801
349.40 0.09832097
349.50 0.09908647
349.60 0.09987394
349.70 0.1006794
349.80 0.1014974
349.90 0.1023212
350.00 0.1031434
350.10 0.1039561
350.20 0.1047517
350.30 0.1055236
350.40 0.1062664
350.50 0.106976
350.60 0.1076498
350.70 0.1082862
350.80 0.1088844
350.90 0.1094441
351.00 0.1099652
351.10 0.1104478
351.20 0.1108918
351.30 0.1112973
351.40 0.1116647
351.50 0.1119946
351.60 0.1122879
351.70 0.1125461
351.80 0.1127713
351.90 0.1129658
352.00 0.1131325
352.10 0.1132743
352.20 0.1133939
352.30 0.1134939
352.40 0.1135763
352.50 0.1136425
352.60 0.1136935
352.70 0.1137299
352.80 0.113752
352.90 0.1137599
353.00 0.1137537
353.10 0.1137333
353.20 0.1136988
353.30 0.1136502
353.40 0.1135878
353.50 0.113512
353.60 0.1134235
353.70 0.1133234
353.80 0.1132132
353.90 0.1130947
354.00 0.1129701
354.10 0.1128413
354.20 0.1127105
354.30 0.1125796
354.40 0.1124499
354.50 0.1123226
354.60 0.1121984
354.70 0.1120777
354.80 0.1119608
354.90 0.1118478
355.00 0.1117386
355.10 0.1116333
355.20 0.1115318
355.30 0.1114343
355.40 0.111341
355.50 0.1112521
355.60 0.1111685
355.70 0.1110909
355.80 0.1110207
355.90 0.1109595
356.00 0.110909
356.10 0.1108712
356.20 0.1108477
356.30 0.1108403
356.40 0.1108502
356.50 0.1108783
356.60 0.1109252
356.70 0.1109914
356.80 0.111077
356.90 0.1111822
357.00 0.1113068
357.10 0.111451
357.20 0.1116146
357.30 0.1117977
357.40 0.1119998
357.50 0.1122205
357.60 0.1124587
357.70 0.112713
357.80 0.1129814
357.90 0.1132615
358.00 0.1135506
358.10 0.1138457
358.20 0.1141442
358.30 0.1144436
358.40 0.1147419
358.50 0.1150376
358.60 0.1153296
358.70 0.1156171
358.80 0.1158995
358.90 0.1161765
359.00 0.1164476
359.10 0.1167125
359.20 0.116971
359.30 0.1172229
359.40 0.1174691
359.50 0.117711
359.60 0.1179517
359.70 0.1181956
359.80 0.1184488
359.90 0.118719
360.00 0.1190147
360.10 0.1193448
360.20 0.119718
360.30 0.1201418
360.40 0.1206225
360.50 0.1211645
360.60 0.121771
360.70 0.1224437
360.80 0.1231835
360.90 0.1239908
361.00 0.1248657
361.10 0.1258082
361.20 0.1268181
361.30 0.1278951
361.40 0.129038
361.50 0.1302447
361.60 0.1315115
361.70 0.132833
361.80 0.1342016
361.90 0.1356083
362.00 0.1370426
362.10 0.1384939
362.20 0.1399517
362.30 0.141407
362.40 0.1428522
362.50 0.1442819
362.60 0.1456924
362.70 0.1470815
362.80 0.1484482
362.90 0.149792
363.00 0.1511129
363.10 0.1524107
363.20 0.1536856
363.30 0.1549374
363.40 0.1561661
363.50 0.1573713
363.60 0.1585526
363.70 0.1597093
363.80 0.1608405
363.90 0.1619451
364.00 0.1630217
364.10 0.164069
364.20 0.1650858
364.30 0.1660709
364.40 0.1670233
364.50 0.1679424
364.60 0.1688278
364.70 0.1696791
364.80 0.1704963
364.90 0.1712792
365.00 0.1720279
365.10 0.1727423
365.20 0.1734225
365.30 0.1740683
365.40 0.1746796
365.50 0.175256
365.60 0.1757967
365.70 0.1763007
365.80 0.1767666
365.90 0.1771927
366.00 0.1775771
366.10 0.1779177
366.20 0.1782125
366.30 0.1784598
366.40 0.1786582
366.50 0.1788067
366.60 0.1789046
366.70 0.1789515
366.80 0.1789472
366.90 0.1788915
367.00 0.1787846
367.10 0.1786263
367.20 0.1784167
367.30 0.178156
367.40 0.1778448
367.50 0.1774841
367.60 0.1770755
367.70 0.1766218
367.80 0.1761263
367.90 0.1755935
368.00 0.1750282
368.10 0.1744355
368.20 0.1738203
368.30 0.1731869
368.40 0.172539
368.50 0.1718791
368.60 0.1712092
368.70 0.1705304
368.80 0.1698435
368.90 0.169149
369.00 0.1684474
369.10 0.1677389
369.20 0.1670241
369.30 0.1663034
369.40 0.1655773
369.50 0.164847
369.60 0.1641137
369.70 0.1633796
369.80 0.1626473
369.90 0.1619202
370.00 0.1612018
370.10 0.1604961
370.20 0.1598067
370.30 0.1591369
370.40 0.1584893
370.50 0.157866
370.60 0.1572681
370.70 0.1566965
370.80 0.1561516
370.90 0.1556335
371.00 0.1551422
371.10 0.1546778
371.20 0.1542403
371.30 0.1538297
371.40 0.1534461
371.50 0.1530899
371.60 0.1527614
371.70 0.1524614
371.80 0.1521907
371.90 0.1519505
372.00 0.151742
372.10 0.1515666
372.20 0.1514255
372.30 0.1513198
372.40 0.1512504
372.50 0.1512181
372.60 0.1512233
372.70 0.1512661
372.80 0.1513469
372.90 0.1514655
373.00 0.1516221
373.10 0.1518166
373.20 0.152049
373.30 0.1523192
373.40 0.1526267
373.50 0.1529709
373.60 0.1533506
373.70 0.1537639
373.80 0.1542083
373.90 0.1546809
374.00 0.1551782
374.10 0.1556966
374.20 0.1562326
374.30 0.1567833
374.40 0.1573461
374.50 0.1579193
374.60 0.1585016
374.70 0.1590924
374.80 0.1596911
374.90 0.1602978
375.00 0.1609123
375.10 0.1615347
375.20 0.162165
375.30 0.1628029
375.40 0.1634482
375.50 0.1641001
375.60 0.1647575
375.70 0.1654186
375.80 0.166081
375.90 0.1667419
376.00 0.1673977
376.10 0.1680452
376.20 0.1686809
376.30 0.169302
376.40 0.169906
376.50 0.1704911
376.60 0.1710563
376.70 0.1716008
376.80 0.1721242
376.90 0.1726264
377.00 0.1731074
377.10 0.1735672
377.20 0.1740059
377.30 0.1744236
377.40 0.1748209
377.50 0.1751989
377.60 0.1755595
377.70 0.1759056
377.80 0.176241
377.90 0.1765703
378.00 0.1768989
378.10 0.1772324
378.20 0.177576
378.30 0.1779346
378.40 0.1783118
378.50 0.1787105
378.60 0.1791327
378.70 0.1795794
378.80 0.1800512
378.90 0.1805483
379.00 0.1810707
379.10 0.1816185
379.20 0.1821916
379.30 0.1827895
379.40 0.1834113
379.50 0.1840546
379.60 0.184716
379.70 0.1853902
379.80 0.1860698
379.90 0.1867458
380.00 0.1874082
380.10 0.1880465
380.20 0.1886504
380.30 0.1892111
380.40 0.1897213
380.50 0.1901757
380.60 0.1905705
380.70 0.1909038
380.80 0.1911744
380.90 0.1913819
381.00 0.1915263
381.10 0.1916075
381.20 0.1916256
381.30 0.1915809
381.40 0.1914741
381.50 0.1913067
381.60 0.1910813
381.70 0.1908014
381.80 0.1904722
381.90 0.1901
382.00 0.1896917
382.10 0.1892546
382.20 0.1887958
382.30 0.1883216
382.40 0.1878369
382.50 0.1873456
382.60 0.1868501
382.70 0.1863518
382.80 0.1858515
382.90 0.1853496
383.00 0.184846
383.10 0.1843408
383.20 0.183834
383.30 0.1833259
383.40 0.182817
383.50 0.1823085
383.60 0.1818021
383.70 0.1813008
383.80 0.1808084
383.90 0.1803296
384.00 0.1798697
384.10 0.1794343
384.20 0.1790287
384.30 0.1786577
384.40 0.178325
384.50 0.1780335
384.60 0.1777851
384.70 0.1775809
384.80 0.1774214
384.90 0.177307
385.00 0.1772376
385.10 0.1772132
385.20 0.1772338
385.30 0.1772991
385.40 0.1774084
385.50 0.1775602
385.60 0.1777523
385.70 0.177981
385.80 0.1782416
385.90 0.178528
386.00 0.1788337
386.10 0.1791516
386.20 0.1794749
386.30 0.1797979
386.40 0.1801157
386.50 0.1804246
386.60 0.1807224
386.70 0.1810077
386.80 0.1812796
386.90 0.181538
387.00 0.1817828
387.10 0.182014
387.20 0.1822315
387.30 0.1824357
387.40 0.1826269
387.50 0.1828058
387.60 0.182974
387.70 0.1831335
387.80 0.1832871
387.90 0.1834382
388.00 0.1835908
388.10 0.183749
388.20 0.1839166
388.30 0.1840972
388.40 0.1842936
388.50 0.1845077
388.60 0.1847412
388.70 0.1849946
388.80 0.1852686
388.90 0.1855631
389.00 0.1858783
389.10 0.1862142
389.20 0.1865707
389.30 0.1869475
389.40 0.1873442
389.50 0.1877597
389.60 0.1881919
389.70 0.1886382
389.80 0.1890946
389.90 0.1895566
390.00 0.1900188
390.10 0.1904756
390.20 0.1909218
390.30 0.1913526
390.40 0.1917643
390.50 0.192154
390.60 0.1925198
390.70 0.1928607
390.80 0.193176
390.90 0.1934656
391.00 0.1937293
391.10 0.1939673
391.20 0.1941796
391.30 0.194367
391.40 0.1945315
391.50 0.1946766
391.60 0.1948089
391.70 0.1949377
391.80 0.195076
391.90 0.1952394
392.00 0.195446
392.10 0.1957143
392.20 0.1960623
392.30 0.1965057
392.40 0.1970574
392.50 0.1977268
392.60 0.1985204
392.70 0.1994418
392.80 0.200493
392.90 0.2016746
393.00 0.202987
393.10 0.20443
393.20 0.2060035
393.30 0.2077071
393.40 0.2095394
393.50 0.211498
393.60 0.2135786
393.70 0.2157747
393.80 0.2180778
393.90 0.2204772
394.00 0.2229607
394.10 0.2255159
394.20 0.2281308
394.30 0.2307945
394.40 0.2334986
394.50 0.2362366
394.60 0.2390041
394.70 0.2417988
394.80 0.2446193
394.90 0.2474652
395.00 0.2503362
395.10 0.2532325
395.20 0.2561539
395.30 0.2591006
395.40 0.2620722
395.50 0.2650687
395.60 0.2680896
395.70 0.2711344
395.80 0.2742024
395.90 0.2772925
396.00 0.2804037
396.10 0.2835349
396.20 0.2866851
396.30 0.2898532
396.40 0.2930386
396.50 0.2962407
396.60 0.2994591
396.70 0.3026936
396.80 0.305944
396.90 0.3092103
397.00 0.3124926
397.10 0.3157907
397.20 0.3191047
397.30 0.3224344
397.40 0.3257791
397.50 0.3291377
397.60 0.3325085
397.70 0.3358884
397.80 0.3392737
397.90 0.3426597
398.00 0.346041
398.10 0.3494121
398.20 0.3527675
398.30 0.3561027
398.40 0.3594136
398.50 0.3626976
398.60 0.3659527
398.70 0.3691777
398.80 0.3723722
398.90 0.3755359
399.00 0.3786688
399.10 0.3817708
399.20 0.384842
399.30 0.3878825
399.40 0.3908929
399.50 0.393874
399.60 0.3968273
399.70 0.399755
399.80 0.4026601
399.90 0.4055465
400.00 0.4084183
400.10 0.4112799
400.20 0.4141355
400.30 0.4169889
400.40 0.4198431
400.50 0.4227003
400.60 0.4255621
400.70 0.4284293
400.80 0.4313024
400.90 0.4341815
401.00 0.4370666
401.10 0.4399579
401.20 0.4428552
401.30 0.4457584
401.40 0.4486672
401.50 0.4515807
401.60 0.4544979
401.70 0.4574168
401.80 0.460335
401.90 0.4632493
402.00 0.4661565
402.10 0.4690528
402.20 0.4719347
402.30 0.4747993
402.40 0.4776441
402.50 0.4804671
402.60 0.4832672
402.70 0.4860437
402.80 0.4887962
402.90 0.4915246
403.00 0.4942287
403.10 0.4969087
403.20 0.4995643
403.30 0.5021949
403.40 0.5047989
403.50 0.5073729
403.60 0.5099114
403.70 0.5124059
403.80 0.5148451
403.90 0.5172152
404.00 0.5195002
404.10 0.5216838
404.20 0.5237502
404.30 0.5256854
404.40 0.5274781
404.50 0.5291199
404.60 0.5306052
404.70 0.5319308
404.80 0.5330949
404.90 0.5340969
405.00 0.5349366
405.10 0.5356141
405.20 0.5361296
405.30 0.5364843
405.40 0.5366811
405.50 0.536726
405.60 0.536629
405.70 0.5364049
405.80 0.5360739
405.90 0.5356611
406.00 0.5351944
406.10 0.5347033
406.20 0.5342159
406.30 0.5337571
406.40 0.5333472
406.50 0.5330009
406.60 0.5327284
406.70 0.5325355
406.80 0.5324252
406.90 0.5323986
407.00 0.5324561
407.10 0.5325975
407.20 0.5328229
407.30 0.5331317
407.40 0.5335224
407.50 0.5339923
407.60 0.5345368
407.70 0.5351489
407.80 0.5358192
407.90 0.5365361
408.00 0.5372864
408.10 0.5380564
408.20 0.5388331
408.30 0.5396048
408.40 0.5403622
408.50 0.5410981
408.60 0.541808
408.70 0.5424892
408.80 0.5431402
408.90 0.5437605
409.00 0.54435
409.10 0.5449087
409.20 0.5454366
409.30 0.5459341
409.40 0.546402
409.50 0.5468419
409.60 0.5472566
409.70 0.5476502
409.80 0.5480282
409.90 0.5483977
410.00 0.5487663
410.10 0.5491421
410.20 0.5495329
410.30 0.5499457
410.40 0.5503859
410.50 0.5508578
410.60 0.551364
410.70 0.5519062
410.80 0.5524852
410.90 0.5531013
411.00 0.5537547
411.10 0.5544453
411.20 0.5551729
411.30 0.5559369
411.40 0.5567356
411.50 0.5575655
411.60 0.5584209
411.70 0.5592932
411.80 0.5601706
411.90 0.5610389
412.00 0.5618816
412.10 0.5626819
412.20 0.5634235
412.30 0.5640921
412.40 0.5646758
412.50 0.5651661
412.60 0.5655573
412.70 0.5658459
412.80 0.5660302
412.90 0.5661095
413.00 0.5660837
413.10 0.5659527
413.20 0.5657168
413.30 0.5653765
413.40 0.5649334
413.50 0.5643908
413.60 0.5637537
413.70 0.5630304
413.80 0.5622315
413.90 0.5613703
414.00 0.5604618
414.10 0.5595217
414.20 0.558565
414.30 0.5576049
414.40 0.5566523
