# Version 2.1 - nm, norm@500 to 1, cut digits
# Wavelength(nm)  Flambda(ergs/cm^s/s/nm)
300.00 0.01102368
300.10 0.01465321
300.20 0.01686337
300.30 0.017777
300.40 0.01801592
300.50 0.01808568
300.60 0.01815545
300.70 0.01822593
300.80 0.01830002
300.90 0.01838324
301.00 0.0184817
301.10 0.01859809
301.20 0.01872971
301.30 0.01887048
301.40 0.01901485
301.50 0.01915993
301.60 0.01930502
301.70 0.01945011
301.80 0.0195952
301.90 0.01974029
302.00 0.01988537
302.10 0.02003046
302.20 0.02017555
302.30 0.02032064
302.40 0.02046572
302.50 0.02061081
302.60 0.0207559
302.70 0.02090154
302.80 0.0210499
302.90 0.02120522
303.00 0.02137209
303.10 0.02155258
303.20 0.02174464
303.30 0.02194364
303.40 0.02214537
303.50 0.02234764
303.60 0.02254992
303.70 0.0227522
303.80 0.02295448
303.90 0.02315676
304.00 0.02335904
304.10 0.02356132
304.20 0.0237636
304.30 0.02396587
304.40 0.02416815
304.50 0.02437043
304.60 0.02457271
304.70 0.02477331
304.80 0.02496556
304.90 0.02513657
305.00 0.02527221
305.10 0.0253662
305.20 0.02542483
305.30 0.02546222
305.40 0.02549126
305.50 0.02551862
305.60 0.02554597
305.70 0.02557333
305.80 0.02560069
305.90 0.02562805
306.00 0.0256554
306.10 0.02568276
306.20 0.02571012
306.30 0.02573748
306.40 0.02576484
306.50 0.02579219
306.60 0.02581955
306.70 0.02584691
306.80 0.02587429
306.90 0.02590172
307.00 0.02592922
307.10 0.02595681
307.20 0.02598448
307.30 0.0260122
307.40 0.02603993
307.50 0.02606767
307.60 0.02609541
307.70 0.02612315
307.80 0.02615088
307.90 0.02617862
308.00 0.02620636
308.10 0.0262341
308.20 0.02626183
308.30 0.02628957
308.40 0.02631731
308.50 0.02634505
308.60 0.02637279
308.70 0.02640472
308.80 0.02645757
308.90 0.02656357
309.00 0.02675808
309.10 0.02705682
309.20 0.02744409
309.30 0.02788449
309.40 0.02834582
309.50 0.02881134
309.60 0.02927686
309.70 0.02974238
309.80 0.0302079
309.90 0.03067342
310.00 0.03113894
310.10 0.03160446
310.20 0.03206998
310.30 0.03253551
310.40 0.03300103
310.50 0.03346655
310.60 0.03393207
310.70 0.03439337
310.80 0.03483364
310.90 0.03522049
311.00 0.03551836
311.10 0.03571145
311.20 0.03581555
311.30 0.03586623
311.40 0.03589588
311.50 0.03592131
311.60 0.03594674
311.70 0.03597217
311.80 0.0359976
311.90 0.03602303
312.00 0.03604846
312.10 0.0360739
312.20 0.03609933
312.30 0.03612476
312.40 0.03615019
312.50 0.03617562
312.60 0.03620105
312.70 0.03623169
312.80 0.03628831
312.90 0.0364109
313.00 0.03664339
313.10 0.0370053
313.20 0.0374771
313.30 0.03801488
313.40 0.03857864
313.50 0.03914761
313.60 0.03971657
313.70 0.04028554
313.80 0.0408545
313.90 0.04142347
314.00 0.04199244
314.10 0.0425614
314.20 0.04313037
314.30 0.04369933
314.40 0.0442683
314.50 0.04483726
314.60 0.04540623
314.70 0.04597882
314.80 0.04656949
314.90 0.04720609
315.00 0.04791919
315.10 0.04872238
315.20 0.04960206
315.30 0.05052767
315.40 0.05147137
315.50 0.05241868
315.60 0.053366
315.70 0.05431332
315.80 0.05526064
315.90 0.05620796
316.00 0.05715527
316.10 0.05810259
316.20 0.05904991
316.30 0.05999723
316.40 0.06094454
316.50 0.06189186
316.60 0.06283918
316.70 0.06377318
316.80 0.0646407
316.90 0.06533941
317.00 0.06575692
317.10 0.06584329
317.20 0.06564846
317.30 0.06528482
317.40 0.0648547
317.50 0.06441126
317.60 0.06396782
317.70 0.06352439
317.80 0.06308095
317.90 0.06263751
318.00 0.06219407
318.10 0.06175063
318.20 0.06130719
318.30 0.06086376
318.40 0.06042032
318.50 0.05997688
318.60 0.05953344
318.70 0.0591002
318.80 0.05871785
318.90 0.05846471
319.00 0.05842684
319.10 0.05864244
319.20 0.05907331
319.30 0.0596334
319.40 0.06024437
319.50 0.06086554
319.60 0.06148671
319.70 0.06210788
319.80 0.06272905
319.90 0.06335023
320.00 0.0639714
320.10 0.06459257
320.20 0.06521374
320.30 0.06583491
320.40 0.06645608
320.50 0.06707725
320.60 0.06769842
320.70 0.06831582
320.80 0.0689144
320.90 0.06946519
321.00 0.06993636
321.10 0.07031378
321.20 0.07061159
321.30 0.07086161
321.40 0.0710928
321.50 0.07132023
321.60 0.07154765
321.70 0.07177508
321.80 0.0720025
321.90 0.07222993
322.00 0.07245735
322.10 0.07268477
322.20 0.0729122
322.30 0.07313962
322.40 0.07336705
322.50 0.07359447
322.60 0.0738219
322.70 0.0740631
322.80 0.07437304
322.90 0.07485756
323.00 0.07563287
323.10 0.07675062
323.20 0.07815918
323.30 0.0797423
323.40 0.08139417
323.50 0.08305981
323.60 0.08472546
323.70 0.0863911
323.80 0.08805674
323.90 0.08972239
324.00 0.09138803
324.10 0.09305368
324.20 0.09471932
324.30 0.09638496
324.40 0.09805061
324.50 0.09971625
324.60 0.1013819
324.70 0.1030453
324.80 0.1046975
324.90 0.1063214
325.00 0.1078981
325.10 0.1094191
325.20 0.1108929
325.30 0.1123383
325.40 0.1137725
325.50 0.1152046
325.60 0.1166366
325.70 0.1180686
325.80 0.1195006
325.90 0.1209326
326.00 0.1223647
326.10 0.1237967
326.20 0.1252287
326.30 0.1266607
326.40 0.1280927
326.50 0.1295247
326.60 0.1309568
326.70 0.1323936
326.80 0.1338545
326.90 0.1353765
327.00 0.1370004
327.10 0.1387441
327.20 0.1405897
327.30 0.1424963
327.40 0.1444271
327.50 0.1463626
327.60 0.1482982
327.70 0.1502337
327.80 0.1521693
327.90 0.1541048
328.00 0.1560404
328.10 0.1579759
328.20 0.1599115
328.30 0.1618471
328.40 0.1637826
328.50 0.1657182
328.60 0.1676537
328.70 0.169561
328.80 0.171327
328.90 0.1727345
329.00 0.1735445
329.10 0.1736511
329.20 0.1731604
329.30 0.172311
329.40 0.1713204
329.50 0.1703015
329.60 0.1692826
329.70 0.1682638
329.80 0.1672449
329.90 0.166226
330.00 0.1652071
330.10 0.1641882
330.20 0.1631694
330.30 0.1621505
330.40 0.1611316
330.50 0.1601127
330.60 0.1590938
330.70 0.1580959
330.80 0.1572028
330.90 0.1565757
331.00 0.1563917
331.10 0.1567295
331.20 0.1575105
331.30 0.1585575
331.40 0.1597093
331.50 0.160882
331.60 0.1620547
331.70 0.1632275
331.80 0.1644002
331.90 0.165573
332.00 0.1667457
332.10 0.1679185
332.20 0.1690912
332.30 0.1702639
332.40 0.1714367
332.50 0.1726094
332.60 0.1737822
332.70 0.1749416
332.80 0.1760347
332.90 0.1769594
333.00 0.1776036
333.10 0.1779173
333.20 0.1779505
333.30 0.1778152
333.40 0.1776136
333.50 0.1773988
333.60 0.1771839
333.70 0.176969
333.80 0.1767542
333.90 0.1765393
334.00 0.1763244
334.10 0.1761095
334.20 0.1758947
334.30 0.1756798
334.40 0.1754649
334.50 0.1752501
334.60 0.175214
334.70 0.1757615
334.80 0.1770484
334.90 0.1783557
335.00 0.1783145
335.10 0.1765516
335.20 0.1752215
335.30 0.1783518
335.40 0.188742
335.50 0.204802
335.60 0.2203828
335.70 0.2283526
335.80 0.2251971
335.90 0.2127595
336.00 0.196275
336.10 0.1811329
336.20 0.1710921
336.30 0.1677282
336.40 0.1697649
336.50 0.1732322
336.60 0.1738453
336.70 0.1705593
336.80 0.1668999
336.90 0.1681973
337.00 0.1770204
337.10 0.1906716
337.20 0.2027304
337.30 0.2074658
337.40 0.2038593
337.50 0.1962409
337.60 0.1909773
337.70 0.1917497
337.80 0.1973919
337.90 0.2040278
338.00 0.2086938
338.10 0.2105745
338.20 0.2092403
338.30 0.2032828
338.40 0.1922226
338.50 0.1793284
338.60 0.1711099
338.70 0.1726403
338.80 0.182822
338.90 0.194737
339.00 0.2012054
339.10 0.2006657
339.20 0.1981357
339.30 0.2002786
339.40 0.2092668
339.50 0.2213742
339.60 0.2310057
339.70 0.2353981
339.80 0.2353265
339.90 0.2323332
340.00 0.2270325
340.10 0.2200587
340.20 0.2128784
340.30 0.2066051
340.40 0.200489
340.50 0.1927026
340.60 0.1828057
340.70 0.1727637
340.80 0.1653906
340.90 0.1622868
341.00 0.1633455
341.10 0.1675892
341.20 0.1738919
341.30 0.1809307
341.40 0.1871466
341.50 0.1913479
341.60 0.193417
341.70 0.1943627
341.80 0.1955526
341.90 0.1977037
342.00 0.2002459
342.10 0.2014338
342.20 0.1994092
342.30 0.1937628
342.40 0.1863767
342.50 0.1804708
342.60 0.1784393
342.70 0.1803582
342.80 0.1842968
342.90 0.1878422
343.00 0.1895835
343.10 0.1897457
343.20 0.1896642
343.30 0.1904864
343.40 0.1921719
343.50 0.1937289
343.60 0.1942639
343.70 0.1935316
343.80 0.1917223
343.90 0.1892837
344.00 0.1870343
344.10 0.1859207
344.20 0.1861902
344.30 0.1869732
344.40 0.1870467
344.50 0.186005
344.60 0.1845887
344.70 0.1840358
344.80 0.1852924
344.90 0.1886926
345.00 0.1940595
345.10 0.2008384
345.20 0.2081261
345.30 0.2146721
345.40 0.219079
345.50 0.2204758
345.60 0.2192451
345.70 0.2169592
345.80 0.2153055
345.90 0.2149062
346.00 0.2150401
346.10 0.2142737
346.20 0.2114617
346.30 0.2066484
346.40 0.2013571
346.50 0.1977043
346.60 0.1967167
346.70 0.197439
346.80 0.1978223
346.90 0.1963917
347.00 0.1930069
347.10 0.1885796
347.20 0.1846225
347.30 0.1828222
347.40 0.1842513
347.50 0.1885227
347.60 0.1939704
347.70 0.1989294
347.80 0.2028504
347.90 0.2062817
348.00 0.2100047
348.10 0.2141592
348.20 0.2179625
348.30 0.2202264
348.40 0.2203203
348.50 0.2187238
348.60 0.2165318
348.70 0.2144566
348.80 0.2124925
348.90 0.2104099
349.00 0.2082204
349.10 0.2061187
349.20 0.2042789
349.30 0.2029515
349.40 0.2025855
349.50 0.2034675
349.60 0.2051605
349.70 0.20657
349.80 0.2069127
349.90 0.2068177
350.00 0.208251
350.10 0.2129668
350.20 0.220826
350.30 0.2296198
350.40 0.2365766
350.50 0.2401141
350.60 0.2403606
350.70 0.238414
350.80 0.235408
350.90 0.2319768
351.00 0.2280083
351.10 0.2226966
351.20 0.2151718
351.30 0.2056193
351.40 0.1958905
351.50 0.1886137
351.60 0.185331
351.70 0.1854117
351.80 0.1867848
351.90 0.1876648
352.00 0.18755
352.10 0.1868022
352.20 0.1858425
352.30 0.1850358
352.40 0.185166
352.50 0.187669
352.60 0.1938449
352.70 0.2035126
352.80 0.2144971
352.90 0.223843
353.00 0.2299903
353.10 0.2337718
353.20 0.2371356
353.30 0.2411616
353.40 0.2455863
353.50 0.2498805
353.60 0.254152
353.70 0.2588086
353.80 0.2638438
353.90 0.2688096
354.00 0.2731206
354.10 0.2760159
354.20 0.2765779
354.30 0.2744399
354.40 0.2705797
354.50 0.2669874
354.60 0.2651784
354.70 0.2650762
354.80 0.2654315
354.90 0.2651338
355.00 0.2639755
355.10 0.2624029
355.20 0.260891
355.30 0.2596596
355.40 0.258815
355.50 0.2584035
355.60 0.2581647
355.70 0.2573708
355.80 0.2551645
355.90 0.2512724
356.00 0.24633
356.10 0.2413649
356.20 0.2369162
356.30 0.232604
356.40 0.2275457
356.50 0.2213157
356.60 0.2146432
356.70 0.209152
356.80 0.2062286
356.90 0.2059972
357.00 0.2073315
357.10 0.2087247
357.20 0.2090781
357.30 0.2079231
357.40 0.205285
357.50 0.2015337
357.60 0.1972771
357.70 0.1931472
357.80 0.1895439
357.90 0.1865449
358.00 0.1841273
358.10 0.1825557
358.20 0.1824841
358.30 0.1845278
358.40 0.1886455
358.50 0.1939168
358.60 0.198899
358.70 0.2022442
358.80 0.2032612
358.90 0.2022493
359.00 0.2005197
359.10 0.1999039
359.20 0.2017451
359.30 0.2059616
359.40 0.2109394
359.50 0.2145425
359.60 0.2155609
359.70 0.2144619
359.80 0.2128604
359.90 0.2121542
360.00 0.2124136
360.10 0.2123843
360.20 0.2105579
360.30 0.2063837
360.40 0.2007315
360.50 0.1954572
360.60 0.1925423
360.70 0.1933057
360.80 0.1978084
360.90 0.2047159
361.00 0.211953
361.10 0.2178853
361.20 0.2220935
361.30 0.225052
361.40 0.2271717
361.50 0.2283637
361.60 0.2286058
361.70 0.2285578
361.80 0.2292026
361.90 0.2308484
362.00 0.2327605
362.10 0.2339313
362.20 0.2340063
362.30 0.2333855
362.40 0.2327395
362.50 0.232628
362.60 0.2332374
362.70 0.234059
362.80 0.23398
362.90 0.2321684
363.00 0.2290425
363.10 0.2261471
363.20 0.2249083
363.30 0.225571
363.40 0.2273022
363.50 0.2290636
363.60 0.2302794
363.70 0.2308928
363.80 0.2310205
363.90 0.2306146
364.00 0.229378
364.10 0.2269715
364.20 0.2233565
364.30 0.2189875
364.40 0.2147153
364.50 0.2115107
364.60 0.2100889
364.70 0.2105105
364.80 0.2120952
364.90 0.2139362
365.00 0.2157285
365.10 0.2180768
365.20 0.2217503
365.30 0.2265374
365.40 0.2309672
365.50 0.2333275
365.60 0.2330772
365.70 0.2312562
365.80 0.229483
365.90 0.2286418
366.00 0.228551
366.10 0.2287011
366.20 0.229057
366.30 0.2299882
366.40 0.2315906
366.50 0.2333141
366.60 0.2342515
366.70 0.2337248
366.80 0.2316383
366.90 0.2284274
367.00 0.2248311
367.10 0.2216885
367.20 0.219762
367.30 0.2195413
367.40 0.2210317
367.50 0.2237105
367.60 0.226783
367.70 0.2295951
367.80 0.2319052
367.90 0.2338405
368.00 0.2356275
368.10 0.2373196
368.20 0.2387016
368.30 0.2393943
368.40 0.2391014
368.50 0.2378873
368.60 0.2362941
368.70 0.2351164
368.80 0.2349164
368.90 0.235681
369.00 0.2369782
369.10 0.2384657
369.20 0.2401255
369.30 0.2419415
369.40 0.2434882
369.50 0.2440371
369.60 0.2431872
369.70 0.2413572
369.80 0.2396396
369.90 0.2391818
370.00 0.2405901
370.10 0.2436923
370.20 0.2477326
370.30 0.2517782
370.40 0.2550407
370.50 0.2570088
370.60 0.2575055
370.70 0.2568282
370.80 0.2557671
370.90 0.2552522
371.00 0.2557501
371.10 0.256877
371.20 0.2575437
371.30 0.2565193
371.40 0.2531178
371.50 0.2476546
371.60 0.2413993
371.70 0.2359822
371.80 0.2326497
371.90 0.2318603
372.00 0.2333225
372.10 0.2360801
372.20 0.2384453
372.30 0.2382926
372.40 0.234042
372.50 0.2258974
372.60 0.2162203
372.70 0.2084726
372.80 0.2054524
372.90 0.2080693
373.00 0.2152754
373.10 0.224827
373.20 0.234215
373.30 0.2413435
373.40 0.2449503
373.50 0.2446957
373.60 0.2409322
373.70 0.2343674
373.80 0.2259145
373.90 0.216776
374.00 0.2084592
374.10 0.202515
374.20 0.2001427
374.30 0.2019785
374.40 0.2081455
374.50 0.2182982
374.60 0.2314939
374.70 0.2460139
374.80 0.259471
374.90 0.2694153
375.00 0.274175
375.10 0.273394
375.20 0.267974
375.30 0.2596045
375.40 0.250245
375.50 0.2417128
375.60 0.2352507
375.70 0.2311942
375.80 0.2289913
375.90 0.227661
376.00 0.2264739
376.10 0.225487
376.20 0.2256595
376.30 0.228455
376.40 0.2351279
376.50 0.2461832
376.60 0.2613635
376.70 0.2798145
376.80 0.2999675
376.90 0.3192104
377.00 0.3341018
377.10 0.34155
377.20 0.3402274
377.30 0.3310852
377.40 0.3166543
377.50 0.2998478
377.60 0.2831285
377.70 0.2682691
377.80 0.2562889
377.90 0.2474003
378.00 0.2411357
378.10 0.2367526
378.20 0.2336677
378.30 0.2315663
378.40 0.23023
378.50 0.229479
378.60 0.2293416
378.70 0.2301495
378.80 0.2323949
378.90 0.2366297
379.00 0.2436311
379.10 0.2544987
379.20 0.2701976
379.30 0.2907139
379.40 0.3145329
379.50 0.3388569
379.60 0.3602508
379.70 0.3753266
379.80 0.3815102
379.90 0.3778431
380.00 0.3654732
380.10 0.3473205
380.20 0.3269641
380.30 0.3074156
380.40 0.2904858
380.50 0.2768299
380.60 0.2663035
380.70 0.2582687
380.80 0.2518209
380.90 0.2461817
381.00 0.2410819
381.10 0.236751
381.20 0.2334549
381.30 0.2310598
381.40 0.2291617
381.50 0.227658
381.60 0.2269721
381.70 0.2275153
381.80 0.2289288
381.90 0.2300091
382.00 0.2295838
382.10 0.2276162
382.20 0.2250558
382.30 0.2225461
382.40 0.2190495
382.50 0.2123219
382.60 0.2017579
382.70 0.1904405
382.80 0.1839698
382.90 0.1859585
383.00 0.1943316
383.10 0.2024546
383.20 0.2046219
383.30 0.2006359
383.40 0.1952076
383.50 0.1930496
383.60 0.1942806
383.70 0.1948693
383.80 0.191159
383.90 0.1843145
384.00 0.1804857
384.10 0.1864225
384.20 0.2040071
384.30 0.2284457
384.40 0.2513551
384.50 0.2660127
384.60 0.2709282
384.70 0.268667
384.80 0.2620099
384.90 0.2524417
385.00 0.2423494
385.10 0.2360211
385.20 0.2362189
385.30 0.2399469
385.40 0.2402448
385.50 0.2326204
385.60 0.2183999
385.70 0.202585
385.80 0.1900131
385.90 0.1838512
386.00 0.1854635
386.10 0.1942926
386.20 0.207994
386.30 0.2232716
386.40 0.2371549
386.50 0.2479529
386.60 0.2558486
386.70 0.2624104
386.80 0.2687219
386.90 0.2732018
387.00 0.2719426
387.10 0.2623863
387.20 0.2468606
387.30 0.2318184
387.40 0.2225283
387.50 0.2187631
387.60 0.2161223
387.70 0.2114313
387.80 0.2064916
387.90 0.2062203
388.00 0.2136513
388.10 0.2267207
388.20 0.2395099
388.30 0.2459415
388.40 0.2426569
388.50 0.2308869
388.60 0.2166898
388.70 0.2083673
388.80 0.2111588
388.90 0.2238878
389.00 0.2411813
389.10 0.2578589
389.20 0.2704639
389.30 0.2758684
389.40 0.2725281
389.50 0.2638111
389.60 0.2569291
389.70 0.2562665
389.80 0.2588124
389.90 0.2581973
390.00 0.2521326
390.10 0.2443921
390.20 0.2400146
390.30 0.2411301
390.40 0.2472127
390.50 0.2568205
390.60 0.268088
390.70 0.2784221
390.80 0.2856618
390.90 0.2897969
391.00 0.2927733
391.10 0.2968079
391.20 0.3027973
391.30 0.3096214
391.40 0.3146369
391.50 0.3147079
391.60 0.3079861
391.70 0.2953805
391.80 0.2799495
391.90 0.264501
392.00 0.2501285
392.10 0.2371314
392.20 0.2268765
392.30 0.221706
392.40 0.2223729
392.50 0.2261457
392.60 0.2281828
392.70 0.2248536
392.80 0.2153816
392.90 0.2015274
393.00 0.1866875
393.10 0.1753153
393.20 0.171177
393.30 0.1743174
393.40 0.1807238
393.50 0.1863282
393.60 0.1907798
393.70 0.1966213
393.80 0.2054252
393.90 0.2156254
394.00 0.2239112
394.10 0.2270739
394.20 0.223403
394.30 0.2146564
394.40 0.2065583
394.50 0.2054977
394.60 0.2135891
394.70 0.2275226
394.80 0.2427614
394.90 0.2577614
395.00 0.2737463
395.10 0.2910174
395.20 0.3068265
395.30 0.3172314
395.40 0.3199511
395.50 0.3148388
395.60 0.3026678
395.70 0.2848729
395.80 0.2639613
395.90 0.2424869
396.00 0.2215735
396.10 0.2023055
396.20 0.1878959
396.30 0.1819817
396.40 0.1843207
396.50 0.1900336
396.60 0.1945365
396.70 0.1974026
396.80 0.2003855
396.90 0.2035065
397.00 0.2050136
397.10 0.2053182
397.20 0.2090368
397.30 0.2214333
397.40 0.2429842
397.50 0.2682872
397.60 0.2907652
397.70 0.3081567
397.80 0.3224225
397.90 0.3349117
398.00 0.3438254
398.10 0.3471514
398.20 0.3467746
398.30 0.3479666
398.40 0.3543595
398.50 0.3649943
398.60 0.3759411
398.70 0.3831851
398.80 0.3843748
398.90 0.3800539
399.00 0.3747244
399.10 0.3747213
399.20 0.3827857
399.30 0.3951513
399.40 0.4048716
399.50 0.4071579
399.60 0.4013206
399.70 0.3899158
399.80 0.3782251
399.90 0.3734387
400.00 0.3807086
400.10 0.3983321
400.20 0.4175372
400.30 0.4279025
400.40 0.4242531
400.50 0.4096796
400.60 0.3927462
400.70 0.3818296
400.80 0.3810756
400.90 0.3898654
401.00 0.404686
401.10 0.4211934
401.20 0.4354611
401.30 0.4448986
401.40 0.448925
401.50 0.4485704
401.60 0.4456001
401.70 0.4418349
401.80 0.4386796
401.90 0.4371291
402.00 0.4377333
402.10 0.4401222
402.20 0.4427679
402.30 0.4440821
402.40 0.4441417
402.50 0.4452188
402.60 0.4489525
402.70 0.4522795
402.80 0.4474781
402.90 0.4276114
403.00 0.3930427
403.10 0.3527877
403.20 0.3196314
403.30 0.3035553
403.40 0.308486
403.50 0.3327278
403.60 0.3705294
403.70 0.413302
403.80 0.4510806
403.90 0.475281
404.00 0.4822446
404.10 0.4744865
404.20 0.4573041
404.30 0.4339791
404.40 0.4054794
404.50 0.3757467
404.60 0.3549665
404.70 0.3538496
404.80 0.3741566
404.90 0.4065965
405.00 0.4383271
405.10 0.4614513
405.20 0.4748257
405.30 0.4805005
405.40 0.4806794
405.50 0.4771204
405.60 0.4715346
405.70 0.465976
405.80 0.4623848
405.90 0.461149
406.00 0.4592533
406.10 0.4507735
406.20 0.4317262
406.30 0.405979
406.40 0.3852894
406.50 0.3810343
406.60 0.3950987
406.70 0.4186325
406.80 0.4387074
406.90 0.4461681
407.00 0.4395107
407.10 0.4251176
407.20 0.4140551
407.30 0.4150302
407.40 0.4273211
407.50 0.4405216
407.60 0.4432345
407.70 0.4334058
407.80 0.4207325
407.90 0.4184637
408.00 0.4323665
408.10 0.4567357
408.20 0.4802479
408.30 0.4953725
408.40 0.5028024
408.50 0.5084958
408.60 0.5175956
408.70 0.5308943
408.80 0.5450536
408.90 0.555003
409.00 0.5570718
409.10 0.5516377
409.20 0.5428549
409.30 0.5342916
409.40 0.5247419
409.50 0.5099171
409.60 0.488478
409.70 0.4645594
409.80 0.4438824
409.90 0.4289836
410.00 0.4194694
410.10 0.4153401
410.20 0.4179855
410.30 0.4281474
410.40 0.4437242
410.50 0.4600312
410.60 0.4724403
410.70 0.4790946
410.80 0.4812581
410.90 0.4812443
411.00 0.4805763
411.10 0.4800494
411.20 0.4807311
411.30 0.4838186
411.40 0.4896673
411.50 0.4971872
411.60 0.5038381
411.70 0.5066502
411.80 0.5042605
411.90 0.4986864
412.00 0.4943673
412.10 0.4949464
412.20 0.501363
412.30 0.5127148
412.40 0.5274019
412.50 0.542336
412.60 0.5524424
412.70 0.5531622
412.80 0.5438703
412.90 0.5274829
413.00 0.5069523
413.10 0.4838367
413.20 0.4607606
413.30 0.4436183
413.40 0.4390562
413.50 0.4493831
413.60 0.4704122
413.70 0.4940287
413.80 0.5125643
413.90 0.5210877
414.00 0.5165798
414.10 0.4974894
414.20 0.4663399
414.30 0.4326647
414.40 0.4104661
414.50 0.4095165
414.60 0.4285867
414.70 0.4576381
414.80 0.4858119
414.90 0.506768
415.00 0.5185328
415.10 0.5217676
415.20 0.5194651
415.30 0.5164234
415.40 0.5167713
415.50 0.5216287
415.60 0.5294585
415.70 0.5383587
415.80 0.5475081
415.90 0.5567906
416.00 0.5660552
416.10 0.5746165
416.20 0.5806776
416.30 0.581252
