# Version 2.1 - nm, norm@500 to 1, cut digits
# Wavelength(nm)  Flambda(ergs/cm^s/s/nm)
300.00 0.01088019
300.10 0.01446247
300.20 0.01664386
300.30 0.01754559
300.40 0.01778141
300.50 0.01785027
300.60 0.01791912
300.70 0.01798869
300.80 0.01806181
300.90 0.01814395
301.00 0.01824113
301.10 0.01835601
301.20 0.01848591
301.30 0.01862485
301.40 0.01876734
301.50 0.01891053
301.60 0.01905373
301.70 0.01919693
301.80 0.01934013
301.90 0.01948333
302.00 0.01962653
302.10 0.01976973
302.20 0.01991293
302.30 0.02005613
302.40 0.02019933
302.50 0.02034253
302.60 0.02048573
302.70 0.02062947
302.80 0.0207759
302.90 0.02092919
303.00 0.0210939
303.10 0.02127204
303.20 0.02146159
303.30 0.021658
303.40 0.02185711
303.50 0.02205675
303.60 0.0222564
303.70 0.02245604
303.80 0.02265569
303.90 0.02285533
304.00 0.02305498
304.10 0.02325463
304.20 0.02345427
304.30 0.02365392
304.40 0.02385356
304.50 0.02405321
304.60 0.02425285
304.70 0.02445085
304.80 0.02464059
304.90 0.02480937
305.00 0.02494325
305.10 0.02503602
305.20 0.02509388
305.30 0.02513079
305.40 0.02515944
305.50 0.02518645
305.60 0.02521345
305.70 0.02524045
305.80 0.02526745
305.90 0.02529445
306.00 0.02532145
306.10 0.02534846
306.20 0.02537546
306.30 0.02540246
306.40 0.02542946
306.50 0.02545646
306.60 0.02548347
306.70 0.02551047
306.80 0.02553749
306.90 0.02556456
307.00 0.02559171
307.10 0.02561894
307.20 0.02564625
307.30 0.02567361
307.40 0.02570098
307.50 0.02572836
307.60 0.02575573
307.70 0.02578311
307.80 0.02581049
307.90 0.02583786
308.00 0.02586524
308.10 0.02589261
308.20 0.02591999
308.30 0.02594737
308.40 0.02597474
308.50 0.02600212
308.60 0.0260295
308.70 0.02606101
308.80 0.02611318
308.90 0.0262178
309.00 0.02640978
309.10 0.02670463
309.20 0.02708686
309.30 0.02752153
309.40 0.02797685
309.50 0.02843631
309.60 0.02889577
309.70 0.02935523
309.80 0.02981469
309.90 0.03027415
310.00 0.03073362
310.10 0.03119308
310.20 0.03165254
310.30 0.032112
310.40 0.03257146
310.50 0.03303092
310.60 0.03349038
310.70 0.03394568
310.80 0.03438022
310.90 0.03476204
311.00 0.03505603
311.10 0.0352466
311.20 0.03534935
311.30 0.03539937
311.40 0.03542863
311.50 0.03545373
311.60 0.03547883
311.70 0.03550393
311.80 0.03552903
311.90 0.03555413
312.00 0.03557923
312.10 0.03560433
312.20 0.03562943
312.30 0.03565453
312.40 0.03567963
312.50 0.03570473
312.60 0.03572983
312.70 0.03576007
312.80 0.03581595
312.90 0.03593695
313.00 0.03616641
313.10 0.03652361
313.20 0.03698927
313.30 0.03752005
313.40 0.03807647
313.50 0.03863803
313.60 0.03919959
313.70 0.03976115
313.80 0.04032271
313.90 0.04088427
314.00 0.04144583
314.10 0.04200739
314.20 0.04256895
314.30 0.04313051
314.40 0.04369207
314.50 0.04425363
314.60 0.04481519
314.70 0.04538033
314.80 0.04596331
314.90 0.04659162
315.00 0.04729544
315.10 0.04808817
315.20 0.04895641
315.30 0.04986997
315.40 0.05080138
315.50 0.05173636
315.60 0.05267135
315.70 0.05360634
315.80 0.05454132
315.90 0.05547631
316.00 0.0564113
316.10 0.05734629
316.20 0.05828127
316.30 0.05921626
316.40 0.06015125
316.50 0.06108623
316.60 0.06202122
316.70 0.06294306
316.80 0.06379929
316.90 0.0644889
317.00 0.06490098
317.10 0.06498623
317.20 0.06479393
317.30 0.06443502
317.40 0.0640105
317.50 0.06357284
317.60 0.06313517
317.70 0.06269751
317.80 0.06225984
317.90 0.06182217
318.00 0.06138451
318.10 0.06094684
318.20 0.06050917
318.30 0.06007151
318.40 0.05963384
318.50 0.05919618
318.60 0.05875851
318.70 0.05833091
318.80 0.05795353
318.90 0.05770369
319.00 0.05766631
319.10 0.05787911
319.20 0.05830437
319.30 0.05885716
319.40 0.05946019
319.50 0.06007327
319.60 0.06068636
319.70 0.06129944
319.80 0.06191253
319.90 0.06252561
320.00 0.0631387
320.10 0.06375178
320.20 0.06436487
320.30 0.06497795
320.40 0.06559104
320.50 0.06620412
320.60 0.06681721
320.70 0.06742657
320.80 0.06801736
320.90 0.06856098
321.00 0.06902601
321.10 0.06939852
321.20 0.06969246
321.30 0.06993922
321.40 0.07016741
321.50 0.07039187
321.60 0.07061633
321.70 0.0708408
321.80 0.07106526
321.90 0.07128973
322.00 0.07151419
322.10 0.07173866
322.20 0.07196312
322.30 0.07218758
322.40 0.07241205
322.50 0.07263651
322.60 0.07286098
322.70 0.07309904
322.80 0.07340495
322.90 0.07388316
323.00 0.07464838
323.10 0.07575158
323.20 0.0771418
323.30 0.07870432
323.40 0.08033469
323.50 0.08197865
323.60 0.08362261
323.70 0.08526657
323.80 0.08691053
323.90 0.0885545
324.00 0.09019846
324.10 0.09184242
324.20 0.09348638
324.30 0.09513035
324.40 0.09677431
324.50 0.09841827
324.60 0.1000622
324.70 0.101704
324.80 0.1033347
324.90 0.1049375
325.00 0.1064936
325.10 0.1079948
325.20 0.1094494
325.30 0.110876
325.40 0.1122916
325.50 0.113705
325.60 0.1151184
325.70 0.1165317
325.80 0.1179451
325.90 0.1193585
326.00 0.1207719
326.10 0.1221852
326.20 0.1235986
326.30 0.125012
326.40 0.1264254
326.50 0.1278388
326.60 0.1292521
326.70 0.1306703
326.80 0.1321122
326.90 0.1336144
327.00 0.1352171
327.10 0.1369381
327.20 0.1387596
327.30 0.1406415
327.40 0.1425471
327.50 0.1444575
327.60 0.1463678
327.70 0.1482782
327.80 0.1501885
327.90 0.1520989
328.00 0.1540093
328.10 0.1559196
328.20 0.15783
328.30 0.1597403
328.40 0.1616507
328.50 0.1635611
328.60 0.1654714
328.70 0.1673539
328.80 0.1690969
328.90 0.170486
329.00 0.1712855
329.10 0.1713908
329.20 0.1709064
329.30 0.1700681
329.40 0.1690904
329.50 0.1680848
329.60 0.1670791
329.70 0.1660735
329.80 0.1650679
329.90 0.1640623
330.00 0.1630567
330.10 0.162051
330.20 0.1610454
330.30 0.1600398
330.40 0.1590342
330.50 0.1580286
330.60 0.1570229
330.70 0.156038
330.80 0.1551565
330.90 0.1545376
331.00 0.154356
331.10 0.1546894
331.20 0.1554602
331.30 0.1564936
331.40 0.1576304
331.50 0.1587878
331.60 0.1599453
331.70 0.1611028
331.80 0.1622603
331.90 0.1634177
332.00 0.1645752
332.10 0.1657327
332.20 0.1668902
332.30 0.1680477
332.40 0.1692051
332.50 0.1703626
332.60 0.1715201
332.70 0.1726644
332.80 0.1737433
332.90 0.174656
333.00 0.1752917
333.10 0.1756014
333.20 0.1756341
333.30 0.1755006
333.40 0.1753017
333.50 0.1750896
333.60 0.1748775
333.70 0.1746655
333.80 0.1744534
333.90 0.1742413
334.00 0.1740292
334.10 0.1738172
334.20 0.1736051
334.30 0.173393
334.40 0.1731809
334.50 0.1729689
334.60 0.1729333
334.70 0.1734737
334.80 0.1747438
334.90 0.1760341
335.00 0.1759934
335.10 0.1742535
335.20 0.1729407
335.30 0.1760303
335.40 0.1862852
335.50 0.2021361
335.60 0.2175141
335.70 0.2253802
335.80 0.2222657
335.90 0.2099901
336.00 0.1937202
336.10 0.1787752
336.20 0.1688651
336.30 0.1655449
336.40 0.1675551
336.50 0.1709773
336.60 0.1715824
336.70 0.1683392
336.80 0.1647274
336.90 0.166008
337.00 0.1747162
337.10 0.1881897
337.20 0.2000915
337.30 0.2047652
337.40 0.2012057
337.50 0.1936865
337.60 0.1884914
337.70 0.1892537
337.80 0.1948225
337.90 0.201372
338.00 0.2059772
338.10 0.2078335
338.20 0.2065167
338.30 0.2006367
338.40 0.1897205
338.50 0.1769942
338.60 0.1688826
338.70 0.1703931
338.80 0.1804423
338.90 0.1922021
339.00 0.1985864
339.10 0.1980536
339.20 0.1955566
339.30 0.1976716
339.40 0.2065429
339.50 0.2184927
339.60 0.2279988
339.70 0.232334
339.80 0.2322633
339.90 0.229309
340.00 0.2240772
340.10 0.2171942
340.20 0.2101074
340.30 0.2039158
340.40 0.1978793
340.50 0.1901942
340.60 0.1804262
340.70 0.1705149
340.80 0.1632377
340.90 0.1601744
341.00 0.1612192
341.10 0.1654077
341.20 0.1716284
341.30 0.1785756
341.40 0.1847106
341.50 0.1888572
341.60 0.1908994
341.70 0.1918327
341.80 0.1930071
341.90 0.1951302
342.00 0.1976393
342.10 0.1988118
342.20 0.1968135
342.30 0.1912407
342.40 0.1839507
342.50 0.1781216
342.60 0.1761166
342.70 0.1780106
342.80 0.1818979
342.90 0.1853971
343.00 0.1871158
343.10 0.1872758
343.20 0.1871954
343.30 0.1880069
343.40 0.1896705
343.50 0.1912072
343.60 0.1917352
343.70 0.1910124
343.80 0.1892267
343.90 0.1868198
344.00 0.1845997
344.10 0.1835007
344.20 0.1837666
344.30 0.1845394
344.40 0.184612
344.50 0.1835839
344.60 0.182186
344.70 0.1816403
344.80 0.1828805
344.90 0.1862365
345.00 0.1915335
345.10 0.1982242
345.20 0.205417
345.30 0.2118777
345.40 0.2162273
345.50 0.2176059
345.60 0.2163912
345.70 0.2141351
345.80 0.212503
345.90 0.2121089
346.00 0.212241
346.10 0.2114846
346.20 0.2087092
346.30 0.2039585
346.40 0.1987361
346.50 0.1951309
346.60 0.1941561
346.70 0.194869
346.80 0.1952473
346.90 0.1938354
347.00 0.1904946
347.10 0.1861249
347.20 0.1822193
347.30 0.1804425
347.40 0.181853
347.50 0.1860688
347.60 0.1914455
347.70 0.19634
347.80 0.20021
347.90 0.2035966
348.00 0.2072711
348.10 0.2113715
348.20 0.2151253
348.30 0.2173597
348.40 0.2174525
348.50 0.2158767
348.60 0.2137133
348.70 0.2116651
348.80 0.2097265
348.90 0.207671
349.00 0.2055101
349.10 0.2034357
349.20 0.2016199
349.30 0.2003097
349.40 0.1999485
349.50 0.200819
349.60 0.2024899
349.70 0.2038811
349.80 0.2042194
349.90 0.2041256
350.00 0.2055402
350.10 0.2101947
350.20 0.2179516
350.30 0.2266309
350.40 0.2334971
350.50 0.2369886
350.60 0.2372319
350.70 0.2353106
350.80 0.2323437
350.90 0.2289572
351.00 0.2250404
351.10 0.2197978
351.20 0.212371
351.30 0.2029428
351.40 0.1933407
351.50 0.1861585
351.60 0.1829186
351.70 0.1829983
351.80 0.1843534
351.90 0.185222
352.00 0.1851087
352.10 0.1843706
352.20 0.1834234
352.30 0.1826273
352.40 0.1827558
352.50 0.1852262
352.60 0.1913216
352.70 0.2008635
352.80 0.2117051
352.90 0.2209293
353.00 0.2269966
353.10 0.2307289
353.20 0.2340489
353.30 0.2380224
353.40 0.2423896
353.50 0.2466279
353.60 0.2508438
353.70 0.2554398
353.80 0.2604094
353.90 0.2653106
354.00 0.2695654
354.10 0.272423
354.20 0.2729777
354.30 0.2708676
354.40 0.2670576
354.50 0.2635121
354.60 0.2617267
354.70 0.2616257
354.80 0.2619764
354.90 0.2616826
355.00 0.2605394
355.10 0.2589872
355.20 0.257495
355.30 0.2562797
355.40 0.2554461
355.50 0.2550399
355.60 0.2548043
355.70 0.2540207
355.80 0.2518431
355.90 0.2480017
356.00 0.2431236
356.10 0.2382231
356.20 0.2338323
356.30 0.2295763
356.40 0.2245838
356.50 0.2184349
356.60 0.2118492
356.70 0.2064296
356.80 0.2035442
356.90 0.2033158
357.00 0.2046327
357.10 0.2060078
357.20 0.2063565
357.30 0.2052167
357.40 0.2026128
357.50 0.1989104
357.60 0.1947092
357.70 0.190633
357.80 0.1870767
357.90 0.1841167
358.00 0.1817306
358.10 0.1801794
358.20 0.1801088
358.30 0.1821259
358.40 0.1861899
358.50 0.1913927
358.60 0.19631
358.70 0.1996117
358.80 0.2006154
358.90 0.1996167
359.00 0.1979096
359.10 0.1973018
359.20 0.199119
359.30 0.2032806
359.40 0.2081937
359.50 0.2117499
359.60 0.212755
359.70 0.2116703
359.80 0.2100897
359.90 0.2093926
360.00 0.2096486
360.10 0.2096197
360.20 0.2078171
360.30 0.2036973
360.40 0.1981186
360.50 0.192913
360.60 0.190036
360.70 0.1907895
360.80 0.1952336
360.90 0.2020511
361.00 0.209194
361.10 0.2150491
361.20 0.2192025
361.30 0.2221226
361.40 0.2242147
361.50 0.2253911
361.60 0.2256301
361.70 0.2255827
361.80 0.2262191
361.90 0.2278435
362.00 0.2297308
362.10 0.2308863
362.20 0.2309603
362.30 0.2303476
362.40 0.22971
362.50 0.2295999
362.60 0.2302014
362.70 0.2310123
362.80 0.2309344
362.90 0.2291463
363.00 0.2260611
363.10 0.2232034
363.20 0.2219807
363.30 0.2226348
363.40 0.2243435
363.50 0.226082
363.60 0.227282
363.70 0.2278873
363.80 0.2280133
363.90 0.2276127
364.00 0.2263923
364.10 0.224017
364.20 0.2204492
364.30 0.216137
364.40 0.2119204
364.50 0.2087575
364.60 0.2073542
364.70 0.2077703
364.80 0.2093344
364.90 0.2111515
365.00 0.2129204
365.10 0.2152381
365.20 0.2188638
365.30 0.2235886
365.40 0.2279607
365.50 0.2302903
365.60 0.2300433
365.70 0.228246
365.80 0.2264959
365.90 0.2256656
366.00 0.225576
366.10 0.2257242
366.20 0.2260754
366.30 0.2269945
366.40 0.2285761
366.50 0.2302771
366.60 0.2312023
366.70 0.2306825
366.80 0.2286231
366.90 0.2254541
367.00 0.2219045
367.10 0.2188028
367.20 0.2169014
367.30 0.2166836
367.40 0.2181546
367.50 0.2207986
367.60 0.2238311
367.70 0.2266065
367.80 0.2288865
367.90 0.2307967
368.00 0.2325604
368.10 0.2342305
368.20 0.2355944
368.30 0.2362782
368.40 0.2359891
368.50 0.2347908
368.60 0.2332184
368.70 0.2320559
368.80 0.2318585
368.90 0.2326132
369.00 0.2338935
369.10 0.2353616
369.20 0.2369998
369.30 0.2387922
369.40 0.2403188
369.50 0.2408606
369.60 0.2400217
369.70 0.2382155
369.80 0.2365203
369.90 0.2360684
370.00 0.2374584
370.10 0.2405203
370.20 0.244508
370.30 0.2485008
370.40 0.2517209
370.50 0.2536634
370.60 0.2541537
370.70 0.2534852
370.80 0.2524378
370.90 0.2519296
371.00 0.252421
371.10 0.2535333
371.20 0.2541914
371.30 0.2531802
371.40 0.249823
371.50 0.2444309
371.60 0.2382571
371.70 0.2329105
371.80 0.2296214
371.90 0.2288422
372.00 0.2302854
372.10 0.2330071
372.20 0.2353415
372.30 0.2351908
372.40 0.2309955
372.50 0.2229569
372.60 0.2134059
372.70 0.205759
372.80 0.2027781
372.90 0.2053609
373.00 0.2124732
373.10 0.2219005
373.20 0.2311663
373.30 0.238202
373.40 0.2417618
373.50 0.2415106
373.60 0.237796
373.70 0.2313167
373.80 0.2229738
373.90 0.2139543
374.00 0.2057458
374.10 0.199879
374.20 0.1975375
374.30 0.1993494
374.40 0.2054362
374.50 0.2154567
374.60 0.2284806
374.70 0.2428116
374.80 0.2560935
374.90 0.2659084
375.00 0.2706061
375.10 0.2698353
375.20 0.2644858
375.30 0.2562253
375.40 0.2469876
375.50 0.2385665
375.60 0.2321885
375.70 0.2281848
375.80 0.2260106
375.90 0.2246976
376.00 0.2235259
376.10 0.2225519
376.20 0.2227222
376.30 0.2254813
376.40 0.2320673
376.50 0.2429788
376.60 0.2579614
376.70 0.2761722
376.80 0.2960629
376.90 0.3150553
377.00 0.3297529
377.10 0.3371041
377.20 0.3357987
377.30 0.3267756
377.40 0.3125325
377.50 0.2959447
377.60 0.2794431
377.70 0.2647771
377.80 0.2529529
377.90 0.2441799
378.00 0.2379969
378.10 0.2336709
378.20 0.2306261
378.30 0.228552
378.40 0.2272332
378.50 0.2264919
378.60 0.2263563
378.70 0.2271537
378.80 0.2293699
378.90 0.2335495
379.00 0.2404598
379.10 0.251186
379.20 0.2666805
379.30 0.2869298
379.40 0.3104387
379.50 0.334446
379.60 0.3555614
379.70 0.370441
379.80 0.3765442
379.90 0.3729248
380.00 0.3607159
380.10 0.3427995
380.20 0.3227081
380.30 0.303414
380.40 0.2867046
380.50 0.2732265
380.60 0.2628371
380.70 0.2549069
380.80 0.2485431
380.90 0.2429772
381.00 0.2379438
381.10 0.2336693
381.20 0.2304161
381.30 0.2280521
381.40 0.2261787
381.50 0.2246946
381.60 0.2240177
381.70 0.2245539
381.80 0.225949
381.90 0.2270153
382.00 0.2265956
382.10 0.2246402
382.20 0.222105
382.30 0.2197971
382.40 0.2168266
382.50 0.2106882
382.60 0.2001491
382.70 0.187984
382.80 0.180508
382.90 0.1826394
383.00 0.1928657
383.10 0.2036608
383.20 0.2077201
383.30 0.2039288
383.40 0.1974458
383.50 0.1941947
383.60 0.1950842
383.70 0.1959487
383.80 0.1924934
383.90 0.1854337
384.00 0.1809263
384.10 0.1860892
384.20 0.2033063
384.30 0.2281001
384.40 0.2517751
384.50 0.2667221
384.60 0.2708934
384.70 0.2672187
384.80 0.2592235
384.90 0.2486659
385.00 0.2378167
385.10 0.231078
385.20 0.231644
385.30 0.2366209
385.40 0.2385616
385.50 0.2323341
385.60 0.2189011
385.70 0.203365
385.80 0.1909885
385.90 0.1852965
386.00 0.1874852
386.10 0.1964594
386.20 0.2096848
386.30 0.2243758
386.40 0.2382506
386.50 0.2496806
386.60 0.258273
386.70 0.2650811
386.80 0.2712096
386.90 0.2753304
387.00 0.2735118
387.10 0.2629059
387.20 0.2457101
387.30 0.2286447
387.40 0.2173925
387.50 0.2120813
387.60 0.2086015
387.70 0.203862
387.80 0.199395
387.90 0.1997023
388.00 0.2077468
388.10 0.2218133
388.20 0.236234
388.30 0.2446494
388.40 0.243073
388.50 0.2323837
388.60 0.2187938
388.70 0.2109082
388.80 0.2138532
388.90 0.2260012
389.00 0.2419744
389.10 0.2574115
389.20 0.269841
389.30 0.2761186
389.40 0.2737327
389.50 0.2654015
389.60 0.2587371
389.70 0.2587923
389.80 0.2622606
389.90 0.2616345
390.00 0.2539232
390.10 0.2434802
390.20 0.2366721
390.30 0.2367417
390.40 0.2435405
390.50 0.2552086
390.60 0.2688399
390.70 0.280503
390.80 0.2871803
390.90 0.2891683
391.00 0.2896699
391.10 0.2922011
391.20 0.2981761
391.30 0.3060499
391.40 0.3122961
391.50 0.3129572
391.60 0.3058788
391.70 0.2924274
391.80 0.276544
391.90 0.2614873
392.00 0.2478647
392.10 0.2350503
392.20 0.2240881
392.30 0.2179708
392.40 0.2183203
392.50 0.2226644
392.60 0.2258831
392.70 0.2240931
392.80 0.2163377
392.90 0.2039918
393.00 0.1898961
393.10 0.1783503
393.20 0.1736857
393.30 0.1766741
393.40 0.1834868
393.50 0.1896796
393.60 0.1943524
393.70 0.1996368
393.80 0.2070461
393.90 0.2154558
394.00 0.2224311
394.10 0.2253949
394.20 0.2223888
394.30 0.2143364
394.40 0.2063434
394.50 0.2047607
394.60 0.2119823
394.70 0.2249555
394.80 0.2393303
394.90 0.2537188
395.00 0.2695076
395.10 0.2870631
395.20 0.3034741
395.30 0.3145293
395.40 0.3178499
395.50 0.3133556
395.60 0.3017719
395.70 0.2843521
395.80 0.2636436
395.90 0.2425311
396.00 0.2222373
396.10 0.2035284
396.20 0.1893145
396.30 0.1832511
396.40 0.1852383
396.50 0.1904668
396.60 0.1946001
396.70 0.1976659
396.80 0.2015044
396.90 0.205411
397.00 0.2065418
397.10 0.2049628
397.20 0.2062695
397.30 0.2172129
397.40 0.2388457
397.50 0.2649434
397.60 0.2877106
397.70 0.3046102
397.80 0.3182997
397.90 0.3306843
398.00 0.339737
398.10 0.3429313
398.20 0.342123
398.30 0.3430678
398.40 0.3497265
398.50 0.3610034
398.60 0.3726141
398.70 0.3802215
398.80 0.3812517
398.90 0.376213
399.00 0.3699917
399.10 0.369615
399.20 0.3781938
399.30 0.3916508
399.40 0.4024096
399.50 0.4052709
399.60 0.3994042
399.70 0.3872789
399.80 0.3742541
399.90 0.3680721
400.00 0.3747103
400.10 0.3928929
400.20 0.4135405
400.30 0.425411
400.40 0.4224666
400.50 0.4072402
400.60 0.3882814
400.70 0.3746829
400.80 0.3718291
400.90 0.3800902
401.00 0.3959878
401.10 0.4143557
401.20 0.4303022
401.30 0.4406841
401.40 0.4448479
401.50 0.4439927
401.60 0.4401595
401.70 0.435476
401.80 0.4315338
401.90 0.4294519
402.00 0.4300639
402.10 0.4333987
402.20 0.438008
402.30 0.4417639
402.40 0.4438094
402.50 0.4457532
402.60 0.4492012
402.70 0.4514542
402.80 0.4452087
402.90 0.4238249
403.00 0.3879236
403.10 0.3468415
403.20 0.3136258
403.30 0.2981434
403.40 0.3036776
403.50 0.3277673
403.60 0.3645277
403.70 0.4061393
403.80 0.4436014
403.90 0.468483
404.00 0.4764091
404.10 0.4692712
404.20 0.452551
404.30 0.4301131
404.40 0.4030023
404.50 0.374596
404.60 0.3545175
404.70 0.3532713
404.80 0.3725864
404.90 0.4032229
405.00 0.432682
405.10 0.4537673
405.20 0.4660169
405.30 0.4716789
405.40 0.4726705
405.50 0.4702787
405.60 0.4658453
405.70 0.4612984
405.80 0.458522
405.90 0.4577592
406.00 0.4558525
406.10 0.4469372
406.20 0.4272991
406.30 0.4010901
406.40 0.3802299
406.50 0.3761152
406.60 0.3905204
406.70 0.4143556
406.80 0.4344535
406.90 0.4416555
407.00 0.4347155
407.10 0.4203306
407.20 0.4096618
407.30 0.4112109
407.40 0.4238786
407.50 0.4368652
407.60 0.4385248
407.70 0.4268515
407.80 0.412015
407.90 0.4079957
408.00 0.4211627
408.10 0.4459594
408.20 0.4707328
408.30 0.4872982
408.40 0.495625
408.50 0.5011993
408.60 0.50917
408.70 0.5208712
408.80 0.5337587
408.90 0.5433606
409.00 0.5460708
409.10 0.5418374
409.20 0.5342828
409.30 0.5266188
409.40 0.5174597
409.50 0.5025122
409.60 0.480679
409.70 0.4564415
409.80 0.4357043
409.90 0.4209449
410.00 0.4117093
410.10 0.4080548
410.20 0.4113344
410.30 0.4220601
410.40 0.4377933
410.50 0.4535905
410.60 0.4649027
410.70 0.4705126
410.80 0.4726159
410.90 0.4739571
411.00 0.4755018
411.10 0.4769208
411.20 0.4785486
411.30 0.4816994
411.40 0.4873763
411.50 0.4949853
411.60 0.5018258
411.70 0.5042605
411.80 0.5004809
411.90 0.492932
412.00 0.4870893
412.10 0.4872257
412.20 0.4938975
412.30 0.5053343
412.40 0.519629
412.50 0.534231
412.60 0.5447017
412.70 0.5464596
412.80 0.53837
412.90 0.5229483
413.00 0.5030195
413.10 0.48001
413.20 0.4562836
413.30 0.4377034
413.40 0.4313733
413.50 0.4403051
413.60 0.4607502
413.70 0.4844287
413.80 0.5031062
413.90 0.5115361
414.00 0.5070077
414.10 0.4885778
414.20 0.45896
414.30 0.4271201
414.40 0.4061346
414.50 0.405155
414.60 0.4230572
414.70 0.4505982
414.80 0.4778683
414.90 0.4988783
415.00 0.5111374
415.10 0.5145693
415.20 0.5121381
415.30 0.5093597
415.40 0.5108486
415.50 0.5172779
415.60 0.5262177
415.70 0.5353906
415.80 0.5443151
415.90 0.5532744
416.00 0.5620694
416.10 0.5697043
416.20 0.5743479
