# Version 2.1 - nm, norm@500 to 1, cut digits
# Wavelength(nm)  Flambda(ergs/cm^s/s/nm)
300.00 0.004928453
300.10 0.006551141
300.20 0.007539254
300.30 0.007947716
300.40 0.008054529
300.50 0.008085718
300.60 0.008116907
300.70 0.008148418
300.80 0.008181539
300.90 0.008218748
301.00 0.008262766
301.10 0.008314802
301.20 0.008373648
301.30 0.008436581
301.40 0.008501124
301.50 0.00856599
301.60 0.008630855
301.70 0.008695721
301.80 0.008760587
301.90 0.008825452
302.00 0.008890318
302.10 0.008955183
302.20 0.009020049
302.30 0.009084915
302.40 0.00914978
302.50 0.009214646
302.60 0.009279511
302.70 0.009344622
302.80 0.009410954
302.90 0.009480391
303.00 0.009554997
303.10 0.009635691
303.20 0.009721554
303.30 0.009810522
303.40 0.009900711
303.50 0.009991146
303.60 0.01008158
303.70 0.01017201
303.80 0.01026245
303.90 0.01035288
304.00 0.01044332
304.10 0.01053375
304.20 0.01062419
304.30 0.01071462
304.40 0.01080506
304.50 0.01089549
304.60 0.01098592
304.70 0.01107561
304.80 0.01116156
304.90 0.01123801
305.00 0.01129866
305.10 0.01134068
305.20 0.01136689
305.30 0.01138361
305.40 0.01139659
305.50 0.01140882
305.60 0.01142105
305.70 0.01143328
305.80 0.01144551
305.90 0.01145774
306.00 0.01146997
306.10 0.0114822
306.20 0.01149444
306.30 0.01150667
306.40 0.0115189
306.50 0.01153113
306.60 0.01154336
306.70 0.01155559
306.80 0.01156783
306.90 0.01158009
307.00 0.01159239
307.10 0.01160473
307.20 0.0116171
307.30 0.01162949
307.40 0.01164189
307.50 0.01165429
307.60 0.01166669
307.70 0.01167909
307.80 0.01169149
307.90 0.01170389
308.00 0.01171629
308.10 0.01172869
308.20 0.0117411
308.30 0.0117535
308.40 0.0117659
308.50 0.0117783
308.60 0.0117907
308.70 0.01180497
308.80 0.0118286
308.90 0.01187599
309.00 0.01196295
309.10 0.01209652
309.20 0.01226965
309.30 0.01246655
309.40 0.0126728
309.50 0.01288092
309.60 0.01308905
309.70 0.01329717
309.80 0.0135053
309.90 0.01371342
310.00 0.01392154
310.10 0.01412967
310.20 0.01433779
310.30 0.01454592
310.40 0.01475404
310.50 0.01496216
310.60 0.01517029
310.70 0.01537653
310.80 0.01557336
310.90 0.01574632
311.00 0.01587949
311.10 0.01596581
311.20 0.01601235
311.30 0.01603501
311.40 0.01604827
311.50 0.01605963
311.60 0.016071
311.70 0.01608237
311.80 0.01609374
311.90 0.01610511
312.00 0.01611648
312.10 0.01612785
312.20 0.01613922
312.30 0.01615059
312.40 0.01616196
312.50 0.01617333
312.60 0.0161847
312.70 0.0161984
312.80 0.01622371
312.90 0.01627852
313.00 0.01638246
313.10 0.01654426
313.20 0.0167552
313.30 0.01699563
313.40 0.01724767
313.50 0.01750204
313.60 0.01775642
313.70 0.01801079
313.80 0.01826516
313.90 0.01851953
314.00 0.0187739
314.10 0.01902828
314.20 0.01928265
314.30 0.01953702
314.40 0.01979139
314.50 0.02004577
314.60 0.02030014
314.70 0.02055613
314.80 0.02082021
314.90 0.02110482
315.00 0.02142363
315.10 0.02178271
315.20 0.022176
315.30 0.02258982
315.40 0.02301173
315.50 0.02343525
315.60 0.02385878
315.70 0.0242823
315.80 0.02470583
315.90 0.02512935
316.00 0.02555288
316.10 0.0259764
316.20 0.02639993
316.30 0.02682345
316.40 0.02724698
316.50 0.02767051
316.60 0.02809403
316.70 0.0285116
316.80 0.02889945
316.90 0.02921183
317.00 0.02939849
317.10 0.02943711
317.20 0.02935
317.30 0.02918742
317.40 0.02899513
317.50 0.02879687
317.60 0.02859862
317.70 0.02840037
317.80 0.02820212
317.90 0.02800387
318.00 0.02780562
318.10 0.02760736
318.20 0.02740911
318.30 0.02721086
318.40 0.02701261
318.50 0.02681436
318.60 0.02661611
318.70 0.02642241
318.80 0.02625147
318.90 0.0261383
319.00 0.02612137
319.10 0.02621776
319.20 0.02641039
319.30 0.02666079
319.40 0.02693395
319.50 0.02721166
319.60 0.02748937
319.70 0.02776708
319.80 0.0280448
319.90 0.02832251
320.00 0.02860022
320.10 0.02887793
320.20 0.02915564
320.30 0.02943336
320.40 0.02971107
320.50 0.02998878
320.60 0.03026649
320.70 0.03054252
320.80 0.03081013
320.90 0.03105637
321.00 0.03126702
321.10 0.03143576
321.20 0.03156891
321.30 0.03168068
321.40 0.03178405
321.50 0.03188572
321.60 0.0319874
321.70 0.03208908
321.80 0.03219075
321.90 0.03229243
322.00 0.0323941
322.10 0.03249578
322.20 0.03259746
322.30 0.03269913
322.40 0.03280081
322.50 0.03290249
322.60 0.03300416
322.70 0.033112
322.80 0.03325057
322.90 0.03346718
323.00 0.03381381
323.10 0.03431353
323.20 0.03494327
323.30 0.03565105
323.40 0.03638956
323.50 0.03713424
323.60 0.03787891
323.70 0.03862358
323.80 0.03936825
323.90 0.04011293
324.00 0.0408576
324.10 0.04160227
324.20 0.04234695
324.30 0.04309162
324.40 0.04383629
324.50 0.04458097
324.60 0.04532564
324.70 0.04606931
324.80 0.04680799
324.90 0.04753399
325.00 0.04823888
325.10 0.04891889
325.20 0.04957779
325.30 0.050224
325.40 0.05086523
325.50 0.05150545
325.60 0.05214568
325.70 0.0527859
325.80 0.05342613
325.90 0.05406635
326.00 0.05470657
326.10 0.0553468
326.20 0.05598702
326.30 0.05662725
326.40 0.05726747
326.50 0.0579077
326.60 0.05854792
326.70 0.0591903
326.80 0.05984344
326.90 0.06052391
327.00 0.06124989
327.10 0.06202947
327.20 0.06285458
327.30 0.06370701
327.40 0.0645702
327.50 0.06543554
327.60 0.06630088
327.70 0.06716623
327.80 0.06803157
327.90 0.06889692
328.00 0.06976226
328.10 0.07062761
328.20 0.07149295
328.30 0.0723583
328.40 0.07322364
328.50 0.07408899
328.60 0.07495433
328.70 0.07580703
328.80 0.07659659
328.90 0.07722582
329.00 0.07758798
329.10 0.07763565
329.20 0.07741624
329.30 0.0770365
329.40 0.07659363
329.50 0.07613811
329.60 0.07568259
329.70 0.07522707
329.80 0.07477155
329.90 0.07431603
330.00 0.07386051
330.10 0.07340499
330.20 0.07294947
330.30 0.07249395
330.40 0.07203843
330.50 0.07158291
330.60 0.07112739
330.70 0.07068125
330.80 0.07028195
330.90 0.07000158
331.00 0.06991932
331.10 0.07007036
331.20 0.07041952
331.30 0.07088761
331.40 0.07140254
331.50 0.07192684
331.60 0.07245115
331.70 0.07297546
331.80 0.07349976
331.90 0.07402407
332.00 0.07454838
332.10 0.07507269
332.20 0.07559699
332.30 0.0761213
332.40 0.07664561
332.50 0.07716992
332.60 0.07769422
332.70 0.07821259
332.80 0.0787013
332.90 0.07911472
333.00 0.07940269
333.10 0.07954296
333.20 0.07955779
333.30 0.07949732
333.40 0.07940719
333.50 0.07931113
333.60 0.07921507
333.70 0.079119
333.80 0.07902294
333.90 0.07892687
334.00 0.07883081
334.10 0.07873474
334.20 0.07863868
334.30 0.07854261
334.40 0.07844655
334.50 0.07835049
334.60 0.07833439
334.70 0.07857916
334.80 0.0791545
334.90 0.07973895
335.00 0.07972054
335.10 0.07893235
335.20 0.07833768
335.30 0.07973719
335.40 0.08438244
335.50 0.09156253
335.60 0.0985284
335.70 0.1020915
335.80 0.1006808
335.90 0.0951202
336.00 0.0877503
336.10 0.08098055
336.20 0.07649154
336.30 0.07498758
336.40 0.07589818
336.50 0.07744836
336.60 0.07772244
336.70 0.07625335
336.80 0.07461729
336.90 0.07519733
337.00 0.07914197
337.10 0.08524514
337.20 0.09063639
337.30 0.09275347
337.40 0.0911411
337.50 0.08773503
337.60 0.08538177
337.70 0.08572709
337.80 0.08824961
337.90 0.09121638
338.00 0.09330246
338.10 0.09414333
338.20 0.09354682
338.30 0.09088333
338.40 0.08593856
338.50 0.08017381
338.60 0.07649947
338.70 0.07718368
338.80 0.08173572
338.90 0.08706267
339.00 0.0899546
339.10 0.08971325
339.20 0.08858213
339.30 0.08954018
339.40 0.09355863
339.50 0.09897161
339.60 0.1032777
339.70 0.1052414
339.80 0.1052094
339.90 0.1038711
340.00 0.1015013
340.10 0.09838347
340.20 0.0951733
340.30 0.09236866
340.40 0.08963429
340.50 0.08615315
340.60 0.08172846
340.70 0.07723887
340.80 0.07394249
340.90 0.07255488
341.00 0.07302817
341.10 0.07492546
341.20 0.07774329
341.30 0.08089018
341.40 0.08366918
341.50 0.08554749
341.60 0.08647256
341.70 0.08689532
341.80 0.0874273
341.90 0.08838902
342.00 0.08952558
342.10 0.09005671
342.20 0.08915152
342.30 0.08662715
342.40 0.08332496
342.50 0.08068453
342.60 0.07977631
342.70 0.08063423
342.80 0.0823951
342.90 0.08398017
343.00 0.08475867
343.10 0.08483119
343.20 0.08479472
343.30 0.08516233
343.40 0.08591588
343.50 0.08661198
343.60 0.08685116
343.70 0.08652377
343.80 0.08571486
343.90 0.0846246
344.00 0.08361895
344.10 0.08312112
344.20 0.08324159
344.30 0.08359164
344.40 0.08362453
344.50 0.0831588
344.60 0.08252561
344.70 0.08227839
344.80 0.08284017
344.90 0.08436035
345.00 0.08675977
345.10 0.08979049
345.20 0.09304866
345.30 0.09597523
345.40 0.09794549
345.50 0.09856997
345.60 0.09801971
345.70 0.09699775
345.80 0.09625842
345.90 0.0960799
346.00 0.09613978
346.10 0.09579714
346.20 0.09453995
346.30 0.09238799
346.40 0.09002239
346.50 0.0883893
346.60 0.08794774
346.70 0.0882707
346.80 0.08844206
346.90 0.08780248
347.00 0.08628921
347.10 0.08430985
347.20 0.08254068
347.30 0.08173581
347.40 0.08237473
347.50 0.08428439
347.60 0.08671992
347.70 0.08893703
347.80 0.09069001
347.90 0.09222407
348.00 0.09388854
348.10 0.09574592
348.20 0.09744629
348.30 0.09845843
348.40 0.09850043
348.50 0.09778664
348.60 0.09680668
348.70 0.09587888
348.80 0.09500076
348.90 0.09406968
349.00 0.09309083
349.10 0.09215118
349.20 0.09132866
349.30 0.09073519
349.40 0.09057158
349.50 0.09096589
349.60 0.09172278
349.70 0.09235293
349.80 0.09250617
349.90 0.09246368
350.00 0.09310446
350.10 0.0952128
350.20 0.09872652
350.30 0.102658
350.40 0.1057683
350.50 0.1073498
350.60 0.10746
350.70 0.1065897
350.80 0.1052458
350.90 0.1037118
351.00 0.1019376
351.10 0.09956282
351.20 0.09619866
351.30 0.0919279
351.40 0.08757838
351.50 0.08432504
351.60 0.08285744
351.70 0.08289354
351.80 0.0835074
351.90 0.08390086
352.00 0.08384952
352.10 0.0835152
352.20 0.08308613
352.30 0.08272548
352.40 0.08278369
352.50 0.08390272
352.60 0.0866638
352.70 0.09098605
352.80 0.09589701
352.90 0.1000753
353.00 0.1028237
353.10 0.1045143
353.20 0.1060182
353.30 0.1078181
353.40 0.1097963
353.50 0.1117162
353.60 0.1136258
353.70 0.1157077
353.80 0.1179588
353.90 0.1201789
354.00 0.1221063
354.10 0.1234007
354.20 0.123652
354.30 0.1226961
354.40 0.1209703
354.50 0.1193643
354.60 0.1185555
354.70 0.1185098
354.80 0.1186686
354.90 0.1185356
355.00 0.1180177
355.10 0.1173146
355.20 0.1166387
355.30 0.1160881
355.40 0.1157106
355.50 0.1155266
355.60 0.1154198
355.70 0.1150649
355.80 0.1140785
355.90 0.1123385
356.00 0.1101288
356.10 0.107909
356.20 0.1059201
356.30 0.1039922
356.40 0.1017307
356.50 0.09894542
356.60 0.09596228
356.70 0.09350731
356.80 0.09220029
356.90 0.09209687
357.00 0.0926934
357.10 0.09331629
357.20 0.09347426
357.30 0.09295792
357.40 0.09177846
357.50 0.09010136
357.60 0.08819829
357.70 0.0863519
357.80 0.08474095
357.90 0.08340016
358.00 0.08231931
358.10 0.08161666
358.20 0.08158465
358.30 0.08249835
358.40 0.08433928
358.50 0.08669601
358.60 0.08892344
358.70 0.09041901
358.80 0.09087369
358.90 0.09042126
359.00 0.089648
359.10 0.08937266
359.20 0.09019582
359.30 0.09208094
359.40 0.09430643
359.50 0.0959173
359.60 0.09637262
359.70 0.09588126
359.80 0.09516526
359.90 0.09484952
360.00 0.0949655
360.10 0.0949524
360.20 0.09413587
360.30 0.09226968
360.40 0.08974267
360.50 0.08738463
360.60 0.08608145
360.70 0.08642272
360.80 0.08843583
360.90 0.091524
361.00 0.09475956
361.10 0.09741179
361.20 0.09929318
361.30 0.1006159
361.40 0.1015635
361.50 0.1020964
361.60 0.1022047
361.70 0.1021832
361.80 0.1024715
361.90 0.1032073
362.00 0.1040622
362.10 0.1045856
362.20 0.1046191
362.30 0.1043416
362.40 0.1040527
362.50 0.1040029
362.60 0.1042754
362.70 0.1046427
362.80 0.1046074
362.90 0.1037975
363.00 0.1023999
363.10 0.1011054
363.20 0.1005516
363.30 0.1008479
363.40 0.1016219
363.50 0.1024094
363.60 0.1029529
363.70 0.1032271
363.80 0.1032842
363.90 0.1031028
364.00 0.1025499
364.10 0.101474
364.20 0.09985785
364.30 0.09790455
364.40 0.09599453
364.50 0.09456182
364.60 0.09392616
364.70 0.09411465
364.80 0.09482314
364.90 0.09564622
365.00 0.0964475
365.10 0.09749738
365.20 0.09913972
365.30 0.1012799
365.40 0.1032604
365.50 0.1043157
365.60 0.1042038
365.70 0.1033896
365.80 0.1025968
365.90 0.1022208
366.00 0.1021802
366.10 0.1022473
366.20 0.1024064
366.30 0.1028227
366.40 0.1035391
366.50 0.1043097
366.60 0.1047288
366.70 0.1044933
366.80 0.1035604
366.90 0.1021249
367.00 0.1005171
367.10 0.09911209
367.20 0.09825078
367.30 0.09815214
367.40 0.09881847
367.50 0.1000161
367.60 0.1013898
367.70 0.102647
367.80 0.1036798
367.90 0.104545
368.00 0.1053439
368.10 0.1061005
368.20 0.1067183
368.30 0.107028
368.40 0.106897
368.50 0.1063542
368.60 0.105642
368.70 0.1051154
368.80 0.105026
368.90 0.1053679
369.00 0.1059478
369.10 0.1066128
369.20 0.1073549
369.30 0.1081668
369.40 0.1088583
369.50 0.1091037
369.60 0.1087237
369.70 0.1079056
369.80 0.1071377
369.90 0.106933
370.00 0.1075626
370.10 0.1089495
370.20 0.1107559
370.30 0.1125645
370.40 0.1140232
370.50 0.1149031
370.60 0.1151251
370.70 0.1148223
370.80 0.1143479
370.90 0.1141177
371.00 0.1143403
371.10 0.1148441
371.20 0.1151422
371.30 0.1146842
371.40 0.1131635
371.50 0.110721
371.60 0.1079244
371.70 0.1055025
371.80 0.1040126
371.90 0.1036597
372.00 0.1043134
372.10 0.1055463
372.20 0.1066037
372.30 0.1065355
372.40 0.1046351
372.50 0.1009938
372.60 0.09666739
372.70 0.09320352
372.80 0.09185327
372.90 0.09302322
373.00 0.09624492
373.10 0.1005153
373.20 0.1047124
373.30 0.1078995
373.40 0.109512
373.50 0.1093982
373.60 0.1077156
373.70 0.1047806
373.80 0.1010015
373.90 0.09691584
374.00 0.09319757
374.10 0.09054004
374.20 0.08947939
374.30 0.09030014
374.40 0.09305731
374.50 0.09759635
374.60 0.1034959
374.70 0.1099875
374.80 0.1160039
374.90 0.1204498
375.00 0.1225777
375.10 0.1222286
375.20 0.1198054
375.30 0.1160635
375.40 0.1118791
375.50 0.1080645
375.60 0.1051755
375.70 0.1033619
375.80 0.102377
375.90 0.1017823
376.00 0.1012515
376.10 0.1008103
376.20 0.1008874
376.30 0.1021372
376.40 0.1051205
376.50 0.1100631
376.60 0.1168499
376.70 0.125099
376.80 0.134109
376.90 0.1427121
377.00 0.1493697
377.10 0.1526997
377.20 0.1521083
377.30 0.1480211
377.40 0.1415693
377.50 0.1340554
377.60 0.1265806
377.70 0.1199373
377.80 0.1145812
377.90 0.1106072
378.00 0.1078065
378.10 0.1058469
378.20 0.1044677
378.30 0.1035282
378.40 0.1029308
378.50 0.102595
378.60 0.1025336
378.70 0.1028948
378.80 0.1038987
378.90 0.1057919
379.00 0.1089221
379.10 0.1137808
379.20 0.1207994
379.30 0.1299718
379.40 0.1406208
379.50 0.1514956
379.60 0.1610603
379.70 0.1678004
379.80 0.170565
379.90 0.1689255
380.00 0.1633952
380.10 0.1552795
380.20 0.1461785
380.30 0.1374388
380.40 0.1298698
380.50 0.1237646
380.60 0.1190585
380.70 0.1154663
380.80 0.1125836
380.90 0.1100625
381.00 0.1077824
381.10 0.1058462
381.20 0.1043726
381.30 0.1033018
381.40 0.1024532
381.50 0.1017809
381.60 0.1014743
381.70 0.1017171
381.80 0.102349
381.90 0.1028318
382.00 0.1026415
382.10 0.09104295
382.20 0.03269367
382.30 9.99999e-11
382.40 9.999993e-11
382.50 9.999987e-11
382.60 9.99999e-11
382.70 9.999984e-11
382.80 9.999979e-11
382.90 9.99999e-11
383.00 0.1828666
383.10 0.5400949
383.20 0.7387453
383.30 0.7546334
383.40 0.6107604
383.50 0.3947019
383.60 0.2375205
383.70 0.229316
383.80 0.3326945
383.90 0.4220877
384.00 0.4270197
384.10 0.3719929
384.20 0.2896534
384.30 0.1587226
384.40 9.999995e-11
384.50 9.99999e-11
384.60 0.1507828
384.70 0.6107161
384.80 1.108126
384.90 1.379453
385.00 1.275122
385.10 0.8657223
385.20 0.4167392
385.30 0.2236153
385.40 0.3858258
385.50 0.7319776
385.60 0.9964228
385.70 1.033988
385.80 0.8589736
385.90 0.5631139
386.00 0.259858
386.10 0.05632045
386.20 0.01095788
386.30 0.08774996
386.40 0.2001881
386.50 0.2990266
386.60 0.3853976
386.70 0.469275
386.80 0.5379199
386.90 0.5939348
387.00 0.6666029
387.10 0.7625069
387.20 0.8484675
387.30 0.8961561
387.40 0.9250097
387.50 0.9531354
387.60 0.9388868
387.70 0.8338518
387.80 0.702032
387.90 0.6764777
388.00 0.7809911
388.10 0.8703692
388.20 0.7868199
388.30 0.5509491
388.40 0.3117642
388.50 0.1872312
388.60 0.1970211
388.70 0.3116386
388.80 0.4933103
388.90 0.6841395
389.00 0.8140077
389.10 0.8320104
389.20 0.7244254
389.30 0.5057328
389.40 0.2304799
389.50 9.999997e-11
389.60 9.999998e-11
389.70 9.999999e-11
389.80 0.1501902
389.90 0.1684471
390.00 0.001404639
390.10 9.999999e-11
390.20 9.999999e-11
390.30 0.04047053
390.40 0.1974243
390.50 0.1688685
390.60 0.05819217
390.70 0.07603149
390.80 0.2908569
390.90 0.5534274
391.00 0.6513622
391.10 0.4733974
391.20 0.07155122
391.30 9.999995e-11
391.40 9.99999e-11
391.50 9.999995e-11
391.60 9.999998e-11
391.70 9.999991e-11
391.80 9.999996e-11
391.90 9.999997e-11
392.00 9.999995e-11
392.10 9.999996e-11
392.20 9.999995e-11
392.30 0.1053452
392.40 0.100423
392.50 9.999998e-11
392.60 9.999999e-11
392.70 9.999999e-11
392.80 9.999999e-11
392.90 1e-10
393.00 0.2512715
393.10 0.7964033
393.20 1.37366
393.30 1.863601
393.40 2.015764
393.50 1.667076
393.60 0.9807978
393.70 0.3520164
393.80 0.06513076
393.90 0.08566235
394.00 0.1772776
394.10 0.1541392
394.20 1e-10
394.30 1e-10
394.40 1e-10
394.50 9.999999e-11
394.60 9.999999e-11
394.70 0.06055334
394.80 9.999996e-11
394.90 9.999993e-11
395.00 9.999993e-11
395.10 9.999995e-11
395.20 9.999999e-11
395.30 9.999996e-11
395.40 9.999995e-11
395.50 0.2308597
395.60 0.6365022
395.70 0.762825
395.80 0.5581186
395.90 0.1987424
396.00 9.999991e-11
396.10 9.999993e-11
396.20 9.999993e-11
396.30 9.999993e-11
396.40 9.999987e-11
396.50 0.1365954
396.60 0.4790085
396.70 0.9439925
396.80 1.415963
396.90 1.736178
397.00 1.817071
397.10 1.671672
397.20 1.36007
397.30 0.946102
397.40 0.5141786
397.50 0.1889438
397.60 0.07336979
397.70 0.1593153
397.80 0.3287373
397.90 0.4619963
398.00 0.5390137
398.10 0.6217809
398.20 0.7412124
398.30 0.8310196
398.40 0.7881541
398.50 0.580164
398.60 0.287439
398.70 0.02099675
398.80 9.999998e-11
398.90 9.999996e-11
399.00 9.999998e-11
399.10 9.999998e-11
399.20 9.999999e-11
399.30 9.999998e-11
399.40 1e-10
399.50 1e-10
399.60 0.05247126
399.70 0.1024242
399.80 0.08350466
399.90 0.05163176
400.00 0.06290346
400.10 0.1262063
400.20 0.1893114
400.30 0.1831328
400.40 0.09338468
400.50 9.999993e-11
400.60 9.999993e-11
400.70 9.99999e-11
400.80 0.008779116
400.90 0.1108957
401.00 0.18907
401.10 0.1813783
401.20 0.06137951
401.30 9.999998e-11
401.40 9.999996e-11
401.50 9.999998e-11
401.60 9.999998e-11
401.70 0.1453916
401.80 0.2886751
401.90 0.3459253
402.00 0.3484968
402.10 0.3626032
402.20 0.4363167
402.30 0.5438384
402.40 0.5970574
402.50 0.5415043
402.60 0.4184398
402.70 0.2993922
402.80 0.2032023
402.90 0.1164292
403.00 0.05541548
403.10 0.06827234
403.20 0.1575258
403.30 0.2510024
403.40 0.2670197
403.50 0.1857574
403.60 0.06020963
403.70 9.999993e-11
403.80 9.999993e-11
403.90 9.999993e-11
404.00 9.999987e-11
404.10 0.006331063
404.20 0.06858928
404.30 0.2065848
404.40 0.3860866
404.50 0.5444492
404.60 0.6196099
404.70 0.5626944
404.80 0.3787555
404.90 0.1607265
405.00 0.02618975
405.10 0.01186471
405.20 0.05584211
405.30 0.09279887
405.40 0.1310286
405.50 0.2031012
405.60 0.277611
405.70 0.2783105
405.80 0.196432
405.90 0.1219911
406.00 0.1436643
406.10 0.2499944
406.20 0.3566896
406.30 0.4116843
406.40 0.4346483
406.50 0.4598909
406.60 0.4916491
406.70 0.5136483
406.80 0.5041864
406.90 0.4371216
407.00 0.2910463
407.10 0.09145301
407.20 9.999991e-11
407.30 9.999995e-11
407.40 9.999994e-11
407.50 0.09879487
407.60 0.1806516
407.70 0.2183702
407.80 0.2410142
407.90 0.2474715
408.00 0.2182387
408.10 0.1586602
408.20 0.1003116
408.30 0.07013614
408.40 0.07141385
408.50 0.1015435
408.60 0.1552981
408.70 0.2051193
408.80 0.2024449
408.90 0.1221598
409.00 0.01774792
409.10 9.999999e-11
409.20 0.1073286
409.30 0.2628822
409.40 0.3247977
409.50 0.2618721
409.60 0.1913803
409.70 0.2548785
409.80 0.4808741
409.90 0.7867276
410.00 1.061958
410.10 1.220382
410.20 1.207836
410.30 1.012882
410.40 0.68442
410.50 0.3175582
410.60 0.01063127
410.70 9.999994e-11
410.80 9.999996e-11
410.90 9.999996e-11
411.00 9.999997e-11
411.10 9.999999e-11
411.20 9.999999e-11
411.30 9.999998e-11
411.40 9.999997e-11
411.50 9.999999e-11
411.60 0.2407923
411.70 0.6610023
411.80 0.9473577
411.90 1.030926
412.00 0.9564169
412.10 0.8183835
412.20 0.6892326
412.30 0.594247
412.40 0.5193545
412.50 0.4406358
412.60 0.3504583
412.70 0.2571873
412.80 0.172525
