# Version 2.1 - nm, norm@500 to 1, cut digits
# Wavelength(nm)  Flambda(ergs/cm^s/s/nm)
300.00 0.01121652
300.10 0.0149099
300.20 0.01715877
300.30 0.01808818
300.40 0.01833101
300.50 0.01840179
300.60 0.01847265
300.70 0.0185443
300.80 0.01861965
300.90 0.01870432
301.00 0.01880449
301.10 0.01892292
301.20 0.01905684
301.30 0.01920007
301.40 0.01934696
301.50 0.01949459
301.60 0.01964221
301.70 0.01978983
301.80 0.01993745
301.90 0.02008508
302.00 0.0202327
302.10 0.02038032
302.20 0.02052794
302.30 0.02067556
302.40 0.02082318
302.50 0.02097081
302.60 0.02111843
302.70 0.0212666
302.80 0.02141756
302.90 0.02157558
303.00 0.02174537
303.10 0.02192902
303.20 0.02212443
303.30 0.0223269
303.40 0.02253216
303.50 0.02273797
303.60 0.02294379
303.70 0.0231496
303.80 0.02335541
303.90 0.02356122
304.00 0.02376703
304.10 0.02397285
304.20 0.02417866
304.30 0.02438447
304.40 0.02459028
304.50 0.0247961
304.60 0.02500191
304.70 0.02520603
304.80 0.02540164
304.90 0.02557564
305.00 0.02571366
305.10 0.02580929
305.20 0.02586893
305.30 0.02590697
305.40 0.0259365
305.50 0.02596433
305.60 0.02599217
305.70 0.02602
305.80 0.02604784
305.90 0.02607567
306.00 0.02610351
306.10 0.02613135
306.20 0.02615918
306.30 0.02618702
306.40 0.02621485
306.50 0.02624269
306.60 0.02627052
306.70 0.02629836
306.80 0.02632622
306.90 0.02635413
307.00 0.02638211
307.10 0.02641018
307.20 0.02643834
307.30 0.02646654
307.40 0.02649475
307.50 0.02652298
307.60 0.0265512
307.70 0.02657942
307.80 0.02660764
307.90 0.02663587
308.00 0.02666409
308.10 0.02669231
308.20 0.02672053
308.30 0.02674875
308.40 0.02677697
308.50 0.02680519
308.60 0.0268334
308.70 0.02686587
308.80 0.02691963
308.90 0.02702746
309.00 0.02722536
309.10 0.02752933
309.20 0.02792338
309.30 0.02837149
309.40 0.0288409
309.50 0.02931456
309.60 0.02978822
309.70 0.03026187
309.80 0.03073552
309.90 0.03120917
310.00 0.03168283
310.10 0.03215648
310.20 0.03263013
310.30 0.03310378
310.40 0.03357744
310.50 0.03405109
310.60 0.03452475
310.70 0.03499414
310.80 0.03544212
310.90 0.03583574
311.00 0.03613882
311.10 0.03633527
311.20 0.03644117
311.30 0.03649272
311.40 0.03652286
311.50 0.03654873
311.60 0.0365746
311.70 0.03660047
311.80 0.03662635
311.90 0.03665222
312.00 0.0366781
312.10 0.03670397
312.20 0.03672985
312.30 0.03675572
312.40 0.0367816
312.50 0.03680747
312.60 0.03683333
312.70 0.03686448
312.80 0.03692206
312.90 0.03704677
313.00 0.03728331
313.10 0.03765155
313.20 0.03813162
313.30 0.03867882
313.40 0.03925244
313.50 0.03983136
313.60 0.04041027
313.70 0.04098918
313.80 0.04156808
313.90 0.04214699
314.00 0.04272589
314.10 0.04330479
314.20 0.0438837
314.30 0.0444626
314.40 0.0450415
314.50 0.0456204
314.60 0.04619929
314.70 0.04678187
314.80 0.04738284
314.90 0.04803054
315.00 0.04875609
315.10 0.04957331
315.20 0.05046838
315.30 0.05141017
315.40 0.05237036
315.50 0.05333424
315.60 0.05429811
315.70 0.05526197
315.80 0.05622584
315.90 0.0571897
316.00 0.05815356
316.10 0.05911743
316.20 0.06008129
316.30 0.06104516
316.40 0.06200903
316.50 0.06297291
316.60 0.06393681
316.70 0.06488718
316.80 0.06576992
316.90 0.06648089
317.00 0.06690571
317.10 0.06699357
317.20 0.06679528
317.30 0.06642522
317.40 0.06598753
317.50 0.06553632
317.60 0.06508512
317.70 0.06463392
317.80 0.06418274
317.90 0.06373155
318.00 0.06328037
318.10 0.06282919
318.20 0.062378
318.30 0.06192682
318.40 0.06147563
318.50 0.06102443
318.60 0.06057323
318.70 0.06013237
318.80 0.05974329
318.90 0.05948569
319.00 0.05944714
319.10 0.05966653
319.20 0.06010496
319.30 0.06067488
319.40 0.06129657
319.50 0.06192862
319.60 0.06256065
319.70 0.06319268
319.80 0.0638247
319.90 0.06445672
320.00 0.06508874
320.10 0.06572076
320.20 0.06635278
320.30 0.0669848
320.40 0.06761682
320.50 0.06824885
320.60 0.06888088
320.70 0.06950908
320.80 0.07011813
320.90 0.07067855
321.00 0.07115796
321.10 0.07154197
321.20 0.07184497
321.30 0.07209933
321.40 0.07233455
321.50 0.07256594
321.60 0.07279733
321.70 0.07302872
321.80 0.07326012
321.90 0.07349152
322.00 0.07372291
322.10 0.07395431
322.20 0.07418571
322.30 0.0744171
322.40 0.07464849
322.50 0.07487987
322.60 0.07511123
322.70 0.07535659
322.80 0.07567188
322.90 0.07616479
323.00 0.07695363
323.10 0.07809092
323.20 0.07952414
323.30 0.08113499
323.40 0.08281577
323.50 0.08451054
323.60 0.08620529
323.70 0.08790003
323.80 0.08959477
323.90 0.09128951
324.00 0.09298424
324.10 0.09467898
324.20 0.09637372
324.30 0.09806845
324.40 0.09976319
324.50 0.1014579
324.60 0.1031527
324.70 0.1048451
324.80 0.1065262
324.90 0.1081785
325.00 0.1097827
325.10 0.1113303
325.20 0.1128298
325.30 0.1143004
325.40 0.1157597
325.50 0.1172168
325.60 0.1186738
325.70 0.1201308
325.80 0.1215878
325.90 0.1230449
326.00 0.1245019
326.10 0.1259589
326.20 0.127416
326.30 0.128873
326.40 0.13033
326.50 0.1317871
326.60 0.1332441
326.70 0.134706
326.80 0.1361924
326.90 0.137741
327.00 0.1393932
327.10 0.1411674
327.20 0.1430452
327.30 0.1449852
327.40 0.1469496
327.50 0.148919
327.60 0.1508884
327.70 0.1528578
327.80 0.1548271
327.90 0.1567965
328.00 0.1587658
328.10 0.1607352
328.20 0.1627046
328.30 0.1646739
328.40 0.1666433
328.50 0.1686127
328.60 0.1705821
328.70 0.1725228
328.80 0.1743199
328.90 0.175752
329.00 0.1765763
329.10 0.1766847
329.20 0.1761852
329.30 0.1753209
329.40 0.1743129
329.50 0.1732761
329.60 0.1722394
329.70 0.1712027
329.80 0.170166
329.90 0.1691294
330.00 0.1680927
330.10 0.167056
330.20 0.1660193
330.30 0.1649826
330.40 0.1639459
330.50 0.1629092
330.60 0.1618725
330.70 0.1608571
330.80 0.1599483
330.90 0.1593101
331.00 0.1591229
331.10 0.1594666
331.20 0.1602614
331.30 0.1613267
331.40 0.1624987
331.50 0.163692
331.60 0.1648852
331.70 0.1660785
331.80 0.1672717
331.90 0.1684649
332.00 0.1696581
332.10 0.1708514
332.20 0.1720446
332.30 0.1732378
332.40 0.1744311
332.50 0.1756243
332.60 0.1768176
332.70 0.1779973
332.80 0.1791096
332.90 0.1800505
333.00 0.1807059
333.10 0.1810251
333.20 0.1810588
333.30 0.1809211
333.40 0.180716
333.50 0.1804973
333.60 0.1802787
333.70 0.18006
333.80 0.1798414
333.90 0.1796228
334.00 0.1794041
334.10 0.1791855
334.20 0.1789669
334.30 0.1787482
334.40 0.1785295
334.50 0.1783108
334.60 0.1782741
334.70 0.1788313
334.80 0.1801409
334.90 0.1814711
335.00 0.1814287
335.10 0.1796337
335.20 0.1782788
335.30 0.1814634
335.40 0.1920367
335.50 0.2083804
335.60 0.2242369
335.70 0.2323479
335.80 0.2291366
335.90 0.2164792
336.00 0.1997033
336.10 0.184294
336.20 0.1740766
336.30 0.1706544
336.40 0.1727284
336.50 0.1762579
336.60 0.1768819
336.70 0.1735373
336.80 0.1698123
336.90 0.1711318
337.00 0.1801105
337.10 0.1940029
337.20 0.2062748
337.30 0.2110934
337.40 0.2074223
337.50 0.1996681
337.60 0.1943107
337.70 0.1950965
337.80 0.2008386
337.90 0.2075922
338.00 0.2123411
338.10 0.2142556
338.20 0.2128982
338.30 0.2068356
338.40 0.1955799
338.50 0.1824575
338.60 0.1740936
338.70 0.1756513
338.80 0.1860135
338.90 0.1981393
339.00 0.2047217
339.10 0.2041711
339.20 0.2015948
339.30 0.2037743
339.40 0.2129207
339.50 0.2252418
339.60 0.2350433
339.70 0.239513
339.80 0.2394399
339.90 0.2363937
340.00 0.2309996
340.10 0.2239032
340.20 0.216597
340.30 0.2102142
340.40 0.2039915
340.50 0.1960688
340.60 0.185998
340.70 0.1757792
340.80 0.1682762
340.90 0.1651181
341.00 0.1661956
341.10 0.1705144
341.20 0.1769284
341.30 0.1840912
341.40 0.1904164
341.50 0.1946913
341.60 0.1967962
341.70 0.1977579
341.80 0.1989684
341.90 0.2011575
342.00 0.2037448
342.10 0.2049541
342.20 0.2028939
342.30 0.1971479
342.40 0.1896312
342.50 0.1836209
342.60 0.1815537
342.70 0.1835069
342.80 0.1875154
342.90 0.1911235
343.00 0.1928955
343.10 0.1930602
343.20 0.1929769
343.30 0.1938134
343.40 0.1955287
343.50 0.1971132
343.60 0.1976578
343.70 0.1969126
343.80 0.1950713
343.90 0.1925896
344.00 0.1903005
344.10 0.1891675
344.20 0.189442
344.30 0.190239
344.40 0.1903139
344.50 0.1892537
344.60 0.187812
344.70 0.1872489
344.80 0.1885271
344.90 0.1919868
345.00 0.197448
345.10 0.2043461
345.20 0.211762
345.30 0.2184232
345.40 0.2229075
345.50 0.2243285
345.60 0.2230755
345.70 0.220749
345.80 0.2190661
345.90 0.21866
346.00 0.2187968
346.10 0.2180173
346.20 0.215156
346.30 0.2102579
346.40 0.2048734
346.50 0.2011564
346.60 0.2001518
346.70 0.2008876
346.80 0.2012782
346.90 0.1998228
347.00 0.1963784
347.10 0.1918728
347.20 0.1878456
347.30 0.1860134
347.40 0.1874676
347.50 0.1918143
347.60 0.1973579
347.70 0.2024041
347.80 0.2063937
347.90 0.2098849
348.00 0.213673
348.10 0.2179005
348.20 0.2217707
348.30 0.2240743
348.40 0.2241698
348.50 0.2225449
348.60 0.2203143
348.70 0.2182025
348.80 0.216204
348.90 0.2140849
349.00 0.2118571
349.10 0.2097184
349.20 0.2078463
349.30 0.2064956
349.40 0.2061232
349.50 0.2070208
349.60 0.2087437
349.70 0.2101779
349.80 0.2105262
349.90 0.2104287
350.00 0.2118865
350.10 0.216685
350.20 0.2246827
350.30 0.2336315
350.40 0.2407108
350.50 0.2443104
350.60 0.244561
350.70 0.2425799
350.80 0.239521
350.90 0.2360298
351.00 0.2319921
351.10 0.2265876
351.20 0.2189309
351.30 0.2092103
351.40 0.1993104
351.50 0.1919057
351.60 0.1885658
351.70 0.1886488
351.80 0.1900467
351.90 0.1909428
352.00 0.190826
352.10 0.1900649
352.20 0.1890879
352.30 0.1882664
352.40 0.1883981
352.50 0.1909445
352.60 0.1972286
352.70 0.2070663
352.80 0.2182442
352.90 0.2277541
353.00 0.2340088
353.10 0.2378558
353.20 0.2412778
353.30 0.2453738
353.40 0.2498757
353.50 0.2542449
353.60 0.258591
353.70 0.2633291
353.80 0.2684525
353.90 0.2735056
354.00 0.2778924
354.10 0.2808386
354.20 0.2814104
354.30 0.2792344
354.40 0.2753059
354.50 0.2716501
354.60 0.2698094
354.70 0.2697057
354.80 0.2700676
354.90 0.269765
355.00 0.2685864
355.10 0.2669861
355.20 0.2654477
355.30 0.2641947
355.40 0.2633355
355.50 0.262917
355.60 0.2626745
355.70 0.2618671
355.80 0.2596224
355.90 0.2556621
356.00 0.2506329
356.10 0.2455808
356.20 0.2410545
356.30 0.2366671
356.40 0.2315204
356.50 0.225181
356.60 0.2183912
356.70 0.2128035
356.80 0.2098289
356.90 0.2095941
357.00 0.2109525
357.10 0.2123709
357.20 0.2127309
357.30 0.2115559
357.40 0.2088715
357.50 0.2050543
357.60 0.2007228
357.70 0.1965204
357.80 0.1928539
357.90 0.1898023
358.00 0.1873422
358.10 0.1857428
358.20 0.1856698
358.30 0.1877494
358.40 0.1919397
358.50 0.197304
358.60 0.202374
358.70 0.2057781
358.80 0.2068126
358.90 0.2057822
359.00 0.2040215
359.10 0.2033943
359.20 0.2052677
359.30 0.2095586
359.40 0.2146244
359.50 0.218291
359.60 0.2193272
359.70 0.2182085
359.80 0.2165785
359.90 0.2158599
360.00 0.2161242
360.10 0.2160949
360.20 0.2142367
360.30 0.209989
360.40 0.2042369
360.50 0.1988693
360.60 0.1959027
360.70 0.1966794
360.80 0.2012615
360.90 0.2082908
361.00 0.2156553
361.10 0.2216919
361.20 0.2259738
361.30 0.2289839
361.40 0.2311404
361.50 0.232353
361.60 0.2325989
361.70 0.2325497
361.80 0.2332056
361.90 0.2348804
362.00 0.2368263
362.10 0.2380177
362.20 0.2380939
362.30 0.237462
362.40 0.2368045
362.50 0.236691
362.60 0.2373113
362.70 0.2381477
362.80 0.2380676
362.90 0.236224
363.00 0.2330429
363.10 0.2300962
363.20 0.2288355
363.30 0.2295101
363.40 0.231272
363.50 0.2330647
363.60 0.234302
363.70 0.2349262
363.80 0.2350563
363.90 0.2346434
364.00 0.2333854
364.10 0.2309366
364.20 0.2272581
364.30 0.2228122
364.40 0.2184648
364.50 0.2152038
364.60 0.213757
364.70 0.2141862
364.80 0.2157989
364.90 0.2176723
365.00 0.2194958
365.10 0.2218852
365.20 0.2256232
365.30 0.2304947
365.40 0.2350025
365.50 0.2374043
365.60 0.2371493
365.70 0.2352958
365.80 0.233491
365.90 0.2326349
366.00 0.2325425
366.10 0.2326952
366.20 0.2330574
366.30 0.2340051
366.40 0.2356358
366.50 0.2373899
366.60 0.2383441
366.70 0.2378082
366.80 0.2356849
366.90 0.2324175
367.00 0.2287577
367.10 0.2255596
367.20 0.2235991
367.30 0.2233746
367.40 0.2248913
367.50 0.2276174
367.60 0.230744
367.70 0.2336054
367.80 0.235956
367.90 0.2379251
368.00 0.2397434
368.10 0.2414652
368.20 0.2428714
368.30 0.2435764
368.40 0.2432781
368.50 0.2420425
368.60 0.2404211
368.70 0.2392224
368.80 0.2390188
368.90 0.239797
369.00 0.241117
369.10 0.2426306
369.20 0.2443197
369.30 0.2461677
369.40 0.2477418
369.50 0.2483003
369.60 0.2474352
369.70 0.2455726
369.80 0.2438244
369.90 0.2433582
370.00 0.2447911
370.10 0.247948
370.20 0.2520595
370.30 0.2561763
370.40 0.2594962
370.50 0.2614988
370.60 0.262004
370.70 0.2613145
370.80 0.2602343
370.90 0.2597103
371.00 0.2602171
371.10 0.2613643
371.20 0.2620433
371.30 0.2610012
371.40 0.25754
371.50 0.2519806
371.60 0.2456151
371.70 0.2401026
371.80 0.2367115
371.90 0.2359085
372.00 0.2373971
372.10 0.2402042
372.20 0.2426119
372.30 0.2424571
372.40 0.2381319
372.50 0.2298435
372.60 0.2199954
372.70 0.2121106
372.80 0.209037
372.90 0.2117001
373.00 0.2190334
373.10 0.2287537
373.20 0.2383074
373.30 0.2455617
373.40 0.2492319
373.50 0.2489729
373.60 0.245143
373.70 0.2384626
373.80 0.2298609
373.90 0.2205614
374.00 0.2120981
374.10 0.206049
374.20 0.2036345
374.30 0.2055023
374.40 0.2117776
374.50 0.2221086
374.60 0.2355365
374.70 0.250312
374.80 0.2640059
374.90 0.2741252
375.00 0.2789684
375.10 0.2781732
375.20 0.2726573
375.30 0.2641401
375.40 0.2546157
375.50 0.2459335
375.60 0.2393581
375.70 0.2352307
375.80 0.2329897
375.90 0.2316364
376.00 0.2304283
376.10 0.2294236
376.20 0.2295982
376.30 0.2324418
376.40 0.2392309
376.50 0.2504797
376.60 0.2659261
376.70 0.2847011
376.80 0.3052085
376.90 0.32479
377.00 0.3399435
377.10 0.3475228
377.20 0.3461765
377.30 0.3368731
377.40 0.322188
377.50 0.3050858
377.60 0.2880727
377.70 0.2729527
377.80 0.2607628
377.90 0.2517189
378.00 0.2453454
378.10 0.2408861
378.20 0.2377477
378.30 0.2356098
378.40 0.2342503
378.50 0.2334861
378.60 0.233346
378.70 0.2341675
378.80 0.2364516
378.90 0.2407595
379.00 0.2478826
379.10 0.2589398
379.20 0.2749134
379.30 0.2957896
379.40 0.320027
379.50 0.3447785
379.60 0.3665488
379.70 0.3818898
379.80 0.3881821
379.90 0.3844501
380.00 0.3718622
380.10 0.3533898
380.20 0.3326754
380.30 0.3127836
380.40 0.2955571
380.50 0.2816624
380.60 0.2709524
380.70 0.2627778
380.80 0.2562179
380.90 0.2504805
381.00 0.2452917
381.10 0.2408853
381.20 0.2375317
381.30 0.2350948
381.40 0.2331636
381.50 0.2316336
381.60 0.2309346
381.70 0.2314835
381.80 0.2329146
381.90 0.2340018
382.00 0.2335501
382.10 0.2314759
382.20 0.2289811
382.30 0.2289785
382.40 0.2365947
382.50 0.2585092
382.60 0.2975144
382.70 0.3403535
382.80 0.359914
382.90 0.3414654
383.00 0.305465
383.10 0.2943264
383.20 0.3276298
383.30 0.3806078
383.40 0.4136379
383.50 0.4164799
383.60 0.4108778
383.70 0.4134528
383.80 0.4104867
383.90 0.378679
384.00 0.3215704
384.10 0.2681174
384.20 0.2418435
384.30 0.2416618
384.40 0.2528891
384.50 0.2641748
384.60 0.2674975
384.70 0.2576919
384.80 0.2374244
384.90 0.2186959
385.00 0.2148104
385.10 0.2295536
385.20 0.2520449
385.30 0.2636848
385.40 0.2509275
385.50 0.2171809
385.60 0.1808889
385.70 0.1588788
385.80 0.1564343
385.90 0.1714894
386.00 0.2024764
386.10 0.249851
386.20 0.3096267
386.30 0.3645912
386.40 0.3892754
386.50 0.3724886
386.60 0.3371001
386.70 0.3250426
386.80 0.3531244
386.90 0.3918121
387.00 0.3956604
387.10 0.3513857
387.20 0.2881935
387.30 0.2457468
387.40 0.2384104
387.50 0.2509246
387.60 0.2621724
387.70 0.2691469
387.80 0.284987
387.90 0.3129344
388.00 0.3329112
388.10 0.3239027
388.20 0.2943684
388.30 0.2745374
388.40 0.2796275
388.50 0.2957986
388.60 0.3050443
388.70 0.3088727
388.80 0.3203296
388.90 0.345701
389.00 0.379685
389.10 0.4100759
389.20 0.4240999
389.30 0.4176922
389.40 0.4052466
389.50 0.4112509
389.60 0.4435425
389.70 0.4804755
389.80 0.4912184
389.90 0.4641689
390.00 0.4153932
390.10 0.3682137
390.20 0.333673
390.30 0.3164748
390.40 0.3225677
390.50 0.3479827
390.60 0.367079
390.70 0.349028
390.80 0.2946292
390.90 0.2437935
391.00 0.2358777
391.10 0.2714909
391.20 0.3195411
391.30 0.3526312
391.40 0.3649594
391.50 0.3618718
391.60 0.345223
391.70 0.3158061
391.80 0.2815641
391.90 0.2542803
392.00 0.2379245
392.10 0.2301061
392.20 0.2328596
392.30 0.2512263
392.40 0.2776615
392.50 0.2904108
392.60 0.2749049
392.70 0.2399065
392.80 0.2077487
392.90 0.1926695
393.00 0.1950346
393.10 0.2080819
393.20 0.2222586
393.30 0.2260696
393.40 0.2103109
393.50 0.1787628
393.60 0.148875
393.70 0.1409159
393.80 0.1647321
393.90 0.2155173
394.00 0.2791144
394.10 0.335218
394.20 0.3621806
394.30 0.3475858
394.40 0.2990182
394.50 0.2467519
394.60 0.2274623
394.70 0.2560598
394.80 0.3107991
394.90 0.3520793
395.00 0.3582449
395.10 0.3431341
395.20 0.3317185
395.30 0.3318836
395.40 0.3381142
395.50 0.3479147
395.60 0.3578518
395.70 0.3549151
395.80 0.331078
395.90 0.3022413
396.00 0.2960348
396.10 0.3196838
396.20 0.3533516
396.30 0.3729192
396.40 0.3679427
396.50 0.3425912
396.60 0.3115226
396.70 0.2949559
396.80 0.3065672
396.90 0.337953
397.00 0.3602871
397.10 0.3485994
397.20 0.3060074
397.30 0.2617829
397.40 0.2452849
397.50 0.2621935
397.60 0.2964592
397.70 0.3309627
397.80 0.362458
397.90 0.3974385
398.00 0.4368344
398.10 0.470626
398.20 0.4868168
398.30 0.4847343
398.40 0.4741031
398.50 0.4636786
398.60 0.454153
398.70 0.4395406
398.80 0.4145255
398.90 0.3807903
399.00 0.3528792
399.10 0.3486653
399.20 0.3736483
399.30 0.4168388
399.40 0.4628733
399.50 0.5000599
399.60 0.516812
399.70 0.5065104
399.80 0.481562
399.90 0.4710462
400.00 0.4902335
400.10 0.5211755
400.20 0.533031
400.30 0.5169419
400.40 0.4922151
400.50 0.4800361
400.60 0.4795855
400.70 0.4732018
400.80 0.4509223
400.90 0.4240487
401.00 0.415945
401.10 0.4379986
401.20 0.4765495
401.30 0.5057834
401.40 0.5120888
401.50 0.5050913
401.60 0.5014447
401.70 0.5037549
401.80 0.4995951
401.90 0.4813839
402.00 0.4589825
402.10 0.4508202
402.20 0.4665366
402.30 0.5002044
402.40 0.5360779
402.50 0.558129
402.60 0.558048
402.70 0.5371075
402.80 0.501236
402.90 0.4548407
403.00 0.4004917
403.10 0.3453042
403.20 0.3010282
403.30 0.2744517
403.40 0.2631266
403.50 0.2624913
403.60 0.277276
403.70 0.3204893
403.80 0.3953894
403.90 0.4801212
404.00 0.5376166
404.10 0.5442985
404.20 0.5063195
404.30 0.446921
404.40 0.3865034
404.50 0.3408121
404.60 0.3229702
404.70 0.3342408
404.80 0.3595852
404.90 0.3833059
405.00 0.40459
405.10 0.4301854
405.20 0.4576474
405.30 0.4760955
405.40 0.4806197
405.50 0.4755214
405.60 0.4651572
405.70 0.4490305
405.80 0.4278894
405.90 0.4103359
406.00 0.4065902
406.10 0.4159933
406.20 0.4260611
406.30 0.4255742
406.40 0.4148087
406.50 0.4003051
406.60 0.3877565
406.70 0.3834613
406.80 0.3934053
406.90 0.412247
407.00 0.4202018
407.10 0.4017284
407.20 0.3649818
407.30 0.3343714
407.40 0.3249406
407.50 0.3318227
407.60 0.3429744
407.70 0.3536153
407.80 0.3671404
407.90 0.3898465
408.00 0.4274695
408.10 0.478218
408.20 0.5266847
408.30 0.553238
408.40 0.5532643
408.50 0.5432307
408.60 0.5416483
408.70 0.551078
408.80 0.5608528
408.90 0.5601891
409.00 0.5452364
409.10 0.5197305
409.20 0.4940033
409.30 0.4797856
409.40 0.4816956
409.50 0.4923587
409.60 0.4979673
409.70 0.4887456
409.80 0.4677397
409.90 0.4498484
410.00 0.4488298
410.10 0.4623
410.20 0.4741139
410.30 0.4758054
410.40 0.4780555
410.50 0.4950007
410.60 0.5236413
410.70 0.5484453
410.80 0.561473
410.90 0.5690218
411.00 0.5750715
411.10 0.5720432
411.20 0.5533411
411.30 0.528461
411.40 0.5169118
411.50 0.5250851
411.60 0.5364309
411.70 0.5277442
411.80 0.4958231
411.90 0.4662263
412.00 0.4696102
412.10 0.5115443
412.20 0.5660069
412.30 0.5984331
412.40 0.59595
412.50 0.5759257
412.60 0.5641131
412.70 0.5669503
412.80 0.5695791
412.90 0.5569321
413.00 0.5310762
413.10 0.5037054
413.20 0.4799346
413.30 0.4588157
413.40 0.4426394
413.50 0.43566
413.60 0.4347744
413.70 0.4309416
413.80 0.4224163
413.90 0.4182571
414.00 0.4235174
414.10 0.4288094
414.20 0.4214075
414.30 0.4011208
414.40 0.3817421
414.50 0.3756627
414.60 0.3839745
414.70 0.4008623
414.80 0.4214736
414.90 0.4406231
415.00 0.4493479
415.10 0.4408118
415.20 0.422405
415.30 0.4165286
415.40 0.440312
415.50 0.4840383
415.60 0.519222
415.70 0.5304115
415.80 0.5304376
415.90 0.5386979
416.00 0.5550097
416.10 0.5637517
416.20 0.5582224
416.30 0.5475312
416.40 0.5390403
