# Version 2.1 - nm, norm@500 to 1, cut digits
# Wavelength(nm)  Flambda(ergs/cm^s/s/nm)
300.00 0.01119004
300.10 0.01487481
300.20 0.01711839
300.30 0.01804554
300.40 0.01828772
300.50 0.01835826
300.60 0.01842891
300.70 0.01850037
300.80 0.01857554
300.90 0.01866001
301.00 0.01875994
301.10 0.01887809
301.20 0.0190117
301.30 0.01915459
301.40 0.01930113
301.50 0.01944841
301.60 0.01959568
301.70 0.01974295
301.80 0.01989022
301.90 0.0200375
302.00 0.02018477
302.10 0.02033204
302.20 0.02047931
302.30 0.02062659
302.40 0.02077386
302.50 0.02092113
302.60 0.0210684
302.70 0.02121622
302.80 0.02136682
302.90 0.02152447
303.00 0.02169386
303.10 0.02187707
303.20 0.02207202
303.30 0.02227401
303.40 0.02247879
303.50 0.02268411
303.60 0.02288944
303.70 0.02309476
303.80 0.02330009
303.90 0.02350541
304.00 0.02371073
304.10 0.02391606
304.20 0.02412138
304.30 0.02432671
304.40 0.02453203
304.50 0.02473736
304.60 0.02494269
304.70 0.02514632
304.80 0.02534147
304.90 0.02551507
305.00 0.02565275
305.10 0.02574816
305.20 0.02580766
305.30 0.0258456
305.40 0.02587507
305.50 0.02590283
305.60 0.0259306
305.70 0.02595837
305.80 0.02598613
305.90 0.0260139
306.00 0.02604167
306.10 0.02606944
306.20 0.02609721
306.30 0.02612498
306.40 0.02615275
306.50 0.02618052
306.60 0.02620829
306.70 0.02623607
306.80 0.02626386
306.90 0.0262917
307.00 0.02631961
307.10 0.02634762
307.20 0.02637571
307.30 0.02640384
307.40 0.02643199
307.50 0.02646015
307.60 0.0264883
307.70 0.02651646
307.80 0.02654461
307.90 0.02657277
308.00 0.02660092
308.10 0.02662908
308.20 0.02665724
308.30 0.02668539
308.40 0.02671354
308.50 0.02674169
308.60 0.02676983
308.70 0.02680222
308.80 0.02685584
308.90 0.02696341
309.00 0.02716084
309.10 0.0274641
309.20 0.02785721
309.30 0.02830427
309.40 0.02877257
309.50 0.02924511
309.60 0.02971765
309.70 0.03019018
309.80 0.03066271
309.90 0.03113524
310.00 0.03160777
310.10 0.0320803
310.20 0.03255283
310.30 0.03302536
310.40 0.0334979
310.50 0.03397043
310.60 0.03444298
310.70 0.03491125
310.80 0.03535818
310.90 0.03575088
311.00 0.03605324
311.10 0.03624922
311.20 0.03635486
311.30 0.03640628
311.40 0.03643635
311.50 0.03646215
311.60 0.03648796
311.70 0.03651377
311.80 0.03653958
311.90 0.0365654
312.00 0.03659121
312.10 0.03661703
312.20 0.03664284
312.30 0.03666865
312.40 0.03669447
312.50 0.03672027
312.60 0.03674607
312.70 0.03677714
312.80 0.03683457
312.90 0.03695898
313.00 0.03719496
313.10 0.03756233
313.20 0.03804127
313.30 0.03858718
313.40 0.03915945
313.50 0.039737
313.60 0.04031454
313.70 0.04089208
313.80 0.04146961
313.90 0.04204715
314.00 0.04262468
314.10 0.04320221
314.20 0.04377974
314.30 0.04435727
314.40 0.0449348
314.50 0.04551233
314.60 0.04608985
314.70 0.04667104
314.80 0.04727058
314.90 0.04791675
315.00 0.04864057
315.10 0.04945586
315.20 0.05034881
315.30 0.05128838
315.40 0.0522463
315.50 0.05320789
315.60 0.05416948
315.70 0.05513106
315.80 0.05609265
315.90 0.05705423
316.00 0.05801581
316.10 0.05897739
316.20 0.05993897
316.30 0.06090055
316.40 0.06186214
316.50 0.06282375
316.60 0.06378537
316.70 0.0647335
316.80 0.06561417
316.90 0.06632348
317.00 0.06674731
317.10 0.06683495
317.20 0.06663711
317.30 0.0662679
317.40 0.06583124
317.50 0.06538108
317.60 0.06493094
317.70 0.06448082
317.80 0.0640307
317.90 0.06358058
318.00 0.06313047
318.10 0.06268036
318.20 0.06223024
318.30 0.06178012
318.40 0.06133
318.50 0.06087987
318.60 0.06042972
318.70 0.0599899
318.80 0.05960172
318.90 0.05934472
319.00 0.05930625
319.10 0.05952513
319.20 0.05996254
319.30 0.06053113
319.40 0.06115136
319.50 0.06178191
319.60 0.06241245
319.70 0.06304298
319.80 0.06367351
319.90 0.06430403
320.00 0.06493455
320.10 0.06556508
320.20 0.0661956
320.30 0.06682613
320.40 0.06745665
320.50 0.06808718
320.60 0.06871772
320.70 0.06934443
320.80 0.06995205
320.90 0.07051115
321.00 0.07098942
321.10 0.07137252
321.20 0.07167479
321.30 0.07192855
321.40 0.0721632
321.50 0.07239404
321.60 0.07262488
321.70 0.07285573
321.80 0.07308658
321.90 0.07331743
322.00 0.07354827
322.10 0.07377912
322.20 0.07400997
322.30 0.07424082
322.40 0.07447166
322.50 0.07470248
322.60 0.07493329
322.70 0.07517804
322.80 0.07549256
322.90 0.07598429
323.00 0.07677125
323.10 0.07790586
323.20 0.0793357
323.30 0.08094275
323.40 0.08261957
323.50 0.08431033
323.60 0.08600108
323.70 0.08769181
323.80 0.08938253
323.90 0.09107326
324.00 0.09276398
324.10 0.0944547
324.20 0.09614542
324.30 0.09783614
324.40 0.09952687
324.50 0.1012176
324.60 0.1029083
324.70 0.1045968
324.80 0.1062739
324.90 0.1079223
325.00 0.1095226
325.10 0.1110666
325.20 0.1125625
325.30 0.1140297
325.40 0.1154855
325.50 0.1169391
325.60 0.1183927
325.70 0.1198462
325.80 0.1212998
325.90 0.1227534
326.00 0.124207
326.10 0.1256606
326.20 0.1271141
326.30 0.1285677
326.40 0.1300213
326.50 0.1314749
326.60 0.1329284
326.70 0.1343869
326.80 0.1358698
326.90 0.1374147
327.00 0.1390629
327.10 0.1408329
327.20 0.1427063
327.30 0.1446417
327.40 0.1466015
327.50 0.1485662
327.60 0.150531
327.70 0.1524957
327.80 0.1544604
327.90 0.1564251
328.00 0.1583897
328.10 0.1603544
328.20 0.1623191
328.30 0.1642838
328.40 0.1662486
328.50 0.1682133
328.60 0.1701781
328.70 0.1721142
328.80 0.173907
328.90 0.1753358
329.00 0.1761581
329.10 0.1762663
329.20 0.175768
329.30 0.1749057
329.40 0.1739
329.50 0.1728657
329.60 0.1718314
329.70 0.1707972
329.80 0.1697629
329.90 0.1687287
330.00 0.1676945
330.10 0.1666603
330.20 0.165626
330.30 0.1645918
330.40 0.1635576
330.50 0.1625233
330.60 0.161489
330.70 0.160476
330.80 0.1595693
330.90 0.1589326
331.00 0.1587458
331.10 0.1590888
331.20 0.1598816
331.30 0.1609445
331.40 0.1621137
331.50 0.1633042
331.60 0.1644946
331.70 0.165685
331.80 0.1668754
331.90 0.1680658
332.00 0.1692562
332.10 0.1704466
332.20 0.171637
332.30 0.1728274
332.40 0.1740179
332.50 0.1752083
332.60 0.1763987
332.70 0.1775757
332.80 0.1786854
332.90 0.1796241
333.00 0.1802779
333.10 0.1805964
333.20 0.18063
333.30 0.1804926
333.40 0.1802879
333.50 0.1800697
333.60 0.1798516
333.70 0.1796335
333.80 0.1794154
333.90 0.1791973
334.00 0.1789792
334.10 0.1787611
334.20 0.1785429
334.30 0.1783248
334.40 0.1781066
334.50 0.1778884
334.60 0.1778517
334.70 0.1784076
334.80 0.1797142
334.90 0.1810413
335.00 0.1809988
335.10 0.1792076
335.20 0.1778555
335.30 0.1810325
335.40 0.1915811
335.50 0.2078872
335.60 0.2237073
335.70 0.2317996
335.80 0.2285957
335.90 0.2159674
336.00 0.1992303
336.10 0.1838566
336.20 0.1736631
336.30 0.1702491
336.40 0.1723187
336.50 0.1758403
336.60 0.176463
336.70 0.1731259
336.80 0.1694091
336.90 0.1707254
337.00 0.1796833
337.10 0.1935437
337.20 0.2057873
337.30 0.2105946
337.40 0.2069317
337.50 0.199195
337.60 0.1938497
337.70 0.1946336
337.80 0.2003626
337.90 0.2071007
338.00 0.2118388
338.10 0.213749
338.20 0.2123949
338.30 0.2063464
338.40 0.1951166
338.50 0.1820244
338.60 0.1736796
338.70 0.1752338
338.80 0.1855723
338.90 0.1976703
339.00 0.2042373
339.10 0.2036876
339.20 0.2011167
339.30 0.2032909
339.40 0.212416
339.50 0.2247086
339.60 0.2344874
339.70 0.2389467
339.80 0.2388736
339.90 0.2358345
340.00 0.2304529
340.10 0.2233731
340.20 0.216084
340.30 0.2097164
340.40 0.2035085
340.50 0.1956044
340.60 0.1855572
340.70 0.1753621
340.80 0.1678767
340.90 0.1647259
341.00 0.165801
341.10 0.1701099
341.20 0.176509
341.30 0.1836552
341.40 0.1899657
341.50 0.1942305
341.60 0.1963303
341.70 0.1972896
341.80 0.1984972
341.90 0.2006811
342.00 0.2032626
342.10 0.2044692
342.20 0.2024138
342.30 0.1966811
342.40 0.1891817
342.50 0.1831853
342.60 0.181123
342.70 0.1830717
342.80 0.1870711
342.90 0.1906709
343.00 0.1924387
343.10 0.192603
343.20 0.1925197
343.30 0.1933543
343.40 0.1950656
343.50 0.1966465
343.60 0.1971898
343.70 0.1964464
343.80 0.1946093
343.90 0.1921334
344.00 0.1898496
344.10 0.1887192
344.20 0.1889931
344.30 0.1897884
344.40 0.1898631
344.50 0.1888053
344.60 0.1873669
344.70 0.1868049
344.80 0.18808
344.90 0.1915316
345.00 0.1969799
345.10 0.203862
345.20 0.2112606
345.30 0.2179063
345.40 0.2223801
345.50 0.2237977
345.60 0.2225474
345.70 0.2202262
345.80 0.2185471
345.90 0.2181421
346.00 0.2182787
346.10 0.2175012
346.20 0.2146466
346.30 0.2097598
346.40 0.2043878
346.50 0.2006795
346.60 0.1996774
346.70 0.2004117
346.80 0.2008017
346.90 0.1993497
347.00 0.1959133
347.10 0.1914181
347.20 0.1874002
347.30 0.1855721
347.40 0.1870229
347.50 0.1913596
347.60 0.1968903
347.70 0.2019247
347.80 0.2059048
347.90 0.2093878
348.00 0.213167
348.10 0.2173845
348.20 0.2212457
348.30 0.223544
348.40 0.2236391
348.50 0.222018
348.60 0.2197925
348.70 0.2176857
348.80 0.2156919
348.90 0.2135778
349.00 0.2113552
349.10 0.2092215
349.20 0.2073538
349.30 0.2060062
349.40 0.2056347
349.50 0.2065303
349.60 0.2082491
349.70 0.2096799
349.80 0.2100273
349.90 0.2099299
350.00 0.211384
350.10 0.2161712
350.20 0.2241503
350.30 0.2330784
350.40 0.2401412
350.50 0.2437324
350.60 0.2439823
350.70 0.2420057
350.80 0.238954
350.90 0.235471
351.00 0.231443
351.10 0.2260512
351.20 0.2184125
351.30 0.2087146
351.40 0.1988378
351.50 0.1914503
351.60 0.1881184
351.70 0.1882015
351.80 0.1895964
351.90 0.1904905
352.00 0.190374
352.10 0.1896146
352.20 0.1886398
352.30 0.18782
352.40 0.1879512
352.50 0.1904914
352.60 0.1967607
352.70 0.2065756
352.80 0.2177273
352.90 0.227215
353.00 0.2334549
353.10 0.2372926
353.20 0.2407063
353.30 0.2447925
353.40 0.2492838
353.50 0.2536426
353.60 0.2579784
353.70 0.2627053
353.80 0.2678167
353.90 0.272858
354.00 0.2772346
354.10 0.2801739
354.20 0.2807443
354.30 0.2785733
354.40 0.2746538
354.50 0.2710064
354.60 0.26917
354.70 0.2690666
354.80 0.2694279
354.90 0.269126
355.00 0.2679502
355.10 0.2663537
355.20 0.2648188
355.30 0.2635688
355.40 0.2627117
355.50 0.2622942
355.60 0.2620525
355.70 0.261247
355.80 0.2590077
355.90 0.2550567
356.00 0.2500394
356.10 0.2449992
356.20 0.2404835
356.30 0.2361066
356.40 0.230972
356.50 0.2246475
356.60 0.2178735
356.70 0.2122989
356.80 0.2093314
356.90 0.2090972
357.00 0.2104527
357.10 0.2118679
357.20 0.2122272
357.30 0.2110551
357.40 0.208377
357.50 0.2045687
357.60 0.2002474
357.70 0.1960548
357.80 0.1923969
357.90 0.1893524
358.00 0.186898
358.10 0.1853023
358.20 0.1852295
358.30 0.1873043
358.40 0.1914848
358.50 0.1968367
358.60 0.201895
358.70 0.205291
358.80 0.206323
358.90 0.2052948
359.00 0.203538
359.10 0.2029121
359.20 0.2047811
359.30 0.2090621
359.40 0.2141162
359.50 0.2177743
359.60 0.218808
359.70 0.2176918
359.80 0.2160655
359.90 0.2153486
360.00 0.2156124
360.10 0.2155833
360.20 0.2137295
360.30 0.2094917
360.40 0.2037529
360.50 0.1983976
360.60 0.1954379
360.70 0.1962127
360.80 0.2007842
360.90 0.2077971
361.00 0.2151446
361.10 0.2211671
361.20 0.2254388
361.30 0.2284418
361.40 0.2305932
361.50 0.2318028
361.60 0.232048
361.70 0.2319988
361.80 0.2326531
361.90 0.234324
362.00 0.2362654
362.10 0.237454
362.20 0.23753
362.30 0.2368996
362.40 0.2362435
362.50 0.2361303
362.60 0.2367492
362.70 0.2375838
362.80 0.2375038
362.90 0.2356646
363.00 0.2324908
363.10 0.2295509
363.20 0.2282931
363.30 0.2289661
363.40 0.2307241
363.50 0.2325126
363.60 0.2337471
363.70 0.2343699
363.80 0.2344997
363.90 0.2340879
364.00 0.2328328
364.10 0.2303898
364.20 0.2267199
364.30 0.2222843
364.40 0.217947
364.50 0.2146936
364.60 0.2132503
364.70 0.2136785
364.80 0.2152875
364.90 0.2171565
365.00 0.2189757
365.10 0.2213594
365.20 0.2250887
365.30 0.2299488
365.40 0.2344462
365.50 0.2368424
365.60 0.2365879
365.70 0.2347385
365.80 0.2329379
365.90 0.2320837
366.00 0.2319915
366.10 0.2321439
366.20 0.2325052
366.30 0.2334507
366.40 0.2350777
366.50 0.2368277
366.60 0.2377798
366.70 0.2372452
366.80 0.2351269
366.90 0.231867
367.00 0.2282157
367.10 0.225025
367.20 0.223069
367.30 0.2228451
367.40 0.2243583
367.50 0.227078
367.60 0.2301974
367.70 0.2330521
367.80 0.2353971
367.90 0.2373616
368.00 0.2391756
368.10 0.2408934
368.20 0.2422963
368.30 0.2429996
368.40 0.242702
368.50 0.2414692
368.60 0.2398515
368.70 0.2386556
368.80 0.2384524
368.90 0.2392288
369.00 0.2405457
369.10 0.2420558
369.20 0.243741
369.30 0.2455847
369.40 0.2471551
369.50 0.2477124
369.60 0.2468492
369.70 0.2449908
369.80 0.2432466
369.90 0.2427813
370.00 0.2442109
370.10 0.2473604
370.20 0.2514624
370.30 0.2555696
370.40 0.2588818
370.50 0.2608797
370.60 0.2613836
370.70 0.2606956
370.80 0.2596179
370.90 0.259095
371.00 0.2596007
371.10 0.2607454
371.20 0.261423
371.30 0.2603834
371.40 0.2569304
371.50 0.2513839
371.60 0.2450331
371.70 0.2395334
371.80 0.2361503
371.90 0.2353492
372.00 0.2368346
372.10 0.2396354
372.20 0.2420378
372.30 0.2418836
372.40 0.2375684
372.50 0.2292992
372.60 0.2194738
372.70 0.2116072
372.80 0.2085406
372.90 0.2111975
373.00 0.2185139
373.10 0.2282118
373.20 0.2377433
373.30 0.2449808
373.40 0.2486425
373.50 0.2483841
373.60 0.2445631
373.70 0.2378982
373.80 0.2293165
373.90 0.2200387
374.00 0.2115949
374.10 0.2055599
374.20 0.2031509
374.30 0.2050143
374.40 0.2112748
374.50 0.2215818
374.60 0.2349783
374.70 0.2497194
374.80 0.2633814
374.90 0.2734771
375.00 0.2783089
375.10 0.2775155
375.20 0.2720123
375.30 0.2635148
375.40 0.2540125
375.50 0.2453505
375.60 0.2387905
375.70 0.234673
375.80 0.2324374
375.90 0.2310874
376.00 0.2298821
376.10 0.2288796
376.20 0.2290535
376.30 0.2318901
376.40 0.238663
376.50 0.2498852
376.60 0.2652954
376.70 0.2840265
376.80 0.304486
376.90 0.3240219
377.00 0.3391402
377.10 0.3467017
377.20 0.3453586
377.30 0.3360767
377.40 0.3214257
377.50 0.3043633
377.60 0.28739
377.70 0.2723054
377.80 0.2601443
377.90 0.2511219
378.00 0.2447635
378.10 0.240315
378.20 0.2371841
378.30 0.2350514
378.40 0.2336952
378.50 0.2329327
378.60 0.2327928
378.70 0.2336122
378.80 0.2358907
378.90 0.2401882
379.00 0.2472942
379.10 0.2583251
379.20 0.274261
379.30 0.2950883
379.40 0.319269
379.50 0.3439628
379.60 0.3656823
379.70 0.3809875
379.80 0.3872652
379.90 0.3835418
380.00 0.370983
380.10 0.3525536
380.20 0.3318874
380.30 0.3120422
380.40 0.2948562
380.50 0.2809943
380.60 0.2703098
380.70 0.2621547
380.80 0.2556106
380.90 0.2498868
381.00 0.2447104
381.10 0.2403144
381.20 0.2369687
381.30 0.2345376
381.40 0.232611
381.50 0.2310846
381.60 0.2303869
381.70 0.2309334
381.80 0.2323589
381.90 0.2334398
382.00 0.2329833
382.10 0.2309201
382.20 0.2284805
382.30 0.2290306
382.40 0.2385304
382.50 0.2636295
382.60 0.3054139
382.70 0.348653
382.80 0.366175
382.90 0.3450029
383.00 0.3063781
383.10 0.2907114
383.20 0.3153922
383.30 0.3566971
383.40 0.3787313
383.50 0.3748774
383.60 0.3678484
383.70 0.3720986
383.80 0.3705861
383.90 0.3382582
384.00 0.279626
384.10 0.2255607
384.20 0.2006325
384.30 0.2048757
384.40 0.225664
384.50 0.251967
384.60 0.2709577
384.70 0.2705605
384.80 0.2503877
384.90 0.2255299
385.00 0.2144913
385.10 0.2240431
385.20 0.2440788
385.30 0.2561012
385.40 0.2459255
385.50 0.2148921
385.60 0.1796599
385.70 0.1576862
385.80 0.1565239
385.90 0.1746758
386.00 0.2076583
386.10 0.2528727
386.20 0.3072855
386.30 0.3585879
386.40 0.3855082
386.50 0.376252
386.60 0.3495971
386.70 0.3438093
386.80 0.3747386
386.90 0.4132198
387.00 0.4131264
387.10 0.3599701
387.20 0.284446
387.30 0.2314974
387.40 0.2204605
387.50 0.2357608
387.60 0.2507729
387.70 0.2576691
387.80 0.2700152
387.90 0.295034
388.00 0.3155845
388.10 0.3102136
388.20 0.2855516
388.30 0.2716152
388.40 0.2847811
388.50 0.3106943
388.60 0.3274826
388.70 0.3317364
388.80 0.3349524
388.90 0.3469515
389.00 0.3681851
389.10 0.390426
389.20 0.4011823
389.30 0.3941917
389.40 0.3819204
389.50 0.3889184
389.60 0.4246106
389.70 0.4680863
389.80 0.4871436
389.90 0.4671732
390.00 0.4223116
390.10 0.3762255
390.20 0.341145
390.30 0.3227044
390.40 0.3276122
390.50 0.3528921
390.60 0.3735795
390.70 0.3579813
390.80 0.3054026
390.90 0.2551542
391.00 0.2471608
391.10 0.2826944
391.20 0.3309382
391.30 0.3653648
391.40 0.3806717
391.50 0.3813931
391.60 0.3672027
391.70 0.3373096
391.80 0.2996416
391.90 0.2666962
392.00 0.2428576
392.10 0.2266381
392.20 0.2223463
392.30 0.2370565
392.40 0.263007
392.50 0.277624
392.60 0.2668545
392.70 0.2400461
392.80 0.2176678
392.90 0.2091248
393.00 0.210992
393.10 0.217556
393.20 0.2248295
393.30 0.2273251
393.40 0.2171216
393.50 0.1930563
393.60 0.1657701
393.70 0.1532845
393.80 0.1692707
393.90 0.2144213
394.00 0.2764236
394.10 0.3330343
394.20 0.3610097
394.30 0.3487701
394.40 0.3044661
394.50 0.2563913
394.60 0.2377923
394.70 0.2622552
394.80 0.3106358
394.90 0.3479803
395.00 0.3551728
395.10 0.3448615
395.20 0.3387138
395.30 0.3420564
395.40 0.3492926
395.50 0.3594833
395.60 0.3700406
395.70 0.3675854
395.80 0.343975
395.90 0.315826
396.00 0.3112132
396.10 0.3358593
396.20 0.3672667
396.30 0.3809237
396.40 0.3689179
396.50 0.3382158
396.60 0.3040506
396.70 0.2858774
396.80 0.2975957
396.90 0.3322207
397.00 0.3618348
397.10 0.3606047
397.20 0.3289167
397.30 0.2916304
397.40 0.2746387
397.50 0.284322
397.60 0.3093661
397.70 0.3370552
397.80 0.3646358
397.90 0.3965576
398.00 0.432709
398.10 0.4642312
398.20 0.4806124
398.30 0.4814777
398.40 0.4753172
398.50 0.4688502
398.60 0.4616491
398.70 0.4486699
398.80 0.4263179
398.90 0.3953765
399.00 0.3666025
399.10 0.3552078
399.20 0.369115
399.30 0.402858
399.40 0.4443522
399.50 0.481022
399.60 0.4991537
399.70 0.4913639
399.80 0.4698927
399.90 0.4628347
400.00 0.4845879
400.10 0.5180522
400.20 0.533726
400.30 0.5220948
400.40 0.4996463
400.50 0.4853619
400.60 0.4794255
400.70 0.4676926
400.80 0.4435621
400.90 0.419662
401.00 0.4183029
401.10 0.4477821
401.20 0.4906345
401.30 0.5191191
401.40 0.5210052
401.50 0.5091006
401.60 0.5020222
401.70 0.5024141
401.80 0.4973688
401.90 0.4793938
402.00 0.4576065
402.10 0.4481557
402.20 0.4591859
402.30 0.4863972
402.40 0.5181205
402.50 0.5413936
402.60 0.5471874
402.70 0.5335501
402.80 0.5037563
402.90 0.4612847
403.00 0.4084592
403.10 0.3521792
403.20 0.3047517
403.30 0.2747561
403.40 0.2612603
403.50 0.2598219
403.60 0.2745737
403.70 0.3183073
403.80 0.3944808
403.90 0.4809347
404.00 0.5392423
404.10 0.5439793
404.20 0.5008023
404.30 0.4352234
404.40 0.3714793
404.50 0.3273336
404.60 0.3144848
404.70 0.3310285
404.80 0.3599643
404.90 0.3856709
405.00 0.4082062
405.10 0.4347524
405.20 0.4625901
405.30 0.4805739
405.40 0.4842069
405.50 0.4784529
405.60 0.4672915
405.70 0.4489383
405.80 0.4241588
405.90 0.4041171
406.00 0.4021498
406.10 0.4179849
406.20 0.4363444
406.30 0.4425517
406.40 0.4348219
406.50 0.4195261
406.60 0.4039987
406.70 0.3975685
406.80 0.408641
406.90 0.4313759
407.00 0.4428508
407.10 0.4250786
407.20 0.3870478
407.30 0.3557831
407.40 0.3473095
407.50 0.3546079
407.60 0.3624021
407.70 0.3652483
407.80 0.3695633
407.90 0.3855962
408.00 0.4199368
408.10 0.4679531
408.20 0.5116653
408.30 0.5329123
408.40 0.5310343
408.50 0.5236657
408.60 0.5257186
408.70 0.5351952
408.80 0.5409082
408.90 0.5357683
409.00 0.5195732
409.10 0.4962929
409.20 0.4733661
409.30 0.4598904
409.40 0.4607623
409.50 0.4712066
409.60 0.4795651
409.70 0.4757711
409.80 0.460118
409.90 0.4443057
410.00 0.4409241
410.10 0.4494852
410.20 0.457548
410.30 0.4585212
410.40 0.4612567
410.50 0.477006
410.60 0.5028088
410.70 0.5263791
410.80 0.5420634
410.90 0.5546848
411.00 0.5641524
411.10 0.5602371
411.20 0.5375269
411.30 0.5092589
411.40 0.4978985
411.50 0.5098291
411.60 0.5262343
411.70 0.5214477
411.80 0.4910573
411.90 0.4606244
412.00 0.4615283
412.10 0.5006055
412.20 0.5529713
412.30 0.5845271
412.40 0.5819653
412.50 0.5620792
412.60 0.5507228
412.70 0.5545721
412.80 0.5583111
412.90 0.5460596
413.00 0.5198652
413.10 0.4925845
413.20 0.4705845
413.30 0.4528792
413.40 0.4411245
413.50 0.4395924
413.60 0.445576
413.70 0.4493419
413.80 0.4465747
413.90 0.4434038
414.00 0.444047
414.10 0.4415738
414.20 0.4277341
414.30 0.4053576
414.40 0.3875616
414.50 0.3829284
414.60 0.3891584
414.70 0.4006237
414.80 0.4159996
414.90 0.4333168
415.00 0.4437789
415.10 0.4382612
415.20 0.4219293
415.30 0.4166256
415.40 0.4403428
415.50 0.4843158
415.60 0.5203161
415.70 0.5323822
415.80 0.5325616
415.90 0.5397312
416.00 0.5538413
416.10 0.5599256
416.20 0.5520618
416.30 0.5402881
