# Version 2.1 - nm, norm@500 to 1, cut digits
# Wavelength(nm)  Flambda(ergs/cm^s/s/nm)
300.00 0.0101904
300.10 0.01354356
300.20 0.01558637
300.30 0.01643205
300.40 0.01665442
300.50 0.0167201
300.60 0.0167853
300.70 0.01685083
300.80 0.01691948
300.90 0.01699648
301.00 0.01708752
301.10 0.01719512
301.20 0.0173168
301.30 0.01744692
301.40 0.01758038
301.50 0.01771451
301.60 0.01784865
301.70 0.01798279
301.80 0.01811693
301.90 0.01825107
302.00 0.01838522
302.10 0.01851936
302.20 0.0186535
302.30 0.01878764
302.40 0.01892179
302.50 0.01905593
302.60 0.01919009
302.70 0.01932475
302.80 0.01946194
302.90 0.01960555
303.00 0.01975984
303.10 0.01992671
303.20 0.02010426
303.30 0.02028823
303.40 0.02047473
303.50 0.02066174
303.60 0.02084876
303.70 0.02103577
303.80 0.02122279
303.90 0.02140981
304.00 0.02159683
304.10 0.02178385
304.20 0.02197087
304.30 0.02215788
304.40 0.0223449
304.50 0.0225319
304.60 0.0227189
304.70 0.02290433
304.80 0.02308202
304.90 0.02324009
305.00 0.02336548
305.10 0.0234524
305.20 0.02350665
305.30 0.02354127
305.40 0.02356815
305.50 0.02359347
305.60 0.02361877
305.70 0.02364407
305.80 0.02366937
305.90 0.02369466
306.00 0.02371996
306.10 0.02374525
306.20 0.02377054
306.30 0.02379584
306.40 0.02382113
306.50 0.02384643
306.60 0.02387172
306.70 0.02389702
306.80 0.02392233
306.90 0.02394769
307.00 0.02397312
307.10 0.02399863
307.20 0.02402421
307.30 0.02404983
307.40 0.02407548
307.50 0.02410112
307.60 0.02412677
307.70 0.02415241
307.80 0.02417806
307.90 0.0242037
308.00 0.02422935
308.10 0.02425499
308.20 0.02428064
308.30 0.02430629
308.40 0.02433195
308.50 0.02435762
308.60 0.02438333
308.70 0.02441294
308.80 0.02446193
308.90 0.02456003
309.00 0.02473992
309.10 0.02501608
309.20 0.02537402
309.30 0.02578108
309.40 0.02620751
309.50 0.02663785
309.60 0.02706823
309.70 0.02749862
309.80 0.02792901
309.90 0.02835941
310.00 0.02878982
310.10 0.02922022
310.20 0.02965062
310.30 0.03008102
310.40 0.0305114
310.50 0.03094178
310.60 0.03137212
310.70 0.03179853
310.80 0.03220546
310.90 0.03256302
311.00 0.03283838
311.10 0.03301694
311.20 0.03311329
311.30 0.03316027
311.40 0.03318778
311.50 0.03321135
311.60 0.03323489
311.70 0.03325842
311.80 0.03328193
311.90 0.03330545
312.00 0.03332896
312.10 0.03335247
312.20 0.03337599
312.30 0.03339951
312.40 0.03342303
312.50 0.03344659
312.60 0.03347017
312.70 0.03349862
312.80 0.03355111
312.90 0.03366459
313.00 0.03387959
313.10 0.03421414
313.20 0.03465022
313.30 0.03514728
313.40 0.03566839
313.50 0.03619436
313.60 0.03672037
313.70 0.0372464
313.80 0.03777243
313.90 0.03829848
314.00 0.03882452
314.10 0.03935056
314.20 0.03987661
314.30 0.04040265
314.40 0.04092871
314.50 0.04145477
314.60 0.04198087
314.70 0.04251034
314.80 0.04305656
314.90 0.04364523
315.00 0.04430457
315.10 0.04504712
315.20 0.04586035
315.30 0.04671603
315.40 0.04758845
315.50 0.04846425
315.60 0.04934008
315.70 0.05021592
315.80 0.05109177
315.90 0.05196762
316.00 0.05284347
316.10 0.05371932
316.20 0.05459517
316.30 0.05547101
316.40 0.05634682
316.50 0.05722258
316.60 0.05809824
316.70 0.05896148
316.80 0.05976317
316.90 0.06040883
317.00 0.06079471
317.10 0.0608747
317.20 0.0606949
317.30 0.06035908
317.40 0.05996171
317.50 0.05955191
317.60 0.05914202
317.70 0.05873208
317.80 0.05832211
317.90 0.05791212
318.00 0.05750214
318.10 0.05709215
318.20 0.05668217
318.30 0.05627219
318.40 0.05586224
318.50 0.05545233
318.60 0.05504249
318.70 0.05464216
318.80 0.05428894
318.90 0.05405517
319.00 0.05402025
319.10 0.05421949
319.20 0.05461759
319.30 0.05513513
319.40 0.05569979
319.50 0.05627395
319.60 0.05684819
319.70 0.05742247
319.80 0.05799676
319.90 0.05857107
320.00 0.05914538
320.10 0.05971969
320.20 0.060294
320.30 0.06086831
320.40 0.0614426
320.50 0.06201689
320.60 0.06259114
320.70 0.06316188
320.80 0.06371519
320.90 0.06422433
321.00 0.06465992
321.10 0.06500891
321.20 0.06528435
321.30 0.06551561
321.40 0.06572945
321.50 0.06593977
321.60 0.06615007
321.70 0.06636035
321.80 0.06657062
321.90 0.06678089
322.00 0.06699115
322.10 0.06720142
322.20 0.06741169
322.30 0.06762197
322.40 0.06783228
322.50 0.06804265
322.60 0.06825311
322.70 0.06847643
322.80 0.06876339
322.90 0.0692117
323.00 0.06992866
323.10 0.07096195
323.20 0.0722639
323.30 0.07372719
323.40 0.07525413
323.50 0.07679392
323.60 0.07833381
323.70 0.07987376
323.80 0.08141373
323.90 0.08295371
324.00 0.0844937
324.10 0.08603369
324.20 0.08757368
324.30 0.08911366
324.40 0.09065364
324.50 0.09219361
324.60 0.09373357
324.70 0.09527143
324.80 0.09679896
324.90 0.09830028
325.00 0.09975796
325.10 0.1011643
325.20 0.1025269
325.30 0.1038634
325.40 0.1051895
325.50 0.1065135
325.60 0.1078375
325.70 0.1091615
325.80 0.1104855
325.90 0.1118095
326.00 0.1131334
326.10 0.1144574
326.20 0.1157814
326.30 0.1171054
326.40 0.1184294
326.50 0.1197534
326.60 0.1210775
326.70 0.122406
326.80 0.1237569
326.90 0.1251642
327.00 0.1266656
327.10 0.1282777
327.20 0.1299839
327.30 0.1317466
327.40 0.1335316
327.50 0.135321
327.60 0.1371105
327.70 0.1389001
327.80 0.1406896
327.90 0.1424791
328.00 0.1442687
328.10 0.1460582
328.20 0.1478477
328.30 0.1496373
328.40 0.1514267
328.50 0.153216
328.60 0.1550052
328.70 0.1567679
328.80 0.1583999
328.90 0.1597004
329.00 0.1604491
329.10 0.160548
329.20 0.1600949
329.30 0.1593105
329.40 0.1583952
329.50 0.1574536
329.60 0.1565118
329.70 0.1555699
329.80 0.1546279
329.90 0.1536859
330.00 0.1527439
330.10 0.1518018
330.20 0.1508598
330.30 0.1499178
330.40 0.1489759
330.50 0.148034
330.60 0.1470923
330.70 0.1461702
330.80 0.145345
330.90 0.1447657
331.00 0.1445958
331.10 0.144908
331.20 0.1456295
331.30 0.1465969
331.40 0.1476613
331.50 0.1487453
331.60 0.1498294
331.70 0.1509136
331.80 0.1519978
331.90 0.1530821
332.00 0.1541664
332.10 0.1552507
332.20 0.1563349
332.30 0.1574192
332.40 0.1585034
332.50 0.1595876
332.60 0.1606717
332.70 0.1617433
332.80 0.1627536
332.90 0.1636082
333.00 0.1642036
333.10 0.1644938
333.20 0.1645248
333.30 0.1644002
333.40 0.1642141
333.50 0.1640156
333.60 0.1638171
333.70 0.1636184
333.80 0.1634198
333.90 0.1632211
334.00 0.1630225
334.10 0.1628238
334.20 0.1626253
334.30 0.1624269
334.40 0.1622286
334.50 0.1620304
334.60 0.1619973
334.70 0.162503
334.80 0.1636915
334.90 0.1648995
335.00 0.1648643
335.10 0.1632417
335.20 0.1620203
335.30 0.164917
335.40 0.1745146
335.50 0.1893442
335.60 0.2037296
335.70 0.2110873
335.80 0.2081734
335.90 0.1966893
336.00 0.1814674
336.10 0.1674829
336.20 0.1582066
336.30 0.1550937
336.40 0.1569674
336.50 0.160164
336.60 0.1607291
336.70 0.1576981
336.80 0.1543245
336.90 0.1555272
337.00 0.1636764
337.10 0.1762816
337.20 0.1874168
337.30 0.1917919
337.40 0.1884671
337.50 0.1814386
337.60 0.1765827
337.70 0.1772973
337.80 0.182506
337.90 0.1886312
338.00 0.1929373
338.10 0.1946715
338.20 0.193437
338.30 0.1879344
338.40 0.177722
338.50 0.1658173
338.60 0.1582294
338.70 0.1596411
338.80 0.1690396
338.90 0.1800401
339.00 0.1860156
339.10 0.1855244
339.20 0.1831972
339.30 0.1851831
339.40 0.1934865
339.50 0.204668
339.60 0.213563
339.70 0.2176207
339.80 0.217556
339.90 0.214792
340.00 0.2098956
340.10 0.2034524
340.20 0.1968165
340.30 0.1910163
340.40 0.1853604
340.50 0.178163
340.60 0.1690187
340.70 0.159742
340.80 0.1529308
340.90 0.1500626
341.00 0.1510388
341.10 0.1549572
341.20 0.1607781
341.30 0.1672796
341.40 0.1730223
341.50 0.1769056
341.60 0.1788205
341.70 0.1796974
341.80 0.1807986
341.90 0.1827853
342.00 0.1851316
342.10 0.1862266
342.20 0.1843555
342.30 0.1791412
342.40 0.1723211
342.50 0.1668675
342.60 0.1649906
342.70 0.1667606
342.80 0.1703958
342.90 0.173669
343.00 0.1752779
343.10 0.1754295
343.20 0.1753561
343.30 0.1761165
343.40 0.177673
343.50 0.1791104
343.60 0.179604
343.70 0.1789275
343.80 0.1772566
343.90 0.1750047
344.00 0.1729273
344.10 0.1718982
344.20 0.1721457
344.30 0.1728674
344.40 0.1729349
344.50 0.1719738
344.60 0.1706679
344.70 0.1701599
344.80 0.1713232
344.90 0.1744663
345.00 0.1794254
345.10 0.1856883
345.20 0.1924208
345.30 0.1984682
345.40 0.2025404
345.50 0.203833
345.60 0.2026991
345.70 0.2005901
345.80 0.1990631
345.90 0.1986928
346.00 0.1988138
346.10 0.1981032
346.20 0.1955043
346.30 0.1910581
346.40 0.1861709
346.50 0.1827959
346.60 0.1818808
346.70 0.1825441
346.80 0.1828946
346.90 0.1815712
347.00 0.1784447
347.10 0.1743565
347.20 0.1707032
347.30 0.1690417
347.40 0.1703622
347.50 0.1743073
347.60 0.1793393
347.70 0.1839215
347.80 0.187546
347.90 0.1907187
348.00 0.1941601
348.10 0.197999
348.20 0.2015127
348.30 0.2036044
348.40 0.2036922
348.50 0.2022185
348.60 0.2001943
348.70 0.1982769
348.80 0.1964616
348.90 0.1945367
349.00 0.1925134
349.10 0.1905712
349.20 0.1888714
349.30 0.187645
349.40 0.1873066
349.50 0.1881207
349.60 0.1896842
349.70 0.1909869
349.80 0.1913062
349.90 0.1912227
350.00 0.1925507
350.10 0.1969091
350.20 0.2041691
350.30 0.2122914
350.40 0.2187174
350.50 0.2219862
350.60 0.2222157
350.70 0.2204187
350.80 0.2176415
350.90 0.2144696
351.00 0.2107999
351.10 0.2058891
351.20 0.1989349
351.30 0.1901093
351.40 0.1811216
351.50 0.174398
351.60 0.1713622
351.70 0.1714322
351.80 0.1726963
351.90 0.1735068
352.00 0.1734001
352.10 0.1727102
352.20 0.171826
352.30 0.1710843
352.40 0.1712088
352.50 0.1735251
352.60 0.1792327
352.70 0.1881645
352.80 0.1983124
352.90 0.2069482
353.00 0.2126318
353.10 0.2161313
353.20 0.2192446
353.30 0.2229683
353.40 0.2270597
353.50 0.2310302
353.60 0.2349795
353.70 0.2392839
353.80 0.2439371
353.90 0.2485255
354.00 0.2525083
354.10 0.2551832
354.20 0.2557031
354.30 0.2537299
354.40 0.2501662
354.50 0.2468491
354.60 0.2451775
354.70 0.245081
354.80 0.245407
354.90 0.2451305
355.00 0.2440598
355.10 0.2426068
355.20 0.2412099
355.30 0.2400718
355.40 0.2392905
355.50 0.2389084
355.60 0.2386854
355.70 0.2379493
355.80 0.2359089
355.90 0.2323118
356.00 0.2277443
356.10 0.2231551
356.20 0.219042
356.30 0.2150544
356.40 0.2103783
356.50 0.2046211
356.60 0.1984562
356.70 0.1933828
356.80 0.1906802
356.90 0.1904633
357.00 0.1916921
357.10 0.1929758
357.20 0.1932997
357.30 0.1922311
357.40 0.1897931
357.50 0.186327
357.60 0.182394
357.70 0.1785779
357.80 0.1752481
357.90 0.1724768
358.00 0.1702433
358.10 0.1687919
358.20 0.1687265
358.30 0.1706147
358.40 0.174418
358.50 0.1792867
358.60 0.1838885
358.70 0.1869792
358.80 0.1879209
358.90 0.1869896
359.00 0.1853958
359.10 0.1848298
359.20 0.1865316
359.30 0.1904258
359.40 0.1950225
359.50 0.1983503
359.60 0.1992921
359.70 0.1982789
359.80 0.196801
359.90 0.1961483
360.00 0.1963858
360.10 0.196356
360.20 0.1946671
360.30 0.1908112
360.40 0.1855917
360.50 0.180722
360.60 0.1780313
360.70 0.1787373
360.80 0.1828962
360.90 0.1892761
361.00 0.1959612
361.10 0.2014425
361.20 0.2053323
361.30 0.2080681
361.40 0.2100288
361.50 0.2111323
361.60 0.2113584
361.70 0.2113162
361.80 0.2119129
361.90 0.2134332
362.00 0.2151992
362.10 0.2162806
362.20 0.2163506
362.30 0.2157782
362.40 0.2151821
362.50 0.215079
362.60 0.2156409
362.70 0.2163983
362.80 0.2163242
362.90 0.2146508
363.00 0.2117645
363.10 0.2090911
363.20 0.207947
363.30 0.2085583
363.40 0.2101562
363.50 0.2117823
363.60 0.2129047
363.70 0.2134708
363.80 0.213588
363.90 0.213212
364.00 0.2120684
364.10 0.2098442
364.20 0.2065042
364.30 0.2024682
364.40 0.1985217
364.50 0.1955613
364.60 0.1942473
364.70 0.1946358
364.80 0.1960991
364.90 0.1978003
365.00 0.1994574
365.10 0.2016284
365.20 0.2050226
365.30 0.2094445
365.40 0.2135361
365.50 0.215717
365.60 0.2154877
365.70 0.2138079
365.80 0.2121716
365.90 0.2113953
366.00 0.2113115
366.10 0.2114502
366.20 0.211779
366.30 0.212639
366.40 0.2141184
366.50 0.2157091
366.60 0.2165738
366.70 0.2160865
366.80 0.214159
366.90 0.2111934
367.00 0.2078719
367.10 0.2049696
367.20 0.2031903
367.30 0.2029864
367.40 0.2043627
367.50 0.2068369
367.60 0.2096751
367.70 0.2122734
367.80 0.2144086
367.90 0.2161979
368.00 0.2178497
368.10 0.2194135
368.20 0.2206904
368.30 0.2213306
368.40 0.2210604
368.50 0.2199399
368.60 0.2184693
368.70 0.2173823
368.80 0.2171979
368.90 0.2179043
369.00 0.2191025
369.10 0.2204765
369.20 0.2220098
369.30 0.2236871
369.40 0.2251155
369.50 0.2256228
369.60 0.2248388
369.70 0.2231503
369.80 0.2215659
369.90 0.2211446
370.00 0.2224464
370.10 0.2253122
370.20 0.2290442
370.30 0.2327811
370.40 0.2357952
370.50 0.2376143
370.60 0.2380747
370.70 0.237451
370.80 0.2364723
370.90 0.2359971
371.00 0.236456
371.10 0.2374946
371.20 0.2381077
371.30 0.2371589
371.40 0.2340156
371.50 0.228969
371.60 0.2231913
371.70 0.2181876
371.80 0.2151084
371.90 0.2143769
372.00 0.215724
372.10 0.2182667
372.20 0.2204466
372.30 0.2203019
372.40 0.2163743
372.50 0.2088526
372.60 0.199917
372.70 0.1927634
372.80 0.1899751
372.90 0.1923919
373.00 0.1990464
373.10 0.2078672
373.20 0.2165373
373.30 0.2231212
373.40 0.2264527
373.50 0.2262178
373.60 0.2227414
373.70 0.2166772
373.80 0.2088688
373.90 0.2004274
374.00 0.1927455
374.10 0.1872556
374.20 0.1850657
374.30 0.1867635
374.40 0.1924626
374.50 0.2018433
374.60 0.2140345
374.70 0.2274483
374.80 0.23988
374.90 0.2490671
375.00 0.2534657
375.10 0.2527466
375.20 0.2477422
375.30 0.2400126
375.40 0.2313673
375.50 0.2234846
375.60 0.2175126
375.70 0.2137617
375.80 0.2117231
375.90 0.210492
376.00 0.2093954
376.10 0.2084866
376.20 0.208651
376.30 0.2112399
376.40 0.2174112
376.50 0.2276308
376.60 0.24166
376.70 0.2587092
376.80 0.2773287
376.90 0.2951058
377.00 0.3088623
377.10 0.3157434
377.20 0.3145231
377.30 0.3060796
377.40 0.2927495
377.50 0.2772229
377.60 0.2617747
377.70 0.2480426
377.80 0.2369688
377.90 0.2287503
378.00 0.2229563
378.10 0.2189013
378.20 0.216047
378.30 0.2141027
378.40 0.2128667
378.50 0.2121728
378.60 0.2120475
378.70 0.2127972
378.80 0.2148769
378.90 0.2187962
379.00 0.225273
379.10 0.2353222
379.20 0.2498338
379.30 0.2687939
379.40 0.2908027
379.50 0.3132759
379.60 0.3330409
379.70 0.3469687
379.80 0.3526823
379.90 0.3492964
380.00 0.337871
380.10 0.3211023
380.20 0.3022954
380.30 0.284232
380.40 0.268585
380.50 0.2559608
380.60 0.2462271
380.70 0.2387955
380.80 0.2328313
380.90 0.2276157
381.00 0.2228999
381.10 0.2188957
381.20 0.2158479
381.30 0.2136329
381.40 0.2118778
381.50 0.2104877
381.60 0.2098602
381.70 0.2103833
381.80 0.2117303
381.90 0.2127961
382.00 0.2125095
382.10 0.2104969
382.20 0.2071904
382.30 0.2046541
382.40 0.2087074
382.50 0.2244301
382.60 0.2515559
382.70 0.284699
382.80 0.3173701
382.90 0.3451831
383.00 0.3621194
383.10 0.3628451
383.20 0.3481442
383.30 0.3204686
383.40 0.2854635
383.50 0.2510799
383.60 0.2232349
383.70 0.2002129
383.80 0.172781
383.90 0.1367359
384.00 0.1037289
384.10 0.09013823
384.20 0.1001318
384.30 0.1282636
384.40 0.1716719
384.50 0.2247701
384.60 0.2683458
384.70 0.2793403
384.80 0.2650502
384.90 0.2555649
385.00 0.2661209
385.10 0.2800767
385.20 0.2750946
385.30 0.252133
385.40 0.2261758
385.50 0.2036122
385.60 0.1840961
385.70 0.1732512
385.80 0.1814368
385.90 0.2079895
386.00 0.2357378
386.10 0.248278
386.20 0.244027
386.30 0.2320329
386.40 0.2205544
386.50 0.2155774
386.60 0.2280049
386.70 0.2696044
386.80 0.3368444
386.90 0.4006543
387.00 0.4223125
387.10 0.3839232
387.20 0.3058894
387.30 0.2326291
387.40 0.1954815
387.50 0.189281
387.60 0.1858509
387.70 0.1708896
387.80 0.158491
387.90 0.168527
388.00 0.1996959
388.10 0.2315446
388.20 0.2520407
388.30 0.2684053
388.40 0.2897026
388.50 0.3107692
388.60 0.3189427
388.70 0.3095759
388.80 0.2885195
388.90 0.2642072
389.00 0.2425474
389.10 0.2283237
389.20 0.2207325
389.30 0.2124603
389.40 0.2000394
389.50 0.1895451
389.60 0.1894885
389.70 0.2027314
389.80 0.2188886
389.90 0.2329344
390.00 0.2451063
390.10 0.2541023
390.20 0.2617259
390.30 0.2680969
390.40 0.276333
390.50 0.2936514
390.60 0.3154649
390.70 0.3283741
390.80 0.3249141
390.90 0.3112326
391.00 0.2987269
391.10 0.2918231
391.20 0.2901589
391.30 0.2971236
391.40 0.3262831
391.50 0.3728863
391.60 0.4122215
391.70 0.4219946
391.80 0.4005737
391.90 0.3606861
392.00 0.3122594
392.10 0.2620897
392.20 0.2226969
392.30 0.2031783
392.40 0.2018061
392.50 0.2085494
392.60 0.2214448
392.70 0.2471712
392.80 0.2794485
392.90 0.2996976
393.00 0.3000736
393.10 0.3015692
393.20 0.3352967
393.30 0.4044271
393.40 0.4754877
393.50 0.5014884
393.60 0.4596537
393.70 0.3736809
393.80 0.2956508
393.90 0.263547
394.00 0.2721447
394.10 0.2859268
394.20 0.2776986
394.30 0.2489426
394.40 0.2232982
394.50 0.2166303
394.60 0.2283255
394.70 0.2461442
394.80 0.2599394
394.90 0.2661611
395.00 0.2732939
395.10 0.2873682
395.20 0.3019023
395.30 0.3047864
395.40 0.2978107
395.50 0.2966659
395.60 0.3116561
395.70 0.3332592
395.80 0.3418134
395.90 0.3327156
396.00 0.3185354
396.10 0.3111698
396.20 0.3075891
396.30 0.2997553
396.40 0.2912319
396.50 0.2923916
396.60 0.3107497
396.70 0.345499
396.80 0.3873874
396.90 0.4238615
397.00 0.4425963
397.10 0.4389491
397.20 0.4218503
397.30 0.405667
397.40 0.3982002
397.50 0.398615
397.60 0.4009377
397.70 0.3976857
397.80 0.3851303
397.90 0.3673946
398.00 0.3542272
398.10 0.3527249
398.20 0.3636562
398.30 0.3871621
398.40 0.4233218
398.50 0.4645328
398.60 0.4947688
398.70 0.5016048
398.80 0.4834816
398.90 0.4509592
399.00 0.4148624
399.10 0.3858925
399.20 0.373329
399.30 0.379366
399.40 0.3962154
399.50 0.4100494
399.60 0.4081075
399.70 0.3894365
399.80 0.3694664
399.90 0.3670502
400.00 0.3859058
400.10 0.4117474
400.20 0.4292559
400.30 0.4376018
400.40 0.4442123
400.50 0.4490598
400.60 0.4439759
400.70 0.4261293
400.80 0.4046424
400.90 0.3969632
401.00 0.415161
401.10 0.4497652
401.20 0.4767415
401.30 0.4788001
401.40 0.4645914
401.50 0.4555878
401.60 0.4588664
401.70 0.4623565
401.80 0.4576207
401.90 0.4473944
402.00 0.4354682
402.10 0.416177
402.20 0.386708
402.30 0.3618274
402.40 0.3624586
402.50 0.3894529
402.60 0.4183453
402.70 0.4250602
402.80 0.409365
402.90 0.3878679
403.00 0.3714179
403.10 0.3555416
403.20 0.3306729
403.30 0.2970123
403.40 0.2669322
403.50 0.2562655
403.60 0.2740608
403.70 0.3179605
403.80 0.3770322
403.90 0.4353153
404.00 0.4768574
404.10 0.4907814
404.20 0.4726984
404.30 0.4276279
404.40 0.3715016
404.50 0.3260886
404.60 0.3077577
404.70 0.3176923
404.80 0.3460852
404.90 0.3825219
405.00 0.4184692
405.10 0.4451542
405.20 0.4546543
405.30 0.4455896
405.40 0.4254163
405.50 0.4043958
405.60 0.3871684
405.70 0.3722952
405.80 0.3590687
405.90 0.3544513
406.00 0.368159
406.10 0.3996598
406.20 0.4365938
406.30 0.4657194
406.40 0.4816245
406.50 0.4857469
406.60 0.482339
406.70 0.4798191
406.80 0.4874038
406.90 0.5026192
407.00 0.5094077
407.10 0.4960408
407.20 0.4707755
407.30 0.4562716
407.40 0.4610326
407.50 0.4651125
407.60 0.4449452
407.70 0.3983888
407.80 0.3488839
407.90 0.3239029
408.00 0.3307395
408.10 0.3541927
408.20 0.3749478
408.30 0.3860237
408.40 0.3921395
408.50 0.3973843
408.60 0.3994869
408.70 0.3950169
408.80 0.3835366
408.90 0.3660052
409.00 0.3450115
409.10 0.3291385
409.20 0.3290978
409.30 0.3467162
409.40 0.3729277
409.50 0.3953666
409.60 0.4068407
409.70 0.4075587
409.80 0.4037252
409.90 0.4051349
410.00 0.4171171
410.10 0.4338763
410.20 0.4447189
410.30 0.445003
410.40 0.4374835
410.50 0.4253961
410.60 0.4101558
410.70 0.3953681
410.80 0.3929354
410.90 0.4051329
411.00 0.419697
411.10 0.4186279
411.20 0.3971089
411.30 0.369721
411.40 0.3565497
411.50 0.3653887
411.60 0.3859304
411.70 0.4065788
411.80 0.4249019
411.90 0.4410503
412.00 0.4520699
412.10 0.4517904
412.20 0.4364376
412.30 0.4120876
412.40 0.3928705
412.50 0.3906668
412.60 0.4067389
412.70 0.4296587
412.80 0.443728
412.90 0.4400104
413.00 0.4207009
413.10 0.3956002
413.20 0.3749567
413.30 0.3648667
413.40 0.3680726
413.50 0.3839215
413.60 0.4068133
413.70 0.4287255
413.80 0.4431161
413.90 0.4467299
414.00 0.4383045
414.10 0.4195772
414.20 0.396814
414.30 0.3825123
414.40 0.3809398
414.50 0.3857222
414.60 0.3889005
414.70 0.3904704
414.80 0.3953054
414.90 0.4084607
415.00 0.4262407
415.10 0.4360222
415.20 0.4299941
415.30 0.4150821
415.40 0.4068861
415.50 0.4159633
415.60 0.435128
415.70 0.4459903
415.80 0.4381792
415.90 0.4176726
416.00 0.397129
416.10 0.385481
