# Version 2.1 - nm, norm@500 to 1, cut digits
# Wavelength(nm)  Flambda(ergs/cm^s/s/nm)
300.00 0.01004756
300.10 0.01335354
300.20 0.01536769
300.30 0.01620161
300.40 0.016421
300.50 0.01648585
300.60 0.0165502
300.70 0.01661484
300.80 0.01668255
300.90 0.01675847
301.00 0.01684824
301.10 0.01695433
301.20 0.0170743
301.30 0.0172026
301.40 0.01733419
301.50 0.01746644
301.60 0.0175987
301.70 0.01773096
301.80 0.01786323
301.90 0.01799549
302.00 0.01812776
302.10 0.01826002
302.20 0.01839228
302.30 0.01852455
302.40 0.01865681
302.50 0.01878908
302.60 0.01892135
302.70 0.01905413
302.80 0.0191894
302.90 0.019331
303.00 0.01948313
303.10 0.01964766
303.20 0.01982273
303.30 0.02000412
303.40 0.02018801
303.50 0.0203724
303.60 0.02055679
303.70 0.02074119
303.80 0.02092559
303.90 0.02110999
304.00 0.02129439
304.10 0.02147879
304.20 0.02166319
304.30 0.02184759
304.40 0.02203198
304.50 0.02221637
304.60 0.02240074
304.70 0.02258358
304.80 0.02275878
304.90 0.02291463
305.00 0.02303826
305.10 0.02312397
305.20 0.02317745
305.30 0.0232116
305.40 0.0232381
305.50 0.02326307
305.60 0.02328802
305.70 0.02331297
305.80 0.02333791
305.90 0.02336285
306.00 0.02338779
306.10 0.02341273
306.20 0.02343767
306.30 0.02346261
306.40 0.02348755
306.50 0.02351249
306.60 0.02353743
306.70 0.02356237
306.80 0.02358733
306.90 0.02361233
307.00 0.0236374
307.10 0.02366256
307.20 0.02368778
307.30 0.02371305
307.40 0.02373833
307.50 0.02376362
307.60 0.0237889
307.70 0.02381419
307.80 0.02383947
307.90 0.02386476
308.00 0.02389005
308.10 0.02391533
308.20 0.02394062
308.30 0.02396591
308.40 0.02399121
308.50 0.02401653
308.60 0.02404188
308.70 0.02407109
308.80 0.0241194
308.90 0.02421614
309.00 0.0243935
309.10 0.0246658
309.20 0.02501872
309.30 0.02542007
309.40 0.02584052
309.50 0.02626483
309.60 0.02668917
309.70 0.02711353
309.80 0.0275379
309.90 0.02796228
310.00 0.02838665
310.10 0.02881102
310.20 0.0292354
310.30 0.02965977
310.40 0.03008413
310.50 0.03050847
310.60 0.03093278
310.70 0.03135321
310.80 0.03175444
310.90 0.03210698
311.00 0.03237848
311.10 0.03255454
311.20 0.03264955
311.30 0.03269589
311.40 0.03272301
311.50 0.03274626
311.60 0.03276948
311.70 0.03279267
311.80 0.03281586
311.90 0.03283905
312.00 0.03286223
312.10 0.03288541
312.20 0.0329086
312.30 0.03293179
312.40 0.03295499
312.50 0.03297821
312.60 0.03300148
312.70 0.03302953
312.80 0.0330813
312.90 0.0331932
313.00 0.0334052
313.10 0.03373506
313.20 0.03416502
313.30 0.03465511
313.40 0.03516891
313.50 0.03568751
313.60 0.03620615
313.70 0.03672481
313.80 0.03724348
313.90 0.03776215
314.00 0.03828083
314.10 0.03879951
314.20 0.03931818
314.30 0.03983686
314.40 0.04035555
314.50 0.04087426
314.60 0.04139299
314.70 0.04191505
314.80 0.04245363
314.90 0.04303406
315.00 0.04368417
315.10 0.04441632
315.20 0.04521816
315.30 0.04606184
315.40 0.04692204
315.50 0.04778557
315.60 0.04864913
315.70 0.04951271
315.80 0.05037629
315.90 0.05123988
316.00 0.05210346
316.10 0.05296705
316.20 0.05383063
316.30 0.05469421
316.40 0.05555775
316.50 0.05642123
316.60 0.05728462
316.70 0.05813574
316.80 0.05892617
316.90 0.05956277
317.00 0.05994322
317.10 0.06002211
317.20 0.05984486
317.30 0.05951377
317.40 0.05912199
317.50 0.05871795
317.60 0.05831381
317.70 0.05790961
317.80 0.05750538
317.90 0.05710114
318.00 0.05669689
318.10 0.05629265
318.20 0.05588841
318.30 0.05548417
318.40 0.05507996
318.50 0.0546758
318.60 0.05427171
318.70 0.05387701
318.80 0.05352876
318.90 0.05329828
319.00 0.05326387
319.10 0.0534603
319.20 0.05385281
319.30 0.05436308
319.40 0.0549198
319.50 0.05548592
319.60 0.0560521
319.70 0.05661834
319.80 0.05718459
319.90 0.05775086
320.00 0.05831713
320.10 0.05888339
320.20 0.05944966
320.30 0.06001592
320.40 0.06058218
320.50 0.06114841
320.60 0.06171462
320.70 0.06227736
320.80 0.06282292
320.90 0.06332492
321.00 0.0637544
321.10 0.06409851
321.20 0.0643701
321.30 0.06459813
321.40 0.06480898
321.50 0.06501636
321.60 0.06522372
321.70 0.06543105
321.80 0.06563838
321.90 0.0658457
322.00 0.06605303
322.10 0.06626035
322.20 0.06646768
322.30 0.06667501
322.40 0.06688238
322.50 0.06708981
322.60 0.06729734
322.70 0.06751756
322.80 0.06780053
322.90 0.06824259
323.00 0.06894953
323.10 0.06996834
323.20 0.07125202
323.30 0.07269479
323.40 0.07420032
323.50 0.07571853
323.60 0.07723685
323.70 0.07875523
323.80 0.08027363
323.90 0.08179205
324.00 0.08331047
324.10 0.0848289
324.20 0.08634732
324.30 0.08786574
324.40 0.08938415
324.50 0.09090255
324.60 0.09242094
324.70 0.09393727
324.80 0.0954434
324.90 0.09692369
325.00 0.09836096
325.10 0.09974756
325.20 0.1010911
325.30 0.1024089
325.40 0.1037164
325.50 0.1050219
325.60 0.1063274
325.70 0.1076328
325.80 0.1089383
325.90 0.1102437
326.00 0.1115491
326.10 0.1128546
326.20 0.11416
326.30 0.1154655
326.40 0.116771
326.50 0.1180764
326.60 0.119382
326.70 0.1206919
326.80 0.1220238
326.90 0.1234115
327.00 0.1248918
327.10 0.1264814
327.20 0.1281637
327.30 0.1299017
327.40 0.1316616
327.50 0.133426
327.60 0.1351905
327.70 0.1369549
327.80 0.1387194
327.90 0.1404839
328.00 0.1422484
328.10 0.1440128
328.20 0.1457773
328.30 0.1475418
328.40 0.1493061
328.50 0.1510704
328.60 0.1528345
328.70 0.1545725
328.80 0.1561815
328.90 0.1574638
329.00 0.1582019
329.10 0.1582994
329.20 0.1578528
329.30 0.1570794
329.40 0.1561771
329.50 0.1552487
329.60 0.1543201
329.70 0.1533913
329.80 0.1524625
329.90 0.1515337
330.00 0.1506049
330.10 0.1496761
330.20 0.1487472
330.30 0.1478184
330.40 0.1468897
330.50 0.145961
330.60 0.1450325
330.70 0.1441233
330.80 0.1433098
330.90 0.1427386
331.00 0.1425712
331.10 0.1428789
331.20 0.1435903
331.30 0.1445441
331.40 0.1455935
331.50 0.1466623
331.60 0.1477312
331.70 0.1488002
331.80 0.1498693
331.90 0.1509384
332.00 0.1520075
332.10 0.1530766
332.20 0.1541456
332.30 0.1552147
332.40 0.1562838
332.50 0.1573527
332.60 0.1584216
332.70 0.1594783
332.80 0.1604744
332.90 0.161317
333.00 0.161904
333.10 0.1621902
333.20 0.1622208
333.30 0.1620979
333.40 0.1619145
333.50 0.1617188
333.60 0.161523
333.70 0.1613272
333.80 0.1611313
333.90 0.1609354
334.00 0.1607395
334.10 0.1605437
334.20 0.1603479
334.30 0.1601523
334.40 0.1599568
334.50 0.1597615
334.60 0.1597289
334.70 0.1602274
334.80 0.1613991
334.90 0.1625902
335.00 0.1625557
335.10 0.1609564
335.20 0.1597529
335.30 0.1626093
335.40 0.1720717
335.50 0.1866921
335.60 0.2008743
335.70 0.208128
335.80 0.2052552
335.90 0.1939333
336.00 0.1789261
336.10 0.1651388
336.20 0.155993
336.30 0.1529235
336.40 0.1547701
336.50 0.1579212
336.60 0.1584781
336.70 0.1554902
336.80 0.1521647
336.90 0.1533508
337.00 0.1613852
337.10 0.1738126
337.20 0.1847906
337.30 0.1891042
337.40 0.1858268
337.50 0.1788979
337.60 0.174111
337.70 0.1748156
337.80 0.1799507
337.90 0.1859892
338.00 0.1902344
338.10 0.1919439
338.20 0.1907266
338.30 0.1853015
338.40 0.1752332
338.50 0.1634967
338.60 0.156016
338.70 0.1574076
338.80 0.1666733
338.90 0.1775183
339.00 0.1834098
339.10 0.1829261
339.20 0.1806325
339.30 0.182591
339.40 0.1907776
339.50 0.2018014
339.60 0.210571
339.70 0.2145716
339.80 0.2145079
339.90 0.2117829
340.00 0.2069554
340.10 0.2006029
340.20 0.1940602
340.30 0.1883412
340.40 0.1827644
340.50 0.1756679
340.60 0.1666521
340.70 0.157506
340.80 0.1507906
340.90 0.1479627
341.00 0.1489251
341.10 0.1527882
341.20 0.158527
341.30 0.1649369
341.40 0.1705988
341.50 0.1744277
341.60 0.1763159
341.70 0.1771808
341.80 0.1782666
341.90 0.1802254
342.00 0.1825384
342.10 0.1836178
342.20 0.181773
342.30 0.1766322
342.40 0.1699084
342.50 0.1645317
342.60 0.1626812
342.70 0.1644261
342.80 0.1680099
342.90 0.1712368
343.00 0.172823
343.10 0.1729727
343.20 0.1729005
343.30 0.1736502
343.40 0.1751848
343.50 0.1766019
343.60 0.1770885
343.70 0.1764215
343.80 0.1747742
343.90 0.172554
344.00 0.1705059
344.10 0.1694913
344.20 0.1697352
344.30 0.1704466
344.40 0.1705131
344.50 0.1695656
344.60 0.1682783
344.70 0.1677777
344.80 0.1689249
344.90 0.1720239
345.00 0.1769133
345.10 0.1830881
345.20 0.1897259
345.30 0.1956882
345.40 0.1997031
345.50 0.2009778
345.60 0.1998601
345.70 0.1977809
345.80 0.1962755
345.90 0.1959103
346.00 0.1960293
346.10 0.1953285
346.20 0.1927661
346.30 0.1883826
346.40 0.1835642
346.50 0.1802366
346.60 0.1793342
346.70 0.1799878
346.80 0.180333
346.90 0.1790282
347.00 0.1759456
347.10 0.1719152
347.20 0.1683135
347.30 0.1666755
347.40 0.1679774
347.50 0.1718669
347.60 0.1768281
347.70 0.1813458
347.80 0.1849195
347.90 0.1880478
348.00 0.191441
348.10 0.195226
348.20 0.1986902
348.30 0.2007525
348.40 0.2008391
348.50 0.1993863
348.60 0.1973906
348.70 0.1955002
348.80 0.1937104
348.90 0.1918125
349.00 0.1898175
349.10 0.1879027
349.20 0.1862267
349.30 0.1850176
349.40 0.184684
349.50 0.1854866
349.60 0.187028
349.70 0.1883124
349.80 0.1886275
349.90 0.1885455
350.00 0.1898551
350.10 0.1941523
350.20 0.2013101
350.30 0.209318
350.40 0.2156535
350.50 0.2188764
350.60 0.2191028
350.70 0.2173312
350.80 0.2145931
350.90 0.2114657
351.00 0.2078473
351.10 0.2030052
351.20 0.1961487
351.30 0.1874472
351.40 0.178586
351.50 0.1719569
351.60 0.1689636
351.70 0.1690321
351.80 0.1702781
351.90 0.171077
352.00 0.1709717
352.10 0.1702917
352.20 0.16942
352.30 0.1686891
352.40 0.1688123
352.50 0.1710962
352.60 0.1767237
352.70 0.1855299
352.80 0.195535
352.90 0.2040495
353.00 0.2096535
353.10 0.2131043
353.20 0.2161742
353.30 0.219846
353.40 0.22388
353.50 0.227795
353.60 0.231689
353.70 0.2359331
353.80 0.2405209
353.90 0.2450448
354.00 0.2489716
354.10 0.2516088
354.20 0.2521215
354.30 0.2501762
354.40 0.2466628
354.50 0.2433925
354.60 0.2417445
354.70 0.2416492
354.80 0.2419704
354.90 0.2416976
355.00 0.240642
355.10 0.2392094
355.20 0.2378322
355.30 0.23671
355.40 0.2359396
355.50 0.2355627
355.60 0.2353426
355.70 0.2346166
355.80 0.2326048
355.90 0.2290581
356.00 0.2245548
356.10 0.22003
356.20 0.2159744
356.30 0.2120427
356.40 0.2074321
356.50 0.2017557
356.60 0.1956776
356.70 0.1906755
356.80 0.1880108
356.90 0.1877966
357.00 0.1890079
357.10 0.1902732
357.20 0.1905923
357.30 0.1895387
357.40 0.1871348
357.50 0.1837175
357.60 0.1798398
357.70 0.1760773
357.80 0.1727943
357.90 0.1700619
358.00 0.1678598
358.10 0.1664289
358.20 0.1663645
358.30 0.1682262
358.40 0.1719759
358.50 0.1767759
358.60 0.1813129
358.70 0.1843602
358.80 0.1852887
358.90 0.1843708
359.00 0.1827998
359.10 0.1822421
359.20 0.18392
359.30 0.1877593
359.40 0.1922912
359.50 0.1955721
359.60 0.1965007
359.70 0.1955019
359.80 0.1940449
359.90 0.1934014
360.00 0.1936354
360.10 0.1936058
360.20 0.1919405
360.30 0.1881389
360.40 0.182993
360.50 0.178192
360.60 0.1755395
360.70 0.1762355
360.80 0.1803359
360.90 0.1866259
361.00 0.1932168
361.10 0.1986211
361.20 0.2024564
361.30 0.2051539
361.40 0.2070872
361.50 0.2081754
361.60 0.2083985
361.70 0.2083571
361.80 0.2089455
361.90 0.2104444
362.00 0.2121854
362.10 0.2132517
362.20 0.2133207
362.30 0.2127564
362.40 0.2121687
362.50 0.2120671
362.60 0.212621
362.70 0.2133676
362.80 0.2132945
362.90 0.2116447
363.00 0.2087991
363.10 0.2061634
363.20 0.2050354
363.30 0.2056381
363.40 0.2072134
363.50 0.2088164
363.60 0.2099231
363.70 0.2104811
363.80 0.2105967
363.90 0.2102258
364.00 0.2090982
364.10 0.2069052
364.20 0.2036122
364.30 0.199633
364.40 0.1957421
364.50 0.1928233
364.60 0.1915277
364.70 0.1919107
364.80 0.1933534
364.90 0.1950306
365.00 0.1966645
365.10 0.1988051
365.20 0.2021516
365.30 0.2065113
365.40 0.2105453
365.50 0.2126955
365.60 0.2124695
365.70 0.2108136
365.80 0.2092005
365.90 0.2084351
366.00 0.2083525
366.10 0.2084893
366.20 0.2088135
366.30 0.2096614
366.40 0.2111198
366.50 0.2126881
366.60 0.2135405
366.70 0.21306
366.80 0.2111596
366.90 0.2082358
367.00 0.2049611
367.10 0.2020997
367.20 0.2003455
367.30 0.2001445
367.40 0.2015014
367.50 0.2039406
367.60 0.2067389
367.70 0.2093007
367.80 0.211406
367.90 0.2131701
368.00 0.2147989
368.10 0.2163407
368.20 0.2175996
368.30 0.2182308
368.40 0.2179645
368.50 0.2168598
368.60 0.21541
368.70 0.2143384
368.80 0.2141566
368.90 0.214853
369.00 0.2160344
369.10 0.2173891
369.20 0.2189008
369.30 0.2205544
369.40 0.2219628
369.50 0.2224629
369.60 0.22169
369.70 0.2200254
369.80 0.2184635
369.90 0.2180484
370.00 0.2193319
370.10 0.2221573
370.20 0.2258368
370.30 0.2295211
370.40 0.2324928
370.50 0.2342863
370.60 0.2347404
370.70 0.2341256
370.80 0.2331608
370.90 0.2326924
371.00 0.2331447
371.10 0.2341685
371.20 0.2347727
371.30 0.2338371
371.40 0.2307379
371.50 0.2257624
371.60 0.2200661
371.70 0.2151328
371.80 0.2120969
371.90 0.2113755
372.00 0.2127034
372.10 0.2152098
372.20 0.2173586
372.30 0.2172156
372.40 0.2133433
372.50 0.2059276
372.60 0.1971181
372.70 0.1900655
372.80 0.1873166
372.90 0.1896993
373.00 0.19626
373.10 0.2049564
373.20 0.2135042
373.30 0.2199954
373.40 0.2232799
373.50 0.2230484
373.60 0.2196209
373.70 0.2136421
373.80 0.2059436
373.90 0.1976211
374.00 0.1900474
374.10 0.1846349
374.20 0.1824759
374.30 0.18415
374.40 0.1897691
374.50 0.1990179
374.60 0.2110376
374.70 0.2242627
374.80 0.2365194
374.90 0.2455773
375.00 0.249914
375.10 0.2492053
375.20 0.2442715
375.30 0.2366509
375.40 0.2281274
375.50 0.2203555
375.60 0.2144674
375.70 0.2107689
375.80 0.2087588
375.90 0.2075448
376.00 0.2064637
376.10 0.2055678
376.20 0.2057304
376.30 0.2082834
376.40 0.2143685
376.50 0.2244447
376.60 0.238277
376.70 0.2550866
376.80 0.2734443
376.90 0.2909712
377.00 0.3045341
377.10 0.3113184
377.20 0.3101154
377.30 0.301791
377.40 0.2886485
377.50 0.2733404
377.60 0.2581093
377.70 0.24457
377.80 0.2336516
377.90 0.2255481
378.00 0.2198351
378.10 0.2158367
378.20 0.2130222
378.30 0.211105
378.40 0.2098862
378.50 0.2092021
378.60 0.2090787
378.70 0.2098181
378.80 0.211869
378.90 0.2157337
379.00 0.2221202
379.10 0.2320287
379.20 0.2463369
379.30 0.2650308
379.40 0.2867303
379.50 0.3088874
379.60 0.3283743
379.70 0.3421062
379.80 0.3477394
379.90 0.3444013
380.00 0.3331369
380.10 0.3166043
380.20 0.2980619
380.30 0.2802523
380.40 0.264825
380.50 0.2523777
380.60 0.2427801
380.70 0.2354524
380.80 0.2295715
380.90 0.2244287
381.00 0.219779
381.10 0.2158308
381.20 0.2128256
381.30 0.2106416
381.40 0.2089111
381.50 0.2075404
381.60 0.2069223
381.70 0.2074398
381.80 0.2087714
381.90 0.209828
382.00 0.2095545
382.10 0.2075606
382.20 0.2042241
382.30 0.2011999
382.40 0.20338
382.50 0.2152562
382.60 0.2377943
382.70 0.269011
382.80 0.3058409
382.90 0.3440283
383.00 0.3735912
383.10 0.384428
383.20 0.3756287
383.30 0.3511714
383.40 0.3187022
383.50 0.285575
383.60 0.2554143
383.70 0.2265289
383.80 0.1934474
383.90 0.1561798
384.00 0.1268819
384.10 0.118962
384.20 0.1329683
384.30 0.1606267
384.40 0.1970161
384.50 0.2366202
384.60 0.2650104
384.70 0.266384
384.80 0.2526993
384.90 0.2522966
385.00 0.2737752
385.10 0.2940077
385.20 0.2884924
385.30 0.2608649
385.40 0.2306328
385.50 0.2070176
385.60 0.1892588
385.70 0.1806208
385.80 0.1893233
385.90 0.214168
386.00 0.239208
386.10 0.2491845
386.20 0.2418068
386.30 0.2243672
386.40 0.2051279
386.50 0.1929531
386.60 0.2015794
386.70 0.2430295
386.80 0.3124342
386.90 0.3802748
387.00 0.4089133
387.10 0.3807946
387.20 0.3137933
387.30 0.2477015
387.40 0.2108085
387.50 0.1993299
387.60 0.1898693
387.70 0.1718021
387.80 0.1588799
387.90 0.1688031
388.00 0.1997248
388.10 0.2322557
388.20 0.2541145
388.30 0.2696191
388.40 0.2851037
388.50 0.2967441
388.60 0.2973085
388.70 0.2875163
388.80 0.2738955
388.90 0.260161
389.00 0.2463567
389.10 0.2351167
389.20 0.2275957
389.30 0.2188774
389.40 0.205176
389.50 0.190253
389.60 0.1816609
389.70 0.1846387
389.80 0.1926983
389.90 0.2037663
390.00 0.2177122
390.10 0.2306183
390.20 0.2424653
390.30 0.2525838
390.40 0.2633617
390.50 0.2817023
390.60 0.3041662
390.70 0.3195778
390.80 0.3203511
390.90 0.3090929
391.00 0.2939432
391.10 0.2802151
391.20 0.2716512
391.30 0.274629
391.40 0.3033082
391.50 0.3519051
391.60 0.3948246
391.70 0.4089984
391.80 0.3920772
391.90 0.3565058
392.00 0.3126005
392.10 0.2670688
392.20 0.2307567
392.30 0.2109238
392.40 0.2066993
392.50 0.2107248
392.60 0.2225265
392.70 0.2480277
392.80 0.2794477
392.90 0.2989661
393.00 0.3015476
393.10 0.3104477
393.20 0.3559235
393.30 0.4363297
393.40 0.5125811
393.50 0.5356956
393.60 0.485818
393.70 0.3911771
393.80 0.3062692
393.90 0.2687661
394.00 0.2724921
394.10 0.2818909
394.20 0.2699515
394.30 0.2379053
394.40 0.2098065
394.50 0.2024525
394.60 0.2156041
394.70 0.2359455
394.80 0.2515764
394.90 0.2579143
395.00 0.2639411
395.10 0.2761401
395.20 0.2880713
395.30 0.2882273
395.40 0.2795249
395.50 0.2783409
395.60 0.2951292
395.70 0.3199616
395.80 0.3316261
395.90 0.322929
396.00 0.3049978
396.10 0.2922065
396.20 0.286447
396.30 0.2823026
396.40 0.2823044
396.50 0.2945195
396.60 0.3251539
396.70 0.3717813
396.80 0.4213117
396.90 0.4570756
397.00 0.4657282
397.10 0.4459378
397.20 0.4127174
397.30 0.386778
397.40 0.3790128
397.50 0.3862942
397.60 0.3964728
397.70 0.3970071
397.80 0.3837734
397.90 0.3634919
398.00 0.3481482
398.10 0.3452893
398.20 0.3556345
398.30 0.3793709
398.40 0.4165821
398.50 0.4594081
398.60 0.4909631
398.70 0.4975251
398.80 0.476734
398.90 0.4409934
399.00 0.4049591
399.10 0.3818163
399.20 0.3787461
399.30 0.3928679
399.40 0.412888
399.50 0.4252535
399.60 0.4193058
399.70 0.3955383
399.80 0.3701763
399.90 0.362954
400.00 0.3782234
400.10 0.4013534
400.20 0.416615
400.30 0.4239129
400.40 0.4318696
400.50 0.4403108
400.60 0.4392571
400.70 0.4241093
400.80 0.4035083
400.90 0.3949889
401.00 0.4099459
401.10 0.4386576
401.20 0.4593567
401.30 0.4585097
401.40 0.4466601
401.50 0.4431127
401.60 0.4510614
401.70 0.4565601
401.80 0.4522953
401.90 0.4425931
402.00 0.4317865
402.10 0.4142231
402.20 0.3872898
402.30 0.3657218
402.40 0.3689853
402.50 0.395598
402.60 0.4201078
402.70 0.4197701
402.80 0.3971422
402.90 0.3715321
403.00 0.3554135
403.10 0.3438695
403.20 0.3246636
403.30 0.2949908
403.40 0.2665375
403.50 0.2567147
403.60 0.2755309
403.70 0.3193908
403.80 0.3758233
403.90 0.4298826
404.00 0.4693419
404.10 0.4867743
404.20 0.477372
404.30 0.4415212
404.40 0.389778
404.50 0.3417943
404.60 0.3161718
404.70 0.318422
404.80 0.3418698
404.90 0.3762748
405.00 0.4109538
405.10 0.4352254
405.20 0.4415029
405.30 0.4300068
405.40 0.408793
405.50 0.3876196
405.60 0.3713607
405.70 0.3599063
405.80 0.3523928
405.90 0.3526116
406.00 0.3665249
406.10 0.3930152
406.20 0.422944
406.30 0.4471429
406.40 0.4624673
406.50 0.4702243
406.60 0.4722658
406.70 0.4729144
406.80 0.4782267
406.90 0.4867377
407.00 0.4874822
407.10 0.4731993
407.20 0.4516161
407.30 0.4412681
407.40 0.4475735
407.50 0.4510289
407.60 0.4305942
407.70 0.385543
407.80 0.3384907
407.90 0.3152233
408.00 0.3226297
408.10 0.3472738
408.20 0.3718836
408.30 0.3885194
408.40 0.3978031
408.50 0.4008863
408.60 0.3977158
408.70 0.3903125
408.80 0.380672
408.90 0.366761
409.00 0.3471208
409.10 0.3302326
409.20 0.3303516
409.30 0.3515441
409.40 0.3827495
409.50 0.4075202
409.60 0.4165095
409.70 0.4114421
409.80 0.4025804
409.90 0.4035558
410.00 0.4206373
410.10 0.4453712
410.20 0.4624775
410.30 0.4643689
410.40 0.4543701
410.50 0.4381145
410.60 0.4184658
410.70 0.3987871
410.80 0.3910044
410.90 0.3986861
411.00 0.4118182
411.10 0.413437
411.20 0.3971209
411.30 0.3738606
411.40 0.3608155
411.50 0.3661139
411.60 0.3825924
411.70 0.4019853
411.80 0.422757
411.90 0.4428477
412.00 0.4558357
412.10 0.4533213
412.20 0.4323122
412.30 0.4022982
412.40 0.3808826
412.50 0.3804392
412.60 0.3997314
412.70 0.4250057
412.80 0.4406631
412.90 0.4388994
413.00 0.4213544
413.10 0.3958532
413.20 0.371854
413.30 0.3568868
413.40 0.3551425
413.50 0.3657413
413.60 0.3824297
413.70 0.3980393
413.80 0.4082393
413.90 0.4115512
414.00 0.407052
414.10 0.3952855
414.20 0.379862
414.30 0.3704197
414.40 0.3699713
414.50 0.3740175
414.60 0.3779629
414.70 0.3831119
414.80 0.3921251
414.90 0.4073135
415.00 0.4247866
415.10 0.4337048
415.20 0.4272281
415.30 0.4113118
415.40 0.4004179
415.50 0.4058336
415.60 0.4219089
415.70 0.4304986
415.80 0.4201951
415.90 0.3968582
416.00 0.3748008
416.10 0.3646249
416.20 0.3689696
416.30 0.3877005
