# Version 2.1 - nm, norm@500 to 1, cut digits
# Wavelength(nm)  Flambda(ergs/cm^s/s/nm)
300.00 0.008815999
300.10 0.01172507
300.20 0.01349348
300.30 0.01422059
300.40 0.01440686
300.50 0.01445889
300.60 0.01451242
300.70 0.01456759
300.80 0.0146263
300.90 0.01469266
301.00 0.01477133
301.10 0.01486438
301.20 0.01496963
301.30 0.01508221
301.40 0.01519765
301.50 0.01531364
301.60 0.01542962
301.70 0.01554559
301.80 0.01566155
301.90 0.01577751
302.00 0.01589348
302.10 0.01600944
302.20 0.0161254
302.30 0.01624136
302.40 0.01635732
302.50 0.01647327
302.60 0.0165892
302.70 0.01670556
302.80 0.0168241
302.90 0.01694819
303.00 0.01708155
303.10 0.01722582
303.20 0.01737937
303.30 0.01753847
303.40 0.01769974
303.50 0.01786144
303.60 0.01802312
303.70 0.0181848
303.80 0.01834647
303.90 0.01850815
304.00 0.01866982
304.10 0.01883149
304.20 0.01899316
304.30 0.01915484
304.40 0.01931653
304.50 0.01947824
304.60 0.01963999
304.70 0.01980044
304.80 0.01995425
304.90 0.02009106
305.00 0.02019953
305.10 0.0202746
305.20 0.02032132
305.30 0.02035106
305.40 0.02037414
305.50 0.02039593
305.60 0.02041776
305.70 0.02043961
305.80 0.02046147
305.90 0.02048333
306.00 0.0205052
306.10 0.02052707
306.20 0.02054893
306.30 0.0205708
306.40 0.02059266
306.50 0.02061453
306.60 0.02063639
306.70 0.02065826
306.80 0.02068015
306.90 0.02070207
307.00 0.02072405
307.10 0.0207461
307.20 0.02076822
307.30 0.02079037
307.40 0.02081254
307.50 0.02083471
307.60 0.02085688
307.70 0.02087904
307.80 0.02090121
307.90 0.02092338
308.00 0.02094555
308.10 0.02096772
308.20 0.02098989
308.30 0.02101205
308.40 0.02103417
308.50 0.02105625
308.60 0.02107823
308.70 0.02110345
308.80 0.02114531
308.90 0.02122969
309.00 0.02138502
309.10 0.02162393
309.20 0.02193379
309.30 0.02228616
309.40 0.02265519
309.50 0.02302744
309.60 0.02339961
309.70 0.02377172
309.80 0.0241438
309.90 0.02451587
310.00 0.02488794
310.10 0.02526001
310.20 0.02563209
310.30 0.02600417
310.40 0.02637628
310.50 0.02674844
310.60 0.0271207
310.70 0.02748971
310.80 0.02784198
310.90 0.02815151
311.00 0.02838972
311.10 0.02854391
311.20 0.02862677
311.30 0.0286669
311.40 0.02869029
311.50 0.02871042
311.60 0.02873065
311.70 0.02875094
311.80 0.02877125
311.90 0.02879157
312.00 0.0288119
312.10 0.02883223
312.20 0.02885255
312.30 0.02887286
312.40 0.02889313
312.50 0.02891334
312.60 0.02893344
312.70 0.02895754
312.80 0.02900232
312.90 0.02909988
313.00 0.02928554
313.10 0.02957496
313.20 0.02995247
313.30 0.03038277
313.40 0.03083373
313.50 0.03128872
313.60 0.03174358
313.70 0.03219838
313.80 0.03265315
313.90 0.0331079
314.00 0.03356265
314.10 0.0340174
314.20 0.03447214
314.30 0.03492688
314.40 0.03538159
314.50 0.03583626
314.60 0.03629084
314.70 0.03674823
314.80 0.03721999
314.90 0.03772851
315.00 0.03829834
315.10 0.0389404
315.20 0.03964379
315.30 0.04038392
315.40 0.04113843
315.50 0.04189574
315.60 0.04265297
315.70 0.04341016
315.80 0.04416732
315.90 0.04492447
316.00 0.04568161
316.10 0.04643876
316.20 0.04719592
316.30 0.04795311
316.40 0.04871039
316.50 0.04946784
316.60 0.05022558
316.70 0.05097306
316.80 0.05166764
316.90 0.05222716
317.00 0.05256129
317.10 0.05262989
317.20 0.0524731
317.30 0.05218124
317.40 0.0518365
317.50 0.05148148
317.60 0.05112676
317.70 0.05077221
317.80 0.05041774
317.90 0.05006332
318.00 0.0497089
318.10 0.04935448
318.20 0.04900005
318.30 0.0486456
318.40 0.04829108
318.50 0.04793643
318.60 0.04758155
318.70 0.04723454
318.80 0.04692801
318.90 0.04672487
319.00 0.04669427
319.10 0.04686692
319.20 0.04721211
319.30 0.0476607
319.40 0.04814976
319.50 0.04864669
319.60 0.0491434
319.70 0.04963997
319.80 0.05013648
319.90 0.05063296
320.00 0.05112943
320.10 0.05162591
320.20 0.05212238
320.30 0.05261887
320.40 0.05311538
320.50 0.05361194
320.60 0.05410858
320.70 0.05460231
320.80 0.05508107
320.90 0.0555216
321.00 0.0558983
321.10 0.05619984
321.20 0.05643756
321.30 0.05663705
321.40 0.05682155
321.50 0.05700316
321.60 0.05718484
321.70 0.05736657
321.80 0.05754833
321.90 0.0577301
322.00 0.05791187
322.10 0.05809364
322.20 0.0582754
322.30 0.05845713
322.40 0.05863876
322.50 0.05882022
322.60 0.05900137
322.70 0.05919315
322.80 0.05943962
322.90 0.05982576
323.00 0.06044499
323.10 0.06133881
323.20 0.0624657
323.30 0.06373228
323.40 0.06505355
323.50 0.06638544
323.60 0.06771702
323.70 0.06904843
323.80 0.07037975
323.90 0.07171103
324.00 0.0730423
324.10 0.07437358
324.20 0.07570485
324.30 0.07703613
324.40 0.07836743
324.50 0.07969875
324.60 0.08103013
324.70 0.08235977
324.80 0.08368054
324.90 0.08497861
325.00 0.08623882
325.10 0.08745443
325.20 0.08863218
325.30 0.08978724
325.40 0.09093341
325.50 0.09207786
325.60 0.09322235
325.70 0.09436688
325.80 0.09551142
325.90 0.09665596
326.00 0.09780051
326.10 0.09894506
326.20 0.1000896
326.30 0.1012341
326.40 0.1023786
326.50 0.1035231
326.60 0.1046674
326.70 0.1058155
326.80 0.1069827
326.90 0.1081988
327.00 0.1094965
327.10 0.1108903
327.20 0.1123657
327.30 0.1138901
327.40 0.1154336
327.50 0.1169808
327.60 0.1185279
327.70 0.120075
327.80 0.121622
327.90 0.123169
328.00 0.124716
328.10 0.126263
328.20 0.12781
328.30 0.1293571
328.40 0.1309044
328.50 0.132452
328.60 0.1340003
328.70 0.1355268
328.80 0.1369408
328.90 0.138068
329.00 0.1387164
329.10 0.1388007
329.20 0.1384062
329.30 0.1377247
329.40 0.1369309
329.50 0.1361153
329.60 0.1353003
329.70 0.1344857
329.80 0.1336713
329.90 0.1328569
330.00 0.1320425
330.10 0.1312282
330.20 0.1304138
330.30 0.1295994
330.40 0.1287849
330.50 0.1279701
330.60 0.1271548
330.70 0.1263557
330.80 0.1256399
330.90 0.125137
331.00 0.1249893
331.10 0.12526
331.20 0.1258859
331.30 0.1267246
331.40 0.1276467
331.50 0.1285849
331.60 0.1295227
331.70 0.1304602
331.80 0.1313976
331.90 0.132335
332.00 0.1332723
332.10 0.1342096
332.20 0.1351469
332.30 0.1360843
332.40 0.1370217
332.50 0.1379594
332.60 0.1388973
332.70 0.1398249
332.80 0.1406998
332.90 0.14144
333.00 0.1419552
333.10 0.1422055
333.20 0.142231
333.30 0.1421217
333.40 0.1419596
333.50 0.1417873
333.60 0.1416152
333.70 0.1414434
333.80 0.1412716
333.90 0.1410998
334.00 0.1409281
334.10 0.1407563
334.20 0.1405841
334.30 0.1404116
334.40 0.1402387
334.50 0.1400655
334.60 0.1400359
334.70 0.1404752
334.80 0.1415081
334.90 0.1425548
335.00 0.1425128
335.10 0.1410805
335.20 0.1399907
335.30 0.1424846
335.40 0.150817
335.50 0.1637126
335.60 0.1762295
335.70 0.1826339
335.80 0.1801004
335.90 0.1701115
336.00 0.1568757
336.10 0.1447244
336.20 0.136677
336.30 0.1339969
336.40 0.1356548
336.50 0.1384551
336.60 0.1389508
336.70 0.1363019
336.80 0.133346
336.90 0.1343729
337.00 0.1414513
337.10 0.1524132
337.20 0.1620957
337.30 0.1658899
337.40 0.162977
337.50 0.1568397
337.60 0.1525987
337.70 0.1532146
337.80 0.1577492
337.90 0.1630851
338.00 0.1668395
338.10 0.1683577
338.20 0.1672942
338.30 0.1625152
338.40 0.1536328
338.50 0.1432735
338.60 0.1366711
338.70 0.1379046
338.80 0.1460903
338.90 0.1556632
339.00 0.1608489
339.10 0.1603926
339.20 0.1583325
339.30 0.1600305
339.40 0.1672357
339.50 0.1769526
339.60 0.1846821
339.70 0.1882032
339.80 0.1881412
339.90 0.1857377
340.00 0.1814871
340.10 0.1758988
340.20 0.1701512
340.30 0.1651379
340.40 0.1602535
340.50 0.154025
340.60 0.146096
340.70 0.1380451
340.80 0.1321341
340.90 0.1296489
341.00 0.1305032
341.10 0.1339114
341.20 0.1389693
341.30 0.144615
341.40 0.1495967
341.50 0.1529578
341.60 0.1546057
341.70 0.155353
341.80 0.156301
341.90 0.1580268
342.00 0.1600719
342.10 0.161032
342.20 0.1594111
342.30 0.1548788
342.40 0.1489475
342.50 0.1442056
342.60 0.1425778
342.70 0.1441246
342.80 0.1472925
342.90 0.1501411
343.00 0.1515365
343.10 0.1516607
343.20 0.1515892
343.30 0.1522459
343.40 0.1535987
343.50 0.1548499
343.60 0.1552808
343.70 0.1546937
343.80 0.1532415
343.90 0.1512839
344.00 0.1494788
344.10 0.1485874
344.20 0.1488079
344.30 0.1494406
344.40 0.1495011
344.50 0.1486621
344.60 0.147519
344.70 0.1470667
344.80 0.148066
344.90 0.1507858
345.00 0.1550845
345.10 0.1605172
345.20 0.1663591
345.30 0.1716062
345.40 0.1751358
345.50 0.1762483
345.60 0.1752518
345.70 0.1734112
345.80 0.1720831
345.90 0.1717675
346.00 0.1718836
346.10 0.1712773
346.20 0.1690267
346.30 0.1651667
346.40 0.1609223
346.50 0.1579956
346.60 0.1572125
346.70 0.1578044
346.80 0.1581231
346.90 0.1569819
347.00 0.1542674
347.10 0.1507124
347.20 0.1475327
347.30 0.1460843
347.40 0.1472292
347.50 0.150656
347.60 0.1550249
347.70 0.1589975
347.80 0.1621334
347.90 0.1648752
348.00 0.1678529
348.10 0.1711803
348.20 0.1742286
348.30 0.1760425
348.40 0.1761147
348.50 0.1748309
348.60 0.1730715
348.70 0.1714086
348.80 0.1698368
348.90 0.1681703
349.00 0.1664176
349.10 0.1647344
349.20 0.1632604
349.30 0.1621966
349.40 0.1619041
349.50 0.1626132
349.60 0.1639721
349.70 0.1651
349.80 0.1653662
349.90 0.1652767
350.00 0.1664131
350.10 0.1701875
350.20 0.1764893
350.30 0.1835435
350.40 0.1891225
350.50 0.1919557
350.60 0.1921478
350.70 0.1905831
350.80 0.188174
350.90 0.1854301
351.00 0.1822603
351.10 0.1780144
351.20 0.1719907
351.30 0.1643359
351.40 0.1565375
351.50 0.1507077
351.60 0.1480865
351.70 0.1481659
351.80 0.1492802
351.90 0.1499939
352.00 0.1499038
352.10 0.1493012
352.20 0.1485245
352.30 0.1478666
352.40 0.1479574
352.50 0.1499514
352.60 0.1548947
352.70 0.1626428
352.80 0.1714475
352.90 0.178933
353.00 0.1838463
353.10 0.1868582
353.20 0.1895364
353.30 0.1927494
353.40 0.1962847
353.50 0.199716
353.60 0.2031297
353.70 0.2068544
353.80 0.2108854
353.90 0.2148633
354.00 0.2183183
354.10 0.2206388
354.20 0.221087
354.30 0.2193671
354.40 0.216265
354.50 0.2133806
354.60 0.2119318
354.70 0.2118561
354.80 0.2121481
354.90 0.2119143
355.00 0.2109877
355.10 0.2097276
355.20 0.2085163
355.30 0.2075309
355.40 0.2068574
355.50 0.2065334
355.60 0.20635
355.70 0.205722
355.80 0.2039604
355.90 0.2008454
356.00 0.1968884
356.10 0.1929156
356.20 0.1893603
356.30 0.185916
356.40 0.1818714
356.50 0.1768829
356.60 0.1715361
356.70 0.1671365
356.80 0.1647988
356.90 0.1646235
357.00 0.1657051
357.10 0.1668328
357.20 0.1671241
357.30 0.1662034
357.40 0.1640915
357.50 0.1610862
357.60 0.1576759
357.70 0.1543681
357.80 0.151483
357.90 0.1490814
358.00 0.1471438
358.10 0.1458821
358.20 0.1458223
358.30 0.14746
358.40 0.150763
358.50 0.1549923
358.60 0.1589887
358.70 0.161669
358.80 0.1624775
358.90 0.161655
359.00 0.1602559
359.10 0.1597527
359.20 0.1612259
359.30 0.1646095
359.40 0.1686056
359.50 0.1714966
359.60 0.1723099
359.70 0.1714223
359.80 0.1701334
359.90 0.1695681
360.00 0.1697828
360.10 0.169768
360.20 0.1683093
360.30 0.1649622
360.40 0.1604247
360.50 0.1561879
360.60 0.1538443
360.70 0.1544539
360.80 0.1580658
360.90 0.1636073
361.00 0.1694107
361.10 0.1741633
361.20 0.1775296
361.30 0.1798927
361.40 0.181584
361.50 0.182532
361.60 0.1827183
361.70 0.1826732
361.80 0.1831867
361.90 0.1845063
362.00 0.1860409
362.10 0.1869797
362.20 0.1870376
362.30 0.1865368
362.40 0.1860165
362.50 0.1859273
362.60 0.1864193
362.70 0.1870831
362.80 0.1870234
362.90 0.1855704
363.00 0.1830601
363.10 0.1807345
363.20 0.1797404
363.30 0.1802745
363.40 0.1816669
363.50 0.1830827
363.60 0.1840595
363.70 0.1845528
363.80 0.1846575
363.90 0.1843355
364.00 0.1833483
364.10 0.1814223
364.20 0.1785258
364.30 0.1750232
364.40 0.1715975
364.50 0.1690286
364.60 0.1678905
364.70 0.1682315
364.80 0.1695039
364.90 0.1709786
365.00 0.1724108
365.10 0.1742883
365.20 0.1772309
365.30 0.18107
365.40 0.1846233
365.50 0.1865142
365.60 0.1863077
365.70 0.18484
365.80 0.1834125
365.90 0.1827358
366.00 0.1826628
366.10 0.1827829
366.20 0.1830679
366.30 0.1838154
366.40 0.185103
366.50 0.1864891
366.60 0.1872448
366.70 0.1868249
366.80 0.1851522
366.90 0.1825763
367.00 0.1796905
367.10 0.1771686
367.20 0.1756227
367.30 0.1754461
367.40 0.1766426
367.50 0.1787919
367.60 0.1812554
367.70 0.1835079
367.80 0.1853562
367.90 0.1869034
368.00 0.1883326
368.10 0.1896873
368.20 0.1907945
368.30 0.1913492
368.40 0.1911127
368.50 0.1901362
368.60 0.1888552
368.70 0.1879079
368.80 0.1877463
368.90 0.1883595
369.00 0.1893998
369.10 0.1905922
369.20 0.1919232
369.30 0.1933802
369.40 0.1946215
369.50 0.1950611
369.60 0.194376
369.70 0.1929023
369.80 0.1915181
369.90 0.1911455
370.00 0.192272
370.10 0.1947592
370.20 0.1979997
370.30 0.2012439
370.40 0.2038587
370.50 0.2054337
370.60 0.205827
370.70 0.2052779
370.80 0.204422
370.90 0.2040076
371.00 0.2044102
371.10 0.2053213
371.20 0.205865
371.30 0.2050511
371.40 0.2023276
371.50 0.1979469
371.60 0.1929293
371.70 0.1885848
371.80 0.1859152
371.90 0.1852892
372.00 0.1864732
372.10 0.1886993
372.20 0.1906115
372.30 0.1905007
372.40 0.1870957
372.50 0.1805593
372.60 0.1727885
372.70 0.1665654
372.80 0.1641386
372.90 0.1662387
373.00 0.1720235
373.10 0.1796904
373.20 0.1872244
373.30 0.1929438
373.40 0.1958365
373.50 0.1956317
373.60 0.1926133
373.70 0.1873494
373.80 0.1805717
373.90 0.1732433
374.00 0.1665725
374.10 0.1618027
374.20 0.1598955
374.30 0.1613611
374.40 0.1662988
374.50 0.1744327
374.60 0.1850082
374.70 0.1966476
374.80 0.2074356
374.90 0.215406
375.00 0.2192169
375.10 0.2185833
375.20 0.2142297
375.30 0.2075132
375.40 0.2000068
375.50 0.1931689
375.60 0.1879959
375.70 0.1847549
375.80 0.1830001
375.90 0.1819407
376.00 0.1809887
376.10 0.1801886
376.20 0.1803107
376.30 0.1825312
376.40 0.1878588
376.50 0.1967006
376.60 0.2088521
376.70 0.2236304
376.80 0.2397795
376.90 0.2552046
377.00 0.2671433
377.10 0.2731128
377.20 0.2720474
377.30 0.2647121
377.40 0.2531395
377.50 0.2396684
377.60 0.2262744
377.70 0.2143779
377.80 0.2047943
377.90 0.1976913
378.00 0.192691
378.10 0.1891958
378.20 0.1867368
378.30 0.1850617
378.40 0.1839956
378.50 0.1833937
378.60 0.1832784
378.70 0.1839153
378.80 0.1856986
378.90 0.1890704
379.00 0.1946548
379.10 0.2033363
379.20 0.215893
379.30 0.2323177
379.40 0.2513974
379.50 0.2708887
379.60 0.2880355
379.70 0.3001189
379.80 0.3050727
379.90 0.3021272
380.00 0.2922044
380.10 0.2776494
380.20 0.2613353
380.30 0.2456783
380.40 0.232129
380.50 0.2212096
380.60 0.212801
380.70 0.2063884
380.80 0.2012442
380.90 0.1967428
381.00 0.1926688
381.10 0.1892078
381.20 0.1865745
381.30 0.1846618
381.40 0.1831453
381.50 0.1819431
381.60 0.1813738
381.70 0.1817417
381.80 0.1827436
381.90 0.1833934
382.00 0.1827141
382.10 0.1816033
382.20 0.1831125
382.30 0.1939568
382.40 0.2144352
382.50 0.2371013
382.60 0.2553665
382.70 0.2698531
382.80 0.2891414
382.90 0.320964
383.00 0.3671925
383.10 0.4137388
383.20 0.4399043
383.30 0.446
383.40 0.4407451
383.50 0.4297331
383.60 0.4105507
383.70 0.3794136
383.80 0.3380986
383.90 0.298857
384.00 0.2816926
384.10 0.2969092
384.20 0.3277164
384.30 0.3400071
384.40 0.3159573
384.50 0.2706947
384.60 0.2268575
384.70 0.2079713
384.80 0.2209547
384.90 0.2650927
385.00 0.3223107
385.10 0.361435
385.20 0.3625686
385.30 0.3339511
385.40 0.2986713
385.50 0.2729898
385.60 0.2623531
385.70 0.2657544
385.80 0.2753687
385.90 0.2789506
386.00 0.2693417
386.10 0.250508
386.20 0.2293806
386.30 0.205763
386.40 0.1774472
386.50 0.1524597
386.60 0.14811
386.70 0.1764278
386.80 0.2311422
386.90 0.2894159
387.00 0.3275819
387.10 0.3358557
387.20 0.3232799
387.30 0.3091436
387.40 0.3059036
387.50 0.3074065
387.60 0.2960516
387.70 0.2648071
387.80 0.2278394
387.90 0.205411
388.00 0.2030171
388.10 0.2104999
388.20 0.219168
388.30 0.2275098
388.40 0.2325129
388.50 0.2328007
388.60 0.2403815
388.70 0.2741076
388.80 0.3341948
388.90 0.3921598
389.00 0.4158184
389.10 0.399336
389.20 0.3596015
389.30 0.3141886
389.40 0.2703019
389.50 0.2304321
389.60 0.1993949
389.70 0.1733513
389.80 0.1654231
389.90 0.1782853
390.00 0.2086376
390.10 0.2477116
390.20 0.2704161
390.30 0.274785
390.40 0.2756672
390.50 0.2761136
390.60 0.2799533
390.70 0.2884415
390.80 0.2984805
390.90 0.3009315
391.00 0.2873448
391.10 0.2598226
391.20 0.2325043
391.30 0.2334351
391.40 0.2575824
391.50 0.2916949
391.60 0.3179276
391.70 0.3222561
391.80 0.3027433
391.90 0.2695208
392.00 0.2363556
392.10 0.2154079
392.20 0.2103401
392.30 0.218492
392.40 0.2247321
392.50 0.2255065
392.60 0.231663
392.70 0.2495772
392.80 0.2791477
392.90 0.30952
393.00 0.3444615
393.10 0.4035657
393.20 0.5021775
393.30 0.624543
393.40 0.7060532
393.50 0.6846461
393.60 0.5636729
393.70 0.4121395
393.80 0.3042626
393.90 0.2655643
394.00 0.2708999
394.10 0.2795367
394.20 0.2675867
394.30 0.2415973
394.40 0.2119753
394.50 0.1962425
394.60 0.2012351
394.70 0.2200583
394.80 0.2332676
394.90 0.2384505
395.00 0.2379883
395.10 0.2385697
395.20 0.2403819
395.30 0.2402773
395.40 0.2400587
395.50 0.2523021
395.60 0.2743729
395.70 0.282233
395.80 0.2657414
395.90 0.2344142
396.00 0.2089949
396.10 0.1979561
396.20 0.1956184
396.30 0.2029391
396.40 0.2285557
396.50 0.2881886
396.60 0.3899492
396.70 0.5219479
396.80 0.6504188
396.90 0.7286841
397.00 0.7218524
397.10 0.6330301
397.20 0.5075116
397.30 0.4040097
397.40 0.3575758
397.50 0.3603486
397.60 0.3789123
397.70 0.3870417
397.80 0.3806818
397.90 0.3675853
398.00 0.3549474
398.10 0.3470167
398.20 0.349165
398.30 0.3649002
398.40 0.3892736
398.50 0.4100196
398.60 0.4165937
398.70 0.4068597
398.80 0.3883342
398.90 0.3614056
399.00 0.3413076
399.10 0.3481757
399.20 0.3892307
399.30 0.4474228
399.40 0.4918604
399.50 0.5000761
399.60 0.4707023
399.70 0.4183983
399.80 0.3663099
399.90 0.3372063
400.00 0.3361826
400.10 0.349311
400.20 0.3594182
400.30 0.3617658
400.40 0.3618692
400.50 0.3642582
400.60 0.3681044
400.70 0.3691471
400.80 0.373539
400.90 0.3899603
401.00 0.4092458
401.10 0.4138655
401.20 0.3938182
401.30 0.365318
401.40 0.3515579
401.50 0.359486
401.60 0.3753867
401.70 0.384933
401.80 0.3796611
401.90 0.3700158
402.00 0.3667577
402.10 0.3701254
402.20 0.3762624
402.30 0.3844695
402.40 0.3939119
402.50 0.3995219
402.60 0.3945739
402.70 0.3755096
402.80 0.3442481
402.90 0.3075074
403.00 0.2760008
403.10 0.2583341
403.20 0.2523808
403.30 0.2492089
403.40 0.2468383
403.50 0.254633
403.60 0.2805516
403.70 0.3207399
403.80 0.3614332
403.90 0.3939906
404.00 0.4217209
404.10 0.4500147
404.20 0.4766869
404.30 0.4874067
404.40 0.4660104
404.50 0.4118873
404.60 0.3468736
404.70 0.299777
404.80 0.2841021
404.90 0.2916572
405.00 0.3039334
405.10 0.3090483
405.20 0.3091745
405.30 0.3129709
405.40 0.323525
405.50 0.3359887
405.60 0.344311
405.70 0.3483769
405.80 0.3523467
405.90 0.3571969
406.00 0.3602639
406.10 0.3584319
406.20 0.3523049
406.30 0.3481098
406.40 0.3543586
406.50 0.3728226
406.60 0.3940379
406.70 0.4012544
406.80 0.3837326
406.90 0.3459157
407.00 0.3047626
407.10 0.2785628
407.20 0.2774698
407.30 0.2926484
407.40 0.3061387
407.50 0.3090198
407.60 0.2979063
407.70 0.2825927
407.80 0.2755256
407.90 0.2812846
408.00 0.2964634
408.10 0.3178069
408.20 0.3447767
408.30 0.3729623
408.40 0.3907795
408.50 0.3898664
408.60 0.3768453
408.70 0.3672182
408.80 0.3657123
408.90 0.3608984
409.00 0.3442659
409.10 0.3264873
409.20 0.3273684
409.30 0.3520213
409.40 0.3836897
409.50 0.4014428
409.60 0.3975421
409.70 0.3804381
409.80 0.3690017
409.90 0.3838847
410.00 0.4335945
410.10 0.5022188
410.20 0.5535929
410.30 0.5567
410.40 0.508965
410.50 0.4351217
410.60 0.3668068
410.70 0.3287519
410.80 0.3152986
410.90 0.3191106
411.00 0.3302191
411.10 0.3391013
411.20 0.3411735
411.30 0.3378682
411.40 0.3335393
411.50 0.3309361
411.60 0.3357837
411.70 0.34493
411.80 0.352289
411.90 0.3607681
412.00 0.3706396
412.10 0.3756443
412.20 0.3685481
412.30 0.352902
412.40 0.3414775
412.50 0.3433545
412.60 0.3555691
412.70 0.3684177
412.80 0.3758514
412.90 0.3761215
413.00 0.3666007
413.10 0.3455289
413.20 0.3172776
413.30 0.2913341
413.40 0.2732162
413.50 0.2601055
413.60 0.2474346
413.70 0.2368753
413.80 0.2351293
413.90 0.2464184
414.00 0.2674546
414.10 0.2885562
414.20 0.3054671
414.30 0.3068323
414.40 0.293697
414.50 0.2762493
414.60 0.267364
414.70 0.2727304
414.80 0.291804
414.90 0.3111077
415.00 0.3223758
415.10 0.3325263
415.20 0.3460356
415.30 0.3564527
415.40 0.3607261
415.50 0.3583996
415.60 0.3480254
415.70 0.3272179
415.80 0.2986554
415.90 0.2740927
416.00 0.2680193
416.10 0.2827661
416.20 0.3101501
