# Version 2.1 - nm, norm@500 to 1, cut digits
# Wavelength(nm)  Flambda(ergs/cm^s/s/nm)
300.00 0.008395532
300.10 0.01116756
300.20 0.01285186
300.30 0.01354335
300.40 0.01371946
300.50 0.01376801
300.60 0.01381839
300.70 0.01387062
300.80 0.01392638
300.90 0.01398952
301.00 0.01406442
301.10 0.01415302
301.20 0.01425326
301.30 0.01436046
301.40 0.01447039
301.50 0.01458084
301.60 0.01469128
301.70 0.0148017
301.80 0.01491211
301.90 0.01502253
302.00 0.01513294
302.10 0.01524335
302.20 0.01535377
302.30 0.01546418
302.40 0.01557458
302.50 0.01568498
302.60 0.01579536
302.70 0.01590615
302.80 0.01601899
302.90 0.01613713
303.00 0.01626411
303.10 0.01640148
303.20 0.01654769
303.30 0.01669919
303.40 0.01685276
303.50 0.01700673
303.60 0.01716068
303.70 0.01731462
303.80 0.01746856
303.90 0.01762249
304.00 0.01777643
304.10 0.01793036
304.20 0.0180843
304.30 0.01823824
304.40 0.0183922
304.50 0.01854618
304.60 0.01870021
304.70 0.01885302
304.80 0.0189995
304.90 0.01912981
305.00 0.0192331
305.10 0.01930456
305.20 0.01934901
305.30 0.01937729
305.40 0.01939923
305.50 0.01941996
305.60 0.01944073
305.70 0.01946153
305.80 0.01948235
305.90 0.01950316
306.00 0.01952398
306.10 0.0195448
306.20 0.01956562
306.30 0.01958644
306.40 0.01960726
306.50 0.01962808
306.60 0.0196489
306.70 0.01966972
306.80 0.01969056
306.90 0.01971143
307.00 0.01973236
307.10 0.01975336
307.20 0.01977441
307.30 0.01979551
307.40 0.01981661
307.50 0.01983772
307.60 0.01985883
307.70 0.01987994
307.80 0.01990105
307.90 0.01992216
308.00 0.01994326
308.10 0.01996437
308.20 0.01998548
308.30 0.02000657
308.40 0.02002763
308.50 0.02004862
308.60 0.0200695
308.70 0.02009343
308.80 0.02013319
308.90 0.02021344
309.00 0.0203613
309.10 0.02058881
309.20 0.02088394
309.30 0.02121955
309.40 0.021571
309.50 0.02192549
309.60 0.02227987
309.70 0.02263419
309.80 0.02298847
309.90 0.02334274
310.00 0.023697
310.10 0.02405127
310.20 0.02440554
310.30 0.02475982
310.40 0.02511413
310.50 0.02546852
310.60 0.02582301
310.70 0.02617444
310.80 0.02650996
310.90 0.02680477
311.00 0.02703162
311.10 0.02717839
311.20 0.0272572
311.30 0.0272953
311.40 0.02731749
311.50 0.02733661
311.60 0.02735585
311.70 0.02737515
311.80 0.02739449
311.90 0.02741384
312.00 0.02743319
312.10 0.02745254
312.20 0.02747189
312.30 0.02749123
312.40 0.02751052
312.50 0.02752973
312.60 0.0275488
312.70 0.02757165
312.80 0.02761416
312.90 0.02770694
313.00 0.02788367
313.10 0.02815929
313.20 0.02851884
313.30 0.02892868
313.40 0.02935816
313.50 0.02979144
313.60 0.03022457
313.70 0.03065762
313.80 0.03109063
313.90 0.03152362
314.00 0.0319566
314.10 0.03238959
314.20 0.03282258
314.30 0.03325555
314.40 0.0336885
314.50 0.03412138
314.60 0.03455417
314.70 0.0349896
314.80 0.0354387
314.90 0.03592281
315.00 0.03646534
315.10 0.03707671
315.20 0.03774651
315.30 0.03845131
315.40 0.03916979
315.50 0.03989091
315.60 0.04061193
315.70 0.04133289
315.80 0.04205382
315.90 0.04277474
316.00 0.04349565
316.10 0.04421657
316.20 0.0449375
316.30 0.04565847
316.40 0.04637954
316.50 0.04710083
316.60 0.04782247
316.70 0.04853443
316.80 0.0491961
316.90 0.04972913
317.00 0.05004738
317.10 0.05011259
317.20 0.04996302
317.30 0.0496848
317.40 0.0493563
317.50 0.04901811
317.60 0.04868028
317.70 0.04834266
317.80 0.04800515
317.90 0.04766768
318.00 0.04733022
318.10 0.04699276
318.20 0.04665529
318.30 0.04631779
318.40 0.04598021
318.50 0.04564247
318.60 0.04530445
318.70 0.04497385
318.80 0.04468174
318.90 0.04448811
319.00 0.04445888
319.10 0.04462336
319.20 0.04495225
319.30 0.04537962
319.40 0.04584548
319.50 0.04631875
319.60 0.04679175
319.70 0.04726459
319.80 0.04773734
319.90 0.04821007
320.00 0.04868278
320.10 0.0491555
320.20 0.04962822
320.30 0.05010095
320.40 0.05057371
320.50 0.05104653
320.60 0.05151945
320.70 0.05198963
320.80 0.05244558
320.90 0.0528651
321.00 0.05322381
321.10 0.05351089
321.20 0.05373715
321.30 0.053927
321.40 0.05410261
321.50 0.05427547
321.60 0.05444844
321.70 0.05462147
321.80 0.05479452
321.90 0.05496759
322.00 0.05514067
322.10 0.05531374
322.20 0.0554868
322.30 0.05565982
322.40 0.05583273
322.50 0.05600542
322.60 0.05617774
322.70 0.05636007
322.80 0.05659441
322.90 0.05696179
323.00 0.05755127
323.10 0.05840243
323.20 0.05947569
323.30 0.06068199
323.40 0.0619403
323.50 0.06320862
323.60 0.06447657
323.70 0.06574431
323.80 0.06701193
323.90 0.06827951
324.00 0.06954708
324.10 0.07081465
324.20 0.07208222
324.30 0.0733498
324.40 0.07461739
324.50 0.07588502
324.60 0.07715271
324.70 0.07841878
324.80 0.07967639
324.90 0.0809124
325.00 0.08211233
325.10 0.08326975
325.20 0.08439109
325.30 0.08549082
325.40 0.0865821
325.50 0.08767176
325.60 0.08876148
325.70 0.08985123
325.80 0.090941
325.90 0.09203077
326.00 0.09312055
326.10 0.09421033
326.20 0.0953001
326.30 0.09638986
326.40 0.09747959
326.50 0.09856923
326.60 0.09965875
326.70 0.1007518
326.80 0.101863
326.90 0.1030208
327.00 0.1042564
327.10 0.1055836
327.20 0.1069885
327.30 0.10844
327.40 0.1099098
327.50 0.111383
327.60 0.1128561
327.70 0.1143291
327.80 0.1158021
327.90 0.1172751
328.00 0.1187481
328.10 0.1202211
328.20 0.121694
328.30 0.1231671
328.40 0.1246404
328.50 0.1261142
328.60 0.1275887
328.70 0.1290427
328.80 0.1303898
328.90 0.1314636
329.00 0.1320812
329.10 0.1321612
329.20 0.131785
329.30 0.1311355
329.40 0.1303791
329.50 0.1296022
329.60 0.128826
329.70 0.1280503
329.80 0.1272748
329.90 0.1264994
330.00 0.125724
330.10 0.1249487
330.20 0.1241733
330.30 0.1233978
330.40 0.1226222
330.50 0.1218462
330.60 0.1210697
330.70 0.1203084
330.80 0.1196264
330.90 0.1191471
331.00 0.1190063
331.10 0.1192642
331.20 0.1198606
331.30 0.1206597
331.40 0.121538
331.50 0.1224317
331.60 0.1233247
331.70 0.1242174
331.80 0.12511
331.90 0.1260025
332.00 0.1268949
332.10 0.1277874
332.20 0.1286799
332.30 0.1295724
332.40 0.130465
332.50 0.1313578
332.60 0.132251
332.70 0.1331346
332.80 0.1339679
332.90 0.1346729
333.00 0.1351636
333.10 0.1354019
333.20 0.1354258
333.30 0.1353214
333.40 0.1351668
333.50 0.1350026
333.60 0.1348387
333.70 0.134675
333.80 0.1345114
333.90 0.1343479
334.00 0.1341844
334.10 0.1340207
334.20 0.1338568
334.30 0.1336923
334.40 0.1335274
334.50 0.1333621
334.60 0.1333337
334.70 0.1337524
334.80 0.134737
334.90 0.1357341
335.00 0.1356917
335.10 0.1343217
335.20 0.1332771
335.30 0.1356495
335.40 0.1435905
335.50 0.1558849
335.60 0.1678198
335.70 0.1739268
335.80 0.1715116
335.90 0.1619878
336.00 0.1493693
336.10 0.1377865
336.20 0.1301184
336.30 0.1275688
336.40 0.1291553
336.50 0.1318294
336.60 0.1323028
336.70 0.1297747
336.80 0.126952
336.90 0.1279271
337.00 0.1346738
337.10 0.1451247
337.20 0.1543556
337.30 0.1579708
337.40 0.1551892
337.50 0.1493328
337.60 0.1452857
337.70 0.1458718
337.80 0.1501961
337.90 0.1552851
338.00 0.1588665
338.10 0.160316
338.20 0.1593042
338.30 0.1547492
338.40 0.1462806
338.50 0.1364028
338.60 0.1301074
338.70 0.1312846
338.80 0.1390913
338.90 0.1482194
339.00 0.1531611
339.10 0.15272
339.20 0.1507484
339.30 0.1523612
339.40 0.1592274
339.50 0.1684899
339.60 0.1758579
339.70 0.1792133
339.80 0.179153
339.90 0.1768616
340.00 0.1728106
340.10 0.1674859
340.20 0.162011
340.30 0.1572378
340.40 0.1525881
340.50 0.1466563
340.60 0.1391017
340.70 0.1314295
340.80 0.1257965
340.90 0.1234292
341.00 0.1242447
341.10 0.1274941
341.20 0.1323155
341.30 0.1376963
341.40 0.1424432
341.50 0.1456443
341.60 0.1472118
341.70 0.1479211
341.80 0.148823
341.90 0.1504679
342.00 0.1524186
342.10 0.1533356
342.20 0.1517915
342.30 0.147471
342.40 0.141816
342.50 0.1372953
342.60 0.1357444
342.70 0.1372206
342.80 0.1402422
342.90 0.1429585
343.00 0.144288
343.10 0.1444049
343.20 0.1443351
343.30 0.1449603
343.40 0.1462498
343.50 0.147443
343.60 0.1478541
343.70 0.1472947
343.80 0.1459103
343.90 0.1440441
344.00 0.1423235
344.10 0.1414743
344.20 0.1416857
344.30 0.1422899
344.40 0.1423479
344.50 0.1415475
344.60 0.1404561
344.70 0.1400227
344.80 0.1409728
344.90 0.1435631
345.00 0.1476584
345.10 0.1528351
345.20 0.158402
345.30 0.163402
345.40 0.1667647
345.50 0.167823
345.60 0.1668707
345.70 0.1651145
345.80 0.1638484
345.90 0.1635488
346.00 0.1636617
346.10 0.1630861
346.20 0.1609424
346.30 0.1572637
346.40 0.1532183
346.50 0.1504298
346.60 0.1496857
346.70 0.1502533
346.80 0.1505599
346.90 0.1494739
347.00 0.1468869
347.10 0.1434977
347.20 0.1404657
347.30 0.139084
347.40 0.1401749
347.50 0.1434411
347.60 0.1476048
347.70 0.1513898
347.80 0.1543761
347.90 0.1569865
348.00 0.1598223
348.10 0.1629923
348.20 0.165897
348.30 0.1676252
348.40 0.1676933
348.50 0.1664689
348.60 0.1647917
348.70 0.1632072
348.80 0.16171
348.90 0.1601228
349.00 0.1584533
349.10 0.1568497
349.20 0.1554453
349.30 0.1544316
349.40 0.1541532
349.50 0.1548295
349.60 0.1561249
349.70 0.1571991
349.80 0.1574505
349.90 0.1573617
350.00 0.1584413
350.10 0.1620364
350.20 0.1680421
350.30 0.1747655
350.40 0.1800826
350.50 0.1827817
350.60 0.1829633
350.70 0.1814711
350.80 0.1791756
350.90 0.1765627
351.00 0.1735451
351.10 0.1695022
351.20 0.1637642
351.30 0.1564705
351.40 0.1490391
351.50 0.1434848
351.60 0.1409896
351.70 0.1410692
351.80 0.1421346
351.90 0.1428169
352.00 0.1427315
352.10 0.1421564
352.20 0.1414144
352.30 0.1407845
352.40 0.1408674
352.50 0.1427642
352.60 0.1474729
352.70 0.1548558
352.80 0.1632459
352.90 0.1703774
353.00 0.1750556
353.10 0.1779206
353.20 0.1804679
353.30 0.1835259
353.40 0.1868917
353.50 0.1901586
353.60 0.1934089
353.70 0.1969561
353.80 0.2007959
353.90 0.2045859
354.00 0.207878
354.10 0.2100893
354.20 0.2105157
354.30 0.2088752
354.40 0.2059171
354.50 0.2031671
354.60 0.2017868
354.70 0.2017164
354.80 0.2019966
354.90 0.2017751
355.00 0.2008926
355.10 0.1996919
355.20 0.1985378
355.30 0.1975993
355.40 0.1969584
355.50 0.1966512
355.60 0.1964786
355.70 0.1958824
355.80 0.1942055
355.90 0.1912385
356.00 0.187469
356.10 0.1836852
356.20 0.1803001
356.30 0.1770211
356.40 0.1731696
356.50 0.1684174
356.60 0.1633229
356.70 0.1591309
356.80 0.1569048
356.90 0.1567404
357.00 0.1577743
357.10 0.1588518
357.20 0.1591315
357.30 0.1582555
357.40 0.1562437
357.50 0.1533804
357.60 0.1501312
357.70 0.1469798
357.80 0.1442313
357.90 0.1419434
358.00 0.1400971
358.10 0.1388943
358.20 0.1388368
358.30 0.1403972
358.40 0.1435453
358.50 0.1475765
358.60 0.1513855
358.70 0.1539393
358.80 0.154708
358.90 0.1539212
359.00 0.1525845
359.10 0.1521026
359.20 0.1535056
359.30 0.1567309
359.40 0.1605405
359.50 0.1632961
359.60 0.1640703
359.70 0.1632227
359.80 0.1619931
359.90 0.1614546
360.00 0.161661
360.10 0.1616493
360.20 0.1602607
360.30 0.1570709
360.40 0.1527451
360.50 0.1487054
360.60 0.1464703
360.70 0.1470506
360.80 0.1504931
360.90 0.1557749
361.00 0.1613057
361.10 0.1658338
361.20 0.1690398
361.30 0.1712895
361.40 0.1728991
361.50 0.1738004
361.60 0.1739759
361.70 0.1739312
361.80 0.1744196
361.90 0.1756772
362.00 0.1771401
362.10 0.1780347
362.20 0.1780894
362.30 0.1776112
362.40 0.1771148
362.50 0.1770299
362.60 0.1774996
362.70 0.1781336
362.80 0.1780776
362.90 0.1766928
363.00 0.1742995
363.10 0.1720821
363.20 0.1711345
363.30 0.1716443
363.40 0.1729723
363.50 0.1743224
363.60 0.1752539
363.70 0.1757244
363.80 0.1758247
363.90 0.1755189
364.00 0.1745792
364.10 0.1727446
364.20 0.1699849
364.30 0.166647
364.40 0.1633824
364.50 0.1609343
364.60 0.1598503
364.70 0.1601759
364.80 0.161389
364.90 0.162794
365.00 0.1641576
365.10 0.1659454
365.20 0.168749
365.30 0.1724078
365.40 0.1757944
365.50 0.177596
365.60 0.1773976
365.70 0.1759969
365.80 0.1746351
365.90 0.1739896
366.00 0.1739199
366.10 0.1740344
366.20 0.1743059
366.30 0.1750184
366.40 0.1762462
366.50 0.1775684
366.60 0.1782896
366.70 0.17789
366.80 0.176296
366.90 0.1738409
367.00 0.1710901
367.10 0.1686862
367.20 0.1672127
367.30 0.1670444
367.40 0.168185
367.50 0.1702337
367.60 0.1725815
367.70 0.1747275
367.80 0.1764878
367.90 0.1779611
368.00 0.1793222
368.10 0.1806126
368.20 0.1816675
368.30 0.182196
368.40 0.1819701
368.50 0.1810388
368.60 0.179817
368.70 0.1789135
368.80 0.1787592
368.90 0.1793435
369.00 0.180335
369.10 0.1814713
369.20 0.1827398
369.30 0.1841285
369.40 0.1853118
369.50 0.1857305
369.60 0.1850766
369.70 0.1836706
369.80 0.1823496
369.90 0.1819931
370.00 0.1830659
370.10 0.1854362
370.20 0.1885245
370.30 0.1916163
370.40 0.194108
370.50 0.1956081
370.60 0.1959816
370.70 0.1954567
370.80 0.1946397
370.90 0.1942444
371.00 0.194629
371.10 0.1954993
371.20 0.1960198
371.30 0.1952462
371.40 0.1926516
371.50 0.1884769
371.60 0.1836945
371.70 0.179554
371.80 0.1770105
371.90 0.1764158
372.00 0.1775471
372.10 0.1796727
372.20 0.1814991
372.30 0.1813965
372.40 0.1781525
372.50 0.1719217
372.60 0.1645131
372.70 0.1585797
372.80 0.1562656
372.90 0.1582675
373.00 0.1637822
373.10 0.1710908
373.20 0.1782725
373.30 0.183724
373.40 0.1864809
373.50 0.1862855
373.60 0.1834089
373.70 0.1783924
373.80 0.1719332
373.90 0.164949
374.00 0.1585912
374.10 0.1540446
374.20 0.1522257
374.30 0.1536208
374.40 0.1583245
374.50 0.1660743
374.60 0.1761514
374.70 0.1872429
374.80 0.1975233
374.90 0.2051181
375.00 0.2087485
375.10 0.2081426
375.20 0.2039917
375.30 0.1975894
375.40 0.1904354
375.50 0.1839198
375.60 0.1789921
375.70 0.1759066
375.80 0.1742373
375.90 0.1732296
376.00 0.1723223
376.10 0.1715575
376.20 0.1716696
376.30 0.1737801
376.40 0.1788512
376.50 0.1872715
376.60 0.1988464
376.70 0.2129259
376.80 0.2283133
376.90 0.2430122
377.00 0.2543893
377.10 0.2600776
377.20 0.259061
377.30 0.2520691
377.40 0.24104
377.50 0.2282034
377.60 0.2154421
377.70 0.2041095
377.80 0.1949823
377.90 0.1882195
378.00 0.1834604
378.10 0.1801345
378.20 0.1777949
378.30 0.1762012
378.40 0.1751866
378.50 0.1746131
378.60 0.1745019
378.70 0.1751059
378.80 0.1768008
378.90 0.1800079
379.00 0.185322
379.10 0.1935869
379.20 0.2055452
379.30 0.2211911
379.40 0.239369
379.50 0.2579409
379.60 0.2742798
379.70 0.2857941
379.80 0.2905138
379.90 0.2877054
380.00 0.2782479
380.10 0.2643771
380.20 0.2488319
380.30 0.2339154
380.40 0.2210097
380.50 0.2106116
380.60 0.2026065
380.70 0.1965033
380.80 0.1916077
380.90 0.1873232
381.00 0.1834446
381.10 0.1801494
381.20 0.1776424
381.30 0.1758217
381.40 0.174378
381.50 0.1732331
381.60 0.1726855
381.70 0.1730181
381.80 0.1739382
381.90 0.1745003
382.00 0.1737634
382.10 0.1735946
382.20 0.1790617
382.30 0.1992007
382.40 0.2343007
382.50 0.2737295
382.60 0.3050893
382.70 0.3212256
382.80 0.3251383
382.90 0.3274899
383.00 0.3435829
383.10 0.3725058
383.20 0.3961488
383.30 0.410909
383.40 0.4195016
383.50 0.4239979
383.60 0.41995
383.70 0.4002325
383.80 0.362984
383.90 0.3201494
384.00 0.296135
384.10 0.3059746
384.20 0.3325804
384.30 0.3379513
384.40 0.3048478
384.50 0.2559037
384.60 0.2173962
384.70 0.2082351
384.80 0.2233523
384.90 0.2569036
385.00 0.2991472
385.10 0.3329441
385.20 0.344153
385.30 0.3324923
385.40 0.3083053
385.50 0.2844408
385.60 0.2729203
385.70 0.2781967
385.80 0.2895299
385.90 0.2896636
386.00 0.2724103
386.10 0.2480713
386.20 0.2292224
386.30 0.2166666
386.40 0.2046692
386.50 0.1944906
386.60 0.1966532
386.70 0.2200749
386.80 0.2602387
386.90 0.2995755
387.00 0.3196371
387.10 0.3145201
387.20 0.296683
387.30 0.2885499
387.40 0.3026433
387.50 0.3265198
387.60 0.3314759
387.70 0.3022969
387.80 0.2541343
387.90 0.213683
388.00 0.1919279
388.10 0.183376
388.20 0.1851897
388.30 0.2004006
388.40 0.2242101
388.50 0.2487038
388.60 0.2813676
388.70 0.3392026
388.80 0.4188177
388.90 0.4855602
389.00 0.5036459
389.10 0.469643
389.20 0.4076343
389.30 0.3435206
389.40 0.2900317
389.50 0.2508944
389.60 0.2280014
389.70 0.2113741
389.80 0.2135278
389.90 0.2365607
390.00 0.2765788
390.10 0.3224027
390.20 0.3425337
390.30 0.3358199
390.40 0.3245308
390.50 0.3149779
390.60 0.3096647
390.70 0.3069746
390.80 0.3057666
390.90 0.3028817
391.00 0.2935543
391.10 0.2783422
391.20 0.2657866
391.30 0.278335
391.40 0.3016738
391.50 0.3214099
391.60 0.3268803
391.70 0.3126313
391.80 0.2797562
391.90 0.2375422
392.00 0.2002125
392.10 0.181811
392.20 0.1854835
392.30 0.2058939
392.40 0.2220333
392.50 0.2267797
392.60 0.2313274
392.70 0.2459064
392.80 0.2781678
392.90 0.3197329
393.00 0.370027
393.10 0.44241
393.20 0.5501149
393.30 0.6786566
393.40 0.7594371
393.50 0.7248434
393.60 0.5818668
393.70 0.4116104
393.80 0.2965001
393.90 0.2595787
394.00 0.2691371
394.10 0.2824496
394.20 0.2778914
394.30 0.2633785
394.40 0.2436802
394.50 0.2316572
394.60 0.2336464
394.70 0.2467222
394.80 0.2553532
394.90 0.2598067
395.00 0.2595817
395.10 0.2597254
395.20 0.262925
395.30 0.2692084
395.40 0.2781544
395.50 0.2953945
395.60 0.3106094
395.70 0.2991713
395.80 0.2619896
395.90 0.2221146
396.00 0.2042627
396.10 0.2060738
396.20 0.2081519
396.30 0.2092631
396.40 0.2257037
396.50 0.2831954
396.60 0.3956994
396.70 0.553224
396.80 0.7199422
396.90 0.838329
397.00 0.8573574
397.10 0.7705326
397.20 0.626188
397.30 0.4927247
397.40 0.4135368
397.50 0.3856069
397.60 0.3812452
397.70 0.3802914
397.80 0.3783969
397.90 0.3750479
398.00 0.3675395
398.10 0.356775
398.20 0.3515275
398.30 0.3592047
398.40 0.3746973
398.50 0.3845593
398.60 0.3816492
398.70 0.3707844
398.80 0.363328
398.90 0.3515351
399.00 0.3396997
399.10 0.3441227
399.20 0.3785987
399.30 0.4338621
399.40 0.478792
399.50 0.4858688
399.60 0.4539759
399.70 0.4031873
399.80 0.3577462
399.90 0.3346745
400.00 0.3341846
400.10 0.3451758
400.20 0.3556268
400.30 0.3592437
400.40 0.3551044
400.50 0.3468779
400.60 0.341745
400.70 0.3437751
400.80 0.3602746
400.90 0.3927356
401.00 0.4228818
401.10 0.4300294
401.20 0.4059449
401.30 0.3706427
401.40 0.3481299
401.50 0.3448216
401.60 0.348885
401.70 0.3502702
401.80 0.3412005
401.90 0.331517
402.00 0.3317432
402.10 0.342508
402.20 0.3572975
402.30 0.3680773
402.40 0.3699726
402.50 0.3652144
402.60 0.3603171
402.70 0.3565791
402.80 0.3456815
402.90 0.3188139
403.00 0.2806287
403.10 0.2476492
403.20 0.2308638
403.30 0.2281794
403.40 0.234243
403.50 0.2502268
403.60 0.2787721
403.70 0.3166957
403.80 0.3541486
403.90 0.3854134
404.00 0.4128411
404.10 0.4385427
404.20 0.4608996
404.30 0.4702095
404.40 0.4527491
404.50 0.4042031
404.60 0.3407955
404.70 0.2900344
404.80 0.2672653
404.90 0.2656098
405.00 0.268714
405.10 0.2694912
405.20 0.27495
405.30 0.2940906
405.40 0.324701
405.50 0.3541828
405.60 0.3704159
405.70 0.3715496
405.80 0.365668
405.90 0.3601481
406.00 0.3564678
406.10 0.3517152
406.20 0.343951
406.30 0.3374964
406.40 0.3407374
406.50 0.3555346
406.60 0.3722508
406.70 0.373928
406.80 0.350299
406.90 0.3074436
407.00 0.2640556
407.10 0.23883
407.20 0.2407744
407.30 0.2571492
407.40 0.2680156
407.50 0.2687682
407.60 0.2611309
407.70 0.2568038
407.80 0.2642069
407.90 0.2810967
408.00 0.2995284
408.10 0.3157725
408.20 0.3316612
408.30 0.3477023
408.40 0.3587346
408.50 0.3603767
408.60 0.3560627
408.70 0.3523799
408.80 0.3490433
408.90 0.3393932
409.00 0.322787
409.10 0.3094416
409.20 0.3099794
409.30 0.3234978
409.40 0.3380236
409.50 0.3439877
409.60 0.3412845
409.70 0.337118
409.80 0.3427084
409.90 0.3710883
410.00 0.4293354
410.10 0.5051553
410.20 0.5629135
410.30 0.5644939
410.40 0.5006297
410.50 0.4012838
410.60 0.3136028
410.70 0.2740097
410.80 0.2707909
410.90 0.2843834
411.00 0.2972298
411.10 0.3014405
411.20 0.2983573
411.30 0.2939231
411.40 0.2934442
411.50 0.2961709
411.60 0.3027053
411.70 0.3043626
411.80 0.2942798
411.90 0.2839766
412.00 0.2859451
412.10 0.3009381
412.20 0.318064
412.30 0.3283754
412.40 0.3316046
412.50 0.3323824
412.60 0.3330392
412.70 0.3328367
412.80 0.3313449
412.90 0.3275509
413.00 0.3185717
413.10 0.3033763
413.20 0.2858117
413.30 0.2715042
413.40 0.261245
413.50 0.2511333
413.60 0.2399526
413.70 0.2328473
413.80 0.2366739
413.90 0.253412
414.00 0.2774067
414.10 0.297336
414.20 0.3091737
414.30 0.3012003
414.40 0.277143
414.50 0.2498007
414.60 0.2321402
414.70 0.2284604
414.80 0.2395308
414.90 0.2530513
415.00 0.2618026
415.10 0.2754635
415.20 0.3004126
415.30 0.327534
415.40 0.3469058
415.50 0.3502816
415.60 0.3353862
415.70 0.307779
415.80 0.2792966
415.90 0.2634759
416.00 0.2688442
416.10 0.2896377
416.20 0.314119
