# Version 2.1 - nm, norm@500 to 1, cut digits
# Wavelength(nm)  Flambda(ergs/cm^s/s/nm)
300.00 0.008158416
300.10 0.01084854
300.20 0.01248477
300.30 0.01315873
300.40 0.01333258
300.50 0.01338188
300.60 0.0134321
300.70 0.01348353
300.80 0.01353802
300.90 0.01359949
301.00 0.01367231
301.10 0.01375843
301.20 0.01385584
301.30 0.01396002
301.40 0.01406685
301.50 0.0141742
301.60 0.01428155
301.70 0.01438888
301.80 0.01449622
301.90 0.01460355
302.00 0.01471089
302.10 0.01481822
302.20 0.01492555
302.30 0.01503289
302.40 0.01514022
302.50 0.01524754
302.60 0.01535486
302.70 0.01546258
302.80 0.01557231
302.90 0.01568718
303.00 0.01581062
303.10 0.01594415
303.20 0.01608626
303.30 0.0162335
303.40 0.01638277
303.50 0.01653242
303.60 0.01668208
303.70 0.01683172
303.80 0.01698136
303.90 0.01713101
304.00 0.01728065
304.10 0.01743029
304.20 0.01757994
304.30 0.01772958
304.40 0.01787923
304.50 0.0180289
304.60 0.01817859
304.70 0.01832707
304.80 0.01846938
304.90 0.01859598
305.00 0.01869636
305.10 0.01876586
305.20 0.01880915
305.30 0.01883671
305.40 0.01885812
305.50 0.01887831
305.60 0.01889852
305.70 0.01891875
305.80 0.01893899
305.90 0.01895923
306.00 0.01897947
306.10 0.0189997
306.20 0.01901994
306.30 0.01904018
306.40 0.01906042
306.50 0.01908066
306.60 0.0191009
306.70 0.01912114
306.80 0.0191414
306.90 0.01916168
307.00 0.01918203
307.10 0.01920244
307.20 0.01922291
307.30 0.01924342
307.40 0.01926393
307.50 0.01928445
307.60 0.01930497
307.70 0.01932549
307.80 0.01934601
307.90 0.01936653
308.00 0.01938705
308.10 0.01940757
308.20 0.01942809
308.30 0.0194486
308.40 0.0194691
308.50 0.01948956
308.60 0.01950996
308.70 0.01953339
308.80 0.01957226
308.90 0.01965046
309.00 0.01979428
309.10 0.02001537
309.20 0.02030207
309.30 0.02062811
309.40 0.02096958
309.50 0.02131408
309.60 0.02165853
309.70 0.02200294
309.80 0.02234733
309.90 0.02269172
310.00 0.0230361
310.10 0.02338049
310.20 0.02372487
310.30 0.02406927
310.40 0.02441368
310.50 0.02475812
310.60 0.02510262
310.70 0.02544408
310.80 0.02577002
310.90 0.02605642
311.00 0.02627686
311.10 0.02641962
311.20 0.02649642
311.30 0.02653368
311.40 0.02655542
311.50 0.02657411
311.60 0.02659287
311.70 0.02661166
311.80 0.02663046
311.90 0.02664927
312.00 0.02666809
312.10 0.0266869
312.20 0.02670571
312.30 0.02672452
312.40 0.0267433
312.50 0.02676204
312.60 0.02678071
312.70 0.02680314
312.80 0.02684473
312.90 0.02693516
313.00 0.02710705
313.10 0.02737489
313.20 0.02772418
313.30 0.02812232
313.40 0.02853961
313.50 0.02896067
313.60 0.02938165
313.70 0.0298026
313.80 0.03022352
313.90 0.03064443
314.00 0.03106535
314.10 0.03148626
314.20 0.03190717
314.30 0.03232807
314.40 0.03274896
314.50 0.03316982
314.60 0.03359063
314.70 0.03401406
314.80 0.03445083
314.90 0.0349216
315.00 0.03544906
315.10 0.03604332
315.20 0.03669428
315.30 0.03737923
315.40 0.03807753
315.50 0.03877844
315.60 0.0394793
315.70 0.04018013
315.80 0.04088095
315.90 0.04158176
316.00 0.04228257
316.10 0.04298339
316.20 0.0436842
316.30 0.04438504
316.40 0.04508593
316.50 0.04578693
316.60 0.04648811
316.70 0.04717967
316.80 0.0478222
316.90 0.04833976
317.00 0.04864889
317.10 0.04871252
317.20 0.04856773
317.30 0.04829796
317.40 0.04797916
317.50 0.04765074
317.60 0.0473225
317.70 0.04699437
317.80 0.0466663
317.90 0.04633825
318.00 0.0460102
318.10 0.04568215
318.20 0.0453541
318.30 0.04502603
318.40 0.04469792
318.50 0.04436972
318.60 0.04404139
318.70 0.04372043
318.80 0.04343699
318.90 0.04324922
319.00 0.043221
319.10 0.0433807
319.20 0.04369996
319.30 0.04411488
319.40 0.04456733
319.50 0.04502714
319.60 0.04548682
319.70 0.04594641
319.80 0.04640597
319.90 0.0468655
320.00 0.04732504
320.10 0.04778457
320.20 0.0482441
320.30 0.04870364
320.40 0.0491632
320.50 0.04962278
320.60 0.05008242
320.70 0.05053933
320.80 0.05098236
320.90 0.05139002
321.00 0.05173866
321.10 0.05201779
321.20 0.05223792
321.30 0.05242266
321.40 0.05259353
321.50 0.05276167
321.60 0.05292986
321.70 0.05309808
321.80 0.05326632
321.90 0.05343457
322.00 0.05360281
322.10 0.05377106
322.20 0.0539393
322.30 0.05410751
322.40 0.05427568
322.50 0.05444373
322.60 0.05461159
322.70 0.0547894
322.80 0.05501791
322.90 0.05537567
323.00 0.05594896
323.10 0.05677613
323.20 0.05781884
323.30 0.05899079
323.40 0.06021344
323.50 0.06144604
323.60 0.06267845
323.70 0.06391075
323.80 0.06514299
323.90 0.06637522
324.00 0.06760743
324.10 0.06883965
324.20 0.07007187
324.30 0.07130409
324.40 0.07253632
324.50 0.07376857
324.60 0.07500085
324.70 0.07623151
324.80 0.07745394
324.90 0.07865537
325.00 0.07982179
325.10 0.08094697
325.20 0.08203714
325.30 0.08310631
325.40 0.08416725
325.50 0.08522658
325.60 0.08628593
325.70 0.0873453
325.80 0.08840468
325.90 0.08946406
326.00 0.09052345
326.10 0.09158283
326.20 0.09264222
326.30 0.09370159
326.40 0.09476095
326.50 0.09582026
326.60 0.09687952
326.70 0.09794225
326.80 0.09902274
326.90 0.1001485
327.00 0.1013497
327.10 0.1026397
327.20 0.1040053
327.30 0.1054161
327.40 0.1068446
327.50 0.1082767
327.60 0.1097086
327.70 0.1111405
327.80 0.1125724
327.90 0.1140043
328.00 0.1154362
328.10 0.1168681
328.20 0.1183
328.30 0.119732
328.40 0.121164
328.50 0.1225963
328.60 0.124029
328.70 0.1254413
328.80 0.1267493
328.90 0.127792
329.00 0.1283918
329.10 0.1284701
329.20 0.1281056
329.30 0.1274757
329.40 0.1267416
329.50 0.125987
329.60 0.1252329
329.70 0.124479
329.80 0.1237252
329.90 0.1229714
330.00 0.1222176
330.10 0.1214639
330.20 0.1207101
330.30 0.1199563
330.40 0.1192024
330.50 0.1184484
330.60 0.1176941
330.70 0.1169549
330.80 0.116293
330.90 0.115828
331.00 0.1156915
331.10 0.1159418
331.20 0.1165206
331.30 0.1172964
331.40 0.1181493
331.50 0.1190175
331.60 0.1198854
331.70 0.1207531
331.80 0.1216207
331.90 0.1224883
332.00 0.1233559
332.10 0.1242234
332.20 0.125091
332.30 0.1259586
332.40 0.1268263
332.50 0.127694
332.60 0.128562
332.70 0.1294203
332.80 0.1302298
332.90 0.1309145
333.00 0.1313913
333.10 0.1316231
333.20 0.131647
333.30 0.1315462
333.40 0.1313965
333.50 0.1312371
333.60 0.131078
333.70 0.1309189
333.80 0.13076
333.90 0.130601
334.00 0.130442
334.10 0.130283
334.20 0.1301238
334.30 0.1299644
334.40 0.1298047
334.50 0.1296448
334.60 0.1296177
334.70 0.1300238
334.80 0.1309785
334.90 0.1319467
335.00 0.1319106
335.10 0.130592
335.20 0.1295915
335.30 0.1319023
335.40 0.1396061
335.50 0.151524
335.60 0.16309
335.70 0.1690073
335.80 0.1666658
335.90 0.1574349
336.00 0.1452024
336.10 0.1339702
336.20 0.1265284
336.30 0.1240451
336.40 0.1255704
336.50 0.1281535
336.60 0.1286106
336.70 0.1261657
336.80 0.1234392
336.90 0.1243928
337.00 0.1309364
337.10 0.141067
337.20 0.1500155
337.30 0.1535245
337.40 0.1508377
337.50 0.1451717
337.60 0.1412567
337.70 0.1418272
337.80 0.1460168
337.90 0.1509458
338.00 0.1544132
338.10 0.1558138
338.20 0.1548286
338.30 0.1504105
338.40 0.142202
338.50 0.1326299
338.60 0.126529
338.70 0.1276676
338.80 0.1352296
338.90 0.144075
339.00 0.1488701
339.10 0.1484553
339.20 0.1465601
339.30 0.1481362
339.40 0.1547988
339.50 0.1637805
339.60 0.1709253
339.70 0.1741812
339.80 0.1741252
339.90 0.171904
340.00 0.1679739
340.10 0.1628058
340.20 0.1574885
340.30 0.1528481
340.40 0.1483259
340.50 0.1425624
340.60 0.1352292
340.70 0.1277849
340.80 0.1223192
340.90 0.1200203
341.00 0.1208085
341.10 0.1239581
341.20 0.1286335
341.30 0.133853
341.40 0.1384598
341.50 0.1415699
341.60 0.143097
341.70 0.1437913
341.80 0.1446697
341.90 0.1462651
342.00 0.1481539
342.10 0.1490393
342.20 0.1475398
342.30 0.1433507
342.40 0.1378693
342.50 0.1334868
342.60 0.1319814
342.70 0.1334091
342.80 0.1363352
342.90 0.1389673
343.00 0.1402577
343.10 0.1403744
343.20 0.1403101
343.30 0.1409181
343.40 0.1421685
343.50 0.1433245
343.60 0.1437223
343.70 0.1431795
343.80 0.1418372
343.90 0.1400279
344.00 0.1383593
344.10 0.1375346
344.20 0.1377372
344.30 0.1383207
344.40 0.1383762
344.50 0.1376016
344.60 0.1365469
344.70 0.1361314
344.80 0.1370579
344.90 0.1395747
345.00 0.1435507
345.10 0.1485747
345.20 0.1539767
345.30 0.1588287
345.40 0.1620935
345.50 0.1631244
345.60 0.1622059
345.70 0.1605064
345.80 0.1592791
345.90 0.158986
346.00 0.1590906
346.10 0.1585275
346.20 0.1564453
346.30 0.1528765
346.40 0.1489526
346.50 0.1462459
346.60 0.1455191
346.70 0.1460625
346.80 0.1463537
346.90 0.1452968
347.00 0.1427871
347.10 0.1395016
347.20 0.1365637
347.30 0.1352259
347.40 0.1362849
347.50 0.1394528
347.60 0.143492
347.70 0.1471663
347.80 0.1500682
347.90 0.1526062
348.00 0.1553617
348.10 0.1584394
348.20 0.1612583
348.30 0.1629358
348.40 0.1630036
348.50 0.1618177
348.60 0.1601915
348.70 0.1586536
348.80 0.1571993
348.90 0.1556575
349.00 0.154036
349.10 0.1524791
349.20 0.1511159
349.30 0.1501321
349.40 0.1498614
349.50 0.1505164
349.60 0.1517724
349.70 0.152816
349.80 0.1530648
349.90 0.152986
350.00 0.1540407
350.10 0.1575326
350.20 0.1633594
350.30 0.1698808
350.40 0.175039
350.50 0.1776596
350.60 0.1778389
350.70 0.1763933
350.80 0.1741654
350.90 0.1716262
351.00 0.1686916
351.10 0.1647618
351.20 0.1591892
351.30 0.1521101
351.40 0.1448988
351.50 0.139507
351.60 0.1370801
351.70 0.137149
351.80 0.1381752
351.90 0.1388327
352.00 0.1387488
352.10 0.1381925
352.20 0.1374766
352.30 0.1368717
352.40 0.1369597
352.50 0.1388074
352.60 0.1433806
352.70 0.1505458
352.80 0.1586876
352.90 0.1656113
353.00 0.170159
353.10 0.17295
353.20 0.1754321
353.30 0.1784075
353.40 0.1816801
353.50 0.1848563
353.60 0.1880162
353.70 0.1914628
353.80 0.1951918
353.90 0.1988711
354.00 0.2020661
354.10 0.204212
354.20 0.2046271
354.30 0.2030386
354.40 0.2001725
354.50 0.1975067
354.60 0.1961666
354.70 0.1960947
354.80 0.1963626
354.90 0.1961449
355.00 0.1952875
355.10 0.1941221
355.20 0.1930018
355.30 0.1920901
355.40 0.1914663
355.50 0.1911648
355.60 0.1909928
355.70 0.1904096
355.80 0.1887785
355.90 0.1858966
356.00 0.182236
356.10 0.1785602
356.20 0.1752693
356.30 0.1720806
356.40 0.1683375
356.50 0.163723
356.60 0.1587782
356.70 0.1547093
356.80 0.1525458
356.90 0.1523806
357.00 0.1533771
357.10 0.1544166
357.20 0.1546835
357.30 0.1538306
357.40 0.1518768
357.50 0.1490974
357.60 0.1459433
357.70 0.1428837
357.80 0.1402149
357.90 0.1379934
358.00 0.1362016
358.10 0.1350355
358.20 0.1349809
358.30 0.1364955
358.40 0.139549
358.50 0.1434588
358.60 0.1471534
358.70 0.1496322
358.80 0.1503819
358.90 0.1496248
359.00 0.1483349
359.10 0.1478725
359.20 0.1492355
359.30 0.1523633
359.40 0.1560567
359.50 0.1587291
359.60 0.1594821
359.70 0.1586634
359.80 0.1574731
359.90 0.1569501
360.00 0.1571466
360.10 0.1571303
360.20 0.1557798
360.30 0.1526851
360.40 0.1484913
360.50 0.1445762
360.60 0.1424112
360.70 0.1429756
360.80 0.1463148
360.90 0.1514376
361.00 0.1568034
361.10 0.161199
361.20 0.1643139
361.30 0.1665017
361.40 0.168068
361.50 0.1689468
361.60 0.1691215
361.70 0.1690818
361.80 0.1695576
361.90 0.1707778
362.00 0.1721963
362.10 0.1730643
362.20 0.1731185
362.30 0.1726564
362.40 0.172176
362.50 0.1720935
362.60 0.1725473
362.70 0.1731596
362.80 0.1731033
362.90 0.17176
363.00 0.1694401
363.10 0.167291
363.20 0.1663721
363.30 0.1668651
363.40 0.1681512
363.50 0.1694592
363.60 0.1703619
363.70 0.1708175
363.80 0.1709136
363.90 0.1706148
364.00 0.1697007
364.10 0.1679188
364.20 0.16524
364.30 0.1620013
364.40 0.1588339
364.50 0.1564585
364.60 0.1554056
364.70 0.1557199
364.80 0.1568959
364.90 0.1582599
365.00 0.1595856
365.10 0.1613232
365.20 0.1640449
365.30 0.1675944
365.40 0.1708793
365.50 0.1726282
365.60 0.172439
365.70 0.1710843
365.80 0.1697662
365.90 0.1691412
366.00 0.1690737
366.10 0.1691849
366.20 0.1694485
366.30 0.1701393
366.40 0.171329
366.50 0.1726094
366.60 0.1733069
366.70 0.1729179
366.80 0.1713712
366.90 0.1689899
367.00 0.1663223
367.10 0.1639912
367.20 0.1625622
367.30 0.1623988
367.40 0.1635046
367.50 0.1654915
367.60 0.1677693
367.70 0.1698527
367.80 0.1715628
367.90 0.1729948
368.00 0.1743174
368.10 0.1755706
368.20 0.1765946
368.30 0.1771078
368.40 0.1768895
368.50 0.1759876
368.60 0.1748042
368.70 0.1739293
368.80 0.1737802
368.90 0.1743471
369.00 0.1753089
369.10 0.1764116
369.20 0.1776422
369.30 0.1789891
369.40 0.1801365
369.50 0.1805431
369.60 0.1799107
369.70 0.1785501
369.80 0.1772723
369.90 0.1769295
370.00 0.1779719
370.10 0.1802717
370.20 0.1832676
370.30 0.1862671
370.40 0.1886852
370.50 0.1901424
370.60 0.1905075
370.70 0.1900017
370.80 0.1892118
370.90 0.1888292
371.00 0.1892004
371.10 0.1900405
371.20 0.1905405
371.30 0.1897856
371.40 0.1872662
371.50 0.1832159
371.60 0.1785771
371.70 0.1745604
371.80 0.1720913
371.90 0.1715103
372.00 0.1726015
372.10 0.1746553
372.20 0.1764185
372.30 0.1763125
372.40 0.1731633
372.50 0.1671214
372.60 0.1599399
372.70 0.1541892
372.80 0.151947
372.90 0.1538882
373.00 0.1592348
373.10 0.1663212
373.20 0.1732853
373.30 0.1785725
373.40 0.1812468
373.50 0.1810577
373.60 0.1782671
373.70 0.1734
373.80 0.1671332
373.90 0.1603576
374.00 0.1541904
374.10 0.1497813
374.20 0.1480193
374.30 0.1493764
374.40 0.1539441
374.50 0.1614668
374.60 0.1712467
374.70 0.1820096
374.80 0.191985
374.90 0.1993555
375.00 0.2028808
375.10 0.2022972
375.20 0.1982741
375.30 0.1920657
375.40 0.1851257
375.50 0.1788022
375.60 0.1740166
375.70 0.1710164
375.80 0.1693904
375.90 0.1684087
376.00 0.1675284
376.10 0.1667914
376.20 0.1669092
376.30 0.1689687
376.40 0.1739016
376.50 0.1820837
376.60 0.1933254
376.70 0.2069946
376.80 0.2219293
376.90 0.2361929
377.00 0.247232
377.10 0.2527523
377.20 0.2517688
377.30 0.2449879
377.40 0.2342882
377.50 0.2218312
377.60 0.2094432
377.70 0.1984381
377.80 0.1895701
377.90 0.1829952
378.00 0.178365
378.10 0.1751274
378.20 0.1728493
378.30 0.1712975
378.40 0.1703101
378.50 0.1697535
378.60 0.1696485
378.70 0.1702407
378.80 0.1718948
378.90 0.1750196
379.00 0.180192
379.10 0.1882289
379.20 0.1998485
379.30 0.2150428
379.40 0.23269
379.50 0.2507156
379.60 0.266572
379.70 0.2777459
379.80 0.2823276
379.90 0.2796057
380.00 0.2704323
380.10 0.2569744
380.20 0.2418877
380.30 0.2274057
380.40 0.2148701
380.50 0.2047647
380.60 0.1969803
380.70 0.191042
380.80 0.1862778
380.90 0.1821095
381.00 0.178338
381.10 0.1751344
381.20 0.1726967
381.30 0.1709259
381.40 0.169522
381.50 0.1684094
381.60 0.1678889
381.70 0.1682496
381.80 0.1692161
381.90 0.1698828
382.00 0.1693577
382.10 0.1701099
382.20 0.1784095
382.30 0.2023072
382.40 0.2421981
382.50 0.2886371
382.60 0.3292075
382.70 0.3533379
382.80 0.3576168
382.90 0.3493639
383.00 0.345525
383.10 0.3551367
383.20 0.3724268
383.30 0.3936908
383.40 0.4160866
383.50 0.4349985
383.60 0.4405205
383.70 0.4226134
383.80 0.3804319
383.90 0.3295906
384.00 0.2973715
384.10 0.2995558
384.20 0.3196556
384.30 0.3220424
384.40 0.2918456
384.50 0.2495045
384.60 0.2177886
384.70 0.2060138
384.80 0.208393
384.90 0.224156
385.00 0.2531855
385.10 0.2858811
385.20 0.3076872
385.30 0.3097215
385.40 0.2932467
385.50 0.269893
385.60 0.2571696
385.70 0.2638578
385.80 0.2784725
385.90 0.2816406
386.00 0.2672946
386.10 0.2469834
386.20 0.2335655
386.30 0.2278472
386.40 0.2242655
386.50 0.2224523
386.60 0.2293981
386.70 0.2512879
386.80 0.2839546
386.90 0.3120759
387.00 0.3189782
387.10 0.3007648
387.20 0.2735487
387.30 0.263685
387.40 0.2841571
387.50 0.3182533
387.60 0.3314323
387.70 0.3053697
387.80 0.255354
387.90 0.2088626
388.00 0.17803
388.10 0.1617673
388.20 0.1639791
388.30 0.1904586
388.40 0.2315475
388.50 0.2714134
388.60 0.3145478
388.70 0.3801038
388.80 0.4657057
388.90 0.5336548
389.00 0.5451808
389.10 0.4987911
389.20 0.4248861
389.30 0.3548967
389.40 0.3024977
389.50 0.2677664
389.60 0.2470255
389.70 0.2332292
389.80 0.2361843
389.90 0.2626579
390.00 0.3093863
390.10 0.3577483
390.20 0.377824
390.30 0.3684342
390.40 0.3529285
390.50 0.3436398
390.60 0.3387955
390.70 0.3301753
390.80 0.316536
390.90 0.3021136
391.00 0.2899765
391.10 0.2831902
391.20 0.2863398
391.30 0.3069328
391.40 0.3299391
391.50 0.3412759
391.60 0.3345612
391.70 0.3101419
391.80 0.2717362
391.90 0.2280083
392.00 0.19257
392.10 0.1780559
392.20 0.1858769
392.30 0.2072709
392.40 0.2240305
392.50 0.2288718
392.60 0.2301929
392.70 0.2416101
392.80 0.274152
392.90 0.3222867
393.00 0.3819479
393.10 0.4651876
393.20 0.5875353
393.30 0.73025
393.40 0.8189468
393.50 0.7819319
393.60 0.6272321
393.70 0.4416905
393.80 0.3132113
393.90 0.2663677
394.00 0.2685928
394.10 0.2779983
394.20 0.2750393
394.30 0.2647011
394.40 0.2525933
394.50 0.2475131
394.60 0.2532567
394.70 0.2666756
394.80 0.2772683
394.90 0.2832153
395.00 0.2841658
395.10 0.2842558
395.20 0.287124
395.30 0.2948877
395.40 0.3076507
395.50 0.3242793
395.60 0.3311074
395.70 0.3103423
395.80 0.2681915
395.90 0.2303797
396.00 0.2176657
396.10 0.2224717
396.20 0.2238741
396.30 0.2205321
396.40 0.2326801
396.50 0.2889343
396.60 0.4072511
396.70 0.5827001
396.80 0.7789271
396.90 0.9287214
397.00 0.9663766
397.10 0.8771004
397.20 0.7128117
397.30 0.5524209
397.40 0.4469249
397.50 0.3969403
397.60 0.3777537
397.70 0.3712858
397.80 0.3715185
397.90 0.3728022
398.00 0.3669579
398.10 0.3525531
398.20 0.339818
398.30 0.3401004
398.40 0.351767
398.50 0.3622918
398.60 0.3636006
398.70 0.3598588
398.80 0.3592596
398.90 0.3548154
399.00 0.3456827
399.10 0.3457394
399.20 0.3722023
399.30 0.4207645
399.40 0.4616128
399.50 0.4662438
399.60 0.4343268
399.70 0.3891104
399.80 0.3543168
399.90 0.3394533
400.00 0.339358
400.10 0.345601
400.20 0.3529781
400.30 0.3576692
400.40 0.355059
400.50 0.3448292
400.60 0.3351353
400.70 0.3365528
400.80 0.3576394
400.90 0.3948336
401.00 0.4277877
401.10 0.4360792
401.20 0.4137691
401.30 0.3783979
401.40 0.3518831
401.50 0.3407626
401.60 0.3355728
401.70 0.3278869
401.80 0.3150716
401.90 0.3065494
402.00 0.3102347
402.10 0.3245831
402.20 0.3409778
402.30 0.3492459
402.40 0.3454592
402.50 0.337334
402.60 0.3369822
402.70 0.3457933
402.80 0.349145
402.90 0.3305864
403.00 0.2913623
403.10 0.2504325
403.20 0.2249462
403.30 0.2182974
403.40 0.2261184
403.50 0.2462371
403.60 0.2772443
403.70 0.314033
403.80 0.3495164
403.90 0.3811839
404.00 0.4102384
404.10 0.4354091
404.20 0.4534093
404.30 0.4578073
404.40 0.4397448
404.50 0.3957139
404.60 0.3380012
404.70 0.2902485
404.80 0.2668123
404.90 0.2617352
405.00 0.2607759
405.10 0.2598191
405.20 0.2682194
405.30 0.2944979
405.40 0.3328604
405.50 0.3665839
405.60 0.3821342
405.70 0.3791596
405.80 0.3680283
405.90 0.3580338
406.00 0.3510713
406.10 0.3440199
406.20 0.3345831
406.30 0.3267536
406.40 0.3283804
406.50 0.3410098
406.60 0.3547872
406.70 0.353444
406.80 0.3284901
406.90 0.2876309
407.00 0.2495476
407.10 0.2305314
407.20 0.2346365
407.30 0.2483769
407.40 0.2547757
407.50 0.2508504
407.60 0.2428602
407.70 0.2427992
407.80 0.2562362
407.90 0.2783692
408.00 0.2998259
408.10 0.315488
408.20 0.3262089
408.30 0.3340784
408.40 0.3386542
408.50 0.3393608
408.60 0.3381869
408.70 0.3364275
408.80 0.3314916
408.90 0.3204371
409.00 0.3064365
409.10 0.296973
409.20 0.2959057
409.30 0.2998411
409.40 0.3023136
409.50 0.3016407
409.60 0.3013304
409.70 0.3064962
409.80 0.3234493
409.90 0.3611192
410.00 0.4262764
410.10 0.5089997
410.20 0.5736725
410.30 0.5772885
410.40 0.506238
410.50 0.3938495
410.60 0.2964958
410.70 0.2530079
410.80 0.2532554
410.90 0.2703146
411.00 0.2825635
411.10 0.2832592
411.20 0.2765019
411.30 0.2701325
411.40 0.2703391
411.50 0.2755559
411.60 0.2794557
411.70 0.2711842
411.80 0.2483594
411.90 0.2267977
412.00 0.2242171
412.10 0.2443999
412.20 0.2750255
412.30 0.3005887
412.40 0.3135704
412.50 0.3157866
412.60 0.3122216
412.70 0.3067931
412.80 0.3016808
412.90 0.296169
413.00 0.2879912
413.10 0.2774664
413.20 0.2683309
413.30 0.2632103
413.40 0.2593317
413.50 0.2519766
413.60 0.242053
413.70 0.2367886
413.80 0.2430273
413.90 0.2615687
414.00 0.2860339
414.10 0.3052002
414.20 0.3115628
414.30 0.2971733
414.40 0.2675693
414.50 0.2364411
414.60 0.2162522
414.70 0.2101951
414.80 0.2159825
414.90 0.2245637
415.00 0.2322951
415.10 0.2471169
415.20 0.2745489
415.30 0.3072816
415.40 0.3329662
415.50 0.3404639
415.60 0.3271904
415.70 0.3013708
415.80 0.2774948
415.90 0.2682785
416.00 0.277594
416.10 0.2967641
416.20 0.3140995
