# Version 2.1 - nm, norm@500 to 1, cut digits
# Wavelength(nm)  Flambda(ergs/cm^s/s/nm)
300.00 0.007807442
300.10 0.01035983
300.20 0.01192268
300.30 0.0125798
300.40 0.01276263
300.50 0.01282272
300.60 0.01287854
300.70 0.01293186
300.80 0.01298586
300.90 0.01304537
301.00 0.0131153
301.10 0.01319783
301.20 0.01329106
301.30 0.01339076
301.40 0.01349306
301.50 0.01359592
301.60 0.01369883
301.70 0.01380176
301.80 0.01390471
301.90 0.01400766
302.00 0.01411061
302.10 0.01421357
302.20 0.01431652
302.30 0.01441948
302.40 0.01452245
302.50 0.01462544
302.60 0.01472846
302.70 0.01483192
302.80 0.01493734
302.90 0.01504768
303.00 0.01516614
303.10 0.01529417
303.20 0.01543032
303.30 0.01557139
303.40 0.01571442
303.50 0.01585789
303.60 0.01600139
303.70 0.01614491
303.80 0.01628845
303.90 0.01643198
304.00 0.01657552
304.10 0.01671905
304.20 0.01686259
304.30 0.01700611
304.40 0.0171496
304.50 0.01729303
304.60 0.01743635
304.70 0.01757835
304.80 0.01771433
304.90 0.0178353
305.00 0.0179314
305.10 0.01799825
305.20 0.01804023
305.30 0.0180672
305.40 0.01808815
305.50 0.01810778
305.60 0.0181273
305.70 0.01814676
305.80 0.01816618
305.90 0.0181856
306.00 0.01820501
306.10 0.01822443
306.20 0.01824384
306.30 0.01826325
306.40 0.01828267
306.50 0.01830208
306.60 0.01832149
306.70 0.01834091
306.80 0.01836034
306.90 0.0183798
307.00 0.01839932
307.10 0.0184189
307.20 0.01843853
307.30 0.0184582
307.40 0.01847787
307.50 0.01849756
307.60 0.01851724
307.70 0.01853692
307.80 0.0185566
307.90 0.01857629
308.00 0.01859597
308.10 0.01861565
308.20 0.01863534
308.30 0.01865506
308.40 0.01867486
308.50 0.01869482
308.60 0.01871503
308.70 0.01873855
308.80 0.01877715
308.90 0.01885331
309.00 0.01899172
309.10 0.01920333
309.20 0.01947718
309.30 0.0197886
309.40 0.02011509
309.50 0.02044489
309.60 0.02077495
309.70 0.02110517
309.80 0.02143546
309.90 0.02176579
310.00 0.02209612
310.10 0.02242645
310.20 0.02275678
310.30 0.02308707
310.40 0.02341729
310.50 0.02374735
310.60 0.02407714
310.70 0.02440362
310.80 0.02471494
310.90 0.02498849
311.00 0.02519947
311.10 0.02533687
311.20 0.0254117
311.30 0.02544875
311.40 0.02547066
311.50 0.02548924
311.60 0.02550756
311.70 0.02552572
311.80 0.0255438
311.90 0.02556186
312.00 0.0255799
312.10 0.02559795
312.20 0.025616
312.30 0.0256341
312.40 0.02565229
312.50 0.02567067
312.60 0.02568938
312.70 0.02571219
312.80 0.02575372
312.90 0.02584189
313.00 0.02600735
313.10 0.02626367
313.20 0.02659728
313.30 0.02697754
313.40 0.02737651
313.50 0.02777958
313.60 0.02818299
313.70 0.02858658
313.80 0.02899027
313.90 0.02939399
314.00 0.02979773
314.10 0.03020147
314.20 0.03060521
314.30 0.03100898
314.40 0.03141282
314.50 0.03181679
314.60 0.03222099
314.70 0.03262804
314.80 0.03304812
314.90 0.03350067
315.00 0.03400702
315.10 0.03457663
315.20 0.03520002
315.30 0.03585589
315.40 0.03652479
315.50 0.03719655
315.60 0.03786853
315.70 0.03854064
315.80 0.03921282
315.90 0.03988503
316.00 0.04055724
316.10 0.04122946
316.20 0.04190165
316.30 0.04257374
316.40 0.04324559
316.50 0.04391694
316.60 0.04458746
316.70 0.04524748
316.80 0.04585962
316.90 0.0463524
317.00 0.04664743
317.10 0.04670995
317.20 0.04657473
317.30 0.04632014
317.40 0.04601767
317.50 0.0457047
317.60 0.0453909
317.70 0.04507661
317.80 0.04476207
317.90 0.04444743
318.00 0.04413276
318.10 0.0438181
318.20 0.04350345
318.30 0.04318888
318.40 0.0428745
318.50 0.0425605
318.60 0.04224714
318.70 0.04194181
318.80 0.04167313
318.90 0.04149583
319.00 0.04146989
319.10 0.04162195
319.20 0.04192537
319.30 0.04232016
319.40 0.04275161
319.50 0.04319109
319.60 0.04363122
319.70 0.04407171
319.80 0.0445124
319.90 0.04495317
320.00 0.04539395
320.10 0.04583473
320.20 0.0462755
320.30 0.04671625
320.40 0.04715693
320.50 0.04759747
320.60 0.04803777
320.70 0.0484751
320.80 0.04889887
320.90 0.04928885
321.00 0.04962284
321.10 0.04989101
321.20 0.05010319
321.30 0.05028158
321.40 0.05044641
321.50 0.05060827
321.60 0.0507699
321.70 0.05093138
321.80 0.05109279
321.90 0.05125418
322.00 0.05141556
322.10 0.05157694
322.20 0.05173834
322.30 0.05189985
322.40 0.05206161
322.50 0.05222388
322.60 0.05238701
322.70 0.052561
322.80 0.05278451
322.90 0.05313146
323.00 0.05368289
323.10 0.05447477
323.20 0.05547114
323.30 0.05659095
323.40 0.05776028
323.50 0.05894047
323.60 0.06012151
323.70 0.06130307
323.80 0.06248488
323.90 0.06366679
324.00 0.06484873
324.10 0.06603066
324.20 0.0672126
324.30 0.06839451
324.40 0.06957639
324.50 0.07075818
324.60 0.07193983
324.70 0.07311972
324.80 0.07429157
324.90 0.07544336
325.00 0.07656194
325.10 0.07764145
325.20 0.07868775
325.30 0.079714
325.40 0.08073221
325.50 0.08174865
325.60 0.08276495
325.70 0.08378117
325.80 0.08479735
325.90 0.08581351
326.00 0.08682966
326.10 0.08784582
326.20 0.08886198
326.30 0.08987818
326.40 0.09089448
326.50 0.09191094
326.60 0.09292771
326.70 0.09394829
326.80 0.09498619
326.90 0.09606732
327.00 0.09722004
327.10 0.09845694
327.20 0.09976544
327.30 0.1011172
327.40 0.1024862
327.50 0.1038591
327.60 0.1052322
327.70 0.1066055
327.80 0.107979
327.90 0.1093524
328.00 0.1107259
328.10 0.1120994
328.20 0.1134728
328.30 0.114846
328.40 0.1162187
328.50 0.1175903
328.60 0.1189602
328.70 0.1203077
328.80 0.1215536
328.90 0.1225458
329.00 0.123118
329.10 0.1231963
329.20 0.1228545
329.30 0.1222591
329.40 0.121562
329.50 0.1208426
329.60 0.1201215
329.70 0.1193993
329.80 0.1186765
329.90 0.1179536
330.00 0.1172306
330.10 0.1165076
330.20 0.1157846
330.30 0.1150618
330.40 0.1143394
330.50 0.1136178
330.60 0.1128974
330.70 0.1121937
330.80 0.1115653
330.90 0.1111251
331.00 0.1109965
331.10 0.1112343
331.20 0.1117837
331.30 0.1125212
331.40 0.1133341
331.50 0.1141636
331.60 0.1149945
331.70 0.1158261
331.80 0.116658
331.90 0.1174902
332.00 0.1183224
332.10 0.1191545
332.20 0.1199867
332.30 0.1208187
332.40 0.1216505
332.50 0.1224819
332.60 0.1233123
332.70 0.1241323
332.80 0.1249046
332.90 0.1255577
333.00 0.1260136
333.10 0.1262374
333.20 0.126264
333.30 0.1261715
333.40 0.1260312
333.50 0.1258804
333.60 0.1257288
333.70 0.1255767
333.80 0.1254243
333.90 0.1252719
334.00 0.1251194
334.10 0.1249672
334.20 0.1248158
334.30 0.1246655
334.40 0.1245163
334.50 0.124368
334.60 0.1243448
334.70 0.1247284
334.80 0.1256294
334.90 0.1265517
335.00 0.1265483
335.10 0.1253633
335.20 0.1244951
335.30 0.1267392
335.40 0.1340329
335.50 0.1452598
335.60 0.1561349
335.70 0.1616925
335.80 0.1594856
335.90 0.1507967
336.00 0.1392708
336.10 0.1286646
336.20 0.1216027
336.30 0.1191913
336.40 0.1205516
336.50 0.1229295
336.60 0.1233484
336.70 0.1210807
336.80 0.1185722
336.90 0.1195212
337.00 0.1257071
337.10 0.135249
337.20 0.1436799
337.30 0.1470133
337.40 0.1445404
337.50 0.1392713
337.60 0.1356327
337.70 0.1361848
337.80 0.1401174
337.90 0.1447351
338.00 0.147975
338.10 0.1492673
338.20 0.1483123
338.30 0.1441342
338.40 0.1364065
338.50 0.1274087
338.60 0.1216724
338.70 0.122729
338.80 0.1298182
338.90 0.1381316
339.00 0.1426769
339.10 0.1423646
339.20 0.140677
339.30 0.1422396
339.40 0.1485569
339.50 0.1570349
339.60 0.1637802
339.70 0.1668672
339.80 0.16683
339.90 0.1647373
340.00 0.1610157
340.10 0.1561081
340.20 0.1510377
340.30 0.1465843
340.40 0.1422335
340.50 0.1367227
340.60 0.1297535
340.70 0.1226979
340.80 0.117517
340.90 0.1153272
341.00 0.1160554
341.10 0.1190203
341.20 0.1234347
341.30 0.128373
341.40 0.1327452
341.50 0.1357173
341.60 0.1372023
341.70 0.1378971
341.80 0.1387502
341.90 0.1402581
342.00 0.1420245
342.10 0.1428376
342.20 0.1414085
342.30 0.1374568
342.40 0.132295
342.50 0.1281652
342.60 0.1267352
342.70 0.12806
342.80 0.1307982
342.90 0.1332716
343.00 0.1344969
343.10 0.1346273
343.20 0.1345874
343.30 0.1351722
343.40 0.1363523
343.50 0.1374378
343.60 0.1378081
343.70 0.1372935
343.80 0.1360269
343.90 0.1343208
344.00 0.1327452
344.10 0.1319591
344.20 0.1321356
344.30 0.1326716
344.40 0.1327191
344.50 0.1319979
344.60 0.1310247
344.70 0.1306616
344.80 0.1315674
344.90 0.1339741
345.00 0.1377566
345.10 0.1425254
345.20 0.1476479
345.30 0.1522499
345.40 0.1553561
345.50 0.1563584
345.60 0.1555214
345.70 0.1539382
345.80 0.1527826
345.90 0.1524891
346.00 0.1525586
346.10 0.151997
346.20 0.1500104
346.30 0.1466314
346.40 0.1429203
346.50 0.1403486
346.60 0.1396301
346.70 0.1401012
346.80 0.1403382
346.90 0.1393169
347.00 0.136941
347.10 0.133846
347.20 0.131086
347.30 0.1298357
347.40 0.130842
347.50 0.1338365
347.60 0.1376602
347.70 0.1411534
347.80 0.1439301
347.90 0.146367
348.00 0.1490027
348.10 0.1519311
348.20 0.1546058
348.30 0.1561997
348.40 0.1562743
348.50 0.1551634
348.60 0.1536293
348.70 0.1521689
348.80 0.1507808
348.90 0.1493084
349.00 0.1477627
349.10 0.1462808
349.20 0.1449855
349.30 0.1440516
349.40 0.1437919
349.50 0.1444058
349.60 0.1455907
349.70 0.1465872
349.80 0.1468523
349.90 0.1468235
350.00 0.1478664
350.10 0.1511979
350.20 0.1567173
350.30 0.1628844
350.40 0.1677675
350.50 0.1702613
350.60 0.1704502
350.70 0.169094
350.80 0.1669796
350.90 0.1645489
351.00 0.1617272
351.10 0.1579593
351.20 0.1526467
351.30 0.1459246
351.40 0.1390856
351.50 0.1339605
351.60 0.1316243
351.70 0.1316393
351.80 0.1325657
351.90 0.133161
352.00 0.1330749
352.10 0.1325582
352.20 0.1319045
352.30 0.1313693
352.40 0.1314995
352.50 0.1332941
352.60 0.1376559
352.70 0.1444563
352.80 0.1521793
352.90 0.1587662
353.00 0.1631284
353.10 0.1658414
353.20 0.1682577
353.30 0.171128
353.40 0.1742712
353.50 0.1773208
353.60 0.1803525
353.70 0.1836488
353.80 0.187203
353.90 0.1907012
354.00 0.1937337
354.10 0.1957698
354.20 0.1961717
354.30 0.1946858
354.40 0.1919942
354.50 0.1894829
354.60 0.1882078
354.70 0.188118
354.80 0.1883473
354.90 0.1881243
355.00 0.1873046
355.10 0.1861979
355.20 0.1851334
355.30 0.1842629
355.40 0.1836593
355.50 0.1833533
355.60 0.1831629
355.70 0.1825808
355.80 0.1810103
355.90 0.1782604
356.00 0.1747726
356.10 0.1712617
356.20 0.1681039
356.30 0.1650379
356.40 0.1614535
356.50 0.1570583
356.60 0.1523625
356.70 0.1484968
356.80 0.1464253
356.90 0.1462341
357.00 0.1471377
357.10 0.1480861
357.20 0.1483116
357.30 0.1474854
357.40 0.145623
357.50 0.1429811
357.60 0.1399836
357.70 0.1370728
357.80 0.1345308
357.90 0.1324157
358.00 0.1307154
358.10 0.1296159
358.20 0.1295723
358.30 0.1310104
358.40 0.1338986
358.50 0.1375933
358.60 0.1410879
358.70 0.143443
358.80 0.1441768
358.90 0.1434976
359.00 0.1423179
359.10 0.1419119
359.20 0.143214
359.30 0.1461676
359.40 0.14965
359.50 0.1521751
359.60 0.1528996
359.70 0.152146
359.80 0.1510347
359.90 0.150536
360.00 0.1506991
360.10 0.1506538
360.20 0.1493548
360.30 0.1464236
360.40 0.1424695
360.50 0.1387872
360.60 0.1367581
360.70 0.1373013
360.80 0.1404594
360.90 0.1453023
361.00 0.1503834
361.10 0.1545614
361.20 0.1575394
361.30 0.1596428
361.40 0.1611551
361.50 0.1620144
361.60 0.1622066
361.70 0.1621918
361.80 0.1626545
361.90 0.1638103
362.00 0.1651494
362.10 0.1659715
362.20 0.1660303
362.30 0.1656033
362.40 0.1651559
362.50 0.1650769
362.60 0.1654955
362.70 0.1660583
362.80 0.1659925
362.90 0.1647213
363.00 0.1625371
363.10 0.1605148
363.20 0.159647
363.30 0.1601046
363.40 0.1613086
363.50 0.162536
363.60 0.1633841
363.70 0.1638106
363.80 0.1638938
363.90 0.1635988
364.00 0.1627184
364.10 0.1610179
364.20 0.1584732
364.30 0.1554032
364.40 0.152403
364.50 0.1501508
364.60 0.1491466
364.70 0.1494345
364.80 0.1505424
364.90 0.1518396
365.00 0.153112
365.10 0.1547768
365.20 0.1573647
365.30 0.160725
365.40 0.1638322
365.50 0.1654946
365.60 0.1653355
365.70 0.1640779
365.80 0.1628484
365.90 0.162264
366.00 0.162201
366.10 0.1623069
366.20 0.1625578
366.30 0.1632098
366.40 0.1643273
366.50 0.1655257
366.60 0.1661727
366.70 0.165796
366.80 0.1643297
366.90 0.1620784
367.00 0.1595588
367.10 0.1573577
367.20 0.1560079
367.30 0.1558521
367.40 0.1568949
367.50 0.1587723
367.60 0.1609302
367.70 0.1629116
367.80 0.1645455
367.90 0.1659176
368.00 0.1671829
368.10 0.1683773
368.20 0.1693504
368.30 0.169839
368.40 0.169638
368.50 0.1687938
368.60 0.1676851
368.70 0.1668661
368.80 0.1667292
368.90 0.1672662
369.00 0.1681767
369.10 0.1692218
369.20 0.1703874
369.30 0.1716602
369.40 0.1727435
369.50 0.1731306
369.60 0.172544
369.70 0.1712766
369.80 0.1700902
369.90 0.1697841
370.00 0.1707808
370.10 0.1729603
370.20 0.1757955
370.30 0.1786356
370.40 0.18093
370.50 0.182321
370.60 0.1826842
370.70 0.1822257
370.80 0.1814946
370.90 0.1811372
371.00 0.1814774
371.10 0.1822476
371.20 0.18269
371.30 0.1819491
371.40 0.1795494
371.50 0.1757128
371.60 0.1713252
371.70 0.1675235
371.80 0.165176
371.90 0.1646018
372.00 0.165596
372.10 0.16749
372.20 0.1691068
372.30 0.1689665
372.40 0.1659718
372.50 0.1602686
372.60 0.1535049
372.70 0.1480941
372.80 0.1459875
372.90 0.1478201
373.00 0.1528619
373.10 0.1595471
373.20 0.1661218
373.30 0.1711183
373.40 0.1736493
373.50 0.1734725
373.60 0.1708312
373.70 0.1662208
373.80 0.1602844
373.90 0.1538689
374.00 0.1480342
374.10 0.1438697
374.20 0.1422177
374.30 0.143525
374.40 0.1478766
374.50 0.1550262
374.60 0.1643082
374.70 0.1745145
374.80 0.1839718
374.90 0.190965
375.00 0.1943235
375.10 0.1937961
375.20 0.1900112
375.30 0.1841491
375.40 0.1775807
375.50 0.1715788
375.60 0.1670165
375.70 0.1641344
375.80 0.1625547
375.90 0.1615999
376.00 0.1607665
376.10 0.1600983
376.20 0.1602654
376.30 0.1622883
376.40 0.1670398
376.50 0.1748683
376.60 0.1855875
376.70 0.1985915
376.80 0.2127736
376.90 0.2263004
377.00 0.2367636
377.10 0.2420019
377.20 0.2410867
377.30 0.2346802
377.40 0.2245496
377.50 0.2127325
377.60 0.2009565
377.70 0.1904692
377.80 0.1819917
377.90 0.1756809
378.00 0.1712165
378.10 0.1680837
378.20 0.1658757
378.30 0.1643718
378.40 0.1634183
378.50 0.1628899
378.60 0.1628079
378.70 0.1634063
378.80 0.165032
378.90 0.1680734
379.00 0.1730742
379.10 0.1807985
379.20 0.1919119
379.30 0.2063941
379.40 0.2231761
379.50 0.2402939
379.60 0.2553398
379.70 0.2659411
379.80 0.2702966
379.90 0.2677357
380.00 0.2590602
380.10 0.2463107
380.20 0.231991
380.30 0.2182123
380.40 0.2062502
380.50 0.1965737
380.60 0.1890911
380.70 0.1833633
380.80 0.178762
380.90 0.174744
381.00 0.1711194
381.10 0.1680449
381.20 0.1657028
381.30 0.1639985
381.40 0.16265
381.50 0.1615841
381.60 0.1611574
381.70 0.1617308
381.80 0.1630963
381.90 0.1644684
382.00 0.165129
382.10 0.1682468
382.20 0.1811937
382.30 0.2012871
382.40 0.2287963
382.50 0.2677133
382.60 0.3208676
382.70 0.3814093
382.80 0.4282596
382.90 0.4438467
383.00 0.4192727
383.10 0.3805377
383.20 0.3772409
383.30 0.4154154
383.40 0.4787496
383.50 0.5358777
383.60 0.5524189
383.70 0.5120692
383.80 0.4309292
383.90 0.3468689
384.00 0.2912026
384.10 0.2699238
384.20 0.2680844
384.30 0.2699221
384.40 0.27004
384.50 0.2601129
384.60 0.2393958
384.70 0.1851235
384.80 0.1189403
384.90 0.07588033
385.00 0.07972433
385.10 0.1218421
385.20 0.171724
385.30 0.199936
385.40 0.1949486
385.50 0.1713167
385.60 0.1574233
385.70 0.1687369
385.80 0.1953465
385.90 0.219279
386.00 0.2347588
386.10 0.2462398
386.20 0.2539642
386.30 0.2542642
386.40 0.2500843
386.50 0.2507804
386.60 0.2637408
386.70 0.289016
386.80 0.3191512
386.90 0.3375359
387.00 0.3251575
387.10 0.2796035
387.20 0.2256891
387.30 0.1987275
387.40 0.2113365
387.50 0.240824
387.60 0.2528263
387.70 0.2355017
387.80 0.2025033
387.90 0.1684572
388.00 0.1375237
388.10 0.1203223
388.20 0.1410362
388.30 0.2070315
388.40 0.2863355
388.50 0.3391987
388.60 0.3698635
388.70 0.4175611
388.80 0.4945106
388.90 0.557907
389.00 0.5567476
389.10 0.4915338
389.20 0.409586
389.30 0.3530669
389.40 0.3272747
389.50 0.3091855
389.60 0.2734884
389.70 0.2436771
389.80 0.2205968
389.90 0.2373087
390.00 0.2947932
390.10 0.3419389
390.20 0.3705673
390.30 0.3770967
390.40 0.3722615
390.50 0.3895767
390.60 0.4092589
390.70 0.3982876
390.80 0.350583
390.90 0.2913794
391.00 0.2524322
391.10 0.2537737
391.20 0.2960502
391.30 0.3273768
391.40 0.3500578
391.50 0.3532742
391.60 0.3353653
391.70 0.3060516
391.80 0.275054
391.90 0.2495402
392.00 0.2387011
392.10 0.2429692
392.20 0.254376
392.30 0.251853
392.40 0.2455865
392.50 0.2383427
392.60 0.2252823
392.70 0.2271148
392.80 0.2528502
392.90 0.3070275
393.00 0.3819429
393.10 0.4996825
393.20 0.6898022
393.30 0.9031344
393.40 1.038958
393.50 1.015904
393.60 0.8426144
393.70 0.6126484
393.80 0.4257068
393.90 0.3193061
394.00 0.2700253
394.10 0.2442526
394.20 0.2281346
394.30 0.2093898
394.40 0.21082
394.50 0.2320977
394.60 0.2656793
394.70 0.2973797
394.80 0.3309865
394.90 0.3470766
395.00 0.3527023
395.10 0.3516712
395.20 0.3469841
395.30 0.3447738
395.40 0.354144
395.50 0.3571063
395.60 0.3407158
395.70 0.3212369
395.80 0.3042039
395.90 0.2957027
396.00 0.2870665
396.10 0.271971
396.20 0.2575033
396.30 0.2490457
396.40 0.2677451
396.50 0.3318737
396.60 0.4656331
396.70 0.6846561
396.80 0.9514464
396.90 1.170066
397.00 1.235328
397.10 1.114634
397.20 0.8764512
397.30 0.6366789
397.40 0.4694262
397.50 0.3818965
397.60 0.3466989
397.70 0.3376331
397.80 0.3394686
397.90 0.3410105
398.00 0.3309932
398.10 0.3043825
398.20 0.2707205
398.30 0.2521307
398.40 0.2651616
398.50 0.3048839
398.60 0.3501083
398.70 0.3843444
398.80 0.3904385
398.90 0.3851406
399.00 0.3702721
399.10 0.3583538
399.20 0.3667388
399.30 0.393959
399.40 0.4148581
399.50 0.4084811
399.60 0.3799688
399.70 0.3568676
399.80 0.3574674
399.90 0.3668804
400.00 0.3646391
400.10 0.3492747
400.20 0.3380451
400.30 0.3439786
400.40 0.3597573
400.50 0.3668684
400.60 0.358317
400.70 0.3563493
400.80 0.3727276
400.90 0.3954348
401.00 0.4143511
401.10 0.4178284
401.20 0.4093257
401.30 0.388038
401.40 0.3641686
401.50 0.3438074
401.60 0.3224203
401.70 0.2894386
401.80 0.2673037
401.90 0.2655316
402.00 0.2795964
402.10 0.2963772
402.20 0.3033679
402.30 0.2965379
402.40 0.2844299
402.50 0.2832137
402.60 0.3017801
402.70 0.3320826
402.80 0.3538888
402.90 0.3504804
403.00 0.3213153
403.10 0.2789474
403.20 0.2390602
403.30 0.2144006
403.40 0.212682
403.50 0.2349063
403.60 0.2723311
403.70 0.3080603
403.80 0.3389874
403.90 0.3727222
404.00 0.4094594
404.10 0.440766
404.20 0.4533624
404.30 0.443465
404.40 0.4174509
404.50 0.382902
404.60 0.3463041
404.70 0.317105
404.80 0.3023469
404.90 0.2984585
405.00 0.2963531
405.10 0.2948523
405.20 0.303757
405.30 0.3288804
405.40 0.3588598
405.50 0.373971
405.60 0.3680265
405.70 0.3533295
405.80 0.3426184
405.90 0.3376669
406.00 0.330001
406.10 0.3143457
406.20 0.2947778
406.30 0.2811825
406.40 0.2809261
406.50 0.2937511
406.60 0.3072825
406.70 0.3061066
406.80 0.2872242
406.90 0.2634797
407.00 0.2530986
407.10 0.2623753
407.20 0.2726833
407.30 0.2727429
407.40 0.2630689
407.50 0.2399683
407.60 0.2225269
407.70 0.220484
407.80 0.2334212
407.90 0.2580806
408.00 0.2882408
408.10 0.3142991
408.20 0.3280081
408.30 0.3269812
408.40 0.3165262
408.50 0.3042125
408.60 0.2942818
408.70 0.2862519
408.80 0.2791281
408.90 0.2751332
409.00 0.2752975
409.10 0.2743445
409.20 0.2660227
409.30 0.2499794
409.40 0.2347681
409.50 0.2290906
409.60 0.2358046
409.70 0.2540845
409.80 0.2864741
409.90 0.3414678
410.00 0.4278143
410.10 0.5366159
410.20 0.6270251
410.30 0.6452377
410.40 0.5720487
410.50 0.4483535
410.60 0.3428017
410.70 0.2793213
410.80 0.2687515
410.90 0.2764011
411.00 0.2799291
411.10 0.2756689
411.20 0.2664346
411.30 0.2560369
411.40 0.2506014
411.50 0.2530936
411.60 0.237292
411.70 0.1965117
411.80 0.1523976
411.90 0.1204729
412.00 0.1140957
412.10 0.1349022
412.20 0.17277
412.30 0.2106405
412.40 0.2369913
412.50 0.2500059
412.60 0.2540124
412.70 0.2539865
412.80 0.2522653
412.90 0.2487288
413.00 0.2445331
413.10 0.2437786
413.20 0.2501325
413.30 0.2608499
413.40 0.2671286
413.50 0.2625326
413.60 0.2504763
413.70 0.241287
413.80 0.2431151
413.90 0.257442
414.00 0.2800038
414.10 0.3029195
414.20 0.299048
414.30 0.2777799
414.40 0.2466197
414.50 0.2192687
414.60 0.2081091
414.70 0.2147993
414.80 0.2167876
414.90 0.2157915
415.00 0.2231612
415.10 0.2336552
415.20 0.2454998
415.30 0.2661263
415.40 0.2863658
415.50 0.2991999
415.60 0.303361
415.70 0.3019242
415.80 0.3003671
415.90 0.3027877
416.00 0.3046597
416.10 0.3025856
416.20 0.2930939
