# Version 2.1 - nm, norm@500 to 1, cut digits
# Wavelength(nm)  Flambda(ergs/cm^s/s/nm)
300.00 0.007395266
300.10 0.009801012
300.20 0.01127974
300.30 0.01190874
300.40 0.01209082
300.50 0.01215471
300.60 0.01221178
300.70 0.01226449
300.80 0.01231665
300.90 0.01237339
301.00 0.01243976
301.10 0.01251799
301.20 0.01260631
301.30 0.01270075
301.40 0.01279767
301.50 0.01289517
301.60 0.01299274
301.70 0.01309036
301.80 0.01318799
301.90 0.01328564
302.00 0.01338329
302.10 0.01348093
302.20 0.01357858
302.30 0.01367624
302.40 0.01377391
302.50 0.01387161
302.60 0.01396937
302.70 0.01406757
302.80 0.01416765
302.90 0.01427238
303.00 0.01438477
303.10 0.01450616
303.20 0.01463522
303.30 0.01476892
303.40 0.01490451
303.50 0.01504054
303.60 0.01517662
303.70 0.01531273
303.80 0.01544886
303.90 0.015585
304.00 0.01572114
304.10 0.01585728
304.20 0.01599341
304.30 0.01612952
304.40 0.01626559
304.50 0.01640155
304.60 0.01653735
304.70 0.01667181
304.80 0.0168005
304.90 0.01691498
305.00 0.01700602
305.10 0.01706953
305.20 0.0171096
305.30 0.01713546
305.40 0.01715555
305.50 0.0171743
305.60 0.01719289
305.70 0.01721138
305.80 0.01722981
305.90 0.01724823
306.00 0.01726664
306.10 0.01728506
306.20 0.01730347
306.30 0.01732188
306.40 0.01734029
306.50 0.01735871
306.60 0.01737712
306.70 0.01739554
306.80 0.01741396
306.90 0.01743242
307.00 0.01745093
307.10 0.0174695
307.20 0.01748812
307.30 0.01750678
307.40 0.01752544
307.50 0.01754411
307.60 0.01756278
307.70 0.01758144
307.80 0.01760011
307.90 0.01761878
308.00 0.01763745
308.10 0.01765612
308.20 0.0176748
308.30 0.01769352
308.40 0.01771238
308.50 0.01773148
308.60 0.017751
308.70 0.01777388
308.80 0.01781119
308.90 0.01788405
309.00 0.01801558
309.10 0.01821602
309.20 0.01847513
309.30 0.0187698
309.40 0.0190789
309.50 0.01939135
309.60 0.01970422
309.70 0.02001734
309.80 0.02033058
309.90 0.02064388
310.00 0.02095718
310.10 0.02127049
310.20 0.02158378
310.30 0.02189703
310.40 0.02221015
310.50 0.02252302
310.60 0.02283546
310.70 0.02314454
310.80 0.02343911
310.90 0.02369793
311.00 0.02389778
311.10 0.02402835
311.20 0.02409995
311.30 0.02413581
311.40 0.02415715
311.50 0.02417512
311.60 0.02419267
311.70 0.02420998
311.80 0.02422715
311.90 0.02424428
312.00 0.0242614
312.10 0.02427851
312.20 0.02429564
312.30 0.02431284
312.40 0.02433018
312.50 0.02434784
312.60 0.02436601
312.70 0.02438835
312.80 0.02442861
312.90 0.02451302
313.00 0.02467025
313.10 0.02491306
313.20 0.0252287
313.30 0.02558848
313.40 0.02596618
313.50 0.02634805
313.60 0.02673044
313.70 0.02711313
313.80 0.02749598
313.90 0.02787889
314.00 0.02826182
314.10 0.02864475
314.20 0.02902768
314.30 0.02941066
314.40 0.02979375
314.50 0.03017705
314.60 0.03056071
314.70 0.03094727
314.80 0.03134631
314.90 0.03177608
315.00 0.03225654
315.10 0.03279657
315.20 0.0333873
315.30 0.03400875
315.40 0.03464268
315.50 0.03527951
315.60 0.0359167
315.70 0.0365541
315.80 0.03719162
315.90 0.03782917
316.00 0.03846674
316.10 0.0391043
316.20 0.03974183
316.30 0.0403792
316.40 0.04101618
316.50 0.04165237
316.60 0.04228722
316.70 0.04291143
316.80 0.04348977
316.90 0.04395516
317.00 0.04423419
317.10 0.04429428
317.20 0.04416801
317.30 0.04392879
317.40 0.04364371
317.50 0.04334798
317.60 0.04305091
317.70 0.04275306
317.80 0.04245481
317.90 0.0421564
318.00 0.04185796
318.10 0.04155951
318.20 0.0412611
318.30 0.0409628
318.40 0.04066481
318.50 0.04036742
318.60 0.04007106
318.70 0.03978284
318.80 0.03952973
318.90 0.03936308
319.00 0.0393391
319.10 0.0394827
319.20 0.03976897
319.30 0.04014169
319.40 0.04054953
319.50 0.04096551
319.60 0.04138252
319.70 0.04180013
319.80 0.04221804
319.90 0.04263608
320.00 0.04305414
320.10 0.0434722
320.20 0.04389025
320.30 0.04430826
320.40 0.04472615
320.50 0.04514382
320.60 0.04556111
320.70 0.04597539
320.80 0.04637669
320.90 0.046746
321.00 0.04706256
321.10 0.04731713
321.20 0.04751893
321.30 0.04768876
321.40 0.04784561
321.50 0.04799944
321.60 0.04815289
321.70 0.04830612
321.80 0.04845923
321.90 0.04861231
322.00 0.04876537
322.10 0.04891843
322.20 0.04907153
322.30 0.04922479
322.40 0.04937846
322.50 0.04953295
322.60 0.04968882
322.70 0.04985569
322.80 0.05007
322.90 0.05040111
323.00 0.05092494
323.10 0.05167519
323.20 0.05261815
323.30 0.05367792
323.40 0.05478512
323.50 0.05590333
323.60 0.05702292
323.70 0.05814332
323.80 0.05926414
323.90 0.06038511
324.00 0.06150613
324.10 0.06262714
324.20 0.06374815
324.30 0.06486913
324.40 0.06599005
324.50 0.06711083
324.60 0.06823139
324.70 0.06935016
324.80 0.07046122
324.90 0.07155332
325.00 0.0726141
325.10 0.07363811
325.20 0.07463081
325.30 0.07560454
325.40 0.07657056
325.50 0.0775348
325.60 0.07849881
325.70 0.07946269
325.80 0.0804265
325.90 0.08139028
326.00 0.08235406
326.10 0.08331784
326.20 0.08428164
326.30 0.08524549
326.40 0.08620948
326.50 0.08717376
326.60 0.08813852
326.70 0.08910713
326.80 0.09009236
326.90 0.09111847
327.00 0.09221206
327.10 0.09338492
327.20 0.09462526
327.30 0.09590648
327.40 0.09720432
327.50 0.09850601
327.60 0.09980818
327.70 0.1011106
327.80 0.1024132
327.90 0.1037159
328.00 0.1050186
328.10 0.1063212
328.20 0.1076238
328.30 0.1089261
328.40 0.1102275
328.50 0.1115272
328.60 0.1128242
328.70 0.1140985
328.80 0.1152753
328.90 0.1162122
329.00 0.1167532
329.10 0.1168292
329.20 0.1165092
329.30 0.1159493
329.40 0.1152919
329.50 0.114612
329.60 0.1139291
329.70 0.1132447
329.80 0.1125594
329.90 0.1118737
330.00 0.111188
330.10 0.1105022
330.20 0.1098166
330.30 0.1091311
330.40 0.1084463
330.50 0.1077628
330.60 0.1070813
330.70 0.1064167
330.80 0.1058243
330.90 0.1054098
331.00 0.1052891
331.10 0.1055134
331.20 0.1060314
331.30 0.1067273
331.40 0.1074955
331.50 0.1082805
331.60 0.1090676
331.70 0.109856
331.80 0.110645
331.90 0.1114342
332.00 0.1122235
332.10 0.1130128
332.20 0.113802
332.30 0.1145911
332.40 0.1153798
332.50 0.1161677
332.60 0.1169543
332.70 0.1177302
332.80 0.1184604
332.90 0.1190779
333.00 0.1195095
333.10 0.1197226
333.20 0.1197497
333.30 0.1196642
333.40 0.1195329
333.50 0.119391
333.60 0.1192478
333.70 0.1191038
333.80 0.1189593
333.90 0.1188148
334.00 0.1186702
334.10 0.118526
334.20 0.1183832
334.30 0.118242
334.40 0.1181027
334.50 0.1179647
334.60 0.1179442
334.70 0.1183049
334.80 0.1191515
334.90 0.1200227
335.00 0.1200364
335.10 0.1189555
335.20 0.1181813
335.30 0.1203247
335.40 0.1271908
335.50 0.1377286
335.60 0.1479251
335.70 0.1531324
335.80 0.1510604
335.90 0.1429085
336.00 0.1320886
336.10 0.1221195
336.20 0.1154627
336.30 0.1131597
336.40 0.1143945
336.50 0.1165959
336.60 0.1169828
336.70 0.1148738
336.80 0.112552
336.90 0.1134707
337.00 0.1192887
337.10 0.1282444
337.20 0.1361585
337.30 0.1393026
337.40 0.1370134
337.50 0.1321051
337.60 0.128717
337.70 0.1292433
337.80 0.1329268
337.90 0.1372471
338.00 0.1402737
338.10 0.1414716
338.20 0.1405605
338.30 0.13663
338.40 0.1293792
338.50 0.1209443
338.60 0.1155661
338.70 0.116549
338.80 0.1231842
338.90 0.1309769
339.00 0.1352588
339.10 0.1350087
339.20 0.1334783
339.30 0.1349877
339.40 0.1409399
339.50 0.1489068
339.60 0.1552462
339.70 0.1581548
339.80 0.1581283
339.90 0.156164
340.00 0.1526601
340.10 0.1480321
340.20 0.1432393
340.30 0.1390141
340.40 0.1348805
340.50 0.1296633
340.60 0.1230882
340.70 0.116442
340.80 0.1115616
340.90 0.1094929
341.00 0.1101685
341.10 0.1129503
341.20 0.1170993
341.30 0.1217462
341.40 0.125868
341.50 0.1286809
341.60 0.1301002
341.70 0.1307749
341.80 0.1315895
341.90 0.1330077
342.00 0.1346586
342.10 0.1354102
342.20 0.1340597
342.30 0.1303476
342.40 0.1255036
342.50 0.1216266
342.60 0.1202778
342.70 0.1215102
342.80 0.1240704
342.90 0.1263886
343.00 0.127544
343.10 0.1276776
343.20 0.1276515
343.30 0.1282071
343.40 0.1293159
343.50 0.1303329
343.60 0.1306781
343.70 0.1301932
343.80 0.1290033
343.90 0.1274009
344.00 0.1259199
344.10 0.1251771
344.20 0.1253348
344.30 0.1258305
344.40 0.1258725
344.50 0.1252001
344.60 0.1242977
344.70 0.1239725
344.80 0.1248409
344.90 0.1271196
345.00 0.1306902
345.10 0.1351861
345.20 0.1400128
345.30 0.1443495
345.40 0.147282
345.50 0.1482398
345.60 0.1474696
345.70 0.1459933
345.80 0.144909
345.90 0.1446241
346.00 0.1446733
346.10 0.144129
346.20 0.1422505
346.30 0.1390696
346.40 0.1355782
346.50 0.1331523
346.60 0.1324592
346.70 0.132879
346.80 0.133081
346.90 0.1321083
347.00 0.1298717
347.10 0.1269668
347.20 0.1243804
347.30 0.1232121
347.40 0.1241616
347.50 0.126978
347.60 0.1305772
347.70 0.1338735
347.80 0.1365034
347.90 0.138816
348.00 0.1413119
348.10 0.1440766
348.20 0.1465977
348.30 0.1481012
348.40 0.1481772
348.50 0.1471379
348.60 0.1456968
348.70 0.1443195
348.80 0.1430066
348.90 0.1416138
349.00 0.1401528
349.10 0.1387536
349.20 0.1375316
349.30 0.1366512
349.40 0.1364048
349.50 0.1369793
349.60 0.1380924
349.70 0.1390352
349.80 0.1393008
349.90 0.1392987
350.00 0.1403048
350.10 0.1434548
350.20 0.1486521
350.30 0.1544538
350.40 0.1590504
350.50 0.161405
350.60 0.1615933
350.70 0.1603234
350.80 0.1583301
350.90 0.1560273
351.00 0.1533474
351.10 0.1497745
351.20 0.1447533
351.30 0.1384145
351.40 0.13197
351.50 0.1271344
351.60 0.124914
351.70 0.1249007
351.80 0.1257481
351.90 0.1262937
352.00 0.126209
352.10 0.1257281
352.20 0.1251259
352.30 0.1246426
352.40 0.1247907
352.50 0.1265049
352.60 0.1306284
352.70 0.1370392
352.80 0.1443175
352.90 0.1505355
353.00 0.154673
353.10 0.1572655
353.20 0.1595763
353.30 0.1623075
353.40 0.1652908
353.50 0.168185
353.60 0.1710608
353.70 0.1741819
353.80 0.1775407
353.90 0.180842
354.00 0.1837008
354.10 0.18562
354.20 0.1860031
354.30 0.1846142
354.40 0.1820925
354.50 0.1797352
354.60 0.1785313
354.70 0.178435
354.80 0.1786375
354.90 0.1784183
355.00 0.1776424
355.10 0.1765987
355.20 0.1755945
355.30 0.174771
355.40 0.1741957
355.50 0.1738964
355.60 0.1737021
355.70 0.1731379
355.80 0.1716451
355.90 0.1690447
356.00 0.1657493
356.10 0.1624273
356.20 0.1594318
356.30 0.1565198
356.40 0.1531233
356.50 0.1489715
356.60 0.1445431
356.70 0.1408967
356.80 0.138934
356.90 0.1387349
357.00 0.1395639
357.10 0.140437
357.20 0.1406345
357.30 0.1398466
357.40 0.1380864
357.50 0.1355937
357.60 0.1327657
357.70 0.1300179
357.80 0.1276166
357.90 0.125619
358.00 0.1240162
358.10 0.1229837
358.20 0.122947
358.30 0.1243032
358.40 0.1270205
358.50 0.1304948
358.60 0.1337827
358.70 0.1360042
358.80 0.1367082
358.90 0.1360894
359.00 0.1350015
359.10 0.1346366
359.20 0.1358687
359.30 0.138645
359.40 0.1419155
359.50 0.1442897
359.60 0.1449781
359.70 0.1442804
359.80 0.1432427
359.90 0.1427714
360.00 0.1429124
360.10 0.1428534
360.20 0.1416195
360.30 0.1388595
360.40 0.1351461
360.50 0.131693
360.60 0.1297941
360.70 0.1303103
360.80 0.1332814
360.90 0.1378365
361.00 0.1426203
361.10 0.1465623
361.20 0.1493814
361.30 0.1513792
361.40 0.1528188
361.50 0.1536426
361.60 0.1538381
361.70 0.1538367
361.80 0.154279
361.90 0.1553674
362.00 0.1566258
362.10 0.1573999
362.20 0.1574593
362.30 0.1570631
362.40 0.156646
362.50 0.1565712
362.60 0.1569591
362.70 0.1574796
362.80 0.1574109
362.90 0.1562146
363.00 0.1541651
363.10 0.1522682
363.20 0.1514524
363.30 0.1518782
363.40 0.1530042
363.50 0.1541535
363.60 0.1549484
363.70 0.1553472
363.80 0.1554214
363.90 0.1551369
364.00 0.1543
364.10 0.1526919
364.20 0.1502916
364.30 0.1473997
364.40 0.1445746
364.50 0.1424526
364.60 0.1415032
364.70 0.141769
364.80 0.142809
364.90 0.1440334
365.00 0.1452406
365.10 0.1468185
365.20 0.1492608
365.30 0.1524239
365.40 0.1553474
365.50 0.156916
365.60 0.1567771
365.70 0.1556069
365.80 0.1544596
365.90 0.1539135
366.00 0.1538545
366.10 0.1539546
366.20 0.1541916
366.30 0.1548042
366.40 0.1558513
366.50 0.156972
366.60 0.1575738
366.70 0.1572145
366.80 0.1558331
366.90 0.1537156
367.00 0.151347
367.10 0.1492781
367.20 0.1480091
367.30 0.1478619
367.40 0.1488412
367.50 0.1506065
367.60 0.1526388
367.70 0.1545088
367.80 0.156055
367.90 0.1573556
368.00 0.158554
368.10 0.1596827
368.20 0.1606007
368.30 0.1610621
368.40 0.1608759
368.50 0.1600866
368.60 0.1590493
368.70 0.1582834
368.80 0.1581568
368.90 0.1586624
369.00 0.1595195
369.10 0.160504
369.20 0.1616015
369.30 0.1627985
369.40 0.1638165
369.50 0.1641821
369.60 0.1636365
369.70 0.1624548
369.80 0.1613506
369.90 0.1610726
370.00 0.1620162
370.10 0.1640691
370.20 0.1667375
370.30 0.1694113
370.40 0.1715739
370.50 0.1728896
370.60 0.173241
370.70 0.1728206
370.80 0.1721414
370.90 0.1718077
371.00 0.1721217
371.10 0.172833
371.20 0.1732326
371.30 0.1725207
371.40 0.1702539
371.50 0.1666411
371.60 0.1625132
371.70 0.1589349
371.80 0.1567197
371.90 0.1561659
372.00 0.1570805
372.10 0.1588361
372.20 0.1603293
372.30 0.1601754
372.40 0.1573491
372.50 0.1519896
372.60 0.1456417
372.70 0.1405667
372.80 0.1385925
372.90 0.1403147
373.00 0.1450499
373.10 0.1513301
373.20 0.1575091
373.30 0.1622077
373.40 0.1645898
373.50 0.1644247
373.60 0.1619385
373.70 0.1575972
373.80 0.152007
373.90 0.1459672
374.00 0.1404769
374.10 0.136562
374.20 0.1350156
374.30 0.1362586
374.40 0.1403699
374.50 0.1471153
374.60 0.1558656
374.70 0.1654825
374.80 0.1743924
374.90 0.1809839
375.00 0.1841569
375.10 0.1836742
375.20 0.1801242
375.30 0.1746145
375.40 0.1684322
375.50 0.162774
375.60 0.158462
375.70 0.1557261
375.80 0.154217
375.90 0.1533043
376.00 0.1525198
376.10 0.1519069
376.20 0.1520946
376.30 0.1540388
376.40 0.1585561
376.50 0.1659704
376.60 0.1761028
376.70 0.1883785
376.80 0.2017524
376.90 0.2144986
377.00 0.2243547
377.10 0.2292924
377.20 0.2284395
377.30 0.2224161
377.40 0.212879
377.50 0.201742
377.60 0.1906304
377.70 0.1807207
377.80 0.1726957
377.90 0.1667078
378.00 0.1624611
378.10 0.159475
378.20 0.1573686
378.30 0.1559339
378.40 0.1550261
378.50 0.1545278
378.60 0.1544602
378.70 0.1550441
378.80 0.1566071
378.90 0.1595155
379.00 0.1642798
379.10 0.1716143
379.20 0.1821376
379.30 0.1958235
379.40 0.2116623
379.50 0.2278049
379.60 0.2419871
379.70 0.2519791
379.80 0.256089
379.90 0.2536869
380.00 0.2455252
380.10 0.2335188
380.20 0.2200188
380.30 0.207011
380.40 0.1956989
380.50 0.18653
380.60 0.1794246
380.70 0.1739748
380.80 0.1695937
380.90 0.1657721
381.00 0.1623306
381.10 0.1594137
381.20 0.1571903
381.30 0.1555708
381.40 0.1542906
381.50 0.1532805
381.60 0.1529148
381.70 0.1535813
381.80 0.1551128
381.90 0.1568093
382.00 0.1580636
382.10 0.1611156
382.20 0.1701777
382.30 0.1729255
382.40 0.1697266
382.50 0.1809479
382.60 0.2331378
382.70 0.3314417
382.80 0.4391261
382.90 0.5063934
383.00 0.4952124
383.10 0.4398141
383.20 0.4291826
383.30 0.4827571
383.40 0.5749636
383.50 0.6516874
383.60 0.66054
383.70 0.5874166
383.80 0.4693685
383.90 0.3615132
384.00 0.2894818
384.10 0.2436998
384.20 0.2133234
384.30 0.2088247
384.40 0.2378331
384.50 0.2655551
384.60 0.2608822
384.70 0.1803533
384.80 0.06882608
384.90 0
385.00 0
385.10 0
385.20 0.03865618
385.30 0.06983671
385.40 0.08135145
385.50 0.08146866
385.60 0.08620618
385.70 0.103261
385.80 0.1279301
385.90 0.1554408
386.00 0.1888579
386.10 0.227141
386.20 0.2545397
386.30 0.2577288
386.40 0.2460182
386.50 0.2425748
386.60 0.261077
386.70 0.2973802
386.80 0.3379693
386.90 0.361945
387.00 0.347276
387.10 0.2913216
387.20 0.2224885
387.30 0.1791374
387.40 0.1728206
387.50 0.1808662
387.60 0.1776299
387.70 0.1636
387.80 0.1532442
387.90 0.1483323
388.00 0.1401692
388.10 0.1395793
388.20 0.1789048
388.30 0.2647835
388.40 0.3511791
388.50 0.385201
388.60 0.3774881
388.70 0.3912856
388.80 0.4564466
388.90 0.5246558
389.00 0.5275475
389.10 0.4612776
389.20 0.3855215
389.30 0.3489223
389.40 0.344672
389.50 0.3293616
389.60 0.268386
389.70 0.2100664
389.80 0.1568105
389.90 0.1529712
390.00 0.2003335
390.10 0.2381353
390.20 0.2778348
390.30 0.3150146
390.40 0.3437979
390.50 0.3970908
390.60 0.4427413
390.70 0.4372711
390.80 0.3728503
390.90 0.2833329
391.00 0.2153546
391.10 0.2022591
391.20 0.2488466
391.30 0.2780444
391.40 0.3011284
391.50 0.3069942
391.60 0.2945243
391.70 0.2782174
391.80 0.2723029
391.90 0.2821632
392.00 0.3082591
392.10 0.335804
392.20 0.3459553
392.30 0.3126393
392.40 0.2694828
392.50 0.2362374
392.60 0.2065689
392.70 0.1982951
392.80 0.2113639
392.90 0.2613071
393.00 0.3592419
393.10 0.5468464
393.20 0.8500428
393.30 1.173238
393.40 1.372194
393.50 1.349736
393.60 1.125466
393.70 0.81799
393.80 0.5517367
393.90 0.3770398
394.00 0.2699612
394.10 0.1956444
394.20 0.146074
394.30 0.1085284
394.40 0.1186353
394.50 0.1684545
394.60 0.2374085
394.70 0.2983659
394.80 0.3569515
394.90 0.3844903
395.00 0.3946894
395.10 0.3921472
395.20 0.3771612
395.30 0.3582936
395.40 0.3569419
395.50 0.3568696
395.60 0.3482468
395.70 0.3558451
395.80 0.3706163
395.90 0.3767882
396.00 0.3498044
396.10 0.2971236
396.20 0.2574811
396.30 0.2468451
396.40 0.2802984
396.50 0.3642636
396.60 0.5300093
396.70 0.8102712
396.80 1.16037
396.90 1.448909
397.00 1.532176
397.10 1.365872
397.20 1.038888
397.30 0.7029369
397.40 0.4596654
397.50 0.3308262
397.60 0.2886235
397.70 0.2914083
397.80 0.3045789
397.90 0.3086571
398.00 0.2956048
398.10 0.2632834
398.20 0.2195379
398.30 0.1909066
398.40 0.208229
398.50 0.2748348
398.60 0.3576809
398.70 0.4181865
398.80 0.4217141
398.90 0.403521
399.00 0.3763935
399.10 0.3540918
399.20 0.3475783
399.30 0.3515468
399.40 0.3471028
399.50 0.3275222
399.60 0.3073009
399.70 0.3124458
399.80 0.3478946
399.90 0.377744
400.00 0.3714491
400.10 0.3346131
400.20 0.3035552
400.30 0.307736
400.40 0.3410743
400.50 0.370259
400.60 0.3709221
400.70 0.3652796
400.80 0.3681966
400.90 0.3693596
401.00 0.3695337
401.10 0.3659517
401.20 0.369115
401.30 0.3663082
401.40 0.3544861
401.50 0.3338122
401.60 0.3035631
401.70 0.2581816
401.80 0.2363336
401.90 0.2450434
402.00 0.2676763
402.10 0.2823789
402.20 0.277999
402.30 0.2612514
402.40 0.2508322
402.50 0.2617154
402.60 0.2911058
402.70 0.3220306
402.80 0.3386357
402.90 0.3365567
403.00 0.3197522
403.10 0.2901608
403.20 0.2506881
403.30 0.2135608
403.40 0.1968771
403.50 0.2100053
403.60 0.2432699
403.70 0.2731735
403.80 0.2980571
403.90 0.3315303
404.00 0.3745613
404.10 0.414437
404.20 0.4295206
404.30 0.4163349
404.40 0.3939139
404.50 0.380551
404.60 0.3752246
404.70 0.3677612
404.80 0.355624
404.90 0.3443799
405.00 0.3384166
405.10 0.3389701
405.20 0.3478545
405.30 0.3625748
405.40 0.3701095
405.50 0.3560336
405.60 0.3250713
405.70 0.2999084
405.80 0.2933372
405.90 0.298581
406.00 0.2969965
406.10 0.2797153
406.20 0.2552169
406.30 0.2390891
406.40 0.2400288
406.50 0.2565504
406.60 0.2741584
406.70 0.2781909
406.80 0.2697387
406.90 0.26454
407.00 0.277941
407.10 0.3063193
407.20 0.3163088
407.30 0.3001869
407.40 0.2739475
407.50 0.2376876
407.60 0.2139911
407.70 0.2062057
407.80 0.2110819
407.90 0.2315983
408.00 0.2675136
408.10 0.3055524
408.20 0.3275686
408.30 0.3240573
408.40 0.3014631
408.50 0.2730971
408.60 0.2485987
408.70 0.2316347
408.80 0.2238861
408.90 0.2271297
409.00 0.2366743
409.10 0.2401283
409.20 0.2298208
409.30 0.2088725
409.40 0.1896328
409.50 0.1814332
409.60 0.1885968
409.70 0.2148263
409.80 0.2668183
409.90 0.3527377
410.00 0.4765359
410.10 0.6212719
410.20 0.7360107
410.30 0.7599098
410.40 0.6765637
410.50 0.5378532
410.60 0.4199462
410.70 0.3353899
410.80 0.3035162
410.90 0.2905028
411.00 0.280929
411.10 0.2746408
411.20 0.2680513
411.30 0.2553378
411.40 0.2406032
411.50 0.2350059
411.60 0.2115548
411.70 0.1693027
411.80 0.1357159
411.90 0.1136489
412.00 0.1036769
412.10 0.1057058
412.20 0.1203612
412.30 0.1424332
412.40 0.1657884
412.50 0.1860613
412.60 0.2015379
412.70 0.2116252
412.80 0.2153428
412.90 0.2133163
413.00 0.2109833
413.10 0.2160124
413.20 0.2315226
413.30 0.2510356
413.40 0.2628031
413.50 0.2595884
413.60 0.244898
413.70 0.2296684
413.80 0.223171
413.90 0.2280146
414.00 0.2418941
414.10 0.2607383
414.20 0.2510926
414.30 0.2323381
414.40 0.2108446
414.50 0.1982371
414.60 0.2070769
414.70 0.2374668
414.80 0.2516619
414.90 0.2504426
415.00 0.2508109
415.10 0.2435803
415.20 0.2266071
415.30 0.2183653
415.40 0.2188564
415.50 0.2323539
415.60 0.260361
415.70 0.2939544
415.80 0.3195967
415.90 0.3292934
416.00 0.3178665
416.10 0.2932147
416.20 0.2611424
416.30 0.2272876
