# Version 2.1 - nm, norm@500 to 1, cut digits
# Wavelength(nm)  Flambda(ergs/cm^s/s/nm)
300.00 0.006266696
300.10 0.008373992
300.20 0.009636397
300.30 0.01013146
300.40 0.01023437
300.50 0.01024822
300.60 0.01027237
300.70 0.01030424
300.80 0.01034264
300.90 0.01038859
301.00 0.01044408
301.10 0.01051002
301.20 0.01058481
301.30 0.01066483
301.40 0.01074678
301.50 0.01082901
301.60 0.01091112
301.70 0.01099318
301.80 0.01107519
301.90 0.0111572
302.00 0.0112392
302.10 0.01132121
302.20 0.01140321
302.30 0.0114852
302.40 0.01156717
302.50 0.01164909
302.60 0.01173092
302.70 0.01181296
302.80 0.01189648
302.90 0.01198396
303.00 0.01207815
303.10 0.01218029
303.20 0.01228914
303.30 0.01240196
303.40 0.01251625
303.50 0.01263074
303.60 0.01274516
303.70 0.01285952
303.80 0.01297386
303.90 0.01308819
304.00 0.01320252
304.10 0.01331685
304.20 0.01343118
304.30 0.01354555
304.40 0.01365999
304.50 0.01377458
304.60 0.01388942
304.70 0.01400363
304.80 0.01411334
304.90 0.01421092
305.00 0.01428795
305.10 0.01434071
305.20 0.01437292
305.30 0.01439301
305.40 0.01440858
305.50 0.01442353
305.60 0.01443873
305.70 0.01445408
305.80 0.01446951
305.90 0.01448496
306.00 0.01450042
306.10 0.01451589
306.20 0.01453135
306.30 0.01454681
306.40 0.01456227
306.50 0.01457774
306.60 0.0145932
306.70 0.01460866
306.80 0.01462413
306.90 0.01463963
307.00 0.01465518
307.10 0.01467077
307.20 0.01468641
307.30 0.01470208
307.40 0.01471776
307.50 0.01473344
307.60 0.01474911
307.70 0.01476479
307.80 0.01478047
307.90 0.01479615
308.00 0.01481182
308.10 0.0148275
308.20 0.01484316
308.30 0.01485875
308.40 0.01487414
308.50 0.01488916
308.60 0.01490355
308.70 0.01491951
308.80 0.01494676
308.90 0.01500436
309.00 0.01511337
309.10 0.01528315
309.20 0.01550434
309.30 0.01575588
309.40 0.01601871
309.50 0.01628311
309.60 0.01654688
309.70 0.01681027
309.80 0.01707348
309.90 0.01733661
310.00 0.01759972
310.10 0.01786283
310.20 0.01812596
310.30 0.01838916
310.40 0.01865256
310.50 0.01891633
310.60 0.01918074
310.70 0.01944357
310.80 0.01969505
310.90 0.01991601
311.00 0.02008531
311.10 0.0201935
311.20 0.02025002
311.30 0.02027602
311.40 0.02029068
311.50 0.02030376
311.60 0.02031747
311.70 0.02033157
311.80 0.02034585
311.90 0.0203602
312.00 0.02037458
312.10 0.02038895
312.20 0.0204033
312.30 0.02041756
312.40 0.02043159
312.50 0.02044515
312.60 0.02045792
312.70 0.02047264
312.80 0.02050139
312.90 0.02056781
313.00 0.02069806
313.10 0.02090376
313.20 0.02117329
313.30 0.0214805
313.40 0.02180173
313.50 0.02212491
313.60 0.02244731
313.70 0.02276923
313.80 0.02309093
313.90 0.02341253
314.00 0.02373411
314.10 0.02405569
314.20 0.02437725
314.30 0.02469875
314.40 0.02502009
314.50 0.0253411
314.60 0.02566157
314.70 0.02598339
314.80 0.02631497
314.90 0.02667278
315.00 0.02707502
315.10 0.02752978
315.20 0.02802897
315.30 0.0285544
315.40 0.02908958
315.50 0.02962611
315.60 0.0301621
315.70 0.03069777
315.80 0.03123327
315.90 0.03176871
316.00 0.03230414
316.10 0.03283956
316.20 0.03337504
316.30 0.03391075
316.40 0.03444707
316.50 0.03498458
316.60 0.03552409
316.70 0.03605863
316.80 0.03655729
316.90 0.03695953
317.00 0.03719846
317.10 0.03724432
317.20 0.03712687
317.30 0.036913
317.40 0.03666326
317.50 0.03640854
317.60 0.03615583
317.70 0.0359043
317.80 0.03565338
317.90 0.03540269
318.00 0.03515206
318.10 0.03490143
318.20 0.03465076
318.30 0.0343999
318.40 0.03414859
318.50 0.03389637
318.60 0.0336426
318.70 0.03339265
318.80 0.03317016
318.90 0.03302148
319.00 0.03299781
319.10 0.03312193
319.20 0.03337107
319.30 0.03369401
319.40 0.03404442
319.50 0.03439864
319.60 0.03475132
319.70 0.03510308
319.80 0.03545439
319.90 0.03580552
320.00 0.03615661
320.10 0.03650769
320.20 0.03685879
320.30 0.03720996
320.40 0.0375613
320.50 0.03791297
320.60 0.03826522
320.70 0.03861605
320.80 0.03895673
320.90 0.03927011
321.00 0.03953725
321.10 0.03974973
321.20 0.03991598
321.30 0.04005493
321.40 0.04018372
321.50 0.0403111
321.60 0.04043905
321.70 0.04056734
321.80 0.0406958
321.90 0.04082432
322.00 0.04095286
322.10 0.0410814
322.20 0.04120989
322.30 0.04133813
322.40 0.04146574
322.50 0.04159213
322.60 0.04171644
322.70 0.0418459
322.80 0.04201246
322.90 0.04227872
323.00 0.04271387
323.10 0.04334868
323.20 0.04415238
323.30 0.04505578
323.40 0.04599628
323.50 0.04694194
323.60 0.04788551
323.70 0.04882786
323.80 0.04976958
323.90 0.05071106
324.00 0.05165248
324.10 0.0525939
324.20 0.05353533
324.30 0.0544768
324.40 0.05541837
324.50 0.05636014
324.60 0.05730225
324.70 0.05824352
324.80 0.05917877
324.90 0.06009782
325.00 0.06098943
325.10 0.06184861
325.20 0.06268036
325.30 0.06349591
325.40 0.06430544
325.50 0.06511413
325.60 0.06592315
325.70 0.06673238
325.80 0.06754171
325.90 0.06835107
326.00 0.06916045
326.10 0.06996983
326.20 0.07077918
326.30 0.07158845
326.40 0.07239751
326.50 0.07320613
326.60 0.07401402
326.70 0.07482372
326.80 0.07564641
326.90 0.076504
327.00 0.07742073
327.10 0.07840735
327.20 0.07945311
327.30 0.08053378
327.40 0.08162743
327.50 0.08272289
327.60 0.08381761
327.70 0.08491191
327.80 0.08600599
327.90 0.08709999
328.00 0.08819396
328.10 0.08928794
328.20 0.09038203
328.30 0.09147663
328.40 0.0925725
328.50 0.09367089
328.60 0.09477357
328.70 0.09586565
328.80 0.09688153
328.90 0.09769258
329.00 0.09815671
329.10 0.09821068
329.20 0.09791773
329.30 0.09741996
329.40 0.09684598
329.50 0.09626141
329.60 0.09568112
329.70 0.09510335
329.80 0.09452685
329.90 0.09395087
330.00 0.09337499
330.10 0.09279912
330.20 0.09222316
330.30 0.09164683
330.40 0.09106955
330.50 0.0904904
330.60 0.08990808
330.70 0.08933361
330.80 0.08881567
330.90 0.08844967
331.00 0.08834102
331.10 0.08853663
331.20 0.08898959
331.30 0.08959449
331.40 0.09025592
331.50 0.09092521
331.60 0.09159132
331.70 0.09225556
331.80 0.09291885
331.90 0.09358177
332.00 0.09424461
332.10 0.09490744
332.20 0.09557033
332.30 0.09623345
332.40 0.09689717
332.50 0.09756208
332.60 0.098229
332.70 0.09889095
332.80 0.0995171
332.90 0.1000471
333.00 0.1004141
333.10 0.1005884
333.20 0.1005999
333.30 0.1005151
333.40 0.1003946
333.50 0.100269
333.60 0.1001455
333.70 0.1000232
333.80 0.09990143
333.90 0.09977993
334.00 0.09965848
334.10 0.09953631
334.20 0.0994122
334.30 0.09928549
334.40 0.09915613
334.50 0.09902465
334.60 0.09899872
334.70 0.09931984
334.80 0.1000766
334.90 0.1008284
335.00 0.1007428
335.10 0.09958683
335.20 0.09865227
335.30 0.1003664
335.40 0.1064303
335.50 0.1159164
335.60 0.1251603
335.70 0.1299012
335.80 0.1280396
335.90 0.1206795
336.00 0.1109478
336.10 0.1020544
336.20 0.09622699
336.30 0.09438463
336.40 0.09574112
336.50 0.09790042
336.60 0.09828569
336.70 0.09627375
336.80 0.09399233
336.90 0.09465694
337.00 0.09982518
337.10 0.107891
337.20 0.1150112
337.30 0.1177525
337.40 0.1155057
337.50 0.1108689
337.60 0.1076607
337.70 0.1080875
337.80 0.1114483
337.90 0.1154191
338.00 0.1182281
338.10 0.1193936
338.20 0.1186594
338.30 0.1151728
338.40 0.1086302
338.50 0.1009752
338.60 0.09609904
338.70 0.09703504
338.80 0.1031179
338.90 0.1101941
339.00 0.1139581
339.10 0.113482
339.20 0.1117918
339.30 0.1129016
339.40 0.1181284
339.50 0.1252457
339.60 0.1309051
339.70 0.1334596
339.80 0.1333863
339.90 0.1316187
340.00 0.1285266
340.10 0.124486
340.20 0.1203678
340.30 0.1168269
340.40 0.1133963
340.50 0.1089604
340.60 0.1032372
340.70 0.09739176
340.80 0.09310091
340.90 0.09131614
341.00 0.09197019
341.10 0.09448104
341.20 0.09818358
341.30 0.1022983
341.40 0.1059046
341.50 0.1083013
341.60 0.1094304
341.70 0.1099072
341.80 0.1105588
341.90 0.1118193
342.00 0.1133468
342.10 0.1140906
342.20 0.1129279
342.30 0.1096037
342.40 0.1052373
342.50 0.1017516
342.60 0.1005755
342.70 0.1017493
342.80 0.1041122
342.90 0.1062186
343.00 0.1072277
343.10 0.1072825
343.20 0.1071929
343.30 0.1076543
343.40 0.1086456
343.50 0.1095723
343.60 0.1098971
343.70 0.1094712
343.80 0.1084066
343.90 0.1069696
344.00 0.1056485
344.10 0.1050092
344.20 0.1051973
344.30 0.105687
344.40 0.1057399
344.50 0.1051077
344.60 0.1042305
344.70 0.1038472
344.80 0.1045231
344.90 0.1064597
345.00 0.1095556
345.10 0.1134873
345.20 0.1177243
345.30 0.121528
345.40 0.1240695
345.50 0.1248322
345.60 0.1240487
345.70 0.1226629
345.80 0.1216849
345.90 0.1214838
346.00 0.1216212
346.10 0.1212311
346.20 0.1196205
346.30 0.1168115
346.40 0.1137156
346.50 0.111602
346.60 0.1110866
346.70 0.1115951
346.80 0.1118962
346.90 0.1111026
347.00 0.1091269
347.10 0.1065117
347.20 0.1041591
347.30 0.1030761
347.40 0.1039025
347.50 0.1064048
347.60 0.1095852
347.70 0.1124504
347.80 0.1146801
347.90 0.1166146
348.00 0.1187335
348.10 0.121129
348.20 0.123337
348.30 0.1246468
348.40 0.1246807
348.50 0.1237252
348.60 0.1224348
348.70 0.1212326
348.80 0.1201088
348.90 0.1189185
349.00 0.117662
349.10 0.1164511
349.20 0.1153867
349.30 0.1146169
349.40 0.1144102
349.50 0.1149374
349.60 0.115934
349.70 0.1167395
349.80 0.1168805
349.90 0.1167334
350.00 0.1174808
350.10 0.1201822
350.20 0.1247634
350.30 0.1299099
350.40 0.1339709
350.50 0.1360099
350.60 0.1361155
350.70 0.1349545
350.80 0.1332105
350.90 0.1312613
351.00 0.1290321
351.10 0.1260268
351.20 0.1217087
351.30 0.1161733
351.40 0.1105187
351.50 0.1063125
351.60 0.1044738
351.70 0.1046215
351.80 0.1055134
351.90 0.1060813
352.00 0.1060277
352.10 0.1055713
352.20 0.1049628
352.30 0.1044169
352.40 0.1043991
352.50 0.1057691
352.60 0.1093094
352.70 0.1149182
352.80 0.1212997
352.90 0.1266906
353.00 0.1301648
353.10 0.1322304
353.20 0.1340609
353.30 0.1363036
353.40 0.1387963
353.50 0.1412174
353.60 0.14363
353.70 0.1462814
353.80 0.1491725
353.90 0.1520409
354.00 0.1545417
354.10 0.1562226
354.20 0.1565329
354.30 0.1552489
354.40 0.152952
354.50 0.1508303
354.60 0.1497874
354.70 0.1497711
354.80 0.1500273
354.90 0.1498874
355.00 0.1492272
355.10 0.1483162
355.20 0.1474416
355.30 0.1467376
355.40 0.1462707
355.50 0.1460718
355.60 0.1459876
355.70 0.145584
355.80 0.144349
355.90 0.1421204
356.00 0.1392803
356.10 0.1364442
356.20 0.1339321
356.30 0.1315096
356.40 0.1286388
356.50 0.1250555
356.60 0.1211899
356.70 0.1180121
356.80 0.1163523
356.90 0.1162871
357.00 0.1171455
357.10 0.1180304
357.20 0.118291
357.30 0.1176542
357.40 0.11614
357.50 0.1139715
357.60 0.11151
357.70 0.1091279
357.80 0.1070555
357.90 0.105329
358.00 0.1039259
358.10 0.1029995
358.20 0.1029418
358.30 0.1041259
358.40 0.1065347
358.50 0.1096251
358.60 0.1125395
358.70 0.1144753
358.80 0.1150207
358.90 0.1143547
359.00 0.1132621
359.10 0.1128391
359.20 0.1138904
359.30 0.1163665
359.40 0.1193004
359.50 0.1214135
359.60 0.1219846
359.70 0.1213
359.80 0.1203342
359.90 0.119929
360.00 0.1201264
360.10 0.120169
360.20 0.119144
360.30 0.1167103
360.40 0.1133787
360.50 0.1102517
360.60 0.1085092
360.70 0.108937
360.80 0.1115716
360.90 0.1156173
361.00 0.119839
361.10 0.1232683
361.20 0.1256665
361.30 0.1273288
361.40 0.1285071
361.50 0.1291483
361.60 0.1292359
361.70 0.1291622
361.80 0.129514
361.90 0.1304733
362.00 0.1315972
362.10 0.1322797
362.20 0.1323085
362.30 0.1319252
362.40 0.1315332
362.50 0.1314699
362.60 0.1318478
362.70 0.1323613
362.80 0.1323401
362.90 0.1312816
363.00 0.1294329
363.10 0.1277181
363.20 0.1269907
363.30 0.1273959
363.40 0.1284336
363.50 0.1294837
363.60 0.1302062
363.70 0.130574
363.80 0.1306638
363.90 0.1304515
364.00 0.1297597
364.10 0.1283821
364.20 0.1262896
364.30 0.123747
364.40 0.1212565
364.50 0.1193927
364.60 0.1185778
364.70 0.1188433
364.80 0.1197789
364.90 0.1208417
365.00 0.1218531
365.10 0.1231842
365.20 0.1253059
365.30 0.1281003
365.40 0.1306913
365.50 0.1320555
365.60 0.1318695
365.70 0.1307565
365.80 0.1296847
365.90 0.129179
366.00 0.1291244
366.10 0.1292107
366.20 0.1294156
366.30 0.1299634
366.40 0.1309163
366.50 0.1319497
366.60 0.1325236
366.70 0.1322331
366.80 0.1310193
366.90 0.1291388
367.00 0.1270279
367.10 0.1251821
367.20 0.1240515
367.30 0.1239248
367.40 0.1248031
367.50 0.1263739
367.60 0.1281643
367.70 0.1297877
367.80 0.1311062
367.90 0.132203
368.00 0.1332195
368.10 0.1341913
368.20 0.1349905
368.30 0.1353893
368.40 0.1352072
368.50 0.1344791
368.60 0.1335258
368.70 0.1328197
368.80 0.1326946
368.90 0.1331404
369.00 0.1338977
369.10 0.1347634
369.20 0.1357312
369.30 0.1367957
369.40 0.1377046
369.50 0.1380206
369.60 0.1375004
369.70 0.1363906
369.80 0.1353416
369.90 0.1350374
370.00 0.1358396
370.10 0.1376459
370.20 0.1400062
370.30 0.1423667
370.40 0.1442606
370.50 0.1453865
370.60 0.1456414
370.70 0.1452051
370.80 0.1445524
370.90 0.1442421
371.00 0.1445553
371.10 0.1452635
371.20 0.1457146
371.30 0.1451693
371.40 0.1432129
371.50 0.1400283
371.60 0.136369
371.70 0.1332053
371.80 0.13128
371.90 0.1308677
372.00 0.1317991
372.10 0.1335094
372.20 0.1349951
372.30 0.134986
372.40 0.1325314
372.50 0.1277439
372.60 0.1220253
372.70 0.1174358
372.80 0.1156406
372.90 0.1171784
373.00 0.1214245
373.10 0.127047
373.20 0.1325634
373.30 0.1367421
373.40 0.1388491
373.50 0.1386959
373.60 0.1364981
373.70 0.1326715
373.80 0.1277447
373.90 0.1224126
374.00 0.1175503
374.10 0.1140613
374.20 0.1126444
374.30 0.1136708
374.40 0.1172158
374.50 0.1230862
374.60 0.1307419
374.70 0.1391833
374.80 0.1470112
374.90 0.1527846
375.00 0.1555207
375.10 0.1550144
375.20 0.1518033
375.30 0.146887
375.40 0.1414204
375.50 0.1364709
375.60 0.1327626
375.70 0.1304785
375.80 0.1292734
375.90 0.1285479
376.00 0.1278549
376.10 0.1272197
376.20 0.127209
376.30 0.1286943
376.40 0.1324261
376.50 0.1387142
376.60 0.1474213
376.70 0.1580645
376.80 0.1697412
376.90 0.1809265
377.00 0.189594
377.10 0.1939171
377.20 0.1931132
377.30 0.1877507
377.40 0.1793297
377.50 0.1695676
377.60 0.1599051
377.70 0.1513692
377.80 0.1445407
377.90 0.1395253
378.00 0.1360307
378.10 0.133608
378.20 0.13191
378.30 0.1307531
378.40 0.1300107
378.50 0.1295753
378.60 0.1294602
378.70 0.1298561
378.80 0.1310471
378.90 0.1333525
379.00 0.1372308
379.10 0.1433425
379.20 0.1522795
379.30 0.1640596
379.40 0.1778119
379.50 0.191904
379.60 0.2043225
379.70 0.2130766
379.80 0.2166499
379.90 0.2144775
380.00 0.2072391
380.10 0.196661
380.20 0.184853
380.30 0.1735796
380.40 0.1638869
380.50 0.1561357
380.60 0.1502177
380.70 0.1457402
380.80 0.1421588
380.90 0.1390111
381.00 0.1361426
381.10 0.1336982
381.20 0.1318429
381.30 0.1305004
381.40 0.1294317
381.50 0.128579
381.60 0.1280464
381.70 0.1278991
381.80 0.1278218
381.90 0.1269682
382.00 0.1244012
382.10 0.1170874
382.20 0.09439659
382.30 0.06513594
382.40 0.03214931
382.50 0.01041821
382.60 0.0352809
382.70 0.1197043
382.80 0.2285499
382.90 0.3054173
383.00 0.3628601
383.10 0.4267355
383.20 0.4774025
383.30 0.530715
383.40 0.5712366
383.50 0.574887
383.60 0.5354599
383.70 0.4731593
383.80 0.414609
383.90 0.3675212
384.00 0.3212621
384.10 0.2647971
384.20 0.2020958
384.30 0.1506153
384.40 0.1326487
384.50 0.1695695
384.60 0.2198183
384.70 0.293565
384.80 0.3509924
384.90 0.3657008
385.00 0.3139915
385.10 0.2003618
385.20 0.08175747
385.30 0.04044059
385.40 0.1068726
385.50 0.2288008
385.60 0.3237773
385.70 0.3455294
385.80 0.2996275
385.90 0.2216712
386.00 0.1559703
386.10 0.1320064
386.20 0.1461585
386.30 0.1701571
386.40 0.1865337
386.50 0.2058547
386.60 0.2442471
386.70 0.3008017
386.80 0.3581473
386.90 0.3990009
387.00 0.4146402
387.10 0.4045264
387.20 0.3799321
387.30 0.3605057
387.40 0.3596991
387.50 0.3669577
387.60 0.3560359
387.70 0.3195594
387.80 0.2884357
387.90 0.2976
388.00 0.3394259
388.10 0.3738637
388.20 0.3778379
388.30 0.3633606
388.40 0.3390809
388.50 0.2999543
388.60 0.2667523
388.70 0.2922893
388.80 0.3973549
388.90 0.5236542
389.00 0.5856709
389.10 0.5588331
389.20 0.4876185
389.30 0.4142458
389.40 0.3378057
389.50 0.2521405
389.60 0.1902208
389.70 0.1279907
389.80 0.117837
389.90 0.1068324
390.00 0.0756049
390.10 0.09251482
390.20 0.1248898
390.30 0.1810685
390.40 0.2696778
390.50 0.3145819
390.60 0.3191986
390.70 0.3158076
390.80 0.3209921
390.90 0.3161695
391.00 0.2754297
391.10 0.1956142
391.20 0.1006369
391.30 0.1009955
391.40 0.1261127
391.50 0.1433256
391.60 0.1507326
391.70 0.1606281
391.80 0.1855697
391.90 0.2285108
392.00 0.2740861
392.10 0.3085882
392.20 0.3143519
392.30 0.3039949
392.40 0.2465786
392.50 0.1725147
392.60 0.140649
392.70 0.1287522
392.80 0.130133
392.90 0.162691
393.00 0.3294624
393.10 0.6880377
393.20 1.16544
393.30 1.624748
393.40 1.855734
393.50 1.724305
393.60 1.304695
393.70 0.8278973
393.80 0.4932148
393.90 0.3341964
394.00 0.255423
394.10 0.1642112
394.20 0.05544397
394.30 0.01459039
394.40 0.02581464
394.50 0.07932268
394.60 0.1521405
394.70 0.2297394
394.80 0.2623177
394.90 0.2850355
395.00 0.2935203
395.10 0.2920327
395.20 0.2783764
395.30 0.2588905
395.40 0.255428
395.50 0.3312985
395.60 0.4640496
395.70 0.5297703
395.80 0.48991
395.90 0.3779606
396.00 0.2701285
396.10 0.1956344
396.20 0.1400869
396.30 0.1225032
396.40 0.1494622
396.50 0.2623651
396.60 0.5111711
396.70 0.9038861
396.80 1.366691
396.90 1.731091
397.00 1.840955
397.10 1.661053
397.20 1.286487
397.30 0.8551517
397.40 0.4921427
397.50 0.2698143
397.60 0.2001329
397.70 0.2391838
397.80 0.3108884
397.90 0.3578183
398.00 0.3709029
398.10 0.3711716
398.20 0.3730394
398.30 0.3764213
398.40 0.3789135
398.50 0.3775135
398.60 0.3665876
398.70 0.3397143
398.80 0.3321693
398.90 0.3086529
399.00 0.2800993
399.10 0.2580703
399.20 0.2456967
399.30 0.2353412
399.40 0.2167371
399.50 0.1931914
399.60 0.1913455
399.70 0.2206186
399.80 0.254787
399.90 0.2735566
400.00 0.266752
400.10 0.2444254
400.20 0.2263141
400.30 0.2213563
400.40 0.222503
400.50 0.2236305
400.60 0.2284745
400.70 0.223101
400.80 0.2240125
400.90 0.2535261
401.00 0.2803908
401.10 0.2858901
401.20 0.2643122
401.30 0.254148
401.40 0.2541755
401.50 0.2406395
401.60 0.2148496
401.70 0.2223593
401.80 0.2413379
401.90 0.2621894
402.00 0.2777007
402.10 0.2889885
402.20 0.3040607
402.30 0.3248865
402.40 0.3402967
402.50 0.3392466
402.60 0.3229465
402.70 0.2964512
402.80 0.259987
402.90 0.2179863
403.00 0.1848043
403.10 0.1718873
403.20 0.1730733
403.30 0.1716613
403.40 0.1594584
403.50 0.1412235
403.60 0.1257922
403.70 0.126843
403.80 0.1414777
403.90 0.1636103
404.00 0.1957224
404.10 0.2296188
404.20 0.2611806
404.30 0.294145
404.40 0.3386501
404.50 0.3944707
404.60 0.436563
404.70 0.4296651
404.80 0.3674164
404.90 0.289572
405.00 0.2455958
405.10 0.2490208
405.20 0.2754499
405.30 0.2968579
405.40 0.3062919
405.50 0.3081643
405.60 0.2995915
405.70 0.2755218
405.80 0.2479967
405.90 0.2353194
406.00 0.2459002
406.10 0.2671872
406.20 0.2809575
406.30 0.285574
406.40 0.2948806
406.50 0.3119753
406.60 0.3290487
406.70 0.3355261
406.80 0.3277261
406.90 0.3103987
407.00 0.28577
407.10 0.2531627
407.20 0.2316479
407.30 0.2121679
407.40 0.1859339
407.50 0.1872363
407.60 0.1962325
407.70 0.2022266
407.80 0.2108717
407.90 0.2282023
408.00 0.2516289
408.10 0.2708706
408.20 0.2753611
408.30 0.2633519
408.40 0.2408335
408.50 0.2195465
408.60 0.2087617
408.70 0.2062148
408.80 0.1988228
408.90 0.1770347
409.00 0.1509909
409.10 0.1438453
409.20 0.1636789
409.30 0.1913178
409.40 0.1914272
409.50 0.1596732
409.60 0.137684
409.70 0.1776976
409.80 0.297633
409.90 0.4773697
410.00 0.6811318
410.10 0.8629864
410.20 0.9614391
410.30 0.9244974
410.40 0.7584224
410.50 0.5377901
410.60 0.3522829
410.70 0.2793325
410.80 0.2446938
410.90 0.2220472
411.00 0.2058947
411.10 0.1990999
411.20 0.1953486
411.30 0.1844193
411.40 0.1682281
411.50 0.1606035
411.60 0.2206873
411.70 0.3304114
411.80 0.4086921
411.90 0.4286739
412.00 0.3958283
412.10 0.3381052
412.20 0.2833918
412.30 0.2490546
412.40 0.2322881
412.50 0.222083
412.60 0.2108105
412.70 0.1960175
412.80 0.1772565
412.90 0.1562802
413.00 0.1400476
413.10 0.1373658
413.20 0.14878
413.30 0.1659339
413.40 0.1797177
413.50 0.1854016
413.60 0.1842426
413.70 0.1824164
413.80 0.1844917
413.90 0.18492
414.00 0.1710987
414.10 0.1355367
414.20 0.1281948
414.30 0.1235648
414.40 0.1216478
414.50 0.1290241
414.60 0.1547401
414.70 0.1940147
414.80 0.256141
414.90 0.2858244
415.00 0.2478138
415.10 0.1927556
415.20 0.1610554
415.30 0.1350274
415.40 0.1211398
415.50 0.1301391
415.60 0.1652791
