# Version 2.1 - nm, norm@500 to 1, cut digits
# Wavelength(nm)  Flambda(ergs/cm^s/s/nm)
300.00 0.007277094
300.10 0.009009188
300.20 0.01037785
300.30 0.01134776
300.40 0.01200217
300.50 0.01243765
300.60 0.01271766
300.70 0.01288793
300.80 0.0129929
300.90 0.01306838
301.00 0.01314066
301.10 0.01322083
301.20 0.01330824
301.30 0.0134013
301.40 0.01349832
301.50 0.01359792
301.60 0.01369917
301.70 0.01380139
301.80 0.0139041
301.90 0.014007
302.00 0.01410995
302.10 0.0142129
302.20 0.01431588
302.30 0.01441901
302.40 0.01452252
302.50 0.01462676
302.60 0.01473225
302.70 0.0148397
302.80 0.01495015
302.90 0.01506491
303.00 0.01518515
303.10 0.01531139
303.20 0.01544311
303.30 0.01557914
303.40 0.01571816
303.50 0.01585915
303.60 0.01600139
303.70 0.01614437
303.80 0.01628771
303.90 0.01643121
304.00 0.01657474
304.10 0.01671827
304.20 0.0168617
304.30 0.01700467
304.40 0.01714651
304.50 0.01728609
304.60 0.01742185
304.70 0.01755159
304.80 0.01767217
304.90 0.0177796
305.00 0.01787023
305.10 0.01794255
305.20 0.01799806
305.30 0.01804042
305.40 0.01807361
305.50 0.0181008
305.60 0.01812416
305.70 0.01814526
305.80 0.01816523
305.90 0.01818475
306.00 0.01820416
306.10 0.01822357
306.20 0.01824298
306.30 0.0182624
306.40 0.01828181
306.50 0.01830123
306.60 0.01832066
306.70 0.0183401
306.80 0.01835957
306.90 0.01837906
307.00 0.01839858
307.10 0.01841815
307.20 0.01843775
307.30 0.01845739
307.40 0.01847704
307.50 0.0184967
307.60 0.01851638
307.70 0.01853605
307.80 0.01855573
307.90 0.01857542
308.00 0.0185951
308.10 0.01861478
308.20 0.01863472
308.30 0.01865579
308.40 0.01867971
308.50 0.01870928
308.60 0.01874841
308.70 0.01880259
308.80 0.0188797
308.90 0.01898973
309.00 0.01914181
309.10 0.01933973
309.20 0.0195797
309.30 0.01985258
309.40 0.0201484
309.50 0.02045927
309.60 0.0207797
309.70 0.02110578
309.80 0.02143471
309.90 0.02176477
310.00 0.02209508
310.10 0.0224254
310.20 0.02275546
310.30 0.02308438
310.40 0.02341043
310.50 0.02373081
310.60 0.02404158
310.70 0.02433722
310.80 0.0246098
310.90 0.02484929
311.00 0.02504651
311.10 0.02519765
311.20 0.02530652
311.30 0.0253823
311.40 0.02543502
311.50 0.02547262
311.60 0.0255006
311.70 0.02552291
311.80 0.02554235
311.90 0.02556066
312.00 0.0255787
312.10 0.02559675
312.20 0.02561511
312.30 0.02563488
312.40 0.02565819
312.50 0.02568851
312.60 0.0257307
312.70 0.02579158
312.80 0.02588093
312.90 0.02601115
313.00 0.02619357
313.10 0.02643291
313.20 0.02672446
313.30 0.02705687
313.40 0.02741776
313.50 0.02779733
313.60 0.02818877
313.70 0.02858723
313.80 0.02898922
313.90 0.02939262
314.00 0.02979633
314.10 0.03020005
314.20 0.03060399
314.30 0.03100891
314.40 0.03141629
314.50 0.03182856
314.60 0.03224908
314.70 0.03268261
314.80 0.03313596
314.90 0.03361776
315.00 0.03413591
315.10 0.03469367
315.20 0.03528777
315.30 0.03591031
315.40 0.03655268
315.50 0.03720806
315.60 0.0378717
315.70 0.03854022
315.80 0.0392112
315.90 0.03988316
316.00 0.04055534
316.10 0.04122752
316.20 0.04189889
316.30 0.04256666
316.40 0.04322537
316.50 0.04386614
316.60 0.04447655
316.70 0.04503914
316.80 0.04552887
316.90 0.04591404
317.00 0.04616562
317.10 0.04627157
317.20 0.04624394
317.30 0.04611175
317.40 0.04590669
317.50 0.04565382
317.60 0.04537058
317.70 0.0450694
317.80 0.04475917
317.90 0.04444534
318.00 0.04413069
318.10 0.04381604
318.20 0.04350202
318.30 0.04319076
318.40 0.04288642
318.50 0.04259581
318.60 0.04232846
318.70 0.0420977
318.80 0.04192271
318.90 0.04182777
319.00 0.04183509
319.10 0.04195389
319.20 0.04217494
319.30 0.04247603
319.40 0.04283291
319.50 0.04322638
319.60 0.0436431
319.70 0.04407354
319.80 0.04451093
319.90 0.04495106
320.00 0.04539182
320.10 0.04583258
320.20 0.04627311
320.30 0.04671262
320.40 0.04714956
320.50 0.04758143
320.60 0.0480047
320.70 0.04841444
320.80 0.04880354
320.90 0.04916304
321.00 0.04948473
321.10 0.04976518
321.20 0.05000781
321.30 0.05022084
321.40 0.05041324
321.50 0.0505921
321.60 0.05076236
321.70 0.05092755
321.80 0.05109017
321.90 0.05125178
322.00 0.05141315
322.10 0.05157452
322.20 0.05173674
322.30 0.05190268
322.40 0.05207798
322.50 0.05227183
322.60 0.05249709
322.70 0.05277179
322.80 0.05312185
322.90 0.05358003
323.00 0.05417636
323.10 0.05492328
323.20 0.05580835
323.30 0.05680155
323.40 0.05787011
323.50 0.0589881
323.60 0.0601375
323.70 0.06130545
323.80 0.06248277
323.90 0.0636638
324.00 0.06484568
324.10 0.06602757
324.20 0.06720931
324.30 0.06839045
324.40 0.06957007
324.50 0.07074667
324.60 0.07191818
324.70 0.07308165
324.80 0.07423288
324.90 0.07536655
325.00 0.07647777
325.10 0.07756454
325.20 0.07862886
325.30 0.07967562
325.40 0.08071014
325.50 0.08173662
325.60 0.08275801
325.70 0.08377638
325.80 0.08479323
325.90 0.08580948
326.00 0.08682559
326.10 0.0878417
326.20 0.0888581
326.30 0.08987581
326.40 0.0908968
326.50 0.09192428
326.60 0.09296275
326.70 0.09401854
326.80 0.09510071
326.90 0.09622073
327.00 0.09738913
327.10 0.09861024
327.20 0.09987973
327.30 0.1011871
327.40 0.1025208
327.50 0.1038718
327.60 0.1052339
327.70 0.1066024
327.80 0.1079742
327.90 0.1093473
328.00 0.1107207
328.10 0.1120941
328.20 0.1134657
328.30 0.1148298
328.40 0.1161746
328.50 0.1174812
328.60 0.1187234
328.70 0.119864
328.80 0.1208498
328.90 0.1216135
329.00 0.1220934
329.10 0.1222639
329.20 0.1221507
329.30 0.1218153
329.40 0.1213252
329.50 0.1207334
329.60 0.1200772
329.70 0.1193828
329.80 0.1186693
329.90 0.117948
330.00 0.1172251
330.10 0.1165021
330.20 0.1157804
330.30 0.1150644
330.40 0.1143627
330.50 0.1136892
330.60 0.1130636
330.70 0.1125134
330.80 0.1120779
330.90 0.1118072
331.00 0.1117471
331.10 0.1119164
331.20 0.1122963
331.30 0.1128409
331.40 0.1135003
331.50 0.1142351
331.60 0.1150177
331.70 0.1158286
331.80 0.1166538
331.90 0.1174847
332.00 0.1183168
332.10 0.1191489
332.20 0.1199803
332.30 0.120808
332.40 0.1216267
332.50 0.1224275
332.60 0.123198
332.70 0.1239208
332.80 0.1245709
332.90 0.1251166
333.00 0.1255291
333.10 0.1257963
333.20 0.1259302
333.30 0.1259598
333.40 0.1259167
333.50 0.1258258
333.60 0.1257047
333.70 0.1255657
333.80 0.1254176
333.90 0.125266
334.00 0.1251135
334.10 0.1249721
334.20 0.1248598
334.30 0.1247868
334.40 0.1247537
334.50 0.1247526
334.60 0.1248112
334.70 0.1250235
334.80 0.1254923
334.90 0.1262246
335.00 0.1271368
335.10 0.1282932
335.20 0.1301074
335.30 0.1331613
335.40 0.1376463
335.50 0.1428692
335.60 0.1473216
335.70 0.1494103
335.80 0.1483501
335.90 0.14451
336.00 0.1390695
336.10 0.1333814
336.20 0.1285563
336.30 0.1252797
336.40 0.1236268
336.50 0.1230757
336.60 0.1229256
336.70 0.1229287
336.80 0.1235477
336.90 0.1255049
337.00 0.1290281
337.10 0.1334303
337.20 0.1373911
337.30 0.1397723
337.40 0.140358
337.50 0.1399459
337.60 0.13973
337.70 0.1404246
337.80 0.141835
337.90 0.1432206
338.00 0.1439396
338.10 0.1437283
338.20 0.1424813
338.30 0.1400557
338.40 0.1366042
338.50 0.1329965
338.60 0.1306512
338.70 0.1306653
338.80 0.1329377
338.90 0.1362337
339.00 0.1391942
339.10 0.1413912
339.20 0.1435233
339.30 0.1465732
339.40 0.1507387
339.50 0.1551914
339.60 0.1587714
339.70 0.160803
339.80 0.1612481
339.90 0.1602676
340.00 0.1579558
340.10 0.1545017
340.20 0.1503109
340.30 0.1457883
340.40 0.1410531
340.50 0.1360571
340.60 0.1309881
340.70 0.1264226
340.80 0.1230553
340.90 0.1213139
341.00 0.1212244
341.10 0.1225412
341.20 0.1248975
341.30 0.1278339
341.40 0.1308396
341.50 0.1334868
341.60 0.1355637
341.70 0.1371058
341.80 0.1382654
341.90 0.1391183
342.00 0.1395531
342.10 0.1393049
342.20 0.1381452
342.30 0.1361438
342.40 0.1337967
342.50 0.1318344
342.60 0.1308134
342.70 0.1308295
342.80 0.131559
342.90 0.1325273
343.00 0.1333876
343.10 0.1340588
343.20 0.1346569
343.30 0.1352913
343.40 0.1359036
343.50 0.1363039
343.60 0.1363451
343.70 0.1360073
343.80 0.135356
343.90 0.1345123
344.00 0.1336657
344.10 0.1330255
344.20 0.1326773
344.30 0.1325206
344.40 0.132402
344.50 0.1323178
344.60 0.1324706
344.70 0.1331468
344.80 0.1345557
344.90 0.1367462
345.00 0.1396098
345.10 0.1429073
345.20 0.1462976
345.30 0.1493745
345.40 0.1517368
345.50 0.153132
345.60 0.1535844
345.70 0.153378
345.80 0.1528584
345.90 0.152205
346.00 0.1513682
346.10 0.1501748
346.20 0.1484999
346.30 0.14642
346.40 0.1442546
346.50 0.1424029
346.60 0.1410563
346.70 0.1400559
346.80 0.1390535
346.90 0.137813
347.00 0.1363558
347.10 0.1349174
347.20 0.1338596
347.30 0.133571
347.40 0.1343033
347.50 0.1360039
347.60 0.1383397
347.70 0.1409185
347.80 0.143496
347.90 0.1460036
348.00 0.1484242
348.10 0.1506567
348.20 0.1524754
348.30 0.1536243
348.40 0.1539815
348.50 0.1536507
348.60 0.1528717
348.70 0.1518414
348.80 0.1506535
348.90 0.1493756
349.00 0.1481093
349.10 0.1469659
349.20 0.1460311
349.30 0.1453835
349.40 0.1451215
349.50 0.1453138
349.60 0.1459161
349.70 0.1467827
349.80 0.1478214
349.90 0.1491631
350.00 0.1511251
350.10 0.1539284
350.20 0.1574061
350.30 0.160986
350.40 0.1639744
350.50 0.1658871
350.60 0.1665718
350.70 0.1661067
350.80 0.1646535
350.90 0.162367
351.00 0.1593443
351.10 0.1556215
351.20 0.1512656
351.30 0.1465434
351.40 0.1419922
351.50 0.138238
351.60 0.1356562
351.70 0.1341734
351.80 0.1334004
351.90 0.1329607
352.00 0.1327088
352.10 0.132688
352.20 0.1330028
352.30 0.1337887
352.40 0.1352599
352.50 0.1377102
352.60 0.1413419
352.70 0.1460197
352.80 0.1512032
352.90 0.1561959
353.00 0.1605613
353.10 0.1643266
353.20 0.1677814
353.30 0.1711326
353.40 0.1743942
353.50 0.177533
353.60 0.1805878
353.70 0.1835976
353.80 0.1864876
353.90 0.1890804
354.00 0.1911696
354.10 0.1925532
354.20 0.1930634
354.30 0.1926868
354.40 0.1916854
354.50 0.1905135
354.60 0.1895399
354.70 0.1888405
354.80 0.1882571
354.90 0.1876179
355.00 0.1868798
355.10 0.1860985
355.20 0.1853287
355.30 0.1845755
355.40 0.1838182
355.50 0.1830182
355.60 0.1820823
355.70 0.1808382
355.80 0.1790921
355.90 0.1767649
356.00 0.1739623
356.10 0.1708889
356.20 0.1676978
356.30 0.1644151
356.40 0.1610051
356.50 0.1575217
356.60 0.1542087
356.70 0.1514332
356.80 0.1494712
356.90 0.1483174
357.00 0.1476917
357.10 0.1472093
357.20 0.1465406
357.30 0.1454806
357.40 0.1439574
357.50 0.1420244
357.60 0.1398432
357.70 0.1376352
357.80 0.1356191
357.90 0.133966
358.00 0.1328046
358.10 0.1322643
358.20 0.1324745
358.30 0.1334864
358.40 0.1351783
358.50 0.1372444
358.60 0.1392934
358.70 0.1409858
358.80 0.1421522
358.90 0.1428526
359.00 0.1433619
359.10 0.1440545
359.20 0.1452006
359.30 0.1467899
359.40 0.1485054
359.50 0.1499059
359.60 0.1506957
359.70 0.150873
359.80 0.1506526
359.90 0.1502419
360.00 0.1496605
360.10 0.1487456
360.20 0.1473414
360.30 0.1455023
360.40 0.1435582
360.50 0.1420177
360.60 0.1413837
360.70 0.1419805
360.80 0.143823
360.90 0.1465867
361.00 0.1497415
361.10 0.1527982
361.20 0.1554866
361.30 0.1577355
361.40 0.1595369
361.50 0.1608738
361.60 0.1617886
361.70 0.1624564
361.80 0.1631054
361.90 0.1638339
362.00 0.1645401
362.10 0.1650569
362.20 0.1653139
362.30 0.1653641
362.40 0.16531
362.50 0.1652357
362.60 0.1651628
362.70 0.1650056
362.80 0.1645948
362.90 0.1638321
363.00 0.16285
363.10 0.1619763
363.20 0.161508
363.30 0.161517
363.40 0.1618517
363.50 0.1622784
363.60 0.1626078
363.70 0.1627241
363.80 0.162548
363.90 0.1620024
364.00 0.1610177
364.10 0.1595738
364.20 0.1577532
364.30 0.1557576
364.40 0.1538701
364.50 0.15239
364.60 0.1515522
364.70 0.1514406
364.80 0.1519619
364.90 0.1529333
365.00 0.1542277
365.10 0.1558365
365.20 0.1577569
365.30 0.1598152
365.40 0.1616409
365.50 0.1628618
365.60 0.1633563
365.70 0.163327
365.80 0.1631198
365.90 0.1629792
366.00 0.1629642
366.10 0.1630486
366.20 0.1632438
366.30 0.1635814
366.40 0.1640056
366.50 0.1643338
366.60 0.164334
366.70 0.1638525
366.80 0.1628928
366.90 0.1616053
367.00 0.160234
367.10 0.159055
367.20 0.1583179
367.30 0.1581907
367.40 0.1587063
367.50 0.1597512
367.60 0.1611196
367.70 0.1626008
367.80 0.1640454
367.90 0.1653742
368.00 0.1665451
368.10 0.167514
368.20 0.1682197
368.30 0.1686021
368.40 0.168644
368.50 0.1684147
368.60 0.1680812
368.70 0.1678558
368.80 0.167896
368.90 0.168233
369.00 0.1687897
369.10 0.1694675
369.20 0.1701983
369.30 0.1709113
369.40 0.1714862
369.50 0.1717888
369.60 0.1717868
369.70 0.1716269
369.80 0.1715888
369.90 0.1719493
370.00 0.1728532
370.10 0.1742572
370.20 0.1759661
370.30 0.1777212
370.40 0.1792819
370.50 0.1804749
370.60 0.1812176
370.70 0.1815433
370.80 0.1815891
370.90 0.1815155
371.00 0.1813889
371.10 0.1811125
371.20 0.1804663
371.30 0.1792304
371.40 0.1773276
371.50 0.1749118
371.60 0.1723418
371.70 0.1700362
371.80 0.1683023
371.90 0.1672295
372.00 0.1666844
372.10 0.1663526
372.20 0.1657832
372.30 0.1645107
372.40 0.1622805
372.50 0.1592802
372.60 0.1561739
372.70 0.1538517
372.80 0.1530406
372.90 0.1540099
373.00 0.1565103
373.10 0.1599082
373.20 0.1633964
373.30 0.166196
373.40 0.1677229
373.50 0.1676823
373.60 0.1660789
373.70 0.1631733
373.80 0.1594267
373.90 0.1554633
374.00 0.1520015
374.10 0.1497354
374.20 0.1491988
374.30 0.150671
374.40 0.1541511
374.50 0.1593599
374.60 0.1657441
374.70 0.172506
374.80 0.1787055
374.90 0.1834544
375.00 0.186139
375.10 0.1865631
375.20 0.1849467
375.30 0.1818131
375.40 0.1778362
375.50 0.1736994
375.60 0.169959
375.70 0.16695
375.80 0.1647833
375.90 0.163442
376.00 0.1629316
376.10 0.1633995
376.20 0.165154
376.30 0.1685677
376.40 0.1739006
376.50 0.1811485
376.60 0.1899992
376.70 0.199852
376.80 0.2098325
376.90 0.2188215
377.00 0.2256027
377.10 0.2291767
377.20 0.2290882
377.30 0.2255496
377.40 0.2193028
377.50 0.2113465
377.60 0.2026935
377.70 0.1942233
377.80 0.1865869
377.90 0.1801513
378.00 0.1750105
378.10 0.1710763
378.20 0.1681997
378.30 0.1662428
378.40 0.1651011
378.50 0.1647325
378.60 0.1652006
378.70 0.1666896
378.80 0.1694621
378.90 0.1737964
379.00 0.1799545
379.10 0.1881288
379.20 0.1983027
379.30 0.2100799
379.40 0.2226074
379.50 0.2346736
379.60 0.2449235
379.70 0.2521024
379.80 0.2553082
379.90 0.2542109
380.00 0.2491592
380.10 0.2410809
380.20 0.2312021
380.30 0.2207199
380.40 0.2105773
380.50 0.2013847
380.60 0.1934387
380.70 0.1867769
380.80 0.1812519
380.90 0.1766528
381.00 0.1728243
381.10 0.1697014
381.20 0.1672473
381.30 0.1653772
381.40 0.1639683
381.50 0.1629442
381.60 0.1646445
381.70 0.1718857
381.80 0.1861104
381.90 0.2089684
382.00 0.243773
382.10 0.2893945
382.20 0.3277214
382.30 0.3932609
382.40 0.4870398
382.50 0.5866512
382.60 0.683417
382.70 0.770083
382.80 0.8463081
382.90 0.9162595
383.00 1.072997
383.10 1.304826
383.20 1.431824
383.30 1.432609
383.40 1.315769
383.50 1.12661
383.60 0.9340491
383.70 0.7907936
383.80 0.6907071
383.90 0.5883561
384.00 0.4689307
384.10 0.3626605
384.20 0.2963997
384.30 0.2530117
384.40 0.2213861
384.50 0.2717275
384.60 0.3809692
384.70 0.6166837
384.80 0.8365072
384.90 0.9135532
385.00 0.790078
385.10 0.5231245
385.20 0.2641507
385.30 0.1679339
385.40 0.2790275
385.50 0.5024175
385.60 0.6942518
385.70 0.7709298
385.80 0.7310248
385.90 0.6160539
386.00 0.4858855
386.10 0.4012864
386.20 0.3998692
386.30 0.4702591
386.40 0.5707581
386.50 0.6721523
386.60 0.7662456
386.70 0.8497255
386.80 0.9110827
386.90 0.9483234
387.00 0.9747241
387.10 0.9949545
387.20 0.9930655
387.30 0.955667
387.40 0.8966526
387.50 0.8336
387.60 0.7547692
387.70 0.6415879
387.80 0.5343572
387.90 0.5105238
388.00 0.5874794
388.10 0.6921453
388.20 0.7369112
388.30 0.716981
388.40 0.6911513
388.50 0.7024138
388.60 0.743769
388.70 0.7867522
388.80 0.8093799
388.90 0.7958992
389.00 0.7346373
389.10 0.6188797
389.20 0.4508681
389.30 0.2454257
389.40 0.08347224
389.50 0
389.60 0
389.70 0
389.80 0.06849
389.90 0.08005716
390.00 0.0300651
390.10 0.06414493
390.20 0.09812695
390.30 0.1569948
390.40 0.2878354
390.50 0.3428203
390.60 0.3722802
390.70 0.4750395
390.80 0.6745588
390.90 0.8826539
391.00 0.9798063
391.10 0.9032073
391.20 0.6794827
391.30 0.5920488
391.40 0.5178746
391.50 0.4312414
391.60 0.3362118
391.70 0.2324186
391.80 0.1204203
391.90 3.300935e-05
392.00 0
392.10 0
392.20 0
392.30 0.01979988
392.40 0.02482478
392.50 0
392.60 0
392.70 0
392.80 0
392.90 0
393.00 0.09670902
393.10 0.3412934
393.20 0.6246572
393.30 0.8866609
393.40 0.9784519
393.50 0.8299189
393.60 0.5208299
393.70 0.2330346
393.80 0.09149643
393.90 0.07630117
394.00 0.07972622
394.10 0.06453782
394.20 0
394.30 0.001944484
394.40 0.0005175231
394.50 0
394.60 0
394.70 0.06134065
394.80 0.08598538
394.90 0.1258559
395.00 0.1403948
395.10 0.1278545
395.20 0.09279795
395.30 0.04431134
395.40 0
395.50 0.08525823
395.60 0.28331
395.70 0.3479901
395.80 0.2971319
395.90 0.1979128
396.00 0.1990865
396.10 0.3062652
396.20 0.4071057
396.30 0.4959464
396.40 0.5695183
396.50 0.6905395
396.60 0.8828392
396.70 1.090777
396.80 1.249588
396.90 1.288067
397.00 1.180054
397.10 0.9479071
397.20 0.6348537
397.30 0.401424
397.40 0.2167719
397.50 0.07152806
397.60 0.01851805
397.70 0.05886674
397.80 0.1395961
397.90 0.2044006
398.00 0.2435408
398.10 0.2871275
398.20 0.3498918
398.30 0.3969313
398.40 0.3739413
398.50 0.2639334
398.60 0.1101471
398.70 0
398.80 0
398.90 0
399.00 0
399.10 0
399.20 0
399.30 0
399.40 0
399.50 0
399.60 0.1049785
399.70 0.1972161
399.80 0.2350149
399.90 0.252864
400.00 0.2879298
400.10 0.3518687
400.20 0.4212326
400.30 0.4611869
400.40 0.4611916
400.50 0.4549243
400.60 0.4790389
400.70 0.4707891
400.80 0.4238629
400.90 0.3791463
401.00 0.2883758
401.10 0.1407901
401.20 0.004712476
401.30 0
401.40 0
401.50 0
401.60 0
401.70 0.05749235
401.80 0.2468895
401.90 0.372899
402.00 0.4344416
402.10 0.4591637
402.20 0.4786505
402.30 0.4972197
402.40 0.4930529
402.50 0.4596151
402.60 0.4309207
402.70 0.4439784
402.80 0.4951736
402.90 0.5558977
403.00 0.6109892
403.10 0.6685855
403.20 0.7257628
403.30 0.7515961
403.40 0.7165844
403.50 0.6269177
403.60 0.5245972
403.70 0.4738627
403.80 0.4748028
403.90 0.4930654
404.00 0.5196056
404.10 0.5491793
404.20 0.6021635
404.30 0.6841017
404.40 0.7727298
404.50 0.8348558
404.60 0.8426442
404.70 0.7764139
404.80 0.6420112
404.90 0.4862813
405.00 0.3671993
405.10 0.3040957
405.20 0.2663424
405.30 0.2201168
405.40 0.168924
405.50 0.1284804
405.60 0.1145429
405.70 0.1178603
405.80 0.0776613
405.90 0.03953671
406.00 0.04949749
406.10 0.1030292
406.20 0.157705
406.30 0.1861536
406.40 0.1971273
406.50 0.2659629
406.60 0.3695053
406.70 0.4517173
406.80 0.4977027
406.90 0.4917316
407.00 0.4256229
407.10 0.318163
407.20 0.2582026
407.30 0.2408886
407.40 0.2190826
407.50 0.2410566
407.60 0.2485813
407.70 0.2300446
407.80 0.2023691
407.90 0.1676729
408.00 0.118029
408.10 0.05945649
408.20 0.02235302
408.30 0.007791603
408.40 0.01126773
408.50 0.02998051
408.60 0.05995457
408.70 0.08674106
408.80 0.09360317
408.90 0.08202366
409.00 0.0715589
409.10 0.1165417
409.20 0.2315847
409.30 0.371931
409.40 0.4611383
409.50 0.4792264
409.60 0.4815129
409.70 0.5366485
409.80 0.6592546
409.90 0.8085011
410.00 0.9277662
410.10 0.9732967
410.20 0.9209221
410.30 0.7699614
410.40 0.5488844
410.50 0.3084141
410.60 0.1016551
410.70 0.05284165
410.80 0.02514453
410.90 0.01769524
411.00 0.0268928
411.10 0.04344441
411.20 0.05787273
411.30 0.0644069
411.40 0.05882978
411.50 0.03826228
411.60 0.1275576
411.70 0.3113097
411.80 0.4525443
411.90 0.4937303
412.00 0.45827
412.10 0.4012778
412.20 0.3888616
412.30 0.3973255
412.40 0.4093715
412.50 0.404732
412.60 0.3742977
412.70 0.3232155
412.80 0.2650439
412.90 0.2121795
413.00 0.1746044
413.10 0.1608863
413.20 0.1715984
413.30 0.2016442
413.40 0.2463576
413.50 0.3007891
413.60 0.356461
413.70 0.403518
413.80 0.4326638
413.90 0.4309922
414.00 0.3811308
414.10 0.2708689
414.20 0.2208111
414.30 0.1658682
414.40 0.106834
414.50 0.04750819
414.60 0
414.70 0
414.80 0.03878762
414.90 0.08308546
415.00 0.03266405
415.10 0
415.20 0
415.30 0
415.40 0
415.50 0
415.60 0
415.70 0
415.80 0
415.90 0
416.00 0.004510293
416.10 0.05935575
416.20 0.1100077
416.30 0.1273437
416.40 0.08802024
416.50 0.0004394213
416.60 0
416.70 0
416.80 0
416.90 0.004082008
417.00 0.06806229
417.10 0.1960305
417.20 0.2604259
417.30 0.284288
417.40 0.3094811
417.50 0.3334523
417.60 0.3156537
417.70 0.2380277
417.80 0.1324945
