# Version 2.1 - nm, norm@500 to 1, cut digits, bergeron_4500_80.dat_4500
# Wavelength(nm)  Flambda(ergs/cm^s/s/nm)
300.00 0.2516
300.10 0.252
300.20 0.2524
300.30 0.2528
300.40 0.2532
300.50 0.2536
300.60 0.2539
300.70 0.2543
300.80 0.2547
300.90 0.2551
301.00 0.2555
301.10 0.2559
301.20 0.2563
301.30 0.2567
301.40 0.2571
301.50 0.2575
301.60 0.2579
301.70 0.2583
301.80 0.2586
301.90 0.259
302.00 0.2594
302.10 0.2598
302.20 0.2602
302.30 0.2606
302.40 0.261
302.50 0.2614
302.60 0.2618
302.70 0.2622
302.80 0.2626
302.90 0.263
303.00 0.2634
303.10 0.2638
303.20 0.2642
303.30 0.2646
303.40 0.265
303.50 0.2654
303.60 0.2658
303.70 0.2662
303.80 0.2666
303.90 0.267
304.00 0.2674
304.10 0.2678
304.20 0.2682
304.30 0.2686
304.40 0.269
304.50 0.2694
304.60 0.2698
304.70 0.2702
304.80 0.2706
304.90 0.271
305.00 0.2714
305.10 0.2718
305.20 0.2722
305.30 0.2726
305.40 0.273
305.50 0.2734
305.60 0.2738
305.70 0.2742
305.80 0.2746
305.90 0.275
306.00 0.2754
306.10 0.2758
306.20 0.2762
306.30 0.2766
306.40 0.277
306.50 0.2774
306.60 0.2778
306.70 0.2782
306.80 0.2786
306.90 0.279
307.00 0.2794
307.10 0.2798
307.20 0.2802
307.30 0.2806
307.40 0.281
307.50 0.2815
307.60 0.2819
307.70 0.2823
307.80 0.2827
307.90 0.2831
308.00 0.2835
308.10 0.2839
308.20 0.2843
308.30 0.2847
308.40 0.2851
308.50 0.2855
308.60 0.2859
308.70 0.2863
308.80 0.2867
308.90 0.2872
309.00 0.2876
309.10 0.288
309.20 0.2884
309.30 0.2888
309.40 0.2892
309.50 0.2896
309.60 0.29
309.70 0.2904
309.80 0.2908
309.90 0.2912
310.00 0.2916
310.10 0.292
310.20 0.2924
310.30 0.2929
310.40 0.2933
310.50 0.2937
310.60 0.2941
310.70 0.2945
310.80 0.2949
310.90 0.2954
311.00 0.2958
311.10 0.2962
311.20 0.2966
311.30 0.297
311.40 0.2974
311.50 0.2978
311.60 0.2982
311.70 0.2986
311.80 0.2991
311.90 0.2995
312.00 0.2999
312.10 0.3003
312.20 0.3007
312.30 0.3011
312.40 0.3015
312.50 0.3019
312.60 0.3024
312.70 0.3028
312.80 0.3032
312.90 0.3036
313.00 0.304
313.10 0.3044
313.20 0.3049
313.30 0.3053
313.40 0.3057
313.50 0.3061
313.60 0.3065
313.70 0.3069
313.80 0.3073
313.90 0.3078
314.00 0.3082
314.10 0.3086
314.20 0.309
314.30 0.3094
314.40 0.3099
314.50 0.3103
314.60 0.3107
314.70 0.3111
314.80 0.3115
314.90 0.312
315.00 0.3124
315.10 0.3128
315.20 0.3132
315.30 0.3136
315.40 0.3141
315.50 0.3145
315.60 0.3149
315.70 0.3153
315.80 0.3157
315.90 0.3161
316.00 0.3166
316.10 0.317
316.20 0.3174
316.30 0.3178
316.40 0.3183
316.50 0.3187
316.60 0.3191
316.70 0.3195
316.80 0.3199
316.90 0.3204
317.00 0.3208
317.10 0.3212
317.20 0.3216
317.30 0.3221
317.40 0.3225
317.50 0.3229
317.60 0.3233
317.70 0.3237
317.80 0.3241
317.90 0.3246
318.00 0.325
318.10 0.3254
318.20 0.3258
318.30 0.3263
318.40 0.3267
318.50 0.3271
318.60 0.3276
318.70 0.328
318.80 0.3284
318.90 0.3288
319.00 0.3293
319.10 0.3297
319.20 0.3301
319.30 0.3305
319.40 0.331
319.50 0.3314
319.60 0.3318
319.70 0.3322
319.80 0.3326
319.90 0.3331
320.00 0.3335
320.10 0.3339
320.20 0.3344
320.30 0.3348
320.40 0.3352
320.50 0.3356
320.60 0.3361
320.70 0.3365
320.80 0.3369
320.90 0.3374
321.00 0.3378
321.10 0.3382
321.20 0.3386
321.30 0.3391
321.40 0.3395
321.50 0.3399
321.60 0.3403
321.70 0.3408
321.80 0.3412
321.90 0.3416
322.00 0.342
322.10 0.3425
322.20 0.3429
322.30 0.3433
322.40 0.3438
322.50 0.3442
322.60 0.3446
322.70 0.3451
322.80 0.3455
322.90 0.3459
323.00 0.3464
323.10 0.3468
323.20 0.3472
323.30 0.3477
323.40 0.3481
323.50 0.3485
323.60 0.3489
323.70 0.3494
323.80 0.3498
323.90 0.3502
324.00 0.3506
324.10 0.3511
324.20 0.3515
324.30 0.352
324.40 0.3524
324.50 0.3528
324.60 0.3533
324.70 0.3537
324.80 0.3541
324.90 0.3546
325.00 0.355
325.10 0.3554
325.20 0.3559
325.30 0.3563
325.40 0.3567
325.50 0.3571
325.60 0.3576
325.70 0.358
325.80 0.3584
325.90 0.3589
326.00 0.3593
326.10 0.3597
326.20 0.3602
326.30 0.3606
326.40 0.361
326.50 0.3615
326.60 0.3619
326.70 0.3624
326.80 0.3628
326.90 0.3632
327.00 0.3637
327.10 0.3641
327.20 0.3645
327.30 0.365
327.40 0.3654
327.50 0.3658
327.60 0.3663
327.70 0.3667
327.80 0.3671
327.90 0.3676
328.00 0.368
328.10 0.3684
328.20 0.3689
328.30 0.3693
328.40 0.3697
328.50 0.3702
328.60 0.3706
328.70 0.3711
328.80 0.3715
328.90 0.3719
329.00 0.3724
329.10 0.3728
329.20 0.3733
329.30 0.3737
329.40 0.3741
329.50 0.3746
329.60 0.375
329.70 0.3754
329.80 0.3759
329.90 0.3763
330.00 0.3767
330.10 0.3772
330.20 0.3776
330.30 0.3781
330.40 0.3785
330.50 0.3789
330.60 0.3794
330.70 0.3798
330.80 0.3803
330.90 0.3807
331.00 0.3811
331.10 0.3816
331.20 0.382
331.30 0.3825
331.40 0.3829
331.50 0.3833
331.60 0.3838
331.70 0.3842
331.80 0.3846
331.90 0.3851
332.00 0.3855
332.10 0.386
332.20 0.3864
332.30 0.3868
332.40 0.3873
332.50 0.3877
332.60 0.3882
332.70 0.3886
332.80 0.3891
332.90 0.3895
333.00 0.3899
333.10 0.3904
333.20 0.3908
333.30 0.3913
333.40 0.3917
333.50 0.3921
333.60 0.3926
333.70 0.393
333.80 0.3934
333.90 0.3939
334.00 0.3943
334.10 0.3948
334.20 0.3952
334.30 0.3957
334.40 0.3961
334.50 0.3965
334.60 0.397
334.70 0.3974
334.80 0.3979
334.90 0.3983
335.00 0.3988
335.10 0.3992
335.20 0.3996
335.30 0.4001
335.40 0.4005
335.50 0.401
335.60 0.4014
335.70 0.4018
335.80 0.4023
335.90 0.4027
336.00 0.4032
336.10 0.4036
336.20 0.4041
336.30 0.4045
336.40 0.405
336.50 0.4054
336.60 0.4058
336.70 0.4063
336.80 0.4067
336.90 0.4072
337.00 0.4076
337.10 0.4081
337.20 0.4085
337.30 0.4089
337.40 0.4094
337.50 0.4098
337.60 0.4103
337.70 0.4107
337.80 0.4111
337.90 0.4116
338.00 0.412
338.10 0.4125
338.20 0.4129
338.30 0.4134
338.40 0.4138
338.50 0.4143
338.60 0.4147
338.70 0.4152
338.80 0.4156
338.90 0.4161
339.00 0.4165
339.10 0.4169
339.20 0.4174
339.30 0.4178
339.40 0.4183
339.50 0.4187
339.60 0.4192
339.70 0.4196
339.80 0.42
339.90 0.4205
340.00 0.4209
340.10 0.4214
340.20 0.4218
340.30 0.4223
340.40 0.4227
340.50 0.4232
340.60 0.4236
340.70 0.4241
340.80 0.4245
340.90 0.425
341.00 0.4254
341.10 0.4259
341.20 0.4263
341.30 0.4267
341.40 0.4272
341.50 0.4276
341.60 0.4281
341.70 0.4285
341.80 0.429
341.90 0.4294
342.00 0.4298
342.10 0.4303
342.20 0.4307
342.30 0.4312
342.40 0.4316
342.50 0.4321
342.60 0.4325
342.70 0.433
342.80 0.4334
342.90 0.4339
343.00 0.4343
343.10 0.4348
343.20 0.4352
343.30 0.4357
343.40 0.4361
343.50 0.4366
343.60 0.437
343.70 0.4374
343.80 0.4379
343.90 0.4383
344.00 0.4388
344.10 0.4392
344.20 0.4397
344.30 0.4401
344.40 0.4406
344.50 0.441
344.60 0.4415
344.70 0.4419
344.80 0.4424
344.90 0.4428
345.00 0.4433
345.10 0.4437
345.20 0.4442
345.30 0.4446
345.40 0.4451
345.50 0.4455
345.60 0.4459
345.70 0.4464
345.80 0.4468
345.90 0.4473
346.00 0.4477
346.10 0.4482
346.20 0.4486
346.30 0.4491
346.40 0.4495
346.50 0.45
346.60 0.4504
346.70 0.4509
346.80 0.4513
346.90 0.4518
347.00 0.4522
347.10 0.4527
347.20 0.4531
347.30 0.4536
347.40 0.454
347.50 0.4544
347.60 0.4549
347.70 0.4553
347.80 0.4558
347.90 0.4562
348.00 0.4567
348.10 0.4571
348.20 0.4576
348.30 0.458
348.40 0.4585
348.50 0.4589
348.60 0.4594
348.70 0.4598
348.80 0.4603
348.90 0.4607
349.00 0.4612
349.10 0.4616
349.20 0.4621
349.30 0.4625
349.40 0.463
349.50 0.4634
349.60 0.4639
349.70 0.4643
349.80 0.4647
349.90 0.4652
350.00 0.4656
350.10 0.4661
350.20 0.4665
350.30 0.467
350.40 0.4674
350.50 0.4679
350.60 0.4684
350.70 0.4688
350.80 0.4693
350.90 0.4697
351.00 0.4701
351.10 0.4706
351.20 0.471
351.30 0.4715
351.40 0.4719
351.50 0.4724
351.60 0.4728
351.70 0.4733
351.80 0.4737
351.90 0.4742
352.00 0.4746
352.10 0.4751
352.20 0.4755
352.30 0.476
352.40 0.4764
352.50 0.4769
352.60 0.4773
352.70 0.4778
352.80 0.4782
352.90 0.4787
353.00 0.4791
353.10 0.4796
353.20 0.48
353.30 0.4805
353.40 0.4809
353.50 0.4814
353.60 0.4818
353.70 0.4822
353.80 0.4827
353.90 0.4831
354.00 0.4836
354.10 0.484
354.20 0.4845
354.30 0.4849
354.40 0.4854
354.50 0.4858
354.60 0.4863
354.70 0.4867
354.80 0.4872
354.90 0.4876
355.00 0.4881
355.10 0.4885
355.20 0.489
355.30 0.4894
355.40 0.4899
355.50 0.4903
355.60 0.4908
355.70 0.4912
355.80 0.4917
355.90 0.4921
356.00 0.4925
356.10 0.493
356.20 0.4935
356.30 0.4939
356.40 0.4944
356.50 0.4948
356.60 0.4953
356.70 0.4957
356.80 0.4962
356.90 0.4966
357.00 0.4971
357.10 0.4975
357.20 0.498
357.30 0.4984
357.40 0.4988
357.50 0.4993
357.60 0.4997
357.70 0.5002
357.80 0.5006
357.90 0.5011
358.00 0.5015
358.10 0.502
358.20 0.5024
358.30 0.5029
358.40 0.5033
358.50 0.5038
358.60 0.5042
358.70 0.5047
358.80 0.5051
358.90 0.5056
359.00 0.506
359.10 0.5065
359.20 0.5069
359.30 0.5074
359.40 0.5078
359.50 0.5082
359.60 0.5087
359.70 0.5091
359.80 0.5096
359.90 0.51
360.00 0.5105
360.10 0.5109
360.20 0.5114
360.30 0.5118
360.40 0.5123
360.50 0.5127
360.60 0.5132
360.70 0.5136
360.80 0.5141
360.90 0.5145
361.00 0.515
361.10 0.5154
361.20 0.5159
361.30 0.5163
361.40 0.5167
361.50 0.5172
361.60 0.5176
361.70 0.5181
361.80 0.5185
361.90 0.519
362.00 0.5194
362.10 0.5199
362.20 0.5203
362.30 0.5208
362.40 0.5212
362.50 0.5217
362.60 0.5221
362.70 0.5225
362.80 0.523
362.90 0.5234
363.00 0.5239
363.10 0.5243
363.20 0.5248
363.30 0.5252
363.40 0.5257
363.50 0.5261
363.60 0.5266
363.70 0.527
363.80 0.5275
363.90 0.5279
364.00 0.5284
364.10 0.5288
364.20 0.5292
364.30 0.5297
364.40 0.5301
364.50 0.5306
364.60 0.531
364.70 0.5315
364.80 0.5319
364.90 0.5324
365.00 0.5328
365.10 0.5333
365.20 0.5337
365.30 0.5341
365.40 0.5346
365.50 0.535
365.60 0.5355
365.70 0.5359
365.80 0.5364
365.90 0.5368
366.00 0.5373
366.10 0.5377
366.20 0.5382
366.30 0.5386
366.40 0.5391
366.50 0.5395
366.60 0.54
366.70 0.5404
366.80 0.5408
366.90 0.5413
367.00 0.5417
367.10 0.5422
367.20 0.5426
367.30 0.5431
367.40 0.5435
367.50 0.544
367.60 0.5444
367.70 0.5448
367.80 0.5453
367.90 0.5457
368.00 0.5462
368.10 0.5466
368.20 0.5471
368.30 0.5475
368.40 0.548
368.50 0.5484
368.60 0.5489
368.70 0.5493
368.80 0.5497
368.90 0.5502
369.00 0.5506
369.10 0.5511
369.20 0.5515
369.30 0.552
369.40 0.5524
369.50 0.5528
369.60 0.5533
369.70 0.5537
369.80 0.5542
369.90 0.5546
370.00 0.555
370.10 0.5555
370.20 0.5559
370.30 0.5564
370.40 0.5568
370.50 0.5573
370.60 0.5577
370.70 0.5582
370.80 0.5586
370.90 0.5591
371.00 0.5595
371.10 0.5599
371.20 0.5604
371.30 0.5608
371.40 0.5613
371.50 0.5617
371.60 0.5621
371.70 0.5626
371.80 0.563
371.90 0.5635
372.00 0.5639
372.10 0.5643
372.20 0.5648
372.30 0.5652
372.40 0.5657
372.50 0.5661
372.60 0.5666
372.70 0.567
372.80 0.5674
372.90 0.5679
373.00 0.5683
373.10 0.5688
373.20 0.5692
373.30 0.5697
373.40 0.5701
373.50 0.5705
373.60 0.571
373.70 0.5714
373.80 0.5718
373.90 0.5723
374.00 0.5727
374.10 0.5732
374.20 0.5736
374.30 0.5741
374.40 0.5745
374.50 0.5749
374.60 0.5754
374.70 0.5758
374.80 0.5763
374.90 0.5767
375.00 0.5771
375.10 0.5776
375.20 0.578
375.30 0.5785
375.40 0.5789
375.50 0.5793
375.60 0.5798
375.70 0.5802
375.80 0.5806
375.90 0.5811
376.00 0.5815
376.10 0.582
376.20 0.5824
376.30 0.5828
376.40 0.5833
376.50 0.5837
376.60 0.5841
376.70 0.5846
376.80 0.585
376.90 0.5855
377.00 0.5859
377.10 0.5863
377.20 0.5868
377.30 0.5872
377.40 0.5877
377.50 0.5881
377.60 0.5885
377.70 0.589
377.80 0.5894
377.90 0.5898
378.00 0.5903
378.10 0.5907
378.20 0.5912
378.30 0.5916
378.40 0.592
378.50 0.5925
378.60 0.5929
378.70 0.5933
378.80 0.5938
378.90 0.5942
379.00 0.5946
379.10 0.5951
379.20 0.5955
379.30 0.596
379.40 0.5964
379.50 0.5968
379.60 0.5973
379.70 0.5977
379.80 0.5981
379.90 0.5986
380.00 0.599
380.10 0.5994
380.20 0.5999
380.30 0.6003
380.40 0.6007
380.50 0.6012
380.60 0.6016
380.70 0.6021
380.80 0.6025
380.90 0.6029
381.00 0.6034
381.10 0.6038
381.20 0.6042
381.30 0.6047
381.40 0.6051
381.50 0.6055
381.60 0.606
381.70 0.6064
381.80 0.6068
381.90 0.6073
382.00 0.6077
382.10 0.6081
382.20 0.6086
382.30 0.609
382.40 0.6094
382.50 0.6099
382.60 0.6103
382.70 0.6107
382.80 0.6112
382.90 0.6116
383.00 0.612
383.10 0.6125
383.20 0.6129
383.30 0.6133
383.40 0.6138
383.50 0.6142
383.60 0.6146
383.70 0.615
383.80 0.6155
383.90 0.6159
384.00 0.6163
384.10 0.6168
384.20 0.6172
384.30 0.6176
384.40 0.6181
384.50 0.6185
384.60 0.6189
384.70 0.6194
384.80 0.6198
384.90 0.6202
385.00 0.6207
385.10 0.6211
385.20 0.6215
385.30 0.622
385.40 0.6224
385.50 0.6228
385.60 0.6232
385.70 0.6237
385.80 0.6241
385.90 0.6245
386.00 0.625
386.10 0.6254
386.20 0.6258
386.30 0.6262
386.40 0.6267
386.50 0.6271
386.60 0.6275
386.70 0.628
386.80 0.6284
386.90 0.6288
387.00 0.6292
387.10 0.6297
387.20 0.6301
387.30 0.6305
387.40 0.631
387.50 0.6314
387.60 0.6318
387.70 0.6322
387.80 0.6327
387.90 0.6331
388.00 0.6335
388.10 0.6339
388.20 0.6344
388.30 0.6348
388.40 0.6352
388.50 0.6357
388.60 0.6361
388.70 0.6365
388.80 0.6369
388.90 0.6374
389.00 0.6378
389.10 0.6382
389.20 0.6386
389.30 0.6391
389.40 0.6395
389.50 0.6399
389.60 0.6403
389.70 0.6408
389.80 0.6412
389.90 0.6416
390.00 0.642
390.10 0.6425
390.20 0.6429
390.30 0.6433
390.40 0.6437
390.50 0.6442
390.60 0.6446
390.70 0.645
390.80 0.6454
390.90 0.6459
391.00 0.6463
391.10 0.6467
391.20 0.6471
391.30 0.6475
391.40 0.648
391.50 0.6484
391.60 0.6488
391.70 0.6492
391.80 0.6497
391.90 0.6501
392.00 0.6505
392.10 0.6509
392.20 0.6514
392.30 0.6518
392.40 0.6522
392.50 0.6526
392.60 0.653
392.70 0.6535
392.80 0.6539
392.90 0.6543
393.00 0.6547
393.10 0.6551
393.20 0.6556
393.30 0.656
393.40 0.6564
393.50 0.6568
393.60 0.6573
393.70 0.6577
393.80 0.6581
393.90 0.6585
394.00 0.6589
394.10 0.6594
394.20 0.6598
394.30 0.6602
394.40 0.6606
394.50 0.661
394.60 0.6614
394.70 0.6619
394.80 0.6623
394.90 0.6627
395.00 0.6631
395.10 0.6635
395.20 0.664
395.30 0.6644
395.40 0.6648
395.50 0.6652
395.60 0.6656
395.70 0.666
395.80 0.6665
395.90 0.6669
396.00 0.6673
396.10 0.6677
396.20 0.6681
396.30 0.6685
396.40 0.669
396.50 0.6694
396.60 0.6698
396.70 0.6702
396.80 0.6706
396.90 0.6711
397.00 0.6715
397.10 0.6719
397.20 0.6723
397.30 0.6727
397.40 0.6731
397.50 0.6735
397.60 0.674
397.70 0.6744
397.80 0.6748
397.90 0.6752
398.00 0.6756
398.10 0.676
398.20 0.6764
398.30 0.6769
398.40 0.6773
398.50 0.6777
398.60 0.6781
398.70 0.6785
398.80 0.6789
398.90 0.6793
399.00 0.6797
399.10 0.6802
399.20 0.6806
399.30 0.681
399.40 0.6814
399.50 0.6818
399.60 0.6822
399.70 0.6826
399.80 0.683
399.90 0.6835
400.00 0.6839
400.10 0.6843
400.20 0.6847
400.30 0.6851
400.40 0.6855
400.50 0.6859
400.60 0.6863
400.70 0.6867
400.80 0.6872
400.90 0.6876
401.00 0.688
401.10 0.6884
401.20 0.6888
401.30 0.6892
401.40 0.6896
401.50 0.69
401.60 0.6904
401.70 0.6908
401.80 0.6913
401.90 0.6917
402.00 0.6921
402.10 0.6925
402.20 0.6929
402.30 0.6933
402.40 0.6937
402.50 0.6941
402.60 0.6945
402.70 0.6949
402.80 0.6953
402.90 0.6957
403.00 0.6961
403.10 0.6966
403.20 0.697
403.30 0.6974
403.40 0.6978
403.50 0.6982
403.60 0.6986
403.70 0.699
403.80 0.6994
403.90 0.6998
404.00 0.7002
404.10 0.7006
404.20 0.701
404.30 0.7014
404.40 0.7018
404.50 0.7022
404.60 0.7026
404.70 0.703
404.80 0.7034
404.90 0.7038
405.00 0.7043
405.10 0.7047
405.20 0.7051
405.30 0.7055
405.40 0.7059
405.50 0.7063
405.60 0.7067
405.70 0.7071
405.80 0.7075
405.90 0.7079
406.00 0.7083
406.10 0.7087
406.20 0.7091
406.30 0.7095
406.40 0.7099
406.50 0.7103
406.60 0.7107
406.70 0.7111
406.80 0.7115
406.90 0.7119
407.00 0.7123
407.10 0.7127
407.20 0.7131
407.30 0.7135
407.40 0.7139
407.50 0.7143
407.60 0.7147
407.70 0.7151
407.80 0.7155
407.90 0.7159
408.00 0.7163
408.10 0.7167
408.20 0.7171
408.30 0.7175
408.40 0.7179
408.50 0.7183
408.60 0.7187
408.70 0.7191
408.80 0.7195
408.90 0.7199
409.00 0.7203
409.10 0.7207
409.20 0.7211
409.30 0.7215
409.40 0.7219
409.50 0.7223
409.60 0.7227
409.70 0.7231
409.80 0.7234
409.90 0.7238
410.00 0.7242
410.10 0.7246
410.20 0.725
410.30 0.7254
410.40 0.7258
410.50 0.7262
410.60 0.7266
410.70 0.727
410.80 0.7274
410.90 0.7278
411.00 0.7282
411.10 0.7286
411.20 0.729
411.30 0.7294
411.40 0.7298
411.50 0.7302
411.60 0.7306
411.70 0.731
411.80 0.7314
411.90 0.7317
412.00 0.7321
412.10 0.7325
412.20 0.7329
412.30 0.7333
412.40 0.7337
412.50 0.7341
412.60 0.7345
412.70 0.7349
412.80 0.7353
412.90 0.7357
413.00 0.7361
413.10 0.7365
413.20 0.7368
413.30 0.7372
413.40 0.7376
413.50 0.738
413.60 0.7384
413.70 0.7388
413.80 0.7392
413.90 0.7396
414.00 0.74
414.10 0.7404
414.20 0.7407
414.30 0.7411
414.40 0.7415
414.50 0.7419
414.60 0.7423
414.70 0.7427
414.80 0.7431
414.90 0.7435
415.00 0.7438
415.10 0.7442
415.20 0.7446
415.30 0.745
415.40 0.7454
415.50 0.7458
415.60 0.7462
415.70 0.7466
415.80 0.7469
415.90 0.7473
416.00 0.7477
416.10 0.7481
416.20 0.7485
416.30 0.7489
416.40 0.7493
416.50 0.7496
416.60 0.75
416.70 0.7504
416.80 0.7508
416.90 0.7512
417.00 0.7516
417.10 0.7519
417.20 0.7523
417.30 0.7527
417.40 0.7531
417.50 0.7535
417.60 0.7539
417.70 0.7542
417.80 0.7546
417.90 0.755
418.00 0.7554
418.10 0.7558
418.20 0.7562
418.30 0.7565
418.40 0.7569
418.50 0.7573
418.60 0.7577
418.70 0.7581
418.80 0.7584
418.90 0.7588
419.00 0.7592
419.10 0.7596
419.20 0.76
419.30 0.7603
419.40 0.7607
419.50 0.7611
419.60 0.7615
419.70 0.7619
419.80 0.7622
419.90 0.7626
420.00 0.763
420.10 0.7634
420.20 0.7638
420.30 0.7641
420.40 0.7645
420.50 0.7649
420.60 0.7653
420.70 0.7656
420.80 0.766
420.90 0.7664
421.00 0.7668
421.10 0.7671
421.20 0.7675
421.30 0.7679
421.40 0.7683
421.50 0.7687
421.60 0.769
421.70 0.7694
421.80 0.7698
421.90 0.7702
422.00 0.7705
422.10 0.7709
422.20 0.7713
422.30 0.7717
422.40 0.772
422.50 0.7724
422.60 0.7728
422.70 0.7732
422.80 0.7735
422.90 0.7739
423.00 0.7743
423.10 0.7746
423.20 0.775
423.30 0.7754
423.40 0.7758
423.50 0.7761
423.60 0.7765
423.70 0.7769
423.80 0.7773
423.90 0.7776
424.00 0.778
424.10 0.7784
424.20 0.7787
424.30 0.7791
424.40 0.7795
424.50 0.7798
424.60 0.7802
424.70 0.7806
424.80 0.781
424.90 0.7813
425.00 0.7817
425.10 0.7821
425.20 0.7824
425.30 0.7828
425.40 0.7832
425.50 0.7835
425.60 0.7839
425.70 0.7843
425.80 0.7846
425.90 0.785
426.00 0.7854
426.10 0.7857
426.20 0.7861
426.30 0.7865
426.40 0.7869
426.50 0.7872
426.60 0.7876
426.70 0.7879
426.80 0.7883
426.90 0.7887
427.00 0.789
427.10 0.7894
427.20 0.7898
427.30 0.7901
427.40 0.7905
427.50 0.7909
427.60 0.7912
427.70 0.7916
427.80 0.792
427.90 0.7923
428.00 0.7927
428.10 0.793
428.20 0.7934
428.30 0.7938
428.40 0.7941
428.50 0.7945
428.60 0.7949
428.70 0.7952
428.80 0.7956
428.90 0.796
429.00 0.7963
429.10 0.7967
429.20 0.797
429.30 0.7974
429.40 0.7978
429.50 0.7981
429.60 0.7985
429.70 0.7988
429.80 0.7992
429.90 0.7996
430.00 0.7999
430.10 0.8003
430.20 0.8006
430.30 0.801
430.40 0.8014
430.50 0.8017
430.60 0.8021
430.70 0.8024
430.80 0.8028
430.90 0.8031
431.00 0.8035
431.10 0.8039
431.20 0.8042
431.30 0.8046
431.40 0.8049
431.50 0.8053
431.60 0.8056
431.70 0.806
431.80 0.8064
431.90 0.8067
432.00 0.8071
432.10 0.8074
432.20 0.8078
432.30 0.8081
432.40 0.8085
432.50 0.8088
432.60 0.8092
432.70 0.8095
432.80 0.8099
432.90 0.8103
433.00 0.8106
433.10 0.8109
433.20 0.8113
433.30 0.8116
433.40 0.812
433.50 0.8123
433.60 0.8127
433.70 0.813
433.80 0.8133
433.90 0.8136
434.00 0.8139
434.10 0.8143
434.20 0.8147
434.30 0.8151
434.40 0.8155
434.50 0.8158
434.60 0.8162
434.70 0.8166
434.80 0.8169
434.90 0.8173
435.00 0.8176
435.10 0.818
435.20 0.8183
435.30 0.8187
435.40 0.819
435.50 0.8194
435.60 0.8197
435.70 0.8201
435.80 0.8204
435.90 0.8208
436.00 0.8211
436.10 0.8215
436.20 0.8218
436.30 0.8222
436.40 0.8225
436.50 0.8229
436.60 0.8232
436.70 0.8236
436.80 0.8239
436.90 0.8243
437.00 0.8246
437.10 0.825
437.20 0.8253
437.30 0.8257
437.40 0.826
437.50 0.8263
437.60 0.8267
437.70 0.827
437.80 0.8274
437.90 0.8277
438.00 0.8281
438.10 0.8284
438.20 0.8288
438.30 0.8291
438.40 0.8294
438.50 0.8298
438.60 0.8301
438.70 0.8305
438.80 0.8308
438.90 0.8312
439.00 0.8315
439.10 0.8318
439.20 0.8322
439.30 0.8325
439.40 0.8329
439.50 0.8332
439.60 0.8335
439.70 0.8339
439.80 0.8342
439.90 0.8346
440.00 0.8349
440.10 0.8352
440.20 0.8356
440.30 0.8359
440.40 0.8363
440.50 0.8366
440.60 0.8369
440.70 0.8373
440.80 0.8376
440.90 0.8379
441.00 0.8383
441.10 0.8386
441.20 0.839
441.30 0.8393
441.40 0.8396
441.50 0.84
441.60 0.8403
441.70 0.8406
441.80 0.841
441.90 0.8413
442.00 0.8417
442.10 0.842
442.20 0.8423
442.30 0.8427
442.40 0.843
442.50 0.8433
442.60 0.8437
442.70 0.844
442.80 0.8443
442.90 0.8447
443.00 0.845
