# Version 2.1 - nm, norm@500 to 1, cut digits, bergeron_80000_75.dat_80000
# Wavelength(nm)  Flambda(ergs/cm^s/s/nm)
300.00 6.662
300.10 6.654
300.20 6.645
300.30 6.637
300.40 6.629
300.50 6.621
300.60 6.612
300.70 6.604
300.80 6.596
300.90 6.588
301.00 6.58
301.10 6.572
301.20 6.563
301.30 6.555
301.40 6.547
301.50 6.539
301.60 6.531
301.70 6.523
301.80 6.515
301.90 6.507
302.00 6.499
302.10 6.491
302.20 6.483
302.30 6.475
302.40 6.467
302.50 6.459
302.60 6.451
302.70 6.443
302.80 6.435
302.90 6.427
303.00 6.419
303.10 6.411
303.20 6.404
303.30 6.396
303.40 6.388
303.50 6.38
303.60 6.372
303.70 6.364
303.80 6.356
303.90 6.349
304.00 6.341
304.10 6.333
304.20 6.325
304.30 6.318
304.40 6.31
304.50 6.302
304.60 6.294
304.70 6.287
304.80 6.279
304.90 6.271
305.00 6.264
305.10 6.256
305.20 6.248
305.30 6.241
305.40 6.233
305.50 6.226
305.60 6.218
305.70 6.21
305.80 6.203
305.90 6.195
306.00 6.188
306.10 6.18
306.20 6.173
306.30 6.165
306.40 6.158
306.50 6.15
306.60 6.143
306.70 6.135
306.80 6.128
306.90 6.12
307.00 6.113
307.10 6.106
307.20 6.098
307.30 6.091
307.40 6.083
307.50 6.076
307.60 6.069
307.70 6.061
307.80 6.054
307.90 6.047
308.00 6.039
308.10 6.032
308.20 6.025
308.30 6.017
308.40 6.01
308.50 6.003
308.60 5.996
308.70 5.988
308.80 5.981
308.90 5.974
309.00 5.967
309.10 5.959
309.20 5.952
309.30 5.945
309.40 5.938
309.50 5.931
309.60 5.924
309.70 5.916
309.80 5.909
309.90 5.902
310.00 5.895
310.10 5.888
310.20 5.881
310.30 5.874
310.40 5.867
310.50 5.86
310.60 5.853
310.70 5.846
310.80 5.839
310.90 5.832
311.00 5.825
311.10 5.818
311.20 5.811
311.30 5.804
311.40 5.797
311.50 5.79
311.60 5.783
311.70 5.776
311.80 5.769
311.90 5.762
312.00 5.755
312.10 5.748
312.20 5.742
312.30 5.735
312.40 5.728
312.50 5.721
312.60 5.714
312.70 5.707
312.80 5.701
312.90 5.694
313.00 5.687
313.10 5.68
313.20 5.673
313.30 5.667
313.40 5.66
313.50 5.653
313.60 5.646
313.70 5.64
313.80 5.633
313.90 5.626
314.00 5.62
314.10 5.613
314.20 5.606
314.30 5.6
314.40 5.593
314.50 5.586
314.60 5.58
314.70 5.573
314.80 5.566
314.90 5.56
315.00 5.553
315.10 5.547
315.20 5.54
315.30 5.534
315.40 5.527
315.50 5.52
315.60 5.514
315.70 5.507
315.80 5.501
315.90 5.494
316.00 5.488
316.10 5.481
316.20 5.475
316.30 5.468
316.40 5.462
316.50 5.456
316.60 5.449
316.70 5.443
316.80 5.436
316.90 5.43
317.00 5.423
317.10 5.417
317.20 5.411
317.30 5.404
317.40 5.398
317.50 5.392
317.60 5.385
317.70 5.379
317.80 5.373
317.90 5.366
318.00 5.36
318.10 5.354
318.20 5.347
318.30 5.341
318.40 5.335
318.50 5.329
318.60 5.322
318.70 5.316
318.80 5.31
318.90 5.304
319.00 5.298
319.10 5.291
319.20 5.285
319.30 5.279
319.40 5.273
319.50 5.267
319.60 5.26
319.70 5.254
319.80 5.248
319.90 5.242
320.00 5.236
320.10 5.23
320.20 5.224
320.30 5.218
320.40 5.212
320.50 5.205
320.60 5.199
320.70 5.193
320.80 5.187
320.90 5.181
321.00 5.175
321.10 5.169
321.20 5.163
321.30 5.157
321.40 5.151
321.50 5.145
321.60 5.139
321.70 5.133
321.80 5.127
321.90 5.121
322.00 5.115
322.10 5.109
322.20 5.103
322.30 5.098
322.40 5.092
322.50 5.086
322.60 5.08
322.70 5.074
322.80 5.068
322.90 5.062
323.00 5.056
323.10 5.051
323.20 5.045
323.30 5.039
323.40 5.033
323.50 5.027
323.60 5.021
323.70 5.016
323.80 5.01
323.90 5.004
324.00 4.998
324.10 4.993
324.20 4.987
324.30 4.981
324.40 4.975
324.50 4.97
324.60 4.964
324.70 4.958
324.80 4.952
324.90 4.947
325.00 4.941
325.10 4.935
325.20 4.93
325.30 4.924
325.40 4.918
325.50 4.913
325.60 4.907
325.70 4.901
325.80 4.896
325.90 4.89
326.00 4.885
326.10 4.879
326.20 4.873
326.30 4.868
326.40 4.862
326.50 4.857
326.60 4.851
326.70 4.845
326.80 4.84
326.90 4.834
327.00 4.829
327.10 4.823
327.20 4.818
327.30 4.812
327.40 4.807
327.50 4.801
327.60 4.796
327.70 4.79
327.80 4.785
327.90 4.779
328.00 4.774
328.10 4.769
328.20 4.763
328.30 4.758
328.40 4.752
328.50 4.747
328.60 4.741
328.70 4.736
328.80 4.731
328.90 4.725
329.00 4.72
329.10 4.715
329.20 4.709
329.30 4.704
329.40 4.698
329.50 4.693
329.60 4.688
329.70 4.683
329.80 4.677
329.90 4.672
330.00 4.667
330.10 4.661
330.20 4.656
330.30 4.651
330.40 4.646
330.50 4.64
330.60 4.635
330.70 4.63
330.80 4.625
330.90 4.619
331.00 4.614
331.10 4.609
331.20 4.604
331.30 4.598
331.40 4.593
331.50 4.588
331.60 4.583
331.70 4.578
331.80 4.573
331.90 4.567
332.00 4.562
332.10 4.557
332.20 4.552
332.30 4.547
332.40 4.542
332.50 4.537
332.60 4.532
332.70 4.526
332.80 4.521
332.90 4.516
333.00 4.511
333.10 4.506
333.20 4.501
333.30 4.496
333.40 4.491
333.50 4.486
333.60 4.481
333.70 4.476
333.80 4.471
333.90 4.466
334.00 4.461
334.10 4.456
334.20 4.451
334.30 4.446
334.40 4.441
334.50 4.436
334.60 4.431
334.70 4.426
334.80 4.421
334.90 4.416
335.00 4.411
335.10 4.406
335.20 4.401
335.30 4.396
335.40 4.391
335.50 4.387
335.60 4.382
335.70 4.377
335.80 4.372
335.90 4.367
336.00 4.362
336.10 4.357
336.20 4.352
336.30 4.348
336.40 4.343
336.50 4.338
336.60 4.333
336.70 4.328
336.80 4.323
336.90 4.319
337.00 4.314
337.10 4.309
337.20 4.304
337.30 4.299
337.40 4.295
337.50 4.29
337.60 4.285
337.70 4.28
337.80 4.276
337.90 4.271
338.00 4.266
338.10 4.261
338.20 4.257
338.30 4.252
338.40 4.247
338.50 4.243
338.60 4.238
338.70 4.233
338.80 4.229
338.90 4.224
339.00 4.219
339.10 4.215
339.20 4.21
339.30 4.205
339.40 4.201
339.50 4.196
339.60 4.191
339.70 4.187
339.80 4.182
339.90 4.177
340.00 4.173
340.10 4.168
340.20 4.164
340.30 4.159
340.40 4.155
340.50 4.15
340.60 4.145
340.70 4.141
340.80 4.136
340.90 4.132
341.00 4.127
341.10 4.123
341.20 4.118
341.30 4.114
341.40 4.109
341.50 4.105
341.60 4.1
341.70 4.096
341.80 4.091
341.90 4.087
342.00 4.082
342.10 4.078
342.20 4.073
342.30 4.069
342.40 4.064
342.50 4.06
342.60 4.055
342.70 4.051
342.80 4.046
342.90 4.042
343.00 4.038
343.10 4.033
343.20 4.029
343.30 4.024
343.40 4.02
343.50 4.016
343.60 4.011
343.70 4.007
343.80 4.002
343.90 3.998
344.00 3.994
344.10 3.989
344.20 3.985
344.30 3.981
344.40 3.976
344.50 3.972
344.60 3.968
344.70 3.963
344.80 3.959
344.90 3.955
345.00 3.951
345.10 3.946
345.20 3.942
345.30 3.938
345.40 3.933
345.50 3.929
345.60 3.925
345.70 3.921
345.80 3.916
345.90 3.912
346.00 3.908
346.10 3.904
346.20 3.899
346.30 3.895
346.40 3.891
346.50 3.887
346.60 3.883
346.70 3.878
346.80 3.874
346.90 3.87
347.00 3.866
347.10 3.862
347.20 3.857
347.30 3.853
347.40 3.849
347.50 3.845
347.60 3.841
347.70 3.837
347.80 3.832
347.90 3.828
348.00 3.824
348.10 3.82
348.20 3.816
348.30 3.812
348.40 3.808
348.50 3.804
348.60 3.8
348.70 3.796
348.80 3.791
348.90 3.787
349.00 3.783
349.10 3.779
349.20 3.775
349.30 3.771
349.40 3.767
349.50 3.763
349.60 3.759
349.70 3.755
349.80 3.751
349.90 3.747
350.00 3.743
350.10 3.739
350.20 3.735
350.30 3.731
350.40 3.727
350.50 3.723
350.60 3.719
350.70 3.715
350.80 3.711
350.90 3.707
351.00 3.703
351.10 3.699
351.20 3.695
351.30 3.691
351.40 3.687
351.50 3.683
351.60 3.679
351.70 3.675
351.80 3.671
351.90 3.668
352.00 3.664
352.10 3.66
352.20 3.656
352.30 3.652
352.40 3.648
352.50 3.644
352.60 3.64
352.70 3.636
352.80 3.633
352.90 3.629
353.00 3.625
353.10 3.621
353.20 3.617
353.30 3.613
353.40 3.609
353.50 3.606
353.60 3.602
353.70 3.598
353.80 3.594
353.90 3.59
354.00 3.586
354.10 3.583
354.20 3.579
354.30 3.575
354.40 3.571
354.50 3.568
354.60 3.564
354.70 3.56
354.80 3.556
354.90 3.552
355.00 3.549
355.10 3.545
355.20 3.541
355.30 3.537
355.40 3.534
355.50 3.53
355.60 3.526
355.70 3.523
355.80 3.519
355.90 3.515
356.00 3.511
356.10 3.508
356.20 3.504
356.30 3.5
356.40 3.497
356.50 3.493
356.60 3.489
356.70 3.486
356.80 3.482
356.90 3.478
357.00 3.475
357.10 3.471
357.20 3.467
357.30 3.464
357.40 3.46
357.50 3.456
357.60 3.453
357.70 3.449
357.80 3.445
357.90 3.442
358.00 3.438
358.10 3.435
358.20 3.431
358.30 3.427
358.40 3.424
358.50 3.42
358.60 3.417
358.70 3.413
358.80 3.41
358.90 3.406
359.00 3.402
359.10 3.399
359.20 3.395
359.30 3.392
359.40 3.388
359.50 3.385
359.60 3.381
359.70 3.378
359.80 3.374
359.90 3.37
360.00 3.367
360.10 3.363
360.20 3.36
360.30 3.356
360.40 3.353
360.50 3.349
360.60 3.346
360.70 3.342
360.80 3.339
360.90 3.336
361.00 3.332
361.10 3.329
361.20 3.325
361.30 3.322
361.40 3.318
361.50 3.315
361.60 3.311
361.70 3.308
361.80 3.304
361.90 3.301
362.00 3.298
362.10 3.294
362.20 3.291
362.30 3.287
362.40 3.284
362.50 3.28
362.60 3.277
362.70 3.274
362.80 3.27
362.90 3.267
363.00 3.264
363.10 3.26
363.20 3.257
363.30 3.253
363.40 3.25
363.50 3.247
363.60 3.243
363.70 3.24
363.80 3.237
363.90 3.233
364.00 3.23
364.10 3.227
364.20 3.223
364.30 3.22
364.40 3.217
364.50 3.213
364.60 3.21
364.70 3.207
364.80 3.203
364.90 3.2
365.00 3.197
365.10 3.193
365.20 3.19
365.30 3.187
365.40 3.184
365.50 3.18
365.60 3.177
365.70 3.174
365.80 3.171
365.90 3.167
366.00 3.164
366.10 3.161
366.20 3.157
366.30 3.154
366.40 3.151
366.50 3.148
366.60 3.144
366.70 3.141
366.80 3.138
366.90 3.134
367.00 3.131
367.10 3.128
367.20 3.125
367.30 3.121
367.40 3.118
367.50 3.115
367.60 3.112
367.70 3.108
367.80 3.105
367.90 3.102
368.00 3.099
368.10 3.095
368.20 3.092
368.30 3.089
368.40 3.086
368.50 3.082
368.60 3.079
368.70 3.076
368.80 3.073
368.90 3.07
369.00 3.066
369.10 3.063
369.20 3.06
369.30 3.057
369.40 3.054
369.50 3.05
369.60 3.047
369.70 3.044
369.80 3.041
369.90 3.038
370.00 3.035
370.10 3.031
370.20 3.028
370.30 3.025
370.40 3.022
370.50 3.019
370.60 3.016
370.70 3.013
370.80 3.01
370.90 3.006
371.00 3.003
371.10 3
371.20 2.997
371.30 2.994
371.40 2.991
371.50 2.988
371.60 2.985
371.70 2.982
371.80 2.979
371.90 2.975
372.00 2.972
372.10 2.969
372.20 2.966
372.30 2.963
372.40 2.96
372.50 2.957
372.60 2.954
372.70 2.951
372.80 2.948
372.90 2.945
373.00 2.942
373.10 2.939
373.20 2.936
373.30 2.933
373.40 2.93
373.50 2.927
373.60 2.924
373.70 2.921
373.80 2.918
373.90 2.915
374.00 2.912
374.10 2.909
374.20 2.906
374.30 2.903
374.40 2.901
374.50 2.898
374.60 2.895
374.70 2.892
374.80 2.889
374.90 2.886
375.00 2.883
375.10 2.88
375.20 2.877
375.30 2.874
375.40 2.871
375.50 2.869
375.60 2.866
375.70 2.863
375.80 2.86
375.90 2.857
376.00 2.854
376.10 2.851
376.20 2.848
376.30 2.846
376.40 2.843
376.50 2.84
376.60 2.837
376.70 2.834
376.80 2.832
376.90 2.829
377.00 2.826
377.10 2.823
377.20 2.821
377.30 2.818
377.40 2.815
377.50 2.812
377.60 2.81
377.70 2.807
377.80 2.804
377.90 2.802
378.00 2.799
378.10 2.796
378.20 2.793
378.30 2.791
378.40 2.788
378.50 2.785
378.60 2.783
378.70 2.78
378.80 2.777
378.90 2.774
379.00 2.772
379.10 2.769
379.20 2.766
379.30 2.764
379.40 2.761
379.50 2.758
379.60 2.756
379.70 2.753
379.80 2.751
379.90 2.748
380.00 2.745
380.10 2.743
380.20 2.74
380.30 2.738
380.40 2.736
380.50 2.733
380.60 2.731
380.70 2.728
380.80 2.726
380.90 2.723
381.00 2.721
381.10 2.718
381.20 2.716
381.30 2.713
381.40 2.711
381.50 2.708
381.60 2.705
381.70 2.703
381.80 2.7
381.90 2.697
382.00 2.695
382.10 2.692
382.20 2.689
382.30 2.686
382.40 2.683
382.50 2.68
382.60 2.677
382.70 2.674
382.80 2.672
382.90 2.669
383.00 2.666
383.10 2.663
383.20 2.66
383.30 2.657
383.40 2.655
383.50 2.652
383.60 2.65
383.70 2.648
383.80 2.646
383.90 2.644
384.00 2.642
384.10 2.64
384.20 2.638
384.30 2.637
384.40 2.635
384.50 2.633
384.60 2.631
384.70 2.629
384.80 2.627
384.90 2.625
385.00 2.623
385.10 2.621
385.20 2.619
385.30 2.617
385.40 2.615
385.50 2.612
385.60 2.61
385.70 2.608
385.80 2.605
385.90 2.603
386.00 2.6
386.10 2.597
386.20 2.595
386.30 2.592
386.40 2.589
386.50 2.586
386.60 2.583
386.70 2.58
386.80 2.576
386.90 2.573
387.00 2.57
387.10 2.566
387.20 2.563
387.30 2.559
387.40 2.556
387.50 2.552
387.60 2.548
387.70 2.544
387.80 2.54
387.90 2.537
388.00 2.533
388.10 2.529
388.20 2.525
388.30 2.521
388.40 2.517
388.50 2.513
388.60 2.51
388.70 2.507
388.80 2.504
388.90 2.502
389.00 2.5
389.10 2.498
389.20 2.497
389.30 2.496
389.40 2.495
389.50 2.495
389.60 2.495
389.70 2.494
389.80 2.494
389.90 2.493
390.00 2.493
390.10 2.493
390.20 2.492
390.30 2.492
390.40 2.491
390.50 2.49
390.60 2.49
390.70 2.489
390.80 2.488
390.90 2.487
391.00 2.486
391.10 2.485
391.20 2.484
391.30 2.483
391.40 2.481
391.50 2.48
391.60 2.478
391.70 2.477
391.80 2.475
391.90 2.473
392.00 2.471
392.10 2.47
392.20 2.468
392.30 2.466
392.40 2.463
392.50 2.461
392.60 2.459
392.70 2.456
392.80 2.454
392.90 2.451
393.00 2.449
393.10 2.446
393.20 2.443
393.30 2.44
393.40 2.437
393.50 2.434
393.60 2.431
393.70 2.428
393.80 2.424
393.90 2.421
394.00 2.417
394.10 2.413
394.20 2.409
394.30 2.405
394.40 2.401
394.50 2.397
394.60 2.393
394.70 2.388
394.80 2.384
394.90 2.379
395.00 2.374
395.10 2.369
395.20 2.364
395.30 2.359
395.40 2.353
395.50 2.348
395.60 2.342
395.70 2.336
395.80 2.33
395.90 2.324
396.00 2.318
396.10 2.312
396.20 2.306
396.30 2.299
396.40 2.293
396.50 2.287
396.60 2.28
396.70 2.274
396.80 2.268
396.90 2.262
397.00 2.257
397.10 2.258
397.20 2.259
397.30 2.261
397.40 2.264
397.50 2.266
397.60 2.268
397.70 2.27
397.80 2.273
397.90 2.275
398.00 2.277
398.10 2.279
398.20 2.281
398.30 2.283
398.40 2.284
398.50 2.286
398.60 2.287
398.70 2.289
398.80 2.29
398.90 2.291
399.00 2.292
399.10 2.293
399.20 2.293
399.30 2.294
399.40 2.294
399.50 2.295
399.60 2.295
399.70 2.295
399.80 2.295
399.90 2.295
400.00 2.294
400.10 2.294
400.20 2.294
400.30 2.293
400.40 2.293
400.50 2.292
400.60 2.291
400.70 2.29
400.80 2.289
400.90 2.289
401.00 2.288
401.10 2.286
401.20 2.285
401.30 2.284
401.40 2.283
401.50 2.281
401.60 2.28
401.70 2.279
401.80 2.277
401.90 2.276
402.00 2.274
402.10 2.273
402.20 2.271
402.30 2.269
402.40 2.268
402.50 2.266
402.60 2.264
402.70 2.262
402.80 2.26
402.90 2.258
403.00 2.256
403.10 2.254
403.20 2.252
403.30 2.25
403.40 2.248
403.50 2.246
403.60 2.244
403.70 2.242
403.80 2.24
403.90 2.237
404.00 2.235
404.10 2.233
404.20 2.23
404.30 2.228
404.40 2.226
404.50 2.223
404.60 2.221
404.70 2.218
404.80 2.215
404.90 2.213
405.00 2.21
405.10 2.207
405.20 2.205
405.30 2.202
405.40 2.199
405.50 2.196
405.60 2.193
405.70 2.19
405.80 2.187
405.90 2.183
406.00 2.18
406.10 2.177
406.20 2.173
406.30 2.17
406.40 2.166
406.50 2.162
406.60 2.159
406.70 2.155
406.80 2.151
406.90 2.146
407.00 2.142
407.10 2.138
407.20 2.133
407.30 2.129
407.40 2.124
407.50 2.119
407.60 2.114
407.70 2.108
407.80 2.103
407.90 2.097
408.00 2.091
408.10 2.085
408.20 2.079
408.30 2.073
408.40 2.066
408.50 2.059
408.60 2.052
408.70 2.045
408.80 2.037
408.90 2.029
409.00 2.021
409.10 2.013
409.20 2.004
409.30 1.996
409.40 1.987
409.50 1.978
409.60 1.969
409.70 1.96
409.80 1.951
409.90 1.943
410.00 1.939
410.10 1.937
410.20 1.939
410.30 1.934
410.40 1.933
410.50 1.936
410.60 1.941
410.70 1.947
410.80 1.952
410.90 1.957
411.00 1.963
411.10 1.968
411.20 1.973
411.30 1.977
411.40 1.982
411.50 1.986
411.60 1.99
411.70 1.994
411.80 1.997
411.90 2
412.00 2.003
412.10 2.006
412.20 2.009
412.30 2.011
412.40 2.013
412.50 2.015
412.60 2.017
412.70 2.018
412.80 2.02
412.90 2.021
413.00 2.022
413.10 2.023
413.20 2.023
413.30 2.024
413.40 2.024
413.50 2.025
413.60 2.025
413.70 2.025
413.80 2.025
413.90 2.025
414.00 2.025
414.10 2.024
414.20 2.024
414.30 2.024
414.40 2.023
414.50 2.023
414.60 2.022
414.70 2.021
414.80 2.02
414.90 2.02
415.00 2.019
415.10 2.018
415.20 2.017
415.30 2.016
415.40 2.015
415.50 2.014
415.60 2.012
415.70 2.011
415.80 2.01
415.90 2.009
416.00 2.008
416.10 2.006
416.20 2.005
416.30 2.004
416.40 2.002
416.50 2.001
416.60 2
416.70 1.998
416.80 1.997
416.90 1.995
417.00 1.994
417.10 1.992
417.20 1.991
417.30 1.989
417.40 1.988
417.50 1.986
417.60 1.985
417.70 1.983
417.80 1.982
417.90 1.98
418.00 1.978
418.10 1.977
418.20 1.975
418.30 1.974
418.40 1.972
418.50 1.97
418.60 1.969
418.70 1.967
418.80 1.966
418.90 1.964
419.00 1.962
419.10 1.961
419.20 1.959
419.30 1.957
419.40 1.956
419.50 1.954
419.60 1.952
419.70 1.951
419.80 1.949
419.90 1.947
420.00 1.946
420.10 1.944
420.20 1.942
420.30 1.94
420.40 1.939
420.50 1.937
420.60 1.935
420.70 1.934
420.80 1.932
420.90 1.93
421.00 1.929
421.10 1.927
421.20 1.925
421.30 1.923
421.40 1.922
421.50 1.92
421.60 1.918
421.70 1.916
421.80 1.915
421.90 1.913
422.00 1.911
422.10 1.91
422.20 1.908
422.30 1.906
422.40 1.904
422.50 1.903
422.60 1.901
422.70 1.899
422.80 1.897
422.90 1.896
423.00 1.894
423.10 1.892
423.20 1.891
423.30 1.889
423.40 1.887
423.50 1.885
423.60 1.884
423.70 1.882
423.80 1.88
423.90 1.878
424.00 1.877
424.10 1.875
424.20 1.873
424.30 1.871
424.40 1.869
424.50 1.868
424.60 1.866
424.70 1.864
424.80 1.862
424.90 1.861
425.00 1.859
425.10 1.857
425.20 1.855
425.30 1.853
425.40 1.852
425.50 1.85
425.60 1.848
425.70 1.846
425.80 1.844
425.90 1.843
426.00 1.841
426.10 1.839
426.20 1.837
426.30 1.835
426.40 1.833
426.50 1.831
426.60 1.83
426.70 1.828
426.80 1.826
426.90 1.824
427.00 1.822
427.10 1.82
427.20 1.818
427.30 1.816
427.40 1.814
427.50 1.812
427.60 1.81
427.70 1.808
427.80 1.806
427.90 1.804
428.00 1.802
428.10 1.8
428.20 1.798
428.30 1.796
428.40 1.793
428.50 1.791
428.60 1.789
428.70 1.787
428.80 1.785
428.90 1.782
429.00 1.78
429.10 1.777
429.20 1.775
429.30 1.773
429.40 1.77
429.50 1.767
429.60 1.765
429.70 1.762
429.80 1.759
429.90 1.757
430.00 1.754
430.10 1.751
430.20 1.748
430.30 1.745
430.40 1.741
430.50 1.738
430.60 1.735
430.70 1.731
430.80 1.727
430.90 1.724
431.00 1.72
431.10 1.716
431.20 1.712
431.30 1.707
431.40 1.703
431.50 1.698
431.60 1.693
431.70 1.688
431.80 1.683
431.90 1.677
432.00 1.672
432.10 1.666
432.20 1.659
432.30 1.653
432.40 1.646
432.50 1.639
432.60 1.632
432.70 1.625
432.80 1.617
432.90 1.609
433.00 1.601
433.10 1.592
433.20 1.583
433.30 1.575
433.40 1.566
433.50 1.557
433.60 1.548
433.70 1.539
433.80 1.53
433.90 1.522
434.00 1.515
434.10 1.514
434.20 1.518
434.30 1.524
434.40 1.53
434.50 1.537
434.60 1.543
434.70 1.549
434.80 1.555
434.90 1.561
435.00 1.567
435.10 1.573
435.20 1.579
435.30 1.584
435.40 1.589
435.50 1.593
435.60 1.597
435.70 1.601
435.80 1.605
435.90 1.609
436.00 1.612
436.10 1.615
436.20 1.617
436.30 1.62
436.40 1.622
436.50 1.624
436.60 1.626
436.70 1.628
436.80 1.629
436.90 1.63
437.00 1.631
437.10 1.632
437.20 1.633
437.30 1.634
437.40 1.634
437.50 1.635
437.60 1.635
437.70 1.635
437.80 1.636
437.90 1.636
438.00 1.636
438.10 1.635
438.20 1.635
438.30 1.635
438.40 1.635
438.50 1.634
438.60 1.634
438.70 1.633
438.80 1.633
438.90 1.632
439.00 1.631
439.10 1.631
439.20 1.63
439.30 1.629
439.40 1.628
439.50 1.628
439.60 1.627
439.70 1.626
439.80 1.625
439.90 1.624
440.00 1.623
440.10 1.622
440.20 1.621
440.30 1.62
440.40 1.619
440.50 1.618
440.60 1.617
440.70 1.616
440.80 1.615
440.90 1.614
441.00 1.613
441.10 1.611
441.20 1.61
441.30 1.609
441.40 1.608
441.50 1.607
441.60 1.606
441.70 1.604
441.80 1.603
441.90 1.602
442.00 1.601
442.10 1.6
442.20 1.598
442.30 1.597
442.40 1.596
442.50 1.595
442.60 1.593
442.70 1.592
442.80 1.591
442.90 1.59
443.00 1.588
443.10 1.587
443.20 1.586
443.30 1.585
443.40 1.583
443.50 1.582
443.60 1.581
443.70 1.58
443.80 1.578
443.90 1.577
444.00 1.576
444.10 1.574
444.20 1.573
444.30 1.572
444.40 1.571
444.50 1.569
444.60 1.568
444.70 1.567
444.80 1.565
444.90 1.564
445.00 1.563
445.10 1.562
445.20 1.56
445.30 1.559
445.40 1.558
445.50 1.556
445.60 1.555
445.70 1.554
445.80 1.553
445.90 1.551
446.00 1.55
446.10 1.549
446.20 1.547
446.30 1.546
446.40 1.545
446.50 1.544
446.60 1.542
446.70 1.541
446.80 1.54
446.90 1.538
447.00 1.537
447.10 1.536
447.20 1.535
447.30 1.533
447.40 1.532
447.50 1.531
447.60 1.529
447.70 1.528
447.80 1.527
447.90 1.526
448.00 1.524
448.10 1.523
448.20 1.522
448.30 1.52
448.40 1.519
448.50 1.518
448.60 1.517
448.70 1.515
448.80 1.514
448.90 1.513
449.00 1.511
449.10 1.51
449.20 1.509
449.30 1.508
449.40 1.506
449.50 1.505
449.60 1.504
449.70 1.503
449.80 1.501
449.90 1.5
450.00 1.499
450.10 1.498
450.20 1.496
450.30 1.495
450.40 1.494
450.50 1.492
450.60 1.491
450.70 1.49
450.80 1.489
450.90 1.487
451.00 1.486
451.10 1.485
451.20 1.484
451.30 1.482
451.40 1.481
451.50 1.48
451.60 1.479
451.70 1.477
451.80 1.476
451.90 1.475
452.00 1.474
452.10 1.472
452.20 1.471
452.30 1.47
452.40 1.469
452.50 1.468
452.60 1.466
452.70 1.465
452.80 1.464
452.90 1.463
453.00 1.461
453.10 1.46
453.20 1.459
453.30 1.458
453.40 1.456
453.50 1.455
453.60 1.454
453.70 1.453
453.80 1.452
453.90 1.45
454.00 1.449
454.10 1.448
