# Version 2.1 - nm, norm@500 to 1, cut digits, bergeron_17000_95.dat_17000
# Wavelength(nm)  Flambda(ergs/cm^s/s/nm)
300.00 3.131
300.10 3.128
300.20 3.126
300.30 3.123
300.40 3.12
300.50 3.117
300.60 3.115
300.70 3.112
300.80 3.109
300.90 3.106
301.00 3.104
301.10 3.101
301.20 3.098
301.30 3.096
301.40 3.093
301.50 3.09
301.60 3.087
301.70 3.085
301.80 3.082
301.90 3.079
302.00 3.077
302.10 3.074
302.20 3.071
302.30 3.069
302.40 3.066
302.50 3.063
302.60 3.061
302.70 3.058
302.80 3.055
302.90 3.053
303.00 3.05
303.10 3.047
303.20 3.045
303.30 3.042
303.40 3.039
303.50 3.037
303.60 3.034
303.70 3.031
303.80 3.029
303.90 3.026
304.00 3.023
304.10 3.021
304.20 3.018
304.30 3.016
304.40 3.013
304.50 3.01
304.60 3.008
304.70 3.005
304.80 3.003
304.90 3
305.00 2.997
305.10 2.995
305.20 2.992
305.30 2.99
305.40 2.987
305.50 2.984
305.60 2.982
305.70 2.979
305.80 2.977
305.90 2.974
306.00 2.971
306.10 2.969
306.20 2.966
306.30 2.964
306.40 2.961
306.50 2.959
306.60 2.956
306.70 2.953
306.80 2.951
306.90 2.948
307.00 2.946
307.10 2.943
307.20 2.941
307.30 2.938
307.40 2.936
307.50 2.933
307.60 2.931
307.70 2.928
307.80 2.926
307.90 2.923
308.00 2.921
308.10 2.918
308.20 2.916
308.30 2.913
308.40 2.911
308.50 2.908
308.60 2.906
308.70 2.903
308.80 2.901
308.90 2.898
309.00 2.896
309.10 2.893
309.20 2.891
309.30 2.888
309.40 2.886
309.50 2.883
309.60 2.881
309.70 2.878
309.80 2.876
309.90 2.873
310.00 2.871
310.10 2.868
310.20 2.866
310.30 2.864
310.40 2.861
310.50 2.859
310.60 2.856
310.70 2.854
310.80 2.851
310.90 2.849
311.00 2.846
311.10 2.844
311.20 2.842
311.30 2.839
311.40 2.837
311.50 2.834
311.60 2.832
311.70 2.83
311.80 2.827
311.90 2.825
312.00 2.822
312.10 2.82
312.20 2.818
312.30 2.815
312.40 2.813
312.50 2.81
312.60 2.808
312.70 2.806
312.80 2.803
312.90 2.801
313.00 2.798
313.10 2.796
313.20 2.794
313.30 2.791
313.40 2.789
313.50 2.787
313.60 2.784
313.70 2.782
313.80 2.779
313.90 2.777
314.00 2.775
314.10 2.772
314.20 2.77
314.30 2.768
314.40 2.765
314.50 2.763
314.60 2.761
314.70 2.758
314.80 2.756
314.90 2.754
315.00 2.751
315.10 2.749
315.20 2.747
315.30 2.745
315.40 2.742
315.50 2.74
315.60 2.738
315.70 2.735
315.80 2.733
315.90 2.731
316.00 2.728
316.10 2.726
316.20 2.724
316.30 2.722
316.40 2.719
316.50 2.717
316.60 2.715
316.70 2.712
316.80 2.71
316.90 2.708
317.00 2.705
317.10 2.703
317.20 2.701
317.30 2.699
317.40 2.696
317.50 2.694
317.60 2.692
317.70 2.69
317.80 2.687
317.90 2.685
318.00 2.683
318.10 2.681
318.20 2.678
318.30 2.676
318.40 2.674
318.50 2.672
318.60 2.669
318.70 2.667
318.80 2.665
318.90 2.663
319.00 2.661
319.10 2.658
319.20 2.656
319.30 2.654
319.40 2.652
319.50 2.649
319.60 2.647
319.70 2.645
319.80 2.643
319.90 2.641
320.00 2.638
320.10 2.636
320.20 2.634
320.30 2.632
320.40 2.63
320.50 2.627
320.60 2.625
320.70 2.623
320.80 2.621
320.90 2.619
321.00 2.617
321.10 2.614
321.20 2.612
321.30 2.61
321.40 2.608
321.50 2.606
321.60 2.603
321.70 2.601
321.80 2.599
321.90 2.597
322.00 2.595
322.10 2.593
322.20 2.591
322.30 2.588
322.40 2.586
322.50 2.584
322.60 2.582
322.70 2.58
322.80 2.578
322.90 2.576
323.00 2.573
323.10 2.571
323.20 2.569
323.30 2.567
323.40 2.565
323.50 2.563
323.60 2.561
323.70 2.559
323.80 2.556
323.90 2.554
324.00 2.552
324.10 2.55
324.20 2.548
324.30 2.546
324.40 2.544
324.50 2.542
324.60 2.54
324.70 2.538
324.80 2.536
324.90 2.533
325.00 2.531
325.10 2.529
325.20 2.527
325.30 2.525
325.40 2.523
325.50 2.521
325.60 2.519
325.70 2.517
325.80 2.515
325.90 2.513
326.00 2.511
326.10 2.509
326.20 2.507
326.30 2.505
326.40 2.502
326.50 2.5
326.60 2.498
326.70 2.496
326.80 2.494
326.90 2.492
327.00 2.49
327.10 2.488
327.20 2.486
327.30 2.484
327.40 2.482
327.50 2.48
327.60 2.478
327.70 2.476
327.80 2.474
327.90 2.472
328.00 2.47
328.10 2.468
328.20 2.466
328.30 2.464
328.40 2.462
328.50 2.46
328.60 2.458
328.70 2.456
328.80 2.454
328.90 2.452
329.00 2.45
329.10 2.448
329.20 2.446
329.30 2.444
329.40 2.442
329.50 2.44
329.60 2.438
329.70 2.436
329.80 2.434
329.90 2.432
330.00 2.43
330.10 2.428
330.20 2.426
330.30 2.424
330.40 2.422
330.50 2.42
330.60 2.418
330.70 2.416
330.80 2.414
330.90 2.412
331.00 2.41
331.10 2.408
331.20 2.406
331.30 2.404
331.40 2.402
331.50 2.401
331.60 2.399
331.70 2.397
331.80 2.395
331.90 2.393
332.00 2.391
332.10 2.389
332.20 2.387
332.30 2.385
332.40 2.383
332.50 2.381
332.60 2.379
332.70 2.377
332.80 2.375
332.90 2.373
333.00 2.372
333.10 2.37
333.20 2.368
333.30 2.366
333.40 2.364
333.50 2.362
333.60 2.36
333.70 2.358
333.80 2.356
333.90 2.354
334.00 2.352
334.10 2.351
334.20 2.349
334.30 2.347
334.40 2.345
334.50 2.343
334.60 2.341
334.70 2.339
334.80 2.337
334.90 2.335
335.00 2.334
335.10 2.332
335.20 2.33
335.30 2.328
335.40 2.326
335.50 2.324
335.60 2.322
335.70 2.321
335.80 2.319
335.90 2.317
336.00 2.315
336.10 2.313
336.20 2.311
336.30 2.309
336.40 2.308
336.50 2.306
336.60 2.304
336.70 2.302
336.80 2.3
336.90 2.298
337.00 2.296
337.10 2.295
337.20 2.293
337.30 2.291
337.40 2.289
337.50 2.287
337.60 2.285
337.70 2.284
337.80 2.282
337.90 2.28
338.00 2.278
338.10 2.276
338.20 2.275
338.30 2.273
338.40 2.271
338.50 2.269
338.60 2.267
338.70 2.266
338.80 2.264
338.90 2.262
339.00 2.26
339.10 2.258
339.20 2.257
339.30 2.255
339.40 2.253
339.50 2.251
339.60 2.249
339.70 2.248
339.80 2.246
339.90 2.244
340.00 2.242
340.10 2.24
340.20 2.239
340.30 2.237
340.40 2.235
340.50 2.233
340.60 2.232
340.70 2.23
340.80 2.228
340.90 2.226
341.00 2.225
341.10 2.223
341.20 2.221
341.30 2.219
341.40 2.217
341.50 2.216
341.60 2.214
341.70 2.212
341.80 2.21
341.90 2.209
342.00 2.207
342.10 2.205
342.20 2.204
342.30 2.202
342.40 2.2
342.50 2.198
342.60 2.197
342.70 2.195
342.80 2.193
342.90 2.191
343.00 2.19
343.10 2.188
343.20 2.186
343.30 2.184
343.40 2.183
343.50 2.181
343.60 2.179
343.70 2.178
343.80 2.176
343.90 2.174
344.00 2.172
344.10 2.171
344.20 2.169
344.30 2.167
344.40 2.166
344.50 2.164
344.60 2.162
344.70 2.161
344.80 2.159
344.90 2.157
345.00 2.155
345.10 2.154
345.20 2.152
345.30 2.15
345.40 2.149
345.50 2.147
345.60 2.145
345.70 2.144
345.80 2.142
345.90 2.14
346.00 2.139
346.10 2.137
346.20 2.135
346.30 2.134
346.40 2.132
346.50 2.13
346.60 2.129
346.70 2.127
346.80 2.125
346.90 2.124
347.00 2.122
347.10 2.12
347.20 2.119
347.30 2.117
347.40 2.115
347.50 2.114
347.60 2.112
347.70 2.11
347.80 2.109
347.90 2.107
348.00 2.105
348.10 2.104
348.20 2.102
348.30 2.1
348.40 2.099
348.50 2.097
348.60 2.096
348.70 2.094
348.80 2.092
348.90 2.091
349.00 2.089
349.10 2.087
349.20 2.086
349.30 2.084
349.40 2.083
349.50 2.081
349.60 2.079
349.70 2.078
349.80 2.076
349.90 2.075
350.00 2.073
350.10 2.071
350.20 2.07
350.30 2.068
350.40 2.067
350.50 2.065
350.60 2.063
350.70 2.062
350.80 2.06
350.90 2.058
351.00 2.057
351.10 2.055
351.20 2.054
351.30 2.052
351.40 2.051
351.50 2.049
351.60 2.047
351.70 2.046
351.80 2.044
351.90 2.043
352.00 2.041
352.10 2.039
352.20 2.038
352.30 2.036
352.40 2.035
352.50 2.033
352.60 2.032
352.70 2.03
352.80 2.028
352.90 2.027
353.00 2.025
353.10 2.024
353.20 2.022
353.30 2.021
353.40 2.019
353.50 2.018
353.60 2.016
353.70 2.014
353.80 2.013
353.90 2.011
354.00 2.01
354.10 2.008
354.20 2.007
354.30 2.005
354.40 2.004
354.50 2.002
354.60 2.001
354.70 1.999
354.80 1.997
354.90 1.996
355.00 1.994
355.10 1.993
355.20 1.991
355.30 1.99
355.40 1.988
355.50 1.987
355.60 1.985
355.70 1.984
355.80 1.982
355.90 1.981
356.00 1.979
356.10 1.978
356.20 1.976
356.30 1.975
356.40 1.973
356.50 1.972
356.60 1.97
356.70 1.969
356.80 1.967
356.90 1.966
357.00 1.964
357.10 1.963
357.20 1.961
357.30 1.96
357.40 1.958
357.50 1.957
357.60 1.955
357.70 1.954
357.80 1.952
357.90 1.951
358.00 1.949
358.10 1.948
358.20 1.946
358.30 1.945
358.40 1.943
358.50 1.942
358.60 1.94
358.70 1.939
358.80 1.937
358.90 1.936
359.00 1.934
359.10 1.933
359.20 1.931
359.30 1.93
359.40 1.928
359.50 1.927
359.60 1.925
359.70 1.924
359.80 1.922
359.90 1.921
360.00 1.92
360.10 1.918
360.20 1.917
360.30 1.915
360.40 1.914
360.50 1.912
360.60 1.911
360.70 1.909
360.80 1.908
360.90 1.907
361.00 1.905
361.10 1.904
361.20 1.902
361.30 1.901
361.40 1.899
361.50 1.898
361.60 1.896
361.70 1.895
361.80 1.894
361.90 1.892
362.00 1.891
362.10 1.889
362.20 1.888
362.30 1.886
362.40 1.885
362.50 1.884
362.60 1.882
362.70 1.881
362.80 1.879
362.90 1.878
363.00 1.877
363.10 1.875
363.20 1.873
363.30 1.872
363.40 1.87
363.50 1.868
363.60 1.867
363.70 1.865
363.80 1.863
363.90 1.862
364.00 1.86
364.10 1.858
364.20 1.857
364.30 1.855
364.40 1.853
364.50 1.852
364.60 1.85
364.70 1.848
364.80 1.846
364.90 1.845
365.00 1.843
365.10 1.841
365.20 1.84
365.30 1.838
365.40 1.836
365.50 1.835
365.60 1.833
365.70 1.831
365.80 1.83
365.90 1.828
366.00 1.826
366.10 1.825
366.20 1.823
366.30 1.822
366.40 1.82
366.50 1.819
366.60 1.818
366.70 1.816
366.80 1.815
366.90 1.813
367.00 1.812
367.10 1.81
367.20 1.809
367.30 1.807
367.40 1.806
367.50 1.805
367.60 1.803
367.70 1.802
367.80 1.8
367.90 1.799
368.00 1.797
368.10 1.796
368.20 1.795
368.30 1.793
368.40 1.792
368.50 1.79
368.60 1.789
368.70 1.787
368.80 1.786
368.90 1.784
369.00 1.783
369.10 1.782
369.20 1.78
369.30 1.779
369.40 1.777
369.50 1.776
369.60 1.774
369.70 1.773
369.80 1.772
369.90 1.77
370.00 1.769
370.10 1.767
370.20 1.766
370.30 1.765
370.40 1.763
370.50 1.762
370.60 1.76
370.70 1.759
370.80 1.757
370.90 1.756
371.00 1.755
371.10 1.753
371.20 1.752
371.30 1.75
371.40 1.749
371.50 1.748
371.60 1.746
371.70 1.745
371.80 1.743
371.90 1.742
372.00 1.741
372.10 1.739
372.20 1.738
372.30 1.737
372.40 1.735
372.50 1.734
372.60 1.733
372.70 1.731
372.80 1.73
372.90 1.729
373.00 1.727
373.10 1.726
373.20 1.725
373.30 1.723
373.40 1.722
373.50 1.721
373.60 1.719
373.70 1.718
373.80 1.717
373.90 1.715
374.00 1.714
374.10 1.713
374.20 1.712
374.30 1.71
374.40 1.709
374.50 1.708
374.60 1.706
374.70 1.705
374.80 1.704
374.90 1.703
375.00 1.701
375.10 1.7
375.20 1.699
375.30 1.698
375.40 1.696
375.50 1.695
375.60 1.694
375.70 1.693
375.80 1.691
375.90 1.69
376.00 1.689
376.10 1.688
376.20 1.686
376.30 1.685
376.40 1.684
376.50 1.683
376.60 1.682
376.70 1.681
376.80 1.679
376.90 1.678
377.00 1.677
377.10 1.676
377.20 1.675
377.30 1.674
377.40 1.672
377.50 1.671
377.60 1.67
377.70 1.669
377.80 1.668
377.90 1.666
378.00 1.665
378.10 1.664
378.20 1.662
378.30 1.661
378.40 1.66
378.50 1.658
378.60 1.657
378.70 1.655
378.80 1.654
378.90 1.653
379.00 1.651
379.10 1.65
379.20 1.649
379.30 1.648
379.40 1.647
379.50 1.645
379.60 1.644
379.70 1.643
379.80 1.642
379.90 1.641
380.00 1.64
380.10 1.639
380.20 1.638
380.30 1.638
380.40 1.637
380.50 1.637
380.60 1.636
380.70 1.636
380.80 1.635
380.90 1.634
381.00 1.634
381.10 1.633
381.20 1.632
381.30 1.631
381.40 1.631
381.50 1.63
381.60 1.629
381.70 1.628
381.80 1.627
381.90 1.626
382.00 1.625
382.10 1.623
382.20 1.622
382.30 1.62
382.40 1.618
382.50 1.617
382.60 1.615
382.70 1.613
382.80 1.612
382.90 1.61
383.00 1.608
383.10 1.606
383.20 1.605
383.30 1.603
383.40 1.602
383.50 1.601
383.60 1.6
383.70 1.601
383.80 1.601
383.90 1.601
384.00 1.601
384.10 1.602
384.20 1.603
384.30 1.603
384.40 1.604
384.50 1.604
384.60 1.605
384.70 1.605
384.80 1.605
384.90 1.605
385.00 1.605
385.10 1.605
385.20 1.605
385.30 1.604
385.40 1.604
385.50 1.603
385.60 1.602
385.70 1.602
385.80 1.601
385.90 1.6
386.00 1.599
386.10 1.598
386.20 1.596
386.30 1.595
386.40 1.594
386.50 1.592
386.60 1.591
386.70 1.589
386.80 1.587
386.90 1.586
387.00 1.584
387.10 1.582
387.20 1.58
387.30 1.578
387.40 1.576
387.50 1.573
387.60 1.57
387.70 1.568
387.80 1.565
387.90 1.562
388.00 1.56
388.10 1.556
388.20 1.553
388.30 1.549
388.40 1.545
388.50 1.542
388.60 1.539
388.70 1.537
388.80 1.535
388.90 1.534
389.00 1.534
389.10 1.535
389.20 1.536
389.30 1.539
389.40 1.542
389.50 1.545
389.60 1.548
389.70 1.551
389.80 1.553
389.90 1.555
390.00 1.557
390.10 1.559
390.20 1.561
390.30 1.563
390.40 1.565
390.50 1.566
390.60 1.568
390.70 1.569
390.80 1.57
390.90 1.571
391.00 1.571
391.10 1.572
391.20 1.573
391.30 1.573
391.40 1.574
391.50 1.574
391.60 1.574
391.70 1.574
391.80 1.574
391.90 1.574
392.00 1.574
392.10 1.573
392.20 1.572
392.30 1.571
392.40 1.57
392.50 1.569
392.60 1.568
392.70 1.567
392.80 1.565
392.90 1.563
393.00 1.561
393.10 1.559
393.20 1.557
393.30 1.554
393.40 1.552
393.50 1.549
393.60 1.546
393.70 1.543
393.80 1.54
393.90 1.536
394.00 1.533
394.10 1.529
394.20 1.525
394.30 1.52
394.40 1.516
394.50 1.511
394.60 1.507
394.70 1.502
394.80 1.497
394.90 1.492
395.00 1.487
395.10 1.481
395.20 1.476
395.30 1.47
395.40 1.464
395.50 1.458
395.60 1.451
395.70 1.445
395.80 1.438
395.90 1.431
396.00 1.424
396.10 1.418
396.20 1.41
396.30 1.403
396.40 1.394
396.50 1.384
396.60 1.374
396.70 1.363
396.80 1.356
396.90 1.349
397.00 1.343
397.10 1.348
397.20 1.354
397.30 1.36
397.40 1.37
397.50 1.38
397.60 1.389
397.70 1.397
397.80 1.405
397.90 1.412
398.00 1.418
398.10 1.424
398.20 1.43
398.30 1.437
398.40 1.443
398.50 1.449
398.60 1.455
398.70 1.461
398.80 1.466
398.90 1.471
399.00 1.476
399.10 1.481
399.20 1.486
399.30 1.491
399.40 1.495
399.50 1.5
399.60 1.504
399.70 1.508
399.80 1.512
399.90 1.516
400.00 1.52
400.10 1.523
400.20 1.527
400.30 1.53
400.40 1.533
400.50 1.536
400.60 1.538
400.70 1.541
400.80 1.543
400.90 1.546
401.00 1.548
401.10 1.549
401.20 1.551
401.30 1.553
401.40 1.554
401.50 1.555
401.60 1.556
401.70 1.557
401.80 1.558
401.90 1.559
402.00 1.559
402.10 1.56
402.20 1.56
402.30 1.56
402.40 1.56
402.50 1.559
402.60 1.559
402.70 1.558
402.80 1.558
402.90 1.557
403.00 1.556
403.10 1.554
403.20 1.553
403.30 1.552
403.40 1.55
403.50 1.548
403.60 1.546
403.70 1.544
403.80 1.541
403.90 1.539
404.00 1.536
404.10 1.533
404.20 1.53
404.30 1.527
404.40 1.524
404.50 1.52
404.60 1.517
404.70 1.513
404.80 1.509
404.90 1.504
405.00 1.5
405.10 1.496
405.20 1.491
405.30 1.486
405.40 1.481
405.50 1.476
405.60 1.47
405.70 1.465
405.80 1.459
405.90 1.453
406.00 1.447
406.10 1.44
406.20 1.434
406.30 1.427
406.40 1.42
406.50 1.413
406.60 1.406
406.70 1.398
406.80 1.391
406.90 1.383
407.00 1.375
407.10 1.366
407.20 1.358
407.30 1.349
407.40 1.34
407.50 1.331
407.60 1.321
407.70 1.312
407.80 1.302
407.90 1.292
408.00 1.282
408.10 1.271
408.20 1.261
408.30 1.25
408.40 1.239
408.50 1.228
408.60 1.217
408.70 1.205
408.80 1.193
408.90 1.181
409.00 1.169
409.10 1.157
409.20 1.145
409.30 1.134
409.40 1.122
409.50 1.11
409.60 1.098
409.70 1.084
409.80 1.071
409.90 1.058
410.00 1.048
410.10 1.042
410.20 1.041
410.30 1.044
410.40 1.051
410.50 1.062
410.60 1.074
410.70 1.086
410.80 1.098
410.90 1.109
411.00 1.12
411.10 1.131
411.20 1.141
411.30 1.152
411.40 1.163
411.50 1.174
411.60 1.185
411.70 1.195
411.80 1.206
411.90 1.216
412.00 1.226
412.10 1.235
412.20 1.245
412.30 1.254
412.40 1.264
412.50 1.273
412.60 1.282
412.70 1.29
412.80 1.299
412.90 1.307
413.00 1.315
413.10 1.323
413.20 1.331
413.30 1.339
413.40 1.346
413.50 1.353
413.60 1.361
413.70 1.367
413.80 1.374
413.90 1.381
414.00 1.387
414.10 1.394
414.20 1.4
414.30 1.406
414.40 1.412
414.50 1.417
414.60 1.423
414.70 1.428
414.80 1.434
414.90 1.439
415.00 1.444
415.10 1.449
415.20 1.454
415.30 1.458
415.40 1.463
415.50 1.467
415.60 1.472
415.70 1.476
415.80 1.48
415.90 1.484
416.00 1.488
416.10 1.492
416.20 1.496
416.30 1.499
416.40 1.503
416.50 1.506
416.60 1.509
416.70 1.512
416.80 1.516
416.90 1.518
417.00 1.521
417.10 1.524
417.20 1.527
417.30 1.529
417.40 1.532
417.50 1.534
417.60 1.537
417.70 1.539
417.80 1.541
417.90 1.543
418.00 1.545
418.10 1.547
418.20 1.549
418.30 1.55
418.40 1.552
418.50 1.553
418.60 1.555
418.70 1.556
418.80 1.557
418.90 1.559
419.00 1.56
419.10 1.561
419.20 1.562
419.30 1.563
419.40 1.563
419.50 1.564
419.60 1.565
419.70 1.565
419.80 1.566
419.90 1.566
420.00 1.567
420.10 1.567
420.20 1.567
420.30 1.567
420.40 1.567
420.50 1.567
420.60 1.567
420.70 1.567
420.80 1.566
420.90 1.566
421.00 1.565
421.10 1.565
421.20 1.564
421.30 1.563
421.40 1.563
421.50 1.562
421.60 1.561
421.70 1.56
421.80 1.559
421.90 1.558
422.00 1.557
422.10 1.555
422.20 1.554
422.30 1.552
422.40 1.551
422.50 1.549
422.60 1.548
422.70 1.546
422.80 1.544
422.90 1.542
423.00 1.54
423.10 1.538
423.20 1.536
423.30 1.534
423.40 1.531
423.50 1.529
423.60 1.527
423.70 1.524
423.80 1.522
423.90 1.519
424.00 1.516
424.10 1.513
424.20 1.51
424.30 1.507
424.40 1.504
424.50 1.501
424.60 1.498
424.70 1.495
424.80 1.491
424.90 1.488
425.00 1.484
425.10 1.481
425.20 1.477
425.30 1.473
425.40 1.47
425.50 1.466
425.60 1.462
425.70 1.458
425.80 1.453
425.90 1.449
426.00 1.445
426.10 1.441
426.20 1.435
426.30 1.43
426.40 1.425
426.50 1.421
426.60 1.416
426.70 1.411
426.80 1.406
426.90 1.401
427.00 1.396
427.10 1.391
427.20 1.385
427.30 1.38
427.40 1.374
427.50 1.369
427.60 1.363
427.70 1.357
427.80 1.352
427.90 1.346
428.00 1.34
428.10 1.334
428.20 1.327
428.30 1.321
428.40 1.315
428.50 1.308
428.60 1.302
428.70 1.295
428.80 1.288
428.90 1.282
429.00 1.275
429.10 1.268
429.20 1.26
429.30 1.253
429.40 1.246
429.50 1.238
429.60 1.231
429.70 1.223
429.80 1.215
429.90 1.208
430.00 1.2
430.10 1.191
430.20 1.183
430.30 1.175
430.40 1.166
430.50 1.158
430.60 1.149
430.70 1.14
430.80 1.131
430.90 1.122
431.00 1.112
431.10 1.103
431.20 1.093
431.30 1.083
431.40 1.073
431.50 1.063
431.60 1.053
431.70 1.042
431.80 1.032
431.90 1.021
432.00 1.01
432.10 0.9991
432.20 0.9878
432.30 0.9763
432.40 0.9646
432.50 0.9526
432.60 0.9403
432.70 0.9277
432.80 0.9149
432.90 0.9021
433.00 0.8893
433.10 0.8767
433.20 0.8641
433.30 0.8515
433.40 0.8385
433.50 0.825
433.60 0.8111
433.70 0.7931
433.80 0.77
433.90 0.7417
434.00 0.7132
434.10 0.7137
434.20 0.7432
434.30 0.7701
434.40 0.792
434.50 0.8088
434.60 0.8218
434.70 0.8343
434.80 0.8463
434.90 0.8579
435.00 0.8696
435.10 0.8811
435.20 0.8929
435.30 0.9046
435.40 0.9162
435.50 0.9276
435.60 0.9387
435.70 0.9495
435.80 0.96
435.90 0.9702
436.00 0.9802
436.10 0.9899
436.20 0.9995
436.30 1.009
436.40 1.018
436.50 1.027
436.60 1.036
436.70 1.045
436.80 1.053
436.90 1.062
437.00 1.07
437.10 1.078
437.20 1.086
437.30 1.093
437.40 1.101
437.50 1.108
437.60 1.115
437.70 1.122
437.80 1.129
437.90 1.136
438.00 1.143
438.10 1.149
438.20 1.156
438.30 1.162
438.40 1.168
438.50 1.174
438.60 1.18
438.70 1.186
438.80 1.192
438.90 1.197
439.00 1.203
439.10 1.208
439.20 1.213
439.30 1.219
439.40 1.224
439.50 1.229
439.60 1.234
439.70 1.239
439.80 1.243
439.90 1.248
440.00 1.253
440.10 1.257
440.20 1.261
440.30 1.266
440.40 1.27
440.50 1.274
440.60 1.278
440.70 1.282
440.80 1.286
440.90 1.29
441.00 1.294
441.10 1.298
441.20 1.301
441.30 1.305
441.40 1.308
441.50 1.312
441.60 1.315
441.70 1.318
441.80 1.322
441.90 1.325
442.00 1.328
442.10 1.331
442.20 1.334
442.30 1.337
442.40 1.34
442.50 1.342
442.60 1.345
442.70 1.348
442.80 1.351
442.90 1.353
443.00 1.356
443.10 1.358
443.20 1.36
443.30 1.363
443.40 1.365
443.50 1.367
443.60 1.37
443.70 1.372
443.80 1.374
443.90 1.376
444.00 1.378
444.10 1.38
444.20 1.382
444.30 1.384
444.40 1.385
444.50 1.387
444.60 1.389
444.70 1.391
444.80 1.392
444.90 1.394
445.00 1.395
445.10 1.397
445.20 1.398
445.30 1.4
445.40 1.401
445.50 1.402
445.60 1.404
445.70 1.405
445.80 1.406
445.90 1.407
446.00 1.409
446.10 1.41
446.20 1.411
446.30 1.412
446.40 1.413
446.50 1.414
446.60 1.415
446.70 1.416
446.80 1.417
446.90 1.417
447.00 1.418
447.10 1.419
447.20 1.42
447.30 1.421
447.40 1.421
447.50 1.422
447.60 1.423
447.70 1.423
447.80 1.424
447.90 1.424
448.00 1.425
448.10 1.425
448.20 1.426
448.30 1.426
448.40 1.427
448.50 1.427
448.60 1.428
448.70 1.428
448.80 1.428
448.90 1.429
449.00 1.429
449.10 1.429
449.20 1.43
449.30 1.43
449.40 1.43
449.50 1.43
449.60 1.43
449.70 1.431
449.80 1.431
449.90 1.431
450.00 1.431
450.10 1.431
450.20 1.431
450.30 1.431
450.40 1.431
450.50 1.431
450.60 1.431
450.70 1.431
450.80 1.431
450.90 1.431
451.00 1.431
451.10 1.43
451.20 1.43
451.30 1.43
451.40 1.43
451.50 1.43
451.60 1.43
451.70 1.429
451.80 1.429
451.90 1.429
452.00 1.429
452.10 1.428
452.20 1.428
452.30 1.428
452.40 1.427
452.50 1.427
452.60 1.426
452.70 1.426
452.80 1.426
452.90 1.425
453.00 1.425
453.10 1.424
453.20 1.424
453.30 1.424
453.40 1.423
453.50 1.423
453.60 1.422
453.70 1.422
453.80 1.421
