# Version 2.1 - nm, norm@500 to 1, cut digits, bergeron_10000_90.dat_10000
# Wavelength(nm)  Flambda(ergs/cm^s/s/nm)
300.00 1.876
300.10 1.875
300.20 1.875
300.30 1.874
300.40 1.873
300.50 1.873
300.60 1.872
300.70 1.871
300.80 1.871
300.90 1.87
301.00 1.869
301.10 1.869
301.20 1.868
301.30 1.867
301.40 1.867
301.50 1.866
301.60 1.865
301.70 1.865
301.80 1.864
301.90 1.864
302.00 1.863
302.10 1.862
302.20 1.862
302.30 1.861
302.40 1.86
302.50 1.86
302.60 1.859
302.70 1.858
302.80 1.858
302.90 1.857
303.00 1.856
303.10 1.856
303.20 1.855
303.30 1.854
303.40 1.854
303.50 1.853
303.60 1.852
303.70 1.852
303.80 1.851
303.90 1.85
304.00 1.85
304.10 1.849
304.20 1.848
304.30 1.848
304.40 1.847
304.50 1.846
304.60 1.846
304.70 1.845
304.80 1.845
304.90 1.844
305.00 1.843
305.10 1.843
305.20 1.842
305.30 1.841
305.40 1.841
305.50 1.84
305.60 1.839
305.70 1.839
305.80 1.838
305.90 1.837
306.00 1.837
306.10 1.836
306.20 1.835
306.30 1.835
306.40 1.834
306.50 1.833
306.60 1.833
306.70 1.832
306.80 1.831
306.90 1.831
307.00 1.83
307.10 1.829
307.20 1.829
307.30 1.828
307.40 1.827
307.50 1.827
307.60 1.826
307.70 1.825
307.80 1.825
307.90 1.824
308.00 1.824
308.10 1.823
308.20 1.822
308.30 1.822
308.40 1.821
308.50 1.82
308.60 1.82
308.70 1.819
308.80 1.818
308.90 1.818
309.00 1.817
309.10 1.816
309.20 1.816
309.30 1.815
309.40 1.814
309.50 1.814
309.60 1.813
309.70 1.812
309.80 1.812
309.90 1.811
310.00 1.81
310.10 1.81
310.20 1.809
310.30 1.808
310.40 1.808
310.50 1.807
310.60 1.806
310.70 1.806
310.80 1.805
310.90 1.804
311.00 1.804
311.10 1.803
311.20 1.802
311.30 1.802
311.40 1.801
311.50 1.8
311.60 1.8
311.70 1.799
311.80 1.798
311.90 1.798
312.00 1.797
312.10 1.796
312.20 1.796
312.30 1.795
312.40 1.794
312.50 1.794
312.60 1.793
312.70 1.792
312.80 1.792
312.90 1.791
313.00 1.79
313.10 1.79
313.20 1.789
313.30 1.788
313.40 1.788
313.50 1.787
313.60 1.786
313.70 1.786
313.80 1.785
313.90 1.784
314.00 1.784
314.10 1.783
314.20 1.782
314.30 1.782
314.40 1.781
314.50 1.78
314.60 1.78
314.70 1.779
314.80 1.778
314.90 1.778
315.00 1.777
315.10 1.776
315.20 1.776
315.30 1.775
315.40 1.774
315.50 1.774
315.60 1.773
315.70 1.772
315.80 1.772
315.90 1.771
316.00 1.77
316.10 1.77
316.20 1.769
316.30 1.768
316.40 1.768
316.50 1.767
316.60 1.766
316.70 1.766
316.80 1.765
316.90 1.764
317.00 1.764
317.10 1.763
317.20 1.762
317.30 1.762
317.40 1.761
317.50 1.76
317.60 1.76
317.70 1.759
317.80 1.758
317.90 1.758
318.00 1.757
318.10 1.756
318.20 1.756
318.30 1.755
318.40 1.754
318.50 1.754
318.60 1.753
318.70 1.752
318.80 1.752
318.90 1.751
319.00 1.75
319.10 1.75
319.20 1.749
319.30 1.748
319.40 1.748
319.50 1.747
319.60 1.746
319.70 1.746
319.80 1.745
319.90 1.744
320.00 1.744
320.10 1.743
320.20 1.742
320.30 1.742
320.40 1.741
320.50 1.74
320.60 1.74
320.70 1.739
320.80 1.738
320.90 1.738
321.00 1.737
321.10 1.736
321.20 1.736
321.30 1.735
321.40 1.734
321.50 1.734
321.60 1.733
321.70 1.732
321.80 1.732
321.90 1.731
322.00 1.73
322.10 1.73
322.20 1.729
322.30 1.728
322.40 1.728
322.50 1.727
322.60 1.726
322.70 1.726
322.80 1.725
322.90 1.724
323.00 1.724
323.10 1.723
323.20 1.722
323.30 1.722
323.40 1.721
323.50 1.72
323.60 1.72
323.70 1.719
323.80 1.718
323.90 1.718
324.00 1.717
324.10 1.716
324.20 1.716
324.30 1.715
324.40 1.714
324.50 1.714
324.60 1.713
324.70 1.712
324.80 1.712
324.90 1.711
325.00 1.71
325.10 1.71
325.20 1.709
325.30 1.708
325.40 1.708
325.50 1.707
325.60 1.706
325.70 1.706
325.80 1.705
325.90 1.704
326.00 1.704
326.10 1.703
326.20 1.702
326.30 1.702
326.40 1.701
326.50 1.7
326.60 1.699
326.70 1.699
326.80 1.698
326.90 1.697
327.00 1.697
327.10 1.696
327.20 1.695
327.30 1.695
327.40 1.694
327.50 1.693
327.60 1.693
327.70 1.692
327.80 1.691
327.90 1.691
328.00 1.69
328.10 1.689
328.20 1.689
328.30 1.688
328.40 1.687
328.50 1.687
328.60 1.686
328.70 1.685
328.80 1.685
328.90 1.684
329.00 1.683
329.10 1.683
329.20 1.682
329.30 1.681
329.40 1.681
329.50 1.68
329.60 1.679
329.70 1.679
329.80 1.678
329.90 1.677
330.00 1.677
330.10 1.676
330.20 1.675
330.30 1.675
330.40 1.674
330.50 1.673
330.60 1.673
330.70 1.672
330.80 1.671
330.90 1.671
331.00 1.67
331.10 1.669
331.20 1.669
331.30 1.668
331.40 1.667
331.50 1.667
331.60 1.666
331.70 1.665
331.80 1.665
331.90 1.664
332.00 1.663
332.10 1.663
332.20 1.662
332.30 1.661
332.40 1.661
332.50 1.66
332.60 1.659
332.70 1.659
332.80 1.658
332.90 1.657
333.00 1.657
333.10 1.656
333.20 1.655
333.30 1.655
333.40 1.654
333.50 1.653
333.60 1.653
333.70 1.652
333.80 1.651
333.90 1.651
334.00 1.65
334.10 1.649
334.20 1.649
334.30 1.648
334.40 1.647
334.50 1.647
334.60 1.646
334.70 1.645
334.80 1.645
334.90 1.644
335.00 1.643
335.10 1.643
335.20 1.642
335.30 1.641
335.40 1.641
335.50 1.64
335.60 1.639
335.70 1.639
335.80 1.638
335.90 1.637
336.00 1.637
336.10 1.636
336.20 1.635
336.30 1.635
336.40 1.634
336.50 1.633
336.60 1.633
336.70 1.632
336.80 1.631
336.90 1.631
337.00 1.63
337.10 1.629
337.20 1.629
337.30 1.628
337.40 1.627
337.50 1.627
337.60 1.626
337.70 1.626
337.80 1.625
337.90 1.624
338.00 1.624
338.10 1.623
338.20 1.622
338.30 1.622
338.40 1.621
338.50 1.62
338.60 1.62
338.70 1.619
338.80 1.618
338.90 1.618
339.00 1.617
339.10 1.616
339.20 1.616
339.30 1.615
339.40 1.614
339.50 1.614
339.60 1.613
339.70 1.612
339.80 1.612
339.90 1.611
340.00 1.61
340.10 1.61
340.20 1.609
340.30 1.608
340.40 1.608
340.50 1.607
340.60 1.606
340.70 1.606
340.80 1.605
340.90 1.604
341.00 1.604
341.10 1.603
341.20 1.602
341.30 1.602
341.40 1.601
341.50 1.6
341.60 1.6
341.70 1.599
341.80 1.598
341.90 1.598
342.00 1.597
342.10 1.596
342.20 1.596
342.30 1.595
342.40 1.594
342.50 1.594
342.60 1.593
342.70 1.592
342.80 1.592
342.90 1.591
343.00 1.59
343.10 1.59
343.20 1.589
343.30 1.589
343.40 1.588
343.50 1.587
343.60 1.587
343.70 1.586
343.80 1.585
343.90 1.585
344.00 1.584
344.10 1.583
344.20 1.583
344.30 1.582
344.40 1.581
344.50 1.581
344.60 1.58
344.70 1.579
344.80 1.579
344.90 1.578
345.00 1.577
345.10 1.577
345.20 1.576
345.30 1.575
345.40 1.575
345.50 1.574
345.60 1.573
345.70 1.573
345.80 1.572
345.90 1.571
346.00 1.571
346.10 1.57
346.20 1.569
346.30 1.569
346.40 1.568
346.50 1.567
346.60 1.567
346.70 1.566
346.80 1.566
346.90 1.565
347.00 1.564
347.10 1.564
347.20 1.563
347.30 1.562
347.40 1.562
347.50 1.561
347.60 1.56
347.70 1.56
347.80 1.559
347.90 1.558
348.00 1.558
348.10 1.557
348.20 1.556
348.30 1.556
348.40 1.555
348.50 1.554
348.60 1.554
348.70 1.553
348.80 1.552
348.90 1.552
349.00 1.551
349.10 1.55
349.20 1.55
349.30 1.549
349.40 1.549
349.50 1.548
349.60 1.547
349.70 1.547
349.80 1.546
349.90 1.545
350.00 1.545
350.10 1.544
350.20 1.543
350.30 1.543
350.40 1.542
350.50 1.541
350.60 1.541
350.70 1.54
350.80 1.539
350.90 1.539
351.00 1.538
351.10 1.538
351.20 1.537
351.30 1.536
351.40 1.536
351.50 1.535
351.60 1.534
351.70 1.534
351.80 1.533
351.90 1.532
352.00 1.532
352.10 1.531
352.20 1.53
352.30 1.53
352.40 1.529
352.50 1.528
352.60 1.528
352.70 1.527
352.80 1.527
352.90 1.526
353.00 1.525
353.10 1.525
353.20 1.524
353.30 1.523
353.40 1.523
353.50 1.522
353.60 1.521
353.70 1.521
353.80 1.52
353.90 1.519
354.00 1.519
354.10 1.518
354.20 1.518
354.30 1.517
354.40 1.516
354.50 1.516
354.60 1.515
354.70 1.514
354.80 1.514
354.90 1.513
355.00 1.512
355.10 1.512
355.20 1.511
355.30 1.51
355.40 1.51
355.50 1.509
355.60 1.508
355.70 1.508
355.80 1.507
355.90 1.507
356.00 1.506
356.10 1.505
356.20 1.505
356.30 1.504
356.40 1.503
356.50 1.503
356.60 1.502
356.70 1.501
356.80 1.501
356.90 1.5
357.00 1.499
357.10 1.499
357.20 1.498
357.30 1.498
357.40 1.497
357.50 1.496
357.60 1.496
357.70 1.495
357.80 1.494
357.90 1.494
358.00 1.493
358.10 1.492
358.20 1.492
358.30 1.491
358.40 1.491
358.50 1.49
358.60 1.489
358.70 1.489
358.80 1.488
358.90 1.487
359.00 1.487
359.10 1.486
359.20 1.485
359.30 1.485
359.40 1.484
359.50 1.484
359.60 1.483
359.70 1.482
359.80 1.482
359.90 1.481
360.00 1.48
360.10 1.48
360.20 1.479
360.30 1.478
360.40 1.478
360.50 1.477
360.60 1.477
360.70 1.476
360.80 1.475
360.90 1.475
361.00 1.474
361.10 1.473
361.20 1.473
361.30 1.472
361.40 1.471
361.50 1.471
361.60 1.47
361.70 1.47
361.80 1.469
361.90 1.468
362.00 1.468
362.10 1.467
362.20 1.466
362.30 1.466
362.40 1.465
362.50 1.465
362.60 1.464
362.70 1.463
362.80 1.463
362.90 1.462
363.00 1.461
363.10 1.461
363.20 1.46
363.30 1.459
363.40 1.458
363.50 1.458
363.60 1.457
363.70 1.456
363.80 1.456
363.90 1.455
364.00 1.454
364.10 1.453
364.20 1.453
364.30 1.452
364.40 1.451
364.50 1.451
364.60 1.45
364.70 1.449
364.80 1.448
364.90 1.448
365.00 1.447
365.10 1.446
365.20 1.445
365.30 1.445
365.40 1.444
365.50 1.443
365.60 1.442
365.70 1.442
365.80 1.441
365.90 1.44
366.00 1.439
366.10 1.439
366.20 1.438
366.30 1.438
366.40 1.437
366.50 1.436
366.60 1.436
366.70 1.435
366.80 1.434
366.90 1.434
367.00 1.433
367.10 1.432
367.20 1.432
367.30 1.431
367.40 1.43
367.50 1.43
367.60 1.429
367.70 1.428
367.80 1.428
367.90 1.427
368.00 1.426
368.10 1.426
368.20 1.425
368.30 1.425
368.40 1.424
368.50 1.423
368.60 1.423
368.70 1.422
368.80 1.421
368.90 1.421
369.00 1.42
369.10 1.419
369.20 1.419
369.30 1.418
369.40 1.418
369.50 1.417
369.60 1.416
369.70 1.416
369.80 1.415
369.90 1.414
370.00 1.414
370.10 1.413
370.20 1.413
370.30 1.412
370.40 1.412
370.50 1.411
370.60 1.411
370.70 1.41
370.80 1.41
370.90 1.409
371.00 1.409
371.10 1.408
371.20 1.408
371.30 1.407
371.40 1.407
371.50 1.406
371.60 1.406
371.70 1.405
371.80 1.405
371.90 1.404
372.00 1.404
372.10 1.404
372.20 1.404
372.30 1.403
372.40 1.403
372.50 1.403
372.60 1.403
372.70 1.402
372.80 1.402
372.90 1.402
373.00 1.402
373.10 1.401
373.20 1.401
373.30 1.401
373.40 1.401
373.50 1.4
373.60 1.4
373.70 1.4
373.80 1.4
373.90 1.399
374.00 1.399
374.10 1.399
374.20 1.399
374.30 1.399
374.40 1.399
374.50 1.399
374.60 1.399
374.70 1.399
374.80 1.399
374.90 1.399
375.00 1.398
375.10 1.398
375.20 1.398
375.30 1.398
375.40 1.398
375.50 1.398
375.60 1.398
375.70 1.398
375.80 1.398
375.90 1.398
376.00 1.398
376.10 1.398
376.20 1.397
376.30 1.397
376.40 1.397
376.50 1.397
376.60 1.397
376.70 1.397
376.80 1.397
376.90 1.396
377.00 1.396
377.10 1.396
377.20 1.395
377.30 1.394
377.40 1.394
377.50 1.393
377.60 1.393
377.70 1.392
377.80 1.391
377.90 1.391
378.00 1.39
378.10 1.388
378.20 1.386
378.30 1.383
378.40 1.381
378.50 1.379
378.60 1.376
378.70 1.374
378.80 1.372
378.90 1.369
379.00 1.367
379.10 1.365
379.20 1.363
379.30 1.361
379.40 1.359
379.50 1.357
379.60 1.355
379.70 1.353
379.80 1.351
379.90 1.349
380.00 1.348
380.10 1.35
380.20 1.353
380.30 1.355
380.40 1.358
380.50 1.361
380.60 1.363
380.70 1.366
380.80 1.369
380.90 1.371
381.00 1.374
381.10 1.375
381.20 1.375
381.30 1.376
381.40 1.377
381.50 1.377
381.60 1.377
381.70 1.376
381.80 1.375
381.90 1.374
382.00 1.372
382.10 1.37
382.20 1.367
382.30 1.36
382.40 1.354
382.50 1.348
382.60 1.342
382.70 1.335
382.80 1.329
382.90 1.323
383.00 1.317
383.10 1.31
383.20 1.304
383.30 1.298
383.40 1.291
383.50 1.285
383.60 1.286
383.70 1.293
383.80 1.3
383.90 1.306
384.00 1.313
384.10 1.321
384.20 1.33
384.30 1.338
384.40 1.345
384.50 1.352
384.60 1.358
384.70 1.362
384.80 1.366
384.90 1.37
385.00 1.373
385.10 1.375
385.20 1.377
385.30 1.378
385.40 1.38
385.50 1.381
385.60 1.381
385.70 1.381
385.80 1.381
385.90 1.381
386.00 1.381
386.10 1.38
386.20 1.379
386.30 1.378
386.40 1.377
386.50 1.375
386.60 1.373
386.70 1.371
386.80 1.368
386.90 1.365
387.00 1.362
387.10 1.358
387.20 1.354
387.30 1.35
387.40 1.345
387.50 1.339
387.60 1.333
387.70 1.326
387.80 1.317
387.90 1.308
388.00 1.297
388.10 1.284
388.20 1.269
388.30 1.252
388.40 1.233
388.50 1.215
388.60 1.198
388.70 1.183
388.80 1.171
388.90 1.161
389.00 1.17
389.10 1.182
389.20 1.196
389.30 1.214
389.40 1.232
389.50 1.251
389.60 1.268
389.70 1.284
389.80 1.297
389.90 1.308
390.00 1.318
390.10 1.327
390.20 1.335
390.30 1.341
390.40 1.347
390.50 1.353
390.60 1.357
390.70 1.362
390.80 1.366
390.90 1.369
391.00 1.373
391.10 1.376
391.20 1.378
391.30 1.381
391.40 1.383
391.50 1.385
391.60 1.386
391.70 1.388
391.80 1.389
391.90 1.39
392.00 1.39
392.10 1.391
392.20 1.391
392.30 1.391
392.40 1.391
392.50 1.391
392.60 1.391
392.70 1.39
392.80 1.389
392.90 1.388
393.00 1.386
393.10 1.385
393.20 1.383
393.30 1.381
393.40 1.379
393.50 1.377
393.60 1.374
393.70 1.371
393.80 1.368
393.90 1.364
394.00 1.361
394.10 1.357
394.20 1.352
394.30 1.348
394.40 1.343
394.50 1.338
394.60 1.332
394.70 1.326
394.80 1.32
394.90 1.313
395.00 1.306
395.10 1.299
395.20 1.291
395.30 1.282
395.40 1.272
395.50 1.263
395.60 1.252
395.70 1.24
395.80 1.227
395.90 1.213
396.00 1.197
396.10 1.18
396.20 1.16
396.30 1.136
396.40 1.11
396.50 1.076
396.60 1.04
396.70 1.002
396.80 0.9695
396.90 0.9385
397.00 0.9091
397.10 0.9359
397.20 0.9649
397.30 0.9961
397.40 1.034
397.50 1.07
397.60 1.104
397.70 1.131
397.80 1.155
397.90 1.176
398.00 1.193
398.10 1.209
398.20 1.223
398.30 1.235
398.40 1.247
398.50 1.258
398.60 1.268
398.70 1.277
398.80 1.286
398.90 1.294
399.00 1.302
399.10 1.309
399.20 1.316
399.30 1.323
399.40 1.329
399.50 1.335
399.60 1.34
399.70 1.345
399.80 1.35
399.90 1.355
400.00 1.359
400.10 1.363
400.20 1.367
400.30 1.371
400.40 1.374
400.50 1.377
400.60 1.381
400.70 1.383
400.80 1.386
400.90 1.389
401.00 1.391
401.10 1.393
401.20 1.395
401.30 1.397
401.40 1.399
401.50 1.401
401.60 1.402
401.70 1.403
401.80 1.405
401.90 1.406
402.00 1.407
402.10 1.408
402.20 1.408
402.30 1.409
402.40 1.409
402.50 1.41
402.60 1.41
402.70 1.41
402.80 1.41
402.90 1.41
403.00 1.41
403.10 1.409
403.20 1.409
403.30 1.408
403.40 1.408
403.50 1.407
403.60 1.406
403.70 1.405
403.80 1.404
403.90 1.403
404.00 1.401
404.10 1.4
404.20 1.398
404.30 1.396
404.40 1.395
404.50 1.393
404.60 1.39
404.70 1.388
404.80 1.386
404.90 1.383
405.00 1.381
405.10 1.378
405.20 1.375
405.30 1.372
405.40 1.368
405.50 1.365
405.60 1.361
405.70 1.358
405.80 1.354
405.90 1.35
406.00 1.345
406.10 1.341
406.20 1.336
406.30 1.331
406.40 1.326
406.50 1.32
406.60 1.315
406.70 1.309
406.80 1.303
406.90 1.296
407.00 1.289
407.10 1.282
407.20 1.275
407.30 1.267
407.40 1.259
407.50 1.251
407.60 1.242
407.70 1.232
407.80 1.223
407.90 1.212
408.00 1.201
408.10 1.19
408.20 1.178
408.30 1.166
408.40 1.152
408.50 1.138
408.60 1.123
408.70 1.108
408.80 1.091
408.90 1.073
409.00 1.055
409.10 1.034
409.20 1.012
409.30 0.9885
409.40 0.961
409.50 0.9303
409.60 0.8965
409.70 0.8538
409.80 0.8068
409.90 0.7556
410.00 0.7107
410.10 0.6784
410.20 0.6585
410.30 0.6929
410.40 0.7343
410.50 0.7826
410.60 0.8312
410.70 0.8748
410.80 0.9134
410.90 0.944
411.00 0.9718
411.10 0.997
411.20 1.019
411.30 1.039
411.40 1.058
411.50 1.075
411.60 1.092
411.70 1.107
411.80 1.121
411.90 1.135
412.00 1.148
412.10 1.16
412.20 1.171
412.30 1.182
412.40 1.193
412.50 1.202
412.60 1.212
412.70 1.22
412.80 1.229
412.90 1.237
413.00 1.244
413.10 1.251
413.20 1.258
413.30 1.265
413.40 1.271
413.50 1.277
413.60 1.283
413.70 1.288
413.80 1.293
413.90 1.298
414.00 1.303
414.10 1.307
414.20 1.312
414.30 1.316
414.40 1.32
414.50 1.324
414.60 1.327
414.70 1.331
414.80 1.334
414.90 1.337
415.00 1.34
415.10 1.343
415.20 1.346
415.30 1.349
415.40 1.351
415.50 1.354
415.60 1.356
415.70 1.358
415.80 1.36
415.90 1.362
416.00 1.364
416.10 1.366
416.20 1.368
416.30 1.37
416.40 1.371
416.50 1.373
416.60 1.374
416.70 1.376
416.80 1.377
416.90 1.378
417.00 1.379
417.10 1.381
417.20 1.382
417.30 1.383
417.40 1.384
417.50 1.385
417.60 1.385
417.70 1.386
417.80 1.387
417.90 1.388
418.00 1.388
418.10 1.389
418.20 1.389
418.30 1.39
418.40 1.39
418.50 1.391
418.60 1.391
418.70 1.391
418.80 1.392
418.90 1.392
419.00 1.392
419.10 1.392
419.20 1.393
419.30 1.393
419.40 1.393
419.50 1.393
419.60 1.393
419.70 1.393
419.80 1.393
419.90 1.393
420.00 1.393
420.10 1.393
420.20 1.393
420.30 1.392
420.40 1.392
420.50 1.392
420.60 1.392
420.70 1.392
420.80 1.391
420.90 1.391
421.00 1.391
421.10 1.39
421.20 1.39
421.30 1.389
421.40 1.389
421.50 1.388
421.60 1.388
421.70 1.387
421.80 1.387
421.90 1.386
422.00 1.386
422.10 1.385
422.20 1.384
422.30 1.384
422.40 1.383
422.50 1.382
422.60 1.382
422.70 1.381
422.80 1.38
422.90 1.379
423.00 1.378
423.10 1.377
423.20 1.377
423.30 1.376
423.40 1.375
423.50 1.374
423.60 1.373
423.70 1.372
423.80 1.371
423.90 1.369
424.00 1.368
424.10 1.367
424.20 1.366
424.30 1.365
424.40 1.364
424.50 1.362
424.60 1.361
424.70 1.36
424.80 1.358
424.90 1.357
425.00 1.356
425.10 1.354
425.20 1.353
425.30 1.351
425.40 1.35
425.50 1.348
425.60 1.346
425.70 1.345
425.80 1.343
425.90 1.341
426.00 1.339
426.10 1.337
426.20 1.335
426.30 1.333
426.40 1.331
426.50 1.329
426.60 1.327
426.70 1.325
426.80 1.322
426.90 1.32
427.00 1.318
427.10 1.315
427.20 1.313
427.30 1.31
427.40 1.308
427.50 1.305
427.60 1.302
427.70 1.299
427.80 1.296
427.90 1.293
428.00 1.29
428.10 1.287
428.20 1.284
428.30 1.281
428.40 1.277
428.50 1.274
428.60 1.27
428.70 1.266
428.80 1.262
428.90 1.258
429.00 1.254
429.10 1.25
429.20 1.246
429.30 1.241
429.40 1.237
429.50 1.232
429.60 1.227
429.70 1.222
429.80 1.216
429.90 1.211
430.00 1.205
430.10 1.199
430.20 1.193
430.30 1.187
430.40 1.181
430.50 1.174
430.60 1.167
430.70 1.16
430.80 1.152
430.90 1.145
431.00 1.137
431.10 1.128
431.20 1.12
431.30 1.11
431.40 1.101
431.50 1.091
431.60 1.081
431.70 1.07
431.80 1.059
431.90 1.047
432.00 1.035
432.10 1.022
432.20 1.007
432.30 0.9924
432.40 0.9768
432.50 0.9594
432.60 0.9409
432.70 0.9214
432.80 0.8998
432.90 0.8772
433.00 0.8537
433.10 0.8287
433.20 0.8028
433.30 0.776
433.40 0.7461
433.50 0.7134
433.60 0.6778
433.70 0.6331
433.80 0.5874
433.90 0.5406
434.00 0.4973
434.10 0.4984
434.20 0.5437
434.30 0.5905
434.40 0.6358
434.50 0.6796
434.60 0.7142
434.70 0.7461
434.80 0.7752
434.90 0.8013
435.00 0.8264
435.10 0.8506
435.20 0.8732
435.30 0.8949
435.40 0.9156
435.50 0.9341
435.60 0.9516
435.70 0.968
435.80 0.9826
435.90 0.9966
436.00 1.01
436.10 1.022
436.20 1.033
436.30 1.044
436.40 1.054
436.50 1.064
436.60 1.073
436.70 1.082
436.80 1.09
436.90 1.098
437.00 1.106
437.10 1.113
437.20 1.12
437.30 1.127
437.40 1.133
437.50 1.139
437.60 1.145
437.70 1.15
437.80 1.156
437.90 1.161
438.00 1.166
438.10 1.17
438.20 1.175
438.30 1.179
438.40 1.183
438.50 1.187
438.60 1.191
438.70 1.195
438.80 1.198
438.90 1.202
439.00 1.205
439.10 1.208
439.20 1.211
439.30 1.214
439.40 1.216
439.50 1.219
439.60 1.222
439.70 1.224
439.80 1.226
439.90 1.228
440.00 1.231
440.10 1.233
440.20 1.235
440.30 1.236
440.40 1.238
440.50 1.24
440.60 1.242
440.70 1.243
440.80 1.245
440.90 1.246
441.00 1.248
441.10 1.249
441.20 1.25
441.30 1.251
441.40 1.253
441.50 1.254
441.60 1.255
441.70 1.256
441.80 1.257
441.90 1.258
442.00 1.258
442.10 1.259
442.20 1.26
442.30 1.261
442.40 1.262
442.50 1.262
442.60 1.263
442.70 1.263
442.80 1.264
442.90 1.265
443.00 1.265
443.10 1.265
443.20 1.266
443.30 1.266
443.40 1.267
443.50 1.267
443.60 1.267
443.70 1.268
443.80 1.268
443.90 1.268
444.00 1.269
444.10 1.269
444.20 1.269
444.30 1.269
444.40 1.269
444.50 1.27
444.60 1.27
444.70 1.27
444.80 1.27
444.90 1.27
445.00 1.27
445.10 1.27
445.20 1.27
445.30 1.27
445.40 1.27
445.50 1.27
445.60 1.27
445.70 1.27
445.80 1.27
445.90 1.27
446.00 1.27
446.10 1.27
446.20 1.27
446.30 1.27
446.40 1.269
446.50 1.269
446.60 1.269
446.70 1.269
446.80 1.269
446.90 1.269
447.00 1.269
447.10 1.268
447.20 1.268
447.30 1.268
447.40 1.268
447.50 1.267
447.60 1.267
447.70 1.267
447.80 1.267
447.90 1.266
448.00 1.266
448.10 1.266
448.20 1.266
448.30 1.265
448.40 1.265
448.50 1.265
448.60 1.264
448.70 1.264
448.80 1.264
448.90 1.264
449.00 1.263
449.10 1.263
449.20 1.263
449.30 1.262
449.40 1.262
449.50 1.262
449.60 1.261
449.70 1.261
449.80 1.261
449.90 1.26
450.00 1.26
450.10 1.259
450.20 1.259
450.30 1.259
450.40 1.258
450.50 1.258
450.60 1.257
450.70 1.257
450.80 1.257
450.90 1.256
451.00 1.256
451.10 1.255
451.20 1.255
451.30 1.255
451.40 1.254
451.50 1.254
451.60 1.253
451.70 1.253
451.80 1.252
451.90 1.252
452.00 1.252
452.10 1.251
452.20 1.251
452.30 1.25
452.40 1.25
452.50 1.249
452.60 1.249
452.70 1.248
452.80 1.248
452.90 1.247
453.00 1.247
453.10 1.247
453.20 1.246
453.30 1.246
453.40 1.245
453.50 1.245
453.60 1.244
453.70 1.244
