# Version 2.1 - nm, norm@500 to 1, cut digits, bergeron_7000_70.dat_7000
# Wavelength(nm)  Flambda(ergs/cm^s/s/nm)
300.00 1.072
300.10 1.072
300.20 1.072
300.30 1.073
300.40 1.073
300.50 1.073
300.60 1.073
300.70 1.074
300.80 1.074
300.90 1.074
301.00 1.074
301.10 1.075
301.20 1.075
301.30 1.075
301.40 1.075
301.50 1.076
301.60 1.076
301.70 1.076
301.80 1.076
301.90 1.077
302.00 1.077
302.10 1.077
302.20 1.077
302.30 1.078
302.40 1.078
302.50 1.078
302.60 1.078
302.70 1.079
302.80 1.079
302.90 1.079
303.00 1.079
303.10 1.08
303.20 1.08
303.30 1.08
303.40 1.08
303.50 1.081
303.60 1.081
303.70 1.081
303.80 1.081
303.90 1.082
304.00 1.082
304.10 1.082
304.20 1.082
304.30 1.083
304.40 1.083
304.50 1.083
304.60 1.083
304.70 1.083
304.80 1.084
304.90 1.084
305.00 1.084
305.10 1.084
305.20 1.085
305.30 1.085
305.40 1.085
305.50 1.085
305.60 1.086
305.70 1.086
305.80 1.086
305.90 1.086
306.00 1.087
306.10 1.087
306.20 1.087
306.30 1.087
306.40 1.087
306.50 1.088
306.60 1.088
306.70 1.088
306.80 1.088
306.90 1.089
307.00 1.089
307.10 1.089
307.20 1.089
307.30 1.089
307.40 1.09
307.50 1.09
307.60 1.09
307.70 1.09
307.80 1.091
307.90 1.091
308.00 1.091
308.10 1.091
308.20 1.091
308.30 1.092
308.40 1.092
308.50 1.092
308.60 1.092
308.70 1.092
308.80 1.093
308.90 1.093
309.00 1.093
309.10 1.093
309.20 1.094
309.30 1.094
309.40 1.094
309.50 1.094
309.60 1.094
309.70 1.095
309.80 1.095
309.90 1.095
310.00 1.095
310.10 1.095
310.20 1.096
310.30 1.096
310.40 1.096
310.50 1.096
310.60 1.096
310.70 1.097
310.80 1.097
310.90 1.097
311.00 1.097
311.10 1.097
311.20 1.098
311.30 1.098
311.40 1.098
311.50 1.098
311.60 1.098
311.70 1.099
311.80 1.099
311.90 1.099
312.00 1.099
312.10 1.099
312.20 1.1
312.30 1.1
312.40 1.1
312.50 1.1
312.60 1.1
312.70 1.101
312.80 1.101
312.90 1.101
313.00 1.101
313.10 1.101
313.20 1.102
313.30 1.102
313.40 1.102
313.50 1.102
313.60 1.102
313.70 1.102
313.80 1.103
313.90 1.103
314.00 1.103
314.10 1.103
314.20 1.103
314.30 1.104
314.40 1.104
314.50 1.104
314.60 1.104
314.70 1.104
314.80 1.104
314.90 1.105
315.00 1.105
315.10 1.105
315.20 1.105
315.30 1.105
315.40 1.106
315.50 1.106
315.60 1.106
315.70 1.106
315.80 1.106
315.90 1.106
316.00 1.107
316.10 1.107
316.20 1.107
316.30 1.107
316.40 1.107
316.50 1.107
316.60 1.108
316.70 1.108
316.80 1.108
316.90 1.108
317.00 1.108
317.10 1.108
317.20 1.109
317.30 1.109
317.40 1.109
317.50 1.109
317.60 1.109
317.70 1.109
317.80 1.11
317.90 1.11
318.00 1.11
318.10 1.11
318.20 1.11
318.30 1.11
318.40 1.111
318.50 1.111
318.60 1.111
318.70 1.111
318.80 1.111
318.90 1.111
319.00 1.112
319.10 1.112
319.20 1.112
319.30 1.112
319.40 1.112
319.50 1.112
319.60 1.112
319.70 1.113
319.80 1.113
319.90 1.113
320.00 1.113
320.10 1.113
320.20 1.113
320.30 1.114
320.40 1.114
320.50 1.114
320.60 1.114
320.70 1.114
320.80 1.114
320.90 1.114
321.00 1.115
321.10 1.115
321.20 1.115
321.30 1.115
321.40 1.115
321.50 1.115
321.60 1.115
321.70 1.116
321.80 1.116
321.90 1.116
322.00 1.116
322.10 1.116
322.20 1.116
322.30 1.116
322.40 1.117
322.50 1.117
322.60 1.117
322.70 1.117
322.80 1.117
322.90 1.117
323.00 1.117
323.10 1.118
323.20 1.118
323.30 1.118
323.40 1.118
323.50 1.118
323.60 1.118
323.70 1.118
323.80 1.118
323.90 1.119
324.00 1.119
324.10 1.119
324.20 1.119
324.30 1.119
324.40 1.119
324.50 1.119
324.60 1.12
324.70 1.12
324.80 1.12
324.90 1.12
325.00 1.12
325.10 1.12
325.20 1.12
325.30 1.12
325.40 1.121
325.50 1.121
325.60 1.121
325.70 1.121
325.80 1.121
325.90 1.121
326.00 1.121
326.10 1.121
326.20 1.122
326.30 1.122
326.40 1.122
326.50 1.122
326.60 1.122
326.70 1.122
326.80 1.122
326.90 1.122
327.00 1.122
327.10 1.123
327.20 1.123
327.30 1.123
327.40 1.123
327.50 1.123
327.60 1.123
327.70 1.123
327.80 1.123
327.90 1.124
328.00 1.124
328.10 1.124
328.20 1.124
328.30 1.124
328.40 1.124
328.50 1.124
328.60 1.124
328.70 1.124
328.80 1.125
328.90 1.125
329.00 1.125
329.10 1.125
329.20 1.125
329.30 1.125
329.40 1.125
329.50 1.125
329.60 1.125
329.70 1.125
329.80 1.126
329.90 1.126
330.00 1.126
330.10 1.126
330.20 1.126
330.30 1.126
330.40 1.126
330.50 1.126
330.60 1.126
330.70 1.126
330.80 1.127
330.90 1.127
331.00 1.127
331.10 1.127
331.20 1.127
331.30 1.127
331.40 1.127
331.50 1.127
331.60 1.127
331.70 1.127
331.80 1.128
331.90 1.128
332.00 1.128
332.10 1.128
332.20 1.128
332.30 1.128
332.40 1.128
332.50 1.128
332.60 1.128
332.70 1.128
332.80 1.128
332.90 1.129
333.00 1.129
333.10 1.129
333.20 1.129
333.30 1.129
333.40 1.129
333.50 1.129
333.60 1.129
333.70 1.129
333.80 1.129
333.90 1.129
334.00 1.129
334.10 1.13
334.20 1.13
334.30 1.13
334.40 1.13
334.50 1.13
334.60 1.13
334.70 1.13
334.80 1.13
334.90 1.13
335.00 1.13
335.10 1.13
335.20 1.13
335.30 1.131
335.40 1.131
335.50 1.131
335.60 1.131
335.70 1.131
335.80 1.131
335.90 1.131
336.00 1.131
336.10 1.131
336.20 1.131
336.30 1.131
336.40 1.131
336.50 1.131
336.60 1.132
336.70 1.132
336.80 1.132
336.90 1.132
337.00 1.132
337.10 1.132
337.20 1.132
337.30 1.132
337.40 1.132
337.50 1.132
337.60 1.132
337.70 1.132
337.80 1.132
337.90 1.132
338.00 1.133
338.10 1.133
338.20 1.133
338.30 1.133
338.40 1.133
338.50 1.133
338.60 1.133
338.70 1.133
338.80 1.133
338.90 1.133
339.00 1.133
339.10 1.133
339.20 1.133
339.30 1.133
339.40 1.133
339.50 1.133
339.60 1.133
339.70 1.134
339.80 1.134
339.90 1.134
340.00 1.134
340.10 1.134
340.20 1.134
340.30 1.134
340.40 1.134
340.50 1.134
340.60 1.134
340.70 1.134
340.80 1.134
340.90 1.134
341.00 1.134
341.10 1.134
341.20 1.134
341.30 1.134
341.40 1.134
341.50 1.135
341.60 1.135
341.70 1.135
341.80 1.135
341.90 1.135
342.00 1.135
342.10 1.135
342.20 1.135
342.30 1.135
342.40 1.135
342.50 1.135
342.60 1.135
342.70 1.135
342.80 1.135
342.90 1.135
343.00 1.135
343.10 1.135
343.20 1.135
343.30 1.135
343.40 1.135
343.50 1.135
343.60 1.136
343.70 1.136
343.80 1.136
343.90 1.136
344.00 1.136
344.10 1.136
344.20 1.136
344.30 1.136
344.40 1.136
344.50 1.136
344.60 1.136
344.70 1.136
344.80 1.136
344.90 1.136
345.00 1.136
345.10 1.136
345.20 1.136
345.30 1.136
345.40 1.136
345.50 1.136
345.60 1.136
345.70 1.136
345.80 1.136
345.90 1.136
346.00 1.136
346.10 1.136
346.20 1.136
346.30 1.137
346.40 1.137
346.50 1.137
346.60 1.137
346.70 1.137
346.80 1.137
346.90 1.137
347.00 1.137
347.10 1.137
347.20 1.137
347.30 1.137
347.40 1.137
347.50 1.137
347.60 1.137
347.70 1.137
347.80 1.137
347.90 1.137
348.00 1.137
348.10 1.137
348.20 1.137
348.30 1.137
348.40 1.137
348.50 1.137
348.60 1.137
348.70 1.137
348.80 1.137
348.90 1.137
349.00 1.137
349.10 1.137
349.20 1.137
349.30 1.137
349.40 1.137
349.50 1.137
349.60 1.137
349.70 1.137
349.80 1.137
349.90 1.137
350.00 1.137
350.10 1.137
350.20 1.137
350.30 1.137
350.40 1.137
350.50 1.137
350.60 1.137
350.70 1.137
350.80 1.138
350.90 1.138
351.00 1.138
351.10 1.138
351.20 1.138
351.30 1.138
351.40 1.138
351.50 1.138
351.60 1.138
351.70 1.138
351.80 1.138
351.90 1.138
352.00 1.138
352.10 1.138
352.20 1.138
352.30 1.138
352.40 1.138
352.50 1.138
352.60 1.138
352.70 1.138
352.80 1.138
352.90 1.138
353.00 1.138
353.10 1.138
353.20 1.138
353.30 1.138
353.40 1.138
353.50 1.138
353.60 1.138
353.70 1.138
353.80 1.138
353.90 1.138
354.00 1.138
354.10 1.138
354.20 1.138
354.30 1.138
354.40 1.138
354.50 1.138
354.60 1.138
354.70 1.138
354.80 1.138
354.90 1.138
355.00 1.138
355.10 1.138
355.20 1.138
355.30 1.138
355.40 1.138
355.50 1.138
355.60 1.138
355.70 1.138
355.80 1.138
355.90 1.138
356.00 1.138
356.10 1.138
356.20 1.138
356.30 1.138
356.40 1.138
356.50 1.138
356.60 1.138
356.70 1.138
356.80 1.138
356.90 1.138
357.00 1.138
357.10 1.138
357.20 1.138
357.30 1.138
357.40 1.138
357.50 1.138
357.60 1.138
357.70 1.138
357.80 1.138
357.90 1.138
358.00 1.138
358.10 1.138
358.20 1.138
358.30 1.137
358.40 1.137
358.50 1.137
358.60 1.137
358.70 1.137
358.80 1.137
358.90 1.137
359.00 1.137
359.10 1.137
359.20 1.137
359.30 1.137
359.40 1.137
359.50 1.137
359.60 1.137
359.70 1.137
359.80 1.137
359.90 1.137
360.00 1.137
360.10 1.137
360.20 1.137
360.30 1.137
360.40 1.137
360.50 1.137
360.60 1.137
360.70 1.137
360.80 1.137
360.90 1.137
361.00 1.137
361.10 1.137
361.20 1.137
361.30 1.137
361.40 1.137
361.50 1.137
361.60 1.137
361.70 1.137
361.80 1.137
361.90 1.137
362.00 1.137
362.10 1.137
362.20 1.137
362.30 1.137
362.40 1.137
362.50 1.137
362.60 1.137
362.70 1.137
362.80 1.137
362.90 1.136
363.00 1.136
363.10 1.136
363.20 1.136
363.30 1.136
363.40 1.136
363.50 1.136
363.60 1.136
363.70 1.136
363.80 1.136
363.90 1.136
364.00 1.136
364.10 1.136
364.20 1.136
364.30 1.136
364.40 1.136
364.50 1.136
364.60 1.136
364.70 1.136
364.80 1.136
364.90 1.136
365.00 1.136
365.10 1.136
365.20 1.136
365.30 1.136
365.40 1.135
365.50 1.135
365.60 1.135
365.70 1.135
365.80 1.135
365.90 1.135
366.00 1.135
366.10 1.135
366.20 1.135
366.30 1.135
366.40 1.135
366.50 1.135
366.60 1.135
366.70 1.135
366.80 1.135
366.90 1.135
367.00 1.135
367.10 1.135
367.20 1.135
367.30 1.135
367.40 1.135
367.50 1.135
367.60 1.135
367.70 1.134
367.80 1.134
367.90 1.134
368.00 1.134
368.10 1.134
368.20 1.134
368.30 1.134
368.40 1.134
368.50 1.134
368.60 1.134
368.70 1.134
368.80 1.134
368.90 1.134
369.00 1.134
369.10 1.134
369.20 1.134
369.30 1.134
369.40 1.134
369.50 1.134
369.60 1.134
369.70 1.133
369.80 1.133
369.90 1.133
370.00 1.133
370.10 1.134
370.20 1.134
370.30 1.135
370.40 1.135
370.50 1.136
370.60 1.136
370.70 1.137
370.80 1.137
370.90 1.138
371.00 1.138
371.10 1.139
371.20 1.139
371.30 1.14
371.40 1.14
371.50 1.141
371.60 1.141
371.70 1.142
371.80 1.142
371.90 1.143
372.00 1.143
372.10 1.144
372.20 1.145
372.30 1.146
372.40 1.146
372.50 1.147
372.60 1.148
372.70 1.149
372.80 1.15
372.90 1.15
373.00 1.151
373.10 1.152
373.20 1.153
373.30 1.154
373.40 1.154
373.50 1.155
373.60 1.156
373.70 1.157
373.80 1.158
373.90 1.159
374.00 1.159
374.10 1.16
374.20 1.161
374.30 1.162
374.40 1.163
374.50 1.163
374.60 1.164
374.70 1.165
374.80 1.166
374.90 1.167
375.00 1.167
375.10 1.168
375.20 1.169
375.30 1.17
375.40 1.171
375.50 1.171
375.60 1.172
375.70 1.173
375.80 1.174
375.90 1.175
376.00 1.175
376.10 1.176
376.20 1.177
376.30 1.177
376.40 1.178
376.50 1.178
376.60 1.179
376.70 1.179
376.80 1.18
376.90 1.18
377.00 1.181
377.10 1.181
377.20 1.181
377.30 1.181
377.40 1.181
377.50 1.181
377.60 1.18
377.70 1.18
377.80 1.18
377.90 1.18
378.00 1.18
378.10 1.178
378.20 1.175
378.30 1.172
378.40 1.169
378.50 1.166
378.60 1.164
378.70 1.161
378.80 1.158
378.90 1.155
379.00 1.153
379.10 1.145
379.20 1.138
379.30 1.131
379.40 1.124
379.50 1.117
379.60 1.109
379.70 1.102
379.80 1.095
379.90 1.088
380.00 1.081
380.10 1.09
380.20 1.1
380.30 1.109
380.40 1.118
380.50 1.128
380.60 1.137
380.70 1.147
380.80 1.156
380.90 1.165
381.00 1.175
381.10 1.176
381.20 1.178
381.30 1.18
381.40 1.181
381.50 1.183
381.60 1.183
381.70 1.183
381.80 1.183
381.90 1.182
382.00 1.18
382.10 1.179
382.20 1.176
382.30 1.165
382.40 1.154
382.50 1.143
382.60 1.133
382.70 1.122
382.80 1.111
382.90 1.1
383.00 1.089
383.10 1.079
383.20 1.068
383.30 1.035
383.40 0.9847
383.50 0.8702
383.60 0.9074
383.70 0.999
383.80 1.044
383.90 1.075
384.00 1.097
384.10 1.115
384.20 1.13
384.30 1.143
384.40 1.153
384.50 1.161
384.60 1.168
384.70 1.174
384.80 1.178
384.90 1.182
385.00 1.185
385.10 1.188
385.20 1.19
385.30 1.191
385.40 1.193
385.50 1.194
385.60 1.195
385.70 1.196
385.80 1.196
385.90 1.197
386.00 1.197
386.10 1.197
386.20 1.197
386.30 1.197
386.40 1.197
386.50 1.197
386.60 1.196
386.70 1.195
386.80 1.194
386.90 1.193
387.00 1.192
387.10 1.19
387.20 1.188
387.30 1.186
387.40 1.183
387.50 1.18
387.60 1.176
387.70 1.171
387.80 1.164
387.90 1.156
388.00 1.147
388.10 1.134
388.20 1.119
388.30 1.101
388.40 1.075
388.50 1.044
388.60 1.007
388.70 0.9436
388.80 0.8215
388.90 0.6406
389.00 0.8155
389.10 0.9361
389.20 1.003
389.30 1.041
389.40 1.073
389.50 1.099
389.60 1.117
389.70 1.133
389.80 1.147
389.90 1.156
390.00 1.164
390.10 1.171
390.20 1.176
390.30 1.18
390.40 1.184
390.50 1.187
390.60 1.189
390.70 1.192
390.80 1.193
390.90 1.195
391.00 1.196
391.10 1.197
391.20 1.198
391.30 1.199
391.40 1.2
391.50 1.201
391.60 1.201
391.70 1.202
391.80 1.202
391.90 1.202
392.00 1.203
392.10 1.203
392.20 1.203
392.30 1.203
392.40 1.203
392.50 1.203
392.60 1.203
392.70 1.203
392.80 1.203
392.90 1.203
393.00 1.203
393.10 1.203
393.20 1.203
393.30 1.203
393.40 1.203
393.50 1.202
393.60 1.202
393.70 1.202
393.80 1.201
393.90 1.201
394.00 1.2
394.10 1.2
394.20 1.199
394.30 1.198
394.40 1.197
394.50 1.196
394.60 1.196
394.70 1.194
394.80 1.193
394.90 1.192
395.00 1.19
395.10 1.188
395.20 1.186
395.30 1.183
395.40 1.18
395.50 1.177
395.60 1.173
395.70 1.168
395.80 1.162
395.90 1.154
396.00 1.145
396.10 1.135
396.20 1.12
396.30 1.101
396.40 1.08
396.50 1.048
396.60 1.009
396.70 0.9613
396.80 0.8785
396.90 0.717
397.00 0.477
397.10 0.7057
397.20 0.8643
397.30 0.9529
397.40 1.003
397.50 1.044
397.60 1.076
397.70 1.098
397.80 1.117
397.90 1.132
398.00 1.143
398.10 1.152
398.20 1.159
398.30 1.165
398.40 1.17
398.50 1.174
398.60 1.177
398.70 1.18
398.80 1.183
398.90 1.185
399.00 1.187
399.10 1.188
399.20 1.189
399.30 1.191
399.40 1.192
399.50 1.192
399.60 1.193
399.70 1.194
399.80 1.194
399.90 1.195
400.00 1.195
400.10 1.196
400.20 1.196
400.30 1.196
400.40 1.197
400.50 1.197
400.60 1.197
400.70 1.197
400.80 1.198
400.90 1.198
401.00 1.198
401.10 1.198
401.20 1.198
401.30 1.198
401.40 1.198
401.50 1.198
401.60 1.198
401.70 1.198
401.80 1.198
401.90 1.198
402.00 1.198
402.10 1.198
402.20 1.198
402.30 1.198
402.40 1.198
402.50 1.197
402.60 1.197
402.70 1.197
402.80 1.197
402.90 1.197
403.00 1.197
403.10 1.197
403.20 1.197
403.30 1.197
403.40 1.197
403.50 1.196
403.60 1.196
403.70 1.196
403.80 1.196
403.90 1.196
404.00 1.196
404.10 1.196
404.20 1.195
404.30 1.195
404.40 1.195
404.50 1.195
404.60 1.195
404.70 1.194
404.80 1.194
404.90 1.194
405.00 1.194
405.10 1.194
405.20 1.193
405.30 1.193
405.40 1.193
405.50 1.193
405.60 1.192
405.70 1.192
405.80 1.192
405.90 1.192
406.00 1.191
406.10 1.191
406.20 1.191
406.30 1.19
406.40 1.19
406.50 1.189
406.60 1.189
406.70 1.188
406.80 1.188
406.90 1.187
407.00 1.186
407.10 1.186
407.20 1.185
407.30 1.184
407.40 1.183
407.50 1.182
407.60 1.181
407.70 1.18
407.80 1.179
407.90 1.177
408.00 1.175
408.10 1.174
408.20 1.171
408.30 1.169
408.40 1.166
408.50 1.163
408.60 1.16
408.70 1.156
408.80 1.151
408.90 1.145
409.00 1.138
409.10 1.129
409.20 1.119
409.30 1.107
409.40 1.09
409.50 1.069
409.60 1.044
409.70 1.006
409.80 0.9569
409.90 0.8969
410.00 0.7807
410.10 0.6269
410.20 0.4356
410.30 0.6808
410.40 0.8472
410.50 0.9347
410.60 0.9848
410.70 1.026
410.80 1.058
410.90 1.08
411.00 1.098
411.10 1.112
411.20 1.123
411.30 1.132
411.40 1.139
411.50 1.145
411.60 1.15
411.70 1.154
411.80 1.158
411.90 1.161
412.00 1.163
412.10 1.165
412.20 1.167
412.30 1.169
412.40 1.17
412.50 1.172
412.60 1.173
412.70 1.174
412.80 1.174
412.90 1.175
413.00 1.176
413.10 1.176
413.20 1.177
413.30 1.177
413.40 1.178
413.50 1.178
413.60 1.178
413.70 1.178
413.80 1.179
413.90 1.179
414.00 1.179
414.10 1.179
414.20 1.179
414.30 1.179
414.40 1.179
414.50 1.179
414.60 1.179
414.70 1.179
414.80 1.179
414.90 1.179
415.00 1.179
415.10 1.179
415.20 1.179
415.30 1.179
415.40 1.179
415.50 1.179
415.60 1.178
415.70 1.178
415.80 1.178
415.90 1.178
416.00 1.178
416.10 1.178
416.20 1.178
416.30 1.178
416.40 1.178
416.50 1.178
416.60 1.177
416.70 1.177
416.80 1.177
416.90 1.177
417.00 1.177
417.10 1.177
417.20 1.177
417.30 1.176
417.40 1.176
417.50 1.176
417.60 1.176
417.70 1.176
417.80 1.176
417.90 1.176
418.00 1.175
418.10 1.175
418.20 1.175
418.30 1.175
418.40 1.175
418.50 1.175
418.60 1.174
418.70 1.174
418.80 1.174
418.90 1.174
419.00 1.174
419.10 1.174
419.20 1.174
419.30 1.173
419.40 1.173
419.50 1.173
419.60 1.173
419.70 1.173
419.80 1.172
419.90 1.172
420.00 1.172
420.10 1.172
420.20 1.172
420.30 1.172
420.40 1.172
420.50 1.171
420.60 1.171
420.70 1.171
420.80 1.171
420.90 1.171
421.00 1.17
421.10 1.17
421.20 1.17
421.30 1.17
421.40 1.17
421.50 1.17
421.60 1.169
421.70 1.169
421.80 1.169
421.90 1.169
422.00 1.169
422.10 1.169
422.20 1.168
422.30 1.168
422.40 1.168
422.50 1.168
422.60 1.168
422.70 1.167
422.80 1.167
422.90 1.167
423.00 1.167
423.10 1.167
423.20 1.167
423.30 1.166
423.40 1.166
423.50 1.166
423.60 1.166
423.70 1.166
423.80 1.165
423.90 1.165
424.00 1.165
424.10 1.165
424.20 1.165
424.30 1.164
424.40 1.164
424.50 1.164
424.60 1.164
424.70 1.164
424.80 1.164
424.90 1.163
425.00 1.163
425.10 1.163
425.20 1.163
425.30 1.163
425.40 1.162
425.50 1.162
425.60 1.162
425.70 1.162
425.80 1.162
425.90 1.161
426.00 1.161
426.10 1.161
426.20 1.161
426.30 1.161
426.40 1.16
426.50 1.16
426.60 1.16
426.70 1.16
426.80 1.159
426.90 1.159
427.00 1.159
427.10 1.159
427.20 1.159
427.30 1.158
427.40 1.158
427.50 1.158
427.60 1.158
427.70 1.157
427.80 1.157
427.90 1.157
428.00 1.157
428.10 1.157
428.20 1.156
428.30 1.156
428.40 1.156
428.50 1.156
428.60 1.155
428.70 1.155
428.80 1.155
428.90 1.154
429.00 1.154
429.10 1.154
429.20 1.154
429.30 1.153
429.40 1.153
429.50 1.153
429.60 1.152
429.70 1.152
429.80 1.152
429.90 1.151
430.00 1.151
430.10 1.15
430.20 1.15
430.30 1.149
430.40 1.149
430.50 1.148
430.60 1.148
430.70 1.147
430.80 1.147
430.90 1.146
431.00 1.145
431.10 1.144
431.20 1.144
431.30 1.143
431.40 1.142
431.50 1.14
431.60 1.139
431.70 1.138
431.80 1.136
431.90 1.134
432.00 1.132
432.10 1.13
432.20 1.127
432.30 1.124
432.40 1.121
432.50 1.117
432.60 1.112
432.70 1.106
432.80 1.099
432.90 1.091
433.00 1.082
433.10 1.071
433.20 1.058
433.30 1.042
433.40 1.019
433.50 0.9907
433.60 0.956
433.70 0.9002
433.80 0.8192
433.90 0.7131
434.00 0.4689
434.10 0.4732
434.20 0.7257
434.30 0.8271
434.40 0.9048
434.50 0.9587
434.60 0.9923
434.70 1.02
434.80 1.042
434.90 1.057
435.00 1.069
435.10 1.08
435.20 1.088
435.30 1.096
435.40 1.102
435.50 1.107
435.60 1.112
435.70 1.116
435.80 1.118
435.90 1.121
436.00 1.123
436.10 1.125
436.20 1.127
436.30 1.128
436.40 1.129
436.50 1.13
436.60 1.131
436.70 1.132
436.80 1.132
436.90 1.133
437.00 1.133
437.10 1.134
437.20 1.134
437.30 1.134
437.40 1.135
437.50 1.135
437.60 1.135
437.70 1.135
437.80 1.135
437.90 1.135
438.00 1.135
438.10 1.135
438.20 1.135
438.30 1.135
438.40 1.135
438.50 1.135
438.60 1.135
438.70 1.135
438.80 1.135
438.90 1.135
439.00 1.135
439.10 1.135
439.20 1.134
439.30 1.134
439.40 1.134
439.50 1.134
439.60 1.134
439.70 1.134
439.80 1.134
439.90 1.134
440.00 1.133
440.10 1.133
440.20 1.133
440.30 1.133
440.40 1.133
440.50 1.133
440.60 1.132
440.70 1.132
440.80 1.132
440.90 1.132
441.00 1.132
441.10 1.132
441.20 1.131
441.30 1.131
441.40 1.131
441.50 1.131
441.60 1.131
441.70 1.131
441.80 1.13
441.90 1.13
442.00 1.13
442.10 1.13
442.20 1.13
442.30 1.129
442.40 1.129
442.50 1.129
442.60 1.129
442.70 1.129
442.80 1.128
442.90 1.128
443.00 1.128
443.10 1.128
443.20 1.128
443.30 1.128
443.40 1.127
443.50 1.127
443.60 1.127
443.70 1.127
443.80 1.127
443.90 1.126
444.00 1.126
444.10 1.126
444.20 1.126
444.30 1.126
444.40 1.125
444.50 1.125
444.60 1.125
444.70 1.125
444.80 1.125
444.90 1.124
445.00 1.124
445.10 1.124
445.20 1.124
445.30 1.123
445.40 1.123
445.50 1.123
445.60 1.123
445.70 1.123
445.80 1.123
445.90 1.122
446.00 1.122
446.10 1.122
446.20 1.122
446.30 1.122
446.40 1.121
446.50 1.121
446.60 1.121
446.70 1.121
446.80 1.12
446.90 1.12
447.00 1.12
447.10 1.12
447.20 1.12
447.30 1.119
447.40 1.119
447.50 1.119
447.60 1.119
447.70 1.119
447.80 1.118
447.90 1.118
448.00 1.118
448.10 1.118
448.20 1.118
448.30 1.117
448.40 1.117
448.50 1.117
448.60 1.117
448.70 1.117
448.80 1.116
448.90 1.116
449.00 1.116
449.10 1.116
449.20 1.115
449.30 1.115
449.40 1.115
449.50 1.115
449.60 1.115
449.70 1.114
449.80 1.114
449.90 1.114
450.00 1.114
450.10 1.114
450.20 1.113
450.30 1.113
450.40 1.113
450.50 1.113
450.60 1.113
450.70 1.112
450.80 1.112
450.90 1.112
451.00 1.112
451.10 1.111
451.20 1.111
451.30 1.111
451.40 1.111
451.50 1.111
451.60 1.11
451.70 1.11
451.80 1.11
451.90 1.11
452.00 1.11
452.10 1.109
452.20 1.109
452.30 1.109
452.40 1.109
452.50 1.108
452.60 1.108
452.70 1.108
452.80 1.108
452.90 1.108
453.00 1.107
453.10 1.107
453.20 1.107
453.30 1.107
453.40 1.106
453.50 1.106
