# Version 2.1 - nm, norm@500 to 1, cut digits, bergeron_45000_85.dat_45000
# Wavelength(nm)  Flambda(ergs/cm^s/s/nm)
300.00 6.066
300.10 6.059
300.20 6.052
300.30 6.044
300.40 6.037
300.50 6.03
300.60 6.023
300.70 6.016
300.80 6.008
300.90 6.001
301.00 5.994
301.10 5.987
301.20 5.98
301.30 5.973
301.40 5.965
301.50 5.958
301.60 5.951
301.70 5.944
301.80 5.937
301.90 5.93
302.00 5.923
302.10 5.916
302.20 5.909
302.30 5.902
302.40 5.895
302.50 5.888
302.60 5.881
302.70 5.874
302.80 5.867
302.90 5.86
303.00 5.853
303.10 5.846
303.20 5.839
303.30 5.832
303.40 5.825
303.50 5.818
303.60 5.811
303.70 5.804
303.80 5.798
303.90 5.791
304.00 5.784
304.10 5.777
304.20 5.77
304.30 5.763
304.40 5.757
304.50 5.75
304.60 5.743
304.70 5.736
304.80 5.729
304.90 5.723
305.00 5.716
305.10 5.709
305.20 5.703
305.30 5.696
305.40 5.689
305.50 5.682
305.60 5.676
305.70 5.669
305.80 5.662
305.90 5.656
306.00 5.649
306.10 5.642
306.20 5.636
306.30 5.629
306.40 5.623
306.50 5.616
306.60 5.609
306.70 5.603
306.80 5.596
306.90 5.59
307.00 5.583
307.10 5.577
307.20 5.57
307.30 5.563
307.40 5.557
307.50 5.55
307.60 5.544
307.70 5.537
307.80 5.531
307.90 5.524
308.00 5.518
308.10 5.512
308.20 5.505
308.30 5.499
308.40 5.492
308.50 5.486
308.60 5.479
308.70 5.473
308.80 5.467
308.90 5.46
309.00 5.454
309.10 5.448
309.20 5.441
309.30 5.435
309.40 5.429
309.50 5.422
309.60 5.416
309.70 5.41
309.80 5.403
309.90 5.397
310.00 5.391
310.10 5.385
310.20 5.378
310.30 5.372
310.40 5.366
310.50 5.36
310.60 5.353
310.70 5.347
310.80 5.341
310.90 5.335
311.00 5.329
311.10 5.322
311.20 5.316
311.30 5.31
311.40 5.304
311.50 5.298
311.60 5.292
311.70 5.286
311.80 5.279
311.90 5.273
312.00 5.267
312.10 5.261
312.20 5.255
312.30 5.249
312.40 5.243
312.50 5.237
312.60 5.231
312.70 5.225
312.80 5.219
312.90 5.213
313.00 5.207
313.10 5.201
313.20 5.195
313.30 5.189
313.40 5.183
313.50 5.177
313.60 5.171
313.70 5.165
313.80 5.159
313.90 5.153
314.00 5.147
314.10 5.141
314.20 5.135
314.30 5.13
314.40 5.124
314.50 5.118
314.60 5.112
314.70 5.106
314.80 5.1
314.90 5.094
315.00 5.089
315.10 5.083
315.20 5.077
315.30 5.071
315.40 5.065
315.50 5.06
315.60 5.054
315.70 5.048
315.80 5.042
315.90 5.036
316.00 5.031
316.10 5.025
316.20 5.019
316.30 5.013
316.40 5.008
316.50 5.002
316.60 4.996
316.70 4.991
316.80 4.985
316.90 4.979
317.00 4.974
317.10 4.968
317.20 4.962
317.30 4.957
317.40 4.951
317.50 4.945
317.60 4.94
317.70 4.934
317.80 4.929
317.90 4.923
318.00 4.917
318.10 4.912
318.20 4.906
318.30 4.901
318.40 4.895
318.50 4.89
318.60 4.884
318.70 4.878
318.80 4.873
318.90 4.867
319.00 4.862
319.10 4.856
319.20 4.851
319.30 4.845
319.40 4.84
319.50 4.834
319.60 4.829
319.70 4.824
319.80 4.818
319.90 4.813
320.00 4.807
320.10 4.802
320.20 4.796
320.30 4.791
320.40 4.786
320.50 4.78
320.60 4.775
320.70 4.769
320.80 4.764
320.90 4.759
321.00 4.753
321.10 4.748
321.20 4.743
321.30 4.737
321.40 4.732
321.50 4.727
321.60 4.721
321.70 4.716
321.80 4.711
321.90 4.705
322.00 4.7
322.10 4.695
322.20 4.69
322.30 4.684
322.40 4.679
322.50 4.674
322.60 4.669
322.70 4.663
322.80 4.658
322.90 4.653
323.00 4.648
323.10 4.643
323.20 4.637
323.30 4.632
323.40 4.627
323.50 4.622
323.60 4.617
323.70 4.612
323.80 4.606
323.90 4.601
324.00 4.596
324.10 4.591
324.20 4.586
324.30 4.581
324.40 4.576
324.50 4.571
324.60 4.565
324.70 4.56
324.80 4.555
324.90 4.55
325.00 4.545
325.10 4.54
325.20 4.535
325.30 4.53
325.40 4.525
325.50 4.52
325.60 4.515
325.70 4.51
325.80 4.505
325.90 4.5
326.00 4.495
326.10 4.49
326.20 4.485
326.30 4.48
326.40 4.475
326.50 4.47
326.60 4.465
326.70 4.46
326.80 4.455
326.90 4.45
327.00 4.445
327.10 4.44
327.20 4.436
327.30 4.431
327.40 4.426
327.50 4.421
327.60 4.416
327.70 4.411
327.80 4.406
327.90 4.401
328.00 4.397
328.10 4.392
328.20 4.387
328.30 4.382
328.40 4.377
328.50 4.372
328.60 4.368
328.70 4.363
328.80 4.358
328.90 4.353
329.00 4.348
329.10 4.344
329.20 4.339
329.30 4.334
329.40 4.329
329.50 4.325
329.60 4.32
329.70 4.315
329.80 4.31
329.90 4.306
330.00 4.301
330.10 4.296
330.20 4.291
330.30 4.287
330.40 4.282
330.50 4.277
330.60 4.273
330.70 4.268
330.80 4.263
330.90 4.259
331.00 4.254
331.10 4.249
331.20 4.245
331.30 4.24
331.40 4.235
331.50 4.231
331.60 4.226
331.70 4.222
331.80 4.217
331.90 4.212
332.00 4.208
332.10 4.203
332.20 4.199
332.30 4.194
332.40 4.189
332.50 4.185
332.60 4.18
332.70 4.176
332.80 4.171
332.90 4.167
333.00 4.162
333.10 4.158
333.20 4.153
333.30 4.149
333.40 4.144
333.50 4.14
333.60 4.135
333.70 4.131
333.80 4.126
333.90 4.122
334.00 4.117
334.10 4.113
334.20 4.108
334.30 4.104
334.40 4.099
334.50 4.095
334.60 4.09
334.70 4.086
334.80 4.082
334.90 4.077
335.00 4.073
335.10 4.068
335.20 4.064
335.30 4.06
335.40 4.055
335.50 4.051
335.60 4.046
335.70 4.042
335.80 4.038
335.90 4.033
336.00 4.029
336.10 4.025
336.20 4.02
336.30 4.016
336.40 4.012
336.50 4.007
336.60 4.003
336.70 3.999
336.80 3.994
336.90 3.99
337.00 3.986
337.10 3.982
337.20 3.977
337.30 3.973
337.40 3.969
337.50 3.964
337.60 3.96
337.70 3.956
337.80 3.952
337.90 3.947
338.00 3.943
338.10 3.939
338.20 3.935
338.30 3.93
338.40 3.926
338.50 3.922
338.60 3.918
338.70 3.914
338.80 3.91
338.90 3.905
339.00 3.901
339.10 3.897
339.20 3.893
339.30 3.889
339.40 3.884
339.50 3.88
339.60 3.876
339.70 3.872
339.80 3.868
339.90 3.864
340.00 3.86
340.10 3.855
340.20 3.851
340.30 3.847
340.40 3.843
340.50 3.839
340.60 3.835
340.70 3.831
340.80 3.827
340.90 3.823
341.00 3.819
341.10 3.815
341.20 3.811
341.30 3.807
341.40 3.802
341.50 3.798
341.60 3.794
341.70 3.79
341.80 3.786
341.90 3.782
342.00 3.778
342.10 3.774
342.20 3.77
342.30 3.766
342.40 3.762
342.50 3.758
342.60 3.754
342.70 3.75
342.80 3.746
342.90 3.742
343.00 3.738
343.10 3.735
343.20 3.731
343.30 3.727
343.40 3.723
343.50 3.719
343.60 3.715
343.70 3.711
343.80 3.707
343.90 3.703
344.00 3.699
344.10 3.695
344.20 3.691
344.30 3.687
344.40 3.684
344.50 3.68
344.60 3.676
344.70 3.672
344.80 3.668
344.90 3.664
345.00 3.66
345.10 3.656
345.20 3.653
345.30 3.649
345.40 3.645
345.50 3.641
345.60 3.637
345.70 3.633
345.80 3.63
345.90 3.626
346.00 3.622
346.10 3.618
346.20 3.614
346.30 3.611
346.40 3.607
346.50 3.603
346.60 3.599
346.70 3.595
346.80 3.592
346.90 3.588
347.00 3.584
347.10 3.58
347.20 3.577
347.30 3.573
347.40 3.569
347.50 3.565
347.60 3.562
347.70 3.558
347.80 3.554
347.90 3.551
348.00 3.547
348.10 3.543
348.20 3.539
348.30 3.536
348.40 3.532
348.50 3.528
348.60 3.525
348.70 3.521
348.80 3.517
348.90 3.514
349.00 3.51
349.10 3.506
349.20 3.503
349.30 3.499
349.40 3.496
349.50 3.492
349.60 3.488
349.70 3.485
349.80 3.481
349.90 3.477
350.00 3.474
350.10 3.47
350.20 3.467
350.30 3.463
350.40 3.459
350.50 3.456
350.60 3.452
350.70 3.449
350.80 3.445
350.90 3.441
351.00 3.438
351.10 3.434
351.20 3.431
351.30 3.427
351.40 3.424
351.50 3.42
351.60 3.417
351.70 3.413
351.80 3.41
351.90 3.406
352.00 3.402
352.10 3.399
352.20 3.395
352.30 3.392
352.40 3.388
352.50 3.385
352.60 3.381
352.70 3.378
352.80 3.374
352.90 3.371
353.00 3.368
353.10 3.364
353.20 3.361
353.30 3.357
353.40 3.354
353.50 3.35
353.60 3.347
353.70 3.343
353.80 3.34
353.90 3.336
354.00 3.333
354.10 3.33
354.20 3.326
354.30 3.323
354.40 3.319
354.50 3.316
354.60 3.313
354.70 3.309
354.80 3.306
354.90 3.302
355.00 3.299
355.10 3.296
355.20 3.292
355.30 3.289
355.40 3.285
355.50 3.282
355.60 3.279
355.70 3.275
355.80 3.272
355.90 3.269
356.00 3.265
356.10 3.262
356.20 3.259
356.30 3.255
356.40 3.252
356.50 3.249
356.60 3.245
356.70 3.242
356.80 3.239
356.90 3.235
357.00 3.232
357.10 3.229
357.20 3.226
357.30 3.222
357.40 3.219
357.50 3.216
357.60 3.212
357.70 3.209
357.80 3.206
357.90 3.203
358.00 3.199
358.10 3.196
358.20 3.193
358.30 3.19
358.40 3.186
358.50 3.183
358.60 3.18
358.70 3.177
358.80 3.173
358.90 3.17
359.00 3.167
359.10 3.164
359.20 3.161
359.30 3.157
359.40 3.154
359.50 3.151
359.60 3.148
359.70 3.145
359.80 3.141
359.90 3.138
360.00 3.135
360.10 3.132
360.20 3.129
360.30 3.126
360.40 3.122
360.50 3.119
360.60 3.116
360.70 3.113
360.80 3.11
360.90 3.107
361.00 3.104
361.10 3.1
361.20 3.097
361.30 3.094
361.40 3.091
361.50 3.088
361.60 3.085
361.70 3.082
361.80 3.079
361.90 3.075
362.00 3.072
362.10 3.069
362.20 3.066
362.30 3.063
362.40 3.06
362.50 3.057
362.60 3.054
362.70 3.051
362.80 3.048
362.90 3.045
363.00 3.042
363.10 3.038
363.20 3.035
363.30 3.032
363.40 3.029
363.50 3.026
363.60 3.023
363.70 3.02
363.80 3.017
363.90 3.014
364.00 3.011
364.10 3.008
364.20 3.005
364.30 3.002
364.40 2.999
364.50 2.996
364.60 2.993
364.70 2.99
364.80 2.987
364.90 2.984
365.00 2.981
365.10 2.978
365.20 2.975
365.30 2.972
365.40 2.969
365.50 2.966
365.60 2.963
365.70 2.96
365.80 2.957
365.90 2.955
366.00 2.952
366.10 2.949
366.20 2.946
366.30 2.943
366.40 2.94
366.50 2.936
366.60 2.933
366.70 2.93
366.80 2.927
366.90 2.924
367.00 2.921
367.10 2.918
367.20 2.915
367.30 2.913
367.40 2.91
367.50 2.907
367.60 2.904
367.70 2.901
367.80 2.898
367.90 2.895
368.00 2.892
368.10 2.889
368.20 2.886
368.30 2.883
368.40 2.88
368.50 2.877
368.60 2.874
368.70 2.871
368.80 2.868
368.90 2.865
369.00 2.862
369.10 2.859
369.20 2.856
369.30 2.853
369.40 2.85
369.50 2.847
369.60 2.844
369.70 2.841
369.80 2.838
369.90 2.835
370.00 2.832
370.10 2.829
370.20 2.826
370.30 2.823
370.40 2.82
370.50 2.817
370.60 2.814
370.70 2.812
370.80 2.809
370.90 2.806
371.00 2.803
371.10 2.8
371.20 2.797
371.30 2.794
371.40 2.791
371.50 2.789
371.60 2.786
371.70 2.783
371.80 2.78
371.90 2.777
372.00 2.774
372.10 2.772
372.20 2.769
372.30 2.766
372.40 2.763
372.50 2.761
372.60 2.758
372.70 2.755
372.80 2.752
372.90 2.75
373.00 2.747
373.10 2.744
373.20 2.741
373.30 2.739
373.40 2.736
373.50 2.733
373.60 2.73
373.70 2.728
373.80 2.725
373.90 2.722
374.00 2.72
374.10 2.717
374.20 2.714
374.30 2.711
374.40 2.709
374.50 2.706
374.60 2.703
374.70 2.7
374.80 2.698
374.90 2.695
375.00 2.692
375.10 2.69
375.20 2.687
375.30 2.684
375.40 2.681
375.50 2.679
375.60 2.676
375.70 2.673
375.80 2.671
375.90 2.668
376.00 2.665
376.10 2.663
376.20 2.66
376.30 2.657
376.40 2.655
376.50 2.652
376.60 2.649
376.70 2.647
376.80 2.644
376.90 2.642
377.00 2.639
377.10 2.636
377.20 2.634
377.30 2.631
377.40 2.629
377.50 2.626
377.60 2.624
377.70 2.621
377.80 2.619
377.90 2.616
378.00 2.614
378.10 2.611
378.20 2.609
378.30 2.606
378.40 2.604
378.50 2.601
378.60 2.599
378.70 2.596
378.80 2.594
378.90 2.591
379.00 2.589
379.10 2.587
379.20 2.584
379.30 2.582
379.40 2.579
379.50 2.577
379.60 2.574
379.70 2.572
379.80 2.57
379.90 2.567
380.00 2.565
380.10 2.563
380.20 2.56
380.30 2.558
380.40 2.556
380.50 2.554
380.60 2.551
380.70 2.549
380.80 2.547
380.90 2.544
381.00 2.542
381.10 2.54
381.20 2.538
381.30 2.535
381.40 2.533
381.50 2.531
381.60 2.528
381.70 2.526
381.80 2.524
381.90 2.521
382.00 2.519
382.10 2.517
382.20 2.514
382.30 2.512
382.40 2.51
382.50 2.507
382.60 2.505
382.70 2.502
382.80 2.5
382.90 2.498
383.00 2.495
383.10 2.493
383.20 2.491
383.30 2.488
383.40 2.486
383.50 2.484
383.60 2.482
383.70 2.48
383.80 2.478
383.90 2.476
384.00 2.474
384.10 2.473
384.20 2.471
384.30 2.469
384.40 2.467
384.50 2.465
384.60 2.463
384.70 2.462
384.80 2.46
384.90 2.458
385.00 2.456
385.10 2.454
385.20 2.452
385.30 2.45
385.40 2.448
385.50 2.446
385.60 2.444
385.70 2.442
385.80 2.439
385.90 2.437
386.00 2.435
386.10 2.433
386.20 2.43
386.30 2.428
386.40 2.426
386.50 2.423
386.60 2.421
386.70 2.418
386.80 2.416
386.90 2.413
387.00 2.41
387.10 2.408
387.20 2.405
387.30 2.402
387.40 2.399
387.50 2.397
387.60 2.394
387.70 2.391
387.80 2.388
387.90 2.385
388.00 2.383
388.10 2.38
388.20 2.377
388.30 2.374
388.40 2.372
388.50 2.369
388.60 2.366
388.70 2.364
388.80 2.362
388.90 2.36
389.00 2.359
389.10 2.357
389.20 2.356
389.30 2.355
389.40 2.354
389.50 2.353
389.60 2.352
389.70 2.351
389.80 2.35
389.90 2.349
390.00 2.349
390.10 2.348
390.20 2.347
390.30 2.346
390.40 2.345
390.50 2.344
390.60 2.343
390.70 2.342
390.80 2.341
390.90 2.34
391.00 2.339
391.10 2.338
391.20 2.336
391.30 2.335
391.40 2.334
391.50 2.332
391.60 2.331
391.70 2.329
391.80 2.327
391.90 2.325
392.00 2.324
392.10 2.322
392.20 2.32
392.30 2.318
392.40 2.315
392.50 2.313
392.60 2.311
392.70 2.309
392.80 2.306
392.90 2.304
393.00 2.301
393.10 2.298
393.20 2.295
393.30 2.293
393.40 2.29
393.50 2.287
393.60 2.283
393.70 2.28
393.80 2.277
393.90 2.273
394.00 2.27
394.10 2.266
394.20 2.263
394.30 2.259
394.40 2.255
394.50 2.251
394.60 2.247
394.70 2.243
394.80 2.239
394.90 2.235
395.00 2.23
395.10 2.226
395.20 2.221
395.30 2.217
395.40 2.212
395.50 2.207
395.60 2.202
395.70 2.197
395.80 2.193
395.90 2.188
396.00 2.183
396.10 2.178
396.20 2.172
396.30 2.167
396.40 2.162
396.50 2.157
396.60 2.153
396.70 2.148
396.80 2.143
396.90 2.139
397.00 2.135
397.10 2.136
397.20 2.137
397.30 2.138
397.40 2.139
397.50 2.141
397.60 2.142
397.70 2.144
397.80 2.146
397.90 2.148
398.00 2.15
398.10 2.151
398.20 2.153
398.30 2.155
398.40 2.156
398.50 2.158
398.60 2.159
398.70 2.161
398.80 2.162
398.90 2.163
399.00 2.165
399.10 2.166
399.20 2.167
399.30 2.168
399.40 2.169
399.50 2.17
399.60 2.17
399.70 2.171
399.80 2.171
399.90 2.172
400.00 2.172
400.10 2.173
400.20 2.173
400.30 2.173
400.40 2.173
400.50 2.173
400.60 2.173
400.70 2.173
400.80 2.173
400.90 2.172
401.00 2.172
401.10 2.171
401.20 2.171
401.30 2.17
401.40 2.169
401.50 2.169
401.60 2.168
401.70 2.167
401.80 2.166
401.90 2.165
402.00 2.164
402.10 2.162
402.20 2.161
402.30 2.16
402.40 2.158
402.50 2.157
402.60 2.155
402.70 2.153
402.80 2.152
402.90 2.15
403.00 2.148
403.10 2.146
403.20 2.144
403.30 2.142
403.40 2.14
403.50 2.138
403.60 2.136
403.70 2.133
403.80 2.131
403.90 2.128
404.00 2.126
404.10 2.123
404.20 2.12
404.30 2.117
404.40 2.115
404.50 2.112
404.60 2.108
404.70 2.105
404.80 2.102
404.90 2.099
405.00 2.095
405.10 2.092
405.20 2.088
405.30 2.085
405.40 2.081
405.50 2.077
405.60 2.073
405.70 2.069
405.80 2.065
405.90 2.061
406.00 2.056
406.10 2.052
406.20 2.047
406.30 2.042
406.40 2.038
406.50 2.033
406.60 2.028
406.70 2.022
406.80 2.017
406.90 2.012
407.00 2.006
407.10 2
407.20 1.995
407.30 1.989
407.40 1.983
407.50 1.976
407.60 1.97
407.70 1.963
407.80 1.957
407.90 1.95
408.00 1.943
408.10 1.936
408.20 1.929
408.30 1.921
408.40 1.914
408.50 1.906
408.60 1.898
408.70 1.89
408.80 1.882
408.90 1.874
409.00 1.866
409.10 1.858
409.20 1.85
409.30 1.841
409.40 1.833
409.50 1.825
409.60 1.817
409.70 1.81
409.80 1.804
409.90 1.799
410.00 1.797
410.10 1.796
410.20 1.797
410.30 1.793
410.40 1.791
410.50 1.792
410.60 1.795
410.70 1.799
410.80 1.803
410.90 1.808
411.00 1.813
411.10 1.818
411.20 1.823
411.30 1.828
411.40 1.834
411.50 1.839
411.60 1.843
411.70 1.848
411.80 1.853
411.90 1.857
412.00 1.862
412.10 1.866
412.20 1.87
412.30 1.874
412.40 1.878
412.50 1.881
412.60 1.885
412.70 1.888
412.80 1.891
412.90 1.894
413.00 1.897
413.10 1.9
413.20 1.903
413.30 1.905
413.40 1.907
413.50 1.91
413.60 1.912
413.70 1.914
413.80 1.916
413.90 1.917
414.00 1.919
414.10 1.921
414.20 1.922
414.30 1.923
414.40 1.925
414.50 1.926
414.60 1.927
414.70 1.928
414.80 1.929
414.90 1.929
415.00 1.93
415.10 1.931
415.20 1.931
415.30 1.932
415.40 1.932
415.50 1.932
415.60 1.933
415.70 1.933
415.80 1.933
415.90 1.933
416.00 1.933
416.10 1.933
416.20 1.933
416.30 1.933
416.40 1.933
416.50 1.932
416.60 1.932
416.70 1.932
416.80 1.931
416.90 1.931
417.00 1.93
417.10 1.93
417.20 1.929
417.30 1.929
417.40 1.928
417.50 1.927
417.60 1.926
417.70 1.926
417.80 1.925
417.90 1.924
418.00 1.923
418.10 1.922
418.20 1.921
418.30 1.92
418.40 1.92
418.50 1.919
418.60 1.917
418.70 1.916
418.80 1.915
418.90 1.914
419.00 1.913
419.10 1.912
419.20 1.911
419.30 1.91
419.40 1.908
419.50 1.907
419.60 1.906
419.70 1.905
419.80 1.903
419.90 1.902
420.00 1.901
420.10 1.899
420.20 1.898
420.30 1.897
420.40 1.895
420.50 1.894
420.60 1.892
420.70 1.891
420.80 1.889
420.90 1.888
421.00 1.886
421.10 1.885
421.20 1.883
421.30 1.882
421.40 1.88
421.50 1.879
421.60 1.877
421.70 1.876
421.80 1.874
421.90 1.872
422.00 1.871
422.10 1.869
422.20 1.867
422.30 1.866
422.40 1.864
422.50 1.862
422.60 1.861
422.70 1.859
422.80 1.857
422.90 1.855
423.00 1.853
423.10 1.852
423.20 1.85
423.30 1.848
423.40 1.846
423.50 1.844
423.60 1.842
423.70 1.841
423.80 1.839
423.90 1.837
424.00 1.835
424.10 1.833
424.20 1.831
424.30 1.829
424.40 1.827
424.50 1.825
424.60 1.823
424.70 1.821
424.80 1.818
424.90 1.816
425.00 1.814
425.10 1.812
425.20 1.81
425.30 1.808
425.40 1.805
425.50 1.803
425.60 1.801
425.70 1.798
425.80 1.796
425.90 1.794
426.00 1.791
426.10 1.789
426.20 1.786
426.30 1.784
426.40 1.781
426.50 1.779
426.60 1.776
426.70 1.774
426.80 1.771
426.90 1.768
427.00 1.765
427.10 1.763
427.20 1.76
427.30 1.757
427.40 1.754
427.50 1.751
427.60 1.748
427.70 1.745
427.80 1.742
427.90 1.738
428.00 1.735
428.10 1.732
428.20 1.729
428.30 1.725
428.40 1.722
428.50 1.718
428.60 1.714
428.70 1.711
428.80 1.707
428.90 1.703
429.00 1.699
429.10 1.695
429.20 1.691
429.30 1.687
429.40 1.683
429.50 1.678
429.60 1.674
429.70 1.669
429.80 1.664
429.90 1.66
430.00 1.655
430.10 1.65
430.20 1.645
430.30 1.639
430.40 1.634
430.50 1.629
430.60 1.623
430.70 1.617
430.80 1.611
430.90 1.605
431.00 1.599
431.10 1.593
431.20 1.586
431.30 1.58
431.40 1.573
431.50 1.566
431.60 1.559
431.70 1.552
431.80 1.544
431.90 1.537
432.00 1.529
432.10 1.521
432.20 1.513
432.30 1.504
432.40 1.496
432.50 1.487
432.60 1.479
432.70 1.47
432.80 1.461
432.90 1.451
433.00 1.442
433.10 1.433
433.20 1.423
433.30 1.414
433.40 1.405
433.50 1.395
433.60 1.386
433.70 1.377
433.80 1.367
433.90 1.356
434.00 1.344
434.10 1.344
434.20 1.354
434.30 1.362
434.40 1.37
434.50 1.377
434.60 1.384
434.70 1.391
434.80 1.398
434.90 1.405
435.00 1.412
435.10 1.419
435.20 1.426
435.30 1.433
435.40 1.439
435.50 1.446
435.60 1.452
435.70 1.458
435.80 1.464
435.90 1.47
436.00 1.475
436.10 1.481
436.20 1.486
436.30 1.491
436.40 1.495
436.50 1.5
436.60 1.504
436.70 1.508
436.80 1.512
436.90 1.516
437.00 1.52
437.10 1.523
437.20 1.527
437.30 1.53
437.40 1.533
437.50 1.536
437.60 1.539
437.70 1.541
437.80 1.544
437.90 1.546
438.00 1.548
438.10 1.551
438.20 1.553
438.30 1.554
438.40 1.556
438.50 1.558
438.60 1.559
438.70 1.561
438.80 1.562
438.90 1.564
439.00 1.565
439.10 1.566
439.20 1.567
439.30 1.568
439.40 1.569
439.50 1.569
439.60 1.57
439.70 1.571
439.80 1.571
439.90 1.572
440.00 1.572
440.10 1.573
440.20 1.573
440.30 1.573
440.40 1.573
440.50 1.573
440.60 1.574
440.70 1.574
440.80 1.574
440.90 1.574
441.00 1.573
441.10 1.573
441.20 1.573
441.30 1.573
441.40 1.573
441.50 1.572
441.60 1.572
441.70 1.572
441.80 1.571
441.90 1.571
442.00 1.57
442.10 1.57
442.20 1.569
442.30 1.569
442.40 1.568
442.50 1.568
442.60 1.567
442.70 1.567
442.80 1.566
442.90 1.565
443.00 1.565
443.10 1.564
443.20 1.563
443.30 1.562
443.40 1.562
443.50 1.561
443.60 1.56
443.70 1.559
443.80 1.558
443.90 1.558
444.00 1.557
444.10 1.556
444.20 1.555
444.30 1.554
444.40 1.553
444.50 1.552
444.60 1.551
444.70 1.55
444.80 1.55
444.90 1.549
445.00 1.548
445.10 1.547
445.20 1.546
445.30 1.545
445.40 1.544
445.50 1.543
445.60 1.542
445.70 1.541
445.80 1.54
445.90 1.539
446.00 1.538
446.10 1.536
446.20 1.535
446.30 1.534
446.40 1.533
446.50 1.532
446.60 1.531
446.70 1.53
446.80 1.529
446.90 1.528
447.00 1.527
447.10 1.526
447.20 1.525
447.30 1.524
447.40 1.522
447.50 1.521
447.60 1.52
447.70 1.519
447.80 1.518
447.90 1.517
448.00 1.516
448.10 1.515
448.20 1.513
448.30 1.512
448.40 1.511
448.50 1.51
448.60 1.509
448.70 1.508
448.80 1.507
448.90 1.506
449.00 1.504
449.10 1.503
449.20 1.502
449.30 1.501
449.40 1.5
449.50 1.499
449.60 1.497
449.70 1.496
449.80 1.495
449.90 1.494
450.00 1.493
450.10 1.492
450.20 1.49
450.30 1.489
450.40 1.488
450.50 1.487
450.60 1.486
450.70 1.485
450.80 1.483
450.90 1.482
451.00 1.481
451.10 1.48
451.20 1.479
451.30 1.478
451.40 1.476
451.50 1.475
451.60 1.474
451.70 1.473
451.80 1.472
451.90 1.471
452.00 1.469
452.10 1.468
452.20 1.467
452.30 1.466
452.40 1.465
452.50 1.464
452.60 1.462
452.70 1.461
452.80 1.46
452.90 1.459
453.00 1.458
453.10 1.457
453.20 1.455
453.30 1.454
453.40 1.453
453.50 1.452
453.60 1.451
453.70 1.449
453.80 1.448
453.90 1.447
454.00 1.446
454.10 1.445
