# Version 2.1 - nm, norm@500 to 1, cut digits, bergeron_8000_85.dat_8000
# Wavelength(nm)  Flambda(ergs/cm^s/s/nm)
300.00 1.418
300.10 1.418
300.20 1.418
300.30 1.418
300.40 1.418
300.50 1.418
300.60 1.418
300.70 1.418
300.80 1.418
300.90 1.418
301.00 1.418
301.10 1.418
301.20 1.418
301.30 1.418
301.40 1.418
301.50 1.418
301.60 1.418
301.70 1.418
301.80 1.418
301.90 1.418
302.00 1.418
302.10 1.418
302.20 1.418
302.30 1.418
302.40 1.418
302.50 1.418
302.60 1.418
302.70 1.418
302.80 1.418
302.90 1.418
303.00 1.418
303.10 1.418
303.20 1.418
303.30 1.418
303.40 1.418
303.50 1.418
303.60 1.418
303.70 1.418
303.80 1.418
303.90 1.418
304.00 1.418
304.10 1.418
304.20 1.418
304.30 1.418
304.40 1.418
304.50 1.418
304.60 1.418
304.70 1.418
304.80 1.418
304.90 1.418
305.00 1.418
305.10 1.418
305.20 1.418
305.30 1.418
305.40 1.417
305.50 1.417
305.60 1.417
305.70 1.417
305.80 1.417
305.90 1.417
306.00 1.417
306.10 1.417
306.20 1.417
306.30 1.417
306.40 1.417
306.50 1.417
306.60 1.417
306.70 1.417
306.80 1.417
306.90 1.417
307.00 1.417
307.10 1.417
307.20 1.417
307.30 1.417
307.40 1.417
307.50 1.417
307.60 1.417
307.70 1.417
307.80 1.417
307.90 1.417
308.00 1.417
308.10 1.417
308.20 1.417
308.30 1.417
308.40 1.417
308.50 1.417
308.60 1.417
308.70 1.417
308.80 1.416
308.90 1.416
309.00 1.416
309.10 1.416
309.20 1.416
309.30 1.416
309.40 1.416
309.50 1.416
309.60 1.416
309.70 1.416
309.80 1.416
309.90 1.416
310.00 1.416
310.10 1.416
310.20 1.416
310.30 1.416
310.40 1.416
310.50 1.416
310.60 1.416
310.70 1.416
310.80 1.416
310.90 1.416
311.00 1.415
311.10 1.415
311.20 1.415
311.30 1.415
311.40 1.415
311.50 1.415
311.60 1.415
311.70 1.415
311.80 1.415
311.90 1.415
312.00 1.415
312.10 1.415
312.20 1.415
312.30 1.415
312.40 1.415
312.50 1.415
312.60 1.415
312.70 1.414
312.80 1.414
312.90 1.414
313.00 1.414
313.10 1.414
313.20 1.414
313.30 1.414
313.40 1.414
313.50 1.414
313.60 1.414
313.70 1.414
313.80 1.414
313.90 1.414
314.00 1.414
314.10 1.413
314.20 1.413
314.30 1.413
314.40 1.413
314.50 1.413
314.60 1.413
314.70 1.413
314.80 1.413
314.90 1.413
315.00 1.413
315.10 1.413
315.20 1.413
315.30 1.413
315.40 1.413
315.50 1.412
315.60 1.412
315.70 1.412
315.80 1.412
315.90 1.412
316.00 1.412
316.10 1.412
316.20 1.412
316.30 1.412
316.40 1.412
316.50 1.412
316.60 1.412
316.70 1.412
316.80 1.411
316.90 1.411
317.00 1.411
317.10 1.411
317.20 1.411
317.30 1.411
317.40 1.411
317.50 1.411
317.60 1.411
317.70 1.411
317.80 1.411
317.90 1.411
318.00 1.41
318.10 1.41
318.20 1.41
318.30 1.41
318.40 1.41
318.50 1.41
318.60 1.41
318.70 1.41
318.80 1.41
318.90 1.41
319.00 1.41
319.10 1.409
319.20 1.409
319.30 1.409
319.40 1.409
319.50 1.409
319.60 1.409
319.70 1.409
319.80 1.409
319.90 1.409
320.00 1.409
320.10 1.408
320.20 1.408
320.30 1.408
320.40 1.408
320.50 1.408
320.60 1.408
320.70 1.408
320.80 1.408
320.90 1.408
321.00 1.407
321.10 1.407
321.20 1.407
321.30 1.407
321.40 1.407
321.50 1.407
321.60 1.407
321.70 1.407
321.80 1.407
321.90 1.407
322.00 1.406
322.10 1.406
322.20 1.406
322.30 1.406
322.40 1.406
322.50 1.406
322.60 1.406
322.70 1.406
322.80 1.405
322.90 1.405
323.00 1.405
323.10 1.405
323.20 1.405
323.30 1.405
323.40 1.405
323.50 1.405
323.60 1.405
323.70 1.404
323.80 1.404
323.90 1.404
324.00 1.404
324.10 1.404
324.20 1.404
324.30 1.404
324.40 1.404
324.50 1.403
324.60 1.403
324.70 1.403
324.80 1.403
324.90 1.403
325.00 1.403
325.10 1.403
325.20 1.403
325.30 1.403
325.40 1.402
325.50 1.402
325.60 1.402
325.70 1.402
325.80 1.402
325.90 1.402
326.00 1.402
326.10 1.402
326.20 1.401
326.30 1.401
326.40 1.401
326.50 1.401
326.60 1.401
326.70 1.401
326.80 1.401
326.90 1.4
327.00 1.4
327.10 1.4
327.20 1.4
327.30 1.4
327.40 1.4
327.50 1.4
327.60 1.399
327.70 1.399
327.80 1.399
327.90 1.399
328.00 1.399
328.10 1.399
328.20 1.399
328.30 1.399
328.40 1.398
328.50 1.398
328.60 1.398
328.70 1.398
328.80 1.398
328.90 1.398
329.00 1.398
329.10 1.397
329.20 1.397
329.30 1.397
329.40 1.397
329.50 1.397
329.60 1.397
329.70 1.397
329.80 1.396
329.90 1.396
330.00 1.396
330.10 1.396
330.20 1.396
330.30 1.396
330.40 1.396
330.50 1.395
330.60 1.395
330.70 1.395
330.80 1.395
330.90 1.395
331.00 1.395
331.10 1.395
331.20 1.394
331.30 1.394
331.40 1.394
331.50 1.394
331.60 1.394
331.70 1.394
331.80 1.393
331.90 1.393
332.00 1.393
332.10 1.393
332.20 1.393
332.30 1.393
332.40 1.393
332.50 1.392
332.60 1.392
332.70 1.392
332.80 1.392
332.90 1.392
333.00 1.392
333.10 1.391
333.20 1.391
333.30 1.391
333.40 1.391
333.50 1.391
333.60 1.391
333.70 1.39
333.80 1.39
333.90 1.39
334.00 1.39
334.10 1.39
334.20 1.39
334.30 1.389
334.40 1.389
334.50 1.389
334.60 1.389
334.70 1.389
334.80 1.389
334.90 1.388
335.00 1.388
335.10 1.388
335.20 1.388
335.30 1.388
335.40 1.388
335.50 1.387
335.60 1.387
335.70 1.387
335.80 1.387
335.90 1.387
336.00 1.387
336.10 1.386
336.20 1.386
336.30 1.386
336.40 1.386
336.50 1.386
336.60 1.386
336.70 1.385
336.80 1.385
336.90 1.385
337.00 1.385
337.10 1.385
337.20 1.385
337.30 1.384
337.40 1.384
337.50 1.384
337.60 1.384
337.70 1.384
337.80 1.384
337.90 1.383
338.00 1.383
338.10 1.383
338.20 1.383
338.30 1.383
338.40 1.382
338.50 1.382
338.60 1.382
338.70 1.382
338.80 1.382
338.90 1.382
339.00 1.381
339.10 1.381
339.20 1.381
339.30 1.381
339.40 1.381
339.50 1.38
339.60 1.38
339.70 1.38
339.80 1.38
339.90 1.38
340.00 1.38
340.10 1.379
340.20 1.379
340.30 1.379
340.40 1.379
340.50 1.379
340.60 1.378
340.70 1.378
340.80 1.378
340.90 1.378
341.00 1.378
341.10 1.377
341.20 1.377
341.30 1.377
341.40 1.377
341.50 1.377
341.60 1.377
341.70 1.376
341.80 1.376
341.90 1.376
342.00 1.376
342.10 1.376
342.20 1.375
342.30 1.375
342.40 1.375
342.50 1.375
342.60 1.375
342.70 1.374
342.80 1.374
342.90 1.374
343.00 1.374
343.10 1.374
343.20 1.373
343.30 1.373
343.40 1.373
343.50 1.373
343.60 1.373
343.70 1.372
343.80 1.372
343.90 1.372
344.00 1.372
344.10 1.372
344.20 1.371
344.30 1.371
344.40 1.371
344.50 1.371
344.60 1.371
344.70 1.37
344.80 1.37
344.90 1.37
345.00 1.37
345.10 1.37
345.20 1.369
345.30 1.369
345.40 1.369
345.50 1.369
345.60 1.369
345.70 1.368
345.80 1.368
345.90 1.368
346.00 1.368
346.10 1.368
346.20 1.367
346.30 1.367
346.40 1.367
346.50 1.367
346.60 1.367
346.70 1.366
346.80 1.366
346.90 1.366
347.00 1.366
347.10 1.366
347.20 1.365
347.30 1.365
347.40 1.365
347.50 1.365
347.60 1.365
347.70 1.364
347.80 1.364
347.90 1.364
348.00 1.364
348.10 1.363
348.20 1.363
348.30 1.363
348.40 1.363
348.50 1.363
348.60 1.362
348.70 1.362
348.80 1.362
348.90 1.362
349.00 1.362
349.10 1.361
349.20 1.361
349.30 1.361
349.40 1.361
349.50 1.36
349.60 1.36
349.70 1.36
349.80 1.36
349.90 1.36
350.00 1.359
350.10 1.359
350.20 1.359
350.30 1.359
350.40 1.359
350.50 1.358
350.60 1.358
350.70 1.358
350.80 1.358
350.90 1.357
351.00 1.357
351.10 1.357
351.20 1.357
351.30 1.357
351.40 1.356
351.50 1.356
351.60 1.356
351.70 1.356
351.80 1.355
351.90 1.355
352.00 1.355
352.10 1.355
352.20 1.355
352.30 1.354
352.40 1.354
352.50 1.354
352.60 1.354
352.70 1.353
352.80 1.353
352.90 1.353
353.00 1.353
353.10 1.353
353.20 1.352
353.30 1.352
353.40 1.352
353.50 1.352
353.60 1.351
353.70 1.351
353.80 1.351
353.90 1.351
354.00 1.35
354.10 1.35
354.20 1.35
354.30 1.35
354.40 1.35
354.50 1.349
354.60 1.349
354.70 1.349
354.80 1.349
354.90 1.348
355.00 1.348
355.10 1.348
355.20 1.348
355.30 1.348
355.40 1.347
355.50 1.347
355.60 1.347
355.70 1.347
355.80 1.346
355.90 1.346
356.00 1.346
356.10 1.346
356.20 1.345
356.30 1.345
356.40 1.345
356.50 1.345
356.60 1.344
356.70 1.344
356.80 1.344
356.90 1.344
357.00 1.344
357.10 1.343
357.20 1.343
357.30 1.343
357.40 1.343
357.50 1.342
357.60 1.342
357.70 1.342
357.80 1.342
357.90 1.341
358.00 1.341
358.10 1.341
358.20 1.341
358.30 1.341
358.40 1.34
358.50 1.34
358.60 1.34
358.70 1.34
358.80 1.339
358.90 1.339
359.00 1.339
359.10 1.339
359.20 1.338
359.30 1.338
359.40 1.338
359.50 1.338
359.60 1.337
359.70 1.337
359.80 1.337
359.90 1.337
360.00 1.336
360.10 1.336
360.20 1.336
360.30 1.336
360.40 1.335
360.50 1.335
360.60 1.335
360.70 1.335
360.80 1.334
360.90 1.334
361.00 1.334
361.10 1.334
361.20 1.333
361.30 1.333
361.40 1.333
361.50 1.333
361.60 1.332
361.70 1.332
361.80 1.332
361.90 1.332
362.00 1.331
362.10 1.331
362.20 1.331
362.30 1.331
362.40 1.331
362.50 1.33
362.60 1.33
362.70 1.33
362.80 1.33
362.90 1.329
363.00 1.329
363.10 1.329
363.20 1.328
363.30 1.328
363.40 1.328
363.50 1.328
363.60 1.327
363.70 1.327
363.80 1.327
363.90 1.327
364.00 1.326
364.10 1.326
364.20 1.326
364.30 1.325
364.40 1.325
364.50 1.325
364.60 1.325
364.70 1.324
364.80 1.324
364.90 1.324
365.00 1.323
365.10 1.323
365.20 1.323
365.30 1.323
365.40 1.322
365.50 1.322
365.60 1.322
365.70 1.322
365.80 1.321
365.90 1.321
366.00 1.321
366.10 1.32
366.20 1.32
366.30 1.32
366.40 1.32
366.50 1.319
366.60 1.319
366.70 1.319
366.80 1.319
366.90 1.318
367.00 1.318
367.10 1.318
367.20 1.318
367.30 1.317
367.40 1.317
367.50 1.317
367.60 1.316
367.70 1.316
367.80 1.316
367.90 1.316
368.00 1.315
368.10 1.315
368.20 1.315
368.30 1.315
368.40 1.314
368.50 1.314
368.60 1.314
368.70 1.314
368.80 1.313
368.90 1.313
369.00 1.313
369.10 1.313
369.20 1.312
369.30 1.312
369.40 1.312
369.50 1.312
369.60 1.311
369.70 1.311
369.80 1.311
369.90 1.311
370.00 1.31
370.10 1.31
370.20 1.31
370.30 1.31
370.40 1.309
370.50 1.309
370.60 1.309
370.70 1.309
370.80 1.309
370.90 1.308
371.00 1.308
371.10 1.308
371.20 1.308
371.30 1.307
371.40 1.307
371.50 1.307
371.60 1.307
371.70 1.306
371.80 1.306
371.90 1.306
372.00 1.306
372.10 1.306
372.20 1.305
372.30 1.305
372.40 1.305
372.50 1.305
372.60 1.305
372.70 1.305
372.80 1.304
372.90 1.304
373.00 1.304
373.10 1.304
373.20 1.304
373.30 1.304
373.40 1.304
373.50 1.303
373.60 1.303
373.70 1.303
373.80 1.303
373.90 1.303
374.00 1.303
374.10 1.303
374.20 1.303
374.30 1.302
374.40 1.302
374.50 1.302
374.60 1.302
374.70 1.302
374.80 1.302
374.90 1.302
375.00 1.302
375.10 1.302
375.20 1.302
375.30 1.302
375.40 1.302
375.50 1.302
375.60 1.302
375.70 1.302
375.80 1.302
375.90 1.302
376.00 1.302
376.10 1.302
376.20 1.302
376.30 1.302
376.40 1.302
376.50 1.302
376.60 1.302
376.70 1.302
376.80 1.302
376.90 1.302
377.00 1.302
377.10 1.302
377.20 1.302
377.30 1.302
377.40 1.302
377.50 1.301
377.60 1.301
377.70 1.301
377.80 1.301
377.90 1.301
378.00 1.301
378.10 1.3
378.20 1.299
378.30 1.298
378.40 1.297
378.50 1.296
378.60 1.295
378.70 1.294
378.80 1.294
378.90 1.293
379.00 1.292
379.10 1.29
379.20 1.288
379.30 1.286
379.40 1.283
379.50 1.281
379.60 1.279
379.70 1.277
379.80 1.275
379.90 1.273
380.00 1.271
380.10 1.274
380.20 1.276
380.30 1.279
380.40 1.282
380.50 1.284
380.60 1.287
380.70 1.29
380.80 1.292
380.90 1.295
381.00 1.298
381.10 1.298
381.20 1.298
381.30 1.299
381.40 1.299
381.50 1.299
381.60 1.299
381.70 1.299
381.80 1.298
381.90 1.298
382.00 1.297
382.10 1.295
382.20 1.294
382.30 1.29
382.40 1.285
382.50 1.281
382.60 1.276
382.70 1.272
382.80 1.267
382.90 1.263
383.00 1.258
383.10 1.254
383.20 1.249
383.30 1.238
383.40 1.223
383.50 1.202
383.60 1.207
383.70 1.227
383.80 1.242
383.90 1.252
384.00 1.261
384.10 1.268
384.20 1.274
384.30 1.279
384.40 1.284
384.50 1.287
384.60 1.291
384.70 1.293
384.80 1.296
384.90 1.298
385.00 1.299
385.10 1.301
385.20 1.302
385.30 1.303
385.40 1.303
385.50 1.304
385.60 1.304
385.70 1.305
385.80 1.305
385.90 1.305
386.00 1.304
386.10 1.304
386.20 1.304
386.30 1.303
386.40 1.302
386.50 1.302
386.60 1.3
386.70 1.299
386.80 1.298
386.90 1.296
387.00 1.294
387.10 1.292
387.20 1.29
387.30 1.287
387.40 1.285
387.50 1.281
387.60 1.277
387.70 1.273
387.80 1.268
387.90 1.262
388.00 1.255
388.10 1.247
388.20 1.237
388.30 1.226
388.40 1.212
388.50 1.195
388.60 1.177
388.70 1.15
388.80 1.116
388.90 1.077
389.00 1.114
389.10 1.147
389.20 1.175
389.30 1.194
389.40 1.211
389.50 1.225
389.60 1.236
389.70 1.246
389.80 1.255
389.90 1.262
390.00 1.268
390.10 1.273
390.20 1.278
390.30 1.282
390.40 1.285
390.50 1.288
390.60 1.291
390.70 1.294
390.80 1.296
390.90 1.298
391.00 1.3
391.10 1.301
391.20 1.303
391.30 1.304
391.40 1.305
391.50 1.307
391.60 1.307
391.70 1.308
391.80 1.309
391.90 1.31
392.00 1.31
392.10 1.311
392.20 1.311
392.30 1.311
392.40 1.311
392.50 1.311
392.60 1.311
392.70 1.311
392.80 1.311
392.90 1.31
393.00 1.31
393.10 1.309
393.20 1.309
393.30 1.308
393.40 1.307
393.50 1.306
393.60 1.305
393.70 1.304
393.80 1.303
393.90 1.301
394.00 1.3
394.10 1.298
394.20 1.296
394.30 1.294
394.40 1.292
394.50 1.29
394.60 1.287
394.70 1.284
394.80 1.281
394.90 1.278
395.00 1.274
395.10 1.27
395.20 1.266
395.30 1.261
395.40 1.256
395.50 1.25
395.60 1.244
395.70 1.237
395.80 1.229
395.90 1.22
396.00 1.21
396.10 1.199
396.20 1.185
396.30 1.169
396.40 1.15
396.50 1.125
396.60 1.095
396.70 1.06
396.80 1.01
396.90 0.9453
397.00 0.8651
397.10 0.9391
397.20 1.002
397.30 1.054
397.40 1.089
397.50 1.12
397.60 1.146
397.70 1.165
397.80 1.181
397.90 1.195
398.00 1.206
398.10 1.216
398.20 1.225
398.30 1.232
398.40 1.239
398.50 1.245
398.60 1.251
398.70 1.256
398.80 1.26
398.90 1.264
399.00 1.268
399.10 1.272
399.20 1.275
399.30 1.278
399.40 1.28
399.50 1.283
399.60 1.285
399.70 1.287
399.80 1.289
399.90 1.291
400.00 1.292
400.10 1.294
400.20 1.295
400.30 1.297
400.40 1.298
400.50 1.299
400.60 1.3
400.70 1.3
400.80 1.301
400.90 1.302
401.00 1.303
401.10 1.303
401.20 1.304
401.30 1.304
401.40 1.305
401.50 1.305
401.60 1.305
401.70 1.305
401.80 1.306
401.90 1.306
402.00 1.306
402.10 1.306
402.20 1.306
402.30 1.306
402.40 1.306
402.50 1.306
402.60 1.306
402.70 1.306
402.80 1.306
402.90 1.306
403.00 1.306
403.10 1.305
403.20 1.305
403.30 1.305
403.40 1.305
403.50 1.304
403.60 1.304
403.70 1.304
403.80 1.303
403.90 1.303
404.00 1.303
404.10 1.302
404.20 1.302
404.30 1.301
404.40 1.301
404.50 1.3
404.60 1.299
404.70 1.299
404.80 1.298
404.90 1.297
405.00 1.297
405.10 1.296
405.20 1.295
405.30 1.294
405.40 1.293
405.50 1.292
405.60 1.291
405.70 1.29
405.80 1.289
405.90 1.288
406.00 1.286
406.10 1.285
406.20 1.284
406.30 1.282
406.40 1.28
406.50 1.279
406.60 1.277
406.70 1.275
406.80 1.273
406.90 1.271
407.00 1.268
407.10 1.266
407.20 1.263
407.30 1.26
407.40 1.257
407.50 1.254
407.60 1.25
407.70 1.246
407.80 1.242
407.90 1.238
408.00 1.233
408.10 1.228
408.20 1.222
408.30 1.216
408.40 1.209
408.50 1.201
408.60 1.193
408.70 1.185
408.80 1.175
408.90 1.164
409.00 1.153
409.10 1.14
409.20 1.125
409.30 1.108
409.40 1.087
409.50 1.063
409.60 1.035
409.70 0.9962
409.80 0.9484
409.90 0.892
410.00 0.8069
410.10 0.7229
410.20 0.64
410.30 0.7585
410.40 0.8537
410.50 0.9254
410.60 0.9745
410.70 1.016
410.80 1.05
410.90 1.074
411.00 1.096
411.10 1.114
411.20 1.129
411.30 1.142
411.40 1.155
411.50 1.165
411.60 1.174
411.70 1.183
411.80 1.191
411.90 1.198
412.00 1.204
412.10 1.21
412.20 1.215
412.30 1.22
412.40 1.225
412.50 1.229
412.60 1.233
412.70 1.236
412.80 1.239
412.90 1.242
413.00 1.245
413.10 1.247
413.20 1.249
413.30 1.251
413.40 1.253
413.50 1.255
413.60 1.257
413.70 1.258
413.80 1.259
413.90 1.261
414.00 1.262
414.10 1.263
414.20 1.264
414.30 1.264
414.40 1.265
414.50 1.266
414.60 1.267
414.70 1.267
414.80 1.268
414.90 1.268
415.00 1.269
415.10 1.269
415.20 1.269
415.30 1.27
415.40 1.27
415.50 1.27
415.60 1.271
415.70 1.271
415.80 1.271
415.90 1.271
416.00 1.271
416.10 1.271
416.20 1.271
416.30 1.271
416.40 1.271
416.50 1.271
416.60 1.271
416.70 1.271
416.80 1.271
416.90 1.271
417.00 1.271
417.10 1.271
417.20 1.271
417.30 1.271
417.40 1.271
417.50 1.271
417.60 1.271
417.70 1.27
417.80 1.27
417.90 1.27
418.00 1.27
418.10 1.27
418.20 1.27
418.30 1.269
418.40 1.269
418.50 1.269
418.60 1.269
418.70 1.269
418.80 1.268
418.90 1.268
419.00 1.268
419.10 1.268
419.20 1.267
419.30 1.267
419.40 1.267
419.50 1.267
419.60 1.266
419.70 1.266
419.80 1.266
419.90 1.266
420.00 1.265
420.10 1.265
420.20 1.265
420.30 1.264
420.40 1.264
420.50 1.264
420.60 1.264
420.70 1.263
420.80 1.263
420.90 1.263
421.00 1.262
421.10 1.262
421.20 1.262
421.30 1.261
421.40 1.261
421.50 1.261
421.60 1.26
421.70 1.26
421.80 1.26
421.90 1.259
422.00 1.259
422.10 1.259
422.20 1.258
422.30 1.258
422.40 1.258
422.50 1.257
422.60 1.257
422.70 1.257
422.80 1.256
422.90 1.256
423.00 1.255
423.10 1.255
423.20 1.255
423.30 1.254
423.40 1.254
423.50 1.254
423.60 1.253
423.70 1.253
423.80 1.252
423.90 1.252
424.00 1.252
424.10 1.251
424.20 1.251
424.30 1.25
424.40 1.25
424.50 1.25
424.60 1.249
424.70 1.249
424.80 1.248
424.90 1.248
425.00 1.247
425.10 1.247
425.20 1.247
425.30 1.246
425.40 1.246
425.50 1.245
425.60 1.245
425.70 1.244
425.80 1.244
425.90 1.243
426.00 1.243
426.10 1.242
426.20 1.242
426.30 1.241
426.40 1.241
426.50 1.24
426.60 1.24
426.70 1.239
426.80 1.238
426.90 1.238
427.00 1.237
427.10 1.237
427.20 1.236
427.30 1.235
427.40 1.235
427.50 1.234
427.60 1.233
427.70 1.233
427.80 1.232
427.90 1.231
428.00 1.23
428.10 1.23
428.20 1.229
428.30 1.228
428.40 1.227
428.50 1.226
428.60 1.225
428.70 1.224
428.80 1.224
428.90 1.222
429.00 1.221
429.10 1.22
429.20 1.219
429.30 1.218
429.40 1.217
429.50 1.215
429.60 1.214
429.70 1.213
429.80 1.211
429.90 1.21
430.00 1.208
430.10 1.206
430.20 1.204
430.30 1.202
430.40 1.2
430.50 1.198
430.60 1.196
430.70 1.194
430.80 1.191
430.90 1.188
431.00 1.185
431.10 1.182
431.20 1.179
431.30 1.175
431.40 1.172
431.50 1.168
431.60 1.163
431.70 1.159
431.80 1.154
431.90 1.148
432.00 1.142
432.10 1.135
432.20 1.128
432.30 1.12
432.40 1.111
432.50 1.101
432.60 1.09
432.70 1.078
432.80 1.064
432.90 1.049
433.00 1.033
433.10 1.014
433.20 0.9929
433.30 0.9701
433.40 0.9405
433.50 0.9046
433.60 0.8626
433.70 0.798
433.80 0.7176
433.90 0.6214
434.00 0.5003
434.10 0.5034
434.20 0.6305
434.30 0.7245
434.40 0.8029
434.50 0.8656
434.60 0.9063
434.70 0.9409
434.80 0.9696
434.90 0.9916
435.00 1.012
435.10 1.03
435.20 1.045
435.30 1.06
435.40 1.073
435.50 1.084
435.60 1.094
435.70 1.104
435.80 1.112
435.90 1.119
436.00 1.126
436.10 1.131
436.20 1.137
436.30 1.142
436.40 1.146
436.50 1.15
436.60 1.153
436.70 1.157
436.80 1.16
436.90 1.163
437.00 1.165
437.10 1.167
437.20 1.17
437.30 1.172
437.40 1.173
437.50 1.175
437.60 1.177
437.70 1.178
437.80 1.179
437.90 1.181
438.00 1.182
438.10 1.183
438.20 1.184
438.30 1.185
438.40 1.185
438.50 1.186
438.60 1.187
438.70 1.187
438.80 1.188
438.90 1.188
439.00 1.189
439.10 1.189
439.20 1.19
439.30 1.19
439.40 1.19
439.50 1.19
439.60 1.191
439.70 1.191
439.80 1.191
439.90 1.191
440.00 1.191
440.10 1.191
440.20 1.191
440.30 1.191
440.40 1.191
440.50 1.191
440.60 1.191
440.70 1.191
440.80 1.191
440.90 1.191
441.00 1.191
441.10 1.191
441.20 1.191
441.30 1.191
441.40 1.191
441.50 1.191
441.60 1.191
441.70 1.19
441.80 1.19
441.90 1.19
442.00 1.19
442.10 1.19
442.20 1.19
442.30 1.19
442.40 1.189
442.50 1.189
442.60 1.189
442.70 1.189
442.80 1.188
442.90 1.188
443.00 1.188
443.10 1.188
443.20 1.188
443.30 1.187
443.40 1.187
443.50 1.187
443.60 1.187
443.70 1.186
443.80 1.186
443.90 1.186
444.00 1.186
444.10 1.185
444.20 1.185
444.30 1.185
444.40 1.185
444.50 1.184
444.60 1.184
444.70 1.184
444.80 1.184
444.90 1.183
445.00 1.183
445.10 1.183
445.20 1.183
445.30 1.182
445.40 1.182
445.50 1.182
445.60 1.181
445.70 1.181
445.80 1.181
445.90 1.18
446.00 1.18
446.10 1.18
446.20 1.18
446.30 1.179
446.40 1.179
446.50 1.179
446.60 1.178
446.70 1.178
446.80 1.178
446.90 1.178
447.00 1.177
447.10 1.177
447.20 1.177
447.30 1.176
447.40 1.176
447.50 1.176
447.60 1.175
447.70 1.175
447.80 1.175
447.90 1.174
448.00 1.174
448.10 1.174
448.20 1.174
448.30 1.173
448.40 1.173
448.50 1.173
448.60 1.172
448.70 1.172
448.80 1.172
448.90 1.171
449.00 1.171
449.10 1.171
449.20 1.17
449.30 1.17
449.40 1.17
449.50 1.169
449.60 1.169
449.70 1.169
449.80 1.168
449.90 1.168
450.00 1.168
450.10 1.168
450.20 1.167
450.30 1.167
450.40 1.167
450.50 1.166
450.60 1.166
450.70 1.166
450.80 1.165
450.90 1.165
451.00 1.165
451.10 1.164
451.20 1.164
451.30 1.164
451.40 1.163
451.50 1.163
451.60 1.163
451.70 1.162
451.80 1.162
451.90 1.162
452.00 1.161
452.10 1.161
452.20 1.161
452.30 1.16
452.40 1.16
452.50 1.16
452.60 1.159
452.70 1.159
452.80 1.159
452.90 1.158
453.00 1.158
453.10 1.158
453.20 1.157
453.30 1.157
453.40 1.157
453.50 1.156
453.60 1.156
453.70 1.156
453.80 1.155
