# Version 2.1 - nm, norm@500 to 1, cut digits, bergeron_2500_85.dat_2500
# Wavelength(nm)  Flambda(ergs/cm^s/s/nm)
300.00 0.07773
300.10 0.07794
300.20 0.07815
300.30 0.07836
300.40 0.07858
300.50 0.07879
300.60 0.079
300.70 0.07921
300.80 0.07943
300.90 0.07964
301.00 0.07985
301.10 0.08006
301.20 0.08027
301.30 0.08048
301.40 0.08069
301.50 0.0809
301.60 0.08111
301.70 0.08132
301.80 0.08153
301.90 0.08174
302.00 0.08196
302.10 0.08217
302.20 0.08239
302.30 0.08261
302.40 0.08283
302.50 0.08305
302.60 0.08327
302.70 0.08349
302.80 0.08371
302.90 0.08393
303.00 0.08415
303.10 0.08437
303.20 0.08459
303.30 0.0848
303.40 0.08502
303.50 0.08524
303.60 0.08546
303.70 0.08567
303.80 0.08589
303.90 0.08611
304.00 0.08633
304.10 0.08655
304.20 0.08678
304.30 0.08701
304.40 0.08723
304.50 0.08746
304.60 0.08769
304.70 0.08792
304.80 0.08814
304.90 0.08837
305.00 0.0886
305.10 0.08882
305.20 0.08905
305.30 0.08927
305.40 0.0895
305.50 0.08972
305.60 0.08995
305.70 0.09017
305.80 0.09039
305.90 0.09062
306.00 0.09085
306.10 0.09108
306.20 0.09131
306.30 0.09155
306.40 0.09178
306.50 0.09202
306.60 0.09225
306.70 0.09249
306.80 0.09272
306.90 0.09295
307.00 0.09319
307.10 0.09342
307.20 0.09365
307.30 0.09388
307.40 0.09412
307.50 0.09435
307.60 0.09458
307.70 0.09481
307.80 0.09504
307.90 0.09527
308.00 0.09551
308.10 0.09575
308.20 0.09599
308.30 0.09623
308.40 0.09647
308.50 0.09672
308.60 0.09696
308.70 0.0972
308.80 0.09744
308.90 0.09768
309.00 0.09792
309.10 0.09816
309.20 0.0984
309.30 0.09864
309.40 0.09888
309.50 0.09912
309.60 0.09936
309.70 0.0996
309.80 0.09983
309.90 0.1001
310.00 0.1003
310.10 0.1006
310.20 0.1008
310.30 0.1011
310.40 0.1013
310.50 0.1016
310.60 0.1018
310.70 0.1021
310.80 0.1023
310.90 0.1026
311.00 0.1028
311.10 0.1031
311.20 0.1033
311.30 0.1036
311.40 0.1038
311.50 0.104
311.60 0.1043
311.70 0.1045
311.80 0.1048
311.90 0.105
312.00 0.1053
312.10 0.1055
312.20 0.1058
312.30 0.106
312.40 0.1063
312.50 0.1065
312.60 0.1068
312.70 0.1071
312.80 0.1073
312.90 0.1076
313.00 0.1078
313.10 0.1081
313.20 0.1083
313.30 0.1086
313.40 0.1088
313.50 0.1091
313.60 0.1094
313.70 0.1096
313.80 0.1099
313.90 0.1101
314.00 0.1104
314.10 0.1106
314.20 0.1109
314.30 0.1112
314.40 0.1114
314.50 0.1117
314.60 0.112
314.70 0.1122
314.80 0.1125
314.90 0.1127
315.00 0.113
315.10 0.1133
315.20 0.1135
315.30 0.1138
315.40 0.1141
315.50 0.1143
315.60 0.1146
315.70 0.1148
315.80 0.1151
315.90 0.1154
316.00 0.1156
316.10 0.1159
316.20 0.1162
316.30 0.1164
316.40 0.1167
316.50 0.117
316.60 0.1173
316.70 0.1175
316.80 0.1178
316.90 0.1181
317.00 0.1183
317.10 0.1186
317.20 0.1189
317.30 0.1191
317.40 0.1194
317.50 0.1197
317.60 0.1199
317.70 0.1202
317.80 0.1205
317.90 0.1208
318.00 0.121
318.10 0.1213
318.20 0.1216
318.30 0.1219
318.40 0.1221
318.50 0.1224
318.60 0.1227
318.70 0.123
318.80 0.1233
318.90 0.1235
319.00 0.1238
319.10 0.1241
319.20 0.1244
319.30 0.1246
319.40 0.1249
319.50 0.1252
319.60 0.1255
319.70 0.1257
319.80 0.126
319.90 0.1263
320.00 0.1266
320.10 0.1269
320.20 0.1271
320.30 0.1274
320.40 0.1277
320.50 0.128
320.60 0.1283
320.70 0.1286
320.80 0.1289
320.90 0.1291
321.00 0.1294
321.10 0.1297
321.20 0.13
321.30 0.1303
321.40 0.1306
321.50 0.1308
321.60 0.1311
321.70 0.1314
321.80 0.1317
321.90 0.132
322.00 0.1323
322.10 0.1326
322.20 0.1328
322.30 0.1331
322.40 0.1334
322.50 0.1337
322.60 0.134
322.70 0.1343
322.80 0.1346
322.90 0.1349
323.00 0.1352
323.10 0.1355
323.20 0.1358
323.30 0.1361
323.40 0.1364
323.50 0.1366
323.60 0.1369
323.70 0.1372
323.80 0.1375
323.90 0.1378
324.00 0.1381
324.10 0.1384
324.20 0.1387
324.30 0.139
324.40 0.1393
324.50 0.1396
324.60 0.1399
324.70 0.1402
324.80 0.1405
324.90 0.1408
325.00 0.1411
325.10 0.1414
325.20 0.1417
325.30 0.142
325.40 0.1423
325.50 0.1426
325.60 0.1429
325.70 0.1432
325.80 0.1435
325.90 0.1438
326.00 0.1441
326.10 0.1444
326.20 0.1447
326.30 0.145
326.40 0.1453
326.50 0.1456
326.60 0.1459
326.70 0.1462
326.80 0.1466
326.90 0.1469
327.00 0.1472
327.10 0.1475
327.20 0.1478
327.30 0.1481
327.40 0.1484
327.50 0.1487
327.60 0.149
327.70 0.1493
327.80 0.1496
327.90 0.1499
328.00 0.1502
328.10 0.1505
328.20 0.1508
328.30 0.1512
328.40 0.1515
328.50 0.1518
328.60 0.1521
328.70 0.1524
328.80 0.1527
328.90 0.1531
329.00 0.1534
329.10 0.1537
329.20 0.154
329.30 0.1543
329.40 0.1546
329.50 0.1549
329.60 0.1552
329.70 0.1556
329.80 0.1559
329.90 0.1562
330.00 0.1565
330.10 0.1568
330.20 0.1571
330.30 0.1575
330.40 0.1578
330.50 0.1581
330.60 0.1584
330.70 0.1588
330.80 0.1591
330.90 0.1594
331.00 0.1597
331.10 0.16
331.20 0.1604
331.30 0.1607
331.40 0.161
331.50 0.1613
331.60 0.1616
331.70 0.162
331.80 0.1623
331.90 0.1626
332.00 0.1629
332.10 0.1632
332.20 0.1636
332.30 0.1639
332.40 0.1642
332.50 0.1646
332.60 0.1649
332.70 0.1652
332.80 0.1656
332.90 0.1659
333.00 0.1662
333.10 0.1665
333.20 0.1669
333.30 0.1672
333.40 0.1675
333.50 0.1679
333.60 0.1682
333.70 0.1685
333.80 0.1688
333.90 0.1692
334.00 0.1695
334.10 0.1698
334.20 0.1702
334.30 0.1705
334.40 0.1708
334.50 0.1712
334.60 0.1715
334.70 0.1718
334.80 0.1722
334.90 0.1725
335.00 0.1729
335.10 0.1732
335.20 0.1735
335.30 0.1739
335.40 0.1742
335.50 0.1745
335.60 0.1749
335.70 0.1752
335.80 0.1755
335.90 0.1759
336.00 0.1762
336.10 0.1765
336.20 0.1769
336.30 0.1772
336.40 0.1776
336.50 0.1779
336.60 0.1783
336.70 0.1786
336.80 0.1789
336.90 0.1793
337.00 0.1796
337.10 0.18
337.20 0.1803
337.30 0.1807
337.40 0.181
337.50 0.1813
337.60 0.1817
337.70 0.182
337.80 0.1824
337.90 0.1827
338.00 0.183
338.10 0.1834
338.20 0.1837
338.30 0.1841
338.40 0.1844
338.50 0.1848
338.60 0.1852
338.70 0.1855
338.80 0.1859
338.90 0.1862
339.00 0.1866
339.10 0.1869
339.20 0.1873
339.30 0.1876
339.40 0.1879
339.50 0.1883
339.60 0.1886
339.70 0.189
339.80 0.1893
339.90 0.1897
340.00 0.19
340.10 0.1904
340.20 0.1907
340.30 0.1911
340.40 0.1915
340.50 0.1918
340.60 0.1922
340.70 0.1925
340.80 0.1929
340.90 0.1933
341.00 0.1936
341.10 0.194
341.20 0.1943
341.30 0.1947
341.40 0.195
341.50 0.1954
341.60 0.1957
341.70 0.1961
341.80 0.1965
341.90 0.1968
342.00 0.1972
342.10 0.1975
342.20 0.1979
342.30 0.1983
342.40 0.1986
342.50 0.199
342.60 0.1994
342.70 0.1997
342.80 0.2001
342.90 0.2004
343.00 0.2008
343.10 0.2012
343.20 0.2015
343.30 0.2019
343.40 0.2023
343.50 0.2026
343.60 0.203
343.70 0.2033
343.80 0.2037
343.90 0.2041
344.00 0.2044
344.10 0.2048
344.20 0.2052
344.30 0.2055
344.40 0.2059
344.50 0.2063
344.60 0.2067
344.70 0.207
344.80 0.2074
344.90 0.2078
345.00 0.2082
345.10 0.2085
345.20 0.2089
345.30 0.2093
345.40 0.2096
345.50 0.21
345.60 0.2104
345.70 0.2107
345.80 0.2111
345.90 0.2115
346.00 0.2118
346.10 0.2122
346.20 0.2126
346.30 0.213
346.40 0.2134
346.50 0.2137
346.60 0.2141
346.70 0.2145
346.80 0.2149
346.90 0.2152
347.00 0.2156
347.10 0.216
347.20 0.2164
347.30 0.2168
347.40 0.2171
347.50 0.2175
347.60 0.2179
347.70 0.2183
347.80 0.2186
347.90 0.219
348.00 0.2194
348.10 0.2198
348.20 0.2201
348.30 0.2205
348.40 0.2209
348.50 0.2213
348.60 0.2217
348.70 0.2221
348.80 0.2225
348.90 0.2228
349.00 0.2232
349.10 0.2236
349.20 0.224
349.30 0.2244
349.40 0.2248
349.50 0.2251
349.60 0.2255
349.70 0.2259
349.80 0.2263
349.90 0.2267
350.00 0.227
350.10 0.2274
350.20 0.2278
350.30 0.2282
350.40 0.2286
350.50 0.229
350.60 0.2294
350.70 0.2298
350.80 0.2302
350.90 0.2306
351.00 0.231
351.10 0.2314
351.20 0.2317
351.30 0.2321
351.40 0.2325
351.50 0.2329
351.60 0.2333
351.70 0.2337
351.80 0.2341
351.90 0.2345
352.00 0.2348
352.10 0.2352
352.20 0.2357
352.30 0.2361
352.40 0.2365
352.50 0.2368
352.60 0.2372
352.70 0.2376
352.80 0.238
352.90 0.2384
353.00 0.2388
353.10 0.2392
353.20 0.2396
353.30 0.24
353.40 0.2404
353.50 0.2408
353.60 0.2412
353.70 0.2416
353.80 0.242
353.90 0.2424
354.00 0.2428
354.10 0.2432
354.20 0.2436
354.30 0.244
354.40 0.2444
354.50 0.2448
354.60 0.2452
354.70 0.2456
354.80 0.246
354.90 0.2464
355.00 0.2468
355.10 0.2472
355.20 0.2476
355.30 0.248
355.40 0.2484
355.50 0.2488
355.60 0.2492
355.70 0.2496
355.80 0.25
355.90 0.2504
356.00 0.2508
356.10 0.2513
356.20 0.2517
356.30 0.2521
356.40 0.2525
356.50 0.2529
356.60 0.2533
356.70 0.2537
356.80 0.2541
356.90 0.2546
357.00 0.255
357.10 0.2554
357.20 0.2558
357.30 0.2562
357.40 0.2566
357.50 0.257
357.60 0.2574
357.70 0.2578
357.80 0.2582
357.90 0.2586
358.00 0.259
358.10 0.2594
358.20 0.2599
358.30 0.2603
358.40 0.2607
358.50 0.2611
358.60 0.2615
358.70 0.262
358.80 0.2624
358.90 0.2628
359.00 0.2632
359.10 0.2636
359.20 0.264
359.30 0.2645
359.40 0.2649
359.50 0.2653
359.60 0.2657
359.70 0.2661
359.80 0.2665
359.90 0.2669
360.00 0.2673
360.10 0.2678
360.20 0.2682
360.30 0.2686
360.40 0.269
360.50 0.2695
360.60 0.2699
360.70 0.2703
360.80 0.2707
360.90 0.2712
361.00 0.2716
361.10 0.272
361.20 0.2724
361.30 0.2728
361.40 0.2733
361.50 0.2737
361.60 0.2741
361.70 0.2745
361.80 0.2749
361.90 0.2754
362.00 0.2758
362.10 0.2762
362.20 0.2766
362.30 0.2771
362.40 0.2775
362.50 0.2779
362.60 0.2783
362.70 0.2788
362.80 0.2792
362.90 0.2796
363.00 0.28
363.10 0.2805
363.20 0.2809
363.30 0.2813
363.40 0.2818
363.50 0.2822
363.60 0.2826
363.70 0.2831
363.80 0.2835
363.90 0.2839
364.00 0.2843
364.10 0.2848
364.20 0.2852
364.30 0.2856
364.40 0.2861
364.50 0.2865
364.60 0.2869
364.70 0.2874
364.80 0.2878
364.90 0.2882
365.00 0.2887
365.10 0.2891
365.20 0.2895
365.30 0.29
365.40 0.2904
365.50 0.2908
365.60 0.2913
365.70 0.2917
365.80 0.2921
365.90 0.2926
366.00 0.293
366.10 0.2934
366.20 0.2939
366.30 0.2943
366.40 0.2948
366.50 0.2952
366.60 0.2956
366.70 0.2961
366.80 0.2965
366.90 0.297
367.00 0.2974
367.10 0.2978
367.20 0.2983
367.30 0.2987
367.40 0.2992
367.50 0.2996
367.60 0.3
367.70 0.3005
367.80 0.3009
367.90 0.3013
368.00 0.3018
368.10 0.3022
368.20 0.3027
368.30 0.3031
368.40 0.3036
368.50 0.304
368.60 0.3045
368.70 0.3049
368.80 0.3054
368.90 0.3058
369.00 0.3062
369.10 0.3067
369.20 0.3071
369.30 0.3076
369.40 0.308
369.50 0.3085
369.60 0.3089
369.70 0.3093
369.80 0.3098
369.90 0.3102
370.00 0.3107
370.10 0.3111
370.20 0.3116
370.30 0.312
370.40 0.3125
370.50 0.3129
370.60 0.3134
370.70 0.3138
370.80 0.3143
370.90 0.3147
371.00 0.3152
371.10 0.3156
371.20 0.3161
371.30 0.3165
371.40 0.317
371.50 0.3174
371.60 0.3179
371.70 0.3183
371.80 0.3188
371.90 0.3192
372.00 0.3197
372.10 0.3201
372.20 0.3206
372.30 0.3211
372.40 0.3215
372.50 0.322
372.60 0.3224
372.70 0.3229
372.80 0.3233
372.90 0.3238
373.00 0.3243
373.10 0.3247
373.20 0.3252
373.30 0.3256
373.40 0.3261
373.50 0.3265
373.60 0.327
373.70 0.3274
373.80 0.3279
373.90 0.3283
374.00 0.3288
374.10 0.3293
374.20 0.3297
374.30 0.3302
374.40 0.3307
374.50 0.3311
374.60 0.3316
374.70 0.332
374.80 0.3325
374.90 0.333
375.00 0.3334
375.10 0.3339
375.20 0.3343
375.30 0.3348
375.40 0.3353
375.50 0.3357
375.60 0.3362
375.70 0.3366
375.80 0.3371
375.90 0.3375
376.00 0.338
376.10 0.3385
376.20 0.3389
376.30 0.3394
376.40 0.3399
376.50 0.3403
376.60 0.3408
376.70 0.3413
376.80 0.3417
376.90 0.3422
377.00 0.3427
377.10 0.3431
377.20 0.3436
377.30 0.3441
377.40 0.3445
377.50 0.345
377.60 0.3455
377.70 0.3459
377.80 0.3464
377.90 0.3469
378.00 0.3473
378.10 0.3478
378.20 0.3483
378.30 0.3487
378.40 0.3492
378.50 0.3497
378.60 0.3501
378.70 0.3506
378.80 0.3511
378.90 0.3516
379.00 0.352
379.10 0.3525
379.20 0.353
379.30 0.3534
379.40 0.3539
379.50 0.3544
379.60 0.3549
379.70 0.3553
379.80 0.3558
379.90 0.3563
380.00 0.3567
380.10 0.3572
380.20 0.3577
380.30 0.3582
380.40 0.3586
380.50 0.3591
380.60 0.3596
380.70 0.3601
380.80 0.3605
380.90 0.361
381.00 0.3615
381.10 0.362
381.20 0.3624
381.30 0.3629
381.40 0.3634
381.50 0.3639
381.60 0.3643
381.70 0.3648
381.80 0.3653
381.90 0.3658
382.00 0.3663
382.10 0.3667
382.20 0.3672
382.30 0.3677
382.40 0.3682
382.50 0.3687
382.60 0.3691
382.70 0.3696
382.80 0.3701
382.90 0.3706
383.00 0.3711
383.10 0.3715
383.20 0.372
383.30 0.3725
383.40 0.373
383.50 0.3735
383.60 0.3739
383.70 0.3744
383.80 0.3749
383.90 0.3754
384.00 0.3759
384.10 0.3763
384.20 0.3768
384.30 0.3773
384.40 0.3778
384.50 0.3783
384.60 0.3788
384.70 0.3793
384.80 0.3797
384.90 0.3802
385.00 0.3807
385.10 0.3812
385.20 0.3817
385.30 0.3822
385.40 0.3826
385.50 0.3831
385.60 0.3836
385.70 0.3841
385.80 0.3846
385.90 0.3851
386.00 0.3856
386.10 0.3861
386.20 0.3865
386.30 0.387
386.40 0.3875
386.50 0.388
386.60 0.3885
386.70 0.389
386.80 0.3895
386.90 0.39
387.00 0.3904
387.10 0.3909
387.20 0.3914
387.30 0.3919
387.40 0.3924
387.50 0.3929
387.60 0.3934
387.70 0.3939
387.80 0.3944
387.90 0.3949
388.00 0.3954
388.10 0.3959
388.20 0.3963
388.30 0.3968
388.40 0.3973
388.50 0.3978
388.60 0.3983
388.70 0.3988
388.80 0.3993
388.90 0.3998
389.00 0.4003
389.10 0.4008
389.20 0.4013
389.30 0.4018
389.40 0.4023
389.50 0.4028
389.60 0.4032
389.70 0.4037
389.80 0.4042
389.90 0.4047
390.00 0.4052
390.10 0.4057
390.20 0.4062
390.30 0.4067
390.40 0.4072
390.50 0.4077
390.60 0.4082
390.70 0.4087
390.80 0.4092
390.90 0.4097
391.00 0.4102
391.10 0.4107
391.20 0.4112
391.30 0.4117
391.40 0.4122
391.50 0.4127
391.60 0.4132
391.70 0.4137
391.80 0.4142
391.90 0.4147
392.00 0.4152
392.10 0.4157
392.20 0.4162
392.30 0.4167
392.40 0.4172
392.50 0.4177
392.60 0.4182
392.70 0.4187
392.80 0.4192
392.90 0.4197
393.00 0.4202
393.10 0.4207
393.20 0.4212
393.30 0.4217
393.40 0.4222
393.50 0.4227
393.60 0.4232
393.70 0.4237
393.80 0.4242
393.90 0.4247
394.00 0.4252
394.10 0.4257
394.20 0.4262
394.30 0.4267
394.40 0.4272
394.50 0.4278
394.60 0.4283
394.70 0.4288
394.80 0.4293
394.90 0.4298
395.00 0.4303
395.10 0.4308
395.20 0.4313
395.30 0.4318
395.40 0.4323
395.50 0.4328
395.60 0.4333
395.70 0.4338
395.80 0.4343
395.90 0.4348
396.00 0.4353
396.10 0.4359
396.20 0.4364
396.30 0.4369
396.40 0.4374
396.50 0.4379
396.60 0.4384
396.70 0.4389
396.80 0.4394
396.90 0.4399
397.00 0.4404
397.10 0.4409
397.20 0.4415
397.30 0.442
397.40 0.4425
397.50 0.443
397.60 0.4435
397.70 0.444
397.80 0.4445
397.90 0.445
398.00 0.4455
398.10 0.446
398.20 0.4466
398.30 0.4471
398.40 0.4476
398.50 0.4481
398.60 0.4486
398.70 0.4491
398.80 0.4496
398.90 0.4501
399.00 0.4507
399.10 0.4512
399.20 0.4517
399.30 0.4522
399.40 0.4527
399.50 0.4532
399.60 0.4537
399.70 0.4543
399.80 0.4548
399.90 0.4553
400.00 0.4558
400.10 0.4563
400.20 0.4568
400.30 0.4573
400.40 0.4579
400.50 0.4584
400.60 0.4589
400.70 0.4594
400.80 0.4599
400.90 0.4604
401.00 0.461
401.10 0.4615
401.20 0.462
401.30 0.4625
401.40 0.463
401.50 0.4635
401.60 0.4641
401.70 0.4646
401.80 0.4651
401.90 0.4656
402.00 0.4661
402.10 0.4667
402.20 0.4672
402.30 0.4677
402.40 0.4682
402.50 0.4687
402.60 0.4692
402.70 0.4698
402.80 0.4703
402.90 0.4708
403.00 0.4713
403.10 0.4718
403.20 0.4724
403.30 0.4729
403.40 0.4734
403.50 0.4739
403.60 0.4744
403.70 0.475
403.80 0.4755
403.90 0.476
404.00 0.4765
404.10 0.477
404.20 0.4776
404.30 0.4781
404.40 0.4786
404.50 0.4791
404.60 0.4797
404.70 0.4802
404.80 0.4807
404.90 0.4812
405.00 0.4818
405.10 0.4823
405.20 0.4828
405.30 0.4833
405.40 0.4838
405.50 0.4844
405.60 0.4849
405.70 0.4854
405.80 0.4859
405.90 0.4865
406.00 0.487
406.10 0.4875
406.20 0.488
406.30 0.4886
406.40 0.4891
406.50 0.4896
406.60 0.4901
406.70 0.4907
406.80 0.4912
406.90 0.4917
407.00 0.4922
407.10 0.4928
407.20 0.4933
407.30 0.4938
407.40 0.4943
407.50 0.4949
407.60 0.4954
407.70 0.4959
407.80 0.4965
407.90 0.497
408.00 0.4975
408.10 0.498
408.20 0.4986
408.30 0.4991
408.40 0.4996
408.50 0.5002
408.60 0.5007
408.70 0.5012
408.80 0.5017
408.90 0.5023
409.00 0.5028
409.10 0.5033
409.20 0.5039
409.30 0.5044
409.40 0.5049
409.50 0.5054
409.60 0.506
409.70 0.5065
409.80 0.507
409.90 0.5076
410.00 0.5081
410.10 0.5086
410.20 0.5092
410.30 0.5097
410.40 0.5102
410.50 0.5107
410.60 0.5113
410.70 0.5118
410.80 0.5123
410.90 0.5129
411.00 0.5134
411.10 0.5139
411.20 0.5145
411.30 0.515
411.40 0.5155
411.50 0.5161
411.60 0.5166
411.70 0.5171
411.80 0.5177
411.90 0.5182
412.00 0.5187
412.10 0.5193
412.20 0.5198
412.30 0.5203
412.40 0.5209
412.50 0.5214
412.60 0.5219
412.70 0.5225
412.80 0.523
412.90 0.5235
413.00 0.5241
413.10 0.5246
413.20 0.5251
413.30 0.5257
413.40 0.5262
413.50 0.5267
413.60 0.5273
413.70 0.5278
413.80 0.5283
413.90 0.5289
414.00 0.5294
414.10 0.5299
414.20 0.5305
414.30 0.531
414.40 0.5316
414.50 0.5321
414.60 0.5326
414.70 0.5332
414.80 0.5337
414.90 0.5342
415.00 0.5348
415.10 0.5353
415.20 0.5358
415.30 0.5364
415.40 0.5369
415.50 0.5375
415.60 0.538
415.70 0.5385
415.80 0.5391
415.90 0.5396
416.00 0.5401
416.10 0.5407
416.20 0.5412
416.30 0.5417
416.40 0.5423
416.50 0.5429
416.60 0.5434
416.70 0.5439
416.80 0.5444
416.90 0.545
417.00 0.5455
417.10 0.5461
417.20 0.5466
417.30 0.5471
417.40 0.5477
417.50 0.5482
417.60 0.5488
417.70 0.5493
417.80 0.5498
417.90 0.5504
418.00 0.5509
418.10 0.5515
418.20 0.552
418.30 0.5525
418.40 0.5531
418.50 0.5536
418.60 0.5542
418.70 0.5547
418.80 0.5552
418.90 0.5558
419.00 0.5563
419.10 0.5569
419.20 0.5574
419.30 0.5579
419.40 0.5585
419.50 0.559
419.60 0.5596
419.70 0.5601
419.80 0.5607
419.90 0.5612
420.00 0.5617
420.10 0.5623
420.20 0.5628
420.30 0.5634
420.40 0.5639
420.50 0.5644
420.60 0.565
420.70 0.5655
420.80 0.5661
420.90 0.5666
421.00 0.5671
421.10 0.5677
421.20 0.5683
421.30 0.5688
421.40 0.5694
421.50 0.5699
421.60 0.5704
421.70 0.571
421.80 0.5715
421.90 0.572
422.00 0.5726
422.10 0.5732
422.20 0.5737
422.30 0.5742
422.40 0.5748
422.50 0.5753
422.60 0.5759
422.70 0.5764
422.80 0.577
422.90 0.5775
423.00 0.5781
423.10 0.5786
423.20 0.5791
423.30 0.5797
423.40 0.5803
423.50 0.5808
423.60 0.5813
423.70 0.5819
423.80 0.5824
423.90 0.5829
424.00 0.5835
424.10 0.5841
424.20 0.5846
424.30 0.5851
424.40 0.5857
424.50 0.5862
424.60 0.5868
424.70 0.5873
424.80 0.5879
424.90 0.5884
425.00 0.589
425.10 0.5895
425.20 0.59
425.30 0.5906
425.40 0.5911
425.50 0.5917
425.60 0.5922
425.70 0.5928
425.80 0.5933
425.90 0.5939
426.00 0.5944
426.10 0.595
426.20 0.5955
426.30 0.5961
426.40 0.5967
426.50 0.5972
426.60 0.5977
426.70 0.5983
426.80 0.5988
426.90 0.5994
427.00 0.5999
427.10 0.6005
427.20 0.601
427.30 0.6016
427.40 0.6021
427.50 0.6027
427.60 0.6032
427.70 0.6038
427.80 0.6043
427.90 0.6048
428.00 0.6054
428.10 0.606
428.20 0.6065
428.30 0.6071
428.40 0.6076
428.50 0.6081
428.60 0.6087
428.70 0.6093
428.80 0.6098
428.90 0.6104
429.00 0.6109
429.10 0.6115
429.20 0.612
429.30 0.6125
429.40 0.6131
429.50 0.6137
429.60 0.6142
429.70 0.6147
429.80 0.6153
429.90 0.6158
430.00 0.6164
430.10 0.617
430.20 0.6175
430.30 0.6181
430.40 0.6186
430.50 0.6192
430.60 0.6197
430.70 0.6203
430.80 0.6208
430.90 0.6213
431.00 0.6219
431.10 0.6224
431.20 0.623
431.30 0.6236
431.40 0.6241
431.50 0.6247
431.60 0.6252
431.70 0.6258
431.80 0.6263
431.90 0.6269
432.00 0.6274
432.10 0.628
432.20 0.6285
432.30 0.6291
432.40 0.6296
432.50 0.6302
432.60 0.6307
432.70 0.6313
432.80 0.6318
432.90 0.6324
433.00 0.6329
433.10 0.6335
433.20 0.6341
433.30 0.6346
433.40 0.6351
433.50 0.6357
433.60 0.6363
433.70 0.6368
433.80 0.6374
433.90 0.6379
434.00 0.6385
434.10 0.639
434.20 0.6396
434.30 0.6401
434.40 0.6407
434.50 0.6413
434.60 0.6418
434.70 0.6423
434.80 0.6429
434.90 0.6435
435.00 0.644
435.10 0.6446
435.20 0.6451
435.30 0.6457
435.40 0.6462
435.50 0.6468
435.60 0.6473
435.70 0.6479
435.80 0.6484
435.90 0.649
436.00 0.6496
436.10 0.6501
436.20 0.6507
436.30 0.6512
436.40 0.6518
436.50 0.6523
436.60 0.6529
436.70 0.6534
436.80 0.654
436.90 0.6545
437.00 0.6551
437.10 0.6556
437.20 0.6562
437.30 0.6568
437.40 0.6573
437.50 0.6579
437.60 0.6584
437.70 0.659
437.80 0.6595
437.90 0.6601
438.00 0.6606
438.10 0.6612
438.20 0.6617
438.30 0.6623
438.40 0.6629
438.50 0.6634
438.60 0.664
438.70 0.6645
438.80 0.6651
438.90 0.6656
439.00 0.6662
439.10 0.6667
439.20 0.6673
439.30 0.6678
439.40 0.6684
439.50 0.669
439.60 0.6695
439.70 0.6701
439.80 0.6706
439.90 0.6712
440.00 0.6717
440.10 0.6723
440.20 0.6728
440.30 0.6734
440.40 0.674
440.50 0.6745
440.60 0.6751
440.70 0.6756
440.80 0.6762
440.90 0.6767
441.00 0.6773
441.10 0.6778
441.20 0.6784
441.30 0.679
441.40 0.6795
441.50 0.6801
441.60 0.6806
441.70 0.6812
441.80 0.6817
441.90 0.6823
442.00 0.6828
442.10 0.6834
442.20 0.6839
