# Version 2.1 - nm, norm@500 to 1, cut digits, bergeron_14500_90.dat_14500
# Wavelength(nm)  Flambda(ergs/cm^s/s/nm)
300.00 2.547
300.10 2.545
300.20 2.543
300.30 2.541
300.40 2.539
300.50 2.537
300.60 2.535
300.70 2.534
300.80 2.532
300.90 2.53
301.00 2.528
301.10 2.526
301.20 2.524
301.30 2.522
301.40 2.52
301.50 2.518
301.60 2.516
301.70 2.514
301.80 2.513
301.90 2.511
302.00 2.509
302.10 2.507
302.20 2.505
302.30 2.503
302.40 2.501
302.50 2.499
302.60 2.498
302.70 2.496
302.80 2.494
302.90 2.492
303.00 2.49
303.10 2.488
303.20 2.486
303.30 2.484
303.40 2.483
303.50 2.481
303.60 2.479
303.70 2.477
303.80 2.475
303.90 2.473
304.00 2.471
304.10 2.47
304.20 2.468
304.30 2.466
304.40 2.464
304.50 2.462
304.60 2.46
304.70 2.459
304.80 2.457
304.90 2.455
305.00 2.453
305.10 2.451
305.20 2.449
305.30 2.448
305.40 2.446
305.50 2.444
305.60 2.442
305.70 2.44
305.80 2.439
305.90 2.437
306.00 2.435
306.10 2.433
306.20 2.431
306.30 2.429
306.40 2.428
306.50 2.426
306.60 2.424
306.70 2.422
306.80 2.42
306.90 2.419
307.00 2.417
307.10 2.415
307.20 2.413
307.30 2.411
307.40 2.41
307.50 2.408
307.60 2.406
307.70 2.404
307.80 2.403
307.90 2.401
308.00 2.399
308.10 2.397
308.20 2.395
308.30 2.394
308.40 2.392
308.50 2.39
308.60 2.388
308.70 2.387
308.80 2.385
308.90 2.383
309.00 2.381
309.10 2.38
309.20 2.378
309.30 2.376
309.40 2.374
309.50 2.373
309.60 2.371
309.70 2.369
309.80 2.367
309.90 2.366
310.00 2.364
310.10 2.362
310.20 2.36
310.30 2.359
310.40 2.357
310.50 2.355
310.60 2.353
310.70 2.352
310.80 2.35
310.90 2.348
311.00 2.346
311.10 2.345
311.20 2.343
311.30 2.341
311.40 2.339
311.50 2.338
311.60 2.336
311.70 2.334
311.80 2.333
311.90 2.331
312.00 2.329
312.10 2.327
312.20 2.326
312.30 2.324
312.40 2.322
312.50 2.321
312.60 2.319
312.70 2.317
312.80 2.315
312.90 2.314
313.00 2.312
313.10 2.31
313.20 2.309
313.30 2.307
313.40 2.305
313.50 2.304
313.60 2.302
313.70 2.3
313.80 2.299
313.90 2.297
314.00 2.295
314.10 2.293
314.20 2.292
314.30 2.29
314.40 2.288
314.50 2.287
314.60 2.285
314.70 2.283
314.80 2.282
314.90 2.28
315.00 2.278
315.10 2.277
315.20 2.275
315.30 2.273
315.40 2.272
315.50 2.27
315.60 2.268
315.70 2.267
315.80 2.265
315.90 2.263
316.00 2.262
316.10 2.26
316.20 2.258
316.30 2.257
316.40 2.255
316.50 2.254
316.60 2.252
316.70 2.25
316.80 2.249
316.90 2.247
317.00 2.245
317.10 2.244
317.20 2.242
317.30 2.24
317.40 2.239
317.50 2.237
317.60 2.235
317.70 2.234
317.80 2.232
317.90 2.231
318.00 2.229
318.10 2.227
318.20 2.226
318.30 2.224
318.40 2.223
318.50 2.221
318.60 2.219
318.70 2.218
318.80 2.216
318.90 2.214
319.00 2.213
319.10 2.211
319.20 2.21
319.30 2.208
319.40 2.206
319.50 2.205
319.60 2.203
319.70 2.202
319.80 2.2
319.90 2.198
320.00 2.197
320.10 2.195
320.20 2.194
320.30 2.192
320.40 2.19
320.50 2.189
320.60 2.187
320.70 2.186
320.80 2.184
320.90 2.182
321.00 2.181
321.10 2.179
321.20 2.178
321.30 2.176
321.40 2.175
321.50 2.173
321.60 2.171
321.70 2.17
321.80 2.168
321.90 2.167
322.00 2.165
322.10 2.164
322.20 2.162
322.30 2.16
322.40 2.159
322.50 2.157
322.60 2.156
322.70 2.154
322.80 2.153
322.90 2.151
323.00 2.15
323.10 2.148
323.20 2.146
323.30 2.145
323.40 2.143
323.50 2.142
323.60 2.14
323.70 2.139
323.80 2.137
323.90 2.136
324.00 2.134
324.10 2.133
324.20 2.131
324.30 2.13
324.40 2.128
324.50 2.126
324.60 2.125
324.70 2.123
324.80 2.122
324.90 2.12
325.00 2.119
325.10 2.117
325.20 2.116
325.30 2.114
325.40 2.113
325.50 2.111
325.60 2.11
325.70 2.108
325.80 2.107
325.90 2.105
326.00 2.104
326.10 2.102
326.20 2.101
326.30 2.099
326.40 2.098
326.50 2.096
326.60 2.095
326.70 2.093
326.80 2.092
326.90 2.09
327.00 2.089
327.10 2.087
327.20 2.086
327.30 2.084
327.40 2.083
327.50 2.081
327.60 2.08
327.70 2.078
327.80 2.077
327.90 2.075
328.00 2.074
328.10 2.072
328.20 2.071
328.30 2.069
328.40 2.068
328.50 2.066
328.60 2.065
328.70 2.063
328.80 2.062
328.90 2.06
329.00 2.059
329.10 2.057
329.20 2.056
329.30 2.054
329.40 2.053
329.50 2.052
329.60 2.05
329.70 2.049
329.80 2.047
329.90 2.046
330.00 2.044
330.10 2.043
330.20 2.041
330.30 2.04
330.40 2.038
330.50 2.037
330.60 2.036
330.70 2.034
330.80 2.033
330.90 2.031
331.00 2.03
331.10 2.028
331.20 2.027
331.30 2.025
331.40 2.024
331.50 2.023
331.60 2.021
331.70 2.02
331.80 2.018
331.90 2.017
332.00 2.015
332.10 2.014
332.20 2.012
332.30 2.011
332.40 2.01
332.50 2.008
332.60 2.007
332.70 2.005
332.80 2.004
332.90 2.002
333.00 2.001
333.10 2
333.20 1.998
333.30 1.997
333.40 1.995
333.50 1.994
333.60 1.993
333.70 1.991
333.80 1.99
333.90 1.988
334.00 1.987
334.10 1.986
334.20 1.984
334.30 1.983
334.40 1.981
334.50 1.98
334.60 1.978
334.70 1.977
334.80 1.976
334.90 1.974
335.00 1.973
335.10 1.972
335.20 1.97
335.30 1.969
335.40 1.967
335.50 1.966
335.60 1.965
335.70 1.963
335.80 1.962
335.90 1.96
336.00 1.959
336.10 1.958
336.20 1.956
336.30 1.955
336.40 1.953
336.50 1.952
336.60 1.951
336.70 1.949
336.80 1.948
336.90 1.947
337.00 1.945
337.10 1.944
337.20 1.942
337.30 1.941
337.40 1.94
337.50 1.938
337.60 1.937
337.70 1.936
337.80 1.934
337.90 1.933
338.00 1.932
338.10 1.93
338.20 1.929
338.30 1.927
338.40 1.926
338.50 1.925
338.60 1.923
338.70 1.922
338.80 1.921
338.90 1.919
339.00 1.918
339.10 1.917
339.20 1.915
339.30 1.914
339.40 1.913
339.50 1.911
339.60 1.91
339.70 1.909
339.80 1.907
339.90 1.906
340.00 1.905
340.10 1.903
340.20 1.902
340.30 1.901
340.40 1.899
340.50 1.898
340.60 1.897
340.70 1.895
340.80 1.894
340.90 1.893
341.00 1.891
341.10 1.89
341.20 1.889
341.30 1.887
341.40 1.886
341.50 1.885
341.60 1.883
341.70 1.882
341.80 1.881
341.90 1.879
342.00 1.878
342.10 1.877
342.20 1.875
342.30 1.874
342.40 1.873
342.50 1.872
342.60 1.87
342.70 1.869
342.80 1.868
342.90 1.866
343.00 1.865
343.10 1.864
343.20 1.862
343.30 1.861
343.40 1.86
343.50 1.859
343.60 1.857
343.70 1.856
343.80 1.855
343.90 1.853
344.00 1.852
344.10 1.851
344.20 1.85
344.30 1.848
344.40 1.847
344.50 1.846
344.60 1.844
344.70 1.843
344.80 1.842
344.90 1.841
345.00 1.839
345.10 1.838
345.20 1.837
345.30 1.835
345.40 1.834
345.50 1.833
345.60 1.832
345.70 1.83
345.80 1.829
345.90 1.828
346.00 1.826
346.10 1.825
346.20 1.824
346.30 1.823
346.40 1.821
346.50 1.82
346.60 1.819
346.70 1.818
346.80 1.816
346.90 1.815
347.00 1.814
347.10 1.813
347.20 1.811
347.30 1.81
347.40 1.809
347.50 1.808
347.60 1.806
347.70 1.805
347.80 1.804
347.90 1.803
348.00 1.801
348.10 1.8
348.20 1.799
348.30 1.798
348.40 1.796
348.50 1.795
348.60 1.794
348.70 1.793
348.80 1.791
348.90 1.79
349.00 1.789
349.10 1.788
349.20 1.786
349.30 1.785
349.40 1.784
349.50 1.783
349.60 1.781
349.70 1.78
349.80 1.779
349.90 1.778
350.00 1.777
350.10 1.775
350.20 1.774
350.30 1.773
350.40 1.772
350.50 1.77
350.60 1.769
350.70 1.768
350.80 1.767
350.90 1.766
351.00 1.764
351.10 1.763
351.20 1.762
351.30 1.761
351.40 1.76
351.50 1.758
351.60 1.757
351.70 1.756
351.80 1.755
351.90 1.753
352.00 1.752
352.10 1.751
352.20 1.75
352.30 1.749
352.40 1.747
352.50 1.746
352.60 1.745
352.70 1.744
352.80 1.743
352.90 1.741
353.00 1.74
353.10 1.739
353.20 1.738
353.30 1.737
353.40 1.735
353.50 1.734
353.60 1.733
353.70 1.732
353.80 1.731
353.90 1.73
354.00 1.728
354.10 1.727
354.20 1.726
354.30 1.725
354.40 1.724
354.50 1.722
354.60 1.721
354.70 1.72
354.80 1.719
354.90 1.718
355.00 1.717
355.10 1.715
355.20 1.714
355.30 1.713
355.40 1.712
355.50 1.711
355.60 1.71
355.70 1.708
355.80 1.707
355.90 1.706
356.00 1.705
356.10 1.704
356.20 1.703
356.30 1.701
356.40 1.7
356.50 1.699
356.60 1.698
356.70 1.697
356.80 1.696
356.90 1.694
357.00 1.693
357.10 1.692
357.20 1.691
357.30 1.69
357.40 1.689
357.50 1.687
357.60 1.686
357.70 1.685
357.80 1.684
357.90 1.683
358.00 1.682
358.10 1.681
358.20 1.679
358.30 1.678
358.40 1.677
358.50 1.676
358.60 1.675
358.70 1.674
358.80 1.673
358.90 1.671
359.00 1.67
359.10 1.669
359.20 1.668
359.30 1.667
359.40 1.666
359.50 1.665
359.60 1.664
359.70 1.662
359.80 1.661
359.90 1.66
360.00 1.659
360.10 1.658
360.20 1.657
360.30 1.656
360.40 1.655
360.50 1.653
360.60 1.652
360.70 1.651
360.80 1.65
360.90 1.649
361.00 1.648
361.10 1.647
361.20 1.646
361.30 1.644
361.40 1.643
361.50 1.642
361.60 1.641
361.70 1.64
361.80 1.639
361.90 1.638
362.00 1.637
362.10 1.636
362.20 1.634
362.30 1.633
362.40 1.632
362.50 1.631
362.60 1.63
362.70 1.629
362.80 1.628
362.90 1.627
363.00 1.626
363.10 1.624
363.20 1.623
363.30 1.622
363.40 1.621
363.50 1.619
363.60 1.618
363.70 1.617
363.80 1.615
363.90 1.614
364.00 1.613
364.10 1.612
364.20 1.61
364.30 1.609
364.40 1.608
364.50 1.607
364.60 1.605
364.70 1.604
364.80 1.603
364.90 1.601
365.00 1.6
365.10 1.599
365.20 1.597
365.30 1.596
365.40 1.595
365.50 1.593
365.60 1.592
365.70 1.591
365.80 1.59
365.90 1.588
366.00 1.587
366.10 1.586
366.20 1.585
366.30 1.584
366.40 1.582
366.50 1.581
366.60 1.58
366.70 1.579
366.80 1.578
366.90 1.577
367.00 1.576
367.10 1.575
367.20 1.573
367.30 1.572
367.40 1.571
367.50 1.57
367.60 1.569
367.70 1.568
367.80 1.567
367.90 1.566
368.00 1.564
368.10 1.563
368.20 1.562
368.30 1.561
368.40 1.56
368.50 1.559
368.60 1.558
368.70 1.557
368.80 1.556
368.90 1.554
369.00 1.553
369.10 1.552
369.20 1.551
369.30 1.55
369.40 1.549
369.50 1.548
369.60 1.547
369.70 1.546
369.80 1.544
369.90 1.543
370.00 1.542
370.10 1.541
370.20 1.54
370.30 1.539
370.40 1.538
370.50 1.537
370.60 1.536
370.70 1.535
370.80 1.534
370.90 1.533
371.00 1.532
371.10 1.531
371.20 1.53
371.30 1.529
371.40 1.528
371.50 1.527
371.60 1.526
371.70 1.525
371.80 1.524
371.90 1.523
372.00 1.522
372.10 1.521
372.20 1.52
372.30 1.519
372.40 1.519
372.50 1.518
372.60 1.517
372.70 1.516
372.80 1.515
372.90 1.515
373.00 1.514
373.10 1.513
373.20 1.512
373.30 1.511
373.40 1.51
373.50 1.51
373.60 1.509
373.70 1.508
373.80 1.507
373.90 1.506
374.00 1.506
374.10 1.505
374.20 1.504
374.30 1.504
374.40 1.503
374.50 1.503
374.60 1.502
374.70 1.501
374.80 1.501
374.90 1.5
375.00 1.499
375.10 1.499
375.20 1.498
375.30 1.498
375.40 1.497
375.50 1.496
375.60 1.496
375.70 1.495
375.80 1.494
375.90 1.494
376.00 1.493
376.10 1.493
376.20 1.492
376.30 1.491
376.40 1.491
376.50 1.49
376.60 1.49
376.70 1.489
376.80 1.488
376.90 1.488
377.00 1.487
377.10 1.486
377.20 1.485
377.30 1.485
377.40 1.484
377.50 1.483
377.60 1.482
377.70 1.481
377.80 1.48
377.90 1.479
378.00 1.479
378.10 1.477
378.20 1.475
378.30 1.473
378.40 1.472
378.50 1.47
378.60 1.468
378.70 1.467
378.80 1.465
378.90 1.463
379.00 1.462
379.10 1.461
379.20 1.459
379.30 1.458
379.40 1.457
379.50 1.456
379.60 1.455
379.70 1.453
379.80 1.452
379.90 1.451
380.00 1.45
380.10 1.45
380.20 1.451
380.30 1.452
380.40 1.452
380.50 1.453
380.60 1.453
380.70 1.454
380.80 1.455
380.90 1.455
381.00 1.456
381.10 1.455
381.20 1.455
381.30 1.455
381.40 1.455
381.50 1.455
381.60 1.454
381.70 1.453
381.80 1.452
381.90 1.45
382.00 1.449
382.10 1.447
382.20 1.445
382.30 1.441
382.40 1.438
382.50 1.434
382.60 1.431
382.70 1.427
382.80 1.424
382.90 1.42
383.00 1.417
383.10 1.413
383.20 1.41
383.30 1.408
383.40 1.405
383.50 1.403
383.60 1.403
383.70 1.406
383.80 1.408
383.90 1.41
384.00 1.412
384.10 1.416
384.20 1.42
384.30 1.424
384.40 1.428
384.50 1.431
384.60 1.434
384.70 1.437
384.80 1.439
384.90 1.441
385.00 1.442
385.10 1.443
385.20 1.444
385.30 1.445
385.40 1.445
385.50 1.446
385.60 1.445
385.70 1.445
385.80 1.445
385.90 1.444
386.00 1.443
386.10 1.441
386.20 1.44
386.30 1.438
386.40 1.436
386.50 1.434
386.60 1.431
386.70 1.429
386.80 1.426
386.90 1.422
387.00 1.419
387.10 1.415
387.20 1.411
387.30 1.407
387.40 1.402
387.50 1.397
387.60 1.392
387.70 1.386
387.80 1.38
387.90 1.374
388.00 1.367
388.10 1.358
388.20 1.35
388.30 1.341
388.40 1.331
388.50 1.322
388.60 1.314
388.70 1.309
388.80 1.305
388.90 1.302
389.00 1.305
389.10 1.309
389.20 1.314
389.30 1.321
389.40 1.33
389.50 1.34
389.60 1.349
389.70 1.358
389.80 1.366
389.90 1.373
390.00 1.38
390.10 1.387
390.20 1.392
390.30 1.398
390.40 1.403
390.50 1.408
390.60 1.412
390.70 1.417
390.80 1.421
390.90 1.424
391.00 1.428
391.10 1.431
391.20 1.434
391.30 1.436
391.40 1.439
391.50 1.441
391.60 1.443
391.70 1.444
391.80 1.445
391.90 1.447
392.00 1.447
392.10 1.448
392.20 1.448
392.30 1.448
392.40 1.447
392.50 1.447
392.60 1.446
392.70 1.444
392.80 1.443
392.90 1.441
393.00 1.439
393.10 1.436
393.20 1.433
393.30 1.43
393.40 1.427
393.50 1.423
393.60 1.419
393.70 1.415
393.80 1.41
393.90 1.405
394.00 1.399
394.10 1.394
394.20 1.387
394.30 1.381
394.40 1.374
394.50 1.367
394.60 1.36
394.70 1.352
394.80 1.344
394.90 1.335
395.00 1.326
395.10 1.317
395.20 1.308
395.30 1.298
395.40 1.288
395.50 1.278
395.60 1.266
395.70 1.255
395.80 1.243
395.90 1.231
396.00 1.218
396.10 1.206
396.20 1.192
396.30 1.177
396.40 1.16
396.50 1.141
396.60 1.121
396.70 1.1
396.80 1.085
396.90 1.071
397.00 1.057
397.10 1.07
397.20 1.083
397.30 1.096
397.40 1.116
397.50 1.136
397.60 1.155
397.70 1.172
397.80 1.187
397.90 1.2
398.00 1.213
398.10 1.225
398.20 1.237
398.30 1.249
398.40 1.26
398.50 1.272
398.60 1.282
398.70 1.292
398.80 1.302
398.90 1.312
399.00 1.321
399.10 1.33
399.20 1.339
399.30 1.347
399.40 1.356
399.50 1.364
399.60 1.372
399.70 1.379
399.80 1.386
399.90 1.393
400.00 1.4
400.10 1.406
400.20 1.412
400.30 1.418
400.40 1.424
400.50 1.429
400.60 1.434
400.70 1.439
400.80 1.444
400.90 1.448
401.00 1.452
401.10 1.456
401.20 1.459
401.30 1.463
401.40 1.466
401.50 1.469
401.60 1.471
401.70 1.474
401.80 1.476
401.90 1.478
402.00 1.48
402.10 1.482
402.20 1.483
402.30 1.484
402.40 1.485
402.50 1.486
402.60 1.486
402.70 1.486
402.80 1.486
402.90 1.486
403.00 1.486
403.10 1.485
403.20 1.485
403.30 1.484
403.40 1.482
403.50 1.481
403.60 1.479
403.70 1.478
403.80 1.475
403.90 1.473
404.00 1.471
404.10 1.468
404.20 1.465
404.30 1.462
404.40 1.458
404.50 1.455
404.60 1.451
404.70 1.446
404.80 1.442
404.90 1.437
405.00 1.433
405.10 1.428
405.20 1.422
405.30 1.417
405.40 1.411
405.50 1.405
405.60 1.399
405.70 1.392
405.80 1.385
405.90 1.379
406.00 1.371
406.10 1.364
406.20 1.356
406.30 1.348
406.40 1.34
406.50 1.332
406.60 1.323
406.70 1.314
406.80 1.305
406.90 1.295
407.00 1.285
407.10 1.275
407.20 1.264
407.30 1.253
407.40 1.242
407.50 1.231
407.60 1.219
407.70 1.207
407.80 1.195
407.90 1.182
408.00 1.169
408.10 1.156
408.20 1.143
408.30 1.129
408.40 1.115
408.50 1.101
408.60 1.086
408.70 1.071
408.80 1.054
408.90 1.038
409.00 1.022
409.10 1.006
409.20 0.9893
409.30 0.9731
409.40 0.9556
409.50 0.937
409.60 0.9174
409.70 0.8952
409.80 0.8718
409.90 0.8473
410.00 0.8269
410.10 0.813
410.20 0.8055
410.30 0.8184
410.40 0.836
410.50 0.8583
410.60 0.8815
410.70 0.9033
410.80 0.9237
410.90 0.9416
411.00 0.9585
411.10 0.9744
411.20 0.9896
411.30 1.005
411.40 1.02
411.50 1.036
411.60 1.051
411.70 1.065
411.80 1.079
411.90 1.093
412.00 1.106
412.10 1.119
412.20 1.131
412.30 1.143
412.40 1.155
412.50 1.167
412.60 1.178
412.70 1.19
412.80 1.201
412.90 1.211
413.00 1.222
413.10 1.232
413.20 1.242
413.30 1.251
413.40 1.261
413.50 1.27
413.60 1.278
413.70 1.287
413.80 1.295
413.90 1.303
414.00 1.311
414.10 1.319
414.20 1.326
414.30 1.334
414.40 1.341
414.50 1.348
414.60 1.355
414.70 1.361
414.80 1.368
414.90 1.374
415.00 1.38
415.10 1.386
415.20 1.392
415.30 1.397
415.40 1.403
415.50 1.408
415.60 1.413
415.70 1.418
415.80 1.423
415.90 1.428
416.00 1.433
416.10 1.437
416.20 1.442
416.30 1.446
416.40 1.45
416.50 1.454
416.60 1.458
416.70 1.461
416.80 1.465
416.90 1.468
417.00 1.472
417.10 1.475
417.20 1.478
417.30 1.481
417.40 1.484
417.50 1.487
417.60 1.49
417.70 1.492
417.80 1.495
417.90 1.497
418.00 1.5
418.10 1.502
418.20 1.504
418.30 1.506
418.40 1.508
418.50 1.51
418.60 1.511
418.70 1.513
418.80 1.514
418.90 1.516
419.00 1.517
419.10 1.519
419.20 1.52
419.30 1.521
419.40 1.522
419.50 1.523
419.60 1.524
419.70 1.525
419.80 1.525
419.90 1.526
420.00 1.527
420.10 1.527
420.20 1.527
420.30 1.528
420.40 1.528
420.50 1.528
420.60 1.528
420.70 1.528
420.80 1.528
420.90 1.528
421.00 1.528
421.10 1.527
421.20 1.527
421.30 1.526
421.40 1.526
421.50 1.525
421.60 1.524
421.70 1.524
421.80 1.523
421.90 1.522
422.00 1.521
422.10 1.52
422.20 1.519
422.30 1.517
422.40 1.516
422.50 1.515
422.60 1.513
422.70 1.512
422.80 1.51
422.90 1.509
423.00 1.507
423.10 1.505
423.20 1.503
423.30 1.501
423.40 1.499
423.50 1.497
423.60 1.495
423.70 1.492
423.80 1.49
423.90 1.488
424.00 1.485
424.10 1.483
424.20 1.48
424.30 1.477
424.40 1.474
424.50 1.471
424.60 1.469
424.70 1.465
424.80 1.462
424.90 1.459
425.00 1.456
425.10 1.452
425.20 1.449
425.30 1.445
425.40 1.442
425.50 1.438
425.60 1.434
425.70 1.43
425.80 1.426
425.90 1.422
426.00 1.418
426.10 1.414
426.20 1.409
426.30 1.404
426.40 1.399
426.50 1.395
426.60 1.39
426.70 1.385
426.80 1.381
426.90 1.376
427.00 1.371
427.10 1.365
427.20 1.36
427.30 1.355
427.40 1.349
427.50 1.344
427.60 1.338
427.70 1.333
427.80 1.327
427.90 1.321
428.00 1.315
428.10 1.309
428.20 1.302
428.30 1.296
428.40 1.29
428.50 1.283
428.60 1.276
428.70 1.269
428.80 1.263
428.90 1.255
429.00 1.248
429.10 1.241
429.20 1.233
429.30 1.226
429.40 1.218
429.50 1.21
429.60 1.202
429.70 1.194
429.80 1.186
429.90 1.178
430.00 1.169
430.10 1.16
430.20 1.152
430.30 1.143
430.40 1.134
430.50 1.124
430.60 1.115
430.70 1.105
430.80 1.095
430.90 1.085
431.00 1.075
431.10 1.064
431.20 1.053
431.30 1.042
431.40 1.031
431.50 1.02
431.60 1.008
431.70 0.9965
431.80 0.9846
431.90 0.9722
432.00 0.9597
432.10 0.9469
432.20 0.9336
432.30 0.92
432.40 0.9061
432.50 0.8915
432.60 0.8765
432.70 0.8611
432.80 0.8453
432.90 0.8294
433.00 0.8135
433.10 0.7977
433.20 0.7821
433.30 0.7666
433.40 0.751
433.50 0.7344
433.60 0.7171
433.70 0.6944
433.80 0.667
433.90 0.635
434.00 0.5975
434.10 0.5981
434.20 0.637
434.30 0.668
434.40 0.6944
434.50 0.716
434.60 0.7324
434.70 0.7481
434.80 0.763
434.90 0.7777
435.00 0.7925
435.10 0.8073
435.20 0.8224
435.30 0.8373
435.40 0.8521
435.50 0.8664
435.60 0.8803
435.70 0.8938
435.80 0.9065
435.90 0.9189
436.00 0.931
436.10 0.9426
436.20 0.9539
436.30 0.965
436.40 0.9757
436.50 0.9862
436.60 0.9965
436.70 1.007
436.80 1.016
436.90 1.026
437.00 1.035
437.10 1.044
437.20 1.053
437.30 1.062
437.40 1.07
437.50 1.079
437.60 1.087
437.70 1.094
437.80 1.102
437.90 1.11
438.00 1.117
438.10 1.124
438.20 1.131
438.30 1.138
438.40 1.145
438.50 1.151
438.60 1.158
438.70 1.164
438.80 1.17
438.90 1.176
439.00 1.182
439.10 1.188
439.20 1.193
439.30 1.199
439.40 1.204
439.50 1.21
439.60 1.215
439.70 1.22
439.80 1.225
439.90 1.23
440.00 1.234
440.10 1.239
440.20 1.243
440.30 1.248
440.40 1.252
440.50 1.256
440.60 1.261
440.70 1.265
440.80 1.269
440.90 1.272
441.00 1.276
441.10 1.28
441.20 1.284
441.30 1.287
441.40 1.291
441.50 1.294
441.60 1.297
441.70 1.3
441.80 1.304
441.90 1.307
442.00 1.31
442.10 1.313
442.20 1.315
442.30 1.318
442.40 1.321
442.50 1.324
442.60 1.326
442.70 1.329
442.80 1.331
442.90 1.334
443.00 1.336
443.10 1.338
443.20 1.34
443.30 1.343
443.40 1.345
443.50 1.347
443.60 1.349
443.70 1.351
443.80 1.353
443.90 1.355
444.00 1.356
444.10 1.358
444.20 1.36
444.30 1.361
444.40 1.363
444.50 1.365
444.60 1.366
444.70 1.368
444.80 1.369
444.90 1.37
445.00 1.372
445.10 1.373
445.20 1.374
445.30 1.375
445.40 1.377
445.50 1.378
445.60 1.379
445.70 1.38
445.80 1.381
445.90 1.382
446.00 1.383
446.10 1.384
446.20 1.385
446.30 1.386
446.40 1.387
446.50 1.387
446.60 1.388
446.70 1.389
446.80 1.389
446.90 1.39
447.00 1.391
447.10 1.391
447.20 1.392
447.30 1.393
447.40 1.393
447.50 1.394
447.60 1.394
447.70 1.394
447.80 1.395
447.90 1.395
448.00 1.396
448.10 1.396
448.20 1.396
448.30 1.397
448.40 1.397
448.50 1.397
448.60 1.397
448.70 1.398
448.80 1.398
448.90 1.398
449.00 1.398
449.10 1.399
449.20 1.399
449.30 1.399
449.40 1.399
449.50 1.399
449.60 1.399
449.70 1.399
449.80 1.399
449.90 1.399
450.00 1.399
450.10 1.399
450.20 1.399
450.30 1.399
450.40 1.399
450.50 1.399
450.60 1.398
450.70 1.398
450.80 1.398
450.90 1.398
451.00 1.398
451.10 1.398
451.20 1.397
451.30 1.397
451.40 1.397
451.50 1.397
451.60 1.396
451.70 1.396
451.80 1.396
451.90 1.395
452.00 1.395
452.10 1.395
452.20 1.394
452.30 1.394
452.40 1.394
452.50 1.393
452.60 1.393
452.70 1.392
452.80 1.392
452.90 1.391
453.00 1.391
453.10 1.391
453.20 1.39
453.30 1.39
453.40 1.389
453.50 1.389
453.60 1.388
