# Version 2.1 - nm, norm@500 to 1, cut digits, bergeron_17000_90.dat_17000
# Wavelength(nm)  Flambda(ergs/cm^s/s/nm)
300.00 2.93
300.10 2.927
300.20 2.925
300.30 2.922
300.40 2.919
300.50 2.917
300.60 2.914
300.70 2.912
300.80 2.909
300.90 2.907
301.00 2.904
301.10 2.901
301.20 2.899
301.30 2.896
301.40 2.894
301.50 2.891
301.60 2.889
301.70 2.886
301.80 2.884
301.90 2.881
302.00 2.879
302.10 2.876
302.20 2.873
302.30 2.871
302.40 2.868
302.50 2.866
302.60 2.863
302.70 2.861
302.80 2.858
302.90 2.856
303.00 2.853
303.10 2.851
303.20 2.848
303.30 2.846
303.40 2.843
303.50 2.841
303.60 2.839
303.70 2.836
303.80 2.834
303.90 2.831
304.00 2.829
304.10 2.826
304.20 2.824
304.30 2.821
304.40 2.819
304.50 2.816
304.60 2.814
304.70 2.811
304.80 2.809
304.90 2.807
305.00 2.804
305.10 2.802
305.20 2.799
305.30 2.797
305.40 2.794
305.50 2.792
305.60 2.789
305.70 2.787
305.80 2.785
305.90 2.782
306.00 2.78
306.10 2.777
306.20 2.775
306.30 2.773
306.40 2.77
306.50 2.768
306.60 2.765
306.70 2.763
306.80 2.761
306.90 2.758
307.00 2.756
307.10 2.753
307.20 2.751
307.30 2.749
307.40 2.746
307.50 2.744
307.60 2.742
307.70 2.739
307.80 2.737
307.90 2.734
308.00 2.732
308.10 2.73
308.20 2.727
308.30 2.725
308.40 2.723
308.50 2.72
308.60 2.718
308.70 2.716
308.80 2.713
308.90 2.711
309.00 2.709
309.10 2.706
309.20 2.704
309.30 2.702
309.40 2.699
309.50 2.697
309.60 2.695
309.70 2.692
309.80 2.69
309.90 2.688
310.00 2.685
310.10 2.683
310.20 2.681
310.30 2.679
310.40 2.676
310.50 2.674
310.60 2.672
310.70 2.669
310.80 2.667
310.90 2.665
311.00 2.663
311.10 2.66
311.20 2.658
311.30 2.656
311.40 2.653
311.50 2.651
311.60 2.649
311.70 2.647
311.80 2.644
311.90 2.642
312.00 2.64
312.10 2.638
312.20 2.635
312.30 2.633
312.40 2.631
312.50 2.629
312.60 2.626
312.70 2.624
312.80 2.622
312.90 2.62
313.00 2.617
313.10 2.615
313.20 2.613
313.30 2.611
313.40 2.609
313.50 2.606
313.60 2.604
313.70 2.602
313.80 2.6
313.90 2.597
314.00 2.595
314.10 2.593
314.20 2.591
314.30 2.589
314.40 2.586
314.50 2.584
314.60 2.582
314.70 2.58
314.80 2.578
314.90 2.576
315.00 2.573
315.10 2.571
315.20 2.569
315.30 2.567
315.40 2.565
315.50 2.563
315.60 2.56
315.70 2.558
315.80 2.556
315.90 2.554
316.00 2.552
316.10 2.55
316.20 2.547
316.30 2.545
316.40 2.543
316.50 2.541
316.60 2.539
316.70 2.537
316.80 2.535
316.90 2.532
317.00 2.53
317.10 2.528
317.20 2.526
317.30 2.524
317.40 2.522
317.50 2.52
317.60 2.518
317.70 2.515
317.80 2.513
317.90 2.511
318.00 2.509
318.10 2.507
318.20 2.505
318.30 2.503
318.40 2.501
318.50 2.499
318.60 2.496
318.70 2.494
318.80 2.492
318.90 2.49
319.00 2.488
319.10 2.486
319.20 2.484
319.30 2.482
319.40 2.48
319.50 2.478
319.60 2.476
319.70 2.474
319.80 2.471
319.90 2.469
320.00 2.467
320.10 2.465
320.20 2.463
320.30 2.461
320.40 2.459
320.50 2.457
320.60 2.455
320.70 2.453
320.80 2.451
320.90 2.449
321.00 2.447
321.10 2.445
321.20 2.443
321.30 2.441
321.40 2.439
321.50 2.437
321.60 2.435
321.70 2.433
321.80 2.431
321.90 2.429
322.00 2.427
322.10 2.425
322.20 2.423
322.30 2.421
322.40 2.419
322.50 2.417
322.60 2.415
322.70 2.413
322.80 2.411
322.90 2.409
323.00 2.407
323.10 2.405
323.20 2.403
323.30 2.401
323.40 2.399
323.50 2.397
323.60 2.395
323.70 2.393
323.80 2.391
323.90 2.389
324.00 2.387
324.10 2.385
324.20 2.383
324.30 2.381
324.40 2.379
324.50 2.377
324.60 2.375
324.70 2.373
324.80 2.371
324.90 2.369
325.00 2.367
325.10 2.365
325.20 2.363
325.30 2.361
325.40 2.359
325.50 2.357
325.60 2.355
325.70 2.353
325.80 2.351
325.90 2.35
326.00 2.348
326.10 2.346
326.20 2.344
326.30 2.342
326.40 2.34
326.50 2.338
326.60 2.336
326.70 2.334
326.80 2.332
326.90 2.33
327.00 2.328
327.10 2.327
327.20 2.325
327.30 2.323
327.40 2.321
327.50 2.319
327.60 2.317
327.70 2.315
327.80 2.313
327.90 2.311
328.00 2.309
328.10 2.308
328.20 2.306
328.30 2.304
328.40 2.302
328.50 2.3
328.60 2.298
328.70 2.296
328.80 2.294
328.90 2.293
329.00 2.291
329.10 2.289
329.20 2.287
329.30 2.285
329.40 2.283
329.50 2.281
329.60 2.279
329.70 2.278
329.80 2.276
329.90 2.274
330.00 2.272
330.10 2.27
330.20 2.268
330.30 2.266
330.40 2.265
330.50 2.263
330.60 2.261
330.70 2.259
330.80 2.257
330.90 2.255
331.00 2.254
331.10 2.252
331.20 2.25
331.30 2.248
331.40 2.246
331.50 2.245
331.60 2.243
331.70 2.241
331.80 2.239
331.90 2.237
332.00 2.235
332.10 2.234
332.20 2.232
332.30 2.23
332.40 2.228
332.50 2.226
332.60 2.225
332.70 2.223
332.80 2.221
332.90 2.219
333.00 2.217
333.10 2.216
333.20 2.214
333.30 2.212
333.40 2.21
333.50 2.209
333.60 2.207
333.70 2.205
333.80 2.203
333.90 2.201
334.00 2.2
334.10 2.198
334.20 2.196
334.30 2.194
334.40 2.193
334.50 2.191
334.60 2.189
334.70 2.187
334.80 2.186
334.90 2.184
335.00 2.182
335.10 2.18
335.20 2.179
335.30 2.177
335.40 2.175
335.50 2.173
335.60 2.172
335.70 2.17
335.80 2.168
335.90 2.166
336.00 2.165
336.10 2.163
336.20 2.161
336.30 2.159
336.40 2.158
336.50 2.156
336.60 2.154
336.70 2.152
336.80 2.151
336.90 2.149
337.00 2.147
337.10 2.146
337.20 2.144
337.30 2.142
337.40 2.14
337.50 2.139
337.60 2.137
337.70 2.135
337.80 2.134
337.90 2.132
338.00 2.13
338.10 2.129
338.20 2.127
338.30 2.125
338.40 2.123
338.50 2.122
338.60 2.12
338.70 2.118
338.80 2.117
338.90 2.115
339.00 2.113
339.10 2.112
339.20 2.11
339.30 2.108
339.40 2.107
339.50 2.105
339.60 2.103
339.70 2.102
339.80 2.1
339.90 2.098
340.00 2.097
340.10 2.095
340.20 2.093
340.30 2.092
340.40 2.09
340.50 2.088
340.60 2.087
340.70 2.085
340.80 2.083
340.90 2.082
341.00 2.08
341.10 2.078
341.20 2.077
341.30 2.075
341.40 2.073
341.50 2.072
341.60 2.07
341.70 2.069
341.80 2.067
341.90 2.065
342.00 2.064
342.10 2.062
342.20 2.06
342.30 2.059
342.40 2.057
342.50 2.055
342.60 2.054
342.70 2.052
342.80 2.051
342.90 2.049
343.00 2.047
343.10 2.046
343.20 2.044
343.30 2.043
343.40 2.041
343.50 2.039
343.60 2.038
343.70 2.036
343.80 2.035
343.90 2.033
344.00 2.031
344.10 2.03
344.20 2.028
344.30 2.027
344.40 2.025
344.50 2.023
344.60 2.022
344.70 2.02
344.80 2.019
344.90 2.017
345.00 2.015
345.10 2.014
345.20 2.012
345.30 2.011
345.40 2.009
345.50 2.008
345.60 2.006
345.70 2.004
345.80 2.003
345.90 2.001
346.00 2
346.10 1.998
346.20 1.997
346.30 1.995
346.40 1.993
346.50 1.992
346.60 1.99
346.70 1.989
346.80 1.987
346.90 1.986
347.00 1.984
347.10 1.983
347.20 1.981
347.30 1.98
347.40 1.978
347.50 1.976
347.60 1.975
347.70 1.973
347.80 1.972
347.90 1.97
348.00 1.969
348.10 1.967
348.20 1.966
348.30 1.964
348.40 1.963
348.50 1.961
348.60 1.96
348.70 1.958
348.80 1.957
348.90 1.955
349.00 1.953
349.10 1.952
349.20 1.95
349.30 1.949
349.40 1.947
349.50 1.946
349.60 1.944
349.70 1.943
349.80 1.941
349.90 1.94
350.00 1.938
350.10 1.937
350.20 1.935
350.30 1.934
350.40 1.932
350.50 1.931
350.60 1.929
350.70 1.928
350.80 1.926
350.90 1.925
351.00 1.923
351.10 1.922
351.20 1.92
351.30 1.919
351.40 1.918
351.50 1.916
351.60 1.915
351.70 1.913
351.80 1.912
351.90 1.91
352.00 1.909
352.10 1.907
352.20 1.906
352.30 1.904
352.40 1.903
352.50 1.901
352.60 1.9
352.70 1.898
352.80 1.897
352.90 1.895
353.00 1.894
353.10 1.893
353.20 1.891
353.30 1.89
353.40 1.888
353.50 1.887
353.60 1.885
353.70 1.884
353.80 1.882
353.90 1.881
354.00 1.879
354.10 1.878
354.20 1.877
354.30 1.875
354.40 1.874
354.50 1.872
354.60 1.871
354.70 1.869
354.80 1.868
354.90 1.866
355.00 1.865
355.10 1.864
355.20 1.862
355.30 1.861
355.40 1.859
355.50 1.858
355.60 1.856
355.70 1.855
355.80 1.854
355.90 1.852
356.00 1.851
356.10 1.849
356.20 1.848
356.30 1.847
356.40 1.845
356.50 1.844
356.60 1.842
356.70 1.841
356.80 1.839
356.90 1.838
357.00 1.837
357.10 1.835
357.20 1.834
357.30 1.832
357.40 1.831
357.50 1.83
357.60 1.828
357.70 1.827
357.80 1.826
357.90 1.824
358.00 1.823
358.10 1.821
358.20 1.82
358.30 1.819
358.40 1.817
358.50 1.816
358.60 1.814
358.70 1.813
358.80 1.812
358.90 1.81
359.00 1.809
359.10 1.808
359.20 1.806
359.30 1.805
359.40 1.804
359.50 1.802
359.60 1.801
359.70 1.799
359.80 1.798
359.90 1.797
360.00 1.795
360.10 1.794
360.20 1.793
360.30 1.791
360.40 1.79
360.50 1.789
360.60 1.787
360.70 1.786
360.80 1.785
360.90 1.783
361.00 1.782
361.10 1.78
361.20 1.779
361.30 1.778
361.40 1.776
361.50 1.775
361.60 1.774
361.70 1.772
361.80 1.771
361.90 1.77
362.00 1.768
362.10 1.767
362.20 1.766
362.30 1.764
362.40 1.763
362.50 1.762
362.60 1.76
362.70 1.759
362.80 1.758
362.90 1.756
363.00 1.755
363.10 1.754
363.20 1.752
363.30 1.75
363.40 1.749
363.50 1.747
363.60 1.746
363.70 1.744
363.80 1.743
363.90 1.741
364.00 1.74
364.10 1.738
364.20 1.737
364.30 1.735
364.40 1.734
364.50 1.732
364.60 1.731
364.70 1.729
364.80 1.728
364.90 1.726
365.00 1.725
365.10 1.723
365.20 1.722
365.30 1.72
365.40 1.718
365.50 1.717
365.60 1.715
365.70 1.714
365.80 1.712
365.90 1.711
366.00 1.709
366.10 1.708
366.20 1.707
366.30 1.705
366.40 1.704
366.50 1.702
366.60 1.701
366.70 1.7
366.80 1.698
366.90 1.697
367.00 1.696
367.10 1.694
367.20 1.693
367.30 1.692
367.40 1.69
367.50 1.689
367.60 1.688
367.70 1.686
367.80 1.685
367.90 1.684
368.00 1.682
368.10 1.681
368.20 1.68
368.30 1.678
368.40 1.677
368.50 1.676
368.60 1.674
368.70 1.673
368.80 1.672
368.90 1.67
369.00 1.669
369.10 1.668
369.20 1.666
369.30 1.665
369.40 1.664
369.50 1.662
369.60 1.661
369.70 1.66
369.80 1.658
369.90 1.657
370.00 1.656
370.10 1.655
370.20 1.653
370.30 1.652
370.40 1.651
370.50 1.649
370.60 1.648
370.70 1.647
370.80 1.646
370.90 1.644
371.00 1.643
371.10 1.642
371.20 1.641
371.30 1.639
371.40 1.638
371.50 1.637
371.60 1.636
371.70 1.634
371.80 1.633
371.90 1.632
372.00 1.631
372.10 1.63
372.20 1.628
372.30 1.627
372.40 1.626
372.50 1.625
372.60 1.624
372.70 1.623
372.80 1.622
372.90 1.621
373.00 1.62
373.10 1.619
373.20 1.618
373.30 1.616
373.40 1.615
373.50 1.614
373.60 1.613
373.70 1.612
373.80 1.611
373.90 1.61
374.00 1.609
374.10 1.608
374.20 1.607
374.30 1.606
374.40 1.605
374.50 1.604
374.60 1.603
374.70 1.602
374.80 1.601
374.90 1.601
375.00 1.6
375.10 1.599
375.20 1.598
375.30 1.597
375.40 1.596
375.50 1.595
375.60 1.594
375.70 1.593
375.80 1.592
375.90 1.591
376.00 1.59
376.10 1.59
376.20 1.589
376.30 1.588
376.40 1.587
376.50 1.586
376.60 1.585
376.70 1.584
376.80 1.584
376.90 1.583
377.00 1.582
377.10 1.581
377.20 1.58
377.30 1.579
377.40 1.578
377.50 1.577
377.60 1.576
377.70 1.575
377.80 1.574
377.90 1.573
378.00 1.572
378.10 1.57
378.20 1.569
378.30 1.567
378.40 1.565
378.50 1.564
378.60 1.562
378.70 1.561
378.80 1.559
378.90 1.557
379.00 1.556
379.10 1.555
379.20 1.553
379.30 1.552
379.40 1.551
379.50 1.55
379.60 1.549
379.70 1.548
379.80 1.546
379.90 1.545
380.00 1.544
380.10 1.544
380.20 1.544
380.30 1.544
380.40 1.545
380.50 1.545
380.60 1.545
380.70 1.545
380.80 1.545
380.90 1.545
381.00 1.545
381.10 1.545
381.20 1.545
381.30 1.544
381.40 1.544
381.50 1.543
381.60 1.543
381.70 1.542
381.80 1.54
381.90 1.539
382.00 1.538
382.10 1.536
382.20 1.534
382.30 1.531
382.40 1.528
382.50 1.525
382.60 1.522
382.70 1.52
382.80 1.517
382.90 1.514
383.00 1.511
383.10 1.508
383.20 1.505
383.30 1.503
383.40 1.501
383.50 1.499
383.60 1.499
383.70 1.501
383.80 1.502
383.90 1.503
384.00 1.505
384.10 1.508
384.20 1.511
384.30 1.514
384.40 1.516
384.50 1.519
384.60 1.521
384.70 1.522
384.80 1.524
384.90 1.525
385.00 1.526
385.10 1.527
385.20 1.527
385.30 1.527
385.40 1.527
385.50 1.527
385.60 1.526
385.70 1.526
385.80 1.525
385.90 1.524
386.00 1.522
386.10 1.521
386.20 1.519
386.30 1.517
386.40 1.515
386.50 1.513
386.60 1.511
386.70 1.508
386.80 1.505
386.90 1.502
387.00 1.499
387.10 1.496
387.20 1.493
387.30 1.489
387.40 1.485
387.50 1.48
387.60 1.476
387.70 1.471
387.80 1.466
387.90 1.46
388.00 1.455
388.10 1.448
388.20 1.441
388.30 1.434
388.40 1.426
388.50 1.419
388.60 1.412
388.70 1.409
388.80 1.405
388.90 1.403
389.00 1.405
389.10 1.408
389.20 1.411
389.30 1.417
389.40 1.424
389.50 1.432
389.60 1.439
389.70 1.446
389.80 1.452
389.90 1.458
390.00 1.464
390.10 1.469
390.20 1.473
390.30 1.478
390.40 1.482
390.50 1.486
390.60 1.49
390.70 1.493
390.80 1.496
390.90 1.499
391.00 1.502
391.10 1.505
391.20 1.507
391.30 1.509
391.40 1.511
391.50 1.513
391.60 1.514
391.70 1.515
391.80 1.516
391.90 1.517
392.00 1.517
392.10 1.517
392.20 1.517
392.30 1.517
392.40 1.516
392.50 1.515
392.60 1.514
392.70 1.512
392.80 1.51
392.90 1.508
393.00 1.506
393.10 1.503
393.20 1.5
393.30 1.497
393.40 1.493
393.50 1.489
393.60 1.485
393.70 1.48
393.80 1.475
393.90 1.47
394.00 1.464
394.10 1.458
394.20 1.452
394.30 1.446
394.40 1.439
394.50 1.432
394.60 1.424
394.70 1.417
394.80 1.409
394.90 1.401
395.00 1.392
395.10 1.384
395.20 1.375
395.30 1.365
395.40 1.356
395.50 1.346
395.60 1.336
395.70 1.326
395.80 1.315
395.90 1.304
396.00 1.293
396.10 1.282
396.20 1.27
396.30 1.257
396.40 1.243
396.50 1.227
396.60 1.21
396.70 1.192
396.80 1.179
396.90 1.168
397.00 1.156
397.10 1.166
397.20 1.177
397.30 1.188
397.40 1.205
397.50 1.221
397.60 1.238
397.70 1.251
397.80 1.264
397.90 1.275
398.00 1.286
398.10 1.297
398.20 1.307
398.30 1.318
398.40 1.328
398.50 1.338
398.60 1.347
398.70 1.357
398.80 1.366
398.90 1.375
399.00 1.384
399.10 1.392
399.20 1.401
399.30 1.409
399.40 1.417
399.50 1.425
399.60 1.432
399.70 1.44
399.80 1.447
399.90 1.454
400.00 1.461
400.10 1.467
400.20 1.474
400.30 1.48
400.40 1.485
400.50 1.491
400.60 1.496
400.70 1.501
400.80 1.506
400.90 1.511
401.00 1.515
401.10 1.519
401.20 1.523
401.30 1.526
401.40 1.53
401.50 1.533
401.60 1.536
401.70 1.538
401.80 1.541
401.90 1.543
402.00 1.545
402.10 1.546
402.20 1.548
402.30 1.549
402.40 1.55
402.50 1.551
402.60 1.551
402.70 1.552
402.80 1.552
402.90 1.552
403.00 1.551
403.10 1.55
403.20 1.55
403.30 1.548
403.40 1.547
403.50 1.545
403.60 1.543
403.70 1.541
403.80 1.539
403.90 1.536
404.00 1.533
404.10 1.53
404.20 1.527
404.30 1.523
404.40 1.52
404.50 1.515
404.60 1.511
404.70 1.507
404.80 1.502
404.90 1.497
405.00 1.491
405.10 1.486
405.20 1.48
405.30 1.474
405.40 1.468
405.50 1.461
405.60 1.454
405.70 1.447
405.80 1.44
405.90 1.432
406.00 1.425
406.10 1.417
406.20 1.408
406.30 1.4
406.40 1.391
406.50 1.382
406.60 1.373
406.70 1.363
406.80 1.353
406.90 1.343
407.00 1.333
407.10 1.323
407.20 1.312
407.30 1.301
407.40 1.289
407.50 1.278
407.60 1.266
407.70 1.254
407.80 1.242
407.90 1.23
408.00 1.217
408.10 1.204
408.20 1.191
408.30 1.178
408.40 1.165
408.50 1.151
408.60 1.137
408.70 1.123
408.80 1.109
408.90 1.094
409.00 1.08
409.10 1.065
409.20 1.05
409.30 1.036
409.40 1.021
409.50 1.005
409.60 0.9883
409.70 0.9694
409.80 0.9494
409.90 0.9284
410.00 0.911
410.10 0.8994
410.20 0.8935
410.30 0.9037
410.40 0.9182
410.50 0.9369
410.60 0.9564
410.70 0.9747
410.80 0.9917
410.90 1.007
411.00 1.021
411.10 1.035
411.20 1.048
411.30 1.061
411.40 1.075
411.50 1.088
411.60 1.101
411.70 1.114
411.80 1.127
411.90 1.14
412.00 1.152
412.10 1.164
412.20 1.176
412.30 1.187
412.40 1.199
412.50 1.21
412.60 1.221
412.70 1.232
412.80 1.243
412.90 1.254
413.00 1.264
413.10 1.274
413.20 1.284
413.30 1.294
413.40 1.303
413.50 1.312
413.60 1.322
413.70 1.33
413.80 1.339
413.90 1.348
414.00 1.356
414.10 1.364
414.20 1.372
414.30 1.38
414.40 1.388
414.50 1.395
414.60 1.402
414.70 1.409
414.80 1.416
414.90 1.423
415.00 1.43
415.10 1.436
415.20 1.442
415.30 1.449
415.40 1.455
415.50 1.461
415.60 1.466
415.70 1.472
415.80 1.477
415.90 1.483
416.00 1.488
416.10 1.493
416.20 1.498
416.30 1.502
416.40 1.507
416.50 1.511
416.60 1.516
416.70 1.52
416.80 1.524
416.90 1.528
417.00 1.532
417.10 1.535
417.20 1.539
417.30 1.542
417.40 1.546
417.50 1.549
417.60 1.552
417.70 1.555
417.80 1.558
417.90 1.56
418.00 1.563
418.10 1.566
418.20 1.568
418.30 1.57
418.40 1.572
418.50 1.574
418.60 1.576
418.70 1.578
418.80 1.58
418.90 1.582
419.00 1.583
419.10 1.585
419.20 1.586
419.30 1.587
419.40 1.589
419.50 1.59
419.60 1.591
419.70 1.592
419.80 1.592
419.90 1.593
420.00 1.594
420.10 1.594
420.20 1.595
420.30 1.595
420.40 1.595
420.50 1.595
420.60 1.596
420.70 1.596
420.80 1.595
420.90 1.595
421.00 1.595
421.10 1.595
421.20 1.594
421.30 1.594
421.40 1.593
421.50 1.592
421.60 1.592
421.70 1.591
421.80 1.59
421.90 1.589
422.00 1.588
422.10 1.586
422.20 1.585
422.30 1.584
422.40 1.582
422.50 1.581
422.60 1.579
422.70 1.577
422.80 1.576
422.90 1.574
423.00 1.572
423.10 1.57
423.20 1.568
423.30 1.565
423.40 1.563
423.50 1.561
423.60 1.558
423.70 1.556
423.80 1.553
423.90 1.55
424.00 1.548
424.10 1.545
424.20 1.542
424.30 1.538
424.40 1.535
424.50 1.532
424.60 1.529
424.70 1.525
424.80 1.522
424.90 1.518
425.00 1.514
425.10 1.511
425.20 1.507
425.30 1.503
425.40 1.499
425.50 1.495
425.60 1.49
425.70 1.486
425.80 1.482
425.90 1.477
426.00 1.472
426.10 1.467
426.20 1.462
426.30 1.456
426.40 1.451
426.50 1.446
426.60 1.441
426.70 1.435
426.80 1.43
426.90 1.424
427.00 1.419
427.10 1.413
427.20 1.407
427.30 1.401
427.40 1.395
427.50 1.389
427.60 1.382
427.70 1.376
427.80 1.369
427.90 1.363
428.00 1.356
428.10 1.349
428.20 1.342
428.30 1.335
428.40 1.328
428.50 1.321
428.60 1.313
428.70 1.306
428.80 1.298
428.90 1.291
429.00 1.283
429.10 1.275
429.20 1.267
429.30 1.258
429.40 1.25
429.50 1.242
429.60 1.233
429.70 1.225
429.80 1.216
429.90 1.207
430.00 1.198
430.10 1.189
430.20 1.179
430.30 1.17
430.40 1.16
430.50 1.151
430.60 1.141
430.70 1.131
430.80 1.121
430.90 1.111
431.00 1.1
431.10 1.09
431.20 1.079
431.30 1.069
431.40 1.058
431.50 1.047
431.60 1.035
431.70 1.024
431.80 1.012
431.90 1.001
432.00 0.9889
432.10 0.977
432.20 0.9648
432.30 0.9524
432.40 0.9398
432.50 0.9268
432.60 0.9135
432.70 0.9001
432.80 0.8864
432.90 0.8727
433.00 0.859
433.10 0.8456
433.20 0.8322
433.30 0.8188
433.40 0.8048
433.50 0.7901
433.60 0.7745
433.70 0.7536
433.80 0.7275
433.90 0.6961
434.00 0.6604
434.10 0.661
434.20 0.6978
434.30 0.728
434.40 0.7529
434.50 0.7725
434.60 0.7871
434.70 0.8009
434.80 0.8139
434.90 0.8264
435.00 0.8388
435.10 0.8512
435.20 0.8639
435.30 0.8765
435.40 0.889
435.50 0.9013
435.60 0.9134
435.70 0.9251
435.80 0.9365
435.90 0.9476
436.00 0.9585
436.10 0.9691
436.20 0.9796
436.30 0.9899
436.40 1
436.50 1.01
436.60 1.02
436.70 1.029
436.80 1.039
436.90 1.048
437.00 1.057
437.10 1.066
437.20 1.075
437.30 1.084
437.40 1.092
437.50 1.1
437.60 1.108
437.70 1.116
437.80 1.124
437.90 1.132
438.00 1.139
438.10 1.147
438.20 1.154
438.30 1.161
438.40 1.168
438.50 1.175
438.60 1.182
438.70 1.189
438.80 1.195
438.90 1.202
439.00 1.208
439.10 1.214
439.20 1.22
439.30 1.226
439.40 1.232
439.50 1.238
439.60 1.244
439.70 1.249
439.80 1.254
439.90 1.26
440.00 1.265
440.10 1.27
440.20 1.275
440.30 1.28
440.40 1.285
440.50 1.289
440.60 1.294
440.70 1.298
440.80 1.303
440.90 1.307
441.00 1.311
441.10 1.315
441.20 1.319
441.30 1.323
441.40 1.327
441.50 1.331
441.60 1.334
441.70 1.338
441.80 1.341
441.90 1.345
442.00 1.348
442.10 1.351
442.20 1.354
442.30 1.357
442.40 1.36
442.50 1.363
442.60 1.366
442.70 1.369
442.80 1.371
442.90 1.374
443.00 1.376
443.10 1.379
443.20 1.381
443.30 1.383
443.40 1.386
443.50 1.388
443.60 1.39
443.70 1.392
443.80 1.394
443.90 1.396
444.00 1.398
444.10 1.4
444.20 1.402
444.30 1.403
444.40 1.405
444.50 1.407
444.60 1.408
444.70 1.41
444.80 1.411
444.90 1.413
445.00 1.414
445.10 1.415
445.20 1.416
445.30 1.418
445.40 1.419
445.50 1.42
445.60 1.421
445.70 1.422
445.80 1.423
445.90 1.424
446.00 1.425
446.10 1.426
446.20 1.427
446.30 1.428
446.40 1.428
446.50 1.429
446.60 1.43
446.70 1.43
446.80 1.431
446.90 1.432
447.00 1.432
447.10 1.433
447.20 1.433
447.30 1.434
447.40 1.434
447.50 1.434
447.60 1.435
447.70 1.435
447.80 1.435
447.90 1.436
448.00 1.436
448.10 1.436
448.20 1.437
448.30 1.437
448.40 1.437
448.50 1.437
448.60 1.437
448.70 1.437
448.80 1.437
448.90 1.437
449.00 1.438
449.10 1.438
449.20 1.438
449.30 1.438
449.40 1.438
449.50 1.438
449.60 1.437
449.70 1.437
449.80 1.437
449.90 1.437
450.00 1.437
450.10 1.437
450.20 1.437
450.30 1.436
450.40 1.436
450.50 1.436
450.60 1.436
450.70 1.435
450.80 1.435
450.90 1.435
451.00 1.434
451.10 1.434
451.20 1.434
451.30 1.433
451.40 1.433
451.50 1.433
451.60 1.432
451.70 1.432
451.80 1.431
451.90 1.431
452.00 1.43
452.10 1.43
452.20 1.43
452.30 1.429
452.40 1.429
452.50 1.428
452.60 1.427
452.70 1.427
452.80 1.426
452.90 1.426
453.00 1.425
453.10 1.425
453.20 1.424
453.30 1.423
453.40 1.423
453.50 1.422
453.60 1.421
