# Version 2.1 - nm, norm@500 to 1, cut digits, bergeron_1750_90.dat_1750
# Wavelength(nm)  Flambda(ergs/cm^s/s/nm)
300.00 0.03925
300.10 0.03939
300.20 0.03952
300.30 0.03966
300.40 0.0398
300.50 0.03993
300.60 0.04007
300.70 0.04021
300.80 0.04034
300.90 0.04048
301.00 0.04062
301.10 0.04075
301.20 0.04089
301.30 0.04102
301.40 0.04116
301.50 0.0413
301.60 0.04143
301.70 0.04156
301.80 0.0417
301.90 0.04184
302.00 0.04197
302.10 0.04211
302.20 0.04225
302.30 0.0424
302.40 0.04254
302.50 0.04268
302.60 0.04283
302.70 0.04297
302.80 0.04311
302.90 0.04325
303.00 0.04339
303.10 0.04353
303.20 0.04368
303.30 0.04382
303.40 0.04396
303.50 0.0441
303.60 0.04424
303.70 0.04438
303.80 0.04452
303.90 0.04466
304.00 0.0448
304.10 0.04495
304.20 0.0451
304.30 0.04525
304.40 0.0454
304.50 0.04554
304.60 0.04569
304.70 0.04584
304.80 0.04599
304.90 0.04614
305.00 0.04628
305.10 0.04643
305.20 0.04658
305.30 0.04672
305.40 0.04687
305.50 0.04702
305.60 0.04716
305.70 0.04731
305.80 0.04746
305.90 0.0476
306.00 0.04775
306.10 0.04791
306.20 0.04806
306.30 0.04821
306.40 0.04837
306.50 0.04852
306.60 0.04868
306.70 0.04883
306.80 0.04899
306.90 0.04914
307.00 0.04929
307.10 0.04945
307.20 0.0496
307.30 0.04975
307.40 0.04991
307.50 0.05006
307.60 0.05021
307.70 0.05036
307.80 0.05051
307.90 0.05067
308.00 0.05082
308.10 0.05098
308.20 0.05114
308.30 0.0513
308.40 0.05146
308.50 0.05162
308.60 0.05178
308.70 0.05195
308.80 0.05211
308.90 0.05227
309.00 0.05243
309.10 0.05259
309.20 0.05274
309.30 0.0529
309.40 0.05306
309.50 0.05322
309.60 0.05338
309.70 0.05354
309.80 0.0537
309.90 0.05385
310.00 0.05402
310.10 0.05418
310.20 0.05435
310.30 0.05452
310.40 0.05469
310.50 0.05485
310.60 0.05502
310.70 0.05519
310.80 0.05536
310.90 0.05552
311.00 0.05569
311.10 0.05586
311.20 0.05602
311.30 0.05619
311.40 0.05636
311.50 0.05652
311.60 0.05669
311.70 0.05685
311.80 0.05702
311.90 0.05718
312.00 0.05735
312.10 0.05751
312.20 0.05768
312.30 0.05786
312.40 0.05803
312.50 0.0582
312.60 0.05838
312.70 0.05855
312.80 0.05872
312.90 0.0589
313.00 0.05907
313.10 0.05925
313.20 0.05942
313.30 0.05959
313.40 0.05976
313.50 0.05994
313.60 0.06011
313.70 0.06028
313.80 0.06045
313.90 0.06063
314.00 0.0608
314.10 0.06098
314.20 0.06116
314.30 0.06134
314.40 0.06152
314.50 0.0617
314.60 0.06188
314.70 0.06206
314.80 0.06225
314.90 0.06243
315.00 0.06261
315.10 0.06279
315.20 0.06296
315.30 0.06314
315.40 0.06332
315.50 0.0635
315.60 0.06368
315.70 0.06386
315.80 0.06404
315.90 0.06422
316.00 0.0644
316.10 0.06458
316.20 0.06477
316.30 0.06496
316.40 0.06515
316.50 0.06534
316.60 0.06552
316.70 0.06571
316.80 0.0659
316.90 0.06609
317.00 0.06627
317.10 0.06646
317.20 0.06664
317.30 0.06683
317.40 0.06702
317.50 0.0672
317.60 0.06739
317.70 0.06757
317.80 0.06776
317.90 0.06795
318.00 0.06814
318.10 0.06832
318.20 0.06852
318.30 0.06872
318.40 0.06891
318.50 0.06911
318.60 0.0693
318.70 0.0695
318.80 0.06969
318.90 0.06988
319.00 0.07008
319.10 0.07027
319.20 0.07047
319.30 0.07066
319.40 0.07085
319.50 0.07105
319.60 0.07124
319.70 0.07143
319.80 0.07162
319.90 0.07181
320.00 0.07201
320.10 0.07221
320.20 0.07241
320.30 0.07262
320.40 0.07282
320.50 0.07302
320.60 0.07322
320.70 0.07343
320.80 0.07363
320.90 0.07383
321.00 0.07403
321.10 0.07423
321.20 0.07443
321.30 0.07463
321.40 0.07483
321.50 0.07503
321.60 0.07523
321.70 0.07543
321.80 0.07563
321.90 0.07583
322.00 0.07603
322.10 0.07624
322.20 0.07645
322.30 0.07666
322.40 0.07687
322.50 0.07708
322.60 0.07729
322.70 0.0775
322.80 0.07771
322.90 0.07792
323.00 0.07813
323.10 0.07834
323.20 0.07855
323.30 0.07876
323.40 0.07896
323.50 0.07917
323.60 0.07938
323.70 0.07958
323.80 0.07979
323.90 0.08
324.00 0.08021
324.10 0.08042
324.20 0.08064
324.30 0.08086
324.40 0.08108
324.50 0.0813
324.60 0.08151
324.70 0.08173
324.80 0.08195
324.90 0.08216
325.00 0.08238
325.10 0.0826
325.20 0.08281
325.30 0.08303
325.40 0.08324
325.50 0.08346
325.60 0.08367
325.70 0.08389
325.80 0.0841
325.90 0.08432
326.00 0.08454
326.10 0.08475
326.20 0.08498
326.30 0.08521
326.40 0.08543
326.50 0.08566
326.60 0.08588
326.70 0.08611
326.80 0.08633
326.90 0.08656
327.00 0.08678
327.10 0.087
327.20 0.08723
327.30 0.08745
327.40 0.08767
327.50 0.0879
327.60 0.08812
327.70 0.08834
327.80 0.08856
327.90 0.08879
328.00 0.08902
328.10 0.08924
328.20 0.08947
328.30 0.08971
328.40 0.08994
328.50 0.09018
328.60 0.09041
328.70 0.09064
328.80 0.09087
328.90 0.09111
329.00 0.09134
329.10 0.09157
329.20 0.0918
329.30 0.09203
329.40 0.09226
329.50 0.09249
329.60 0.09272
329.70 0.09295
329.80 0.09318
329.90 0.09341
330.00 0.09364
330.10 0.09388
330.20 0.09412
330.30 0.09437
330.40 0.09461
330.50 0.09485
330.60 0.09509
330.70 0.09533
330.80 0.09557
330.90 0.09581
331.00 0.09605
331.10 0.09629
331.20 0.09653
331.30 0.09677
331.40 0.09701
331.50 0.09724
331.60 0.09748
331.70 0.09772
331.80 0.09796
331.90 0.09819
332.00 0.09843
332.10 0.09868
332.20 0.09893
332.30 0.09918
332.40 0.09943
332.50 0.09968
332.60 0.09993
332.70 0.1002
332.80 0.1004
332.90 0.1007
333.00 0.1009
333.10 0.1012
333.20 0.1014
333.30 0.1017
333.40 0.1019
333.50 0.1022
333.60 0.1024
333.70 0.1026
333.80 0.1029
333.90 0.1031
334.00 0.1034
334.10 0.1036
334.20 0.1039
334.30 0.1042
334.40 0.1044
334.50 0.1047
334.60 0.1049
334.70 0.1052
334.80 0.1054
334.90 0.1057
335.00 0.106
335.10 0.1062
335.20 0.1065
335.30 0.1067
335.40 0.107
335.50 0.1072
335.60 0.1075
335.70 0.1077
335.80 0.108
335.90 0.1082
336.00 0.1085
336.10 0.1088
336.20 0.109
336.30 0.1093
336.40 0.1096
336.50 0.1098
336.60 0.1101
336.70 0.1104
336.80 0.1106
336.90 0.1109
337.00 0.1111
337.10 0.1114
337.20 0.1117
337.30 0.1119
337.40 0.1122
337.50 0.1125
337.60 0.1127
337.70 0.113
337.80 0.1132
337.90 0.1135
338.00 0.1138
338.10 0.114
338.20 0.1143
338.30 0.1146
338.40 0.1149
338.50 0.1151
338.60 0.1154
338.70 0.1157
338.80 0.116
338.90 0.1162
339.00 0.1165
339.10 0.1168
339.20 0.117
339.30 0.1173
339.40 0.1176
339.50 0.1179
339.60 0.1181
339.70 0.1184
339.80 0.1187
339.90 0.1189
340.00 0.1192
340.10 0.1195
340.20 0.1198
340.30 0.1201
340.40 0.1203
340.50 0.1206
340.60 0.1209
340.70 0.1212
340.80 0.1215
340.90 0.1217
341.00 0.122
341.10 0.1223
341.20 0.1226
341.30 0.1229
341.40 0.1231
341.50 0.1234
341.60 0.1237
341.70 0.124
341.80 0.1243
341.90 0.1245
342.00 0.1248
342.10 0.1251
342.20 0.1254
342.30 0.1257
342.40 0.126
342.50 0.1263
342.60 0.1266
342.70 0.1269
342.80 0.1271
342.90 0.1274
343.00 0.1277
343.10 0.128
343.20 0.1283
343.30 0.1286
343.40 0.1289
343.50 0.1292
343.60 0.1294
343.70 0.1297
343.80 0.13
343.90 0.1303
344.00 0.1306
344.10 0.1309
344.20 0.1312
344.30 0.1315
344.40 0.1318
344.50 0.1321
344.60 0.1324
344.70 0.1327
344.80 0.133
344.90 0.1333
345.00 0.1336
345.10 0.1339
345.20 0.1342
345.30 0.1345
345.40 0.1348
345.50 0.1351
345.60 0.1354
345.70 0.1356
345.80 0.1359
345.90 0.1362
346.00 0.1365
346.10 0.1368
346.20 0.1371
346.30 0.1375
346.40 0.1378
346.50 0.1381
346.60 0.1384
346.70 0.1387
346.80 0.139
346.90 0.1393
347.00 0.1396
347.10 0.1399
347.20 0.1402
347.30 0.1405
347.40 0.1408
347.50 0.1411
347.60 0.1414
347.70 0.1417
347.80 0.142
347.90 0.1423
348.00 0.1426
348.10 0.143
348.20 0.1433
348.30 0.1436
348.40 0.1439
348.50 0.1442
348.60 0.1445
348.70 0.1449
348.80 0.1452
348.90 0.1455
349.00 0.1458
349.10 0.1461
349.20 0.1464
349.30 0.1467
349.40 0.147
349.50 0.1474
349.60 0.1477
349.70 0.148
349.80 0.1483
349.90 0.1486
350.00 0.1489
350.10 0.1492
350.20 0.1496
350.30 0.1499
350.40 0.1502
350.50 0.1505
350.60 0.1509
350.70 0.1512
350.80 0.1515
350.90 0.1518
351.00 0.1522
351.10 0.1525
351.20 0.1528
351.30 0.1531
351.40 0.1534
351.50 0.1538
351.60 0.1541
351.70 0.1544
351.80 0.1547
351.90 0.155
352.00 0.1554
352.10 0.1557
352.20 0.156
352.30 0.1564
352.40 0.1567
352.50 0.157
352.60 0.1574
352.70 0.1577
352.80 0.158
352.90 0.1584
353.00 0.1587
353.10 0.159
353.20 0.1594
353.30 0.1597
353.40 0.16
353.50 0.1603
353.60 0.1607
353.70 0.161
353.80 0.1613
353.90 0.1617
354.00 0.162
354.10 0.1623
354.20 0.1627
354.30 0.163
354.40 0.1634
354.50 0.1637
354.60 0.164
354.70 0.1644
354.80 0.1647
354.90 0.1651
355.00 0.1654
355.10 0.1657
355.20 0.1661
355.30 0.1664
355.40 0.1668
355.50 0.1671
355.60 0.1674
355.70 0.1678
355.80 0.1681
355.90 0.1684
356.00 0.1688
356.10 0.1691
356.20 0.1695
356.30 0.1698
356.40 0.1702
356.50 0.1705
356.60 0.1709
356.70 0.1712
356.80 0.1716
356.90 0.1719
357.00 0.1723
357.10 0.1726
357.20 0.173
357.30 0.1733
357.40 0.1737
357.50 0.174
357.60 0.1744
357.70 0.1747
357.80 0.1751
357.90 0.1754
358.00 0.1757
358.10 0.1761
358.20 0.1765
358.30 0.1768
358.40 0.1772
358.50 0.1775
358.60 0.1779
358.70 0.1783
358.80 0.1786
358.90 0.179
359.00 0.1793
359.10 0.1797
359.20 0.18
359.30 0.1804
359.40 0.1808
359.50 0.1811
359.60 0.1815
359.70 0.1818
359.80 0.1822
359.90 0.1825
360.00 0.1829
360.10 0.1833
360.20 0.1836
360.30 0.184
360.40 0.1844
360.50 0.1847
360.60 0.1851
360.70 0.1855
360.80 0.1858
360.90 0.1862
361.00 0.1866
361.10 0.1869
361.20 0.1873
361.30 0.1876
361.40 0.188
361.50 0.1884
361.60 0.1887
361.70 0.1891
361.80 0.1895
361.90 0.1898
362.00 0.1902
362.10 0.1906
362.20 0.1909
362.30 0.1913
362.40 0.1917
362.50 0.192
362.60 0.1924
362.70 0.1928
362.80 0.1932
362.90 0.1935
363.00 0.1939
363.10 0.1943
363.20 0.1947
363.30 0.195
363.40 0.1954
363.50 0.1958
363.60 0.1962
363.70 0.1966
363.80 0.1969
363.90 0.1973
364.00 0.1977
364.10 0.1981
364.20 0.1984
364.30 0.1988
364.40 0.1992
364.50 0.1996
364.60 0.2
364.70 0.2003
364.80 0.2007
364.90 0.2011
365.00 0.2015
365.10 0.2019
365.20 0.2023
365.30 0.2026
365.40 0.203
365.50 0.2034
365.60 0.2038
365.70 0.2042
365.80 0.2046
365.90 0.2049
366.00 0.2053
366.10 0.2057
366.20 0.2061
366.30 0.2065
366.40 0.2069
366.50 0.2073
366.60 0.2077
366.70 0.2081
366.80 0.2085
366.90 0.2089
367.00 0.2092
367.10 0.2096
367.20 0.21
367.30 0.2104
367.40 0.2108
367.50 0.2112
367.60 0.2116
367.70 0.212
367.80 0.2124
367.90 0.2127
368.00 0.2131
368.10 0.2135
368.20 0.2139
368.30 0.2143
368.40 0.2147
368.50 0.2151
368.60 0.2156
368.70 0.216
368.80 0.2164
368.90 0.2168
369.00 0.2172
369.10 0.2176
369.20 0.2179
369.30 0.2183
369.40 0.2187
369.50 0.2191
369.60 0.2195
369.70 0.2199
369.80 0.2203
369.90 0.2207
370.00 0.2211
370.10 0.2215
370.20 0.2219
370.30 0.2224
370.40 0.2228
370.50 0.2232
370.60 0.2236
370.70 0.224
370.80 0.2244
370.90 0.2248
371.00 0.2252
371.10 0.2256
371.20 0.226
371.30 0.2265
371.40 0.2269
371.50 0.2273
371.60 0.2277
371.70 0.2281
371.80 0.2285
371.90 0.2289
372.00 0.2293
372.10 0.2297
372.20 0.2301
372.30 0.2306
372.40 0.231
372.50 0.2314
372.60 0.2318
372.70 0.2322
372.80 0.2326
372.90 0.2331
373.00 0.2335
373.10 0.2339
373.20 0.2343
373.30 0.2347
373.40 0.2351
373.50 0.2356
373.60 0.236
373.70 0.2364
373.80 0.2368
373.90 0.2372
374.00 0.2376
374.10 0.2381
374.20 0.2385
374.30 0.2389
374.40 0.2393
374.50 0.2398
374.60 0.2402
374.70 0.2406
374.80 0.241
374.90 0.2415
375.00 0.2419
375.10 0.2423
375.20 0.2427
375.30 0.2432
375.40 0.2436
375.50 0.244
375.60 0.2444
375.70 0.2449
375.80 0.2453
375.90 0.2457
376.00 0.2461
376.10 0.2466
376.20 0.247
376.30 0.2474
376.40 0.2479
376.50 0.2483
376.60 0.2487
376.70 0.2491
376.80 0.2496
376.90 0.25
377.00 0.2504
377.10 0.2509
377.20 0.2513
377.30 0.2518
377.40 0.2522
377.50 0.2526
377.60 0.2531
377.70 0.2535
377.80 0.2539
377.90 0.2544
378.00 0.2548
378.10 0.2552
378.20 0.2557
378.30 0.2561
378.40 0.2566
378.50 0.257
378.60 0.2574
378.70 0.2579
378.80 0.2583
378.90 0.2588
379.00 0.2592
379.10 0.2596
379.20 0.2601
379.30 0.2605
379.40 0.261
379.50 0.2614
379.60 0.2619
379.70 0.2623
379.80 0.2627
379.90 0.2632
380.00 0.2636
380.10 0.2641
380.20 0.2645
380.30 0.265
380.40 0.2654
380.50 0.2659
380.60 0.2663
380.70 0.2668
380.80 0.2672
380.90 0.2677
381.00 0.2681
381.10 0.2686
381.20 0.269
381.30 0.2695
381.40 0.2699
381.50 0.2704
381.60 0.2708
381.70 0.2713
381.80 0.2717
381.90 0.2722
382.00 0.2726
382.10 0.2731
382.20 0.2735
382.30 0.274
382.40 0.2745
382.50 0.2749
382.60 0.2754
382.70 0.2758
382.80 0.2763
382.90 0.2768
383.00 0.2772
383.10 0.2777
383.20 0.2781
383.30 0.2786
383.40 0.279
383.50 0.2795
383.60 0.28
383.70 0.2804
383.80 0.2809
383.90 0.2813
384.00 0.2818
384.10 0.2823
384.20 0.2827
384.30 0.2832
384.40 0.2837
384.50 0.2841
384.60 0.2846
384.70 0.285
384.80 0.2855
384.90 0.286
385.00 0.2864
385.10 0.2869
385.20 0.2874
385.30 0.2878
385.40 0.2883
385.50 0.2888
385.60 0.2893
385.70 0.2897
385.80 0.2902
385.90 0.2907
386.00 0.2911
386.10 0.2916
386.20 0.2921
386.30 0.2925
386.40 0.293
386.50 0.2935
386.60 0.294
386.70 0.2944
386.80 0.2949
386.90 0.2954
387.00 0.2959
387.10 0.2963
387.20 0.2968
387.30 0.2973
387.40 0.2978
387.50 0.2982
387.60 0.2987
387.70 0.2992
387.80 0.2997
387.90 0.3001
388.00 0.3006
388.10 0.3011
388.20 0.3016
388.30 0.3021
388.40 0.3025
388.50 0.303
388.60 0.3035
388.70 0.304
388.80 0.3045
388.90 0.3049
389.00 0.3054
389.10 0.3059
389.20 0.3064
389.30 0.3069
389.40 0.3074
389.50 0.3078
389.60 0.3083
389.70 0.3088
389.80 0.3093
389.90 0.3098
390.00 0.3103
390.10 0.3108
390.20 0.3112
390.30 0.3117
390.40 0.3122
390.50 0.3127
390.60 0.3132
390.70 0.3137
390.80 0.3142
390.90 0.3147
391.00 0.3152
391.10 0.3156
391.20 0.3161
391.30 0.3166
391.40 0.3171
391.50 0.3176
391.60 0.3181
391.70 0.3186
391.80 0.3191
391.90 0.3196
392.00 0.3201
392.10 0.3206
392.20 0.3211
392.30 0.3216
392.40 0.3221
392.50 0.3226
392.60 0.3231
392.70 0.3236
392.80 0.324
392.90 0.3246
393.00 0.325
393.10 0.3255
393.20 0.326
393.30 0.3265
393.40 0.327
393.50 0.3275
393.60 0.328
393.70 0.3285
393.80 0.329
393.90 0.3295
394.00 0.33
394.10 0.3305
394.20 0.3311
394.30 0.3316
394.40 0.3321
394.50 0.3326
394.60 0.3331
394.70 0.3336
394.80 0.3341
394.90 0.3346
395.00 0.3351
395.10 0.3356
395.20 0.3361
395.30 0.3366
395.40 0.3371
395.50 0.3376
395.60 0.3381
395.70 0.3386
395.80 0.3392
395.90 0.3397
396.00 0.3402
396.10 0.3407
396.20 0.3412
396.30 0.3417
396.40 0.3422
396.50 0.3427
396.60 0.3432
396.70 0.3438
396.80 0.3443
396.90 0.3448
397.00 0.3453
397.10 0.3458
397.20 0.3463
397.30 0.3468
397.40 0.3473
397.50 0.3479
397.60 0.3484
397.70 0.3489
397.80 0.3494
397.90 0.3499
398.00 0.3504
398.10 0.351
398.20 0.3515
398.30 0.352
398.40 0.3525
398.50 0.353
398.60 0.3536
398.70 0.3541
398.80 0.3546
398.90 0.3551
399.00 0.3556
399.10 0.3562
399.20 0.3567
399.30 0.3572
399.40 0.3577
399.50 0.3582
399.60 0.3588
399.70 0.3593
399.80 0.3598
399.90 0.3603
400.00 0.3609
400.10 0.3614
400.20 0.3619
400.30 0.3624
400.40 0.363
400.50 0.3635
400.60 0.364
400.70 0.3646
400.80 0.3651
400.90 0.3656
401.00 0.3661
401.10 0.3667
401.20 0.3672
401.30 0.3677
401.40 0.3682
401.50 0.3688
401.60 0.3693
401.70 0.3698
401.80 0.3704
401.90 0.3709
402.00 0.3714
402.10 0.372
402.20 0.3725
402.30 0.373
402.40 0.3736
402.50 0.3741
402.60 0.3746
402.70 0.3752
402.80 0.3757
402.90 0.3762
403.00 0.3768
403.10 0.3773
403.20 0.3779
403.30 0.3784
403.40 0.3789
403.50 0.3795
403.60 0.38
403.70 0.3805
403.80 0.3811
403.90 0.3816
404.00 0.3822
404.10 0.3827
404.20 0.3832
404.30 0.3838
404.40 0.3843
404.50 0.3849
404.60 0.3854
404.70 0.3859
404.80 0.3865
404.90 0.387
405.00 0.3876
405.10 0.3881
405.20 0.3887
405.30 0.3892
405.40 0.3897
405.50 0.3903
405.60 0.3908
405.70 0.3914
405.80 0.3919
405.90 0.3925
406.00 0.393
406.10 0.3936
406.20 0.3941
406.30 0.3947
406.40 0.3952
406.50 0.3958
406.60 0.3963
406.70 0.3969
406.80 0.3974
406.90 0.398
407.00 0.3985
407.10 0.3991
407.20 0.3996
407.30 0.4002
407.40 0.4007
407.50 0.4013
407.60 0.4018
407.70 0.4024
407.80 0.4029
407.90 0.4035
408.00 0.404
408.10 0.4046
408.20 0.4051
408.30 0.4057
408.40 0.4062
408.50 0.4068
408.60 0.4074
408.70 0.4079
408.80 0.4085
408.90 0.409
409.00 0.4096
409.10 0.4101
409.20 0.4107
409.30 0.4112
409.40 0.4118
409.50 0.4124
409.60 0.4129
409.70 0.4135
409.80 0.414
409.90 0.4146
410.00 0.4152
410.10 0.4157
410.20 0.4163
410.30 0.4169
410.40 0.4174
410.50 0.418
410.60 0.4185
410.70 0.4191
410.80 0.4197
410.90 0.4202
411.00 0.4208
411.10 0.4214
411.20 0.4219
411.30 0.4225
411.40 0.4231
411.50 0.4236
411.60 0.4242
411.70 0.4247
411.80 0.4253
411.90 0.4259
412.00 0.4265
412.10 0.427
412.20 0.4276
412.30 0.4282
412.40 0.4287
412.50 0.4293
412.60 0.4299
412.70 0.4304
412.80 0.431
412.90 0.4316
413.00 0.4321
413.10 0.4327
413.20 0.4333
413.30 0.4339
413.40 0.4344
413.50 0.435
413.60 0.4356
413.70 0.4361
413.80 0.4367
413.90 0.4373
414.00 0.4379
414.10 0.4384
414.20 0.439
414.30 0.4396
414.40 0.4402
414.50 0.4407
414.60 0.4413
414.70 0.4419
414.80 0.4425
414.90 0.443
415.00 0.4436
415.10 0.4442
415.20 0.4448
415.30 0.4454
415.40 0.4459
415.50 0.4465
415.60 0.4471
415.70 0.4477
415.80 0.4482
415.90 0.4488
416.00 0.4494
416.10 0.45
416.20 0.4506
416.30 0.4511
416.40 0.4517
416.50 0.4523
416.60 0.4529
416.70 0.4535
416.80 0.4541
416.90 0.4546
417.00 0.4552
417.10 0.4558
417.20 0.4564
417.30 0.457
417.40 0.4576
417.50 0.4582
417.60 0.4587
417.70 0.4593
417.80 0.4599
417.90 0.4605
418.00 0.4611
418.10 0.4617
418.20 0.4623
418.30 0.4628
418.40 0.4634
418.50 0.464
418.60 0.4646
418.70 0.4652
418.80 0.4658
418.90 0.4664
419.00 0.467
419.10 0.4676
419.20 0.4681
419.30 0.4687
419.40 0.4693
419.50 0.4699
419.60 0.4705
419.70 0.4711
419.80 0.4717
419.90 0.4723
420.00 0.4729
420.10 0.4735
420.20 0.4741
420.30 0.4747
420.40 0.4753
420.50 0.4758
420.60 0.4764
420.70 0.477
420.80 0.4776
420.90 0.4782
421.00 0.4788
421.10 0.4794
421.20 0.48
421.30 0.4806
421.40 0.4812
421.50 0.4818
421.60 0.4824
421.70 0.483
421.80 0.4836
421.90 0.4842
422.00 0.4848
422.10 0.4854
422.20 0.486
422.30 0.4866
422.40 0.4872
422.50 0.4878
422.60 0.4884
422.70 0.489
422.80 0.4896
422.90 0.4902
423.00 0.4908
423.10 0.4914
423.20 0.492
423.30 0.4926
423.40 0.4932
423.50 0.4938
423.60 0.4944
423.70 0.495
423.80 0.4956
423.90 0.4962
424.00 0.4968
424.10 0.4974
424.20 0.498
424.30 0.4987
424.40 0.4993
424.50 0.4999
424.60 0.5005
424.70 0.5011
424.80 0.5017
424.90 0.5023
425.00 0.5029
425.10 0.5035
425.20 0.5041
425.30 0.5047
425.40 0.5053
425.50 0.5059
425.60 0.5065
425.70 0.5072
425.80 0.5078
425.90 0.5084
426.00 0.509
426.10 0.5096
426.20 0.5102
426.30 0.5108
426.40 0.5114
426.50 0.512
426.60 0.5127
426.70 0.5133
426.80 0.5139
426.90 0.5145
427.00 0.5151
427.10 0.5157
427.20 0.5163
427.30 0.5169
427.40 0.5176
427.50 0.5182
427.60 0.5188
427.70 0.5194
427.80 0.52
427.90 0.5206
428.00 0.5212
428.10 0.5219
428.20 0.5225
428.30 0.5231
428.40 0.5237
428.50 0.5243
428.60 0.5249
428.70 0.5256
428.80 0.5262
428.90 0.5268
429.00 0.5274
429.10 0.528
429.20 0.5287
429.30 0.5293
429.40 0.5299
429.50 0.5305
429.60 0.5311
429.70 0.5318
429.80 0.5324
429.90 0.533
430.00 0.5336
430.10 0.5342
430.20 0.5349
430.30 0.5355
430.40 0.5361
430.50 0.5367
430.60 0.5374
430.70 0.538
430.80 0.5386
430.90 0.5392
431.00 0.5399
431.10 0.5405
431.20 0.5411
431.30 0.5417
431.40 0.5423
431.50 0.543
431.60 0.5436
431.70 0.5442
431.80 0.5448
431.90 0.5455
432.00 0.5461
432.10 0.5467
432.20 0.5474
432.30 0.548
432.40 0.5486
432.50 0.5492
432.60 0.5499
432.70 0.5505
432.80 0.5511
432.90 0.5518
433.00 0.5524
433.10 0.553
433.20 0.5536
433.30 0.5543
433.40 0.5549
433.50 0.5555
433.60 0.5562
433.70 0.5568
433.80 0.5574
433.90 0.5581
434.00 0.5587
434.10 0.5593
434.20 0.5599
434.30 0.5606
434.40 0.5612
434.50 0.5618
434.60 0.5625
434.70 0.5631
434.80 0.5637
434.90 0.5644
435.00 0.565
435.10 0.5656
435.20 0.5663
435.30 0.5669
435.40 0.5676
435.50 0.5682
435.60 0.5688
435.70 0.5695
435.80 0.5701
435.90 0.5707
436.00 0.5714
436.10 0.572
436.20 0.5726
436.30 0.5733
436.40 0.5739
436.50 0.5746
436.60 0.5752
436.70 0.5758
436.80 0.5765
436.90 0.5771
437.00 0.5777
437.10 0.5784
437.20 0.579
437.30 0.5797
437.40 0.5803
437.50 0.5809
437.60 0.5816
437.70 0.5822
437.80 0.5829
437.90 0.5835
438.00 0.5841
438.10 0.5848
438.20 0.5854
438.30 0.5861
438.40 0.5867
438.50 0.5874
438.60 0.588
438.70 0.5886
438.80 0.5893
438.90 0.5899
439.00 0.5906
439.10 0.5912
439.20 0.5919
439.30 0.5925
439.40 0.5931
439.50 0.5938
439.60 0.5944
439.70 0.5951
439.80 0.5957
439.90 0.5964
440.00 0.597
440.10 0.5977
440.20 0.5983
440.30 0.599
440.40 0.5996
440.50 0.6002
440.60 0.6009
440.70 0.6015
