# Version 2.1 - nm, norm@500 to 1, cut digits, bergeron_16500_75.dat_16500
# Wavelength(nm)  Flambda(ergs/cm^s/s/nm)
300.00 2.504
300.10 2.502
300.20 2.5
300.30 2.498
300.40 2.496
300.50 2.494
300.60 2.491
300.70 2.489
300.80 2.487
300.90 2.485
301.00 2.483
301.10 2.481
301.20 2.479
301.30 2.477
301.40 2.475
301.50 2.473
301.60 2.471
301.70 2.469
301.80 2.467
301.90 2.465
302.00 2.463
302.10 2.461
302.20 2.459
302.30 2.457
302.40 2.454
302.50 2.452
302.60 2.45
302.70 2.448
302.80 2.446
302.90 2.444
303.00 2.442
303.10 2.44
303.20 2.438
303.30 2.436
303.40 2.434
303.50 2.432
303.60 2.43
303.70 2.428
303.80 2.426
303.90 2.424
304.00 2.422
304.10 2.42
304.20 2.418
304.30 2.416
304.40 2.414
304.50 2.412
304.60 2.41
304.70 2.408
304.80 2.406
304.90 2.404
305.00 2.402
305.10 2.4
305.20 2.398
305.30 2.396
305.40 2.394
305.50 2.392
305.60 2.39
305.70 2.388
305.80 2.386
305.90 2.384
306.00 2.383
306.10 2.381
306.20 2.379
306.30 2.377
306.40 2.375
306.50 2.373
306.60 2.371
306.70 2.369
306.80 2.367
306.90 2.365
307.00 2.363
307.10 2.361
307.20 2.359
307.30 2.357
307.40 2.355
307.50 2.353
307.60 2.352
307.70 2.35
307.80 2.348
307.90 2.346
308.00 2.344
308.10 2.342
308.20 2.34
308.30 2.338
308.40 2.336
308.50 2.334
308.60 2.332
308.70 2.33
308.80 2.329
308.90 2.327
309.00 2.325
309.10 2.323
309.20 2.321
309.30 2.319
309.40 2.317
309.50 2.315
309.60 2.313
309.70 2.312
309.80 2.31
309.90 2.308
310.00 2.306
310.10 2.304
310.20 2.302
310.30 2.3
310.40 2.298
310.50 2.297
310.60 2.295
310.70 2.293
310.80 2.291
310.90 2.289
311.00 2.287
311.10 2.285
311.20 2.284
311.30 2.282
311.40 2.28
311.50 2.278
311.60 2.276
311.70 2.274
311.80 2.273
311.90 2.271
312.00 2.269
312.10 2.267
312.20 2.265
312.30 2.263
312.40 2.262
312.50 2.26
312.60 2.258
312.70 2.256
312.80 2.254
312.90 2.252
313.00 2.251
313.10 2.249
313.20 2.247
313.30 2.245
313.40 2.243
313.50 2.242
313.60 2.24
313.70 2.238
313.80 2.236
313.90 2.235
314.00 2.233
314.10 2.231
314.20 2.229
314.30 2.227
314.40 2.226
314.50 2.224
314.60 2.222
314.70 2.22
314.80 2.218
314.90 2.217
315.00 2.215
315.10 2.213
315.20 2.211
315.30 2.21
315.40 2.208
315.50 2.206
315.60 2.204
315.70 2.202
315.80 2.201
315.90 2.199
316.00 2.197
316.10 2.195
316.20 2.194
316.30 2.192
316.40 2.19
316.50 2.188
316.60 2.187
316.70 2.185
316.80 2.183
316.90 2.181
317.00 2.18
317.10 2.178
317.20 2.176
317.30 2.174
317.40 2.173
317.50 2.171
317.60 2.169
317.70 2.167
317.80 2.166
317.90 2.164
318.00 2.162
318.10 2.161
318.20 2.159
318.30 2.157
318.40 2.155
318.50 2.154
318.60 2.152
318.70 2.15
318.80 2.149
318.90 2.147
319.00 2.145
319.10 2.144
319.20 2.142
319.30 2.14
319.40 2.138
319.50 2.137
319.60 2.135
319.70 2.133
319.80 2.132
319.90 2.13
320.00 2.128
320.10 2.127
320.20 2.125
320.30 2.123
320.40 2.122
320.50 2.12
320.60 2.118
320.70 2.117
320.80 2.115
320.90 2.113
321.00 2.112
321.10 2.11
321.20 2.108
321.30 2.107
321.40 2.105
321.50 2.103
321.60 2.102
321.70 2.1
321.80 2.098
321.90 2.097
322.00 2.095
322.10 2.093
322.20 2.092
322.30 2.09
322.40 2.088
322.50 2.087
322.60 2.085
322.70 2.084
322.80 2.082
322.90 2.08
323.00 2.079
323.10 2.077
323.20 2.075
323.30 2.074
323.40 2.072
323.50 2.071
323.60 2.069
323.70 2.067
323.80 2.066
323.90 2.064
324.00 2.062
324.10 2.061
324.20 2.059
324.30 2.058
324.40 2.056
324.50 2.054
324.60 2.053
324.70 2.051
324.80 2.05
324.90 2.048
325.00 2.046
325.10 2.045
325.20 2.043
325.30 2.042
325.40 2.04
325.50 2.038
325.60 2.037
325.70 2.035
325.80 2.034
325.90 2.032
326.00 2.03
326.10 2.029
326.20 2.027
326.30 2.026
326.40 2.024
326.50 2.023
326.60 2.021
326.70 2.019
326.80 2.018
326.90 2.016
327.00 2.015
327.10 2.013
327.20 2.012
327.30 2.01
327.40 2.009
327.50 2.007
327.60 2.005
327.70 2.004
327.80 2.002
327.90 2.001
328.00 1.999
328.10 1.998
328.20 1.996
328.30 1.995
328.40 1.993
328.50 1.992
328.60 1.99
328.70 1.988
328.80 1.987
328.90 1.985
329.00 1.984
329.10 1.982
329.20 1.981
329.30 1.979
329.40 1.978
329.50 1.976
329.60 1.975
329.70 1.973
329.80 1.972
329.90 1.97
330.00 1.969
330.10 1.967
330.20 1.966
330.30 1.964
330.40 1.963
330.50 1.961
330.60 1.959
330.70 1.958
330.80 1.956
330.90 1.955
331.00 1.953
331.10 1.952
331.20 1.95
331.30 1.949
331.40 1.947
331.50 1.946
331.60 1.944
331.70 1.943
331.80 1.941
331.90 1.94
332.00 1.938
332.10 1.937
332.20 1.935
332.30 1.934
332.40 1.933
332.50 1.931
332.60 1.93
332.70 1.928
332.80 1.927
332.90 1.925
333.00 1.924
333.10 1.922
333.20 1.921
333.30 1.919
333.40 1.918
333.50 1.916
333.60 1.915
333.70 1.913
333.80 1.912
333.90 1.91
334.00 1.909
334.10 1.908
334.20 1.906
334.30 1.905
334.40 1.903
334.50 1.902
334.60 1.9
334.70 1.899
334.80 1.897
334.90 1.896
335.00 1.895
335.10 1.893
335.20 1.892
335.30 1.89
335.40 1.889
335.50 1.887
335.60 1.886
335.70 1.884
335.80 1.883
335.90 1.882
336.00 1.88
336.10 1.879
336.20 1.877
336.30 1.876
336.40 1.874
336.50 1.873
336.60 1.872
336.70 1.87
336.80 1.869
336.90 1.867
337.00 1.866
337.10 1.865
337.20 1.863
337.30 1.862
337.40 1.86
337.50 1.859
337.60 1.858
337.70 1.856
337.80 1.855
337.90 1.853
338.00 1.852
338.10 1.851
338.20 1.849
338.30 1.848
338.40 1.846
338.50 1.845
338.60 1.844
338.70 1.842
338.80 1.841
338.90 1.839
339.00 1.838
339.10 1.837
339.20 1.835
339.30 1.834
339.40 1.832
339.50 1.831
339.60 1.83
339.70 1.828
339.80 1.827
339.90 1.826
340.00 1.824
340.10 1.823
340.20 1.821
340.30 1.82
340.40 1.819
340.50 1.817
340.60 1.816
340.70 1.815
340.80 1.813
340.90 1.812
341.00 1.811
341.10 1.809
341.20 1.808
341.30 1.807
341.40 1.805
341.50 1.804
341.60 1.802
341.70 1.801
341.80 1.8
341.90 1.798
342.00 1.797
342.10 1.796
342.20 1.794
342.30 1.793
342.40 1.792
342.50 1.79
342.60 1.789
342.70 1.788
342.80 1.786
342.90 1.785
343.00 1.784
343.10 1.782
343.20 1.781
343.30 1.78
343.40 1.778
343.50 1.777
343.60 1.776
343.70 1.774
343.80 1.773
343.90 1.772
344.00 1.77
344.10 1.769
344.20 1.768
344.30 1.766
344.40 1.765
344.50 1.764
344.60 1.762
344.70 1.761
344.80 1.76
344.90 1.759
345.00 1.757
345.10 1.756
345.20 1.755
345.30 1.753
345.40 1.752
345.50 1.751
345.60 1.749
345.70 1.748
345.80 1.747
345.90 1.746
346.00 1.744
346.10 1.743
346.20 1.742
346.30 1.74
346.40 1.739
346.50 1.738
346.60 1.736
346.70 1.735
346.80 1.734
346.90 1.733
347.00 1.731
347.10 1.73
347.20 1.729
347.30 1.728
347.40 1.726
347.50 1.725
347.60 1.724
347.70 1.722
347.80 1.721
347.90 1.72
348.00 1.719
348.10 1.717
348.20 1.716
348.30 1.715
348.40 1.714
348.50 1.712
348.60 1.711
348.70 1.71
348.80 1.709
348.90 1.707
349.00 1.706
349.10 1.705
349.20 1.704
349.30 1.702
349.40 1.701
349.50 1.7
349.60 1.699
349.70 1.697
349.80 1.696
349.90 1.695
350.00 1.694
350.10 1.692
350.20 1.691
350.30 1.69
350.40 1.689
350.50 1.687
350.60 1.686
350.70 1.685
350.80 1.684
350.90 1.682
351.00 1.681
351.10 1.68
351.20 1.679
351.30 1.677
351.40 1.676
351.50 1.675
351.60 1.674
351.70 1.673
351.80 1.671
351.90 1.67
352.00 1.669
352.10 1.668
352.20 1.666
352.30 1.665
352.40 1.664
352.50 1.663
352.60 1.662
352.70 1.66
352.80 1.659
352.90 1.658
353.00 1.657
353.10 1.656
353.20 1.654
353.30 1.653
353.40 1.652
353.50 1.651
353.60 1.649
353.70 1.648
353.80 1.647
353.90 1.646
354.00 1.645
354.10 1.643
354.20 1.642
354.30 1.641
354.40 1.64
354.50 1.639
354.60 1.638
354.70 1.636
354.80 1.635
354.90 1.634
355.00 1.633
355.10 1.632
355.20 1.63
355.30 1.629
355.40 1.628
355.50 1.627
355.60 1.626
355.70 1.625
355.80 1.623
355.90 1.622
356.00 1.621
356.10 1.62
356.20 1.619
356.30 1.617
356.40 1.616
356.50 1.615
356.60 1.614
356.70 1.613
356.80 1.612
356.90 1.61
357.00 1.609
357.10 1.608
357.20 1.607
357.30 1.606
357.40 1.605
357.50 1.604
357.60 1.602
357.70 1.601
357.80 1.6
357.90 1.599
358.00 1.598
358.10 1.597
358.20 1.595
358.30 1.594
358.40 1.593
358.50 1.592
358.60 1.591
358.70 1.59
358.80 1.588
358.90 1.587
359.00 1.586
359.10 1.585
359.20 1.584
359.30 1.583
359.40 1.582
359.50 1.58
359.60 1.579
359.70 1.578
359.80 1.577
359.90 1.576
360.00 1.575
360.10 1.574
360.20 1.573
360.30 1.571
360.40 1.57
360.50 1.569
360.60 1.568
360.70 1.567
360.80 1.566
360.90 1.565
361.00 1.564
361.10 1.562
361.20 1.561
361.30 1.56
361.40 1.559
361.50 1.558
361.60 1.557
361.70 1.556
361.80 1.555
361.90 1.553
362.00 1.552
362.10 1.551
362.20 1.55
362.30 1.549
362.40 1.548
362.50 1.547
362.60 1.546
362.70 1.545
362.80 1.543
362.90 1.542
363.00 1.541
363.10 1.54
363.20 1.539
363.30 1.538
363.40 1.537
363.50 1.536
363.60 1.534
363.70 1.533
363.80 1.532
363.90 1.531
364.00 1.53
364.10 1.529
364.20 1.528
364.30 1.526
364.40 1.525
364.50 1.524
364.60 1.523
364.70 1.522
364.80 1.521
364.90 1.519
365.00 1.518
365.10 1.517
365.20 1.516
365.30 1.515
365.40 1.514
365.50 1.513
365.60 1.511
365.70 1.51
365.80 1.509
365.90 1.508
366.00 1.507
366.10 1.506
366.20 1.505
366.30 1.504
366.40 1.503
366.50 1.501
366.60 1.5
366.70 1.499
366.80 1.498
366.90 1.497
367.00 1.496
367.10 1.495
367.20 1.494
367.30 1.493
367.40 1.492
367.50 1.491
367.60 1.49
367.70 1.489
367.80 1.488
367.90 1.487
368.00 1.486
368.10 1.485
368.20 1.484
368.30 1.483
368.40 1.482
368.50 1.482
368.60 1.481
368.70 1.48
368.80 1.479
368.90 1.479
369.00 1.478
369.10 1.477
369.20 1.476
369.30 1.476
369.40 1.475
369.50 1.474
369.60 1.473
369.70 1.473
369.80 1.472
369.90 1.471
370.00 1.47
370.10 1.471
370.20 1.471
370.30 1.471
370.40 1.471
370.50 1.471
370.60 1.471
370.70 1.472
370.80 1.472
370.90 1.472
371.00 1.472
371.10 1.472
371.20 1.472
371.30 1.473
371.40 1.473
371.50 1.473
371.60 1.473
371.70 1.473
371.80 1.473
371.90 1.474
372.00 1.474
372.10 1.475
372.20 1.477
372.30 1.478
372.40 1.479
372.50 1.481
372.60 1.482
372.70 1.484
372.80 1.485
372.90 1.487
373.00 1.488
373.10 1.489
373.20 1.491
373.30 1.492
373.40 1.494
373.50 1.495
373.60 1.496
373.70 1.498
373.80 1.499
373.90 1.501
374.00 1.502
374.10 1.504
374.20 1.506
374.30 1.508
374.40 1.51
374.50 1.512
374.60 1.514
374.70 1.516
374.80 1.518
374.90 1.52
375.00 1.522
375.10 1.524
375.20 1.526
375.30 1.528
375.40 1.53
375.50 1.532
375.60 1.534
375.70 1.536
375.80 1.538
375.90 1.54
376.00 1.542
376.10 1.543
376.20 1.544
376.30 1.545
376.40 1.546
376.50 1.547
376.60 1.548
376.70 1.549
376.80 1.55
376.90 1.551
377.00 1.552
377.10 1.55
377.20 1.549
377.30 1.547
377.40 1.545
377.50 1.543
377.60 1.541
377.70 1.539
377.80 1.537
377.90 1.535
378.00 1.534
378.10 1.523
378.20 1.513
378.30 1.502
378.40 1.492
378.50 1.481
378.60 1.471
378.70 1.461
378.80 1.45
378.90 1.44
379.00 1.429
379.10 1.422
379.20 1.415
379.30 1.407
379.40 1.4
379.50 1.392
379.60 1.385
379.70 1.378
379.80 1.37
379.90 1.363
380.00 1.356
380.10 1.367
380.20 1.378
380.30 1.389
380.40 1.401
380.50 1.412
380.60 1.423
380.70 1.434
380.80 1.446
380.90 1.457
381.00 1.468
381.10 1.472
381.20 1.476
381.30 1.48
381.40 1.485
381.50 1.489
381.60 1.488
381.70 1.485
381.80 1.48
381.90 1.474
382.00 1.466
382.10 1.456
382.20 1.444
382.30 1.422
382.40 1.4
382.50 1.378
382.60 1.357
382.70 1.335
382.80 1.313
382.90 1.291
383.00 1.27
383.10 1.248
383.20 1.226
383.30 1.209
383.40 1.19
383.50 1.169
383.60 1.173
383.70 1.195
383.80 1.213
383.90 1.23
384.00 1.251
384.10 1.275
384.20 1.302
384.30 1.33
384.40 1.357
384.50 1.382
384.60 1.405
384.70 1.426
384.80 1.445
384.90 1.462
385.00 1.476
385.10 1.489
385.20 1.499
385.30 1.509
385.40 1.516
385.50 1.522
385.60 1.528
385.70 1.531
385.80 1.533
385.90 1.535
386.00 1.535
386.10 1.533
386.20 1.531
386.30 1.527
386.40 1.523
386.50 1.517
386.60 1.51
386.70 1.501
386.80 1.492
386.90 1.481
387.00 1.47
387.10 1.457
387.20 1.442
387.30 1.426
387.40 1.41
387.50 1.39
387.60 1.369
387.70 1.346
387.80 1.32
387.90 1.293
388.00 1.263
388.10 1.229
388.20 1.194
388.30 1.157
388.40 1.121
388.50 1.087
388.60 1.056
388.70 1.029
388.80 1.004
388.90 0.98
389.00 1.001
389.10 1.024
389.20 1.051
389.30 1.081
389.40 1.113
389.50 1.149
389.60 1.186
389.70 1.221
389.80 1.255
389.90 1.285
390.00 1.314
390.10 1.341
390.20 1.365
390.30 1.387
390.40 1.409
390.50 1.428
390.60 1.446
390.70 1.464
390.80 1.48
390.90 1.495
391.00 1.51
391.10 1.524
391.20 1.537
391.30 1.55
391.40 1.562
391.50 1.573
391.60 1.583
391.70 1.593
391.80 1.601
391.90 1.609
392.00 1.616
392.10 1.623
392.20 1.628
392.30 1.633
392.40 1.636
392.50 1.639
392.60 1.641
392.70 1.642
392.80 1.642
392.90 1.641
393.00 1.639
393.10 1.637
393.20 1.633
393.30 1.628
393.40 1.623
393.50 1.617
393.60 1.609
393.70 1.601
393.80 1.592
393.90 1.581
394.00 1.571
394.10 1.558
394.20 1.545
394.30 1.532
394.40 1.517
394.50 1.501
394.60 1.485
394.70 1.468
394.80 1.45
394.90 1.432
395.00 1.413
395.10 1.393
395.20 1.373
395.30 1.352
395.40 1.33
395.50 1.307
395.60 1.283
395.70 1.258
395.80 1.233
395.90 1.205
396.00 1.177
396.10 1.147
396.20 1.114
396.30 1.079
396.40 1.042
396.50 1.003
396.60 0.964
396.70 0.9261
396.80 0.8918
396.90 0.8529
397.00 0.8095
397.10 0.8489
397.20 0.8853
397.30 0.9188
397.40 0.9553
397.50 0.9928
397.60 1.031
397.70 1.067
397.80 1.101
397.90 1.133
398.00 1.162
398.10 1.19
398.20 1.216
398.30 1.241
398.40 1.265
398.50 1.288
398.60 1.309
398.70 1.33
398.80 1.351
398.90 1.371
399.00 1.39
399.10 1.409
399.20 1.427
399.30 1.445
399.40 1.463
399.50 1.48
399.60 1.496
399.70 1.513
399.80 1.528
399.90 1.543
400.00 1.557
400.10 1.571
400.20 1.584
400.30 1.597
400.40 1.609
400.50 1.62
400.60 1.631
400.70 1.642
400.80 1.652
400.90 1.661
401.00 1.67
401.10 1.678
401.20 1.686
401.30 1.694
401.40 1.701
401.50 1.707
401.60 1.713
401.70 1.719
401.80 1.724
401.90 1.729
402.00 1.733
402.10 1.737
402.20 1.741
402.30 1.744
402.40 1.747
402.50 1.749
402.60 1.752
402.70 1.753
402.80 1.755
402.90 1.756
403.00 1.757
403.10 1.757
403.20 1.757
403.30 1.757
403.40 1.756
403.50 1.755
403.60 1.754
403.70 1.753
403.80 1.751
403.90 1.749
404.00 1.746
404.10 1.743
404.20 1.74
404.30 1.736
404.40 1.733
404.50 1.728
404.60 1.724
404.70 1.719
404.80 1.714
404.90 1.708
405.00 1.702
405.10 1.696
405.20 1.689
405.30 1.682
405.40 1.674
405.50 1.666
405.60 1.657
405.70 1.649
405.80 1.639
405.90 1.63
406.00 1.62
406.10 1.609
406.20 1.598
406.30 1.586
406.40 1.574
406.50 1.562
406.60 1.549
406.70 1.535
406.80 1.521
406.90 1.507
407.00 1.492
407.10 1.476
407.20 1.46
407.30 1.443
407.40 1.425
407.50 1.408
407.60 1.389
407.70 1.37
407.80 1.351
407.90 1.331
408.00 1.311
408.10 1.29
408.20 1.269
408.30 1.248
408.40 1.227
408.50 1.205
408.60 1.182
408.70 1.16
408.80 1.137
408.90 1.113
409.00 1.089
409.10 1.065
409.20 1.039
409.30 1.013
409.40 0.9848
409.50 0.9544
409.60 0.9224
409.70 0.8876
409.80 0.8522
409.90 0.8164
410.00 0.7759
410.10 0.7358
410.20 0.6961
410.30 0.7513
410.40 0.797
410.50 0.8332
410.60 0.868
410.70 0.9018
410.80 0.9347
410.90 0.9643
411.00 0.9923
411.10 1.019
411.20 1.043
411.30 1.066
411.40 1.089
411.50 1.111
411.60 1.133
411.70 1.154
411.80 1.175
411.90 1.195
412.00 1.215
412.10 1.235
412.20 1.254
412.30 1.273
412.40 1.291
412.50 1.309
412.60 1.327
412.70 1.344
412.80 1.361
412.90 1.378
413.00 1.393
413.10 1.408
413.20 1.423
413.30 1.437
413.40 1.451
413.50 1.464
413.60 1.477
413.70 1.489
413.80 1.501
413.90 1.511
414.00 1.522
414.10 1.533
414.20 1.542
414.30 1.552
414.40 1.561
414.50 1.57
414.60 1.578
414.70 1.586
414.80 1.594
414.90 1.601
415.00 1.608
415.10 1.615
415.20 1.621
415.30 1.627
415.40 1.633
415.50 1.638
415.60 1.644
415.70 1.648
415.80 1.653
415.90 1.658
416.00 1.662
416.10 1.666
416.20 1.67
416.30 1.673
416.40 1.677
416.50 1.68
416.60 1.683
416.70 1.686
416.80 1.689
416.90 1.691
417.00 1.694
417.10 1.696
417.20 1.698
417.30 1.7
417.40 1.702
417.50 1.704
417.60 1.706
417.70 1.707
417.80 1.709
417.90 1.71
418.00 1.711
418.10 1.712
418.20 1.713
418.30 1.714
418.40 1.715
418.50 1.716
418.60 1.716
418.70 1.717
418.80 1.717
418.90 1.718
419.00 1.718
419.10 1.718
419.20 1.719
419.30 1.719
419.40 1.719
419.50 1.719
419.60 1.719
419.70 1.719
419.80 1.718
419.90 1.718
420.00 1.718
420.10 1.717
420.20 1.717
420.30 1.717
420.40 1.716
420.50 1.716
420.60 1.715
420.70 1.714
420.80 1.714
420.90 1.713
421.00 1.712
421.10 1.711
421.20 1.71
421.30 1.71
421.40 1.709
421.50 1.708
421.60 1.707
421.70 1.706
421.80 1.704
421.90 1.703
422.00 1.702
422.10 1.701
422.20 1.7
422.30 1.698
422.40 1.697
422.50 1.695
422.60 1.694
422.70 1.692
422.80 1.691
422.90 1.689
423.00 1.688
423.10 1.686
423.20 1.684
423.30 1.683
423.40 1.681
423.50 1.679
423.60 1.677
423.70 1.675
423.80 1.673
423.90 1.671
424.00 1.669
424.10 1.667
424.20 1.665
424.30 1.663
424.40 1.66
424.50 1.658
424.60 1.656
424.70 1.653
424.80 1.651
424.90 1.648
425.00 1.645
425.10 1.643
425.20 1.64
425.30 1.637
425.40 1.634
425.50 1.631
425.60 1.628
425.70 1.625
425.80 1.622
425.90 1.618
426.00 1.615
426.10 1.611
426.20 1.607
426.30 1.603
426.40 1.6
426.50 1.596
426.60 1.592
426.70 1.588
426.80 1.583
426.90 1.579
427.00 1.575
427.10 1.57
427.20 1.566
427.30 1.561
427.40 1.556
427.50 1.551
427.60 1.546
427.70 1.54
427.80 1.535
427.90 1.53
428.00 1.524
428.10 1.518
428.20 1.512
428.30 1.506
428.40 1.499
428.50 1.493
428.60 1.486
428.70 1.479
428.80 1.472
428.90 1.464
429.00 1.457
429.10 1.449
429.20 1.441
429.30 1.433
429.40 1.424
429.50 1.415
429.60 1.406
429.70 1.397
429.80 1.387
429.90 1.377
430.00 1.367
430.10 1.357
430.20 1.346
430.30 1.335
430.40 1.324
430.50 1.312
430.60 1.3
430.70 1.288
430.80 1.275
430.90 1.262
431.00 1.249
431.10 1.236
431.20 1.222
431.30 1.208
431.40 1.193
431.50 1.178
431.60 1.163
431.70 1.148
431.80 1.132
431.90 1.115
432.00 1.098
432.10 1.081
432.20 1.063
432.30 1.045
432.40 1.026
432.50 1.006
432.60 0.9855
432.70 0.9645
432.80 0.9431
432.90 0.9218
433.00 0.9007
433.10 0.8805
433.20 0.8599
433.30 0.839
433.40 0.8159
433.50 0.7912
433.60 0.7651
433.70 0.735
433.80 0.7019
433.90 0.6657
434.00 0.592
434.10 0.5929
434.20 0.6684
434.30 0.7032
434.40 0.7351
434.50 0.7641
434.60 0.7891
434.70 0.8127
434.80 0.8347
434.90 0.8545
435.00 0.8739
435.10 0.8931
435.20 0.9129
435.30 0.9329
435.40 0.953
435.50 0.9725
435.60 0.9914
435.70 1.01
435.80 1.027
435.90 1.044
436.00 1.06
436.10 1.076
436.20 1.091
436.30 1.105
436.40 1.119
436.50 1.133
436.60 1.147
436.70 1.159
436.80 1.172
436.90 1.184
437.00 1.196
437.10 1.207
437.20 1.218
437.30 1.229
437.40 1.239
437.50 1.249
437.60 1.259
437.70 1.268
437.80 1.277
437.90 1.286
438.00 1.294
438.10 1.303
438.20 1.31
438.30 1.318
438.40 1.325
438.50 1.332
438.60 1.339
438.70 1.345
438.80 1.351
438.90 1.357
439.00 1.363
439.10 1.368
439.20 1.373
439.30 1.378
439.40 1.383
439.50 1.387
439.60 1.392
439.70 1.396
439.80 1.4
439.90 1.404
440.00 1.407
440.10 1.41
440.20 1.414
440.30 1.417
440.40 1.42
440.50 1.423
440.60 1.425
440.70 1.428
440.80 1.43
440.90 1.433
441.00 1.435
441.10 1.437
441.20 1.439
441.30 1.441
441.40 1.443
441.50 1.444
441.60 1.446
441.70 1.447
441.80 1.449
441.90 1.45
442.00 1.451
442.10 1.452
442.20 1.453
442.30 1.455
442.40 1.455
442.50 1.456
442.60 1.457
442.70 1.458
442.80 1.458
442.90 1.459
443.00 1.459
443.10 1.46
443.20 1.46
443.30 1.461
443.40 1.461
443.50 1.461
443.60 1.462
443.70 1.462
443.80 1.462
443.90 1.462
444.00 1.462
444.10 1.462
444.20 1.462
444.30 1.462
444.40 1.462
444.50 1.462
444.60 1.462
444.70 1.462
444.80 1.461
444.90 1.461
445.00 1.461
445.10 1.461
445.20 1.46
445.30 1.46
445.40 1.46
445.50 1.459
445.60 1.459
445.70 1.459
445.80 1.458
445.90 1.458
446.00 1.457
446.10 1.457
446.20 1.456
446.30 1.456
446.40 1.455
446.50 1.455
446.60 1.454
446.70 1.453
446.80 1.453
446.90 1.452
447.00 1.452
447.10 1.451
447.20 1.45
447.30 1.45
447.40 1.449
447.50 1.448
447.60 1.448
447.70 1.447
447.80 1.446
447.90 1.446
448.00 1.445
448.10 1.444
448.20 1.443
448.30 1.443
448.40 1.442
448.50 1.441
448.60 1.44
448.70 1.44
448.80 1.439
448.90 1.438
449.00 1.437
449.10 1.437
449.20 1.436
449.30 1.435
449.40 1.434
449.50 1.433
449.60 1.432
449.70 1.432
449.80 1.431
449.90 1.43
450.00 1.429
450.10 1.428
450.20 1.427
450.30 1.427
450.40 1.426
450.50 1.425
450.60 1.424
450.70 1.423
450.80 1.422
450.90 1.421
451.00 1.42
451.10 1.42
451.20 1.419
451.30 1.418
451.40 1.417
451.50 1.416
451.60 1.415
451.70 1.414
451.80 1.413
451.90 1.412
452.00 1.411
452.10 1.41
452.20 1.41
452.30 1.409
452.40 1.408
452.50 1.407
452.60 1.406
452.70 1.405
452.80 1.404
452.90 1.403
453.00 1.402
453.10 1.401
453.20 1.4
453.30 1.399
453.40 1.398
453.50 1.397
453.60 1.397
453.70 1.396
