# Version 2.1 - nm, norm@500 to 1, cut digits, bergeron_5000_95.dat_5000
# Wavelength(nm)  Flambda(ergs/cm^s/s/nm)
300.00 0.3844
300.10 0.3849
300.20 0.3853
300.30 0.3858
300.40 0.3863
300.50 0.3867
300.60 0.3872
300.70 0.3876
300.80 0.3881
300.90 0.3886
301.00 0.389
301.10 0.3895
301.20 0.3899
301.30 0.3904
301.40 0.3908
301.50 0.3913
301.60 0.3918
301.70 0.3922
301.80 0.3927
301.90 0.3931
302.00 0.3936
302.10 0.394
302.20 0.3945
302.30 0.3949
302.40 0.3954
302.50 0.3959
302.60 0.3963
302.70 0.3968
302.80 0.3973
302.90 0.3977
303.00 0.3982
303.10 0.3986
303.20 0.3991
303.30 0.3995
303.40 0.4
303.50 0.4004
303.60 0.4009
303.70 0.4014
303.80 0.4018
303.90 0.4023
304.00 0.4027
304.10 0.4032
304.20 0.4036
304.30 0.4041
304.40 0.4046
304.50 0.405
304.60 0.4055
304.70 0.4059
304.80 0.4064
304.90 0.4069
305.00 0.4073
305.10 0.4078
305.20 0.4082
305.30 0.4087
305.40 0.4092
305.50 0.4096
305.60 0.4101
305.70 0.4105
305.80 0.411
305.90 0.4114
306.00 0.4119
306.10 0.4123
306.20 0.4128
306.30 0.4133
306.40 0.4137
306.50 0.4142
306.60 0.4147
306.70 0.4151
306.80 0.4156
306.90 0.416
307.00 0.4165
307.10 0.417
307.20 0.4174
307.30 0.4179
307.40 0.4183
307.50 0.4188
307.60 0.4192
307.70 0.4197
307.80 0.4202
307.90 0.4206
308.00 0.4211
308.10 0.4215
308.20 0.422
308.30 0.4225
308.40 0.4229
308.50 0.4234
308.60 0.4238
308.70 0.4243
308.80 0.4248
308.90 0.4252
309.00 0.4257
309.10 0.4261
309.20 0.4266
309.30 0.4271
309.40 0.4275
309.50 0.428
309.60 0.4284
309.70 0.4289
309.80 0.4293
309.90 0.4298
310.00 0.4303
310.10 0.4307
310.20 0.4312
310.30 0.4316
310.40 0.4321
310.50 0.4326
310.60 0.433
310.70 0.4335
310.80 0.434
310.90 0.4344
311.00 0.4349
311.10 0.4353
311.20 0.4358
311.30 0.4363
311.40 0.4367
311.50 0.4372
311.60 0.4376
311.70 0.4381
311.80 0.4385
311.90 0.439
312.00 0.4395
312.10 0.4399
312.20 0.4404
312.30 0.4408
312.40 0.4413
312.50 0.4417
312.60 0.4422
312.70 0.4427
312.80 0.4431
312.90 0.4436
313.00 0.4441
313.10 0.4445
313.20 0.445
313.30 0.4454
313.40 0.4459
313.50 0.4464
313.60 0.4468
313.70 0.4473
313.80 0.4477
313.90 0.4482
314.00 0.4486
314.10 0.4491
314.20 0.4496
314.30 0.45
314.40 0.4505
314.50 0.451
314.60 0.4514
314.70 0.4519
314.80 0.4523
314.90 0.4528
315.00 0.4533
315.10 0.4537
315.20 0.4542
315.30 0.4546
315.40 0.4551
315.50 0.4556
315.60 0.456
315.70 0.4565
315.80 0.4569
315.90 0.4574
316.00 0.4578
316.10 0.4583
316.20 0.4588
316.30 0.4592
316.40 0.4597
316.50 0.4601
316.60 0.4606
316.70 0.4611
316.80 0.4615
316.90 0.462
317.00 0.4624
317.10 0.4629
317.20 0.4634
317.30 0.4638
317.40 0.4643
317.50 0.4647
317.60 0.4652
317.70 0.4656
317.80 0.4661
317.90 0.4666
318.00 0.467
318.10 0.4675
318.20 0.4679
318.30 0.4684
318.40 0.4689
318.50 0.4693
318.60 0.4698
318.70 0.4702
318.80 0.4707
318.90 0.4712
319.00 0.4716
319.10 0.4721
319.20 0.4725
319.30 0.473
319.40 0.4734
319.50 0.4739
319.60 0.4744
319.70 0.4748
319.80 0.4753
319.90 0.4757
320.00 0.4762
320.10 0.4766
320.20 0.4771
320.30 0.4776
320.40 0.478
320.50 0.4785
320.60 0.4789
320.70 0.4794
320.80 0.4799
320.90 0.4803
321.00 0.4808
321.10 0.4812
321.20 0.4817
321.30 0.4822
321.40 0.4826
321.50 0.4831
321.60 0.4835
321.70 0.484
321.80 0.4844
321.90 0.4849
322.00 0.4853
322.10 0.4858
322.20 0.4862
322.30 0.4867
322.40 0.4872
322.50 0.4876
322.60 0.4881
322.70 0.4885
322.80 0.489
322.90 0.4895
323.00 0.4899
323.10 0.4904
323.20 0.4908
323.30 0.4913
323.40 0.4917
323.50 0.4922
323.60 0.4926
323.70 0.4931
323.80 0.4936
323.90 0.494
324.00 0.4945
324.10 0.4949
324.20 0.4954
324.30 0.4958
324.40 0.4963
324.50 0.4968
324.60 0.4972
324.70 0.4977
324.80 0.4981
324.90 0.4986
325.00 0.499
325.10 0.4995
325.20 0.5
325.30 0.5004
325.40 0.5009
325.50 0.5013
325.60 0.5018
325.70 0.5022
325.80 0.5027
325.90 0.5031
326.00 0.5036
326.10 0.504
326.20 0.5045
326.30 0.5049
326.40 0.5054
326.50 0.5059
326.60 0.5063
326.70 0.5068
326.80 0.5072
326.90 0.5077
327.00 0.5081
327.10 0.5086
327.20 0.5091
327.30 0.5095
327.40 0.51
327.50 0.5104
327.60 0.5109
327.70 0.5113
327.80 0.5118
327.90 0.5122
328.00 0.5127
328.10 0.5131
328.20 0.5136
328.30 0.514
328.40 0.5145
328.50 0.5149
328.60 0.5154
328.70 0.5159
328.80 0.5163
328.90 0.5168
329.00 0.5172
329.10 0.5177
329.20 0.5181
329.30 0.5186
329.40 0.519
329.50 0.5195
329.60 0.5199
329.70 0.5204
329.80 0.5208
329.90 0.5213
330.00 0.5217
330.10 0.5222
330.20 0.5226
330.30 0.5231
330.40 0.5235
330.50 0.524
330.60 0.5244
330.70 0.5249
330.80 0.5253
330.90 0.5258
331.00 0.5262
331.10 0.5267
331.20 0.5272
331.30 0.5276
331.40 0.528
331.50 0.5285
331.60 0.5289
331.70 0.5294
331.80 0.5298
331.90 0.5303
332.00 0.5307
332.10 0.5312
332.20 0.5316
332.30 0.5321
332.40 0.5325
332.50 0.533
332.60 0.5334
332.70 0.5339
332.80 0.5344
332.90 0.5348
333.00 0.5353
333.10 0.5357
333.20 0.5361
333.30 0.5366
333.40 0.537
333.50 0.5375
333.60 0.5379
333.70 0.5384
333.80 0.5388
333.90 0.5393
334.00 0.5397
334.10 0.5402
334.20 0.5406
334.30 0.5411
334.40 0.5415
334.50 0.542
334.60 0.5424
334.70 0.5429
334.80 0.5433
334.90 0.5438
335.00 0.5442
335.10 0.5447
335.20 0.5451
335.30 0.5456
335.40 0.546
335.50 0.5464
335.60 0.5469
335.70 0.5473
335.80 0.5478
335.90 0.5482
336.00 0.5487
336.10 0.5491
336.20 0.5496
336.30 0.55
336.40 0.5505
336.50 0.5509
336.60 0.5514
336.70 0.5518
336.80 0.5523
336.90 0.5527
337.00 0.5531
337.10 0.5536
337.20 0.554
337.30 0.5545
337.40 0.5549
337.50 0.5554
337.60 0.5558
337.70 0.5562
337.80 0.5567
337.90 0.5571
338.00 0.5576
338.10 0.558
338.20 0.5585
338.30 0.5589
338.40 0.5594
338.50 0.5598
338.60 0.5603
338.70 0.5607
338.80 0.5611
338.90 0.5616
339.00 0.562
339.10 0.5625
339.20 0.5629
339.30 0.5634
339.40 0.5638
339.50 0.5642
339.60 0.5647
339.70 0.5651
339.80 0.5655
339.90 0.566
340.00 0.5664
340.10 0.5669
340.20 0.5673
340.30 0.5678
340.40 0.5682
340.50 0.5686
340.60 0.5691
340.70 0.5695
340.80 0.57
340.90 0.5704
341.00 0.5709
341.10 0.5713
341.20 0.5717
341.30 0.5722
341.40 0.5726
341.50 0.5731
341.60 0.5735
341.70 0.5739
341.80 0.5744
341.90 0.5748
342.00 0.5752
342.10 0.5757
342.20 0.5761
342.30 0.5766
342.40 0.577
342.50 0.5774
342.60 0.5779
342.70 0.5783
342.80 0.5788
342.90 0.5792
343.00 0.5796
343.10 0.5801
343.20 0.5805
343.30 0.581
343.40 0.5814
343.50 0.5818
343.60 0.5823
343.70 0.5827
343.80 0.5831
343.90 0.5836
344.00 0.584
344.10 0.5844
344.20 0.5849
344.30 0.5853
344.40 0.5858
344.50 0.5862
344.60 0.5866
344.70 0.5871
344.80 0.5875
344.90 0.5879
345.00 0.5884
345.10 0.5888
345.20 0.5892
345.30 0.5897
345.40 0.5901
345.50 0.5905
345.60 0.591
345.70 0.5914
345.80 0.5918
345.90 0.5923
346.00 0.5927
346.10 0.5931
346.20 0.5936
346.30 0.594
346.40 0.5944
346.50 0.5949
346.60 0.5953
346.70 0.5958
346.80 0.5962
346.90 0.5966
347.00 0.5971
347.10 0.5975
347.20 0.5979
347.30 0.5983
347.40 0.5988
347.50 0.5992
347.60 0.5996
347.70 0.6001
347.80 0.6005
347.90 0.6009
348.00 0.6013
348.10 0.6018
348.20 0.6022
348.30 0.6027
348.40 0.6031
348.50 0.6035
348.60 0.6039
348.70 0.6044
348.80 0.6048
348.90 0.6052
349.00 0.6057
349.10 0.6061
349.20 0.6065
349.30 0.607
349.40 0.6074
349.50 0.6078
349.60 0.6082
349.70 0.6087
349.80 0.6091
349.90 0.6095
350.00 0.6099
350.10 0.6104
350.20 0.6108
350.30 0.6112
350.40 0.6117
350.50 0.6121
350.60 0.6125
350.70 0.6129
350.80 0.6134
350.90 0.6138
351.00 0.6142
351.10 0.6147
351.20 0.6151
351.30 0.6155
351.40 0.6159
351.50 0.6164
351.60 0.6168
351.70 0.6172
351.80 0.6176
351.90 0.618
352.00 0.6185
352.10 0.6189
352.20 0.6193
352.30 0.6197
352.40 0.6202
352.50 0.6206
352.60 0.621
352.70 0.6215
352.80 0.6219
352.90 0.6223
353.00 0.6227
353.10 0.6232
353.20 0.6236
353.30 0.624
353.40 0.6244
353.50 0.6248
353.60 0.6253
353.70 0.6257
353.80 0.6261
353.90 0.6265
354.00 0.6269
354.10 0.6274
354.20 0.6278
354.30 0.6282
354.40 0.6286
354.50 0.6291
354.60 0.6295
354.70 0.6299
354.80 0.6303
354.90 0.6307
355.00 0.6312
355.10 0.6316
355.20 0.632
355.30 0.6324
355.40 0.6328
355.50 0.6332
355.60 0.6337
355.70 0.6341
355.80 0.6345
355.90 0.6349
356.00 0.6353
356.10 0.6357
356.20 0.6362
356.30 0.6366
356.40 0.637
356.50 0.6374
356.60 0.6378
356.70 0.6383
356.80 0.6387
356.90 0.6391
357.00 0.6395
357.10 0.6399
357.20 0.6403
357.30 0.6408
357.40 0.6412
357.50 0.6416
357.60 0.642
357.70 0.6424
357.80 0.6428
357.90 0.6432
358.00 0.6437
358.10 0.6441
358.20 0.6445
358.30 0.6449
358.40 0.6453
358.50 0.6457
358.60 0.6462
358.70 0.6466
358.80 0.647
358.90 0.6474
359.00 0.6478
359.10 0.6482
359.20 0.6486
359.30 0.649
359.40 0.6495
359.50 0.6499
359.60 0.6503
359.70 0.6507
359.80 0.6511
359.90 0.6515
360.00 0.6519
360.10 0.6523
360.20 0.6527
360.30 0.6532
360.40 0.6536
360.50 0.654
360.60 0.6544
360.70 0.6548
360.80 0.6552
360.90 0.6556
361.00 0.656
361.10 0.6564
361.20 0.6569
361.30 0.6573
361.40 0.6577
361.50 0.6581
361.60 0.6585
361.70 0.6589
361.80 0.6593
361.90 0.6597
362.00 0.6601
362.10 0.6605
362.20 0.6609
362.30 0.6613
362.40 0.6617
362.50 0.6621
362.60 0.6625
362.70 0.6629
362.80 0.6634
362.90 0.6638
363.00 0.6642
363.10 0.6646
363.20 0.665
363.30 0.6654
363.40 0.6658
363.50 0.6662
363.60 0.6666
363.70 0.667
363.80 0.6674
363.90 0.6678
364.00 0.6682
364.10 0.6686
364.20 0.669
364.30 0.6694
364.40 0.6698
364.50 0.6702
364.60 0.6706
364.70 0.671
364.80 0.6714
364.90 0.6718
365.00 0.6722
365.10 0.6726
365.20 0.673
365.30 0.6734
365.40 0.6738
365.50 0.6742
365.60 0.6746
365.70 0.675
365.80 0.6754
365.90 0.6758
366.00 0.6762
366.10 0.6766
366.20 0.677
366.30 0.6774
366.40 0.6778
366.50 0.6782
366.60 0.6786
366.70 0.679
366.80 0.6794
366.90 0.6798
367.00 0.6802
367.10 0.6806
367.20 0.681
367.30 0.6814
367.40 0.6818
367.50 0.6822
367.60 0.6826
367.70 0.683
367.80 0.6834
367.90 0.6838
368.00 0.6842
368.10 0.6846
368.20 0.685
368.30 0.6854
368.40 0.6858
368.50 0.6862
368.60 0.6866
368.70 0.687
368.80 0.6874
368.90 0.6878
369.00 0.6882
369.10 0.6886
369.20 0.6889
369.30 0.6893
369.40 0.6897
369.50 0.6901
369.60 0.6905
369.70 0.6909
369.80 0.6913
369.90 0.6917
370.00 0.6921
370.10 0.6925
370.20 0.6929
370.30 0.6933
370.40 0.6937
370.50 0.694
370.60 0.6944
370.70 0.6948
370.80 0.6952
370.90 0.6956
371.00 0.696
371.10 0.6964
371.20 0.6968
371.30 0.6972
371.40 0.6976
371.50 0.698
371.60 0.6983
371.70 0.6987
371.80 0.6991
371.90 0.6995
372.00 0.6999
372.10 0.7003
372.20 0.7007
372.30 0.7011
372.40 0.7014
372.50 0.7018
372.60 0.7022
372.70 0.7026
372.80 0.703
372.90 0.7034
373.00 0.7038
373.10 0.7041
373.20 0.7045
373.30 0.7049
373.40 0.7053
373.50 0.7057
373.60 0.7061
373.70 0.7064
373.80 0.7068
373.90 0.7072
374.00 0.7076
374.10 0.708
374.20 0.7083
374.30 0.7087
374.40 0.7091
374.50 0.7095
374.60 0.7099
374.70 0.7103
374.80 0.7106
374.90 0.711
375.00 0.7114
375.10 0.7118
375.20 0.7122
375.30 0.7125
375.40 0.7129
375.50 0.7133
375.60 0.7137
375.70 0.7141
375.80 0.7144
375.90 0.7148
376.00 0.7152
376.10 0.7156
376.20 0.716
376.30 0.7163
376.40 0.7167
376.50 0.7171
376.60 0.7175
376.70 0.7179
376.80 0.7182
376.90 0.7186
377.00 0.719
377.10 0.7194
377.20 0.7197
377.30 0.7201
377.40 0.7205
377.50 0.7209
377.60 0.7212
377.70 0.7216
377.80 0.722
377.90 0.7224
378.00 0.7227
378.10 0.7231
378.20 0.7235
378.30 0.7239
378.40 0.7242
378.50 0.7246
378.60 0.725
378.70 0.7254
378.80 0.7257
378.90 0.7261
379.00 0.7265
379.10 0.7269
379.20 0.7272
379.30 0.7276
379.40 0.728
379.50 0.7284
379.60 0.7287
379.70 0.7291
379.80 0.7295
379.90 0.7298
380.00 0.7302
380.10 0.7306
380.20 0.7309
380.30 0.7313
380.40 0.7317
380.50 0.732
380.60 0.7324
380.70 0.7328
380.80 0.7331
380.90 0.7335
381.00 0.7339
381.10 0.7343
381.20 0.7346
381.30 0.735
381.40 0.7354
381.50 0.7358
381.60 0.7361
381.70 0.7365
381.80 0.7368
381.90 0.7372
382.00 0.7376
382.10 0.7379
382.20 0.7383
382.30 0.7387
382.40 0.7391
382.50 0.7394
382.60 0.7398
382.70 0.7401
382.80 0.7405
382.90 0.7409
383.00 0.7412
383.10 0.7416
383.20 0.7419
383.30 0.7423
383.40 0.7427
383.50 0.743
383.60 0.7434
383.70 0.7438
383.80 0.7441
383.90 0.7445
384.00 0.7448
384.10 0.7452
384.20 0.7456
384.30 0.746
384.40 0.7463
384.50 0.7466
384.60 0.747
384.70 0.7474
384.80 0.7478
384.90 0.7481
385.00 0.7484
385.10 0.7488
385.20 0.7492
385.30 0.7495
385.40 0.7499
385.50 0.7502
385.60 0.7506
385.70 0.751
385.80 0.7513
385.90 0.7517
386.00 0.7521
386.10 0.7524
386.20 0.7527
386.30 0.7531
386.40 0.7534
386.50 0.7538
386.60 0.7542
386.70 0.7545
386.80 0.7549
386.90 0.7553
387.00 0.7556
387.10 0.7559
387.20 0.7563
387.30 0.7566
387.40 0.757
387.50 0.7574
387.60 0.7577
387.70 0.7581
387.80 0.7584
387.90 0.7588
388.00 0.7591
388.10 0.7595
388.20 0.7598
388.30 0.7601
388.40 0.7605
388.50 0.7609
388.60 0.7612
388.70 0.7616
388.80 0.7619
388.90 0.7623
389.00 0.7626
389.10 0.763
389.20 0.7633
389.30 0.7637
389.40 0.764
389.50 0.7644
389.60 0.7647
389.70 0.7651
389.80 0.7654
389.90 0.7658
390.00 0.7661
390.10 0.7665
390.20 0.7668
390.30 0.7671
390.40 0.7675
390.50 0.7678
390.60 0.7682
390.70 0.7685
390.80 0.7689
390.90 0.7692
391.00 0.7696
391.10 0.7699
391.20 0.7703
391.30 0.7706
391.40 0.771
391.50 0.7713
391.60 0.7717
391.70 0.772
391.80 0.7723
391.90 0.7727
392.00 0.773
392.10 0.7734
392.20 0.7737
392.30 0.774
392.40 0.7744
392.50 0.7747
392.60 0.7751
392.70 0.7754
392.80 0.7758
392.90 0.7761
393.00 0.7764
393.10 0.7768
393.20 0.7771
393.30 0.7774
393.40 0.7778
393.50 0.7781
393.60 0.7785
393.70 0.7788
393.80 0.7791
393.90 0.7795
394.00 0.7798
394.10 0.7801
394.20 0.7805
394.30 0.7808
394.40 0.7812
394.50 0.7815
394.60 0.7818
394.70 0.7822
394.80 0.7825
394.90 0.7829
395.00 0.7832
395.10 0.7835
395.20 0.7838
395.30 0.7842
395.40 0.7845
395.50 0.7849
395.60 0.7852
395.70 0.7855
395.80 0.7858
395.90 0.7862
396.00 0.7865
396.10 0.7869
396.20 0.7872
396.30 0.7875
396.40 0.7879
396.50 0.7882
396.60 0.7885
396.70 0.7888
396.80 0.7892
396.90 0.7895
397.00 0.7898
397.10 0.7902
397.20 0.7905
397.30 0.7908
397.40 0.7912
397.50 0.7915
397.60 0.7918
397.70 0.7922
397.80 0.7925
397.90 0.7928
398.00 0.7932
398.10 0.7935
398.20 0.7938
398.30 0.7941
398.40 0.7945
398.50 0.7948
398.60 0.7951
398.70 0.7954
398.80 0.7957
398.90 0.7961
399.00 0.7964
399.10 0.7967
399.20 0.7971
399.30 0.7974
399.40 0.7977
399.50 0.798
399.60 0.7983
399.70 0.7987
399.80 0.799
399.90 0.7993
400.00 0.7997
400.10 0.8
400.20 0.8003
400.30 0.8006
400.40 0.801
400.50 0.8013
400.60 0.8016
400.70 0.8019
400.80 0.8022
400.90 0.8025
401.00 0.8029
401.10 0.8032
401.20 0.8035
401.30 0.8038
401.40 0.8042
401.50 0.8045
401.60 0.8048
401.70 0.8051
401.80 0.8055
401.90 0.8058
402.00 0.8061
402.10 0.8064
402.20 0.8067
402.30 0.807
402.40 0.8073
402.50 0.8077
402.60 0.808
402.70 0.8083
402.80 0.8086
402.90 0.8089
403.00 0.8093
403.10 0.8096
403.20 0.8099
403.30 0.8102
403.40 0.8105
403.50 0.8108
403.60 0.8111
403.70 0.8115
403.80 0.8118
403.90 0.812
404.00 0.8124
404.10 0.8127
404.20 0.813
404.30 0.8133
404.40 0.8137
404.50 0.8139
404.60 0.8143
404.70 0.8146
404.80 0.8149
404.90 0.8152
405.00 0.8155
405.10 0.8158
405.20 0.8161
405.30 0.8165
405.40 0.8168
405.50 0.8171
405.60 0.8174
405.70 0.8177
405.80 0.818
405.90 0.8183
406.00 0.8186
406.10 0.8189
406.20 0.8192
406.30 0.8195
406.40 0.8198
406.50 0.8202
406.60 0.8205
406.70 0.8208
406.80 0.8211
406.90 0.8214
407.00 0.8217
407.10 0.822
407.20 0.8223
407.30 0.8226
407.40 0.8229
407.50 0.8232
407.60 0.8235
407.70 0.8238
407.80 0.8241
407.90 0.8244
408.00 0.8247
408.10 0.825
408.20 0.8253
408.30 0.8256
408.40 0.826
408.50 0.8263
408.60 0.8266
408.70 0.8268
408.80 0.8271
408.90 0.8274
409.00 0.8277
409.10 0.828
409.20 0.8283
409.30 0.8287
409.40 0.829
409.50 0.8293
409.60 0.8296
409.70 0.8299
409.80 0.8302
409.90 0.8305
410.00 0.8308
410.10 0.8311
410.20 0.8313
410.30 0.8316
410.40 0.8319
410.50 0.8322
410.60 0.8325
410.70 0.8328
410.80 0.8331
410.90 0.8334
411.00 0.8337
411.10 0.834
411.20 0.8343
411.30 0.8346
411.40 0.8349
411.50 0.8352
411.60 0.8355
411.70 0.8358
411.80 0.8361
411.90 0.8364
412.00 0.8367
412.10 0.837
412.20 0.8372
412.30 0.8375
412.40 0.8378
412.50 0.8381
412.60 0.8384
412.70 0.8387
412.80 0.839
412.90 0.8393
413.00 0.8396
413.10 0.8399
413.20 0.8402
413.30 0.8404
413.40 0.8407
413.50 0.841
413.60 0.8413
413.70 0.8416
413.80 0.8419
413.90 0.8422
414.00 0.8425
414.10 0.8427
414.20 0.8431
414.30 0.8434
414.40 0.8437
414.50 0.8439
414.60 0.8442
414.70 0.8445
414.80 0.8448
414.90 0.8451
415.00 0.8454
415.10 0.8456
415.20 0.8459
415.30 0.8462
415.40 0.8465
415.50 0.8468
415.60 0.847
415.70 0.8474
415.80 0.8477
415.90 0.8479
416.00 0.8482
416.10 0.8485
416.20 0.8488
416.30 0.849
416.40 0.8493
416.50 0.8496
416.60 0.8499
416.70 0.8502
416.80 0.8505
416.90 0.8508
417.00 0.851
417.10 0.8513
417.20 0.8516
417.30 0.8519
417.40 0.8521
417.50 0.8524
417.60 0.8527
417.70 0.853
417.80 0.8533
417.90 0.8535
418.00 0.8538
418.10 0.8541
418.20 0.8544
418.30 0.8546
418.40 0.8549
418.50 0.8552
418.60 0.8555
418.70 0.8558
418.80 0.856
418.90 0.8563
419.00 0.8566
419.10 0.8568
419.20 0.8571
419.30 0.8574
419.40 0.8577
419.50 0.8579
419.60 0.8582
419.70 0.8585
419.80 0.8588
419.90 0.8591
420.00 0.8593
420.10 0.8596
420.20 0.8599
420.30 0.8601
420.40 0.8604
420.50 0.8607
420.60 0.861
420.70 0.8612
420.80 0.8615
420.90 0.8618
421.00 0.8621
421.10 0.8623
421.20 0.8626
421.30 0.8628
421.40 0.8631
421.50 0.8634
421.60 0.8637
421.70 0.8639
421.80 0.8642
421.90 0.8645
422.00 0.8647
422.10 0.865
422.20 0.8653
422.30 0.8656
422.40 0.8658
422.50 0.8661
422.60 0.8663
422.70 0.8666
422.80 0.8669
422.90 0.8672
423.00 0.8674
423.10 0.8677
423.20 0.8679
423.30 0.8682
423.40 0.8685
423.50 0.8687
423.60 0.869
423.70 0.8693
423.80 0.8695
423.90 0.8698
424.00 0.87
424.10 0.8703
424.20 0.8706
424.30 0.8708
424.40 0.8711
424.50 0.8714
424.60 0.8716
424.70 0.8719
424.80 0.8721
424.90 0.8724
425.00 0.8727
425.10 0.8729
425.20 0.8732
425.30 0.8735
425.40 0.8737
425.50 0.874
425.60 0.8742
425.70 0.8745
425.80 0.8747
425.90 0.875
426.00 0.8753
426.10 0.8755
426.20 0.8758
426.30 0.876
426.40 0.8763
426.50 0.8765
426.60 0.8768
426.70 0.8771
426.80 0.8773
426.90 0.8776
427.00 0.8779
427.10 0.8781
427.20 0.8783
427.30 0.8786
427.40 0.8789
427.50 0.8791
427.60 0.8793
427.70 0.8796
427.80 0.8799
427.90 0.8801
428.00 0.8804
428.10 0.8806
428.20 0.8809
428.30 0.8811
428.40 0.8814
428.50 0.8816
428.60 0.8819
428.70 0.8821
428.80 0.8824
428.90 0.8826
429.00 0.8829
429.10 0.8831
429.20 0.8834
429.30 0.8836
429.40 0.8839
429.50 0.8841
429.60 0.8844
429.70 0.8846
429.80 0.8849
429.90 0.8851
430.00 0.8854
430.10 0.8856
430.20 0.8859
430.30 0.8861
430.40 0.8864
430.50 0.8866
430.60 0.8868
430.70 0.8871
430.80 0.8874
430.90 0.8876
431.00 0.8878
431.10 0.8881
431.20 0.8883
431.30 0.8886
431.40 0.8888
431.50 0.889
431.60 0.8893
431.70 0.8896
431.80 0.8898
431.90 0.89
432.00 0.8903
432.10 0.8905
432.20 0.8908
432.30 0.891
432.40 0.8913
432.50 0.8915
432.60 0.8917
432.70 0.892
432.80 0.8922
432.90 0.8924
433.00 0.8927
433.10 0.8929
433.20 0.8932
433.30 0.8934
433.40 0.8937
433.50 0.8939
433.60 0.8941
433.70 0.8944
433.80 0.8946
433.90 0.8948
434.00 0.8951
434.10 0.8953
434.20 0.8955
434.30 0.8958
434.40 0.896
434.50 0.8963
434.60 0.8965
434.70 0.8967
434.80 0.897
434.90 0.8972
435.00 0.8975
435.10 0.8977
435.20 0.8979
435.30 0.8982
435.40 0.8984
435.50 0.8986
435.60 0.8989
435.70 0.8991
435.80 0.8993
435.90 0.8996
436.00 0.8998
436.10 0.9
436.20 0.9003
436.30 0.9005
436.40 0.9007
436.50 0.901
436.60 0.9012
436.70 0.9014
436.80 0.9016
436.90 0.9019
437.00 0.9021
437.10 0.9023
437.20 0.9026
437.30 0.9028
437.40 0.903
437.50 0.9033
437.60 0.9035
437.70 0.9037
437.80 0.9039
437.90 0.9042
438.00 0.9044
438.10 0.9046
438.20 0.9049
438.30 0.9051
438.40 0.9053
438.50 0.9055
438.60 0.9058
438.70 0.906
438.80 0.9062
438.90 0.9064
439.00 0.9067
439.10 0.9069
439.20 0.9071
439.30 0.9074
439.40 0.9076
439.50 0.9078
439.60 0.908
439.70 0.9082
439.80 0.9085
439.90 0.9087
440.00 0.9089
440.10 0.9091
440.20 0.9094
440.30 0.9096
440.40 0.9098
440.50 0.91
440.60 0.9102
440.70 0.9105
440.80 0.9107
440.90 0.9109
441.00 0.9111
441.10 0.9113
441.20 0.9116
441.30 0.9118
441.40 0.912
441.50 0.9122
441.60 0.9124
441.70 0.9127
441.80 0.9129
441.90 0.9131
442.00 0.9133
442.10 0.9135
442.20 0.9137
442.30 0.914
442.40 0.9142
442.50 0.9144
442.60 0.9146
442.70 0.9148
442.80 0.9151
442.90 0.9153
443.00 0.9155
