# Version 2.1 - nm, norm@500 to 1, cut digits, bergeron_20000_90.dat_20000
# Wavelength(nm)  Flambda(ergs/cm^s/s/nm)
300.00 3.485
300.10 3.482
300.20 3.479
300.30 3.475
300.40 3.472
300.50 3.469
300.60 3.465
300.70 3.462
300.80 3.458
300.90 3.455
301.00 3.452
301.10 3.448
301.20 3.445
301.30 3.442
301.40 3.438
301.50 3.435
301.60 3.432
301.70 3.428
301.80 3.425
301.90 3.422
302.00 3.418
302.10 3.415
302.20 3.412
302.30 3.408
302.40 3.405
302.50 3.402
302.60 3.398
302.70 3.395
302.80 3.392
302.90 3.389
303.00 3.385
303.10 3.382
303.20 3.379
303.30 3.376
303.40 3.372
303.50 3.369
303.60 3.366
303.70 3.363
303.80 3.359
303.90 3.356
304.00 3.353
304.10 3.35
304.20 3.346
304.30 3.343
304.40 3.34
304.50 3.337
304.60 3.333
304.70 3.33
304.80 3.327
304.90 3.324
305.00 3.321
305.10 3.317
305.20 3.314
305.30 3.311
305.40 3.308
305.50 3.305
305.60 3.302
305.70 3.298
305.80 3.295
305.90 3.292
306.00 3.289
306.10 3.286
306.20 3.283
306.30 3.28
306.40 3.276
306.50 3.273
306.60 3.27
306.70 3.267
306.80 3.264
306.90 3.261
307.00 3.258
307.10 3.255
307.20 3.251
307.30 3.248
307.40 3.245
307.50 3.242
307.60 3.239
307.70 3.236
307.80 3.233
307.90 3.23
308.00 3.227
308.10 3.224
308.20 3.221
308.30 3.217
308.40 3.214
308.50 3.211
308.60 3.208
308.70 3.205
308.80 3.202
308.90 3.199
309.00 3.196
309.10 3.193
309.20 3.19
309.30 3.187
309.40 3.184
309.50 3.181
309.60 3.178
309.70 3.175
309.80 3.172
309.90 3.169
310.00 3.166
310.10 3.163
310.20 3.16
310.30 3.157
310.40 3.154
310.50 3.151
310.60 3.148
310.70 3.145
310.80 3.142
310.90 3.139
311.00 3.136
311.10 3.133
311.20 3.13
311.30 3.127
311.40 3.124
311.50 3.121
311.60 3.118
311.70 3.115
311.80 3.113
311.90 3.11
312.00 3.107
312.10 3.104
312.20 3.101
312.30 3.098
312.40 3.095
312.50 3.092
312.60 3.089
312.70 3.086
312.80 3.083
312.90 3.08
313.00 3.078
313.10 3.075
313.20 3.072
313.30 3.069
313.40 3.066
313.50 3.063
313.60 3.06
313.70 3.057
313.80 3.055
313.90 3.052
314.00 3.049
314.10 3.046
314.20 3.043
314.30 3.04
314.40 3.037
314.50 3.035
314.60 3.032
314.70 3.029
314.80 3.026
314.90 3.023
315.00 3.02
315.10 3.018
315.20 3.015
315.30 3.012
315.40 3.009
315.50 3.006
315.60 3.004
315.70 3.001
315.80 2.998
315.90 2.995
316.00 2.992
316.10 2.99
316.20 2.987
316.30 2.984
316.40 2.981
316.50 2.978
316.60 2.976
316.70 2.973
316.80 2.97
316.90 2.967
317.00 2.965
317.10 2.962
317.20 2.959
317.30 2.956
317.40 2.954
317.50 2.951
317.60 2.948
317.70 2.945
317.80 2.943
317.90 2.94
318.00 2.937
318.10 2.935
318.20 2.932
318.30 2.929
318.40 2.926
318.50 2.924
318.60 2.921
318.70 2.918
318.80 2.916
318.90 2.913
319.00 2.91
319.10 2.908
319.20 2.905
319.30 2.902
319.40 2.9
319.50 2.897
319.60 2.894
319.70 2.892
319.80 2.889
319.90 2.886
320.00 2.884
320.10 2.881
320.20 2.878
320.30 2.876
320.40 2.873
320.50 2.87
320.60 2.868
320.70 2.865
320.80 2.862
320.90 2.86
321.00 2.857
321.10 2.855
321.20 2.852
321.30 2.849
321.40 2.847
321.50 2.844
321.60 2.841
321.70 2.839
321.80 2.836
321.90 2.834
322.00 2.831
322.10 2.828
322.20 2.826
322.30 2.823
322.40 2.821
322.50 2.818
322.60 2.816
322.70 2.813
322.80 2.81
322.90 2.808
323.00 2.805
323.10 2.803
323.20 2.8
323.30 2.798
323.40 2.795
323.50 2.792
323.60 2.79
323.70 2.787
323.80 2.785
323.90 2.782
324.00 2.78
324.10 2.777
324.20 2.775
324.30 2.772
324.40 2.77
324.50 2.767
324.60 2.765
324.70 2.762
324.80 2.76
324.90 2.757
325.00 2.755
325.10 2.752
325.20 2.75
325.30 2.747
325.40 2.745
325.50 2.742
325.60 2.74
325.70 2.737
325.80 2.735
325.90 2.732
326.00 2.73
326.10 2.727
326.20 2.725
326.30 2.722
326.40 2.72
326.50 2.717
326.60 2.715
326.70 2.712
326.80 2.71
326.90 2.708
327.00 2.705
327.10 2.703
327.20 2.7
327.30 2.698
327.40 2.695
327.50 2.693
327.60 2.691
327.70 2.688
327.80 2.686
327.90 2.683
328.00 2.681
328.10 2.678
328.20 2.676
328.30 2.674
328.40 2.671
328.50 2.669
328.60 2.666
328.70 2.664
328.80 2.662
328.90 2.659
329.00 2.657
329.10 2.654
329.20 2.652
329.30 2.65
329.40 2.647
329.50 2.645
329.60 2.643
329.70 2.64
329.80 2.638
329.90 2.635
330.00 2.633
330.10 2.631
330.20 2.628
330.30 2.626
330.40 2.624
330.50 2.621
330.60 2.619
330.70 2.617
330.80 2.614
330.90 2.612
331.00 2.61
331.10 2.607
331.20 2.605
331.30 2.603
331.40 2.6
331.50 2.598
331.60 2.596
331.70 2.593
331.80 2.591
331.90 2.589
332.00 2.586
332.10 2.584
332.20 2.582
332.30 2.579
332.40 2.577
332.50 2.575
332.60 2.573
332.70 2.57
332.80 2.568
332.90 2.566
333.00 2.563
333.10 2.561
333.20 2.559
333.30 2.557
333.40 2.554
333.50 2.552
333.60 2.55
333.70 2.548
333.80 2.545
333.90 2.543
334.00 2.541
334.10 2.539
334.20 2.536
334.30 2.534
334.40 2.532
334.50 2.53
334.60 2.527
334.70 2.525
334.80 2.523
334.90 2.521
335.00 2.518
335.10 2.516
335.20 2.514
335.30 2.512
335.40 2.51
335.50 2.507
335.60 2.505
335.70 2.503
335.80 2.501
335.90 2.498
336.00 2.496
336.10 2.494
336.20 2.492
336.30 2.49
336.40 2.487
336.50 2.485
336.60 2.483
336.70 2.481
336.80 2.479
336.90 2.477
337.00 2.474
337.10 2.472
337.20 2.47
337.30 2.468
337.40 2.466
337.50 2.463
337.60 2.461
337.70 2.459
337.80 2.457
337.90 2.455
338.00 2.453
338.10 2.451
338.20 2.448
338.30 2.446
338.40 2.444
338.50 2.442
338.60 2.44
338.70 2.438
338.80 2.436
338.90 2.433
339.00 2.431
339.10 2.429
339.20 2.427
339.30 2.425
339.40 2.423
339.50 2.421
339.60 2.419
339.70 2.416
339.80 2.414
339.90 2.412
340.00 2.41
340.10 2.408
340.20 2.406
340.30 2.404
340.40 2.402
340.50 2.4
340.60 2.398
340.70 2.395
340.80 2.393
340.90 2.391
341.00 2.389
341.10 2.387
341.20 2.385
341.30 2.383
341.40 2.381
341.50 2.379
341.60 2.377
341.70 2.375
341.80 2.373
341.90 2.371
342.00 2.369
342.10 2.366
342.20 2.364
342.30 2.362
342.40 2.36
342.50 2.358
342.60 2.356
342.70 2.354
342.80 2.352
342.90 2.35
343.00 2.348
343.10 2.346
343.20 2.344
343.30 2.342
343.40 2.34
343.50 2.338
343.60 2.336
343.70 2.334
343.80 2.332
343.90 2.33
344.00 2.328
344.10 2.326
344.20 2.324
344.30 2.322
344.40 2.32
344.50 2.318
344.60 2.316
344.70 2.314
344.80 2.312
344.90 2.31
345.00 2.308
345.10 2.306
345.20 2.304
345.30 2.302
345.40 2.3
345.50 2.298
345.60 2.296
345.70 2.294
345.80 2.292
345.90 2.29
346.00 2.288
346.10 2.286
346.20 2.284
346.30 2.282
346.40 2.28
346.50 2.278
346.60 2.276
346.70 2.274
346.80 2.272
346.90 2.27
347.00 2.268
347.10 2.267
347.20 2.265
347.30 2.263
347.40 2.261
347.50 2.259
347.60 2.257
347.70 2.255
347.80 2.253
347.90 2.251
348.00 2.249
348.10 2.247
348.20 2.245
348.30 2.243
348.40 2.241
348.50 2.24
348.60 2.238
348.70 2.236
348.80 2.234
348.90 2.232
349.00 2.23
349.10 2.228
349.20 2.226
349.30 2.224
349.40 2.222
349.50 2.22
349.60 2.219
349.70 2.217
349.80 2.215
349.90 2.213
350.00 2.211
350.10 2.209
350.20 2.207
350.30 2.205
350.40 2.204
350.50 2.202
350.60 2.2
350.70 2.198
350.80 2.196
350.90 2.194
351.00 2.192
351.10 2.19
351.20 2.189
351.30 2.187
351.40 2.185
351.50 2.183
351.60 2.181
351.70 2.179
351.80 2.177
351.90 2.176
352.00 2.174
352.10 2.172
352.20 2.17
352.30 2.168
352.40 2.166
352.50 2.165
352.60 2.163
352.70 2.161
352.80 2.159
352.90 2.157
353.00 2.155
353.10 2.154
353.20 2.152
353.30 2.15
353.40 2.148
353.50 2.146
353.60 2.145
353.70 2.143
353.80 2.141
353.90 2.139
354.00 2.137
354.10 2.136
354.20 2.134
354.30 2.132
354.40 2.13
354.50 2.128
354.60 2.127
354.70 2.125
354.80 2.123
354.90 2.121
355.00 2.119
355.10 2.118
355.20 2.116
355.30 2.114
355.40 2.112
355.50 2.111
355.60 2.109
355.70 2.107
355.80 2.105
355.90 2.103
356.00 2.102
356.10 2.1
356.20 2.098
356.30 2.096
356.40 2.095
356.50 2.093
356.60 2.091
356.70 2.089
356.80 2.088
356.90 2.086
357.00 2.084
357.10 2.082
357.20 2.081
357.30 2.079
357.40 2.077
357.50 2.075
357.60 2.074
357.70 2.072
357.80 2.07
357.90 2.069
358.00 2.067
358.10 2.065
358.20 2.063
358.30 2.062
358.40 2.06
358.50 2.058
358.60 2.057
358.70 2.055
358.80 2.053
358.90 2.051
359.00 2.05
359.10 2.048
359.20 2.046
359.30 2.045
359.40 2.043
359.50 2.041
359.60 2.039
359.70 2.038
359.80 2.036
359.90 2.034
360.00 2.033
360.10 2.031
360.20 2.029
360.30 2.028
360.40 2.026
360.50 2.024
360.60 2.023
360.70 2.021
360.80 2.019
360.90 2.018
361.00 2.016
361.10 2.014
361.20 2.013
361.30 2.011
361.40 2.009
361.50 2.008
361.60 2.006
361.70 2.004
361.80 2.003
361.90 2.001
362.00 1.999
362.10 1.998
362.20 1.996
362.30 1.994
362.40 1.993
362.50 1.991
362.60 1.989
362.70 1.988
362.80 1.986
362.90 1.984
363.00 1.983
363.10 1.981
363.20 1.98
363.30 1.978
363.40 1.976
363.50 1.975
363.60 1.973
363.70 1.971
363.80 1.97
363.90 1.968
364.00 1.967
364.10 1.965
364.20 1.963
364.30 1.962
364.40 1.96
364.50 1.958
364.60 1.957
364.70 1.955
364.80 1.954
364.90 1.952
365.00 1.95
365.10 1.949
365.20 1.947
365.30 1.946
365.40 1.944
365.50 1.942
365.60 1.941
365.70 1.939
365.80 1.938
365.90 1.936
366.00 1.935
366.10 1.933
366.20 1.931
366.30 1.929
366.40 1.927
366.50 1.925
366.60 1.924
366.70 1.922
366.80 1.92
366.90 1.918
367.00 1.916
367.10 1.915
367.20 1.913
367.30 1.911
367.40 1.909
367.50 1.907
367.60 1.906
367.70 1.904
367.80 1.902
367.90 1.9
368.00 1.898
368.10 1.896
368.20 1.895
368.30 1.893
368.40 1.891
368.50 1.889
368.60 1.887
368.70 1.885
368.80 1.883
368.90 1.881
369.00 1.88
369.10 1.878
369.20 1.876
369.30 1.874
369.40 1.872
369.50 1.87
369.60 1.868
369.70 1.867
369.80 1.865
369.90 1.863
370.00 1.861
370.10 1.859
370.20 1.858
370.30 1.856
370.40 1.854
370.50 1.852
370.60 1.851
370.70 1.849
370.80 1.847
370.90 1.845
371.00 1.844
371.10 1.842
371.20 1.84
371.30 1.838
371.40 1.837
371.50 1.835
371.60 1.833
371.70 1.831
371.80 1.83
371.90 1.828
372.00 1.826
372.10 1.825
372.20 1.823
372.30 1.821
372.40 1.82
372.50 1.818
372.60 1.817
372.70 1.815
372.80 1.814
372.90 1.812
373.00 1.811
373.10 1.809
373.20 1.808
373.30 1.806
373.40 1.805
373.50 1.803
373.60 1.802
373.70 1.8
373.80 1.798
373.90 1.797
374.00 1.795
374.10 1.794
374.20 1.792
374.30 1.791
374.40 1.789
374.50 1.788
374.60 1.786
374.70 1.785
374.80 1.783
374.90 1.782
375.00 1.78
375.10 1.779
375.20 1.777
375.30 1.776
375.40 1.774
375.50 1.773
375.60 1.771
375.70 1.77
375.80 1.768
375.90 1.767
376.00 1.765
376.10 1.764
376.20 1.762
376.30 1.761
376.40 1.759
376.50 1.758
376.60 1.756
376.70 1.755
376.80 1.753
376.90 1.752
377.00 1.75
377.10 1.749
377.20 1.748
377.30 1.747
377.40 1.746
377.50 1.745
377.60 1.744
377.70 1.743
377.80 1.742
377.90 1.741
378.00 1.74
378.10 1.739
378.20 1.738
378.30 1.737
378.40 1.735
378.50 1.734
378.60 1.733
378.70 1.732
378.80 1.73
378.90 1.729
379.00 1.728
379.10 1.727
379.20 1.725
379.30 1.724
379.40 1.723
379.50 1.722
379.60 1.72
379.70 1.719
379.80 1.718
379.90 1.717
380.00 1.715
380.10 1.715
380.20 1.715
380.30 1.714
380.40 1.714
380.50 1.713
380.60 1.713
380.70 1.713
380.80 1.712
380.90 1.712
381.00 1.712
381.10 1.711
381.20 1.71
381.30 1.709
381.40 1.708
381.50 1.707
381.60 1.706
381.70 1.705
381.80 1.703
381.90 1.702
382.00 1.7
382.10 1.698
382.20 1.697
382.30 1.694
382.40 1.692
382.50 1.69
382.60 1.687
382.70 1.685
382.80 1.683
382.90 1.681
383.00 1.678
383.10 1.676
383.20 1.674
383.30 1.671
383.40 1.669
383.50 1.667
383.60 1.667
383.70 1.668
383.80 1.67
383.90 1.671
384.00 1.673
384.10 1.674
384.20 1.676
384.30 1.677
384.40 1.678
384.50 1.68
384.60 1.681
384.70 1.682
384.80 1.683
384.90 1.683
385.00 1.684
385.10 1.684
385.20 1.684
385.30 1.684
385.40 1.684
385.50 1.684
385.60 1.683
385.70 1.683
385.80 1.682
385.90 1.681
386.00 1.679
386.10 1.678
386.20 1.676
386.30 1.674
386.40 1.672
386.50 1.67
386.60 1.667
386.70 1.664
386.80 1.662
386.90 1.658
387.00 1.655
387.10 1.651
387.20 1.648
387.30 1.644
387.40 1.64
387.50 1.635
387.60 1.631
387.70 1.626
387.80 1.621
387.90 1.616
388.00 1.611
388.10 1.606
388.20 1.6
388.30 1.595
388.40 1.59
388.50 1.585
388.60 1.579
388.70 1.575
388.80 1.571
388.90 1.568
389.00 1.571
389.10 1.574
389.20 1.578
389.30 1.582
389.40 1.587
389.50 1.592
389.60 1.597
389.70 1.602
389.80 1.607
389.90 1.612
390.00 1.616
390.10 1.621
390.20 1.625
390.30 1.63
390.40 1.634
390.50 1.637
390.60 1.641
390.70 1.645
390.80 1.648
390.90 1.651
391.00 1.654
391.10 1.656
391.20 1.658
391.30 1.66
391.40 1.662
391.50 1.664
391.60 1.665
391.70 1.666
391.80 1.667
391.90 1.667
392.00 1.667
392.10 1.667
392.20 1.667
392.30 1.666
392.40 1.665
392.50 1.664
392.60 1.663
392.70 1.661
392.80 1.659
392.90 1.657
393.00 1.654
393.10 1.651
393.20 1.648
393.30 1.644
393.40 1.641
393.50 1.636
393.60 1.632
393.70 1.627
393.80 1.622
393.90 1.617
394.00 1.611
394.10 1.605
394.20 1.599
394.30 1.593
394.40 1.586
394.50 1.578
394.60 1.571
394.70 1.563
394.80 1.555
394.90 1.547
395.00 1.538
395.10 1.529
395.20 1.519
395.30 1.51
395.40 1.5
395.50 1.49
395.60 1.479
395.70 1.469
395.80 1.458
395.90 1.446
396.00 1.435
396.10 1.423
396.20 1.411
396.30 1.399
396.40 1.387
396.50 1.374
396.60 1.362
396.70 1.349
396.80 1.336
396.90 1.323
397.00 1.31
397.10 1.321
397.20 1.332
397.30 1.344
397.40 1.356
397.50 1.368
397.60 1.38
397.70 1.391
397.80 1.402
397.90 1.414
398.00 1.425
398.10 1.435
398.20 1.446
398.30 1.456
398.40 1.466
398.50 1.476
398.60 1.486
398.70 1.495
398.80 1.505
398.90 1.514
399.00 1.522
399.10 1.531
399.20 1.539
399.30 1.547
399.40 1.555
399.50 1.563
399.60 1.57
399.70 1.577
399.80 1.584
399.90 1.59
400.00 1.597
400.10 1.603
400.20 1.609
400.30 1.614
400.40 1.62
400.50 1.625
400.60 1.63
400.70 1.634
400.80 1.639
400.90 1.643
401.00 1.647
401.10 1.65
401.20 1.654
401.30 1.657
401.40 1.66
401.50 1.663
401.60 1.665
401.70 1.667
401.80 1.669
401.90 1.671
402.00 1.673
402.10 1.674
402.20 1.675
402.30 1.676
402.40 1.677
402.50 1.677
402.60 1.677
402.70 1.677
402.80 1.677
402.90 1.676
403.00 1.676
403.10 1.674
403.20 1.673
403.30 1.672
403.40 1.67
403.50 1.668
403.60 1.666
403.70 1.664
403.80 1.661
403.90 1.659
404.00 1.655
404.10 1.652
404.20 1.649
404.30 1.645
404.40 1.641
404.50 1.637
404.60 1.632
404.70 1.627
404.80 1.623
404.90 1.617
405.00 1.612
405.10 1.606
405.20 1.6
405.30 1.594
405.40 1.588
405.50 1.581
405.60 1.574
405.70 1.567
405.80 1.56
405.90 1.552
406.00 1.544
406.10 1.536
406.20 1.528
406.30 1.519
406.40 1.51
406.50 1.501
406.60 1.492
406.70 1.482
406.80 1.472
406.90 1.462
407.00 1.452
407.10 1.441
407.20 1.43
407.30 1.419
407.40 1.408
407.50 1.396
407.60 1.384
407.70 1.372
407.80 1.36
407.90 1.347
408.00 1.335
408.10 1.322
408.20 1.308
408.30 1.295
408.40 1.281
408.50 1.267
408.60 1.253
408.70 1.239
408.80 1.224
408.90 1.209
409.00 1.194
409.10 1.179
409.20 1.163
409.30 1.147
409.40 1.131
409.50 1.115
409.60 1.098
409.70 1.081
409.80 1.064
409.90 1.048
410.00 1.032
410.10 1.022
410.20 1.017
410.30 1.026
410.40 1.038
410.50 1.053
410.60 1.069
410.70 1.084
410.80 1.099
410.90 1.114
411.00 1.129
411.10 1.144
411.20 1.158
411.30 1.172
411.40 1.186
411.50 1.2
411.60 1.213
411.70 1.226
411.80 1.239
411.90 1.251
412.00 1.263
412.10 1.275
412.20 1.287
412.30 1.299
412.40 1.31
412.50 1.321
412.60 1.332
412.70 1.343
412.80 1.353
412.90 1.364
413.00 1.374
413.10 1.384
413.20 1.393
413.30 1.403
413.40 1.412
413.50 1.421
413.60 1.43
413.70 1.438
413.80 1.447
413.90 1.455
414.00 1.463
414.10 1.471
414.20 1.478
414.30 1.485
414.40 1.493
414.50 1.5
414.60 1.507
414.70 1.513
414.80 1.52
414.90 1.526
415.00 1.532
415.10 1.538
415.20 1.544
415.30 1.55
415.40 1.555
415.50 1.56
415.60 1.565
415.70 1.57
415.80 1.575
415.90 1.58
416.00 1.584
416.10 1.589
416.20 1.593
416.30 1.597
416.40 1.601
416.50 1.605
416.60 1.608
416.70 1.612
416.80 1.615
416.90 1.619
417.00 1.622
417.10 1.625
417.20 1.628
417.30 1.631
417.40 1.633
417.50 1.636
417.60 1.638
417.70 1.641
417.80 1.643
417.90 1.645
418.00 1.647
418.10 1.649
418.20 1.651
418.30 1.653
418.40 1.654
418.50 1.656
418.60 1.657
418.70 1.658
418.80 1.66
418.90 1.661
419.00 1.662
419.10 1.663
419.20 1.664
419.30 1.665
419.40 1.665
419.50 1.666
419.60 1.666
419.70 1.667
419.80 1.667
419.90 1.668
420.00 1.668
420.10 1.668
420.20 1.668
420.30 1.668
420.40 1.668
420.50 1.668
420.60 1.668
420.70 1.667
420.80 1.667
420.90 1.667
421.00 1.666
421.10 1.665
421.20 1.665
421.30 1.664
421.40 1.663
421.50 1.662
421.60 1.661
421.70 1.66
421.80 1.659
421.90 1.658
422.00 1.657
422.10 1.656
422.20 1.654
422.30 1.653
422.40 1.651
422.50 1.65
422.60 1.648
422.70 1.647
422.80 1.645
422.90 1.643
423.00 1.641
423.10 1.639
423.20 1.637
423.30 1.635
423.40 1.633
423.50 1.63
423.60 1.628
423.70 1.626
423.80 1.623
423.90 1.62
424.00 1.618
424.10 1.615
424.20 1.612
424.30 1.609
424.40 1.606
424.50 1.603
424.60 1.6
424.70 1.597
424.80 1.593
424.90 1.59
425.00 1.587
425.10 1.583
425.20 1.579
425.30 1.576
425.40 1.572
425.50 1.568
425.60 1.564
425.70 1.56
425.80 1.555
425.90 1.551
426.00 1.547
426.10 1.542
426.20 1.538
426.30 1.533
426.40 1.528
426.50 1.523
426.60 1.518
426.70 1.513
426.80 1.508
426.90 1.502
427.00 1.497
427.10 1.491
427.20 1.486
427.30 1.48
427.40 1.474
427.50 1.468
427.60 1.462
427.70 1.455
427.80 1.449
427.90 1.442
428.00 1.436
428.10 1.429
428.20 1.422
428.30 1.415
428.40 1.408
428.50 1.401
428.60 1.393
428.70 1.386
428.80 1.378
428.90 1.37
429.00 1.363
429.10 1.355
429.20 1.346
429.30 1.338
429.40 1.33
429.50 1.321
429.60 1.313
429.70 1.304
429.80 1.295
429.90 1.286
430.00 1.277
430.10 1.268
430.20 1.258
430.30 1.249
430.40 1.239
430.50 1.229
430.60 1.219
430.70 1.209
430.80 1.199
430.90 1.189
431.00 1.178
431.10 1.167
431.20 1.157
431.30 1.146
431.40 1.135
431.50 1.124
431.60 1.112
431.70 1.101
431.80 1.089
431.90 1.077
432.00 1.065
432.10 1.053
432.20 1.041
432.30 1.028
432.40 1.016
432.50 1.003
432.60 0.9895
432.70 0.9762
432.80 0.9626
432.90 0.9487
433.00 0.9347
433.10 0.9201
433.20 0.9052
433.30 0.8898
433.40 0.8737
433.50 0.8568
433.60 0.8392
433.70 0.8194
433.80 0.7972
433.90 0.7724
434.00 0.731
434.10 0.7313
434.20 0.7734
434.30 0.7968
434.40 0.8178
434.50 0.8365
434.60 0.8529
434.70 0.8687
434.80 0.8837
434.90 0.8978
435.00 0.9116
435.10 0.9249
435.20 0.9377
435.30 0.9503
435.40 0.9626
435.50 0.9745
435.60 0.9862
435.70 0.9977
435.80 1.009
435.90 1.02
436.00 1.031
436.10 1.042
436.20 1.052
436.30 1.062
436.40 1.072
436.50 1.082
436.60 1.092
436.70 1.102
436.80 1.111
436.90 1.12
437.00 1.129
437.10 1.138
437.20 1.147
437.30 1.155
437.40 1.164
437.50 1.172
437.60 1.18
437.70 1.188
437.80 1.196
437.90 1.204
438.00 1.212
438.10 1.219
438.20 1.226
438.30 1.233
438.40 1.24
438.50 1.247
438.60 1.254
438.70 1.261
438.80 1.267
438.90 1.273
439.00 1.28
439.10 1.286
439.20 1.292
439.30 1.297
439.40 1.303
439.50 1.309
439.60 1.314
439.70 1.319
439.80 1.325
439.90 1.33
440.00 1.335
440.10 1.339
440.20 1.344
440.30 1.349
440.40 1.353
440.50 1.358
440.60 1.362
440.70 1.366
440.80 1.37
440.90 1.374
441.00 1.378
441.10 1.382
441.20 1.385
441.30 1.389
441.40 1.392
441.50 1.395
441.60 1.399
441.70 1.402
441.80 1.405
441.90 1.408
442.00 1.41
442.10 1.413
442.20 1.416
442.30 1.418
442.40 1.421
442.50 1.423
442.60 1.426
442.70 1.428
442.80 1.43
442.90 1.432
443.00 1.434
443.10 1.436
443.20 1.438
443.30 1.44
443.40 1.442
443.50 1.443
443.60 1.445
443.70 1.447
443.80 1.448
443.90 1.449
444.00 1.451
444.10 1.452
444.20 1.453
444.30 1.455
444.40 1.456
444.50 1.457
444.60 1.458
444.70 1.459
444.80 1.46
444.90 1.461
445.00 1.462
445.10 1.462
445.20 1.463
445.30 1.464
445.40 1.465
445.50 1.465
445.60 1.466
445.70 1.466
445.80 1.467
445.90 1.468
446.00 1.468
446.10 1.468
446.20 1.469
446.30 1.469
446.40 1.469
446.50 1.47
446.60 1.47
446.70 1.47
446.80 1.47
446.90 1.471
447.00 1.471
447.10 1.471
447.20 1.471
447.30 1.471
447.40 1.471
447.50 1.471
447.60 1.471
447.70 1.471
447.80 1.471
447.90 1.471
448.00 1.471
448.10 1.47
448.20 1.47
448.30 1.47
448.40 1.47
448.50 1.47
448.60 1.47
448.70 1.469
448.80 1.469
448.90 1.469
449.00 1.468
449.10 1.468
449.20 1.468
449.30 1.467
449.40 1.467
449.50 1.467
449.60 1.466
449.70 1.466
449.80 1.465
449.90 1.465
450.00 1.464
450.10 1.464
450.20 1.463
450.30 1.463
450.40 1.462
450.50 1.462
450.60 1.461
450.70 1.461
450.80 1.46
450.90 1.46
451.00 1.459
451.10 1.458
451.20 1.458
451.30 1.457
451.40 1.457
451.50 1.456
451.60 1.455
451.70 1.455
451.80 1.454
451.90 1.453
452.00 1.453
452.10 1.452
452.20 1.451
452.30 1.45
452.40 1.45
452.50 1.449
452.60 1.448
452.70 1.447
452.80 1.447
452.90 1.446
453.00 1.445
453.10 1.444
453.20 1.444
453.30 1.443
453.40 1.442
453.50 1.441
453.60 1.44
453.70 1.44
453.80 1.439
453.90 1.438
