# Version 2.1 - nm, norm@500 to 1, cut digits, bergeron_80000_95.dat_80000
# Wavelength(nm)  Flambda(ergs/cm^s/s/nm)
300.00 6.723
300.10 6.715
300.20 6.706
300.30 6.698
300.40 6.69
300.50 6.681
300.60 6.673
300.70 6.665
300.80 6.657
300.90 6.648
301.00 6.64
301.10 6.632
301.20 6.624
301.30 6.615
301.40 6.607
301.50 6.599
301.60 6.591
301.70 6.583
301.80 6.575
301.90 6.566
302.00 6.558
302.10 6.55
302.20 6.542
302.30 6.534
302.40 6.526
302.50 6.518
302.60 6.51
302.70 6.502
302.80 6.494
302.90 6.486
303.00 6.478
303.10 6.47
303.20 6.462
303.30 6.454
303.40 6.446
303.50 6.438
303.60 6.43
303.70 6.422
303.80 6.414
303.90 6.406
304.00 6.398
304.10 6.391
304.20 6.383
304.30 6.375
304.40 6.367
304.50 6.359
304.60 6.351
304.70 6.344
304.80 6.336
304.90 6.328
305.00 6.32
305.10 6.313
305.20 6.305
305.30 6.297
305.40 6.289
305.50 6.282
305.60 6.274
305.70 6.266
305.80 6.259
305.90 6.251
306.00 6.243
306.10 6.236
306.20 6.228
306.30 6.221
306.40 6.213
306.50 6.205
306.60 6.198
306.70 6.19
306.80 6.183
306.90 6.175
307.00 6.168
307.10 6.16
307.20 6.153
307.30 6.145
307.40 6.138
307.50 6.13
307.60 6.123
307.70 6.115
307.80 6.108
307.90 6.101
308.00 6.093
308.10 6.086
308.20 6.078
308.30 6.071
308.40 6.064
308.50 6.056
308.60 6.049
308.70 6.042
308.80 6.034
308.90 6.027
309.00 6.02
309.10 6.012
309.20 6.005
309.30 5.998
309.40 5.991
309.50 5.983
309.60 5.976
309.70 5.969
309.80 5.962
309.90 5.954
310.00 5.947
310.10 5.94
310.20 5.933
310.30 5.926
310.40 5.919
310.50 5.912
310.60 5.904
310.70 5.897
310.80 5.89
310.90 5.883
311.00 5.876
311.10 5.869
311.20 5.862
311.30 5.855
311.40 5.848
311.50 5.841
311.60 5.834
311.70 5.827
311.80 5.82
311.90 5.813
312.00 5.806
312.10 5.799
312.20 5.792
312.30 5.785
312.40 5.778
312.50 5.771
312.60 5.764
312.70 5.757
312.80 5.75
312.90 5.744
313.00 5.737
313.10 5.73
313.20 5.723
313.30 5.716
313.40 5.709
313.50 5.703
313.60 5.696
313.70 5.689
313.80 5.682
313.90 5.675
314.00 5.669
314.10 5.662
314.20 5.655
314.30 5.648
314.40 5.642
314.50 5.635
314.60 5.628
314.70 5.621
314.80 5.615
314.90 5.608
315.00 5.601
315.10 5.595
315.20 5.588
315.30 5.582
315.40 5.575
315.50 5.568
315.60 5.562
315.70 5.555
315.80 5.549
315.90 5.542
316.00 5.535
316.10 5.529
316.20 5.522
316.30 5.516
316.40 5.509
316.50 5.503
316.60 5.496
316.70 5.49
316.80 5.483
316.90 5.477
317.00 5.47
317.10 5.464
317.20 5.457
317.30 5.451
317.40 5.444
317.50 5.438
317.60 5.432
317.70 5.425
317.80 5.419
317.90 5.412
318.00 5.406
318.10 5.4
318.20 5.393
318.30 5.387
318.40 5.381
318.50 5.374
318.60 5.368
318.70 5.362
318.80 5.355
318.90 5.349
319.00 5.343
319.10 5.337
319.20 5.33
319.30 5.324
319.40 5.318
319.50 5.312
319.60 5.305
319.70 5.299
319.80 5.293
319.90 5.287
320.00 5.28
320.10 5.274
320.20 5.268
320.30 5.262
320.40 5.256
320.50 5.25
320.60 5.244
320.70 5.237
320.80 5.231
320.90 5.225
321.00 5.219
321.10 5.213
321.20 5.207
321.30 5.201
321.40 5.195
321.50 5.189
321.60 5.183
321.70 5.177
321.80 5.171
321.90 5.165
322.00 5.159
322.10 5.153
322.20 5.147
322.30 5.141
322.40 5.135
322.50 5.129
322.60 5.123
322.70 5.117
322.80 5.111
322.90 5.105
323.00 5.099
323.10 5.093
323.20 5.087
323.30 5.081
323.40 5.075
323.50 5.069
323.60 5.064
323.70 5.058
323.80 5.052
323.90 5.046
324.00 5.04
324.10 5.034
324.20 5.028
324.30 5.023
324.40 5.017
324.50 5.011
324.60 5.005
324.70 5
324.80 4.994
324.90 4.988
325.00 4.982
325.10 4.976
325.20 4.971
325.30 4.965
325.40 4.959
325.50 4.954
325.60 4.948
325.70 4.942
325.80 4.936
325.90 4.931
326.00 4.925
326.10 4.919
326.20 4.914
326.30 4.908
326.40 4.903
326.50 4.897
326.60 4.891
326.70 4.886
326.80 4.88
326.90 4.874
327.00 4.869
327.10 4.863
327.20 4.858
327.30 4.852
327.40 4.847
327.50 4.841
327.60 4.835
327.70 4.83
327.80 4.824
327.90 4.819
328.00 4.813
328.10 4.808
328.20 4.802
328.30 4.797
328.40 4.791
328.50 4.786
328.60 4.78
328.70 4.775
328.80 4.77
328.90 4.764
329.00 4.759
329.10 4.753
329.20 4.748
329.30 4.742
329.40 4.737
329.50 4.732
329.60 4.726
329.70 4.721
329.80 4.715
329.90 4.71
330.00 4.705
330.10 4.699
330.20 4.694
330.30 4.689
330.40 4.683
330.50 4.678
330.60 4.673
330.70 4.668
330.80 4.662
330.90 4.657
331.00 4.652
331.10 4.646
331.20 4.641
331.30 4.636
331.40 4.631
331.50 4.625
331.60 4.62
331.70 4.615
331.80 4.61
331.90 4.604
332.00 4.599
332.10 4.594
332.20 4.589
332.30 4.584
332.40 4.579
332.50 4.573
332.60 4.568
332.70 4.563
332.80 4.558
332.90 4.553
333.00 4.548
333.10 4.543
333.20 4.537
333.30 4.532
333.40 4.527
333.50 4.522
333.60 4.517
333.70 4.512
333.80 4.507
333.90 4.502
334.00 4.497
334.10 4.492
334.20 4.487
334.30 4.482
334.40 4.477
334.50 4.472
334.60 4.467
334.70 4.462
334.80 4.457
334.90 4.452
335.00 4.447
335.10 4.442
335.20 4.437
335.30 4.432
335.40 4.427
335.50 4.422
335.60 4.417
335.70 4.412
335.80 4.407
335.90 4.402
336.00 4.397
336.10 4.392
336.20 4.387
336.30 4.382
336.40 4.377
336.50 4.372
336.60 4.368
336.70 4.363
336.80 4.358
336.90 4.353
337.00 4.348
337.10 4.343
337.20 4.339
337.30 4.334
337.40 4.329
337.50 4.324
337.60 4.319
337.70 4.314
337.80 4.31
337.90 4.305
338.00 4.3
338.10 4.295
338.20 4.29
338.30 4.286
338.40 4.281
338.50 4.276
338.60 4.271
338.70 4.267
338.80 4.262
338.90 4.257
339.00 4.253
339.10 4.248
339.20 4.243
339.30 4.238
339.40 4.234
339.50 4.229
339.60 4.224
339.70 4.22
339.80 4.215
339.90 4.21
340.00 4.206
340.10 4.201
340.20 4.196
340.30 4.192
340.40 4.187
340.50 4.183
340.60 4.178
340.70 4.173
340.80 4.169
340.90 4.164
341.00 4.16
341.10 4.155
341.20 4.15
341.30 4.146
341.40 4.141
341.50 4.137
341.60 4.132
341.70 4.128
341.80 4.123
341.90 4.118
342.00 4.114
342.10 4.109
342.20 4.105
342.30 4.1
342.40 4.096
342.50 4.091
342.60 4.087
342.70 4.082
342.80 4.078
342.90 4.074
343.00 4.069
343.10 4.065
343.20 4.06
343.30 4.056
343.40 4.051
343.50 4.047
343.60 4.042
343.70 4.038
343.80 4.034
343.90 4.029
344.00 4.025
344.10 4.02
344.20 4.016
344.30 4.012
344.40 4.007
344.50 4.003
344.60 3.998
344.70 3.994
344.80 3.99
344.90 3.985
345.00 3.981
345.10 3.977
345.20 3.972
345.30 3.968
345.40 3.964
345.50 3.959
345.60 3.955
345.70 3.951
345.80 3.946
345.90 3.942
346.00 3.938
346.10 3.934
346.20 3.929
346.30 3.925
346.40 3.921
346.50 3.917
346.60 3.912
346.70 3.908
346.80 3.904
346.90 3.9
347.00 3.895
347.10 3.891
347.20 3.887
347.30 3.883
347.40 3.879
347.50 3.874
347.60 3.87
347.70 3.866
347.80 3.862
347.90 3.858
348.00 3.853
348.10 3.849
348.20 3.845
348.30 3.841
348.40 3.837
348.50 3.833
348.60 3.829
348.70 3.824
348.80 3.82
348.90 3.816
349.00 3.812
349.10 3.808
349.20 3.804
349.30 3.8
349.40 3.796
349.50 3.792
349.60 3.787
349.70 3.783
349.80 3.779
349.90 3.775
350.00 3.771
350.10 3.767
350.20 3.763
350.30 3.759
350.40 3.755
350.50 3.751
350.60 3.747
350.70 3.743
350.80 3.739
350.90 3.735
351.00 3.731
351.10 3.727
351.20 3.723
351.30 3.719
351.40 3.715
351.50 3.711
351.60 3.707
351.70 3.703
351.80 3.699
351.90 3.695
352.00 3.691
352.10 3.687
352.20 3.683
352.30 3.679
352.40 3.675
352.50 3.672
352.60 3.668
352.70 3.664
352.80 3.66
352.90 3.656
353.00 3.652
353.10 3.648
353.20 3.644
353.30 3.64
353.40 3.636
353.50 3.633
353.60 3.629
353.70 3.625
353.80 3.621
353.90 3.617
354.00 3.613
354.10 3.609
354.20 3.606
354.30 3.602
354.40 3.598
354.50 3.594
354.60 3.59
354.70 3.586
354.80 3.583
354.90 3.579
355.00 3.575
355.10 3.571
355.20 3.568
355.30 3.564
355.40 3.56
355.50 3.556
355.60 3.552
355.70 3.549
355.80 3.545
355.90 3.541
356.00 3.537
356.10 3.534
356.20 3.53
356.30 3.526
356.40 3.522
356.50 3.519
356.60 3.515
356.70 3.511
356.80 3.508
356.90 3.504
357.00 3.5
357.10 3.497
357.20 3.493
357.30 3.489
357.40 3.485
357.50 3.482
357.60 3.478
357.70 3.474
357.80 3.471
357.90 3.467
358.00 3.463
358.10 3.46
358.20 3.456
358.30 3.453
358.40 3.449
358.50 3.445
358.60 3.442
358.70 3.438
358.80 3.434
358.90 3.431
359.00 3.427
359.10 3.424
359.20 3.42
359.30 3.417
359.40 3.413
359.50 3.409
359.60 3.406
359.70 3.402
359.80 3.399
359.90 3.395
360.00 3.391
360.10 3.388
360.20 3.384
360.30 3.381
360.40 3.377
360.50 3.374
360.60 3.37
360.70 3.367
360.80 3.363
360.90 3.36
361.00 3.356
361.10 3.353
361.20 3.349
361.30 3.346
361.40 3.342
361.50 3.339
361.60 3.335
361.70 3.332
361.80 3.328
361.90 3.325
362.00 3.321
362.10 3.318
362.20 3.315
362.30 3.311
362.40 3.308
362.50 3.304
362.60 3.301
362.70 3.297
362.80 3.294
362.90 3.29
363.00 3.287
363.10 3.284
363.20 3.28
363.30 3.277
363.40 3.273
363.50 3.27
363.60 3.267
363.70 3.263
363.80 3.26
363.90 3.257
364.00 3.253
364.10 3.25
364.20 3.246
364.30 3.243
364.40 3.24
364.50 3.236
364.60 3.233
364.70 3.23
364.80 3.226
364.90 3.223
365.00 3.22
365.10 3.216
365.20 3.213
365.30 3.21
365.40 3.206
365.50 3.203
365.60 3.2
365.70 3.196
365.80 3.193
365.90 3.19
366.00 3.187
366.10 3.183
366.20 3.18
366.30 3.177
366.40 3.173
366.50 3.17
366.60 3.167
366.70 3.164
366.80 3.16
366.90 3.157
367.00 3.154
367.10 3.151
367.20 3.147
367.30 3.144
367.40 3.141
367.50 3.138
367.60 3.134
367.70 3.131
367.80 3.128
367.90 3.125
368.00 3.122
368.10 3.118
368.20 3.115
368.30 3.112
368.40 3.108
368.50 3.105
368.60 3.102
368.70 3.099
368.80 3.095
368.90 3.092
369.00 3.089
369.10 3.086
369.20 3.082
369.30 3.079
369.40 3.076
369.50 3.073
369.60 3.07
369.70 3.066
369.80 3.063
369.90 3.06
370.00 3.057
370.10 3.053
370.20 3.05
370.30 3.047
370.40 3.044
370.50 3.041
370.60 3.037
370.70 3.034
370.80 3.031
370.90 3.028
371.00 3.025
371.10 3.022
371.20 3.018
371.30 3.015
371.40 3.012
371.50 3.009
371.60 3.006
371.70 3.002
371.80 2.999
371.90 2.996
372.00 2.993
372.10 2.99
372.20 2.987
372.30 2.984
372.40 2.981
372.50 2.978
372.60 2.975
372.70 2.972
372.80 2.969
372.90 2.966
373.00 2.964
373.10 2.961
373.20 2.958
373.30 2.955
373.40 2.952
373.50 2.949
373.60 2.946
373.70 2.943
373.80 2.94
373.90 2.937
374.00 2.934
374.10 2.931
374.20 2.928
374.30 2.925
374.40 2.922
374.50 2.919
374.60 2.916
374.70 2.913
374.80 2.91
374.90 2.907
375.00 2.904
375.10 2.901
375.20 2.898
375.30 2.895
375.40 2.892
375.50 2.889
375.60 2.886
375.70 2.883
375.80 2.88
375.90 2.877
376.00 2.874
376.10 2.871
376.20 2.868
376.30 2.865
376.40 2.862
376.50 2.859
376.60 2.856
376.70 2.853
376.80 2.85
376.90 2.847
377.00 2.844
377.10 2.841
377.20 2.838
377.30 2.836
377.40 2.833
377.50 2.83
377.60 2.827
377.70 2.824
377.80 2.821
377.90 2.818
378.00 2.816
378.10 2.813
378.20 2.81
378.30 2.807
378.40 2.804
378.50 2.801
378.60 2.799
378.70 2.796
378.80 2.793
378.90 2.79
379.00 2.787
379.10 2.784
379.20 2.782
379.30 2.779
379.40 2.776
379.50 2.773
379.60 2.77
379.70 2.768
379.80 2.765
379.90 2.762
380.00 2.759
380.10 2.756
380.20 2.754
380.30 2.751
380.40 2.748
380.50 2.745
380.60 2.743
380.70 2.74
380.80 2.737
380.90 2.734
381.00 2.732
381.10 2.729
381.20 2.726
381.30 2.723
381.40 2.721
381.50 2.718
381.60 2.715
381.70 2.713
381.80 2.71
381.90 2.707
382.00 2.705
382.10 2.702
382.20 2.699
382.30 2.697
382.40 2.694
382.50 2.691
382.60 2.689
382.70 2.686
382.80 2.683
382.90 2.681
383.00 2.678
383.10 2.675
383.20 2.673
383.30 2.67
383.40 2.667
383.50 2.665
383.60 2.662
383.70 2.659
383.80 2.657
383.90 2.654
384.00 2.652
384.10 2.649
384.20 2.646
384.30 2.644
384.40 2.641
384.50 2.639
384.60 2.636
384.70 2.634
384.80 2.631
384.90 2.628
385.00 2.626
385.10 2.623
385.20 2.621
385.30 2.618
385.40 2.616
385.50 2.613
385.60 2.611
385.70 2.608
385.80 2.605
385.90 2.603
386.00 2.6
386.10 2.598
386.20 2.595
386.30 2.593
386.40 2.59
386.50 2.588
386.60 2.585
386.70 2.583
386.80 2.58
386.90 2.578
387.00 2.575
387.10 2.573
387.20 2.57
387.30 2.568
387.40 2.565
387.50 2.563
387.60 2.56
387.70 2.558
387.80 2.556
387.90 2.553
388.00 2.551
388.10 2.548
388.20 2.546
388.30 2.543
388.40 2.541
388.50 2.539
388.60 2.536
388.70 2.534
388.80 2.531
388.90 2.529
389.00 2.527
389.10 2.524
389.20 2.522
389.30 2.519
389.40 2.517
389.50 2.515
389.60 2.512
389.70 2.51
389.80 2.508
389.90 2.505
390.00 2.503
390.10 2.501
390.20 2.498
390.30 2.496
390.40 2.494
390.50 2.491
390.60 2.489
390.70 2.487
390.80 2.484
390.90 2.482
391.00 2.48
391.10 2.477
391.20 2.475
391.30 2.473
391.40 2.47
391.50 2.468
391.60 2.466
391.70 2.464
391.80 2.461
391.90 2.459
392.00 2.457
392.10 2.454
392.20 2.452
392.30 2.45
392.40 2.447
392.50 2.445
392.60 2.443
392.70 2.44
392.80 2.438
392.90 2.436
393.00 2.434
393.10 2.431
393.20 2.429
393.30 2.427
393.40 2.424
393.50 2.422
393.60 2.42
393.70 2.417
393.80 2.415
393.90 2.413
394.00 2.41
394.10 2.408
394.20 2.406
394.30 2.403
394.40 2.401
394.50 2.399
394.60 2.397
394.70 2.394
394.80 2.392
394.90 2.39
395.00 2.387
395.10 2.385
395.20 2.383
395.30 2.38
395.40 2.378
395.50 2.376
395.60 2.373
395.70 2.371
395.80 2.369
395.90 2.367
396.00 2.364
396.10 2.362
396.20 2.36
396.30 2.357
396.40 2.355
396.50 2.353
396.60 2.351
396.70 2.349
396.80 2.346
396.90 2.344
397.00 2.342
397.10 2.34
397.20 2.338
397.30 2.336
397.40 2.334
397.50 2.332
397.60 2.33
397.70 2.328
397.80 2.326
397.90 2.324
398.00 2.322
398.10 2.32
398.20 2.319
398.30 2.317
398.40 2.315
398.50 2.313
398.60 2.311
398.70 2.309
398.80 2.307
398.90 2.305
399.00 2.303
399.10 2.301
399.20 2.3
399.30 2.298
399.40 2.296
399.50 2.294
399.60 2.292
399.70 2.29
399.80 2.288
399.90 2.286
400.00 2.284
400.10 2.282
400.20 2.28
400.30 2.278
400.40 2.276
400.50 2.274
400.60 2.272
400.70 2.27
400.80 2.268
400.90 2.266
401.00 2.264
401.10 2.262
401.20 2.26
401.30 2.258
401.40 2.256
401.50 2.254
401.60 2.252
401.70 2.25
401.80 2.248
401.90 2.246
402.00 2.244
402.10 2.242
402.20 2.24
402.30 2.238
402.40 2.236
402.50 2.234
402.60 2.232
402.70 2.229
402.80 2.227
402.90 2.225
403.00 2.223
403.10 2.221
403.20 2.219
403.30 2.216
403.40 2.214
403.50 2.212
403.60 2.21
403.70 2.208
403.80 2.206
403.90 2.203
404.00 2.201
404.10 2.199
404.20 2.197
404.30 2.194
404.40 2.192
404.50 2.19
404.60 2.187
404.70 2.185
404.80 2.183
404.90 2.181
405.00 2.178
405.10 2.176
405.20 2.174
405.30 2.171
405.40 2.169
405.50 2.166
405.60 2.164
405.70 2.162
405.80 2.159
405.90 2.157
406.00 2.154
406.10 2.152
406.20 2.15
406.30 2.147
406.40 2.145
406.50 2.142
406.60 2.14
406.70 2.137
406.80 2.135
406.90 2.132
407.00 2.13
407.10 2.127
407.20 2.125
407.30 2.122
407.40 2.12
407.50 2.117
407.60 2.115
407.70 2.112
407.80 2.11
407.90 2.107
408.00 2.105
408.10 2.102
408.20 2.1
408.30 2.097
408.40 2.095
408.50 2.092
408.60 2.09
408.70 2.088
408.80 2.085
408.90 2.083
409.00 2.08
409.10 2.078
409.20 2.076
409.30 2.074
409.40 2.072
409.50 2.07
409.60 2.068
409.70 2.066
409.80 2.064
409.90 2.062
410.00 2.061
410.10 2.059
410.20 2.057
410.30 2.056
410.40 2.054
410.50 2.052
410.60 2.05
410.70 2.048
410.80 2.047
410.90 2.045
411.00 2.044
411.10 2.042
411.20 2.041
411.30 2.04
411.40 2.039
411.50 2.037
411.60 2.036
411.70 2.035
411.80 2.034
411.90 2.033
412.00 2.032
412.10 2.031
412.20 2.03
412.30 2.029
412.40 2.028
412.50 2.027
412.60 2.026
412.70 2.025
412.80 2.023
412.90 2.022
413.00 2.021
413.10 2.02
413.20 2.019
413.30 2.018
413.40 2.017
413.50 2.016
413.60 2.015
413.70 2.014
413.80 2.013
413.90 2.012
414.00 2.01
414.10 2.009
414.20 2.008
414.30 2.007
414.40 2.006
414.50 2.005
414.60 2.004
414.70 2.002
414.80 2.001
414.90 2
415.00 1.999
415.10 1.998
415.20 1.996
415.30 1.995
415.40 1.994
415.50 1.993
415.60 1.991
415.70 1.99
415.80 1.989
415.90 1.987
416.00 1.986
416.10 1.985
416.20 1.983
416.30 1.982
416.40 1.981
416.50 1.979
416.60 1.978
416.70 1.977
416.80 1.975
416.90 1.974
417.00 1.972
417.10 1.971
417.20 1.97
417.30 1.968
417.40 1.967
417.50 1.965
417.60 1.964
417.70 1.962
417.80 1.961
417.90 1.959
418.00 1.958
418.10 1.956
418.20 1.955
418.30 1.953
418.40 1.952
418.50 1.95
418.60 1.949
418.70 1.947
418.80 1.946
418.90 1.944
419.00 1.942
419.10 1.941
419.20 1.939
419.30 1.938
419.40 1.936
419.50 1.935
419.60 1.933
419.70 1.931
419.80 1.93
419.90 1.928
420.00 1.926
420.10 1.925
420.20 1.923
420.30 1.921
420.40 1.92
420.50 1.918
420.60 1.916
420.70 1.915
420.80 1.913
420.90 1.911
421.00 1.909
421.10 1.908
421.20 1.906
421.30 1.904
421.40 1.903
421.50 1.901
421.60 1.899
421.70 1.897
421.80 1.895
421.90 1.894
422.00 1.892
422.10 1.89
422.20 1.888
422.30 1.886
422.40 1.885
422.50 1.883
422.60 1.881
422.70 1.879
422.80 1.877
422.90 1.875
423.00 1.873
423.10 1.872
423.20 1.87
423.30 1.868
423.40 1.866
423.50 1.864
423.60 1.862
423.70 1.86
423.80 1.858
423.90 1.856
424.00 1.854
424.10 1.852
424.20 1.85
424.30 1.848
424.40 1.846
424.50 1.844
424.60 1.842
424.70 1.84
424.80 1.838
424.90 1.836
425.00 1.834
425.10 1.832
425.20 1.83
425.30 1.828
425.40 1.826
425.50 1.823
425.60 1.821
425.70 1.819
425.80 1.817
425.90 1.815
426.00 1.813
426.10 1.81
426.20 1.808
426.30 1.806
426.40 1.804
426.50 1.802
426.60 1.799
426.70 1.797
426.80 1.795
426.90 1.792
427.00 1.79
427.10 1.788
427.20 1.785
427.30 1.783
427.40 1.781
427.50 1.778
427.60 1.776
427.70 1.773
427.80 1.771
427.90 1.768
428.00 1.766
428.10 1.763
428.20 1.761
428.30 1.758
428.40 1.756
428.50 1.753
428.60 1.751
428.70 1.748
428.80 1.745
428.90 1.743
429.00 1.74
429.10 1.737
429.20 1.735
429.30 1.732
429.40 1.729
429.50 1.726
429.60 1.724
429.70 1.721
429.80 1.718
429.90 1.715
430.00 1.712
430.10 1.71
430.20 1.707
430.30 1.704
430.40 1.701
430.50 1.698
430.60 1.695
430.70 1.692
430.80 1.689
430.90 1.686
431.00 1.683
431.10 1.68
431.20 1.677
431.30 1.674
431.40 1.671
431.50 1.668
431.60 1.665
431.70 1.661
431.80 1.658
431.90 1.655
432.00 1.652
432.10 1.649
432.20 1.646
432.30 1.642
432.40 1.639
432.50 1.636
432.60 1.633
432.70 1.629
432.80 1.626
432.90 1.623
433.00 1.619
433.10 1.616
433.20 1.612
433.30 1.609
433.40 1.605
433.50 1.601
433.60 1.597
433.70 1.593
433.80 1.588
433.90 1.584
434.00 1.58
434.10 1.58
434.20 1.581
434.30 1.583
434.40 1.584
434.50 1.586
434.60 1.587
434.70 1.589
434.80 1.59
434.90 1.591
435.00 1.592
435.10 1.593
435.20 1.593
435.30 1.594
435.40 1.595
435.50 1.595
435.60 1.596
435.70 1.596
435.80 1.597
435.90 1.597
436.00 1.598
436.10 1.598
436.20 1.598
436.30 1.599
436.40 1.599
436.50 1.599
436.60 1.6
436.70 1.6
436.80 1.6
436.90 1.601
437.00 1.601
437.10 1.601
437.20 1.601
437.30 1.601
437.40 1.602
437.50 1.602
437.60 1.602
437.70 1.602
437.80 1.602
437.90 1.602
438.00 1.602
438.10 1.602
438.20 1.602
438.30 1.602
438.40 1.602
438.50 1.602
438.60 1.602
438.70 1.601
438.80 1.601
438.90 1.601
439.00 1.601
439.10 1.601
439.20 1.6
439.30 1.6
439.40 1.6
439.50 1.6
439.60 1.599
439.70 1.599
439.80 1.599
439.90 1.598
440.00 1.598
440.10 1.597
440.20 1.597
440.30 1.596
440.40 1.596
440.50 1.595
440.60 1.595
440.70 1.594
440.80 1.594
440.90 1.593
441.00 1.593
441.10 1.592
441.20 1.592
441.30 1.591
441.40 1.59
441.50 1.59
441.60 1.589
441.70 1.588
441.80 1.588
441.90 1.587
442.00 1.586
442.10 1.585
442.20 1.585
442.30 1.584
442.40 1.583
442.50 1.582
442.60 1.582
442.70 1.581
442.80 1.58
442.90 1.579
443.00 1.578
443.10 1.577
443.20 1.577
443.30 1.576
443.40 1.575
443.50 1.574
443.60 1.573
443.70 1.572
443.80 1.571
443.90 1.57
444.00 1.569
444.10 1.568
444.20 1.567
444.30 1.566
444.40 1.566
444.50 1.565
444.60 1.564
444.70 1.563
444.80 1.562
444.90 1.561
445.00 1.56
445.10 1.559
445.20 1.558
445.30 1.557
445.40 1.556
445.50 1.554
445.60 1.553
445.70 1.552
445.80 1.551
445.90 1.55
446.00 1.549
446.10 1.548
446.20 1.547
446.30 1.546
446.40 1.545
446.50 1.544
446.60 1.543
446.70 1.542
446.80 1.541
446.90 1.54
447.00 1.538
447.10 1.537
447.20 1.536
447.30 1.535
447.40 1.534
447.50 1.533
447.60 1.532
447.70 1.531
447.80 1.53
447.90 1.528
448.00 1.527
448.10 1.526
448.20 1.525
448.30 1.524
448.40 1.523
448.50 1.522
448.60 1.52
448.70 1.519
448.80 1.518
448.90 1.517
449.00 1.516
449.10 1.515
449.20 1.514
449.30 1.512
449.40 1.511
449.50 1.51
449.60 1.509
449.70 1.508
449.80 1.507
449.90 1.505
450.00 1.504
450.10 1.503
450.20 1.502
450.30 1.501
450.40 1.5
450.50 1.498
450.60 1.497
450.70 1.496
450.80 1.495
450.90 1.494
451.00 1.492
451.10 1.491
451.20 1.49
451.30 1.489
451.40 1.488
451.50 1.487
451.60 1.485
451.70 1.484
451.80 1.483
451.90 1.482
452.00 1.481
452.10 1.479
452.20 1.478
452.30 1.477
452.40 1.476
452.50 1.475
452.60 1.473
452.70 1.472
452.80 1.471
452.90 1.47
453.00 1.469
453.10 1.467
453.20 1.466
453.30 1.465
453.40 1.464
453.50 1.463
453.60 1.462
453.70 1.46
453.80 1.459
453.90 1.458
454.00 1.457
454.10 1.456
454.20 1.454
454.30 1.453
