# Version 2.1 - nm, norm@500 to 1, cut digits, bergeron_8500_70.dat_8500
# Wavelength(nm)  Flambda(ergs/cm^s/s/nm)
300.00 1.343
300.10 1.343
300.20 1.343
300.30 1.343
300.40 1.342
300.50 1.342
300.60 1.342
300.70 1.342
300.80 1.341
300.90 1.341
301.00 1.341
301.10 1.341
301.20 1.341
301.30 1.34
301.40 1.34
301.50 1.34
301.60 1.34
301.70 1.339
301.80 1.339
301.90 1.339
302.00 1.339
302.10 1.339
302.20 1.338
302.30 1.338
302.40 1.338
302.50 1.338
302.60 1.337
302.70 1.337
302.80 1.337
302.90 1.337
303.00 1.336
303.10 1.336
303.20 1.336
303.30 1.336
303.40 1.336
303.50 1.335
303.60 1.335
303.70 1.335
303.80 1.335
303.90 1.334
304.00 1.334
304.10 1.334
304.20 1.334
304.30 1.334
304.40 1.333
304.50 1.333
304.60 1.333
304.70 1.333
304.80 1.332
304.90 1.332
305.00 1.332
305.10 1.332
305.20 1.331
305.30 1.331
305.40 1.331
305.50 1.331
305.60 1.33
305.70 1.33
305.80 1.33
305.90 1.33
306.00 1.329
306.10 1.329
306.20 1.329
306.30 1.329
306.40 1.328
306.50 1.328
306.60 1.328
306.70 1.328
306.80 1.327
306.90 1.327
307.00 1.327
307.10 1.327
307.20 1.326
307.30 1.326
307.40 1.326
307.50 1.326
307.60 1.325
307.70 1.325
307.80 1.325
307.90 1.325
308.00 1.325
308.10 1.324
308.20 1.324
308.30 1.324
308.40 1.324
308.50 1.323
308.60 1.323
308.70 1.323
308.80 1.322
308.90 1.322
309.00 1.322
309.10 1.322
309.20 1.321
309.30 1.321
309.40 1.321
309.50 1.321
309.60 1.32
309.70 1.32
309.80 1.32
309.90 1.32
310.00 1.319
310.10 1.319
310.20 1.319
310.30 1.319
310.40 1.318
310.50 1.318
310.60 1.318
310.70 1.318
310.80 1.317
310.90 1.317
311.00 1.317
311.10 1.317
311.20 1.316
311.30 1.316
311.40 1.316
311.50 1.316
311.60 1.315
311.70 1.315
311.80 1.315
311.90 1.315
312.00 1.314
312.10 1.314
312.20 1.314
312.30 1.314
312.40 1.313
312.50 1.313
312.60 1.313
312.70 1.312
312.80 1.312
312.90 1.312
313.00 1.312
313.10 1.311
313.20 1.311
313.30 1.311
313.40 1.311
313.50 1.31
313.60 1.31
313.70 1.31
313.80 1.31
313.90 1.309
314.00 1.309
314.10 1.309
314.20 1.308
314.30 1.308
314.40 1.308
314.50 1.308
314.60 1.307
314.70 1.307
314.80 1.307
314.90 1.307
315.00 1.306
315.10 1.306
315.20 1.306
315.30 1.305
315.40 1.305
315.50 1.305
315.60 1.305
315.70 1.304
315.80 1.304
315.90 1.304
316.00 1.304
316.10 1.303
316.20 1.303
316.30 1.303
316.40 1.302
316.50 1.302
316.60 1.302
316.70 1.302
316.80 1.301
316.90 1.301
317.00 1.301
317.10 1.301
317.20 1.3
317.30 1.3
317.40 1.3
317.50 1.299
317.60 1.299
317.70 1.299
317.80 1.299
317.90 1.298
318.00 1.298
318.10 1.298
318.20 1.297
318.30 1.297
318.40 1.297
318.50 1.297
318.60 1.296
318.70 1.296
318.80 1.296
318.90 1.295
319.00 1.295
319.10 1.295
319.20 1.295
319.30 1.294
319.40 1.294
319.50 1.294
319.60 1.293
319.70 1.293
319.80 1.293
319.90 1.293
320.00 1.292
320.10 1.292
320.20 1.292
320.30 1.292
320.40 1.291
320.50 1.291
320.60 1.291
320.70 1.29
320.80 1.29
320.90 1.29
321.00 1.29
321.10 1.289
321.20 1.289
321.30 1.289
321.40 1.288
321.50 1.288
321.60 1.288
321.70 1.288
321.80 1.287
321.90 1.287
322.00 1.287
322.10 1.286
322.20 1.286
322.30 1.286
322.40 1.285
322.50 1.285
322.60 1.285
322.70 1.285
322.80 1.284
322.90 1.284
323.00 1.284
323.10 1.283
323.20 1.283
323.30 1.283
323.40 1.283
323.50 1.282
323.60 1.282
323.70 1.282
323.80 1.281
323.90 1.281
324.00 1.281
324.10 1.281
324.20 1.28
324.30 1.28
324.40 1.28
324.50 1.279
324.60 1.279
324.70 1.279
324.80 1.278
324.90 1.278
325.00 1.278
325.10 1.278
325.20 1.277
325.30 1.277
325.40 1.277
325.50 1.276
325.60 1.276
325.70 1.276
325.80 1.275
325.90 1.275
326.00 1.275
326.10 1.275
326.20 1.274
326.30 1.274
326.40 1.274
326.50 1.273
326.60 1.273
326.70 1.273
326.80 1.272
326.90 1.272
327.00 1.272
327.10 1.272
327.20 1.271
327.30 1.271
327.40 1.271
327.50 1.27
327.60 1.27
327.70 1.27
327.80 1.269
327.90 1.269
328.00 1.269
328.10 1.269
328.20 1.268
328.30 1.268
328.40 1.268
328.50 1.267
328.60 1.267
328.70 1.267
328.80 1.266
328.90 1.266
329.00 1.266
329.10 1.265
329.20 1.265
329.30 1.265
329.40 1.265
329.50 1.264
329.60 1.264
329.70 1.264
329.80 1.263
329.90 1.263
330.00 1.263
330.10 1.262
330.20 1.262
330.30 1.262
330.40 1.262
330.50 1.261
330.60 1.261
330.70 1.261
330.80 1.26
330.90 1.26
331.00 1.26
331.10 1.259
331.20 1.259
331.30 1.259
331.40 1.258
331.50 1.258
331.60 1.258
331.70 1.258
331.80 1.257
331.90 1.257
332.00 1.257
332.10 1.256
332.20 1.256
332.30 1.256
332.40 1.255
332.50 1.255
332.60 1.255
332.70 1.254
332.80 1.254
332.90 1.254
333.00 1.253
333.10 1.253
333.20 1.253
333.30 1.253
333.40 1.252
333.50 1.252
333.60 1.252
333.70 1.251
333.80 1.251
333.90 1.251
334.00 1.25
334.10 1.25
334.20 1.25
334.30 1.249
334.40 1.249
334.50 1.249
334.60 1.248
334.70 1.248
334.80 1.248
334.90 1.247
335.00 1.247
335.10 1.247
335.20 1.247
335.30 1.246
335.40 1.246
335.50 1.246
335.60 1.245
335.70 1.245
335.80 1.245
335.90 1.244
336.00 1.244
336.10 1.244
336.20 1.243
336.30 1.243
336.40 1.243
336.50 1.242
336.60 1.242
336.70 1.242
336.80 1.241
336.90 1.241
337.00 1.241
337.10 1.24
337.20 1.24
337.30 1.24
337.40 1.24
337.50 1.239
337.60 1.239
337.70 1.239
337.80 1.238
337.90 1.238
338.00 1.238
338.10 1.237
338.20 1.237
338.30 1.237
338.40 1.236
338.50 1.236
338.60 1.236
338.70 1.235
338.80 1.235
338.90 1.235
339.00 1.234
339.10 1.234
339.20 1.234
339.30 1.233
339.40 1.233
339.50 1.233
339.60 1.232
339.70 1.232
339.80 1.232
339.90 1.231
340.00 1.231
340.10 1.231
340.20 1.231
340.30 1.23
340.40 1.23
340.50 1.23
340.60 1.229
340.70 1.229
340.80 1.229
340.90 1.228
341.00 1.228
341.10 1.228
341.20 1.227
341.30 1.227
341.40 1.227
341.50 1.226
341.60 1.226
341.70 1.226
341.80 1.225
341.90 1.225
342.00 1.225
342.10 1.224
342.20 1.224
342.30 1.224
342.40 1.223
342.50 1.223
342.60 1.223
342.70 1.222
342.80 1.222
342.90 1.222
343.00 1.221
343.10 1.221
343.20 1.221
343.30 1.22
343.40 1.22
343.50 1.22
343.60 1.219
343.70 1.219
343.80 1.219
343.90 1.218
344.00 1.218
344.10 1.218
344.20 1.217
344.30 1.217
344.40 1.217
344.50 1.216
344.60 1.216
344.70 1.216
344.80 1.215
344.90 1.215
345.00 1.215
345.10 1.214
345.20 1.214
345.30 1.214
345.40 1.213
345.50 1.213
345.60 1.213
345.70 1.212
345.80 1.212
345.90 1.212
346.00 1.211
346.10 1.211
346.20 1.211
346.30 1.21
346.40 1.21
346.50 1.21
346.60 1.209
346.70 1.209
346.80 1.209
346.90 1.208
347.00 1.208
347.10 1.208
347.20 1.207
347.30 1.207
347.40 1.207
347.50 1.206
347.60 1.206
347.70 1.206
347.80 1.205
347.90 1.205
348.00 1.205
348.10 1.204
348.20 1.204
348.30 1.204
348.40 1.203
348.50 1.203
348.60 1.203
348.70 1.202
348.80 1.202
348.90 1.202
349.00 1.201
349.10 1.201
349.20 1.201
349.30 1.2
349.40 1.2
349.50 1.2
349.60 1.199
349.70 1.199
349.80 1.199
349.90 1.198
350.00 1.198
350.10 1.198
350.20 1.197
350.30 1.197
350.40 1.197
350.50 1.196
350.60 1.196
350.70 1.196
350.80 1.195
350.90 1.195
351.00 1.195
351.10 1.194
351.20 1.194
351.30 1.194
351.40 1.193
351.50 1.193
351.60 1.193
351.70 1.192
351.80 1.192
351.90 1.192
352.00 1.191
352.10 1.191
352.20 1.191
352.30 1.19
352.40 1.19
352.50 1.19
352.60 1.189
352.70 1.189
352.80 1.189
352.90 1.188
353.00 1.188
353.10 1.188
353.20 1.187
353.30 1.187
353.40 1.187
353.50 1.186
353.60 1.186
353.70 1.186
353.80 1.185
353.90 1.185
354.00 1.185
354.10 1.184
354.20 1.184
354.30 1.184
354.40 1.183
354.50 1.183
354.60 1.183
354.70 1.182
354.80 1.182
354.90 1.182
355.00 1.181
355.10 1.181
355.20 1.181
355.30 1.18
355.40 1.18
355.50 1.18
355.60 1.179
355.70 1.179
355.80 1.179
355.90 1.178
356.00 1.178
356.10 1.178
356.20 1.177
356.30 1.177
356.40 1.177
356.50 1.176
356.60 1.176
356.70 1.176
356.80 1.175
356.90 1.175
357.00 1.174
357.10 1.174
357.20 1.174
357.30 1.173
357.40 1.173
357.50 1.173
357.60 1.172
357.70 1.172
357.80 1.172
357.90 1.171
358.00 1.171
358.10 1.171
358.20 1.17
358.30 1.17
358.40 1.17
358.50 1.169
358.60 1.169
358.70 1.169
358.80 1.168
358.90 1.168
359.00 1.168
359.10 1.167
359.20 1.167
359.30 1.167
359.40 1.166
359.50 1.166
359.60 1.166
359.70 1.165
359.80 1.165
359.90 1.165
360.00 1.164
360.10 1.164
360.20 1.164
360.30 1.163
360.40 1.163
360.50 1.162
360.60 1.162
360.70 1.162
360.80 1.161
360.90 1.161
361.00 1.161
361.10 1.16
361.20 1.16
361.30 1.16
361.40 1.159
361.50 1.159
361.60 1.159
361.70 1.158
361.80 1.158
361.90 1.158
362.00 1.157
362.10 1.157
362.20 1.157
362.30 1.156
362.40 1.156
362.50 1.156
362.60 1.155
362.70 1.155
362.80 1.155
362.90 1.154
363.00 1.154
363.10 1.154
363.20 1.153
363.30 1.153
363.40 1.152
363.50 1.152
363.60 1.152
363.70 1.151
363.80 1.151
363.90 1.151
364.00 1.15
364.10 1.15
364.20 1.15
364.30 1.149
364.40 1.149
364.50 1.148
364.60 1.148
364.70 1.148
364.80 1.148
364.90 1.147
365.00 1.147
365.10 1.147
365.20 1.146
365.30 1.146
365.40 1.146
365.50 1.145
365.60 1.145
365.70 1.145
365.80 1.145
365.90 1.144
366.00 1.144
366.10 1.144
366.20 1.143
366.30 1.143
366.40 1.143
366.50 1.143
366.60 1.143
366.70 1.142
366.80 1.142
366.90 1.142
367.00 1.142
367.10 1.141
367.20 1.141
367.30 1.141
367.40 1.141
367.50 1.14
367.60 1.14
367.70 1.14
367.80 1.14
367.90 1.139
368.00 1.139
368.10 1.14
368.20 1.141
368.30 1.142
368.40 1.142
368.50 1.143
368.60 1.144
368.70 1.145
368.80 1.146
368.90 1.147
369.00 1.147
369.10 1.148
369.20 1.149
369.30 1.15
369.40 1.151
369.50 1.152
369.60 1.152
369.70 1.153
369.80 1.154
369.90 1.155
370.00 1.156
370.10 1.158
370.20 1.16
370.30 1.162
370.40 1.164
370.50 1.166
370.60 1.168
370.70 1.17
370.80 1.172
370.90 1.174
371.00 1.176
371.10 1.178
371.20 1.18
371.30 1.183
371.40 1.185
371.50 1.187
371.60 1.189
371.70 1.191
371.80 1.193
371.90 1.195
372.00 1.197
372.10 1.199
372.20 1.202
372.30 1.205
372.40 1.207
372.50 1.21
372.60 1.212
372.70 1.215
372.80 1.217
372.90 1.22
373.00 1.222
373.10 1.225
373.20 1.227
373.30 1.23
373.40 1.232
373.50 1.235
373.60 1.238
373.70 1.24
373.80 1.243
373.90 1.245
374.00 1.248
374.10 1.25
374.20 1.252
374.30 1.254
374.40 1.257
374.50 1.259
374.60 1.261
374.70 1.263
374.80 1.265
374.90 1.268
375.00 1.27
375.10 1.272
375.20 1.274
375.30 1.276
375.40 1.279
375.50 1.281
375.60 1.283
375.70 1.285
375.80 1.287
375.90 1.29
376.00 1.292
376.10 1.293
376.20 1.294
376.30 1.295
376.40 1.296
376.50 1.297
376.60 1.299
376.70 1.3
376.80 1.301
376.90 1.302
377.00 1.303
377.10 1.302
377.20 1.3
377.30 1.299
377.40 1.298
377.50 1.297
377.60 1.295
377.70 1.294
377.80 1.293
377.90 1.291
378.00 1.29
378.10 1.279
378.20 1.268
378.30 1.257
378.40 1.246
378.50 1.235
378.60 1.224
378.70 1.213
378.80 1.202
378.90 1.191
379.00 1.18
379.10 1.159
379.20 1.137
379.30 1.115
379.40 1.094
379.50 1.072
379.60 1.051
379.70 1.029
379.80 1.007
379.90 0.9859
380.00 0.9644
380.10 0.9926
380.20 1.021
380.30 1.049
380.40 1.077
380.50 1.105
380.60 1.133
380.70 1.161
380.80 1.189
380.90 1.217
381.00 1.245
381.10 1.251
381.20 1.256
381.30 1.262
381.40 1.267
381.50 1.272
381.60 1.273
381.70 1.272
381.80 1.269
381.90 1.265
382.00 1.259
382.10 1.252
382.20 1.242
382.30 1.211
382.40 1.18
382.50 1.149
382.60 1.119
382.70 1.088
382.80 1.057
382.90 1.027
383.00 0.996
383.10 0.9654
383.20 0.9349
383.30 0.8635
383.40 0.7719
383.50 0.6623
383.60 0.6866
383.70 0.7941
383.80 0.8813
383.90 0.9496
384.00 1.005
384.10 1.052
384.20 1.093
384.30 1.128
384.40 1.159
384.50 1.186
384.60 1.209
384.70 1.229
384.80 1.245
384.90 1.259
385.00 1.271
385.10 1.281
385.20 1.29
385.30 1.298
385.40 1.304
385.50 1.309
385.60 1.313
385.70 1.316
385.80 1.319
385.90 1.321
386.00 1.321
386.10 1.322
386.20 1.321
386.30 1.32
386.40 1.318
386.50 1.316
386.60 1.312
386.70 1.308
386.80 1.304
386.90 1.298
387.00 1.291
387.10 1.283
387.20 1.274
387.30 1.263
387.40 1.252
387.50 1.237
387.60 1.221
387.70 1.204
387.80 1.181
387.90 1.155
388.00 1.127
388.10 1.09
388.20 1.049
388.30 1.003
388.40 0.9457
388.50 0.8814
388.60 0.8096
388.70 0.7131
388.80 0.6081
388.90 0.4946
389.00 0.6006
389.10 0.7028
389.20 0.8012
389.30 0.8742
389.40 0.9394
389.50 0.9969
389.60 1.044
389.70 1.086
389.80 1.123
389.90 1.153
390.00 1.179
390.10 1.202
390.20 1.221
390.30 1.238
390.40 1.253
390.50 1.266
390.60 1.278
390.70 1.288
390.80 1.298
390.90 1.306
391.00 1.314
391.10 1.321
391.20 1.327
391.30 1.333
391.40 1.338
391.50 1.343
391.60 1.347
391.70 1.351
391.80 1.354
391.90 1.357
392.00 1.359
392.10 1.362
392.20 1.364
392.30 1.365
392.40 1.367
392.50 1.368
392.60 1.368
392.70 1.369
392.80 1.369
392.90 1.368
393.00 1.368
393.10 1.367
393.20 1.366
393.30 1.365
393.40 1.363
393.50 1.361
393.60 1.358
393.70 1.356
393.80 1.353
393.90 1.349
394.00 1.345
394.10 1.341
394.20 1.336
394.30 1.331
394.40 1.325
394.50 1.319
394.60 1.312
394.70 1.305
394.80 1.297
394.90 1.288
395.00 1.279
395.10 1.269
395.20 1.258
395.30 1.245
395.40 1.231
395.50 1.217
395.60 1.2
395.70 1.181
395.80 1.16
395.90 1.136
396.00 1.108
396.10 1.077
396.20 1.039
396.30 0.9947
396.40 0.9453
396.50 0.8833
396.60 0.8138
396.70 0.7367
396.80 0.6391
396.90 0.5324
397.00 0.4169
397.10 0.5221
397.20 0.6246
397.30 0.7244
397.40 0.8028
397.50 0.8734
397.60 0.9361
397.70 0.9862
397.80 1.031
397.90 1.07
398.00 1.1
398.10 1.128
398.20 1.153
398.30 1.173
398.40 1.192
398.50 1.209
398.60 1.223
398.70 1.237
398.80 1.249
398.90 1.26
399.00 1.27
399.10 1.279
399.20 1.288
399.30 1.296
399.40 1.303
399.50 1.31
399.60 1.316
399.70 1.322
399.80 1.328
399.90 1.333
400.00 1.337
400.10 1.342
400.20 1.346
400.30 1.35
400.40 1.353
400.50 1.356
400.60 1.359
400.70 1.362
400.80 1.365
400.90 1.367
401.00 1.369
401.10 1.371
401.20 1.373
401.30 1.375
401.40 1.376
401.50 1.378
401.60 1.379
401.70 1.38
401.80 1.381
401.90 1.382
402.00 1.383
402.10 1.384
402.20 1.384
402.30 1.385
402.40 1.385
402.50 1.386
402.60 1.386
402.70 1.386
402.80 1.386
402.90 1.386
403.00 1.386
403.10 1.386
403.20 1.386
403.30 1.386
403.40 1.385
403.50 1.385
403.60 1.384
403.70 1.384
403.80 1.383
403.90 1.383
404.00 1.382
404.10 1.381
404.20 1.38
404.30 1.379
404.40 1.378
404.50 1.377
404.60 1.376
404.70 1.375
404.80 1.374
404.90 1.372
405.00 1.371
405.10 1.369
405.20 1.367
405.30 1.365
405.40 1.364
405.50 1.361
405.60 1.359
405.70 1.357
405.80 1.355
405.90 1.352
406.00 1.349
406.10 1.346
406.20 1.343
406.30 1.34
406.40 1.337
406.50 1.333
406.60 1.329
406.70 1.325
406.80 1.32
406.90 1.316
407.00 1.311
407.10 1.305
407.20 1.3
407.30 1.294
407.40 1.287
407.50 1.281
407.60 1.273
407.70 1.265
407.80 1.257
407.90 1.248
408.00 1.239
408.10 1.228
408.20 1.217
408.30 1.205
408.40 1.193
408.50 1.179
408.60 1.164
408.70 1.148
408.80 1.129
408.90 1.109
409.00 1.088
409.10 1.062
409.20 1.034
409.30 1.003
409.40 0.9636
409.50 0.9187
409.60 0.8684
409.70 0.8053
409.80 0.7348
409.90 0.6572
410.00 0.5622
410.10 0.4784
410.20 0.4056
410.30 0.5149
410.40 0.6134
410.50 0.7011
410.60 0.7734
410.70 0.8383
410.80 0.8959
410.90 0.9415
411.00 0.982
411.10 1.017
411.20 1.046
411.30 1.071
411.40 1.094
411.50 1.114
411.60 1.132
411.70 1.149
411.80 1.163
411.90 1.177
412.00 1.189
412.10 1.2
412.20 1.211
412.30 1.221
412.40 1.23
412.50 1.238
412.60 1.246
412.70 1.253
412.80 1.26
412.90 1.266
413.00 1.272
413.10 1.277
413.20 1.282
413.30 1.287
413.40 1.291
413.50 1.295
413.60 1.299
413.70 1.302
413.80 1.306
413.90 1.309
414.00 1.312
414.10 1.314
414.20 1.317
414.30 1.319
414.40 1.321
414.50 1.323
414.60 1.325
414.70 1.327
414.80 1.328
414.90 1.33
415.00 1.331
415.10 1.332
415.20 1.333
415.30 1.335
415.40 1.336
415.50 1.336
415.60 1.337
415.70 1.338
415.80 1.339
415.90 1.34
416.00 1.34
416.10 1.341
416.20 1.341
416.30 1.342
416.40 1.342
416.50 1.343
416.60 1.343
416.70 1.343
416.80 1.343
416.90 1.344
417.00 1.344
417.10 1.344
417.20 1.344
417.30 1.344
417.40 1.345
417.50 1.345
417.60 1.345
417.70 1.345
417.80 1.345
417.90 1.345
418.00 1.345
418.10 1.345
418.20 1.344
418.30 1.344
418.40 1.344
418.50 1.344
418.60 1.344
418.70 1.344
418.80 1.344
418.90 1.343
419.00 1.343
419.10 1.343
419.20 1.343
419.30 1.342
419.40 1.342
419.50 1.342
419.60 1.342
419.70 1.341
419.80 1.341
419.90 1.341
420.00 1.34
420.10 1.34
420.20 1.34
420.30 1.339
420.40 1.339
420.50 1.339
420.60 1.338
420.70 1.338
420.80 1.337
420.90 1.337
421.00 1.337
421.10 1.336
421.20 1.336
421.30 1.335
421.40 1.335
421.50 1.334
421.60 1.334
421.70 1.334
421.80 1.333
421.90 1.333
422.00 1.332
422.10 1.332
422.20 1.331
422.30 1.331
422.40 1.33
422.50 1.33
422.60 1.329
422.70 1.329
422.80 1.328
422.90 1.327
423.00 1.327
423.10 1.326
423.20 1.326
423.30 1.325
423.40 1.325
423.50 1.324
423.60 1.323
423.70 1.323
423.80 1.322
423.90 1.322
424.00 1.321
424.10 1.32
424.20 1.32
424.30 1.319
424.40 1.318
424.50 1.318
424.60 1.317
424.70 1.316
424.80 1.316
424.90 1.315
425.00 1.314
425.10 1.314
425.20 1.313
425.30 1.312
425.40 1.311
425.50 1.311
425.60 1.31
425.70 1.309
425.80 1.308
425.90 1.307
426.00 1.306
426.10 1.306
426.20 1.305
426.30 1.304
426.40 1.303
426.50 1.302
426.60 1.301
426.70 1.3
426.80 1.299
426.90 1.298
427.00 1.297
427.10 1.296
427.20 1.294
427.30 1.293
427.40 1.292
427.50 1.291
427.60 1.29
427.70 1.288
427.80 1.287
427.90 1.286
428.00 1.284
428.10 1.283
428.20 1.281
428.30 1.28
428.40 1.278
428.50 1.277
428.60 1.275
428.70 1.273
428.80 1.271
428.90 1.269
429.00 1.267
429.10 1.265
429.20 1.263
429.30 1.261
429.40 1.259
429.50 1.256
429.60 1.254
429.70 1.251
429.80 1.248
429.90 1.245
430.00 1.242
430.10 1.239
430.20 1.236
430.30 1.232
430.40 1.228
430.50 1.225
430.60 1.221
430.70 1.216
430.80 1.212
430.90 1.207
431.00 1.202
431.10 1.197
431.20 1.192
431.30 1.186
431.40 1.18
431.50 1.174
431.60 1.167
431.70 1.16
431.80 1.152
431.90 1.144
432.00 1.134
432.10 1.124
432.20 1.113
432.30 1.101
432.40 1.087
432.50 1.071
432.60 1.054
432.70 1.035
432.80 1.013
432.90 0.9906
433.00 0.9666
433.10 0.9398
433.20 0.9099
433.30 0.8772
433.40 0.835
433.50 0.7869
433.60 0.7329
433.70 0.6666
433.80 0.5937
433.90 0.5142
434.00 0.4159
434.10 0.4183
434.20 0.5212
434.30 0.5996
434.40 0.6714
434.50 0.7368
434.60 0.7896
434.70 0.8365
434.80 0.8775
434.90 0.9092
435.00 0.938
435.10 0.964
435.20 0.9871
435.30 1.009
435.40 1.03
435.50 1.047
435.60 1.064
435.70 1.079
435.80 1.091
435.90 1.102
436.00 1.113
436.10 1.122
436.20 1.13
436.30 1.137
436.40 1.144
436.50 1.15
436.60 1.156
436.70 1.162
436.80 1.166
436.90 1.171
437.00 1.175
437.10 1.18
437.20 1.184
437.30 1.187
437.40 1.191
437.50 1.194
437.60 1.197
437.70 1.2
437.80 1.203
437.90 1.205
438.00 1.208
438.10 1.21
438.20 1.212
438.30 1.214
438.40 1.216
438.50 1.217
438.60 1.219
438.70 1.22
438.80 1.222
438.90 1.223
439.00 1.224
439.10 1.225
439.20 1.226
439.30 1.227
439.40 1.228
439.50 1.229
439.60 1.229
439.70 1.23
439.80 1.231
439.90 1.231
440.00 1.232
440.10 1.232
440.20 1.233
440.30 1.233
440.40 1.234
440.50 1.234
440.60 1.234
440.70 1.234
440.80 1.235
440.90 1.235
441.00 1.235
441.10 1.235
441.20 1.235
441.30 1.235
441.40 1.235
441.50 1.236
441.60 1.236
441.70 1.236
441.80 1.236
441.90 1.236
442.00 1.236
442.10 1.235
442.20 1.235
442.30 1.235
442.40 1.235
442.50 1.235
442.60 1.235
442.70 1.235
442.80 1.235
442.90 1.234
443.00 1.234
443.10 1.234
443.20 1.234
443.30 1.234
443.40 1.234
443.50 1.233
443.60 1.233
443.70 1.233
443.80 1.233
443.90 1.232
444.00 1.232
444.10 1.232
444.20 1.232
444.30 1.231
444.40 1.231
444.50 1.231
444.60 1.231
444.70 1.23
444.80 1.23
444.90 1.23
445.00 1.229
445.10 1.229
445.20 1.229
445.30 1.228
445.40 1.228
445.50 1.228
445.60 1.228
445.70 1.227
445.80 1.227
445.90 1.227
446.00 1.226
446.10 1.226
446.20 1.225
446.30 1.225
446.40 1.225
446.50 1.224
446.60 1.224
446.70 1.224
446.80 1.223
446.90 1.223
447.00 1.223
447.10 1.222
447.20 1.222
447.30 1.222
447.40 1.221
447.50 1.221
447.60 1.22
447.70 1.22
447.80 1.22
447.90 1.219
448.00 1.219
448.10 1.218
448.20 1.218
448.30 1.218
448.40 1.217
448.50 1.217
448.60 1.216
448.70 1.216
448.80 1.216
448.90 1.215
449.00 1.215
449.10 1.215
449.20 1.214
449.30 1.214
449.40 1.213
449.50 1.213
449.60 1.212
449.70 1.212
449.80 1.212
449.90 1.211
450.00 1.211
450.10 1.21
450.20 1.21
450.30 1.21
450.40 1.209
450.50 1.209
450.60 1.208
450.70 1.208
450.80 1.208
450.90 1.207
451.00 1.207
451.10 1.206
451.20 1.206
451.30 1.205
451.40 1.205
451.50 1.205
451.60 1.204
451.70 1.204
451.80 1.203
451.90 1.203
452.00 1.202
452.10 1.202
452.20 1.202
452.30 1.201
452.40 1.201
452.50 1.2
452.60 1.2
452.70 1.199
452.80 1.199
452.90 1.199
453.00 1.198
453.10 1.198
453.20 1.197
453.30 1.197
453.40 1.196
