# Version 2.1 - nm, norm@500 to 1, cut digits, bergeron_4750_75.dat_4750
# Wavelength(nm)  Flambda(ergs/cm^s/s/nm)
300.00 0.2974
300.10 0.2978
300.20 0.2982
300.30 0.2986
300.40 0.2991
300.50 0.2995
300.60 0.2999
300.70 0.3003
300.80 0.3008
300.90 0.3012
301.00 0.3016
301.10 0.302
301.20 0.3024
301.30 0.3029
301.40 0.3033
301.50 0.3037
301.60 0.3041
301.70 0.3045
301.80 0.305
301.90 0.3054
302.00 0.3058
302.10 0.3062
302.20 0.3067
302.30 0.3071
302.40 0.3075
302.50 0.3079
302.60 0.3084
302.70 0.3088
302.80 0.3092
302.90 0.3096
303.00 0.3101
303.10 0.3105
303.20 0.3109
303.30 0.3113
303.40 0.3118
303.50 0.3122
303.60 0.3126
303.70 0.313
303.80 0.3134
303.90 0.3139
304.00 0.3143
304.10 0.3147
304.20 0.3152
304.30 0.3156
304.40 0.316
304.50 0.3165
304.60 0.3169
304.70 0.3173
304.80 0.3177
304.90 0.3182
305.00 0.3186
305.10 0.319
305.20 0.3195
305.30 0.3199
305.40 0.3203
305.50 0.3207
305.60 0.3212
305.70 0.3216
305.80 0.322
305.90 0.3224
306.00 0.3229
306.10 0.3233
306.20 0.3237
306.30 0.3242
306.40 0.3246
306.50 0.325
306.60 0.3255
306.70 0.3259
306.80 0.3263
306.90 0.3268
307.00 0.3272
307.10 0.3276
307.20 0.328
307.30 0.3285
307.40 0.3289
307.50 0.3293
307.60 0.3298
307.70 0.3302
307.80 0.3306
307.90 0.331
308.00 0.3315
308.10 0.3319
308.20 0.3323
308.30 0.3328
308.40 0.3332
308.50 0.3337
308.60 0.3341
308.70 0.3345
308.80 0.335
308.90 0.3354
309.00 0.3358
309.10 0.3363
309.20 0.3367
309.30 0.3371
309.40 0.3376
309.50 0.338
309.60 0.3384
309.70 0.3388
309.80 0.3393
309.90 0.3397
310.00 0.3401
310.10 0.3406
310.20 0.341
310.30 0.3415
310.40 0.3419
310.50 0.3423
310.60 0.3428
310.70 0.3432
310.80 0.3437
310.90 0.3441
311.00 0.3445
311.10 0.345
311.20 0.3454
311.30 0.3458
311.40 0.3463
311.50 0.3467
311.60 0.3471
311.70 0.3476
311.80 0.348
311.90 0.3484
312.00 0.3489
312.10 0.3493
312.20 0.3497
312.30 0.3502
312.40 0.3506
312.50 0.351
312.60 0.3515
312.70 0.3519
312.80 0.3524
312.90 0.3528
313.00 0.3532
313.10 0.3537
313.20 0.3541
313.30 0.3546
313.40 0.355
313.50 0.3554
313.60 0.3559
313.70 0.3563
313.80 0.3567
313.90 0.3572
314.00 0.3576
314.10 0.3581
314.20 0.3585
314.30 0.3589
314.40 0.3594
314.50 0.3598
314.60 0.3603
314.70 0.3607
314.80 0.3612
314.90 0.3616
315.00 0.362
315.10 0.3625
315.20 0.3629
315.30 0.3634
315.40 0.3638
315.50 0.3642
315.60 0.3647
315.70 0.3651
315.80 0.3655
315.90 0.366
316.00 0.3664
316.10 0.3669
316.20 0.3673
316.30 0.3677
316.40 0.3682
316.50 0.3686
316.60 0.3691
316.70 0.3695
316.80 0.37
316.90 0.3704
317.00 0.3709
317.10 0.3713
317.20 0.3717
317.30 0.3722
317.40 0.3726
317.50 0.3731
317.60 0.3735
317.70 0.3739
317.80 0.3744
317.90 0.3748
318.00 0.3753
318.10 0.3757
318.20 0.3761
318.30 0.3766
318.40 0.377
318.50 0.3775
318.60 0.3779
318.70 0.3784
318.80 0.3788
318.90 0.3793
319.00 0.3797
319.10 0.3802
319.20 0.3806
319.30 0.381
319.40 0.3815
319.50 0.3819
319.60 0.3824
319.70 0.3828
319.80 0.3832
319.90 0.3837
320.00 0.3841
320.10 0.3846
320.20 0.385
320.30 0.3855
320.40 0.3859
320.50 0.3864
320.60 0.3868
320.70 0.3873
320.80 0.3877
320.90 0.3882
321.00 0.3886
321.10 0.389
321.20 0.3895
321.30 0.3899
321.40 0.3904
321.50 0.3908
321.60 0.3913
321.70 0.3917
321.80 0.3921
321.90 0.3926
322.00 0.393
322.10 0.3935
322.20 0.3939
322.30 0.3944
322.40 0.3948
322.50 0.3953
322.60 0.3957
322.70 0.3962
322.80 0.3966
322.90 0.3971
323.00 0.3975
323.10 0.398
323.20 0.3984
323.30 0.3989
323.40 0.3993
323.50 0.3997
323.60 0.4002
323.70 0.4006
323.80 0.4011
323.90 0.4015
324.00 0.402
324.10 0.4024
324.20 0.4029
324.30 0.4033
324.40 0.4038
324.50 0.4042
324.60 0.4047
324.70 0.4051
324.80 0.4056
324.90 0.406
325.00 0.4065
325.10 0.4069
325.20 0.4073
325.30 0.4078
325.40 0.4082
325.50 0.4087
325.60 0.4091
325.70 0.4096
325.80 0.41
325.90 0.4105
326.00 0.4109
326.10 0.4114
326.20 0.4118
326.30 0.4123
326.40 0.4127
326.50 0.4132
326.60 0.4136
326.70 0.4141
326.80 0.4145
326.90 0.415
327.00 0.4154
327.10 0.4159
327.20 0.4163
327.30 0.4168
327.40 0.4172
327.50 0.4176
327.60 0.4181
327.70 0.4185
327.80 0.419
327.90 0.4194
328.00 0.4199
328.10 0.4203
328.20 0.4208
328.30 0.4212
328.40 0.4217
328.50 0.4221
328.60 0.4226
328.70 0.423
328.80 0.4235
328.90 0.4239
329.00 0.4244
329.10 0.4248
329.20 0.4253
329.30 0.4257
329.40 0.4262
329.50 0.4266
329.60 0.4271
329.70 0.4275
329.80 0.428
329.90 0.4284
330.00 0.4288
330.10 0.4293
330.20 0.4298
330.30 0.4302
330.40 0.4307
330.50 0.4311
330.60 0.4316
330.70 0.432
330.80 0.4325
330.90 0.4329
331.00 0.4334
331.10 0.4338
331.20 0.4343
331.30 0.4347
331.40 0.4352
331.50 0.4356
331.60 0.4361
331.70 0.4365
331.80 0.437
331.90 0.4374
332.00 0.4378
332.10 0.4383
332.20 0.4388
332.30 0.4392
332.40 0.4397
332.50 0.4401
332.60 0.4406
332.70 0.441
332.80 0.4415
332.90 0.4419
333.00 0.4424
333.10 0.4428
333.20 0.4433
333.30 0.4437
333.40 0.4442
333.50 0.4446
333.60 0.4451
333.70 0.4455
333.80 0.446
333.90 0.4464
334.00 0.4468
334.10 0.4473
334.20 0.4478
334.30 0.4482
334.40 0.4487
334.50 0.4491
334.60 0.4496
334.70 0.45
334.80 0.4505
334.90 0.4509
335.00 0.4514
335.10 0.4518
335.20 0.4523
335.30 0.4527
335.40 0.4532
335.50 0.4536
335.60 0.4541
335.70 0.4545
335.80 0.455
335.90 0.4554
336.00 0.4558
336.10 0.4563
336.20 0.4568
336.30 0.4572
336.40 0.4577
336.50 0.4581
336.60 0.4586
336.70 0.459
336.80 0.4595
336.90 0.4599
337.00 0.4604
337.10 0.4608
337.20 0.4613
337.30 0.4617
337.40 0.4622
337.50 0.4626
337.60 0.4631
337.70 0.4635
337.80 0.464
337.90 0.4644
338.00 0.4648
338.10 0.4653
338.20 0.4658
338.30 0.4662
338.40 0.4667
338.50 0.4671
338.60 0.4676
338.70 0.468
338.80 0.4685
338.90 0.4689
339.00 0.4694
339.10 0.4698
339.20 0.4703
339.30 0.4707
339.40 0.4712
339.50 0.4716
339.60 0.4721
339.70 0.4725
339.80 0.473
339.90 0.4734
340.00 0.4738
340.10 0.4743
340.20 0.4748
340.30 0.4752
340.40 0.4757
340.50 0.4761
340.60 0.4766
340.70 0.477
340.80 0.4775
340.90 0.4779
341.00 0.4784
341.10 0.4788
341.20 0.4793
341.30 0.4797
341.40 0.4802
341.50 0.4806
341.60 0.4811
341.70 0.4815
341.80 0.482
341.90 0.4824
342.00 0.4829
342.10 0.4833
342.20 0.4838
342.30 0.4842
342.40 0.4847
342.50 0.4851
342.60 0.4856
342.70 0.486
342.80 0.4865
342.90 0.4869
343.00 0.4874
343.10 0.4878
343.20 0.4883
343.30 0.4887
343.40 0.4892
343.50 0.4896
343.60 0.4901
343.70 0.4905
343.80 0.491
343.90 0.4914
344.00 0.4918
344.10 0.4923
344.20 0.4928
344.30 0.4932
344.40 0.4937
344.50 0.4941
344.60 0.4946
344.70 0.495
344.80 0.4955
344.90 0.4959
345.00 0.4964
345.10 0.4968
345.20 0.4973
345.30 0.4977
345.40 0.4981
345.50 0.4986
345.60 0.499
345.70 0.4995
345.80 0.4999
345.90 0.5004
346.00 0.5008
346.10 0.5013
346.20 0.5017
346.30 0.5022
346.40 0.5026
346.50 0.5031
346.60 0.5035
346.70 0.504
346.80 0.5044
346.90 0.5049
347.00 0.5053
347.10 0.5058
347.20 0.5062
347.30 0.5067
347.40 0.5071
347.50 0.5076
347.60 0.508
347.70 0.5084
347.80 0.5089
347.90 0.5093
348.00 0.5098
348.10 0.5102
348.20 0.5107
348.30 0.5111
348.40 0.5116
348.50 0.512
348.60 0.5125
348.70 0.5129
348.80 0.5134
348.90 0.5138
349.00 0.5143
349.10 0.5147
349.20 0.5152
349.30 0.5156
349.40 0.5161
349.50 0.5165
349.60 0.5169
349.70 0.5174
349.80 0.5178
349.90 0.5183
350.00 0.5187
350.10 0.5192
350.20 0.5196
350.30 0.5201
350.40 0.5205
350.50 0.521
350.60 0.5214
350.70 0.5219
350.80 0.5223
350.90 0.5228
351.00 0.5232
351.10 0.5236
351.20 0.5241
351.30 0.5245
351.40 0.525
351.50 0.5254
351.60 0.5259
351.70 0.5263
351.80 0.5267
351.90 0.5272
352.00 0.5276
352.10 0.5281
352.20 0.5285
352.30 0.529
352.40 0.5294
352.50 0.5299
352.60 0.5303
352.70 0.5308
352.80 0.5312
352.90 0.5317
353.00 0.5321
353.10 0.5326
353.20 0.533
353.30 0.5334
353.40 0.5339
353.50 0.5343
353.60 0.5348
353.70 0.5352
353.80 0.5357
353.90 0.5361
354.00 0.5365
354.10 0.537
354.20 0.5374
354.30 0.5379
354.40 0.5383
354.50 0.5388
354.60 0.5392
354.70 0.5397
354.80 0.5401
354.90 0.5405
355.00 0.541
355.10 0.5414
355.20 0.5419
355.30 0.5423
355.40 0.5428
355.50 0.5432
355.60 0.5436
355.70 0.5441
355.80 0.5445
355.90 0.545
356.00 0.5454
356.10 0.5458
356.20 0.5463
356.30 0.5467
356.40 0.5472
356.50 0.5476
356.60 0.5481
356.70 0.5485
356.80 0.549
356.90 0.5494
357.00 0.5498
357.10 0.5503
357.20 0.5507
357.30 0.5512
357.40 0.5516
357.50 0.552
357.60 0.5525
357.70 0.5529
357.80 0.5534
357.90 0.5538
358.00 0.5542
358.10 0.5547
358.20 0.5551
358.30 0.5556
358.40 0.556
358.50 0.5564
358.60 0.5569
358.70 0.5573
358.80 0.5578
358.90 0.5582
359.00 0.5587
359.10 0.5591
359.20 0.5595
359.30 0.56
359.40 0.5604
359.50 0.5609
359.60 0.5613
359.70 0.5617
359.80 0.5622
359.90 0.5626
360.00 0.563
360.10 0.5635
360.20 0.5639
360.30 0.5644
360.40 0.5648
360.50 0.5652
360.60 0.5657
360.70 0.5661
360.80 0.5666
360.90 0.567
361.00 0.5674
361.10 0.5679
361.20 0.5683
361.30 0.5688
361.40 0.5692
361.50 0.5696
361.60 0.5701
361.70 0.5705
361.80 0.5709
361.90 0.5714
362.00 0.5718
362.10 0.5722
362.20 0.5727
362.30 0.5731
362.40 0.5735
362.50 0.574
362.60 0.5744
362.70 0.5749
362.80 0.5753
362.90 0.5757
363.00 0.5762
363.10 0.5766
363.20 0.577
363.30 0.5775
363.40 0.5779
363.50 0.5784
363.60 0.5788
363.70 0.5792
363.80 0.5797
363.90 0.5801
364.00 0.5805
364.10 0.581
364.20 0.5814
364.30 0.5818
364.40 0.5823
364.50 0.5827
364.60 0.5831
364.70 0.5836
364.80 0.584
364.90 0.5844
365.00 0.5849
365.10 0.5853
365.20 0.5858
365.30 0.5862
365.40 0.5866
365.50 0.5871
365.60 0.5875
365.70 0.5879
365.80 0.5883
365.90 0.5888
366.00 0.5892
366.10 0.5896
366.20 0.5901
366.30 0.5905
366.40 0.591
366.50 0.5914
366.60 0.5918
366.70 0.5923
366.80 0.5927
366.90 0.5931
367.00 0.5936
367.10 0.594
367.20 0.5944
367.30 0.5949
367.40 0.5953
367.50 0.5957
367.60 0.5961
367.70 0.5966
367.80 0.597
367.90 0.5974
368.00 0.5979
368.10 0.5983
368.20 0.5987
368.30 0.5992
368.40 0.5996
368.50 0.6
368.60 0.6005
368.70 0.6009
368.80 0.6013
368.90 0.6018
369.00 0.6022
369.10 0.6026
369.20 0.603
369.30 0.6035
369.40 0.6039
369.50 0.6043
369.60 0.6047
369.70 0.6052
369.80 0.6056
369.90 0.606
370.00 0.6065
370.10 0.6069
370.20 0.6073
370.30 0.6077
370.40 0.6082
370.50 0.6086
370.60 0.609
370.70 0.6095
370.80 0.6099
370.90 0.6103
371.00 0.6108
371.10 0.6112
371.20 0.6116
371.30 0.612
371.40 0.6125
371.50 0.6129
371.60 0.6133
371.70 0.6137
371.80 0.6142
371.90 0.6146
372.00 0.615
372.10 0.6154
372.20 0.6159
372.30 0.6163
372.40 0.6167
372.50 0.6172
372.60 0.6176
372.70 0.618
372.80 0.6184
372.90 0.6189
373.00 0.6193
373.10 0.6197
373.20 0.6201
373.30 0.6206
373.40 0.621
373.50 0.6214
373.60 0.6218
373.70 0.6222
373.80 0.6227
373.90 0.6231
374.00 0.6235
374.10 0.6239
374.20 0.6244
374.30 0.6248
374.40 0.6252
374.50 0.6256
374.60 0.6261
374.70 0.6265
374.80 0.6269
374.90 0.6273
375.00 0.6278
375.10 0.6282
375.20 0.6286
375.30 0.629
375.40 0.6294
375.50 0.6299
375.60 0.6303
375.70 0.6307
375.80 0.6311
375.90 0.6315
376.00 0.6319
376.10 0.6324
376.20 0.6328
376.30 0.6332
376.40 0.6336
376.50 0.6341
376.60 0.6345
376.70 0.6349
376.80 0.6353
376.90 0.6357
377.00 0.6362
377.10 0.6366
377.20 0.637
377.30 0.6374
377.40 0.6378
377.50 0.6383
377.60 0.6387
377.70 0.6391
377.80 0.6395
377.90 0.6399
378.00 0.6403
378.10 0.6408
378.20 0.6412
378.30 0.6416
378.40 0.642
378.50 0.6424
378.60 0.6429
378.70 0.6433
378.80 0.6437
378.90 0.6441
379.00 0.6445
379.10 0.6449
379.20 0.6454
379.30 0.6458
379.40 0.6462
379.50 0.6466
379.60 0.647
379.70 0.6474
379.80 0.6478
379.90 0.6483
380.00 0.6487
380.10 0.6491
380.20 0.6495
380.30 0.6499
380.40 0.6503
380.50 0.6508
380.60 0.6512
380.70 0.6516
380.80 0.652
380.90 0.6524
381.00 0.6528
381.10 0.6532
381.20 0.6536
381.30 0.6541
381.40 0.6545
381.50 0.6549
381.60 0.6553
381.70 0.6557
381.80 0.6561
381.90 0.6565
382.00 0.6569
382.10 0.6574
382.20 0.6578
382.30 0.6582
382.40 0.6586
382.50 0.659
382.60 0.6594
382.70 0.6598
382.80 0.6602
382.90 0.6607
383.00 0.6611
383.10 0.6615
383.20 0.6619
383.30 0.6623
383.40 0.6627
383.50 0.6631
383.60 0.6635
383.70 0.6639
383.80 0.6643
383.90 0.6647
384.00 0.6652
384.10 0.6656
384.20 0.666
384.30 0.6664
384.40 0.6668
384.50 0.6672
384.60 0.6676
384.70 0.668
384.80 0.6684
384.90 0.6688
385.00 0.6692
385.10 0.6696
385.20 0.6701
385.30 0.6705
385.40 0.6709
385.50 0.6713
385.60 0.6717
385.70 0.6721
385.80 0.6725
385.90 0.6729
386.00 0.6733
386.10 0.6737
386.20 0.6741
386.30 0.6745
386.40 0.6749
386.50 0.6753
386.60 0.6757
386.70 0.6761
386.80 0.6766
386.90 0.677
387.00 0.6774
387.10 0.6778
387.20 0.6782
387.30 0.6786
387.40 0.679
387.50 0.6794
387.60 0.6798
387.70 0.6802
387.80 0.6806
387.90 0.681
388.00 0.6814
388.10 0.6818
388.20 0.6822
388.30 0.6826
388.40 0.683
388.50 0.6834
388.60 0.6838
388.70 0.6842
388.80 0.6846
388.90 0.685
389.00 0.6854
389.10 0.6858
389.20 0.6862
389.30 0.6866
389.40 0.687
389.50 0.6874
389.60 0.6878
389.70 0.6882
389.80 0.6886
389.90 0.689
390.00 0.6894
390.10 0.6898
390.20 0.6902
390.30 0.6906
390.40 0.691
390.50 0.6914
390.60 0.6918
390.70 0.6922
390.80 0.6926
390.90 0.693
391.00 0.6934
391.10 0.6938
391.20 0.6942
391.30 0.6946
391.40 0.695
391.50 0.6954
391.60 0.6958
391.70 0.6962
391.80 0.6966
391.90 0.697
392.00 0.6974
392.10 0.6978
392.20 0.6982
392.30 0.6986
392.40 0.6989
392.50 0.6993
392.60 0.6997
392.70 0.7001
392.80 0.7005
392.90 0.7009
393.00 0.7013
393.10 0.7017
393.20 0.7021
393.30 0.7025
393.40 0.7029
393.50 0.7033
393.60 0.7037
393.70 0.7041
393.80 0.7045
393.90 0.7049
394.00 0.7052
394.10 0.7056
394.20 0.706
394.30 0.7064
394.40 0.7068
394.50 0.7072
394.60 0.7076
394.70 0.708
394.80 0.7084
394.90 0.7088
395.00 0.7092
395.10 0.7096
395.20 0.7099
395.30 0.7103
395.40 0.7107
395.50 0.7111
395.60 0.7115
395.70 0.7119
395.80 0.7123
395.90 0.7127
396.00 0.7131
396.10 0.7134
396.20 0.7138
396.30 0.7142
396.40 0.7146
396.50 0.715
396.60 0.7154
396.70 0.7158
396.80 0.7162
396.90 0.7165
397.00 0.7169
397.10 0.7173
397.20 0.7177
397.30 0.7181
397.40 0.7185
397.50 0.7189
397.60 0.7193
397.70 0.7196
397.80 0.72
397.90 0.7204
398.00 0.7208
398.10 0.7212
398.20 0.7216
398.30 0.7219
398.40 0.7223
398.50 0.7227
398.60 0.7231
398.70 0.7235
398.80 0.7239
398.90 0.7242
399.00 0.7246
399.10 0.725
399.20 0.7254
399.30 0.7258
399.40 0.7262
399.50 0.7265
399.60 0.7269
399.70 0.7273
399.80 0.7277
399.90 0.7281
400.00 0.7284
400.10 0.7288
400.20 0.7292
400.30 0.7296
400.40 0.73
400.50 0.7304
400.60 0.7307
400.70 0.7311
400.80 0.7315
400.90 0.7319
401.00 0.7323
401.10 0.7326
401.20 0.733
401.30 0.7334
401.40 0.7338
401.50 0.7341
401.60 0.7345
401.70 0.7349
401.80 0.7353
401.90 0.7357
402.00 0.736
402.10 0.7364
402.20 0.7368
402.30 0.7372
402.40 0.7375
402.50 0.7379
402.60 0.7383
402.70 0.7387
402.80 0.739
402.90 0.7394
403.00 0.7398
403.10 0.7402
403.20 0.7405
403.30 0.7409
403.40 0.7413
403.50 0.7417
403.60 0.742
403.70 0.7424
403.80 0.7428
403.90 0.7432
404.00 0.7435
404.10 0.7439
404.20 0.7443
404.30 0.7447
404.40 0.745
404.50 0.7454
404.60 0.7458
404.70 0.7461
404.80 0.7465
404.90 0.7469
405.00 0.7473
405.10 0.7476
405.20 0.748
405.30 0.7484
405.40 0.7487
405.50 0.7491
405.60 0.7495
405.70 0.7499
405.80 0.7502
405.90 0.7506
406.00 0.751
406.10 0.7513
406.20 0.7517
406.30 0.7521
406.40 0.7524
406.50 0.7528
406.60 0.7532
406.70 0.7535
406.80 0.7539
406.90 0.7543
407.00 0.7546
407.10 0.755
407.20 0.7554
407.30 0.7557
407.40 0.7561
407.50 0.7565
407.60 0.7568
407.70 0.7572
407.80 0.7576
407.90 0.7579
408.00 0.7583
408.10 0.7587
408.20 0.759
408.30 0.7594
408.40 0.7597
408.50 0.7601
408.60 0.7605
408.70 0.7608
408.80 0.7612
408.90 0.7615
409.00 0.7619
409.10 0.7623
409.20 0.7626
409.30 0.763
409.40 0.7633
409.50 0.7636
409.60 0.7639
409.70 0.7642
409.80 0.7645
409.90 0.7647
410.00 0.7648
410.10 0.7649
410.20 0.765
410.30 0.7657
410.40 0.7664
410.50 0.767
410.60 0.7674
410.70 0.7679
410.80 0.7683
410.90 0.7687
411.00 0.7691
411.10 0.7695
411.20 0.7698
411.30 0.7702
411.40 0.7706
411.50 0.7709
411.60 0.7713
411.70 0.7717
411.80 0.772
411.90 0.7724
412.00 0.7727
412.10 0.7731
412.20 0.7735
412.30 0.7738
412.40 0.7742
412.50 0.7745
412.60 0.7749
412.70 0.7753
412.80 0.7756
412.90 0.776
413.00 0.7763
413.10 0.7766
413.20 0.777
413.30 0.7773
413.40 0.7777
413.50 0.7781
413.60 0.7785
413.70 0.7788
413.80 0.7791
413.90 0.7795
414.00 0.7798
414.10 0.7802
414.20 0.7806
414.30 0.7809
414.40 0.7813
414.50 0.7816
414.60 0.7819
414.70 0.7823
414.80 0.7827
414.90 0.783
415.00 0.7834
415.10 0.7837
415.20 0.7841
415.30 0.7844
415.40 0.7848
415.50 0.7851
415.60 0.7855
415.70 0.7858
415.80 0.7862
415.90 0.7865
416.00 0.7869
416.10 0.7872
416.20 0.7876
416.30 0.7879
416.40 0.7883
416.50 0.7886
416.60 0.789
416.70 0.7893
416.80 0.7896
416.90 0.79
417.00 0.7904
417.10 0.7907
417.20 0.791
417.30 0.7914
417.40 0.7918
417.50 0.7921
417.60 0.7924
417.70 0.7927
417.80 0.7931
417.90 0.7935
418.00 0.7938
418.10 0.7941
418.20 0.7945
418.30 0.7948
418.40 0.7952
418.50 0.7955
418.60 0.7959
418.70 0.7962
418.80 0.7965
418.90 0.7969
419.00 0.7972
419.10 0.7976
419.20 0.7979
419.30 0.7983
419.40 0.7986
419.50 0.7989
419.60 0.7993
419.70 0.7996
419.80 0.8
419.90 0.8003
420.00 0.8006
420.10 0.801
420.20 0.8013
420.30 0.8017
420.40 0.802
420.50 0.8023
420.60 0.8027
420.70 0.803
420.80 0.8034
420.90 0.8037
421.00 0.8041
421.10 0.8044
421.20 0.8047
421.30 0.8051
421.40 0.8054
421.50 0.8057
421.60 0.8061
421.70 0.8064
421.80 0.8067
421.90 0.8071
422.00 0.8074
422.10 0.8077
422.20 0.8081
422.30 0.8084
422.40 0.8087
422.50 0.8091
422.60 0.8094
422.70 0.8097
422.80 0.8101
422.90 0.8104
423.00 0.8108
423.10 0.8111
423.20 0.8114
423.30 0.8118
423.40 0.8121
423.50 0.8124
423.60 0.8127
423.70 0.813
423.80 0.8134
423.90 0.8137
424.00 0.8141
424.10 0.8144
424.20 0.8147
424.30 0.8151
424.40 0.8154
424.50 0.8157
424.60 0.816
424.70 0.8164
424.80 0.8167
424.90 0.817
425.00 0.8174
425.10 0.8177
425.20 0.8181
425.30 0.8184
425.40 0.8187
425.50 0.819
425.60 0.8194
425.70 0.8197
425.80 0.82
425.90 0.8203
426.00 0.8207
426.10 0.821
426.20 0.8213
426.30 0.8216
426.40 0.822
426.50 0.8223
426.60 0.8226
426.70 0.8229
426.80 0.8232
426.90 0.8236
427.00 0.8239
427.10 0.8243
427.20 0.8246
427.30 0.8249
427.40 0.8252
427.50 0.8255
427.60 0.8259
427.70 0.8262
427.80 0.8265
427.90 0.8268
428.00 0.8271
428.10 0.8275
428.20 0.8278
428.30 0.8281
428.40 0.8284
428.50 0.8287
428.60 0.8291
428.70 0.8294
428.80 0.8297
428.90 0.8301
429.00 0.8304
429.10 0.8307
429.20 0.831
429.30 0.8313
429.40 0.8316
429.50 0.832
429.60 0.8323
429.70 0.8326
429.80 0.8329
429.90 0.8332
430.00 0.8335
430.10 0.8339
430.20 0.8342
430.30 0.8345
430.40 0.8348
430.50 0.8351
430.60 0.8354
430.70 0.8357
430.80 0.8361
430.90 0.8364
431.00 0.8367
431.10 0.837
431.20 0.8374
431.30 0.8376
431.40 0.8379
431.50 0.8382
431.60 0.8386
431.70 0.8389
431.80 0.8392
431.90 0.8395
432.00 0.8398
432.10 0.8402
432.20 0.8404
432.30 0.8407
432.40 0.841
432.50 0.8414
432.60 0.8417
432.70 0.8419
432.80 0.8422
432.90 0.8425
433.00 0.8428
433.10 0.8431
433.20 0.8433
433.30 0.8436
433.40 0.8438
433.50 0.844
433.60 0.8441
433.70 0.8441
433.80 0.8438
433.90 0.8433
434.00 0.8423
434.10 0.8426
434.20 0.8443
434.30 0.8454
434.40 0.8463
434.50 0.8469
434.60 0.8474
434.70 0.8479
434.80 0.8483
434.90 0.8486
435.00 0.849
435.10 0.8493
435.20 0.8496
435.30 0.85
435.40 0.8503
435.50 0.8506
435.60 0.8509
435.70 0.8512
435.80 0.8515
435.90 0.8519
436.00 0.8522
436.10 0.8525
436.20 0.8528
436.30 0.8531
436.40 0.8534
436.50 0.8537
436.60 0.854
436.70 0.8543
436.80 0.8546
436.90 0.8549
437.00 0.8552
437.10 0.8555
437.20 0.8558
437.30 0.8561
437.40 0.8564
437.50 0.8567
437.60 0.857
437.70 0.8573
437.80 0.8576
437.90 0.8579
438.00 0.8582
438.10 0.8585
438.20 0.8588
438.30 0.8591
438.40 0.8595
438.50 0.8598
438.60 0.8601
438.70 0.8604
438.80 0.8607
438.90 0.861
439.00 0.8612
439.10 0.8615
439.20 0.8618
439.30 0.8621
439.40 0.8624
439.50 0.8627
439.60 0.863
439.70 0.8633
439.80 0.8636
439.90 0.8639
440.00 0.8642
440.10 0.8645
440.20 0.8648
440.30 0.8651
440.40 0.8654
440.50 0.8657
440.60 0.866
440.70 0.8663
440.80 0.8666
440.90 0.8669
441.00 0.8672
441.10 0.8675
441.20 0.8677
441.30 0.868
441.40 0.8683
441.50 0.8686
441.60 0.8689
441.70 0.8692
441.80 0.8695
441.90 0.8698
442.00 0.8701
442.10 0.8704
442.20 0.8706
442.30 0.8709
442.40 0.8712
442.50 0.8715
442.60 0.8718
442.70 0.8721
442.80 0.8724
442.90 0.8727
443.00 0.8729
