# Version 2.1 - nm, norm@500 to 1, cut digits, bergeron_5000_90.dat_5000
# Wavelength(nm)  Flambda(ergs/cm^s/s/nm)
300.00 0.3744
300.10 0.3749
300.20 0.3753
300.30 0.3758
300.40 0.3763
300.50 0.3767
300.60 0.3772
300.70 0.3776
300.80 0.3781
300.90 0.3785
301.00 0.379
301.10 0.3794
301.20 0.3799
301.30 0.3804
301.40 0.3808
301.50 0.3813
301.60 0.3817
301.70 0.3822
301.80 0.3826
301.90 0.3831
302.00 0.3835
302.10 0.384
302.20 0.3844
302.30 0.3849
302.40 0.3853
302.50 0.3858
302.60 0.3863
302.70 0.3867
302.80 0.3872
302.90 0.3876
303.00 0.3881
303.10 0.3885
303.20 0.389
303.30 0.3894
303.40 0.3899
303.50 0.3904
303.60 0.3908
303.70 0.3913
303.80 0.3917
303.90 0.3922
304.00 0.3926
304.10 0.3931
304.20 0.3935
304.30 0.394
304.40 0.3945
304.50 0.3949
304.60 0.3954
304.70 0.3958
304.80 0.3963
304.90 0.3967
305.00 0.3972
305.10 0.3977
305.20 0.3981
305.30 0.3986
305.40 0.399
305.50 0.3995
305.60 0.3999
305.70 0.4004
305.80 0.4008
305.90 0.4013
306.00 0.4017
306.10 0.4022
306.20 0.4027
306.30 0.4031
306.40 0.4036
306.50 0.404
306.60 0.4045
306.70 0.405
306.80 0.4054
306.90 0.4059
307.00 0.4063
307.10 0.4068
307.20 0.4073
307.30 0.4077
307.40 0.4082
307.50 0.4086
307.60 0.4091
307.70 0.4095
307.80 0.41
307.90 0.4104
308.00 0.4109
308.10 0.4113
308.20 0.4118
308.30 0.4123
308.40 0.4127
308.50 0.4132
308.60 0.4137
308.70 0.4141
308.80 0.4146
308.90 0.415
309.00 0.4155
309.10 0.4159
309.20 0.4164
309.30 0.4169
309.40 0.4173
309.50 0.4178
309.60 0.4182
309.70 0.4187
309.80 0.4191
309.90 0.4196
310.00 0.42
310.10 0.4205
310.20 0.421
310.30 0.4214
310.40 0.4219
310.50 0.4224
310.60 0.4228
310.70 0.4233
310.80 0.4237
310.90 0.4242
311.00 0.4247
311.10 0.4251
311.20 0.4256
311.30 0.426
311.40 0.4265
311.50 0.4269
311.60 0.4274
311.70 0.4279
311.80 0.4283
311.90 0.4288
312.00 0.4292
312.10 0.4297
312.20 0.4301
312.30 0.4306
312.40 0.431
312.50 0.4315
312.60 0.432
312.70 0.4324
312.80 0.4329
312.90 0.4333
313.00 0.4338
313.10 0.4343
313.20 0.4347
313.30 0.4352
313.40 0.4356
313.50 0.4361
313.60 0.4365
313.70 0.437
313.80 0.4375
313.90 0.4379
314.00 0.4384
314.10 0.4388
314.20 0.4393
314.30 0.4398
314.40 0.4402
314.50 0.4407
314.60 0.4411
314.70 0.4416
314.80 0.4421
314.90 0.4425
315.00 0.443
315.10 0.4434
315.20 0.4439
315.30 0.4444
315.40 0.4448
315.50 0.4453
315.60 0.4457
315.70 0.4462
315.80 0.4466
315.90 0.4471
316.00 0.4475
316.10 0.448
316.20 0.4485
316.30 0.4489
316.40 0.4494
316.50 0.4499
316.60 0.4503
316.70 0.4508
316.80 0.4512
316.90 0.4517
317.00 0.4522
317.10 0.4526
317.20 0.4531
317.30 0.4535
317.40 0.454
317.50 0.4544
317.60 0.4549
317.70 0.4553
317.80 0.4558
317.90 0.4563
318.00 0.4567
318.10 0.4572
318.20 0.4576
318.30 0.4581
318.40 0.4586
318.50 0.459
318.60 0.4595
318.70 0.4599
318.80 0.4604
318.90 0.4609
319.00 0.4613
319.10 0.4618
319.20 0.4622
319.30 0.4627
319.40 0.4631
319.50 0.4636
319.60 0.4641
319.70 0.4645
319.80 0.465
319.90 0.4654
320.00 0.4659
320.10 0.4663
320.20 0.4668
320.30 0.4673
320.40 0.4677
320.50 0.4682
320.60 0.4686
320.70 0.4691
320.80 0.4696
320.90 0.47
321.00 0.4705
321.10 0.4709
321.20 0.4714
321.30 0.4718
321.40 0.4723
321.50 0.4728
321.60 0.4732
321.70 0.4737
321.80 0.4741
321.90 0.4746
322.00 0.475
322.10 0.4755
322.20 0.4759
322.30 0.4764
322.40 0.4769
322.50 0.4773
322.60 0.4778
322.70 0.4782
322.80 0.4787
322.90 0.4792
323.00 0.4796
323.10 0.4801
323.20 0.4805
323.30 0.481
323.40 0.4814
323.50 0.4819
323.60 0.4824
323.70 0.4828
323.80 0.4833
323.90 0.4837
324.00 0.4842
324.10 0.4846
324.20 0.4851
324.30 0.4855
324.40 0.486
324.50 0.4865
324.60 0.4869
324.70 0.4874
324.80 0.4878
324.90 0.4883
325.00 0.4887
325.10 0.4892
325.20 0.4897
325.30 0.4901
325.40 0.4906
325.50 0.491
325.60 0.4915
325.70 0.4919
325.80 0.4924
325.90 0.4928
326.00 0.4933
326.10 0.4937
326.20 0.4942
326.30 0.4947
326.40 0.4951
326.50 0.4956
326.60 0.496
326.70 0.4965
326.80 0.4969
326.90 0.4974
327.00 0.4979
327.10 0.4983
327.20 0.4988
327.30 0.4992
327.40 0.4997
327.50 0.5001
327.60 0.5006
327.70 0.501
327.80 0.5015
327.90 0.5019
328.00 0.5024
328.10 0.5028
328.20 0.5033
328.30 0.5037
328.40 0.5042
328.50 0.5047
328.60 0.5051
328.70 0.5056
328.80 0.506
328.90 0.5065
329.00 0.5069
329.10 0.5074
329.20 0.5078
329.30 0.5083
329.40 0.5087
329.50 0.5092
329.60 0.5097
329.70 0.5101
329.80 0.5105
329.90 0.511
330.00 0.5114
330.10 0.5119
330.20 0.5124
330.30 0.5128
330.40 0.5133
330.50 0.5137
330.60 0.5142
330.70 0.5146
330.80 0.5151
330.90 0.5155
331.00 0.516
331.10 0.5164
331.20 0.5169
331.30 0.5174
331.40 0.5178
331.50 0.5183
331.60 0.5187
331.70 0.5191
331.80 0.5196
331.90 0.52
332.00 0.5205
332.10 0.5209
332.20 0.5214
332.30 0.5219
332.40 0.5223
332.50 0.5228
332.60 0.5232
332.70 0.5237
332.80 0.5241
332.90 0.5246
333.00 0.525
333.10 0.5255
333.20 0.5259
333.30 0.5264
333.40 0.5268
333.50 0.5273
333.60 0.5277
333.70 0.5282
333.80 0.5286
333.90 0.5291
334.00 0.5295
334.10 0.53
334.20 0.5304
334.30 0.5309
334.40 0.5313
334.50 0.5318
334.60 0.5322
334.70 0.5327
334.80 0.5331
334.90 0.5336
335.00 0.534
335.10 0.5345
335.20 0.5349
335.30 0.5354
335.40 0.5358
335.50 0.5363
335.60 0.5367
335.70 0.5371
335.80 0.5376
335.90 0.538
336.00 0.5385
336.10 0.5389
336.20 0.5394
336.30 0.5398
336.40 0.5403
336.50 0.5407
336.60 0.5412
336.70 0.5416
336.80 0.5421
336.90 0.5425
337.00 0.543
337.10 0.5434
337.20 0.5439
337.30 0.5443
337.40 0.5448
337.50 0.5452
337.60 0.5456
337.70 0.5461
337.80 0.5465
337.90 0.547
338.00 0.5474
338.10 0.5479
338.20 0.5483
338.30 0.5488
338.40 0.5492
338.50 0.5497
338.60 0.5501
338.70 0.5506
338.80 0.551
338.90 0.5514
339.00 0.5519
339.10 0.5523
339.20 0.5528
339.30 0.5532
339.40 0.5537
339.50 0.5541
339.60 0.5546
339.70 0.555
339.80 0.5554
339.90 0.5559
340.00 0.5563
340.10 0.5568
340.20 0.5572
340.30 0.5577
340.40 0.5581
340.50 0.5586
340.60 0.559
340.70 0.5594
340.80 0.5599
340.90 0.5603
341.00 0.5608
341.10 0.5612
341.20 0.5617
341.30 0.5621
341.40 0.5625
341.50 0.563
341.60 0.5634
341.70 0.5639
341.80 0.5643
341.90 0.5647
342.00 0.5652
342.10 0.5656
342.20 0.5661
342.30 0.5665
342.40 0.5669
342.50 0.5674
342.60 0.5678
342.70 0.5683
342.80 0.5687
342.90 0.5692
343.00 0.5696
343.10 0.57
343.20 0.5705
343.30 0.5709
343.40 0.5714
343.50 0.5718
343.60 0.5722
343.70 0.5727
343.80 0.5731
343.90 0.5735
344.00 0.574
344.10 0.5744
344.20 0.5749
344.30 0.5753
344.40 0.5757
344.50 0.5762
344.60 0.5766
344.70 0.5771
344.80 0.5775
344.90 0.5779
345.00 0.5784
345.10 0.5788
345.20 0.5793
345.30 0.5797
345.40 0.5801
345.50 0.5806
345.60 0.581
345.70 0.5814
345.80 0.5819
345.90 0.5823
346.00 0.5827
346.10 0.5832
346.20 0.5836
346.30 0.5841
346.40 0.5845
346.50 0.5849
346.60 0.5854
346.70 0.5858
346.80 0.5862
346.90 0.5867
347.00 0.5871
347.10 0.5875
347.20 0.588
347.30 0.5884
347.40 0.5888
347.50 0.5893
347.60 0.5897
347.70 0.5901
347.80 0.5906
347.90 0.591
348.00 0.5914
348.10 0.5919
348.20 0.5923
348.30 0.5927
348.40 0.5932
348.50 0.5936
348.60 0.5941
348.70 0.5945
348.80 0.5949
348.90 0.5954
349.00 0.5958
349.10 0.5962
349.20 0.5967
349.30 0.5971
349.40 0.5975
349.50 0.5979
349.60 0.5984
349.70 0.5988
349.80 0.5992
349.90 0.5997
350.00 0.6001
350.10 0.6005
350.20 0.601
350.30 0.6014
350.40 0.6018
350.50 0.6023
350.60 0.6027
350.70 0.6031
350.80 0.6035
350.90 0.604
351.00 0.6044
351.10 0.6048
351.20 0.6053
351.30 0.6057
351.40 0.6061
351.50 0.6065
351.60 0.607
351.70 0.6074
351.80 0.6078
351.90 0.6082
352.00 0.6087
352.10 0.6091
352.20 0.6095
352.30 0.61
352.40 0.6104
352.50 0.6108
352.60 0.6113
352.70 0.6117
352.80 0.6121
352.90 0.6125
353.00 0.613
353.10 0.6134
353.20 0.6138
353.30 0.6142
353.40 0.6147
353.50 0.6151
353.60 0.6155
353.70 0.6159
353.80 0.6164
353.90 0.6168
354.00 0.6172
354.10 0.6176
354.20 0.6181
354.30 0.6185
354.40 0.6189
354.50 0.6193
354.60 0.6198
354.70 0.6202
354.80 0.6206
354.90 0.621
355.00 0.6215
355.10 0.6219
355.20 0.6223
355.30 0.6227
355.40 0.6232
355.50 0.6236
355.60 0.624
355.70 0.6244
355.80 0.6248
355.90 0.6253
356.00 0.6257
356.10 0.6261
356.20 0.6265
356.30 0.6269
356.40 0.6274
356.50 0.6278
356.60 0.6282
356.70 0.6286
356.80 0.6291
356.90 0.6295
357.00 0.6299
357.10 0.6303
357.20 0.6307
357.30 0.6312
357.40 0.6316
357.50 0.632
357.60 0.6324
357.70 0.6328
357.80 0.6332
357.90 0.6337
358.00 0.6341
358.10 0.6345
358.20 0.6349
358.30 0.6353
358.40 0.6358
358.50 0.6362
358.60 0.6366
358.70 0.637
358.80 0.6374
358.90 0.6379
359.00 0.6383
359.10 0.6387
359.20 0.6391
359.30 0.6395
359.40 0.6399
359.50 0.6403
359.60 0.6408
359.70 0.6412
359.80 0.6416
359.90 0.642
360.00 0.6424
360.10 0.6428
360.20 0.6432
360.30 0.6437
360.40 0.6441
360.50 0.6445
360.60 0.6449
360.70 0.6453
360.80 0.6457
360.90 0.6462
361.00 0.6466
361.10 0.647
361.20 0.6474
361.30 0.6478
361.40 0.6482
361.50 0.6486
361.60 0.649
361.70 0.6495
361.80 0.6499
361.90 0.6503
362.00 0.6507
362.10 0.6511
362.20 0.6515
362.30 0.6519
362.40 0.6523
362.50 0.6527
362.60 0.6532
362.70 0.6536
362.80 0.654
362.90 0.6544
363.00 0.6548
363.10 0.6552
363.20 0.6556
363.30 0.656
363.40 0.6564
363.50 0.6568
363.60 0.6573
363.70 0.6577
363.80 0.6581
363.90 0.6585
364.00 0.6589
364.10 0.6593
364.20 0.6597
364.30 0.6601
364.40 0.6605
364.50 0.6609
364.60 0.6613
364.70 0.6617
364.80 0.6621
364.90 0.6625
365.00 0.663
365.10 0.6634
365.20 0.6638
365.30 0.6642
365.40 0.6646
365.50 0.665
365.60 0.6654
365.70 0.6658
365.80 0.6662
365.90 0.6666
366.00 0.667
366.10 0.6674
366.20 0.6678
366.30 0.6682
366.40 0.6686
366.50 0.669
366.60 0.6694
366.70 0.6698
366.80 0.6702
366.90 0.6706
367.00 0.671
367.10 0.6714
367.20 0.6718
367.30 0.6722
367.40 0.6726
367.50 0.673
367.60 0.6734
367.70 0.6738
367.80 0.6742
367.90 0.6746
368.00 0.675
368.10 0.6754
368.20 0.6758
368.30 0.6763
368.40 0.6767
368.50 0.6771
368.60 0.6775
368.70 0.6779
368.80 0.6783
368.90 0.6787
369.00 0.6791
369.10 0.6795
369.20 0.6799
369.30 0.6803
369.40 0.6806
369.50 0.681
369.60 0.6814
369.70 0.6818
369.80 0.6822
369.90 0.6826
370.00 0.683
370.10 0.6834
370.20 0.6838
370.30 0.6842
370.40 0.6846
370.50 0.685
370.60 0.6854
370.70 0.6858
370.80 0.6862
370.90 0.6866
371.00 0.687
371.10 0.6874
371.20 0.6878
371.30 0.6882
371.40 0.6886
371.50 0.689
371.60 0.6894
371.70 0.6897
371.80 0.6901
371.90 0.6905
372.00 0.6909
372.10 0.6913
372.20 0.6917
372.30 0.6921
372.40 0.6925
372.50 0.6929
372.60 0.6933
372.70 0.6937
372.80 0.6941
372.90 0.6945
373.00 0.6948
373.10 0.6952
373.20 0.6956
373.30 0.696
373.40 0.6964
373.50 0.6968
373.60 0.6972
373.70 0.6976
373.80 0.6979
373.90 0.6983
374.00 0.6987
374.10 0.6991
374.20 0.6995
374.30 0.6999
374.40 0.7003
374.50 0.7007
374.60 0.7011
374.70 0.7015
374.80 0.7019
374.90 0.7022
375.00 0.7026
375.10 0.703
375.20 0.7034
375.30 0.7038
375.40 0.7042
375.50 0.7046
375.60 0.705
375.70 0.7053
375.80 0.7057
375.90 0.7061
376.00 0.7065
376.10 0.7069
376.20 0.7073
376.30 0.7076
376.40 0.708
376.50 0.7084
376.60 0.7088
376.70 0.7092
376.80 0.7095
376.90 0.7099
377.00 0.7103
377.10 0.7107
377.20 0.7111
377.30 0.7115
377.40 0.7118
377.50 0.7122
377.60 0.7126
377.70 0.713
377.80 0.7134
377.90 0.7137
378.00 0.7141
378.10 0.7145
378.20 0.7149
378.30 0.7153
378.40 0.7156
378.50 0.716
378.60 0.7164
378.70 0.7168
378.80 0.7172
378.90 0.7175
379.00 0.7179
379.10 0.7183
379.20 0.7187
379.30 0.719
379.40 0.7194
379.50 0.7198
379.60 0.7201
379.70 0.7205
379.80 0.7209
379.90 0.7213
380.00 0.7216
380.10 0.722
380.20 0.7224
380.30 0.7228
380.40 0.7232
380.50 0.7235
380.60 0.7239
380.70 0.7243
380.80 0.7247
380.90 0.7251
381.00 0.7254
381.10 0.7258
381.20 0.7262
381.30 0.7266
381.40 0.7269
381.50 0.7273
381.60 0.7276
381.70 0.728
381.80 0.7284
381.90 0.7288
382.00 0.7291
382.10 0.7295
382.20 0.7299
382.30 0.7303
382.40 0.7306
382.50 0.731
382.60 0.7314
382.70 0.7317
382.80 0.7321
382.90 0.7325
383.00 0.7329
383.10 0.7332
383.20 0.7336
383.30 0.7339
383.40 0.7343
383.50 0.7347
383.60 0.7351
383.70 0.7355
383.80 0.7358
383.90 0.7362
384.00 0.7365
384.10 0.7369
384.20 0.7372
384.30 0.7376
384.40 0.738
384.50 0.7384
384.60 0.7388
384.70 0.7391
384.80 0.7395
384.90 0.7398
385.00 0.7402
385.10 0.7405
385.20 0.7409
385.30 0.7413
385.40 0.7416
385.50 0.742
385.60 0.7423
385.70 0.7427
385.80 0.7431
385.90 0.7434
386.00 0.7438
386.10 0.7442
386.20 0.7445
386.30 0.7449
386.40 0.7453
386.50 0.7456
386.60 0.746
386.70 0.7464
386.80 0.7467
386.90 0.7471
387.00 0.7475
387.10 0.7478
387.20 0.7482
387.30 0.7485
387.40 0.7489
387.50 0.7493
387.60 0.7496
387.70 0.7499
387.80 0.7503
387.90 0.7507
388.00 0.751
388.10 0.7514
388.20 0.7517
388.30 0.7521
388.40 0.7525
388.50 0.7528
388.60 0.7532
388.70 0.7535
388.80 0.7539
388.90 0.7543
389.00 0.7546
389.10 0.7549
389.20 0.7553
389.30 0.7557
389.40 0.756
389.50 0.7564
389.60 0.7567
389.70 0.7571
389.80 0.7575
389.90 0.7578
390.00 0.7581
390.10 0.7585
390.20 0.7589
390.30 0.7592
390.40 0.7595
390.50 0.7599
390.60 0.7603
390.70 0.7606
390.80 0.761
390.90 0.7613
391.00 0.7617
391.10 0.762
391.20 0.7624
391.30 0.7627
391.40 0.7631
391.50 0.7634
391.60 0.7638
391.70 0.7641
391.80 0.7645
391.90 0.7649
392.00 0.7652
392.10 0.7655
392.20 0.7659
392.30 0.7662
392.40 0.7666
392.50 0.7669
392.60 0.7672
392.70 0.7676
392.80 0.7679
392.90 0.7683
393.00 0.7686
393.10 0.769
393.20 0.7693
393.30 0.7697
393.40 0.7701
393.50 0.7704
393.60 0.7707
393.70 0.771
393.80 0.7714
393.90 0.7717
394.00 0.7721
394.10 0.7724
394.20 0.7728
394.30 0.7731
394.40 0.7735
394.50 0.7738
394.60 0.7742
394.70 0.7745
394.80 0.7749
394.90 0.7752
395.00 0.7755
395.10 0.7758
395.20 0.7762
395.30 0.7765
395.40 0.7769
395.50 0.7772
395.60 0.7776
395.70 0.7779
395.80 0.7782
395.90 0.7786
396.00 0.7789
396.10 0.7793
396.20 0.7796
396.30 0.7799
396.40 0.7803
396.50 0.7806
396.60 0.781
396.70 0.7813
396.80 0.7816
396.90 0.782
397.00 0.7823
397.10 0.7826
397.20 0.783
397.30 0.7833
397.40 0.7836
397.50 0.784
397.60 0.7843
397.70 0.7846
397.80 0.785
397.90 0.7854
398.00 0.7857
398.10 0.786
398.20 0.7864
398.30 0.7867
398.40 0.787
398.50 0.7874
398.60 0.7877
398.70 0.788
398.80 0.7883
398.90 0.7887
399.00 0.789
399.10 0.7893
399.20 0.7897
399.30 0.79
399.40 0.7904
399.50 0.7907
399.60 0.791
399.70 0.7913
399.80 0.7917
399.90 0.792
400.00 0.7923
400.10 0.7926
400.20 0.793
400.30 0.7933
400.40 0.7936
400.50 0.794
400.60 0.7943
400.70 0.7946
400.80 0.7949
400.90 0.7953
401.00 0.7956
401.10 0.7959
401.20 0.7963
401.30 0.7966
401.40 0.7969
401.50 0.7972
401.60 0.7976
401.70 0.7979
401.80 0.7982
401.90 0.7985
402.00 0.7988
402.10 0.7992
402.20 0.7995
402.30 0.7999
402.40 0.8002
402.50 0.8005
402.60 0.8008
402.70 0.8012
402.80 0.8015
402.90 0.8018
403.00 0.8021
403.10 0.8024
403.20 0.8028
403.30 0.8031
403.40 0.8034
403.50 0.8037
403.60 0.8041
403.70 0.8044
403.80 0.8047
403.90 0.805
404.00 0.8053
404.10 0.8057
404.20 0.806
404.30 0.8063
404.40 0.8066
404.50 0.8069
404.60 0.8072
404.70 0.8075
404.80 0.8078
404.90 0.8082
405.00 0.8085
405.10 0.8088
405.20 0.8091
405.30 0.8095
405.40 0.8098
405.50 0.8101
405.60 0.8104
405.70 0.8107
405.80 0.811
405.90 0.8113
406.00 0.8117
406.10 0.812
406.20 0.8123
406.30 0.8126
406.40 0.8129
406.50 0.8132
406.60 0.8136
406.70 0.8139
406.80 0.8142
406.90 0.8145
407.00 0.8148
407.10 0.8151
407.20 0.8155
407.30 0.8158
407.40 0.8161
407.50 0.8164
407.60 0.8167
407.70 0.817
407.80 0.8173
407.90 0.8176
408.00 0.8179
408.10 0.8183
408.20 0.8185
408.30 0.8189
408.40 0.8192
408.50 0.8195
408.60 0.8198
408.70 0.8201
408.80 0.8204
408.90 0.8207
409.00 0.821
409.10 0.8213
409.20 0.8216
409.30 0.8219
409.40 0.8223
409.50 0.8226
409.60 0.8228
409.70 0.8232
409.80 0.8235
409.90 0.8237
410.00 0.8241
410.10 0.8244
410.20 0.8247
410.30 0.825
410.40 0.8253
410.50 0.8256
410.60 0.8259
410.70 0.8262
410.80 0.8265
410.90 0.8268
411.00 0.8271
411.10 0.8274
411.20 0.8277
411.30 0.828
411.40 0.8283
411.50 0.8286
411.60 0.8289
411.70 0.8292
411.80 0.8295
411.90 0.8298
412.00 0.8301
412.10 0.8304
412.20 0.8307
412.30 0.831
412.40 0.8314
412.50 0.8317
412.60 0.8319
412.70 0.8322
412.80 0.8325
412.90 0.8329
413.00 0.8331
413.10 0.8334
413.20 0.8337
413.30 0.834
413.40 0.8343
413.50 0.8346
413.60 0.8349
413.70 0.8352
413.80 0.8355
413.90 0.8358
414.00 0.8361
414.10 0.8364
414.20 0.8367
414.30 0.837
414.40 0.8373
414.50 0.8376
414.60 0.8379
414.70 0.8382
414.80 0.8385
414.90 0.8388
415.00 0.839
415.10 0.8393
415.20 0.8396
415.30 0.8399
415.40 0.8402
415.50 0.8405
415.60 0.8408
415.70 0.8411
415.80 0.8414
415.90 0.8417
416.00 0.842
416.10 0.8423
416.20 0.8426
416.30 0.8428
416.40 0.8431
416.50 0.8434
416.60 0.8437
416.70 0.844
416.80 0.8443
416.90 0.8446
417.00 0.8449
417.10 0.8451
417.20 0.8454
417.30 0.8457
417.40 0.846
417.50 0.8463
417.60 0.8466
417.70 0.8468
417.80 0.8471
417.90 0.8474
418.00 0.8477
418.10 0.848
418.20 0.8483
418.30 0.8486
418.40 0.8489
418.50 0.8491
418.60 0.8494
418.70 0.8497
418.80 0.85
418.90 0.8503
419.00 0.8506
419.10 0.8509
419.20 0.8512
419.30 0.8514
419.40 0.8517
419.50 0.852
419.60 0.8522
419.70 0.8525
419.80 0.8528
419.90 0.8531
420.00 0.8534
420.10 0.8536
420.20 0.8539
420.30 0.8542
420.40 0.8545
420.50 0.8548
420.60 0.8551
420.70 0.8553
420.80 0.8556
420.90 0.8559
421.00 0.8562
421.10 0.8564
421.20 0.8567
421.30 0.857
421.40 0.8573
421.50 0.8576
421.60 0.8578
421.70 0.8581
421.80 0.8584
421.90 0.8587
422.00 0.8589
422.10 0.8592
422.20 0.8595
422.30 0.8598
422.40 0.86
422.50 0.8603
422.60 0.8606
422.70 0.8608
422.80 0.8611
422.90 0.8614
423.00 0.8617
423.10 0.8619
423.20 0.8622
423.30 0.8625
423.40 0.8628
423.50 0.8631
423.60 0.8633
423.70 0.8636
423.80 0.8639
423.90 0.8641
424.00 0.8644
424.10 0.8647
424.20 0.8649
424.30 0.8652
424.40 0.8655
424.50 0.8657
424.60 0.866
424.70 0.8663
424.80 0.8665
424.90 0.8668
425.00 0.8671
425.10 0.8673
425.20 0.8676
425.30 0.8679
425.40 0.8682
425.50 0.8684
425.60 0.8687
425.70 0.869
425.80 0.8692
425.90 0.8695
426.00 0.8697
426.10 0.87
426.20 0.8703
426.30 0.8705
426.40 0.8708
426.50 0.8711
426.60 0.8714
426.70 0.8716
426.80 0.8719
426.90 0.8721
427.00 0.8724
427.10 0.8726
427.20 0.8729
427.30 0.8732
427.40 0.8734
427.50 0.8737
427.60 0.874
427.70 0.8742
427.80 0.8745
427.90 0.8747
428.00 0.875
428.10 0.8753
428.20 0.8756
428.30 0.8758
428.40 0.8761
428.50 0.8763
428.60 0.8766
428.70 0.8768
428.80 0.8771
428.90 0.8774
429.00 0.8776
429.10 0.8779
429.20 0.8781
429.30 0.8784
429.40 0.8786
429.50 0.8789
429.60 0.8791
429.70 0.8794
429.80 0.8797
429.90 0.8799
430.00 0.8802
430.10 0.8804
430.20 0.8807
430.30 0.8809
430.40 0.8812
430.50 0.8814
430.60 0.8817
430.70 0.8819
430.80 0.8822
430.90 0.8824
431.00 0.8827
431.10 0.883
431.20 0.8832
431.30 0.8835
431.40 0.8837
431.50 0.8839
431.60 0.8842
431.70 0.8845
431.80 0.8847
431.90 0.885
432.00 0.8852
432.10 0.8854
432.20 0.8857
432.30 0.8859
432.40 0.8862
432.50 0.8865
432.60 0.8867
432.70 0.8869
432.80 0.8872
432.90 0.8874
433.00 0.8876
433.10 0.8879
433.20 0.8881
433.30 0.8884
433.40 0.8886
433.50 0.8888
433.60 0.8891
433.70 0.8893
433.80 0.8895
433.90 0.8897
434.00 0.89
434.10 0.8902
434.20 0.8905
434.30 0.8907
434.40 0.891
434.50 0.8913
434.60 0.8915
434.70 0.8918
434.80 0.892
434.90 0.8923
435.00 0.8926
435.10 0.8928
435.20 0.893
435.30 0.8933
435.40 0.8936
435.50 0.8938
435.60 0.894
435.70 0.8943
435.80 0.8945
435.90 0.8948
436.00 0.895
436.10 0.8953
436.20 0.8955
436.30 0.8957
436.40 0.896
436.50 0.8962
436.60 0.8964
436.70 0.8967
436.80 0.8969
436.90 0.8972
437.00 0.8974
437.10 0.8977
437.20 0.8979
437.30 0.8981
437.40 0.8984
437.50 0.8986
437.60 0.8988
437.70 0.8991
437.80 0.8993
437.90 0.8996
438.00 0.8998
438.10 0.9
438.20 0.9003
438.30 0.9005
438.40 0.9007
438.50 0.901
438.60 0.9012
438.70 0.9014
438.80 0.9017
438.90 0.9019
439.00 0.9021
439.10 0.9024
439.20 0.9026
439.30 0.9028
439.40 0.9031
439.50 0.9033
439.60 0.9035
439.70 0.9038
439.80 0.904
439.90 0.9042
440.00 0.9044
440.10 0.9047
440.20 0.9049
440.30 0.9051
440.40 0.9054
440.50 0.9056
440.60 0.9058
440.70 0.9061
440.80 0.9063
440.90 0.9065
441.00 0.9068
441.10 0.907
441.20 0.9072
441.30 0.9074
441.40 0.9077
441.50 0.9079
441.60 0.9081
441.70 0.9083
441.80 0.9086
441.90 0.9088
442.00 0.909
442.10 0.9092
442.20 0.9095
442.30 0.9097
442.40 0.9099
442.50 0.9101
442.60 0.9104
442.70 0.9106
442.80 0.9108
442.90 0.911
443.00 0.9113
