# Version 2.1 - nm, norm@500 to 1, cut digits, bergeron_110000_65.dat_110000
# Wavelength(nm)  Flambda(ergs/cm^s/s/nm)
300.00 6.891
300.10 6.882
300.20 6.874
300.30 6.865
300.40 6.856
300.50 6.848
300.60 6.839
300.70 6.831
300.80 6.822
300.90 6.813
301.00 6.805
301.10 6.796
301.20 6.788
301.30 6.779
301.40 6.771
301.50 6.762
301.60 6.754
301.70 6.745
301.80 6.737
301.90 6.728
302.00 6.72
302.10 6.712
302.20 6.703
302.30 6.695
302.40 6.686
302.50 6.678
302.60 6.67
302.70 6.661
302.80 6.653
302.90 6.645
303.00 6.636
303.10 6.628
303.20 6.62
303.30 6.612
303.40 6.603
303.50 6.595
303.60 6.587
303.70 6.579
303.80 6.57
303.90 6.562
304.00 6.554
304.10 6.546
304.20 6.538
304.30 6.53
304.40 6.522
304.50 6.514
304.60 6.505
304.70 6.497
304.80 6.489
304.90 6.481
305.00 6.473
305.10 6.465
305.20 6.457
305.30 6.449
305.40 6.441
305.50 6.433
305.60 6.425
305.70 6.417
305.80 6.409
305.90 6.401
306.00 6.393
306.10 6.386
306.20 6.378
306.30 6.37
306.40 6.362
306.50 6.354
306.60 6.346
306.70 6.338
306.80 6.331
306.90 6.323
307.00 6.315
307.10 6.307
307.20 6.299
307.30 6.292
307.40 6.284
307.50 6.276
307.60 6.268
307.70 6.261
307.80 6.253
307.90 6.245
308.00 6.238
308.10 6.23
308.20 6.222
308.30 6.215
308.40 6.207
308.50 6.199
308.60 6.192
308.70 6.184
308.80 6.177
308.90 6.169
309.00 6.161
309.10 6.154
309.20 6.146
309.30 6.139
309.40 6.131
309.50 6.124
309.60 6.116
309.70 6.109
309.80 6.101
309.90 6.094
310.00 6.087
310.10 6.079
310.20 6.072
310.30 6.064
310.40 6.057
310.50 6.049
310.60 6.042
310.70 6.035
310.80 6.027
310.90 6.02
311.00 6.013
311.10 6.005
311.20 5.998
311.30 5.991
311.40 5.983
311.50 5.976
311.60 5.969
311.70 5.962
311.80 5.954
311.90 5.947
312.00 5.94
312.10 5.933
312.20 5.926
312.30 5.918
312.40 5.911
312.50 5.904
312.60 5.897
312.70 5.89
312.80 5.883
312.90 5.875
313.00 5.868
313.10 5.861
313.20 5.854
313.30 5.847
313.40 5.84
313.50 5.833
313.60 5.826
313.70 5.819
313.80 5.812
313.90 5.805
314.00 5.798
314.10 5.791
314.20 5.784
314.30 5.777
314.40 5.77
314.50 5.763
314.60 5.756
314.70 5.749
314.80 5.742
314.90 5.735
315.00 5.728
315.10 5.721
315.20 5.715
315.30 5.708
315.40 5.701
315.50 5.694
315.60 5.687
315.70 5.68
315.80 5.673
315.90 5.667
316.00 5.66
316.10 5.653
316.20 5.646
316.30 5.64
316.40 5.633
316.50 5.626
316.60 5.619
316.70 5.613
316.80 5.606
316.90 5.599
317.00 5.592
317.10 5.586
317.20 5.579
317.30 5.572
317.40 5.566
317.50 5.559
317.60 5.552
317.70 5.546
317.80 5.539
317.90 5.533
318.00 5.526
318.10 5.519
318.20 5.513
318.30 5.506
318.40 5.5
318.50 5.493
318.60 5.487
318.70 5.48
318.80 5.474
318.90 5.467
319.00 5.461
319.10 5.454
319.20 5.448
319.30 5.441
319.40 5.435
319.50 5.428
319.60 5.422
319.70 5.415
319.80 5.409
319.90 5.403
320.00 5.396
320.10 5.39
320.20 5.383
320.30 5.377
320.40 5.371
320.50 5.364
320.60 5.358
320.70 5.352
320.80 5.345
320.90 5.339
321.00 5.333
321.10 5.326
321.20 5.32
321.30 5.314
321.40 5.307
321.50 5.301
321.60 5.295
321.70 5.289
321.80 5.282
321.90 5.276
322.00 5.27
322.10 5.264
322.20 5.258
322.30 5.251
322.40 5.245
322.50 5.239
322.60 5.233
322.70 5.227
322.80 5.221
322.90 5.214
323.00 5.208
323.10 5.202
323.20 5.196
323.30 5.19
323.40 5.184
323.50 5.178
323.60 5.172
323.70 5.166
323.80 5.16
323.90 5.154
324.00 5.148
324.10 5.142
324.20 5.136
324.30 5.13
324.40 5.124
324.50 5.118
324.60 5.112
324.70 5.106
324.80 5.1
324.90 5.094
325.00 5.088
325.10 5.082
325.20 5.076
325.30 5.07
325.40 5.064
325.50 5.058
325.60 5.052
325.70 5.046
325.80 5.04
325.90 5.035
326.00 5.029
326.10 5.023
326.20 5.017
326.30 5.011
326.40 5.005
326.50 4.999
326.60 4.994
326.70 4.988
326.80 4.982
326.90 4.976
327.00 4.971
327.10 4.965
327.20 4.959
327.30 4.953
327.40 4.947
327.50 4.942
327.60 4.936
327.70 4.93
327.80 4.925
327.90 4.919
328.00 4.913
328.10 4.908
328.20 4.902
328.30 4.896
328.40 4.89
328.50 4.885
328.60 4.879
328.70 4.874
328.80 4.868
328.90 4.862
329.00 4.857
329.10 4.851
329.20 4.845
329.30 4.84
329.40 4.834
329.50 4.829
329.60 4.823
329.70 4.818
329.80 4.812
329.90 4.807
330.00 4.801
330.10 4.796
330.20 4.79
330.30 4.785
330.40 4.779
330.50 4.774
330.60 4.768
330.70 4.763
330.80 4.757
330.90 4.752
331.00 4.746
331.10 4.741
331.20 4.735
331.30 4.73
331.40 4.724
331.50 4.719
331.60 4.714
331.70 4.708
331.80 4.703
331.90 4.697
332.00 4.692
332.10 4.687
332.20 4.681
332.30 4.676
332.40 4.671
332.50 4.665
332.60 4.66
332.70 4.655
332.80 4.649
332.90 4.644
333.00 4.639
333.10 4.633
333.20 4.628
333.30 4.623
333.40 4.618
333.50 4.612
333.60 4.607
333.70 4.602
333.80 4.597
333.90 4.591
334.00 4.586
334.10 4.581
334.20 4.576
334.30 4.571
334.40 4.565
334.50 4.56
334.60 4.555
334.70 4.55
334.80 4.545
334.90 4.54
335.00 4.534
335.10 4.529
335.20 4.524
335.30 4.519
335.40 4.514
335.50 4.509
335.60 4.504
335.70 4.498
335.80 4.493
335.90 4.488
336.00 4.483
336.10 4.478
336.20 4.473
336.30 4.468
336.40 4.463
336.50 4.458
336.60 4.453
336.70 4.448
336.80 4.443
336.90 4.438
337.00 4.433
337.10 4.428
337.20 4.423
337.30 4.418
337.40 4.413
337.50 4.408
337.60 4.403
337.70 4.398
337.80 4.393
337.90 4.388
338.00 4.383
338.10 4.378
338.20 4.373
338.30 4.368
338.40 4.363
338.50 4.359
338.60 4.354
338.70 4.349
338.80 4.344
338.90 4.339
339.00 4.334
339.10 4.329
339.20 4.324
339.30 4.32
339.40 4.315
339.50 4.31
339.60 4.305
339.70 4.3
339.80 4.295
339.90 4.291
340.00 4.286
340.10 4.281
340.20 4.276
340.30 4.272
340.40 4.267
340.50 4.262
340.60 4.257
340.70 4.252
340.80 4.248
340.90 4.243
341.00 4.238
341.10 4.234
341.20 4.229
341.30 4.224
341.40 4.219
341.50 4.215
341.60 4.21
341.70 4.205
341.80 4.201
341.90 4.196
342.00 4.191
342.10 4.187
342.20 4.182
342.30 4.177
342.40 4.173
342.50 4.168
342.60 4.163
342.70 4.159
342.80 4.154
342.90 4.15
343.00 4.145
343.10 4.14
343.20 4.136
343.30 4.131
343.40 4.127
343.50 4.122
343.60 4.117
343.70 4.113
343.80 4.108
343.90 4.104
344.00 4.099
344.10 4.095
344.20 4.09
344.30 4.086
344.40 4.081
344.50 4.077
344.60 4.072
344.70 4.068
344.80 4.063
344.90 4.059
345.00 4.054
345.10 4.05
345.20 4.045
345.30 4.041
345.40 4.036
345.50 4.032
345.60 4.027
345.70 4.023
345.80 4.019
345.90 4.014
346.00 4.01
346.10 4.005
346.20 4.001
346.30 3.997
346.40 3.992
346.50 3.988
346.60 3.983
346.70 3.979
346.80 3.975
346.90 3.97
347.00 3.966
347.10 3.962
347.20 3.957
347.30 3.953
347.40 3.949
347.50 3.944
347.60 3.94
347.70 3.936
347.80 3.931
347.90 3.927
348.00 3.923
348.10 3.918
348.20 3.914
348.30 3.91
348.40 3.906
348.50 3.901
348.60 3.897
348.70 3.893
348.80 3.889
348.90 3.884
349.00 3.88
349.10 3.876
349.20 3.872
349.30 3.867
349.40 3.863
349.50 3.859
349.60 3.855
349.70 3.851
349.80 3.846
349.90 3.842
350.00 3.838
350.10 3.834
350.20 3.83
350.30 3.826
350.40 3.821
350.50 3.817
350.60 3.813
350.70 3.809
350.80 3.805
350.90 3.801
351.00 3.797
351.10 3.792
351.20 3.788
351.30 3.784
351.40 3.78
351.50 3.776
351.60 3.772
351.70 3.768
351.80 3.764
351.90 3.76
352.00 3.756
352.10 3.752
352.20 3.747
352.30 3.743
352.40 3.739
352.50 3.735
352.60 3.731
352.70 3.727
352.80 3.723
352.90 3.719
353.00 3.715
353.10 3.711
353.20 3.707
353.30 3.703
353.40 3.699
353.50 3.695
353.60 3.691
353.70 3.687
353.80 3.683
353.90 3.679
354.00 3.675
354.10 3.671
354.20 3.667
354.30 3.664
354.40 3.66
354.50 3.656
354.60 3.652
354.70 3.648
354.80 3.644
354.90 3.64
355.00 3.636
355.10 3.632
355.20 3.628
355.30 3.624
355.40 3.621
355.50 3.617
355.60 3.613
355.70 3.609
355.80 3.605
355.90 3.601
356.00 3.597
356.10 3.593
356.20 3.59
356.30 3.586
356.40 3.582
356.50 3.578
356.60 3.574
356.70 3.57
356.80 3.567
356.90 3.563
357.00 3.559
357.10 3.555
357.20 3.551
357.30 3.548
357.40 3.544
357.50 3.54
357.60 3.536
357.70 3.533
357.80 3.529
357.90 3.525
358.00 3.521
358.10 3.517
358.20 3.514
358.30 3.51
358.40 3.506
358.50 3.503
358.60 3.499
358.70 3.495
358.80 3.491
358.90 3.488
359.00 3.484
359.10 3.48
359.20 3.477
359.30 3.473
359.40 3.469
359.50 3.466
359.60 3.462
359.70 3.458
359.80 3.455
359.90 3.451
360.00 3.447
360.10 3.444
360.20 3.44
360.30 3.436
360.40 3.433
360.50 3.429
360.60 3.425
360.70 3.422
360.80 3.418
360.90 3.415
361.00 3.411
361.10 3.407
361.20 3.404
361.30 3.4
361.40 3.397
361.50 3.393
361.60 3.389
361.70 3.386
361.80 3.382
361.90 3.379
362.00 3.375
362.10 3.372
362.20 3.368
362.30 3.364
362.40 3.361
362.50 3.357
362.60 3.354
362.70 3.35
362.80 3.347
362.90 3.343
363.00 3.34
363.10 3.336
363.20 3.333
363.30 3.329
363.40 3.326
363.50 3.322
363.60 3.319
363.70 3.315
363.80 3.312
363.90 3.308
364.00 3.305
364.10 3.301
364.20 3.298
364.30 3.295
364.40 3.291
364.50 3.288
364.60 3.284
364.70 3.281
364.80 3.277
364.90 3.274
365.00 3.271
365.10 3.267
365.20 3.264
365.30 3.26
365.40 3.257
365.50 3.253
365.60 3.25
365.70 3.247
365.80 3.243
365.90 3.24
366.00 3.237
366.10 3.233
366.20 3.23
366.30 3.226
366.40 3.223
366.50 3.219
366.60 3.216
366.70 3.213
366.80 3.209
366.90 3.206
367.00 3.202
367.10 3.199
367.20 3.196
367.30 3.192
367.40 3.189
367.50 3.186
367.60 3.182
367.70 3.179
367.80 3.175
367.90 3.172
368.00 3.169
368.10 3.165
368.20 3.162
368.30 3.159
368.40 3.155
368.50 3.152
368.60 3.149
368.70 3.145
368.80 3.142
368.90 3.139
369.00 3.136
369.10 3.132
369.20 3.129
369.30 3.126
369.40 3.122
369.50 3.119
369.60 3.116
369.70 3.113
369.80 3.109
369.90 3.106
370.00 3.103
370.10 3.1
370.20 3.096
370.30 3.093
370.40 3.09
370.50 3.087
370.60 3.083
370.70 3.08
370.80 3.077
370.90 3.074
371.00 3.071
371.10 3.067
371.20 3.064
371.30 3.061
371.40 3.058
371.50 3.055
371.60 3.051
371.70 3.048
371.80 3.045
371.90 3.042
372.00 3.039
372.10 3.036
372.20 3.032
372.30 3.029
372.40 3.026
372.50 3.023
372.60 3.02
372.70 3.017
372.80 3.014
372.90 3.011
373.00 3.008
373.10 3.005
373.20 3.002
373.30 2.999
373.40 2.996
373.50 2.993
373.60 2.99
373.70 2.986
373.80 2.983
373.90 2.98
374.00 2.977
374.10 2.974
374.20 2.971
374.30 2.969
374.40 2.966
374.50 2.963
374.60 2.96
374.70 2.957
374.80 2.954
374.90 2.951
375.00 2.948
375.10 2.945
375.20 2.942
375.30 2.939
375.40 2.936
375.50 2.933
375.60 2.931
375.70 2.928
375.80 2.925
375.90 2.922
376.00 2.919
376.10 2.916
376.20 2.913
376.30 2.909
376.40 2.906
376.50 2.903
376.60 2.9
376.70 2.897
376.80 2.894
376.90 2.891
377.00 2.887
377.10 2.885
377.20 2.883
377.30 2.88
377.40 2.878
377.50 2.875
377.60 2.873
377.70 2.871
377.80 2.868
377.90 2.866
378.00 2.863
378.10 2.86
378.20 2.857
378.30 2.854
378.40 2.851
378.50 2.848
378.60 2.845
378.70 2.842
378.80 2.839
378.90 2.836
379.00 2.833
379.10 2.829
379.20 2.826
379.30 2.823
379.40 2.819
379.50 2.816
379.60 2.813
379.70 2.81
379.80 2.806
379.90 2.803
380.00 2.8
380.10 2.798
380.20 2.797
380.30 2.795
380.40 2.794
380.50 2.792
380.60 2.791
380.70 2.789
380.80 2.787
380.90 2.786
381.00 2.784
381.10 2.782
381.20 2.779
381.30 2.777
381.40 2.774
381.50 2.772
381.60 2.769
381.70 2.766
381.80 2.763
381.90 2.759
382.00 2.756
382.10 2.752
382.20 2.748
382.30 2.743
382.40 2.738
382.50 2.733
382.60 2.728
382.70 2.723
382.80 2.719
382.90 2.714
383.00 2.709
383.10 2.704
383.20 2.699
383.30 2.693
383.40 2.687
383.50 2.682
383.60 2.68
383.70 2.681
383.80 2.682
383.90 2.683
384.00 2.684
384.10 2.685
384.20 2.685
384.30 2.686
384.40 2.686
384.50 2.686
384.60 2.685
384.70 2.685
384.80 2.684
384.90 2.684
385.00 2.683
385.10 2.681
385.20 2.68
385.30 2.679
385.40 2.677
385.50 2.675
385.60 2.673
385.70 2.671
385.80 2.669
385.90 2.667
386.00 2.664
386.10 2.662
386.20 2.659
386.30 2.656
386.40 2.653
386.50 2.65
386.60 2.646
386.70 2.643
386.80 2.639
386.90 2.635
387.00 2.631
387.10 2.626
387.20 2.622
387.30 2.617
387.40 2.612
387.50 2.606
387.60 2.601
387.70 2.595
387.80 2.588
387.90 2.582
388.00 2.575
388.10 2.567
388.20 2.559
388.30 2.551
388.40 2.542
388.50 2.532
388.60 2.523
388.70 2.513
388.80 2.506
388.90 2.502
389.00 2.501
389.10 2.503
389.20 2.508
389.30 2.513
389.40 2.518
389.50 2.522
389.60 2.526
389.70 2.529
389.80 2.532
389.90 2.534
390.00 2.536
390.10 2.538
390.20 2.539
390.30 2.54
390.40 2.541
390.50 2.541
390.60 2.542
390.70 2.542
390.80 2.541
390.90 2.541
391.00 2.541
391.10 2.54
391.20 2.539
391.30 2.538
391.40 2.537
391.50 2.536
391.60 2.534
391.70 2.533
391.80 2.531
391.90 2.53
392.00 2.528
392.10 2.526
392.20 2.524
392.30 2.522
392.40 2.52
392.50 2.518
392.60 2.516
392.70 2.513
392.80 2.511
392.90 2.509
393.00 2.506
393.10 2.504
393.20 2.501
393.30 2.498
393.40 2.496
393.50 2.493
393.60 2.49
393.70 2.487
393.80 2.484
393.90 2.481
394.00 2.477
394.10 2.474
394.20 2.47
394.30 2.467
394.40 2.463
394.50 2.459
394.60 2.455
394.70 2.451
394.80 2.446
394.90 2.442
395.00 2.437
395.10 2.431
395.20 2.426
395.30 2.42
395.40 2.414
395.50 2.407
395.60 2.4
395.70 2.393
395.80 2.385
395.90 2.377
396.00 2.368
396.10 2.358
396.20 2.347
396.30 2.336
396.40 2.324
396.50 2.31
396.60 2.296
396.70 2.281
396.80 2.263
396.90 2.246
397.00 2.229
397.10 2.24
397.20 2.253
397.30 2.266
397.40 2.277
397.50 2.287
397.60 2.297
397.70 2.304
397.80 2.311
397.90 2.318
398.00 2.323
398.10 2.327
398.20 2.332
398.30 2.335
398.40 2.338
398.50 2.34
398.60 2.342
398.70 2.344
398.80 2.345
398.90 2.346
399.00 2.347
399.10 2.347
399.20 2.347
399.30 2.347
399.40 2.347
399.50 2.347
399.60 2.346
399.70 2.345
399.80 2.345
399.90 2.344
400.00 2.343
400.10 2.341
400.20 2.34
400.30 2.339
400.40 2.337
400.50 2.336
400.60 2.334
400.70 2.333
400.80 2.331
400.90 2.33
401.00 2.328
401.10 2.326
401.20 2.324
401.30 2.322
401.40 2.321
401.50 2.319
401.60 2.317
401.70 2.315
401.80 2.313
401.90 2.311
402.00 2.309
402.10 2.307
402.20 2.305
402.30 2.303
402.40 2.301
402.50 2.299
402.60 2.297
402.70 2.295
402.80 2.293
402.90 2.291
403.00 2.288
403.10 2.286
403.20 2.284
403.30 2.282
403.40 2.28
403.50 2.278
403.60 2.276
403.70 2.273
403.80 2.271
403.90 2.269
404.00 2.267
404.10 2.265
404.20 2.262
404.30 2.26
404.40 2.258
404.50 2.256
404.60 2.254
404.70 2.251
404.80 2.249
404.90 2.247
405.00 2.244
405.10 2.242
405.20 2.24
405.30 2.237
405.40 2.235
405.50 2.233
405.60 2.23
405.70 2.228
405.80 2.225
405.90 2.223
406.00 2.22
406.10 2.218
406.20 2.215
406.30 2.213
406.40 2.21
406.50 2.207
406.60 2.205
406.70 2.202
406.80 2.199
406.90 2.196
407.00 2.193
407.10 2.19
407.20 2.187
407.30 2.183
407.40 2.18
407.50 2.176
407.60 2.172
407.70 2.169
407.80 2.164
407.90 2.16
408.00 2.156
408.10 2.151
408.20 2.146
408.30 2.14
408.40 2.135
408.50 2.128
408.60 2.122
408.70 2.115
408.80 2.107
408.90 2.098
409.00 2.089
409.10 2.079
409.20 2.068
409.30 2.057
409.40 2.044
409.50 2.029
409.60 2.013
409.70 1.995
409.80 1.974
409.90 1.951
410.00 1.922
410.10 1.904
410.20 1.897
410.30 1.91
410.40 1.929
410.50 1.952
410.60 1.97
410.70 1.986
410.80 1.999
410.90 2.01
411.00 2.02
411.10 2.029
411.20 2.036
411.30 2.042
411.40 2.048
411.50 2.052
411.60 2.057
411.70 2.06
411.80 2.063
411.90 2.065
412.00 2.067
412.10 2.069
412.20 2.07
412.30 2.071
412.40 2.071
412.50 2.072
412.60 2.072
412.70 2.072
412.80 2.071
412.90 2.071
413.00 2.071
413.10 2.07
413.20 2.069
413.30 2.068
413.40 2.067
413.50 2.066
413.60 2.065
413.70 2.064
413.80 2.063
413.90 2.061
414.00 2.06
414.10 2.059
414.20 2.057
414.30 2.056
414.40 2.054
414.50 2.053
414.60 2.051
414.70 2.05
414.80 2.048
414.90 2.046
415.00 2.045
415.10 2.043
415.20 2.042
415.30 2.04
415.40 2.038
415.50 2.036
415.60 2.035
415.70 2.033
415.80 2.031
415.90 2.03
416.00 2.028
416.10 2.026
416.20 2.024
416.30 2.023
416.40 2.021
416.50 2.019
416.60 2.017
416.70 2.016
416.80 2.014
416.90 2.012
417.00 2.01
417.10 2.008
417.20 2.007
417.30 2.005
417.40 2.003
417.50 2.001
417.60 2
417.70 1.998
417.80 1.996
417.90 1.994
418.00 1.992
418.10 1.991
418.20 1.989
418.30 1.987
418.40 1.985
418.50 1.984
418.60 1.982
418.70 1.98
418.80 1.978
418.90 1.976
419.00 1.975
419.10 1.973
419.20 1.971
419.30 1.969
419.40 1.967
419.50 1.966
419.60 1.964
419.70 1.962
419.80 1.96
419.90 1.959
420.00 1.957
420.10 1.955
420.20 1.953
420.30 1.951
420.40 1.95
420.50 1.948
420.60 1.946
420.70 1.944
420.80 1.943
420.90 1.941
421.00 1.939
421.10 1.937
421.20 1.936
421.30 1.934
421.40 1.932
421.50 1.93
421.60 1.929
421.70 1.927
421.80 1.925
421.90 1.923
422.00 1.922
422.10 1.92
422.20 1.918
422.30 1.916
422.40 1.915
422.50 1.913
422.60 1.911
422.70 1.909
422.80 1.908
422.90 1.906
423.00 1.904
423.10 1.902
423.20 1.901
423.30 1.899
423.40 1.897
423.50 1.895
423.60 1.894
423.70 1.892
423.80 1.89
423.90 1.889
424.00 1.887
424.10 1.885
424.20 1.883
424.30 1.882
424.40 1.88
424.50 1.878
424.60 1.876
424.70 1.875
424.80 1.873
424.90 1.871
425.00 1.87
425.10 1.868
425.20 1.866
425.30 1.864
425.40 1.863
425.50 1.861
425.60 1.859
425.70 1.858
425.80 1.856
425.90 1.854
426.00 1.852
426.10 1.851
426.20 1.849
426.30 1.847
426.40 1.846
426.50 1.844
426.60 1.842
426.70 1.84
426.80 1.839
426.90 1.837
427.00 1.835
427.10 1.834
427.20 1.832
427.30 1.83
427.40 1.828
427.50 1.827
427.60 1.825
427.70 1.823
427.80 1.822
427.90 1.82
428.00 1.818
428.10 1.816
428.20 1.815
428.30 1.813
428.40 1.811
428.50 1.809
428.60 1.808
428.70 1.806
428.80 1.804
428.90 1.802
429.00 1.8
429.10 1.799
429.20 1.797
429.30 1.795
429.40 1.793
429.50 1.791
429.60 1.789
429.70 1.787
429.80 1.786
429.90 1.784
430.00 1.782
430.10 1.78
430.20 1.778
430.30 1.776
430.40 1.773
430.50 1.771
430.60 1.769
430.70 1.767
430.80 1.765
430.90 1.762
431.00 1.76
431.10 1.757
431.20 1.755
431.30 1.752
431.40 1.749
431.50 1.746
431.60 1.743
431.70 1.74
431.80 1.736
431.90 1.733
432.00 1.729
432.10 1.724
432.20 1.72
432.30 1.715
432.40 1.71
432.50 1.704
432.60 1.697
432.70 1.691
432.80 1.683
432.90 1.675
433.00 1.666
433.10 1.655
433.20 1.643
433.30 1.631
433.40 1.616
433.50 1.599
433.60 1.58
433.70 1.556
433.80 1.525
433.90 1.49
434.00 1.457
434.10 1.457
434.20 1.489
434.30 1.521
434.40 1.548
434.50 1.57
434.60 1.585
434.70 1.599
434.80 1.611
434.90 1.62
435.00 1.629
435.10 1.636
435.20 1.642
435.30 1.647
435.40 1.652
435.50 1.656
435.60 1.659
435.70 1.662
435.80 1.664
435.90 1.665
436.00 1.667
436.10 1.668
436.20 1.669
436.30 1.669
436.40 1.67
436.50 1.67
436.60 1.67
436.70 1.67
436.80 1.669
436.90 1.669
437.00 1.669
437.10 1.668
437.20 1.667
437.30 1.667
437.40 1.666
437.50 1.665
437.60 1.664
437.70 1.663
437.80 1.662
437.90 1.661
438.00 1.66
438.10 1.659
438.20 1.658
438.30 1.657
438.40 1.655
438.50 1.654
438.60 1.653
438.70 1.652
438.80 1.651
438.90 1.649
439.00 1.648
439.10 1.647
439.20 1.645
439.30 1.644
439.40 1.643
439.50 1.642
439.60 1.64
439.70 1.639
439.80 1.638
439.90 1.636
440.00 1.635
440.10 1.634
440.20 1.632
440.30 1.631
440.40 1.63
440.50 1.628
440.60 1.627
440.70 1.626
440.80 1.624
440.90 1.623
441.00 1.622
441.10 1.62
441.20 1.619
441.30 1.617
441.40 1.616
441.50 1.615
441.60 1.613
441.70 1.612
441.80 1.611
441.90 1.609
442.00 1.608
442.10 1.607
442.20 1.605
442.30 1.604
442.40 1.602
442.50 1.601
442.60 1.6
442.70 1.598
442.80 1.597
442.90 1.596
443.00 1.594
443.10 1.593
443.20 1.592
443.30 1.59
443.40 1.589
443.50 1.587
443.60 1.586
443.70 1.585
443.80 1.583
443.90 1.582
444.00 1.581
444.10 1.579
444.20 1.578
444.30 1.577
444.40 1.575
444.50 1.574
444.60 1.573
444.70 1.571
444.80 1.57
444.90 1.569
445.00 1.567
445.10 1.566
445.20 1.564
445.30 1.563
445.40 1.562
445.50 1.56
445.60 1.559
445.70 1.558
445.80 1.556
445.90 1.555
446.00 1.554
446.10 1.552
446.20 1.551
446.30 1.55
446.40 1.548
446.50 1.547
446.60 1.546
446.70 1.544
446.80 1.543
446.90 1.542
447.00 1.54
447.10 1.539
447.20 1.538
447.30 1.537
447.40 1.535
447.50 1.534
447.60 1.533
447.70 1.531
447.80 1.53
447.90 1.529
448.00 1.527
448.10 1.526
448.20 1.525
448.30 1.523
448.40 1.522
448.50 1.521
448.60 1.52
448.70 1.518
448.80 1.517
448.90 1.516
449.00 1.514
449.10 1.513
449.20 1.512
449.30 1.51
449.40 1.509
449.50 1.508
449.60 1.507
449.70 1.505
449.80 1.504
449.90 1.503
450.00 1.501
450.10 1.5
450.20 1.499
450.30 1.498
450.40 1.496
450.50 1.495
450.60 1.494
450.70 1.492
450.80 1.491
450.90 1.49
451.00 1.489
451.10 1.487
451.20 1.486
451.30 1.485
451.40 1.484
451.50 1.482
451.60 1.481
451.70 1.48
451.80 1.479
451.90 1.477
452.00 1.476
452.10 1.475
452.20 1.474
452.30 1.472
452.40 1.471
452.50 1.47
452.60 1.469
452.70 1.467
452.80 1.466
452.90 1.465
453.00 1.464
453.10 1.462
453.20 1.461
453.30 1.46
453.40 1.459
453.50 1.457
453.60 1.456
453.70 1.455
453.80 1.454
453.90 1.452
454.00 1.451
454.10 1.45
