# Version 2.1 - nm, norm@500 to 1, cut digits, bergeron_25000_90.dat_25000
# Wavelength(nm)  Flambda(ergs/cm^s/s/nm)
300.00 4.36
300.10 4.355
300.20 4.35
300.30 4.345
300.40 4.341
300.50 4.336
300.60 4.331
300.70 4.327
300.80 4.322
300.90 4.317
301.00 4.313
301.10 4.308
301.20 4.303
301.30 4.299
301.40 4.294
301.50 4.29
301.60 4.285
301.70 4.28
301.80 4.276
301.90 4.271
302.00 4.267
302.10 4.262
302.20 4.257
302.30 4.253
302.40 4.248
302.50 4.244
302.60 4.239
302.70 4.235
302.80 4.23
302.90 4.226
303.00 4.221
303.10 4.216
303.20 4.212
303.30 4.207
303.40 4.203
303.50 4.198
303.60 4.194
303.70 4.189
303.80 4.185
303.90 4.181
304.00 4.176
304.10 4.172
304.20 4.167
304.30 4.163
304.40 4.158
304.50 4.154
304.60 4.149
304.70 4.145
304.80 4.141
304.90 4.136
305.00 4.132
305.10 4.127
305.20 4.123
305.30 4.119
305.40 4.114
305.50 4.11
305.60 4.105
305.70 4.101
305.80 4.097
305.90 4.092
306.00 4.088
306.10 4.084
306.20 4.079
306.30 4.075
306.40 4.071
306.50 4.066
306.60 4.062
306.70 4.058
306.80 4.054
306.90 4.049
307.00 4.045
307.10 4.041
307.20 4.036
307.30 4.032
307.40 4.028
307.50 4.024
307.60 4.019
307.70 4.015
307.80 4.011
307.90 4.007
308.00 4.002
308.10 3.998
308.20 3.994
308.30 3.99
308.40 3.986
308.50 3.981
308.60 3.977
308.70 3.973
308.80 3.969
308.90 3.965
309.00 3.96
309.10 3.956
309.20 3.952
309.30 3.948
309.40 3.944
309.50 3.94
309.60 3.936
309.70 3.931
309.80 3.927
309.90 3.923
310.00 3.919
310.10 3.915
310.20 3.911
310.30 3.907
310.40 3.903
310.50 3.899
310.60 3.895
310.70 3.89
310.80 3.886
310.90 3.882
311.00 3.878
311.10 3.874
311.20 3.87
311.30 3.866
311.40 3.862
311.50 3.858
311.60 3.854
311.70 3.85
311.80 3.846
311.90 3.842
312.00 3.838
312.10 3.834
312.20 3.83
312.30 3.826
312.40 3.822
312.50 3.818
312.60 3.814
312.70 3.81
312.80 3.806
312.90 3.802
313.00 3.798
313.10 3.794
313.20 3.79
313.30 3.786
313.40 3.782
313.50 3.779
313.60 3.775
313.70 3.771
313.80 3.767
313.90 3.763
314.00 3.759
314.10 3.755
314.20 3.751
314.30 3.747
314.40 3.743
314.50 3.74
314.60 3.736
314.70 3.732
314.80 3.728
314.90 3.724
315.00 3.72
315.10 3.716
315.20 3.713
315.30 3.709
315.40 3.705
315.50 3.701
315.60 3.697
315.70 3.693
315.80 3.69
315.90 3.686
316.00 3.682
316.10 3.678
316.20 3.674
316.30 3.671
316.40 3.667
316.50 3.663
316.60 3.659
316.70 3.656
316.80 3.652
316.90 3.648
317.00 3.644
317.10 3.641
317.20 3.637
317.30 3.633
317.40 3.629
317.50 3.626
317.60 3.622
317.70 3.618
317.80 3.615
317.90 3.611
318.00 3.607
318.10 3.603
318.20 3.6
318.30 3.596
318.40 3.592
318.50 3.589
318.60 3.585
318.70 3.581
318.80 3.578
318.90 3.574
319.00 3.57
319.10 3.567
319.20 3.563
319.30 3.56
319.40 3.556
319.50 3.552
319.60 3.549
319.70 3.545
319.80 3.541
319.90 3.538
320.00 3.534
320.10 3.531
320.20 3.527
320.30 3.523
320.40 3.52
320.50 3.516
320.60 3.513
320.70 3.509
320.80 3.506
320.90 3.502
321.00 3.498
321.10 3.495
321.20 3.491
321.30 3.488
321.40 3.484
321.50 3.481
321.60 3.477
321.70 3.474
321.80 3.47
321.90 3.467
322.00 3.463
322.10 3.46
322.20 3.456
322.30 3.453
322.40 3.449
322.50 3.446
322.60 3.442
322.70 3.439
322.80 3.435
322.90 3.432
323.00 3.428
323.10 3.425
323.20 3.421
323.30 3.418
323.40 3.414
323.50 3.411
323.60 3.408
323.70 3.404
323.80 3.401
323.90 3.397
324.00 3.394
324.10 3.39
324.20 3.387
324.30 3.384
324.40 3.38
324.50 3.377
324.60 3.373
324.70 3.37
324.80 3.367
324.90 3.363
325.00 3.36
325.10 3.357
325.20 3.353
325.30 3.35
325.40 3.346
325.50 3.343
325.60 3.34
325.70 3.336
325.80 3.333
325.90 3.33
326.00 3.326
326.10 3.323
326.20 3.32
326.30 3.316
326.40 3.313
326.50 3.31
326.60 3.306
326.70 3.303
326.80 3.3
326.90 3.297
327.00 3.293
327.10 3.29
327.20 3.287
327.30 3.283
327.40 3.28
327.50 3.277
327.60 3.274
327.70 3.27
327.80 3.267
327.90 3.264
328.00 3.261
328.10 3.257
328.20 3.254
328.30 3.251
328.40 3.248
328.50 3.244
328.60 3.241
328.70 3.238
328.80 3.235
328.90 3.232
329.00 3.228
329.10 3.225
329.20 3.222
329.30 3.219
329.40 3.216
329.50 3.212
329.60 3.209
329.70 3.206
329.80 3.203
329.90 3.2
330.00 3.197
330.10 3.193
330.20 3.19
330.30 3.187
330.40 3.184
330.50 3.181
330.60 3.178
330.70 3.175
330.80 3.171
330.90 3.168
331.00 3.165
331.10 3.162
331.20 3.159
331.30 3.156
331.40 3.153
331.50 3.15
331.60 3.146
331.70 3.143
331.80 3.14
331.90 3.137
332.00 3.134
332.10 3.131
332.20 3.128
332.30 3.125
332.40 3.122
332.50 3.119
332.60 3.116
332.70 3.113
332.80 3.109
332.90 3.106
333.00 3.103
333.10 3.1
333.20 3.097
333.30 3.094
333.40 3.091
333.50 3.088
333.60 3.085
333.70 3.082
333.80 3.079
333.90 3.076
334.00 3.073
334.10 3.07
334.20 3.067
334.30 3.064
334.40 3.061
334.50 3.058
334.60 3.055
334.70 3.052
334.80 3.049
334.90 3.046
335.00 3.043
335.10 3.04
335.20 3.037
335.30 3.034
335.40 3.031
335.50 3.028
335.60 3.025
335.70 3.022
335.80 3.02
335.90 3.017
336.00 3.014
336.10 3.011
336.20 3.008
336.30 3.005
336.40 3.002
336.50 2.999
336.60 2.996
336.70 2.993
336.80 2.99
336.90 2.987
337.00 2.984
337.10 2.982
337.20 2.979
337.30 2.976
337.40 2.973
337.50 2.97
337.60 2.967
337.70 2.964
337.80 2.961
337.90 2.959
338.00 2.956
338.10 2.953
338.20 2.95
338.30 2.947
338.40 2.944
338.50 2.941
338.60 2.939
338.70 2.936
338.80 2.933
338.90 2.93
339.00 2.927
339.10 2.924
339.20 2.922
339.30 2.919
339.40 2.916
339.50 2.913
339.60 2.91
339.70 2.908
339.80 2.905
339.90 2.902
340.00 2.899
340.10 2.896
340.20 2.894
340.30 2.891
340.40 2.888
340.50 2.885
340.60 2.882
340.70 2.88
340.80 2.877
340.90 2.874
341.00 2.871
341.10 2.869
341.20 2.866
341.30 2.863
341.40 2.86
341.50 2.858
341.60 2.855
341.70 2.852
341.80 2.849
341.90 2.847
342.00 2.844
342.10 2.841
342.20 2.838
342.30 2.836
342.40 2.833
342.50 2.83
342.60 2.828
342.70 2.825
342.80 2.822
342.90 2.82
343.00 2.817
343.10 2.814
343.20 2.812
343.30 2.809
343.40 2.806
343.50 2.803
343.60 2.801
343.70 2.798
343.80 2.795
343.90 2.793
344.00 2.79
344.10 2.787
344.20 2.785
344.30 2.782
344.40 2.78
344.50 2.777
344.60 2.774
344.70 2.772
344.80 2.769
344.90 2.766
345.00 2.764
345.10 2.761
345.20 2.758
345.30 2.756
345.40 2.753
345.50 2.751
345.60 2.748
345.70 2.745
345.80 2.743
345.90 2.74
346.00 2.738
346.10 2.735
346.20 2.732
346.30 2.73
346.40 2.727
346.50 2.725
346.60 2.722
346.70 2.719
346.80 2.717
346.90 2.714
347.00 2.712
347.10 2.709
347.20 2.707
347.30 2.704
347.40 2.702
347.50 2.699
347.60 2.696
347.70 2.694
347.80 2.691
347.90 2.689
348.00 2.686
348.10 2.684
348.20 2.681
348.30 2.679
348.40 2.676
348.50 2.674
348.60 2.671
348.70 2.669
348.80 2.666
348.90 2.664
349.00 2.661
349.10 2.659
349.20 2.656
349.30 2.654
349.40 2.651
349.50 2.649
349.60 2.646
349.70 2.644
349.80 2.641
349.90 2.639
350.00 2.636
350.10 2.634
350.20 2.631
350.30 2.629
350.40 2.626
350.50 2.624
350.60 2.621
350.70 2.619
350.80 2.617
350.90 2.614
351.00 2.612
351.10 2.609
351.20 2.607
351.30 2.604
351.40 2.602
351.50 2.599
351.60 2.597
351.70 2.595
351.80 2.592
351.90 2.59
352.00 2.587
352.10 2.585
352.20 2.583
352.30 2.58
352.40 2.578
352.50 2.575
352.60 2.573
352.70 2.571
352.80 2.568
352.90 2.566
353.00 2.563
353.10 2.561
353.20 2.559
353.30 2.556
353.40 2.554
353.50 2.551
353.60 2.549
353.70 2.547
353.80 2.544
353.90 2.542
354.00 2.54
354.10 2.537
354.20 2.535
354.30 2.533
354.40 2.53
354.50 2.528
354.60 2.526
354.70 2.523
354.80 2.521
354.90 2.519
355.00 2.516
355.10 2.514
355.20 2.512
355.30 2.509
355.40 2.507
355.50 2.505
355.60 2.502
355.70 2.5
355.80 2.498
355.90 2.495
356.00 2.493
356.10 2.491
356.20 2.488
356.30 2.486
356.40 2.484
356.50 2.482
356.60 2.479
356.70 2.477
356.80 2.475
356.90 2.472
357.00 2.47
357.10 2.468
357.20 2.466
357.30 2.463
357.40 2.461
357.50 2.459
357.60 2.457
357.70 2.454
357.80 2.452
357.90 2.45
358.00 2.447
358.10 2.445
358.20 2.443
358.30 2.441
358.40 2.439
358.50 2.436
358.60 2.434
358.70 2.432
358.80 2.43
358.90 2.427
359.00 2.425
359.10 2.423
359.20 2.421
359.30 2.418
359.40 2.416
359.50 2.414
359.60 2.412
359.70 2.41
359.80 2.407
359.90 2.405
360.00 2.403
360.10 2.401
360.20 2.399
360.30 2.396
360.40 2.394
360.50 2.392
360.60 2.39
360.70 2.388
360.80 2.386
360.90 2.383
361.00 2.381
361.10 2.379
361.20 2.377
361.30 2.375
361.40 2.373
361.50 2.37
361.60 2.368
361.70 2.366
361.80 2.364
361.90 2.362
362.00 2.36
362.10 2.357
362.20 2.355
362.30 2.353
362.40 2.351
362.50 2.349
362.60 2.347
362.70 2.345
362.80 2.343
362.90 2.34
363.00 2.338
363.10 2.336
363.20 2.334
363.30 2.332
363.40 2.33
363.50 2.328
363.60 2.326
363.70 2.323
363.80 2.321
363.90 2.319
364.00 2.317
364.10 2.315
364.20 2.313
364.30 2.311
364.40 2.309
364.50 2.307
364.60 2.305
364.70 2.303
364.80 2.3
364.90 2.298
365.00 2.296
365.10 2.294
365.20 2.292
365.30 2.29
365.40 2.288
365.50 2.286
365.60 2.284
365.70 2.282
365.80 2.28
365.90 2.278
366.00 2.276
366.10 2.273
366.20 2.271
366.30 2.269
366.40 2.267
366.50 2.264
366.60 2.262
366.70 2.26
366.80 2.258
366.90 2.256
367.00 2.253
367.10 2.251
367.20 2.249
367.30 2.247
367.40 2.244
367.50 2.242
367.60 2.24
367.70 2.238
367.80 2.236
367.90 2.233
368.00 2.231
368.10 2.229
368.20 2.226
368.30 2.224
368.40 2.222
368.50 2.219
368.60 2.217
368.70 2.215
368.80 2.213
368.90 2.21
369.00 2.208
369.10 2.206
369.20 2.203
369.30 2.201
369.40 2.199
369.50 2.196
369.60 2.194
369.70 2.192
369.80 2.19
369.90 2.187
370.00 2.185
370.10 2.183
370.20 2.181
370.30 2.178
370.40 2.176
370.50 2.174
370.60 2.172
370.70 2.17
370.80 2.167
370.90 2.165
371.00 2.163
371.10 2.161
371.20 2.159
371.30 2.157
371.40 2.154
371.50 2.152
371.60 2.15
371.70 2.148
371.80 2.146
371.90 2.144
372.00 2.141
372.10 2.139
372.20 2.138
372.30 2.136
372.40 2.134
372.50 2.132
372.60 2.13
372.70 2.128
372.80 2.126
372.90 2.124
373.00 2.122
373.10 2.12
373.20 2.118
373.30 2.116
373.40 2.114
373.50 2.112
373.60 2.11
373.70 2.108
373.80 2.106
373.90 2.104
374.00 2.103
374.10 2.101
374.20 2.099
374.30 2.097
374.40 2.095
374.50 2.093
374.60 2.091
374.70 2.089
374.80 2.087
374.90 2.085
375.00 2.083
375.10 2.081
375.20 2.079
375.30 2.077
375.40 2.075
375.50 2.073
375.60 2.071
375.70 2.069
375.80 2.067
375.90 2.065
376.00 2.063
376.10 2.061
376.20 2.059
376.30 2.057
376.40 2.055
376.50 2.053
376.60 2.051
376.70 2.05
376.80 2.048
376.90 2.046
377.00 2.044
377.10 2.042
377.20 2.041
377.30 2.039
377.40 2.038
377.50 2.036
377.60 2.034
377.70 2.033
377.80 2.031
377.90 2.03
378.00 2.028
378.10 2.026
378.20 2.025
378.30 2.023
378.40 2.021
378.50 2.02
378.60 2.018
378.70 2.016
378.80 2.015
378.90 2.013
379.00 2.011
379.10 2.01
379.20 2.008
379.30 2.006
379.40 2.005
379.50 2.003
379.60 2.001
379.70 2
379.80 1.998
379.90 1.997
380.00 1.995
380.10 1.994
380.20 1.993
380.30 1.992
380.40 1.991
380.50 1.99
380.60 1.989
380.70 1.988
380.80 1.987
380.90 1.985
381.00 1.984
381.10 1.983
381.20 1.982
381.30 1.98
381.40 1.979
381.50 1.978
381.60 1.976
381.70 1.975
381.80 1.973
381.90 1.971
382.00 1.969
382.10 1.968
382.20 1.966
382.30 1.963
382.40 1.961
382.50 1.959
382.60 1.957
382.70 1.955
382.80 1.953
382.90 1.95
383.00 1.948
383.10 1.946
383.20 1.944
383.30 1.942
383.40 1.94
383.50 1.938
383.60 1.937
383.70 1.937
383.80 1.937
383.90 1.937
384.00 1.938
384.10 1.938
384.20 1.938
384.30 1.938
384.40 1.938
384.50 1.939
384.60 1.939
384.70 1.938
384.80 1.938
384.90 1.938
385.00 1.938
385.10 1.937
385.20 1.937
385.30 1.936
385.40 1.935
385.50 1.934
385.60 1.933
385.70 1.932
385.80 1.931
385.90 1.929
386.00 1.928
386.10 1.926
386.20 1.924
386.30 1.922
386.40 1.92
386.50 1.918
386.60 1.916
386.70 1.913
386.80 1.91
386.90 1.908
387.00 1.905
387.10 1.902
387.20 1.899
387.30 1.895
387.40 1.892
387.50 1.888
387.60 1.885
387.70 1.881
387.80 1.877
387.90 1.873
388.00 1.869
388.10 1.865
388.20 1.861
388.30 1.856
388.40 1.852
388.50 1.848
388.60 1.844
388.70 1.841
388.80 1.838
388.90 1.836
389.00 1.837
389.10 1.838
389.20 1.84
389.30 1.843
389.40 1.845
389.50 1.848
389.60 1.851
389.70 1.854
389.80 1.857
389.90 1.859
390.00 1.862
390.10 1.864
390.20 1.867
390.30 1.869
390.40 1.871
390.50 1.873
390.60 1.875
390.70 1.877
390.80 1.878
390.90 1.88
391.00 1.881
391.10 1.882
391.20 1.883
391.30 1.884
391.40 1.884
391.50 1.884
391.60 1.884
391.70 1.884
391.80 1.884
391.90 1.884
392.00 1.883
392.10 1.882
392.20 1.881
392.30 1.88
392.40 1.879
392.50 1.877
392.60 1.875
392.70 1.873
392.80 1.871
392.90 1.869
393.00 1.866
393.10 1.863
393.20 1.86
393.30 1.857
393.40 1.854
393.50 1.85
393.60 1.846
393.70 1.842
393.80 1.837
393.90 1.833
394.00 1.828
394.10 1.823
394.20 1.818
394.30 1.812
394.40 1.807
394.50 1.801
394.60 1.795
394.70 1.788
394.80 1.782
394.90 1.775
395.00 1.768
395.10 1.76
395.20 1.753
395.30 1.745
395.40 1.737
395.50 1.729
395.60 1.72
395.70 1.711
395.80 1.702
395.90 1.693
396.00 1.684
396.10 1.674
396.20 1.664
396.30 1.654
396.40 1.644
396.50 1.634
396.60 1.623
396.70 1.613
396.80 1.603
396.90 1.593
397.00 1.583
397.10 1.591
397.20 1.599
397.30 1.607
397.40 1.616
397.50 1.625
397.60 1.634
397.70 1.643
397.80 1.652
397.90 1.66
398.00 1.668
398.10 1.677
398.20 1.685
398.30 1.692
398.40 1.7
398.50 1.707
398.60 1.714
398.70 1.721
398.80 1.728
398.90 1.734
399.00 1.74
399.10 1.746
399.20 1.752
399.30 1.758
399.40 1.763
399.50 1.768
399.60 1.773
399.70 1.778
399.80 1.783
399.90 1.787
400.00 1.792
400.10 1.796
400.20 1.799
400.30 1.803
400.40 1.807
400.50 1.81
400.60 1.813
400.70 1.816
400.80 1.818
400.90 1.821
401.00 1.823
401.10 1.825
401.20 1.827
401.30 1.829
401.40 1.831
401.50 1.832
401.60 1.833
401.70 1.834
401.80 1.835
401.90 1.836
402.00 1.837
402.10 1.837
402.20 1.837
402.30 1.837
402.40 1.837
402.50 1.836
402.60 1.836
402.70 1.835
402.80 1.834
402.90 1.833
403.00 1.832
403.10 1.831
403.20 1.829
403.30 1.827
403.40 1.825
403.50 1.823
403.60 1.821
403.70 1.818
403.80 1.815
403.90 1.813
404.00 1.81
404.10 1.806
404.20 1.803
404.30 1.799
404.40 1.795
404.50 1.792
404.60 1.787
404.70 1.783
404.80 1.778
404.90 1.774
405.00 1.769
405.10 1.763
405.20 1.758
405.30 1.753
405.40 1.747
405.50 1.741
405.60 1.735
405.70 1.728
405.80 1.722
405.90 1.715
406.00 1.708
406.10 1.701
406.20 1.693
406.30 1.686
406.40 1.678
406.50 1.669
406.60 1.661
406.70 1.653
406.80 1.644
406.90 1.635
407.00 1.626
407.10 1.616
407.20 1.607
407.30 1.597
407.40 1.586
407.50 1.576
407.60 1.566
407.70 1.555
407.80 1.544
407.90 1.532
408.00 1.521
408.10 1.509
408.20 1.497
408.30 1.484
408.40 1.472
408.50 1.459
408.60 1.446
408.70 1.432
408.80 1.419
408.90 1.405
409.00 1.39
409.10 1.376
409.20 1.361
409.30 1.346
409.40 1.331
409.50 1.315
409.60 1.3
409.70 1.284
409.80 1.269
409.90 1.254
410.00 1.242
410.10 1.236
410.20 1.234
410.30 1.237
410.40 1.245
410.50 1.256
410.60 1.27
410.70 1.284
410.80 1.298
410.90 1.311
411.00 1.325
411.10 1.339
411.20 1.351
411.30 1.364
411.40 1.377
411.50 1.389
411.60 1.401
411.70 1.412
411.80 1.424
411.90 1.435
412.00 1.445
412.10 1.456
412.20 1.466
412.30 1.476
412.40 1.486
412.50 1.495
412.60 1.504
412.70 1.513
412.80 1.522
412.90 1.531
413.00 1.539
413.10 1.547
413.20 1.555
413.30 1.563
413.40 1.57
413.50 1.578
413.60 1.585
413.70 1.592
413.80 1.598
413.90 1.605
414.00 1.611
414.10 1.617
414.20 1.623
414.30 1.629
414.40 1.635
414.50 1.64
414.60 1.646
414.70 1.651
414.80 1.656
414.90 1.661
415.00 1.665
415.10 1.67
415.20 1.674
415.30 1.678
415.40 1.682
415.50 1.686
415.60 1.69
415.70 1.694
415.80 1.697
415.90 1.701
416.00 1.704
416.10 1.707
416.20 1.71
416.30 1.713
416.40 1.716
416.50 1.718
416.60 1.721
416.70 1.723
416.80 1.726
416.90 1.728
417.00 1.73
417.10 1.732
417.20 1.734
417.30 1.736
417.40 1.738
417.50 1.739
417.60 1.741
417.70 1.742
417.80 1.743
417.90 1.745
418.00 1.746
418.10 1.747
418.20 1.748
418.30 1.749
418.40 1.75
418.50 1.751
418.60 1.751
418.70 1.752
418.80 1.752
418.90 1.753
419.00 1.753
419.10 1.754
419.20 1.754
419.30 1.754
419.40 1.754
419.50 1.754
419.60 1.754
419.70 1.754
419.80 1.754
419.90 1.754
420.00 1.754
420.10 1.753
420.20 1.753
420.30 1.753
420.40 1.752
420.50 1.751
420.60 1.751
420.70 1.75
420.80 1.749
420.90 1.749
421.00 1.748
421.10 1.747
421.20 1.746
421.30 1.745
421.40 1.744
421.50 1.743
421.60 1.742
421.70 1.741
421.80 1.739
421.90 1.738
422.00 1.737
422.10 1.735
422.20 1.734
422.30 1.732
422.40 1.73
422.50 1.729
422.60 1.727
422.70 1.725
422.80 1.724
422.90 1.722
423.00 1.72
423.10 1.718
423.20 1.716
423.30 1.714
423.40 1.711
423.50 1.709
423.60 1.707
423.70 1.705
423.80 1.702
423.90 1.7
424.00 1.697
424.10 1.695
424.20 1.692
424.30 1.689
424.40 1.687
424.50 1.684
424.60 1.681
424.70 1.678
424.80 1.675
424.90 1.672
425.00 1.668
425.10 1.665
425.20 1.662
425.30 1.658
425.40 1.655
425.50 1.651
425.60 1.648
425.70 1.644
425.80 1.64
425.90 1.636
426.00 1.632
426.10 1.628
426.20 1.624
426.30 1.62
426.40 1.616
426.50 1.611
426.60 1.607
426.70 1.602
426.80 1.598
426.90 1.593
427.00 1.588
427.10 1.583
427.20 1.578
427.30 1.573
427.40 1.567
427.50 1.562
427.60 1.557
427.70 1.551
427.80 1.545
427.90 1.539
428.00 1.533
428.10 1.527
428.20 1.521
428.30 1.515
428.40 1.509
428.50 1.502
428.60 1.495
428.70 1.489
428.80 1.482
428.90 1.475
429.00 1.468
429.10 1.461
429.20 1.453
429.30 1.446
429.40 1.438
429.50 1.43
429.60 1.422
429.70 1.415
429.80 1.406
429.90 1.398
430.00 1.39
430.10 1.381
430.20 1.372
430.30 1.364
430.40 1.355
430.50 1.345
430.60 1.336
430.70 1.327
430.80 1.317
430.90 1.307
431.00 1.298
431.10 1.288
431.20 1.277
431.30 1.267
431.40 1.256
431.50 1.246
431.60 1.235
431.70 1.224
431.80 1.212
431.90 1.201
432.00 1.189
432.10 1.177
432.20 1.165
432.30 1.152
432.40 1.14
432.50 1.127
432.60 1.113
432.70 1.1
432.80 1.086
432.90 1.071
433.00 1.057
433.10 1.041
433.20 1.026
433.30 1.009
433.40 0.9918
433.50 0.9737
433.60 0.9548
433.70 0.934
433.80 0.9113
433.90 0.8869
434.00 0.8498
434.10 0.85
434.20 0.8873
434.30 0.9103
434.40 0.9315
434.50 0.9509
434.60 0.9684
434.70 0.9851
434.80 1.001
434.90 1.016
435.00 1.03
435.10 1.044
435.20 1.057
435.30 1.07
435.40 1.082
435.50 1.094
435.60 1.105
435.70 1.117
435.80 1.128
435.90 1.138
436.00 1.149
436.10 1.159
436.20 1.169
436.30 1.178
436.40 1.188
436.50 1.197
436.60 1.206
436.70 1.215
436.80 1.223
436.90 1.232
437.00 1.24
437.10 1.248
437.20 1.256
437.30 1.263
437.40 1.271
437.50 1.278
437.60 1.285
437.70 1.292
437.80 1.299
437.90 1.305
438.00 1.312
438.10 1.318
438.20 1.325
438.30 1.331
438.40 1.336
438.50 1.342
438.60 1.348
438.70 1.353
438.80 1.359
438.90 1.364
439.00 1.369
439.10 1.374
439.20 1.379
439.30 1.383
439.40 1.388
439.50 1.392
439.60 1.397
439.70 1.401
439.80 1.405
439.90 1.409
440.00 1.413
440.10 1.417
440.20 1.42
440.30 1.424
440.40 1.427
440.50 1.43
440.60 1.434
440.70 1.437
440.80 1.44
440.90 1.443
441.00 1.445
441.10 1.448
441.20 1.451
441.30 1.453
441.40 1.456
441.50 1.458
441.60 1.46
441.70 1.462
441.80 1.465
441.90 1.467
442.00 1.468
442.10 1.47
442.20 1.472
442.30 1.474
442.40 1.475
442.50 1.477
442.60 1.478
442.70 1.48
442.80 1.481
442.90 1.483
443.00 1.484
443.10 1.485
443.20 1.486
443.30 1.487
443.40 1.488
443.50 1.489
443.60 1.49
443.70 1.491
443.80 1.492
443.90 1.492
444.00 1.493
444.10 1.494
444.20 1.494
444.30 1.495
444.40 1.495
444.50 1.496
444.60 1.496
444.70 1.496
444.80 1.497
444.90 1.497
445.00 1.497
445.10 1.498
445.20 1.498
445.30 1.498
445.40 1.498
445.50 1.498
445.60 1.498
445.70 1.498
445.80 1.498
445.90 1.498
446.00 1.498
446.10 1.498
446.20 1.498
446.30 1.498
446.40 1.498
446.50 1.498
446.60 1.497
446.70 1.497
446.80 1.497
446.90 1.497
447.00 1.496
447.10 1.496
447.20 1.496
447.30 1.495
447.40 1.495
447.50 1.495
447.60 1.494
447.70 1.494
447.80 1.493
447.90 1.493
448.00 1.493
448.10 1.492
448.20 1.492
448.30 1.491
448.40 1.49
448.50 1.49
448.60 1.489
448.70 1.489
448.80 1.488
448.90 1.488
449.00 1.487
449.10 1.486
449.20 1.486
449.30 1.485
449.40 1.484
449.50 1.484
449.60 1.483
449.70 1.482
449.80 1.482
449.90 1.481
450.00 1.48
450.10 1.48
450.20 1.479
450.30 1.478
450.40 1.477
450.50 1.477
450.60 1.476
450.70 1.475
450.80 1.474
450.90 1.473
451.00 1.473
451.10 1.472
451.20 1.471
451.30 1.47
451.40 1.469
451.50 1.468
451.60 1.468
451.70 1.467
451.80 1.466
451.90 1.465
452.00 1.464
452.10 1.463
452.20 1.462
452.30 1.461
452.40 1.461
452.50 1.46
452.60 1.459
452.70 1.458
452.80 1.457
452.90 1.456
453.00 1.455
453.10 1.454
453.20 1.453
453.30 1.452
453.40 1.451
453.50 1.45
453.60 1.449
453.70 1.448
453.80 1.447
453.90 1.446
