# Version 2.1 - nm, norm@500 to 1, cut digits, bergeron_10500_90.dat_10500
# Wavelength(nm)  Flambda(ergs/cm^s/s/nm)
300.00 1.948
300.10 1.947
300.20 1.946
300.30 1.946
300.40 1.945
300.50 1.944
300.60 1.943
300.70 1.942
300.80 1.942
300.90 1.941
301.00 1.94
301.10 1.939
301.20 1.938
301.30 1.938
301.40 1.937
301.50 1.936
301.60 1.935
301.70 1.934
301.80 1.934
301.90 1.933
302.00 1.932
302.10 1.931
302.20 1.93
302.30 1.93
302.40 1.929
302.50 1.928
302.60 1.927
302.70 1.926
302.80 1.926
302.90 1.925
303.00 1.924
303.10 1.923
303.20 1.922
303.30 1.921
303.40 1.921
303.50 1.92
303.60 1.919
303.70 1.918
303.80 1.917
303.90 1.917
304.00 1.916
304.10 1.915
304.20 1.914
304.30 1.913
304.40 1.913
304.50 1.912
304.60 1.911
304.70 1.91
304.80 1.909
304.90 1.909
305.00 1.908
305.10 1.907
305.20 1.906
305.30 1.905
305.40 1.905
305.50 1.904
305.60 1.903
305.70 1.902
305.80 1.901
305.90 1.901
306.00 1.9
306.10 1.899
306.20 1.898
306.30 1.897
306.40 1.897
306.50 1.896
306.60 1.895
306.70 1.894
306.80 1.893
306.90 1.892
307.00 1.892
307.10 1.891
307.20 1.89
307.30 1.889
307.40 1.888
307.50 1.888
307.60 1.887
307.70 1.886
307.80 1.885
307.90 1.884
308.00 1.884
308.10 1.883
308.20 1.882
308.30 1.881
308.40 1.88
308.50 1.88
308.60 1.879
308.70 1.878
308.80 1.877
308.90 1.876
309.00 1.876
309.10 1.875
309.20 1.874
309.30 1.873
309.40 1.872
309.50 1.872
309.60 1.871
309.70 1.87
309.80 1.869
309.90 1.868
310.00 1.868
310.10 1.867
310.20 1.866
310.30 1.865
310.40 1.864
310.50 1.864
310.60 1.863
310.70 1.862
310.80 1.861
310.90 1.86
311.00 1.86
311.10 1.859
311.20 1.858
311.30 1.857
311.40 1.856
311.50 1.856
311.60 1.855
311.70 1.854
311.80 1.853
311.90 1.852
312.00 1.852
312.10 1.851
312.20 1.85
312.30 1.849
312.40 1.848
312.50 1.848
312.60 1.847
312.70 1.846
312.80 1.845
312.90 1.844
313.00 1.844
313.10 1.843
313.20 1.842
313.30 1.841
313.40 1.84
313.50 1.839
313.60 1.839
313.70 1.838
313.80 1.837
313.90 1.836
314.00 1.836
314.10 1.835
314.20 1.834
314.30 1.833
314.40 1.832
314.50 1.831
314.60 1.831
314.70 1.83
314.80 1.829
314.90 1.828
315.00 1.828
315.10 1.827
315.20 1.826
315.30 1.825
315.40 1.824
315.50 1.824
315.60 1.823
315.70 1.822
315.80 1.821
315.90 1.82
316.00 1.82
316.10 1.819
316.20 1.818
316.30 1.817
316.40 1.816
316.50 1.816
316.60 1.815
316.70 1.814
316.80 1.813
316.90 1.812
317.00 1.812
317.10 1.811
317.20 1.81
317.30 1.809
317.40 1.808
317.50 1.808
317.60 1.807
317.70 1.806
317.80 1.805
317.90 1.804
318.00 1.804
318.10 1.803
318.20 1.802
318.30 1.801
318.40 1.8
318.50 1.8
318.60 1.799
318.70 1.798
318.80 1.797
318.90 1.796
319.00 1.796
319.10 1.795
319.20 1.794
319.30 1.793
319.40 1.792
319.50 1.792
319.60 1.791
319.70 1.79
319.80 1.789
319.90 1.789
320.00 1.788
320.10 1.787
320.20 1.786
320.30 1.785
320.40 1.785
320.50 1.784
320.60 1.783
320.70 1.782
320.80 1.781
320.90 1.781
321.00 1.78
321.10 1.779
321.20 1.778
321.30 1.777
321.40 1.777
321.50 1.776
321.60 1.775
321.70 1.774
321.80 1.773
321.90 1.773
322.00 1.772
322.10 1.771
322.20 1.77
322.30 1.77
322.40 1.769
322.50 1.768
322.60 1.767
322.70 1.766
322.80 1.766
322.90 1.765
323.00 1.764
323.10 1.763
323.20 1.762
323.30 1.762
323.40 1.761
323.50 1.76
323.60 1.759
323.70 1.758
323.80 1.758
323.90 1.757
324.00 1.756
324.10 1.755
324.20 1.755
324.30 1.754
324.40 1.753
324.50 1.752
324.60 1.751
324.70 1.751
324.80 1.75
324.90 1.749
325.00 1.748
325.10 1.747
325.20 1.747
325.30 1.746
325.40 1.745
325.50 1.744
325.60 1.744
325.70 1.743
325.80 1.742
325.90 1.741
326.00 1.74
326.10 1.74
326.20 1.739
326.30 1.738
326.40 1.737
326.50 1.736
326.60 1.736
326.70 1.735
326.80 1.734
326.90 1.733
327.00 1.733
327.10 1.732
327.20 1.731
327.30 1.73
327.40 1.729
327.50 1.729
327.60 1.728
327.70 1.727
327.80 1.726
327.90 1.726
328.00 1.725
328.10 1.724
328.20 1.723
328.30 1.722
328.40 1.722
328.50 1.721
328.60 1.72
328.70 1.719
328.80 1.718
328.90 1.718
329.00 1.717
329.10 1.716
329.20 1.715
329.30 1.715
329.40 1.714
329.50 1.713
329.60 1.712
329.70 1.712
329.80 1.711
329.90 1.71
330.00 1.709
330.10 1.708
330.20 1.708
330.30 1.707
330.40 1.706
330.50 1.705
330.60 1.705
330.70 1.704
330.80 1.703
330.90 1.702
331.00 1.701
331.10 1.701
331.20 1.7
331.30 1.699
331.40 1.698
331.50 1.698
331.60 1.697
331.70 1.696
331.80 1.695
331.90 1.694
332.00 1.694
332.10 1.693
332.20 1.692
332.30 1.691
332.40 1.691
332.50 1.69
332.60 1.689
332.70 1.688
332.80 1.687
332.90 1.687
333.00 1.686
333.10 1.685
333.20 1.684
333.30 1.684
333.40 1.683
333.50 1.682
333.60 1.681
333.70 1.681
333.80 1.68
333.90 1.679
334.00 1.678
334.10 1.677
334.20 1.677
334.30 1.676
334.40 1.675
334.50 1.674
334.60 1.674
334.70 1.673
334.80 1.672
334.90 1.671
335.00 1.671
335.10 1.67
335.20 1.669
335.30 1.668
335.40 1.667
335.50 1.667
335.60 1.666
335.70 1.665
335.80 1.664
335.90 1.664
336.00 1.663
336.10 1.662
336.20 1.661
336.30 1.661
336.40 1.66
336.50 1.659
336.60 1.658
336.70 1.658
336.80 1.657
336.90 1.656
337.00 1.655
337.10 1.654
337.20 1.654
337.30 1.653
337.40 1.652
337.50 1.651
337.60 1.651
337.70 1.65
337.80 1.649
337.90 1.648
338.00 1.648
338.10 1.647
338.20 1.646
338.30 1.645
338.40 1.645
338.50 1.644
338.60 1.643
338.70 1.642
338.80 1.642
338.90 1.641
339.00 1.64
339.10 1.639
339.20 1.638
339.30 1.638
339.40 1.637
339.50 1.636
339.60 1.635
339.70 1.635
339.80 1.634
339.90 1.633
340.00 1.632
340.10 1.632
340.20 1.631
340.30 1.63
340.40 1.629
340.50 1.629
340.60 1.628
340.70 1.627
340.80 1.626
340.90 1.626
341.00 1.625
341.10 1.624
341.20 1.623
341.30 1.623
341.40 1.622
341.50 1.621
341.60 1.62
341.70 1.62
341.80 1.619
341.90 1.618
342.00 1.617
342.10 1.617
342.20 1.616
342.30 1.615
342.40 1.614
342.50 1.614
342.60 1.613
342.70 1.612
342.80 1.611
342.90 1.611
343.00 1.61
343.10 1.609
343.20 1.608
343.30 1.608
343.40 1.607
343.50 1.606
343.60 1.605
343.70 1.605
343.80 1.604
343.90 1.603
344.00 1.602
344.10 1.602
344.20 1.601
344.30 1.6
344.40 1.599
344.50 1.599
344.60 1.598
344.70 1.597
344.80 1.596
344.90 1.596
345.00 1.595
345.10 1.594
345.20 1.593
345.30 1.593
345.40 1.592
345.50 1.591
345.60 1.59
345.70 1.59
345.80 1.589
345.90 1.588
346.00 1.587
346.10 1.587
346.20 1.586
346.30 1.585
346.40 1.584
346.50 1.584
346.60 1.583
346.70 1.582
346.80 1.582
346.90 1.581
347.00 1.58
347.10 1.579
347.20 1.579
347.30 1.578
347.40 1.577
347.50 1.576
347.60 1.576
347.70 1.575
347.80 1.574
347.90 1.573
348.00 1.573
348.10 1.572
348.20 1.571
348.30 1.57
348.40 1.57
348.50 1.569
348.60 1.568
348.70 1.567
348.80 1.567
348.90 1.566
349.00 1.565
349.10 1.565
349.20 1.564
349.30 1.563
349.40 1.562
349.50 1.562
349.60 1.561
349.70 1.56
349.80 1.559
349.90 1.559
350.00 1.558
350.10 1.557
350.20 1.556
350.30 1.556
350.40 1.555
350.50 1.554
350.60 1.554
350.70 1.553
350.80 1.552
350.90 1.551
351.00 1.551
351.10 1.55
351.20 1.549
351.30 1.548
351.40 1.548
351.50 1.547
351.60 1.546
351.70 1.546
351.80 1.545
351.90 1.544
352.00 1.543
352.10 1.543
352.20 1.542
352.30 1.541
352.40 1.54
352.50 1.54
352.60 1.539
352.70 1.538
352.80 1.537
352.90 1.537
353.00 1.536
353.10 1.535
353.20 1.535
353.30 1.534
353.40 1.533
353.50 1.532
353.60 1.532
353.70 1.531
353.80 1.53
353.90 1.53
354.00 1.529
354.10 1.528
354.20 1.527
354.30 1.527
354.40 1.526
354.50 1.525
354.60 1.524
354.70 1.524
354.80 1.523
354.90 1.522
355.00 1.522
355.10 1.521
355.20 1.52
355.30 1.519
355.40 1.519
355.50 1.518
355.60 1.517
355.70 1.517
355.80 1.516
355.90 1.515
356.00 1.514
356.10 1.514
356.20 1.513
356.30 1.512
356.40 1.512
356.50 1.511
356.60 1.51
356.70 1.509
356.80 1.509
356.90 1.508
357.00 1.507
357.10 1.507
357.20 1.506
357.30 1.505
357.40 1.504
357.50 1.504
357.60 1.503
357.70 1.502
357.80 1.502
357.90 1.501
358.00 1.5
358.10 1.499
358.20 1.499
358.30 1.498
358.40 1.497
358.50 1.497
358.60 1.496
358.70 1.495
358.80 1.494
358.90 1.494
359.00 1.493
359.10 1.492
359.20 1.492
359.30 1.491
359.40 1.49
359.50 1.489
359.60 1.489
359.70 1.488
359.80 1.487
359.90 1.487
360.00 1.486
360.10 1.485
360.20 1.484
360.30 1.484
360.40 1.483
360.50 1.482
360.60 1.482
360.70 1.481
360.80 1.48
360.90 1.48
361.00 1.479
361.10 1.478
361.20 1.477
361.30 1.477
361.40 1.476
361.50 1.475
361.60 1.475
361.70 1.474
361.80 1.473
361.90 1.472
362.00 1.472
362.10 1.471
362.20 1.47
362.30 1.47
362.40 1.469
362.50 1.468
362.60 1.468
362.70 1.467
362.80 1.466
362.90 1.465
363.00 1.465
363.10 1.464
363.20 1.463
363.30 1.462
363.40 1.462
363.50 1.461
363.60 1.46
363.70 1.459
363.80 1.458
363.90 1.458
364.00 1.457
364.10 1.456
364.20 1.455
364.30 1.454
364.40 1.454
364.50 1.453
364.60 1.452
364.70 1.451
364.80 1.45
364.90 1.449
365.00 1.448
365.10 1.448
365.20 1.447
365.30 1.446
365.40 1.445
365.50 1.444
365.60 1.443
365.70 1.443
365.80 1.442
365.90 1.441
366.00 1.44
366.10 1.439
366.20 1.439
366.30 1.438
366.40 1.437
366.50 1.437
366.60 1.436
366.70 1.435
366.80 1.434
366.90 1.434
367.00 1.433
367.10 1.432
367.20 1.431
367.30 1.431
367.40 1.43
367.50 1.429
367.60 1.429
367.70 1.428
367.80 1.427
367.90 1.426
368.00 1.426
368.10 1.425
368.20 1.424
368.30 1.424
368.40 1.423
368.50 1.422
368.60 1.421
368.70 1.421
368.80 1.42
368.90 1.419
369.00 1.419
369.10 1.418
369.20 1.417
369.30 1.417
369.40 1.416
369.50 1.415
369.60 1.414
369.70 1.414
369.80 1.413
369.90 1.412
370.00 1.412
370.10 1.411
370.20 1.411
370.30 1.41
370.40 1.409
370.50 1.409
370.60 1.408
370.70 1.408
370.80 1.407
370.90 1.407
371.00 1.406
371.10 1.406
371.20 1.405
371.30 1.405
371.40 1.404
371.50 1.403
371.60 1.403
371.70 1.402
371.80 1.402
371.90 1.401
372.00 1.401
372.10 1.401
372.20 1.4
372.30 1.4
372.40 1.4
372.50 1.4
372.60 1.399
372.70 1.399
372.80 1.399
372.90 1.399
373.00 1.398
373.10 1.398
373.20 1.398
373.30 1.398
373.40 1.397
373.50 1.397
373.60 1.397
373.70 1.397
373.80 1.396
373.90 1.396
374.00 1.396
374.10 1.396
374.20 1.396
374.30 1.396
374.40 1.396
374.50 1.396
374.60 1.396
374.70 1.395
374.80 1.395
374.90 1.395
375.00 1.395
375.10 1.395
375.20 1.395
375.30 1.395
375.40 1.395
375.50 1.395
375.60 1.395
375.70 1.395
375.80 1.395
375.90 1.395
376.00 1.395
376.10 1.395
376.20 1.395
376.30 1.394
376.40 1.394
376.50 1.394
376.60 1.394
376.70 1.394
376.80 1.394
376.90 1.393
377.00 1.393
377.10 1.393
377.20 1.392
377.30 1.391
377.40 1.391
377.50 1.39
377.60 1.389
377.70 1.388
377.80 1.388
377.90 1.387
378.00 1.386
378.10 1.384
378.20 1.382
378.30 1.379
378.40 1.377
378.50 1.374
378.60 1.372
378.70 1.37
378.80 1.367
378.90 1.365
379.00 1.362
379.10 1.361
379.20 1.359
379.30 1.357
379.40 1.355
379.50 1.353
379.60 1.352
379.70 1.35
379.80 1.348
379.90 1.346
380.00 1.344
380.10 1.347
380.20 1.349
380.30 1.352
380.40 1.354
380.50 1.356
380.60 1.359
380.70 1.361
380.80 1.363
380.90 1.366
381.00 1.368
381.10 1.369
381.20 1.369
381.30 1.37
381.40 1.371
381.50 1.371
381.60 1.371
381.70 1.37
381.80 1.369
381.90 1.367
382.00 1.365
382.10 1.363
382.20 1.36
382.30 1.353
382.40 1.347
382.50 1.341
382.60 1.335
382.70 1.329
382.80 1.322
382.90 1.316
383.00 1.31
383.10 1.304
383.20 1.298
383.30 1.293
383.40 1.287
383.50 1.282
383.60 1.283
383.70 1.289
383.80 1.295
383.90 1.3
384.00 1.306
384.10 1.314
384.20 1.322
384.30 1.33
384.40 1.338
384.50 1.344
384.60 1.35
384.70 1.355
384.80 1.36
384.90 1.363
385.00 1.366
385.10 1.369
385.20 1.371
385.30 1.373
385.40 1.374
385.50 1.375
385.60 1.376
385.70 1.376
385.80 1.376
385.90 1.376
386.00 1.375
386.10 1.375
386.20 1.374
386.30 1.372
386.40 1.371
386.50 1.369
386.60 1.366
386.70 1.364
386.80 1.361
386.90 1.357
387.00 1.354
387.10 1.35
387.20 1.345
387.30 1.34
387.40 1.334
387.50 1.328
387.60 1.321
387.70 1.314
387.80 1.304
387.90 1.294
388.00 1.283
388.10 1.269
388.20 1.254
388.30 1.238
388.40 1.22
388.50 1.203
388.60 1.187
388.70 1.175
388.80 1.165
388.90 1.158
389.00 1.165
389.10 1.174
389.20 1.186
389.30 1.202
389.40 1.219
389.50 1.237
389.60 1.254
389.70 1.27
389.80 1.284
389.90 1.296
390.00 1.306
390.10 1.316
390.20 1.324
390.30 1.331
390.40 1.338
390.50 1.344
390.60 1.35
390.70 1.355
390.80 1.359
390.90 1.363
391.00 1.367
391.10 1.371
391.20 1.374
391.30 1.377
391.40 1.379
391.50 1.381
391.60 1.384
391.70 1.385
391.80 1.387
391.90 1.388
392.00 1.389
392.10 1.389
392.20 1.39
392.30 1.39
392.40 1.39
392.50 1.39
392.60 1.389
392.70 1.388
392.80 1.387
392.90 1.386
393.00 1.385
393.10 1.383
393.20 1.381
393.30 1.379
393.40 1.376
393.50 1.373
393.60 1.37
393.70 1.367
393.80 1.363
393.90 1.359
394.00 1.355
394.10 1.35
394.20 1.345
394.30 1.34
394.40 1.334
394.50 1.328
394.60 1.322
394.70 1.315
394.80 1.308
394.90 1.3
395.00 1.292
395.10 1.283
395.20 1.274
395.30 1.264
395.40 1.254
395.50 1.243
395.60 1.23
395.70 1.218
395.80 1.204
395.90 1.189
396.00 1.172
396.10 1.154
396.20 1.133
396.30 1.109
396.40 1.083
396.50 1.051
396.60 1.017
396.70 0.9818
396.80 0.9542
396.90 0.9279
397.00 0.903
397.10 0.9259
397.20 0.9503
397.30 0.9765
397.40 1.011
397.50 1.045
397.60 1.078
397.70 1.104
397.80 1.128
397.90 1.15
398.00 1.167
398.10 1.184
398.20 1.2
398.30 1.213
398.40 1.226
398.50 1.238
398.60 1.25
398.70 1.26
398.80 1.27
398.90 1.28
399.00 1.289
399.10 1.297
399.20 1.305
399.30 1.313
399.40 1.32
399.50 1.327
399.60 1.333
399.70 1.339
399.80 1.345
399.90 1.35
400.00 1.356
400.10 1.36
400.20 1.365
400.30 1.37
400.40 1.374
400.50 1.378
400.60 1.381
400.70 1.385
400.80 1.388
400.90 1.391
401.00 1.394
401.10 1.397
401.20 1.399
401.30 1.402
401.40 1.404
401.50 1.406
401.60 1.407
401.70 1.409
401.80 1.411
401.90 1.412
402.00 1.413
402.10 1.414
402.20 1.415
402.30 1.416
402.40 1.417
402.50 1.417
402.60 1.417
402.70 1.418
402.80 1.418
402.90 1.418
403.00 1.418
403.10 1.417
403.20 1.417
403.30 1.416
403.40 1.415
403.50 1.414
403.60 1.413
403.70 1.412
403.80 1.411
403.90 1.409
404.00 1.408
404.10 1.406
404.20 1.404
404.30 1.402
404.40 1.4
404.50 1.398
404.60 1.395
404.70 1.392
404.80 1.39
404.90 1.387
405.00 1.384
405.10 1.38
405.20 1.377
405.30 1.373
405.40 1.369
405.50 1.365
405.60 1.361
405.70 1.357
405.80 1.352
405.90 1.347
406.00 1.342
406.10 1.337
406.20 1.331
406.30 1.325
406.40 1.319
406.50 1.313
406.60 1.306
406.70 1.3
406.80 1.292
406.90 1.285
407.00 1.277
407.10 1.269
407.20 1.261
407.30 1.252
407.40 1.243
407.50 1.233
407.60 1.223
407.70 1.212
407.80 1.201
407.90 1.19
408.00 1.178
408.10 1.165
408.20 1.152
408.30 1.138
408.40 1.123
408.50 1.108
408.60 1.091
408.70 1.075
408.80 1.057
408.90 1.038
409.00 1.018
409.10 0.9965
409.20 0.974
409.30 0.9504
409.40 0.9235
409.50 0.8943
409.60 0.8625
409.70 0.8241
409.80 0.7828
409.90 0.7385
410.00 0.7024
410.10 0.6765
410.20 0.661
410.30 0.6878
410.40 0.7212
410.50 0.7612
410.60 0.8038
410.70 0.8426
410.80 0.8778
410.90 0.907
411.00 0.9339
411.10 0.9588
411.20 0.9808
411.30 1.002
411.40 1.022
411.50 1.04
411.60 1.058
411.70 1.075
411.80 1.09
411.90 1.105
412.00 1.119
412.10 1.133
412.20 1.145
412.30 1.158
412.40 1.169
412.50 1.18
412.60 1.191
412.70 1.2
412.80 1.21
412.90 1.219
413.00 1.228
413.10 1.236
413.20 1.244
413.30 1.252
413.40 1.259
413.50 1.266
413.60 1.273
413.70 1.279
413.80 1.285
413.90 1.291
414.00 1.297
414.10 1.302
414.20 1.307
414.30 1.312
414.40 1.317
414.50 1.322
414.60 1.326
414.70 1.33
414.80 1.334
414.90 1.338
415.00 1.342
415.10 1.346
415.20 1.349
415.30 1.353
415.40 1.356
415.50 1.359
415.60 1.362
415.70 1.365
415.80 1.367
415.90 1.37
416.00 1.373
416.10 1.375
416.20 1.377
416.30 1.38
416.40 1.382
416.50 1.384
416.60 1.386
416.70 1.387
416.80 1.389
416.90 1.391
417.00 1.393
417.10 1.394
417.20 1.396
417.30 1.397
417.40 1.398
417.50 1.399
417.60 1.401
417.70 1.402
417.80 1.403
417.90 1.404
418.00 1.405
418.10 1.406
418.20 1.407
418.30 1.407
418.40 1.408
418.50 1.409
418.60 1.409
418.70 1.41
418.80 1.41
418.90 1.411
419.00 1.411
419.10 1.412
419.20 1.412
419.30 1.412
419.40 1.413
419.50 1.413
419.60 1.413
419.70 1.413
419.80 1.413
419.90 1.413
420.00 1.413
420.10 1.413
420.20 1.413
420.30 1.413
420.40 1.413
420.50 1.413
420.60 1.413
420.70 1.413
420.80 1.412
420.90 1.412
421.00 1.412
421.10 1.411
421.20 1.411
421.30 1.411
421.40 1.41
421.50 1.41
421.60 1.409
421.70 1.409
421.80 1.408
421.90 1.407
422.00 1.407
422.10 1.406
422.20 1.405
422.30 1.404
422.40 1.404
422.50 1.403
422.60 1.402
422.70 1.401
422.80 1.4
422.90 1.399
423.00 1.398
423.10 1.397
423.20 1.396
423.30 1.395
423.40 1.394
423.50 1.393
423.60 1.392
423.70 1.39
423.80 1.389
423.90 1.388
424.00 1.386
424.10 1.385
424.20 1.384
424.30 1.382
424.40 1.381
424.50 1.379
424.60 1.378
424.70 1.376
424.80 1.374
424.90 1.373
425.00 1.371
425.10 1.369
425.20 1.367
425.30 1.365
425.40 1.364
425.50 1.362
425.60 1.36
425.70 1.357
425.80 1.355
425.90 1.353
426.00 1.351
426.10 1.349
426.20 1.346
426.30 1.343
426.40 1.341
426.50 1.338
426.60 1.336
426.70 1.333
426.80 1.33
426.90 1.328
427.00 1.325
427.10 1.322
427.20 1.319
427.30 1.316
427.40 1.312
427.50 1.309
427.60 1.306
427.70 1.303
427.80 1.299
427.90 1.295
428.00 1.292
428.10 1.288
428.20 1.284
428.30 1.28
428.40 1.276
428.50 1.272
428.60 1.267
428.70 1.263
428.80 1.258
428.90 1.254
429.00 1.249
429.10 1.244
429.20 1.239
429.30 1.233
429.40 1.228
429.50 1.222
429.60 1.217
429.70 1.211
429.80 1.205
429.90 1.198
430.00 1.192
430.10 1.185
430.20 1.178
430.30 1.171
430.40 1.163
430.50 1.156
430.60 1.148
430.70 1.14
430.80 1.131
430.90 1.123
431.00 1.114
431.10 1.104
431.20 1.095
431.30 1.084
431.40 1.074
431.50 1.063
431.60 1.052
431.70 1.04
431.80 1.028
431.90 1.015
432.00 1.001
432.10 0.9874
432.20 0.9722
432.30 0.9564
432.40 0.9399
432.50 0.9217
432.60 0.9025
432.70 0.8825
432.80 0.8606
432.90 0.838
433.00 0.8148
433.10 0.7908
433.20 0.7665
433.30 0.7418
433.40 0.7155
433.50 0.6876
433.60 0.6579
433.70 0.6219
433.80 0.5843
433.90 0.5453
434.00 0.5037
434.10 0.5046
434.20 0.548
434.30 0.5867
434.40 0.6237
434.50 0.659
434.60 0.6879
434.70 0.7151
434.80 0.7407
434.90 0.7647
435.00 0.7883
435.10 0.8115
435.20 0.834
435.30 0.8556
435.40 0.8766
435.50 0.8957
435.60 0.9138
435.70 0.931
435.80 0.9465
435.90 0.9613
436.00 0.9754
436.10 0.9883
436.20 1.001
436.30 1.013
436.40 1.024
436.50 1.034
436.60 1.045
436.70 1.054
436.80 1.064
436.90 1.073
437.00 1.081
437.10 1.089
437.20 1.097
437.30 1.105
437.40 1.112
437.50 1.119
437.60 1.126
437.70 1.132
437.80 1.138
437.90 1.144
438.00 1.15
438.10 1.156
438.20 1.161
438.30 1.166
438.40 1.171
438.50 1.176
438.60 1.18
438.70 1.185
438.80 1.189
438.90 1.193
439.00 1.197
439.10 1.201
439.20 1.204
439.30 1.208
439.40 1.211
439.50 1.214
439.60 1.218
439.70 1.22
439.80 1.223
439.90 1.226
440.00 1.229
440.10 1.232
440.20 1.234
440.30 1.236
440.40 1.239
440.50 1.241
440.60 1.243
440.70 1.245
440.80 1.247
440.90 1.249
441.00 1.251
441.10 1.253
441.20 1.255
441.30 1.256
441.40 1.258
441.50 1.259
441.60 1.261
441.70 1.262
441.80 1.264
441.90 1.265
442.00 1.266
442.10 1.267
442.20 1.269
442.30 1.27
442.40 1.271
442.50 1.272
442.60 1.273
442.70 1.274
442.80 1.275
442.90 1.275
443.00 1.276
443.10 1.277
443.20 1.278
443.30 1.278
443.40 1.279
443.50 1.28
443.60 1.28
443.70 1.281
443.80 1.282
443.90 1.282
444.00 1.283
444.10 1.283
444.20 1.284
444.30 1.284
444.40 1.284
444.50 1.285
444.60 1.285
444.70 1.285
444.80 1.286
444.90 1.286
445.00 1.286
445.10 1.287
445.20 1.287
445.30 1.287
445.40 1.287
445.50 1.287
445.60 1.287
445.70 1.288
445.80 1.288
445.90 1.288
446.00 1.288
446.10 1.288
446.20 1.288
446.30 1.288
446.40 1.288
446.50 1.288
446.60 1.288
446.70 1.288
446.80 1.288
446.90 1.288
447.00 1.288
447.10 1.288
447.20 1.288
447.30 1.288
447.40 1.287
447.50 1.287
447.60 1.287
447.70 1.287
447.80 1.287
447.90 1.287
448.00 1.287
448.10 1.286
448.20 1.286
448.30 1.286
448.40 1.286
448.50 1.286
448.60 1.285
448.70 1.285
448.80 1.285
448.90 1.285
449.00 1.284
449.10 1.284
449.20 1.284
449.30 1.284
449.40 1.283
449.50 1.283
449.60 1.283
449.70 1.282
449.80 1.282
449.90 1.282
450.00 1.281
450.10 1.281
450.20 1.281
450.30 1.28
450.40 1.28
450.50 1.28
450.60 1.279
450.70 1.279
450.80 1.279
450.90 1.278
451.00 1.278
451.10 1.277
451.20 1.277
451.30 1.277
451.40 1.276
451.50 1.276
451.60 1.275
451.70 1.275
451.80 1.275
451.90 1.274
452.00 1.274
452.10 1.273
452.20 1.273
452.30 1.272
452.40 1.272
452.50 1.272
452.60 1.271
452.70 1.271
452.80 1.27
452.90 1.27
453.00 1.269
453.10 1.269
453.20 1.268
453.30 1.268
453.40 1.267
453.50 1.267
453.60 1.266
