# Version 2.1 - nm, norm@500 to 1, cut digits, bergeron_7500_75.dat_7500
# Wavelength(nm)  Flambda(ergs/cm^s/s/nm)
300.00 1.229
300.10 1.229
300.20 1.229
300.30 1.229
300.40 1.229
300.50 1.229
300.60 1.23
300.70 1.23
300.80 1.23
300.90 1.23
301.00 1.23
301.10 1.23
301.20 1.23
301.30 1.231
301.40 1.231
301.50 1.231
301.60 1.231
301.70 1.231
301.80 1.231
301.90 1.231
302.00 1.231
302.10 1.232
302.20 1.232
302.30 1.232
302.40 1.232
302.50 1.232
302.60 1.232
302.70 1.232
302.80 1.232
302.90 1.233
303.00 1.233
303.10 1.233
303.20 1.233
303.30 1.233
303.40 1.233
303.50 1.233
303.60 1.233
303.70 1.233
303.80 1.234
303.90 1.234
304.00 1.234
304.10 1.234
304.20 1.234
304.30 1.234
304.40 1.234
304.50 1.234
304.60 1.234
304.70 1.235
304.80 1.235
304.90 1.235
305.00 1.235
305.10 1.235
305.20 1.235
305.30 1.235
305.40 1.235
305.50 1.235
305.60 1.236
305.70 1.236
305.80 1.236
305.90 1.236
306.00 1.236
306.10 1.236
306.20 1.236
306.30 1.236
306.40 1.236
306.50 1.236
306.60 1.237
306.70 1.237
306.80 1.237
306.90 1.237
307.00 1.237
307.10 1.237
307.20 1.237
307.30 1.237
307.40 1.237
307.50 1.237
307.60 1.238
307.70 1.238
307.80 1.238
307.90 1.238
308.00 1.238
308.10 1.238
308.20 1.238
308.30 1.238
308.40 1.238
308.50 1.238
308.60 1.238
308.70 1.238
308.80 1.239
308.90 1.239
309.00 1.239
309.10 1.239
309.20 1.239
309.30 1.239
309.40 1.239
309.50 1.239
309.60 1.239
309.70 1.239
309.80 1.239
309.90 1.239
310.00 1.24
310.10 1.24
310.20 1.24
310.30 1.24
310.40 1.24
310.50 1.24
310.60 1.24
310.70 1.24
310.80 1.24
310.90 1.24
311.00 1.24
311.10 1.24
311.20 1.24
311.30 1.241
311.40 1.241
311.50 1.241
311.60 1.241
311.70 1.241
311.80 1.241
311.90 1.241
312.00 1.241
312.10 1.241
312.20 1.241
312.30 1.241
312.40 1.241
312.50 1.241
312.60 1.241
312.70 1.241
312.80 1.242
312.90 1.242
313.00 1.242
313.10 1.242
313.20 1.242
313.30 1.242
313.40 1.242
313.50 1.242
313.60 1.242
313.70 1.242
313.80 1.242
313.90 1.242
314.00 1.242
314.10 1.242
314.20 1.242
314.30 1.242
314.40 1.242
314.50 1.242
314.60 1.243
314.70 1.243
314.80 1.243
314.90 1.243
315.00 1.243
315.10 1.243
315.20 1.243
315.30 1.243
315.40 1.243
315.50 1.243
315.60 1.243
315.70 1.243
315.80 1.243
315.90 1.243
316.00 1.243
316.10 1.243
316.20 1.243
316.30 1.243
316.40 1.243
316.50 1.243
316.60 1.243
316.70 1.244
316.80 1.244
316.90 1.244
317.00 1.244
317.10 1.244
317.20 1.244
317.30 1.244
317.40 1.244
317.50 1.244
317.60 1.244
317.70 1.244
317.80 1.244
317.90 1.244
318.00 1.244
318.10 1.244
318.20 1.244
318.30 1.244
318.40 1.244
318.50 1.244
318.60 1.244
318.70 1.244
318.80 1.244
318.90 1.244
319.00 1.244
319.10 1.244
319.20 1.244
319.30 1.244
319.40 1.244
319.50 1.244
319.60 1.244
319.70 1.245
319.80 1.245
319.90 1.245
320.00 1.245
320.10 1.245
320.20 1.245
320.30 1.245
320.40 1.245
320.50 1.245
320.60 1.245
320.70 1.245
320.80 1.245
320.90 1.245
321.00 1.245
321.10 1.245
321.20 1.245
321.30 1.245
321.40 1.245
321.50 1.245
321.60 1.245
321.70 1.245
321.80 1.245
321.90 1.245
322.00 1.245
322.10 1.245
322.20 1.245
322.30 1.245
322.40 1.245
322.50 1.245
322.60 1.245
322.70 1.245
322.80 1.245
322.90 1.245
323.00 1.245
323.10 1.245
323.20 1.245
323.30 1.245
323.40 1.245
323.50 1.245
323.60 1.245
323.70 1.245
323.80 1.245
323.90 1.245
324.00 1.245
324.10 1.245
324.20 1.245
324.30 1.245
324.40 1.245
324.50 1.245
324.60 1.245
324.70 1.245
324.80 1.245
324.90 1.245
325.00 1.245
325.10 1.245
325.20 1.245
325.30 1.245
325.40 1.245
325.50 1.245
325.60 1.245
325.70 1.245
325.80 1.245
325.90 1.245
326.00 1.245
326.10 1.245
326.20 1.245
326.30 1.245
326.40 1.245
326.50 1.245
326.60 1.245
326.70 1.245
326.80 1.245
326.90 1.245
327.00 1.245
327.10 1.245
327.20 1.245
327.30 1.245
327.40 1.245
327.50 1.245
327.60 1.245
327.70 1.245
327.80 1.245
327.90 1.245
328.00 1.245
328.10 1.245
328.20 1.245
328.30 1.245
328.40 1.245
328.50 1.245
328.60 1.245
328.70 1.245
328.80 1.245
328.90 1.245
329.00 1.245
329.10 1.245
329.20 1.245
329.30 1.245
329.40 1.245
329.50 1.245
329.60 1.245
329.70 1.245
329.80 1.245
329.90 1.245
330.00 1.245
330.10 1.245
330.20 1.245
330.30 1.244
330.40 1.244
330.50 1.244
330.60 1.244
330.70 1.244
330.80 1.244
330.90 1.244
331.00 1.244
331.10 1.244
331.20 1.244
331.30 1.244
331.40 1.244
331.50 1.244
331.60 1.244
331.70 1.244
331.80 1.244
331.90 1.244
332.00 1.244
332.10 1.244
332.20 1.244
332.30 1.244
332.40 1.244
332.50 1.244
332.60 1.244
332.70 1.244
332.80 1.244
332.90 1.244
333.00 1.244
333.10 1.244
333.20 1.244
333.30 1.244
333.40 1.243
333.50 1.243
333.60 1.243
333.70 1.243
333.80 1.243
333.90 1.243
334.00 1.243
334.10 1.243
334.20 1.243
334.30 1.243
334.40 1.243
334.50 1.243
334.60 1.243
334.70 1.243
334.80 1.243
334.90 1.243
335.00 1.243
335.10 1.243
335.20 1.243
335.30 1.243
335.40 1.243
335.50 1.243
335.60 1.243
335.70 1.242
335.80 1.242
335.90 1.242
336.00 1.242
336.10 1.242
336.20 1.242
336.30 1.242
336.40 1.242
336.50 1.242
336.60 1.242
336.70 1.242
336.80 1.242
336.90 1.242
337.00 1.242
337.10 1.242
337.20 1.242
337.30 1.242
337.40 1.242
337.50 1.242
337.60 1.241
337.70 1.241
337.80 1.241
337.90 1.241
338.00 1.241
338.10 1.241
338.20 1.241
338.30 1.241
338.40 1.241
338.50 1.241
338.60 1.241
338.70 1.241
338.80 1.241
338.90 1.241
339.00 1.241
339.10 1.241
339.20 1.241
339.30 1.24
339.40 1.24
339.50 1.24
339.60 1.24
339.70 1.24
339.80 1.24
339.90 1.24
340.00 1.24
340.10 1.24
340.20 1.24
340.30 1.24
340.40 1.24
340.50 1.24
340.60 1.24
340.70 1.24
340.80 1.239
340.90 1.239
341.00 1.239
341.10 1.239
341.20 1.239
341.30 1.239
341.40 1.239
341.50 1.239
341.60 1.239
341.70 1.239
341.80 1.239
341.90 1.239
342.00 1.239
342.10 1.239
342.20 1.238
342.30 1.238
342.40 1.238
342.50 1.238
342.60 1.238
342.70 1.238
342.80 1.238
342.90 1.238
343.00 1.238
343.10 1.238
343.20 1.238
343.30 1.238
343.40 1.238
343.50 1.237
343.60 1.237
343.70 1.237
343.80 1.237
343.90 1.237
344.00 1.237
344.10 1.237
344.20 1.237
344.30 1.237
344.40 1.237
344.50 1.237
344.60 1.237
344.70 1.236
344.80 1.236
344.90 1.236
345.00 1.236
345.10 1.236
345.20 1.236
345.30 1.236
345.40 1.236
345.50 1.236
345.60 1.236
345.70 1.236
345.80 1.236
345.90 1.235
346.00 1.235
346.10 1.235
346.20 1.235
346.30 1.235
346.40 1.235
346.50 1.235
346.60 1.235
346.70 1.235
346.80 1.235
346.90 1.235
347.00 1.234
347.10 1.234
347.20 1.234
347.30 1.234
347.40 1.234
347.50 1.234
347.60 1.234
347.70 1.234
347.80 1.234
347.90 1.234
348.00 1.234
348.10 1.233
348.20 1.233
348.30 1.233
348.40 1.233
348.50 1.233
348.60 1.233
348.70 1.233
348.80 1.233
348.90 1.233
349.00 1.233
349.10 1.232
349.20 1.232
349.30 1.232
349.40 1.232
349.50 1.232
349.60 1.232
349.70 1.232
349.80 1.232
349.90 1.232
350.00 1.232
350.10 1.231
350.20 1.231
350.30 1.231
350.40 1.231
350.50 1.231
350.60 1.231
350.70 1.231
350.80 1.231
350.90 1.231
351.00 1.231
351.10 1.23
351.20 1.23
351.30 1.23
351.40 1.23
351.50 1.23
351.60 1.23
351.70 1.23
351.80 1.23
351.90 1.23
352.00 1.229
352.10 1.229
352.20 1.229
352.30 1.229
352.40 1.229
352.50 1.229
352.60 1.229
352.70 1.229
352.80 1.229
352.90 1.228
353.00 1.228
353.10 1.228
353.20 1.228
353.30 1.228
353.40 1.228
353.50 1.228
353.60 1.228
353.70 1.228
353.80 1.227
353.90 1.227
354.00 1.227
354.10 1.227
354.20 1.227
354.30 1.227
354.40 1.227
354.50 1.227
354.60 1.227
354.70 1.226
354.80 1.226
354.90 1.226
355.00 1.226
355.10 1.226
355.20 1.226
355.30 1.226
355.40 1.226
355.50 1.225
355.60 1.225
355.70 1.225
355.80 1.225
355.90 1.225
356.00 1.225
356.10 1.225
356.20 1.225
356.30 1.224
356.40 1.224
356.50 1.224
356.60 1.224
356.70 1.224
356.80 1.224
356.90 1.224
357.00 1.224
357.10 1.223
357.20 1.223
357.30 1.223
357.40 1.223
357.50 1.223
357.60 1.223
357.70 1.223
357.80 1.223
357.90 1.222
358.00 1.222
358.10 1.222
358.20 1.222
358.30 1.222
358.40 1.222
358.50 1.222
358.60 1.222
358.70 1.221
358.80 1.221
358.90 1.221
359.00 1.221
359.10 1.221
359.20 1.221
359.30 1.221
359.40 1.22
359.50 1.22
359.60 1.22
359.70 1.22
359.80 1.22
359.90 1.22
360.00 1.22
360.10 1.22
360.20 1.219
360.30 1.219
360.40 1.219
360.50 1.219
360.60 1.219
360.70 1.219
360.80 1.219
360.90 1.218
361.00 1.218
361.10 1.218
361.20 1.218
361.30 1.218
361.40 1.218
361.50 1.218
361.60 1.218
361.70 1.217
361.80 1.217
361.90 1.217
362.00 1.217
362.10 1.217
362.20 1.217
362.30 1.217
362.40 1.216
362.50 1.216
362.60 1.216
362.70 1.216
362.80 1.216
362.90 1.216
363.00 1.216
363.10 1.215
363.20 1.215
363.30 1.215
363.40 1.215
363.50 1.215
363.60 1.215
363.70 1.215
363.80 1.214
363.90 1.214
364.00 1.214
364.10 1.214
364.20 1.214
364.30 1.214
364.40 1.214
364.50 1.213
364.60 1.213
364.70 1.213
364.80 1.213
364.90 1.213
365.00 1.212
365.10 1.212
365.20 1.212
365.30 1.212
365.40 1.212
365.50 1.212
365.60 1.211
365.70 1.211
365.80 1.211
365.90 1.211
366.00 1.211
366.10 1.211
366.20 1.211
366.30 1.21
366.40 1.21
366.50 1.21
366.60 1.21
366.70 1.21
366.80 1.21
366.90 1.209
367.00 1.209
367.10 1.209
367.20 1.209
367.30 1.209
367.40 1.209
367.50 1.208
367.60 1.208
367.70 1.208
367.80 1.208
367.90 1.208
368.00 1.208
368.10 1.207
368.20 1.207
368.30 1.207
368.40 1.207
368.50 1.207
368.60 1.207
368.70 1.206
368.80 1.206
368.90 1.206
369.00 1.206
369.10 1.206
369.20 1.206
369.30 1.206
369.40 1.205
369.50 1.205
369.60 1.205
369.70 1.205
369.80 1.205
369.90 1.205
370.00 1.204
370.10 1.205
370.20 1.205
370.30 1.205
370.40 1.205
370.50 1.206
370.60 1.206
370.70 1.206
370.80 1.206
370.90 1.207
371.00 1.207
371.10 1.207
371.20 1.207
371.30 1.208
371.40 1.208
371.50 1.208
371.60 1.208
371.70 1.209
371.80 1.209
371.90 1.209
372.00 1.209
372.10 1.21
372.20 1.21
372.30 1.211
372.40 1.212
372.50 1.212
372.60 1.213
372.70 1.213
372.80 1.214
372.90 1.215
373.00 1.215
373.10 1.216
373.20 1.216
373.30 1.217
373.40 1.217
373.50 1.218
373.60 1.219
373.70 1.219
373.80 1.22
373.90 1.22
374.00 1.221
374.10 1.222
374.20 1.222
374.30 1.223
374.40 1.224
374.50 1.225
374.60 1.225
374.70 1.226
374.80 1.227
374.90 1.228
375.00 1.228
375.10 1.229
375.20 1.23
375.30 1.231
375.40 1.232
375.50 1.232
375.60 1.233
375.70 1.234
375.80 1.235
375.90 1.235
376.00 1.236
376.10 1.237
376.20 1.237
376.30 1.238
376.40 1.238
376.50 1.239
376.60 1.239
376.70 1.24
376.80 1.24
376.90 1.241
377.00 1.241
377.10 1.241
377.20 1.241
377.30 1.241
377.40 1.241
377.50 1.241
377.60 1.241
377.70 1.241
377.80 1.24
377.90 1.24
378.00 1.24
378.10 1.237
378.20 1.235
378.30 1.232
378.40 1.229
378.50 1.226
378.60 1.223
378.70 1.22
378.80 1.218
378.90 1.215
379.00 1.212
379.10 1.206
379.20 1.2
379.30 1.194
379.40 1.188
379.50 1.181
379.60 1.175
379.70 1.169
379.80 1.163
379.90 1.157
380.00 1.151
380.10 1.159
380.20 1.168
380.30 1.176
380.40 1.184
380.50 1.192
380.60 1.2
380.70 1.208
380.80 1.217
380.90 1.225
381.00 1.233
381.10 1.235
381.20 1.236
381.30 1.238
381.40 1.239
381.50 1.241
381.60 1.241
381.70 1.241
381.80 1.24
381.90 1.238
382.00 1.236
382.10 1.234
382.20 1.231
382.30 1.22
382.40 1.209
382.50 1.198
382.60 1.187
382.70 1.177
382.80 1.166
382.90 1.155
383.00 1.144
383.10 1.133
383.20 1.123
383.30 1.094
383.40 1.048
383.50 0.9643
383.60 0.9876
383.70 1.061
383.80 1.102
383.90 1.129
384.00 1.149
384.10 1.166
384.20 1.18
384.30 1.193
384.40 1.204
384.50 1.213
384.60 1.221
384.70 1.228
384.80 1.234
384.90 1.238
385.00 1.242
385.10 1.245
385.20 1.248
385.30 1.25
385.40 1.252
385.50 1.254
385.60 1.255
385.70 1.256
385.80 1.257
385.90 1.257
386.00 1.258
386.10 1.258
386.20 1.258
386.30 1.257
386.40 1.257
386.50 1.256
386.60 1.255
386.70 1.253
386.80 1.252
386.90 1.25
387.00 1.248
387.10 1.245
387.20 1.242
387.30 1.238
387.40 1.234
387.50 1.229
387.60 1.223
387.70 1.216
387.80 1.207
387.90 1.197
388.00 1.185
388.10 1.169
388.20 1.151
388.30 1.13
388.40 1.102
388.50 1.071
388.60 1.035
388.70 0.9754
388.80 0.8805
388.90 0.7501
389.00 0.8748
389.10 0.9682
389.20 1.03
389.30 1.067
389.40 1.1
389.50 1.127
389.60 1.149
389.70 1.168
389.80 1.184
389.90 1.196
390.00 1.207
390.10 1.216
390.20 1.223
390.30 1.229
390.40 1.235
390.50 1.239
390.60 1.243
390.70 1.247
390.80 1.25
390.90 1.252
391.00 1.255
391.10 1.257
391.20 1.258
391.30 1.26
391.40 1.261
391.50 1.263
391.60 1.264
391.70 1.265
391.80 1.266
391.90 1.266
392.00 1.267
392.10 1.267
392.20 1.268
392.30 1.268
392.40 1.268
392.50 1.268
392.60 1.269
392.70 1.269
392.80 1.268
392.90 1.268
393.00 1.268
393.10 1.268
393.20 1.267
393.30 1.267
393.40 1.266
393.50 1.266
393.60 1.265
393.70 1.264
393.80 1.263
393.90 1.262
394.00 1.261
394.10 1.26
394.20 1.259
394.30 1.257
394.40 1.255
394.50 1.253
394.60 1.251
394.70 1.249
394.80 1.246
394.90 1.244
395.00 1.24
395.10 1.237
395.20 1.233
395.30 1.228
395.40 1.223
395.50 1.217
395.60 1.21
395.70 1.202
395.80 1.193
395.90 1.182
396.00 1.17
396.10 1.155
396.20 1.136
396.30 1.112
396.40 1.085
396.50 1.048
396.60 1.004
396.70 0.952
396.80 0.8703
396.90 0.7356
397.00 0.5479
397.10 0.7245
397.20 0.8562
397.30 0.9431
397.40 0.9962
397.50 1.042
397.60 1.08
397.70 1.107
397.80 1.131
397.90 1.151
398.00 1.165
398.10 1.178
398.20 1.189
398.30 1.198
398.40 1.206
398.50 1.212
398.60 1.218
398.70 1.223
398.80 1.228
398.90 1.231
399.00 1.235
399.10 1.238
399.20 1.241
399.30 1.243
399.40 1.245
399.50 1.247
399.60 1.249
399.70 1.25
399.80 1.252
399.90 1.253
400.00 1.254
400.10 1.255
400.20 1.256
400.30 1.257
400.40 1.258
400.50 1.258
400.60 1.259
400.70 1.259
400.80 1.26
400.90 1.26
401.00 1.261
401.10 1.261
401.20 1.261
401.30 1.261
401.40 1.262
401.50 1.262
401.60 1.262
401.70 1.262
401.80 1.262
401.90 1.262
402.00 1.262
402.10 1.262
402.20 1.262
402.30 1.262
402.40 1.262
402.50 1.262
402.60 1.262
402.70 1.262
402.80 1.262
402.90 1.262
403.00 1.262
403.10 1.261
403.20 1.261
403.30 1.261
403.40 1.261
403.50 1.261
403.60 1.26
403.70 1.26
403.80 1.26
403.90 1.26
404.00 1.259
404.10 1.259
404.20 1.259
404.30 1.258
404.40 1.258
404.50 1.258
404.60 1.257
404.70 1.257
404.80 1.257
404.90 1.256
405.00 1.256
405.10 1.255
405.20 1.255
405.30 1.254
405.40 1.254
405.50 1.253
405.60 1.253
405.70 1.252
405.80 1.251
405.90 1.25
406.00 1.25
406.10 1.249
406.20 1.248
406.30 1.247
406.40 1.246
406.50 1.245
406.60 1.244
406.70 1.243
406.80 1.242
406.90 1.24
407.00 1.239
407.10 1.237
407.20 1.236
407.30 1.234
407.40 1.232
407.50 1.23
407.60 1.227
407.70 1.225
407.80 1.222
407.90 1.219
408.00 1.215
408.10 1.212
408.20 1.207
408.30 1.203
408.40 1.198
408.50 1.192
408.60 1.185
408.70 1.178
408.80 1.17
408.90 1.16
409.00 1.15
409.10 1.137
409.20 1.122
409.30 1.105
409.40 1.082
409.50 1.054
409.60 1.022
409.70 0.9765
409.80 0.9197
409.90 0.8522
410.00 0.7345
410.10 0.6013
410.20 0.4525
410.30 0.6545
410.40 0.8013
410.50 0.8932
410.60 0.9515
410.70 1.001
410.80 1.04
410.90 1.068
411.00 1.092
411.10 1.112
411.20 1.127
411.30 1.14
411.40 1.152
411.50 1.161
411.60 1.169
411.70 1.177
411.80 1.183
411.90 1.188
412.00 1.193
412.10 1.198
412.20 1.201
412.30 1.205
412.40 1.208
412.50 1.211
412.60 1.213
412.70 1.215
412.80 1.217
412.90 1.219
413.00 1.221
413.10 1.222
413.20 1.223
413.30 1.225
413.40 1.226
413.50 1.227
413.60 1.227
413.70 1.228
413.80 1.229
413.90 1.229
414.00 1.23
414.10 1.23
414.20 1.231
414.30 1.231
414.40 1.231
414.50 1.232
414.60 1.232
414.70 1.232
414.80 1.232
414.90 1.233
415.00 1.233
415.10 1.233
415.20 1.233
415.30 1.233
415.40 1.233
415.50 1.233
415.60 1.233
415.70 1.233
415.80 1.233
415.90 1.233
416.00 1.233
416.10 1.233
416.20 1.232
416.30 1.232
416.40 1.232
416.50 1.232
416.60 1.232
416.70 1.232
416.80 1.232
416.90 1.232
417.00 1.231
417.10 1.231
417.20 1.231
417.30 1.231
417.40 1.231
417.50 1.231
417.60 1.23
417.70 1.23
417.80 1.23
417.90 1.23
418.00 1.23
418.10 1.229
418.20 1.229
418.30 1.229
418.40 1.229
418.50 1.229
418.60 1.228
418.70 1.228
418.80 1.228
418.90 1.228
419.00 1.228
419.10 1.227
419.20 1.227
419.30 1.227
419.40 1.227
419.50 1.226
419.60 1.226
419.70 1.226
419.80 1.226
419.90 1.225
420.00 1.225
420.10 1.225
420.20 1.225
420.30 1.224
420.40 1.224
420.50 1.224
420.60 1.224
420.70 1.223
420.80 1.223
420.90 1.223
421.00 1.223
421.10 1.222
421.20 1.222
421.30 1.222
421.40 1.222
421.50 1.221
421.60 1.221
421.70 1.221
421.80 1.221
421.90 1.22
422.00 1.22
422.10 1.22
422.20 1.22
422.30 1.219
422.40 1.219
422.50 1.219
422.60 1.218
422.70 1.218
422.80 1.218
422.90 1.218
423.00 1.217
423.10 1.217
423.20 1.217
423.30 1.216
423.40 1.216
423.50 1.216
423.60 1.216
423.70 1.215
423.80 1.215
423.90 1.215
424.00 1.214
424.10 1.214
424.20 1.214
424.30 1.214
424.40 1.213
424.50 1.213
424.60 1.213
424.70 1.212
424.80 1.212
424.90 1.212
425.00 1.211
425.10 1.211
425.20 1.211
425.30 1.211
425.40 1.21
425.50 1.21
425.60 1.21
425.70 1.209
425.80 1.209
425.90 1.209
426.00 1.208
426.10 1.208
426.20 1.208
426.30 1.207
426.40 1.207
426.50 1.207
426.60 1.206
426.70 1.206
426.80 1.206
426.90 1.205
427.00 1.205
427.10 1.205
427.20 1.204
427.30 1.204
427.40 1.203
427.50 1.203
427.60 1.203
427.70 1.202
427.80 1.202
427.90 1.201
428.00 1.201
428.10 1.201
428.20 1.2
428.30 1.2
428.40 1.199
428.50 1.199
428.60 1.198
428.70 1.198
428.80 1.197
428.90 1.197
429.00 1.196
429.10 1.195
429.20 1.195
429.30 1.194
429.40 1.193
429.50 1.193
429.60 1.192
429.70 1.191
429.80 1.19
429.90 1.19
430.00 1.189
430.10 1.188
430.20 1.187
430.30 1.186
430.40 1.184
430.50 1.183
430.60 1.182
430.70 1.18
430.80 1.179
430.90 1.177
431.00 1.176
431.10 1.174
431.20 1.172
431.30 1.17
431.40 1.168
431.50 1.165
431.60 1.163
431.70 1.16
431.80 1.157
431.90 1.154
432.00 1.15
432.10 1.146
432.20 1.141
432.30 1.135
432.40 1.129
432.50 1.122
432.60 1.113
432.70 1.104
432.80 1.092
432.90 1.079
433.00 1.066
433.10 1.049
433.20 1.031
433.30 1.01
433.40 0.9816
433.50 0.9462
433.60 0.9042
433.70 0.8391
433.80 0.7513
433.90 0.6407
434.00 0.4621
434.10 0.4662
434.20 0.6529
434.30 0.7594
434.40 0.8442
434.50 0.9074
434.60 0.9481
434.70 0.9823
434.80 1.01
434.90 1.03
435.00 1.047
435.10 1.063
435.20 1.076
435.30 1.088
435.40 1.099
435.50 1.108
435.60 1.116
435.70 1.122
435.80 1.128
435.90 1.133
436.00 1.137
436.10 1.141
436.20 1.144
436.30 1.147
436.40 1.149
436.50 1.151
436.60 1.153
436.70 1.155
436.80 1.156
436.90 1.158
437.00 1.159
437.10 1.16
437.20 1.161
437.30 1.162
437.40 1.163
437.50 1.164
437.60 1.165
437.70 1.165
437.80 1.166
437.90 1.166
438.00 1.167
438.10 1.167
438.20 1.168
438.30 1.168
438.40 1.168
438.50 1.168
438.60 1.169
438.70 1.169
438.80 1.169
438.90 1.169
439.00 1.169
439.10 1.169
439.20 1.169
439.30 1.169
439.40 1.169
439.50 1.169
439.60 1.169
439.70 1.169
439.80 1.168
439.90 1.168
440.00 1.168
440.10 1.168
440.20 1.168
440.30 1.168
440.40 1.168
440.50 1.168
440.60 1.167
440.70 1.167
440.80 1.167
440.90 1.167
441.00 1.167
441.10 1.167
441.20 1.166
441.30 1.166
441.40 1.166
441.50 1.166
441.60 1.165
441.70 1.165
441.80 1.165
441.90 1.165
442.00 1.165
442.10 1.164
442.20 1.164
442.30 1.164
442.40 1.164
442.50 1.164
442.60 1.163
442.70 1.163
442.80 1.163
442.90 1.163
443.00 1.162
443.10 1.162
443.20 1.162
443.30 1.162
443.40 1.161
443.50 1.161
443.60 1.161
443.70 1.161
443.80 1.16
443.90 1.16
444.00 1.16
444.10 1.16
444.20 1.159
444.30 1.159
444.40 1.159
444.50 1.159
444.60 1.158
444.70 1.158
444.80 1.158
444.90 1.158
445.00 1.157
445.10 1.157
445.20 1.157
445.30 1.156
445.40 1.156
445.50 1.156
445.60 1.156
445.70 1.155
445.80 1.155
445.90 1.155
446.00 1.155
446.10 1.154
446.20 1.154
446.30 1.154
446.40 1.154
446.50 1.153
446.60 1.153
446.70 1.153
446.80 1.152
446.90 1.152
447.00 1.152
447.10 1.152
447.20 1.151
447.30 1.151
447.40 1.151
447.50 1.151
447.60 1.15
447.70 1.15
447.80 1.15
447.90 1.149
448.00 1.149
448.10 1.149
448.20 1.149
448.30 1.148
448.40 1.148
448.50 1.148
448.60 1.148
448.70 1.147
448.80 1.147
448.90 1.147
449.00 1.146
449.10 1.146
449.20 1.146
449.30 1.146
449.40 1.145
449.50 1.145
449.60 1.145
449.70 1.144
449.80 1.144
449.90 1.144
450.00 1.144
450.10 1.143
450.20 1.143
450.30 1.143
450.40 1.142
450.50 1.142
450.60 1.142
450.70 1.142
450.80 1.141
450.90 1.141
451.00 1.141
451.10 1.141
451.20 1.14
451.30 1.14
451.40 1.14
451.50 1.139
451.60 1.139
451.70 1.139
451.80 1.139
451.90 1.138
452.00 1.138
452.10 1.138
452.20 1.137
452.30 1.137
452.40 1.137
452.50 1.137
452.60 1.136
452.70 1.136
452.80 1.136
452.90 1.135
453.00 1.135
453.10 1.135
453.20 1.135
453.30 1.134
453.40 1.134
453.50 1.134
453.60 1.133
