# Version 2.1 - nm, norm@500 to 1, cut digits, bergeron_30000_90.dat_30000
# Wavelength(nm)  Flambda(ergs/cm^s/s/nm)
300.00 5.141
300.10 5.135
300.20 5.129
300.30 5.123
300.40 5.117
300.50 5.111
300.60 5.106
300.70 5.1
300.80 5.094
300.90 5.088
301.00 5.082
301.10 5.077
301.20 5.071
301.30 5.065
301.40 5.059
301.50 5.053
301.60 5.048
301.70 5.042
301.80 5.036
301.90 5.031
302.00 5.025
302.10 5.019
302.20 5.013
302.30 5.008
302.40 5.002
302.50 4.996
302.60 4.991
302.70 4.985
302.80 4.979
302.90 4.974
303.00 4.968
303.10 4.962
303.20 4.957
303.30 4.951
303.40 4.946
303.50 4.94
303.60 4.934
303.70 4.929
303.80 4.923
303.90 4.918
304.00 4.912
304.10 4.907
304.20 4.901
304.30 4.896
304.40 4.89
304.50 4.885
304.60 4.879
304.70 4.874
304.80 4.868
304.90 4.863
305.00 4.857
305.10 4.852
305.20 4.846
305.30 4.841
305.40 4.835
305.50 4.83
305.60 4.824
305.70 4.819
305.80 4.814
305.90 4.808
306.00 4.803
306.10 4.797
306.20 4.792
306.30 4.787
306.40 4.781
306.50 4.776
306.60 4.771
306.70 4.765
306.80 4.76
306.90 4.755
307.00 4.749
307.10 4.744
307.20 4.739
307.30 4.733
307.40 4.728
307.50 4.723
307.60 4.717
307.70 4.712
307.80 4.707
307.90 4.702
308.00 4.696
308.10 4.691
308.20 4.686
308.30 4.681
308.40 4.676
308.50 4.67
308.60 4.665
308.70 4.66
308.80 4.655
308.90 4.65
309.00 4.644
309.10 4.639
309.20 4.634
309.30 4.629
309.40 4.624
309.50 4.619
309.60 4.614
309.70 4.608
309.80 4.603
309.90 4.598
310.00 4.593
310.10 4.588
310.20 4.583
310.30 4.578
310.40 4.573
310.50 4.568
310.60 4.563
310.70 4.558
310.80 4.553
310.90 4.548
311.00 4.543
311.10 4.537
311.20 4.532
311.30 4.527
311.40 4.522
311.50 4.517
311.60 4.512
311.70 4.507
311.80 4.503
311.90 4.498
312.00 4.493
312.10 4.488
312.20 4.483
312.30 4.478
312.40 4.473
312.50 4.468
312.60 4.463
312.70 4.458
312.80 4.453
312.90 4.448
313.00 4.443
313.10 4.438
313.20 4.434
313.30 4.429
313.40 4.424
313.50 4.419
313.60 4.414
313.70 4.409
313.80 4.405
313.90 4.4
314.00 4.395
314.10 4.39
314.20 4.385
314.30 4.38
314.40 4.376
314.50 4.371
314.60 4.366
314.70 4.361
314.80 4.357
314.90 4.352
315.00 4.347
315.10 4.342
315.20 4.338
315.30 4.333
315.40 4.328
315.50 4.323
315.60 4.319
315.70 4.314
315.80 4.309
315.90 4.305
316.00 4.3
316.10 4.295
316.20 4.29
316.30 4.286
316.40 4.281
316.50 4.276
316.60 4.272
316.70 4.267
316.80 4.263
316.90 4.258
317.00 4.253
317.10 4.249
317.20 4.244
317.30 4.239
317.40 4.235
317.50 4.23
317.60 4.226
317.70 4.221
317.80 4.216
317.90 4.212
318.00 4.207
318.10 4.203
318.20 4.198
318.30 4.194
318.40 4.189
318.50 4.185
318.60 4.18
318.70 4.176
318.80 4.171
318.90 4.167
319.00 4.162
319.10 4.158
319.20 4.153
319.30 4.149
319.40 4.144
319.50 4.14
319.60 4.135
319.70 4.131
319.80 4.126
319.90 4.122
320.00 4.117
320.10 4.113
320.20 4.109
320.30 4.104
320.40 4.1
320.50 4.095
320.60 4.091
320.70 4.086
320.80 4.082
320.90 4.078
321.00 4.073
321.10 4.069
321.20 4.065
321.30 4.06
321.40 4.056
321.50 4.052
321.60 4.047
321.70 4.043
321.80 4.038
321.90 4.034
322.00 4.03
322.10 4.026
322.20 4.021
322.30 4.017
322.40 4.013
322.50 4.008
322.60 4.004
322.70 4
322.80 3.995
322.90 3.991
323.00 3.987
323.10 3.983
323.20 3.978
323.30 3.974
323.40 3.97
323.50 3.966
323.60 3.962
323.70 3.957
323.80 3.953
323.90 3.949
324.00 3.945
324.10 3.94
324.20 3.936
324.30 3.932
324.40 3.928
324.50 3.924
324.60 3.92
324.70 3.915
324.80 3.911
324.90 3.907
325.00 3.903
325.10 3.899
325.20 3.895
325.30 3.891
325.40 3.886
325.50 3.882
325.60 3.878
325.70 3.874
325.80 3.87
325.90 3.866
326.00 3.862
326.10 3.858
326.20 3.854
326.30 3.849
326.40 3.845
326.50 3.841
326.60 3.837
326.70 3.833
326.80 3.829
326.90 3.825
327.00 3.821
327.10 3.817
327.20 3.813
327.30 3.809
327.40 3.805
327.50 3.801
327.60 3.797
327.70 3.793
327.80 3.789
327.90 3.785
328.00 3.781
328.10 3.777
328.20 3.773
328.30 3.769
328.40 3.765
328.50 3.761
328.60 3.757
328.70 3.753
328.80 3.749
328.90 3.745
329.00 3.741
329.10 3.738
329.20 3.734
329.30 3.73
329.40 3.726
329.50 3.722
329.60 3.718
329.70 3.714
329.80 3.71
329.90 3.706
330.00 3.702
330.10 3.699
330.20 3.695
330.30 3.691
330.40 3.687
330.50 3.683
330.60 3.679
330.70 3.675
330.80 3.672
330.90 3.668
331.00 3.664
331.10 3.66
331.20 3.656
331.30 3.652
331.40 3.649
331.50 3.645
331.60 3.641
331.70 3.637
331.80 3.633
331.90 3.63
332.00 3.626
332.10 3.622
332.20 3.618
332.30 3.615
332.40 3.611
332.50 3.607
332.60 3.603
332.70 3.6
332.80 3.596
332.90 3.592
333.00 3.588
333.10 3.585
333.20 3.581
333.30 3.577
333.40 3.574
333.50 3.57
333.60 3.566
333.70 3.562
333.80 3.559
333.90 3.555
334.00 3.551
334.10 3.548
334.20 3.544
334.30 3.54
334.40 3.537
334.50 3.533
334.60 3.529
334.70 3.526
334.80 3.522
334.90 3.518
335.00 3.515
335.10 3.511
335.20 3.508
335.30 3.504
335.40 3.5
335.50 3.497
335.60 3.493
335.70 3.489
335.80 3.486
335.90 3.482
336.00 3.479
336.10 3.475
336.20 3.472
336.30 3.468
336.40 3.464
336.50 3.461
336.60 3.457
336.70 3.454
336.80 3.45
336.90 3.447
337.00 3.443
337.10 3.44
337.20 3.436
337.30 3.433
337.40 3.429
337.50 3.425
337.60 3.422
337.70 3.418
337.80 3.415
337.90 3.411
338.00 3.408
338.10 3.404
338.20 3.401
338.30 3.398
338.40 3.394
338.50 3.391
338.60 3.387
338.70 3.384
338.80 3.38
338.90 3.377
339.00 3.373
339.10 3.37
339.20 3.366
339.30 3.363
339.40 3.36
339.50 3.356
339.60 3.353
339.70 3.349
339.80 3.346
339.90 3.342
340.00 3.339
340.10 3.336
340.20 3.332
340.30 3.329
340.40 3.325
340.50 3.322
340.60 3.319
340.70 3.315
340.80 3.312
340.90 3.309
341.00 3.305
341.10 3.302
341.20 3.299
341.30 3.295
341.40 3.292
341.50 3.288
341.60 3.285
341.70 3.282
341.80 3.278
341.90 3.275
342.00 3.272
342.10 3.268
342.20 3.265
342.30 3.262
342.40 3.259
342.50 3.255
342.60 3.252
342.70 3.249
342.80 3.245
342.90 3.242
343.00 3.239
343.10 3.236
343.20 3.232
343.30 3.229
343.40 3.226
343.50 3.223
343.60 3.219
343.70 3.216
343.80 3.213
343.90 3.21
344.00 3.206
344.10 3.203
344.20 3.2
344.30 3.197
344.40 3.193
344.50 3.19
344.60 3.187
344.70 3.184
344.80 3.181
344.90 3.177
345.00 3.174
345.10 3.171
345.20 3.168
345.30 3.165
345.40 3.161
345.50 3.158
345.60 3.155
345.70 3.152
345.80 3.149
345.90 3.146
346.00 3.142
346.10 3.139
346.20 3.136
346.30 3.133
346.40 3.13
346.50 3.127
346.60 3.124
346.70 3.121
346.80 3.117
346.90 3.114
347.00 3.111
347.10 3.108
347.20 3.105
347.30 3.102
347.40 3.099
347.50 3.096
347.60 3.093
347.70 3.089
347.80 3.086
347.90 3.083
348.00 3.08
348.10 3.077
348.20 3.074
348.30 3.071
348.40 3.068
348.50 3.065
348.60 3.062
348.70 3.059
348.80 3.056
348.90 3.053
349.00 3.05
349.10 3.047
349.20 3.044
349.30 3.041
349.40 3.038
349.50 3.035
349.60 3.032
349.70 3.029
349.80 3.026
349.90 3.023
350.00 3.02
350.10 3.017
350.20 3.014
350.30 3.011
350.40 3.008
350.50 3.005
350.60 3.002
350.70 2.999
350.80 2.996
350.90 2.993
351.00 2.99
351.10 2.987
351.20 2.984
351.30 2.981
351.40 2.978
351.50 2.975
351.60 2.972
351.70 2.969
351.80 2.966
351.90 2.963
352.00 2.96
352.10 2.957
352.20 2.955
352.30 2.952
352.40 2.949
352.50 2.946
352.60 2.943
352.70 2.94
352.80 2.937
352.90 2.934
353.00 2.931
353.10 2.928
353.20 2.926
353.30 2.923
353.40 2.92
353.50 2.917
353.60 2.914
353.70 2.911
353.80 2.908
353.90 2.905
354.00 2.903
354.10 2.9
354.20 2.897
354.30 2.894
354.40 2.891
354.50 2.888
354.60 2.886
354.70 2.883
354.80 2.88
354.90 2.877
355.00 2.874
355.10 2.872
355.20 2.869
355.30 2.866
355.40 2.863
355.50 2.86
355.60 2.857
355.70 2.855
355.80 2.852
355.90 2.849
356.00 2.846
356.10 2.844
356.20 2.841
356.30 2.838
356.40 2.835
356.50 2.832
356.60 2.83
356.70 2.827
356.80 2.824
356.90 2.821
357.00 2.819
357.10 2.816
357.20 2.813
357.30 2.81
357.40 2.808
357.50 2.805
357.60 2.802
357.70 2.8
357.80 2.797
357.90 2.794
358.00 2.791
358.10 2.789
358.20 2.786
358.30 2.783
358.40 2.781
358.50 2.778
358.60 2.775
358.70 2.773
358.80 2.77
358.90 2.767
359.00 2.764
359.10 2.762
359.20 2.759
359.30 2.756
359.40 2.754
359.50 2.751
359.60 2.748
359.70 2.746
359.80 2.743
359.90 2.74
360.00 2.738
360.10 2.735
360.20 2.733
360.30 2.73
360.40 2.727
360.50 2.725
360.60 2.722
360.70 2.719
360.80 2.717
360.90 2.714
361.00 2.712
361.10 2.709
361.20 2.706
361.30 2.704
361.40 2.701
361.50 2.698
361.60 2.696
361.70 2.693
361.80 2.691
361.90 2.688
362.00 2.685
362.10 2.683
362.20 2.68
362.30 2.678
362.40 2.675
362.50 2.673
362.60 2.67
362.70 2.667
362.80 2.665
362.90 2.662
363.00 2.66
363.10 2.657
363.20 2.655
363.30 2.652
363.40 2.65
363.50 2.647
363.60 2.645
363.70 2.642
363.80 2.639
363.90 2.637
364.00 2.634
364.10 2.632
364.20 2.629
364.30 2.627
364.40 2.624
364.50 2.622
364.60 2.619
364.70 2.617
364.80 2.614
364.90 2.612
365.00 2.609
365.10 2.607
365.20 2.604
365.30 2.602
365.40 2.599
365.50 2.597
365.60 2.594
365.70 2.592
365.80 2.59
365.90 2.587
366.00 2.585
366.10 2.582
366.20 2.579
366.30 2.577
366.40 2.574
366.50 2.572
366.60 2.569
366.70 2.566
366.80 2.564
366.90 2.561
367.00 2.559
367.10 2.556
367.20 2.554
367.30 2.551
367.40 2.548
367.50 2.546
367.60 2.543
367.70 2.541
367.80 2.538
367.90 2.536
368.00 2.533
368.10 2.53
368.20 2.528
368.30 2.525
368.40 2.522
368.50 2.52
368.60 2.517
368.70 2.514
368.80 2.512
368.90 2.509
369.00 2.506
369.10 2.504
369.20 2.501
369.30 2.498
369.40 2.496
369.50 2.493
369.60 2.49
369.70 2.488
369.80 2.485
369.90 2.483
370.00 2.48
370.10 2.477
370.20 2.475
370.30 2.472
370.40 2.47
370.50 2.467
370.60 2.465
370.70 2.462
370.80 2.46
370.90 2.457
371.00 2.454
371.10 2.452
371.20 2.449
371.30 2.447
371.40 2.444
371.50 2.442
371.60 2.439
371.70 2.437
371.80 2.434
371.90 2.432
372.00 2.429
372.10 2.427
372.20 2.425
372.30 2.422
372.40 2.42
372.50 2.418
372.60 2.415
372.70 2.413
372.80 2.411
372.90 2.408
373.00 2.406
373.10 2.404
373.20 2.402
373.30 2.399
373.40 2.397
373.50 2.395
373.60 2.392
373.70 2.39
373.80 2.388
373.90 2.386
374.00 2.383
374.10 2.381
374.20 2.379
374.30 2.376
374.40 2.374
374.50 2.371
374.60 2.369
374.70 2.367
374.80 2.364
374.90 2.362
375.00 2.36
375.10 2.357
375.20 2.355
375.30 2.352
375.40 2.35
375.50 2.348
375.60 2.345
375.70 2.343
375.80 2.341
375.90 2.338
376.00 2.336
376.10 2.334
376.20 2.331
376.30 2.329
376.40 2.327
376.50 2.325
376.60 2.322
376.70 2.32
376.80 2.318
376.90 2.316
377.00 2.313
377.10 2.311
377.20 2.309
377.30 2.307
377.40 2.305
377.50 2.303
377.60 2.301
377.70 2.299
377.80 2.297
377.90 2.295
378.00 2.293
378.10 2.29
378.20 2.288
378.30 2.286
378.40 2.284
378.50 2.282
378.60 2.28
378.70 2.278
378.80 2.276
378.90 2.274
379.00 2.272
379.10 2.27
379.20 2.268
379.30 2.266
379.40 2.264
379.50 2.262
379.60 2.26
379.70 2.258
379.80 2.256
379.90 2.254
380.00 2.252
380.10 2.25
380.20 2.248
380.30 2.247
380.40 2.245
380.50 2.243
380.60 2.242
380.70 2.24
380.80 2.238
380.90 2.236
381.00 2.235
381.10 2.233
381.20 2.231
381.30 2.229
381.40 2.227
381.50 2.226
381.60 2.224
381.70 2.222
381.80 2.22
381.90 2.218
382.00 2.216
382.10 2.214
382.20 2.212
382.30 2.21
382.40 2.208
382.50 2.206
382.60 2.204
382.70 2.201
382.80 2.199
382.90 2.197
383.00 2.195
383.10 2.193
383.20 2.191
383.30 2.189
383.40 2.187
383.50 2.185
383.60 2.184
383.70 2.183
383.80 2.181
383.90 2.18
384.00 2.179
384.10 2.178
384.20 2.178
384.30 2.177
384.40 2.176
384.50 2.175
384.60 2.173
384.70 2.172
384.80 2.171
384.90 2.17
385.00 2.169
385.10 2.168
385.20 2.166
385.30 2.165
385.40 2.163
385.50 2.162
385.60 2.16
385.70 2.159
385.80 2.157
385.90 2.155
386.00 2.153
386.10 2.151
386.20 2.15
386.30 2.147
386.40 2.145
386.50 2.143
386.60 2.141
386.70 2.139
386.80 2.136
386.90 2.134
387.00 2.131
387.10 2.129
387.20 2.126
387.30 2.123
387.40 2.121
387.50 2.118
387.60 2.115
387.70 2.112
387.80 2.109
387.90 2.106
388.00 2.103
388.10 2.1
388.20 2.097
388.30 2.094
388.40 2.091
388.50 2.089
388.60 2.086
388.70 2.084
388.80 2.082
388.90 2.08
389.00 2.079
389.10 2.079
389.20 2.079
389.30 2.079
389.40 2.08
389.50 2.08
389.60 2.081
389.70 2.081
389.80 2.082
389.90 2.082
390.00 2.083
390.10 2.083
390.20 2.084
390.30 2.084
390.40 2.085
390.50 2.085
390.60 2.085
390.70 2.085
390.80 2.085
390.90 2.085
391.00 2.085
391.10 2.085
391.20 2.084
391.30 2.084
391.40 2.083
391.50 2.083
391.60 2.082
391.70 2.081
391.80 2.08
391.90 2.079
392.00 2.077
392.10 2.076
392.20 2.074
392.30 2.073
392.40 2.071
392.50 2.069
392.60 2.067
392.70 2.065
392.80 2.063
392.90 2.06
393.00 2.058
393.10 2.055
393.20 2.052
393.30 2.049
393.40 2.046
393.50 2.043
393.60 2.04
393.70 2.036
393.80 2.033
393.90 2.029
394.00 2.025
394.10 2.021
394.20 2.017
394.30 2.012
394.40 2.008
394.50 2.003
394.60 1.999
394.70 1.994
394.80 1.989
394.90 1.983
395.00 1.978
395.10 1.972
395.20 1.967
395.30 1.961
395.40 1.955
395.50 1.949
395.60 1.943
395.70 1.936
395.80 1.93
395.90 1.923
396.00 1.917
396.10 1.91
396.20 1.903
396.30 1.897
396.40 1.89
396.50 1.883
396.60 1.876
396.70 1.87
396.80 1.863
396.90 1.857
397.00 1.851
397.10 1.855
397.20 1.858
397.30 1.862
397.40 1.867
397.50 1.872
397.60 1.876
397.70 1.881
397.80 1.886
397.90 1.891
398.00 1.895
398.10 1.9
398.20 1.904
398.30 1.909
398.40 1.913
398.50 1.917
398.60 1.921
398.70 1.925
398.80 1.929
398.90 1.932
399.00 1.936
399.10 1.939
399.20 1.942
399.30 1.946
399.40 1.949
399.50 1.951
399.60 1.954
399.70 1.957
399.80 1.959
399.90 1.961
400.00 1.963
400.10 1.965
400.20 1.967
400.30 1.969
400.40 1.971
400.50 1.972
400.60 1.973
400.70 1.975
400.80 1.976
400.90 1.977
401.00 1.978
401.10 1.978
401.20 1.979
401.30 1.979
401.40 1.98
401.50 1.98
401.60 1.98
401.70 1.98
401.80 1.98
401.90 1.979
402.00 1.979
402.10 1.978
402.20 1.978
402.30 1.977
402.40 1.976
402.50 1.975
402.60 1.974
402.70 1.972
402.80 1.971
402.90 1.969
403.00 1.968
403.10 1.966
403.20 1.964
403.30 1.962
403.40 1.96
403.50 1.958
403.60 1.955
403.70 1.953
403.80 1.95
403.90 1.947
404.00 1.944
404.10 1.941
404.20 1.938
404.30 1.935
404.40 1.931
404.50 1.928
404.60 1.924
404.70 1.92
404.80 1.916
404.90 1.912
405.00 1.908
405.10 1.903
405.20 1.899
405.30 1.894
405.40 1.889
405.50 1.884
405.60 1.879
405.70 1.874
405.80 1.868
405.90 1.862
406.00 1.857
406.10 1.851
406.20 1.844
406.30 1.838
406.40 1.832
406.50 1.825
406.60 1.818
406.70 1.811
406.80 1.804
406.90 1.796
407.00 1.789
407.10 1.781
407.20 1.773
407.30 1.765
407.40 1.757
407.50 1.748
407.60 1.739
407.70 1.73
407.80 1.721
407.90 1.712
408.00 1.702
408.10 1.693
408.20 1.683
408.30 1.673
408.40 1.662
408.50 1.652
408.60 1.641
408.70 1.63
408.80 1.619
408.90 1.607
409.00 1.596
409.10 1.584
409.20 1.573
409.30 1.561
409.40 1.549
409.50 1.537
409.60 1.526
409.70 1.515
409.80 1.505
409.90 1.496
410.00 1.491
410.10 1.488
410.20 1.489
410.30 1.487
410.40 1.489
410.50 1.494
410.60 1.501
410.70 1.51
410.80 1.519
410.90 1.528
411.00 1.537
411.10 1.547
411.20 1.556
411.30 1.566
411.40 1.575
411.50 1.584
411.60 1.593
411.70 1.602
411.80 1.61
411.90 1.618
412.00 1.626
412.10 1.634
412.20 1.642
412.30 1.649
412.40 1.656
412.50 1.663
412.60 1.67
412.70 1.677
412.80 1.683
412.90 1.689
413.00 1.695
413.10 1.701
413.20 1.707
413.30 1.712
413.40 1.717
413.50 1.723
413.60 1.728
413.70 1.732
413.80 1.737
413.90 1.741
414.00 1.746
414.10 1.75
414.20 1.754
414.30 1.758
414.40 1.762
414.50 1.765
414.60 1.769
414.70 1.772
414.80 1.775
414.90 1.778
415.00 1.781
415.10 1.784
415.20 1.787
415.30 1.789
415.40 1.792
415.50 1.794
415.60 1.796
415.70 1.798
415.80 1.8
415.90 1.802
416.00 1.804
416.10 1.806
416.20 1.808
416.30 1.809
416.40 1.811
416.50 1.812
416.60 1.813
416.70 1.815
416.80 1.816
416.90 1.817
417.00 1.818
417.10 1.819
417.20 1.82
417.30 1.82
417.40 1.821
417.50 1.822
417.60 1.822
417.70 1.823
417.80 1.823
417.90 1.823
418.00 1.824
418.10 1.824
418.20 1.824
418.30 1.824
418.40 1.824
418.50 1.824
418.60 1.824
418.70 1.824
418.80 1.824
418.90 1.824
419.00 1.824
419.10 1.823
419.20 1.823
419.30 1.822
419.40 1.822
419.50 1.822
419.60 1.821
419.70 1.82
419.80 1.82
419.90 1.819
420.00 1.818
420.10 1.818
420.20 1.817
420.30 1.816
420.40 1.815
420.50 1.814
420.60 1.813
420.70 1.812
420.80 1.811
420.90 1.81
421.00 1.809
421.10 1.807
421.20 1.806
421.30 1.805
421.40 1.804
421.50 1.802
421.60 1.801
421.70 1.799
421.80 1.798
421.90 1.797
422.00 1.795
422.10 1.793
422.20 1.792
422.30 1.79
422.40 1.788
422.50 1.787
422.60 1.785
422.70 1.783
422.80 1.781
422.90 1.779
423.00 1.778
423.10 1.776
423.20 1.774
423.30 1.772
423.40 1.769
423.50 1.767
423.60 1.765
423.70 1.763
423.80 1.761
423.90 1.758
424.00 1.756
424.10 1.754
424.20 1.751
424.30 1.749
424.40 1.746
424.50 1.744
424.60 1.741
424.70 1.738
424.80 1.736
424.90 1.733
425.00 1.73
425.10 1.727
425.20 1.724
425.30 1.721
425.40 1.718
425.50 1.715
425.60 1.712
425.70 1.709
425.80 1.705
425.90 1.702
426.00 1.699
426.10 1.695
426.20 1.692
426.30 1.688
426.40 1.684
426.50 1.681
426.60 1.677
426.70 1.673
426.80 1.669
426.90 1.665
427.00 1.661
427.10 1.657
427.20 1.653
427.30 1.648
427.40 1.644
427.50 1.639
427.60 1.635
427.70 1.63
427.80 1.625
427.90 1.62
428.00 1.615
428.10 1.61
428.20 1.605
428.30 1.6
428.40 1.595
428.50 1.589
428.60 1.584
428.70 1.578
428.80 1.572
428.90 1.566
429.00 1.56
429.10 1.554
429.20 1.548
429.30 1.542
429.40 1.535
429.50 1.529
429.60 1.522
429.70 1.515
429.80 1.508
429.90 1.501
430.00 1.494
430.10 1.487
430.20 1.479
430.30 1.471
430.40 1.464
430.50 1.456
430.60 1.448
430.70 1.439
430.80 1.431
430.90 1.423
431.00 1.414
431.10 1.405
431.20 1.396
431.30 1.387
431.40 1.377
431.50 1.367
431.60 1.358
431.70 1.348
431.80 1.337
431.90 1.327
432.00 1.316
432.10 1.305
432.20 1.294
432.30 1.283
432.40 1.271
432.50 1.259
432.60 1.247
432.70 1.234
432.80 1.221
432.90 1.208
433.00 1.195
433.10 1.181
433.20 1.167
433.30 1.153
433.40 1.138
433.50 1.123
433.60 1.108
433.70 1.092
433.80 1.075
433.90 1.056
434.00 1.03
434.10 1.03
434.20 1.055
434.30 1.072
434.40 1.088
434.50 1.102
434.60 1.116
434.70 1.129
434.80 1.142
434.90 1.155
435.00 1.167
435.10 1.179
435.20 1.19
435.30 1.201
435.40 1.212
435.50 1.223
435.60 1.233
435.70 1.243
435.80 1.252
435.90 1.262
436.00 1.271
436.10 1.279
436.20 1.288
436.30 1.296
436.40 1.304
436.50 1.312
436.60 1.32
436.70 1.327
436.80 1.334
436.90 1.341
437.00 1.348
437.10 1.354
437.20 1.361
437.30 1.367
437.40 1.373
437.50 1.379
437.60 1.384
437.70 1.39
437.80 1.395
437.90 1.4
438.00 1.405
438.10 1.41
438.20 1.415
438.30 1.419
438.40 1.424
438.50 1.428
438.60 1.432
438.70 1.436
438.80 1.44
438.90 1.444
439.00 1.448
439.10 1.451
439.20 1.455
439.30 1.458
439.40 1.461
439.50 1.464
439.60 1.467
439.70 1.47
439.80 1.473
439.90 1.476
440.00 1.478
440.10 1.481
440.20 1.483
440.30 1.485
440.40 1.487
440.50 1.49
440.60 1.492
440.70 1.494
440.80 1.495
440.90 1.497
441.00 1.499
441.10 1.5
441.20 1.502
441.30 1.503
441.40 1.505
441.50 1.506
441.60 1.507
441.70 1.509
441.80 1.51
441.90 1.511
442.00 1.512
442.10 1.513
442.20 1.514
442.30 1.515
442.40 1.515
442.50 1.516
442.60 1.517
442.70 1.517
442.80 1.518
442.90 1.518
443.00 1.519
443.10 1.519
443.20 1.52
443.30 1.52
443.40 1.52
443.50 1.521
443.60 1.521
443.70 1.521
443.80 1.521
443.90 1.521
444.00 1.521
444.10 1.522
444.20 1.522
444.30 1.522
444.40 1.521
444.50 1.521
444.60 1.521
444.70 1.521
444.80 1.521
444.90 1.521
445.00 1.521
445.10 1.52
445.20 1.52
445.30 1.52
445.40 1.519
445.50 1.519
445.60 1.519
445.70 1.518
445.80 1.518
445.90 1.518
446.00 1.517
446.10 1.517
446.20 1.516
446.30 1.516
446.40 1.515
446.50 1.515
446.60 1.514
446.70 1.514
446.80 1.513
446.90 1.512
447.00 1.512
447.10 1.511
447.20 1.511
447.30 1.51
447.40 1.509
447.50 1.509
447.60 1.508
447.70 1.507
447.80 1.506
447.90 1.506
448.00 1.505
448.10 1.504
448.20 1.503
448.30 1.503
448.40 1.502
448.50 1.501
448.60 1.5
448.70 1.5
448.80 1.499
448.90 1.498
449.00 1.497
449.10 1.496
449.20 1.495
449.30 1.495
449.40 1.494
449.50 1.493
449.60 1.492
449.70 1.491
449.80 1.49
449.90 1.489
450.00 1.488
450.10 1.487
450.20 1.487
450.30 1.486
450.40 1.485
450.50 1.484
450.60 1.483
450.70 1.482
450.80 1.481
450.90 1.48
451.00 1.479
451.10 1.478
451.20 1.477
451.30 1.476
451.40 1.475
451.50 1.474
451.60 1.473
451.70 1.472
451.80 1.471
451.90 1.47
452.00 1.469
452.10 1.468
452.20 1.467
452.30 1.466
452.40 1.465
452.50 1.464
452.60 1.463
452.70 1.462
452.80 1.461
452.90 1.46
453.00 1.459
453.10 1.458
453.20 1.457
453.30 1.456
453.40 1.455
453.50 1.454
453.60 1.453
453.70 1.452
453.80 1.45
453.90 1.449
454.00 1.448
454.10 1.447
