# Version 2.1 - nm, norm@500 to 1, cut digits, bergeron_14000_90.dat_14000
# Wavelength(nm)  Flambda(ergs/cm^s/s/nm)
300.00 2.486
300.10 2.485
300.20 2.483
300.30 2.481
300.40 2.479
300.50 2.477
300.60 2.476
300.70 2.474
300.80 2.472
300.90 2.47
301.00 2.468
301.10 2.467
301.20 2.465
301.30 2.463
301.40 2.461
301.50 2.459
301.60 2.458
301.70 2.456
301.80 2.454
301.90 2.452
302.00 2.451
302.10 2.449
302.20 2.447
302.30 2.445
302.40 2.443
302.50 2.442
302.60 2.44
302.70 2.438
302.80 2.436
302.90 2.435
303.00 2.433
303.10 2.431
303.20 2.429
303.30 2.428
303.40 2.426
303.50 2.424
303.60 2.422
303.70 2.421
303.80 2.419
303.90 2.417
304.00 2.415
304.10 2.414
304.20 2.412
304.30 2.41
304.40 2.408
304.50 2.407
304.60 2.405
304.70 2.403
304.80 2.401
304.90 2.4
305.00 2.398
305.10 2.396
305.20 2.395
305.30 2.393
305.40 2.391
305.50 2.389
305.60 2.388
305.70 2.386
305.80 2.384
305.90 2.383
306.00 2.381
306.10 2.379
306.20 2.377
306.30 2.376
306.40 2.374
306.50 2.372
306.60 2.371
306.70 2.369
306.80 2.367
306.90 2.365
307.00 2.364
307.10 2.362
307.20 2.36
307.30 2.359
307.40 2.357
307.50 2.355
307.60 2.354
307.70 2.352
307.80 2.35
307.90 2.348
308.00 2.347
308.10 2.345
308.20 2.343
308.30 2.342
308.40 2.34
308.50 2.338
308.60 2.337
308.70 2.335
308.80 2.333
308.90 2.332
309.00 2.33
309.10 2.328
309.20 2.327
309.30 2.325
309.40 2.323
309.50 2.322
309.60 2.32
309.70 2.318
309.80 2.317
309.90 2.315
310.00 2.313
310.10 2.312
310.20 2.31
310.30 2.308
310.40 2.307
310.50 2.305
310.60 2.304
310.70 2.302
310.80 2.3
310.90 2.299
311.00 2.297
311.10 2.295
311.20 2.294
311.30 2.292
311.40 2.29
311.50 2.289
311.60 2.287
311.70 2.285
311.80 2.284
311.90 2.282
312.00 2.281
312.10 2.279
312.20 2.277
312.30 2.276
312.40 2.274
312.50 2.272
312.60 2.271
312.70 2.269
312.80 2.268
312.90 2.266
313.00 2.264
313.10 2.263
313.20 2.261
313.30 2.26
313.40 2.258
313.50 2.256
313.60 2.255
313.70 2.253
313.80 2.252
313.90 2.25
314.00 2.248
314.10 2.247
314.20 2.245
314.30 2.244
314.40 2.242
314.50 2.24
314.60 2.239
314.70 2.237
314.80 2.236
314.90 2.234
315.00 2.232
315.10 2.231
315.20 2.229
315.30 2.228
315.40 2.226
315.50 2.224
315.60 2.223
315.70 2.221
315.80 2.22
315.90 2.218
316.00 2.217
316.10 2.215
316.20 2.213
316.30 2.212
316.40 2.21
316.50 2.209
316.60 2.207
316.70 2.206
316.80 2.204
316.90 2.203
317.00 2.201
317.10 2.199
317.20 2.198
317.30 2.196
317.40 2.195
317.50 2.193
317.60 2.192
317.70 2.19
317.80 2.189
317.90 2.187
318.00 2.185
318.10 2.184
318.20 2.182
318.30 2.181
318.40 2.179
318.50 2.178
318.60 2.176
318.70 2.175
318.80 2.173
318.90 2.172
319.00 2.17
319.10 2.168
319.20 2.167
319.30 2.165
319.40 2.164
319.50 2.162
319.60 2.161
319.70 2.159
319.80 2.158
319.90 2.156
320.00 2.155
320.10 2.153
320.20 2.152
320.30 2.15
320.40 2.149
320.50 2.147
320.60 2.146
320.70 2.144
320.80 2.143
320.90 2.141
321.00 2.14
321.10 2.138
321.20 2.137
321.30 2.135
321.40 2.134
321.50 2.132
321.60 2.131
321.70 2.129
321.80 2.128
321.90 2.126
322.00 2.125
322.10 2.123
322.20 2.122
322.30 2.12
322.40 2.119
322.50 2.117
322.60 2.116
322.70 2.114
322.80 2.113
322.90 2.111
323.00 2.11
323.10 2.108
323.20 2.107
323.30 2.105
323.40 2.104
323.50 2.102
323.60 2.101
323.70 2.099
323.80 2.098
323.90 2.096
324.00 2.095
324.10 2.094
324.20 2.092
324.30 2.091
324.40 2.089
324.50 2.088
324.60 2.086
324.70 2.085
324.80 2.083
324.90 2.082
325.00 2.08
325.10 2.079
325.20 2.077
325.30 2.076
325.40 2.075
325.50 2.073
325.60 2.072
325.70 2.07
325.80 2.069
325.90 2.067
326.00 2.066
326.10 2.064
326.20 2.063
326.30 2.062
326.40 2.06
326.50 2.059
326.60 2.057
326.70 2.056
326.80 2.054
326.90 2.053
327.00 2.051
327.10 2.05
327.20 2.049
327.30 2.047
327.40 2.046
327.50 2.044
327.60 2.043
327.70 2.041
327.80 2.04
327.90 2.039
328.00 2.037
328.10 2.036
328.20 2.034
328.30 2.033
328.40 2.032
328.50 2.03
328.60 2.029
328.70 2.027
328.80 2.026
328.90 2.024
329.00 2.023
329.10 2.022
329.20 2.02
329.30 2.019
329.40 2.017
329.50 2.016
329.60 2.015
329.70 2.013
329.80 2.012
329.90 2.01
330.00 2.009
330.10 2.008
330.20 2.006
330.30 2.005
330.40 2.003
330.50 2.002
330.60 2.001
330.70 1.999
330.80 1.998
330.90 1.997
331.00 1.995
331.10 1.994
331.20 1.992
331.30 1.991
331.40 1.99
331.50 1.988
331.60 1.987
331.70 1.985
331.80 1.984
331.90 1.983
332.00 1.981
332.10 1.98
332.20 1.979
332.30 1.977
332.40 1.976
332.50 1.974
332.60 1.973
332.70 1.972
332.80 1.97
332.90 1.969
333.00 1.968
333.10 1.966
333.20 1.965
333.30 1.964
333.40 1.962
333.50 1.961
333.60 1.96
333.70 1.958
333.80 1.957
333.90 1.955
334.00 1.954
334.10 1.953
334.20 1.951
334.30 1.95
334.40 1.949
334.50 1.947
334.60 1.946
334.70 1.945
334.80 1.943
334.90 1.942
335.00 1.941
335.10 1.939
335.20 1.938
335.30 1.937
335.40 1.935
335.50 1.934
335.60 1.933
335.70 1.931
335.80 1.93
335.90 1.929
336.00 1.927
336.10 1.926
336.20 1.925
336.30 1.923
336.40 1.922
336.50 1.921
336.60 1.919
336.70 1.918
336.80 1.917
336.90 1.915
337.00 1.914
337.10 1.913
337.20 1.911
337.30 1.91
337.40 1.909
337.50 1.907
337.60 1.906
337.70 1.905
337.80 1.904
337.90 1.902
338.00 1.901
338.10 1.9
338.20 1.898
338.30 1.897
338.40 1.896
338.50 1.894
338.60 1.893
338.70 1.892
338.80 1.891
338.90 1.889
339.00 1.888
339.10 1.887
339.20 1.885
339.30 1.884
339.40 1.883
339.50 1.881
339.60 1.88
339.70 1.879
339.80 1.878
339.90 1.876
340.00 1.875
340.10 1.874
340.20 1.872
340.30 1.871
340.40 1.87
340.50 1.869
340.60 1.867
340.70 1.866
340.80 1.865
340.90 1.864
341.00 1.862
341.10 1.861
341.20 1.86
341.30 1.858
341.40 1.857
341.50 1.856
341.60 1.855
341.70 1.853
341.80 1.852
341.90 1.851
342.00 1.85
342.10 1.848
342.20 1.847
342.30 1.846
342.40 1.844
342.50 1.843
342.60 1.842
342.70 1.841
342.80 1.839
342.90 1.838
343.00 1.837
343.10 1.836
343.20 1.834
343.30 1.833
343.40 1.832
343.50 1.831
343.60 1.829
343.70 1.828
343.80 1.827
343.90 1.826
344.00 1.824
344.10 1.823
344.20 1.822
344.30 1.821
344.40 1.82
344.50 1.818
344.60 1.817
344.70 1.816
344.80 1.815
344.90 1.813
345.00 1.812
345.10 1.811
345.20 1.81
345.30 1.808
345.40 1.807
345.50 1.806
345.60 1.805
345.70 1.803
345.80 1.802
345.90 1.801
346.00 1.8
346.10 1.799
346.20 1.797
346.30 1.796
346.40 1.795
346.50 1.794
346.60 1.792
346.70 1.791
346.80 1.79
346.90 1.789
347.00 1.788
347.10 1.786
347.20 1.785
347.30 1.784
347.40 1.783
347.50 1.782
347.60 1.78
347.70 1.779
347.80 1.778
347.90 1.777
348.00 1.776
348.10 1.774
348.20 1.773
348.30 1.772
348.40 1.771
348.50 1.77
348.60 1.768
348.70 1.767
348.80 1.766
348.90 1.765
349.00 1.764
349.10 1.762
349.20 1.761
349.30 1.76
349.40 1.759
349.50 1.758
349.60 1.756
349.70 1.755
349.80 1.754
349.90 1.753
350.00 1.752
350.10 1.751
350.20 1.749
350.30 1.748
350.40 1.747
350.50 1.746
350.60 1.745
350.70 1.743
350.80 1.742
350.90 1.741
351.00 1.74
351.10 1.739
351.20 1.738
351.30 1.736
351.40 1.735
351.50 1.734
351.60 1.733
351.70 1.732
351.80 1.731
351.90 1.729
352.00 1.728
352.10 1.727
352.20 1.726
352.30 1.725
352.40 1.724
352.50 1.722
352.60 1.721
352.70 1.72
352.80 1.719
352.90 1.718
353.00 1.717
353.10 1.715
353.20 1.714
353.30 1.713
353.40 1.712
353.50 1.711
353.60 1.71
353.70 1.709
353.80 1.707
353.90 1.706
354.00 1.705
354.10 1.704
354.20 1.703
354.30 1.702
354.40 1.701
354.50 1.699
354.60 1.698
354.70 1.697
354.80 1.696
354.90 1.695
355.00 1.694
355.10 1.693
355.20 1.691
355.30 1.69
355.40 1.689
355.50 1.688
355.60 1.687
355.70 1.686
355.80 1.685
355.90 1.684
356.00 1.682
356.10 1.681
356.20 1.68
356.30 1.679
356.40 1.678
356.50 1.677
356.60 1.676
356.70 1.675
356.80 1.673
356.90 1.672
357.00 1.671
357.10 1.67
357.20 1.669
357.30 1.668
357.40 1.667
357.50 1.666
357.60 1.664
357.70 1.663
357.80 1.662
357.90 1.661
358.00 1.66
358.10 1.659
358.20 1.658
358.30 1.657
358.40 1.656
358.50 1.655
358.60 1.653
358.70 1.652
358.80 1.651
358.90 1.65
359.00 1.649
359.10 1.648
359.20 1.647
359.30 1.646
359.40 1.645
359.50 1.644
359.60 1.642
359.70 1.641
359.80 1.64
359.90 1.639
360.00 1.638
360.10 1.637
360.20 1.636
360.30 1.635
360.40 1.634
360.50 1.633
360.60 1.632
360.70 1.63
360.80 1.629
360.90 1.628
361.00 1.627
361.10 1.626
361.20 1.625
361.30 1.624
361.40 1.623
361.50 1.622
361.60 1.621
361.70 1.62
361.80 1.619
361.90 1.617
362.00 1.616
362.10 1.615
362.20 1.614
362.30 1.613
362.40 1.612
362.50 1.611
362.60 1.61
362.70 1.609
362.80 1.608
362.90 1.607
363.00 1.606
363.10 1.604
363.20 1.603
363.30 1.602
363.40 1.601
363.50 1.6
363.60 1.598
363.70 1.597
363.80 1.596
363.90 1.595
364.00 1.593
364.10 1.592
364.20 1.591
364.30 1.59
364.40 1.588
364.50 1.587
364.60 1.586
364.70 1.585
364.80 1.583
364.90 1.582
365.00 1.581
365.10 1.58
365.20 1.578
365.30 1.577
365.40 1.576
365.50 1.574
365.60 1.573
365.70 1.572
365.80 1.571
365.90 1.569
366.00 1.568
366.10 1.567
366.20 1.566
366.30 1.565
366.40 1.564
366.50 1.563
366.60 1.562
366.70 1.56
366.80 1.559
366.90 1.558
367.00 1.557
367.10 1.556
367.20 1.555
367.30 1.554
367.40 1.553
367.50 1.552
367.60 1.551
367.70 1.55
367.80 1.548
367.90 1.547
368.00 1.546
368.10 1.545
368.20 1.544
368.30 1.543
368.40 1.542
368.50 1.541
368.60 1.54
368.70 1.539
368.80 1.538
368.90 1.537
369.00 1.535
369.10 1.534
369.20 1.533
369.30 1.532
369.40 1.531
369.50 1.53
369.60 1.529
369.70 1.528
369.80 1.527
369.90 1.526
370.00 1.525
370.10 1.524
370.20 1.523
370.30 1.522
370.40 1.521
370.50 1.52
370.60 1.519
370.70 1.518
370.80 1.517
370.90 1.516
371.00 1.515
371.10 1.514
371.20 1.513
371.30 1.512
371.40 1.511
371.50 1.51
371.60 1.509
371.70 1.508
371.80 1.507
371.90 1.506
372.00 1.505
372.10 1.504
372.20 1.504
372.30 1.503
372.40 1.502
372.50 1.501
372.60 1.501
372.70 1.5
372.80 1.499
372.90 1.498
373.00 1.497
373.10 1.497
373.20 1.496
373.30 1.495
373.40 1.494
373.50 1.494
373.60 1.493
373.70 1.492
373.80 1.491
373.90 1.491
374.00 1.49
374.10 1.489
374.20 1.489
374.30 1.488
374.40 1.488
374.50 1.487
374.60 1.486
374.70 1.486
374.80 1.485
374.90 1.485
375.00 1.484
375.10 1.484
375.20 1.483
375.30 1.483
375.40 1.482
375.50 1.481
375.60 1.481
375.70 1.48
375.80 1.48
375.90 1.479
376.00 1.479
376.10 1.478
376.20 1.477
376.30 1.477
376.40 1.476
376.50 1.476
376.60 1.475
376.70 1.475
376.80 1.474
376.90 1.474
377.00 1.473
377.10 1.472
377.20 1.471
377.30 1.47
377.40 1.47
377.50 1.469
377.60 1.468
377.70 1.467
377.80 1.466
377.90 1.465
378.00 1.465
378.10 1.463
378.20 1.461
378.30 1.459
378.40 1.458
378.50 1.456
378.60 1.454
378.70 1.452
378.80 1.451
378.90 1.449
379.00 1.447
379.10 1.446
379.20 1.445
379.30 1.444
379.40 1.442
379.50 1.441
379.60 1.44
379.70 1.439
379.80 1.438
379.90 1.436
380.00 1.435
380.10 1.436
380.20 1.437
380.30 1.437
380.40 1.438
380.50 1.439
380.60 1.439
380.70 1.44
380.80 1.441
380.90 1.442
381.00 1.442
381.10 1.442
381.20 1.442
381.30 1.442
381.40 1.442
381.50 1.442
381.60 1.441
381.70 1.44
381.80 1.439
381.90 1.437
382.00 1.436
382.10 1.434
382.20 1.431
382.30 1.428
382.40 1.424
382.50 1.42
382.60 1.417
382.70 1.413
382.80 1.409
382.90 1.406
383.00 1.402
383.10 1.398
383.20 1.395
383.30 1.393
383.40 1.39
383.50 1.387
383.60 1.388
383.70 1.39
383.80 1.393
383.90 1.395
384.00 1.398
384.10 1.402
384.20 1.406
384.30 1.41
384.40 1.414
384.50 1.418
384.60 1.421
384.70 1.424
384.80 1.427
384.90 1.428
385.00 1.43
385.10 1.431
385.20 1.432
385.30 1.433
385.40 1.434
385.50 1.434
385.60 1.434
385.70 1.434
385.80 1.433
385.90 1.433
386.00 1.432
386.10 1.43
386.20 1.429
386.30 1.427
386.40 1.425
386.50 1.423
386.60 1.42
386.70 1.418
386.80 1.415
386.90 1.411
387.00 1.408
387.10 1.404
387.20 1.4
387.30 1.395
387.40 1.39
387.50 1.385
387.60 1.38
387.70 1.374
387.80 1.368
387.90 1.361
388.00 1.353
388.10 1.344
388.20 1.335
388.30 1.326
388.40 1.315
388.50 1.306
388.60 1.298
388.70 1.293
388.80 1.288
388.90 1.285
389.00 1.288
389.10 1.292
389.20 1.297
389.30 1.305
389.40 1.315
389.50 1.325
389.60 1.335
389.70 1.344
389.80 1.353
389.90 1.361
390.00 1.368
390.10 1.375
390.20 1.381
390.30 1.387
390.40 1.392
390.50 1.397
390.60 1.402
390.70 1.406
390.80 1.41
390.90 1.414
391.00 1.418
391.10 1.421
391.20 1.424
391.30 1.427
391.40 1.429
391.50 1.431
391.60 1.433
391.70 1.435
391.80 1.436
391.90 1.437
392.00 1.438
392.10 1.439
392.20 1.439
392.30 1.439
392.40 1.439
392.50 1.438
392.60 1.437
392.70 1.436
392.80 1.434
392.90 1.432
393.00 1.43
393.10 1.428
393.20 1.425
393.30 1.422
393.40 1.419
393.50 1.415
393.60 1.411
393.70 1.407
393.80 1.402
393.90 1.397
394.00 1.392
394.10 1.386
394.20 1.38
394.30 1.373
394.40 1.367
394.50 1.359
394.60 1.352
394.70 1.344
394.80 1.336
394.90 1.327
395.00 1.318
395.10 1.309
395.20 1.299
395.30 1.289
395.40 1.279
395.50 1.268
395.60 1.257
395.70 1.245
395.80 1.233
395.90 1.22
396.00 1.207
396.10 1.194
396.20 1.179
396.30 1.163
396.40 1.146
396.50 1.126
396.60 1.105
396.70 1.083
396.80 1.068
396.90 1.053
397.00 1.038
397.10 1.051
397.20 1.065
397.30 1.079
397.40 1.1
397.50 1.121
397.60 1.141
397.70 1.158
397.80 1.174
397.90 1.188
398.00 1.202
398.10 1.215
398.20 1.227
398.30 1.239
398.40 1.251
398.50 1.262
398.60 1.273
398.70 1.284
398.80 1.294
398.90 1.304
399.00 1.314
399.10 1.323
399.20 1.332
399.30 1.341
399.40 1.349
399.50 1.357
399.60 1.365
399.70 1.373
399.80 1.38
399.90 1.387
400.00 1.393
400.10 1.4
400.20 1.406
400.30 1.412
400.40 1.417
400.50 1.422
400.60 1.427
400.70 1.432
400.80 1.437
400.90 1.441
401.00 1.445
401.10 1.449
401.20 1.453
401.30 1.456
401.40 1.459
401.50 1.462
401.60 1.464
401.70 1.467
401.80 1.469
401.90 1.471
402.00 1.473
402.10 1.474
402.20 1.476
402.30 1.477
402.40 1.478
402.50 1.478
402.60 1.479
402.70 1.479
402.80 1.479
402.90 1.479
403.00 1.479
403.10 1.478
403.20 1.477
403.30 1.477
403.40 1.475
403.50 1.474
403.60 1.472
403.70 1.47
403.80 1.468
403.90 1.466
404.00 1.464
404.10 1.461
404.20 1.458
404.30 1.455
404.40 1.451
404.50 1.448
404.60 1.444
404.70 1.44
404.80 1.436
404.90 1.432
405.00 1.427
405.10 1.422
405.20 1.417
405.30 1.412
405.40 1.406
405.50 1.4
405.60 1.394
405.70 1.388
405.80 1.381
405.90 1.374
406.00 1.367
406.10 1.359
406.20 1.352
406.30 1.344
406.40 1.336
406.50 1.327
406.60 1.318
406.70 1.309
406.80 1.3
406.90 1.291
407.00 1.281
407.10 1.27
407.20 1.26
407.30 1.249
407.40 1.238
407.50 1.226
407.60 1.214
407.70 1.202
407.80 1.19
407.90 1.177
408.00 1.164
408.10 1.15
408.20 1.137
408.30 1.122
408.40 1.108
408.50 1.093
408.60 1.078
408.70 1.062
408.80 1.046
408.90 1.029
409.00 1.012
409.10 0.9952
409.20 0.9783
409.30 0.9612
409.40 0.943
409.50 0.9236
409.60 0.9033
409.70 0.8802
409.80 0.8558
409.90 0.8302
410.00 0.8091
410.10 0.7946
410.20 0.7867
410.30 0.8003
410.40 0.8187
410.50 0.8419
410.60 0.8662
410.70 0.889
410.80 0.9102
410.90 0.9289
411.00 0.9466
411.10 0.9633
411.20 0.9793
411.30 0.9953
411.40 1.011
411.50 1.027
411.60 1.042
411.70 1.058
411.80 1.072
411.90 1.086
412.00 1.1
412.10 1.113
412.20 1.126
412.30 1.139
412.40 1.151
412.50 1.163
412.60 1.175
412.70 1.186
412.80 1.197
412.90 1.208
413.00 1.218
413.10 1.228
413.20 1.238
413.30 1.248
413.40 1.257
413.50 1.266
413.60 1.275
413.70 1.284
413.80 1.292
413.90 1.3
414.00 1.308
414.10 1.316
414.20 1.323
414.30 1.331
414.40 1.338
414.50 1.345
414.60 1.351
414.70 1.358
414.80 1.364
414.90 1.37
415.00 1.376
415.10 1.382
415.20 1.388
415.30 1.393
415.40 1.398
415.50 1.404
415.60 1.408
415.70 1.413
415.80 1.418
415.90 1.423
416.00 1.427
416.10 1.431
416.20 1.436
416.30 1.44
416.40 1.444
416.50 1.448
416.60 1.452
416.70 1.455
416.80 1.459
416.90 1.462
417.00 1.466
417.10 1.469
417.20 1.472
417.30 1.475
417.40 1.478
417.50 1.481
417.60 1.483
417.70 1.486
417.80 1.488
417.90 1.49
418.00 1.493
418.10 1.495
418.20 1.497
418.30 1.499
418.40 1.5
418.50 1.502
418.60 1.504
418.70 1.505
418.80 1.507
418.90 1.508
419.00 1.509
419.10 1.511
419.20 1.512
419.30 1.513
419.40 1.514
419.50 1.515
419.60 1.516
419.70 1.516
419.80 1.517
419.90 1.518
420.00 1.518
420.10 1.519
420.20 1.519
420.30 1.519
420.40 1.519
420.50 1.519
420.60 1.52
420.70 1.519
420.80 1.519
420.90 1.519
421.00 1.519
421.10 1.519
421.20 1.518
421.30 1.518
421.40 1.517
421.50 1.517
421.60 1.516
421.70 1.515
421.80 1.514
421.90 1.513
422.00 1.512
422.10 1.511
422.20 1.51
422.30 1.509
422.40 1.508
422.50 1.507
422.60 1.505
422.70 1.504
422.80 1.502
422.90 1.5
423.00 1.499
423.10 1.497
423.20 1.495
423.30 1.493
423.40 1.491
423.50 1.489
423.60 1.487
423.70 1.485
423.80 1.483
423.90 1.48
424.00 1.478
424.10 1.475
424.20 1.473
424.30 1.47
424.40 1.467
424.50 1.465
424.60 1.462
424.70 1.459
424.80 1.456
424.90 1.453
425.00 1.449
425.10 1.446
425.20 1.443
425.30 1.439
425.40 1.436
425.50 1.432
425.60 1.429
425.70 1.425
425.80 1.421
425.90 1.417
426.00 1.413
426.10 1.409
426.20 1.404
426.30 1.399
426.40 1.395
426.50 1.39
426.60 1.386
426.70 1.381
426.80 1.376
426.90 1.372
427.00 1.367
427.10 1.362
427.20 1.356
427.30 1.351
427.40 1.346
427.50 1.34
427.60 1.335
427.70 1.329
427.80 1.323
427.90 1.318
428.00 1.312
428.10 1.306
428.20 1.299
428.30 1.293
428.40 1.287
428.50 1.28
428.60 1.274
428.70 1.267
428.80 1.26
428.90 1.253
429.00 1.246
429.10 1.239
429.20 1.231
429.30 1.224
429.40 1.216
429.50 1.208
429.60 1.2
429.70 1.192
429.80 1.184
429.90 1.175
430.00 1.167
430.10 1.158
430.20 1.149
430.30 1.14
430.40 1.131
430.50 1.121
430.60 1.112
430.70 1.102
430.80 1.092
430.90 1.082
431.00 1.071
431.10 1.061
431.20 1.05
431.30 1.039
431.40 1.027
431.50 1.016
431.60 1.004
431.70 0.9918
431.80 0.9796
431.90 0.9671
432.00 0.9543
432.10 0.9413
432.20 0.9278
432.30 0.9139
432.40 0.8997
432.50 0.8847
432.60 0.8691
432.70 0.8532
432.80 0.8367
432.90 0.8203
433.00 0.8038
433.10 0.7876
433.20 0.7715
433.30 0.7554
433.40 0.7391
433.50 0.7221
433.60 0.7042
433.70 0.681
433.80 0.6532
433.90 0.6209
434.00 0.583
434.10 0.5837
434.20 0.623
434.30 0.6543
434.40 0.6811
434.50 0.7033
434.60 0.7203
434.70 0.7365
434.80 0.7521
434.90 0.7673
435.00 0.7826
435.10 0.798
435.20 0.8136
435.30 0.8291
435.40 0.8445
435.50 0.8594
435.60 0.8739
435.70 0.8878
435.80 0.9009
435.90 0.9136
436.00 0.9259
436.10 0.9377
436.20 0.9493
436.30 0.9606
436.40 0.9716
436.50 0.9823
436.60 0.9929
436.70 1.003
436.80 1.013
436.90 1.023
437.00 1.032
437.10 1.042
437.20 1.051
437.30 1.06
437.40 1.068
437.50 1.077
437.60 1.085
437.70 1.093
437.80 1.1
437.90 1.108
438.00 1.115
438.10 1.123
438.20 1.13
438.30 1.137
438.40 1.143
438.50 1.15
438.60 1.156
438.70 1.163
438.80 1.169
438.90 1.175
439.00 1.181
439.10 1.187
439.20 1.192
439.30 1.198
439.40 1.203
439.50 1.208
439.60 1.213
439.70 1.218
439.80 1.223
439.90 1.228
440.00 1.233
440.10 1.237
440.20 1.242
440.30 1.246
440.40 1.25
440.50 1.254
440.60 1.259
440.70 1.263
440.80 1.267
440.90 1.27
441.00 1.274
441.10 1.278
441.20 1.281
441.30 1.285
441.40 1.288
441.50 1.291
441.60 1.295
441.70 1.298
441.80 1.301
441.90 1.304
442.00 1.307
442.10 1.309
442.20 1.312
442.30 1.315
442.40 1.317
442.50 1.32
442.60 1.323
442.70 1.325
442.80 1.327
442.90 1.329
443.00 1.332
443.10 1.334
443.20 1.336
443.30 1.338
443.40 1.34
443.50 1.342
443.60 1.344
443.70 1.346
443.80 1.348
443.90 1.349
444.00 1.351
444.10 1.353
444.20 1.354
444.30 1.356
444.40 1.357
444.50 1.359
444.60 1.36
444.70 1.362
444.80 1.363
444.90 1.364
445.00 1.366
445.10 1.367
445.20 1.368
445.30 1.369
445.40 1.37
445.50 1.371
445.60 1.372
445.70 1.373
445.80 1.374
445.90 1.375
446.00 1.376
446.10 1.377
446.20 1.378
446.30 1.379
446.40 1.379
446.50 1.38
446.60 1.381
446.70 1.381
446.80 1.382
446.90 1.383
447.00 1.383
447.10 1.384
447.20 1.384
447.30 1.385
447.40 1.385
447.50 1.386
447.60 1.386
447.70 1.386
447.80 1.387
447.90 1.387
448.00 1.387
448.10 1.388
448.20 1.388
448.30 1.388
448.40 1.388
448.50 1.389
448.60 1.389
448.70 1.389
448.80 1.389
448.90 1.389
449.00 1.39
449.10 1.39
449.20 1.39
449.30 1.39
449.40 1.39
449.50 1.39
449.60 1.39
449.70 1.39
449.80 1.39
449.90 1.39
450.00 1.39
450.10 1.39
450.20 1.39
450.30 1.39
450.40 1.39
450.50 1.389
450.60 1.389
450.70 1.389
450.80 1.389
450.90 1.389
451.00 1.388
451.10 1.388
451.20 1.388
451.30 1.388
451.40 1.387
451.50 1.387
451.60 1.387
451.70 1.387
451.80 1.386
451.90 1.386
452.00 1.386
452.10 1.385
452.20 1.385
452.30 1.384
452.40 1.384
452.50 1.384
452.60 1.383
452.70 1.383
452.80 1.382
452.90 1.382
453.00 1.381
453.10 1.381
453.20 1.381
453.30 1.38
453.40 1.38
453.50 1.379
453.60 1.379
