# Version 2.1 - nm, norm@500 to 1, cut digits, bergeron_40000_65.dat_40000
# Wavelength(nm)  Flambda(ergs/cm^s/s/nm)
300.00 5.81
300.10 5.803
300.20 5.796
300.30 5.789
300.40 5.783
300.50 5.776
300.60 5.769
300.70 5.762
300.80 5.756
300.90 5.749
301.00 5.742
301.10 5.735
301.20 5.728
301.30 5.722
301.40 5.715
301.50 5.708
301.60 5.702
301.70 5.695
301.80 5.688
301.90 5.682
302.00 5.675
302.10 5.668
302.20 5.662
302.30 5.655
302.40 5.648
302.50 5.642
302.60 5.635
302.70 5.629
302.80 5.622
302.90 5.615
303.00 5.609
303.10 5.602
303.20 5.596
303.30 5.589
303.40 5.583
303.50 5.576
303.60 5.57
303.70 5.563
303.80 5.557
303.90 5.55
304.00 5.544
304.10 5.537
304.20 5.531
304.30 5.524
304.40 5.518
304.50 5.511
304.60 5.505
304.70 5.499
304.80 5.492
304.90 5.486
305.00 5.479
305.10 5.473
305.20 5.467
305.30 5.46
305.40 5.454
305.50 5.448
305.60 5.441
305.70 5.435
305.80 5.429
305.90 5.423
306.00 5.416
306.10 5.41
306.20 5.404
306.30 5.397
306.40 5.391
306.50 5.385
306.60 5.379
306.70 5.372
306.80 5.366
306.90 5.36
307.00 5.354
307.10 5.348
307.20 5.342
307.30 5.335
307.40 5.329
307.50 5.323
307.60 5.317
307.70 5.311
307.80 5.305
307.90 5.299
308.00 5.292
308.10 5.286
308.20 5.28
308.30 5.274
308.40 5.268
308.50 5.262
308.60 5.256
308.70 5.25
308.80 5.244
308.90 5.238
309.00 5.232
309.10 5.226
309.20 5.22
309.30 5.214
309.40 5.208
309.50 5.202
309.60 5.196
309.70 5.19
309.80 5.184
309.90 5.178
310.00 5.172
310.10 5.166
310.20 5.16
310.30 5.154
310.40 5.149
310.50 5.143
310.60 5.137
310.70 5.131
310.80 5.125
310.90 5.119
311.00 5.113
311.10 5.107
311.20 5.102
311.30 5.096
311.40 5.09
311.50 5.084
311.60 5.078
311.70 5.073
311.80 5.067
311.90 5.061
312.00 5.055
312.10 5.05
312.20 5.044
312.30 5.038
312.40 5.032
312.50 5.027
312.60 5.021
312.70 5.015
312.80 5.009
312.90 5.004
313.00 4.998
313.10 4.992
313.20 4.987
313.30 4.981
313.40 4.975
313.50 4.97
313.60 4.964
313.70 4.959
313.80 4.953
313.90 4.947
314.00 4.942
314.10 4.936
314.20 4.931
314.30 4.925
314.40 4.919
314.50 4.914
314.60 4.908
314.70 4.903
314.80 4.897
314.90 4.892
315.00 4.886
315.10 4.881
315.20 4.875
315.30 4.87
315.40 4.864
315.50 4.859
315.60 4.853
315.70 4.848
315.80 4.842
315.90 4.837
316.00 4.831
316.10 4.826
316.20 4.821
316.30 4.815
316.40 4.81
316.50 4.804
316.60 4.799
316.70 4.793
316.80 4.788
316.90 4.783
317.00 4.777
317.10 4.772
317.20 4.767
317.30 4.761
317.40 4.756
317.50 4.751
317.60 4.745
317.70 4.74
317.80 4.735
317.90 4.729
318.00 4.724
318.10 4.719
318.20 4.714
318.30 4.708
318.40 4.703
318.50 4.698
318.60 4.693
318.70 4.687
318.80 4.682
318.90 4.677
319.00 4.672
319.10 4.666
319.20 4.661
319.30 4.656
319.40 4.651
319.50 4.646
319.60 4.64
319.70 4.635
319.80 4.63
319.90 4.625
320.00 4.62
320.10 4.615
320.20 4.61
320.30 4.604
320.40 4.599
320.50 4.594
320.60 4.589
320.70 4.584
320.80 4.579
320.90 4.574
321.00 4.569
321.10 4.564
321.20 4.559
321.30 4.554
321.40 4.548
321.50 4.543
321.60 4.538
321.70 4.533
321.80 4.528
321.90 4.523
322.00 4.518
322.10 4.513
322.20 4.508
322.30 4.503
322.40 4.498
322.50 4.493
322.60 4.488
322.70 4.483
322.80 4.479
322.90 4.474
323.00 4.469
323.10 4.464
323.20 4.459
323.30 4.454
323.40 4.449
323.50 4.444
323.60 4.439
323.70 4.434
323.80 4.429
323.90 4.425
324.00 4.42
324.10 4.415
324.20 4.41
324.30 4.405
324.40 4.4
324.50 4.395
324.60 4.391
324.70 4.386
324.80 4.381
324.90 4.376
325.00 4.371
325.10 4.367
325.20 4.362
325.30 4.357
325.40 4.352
325.50 4.347
325.60 4.343
325.70 4.338
325.80 4.333
325.90 4.328
326.00 4.324
326.10 4.319
326.20 4.314
326.30 4.31
326.40 4.305
326.50 4.3
326.60 4.295
326.70 4.291
326.80 4.286
326.90 4.281
327.00 4.277
327.10 4.272
327.20 4.267
327.30 4.263
327.40 4.258
327.50 4.253
327.60 4.249
327.70 4.244
327.80 4.24
327.90 4.235
328.00 4.23
328.10 4.226
328.20 4.221
328.30 4.217
328.40 4.212
328.50 4.207
328.60 4.203
328.70 4.198
328.80 4.194
328.90 4.189
329.00 4.185
329.10 4.18
329.20 4.175
329.30 4.171
329.40 4.166
329.50 4.162
329.60 4.157
329.70 4.153
329.80 4.148
329.90 4.144
330.00 4.139
330.10 4.135
330.20 4.13
330.30 4.126
330.40 4.122
330.50 4.117
330.60 4.113
330.70 4.108
330.80 4.104
330.90 4.099
331.00 4.095
331.10 4.091
331.20 4.086
331.30 4.082
331.40 4.077
331.50 4.073
331.60 4.069
331.70 4.064
331.80 4.06
331.90 4.055
332.00 4.051
332.10 4.047
332.20 4.042
332.30 4.038
332.40 4.034
332.50 4.029
332.60 4.025
332.70 4.021
332.80 4.016
332.90 4.012
333.00 4.008
333.10 4.003
333.20 3.999
333.30 3.995
333.40 3.991
333.50 3.986
333.60 3.982
333.70 3.978
333.80 3.973
333.90 3.969
334.00 3.965
334.10 3.961
334.20 3.956
334.30 3.952
334.40 3.948
334.50 3.944
334.60 3.94
334.70 3.935
334.80 3.931
334.90 3.927
335.00 3.923
335.10 3.919
335.20 3.914
335.30 3.91
335.40 3.906
335.50 3.902
335.60 3.898
335.70 3.894
335.80 3.889
335.90 3.885
336.00 3.881
336.10 3.877
336.20 3.873
336.30 3.869
336.40 3.865
336.50 3.861
336.60 3.856
336.70 3.852
336.80 3.848
336.90 3.844
337.00 3.84
337.10 3.836
337.20 3.832
337.30 3.828
337.40 3.824
337.50 3.82
337.60 3.816
337.70 3.812
337.80 3.808
337.90 3.804
338.00 3.8
338.10 3.796
338.20 3.792
338.30 3.788
338.40 3.784
338.50 3.78
338.60 3.776
338.70 3.772
338.80 3.768
338.90 3.764
339.00 3.76
339.10 3.756
339.20 3.752
339.30 3.748
339.40 3.744
339.50 3.74
339.60 3.736
339.70 3.732
339.80 3.728
339.90 3.724
340.00 3.72
340.10 3.716
340.20 3.712
340.30 3.708
340.40 3.705
340.50 3.701
340.60 3.697
340.70 3.693
340.80 3.689
340.90 3.685
341.00 3.681
341.10 3.677
341.20 3.674
341.30 3.67
341.40 3.666
341.50 3.662
341.60 3.658
341.70 3.654
341.80 3.65
341.90 3.647
342.00 3.643
342.10 3.639
342.20 3.635
342.30 3.631
342.40 3.628
342.50 3.624
342.60 3.62
342.70 3.616
342.80 3.612
342.90 3.609
343.00 3.605
343.10 3.601
343.20 3.597
343.30 3.594
343.40 3.59
343.50 3.586
343.60 3.582
343.70 3.579
343.80 3.575
343.90 3.571
344.00 3.567
344.10 3.564
344.20 3.56
344.30 3.556
344.40 3.553
344.50 3.549
344.60 3.545
344.70 3.542
344.80 3.538
344.90 3.534
345.00 3.531
345.10 3.527
345.20 3.523
345.30 3.52
345.40 3.516
345.50 3.512
345.60 3.509
345.70 3.505
345.80 3.501
345.90 3.498
346.00 3.494
346.10 3.49
346.20 3.487
346.30 3.483
346.40 3.48
346.50 3.476
346.60 3.472
346.70 3.469
346.80 3.465
346.90 3.462
347.00 3.458
347.10 3.454
347.20 3.451
347.30 3.447
347.40 3.444
347.50 3.44
347.60 3.437
347.70 3.433
347.80 3.43
347.90 3.426
348.00 3.422
348.10 3.419
348.20 3.415
348.30 3.412
348.40 3.408
348.50 3.405
348.60 3.401
348.70 3.398
348.80 3.394
348.90 3.391
349.00 3.387
349.10 3.384
349.20 3.38
349.30 3.377
349.40 3.374
349.50 3.37
349.60 3.367
349.70 3.363
349.80 3.36
349.90 3.356
350.00 3.353
350.10 3.349
350.20 3.346
350.30 3.342
350.40 3.339
350.50 3.336
350.60 3.332
350.70 3.329
350.80 3.325
350.90 3.322
351.00 3.319
351.10 3.315
351.20 3.312
351.30 3.308
351.40 3.305
351.50 3.302
351.60 3.298
351.70 3.295
351.80 3.292
351.90 3.288
352.00 3.285
352.10 3.281
352.20 3.278
352.30 3.275
352.40 3.271
352.50 3.268
352.60 3.265
352.70 3.262
352.80 3.258
352.90 3.255
353.00 3.252
353.10 3.248
353.20 3.245
353.30 3.242
353.40 3.238
353.50 3.235
353.60 3.232
353.70 3.228
353.80 3.225
353.90 3.222
354.00 3.219
354.10 3.215
354.20 3.212
354.30 3.209
354.40 3.206
354.50 3.202
354.60 3.199
354.70 3.196
354.80 3.193
354.90 3.189
355.00 3.186
355.10 3.183
355.20 3.18
355.30 3.177
355.40 3.173
355.50 3.17
355.60 3.167
355.70 3.164
355.80 3.16
355.90 3.157
356.00 3.154
356.10 3.151
356.20 3.148
356.30 3.145
356.40 3.141
356.50 3.138
356.60 3.135
356.70 3.132
356.80 3.129
356.90 3.126
357.00 3.122
357.10 3.119
357.20 3.116
357.30 3.113
357.40 3.11
357.50 3.107
357.60 3.104
357.70 3.1
357.80 3.097
357.90 3.094
358.00 3.091
358.10 3.088
358.20 3.085
358.30 3.082
358.40 3.079
358.50 3.076
358.60 3.073
358.70 3.07
358.80 3.066
358.90 3.063
359.00 3.06
359.10 3.057
359.20 3.054
359.30 3.051
359.40 3.048
359.50 3.045
359.60 3.042
359.70 3.039
359.80 3.036
359.90 3.033
360.00 3.03
360.10 3.027
360.20 3.024
360.30 3.021
360.40 3.018
360.50 3.015
360.60 3.012
360.70 3.009
360.80 3.006
360.90 3.003
361.00 3
361.10 2.997
361.20 2.994
361.30 2.991
361.40 2.988
361.50 2.985
361.60 2.982
361.70 2.979
361.80 2.976
361.90 2.973
362.00 2.97
362.10 2.967
362.20 2.964
362.30 2.961
362.40 2.958
362.50 2.955
362.60 2.952
362.70 2.949
362.80 2.946
362.90 2.943
363.00 2.941
363.10 2.938
363.20 2.935
363.30 2.932
363.40 2.929
363.50 2.926
363.60 2.923
363.70 2.92
363.80 2.917
363.90 2.914
364.00 2.912
364.10 2.909
364.20 2.906
364.30 2.903
364.40 2.9
364.50 2.897
364.60 2.894
364.70 2.891
364.80 2.889
364.90 2.886
365.00 2.883
365.10 2.88
365.20 2.877
365.30 2.874
365.40 2.872
365.50 2.869
365.60 2.866
365.70 2.863
365.80 2.86
365.90 2.857
366.00 2.855
366.10 2.852
366.20 2.849
366.30 2.846
366.40 2.843
366.50 2.84
366.60 2.837
366.70 2.834
366.80 2.831
366.90 2.828
367.00 2.825
367.10 2.822
367.20 2.819
367.30 2.816
367.40 2.813
367.50 2.81
367.60 2.807
367.70 2.804
367.80 2.801
367.90 2.798
368.00 2.795
368.10 2.792
368.20 2.789
368.30 2.786
368.40 2.783
368.50 2.78
368.60 2.777
368.70 2.775
368.80 2.772
368.90 2.769
369.00 2.766
369.10 2.763
369.20 2.76
369.30 2.757
369.40 2.754
369.50 2.752
369.60 2.749
369.70 2.746
369.80 2.743
369.90 2.74
370.00 2.737
370.10 2.734
370.20 2.732
370.30 2.729
370.40 2.726
370.50 2.724
370.60 2.721
370.70 2.718
370.80 2.715
370.90 2.713
371.00 2.71
371.10 2.707
371.20 2.705
371.30 2.702
371.40 2.699
371.50 2.697
371.60 2.694
371.70 2.691
371.80 2.689
371.90 2.686
372.00 2.683
372.10 2.681
372.20 2.679
372.30 2.676
372.40 2.674
372.50 2.672
372.60 2.669
372.70 2.667
372.80 2.665
372.90 2.663
373.00 2.66
373.10 2.658
373.20 2.656
373.30 2.653
373.40 2.651
373.50 2.649
373.60 2.647
373.70 2.644
373.80 2.642
373.90 2.64
374.00 2.638
374.10 2.636
374.20 2.634
374.30 2.632
374.40 2.63
374.50 2.627
374.60 2.625
374.70 2.623
374.80 2.621
374.90 2.619
375.00 2.617
375.10 2.615
375.20 2.613
375.30 2.611
375.40 2.609
375.50 2.607
375.60 2.605
375.70 2.603
375.80 2.601
375.90 2.599
376.00 2.597
376.10 2.593
376.20 2.589
376.30 2.586
376.40 2.582
376.50 2.578
376.60 2.574
376.70 2.57
376.80 2.566
376.90 2.562
377.00 2.558
377.10 2.559
377.20 2.559
377.30 2.56
377.40 2.56
377.50 2.561
377.60 2.561
377.70 2.561
377.80 2.562
377.90 2.562
378.00 2.563
378.10 2.559
378.20 2.555
378.30 2.551
378.40 2.547
378.50 2.543
378.60 2.539
378.70 2.536
378.80 2.532
378.90 2.528
379.00 2.524
379.10 2.519
379.20 2.513
379.30 2.508
379.40 2.503
379.50 2.497
379.60 2.492
379.70 2.487
379.80 2.481
379.90 2.476
380.00 2.471
380.10 2.475
380.20 2.48
380.30 2.485
380.40 2.489
380.50 2.494
380.60 2.498
380.70 2.503
380.80 2.507
380.90 2.512
381.00 2.517
381.10 2.516
381.20 2.516
381.30 2.516
381.40 2.515
381.50 2.515
381.60 2.512
381.70 2.509
381.80 2.504
381.90 2.499
382.00 2.493
382.10 2.485
382.20 2.477
382.30 2.464
382.40 2.45
382.50 2.437
382.60 2.423
382.70 2.41
382.80 2.396
382.90 2.383
383.00 2.369
383.10 2.356
383.20 2.343
383.30 2.325
383.40 2.308
383.50 2.294
383.60 2.295
383.70 2.307
383.80 2.321
383.90 2.336
384.00 2.35
384.10 2.364
384.20 2.377
384.30 2.389
384.40 2.401
384.50 2.411
384.60 2.421
384.70 2.43
384.80 2.438
384.90 2.444
385.00 2.451
385.10 2.456
385.20 2.46
385.30 2.465
385.40 2.467
385.50 2.47
385.60 2.472
385.70 2.472
385.80 2.473
385.90 2.472
386.00 2.471
386.10 2.469
386.20 2.467
386.30 2.464
386.40 2.46
386.50 2.456
386.60 2.45
386.70 2.444
386.80 2.437
386.90 2.429
387.00 2.421
387.10 2.411
387.20 2.401
387.30 2.389
387.40 2.377
387.50 2.363
387.60 2.348
387.70 2.332
387.80 2.314
387.90 2.295
388.00 2.275
388.10 2.253
388.20 2.229
388.30 2.205
388.40 2.179
388.50 2.152
388.60 2.124
388.70 2.097
388.80 2.075
388.90 2.058
389.00 2.07
389.10 2.088
389.20 2.112
389.30 2.136
389.40 2.159
389.50 2.182
389.60 2.203
389.70 2.223
389.80 2.241
389.90 2.258
390.00 2.274
390.10 2.288
390.20 2.301
390.30 2.313
390.40 2.324
390.50 2.334
390.60 2.342
390.70 2.351
390.80 2.358
390.90 2.364
391.00 2.37
391.10 2.374
391.20 2.379
391.30 2.383
391.40 2.386
391.50 2.388
391.60 2.391
391.70 2.393
391.80 2.394
391.90 2.395
392.00 2.396
392.10 2.396
392.20 2.396
392.30 2.396
392.40 2.395
392.50 2.394
392.60 2.393
392.70 2.392
392.80 2.39
392.90 2.388
393.00 2.386
393.10 2.383
393.20 2.38
393.30 2.377
393.40 2.374
393.50 2.37
393.60 2.366
393.70 2.362
393.80 2.358
393.90 2.353
394.00 2.347
394.10 2.342
394.20 2.336
394.30 2.329
394.40 2.322
394.50 2.314
394.60 2.306
394.70 2.297
394.80 2.288
394.90 2.278
395.00 2.267
395.10 2.255
395.20 2.242
395.30 2.228
395.40 2.214
395.50 2.198
395.60 2.18
395.70 2.162
395.80 2.142
395.90 2.12
396.00 2.097
396.10 2.072
396.20 2.045
396.30 2.016
396.40 1.986
396.50 1.953
396.60 1.919
396.70 1.884
396.80 1.846
396.90 1.809
397.00 1.771
397.10 1.802
397.20 1.835
397.30 1.869
397.40 1.902
397.50 1.933
397.60 1.962
397.70 1.989
397.80 2.014
397.90 2.038
398.00 2.059
398.10 2.078
398.20 2.097
398.30 2.113
398.40 2.127
398.50 2.141
398.60 2.153
398.70 2.164
398.80 2.174
398.90 2.183
399.00 2.191
399.10 2.198
399.20 2.205
399.30 2.21
399.40 2.216
399.50 2.22
399.60 2.224
399.70 2.227
399.80 2.23
399.90 2.233
400.00 2.235
400.10 2.237
400.20 2.238
400.30 2.24
400.40 2.241
400.50 2.241
400.60 2.242
400.70 2.242
400.80 2.242
400.90 2.242
401.00 2.242
401.10 2.242
401.20 2.241
401.30 2.241
401.40 2.24
401.50 2.239
401.60 2.238
401.70 2.237
401.80 2.236
401.90 2.235
402.00 2.234
402.10 2.233
402.20 2.231
402.30 2.23
402.40 2.228
402.50 2.227
402.60 2.225
402.70 2.224
402.80 2.222
402.90 2.22
403.00 2.218
403.10 2.217
403.20 2.215
403.30 2.213
403.40 2.211
403.50 2.209
403.60 2.207
403.70 2.205
403.80 2.203
403.90 2.201
404.00 2.199
404.10 2.196
404.20 2.194
404.30 2.192
404.40 2.19
404.50 2.187
404.60 2.185
404.70 2.182
404.80 2.18
404.90 2.177
405.00 2.175
405.10 2.172
405.20 2.169
405.30 2.166
405.40 2.164
405.50 2.161
405.60 2.158
405.70 2.154
405.80 2.151
405.90 2.148
406.00 2.144
406.10 2.141
406.20 2.137
406.30 2.133
406.40 2.129
406.50 2.125
406.60 2.121
406.70 2.116
406.80 2.112
406.90 2.107
407.00 2.101
407.10 2.096
407.20 2.09
407.30 2.084
407.40 2.077
407.50 2.07
407.60 2.063
407.70 2.055
407.80 2.047
407.90 2.037
408.00 2.028
408.10 2.018
408.20 2.006
408.30 1.994
408.40 1.982
408.50 1.968
408.60 1.953
408.70 1.937
408.80 1.919
408.90 1.9
409.00 1.88
409.10 1.857
409.20 1.834
409.30 1.808
409.40 1.78
409.50 1.75
409.60 1.719
409.70 1.684
409.80 1.648
409.90 1.61
410.00 1.567
410.10 1.532
410.20 1.506
410.30 1.545
410.40 1.584
410.50 1.622
410.60 1.656
410.70 1.688
410.80 1.719
410.90 1.746
411.00 1.771
411.10 1.795
411.20 1.815
411.30 1.835
411.40 1.853
411.50 1.868
411.60 1.883
411.70 1.896
411.80 1.908
411.90 1.918
412.00 1.928
412.10 1.936
412.20 1.944
412.30 1.951
412.40 1.957
412.50 1.962
412.60 1.967
412.70 1.972
412.80 1.975
412.90 1.979
413.00 1.982
413.10 1.984
413.20 1.986
413.30 1.988
413.40 1.99
413.50 1.991
413.60 1.992
413.70 1.993
413.80 1.993
413.90 1.994
414.00 1.994
414.10 1.994
414.20 1.994
414.30 1.994
414.40 1.994
414.50 1.993
414.60 1.993
414.70 1.992
414.80 1.992
414.90 1.991
415.00 1.99
415.10 1.989
415.20 1.989
415.30 1.988
415.40 1.987
415.50 1.986
415.60 1.984
415.70 1.983
415.80 1.982
415.90 1.981
416.00 1.98
416.10 1.978
416.20 1.977
416.30 1.976
416.40 1.974
416.50 1.973
416.60 1.972
416.70 1.97
416.80 1.969
416.90 1.967
417.00 1.966
417.10 1.965
417.20 1.963
417.30 1.962
417.40 1.96
417.50 1.959
417.60 1.957
417.70 1.955
417.80 1.954
417.90 1.952
418.00 1.951
418.10 1.949
418.20 1.948
418.30 1.946
418.40 1.945
418.50 1.943
418.60 1.941
418.70 1.94
418.80 1.938
418.90 1.937
419.00 1.935
419.10 1.933
419.20 1.932
419.30 1.93
419.40 1.928
419.50 1.927
419.60 1.925
419.70 1.924
419.80 1.922
419.90 1.92
420.00 1.919
420.10 1.917
420.20 1.915
420.30 1.914
420.40 1.912
420.50 1.91
420.60 1.909
420.70 1.907
420.80 1.905
420.90 1.904
421.00 1.902
421.10 1.901
421.20 1.899
421.30 1.897
421.40 1.896
421.50 1.894
421.60 1.892
421.70 1.891
421.80 1.889
421.90 1.887
422.00 1.886
422.10 1.884
422.20 1.882
422.30 1.881
422.40 1.879
422.50 1.877
422.60 1.876
422.70 1.874
422.80 1.872
422.90 1.871
423.00 1.869
423.10 1.867
423.20 1.866
423.30 1.864
423.40 1.862
423.50 1.861
423.60 1.859
423.70 1.857
423.80 1.855
423.90 1.854
424.00 1.852
424.10 1.85
424.20 1.849
424.30 1.847
424.40 1.845
424.50 1.844
424.60 1.842
424.70 1.84
424.80 1.839
424.90 1.837
425.00 1.835
425.10 1.833
425.20 1.832
425.30 1.83
425.40 1.828
425.50 1.827
425.60 1.825
425.70 1.823
425.80 1.821
425.90 1.82
426.00 1.818
426.10 1.816
426.20 1.814
426.30 1.813
426.40 1.811
426.50 1.809
426.60 1.807
426.70 1.806
426.80 1.804
426.90 1.802
427.00 1.8
427.10 1.798
427.20 1.796
427.30 1.795
427.40 1.793
427.50 1.791
427.60 1.789
427.70 1.787
427.80 1.785
427.90 1.783
428.00 1.781
428.10 1.779
428.20 1.777
428.30 1.775
428.40 1.773
428.50 1.771
428.60 1.769
428.70 1.767
428.80 1.764
428.90 1.762
429.00 1.76
429.10 1.758
429.20 1.755
429.30 1.753
429.40 1.75
429.50 1.748
429.60 1.745
429.70 1.743
429.80 1.74
429.90 1.737
430.00 1.734
430.10 1.731
430.20 1.728
430.30 1.725
430.40 1.722
430.50 1.718
430.60 1.715
430.70 1.711
430.80 1.707
430.90 1.703
431.00 1.698
431.10 1.694
431.20 1.689
431.30 1.683
431.40 1.678
431.50 1.672
431.60 1.666
431.70 1.659
431.80 1.652
431.90 1.644
432.00 1.636
432.10 1.627
432.20 1.617
432.30 1.607
432.40 1.596
432.50 1.583
432.60 1.57
432.70 1.556
432.80 1.54
432.90 1.523
433.00 1.505
433.10 1.485
433.20 1.463
433.30 1.44
433.40 1.414
433.50 1.387
433.60 1.358
433.70 1.325
433.80 1.29
433.90 1.252
434.00 1.203
434.10 1.203
434.20 1.252
434.30 1.288
434.40 1.32
434.50 1.35
434.60 1.377
434.70 1.401
434.80 1.425
434.90 1.445
435.00 1.464
435.10 1.481
435.20 1.497
435.30 1.511
435.40 1.524
435.50 1.535
435.60 1.545
435.70 1.555
435.80 1.563
435.90 1.57
436.00 1.577
436.10 1.583
436.20 1.588
436.30 1.593
436.40 1.597
436.50 1.6
436.60 1.604
436.70 1.606
436.80 1.609
436.90 1.611
437.00 1.613
437.10 1.614
437.20 1.616
437.30 1.617
437.40 1.618
437.50 1.619
437.60 1.619
437.70 1.62
437.80 1.62
437.90 1.62
438.00 1.62
438.10 1.62
438.20 1.62
438.30 1.62
438.40 1.619
438.50 1.619
438.60 1.619
438.70 1.618
438.80 1.618
438.90 1.617
439.00 1.616
439.10 1.616
439.20 1.615
439.30 1.614
439.40 1.613
439.50 1.613
439.60 1.612
439.70 1.611
439.80 1.61
439.90 1.609
440.00 1.608
440.10 1.607
440.20 1.606
440.30 1.605
440.40 1.604
440.50 1.603
440.60 1.602
440.70 1.601
440.80 1.6
440.90 1.598
441.00 1.597
441.10 1.596
441.20 1.595
441.30 1.594
441.40 1.593
441.50 1.592
441.60 1.59
441.70 1.589
441.80 1.588
441.90 1.587
442.00 1.586
442.10 1.585
442.20 1.583
442.30 1.582
442.40 1.581
442.50 1.58
442.60 1.578
442.70 1.577
442.80 1.576
442.90 1.575
443.00 1.574
443.10 1.572
443.20 1.571
443.30 1.57
443.40 1.569
443.50 1.567
443.60 1.566
443.70 1.565
443.80 1.564
443.90 1.562
444.00 1.561
444.10 1.56
444.20 1.559
444.30 1.557
444.40 1.556
444.50 1.555
444.60 1.554
444.70 1.552
444.80 1.551
444.90 1.55
445.00 1.549
445.10 1.547
445.20 1.546
445.30 1.545
445.40 1.544
445.50 1.542
445.60 1.541
445.70 1.54
445.80 1.538
445.90 1.537
446.00 1.536
446.10 1.535
446.20 1.533
446.30 1.532
446.40 1.531
446.50 1.53
446.60 1.528
446.70 1.527
446.80 1.526
446.90 1.525
447.00 1.523
447.10 1.522
447.20 1.521
447.30 1.52
447.40 1.518
447.50 1.517
447.60 1.516
447.70 1.515
447.80 1.513
447.90 1.512
448.00 1.511
448.10 1.51
448.20 1.508
448.30 1.507
448.40 1.506
448.50 1.505
448.60 1.503
448.70 1.502
448.80 1.501
448.90 1.5
449.00 1.499
449.10 1.497
449.20 1.496
449.30 1.495
449.40 1.494
449.50 1.492
449.60 1.491
449.70 1.49
449.80 1.489
449.90 1.487
450.00 1.486
450.10 1.485
450.20 1.484
450.30 1.483
450.40 1.481
450.50 1.48
450.60 1.479
450.70 1.478
450.80 1.476
450.90 1.475
451.00 1.474
451.10 1.473
451.20 1.472
451.30 1.47
451.40 1.469
451.50 1.468
451.60 1.467
451.70 1.465
451.80 1.464
451.90 1.463
452.00 1.462
452.10 1.461
452.20 1.459
452.30 1.458
452.40 1.457
452.50 1.456
452.60 1.455
452.70 1.453
452.80 1.452
452.90 1.451
453.00 1.45
453.10 1.449
453.20 1.447
453.30 1.446
453.40 1.445
453.50 1.444
453.60 1.443
453.70 1.442
453.80 1.44
453.90 1.439
454.00 1.438
454.10 1.437
