# Version 2.1 - nm, norm@500 to 1, cut digits, bergeron_4750_95.dat_4750
# Wavelength(nm)  Flambda(ergs/cm^s/s/nm)
300.00 0.3322
300.10 0.3326
300.20 0.333
300.30 0.3335
300.40 0.3339
300.50 0.3343
300.60 0.3348
300.70 0.3352
300.80 0.3357
300.90 0.3361
301.00 0.3365
301.10 0.337
301.20 0.3374
301.30 0.3378
301.40 0.3383
301.50 0.3387
301.60 0.3391
301.70 0.3396
301.80 0.34
301.90 0.3404
302.00 0.3409
302.10 0.3413
302.20 0.3417
302.30 0.3422
302.40 0.3426
302.50 0.3431
302.60 0.3435
302.70 0.344
302.80 0.3444
302.90 0.3448
303.00 0.3453
303.10 0.3457
303.20 0.3461
303.30 0.3466
303.40 0.347
303.50 0.3475
303.60 0.3479
303.70 0.3483
303.80 0.3488
303.90 0.3492
304.00 0.3496
304.10 0.3501
304.20 0.3505
304.30 0.351
304.40 0.3514
304.50 0.3518
304.60 0.3523
304.70 0.3527
304.80 0.3532
304.90 0.3536
305.00 0.354
305.10 0.3545
305.20 0.3549
305.30 0.3554
305.40 0.3558
305.50 0.3562
305.60 0.3567
305.70 0.3571
305.80 0.3575
305.90 0.358
306.00 0.3584
306.10 0.3589
306.20 0.3593
306.30 0.3598
306.40 0.3602
306.50 0.3606
306.60 0.3611
306.70 0.3615
306.80 0.362
306.90 0.3624
307.00 0.3629
307.10 0.3633
307.20 0.3637
307.30 0.3642
307.40 0.3646
307.50 0.3651
307.60 0.3655
307.70 0.3659
307.80 0.3664
307.90 0.3668
308.00 0.3673
308.10 0.3677
308.20 0.3681
308.30 0.3686
308.40 0.369
308.50 0.3695
308.60 0.3699
308.70 0.3704
308.80 0.3708
308.90 0.3713
309.00 0.3717
309.10 0.3722
309.20 0.3726
309.30 0.373
309.40 0.3735
309.50 0.3739
309.60 0.3744
309.70 0.3748
309.80 0.3752
309.90 0.3757
310.00 0.3761
310.10 0.3766
310.20 0.377
310.30 0.3775
310.40 0.3779
310.50 0.3784
310.60 0.3788
310.70 0.3793
310.80 0.3797
310.90 0.3802
311.00 0.3806
311.10 0.3811
311.20 0.3815
311.30 0.3819
311.40 0.3824
311.50 0.3828
311.60 0.3833
311.70 0.3837
311.80 0.3842
311.90 0.3846
312.00 0.385
312.10 0.3855
312.20 0.3859
312.30 0.3864
312.40 0.3868
312.50 0.3873
312.60 0.3877
312.70 0.3882
312.80 0.3886
312.90 0.3891
313.00 0.3895
313.10 0.39
313.20 0.3904
313.30 0.3909
313.40 0.3913
313.50 0.3917
313.60 0.3922
313.70 0.3926
313.80 0.3931
313.90 0.3935
314.00 0.394
314.10 0.3944
314.20 0.3949
314.30 0.3953
314.40 0.3958
314.50 0.3962
314.60 0.3967
314.70 0.3971
314.80 0.3976
314.90 0.398
315.00 0.3985
315.10 0.3989
315.20 0.3994
315.30 0.3998
315.40 0.4003
315.50 0.4007
315.60 0.4011
315.70 0.4016
315.80 0.402
315.90 0.4025
316.00 0.4029
316.10 0.4034
316.20 0.4038
316.30 0.4043
316.40 0.4047
316.50 0.4052
316.60 0.4056
316.70 0.4061
316.80 0.4065
316.90 0.407
317.00 0.4074
317.10 0.4079
317.20 0.4083
317.30 0.4088
317.40 0.4092
317.50 0.4097
317.60 0.4101
317.70 0.4106
317.80 0.411
317.90 0.4114
318.00 0.4119
318.10 0.4123
318.20 0.4128
318.30 0.4132
318.40 0.4137
318.50 0.4142
318.60 0.4146
318.70 0.4151
318.80 0.4155
318.90 0.416
319.00 0.4164
319.10 0.4169
319.20 0.4173
319.30 0.4178
319.40 0.4182
319.50 0.4186
319.60 0.4191
319.70 0.4195
319.80 0.42
319.90 0.4204
320.00 0.4209
320.10 0.4213
320.20 0.4218
320.30 0.4222
320.40 0.4227
320.50 0.4231
320.60 0.4236
320.70 0.4241
320.80 0.4245
320.90 0.425
321.00 0.4254
321.10 0.4259
321.20 0.4263
321.30 0.4268
321.40 0.4272
321.50 0.4276
321.60 0.4281
321.70 0.4285
321.80 0.429
321.90 0.4294
322.00 0.4299
322.10 0.4303
322.20 0.4308
322.30 0.4312
322.40 0.4317
322.50 0.4322
322.60 0.4326
322.70 0.4331
322.80 0.4335
322.90 0.434
323.00 0.4344
323.10 0.4349
323.20 0.4353
323.30 0.4358
323.40 0.4362
323.50 0.4367
323.60 0.4371
323.70 0.4375
323.80 0.438
323.90 0.4384
324.00 0.4389
324.10 0.4393
324.20 0.4398
324.30 0.4403
324.40 0.4407
324.50 0.4412
324.60 0.4416
324.70 0.4421
324.80 0.4425
324.90 0.443
325.00 0.4434
325.10 0.4439
325.20 0.4443
325.30 0.4448
325.40 0.4452
325.50 0.4457
325.60 0.4461
325.70 0.4466
325.80 0.447
325.90 0.4474
326.00 0.4479
326.10 0.4483
326.20 0.4488
326.30 0.4493
326.40 0.4497
326.50 0.4502
326.60 0.4506
326.70 0.4511
326.80 0.4515
326.90 0.452
327.00 0.4524
327.10 0.4529
327.20 0.4533
327.30 0.4538
327.40 0.4542
327.50 0.4547
327.60 0.4551
327.70 0.4556
327.80 0.456
327.90 0.4565
328.00 0.4569
328.10 0.4574
328.20 0.4578
328.30 0.4583
328.40 0.4587
328.50 0.4592
328.60 0.4596
328.70 0.4601
328.80 0.4605
328.90 0.461
329.00 0.4614
329.10 0.4619
329.20 0.4623
329.30 0.4628
329.40 0.4632
329.50 0.4637
329.60 0.4641
329.70 0.4646
329.80 0.465
329.90 0.4655
330.00 0.4659
330.10 0.4664
330.20 0.4668
330.30 0.4673
330.40 0.4677
330.50 0.4682
330.60 0.4686
330.70 0.4691
330.80 0.4695
330.90 0.47
331.00 0.4704
331.10 0.4709
331.20 0.4713
331.30 0.4718
331.40 0.4722
331.50 0.4727
331.60 0.4731
331.70 0.4736
331.80 0.474
331.90 0.4745
332.00 0.4749
332.10 0.4754
332.20 0.4758
332.30 0.4763
332.40 0.4767
332.50 0.4772
332.60 0.4776
332.70 0.4781
332.80 0.4785
332.90 0.479
333.00 0.4794
333.10 0.4799
333.20 0.4803
333.30 0.4808
333.40 0.4812
333.50 0.4817
333.60 0.4821
333.70 0.4826
333.80 0.483
333.90 0.4835
334.00 0.4839
334.10 0.4844
334.20 0.4848
334.30 0.4853
334.40 0.4857
334.50 0.4862
334.60 0.4866
334.70 0.4871
334.80 0.4875
334.90 0.488
335.00 0.4884
335.10 0.4889
335.20 0.4893
335.30 0.4898
335.40 0.4902
335.50 0.4907
335.60 0.4911
335.70 0.4916
335.80 0.492
335.90 0.4925
336.00 0.4929
336.10 0.4934
336.20 0.4938
336.30 0.4943
336.40 0.4947
336.50 0.4952
336.60 0.4956
336.70 0.4961
336.80 0.4965
336.90 0.497
337.00 0.4974
337.10 0.4979
337.20 0.4983
337.30 0.4988
337.40 0.4992
337.50 0.4996
337.60 0.5001
337.70 0.5005
337.80 0.501
337.90 0.5014
338.00 0.5019
338.10 0.5023
338.20 0.5028
338.30 0.5032
338.40 0.5037
338.50 0.5041
338.60 0.5046
338.70 0.505
338.80 0.5055
338.90 0.5059
339.00 0.5064
339.10 0.5068
339.20 0.5073
339.30 0.5077
339.40 0.5081
339.50 0.5086
339.60 0.509
339.70 0.5095
339.80 0.5099
339.90 0.5104
340.00 0.5108
340.10 0.5113
340.20 0.5117
340.30 0.5122
340.40 0.5126
340.50 0.5131
340.60 0.5135
340.70 0.514
340.80 0.5144
340.90 0.5149
341.00 0.5153
341.10 0.5157
341.20 0.5162
341.30 0.5166
341.40 0.5171
341.50 0.5175
341.60 0.518
341.70 0.5184
341.80 0.5189
341.90 0.5193
342.00 0.5197
342.10 0.5202
342.20 0.5206
342.30 0.5211
342.40 0.5215
342.50 0.522
342.60 0.5224
342.70 0.5229
342.80 0.5233
342.90 0.5238
343.00 0.5242
343.10 0.5247
343.20 0.5251
343.30 0.5255
343.40 0.526
343.50 0.5264
343.60 0.5269
343.70 0.5273
343.80 0.5277
343.90 0.5282
344.00 0.5286
344.10 0.5291
344.20 0.5295
344.30 0.53
344.40 0.5304
344.50 0.5309
344.60 0.5313
344.70 0.5318
344.80 0.5322
344.90 0.5326
345.00 0.5331
345.10 0.5335
345.20 0.534
345.30 0.5344
345.40 0.5349
345.50 0.5353
345.60 0.5357
345.70 0.5362
345.80 0.5366
345.90 0.5371
346.00 0.5375
346.10 0.5379
346.20 0.5384
346.30 0.5388
346.40 0.5393
346.50 0.5397
346.60 0.5402
346.70 0.5406
346.80 0.5411
346.90 0.5415
347.00 0.5419
347.10 0.5424
347.20 0.5428
347.30 0.5433
347.40 0.5437
347.50 0.5441
347.60 0.5446
347.70 0.545
347.80 0.5455
347.90 0.5459
348.00 0.5463
348.10 0.5468
348.20 0.5472
348.30 0.5477
348.40 0.5481
348.50 0.5485
348.60 0.549
348.70 0.5494
348.80 0.5499
348.90 0.5503
349.00 0.5508
349.10 0.5512
349.20 0.5516
349.30 0.5521
349.40 0.5525
349.50 0.553
349.60 0.5534
349.70 0.5538
349.80 0.5543
349.90 0.5547
350.00 0.5551
350.10 0.5556
350.20 0.556
350.30 0.5565
350.40 0.5569
350.50 0.5573
350.60 0.5578
350.70 0.5582
350.80 0.5587
350.90 0.5591
351.00 0.5595
351.10 0.56
351.20 0.5604
351.30 0.5609
351.40 0.5613
351.50 0.5617
351.60 0.5622
351.70 0.5626
351.80 0.563
351.90 0.5635
352.00 0.5639
352.10 0.5643
352.20 0.5648
352.30 0.5652
352.40 0.5657
352.50 0.5661
352.60 0.5665
352.70 0.567
352.80 0.5674
352.90 0.5678
353.00 0.5683
353.10 0.5687
353.20 0.5692
353.30 0.5696
353.40 0.57
353.50 0.5705
353.60 0.5709
353.70 0.5713
353.80 0.5718
353.90 0.5722
354.00 0.5726
354.10 0.5731
354.20 0.5735
354.30 0.5739
354.40 0.5744
354.50 0.5748
354.60 0.5752
354.70 0.5757
354.80 0.5761
354.90 0.5766
355.00 0.577
355.10 0.5774
355.20 0.5779
355.30 0.5783
355.40 0.5787
355.50 0.5792
355.60 0.5796
355.70 0.58
355.80 0.5804
355.90 0.5809
356.00 0.5813
356.10 0.5817
356.20 0.5822
356.30 0.5826
356.40 0.583
356.50 0.5835
356.60 0.5839
356.70 0.5843
356.80 0.5848
356.90 0.5852
357.00 0.5856
357.10 0.5861
357.20 0.5865
357.30 0.5869
357.40 0.5874
357.50 0.5878
357.60 0.5882
357.70 0.5886
357.80 0.5891
357.90 0.5895
358.00 0.5899
358.10 0.5904
358.20 0.5908
358.30 0.5912
358.40 0.5917
358.50 0.5921
358.60 0.5925
358.70 0.593
358.80 0.5934
358.90 0.5938
359.00 0.5942
359.10 0.5947
359.20 0.5951
359.30 0.5955
359.40 0.596
359.50 0.5964
359.60 0.5968
359.70 0.5972
359.80 0.5977
359.90 0.5981
360.00 0.5985
360.10 0.5989
360.20 0.5994
360.30 0.5998
360.40 0.6002
360.50 0.6007
360.60 0.6011
360.70 0.6015
360.80 0.602
360.90 0.6024
361.00 0.6028
361.10 0.6032
361.20 0.6037
361.30 0.6041
361.40 0.6045
361.50 0.6049
361.60 0.6054
361.70 0.6058
361.80 0.6062
361.90 0.6066
362.00 0.607
362.10 0.6075
362.20 0.6079
362.30 0.6083
362.40 0.6088
362.50 0.6092
362.60 0.6096
362.70 0.61
362.80 0.6104
362.90 0.6109
363.00 0.6113
363.10 0.6117
363.20 0.6121
363.30 0.6126
363.40 0.613
363.50 0.6134
363.60 0.6138
363.70 0.6143
363.80 0.6147
363.90 0.6151
364.00 0.6155
364.10 0.616
364.20 0.6164
364.30 0.6168
364.40 0.6172
364.50 0.6176
364.60 0.6181
364.70 0.6185
364.80 0.6189
364.90 0.6193
365.00 0.6198
365.10 0.6202
365.20 0.6206
365.30 0.621
365.40 0.6214
365.50 0.6219
365.60 0.6223
365.70 0.6227
365.80 0.6231
365.90 0.6235
366.00 0.624
366.10 0.6244
366.20 0.6248
366.30 0.6252
366.40 0.6257
366.50 0.6261
366.60 0.6265
366.70 0.6269
366.80 0.6273
366.90 0.6278
367.00 0.6282
367.10 0.6286
367.20 0.629
367.30 0.6294
367.40 0.6298
367.50 0.6303
367.60 0.6307
367.70 0.6311
367.80 0.6315
367.90 0.6319
368.00 0.6323
368.10 0.6328
368.20 0.6332
368.30 0.6336
368.40 0.634
368.50 0.6344
368.60 0.6349
368.70 0.6353
368.80 0.6357
368.90 0.6361
369.00 0.6365
369.10 0.6369
369.20 0.6373
369.30 0.6378
369.40 0.6382
369.50 0.6386
369.60 0.639
369.70 0.6394
369.80 0.6398
369.90 0.6402
370.00 0.6406
370.10 0.6411
370.20 0.6415
370.30 0.6419
370.40 0.6423
370.50 0.6427
370.60 0.6431
370.70 0.6436
370.80 0.644
370.90 0.6444
371.00 0.6448
371.10 0.6452
371.20 0.6456
371.30 0.646
371.40 0.6464
371.50 0.6469
371.60 0.6473
371.70 0.6477
371.80 0.6481
371.90 0.6485
372.00 0.6489
372.10 0.6493
372.20 0.6497
372.30 0.6501
372.40 0.6506
372.50 0.651
372.60 0.6514
372.70 0.6518
372.80 0.6522
372.90 0.6526
373.00 0.653
373.10 0.6534
373.20 0.6538
373.30 0.6542
373.40 0.6546
373.50 0.6551
373.60 0.6555
373.70 0.6559
373.80 0.6563
373.90 0.6567
374.00 0.6571
374.10 0.6575
374.20 0.6579
374.30 0.6583
374.40 0.6587
374.50 0.6591
374.60 0.6595
374.70 0.6599
374.80 0.6604
374.90 0.6608
375.00 0.6612
375.10 0.6616
375.20 0.662
375.30 0.6624
375.40 0.6628
375.50 0.6632
375.60 0.6636
375.70 0.664
375.80 0.6644
375.90 0.6648
376.00 0.6652
376.10 0.6656
376.20 0.666
376.30 0.6664
376.40 0.6668
376.50 0.6672
376.60 0.6676
376.70 0.668
376.80 0.6684
376.90 0.6688
377.00 0.6692
377.10 0.6696
377.20 0.67
377.30 0.6705
377.40 0.6709
377.50 0.6713
377.60 0.6717
377.70 0.6721
377.80 0.6725
377.90 0.6729
378.00 0.6733
378.10 0.6737
378.20 0.6741
378.30 0.6745
378.40 0.6749
378.50 0.6753
378.60 0.6757
378.70 0.6761
378.80 0.6765
378.90 0.6769
379.00 0.6773
379.10 0.6777
379.20 0.6781
379.30 0.6785
379.40 0.6789
379.50 0.6793
379.60 0.6797
379.70 0.68
379.80 0.6804
379.90 0.6808
380.00 0.6812
380.10 0.6816
380.20 0.682
380.30 0.6824
380.40 0.6828
380.50 0.6832
380.60 0.6836
380.70 0.684
380.80 0.6844
380.90 0.6848
381.00 0.6852
381.10 0.6856
381.20 0.686
381.30 0.6864
381.40 0.6868
381.50 0.6872
381.60 0.6876
381.70 0.688
381.80 0.6884
381.90 0.6888
382.00 0.6892
382.10 0.6895
382.20 0.6899
382.30 0.6903
382.40 0.6907
382.50 0.6911
382.60 0.6915
382.70 0.6919
382.80 0.6923
382.90 0.6927
383.00 0.6931
383.10 0.6935
383.20 0.6939
383.30 0.6943
383.40 0.6946
383.50 0.695
383.60 0.6954
383.70 0.6958
383.80 0.6962
383.90 0.6966
384.00 0.697
384.10 0.6974
384.20 0.6978
384.30 0.6982
384.40 0.6985
384.50 0.6989
384.60 0.6993
384.70 0.6997
384.80 0.7001
384.90 0.7005
385.00 0.7009
385.10 0.7013
385.20 0.7017
385.30 0.702
385.40 0.7024
385.50 0.7028
385.60 0.7032
385.70 0.7036
385.80 0.704
385.90 0.7044
386.00 0.7048
386.10 0.7051
386.20 0.7055
386.30 0.7059
386.40 0.7063
386.50 0.7067
386.60 0.7071
386.70 0.7075
386.80 0.7078
386.90 0.7082
387.00 0.7086
387.10 0.709
387.20 0.7094
387.30 0.7098
387.40 0.7101
387.50 0.7105
387.60 0.7109
387.70 0.7113
387.80 0.7117
387.90 0.7121
388.00 0.7124
388.10 0.7128
388.20 0.7132
388.30 0.7136
388.40 0.714
388.50 0.7144
388.60 0.7147
388.70 0.7151
388.80 0.7155
388.90 0.7159
389.00 0.7163
389.10 0.7166
389.20 0.717
389.30 0.7174
389.40 0.7178
389.50 0.7182
389.60 0.7185
389.70 0.7189
389.80 0.7193
389.90 0.7197
390.00 0.7201
390.10 0.7204
390.20 0.7208
390.30 0.7212
390.40 0.7216
390.50 0.7219
390.60 0.7223
390.70 0.7227
390.80 0.7231
390.90 0.7235
391.00 0.7238
391.10 0.7242
391.20 0.7246
391.30 0.725
391.40 0.7253
391.50 0.7257
391.60 0.7261
391.70 0.7265
391.80 0.7268
391.90 0.7272
392.00 0.7276
392.10 0.728
392.20 0.7283
392.30 0.7287
392.40 0.7291
392.50 0.7295
392.60 0.7298
392.70 0.7302
392.80 0.7306
392.90 0.7309
393.00 0.7313
393.10 0.7317
393.20 0.7321
393.30 0.7324
393.40 0.7328
393.50 0.7332
393.60 0.7335
393.70 0.7339
393.80 0.7343
393.90 0.7347
394.00 0.735
394.10 0.7354
394.20 0.7358
394.30 0.7361
394.40 0.7365
394.50 0.7369
394.60 0.7373
394.70 0.7376
394.80 0.738
394.90 0.7384
395.00 0.7387
395.10 0.7391
395.20 0.7395
395.30 0.7398
395.40 0.7402
395.50 0.7406
395.60 0.7409
395.70 0.7413
395.80 0.7417
395.90 0.742
396.00 0.7424
396.10 0.7428
396.20 0.7431
396.30 0.7435
396.40 0.7439
396.50 0.7442
396.60 0.7446
396.70 0.745
396.80 0.7453
396.90 0.7457
397.00 0.7461
397.10 0.7464
397.20 0.7468
397.30 0.7471
397.40 0.7475
397.50 0.7479
397.60 0.7482
397.70 0.7486
397.80 0.749
397.90 0.7493
398.00 0.7497
398.10 0.75
398.20 0.7504
398.30 0.7508
398.40 0.7512
398.50 0.7515
398.60 0.7518
398.70 0.7522
398.80 0.7526
398.90 0.7529
399.00 0.7533
399.10 0.7537
399.20 0.754
399.30 0.7543
399.40 0.7547
399.50 0.7551
399.60 0.7555
399.70 0.7558
399.80 0.7562
399.90 0.7566
400.00 0.7569
400.10 0.7572
400.20 0.7576
400.30 0.7579
400.40 0.7583
400.50 0.7587
400.60 0.759
400.70 0.7594
400.80 0.7598
400.90 0.7601
401.00 0.7605
401.10 0.7608
401.20 0.7611
401.30 0.7615
401.40 0.7619
401.50 0.7622
401.60 0.7626
401.70 0.7629
401.80 0.7633
401.90 0.7636
402.00 0.764
402.10 0.7644
402.20 0.7647
402.30 0.7651
402.40 0.7654
402.50 0.7658
402.60 0.7661
402.70 0.7665
402.80 0.7668
402.90 0.7672
403.00 0.7676
403.10 0.7679
403.20 0.7683
403.30 0.7686
403.40 0.769
403.50 0.7693
403.60 0.7697
403.70 0.77
403.80 0.7704
403.90 0.7707
404.00 0.7711
404.10 0.7714
404.20 0.7718
404.30 0.7721
404.40 0.7724
404.50 0.7728
404.60 0.7731
404.70 0.7735
404.80 0.7738
404.90 0.7742
405.00 0.7745
405.10 0.7749
405.20 0.7752
405.30 0.7755
405.40 0.7759
405.50 0.7762
405.60 0.7766
405.70 0.7769
405.80 0.7773
405.90 0.7776
406.00 0.778
406.10 0.7783
406.20 0.7787
406.30 0.779
406.40 0.7794
406.50 0.7797
406.60 0.78
406.70 0.7804
406.80 0.7807
406.90 0.781
407.00 0.7814
407.10 0.7817
407.20 0.7821
407.30 0.7825
407.40 0.7828
407.50 0.7831
407.60 0.7835
407.70 0.7838
407.80 0.7841
407.90 0.7845
408.00 0.7849
408.10 0.7852
408.20 0.7855
408.30 0.7858
408.40 0.7862
408.50 0.7865
408.60 0.7869
408.70 0.7872
408.80 0.7876
408.90 0.7879
409.00 0.7882
409.10 0.7885
409.20 0.7889
409.30 0.7893
409.40 0.7896
409.50 0.7899
409.60 0.7902
409.70 0.7906
409.80 0.7909
409.90 0.7913
410.00 0.7916
410.10 0.7919
410.20 0.7923
410.30 0.7926
410.40 0.793
410.50 0.7933
410.60 0.7936
410.70 0.7939
410.80 0.7943
410.90 0.7946
411.00 0.795
411.10 0.7953
411.20 0.7956
411.30 0.7959
411.40 0.7963
411.50 0.7966
411.60 0.797
411.70 0.7973
411.80 0.7976
411.90 0.7979
412.00 0.7983
412.10 0.7986
412.20 0.799
412.30 0.7993
412.40 0.7996
412.50 0.7999
412.60 0.8003
412.70 0.8006
412.80 0.8009
412.90 0.8013
413.00 0.8016
413.10 0.8019
413.20 0.8022
413.30 0.8026
413.40 0.8029
413.50 0.8032
413.60 0.8036
413.70 0.8039
413.80 0.8042
413.90 0.8046
414.00 0.8049
414.10 0.8052
414.20 0.8055
414.30 0.8058
414.40 0.8062
414.50 0.8065
414.60 0.8068
414.70 0.8072
414.80 0.8075
414.90 0.8078
415.00 0.8081
415.10 0.8084
415.20 0.8088
415.30 0.8091
415.40 0.8094
415.50 0.8097
415.60 0.8101
415.70 0.8104
415.80 0.8107
415.90 0.811
416.00 0.8113
416.10 0.8117
416.20 0.812
416.30 0.8123
416.40 0.8126
416.50 0.813
416.60 0.8133
416.70 0.8136
416.80 0.8139
416.90 0.8143
417.00 0.8146
417.10 0.8149
417.20 0.8152
417.30 0.8155
417.40 0.8158
417.50 0.8162
417.60 0.8165
417.70 0.8168
417.80 0.8171
417.90 0.8174
418.00 0.8178
418.10 0.8181
418.20 0.8184
418.30 0.8187
418.40 0.8191
418.50 0.8194
418.60 0.8197
418.70 0.82
418.80 0.8203
418.90 0.8206
419.00 0.8209
419.10 0.8213
419.20 0.8216
419.30 0.8219
419.40 0.8222
419.50 0.8225
419.60 0.8228
419.70 0.8231
419.80 0.8234
419.90 0.8238
420.00 0.8241
420.10 0.8244
420.20 0.8247
420.30 0.825
420.40 0.8253
420.50 0.8257
420.60 0.826
420.70 0.8262
420.80 0.8266
420.90 0.8269
421.00 0.8272
421.10 0.8275
421.20 0.8278
421.30 0.8281
421.40 0.8284
421.50 0.8288
421.60 0.8291
421.70 0.8294
421.80 0.8297
421.90 0.83
422.00 0.8303
422.10 0.8306
422.20 0.8309
422.30 0.8312
422.40 0.8315
422.50 0.8318
422.60 0.8321
422.70 0.8325
422.80 0.8328
422.90 0.8331
423.00 0.8334
423.10 0.8337
423.20 0.834
423.30 0.8343
423.40 0.8346
423.50 0.8349
423.60 0.8352
423.70 0.8355
423.80 0.8358
423.90 0.8361
424.00 0.8364
424.10 0.8367
424.20 0.837
424.30 0.8374
424.40 0.8377
424.50 0.838
424.60 0.8382
424.70 0.8385
424.80 0.8388
424.90 0.8392
425.00 0.8395
425.10 0.8398
425.20 0.8401
425.30 0.8404
425.40 0.8407
425.50 0.8409
425.60 0.8412
425.70 0.8415
425.80 0.8419
425.90 0.8422
426.00 0.8425
426.10 0.8428
426.20 0.8431
426.30 0.8434
426.40 0.8437
426.50 0.844
426.60 0.8443
426.70 0.8446
426.80 0.8448
426.90 0.8451
427.00 0.8454
427.10 0.8457
427.20 0.846
427.30 0.8463
427.40 0.8466
427.50 0.8469
427.60 0.8472
427.70 0.8475
427.80 0.8478
427.90 0.8481
428.00 0.8484
428.10 0.8487
428.20 0.849
428.30 0.8493
428.40 0.8496
428.50 0.8499
428.60 0.8502
428.70 0.8505
428.80 0.8508
428.90 0.8511
429.00 0.8514
429.10 0.8517
429.20 0.852
429.30 0.8522
429.40 0.8525
429.50 0.8528
429.60 0.8531
429.70 0.8534
429.80 0.8536
429.90 0.8539
430.00 0.8542
430.10 0.8545
430.20 0.8548
430.30 0.8551
430.40 0.8554
430.50 0.8557
430.60 0.856
430.70 0.8563
430.80 0.8566
430.90 0.8569
431.00 0.8572
431.10 0.8575
431.20 0.8577
431.30 0.858
431.40 0.8583
431.50 0.8586
431.60 0.8589
431.70 0.8592
431.80 0.8595
431.90 0.8597
432.00 0.86
432.10 0.8603
432.20 0.8606
432.30 0.8609
432.40 0.8612
432.50 0.8614
432.60 0.8617
432.70 0.862
432.80 0.8623
432.90 0.8626
433.00 0.8628
433.10 0.8631
433.20 0.8634
433.30 0.8637
433.40 0.864
433.50 0.8643
433.60 0.8646
433.70 0.8648
433.80 0.8651
433.90 0.8654
434.00 0.8657
434.10 0.8659
434.20 0.8662
434.30 0.8665
434.40 0.8668
434.50 0.867
434.60 0.8673
434.70 0.8676
434.80 0.8679
434.90 0.8682
435.00 0.8685
435.10 0.8687
435.20 0.869
435.30 0.8693
435.40 0.8696
435.50 0.8698
435.60 0.8701
435.70 0.8704
435.80 0.8707
435.90 0.871
436.00 0.8712
436.10 0.8715
436.20 0.8718
436.30 0.872
436.40 0.8723
436.50 0.8726
436.60 0.8729
436.70 0.8732
436.80 0.8734
436.90 0.8737
437.00 0.874
437.10 0.8742
437.20 0.8745
437.30 0.8748
437.40 0.8751
437.50 0.8754
437.60 0.8756
437.70 0.8759
437.80 0.8762
437.90 0.8764
438.00 0.8767
438.10 0.877
438.20 0.8773
438.30 0.8775
438.40 0.8778
438.50 0.878
438.60 0.8783
438.70 0.8786
438.80 0.8789
438.90 0.8791
439.00 0.8794
439.10 0.8797
439.20 0.8799
439.30 0.8802
439.40 0.8805
439.50 0.8808
439.60 0.881
439.70 0.8813
439.80 0.8815
439.90 0.8818
440.00 0.8821
440.10 0.8824
440.20 0.8826
440.30 0.8829
440.40 0.8831
440.50 0.8834
440.60 0.8837
440.70 0.8839
440.80 0.8842
440.90 0.8844
441.00 0.8847
441.10 0.885
441.20 0.8853
441.30 0.8855
441.40 0.8858
441.50 0.8861
441.60 0.8863
441.70 0.8866
441.80 0.8868
441.90 0.8871
442.00 0.8873
442.10 0.8876
442.20 0.8879
442.30 0.8881
442.40 0.8884
442.50 0.8887
442.60 0.8889
442.70 0.8892
442.80 0.8894
442.90 0.8897
443.00 0.89
