# Version 2.1 - nm, norm@500 to 1, cut digits, bergeron_8500_80.dat_8500
# Wavelength(nm)  Flambda(ergs/cm^s/s/nm)
300.00 1.485
300.10 1.485
300.20 1.485
300.30 1.485
300.40 1.484
300.50 1.484
300.60 1.484
300.70 1.484
300.80 1.484
300.90 1.483
301.00 1.483
301.10 1.483
301.20 1.483
301.30 1.483
301.40 1.483
301.50 1.482
301.60 1.482
301.70 1.482
301.80 1.482
301.90 1.482
302.00 1.482
302.10 1.481
302.20 1.481
302.30 1.481
302.40 1.481
302.50 1.481
302.60 1.481
302.70 1.48
302.80 1.48
302.90 1.48
303.00 1.48
303.10 1.48
303.20 1.479
303.30 1.479
303.40 1.479
303.50 1.479
303.60 1.479
303.70 1.478
303.80 1.478
303.90 1.478
304.00 1.478
304.10 1.478
304.20 1.478
304.30 1.477
304.40 1.477
304.50 1.477
304.60 1.477
304.70 1.477
304.80 1.476
304.90 1.476
305.00 1.476
305.10 1.476
305.20 1.476
305.30 1.475
305.40 1.475
305.50 1.475
305.60 1.475
305.70 1.475
305.80 1.475
305.90 1.474
306.00 1.474
306.10 1.474
306.20 1.474
306.30 1.474
306.40 1.473
306.50 1.473
306.60 1.473
306.70 1.473
306.80 1.473
306.90 1.472
307.00 1.472
307.10 1.472
307.20 1.472
307.30 1.472
307.40 1.471
307.50 1.471
307.60 1.471
307.70 1.471
307.80 1.471
307.90 1.47
308.00 1.47
308.10 1.47
308.20 1.47
308.30 1.469
308.40 1.469
308.50 1.469
308.60 1.469
308.70 1.469
308.80 1.468
308.90 1.468
309.00 1.468
309.10 1.468
309.20 1.468
309.30 1.467
309.40 1.467
309.50 1.467
309.60 1.467
309.70 1.467
309.80 1.466
309.90 1.466
310.00 1.466
310.10 1.466
310.20 1.465
310.30 1.465
310.40 1.465
310.50 1.465
310.60 1.465
310.70 1.464
310.80 1.464
310.90 1.464
311.00 1.464
311.10 1.463
311.20 1.463
311.30 1.463
311.40 1.463
311.50 1.463
311.60 1.462
311.70 1.462
311.80 1.462
311.90 1.462
312.00 1.462
312.10 1.461
312.20 1.461
312.30 1.461
312.40 1.461
312.50 1.46
312.60 1.46
312.70 1.46
312.80 1.46
312.90 1.459
313.00 1.459
313.10 1.459
313.20 1.459
313.30 1.459
313.40 1.458
313.50 1.458
313.60 1.458
313.70 1.458
313.80 1.457
313.90 1.457
314.00 1.457
314.10 1.457
314.20 1.456
314.30 1.456
314.40 1.456
314.50 1.456
314.60 1.455
314.70 1.455
314.80 1.455
314.90 1.455
315.00 1.455
315.10 1.454
315.20 1.454
315.30 1.454
315.40 1.454
315.50 1.453
315.60 1.453
315.70 1.453
315.80 1.453
315.90 1.452
316.00 1.452
316.10 1.452
316.20 1.452
316.30 1.452
316.40 1.451
316.50 1.451
316.60 1.451
316.70 1.451
316.80 1.45
316.90 1.45
317.00 1.45
317.10 1.45
317.20 1.449
317.30 1.449
317.40 1.449
317.50 1.449
317.60 1.448
317.70 1.448
317.80 1.448
317.90 1.448
318.00 1.447
318.10 1.447
318.20 1.447
318.30 1.447
318.40 1.446
318.50 1.446
318.60 1.446
318.70 1.446
318.80 1.445
318.90 1.445
319.00 1.445
319.10 1.445
319.20 1.444
319.30 1.444
319.40 1.444
319.50 1.444
319.60 1.443
319.70 1.443
319.80 1.443
319.90 1.443
320.00 1.442
320.10 1.442
320.20 1.442
320.30 1.442
320.40 1.441
320.50 1.441
320.60 1.441
320.70 1.44
320.80 1.44
320.90 1.44
321.00 1.44
321.10 1.439
321.20 1.439
321.30 1.439
321.40 1.439
321.50 1.438
321.60 1.438
321.70 1.438
321.80 1.438
321.90 1.437
322.00 1.437
322.10 1.437
322.20 1.437
322.30 1.436
322.40 1.436
322.50 1.436
322.60 1.435
322.70 1.435
322.80 1.435
322.90 1.435
323.00 1.434
323.10 1.434
323.20 1.434
323.30 1.434
323.40 1.433
323.50 1.433
323.60 1.433
323.70 1.432
323.80 1.432
323.90 1.432
324.00 1.432
324.10 1.431
324.20 1.431
324.30 1.431
324.40 1.431
324.50 1.43
324.60 1.43
324.70 1.43
324.80 1.43
324.90 1.429
325.00 1.429
325.10 1.429
325.20 1.428
325.30 1.428
325.40 1.428
325.50 1.428
325.60 1.427
325.70 1.427
325.80 1.427
325.90 1.427
326.00 1.426
326.10 1.426
326.20 1.426
326.30 1.425
326.40 1.425
326.50 1.425
326.60 1.425
326.70 1.424
326.80 1.424
326.90 1.424
327.00 1.423
327.10 1.423
327.20 1.423
327.30 1.423
327.40 1.422
327.50 1.422
327.60 1.422
327.70 1.421
327.80 1.421
327.90 1.421
328.00 1.421
328.10 1.42
328.20 1.42
328.30 1.42
328.40 1.42
328.50 1.419
328.60 1.419
328.70 1.419
328.80 1.418
328.90 1.418
329.00 1.418
329.10 1.418
329.20 1.417
329.30 1.417
329.40 1.417
329.50 1.416
329.60 1.416
329.70 1.416
329.80 1.416
329.90 1.415
330.00 1.415
330.10 1.415
330.20 1.414
330.30 1.414
330.40 1.414
330.50 1.413
330.60 1.413
330.70 1.413
330.80 1.413
330.90 1.412
331.00 1.412
331.10 1.412
331.20 1.411
331.30 1.411
331.40 1.411
331.50 1.411
331.60 1.41
331.70 1.41
331.80 1.41
331.90 1.409
332.00 1.409
332.10 1.409
332.20 1.409
332.30 1.408
332.40 1.408
332.50 1.408
332.60 1.407
332.70 1.407
332.80 1.407
332.90 1.406
333.00 1.406
333.10 1.406
333.20 1.406
333.30 1.405
333.40 1.405
333.50 1.405
333.60 1.404
333.70 1.404
333.80 1.404
333.90 1.403
334.00 1.403
334.10 1.403
334.20 1.403
334.30 1.402
334.40 1.402
334.50 1.402
334.60 1.401
334.70 1.401
334.80 1.401
334.90 1.4
335.00 1.4
335.10 1.4
335.20 1.4
335.30 1.399
335.40 1.399
335.50 1.399
335.60 1.398
335.70 1.398
335.80 1.398
335.90 1.397
336.00 1.397
336.10 1.397
336.20 1.397
336.30 1.396
336.40 1.396
336.50 1.396
336.60 1.395
336.70 1.395
336.80 1.395
336.90 1.394
337.00 1.394
337.10 1.394
337.20 1.393
337.30 1.393
337.40 1.393
337.50 1.393
337.60 1.392
337.70 1.392
337.80 1.392
337.90 1.391
338.00 1.391
338.10 1.391
338.20 1.39
338.30 1.39
338.40 1.39
338.50 1.389
338.60 1.389
338.70 1.389
338.80 1.388
338.90 1.388
339.00 1.388
339.10 1.388
339.20 1.387
339.30 1.387
339.40 1.387
339.50 1.386
339.60 1.386
339.70 1.386
339.80 1.385
339.90 1.385
340.00 1.385
340.10 1.384
340.20 1.384
340.30 1.384
340.40 1.383
340.50 1.383
340.60 1.383
340.70 1.383
340.80 1.382
340.90 1.382
341.00 1.382
341.10 1.381
341.20 1.381
341.30 1.381
341.40 1.38
341.50 1.38
341.60 1.38
341.70 1.379
341.80 1.379
341.90 1.379
342.00 1.378
342.10 1.378
342.20 1.378
342.30 1.377
342.40 1.377
342.50 1.377
342.60 1.376
342.70 1.376
342.80 1.376
342.90 1.375
343.00 1.375
343.10 1.375
343.20 1.374
343.30 1.374
343.40 1.374
343.50 1.374
343.60 1.373
343.70 1.373
343.80 1.373
343.90 1.372
344.00 1.372
344.10 1.372
344.20 1.371
344.30 1.371
344.40 1.371
344.50 1.37
344.60 1.37
344.70 1.37
344.80 1.369
344.90 1.369
345.00 1.369
345.10 1.368
345.20 1.368
345.30 1.368
345.40 1.367
345.50 1.367
345.60 1.367
345.70 1.366
345.80 1.366
345.90 1.366
346.00 1.365
346.10 1.365
346.20 1.365
346.30 1.364
346.40 1.364
346.50 1.364
346.60 1.363
346.70 1.363
346.80 1.363
346.90 1.362
347.00 1.362
347.10 1.362
347.20 1.361
347.30 1.361
347.40 1.361
347.50 1.36
347.60 1.36
347.70 1.36
347.80 1.359
347.90 1.359
348.00 1.359
348.10 1.358
348.20 1.358
348.30 1.358
348.40 1.358
348.50 1.357
348.60 1.357
348.70 1.357
348.80 1.356
348.90 1.356
349.00 1.356
349.10 1.355
349.20 1.355
349.30 1.355
349.40 1.354
349.50 1.354
349.60 1.354
349.70 1.353
349.80 1.353
349.90 1.353
350.00 1.352
350.10 1.352
350.20 1.352
350.30 1.351
350.40 1.351
350.50 1.351
350.60 1.35
350.70 1.35
350.80 1.35
350.90 1.349
351.00 1.349
351.10 1.348
351.20 1.348
351.30 1.348
351.40 1.347
351.50 1.347
351.60 1.347
351.70 1.346
351.80 1.346
351.90 1.346
352.00 1.345
352.10 1.345
352.20 1.345
352.30 1.344
352.40 1.344
352.50 1.344
352.60 1.343
352.70 1.343
352.80 1.343
352.90 1.342
353.00 1.342
353.10 1.342
353.20 1.341
353.30 1.341
353.40 1.341
353.50 1.34
353.60 1.34
353.70 1.34
353.80 1.339
353.90 1.339
354.00 1.339
354.10 1.338
354.20 1.338
354.30 1.338
354.40 1.337
354.50 1.337
354.60 1.337
354.70 1.336
354.80 1.336
354.90 1.336
355.00 1.335
355.10 1.335
355.20 1.335
355.30 1.334
355.40 1.334
355.50 1.334
355.60 1.333
355.70 1.333
355.80 1.332
355.90 1.332
356.00 1.332
356.10 1.331
356.20 1.331
356.30 1.331
356.40 1.33
356.50 1.33
356.60 1.33
356.70 1.329
356.80 1.329
356.90 1.329
357.00 1.328
357.10 1.328
357.20 1.328
357.30 1.327
357.40 1.327
357.50 1.327
357.60 1.326
357.70 1.326
357.80 1.326
357.90 1.325
358.00 1.325
358.10 1.325
358.20 1.324
358.30 1.324
358.40 1.323
358.50 1.323
358.60 1.323
358.70 1.322
358.80 1.322
358.90 1.322
359.00 1.321
359.10 1.321
359.20 1.321
359.30 1.32
359.40 1.32
359.50 1.32
359.60 1.319
359.70 1.319
359.80 1.319
359.90 1.318
360.00 1.318
360.10 1.318
360.20 1.317
360.30 1.317
360.40 1.317
360.50 1.316
360.60 1.316
360.70 1.315
360.80 1.315
360.90 1.315
361.00 1.314
361.10 1.314
361.20 1.314
361.30 1.313
361.40 1.313
361.50 1.313
361.60 1.312
361.70 1.312
361.80 1.312
361.90 1.311
362.00 1.311
362.10 1.311
362.20 1.31
362.30 1.31
362.40 1.309
362.50 1.309
362.60 1.309
362.70 1.308
362.80 1.308
362.90 1.308
363.00 1.307
363.10 1.307
363.20 1.307
363.30 1.306
363.40 1.306
363.50 1.305
363.60 1.305
363.70 1.305
363.80 1.304
363.90 1.304
364.00 1.304
364.10 1.303
364.20 1.303
364.30 1.302
364.40 1.302
364.50 1.302
364.60 1.301
364.70 1.301
364.80 1.3
364.90 1.3
365.00 1.3
365.10 1.299
365.20 1.299
365.30 1.299
365.40 1.298
365.50 1.298
365.60 1.297
365.70 1.297
365.80 1.297
365.90 1.296
366.00 1.296
366.10 1.295
366.20 1.295
366.30 1.295
366.40 1.294
366.50 1.294
366.60 1.294
366.70 1.293
366.80 1.293
366.90 1.293
367.00 1.292
367.10 1.292
367.20 1.292
367.30 1.291
367.40 1.291
367.50 1.29
367.60 1.29
367.70 1.29
367.80 1.289
367.90 1.289
368.00 1.289
368.10 1.288
368.20 1.288
368.30 1.288
368.40 1.288
368.50 1.288
368.60 1.287
368.70 1.287
368.80 1.287
368.90 1.287
369.00 1.286
369.10 1.286
369.20 1.286
369.30 1.286
369.40 1.286
369.50 1.285
369.60 1.285
369.70 1.285
369.80 1.285
369.90 1.284
370.00 1.284
370.10 1.284
370.20 1.284
370.30 1.284
370.40 1.285
370.50 1.285
370.60 1.285
370.70 1.285
370.80 1.285
370.90 1.285
371.00 1.285
371.10 1.285
371.20 1.285
371.30 1.285
371.40 1.285
371.50 1.286
371.60 1.286
371.70 1.286
371.80 1.286
371.90 1.286
372.00 1.286
372.10 1.287
372.20 1.287
372.30 1.288
372.40 1.288
372.50 1.289
372.60 1.289
372.70 1.29
372.80 1.29
372.90 1.291
373.00 1.291
373.10 1.292
373.20 1.292
373.30 1.293
373.40 1.293
373.50 1.294
373.60 1.294
373.70 1.295
373.80 1.295
373.90 1.296
374.00 1.296
374.10 1.297
374.20 1.298
374.30 1.298
374.40 1.299
374.50 1.3
374.60 1.3
374.70 1.301
374.80 1.302
374.90 1.303
375.00 1.303
375.10 1.304
375.20 1.305
375.30 1.305
375.40 1.306
375.50 1.307
375.60 1.307
375.70 1.308
375.80 1.309
375.90 1.31
376.00 1.31
376.10 1.311
376.20 1.311
376.30 1.312
376.40 1.312
376.50 1.313
376.60 1.313
376.70 1.313
376.80 1.314
376.90 1.314
377.00 1.315
377.10 1.315
377.20 1.314
377.30 1.314
377.40 1.314
377.50 1.313
377.60 1.313
377.70 1.313
377.80 1.312
377.90 1.312
378.00 1.312
378.10 1.308
378.20 1.305
378.30 1.301
378.40 1.298
378.50 1.294
378.60 1.29
378.70 1.287
378.80 1.283
378.90 1.28
379.00 1.276
379.10 1.269
379.20 1.263
379.30 1.256
379.40 1.249
379.50 1.242
379.60 1.235
379.70 1.228
379.80 1.222
379.90 1.215
380.00 1.208
380.10 1.217
380.20 1.226
380.30 1.235
380.40 1.244
380.50 1.253
380.60 1.262
380.70 1.271
380.80 1.281
380.90 1.29
381.00 1.299
381.10 1.3
381.20 1.302
381.30 1.303
381.40 1.305
381.50 1.306
381.60 1.306
381.70 1.305
381.80 1.304
381.90 1.302
382.00 1.299
382.10 1.296
382.20 1.292
382.30 1.279
382.40 1.266
382.50 1.253
382.60 1.24
382.70 1.227
382.80 1.214
382.90 1.201
383.00 1.188
383.10 1.175
383.20 1.162
383.30 1.132
383.40 1.094
383.50 1.05
383.60 1.059
383.70 1.104
383.80 1.14
383.90 1.169
384.00 1.193
384.10 1.213
384.20 1.231
384.30 1.247
384.40 1.26
384.50 1.271
384.60 1.281
384.70 1.289
384.80 1.296
384.90 1.302
385.00 1.306
385.10 1.31
385.20 1.314
385.30 1.317
385.40 1.319
385.50 1.321
385.60 1.322
385.70 1.323
385.80 1.324
385.90 1.324
386.00 1.324
386.10 1.324
386.20 1.323
386.30 1.322
386.40 1.321
386.50 1.319
386.60 1.317
386.70 1.314
386.80 1.311
386.90 1.307
387.00 1.303
387.10 1.299
387.20 1.294
387.30 1.288
387.40 1.282
387.50 1.274
387.60 1.265
387.70 1.256
387.80 1.244
387.90 1.23
388.00 1.215
388.10 1.195
388.20 1.172
388.30 1.146
388.40 1.113
388.50 1.075
388.60 1.033
388.70 0.9754
388.80 0.9128
388.90 0.8451
389.00 0.9082
389.10 0.9692
389.20 1.028
389.30 1.071
389.40 1.11
389.50 1.144
389.60 1.17
389.70 1.194
389.80 1.214
389.90 1.23
390.00 1.245
390.10 1.257
390.20 1.267
390.30 1.276
390.40 1.284
390.50 1.292
390.60 1.298
390.70 1.304
390.80 1.309
390.90 1.314
391.00 1.319
391.10 1.323
391.20 1.326
391.30 1.33
391.40 1.333
391.50 1.335
391.60 1.338
391.70 1.34
391.80 1.342
391.90 1.343
392.00 1.345
392.10 1.346
392.20 1.347
392.30 1.348
392.40 1.348
392.50 1.349
392.60 1.349
392.70 1.349
392.80 1.349
392.90 1.348
393.00 1.348
393.10 1.347
393.20 1.346
393.30 1.345
393.40 1.343
393.50 1.341
393.60 1.34
393.70 1.337
393.80 1.335
393.90 1.332
394.00 1.329
394.10 1.326
394.20 1.322
394.30 1.319
394.40 1.314
394.50 1.31
394.60 1.305
394.70 1.299
394.80 1.293
394.90 1.287
395.00 1.28
395.10 1.273
395.20 1.265
395.30 1.256
395.40 1.246
395.50 1.236
395.60 1.224
395.70 1.212
395.80 1.198
395.90 1.182
396.00 1.164
396.10 1.144
396.20 1.118
396.30 1.088
396.40 1.054
396.50 1.008
396.60 0.9536
396.70 0.892
396.80 0.8106
396.90 0.7165
397.00 0.6099
397.10 0.7074
397.20 0.798
397.30 0.8815
397.40 0.9445
397.50 0.9996
397.60 1.047
397.70 1.082
397.80 1.112
397.90 1.138
398.00 1.158
398.10 1.176
398.20 1.192
398.30 1.206
398.40 1.218
398.50 1.23
398.60 1.24
398.70 1.249
398.80 1.258
398.90 1.265
399.00 1.273
399.10 1.28
399.20 1.286
399.30 1.292
399.40 1.297
399.50 1.302
399.60 1.307
399.70 1.311
399.80 1.315
399.90 1.319
400.00 1.323
400.10 1.326
400.20 1.329
400.30 1.332
400.40 1.334
400.50 1.337
400.60 1.339
400.70 1.341
400.80 1.343
400.90 1.345
401.00 1.346
401.10 1.348
401.20 1.349
401.30 1.35
401.40 1.351
401.50 1.353
401.60 1.353
401.70 1.354
401.80 1.355
401.90 1.356
402.00 1.356
402.10 1.357
402.20 1.357
402.30 1.358
402.40 1.358
402.50 1.358
402.60 1.358
402.70 1.358
402.80 1.358
402.90 1.358
403.00 1.358
403.10 1.358
403.20 1.358
403.30 1.358
403.40 1.358
403.50 1.357
403.60 1.357
403.70 1.356
403.80 1.356
403.90 1.355
404.00 1.355
404.10 1.354
404.20 1.353
404.30 1.352
404.40 1.351
404.50 1.35
404.60 1.349
404.70 1.348
404.80 1.347
404.90 1.346
405.00 1.345
405.10 1.343
405.20 1.342
405.30 1.34
405.40 1.338
405.50 1.337
405.60 1.335
405.70 1.333
405.80 1.331
405.90 1.328
406.00 1.326
406.10 1.323
406.20 1.321
406.30 1.318
406.40 1.315
406.50 1.312
406.60 1.309
406.70 1.305
406.80 1.301
406.90 1.298
407.00 1.293
407.10 1.289
407.20 1.284
407.30 1.279
407.40 1.274
407.50 1.268
407.60 1.262
407.70 1.255
407.80 1.249
407.90 1.241
408.00 1.233
408.10 1.225
408.20 1.215
408.30 1.205
408.40 1.195
408.50 1.183
408.60 1.171
408.70 1.158
408.80 1.143
408.90 1.128
409.00 1.111
409.10 1.091
409.20 1.069
409.30 1.046
409.40 1.015
409.50 0.9801
409.60 0.9395
409.70 0.8832
409.80 0.8164
409.90 0.7391
410.00 0.6391
410.10 0.5524
410.20 0.4789
410.30 0.5917
410.40 0.6934
410.50 0.7838
410.60 0.853
410.70 0.9123
410.80 0.9617
410.90 0.9974
411.00 1.029
411.10 1.056
411.20 1.077
411.30 1.097
411.40 1.115
411.50 1.13
411.60 1.144
411.70 1.158
411.80 1.169
411.90 1.18
412.00 1.191
412.10 1.2
412.20 1.209
412.30 1.217
412.40 1.224
412.50 1.231
412.60 1.238
412.70 1.244
412.80 1.249
412.90 1.255
413.00 1.259
413.10 1.264
413.20 1.268
413.30 1.272
413.40 1.276
413.50 1.279
413.60 1.282
413.70 1.285
413.80 1.288
413.90 1.29
414.00 1.292
414.10 1.295
414.20 1.297
414.30 1.299
414.40 1.3
414.50 1.302
414.60 1.304
414.70 1.305
414.80 1.307
414.90 1.308
415.00 1.309
415.10 1.31
415.20 1.311
415.30 1.312
415.40 1.313
415.50 1.314
415.60 1.314
415.70 1.315
415.80 1.316
415.90 1.316
416.00 1.317
416.10 1.317
416.20 1.318
416.30 1.318
416.40 1.318
416.50 1.319
416.60 1.319
416.70 1.319
416.80 1.319
416.90 1.319
417.00 1.32
417.10 1.32
417.20 1.32
417.30 1.32
417.40 1.32
417.50 1.32
417.60 1.32
417.70 1.32
417.80 1.32
417.90 1.32
418.00 1.32
418.10 1.32
418.20 1.32
418.30 1.32
418.40 1.319
418.50 1.319
418.60 1.319
418.70 1.319
418.80 1.319
418.90 1.319
419.00 1.318
419.10 1.318
419.20 1.318
419.30 1.318
419.40 1.317
419.50 1.317
419.60 1.317
419.70 1.317
419.80 1.316
419.90 1.316
420.00 1.316
420.10 1.315
420.20 1.315
420.30 1.315
420.40 1.314
420.50 1.314
420.60 1.314
420.70 1.313
420.80 1.313
420.90 1.313
421.00 1.312
421.10 1.312
421.20 1.312
421.30 1.311
421.40 1.311
421.50 1.31
421.60 1.31
421.70 1.31
421.80 1.309
421.90 1.309
422.00 1.308
422.10 1.308
422.20 1.307
422.30 1.307
422.40 1.307
422.50 1.306
422.60 1.306
422.70 1.305
422.80 1.305
422.90 1.304
423.00 1.304
423.10 1.303
423.20 1.303
423.30 1.302
423.40 1.302
423.50 1.301
423.60 1.301
423.70 1.3
423.80 1.3
423.90 1.299
424.00 1.298
424.10 1.298
424.20 1.297
424.30 1.297
424.40 1.296
424.50 1.296
424.60 1.295
424.70 1.294
424.80 1.294
424.90 1.293
425.00 1.293
425.10 1.292
425.20 1.291
425.30 1.291
425.40 1.29
425.50 1.289
425.60 1.289
425.70 1.288
425.80 1.287
425.90 1.286
426.00 1.286
426.10 1.285
426.20 1.284
426.30 1.283
426.40 1.282
426.50 1.282
426.60 1.281
426.70 1.28
426.80 1.279
426.90 1.278
427.00 1.277
427.10 1.276
427.20 1.275
427.30 1.274
427.40 1.273
427.50 1.272
427.60 1.271
427.70 1.27
427.80 1.269
427.90 1.268
428.00 1.267
428.10 1.265
428.20 1.264
428.30 1.263
428.40 1.261
428.50 1.26
428.60 1.258
428.70 1.257
428.80 1.255
428.90 1.253
429.00 1.251
429.10 1.25
429.20 1.248
429.30 1.246
429.40 1.243
429.50 1.241
429.60 1.239
429.70 1.236
429.80 1.234
429.90 1.231
430.00 1.228
430.10 1.225
430.20 1.222
430.30 1.219
430.40 1.216
430.50 1.212
430.60 1.208
430.70 1.204
430.80 1.2
430.90 1.196
431.00 1.191
431.10 1.187
431.20 1.182
431.30 1.176
431.40 1.171
431.50 1.165
431.60 1.158
431.70 1.151
431.80 1.144
431.90 1.136
432.00 1.128
432.10 1.119
432.20 1.109
432.30 1.098
432.40 1.086
432.50 1.072
432.60 1.057
432.70 1.041
432.80 1.023
432.90 1.003
433.00 0.9819
433.10 0.9586
433.20 0.9331
433.30 0.9055
433.40 0.8695
433.50 0.8263
433.60 0.7759
433.70 0.7039
433.80 0.624
433.90 0.5363
434.00 0.4508
434.10 0.4532
434.20 0.5435
434.30 0.6305
434.40 0.7092
434.50 0.7797
434.60 0.8285
434.70 0.8704
434.80 0.9052
434.90 0.932
435.00 0.9566
435.10 0.9791
435.20 0.9992
435.30 1.018
435.40 1.036
435.50 1.051
435.60 1.065
435.70 1.078
435.80 1.088
435.90 1.099
436.00 1.108
436.10 1.116
436.20 1.124
436.30 1.131
436.40 1.137
436.50 1.143
436.60 1.148
436.70 1.153
436.80 1.158
436.90 1.163
437.00 1.167
437.10 1.171
437.20 1.174
437.30 1.178
437.40 1.181
437.50 1.184
437.60 1.187
437.70 1.189
437.80 1.192
437.90 1.194
438.00 1.196
438.10 1.198
438.20 1.2
438.30 1.202
438.40 1.204
438.50 1.205
438.60 1.207
438.70 1.208
438.80 1.209
438.90 1.21
439.00 1.212
439.10 1.212
439.20 1.213
439.30 1.214
439.40 1.215
439.50 1.216
439.60 1.216
439.70 1.217
439.80 1.217
439.90 1.218
440.00 1.218
440.10 1.219
440.20 1.219
440.30 1.219
440.40 1.22
440.50 1.22
440.60 1.22
440.70 1.22
440.80 1.221
440.90 1.221
441.00 1.221
441.10 1.221
441.20 1.221
441.30 1.221
441.40 1.221
441.50 1.221
441.60 1.221
441.70 1.221
441.80 1.221
441.90 1.221
442.00 1.221
442.10 1.221
442.20 1.221
442.30 1.221
442.40 1.22
442.50 1.22
442.60 1.22
442.70 1.22
442.80 1.22
442.90 1.22
443.00 1.219
443.10 1.219
443.20 1.219
443.30 1.219
443.40 1.219
443.50 1.218
443.60 1.218
443.70 1.218
443.80 1.218
443.90 1.218
444.00 1.217
444.10 1.217
444.20 1.217
444.30 1.217
444.40 1.216
444.50 1.216
444.60 1.216
444.70 1.215
444.80 1.215
444.90 1.215
445.00 1.215
445.10 1.214
445.20 1.214
445.30 1.214
445.40 1.213
445.50 1.213
445.60 1.213
445.70 1.212
445.80 1.212
445.90 1.212
446.00 1.212
446.10 1.211
446.20 1.211
446.30 1.211
446.40 1.21
446.50 1.21
446.60 1.21
446.70 1.209
446.80 1.209
446.90 1.209
447.00 1.208
447.10 1.208
447.20 1.207
447.30 1.207
447.40 1.207
447.50 1.206
447.60 1.206
447.70 1.206
447.80 1.205
447.90 1.205
448.00 1.205
448.10 1.204
448.20 1.204
448.30 1.204
448.40 1.203
448.50 1.203
448.60 1.202
448.70 1.202
448.80 1.202
448.90 1.201
449.00 1.201
449.10 1.201
449.20 1.2
449.30 1.2
449.40 1.199
449.50 1.199
449.60 1.199
449.70 1.198
449.80 1.198
449.90 1.198
450.00 1.197
450.10 1.197
450.20 1.196
450.30 1.196
450.40 1.196
450.50 1.195
450.60 1.195
450.70 1.194
450.80 1.194
450.90 1.194
451.00 1.193
451.10 1.193
451.20 1.193
451.30 1.192
451.40 1.192
451.50 1.191
451.60 1.191
451.70 1.191
451.80 1.19
451.90 1.19
452.00 1.189
452.10 1.189
452.20 1.189
452.30 1.188
452.40 1.188
452.50 1.187
452.60 1.187
452.70 1.187
452.80 1.186
452.90 1.186
453.00 1.185
453.10 1.185
453.20 1.185
453.30 1.184
453.40 1.184
453.50 1.183
453.60 1.183
453.70 1.183
