# Version 2.1 - nm, norm@500 to 1, cut digits, bergeron_9000_85.dat_9000
# Wavelength(nm)  Flambda(ergs/cm^s/s/nm)
300.00 1.635
300.10 1.634
300.20 1.634
300.30 1.634
300.40 1.633
300.50 1.633
300.60 1.633
300.70 1.632
300.80 1.632
300.90 1.632
301.00 1.631
301.10 1.631
301.20 1.631
301.30 1.63
301.40 1.63
301.50 1.63
301.60 1.629
301.70 1.629
301.80 1.629
301.90 1.628
302.00 1.628
302.10 1.628
302.20 1.627
302.30 1.627
302.40 1.627
302.50 1.626
302.60 1.626
302.70 1.626
302.80 1.625
302.90 1.625
303.00 1.625
303.10 1.624
303.20 1.624
303.30 1.624
303.40 1.623
303.50 1.623
303.60 1.623
303.70 1.622
303.80 1.622
303.90 1.622
304.00 1.621
304.10 1.621
304.20 1.621
304.30 1.62
304.40 1.62
304.50 1.62
304.60 1.619
304.70 1.619
304.80 1.619
304.90 1.618
305.00 1.618
305.10 1.618
305.20 1.617
305.30 1.617
305.40 1.617
305.50 1.616
305.60 1.616
305.70 1.616
305.80 1.615
305.90 1.615
306.00 1.615
306.10 1.614
306.20 1.614
306.30 1.614
306.40 1.613
306.50 1.613
306.60 1.613
306.70 1.612
306.80 1.612
306.90 1.612
307.00 1.611
307.10 1.611
307.20 1.61
307.30 1.61
307.40 1.61
307.50 1.609
307.60 1.609
307.70 1.609
307.80 1.608
307.90 1.608
308.00 1.608
308.10 1.607
308.20 1.607
308.30 1.607
308.40 1.606
308.50 1.606
308.60 1.606
308.70 1.605
308.80 1.605
308.90 1.604
309.00 1.604
309.10 1.604
309.20 1.603
309.30 1.603
309.40 1.603
309.50 1.602
309.60 1.602
309.70 1.602
309.80 1.601
309.90 1.601
310.00 1.601
310.10 1.6
310.20 1.6
310.30 1.599
310.40 1.599
310.50 1.599
310.60 1.598
310.70 1.598
310.80 1.598
310.90 1.597
311.00 1.597
311.10 1.597
311.20 1.596
311.30 1.596
311.40 1.595
311.50 1.595
311.60 1.595
311.70 1.594
311.80 1.594
311.90 1.594
312.00 1.593
312.10 1.593
312.20 1.593
312.30 1.592
312.40 1.592
312.50 1.591
312.60 1.591
312.70 1.591
312.80 1.59
312.90 1.59
313.00 1.59
313.10 1.589
313.20 1.589
313.30 1.588
313.40 1.588
313.50 1.588
313.60 1.587
313.70 1.587
313.80 1.587
313.90 1.586
314.00 1.586
314.10 1.585
314.20 1.585
314.30 1.585
314.40 1.584
314.50 1.584
314.60 1.584
314.70 1.583
314.80 1.583
314.90 1.582
315.00 1.582
315.10 1.582
315.20 1.581
315.30 1.581
315.40 1.581
315.50 1.58
315.60 1.58
315.70 1.579
315.80 1.579
315.90 1.579
316.00 1.578
316.10 1.578
316.20 1.578
316.30 1.577
316.40 1.577
316.50 1.576
316.60 1.576
316.70 1.576
316.80 1.575
316.90 1.575
317.00 1.574
317.10 1.574
317.20 1.574
317.30 1.573
317.40 1.573
317.50 1.573
317.60 1.572
317.70 1.572
317.80 1.571
317.90 1.571
318.00 1.571
318.10 1.57
318.20 1.57
318.30 1.569
318.40 1.569
318.50 1.569
318.60 1.568
318.70 1.568
318.80 1.568
318.90 1.567
319.00 1.567
319.10 1.566
319.20 1.566
319.30 1.566
319.40 1.565
319.50 1.565
319.60 1.564
319.70 1.564
319.80 1.564
319.90 1.563
320.00 1.563
320.10 1.562
320.20 1.562
320.30 1.562
320.40 1.561
320.50 1.561
320.60 1.56
320.70 1.56
320.80 1.56
320.90 1.559
321.00 1.559
321.10 1.558
321.20 1.558
321.30 1.558
321.40 1.557
321.50 1.557
321.60 1.557
321.70 1.556
321.80 1.556
321.90 1.555
322.00 1.555
322.10 1.555
322.20 1.554
322.30 1.554
322.40 1.553
322.50 1.553
322.60 1.553
322.70 1.552
322.80 1.552
322.90 1.551
323.00 1.551
323.10 1.551
323.20 1.55
323.30 1.55
323.40 1.549
323.50 1.549
323.60 1.549
323.70 1.548
323.80 1.548
323.90 1.547
324.00 1.547
324.10 1.546
324.20 1.546
324.30 1.546
324.40 1.545
324.50 1.545
324.60 1.544
324.70 1.544
324.80 1.544
324.90 1.543
325.00 1.543
325.10 1.542
325.20 1.542
325.30 1.542
325.40 1.541
325.50 1.541
325.60 1.54
325.70 1.54
325.80 1.54
325.90 1.539
326.00 1.539
326.10 1.538
326.20 1.538
326.30 1.538
326.40 1.537
326.50 1.537
326.60 1.536
326.70 1.536
326.80 1.536
326.90 1.535
327.00 1.535
327.10 1.534
327.20 1.534
327.30 1.533
327.40 1.533
327.50 1.533
327.60 1.532
327.70 1.532
327.80 1.531
327.90 1.531
328.00 1.531
328.10 1.53
328.20 1.53
328.30 1.529
328.40 1.529
328.50 1.529
328.60 1.528
328.70 1.528
328.80 1.527
328.90 1.527
329.00 1.526
329.10 1.526
329.20 1.526
329.30 1.525
329.40 1.525
329.50 1.524
329.60 1.524
329.70 1.524
329.80 1.523
329.90 1.523
330.00 1.522
330.10 1.522
330.20 1.521
330.30 1.521
330.40 1.521
330.50 1.52
330.60 1.52
330.70 1.519
330.80 1.519
330.90 1.519
331.00 1.518
331.10 1.518
331.20 1.517
331.30 1.517
331.40 1.516
331.50 1.516
331.60 1.516
331.70 1.515
331.80 1.515
331.90 1.514
332.00 1.514
332.10 1.514
332.20 1.513
332.30 1.513
332.40 1.512
332.50 1.512
332.60 1.511
332.70 1.511
332.80 1.511
332.90 1.51
333.00 1.51
333.10 1.509
333.20 1.509
333.30 1.508
333.40 1.508
333.50 1.508
333.60 1.507
333.70 1.507
333.80 1.506
333.90 1.506
334.00 1.506
334.10 1.505
334.20 1.505
334.30 1.504
334.40 1.504
334.50 1.503
334.60 1.503
334.70 1.503
334.80 1.502
334.90 1.502
335.00 1.501
335.10 1.501
335.20 1.5
335.30 1.5
335.40 1.5
335.50 1.499
335.60 1.499
335.70 1.498
335.80 1.498
335.90 1.497
336.00 1.497
336.10 1.497
336.20 1.496
336.30 1.496
336.40 1.495
336.50 1.495
336.60 1.494
336.70 1.494
336.80 1.494
336.90 1.493
337.00 1.493
337.10 1.492
337.20 1.492
337.30 1.491
337.40 1.491
337.50 1.491
337.60 1.49
337.70 1.49
337.80 1.489
337.90 1.489
338.00 1.488
338.10 1.488
338.20 1.488
338.30 1.487
338.40 1.487
338.50 1.486
338.60 1.486
338.70 1.485
338.80 1.485
338.90 1.484
339.00 1.484
339.10 1.484
339.20 1.483
339.30 1.483
339.40 1.482
339.50 1.482
339.60 1.481
339.70 1.481
339.80 1.481
339.90 1.48
340.00 1.48
340.10 1.479
340.20 1.479
340.30 1.478
340.40 1.478
340.50 1.478
340.60 1.477
340.70 1.477
340.80 1.476
340.90 1.476
341.00 1.475
341.10 1.475
341.20 1.475
341.30 1.474
341.40 1.474
341.50 1.473
341.60 1.473
341.70 1.472
341.80 1.472
341.90 1.471
342.00 1.471
342.10 1.471
342.20 1.47
342.30 1.47
342.40 1.469
342.50 1.469
342.60 1.468
342.70 1.468
342.80 1.468
342.90 1.467
343.00 1.467
343.10 1.466
343.20 1.466
343.30 1.465
343.40 1.465
343.50 1.465
343.60 1.464
343.70 1.464
343.80 1.463
343.90 1.463
344.00 1.462
344.10 1.462
344.20 1.461
344.30 1.461
344.40 1.461
344.50 1.46
344.60 1.46
344.70 1.459
344.80 1.459
344.90 1.458
345.00 1.458
345.10 1.457
345.20 1.457
345.30 1.457
345.40 1.456
345.50 1.456
345.60 1.455
345.70 1.455
345.80 1.454
345.90 1.454
346.00 1.454
346.10 1.453
346.20 1.453
346.30 1.452
346.40 1.452
346.50 1.451
346.60 1.451
346.70 1.45
346.80 1.45
346.90 1.45
347.00 1.449
347.10 1.449
347.20 1.448
347.30 1.448
347.40 1.447
347.50 1.447
347.60 1.446
347.70 1.446
347.80 1.446
347.90 1.445
348.00 1.445
348.10 1.444
348.20 1.444
348.30 1.443
348.40 1.443
348.50 1.442
348.60 1.442
348.70 1.442
348.80 1.441
348.90 1.441
349.00 1.44
349.10 1.44
349.20 1.439
349.30 1.439
349.40 1.438
349.50 1.438
349.60 1.438
349.70 1.437
349.80 1.437
349.90 1.436
350.00 1.436
350.10 1.435
350.20 1.435
350.30 1.434
350.40 1.434
350.50 1.434
350.60 1.433
350.70 1.433
350.80 1.432
350.90 1.432
351.00 1.431
351.10 1.431
351.20 1.43
351.30 1.43
351.40 1.43
351.50 1.429
351.60 1.429
351.70 1.428
351.80 1.428
351.90 1.427
352.00 1.427
352.10 1.426
352.20 1.426
352.30 1.426
352.40 1.425
352.50 1.425
352.60 1.424
352.70 1.424
352.80 1.423
352.90 1.423
353.00 1.422
353.10 1.422
353.20 1.422
353.30 1.421
353.40 1.421
353.50 1.42
353.60 1.42
353.70 1.419
353.80 1.419
353.90 1.418
354.00 1.418
354.10 1.418
354.20 1.417
354.30 1.417
354.40 1.416
354.50 1.416
354.60 1.415
354.70 1.415
354.80 1.414
354.90 1.414
355.00 1.413
355.10 1.413
355.20 1.413
355.30 1.412
355.40 1.412
355.50 1.411
355.60 1.411
355.70 1.41
355.80 1.41
355.90 1.409
356.00 1.409
356.10 1.409
356.20 1.408
356.30 1.408
356.40 1.407
356.50 1.407
356.60 1.406
356.70 1.406
356.80 1.405
356.90 1.405
357.00 1.404
357.10 1.404
357.20 1.404
357.30 1.403
357.40 1.403
357.50 1.402
357.60 1.402
357.70 1.401
357.80 1.401
357.90 1.4
358.00 1.4
358.10 1.4
358.20 1.399
358.30 1.399
358.40 1.398
358.50 1.398
358.60 1.397
358.70 1.397
358.80 1.396
358.90 1.396
359.00 1.395
359.10 1.395
359.20 1.395
359.30 1.394
359.40 1.394
359.50 1.393
359.60 1.393
359.70 1.392
359.80 1.392
359.90 1.391
360.00 1.391
360.10 1.391
360.20 1.39
360.30 1.39
360.40 1.389
360.50 1.389
360.60 1.388
360.70 1.388
360.80 1.387
360.90 1.387
361.00 1.386
361.10 1.386
361.20 1.386
361.30 1.385
361.40 1.385
361.50 1.384
361.60 1.384
361.70 1.383
361.80 1.383
361.90 1.382
362.00 1.382
362.10 1.382
362.20 1.381
362.30 1.381
362.40 1.38
362.50 1.38
362.60 1.379
362.70 1.379
362.80 1.378
362.90 1.378
363.00 1.377
363.10 1.377
363.20 1.376
363.30 1.376
363.40 1.375
363.50 1.375
363.60 1.374
363.70 1.374
363.80 1.373
363.90 1.373
364.00 1.372
364.10 1.372
364.20 1.371
364.30 1.371
364.40 1.37
364.50 1.37
364.60 1.369
364.70 1.369
364.80 1.368
364.90 1.368
365.00 1.367
365.10 1.367
365.20 1.366
365.30 1.366
365.40 1.365
365.50 1.365
365.60 1.364
365.70 1.364
365.80 1.363
365.90 1.363
366.00 1.362
366.10 1.362
366.20 1.361
366.30 1.361
366.40 1.36
366.50 1.36
366.60 1.359
366.70 1.359
366.80 1.359
366.90 1.358
367.00 1.358
367.10 1.357
367.20 1.357
367.30 1.356
367.40 1.356
367.50 1.355
367.60 1.355
367.70 1.354
367.80 1.354
367.90 1.353
368.00 1.353
368.10 1.353
368.20 1.352
368.30 1.352
368.40 1.351
368.50 1.351
368.60 1.351
368.70 1.35
368.80 1.35
368.90 1.349
369.00 1.349
369.10 1.349
369.20 1.348
369.30 1.348
369.40 1.347
369.50 1.347
369.60 1.347
369.70 1.346
369.80 1.346
369.90 1.345
370.00 1.345
370.10 1.345
370.20 1.344
370.30 1.344
370.40 1.344
370.50 1.344
370.60 1.344
370.70 1.343
370.80 1.343
370.90 1.343
371.00 1.343
371.10 1.343
371.20 1.342
371.30 1.342
371.40 1.342
371.50 1.342
371.60 1.342
371.70 1.341
371.80 1.341
371.90 1.341
372.00 1.341
372.10 1.341
372.20 1.341
372.30 1.341
372.40 1.341
372.50 1.341
372.60 1.341
372.70 1.341
372.80 1.341
372.90 1.341
373.00 1.341
373.10 1.342
373.20 1.342
373.30 1.342
373.40 1.342
373.50 1.342
373.60 1.342
373.70 1.342
373.80 1.342
373.90 1.342
374.00 1.342
374.10 1.342
374.20 1.343
374.30 1.343
374.40 1.343
374.50 1.344
374.60 1.344
374.70 1.344
374.80 1.344
374.90 1.345
375.00 1.345
375.10 1.345
375.20 1.345
375.30 1.346
375.40 1.346
375.50 1.346
375.60 1.346
375.70 1.347
375.80 1.347
375.90 1.347
376.00 1.347
376.10 1.347
376.20 1.348
376.30 1.348
376.40 1.348
376.50 1.348
376.60 1.348
376.70 1.348
376.80 1.349
376.90 1.349
377.00 1.349
377.10 1.348
377.20 1.348
377.30 1.348
377.40 1.347
377.50 1.347
377.60 1.347
377.70 1.346
377.80 1.346
377.90 1.345
378.00 1.345
378.10 1.342
378.20 1.34
378.30 1.337
378.40 1.334
378.50 1.332
378.60 1.329
378.70 1.327
378.80 1.324
378.90 1.321
379.00 1.319
379.10 1.315
379.20 1.311
379.30 1.307
379.40 1.303
379.50 1.299
379.60 1.295
379.70 1.291
379.80 1.287
379.90 1.283
380.00 1.279
380.10 1.284
380.20 1.29
380.30 1.295
380.40 1.301
380.50 1.306
380.60 1.312
380.70 1.317
380.80 1.322
380.90 1.328
381.00 1.333
381.10 1.334
381.20 1.335
381.30 1.336
381.40 1.337
381.50 1.339
381.60 1.338
381.70 1.338
381.80 1.337
381.90 1.335
382.00 1.333
382.10 1.33
382.20 1.327
382.30 1.318
382.40 1.309
382.50 1.299
382.60 1.29
382.70 1.281
382.80 1.272
382.90 1.262
383.00 1.253
383.10 1.244
383.20 1.235
383.30 1.218
383.40 1.199
383.50 1.18
383.60 1.184
383.70 1.204
383.80 1.223
383.90 1.239
384.00 1.254
384.10 1.269
384.20 1.282
384.30 1.293
384.40 1.303
384.50 1.312
384.60 1.319
384.70 1.325
384.80 1.33
384.90 1.334
385.00 1.337
385.10 1.34
385.20 1.342
385.30 1.344
385.40 1.346
385.50 1.347
385.60 1.348
385.70 1.348
385.80 1.349
385.90 1.349
386.00 1.348
386.10 1.347
386.20 1.347
386.30 1.345
386.40 1.344
386.50 1.342
386.60 1.34
386.70 1.338
386.80 1.335
386.90 1.332
387.00 1.328
387.10 1.324
387.20 1.32
387.30 1.315
387.40 1.31
387.50 1.303
387.60 1.296
387.70 1.288
387.80 1.279
387.90 1.268
388.00 1.255
388.10 1.239
388.20 1.22
388.30 1.199
388.40 1.173
388.50 1.144
388.60 1.114
388.70 1.079
388.80 1.045
388.90 1.014
389.00 1.043
389.10 1.075
389.20 1.111
389.30 1.142
389.40 1.171
389.50 1.198
389.60 1.219
389.70 1.239
389.80 1.255
389.90 1.268
390.00 1.28
390.10 1.29
390.20 1.299
390.30 1.306
390.40 1.313
390.50 1.319
390.60 1.324
390.70 1.33
390.80 1.334
390.90 1.338
391.00 1.342
391.10 1.345
391.20 1.348
391.30 1.351
391.40 1.354
391.50 1.356
391.60 1.358
391.70 1.36
391.80 1.362
391.90 1.363
392.00 1.364
392.10 1.365
392.20 1.366
392.30 1.366
392.40 1.367
392.50 1.367
392.60 1.367
392.70 1.366
392.80 1.366
392.90 1.365
393.00 1.364
393.10 1.363
393.20 1.362
393.30 1.36
393.40 1.358
393.50 1.356
393.60 1.354
393.70 1.352
393.80 1.349
393.90 1.346
394.00 1.342
394.10 1.339
394.20 1.335
394.30 1.331
394.40 1.326
394.50 1.321
394.60 1.316
394.70 1.31
394.80 1.304
394.90 1.298
395.00 1.291
395.10 1.283
395.20 1.275
395.30 1.266
395.40 1.257
395.50 1.247
395.60 1.236
395.70 1.224
395.80 1.211
395.90 1.196
396.00 1.18
396.10 1.162
396.20 1.139
396.30 1.112
396.40 1.081
396.50 1.04
396.60 0.9935
396.70 0.9413
396.80 0.8821
396.90 0.82
397.00 0.7552
397.10 0.8141
397.20 0.8733
397.30 0.9328
397.40 0.9856
397.50 1.033
397.60 1.075
397.70 1.106
397.80 1.133
397.90 1.156
398.00 1.174
398.10 1.191
398.20 1.206
398.30 1.218
398.40 1.23
398.50 1.241
398.60 1.251
398.70 1.26
398.80 1.269
398.90 1.277
399.00 1.284
399.10 1.291
399.20 1.298
399.30 1.304
399.40 1.31
399.50 1.315
399.60 1.32
399.70 1.325
399.80 1.33
399.90 1.334
400.00 1.338
400.10 1.341
400.20 1.345
400.30 1.348
400.40 1.351
400.50 1.354
400.60 1.357
400.70 1.359
400.80 1.361
400.90 1.363
401.00 1.365
401.10 1.367
401.20 1.369
401.30 1.371
401.40 1.372
401.50 1.373
401.60 1.374
401.70 1.376
401.80 1.377
401.90 1.377
402.00 1.378
402.10 1.379
402.20 1.38
402.30 1.38
402.40 1.38
402.50 1.381
402.60 1.381
402.70 1.381
402.80 1.381
402.90 1.381
403.00 1.381
403.10 1.381
403.20 1.381
403.30 1.38
403.40 1.38
403.50 1.38
403.60 1.379
403.70 1.378
403.80 1.378
403.90 1.377
404.00 1.376
404.10 1.375
404.20 1.374
404.30 1.373
404.40 1.372
404.50 1.37
404.60 1.369
404.70 1.367
404.80 1.366
404.90 1.364
405.00 1.362
405.10 1.36
405.20 1.358
405.30 1.356
405.40 1.354
405.50 1.352
405.60 1.349
405.70 1.347
405.80 1.344
405.90 1.341
406.00 1.338
406.10 1.334
406.20 1.331
406.30 1.327
406.40 1.324
406.50 1.32
406.60 1.315
406.70 1.311
406.80 1.306
406.90 1.301
407.00 1.296
407.10 1.291
407.20 1.285
407.30 1.279
407.40 1.272
407.50 1.265
407.60 1.258
407.70 1.25
407.80 1.242
407.90 1.233
408.00 1.224
408.10 1.215
408.20 1.204
408.30 1.193
408.40 1.181
408.50 1.169
408.60 1.155
408.70 1.141
408.80 1.126
408.90 1.109
409.00 1.092
409.10 1.072
409.20 1.05
409.30 1.026
409.40 0.9971
409.50 0.9633
409.60 0.9249
409.70 0.8725
409.80 0.8118
409.90 0.7428
410.00 0.6656
410.10 0.6031
410.20 0.555
410.30 0.6316
410.40 0.7071
410.50 0.7815
410.60 0.8445
410.70 0.8992
410.80 0.9454
410.90 0.9794
411.00 1.009
411.10 1.036
411.20 1.057
411.30 1.077
411.40 1.095
411.50 1.111
411.60 1.126
411.70 1.141
411.80 1.154
411.90 1.166
412.00 1.177
412.10 1.188
412.20 1.198
412.30 1.207
412.40 1.216
412.50 1.224
412.60 1.231
412.70 1.238
412.80 1.245
412.90 1.252
413.00 1.257
413.10 1.263
413.20 1.268
413.30 1.273
413.40 1.278
413.50 1.282
413.60 1.286
413.70 1.29
413.80 1.294
413.90 1.297
414.00 1.301
414.10 1.304
414.20 1.306
414.30 1.309
414.40 1.312
414.50 1.314
414.60 1.316
414.70 1.319
414.80 1.321
414.90 1.323
415.00 1.324
415.10 1.326
415.20 1.328
415.30 1.329
415.40 1.331
415.50 1.332
415.60 1.333
415.70 1.334
415.80 1.336
415.90 1.337
416.00 1.338
416.10 1.339
416.20 1.339
416.30 1.34
416.40 1.341
416.50 1.342
416.60 1.342
416.70 1.343
416.80 1.343
416.90 1.344
417.00 1.344
417.10 1.345
417.20 1.345
417.30 1.346
417.40 1.346
417.50 1.346
417.60 1.346
417.70 1.347
417.80 1.347
417.90 1.347
418.00 1.347
418.10 1.347
418.20 1.347
418.30 1.347
418.40 1.348
418.50 1.348
418.60 1.348
418.70 1.347
418.80 1.347
418.90 1.347
419.00 1.347
419.10 1.347
419.20 1.347
419.30 1.347
419.40 1.347
419.50 1.347
419.60 1.346
419.70 1.346
419.80 1.346
419.90 1.346
420.00 1.345
420.10 1.345
420.20 1.345
420.30 1.345
420.40 1.344
420.50 1.344
420.60 1.344
420.70 1.343
420.80 1.343
420.90 1.343
421.00 1.342
421.10 1.342
421.20 1.342
421.30 1.341
421.40 1.341
421.50 1.34
421.60 1.34
421.70 1.339
421.80 1.339
421.90 1.338
422.00 1.338
422.10 1.337
422.20 1.337
422.30 1.336
422.40 1.336
422.50 1.335
422.60 1.335
422.70 1.334
422.80 1.334
422.90 1.333
423.00 1.333
423.10 1.332
423.20 1.331
423.30 1.331
423.40 1.33
423.50 1.329
423.60 1.329
423.70 1.328
423.80 1.327
423.90 1.327
424.00 1.326
424.10 1.325
424.20 1.325
424.30 1.324
424.40 1.323
424.50 1.322
424.60 1.321
424.70 1.321
424.80 1.32
424.90 1.319
425.00 1.318
425.10 1.317
425.20 1.316
425.30 1.315
425.40 1.315
425.50 1.314
425.60 1.313
425.70 1.312
425.80 1.311
425.90 1.31
426.00 1.309
426.10 1.307
426.20 1.306
426.30 1.305
426.40 1.304
426.50 1.303
426.60 1.301
426.70 1.3
426.80 1.299
426.90 1.297
427.00 1.296
427.10 1.295
427.20 1.293
427.30 1.292
427.40 1.29
427.50 1.289
427.60 1.287
427.70 1.285
427.80 1.284
427.90 1.282
428.00 1.28
428.10 1.278
428.20 1.276
428.30 1.274
428.40 1.272
428.50 1.27
428.60 1.267
428.70 1.265
428.80 1.263
428.90 1.26
429.00 1.258
429.10 1.255
429.20 1.252
429.30 1.249
429.40 1.246
429.50 1.243
429.60 1.24
429.70 1.237
429.80 1.233
429.90 1.23
430.00 1.226
430.10 1.222
430.20 1.218
430.30 1.214
430.40 1.209
430.50 1.204
430.60 1.2
430.70 1.194
430.80 1.189
430.90 1.183
431.00 1.178
431.10 1.171
431.20 1.165
431.30 1.158
431.40 1.151
431.50 1.143
431.60 1.135
431.70 1.127
431.80 1.118
431.90 1.108
432.00 1.098
432.10 1.087
432.20 1.075
432.30 1.063
432.40 1.049
432.50 1.034
432.60 1.018
432.70 1
432.80 0.9803
432.90 0.9592
433.00 0.9369
433.10 0.9124
433.20 0.886
433.30 0.8579
433.40 0.8228
433.50 0.7817
433.60 0.7347
433.70 0.6698
433.80 0.6021
433.90 0.5316
434.00 0.4682
434.10 0.47
434.20 0.5368
434.30 0.6073
434.40 0.6744
434.50 0.7379
434.60 0.7836
434.70 0.8235
434.80 0.8575
434.90 0.8848
435.00 0.9103
435.10 0.934
435.20 0.9554
435.30 0.9756
435.40 0.9946
435.50 1.011
435.60 1.027
435.70 1.041
435.80 1.053
435.90 1.065
436.00 1.076
436.10 1.086
436.20 1.095
436.30 1.104
436.40 1.112
436.50 1.119
436.60 1.126
436.70 1.133
436.80 1.139
436.90 1.145
437.00 1.15
437.10 1.156
437.20 1.161
437.30 1.165
437.40 1.169
437.50 1.174
437.60 1.177
437.70 1.181
437.80 1.185
437.90 1.188
438.00 1.191
438.10 1.194
438.20 1.197
438.30 1.199
438.40 1.202
438.50 1.204
438.60 1.206
438.70 1.208
438.80 1.21
438.90 1.212
439.00 1.214
439.10 1.216
439.20 1.217
439.30 1.219
439.40 1.22
439.50 1.222
439.60 1.223
439.70 1.224
439.80 1.225
439.90 1.226
440.00 1.227
440.10 1.228
440.20 1.229
440.30 1.23
440.40 1.23
440.50 1.231
440.60 1.232
440.70 1.232
440.80 1.233
440.90 1.234
441.00 1.234
441.10 1.235
441.20 1.235
441.30 1.235
441.40 1.236
441.50 1.236
441.60 1.236
441.70 1.237
441.80 1.237
441.90 1.237
442.00 1.237
442.10 1.237
442.20 1.238
442.30 1.238
442.40 1.238
442.50 1.238
442.60 1.238
442.70 1.238
442.80 1.238
442.90 1.238
443.00 1.238
443.10 1.238
443.20 1.238
443.30 1.238
443.40 1.238
443.50 1.238
443.60 1.237
443.70 1.237
443.80 1.237
443.90 1.237
444.00 1.237
444.10 1.237
444.20 1.237
444.30 1.236
444.40 1.236
444.50 1.236
444.60 1.236
444.70 1.236
444.80 1.235
444.90 1.235
445.00 1.235
445.10 1.235
445.20 1.235
445.30 1.234
445.40 1.234
445.50 1.234
445.60 1.234
445.70 1.233
445.80 1.233
445.90 1.233
446.00 1.232
446.10 1.232
446.20 1.232
446.30 1.232
446.40 1.231
446.50 1.231
446.60 1.231
446.70 1.23
446.80 1.23
446.90 1.23
447.00 1.229
447.10 1.229
447.20 1.229
447.30 1.228
447.40 1.228
447.50 1.228
447.60 1.227
447.70 1.227
447.80 1.227
447.90 1.226
448.00 1.226
448.10 1.225
448.20 1.225
448.30 1.225
448.40 1.224
448.50 1.224
448.60 1.224
448.70 1.223
448.80 1.223
448.90 1.223
449.00 1.222
449.10 1.222
449.20 1.221
449.30 1.221
449.40 1.221
449.50 1.22
449.60 1.22
449.70 1.219
449.80 1.219
449.90 1.219
450.00 1.218
450.10 1.218
450.20 1.217
450.30 1.217
450.40 1.217
450.50 1.216
450.60 1.216
450.70 1.215
450.80 1.215
450.90 1.215
451.00 1.214
451.10 1.214
451.20 1.213
451.30 1.213
451.40 1.212
451.50 1.212
451.60 1.212
451.70 1.211
451.80 1.211
451.90 1.21
452.00 1.21
452.10 1.21
452.20 1.209
452.30 1.209
452.40 1.208
452.50 1.208
452.60 1.207
452.70 1.207
452.80 1.206
452.90 1.206
453.00 1.206
453.10 1.205
453.20 1.205
453.30 1.204
453.40 1.204
453.50 1.203
453.60 1.203
