# Version 2.1 - nm, norm@500 to 1, cut digits, bergeron_8000_70.dat_8000
# Wavelength(nm)  Flambda(ergs/cm^s/s/nm)
300.00 1.292
300.10 1.292
300.20 1.292
300.30 1.292
300.40 1.292
300.50 1.292
300.60 1.292
300.70 1.292
300.80 1.292
300.90 1.292
301.00 1.292
301.10 1.292
301.20 1.291
301.30 1.291
301.40 1.291
301.50 1.291
301.60 1.291
301.70 1.291
301.80 1.291
301.90 1.291
302.00 1.291
302.10 1.291
302.20 1.291
302.30 1.291
302.40 1.291
302.50 1.291
302.60 1.291
302.70 1.291
302.80 1.29
302.90 1.29
303.00 1.29
303.10 1.29
303.20 1.29
303.30 1.29
303.40 1.29
303.50 1.29
303.60 1.29
303.70 1.29
303.80 1.29
303.90 1.29
304.00 1.29
304.10 1.289
304.20 1.289
304.30 1.289
304.40 1.289
304.50 1.289
304.60 1.289
304.70 1.289
304.80 1.289
304.90 1.289
305.00 1.289
305.10 1.289
305.20 1.289
305.30 1.289
305.40 1.288
305.50 1.288
305.60 1.288
305.70 1.288
305.80 1.288
305.90 1.288
306.00 1.288
306.10 1.288
306.20 1.288
306.30 1.288
306.40 1.288
306.50 1.288
306.60 1.287
306.70 1.287
306.80 1.287
306.90 1.287
307.00 1.287
307.10 1.287
307.20 1.287
307.30 1.287
307.40 1.287
307.50 1.287
307.60 1.287
307.70 1.286
307.80 1.286
307.90 1.286
308.00 1.286
308.10 1.286
308.20 1.286
308.30 1.286
308.40 1.286
308.50 1.286
308.60 1.286
308.70 1.285
308.80 1.285
308.90 1.285
309.00 1.285
309.10 1.285
309.20 1.285
309.30 1.285
309.40 1.285
309.50 1.285
309.60 1.285
309.70 1.284
309.80 1.284
309.90 1.284
310.00 1.284
310.10 1.284
310.20 1.284
310.30 1.284
310.40 1.284
310.50 1.284
310.60 1.284
310.70 1.283
310.80 1.283
310.90 1.283
311.00 1.283
311.10 1.283
311.20 1.283
311.30 1.283
311.40 1.283
311.50 1.283
311.60 1.282
311.70 1.282
311.80 1.282
311.90 1.282
312.00 1.282
312.10 1.282
312.20 1.282
312.30 1.282
312.40 1.282
312.50 1.281
312.60 1.281
312.70 1.281
312.80 1.281
312.90 1.281
313.00 1.281
313.10 1.281
313.20 1.281
313.30 1.281
313.40 1.28
313.50 1.28
313.60 1.28
313.70 1.28
313.80 1.28
313.90 1.28
314.00 1.28
314.10 1.28
314.20 1.279
314.30 1.279
314.40 1.279
314.50 1.279
314.60 1.279
314.70 1.279
314.80 1.279
314.90 1.279
315.00 1.278
315.10 1.278
315.20 1.278
315.30 1.278
315.40 1.278
315.50 1.278
315.60 1.278
315.70 1.278
315.80 1.277
315.90 1.277
316.00 1.277
316.10 1.277
316.20 1.277
316.30 1.277
316.40 1.277
316.50 1.276
316.60 1.276
316.70 1.276
316.80 1.276
316.90 1.276
317.00 1.276
317.10 1.276
317.20 1.276
317.30 1.275
317.40 1.275
317.50 1.275
317.60 1.275
317.70 1.275
317.80 1.275
317.90 1.275
318.00 1.274
318.10 1.274
318.20 1.274
318.30 1.274
318.40 1.274
318.50 1.274
318.60 1.274
318.70 1.273
318.80 1.273
318.90 1.273
319.00 1.273
319.10 1.273
319.20 1.273
319.30 1.273
319.40 1.272
319.50 1.272
319.60 1.272
319.70 1.272
319.80 1.272
319.90 1.272
320.00 1.272
320.10 1.271
320.20 1.271
320.30 1.271
320.40 1.271
320.50 1.271
320.60 1.271
320.70 1.271
320.80 1.27
320.90 1.27
321.00 1.27
321.10 1.27
321.20 1.27
321.30 1.27
321.40 1.269
321.50 1.269
321.60 1.269
321.70 1.269
321.80 1.269
321.90 1.269
322.00 1.269
322.10 1.268
322.20 1.268
322.30 1.268
322.40 1.268
322.50 1.268
322.60 1.268
322.70 1.267
322.80 1.267
322.90 1.267
323.00 1.267
323.10 1.267
323.20 1.267
323.30 1.267
323.40 1.266
323.50 1.266
323.60 1.266
323.70 1.266
323.80 1.266
323.90 1.266
324.00 1.265
324.10 1.265
324.20 1.265
324.30 1.265
324.40 1.265
324.50 1.265
324.60 1.264
324.70 1.264
324.80 1.264
324.90 1.264
325.00 1.264
325.10 1.264
325.20 1.264
325.30 1.263
325.40 1.263
325.50 1.263
325.60 1.263
325.70 1.263
325.80 1.263
325.90 1.262
326.00 1.262
326.10 1.262
326.20 1.262
326.30 1.262
326.40 1.261
326.50 1.261
326.60 1.261
326.70 1.261
326.80 1.261
326.90 1.261
327.00 1.26
327.10 1.26
327.20 1.26
327.30 1.26
327.40 1.26
327.50 1.26
327.60 1.259
327.70 1.259
327.80 1.259
327.90 1.259
328.00 1.259
328.10 1.259
328.20 1.258
328.30 1.258
328.40 1.258
328.50 1.258
328.60 1.258
328.70 1.257
328.80 1.257
328.90 1.257
329.00 1.257
329.10 1.257
329.20 1.257
329.30 1.256
329.40 1.256
329.50 1.256
329.60 1.256
329.70 1.256
329.80 1.255
329.90 1.255
330.00 1.255
330.10 1.255
330.20 1.255
330.30 1.255
330.40 1.254
330.50 1.254
330.60 1.254
330.70 1.254
330.80 1.254
330.90 1.253
331.00 1.253
331.10 1.253
331.20 1.253
331.30 1.253
331.40 1.253
331.50 1.252
331.60 1.252
331.70 1.252
331.80 1.252
331.90 1.252
332.00 1.251
332.10 1.251
332.20 1.251
332.30 1.251
332.40 1.251
332.50 1.25
332.60 1.25
332.70 1.25
332.80 1.25
332.90 1.25
333.00 1.249
333.10 1.249
333.20 1.249
333.30 1.249
333.40 1.249
333.50 1.249
333.60 1.248
333.70 1.248
333.80 1.248
333.90 1.248
334.00 1.248
334.10 1.247
334.20 1.247
334.30 1.247
334.40 1.247
334.50 1.247
334.60 1.246
334.70 1.246
334.80 1.246
334.90 1.246
335.00 1.246
335.10 1.245
335.20 1.245
335.30 1.245
335.40 1.245
335.50 1.245
335.60 1.244
335.70 1.244
335.80 1.244
335.90 1.244
336.00 1.244
336.10 1.243
336.20 1.243
336.30 1.243
336.40 1.243
336.50 1.243
336.60 1.242
336.70 1.242
336.80 1.242
336.90 1.242
337.00 1.242
337.10 1.241
337.20 1.241
337.30 1.241
337.40 1.241
337.50 1.241
337.60 1.24
337.70 1.24
337.80 1.24
337.90 1.24
338.00 1.24
338.10 1.239
338.20 1.239
338.30 1.239
338.40 1.239
338.50 1.239
338.60 1.238
338.70 1.238
338.80 1.238
338.90 1.238
339.00 1.238
339.10 1.237
339.20 1.237
339.30 1.237
339.40 1.237
339.50 1.237
339.60 1.236
339.70 1.236
339.80 1.236
339.90 1.236
340.00 1.235
340.10 1.235
340.20 1.235
340.30 1.235
340.40 1.235
340.50 1.234
340.60 1.234
340.70 1.234
340.80 1.234
340.90 1.234
341.00 1.233
341.10 1.233
341.20 1.233
341.30 1.233
341.40 1.232
341.50 1.232
341.60 1.232
341.70 1.232
341.80 1.232
341.90 1.231
342.00 1.231
342.10 1.231
342.20 1.231
342.30 1.23
342.40 1.23
342.50 1.23
342.60 1.23
342.70 1.23
342.80 1.229
342.90 1.229
343.00 1.229
343.10 1.229
343.20 1.229
343.30 1.228
343.40 1.228
343.50 1.228
343.60 1.228
343.70 1.227
343.80 1.227
343.90 1.227
344.00 1.227
344.10 1.227
344.20 1.226
344.30 1.226
344.40 1.226
344.50 1.226
344.60 1.225
344.70 1.225
344.80 1.225
344.90 1.225
345.00 1.225
345.10 1.224
345.20 1.224
345.30 1.224
345.40 1.224
345.50 1.223
345.60 1.223
345.70 1.223
345.80 1.223
345.90 1.223
346.00 1.222
346.10 1.222
346.20 1.222
346.30 1.222
346.40 1.221
346.50 1.221
346.60 1.221
346.70 1.221
346.80 1.22
346.90 1.22
347.00 1.22
347.10 1.22
347.20 1.22
347.30 1.219
347.40 1.219
347.50 1.219
347.60 1.219
347.70 1.218
347.80 1.218
347.90 1.218
348.00 1.218
348.10 1.217
348.20 1.217
348.30 1.217
348.40 1.217
348.50 1.217
348.60 1.216
348.70 1.216
348.80 1.216
348.90 1.216
349.00 1.215
349.10 1.215
349.20 1.215
349.30 1.215
349.40 1.214
349.50 1.214
349.60 1.214
349.70 1.214
349.80 1.214
349.90 1.213
350.00 1.213
350.10 1.213
350.20 1.213
350.30 1.212
350.40 1.212
350.50 1.212
350.60 1.212
350.70 1.211
350.80 1.211
350.90 1.211
351.00 1.211
351.10 1.21
351.20 1.21
351.30 1.21
351.40 1.21
351.50 1.21
351.60 1.209
351.70 1.209
351.80 1.209
351.90 1.209
352.00 1.208
352.10 1.208
352.20 1.208
352.30 1.208
352.40 1.207
352.50 1.207
352.60 1.207
352.70 1.207
352.80 1.206
352.90 1.206
353.00 1.206
353.10 1.206
353.20 1.205
353.30 1.205
353.40 1.205
353.50 1.205
353.60 1.205
353.70 1.204
353.80 1.204
353.90 1.204
354.00 1.204
354.10 1.203
354.20 1.203
354.30 1.203
354.40 1.203
354.50 1.202
354.60 1.202
354.70 1.202
354.80 1.202
354.90 1.201
355.00 1.201
355.10 1.201
355.20 1.201
355.30 1.2
355.40 1.2
355.50 1.2
355.60 1.2
355.70 1.199
355.80 1.199
355.90 1.199
356.00 1.199
356.10 1.198
356.20 1.198
356.30 1.198
356.40 1.198
356.50 1.197
356.60 1.197
356.70 1.197
356.80 1.197
356.90 1.196
357.00 1.196
357.10 1.196
357.20 1.196
357.30 1.195
357.40 1.195
357.50 1.195
357.60 1.195
357.70 1.194
357.80 1.194
357.90 1.194
358.00 1.194
358.10 1.193
358.20 1.193
358.30 1.193
358.40 1.193
358.50 1.192
358.60 1.192
358.70 1.192
358.80 1.192
358.90 1.191
359.00 1.191
359.10 1.191
359.20 1.191
359.30 1.19
359.40 1.19
359.50 1.19
359.60 1.19
359.70 1.189
359.80 1.189
359.90 1.189
360.00 1.189
360.10 1.188
360.20 1.188
360.30 1.188
360.40 1.188
360.50 1.187
360.60 1.187
360.70 1.187
360.80 1.187
360.90 1.186
361.00 1.186
361.10 1.186
361.20 1.186
361.30 1.185
361.40 1.185
361.50 1.185
361.60 1.185
361.70 1.184
361.80 1.184
361.90 1.184
362.00 1.183
362.10 1.183
362.20 1.183
362.30 1.183
362.40 1.182
362.50 1.182
362.60 1.182
362.70 1.182
362.80 1.181
362.90 1.181
363.00 1.181
363.10 1.181
363.20 1.18
363.30 1.18
363.40 1.18
363.50 1.18
363.60 1.179
363.70 1.179
363.80 1.179
363.90 1.178
364.00 1.178
364.10 1.178
364.20 1.178
364.30 1.177
364.40 1.177
364.50 1.177
364.60 1.177
364.70 1.176
364.80 1.176
364.90 1.176
365.00 1.176
365.10 1.175
365.20 1.175
365.30 1.175
365.40 1.175
365.50 1.175
365.60 1.174
365.70 1.174
365.80 1.174
365.90 1.174
366.00 1.173
366.10 1.173
366.20 1.173
366.30 1.173
366.40 1.173
366.50 1.172
366.60 1.172
366.70 1.172
366.80 1.172
366.90 1.172
367.00 1.171
367.10 1.171
367.20 1.171
367.30 1.171
367.40 1.171
367.50 1.17
367.60 1.17
367.70 1.17
367.80 1.17
367.90 1.17
368.00 1.169
368.10 1.17
368.20 1.17
368.30 1.171
368.40 1.171
368.50 1.172
368.60 1.172
368.70 1.173
368.80 1.173
368.90 1.174
369.00 1.174
369.10 1.175
369.20 1.175
369.30 1.176
369.40 1.176
369.50 1.176
369.60 1.177
369.70 1.177
369.80 1.178
369.90 1.178
370.00 1.179
370.10 1.18
370.20 1.182
370.30 1.183
370.40 1.184
370.50 1.186
370.60 1.187
370.70 1.189
370.80 1.19
370.90 1.192
371.00 1.193
371.10 1.194
371.20 1.196
371.30 1.197
371.40 1.199
371.50 1.2
371.60 1.201
371.70 1.203
371.80 1.204
371.90 1.206
372.00 1.207
372.10 1.209
372.20 1.211
372.30 1.213
372.40 1.215
372.50 1.217
372.60 1.219
372.70 1.221
372.80 1.223
372.90 1.225
373.00 1.227
373.10 1.228
373.20 1.23
373.30 1.232
373.40 1.234
373.50 1.236
373.60 1.238
373.70 1.24
373.80 1.242
373.90 1.244
374.00 1.246
374.10 1.248
374.20 1.249
374.30 1.251
374.40 1.253
374.50 1.255
374.60 1.256
374.70 1.258
374.80 1.26
374.90 1.262
375.00 1.263
375.10 1.265
375.20 1.267
375.30 1.269
375.40 1.27
375.50 1.272
375.60 1.274
375.70 1.276
375.80 1.277
375.90 1.279
376.00 1.281
376.10 1.282
376.20 1.283
376.30 1.284
376.40 1.285
376.50 1.285
376.60 1.286
376.70 1.287
376.80 1.288
376.90 1.289
377.00 1.29
377.10 1.289
377.20 1.288
377.30 1.287
377.40 1.287
377.50 1.286
377.60 1.285
377.70 1.284
377.80 1.283
377.90 1.282
378.00 1.281
378.10 1.273
378.20 1.265
378.30 1.257
378.40 1.249
378.50 1.241
378.60 1.234
378.70 1.226
378.80 1.218
378.90 1.21
379.00 1.202
379.10 1.185
379.20 1.167
379.30 1.15
379.40 1.133
379.50 1.116
379.60 1.099
379.70 1.082
379.80 1.065
379.90 1.048
380.00 1.031
380.10 1.053
380.20 1.075
380.30 1.097
380.40 1.119
380.50 1.141
380.60 1.163
380.70 1.185
380.80 1.207
380.90 1.229
381.00 1.251
381.10 1.255
381.20 1.259
381.30 1.263
381.40 1.267
381.50 1.271
381.60 1.271
381.70 1.271
381.80 1.269
381.90 1.266
382.00 1.261
382.10 1.256
382.20 1.248
382.30 1.224
382.40 1.2
382.50 1.176
382.60 1.152
382.70 1.128
382.80 1.104
382.90 1.081
383.00 1.057
383.10 1.033
383.20 1.009
383.30 0.9458
383.40 0.8536
383.50 0.7182
383.60 0.7514
383.70 0.8773
383.80 0.9622
383.90 1.022
384.00 1.067
384.10 1.104
384.20 1.135
384.30 1.162
384.40 1.186
384.50 1.207
384.60 1.224
384.70 1.238
384.80 1.251
384.90 1.261
385.00 1.27
385.10 1.278
385.20 1.284
385.30 1.29
385.40 1.294
385.50 1.298
385.60 1.301
385.70 1.303
385.80 1.305
385.90 1.307
386.00 1.307
386.10 1.308
386.20 1.307
386.30 1.307
386.40 1.305
386.50 1.304
386.60 1.301
386.70 1.298
386.80 1.295
386.90 1.291
387.00 1.286
387.10 1.28
387.20 1.274
387.30 1.266
387.40 1.257
387.50 1.247
387.60 1.234
387.70 1.221
387.80 1.204
387.90 1.184
388.00 1.161
388.10 1.133
388.20 1.1
388.30 1.063
388.40 1.016
388.50 0.9603
388.60 0.8969
388.70 0.7975
388.80 0.6703
388.90 0.5154
389.00 0.6616
389.10 0.7861
389.20 0.8891
389.30 0.954
389.40 1.01
389.50 1.058
389.60 1.096
389.70 1.129
389.80 1.158
389.90 1.181
390.00 1.202
390.10 1.219
390.20 1.234
390.30 1.246
390.40 1.258
390.50 1.267
390.60 1.275
390.70 1.283
390.80 1.289
390.90 1.295
391.00 1.301
391.10 1.305
391.20 1.31
391.30 1.314
391.40 1.317
391.50 1.32
391.60 1.323
391.70 1.325
391.80 1.327
391.90 1.329
392.00 1.331
392.10 1.332
392.20 1.333
392.30 1.334
392.40 1.335
392.50 1.335
392.60 1.336
392.70 1.336
392.80 1.336
392.90 1.336
393.00 1.335
393.10 1.335
393.20 1.334
393.30 1.333
393.40 1.332
393.50 1.331
393.60 1.329
393.70 1.328
393.80 1.326
393.90 1.323
394.00 1.321
394.10 1.318
394.20 1.315
394.30 1.312
394.40 1.308
394.50 1.304
394.60 1.3
394.70 1.294
394.80 1.289
394.90 1.283
395.00 1.276
395.10 1.269
395.20 1.261
395.30 1.252
395.40 1.242
395.50 1.231
395.60 1.218
395.70 1.204
395.80 1.188
395.90 1.169
396.00 1.147
396.10 1.123
396.20 1.091
396.30 1.055
396.40 1.014
396.50 0.9603
396.60 0.8969
396.70 0.8242
396.80 0.7146
396.90 0.5776
397.00 0.4134
397.10 0.5644
397.20 0.6972
397.30 0.8117
397.40 0.8866
397.50 0.9515
397.60 1.006
397.70 1.048
397.80 1.085
397.90 1.116
398.00 1.141
398.10 1.163
398.20 1.182
398.30 1.197
398.40 1.211
398.50 1.224
398.60 1.235
398.70 1.245
398.80 1.253
398.90 1.261
399.00 1.268
399.10 1.275
399.20 1.281
399.30 1.286
399.40 1.291
399.50 1.295
399.60 1.299
399.70 1.303
399.80 1.306
399.90 1.309
400.00 1.312
400.10 1.314
400.20 1.317
400.30 1.319
400.40 1.321
400.50 1.322
400.60 1.324
400.70 1.326
400.80 1.327
400.90 1.328
401.00 1.329
401.10 1.33
401.20 1.331
401.30 1.332
401.40 1.333
401.50 1.333
401.60 1.334
401.70 1.334
401.80 1.335
401.90 1.335
402.00 1.336
402.10 1.336
402.20 1.336
402.30 1.336
402.40 1.336
402.50 1.336
402.60 1.336
402.70 1.336
402.80 1.336
402.90 1.336
403.00 1.336
403.10 1.336
403.20 1.336
403.30 1.335
403.40 1.335
403.50 1.335
403.60 1.334
403.70 1.334
403.80 1.334
403.90 1.333
404.00 1.333
404.10 1.332
404.20 1.332
404.30 1.331
404.40 1.33
404.50 1.33
404.60 1.329
404.70 1.328
404.80 1.327
404.90 1.326
405.00 1.326
405.10 1.325
405.20 1.324
405.30 1.323
405.40 1.321
405.50 1.32
405.60 1.319
405.70 1.318
405.80 1.316
405.90 1.314
406.00 1.313
406.10 1.311
406.20 1.309
406.30 1.308
406.40 1.305
406.50 1.303
406.60 1.301
406.70 1.298
406.80 1.296
406.90 1.293
407.00 1.29
407.10 1.287
407.20 1.283
407.30 1.28
407.40 1.275
407.50 1.271
407.60 1.266
407.70 1.261
407.80 1.256
407.90 1.249
408.00 1.243
408.10 1.236
408.20 1.228
408.30 1.219
408.40 1.21
408.50 1.199
408.60 1.188
408.70 1.176
408.80 1.162
408.90 1.146
409.00 1.129
409.10 1.108
409.20 1.085
409.30 1.06
409.40 1.027
409.50 0.9889
409.60 0.9453
409.70 0.8871
409.80 0.8176
409.90 0.737
410.00 0.6159
410.10 0.5033
410.20 0.399
410.30 0.5531
410.40 0.6817
410.50 0.7851
410.60 0.8563
410.70 0.9177
410.80 0.9694
410.90 1.008
411.00 1.042
411.10 1.072
411.20 1.094
411.30 1.115
411.40 1.134
411.50 1.149
411.60 1.163
411.70 1.175
411.80 1.186
411.90 1.196
412.00 1.206
412.10 1.214
412.20 1.221
412.30 1.228
412.40 1.234
412.50 1.24
412.60 1.245
412.70 1.25
412.80 1.254
412.90 1.258
413.00 1.261
413.10 1.264
413.20 1.267
413.30 1.27
413.40 1.272
413.50 1.275
413.60 1.277
413.70 1.278
413.80 1.28
413.90 1.282
414.00 1.283
414.10 1.285
414.20 1.286
414.30 1.287
414.40 1.288
414.50 1.289
414.60 1.29
414.70 1.29
414.80 1.291
414.90 1.292
415.00 1.292
415.10 1.293
415.20 1.293
415.30 1.294
415.40 1.294
415.50 1.295
415.60 1.295
415.70 1.295
415.80 1.295
415.90 1.295
416.00 1.296
416.10 1.296
416.20 1.296
416.30 1.296
416.40 1.296
416.50 1.296
416.60 1.296
416.70 1.296
416.80 1.296
416.90 1.296
417.00 1.296
417.10 1.296
417.20 1.296
417.30 1.296
417.40 1.295
417.50 1.295
417.60 1.295
417.70 1.295
417.80 1.295
417.90 1.295
418.00 1.295
418.10 1.294
418.20 1.294
418.30 1.294
418.40 1.294
418.50 1.293
418.60 1.293
418.70 1.293
418.80 1.293
418.90 1.293
419.00 1.292
419.10 1.292
419.20 1.292
419.30 1.291
419.40 1.291
419.50 1.291
419.60 1.291
419.70 1.29
419.80 1.29
419.90 1.29
420.00 1.289
420.10 1.289
420.20 1.289
420.30 1.288
420.40 1.288
420.50 1.288
420.60 1.287
420.70 1.287
420.80 1.287
420.90 1.286
421.00 1.286
421.10 1.286
421.20 1.285
421.30 1.285
421.40 1.285
421.50 1.284
421.60 1.284
421.70 1.283
421.80 1.283
421.90 1.283
422.00 1.282
422.10 1.282
422.20 1.281
422.30 1.281
422.40 1.281
422.50 1.28
422.60 1.28
422.70 1.279
422.80 1.279
422.90 1.279
423.00 1.278
423.10 1.278
423.20 1.277
423.30 1.277
423.40 1.277
423.50 1.276
423.60 1.276
423.70 1.275
423.80 1.275
423.90 1.274
424.00 1.274
424.10 1.273
424.20 1.273
424.30 1.273
424.40 1.272
424.50 1.272
424.60 1.271
424.70 1.271
424.80 1.27
424.90 1.27
425.00 1.269
425.10 1.269
425.20 1.268
425.30 1.268
425.40 1.267
425.50 1.267
425.60 1.266
425.70 1.266
425.80 1.265
425.90 1.265
426.00 1.264
426.10 1.263
426.20 1.263
426.30 1.262
426.40 1.262
426.50 1.261
426.60 1.26
426.70 1.26
426.80 1.259
426.90 1.259
427.00 1.258
427.10 1.257
427.20 1.257
427.30 1.256
427.40 1.255
427.50 1.254
427.60 1.254
427.70 1.253
427.80 1.252
427.90 1.251
428.00 1.25
428.10 1.25
428.20 1.249
428.30 1.248
428.40 1.247
428.50 1.246
428.60 1.245
428.70 1.244
428.80 1.243
428.90 1.242
429.00 1.241
429.10 1.239
429.20 1.238
429.30 1.237
429.40 1.235
429.50 1.234
429.60 1.232
429.70 1.231
429.80 1.229
429.90 1.227
430.00 1.226
430.10 1.224
430.20 1.222
430.30 1.22
430.40 1.217
430.50 1.215
430.60 1.212
430.70 1.21
430.80 1.207
430.90 1.204
431.00 1.201
431.10 1.198
431.20 1.195
431.30 1.191
431.40 1.187
431.50 1.183
431.60 1.179
431.70 1.174
431.80 1.168
431.90 1.162
432.00 1.156
432.10 1.149
432.20 1.14
432.30 1.131
432.40 1.121
432.50 1.108
432.60 1.094
432.70 1.079
432.80 1.062
432.90 1.042
433.00 1.022
433.10 0.9996
433.20 0.9744
433.30 0.9468
433.40 0.9097
433.50 0.8658
433.60 0.8151
433.70 0.7441
433.80 0.6573
433.90 0.5546
434.00 0.429
434.10 0.4322
434.20 0.5642
434.30 0.6647
434.40 0.7496
434.50 0.8189
434.60 0.8683
434.70 0.9109
434.80 0.9468
434.90 0.9734
435.00 0.9977
435.10 1.02
435.20 1.039
435.30 1.057
435.40 1.074
435.50 1.088
435.60 1.101
435.70 1.113
435.80 1.122
435.90 1.13
436.00 1.138
436.10 1.144
436.20 1.15
436.30 1.155
436.40 1.159
436.50 1.164
436.60 1.167
436.70 1.171
436.80 1.174
436.90 1.176
437.00 1.179
437.10 1.181
437.20 1.184
437.30 1.186
437.40 1.187
437.50 1.189
437.60 1.191
437.70 1.192
437.80 1.194
437.90 1.195
438.00 1.196
438.10 1.198
438.20 1.199
438.30 1.199
438.40 1.2
438.50 1.201
438.60 1.202
438.70 1.203
438.80 1.203
438.90 1.204
439.00 1.204
439.10 1.204
439.20 1.205
439.30 1.205
439.40 1.205
439.50 1.206
439.60 1.206
439.70 1.206
439.80 1.206
439.90 1.206
440.00 1.206
440.10 1.207
440.20 1.207
440.30 1.207
440.40 1.207
440.50 1.207
440.60 1.207
440.70 1.207
440.80 1.207
440.90 1.206
441.00 1.206
441.10 1.206
441.20 1.206
441.30 1.206
441.40 1.206
441.50 1.206
441.60 1.206
441.70 1.205
441.80 1.205
441.90 1.205
442.00 1.205
442.10 1.205
442.20 1.204
442.30 1.204
442.40 1.204
442.50 1.204
442.60 1.204
442.70 1.203
442.80 1.203
442.90 1.203
443.00 1.203
443.10 1.202
443.20 1.202
443.30 1.202
443.40 1.202
443.50 1.201
443.60 1.201
443.70 1.201
443.80 1.2
443.90 1.2
444.00 1.2
444.10 1.2
444.20 1.199
444.30 1.199
444.40 1.199
444.50 1.198
444.60 1.198
444.70 1.198
444.80 1.198
444.90 1.197
445.00 1.197
445.10 1.197
445.20 1.196
445.30 1.196
445.40 1.196
445.50 1.195
445.60 1.195
445.70 1.195
445.80 1.194
445.90 1.194
446.00 1.194
446.10 1.193
446.20 1.193
446.30 1.193
446.40 1.192
446.50 1.192
446.60 1.192
446.70 1.191
446.80 1.191
446.90 1.191
447.00 1.19
447.10 1.19
447.20 1.19
447.30 1.189
447.40 1.189
447.50 1.189
447.60 1.188
447.70 1.188
447.80 1.188
447.90 1.187
448.00 1.187
448.10 1.187
448.20 1.186
448.30 1.186
448.40 1.186
448.50 1.185
448.60 1.185
448.70 1.185
448.80 1.184
448.90 1.184
449.00 1.184
449.10 1.183
449.20 1.183
449.30 1.182
449.40 1.182
449.50 1.182
449.60 1.181
449.70 1.181
449.80 1.181
449.90 1.18
450.00 1.18
450.10 1.18
450.20 1.179
450.30 1.179
450.40 1.179
450.50 1.178
450.60 1.178
450.70 1.177
450.80 1.177
450.90 1.177
451.00 1.176
451.10 1.176
451.20 1.176
451.30 1.175
451.40 1.175
451.50 1.175
451.60 1.174
451.70 1.174
451.80 1.173
451.90 1.173
452.00 1.173
452.10 1.172
452.20 1.172
452.30 1.172
452.40 1.171
452.50 1.171
452.60 1.17
452.70 1.17
452.80 1.17
452.90 1.169
453.00 1.169
453.10 1.169
453.20 1.168
453.30 1.168
453.40 1.168
453.50 1.167
453.60 1.167
