# Version 2.1 - nm, norm@500 to 1, cut digits, bergeron_3750_90.dat_3750
# Wavelength(nm)  Flambda(ergs/cm^s/s/nm)
300.00 0.1858
300.10 0.1861
300.20 0.1865
300.30 0.1868
300.40 0.1872
300.50 0.1875
300.60 0.1878
300.70 0.1882
300.80 0.1885
300.90 0.1889
301.00 0.1892
301.10 0.1895
301.20 0.1899
301.30 0.1902
301.40 0.1905
301.50 0.1909
301.60 0.1912
301.70 0.1916
301.80 0.1919
301.90 0.1922
302.00 0.1926
302.10 0.1929
302.20 0.1933
302.30 0.1936
302.40 0.1939
302.50 0.1943
302.60 0.1946
302.70 0.195
302.80 0.1953
302.90 0.1957
303.00 0.196
303.10 0.1964
303.20 0.1967
303.30 0.197
303.40 0.1974
303.50 0.1977
303.60 0.1981
303.70 0.1984
303.80 0.1988
303.90 0.1991
304.00 0.1994
304.10 0.1998
304.20 0.2001
304.30 0.2005
304.40 0.2008
304.50 0.2012
304.60 0.2015
304.70 0.2019
304.80 0.2023
304.90 0.2026
305.00 0.203
305.10 0.2033
305.20 0.2036
305.30 0.204
305.40 0.2043
305.50 0.2047
305.60 0.205
305.70 0.2054
305.80 0.2057
305.90 0.2061
306.00 0.2064
306.10 0.2068
306.20 0.2071
306.30 0.2075
306.40 0.2079
306.50 0.2082
306.60 0.2086
306.70 0.2089
306.80 0.2093
306.90 0.2096
307.00 0.21
307.10 0.2103
307.20 0.2107
307.30 0.2111
307.40 0.2114
307.50 0.2118
307.60 0.2121
307.70 0.2125
307.80 0.2128
307.90 0.2132
308.00 0.2135
308.10 0.2139
308.20 0.2142
308.30 0.2146
308.40 0.215
308.50 0.2153
308.60 0.2157
308.70 0.2161
308.80 0.2164
308.90 0.2168
309.00 0.2171
309.10 0.2175
309.20 0.2179
309.30 0.2182
309.40 0.2186
309.50 0.2189
309.60 0.2193
309.70 0.2197
309.80 0.22
309.90 0.2204
310.00 0.2207
310.10 0.2211
310.20 0.2215
310.30 0.2218
310.40 0.2222
310.50 0.2226
310.60 0.2229
310.70 0.2233
310.80 0.2237
310.90 0.224
311.00 0.2244
311.10 0.2248
311.20 0.2251
311.30 0.2255
311.40 0.2259
311.50 0.2262
311.60 0.2266
311.70 0.227
311.80 0.2273
311.90 0.2277
312.00 0.228
312.10 0.2284
312.20 0.2288
312.30 0.2291
312.40 0.2295
312.50 0.2299
312.60 0.2303
312.70 0.2306
312.80 0.231
312.90 0.2314
313.00 0.2318
313.10 0.2321
313.20 0.2325
313.30 0.2329
313.40 0.2332
313.50 0.2336
313.60 0.234
313.70 0.2343
313.80 0.2347
313.90 0.2351
314.00 0.2355
314.10 0.2358
314.20 0.2362
314.30 0.2366
314.40 0.237
314.50 0.2373
314.60 0.2377
314.70 0.2381
314.80 0.2385
314.90 0.2389
315.00 0.2392
315.10 0.2396
315.20 0.24
315.30 0.2404
315.40 0.2407
315.50 0.2411
315.60 0.2415
315.70 0.2418
315.80 0.2422
315.90 0.2426
316.00 0.243
316.10 0.2433
316.20 0.2437
316.30 0.2441
316.40 0.2445
316.50 0.2449
316.60 0.2453
316.70 0.2456
316.80 0.246
316.90 0.2464
317.00 0.2468
317.10 0.2472
317.20 0.2475
317.30 0.2479
317.40 0.2483
317.50 0.2487
317.60 0.2491
317.70 0.2494
317.80 0.2498
317.90 0.2502
318.00 0.2506
318.10 0.251
318.20 0.2513
318.30 0.2517
318.40 0.2521
318.50 0.2525
318.60 0.2529
318.70 0.2533
318.80 0.2537
318.90 0.2541
319.00 0.2544
319.10 0.2548
319.20 0.2552
319.30 0.2556
319.40 0.256
319.50 0.2564
319.60 0.2567
319.70 0.2571
319.80 0.2575
319.90 0.2579
320.00 0.2583
320.10 0.2587
320.20 0.2591
320.30 0.2595
320.40 0.2598
320.50 0.2602
320.60 0.2606
320.70 0.261
320.80 0.2614
320.90 0.2618
321.00 0.2622
321.10 0.2626
321.20 0.263
321.30 0.2634
321.40 0.2637
321.50 0.2641
321.60 0.2645
321.70 0.2649
321.80 0.2653
321.90 0.2657
322.00 0.2661
322.10 0.2665
322.20 0.2669
322.30 0.2673
322.40 0.2677
322.50 0.2681
322.60 0.2685
322.70 0.2688
322.80 0.2692
322.90 0.2696
323.00 0.27
323.10 0.2704
323.20 0.2708
323.30 0.2712
323.40 0.2716
323.50 0.272
323.60 0.2724
323.70 0.2728
323.80 0.2732
323.90 0.2736
324.00 0.274
324.10 0.2744
324.20 0.2748
324.30 0.2752
324.40 0.2756
324.50 0.276
324.60 0.2764
324.70 0.2768
324.80 0.2772
324.90 0.2776
325.00 0.278
325.10 0.2784
325.20 0.2788
325.30 0.2792
325.40 0.2796
325.50 0.2799
325.60 0.2803
325.70 0.2807
325.80 0.2811
325.90 0.2815
326.00 0.2819
326.10 0.2823
326.20 0.2827
326.30 0.2831
326.40 0.2835
326.50 0.284
326.60 0.2844
326.70 0.2848
326.80 0.2852
326.90 0.2856
327.00 0.286
327.10 0.2864
327.20 0.2868
327.30 0.2872
327.40 0.2876
327.50 0.288
327.60 0.2884
327.70 0.2888
327.80 0.2892
327.90 0.2896
328.00 0.29
328.10 0.2904
328.20 0.2908
328.30 0.2912
328.40 0.2916
328.50 0.292
328.60 0.2924
328.70 0.2928
328.80 0.2932
328.90 0.2937
329.00 0.2941
329.10 0.2945
329.20 0.2949
329.30 0.2953
329.40 0.2957
329.50 0.2961
329.60 0.2965
329.70 0.2969
329.80 0.2973
329.90 0.2977
330.00 0.2981
330.10 0.2985
330.20 0.2989
330.30 0.2994
330.40 0.2998
330.50 0.3002
330.60 0.3006
330.70 0.301
330.80 0.3014
330.90 0.3018
331.00 0.3022
331.10 0.3026
331.20 0.3031
331.30 0.3035
331.40 0.3039
331.50 0.3043
331.60 0.3047
331.70 0.3051
331.80 0.3055
331.90 0.3059
332.00 0.3063
332.10 0.3067
332.20 0.3071
332.30 0.3076
332.40 0.308
332.50 0.3084
332.60 0.3088
332.70 0.3092
332.80 0.3097
332.90 0.3101
333.00 0.3105
333.10 0.3109
333.20 0.3113
333.30 0.3117
333.40 0.3121
333.50 0.3126
333.60 0.313
333.70 0.3134
333.80 0.3138
333.90 0.3142
334.00 0.3146
334.10 0.315
334.20 0.3155
334.30 0.3159
334.40 0.3163
334.50 0.3167
334.60 0.3171
334.70 0.3176
334.80 0.318
334.90 0.3184
335.00 0.3188
335.10 0.3192
335.20 0.3197
335.30 0.3201
335.40 0.3205
335.50 0.3209
335.60 0.3213
335.70 0.3217
335.80 0.3221
335.90 0.3226
336.00 0.323
336.10 0.3234
336.20 0.3238
336.30 0.3242
336.40 0.3247
336.50 0.3251
336.60 0.3255
336.70 0.3259
336.80 0.3264
336.90 0.3268
337.00 0.3272
337.10 0.3276
337.20 0.328
337.30 0.3285
337.40 0.3289
337.50 0.3293
337.60 0.3297
337.70 0.3301
337.80 0.3306
337.90 0.331
338.00 0.3314
338.10 0.3318
338.20 0.3323
338.30 0.3327
338.40 0.3331
338.50 0.3335
338.60 0.334
338.70 0.3344
338.80 0.3348
338.90 0.3352
339.00 0.3357
339.10 0.3361
339.20 0.3365
339.30 0.3369
339.40 0.3374
339.50 0.3378
339.60 0.3382
339.70 0.3386
339.80 0.339
339.90 0.3395
340.00 0.3399
340.10 0.3403
340.20 0.3408
340.30 0.3412
340.40 0.3416
340.50 0.342
340.60 0.3425
340.70 0.3429
340.80 0.3433
340.90 0.3438
341.00 0.3442
341.10 0.3446
341.20 0.345
341.30 0.3455
341.40 0.3459
341.50 0.3463
341.60 0.3467
341.70 0.3472
341.80 0.3476
341.90 0.348
342.00 0.3484
342.10 0.3489
342.20 0.3493
342.30 0.3497
342.40 0.3502
342.50 0.3506
342.60 0.351
342.70 0.3515
342.80 0.3519
342.90 0.3523
343.00 0.3528
343.10 0.3532
343.20 0.3536
343.30 0.3541
343.40 0.3545
343.50 0.3549
343.60 0.3554
343.70 0.3558
343.80 0.3562
343.90 0.3566
344.00 0.3571
344.10 0.3575
344.20 0.3579
344.30 0.3584
344.40 0.3588
344.50 0.3592
344.60 0.3597
344.70 0.3601
344.80 0.3606
344.90 0.361
345.00 0.3614
345.10 0.3619
345.20 0.3623
345.30 0.3627
345.40 0.3632
345.50 0.3636
345.60 0.364
345.70 0.3644
345.80 0.3649
345.90 0.3653
346.00 0.3657
346.10 0.3662
346.20 0.3666
346.30 0.3671
346.40 0.3675
346.50 0.3679
346.60 0.3684
346.70 0.3688
346.80 0.3692
346.90 0.3697
347.00 0.3701
347.10 0.3706
347.20 0.371
347.30 0.3714
347.40 0.3719
347.50 0.3723
347.60 0.3727
347.70 0.3732
347.80 0.3736
347.90 0.374
348.00 0.3745
348.10 0.3749
348.20 0.3753
348.30 0.3758
348.40 0.3762
348.50 0.3767
348.60 0.3771
348.70 0.3775
348.80 0.378
348.90 0.3784
349.00 0.3789
349.10 0.3793
349.20 0.3797
349.30 0.3802
349.40 0.3806
349.50 0.3811
349.60 0.3815
349.70 0.3819
349.80 0.3824
349.90 0.3828
350.00 0.3832
350.10 0.3837
350.20 0.3841
350.30 0.3846
350.40 0.385
350.50 0.3854
350.60 0.3859
350.70 0.3863
350.80 0.3868
350.90 0.3872
351.00 0.3877
351.10 0.3881
351.20 0.3885
351.30 0.389
351.40 0.3894
351.50 0.3899
351.60 0.3903
351.70 0.3907
351.80 0.3912
351.90 0.3916
352.00 0.392
352.10 0.3925
352.20 0.3929
352.30 0.3934
352.40 0.3938
352.50 0.3943
352.60 0.3947
352.70 0.3952
352.80 0.3956
352.90 0.3961
353.00 0.3965
353.10 0.397
353.20 0.3974
353.30 0.3978
353.40 0.3983
353.50 0.3987
353.60 0.3992
353.70 0.3996
353.80 0.4
353.90 0.4005
354.00 0.4009
354.10 0.4014
354.20 0.4018
354.30 0.4023
354.40 0.4027
354.50 0.4032
354.60 0.4036
354.70 0.4041
354.80 0.4045
354.90 0.405
355.00 0.4054
355.10 0.4058
355.20 0.4063
355.30 0.4067
355.40 0.4072
355.50 0.4076
355.60 0.4081
355.70 0.4085
355.80 0.4089
355.90 0.4094
356.00 0.4098
356.10 0.4103
356.20 0.4107
356.30 0.4112
356.40 0.4116
356.50 0.4121
356.60 0.4125
356.70 0.413
356.80 0.4134
356.90 0.4139
357.00 0.4143
357.10 0.4148
357.20 0.4152
357.30 0.4157
357.40 0.4161
357.50 0.4166
357.60 0.417
357.70 0.4174
357.80 0.4179
357.90 0.4183
358.00 0.4188
358.10 0.4192
358.20 0.4197
358.30 0.4201
358.40 0.4206
358.50 0.421
358.60 0.4215
358.70 0.4219
358.80 0.4224
358.90 0.4228
359.00 0.4233
359.10 0.4237
359.20 0.4242
359.30 0.4246
359.40 0.4251
359.50 0.4255
359.60 0.426
359.70 0.4264
359.80 0.4269
359.90 0.4273
360.00 0.4277
360.10 0.4282
360.20 0.4287
360.30 0.4291
360.40 0.4296
360.50 0.43
360.60 0.4305
360.70 0.4309
360.80 0.4314
360.90 0.4318
361.00 0.4323
361.10 0.4327
361.20 0.4332
361.30 0.4336
361.40 0.4341
361.50 0.4345
361.60 0.435
361.70 0.4354
361.80 0.4359
361.90 0.4363
362.00 0.4368
362.10 0.4372
362.20 0.4377
362.30 0.4381
362.40 0.4386
362.50 0.439
362.60 0.4395
362.70 0.4399
362.80 0.4404
362.90 0.4408
363.00 0.4413
363.10 0.4417
363.20 0.4422
363.30 0.4426
363.40 0.4431
363.50 0.4436
363.60 0.444
363.70 0.4445
363.80 0.4449
363.90 0.4454
364.00 0.4458
364.10 0.4463
364.20 0.4467
364.30 0.4472
364.40 0.4476
364.50 0.4481
364.60 0.4485
364.70 0.449
364.80 0.4494
364.90 0.4499
365.00 0.4504
365.10 0.4508
365.20 0.4513
365.30 0.4517
365.40 0.4522
365.50 0.4526
365.60 0.4531
365.70 0.4535
365.80 0.454
365.90 0.4544
366.00 0.4549
366.10 0.4553
366.20 0.4558
366.30 0.4563
366.40 0.4567
366.50 0.4572
366.60 0.4576
366.70 0.4581
366.80 0.4585
366.90 0.459
367.00 0.4595
367.10 0.4599
367.20 0.4604
367.30 0.4608
367.40 0.4613
367.50 0.4617
367.60 0.4622
367.70 0.4626
367.80 0.4631
367.90 0.4635
368.00 0.464
368.10 0.4644
368.20 0.4649
368.30 0.4654
368.40 0.4658
368.50 0.4663
368.60 0.4667
368.70 0.4672
368.80 0.4676
368.90 0.4681
369.00 0.4686
369.10 0.469
369.20 0.4695
369.30 0.4699
369.40 0.4704
369.50 0.4708
369.60 0.4713
369.70 0.4717
369.80 0.4722
369.90 0.4726
370.00 0.4731
370.10 0.4735
370.20 0.474
370.30 0.4745
370.40 0.4749
370.50 0.4754
370.60 0.4758
370.70 0.4763
370.80 0.4768
370.90 0.4772
371.00 0.4777
371.10 0.4781
371.20 0.4786
371.30 0.479
371.40 0.4795
371.50 0.48
371.60 0.4804
371.70 0.4809
371.80 0.4813
371.90 0.4818
372.00 0.4822
372.10 0.4827
372.20 0.4831
372.30 0.4836
372.40 0.4841
372.50 0.4845
372.60 0.485
372.70 0.4854
372.80 0.4859
372.90 0.4864
373.00 0.4868
373.10 0.4873
373.20 0.4877
373.30 0.4882
373.40 0.4886
373.50 0.4891
373.60 0.4895
373.70 0.49
373.80 0.4905
373.90 0.4909
374.00 0.4914
374.10 0.4918
374.20 0.4923
374.30 0.4927
374.40 0.4932
374.50 0.4937
374.60 0.4941
374.70 0.4946
374.80 0.495
374.90 0.4955
375.00 0.496
375.10 0.4964
375.20 0.4969
375.30 0.4973
375.40 0.4978
375.50 0.4982
375.60 0.4987
375.70 0.4992
375.80 0.4996
375.90 0.5001
376.00 0.5005
376.10 0.501
376.20 0.5014
376.30 0.5019
376.40 0.5024
376.50 0.5028
376.60 0.5033
376.70 0.5037
376.80 0.5042
376.90 0.5046
377.00 0.5051
377.10 0.5056
377.20 0.506
377.30 0.5065
377.40 0.5069
377.50 0.5074
377.60 0.5079
377.70 0.5083
377.80 0.5088
377.90 0.5092
378.00 0.5097
378.10 0.5102
378.20 0.5106
378.30 0.5111
378.40 0.5115
378.50 0.512
378.60 0.5124
378.70 0.5129
378.80 0.5134
378.90 0.5138
379.00 0.5143
379.10 0.5147
379.20 0.5152
379.30 0.5157
379.40 0.5161
379.50 0.5166
379.60 0.517
379.70 0.5175
379.80 0.5179
379.90 0.5184
380.00 0.5189
380.10 0.5193
380.20 0.5198
380.30 0.5202
380.40 0.5207
380.50 0.5212
380.60 0.5216
380.70 0.5221
380.80 0.5225
380.90 0.523
381.00 0.5235
381.10 0.5239
381.20 0.5244
381.30 0.5248
381.40 0.5253
381.50 0.5257
381.60 0.5262
381.70 0.5267
381.80 0.5271
381.90 0.5276
382.00 0.528
382.10 0.5285
382.20 0.529
382.30 0.5294
382.40 0.5299
382.50 0.5303
382.60 0.5308
382.70 0.5313
382.80 0.5317
382.90 0.5322
383.00 0.5326
383.10 0.5331
383.20 0.5335
383.30 0.534
383.40 0.5345
383.50 0.5349
383.60 0.5354
383.70 0.5358
383.80 0.5363
383.90 0.5368
384.00 0.5372
384.10 0.5377
384.20 0.5381
384.30 0.5386
384.40 0.539
384.50 0.5395
384.60 0.54
384.70 0.5404
384.80 0.5409
384.90 0.5413
385.00 0.5418
385.10 0.5423
385.20 0.5427
385.30 0.5432
385.40 0.5436
385.50 0.5441
385.60 0.5445
385.70 0.545
385.80 0.5455
385.90 0.5459
386.00 0.5464
386.10 0.5468
386.20 0.5473
386.30 0.5478
386.40 0.5482
386.50 0.5487
386.60 0.5491
386.70 0.5496
386.80 0.55
386.90 0.5505
387.00 0.551
387.10 0.5514
387.20 0.5519
387.30 0.5523
387.40 0.5528
387.50 0.5533
387.60 0.5537
387.70 0.5542
387.80 0.5546
387.90 0.5551
388.00 0.5556
388.10 0.556
388.20 0.5565
388.30 0.5569
388.40 0.5574
388.50 0.5578
388.60 0.5583
388.70 0.5588
388.80 0.5592
388.90 0.5597
389.00 0.5601
389.10 0.5606
389.20 0.561
389.30 0.5615
389.40 0.562
389.50 0.5624
389.60 0.5629
389.70 0.5633
389.80 0.5638
389.90 0.5643
390.00 0.5647
390.10 0.5652
390.20 0.5656
390.30 0.5661
390.40 0.5665
390.50 0.567
390.60 0.5675
390.70 0.5679
390.80 0.5684
390.90 0.5688
391.00 0.5693
391.10 0.5697
391.20 0.5702
391.30 0.5707
391.40 0.5711
391.50 0.5716
391.60 0.572
391.70 0.5725
391.80 0.5729
391.90 0.5734
392.00 0.5739
392.10 0.5743
392.20 0.5748
392.30 0.5752
392.40 0.5757
392.50 0.5762
392.60 0.5766
392.70 0.5771
392.80 0.5775
392.90 0.578
393.00 0.5784
393.10 0.5789
393.20 0.5793
393.30 0.5798
393.40 0.5803
393.50 0.5807
393.60 0.5812
393.70 0.5816
393.80 0.5821
393.90 0.5825
394.00 0.583
394.10 0.5835
394.20 0.5839
394.30 0.5844
394.40 0.5848
394.50 0.5853
394.60 0.5857
394.70 0.5862
394.80 0.5867
394.90 0.5871
395.00 0.5876
395.10 0.588
395.20 0.5885
395.30 0.5889
395.40 0.5894
395.50 0.5899
395.60 0.5903
395.70 0.5908
395.80 0.5912
395.90 0.5917
396.00 0.5921
396.10 0.5926
396.20 0.593
396.30 0.5935
396.40 0.5939
396.50 0.5944
396.60 0.5949
396.70 0.5953
396.80 0.5958
396.90 0.5962
397.00 0.5967
397.10 0.5971
397.20 0.5976
397.30 0.598
397.40 0.5985
397.50 0.599
397.60 0.5994
397.70 0.5999
397.80 0.6003
397.90 0.6008
398.00 0.6012
398.10 0.6017
398.20 0.6021
398.30 0.6026
398.40 0.6031
398.50 0.6035
398.60 0.604
398.70 0.6044
398.80 0.6049
398.90 0.6053
399.00 0.6058
399.10 0.6062
399.20 0.6067
399.30 0.6071
399.40 0.6076
399.50 0.608
399.60 0.6085
399.70 0.609
399.80 0.6094
399.90 0.6099
400.00 0.6103
400.10 0.6108
400.20 0.6112
400.30 0.6117
400.40 0.6121
400.50 0.6126
400.60 0.613
400.70 0.6135
400.80 0.6139
400.90 0.6144
401.00 0.6148
401.10 0.6153
401.20 0.6158
401.30 0.6162
401.40 0.6167
401.50 0.6171
401.60 0.6176
401.70 0.618
401.80 0.6185
401.90 0.6189
402.00 0.6194
402.10 0.6198
402.20 0.6203
402.30 0.6207
402.40 0.6212
402.50 0.6217
402.60 0.6221
402.70 0.6226
402.80 0.623
402.90 0.6235
403.00 0.6239
403.10 0.6244
403.20 0.6248
403.30 0.6253
403.40 0.6257
403.50 0.6262
403.60 0.6266
403.70 0.6271
403.80 0.6275
403.90 0.628
404.00 0.6284
404.10 0.6289
404.20 0.6293
404.30 0.6298
404.40 0.6302
404.50 0.6307
404.60 0.6311
404.70 0.6316
404.80 0.632
404.90 0.6325
405.00 0.6329
405.10 0.6334
405.20 0.6338
405.30 0.6343
405.40 0.6347
405.50 0.6352
405.60 0.6356
405.70 0.6361
405.80 0.6365
405.90 0.637
406.00 0.6374
406.10 0.6379
406.20 0.6383
406.30 0.6388
406.40 0.6392
406.50 0.6397
406.60 0.6401
406.70 0.6406
406.80 0.641
406.90 0.6415
407.00 0.6419
407.10 0.6424
407.20 0.6428
407.30 0.6433
407.40 0.6437
407.50 0.6442
407.60 0.6446
407.70 0.6451
407.80 0.6455
407.90 0.646
408.00 0.6464
408.10 0.6469
408.20 0.6473
408.30 0.6478
408.40 0.6482
408.50 0.6487
408.60 0.6491
408.70 0.6496
408.80 0.65
408.90 0.6505
409.00 0.6509
409.10 0.6514
409.20 0.6518
409.30 0.6522
409.40 0.6527
409.50 0.6531
409.60 0.6536
409.70 0.654
409.80 0.6545
409.90 0.6549
410.00 0.6554
410.10 0.6558
410.20 0.6563
410.30 0.6567
410.40 0.6572
410.50 0.6576
410.60 0.658
410.70 0.6585
410.80 0.659
410.90 0.6594
411.00 0.6598
411.10 0.6603
411.20 0.6607
411.30 0.6612
411.40 0.6616
411.50 0.6621
411.60 0.6625
411.70 0.663
411.80 0.6634
411.90 0.6638
412.00 0.6643
412.10 0.6647
412.20 0.6652
412.30 0.6656
412.40 0.6661
412.50 0.6665
412.60 0.667
412.70 0.6674
412.80 0.6678
412.90 0.6683
413.00 0.6687
413.10 0.6692
413.20 0.6696
413.30 0.6701
413.40 0.6705
413.50 0.671
413.60 0.6714
413.70 0.6719
413.80 0.6723
413.90 0.6727
414.00 0.6732
414.10 0.6736
414.20 0.6741
414.30 0.6745
414.40 0.6749
414.50 0.6754
414.60 0.6758
414.70 0.6763
414.80 0.6767
414.90 0.6772
415.00 0.6776
415.10 0.6781
415.20 0.6785
415.30 0.6789
415.40 0.6794
415.50 0.6798
415.60 0.6803
415.70 0.6807
415.80 0.6811
415.90 0.6816
416.00 0.682
416.10 0.6825
416.20 0.6829
416.30 0.6833
416.40 0.6838
416.50 0.6842
416.60 0.6847
416.70 0.6851
416.80 0.6855
416.90 0.686
417.00 0.6864
417.10 0.6869
417.20 0.6873
417.30 0.6878
417.40 0.6882
417.50 0.6886
417.60 0.6891
417.70 0.6895
417.80 0.69
417.90 0.6904
418.00 0.6908
418.10 0.6913
418.20 0.6917
418.30 0.6922
418.40 0.6926
418.50 0.693
418.60 0.6935
418.70 0.6939
418.80 0.6943
418.90 0.6948
419.00 0.6952
419.10 0.6957
419.20 0.6961
419.30 0.6965
419.40 0.697
419.50 0.6974
419.60 0.6979
419.70 0.6983
419.80 0.6987
419.90 0.6992
420.00 0.6996
420.10 0.7
420.20 0.7005
420.30 0.7009
420.40 0.7013
420.50 0.7018
420.60 0.7022
420.70 0.7027
420.80 0.7031
420.90 0.7035
421.00 0.704
421.10 0.7044
421.20 0.7048
421.30 0.7053
421.40 0.7057
421.50 0.7061
421.60 0.7066
421.70 0.707
421.80 0.7075
421.90 0.7079
422.00 0.7083
422.10 0.7088
422.20 0.7092
422.30 0.7096
422.40 0.7101
422.50 0.7105
422.60 0.7109
422.70 0.7114
422.80 0.7118
422.90 0.7122
423.00 0.7127
423.10 0.7131
423.20 0.7135
423.30 0.714
423.40 0.7144
423.50 0.7148
423.60 0.7153
423.70 0.7157
423.80 0.7161
423.90 0.7166
424.00 0.717
424.10 0.7174
424.20 0.7179
424.30 0.7183
424.40 0.7187
424.50 0.7192
424.60 0.7196
424.70 0.72
424.80 0.7205
424.90 0.7209
425.00 0.7213
425.10 0.7218
425.20 0.7222
425.30 0.7226
425.40 0.7231
425.50 0.7235
425.60 0.7239
425.70 0.7243
425.80 0.7248
425.90 0.7252
426.00 0.7256
426.10 0.7261
426.20 0.7265
426.30 0.7269
426.40 0.7274
426.50 0.7278
426.60 0.7282
426.70 0.7286
426.80 0.7291
426.90 0.7295
427.00 0.7299
427.10 0.7304
427.20 0.7308
427.30 0.7312
427.40 0.7316
427.50 0.7321
427.60 0.7325
427.70 0.7329
427.80 0.7334
427.90 0.7338
428.00 0.7342
428.10 0.7347
428.20 0.7351
428.30 0.7355
428.40 0.7359
428.50 0.7364
428.60 0.7368
428.70 0.7372
428.80 0.7376
428.90 0.7381
429.00 0.7385
429.10 0.7389
429.20 0.7393
429.30 0.7398
429.40 0.7402
429.50 0.7406
429.60 0.7411
429.70 0.7415
429.80 0.7419
429.90 0.7423
430.00 0.7428
430.10 0.7432
430.20 0.7436
430.30 0.744
430.40 0.7445
430.50 0.7449
430.60 0.7453
430.70 0.7457
430.80 0.7462
430.90 0.7466
431.00 0.747
431.10 0.7474
431.20 0.7478
431.30 0.7483
431.40 0.7487
431.50 0.7491
431.60 0.7495
431.70 0.75
431.80 0.7504
431.90 0.7508
432.00 0.7512
432.10 0.7517
432.20 0.7521
432.30 0.7525
432.40 0.7529
432.50 0.7534
432.60 0.7538
432.70 0.7542
432.80 0.7546
432.90 0.755
433.00 0.7555
433.10 0.7559
433.20 0.7563
433.30 0.7567
433.40 0.7571
433.50 0.7576
433.60 0.758
433.70 0.7584
433.80 0.7588
433.90 0.7592
434.00 0.7597
434.10 0.7601
434.20 0.7605
434.30 0.7609
434.40 0.7614
434.50 0.7618
434.60 0.7622
434.70 0.7626
434.80 0.763
434.90 0.7634
435.00 0.7639
435.10 0.7643
435.20 0.7647
435.30 0.7651
435.40 0.7655
435.50 0.7659
435.60 0.7664
435.70 0.7668
435.80 0.7672
435.90 0.7676
436.00 0.768
436.10 0.7685
436.20 0.7689
436.30 0.7693
436.40 0.7697
436.50 0.7701
436.60 0.7705
436.70 0.771
436.80 0.7714
436.90 0.7718
437.00 0.7722
437.10 0.7726
437.20 0.773
437.30 0.7734
437.40 0.7739
437.50 0.7743
437.60 0.7747
437.70 0.7751
437.80 0.7755
437.90 0.7759
438.00 0.7764
438.10 0.7768
438.20 0.7772
438.30 0.7776
438.40 0.778
438.50 0.7784
438.60 0.7788
438.70 0.7793
438.80 0.7797
438.90 0.7801
439.00 0.7805
439.10 0.7809
439.20 0.7813
439.30 0.7817
439.40 0.7821
439.50 0.7826
439.60 0.783
439.70 0.7834
439.80 0.7838
439.90 0.7842
440.00 0.7846
440.10 0.785
440.20 0.7854
440.30 0.7858
440.40 0.7863
440.50 0.7867
440.60 0.7871
440.70 0.7875
440.80 0.7879
440.90 0.7883
441.00 0.7887
441.10 0.7891
441.20 0.7895
441.30 0.79
441.40 0.7904
441.50 0.7908
441.60 0.7912
441.70 0.7916
441.80 0.792
441.90 0.7924
442.00 0.7928
442.10 0.7932
442.20 0.7936
442.30 0.794
442.40 0.7944
442.50 0.7949
442.60 0.7953
442.70 0.7957
442.80 0.7961
442.90 0.7965
443.00 0.7969
443.10 0.7973
