# Version 2.1 - nm, norm@500 to 1, cut digits, bergeron_10000_85.dat_10000
# Wavelength(nm)  Flambda(ergs/cm^s/s/nm)
300.00 1.772
300.10 1.771
300.20 1.77
300.30 1.77
300.40 1.769
300.50 1.768
300.60 1.768
300.70 1.767
300.80 1.766
300.90 1.766
301.00 1.765
301.10 1.764
301.20 1.764
301.30 1.763
301.40 1.763
301.50 1.762
301.60 1.761
301.70 1.761
301.80 1.76
301.90 1.759
302.00 1.759
302.10 1.758
302.20 1.757
302.30 1.757
302.40 1.756
302.50 1.756
302.60 1.755
302.70 1.754
302.80 1.754
302.90 1.753
303.00 1.752
303.10 1.752
303.20 1.751
303.30 1.75
303.40 1.75
303.50 1.749
303.60 1.748
303.70 1.748
303.80 1.747
303.90 1.747
304.00 1.746
304.10 1.745
304.20 1.745
304.30 1.744
304.40 1.743
304.50 1.743
304.60 1.742
304.70 1.741
304.80 1.741
304.90 1.74
305.00 1.739
305.10 1.739
305.20 1.738
305.30 1.738
305.40 1.737
305.50 1.736
305.60 1.736
305.70 1.735
305.80 1.734
305.90 1.734
306.00 1.733
306.10 1.732
306.20 1.732
306.30 1.731
306.40 1.73
306.50 1.73
306.60 1.729
306.70 1.728
306.80 1.728
306.90 1.727
307.00 1.727
307.10 1.726
307.20 1.725
307.30 1.725
307.40 1.724
307.50 1.723
307.60 1.723
307.70 1.722
307.80 1.721
307.90 1.721
308.00 1.72
308.10 1.719
308.20 1.719
308.30 1.718
308.40 1.717
308.50 1.717
308.60 1.716
308.70 1.716
308.80 1.715
308.90 1.714
309.00 1.714
309.10 1.713
309.20 1.712
309.30 1.712
309.40 1.711
309.50 1.71
309.60 1.71
309.70 1.709
309.80 1.708
309.90 1.708
310.00 1.707
310.10 1.707
310.20 1.706
310.30 1.705
310.40 1.705
310.50 1.704
310.60 1.703
310.70 1.703
310.80 1.702
310.90 1.701
311.00 1.701
311.10 1.7
311.20 1.699
311.30 1.699
311.40 1.698
311.50 1.697
311.60 1.697
311.70 1.696
311.80 1.695
311.90 1.695
312.00 1.694
312.10 1.693
312.20 1.693
312.30 1.692
312.40 1.692
312.50 1.691
312.60 1.69
312.70 1.69
312.80 1.689
312.90 1.688
313.00 1.688
313.10 1.687
313.20 1.686
313.30 1.686
313.40 1.685
313.50 1.684
313.60 1.684
313.70 1.683
313.80 1.682
313.90 1.682
314.00 1.681
314.10 1.681
314.20 1.68
314.30 1.679
314.40 1.679
314.50 1.678
314.60 1.677
314.70 1.677
314.80 1.676
314.90 1.675
315.00 1.675
315.10 1.674
315.20 1.673
315.30 1.673
315.40 1.672
315.50 1.671
315.60 1.671
315.70 1.67
315.80 1.669
315.90 1.669
316.00 1.668
316.10 1.668
316.20 1.667
316.30 1.666
316.40 1.666
316.50 1.665
316.60 1.664
316.70 1.664
316.80 1.663
316.90 1.662
317.00 1.662
317.10 1.661
317.20 1.66
317.30 1.66
317.40 1.659
317.50 1.658
317.60 1.658
317.70 1.657
317.80 1.656
317.90 1.656
318.00 1.655
318.10 1.654
318.20 1.654
318.30 1.653
318.40 1.653
318.50 1.652
318.60 1.651
318.70 1.651
318.80 1.65
318.90 1.649
319.00 1.649
319.10 1.648
319.20 1.647
319.30 1.647
319.40 1.646
319.50 1.645
319.60 1.645
319.70 1.644
319.80 1.643
319.90 1.643
320.00 1.642
320.10 1.641
320.20 1.641
320.30 1.64
320.40 1.639
320.50 1.639
320.60 1.638
320.70 1.638
320.80 1.637
320.90 1.636
321.00 1.636
321.10 1.635
321.20 1.634
321.30 1.634
321.40 1.633
321.50 1.632
321.60 1.632
321.70 1.631
321.80 1.63
321.90 1.63
322.00 1.629
322.10 1.628
322.20 1.628
322.30 1.627
322.40 1.627
322.50 1.626
322.60 1.625
322.70 1.625
322.80 1.624
322.90 1.623
323.00 1.623
323.10 1.622
323.20 1.621
323.30 1.621
323.40 1.62
323.50 1.619
323.60 1.619
323.70 1.618
323.80 1.617
323.90 1.617
324.00 1.616
324.10 1.615
324.20 1.615
324.30 1.614
324.40 1.613
324.50 1.613
324.60 1.612
324.70 1.612
324.80 1.611
324.90 1.61
325.00 1.61
325.10 1.609
325.20 1.608
325.30 1.608
325.40 1.607
325.50 1.606
325.60 1.606
325.70 1.605
325.80 1.604
325.90 1.604
326.00 1.603
326.10 1.602
326.20 1.602
326.30 1.601
326.40 1.6
326.50 1.6
326.60 1.599
326.70 1.599
326.80 1.598
326.90 1.597
327.00 1.597
327.10 1.596
327.20 1.595
327.30 1.595
327.40 1.594
327.50 1.593
327.60 1.593
327.70 1.592
327.80 1.591
327.90 1.591
328.00 1.59
328.10 1.589
328.20 1.589
328.30 1.588
328.40 1.588
328.50 1.587
328.60 1.586
328.70 1.586
328.80 1.585
328.90 1.584
329.00 1.584
329.10 1.583
329.20 1.582
329.30 1.582
329.40 1.581
329.50 1.58
329.60 1.58
329.70 1.579
329.80 1.579
329.90 1.578
330.00 1.577
330.10 1.577
330.20 1.576
330.30 1.575
330.40 1.575
330.50 1.574
330.60 1.573
330.70 1.573
330.80 1.572
330.90 1.571
331.00 1.571
331.10 1.57
331.20 1.569
331.30 1.569
331.40 1.568
331.50 1.568
331.60 1.567
331.70 1.566
331.80 1.566
331.90 1.565
332.00 1.564
332.10 1.564
332.20 1.563
332.30 1.562
332.40 1.562
332.50 1.561
332.60 1.56
332.70 1.56
332.80 1.559
332.90 1.558
333.00 1.558
333.10 1.557
333.20 1.557
333.30 1.556
333.40 1.555
333.50 1.555
333.60 1.554
333.70 1.553
333.80 1.553
333.90 1.552
334.00 1.551
334.10 1.551
334.20 1.55
334.30 1.549
334.40 1.549
334.50 1.548
334.60 1.548
334.70 1.547
334.80 1.546
334.90 1.546
335.00 1.545
335.10 1.544
335.20 1.544
335.30 1.543
335.40 1.542
335.50 1.542
335.60 1.541
335.70 1.54
335.80 1.54
335.90 1.539
336.00 1.539
336.10 1.538
336.20 1.537
336.30 1.537
336.40 1.536
336.50 1.535
336.60 1.535
336.70 1.534
336.80 1.533
336.90 1.533
337.00 1.532
337.10 1.532
337.20 1.531
337.30 1.53
337.40 1.53
337.50 1.529
337.60 1.528
337.70 1.528
337.80 1.527
337.90 1.526
338.00 1.526
338.10 1.525
338.20 1.524
338.30 1.524
338.40 1.523
338.50 1.523
338.60 1.522
338.70 1.521
338.80 1.521
338.90 1.52
339.00 1.519
339.10 1.519
339.20 1.518
339.30 1.517
339.40 1.517
339.50 1.516
339.60 1.516
339.70 1.515
339.80 1.514
339.90 1.514
340.00 1.513
340.10 1.512
340.20 1.512
340.30 1.511
340.40 1.51
340.50 1.51
340.60 1.509
340.70 1.509
340.80 1.508
340.90 1.507
341.00 1.507
341.10 1.506
341.20 1.505
341.30 1.505
341.40 1.504
341.50 1.503
341.60 1.503
341.70 1.502
341.80 1.502
341.90 1.501
342.00 1.5
342.10 1.5
342.20 1.499
342.30 1.498
342.40 1.498
342.50 1.497
342.60 1.496
342.70 1.496
342.80 1.495
342.90 1.495
343.00 1.494
343.10 1.493
343.20 1.493
343.30 1.492
343.40 1.491
343.50 1.491
343.60 1.49
343.70 1.49
343.80 1.489
343.90 1.488
344.00 1.488
344.10 1.487
344.20 1.486
344.30 1.486
344.40 1.485
344.50 1.484
344.60 1.484
344.70 1.483
344.80 1.483
344.90 1.482
345.00 1.481
345.10 1.481
345.20 1.48
345.30 1.479
345.40 1.479
345.50 1.478
345.60 1.477
345.70 1.477
345.80 1.476
345.90 1.476
346.00 1.475
346.10 1.474
346.20 1.474
346.30 1.473
346.40 1.472
346.50 1.472
346.60 1.471
346.70 1.471
346.80 1.47
346.90 1.469
347.00 1.469
347.10 1.468
347.20 1.467
347.30 1.467
347.40 1.466
347.50 1.466
347.60 1.465
347.70 1.464
347.80 1.464
347.90 1.463
348.00 1.462
348.10 1.462
348.20 1.461
348.30 1.461
348.40 1.46
348.50 1.459
348.60 1.459
348.70 1.458
348.80 1.457
348.90 1.457
349.00 1.456
349.10 1.456
349.20 1.455
349.30 1.454
349.40 1.454
349.50 1.453
349.60 1.452
349.70 1.452
349.80 1.451
349.90 1.451
350.00 1.45
350.10 1.449
350.20 1.449
350.30 1.448
350.40 1.447
350.50 1.447
350.60 1.446
350.70 1.446
350.80 1.445
350.90 1.444
351.00 1.444
351.10 1.443
351.20 1.442
351.30 1.442
351.40 1.441
351.50 1.441
351.60 1.44
351.70 1.439
351.80 1.439
351.90 1.438
352.00 1.437
352.10 1.437
352.20 1.436
352.30 1.436
352.40 1.435
352.50 1.434
352.60 1.434
352.70 1.433
352.80 1.433
352.90 1.432
353.00 1.431
353.10 1.431
353.20 1.43
353.30 1.429
353.40 1.429
353.50 1.428
353.60 1.428
353.70 1.427
353.80 1.426
353.90 1.426
354.00 1.425
354.10 1.424
354.20 1.424
354.30 1.423
354.40 1.423
354.50 1.422
354.60 1.421
354.70 1.421
354.80 1.42
354.90 1.42
355.00 1.419
355.10 1.418
355.20 1.418
355.30 1.417
355.40 1.416
355.50 1.416
355.60 1.415
355.70 1.415
355.80 1.414
355.90 1.413
356.00 1.413
356.10 1.412
356.20 1.412
356.30 1.411
356.40 1.41
356.50 1.41
356.60 1.409
356.70 1.408
356.80 1.408
356.90 1.407
357.00 1.407
357.10 1.406
357.20 1.405
357.30 1.405
357.40 1.404
357.50 1.404
357.60 1.403
357.70 1.402
357.80 1.402
357.90 1.401
358.00 1.401
358.10 1.4
358.20 1.399
358.30 1.399
358.40 1.398
358.50 1.397
358.60 1.397
358.70 1.396
358.80 1.396
358.90 1.395
359.00 1.394
359.10 1.394
359.20 1.393
359.30 1.393
359.40 1.392
359.50 1.391
359.60 1.391
359.70 1.39
359.80 1.39
359.90 1.389
360.00 1.388
360.10 1.388
360.20 1.387
360.30 1.386
360.40 1.386
360.50 1.385
360.60 1.385
360.70 1.384
360.80 1.383
360.90 1.383
361.00 1.382
361.10 1.382
361.20 1.381
361.30 1.38
361.40 1.38
361.50 1.379
361.60 1.379
361.70 1.378
361.80 1.377
361.90 1.377
362.00 1.376
362.10 1.376
362.20 1.375
362.30 1.374
362.40 1.374
362.50 1.373
362.60 1.373
362.70 1.372
362.80 1.371
362.90 1.371
363.00 1.37
363.10 1.37
363.20 1.369
363.30 1.368
363.40 1.367
363.50 1.367
363.60 1.366
363.70 1.365
363.80 1.365
363.90 1.364
364.00 1.363
364.10 1.363
364.20 1.362
364.30 1.361
364.40 1.361
364.50 1.36
364.60 1.359
364.70 1.359
364.80 1.358
364.90 1.357
365.00 1.356
365.10 1.356
365.20 1.355
365.30 1.354
365.40 1.354
365.50 1.353
365.60 1.352
365.70 1.352
365.80 1.351
365.90 1.35
366.00 1.349
366.10 1.349
366.20 1.348
366.30 1.348
366.40 1.347
366.50 1.346
366.60 1.346
366.70 1.345
366.80 1.344
366.90 1.344
367.00 1.343
367.10 1.343
367.20 1.342
367.30 1.341
367.40 1.341
367.50 1.34
367.60 1.339
367.70 1.339
367.80 1.338
367.90 1.338
368.00 1.337
368.10 1.337
368.20 1.336
368.30 1.335
368.40 1.335
368.50 1.334
368.60 1.334
368.70 1.333
368.80 1.333
368.90 1.332
369.00 1.332
369.10 1.331
369.20 1.331
369.30 1.33
369.40 1.33
369.50 1.329
369.60 1.329
369.70 1.328
369.80 1.328
369.90 1.327
370.00 1.327
370.10 1.326
370.20 1.326
370.30 1.326
370.40 1.326
370.50 1.326
370.60 1.326
370.70 1.326
370.80 1.325
370.90 1.325
371.00 1.325
371.10 1.325
371.20 1.325
371.30 1.325
371.40 1.325
371.50 1.324
371.60 1.324
371.70 1.324
371.80 1.324
371.90 1.324
372.00 1.324
372.10 1.324
372.20 1.324
372.30 1.325
372.40 1.325
372.50 1.325
372.60 1.326
372.70 1.326
372.80 1.327
372.90 1.327
373.00 1.327
373.10 1.328
373.20 1.328
373.30 1.328
373.40 1.329
373.50 1.329
373.60 1.329
373.70 1.33
373.80 1.33
373.90 1.33
374.00 1.331
374.10 1.331
374.20 1.332
374.30 1.332
374.40 1.333
374.50 1.334
374.60 1.334
374.70 1.335
374.80 1.335
374.90 1.336
375.00 1.336
375.10 1.337
375.20 1.337
375.30 1.338
375.40 1.338
375.50 1.339
375.60 1.339
375.70 1.34
375.80 1.34
375.90 1.341
376.00 1.342
376.10 1.342
376.20 1.342
376.30 1.342
376.40 1.342
376.50 1.343
376.60 1.343
376.70 1.343
376.80 1.343
376.90 1.344
377.00 1.344
377.10 1.343
377.20 1.342
377.30 1.342
377.40 1.341
377.50 1.34
377.60 1.339
377.70 1.339
377.80 1.338
377.90 1.337
378.00 1.337
378.10 1.332
378.20 1.328
378.30 1.324
378.40 1.32
378.50 1.316
378.60 1.312
378.70 1.307
378.80 1.303
378.90 1.299
379.00 1.295
379.10 1.291
379.20 1.287
379.30 1.283
379.40 1.279
379.50 1.275
379.60 1.271
379.70 1.267
379.80 1.263
379.90 1.259
380.00 1.255
380.10 1.261
380.20 1.267
380.30 1.273
380.40 1.279
380.50 1.285
380.60 1.291
380.70 1.297
380.80 1.303
380.90 1.309
381.00 1.315
381.10 1.316
381.20 1.318
381.30 1.32
381.40 1.321
381.50 1.323
381.60 1.323
381.70 1.322
381.80 1.32
381.90 1.318
382.00 1.315
382.10 1.311
382.20 1.306
382.30 1.295
382.40 1.283
382.50 1.271
382.60 1.26
382.70 1.248
382.80 1.236
382.90 1.225
383.00 1.213
383.10 1.202
383.20 1.19
383.30 1.177
383.40 1.163
383.50 1.15
383.60 1.152
383.70 1.167
383.80 1.181
383.90 1.194
384.00 1.209
384.10 1.225
384.20 1.241
384.30 1.257
384.40 1.27
384.50 1.283
384.60 1.293
384.70 1.302
384.80 1.31
384.90 1.316
385.00 1.321
385.10 1.326
385.20 1.329
385.30 1.332
385.40 1.335
385.50 1.337
385.60 1.338
385.70 1.339
385.80 1.339
385.90 1.339
386.00 1.339
386.10 1.338
386.20 1.337
386.30 1.335
386.40 1.333
386.50 1.331
386.60 1.327
386.70 1.324
386.80 1.32
386.90 1.315
387.00 1.31
387.10 1.305
387.20 1.298
387.30 1.291
387.40 1.283
387.50 1.274
387.60 1.264
387.70 1.253
387.80 1.239
387.90 1.224
388.00 1.207
388.10 1.185
388.20 1.161
388.30 1.134
388.40 1.103
388.50 1.072
388.60 1.043
388.70 1.016
388.80 0.9937
388.90 0.9746
389.00 0.9922
389.10 1.014
389.20 1.04
389.30 1.07
389.40 1.101
389.50 1.132
389.60 1.16
389.70 1.185
389.80 1.208
389.90 1.226
390.00 1.242
390.10 1.257
390.20 1.269
390.30 1.28
390.40 1.29
390.50 1.299
390.60 1.307
390.70 1.314
390.80 1.321
390.90 1.327
391.00 1.333
391.10 1.338
391.20 1.343
391.30 1.347
391.40 1.351
391.50 1.355
391.60 1.358
391.70 1.361
391.80 1.363
391.90 1.366
392.00 1.367
392.10 1.369
392.20 1.37
392.30 1.371
392.40 1.371
392.50 1.372
392.60 1.371
392.70 1.371
392.80 1.37
392.90 1.369
393.00 1.368
393.10 1.366
393.20 1.364
393.30 1.362
393.40 1.359
393.50 1.356
393.60 1.352
393.70 1.349
393.80 1.344
393.90 1.34
394.00 1.335
394.10 1.329
394.20 1.323
394.30 1.317
394.40 1.31
394.50 1.303
394.60 1.296
394.70 1.287
394.80 1.278
394.90 1.269
395.00 1.259
395.10 1.248
395.20 1.237
395.30 1.225
395.40 1.212
395.50 1.198
395.60 1.183
395.70 1.167
395.80 1.15
395.90 1.13
396.00 1.108
396.10 1.085
396.20 1.057
396.30 1.025
396.40 0.9885
396.50 0.9433
396.60 0.8955
396.70 0.8451
396.80 0.8016
396.90 0.7588
397.00 0.7167
397.10 0.7551
397.20 0.7954
397.30 0.8376
397.40 0.8877
397.50 0.9355
397.60 0.9811
397.70 1.018
397.80 1.05
397.90 1.079
398.00 1.102
398.10 1.124
398.20 1.144
398.30 1.161
398.40 1.177
398.50 1.192
398.60 1.206
398.70 1.219
398.80 1.232
398.90 1.243
399.00 1.254
399.10 1.264
399.20 1.274
399.30 1.283
399.40 1.292
399.50 1.3
399.60 1.308
399.70 1.316
399.80 1.322
399.90 1.329
400.00 1.336
400.10 1.341
400.20 1.347
400.30 1.352
400.40 1.357
400.50 1.362
400.60 1.367
400.70 1.371
400.80 1.375
400.90 1.379
401.00 1.382
401.10 1.385
401.20 1.388
401.30 1.391
401.40 1.394
401.50 1.396
401.60 1.399
401.70 1.401
401.80 1.403
401.90 1.404
402.00 1.406
402.10 1.408
402.20 1.409
402.30 1.41
402.40 1.411
402.50 1.412
402.60 1.412
402.70 1.413
402.80 1.413
402.90 1.413
403.00 1.414
403.10 1.413
403.20 1.413
403.30 1.413
403.40 1.412
403.50 1.412
403.60 1.411
403.70 1.41
403.80 1.409
403.90 1.408
404.00 1.406
404.10 1.405
404.20 1.403
404.30 1.401
404.40 1.399
404.50 1.397
404.60 1.395
404.70 1.392
404.80 1.39
404.90 1.387
405.00 1.384
405.10 1.381
405.20 1.378
405.30 1.374
405.40 1.37
405.50 1.366
405.60 1.362
405.70 1.358
405.80 1.353
405.90 1.349
406.00 1.344
406.10 1.338
406.20 1.333
406.30 1.327
406.40 1.321
406.50 1.315
406.60 1.308
406.70 1.301
406.80 1.294
406.90 1.286
407.00 1.278
407.10 1.27
407.20 1.261
407.30 1.252
407.40 1.242
407.50 1.232
407.60 1.222
407.70 1.211
407.80 1.199
407.90 1.187
408.00 1.174
408.10 1.161
408.20 1.146
408.30 1.132
408.40 1.116
408.50 1.099
408.60 1.082
408.70 1.064
408.80 1.044
408.90 1.023
409.00 1.001
409.10 0.9774
409.20 0.9518
409.30 0.9246
409.40 0.8924
409.50 0.8567
409.60 0.8173
409.70 0.7689
409.80 0.7175
409.90 0.663
410.00 0.6156
410.10 0.5781
410.20 0.5504
410.30 0.5943
410.40 0.6413
410.50 0.6912
410.60 0.7444
410.70 0.7932
410.80 0.8376
410.90 0.8735
411.00 0.9061
411.10 0.9356
411.20 0.9608
411.30 0.9845
411.40 1.007
411.50 1.027
411.60 1.046
411.70 1.065
411.80 1.081
411.90 1.098
412.00 1.113
412.10 1.127
412.20 1.141
412.30 1.154
412.40 1.166
412.50 1.178
412.60 1.189
412.70 1.199
412.80 1.209
412.90 1.219
413.00 1.228
413.10 1.236
413.20 1.245
413.30 1.252
413.40 1.26
413.50 1.267
413.60 1.274
413.70 1.28
413.80 1.286
413.90 1.292
414.00 1.298
414.10 1.303
414.20 1.308
414.30 1.313
414.40 1.318
414.50 1.322
414.60 1.326
414.70 1.33
414.80 1.334
414.90 1.338
415.00 1.342
415.10 1.345
415.20 1.348
415.30 1.351
415.40 1.354
415.50 1.357
415.60 1.36
415.70 1.363
415.80 1.365
415.90 1.367
416.00 1.37
416.10 1.372
416.20 1.374
416.30 1.376
416.40 1.378
416.50 1.379
416.60 1.381
416.70 1.383
416.80 1.384
416.90 1.386
417.00 1.387
417.10 1.388
417.20 1.39
417.30 1.391
417.40 1.392
417.50 1.393
417.60 1.394
417.70 1.395
417.80 1.396
417.90 1.396
418.00 1.397
418.10 1.398
418.20 1.399
418.30 1.399
418.40 1.4
418.50 1.4
418.60 1.401
418.70 1.401
418.80 1.401
418.90 1.402
419.00 1.402
419.10 1.402
419.20 1.403
419.30 1.403
419.40 1.403
419.50 1.403
419.60 1.403
419.70 1.403
419.80 1.403
419.90 1.403
420.00 1.403
420.10 1.403
420.20 1.403
420.30 1.403
420.40 1.403
420.50 1.402
420.60 1.402
420.70 1.402
420.80 1.402
420.90 1.401
421.00 1.401
421.10 1.401
421.20 1.4
421.30 1.4
421.40 1.399
421.50 1.399
421.60 1.398
421.70 1.398
421.80 1.397
421.90 1.397
422.00 1.396
422.10 1.395
422.20 1.395
422.30 1.394
422.40 1.393
422.50 1.393
422.60 1.392
422.70 1.391
422.80 1.39
422.90 1.389
423.00 1.388
423.10 1.388
423.20 1.387
423.30 1.386
423.40 1.385
423.50 1.384
423.60 1.383
423.70 1.382
423.80 1.381
423.90 1.379
424.00 1.378
424.10 1.377
424.20 1.376
424.30 1.375
424.40 1.373
424.50 1.372
424.60 1.371
424.70 1.369
424.80 1.368
424.90 1.367
425.00 1.365
425.10 1.364
425.20 1.362
425.30 1.36
425.40 1.359
425.50 1.357
425.60 1.355
425.70 1.354
425.80 1.352
425.90 1.35
426.00 1.348
426.10 1.346
426.20 1.344
426.30 1.342
426.40 1.34
426.50 1.337
426.60 1.335
426.70 1.333
426.80 1.331
426.90 1.328
427.00 1.326
427.10 1.323
427.20 1.321
427.30 1.318
427.40 1.316
427.50 1.313
427.60 1.31
427.70 1.307
427.80 1.304
427.90 1.301
428.00 1.298
428.10 1.294
428.20 1.291
428.30 1.288
428.40 1.284
428.50 1.28
428.60 1.276
428.70 1.273
428.80 1.269
428.90 1.264
429.00 1.26
429.10 1.256
429.20 1.251
429.30 1.246
429.40 1.241
429.50 1.236
429.60 1.231
429.70 1.226
429.80 1.22
429.90 1.214
430.00 1.208
430.10 1.202
430.20 1.196
430.30 1.189
430.40 1.182
430.50 1.175
430.60 1.168
430.70 1.16
430.80 1.152
430.90 1.144
431.00 1.135
431.10 1.126
431.20 1.117
431.30 1.107
431.40 1.097
431.50 1.087
431.60 1.076
431.70 1.064
431.80 1.052
431.90 1.039
432.00 1.026
432.10 1.012
432.20 0.997
432.30 0.981
432.40 0.9642
432.50 0.9455
432.60 0.9256
432.70 0.9046
432.80 0.8813
432.90 0.8571
433.00 0.832
433.10 0.8057
433.20 0.7786
433.30 0.7507
433.40 0.7191
433.50 0.6847
433.60 0.6474
433.70 0.6038
433.80 0.5612
433.90 0.5197
434.00 0.4691
434.10 0.4701
434.20 0.5226
434.30 0.5641
434.40 0.6063
434.50 0.6494
434.60 0.6858
434.70 0.7194
434.80 0.7502
434.90 0.7773
435.00 0.8037
435.10 0.8291
435.20 0.8534
435.30 0.8767
435.40 0.899
435.50 0.9191
435.60 0.9379
435.70 0.9556
435.80 0.9714
435.90 0.9863
436.00 1
436.10 1.013
436.20 1.026
436.30 1.037
436.40 1.048
436.50 1.058
436.60 1.068
436.70 1.078
436.80 1.087
436.90 1.095
437.00 1.103
437.10 1.111
437.20 1.119
437.30 1.126
437.40 1.133
437.50 1.139
437.60 1.145
437.70 1.151
437.80 1.157
437.90 1.162
438.00 1.168
438.10 1.173
438.20 1.177
438.30 1.182
438.40 1.186
438.50 1.191
438.60 1.195
438.70 1.199
438.80 1.202
438.90 1.206
439.00 1.209
439.10 1.212
439.20 1.216
439.30 1.219
439.40 1.221
439.50 1.224
439.60 1.227
439.70 1.229
439.80 1.232
439.90 1.234
440.00 1.236
440.10 1.238
440.20 1.24
440.30 1.242
440.40 1.244
440.50 1.246
440.60 1.248
440.70 1.249
440.80 1.251
440.90 1.252
441.00 1.254
441.10 1.255
441.20 1.256
441.30 1.258
441.40 1.259
441.50 1.26
441.60 1.261
441.70 1.262
441.80 1.263
441.90 1.264
442.00 1.265
442.10 1.266
442.20 1.267
442.30 1.267
442.40 1.268
442.50 1.269
442.60 1.269
442.70 1.27
442.80 1.271
442.90 1.271
443.00 1.272
443.10 1.272
443.20 1.273
443.30 1.273
443.40 1.273
443.50 1.274
443.60 1.274
443.70 1.275
443.80 1.275
443.90 1.275
444.00 1.275
444.10 1.276
444.20 1.276
444.30 1.276
444.40 1.276
444.50 1.276
444.60 1.276
444.70 1.277
444.80 1.277
444.90 1.277
445.00 1.277
445.10 1.277
445.20 1.277
445.30 1.277
445.40 1.277
445.50 1.277
445.60 1.277
445.70 1.277
445.80 1.277
445.90 1.277
446.00 1.277
446.10 1.276
446.20 1.276
446.30 1.276
446.40 1.276
446.50 1.276
446.60 1.276
446.70 1.276
446.80 1.275
446.90 1.275
447.00 1.275
447.10 1.275
447.20 1.275
447.30 1.274
447.40 1.274
447.50 1.274
447.60 1.274
447.70 1.274
447.80 1.273
447.90 1.273
448.00 1.273
448.10 1.272
448.20 1.272
448.30 1.272
448.40 1.272
448.50 1.271
448.60 1.271
448.70 1.271
448.80 1.27
448.90 1.27
449.00 1.27
449.10 1.269
449.20 1.269
449.30 1.269
449.40 1.268
449.50 1.268
449.60 1.268
449.70 1.267
449.80 1.267
449.90 1.266
450.00 1.266
450.10 1.266
450.20 1.265
450.30 1.265
450.40 1.265
450.50 1.264
450.60 1.264
450.70 1.263
450.80 1.263
450.90 1.262
451.00 1.262
451.10 1.262
451.20 1.261
451.30 1.261
451.40 1.26
451.50 1.26
451.60 1.259
451.70 1.259
451.80 1.258
451.90 1.258
452.00 1.258
452.10 1.257
452.20 1.257
452.30 1.256
452.40 1.256
452.50 1.255
452.60 1.255
452.70 1.254
452.80 1.254
452.90 1.253
453.00 1.253
453.10 1.252
453.20 1.252
453.30 1.251
