# Version 2.1 - nm, norm@500 to 1, cut digits, bergeron_7500_85.dat_7500
# Wavelength(nm)  Flambda(ergs/cm^s/s/nm)
300.00 1.263
300.10 1.263
300.20 1.263
300.30 1.263
300.40 1.264
300.50 1.264
300.60 1.264
300.70 1.264
300.80 1.264
300.90 1.264
301.00 1.265
301.10 1.265
301.20 1.265
301.30 1.265
301.40 1.265
301.50 1.265
301.60 1.266
301.70 1.266
301.80 1.266
301.90 1.266
302.00 1.266
302.10 1.266
302.20 1.267
302.30 1.267
302.40 1.267
302.50 1.267
302.60 1.267
302.70 1.267
302.80 1.268
302.90 1.268
303.00 1.268
303.10 1.268
303.20 1.268
303.30 1.268
303.40 1.268
303.50 1.269
303.60 1.269
303.70 1.269
303.80 1.269
303.90 1.269
304.00 1.269
304.10 1.269
304.20 1.27
304.30 1.27
304.40 1.27
304.50 1.27
304.60 1.27
304.70 1.27
304.80 1.27
304.90 1.271
305.00 1.271
305.10 1.271
305.20 1.271
305.30 1.271
305.40 1.271
305.50 1.271
305.60 1.272
305.70 1.272
305.80 1.272
305.90 1.272
306.00 1.272
306.10 1.272
306.20 1.272
306.30 1.273
306.40 1.273
306.50 1.273
306.60 1.273
306.70 1.273
306.80 1.273
306.90 1.273
307.00 1.273
307.10 1.274
307.20 1.274
307.30 1.274
307.40 1.274
307.50 1.274
307.60 1.274
307.70 1.274
307.80 1.274
307.90 1.275
308.00 1.275
308.10 1.275
308.20 1.275
308.30 1.275
308.40 1.275
308.50 1.275
308.60 1.275
308.70 1.276
308.80 1.276
308.90 1.276
309.00 1.276
309.10 1.276
309.20 1.276
309.30 1.276
309.40 1.276
309.50 1.277
309.60 1.277
309.70 1.277
309.80 1.277
309.90 1.277
310.00 1.277
310.10 1.277
310.20 1.277
310.30 1.277
310.40 1.277
310.50 1.278
310.60 1.278
310.70 1.278
310.80 1.278
310.90 1.278
311.00 1.278
311.10 1.278
311.20 1.278
311.30 1.278
311.40 1.279
311.50 1.279
311.60 1.279
311.70 1.279
311.80 1.279
311.90 1.279
312.00 1.279
312.10 1.279
312.20 1.279
312.30 1.279
312.40 1.28
312.50 1.28
312.60 1.28
312.70 1.28
312.80 1.28
312.90 1.28
313.00 1.28
313.10 1.28
313.20 1.28
313.30 1.28
313.40 1.28
313.50 1.281
313.60 1.281
313.70 1.281
313.80 1.281
313.90 1.281
314.00 1.281
314.10 1.281
314.20 1.281
314.30 1.281
314.40 1.281
314.50 1.281
314.60 1.282
314.70 1.282
314.80 1.282
314.90 1.282
315.00 1.282
315.10 1.282
315.20 1.282
315.30 1.282
315.40 1.282
315.50 1.282
315.60 1.282
315.70 1.282
315.80 1.282
315.90 1.283
316.00 1.283
316.10 1.283
316.20 1.283
316.30 1.283
316.40 1.283
316.50 1.283
316.60 1.283
316.70 1.283
316.80 1.283
316.90 1.283
317.00 1.283
317.10 1.283
317.20 1.283
317.30 1.284
317.40 1.284
317.50 1.284
317.60 1.284
317.70 1.284
317.80 1.284
317.90 1.284
318.00 1.284
318.10 1.284
318.20 1.284
318.30 1.284
318.40 1.284
318.50 1.284
318.60 1.284
318.70 1.284
318.80 1.284
318.90 1.285
319.00 1.285
319.10 1.285
319.20 1.285
319.30 1.285
319.40 1.285
319.50 1.285
319.60 1.285
319.70 1.285
319.80 1.285
319.90 1.285
320.00 1.285
320.10 1.285
320.20 1.285
320.30 1.285
320.40 1.285
320.50 1.285
320.60 1.285
320.70 1.286
320.80 1.286
320.90 1.286
321.00 1.286
321.10 1.286
321.20 1.286
321.30 1.286
321.40 1.286
321.50 1.286
321.60 1.286
321.70 1.286
321.80 1.286
321.90 1.286
322.00 1.286
322.10 1.286
322.20 1.286
322.30 1.286
322.40 1.286
322.50 1.286
322.60 1.286
322.70 1.286
322.80 1.286
322.90 1.286
323.00 1.287
323.10 1.287
323.20 1.287
323.30 1.287
323.40 1.287
323.50 1.287
323.60 1.287
323.70 1.287
323.80 1.287
323.90 1.287
324.00 1.287
324.10 1.287
324.20 1.287
324.30 1.287
324.40 1.287
324.50 1.287
324.60 1.287
324.70 1.287
324.80 1.287
324.90 1.287
325.00 1.287
325.10 1.287
325.20 1.287
325.30 1.287
325.40 1.287
325.50 1.287
325.60 1.287
325.70 1.287
325.80 1.287
325.90 1.287
326.00 1.287
326.10 1.287
326.20 1.287
326.30 1.287
326.40 1.287
326.50 1.287
326.60 1.288
326.70 1.288
326.80 1.288
326.90 1.288
327.00 1.288
327.10 1.288
327.20 1.288
327.30 1.288
327.40 1.288
327.50 1.288
327.60 1.288
327.70 1.288
327.80 1.288
327.90 1.288
328.00 1.288
328.10 1.288
328.20 1.288
328.30 1.288
328.40 1.288
328.50 1.288
328.60 1.288
328.70 1.288
328.80 1.288
328.90 1.288
329.00 1.288
329.10 1.288
329.20 1.288
329.30 1.288
329.40 1.288
329.50 1.288
329.60 1.288
329.70 1.288
329.80 1.288
329.90 1.288
330.00 1.288
330.10 1.288
330.20 1.288
330.30 1.288
330.40 1.288
330.50 1.288
330.60 1.288
330.70 1.288
330.80 1.288
330.90 1.288
331.00 1.288
331.10 1.288
331.20 1.288
331.30 1.288
331.40 1.288
331.50 1.288
331.60 1.288
331.70 1.288
331.80 1.288
331.90 1.288
332.00 1.288
332.10 1.288
332.20 1.288
332.30 1.288
332.40 1.288
332.50 1.288
332.60 1.288
332.70 1.288
332.80 1.288
332.90 1.288
333.00 1.288
333.10 1.288
333.20 1.288
333.30 1.288
333.40 1.288
333.50 1.288
333.60 1.288
333.70 1.288
333.80 1.288
333.90 1.288
334.00 1.288
334.10 1.287
334.20 1.287
334.30 1.287
334.40 1.287
334.50 1.287
334.60 1.287
334.70 1.287
334.80 1.287
334.90 1.287
335.00 1.287
335.10 1.287
335.20 1.287
335.30 1.287
335.40 1.287
335.50 1.287
335.60 1.287
335.70 1.287
335.80 1.287
335.90 1.287
336.00 1.287
336.10 1.287
336.20 1.287
336.30 1.287
336.40 1.287
336.50 1.287
336.60 1.287
336.70 1.287
336.80 1.287
336.90 1.287
337.00 1.287
337.10 1.287
337.20 1.287
337.30 1.287
337.40 1.287
337.50 1.287
337.60 1.287
337.70 1.287
337.80 1.287
337.90 1.286
338.00 1.286
338.10 1.286
338.20 1.286
338.30 1.286
338.40 1.286
338.50 1.286
338.60 1.286
338.70 1.286
338.80 1.286
338.90 1.286
339.00 1.286
339.10 1.286
339.20 1.286
339.30 1.286
339.40 1.286
339.50 1.286
339.60 1.286
339.70 1.286
339.80 1.286
339.90 1.286
340.00 1.286
340.10 1.286
340.20 1.286
340.30 1.286
340.40 1.285
340.50 1.285
340.60 1.285
340.70 1.285
340.80 1.285
340.90 1.285
341.00 1.285
341.10 1.285
341.20 1.285
341.30 1.285
341.40 1.285
341.50 1.285
341.60 1.285
341.70 1.285
341.80 1.285
341.90 1.285
342.00 1.285
342.10 1.285
342.20 1.285
342.30 1.285
342.40 1.284
342.50 1.284
342.60 1.284
342.70 1.284
342.80 1.284
342.90 1.284
343.00 1.284
343.10 1.284
343.20 1.284
343.30 1.284
343.40 1.284
343.50 1.284
343.60 1.284
343.70 1.284
343.80 1.284
343.90 1.284
344.00 1.284
344.10 1.283
344.20 1.283
344.30 1.283
344.40 1.283
344.50 1.283
344.60 1.283
344.70 1.283
344.80 1.283
344.90 1.283
345.00 1.283
345.10 1.283
345.20 1.283
345.30 1.283
345.40 1.283
345.50 1.283
345.60 1.282
345.70 1.282
345.80 1.282
345.90 1.282
346.00 1.282
346.10 1.282
346.20 1.282
346.30 1.282
346.40 1.282
346.50 1.282
346.60 1.282
346.70 1.282
346.80 1.282
346.90 1.282
347.00 1.282
347.10 1.281
347.20 1.281
347.30 1.281
347.40 1.281
347.50 1.281
347.60 1.281
347.70 1.281
347.80 1.281
347.90 1.281
348.00 1.281
348.10 1.281
348.20 1.281
348.30 1.281
348.40 1.281
348.50 1.28
348.60 1.28
348.70 1.28
348.80 1.28
348.90 1.28
349.00 1.28
349.10 1.28
349.20 1.28
349.30 1.28
349.40 1.28
349.50 1.28
349.60 1.28
349.70 1.279
349.80 1.279
349.90 1.279
350.00 1.279
350.10 1.279
350.20 1.279
350.30 1.279
350.40 1.279
350.50 1.279
350.60 1.279
350.70 1.279
350.80 1.279
350.90 1.278
351.00 1.278
351.10 1.278
351.20 1.278
351.30 1.278
351.40 1.278
351.50 1.278
351.60 1.278
351.70 1.278
351.80 1.278
351.90 1.278
352.00 1.277
352.10 1.277
352.20 1.277
352.30 1.277
352.40 1.277
352.50 1.277
352.60 1.277
352.70 1.277
352.80 1.277
352.90 1.277
353.00 1.277
353.10 1.276
353.20 1.276
353.30 1.276
353.40 1.276
353.50 1.276
353.60 1.276
353.70 1.276
353.80 1.276
353.90 1.276
354.00 1.276
354.10 1.275
354.20 1.275
354.30 1.275
354.40 1.275
354.50 1.275
354.60 1.275
354.70 1.275
354.80 1.275
354.90 1.275
355.00 1.275
355.10 1.274
355.20 1.274
355.30 1.274
355.40 1.274
355.50 1.274
355.60 1.274
355.70 1.274
355.80 1.274
355.90 1.274
356.00 1.273
356.10 1.273
356.20 1.273
356.30 1.273
356.40 1.273
356.50 1.273
356.60 1.273
356.70 1.273
356.80 1.273
356.90 1.272
357.00 1.272
357.10 1.272
357.20 1.272
357.30 1.272
357.40 1.272
357.50 1.272
357.60 1.272
357.70 1.272
357.80 1.271
357.90 1.271
358.00 1.271
358.10 1.271
358.20 1.271
358.30 1.271
358.40 1.271
358.50 1.271
358.60 1.271
358.70 1.27
358.80 1.27
358.90 1.27
359.00 1.27
359.10 1.27
359.20 1.27
359.30 1.27
359.40 1.27
359.50 1.27
359.60 1.269
359.70 1.269
359.80 1.269
359.90 1.269
360.00 1.269
360.10 1.269
360.20 1.269
360.30 1.269
360.40 1.269
360.50 1.268
360.60 1.268
360.70 1.268
360.80 1.268
360.90 1.268
361.00 1.268
361.10 1.268
361.20 1.268
361.30 1.267
361.40 1.267
361.50 1.267
361.60 1.267
361.70 1.267
361.80 1.267
361.90 1.267
362.00 1.266
362.10 1.266
362.20 1.266
362.30 1.266
362.40 1.266
362.50 1.266
362.60 1.266
362.70 1.266
362.80 1.265
362.90 1.265
363.00 1.265
363.10 1.265
363.20 1.265
363.30 1.265
363.40 1.265
363.50 1.265
363.60 1.264
363.70 1.264
363.80 1.264
363.90 1.264
364.00 1.264
364.10 1.264
364.20 1.264
364.30 1.264
364.40 1.264
364.50 1.263
364.60 1.263
364.70 1.263
364.80 1.263
364.90 1.263
365.00 1.262
365.10 1.262
365.20 1.262
365.30 1.262
365.40 1.262
365.50 1.262
365.60 1.262
365.70 1.261
365.80 1.261
365.90 1.261
366.00 1.261
366.10 1.261
366.20 1.261
366.30 1.261
366.40 1.26
366.50 1.26
366.60 1.26
366.70 1.26
366.80 1.26
366.90 1.26
367.00 1.26
367.10 1.259
367.20 1.259
367.30 1.259
367.40 1.259
367.50 1.259
367.60 1.259
367.70 1.259
367.80 1.258
367.90 1.258
368.00 1.258
368.10 1.258
368.20 1.258
368.30 1.258
368.40 1.258
368.50 1.257
368.60 1.257
368.70 1.257
368.80 1.257
368.90 1.257
369.00 1.257
369.10 1.256
369.20 1.256
369.30 1.256
369.40 1.256
369.50 1.256
369.60 1.256
369.70 1.256
369.80 1.255
369.90 1.255
370.00 1.255
370.10 1.255
370.20 1.255
370.30 1.255
370.40 1.255
370.50 1.254
370.60 1.254
370.70 1.254
370.80 1.254
370.90 1.254
371.00 1.254
371.10 1.254
371.20 1.253
371.30 1.253
371.40 1.253
371.50 1.253
371.60 1.253
371.70 1.253
371.80 1.253
371.90 1.253
372.00 1.252
372.10 1.252
372.20 1.252
372.30 1.252
372.40 1.252
372.50 1.252
372.60 1.252
372.70 1.251
372.80 1.251
372.90 1.251
373.00 1.251
373.10 1.251
373.20 1.251
373.30 1.251
373.40 1.25
373.50 1.25
373.60 1.25
373.70 1.25
373.80 1.25
373.90 1.25
374.00 1.25
374.10 1.25
374.20 1.25
374.30 1.249
374.40 1.249
374.50 1.249
374.60 1.249
374.70 1.249
374.80 1.249
374.90 1.249
375.00 1.249
375.10 1.249
375.20 1.249
375.30 1.249
375.40 1.249
375.50 1.249
375.60 1.248
375.70 1.248
375.80 1.248
375.90 1.248
376.00 1.248
376.10 1.248
376.20 1.248
376.30 1.248
376.40 1.248
376.50 1.248
376.60 1.248
376.70 1.248
376.80 1.248
376.90 1.248
377.00 1.248
377.10 1.248
377.20 1.248
377.30 1.248
377.40 1.247
377.50 1.247
377.60 1.247
377.70 1.247
377.80 1.247
377.90 1.247
378.00 1.247
378.10 1.247
378.20 1.246
378.30 1.246
378.40 1.245
378.50 1.245
378.60 1.245
378.70 1.244
378.80 1.244
378.90 1.243
379.00 1.243
379.10 1.242
379.20 1.241
379.30 1.24
379.40 1.239
379.50 1.238
379.60 1.237
379.70 1.236
379.80 1.235
379.90 1.234
380.00 1.233
380.10 1.235
380.20 1.236
380.30 1.237
380.40 1.239
380.50 1.24
380.60 1.241
380.70 1.242
380.80 1.244
380.90 1.245
381.00 1.246
381.10 1.246
381.20 1.246
381.30 1.247
381.40 1.247
381.50 1.247
381.60 1.247
381.70 1.247
381.80 1.246
381.90 1.246
382.00 1.245
382.10 1.245
382.20 1.244
382.30 1.242
382.40 1.239
382.50 1.237
382.60 1.234
382.70 1.232
382.80 1.23
382.90 1.227
383.00 1.225
383.10 1.223
383.20 1.22
383.30 1.214
383.40 1.204
383.50 1.187
383.60 1.192
383.70 1.207
383.80 1.216
383.90 1.222
384.00 1.227
384.10 1.23
384.20 1.234
384.30 1.236
384.40 1.239
384.50 1.241
384.60 1.243
384.70 1.244
384.80 1.245
384.90 1.247
385.00 1.248
385.10 1.248
385.20 1.249
385.30 1.249
385.40 1.25
385.50 1.25
385.60 1.25
385.70 1.251
385.80 1.251
385.90 1.251
386.00 1.251
386.10 1.251
386.20 1.25
386.30 1.25
386.40 1.25
386.50 1.249
386.60 1.249
386.70 1.248
386.80 1.247
386.90 1.246
387.00 1.245
387.10 1.244
387.20 1.243
387.30 1.241
387.40 1.239
387.50 1.237
387.60 1.235
387.70 1.232
387.80 1.229
387.90 1.225
388.00 1.221
388.10 1.216
388.20 1.21
388.30 1.203
388.40 1.194
388.50 1.183
388.60 1.172
388.70 1.154
388.80 1.129
388.90 1.095
389.00 1.127
389.10 1.152
389.20 1.171
389.30 1.183
389.40 1.193
389.50 1.202
389.60 1.209
389.70 1.215
389.80 1.221
389.90 1.225
390.00 1.229
390.10 1.233
390.20 1.235
390.30 1.238
390.40 1.24
390.50 1.242
390.60 1.243
390.70 1.245
390.80 1.246
390.90 1.247
391.00 1.248
391.10 1.249
391.20 1.25
391.30 1.251
391.40 1.251
391.50 1.252
391.60 1.252
391.70 1.253
391.80 1.253
391.90 1.253
392.00 1.254
392.10 1.254
392.20 1.254
392.30 1.254
392.40 1.254
392.50 1.254
392.60 1.254
392.70 1.254
392.80 1.254
392.90 1.254
393.00 1.253
393.10 1.253
393.20 1.253
393.30 1.253
393.40 1.252
393.50 1.252
393.60 1.251
393.70 1.25
393.80 1.25
393.90 1.249
394.00 1.248
394.10 1.247
394.20 1.246
394.30 1.245
394.40 1.244
394.50 1.243
394.60 1.242
394.70 1.24
394.80 1.238
394.90 1.236
395.00 1.234
395.10 1.232
395.20 1.23
395.30 1.227
395.40 1.224
395.50 1.22
395.60 1.216
395.70 1.212
395.80 1.207
395.90 1.201
396.00 1.194
396.10 1.186
396.20 1.176
396.30 1.165
396.40 1.152
396.50 1.134
396.60 1.113
396.70 1.089
396.80 1.054
396.90 1.001
397.00 0.9301
397.10 0.9961
397.20 1.048
397.30 1.084
397.40 1.109
397.50 1.13
397.60 1.149
397.70 1.162
397.80 1.174
397.90 1.184
398.00 1.191
398.10 1.198
398.20 1.204
398.30 1.209
398.40 1.213
398.50 1.217
398.60 1.22
398.70 1.223
398.80 1.226
398.90 1.228
399.00 1.23
399.10 1.232
399.20 1.234
399.30 1.235
399.40 1.237
399.50 1.238
399.60 1.239
399.70 1.24
399.80 1.241
399.90 1.242
400.00 1.243
400.10 1.243
400.20 1.244
400.30 1.244
400.40 1.245
400.50 1.245
400.60 1.246
400.70 1.246
400.80 1.246
400.90 1.247
401.00 1.247
401.10 1.247
401.20 1.247
401.30 1.247
401.40 1.247
401.50 1.247
401.60 1.248
401.70 1.248
401.80 1.248
401.90 1.248
402.00 1.248
402.10 1.248
402.20 1.248
402.30 1.248
402.40 1.247
402.50 1.247
402.60 1.247
402.70 1.247
402.80 1.247
402.90 1.247
403.00 1.247
403.10 1.247
403.20 1.247
403.30 1.246
403.40 1.246
403.50 1.246
403.60 1.246
403.70 1.245
403.80 1.245
403.90 1.245
404.00 1.245
404.10 1.245
404.20 1.244
404.30 1.244
404.40 1.244
404.50 1.243
404.60 1.243
404.70 1.243
404.80 1.242
404.90 1.242
405.00 1.242
405.10 1.241
405.20 1.241
405.30 1.24
405.40 1.24
405.50 1.239
405.60 1.239
405.70 1.238
405.80 1.238
405.90 1.237
406.00 1.236
406.10 1.236
406.20 1.235
406.30 1.234
406.40 1.233
406.50 1.232
406.60 1.232
406.70 1.231
406.80 1.229
406.90 1.228
407.00 1.227
407.10 1.226
407.20 1.224
407.30 1.223
407.40 1.221
407.50 1.219
407.60 1.217
407.70 1.215
407.80 1.213
407.90 1.21
408.00 1.208
408.10 1.205
408.20 1.201
408.30 1.197
408.40 1.194
408.50 1.189
408.60 1.184
408.70 1.178
408.80 1.172
408.90 1.165
409.00 1.157
409.10 1.147
409.20 1.137
409.30 1.124
409.40 1.109
409.50 1.09
409.60 1.068
409.70 1.038
409.80 1
409.90 0.956
410.00 0.8865
410.10 0.8092
410.20 0.7243
410.30 0.8392
410.40 0.9252
410.50 0.9823
410.60 1.021
410.70 1.053
410.80 1.08
410.90 1.099
411.00 1.115
411.10 1.129
411.20 1.14
411.30 1.149
411.40 1.158
411.50 1.164
411.60 1.171
411.70 1.176
411.80 1.181
411.90 1.185
412.00 1.189
412.10 1.193
412.20 1.196
412.30 1.199
412.40 1.201
412.50 1.203
412.60 1.205
412.70 1.207
412.80 1.209
412.90 1.21
413.00 1.211
413.10 1.213
413.20 1.214
413.30 1.215
413.40 1.215
413.50 1.216
413.60 1.217
413.70 1.217
413.80 1.218
413.90 1.218
414.00 1.219
414.10 1.219
414.20 1.22
414.30 1.22
414.40 1.22
414.50 1.22
414.60 1.221
414.70 1.221
414.80 1.221
414.90 1.221
415.00 1.221
415.10 1.221
415.20 1.221
415.30 1.221
415.40 1.221
415.50 1.221
415.60 1.221
415.70 1.221
415.80 1.221
415.90 1.221
416.00 1.221
416.10 1.221
416.20 1.221
416.30 1.221
416.40 1.221
416.50 1.221
416.60 1.221
416.70 1.221
416.80 1.22
416.90 1.22
417.00 1.22
417.10 1.22
417.20 1.22
417.30 1.22
417.40 1.22
417.50 1.219
417.60 1.219
417.70 1.219
417.80 1.219
417.90 1.219
418.00 1.219
418.10 1.218
418.20 1.218
418.30 1.218
418.40 1.218
418.50 1.218
418.60 1.218
418.70 1.217
418.80 1.217
418.90 1.217
419.00 1.217
419.10 1.216
419.20 1.216
419.30 1.216
419.40 1.216
419.50 1.216
419.60 1.215
419.70 1.215
419.80 1.215
419.90 1.215
420.00 1.215
420.10 1.214
420.20 1.214
420.30 1.214
420.40 1.214
420.50 1.213
420.60 1.213
420.70 1.213
420.80 1.213
420.90 1.212
421.00 1.212
421.10 1.212
421.20 1.212
421.30 1.212
421.40 1.211
421.50 1.211
421.60 1.211
421.70 1.211
421.80 1.21
421.90 1.21
422.00 1.21
422.10 1.21
422.20 1.209
422.30 1.209
422.40 1.209
422.50 1.209
422.60 1.208
422.70 1.208
422.80 1.208
422.90 1.208
423.00 1.207
423.10 1.207
423.20 1.207
423.30 1.206
423.40 1.206
423.50 1.206
423.60 1.206
423.70 1.205
423.80 1.205
423.90 1.205
424.00 1.205
424.10 1.204
424.20 1.204
424.30 1.204
424.40 1.203
424.50 1.203
424.60 1.203
424.70 1.203
424.80 1.202
424.90 1.202
425.00 1.202
425.10 1.202
425.20 1.201
425.30 1.201
425.40 1.201
425.50 1.2
425.60 1.2
425.70 1.2
425.80 1.199
425.90 1.199
426.00 1.199
426.10 1.198
426.20 1.198
426.30 1.198
426.40 1.197
426.50 1.197
426.60 1.197
426.70 1.196
426.80 1.196
426.90 1.196
427.00 1.195
427.10 1.195
427.20 1.195
427.30 1.194
427.40 1.194
427.50 1.194
427.60 1.193
427.70 1.193
427.80 1.192
427.90 1.192
428.00 1.191
428.10 1.191
428.20 1.191
428.30 1.19
428.40 1.19
428.50 1.189
428.60 1.189
428.70 1.188
428.80 1.188
428.90 1.187
429.00 1.186
429.10 1.186
429.20 1.185
429.30 1.185
429.40 1.184
429.50 1.183
429.60 1.183
429.70 1.182
429.80 1.181
429.90 1.18
430.00 1.179
430.10 1.178
430.20 1.177
430.30 1.176
430.40 1.175
430.50 1.174
430.60 1.173
430.70 1.172
430.80 1.17
430.90 1.169
431.00 1.167
431.10 1.165
431.20 1.164
431.30 1.162
431.40 1.16
431.50 1.157
431.60 1.155
431.70 1.152
431.80 1.149
431.90 1.146
432.00 1.142
432.10 1.138
432.20 1.133
432.30 1.128
432.40 1.122
432.50 1.115
432.60 1.108
432.70 1.1
432.80 1.089
432.90 1.078
433.00 1.066
433.10 1.052
433.20 1.035
433.30 1.017
433.40 0.9922
433.50 0.962
433.60 0.9262
433.70 0.87
433.80 0.7967
433.90 0.7062
434.00 0.5485
434.10 0.5517
434.20 0.7155
434.30 0.8032
434.40 0.8743
434.50 0.9288
434.60 0.9634
434.70 0.9925
434.80 1.016
434.90 1.034
435.00 1.05
435.10 1.064
435.20 1.075
435.30 1.086
435.40 1.095
435.50 1.103
435.60 1.11
435.70 1.116
435.80 1.121
435.90 1.126
436.00 1.13
436.10 1.133
436.20 1.136
436.30 1.139
436.40 1.141
436.50 1.144
436.60 1.146
436.70 1.147
436.80 1.149
436.90 1.15
437.00 1.152
437.10 1.153
437.20 1.154
437.30 1.155
437.40 1.155
437.50 1.156
437.60 1.157
437.70 1.157
437.80 1.158
437.90 1.159
438.00 1.159
438.10 1.159
438.20 1.16
438.30 1.16
438.40 1.16
438.50 1.16
438.60 1.161
438.70 1.161
438.80 1.161
438.90 1.161
439.00 1.161
439.10 1.161
439.20 1.161
439.30 1.161
439.40 1.161
439.50 1.161
439.60 1.161
439.70 1.161
439.80 1.161
439.90 1.161
440.00 1.161
440.10 1.161
440.20 1.161
440.30 1.161
440.40 1.161
440.50 1.16
440.60 1.16
440.70 1.16
440.80 1.16
440.90 1.16
441.00 1.16
441.10 1.16
441.20 1.159
441.30 1.159
441.40 1.159
441.50 1.159
441.60 1.159
441.70 1.159
441.80 1.158
441.90 1.158
442.00 1.158
442.10 1.158
442.20 1.158
442.30 1.157
442.40 1.157
442.50 1.157
442.60 1.157
442.70 1.157
442.80 1.156
442.90 1.156
443.00 1.156
443.10 1.156
443.20 1.156
443.30 1.155
443.40 1.155
443.50 1.155
443.60 1.155
443.70 1.154
443.80 1.154
443.90 1.154
444.00 1.154
444.10 1.153
444.20 1.153
444.30 1.153
444.40 1.153
444.50 1.153
444.60 1.152
444.70 1.152
444.80 1.152
444.90 1.152
445.00 1.151
445.10 1.151
445.20 1.151
445.30 1.151
445.40 1.15
445.50 1.15
445.60 1.15
445.70 1.15
445.80 1.149
445.90 1.149
446.00 1.149
446.10 1.149
446.20 1.148
446.30 1.148
446.40 1.148
446.50 1.148
446.60 1.147
446.70 1.147
446.80 1.147
446.90 1.147
447.00 1.146
447.10 1.146
447.20 1.146
447.30 1.146
447.40 1.145
447.50 1.145
447.60 1.145
447.70 1.145
447.80 1.144
447.90 1.144
448.00 1.144
448.10 1.144
448.20 1.143
448.30 1.143
448.40 1.143
448.50 1.143
448.60 1.142
448.70 1.142
448.80 1.142
448.90 1.141
449.00 1.141
449.10 1.141
449.20 1.141
449.30 1.14
449.40 1.14
449.50 1.14
449.60 1.14
449.70 1.139
449.80 1.139
449.90 1.139
450.00 1.139
450.10 1.138
450.20 1.138
450.30 1.138
450.40 1.138
450.50 1.137
450.60 1.137
450.70 1.137
450.80 1.137
450.90 1.136
451.00 1.136
451.10 1.136
451.20 1.136
451.30 1.135
451.40 1.135
451.50 1.135
451.60 1.134
451.70 1.134
451.80 1.134
451.90 1.134
452.00 1.133
452.10 1.133
452.20 1.133
452.30 1.133
452.40 1.132
452.50 1.132
452.60 1.132
452.70 1.131
452.80 1.131
452.90 1.131
453.00 1.131
453.10 1.13
453.20 1.13
453.30 1.13
453.40 1.13
453.50 1.129
453.60 1.129
453.70 1.129
453.80 1.129
