# Version 2.1 - nm, norm@500 to 1, cut digits, bergeron_4500_70.dat_4500
# Wavelength(nm)  Flambda(ergs/cm^s/s/nm)
300.00 0.2379
300.10 0.2383
300.20 0.2386
300.30 0.239
300.40 0.2394
300.50 0.2398
300.60 0.2402
300.70 0.2406
300.80 0.241
300.90 0.2414
301.00 0.2417
301.10 0.2421
301.20 0.2425
301.30 0.2429
301.40 0.2433
301.50 0.2437
301.60 0.244
301.70 0.2444
301.80 0.2448
301.90 0.2452
302.00 0.2456
302.10 0.246
302.20 0.2464
302.30 0.2468
302.40 0.2471
302.50 0.2475
302.60 0.2479
302.70 0.2483
302.80 0.2487
302.90 0.2491
303.00 0.2495
303.10 0.2499
303.20 0.2503
303.30 0.2507
303.40 0.251
303.50 0.2514
303.60 0.2518
303.70 0.2522
303.80 0.2526
303.90 0.253
304.00 0.2534
304.10 0.2538
304.20 0.2542
304.30 0.2546
304.40 0.255
304.50 0.2554
304.60 0.2557
304.70 0.2561
304.80 0.2565
304.90 0.2569
305.00 0.2573
305.10 0.2577
305.20 0.2581
305.30 0.2585
305.40 0.2589
305.50 0.2593
305.60 0.2597
305.70 0.2601
305.80 0.2605
305.90 0.2609
306.00 0.2613
306.10 0.2617
306.20 0.2621
306.30 0.2625
306.40 0.2629
306.50 0.2633
306.60 0.2637
306.70 0.2641
306.80 0.2645
306.90 0.2649
307.00 0.2653
307.10 0.2657
307.20 0.2661
307.30 0.2665
307.40 0.2669
307.50 0.2672
307.60 0.2676
307.70 0.268
307.80 0.2684
307.90 0.2688
308.00 0.2692
308.10 0.2696
308.20 0.27
308.30 0.2704
308.40 0.2708
308.50 0.2713
308.60 0.2717
308.70 0.2721
308.80 0.2725
308.90 0.2729
309.00 0.2733
309.10 0.2737
309.20 0.2741
309.30 0.2745
309.40 0.2749
309.50 0.2753
309.60 0.2757
309.70 0.2761
309.80 0.2765
309.90 0.2769
310.00 0.2773
310.10 0.2777
310.20 0.2781
310.30 0.2785
310.40 0.2789
310.50 0.2793
310.60 0.2797
310.70 0.2801
310.80 0.2806
310.90 0.281
311.00 0.2814
311.10 0.2818
311.20 0.2822
311.30 0.2826
311.40 0.283
311.50 0.2834
311.60 0.2838
311.70 0.2842
311.80 0.2846
311.90 0.285
312.00 0.2854
312.10 0.2858
312.20 0.2862
312.30 0.2866
312.40 0.2871
312.50 0.2875
312.60 0.2879
312.70 0.2883
312.80 0.2887
312.90 0.2891
313.00 0.2895
313.10 0.2899
313.20 0.2904
313.30 0.2908
313.40 0.2912
313.50 0.2916
313.60 0.292
313.70 0.2924
313.80 0.2928
313.90 0.2932
314.00 0.2936
314.10 0.294
314.20 0.2944
314.30 0.2949
314.40 0.2953
314.50 0.2957
314.60 0.2961
314.70 0.2965
314.80 0.2969
314.90 0.2974
315.00 0.2978
315.10 0.2982
315.20 0.2986
315.30 0.299
315.40 0.2994
315.50 0.2998
315.60 0.3003
315.70 0.3007
315.80 0.3011
315.90 0.3015
316.00 0.3019
316.10 0.3023
316.20 0.3027
316.30 0.3032
316.40 0.3036
316.50 0.304
316.60 0.3044
316.70 0.3048
316.80 0.3053
316.90 0.3057
317.00 0.3061
317.10 0.3065
317.20 0.3069
317.30 0.3073
317.40 0.3078
317.50 0.3082
317.60 0.3086
317.70 0.309
317.80 0.3094
317.90 0.3098
318.00 0.3103
318.10 0.3107
318.20 0.3111
318.30 0.3115
318.40 0.3119
318.50 0.3124
318.60 0.3128
318.70 0.3132
318.80 0.3136
318.90 0.3141
319.00 0.3145
319.10 0.3149
319.20 0.3153
319.30 0.3157
319.40 0.3162
319.50 0.3166
319.60 0.317
319.70 0.3174
319.80 0.3178
319.90 0.3182
320.00 0.3187
320.10 0.3191
320.20 0.3195
320.30 0.3199
320.40 0.3204
320.50 0.3208
320.60 0.3212
320.70 0.3217
320.80 0.3221
320.90 0.3225
321.00 0.3229
321.10 0.3234
321.20 0.3238
321.30 0.3242
321.40 0.3246
321.50 0.325
321.60 0.3255
321.70 0.3259
321.80 0.3263
321.90 0.3267
322.00 0.3271
322.10 0.3276
322.20 0.328
322.30 0.3284
322.40 0.3289
322.50 0.3293
322.60 0.3297
322.70 0.3302
322.80 0.3306
322.90 0.331
323.00 0.3314
323.10 0.3319
323.20 0.3323
323.30 0.3327
323.40 0.3331
323.50 0.3336
323.60 0.334
323.70 0.3344
323.80 0.3348
323.90 0.3353
324.00 0.3357
324.10 0.3361
324.20 0.3365
324.30 0.337
324.40 0.3374
324.50 0.3378
324.60 0.3383
324.70 0.3387
324.80 0.3391
324.90 0.3396
325.00 0.34
325.10 0.3404
325.20 0.3409
325.30 0.3413
325.40 0.3417
325.50 0.3421
325.60 0.3426
325.70 0.343
325.80 0.3434
325.90 0.3439
326.00 0.3443
326.10 0.3447
326.20 0.3451
326.30 0.3456
326.40 0.346
326.50 0.3465
326.60 0.3469
326.70 0.3473
326.80 0.3478
326.90 0.3482
327.00 0.3486
327.10 0.3491
327.20 0.3495
327.30 0.3499
327.40 0.3504
327.50 0.3508
327.60 0.3512
327.70 0.3516
327.80 0.3521
327.90 0.3525
328.00 0.3529
328.10 0.3534
328.20 0.3538
328.30 0.3542
328.40 0.3547
328.50 0.3551
328.60 0.3556
328.70 0.356
328.80 0.3564
328.90 0.3569
329.00 0.3573
329.10 0.3577
329.20 0.3582
329.30 0.3586
329.40 0.359
329.50 0.3595
329.60 0.3599
329.70 0.3603
329.80 0.3608
329.90 0.3612
330.00 0.3616
330.10 0.3621
330.20 0.3625
330.30 0.3629
330.40 0.3634
330.50 0.3638
330.60 0.3643
330.70 0.3647
330.80 0.3651
330.90 0.3656
331.00 0.366
331.10 0.3664
331.20 0.3669
331.30 0.3673
331.40 0.3678
331.50 0.3682
331.60 0.3686
331.70 0.3691
331.80 0.3695
331.90 0.3699
332.00 0.3703
332.10 0.3708
332.20 0.3712
332.30 0.3717
332.40 0.3721
332.50 0.3726
332.60 0.373
332.70 0.3735
332.80 0.3739
332.90 0.3743
333.00 0.3748
333.10 0.3752
333.20 0.3756
333.30 0.3761
333.40 0.3765
333.50 0.377
333.60 0.3774
333.70 0.3778
333.80 0.3783
333.90 0.3787
334.00 0.3791
334.10 0.3796
334.20 0.38
334.30 0.3805
334.40 0.3809
334.50 0.3814
334.60 0.3818
334.70 0.3822
334.80 0.3827
334.90 0.3831
335.00 0.3836
335.10 0.384
335.20 0.3844
335.30 0.3849
335.40 0.3853
335.50 0.3858
335.60 0.3862
335.70 0.3866
335.80 0.3871
335.90 0.3875
336.00 0.3879
336.10 0.3884
336.20 0.3888
336.30 0.3893
336.40 0.3897
336.50 0.3902
336.60 0.3906
336.70 0.3911
336.80 0.3915
336.90 0.392
337.00 0.3924
337.10 0.3928
337.20 0.3933
337.30 0.3937
337.40 0.3942
337.50 0.3946
337.60 0.3951
337.70 0.3955
337.80 0.3959
337.90 0.3964
338.00 0.3968
338.10 0.3973
338.20 0.3977
338.30 0.3982
338.40 0.3986
338.50 0.3991
338.60 0.3995
338.70 0.3999
338.80 0.4004
338.90 0.4008
339.00 0.4013
339.10 0.4017
339.20 0.4022
339.30 0.4026
339.40 0.403
339.50 0.4035
339.60 0.4039
339.70 0.4044
339.80 0.4048
339.90 0.4053
340.00 0.4057
340.10 0.4061
340.20 0.4066
340.30 0.407
340.40 0.4075
340.50 0.4079
340.60 0.4084
340.70 0.4088
340.80 0.4093
340.90 0.4097
341.00 0.4102
341.10 0.4106
341.20 0.4111
341.30 0.4115
341.40 0.412
341.50 0.4124
341.60 0.4128
341.70 0.4133
341.80 0.4137
341.90 0.4142
342.00 0.4146
342.10 0.4151
342.20 0.4155
342.30 0.416
342.40 0.4164
342.50 0.4169
342.60 0.4173
342.70 0.4178
342.80 0.4182
342.90 0.4186
343.00 0.4191
343.10 0.4195
343.20 0.42
343.30 0.4204
343.40 0.4209
343.50 0.4213
343.60 0.4218
343.70 0.4222
343.80 0.4227
343.90 0.4231
344.00 0.4235
344.10 0.424
344.20 0.4244
344.30 0.4249
344.40 0.4253
344.50 0.4258
344.60 0.4262
344.70 0.4267
344.80 0.4271
344.90 0.4276
345.00 0.428
345.10 0.4285
345.20 0.4289
345.30 0.4294
345.40 0.4298
345.50 0.4303
345.60 0.4307
345.70 0.4312
345.80 0.4316
345.90 0.4321
346.00 0.4325
346.10 0.433
346.20 0.4334
346.30 0.4339
346.40 0.4343
346.50 0.4348
346.60 0.4352
346.70 0.4357
346.80 0.4361
346.90 0.4366
347.00 0.437
347.10 0.4375
347.20 0.4379
347.30 0.4384
347.40 0.4388
347.50 0.4393
347.60 0.4397
347.70 0.4401
347.80 0.4406
347.90 0.441
348.00 0.4415
348.10 0.4419
348.20 0.4424
348.30 0.4428
348.40 0.4433
348.50 0.4438
348.60 0.4442
348.70 0.4447
348.80 0.4451
348.90 0.4456
349.00 0.446
349.10 0.4465
349.20 0.4469
349.30 0.4474
349.40 0.4478
349.50 0.4482
349.60 0.4487
349.70 0.4491
349.80 0.4496
349.90 0.45
350.00 0.4505
350.10 0.4509
350.20 0.4514
350.30 0.4518
350.40 0.4523
350.50 0.4527
350.60 0.4532
350.70 0.4536
350.80 0.4541
350.90 0.4546
351.00 0.455
351.10 0.4555
351.20 0.4559
351.30 0.4564
351.40 0.4568
351.50 0.4572
351.60 0.4577
351.70 0.4581
351.80 0.4586
351.90 0.459
352.00 0.4595
352.10 0.4599
352.20 0.4604
352.30 0.4608
352.40 0.4613
352.50 0.4617
352.60 0.4622
352.70 0.4627
352.80 0.4631
352.90 0.4636
353.00 0.464
353.10 0.4645
353.20 0.4649
353.30 0.4654
353.40 0.4658
353.50 0.4663
353.60 0.4667
353.70 0.4671
353.80 0.4676
353.90 0.468
354.00 0.4685
354.10 0.4689
354.20 0.4694
354.30 0.4699
354.40 0.4703
354.50 0.4708
354.60 0.4712
354.70 0.4717
354.80 0.4721
354.90 0.4726
355.00 0.473
355.10 0.4735
355.20 0.4739
355.30 0.4744
355.40 0.4748
355.50 0.4753
355.60 0.4757
355.70 0.4762
355.80 0.4766
355.90 0.4771
356.00 0.4775
356.10 0.478
356.20 0.4784
356.30 0.4789
356.40 0.4793
356.50 0.4798
356.60 0.4802
356.70 0.4807
356.80 0.4811
356.90 0.4816
357.00 0.482
357.10 0.4825
357.20 0.4829
357.30 0.4834
357.40 0.4838
357.50 0.4843
357.60 0.4847
357.70 0.4852
357.80 0.4856
357.90 0.4861
358.00 0.4865
358.10 0.487
358.20 0.4874
358.30 0.4879
358.40 0.4883
358.50 0.4888
358.60 0.4893
358.70 0.4897
358.80 0.4902
358.90 0.4906
359.00 0.4911
359.10 0.4915
359.20 0.492
359.30 0.4924
359.40 0.4929
359.50 0.4933
359.60 0.4938
359.70 0.4942
359.80 0.4947
359.90 0.4951
360.00 0.4955
360.10 0.496
360.20 0.4965
360.30 0.4969
360.40 0.4974
360.50 0.4978
360.60 0.4983
360.70 0.4987
360.80 0.4992
360.90 0.4996
361.00 0.5001
361.10 0.5005
361.20 0.501
361.30 0.5014
361.40 0.5019
361.50 0.5023
361.60 0.5028
361.70 0.5032
361.80 0.5037
361.90 0.5041
362.00 0.5046
362.10 0.505
362.20 0.5055
362.30 0.5059
362.40 0.5064
362.50 0.5068
362.60 0.5073
362.70 0.5077
362.80 0.5082
362.90 0.5086
363.00 0.5091
363.10 0.5095
363.20 0.51
363.30 0.5104
363.40 0.5109
363.50 0.5113
363.60 0.5118
363.70 0.5122
363.80 0.5127
363.90 0.5131
364.00 0.5136
364.10 0.514
364.20 0.5145
364.30 0.5149
364.40 0.5154
364.50 0.5158
364.60 0.5163
364.70 0.5167
364.80 0.5172
364.90 0.5176
365.00 0.5181
365.10 0.5185
365.20 0.519
365.30 0.5194
365.40 0.5199
365.50 0.5203
365.60 0.5208
365.70 0.5212
365.80 0.5217
365.90 0.5221
366.00 0.5226
366.10 0.523
366.20 0.5235
366.30 0.5239
366.40 0.5244
366.50 0.5248
366.60 0.5253
366.70 0.5257
366.80 0.5262
366.90 0.5266
367.00 0.5271
367.10 0.5275
367.20 0.528
367.30 0.5284
367.40 0.5289
367.50 0.5293
367.60 0.5298
367.70 0.5302
367.80 0.5307
367.90 0.5311
368.00 0.5315
368.10 0.532
368.20 0.5325
368.30 0.5329
368.40 0.5334
368.50 0.5338
368.60 0.5343
368.70 0.5347
368.80 0.5352
368.90 0.5356
369.00 0.5361
369.10 0.5365
369.20 0.537
369.30 0.5374
369.40 0.5379
369.50 0.5383
369.60 0.5387
369.70 0.5392
369.80 0.5396
369.90 0.5401
370.00 0.5405
370.10 0.541
370.20 0.5414
370.30 0.5419
370.40 0.5423
370.50 0.5428
370.60 0.5432
370.70 0.5437
370.80 0.5441
370.90 0.5446
371.00 0.545
371.10 0.5455
371.20 0.5459
371.30 0.5464
371.40 0.5468
371.50 0.5473
371.60 0.5477
371.70 0.5481
371.80 0.5486
371.90 0.549
372.00 0.5495
372.10 0.5499
372.20 0.5504
372.30 0.5508
372.40 0.5513
372.50 0.5517
372.60 0.5522
372.70 0.5526
372.80 0.5531
372.90 0.5535
373.00 0.554
373.10 0.5544
373.20 0.5549
373.30 0.5553
373.40 0.5558
373.50 0.5562
373.60 0.5566
373.70 0.5571
373.80 0.5575
373.90 0.558
374.00 0.5584
374.10 0.5589
374.20 0.5593
374.30 0.5598
374.40 0.5602
374.50 0.5607
374.60 0.5611
374.70 0.5615
374.80 0.562
374.90 0.5624
375.00 0.5629
375.10 0.5633
375.20 0.5638
375.30 0.5642
375.40 0.5647
375.50 0.5651
375.60 0.5656
375.70 0.566
375.80 0.5664
375.90 0.5669
376.00 0.5673
376.10 0.5678
376.20 0.5682
376.30 0.5687
376.40 0.5691
376.50 0.5695
376.60 0.57
376.70 0.5704
376.80 0.5709
376.90 0.5713
377.00 0.5718
377.10 0.5722
377.20 0.5727
377.30 0.5731
377.40 0.5735
377.50 0.574
377.60 0.5744
377.70 0.5749
377.80 0.5753
377.90 0.5757
378.00 0.5762
378.10 0.5766
378.20 0.5771
378.30 0.5775
378.40 0.578
378.50 0.5784
378.60 0.5789
378.70 0.5793
378.80 0.5797
378.90 0.5802
379.00 0.5806
379.10 0.5811
379.20 0.5815
379.30 0.582
379.40 0.5824
379.50 0.5828
379.60 0.5833
379.70 0.5837
379.80 0.5842
379.90 0.5846
380.00 0.585
380.10 0.5855
380.20 0.5859
380.30 0.5864
380.40 0.5868
380.50 0.5873
380.60 0.5877
380.70 0.5881
380.80 0.5886
380.90 0.589
381.00 0.5895
381.10 0.5899
381.20 0.5903
381.30 0.5908
381.40 0.5912
381.50 0.5917
381.60 0.5921
381.70 0.5925
381.80 0.593
381.90 0.5934
382.00 0.5939
382.10 0.5943
382.20 0.5947
382.30 0.5952
382.40 0.5956
382.50 0.5961
382.60 0.5965
382.70 0.597
382.80 0.5974
382.90 0.5978
383.00 0.5983
383.10 0.5987
383.20 0.5992
383.30 0.5996
383.40 0.6
383.50 0.6005
383.60 0.6009
383.70 0.6013
383.80 0.6018
383.90 0.6022
384.00 0.6027
384.10 0.6031
384.20 0.6035
384.30 0.604
384.40 0.6044
384.50 0.6049
384.60 0.6053
384.70 0.6057
384.80 0.6062
384.90 0.6066
385.00 0.607
385.10 0.6075
385.20 0.6079
385.30 0.6083
385.40 0.6088
385.50 0.6092
385.60 0.6097
385.70 0.6101
385.80 0.6105
385.90 0.611
386.00 0.6114
386.10 0.6118
386.20 0.6123
386.30 0.6127
386.40 0.6132
386.50 0.6136
386.60 0.614
386.70 0.6145
386.80 0.6149
386.90 0.6153
387.00 0.6158
387.10 0.6162
387.20 0.6166
387.30 0.6171
387.40 0.6175
387.50 0.618
387.60 0.6184
387.70 0.6188
387.80 0.6193
387.90 0.6197
388.00 0.6201
388.10 0.6206
388.20 0.621
388.30 0.6214
388.40 0.6219
388.50 0.6223
388.60 0.6227
388.70 0.6232
388.80 0.6236
388.90 0.624
389.00 0.6245
389.10 0.6249
389.20 0.6253
389.30 0.6258
389.40 0.6262
389.50 0.6266
389.60 0.6271
389.70 0.6275
389.80 0.6279
389.90 0.6284
390.00 0.6288
390.10 0.6292
390.20 0.6297
390.30 0.6301
390.40 0.6305
390.50 0.631
390.60 0.6314
390.70 0.6318
390.80 0.6323
390.90 0.6327
391.00 0.6331
391.10 0.6335
391.20 0.634
391.30 0.6344
391.40 0.6348
391.50 0.6353
391.60 0.6357
391.70 0.6361
391.80 0.6366
391.90 0.637
392.00 0.6374
392.10 0.6379
392.20 0.6383
392.30 0.6387
392.40 0.6391
392.50 0.6396
392.60 0.64
392.70 0.6404
392.80 0.6409
392.90 0.6413
393.00 0.6417
393.10 0.6422
393.20 0.6426
393.30 0.643
393.40 0.6434
393.50 0.6439
393.60 0.6443
393.70 0.6447
393.80 0.6452
393.90 0.6456
394.00 0.646
394.10 0.6464
394.20 0.6469
394.30 0.6473
394.40 0.6477
394.50 0.6481
394.60 0.6486
394.70 0.649
394.80 0.6494
394.90 0.6499
395.00 0.6503
395.10 0.6507
395.20 0.6511
395.30 0.6516
395.40 0.652
395.50 0.6524
395.60 0.6528
395.70 0.6533
395.80 0.6537
395.90 0.6541
396.00 0.6545
396.10 0.655
396.20 0.6554
396.30 0.6558
396.40 0.6563
396.50 0.6567
396.60 0.6571
396.70 0.6575
396.80 0.658
396.90 0.6584
397.00 0.6588
397.10 0.6592
397.20 0.6597
397.30 0.6601
397.40 0.6605
397.50 0.6609
397.60 0.6613
397.70 0.6618
397.80 0.6622
397.90 0.6626
398.00 0.663
398.10 0.6635
398.20 0.6639
398.30 0.6643
398.40 0.6647
398.50 0.6652
398.60 0.6656
398.70 0.666
398.80 0.6664
398.90 0.6668
399.00 0.6673
399.10 0.6677
399.20 0.6681
399.30 0.6685
399.40 0.6689
399.50 0.6694
399.60 0.6698
399.70 0.6702
399.80 0.6706
399.90 0.6711
400.00 0.6715
400.10 0.6719
400.20 0.6723
400.30 0.6727
400.40 0.6731
400.50 0.6736
400.60 0.674
400.70 0.6744
400.80 0.6748
400.90 0.6753
401.00 0.6757
401.10 0.6761
401.20 0.6765
401.30 0.6769
401.40 0.6774
401.50 0.6778
401.60 0.6782
401.70 0.6786
401.80 0.679
401.90 0.6794
402.00 0.6799
402.10 0.6803
402.20 0.6807
402.30 0.6811
402.40 0.6815
402.50 0.6819
402.60 0.6824
402.70 0.6828
402.80 0.6832
402.90 0.6836
403.00 0.684
403.10 0.6844
403.20 0.6849
403.30 0.6853
403.40 0.6857
403.50 0.6861
403.60 0.6865
403.70 0.6869
403.80 0.6874
403.90 0.6878
404.00 0.6882
404.10 0.6886
404.20 0.689
404.30 0.6894
404.40 0.6898
404.50 0.6903
404.60 0.6907
404.70 0.6911
404.80 0.6915
404.90 0.6919
405.00 0.6923
405.10 0.6927
405.20 0.6932
405.30 0.6936
405.40 0.694
405.50 0.6944
405.60 0.6948
405.70 0.6952
405.80 0.6956
405.90 0.696
406.00 0.6965
406.10 0.6969
406.20 0.6973
406.30 0.6977
406.40 0.6981
406.50 0.6985
406.60 0.6989
406.70 0.6993
406.80 0.6997
406.90 0.7002
407.00 0.7006
407.10 0.701
407.20 0.7014
407.30 0.7018
407.40 0.7022
407.50 0.7026
407.60 0.703
407.70 0.7034
407.80 0.7038
407.90 0.7043
408.00 0.7047
408.10 0.7051
408.20 0.7055
408.30 0.7059
408.40 0.7063
408.50 0.7067
408.60 0.7071
408.70 0.7075
408.80 0.7079
408.90 0.7083
409.00 0.7087
409.10 0.7091
409.20 0.7095
409.30 0.7099
409.40 0.7103
409.50 0.7107
409.60 0.7111
409.70 0.7115
409.80 0.7118
409.90 0.7122
410.00 0.7124
410.10 0.7125
410.20 0.7127
410.30 0.7134
410.40 0.7141
410.50 0.7147
410.60 0.7151
410.70 0.7156
410.80 0.716
410.90 0.7164
411.00 0.7168
411.10 0.7172
411.20 0.7177
411.30 0.7181
411.40 0.7185
411.50 0.7189
411.60 0.7193
411.70 0.7197
411.80 0.7201
411.90 0.7205
412.00 0.7209
412.10 0.7213
412.20 0.7217
412.30 0.7221
412.40 0.7225
412.50 0.7229
412.60 0.7233
412.70 0.7237
412.80 0.7241
412.90 0.7245
413.00 0.7249
413.10 0.7253
413.20 0.7257
413.30 0.7261
413.40 0.7265
413.50 0.7269
413.60 0.7273
413.70 0.7277
413.80 0.7281
413.90 0.7285
414.00 0.7289
414.10 0.7293
414.20 0.7297
414.30 0.7301
414.40 0.7305
414.50 0.7309
414.60 0.7313
414.70 0.7317
414.80 0.7321
414.90 0.7325
415.00 0.7329
415.10 0.7333
415.20 0.7337
415.30 0.7341
415.40 0.7345
415.50 0.7349
415.60 0.7353
415.70 0.7357
415.80 0.7361
415.90 0.7365
416.00 0.7369
416.10 0.7373
416.20 0.7377
416.30 0.7381
416.40 0.7385
416.50 0.7389
416.60 0.7393
416.70 0.7397
416.80 0.7401
416.90 0.7405
417.00 0.7408
417.10 0.7412
417.20 0.7416
417.30 0.742
417.40 0.7424
417.50 0.7428
417.60 0.7432
417.70 0.7436
417.80 0.744
417.90 0.7444
418.00 0.7448
418.10 0.7452
418.20 0.7456
418.30 0.746
418.40 0.7464
418.50 0.7468
418.60 0.7471
418.70 0.7475
418.80 0.7479
418.90 0.7483
419.00 0.7487
419.10 0.7491
419.20 0.7495
419.30 0.7499
419.40 0.7503
419.50 0.7507
419.60 0.7511
419.70 0.7514
419.80 0.7518
419.90 0.7522
420.00 0.7526
420.10 0.753
420.20 0.7534
420.30 0.7538
420.40 0.7542
420.50 0.7546
420.60 0.755
420.70 0.7553
420.80 0.7557
420.90 0.7561
421.00 0.7565
421.10 0.7569
421.20 0.7573
421.30 0.7577
421.40 0.7581
421.50 0.7584
421.60 0.7588
421.70 0.7592
421.80 0.7596
421.90 0.76
422.00 0.7604
422.10 0.7608
422.20 0.7611
422.30 0.7615
422.40 0.7619
422.50 0.7623
422.60 0.7627
422.70 0.7631
422.80 0.7635
422.90 0.7638
423.00 0.7642
423.10 0.7646
423.20 0.765
423.30 0.7654
423.40 0.7658
423.50 0.7661
423.60 0.7665
423.70 0.7669
423.80 0.7673
423.90 0.7677
424.00 0.7681
424.10 0.7684
424.20 0.7688
424.30 0.7692
424.40 0.7696
424.50 0.77
424.60 0.7703
424.70 0.7707
424.80 0.7711
424.90 0.7715
425.00 0.7719
425.10 0.7723
425.20 0.7726
425.30 0.773
425.40 0.7734
425.50 0.7738
425.60 0.7742
425.70 0.7745
425.80 0.7749
425.90 0.7753
426.00 0.7757
426.10 0.776
426.20 0.7764
426.30 0.7768
426.40 0.7772
426.50 0.7776
426.60 0.7779
426.70 0.7783
426.80 0.7787
426.90 0.7791
427.00 0.7795
427.10 0.7798
427.20 0.7802
427.30 0.7806
427.40 0.781
427.50 0.7813
427.60 0.7817
427.70 0.7821
427.80 0.7825
427.90 0.7828
428.00 0.7832
428.10 0.7836
428.20 0.784
428.30 0.7843
428.40 0.7847
428.50 0.7851
428.60 0.7855
428.70 0.7858
428.80 0.7862
428.90 0.7866
429.00 0.787
429.10 0.7873
429.20 0.7877
429.30 0.7881
429.40 0.7884
429.50 0.7888
429.60 0.7892
429.70 0.7896
429.80 0.7899
429.90 0.7903
430.00 0.7907
430.10 0.791
430.20 0.7914
430.30 0.7918
430.40 0.7922
430.50 0.7925
430.60 0.7929
430.70 0.7933
430.80 0.7936
430.90 0.794
431.00 0.7944
431.10 0.7947
431.20 0.7951
431.30 0.7955
431.40 0.7959
431.50 0.7962
431.60 0.7966
431.70 0.797
431.80 0.7973
431.90 0.7977
432.00 0.7981
432.10 0.7984
432.20 0.7988
432.30 0.7992
432.40 0.7995
432.50 0.7999
432.60 0.8002
432.70 0.8006
432.80 0.801
432.90 0.8013
433.00 0.8017
433.10 0.802
433.20 0.8024
433.30 0.8027
433.40 0.803
433.50 0.8034
433.60 0.8036
433.70 0.8038
433.80 0.8038
433.90 0.8036
434.00 0.8028
434.10 0.8032
434.20 0.8048
434.30 0.8057
434.40 0.8064
434.50 0.8069
434.60 0.8074
434.70 0.8078
434.80 0.8082
434.90 0.8086
435.00 0.8089
435.10 0.8093
435.20 0.8097
435.30 0.8101
435.40 0.8104
435.50 0.8108
435.60 0.8112
435.70 0.8115
435.80 0.8119
435.90 0.8123
436.00 0.8126
436.10 0.813
436.20 0.8133
436.30 0.8137
436.40 0.8141
436.50 0.8144
436.60 0.8148
436.70 0.8151
436.80 0.8155
436.90 0.8159
437.00 0.8162
437.10 0.8166
437.20 0.8169
437.30 0.8173
437.40 0.8176
437.50 0.818
437.60 0.8184
437.70 0.8187
437.80 0.8191
437.90 0.8194
438.00 0.8198
438.10 0.8201
438.20 0.8205
438.30 0.8209
438.40 0.8212
438.50 0.8216
438.60 0.8219
438.70 0.8223
438.80 0.8226
438.90 0.823
439.00 0.8233
439.10 0.8237
439.20 0.824
439.30 0.8244
439.40 0.8248
439.50 0.8251
439.60 0.8255
439.70 0.8258
439.80 0.8262
439.90 0.8265
440.00 0.8269
440.10 0.8272
440.20 0.8276
440.30 0.8279
440.40 0.8283
440.50 0.8286
440.60 0.829
440.70 0.8293
440.80 0.8297
440.90 0.83
441.00 0.8304
441.10 0.8307
441.20 0.8311
441.30 0.8314
441.40 0.8318
441.50 0.8321
441.60 0.8325
441.70 0.8328
441.80 0.8332
441.90 0.8335
442.00 0.8339
442.10 0.8342
442.20 0.8346
442.30 0.8349
442.40 0.8353
442.50 0.8356
442.60 0.836
442.70 0.8363
442.80 0.8367
442.90 0.837
443.00 0.8373
