# Version 2.1 - nm, norm@500 to 1, cut digits, bergeron_20000_80.dat_20000
# Wavelength(nm)  Flambda(ergs/cm^s/s/nm)
300.00 3.287
300.10 3.284
300.20 3.281
300.30 3.278
300.40 3.275
300.50 3.272
300.60 3.269
300.70 3.265
300.80 3.262
300.90 3.259
301.00 3.256
301.10 3.253
301.20 3.25
301.30 3.247
301.40 3.244
301.50 3.241
301.60 3.238
301.70 3.234
301.80 3.231
301.90 3.228
302.00 3.225
302.10 3.222
302.20 3.219
302.30 3.216
302.40 3.213
302.50 3.21
302.60 3.207
302.70 3.204
302.80 3.201
302.90 3.198
303.00 3.195
303.10 3.192
303.20 3.189
303.30 3.186
303.40 3.183
303.50 3.18
303.60 3.177
303.70 3.174
303.80 3.171
303.90 3.168
304.00 3.165
304.10 3.162
304.20 3.159
304.30 3.156
304.40 3.153
304.50 3.15
304.60 3.147
304.70 3.144
304.80 3.141
304.90 3.138
305.00 3.135
305.10 3.132
305.20 3.129
305.30 3.126
305.40 3.123
305.50 3.12
305.60 3.117
305.70 3.114
305.80 3.111
305.90 3.108
306.00 3.106
306.10 3.103
306.20 3.1
306.30 3.097
306.40 3.094
306.50 3.091
306.60 3.088
306.70 3.085
306.80 3.082
306.90 3.079
307.00 3.076
307.10 3.074
307.20 3.071
307.30 3.068
307.40 3.065
307.50 3.062
307.60 3.059
307.70 3.056
307.80 3.054
307.90 3.051
308.00 3.048
308.10 3.045
308.20 3.042
308.30 3.039
308.40 3.036
308.50 3.034
308.60 3.031
308.70 3.028
308.80 3.025
308.90 3.022
309.00 3.019
309.10 3.017
309.20 3.014
309.30 3.011
309.40 3.008
309.50 3.005
309.60 3.003
309.70 3
309.80 2.997
309.90 2.994
310.00 2.992
310.10 2.989
310.20 2.986
310.30 2.983
310.40 2.98
310.50 2.978
310.60 2.975
310.70 2.972
310.80 2.969
310.90 2.967
311.00 2.964
311.10 2.961
311.20 2.958
311.30 2.956
311.40 2.953
311.50 2.95
311.60 2.947
311.70 2.945
311.80 2.942
311.90 2.939
312.00 2.937
312.10 2.934
312.20 2.931
312.30 2.928
312.40 2.926
312.50 2.923
312.60 2.92
312.70 2.918
312.80 2.915
312.90 2.912
313.00 2.91
313.10 2.907
313.20 2.904
313.30 2.902
313.40 2.899
313.50 2.896
313.60 2.894
313.70 2.891
313.80 2.888
313.90 2.886
314.00 2.883
314.10 2.88
314.20 2.878
314.30 2.875
314.40 2.872
314.50 2.87
314.60 2.867
314.70 2.864
314.80 2.862
314.90 2.859
315.00 2.857
315.10 2.854
315.20 2.851
315.30 2.849
315.40 2.846
315.50 2.844
315.60 2.841
315.70 2.838
315.80 2.836
315.90 2.833
316.00 2.831
316.10 2.828
316.20 2.825
316.30 2.823
316.40 2.82
316.50 2.818
316.60 2.815
316.70 2.812
316.80 2.81
316.90 2.807
317.00 2.805
317.10 2.802
317.20 2.8
317.30 2.797
317.40 2.795
317.50 2.792
317.60 2.79
317.70 2.787
317.80 2.784
317.90 2.782
318.00 2.779
318.10 2.777
318.20 2.774
318.30 2.772
318.40 2.769
318.50 2.767
318.60 2.764
318.70 2.762
318.80 2.759
318.90 2.757
319.00 2.754
319.10 2.752
319.20 2.749
319.30 2.747
319.40 2.744
319.50 2.742
319.60 2.739
319.70 2.737
319.80 2.734
319.90 2.732
320.00 2.729
320.10 2.727
320.20 2.725
320.30 2.722
320.40 2.72
320.50 2.717
320.60 2.715
320.70 2.712
320.80 2.71
320.90 2.707
321.00 2.705
321.10 2.702
321.20 2.7
321.30 2.698
321.40 2.695
321.50 2.693
321.60 2.69
321.70 2.688
321.80 2.685
321.90 2.683
322.00 2.681
322.10 2.678
322.20 2.676
322.30 2.673
322.40 2.671
322.50 2.669
322.60 2.666
322.70 2.664
322.80 2.661
322.90 2.659
323.00 2.657
323.10 2.654
323.20 2.652
323.30 2.65
323.40 2.647
323.50 2.645
323.60 2.642
323.70 2.64
323.80 2.638
323.90 2.635
324.00 2.633
324.10 2.631
324.20 2.628
324.30 2.626
324.40 2.624
324.50 2.621
324.60 2.619
324.70 2.617
324.80 2.614
324.90 2.612
325.00 2.61
325.10 2.607
325.20 2.605
325.30 2.603
325.40 2.6
325.50 2.598
325.60 2.596
325.70 2.593
325.80 2.591
325.90 2.589
326.00 2.586
326.10 2.584
326.20 2.582
326.30 2.58
326.40 2.577
326.50 2.575
326.60 2.573
326.70 2.57
326.80 2.568
326.90 2.566
327.00 2.564
327.10 2.561
327.20 2.559
327.30 2.557
327.40 2.554
327.50 2.552
327.60 2.55
327.70 2.548
327.80 2.545
327.90 2.543
328.00 2.541
328.10 2.539
328.20 2.536
328.30 2.534
328.40 2.532
328.50 2.53
328.60 2.528
328.70 2.525
328.80 2.523
328.90 2.521
329.00 2.519
329.10 2.516
329.20 2.514
329.30 2.512
329.40 2.51
329.50 2.508
329.60 2.505
329.70 2.503
329.80 2.501
329.90 2.499
330.00 2.496
330.10 2.494
330.20 2.492
330.30 2.49
330.40 2.488
330.50 2.486
330.60 2.483
330.70 2.481
330.80 2.479
330.90 2.477
331.00 2.475
331.10 2.472
331.20 2.47
331.30 2.468
331.40 2.466
331.50 2.464
331.60 2.462
331.70 2.459
331.80 2.457
331.90 2.455
332.00 2.453
332.10 2.451
332.20 2.449
332.30 2.447
332.40 2.444
332.50 2.442
332.60 2.44
332.70 2.438
332.80 2.436
332.90 2.434
333.00 2.432
333.10 2.43
333.20 2.427
333.30 2.425
333.40 2.423
333.50 2.421
333.60 2.419
333.70 2.417
333.80 2.415
333.90 2.413
334.00 2.411
334.10 2.408
334.20 2.406
334.30 2.404
334.40 2.402
334.50 2.4
334.60 2.398
334.70 2.396
334.80 2.394
334.90 2.392
335.00 2.39
335.10 2.388
335.20 2.386
335.30 2.383
335.40 2.381
335.50 2.379
335.60 2.377
335.70 2.375
335.80 2.373
335.90 2.371
336.00 2.369
336.10 2.367
336.20 2.365
336.30 2.363
336.40 2.361
336.50 2.359
336.60 2.357
336.70 2.355
336.80 2.353
336.90 2.351
337.00 2.349
337.10 2.347
337.20 2.345
337.30 2.343
337.40 2.341
337.50 2.339
337.60 2.336
337.70 2.334
337.80 2.332
337.90 2.33
338.00 2.328
338.10 2.326
338.20 2.324
338.30 2.322
338.40 2.32
338.50 2.318
338.60 2.316
338.70 2.314
338.80 2.312
338.90 2.31
339.00 2.308
339.10 2.306
339.20 2.305
339.30 2.303
339.40 2.301
339.50 2.299
339.60 2.297
339.70 2.295
339.80 2.293
339.90 2.291
340.00 2.289
340.10 2.287
340.20 2.285
340.30 2.283
340.40 2.281
340.50 2.279
340.60 2.277
340.70 2.275
340.80 2.273
340.90 2.271
341.00 2.269
341.10 2.267
341.20 2.265
341.30 2.263
341.40 2.261
341.50 2.26
341.60 2.258
341.70 2.256
341.80 2.254
341.90 2.252
342.00 2.25
342.10 2.248
342.20 2.246
342.30 2.244
342.40 2.242
342.50 2.24
342.60 2.238
342.70 2.237
342.80 2.235
342.90 2.233
343.00 2.231
343.10 2.229
343.20 2.227
343.30 2.225
343.40 2.223
343.50 2.221
343.60 2.219
343.70 2.218
343.80 2.216
343.90 2.214
344.00 2.212
344.10 2.21
344.20 2.208
344.30 2.206
344.40 2.204
344.50 2.203
344.60 2.201
344.70 2.199
344.80 2.197
344.90 2.195
345.00 2.193
345.10 2.191
345.20 2.19
345.30 2.188
345.40 2.186
345.50 2.184
345.60 2.182
345.70 2.18
345.80 2.178
345.90 2.177
346.00 2.175
346.10 2.173
346.20 2.171
346.30 2.169
346.40 2.167
346.50 2.166
346.60 2.164
346.70 2.162
346.80 2.16
346.90 2.158
347.00 2.156
347.10 2.155
347.20 2.153
347.30 2.151
347.40 2.149
347.50 2.147
347.60 2.146
347.70 2.144
347.80 2.142
347.90 2.14
348.00 2.138
348.10 2.137
348.20 2.135
348.30 2.133
348.40 2.131
348.50 2.129
348.60 2.128
348.70 2.126
348.80 2.124
348.90 2.122
349.00 2.121
349.10 2.119
349.20 2.117
349.30 2.115
349.40 2.113
349.50 2.112
349.60 2.11
349.70 2.108
349.80 2.106
349.90 2.105
350.00 2.103
350.10 2.101
350.20 2.099
350.30 2.098
350.40 2.096
350.50 2.094
350.60 2.092
350.70 2.091
350.80 2.089
350.90 2.087
351.00 2.085
351.10 2.084
351.20 2.082
351.30 2.08
351.40 2.078
351.50 2.077
351.60 2.075
351.70 2.073
351.80 2.071
351.90 2.07
352.00 2.068
352.10 2.066
352.20 2.065
352.30 2.063
352.40 2.061
352.50 2.059
352.60 2.058
352.70 2.056
352.80 2.054
352.90 2.053
353.00 2.051
353.10 2.049
353.20 2.047
353.30 2.046
353.40 2.044
353.50 2.042
353.60 2.041
353.70 2.039
353.80 2.037
353.90 2.036
354.00 2.034
354.10 2.032
354.20 2.031
354.30 2.029
354.40 2.027
354.50 2.026
354.60 2.024
354.70 2.022
354.80 2.021
354.90 2.019
355.00 2.017
355.10 2.015
355.20 2.014
355.30 2.012
355.40 2.011
355.50 2.009
355.60 2.007
355.70 2.006
355.80 2.004
355.90 2.002
356.00 2.001
356.10 1.999
356.20 1.997
356.30 1.996
356.40 1.994
356.50 1.992
356.60 1.991
356.70 1.989
356.80 1.987
356.90 1.986
357.00 1.984
357.10 1.983
357.20 1.981
357.30 1.979
357.40 1.978
357.50 1.976
357.60 1.974
357.70 1.973
357.80 1.971
357.90 1.97
358.00 1.968
358.10 1.966
358.20 1.965
358.30 1.963
358.40 1.961
358.50 1.96
358.60 1.958
358.70 1.957
358.80 1.955
358.90 1.953
359.00 1.952
359.10 1.95
359.20 1.949
359.30 1.947
359.40 1.945
359.50 1.944
359.60 1.942
359.70 1.941
359.80 1.939
359.90 1.938
360.00 1.936
360.10 1.934
360.20 1.933
360.30 1.931
360.40 1.93
360.50 1.928
360.60 1.927
360.70 1.925
360.80 1.923
360.90 1.922
361.00 1.92
361.10 1.919
361.20 1.917
361.30 1.916
361.40 1.914
361.50 1.912
361.60 1.911
361.70 1.909
361.80 1.908
361.90 1.906
362.00 1.905
362.10 1.903
362.20 1.902
362.30 1.9
362.40 1.898
362.50 1.897
362.60 1.895
362.70 1.894
362.80 1.892
362.90 1.891
363.00 1.889
363.10 1.888
363.20 1.886
363.30 1.885
363.40 1.883
363.50 1.882
363.60 1.88
363.70 1.879
363.80 1.877
363.90 1.876
364.00 1.874
364.10 1.873
364.20 1.871
364.30 1.869
364.40 1.868
364.50 1.866
364.60 1.865
364.70 1.863
364.80 1.862
364.90 1.86
365.00 1.859
365.10 1.857
365.20 1.856
365.30 1.854
365.40 1.853
365.50 1.851
365.60 1.85
365.70 1.848
365.80 1.847
365.90 1.845
366.00 1.844
366.10 1.842
366.20 1.84
366.30 1.839
366.40 1.837
366.50 1.835
366.60 1.833
366.70 1.831
366.80 1.829
366.90 1.828
367.00 1.826
367.10 1.824
367.20 1.822
367.30 1.82
367.40 1.819
367.50 1.817
367.60 1.815
367.70 1.813
367.80 1.811
367.90 1.81
368.00 1.808
368.10 1.806
368.20 1.804
368.30 1.803
368.40 1.801
368.50 1.799
368.60 1.797
368.70 1.796
368.80 1.794
368.90 1.792
369.00 1.79
369.10 1.789
369.20 1.787
369.30 1.785
369.40 1.784
369.50 1.782
369.60 1.78
369.70 1.778
369.80 1.777
369.90 1.775
370.00 1.773
370.10 1.772
370.20 1.77
370.30 1.768
370.40 1.767
370.50 1.765
370.60 1.763
370.70 1.762
370.80 1.76
370.90 1.759
371.00 1.757
371.10 1.755
371.20 1.754
371.30 1.752
371.40 1.751
371.50 1.749
371.60 1.747
371.70 1.746
371.80 1.744
371.90 1.742
372.00 1.741
372.10 1.74
372.20 1.738
372.30 1.737
372.40 1.736
372.50 1.734
372.60 1.733
372.70 1.732
372.80 1.731
372.90 1.729
373.00 1.728
373.10 1.727
373.20 1.725
373.30 1.724
373.40 1.723
373.50 1.722
373.60 1.72
373.70 1.719
373.80 1.718
373.90 1.717
374.00 1.715
374.10 1.714
374.20 1.713
374.30 1.712
374.40 1.711
374.50 1.711
374.60 1.71
374.70 1.709
374.80 1.708
374.90 1.707
375.00 1.706
375.10 1.705
375.20 1.704
375.30 1.703
375.40 1.702
375.50 1.701
375.60 1.7
375.70 1.699
375.80 1.698
375.90 1.697
376.00 1.696
376.10 1.695
376.20 1.693
376.30 1.691
376.40 1.689
376.50 1.687
376.60 1.686
376.70 1.684
376.80 1.682
376.90 1.68
377.00 1.679
377.10 1.679
377.20 1.68
377.30 1.681
377.40 1.681
377.50 1.682
377.60 1.683
377.70 1.683
377.80 1.684
377.90 1.685
378.00 1.685
378.10 1.684
378.20 1.682
378.30 1.68
378.40 1.679
378.50 1.677
378.60 1.675
378.70 1.674
378.80 1.672
378.90 1.67
379.00 1.669
379.10 1.666
379.20 1.664
379.30 1.662
379.40 1.66
379.50 1.657
379.60 1.655
379.70 1.653
379.80 1.651
379.90 1.649
380.00 1.646
380.10 1.649
380.20 1.652
380.30 1.655
380.40 1.658
380.50 1.661
380.60 1.664
380.70 1.667
380.80 1.67
380.90 1.673
381.00 1.676
381.10 1.676
381.20 1.676
381.30 1.676
381.40 1.676
381.50 1.675
381.60 1.673
381.70 1.671
381.80 1.668
381.90 1.664
382.00 1.66
382.10 1.656
382.20 1.65
382.30 1.642
382.40 1.634
382.50 1.625
382.60 1.617
382.70 1.609
382.80 1.601
382.90 1.592
383.00 1.584
383.10 1.576
383.20 1.568
383.30 1.558
383.40 1.548
383.50 1.54
383.60 1.542
383.70 1.551
383.80 1.561
383.90 1.571
384.00 1.581
384.10 1.592
384.20 1.602
384.30 1.611
384.40 1.62
384.50 1.629
384.60 1.637
384.70 1.645
384.80 1.652
384.90 1.658
385.00 1.664
385.10 1.669
385.20 1.674
385.30 1.678
385.40 1.681
385.50 1.683
385.60 1.685
385.70 1.686
385.80 1.687
385.90 1.686
386.00 1.685
386.10 1.683
386.20 1.68
386.30 1.677
386.40 1.672
386.50 1.668
386.60 1.661
386.70 1.655
386.80 1.647
386.90 1.639
387.00 1.629
387.10 1.62
387.20 1.609
387.30 1.597
387.40 1.585
387.50 1.571
387.60 1.557
387.70 1.543
387.80 1.527
387.90 1.511
388.00 1.494
388.10 1.476
388.20 1.459
388.30 1.44
388.40 1.422
388.50 1.403
388.60 1.384
388.70 1.366
388.80 1.351
388.90 1.338
389.00 1.349
389.10 1.363
389.20 1.38
389.30 1.399
389.40 1.417
389.50 1.435
389.60 1.453
389.70 1.471
389.80 1.489
389.90 1.506
390.00 1.522
390.10 1.538
390.20 1.554
390.30 1.569
390.40 1.583
390.50 1.597
390.60 1.61
390.70 1.623
390.80 1.634
390.90 1.646
391.00 1.656
391.10 1.666
391.20 1.675
391.30 1.684
391.40 1.692
391.50 1.699
391.60 1.706
391.70 1.712
391.80 1.718
391.90 1.723
392.00 1.727
392.10 1.73
392.20 1.733
392.30 1.735
392.40 1.737
392.50 1.738
392.60 1.738
392.70 1.737
392.80 1.736
392.90 1.734
393.00 1.732
393.10 1.729
393.20 1.725
393.30 1.721
393.40 1.716
393.50 1.709
393.60 1.703
393.70 1.696
393.80 1.688
393.90 1.679
394.00 1.67
394.10 1.659
394.20 1.648
394.30 1.637
394.40 1.625
394.50 1.612
394.60 1.598
394.70 1.583
394.80 1.568
394.90 1.553
395.00 1.536
395.10 1.518
395.20 1.501
395.30 1.482
395.40 1.462
395.50 1.443
395.60 1.422
395.70 1.401
395.80 1.379
395.90 1.356
396.00 1.333
396.10 1.31
396.20 1.286
396.30 1.261
396.40 1.236
396.50 1.21
396.60 1.184
396.70 1.157
396.80 1.128
396.90 1.097
397.00 1.065
397.10 1.093
397.20 1.121
397.30 1.149
397.40 1.175
397.50 1.2
397.60 1.225
397.70 1.248
397.80 1.272
397.90 1.295
398.00 1.317
398.10 1.339
398.20 1.36
398.30 1.38
398.40 1.4
398.50 1.42
398.60 1.439
398.70 1.458
398.80 1.476
398.90 1.493
399.00 1.51
399.10 1.526
399.20 1.541
399.30 1.557
399.40 1.571
399.50 1.585
399.60 1.599
399.70 1.612
399.80 1.624
399.90 1.636
400.00 1.648
400.10 1.659
400.20 1.669
400.30 1.679
400.40 1.689
400.50 1.698
400.60 1.707
400.70 1.715
400.80 1.723
400.90 1.73
401.00 1.737
401.10 1.744
401.20 1.75
401.30 1.756
401.40 1.761
401.50 1.766
401.60 1.771
401.70 1.775
401.80 1.779
401.90 1.783
402.00 1.786
402.10 1.789
402.20 1.792
402.30 1.794
402.40 1.796
402.50 1.798
402.60 1.799
402.70 1.8
402.80 1.801
402.90 1.802
403.00 1.802
403.10 1.802
403.20 1.801
403.30 1.801
403.40 1.8
403.50 1.798
403.60 1.797
403.70 1.795
403.80 1.793
403.90 1.79
404.00 1.788
404.10 1.785
404.20 1.781
404.30 1.778
404.40 1.774
404.50 1.769
404.60 1.765
404.70 1.76
404.80 1.755
404.90 1.749
405.00 1.743
405.10 1.737
405.20 1.731
405.30 1.724
405.40 1.717
405.50 1.709
405.60 1.701
405.70 1.693
405.80 1.684
405.90 1.675
406.00 1.666
406.10 1.656
406.20 1.646
406.30 1.636
406.40 1.625
406.50 1.613
406.60 1.602
406.70 1.589
406.80 1.577
406.90 1.564
407.00 1.55
407.10 1.536
407.20 1.522
407.30 1.507
407.40 1.492
407.50 1.477
407.60 1.461
407.70 1.444
407.80 1.427
407.90 1.409
408.00 1.392
408.10 1.373
408.20 1.354
408.30 1.335
408.40 1.316
408.50 1.295
408.60 1.275
408.70 1.254
408.80 1.232
408.90 1.21
409.00 1.188
409.10 1.165
409.20 1.141
409.30 1.118
409.40 1.093
409.50 1.068
409.60 1.042
409.70 1.015
409.80 0.9863
409.90 0.9564
410.00 0.9213
410.10 0.8919
410.20 0.8682
410.30 0.9041
410.40 0.9379
410.50 0.9696
410.60 0.9971
410.70 1.023
410.80 1.049
410.90 1.072
411.00 1.096
411.10 1.119
411.20 1.14
411.30 1.162
411.40 1.183
411.50 1.203
411.60 1.223
411.70 1.243
411.80 1.262
411.90 1.28
412.00 1.298
412.10 1.315
412.20 1.333
412.30 1.349
412.40 1.365
412.50 1.381
412.60 1.396
412.70 1.411
412.80 1.425
412.90 1.439
413.00 1.452
413.10 1.465
413.20 1.478
413.30 1.49
413.40 1.502
413.50 1.513
413.60 1.524
413.70 1.534
413.80 1.545
413.90 1.554
414.00 1.564
414.10 1.573
414.20 1.582
414.30 1.59
414.40 1.598
414.50 1.606
414.60 1.614
414.70 1.621
414.80 1.628
414.90 1.634
415.00 1.641
415.10 1.647
415.20 1.653
415.30 1.658
415.40 1.664
415.50 1.669
415.60 1.674
415.70 1.678
415.80 1.683
415.90 1.687
416.00 1.691
416.10 1.695
416.20 1.698
416.30 1.702
416.40 1.705
416.50 1.708
416.60 1.711
416.70 1.714
416.80 1.717
416.90 1.719
417.00 1.722
417.10 1.724
417.20 1.726
417.30 1.728
417.40 1.73
417.50 1.731
417.60 1.733
417.70 1.735
417.80 1.736
417.90 1.737
418.00 1.738
418.10 1.74
418.20 1.741
418.30 1.741
418.40 1.742
418.50 1.743
418.60 1.744
418.70 1.744
418.80 1.745
418.90 1.745
419.00 1.745
419.10 1.746
419.20 1.746
419.30 1.746
419.40 1.746
419.50 1.746
419.60 1.746
419.70 1.746
419.80 1.746
419.90 1.745
420.00 1.745
420.10 1.745
420.20 1.744
420.30 1.744
420.40 1.743
420.50 1.743
420.60 1.742
420.70 1.741
420.80 1.741
420.90 1.74
421.00 1.739
421.10 1.738
421.20 1.737
421.30 1.736
421.40 1.735
421.50 1.734
421.60 1.733
421.70 1.732
421.80 1.731
421.90 1.73
422.00 1.729
422.10 1.727
422.20 1.726
422.30 1.725
422.40 1.723
422.50 1.722
422.60 1.72
422.70 1.719
422.80 1.717
422.90 1.716
423.00 1.714
423.10 1.712
423.20 1.711
423.30 1.709
423.40 1.707
423.50 1.705
423.60 1.703
423.70 1.701
423.80 1.7
423.90 1.697
424.00 1.695
424.10 1.693
424.20 1.691
424.30 1.689
424.40 1.687
424.50 1.684
424.60 1.682
424.70 1.68
424.80 1.677
424.90 1.675
425.00 1.672
425.10 1.669
425.20 1.667
425.30 1.664
425.40 1.661
425.50 1.658
425.60 1.655
425.70 1.652
425.80 1.649
425.90 1.646
426.00 1.643
426.10 1.639
426.20 1.636
426.30 1.632
426.40 1.628
426.50 1.625
426.60 1.621
426.70 1.617
426.80 1.613
426.90 1.608
427.00 1.604
427.10 1.6
427.20 1.595
427.30 1.59
427.40 1.585
427.50 1.58
427.60 1.575
427.70 1.57
427.80 1.564
427.90 1.559
428.00 1.553
428.10 1.547
428.20 1.541
428.30 1.534
428.40 1.528
428.50 1.521
428.60 1.514
428.70 1.507
428.80 1.5
428.90 1.493
429.00 1.485
429.10 1.477
429.20 1.469
429.30 1.461
429.40 1.452
429.50 1.443
429.60 1.434
429.70 1.425
429.80 1.416
429.90 1.406
430.00 1.396
430.10 1.386
430.20 1.376
430.30 1.365
430.40 1.354
430.50 1.343
430.60 1.332
430.70 1.32
430.80 1.308
430.90 1.296
431.00 1.284
431.10 1.271
431.20 1.258
431.30 1.245
431.40 1.231
431.50 1.217
431.60 1.203
431.70 1.188
431.80 1.174
431.90 1.158
432.00 1.143
432.10 1.127
432.20 1.111
432.30 1.094
432.40 1.078
432.50 1.06
432.60 1.043
432.70 1.025
432.80 1.006
432.90 0.9878
433.00 0.9687
433.10 0.949
433.20 0.9289
433.30 0.9082
433.40 0.8865
433.50 0.8639
433.60 0.8404
433.70 0.8138
433.80 0.783
433.90 0.7482
434.00 0.685
434.10 0.6857
434.20 0.7502
434.30 0.7834
434.40 0.8127
434.50 0.8381
434.60 0.8604
434.70 0.8818
434.80 0.9022
434.90 0.9216
435.00 0.9404
435.10 0.9588
435.20 0.9764
435.30 0.9937
435.40 1.011
435.50 1.027
435.60 1.043
435.70 1.058
435.80 1.074
435.90 1.088
436.00 1.103
436.10 1.117
436.20 1.131
436.30 1.144
436.40 1.157
436.50 1.169
436.60 1.182
436.70 1.193
436.80 1.205
436.90 1.216
437.00 1.227
437.10 1.238
437.20 1.248
437.30 1.258
437.40 1.268
437.50 1.277
437.60 1.286
437.70 1.295
437.80 1.304
437.90 1.312
438.00 1.32
438.10 1.328
438.20 1.335
438.30 1.343
438.40 1.35
438.50 1.357
438.60 1.363
438.70 1.37
438.80 1.376
438.90 1.381
439.00 1.387
439.10 1.393
439.20 1.398
439.30 1.403
439.40 1.408
439.50 1.412
439.60 1.417
439.70 1.421
439.80 1.425
439.90 1.429
440.00 1.432
440.10 1.436
440.20 1.439
440.30 1.442
440.40 1.445
440.50 1.448
440.60 1.451
440.70 1.454
440.80 1.456
440.90 1.458
441.00 1.461
441.10 1.463
441.20 1.465
441.30 1.466
441.40 1.468
441.50 1.47
441.60 1.471
441.70 1.473
441.80 1.474
441.90 1.475
442.00 1.476
442.10 1.477
442.20 1.478
442.30 1.479
442.40 1.48
442.50 1.481
442.60 1.481
442.70 1.482
442.80 1.483
442.90 1.483
443.00 1.484
443.10 1.484
443.20 1.484
443.30 1.485
443.40 1.485
443.50 1.485
443.60 1.485
443.70 1.485
443.80 1.486
443.90 1.486
444.00 1.486
444.10 1.486
444.20 1.485
444.30 1.485
444.40 1.485
444.50 1.485
444.60 1.485
444.70 1.485
444.80 1.485
444.90 1.484
445.00 1.484
445.10 1.484
445.20 1.483
445.30 1.483
445.40 1.483
445.50 1.482
445.60 1.482
445.70 1.481
445.80 1.481
445.90 1.481
446.00 1.48
446.10 1.48
446.20 1.479
446.30 1.479
446.40 1.478
446.50 1.477
446.60 1.477
446.70 1.476
446.80 1.476
446.90 1.475
447.00 1.475
447.10 1.474
447.20 1.473
447.30 1.473
447.40 1.472
447.50 1.471
447.60 1.471
447.70 1.47
447.80 1.469
447.90 1.468
448.00 1.468
448.10 1.467
448.20 1.466
448.30 1.466
448.40 1.465
448.50 1.464
448.60 1.463
448.70 1.462
448.80 1.462
448.90 1.461
449.00 1.46
449.10 1.459
449.20 1.458
449.30 1.458
449.40 1.457
449.50 1.456
449.60 1.455
449.70 1.454
449.80 1.453
449.90 1.453
450.00 1.452
450.10 1.451
450.20 1.45
450.30 1.449
450.40 1.448
450.50 1.447
450.60 1.446
450.70 1.446
450.80 1.445
450.90 1.444
451.00 1.443
451.10 1.442
451.20 1.441
451.30 1.44
451.40 1.439
451.50 1.438
451.60 1.437
451.70 1.436
451.80 1.435
451.90 1.435
452.00 1.434
452.10 1.433
452.20 1.432
452.30 1.431
452.40 1.43
452.50 1.429
452.60 1.428
452.70 1.427
452.80 1.426
452.90 1.425
453.00 1.424
453.10 1.423
453.20 1.422
453.30 1.421
453.40 1.42
453.50 1.419
453.60 1.418
453.70 1.417
