# Version 2.1 - nm, norm@500 to 1, cut digits, bergeron_120000_75.dat_120000
# Wavelength(nm)  Flambda(ergs/cm^s/s/nm)
300.00 6.952
300.10 6.943
300.20 6.934
300.30 6.926
300.40 6.917
300.50 6.908
300.60 6.899
300.70 6.891
300.80 6.882
300.90 6.873
301.00 6.865
301.10 6.856
301.20 6.847
301.30 6.839
301.40 6.83
301.50 6.822
301.60 6.813
301.70 6.804
301.80 6.796
301.90 6.787
302.00 6.779
302.10 6.77
302.20 6.762
302.30 6.753
302.40 6.745
302.50 6.736
302.60 6.728
302.70 6.719
302.80 6.711
302.90 6.703
303.00 6.694
303.10 6.686
303.20 6.677
303.30 6.669
303.40 6.661
303.50 6.652
303.60 6.644
303.70 6.636
303.80 6.627
303.90 6.619
304.00 6.611
304.10 6.603
304.20 6.594
304.30 6.586
304.40 6.578
304.50 6.57
304.60 6.562
304.70 6.553
304.80 6.545
304.90 6.537
305.00 6.529
305.10 6.521
305.20 6.513
305.30 6.505
305.40 6.497
305.50 6.488
305.60 6.48
305.70 6.472
305.80 6.464
305.90 6.456
306.00 6.448
306.10 6.44
306.20 6.432
306.30 6.424
306.40 6.416
306.50 6.408
306.60 6.4
306.70 6.393
306.80 6.385
306.90 6.377
307.00 6.369
307.10 6.361
307.20 6.353
307.30 6.345
307.40 6.337
307.50 6.33
307.60 6.322
307.70 6.314
307.80 6.306
307.90 6.298
308.00 6.291
308.10 6.283
308.20 6.275
308.30 6.267
308.40 6.26
308.50 6.252
308.60 6.244
308.70 6.237
308.80 6.229
308.90 6.221
309.00 6.214
309.10 6.206
309.20 6.198
309.30 6.191
309.40 6.183
309.50 6.176
309.60 6.168
309.70 6.16
309.80 6.153
309.90 6.145
310.00 6.138
310.10 6.13
310.20 6.123
310.30 6.115
310.40 6.108
310.50 6.1
310.60 6.093
310.70 6.085
310.80 6.078
310.90 6.071
311.00 6.063
311.10 6.056
311.20 6.048
311.30 6.041
311.40 6.034
311.50 6.026
311.60 6.019
311.70 6.011
311.80 6.004
311.90 5.997
312.00 5.99
312.10 5.982
312.20 5.975
312.30 5.968
312.40 5.96
312.50 5.953
312.60 5.946
312.70 5.939
312.80 5.931
312.90 5.924
313.00 5.917
313.10 5.91
313.20 5.903
313.30 5.896
313.40 5.888
313.50 5.881
313.60 5.874
313.70 5.867
313.80 5.86
313.90 5.853
314.00 5.846
314.10 5.839
314.20 5.832
314.30 5.825
314.40 5.818
314.50 5.81
314.60 5.803
314.70 5.796
314.80 5.789
314.90 5.782
315.00 5.775
315.10 5.769
315.20 5.762
315.30 5.755
315.40 5.748
315.50 5.741
315.60 5.734
315.70 5.727
315.80 5.72
315.90 5.713
316.00 5.706
316.10 5.699
316.20 5.693
316.30 5.686
316.40 5.679
316.50 5.672
316.60 5.665
316.70 5.658
316.80 5.652
316.90 5.645
317.00 5.638
317.10 5.631
317.20 5.625
317.30 5.618
317.40 5.611
317.50 5.604
317.60 5.598
317.70 5.591
317.80 5.584
317.90 5.578
318.00 5.571
318.10 5.564
318.20 5.558
318.30 5.551
318.40 5.544
318.50 5.538
318.60 5.531
318.70 5.525
318.80 5.518
318.90 5.511
319.00 5.505
319.10 5.498
319.20 5.492
319.30 5.485
319.40 5.479
319.50 5.472
319.60 5.466
319.70 5.459
319.80 5.453
319.90 5.446
320.00 5.44
320.10 5.433
320.20 5.427
320.30 5.42
320.40 5.414
320.50 5.407
320.60 5.401
320.70 5.395
320.80 5.388
320.90 5.382
321.00 5.375
321.10 5.369
321.20 5.363
321.30 5.356
321.40 5.35
321.50 5.344
321.60 5.337
321.70 5.331
321.80 5.325
321.90 5.318
322.00 5.312
322.10 5.306
322.20 5.3
322.30 5.293
322.40 5.287
322.50 5.281
322.60 5.275
322.70 5.268
322.80 5.262
322.90 5.256
323.00 5.25
323.10 5.244
323.20 5.238
323.30 5.231
323.40 5.225
323.50 5.219
323.60 5.213
323.70 5.207
323.80 5.201
323.90 5.195
324.00 5.188
324.10 5.182
324.20 5.176
324.30 5.17
324.40 5.164
324.50 5.158
324.60 5.152
324.70 5.146
324.80 5.14
324.90 5.134
325.00 5.128
325.10 5.122
325.20 5.116
325.30 5.11
325.40 5.104
325.50 5.098
325.60 5.092
325.70 5.086
325.80 5.08
325.90 5.074
326.00 5.068
326.10 5.062
326.20 5.056
326.30 5.051
326.40 5.045
326.50 5.039
326.60 5.033
326.70 5.027
326.80 5.021
326.90 5.015
327.00 5.01
327.10 5.004
327.20 4.998
327.30 4.992
327.40 4.986
327.50 4.98
327.60 4.975
327.70 4.969
327.80 4.963
327.90 4.957
328.00 4.952
328.10 4.946
328.20 4.94
328.30 4.934
328.40 4.929
328.50 4.923
328.60 4.917
328.70 4.912
328.80 4.906
328.90 4.9
329.00 4.895
329.10 4.889
329.20 4.883
329.30 4.878
329.40 4.872
329.50 4.866
329.60 4.861
329.70 4.855
329.80 4.849
329.90 4.844
330.00 4.838
330.10 4.833
330.20 4.827
330.30 4.822
330.40 4.816
330.50 4.811
330.60 4.805
330.70 4.8
330.80 4.794
330.90 4.788
331.00 4.783
331.10 4.777
331.20 4.772
331.30 4.766
331.40 4.761
331.50 4.756
331.60 4.75
331.70 4.745
331.80 4.739
331.90 4.734
332.00 4.728
332.10 4.723
332.20 4.717
332.30 4.712
332.40 4.707
332.50 4.701
332.60 4.696
332.70 4.691
332.80 4.685
332.90 4.68
333.00 4.674
333.10 4.669
333.20 4.664
333.30 4.658
333.40 4.653
333.50 4.648
333.60 4.642
333.70 4.637
333.80 4.632
333.90 4.627
334.00 4.621
334.10 4.616
334.20 4.611
334.30 4.606
334.40 4.6
334.50 4.595
334.60 4.59
334.70 4.585
334.80 4.579
334.90 4.574
335.00 4.569
335.10 4.564
335.20 4.559
335.30 4.553
335.40 4.548
335.50 4.543
335.60 4.538
335.70 4.533
335.80 4.528
335.90 4.522
336.00 4.517
336.10 4.512
336.20 4.507
336.30 4.502
336.40 4.497
336.50 4.492
336.60 4.487
336.70 4.482
336.80 4.477
336.90 4.472
337.00 4.466
337.10 4.461
337.20 4.456
337.30 4.451
337.40 4.446
337.50 4.441
337.60 4.436
337.70 4.431
337.80 4.426
337.90 4.421
338.00 4.416
338.10 4.411
338.20 4.406
338.30 4.401
338.40 4.396
338.50 4.391
338.60 4.387
338.70 4.382
338.80 4.377
338.90 4.372
339.00 4.367
339.10 4.362
339.20 4.357
339.30 4.352
339.40 4.347
339.50 4.342
339.60 4.337
339.70 4.333
339.80 4.328
339.90 4.323
340.00 4.318
340.10 4.313
340.20 4.308
340.30 4.304
340.40 4.299
340.50 4.294
340.60 4.289
340.70 4.284
340.80 4.28
340.90 4.275
341.00 4.27
341.10 4.265
341.20 4.26
341.30 4.256
341.40 4.251
341.50 4.246
341.60 4.241
341.70 4.237
341.80 4.232
341.90 4.227
342.00 4.222
342.10 4.218
342.20 4.213
342.30 4.208
342.40 4.204
342.50 4.199
342.60 4.194
342.70 4.19
342.80 4.185
342.90 4.18
343.00 4.176
343.10 4.171
343.20 4.167
343.30 4.162
343.40 4.157
343.50 4.153
343.60 4.148
343.70 4.143
343.80 4.139
343.90 4.134
344.00 4.13
344.10 4.125
344.20 4.121
344.30 4.116
344.40 4.111
344.50 4.107
344.60 4.102
344.70 4.098
344.80 4.093
344.90 4.089
345.00 4.084
345.10 4.08
345.20 4.075
345.30 4.071
345.40 4.066
345.50 4.062
345.60 4.057
345.70 4.053
345.80 4.048
345.90 4.044
346.00 4.039
346.10 4.035
346.20 4.03
346.30 4.026
346.40 4.022
346.50 4.017
346.60 4.013
346.70 4.008
346.80 4.004
346.90 4
347.00 3.995
347.10 3.991
347.20 3.986
347.30 3.982
347.40 3.978
347.50 3.973
347.60 3.969
347.70 3.965
347.80 3.96
347.90 3.956
348.00 3.951
348.10 3.947
348.20 3.943
348.30 3.939
348.40 3.934
348.50 3.93
348.60 3.926
348.70 3.921
348.80 3.917
348.90 3.913
349.00 3.909
349.10 3.904
349.20 3.9
349.30 3.896
349.40 3.891
349.50 3.887
349.60 3.883
349.70 3.879
349.80 3.874
349.90 3.87
350.00 3.866
350.10 3.862
350.20 3.858
350.30 3.853
350.40 3.849
350.50 3.845
350.60 3.841
350.70 3.837
350.80 3.833
350.90 3.828
351.00 3.824
351.10 3.82
351.20 3.816
351.30 3.812
351.40 3.808
351.50 3.803
351.60 3.799
351.70 3.795
351.80 3.791
351.90 3.787
352.00 3.783
352.10 3.779
352.20 3.775
352.30 3.771
352.40 3.766
352.50 3.762
352.60 3.758
352.70 3.754
352.80 3.75
352.90 3.746
353.00 3.742
353.10 3.738
353.20 3.734
353.30 3.73
353.40 3.726
353.50 3.722
353.60 3.718
353.70 3.714
353.80 3.71
353.90 3.706
354.00 3.702
354.10 3.698
354.20 3.694
354.30 3.69
354.40 3.686
354.50 3.682
354.60 3.678
354.70 3.674
354.80 3.67
354.90 3.666
355.00 3.662
355.10 3.658
355.20 3.654
355.30 3.65
355.40 3.647
355.50 3.643
355.60 3.639
355.70 3.635
355.80 3.631
355.90 3.627
356.00 3.623
356.10 3.619
356.20 3.615
356.30 3.611
356.40 3.608
356.50 3.604
356.60 3.6
356.70 3.596
356.80 3.592
356.90 3.588
357.00 3.585
357.10 3.581
357.20 3.577
357.30 3.573
357.40 3.569
357.50 3.565
357.60 3.562
357.70 3.558
357.80 3.554
357.90 3.55
358.00 3.546
358.10 3.543
358.20 3.539
358.30 3.535
358.40 3.531
358.50 3.528
358.60 3.524
358.70 3.52
358.80 3.516
358.90 3.513
359.00 3.509
359.10 3.505
359.20 3.501
359.30 3.498
359.40 3.494
359.50 3.49
359.60 3.487
359.70 3.483
359.80 3.479
359.90 3.475
360.00 3.472
360.10 3.468
360.20 3.464
360.30 3.461
360.40 3.457
360.50 3.453
360.60 3.45
360.70 3.446
360.80 3.442
360.90 3.439
361.00 3.435
361.10 3.432
361.20 3.428
361.30 3.424
361.40 3.421
361.50 3.417
361.60 3.413
361.70 3.41
361.80 3.406
361.90 3.403
362.00 3.399
362.10 3.395
362.20 3.392
362.30 3.388
362.40 3.385
362.50 3.381
362.60 3.378
362.70 3.374
362.80 3.37
362.90 3.367
363.00 3.363
363.10 3.36
363.20 3.356
363.30 3.353
363.40 3.349
363.50 3.346
363.60 3.342
363.70 3.339
363.80 3.335
363.90 3.332
364.00 3.328
364.10 3.325
364.20 3.321
364.30 3.318
364.40 3.314
364.50 3.311
364.60 3.307
364.70 3.304
364.80 3.3
364.90 3.297
365.00 3.294
365.10 3.29
365.20 3.287
365.30 3.283
365.40 3.28
365.50 3.276
365.60 3.273
365.70 3.269
365.80 3.266
365.90 3.263
366.00 3.259
366.10 3.256
366.20 3.252
366.30 3.249
366.40 3.246
366.50 3.242
366.60 3.239
366.70 3.235
366.80 3.232
366.90 3.229
367.00 3.225
367.10 3.222
367.20 3.218
367.30 3.215
367.40 3.212
367.50 3.208
367.60 3.205
367.70 3.201
367.80 3.198
367.90 3.195
368.00 3.191
368.10 3.188
368.20 3.185
368.30 3.181
368.40 3.178
368.50 3.175
368.60 3.171
368.70 3.168
368.80 3.165
368.90 3.161
369.00 3.158
369.10 3.155
369.20 3.151
369.30 3.148
369.40 3.145
369.50 3.141
369.60 3.138
369.70 3.135
369.80 3.132
369.90 3.128
370.00 3.125
370.10 3.122
370.20 3.119
370.30 3.115
370.40 3.112
370.50 3.109
370.60 3.106
370.70 3.102
370.80 3.099
370.90 3.096
371.00 3.093
371.10 3.089
371.20 3.086
371.30 3.083
371.40 3.08
371.50 3.077
371.60 3.073
371.70 3.07
371.80 3.067
371.90 3.064
372.00 3.061
372.10 3.057
372.20 3.054
372.30 3.051
372.40 3.048
372.50 3.045
372.60 3.042
372.70 3.039
372.80 3.035
372.90 3.032
373.00 3.029
373.10 3.026
373.20 3.023
373.30 3.02
373.40 3.017
373.50 3.014
373.60 3.01
373.70 3.007
373.80 3.004
373.90 3.001
374.00 2.998
374.10 2.995
374.20 2.992
374.30 2.989
374.40 2.986
374.50 2.983
374.60 2.98
374.70 2.977
374.80 2.973
374.90 2.97
375.00 2.967
375.10 2.964
375.20 2.961
375.30 2.958
375.40 2.955
375.50 2.952
375.60 2.949
375.70 2.946
375.80 2.943
375.90 2.94
376.00 2.937
376.10 2.934
376.20 2.931
376.30 2.928
376.40 2.925
376.50 2.922
376.60 2.919
376.70 2.916
376.80 2.913
376.90 2.91
377.00 2.907
377.10 2.905
377.20 2.902
377.30 2.899
377.40 2.896
377.50 2.893
377.60 2.89
377.70 2.887
377.80 2.884
377.90 2.881
378.00 2.878
378.10 2.876
378.20 2.873
378.30 2.87
378.40 2.867
378.50 2.864
378.60 2.861
378.70 2.858
378.80 2.855
378.90 2.853
379.00 2.85
379.10 2.847
379.20 2.844
379.30 2.841
379.40 2.838
379.50 2.836
379.60 2.833
379.70 2.83
379.80 2.827
379.90 2.824
380.00 2.822
380.10 2.819
380.20 2.816
380.30 2.814
380.40 2.811
380.50 2.808
380.60 2.805
380.70 2.803
380.80 2.8
380.90 2.797
381.00 2.795
381.10 2.792
381.20 2.789
381.30 2.786
381.40 2.784
381.50 2.781
381.60 2.778
381.70 2.775
381.80 2.773
381.90 2.77
382.00 2.767
382.10 2.764
382.20 2.761
382.30 2.759
382.40 2.756
382.50 2.753
382.60 2.75
382.70 2.747
382.80 2.744
382.90 2.742
383.00 2.739
383.10 2.736
383.20 2.733
383.30 2.73
383.40 2.728
383.50 2.725
383.60 2.722
383.70 2.72
383.80 2.717
383.90 2.715
384.00 2.713
384.10 2.71
384.20 2.708
384.30 2.706
384.40 2.703
384.50 2.701
384.60 2.699
384.70 2.696
384.80 2.694
384.90 2.692
385.00 2.689
385.10 2.687
385.20 2.684
385.30 2.682
385.40 2.679
385.50 2.677
385.60 2.674
385.70 2.672
385.80 2.669
385.90 2.666
386.00 2.664
386.10 2.661
386.20 2.658
386.30 2.655
386.40 2.653
386.50 2.65
386.60 2.647
386.70 2.644
386.80 2.641
386.90 2.638
387.00 2.635
387.10 2.632
387.20 2.629
387.30 2.626
387.40 2.623
387.50 2.62
387.60 2.617
387.70 2.613
387.80 2.61
387.90 2.607
388.00 2.604
388.10 2.601
388.20 2.597
388.30 2.594
388.40 2.591
388.50 2.588
388.60 2.585
388.70 2.582
388.80 2.58
388.90 2.577
389.00 2.575
389.10 2.573
389.20 2.571
389.30 2.569
389.40 2.567
389.50 2.566
389.60 2.564
389.70 2.563
389.80 2.561
389.90 2.56
390.00 2.558
390.10 2.556
390.20 2.555
390.30 2.553
390.40 2.552
390.50 2.55
390.60 2.548
390.70 2.547
390.80 2.545
390.90 2.543
391.00 2.541
391.10 2.539
391.20 2.537
391.30 2.536
391.40 2.534
391.50 2.532
391.60 2.529
391.70 2.527
391.80 2.525
391.90 2.523
392.00 2.521
392.10 2.519
392.20 2.516
392.30 2.514
392.40 2.512
392.50 2.509
392.60 2.507
392.70 2.504
392.80 2.502
392.90 2.499
393.00 2.497
393.10 2.494
393.20 2.491
393.30 2.488
393.40 2.486
393.50 2.483
393.60 2.48
393.70 2.477
393.80 2.474
393.90 2.471
394.00 2.468
394.10 2.465
394.20 2.461
394.30 2.458
394.40 2.455
394.50 2.451
394.60 2.448
394.70 2.444
394.80 2.441
394.90 2.437
395.00 2.433
395.10 2.43
395.20 2.426
395.30 2.422
395.40 2.418
395.50 2.414
395.60 2.41
395.70 2.405
395.80 2.401
395.90 2.397
396.00 2.393
396.10 2.388
396.20 2.384
396.30 2.379
396.40 2.375
396.50 2.37
396.60 2.366
396.70 2.361
396.80 2.357
396.90 2.353
397.00 2.349
397.10 2.348
397.20 2.348
397.30 2.348
397.40 2.348
397.50 2.348
397.60 2.348
397.70 2.348
397.80 2.349
397.90 2.349
398.00 2.349
398.10 2.349
398.20 2.348
398.30 2.348
398.40 2.348
398.50 2.348
398.60 2.347
398.70 2.347
398.80 2.347
398.90 2.346
399.00 2.345
399.10 2.345
399.20 2.344
399.30 2.343
399.40 2.342
399.50 2.341
399.60 2.34
399.70 2.339
399.80 2.338
399.90 2.337
400.00 2.336
400.10 2.335
400.20 2.333
400.30 2.332
400.40 2.331
400.50 2.329
400.60 2.328
400.70 2.326
400.80 2.325
400.90 2.323
401.00 2.322
401.10 2.32
401.20 2.318
401.30 2.317
401.40 2.315
401.50 2.313
401.60 2.312
401.70 2.31
401.80 2.308
401.90 2.306
402.00 2.304
402.10 2.302
402.20 2.3
402.30 2.298
402.40 2.296
402.50 2.294
402.60 2.292
402.70 2.29
402.80 2.288
402.90 2.286
403.00 2.284
403.10 2.282
403.20 2.28
403.30 2.278
403.40 2.276
403.50 2.274
403.60 2.271
403.70 2.269
403.80 2.267
403.90 2.265
404.00 2.262
404.10 2.26
404.20 2.258
404.30 2.255
404.40 2.253
404.50 2.251
404.60 2.248
404.70 2.246
404.80 2.244
404.90 2.241
405.00 2.239
405.10 2.236
405.20 2.233
405.30 2.231
405.40 2.228
405.50 2.226
405.60 2.223
405.70 2.22
405.80 2.217
405.90 2.215
406.00 2.212
406.10 2.209
406.20 2.206
406.30 2.203
406.40 2.2
406.50 2.197
406.60 2.194
406.70 2.191
406.80 2.187
406.90 2.184
407.00 2.181
407.10 2.177
407.20 2.174
407.30 2.17
407.40 2.166
407.50 2.162
407.60 2.158
407.70 2.154
407.80 2.15
407.90 2.146
408.00 2.142
408.10 2.137
408.20 2.133
408.30 2.128
408.40 2.123
408.50 2.118
408.60 2.113
408.70 2.108
408.80 2.102
408.90 2.097
409.00 2.091
409.10 2.085
409.20 2.079
409.30 2.073
409.40 2.067
409.50 2.061
409.60 2.054
409.70 2.048
409.80 2.042
409.90 2.037
410.00 2.034
410.10 2.033
410.20 2.034
410.30 2.029
410.40 2.027
410.50 2.027
410.60 2.03
410.70 2.032
410.80 2.035
410.90 2.037
411.00 2.039
411.10 2.042
411.20 2.044
411.30 2.046
411.40 2.048
411.50 2.05
411.60 2.051
411.70 2.053
411.80 2.054
411.90 2.055
412.00 2.056
412.10 2.057
412.20 2.057
412.30 2.058
412.40 2.058
412.50 2.059
412.60 2.059
412.70 2.059
412.80 2.059
412.90 2.059
413.00 2.059
413.10 2.058
413.20 2.058
413.30 2.058
413.40 2.057
413.50 2.056
413.60 2.056
413.70 2.055
413.80 2.054
413.90 2.053
414.00 2.052
414.10 2.051
414.20 2.05
414.30 2.049
414.40 2.048
414.50 2.047
414.60 2.046
414.70 2.045
414.80 2.043
414.90 2.042
415.00 2.041
415.10 2.039
415.20 2.038
415.30 2.037
415.40 2.035
415.50 2.034
415.60 2.032
415.70 2.031
415.80 2.029
415.90 2.028
416.00 2.026
416.10 2.025
416.20 2.023
416.30 2.022
416.40 2.02
416.50 2.018
416.60 2.017
416.70 2.015
416.80 2.014
416.90 2.012
417.00 2.01
417.10 2.009
417.20 2.007
417.30 2.005
417.40 2.004
417.50 2.002
417.60 2
417.70 1.999
417.80 1.997
417.90 1.995
418.00 1.993
418.10 1.992
418.20 1.99
418.30 1.988
418.40 1.987
418.50 1.985
418.60 1.983
418.70 1.981
418.80 1.98
418.90 1.978
419.00 1.976
419.10 1.974
419.20 1.973
419.30 1.971
419.40 1.969
419.50 1.967
419.60 1.966
419.70 1.964
419.80 1.962
419.90 1.96
420.00 1.959
420.10 1.957
420.20 1.955
420.30 1.953
420.40 1.952
420.50 1.95
420.60 1.948
420.70 1.946
420.80 1.945
420.90 1.943
421.00 1.941
421.10 1.939
421.20 1.938
421.30 1.936
421.40 1.934
421.50 1.932
421.60 1.931
421.70 1.929
421.80 1.927
421.90 1.925
422.00 1.924
422.10 1.922
422.20 1.92
422.30 1.918
422.40 1.917
422.50 1.915
422.60 1.913
422.70 1.911
422.80 1.91
422.90 1.908
423.00 1.906
423.10 1.904
423.20 1.903
423.30 1.901
423.40 1.899
423.50 1.897
423.60 1.896
423.70 1.894
423.80 1.892
423.90 1.89
424.00 1.889
424.10 1.887
424.20 1.885
424.30 1.883
424.40 1.881
424.50 1.88
424.60 1.878
424.70 1.876
424.80 1.874
424.90 1.873
425.00 1.871
425.10 1.869
425.20 1.867
425.30 1.866
425.40 1.864
425.50 1.862
425.60 1.86
425.70 1.859
425.80 1.857
425.90 1.855
426.00 1.853
426.10 1.851
426.20 1.85
426.30 1.848
426.40 1.846
426.50 1.844
426.60 1.842
426.70 1.841
426.80 1.839
426.90 1.837
427.00 1.835
427.10 1.833
427.20 1.831
427.30 1.83
427.40 1.828
427.50 1.826
427.60 1.824
427.70 1.822
427.80 1.82
427.90 1.818
428.00 1.816
428.10 1.814
428.20 1.813
428.30 1.811
428.40 1.809
428.50 1.807
428.60 1.805
428.70 1.803
428.80 1.801
428.90 1.799
429.00 1.796
429.10 1.794
429.20 1.792
429.30 1.79
429.40 1.788
429.50 1.786
429.60 1.783
429.70 1.781
429.80 1.779
429.90 1.776
430.00 1.774
430.10 1.772
430.20 1.769
430.30 1.766
430.40 1.764
430.50 1.761
430.60 1.758
430.70 1.756
430.80 1.753
430.90 1.75
431.00 1.747
431.10 1.743
431.20 1.74
431.30 1.737
431.40 1.733
431.50 1.73
431.60 1.726
431.70 1.722
431.80 1.718
431.90 1.714
432.00 1.71
432.10 1.705
432.20 1.701
432.30 1.696
432.40 1.691
432.50 1.686
432.60 1.68
432.70 1.675
432.80 1.669
432.90 1.663
433.00 1.657
433.10 1.65
433.20 1.644
433.30 1.637
433.40 1.631
433.50 1.624
433.60 1.617
433.70 1.61
433.80 1.603
433.90 1.595
434.00 1.588
434.10 1.587
434.20 1.592
434.30 1.596
434.40 1.6
434.50 1.605
434.60 1.609
434.70 1.613
434.80 1.617
434.90 1.62
435.00 1.624
435.10 1.627
435.20 1.631
435.30 1.634
435.40 1.636
435.50 1.639
435.60 1.641
435.70 1.643
435.80 1.645
435.90 1.647
436.00 1.649
436.10 1.65
436.20 1.651
436.30 1.653
436.40 1.653
436.50 1.654
436.60 1.655
436.70 1.655
436.80 1.656
436.90 1.656
437.00 1.656
437.10 1.656
437.20 1.656
437.30 1.656
437.40 1.656
437.50 1.655
437.60 1.655
437.70 1.655
437.80 1.654
437.90 1.654
438.00 1.653
438.10 1.652
438.20 1.652
438.30 1.651
438.40 1.65
438.50 1.649
438.60 1.648
438.70 1.648
438.80 1.647
438.90 1.646
439.00 1.645
439.10 1.644
439.20 1.643
439.30 1.642
439.40 1.64
439.50 1.639
439.60 1.638
439.70 1.637
439.80 1.636
439.90 1.635
440.00 1.634
440.10 1.633
440.20 1.631
440.30 1.63
440.40 1.629
440.50 1.628
440.60 1.626
440.70 1.625
440.80 1.624
440.90 1.623
441.00 1.621
441.10 1.62
441.20 1.619
441.30 1.618
441.40 1.616
441.50 1.615
441.60 1.614
441.70 1.613
441.80 1.611
441.90 1.61
442.00 1.609
442.10 1.607
442.20 1.606
442.30 1.605
442.40 1.603
442.50 1.602
442.60 1.601
442.70 1.599
442.80 1.598
442.90 1.597
443.00 1.595
443.10 1.594
443.20 1.593
443.30 1.591
443.40 1.59
443.50 1.589
443.60 1.587
443.70 1.586
443.80 1.585
443.90 1.584
444.00 1.582
444.10 1.581
444.20 1.58
444.30 1.578
444.40 1.577
444.50 1.576
444.60 1.574
444.70 1.573
444.80 1.572
444.90 1.57
445.00 1.569
445.10 1.568
445.20 1.566
445.30 1.565
445.40 1.564
445.50 1.562
445.60 1.561
445.70 1.56
445.80 1.558
445.90 1.557
446.00 1.556
446.10 1.554
446.20 1.553
446.30 1.552
446.40 1.55
446.50 1.549
446.60 1.548
446.70 1.546
446.80 1.545
446.90 1.544
447.00 1.542
447.10 1.541
447.20 1.54
447.30 1.538
447.40 1.537
447.50 1.536
447.60 1.535
447.70 1.533
447.80 1.532
447.90 1.531
448.00 1.529
448.10 1.528
448.20 1.527
448.30 1.525
448.40 1.524
448.50 1.523
448.60 1.521
448.70 1.52
448.80 1.519
448.90 1.518
449.00 1.516
449.10 1.515
449.20 1.514
449.30 1.512
449.40 1.511
449.50 1.51
449.60 1.509
449.70 1.507
449.80 1.506
449.90 1.505
450.00 1.503
450.10 1.502
450.20 1.501
450.30 1.5
450.40 1.498
450.50 1.497
450.60 1.496
450.70 1.494
450.80 1.493
450.90 1.492
451.00 1.491
451.10 1.489
451.20 1.488
451.30 1.487
451.40 1.486
451.50 1.484
451.60 1.483
451.70 1.482
451.80 1.48
451.90 1.479
452.00 1.478
452.10 1.477
452.20 1.475
452.30 1.474
452.40 1.473
452.50 1.472
452.60 1.47
452.70 1.469
452.80 1.468
452.90 1.467
453.00 1.465
453.10 1.464
453.20 1.463
453.30 1.462
453.40 1.46
453.50 1.459
453.60 1.458
453.70 1.457
453.80 1.456
453.90 1.454
454.00 1.453
454.10 1.452
