# Version 2.1 - nm, norm@500 to 1, cut digits, bergeron_9000_75.dat_9000
# Wavelength(nm)  Flambda(ergs/cm^s/s/nm)
300.00 1.471
300.10 1.471
300.20 1.47
300.30 1.47
300.40 1.47
300.50 1.469
300.60 1.469
300.70 1.469
300.80 1.468
300.90 1.468
301.00 1.468
301.10 1.467
301.20 1.467
301.30 1.467
301.40 1.466
301.50 1.466
301.60 1.466
301.70 1.465
301.80 1.465
301.90 1.465
302.00 1.464
302.10 1.464
302.20 1.463
302.30 1.463
302.40 1.463
302.50 1.462
302.60 1.462
302.70 1.462
302.80 1.461
302.90 1.461
303.00 1.461
303.10 1.46
303.20 1.46
303.30 1.459
303.40 1.459
303.50 1.459
303.60 1.458
303.70 1.458
303.80 1.458
303.90 1.457
304.00 1.457
304.10 1.457
304.20 1.456
304.30 1.456
304.40 1.456
304.50 1.455
304.60 1.455
304.70 1.454
304.80 1.454
304.90 1.454
305.00 1.453
305.10 1.453
305.20 1.453
305.30 1.452
305.40 1.452
305.50 1.452
305.60 1.451
305.70 1.451
305.80 1.45
305.90 1.45
306.00 1.45
306.10 1.449
306.20 1.449
306.30 1.449
306.40 1.448
306.50 1.448
306.60 1.447
306.70 1.447
306.80 1.447
306.90 1.446
307.00 1.446
307.10 1.446
307.20 1.445
307.30 1.445
307.40 1.444
307.50 1.444
307.60 1.444
307.70 1.443
307.80 1.443
307.90 1.443
308.00 1.442
308.10 1.442
308.20 1.441
308.30 1.441
308.40 1.441
308.50 1.44
308.60 1.44
308.70 1.44
308.80 1.439
308.90 1.439
309.00 1.438
309.10 1.438
309.20 1.438
309.30 1.437
309.40 1.437
309.50 1.437
309.60 1.436
309.70 1.436
309.80 1.436
309.90 1.435
310.00 1.435
310.10 1.434
310.20 1.434
310.30 1.434
310.40 1.433
310.50 1.433
310.60 1.432
310.70 1.432
310.80 1.432
310.90 1.431
311.00 1.431
311.10 1.431
311.20 1.43
311.30 1.43
311.40 1.429
311.50 1.429
311.60 1.429
311.70 1.428
311.80 1.428
311.90 1.428
312.00 1.427
312.10 1.427
312.20 1.426
312.30 1.426
312.40 1.426
312.50 1.425
312.60 1.425
312.70 1.424
312.80 1.424
312.90 1.424
313.00 1.423
313.10 1.423
313.20 1.422
313.30 1.422
313.40 1.422
313.50 1.421
313.60 1.421
313.70 1.421
313.80 1.42
313.90 1.42
314.00 1.419
314.10 1.419
314.20 1.419
314.30 1.418
314.40 1.418
314.50 1.417
314.60 1.417
314.70 1.417
314.80 1.416
314.90 1.416
315.00 1.415
315.10 1.415
315.20 1.415
315.30 1.414
315.40 1.414
315.50 1.414
315.60 1.413
315.70 1.413
315.80 1.412
315.90 1.412
316.00 1.412
316.10 1.411
316.20 1.411
316.30 1.41
316.40 1.41
316.50 1.41
316.60 1.409
316.70 1.409
316.80 1.408
316.90 1.408
317.00 1.408
317.10 1.407
317.20 1.407
317.30 1.406
317.40 1.406
317.50 1.406
317.60 1.405
317.70 1.405
317.80 1.405
317.90 1.404
318.00 1.404
318.10 1.403
318.20 1.403
318.30 1.403
318.40 1.402
318.50 1.402
318.60 1.401
318.70 1.401
318.80 1.401
318.90 1.4
319.00 1.4
319.10 1.399
319.20 1.399
319.30 1.399
319.40 1.398
319.50 1.398
319.60 1.397
319.70 1.397
319.80 1.397
319.90 1.396
320.00 1.396
320.10 1.395
320.20 1.395
320.30 1.395
320.40 1.394
320.50 1.394
320.60 1.393
320.70 1.393
320.80 1.393
320.90 1.392
321.00 1.392
321.10 1.391
321.20 1.391
321.30 1.39
321.40 1.39
321.50 1.39
321.60 1.389
321.70 1.389
321.80 1.388
321.90 1.388
322.00 1.388
322.10 1.387
322.20 1.387
322.30 1.386
322.40 1.386
322.50 1.386
322.60 1.385
322.70 1.385
322.80 1.384
322.90 1.384
323.00 1.384
323.10 1.383
323.20 1.383
323.30 1.382
323.40 1.382
323.50 1.382
323.60 1.381
323.70 1.381
323.80 1.38
323.90 1.38
324.00 1.38
324.10 1.379
324.20 1.379
324.30 1.378
324.40 1.378
324.50 1.378
324.60 1.377
324.70 1.377
324.80 1.376
324.90 1.376
325.00 1.375
325.10 1.375
325.20 1.375
325.30 1.374
325.40 1.374
325.50 1.373
325.60 1.373
325.70 1.373
325.80 1.372
325.90 1.372
326.00 1.371
326.10 1.371
326.20 1.371
326.30 1.37
326.40 1.37
326.50 1.369
326.60 1.369
326.70 1.369
326.80 1.368
326.90 1.368
327.00 1.367
327.10 1.367
327.20 1.366
327.30 1.366
327.40 1.366
327.50 1.365
327.60 1.365
327.70 1.364
327.80 1.364
327.90 1.364
328.00 1.363
328.10 1.363
328.20 1.362
328.30 1.362
328.40 1.362
328.50 1.361
328.60 1.361
328.70 1.36
328.80 1.36
328.90 1.359
329.00 1.359
329.10 1.359
329.20 1.358
329.30 1.358
329.40 1.357
329.50 1.357
329.60 1.357
329.70 1.356
329.80 1.356
329.90 1.355
330.00 1.355
330.10 1.355
330.20 1.354
330.30 1.354
330.40 1.353
330.50 1.353
330.60 1.352
330.70 1.352
330.80 1.352
330.90 1.351
331.00 1.351
331.10 1.35
331.20 1.35
331.30 1.349
331.40 1.349
331.50 1.349
331.60 1.348
331.70 1.348
331.80 1.347
331.90 1.347
332.00 1.347
332.10 1.346
332.20 1.346
332.30 1.345
332.40 1.345
332.50 1.344
332.60 1.344
332.70 1.344
332.80 1.343
332.90 1.343
333.00 1.342
333.10 1.342
333.20 1.342
333.30 1.341
333.40 1.341
333.50 1.34
333.60 1.34
333.70 1.339
333.80 1.339
333.90 1.339
334.00 1.338
334.10 1.338
334.20 1.337
334.30 1.337
334.40 1.337
334.50 1.336
334.60 1.336
334.70 1.335
334.80 1.335
334.90 1.334
335.00 1.334
335.10 1.334
335.20 1.333
335.30 1.333
335.40 1.332
335.50 1.332
335.60 1.331
335.70 1.331
335.80 1.331
335.90 1.33
336.00 1.33
336.10 1.329
336.20 1.329
336.30 1.329
336.40 1.328
336.50 1.328
336.60 1.327
336.70 1.327
336.80 1.326
336.90 1.326
337.00 1.326
337.10 1.325
337.20 1.325
337.30 1.324
337.40 1.324
337.50 1.323
337.60 1.323
337.70 1.323
337.80 1.322
337.90 1.322
338.00 1.321
338.10 1.321
338.20 1.321
338.30 1.32
338.40 1.32
338.50 1.319
338.60 1.319
338.70 1.318
338.80 1.318
338.90 1.318
339.00 1.317
339.10 1.317
339.20 1.316
339.30 1.316
339.40 1.315
339.50 1.315
339.60 1.315
339.70 1.314
339.80 1.314
339.90 1.313
340.00 1.313
340.10 1.313
340.20 1.312
340.30 1.312
340.40 1.311
340.50 1.311
340.60 1.31
340.70 1.31
340.80 1.31
340.90 1.309
341.00 1.309
341.10 1.308
341.20 1.308
341.30 1.307
341.40 1.307
341.50 1.307
341.60 1.306
341.70 1.306
341.80 1.305
341.90 1.305
342.00 1.304
342.10 1.304
342.20 1.304
342.30 1.303
342.40 1.303
342.50 1.302
342.60 1.302
342.70 1.301
342.80 1.301
342.90 1.301
343.00 1.3
343.10 1.3
343.20 1.299
343.30 1.299
343.40 1.298
343.50 1.298
343.60 1.298
343.70 1.297
343.80 1.297
343.90 1.296
344.00 1.296
344.10 1.295
344.20 1.295
344.30 1.295
344.40 1.294
344.50 1.294
344.60 1.293
344.70 1.293
344.80 1.293
344.90 1.292
345.00 1.292
345.10 1.291
345.20 1.291
345.30 1.29
345.40 1.29
345.50 1.29
345.60 1.289
345.70 1.289
345.80 1.288
345.90 1.288
346.00 1.287
346.10 1.287
346.20 1.287
346.30 1.286
346.40 1.286
346.50 1.285
346.60 1.285
346.70 1.284
346.80 1.284
346.90 1.284
347.00 1.283
347.10 1.283
347.20 1.282
347.30 1.282
347.40 1.281
347.50 1.281
347.60 1.281
347.70 1.28
347.80 1.28
347.90 1.279
348.00 1.279
348.10 1.278
348.20 1.278
348.30 1.278
348.40 1.277
348.50 1.277
348.60 1.276
348.70 1.276
348.80 1.275
348.90 1.275
349.00 1.275
349.10 1.274
349.20 1.274
349.30 1.273
349.40 1.273
349.50 1.272
349.60 1.272
349.70 1.272
349.80 1.271
349.90 1.271
350.00 1.27
350.10 1.27
350.20 1.269
350.30 1.269
350.40 1.269
350.50 1.268
350.60 1.268
350.70 1.267
350.80 1.267
350.90 1.266
351.00 1.266
351.10 1.266
351.20 1.265
351.30 1.265
351.40 1.264
351.50 1.264
351.60 1.263
351.70 1.263
351.80 1.263
351.90 1.262
352.00 1.262
352.10 1.261
352.20 1.261
352.30 1.26
352.40 1.26
352.50 1.26
352.60 1.259
352.70 1.259
352.80 1.258
352.90 1.258
353.00 1.257
353.10 1.257
353.20 1.257
353.30 1.256
353.40 1.256
353.50 1.255
353.60 1.255
353.70 1.254
353.80 1.254
353.90 1.254
354.00 1.253
354.10 1.253
354.20 1.252
354.30 1.252
354.40 1.251
354.50 1.251
354.60 1.251
354.70 1.25
354.80 1.25
354.90 1.249
355.00 1.249
355.10 1.248
355.20 1.248
355.30 1.248
355.40 1.247
355.50 1.247
355.60 1.246
355.70 1.246
355.80 1.245
355.90 1.245
356.00 1.245
356.10 1.244
356.20 1.244
356.30 1.243
356.40 1.243
356.50 1.242
356.60 1.242
356.70 1.242
356.80 1.241
356.90 1.241
357.00 1.24
357.10 1.24
357.20 1.239
357.30 1.239
357.40 1.239
357.50 1.238
357.60 1.238
357.70 1.237
357.80 1.237
357.90 1.237
358.00 1.236
358.10 1.236
358.20 1.235
358.30 1.235
358.40 1.234
358.50 1.234
358.60 1.233
358.70 1.233
358.80 1.233
358.90 1.232
359.00 1.232
359.10 1.231
359.20 1.231
359.30 1.23
359.40 1.23
359.50 1.23
359.60 1.229
359.70 1.229
359.80 1.228
359.90 1.228
360.00 1.227
360.10 1.227
360.20 1.227
360.30 1.226
360.40 1.226
360.50 1.225
360.60 1.225
360.70 1.224
360.80 1.224
360.90 1.224
361.00 1.223
361.10 1.223
361.20 1.222
361.30 1.222
361.40 1.222
361.50 1.221
361.60 1.221
361.70 1.22
361.80 1.22
361.90 1.219
362.00 1.219
362.10 1.219
362.20 1.218
362.30 1.218
362.40 1.217
362.50 1.217
362.60 1.216
362.70 1.216
362.80 1.216
362.90 1.215
363.00 1.215
363.10 1.214
363.20 1.214
363.30 1.213
363.40 1.213
363.50 1.212
363.60 1.212
363.70 1.211
363.80 1.211
363.90 1.211
364.00 1.21
364.10 1.21
364.20 1.209
364.30 1.209
364.40 1.208
364.50 1.208
364.60 1.207
364.70 1.207
364.80 1.206
364.90 1.206
365.00 1.206
365.10 1.205
365.20 1.205
365.30 1.204
365.40 1.204
365.50 1.203
365.60 1.203
365.70 1.202
365.80 1.202
365.90 1.202
366.00 1.201
366.10 1.201
366.20 1.2
366.30 1.2
366.40 1.2
366.50 1.199
366.60 1.199
366.70 1.198
366.80 1.198
366.90 1.198
367.00 1.197
367.10 1.197
367.20 1.196
367.30 1.196
367.40 1.196
367.50 1.195
367.60 1.195
367.70 1.194
367.80 1.194
367.90 1.194
368.00 1.193
368.10 1.193
368.20 1.194
368.30 1.194
368.40 1.194
368.50 1.194
368.60 1.194
368.70 1.195
368.80 1.195
368.90 1.195
369.00 1.195
369.10 1.196
369.20 1.196
369.30 1.196
369.40 1.196
369.50 1.196
369.60 1.197
369.70 1.197
369.80 1.197
369.90 1.197
370.00 1.197
370.10 1.199
370.20 1.2
370.30 1.201
370.40 1.202
370.50 1.204
370.60 1.205
370.70 1.206
370.80 1.207
370.90 1.209
371.00 1.21
371.10 1.211
371.20 1.212
371.30 1.214
371.40 1.215
371.50 1.216
371.60 1.217
371.70 1.219
371.80 1.22
371.90 1.221
372.00 1.222
372.10 1.224
372.20 1.226
372.30 1.228
372.40 1.23
372.50 1.232
372.60 1.233
372.70 1.235
372.80 1.237
372.90 1.239
373.00 1.241
373.10 1.243
373.20 1.245
373.30 1.247
373.40 1.248
373.50 1.25
373.60 1.252
373.70 1.254
373.80 1.256
373.90 1.258
374.00 1.26
374.10 1.261
374.20 1.263
374.30 1.265
374.40 1.267
374.50 1.269
374.60 1.27
374.70 1.272
374.80 1.274
374.90 1.276
375.00 1.277
375.10 1.279
375.20 1.281
375.30 1.283
375.40 1.285
375.50 1.286
375.60 1.288
375.70 1.29
375.80 1.292
375.90 1.293
376.00 1.295
376.10 1.296
376.20 1.297
376.30 1.298
376.40 1.299
376.50 1.3
376.60 1.301
376.70 1.302
376.80 1.303
376.90 1.303
377.00 1.304
377.10 1.303
377.20 1.302
377.30 1.301
377.40 1.3
377.50 1.299
377.60 1.298
377.70 1.297
377.80 1.296
377.90 1.295
378.00 1.294
378.10 1.285
378.20 1.276
378.30 1.267
378.40 1.258
378.50 1.249
378.60 1.24
378.70 1.231
378.80 1.223
378.90 1.214
379.00 1.205
379.10 1.19
379.20 1.175
379.30 1.16
379.40 1.145
379.50 1.13
379.60 1.115
379.70 1.101
379.80 1.086
379.90 1.071
380.00 1.056
380.10 1.076
380.20 1.096
380.30 1.116
380.40 1.137
380.50 1.157
380.60 1.177
380.70 1.197
380.80 1.217
380.90 1.237
381.00 1.257
381.10 1.261
381.20 1.265
381.30 1.269
381.40 1.273
381.50 1.277
381.60 1.277
381.70 1.276
381.80 1.274
381.90 1.27
382.00 1.265
382.10 1.258
382.20 1.249
382.30 1.223
382.40 1.197
382.50 1.171
382.60 1.145
382.70 1.119
382.80 1.093
382.90 1.068
383.00 1.042
383.10 1.016
383.20 0.9904
383.30 0.9398
383.40 0.88
383.50 0.8172
383.60 0.8305
383.70 0.8942
383.80 0.9528
383.90 1.002
384.00 1.045
384.10 1.085
384.20 1.12
384.30 1.151
384.40 1.179
384.50 1.203
384.60 1.223
384.70 1.24
384.80 1.254
384.90 1.267
385.00 1.277
385.10 1.286
385.20 1.293
385.30 1.3
385.40 1.305
385.50 1.309
385.60 1.313
385.70 1.315
385.80 1.317
385.90 1.318
386.00 1.319
386.10 1.319
386.20 1.318
386.30 1.316
386.40 1.314
386.50 1.311
386.60 1.307
386.70 1.303
386.80 1.298
386.90 1.292
387.00 1.285
387.10 1.277
387.20 1.268
387.30 1.258
387.40 1.246
387.50 1.233
387.60 1.217
387.70 1.2
387.80 1.179
387.90 1.155
388.00 1.128
388.10 1.093
388.20 1.053
388.30 1.01
388.40 0.9568
388.50 0.8994
388.60 0.8376
388.70 0.7636
388.80 0.6901
388.90 0.6171
389.00 0.6847
389.10 0.7559
389.20 0.8308
389.30 0.8933
389.40 0.9513
389.50 1.005
389.60 1.049
389.70 1.09
389.80 1.125
389.90 1.153
390.00 1.179
390.10 1.201
390.20 1.219
390.30 1.236
390.40 1.25
390.50 1.263
390.60 1.275
390.70 1.286
390.80 1.295
390.90 1.304
391.00 1.312
391.10 1.319
391.20 1.326
391.30 1.332
391.40 1.338
391.50 1.343
391.60 1.347
391.70 1.352
391.80 1.355
391.90 1.359
392.00 1.362
392.10 1.364
392.20 1.366
392.30 1.368
392.40 1.369
392.50 1.37
392.60 1.371
392.70 1.371
392.80 1.371
392.90 1.371
393.00 1.37
393.10 1.369
393.20 1.367
393.30 1.366
393.40 1.363
393.50 1.361
393.60 1.358
393.70 1.354
393.80 1.351
393.90 1.346
394.00 1.342
394.10 1.336
394.20 1.331
394.30 1.325
394.40 1.318
394.50 1.31
394.60 1.303
394.70 1.294
394.80 1.285
394.90 1.275
395.00 1.264
395.10 1.253
395.20 1.24
395.30 1.227
395.40 1.212
395.50 1.196
395.60 1.178
395.70 1.159
395.80 1.138
395.90 1.113
396.00 1.086
396.10 1.056
396.20 1.017
396.30 0.9741
396.40 0.9253
396.50 0.8644
396.60 0.7982
396.70 0.7268
396.80 0.6471
396.90 0.5646
397.00 0.4794
397.10 0.5567
397.20 0.6356
397.30 0.7158
397.40 0.7878
397.50 0.8545
397.60 0.916
397.70 0.9654
397.80 1.009
397.90 1.048
398.00 1.078
398.10 1.106
398.20 1.131
398.30 1.151
398.40 1.171
398.50 1.188
398.60 1.204
398.70 1.218
398.80 1.232
398.90 1.244
399.00 1.256
399.10 1.267
399.20 1.276
399.30 1.286
399.40 1.295
399.50 1.303
399.60 1.31
399.70 1.318
399.80 1.324
399.90 1.331
400.00 1.337
400.10 1.342
400.20 1.347
400.30 1.352
400.40 1.357
400.50 1.361
400.60 1.365
400.70 1.369
400.80 1.372
400.90 1.375
401.00 1.378
401.10 1.381
401.20 1.384
401.30 1.386
401.40 1.388
401.50 1.391
401.60 1.392
401.70 1.394
401.80 1.396
401.90 1.397
402.00 1.398
402.10 1.4
402.20 1.401
402.30 1.401
402.40 1.402
402.50 1.403
402.60 1.403
402.70 1.404
402.80 1.404
402.90 1.404
403.00 1.404
403.10 1.404
403.20 1.404
403.30 1.404
403.40 1.404
403.50 1.403
403.60 1.403
403.70 1.402
403.80 1.401
403.90 1.401
404.00 1.4
404.10 1.399
404.20 1.398
404.30 1.396
404.40 1.395
404.50 1.393
404.60 1.392
404.70 1.39
404.80 1.388
404.90 1.387
405.00 1.384
405.10 1.382
405.20 1.38
405.30 1.377
405.40 1.375
405.50 1.372
405.60 1.369
405.70 1.366
405.80 1.362
405.90 1.359
406.00 1.355
406.10 1.351
406.20 1.347
406.30 1.343
406.40 1.338
406.50 1.333
406.60 1.328
406.70 1.323
406.80 1.317
406.90 1.311
407.00 1.305
407.10 1.298
407.20 1.291
407.30 1.283
407.40 1.275
407.50 1.267
407.60 1.258
407.70 1.248
407.80 1.238
407.90 1.227
408.00 1.216
408.10 1.204
408.20 1.191
408.30 1.177
408.40 1.162
408.50 1.146
408.60 1.13
408.70 1.112
408.80 1.092
408.90 1.071
409.00 1.048
409.10 1.021
409.20 0.9925
409.30 0.9609
409.40 0.9216
409.50 0.8771
409.60 0.8274
409.70 0.7657
409.80 0.6996
409.90 0.629
410.00 0.5544
410.10 0.4903
410.20 0.4367
410.30 0.5179
410.40 0.5947
410.50 0.6672
410.60 0.7352
410.70 0.7976
410.80 0.8544
410.90 0.8995
411.00 0.9398
411.10 0.9753
411.20 1.004
411.30 1.03
411.40 1.055
411.50 1.075
411.60 1.095
411.70 1.113
411.80 1.13
411.90 1.145
412.00 1.16
412.10 1.173
412.20 1.185
412.30 1.197
412.40 1.208
412.50 1.218
412.60 1.228
412.70 1.236
412.80 1.245
412.90 1.253
413.00 1.26
413.10 1.267
413.20 1.274
413.30 1.28
413.40 1.285
413.50 1.291
413.60 1.296
413.70 1.3
413.80 1.305
413.90 1.309
414.00 1.313
414.10 1.317
414.20 1.32
414.30 1.324
414.40 1.327
414.50 1.33
414.60 1.333
414.70 1.335
414.80 1.338
414.90 1.34
415.00 1.343
415.10 1.345
415.20 1.347
415.30 1.349
415.40 1.35
415.50 1.352
415.60 1.353
415.70 1.355
415.80 1.356
415.90 1.357
416.00 1.358
416.10 1.36
416.20 1.361
416.30 1.362
416.40 1.362
416.50 1.363
416.60 1.364
416.70 1.365
416.80 1.366
416.90 1.366
417.00 1.367
417.10 1.367
417.20 1.368
417.30 1.368
417.40 1.369
417.50 1.369
417.60 1.369
417.70 1.369
417.80 1.37
417.90 1.37
418.00 1.37
418.10 1.37
418.20 1.37
418.30 1.37
418.40 1.371
418.50 1.371
418.60 1.371
418.70 1.371
418.80 1.371
418.90 1.37
419.00 1.37
419.10 1.37
419.20 1.37
419.30 1.37
419.40 1.37
419.50 1.37
419.60 1.369
419.70 1.369
419.80 1.369
419.90 1.369
420.00 1.368
420.10 1.368
420.20 1.368
420.30 1.368
420.40 1.367
420.50 1.367
420.60 1.367
420.70 1.366
420.80 1.366
420.90 1.365
421.00 1.365
421.10 1.365
421.20 1.364
421.30 1.364
421.40 1.363
421.50 1.363
421.60 1.362
421.70 1.362
421.80 1.361
421.90 1.361
422.00 1.36
422.10 1.36
422.20 1.359
422.30 1.358
422.40 1.358
422.50 1.357
422.60 1.357
422.70 1.356
422.80 1.355
422.90 1.355
423.00 1.354
423.10 1.353
423.20 1.353
423.30 1.352
423.40 1.351
423.50 1.351
423.60 1.35
423.70 1.349
423.80 1.348
423.90 1.348
424.00 1.347
424.10 1.346
424.20 1.345
424.30 1.344
424.40 1.344
424.50 1.343
424.60 1.342
424.70 1.341
424.80 1.34
424.90 1.339
425.00 1.338
425.10 1.337
425.20 1.336
425.30 1.335
425.40 1.334
425.50 1.333
425.60 1.332
425.70 1.331
425.80 1.33
425.90 1.329
426.00 1.328
426.10 1.327
426.20 1.325
426.30 1.324
426.40 1.323
426.50 1.321
426.60 1.32
426.70 1.319
426.80 1.317
426.90 1.316
427.00 1.314
427.10 1.313
427.20 1.311
427.30 1.31
427.40 1.308
427.50 1.306
427.60 1.304
427.70 1.303
427.80 1.301
427.90 1.299
428.00 1.297
428.10 1.295
428.20 1.293
428.30 1.291
428.40 1.288
428.50 1.286
428.60 1.284
428.70 1.281
428.80 1.279
428.90 1.276
429.00 1.273
429.10 1.27
429.20 1.267
429.30 1.264
429.40 1.261
429.50 1.257
429.60 1.254
429.70 1.25
429.80 1.246
429.90 1.242
430.00 1.238
430.10 1.234
430.20 1.229
430.30 1.225
430.40 1.22
430.50 1.214
430.60 1.209
430.70 1.203
430.80 1.198
430.90 1.192
431.00 1.185
431.10 1.178
431.20 1.171
431.30 1.164
431.40 1.157
431.50 1.149
431.60 1.14
431.70 1.131
431.80 1.121
431.90 1.111
432.00 1.1
432.10 1.088
432.20 1.075
432.30 1.06
432.40 1.045
432.50 1.027
432.60 1.008
432.70 0.9871
432.80 0.9634
432.90 0.9385
433.00 0.9125
433.10 0.8846
433.20 0.8544
433.30 0.822
433.40 0.7813
433.50 0.7354
433.60 0.6841
433.70 0.6243
433.80 0.5636
433.90 0.502
434.00 0.4256
434.10 0.4273
434.20 0.507
434.30 0.5682
434.40 0.6284
434.50 0.6876
434.60 0.7378
434.70 0.7826
434.80 0.8222
434.90 0.8536
435.00 0.8829
435.10 0.91
435.20 0.9351
435.30 0.959
435.40 0.9817
435.50 1.002
435.60 1.02
435.70 1.037
435.80 1.051
435.90 1.064
436.00 1.076
436.10 1.087
436.20 1.097
436.30 1.107
436.40 1.115
436.50 1.123
436.60 1.131
436.70 1.138
436.80 1.144
436.90 1.15
437.00 1.156
437.10 1.162
437.20 1.167
437.30 1.172
437.40 1.177
437.50 1.182
437.60 1.186
437.70 1.19
437.80 1.194
437.90 1.197
438.00 1.201
438.10 1.204
438.20 1.207
438.30 1.21
438.40 1.213
438.50 1.215
438.60 1.218
438.70 1.22
438.80 1.222
438.90 1.224
439.00 1.226
439.10 1.228
439.20 1.23
439.30 1.231
439.40 1.233
439.50 1.234
439.60 1.236
439.70 1.237
439.80 1.238
439.90 1.239
440.00 1.24
440.10 1.241
440.20 1.242
440.30 1.243
440.40 1.244
440.50 1.245
440.60 1.245
440.70 1.246
440.80 1.246
440.90 1.247
441.00 1.248
441.10 1.248
441.20 1.248
441.30 1.249
441.40 1.249
441.50 1.25
441.60 1.25
441.70 1.25
441.80 1.25
441.90 1.251
442.00 1.251
442.10 1.251
442.20 1.251
442.30 1.251
442.40 1.251
442.50 1.251
442.60 1.252
442.70 1.252
442.80 1.252
442.90 1.252
443.00 1.252
443.10 1.252
443.20 1.252
443.30 1.251
443.40 1.251
443.50 1.251
443.60 1.251
443.70 1.251
443.80 1.251
443.90 1.251
444.00 1.251
444.10 1.251
444.20 1.25
444.30 1.25
444.40 1.25
444.50 1.25
444.60 1.25
444.70 1.25
444.80 1.249
444.90 1.249
445.00 1.249
445.10 1.249
445.20 1.248
445.30 1.248
445.40 1.248
445.50 1.248
445.60 1.247
445.70 1.247
445.80 1.247
445.90 1.246
446.00 1.246
446.10 1.246
446.20 1.246
446.30 1.245
446.40 1.245
446.50 1.245
446.60 1.244
446.70 1.244
446.80 1.244
446.90 1.243
447.00 1.243
447.10 1.243
447.20 1.242
447.30 1.242
447.40 1.242
447.50 1.241
447.60 1.241
447.70 1.24
447.80 1.24
447.90 1.24
448.00 1.239
448.10 1.239
448.20 1.239
448.30 1.238
448.40 1.238
448.50 1.237
448.60 1.237
448.70 1.237
448.80 1.236
448.90 1.236
449.00 1.235
449.10 1.235
449.20 1.235
449.30 1.234
449.40 1.234
449.50 1.233
449.60 1.233
449.70 1.232
449.80 1.232
449.90 1.232
450.00 1.231
450.10 1.231
450.20 1.23
450.30 1.23
450.40 1.229
450.50 1.229
450.60 1.229
450.70 1.228
450.80 1.228
450.90 1.227
451.00 1.227
451.10 1.226
451.20 1.226
451.30 1.226
451.40 1.225
451.50 1.225
451.60 1.224
451.70 1.224
451.80 1.223
451.90 1.223
452.00 1.222
452.10 1.222
452.20 1.221
452.30 1.221
452.40 1.221
452.50 1.22
452.60 1.22
452.70 1.219
452.80 1.219
452.90 1.218
453.00 1.218
453.10 1.217
453.20 1.217
453.30 1.216
453.40 1.216
453.50 1.215
453.60 1.215
