# Version 2.1 - nm, norm@500 to 1, cut digits, bergeron_80000_65.dat_80000
# Wavelength(nm)  Flambda(ergs/cm^s/s/nm)
300.00 6.653
300.10 6.645
300.20 6.637
300.30 6.629
300.40 6.62
300.50 6.612
300.60 6.604
300.70 6.596
300.80 6.588
300.90 6.58
301.00 6.571
301.10 6.563
301.20 6.555
301.30 6.547
301.40 6.539
301.50 6.531
301.60 6.523
301.70 6.515
301.80 6.507
301.90 6.499
302.00 6.491
302.10 6.483
302.20 6.475
302.30 6.467
302.40 6.459
302.50 6.451
302.60 6.443
302.70 6.435
302.80 6.427
302.90 6.419
303.00 6.411
303.10 6.403
303.20 6.396
303.30 6.388
303.40 6.38
303.50 6.372
303.60 6.364
303.70 6.356
303.80 6.349
303.90 6.341
304.00 6.333
304.10 6.325
304.20 6.318
304.30 6.31
304.40 6.302
304.50 6.294
304.60 6.287
304.70 6.279
304.80 6.271
304.90 6.264
305.00 6.256
305.10 6.248
305.20 6.241
305.30 6.233
305.40 6.226
305.50 6.218
305.60 6.21
305.70 6.203
305.80 6.195
305.90 6.188
306.00 6.18
306.10 6.173
306.20 6.165
306.30 6.158
306.40 6.15
306.50 6.143
306.60 6.135
306.70 6.128
306.80 6.12
306.90 6.113
307.00 6.105
307.10 6.098
307.20 6.091
307.30 6.083
307.40 6.076
307.50 6.069
307.60 6.061
307.70 6.054
307.80 6.047
307.90 6.039
308.00 6.032
308.10 6.025
308.20 6.017
308.30 6.01
308.40 6.003
308.50 5.996
308.60 5.988
308.70 5.981
308.80 5.974
308.90 5.967
309.00 5.959
309.10 5.952
309.20 5.945
309.30 5.938
309.40 5.931
309.50 5.924
309.60 5.916
309.70 5.909
309.80 5.902
309.90 5.895
310.00 5.888
310.10 5.881
310.20 5.874
310.30 5.867
310.40 5.86
310.50 5.853
310.60 5.846
310.70 5.839
310.80 5.832
310.90 5.825
311.00 5.818
311.10 5.811
311.20 5.804
311.30 5.797
311.40 5.79
311.50 5.783
311.60 5.776
311.70 5.769
311.80 5.762
311.90 5.755
312.00 5.748
312.10 5.742
312.20 5.735
312.30 5.728
312.40 5.721
312.50 5.714
312.60 5.707
312.70 5.701
312.80 5.694
312.90 5.687
313.00 5.68
313.10 5.673
313.20 5.667
313.30 5.66
313.40 5.653
313.50 5.647
313.60 5.64
313.70 5.633
313.80 5.626
313.90 5.62
314.00 5.613
314.10 5.606
314.20 5.6
314.30 5.593
314.40 5.586
314.50 5.58
314.60 5.573
314.70 5.567
314.80 5.56
314.90 5.553
315.00 5.547
315.10 5.54
315.20 5.534
315.30 5.527
315.40 5.521
315.50 5.514
315.60 5.508
315.70 5.501
315.80 5.494
315.90 5.488
316.00 5.482
316.10 5.475
316.20 5.469
316.30 5.462
316.40 5.456
316.50 5.449
316.60 5.443
316.70 5.436
316.80 5.43
316.90 5.424
317.00 5.417
317.10 5.411
317.20 5.404
317.30 5.398
317.40 5.392
317.50 5.385
317.60 5.379
317.70 5.373
317.80 5.366
317.90 5.36
318.00 5.354
318.10 5.348
318.20 5.341
318.30 5.335
318.40 5.329
318.50 5.323
318.60 5.316
318.70 5.31
318.80 5.304
318.90 5.298
319.00 5.291
319.10 5.285
319.20 5.279
319.30 5.273
319.40 5.267
319.50 5.261
319.60 5.254
319.70 5.248
319.80 5.242
319.90 5.236
320.00 5.23
320.10 5.224
320.20 5.218
320.30 5.212
320.40 5.206
320.50 5.199
320.60 5.193
320.70 5.187
320.80 5.181
320.90 5.175
321.00 5.169
321.10 5.163
321.20 5.157
321.30 5.151
321.40 5.145
321.50 5.139
321.60 5.133
321.70 5.127
321.80 5.121
321.90 5.115
322.00 5.11
322.10 5.104
322.20 5.098
322.30 5.092
322.40 5.086
322.50 5.08
322.60 5.074
322.70 5.068
322.80 5.062
322.90 5.056
323.00 5.051
323.10 5.045
323.20 5.039
323.30 5.033
323.40 5.027
323.50 5.022
323.60 5.016
323.70 5.01
323.80 5.004
323.90 4.998
324.00 4.993
324.10 4.987
324.20 4.981
324.30 4.975
324.40 4.97
324.50 4.964
324.60 4.958
324.70 4.952
324.80 4.947
324.90 4.941
325.00 4.935
325.10 4.93
325.20 4.924
325.30 4.918
325.40 4.913
325.50 4.907
325.60 4.901
325.70 4.896
325.80 4.89
325.90 4.885
326.00 4.879
326.10 4.873
326.20 4.868
326.30 4.862
326.40 4.857
326.50 4.851
326.60 4.846
326.70 4.84
326.80 4.834
326.90 4.829
327.00 4.823
327.10 4.818
327.20 4.812
327.30 4.807
327.40 4.801
327.50 4.796
327.60 4.79
327.70 4.785
327.80 4.78
327.90 4.774
328.00 4.769
328.10 4.763
328.20 4.758
328.30 4.752
328.40 4.747
328.50 4.742
328.60 4.736
328.70 4.731
328.80 4.725
328.90 4.72
329.00 4.715
329.10 4.709
329.20 4.704
329.30 4.699
329.40 4.693
329.50 4.688
329.60 4.683
329.70 4.677
329.80 4.672
329.90 4.667
330.00 4.661
330.10 4.656
330.20 4.651
330.30 4.646
330.40 4.64
330.50 4.635
330.60 4.63
330.70 4.625
330.80 4.619
330.90 4.614
331.00 4.609
331.10 4.604
331.20 4.599
331.30 4.593
331.40 4.588
331.50 4.583
331.60 4.578
331.70 4.573
331.80 4.567
331.90 4.562
332.00 4.557
332.10 4.552
332.20 4.547
332.30 4.542
332.40 4.537
332.50 4.532
332.60 4.526
332.70 4.521
332.80 4.516
332.90 4.511
333.00 4.506
333.10 4.501
333.20 4.496
333.30 4.491
333.40 4.486
333.50 4.481
333.60 4.476
333.70 4.471
333.80 4.466
333.90 4.461
334.00 4.456
334.10 4.451
334.20 4.446
334.30 4.441
334.40 4.436
334.50 4.431
334.60 4.426
334.70 4.421
334.80 4.416
334.90 4.411
335.00 4.406
335.10 4.401
335.20 4.396
335.30 4.391
335.40 4.387
335.50 4.382
335.60 4.377
335.70 4.372
335.80 4.367
335.90 4.362
336.00 4.357
336.10 4.352
336.20 4.348
336.30 4.343
336.40 4.338
336.50 4.333
336.60 4.328
336.70 4.323
336.80 4.319
336.90 4.314
337.00 4.309
337.10 4.304
337.20 4.299
337.30 4.295
337.40 4.29
337.50 4.285
337.60 4.28
337.70 4.276
337.80 4.271
337.90 4.266
338.00 4.261
338.10 4.257
338.20 4.252
338.30 4.247
338.40 4.243
338.50 4.238
338.60 4.233
338.70 4.229
338.80 4.224
338.90 4.219
339.00 4.215
339.10 4.21
339.20 4.205
339.30 4.201
339.40 4.196
339.50 4.191
339.60 4.187
339.70 4.182
339.80 4.177
339.90 4.173
340.00 4.168
340.10 4.164
340.20 4.159
340.30 4.154
340.40 4.15
340.50 4.145
340.60 4.141
340.70 4.136
340.80 4.132
340.90 4.127
341.00 4.123
341.10 4.118
341.20 4.114
341.30 4.109
341.40 4.104
341.50 4.1
341.60 4.095
341.70 4.091
341.80 4.086
341.90 4.082
342.00 4.077
342.10 4.073
342.20 4.069
342.30 4.064
342.40 4.06
342.50 4.055
342.60 4.051
342.70 4.046
342.80 4.042
342.90 4.038
343.00 4.033
343.10 4.029
343.20 4.024
343.30 4.02
343.40 4.016
343.50 4.011
343.60 4.007
343.70 4.002
343.80 3.998
343.90 3.994
344.00 3.989
344.10 3.985
344.20 3.981
344.30 3.976
344.40 3.972
344.50 3.968
344.60 3.963
344.70 3.959
344.80 3.955
344.90 3.95
345.00 3.946
345.10 3.942
345.20 3.938
345.30 3.933
345.40 3.929
345.50 3.925
345.60 3.92
345.70 3.916
345.80 3.912
345.90 3.908
346.00 3.903
346.10 3.899
346.20 3.895
346.30 3.891
346.40 3.887
346.50 3.882
346.60 3.878
346.70 3.874
346.80 3.87
346.90 3.866
347.00 3.861
347.10 3.857
347.20 3.853
347.30 3.849
347.40 3.845
347.50 3.841
347.60 3.836
347.70 3.832
347.80 3.828
347.90 3.824
348.00 3.82
348.10 3.816
348.20 3.812
348.30 3.808
348.40 3.804
348.50 3.799
348.60 3.795
348.70 3.791
348.80 3.787
348.90 3.783
349.00 3.779
349.10 3.775
349.20 3.771
349.30 3.767
349.40 3.763
349.50 3.759
349.60 3.755
349.70 3.751
349.80 3.747
349.90 3.743
350.00 3.739
350.10 3.735
350.20 3.731
350.30 3.727
350.40 3.723
350.50 3.719
350.60 3.715
350.70 3.711
350.80 3.707
350.90 3.703
351.00 3.699
351.10 3.695
351.20 3.691
351.30 3.687
351.40 3.683
351.50 3.679
351.60 3.675
351.70 3.671
351.80 3.667
351.90 3.663
352.00 3.659
352.10 3.656
352.20 3.652
352.30 3.648
352.40 3.644
352.50 3.64
352.60 3.636
352.70 3.632
352.80 3.628
352.90 3.625
353.00 3.621
353.10 3.617
353.20 3.613
353.30 3.609
353.40 3.605
353.50 3.601
353.60 3.598
353.70 3.594
353.80 3.59
353.90 3.586
354.00 3.582
354.10 3.579
354.20 3.575
354.30 3.571
354.40 3.567
354.50 3.563
354.60 3.56
354.70 3.556
354.80 3.552
354.90 3.548
355.00 3.545
355.10 3.541
355.20 3.537
355.30 3.533
355.40 3.53
355.50 3.526
355.60 3.522
355.70 3.518
355.80 3.515
355.90 3.511
356.00 3.507
356.10 3.504
356.20 3.5
356.30 3.496
356.40 3.493
356.50 3.489
356.60 3.485
356.70 3.482
356.80 3.478
356.90 3.474
357.00 3.471
357.10 3.467
357.20 3.463
357.30 3.46
357.40 3.456
357.50 3.452
357.60 3.449
357.70 3.445
357.80 3.441
357.90 3.438
358.00 3.434
358.10 3.431
358.20 3.427
358.30 3.423
358.40 3.42
358.50 3.416
358.60 3.413
358.70 3.409
358.80 3.406
358.90 3.402
359.00 3.398
359.10 3.395
359.20 3.391
359.30 3.388
359.40 3.384
359.50 3.381
359.60 3.377
359.70 3.374
359.80 3.37
359.90 3.367
360.00 3.363
360.10 3.36
360.20 3.356
360.30 3.353
360.40 3.349
360.50 3.346
360.60 3.342
360.70 3.339
360.80 3.335
360.90 3.332
361.00 3.328
361.10 3.325
361.20 3.321
361.30 3.318
361.40 3.314
361.50 3.311
361.60 3.307
361.70 3.304
361.80 3.301
361.90 3.297
362.00 3.294
362.10 3.29
362.20 3.287
362.30 3.283
362.40 3.28
362.50 3.277
362.60 3.273
362.70 3.27
362.80 3.266
362.90 3.263
363.00 3.26
363.10 3.256
363.20 3.253
363.30 3.25
363.40 3.246
363.50 3.243
363.60 3.24
363.70 3.236
363.80 3.233
363.90 3.229
364.00 3.226
364.10 3.223
364.20 3.219
364.30 3.216
364.40 3.213
364.50 3.209
364.60 3.206
364.70 3.203
364.80 3.2
364.90 3.196
365.00 3.193
365.10 3.19
365.20 3.186
365.30 3.183
365.40 3.18
365.50 3.177
365.60 3.173
365.70 3.17
365.80 3.167
365.90 3.164
366.00 3.16
366.10 3.157
366.20 3.154
366.30 3.15
366.40 3.147
366.50 3.144
366.60 3.14
366.70 3.137
366.80 3.134
366.90 3.13
367.00 3.127
367.10 3.124
367.20 3.121
367.30 3.117
367.40 3.114
367.50 3.111
367.60 3.107
367.70 3.104
367.80 3.101
367.90 3.098
368.00 3.094
368.10 3.091
368.20 3.088
368.30 3.085
368.40 3.082
368.50 3.078
368.60 3.075
368.70 3.072
368.80 3.069
368.90 3.065
369.00 3.062
369.10 3.059
369.20 3.056
369.30 3.053
369.40 3.049
369.50 3.046
369.60 3.043
369.70 3.04
369.80 3.037
369.90 3.034
370.00 3.03
370.10 3.027
370.20 3.024
370.30 3.021
370.40 3.018
370.50 3.015
370.60 3.012
370.70 3.009
370.80 3.005
370.90 3.002
371.00 2.999
371.10 2.996
371.20 2.993
371.30 2.99
371.40 2.987
371.50 2.984
371.60 2.981
371.70 2.978
371.80 2.975
371.90 2.971
372.00 2.968
372.10 2.965
372.20 2.962
372.30 2.96
372.40 2.957
372.50 2.954
372.60 2.951
372.70 2.948
372.80 2.945
372.90 2.942
373.00 2.939
373.10 2.936
373.20 2.933
373.30 2.93
373.40 2.927
373.50 2.924
373.60 2.921
373.70 2.919
373.80 2.916
373.90 2.913
374.00 2.91
374.10 2.907
374.20 2.904
374.30 2.902
374.40 2.899
374.50 2.896
374.60 2.893
374.70 2.89
374.80 2.888
374.90 2.885
375.00 2.882
375.10 2.879
375.20 2.877
375.30 2.874
375.40 2.871
375.50 2.868
375.60 2.866
375.70 2.863
375.80 2.86
375.90 2.857
376.00 2.855
376.10 2.852
376.20 2.849
376.30 2.845
376.40 2.842
376.50 2.839
376.60 2.836
376.70 2.833
376.80 2.83
376.90 2.827
377.00 2.824
377.10 2.822
377.20 2.819
377.30 2.817
377.40 2.815
377.50 2.813
377.60 2.811
377.70 2.809
377.80 2.807
377.90 2.805
378.00 2.803
378.10 2.8
378.20 2.797
378.30 2.794
378.40 2.791
378.50 2.788
378.60 2.785
378.70 2.781
378.80 2.778
378.90 2.775
379.00 2.772
379.10 2.769
379.20 2.765
379.30 2.762
379.40 2.759
379.50 2.755
379.60 2.752
379.70 2.749
379.80 2.745
379.90 2.742
380.00 2.738
380.10 2.738
380.20 2.737
380.30 2.736
380.40 2.735
380.50 2.734
380.60 2.733
380.70 2.732
380.80 2.732
380.90 2.731
381.00 2.73
381.10 2.728
381.20 2.725
381.30 2.723
381.40 2.721
381.50 2.719
381.60 2.716
381.70 2.712
381.80 2.709
381.90 2.706
382.00 2.702
382.10 2.698
382.20 2.693
382.30 2.687
382.40 2.681
382.50 2.675
382.60 2.67
382.70 2.664
382.80 2.658
382.90 2.652
383.00 2.646
383.10 2.64
383.20 2.634
383.30 2.627
383.40 2.62
383.50 2.615
383.60 2.613
383.70 2.615
383.80 2.617
383.90 2.62
384.00 2.623
384.10 2.625
384.20 2.627
384.30 2.629
384.40 2.631
384.50 2.632
384.60 2.633
384.70 2.634
384.80 2.634
384.90 2.635
385.00 2.635
385.10 2.634
385.20 2.634
385.30 2.633
385.40 2.632
385.50 2.631
385.60 2.63
385.70 2.628
385.80 2.626
385.90 2.624
386.00 2.622
386.10 2.619
386.20 2.617
386.30 2.614
386.40 2.61
386.50 2.607
386.60 2.603
386.70 2.599
386.80 2.595
386.90 2.59
387.00 2.585
387.10 2.58
387.20 2.575
387.30 2.569
387.40 2.563
387.50 2.556
387.60 2.549
387.70 2.541
387.80 2.533
387.90 2.525
388.00 2.516
388.10 2.507
388.20 2.497
388.30 2.486
388.40 2.475
388.50 2.463
388.60 2.452
388.70 2.44
388.80 2.431
388.90 2.425
389.00 2.426
389.10 2.43
389.20 2.437
389.30 2.445
389.40 2.452
389.50 2.459
389.60 2.465
389.70 2.47
389.80 2.476
389.90 2.48
390.00 2.484
390.10 2.488
390.20 2.491
390.30 2.493
390.40 2.496
390.50 2.498
390.60 2.499
390.70 2.501
390.80 2.502
390.90 2.503
391.00 2.503
391.10 2.503
391.20 2.503
391.30 2.503
391.40 2.503
391.50 2.502
391.60 2.502
391.70 2.501
391.80 2.5
391.90 2.498
392.00 2.497
392.10 2.496
392.20 2.494
392.30 2.492
392.40 2.491
392.50 2.489
392.60 2.487
392.70 2.485
392.80 2.482
392.90 2.48
393.00 2.478
393.10 2.475
393.20 2.472
393.30 2.47
393.40 2.467
393.50 2.464
393.60 2.461
393.70 2.458
393.80 2.454
393.90 2.451
394.00 2.447
394.10 2.443
394.20 2.439
394.30 2.435
394.40 2.431
394.50 2.426
394.60 2.421
394.70 2.416
394.80 2.411
394.90 2.405
395.00 2.399
395.10 2.393
395.20 2.386
395.30 2.379
395.40 2.371
395.50 2.363
395.60 2.354
395.70 2.345
395.80 2.335
395.90 2.324
396.00 2.313
396.10 2.301
396.20 2.288
396.30 2.274
396.40 2.26
396.50 2.243
396.60 2.226
396.70 2.208
396.80 2.188
396.90 2.168
397.00 2.149
397.10 2.163
397.20 2.178
397.30 2.194
397.40 2.208
397.50 2.221
397.60 2.233
397.70 2.244
397.80 2.253
397.90 2.262
398.00 2.27
398.10 2.277
398.20 2.284
398.30 2.289
398.40 2.294
398.50 2.299
398.60 2.302
398.70 2.306
398.80 2.308
398.90 2.311
399.00 2.313
399.10 2.315
399.20 2.316
399.30 2.317
399.40 2.318
399.50 2.318
399.60 2.318
399.70 2.318
399.80 2.318
399.90 2.318
400.00 2.317
400.10 2.317
400.20 2.316
400.30 2.315
400.40 2.314
400.50 2.313
400.60 2.312
400.70 2.311
400.80 2.31
400.90 2.308
401.00 2.307
401.10 2.305
401.20 2.304
401.30 2.302
401.40 2.301
401.50 2.299
401.60 2.297
401.70 2.295
401.80 2.294
401.90 2.292
402.00 2.29
402.10 2.288
402.20 2.286
402.30 2.284
402.40 2.282
402.50 2.281
402.60 2.279
402.70 2.277
402.80 2.275
402.90 2.273
403.00 2.271
403.10 2.268
403.20 2.266
403.30 2.264
403.40 2.262
403.50 2.26
403.60 2.258
403.70 2.256
403.80 2.254
403.90 2.252
404.00 2.249
404.10 2.247
404.20 2.245
404.30 2.243
404.40 2.241
404.50 2.238
404.60 2.236
404.70 2.234
404.80 2.231
404.90 2.229
405.00 2.227
405.10 2.224
405.20 2.222
405.30 2.22
405.40 2.217
405.50 2.215
405.60 2.212
405.70 2.21
405.80 2.207
405.90 2.204
406.00 2.202
406.10 2.199
406.20 2.196
406.30 2.193
406.40 2.191
406.50 2.188
406.60 2.185
406.70 2.181
406.80 2.178
406.90 2.175
407.00 2.171
407.10 2.168
407.20 2.164
407.30 2.16
407.40 2.156
407.50 2.152
407.60 2.148
407.70 2.143
407.80 2.138
407.90 2.133
408.00 2.128
408.10 2.122
408.20 2.115
408.30 2.109
408.40 2.102
408.50 2.094
408.60 2.086
408.70 2.077
408.80 2.068
408.90 2.057
409.00 2.047
409.10 2.035
409.20 2.022
409.30 2.008
409.40 1.992
409.50 1.976
409.60 1.958
409.70 1.938
409.80 1.916
409.90 1.892
410.00 1.862
410.10 1.842
410.20 1.831
410.30 1.849
410.40 1.87
410.50 1.895
410.60 1.914
410.70 1.931
410.80 1.946
410.90 1.959
411.00 1.971
411.10 1.983
411.20 1.992
411.30 2
411.40 2.008
411.50 2.015
411.60 2.02
411.70 2.026
411.80 2.03
411.90 2.034
412.00 2.037
412.10 2.04
412.20 2.043
412.30 2.045
412.40 2.046
412.50 2.048
412.60 2.049
412.70 2.049
412.80 2.05
412.90 2.05
413.00 2.05
413.10 2.05
413.20 2.05
413.30 2.05
413.40 2.049
413.50 2.049
413.60 2.048
413.70 2.047
413.80 2.046
413.90 2.045
414.00 2.044
414.10 2.043
414.20 2.042
414.30 2.041
414.40 2.039
414.50 2.038
414.60 2.037
414.70 2.035
414.80 2.034
414.90 2.032
415.00 2.031
415.10 2.029
415.20 2.028
415.30 2.026
415.40 2.025
415.50 2.023
415.60 2.022
415.70 2.02
415.80 2.019
415.90 2.017
416.00 2.015
416.10 2.014
416.20 2.012
416.30 2.01
416.40 2.009
416.50 2.007
416.60 2.005
416.70 2.004
416.80 2.002
416.90 2
417.00 1.998
417.10 1.997
417.20 1.995
417.30 1.993
417.40 1.992
417.50 1.99
417.60 1.988
417.70 1.986
417.80 1.985
417.90 1.983
418.00 1.981
418.10 1.979
418.20 1.978
418.30 1.976
418.40 1.974
418.50 1.972
418.60 1.971
418.70 1.969
418.80 1.967
418.90 1.965
419.00 1.964
419.10 1.962
419.20 1.96
419.30 1.959
419.40 1.957
419.50 1.955
419.60 1.953
419.70 1.952
419.80 1.95
419.90 1.948
420.00 1.946
420.10 1.945
420.20 1.943
420.30 1.941
420.40 1.939
420.50 1.938
420.60 1.936
420.70 1.934
420.80 1.932
420.90 1.931
421.00 1.929
421.10 1.927
421.20 1.925
421.30 1.924
421.40 1.922
421.50 1.92
421.60 1.919
421.70 1.917
421.80 1.915
421.90 1.913
422.00 1.912
422.10 1.91
422.20 1.908
422.30 1.906
422.40 1.905
422.50 1.903
422.60 1.901
422.70 1.9
422.80 1.898
422.90 1.896
423.00 1.894
423.10 1.893
423.20 1.891
423.30 1.889
423.40 1.888
423.50 1.886
423.60 1.884
423.70 1.882
423.80 1.881
423.90 1.879
424.00 1.877
424.10 1.876
424.20 1.874
424.30 1.872
424.40 1.87
424.50 1.869
424.60 1.867
424.70 1.865
424.80 1.864
424.90 1.862
425.00 1.86
425.10 1.858
425.20 1.857
425.30 1.855
425.40 1.853
425.50 1.852
425.60 1.85
425.70 1.848
425.80 1.847
425.90 1.845
426.00 1.843
426.10 1.841
426.20 1.84
426.30 1.838
426.40 1.836
426.50 1.835
426.60 1.833
426.70 1.831
426.80 1.829
426.90 1.828
427.00 1.826
427.10 1.824
427.20 1.823
427.30 1.821
427.40 1.819
427.50 1.817
427.60 1.816
427.70 1.814
427.80 1.812
427.90 1.81
428.00 1.809
428.10 1.807
428.20 1.805
428.30 1.803
428.40 1.801
428.50 1.8
428.60 1.798
428.70 1.796
428.80 1.794
428.90 1.792
429.00 1.79
429.10 1.788
429.20 1.787
429.30 1.785
429.40 1.783
429.50 1.781
429.60 1.779
429.70 1.777
429.80 1.775
429.90 1.773
430.00 1.77
430.10 1.768
430.20 1.766
430.30 1.764
430.40 1.761
430.50 1.759
430.60 1.757
430.70 1.754
430.80 1.752
430.90 1.749
431.00 1.746
431.10 1.743
431.20 1.74
431.30 1.737
431.40 1.734
431.50 1.73
431.60 1.726
431.70 1.723
431.80 1.718
431.90 1.714
432.00 1.709
432.10 1.704
432.20 1.699
432.30 1.693
432.40 1.687
432.50 1.679
432.60 1.672
432.70 1.664
432.80 1.655
432.90 1.645
433.00 1.635
433.10 1.623
433.20 1.61
433.30 1.596
433.40 1.581
433.50 1.563
433.60 1.545
433.70 1.521
433.80 1.493
433.90 1.459
434.00 1.425
434.10 1.425
434.20 1.458
434.30 1.488
434.40 1.514
434.50 1.534
434.60 1.55
434.70 1.564
434.80 1.577
434.90 1.588
435.00 1.598
435.10 1.607
435.20 1.614
435.30 1.621
435.40 1.627
435.50 1.632
435.60 1.636
435.70 1.64
435.80 1.643
435.90 1.646
436.00 1.648
436.10 1.65
436.20 1.652
436.30 1.653
436.40 1.654
436.50 1.655
436.60 1.656
436.70 1.656
436.80 1.656
436.90 1.656
437.00 1.656
437.10 1.656
437.20 1.656
437.30 1.655
437.40 1.655
437.50 1.654
437.60 1.654
437.70 1.653
437.80 1.652
437.90 1.651
438.00 1.651
438.10 1.65
438.20 1.649
438.30 1.648
438.40 1.647
438.50 1.646
438.60 1.645
438.70 1.644
438.80 1.642
438.90 1.641
439.00 1.64
439.10 1.639
439.20 1.638
439.30 1.637
439.40 1.635
439.50 1.634
439.60 1.633
439.70 1.632
439.80 1.631
439.90 1.629
440.00 1.628
440.10 1.627
440.20 1.625
440.30 1.624
440.40 1.623
440.50 1.622
440.60 1.62
440.70 1.619
440.80 1.618
440.90 1.616
441.00 1.615
441.10 1.614
441.20 1.612
441.30 1.611
441.40 1.61
441.50 1.608
441.60 1.607
441.70 1.606
441.80 1.604
441.90 1.603
442.00 1.602
442.10 1.6
442.20 1.599
442.30 1.598
442.40 1.597
442.50 1.595
442.60 1.594
442.70 1.593
442.80 1.591
442.90 1.59
443.00 1.588
443.10 1.587
443.20 1.586
443.30 1.584
443.40 1.583
443.50 1.582
443.60 1.58
443.70 1.579
443.80 1.578
443.90 1.577
444.00 1.575
444.10 1.574
444.20 1.572
444.30 1.571
444.40 1.57
444.50 1.569
444.60 1.567
444.70 1.566
444.80 1.565
444.90 1.563
445.00 1.562
445.10 1.561
445.20 1.559
445.30 1.558
445.40 1.557
445.50 1.555
445.60 1.554
445.70 1.553
445.80 1.551
445.90 1.55
446.00 1.549
446.10 1.547
446.20 1.546
446.30 1.545
446.40 1.543
446.50 1.542
446.60 1.541
446.70 1.54
446.80 1.538
446.90 1.537
447.00 1.536
447.10 1.534
447.20 1.533
447.30 1.532
447.40 1.53
447.50 1.529
447.60 1.528
447.70 1.526
447.80 1.525
447.90 1.524
448.00 1.523
448.10 1.521
448.20 1.52
448.30 1.519
448.40 1.517
448.50 1.516
448.60 1.515
448.70 1.514
448.80 1.512
448.90 1.511
449.00 1.51
449.10 1.508
449.20 1.507
449.30 1.506
449.40 1.505
449.50 1.503
449.60 1.502
449.70 1.501
449.80 1.5
449.90 1.498
450.00 1.497
450.10 1.496
450.20 1.494
450.30 1.493
450.40 1.492
450.50 1.491
450.60 1.489
450.70 1.488
450.80 1.487
450.90 1.486
451.00 1.484
451.10 1.483
451.20 1.482
451.30 1.481
451.40 1.479
451.50 1.478
451.60 1.477
451.70 1.476
451.80 1.474
451.90 1.473
452.00 1.472
452.10 1.471
452.20 1.469
452.30 1.468
452.40 1.467
452.50 1.466
452.60 1.464
452.70 1.463
452.80 1.462
452.90 1.461
453.00 1.46
453.10 1.458
453.20 1.457
453.30 1.456
453.40 1.455
453.50 1.453
453.60 1.452
453.70 1.451
453.80 1.45
453.90 1.449
454.00 1.447
454.10 1.446
