# Version 2.1 - nm, norm@500 to 1, cut digits, bergeron_3000_80.dat_3000
# Wavelength(nm)  Flambda(ergs/cm^s/s/nm)
300.00 0.09669
300.10 0.09693
300.20 0.09717
300.30 0.09741
300.40 0.09765
300.50 0.0979
300.60 0.09814
300.70 0.09838
300.80 0.09862
300.90 0.09886
301.00 0.09911
301.10 0.09935
301.20 0.09959
301.30 0.09983
301.40 0.1001
301.50 0.1003
301.60 0.1005
301.70 0.1008
301.80 0.101
301.90 0.1013
302.00 0.1015
302.10 0.1017
302.20 0.102
302.30 0.1022
302.40 0.1025
302.50 0.1027
302.60 0.103
302.70 0.1032
302.80 0.1035
302.90 0.1037
303.00 0.104
303.10 0.1042
303.20 0.1045
303.30 0.1047
303.40 0.105
303.50 0.1052
303.60 0.1055
303.70 0.1057
303.80 0.106
303.90 0.1062
304.00 0.1065
304.10 0.1067
304.20 0.107
304.30 0.1072
304.40 0.1075
304.50 0.1077
304.60 0.108
304.70 0.1083
304.80 0.1085
304.90 0.1088
305.00 0.109
305.10 0.1093
305.20 0.1095
305.30 0.1098
305.40 0.11
305.50 0.1103
305.60 0.1105
305.70 0.1108
305.80 0.111
305.90 0.1113
306.00 0.1116
306.10 0.1118
306.20 0.1121
306.30 0.1123
306.40 0.1126
306.50 0.1129
306.60 0.1131
306.70 0.1134
306.80 0.1137
306.90 0.1139
307.00 0.1142
307.10 0.1144
307.20 0.1147
307.30 0.115
307.40 0.1152
307.50 0.1155
307.60 0.1158
307.70 0.116
307.80 0.1163
307.90 0.1165
308.00 0.1168
308.10 0.1171
308.20 0.1173
308.30 0.1176
308.40 0.1179
308.50 0.1181
308.60 0.1184
308.70 0.1187
308.80 0.119
308.90 0.1192
309.00 0.1195
309.10 0.1198
309.20 0.12
309.30 0.1203
309.40 0.1206
309.50 0.1208
309.60 0.1211
309.70 0.1214
309.80 0.1216
309.90 0.1219
310.00 0.1222
310.10 0.1225
310.20 0.1227
310.30 0.123
310.40 0.1233
310.50 0.1236
310.60 0.1238
310.70 0.1241
310.80 0.1244
310.90 0.1247
311.00 0.125
311.10 0.1252
311.20 0.1255
311.30 0.1258
311.40 0.1261
311.50 0.1263
311.60 0.1266
311.70 0.1269
311.80 0.1272
311.90 0.1274
312.00 0.1277
312.10 0.128
312.20 0.1283
312.30 0.1285
312.40 0.1288
312.50 0.1291
312.60 0.1294
312.70 0.1297
312.80 0.13
312.90 0.1302
313.00 0.1305
313.10 0.1308
313.20 0.1311
313.30 0.1314
313.40 0.1317
313.50 0.1319
313.60 0.1322
313.70 0.1325
313.80 0.1328
313.90 0.1331
314.00 0.1334
314.10 0.1336
314.20 0.1339
314.30 0.1342
314.40 0.1345
314.50 0.1348
314.60 0.1351
314.70 0.1354
314.80 0.1357
314.90 0.136
315.00 0.1363
315.10 0.1366
315.20 0.1369
315.30 0.1371
315.40 0.1374
315.50 0.1377
315.60 0.138
315.70 0.1383
315.80 0.1386
315.90 0.1389
316.00 0.1392
316.10 0.1395
316.20 0.1398
316.30 0.1401
316.40 0.1404
316.50 0.1407
316.60 0.141
316.70 0.1413
316.80 0.1416
316.90 0.1418
317.00 0.1421
317.10 0.1424
317.20 0.1427
317.30 0.143
317.40 0.1433
317.50 0.1436
317.60 0.1439
317.70 0.1442
317.80 0.1445
317.90 0.1448
318.00 0.1451
318.10 0.1454
318.20 0.1457
318.30 0.146
318.40 0.1463
318.50 0.1466
318.60 0.1469
318.70 0.1472
318.80 0.1476
318.90 0.1479
319.00 0.1482
319.10 0.1485
319.20 0.1488
319.30 0.1491
319.40 0.1494
319.50 0.1497
319.60 0.15
319.70 0.1503
319.80 0.1506
319.90 0.1509
320.00 0.1512
320.10 0.1515
320.20 0.1518
320.30 0.1521
320.40 0.1524
320.50 0.1528
320.60 0.1531
320.70 0.1534
320.80 0.1537
320.90 0.154
321.00 0.1543
321.10 0.1546
321.20 0.1549
321.30 0.1552
321.40 0.1556
321.50 0.1559
321.60 0.1562
321.70 0.1565
321.80 0.1568
321.90 0.1571
322.00 0.1574
322.10 0.1577
322.20 0.158
322.30 0.1584
322.40 0.1587
322.50 0.159
322.60 0.1593
322.70 0.1596
322.80 0.16
322.90 0.1603
323.00 0.1606
323.10 0.1609
323.20 0.1612
323.30 0.1616
323.40 0.1619
323.50 0.1622
323.60 0.1625
323.70 0.1628
323.80 0.1631
323.90 0.1635
324.00 0.1638
324.10 0.1641
324.20 0.1644
324.30 0.1647
324.40 0.1651
324.50 0.1654
324.60 0.1657
324.70 0.1661
324.80 0.1664
324.90 0.1667
325.00 0.167
325.10 0.1674
325.20 0.1677
325.30 0.168
325.40 0.1683
325.50 0.1687
325.60 0.169
325.70 0.1693
325.80 0.1696
325.90 0.1699
326.00 0.1703
326.10 0.1706
326.20 0.1709
326.30 0.1713
326.40 0.1716
326.50 0.1719
326.60 0.1723
326.70 0.1726
326.80 0.1729
326.90 0.1733
327.00 0.1736
327.10 0.1739
327.20 0.1743
327.30 0.1746
327.40 0.1749
327.50 0.1752
327.60 0.1756
327.70 0.1759
327.80 0.1762
327.90 0.1766
328.00 0.1769
328.10 0.1772
328.20 0.1776
328.30 0.1779
328.40 0.1783
328.50 0.1786
328.60 0.1789
328.70 0.1793
328.80 0.1796
328.90 0.18
329.00 0.1803
329.10 0.1806
329.20 0.181
329.30 0.1813
329.40 0.1816
329.50 0.182
329.60 0.1823
329.70 0.1827
329.80 0.183
329.90 0.1833
330.00 0.1837
330.10 0.184
330.20 0.1844
330.30 0.1847
330.40 0.1851
330.50 0.1854
330.60 0.1857
330.70 0.1861
330.80 0.1864
330.90 0.1868
331.00 0.1871
331.10 0.1875
331.20 0.1878
331.30 0.1882
331.40 0.1885
331.50 0.1888
331.60 0.1892
331.70 0.1895
331.80 0.1899
331.90 0.1902
332.00 0.1906
332.10 0.1909
332.20 0.1913
332.30 0.1916
332.40 0.192
332.50 0.1923
332.60 0.1927
332.70 0.193
332.80 0.1934
332.90 0.1937
333.00 0.1941
333.10 0.1944
333.20 0.1948
333.30 0.1951
333.40 0.1955
333.50 0.1958
333.60 0.1962
333.70 0.1965
333.80 0.1969
333.90 0.1972
334.00 0.1976
334.10 0.1979
334.20 0.1983
334.30 0.1987
334.40 0.199
334.50 0.1994
334.60 0.1997
334.70 0.2001
334.80 0.2005
334.90 0.2008
335.00 0.2012
335.10 0.2015
335.20 0.2019
335.30 0.2023
335.40 0.2026
335.50 0.203
335.60 0.2033
335.70 0.2037
335.80 0.204
335.90 0.2044
336.00 0.2047
336.10 0.2051
336.20 0.2055
336.30 0.2058
336.40 0.2062
336.50 0.2066
336.60 0.2069
336.70 0.2073
336.80 0.2077
336.90 0.208
337.00 0.2084
337.10 0.2088
337.20 0.2091
337.30 0.2095
337.40 0.2099
337.50 0.2102
337.60 0.2106
337.70 0.2109
337.80 0.2113
337.90 0.2117
338.00 0.212
338.10 0.2124
338.20 0.2128
338.30 0.2132
338.40 0.2135
338.50 0.2139
338.60 0.2143
338.70 0.2146
338.80 0.215
338.90 0.2154
339.00 0.2158
339.10 0.2161
339.20 0.2165
339.30 0.2169
339.40 0.2172
339.50 0.2176
339.60 0.218
339.70 0.2183
339.80 0.2187
339.90 0.2191
340.00 0.2194
340.10 0.2198
340.20 0.2202
340.30 0.2206
340.40 0.221
340.50 0.2213
340.60 0.2217
340.70 0.2221
340.80 0.2225
340.90 0.2229
341.00 0.2232
341.10 0.2236
341.20 0.224
341.30 0.2244
341.40 0.2247
341.50 0.2251
341.60 0.2255
341.70 0.2259
341.80 0.2262
341.90 0.2266
342.00 0.227
342.10 0.2274
342.20 0.2278
342.30 0.2281
342.40 0.2285
342.50 0.2289
342.60 0.2293
342.70 0.2297
342.80 0.2301
342.90 0.2305
343.00 0.2308
343.10 0.2312
343.20 0.2316
343.30 0.232
343.40 0.2324
343.50 0.2327
343.60 0.2331
343.70 0.2335
343.80 0.2339
343.90 0.2343
344.00 0.2346
344.10 0.235
344.20 0.2354
344.30 0.2358
344.40 0.2362
344.50 0.2366
344.60 0.237
344.70 0.2374
344.80 0.2378
344.90 0.2382
345.00 0.2386
345.10 0.2389
345.20 0.2393
345.30 0.2397
345.40 0.2401
345.50 0.2405
345.60 0.2409
345.70 0.2413
345.80 0.2417
345.90 0.242
346.00 0.2424
346.10 0.2428
346.20 0.2432
346.30 0.2436
346.40 0.244
346.50 0.2444
346.60 0.2448
346.70 0.2452
346.80 0.2456
346.90 0.246
347.00 0.2464
347.10 0.2468
347.20 0.2472
347.30 0.2476
347.40 0.248
347.50 0.2484
347.60 0.2488
347.70 0.2491
347.80 0.2495
347.90 0.2499
348.00 0.2503
348.10 0.2507
348.20 0.2511
348.30 0.2515
348.40 0.2519
348.50 0.2523
348.60 0.2527
348.70 0.2531
348.80 0.2535
348.90 0.2539
349.00 0.2543
349.10 0.2548
349.20 0.2552
349.30 0.2555
349.40 0.2559
349.50 0.2563
349.60 0.2567
349.70 0.2571
349.80 0.2575
349.90 0.2579
350.00 0.2583
350.10 0.2587
350.20 0.2592
350.30 0.2596
350.40 0.26
350.50 0.2604
350.60 0.2608
350.70 0.2612
350.80 0.2616
350.90 0.262
351.00 0.2624
351.10 0.2628
351.20 0.2632
351.30 0.2636
351.40 0.264
351.50 0.2645
351.60 0.2649
351.70 0.2653
351.80 0.2657
351.90 0.2661
352.00 0.2665
352.10 0.2669
352.20 0.2673
352.30 0.2677
352.40 0.2681
352.50 0.2685
352.60 0.269
352.70 0.2694
352.80 0.2698
352.90 0.2702
353.00 0.2706
353.10 0.271
353.20 0.2714
353.30 0.2718
353.40 0.2723
353.50 0.2727
353.60 0.2731
353.70 0.2735
353.80 0.2739
353.90 0.2743
354.00 0.2747
354.10 0.2751
354.20 0.2755
354.30 0.276
354.40 0.2764
354.50 0.2768
354.60 0.2772
354.70 0.2777
354.80 0.2781
354.90 0.2785
355.00 0.2789
355.10 0.2793
355.20 0.2797
355.30 0.2802
355.40 0.2806
355.50 0.281
355.60 0.2814
355.70 0.2818
355.80 0.2822
355.90 0.2826
356.00 0.2831
356.10 0.2835
356.20 0.2839
356.30 0.2843
356.40 0.2848
356.50 0.2852
356.60 0.2856
356.70 0.286
356.80 0.2865
356.90 0.2869
357.00 0.2873
357.10 0.2877
357.20 0.2882
357.30 0.2886
357.40 0.289
357.50 0.2894
357.60 0.2898
357.70 0.2903
357.80 0.2907
357.90 0.2911
358.00 0.2915
358.10 0.2919
358.20 0.2924
358.30 0.2928
358.40 0.2932
358.50 0.2937
358.60 0.2941
358.70 0.2945
358.80 0.295
358.90 0.2954
359.00 0.2958
359.10 0.2963
359.20 0.2967
359.30 0.2971
359.40 0.2975
359.50 0.298
359.60 0.2984
359.70 0.2988
359.80 0.2992
359.90 0.2997
360.00 0.3001
360.10 0.3005
360.20 0.301
360.30 0.3014
360.40 0.3018
360.50 0.3023
360.60 0.3027
360.70 0.3031
360.80 0.3036
360.90 0.304
361.00 0.3044
361.10 0.3049
361.20 0.3053
361.30 0.3057
361.40 0.3062
361.50 0.3066
361.60 0.307
361.70 0.3075
361.80 0.3079
361.90 0.3083
362.00 0.3087
362.10 0.3092
362.20 0.3096
362.30 0.3101
362.40 0.3105
362.50 0.3109
362.60 0.3114
362.70 0.3118
362.80 0.3122
362.90 0.3127
363.00 0.3131
363.10 0.3136
363.20 0.314
363.30 0.3144
363.40 0.3149
363.50 0.3153
363.60 0.3158
363.70 0.3162
363.80 0.3166
363.90 0.3171
364.00 0.3175
364.10 0.318
364.20 0.3184
364.30 0.3188
364.40 0.3193
364.50 0.3197
364.60 0.3202
364.70 0.3206
364.80 0.3211
364.90 0.3215
365.00 0.3219
365.10 0.3224
365.20 0.3228
365.30 0.3233
365.40 0.3237
365.50 0.3242
365.60 0.3246
365.70 0.325
365.80 0.3255
365.90 0.3259
366.00 0.3264
366.10 0.3268
366.20 0.3273
366.30 0.3277
366.40 0.3282
366.50 0.3286
366.60 0.3291
366.70 0.3295
366.80 0.33
366.90 0.3304
367.00 0.3309
367.10 0.3313
367.20 0.3318
367.30 0.3322
367.40 0.3327
367.50 0.3331
367.60 0.3336
367.70 0.334
367.80 0.3344
367.90 0.3349
368.00 0.3353
368.10 0.3358
368.20 0.3362
368.30 0.3367
368.40 0.3372
368.50 0.3376
368.60 0.3381
368.70 0.3385
368.80 0.339
368.90 0.3394
369.00 0.3399
369.10 0.3403
369.20 0.3408
369.30 0.3412
369.40 0.3417
369.50 0.3421
369.60 0.3426
369.70 0.343
369.80 0.3435
369.90 0.3439
370.00 0.3444
370.10 0.3448
370.20 0.3453
370.30 0.3458
370.40 0.3462
370.50 0.3467
370.60 0.3471
370.70 0.3476
370.80 0.3481
370.90 0.3485
371.00 0.349
371.10 0.3494
371.20 0.3499
371.30 0.3503
371.40 0.3508
371.50 0.3513
371.60 0.3517
371.70 0.3522
371.80 0.3526
371.90 0.3531
372.00 0.3535
372.10 0.354
372.20 0.3545
372.30 0.3549
372.40 0.3554
372.50 0.3559
372.60 0.3563
372.70 0.3568
372.80 0.3572
372.90 0.3577
373.00 0.3582
373.10 0.3586
373.20 0.3591
373.30 0.3595
373.40 0.36
373.50 0.3605
373.60 0.3609
373.70 0.3614
373.80 0.3618
373.90 0.3623
374.00 0.3627
374.10 0.3632
374.20 0.3637
374.30 0.3642
374.40 0.3646
374.50 0.3651
374.60 0.3656
374.70 0.366
374.80 0.3665
374.90 0.367
375.00 0.3674
375.10 0.3679
375.20 0.3684
375.30 0.3688
375.40 0.3693
375.50 0.3698
375.60 0.3702
375.70 0.3707
375.80 0.3711
375.90 0.3716
376.00 0.3721
376.10 0.3725
376.20 0.373
376.30 0.3735
376.40 0.3739
376.50 0.3744
376.60 0.3749
376.70 0.3753
376.80 0.3758
376.90 0.3763
377.00 0.3767
377.10 0.3772
377.20 0.3777
377.30 0.3782
377.40 0.3786
377.50 0.3791
377.60 0.3796
377.70 0.38
377.80 0.3805
377.90 0.381
378.00 0.3815
378.10 0.3819
378.20 0.3824
378.30 0.3829
378.40 0.3833
378.50 0.3838
378.60 0.3843
378.70 0.3848
378.80 0.3852
378.90 0.3857
379.00 0.3862
379.10 0.3867
379.20 0.3871
379.30 0.3876
379.40 0.3881
379.50 0.3886
379.60 0.389
379.70 0.3895
379.80 0.39
379.90 0.3904
380.00 0.3909
380.10 0.3914
380.20 0.3919
380.30 0.3924
380.40 0.3928
380.50 0.3933
380.60 0.3938
380.70 0.3943
380.80 0.3947
380.90 0.3952
381.00 0.3957
381.10 0.3962
381.20 0.3966
381.30 0.3971
381.40 0.3976
381.50 0.3981
381.60 0.3985
381.70 0.399
381.80 0.3995
381.90 0.4
382.00 0.4005
382.10 0.4009
382.20 0.4014
382.30 0.4019
382.40 0.4024
382.50 0.4029
382.60 0.4034
382.70 0.4038
382.80 0.4043
382.90 0.4048
383.00 0.4053
383.10 0.4058
383.20 0.4062
383.30 0.4067
383.40 0.4072
383.50 0.4077
383.60 0.4082
383.70 0.4086
383.80 0.4091
383.90 0.4096
384.00 0.4101
384.10 0.4106
384.20 0.411
384.30 0.4115
384.40 0.412
384.50 0.4125
384.60 0.413
384.70 0.4135
384.80 0.414
384.90 0.4144
385.00 0.4149
385.10 0.4154
385.20 0.4159
385.30 0.4164
385.40 0.4169
385.50 0.4173
385.60 0.4178
385.70 0.4183
385.80 0.4188
385.90 0.4193
386.00 0.4198
386.10 0.4203
386.20 0.4207
386.30 0.4212
386.40 0.4217
386.50 0.4222
386.60 0.4227
386.70 0.4232
386.80 0.4237
386.90 0.4242
387.00 0.4246
387.10 0.4251
387.20 0.4256
387.30 0.4261
387.40 0.4266
387.50 0.4271
387.60 0.4276
387.70 0.4281
387.80 0.4285
387.90 0.429
388.00 0.4295
388.10 0.43
388.20 0.4305
388.30 0.431
388.40 0.4315
388.50 0.432
388.60 0.4325
388.70 0.433
388.80 0.4334
388.90 0.4339
389.00 0.4344
389.10 0.4349
389.20 0.4354
389.30 0.4359
389.40 0.4364
389.50 0.4369
389.60 0.4374
389.70 0.4379
389.80 0.4384
389.90 0.4388
390.00 0.4393
390.10 0.4398
390.20 0.4403
390.30 0.4408
390.40 0.4413
390.50 0.4418
390.60 0.4423
390.70 0.4428
390.80 0.4433
390.90 0.4438
391.00 0.4443
391.10 0.4448
391.20 0.4453
391.30 0.4458
391.40 0.4463
391.50 0.4468
391.60 0.4473
391.70 0.4478
391.80 0.4482
391.90 0.4487
392.00 0.4492
392.10 0.4497
392.20 0.4502
392.30 0.4507
392.40 0.4512
392.50 0.4517
392.60 0.4522
392.70 0.4527
392.80 0.4532
392.90 0.4537
393.00 0.4542
393.10 0.4547
393.20 0.4552
393.30 0.4557
393.40 0.4562
393.50 0.4567
393.60 0.4572
393.70 0.4577
393.80 0.4582
393.90 0.4587
394.00 0.4591
394.10 0.4597
394.20 0.4602
394.30 0.4607
394.40 0.4612
394.50 0.4617
394.60 0.4621
394.70 0.4626
394.80 0.4632
394.90 0.4637
395.00 0.4642
395.10 0.4647
395.20 0.4652
395.30 0.4657
395.40 0.4662
395.50 0.4667
395.60 0.4672
395.70 0.4677
395.80 0.4682
395.90 0.4687
396.00 0.4692
396.10 0.4697
396.20 0.4701
396.30 0.4707
396.40 0.4712
396.50 0.4717
396.60 0.4722
396.70 0.4727
396.80 0.4732
396.90 0.4737
397.00 0.4742
397.10 0.4747
397.20 0.4752
397.30 0.4757
397.40 0.4762
397.50 0.4767
397.60 0.4772
397.70 0.4777
397.80 0.4782
397.90 0.4787
398.00 0.4792
398.10 0.4797
398.20 0.4802
398.30 0.4807
398.40 0.4812
398.50 0.4817
398.60 0.4822
398.70 0.4827
398.80 0.4832
398.90 0.4837
399.00 0.4842
399.10 0.4848
399.20 0.4853
399.30 0.4858
399.40 0.4863
399.50 0.4868
399.60 0.4873
399.70 0.4878
399.80 0.4883
399.90 0.4888
400.00 0.4893
400.10 0.4898
400.20 0.4903
400.30 0.4908
400.40 0.4913
400.50 0.4918
400.60 0.4923
400.70 0.4928
400.80 0.4934
400.90 0.4939
401.00 0.4944
401.10 0.4949
401.20 0.4954
401.30 0.4959
401.40 0.4964
401.50 0.4969
401.60 0.4974
401.70 0.4979
401.80 0.4984
401.90 0.4989
402.00 0.4995
402.10 0.5
402.20 0.5005
402.30 0.501
402.40 0.5015
402.50 0.502
402.60 0.5025
402.70 0.503
402.80 0.5035
402.90 0.504
403.00 0.5045
403.10 0.505
403.20 0.5055
403.30 0.5061
403.40 0.5066
403.50 0.5071
403.60 0.5076
403.70 0.5081
403.80 0.5086
403.90 0.5091
404.00 0.5096
404.10 0.5101
404.20 0.5107
404.30 0.5112
404.40 0.5117
404.50 0.5122
404.60 0.5127
404.70 0.5132
404.80 0.5137
404.90 0.5142
405.00 0.5147
405.10 0.5152
405.20 0.5158
405.30 0.5163
405.40 0.5168
405.50 0.5173
405.60 0.5178
405.70 0.5183
405.80 0.5188
405.90 0.5194
406.00 0.5199
406.10 0.5204
406.20 0.5209
406.30 0.5214
406.40 0.5219
406.50 0.5224
406.60 0.5229
406.70 0.5235
406.80 0.524
406.90 0.5245
407.00 0.525
407.10 0.5255
407.20 0.526
407.30 0.5265
407.40 0.527
407.50 0.5275
407.60 0.5281
407.70 0.5286
407.80 0.5291
407.90 0.5296
408.00 0.5301
408.10 0.5307
408.20 0.5312
408.30 0.5317
408.40 0.5322
408.50 0.5327
408.60 0.5332
408.70 0.5337
408.80 0.5343
408.90 0.5348
409.00 0.5353
409.10 0.5358
409.20 0.5363
409.30 0.5368
409.40 0.5373
409.50 0.5379
409.60 0.5384
409.70 0.5389
409.80 0.5394
409.90 0.5399
410.00 0.5405
410.10 0.541
410.20 0.5415
410.30 0.542
410.40 0.5425
410.50 0.543
410.60 0.5435
410.70 0.544
410.80 0.5446
410.90 0.5451
411.00 0.5456
411.10 0.5461
411.20 0.5466
411.30 0.5472
411.40 0.5477
411.50 0.5482
411.60 0.5487
411.70 0.5492
411.80 0.5498
411.90 0.5503
412.00 0.5508
412.10 0.5513
412.20 0.5518
412.30 0.5523
412.40 0.5528
412.50 0.5534
412.60 0.5539
412.70 0.5544
412.80 0.5549
412.90 0.5554
413.00 0.5559
413.10 0.5565
413.20 0.557
413.30 0.5575
413.40 0.558
413.50 0.5586
413.60 0.5591
413.70 0.5596
413.80 0.5601
413.90 0.5606
414.00 0.5611
414.10 0.5617
414.20 0.5622
414.30 0.5627
414.40 0.5632
414.50 0.5637
414.60 0.5643
414.70 0.5648
414.80 0.5653
414.90 0.5658
415.00 0.5663
415.10 0.5669
415.20 0.5674
415.30 0.5679
415.40 0.5684
415.50 0.5689
415.60 0.5695
415.70 0.57
415.80 0.5705
415.90 0.571
416.00 0.5715
416.10 0.5721
416.20 0.5726
416.30 0.5731
416.40 0.5736
416.50 0.5741
416.60 0.5747
416.70 0.5752
416.80 0.5757
416.90 0.5762
417.00 0.5767
417.10 0.5773
417.20 0.5778
417.30 0.5783
417.40 0.5788
417.50 0.5793
417.60 0.5799
417.70 0.5804
417.80 0.5809
417.90 0.5814
418.00 0.5819
418.10 0.5825
418.20 0.583
418.30 0.5835
418.40 0.584
418.50 0.5846
418.60 0.5851
418.70 0.5856
418.80 0.5861
418.90 0.5866
419.00 0.5872
419.10 0.5877
419.20 0.5882
419.30 0.5887
419.40 0.5893
419.50 0.5898
419.60 0.5903
419.70 0.5908
419.80 0.5914
419.90 0.5919
420.00 0.5924
420.10 0.5929
420.20 0.5934
420.30 0.594
420.40 0.5945
420.50 0.595
420.60 0.5955
420.70 0.5961
420.80 0.5966
420.90 0.5971
421.00 0.5976
421.10 0.5981
421.20 0.5987
421.30 0.5992
421.40 0.5997
421.50 0.6002
421.60 0.6008
421.70 0.6013
421.80 0.6018
421.90 0.6023
422.00 0.6029
422.10 0.6034
422.20 0.6039
422.30 0.6044
422.40 0.6049
422.50 0.6055
422.60 0.606
422.70 0.6065
422.80 0.607
422.90 0.6076
423.00 0.6081
423.10 0.6086
423.20 0.6091
423.30 0.6097
423.40 0.6102
423.50 0.6107
423.60 0.6112
423.70 0.6118
423.80 0.6123
423.90 0.6128
424.00 0.6133
424.10 0.6139
424.20 0.6144
424.30 0.6149
424.40 0.6154
424.50 0.6159
424.60 0.6165
424.70 0.617
424.80 0.6175
424.90 0.618
425.00 0.6186
425.10 0.6191
425.20 0.6196
425.30 0.6201
425.40 0.6207
425.50 0.6212
425.60 0.6217
425.70 0.6222
425.80 0.6228
425.90 0.6233
426.00 0.6238
426.10 0.6244
426.20 0.6249
426.30 0.6254
426.40 0.6259
426.50 0.6264
426.60 0.627
426.70 0.6275
426.80 0.628
426.90 0.6285
427.00 0.6291
427.10 0.6296
427.20 0.6301
427.30 0.6306
427.40 0.6312
427.50 0.6317
427.60 0.6322
427.70 0.6327
427.80 0.6333
427.90 0.6338
428.00 0.6343
428.10 0.6348
428.20 0.6354
428.30 0.6359
428.40 0.6364
428.50 0.6369
428.60 0.6375
428.70 0.638
428.80 0.6385
428.90 0.639
429.00 0.6396
429.10 0.6401
429.20 0.6406
429.30 0.6411
429.40 0.6417
429.50 0.6422
429.60 0.6427
429.70 0.6432
429.80 0.6438
429.90 0.6443
430.00 0.6448
430.10 0.6454
430.20 0.6459
430.30 0.6464
430.40 0.6469
430.50 0.6475
430.60 0.648
430.70 0.6485
430.80 0.649
430.90 0.6496
431.00 0.6501
431.10 0.6506
431.20 0.6511
431.30 0.6517
431.40 0.6522
431.50 0.6527
431.60 0.6532
431.70 0.6537
431.80 0.6543
431.90 0.6548
432.00 0.6553
432.10 0.6559
432.20 0.6564
432.30 0.6569
432.40 0.6574
432.50 0.658
432.60 0.6585
432.70 0.659
432.80 0.6595
432.90 0.6601
433.00 0.6606
433.10 0.6611
433.20 0.6616
433.30 0.6622
433.40 0.6627
433.50 0.6632
433.60 0.6638
433.70 0.6643
433.80 0.6648
433.90 0.6653
434.00 0.6659
434.10 0.6664
434.20 0.6669
434.30 0.6674
434.40 0.668
434.50 0.6685
434.60 0.669
434.70 0.6695
434.80 0.6701
434.90 0.6706
435.00 0.6711
435.10 0.6716
435.20 0.6722
435.30 0.6727
435.40 0.6732
435.50 0.6737
435.60 0.6743
435.70 0.6748
435.80 0.6753
435.90 0.6758
436.00 0.6764
436.10 0.6769
436.20 0.6774
436.30 0.678
436.40 0.6785
436.50 0.679
436.60 0.6795
436.70 0.6801
436.80 0.6806
436.90 0.6811
437.00 0.6816
437.10 0.6821
437.20 0.6827
437.30 0.6832
437.40 0.6837
437.50 0.6843
437.60 0.6848
437.70 0.6853
437.80 0.6858
437.90 0.6864
438.00 0.6869
438.10 0.6874
438.20 0.6879
438.30 0.6885
438.40 0.689
438.50 0.6895
438.60 0.69
438.70 0.6906
438.80 0.6911
438.90 0.6916
439.00 0.6921
439.10 0.6927
439.20 0.6932
439.30 0.6937
439.40 0.6942
439.50 0.6948
439.60 0.6953
439.70 0.6958
439.80 0.6964
439.90 0.6969
440.00 0.6974
440.10 0.6979
440.20 0.6984
440.30 0.699
440.40 0.6995
440.50 0.7
440.60 0.7006
440.70 0.7011
440.80 0.7016
440.90 0.7021
441.00 0.7026
441.10 0.7032
441.20 0.7037
441.30 0.7042
441.40 0.7047
441.50 0.7053
441.60 0.7058
441.70 0.7063
441.80 0.7069
441.90 0.7074
442.00 0.7079
442.10 0.7084
442.20 0.709
442.30 0.7095
442.40 0.71
442.50 0.7105
442.60 0.7111
442.70 0.7116
442.80 0.7121
442.90 0.7126
443.00 0.7131
