# Version 2.1 - nm, norm@500 to 1, cut digits, bergeron_11500_95.dat_11500
# Wavelength(nm)  Flambda(ergs/cm^s/s/nm)
300.00 2.229
300.10 2.228
300.20 2.227
300.30 2.226
300.40 2.225
300.50 2.224
300.60 2.222
300.70 2.221
300.80 2.22
300.90 2.219
301.00 2.218
301.10 2.217
301.20 2.216
301.30 2.214
301.40 2.213
301.50 2.212
301.60 2.211
301.70 2.21
301.80 2.209
301.90 2.208
302.00 2.206
302.10 2.205
302.20 2.204
302.30 2.203
302.40 2.202
302.50 2.201
302.60 2.2
302.70 2.198
302.80 2.197
302.90 2.196
303.00 2.195
303.10 2.194
303.20 2.193
303.30 2.192
303.40 2.19
303.50 2.189
303.60 2.188
303.70 2.187
303.80 2.186
303.90 2.185
304.00 2.184
304.10 2.182
304.20 2.181
304.30 2.18
304.40 2.179
304.50 2.178
304.60 2.177
304.70 2.176
304.80 2.174
304.90 2.173
305.00 2.172
305.10 2.171
305.20 2.17
305.30 2.169
305.40 2.168
305.50 2.167
305.60 2.165
305.70 2.164
305.80 2.163
305.90 2.162
306.00 2.161
306.10 2.16
306.20 2.159
306.30 2.158
306.40 2.156
306.50 2.155
306.60 2.154
306.70 2.153
306.80 2.152
306.90 2.151
307.00 2.15
307.10 2.148
307.20 2.147
307.30 2.146
307.40 2.145
307.50 2.144
307.60 2.143
307.70 2.142
307.80 2.141
307.90 2.14
308.00 2.138
308.10 2.137
308.20 2.136
308.30 2.135
308.40 2.134
308.50 2.133
308.60 2.132
308.70 2.131
308.80 2.129
308.90 2.128
309.00 2.127
309.10 2.126
309.20 2.125
309.30 2.124
309.40 2.123
309.50 2.122
309.60 2.12
309.70 2.119
309.80 2.118
309.90 2.117
310.00 2.116
310.10 2.115
310.20 2.114
310.30 2.113
310.40 2.112
310.50 2.11
310.60 2.109
310.70 2.108
310.80 2.107
310.90 2.106
311.00 2.105
311.10 2.104
311.20 2.103
311.30 2.102
311.40 2.1
311.50 2.099
311.60 2.098
311.70 2.097
311.80 2.096
311.90 2.095
312.00 2.094
312.10 2.093
312.20 2.092
312.30 2.09
312.40 2.089
312.50 2.088
312.60 2.087
312.70 2.086
312.80 2.085
312.90 2.084
313.00 2.083
313.10 2.082
313.20 2.081
313.30 2.079
313.40 2.078
313.50 2.077
313.60 2.076
313.70 2.075
313.80 2.074
313.90 2.073
314.00 2.072
314.10 2.071
314.20 2.07
314.30 2.068
314.40 2.067
314.50 2.066
314.60 2.065
314.70 2.064
314.80 2.063
314.90 2.062
315.00 2.061
315.10 2.06
315.20 2.059
315.30 2.058
315.40 2.056
315.50 2.055
315.60 2.054
315.70 2.053
315.80 2.052
315.90 2.051
316.00 2.05
316.10 2.049
316.20 2.048
316.30 2.047
316.40 2.046
316.50 2.044
316.60 2.043
316.70 2.042
316.80 2.041
316.90 2.04
317.00 2.039
317.10 2.038
317.20 2.037
317.30 2.036
317.40 2.035
317.50 2.034
317.60 2.032
317.70 2.031
317.80 2.03
317.90 2.029
318.00 2.028
318.10 2.027
318.20 2.026
318.30 2.025
318.40 2.024
318.50 2.023
318.60 2.022
318.70 2.021
318.80 2.02
318.90 2.018
319.00 2.017
319.10 2.016
319.20 2.015
319.30 2.014
319.40 2.013
319.50 2.012
319.60 2.011
319.70 2.01
319.80 2.009
319.90 2.008
320.00 2.007
320.10 2.006
320.20 2.005
320.30 2.003
320.40 2.002
320.50 2.001
320.60 2
320.70 1.999
320.80 1.998
320.90 1.997
321.00 1.996
321.10 1.995
321.20 1.994
321.30 1.993
321.40 1.992
321.50 1.991
321.60 1.99
321.70 1.988
321.80 1.987
321.90 1.986
322.00 1.985
322.10 1.984
322.20 1.983
322.30 1.982
322.40 1.981
322.50 1.98
322.60 1.979
322.70 1.978
322.80 1.977
322.90 1.976
323.00 1.975
323.10 1.974
323.20 1.973
323.30 1.971
323.40 1.97
323.50 1.969
323.60 1.968
323.70 1.967
323.80 1.966
323.90 1.965
324.00 1.964
324.10 1.963
324.20 1.962
324.30 1.961
324.40 1.96
324.50 1.959
324.60 1.958
324.70 1.957
324.80 1.956
324.90 1.955
325.00 1.954
325.10 1.953
325.20 1.951
325.30 1.95
325.40 1.949
325.50 1.948
325.60 1.947
325.70 1.946
325.80 1.945
325.90 1.944
326.00 1.943
326.10 1.942
326.20 1.941
326.30 1.94
326.40 1.939
326.50 1.938
326.60 1.937
326.70 1.936
326.80 1.935
326.90 1.934
327.00 1.933
327.10 1.932
327.20 1.931
327.30 1.93
327.40 1.929
327.50 1.927
327.60 1.926
327.70 1.925
327.80 1.924
327.90 1.923
328.00 1.922
328.10 1.921
328.20 1.92
328.30 1.919
328.40 1.918
328.50 1.917
328.60 1.916
328.70 1.915
328.80 1.914
328.90 1.913
329.00 1.912
329.10 1.911
329.20 1.91
329.30 1.909
329.40 1.908
329.50 1.907
329.60 1.906
329.70 1.905
329.80 1.904
329.90 1.903
330.00 1.902
330.10 1.901
330.20 1.9
330.30 1.899
330.40 1.898
330.50 1.897
330.60 1.896
330.70 1.895
330.80 1.893
330.90 1.892
331.00 1.891
331.10 1.89
331.20 1.889
331.30 1.888
331.40 1.887
331.50 1.886
331.60 1.885
331.70 1.884
331.80 1.883
331.90 1.882
332.00 1.881
332.10 1.88
332.20 1.879
332.30 1.878
332.40 1.877
332.50 1.876
332.60 1.875
332.70 1.874
332.80 1.873
332.90 1.872
333.00 1.871
333.10 1.87
333.20 1.869
333.30 1.868
333.40 1.867
333.50 1.866
333.60 1.865
333.70 1.864
333.80 1.863
333.90 1.862
334.00 1.861
334.10 1.86
334.20 1.859
334.30 1.858
334.40 1.857
334.50 1.856
334.60 1.855
334.70 1.854
334.80 1.853
334.90 1.852
335.00 1.851
335.10 1.85
335.20 1.849
335.30 1.848
335.40 1.847
335.50 1.846
335.60 1.845
335.70 1.844
335.80 1.843
335.90 1.842
336.00 1.841
336.10 1.84
336.20 1.839
336.30 1.838
336.40 1.837
336.50 1.836
336.60 1.835
336.70 1.834
336.80 1.833
336.90 1.832
337.00 1.831
337.10 1.83
337.20 1.829
337.30 1.828
337.40 1.827
337.50 1.826
337.60 1.825
337.70 1.824
337.80 1.823
337.90 1.822
338.00 1.821
338.10 1.82
338.20 1.819
338.30 1.818
338.40 1.817
338.50 1.816
338.60 1.815
338.70 1.814
338.80 1.813
338.90 1.812
339.00 1.811
339.10 1.81
339.20 1.809
339.30 1.808
339.40 1.807
339.50 1.806
339.60 1.805
339.70 1.804
339.80 1.803
339.90 1.802
340.00 1.801
340.10 1.8
340.20 1.799
340.30 1.798
340.40 1.797
340.50 1.796
340.60 1.796
340.70 1.795
340.80 1.794
340.90 1.793
341.00 1.792
341.10 1.791
341.20 1.79
341.30 1.789
341.40 1.788
341.50 1.787
341.60 1.786
341.70 1.785
341.80 1.784
341.90 1.783
342.00 1.782
342.10 1.781
342.20 1.78
342.30 1.779
342.40 1.778
342.50 1.777
342.60 1.776
342.70 1.775
342.80 1.774
342.90 1.773
343.00 1.772
343.10 1.771
343.20 1.77
343.30 1.769
343.40 1.768
343.50 1.767
343.60 1.766
343.70 1.765
343.80 1.765
343.90 1.764
344.00 1.763
344.10 1.762
344.20 1.761
344.30 1.76
344.40 1.759
344.50 1.758
344.60 1.757
344.70 1.756
344.80 1.755
344.90 1.754
345.00 1.753
345.10 1.752
345.20 1.751
345.30 1.75
345.40 1.749
345.50 1.748
345.60 1.747
345.70 1.746
345.80 1.745
345.90 1.744
346.00 1.743
346.10 1.743
346.20 1.742
346.30 1.741
346.40 1.74
346.50 1.739
346.60 1.738
346.70 1.737
346.80 1.736
346.90 1.735
347.00 1.734
347.10 1.733
347.20 1.732
347.30 1.731
347.40 1.73
347.50 1.729
347.60 1.728
347.70 1.727
347.80 1.726
347.90 1.725
348.00 1.725
348.10 1.724
348.20 1.723
348.30 1.722
348.40 1.721
348.50 1.72
348.60 1.719
348.70 1.718
348.80 1.717
348.90 1.716
349.00 1.715
349.10 1.714
349.20 1.713
349.30 1.712
349.40 1.711
349.50 1.71
349.60 1.71
349.70 1.709
349.80 1.708
349.90 1.707
350.00 1.706
350.10 1.705
350.20 1.704
350.30 1.703
350.40 1.702
350.50 1.701
350.60 1.7
350.70 1.699
350.80 1.698
350.90 1.697
351.00 1.697
351.10 1.696
351.20 1.695
351.30 1.694
351.40 1.693
351.50 1.692
351.60 1.691
351.70 1.69
351.80 1.689
351.90 1.688
352.00 1.687
352.10 1.686
352.20 1.685
352.30 1.685
352.40 1.684
352.50 1.683
352.60 1.682
352.70 1.681
352.80 1.68
352.90 1.679
353.00 1.678
353.10 1.677
353.20 1.676
353.30 1.675
353.40 1.674
353.50 1.673
353.60 1.673
353.70 1.672
353.80 1.671
353.90 1.67
354.00 1.669
354.10 1.668
354.20 1.667
354.30 1.666
354.40 1.665
354.50 1.664
354.60 1.663
354.70 1.663
354.80 1.662
354.90 1.661
355.00 1.66
355.10 1.659
355.20 1.658
355.30 1.657
355.40 1.656
355.50 1.655
355.60 1.654
355.70 1.653
355.80 1.653
355.90 1.652
356.00 1.651
356.10 1.65
356.20 1.649
356.30 1.648
356.40 1.647
356.50 1.646
356.60 1.645
356.70 1.644
356.80 1.644
356.90 1.643
357.00 1.642
357.10 1.641
357.20 1.64
357.30 1.639
357.40 1.638
357.50 1.637
357.60 1.636
357.70 1.635
357.80 1.635
357.90 1.634
358.00 1.633
358.10 1.632
358.20 1.631
358.30 1.63
358.40 1.629
358.50 1.628
358.60 1.627
358.70 1.627
358.80 1.626
358.90 1.625
359.00 1.624
359.10 1.623
359.20 1.622
359.30 1.621
359.40 1.62
359.50 1.619
359.60 1.619
359.70 1.618
359.80 1.617
359.90 1.616
360.00 1.615
360.10 1.614
360.20 1.613
360.30 1.612
360.40 1.612
360.50 1.611
360.60 1.61
360.70 1.609
360.80 1.608
360.90 1.607
361.00 1.606
361.10 1.605
361.20 1.604
361.30 1.604
361.40 1.603
361.50 1.602
361.60 1.601
361.70 1.6
361.80 1.599
361.90 1.598
362.00 1.597
362.10 1.597
362.20 1.596
362.30 1.595
362.40 1.594
362.50 1.593
362.60 1.592
362.70 1.591
362.80 1.59
362.90 1.59
363.00 1.589
363.10 1.588
363.20 1.587
363.30 1.586
363.40 1.585
363.50 1.584
363.60 1.583
363.70 1.582
363.80 1.581
363.90 1.579
364.00 1.578
364.10 1.577
364.20 1.576
364.30 1.575
364.40 1.574
364.50 1.573
364.60 1.572
364.70 1.571
364.80 1.57
364.90 1.569
365.00 1.568
365.10 1.567
365.20 1.566
365.30 1.565
365.40 1.564
365.50 1.563
365.60 1.562
365.70 1.561
365.80 1.56
365.90 1.558
366.00 1.557
366.10 1.557
366.20 1.556
366.30 1.555
366.40 1.554
366.50 1.553
366.60 1.552
366.70 1.551
366.80 1.55
366.90 1.549
367.00 1.548
367.10 1.547
367.20 1.547
367.30 1.546
367.40 1.545
367.50 1.544
367.60 1.543
367.70 1.542
367.80 1.541
367.90 1.54
368.00 1.539
368.10 1.538
368.20 1.538
368.30 1.537
368.40 1.536
368.50 1.535
368.60 1.534
368.70 1.533
368.80 1.532
368.90 1.531
369.00 1.53
369.10 1.529
369.20 1.529
369.30 1.528
369.40 1.527
369.50 1.526
369.60 1.525
369.70 1.524
369.80 1.523
369.90 1.522
370.00 1.521
370.10 1.52
370.20 1.52
370.30 1.519
370.40 1.518
370.50 1.517
370.60 1.516
370.70 1.515
370.80 1.514
370.90 1.514
371.00 1.513
371.10 1.512
371.20 1.511
371.30 1.51
371.40 1.509
371.50 1.508
371.60 1.508
371.70 1.507
371.80 1.506
371.90 1.505
372.00 1.504
372.10 1.504
372.20 1.503
372.30 1.502
372.40 1.501
372.50 1.501
372.60 1.5
372.70 1.499
372.80 1.498
372.90 1.498
373.00 1.497
373.10 1.496
373.20 1.496
373.30 1.495
373.40 1.494
373.50 1.493
373.60 1.493
373.70 1.492
373.80 1.491
373.90 1.49
374.00 1.49
374.10 1.489
374.20 1.489
374.30 1.488
374.40 1.487
374.50 1.487
374.60 1.486
374.70 1.485
374.80 1.485
374.90 1.484
375.00 1.484
375.10 1.483
375.20 1.482
375.30 1.482
375.40 1.481
375.50 1.481
375.60 1.48
375.70 1.479
375.80 1.479
375.90 1.478
376.00 1.478
376.10 1.477
376.20 1.476
376.30 1.476
376.40 1.475
376.50 1.475
376.60 1.474
376.70 1.474
376.80 1.473
376.90 1.472
377.00 1.472
377.10 1.471
377.20 1.47
377.30 1.47
377.40 1.469
377.50 1.468
377.60 1.467
377.70 1.466
377.80 1.466
377.90 1.465
378.00 1.464
378.10 1.463
378.20 1.461
378.30 1.46
378.40 1.459
378.50 1.457
378.60 1.456
378.70 1.455
378.80 1.453
378.90 1.452
379.00 1.451
379.10 1.45
379.20 1.449
379.30 1.448
379.40 1.447
379.50 1.446
379.60 1.445
379.70 1.444
379.80 1.443
379.90 1.442
380.00 1.441
380.10 1.441
380.20 1.442
380.30 1.442
380.40 1.442
380.50 1.442
380.60 1.443
380.70 1.443
380.80 1.443
380.90 1.444
381.00 1.444
381.10 1.444
381.20 1.443
381.30 1.443
381.40 1.443
381.50 1.443
381.60 1.442
381.70 1.441
381.80 1.44
381.90 1.439
382.00 1.438
382.10 1.436
382.20 1.435
382.30 1.432
382.40 1.429
382.50 1.427
382.60 1.424
382.70 1.422
382.80 1.419
382.90 1.416
383.00 1.414
383.10 1.411
383.20 1.409
383.30 1.407
383.40 1.405
383.50 1.403
383.60 1.403
383.70 1.405
383.80 1.406
383.90 1.408
384.00 1.41
384.10 1.413
384.20 1.415
384.30 1.418
384.40 1.421
384.50 1.423
384.60 1.426
384.70 1.427
384.80 1.429
384.90 1.43
385.00 1.431
385.10 1.432
385.20 1.433
385.30 1.433
385.40 1.434
385.50 1.434
385.60 1.434
385.70 1.434
385.80 1.433
385.90 1.433
386.00 1.432
386.10 1.431
386.20 1.43
386.30 1.429
386.40 1.427
386.50 1.426
386.60 1.424
386.70 1.422
386.80 1.42
386.90 1.418
387.00 1.415
387.10 1.412
387.20 1.409
387.30 1.406
387.40 1.403
387.50 1.399
387.60 1.395
387.70 1.39
387.80 1.386
387.90 1.381
388.00 1.375
388.10 1.369
388.20 1.362
388.30 1.355
388.40 1.347
388.50 1.34
388.60 1.334
388.70 1.33
388.80 1.327
388.90 1.324
389.00 1.326
389.10 1.329
389.20 1.333
389.30 1.339
389.40 1.346
389.50 1.353
389.60 1.361
389.70 1.367
389.80 1.374
389.90 1.379
390.00 1.385
390.10 1.389
390.20 1.394
390.30 1.398
390.40 1.401
390.50 1.405
390.60 1.408
390.70 1.411
390.80 1.414
390.90 1.416
391.00 1.419
391.10 1.421
391.20 1.423
391.30 1.424
391.40 1.426
391.50 1.427
391.60 1.428
391.70 1.429
391.80 1.43
391.90 1.431
392.00 1.431
392.10 1.431
392.20 1.431
392.30 1.431
392.40 1.431
392.50 1.43
392.60 1.429
392.70 1.429
392.80 1.428
392.90 1.426
393.00 1.425
393.10 1.423
393.20 1.421
393.30 1.419
393.40 1.417
393.50 1.414
393.60 1.412
393.70 1.409
393.80 1.406
393.90 1.402
394.00 1.399
394.10 1.395
394.20 1.391
394.30 1.386
394.40 1.382
394.50 1.377
394.60 1.371
394.70 1.366
394.80 1.36
394.90 1.354
395.00 1.347
395.10 1.34
395.20 1.333
395.30 1.325
395.40 1.317
395.50 1.309
395.60 1.3
395.70 1.291
395.80 1.281
395.90 1.271
396.00 1.26
396.10 1.249
396.20 1.237
396.30 1.224
396.40 1.209
396.50 1.192
396.60 1.175
396.70 1.157
396.80 1.143
396.90 1.13
397.00 1.119
397.10 1.129
397.20 1.141
397.30 1.154
397.40 1.171
397.50 1.189
397.60 1.206
397.70 1.22
397.80 1.233
397.90 1.246
398.00 1.257
398.10 1.267
398.20 1.278
398.30 1.287
398.40 1.296
398.50 1.305
398.60 1.313
398.70 1.321
398.80 1.329
398.90 1.336
399.00 1.343
399.10 1.35
399.20 1.356
399.30 1.362
399.40 1.368
399.50 1.373
399.60 1.378
399.70 1.383
399.80 1.387
399.90 1.392
400.00 1.396
400.10 1.4
400.20 1.403
400.30 1.407
400.40 1.41
400.50 1.413
400.60 1.416
400.70 1.419
400.80 1.421
400.90 1.423
401.00 1.425
401.10 1.427
401.20 1.429
401.30 1.431
401.40 1.432
401.50 1.434
401.60 1.435
401.70 1.436
401.80 1.437
401.90 1.438
402.00 1.439
402.10 1.439
402.20 1.44
402.30 1.44
402.40 1.44
402.50 1.44
402.60 1.44
402.70 1.44
402.80 1.439
402.90 1.439
403.00 1.438
403.10 1.437
403.20 1.437
403.30 1.436
403.40 1.435
403.50 1.433
403.60 1.432
403.70 1.43
403.80 1.429
403.90 1.427
404.00 1.425
404.10 1.423
404.20 1.421
404.30 1.418
404.40 1.416
404.50 1.413
404.60 1.411
404.70 1.408
404.80 1.405
404.90 1.402
405.00 1.398
405.10 1.395
405.20 1.391
405.30 1.387
405.40 1.383
405.50 1.379
405.60 1.375
405.70 1.37
405.80 1.365
405.90 1.36
406.00 1.355
406.10 1.35
406.20 1.344
406.30 1.339
406.40 1.333
406.50 1.327
406.60 1.32
406.70 1.313
406.80 1.306
406.90 1.299
407.00 1.292
407.10 1.284
407.20 1.276
407.30 1.267
407.40 1.258
407.50 1.249
407.60 1.24
407.70 1.23
407.80 1.22
407.90 1.209
408.00 1.197
408.10 1.186
408.20 1.174
408.30 1.161
408.40 1.148
408.50 1.134
408.60 1.12
408.70 1.105
408.80 1.089
408.90 1.073
409.00 1.057
409.10 1.04
409.20 1.022
409.30 1.004
409.40 0.9854
409.50 0.9656
409.60 0.9449
409.70 0.9217
409.80 0.897
409.90 0.8711
410.00 0.8521
410.10 0.8398
410.20 0.8342
410.30 0.8448
410.40 0.8612
410.50 0.8833
410.60 0.9082
410.70 0.9314
410.80 0.953
410.90 0.9723
411.00 0.9908
411.10 1.009
411.20 1.026
411.30 1.042
411.40 1.058
411.50 1.073
411.60 1.088
411.70 1.103
411.80 1.117
411.90 1.13
412.00 1.143
412.10 1.155
412.20 1.166
412.30 1.178
412.40 1.188
412.50 1.198
412.60 1.208
412.70 1.218
412.80 1.227
412.90 1.235
413.00 1.244
413.10 1.252
413.20 1.259
413.30 1.267
413.40 1.274
413.50 1.281
413.60 1.287
413.70 1.293
413.80 1.3
413.90 1.305
414.00 1.311
414.10 1.317
414.20 1.322
414.30 1.327
414.40 1.332
414.50 1.336
414.60 1.341
414.70 1.345
414.80 1.35
414.90 1.354
415.00 1.358
415.10 1.361
415.20 1.365
415.30 1.369
415.40 1.372
415.50 1.375
415.60 1.379
415.70 1.382
415.80 1.385
415.90 1.388
416.00 1.39
416.10 1.393
416.20 1.396
416.30 1.398
416.40 1.4
416.50 1.403
416.60 1.405
416.70 1.407
416.80 1.409
416.90 1.411
417.00 1.413
417.10 1.415
417.20 1.416
417.30 1.418
417.40 1.419
417.50 1.421
417.60 1.422
417.70 1.424
417.80 1.425
417.90 1.426
418.00 1.427
418.10 1.428
418.20 1.43
418.30 1.43
418.40 1.431
418.50 1.432
418.60 1.433
418.70 1.434
418.80 1.435
418.90 1.435
419.00 1.436
419.10 1.436
419.20 1.437
419.30 1.437
419.40 1.438
419.50 1.438
419.60 1.438
419.70 1.438
419.80 1.439
419.90 1.439
420.00 1.439
420.10 1.439
420.20 1.439
420.30 1.439
420.40 1.439
420.50 1.439
420.60 1.438
420.70 1.438
420.80 1.438
420.90 1.437
421.00 1.437
421.10 1.437
421.20 1.436
421.30 1.436
421.40 1.435
421.50 1.435
421.60 1.434
421.70 1.433
421.80 1.433
421.90 1.432
422.00 1.431
422.10 1.43
422.20 1.429
422.30 1.428
422.40 1.427
422.50 1.426
422.60 1.425
422.70 1.424
422.80 1.423
422.90 1.422
423.00 1.421
423.10 1.419
423.20 1.418
423.30 1.417
423.40 1.415
423.50 1.414
423.60 1.412
423.70 1.411
423.80 1.409
423.90 1.407
424.00 1.406
424.10 1.404
424.20 1.402
424.30 1.4
424.40 1.398
424.50 1.396
424.60 1.394
424.70 1.392
424.80 1.39
424.90 1.388
425.00 1.386
425.10 1.383
425.20 1.381
425.30 1.379
425.40 1.376
425.50 1.374
425.60 1.371
425.70 1.368
425.80 1.366
425.90 1.363
426.00 1.36
426.10 1.357
426.20 1.354
426.30 1.35
426.40 1.347
426.50 1.344
426.60 1.341
426.70 1.338
426.80 1.334
426.90 1.331
427.00 1.327
427.10 1.324
427.20 1.32
427.30 1.316
427.40 1.312
427.50 1.308
427.60 1.304
427.70 1.3
427.80 1.296
427.90 1.291
428.00 1.287
428.10 1.282
428.20 1.278
428.30 1.273
428.40 1.268
428.50 1.263
428.60 1.258
428.70 1.253
428.80 1.248
428.90 1.242
429.00 1.237
429.10 1.231
429.20 1.225
429.30 1.219
429.40 1.213
429.50 1.206
429.60 1.2
429.70 1.193
429.80 1.186
429.90 1.179
430.00 1.172
430.10 1.165
430.20 1.157
430.30 1.15
430.40 1.141
430.50 1.133
430.60 1.125
430.70 1.116
430.80 1.107
430.90 1.098
431.00 1.088
431.10 1.078
431.20 1.068
431.30 1.058
431.40 1.047
431.50 1.036
431.60 1.024
431.70 1.012
431.80 0.9998
431.90 0.9868
432.00 0.9734
432.10 0.9597
432.20 0.945
432.30 0.9299
432.40 0.9144
432.50 0.8978
432.60 0.8806
432.70 0.8629
432.80 0.8443
432.90 0.8254
433.00 0.8062
433.10 0.7868
433.20 0.7675
433.30 0.7483
433.40 0.7292
433.50 0.7096
433.60 0.6895
433.70 0.6647
433.80 0.6355
433.90 0.602
434.00 0.5678
434.10 0.5686
434.20 0.6042
434.30 0.637
434.40 0.6653
434.50 0.6893
434.60 0.7087
434.70 0.7277
434.80 0.7462
434.90 0.7647
435.00 0.7833
435.10 0.8019
435.20 0.8203
435.30 0.8384
435.40 0.8561
435.50 0.8728
435.60 0.889
435.70 0.9046
435.80 0.9191
435.90 0.9332
436.00 0.9467
436.10 0.9594
436.20 0.9717
436.30 0.9836
436.40 0.9948
436.50 1.006
436.60 1.016
436.70 1.026
436.80 1.036
436.90 1.045
437.00 1.054
437.10 1.063
437.20 1.071
437.30 1.079
437.40 1.087
437.50 1.094
437.60 1.102
437.70 1.109
437.80 1.115
437.90 1.122
438.00 1.128
438.10 1.134
438.20 1.14
438.30 1.146
438.40 1.152
438.50 1.157
438.60 1.162
438.70 1.167
438.80 1.172
438.90 1.177
439.00 1.182
439.10 1.186
439.20 1.19
439.30 1.195
439.40 1.199
439.50 1.203
439.60 1.207
439.70 1.21
439.80 1.214
439.90 1.217
440.00 1.221
440.10 1.224
440.20 1.227
440.30 1.23
440.40 1.233
440.50 1.236
440.60 1.239
440.70 1.242
440.80 1.245
440.90 1.247
441.00 1.25
441.10 1.252
441.20 1.255
441.30 1.257
441.40 1.259
441.50 1.261
441.60 1.264
441.70 1.266
441.80 1.268
441.90 1.269
442.00 1.271
442.10 1.273
442.20 1.275
442.30 1.277
442.40 1.278
442.50 1.28
442.60 1.281
442.70 1.283
442.80 1.284
442.90 1.286
443.00 1.287
443.10 1.288
443.20 1.29
443.30 1.291
443.40 1.292
443.50 1.293
443.60 1.294
443.70 1.295
443.80 1.297
443.90 1.298
444.00 1.299
444.10 1.299
444.20 1.3
444.30 1.301
444.40 1.302
444.50 1.303
444.60 1.304
444.70 1.304
444.80 1.305
444.90 1.306
445.00 1.306
445.10 1.307
445.20 1.308
445.30 1.308
445.40 1.309
445.50 1.309
445.60 1.31
445.70 1.31
445.80 1.311
445.90 1.311
446.00 1.312
446.10 1.312
446.20 1.312
446.30 1.313
446.40 1.313
446.50 1.313
446.60 1.314
446.70 1.314
446.80 1.314
446.90 1.314
447.00 1.314
447.10 1.315
447.20 1.315
447.30 1.315
447.40 1.315
447.50 1.315
447.60 1.315
447.70 1.315
447.80 1.315
447.90 1.316
448.00 1.316
448.10 1.316
448.20 1.316
448.30 1.316
448.40 1.316
448.50 1.316
448.60 1.316
448.70 1.315
448.80 1.315
448.90 1.315
449.00 1.315
449.10 1.315
449.20 1.315
449.30 1.315
449.40 1.315
449.50 1.315
449.60 1.315
449.70 1.315
449.80 1.314
449.90 1.314
450.00 1.314
450.10 1.314
450.20 1.314
450.30 1.313
450.40 1.313
450.50 1.313
450.60 1.313
450.70 1.312
450.80 1.312
450.90 1.312
451.00 1.311
451.10 1.311
451.20 1.311
451.30 1.311
451.40 1.31
451.50 1.31
451.60 1.31
451.70 1.309
451.80 1.309
451.90 1.309
452.00 1.308
452.10 1.308
452.20 1.307
452.30 1.307
452.40 1.307
452.50 1.306
452.60 1.306
452.70 1.305
452.80 1.305
452.90 1.305
453.00 1.304
453.10 1.304
453.20 1.303
453.30 1.303
453.40 1.302
453.50 1.302
453.60 1.302
