# Version 2.1 - nm, norm@500 to 1, cut digits, bergeron_2000_80.dat_2000
# Wavelength(nm)  Flambda(ergs/cm^s/s/nm)
300.00 0.03727
300.10 0.0374
300.20 0.03753
300.30 0.03767
300.40 0.0378
300.50 0.03793
300.60 0.03807
300.70 0.0382
300.80 0.03833
300.90 0.03846
301.00 0.0386
301.10 0.03873
301.20 0.03886
301.30 0.03899
301.40 0.03912
301.50 0.03925
301.60 0.03938
301.70 0.03951
301.80 0.03964
301.90 0.03978
302.00 0.03991
302.10 0.04005
302.20 0.04019
302.30 0.04033
302.40 0.04046
302.50 0.0406
302.60 0.04074
302.70 0.04088
302.80 0.04102
302.90 0.04116
303.00 0.0413
303.10 0.04144
303.20 0.04157
303.30 0.04171
303.40 0.04185
303.50 0.04199
303.60 0.04212
303.70 0.04226
303.80 0.0424
303.90 0.04254
304.00 0.04268
304.10 0.04282
304.20 0.04297
304.30 0.04311
304.40 0.04326
304.50 0.04341
304.60 0.04355
304.70 0.0437
304.80 0.04384
304.90 0.04399
305.00 0.04413
305.10 0.04428
305.20 0.04442
305.30 0.04457
305.40 0.04471
305.50 0.04486
305.60 0.045
305.70 0.04514
305.80 0.04529
305.90 0.04543
306.00 0.04558
306.10 0.04573
306.20 0.04588
306.30 0.04604
306.40 0.04619
306.50 0.04634
306.60 0.04649
306.70 0.04665
306.80 0.0468
306.90 0.04695
307.00 0.0471
307.10 0.04726
307.20 0.04741
307.30 0.04756
307.40 0.04771
307.50 0.04786
307.60 0.04801
307.70 0.04816
307.80 0.04831
307.90 0.04846
308.00 0.04862
308.10 0.04878
308.20 0.04893
308.30 0.04909
308.40 0.04925
308.50 0.04941
308.60 0.04957
308.70 0.04973
308.80 0.04989
308.90 0.05005
309.00 0.05021
309.10 0.05037
309.20 0.05053
309.30 0.05069
309.40 0.05084
309.50 0.051
309.60 0.05116
309.70 0.05132
309.80 0.05147
309.90 0.05163
310.00 0.0518
310.10 0.05196
310.20 0.05213
310.30 0.05229
310.40 0.05246
310.50 0.05263
310.60 0.0528
310.70 0.05296
310.80 0.05313
310.90 0.0533
311.00 0.05346
311.10 0.05363
311.20 0.0538
311.30 0.05396
311.40 0.05413
311.50 0.05429
311.60 0.05446
311.70 0.05462
311.80 0.05479
311.90 0.05495
312.00 0.05512
312.10 0.05528
312.20 0.05545
312.30 0.05562
312.40 0.0558
312.50 0.05597
312.60 0.05615
312.70 0.05632
312.80 0.0565
312.90 0.05667
313.00 0.05684
313.10 0.05702
313.20 0.05719
313.30 0.05736
313.40 0.05754
313.50 0.05771
313.60 0.05788
313.70 0.05805
313.80 0.05823
313.90 0.0584
314.00 0.05858
314.10 0.05876
314.20 0.05894
314.30 0.05912
314.40 0.0593
314.50 0.05948
314.60 0.05966
314.70 0.05985
314.80 0.06003
314.90 0.06021
315.00 0.06039
315.10 0.06057
315.20 0.06075
315.30 0.06093
315.40 0.06111
315.50 0.06129
315.60 0.06147
315.70 0.06165
315.80 0.06183
315.90 0.06201
316.00 0.06219
316.10 0.06237
316.20 0.06256
316.30 0.06275
316.40 0.06294
316.50 0.06313
316.60 0.06332
316.70 0.06351
316.80 0.0637
316.90 0.06389
317.00 0.06408
317.10 0.06426
317.20 0.06445
317.30 0.06464
317.40 0.06483
317.50 0.06501
317.60 0.0652
317.70 0.06539
317.80 0.06557
317.90 0.06576
318.00 0.06595
318.10 0.06614
318.20 0.06634
318.30 0.06654
318.40 0.06674
318.50 0.06693
318.60 0.06713
318.70 0.06733
318.80 0.06752
318.90 0.06772
319.00 0.06792
319.10 0.06811
319.20 0.06831
319.30 0.0685
319.40 0.0687
319.50 0.06889
319.60 0.06909
319.70 0.06928
319.80 0.06948
319.90 0.06967
320.00 0.06987
320.10 0.07007
320.20 0.07027
320.30 0.07048
320.40 0.07069
320.50 0.07089
320.60 0.0711
320.70 0.0713
320.80 0.0715
320.90 0.07171
321.00 0.07191
321.10 0.07211
321.20 0.07232
321.30 0.07252
321.40 0.07272
321.50 0.07293
321.60 0.07313
321.70 0.07333
321.80 0.07353
321.90 0.07373
322.00 0.07394
322.10 0.07415
322.20 0.07436
322.30 0.07457
322.40 0.07479
322.50 0.075
322.60 0.07521
322.70 0.07543
322.80 0.07564
322.90 0.07585
323.00 0.07606
323.10 0.07627
323.20 0.07648
323.30 0.07669
323.40 0.07691
323.50 0.07712
323.60 0.07733
323.70 0.07753
323.80 0.07775
323.90 0.07796
324.00 0.07817
324.10 0.07838
324.20 0.07861
324.30 0.07883
324.40 0.07905
324.50 0.07927
324.60 0.07949
324.70 0.07971
324.80 0.07993
324.90 0.08015
325.00 0.08037
325.10 0.08059
325.20 0.08081
325.30 0.08103
325.40 0.08125
325.50 0.08146
325.60 0.08168
325.70 0.0819
325.80 0.08212
325.90 0.08234
326.00 0.08256
326.10 0.08278
326.20 0.08301
326.30 0.08324
326.40 0.08347
326.50 0.0837
326.60 0.08393
326.70 0.08416
326.80 0.08439
326.90 0.08461
327.00 0.08484
327.10 0.08507
327.20 0.08529
327.30 0.08552
327.40 0.08575
327.50 0.08597
327.60 0.0862
327.70 0.08643
327.80 0.08665
327.90 0.08688
328.00 0.08711
328.10 0.08734
328.20 0.08758
328.30 0.08782
328.40 0.08805
328.50 0.08829
328.60 0.08853
328.70 0.08876
328.80 0.089
328.90 0.08924
329.00 0.08947
329.10 0.08971
329.20 0.08994
329.30 0.09018
329.40 0.09041
329.50 0.09065
329.60 0.09088
329.70 0.09112
329.80 0.09135
329.90 0.09158
330.00 0.09182
330.10 0.09206
330.20 0.09231
330.30 0.09256
330.40 0.0928
330.50 0.09305
330.60 0.09329
330.70 0.09354
330.80 0.09378
330.90 0.09403
331.00 0.09427
331.10 0.09451
331.20 0.09476
331.30 0.095
331.40 0.09524
331.50 0.09549
331.60 0.09573
331.70 0.09597
331.80 0.09621
331.90 0.09645
332.00 0.09669
332.10 0.09695
332.20 0.0972
332.30 0.09746
332.40 0.09771
332.50 0.09797
332.60 0.09822
332.70 0.09847
332.80 0.09873
332.90 0.09898
333.00 0.09923
333.10 0.09948
333.20 0.09974
333.30 0.09999
333.40 0.1002
333.50 0.1005
333.60 0.1007
333.70 0.101
333.80 0.1012
333.90 0.1015
334.00 0.1017
334.10 0.102
334.20 0.1023
334.30 0.1025
334.40 0.1028
334.50 0.1031
334.60 0.1033
334.70 0.1036
334.80 0.1038
334.90 0.1041
335.00 0.1044
335.10 0.1046
335.20 0.1049
335.30 0.1051
335.40 0.1054
335.50 0.1057
335.60 0.1059
335.70 0.1062
335.80 0.1064
335.90 0.1067
336.00 0.107
336.10 0.1072
336.20 0.1075
336.30 0.1078
336.40 0.108
336.50 0.1083
336.60 0.1086
336.70 0.1089
336.80 0.1091
336.90 0.1094
337.00 0.1097
337.10 0.1099
337.20 0.1102
337.30 0.1105
337.40 0.1107
337.50 0.111
337.60 0.1113
337.70 0.1115
337.80 0.1118
337.90 0.1121
338.00 0.1123
338.10 0.1126
338.20 0.1129
338.30 0.1132
338.40 0.1135
338.50 0.1137
338.60 0.114
338.70 0.1143
338.80 0.1146
338.90 0.1149
339.00 0.1151
339.10 0.1154
339.20 0.1157
339.30 0.116
339.40 0.1162
339.50 0.1165
339.60 0.1168
339.70 0.1171
339.80 0.1173
339.90 0.1176
340.00 0.1179
340.10 0.1182
340.20 0.1185
340.30 0.1188
340.40 0.119
340.50 0.1193
340.60 0.1196
340.70 0.1199
340.80 0.1202
340.90 0.1205
341.00 0.1208
341.10 0.1211
341.20 0.1213
341.30 0.1216
341.40 0.1219
341.50 0.1222
341.60 0.1225
341.70 0.1228
341.80 0.123
341.90 0.1233
342.00 0.1236
342.10 0.1239
342.20 0.1242
342.30 0.1245
342.40 0.1248
342.50 0.1251
342.60 0.1254
342.70 0.1257
342.80 0.126
342.90 0.1263
343.00 0.1266
343.10 0.1269
343.20 0.1272
343.30 0.1275
343.40 0.1278
343.50 0.1281
343.60 0.1283
343.70 0.1286
343.80 0.1289
343.90 0.1292
344.00 0.1295
344.10 0.1298
344.20 0.1301
344.30 0.1304
344.40 0.1307
344.50 0.131
344.60 0.1313
344.70 0.1317
344.80 0.132
344.90 0.1323
345.00 0.1326
345.10 0.1329
345.20 0.1332
345.30 0.1335
345.40 0.1338
345.50 0.1341
345.60 0.1344
345.70 0.1347
345.80 0.135
345.90 0.1353
346.00 0.1356
346.10 0.1359
346.20 0.1362
346.30 0.1365
346.40 0.1368
346.50 0.1372
346.60 0.1375
346.70 0.1378
346.80 0.1381
346.90 0.1384
347.00 0.1387
347.10 0.139
347.20 0.1393
347.30 0.1397
347.40 0.14
347.50 0.1403
347.60 0.1406
347.70 0.1409
347.80 0.1412
347.90 0.1415
348.00 0.1418
348.10 0.1421
348.20 0.1425
348.30 0.1428
348.40 0.1431
348.50 0.1434
348.60 0.1438
348.70 0.1441
348.80 0.1444
348.90 0.1447
349.00 0.1451
349.10 0.1454
349.20 0.1457
349.30 0.146
349.40 0.1463
349.50 0.1467
349.60 0.147
349.70 0.1473
349.80 0.1476
349.90 0.1479
350.00 0.1482
350.10 0.1486
350.20 0.1489
350.30 0.1492
350.40 0.1496
350.50 0.1499
350.60 0.1502
350.70 0.1506
350.80 0.1509
350.90 0.1512
351.00 0.1516
351.10 0.1519
351.20 0.1522
351.30 0.1525
351.40 0.1529
351.50 0.1532
351.60 0.1535
351.70 0.1539
351.80 0.1542
351.90 0.1545
352.00 0.1548
352.10 0.1552
352.20 0.1555
352.30 0.1559
352.40 0.1562
352.50 0.1565
352.60 0.1569
352.70 0.1572
352.80 0.1576
352.90 0.1579
353.00 0.1582
353.10 0.1586
353.20 0.1589
353.30 0.1592
353.40 0.1596
353.50 0.1599
353.60 0.1603
353.70 0.1606
353.80 0.1609
353.90 0.1613
354.00 0.1616
354.10 0.1619
354.20 0.1623
354.30 0.1626
354.40 0.163
354.50 0.1633
354.60 0.1637
354.70 0.164
354.80 0.1644
354.90 0.1647
355.00 0.1651
355.10 0.1654
355.20 0.1658
355.30 0.1661
355.40 0.1665
355.50 0.1668
355.60 0.1672
355.70 0.1675
355.80 0.1679
355.90 0.1682
356.00 0.1685
356.10 0.1689
356.20 0.1693
356.30 0.1696
356.40 0.17
356.50 0.1703
356.60 0.1707
356.70 0.171
356.80 0.1714
356.90 0.1718
357.00 0.1721
357.10 0.1725
357.20 0.1728
357.30 0.1732
357.40 0.1735
357.50 0.1739
357.60 0.1742
357.70 0.1746
357.80 0.1749
357.90 0.1753
358.00 0.1756
358.10 0.176
358.20 0.1764
358.30 0.1767
358.40 0.1771
358.50 0.1775
358.60 0.1778
358.70 0.1782
358.80 0.1786
358.90 0.1789
359.00 0.1793
359.10 0.1797
359.20 0.18
359.30 0.1804
359.40 0.1808
359.50 0.1811
359.60 0.1815
359.70 0.1819
359.80 0.1822
359.90 0.1826
360.00 0.1829
360.10 0.1833
360.20 0.1837
360.30 0.1841
360.40 0.1844
360.50 0.1848
360.60 0.1852
360.70 0.1856
360.80 0.1859
360.90 0.1863
361.00 0.1867
361.10 0.1871
361.20 0.1874
361.30 0.1878
361.40 0.1882
361.50 0.1885
361.60 0.1889
361.70 0.1893
361.80 0.1897
361.90 0.19
362.00 0.1904
362.10 0.1908
362.20 0.1912
362.30 0.1915
362.40 0.1919
362.50 0.1923
362.60 0.1927
362.70 0.1931
362.80 0.1934
362.90 0.1938
363.00 0.1942
363.10 0.1946
363.20 0.195
363.30 0.1953
363.40 0.1957
363.50 0.1961
363.60 0.1965
363.70 0.1969
363.80 0.1973
363.90 0.1977
364.00 0.198
364.10 0.1984
364.20 0.1988
364.30 0.1992
364.40 0.1996
364.50 0.2
364.60 0.2003
364.70 0.2007
364.80 0.2011
364.90 0.2015
365.00 0.2019
365.10 0.2023
365.20 0.2027
365.30 0.2031
365.40 0.2035
365.50 0.2039
365.60 0.2043
365.70 0.2047
365.80 0.2051
365.90 0.2054
366.00 0.2058
366.10 0.2062
366.20 0.2066
366.30 0.207
366.40 0.2074
366.50 0.2078
366.60 0.2082
366.70 0.2086
366.80 0.209
366.90 0.2094
367.00 0.2098
367.10 0.2102
367.20 0.2106
367.30 0.211
367.40 0.2114
367.50 0.2118
367.60 0.2122
367.70 0.2126
367.80 0.213
367.90 0.2134
368.00 0.2138
368.10 0.2142
368.20 0.2146
368.30 0.215
368.40 0.2154
368.50 0.2158
368.60 0.2163
368.70 0.2167
368.80 0.2171
368.90 0.2175
369.00 0.2179
369.10 0.2183
369.20 0.2187
369.30 0.2191
369.40 0.2195
369.50 0.2199
369.60 0.2203
369.70 0.2207
369.80 0.2211
369.90 0.2215
370.00 0.2219
370.10 0.2224
370.20 0.2228
370.30 0.2232
370.40 0.2236
370.50 0.224
370.60 0.2245
370.70 0.2249
370.80 0.2253
370.90 0.2257
371.00 0.2261
371.10 0.2265
371.20 0.227
371.30 0.2274
371.40 0.2278
371.50 0.2282
371.60 0.2286
371.70 0.229
371.80 0.2294
371.90 0.2298
372.00 0.2303
372.10 0.2307
372.20 0.2311
372.30 0.2315
372.40 0.232
372.50 0.2324
372.60 0.2328
372.70 0.2332
372.80 0.2337
372.90 0.2341
373.00 0.2345
373.10 0.2349
373.20 0.2354
373.30 0.2358
373.40 0.2362
373.50 0.2366
373.60 0.2371
373.70 0.2375
373.80 0.2379
373.90 0.2383
374.00 0.2387
374.10 0.2392
374.20 0.2396
374.30 0.24
374.40 0.2405
374.50 0.2409
374.60 0.2413
374.70 0.2418
374.80 0.2422
374.90 0.2426
375.00 0.2431
375.10 0.2435
375.20 0.2439
375.30 0.2444
375.40 0.2448
375.50 0.2452
375.60 0.2457
375.70 0.2461
375.80 0.2465
375.90 0.2469
376.00 0.2474
376.10 0.2478
376.20 0.2483
376.30 0.2487
376.40 0.2491
376.50 0.2496
376.60 0.25
376.70 0.2504
376.80 0.2509
376.90 0.2513
377.00 0.2518
377.10 0.2522
377.20 0.2526
377.30 0.2531
377.40 0.2535
377.50 0.254
377.60 0.2544
377.70 0.2549
377.80 0.2553
377.90 0.2557
378.00 0.2562
378.10 0.2566
378.20 0.2571
378.30 0.2575
378.40 0.258
378.50 0.2584
378.60 0.2589
378.70 0.2593
378.80 0.2598
378.90 0.2602
379.00 0.2606
379.10 0.2611
379.20 0.2616
379.30 0.262
379.40 0.2625
379.50 0.2629
379.60 0.2634
379.70 0.2638
379.80 0.2643
379.90 0.2647
380.00 0.2652
380.10 0.2656
380.20 0.2661
380.30 0.2665
380.40 0.267
380.50 0.2674
380.60 0.2679
380.70 0.2683
380.80 0.2688
380.90 0.2692
381.00 0.2697
381.10 0.2702
381.20 0.2706
381.30 0.2711
381.40 0.2715
381.50 0.272
381.60 0.2724
381.70 0.2729
381.80 0.2734
381.90 0.2738
382.00 0.2743
382.10 0.2747
382.20 0.2752
382.30 0.2757
382.40 0.2761
382.50 0.2766
382.60 0.2771
382.70 0.2775
382.80 0.278
382.90 0.2785
383.00 0.2789
383.10 0.2794
383.20 0.2798
383.30 0.2803
383.40 0.2808
383.50 0.2812
383.60 0.2817
383.70 0.2822
383.80 0.2826
383.90 0.2831
384.00 0.2836
384.10 0.2841
384.20 0.2845
384.30 0.285
384.40 0.2855
384.50 0.2859
384.60 0.2864
384.70 0.2869
384.80 0.2873
384.90 0.2878
385.00 0.2883
385.10 0.2888
385.20 0.2892
385.30 0.2897
385.40 0.2902
385.50 0.2906
385.60 0.2911
385.70 0.2916
385.80 0.2921
385.90 0.2925
386.00 0.293
386.10 0.2935
386.20 0.294
386.30 0.2945
386.40 0.2949
386.50 0.2954
386.60 0.2959
386.70 0.2964
386.80 0.2969
386.90 0.2973
387.00 0.2978
387.10 0.2983
387.20 0.2988
387.30 0.2993
387.40 0.2997
387.50 0.3002
387.60 0.3007
387.70 0.3012
387.80 0.3017
387.90 0.3021
388.00 0.3026
388.10 0.3031
388.20 0.3036
388.30 0.3041
388.40 0.3046
388.50 0.3051
388.60 0.3055
388.70 0.306
388.80 0.3065
388.90 0.307
389.00 0.3075
389.10 0.308
389.20 0.3085
389.30 0.309
389.40 0.3094
389.50 0.3099
389.60 0.3104
389.70 0.3109
389.80 0.3114
389.90 0.3119
390.00 0.3124
390.10 0.3129
390.20 0.3134
390.30 0.3139
390.40 0.3144
390.50 0.3149
390.60 0.3153
390.70 0.3158
390.80 0.3163
390.90 0.3168
391.00 0.3173
391.10 0.3178
391.20 0.3183
391.30 0.3188
391.40 0.3193
391.50 0.3198
391.60 0.3203
391.70 0.3208
391.80 0.3213
391.90 0.3218
392.00 0.3223
392.10 0.3228
392.20 0.3233
392.30 0.3238
392.40 0.3243
392.50 0.3248
392.60 0.3253
392.70 0.3258
392.80 0.3263
392.90 0.3268
393.00 0.3273
393.10 0.3278
393.20 0.3283
393.30 0.3288
393.40 0.3293
393.50 0.3298
393.60 0.3303
393.70 0.3308
393.80 0.3313
393.90 0.3318
394.00 0.3324
394.10 0.3329
394.20 0.3334
394.30 0.3339
394.40 0.3344
394.50 0.3349
394.60 0.3354
394.70 0.3359
394.80 0.3364
394.90 0.3369
395.00 0.3374
395.10 0.338
395.20 0.3385
395.30 0.339
395.40 0.3395
395.50 0.34
395.60 0.3405
395.70 0.341
395.80 0.3415
395.90 0.3421
396.00 0.3426
396.10 0.3431
396.20 0.3436
396.30 0.3441
396.40 0.3446
396.50 0.3451
396.60 0.3457
396.70 0.3462
396.80 0.3467
396.90 0.3472
397.00 0.3477
397.10 0.3482
397.20 0.3488
397.30 0.3493
397.40 0.3498
397.50 0.3503
397.60 0.3508
397.70 0.3514
397.80 0.3519
397.90 0.3524
398.00 0.3529
398.10 0.3534
398.20 0.354
398.30 0.3545
398.40 0.355
398.50 0.3555
398.60 0.356
398.70 0.3566
398.80 0.3571
398.90 0.3576
399.00 0.3581
399.10 0.3587
399.20 0.3592
399.30 0.3597
399.40 0.3602
399.50 0.3608
399.60 0.3613
399.70 0.3618
399.80 0.3623
399.90 0.3629
400.00 0.3634
400.10 0.3639
400.20 0.3645
400.30 0.365
400.40 0.3655
400.50 0.366
400.60 0.3666
400.70 0.3671
400.80 0.3676
400.90 0.3682
401.00 0.3687
401.10 0.3692
401.20 0.3698
401.30 0.3703
401.40 0.3708
401.50 0.3714
401.60 0.3719
401.70 0.3724
401.80 0.373
401.90 0.3735
402.00 0.374
402.10 0.3746
402.20 0.3751
402.30 0.3756
402.40 0.3762
402.50 0.3767
402.60 0.3773
402.70 0.3778
402.80 0.3783
402.90 0.3789
403.00 0.3794
403.10 0.3799
403.20 0.3805
403.30 0.381
403.40 0.3816
403.50 0.3821
403.60 0.3826
403.70 0.3832
403.80 0.3837
403.90 0.3843
404.00 0.3848
404.10 0.3853
404.20 0.3859
404.30 0.3864
404.40 0.387
404.50 0.3875
404.60 0.3881
404.70 0.3886
404.80 0.3891
404.90 0.3897
405.00 0.3902
405.10 0.3908
405.20 0.3913
405.30 0.3919
405.40 0.3924
405.50 0.393
405.60 0.3935
405.70 0.3941
405.80 0.3946
405.90 0.3952
406.00 0.3957
406.10 0.3962
406.20 0.3968
406.30 0.3973
406.40 0.3979
406.50 0.3984
406.60 0.399
406.70 0.3995
406.80 0.4001
406.90 0.4007
407.00 0.4012
407.10 0.4018
407.20 0.4023
407.30 0.4029
407.40 0.4034
407.50 0.404
407.60 0.4045
407.70 0.4051
407.80 0.4056
407.90 0.4062
408.00 0.4067
408.10 0.4073
408.20 0.4078
408.30 0.4084
408.40 0.409
408.50 0.4095
408.60 0.4101
408.70 0.4106
408.80 0.4112
408.90 0.4117
409.00 0.4123
409.10 0.4129
409.20 0.4134
409.30 0.414
409.40 0.4145
409.50 0.4151
409.60 0.4157
409.70 0.4162
409.80 0.4168
409.90 0.4173
410.00 0.4179
410.10 0.4185
410.20 0.419
410.30 0.4196
410.40 0.4201
410.50 0.4207
410.60 0.4213
410.70 0.4218
410.80 0.4224
410.90 0.423
411.00 0.4235
411.10 0.4241
411.20 0.4247
411.30 0.4252
411.40 0.4258
411.50 0.4263
411.60 0.4269
411.70 0.4275
411.80 0.428
411.90 0.4286
412.00 0.4292
412.10 0.4297
412.20 0.4303
412.30 0.4309
412.40 0.4315
412.50 0.432
412.60 0.4326
412.70 0.4332
412.80 0.4337
412.90 0.4343
413.00 0.4349
413.10 0.4354
413.20 0.436
413.30 0.4366
413.40 0.4372
413.50 0.4377
413.60 0.4383
413.70 0.4389
413.80 0.4394
413.90 0.44
414.00 0.4406
414.10 0.4412
414.20 0.4417
414.30 0.4423
414.40 0.4429
414.50 0.4435
414.60 0.444
414.70 0.4446
414.80 0.4452
414.90 0.4458
415.00 0.4463
415.10 0.4469
415.20 0.4475
415.30 0.4481
415.40 0.4486
415.50 0.4492
415.60 0.4498
415.70 0.4504
415.80 0.451
415.90 0.4515
416.00 0.4521
416.10 0.4527
416.20 0.4533
416.30 0.4539
416.40 0.4544
416.50 0.455
416.60 0.4556
416.70 0.4562
416.80 0.4568
416.90 0.4573
417.00 0.4579
417.10 0.4585
417.20 0.4591
417.30 0.4597
417.40 0.4603
417.50 0.4608
417.60 0.4614
417.70 0.462
417.80 0.4626
417.90 0.4632
418.00 0.4638
418.10 0.4643
418.20 0.4649
418.30 0.4655
418.40 0.4661
418.50 0.4667
418.60 0.4673
418.70 0.4679
418.80 0.4684
418.90 0.469
419.00 0.4696
419.10 0.4702
419.20 0.4708
419.30 0.4714
419.40 0.472
419.50 0.4726
419.60 0.4732
419.70 0.4737
419.80 0.4743
419.90 0.4749
420.00 0.4755
420.10 0.4761
420.20 0.4767
420.30 0.4773
420.40 0.4779
420.50 0.4785
420.60 0.4791
420.70 0.4797
420.80 0.4802
420.90 0.4808
421.00 0.4814
421.10 0.482
421.20 0.4826
421.30 0.4832
421.40 0.4838
421.50 0.4844
421.60 0.485
421.70 0.4856
421.80 0.4862
421.90 0.4868
422.00 0.4874
422.10 0.488
422.20 0.4886
422.30 0.4892
422.40 0.4898
422.50 0.4904
422.60 0.491
422.70 0.4916
422.80 0.4922
422.90 0.4928
423.00 0.4934
423.10 0.4939
423.20 0.4945
423.30 0.4951
423.40 0.4958
423.50 0.4964
423.60 0.4969
423.70 0.4975
423.80 0.4981
423.90 0.4988
424.00 0.4994
424.10 0.5
424.20 0.5006
424.30 0.5012
424.40 0.5018
424.50 0.5024
424.60 0.503
424.70 0.5036
424.80 0.5042
424.90 0.5048
425.00 0.5054
425.10 0.506
425.20 0.5066
425.30 0.5072
425.40 0.5078
425.50 0.5084
425.60 0.509
425.70 0.5096
425.80 0.5102
425.90 0.5108
426.00 0.5114
426.10 0.512
426.20 0.5126
426.30 0.5132
426.40 0.5139
426.50 0.5145
426.60 0.5151
426.70 0.5157
426.80 0.5163
426.90 0.5169
427.00 0.5175
427.10 0.5181
427.20 0.5187
427.30 0.5193
427.40 0.5199
427.50 0.5206
427.60 0.5212
427.70 0.5218
427.80 0.5224
427.90 0.523
428.00 0.5236
428.10 0.5242
428.20 0.5248
428.30 0.5254
428.40 0.5261
428.50 0.5267
428.60 0.5273
428.70 0.5279
428.80 0.5285
428.90 0.5291
429.00 0.5297
429.10 0.5303
429.20 0.531
429.30 0.5316
429.40 0.5322
429.50 0.5328
429.60 0.5334
429.70 0.534
429.80 0.5347
429.90 0.5353
430.00 0.5359
430.10 0.5365
430.20 0.5371
430.30 0.5377
430.40 0.5383
430.50 0.539
430.60 0.5396
430.70 0.5402
430.80 0.5408
430.90 0.5414
431.00 0.5421
431.10 0.5427
431.20 0.5433
431.30 0.5439
431.40 0.5445
431.50 0.5451
431.60 0.5458
431.70 0.5464
431.80 0.547
431.90 0.5476
432.00 0.5483
432.10 0.5489
432.20 0.5495
432.30 0.5501
432.40 0.5507
432.50 0.5514
432.60 0.552
432.70 0.5526
432.80 0.5532
432.90 0.5538
433.00 0.5545
433.10 0.5551
433.20 0.5557
433.30 0.5563
433.40 0.557
433.50 0.5576
433.60 0.5582
433.70 0.5588
433.80 0.5595
433.90 0.5601
434.00 0.5607
434.10 0.5613
434.20 0.562
434.30 0.5626
434.40 0.5632
434.50 0.5638
434.60 0.5645
434.70 0.5651
434.80 0.5657
434.90 0.5663
435.00 0.567
435.10 0.5676
435.20 0.5682
435.30 0.5689
435.40 0.5695
435.50 0.5701
435.60 0.5707
435.70 0.5714
435.80 0.572
435.90 0.5726
436.00 0.5733
436.10 0.5739
436.20 0.5745
436.30 0.5751
436.40 0.5758
436.50 0.5764
436.60 0.577
436.70 0.5777
436.80 0.5783
436.90 0.5789
437.00 0.5796
437.10 0.5802
437.20 0.5808
437.30 0.5815
437.40 0.5821
437.50 0.5827
437.60 0.5834
437.70 0.584
437.80 0.5846
437.90 0.5853
438.00 0.5859
438.10 0.5865
438.20 0.5872
438.30 0.5878
438.40 0.5884
438.50 0.5891
438.60 0.5897
438.70 0.5903
438.80 0.591
438.90 0.5916
439.00 0.5922
439.10 0.5929
439.20 0.5935
439.30 0.5941
439.40 0.5948
439.50 0.5954
439.60 0.596
439.70 0.5967
439.80 0.5973
439.90 0.598
440.00 0.5986
440.10 0.5992
440.20 0.5999
440.30 0.6005
440.40 0.6012
440.50 0.6018
440.60 0.6024
