# Version 2.1 - nm, norm@500 to 1, cut digits, bergeron_130000_90.dat_130000
# Wavelength(nm)  Flambda(ergs/cm^s/s/nm)
300.00 7.024
300.10 7.015
300.20 7.006
300.30 6.997
300.40 6.988
300.50 6.98
300.60 6.971
300.70 6.962
300.80 6.953
300.90 6.944
301.00 6.935
301.10 6.927
301.20 6.918
301.30 6.909
301.40 6.9
301.50 6.892
301.60 6.883
301.70 6.874
301.80 6.866
301.90 6.857
302.00 6.848
302.10 6.84
302.20 6.831
302.30 6.822
302.40 6.814
302.50 6.805
302.60 6.797
302.70 6.788
302.80 6.779
302.90 6.771
303.00 6.762
303.10 6.754
303.20 6.745
303.30 6.737
303.40 6.728
303.50 6.72
303.60 6.712
303.70 6.703
303.80 6.695
303.90 6.686
304.00 6.678
304.10 6.67
304.20 6.661
304.30 6.653
304.40 6.645
304.50 6.636
304.60 6.628
304.70 6.62
304.80 6.611
304.90 6.603
305.00 6.595
305.10 6.587
305.20 6.578
305.30 6.57
305.40 6.562
305.50 6.554
305.60 6.545
305.70 6.537
305.80 6.529
305.90 6.521
306.00 6.513
306.10 6.505
306.20 6.497
306.30 6.489
306.40 6.48
306.50 6.472
306.60 6.464
306.70 6.456
306.80 6.448
306.90 6.44
307.00 6.432
307.10 6.424
307.20 6.416
307.30 6.408
307.40 6.4
307.50 6.392
307.60 6.384
307.70 6.377
307.80 6.369
307.90 6.361
308.00 6.353
308.10 6.345
308.20 6.337
308.30 6.329
308.40 6.321
308.50 6.314
308.60 6.306
308.70 6.298
308.80 6.29
308.90 6.282
309.00 6.275
309.10 6.267
309.20 6.259
309.30 6.252
309.40 6.244
309.50 6.236
309.60 6.228
309.70 6.221
309.80 6.213
309.90 6.205
310.00 6.198
310.10 6.19
310.20 6.183
310.30 6.175
310.40 6.167
310.50 6.16
310.60 6.152
310.70 6.145
310.80 6.137
310.90 6.13
311.00 6.122
311.10 6.114
311.20 6.107
311.30 6.099
311.40 6.092
311.50 6.085
311.60 6.077
311.70 6.07
311.80 6.062
311.90 6.055
312.00 6.047
312.10 6.04
312.20 6.033
312.30 6.025
312.40 6.018
312.50 6.011
312.60 6.003
312.70 5.996
312.80 5.988
312.90 5.981
313.00 5.974
313.10 5.967
313.20 5.959
313.30 5.952
313.40 5.945
313.50 5.938
313.60 5.93
313.70 5.923
313.80 5.916
313.90 5.909
314.00 5.902
314.10 5.894
314.20 5.887
314.30 5.88
314.40 5.873
314.50 5.866
314.60 5.859
314.70 5.852
314.80 5.844
314.90 5.837
315.00 5.83
315.10 5.823
315.20 5.816
315.30 5.809
315.40 5.802
315.50 5.795
315.60 5.788
315.70 5.781
315.80 5.774
315.90 5.767
316.00 5.76
316.10 5.753
316.20 5.746
316.30 5.739
316.40 5.732
316.50 5.725
316.60 5.718
316.70 5.712
316.80 5.705
316.90 5.698
317.00 5.691
317.10 5.684
317.20 5.677
317.30 5.67
317.40 5.664
317.50 5.657
317.60 5.65
317.70 5.643
317.80 5.636
317.90 5.63
318.00 5.623
318.10 5.616
318.20 5.609
318.30 5.603
318.40 5.596
318.50 5.589
318.60 5.583
318.70 5.576
318.80 5.569
318.90 5.562
319.00 5.556
319.10 5.549
319.20 5.543
319.30 5.536
319.40 5.529
319.50 5.523
319.60 5.516
319.70 5.509
319.80 5.503
319.90 5.496
320.00 5.49
320.10 5.483
320.20 5.477
320.30 5.47
320.40 5.464
320.50 5.457
320.60 5.451
320.70 5.444
320.80 5.438
320.90 5.431
321.00 5.425
321.10 5.418
321.20 5.412
321.30 5.405
321.40 5.399
321.50 5.392
321.60 5.386
321.70 5.38
321.80 5.373
321.90 5.367
322.00 5.361
322.10 5.354
322.20 5.348
322.30 5.341
322.40 5.335
322.50 5.329
322.60 5.322
322.70 5.316
322.80 5.31
322.90 5.304
323.00 5.297
323.10 5.291
323.20 5.285
323.30 5.279
323.40 5.272
323.50 5.266
323.60 5.26
323.70 5.254
323.80 5.247
323.90 5.241
324.00 5.235
324.10 5.229
324.20 5.223
324.30 5.217
324.40 5.21
324.50 5.204
324.60 5.198
324.70 5.192
324.80 5.186
324.90 5.18
325.00 5.174
325.10 5.168
325.20 5.162
325.30 5.156
325.40 5.149
325.50 5.143
325.60 5.137
325.70 5.131
325.80 5.125
325.90 5.119
326.00 5.113
326.10 5.107
326.20 5.101
326.30 5.095
326.40 5.089
326.50 5.083
326.60 5.077
326.70 5.072
326.80 5.066
326.90 5.06
327.00 5.054
327.10 5.048
327.20 5.042
327.30 5.036
327.40 5.03
327.50 5.024
327.60 5.018
327.70 5.013
327.80 5.007
327.90 5.001
328.00 4.995
328.10 4.989
328.20 4.983
328.30 4.978
328.40 4.972
328.50 4.966
328.60 4.96
328.70 4.955
328.80 4.949
328.90 4.943
329.00 4.937
329.10 4.931
329.20 4.926
329.30 4.92
329.40 4.914
329.50 4.909
329.60 4.903
329.70 4.897
329.80 4.892
329.90 4.886
330.00 4.88
330.10 4.875
330.20 4.869
330.30 4.863
330.40 4.858
330.50 4.852
330.60 4.847
330.70 4.841
330.80 4.835
330.90 4.83
331.00 4.824
331.10 4.819
331.20 4.813
331.30 4.807
331.40 4.802
331.50 4.796
331.60 4.791
331.70 4.785
331.80 4.78
331.90 4.774
332.00 4.769
332.10 4.763
332.20 4.758
332.30 4.752
332.40 4.747
332.50 4.741
332.60 4.736
332.70 4.73
332.80 4.725
332.90 4.72
333.00 4.714
333.10 4.709
333.20 4.703
333.30 4.698
333.40 4.693
333.50 4.687
333.60 4.682
333.70 4.676
333.80 4.671
333.90 4.666
334.00 4.66
334.10 4.655
334.20 4.65
334.30 4.644
334.40 4.639
334.50 4.634
334.60 4.628
334.70 4.623
334.80 4.618
334.90 4.613
335.00 4.607
335.10 4.602
335.20 4.597
335.30 4.592
335.40 4.586
335.50 4.581
335.60 4.576
335.70 4.571
335.80 4.565
335.90 4.56
336.00 4.555
336.10 4.55
336.20 4.545
336.30 4.54
336.40 4.534
336.50 4.529
336.60 4.524
336.70 4.519
336.80 4.514
336.90 4.509
337.00 4.504
337.10 4.498
337.20 4.493
337.30 4.488
337.40 4.483
337.50 4.478
337.60 4.473
337.70 4.468
337.80 4.463
337.90 4.458
338.00 4.453
338.10 4.448
338.20 4.443
338.30 4.438
338.40 4.433
338.50 4.428
338.60 4.423
338.70 4.418
338.80 4.413
338.90 4.408
339.00 4.403
339.10 4.398
339.20 4.393
339.30 4.388
339.40 4.383
339.50 4.378
339.60 4.373
339.70 4.368
339.80 4.363
339.90 4.358
340.00 4.353
340.10 4.348
340.20 4.343
340.30 4.339
340.40 4.334
340.50 4.329
340.60 4.324
340.70 4.319
340.80 4.314
340.90 4.309
341.00 4.305
341.10 4.3
341.20 4.295
341.30 4.29
341.40 4.285
341.50 4.28
341.60 4.276
341.70 4.271
341.80 4.266
341.90 4.261
342.00 4.256
342.10 4.252
342.20 4.247
342.30 4.242
342.40 4.238
342.50 4.233
342.60 4.228
342.70 4.223
342.80 4.219
342.90 4.214
343.00 4.209
343.10 4.205
343.20 4.2
343.30 4.195
343.40 4.19
343.50 4.186
343.60 4.181
343.70 4.176
343.80 4.172
343.90 4.167
344.00 4.162
344.10 4.158
344.20 4.153
344.30 4.149
344.40 4.144
344.50 4.139
344.60 4.135
344.70 4.13
344.80 4.126
344.90 4.121
345.00 4.117
345.10 4.112
345.20 4.107
345.30 4.103
345.40 4.098
345.50 4.094
345.60 4.089
345.70 4.085
345.80 4.08
345.90 4.076
346.00 4.071
346.10 4.067
346.20 4.062
346.30 4.058
346.40 4.053
346.50 4.049
346.60 4.044
346.70 4.04
346.80 4.035
346.90 4.031
347.00 4.026
347.10 4.022
347.20 4.017
347.30 4.013
347.40 4.009
347.50 4.004
347.60 4
347.70 3.995
347.80 3.991
347.90 3.987
348.00 3.982
348.10 3.978
348.20 3.973
348.30 3.969
348.40 3.965
348.50 3.96
348.60 3.956
348.70 3.952
348.80 3.947
348.90 3.943
349.00 3.939
349.10 3.934
349.20 3.93
349.30 3.926
349.40 3.921
349.50 3.917
349.60 3.913
349.70 3.908
349.80 3.904
349.90 3.9
350.00 3.896
350.10 3.891
350.20 3.887
350.30 3.883
350.40 3.879
350.50 3.874
350.60 3.87
350.70 3.866
350.80 3.862
350.90 3.858
351.00 3.853
351.10 3.849
351.20 3.845
351.30 3.841
351.40 3.837
351.50 3.832
351.60 3.828
351.70 3.824
351.80 3.82
351.90 3.816
352.00 3.811
352.10 3.807
352.20 3.803
352.30 3.799
352.40 3.795
352.50 3.791
352.60 3.787
352.70 3.783
352.80 3.778
352.90 3.774
353.00 3.77
353.10 3.766
353.20 3.762
353.30 3.758
353.40 3.754
353.50 3.75
353.60 3.746
353.70 3.742
353.80 3.738
353.90 3.734
354.00 3.73
354.10 3.726
354.20 3.721
354.30 3.717
354.40 3.713
354.50 3.709
354.60 3.705
354.70 3.701
354.80 3.697
354.90 3.693
355.00 3.689
355.10 3.686
355.20 3.682
355.30 3.678
355.40 3.674
355.50 3.67
355.60 3.666
355.70 3.662
355.80 3.658
355.90 3.654
356.00 3.65
356.10 3.646
356.20 3.642
356.30 3.638
356.40 3.634
356.50 3.63
356.60 3.626
356.70 3.623
356.80 3.619
356.90 3.615
357.00 3.611
357.10 3.607
357.20 3.603
357.30 3.599
357.40 3.595
357.50 3.591
357.60 3.588
357.70 3.584
357.80 3.58
357.90 3.576
358.00 3.572
358.10 3.568
358.20 3.565
358.30 3.561
358.40 3.557
358.50 3.553
358.60 3.549
358.70 3.546
358.80 3.542
358.90 3.538
359.00 3.534
359.10 3.531
359.20 3.527
359.30 3.523
359.40 3.519
359.50 3.515
359.60 3.512
359.70 3.508
359.80 3.504
359.90 3.5
360.00 3.497
360.10 3.493
360.20 3.489
360.30 3.486
360.40 3.482
360.50 3.478
360.60 3.475
360.70 3.471
360.80 3.467
360.90 3.463
361.00 3.46
361.10 3.456
361.20 3.452
361.30 3.449
361.40 3.445
361.50 3.441
361.60 3.438
361.70 3.434
361.80 3.43
361.90 3.427
362.00 3.423
362.10 3.42
362.20 3.416
362.30 3.412
362.40 3.409
362.50 3.405
362.60 3.402
362.70 3.398
362.80 3.394
362.90 3.391
363.00 3.387
363.10 3.384
363.20 3.38
363.30 3.376
363.40 3.373
363.50 3.369
363.60 3.366
363.70 3.362
363.80 3.359
363.90 3.355
364.00 3.352
364.10 3.348
364.20 3.345
364.30 3.341
364.40 3.337
364.50 3.334
364.60 3.33
364.70 3.327
364.80 3.323
364.90 3.32
365.00 3.317
365.10 3.313
365.20 3.31
365.30 3.306
365.40 3.303
365.50 3.299
365.60 3.296
365.70 3.292
365.80 3.289
365.90 3.285
366.00 3.282
366.10 3.278
366.20 3.275
366.30 3.272
366.40 3.268
366.50 3.265
366.60 3.261
366.70 3.258
366.80 3.254
366.90 3.251
367.00 3.248
367.10 3.244
367.20 3.241
367.30 3.237
367.40 3.234
367.50 3.231
367.60 3.227
367.70 3.224
367.80 3.22
367.90 3.217
368.00 3.214
368.10 3.21
368.20 3.207
368.30 3.204
368.40 3.2
368.50 3.197
368.60 3.193
368.70 3.19
368.80 3.187
368.90 3.183
369.00 3.18
369.10 3.177
369.20 3.173
369.30 3.17
369.40 3.167
369.50 3.163
369.60 3.16
369.70 3.157
369.80 3.153
369.90 3.15
370.00 3.147
370.10 3.143
370.20 3.14
370.30 3.137
370.40 3.133
370.50 3.13
370.60 3.127
370.70 3.123
370.80 3.12
370.90 3.117
371.00 3.114
371.10 3.11
371.20 3.107
371.30 3.104
371.40 3.101
371.50 3.097
371.60 3.094
371.70 3.091
371.80 3.088
371.90 3.084
372.00 3.081
372.10 3.078
372.20 3.075
372.30 3.072
372.40 3.069
372.50 3.065
372.60 3.062
372.70 3.059
372.80 3.056
372.90 3.053
373.00 3.05
373.10 3.047
373.20 3.044
373.30 3.04
373.40 3.037
373.50 3.034
373.60 3.031
373.70 3.028
373.80 3.025
373.90 3.022
374.00 3.019
374.10 3.016
374.20 3.012
374.30 3.009
374.40 3.006
374.50 3.003
374.60 3
374.70 2.997
374.80 2.994
374.90 2.991
375.00 2.987
375.10 2.984
375.20 2.981
375.30 2.978
375.40 2.975
375.50 2.972
375.60 2.969
375.70 2.966
375.80 2.963
375.90 2.96
376.00 2.957
376.10 2.953
376.20 2.95
376.30 2.947
376.40 2.944
376.50 2.941
376.60 2.938
376.70 2.935
376.80 2.932
376.90 2.929
377.00 2.926
377.10 2.923
377.20 2.92
377.30 2.917
377.40 2.914
377.50 2.911
377.60 2.908
377.70 2.905
377.80 2.902
377.90 2.899
378.00 2.896
378.10 2.893
378.20 2.89
378.30 2.887
378.40 2.884
378.50 2.881
378.60 2.879
378.70 2.876
378.80 2.873
378.90 2.87
379.00 2.867
379.10 2.864
379.20 2.861
379.30 2.858
379.40 2.855
379.50 2.852
379.60 2.849
379.70 2.846
379.80 2.843
379.90 2.841
380.00 2.838
380.10 2.835
380.20 2.832
380.30 2.829
380.40 2.826
380.50 2.823
380.60 2.82
380.70 2.818
380.80 2.815
380.90 2.812
381.00 2.809
381.10 2.806
381.20 2.803
381.30 2.801
381.40 2.798
381.50 2.795
381.60 2.792
381.70 2.789
381.80 2.786
381.90 2.784
382.00 2.781
382.10 2.778
382.20 2.775
382.30 2.773
382.40 2.77
382.50 2.767
382.60 2.764
382.70 2.761
382.80 2.759
382.90 2.756
383.00 2.753
383.10 2.75
383.20 2.748
383.30 2.745
383.40 2.742
383.50 2.739
383.60 2.737
383.70 2.734
383.80 2.731
383.90 2.728
384.00 2.726
384.10 2.723
384.20 2.72
384.30 2.718
384.40 2.715
384.50 2.712
384.60 2.71
384.70 2.707
384.80 2.704
384.90 2.701
385.00 2.699
385.10 2.696
385.20 2.693
385.30 2.691
385.40 2.688
385.50 2.685
385.60 2.683
385.70 2.68
385.80 2.678
385.90 2.675
386.00 2.672
386.10 2.67
386.20 2.667
386.30 2.664
386.40 2.662
386.50 2.659
386.60 2.656
386.70 2.654
386.80 2.651
386.90 2.649
387.00 2.646
387.10 2.643
387.20 2.641
387.30 2.638
387.40 2.636
387.50 2.633
387.60 2.63
387.70 2.628
387.80 2.625
387.90 2.623
388.00 2.62
388.10 2.618
388.20 2.615
388.30 2.613
388.40 2.61
388.50 2.608
388.60 2.605
388.70 2.603
388.80 2.6
388.90 2.598
389.00 2.595
389.10 2.593
389.20 2.59
389.30 2.587
389.40 2.585
389.50 2.582
389.60 2.58
389.70 2.578
389.80 2.575
389.90 2.573
390.00 2.57
390.10 2.568
390.20 2.565
390.30 2.563
390.40 2.56
390.50 2.558
390.60 2.555
390.70 2.553
390.80 2.55
390.90 2.548
391.00 2.546
391.10 2.543
391.20 2.541
391.30 2.538
391.40 2.536
391.50 2.533
391.60 2.531
391.70 2.529
391.80 2.526
391.90 2.524
392.00 2.521
392.10 2.519
392.20 2.516
392.30 2.514
392.40 2.511
392.50 2.509
392.60 2.507
392.70 2.504
392.80 2.502
392.90 2.499
393.00 2.497
393.10 2.494
393.20 2.492
393.30 2.49
393.40 2.487
393.50 2.485
393.60 2.482
393.70 2.48
393.80 2.477
393.90 2.475
394.00 2.472
394.10 2.47
394.20 2.468
394.30 2.465
394.40 2.463
394.50 2.46
394.60 2.458
394.70 2.455
394.80 2.453
394.90 2.451
395.00 2.448
395.10 2.446
395.20 2.443
395.30 2.441
395.40 2.438
395.50 2.436
395.60 2.434
395.70 2.431
395.80 2.429
395.90 2.426
396.00 2.424
396.10 2.421
396.20 2.419
396.30 2.417
396.40 2.414
396.50 2.412
396.60 2.41
396.70 2.407
396.80 2.405
396.90 2.403
397.00 2.401
397.10 2.398
397.20 2.396
397.30 2.394
397.40 2.392
397.50 2.39
397.60 2.388
397.70 2.386
397.80 2.383
397.90 2.381
398.00 2.379
398.10 2.377
398.20 2.375
398.30 2.373
398.40 2.371
398.50 2.369
398.60 2.367
398.70 2.365
398.80 2.363
398.90 2.361
399.00 2.359
399.10 2.357
399.20 2.355
399.30 2.353
399.40 2.351
399.50 2.349
399.60 2.347
399.70 2.344
399.80 2.342
399.90 2.34
400.00 2.338
400.10 2.336
400.20 2.334
400.30 2.332
400.40 2.33
400.50 2.328
400.60 2.326
400.70 2.324
400.80 2.322
400.90 2.32
401.00 2.317
401.10 2.315
401.20 2.313
401.30 2.311
401.40 2.309
401.50 2.307
401.60 2.305
401.70 2.303
401.80 2.3
401.90 2.298
402.00 2.296
402.10 2.294
402.20 2.292
402.30 2.29
402.40 2.287
402.50 2.285
402.60 2.283
402.70 2.281
402.80 2.279
402.90 2.276
403.00 2.274
403.10 2.272
403.20 2.27
403.30 2.267
403.40 2.265
403.50 2.263
403.60 2.261
403.70 2.258
403.80 2.256
403.90 2.254
404.00 2.252
404.10 2.249
404.20 2.247
404.30 2.245
404.40 2.242
404.50 2.24
404.60 2.238
404.70 2.235
404.80 2.233
404.90 2.231
405.00 2.228
405.10 2.226
405.20 2.223
405.30 2.221
405.40 2.219
405.50 2.216
405.60 2.214
405.70 2.211
405.80 2.209
405.90 2.207
406.00 2.204
406.10 2.202
406.20 2.199
406.30 2.197
406.40 2.194
406.50 2.192
406.60 2.189
406.70 2.187
406.80 2.184
406.90 2.182
407.00 2.179
407.10 2.177
407.20 2.174
407.30 2.172
407.40 2.169
407.50 2.166
407.60 2.164
407.70 2.161
407.80 2.159
407.90 2.156
408.00 2.154
408.10 2.151
408.20 2.149
408.30 2.146
408.40 2.143
408.50 2.141
408.60 2.138
408.70 2.136
408.80 2.133
408.90 2.131
409.00 2.128
409.10 2.126
409.20 2.124
409.30 2.121
409.40 2.119
409.50 2.117
409.60 2.115
409.70 2.113
409.80 2.111
409.90 2.11
410.00 2.108
410.10 2.107
410.20 2.105
410.30 2.103
410.40 2.1
410.50 2.098
410.60 2.096
410.70 2.094
410.80 2.092
410.90 2.091
411.00 2.089
411.10 2.088
411.20 2.086
411.30 2.085
411.40 2.083
411.50 2.082
411.60 2.081
411.70 2.079
411.80 2.078
411.90 2.077
412.00 2.075
412.10 2.074
412.20 2.073
412.30 2.072
412.40 2.07
412.50 2.069
412.60 2.068
412.70 2.067
412.80 2.065
412.90 2.064
413.00 2.063
413.10 2.061
413.20 2.06
413.30 2.059
413.40 2.057
413.50 2.056
413.60 2.055
413.70 2.053
413.80 2.052
413.90 2.051
414.00 2.049
414.10 2.048
414.20 2.047
414.30 2.045
414.40 2.044
414.50 2.042
414.60 2.041
414.70 2.04
414.80 2.038
414.90 2.037
415.00 2.035
415.10 2.034
415.20 2.032
415.30 2.031
415.40 2.029
415.50 2.028
415.60 2.026
415.70 2.025
415.80 2.023
415.90 2.022
416.00 2.02
416.10 2.019
416.20 2.017
416.30 2.016
416.40 2.014
416.50 2.013
416.60 2.011
416.70 2.01
416.80 2.008
416.90 2.006
417.00 2.005
417.10 2.003
417.20 2.002
417.30 2
417.40 1.998
417.50 1.997
417.60 1.995
417.70 1.994
417.80 1.992
417.90 1.99
418.00 1.989
418.10 1.987
418.20 1.985
418.30 1.984
418.40 1.982
418.50 1.98
418.60 1.979
418.70 1.977
418.80 1.975
418.90 1.974
419.00 1.972
419.10 1.97
419.20 1.969
419.30 1.967
419.40 1.965
419.50 1.964
419.60 1.962
419.70 1.96
419.80 1.958
419.90 1.957
420.00 1.955
420.10 1.953
420.20 1.952
420.30 1.95
420.40 1.948
420.50 1.946
420.60 1.945
420.70 1.943
420.80 1.941
420.90 1.939
421.00 1.938
421.10 1.936
421.20 1.934
421.30 1.932
421.40 1.931
421.50 1.929
421.60 1.927
421.70 1.925
421.80 1.924
421.90 1.922
422.00 1.92
422.10 1.918
422.20 1.916
422.30 1.915
422.40 1.913
422.50 1.911
422.60 1.909
422.70 1.907
422.80 1.906
422.90 1.904
423.00 1.902
423.10 1.9
423.20 1.898
423.30 1.896
423.40 1.895
423.50 1.893
423.60 1.891
423.70 1.889
423.80 1.887
423.90 1.885
424.00 1.883
424.10 1.882
424.20 1.88
424.30 1.878
424.40 1.876
424.50 1.874
424.60 1.872
424.70 1.87
424.80 1.868
424.90 1.866
425.00 1.865
425.10 1.863
425.20 1.861
425.30 1.859
425.40 1.857
425.50 1.855
425.60 1.853
425.70 1.851
425.80 1.849
425.90 1.847
426.00 1.845
426.10 1.843
426.20 1.841
426.30 1.839
426.40 1.837
426.50 1.835
426.60 1.833
426.70 1.831
426.80 1.829
426.90 1.827
427.00 1.825
427.10 1.823
427.20 1.82
427.30 1.818
427.40 1.816
427.50 1.814
427.60 1.812
427.70 1.81
427.80 1.808
427.90 1.805
428.00 1.803
428.10 1.801
428.20 1.799
428.30 1.797
428.40 1.794
428.50 1.792
428.60 1.79
428.70 1.787
428.80 1.785
428.90 1.783
429.00 1.781
429.10 1.778
429.20 1.776
429.30 1.773
429.40 1.771
429.50 1.769
429.60 1.766
429.70 1.764
429.80 1.761
429.90 1.759
430.00 1.756
430.10 1.754
430.20 1.751
430.30 1.749
430.40 1.746
430.50 1.743
430.60 1.741
430.70 1.738
430.80 1.735
430.90 1.733
431.00 1.73
431.10 1.727
431.20 1.725
431.30 1.722
431.40 1.719
431.50 1.716
431.60 1.713
431.70 1.711
431.80 1.708
431.90 1.705
432.00 1.702
432.10 1.699
432.20 1.697
432.30 1.694
432.40 1.691
432.50 1.688
432.60 1.685
432.70 1.682
432.80 1.679
432.90 1.677
433.00 1.674
433.10 1.671
433.20 1.668
433.30 1.665
433.40 1.662
433.50 1.658
433.60 1.655
433.70 1.652
433.80 1.648
433.90 1.644
434.00 1.642
434.10 1.641
434.20 1.64
434.30 1.641
434.40 1.642
434.50 1.643
434.60 1.643
434.70 1.644
434.80 1.644
434.90 1.644
435.00 1.644
435.10 1.644
435.20 1.644
435.30 1.644
435.40 1.644
435.50 1.644
435.60 1.644
435.70 1.644
435.80 1.644
435.90 1.644
436.00 1.644
436.10 1.644
436.20 1.643
436.30 1.643
436.40 1.643
436.50 1.643
436.60 1.643
436.70 1.643
436.80 1.642
436.90 1.642
437.00 1.642
437.10 1.642
437.20 1.641
437.30 1.641
437.40 1.641
437.50 1.64
437.60 1.64
437.70 1.639
437.80 1.639
437.90 1.638
438.00 1.638
438.10 1.638
438.20 1.637
438.30 1.636
438.40 1.636
438.50 1.635
438.60 1.635
438.70 1.634
438.80 1.633
438.90 1.633
439.00 1.632
439.10 1.631
439.20 1.631
439.30 1.63
439.40 1.629
439.50 1.628
439.60 1.628
439.70 1.627
439.80 1.626
439.90 1.625
440.00 1.624
440.10 1.623
440.20 1.622
440.30 1.622
440.40 1.621
440.50 1.62
440.60 1.619
440.70 1.618
440.80 1.617
440.90 1.616
441.00 1.615
441.10 1.614
441.20 1.613
441.30 1.612
441.40 1.611
441.50 1.61
441.60 1.609
441.70 1.608
441.80 1.607
441.90 1.606
442.00 1.605
442.10 1.604
442.20 1.602
442.30 1.601
442.40 1.6
442.50 1.599
442.60 1.598
442.70 1.597
442.80 1.596
442.90 1.595
443.00 1.593
443.10 1.592
443.20 1.591
443.30 1.59
443.40 1.589
443.50 1.588
443.60 1.587
443.70 1.585
443.80 1.584
443.90 1.583
444.00 1.582
444.10 1.581
444.20 1.579
444.30 1.578
444.40 1.577
444.50 1.576
444.60 1.575
444.70 1.573
444.80 1.572
444.90 1.571
445.00 1.57
445.10 1.568
445.20 1.567
445.30 1.566
445.40 1.565
445.50 1.564
445.60 1.562
445.70 1.561
445.80 1.56
445.90 1.559
446.00 1.557
446.10 1.556
446.20 1.555
446.30 1.554
446.40 1.552
446.50 1.551
446.60 1.55
446.70 1.549
446.80 1.547
446.90 1.546
447.00 1.545
447.10 1.544
447.20 1.542
447.30 1.541
447.40 1.54
447.50 1.539
447.60 1.537
447.70 1.536
447.80 1.535
447.90 1.534
448.00 1.532
448.10 1.531
448.20 1.53
448.30 1.529
448.40 1.527
448.50 1.526
448.60 1.525
448.70 1.523
448.80 1.522
448.90 1.521
449.00 1.52
449.10 1.518
449.20 1.517
449.30 1.516
449.40 1.515
449.50 1.513
449.60 1.512
449.70 1.511
449.80 1.51
449.90 1.508
450.00 1.507
450.10 1.506
450.20 1.505
450.30 1.503
450.40 1.502
450.50 1.501
450.60 1.5
450.70 1.498
450.80 1.497
450.90 1.496
451.00 1.495
451.10 1.493
451.20 1.492
451.30 1.491
451.40 1.49
451.50 1.488
451.60 1.487
451.70 1.486
451.80 1.485
451.90 1.483
452.00 1.482
452.10 1.481
452.20 1.48
452.30 1.478
452.40 1.477
452.50 1.476
452.60 1.475
452.70 1.473
452.80 1.472
452.90 1.471
453.00 1.47
453.10 1.468
453.20 1.467
453.30 1.466
453.40 1.465
453.50 1.463
453.60 1.462
453.70 1.461
453.80 1.46
453.90 1.458
454.00 1.457
454.10 1.456
454.20 1.455
