# Version 2.1 - nm, norm@500 to 1, cut digits, bergeron_35000_75.dat_35000
# Wavelength(nm)  Flambda(ergs/cm^s/s/nm)
300.00 5.517
300.10 5.51
300.20 5.504
300.30 5.498
300.40 5.491
300.50 5.485
300.60 5.479
300.70 5.472
300.80 5.466
300.90 5.459
301.00 5.453
301.10 5.447
301.20 5.441
301.30 5.434
301.40 5.428
301.50 5.422
301.60 5.415
301.70 5.409
301.80 5.403
301.90 5.397
302.00 5.39
302.10 5.384
302.20 5.378
302.30 5.372
302.40 5.365
302.50 5.359
302.60 5.353
302.70 5.347
302.80 5.341
302.90 5.335
303.00 5.328
303.10 5.322
303.20 5.316
303.30 5.31
303.40 5.304
303.50 5.298
303.60 5.292
303.70 5.286
303.80 5.28
303.90 5.274
304.00 5.267
304.10 5.261
304.20 5.255
304.30 5.249
304.40 5.243
304.50 5.237
304.60 5.231
304.70 5.225
304.80 5.219
304.90 5.213
305.00 5.207
305.10 5.201
305.20 5.196
305.30 5.19
305.40 5.184
305.50 5.178
305.60 5.172
305.70 5.166
305.80 5.16
305.90 5.154
306.00 5.148
306.10 5.142
306.20 5.136
306.30 5.131
306.40 5.125
306.50 5.119
306.60 5.113
306.70 5.107
306.80 5.101
306.90 5.096
307.00 5.09
307.10 5.084
307.20 5.078
307.30 5.072
307.40 5.067
307.50 5.061
307.60 5.055
307.70 5.049
307.80 5.044
307.90 5.038
308.00 5.032
308.10 5.026
308.20 5.021
308.30 5.015
308.40 5.009
308.50 5.004
308.60 4.998
308.70 4.992
308.80 4.987
308.90 4.981
309.00 4.975
309.10 4.97
309.20 4.964
309.30 4.959
309.40 4.953
309.50 4.947
309.60 4.942
309.70 4.936
309.80 4.931
309.90 4.925
310.00 4.92
310.10 4.914
310.20 4.908
310.30 4.903
310.40 4.897
310.50 4.892
310.60 4.886
310.70 4.881
310.80 4.875
310.90 4.87
311.00 4.864
311.10 4.859
311.20 4.853
311.30 4.848
311.40 4.843
311.50 4.837
311.60 4.832
311.70 4.826
311.80 4.821
311.90 4.815
312.00 4.81
312.10 4.805
312.20 4.799
312.30 4.794
312.40 4.788
312.50 4.783
312.60 4.778
312.70 4.772
312.80 4.767
312.90 4.762
313.00 4.756
313.10 4.751
313.20 4.746
313.30 4.74
313.40 4.735
313.50 4.73
313.60 4.725
313.70 4.719
313.80 4.714
313.90 4.709
314.00 4.704
314.10 4.698
314.20 4.693
314.30 4.688
314.40 4.683
314.50 4.677
314.60 4.672
314.70 4.667
314.80 4.662
314.90 4.657
315.00 4.651
315.10 4.646
315.20 4.641
315.30 4.636
315.40 4.631
315.50 4.626
315.60 4.62
315.70 4.615
315.80 4.61
315.90 4.605
316.00 4.6
316.10 4.595
316.20 4.59
316.30 4.585
316.40 4.58
316.50 4.575
316.60 4.569
316.70 4.564
316.80 4.559
316.90 4.554
317.00 4.549
317.10 4.544
317.20 4.539
317.30 4.534
317.40 4.529
317.50 4.524
317.60 4.519
317.70 4.514
317.80 4.509
317.90 4.504
318.00 4.499
318.10 4.494
318.20 4.489
318.30 4.484
318.40 4.479
318.50 4.475
318.60 4.47
318.70 4.465
318.80 4.46
318.90 4.455
319.00 4.45
319.10 4.445
319.20 4.44
319.30 4.435
319.40 4.43
319.50 4.426
319.60 4.421
319.70 4.416
319.80 4.411
319.90 4.406
320.00 4.401
320.10 4.397
320.20 4.392
320.30 4.387
320.40 4.382
320.50 4.377
320.60 4.373
320.70 4.368
320.80 4.363
320.90 4.358
321.00 4.353
321.10 4.349
321.20 4.344
321.30 4.339
321.40 4.334
321.50 4.33
321.60 4.325
321.70 4.32
321.80 4.316
321.90 4.311
322.00 4.306
322.10 4.301
322.20 4.297
322.30 4.292
322.40 4.287
322.50 4.283
322.60 4.278
322.70 4.273
322.80 4.269
322.90 4.264
323.00 4.259
323.10 4.255
323.20 4.25
323.30 4.246
323.40 4.241
323.50 4.236
323.60 4.232
323.70 4.227
323.80 4.223
323.90 4.218
324.00 4.213
324.10 4.209
324.20 4.204
324.30 4.2
324.40 4.195
324.50 4.191
324.60 4.186
324.70 4.182
324.80 4.177
324.90 4.173
325.00 4.168
325.10 4.164
325.20 4.159
325.30 4.155
325.40 4.15
325.50 4.146
325.60 4.141
325.70 4.137
325.80 4.132
325.90 4.128
326.00 4.123
326.10 4.119
326.20 4.114
326.30 4.11
326.40 4.106
326.50 4.101
326.60 4.097
326.70 4.092
326.80 4.088
326.90 4.083
327.00 4.079
327.10 4.075
327.20 4.07
327.30 4.066
327.40 4.062
327.50 4.057
327.60 4.053
327.70 4.048
327.80 4.044
327.90 4.04
328.00 4.035
328.10 4.031
328.20 4.027
328.30 4.023
328.40 4.018
328.50 4.014
328.60 4.01
328.70 4.005
328.80 4.001
328.90 3.997
329.00 3.992
329.10 3.988
329.20 3.984
329.30 3.98
329.40 3.975
329.50 3.971
329.60 3.967
329.70 3.963
329.80 3.958
329.90 3.954
330.00 3.95
330.10 3.946
330.20 3.942
330.30 3.937
330.40 3.933
330.50 3.929
330.60 3.925
330.70 3.921
330.80 3.917
330.90 3.912
331.00 3.908
331.10 3.904
331.20 3.9
331.30 3.896
331.40 3.892
331.50 3.888
331.60 3.883
331.70 3.879
331.80 3.875
331.90 3.871
332.00 3.867
332.10 3.863
332.20 3.859
332.30 3.855
332.40 3.851
332.50 3.846
332.60 3.842
332.70 3.838
332.80 3.834
332.90 3.83
333.00 3.826
333.10 3.822
333.20 3.818
333.30 3.814
333.40 3.81
333.50 3.806
333.60 3.802
333.70 3.798
333.80 3.794
333.90 3.79
334.00 3.786
334.10 3.782
334.20 3.778
334.30 3.774
334.40 3.77
334.50 3.766
334.60 3.762
334.70 3.758
334.80 3.754
334.90 3.75
335.00 3.746
335.10 3.742
335.20 3.738
335.30 3.734
335.40 3.731
335.50 3.727
335.60 3.723
335.70 3.719
335.80 3.715
335.90 3.711
336.00 3.707
336.10 3.703
336.20 3.699
336.30 3.695
336.40 3.692
336.50 3.688
336.60 3.684
336.70 3.68
336.80 3.676
336.90 3.672
337.00 3.668
337.10 3.665
337.20 3.661
337.30 3.657
337.40 3.653
337.50 3.649
337.60 3.646
337.70 3.642
337.80 3.638
337.90 3.634
338.00 3.63
338.10 3.626
338.20 3.623
338.30 3.619
338.40 3.615
338.50 3.611
338.60 3.608
338.70 3.604
338.80 3.6
338.90 3.596
339.00 3.593
339.10 3.589
339.20 3.585
339.30 3.581
339.40 3.578
339.50 3.574
339.60 3.57
339.70 3.567
339.80 3.563
339.90 3.559
340.00 3.555
340.10 3.552
340.20 3.548
340.30 3.544
340.40 3.541
340.50 3.537
340.60 3.533
340.70 3.53
340.80 3.526
340.90 3.522
341.00 3.519
341.10 3.515
341.20 3.512
341.30 3.508
341.40 3.504
341.50 3.501
341.60 3.497
341.70 3.493
341.80 3.49
341.90 3.486
342.00 3.483
342.10 3.479
342.20 3.475
342.30 3.472
342.40 3.468
342.50 3.465
342.60 3.461
342.70 3.458
342.80 3.454
342.90 3.45
343.00 3.447
343.10 3.443
343.20 3.44
343.30 3.436
343.40 3.433
343.50 3.429
343.60 3.426
343.70 3.422
343.80 3.419
343.90 3.415
344.00 3.412
344.10 3.408
344.20 3.405
344.30 3.401
344.40 3.398
344.50 3.394
344.60 3.391
344.70 3.387
344.80 3.384
344.90 3.38
345.00 3.377
345.10 3.373
345.20 3.37
345.30 3.366
345.40 3.363
345.50 3.36
345.60 3.356
345.70 3.353
345.80 3.349
345.90 3.346
346.00 3.342
346.10 3.339
346.20 3.336
346.30 3.332
346.40 3.329
346.50 3.325
346.60 3.322
346.70 3.319
346.80 3.315
346.90 3.312
347.00 3.308
347.10 3.305
347.20 3.302
347.30 3.298
347.40 3.295
347.50 3.292
347.60 3.288
347.70 3.285
347.80 3.282
347.90 3.278
348.00 3.275
348.10 3.272
348.20 3.268
348.30 3.265
348.40 3.262
348.50 3.258
348.60 3.255
348.70 3.252
348.80 3.248
348.90 3.245
349.00 3.242
349.10 3.239
349.20 3.235
349.30 3.232
349.40 3.229
349.50 3.225
349.60 3.222
349.70 3.219
349.80 3.216
349.90 3.212
350.00 3.209
350.10 3.206
350.20 3.203
350.30 3.199
350.40 3.196
350.50 3.193
350.60 3.19
350.70 3.187
350.80 3.183
350.90 3.18
351.00 3.177
351.10 3.174
351.20 3.171
351.30 3.167
351.40 3.164
351.50 3.161
351.60 3.158
351.70 3.155
351.80 3.151
351.90 3.148
352.00 3.145
352.10 3.142
352.20 3.139
352.30 3.136
352.40 3.132
352.50 3.129
352.60 3.126
352.70 3.123
352.80 3.12
352.90 3.117
353.00 3.114
353.10 3.111
353.20 3.107
353.30 3.104
353.40 3.101
353.50 3.098
353.60 3.095
353.70 3.092
353.80 3.089
353.90 3.086
354.00 3.083
354.10 3.08
354.20 3.076
354.30 3.073
354.40 3.07
354.50 3.067
354.60 3.064
354.70 3.061
354.80 3.058
354.90 3.055
355.00 3.052
355.10 3.049
355.20 3.046
355.30 3.043
355.40 3.04
355.50 3.037
355.60 3.034
355.70 3.031
355.80 3.028
355.90 3.025
356.00 3.022
356.10 3.019
356.20 3.016
356.30 3.013
356.40 3.01
356.50 3.007
356.60 3.004
356.70 3.001
356.80 2.998
356.90 2.995
357.00 2.992
357.10 2.989
357.20 2.986
357.30 2.983
357.40 2.98
357.50 2.977
357.60 2.974
357.70 2.971
357.80 2.968
357.90 2.965
358.00 2.962
358.10 2.959
358.20 2.956
358.30 2.953
358.40 2.951
358.50 2.948
358.60 2.945
358.70 2.942
358.80 2.939
358.90 2.936
359.00 2.933
359.10 2.93
359.20 2.927
359.30 2.924
359.40 2.922
359.50 2.919
359.60 2.916
359.70 2.913
359.80 2.91
359.90 2.907
360.00 2.904
360.10 2.901
360.20 2.899
360.30 2.896
360.40 2.893
360.50 2.89
360.60 2.887
360.70 2.884
360.80 2.882
360.90 2.879
361.00 2.876
361.10 2.873
361.20 2.87
361.30 2.867
361.40 2.865
361.50 2.862
361.60 2.859
361.70 2.856
361.80 2.853
361.90 2.851
362.00 2.848
362.10 2.845
362.20 2.842
362.30 2.839
362.40 2.837
362.50 2.834
362.60 2.831
362.70 2.828
362.80 2.825
362.90 2.823
363.00 2.82
363.10 2.817
363.20 2.814
363.30 2.812
363.40 2.809
363.50 2.806
363.60 2.803
363.70 2.801
363.80 2.798
363.90 2.795
364.00 2.793
364.10 2.79
364.20 2.787
364.30 2.784
364.40 2.782
364.50 2.779
364.60 2.776
364.70 2.774
364.80 2.771
364.90 2.768
365.00 2.765
365.10 2.763
365.20 2.76
365.30 2.757
365.40 2.755
365.50 2.752
365.60 2.749
365.70 2.747
365.80 2.744
365.90 2.741
366.00 2.739
366.10 2.736
366.20 2.733
366.30 2.73
366.40 2.727
366.50 2.724
366.60 2.722
366.70 2.719
366.80 2.716
366.90 2.713
367.00 2.71
367.10 2.707
367.20 2.705
367.30 2.702
367.40 2.699
367.50 2.696
367.60 2.693
367.70 2.69
367.80 2.688
367.90 2.685
368.00 2.682
368.10 2.679
368.20 2.676
368.30 2.674
368.40 2.671
368.50 2.668
368.60 2.665
368.70 2.663
368.80 2.66
368.90 2.657
369.00 2.654
369.10 2.652
369.20 2.649
369.30 2.646
369.40 2.643
369.50 2.641
369.60 2.638
369.70 2.635
369.80 2.632
369.90 2.63
370.00 2.627
370.10 2.624
370.20 2.622
370.30 2.619
370.40 2.616
370.50 2.614
370.60 2.611
370.70 2.608
370.80 2.606
370.90 2.603
371.00 2.6
371.10 2.598
371.20 2.595
371.30 2.592
371.40 2.59
371.50 2.587
371.60 2.584
371.70 2.582
371.80 2.579
371.90 2.576
372.00 2.574
372.10 2.571
372.20 2.569
372.30 2.566
372.40 2.564
372.50 2.562
372.60 2.559
372.70 2.557
372.80 2.554
372.90 2.552
373.00 2.549
373.10 2.547
373.20 2.544
373.30 2.542
373.40 2.54
373.50 2.537
373.60 2.535
373.70 2.532
373.80 2.53
373.90 2.528
374.00 2.525
374.10 2.523
374.20 2.521
374.30 2.519
374.40 2.516
374.50 2.514
374.60 2.512
374.70 2.51
374.80 2.508
374.90 2.505
375.00 2.503
375.10 2.501
375.20 2.499
375.30 2.497
375.40 2.494
375.50 2.492
375.60 2.49
375.70 2.488
375.80 2.486
375.90 2.484
376.00 2.481
376.10 2.479
376.20 2.477
376.30 2.474
376.40 2.472
376.50 2.47
376.60 2.467
376.70 2.465
376.80 2.463
376.90 2.46
377.00 2.458
377.10 2.457
377.20 2.455
377.30 2.454
377.40 2.452
377.50 2.451
377.60 2.449
377.70 2.448
377.80 2.446
377.90 2.445
378.00 2.444
378.10 2.441
378.20 2.439
378.30 2.436
378.40 2.434
378.50 2.432
378.60 2.429
378.70 2.427
378.80 2.425
378.90 2.422
379.00 2.42
379.10 2.417
379.20 2.415
379.30 2.413
379.40 2.41
379.50 2.408
379.60 2.405
379.70 2.403
379.80 2.401
379.90 2.398
380.00 2.396
380.10 2.396
380.20 2.395
380.30 2.395
380.40 2.395
380.50 2.395
380.60 2.394
380.70 2.394
380.80 2.394
380.90 2.394
381.00 2.394
381.10 2.392
381.20 2.39
381.30 2.389
381.40 2.387
381.50 2.385
381.60 2.383
381.70 2.38
381.80 2.377
381.90 2.373
382.00 2.37
382.10 2.366
382.20 2.361
382.30 2.356
382.40 2.35
382.50 2.345
382.60 2.339
382.70 2.333
382.80 2.328
382.90 2.322
383.00 2.317
383.10 2.311
383.20 2.305
383.30 2.299
383.40 2.294
383.50 2.29
383.60 2.289
383.70 2.291
383.80 2.295
383.90 2.298
384.00 2.302
384.10 2.306
384.20 2.309
384.30 2.313
384.40 2.316
384.50 2.319
384.60 2.322
384.70 2.325
384.80 2.327
384.90 2.329
385.00 2.331
385.10 2.332
385.20 2.333
385.30 2.334
385.40 2.334
385.50 2.333
385.60 2.333
385.70 2.332
385.80 2.33
385.90 2.329
386.00 2.326
386.10 2.324
386.20 2.321
386.30 2.317
386.40 2.313
386.50 2.309
386.60 2.304
386.70 2.299
386.80 2.293
386.90 2.287
387.00 2.28
387.10 2.273
387.20 2.266
387.30 2.258
387.40 2.249
387.50 2.24
387.60 2.23
387.70 2.22
387.80 2.209
387.90 2.198
388.00 2.187
388.10 2.175
388.20 2.163
388.30 2.15
388.40 2.138
388.50 2.125
388.60 2.113
388.70 2.103
388.80 2.095
388.90 2.09
389.00 2.092
389.10 2.097
389.20 2.105
389.30 2.114
389.40 2.124
389.50 2.133
389.60 2.143
389.70 2.153
389.80 2.162
389.90 2.171
390.00 2.18
390.10 2.189
390.20 2.196
390.30 2.204
390.40 2.211
390.50 2.217
390.60 2.224
390.70 2.229
390.80 2.235
390.90 2.24
391.00 2.244
391.10 2.248
391.20 2.252
391.30 2.255
391.40 2.258
391.50 2.26
391.60 2.262
391.70 2.264
391.80 2.266
391.90 2.267
392.00 2.267
392.10 2.268
392.20 2.268
392.30 2.267
392.40 2.267
392.50 2.266
392.60 2.265
392.70 2.263
392.80 2.261
392.90 2.259
393.00 2.256
393.10 2.253
393.20 2.25
393.30 2.246
393.40 2.242
393.50 2.237
393.60 2.233
393.70 2.228
393.80 2.222
393.90 2.216
394.00 2.21
394.10 2.203
394.20 2.195
394.30 2.188
394.40 2.18
394.50 2.171
394.60 2.162
394.70 2.152
394.80 2.142
394.90 2.131
395.00 2.12
395.10 2.108
395.20 2.095
395.30 2.082
395.40 2.068
395.50 2.054
395.60 2.039
395.70 2.023
395.80 2.006
395.90 1.989
396.00 1.971
396.10 1.953
396.20 1.933
396.30 1.914
396.40 1.893
396.50 1.873
396.60 1.852
396.70 1.831
396.80 1.81
396.90 1.789
397.00 1.77
397.10 1.785
397.20 1.801
397.30 1.819
397.40 1.838
397.50 1.856
397.60 1.873
397.70 1.891
397.80 1.907
397.90 1.924
398.00 1.939
398.10 1.954
398.20 1.968
398.30 1.982
398.40 1.994
398.50 2.006
398.60 2.018
398.70 2.029
398.80 2.039
398.90 2.048
399.00 2.058
399.10 2.066
399.20 2.074
399.30 2.081
399.40 2.089
399.50 2.095
399.60 2.101
399.70 2.107
399.80 2.112
399.90 2.117
400.00 2.122
400.10 2.126
400.20 2.13
400.30 2.133
400.40 2.136
400.50 2.139
400.60 2.142
400.70 2.145
400.80 2.147
400.90 2.149
401.00 2.15
401.10 2.152
401.20 2.153
401.30 2.154
401.40 2.155
401.50 2.156
401.60 2.157
401.70 2.157
401.80 2.157
401.90 2.157
402.00 2.157
402.10 2.157
402.20 2.157
402.30 2.156
402.40 2.156
402.50 2.155
402.60 2.154
402.70 2.153
402.80 2.152
402.90 2.151
403.00 2.15
403.10 2.148
403.20 2.147
403.30 2.145
403.40 2.143
403.50 2.141
403.60 2.139
403.70 2.137
403.80 2.135
403.90 2.133
404.00 2.13
404.10 2.128
404.20 2.125
404.30 2.123
404.40 2.12
404.50 2.117
404.60 2.114
404.70 2.111
404.80 2.107
404.90 2.104
405.00 2.1
405.10 2.096
405.20 2.092
405.30 2.088
405.40 2.084
405.50 2.08
405.60 2.075
405.70 2.07
405.80 2.065
405.90 2.06
406.00 2.055
406.10 2.049
406.20 2.043
406.30 2.038
406.40 2.031
406.50 2.025
406.60 2.018
406.70 2.011
406.80 2.003
406.90 1.996
407.00 1.987
407.10 1.979
407.20 1.97
407.30 1.961
407.40 1.951
407.50 1.941
407.60 1.931
407.70 1.92
407.80 1.909
407.90 1.896
408.00 1.884
408.10 1.871
408.20 1.857
408.30 1.843
408.40 1.828
408.50 1.812
408.60 1.796
408.70 1.779
408.80 1.761
408.90 1.742
409.00 1.723
409.10 1.703
409.20 1.681
409.30 1.659
409.40 1.636
409.50 1.612
409.60 1.587
409.70 1.561
409.80 1.535
409.90 1.508
410.00 1.483
410.10 1.468
410.20 1.464
410.30 1.473
410.40 1.49
410.50 1.514
410.60 1.539
410.70 1.562
410.80 1.585
410.90 1.607
411.00 1.627
411.10 1.647
411.20 1.666
411.30 1.683
411.40 1.701
411.50 1.716
411.60 1.731
411.70 1.746
411.80 1.759
411.90 1.771
412.00 1.783
412.10 1.795
412.20 1.805
412.30 1.815
412.40 1.824
412.50 1.833
412.60 1.842
412.70 1.849
412.80 1.856
412.90 1.863
413.00 1.869
413.10 1.875
413.20 1.881
413.30 1.886
413.40 1.891
413.50 1.895
413.60 1.899
413.70 1.903
413.80 1.907
413.90 1.91
414.00 1.913
414.10 1.916
414.20 1.918
414.30 1.921
414.40 1.923
414.50 1.925
414.60 1.927
414.70 1.928
414.80 1.93
414.90 1.931
415.00 1.932
415.10 1.933
415.20 1.934
415.30 1.934
415.40 1.935
415.50 1.935
415.60 1.936
415.70 1.936
415.80 1.936
415.90 1.936
416.00 1.936
416.10 1.936
416.20 1.936
416.30 1.936
416.40 1.936
416.50 1.935
416.60 1.935
416.70 1.934
416.80 1.934
416.90 1.933
417.00 1.933
417.10 1.932
417.20 1.931
417.30 1.93
417.40 1.93
417.50 1.929
417.60 1.928
417.70 1.927
417.80 1.926
417.90 1.925
418.00 1.924
418.10 1.923
418.20 1.922
418.30 1.921
418.40 1.92
418.50 1.919
418.60 1.917
418.70 1.916
418.80 1.915
418.90 1.914
419.00 1.912
419.10 1.911
419.20 1.91
419.30 1.909
419.40 1.907
419.50 1.906
419.60 1.905
419.70 1.903
419.80 1.902
419.90 1.9
420.00 1.899
420.10 1.898
420.20 1.896
420.30 1.895
420.40 1.893
420.50 1.892
420.60 1.89
420.70 1.889
420.80 1.887
420.90 1.886
421.00 1.884
421.10 1.883
421.20 1.881
421.30 1.879
421.40 1.878
421.50 1.876
421.60 1.875
421.70 1.873
421.80 1.872
421.90 1.87
422.00 1.868
422.10 1.867
422.20 1.865
422.30 1.863
422.40 1.862
422.50 1.86
422.60 1.858
422.70 1.857
422.80 1.855
422.90 1.853
423.00 1.852
423.10 1.85
423.20 1.848
423.30 1.847
423.40 1.845
423.50 1.843
423.60 1.841
423.70 1.84
423.80 1.838
423.90 1.836
424.00 1.834
424.10 1.832
424.20 1.831
424.30 1.829
424.40 1.827
424.50 1.825
424.60 1.823
424.70 1.821
424.80 1.819
424.90 1.818
425.00 1.816
425.10 1.814
425.20 1.812
425.30 1.81
425.40 1.808
425.50 1.806
425.60 1.804
425.70 1.802
425.80 1.8
425.90 1.798
426.00 1.796
426.10 1.793
426.20 1.791
426.30 1.789
426.40 1.787
426.50 1.785
426.60 1.782
426.70 1.78
426.80 1.778
426.90 1.776
427.00 1.773
427.10 1.771
427.20 1.768
427.30 1.766
427.40 1.763
427.50 1.761
427.60 1.758
427.70 1.755
427.80 1.753
427.90 1.75
428.00 1.747
428.10 1.744
428.20 1.741
428.30 1.738
428.40 1.735
428.50 1.732
428.60 1.729
428.70 1.725
428.80 1.722
428.90 1.718
429.00 1.714
429.10 1.711
429.20 1.707
429.30 1.703
429.40 1.699
429.50 1.694
429.60 1.69
429.70 1.686
429.80 1.681
429.90 1.676
430.00 1.671
430.10 1.666
430.20 1.66
430.30 1.655
430.40 1.649
430.50 1.643
430.60 1.636
430.70 1.63
430.80 1.623
430.90 1.616
431.00 1.609
431.10 1.601
431.20 1.593
431.30 1.584
431.40 1.576
431.50 1.567
431.60 1.557
431.70 1.547
431.80 1.537
431.90 1.526
432.00 1.514
432.10 1.502
432.20 1.49
432.30 1.477
432.40 1.463
432.50 1.448
432.60 1.433
432.70 1.417
432.80 1.401
432.90 1.383
433.00 1.365
433.10 1.345
433.20 1.325
433.30 1.304
433.40 1.282
433.50 1.258
433.60 1.235
433.70 1.21
433.80 1.184
433.90 1.159
434.00 1.134
434.10 1.133
434.20 1.159
434.30 1.182
434.40 1.205
434.50 1.228
434.60 1.25
434.70 1.271
434.80 1.291
434.90 1.31
435.00 1.328
435.10 1.345
435.20 1.36
435.30 1.376
435.40 1.39
435.50 1.403
435.60 1.415
435.70 1.427
435.80 1.438
435.90 1.449
436.00 1.459
436.10 1.468
436.20 1.476
436.30 1.485
436.40 1.492
436.50 1.499
436.60 1.506
436.70 1.512
436.80 1.518
436.90 1.524
437.00 1.529
437.10 1.533
437.20 1.538
437.30 1.542
437.40 1.546
437.50 1.549
437.60 1.553
437.70 1.556
437.80 1.559
437.90 1.561
438.00 1.564
438.10 1.566
438.20 1.568
438.30 1.57
438.40 1.572
438.50 1.573
438.60 1.574
438.70 1.576
438.80 1.577
438.90 1.578
439.00 1.579
439.10 1.579
439.20 1.58
439.30 1.581
439.40 1.581
439.50 1.582
439.60 1.582
439.70 1.582
439.80 1.582
439.90 1.582
440.00 1.582
440.10 1.582
440.20 1.582
440.30 1.582
440.40 1.582
440.50 1.581
440.60 1.581
440.70 1.581
440.80 1.58
440.90 1.58
441.00 1.579
441.10 1.579
441.20 1.578
441.30 1.577
441.40 1.577
441.50 1.576
441.60 1.575
441.70 1.575
441.80 1.574
441.90 1.573
442.00 1.572
442.10 1.572
442.20 1.571
442.30 1.57
442.40 1.569
442.50 1.568
442.60 1.567
442.70 1.566
442.80 1.566
442.90 1.565
443.00 1.564
443.10 1.563
443.20 1.562
443.30 1.561
443.40 1.56
443.50 1.559
443.60 1.558
443.70 1.557
443.80 1.556
443.90 1.555
444.00 1.554
444.10 1.553
444.20 1.551
444.30 1.55
444.40 1.549
444.50 1.548
444.60 1.547
444.70 1.546
444.80 1.545
444.90 1.544
445.00 1.543
445.10 1.542
445.20 1.541
445.30 1.539
445.40 1.538
445.50 1.537
445.60 1.536
445.70 1.535
445.80 1.534
445.90 1.533
446.00 1.532
446.10 1.53
446.20 1.529
446.30 1.528
446.40 1.527
446.50 1.526
446.60 1.525
446.70 1.523
446.80 1.522
446.90 1.521
447.00 1.52
447.10 1.519
447.20 1.518
447.30 1.516
447.40 1.515
447.50 1.514
447.60 1.513
447.70 1.512
447.80 1.511
447.90 1.509
448.00 1.508
448.10 1.507
448.20 1.506
448.30 1.505
448.40 1.503
448.50 1.502
448.60 1.501
448.70 1.5
448.80 1.499
448.90 1.498
449.00 1.496
449.10 1.495
449.20 1.494
449.30 1.493
449.40 1.492
449.50 1.49
449.60 1.489
449.70 1.488
449.80 1.487
449.90 1.486
450.00 1.485
450.10 1.483
450.20 1.482
450.30 1.481
450.40 1.48
450.50 1.479
450.60 1.477
450.70 1.476
450.80 1.475
450.90 1.474
451.00 1.473
451.10 1.472
451.20 1.47
451.30 1.469
451.40 1.468
451.50 1.467
451.60 1.466
451.70 1.464
451.80 1.463
451.90 1.462
452.00 1.461
452.10 1.46
452.20 1.459
452.30 1.457
452.40 1.456
452.50 1.455
452.60 1.454
452.70 1.453
452.80 1.451
452.90 1.45
453.00 1.449
453.10 1.448
453.20 1.447
453.30 1.446
453.40 1.444
453.50 1.443
453.60 1.442
453.70 1.441
453.80 1.44
453.90 1.439
454.00 1.437
454.10 1.436
