# Version 2.1 - nm, norm@500 to 1, cut digits, bergeron_70000_85.dat_70000
# Wavelength(nm)  Flambda(ergs/cm^s/s/nm)
300.00 6.564
300.10 6.556
300.20 6.547
300.30 6.539
300.40 6.531
300.50 6.523
300.60 6.515
300.70 6.507
300.80 6.499
300.90 6.491
301.00 6.483
301.10 6.475
301.20 6.467
301.30 6.459
301.40 6.451
301.50 6.443
301.60 6.436
301.70 6.428
301.80 6.42
301.90 6.412
302.00 6.404
302.10 6.396
302.20 6.388
302.30 6.38
302.40 6.373
302.50 6.365
302.60 6.357
302.70 6.349
302.80 6.342
302.90 6.334
303.00 6.326
303.10 6.318
303.20 6.311
303.30 6.303
303.40 6.295
303.50 6.287
303.60 6.28
303.70 6.272
303.80 6.265
303.90 6.257
304.00 6.249
304.10 6.242
304.20 6.234
304.30 6.226
304.40 6.219
304.50 6.211
304.60 6.204
304.70 6.196
304.80 6.189
304.90 6.181
305.00 6.174
305.10 6.166
305.20 6.159
305.30 6.151
305.40 6.144
305.50 6.136
305.60 6.129
305.70 6.121
305.80 6.114
305.90 6.107
306.00 6.099
306.10 6.092
306.20 6.084
306.30 6.077
306.40 6.07
306.50 6.062
306.60 6.055
306.70 6.048
306.80 6.04
306.90 6.033
307.00 6.026
307.10 6.019
307.20 6.011
307.30 6.004
307.40 5.997
307.50 5.99
307.60 5.982
307.70 5.975
307.80 5.968
307.90 5.961
308.00 5.954
308.10 5.946
308.20 5.939
308.30 5.932
308.40 5.925
308.50 5.918
308.60 5.911
308.70 5.904
308.80 5.897
308.90 5.889
309.00 5.882
309.10 5.875
309.20 5.868
309.30 5.861
309.40 5.854
309.50 5.847
309.60 5.84
309.70 5.833
309.80 5.826
309.90 5.819
310.00 5.812
310.10 5.805
310.20 5.798
310.30 5.791
310.40 5.785
310.50 5.778
310.60 5.771
310.70 5.764
310.80 5.757
310.90 5.75
311.00 5.743
311.10 5.736
311.20 5.73
311.30 5.723
311.40 5.716
311.50 5.709
311.60 5.702
311.70 5.695
311.80 5.689
311.90 5.682
312.00 5.675
312.10 5.668
312.20 5.662
312.30 5.655
312.40 5.648
312.50 5.642
312.60 5.635
312.70 5.628
312.80 5.621
312.90 5.615
313.00 5.608
313.10 5.601
313.20 5.595
313.30 5.588
313.40 5.582
313.50 5.575
313.60 5.568
313.70 5.562
313.80 5.555
313.90 5.549
314.00 5.542
314.10 5.536
314.20 5.529
314.30 5.522
314.40 5.516
314.50 5.509
314.60 5.503
314.70 5.496
314.80 5.49
314.90 5.483
315.00 5.477
315.10 5.471
315.20 5.464
315.30 5.458
315.40 5.451
315.50 5.445
315.60 5.438
315.70 5.432
315.80 5.426
315.90 5.419
316.00 5.413
316.10 5.407
316.20 5.4
316.30 5.394
316.40 5.387
316.50 5.381
316.60 5.375
316.70 5.369
316.80 5.362
316.90 5.356
317.00 5.35
317.10 5.343
317.20 5.337
317.30 5.331
317.40 5.325
317.50 5.319
317.60 5.312
317.70 5.306
317.80 5.3
317.90 5.294
318.00 5.287
318.10 5.281
318.20 5.275
318.30 5.269
318.40 5.263
318.50 5.257
318.60 5.251
318.70 5.244
318.80 5.238
318.90 5.232
319.00 5.226
319.10 5.22
319.20 5.214
319.30 5.208
319.40 5.202
319.50 5.196
319.60 5.19
319.70 5.184
319.80 5.178
319.90 5.172
320.00 5.166
320.10 5.16
320.20 5.154
320.30 5.148
320.40 5.142
320.50 5.136
320.60 5.13
320.70 5.124
320.80 5.118
320.90 5.112
321.00 5.106
321.10 5.1
321.20 5.094
321.30 5.088
321.40 5.083
321.50 5.077
321.60 5.071
321.70 5.065
321.80 5.059
321.90 5.053
322.00 5.047
322.10 5.042
322.20 5.036
322.30 5.03
322.40 5.024
322.50 5.018
322.60 5.013
322.70 5.007
322.80 5.001
322.90 4.995
323.00 4.99
323.10 4.984
323.20 4.978
323.30 4.972
323.40 4.967
323.50 4.961
323.60 4.955
323.70 4.949
323.80 4.944
323.90 4.938
324.00 4.932
324.10 4.927
324.20 4.921
324.30 4.916
324.40 4.91
324.50 4.904
324.60 4.899
324.70 4.893
324.80 4.887
324.90 4.882
325.00 4.876
325.10 4.871
325.20 4.865
325.30 4.86
325.40 4.854
325.50 4.848
325.60 4.843
325.70 4.837
325.80 4.832
325.90 4.826
326.00 4.821
326.10 4.815
326.20 4.81
326.30 4.804
326.40 4.799
326.50 4.793
326.60 4.788
326.70 4.782
326.80 4.777
326.90 4.772
327.00 4.766
327.10 4.761
327.20 4.755
327.30 4.75
327.40 4.745
327.50 4.739
327.60 4.734
327.70 4.728
327.80 4.723
327.90 4.718
328.00 4.712
328.10 4.707
328.20 4.702
328.30 4.696
328.40 4.691
328.50 4.686
328.60 4.68
328.70 4.675
328.80 4.67
328.90 4.664
329.00 4.659
329.10 4.654
329.20 4.649
329.30 4.643
329.40 4.638
329.50 4.633
329.60 4.628
329.70 4.622
329.80 4.617
329.90 4.612
330.00 4.607
330.10 4.602
330.20 4.596
330.30 4.591
330.40 4.586
330.50 4.581
330.60 4.576
330.70 4.571
330.80 4.566
330.90 4.56
331.00 4.555
331.10 4.55
331.20 4.545
331.30 4.54
331.40 4.535
331.50 4.53
331.60 4.525
331.70 4.52
331.80 4.514
331.90 4.509
332.00 4.504
332.10 4.499
332.20 4.494
332.30 4.489
332.40 4.484
332.50 4.479
332.60 4.474
332.70 4.469
332.80 4.464
332.90 4.459
333.00 4.454
333.10 4.449
333.20 4.444
333.30 4.439
333.40 4.434
333.50 4.429
333.60 4.424
333.70 4.419
333.80 4.414
333.90 4.41
334.00 4.405
334.10 4.4
334.20 4.395
334.30 4.39
334.40 4.385
334.50 4.38
334.60 4.375
334.70 4.37
334.80 4.366
334.90 4.361
335.00 4.356
335.10 4.351
335.20 4.346
335.30 4.341
335.40 4.337
335.50 4.332
335.60 4.327
335.70 4.322
335.80 4.317
335.90 4.312
336.00 4.308
336.10 4.303
336.20 4.298
336.30 4.293
336.40 4.289
336.50 4.284
336.60 4.279
336.70 4.274
336.80 4.27
336.90 4.265
337.00 4.26
337.10 4.256
337.20 4.251
337.30 4.246
337.40 4.242
337.50 4.237
337.60 4.232
337.70 4.227
337.80 4.223
337.90 4.218
338.00 4.213
338.10 4.209
338.20 4.204
338.30 4.2
338.40 4.195
338.50 4.19
338.60 4.186
338.70 4.181
338.80 4.177
338.90 4.172
339.00 4.167
339.10 4.163
339.20 4.158
339.30 4.154
339.40 4.149
339.50 4.144
339.60 4.14
339.70 4.135
339.80 4.131
339.90 4.126
340.00 4.122
340.10 4.117
340.20 4.113
340.30 4.108
340.40 4.104
340.50 4.099
340.60 4.095
340.70 4.09
340.80 4.086
340.90 4.081
341.00 4.077
341.10 4.072
341.20 4.068
341.30 4.064
341.40 4.059
341.50 4.055
341.60 4.05
341.70 4.046
341.80 4.041
341.90 4.037
342.00 4.033
342.10 4.028
342.20 4.024
342.30 4.019
342.40 4.015
342.50 4.011
342.60 4.006
342.70 4.002
342.80 3.998
342.90 3.993
343.00 3.989
343.10 3.985
343.20 3.98
343.30 3.976
343.40 3.972
343.50 3.967
343.60 3.963
343.70 3.959
343.80 3.954
343.90 3.95
344.00 3.946
344.10 3.941
344.20 3.937
344.30 3.933
344.40 3.929
344.50 3.924
344.60 3.92
344.70 3.916
344.80 3.912
344.90 3.908
345.00 3.903
345.10 3.899
345.20 3.895
345.30 3.891
345.40 3.886
345.50 3.882
345.60 3.878
345.70 3.874
345.80 3.87
345.90 3.865
346.00 3.861
346.10 3.857
346.20 3.853
346.30 3.849
346.40 3.845
346.50 3.841
346.60 3.836
346.70 3.832
346.80 3.828
346.90 3.824
347.00 3.82
347.10 3.816
347.20 3.812
347.30 3.808
347.40 3.804
347.50 3.799
347.60 3.795
347.70 3.791
347.80 3.787
347.90 3.783
348.00 3.779
348.10 3.775
348.20 3.771
348.30 3.767
348.40 3.763
348.50 3.759
348.60 3.755
348.70 3.751
348.80 3.747
348.90 3.743
349.00 3.739
349.10 3.735
349.20 3.731
349.30 3.727
349.40 3.723
349.50 3.719
349.60 3.715
349.70 3.711
349.80 3.707
349.90 3.703
350.00 3.699
350.10 3.695
350.20 3.691
350.30 3.687
350.40 3.683
350.50 3.679
350.60 3.676
350.70 3.672
350.80 3.668
350.90 3.664
351.00 3.66
351.10 3.656
351.20 3.652
351.30 3.648
351.40 3.644
351.50 3.64
351.60 3.637
351.70 3.633
351.80 3.629
351.90 3.625
352.00 3.621
352.10 3.617
352.20 3.613
352.30 3.61
352.40 3.606
352.50 3.602
352.60 3.598
352.70 3.594
352.80 3.591
352.90 3.587
353.00 3.583
353.10 3.579
353.20 3.575
353.30 3.572
353.40 3.568
353.50 3.564
353.60 3.56
353.70 3.557
353.80 3.553
353.90 3.549
354.00 3.545
354.10 3.542
354.20 3.538
354.30 3.534
354.40 3.53
354.50 3.527
354.60 3.523
354.70 3.519
354.80 3.516
354.90 3.512
355.00 3.508
355.10 3.504
355.20 3.501
355.30 3.497
355.40 3.493
355.50 3.49
355.60 3.486
355.70 3.482
355.80 3.479
355.90 3.475
356.00 3.471
356.10 3.468
356.20 3.464
356.30 3.46
356.40 3.457
356.50 3.453
356.60 3.45
356.70 3.446
356.80 3.442
356.90 3.439
357.00 3.435
357.10 3.432
357.20 3.428
357.30 3.424
357.40 3.421
357.50 3.417
357.60 3.414
357.70 3.41
357.80 3.407
357.90 3.403
358.00 3.399
358.10 3.396
358.20 3.392
358.30 3.389
358.40 3.385
358.50 3.382
358.60 3.378
358.70 3.375
358.80 3.371
358.90 3.368
359.00 3.364
359.10 3.361
359.20 3.357
359.30 3.354
359.40 3.35
359.50 3.347
359.60 3.343
359.70 3.34
359.80 3.336
359.90 3.333
360.00 3.329
360.10 3.326
360.20 3.322
360.30 3.319
360.40 3.316
360.50 3.312
360.60 3.309
360.70 3.305
360.80 3.302
360.90 3.298
361.00 3.295
361.10 3.292
361.20 3.288
361.30 3.285
361.40 3.281
361.50 3.278
361.60 3.275
361.70 3.271
361.80 3.268
361.90 3.264
362.00 3.261
362.10 3.258
362.20 3.254
362.30 3.251
362.40 3.248
362.50 3.244
362.60 3.241
362.70 3.238
362.80 3.234
362.90 3.231
363.00 3.228
363.10 3.224
363.20 3.221
363.30 3.218
363.40 3.214
363.50 3.211
363.60 3.208
363.70 3.204
363.80 3.201
363.90 3.198
364.00 3.194
364.10 3.191
364.20 3.188
364.30 3.185
364.40 3.181
364.50 3.178
364.60 3.175
364.70 3.172
364.80 3.168
364.90 3.165
365.00 3.162
365.10 3.159
365.20 3.155
365.30 3.152
365.40 3.149
365.50 3.146
365.60 3.142
365.70 3.139
365.80 3.136
365.90 3.133
366.00 3.13
366.10 3.126
366.20 3.123
366.30 3.12
366.40 3.117
366.50 3.113
366.60 3.11
366.70 3.107
366.80 3.104
366.90 3.101
367.00 3.097
367.10 3.094
367.20 3.091
367.30 3.088
367.40 3.085
367.50 3.081
367.60 3.078
367.70 3.075
367.80 3.072
367.90 3.069
368.00 3.065
368.10 3.062
368.20 3.059
368.30 3.056
368.40 3.053
368.50 3.049
368.60 3.046
368.70 3.043
368.80 3.04
368.90 3.037
369.00 3.034
369.10 3.03
369.20 3.027
369.30 3.024
369.40 3.021
369.50 3.018
369.60 3.015
369.70 3.011
369.80 3.008
369.90 3.005
370.00 3.002
370.10 2.999
370.20 2.996
370.30 2.993
370.40 2.99
370.50 2.986
370.60 2.983
370.70 2.98
370.80 2.977
370.90 2.974
371.00 2.971
371.10 2.968
371.20 2.965
371.30 2.962
371.40 2.959
371.50 2.956
371.60 2.953
371.70 2.95
371.80 2.946
371.90 2.943
372.00 2.94
372.10 2.937
372.20 2.934
372.30 2.931
372.40 2.929
372.50 2.926
372.60 2.923
372.70 2.92
372.80 2.917
372.90 2.914
373.00 2.911
373.10 2.908
373.20 2.905
373.30 2.902
373.40 2.899
373.50 2.896
373.60 2.893
373.70 2.89
373.80 2.887
373.90 2.884
374.00 2.882
374.10 2.879
374.20 2.876
374.30 2.873
374.40 2.87
374.50 2.867
374.60 2.864
374.70 2.861
374.80 2.858
374.90 2.855
375.00 2.852
375.10 2.849
375.20 2.846
375.30 2.843
375.40 2.841
375.50 2.838
375.60 2.835
375.70 2.832
375.80 2.829
375.90 2.826
376.00 2.823
376.10 2.82
376.20 2.817
376.30 2.815
376.40 2.812
376.50 2.809
376.60 2.806
376.70 2.803
376.80 2.8
376.90 2.797
377.00 2.795
377.10 2.792
377.20 2.789
377.30 2.786
377.40 2.783
377.50 2.781
377.60 2.778
377.70 2.775
377.80 2.772
377.90 2.77
378.00 2.767
378.10 2.764
378.20 2.761
378.30 2.759
378.40 2.756
378.50 2.753
378.60 2.75
378.70 2.748
378.80 2.745
378.90 2.742
379.00 2.74
379.10 2.737
379.20 2.734
379.30 2.732
379.40 2.729
379.50 2.726
379.60 2.723
379.70 2.721
379.80 2.718
379.90 2.715
380.00 2.713
380.10 2.71
380.20 2.708
380.30 2.705
380.40 2.702
380.50 2.7
380.60 2.697
380.70 2.695
380.80 2.692
380.90 2.689
381.00 2.687
381.10 2.684
381.20 2.682
381.30 2.679
381.40 2.676
381.50 2.674
381.60 2.671
381.70 2.669
381.80 2.666
381.90 2.664
382.00 2.661
382.10 2.658
382.20 2.656
382.30 2.653
382.40 2.651
382.50 2.648
382.60 2.646
382.70 2.643
382.80 2.641
382.90 2.638
383.00 2.636
383.10 2.633
383.20 2.631
383.30 2.628
383.40 2.626
383.50 2.623
383.60 2.621
383.70 2.618
383.80 2.616
383.90 2.614
384.00 2.611
384.10 2.609
384.20 2.606
384.30 2.604
384.40 2.602
384.50 2.599
384.60 2.597
384.70 2.595
384.80 2.592
384.90 2.59
385.00 2.588
385.10 2.585
385.20 2.583
385.30 2.581
385.40 2.578
385.50 2.576
385.60 2.573
385.70 2.571
385.80 2.569
385.90 2.566
386.00 2.564
386.10 2.561
386.20 2.559
386.30 2.556
386.40 2.554
386.50 2.552
386.60 2.549
386.70 2.547
386.80 2.544
386.90 2.542
387.00 2.539
387.10 2.536
387.20 2.534
387.30 2.531
387.40 2.529
387.50 2.526
387.60 2.524
387.70 2.521
387.80 2.519
387.90 2.516
388.00 2.514
388.10 2.511
388.20 2.509
388.30 2.506
388.40 2.504
388.50 2.501
388.60 2.499
388.70 2.497
388.80 2.495
388.90 2.492
389.00 2.49
389.10 2.488
389.20 2.486
389.30 2.484
389.40 2.482
389.50 2.48
389.60 2.478
389.70 2.476
389.80 2.475
389.90 2.473
390.00 2.471
390.10 2.469
390.20 2.467
390.30 2.465
390.40 2.463
390.50 2.462
390.60 2.46
390.70 2.458
390.80 2.456
390.90 2.454
391.00 2.452
391.10 2.45
391.20 2.448
391.30 2.446
391.40 2.444
391.50 2.442
391.60 2.44
391.70 2.438
391.80 2.435
391.90 2.433
392.00 2.431
392.10 2.429
392.20 2.427
392.30 2.424
392.40 2.422
392.50 2.42
392.60 2.417
392.70 2.415
392.80 2.412
392.90 2.41
393.00 2.407
393.10 2.405
393.20 2.402
393.30 2.4
393.40 2.397
393.50 2.394
393.60 2.391
393.70 2.389
393.80 2.386
393.90 2.383
394.00 2.38
394.10 2.377
394.20 2.374
394.30 2.371
394.40 2.369
394.50 2.365
394.60 2.362
394.70 2.359
394.80 2.356
394.90 2.353
395.00 2.35
395.10 2.347
395.20 2.344
395.30 2.34
395.40 2.337
395.50 2.334
395.60 2.33
395.70 2.327
395.80 2.324
395.90 2.32
396.00 2.317
396.10 2.314
396.20 2.31
396.30 2.307
396.40 2.304
396.50 2.301
396.60 2.298
396.70 2.294
396.80 2.292
396.90 2.289
397.00 2.286
397.10 2.285
397.20 2.284
397.30 2.283
397.40 2.282
397.50 2.281
397.60 2.281
397.70 2.28
397.80 2.279
397.90 2.279
398.00 2.278
398.10 2.278
398.20 2.277
398.30 2.277
398.40 2.276
398.50 2.276
398.60 2.275
398.70 2.274
398.80 2.274
398.90 2.273
399.00 2.272
399.10 2.272
399.20 2.271
399.30 2.27
399.40 2.269
399.50 2.268
399.60 2.268
399.70 2.267
399.80 2.266
399.90 2.265
400.00 2.264
400.10 2.263
400.20 2.262
400.30 2.261
400.40 2.259
400.50 2.258
400.60 2.257
400.70 2.256
400.80 2.254
400.90 2.253
401.00 2.252
401.10 2.25
401.20 2.249
401.30 2.247
401.40 2.246
401.50 2.244
401.60 2.243
401.70 2.241
401.80 2.24
401.90 2.238
402.00 2.236
402.10 2.234
402.20 2.233
402.30 2.231
402.40 2.229
402.50 2.227
402.60 2.225
402.70 2.223
402.80 2.221
402.90 2.219
403.00 2.217
403.10 2.215
403.20 2.213
403.30 2.211
403.40 2.208
403.50 2.206
403.60 2.204
403.70 2.201
403.80 2.199
403.90 2.197
404.00 2.194
404.10 2.192
404.20 2.189
404.30 2.187
404.40 2.184
404.50 2.181
404.60 2.179
404.70 2.176
404.80 2.173
404.90 2.17
405.00 2.167
405.10 2.164
405.20 2.161
405.30 2.158
405.40 2.155
405.50 2.152
405.60 2.149
405.70 2.146
405.80 2.143
405.90 2.139
406.00 2.136
406.10 2.132
406.20 2.129
406.30 2.125
406.40 2.122
406.50 2.118
406.60 2.114
406.70 2.111
406.80 2.107
406.90 2.103
407.00 2.099
407.10 2.095
407.20 2.091
407.30 2.086
407.40 2.082
407.50 2.078
407.60 2.074
407.70 2.069
407.80 2.065
407.90 2.06
408.00 2.055
408.10 2.051
408.20 2.046
408.30 2.041
408.40 2.036
408.50 2.031
408.60 2.026
408.70 2.021
408.80 2.016
408.90 2.011
409.00 2.006
409.10 2.001
409.20 1.996
409.30 1.992
409.40 1.987
409.50 1.982
409.60 1.978
409.70 1.974
409.80 1.971
409.90 1.969
410.00 1.968
410.10 1.967
410.20 1.967
410.30 1.963
410.40 1.961
410.50 1.959
410.60 1.958
410.70 1.959
410.80 1.959
410.90 1.96
411.00 1.961
411.10 1.963
411.20 1.964
411.30 1.966
411.40 1.967
411.50 1.969
411.60 1.97
411.70 1.972
411.80 1.973
411.90 1.974
412.00 1.976
412.10 1.977
412.20 1.978
412.30 1.98
412.40 1.981
412.50 1.982
412.60 1.983
412.70 1.984
412.80 1.984
412.90 1.985
413.00 1.986
413.10 1.986
413.20 1.987
413.30 1.987
413.40 1.988
413.50 1.988
413.60 1.989
413.70 1.989
413.80 1.989
413.90 1.989
414.00 1.989
414.10 1.989
414.20 1.989
414.30 1.989
414.40 1.989
414.50 1.989
414.60 1.989
414.70 1.988
414.80 1.988
414.90 1.987
415.00 1.987
415.10 1.987
415.20 1.986
415.30 1.986
415.40 1.985
415.50 1.984
415.60 1.984
415.70 1.983
415.80 1.982
415.90 1.981
416.00 1.981
416.10 1.98
416.20 1.979
416.30 1.978
416.40 1.977
416.50 1.976
416.60 1.975
416.70 1.974
416.80 1.973
416.90 1.972
417.00 1.971
417.10 1.97
417.20 1.969
417.30 1.968
417.40 1.966
417.50 1.965
417.60 1.964
417.70 1.963
417.80 1.962
417.90 1.96
418.00 1.959
418.10 1.958
418.20 1.956
418.30 1.955
418.40 1.954
418.50 1.952
418.60 1.951
418.70 1.95
418.80 1.948
418.90 1.947
419.00 1.945
419.10 1.944
419.20 1.942
419.30 1.941
419.40 1.94
419.50 1.938
419.60 1.937
419.70 1.935
419.80 1.934
419.90 1.932
420.00 1.93
420.10 1.929
420.20 1.927
420.30 1.926
420.40 1.924
420.50 1.923
420.60 1.921
420.70 1.919
420.80 1.918
420.90 1.916
421.00 1.915
421.10 1.913
421.20 1.911
421.30 1.91
421.40 1.908
421.50 1.906
421.60 1.905
421.70 1.903
421.80 1.901
421.90 1.9
422.00 1.898
422.10 1.896
422.20 1.894
422.30 1.893
422.40 1.891
422.50 1.889
422.60 1.887
422.70 1.886
422.80 1.884
422.90 1.882
423.00 1.88
423.10 1.879
423.20 1.877
423.30 1.875
423.40 1.873
423.50 1.871
423.60 1.869
423.70 1.868
423.80 1.866
423.90 1.864
424.00 1.862
424.10 1.86
424.20 1.858
424.30 1.856
424.40 1.854
424.50 1.852
424.60 1.85
424.70 1.848
424.80 1.846
424.90 1.845
425.00 1.843
425.10 1.84
425.20 1.838
425.30 1.836
425.40 1.834
425.50 1.832
425.60 1.83
425.70 1.828
425.80 1.826
425.90 1.824
426.00 1.822
426.10 1.82
426.20 1.817
426.30 1.815
426.40 1.813
426.50 1.811
426.60 1.809
426.70 1.806
426.80 1.804
426.90 1.802
427.00 1.799
427.10 1.797
427.20 1.794
427.30 1.792
427.40 1.79
427.50 1.787
427.60 1.785
427.70 1.782
427.80 1.779
427.90 1.777
428.00 1.774
428.10 1.771
428.20 1.769
428.30 1.766
428.40 1.763
428.50 1.76
428.60 1.757
428.70 1.754
428.80 1.751
428.90 1.748
429.00 1.745
429.10 1.742
429.20 1.739
429.30 1.736
429.40 1.733
429.50 1.729
429.60 1.726
429.70 1.722
429.80 1.719
429.90 1.715
430.00 1.712
430.10 1.708
430.20 1.704
430.30 1.7
430.40 1.696
430.50 1.692
430.60 1.688
430.70 1.684
430.80 1.679
430.90 1.675
431.00 1.671
431.10 1.666
431.20 1.662
431.30 1.657
431.40 1.652
431.50 1.647
431.60 1.642
431.70 1.637
431.80 1.632
431.90 1.627
432.00 1.621
432.10 1.616
432.20 1.61
432.30 1.605
432.40 1.599
432.50 1.593
432.60 1.587
432.70 1.582
432.80 1.576
432.90 1.57
433.00 1.564
433.10 1.558
433.20 1.552
433.30 1.547
433.40 1.541
433.50 1.535
433.60 1.53
433.70 1.524
433.80 1.517
433.90 1.511
434.00 1.505
434.10 1.504
434.20 1.507
434.30 1.512
434.40 1.515
434.50 1.519
434.60 1.522
434.70 1.525
434.80 1.528
434.90 1.531
435.00 1.534
435.10 1.538
435.20 1.541
435.30 1.544
435.40 1.547
435.50 1.55
435.60 1.553
435.70 1.556
435.80 1.559
435.90 1.562
436.00 1.565
436.10 1.567
436.20 1.57
436.30 1.572
436.40 1.575
436.50 1.577
436.60 1.579
436.70 1.581
436.80 1.583
436.90 1.585
437.00 1.586
437.10 1.588
437.20 1.59
437.30 1.591
437.40 1.592
437.50 1.594
437.60 1.595
437.70 1.596
437.80 1.597
437.90 1.598
438.00 1.599
438.10 1.599
438.20 1.6
438.30 1.601
438.40 1.601
438.50 1.602
438.60 1.602
438.70 1.602
438.80 1.603
438.90 1.603
439.00 1.603
439.10 1.603
439.20 1.603
439.30 1.603
439.40 1.603
439.50 1.603
439.60 1.603
439.70 1.603
439.80 1.602
439.90 1.602
440.00 1.602
440.10 1.602
440.20 1.601
440.30 1.601
440.40 1.6
440.50 1.6
440.60 1.599
440.70 1.599
440.80 1.598
440.90 1.598
441.00 1.597
441.10 1.596
441.20 1.596
441.30 1.595
441.40 1.594
441.50 1.594
441.60 1.593
441.70 1.592
441.80 1.591
441.90 1.59
442.00 1.59
442.10 1.589
442.20 1.588
442.30 1.587
442.40 1.586
442.50 1.585
442.60 1.584
442.70 1.583
442.80 1.582
442.90 1.581
443.00 1.58
443.10 1.579
443.20 1.578
443.30 1.577
443.40 1.576
443.50 1.575
443.60 1.574
443.70 1.573
443.80 1.572
443.90 1.571
444.00 1.57
444.10 1.569
444.20 1.568
444.30 1.567
444.40 1.566
444.50 1.565
444.60 1.564
444.70 1.562
444.80 1.561
444.90 1.56
445.00 1.559
445.10 1.558
445.20 1.557
445.30 1.556
445.40 1.554
445.50 1.553
445.60 1.552
445.70 1.551
445.80 1.55
445.90 1.549
446.00 1.548
446.10 1.546
446.20 1.545
446.30 1.544
446.40 1.543
446.50 1.542
446.60 1.54
446.70 1.539
446.80 1.538
446.90 1.537
447.00 1.536
447.10 1.534
447.20 1.533
447.30 1.532
447.40 1.531
447.50 1.53
447.60 1.528
447.70 1.527
447.80 1.526
447.90 1.525
448.00 1.524
448.10 1.522
448.20 1.521
448.30 1.52
448.40 1.519
448.50 1.518
448.60 1.516
448.70 1.515
448.80 1.514
448.90 1.513
449.00 1.511
449.10 1.51
449.20 1.509
449.30 1.508
449.40 1.507
449.50 1.505
449.60 1.504
449.70 1.503
449.80 1.502
449.90 1.5
450.00 1.499
450.10 1.498
450.20 1.497
450.30 1.496
450.40 1.494
450.50 1.493
450.60 1.492
450.70 1.491
450.80 1.489
450.90 1.488
451.00 1.487
451.10 1.486
451.20 1.485
451.30 1.483
451.40 1.482
451.50 1.481
451.60 1.48
451.70 1.478
451.80 1.477
451.90 1.476
452.00 1.475
452.10 1.474
452.20 1.472
452.30 1.471
452.40 1.47
452.50 1.469
452.60 1.468
452.70 1.466
452.80 1.465
452.90 1.464
453.00 1.463
453.10 1.461
453.20 1.46
453.30 1.459
453.40 1.458
453.50 1.457
453.60 1.455
453.70 1.454
453.80 1.453
453.90 1.452
454.00 1.451
