# Version 2.1 - nm, norm@500 to 1, cut digits, bergeron_3250_65.dat_3250
# Wavelength(nm)  Flambda(ergs/cm^s/s/nm)
300.00 0.0728
300.10 0.07301
300.20 0.07321
300.30 0.07342
300.40 0.07363
300.50 0.07384
300.60 0.07405
300.70 0.07426
300.80 0.07446
300.90 0.07467
301.00 0.07488
301.10 0.07509
301.20 0.07529
301.30 0.0755
301.40 0.0757
301.50 0.07591
301.60 0.07612
301.70 0.07632
301.80 0.07653
301.90 0.07673
302.00 0.07694
302.10 0.07715
302.20 0.07737
302.30 0.07758
302.40 0.0778
302.50 0.07802
302.60 0.07823
302.70 0.07845
302.80 0.07866
302.90 0.07888
303.00 0.07909
303.10 0.07931
303.20 0.07952
303.30 0.07973
303.40 0.07995
303.50 0.08016
303.60 0.08037
303.70 0.08058
303.80 0.0808
303.90 0.08101
304.00 0.08123
304.10 0.08145
304.20 0.08167
304.30 0.08189
304.40 0.08212
304.50 0.08234
304.60 0.08257
304.70 0.08279
304.80 0.08301
304.90 0.08323
305.00 0.08346
305.10 0.08368
305.20 0.0839
305.30 0.08412
305.40 0.08434
305.50 0.08456
305.60 0.08478
305.70 0.085
305.80 0.08522
305.90 0.08544
306.00 0.08567
306.10 0.0859
306.20 0.08613
306.30 0.08636
306.40 0.08659
306.50 0.08682
306.60 0.08705
306.70 0.08728
306.80 0.08751
306.90 0.08774
307.00 0.08797
307.10 0.0882
307.20 0.08843
307.30 0.08866
307.40 0.08889
307.50 0.08911
307.60 0.08934
307.70 0.08957
307.80 0.0898
307.90 0.09002
308.00 0.09026
308.10 0.09049
308.20 0.09073
308.30 0.09097
308.40 0.09121
308.50 0.09145
308.60 0.09168
308.70 0.09192
308.80 0.09216
308.90 0.0924
309.00 0.09263
309.10 0.09287
309.20 0.09311
309.30 0.09334
309.40 0.09358
309.50 0.09382
309.60 0.09405
309.70 0.09429
309.80 0.09452
309.90 0.09476
310.00 0.095
310.10 0.09524
310.20 0.09548
310.30 0.09573
310.40 0.09598
310.50 0.09623
310.60 0.09647
310.70 0.09672
310.80 0.09696
310.90 0.09721
311.00 0.09745
311.10 0.0977
311.20 0.09794
311.30 0.09819
311.40 0.09843
311.50 0.09868
311.60 0.09892
311.70 0.09916
311.80 0.0994
311.90 0.09965
312.00 0.09989
312.10 0.1001
312.20 0.1004
312.30 0.1006
312.40 0.1009
312.50 0.1011
312.60 0.1014
312.70 0.1016
312.80 0.1019
312.90 0.1022
313.00 0.1024
313.10 0.1027
313.20 0.1029
313.30 0.1032
313.40 0.1034
313.50 0.1037
313.60 0.1039
313.70 0.1042
313.80 0.1044
313.90 0.1047
314.00 0.1049
314.10 0.1052
314.20 0.1054
314.30 0.1057
314.40 0.106
314.50 0.1062
314.60 0.1065
314.70 0.1067
314.80 0.107
314.90 0.1073
315.00 0.1075
315.10 0.1078
315.20 0.108
315.30 0.1083
315.40 0.1086
315.50 0.1088
315.60 0.1091
315.70 0.1093
315.80 0.1096
315.90 0.1099
316.00 0.1101
316.10 0.1104
316.20 0.1106
316.30 0.1109
316.40 0.1112
316.50 0.1115
316.60 0.1117
316.70 0.112
316.80 0.1123
316.90 0.1125
317.00 0.1128
317.10 0.1131
317.20 0.1133
317.30 0.1136
317.40 0.1139
317.50 0.1141
317.60 0.1144
317.70 0.1147
317.80 0.1149
317.90 0.1152
318.00 0.1155
318.10 0.1157
318.20 0.116
318.30 0.1163
318.40 0.1166
318.50 0.1168
318.60 0.1171
318.70 0.1174
318.80 0.1177
318.90 0.1179
319.00 0.1182
319.10 0.1185
319.20 0.1188
319.30 0.119
319.40 0.1193
319.50 0.1196
319.60 0.1199
319.70 0.1201
319.80 0.1204
319.90 0.1207
320.00 0.121
320.10 0.1212
320.20 0.1215
320.30 0.1218
320.40 0.1221
320.50 0.1224
320.60 0.1227
320.70 0.1229
320.80 0.1232
320.90 0.1235
321.00 0.1238
321.10 0.1241
321.20 0.1244
321.30 0.1246
321.40 0.1249
321.50 0.1252
321.60 0.1255
321.70 0.1258
321.80 0.126
321.90 0.1263
322.00 0.1266
322.10 0.1269
322.20 0.1272
322.30 0.1275
322.40 0.1278
322.50 0.1281
322.60 0.1284
322.70 0.1286
322.80 0.1289
322.90 0.1292
323.00 0.1295
323.10 0.1298
323.20 0.1301
323.30 0.1304
323.40 0.1307
323.50 0.131
323.60 0.1312
323.70 0.1315
323.80 0.1318
323.90 0.1321
324.00 0.1324
324.10 0.1327
324.20 0.133
324.30 0.1333
324.40 0.1336
324.50 0.1339
324.60 0.1342
324.70 0.1345
324.80 0.1348
324.90 0.1351
325.00 0.1354
325.10 0.1357
325.20 0.136
325.30 0.1363
325.40 0.1366
325.50 0.1369
325.60 0.1372
325.70 0.1375
325.80 0.1378
325.90 0.1381
326.00 0.1384
326.10 0.1387
326.20 0.139
326.30 0.1393
326.40 0.1396
326.50 0.1399
326.60 0.1402
326.70 0.1405
326.80 0.1408
326.90 0.1411
327.00 0.1414
327.10 0.1417
327.20 0.142
327.30 0.1423
327.40 0.1426
327.50 0.1429
327.60 0.1432
327.70 0.1435
327.80 0.1438
327.90 0.1441
328.00 0.1445
328.10 0.1448
328.20 0.1451
328.30 0.1454
328.40 0.1457
328.50 0.146
328.60 0.1463
328.70 0.1466
328.80 0.147
328.90 0.1473
329.00 0.1476
329.10 0.1479
329.20 0.1482
329.30 0.1485
329.40 0.1488
329.50 0.1491
329.60 0.1495
329.70 0.1498
329.80 0.1501
329.90 0.1504
330.00 0.1507
330.10 0.151
330.20 0.1513
330.30 0.1517
330.40 0.152
330.50 0.1523
330.60 0.1526
330.70 0.153
330.80 0.1533
330.90 0.1536
331.00 0.1539
331.10 0.1542
331.20 0.1546
331.30 0.1549
331.40 0.1552
331.50 0.1555
331.60 0.1558
331.70 0.1561
331.80 0.1565
331.90 0.1568
332.00 0.1571
332.10 0.1574
332.20 0.1578
332.30 0.1581
332.40 0.1584
332.50 0.1588
332.60 0.1591
332.70 0.1594
332.80 0.1597
332.90 0.1601
333.00 0.1604
333.10 0.1607
333.20 0.161
333.30 0.1614
333.40 0.1617
333.50 0.162
333.60 0.1624
333.70 0.1627
333.80 0.163
333.90 0.1633
334.00 0.1636
334.10 0.164
334.20 0.1643
334.30 0.1647
334.40 0.165
334.50 0.1653
334.60 0.1657
334.70 0.166
334.80 0.1663
334.90 0.1667
335.00 0.167
335.10 0.1674
335.20 0.1677
335.30 0.168
335.40 0.1684
335.50 0.1687
335.60 0.169
335.70 0.1693
335.80 0.1697
335.90 0.17
336.00 0.1703
336.10 0.1707
336.20 0.171
336.30 0.1714
336.40 0.1717
336.50 0.1721
336.60 0.1724
336.70 0.1728
336.80 0.1731
336.90 0.1734
337.00 0.1738
337.10 0.1741
337.20 0.1745
337.30 0.1748
337.40 0.1752
337.50 0.1755
337.60 0.1758
337.70 0.1762
337.80 0.1765
337.90 0.1768
338.00 0.1772
338.10 0.1775
338.20 0.1779
338.30 0.1782
338.40 0.1786
338.50 0.1789
338.60 0.1793
338.70 0.1797
338.80 0.18
338.90 0.1804
339.00 0.1807
339.10 0.1811
339.20 0.1814
339.30 0.1817
339.40 0.1821
339.50 0.1824
339.60 0.1828
339.70 0.1831
339.80 0.1835
339.90 0.1838
340.00 0.1842
340.10 0.1845
340.20 0.1849
340.30 0.1853
340.40 0.1856
340.50 0.186
340.60 0.1863
340.70 0.1867
340.80 0.187
340.90 0.1874
341.00 0.1878
341.10 0.1881
341.20 0.1885
341.30 0.1888
341.40 0.1892
341.50 0.1895
341.60 0.1899
341.70 0.1902
341.80 0.1906
341.90 0.191
342.00 0.1913
342.10 0.1917
342.20 0.192
342.30 0.1924
342.40 0.1928
342.50 0.1931
342.60 0.1935
342.70 0.1939
342.80 0.1942
342.90 0.1946
343.00 0.195
343.10 0.1953
343.20 0.1957
343.30 0.1961
343.40 0.1964
343.50 0.1968
343.60 0.1971
343.70 0.1975
343.80 0.1979
343.90 0.1982
344.00 0.1986
344.10 0.199
344.20 0.1993
344.30 0.1997
344.40 0.2001
344.50 0.2005
344.60 0.2008
344.70 0.2012
344.80 0.2016
344.90 0.2019
345.00 0.2023
345.10 0.2027
345.20 0.2031
345.30 0.2034
345.40 0.2038
345.50 0.2042
345.60 0.2045
345.70 0.2049
345.80 0.2053
345.90 0.2056
346.00 0.206
346.10 0.2064
346.20 0.2068
346.30 0.2071
346.40 0.2075
346.50 0.2079
346.60 0.2083
346.70 0.2087
346.80 0.209
346.90 0.2094
347.00 0.2098
347.10 0.2102
347.20 0.2106
347.30 0.2109
347.40 0.2113
347.50 0.2117
347.60 0.2121
347.70 0.2124
347.80 0.2128
347.90 0.2132
348.00 0.2136
348.10 0.2139
348.20 0.2143
348.30 0.2147
348.40 0.2151
348.50 0.2155
348.60 0.2159
348.70 0.2163
348.80 0.2167
348.90 0.217
349.00 0.2174
349.10 0.2178
349.20 0.2182
349.30 0.2186
349.40 0.219
349.50 0.2193
349.60 0.2197
349.70 0.2201
349.80 0.2205
349.90 0.2209
350.00 0.2212
350.10 0.2216
350.20 0.222
350.30 0.2224
350.40 0.2228
350.50 0.2232
350.60 0.2236
350.70 0.224
350.80 0.2244
350.90 0.2248
351.00 0.2252
351.10 0.2256
351.20 0.226
351.30 0.2264
351.40 0.2267
351.50 0.2271
351.60 0.2275
351.70 0.2279
351.80 0.2283
351.90 0.2287
352.00 0.2291
352.10 0.2295
352.20 0.2299
352.30 0.2303
352.40 0.2307
352.50 0.2311
352.60 0.2315
352.70 0.2319
352.80 0.2323
352.90 0.2327
353.00 0.2331
353.10 0.2335
353.20 0.2339
353.30 0.2343
353.40 0.2347
353.50 0.2351
353.60 0.2355
353.70 0.2359
353.80 0.2362
353.90 0.2366
354.00 0.237
354.10 0.2374
354.20 0.2379
354.30 0.2383
354.40 0.2387
354.50 0.2391
354.60 0.2395
354.70 0.2399
354.80 0.2403
354.90 0.2407
355.00 0.2411
355.10 0.2415
355.20 0.2419
355.30 0.2423
355.40 0.2427
355.50 0.2431
355.60 0.2435
355.70 0.2439
355.80 0.2443
355.90 0.2447
356.00 0.2451
356.10 0.2455
356.20 0.246
356.30 0.2464
356.40 0.2468
356.50 0.2472
356.60 0.2476
356.70 0.248
356.80 0.2484
356.90 0.2489
357.00 0.2493
357.10 0.2497
357.20 0.2501
357.30 0.2505
357.40 0.2509
357.50 0.2513
357.60 0.2517
357.70 0.2521
357.80 0.2525
357.90 0.2529
358.00 0.2534
358.10 0.2538
358.20 0.2542
358.30 0.2546
358.40 0.255
358.50 0.2555
358.60 0.2559
358.70 0.2563
358.80 0.2567
358.90 0.2571
359.00 0.2576
359.10 0.258
359.20 0.2584
359.30 0.2588
359.40 0.2592
359.50 0.2596
359.60 0.26
359.70 0.2605
359.80 0.2609
359.90 0.2613
360.00 0.2617
360.10 0.2621
360.20 0.2626
360.30 0.263
360.40 0.2634
360.50 0.2638
360.60 0.2643
360.70 0.2647
360.80 0.2651
360.90 0.2655
361.00 0.266
361.10 0.2664
361.20 0.2668
361.30 0.2672
361.40 0.2677
361.50 0.2681
361.60 0.2685
361.70 0.2689
361.80 0.2693
361.90 0.2698
362.00 0.2702
362.10 0.2706
362.20 0.271
362.30 0.2715
362.40 0.2719
362.50 0.2723
362.60 0.2728
362.70 0.2732
362.80 0.2736
362.90 0.274
363.00 0.2745
363.10 0.2749
363.20 0.2753
363.30 0.2758
363.40 0.2762
363.50 0.2766
363.60 0.2771
363.70 0.2775
363.80 0.2779
363.90 0.2784
364.00 0.2788
364.10 0.2792
364.20 0.2797
364.30 0.2801
364.40 0.2805
364.50 0.2809
364.60 0.2814
364.70 0.2818
364.80 0.2823
364.90 0.2827
365.00 0.2831
365.10 0.2836
365.20 0.284
365.30 0.2845
365.40 0.2849
365.50 0.2853
365.60 0.2858
365.70 0.2862
365.80 0.2866
365.90 0.2871
366.00 0.2875
366.10 0.2879
366.20 0.2884
366.30 0.2888
366.40 0.2893
366.50 0.2897
366.60 0.2902
366.70 0.2906
366.80 0.2911
366.90 0.2915
367.00 0.2919
367.10 0.2924
367.20 0.2928
367.30 0.2933
367.40 0.2937
367.50 0.2941
367.60 0.2946
367.70 0.295
367.80 0.2955
367.90 0.2959
368.00 0.2963
368.10 0.2968
368.20 0.2972
368.30 0.2977
368.40 0.2981
368.50 0.2986
368.60 0.299
368.70 0.2995
368.80 0.2999
368.90 0.3004
369.00 0.3008
369.10 0.3013
369.20 0.3017
369.30 0.3022
369.40 0.3026
369.50 0.3031
369.60 0.3035
369.70 0.304
369.80 0.3044
369.90 0.3049
370.00 0.3053
370.10 0.3058
370.20 0.3062
370.30 0.3067
370.40 0.3071
370.50 0.3076
370.60 0.308
370.70 0.3085
370.80 0.3089
370.90 0.3094
371.00 0.3099
371.10 0.3103
371.20 0.3108
371.30 0.3112
371.40 0.3117
371.50 0.3121
371.60 0.3126
371.70 0.313
371.80 0.3135
371.90 0.3139
372.00 0.3144
372.10 0.3148
372.20 0.3153
372.30 0.3158
372.40 0.3162
372.50 0.3167
372.60 0.3171
372.70 0.3176
372.80 0.3181
372.90 0.3185
373.00 0.319
373.10 0.3194
373.20 0.3199
373.30 0.3204
373.40 0.3208
373.50 0.3213
373.60 0.3217
373.70 0.3222
373.80 0.3226
373.90 0.3231
374.00 0.3235
374.10 0.324
374.20 0.3245
374.30 0.3249
374.40 0.3254
374.50 0.3259
374.60 0.3264
374.70 0.3268
374.80 0.3273
374.90 0.3277
375.00 0.3282
375.10 0.3287
375.20 0.3291
375.30 0.3296
375.40 0.3301
375.50 0.3305
375.60 0.331
375.70 0.3315
375.80 0.3319
375.90 0.3324
376.00 0.3328
376.10 0.3333
376.20 0.3338
376.30 0.3342
376.40 0.3347
376.50 0.3352
376.60 0.3356
376.70 0.3361
376.80 0.3366
376.90 0.337
377.00 0.3375
377.10 0.338
377.20 0.3385
377.30 0.3389
377.40 0.3394
377.50 0.3399
377.60 0.3403
377.70 0.3408
377.80 0.3413
377.90 0.3418
378.00 0.3422
378.10 0.3427
378.20 0.3432
378.30 0.3436
378.40 0.3441
378.50 0.3446
378.60 0.3451
378.70 0.3455
378.80 0.346
378.90 0.3465
379.00 0.347
379.10 0.3474
379.20 0.3479
379.30 0.3484
379.40 0.3489
379.50 0.3493
379.60 0.3498
379.70 0.3503
379.80 0.3508
379.90 0.3512
380.00 0.3517
380.10 0.3522
380.20 0.3527
380.30 0.3532
380.40 0.3536
380.50 0.3541
380.60 0.3546
380.70 0.3551
380.80 0.3555
380.90 0.356
381.00 0.3565
381.10 0.357
381.20 0.3575
381.30 0.3579
381.40 0.3584
381.50 0.3589
381.60 0.3594
381.70 0.3599
381.80 0.3603
381.90 0.3608
382.00 0.3613
382.10 0.3618
382.20 0.3623
382.30 0.3628
382.40 0.3632
382.50 0.3637
382.60 0.3642
382.70 0.3647
382.80 0.3652
382.90 0.3657
383.00 0.3661
383.10 0.3666
383.20 0.3671
383.30 0.3676
383.40 0.3681
383.50 0.3686
383.60 0.3691
383.70 0.3695
383.80 0.37
383.90 0.3705
384.00 0.371
384.10 0.3715
384.20 0.372
384.30 0.3725
384.40 0.3729
384.50 0.3734
384.60 0.3739
384.70 0.3744
384.80 0.3749
384.90 0.3754
385.00 0.3759
385.10 0.3764
385.20 0.3769
385.30 0.3773
385.40 0.3778
385.50 0.3783
385.60 0.3788
385.70 0.3793
385.80 0.3798
385.90 0.3803
386.00 0.3808
386.10 0.3813
386.20 0.3818
386.30 0.3823
386.40 0.3828
386.50 0.3832
386.60 0.3837
386.70 0.3842
386.80 0.3847
386.90 0.3852
387.00 0.3857
387.10 0.3862
387.20 0.3867
387.30 0.3872
387.40 0.3877
387.50 0.3882
387.60 0.3887
387.70 0.3892
387.80 0.3897
387.90 0.3902
388.00 0.3907
388.10 0.3912
388.20 0.3917
388.30 0.3921
388.40 0.3926
388.50 0.3931
388.60 0.3936
388.70 0.3941
388.80 0.3946
388.90 0.3951
389.00 0.3956
389.10 0.3961
389.20 0.3966
389.30 0.3971
389.40 0.3976
389.50 0.3981
389.60 0.3986
389.70 0.3991
389.80 0.3996
389.90 0.4001
390.00 0.4006
390.10 0.4011
390.20 0.4016
390.30 0.4021
390.40 0.4026
390.50 0.4031
390.60 0.4036
390.70 0.4041
390.80 0.4046
390.90 0.4051
391.00 0.4056
391.10 0.4061
391.20 0.4066
391.30 0.4072
391.40 0.4077
391.50 0.4082
391.60 0.4087
391.70 0.4092
391.80 0.4097
391.90 0.4102
392.00 0.4107
392.10 0.4112
392.20 0.4117
392.30 0.4122
392.40 0.4127
392.50 0.4132
392.60 0.4137
392.70 0.4142
392.80 0.4147
392.90 0.4152
393.00 0.4157
393.10 0.4162
393.20 0.4167
393.30 0.4173
393.40 0.4178
393.50 0.4183
393.60 0.4188
393.70 0.4193
393.80 0.4198
393.90 0.4203
394.00 0.4208
394.10 0.4213
394.20 0.4218
394.30 0.4223
394.40 0.4228
394.50 0.4234
394.60 0.4239
394.70 0.4244
394.80 0.4249
394.90 0.4254
395.00 0.4259
395.10 0.4264
395.20 0.4269
395.30 0.4274
395.40 0.4279
395.50 0.4285
395.60 0.429
395.70 0.4295
395.80 0.43
395.90 0.4305
396.00 0.431
396.10 0.4315
396.20 0.432
396.30 0.4326
396.40 0.4331
396.50 0.4336
396.60 0.4341
396.70 0.4346
396.80 0.4351
396.90 0.4356
397.00 0.4362
397.10 0.4367
397.20 0.4372
397.30 0.4377
397.40 0.4382
397.50 0.4387
397.60 0.4392
397.70 0.4398
397.80 0.4403
397.90 0.4408
398.00 0.4413
398.10 0.4418
398.20 0.4423
398.30 0.4429
398.40 0.4434
398.50 0.4439
398.60 0.4444
398.70 0.4449
398.80 0.4454
398.90 0.446
399.00 0.4465
399.10 0.447
399.20 0.4475
399.30 0.448
399.40 0.4486
399.50 0.4491
399.60 0.4496
399.70 0.4501
399.80 0.4506
399.90 0.4511
400.00 0.4517
400.10 0.4522
400.20 0.4527
400.30 0.4532
400.40 0.4537
400.50 0.4543
400.60 0.4548
400.70 0.4553
400.80 0.4558
400.90 0.4564
401.00 0.4569
401.10 0.4574
401.20 0.4579
401.30 0.4584
401.40 0.459
401.50 0.4595
401.60 0.46
401.70 0.4605
401.80 0.4611
401.90 0.4616
402.00 0.4621
402.10 0.4626
402.20 0.4632
402.30 0.4637
402.40 0.4642
402.50 0.4647
402.60 0.4653
402.70 0.4658
402.80 0.4663
402.90 0.4668
403.00 0.4673
403.10 0.4679
403.20 0.4684
403.30 0.4689
403.40 0.4695
403.50 0.47
403.60 0.4705
403.70 0.471
403.80 0.4716
403.90 0.4721
404.00 0.4726
404.10 0.4731
404.20 0.4737
404.30 0.4742
404.40 0.4747
404.50 0.4752
404.60 0.4758
404.70 0.4763
404.80 0.4768
404.90 0.4773
405.00 0.4779
405.10 0.4784
405.20 0.4789
405.30 0.4794
405.40 0.48
405.50 0.4805
405.60 0.481
405.70 0.4816
405.80 0.4821
405.90 0.4826
406.00 0.4832
406.10 0.4837
406.20 0.4842
406.30 0.4848
406.40 0.4853
406.50 0.4858
406.60 0.4863
406.70 0.4869
406.80 0.4874
406.90 0.488
407.00 0.4885
407.10 0.489
407.20 0.4895
407.30 0.4901
407.40 0.4906
407.50 0.4911
407.60 0.4917
407.70 0.4922
407.80 0.4927
407.90 0.4933
408.00 0.4938
408.10 0.4943
408.20 0.4949
408.30 0.4954
408.40 0.4959
408.50 0.4964
408.60 0.497
408.70 0.4975
408.80 0.4981
408.90 0.4986
409.00 0.4991
409.10 0.4997
409.20 0.5002
409.30 0.5007
409.40 0.5013
409.50 0.5018
409.60 0.5023
409.70 0.5029
409.80 0.5034
409.90 0.5039
410.00 0.5045
410.10 0.505
410.20 0.5055
410.30 0.5061
410.40 0.5066
410.50 0.5071
410.60 0.5077
410.70 0.5082
410.80 0.5088
410.90 0.5093
411.00 0.5098
411.10 0.5104
411.20 0.5109
411.30 0.5114
411.40 0.512
411.50 0.5125
411.60 0.5131
411.70 0.5136
411.80 0.5141
411.90 0.5147
412.00 0.5152
412.10 0.5158
412.20 0.5163
412.30 0.5168
412.40 0.5174
412.50 0.5179
412.60 0.5184
412.70 0.519
412.80 0.5195
412.90 0.52
413.00 0.5206
413.10 0.5211
413.20 0.5217
413.30 0.5222
413.40 0.5228
413.50 0.5233
413.60 0.5238
413.70 0.5244
413.80 0.5249
413.90 0.5255
414.00 0.526
414.10 0.5265
414.20 0.5271
414.30 0.5276
414.40 0.5282
414.50 0.5287
414.60 0.5292
414.70 0.5298
414.80 0.5303
414.90 0.5308
415.00 0.5314
415.10 0.5319
415.20 0.5325
415.30 0.533
415.40 0.5336
415.50 0.5341
415.60 0.5346
415.70 0.5352
415.80 0.5357
415.90 0.5363
416.00 0.5368
416.10 0.5374
416.20 0.5379
416.30 0.5384
416.40 0.539
416.50 0.5395
416.60 0.5401
416.70 0.5407
416.80 0.5412
416.90 0.5417
417.00 0.5423
417.10 0.5428
417.20 0.5433
417.30 0.5439
417.40 0.5445
417.50 0.545
417.60 0.5455
417.70 0.5461
417.80 0.5466
417.90 0.5472
418.00 0.5477
418.10 0.5483
418.20 0.5488
418.30 0.5493
418.40 0.5499
418.50 0.5505
418.60 0.551
418.70 0.5515
418.80 0.5521
418.90 0.5526
419.00 0.5532
419.10 0.5537
419.20 0.5543
419.30 0.5548
419.40 0.5554
419.50 0.5559
419.60 0.5565
419.70 0.557
419.80 0.5576
419.90 0.5581
420.00 0.5587
420.10 0.5592
420.20 0.5598
420.30 0.5603
420.40 0.5609
420.50 0.5614
420.60 0.5619
420.70 0.5625
420.80 0.563
420.90 0.5636
421.00 0.5641
421.10 0.5647
421.20 0.5652
421.30 0.5658
421.40 0.5663
421.50 0.5669
421.60 0.5674
421.70 0.568
421.80 0.5685
421.90 0.5691
422.00 0.5696
422.10 0.5702
422.20 0.5707
422.30 0.5713
422.40 0.5718
422.50 0.5724
422.60 0.5729
422.70 0.5735
422.80 0.574
422.90 0.5746
423.00 0.5751
423.10 0.5757
423.20 0.5762
423.30 0.5768
423.40 0.5773
423.50 0.5779
423.60 0.5784
423.70 0.579
423.80 0.5795
423.90 0.5801
424.00 0.5806
424.10 0.5812
424.20 0.5817
424.30 0.5823
424.40 0.5828
424.50 0.5834
424.60 0.5839
424.70 0.5845
424.80 0.585
424.90 0.5856
425.00 0.5861
425.10 0.5867
425.20 0.5872
425.30 0.5878
425.40 0.5884
425.50 0.5889
425.60 0.5895
425.70 0.59
425.80 0.5906
425.90 0.5911
426.00 0.5917
426.10 0.5922
426.20 0.5928
426.30 0.5933
426.40 0.5939
426.50 0.5944
426.60 0.595
426.70 0.5956
426.80 0.5961
426.90 0.5966
427.00 0.5972
427.10 0.5978
427.20 0.5983
427.30 0.5989
427.40 0.5994
427.50 0.6
427.60 0.6005
427.70 0.6011
427.80 0.6017
427.90 0.6022
428.00 0.6027
428.10 0.6033
428.20 0.6038
428.30 0.6044
428.40 0.6049
428.50 0.6055
428.60 0.6061
428.70 0.6066
428.80 0.6072
428.90 0.6077
429.00 0.6083
429.10 0.6089
429.20 0.6094
429.30 0.61
429.40 0.6105
429.50 0.6111
429.60 0.6116
429.70 0.6122
429.80 0.6127
429.90 0.6133
430.00 0.6138
430.10 0.6144
430.20 0.615
430.30 0.6155
430.40 0.6161
430.50 0.6166
430.60 0.6172
430.70 0.6177
430.80 0.6183
430.90 0.6189
431.00 0.6194
431.10 0.62
431.20 0.6205
431.30 0.6211
431.40 0.6216
431.50 0.6222
431.60 0.6227
431.70 0.6233
431.80 0.6239
431.90 0.6244
432.00 0.625
432.10 0.6255
432.20 0.6261
432.30 0.6266
432.40 0.6272
432.50 0.6277
432.60 0.6283
432.70 0.6289
432.80 0.6294
432.90 0.63
433.00 0.6306
433.10 0.6311
433.20 0.6317
433.30 0.6322
433.40 0.6328
433.50 0.6333
433.60 0.6339
433.70 0.6344
433.80 0.635
433.90 0.6356
434.00 0.6361
434.10 0.6367
434.20 0.6372
434.30 0.6378
434.40 0.6384
434.50 0.6389
434.60 0.6395
434.70 0.64
434.80 0.6406
434.90 0.6411
435.00 0.6417
435.10 0.6423
435.20 0.6428
435.30 0.6434
435.40 0.6439
435.50 0.6445
435.60 0.6451
435.70 0.6456
435.80 0.6462
435.90 0.6467
436.00 0.6473
436.10 0.6478
436.20 0.6484
436.30 0.649
436.40 0.6495
436.50 0.6501
436.60 0.6506
436.70 0.6512
436.80 0.6518
436.90 0.6523
437.00 0.6529
437.10 0.6534
437.20 0.654
437.30 0.6546
437.40 0.6551
437.50 0.6557
437.60 0.6562
437.70 0.6568
437.80 0.6574
437.90 0.6579
438.00 0.6585
438.10 0.659
438.20 0.6596
438.30 0.6602
438.40 0.6607
438.50 0.6613
438.60 0.6618
438.70 0.6624
438.80 0.663
438.90 0.6635
439.00 0.6641
439.10 0.6646
439.20 0.6652
439.30 0.6657
439.40 0.6663
439.50 0.6669
439.60 0.6674
439.70 0.668
439.80 0.6685
439.90 0.6691
440.00 0.6697
440.10 0.6702
440.20 0.6708
440.30 0.6714
440.40 0.6719
440.50 0.6725
440.60 0.673
440.70 0.6736
440.80 0.6741
440.90 0.6747
441.00 0.6753
441.10 0.6758
441.20 0.6764
441.30 0.677
441.40 0.6775
441.50 0.6781
441.60 0.6787
441.70 0.6792
441.80 0.6798
441.90 0.6803
442.00 0.6809
442.10 0.6815
