# Version 2.1 - nm, norm@500 to 1, cut digits, bergeron_3000_95.dat_3000
# Wavelength(nm)  Flambda(ergs/cm^s/s/nm)
300.00 0.1352
300.10 0.1355
300.20 0.1358
300.30 0.1361
300.40 0.1364
300.50 0.1366
300.60 0.1369
300.70 0.1372
300.80 0.1375
300.90 0.1378
301.00 0.1381
301.10 0.1384
301.20 0.1387
301.30 0.1389
301.40 0.1392
301.50 0.1395
301.60 0.1398
301.70 0.1401
301.80 0.1404
301.90 0.1406
302.00 0.1409
302.10 0.1412
302.20 0.1415
302.30 0.1418
302.40 0.1421
302.50 0.1424
302.60 0.1427
302.70 0.143
302.80 0.1433
302.90 0.1436
303.00 0.1439
303.10 0.1442
303.20 0.1445
303.30 0.1448
303.40 0.145
303.50 0.1453
303.60 0.1456
303.70 0.1459
303.80 0.1462
303.90 0.1465
304.00 0.1468
304.10 0.1471
304.20 0.1474
304.30 0.1477
304.40 0.148
304.50 0.1483
304.60 0.1486
304.70 0.1489
304.80 0.1492
304.90 0.1495
305.00 0.1498
305.10 0.1501
305.20 0.1504
305.30 0.1507
305.40 0.151
305.50 0.1513
305.60 0.1516
305.70 0.1519
305.80 0.1522
305.90 0.1525
306.00 0.1528
306.10 0.1531
306.20 0.1534
306.30 0.1537
306.40 0.154
306.50 0.1543
306.60 0.1546
306.70 0.1549
306.80 0.1552
306.90 0.1555
307.00 0.1558
307.10 0.1562
307.20 0.1565
307.30 0.1568
307.40 0.1571
307.50 0.1574
307.60 0.1577
307.70 0.158
307.80 0.1583
307.90 0.1586
308.00 0.1589
308.10 0.1592
308.20 0.1595
308.30 0.1598
308.40 0.1601
308.50 0.1605
308.60 0.1608
308.70 0.1611
308.80 0.1614
308.90 0.1617
309.00 0.162
309.10 0.1623
309.20 0.1626
309.30 0.163
309.40 0.1633
309.50 0.1636
309.60 0.1639
309.70 0.1642
309.80 0.1645
309.90 0.1648
310.00 0.1651
310.10 0.1654
310.20 0.1658
310.30 0.1661
310.40 0.1664
310.50 0.1667
310.60 0.1671
310.70 0.1674
310.80 0.1677
310.90 0.168
311.00 0.1683
311.10 0.1687
311.20 0.169
311.30 0.1693
311.40 0.1696
311.50 0.1699
311.60 0.1702
311.70 0.1706
311.80 0.1709
311.90 0.1712
312.00 0.1715
312.10 0.1718
312.20 0.1721
312.30 0.1725
312.40 0.1728
312.50 0.1731
312.60 0.1734
312.70 0.1738
312.80 0.1741
312.90 0.1744
313.00 0.1747
313.10 0.1751
313.20 0.1754
313.30 0.1757
313.40 0.176
313.50 0.1764
313.60 0.1767
313.70 0.177
313.80 0.1773
313.90 0.1777
314.00 0.178
314.10 0.1783
314.20 0.1787
314.30 0.179
314.40 0.1793
314.50 0.1797
314.60 0.18
314.70 0.1803
314.80 0.1807
314.90 0.181
315.00 0.1813
315.10 0.1816
315.20 0.182
315.30 0.1823
315.40 0.1826
315.50 0.183
315.60 0.1833
315.70 0.1836
315.80 0.1839
315.90 0.1843
316.00 0.1846
316.10 0.1849
316.20 0.1853
316.30 0.1856
316.40 0.186
316.50 0.1863
316.60 0.1866
316.70 0.187
316.80 0.1873
316.90 0.1877
317.00 0.188
317.10 0.1883
317.20 0.1887
317.30 0.189
317.40 0.1893
317.50 0.1897
317.60 0.19
317.70 0.1903
317.80 0.1907
317.90 0.191
318.00 0.1914
318.10 0.1917
318.20 0.192
318.30 0.1924
318.40 0.1927
318.50 0.1931
318.60 0.1934
318.70 0.1938
318.80 0.1941
318.90 0.1945
319.00 0.1948
319.10 0.1951
319.20 0.1955
319.30 0.1958
319.40 0.1962
319.50 0.1965
319.60 0.1968
319.70 0.1972
319.80 0.1975
319.90 0.1979
320.00 0.1982
320.10 0.1986
320.20 0.1989
320.30 0.1993
320.40 0.1996
320.50 0.2
320.60 0.2003
320.70 0.2007
320.80 0.201
320.90 0.2014
321.00 0.2017
321.10 0.2021
321.20 0.2024
321.30 0.2028
321.40 0.2031
321.50 0.2035
321.60 0.2038
321.70 0.2041
321.80 0.2045
321.90 0.2048
322.00 0.2052
322.10 0.2055
322.20 0.2059
322.30 0.2063
322.40 0.2066
322.50 0.207
322.60 0.2073
322.70 0.2077
322.80 0.208
322.90 0.2084
323.00 0.2088
323.10 0.2091
323.20 0.2095
323.30 0.2098
323.40 0.2102
323.50 0.2105
323.60 0.2109
323.70 0.2112
323.80 0.2116
323.90 0.2119
324.00 0.2123
324.10 0.2126
324.20 0.213
324.30 0.2134
324.40 0.2137
324.50 0.2141
324.60 0.2145
324.70 0.2148
324.80 0.2152
324.90 0.2156
325.00 0.2159
325.10 0.2163
325.20 0.2166
325.30 0.217
325.40 0.2174
325.50 0.2177
325.60 0.2181
325.70 0.2184
325.80 0.2188
325.90 0.2191
326.00 0.2195
326.10 0.2199
326.20 0.2202
326.30 0.2206
326.40 0.221
326.50 0.2213
326.60 0.2217
326.70 0.2221
326.80 0.2225
326.90 0.2228
327.00 0.2232
327.10 0.2236
327.20 0.2239
327.30 0.2243
327.40 0.2246
327.50 0.225
327.60 0.2254
327.70 0.2257
327.80 0.2261
327.90 0.2265
328.00 0.2268
328.10 0.2272
328.20 0.2276
328.30 0.228
328.40 0.2283
328.50 0.2287
328.60 0.2291
328.70 0.2295
328.80 0.2298
328.90 0.2302
329.00 0.2306
329.10 0.2309
329.20 0.2313
329.30 0.2317
329.40 0.2321
329.50 0.2324
329.60 0.2328
329.70 0.2332
329.80 0.2335
329.90 0.2339
330.00 0.2343
330.10 0.2346
330.20 0.235
330.30 0.2354
330.40 0.2358
330.50 0.2362
330.60 0.2365
330.70 0.2369
330.80 0.2373
330.90 0.2377
331.00 0.2381
331.10 0.2384
331.20 0.2388
331.30 0.2392
331.40 0.2396
331.50 0.2399
331.60 0.2403
331.70 0.2407
331.80 0.2411
331.90 0.2414
332.00 0.2418
332.10 0.2422
332.20 0.2426
332.30 0.243
332.40 0.2434
332.50 0.2437
332.60 0.2441
332.70 0.2445
332.80 0.2449
332.90 0.2453
333.00 0.2457
333.10 0.246
333.20 0.2464
333.30 0.2468
333.40 0.2472
333.50 0.2476
333.60 0.2479
333.70 0.2483
333.80 0.2487
333.90 0.2491
334.00 0.2495
334.10 0.2499
334.20 0.2502
334.30 0.2506
334.40 0.251
334.50 0.2514
334.60 0.2518
334.70 0.2522
334.80 0.2526
334.90 0.253
335.00 0.2534
335.10 0.2538
335.20 0.2541
335.30 0.2545
335.40 0.2549
335.50 0.2553
335.60 0.2557
335.70 0.2561
335.80 0.2565
335.90 0.2568
336.00 0.2572
336.10 0.2576
336.20 0.258
336.30 0.2584
336.40 0.2588
336.50 0.2592
336.60 0.2596
336.70 0.26
336.80 0.2604
336.90 0.2608
337.00 0.2612
337.10 0.2616
337.20 0.262
337.30 0.2624
337.40 0.2627
337.50 0.2631
337.60 0.2635
337.70 0.2639
337.80 0.2643
337.90 0.2647
338.00 0.2651
338.10 0.2655
338.20 0.2659
338.30 0.2663
338.40 0.2667
338.50 0.2671
338.60 0.2675
338.70 0.2679
338.80 0.2683
338.90 0.2687
339.00 0.2691
339.10 0.2695
339.20 0.2699
339.30 0.2703
339.40 0.2707
339.50 0.2711
339.60 0.2715
339.70 0.2719
339.80 0.2723
339.90 0.2726
340.00 0.273
340.10 0.2734
340.20 0.2739
340.30 0.2743
340.40 0.2747
340.50 0.2751
340.60 0.2755
340.70 0.2759
340.80 0.2763
340.90 0.2767
341.00 0.2771
341.10 0.2775
341.20 0.2779
341.30 0.2783
341.40 0.2787
341.50 0.2791
341.60 0.2795
341.70 0.2799
341.80 0.2803
341.90 0.2807
342.00 0.2811
342.10 0.2815
342.20 0.2819
342.30 0.2823
342.40 0.2827
342.50 0.2832
342.60 0.2836
342.70 0.284
342.80 0.2844
342.90 0.2848
343.00 0.2852
343.10 0.2856
343.20 0.286
343.30 0.2864
343.40 0.2868
343.50 0.2872
343.60 0.2876
343.70 0.288
343.80 0.2884
343.90 0.2888
344.00 0.2892
344.10 0.2897
344.20 0.2901
344.30 0.2905
344.40 0.2909
344.50 0.2913
344.60 0.2917
344.70 0.2922
344.80 0.2926
344.90 0.293
345.00 0.2934
345.10 0.2938
345.20 0.2942
345.30 0.2946
345.40 0.295
345.50 0.2955
345.60 0.2959
345.70 0.2963
345.80 0.2967
345.90 0.2971
346.00 0.2975
346.10 0.2979
346.20 0.2983
346.30 0.2988
346.40 0.2992
346.50 0.2996
346.60 0.3
346.70 0.3004
346.80 0.3009
346.90 0.3013
347.00 0.3017
347.10 0.3021
347.20 0.3025
347.30 0.3029
347.40 0.3033
347.50 0.3038
347.60 0.3042
347.70 0.3046
347.80 0.305
347.90 0.3054
348.00 0.3058
348.10 0.3063
348.20 0.3067
348.30 0.3071
348.40 0.3075
348.50 0.308
348.60 0.3084
348.70 0.3088
348.80 0.3092
348.90 0.3096
349.00 0.3101
349.10 0.3105
349.20 0.3109
349.30 0.3113
349.40 0.3117
349.50 0.3122
349.60 0.3126
349.70 0.313
349.80 0.3134
349.90 0.3138
350.00 0.3142
350.10 0.3147
350.20 0.3151
350.30 0.3155
350.40 0.316
350.50 0.3164
350.60 0.3168
350.70 0.3172
350.80 0.3177
350.90 0.3181
351.00 0.3185
351.10 0.319
351.20 0.3194
351.30 0.3198
351.40 0.3202
351.50 0.3206
351.60 0.3211
351.70 0.3215
351.80 0.3219
351.90 0.3223
352.00 0.3228
352.10 0.3232
352.20 0.3236
352.30 0.3241
352.40 0.3245
352.50 0.3249
352.60 0.3254
352.70 0.3258
352.80 0.3262
352.90 0.3266
353.00 0.3271
353.10 0.3275
353.20 0.3279
353.30 0.3284
353.40 0.3288
353.50 0.3292
353.60 0.3296
353.70 0.3301
353.80 0.3305
353.90 0.3309
354.00 0.3313
354.10 0.3318
354.20 0.3322
354.30 0.3327
354.40 0.3331
354.50 0.3335
354.60 0.334
354.70 0.3344
354.80 0.3348
354.90 0.3353
355.00 0.3357
355.10 0.3361
355.20 0.3366
355.30 0.337
355.40 0.3374
355.50 0.3379
355.60 0.3383
355.70 0.3387
355.80 0.3391
355.90 0.3396
356.00 0.34
356.10 0.3404
356.20 0.3409
356.30 0.3413
356.40 0.3418
356.50 0.3422
356.60 0.3426
356.70 0.3431
356.80 0.3435
356.90 0.344
357.00 0.3444
357.10 0.3448
357.20 0.3453
357.30 0.3457
357.40 0.3461
357.50 0.3466
357.60 0.347
357.70 0.3474
357.80 0.3479
357.90 0.3483
358.00 0.3487
358.10 0.3492
358.20 0.3496
358.30 0.3501
358.40 0.3505
358.50 0.351
358.60 0.3514
358.70 0.3519
358.80 0.3523
358.90 0.3527
359.00 0.3532
359.10 0.3536
359.20 0.3541
359.30 0.3545
359.40 0.3549
359.50 0.3554
359.60 0.3558
359.70 0.3563
359.80 0.3567
359.90 0.3571
360.00 0.3576
360.10 0.358
360.20 0.3585
360.30 0.3589
360.40 0.3594
360.50 0.3598
360.60 0.3603
360.70 0.3607
360.80 0.3611
360.90 0.3616
361.00 0.362
361.10 0.3625
361.20 0.3629
361.30 0.3634
361.40 0.3638
361.50 0.3642
361.60 0.3647
361.70 0.3651
361.80 0.3656
361.90 0.366
362.00 0.3664
362.10 0.3669
362.20 0.3673
362.30 0.3678
362.40 0.3682
362.50 0.3687
362.60 0.3691
362.70 0.3696
362.80 0.37
362.90 0.3705
363.00 0.3709
363.10 0.3714
363.20 0.3718
363.30 0.3723
363.40 0.3727
363.50 0.3732
363.60 0.3736
363.70 0.3741
363.80 0.3745
363.90 0.375
364.00 0.3754
364.10 0.3759
364.20 0.3763
364.30 0.3768
364.40 0.3772
364.50 0.3776
364.60 0.3781
364.70 0.3786
364.80 0.379
364.90 0.3795
365.00 0.3799
365.10 0.3804
365.20 0.3808
365.30 0.3813
365.40 0.3817
365.50 0.3822
365.60 0.3826
365.70 0.3831
365.80 0.3835
365.90 0.384
366.00 0.3844
366.10 0.3849
366.20 0.3853
366.30 0.3858
366.40 0.3862
366.50 0.3867
366.60 0.3872
366.70 0.3876
366.80 0.3881
366.90 0.3885
367.00 0.389
367.10 0.3894
367.20 0.3899
367.30 0.3903
367.40 0.3908
367.50 0.3912
367.60 0.3917
367.70 0.3921
367.80 0.3926
367.90 0.393
368.00 0.3935
368.10 0.3939
368.20 0.3944
368.30 0.3949
368.40 0.3953
368.50 0.3958
368.60 0.3963
368.70 0.3967
368.80 0.3972
368.90 0.3976
369.00 0.3981
369.10 0.3986
369.20 0.399
369.30 0.3995
369.40 0.3999
369.50 0.4004
369.60 0.4008
369.70 0.4013
369.80 0.4017
369.90 0.4022
370.00 0.4026
370.10 0.4031
370.20 0.4036
370.30 0.404
370.40 0.4045
370.50 0.405
370.60 0.4054
370.70 0.4059
370.80 0.4064
370.90 0.4068
371.00 0.4073
371.10 0.4077
371.20 0.4082
371.30 0.4086
371.40 0.4091
371.50 0.4096
371.60 0.41
371.70 0.4105
371.80 0.4109
371.90 0.4114
372.00 0.4118
372.10 0.4123
372.20 0.4128
372.30 0.4132
372.40 0.4137
372.50 0.4142
372.60 0.4146
372.70 0.4151
372.80 0.4156
372.90 0.416
373.00 0.4165
373.10 0.417
373.20 0.4174
373.30 0.4179
373.40 0.4183
373.50 0.4188
373.60 0.4192
373.70 0.4197
373.80 0.4202
373.90 0.4206
374.00 0.4211
374.10 0.4215
374.20 0.422
374.30 0.4225
374.40 0.423
374.50 0.4234
374.60 0.4239
374.70 0.4244
374.80 0.4248
374.90 0.4253
375.00 0.4258
375.10 0.4262
375.20 0.4267
375.30 0.4272
375.40 0.4276
375.50 0.4281
375.60 0.4285
375.70 0.429
375.80 0.4295
375.90 0.4299
376.00 0.4304
376.10 0.4309
376.20 0.4313
376.30 0.4318
376.40 0.4323
376.50 0.4327
376.60 0.4332
376.70 0.4337
376.80 0.4341
376.90 0.4346
377.00 0.435
377.10 0.4355
377.20 0.436
377.30 0.4365
377.40 0.4369
377.50 0.4374
377.60 0.4379
377.70 0.4383
377.80 0.4388
377.90 0.4393
378.00 0.4397
378.10 0.4402
378.20 0.4407
378.30 0.4411
378.40 0.4416
378.50 0.4421
378.60 0.4425
378.70 0.443
378.80 0.4435
378.90 0.444
379.00 0.4444
379.10 0.4449
379.20 0.4454
379.30 0.4458
379.40 0.4463
379.50 0.4468
379.60 0.4473
379.70 0.4477
379.80 0.4482
379.90 0.4487
380.00 0.4491
380.10 0.4496
380.20 0.4501
380.30 0.4506
380.40 0.451
380.50 0.4515
380.60 0.452
380.70 0.4524
380.80 0.4529
380.90 0.4534
381.00 0.4539
381.10 0.4543
381.20 0.4548
381.30 0.4553
381.40 0.4557
381.50 0.4562
381.60 0.4567
381.70 0.4571
381.80 0.4576
381.90 0.4581
382.00 0.4586
382.10 0.459
382.20 0.4595
382.30 0.46
382.40 0.4605
382.50 0.4609
382.60 0.4614
382.70 0.4619
382.80 0.4624
382.90 0.4628
383.00 0.4633
383.10 0.4638
383.20 0.4642
383.30 0.4647
383.40 0.4652
383.50 0.4657
383.60 0.4661
383.70 0.4666
383.80 0.4671
383.90 0.4676
384.00 0.468
384.10 0.4685
384.20 0.469
384.30 0.4695
384.40 0.4699
384.50 0.4704
384.60 0.4709
384.70 0.4713
384.80 0.4718
384.90 0.4723
385.00 0.4728
385.10 0.4733
385.20 0.4737
385.30 0.4742
385.40 0.4747
385.50 0.4752
385.60 0.4756
385.70 0.4761
385.80 0.4766
385.90 0.4771
386.00 0.4775
386.10 0.478
386.20 0.4785
386.30 0.479
386.40 0.4794
386.50 0.4799
386.60 0.4804
386.70 0.4809
386.80 0.4814
386.90 0.4818
387.00 0.4823
387.10 0.4828
387.20 0.4833
387.30 0.4838
387.40 0.4842
387.50 0.4847
387.60 0.4852
387.70 0.4857
387.80 0.4861
387.90 0.4866
388.00 0.4871
388.10 0.4876
388.20 0.488
388.30 0.4885
388.40 0.489
388.50 0.4895
388.60 0.49
388.70 0.4904
388.80 0.4909
388.90 0.4914
389.00 0.4919
389.10 0.4923
389.20 0.4928
389.30 0.4933
389.40 0.4938
389.50 0.4943
389.60 0.4948
389.70 0.4952
389.80 0.4957
389.90 0.4962
390.00 0.4967
390.10 0.4972
390.20 0.4976
390.30 0.4981
390.40 0.4986
390.50 0.4991
390.60 0.4996
390.70 0.5
390.80 0.5005
390.90 0.501
391.00 0.5015
391.10 0.5019
391.20 0.5024
391.30 0.5029
391.40 0.5034
391.50 0.5039
391.60 0.5043
391.70 0.5048
391.80 0.5053
391.90 0.5058
392.00 0.5063
392.10 0.5067
392.20 0.5072
392.30 0.5077
392.40 0.5082
392.50 0.5087
392.60 0.5091
392.70 0.5096
392.80 0.5101
392.90 0.5106
393.00 0.5111
393.10 0.5116
393.20 0.512
393.30 0.5125
393.40 0.513
393.50 0.5135
393.60 0.514
393.70 0.5145
393.80 0.5149
393.90 0.5154
394.00 0.5159
394.10 0.5164
394.20 0.5169
394.30 0.5174
394.40 0.5178
394.50 0.5183
394.60 0.5188
394.70 0.5193
394.80 0.5197
394.90 0.5202
395.00 0.5207
395.10 0.5212
395.20 0.5217
395.30 0.5222
395.40 0.5226
395.50 0.5231
395.60 0.5236
395.70 0.5241
395.80 0.5246
395.90 0.5251
396.00 0.5256
396.10 0.526
396.20 0.5265
396.30 0.527
396.40 0.5275
396.50 0.528
396.60 0.5284
396.70 0.5289
396.80 0.5294
396.90 0.5299
397.00 0.5304
397.10 0.5309
397.20 0.5313
397.30 0.5318
397.40 0.5323
397.50 0.5328
397.60 0.5333
397.70 0.5338
397.80 0.5342
397.90 0.5347
398.00 0.5352
398.10 0.5357
398.20 0.5362
398.30 0.5367
398.40 0.5372
398.50 0.5376
398.60 0.5381
398.70 0.5386
398.80 0.5391
398.90 0.5396
399.00 0.5401
399.10 0.5405
399.20 0.541
399.30 0.5415
399.40 0.542
399.50 0.5425
399.60 0.543
399.70 0.5435
399.80 0.5439
399.90 0.5444
400.00 0.5449
400.10 0.5454
400.20 0.5459
400.30 0.5463
400.40 0.5468
400.50 0.5473
400.60 0.5478
400.70 0.5483
400.80 0.5488
400.90 0.5493
401.00 0.5497
401.10 0.5502
401.20 0.5507
401.30 0.5512
401.40 0.5517
401.50 0.5522
401.60 0.5527
401.70 0.5531
401.80 0.5536
401.90 0.5541
402.00 0.5546
402.10 0.5551
402.20 0.5556
402.30 0.556
402.40 0.5565
402.50 0.557
402.60 0.5575
402.70 0.558
402.80 0.5585
402.90 0.559
403.00 0.5595
403.10 0.5599
403.20 0.5604
403.30 0.5609
403.40 0.5614
403.50 0.5619
403.60 0.5624
403.70 0.5628
403.80 0.5633
403.90 0.5638
404.00 0.5643
404.10 0.5648
404.20 0.5653
404.30 0.5658
404.40 0.5663
404.50 0.5667
404.60 0.5672
404.70 0.5677
404.80 0.5682
404.90 0.5687
405.00 0.5692
405.10 0.5696
405.20 0.5701
405.30 0.5706
405.40 0.5711
405.50 0.5716
405.60 0.5721
405.70 0.5726
405.80 0.5731
405.90 0.5736
406.00 0.574
406.10 0.5745
406.20 0.575
406.30 0.5755
406.40 0.576
406.50 0.5765
406.60 0.5769
406.70 0.5774
406.80 0.5779
406.90 0.5784
407.00 0.5789
407.10 0.5794
407.20 0.5799
407.30 0.5803
407.40 0.5808
407.50 0.5813
407.60 0.5818
407.70 0.5823
407.80 0.5828
407.90 0.5833
408.00 0.5838
408.10 0.5843
408.20 0.5847
408.30 0.5852
408.40 0.5857
408.50 0.5862
408.60 0.5867
408.70 0.5872
408.80 0.5876
408.90 0.5881
409.00 0.5886
409.10 0.5891
409.20 0.5896
409.30 0.5901
409.40 0.5906
409.50 0.591
409.60 0.5915
409.70 0.592
409.80 0.5925
409.90 0.593
410.00 0.5935
410.10 0.594
410.20 0.5944
410.30 0.5949
410.40 0.5954
410.50 0.5959
410.60 0.5964
410.70 0.5969
410.80 0.5974
410.90 0.5979
411.00 0.5984
411.10 0.5988
411.20 0.5993
411.30 0.5998
411.40 0.6003
411.50 0.6008
411.60 0.6013
411.70 0.6018
411.80 0.6022
411.90 0.6027
412.00 0.6032
412.10 0.6037
412.20 0.6042
412.30 0.6047
412.40 0.6052
412.50 0.6056
412.60 0.6061
412.70 0.6066
412.80 0.6071
412.90 0.6076
413.00 0.6081
413.10 0.6086
413.20 0.609
413.30 0.6095
413.40 0.61
413.50 0.6105
413.60 0.611
413.70 0.6115
413.80 0.612
413.90 0.6124
414.00 0.6129
414.10 0.6134
414.20 0.6139
414.30 0.6144
414.40 0.6149
414.50 0.6154
414.60 0.6158
414.70 0.6163
414.80 0.6168
414.90 0.6173
415.00 0.6178
415.10 0.6183
415.20 0.6188
415.30 0.6193
415.40 0.6198
415.50 0.6202
415.60 0.6207
415.70 0.6212
415.80 0.6217
415.90 0.6222
416.00 0.6227
416.10 0.6231
416.20 0.6236
416.30 0.6241
416.40 0.6246
416.50 0.6251
416.60 0.6256
416.70 0.6261
416.80 0.6266
416.90 0.627
417.00 0.6275
417.10 0.628
417.20 0.6285
417.30 0.629
417.40 0.6295
417.50 0.63
417.60 0.6304
417.70 0.6309
417.80 0.6314
417.90 0.6319
418.00 0.6324
418.10 0.6329
418.20 0.6334
418.30 0.6338
418.40 0.6343
418.50 0.6348
418.60 0.6353
418.70 0.6358
418.80 0.6363
418.90 0.6367
419.00 0.6372
419.10 0.6377
419.20 0.6382
419.30 0.6387
419.40 0.6392
419.50 0.6397
419.60 0.6401
419.70 0.6406
419.80 0.6411
419.90 0.6416
420.00 0.6421
420.10 0.6426
420.20 0.6431
420.30 0.6436
420.40 0.644
420.50 0.6445
420.60 0.645
420.70 0.6455
420.80 0.646
420.90 0.6464
421.00 0.6469
421.10 0.6474
421.20 0.6479
421.30 0.6484
421.40 0.6489
421.50 0.6494
421.60 0.6499
421.70 0.6503
421.80 0.6508
421.90 0.6513
422.00 0.6518
422.10 0.6523
422.20 0.6528
422.30 0.6532
422.40 0.6537
422.50 0.6542
422.60 0.6547
422.70 0.6552
422.80 0.6557
422.90 0.6562
423.00 0.6566
423.10 0.6571
423.20 0.6576
423.30 0.6581
423.40 0.6586
423.50 0.6591
423.60 0.6595
423.70 0.66
423.80 0.6605
423.90 0.661
424.00 0.6615
424.10 0.662
424.20 0.6625
424.30 0.6629
424.40 0.6634
424.50 0.6639
424.60 0.6644
424.70 0.6649
424.80 0.6653
424.90 0.6658
425.00 0.6663
425.10 0.6668
425.20 0.6673
425.30 0.6677
425.40 0.6682
425.50 0.6687
425.60 0.6692
425.70 0.6697
425.80 0.6702
425.90 0.6707
426.00 0.6711
426.10 0.6716
426.20 0.6721
426.30 0.6726
426.40 0.6731
426.50 0.6735
426.60 0.674
426.70 0.6745
426.80 0.675
426.90 0.6755
427.00 0.676
427.10 0.6764
427.20 0.6769
427.30 0.6774
427.40 0.6779
427.50 0.6784
427.60 0.6789
427.70 0.6793
427.80 0.6798
427.90 0.6803
428.00 0.6808
428.10 0.6813
428.20 0.6817
428.30 0.6822
428.40 0.6827
428.50 0.6832
428.60 0.6837
428.70 0.6842
428.80 0.6846
428.90 0.6851
429.00 0.6856
429.10 0.6861
429.20 0.6866
429.30 0.687
429.40 0.6875
429.50 0.688
429.60 0.6885
429.70 0.689
429.80 0.6895
429.90 0.6899
430.00 0.6904
430.10 0.6909
430.20 0.6914
430.30 0.6919
430.40 0.6923
430.50 0.6928
430.60 0.6933
430.70 0.6938
430.80 0.6943
430.90 0.6948
431.00 0.6952
431.10 0.6957
431.20 0.6962
431.30 0.6967
431.40 0.6971
431.50 0.6976
431.60 0.6981
431.70 0.6986
431.80 0.6991
431.90 0.6995
432.00 0.7
432.10 0.7005
432.20 0.701
432.30 0.7015
432.40 0.702
432.50 0.7024
432.60 0.7029
432.70 0.7034
432.80 0.7039
432.90 0.7043
433.00 0.7048
433.10 0.7053
433.20 0.7058
433.30 0.7063
433.40 0.7067
433.50 0.7072
433.60 0.7077
433.70 0.7082
433.80 0.7086
433.90 0.7091
434.00 0.7096
434.10 0.7101
434.20 0.7106
434.30 0.711
434.40 0.7115
434.50 0.712
434.60 0.7125
434.70 0.713
434.80 0.7134
434.90 0.7139
435.00 0.7144
435.10 0.7149
435.20 0.7153
435.30 0.7158
435.40 0.7163
435.50 0.7168
435.60 0.7172
435.70 0.7177
435.80 0.7182
435.90 0.7187
436.00 0.7192
436.10 0.7196
436.20 0.7201
436.30 0.7206
436.40 0.7211
436.50 0.7215
436.60 0.722
436.70 0.7225
436.80 0.723
436.90 0.7235
437.00 0.7239
437.10 0.7244
437.20 0.7249
437.30 0.7254
437.40 0.7258
437.50 0.7263
437.60 0.7268
437.70 0.7273
437.80 0.7278
437.90 0.7282
438.00 0.7287
438.10 0.7292
438.20 0.7296
438.30 0.7301
438.40 0.7306
438.50 0.7311
438.60 0.7315
438.70 0.732
438.80 0.7325
438.90 0.733
439.00 0.7335
439.10 0.7339
439.20 0.7344
439.30 0.7349
439.40 0.7353
439.50 0.7358
439.60 0.7363
439.70 0.7368
439.80 0.7372
439.90 0.7377
440.00 0.7382
440.10 0.7387
440.20 0.7391
440.30 0.7396
440.40 0.7401
440.50 0.7405
440.60 0.741
440.70 0.7415
440.80 0.742
440.90 0.7424
441.00 0.7429
441.10 0.7434
441.20 0.7439
441.30 0.7443
441.40 0.7448
441.50 0.7453
441.60 0.7458
441.70 0.7462
441.80 0.7467
441.90 0.7472
442.00 0.7477
442.10 0.7481
442.20 0.7486
442.30 0.7491
442.40 0.7495
442.50 0.75
442.60 0.7505
442.70 0.7509
442.80 0.7514
442.90 0.7519
443.00 0.7524
443.10 0.7528
