# Version 2.1 - nm, norm@500 to 1, cut digits, bergeron_1500_85.dat_1500
# Wavelength(nm)  Flambda(ergs/cm^s/s/nm)
300.00 0.02379
300.10 0.02389
300.20 0.024
300.30 0.0241
300.40 0.02421
300.50 0.02431
300.60 0.02442
300.70 0.02452
300.80 0.02463
300.90 0.02473
301.00 0.02484
301.10 0.02494
301.20 0.02505
301.30 0.02515
301.40 0.02526
301.50 0.02536
301.60 0.02546
301.70 0.02557
301.80 0.02567
301.90 0.02578
302.00 0.02588
302.10 0.02599
302.20 0.0261
302.30 0.02621
302.40 0.02632
302.50 0.02643
302.60 0.02654
302.70 0.02665
302.80 0.02676
302.90 0.02687
303.00 0.02698
303.10 0.02709
303.20 0.02719
303.30 0.0273
303.40 0.02741
303.50 0.02752
303.60 0.02763
303.70 0.02774
303.80 0.02784
303.90 0.02795
304.00 0.02806
304.10 0.02818
304.20 0.02829
304.30 0.02841
304.40 0.02852
304.50 0.02864
304.60 0.02875
304.70 0.02886
304.80 0.02898
304.90 0.02909
305.00 0.02921
305.10 0.02932
305.20 0.02943
305.30 0.02955
305.40 0.02966
305.50 0.02978
305.60 0.02989
305.70 0.03
305.80 0.03011
305.90 0.03023
306.00 0.03034
306.10 0.03046
306.20 0.03058
306.30 0.0307
306.40 0.03082
306.50 0.03094
306.60 0.03106
306.70 0.03118
306.80 0.0313
306.90 0.03142
307.00 0.03154
307.10 0.03166
307.20 0.03178
307.30 0.03189
307.40 0.03201
307.50 0.03213
307.60 0.03225
307.70 0.03237
307.80 0.03249
307.90 0.0326
308.00 0.03273
308.10 0.03285
308.20 0.03297
308.30 0.0331
308.40 0.03322
308.50 0.03335
308.60 0.03347
308.70 0.0336
308.80 0.03372
308.90 0.03385
309.00 0.03397
309.10 0.0341
309.20 0.03422
309.30 0.03435
309.40 0.03447
309.50 0.03459
309.60 0.03472
309.70 0.03484
309.80 0.03496
309.90 0.03509
310.00 0.03522
310.10 0.03535
310.20 0.03548
310.30 0.03561
310.40 0.03574
310.50 0.03587
310.60 0.036
310.70 0.03613
310.80 0.03626
310.90 0.03639
311.00 0.03653
311.10 0.03666
311.20 0.03679
311.30 0.03692
311.40 0.03705
311.50 0.03718
311.60 0.03731
311.70 0.03744
311.80 0.03756
311.90 0.03769
312.00 0.03782
312.10 0.03795
312.20 0.03808
312.30 0.03822
312.40 0.03836
312.50 0.03849
312.60 0.03863
312.70 0.03877
312.80 0.03891
312.90 0.03904
313.00 0.03918
313.10 0.03932
313.20 0.03945
313.30 0.03959
313.40 0.03973
313.50 0.03986
313.60 0.04
313.70 0.04013
313.80 0.04027
313.90 0.0404
314.00 0.04054
314.10 0.04068
314.20 0.04083
314.30 0.04097
314.40 0.04111
314.50 0.04126
314.60 0.0414
314.70 0.04154
314.80 0.04169
314.90 0.04183
315.00 0.04197
315.10 0.04211
315.20 0.04225
315.30 0.0424
315.40 0.04254
315.50 0.04268
315.60 0.04282
315.70 0.04296
315.80 0.0431
315.90 0.04325
316.00 0.04339
316.10 0.04354
316.20 0.04369
316.30 0.04384
316.40 0.04399
316.50 0.04414
316.60 0.04429
316.70 0.04443
316.80 0.04458
316.90 0.04473
317.00 0.04488
317.10 0.04503
317.20 0.04518
317.30 0.04533
317.40 0.04548
317.50 0.04562
317.60 0.04577
317.70 0.04592
317.80 0.04607
317.90 0.04622
318.00 0.04637
318.10 0.04652
318.20 0.04667
318.30 0.04683
318.40 0.04699
318.50 0.04714
318.60 0.0473
318.70 0.04746
318.80 0.04761
318.90 0.04777
319.00 0.04792
319.10 0.04808
319.20 0.04823
319.30 0.04839
319.40 0.04854
319.50 0.0487
319.60 0.04885
319.70 0.049
319.80 0.04916
319.90 0.04931
320.00 0.04947
320.10 0.04963
320.20 0.04979
320.30 0.04996
320.40 0.05012
320.50 0.05028
320.60 0.05045
320.70 0.05061
320.80 0.05077
320.90 0.05094
321.00 0.0511
321.10 0.05126
321.20 0.05142
321.30 0.05159
321.40 0.05175
321.50 0.05191
321.60 0.05207
321.70 0.05223
321.80 0.05239
321.90 0.05255
322.00 0.05272
322.10 0.05289
322.20 0.05306
322.30 0.05323
322.40 0.0534
322.50 0.05357
322.60 0.05374
322.70 0.05391
322.80 0.05408
322.90 0.05425
323.00 0.05442
323.10 0.05458
323.20 0.05475
323.30 0.05492
323.40 0.05509
323.50 0.05526
323.60 0.05543
323.70 0.05559
323.80 0.05576
323.90 0.05593
324.00 0.0561
324.10 0.05627
324.20 0.05645
324.30 0.05663
324.40 0.05681
324.50 0.05699
324.60 0.05716
324.70 0.05734
324.80 0.05752
324.90 0.05769
325.00 0.05787
325.10 0.05805
325.20 0.05822
325.30 0.0584
325.40 0.05857
325.50 0.05875
325.60 0.05893
325.70 0.0591
325.80 0.05927
325.90 0.05945
326.00 0.05963
326.10 0.05981
326.20 0.06
326.30 0.06018
326.40 0.06037
326.50 0.06055
326.60 0.06074
326.70 0.06092
326.80 0.06111
326.90 0.06129
327.00 0.06147
327.10 0.06166
327.20 0.06184
327.30 0.06202
327.40 0.06221
327.50 0.06239
327.60 0.06257
327.70 0.06275
327.80 0.06294
327.90 0.06312
328.00 0.06331
328.10 0.0635
328.20 0.06369
328.30 0.06388
328.40 0.06407
328.50 0.06427
328.60 0.06446
328.70 0.06465
328.80 0.06484
328.90 0.06503
329.00 0.06522
329.10 0.06542
329.20 0.06561
329.30 0.0658
329.40 0.06599
329.50 0.06618
329.60 0.06637
329.70 0.06656
329.80 0.06675
329.90 0.06694
330.00 0.06713
330.10 0.06733
330.20 0.06753
330.30 0.06773
330.40 0.06793
330.50 0.06813
330.60 0.06833
330.70 0.06853
330.80 0.06873
330.90 0.06893
331.00 0.06913
331.10 0.06933
331.20 0.06953
331.30 0.06972
331.40 0.06992
331.50 0.07012
331.60 0.07032
331.70 0.07051
331.80 0.07071
331.90 0.07091
332.00 0.0711
332.10 0.07131
332.20 0.07152
332.30 0.07173
332.40 0.07194
332.50 0.07215
332.60 0.07236
332.70 0.07256
332.80 0.07277
332.90 0.07298
333.00 0.07318
333.10 0.07339
333.20 0.0736
333.30 0.0738
333.40 0.07401
333.50 0.07422
333.60 0.07442
333.70 0.07463
333.80 0.07483
333.90 0.07503
334.00 0.07524
334.10 0.07546
334.20 0.07567
334.30 0.07589
334.40 0.07611
334.50 0.07632
334.60 0.07654
334.70 0.07676
334.80 0.07697
334.90 0.07719
335.00 0.0774
335.10 0.07762
335.20 0.07783
335.30 0.07804
335.40 0.07826
335.50 0.07847
335.60 0.07869
335.70 0.0789
335.80 0.07911
335.90 0.07932
336.00 0.07954
336.10 0.07976
336.20 0.07999
336.30 0.08021
336.40 0.08044
336.50 0.08066
336.60 0.08088
336.70 0.08111
336.80 0.08133
336.90 0.08155
337.00 0.08178
337.10 0.082
337.20 0.08222
337.30 0.08244
337.40 0.08267
337.50 0.08289
337.60 0.08311
337.70 0.08333
337.80 0.08355
337.90 0.08377
338.00 0.08399
338.10 0.08422
338.20 0.08446
338.30 0.08469
338.40 0.08492
338.50 0.08516
338.60 0.08539
338.70 0.08562
338.80 0.08585
338.90 0.08608
339.00 0.08632
339.10 0.08655
339.20 0.08678
339.30 0.08701
339.40 0.08724
339.50 0.08747
339.60 0.0877
339.70 0.08793
339.80 0.08816
339.90 0.08838
340.00 0.08861
340.10 0.08885
340.20 0.0891
340.30 0.08934
340.40 0.08958
340.50 0.08982
340.60 0.09006
340.70 0.0903
340.80 0.09054
340.90 0.09078
341.00 0.09102
341.10 0.09126
341.20 0.0915
341.30 0.09174
341.40 0.09197
341.50 0.09221
341.60 0.09245
341.70 0.09269
341.80 0.09292
341.90 0.09316
342.00 0.0934
342.10 0.09365
342.20 0.0939
342.30 0.09415
342.40 0.0944
342.50 0.09465
342.60 0.0949
342.70 0.09515
342.80 0.09539
342.90 0.09564
343.00 0.09589
343.10 0.09614
343.20 0.09639
343.30 0.09663
343.40 0.09688
343.50 0.09713
343.60 0.09737
343.70 0.09762
343.80 0.09786
343.90 0.09811
344.00 0.09835
344.10 0.09861
344.20 0.09887
344.30 0.09913
344.40 0.09939
344.50 0.09965
344.60 0.0999
344.70 0.1002
344.80 0.1004
344.90 0.1007
345.00 0.1009
345.10 0.1012
345.20 0.1014
345.30 0.1017
345.40 0.102
345.50 0.1022
345.60 0.1025
345.70 0.1027
345.80 0.103
345.90 0.1032
346.00 0.1035
346.10 0.1037
346.20 0.104
346.30 0.1043
346.40 0.1045
346.50 0.1048
346.60 0.1051
346.70 0.1053
346.80 0.1056
346.90 0.1059
347.00 0.1061
347.10 0.1064
347.20 0.1067
347.30 0.1069
347.40 0.1072
347.50 0.1075
347.60 0.1077
347.70 0.108
347.80 0.1083
347.90 0.1085
348.00 0.1088
348.10 0.1091
348.20 0.1093
348.30 0.1096
348.40 0.1099
348.50 0.1102
348.60 0.1104
348.70 0.1107
348.80 0.111
348.90 0.1113
349.00 0.1115
349.10 0.1118
349.20 0.1121
349.30 0.1124
349.40 0.1126
349.50 0.1129
349.60 0.1132
349.70 0.1134
349.80 0.1137
349.90 0.114
350.00 0.1143
350.10 0.1145
350.20 0.1148
350.30 0.1151
350.40 0.1154
350.50 0.1157
350.60 0.116
350.70 0.1162
350.80 0.1165
350.90 0.1168
351.00 0.1171
351.10 0.1174
351.20 0.1177
351.30 0.1179
351.40 0.1182
351.50 0.1185
351.60 0.1188
351.70 0.1191
351.80 0.1193
351.90 0.1196
352.00 0.1199
352.10 0.1202
352.20 0.1205
352.30 0.1208
352.40 0.1211
352.50 0.1214
352.60 0.1217
352.70 0.122
352.80 0.1222
352.90 0.1225
353.00 0.1228
353.10 0.1231
353.20 0.1234
353.30 0.1237
353.40 0.124
353.50 0.1243
353.60 0.1246
353.70 0.1249
353.80 0.1252
353.90 0.1254
354.00 0.1257
354.10 0.126
354.20 0.1263
354.30 0.1266
354.40 0.1269
354.50 0.1272
354.60 0.1275
354.70 0.1278
354.80 0.1281
354.90 0.1284
355.00 0.1287
355.10 0.129
355.20 0.1293
355.30 0.1296
355.40 0.1299
355.50 0.1302
355.60 0.1305
355.70 0.1308
355.80 0.1311
355.90 0.1314
356.00 0.1317
356.10 0.132
356.20 0.1324
356.30 0.1327
356.40 0.133
356.50 0.1333
356.60 0.1336
356.70 0.1339
356.80 0.1342
356.90 0.1345
357.00 0.1348
357.10 0.1352
357.20 0.1355
357.30 0.1358
357.40 0.1361
357.50 0.1364
357.60 0.1367
357.70 0.137
357.80 0.1373
357.90 0.1376
358.00 0.1379
358.10 0.1382
358.20 0.1386
358.30 0.1389
358.40 0.1392
358.50 0.1395
358.60 0.1398
358.70 0.1402
358.80 0.1405
358.90 0.1408
359.00 0.1411
359.10 0.1414
359.20 0.1418
359.30 0.1421
359.40 0.1424
359.50 0.1427
359.60 0.143
359.70 0.1433
359.80 0.1437
359.90 0.144
360.00 0.1443
360.10 0.1446
360.20 0.145
360.30 0.1453
360.40 0.1456
360.50 0.1459
360.60 0.1463
360.70 0.1466
360.80 0.1469
360.90 0.1473
361.00 0.1476
361.10 0.1479
361.20 0.1482
361.30 0.1486
361.40 0.1489
361.50 0.1492
361.60 0.1495
361.70 0.1499
361.80 0.1502
361.90 0.1505
362.00 0.1508
362.10 0.1512
362.20 0.1515
362.30 0.1518
362.40 0.1522
362.50 0.1525
362.60 0.1529
362.70 0.1532
362.80 0.1535
362.90 0.1539
363.00 0.1542
363.10 0.1545
363.20 0.1549
363.30 0.1552
363.40 0.1556
363.50 0.1559
363.60 0.1562
363.70 0.1566
363.80 0.1569
363.90 0.1573
364.00 0.1576
364.10 0.1579
364.20 0.1583
364.30 0.1586
364.40 0.159
364.50 0.1593
364.60 0.1596
364.70 0.16
364.80 0.1603
364.90 0.1607
365.00 0.161
365.10 0.1614
365.20 0.1617
365.30 0.1621
365.40 0.1624
365.50 0.1628
365.60 0.1631
365.70 0.1635
365.80 0.1638
365.90 0.1642
366.00 0.1645
366.10 0.1649
366.20 0.1652
366.30 0.1656
366.40 0.1659
366.50 0.1663
366.60 0.1666
366.70 0.167
366.80 0.1674
366.90 0.1677
367.00 0.1681
367.10 0.1684
367.20 0.1688
367.30 0.1691
367.40 0.1695
367.50 0.1698
367.60 0.1702
367.70 0.1705
367.80 0.1709
367.90 0.1713
368.00 0.1716
368.10 0.172
368.20 0.1723
368.30 0.1727
368.40 0.1731
368.50 0.1734
368.60 0.1738
368.70 0.1742
368.80 0.1745
368.90 0.1749
369.00 0.1753
369.10 0.1756
369.20 0.176
369.30 0.1764
369.40 0.1767
369.50 0.1771
369.60 0.1774
369.70 0.1778
369.80 0.1782
369.90 0.1785
370.00 0.1789
370.10 0.1793
370.20 0.1796
370.30 0.18
370.40 0.1804
370.50 0.1808
370.60 0.1812
370.70 0.1815
370.80 0.1819
370.90 0.1823
371.00 0.1827
371.10 0.183
371.20 0.1834
371.30 0.1838
371.40 0.1841
371.50 0.1845
371.60 0.1849
371.70 0.1853
371.80 0.1856
371.90 0.186
372.00 0.1864
372.10 0.1868
372.20 0.1871
372.30 0.1875
372.40 0.1879
372.50 0.1883
372.60 0.1887
372.70 0.1891
372.80 0.1895
372.90 0.1898
373.00 0.1902
373.10 0.1906
373.20 0.191
373.30 0.1914
373.40 0.1918
373.50 0.1921
373.60 0.1925
373.70 0.1929
373.80 0.1933
373.90 0.1937
374.00 0.194
374.10 0.1944
374.20 0.1948
374.30 0.1952
374.40 0.1956
374.50 0.196
374.60 0.1964
374.70 0.1968
374.80 0.1972
374.90 0.1976
375.00 0.198
375.10 0.1984
375.20 0.1988
375.30 0.1992
375.40 0.1996
375.50 0.1999
375.60 0.2003
375.70 0.2007
375.80 0.2011
375.90 0.2015
376.00 0.2019
376.10 0.2023
376.20 0.2027
376.30 0.2031
376.40 0.2035
376.50 0.2039
376.60 0.2043
376.70 0.2047
376.80 0.2051
376.90 0.2055
377.00 0.2059
377.10 0.2063
377.20 0.2067
377.30 0.2071
377.40 0.2075
377.50 0.2079
377.60 0.2083
377.70 0.2087
377.80 0.2091
377.90 0.2095
378.00 0.2099
378.10 0.2103
378.20 0.2108
378.30 0.2112
378.40 0.2116
378.50 0.212
378.60 0.2124
378.70 0.2128
378.80 0.2132
378.90 0.2136
379.00 0.214
379.10 0.2144
379.20 0.2149
379.30 0.2153
379.40 0.2157
379.50 0.2161
379.60 0.2165
379.70 0.2169
379.80 0.2173
379.90 0.2178
380.00 0.2182
380.10 0.2186
380.20 0.219
380.30 0.2194
380.40 0.2198
380.50 0.2203
380.60 0.2207
380.70 0.2211
380.80 0.2215
380.90 0.2219
381.00 0.2224
381.10 0.2228
381.20 0.2232
381.30 0.2236
381.40 0.224
381.50 0.2245
381.60 0.2249
381.70 0.2253
381.80 0.2257
381.90 0.2262
382.00 0.2266
382.10 0.227
382.20 0.2274
382.30 0.2279
382.40 0.2283
382.50 0.2287
382.60 0.2292
382.70 0.2296
382.80 0.23
382.90 0.2304
383.00 0.2309
383.10 0.2313
383.20 0.2317
383.30 0.2322
383.40 0.2326
383.50 0.233
383.60 0.2335
383.70 0.2339
383.80 0.2343
383.90 0.2348
384.00 0.2352
384.10 0.2356
384.20 0.236
384.30 0.2365
384.40 0.2369
384.50 0.2374
384.60 0.2378
384.70 0.2383
384.80 0.2387
384.90 0.2391
385.00 0.2396
385.10 0.24
385.20 0.2405
385.30 0.2409
385.40 0.2413
385.50 0.2418
385.60 0.2422
385.70 0.2427
385.80 0.2431
385.90 0.2435
386.00 0.244
386.10 0.2444
386.20 0.2449
386.30 0.2453
386.40 0.2458
386.50 0.2462
386.60 0.2467
386.70 0.2471
386.80 0.2476
386.90 0.248
387.00 0.2484
387.10 0.2489
387.20 0.2494
387.30 0.2498
387.40 0.2502
387.50 0.2507
387.60 0.2512
387.70 0.2516
387.80 0.2521
387.90 0.2525
388.00 0.253
388.10 0.2534
388.20 0.2539
388.30 0.2543
388.40 0.2548
388.50 0.2552
388.60 0.2557
388.70 0.2562
388.80 0.2566
388.90 0.2571
389.00 0.2575
389.10 0.258
389.20 0.2585
389.30 0.2589
389.40 0.2594
389.50 0.2598
389.60 0.2603
389.70 0.2607
389.80 0.2612
389.90 0.2617
390.00 0.2621
390.10 0.2626
390.20 0.2631
390.30 0.2635
390.40 0.264
390.50 0.2645
390.60 0.2649
390.70 0.2654
390.80 0.2659
390.90 0.2663
391.00 0.2668
391.10 0.2673
391.20 0.2677
391.30 0.2682
391.40 0.2687
391.50 0.2691
391.60 0.2696
391.70 0.2701
391.80 0.2705
391.90 0.271
392.00 0.2715
392.10 0.272
392.20 0.2725
392.30 0.2729
392.40 0.2734
392.50 0.2739
392.60 0.2743
392.70 0.2748
392.80 0.2753
392.90 0.2758
393.00 0.2762
393.10 0.2767
393.20 0.2772
393.30 0.2777
393.40 0.2782
393.50 0.2786
393.60 0.2791
393.70 0.2796
393.80 0.2801
393.90 0.2806
394.00 0.281
394.10 0.2815
394.20 0.282
394.30 0.2825
394.40 0.283
394.50 0.2835
394.60 0.2839
394.70 0.2844
394.80 0.2849
394.90 0.2854
395.00 0.2859
395.10 0.2864
395.20 0.2869
395.30 0.2873
395.40 0.2878
395.50 0.2883
395.60 0.2888
395.70 0.2893
395.80 0.2898
395.90 0.2903
396.00 0.2908
396.10 0.2913
396.20 0.2918
396.30 0.2922
396.40 0.2928
396.50 0.2932
396.60 0.2937
396.70 0.2942
396.80 0.2947
396.90 0.2952
397.00 0.2957
397.10 0.2962
397.20 0.2967
397.30 0.2972
397.40 0.2977
397.50 0.2982
397.60 0.2987
397.70 0.2992
397.80 0.2997
397.90 0.3002
398.00 0.3007
398.10 0.3012
398.20 0.3017
398.30 0.3022
398.40 0.3027
398.50 0.3032
398.60 0.3037
398.70 0.3042
398.80 0.3047
398.90 0.3052
399.00 0.3057
399.10 0.3062
399.20 0.3067
399.30 0.3072
399.40 0.3077
399.50 0.3083
399.60 0.3088
399.70 0.3093
399.80 0.3098
399.90 0.3103
400.00 0.3108
400.10 0.3113
400.20 0.3118
400.30 0.3123
400.40 0.3128
400.50 0.3134
400.60 0.3139
400.70 0.3144
400.80 0.3149
400.90 0.3154
401.00 0.3159
401.10 0.3164
401.20 0.317
401.30 0.3175
401.40 0.318
401.50 0.3185
401.60 0.319
401.70 0.3195
401.80 0.32
401.90 0.3206
402.00 0.3211
402.10 0.3216
402.20 0.3221
402.30 0.3226
402.40 0.3232
402.50 0.3237
402.60 0.3242
402.70 0.3247
402.80 0.3252
402.90 0.3258
403.00 0.3263
403.10 0.3268
403.20 0.3273
403.30 0.3279
403.40 0.3284
403.50 0.3289
403.60 0.3295
403.70 0.33
403.80 0.3305
403.90 0.331
404.00 0.3315
404.10 0.3321
404.20 0.3326
404.30 0.3331
404.40 0.3337
404.50 0.3342
404.60 0.3347
404.70 0.3353
404.80 0.3358
404.90 0.3363
405.00 0.3369
405.10 0.3374
405.20 0.3379
405.30 0.3385
405.40 0.339
405.50 0.3395
405.60 0.3401
405.70 0.3406
405.80 0.3411
405.90 0.3417
406.00 0.3422
406.10 0.3427
406.20 0.3433
406.30 0.3438
406.40 0.3444
406.50 0.3449
406.60 0.3454
406.70 0.346
406.80 0.3465
406.90 0.3471
407.00 0.3476
407.10 0.3481
407.20 0.3487
407.30 0.3492
407.40 0.3498
407.50 0.3503
407.60 0.3509
407.70 0.3514
407.80 0.3519
407.90 0.3525
408.00 0.353
408.10 0.3536
408.20 0.3541
408.30 0.3547
408.40 0.3552
408.50 0.3558
408.60 0.3563
408.70 0.3569
408.80 0.3574
408.90 0.358
409.00 0.3585
409.10 0.3591
409.20 0.3596
409.30 0.3602
409.40 0.3607
409.50 0.3613
409.60 0.3618
409.70 0.3624
409.80 0.3629
409.90 0.3635
410.00 0.3641
410.10 0.3646
410.20 0.3652
410.30 0.3657
410.40 0.3663
410.50 0.3668
410.60 0.3674
410.70 0.3679
410.80 0.3685
410.90 0.3691
411.00 0.3696
411.10 0.3702
411.20 0.3707
411.30 0.3713
411.40 0.3719
411.50 0.3724
411.60 0.373
411.70 0.3736
411.80 0.3741
411.90 0.3747
412.00 0.3752
412.10 0.3758
412.20 0.3764
412.30 0.3769
412.40 0.3775
412.50 0.3781
412.60 0.3786
412.70 0.3792
412.80 0.3798
412.90 0.3803
413.00 0.3809
413.10 0.3815
413.20 0.382
413.30 0.3826
413.40 0.3832
413.50 0.3838
413.60 0.3843
413.70 0.3849
413.80 0.3855
413.90 0.386
414.00 0.3866
414.10 0.3872
414.20 0.3878
414.30 0.3883
414.40 0.3889
414.50 0.3895
414.60 0.3901
414.70 0.3906
414.80 0.3912
414.90 0.3918
415.00 0.3924
415.10 0.3929
415.20 0.3935
415.30 0.3941
415.40 0.3947
415.50 0.3952
415.60 0.3958
415.70 0.3964
415.80 0.397
415.90 0.3976
416.00 0.3982
416.10 0.3987
416.20 0.3993
416.30 0.3999
416.40 0.4005
416.50 0.4011
416.60 0.4017
416.70 0.4022
416.80 0.4028
416.90 0.4034
417.00 0.404
417.10 0.4046
417.20 0.4052
417.30 0.4057
417.40 0.4063
417.50 0.4069
417.60 0.4075
417.70 0.4081
417.80 0.4087
417.90 0.4093
418.00 0.4099
418.10 0.4105
418.20 0.411
418.30 0.4116
418.40 0.4122
418.50 0.4128
418.60 0.4134
418.70 0.414
418.80 0.4146
418.90 0.4152
419.00 0.4158
419.10 0.4164
419.20 0.417
419.30 0.4176
419.40 0.4182
419.50 0.4188
419.60 0.4194
419.70 0.42
419.80 0.4206
419.90 0.4212
420.00 0.4218
420.10 0.4224
420.20 0.423
420.30 0.4236
420.40 0.4242
420.50 0.4248
420.60 0.4254
420.70 0.426
420.80 0.4266
420.90 0.4272
421.00 0.4278
421.10 0.4284
421.20 0.429
421.30 0.4296
421.40 0.4302
421.50 0.4308
421.60 0.4314
421.70 0.432
421.80 0.4326
421.90 0.4332
422.00 0.4338
422.10 0.4344
422.20 0.435
422.30 0.4356
422.40 0.4363
422.50 0.4369
422.60 0.4375
422.70 0.4381
422.80 0.4387
422.90 0.4393
423.00 0.4399
423.10 0.4405
423.20 0.4411
423.30 0.4417
423.40 0.4424
423.50 0.443
423.60 0.4436
423.70 0.4442
423.80 0.4448
423.90 0.4454
424.00 0.4461
424.10 0.4467
424.20 0.4473
424.30 0.4479
424.40 0.4485
424.50 0.4491
424.60 0.4498
424.70 0.4504
424.80 0.451
424.90 0.4516
425.00 0.4522
425.10 0.4528
425.20 0.4535
425.30 0.4541
425.40 0.4547
425.50 0.4553
425.60 0.4559
425.70 0.4566
425.80 0.4572
425.90 0.4578
426.00 0.4584
426.10 0.4591
426.20 0.4597
426.30 0.4603
426.40 0.4609
426.50 0.4616
426.60 0.4622
426.70 0.4628
426.80 0.4634
426.90 0.4641
427.00 0.4647
427.10 0.4653
427.20 0.466
427.30 0.4666
427.40 0.4672
427.50 0.4679
427.60 0.4685
427.70 0.4691
427.80 0.4697
427.90 0.4704
428.00 0.471
428.10 0.4716
428.20 0.4723
428.30 0.4729
428.40 0.4735
428.50 0.4742
428.60 0.4748
428.70 0.4754
428.80 0.4761
428.90 0.4767
429.00 0.4773
429.10 0.478
429.20 0.4786
429.30 0.4793
429.40 0.4799
429.50 0.4805
429.60 0.4812
429.70 0.4818
429.80 0.4824
429.90 0.4831
430.00 0.4837
430.10 0.4844
430.20 0.485
430.30 0.4856
430.40 0.4863
430.50 0.4869
430.60 0.4876
430.70 0.4882
430.80 0.4889
430.90 0.4895
431.00 0.4901
431.10 0.4908
431.20 0.4914
431.30 0.4921
431.40 0.4927
431.50 0.4934
431.60 0.494
431.70 0.4947
431.80 0.4953
431.90 0.496
432.00 0.4966
432.10 0.4973
432.20 0.4979
432.30 0.4986
432.40 0.4992
432.50 0.4999
432.60 0.5005
432.70 0.5012
432.80 0.5018
432.90 0.5025
433.00 0.5031
433.10 0.5038
433.20 0.5044
433.30 0.5051
433.40 0.5057
433.50 0.5064
433.60 0.507
433.70 0.5077
433.80 0.5083
433.90 0.509
434.00 0.5096
434.10 0.5103
434.20 0.511
434.30 0.5116
434.40 0.5123
434.50 0.5129
434.60 0.5136
434.70 0.5142
434.80 0.5149
434.90 0.5156
435.00 0.5162
435.10 0.5169
435.20 0.5175
435.30 0.5182
435.40 0.5189
435.50 0.5195
435.60 0.5202
435.70 0.5209
435.80 0.5215
435.90 0.5222
436.00 0.5228
436.10 0.5235
436.20 0.5242
436.30 0.5248
436.40 0.5255
436.50 0.5262
436.60 0.5268
436.70 0.5275
436.80 0.5282
436.90 0.5288
437.00 0.5295
437.10 0.5302
437.20 0.5308
437.30 0.5315
437.40 0.5322
437.50 0.5328
437.60 0.5335
437.70 0.5342
437.80 0.5348
437.90 0.5355
438.00 0.5362
438.10 0.5369
438.20 0.5375
438.30 0.5382
438.40 0.5389
438.50 0.5395
438.60 0.5402
438.70 0.5409
438.80 0.5416
438.90 0.5422
439.00 0.5429
439.10 0.5436
439.20 0.5443
439.30 0.5449
439.40 0.5456
439.50 0.5463
439.60 0.547
439.70 0.5476
