# Version 2.1 - nm, norm@500 to 1, cut digits, bergeron_2750_90.dat_2750
# Wavelength(nm)  Flambda(ergs/cm^s/s/nm)
300.00 0.1057
300.10 0.1059
300.20 0.1062
300.30 0.1064
300.40 0.1067
300.50 0.1069
300.60 0.1072
300.70 0.1074
300.80 0.1077
300.90 0.1079
301.00 0.1082
301.10 0.1084
301.20 0.1087
301.30 0.1089
301.40 0.1092
301.50 0.1094
301.60 0.1097
301.70 0.1099
301.80 0.1102
301.90 0.1104
302.00 0.1107
302.10 0.1109
302.20 0.1112
302.30 0.1115
302.40 0.1117
302.50 0.112
302.60 0.1122
302.70 0.1125
302.80 0.1128
302.90 0.113
303.00 0.1133
303.10 0.1135
303.20 0.1138
303.30 0.114
303.40 0.1143
303.50 0.1145
303.60 0.1148
303.70 0.1151
303.80 0.1153
303.90 0.1156
304.00 0.1158
304.10 0.1161
304.20 0.1164
304.30 0.1166
304.40 0.1169
304.50 0.1172
304.60 0.1174
304.70 0.1177
304.80 0.118
304.90 0.1182
305.00 0.1185
305.10 0.1187
305.20 0.119
305.30 0.1193
305.40 0.1195
305.50 0.1198
305.60 0.1201
305.70 0.1203
305.80 0.1206
305.90 0.1208
306.00 0.1211
306.10 0.1214
306.20 0.1217
306.30 0.1219
306.40 0.1222
306.50 0.1225
306.60 0.1227
306.70 0.123
306.80 0.1233
306.90 0.1236
307.00 0.1238
307.10 0.1241
307.20 0.1244
307.30 0.1246
307.40 0.1249
307.50 0.1252
307.60 0.1254
307.70 0.1257
307.80 0.126
307.90 0.1262
308.00 0.1265
308.10 0.1268
308.20 0.1271
308.30 0.1274
308.40 0.1276
308.50 0.1279
308.60 0.1282
308.70 0.1285
308.80 0.1288
308.90 0.129
309.00 0.1293
309.10 0.1296
309.20 0.1299
309.30 0.1301
309.40 0.1304
309.50 0.1307
309.60 0.131
309.70 0.1312
309.80 0.1315
309.90 0.1318
310.00 0.1321
310.10 0.1324
310.20 0.1326
310.30 0.1329
310.40 0.1332
310.50 0.1335
310.60 0.1338
310.70 0.1341
310.80 0.1344
310.90 0.1347
311.00 0.1349
311.10 0.1352
311.20 0.1355
311.30 0.1358
311.40 0.1361
311.50 0.1364
311.60 0.1366
311.70 0.1369
311.80 0.1372
311.90 0.1375
312.00 0.1378
312.10 0.1381
312.20 0.1383
312.30 0.1386
312.40 0.1389
312.50 0.1392
312.60 0.1395
312.70 0.1398
312.80 0.1401
312.90 0.1404
313.00 0.1407
313.10 0.141
313.20 0.1413
313.30 0.1416
313.40 0.1418
313.50 0.1421
313.60 0.1424
313.70 0.1427
313.80 0.143
313.90 0.1433
314.00 0.1436
314.10 0.1439
314.20 0.1442
314.30 0.1445
314.40 0.1448
314.50 0.1451
314.60 0.1454
314.70 0.1457
314.80 0.146
314.90 0.1463
315.00 0.1466
315.10 0.1469
315.20 0.1472
315.30 0.1475
315.40 0.1478
315.50 0.1481
315.60 0.1484
315.70 0.1487
315.80 0.149
315.90 0.1493
316.00 0.1496
316.10 0.1499
316.20 0.1502
316.30 0.1505
316.40 0.1508
316.50 0.1511
316.60 0.1514
316.70 0.1517
316.80 0.152
316.90 0.1523
317.00 0.1526
317.10 0.1529
317.20 0.1532
317.30 0.1535
317.40 0.1538
317.50 0.1541
317.60 0.1544
317.70 0.1547
317.80 0.155
317.90 0.1553
318.00 0.1557
318.10 0.156
318.20 0.1563
318.30 0.1566
318.40 0.1569
318.50 0.1572
318.60 0.1575
318.70 0.1578
318.80 0.1582
318.90 0.1585
319.00 0.1588
319.10 0.1591
319.20 0.1594
319.30 0.1597
319.40 0.16
319.50 0.1603
319.60 0.1606
319.70 0.1609
319.80 0.1613
319.90 0.1616
320.00 0.1619
320.10 0.1622
320.20 0.1625
320.30 0.1628
320.40 0.1632
320.50 0.1635
320.60 0.1638
320.70 0.1641
320.80 0.1644
320.90 0.1648
321.00 0.1651
321.10 0.1654
321.20 0.1657
321.30 0.166
321.40 0.1663
321.50 0.1667
321.60 0.167
321.70 0.1673
321.80 0.1676
321.90 0.1679
322.00 0.1682
322.10 0.1686
322.20 0.1689
322.30 0.1692
322.40 0.1695
322.50 0.1699
322.60 0.1702
322.70 0.1705
322.80 0.1709
322.90 0.1712
323.00 0.1715
323.10 0.1718
323.20 0.1721
323.30 0.1725
323.40 0.1728
323.50 0.1731
323.60 0.1734
323.70 0.1738
323.80 0.1741
323.90 0.1744
324.00 0.1747
324.10 0.1751
324.20 0.1754
324.30 0.1757
324.40 0.1761
324.50 0.1764
324.60 0.1767
324.70 0.1771
324.80 0.1774
324.90 0.1777
325.00 0.1781
325.10 0.1784
325.20 0.1787
325.30 0.1791
325.40 0.1794
325.50 0.1797
325.60 0.18
325.70 0.1804
325.80 0.1807
325.90 0.181
326.00 0.1814
326.10 0.1817
326.20 0.182
326.30 0.1824
326.40 0.1827
326.50 0.1831
326.60 0.1834
326.70 0.1837
326.80 0.1841
326.90 0.1844
327.00 0.1847
327.10 0.1851
327.20 0.1854
327.30 0.1858
327.40 0.1861
327.50 0.1864
327.60 0.1868
327.70 0.1871
327.80 0.1874
327.90 0.1878
328.00 0.1881
328.10 0.1885
328.20 0.1888
328.30 0.1891
328.40 0.1895
328.50 0.1898
328.60 0.1902
328.70 0.1905
328.80 0.1909
328.90 0.1912
329.00 0.1916
329.10 0.1919
329.20 0.1923
329.30 0.1926
329.40 0.1929
329.50 0.1933
329.60 0.1936
329.70 0.194
329.80 0.1943
329.90 0.1946
330.00 0.195
330.10 0.1953
330.20 0.1957
330.30 0.196
330.40 0.1964
330.50 0.1968
330.60 0.1971
330.70 0.1975
330.80 0.1978
330.90 0.1982
331.00 0.1985
331.10 0.1989
331.20 0.1992
331.30 0.1996
331.40 0.1999
331.50 0.2003
331.60 0.2006
331.70 0.201
331.80 0.2013
331.90 0.2016
332.00 0.202
332.10 0.2024
332.20 0.2027
332.30 0.2031
332.40 0.2034
332.50 0.2038
332.60 0.2041
332.70 0.2045
332.80 0.2049
332.90 0.2052
333.00 0.2056
333.10 0.2059
333.20 0.2063
333.30 0.2066
333.40 0.207
333.50 0.2074
333.60 0.2077
333.70 0.2081
333.80 0.2084
333.90 0.2088
334.00 0.2091
334.10 0.2095
334.20 0.2099
334.30 0.2102
334.40 0.2106
334.50 0.211
334.60 0.2113
334.70 0.2117
334.80 0.212
334.90 0.2124
335.00 0.2128
335.10 0.2131
335.20 0.2135
335.30 0.2139
335.40 0.2142
335.50 0.2146
335.60 0.2149
335.70 0.2153
335.80 0.2157
335.90 0.216
336.00 0.2164
336.10 0.2168
336.20 0.2171
336.30 0.2175
336.40 0.2179
336.50 0.2182
336.60 0.2186
336.70 0.219
336.80 0.2194
336.90 0.2197
337.00 0.2201
337.10 0.2205
337.20 0.2208
337.30 0.2212
337.40 0.2216
337.50 0.2219
337.60 0.2223
337.70 0.2227
337.80 0.223
337.90 0.2234
338.00 0.2238
338.10 0.2241
338.20 0.2245
338.30 0.2249
338.40 0.2253
338.50 0.2256
338.60 0.226
338.70 0.2264
338.80 0.2268
338.90 0.2272
339.00 0.2275
339.10 0.2279
339.20 0.2283
339.30 0.2287
339.40 0.229
339.50 0.2294
339.60 0.2298
339.70 0.2301
339.80 0.2305
339.90 0.2309
340.00 0.2313
340.10 0.2316
340.20 0.232
340.30 0.2324
340.40 0.2328
340.50 0.2332
340.60 0.2336
340.70 0.2339
340.80 0.2343
340.90 0.2347
341.00 0.2351
341.10 0.2355
341.20 0.2358
341.30 0.2362
341.40 0.2366
341.50 0.237
341.60 0.2374
341.70 0.2377
341.80 0.2381
341.90 0.2385
342.00 0.2389
342.10 0.2393
342.20 0.2396
342.30 0.24
342.40 0.2404
342.50 0.2408
342.60 0.2412
342.70 0.2416
342.80 0.242
342.90 0.2424
343.00 0.2428
343.10 0.2431
343.20 0.2435
343.30 0.2439
343.40 0.2443
343.50 0.2447
343.60 0.2451
343.70 0.2454
343.80 0.2458
343.90 0.2462
344.00 0.2466
344.10 0.247
344.20 0.2474
344.30 0.2478
344.40 0.2482
344.50 0.2486
344.60 0.249
344.70 0.2494
344.80 0.2498
344.90 0.2501
345.00 0.2505
345.10 0.2509
345.20 0.2513
345.30 0.2517
345.40 0.2521
345.50 0.2525
345.60 0.2529
345.70 0.2533
345.80 0.2537
345.90 0.254
346.00 0.2544
346.10 0.2548
346.20 0.2552
346.30 0.2556
346.40 0.256
346.50 0.2564
346.60 0.2568
346.70 0.2572
346.80 0.2576
346.90 0.258
347.00 0.2584
347.10 0.2588
347.20 0.2592
347.30 0.2596
347.40 0.26
347.50 0.2604
347.60 0.2608
347.70 0.2612
347.80 0.2616
347.90 0.262
348.00 0.2624
348.10 0.2628
348.20 0.2632
348.30 0.2636
348.40 0.264
348.50 0.2644
348.60 0.2648
348.70 0.2652
348.80 0.2656
348.90 0.266
349.00 0.2664
349.10 0.2669
349.20 0.2673
349.30 0.2677
349.40 0.2681
349.50 0.2685
349.60 0.2689
349.70 0.2693
349.80 0.2697
349.90 0.2701
350.00 0.2705
350.10 0.2709
350.20 0.2713
350.30 0.2717
350.40 0.2721
350.50 0.2725
350.60 0.2729
350.70 0.2733
350.80 0.2737
350.90 0.2742
351.00 0.2746
351.10 0.275
351.20 0.2754
351.30 0.2758
351.40 0.2762
351.50 0.2766
351.60 0.277
351.70 0.2774
351.80 0.2778
351.90 0.2782
352.00 0.2786
352.10 0.279
352.20 0.2795
352.30 0.2799
352.40 0.2803
352.50 0.2807
352.60 0.2811
352.70 0.2815
352.80 0.282
352.90 0.2824
353.00 0.2828
353.10 0.2832
353.20 0.2836
353.30 0.284
353.40 0.2844
353.50 0.2848
353.60 0.2853
353.70 0.2857
353.80 0.2861
353.90 0.2865
354.00 0.2869
354.10 0.2873
354.20 0.2877
354.30 0.2882
354.40 0.2886
354.50 0.289
354.60 0.2894
354.70 0.2899
354.80 0.2903
354.90 0.2907
355.00 0.2911
355.10 0.2915
355.20 0.2919
355.30 0.2924
355.40 0.2928
355.50 0.2932
355.60 0.2936
355.70 0.294
355.80 0.2944
355.90 0.2949
356.00 0.2953
356.10 0.2957
356.20 0.2961
356.30 0.2966
356.40 0.297
356.50 0.2974
356.60 0.2978
356.70 0.2983
356.80 0.2987
356.90 0.2991
357.00 0.2995
357.10 0.3
357.20 0.3004
357.30 0.3008
357.40 0.3012
357.50 0.3017
357.60 0.3021
357.70 0.3025
357.80 0.3029
357.90 0.3033
358.00 0.3038
358.10 0.3042
358.20 0.3046
358.30 0.3051
358.40 0.3055
358.50 0.3059
358.60 0.3064
358.70 0.3068
358.80 0.3072
358.90 0.3076
359.00 0.3081
359.10 0.3085
359.20 0.3089
359.30 0.3094
359.40 0.3098
359.50 0.3102
359.60 0.3106
359.70 0.3111
359.80 0.3115
359.90 0.3119
360.00 0.3123
360.10 0.3128
360.20 0.3132
360.30 0.3136
360.40 0.3141
360.50 0.3145
360.60 0.315
360.70 0.3154
360.80 0.3158
360.90 0.3163
361.00 0.3167
361.10 0.3171
361.20 0.3176
361.30 0.318
361.40 0.3184
361.50 0.3189
361.60 0.3193
361.70 0.3197
361.80 0.3201
361.90 0.3206
362.00 0.321
362.10 0.3214
362.20 0.3219
362.30 0.3223
362.40 0.3228
362.50 0.3232
362.60 0.3236
362.70 0.3241
362.80 0.3245
362.90 0.3249
363.00 0.3254
363.10 0.3258
363.20 0.3263
363.30 0.3267
363.40 0.3271
363.50 0.3276
363.60 0.328
363.70 0.3285
363.80 0.3289
363.90 0.3293
364.00 0.3298
364.10 0.3302
364.20 0.3307
364.30 0.3311
364.40 0.3315
364.50 0.332
364.60 0.3324
364.70 0.3329
364.80 0.3333
364.90 0.3338
365.00 0.3342
365.10 0.3346
365.20 0.3351
365.30 0.3355
365.40 0.336
365.50 0.3364
365.60 0.3369
365.70 0.3373
365.80 0.3377
365.90 0.3382
366.00 0.3386
366.10 0.3391
366.20 0.3395
366.30 0.34
366.40 0.3404
366.50 0.3409
366.60 0.3413
366.70 0.3418
366.80 0.3422
366.90 0.3427
367.00 0.3431
367.10 0.3436
367.20 0.344
367.30 0.3445
367.40 0.3449
367.50 0.3454
367.60 0.3458
367.70 0.3462
367.80 0.3467
367.90 0.3471
368.00 0.3476
368.10 0.348
368.20 0.3485
368.30 0.3489
368.40 0.3494
368.50 0.3499
368.60 0.3503
368.70 0.3508
368.80 0.3512
368.90 0.3517
369.00 0.3521
369.10 0.3526
369.20 0.353
369.30 0.3535
369.40 0.3539
369.50 0.3544
369.60 0.3548
369.70 0.3553
369.80 0.3557
369.90 0.3562
370.00 0.3566
370.10 0.3571
370.20 0.3575
370.30 0.358
370.40 0.3584
370.50 0.3589
370.60 0.3594
370.70 0.3598
370.80 0.3603
370.90 0.3607
371.00 0.3612
371.10 0.3616
371.20 0.3621
371.30 0.3626
371.40 0.363
371.50 0.3635
371.60 0.3639
371.70 0.3644
371.80 0.3648
371.90 0.3653
372.00 0.3657
372.10 0.3662
372.20 0.3666
372.30 0.3671
372.40 0.3676
372.50 0.368
372.60 0.3685
372.70 0.369
372.80 0.3694
372.90 0.3699
373.00 0.3703
373.10 0.3708
373.20 0.3713
373.30 0.3717
373.40 0.3722
373.50 0.3726
373.60 0.3731
373.70 0.3735
373.80 0.374
373.90 0.3745
374.00 0.3749
374.10 0.3754
374.20 0.3758
374.30 0.3763
374.40 0.3768
374.50 0.3772
374.60 0.3777
374.70 0.3782
374.80 0.3786
374.90 0.3791
375.00 0.3796
375.10 0.38
375.20 0.3805
375.30 0.381
375.40 0.3814
375.50 0.3819
375.60 0.3823
375.70 0.3828
375.80 0.3833
375.90 0.3837
376.00 0.3842
376.10 0.3846
376.20 0.3851
376.30 0.3856
376.40 0.386
376.50 0.3865
376.60 0.387
376.70 0.3874
376.80 0.3879
376.90 0.3884
377.00 0.3888
377.10 0.3893
377.20 0.3898
377.30 0.3903
377.40 0.3907
377.50 0.3912
377.60 0.3917
377.70 0.3921
377.80 0.3926
377.90 0.3931
378.00 0.3935
378.10 0.394
378.20 0.3945
378.30 0.3949
378.40 0.3954
378.50 0.3959
378.60 0.3963
378.70 0.3968
378.80 0.3973
378.90 0.3978
379.00 0.3982
379.10 0.3987
379.20 0.3992
379.30 0.3996
379.40 0.4001
379.50 0.4006
379.60 0.4011
379.70 0.4015
379.80 0.402
379.90 0.4025
380.00 0.4029
380.10 0.4034
380.20 0.4039
380.30 0.4044
380.40 0.4048
380.50 0.4053
380.60 0.4058
380.70 0.4063
380.80 0.4067
380.90 0.4072
381.00 0.4077
381.10 0.4081
381.20 0.4086
381.30 0.4091
381.40 0.4096
381.50 0.41
381.60 0.4105
381.70 0.411
381.80 0.4115
381.90 0.412
382.00 0.4124
382.10 0.4129
382.20 0.4134
382.30 0.4139
382.40 0.4143
382.50 0.4148
382.60 0.4153
382.70 0.4158
382.80 0.4162
382.90 0.4167
383.00 0.4172
383.10 0.4177
383.20 0.4181
383.30 0.4186
383.40 0.4191
383.50 0.4196
383.60 0.4201
383.70 0.4205
383.80 0.421
383.90 0.4215
384.00 0.422
384.10 0.4225
384.20 0.4229
384.30 0.4234
384.40 0.4239
384.50 0.4244
384.60 0.4249
384.70 0.4253
384.80 0.4258
384.90 0.4263
385.00 0.4268
385.10 0.4273
385.20 0.4277
385.30 0.4282
385.40 0.4287
385.50 0.4292
385.60 0.4297
385.70 0.4301
385.80 0.4306
385.90 0.4311
386.00 0.4316
386.10 0.4321
386.20 0.4326
386.30 0.433
386.40 0.4335
386.50 0.434
386.60 0.4345
386.70 0.435
386.80 0.4355
386.90 0.4359
387.00 0.4364
387.10 0.4369
387.20 0.4374
387.30 0.4379
387.40 0.4384
387.50 0.4388
387.60 0.4393
387.70 0.4398
387.80 0.4403
387.90 0.4408
388.00 0.4413
388.10 0.4418
388.20 0.4422
388.30 0.4427
388.40 0.4432
388.50 0.4437
388.60 0.4442
388.70 0.4447
388.80 0.4452
388.90 0.4456
389.00 0.4461
389.10 0.4466
389.20 0.4471
389.30 0.4476
389.40 0.4481
389.50 0.4486
389.60 0.4491
389.70 0.4495
389.80 0.45
389.90 0.4505
390.00 0.451
390.10 0.4515
390.20 0.452
390.30 0.4525
390.40 0.453
390.50 0.4535
390.60 0.4539
390.70 0.4544
390.80 0.4549
390.90 0.4554
391.00 0.4559
391.10 0.4564
391.20 0.4569
391.30 0.4574
391.40 0.4579
391.50 0.4583
391.60 0.4588
391.70 0.4593
391.80 0.4598
391.90 0.4603
392.00 0.4608
392.10 0.4613
392.20 0.4618
392.30 0.4623
392.40 0.4628
392.50 0.4632
392.60 0.4638
392.70 0.4642
392.80 0.4647
392.90 0.4652
393.00 0.4657
393.10 0.4662
393.20 0.4667
393.30 0.4672
393.40 0.4677
393.50 0.4682
393.60 0.4687
393.70 0.4692
393.80 0.4697
393.90 0.4702
394.00 0.4706
394.10 0.4711
394.20 0.4716
394.30 0.4721
394.40 0.4726
394.50 0.4731
394.60 0.4736
394.70 0.4741
394.80 0.4746
394.90 0.4751
395.00 0.4756
395.10 0.4761
395.20 0.4766
395.30 0.4771
395.40 0.4776
395.50 0.478
395.60 0.4786
395.70 0.4791
395.80 0.4795
395.90 0.48
396.00 0.4805
396.10 0.481
396.20 0.4815
396.30 0.482
396.40 0.4825
396.50 0.483
396.60 0.4835
396.70 0.484
396.80 0.4845
396.90 0.485
397.00 0.4855
397.10 0.486
397.20 0.4865
397.30 0.487
397.40 0.4875
397.50 0.488
397.60 0.4885
397.70 0.489
397.80 0.4895
397.90 0.49
398.00 0.4905
398.10 0.491
398.20 0.4915
398.30 0.492
398.40 0.4925
398.50 0.493
398.60 0.4935
398.70 0.494
398.80 0.4945
398.90 0.495
399.00 0.4955
399.10 0.496
399.20 0.4965
399.30 0.497
399.40 0.4975
399.50 0.498
399.60 0.4985
399.70 0.4989
399.80 0.4995
399.90 0.5
400.00 0.5005
400.10 0.501
400.20 0.5015
400.30 0.502
400.40 0.5025
400.50 0.503
400.60 0.5034
400.70 0.504
400.80 0.5045
400.90 0.505
401.00 0.5055
401.10 0.506
401.20 0.5065
401.30 0.507
401.40 0.5075
401.50 0.508
401.60 0.5085
401.70 0.509
401.80 0.5095
401.90 0.51
402.00 0.5105
402.10 0.511
402.20 0.5115
402.30 0.512
402.40 0.5125
402.50 0.513
402.60 0.5135
402.70 0.514
402.80 0.5145
402.90 0.515
403.00 0.5155
403.10 0.516
403.20 0.5165
403.30 0.517
403.40 0.5175
403.50 0.518
403.60 0.5185
403.70 0.519
403.80 0.5196
403.90 0.5201
404.00 0.5206
404.10 0.5211
404.20 0.5215
404.30 0.5221
404.40 0.5226
404.50 0.5231
404.60 0.5236
404.70 0.5241
404.80 0.5246
404.90 0.5251
405.00 0.5256
405.10 0.5261
405.20 0.5266
405.30 0.5271
405.40 0.5276
405.50 0.5281
405.60 0.5286
405.70 0.5291
405.80 0.5297
405.90 0.5302
406.00 0.5306
406.10 0.5312
406.20 0.5317
406.30 0.5322
406.40 0.5327
406.50 0.5332
406.60 0.5337
406.70 0.5342
406.80 0.5347
406.90 0.5352
407.00 0.5357
407.10 0.5362
407.20 0.5367
407.30 0.5372
407.40 0.5377
407.50 0.5382
407.60 0.5387
407.70 0.5393
407.80 0.5398
407.90 0.5403
408.00 0.5408
408.10 0.5413
408.20 0.5418
408.30 0.5423
408.40 0.5428
408.50 0.5433
408.60 0.5438
408.70 0.5444
408.80 0.5448
408.90 0.5454
409.00 0.5459
409.10 0.5464
409.20 0.5469
409.30 0.5474
409.40 0.5479
409.50 0.5484
409.60 0.5489
409.70 0.5494
409.80 0.5499
409.90 0.5505
410.00 0.551
410.10 0.5515
410.20 0.552
410.30 0.5525
410.40 0.553
410.50 0.5535
410.60 0.554
410.70 0.5545
410.80 0.555
410.90 0.5555
411.00 0.5561
411.10 0.5566
411.20 0.5571
411.30 0.5576
411.40 0.5581
411.50 0.5586
411.60 0.5591
411.70 0.5596
411.80 0.5601
411.90 0.5606
412.00 0.5612
412.10 0.5617
412.20 0.5622
412.30 0.5627
412.40 0.5632
412.50 0.5637
412.60 0.5642
412.70 0.5647
412.80 0.5652
412.90 0.5657
413.00 0.5662
413.10 0.5668
413.20 0.5673
413.30 0.5678
413.40 0.5683
413.50 0.5688
413.60 0.5693
413.70 0.5698
413.80 0.5704
413.90 0.5709
414.00 0.5714
414.10 0.5719
414.20 0.5724
414.30 0.5729
414.40 0.5734
414.50 0.5739
414.60 0.5744
414.70 0.5749
414.80 0.5755
414.90 0.576
415.00 0.5765
415.10 0.577
415.20 0.5775
415.30 0.578
415.40 0.5785
415.50 0.579
415.60 0.5795
415.70 0.5801
415.80 0.5806
415.90 0.5811
416.00 0.5816
416.10 0.5821
416.20 0.5826
416.30 0.5831
416.40 0.5837
416.50 0.5842
416.60 0.5847
416.70 0.5852
416.80 0.5857
416.90 0.5862
417.00 0.5867
417.10 0.5873
417.20 0.5878
417.30 0.5883
417.40 0.5888
417.50 0.5893
417.60 0.5898
417.70 0.5903
417.80 0.5908
417.90 0.5913
418.00 0.5919
418.10 0.5924
418.20 0.5929
418.30 0.5934
418.40 0.5939
418.50 0.5944
418.60 0.5949
418.70 0.5955
418.80 0.596
418.90 0.5965
419.00 0.597
419.10 0.5975
419.20 0.598
419.30 0.5985
419.40 0.5991
419.50 0.5996
419.60 0.6001
419.70 0.6006
419.80 0.6011
419.90 0.6016
420.00 0.6021
420.10 0.6026
420.20 0.6032
420.30 0.6037
420.40 0.6042
420.50 0.6047
420.60 0.6052
420.70 0.6057
420.80 0.6063
420.90 0.6068
421.00 0.6073
421.10 0.6078
421.20 0.6083
421.30 0.6088
421.40 0.6093
421.50 0.6099
421.60 0.6104
421.70 0.6109
421.80 0.6114
421.90 0.6119
422.00 0.6124
422.10 0.6129
422.20 0.6135
422.30 0.614
422.40 0.6145
422.50 0.615
422.60 0.6155
422.70 0.616
422.80 0.6165
422.90 0.6171
423.00 0.6176
423.10 0.6181
423.20 0.6186
423.30 0.6191
423.40 0.6196
423.50 0.6202
423.60 0.6207
423.70 0.6212
423.80 0.6217
423.90 0.6222
424.00 0.6227
424.10 0.6232
424.20 0.6238
424.30 0.6243
424.40 0.6248
424.50 0.6253
424.60 0.6258
424.70 0.6263
424.80 0.6269
424.90 0.6274
425.00 0.6279
425.10 0.6284
425.20 0.6289
425.30 0.6294
425.40 0.63
425.50 0.6305
425.60 0.631
425.70 0.6315
425.80 0.632
425.90 0.6325
426.00 0.6331
426.10 0.6336
426.20 0.6341
426.30 0.6346
426.40 0.6351
426.50 0.6356
426.60 0.6361
426.70 0.6367
426.80 0.6372
426.90 0.6377
427.00 0.6382
427.10 0.6387
427.20 0.6392
427.30 0.6398
427.40 0.6403
427.50 0.6408
427.60 0.6413
427.70 0.6418
427.80 0.6423
427.90 0.6429
428.00 0.6434
428.10 0.6439
428.20 0.6444
428.30 0.6449
428.40 0.6454
428.50 0.646
428.60 0.6465
428.70 0.647
428.80 0.6475
428.90 0.648
429.00 0.6485
429.10 0.6491
429.20 0.6496
429.30 0.6501
429.40 0.6506
429.50 0.6511
429.60 0.6516
429.70 0.6521
429.80 0.6527
429.90 0.6532
430.00 0.6537
430.10 0.6542
430.20 0.6547
430.30 0.6552
430.40 0.6558
430.50 0.6563
430.60 0.6568
430.70 0.6573
430.80 0.6578
430.90 0.6583
431.00 0.6589
431.10 0.6594
431.20 0.6599
431.30 0.6604
431.40 0.6609
431.50 0.6614
431.60 0.6619
431.70 0.6625
431.80 0.663
431.90 0.6635
432.00 0.664
432.10 0.6645
432.20 0.6651
432.30 0.6656
432.40 0.6661
432.50 0.6666
432.60 0.6671
432.70 0.6676
432.80 0.6682
432.90 0.6687
433.00 0.6692
433.10 0.6697
433.20 0.6702
433.30 0.6707
433.40 0.6713
433.50 0.6718
433.60 0.6723
433.70 0.6728
433.80 0.6733
433.90 0.6738
434.00 0.6743
434.10 0.6749
434.20 0.6754
434.30 0.6759
434.40 0.6764
434.50 0.6769
434.60 0.6775
434.70 0.678
434.80 0.6785
434.90 0.679
435.00 0.6795
435.10 0.68
435.20 0.6805
435.30 0.6811
435.40 0.6816
435.50 0.6821
435.60 0.6826
435.70 0.6831
435.80 0.6836
435.90 0.6842
436.00 0.6847
436.10 0.6852
436.20 0.6857
436.30 0.6862
436.40 0.6867
436.50 0.6872
436.60 0.6878
436.70 0.6883
436.80 0.6888
436.90 0.6893
437.00 0.6898
437.10 0.6903
437.20 0.6909
437.30 0.6914
437.40 0.6919
437.50 0.6924
437.60 0.6929
437.70 0.6934
437.80 0.694
437.90 0.6945
438.00 0.695
438.10 0.6955
438.20 0.696
438.30 0.6965
438.40 0.697
438.50 0.6976
438.60 0.6981
438.70 0.6986
438.80 0.6991
438.90 0.6996
439.00 0.7002
439.10 0.7007
439.20 0.7012
439.30 0.7017
439.40 0.7022
439.50 0.7027
439.60 0.7032
439.70 0.7037
439.80 0.7043
439.90 0.7048
440.00 0.7053
440.10 0.7058
440.20 0.7063
440.30 0.7068
440.40 0.7073
440.50 0.7078
440.60 0.7084
440.70 0.7089
440.80 0.7094
440.90 0.7099
441.00 0.7104
441.10 0.711
441.20 0.7115
441.30 0.712
441.40 0.7125
441.50 0.713
441.60 0.7135
441.70 0.714
441.80 0.7146
441.90 0.7151
442.00 0.7156
442.10 0.7161
442.20 0.7166
442.30 0.7171
442.40 0.7176
442.50 0.7181
442.60 0.7187
442.70 0.7192
442.80 0.7197
442.90 0.7202
443.00 0.7207
443.10 0.7213
443.20 0.7218
