# Version 2.1 - nm, norm@500 to 1, cut digits, bergeron_90000_70.dat_90000
# Wavelength(nm)  Flambda(ergs/cm^s/s/nm)
300.00 6.751
300.10 6.743
300.20 6.734
300.30 6.726
300.40 6.717
300.50 6.709
300.60 6.701
300.70 6.692
300.80 6.684
300.90 6.676
301.00 6.667
301.10 6.659
301.20 6.651
301.30 6.643
301.40 6.634
301.50 6.626
301.60 6.618
301.70 6.61
301.80 6.601
301.90 6.593
302.00 6.585
302.10 6.577
302.20 6.569
302.30 6.561
302.40 6.552
302.50 6.544
302.60 6.536
302.70 6.528
302.80 6.52
302.90 6.512
303.00 6.504
303.10 6.496
303.20 6.488
303.30 6.48
303.40 6.472
303.50 6.464
303.60 6.456
303.70 6.448
303.80 6.44
303.90 6.432
304.00 6.424
304.10 6.416
304.20 6.408
304.30 6.4
304.40 6.393
304.50 6.385
304.60 6.377
304.70 6.369
304.80 6.361
304.90 6.353
305.00 6.346
305.10 6.338
305.20 6.33
305.30 6.322
305.40 6.314
305.50 6.307
305.60 6.299
305.70 6.291
305.80 6.284
305.90 6.276
306.00 6.268
306.10 6.26
306.20 6.253
306.30 6.245
306.40 6.238
306.50 6.23
306.60 6.222
306.70 6.215
306.80 6.207
306.90 6.199
307.00 6.192
307.10 6.184
307.20 6.177
307.30 6.169
307.40 6.162
307.50 6.154
307.60 6.147
307.70 6.139
307.80 6.132
307.90 6.124
308.00 6.117
308.10 6.109
308.20 6.102
308.30 6.095
308.40 6.087
308.50 6.08
308.60 6.072
308.70 6.065
308.80 6.058
308.90 6.05
309.00 6.043
309.10 6.036
309.20 6.028
309.30 6.021
309.40 6.014
309.50 6.006
309.60 5.999
309.70 5.992
309.80 5.985
309.90 5.977
310.00 5.97
310.10 5.963
310.20 5.956
310.30 5.948
310.40 5.941
310.50 5.934
310.60 5.927
310.70 5.92
310.80 5.913
310.90 5.906
311.00 5.898
311.10 5.891
311.20 5.884
311.30 5.877
311.40 5.87
311.50 5.863
311.60 5.856
311.70 5.849
311.80 5.842
311.90 5.835
312.00 5.828
312.10 5.821
312.20 5.814
312.30 5.807
312.40 5.8
312.50 5.793
312.60 5.786
312.70 5.779
312.80 5.772
312.90 5.765
313.00 5.758
313.10 5.751
313.20 5.744
313.30 5.737
313.40 5.731
313.50 5.724
313.60 5.717
313.70 5.71
313.80 5.703
313.90 5.696
314.00 5.69
314.10 5.683
314.20 5.676
314.30 5.669
314.40 5.662
314.50 5.656
314.60 5.649
314.70 5.642
314.80 5.636
314.90 5.629
315.00 5.622
315.10 5.615
315.20 5.609
315.30 5.602
315.40 5.595
315.50 5.589
315.60 5.582
315.70 5.575
315.80 5.569
315.90 5.562
316.00 5.556
316.10 5.549
316.20 5.542
316.30 5.536
316.40 5.529
316.50 5.523
316.60 5.516
316.70 5.51
316.80 5.503
316.90 5.497
317.00 5.49
317.10 5.484
317.20 5.477
317.30 5.471
317.40 5.464
317.50 5.458
317.60 5.451
317.70 5.445
317.80 5.438
317.90 5.432
318.00 5.425
318.10 5.419
318.20 5.413
318.30 5.406
318.40 5.4
318.50 5.394
318.60 5.387
318.70 5.381
318.80 5.375
318.90 5.368
319.00 5.362
319.10 5.356
319.20 5.349
319.30 5.343
319.40 5.337
319.50 5.33
319.60 5.324
319.70 5.318
319.80 5.312
319.90 5.305
320.00 5.299
320.10 5.293
320.20 5.287
320.30 5.281
320.40 5.274
320.50 5.268
320.60 5.262
320.70 5.256
320.80 5.25
320.90 5.244
321.00 5.237
321.10 5.231
321.20 5.225
321.30 5.219
321.40 5.213
321.50 5.207
321.60 5.201
321.70 5.195
321.80 5.189
321.90 5.183
322.00 5.177
322.10 5.17
322.20 5.164
322.30 5.158
322.40 5.152
322.50 5.146
322.60 5.14
322.70 5.134
322.80 5.128
322.90 5.122
323.00 5.117
323.10 5.111
323.20 5.105
323.30 5.099
323.40 5.093
323.50 5.087
323.60 5.081
323.70 5.075
323.80 5.069
323.90 5.063
324.00 5.057
324.10 5.052
324.20 5.046
324.30 5.04
324.40 5.034
324.50 5.028
324.60 5.022
324.70 5.017
324.80 5.011
324.90 5.005
325.00 4.999
325.10 4.993
325.20 4.988
325.30 4.982
325.40 4.976
325.50 4.97
325.60 4.965
325.70 4.959
325.80 4.953
325.90 4.947
326.00 4.942
326.10 4.936
326.20 4.93
326.30 4.925
326.40 4.919
326.50 4.913
326.60 4.908
326.70 4.902
326.80 4.896
326.90 4.891
327.00 4.885
327.10 4.88
327.20 4.874
327.30 4.868
327.40 4.863
327.50 4.857
327.60 4.852
327.70 4.846
327.80 4.84
327.90 4.835
328.00 4.829
328.10 4.824
328.20 4.818
328.30 4.813
328.40 4.807
328.50 4.802
328.60 4.796
328.70 4.791
328.80 4.785
328.90 4.78
329.00 4.774
329.10 4.769
329.20 4.763
329.30 4.758
329.40 4.753
329.50 4.747
329.60 4.742
329.70 4.736
329.80 4.731
329.90 4.726
330.00 4.72
330.10 4.715
330.20 4.709
330.30 4.704
330.40 4.699
330.50 4.693
330.60 4.688
330.70 4.683
330.80 4.677
330.90 4.672
331.00 4.667
331.10 4.661
331.20 4.656
331.30 4.651
331.40 4.646
331.50 4.64
331.60 4.635
331.70 4.63
331.80 4.625
331.90 4.619
332.00 4.614
332.10 4.609
332.20 4.604
332.30 4.598
332.40 4.593
332.50 4.588
332.60 4.583
332.70 4.578
332.80 4.572
332.90 4.567
333.00 4.562
333.10 4.557
333.20 4.552
333.30 4.547
333.40 4.542
333.50 4.536
333.60 4.531
333.70 4.526
333.80 4.521
333.90 4.516
334.00 4.511
334.10 4.506
334.20 4.501
334.30 4.496
334.40 4.491
334.50 4.486
334.60 4.481
334.70 4.475
334.80 4.47
334.90 4.465
335.00 4.46
335.10 4.455
335.20 4.45
335.30 4.445
335.40 4.44
335.50 4.435
335.60 4.43
335.70 4.425
335.80 4.42
335.90 4.416
336.00 4.411
336.10 4.406
336.20 4.401
336.30 4.396
336.40 4.391
336.50 4.386
336.60 4.381
336.70 4.376
336.80 4.371
336.90 4.366
337.00 4.362
337.10 4.357
337.20 4.352
337.30 4.347
337.40 4.342
337.50 4.337
337.60 4.332
337.70 4.328
337.80 4.323
337.90 4.318
338.00 4.313
338.10 4.308
338.20 4.303
338.30 4.299
338.40 4.294
338.50 4.289
338.60 4.284
338.70 4.28
338.80 4.275
338.90 4.27
339.00 4.265
339.10 4.261
339.20 4.256
339.30 4.251
339.40 4.246
339.50 4.242
339.60 4.237
339.70 4.232
339.80 4.228
339.90 4.223
340.00 4.218
340.10 4.214
340.20 4.209
340.30 4.204
340.40 4.2
340.50 4.195
340.60 4.19
340.70 4.186
340.80 4.181
340.90 4.176
341.00 4.172
341.10 4.167
341.20 4.163
341.30 4.158
341.40 4.153
341.50 4.149
341.60 4.144
341.70 4.14
341.80 4.135
341.90 4.131
342.00 4.126
342.10 4.121
342.20 4.117
342.30 4.112
342.40 4.108
342.50 4.103
342.60 4.099
342.70 4.094
342.80 4.09
342.90 4.085
343.00 4.081
343.10 4.076
343.20 4.072
343.30 4.067
343.40 4.063
343.50 4.059
343.60 4.054
343.70 4.05
343.80 4.045
343.90 4.041
344.00 4.036
344.10 4.032
344.20 4.027
344.30 4.023
344.40 4.019
344.50 4.014
344.60 4.01
344.70 4.006
344.80 4.001
344.90 3.997
345.00 3.992
345.10 3.988
345.20 3.984
345.30 3.979
345.40 3.975
345.50 3.971
345.60 3.966
345.70 3.962
345.80 3.958
345.90 3.953
346.00 3.949
346.10 3.945
346.20 3.94
346.30 3.936
346.40 3.932
346.50 3.928
346.60 3.923
346.70 3.919
346.80 3.915
346.90 3.911
347.00 3.906
347.10 3.902
347.20 3.898
347.30 3.894
347.40 3.889
347.50 3.885
347.60 3.881
347.70 3.877
347.80 3.873
347.90 3.868
348.00 3.864
348.10 3.86
348.20 3.856
348.30 3.852
348.40 3.847
348.50 3.843
348.60 3.839
348.70 3.835
348.80 3.831
348.90 3.827
349.00 3.823
349.10 3.818
349.20 3.814
349.30 3.81
349.40 3.806
349.50 3.802
349.60 3.798
349.70 3.794
349.80 3.79
349.90 3.786
350.00 3.781
350.10 3.777
350.20 3.773
350.30 3.769
350.40 3.765
350.50 3.761
350.60 3.757
350.70 3.753
350.80 3.749
350.90 3.745
351.00 3.741
351.10 3.737
351.20 3.733
351.30 3.729
351.40 3.725
351.50 3.721
351.60 3.717
351.70 3.713
351.80 3.709
351.90 3.705
352.00 3.701
352.10 3.697
352.20 3.693
352.30 3.689
352.40 3.685
352.50 3.681
352.60 3.677
352.70 3.673
352.80 3.67
352.90 3.666
353.00 3.662
353.10 3.658
353.20 3.654
353.30 3.65
353.40 3.646
353.50 3.642
353.60 3.638
353.70 3.634
353.80 3.63
353.90 3.627
354.00 3.623
354.10 3.619
354.20 3.615
354.30 3.611
354.40 3.607
354.50 3.603
354.60 3.6
354.70 3.596
354.80 3.592
354.90 3.588
355.00 3.584
355.10 3.581
355.20 3.577
355.30 3.573
355.40 3.569
355.50 3.565
355.60 3.562
355.70 3.558
355.80 3.554
355.90 3.55
356.00 3.546
356.10 3.543
356.20 3.539
356.30 3.535
356.40 3.531
356.50 3.528
356.60 3.524
356.70 3.52
356.80 3.517
356.90 3.513
357.00 3.509
357.10 3.505
357.20 3.502
357.30 3.498
357.40 3.494
357.50 3.491
357.60 3.487
357.70 3.483
357.80 3.48
357.90 3.476
358.00 3.472
358.10 3.469
358.20 3.465
358.30 3.461
358.40 3.458
358.50 3.454
358.60 3.45
358.70 3.447
358.80 3.443
358.90 3.439
359.00 3.436
359.10 3.432
359.20 3.429
359.30 3.425
359.40 3.421
359.50 3.418
359.60 3.414
359.70 3.411
359.80 3.407
359.90 3.403
360.00 3.4
360.10 3.396
360.20 3.393
360.30 3.389
360.40 3.386
360.50 3.382
360.60 3.379
360.70 3.375
360.80 3.372
360.90 3.368
361.00 3.365
361.10 3.361
361.20 3.357
361.30 3.354
361.40 3.35
361.50 3.347
361.60 3.343
361.70 3.34
361.80 3.336
361.90 3.333
362.00 3.329
362.10 3.326
362.20 3.323
362.30 3.319
362.40 3.316
362.50 3.312
362.60 3.309
362.70 3.305
362.80 3.302
362.90 3.298
363.00 3.295
363.10 3.292
363.20 3.288
363.30 3.285
363.40 3.281
363.50 3.278
363.60 3.274
363.70 3.271
363.80 3.268
363.90 3.264
364.00 3.261
364.10 3.257
364.20 3.254
364.30 3.251
364.40 3.247
364.50 3.244
364.60 3.241
364.70 3.237
364.80 3.234
364.90 3.231
365.00 3.227
365.10 3.224
365.20 3.221
365.30 3.217
365.40 3.214
365.50 3.211
365.60 3.207
365.70 3.204
365.80 3.201
365.90 3.197
366.00 3.194
366.10 3.191
366.20 3.187
366.30 3.184
366.40 3.181
366.50 3.177
366.60 3.174
366.70 3.171
366.80 3.167
366.90 3.164
367.00 3.161
367.10 3.157
367.20 3.154
367.30 3.151
367.40 3.147
367.50 3.144
367.60 3.141
367.70 3.137
367.80 3.134
367.90 3.131
368.00 3.128
368.10 3.124
368.20 3.121
368.30 3.118
368.40 3.115
368.50 3.111
368.60 3.108
368.70 3.105
368.80 3.102
368.90 3.098
369.00 3.095
369.10 3.092
369.20 3.089
369.30 3.085
369.40 3.082
369.50 3.079
369.60 3.076
369.70 3.073
369.80 3.069
369.90 3.066
370.00 3.063
370.10 3.06
370.20 3.057
370.30 3.053
370.40 3.05
370.50 3.047
370.60 3.044
370.70 3.041
370.80 3.038
370.90 3.035
371.00 3.031
371.10 3.028
371.20 3.025
371.30 3.022
371.40 3.019
371.50 3.016
371.60 3.013
371.70 3.009
371.80 3.006
371.90 3.003
372.00 3
372.10 2.997
372.20 2.994
372.30 2.991
372.40 2.988
372.50 2.985
372.60 2.982
372.70 2.979
372.80 2.976
372.90 2.973
373.00 2.97
373.10 2.967
373.20 2.964
373.30 2.961
373.40 2.958
373.50 2.954
373.60 2.951
373.70 2.948
373.80 2.945
373.90 2.942
374.00 2.939
374.10 2.937
374.20 2.934
374.30 2.931
374.40 2.928
374.50 2.925
374.60 2.922
374.70 2.919
374.80 2.916
374.90 2.913
375.00 2.91
375.10 2.907
375.20 2.904
375.30 2.902
375.40 2.899
375.50 2.896
375.60 2.893
375.70 2.89
375.80 2.887
375.90 2.884
376.00 2.881
376.10 2.879
376.20 2.876
376.30 2.873
376.40 2.87
376.50 2.867
376.60 2.864
376.70 2.861
376.80 2.858
376.90 2.856
377.00 2.853
377.10 2.85
377.20 2.847
377.30 2.845
377.40 2.842
377.50 2.84
377.60 2.837
377.70 2.834
377.80 2.832
377.90 2.829
378.00 2.826
378.10 2.824
378.20 2.821
378.30 2.818
378.40 2.815
378.50 2.812
378.60 2.809
378.70 2.807
378.80 2.804
378.90 2.801
379.00 2.798
379.10 2.795
379.20 2.793
379.30 2.79
379.40 2.787
379.50 2.784
379.60 2.781
379.70 2.779
379.80 2.776
379.90 2.773
380.00 2.77
380.10 2.768
380.20 2.766
380.30 2.764
380.40 2.761
380.50 2.759
380.60 2.757
380.70 2.755
380.80 2.753
380.90 2.751
381.00 2.748
381.10 2.746
381.20 2.743
381.30 2.741
381.40 2.738
381.50 2.735
381.60 2.733
381.70 2.73
381.80 2.727
381.90 2.724
382.00 2.721
382.10 2.718
382.20 2.714
382.30 2.711
382.40 2.707
382.50 2.703
382.60 2.7
382.70 2.696
382.80 2.693
382.90 2.689
383.00 2.685
383.10 2.682
383.20 2.678
383.30 2.675
383.40 2.671
383.50 2.668
383.60 2.666
383.70 2.664
383.80 2.663
383.90 2.662
384.00 2.661
384.10 2.66
384.20 2.659
384.30 2.658
384.40 2.657
384.50 2.656
384.60 2.655
384.70 2.654
384.80 2.652
384.90 2.651
385.00 2.649
385.10 2.648
385.20 2.646
385.30 2.644
385.40 2.642
385.50 2.64
385.60 2.638
385.70 2.636
385.80 2.633
385.90 2.631
386.00 2.628
386.10 2.625
386.20 2.622
386.30 2.619
386.40 2.616
386.50 2.613
386.60 2.61
386.70 2.606
386.80 2.603
386.90 2.599
387.00 2.595
387.10 2.591
387.20 2.587
387.30 2.582
387.40 2.578
387.50 2.573
387.60 2.569
387.70 2.564
387.80 2.559
387.90 2.553
388.00 2.548
388.10 2.542
388.20 2.537
388.30 2.531
388.40 2.525
388.50 2.52
388.60 2.514
388.70 2.509
388.80 2.506
388.90 2.503
389.00 2.501
389.10 2.5
389.20 2.501
389.30 2.502
389.40 2.503
389.50 2.504
389.60 2.505
389.70 2.507
389.80 2.508
389.90 2.509
390.00 2.509
390.10 2.51
390.20 2.511
390.30 2.511
390.40 2.511
390.50 2.511
390.60 2.511
390.70 2.511
390.80 2.511
390.90 2.51
391.00 2.51
391.10 2.509
391.20 2.508
391.30 2.507
391.40 2.506
391.50 2.505
391.60 2.504
391.70 2.503
391.80 2.501
391.90 2.5
392.00 2.498
392.10 2.496
392.20 2.494
392.30 2.493
392.40 2.491
392.50 2.488
392.60 2.486
392.70 2.484
392.80 2.482
392.90 2.479
393.00 2.477
393.10 2.474
393.20 2.471
393.30 2.468
393.40 2.466
393.50 2.462
393.60 2.459
393.70 2.456
393.80 2.453
393.90 2.449
394.00 2.446
394.10 2.442
394.20 2.438
394.30 2.434
394.40 2.43
394.50 2.425
394.60 2.421
394.70 2.416
394.80 2.411
394.90 2.406
395.00 2.401
395.10 2.396
395.20 2.39
395.30 2.384
395.40 2.378
395.50 2.372
395.60 2.365
395.70 2.358
395.80 2.351
395.90 2.343
396.00 2.336
396.10 2.328
396.20 2.319
396.30 2.311
396.40 2.302
396.50 2.293
396.60 2.284
396.70 2.274
396.80 2.265
396.90 2.255
397.00 2.247
397.10 2.251
397.20 2.255
397.30 2.261
397.40 2.266
397.50 2.271
397.60 2.276
397.70 2.281
397.80 2.285
397.90 2.289
398.00 2.293
398.10 2.296
398.20 2.299
398.30 2.302
398.40 2.305
398.50 2.307
398.60 2.309
398.70 2.311
398.80 2.313
398.90 2.314
399.00 2.315
399.10 2.316
399.20 2.317
399.30 2.317
399.40 2.318
399.50 2.318
399.60 2.318
399.70 2.318
399.80 2.318
399.90 2.318
400.00 2.317
400.10 2.317
400.20 2.316
400.30 2.315
400.40 2.314
400.50 2.313
400.60 2.312
400.70 2.311
400.80 2.31
400.90 2.309
401.00 2.307
401.10 2.306
401.20 2.305
401.30 2.303
401.40 2.302
401.50 2.3
401.60 2.299
401.70 2.297
401.80 2.295
401.90 2.294
402.00 2.292
402.10 2.29
402.20 2.288
402.30 2.286
402.40 2.285
402.50 2.283
402.60 2.281
402.70 2.279
402.80 2.277
402.90 2.275
403.00 2.273
403.10 2.271
403.20 2.269
403.30 2.267
403.40 2.265
403.50 2.262
403.60 2.26
403.70 2.258
403.80 2.256
403.90 2.254
404.00 2.252
404.10 2.249
404.20 2.247
404.30 2.245
404.40 2.242
404.50 2.24
404.60 2.238
404.70 2.235
404.80 2.233
404.90 2.231
405.00 2.228
405.10 2.226
405.20 2.223
405.30 2.221
405.40 2.218
405.50 2.215
405.60 2.213
405.70 2.21
405.80 2.207
405.90 2.204
406.00 2.201
406.10 2.198
406.20 2.195
406.30 2.192
406.40 2.189
406.50 2.186
406.60 2.183
406.70 2.179
406.80 2.176
406.90 2.172
407.00 2.168
407.10 2.165
407.20 2.161
407.30 2.156
407.40 2.152
407.50 2.148
407.60 2.143
407.70 2.138
407.80 2.133
407.90 2.128
408.00 2.122
408.10 2.117
408.20 2.111
408.30 2.104
408.40 2.098
408.50 2.091
408.60 2.084
408.70 2.076
408.80 2.068
408.90 2.059
409.00 2.051
409.10 2.041
409.20 2.032
409.30 2.021
409.40 2.01
409.50 1.999
409.60 1.987
409.70 1.975
409.80 1.962
409.90 1.948
410.00 1.936
410.10 1.93
410.20 1.93
410.30 1.93
410.40 1.934
410.50 1.944
410.60 1.954
410.70 1.963
410.80 1.972
410.90 1.979
411.00 1.987
411.10 1.994
411.20 2
411.30 2.005
411.40 2.011
411.50 2.015
411.60 2.02
411.70 2.024
411.80 2.027
411.90 2.03
412.00 2.033
412.10 2.036
412.20 2.038
412.30 2.04
412.40 2.041
412.50 2.043
412.60 2.044
412.70 2.045
412.80 2.046
412.90 2.046
413.00 2.047
413.10 2.047
413.20 2.047
413.30 2.047
413.40 2.047
413.50 2.046
413.60 2.046
413.70 2.045
413.80 2.045
413.90 2.044
414.00 2.043
414.10 2.042
414.20 2.042
414.30 2.041
414.40 2.04
414.50 2.038
414.60 2.037
414.70 2.036
414.80 2.035
414.90 2.034
415.00 2.032
415.10 2.031
415.20 2.03
415.30 2.028
415.40 2.027
415.50 2.025
415.60 2.024
415.70 2.022
415.80 2.021
415.90 2.019
416.00 2.018
416.10 2.016
416.20 2.015
416.30 2.013
416.40 2.012
416.50 2.01
416.60 2.008
416.70 2.007
416.80 2.005
416.90 2.003
417.00 2.002
417.10 2
417.20 1.998
417.30 1.997
417.40 1.995
417.50 1.993
417.60 1.992
417.70 1.99
417.80 1.988
417.90 1.987
418.00 1.985
418.10 1.983
418.20 1.981
418.30 1.98
418.40 1.978
418.50 1.976
418.60 1.975
418.70 1.973
418.80 1.971
418.90 1.969
419.00 1.968
419.10 1.966
419.20 1.964
419.30 1.962
419.40 1.961
419.50 1.959
419.60 1.957
419.70 1.956
419.80 1.954
419.90 1.952
420.00 1.95
420.10 1.949
420.20 1.947
420.30 1.945
420.40 1.943
420.50 1.942
420.60 1.94
420.70 1.938
420.80 1.936
420.90 1.935
421.00 1.933
421.10 1.931
421.20 1.929
421.30 1.928
421.40 1.926
421.50 1.924
421.60 1.922
421.70 1.921
421.80 1.919
421.90 1.917
422.00 1.916
422.10 1.914
422.20 1.912
422.30 1.91
422.40 1.909
422.50 1.907
422.60 1.905
422.70 1.903
422.80 1.902
422.90 1.9
423.00 1.898
423.10 1.896
423.20 1.895
423.30 1.893
423.40 1.891
423.50 1.89
423.60 1.888
423.70 1.886
423.80 1.884
423.90 1.883
424.00 1.881
424.10 1.879
424.20 1.877
424.30 1.876
424.40 1.874
424.50 1.872
424.60 1.871
424.70 1.869
424.80 1.867
424.90 1.865
425.00 1.864
425.10 1.862
425.20 1.86
425.30 1.858
425.40 1.857
425.50 1.855
425.60 1.853
425.70 1.851
425.80 1.85
425.90 1.848
426.00 1.846
426.10 1.844
426.20 1.843
426.30 1.841
426.40 1.839
426.50 1.837
426.60 1.836
426.70 1.834
426.80 1.832
426.90 1.83
427.00 1.829
427.10 1.827
427.20 1.825
427.30 1.823
427.40 1.821
427.50 1.82
427.60 1.818
427.70 1.816
427.80 1.814
427.90 1.812
428.00 1.81
428.10 1.808
428.20 1.807
428.30 1.805
428.40 1.803
428.50 1.801
428.60 1.799
428.70 1.797
428.80 1.795
428.90 1.793
429.00 1.791
429.10 1.789
429.20 1.787
429.30 1.785
429.40 1.783
429.50 1.781
429.60 1.778
429.70 1.776
429.80 1.774
429.90 1.772
430.00 1.769
430.10 1.767
430.20 1.764
430.30 1.762
430.40 1.759
430.50 1.757
430.60 1.754
430.70 1.751
430.80 1.748
430.90 1.745
431.00 1.742
431.10 1.739
431.20 1.735
431.30 1.732
431.40 1.728
431.50 1.724
431.60 1.72
431.70 1.716
431.80 1.711
431.90 1.707
432.00 1.702
432.10 1.696
432.20 1.691
432.30 1.685
432.40 1.679
432.50 1.672
432.60 1.665
432.70 1.657
432.80 1.649
432.90 1.641
433.00 1.632
433.10 1.622
433.20 1.612
433.30 1.602
433.40 1.591
433.50 1.579
433.60 1.566
433.70 1.552
433.80 1.537
433.90 1.52
434.00 1.506
434.10 1.505
434.20 1.517
434.30 1.531
434.40 1.544
434.50 1.555
434.60 1.565
434.70 1.574
434.80 1.582
434.90 1.59
435.00 1.597
435.10 1.604
435.20 1.61
435.30 1.615
435.40 1.62
435.50 1.624
435.60 1.628
435.70 1.632
435.80 1.635
435.90 1.638
436.00 1.641
436.10 1.643
436.20 1.645
436.30 1.647
436.40 1.648
436.50 1.649
436.60 1.65
436.70 1.651
436.80 1.651
436.90 1.652
437.00 1.652
437.10 1.652
437.20 1.652
437.30 1.652
437.40 1.652
437.50 1.652
437.60 1.651
437.70 1.651
437.80 1.651
437.90 1.65
438.00 1.649
438.10 1.649
438.20 1.648
438.30 1.647
438.40 1.646
438.50 1.645
438.60 1.644
438.70 1.644
438.80 1.643
438.90 1.642
439.00 1.641
439.10 1.64
439.20 1.638
439.30 1.637
439.40 1.636
439.50 1.635
439.60 1.634
439.70 1.633
439.80 1.632
439.90 1.63
440.00 1.629
440.10 1.628
440.20 1.627
440.30 1.626
440.40 1.624
440.50 1.623
440.60 1.622
440.70 1.621
440.80 1.619
440.90 1.618
441.00 1.617
441.10 1.616
441.20 1.614
441.30 1.613
441.40 1.612
441.50 1.61
441.60 1.609
441.70 1.608
441.80 1.607
441.90 1.605
442.00 1.604
442.10 1.603
442.20 1.601
442.30 1.6
442.40 1.599
442.50 1.597
442.60 1.596
442.70 1.595
442.80 1.593
442.90 1.592
443.00 1.591
443.10 1.589
443.20 1.588
443.30 1.587
443.40 1.585
443.50 1.584
443.60 1.583
443.70 1.582
443.80 1.58
443.90 1.579
444.00 1.578
444.10 1.576
444.20 1.575
444.30 1.574
444.40 1.572
444.50 1.571
444.60 1.57
444.70 1.568
444.80 1.567
444.90 1.566
445.00 1.564
445.10 1.563
445.20 1.562
445.30 1.56
445.40 1.559
445.50 1.558
445.60 1.556
445.70 1.555
445.80 1.554
445.90 1.552
446.00 1.551
446.10 1.55
446.20 1.548
446.30 1.547
446.40 1.546
446.50 1.545
446.60 1.543
446.70 1.542
446.80 1.541
446.90 1.539
447.00 1.538
447.10 1.537
447.20 1.535
447.30 1.534
447.40 1.533
447.50 1.531
447.60 1.53
447.70 1.529
447.80 1.528
447.90 1.526
448.00 1.525
448.10 1.524
448.20 1.522
448.30 1.521
448.40 1.52
448.50 1.519
448.60 1.517
448.70 1.516
448.80 1.515
448.90 1.513
449.00 1.512
449.10 1.511
449.20 1.51
449.30 1.508
449.40 1.507
449.50 1.506
449.60 1.504
449.70 1.503
449.80 1.502
449.90 1.501
450.00 1.499
450.10 1.498
450.20 1.497
450.30 1.495
450.40 1.494
450.50 1.493
450.60 1.492
450.70 1.49
450.80 1.489
450.90 1.488
451.00 1.487
451.10 1.485
451.20 1.484
451.30 1.483
451.40 1.482
451.50 1.48
451.60 1.479
451.70 1.478
451.80 1.477
451.90 1.475
452.00 1.474
452.10 1.473
452.20 1.472
452.30 1.47
452.40 1.469
452.50 1.468
452.60 1.467
452.70 1.465
452.80 1.464
452.90 1.463
453.00 1.462
453.10 1.46
453.20 1.459
453.30 1.458
453.40 1.457
453.50 1.456
453.60 1.454
453.70 1.453
453.80 1.452
453.90 1.451
454.00 1.449
