# Version 2.1 - nm, norm@500 to 1, cut digits, bergeron_4500_90.dat_4500
# Wavelength(nm)  Flambda(ergs/cm^s/s/nm)
300.00 0.2735
300.10 0.2739
300.20 0.2744
300.30 0.2748
300.40 0.2752
300.50 0.2756
300.60 0.276
300.70 0.2764
300.80 0.2768
300.90 0.2772
301.00 0.2776
301.10 0.278
301.20 0.2784
301.30 0.2788
301.40 0.2792
301.50 0.2796
301.60 0.28
301.70 0.2804
301.80 0.2808
301.90 0.2812
302.00 0.2816
302.10 0.282
302.20 0.2825
302.30 0.2829
302.40 0.2833
302.50 0.2837
302.60 0.2841
302.70 0.2845
302.80 0.2849
302.90 0.2853
303.00 0.2857
303.10 0.2861
303.20 0.2866
303.30 0.287
303.40 0.2874
303.50 0.2878
303.60 0.2882
303.70 0.2886
303.80 0.289
303.90 0.2894
304.00 0.2898
304.10 0.2902
304.20 0.2906
304.30 0.291
304.40 0.2915
304.50 0.2919
304.60 0.2923
304.70 0.2927
304.80 0.2931
304.90 0.2935
305.00 0.2939
305.10 0.2944
305.20 0.2948
305.30 0.2952
305.40 0.2956
305.50 0.296
305.60 0.2964
305.70 0.2968
305.80 0.2972
305.90 0.2976
306.00 0.2981
306.10 0.2985
306.20 0.2989
306.30 0.2993
306.40 0.2997
306.50 0.3001
306.60 0.3006
306.70 0.301
306.80 0.3014
306.90 0.3018
307.00 0.3022
307.10 0.3026
307.20 0.3031
307.30 0.3035
307.40 0.3039
307.50 0.3043
307.60 0.3047
307.70 0.3051
307.80 0.3055
307.90 0.3059
308.00 0.3064
308.10 0.3068
308.20 0.3072
308.30 0.3076
308.40 0.308
308.50 0.3085
308.60 0.3089
308.70 0.3093
308.80 0.3097
308.90 0.3102
309.00 0.3106
309.10 0.311
309.20 0.3114
309.30 0.3118
309.40 0.3122
309.50 0.3127
309.60 0.3131
309.70 0.3135
309.80 0.3139
309.90 0.3143
310.00 0.3147
310.10 0.3152
310.20 0.3156
310.30 0.316
310.40 0.3164
310.50 0.3169
310.60 0.3173
310.70 0.3177
310.80 0.3181
310.90 0.3186
311.00 0.319
311.10 0.3194
311.20 0.3198
311.30 0.3202
311.40 0.3207
311.50 0.3211
311.60 0.3215
311.70 0.3219
311.80 0.3223
311.90 0.3228
312.00 0.3232
312.10 0.3236
312.20 0.324
312.30 0.3244
312.40 0.3249
312.50 0.3253
312.60 0.3257
312.70 0.3262
312.80 0.3266
312.90 0.327
313.00 0.3274
313.10 0.3279
313.20 0.3283
313.30 0.3287
313.40 0.3291
313.50 0.3296
313.60 0.33
313.70 0.3304
313.80 0.3308
313.90 0.3312
314.00 0.3317
314.10 0.3321
314.20 0.3325
314.30 0.333
314.40 0.3334
314.50 0.3338
314.60 0.3342
314.70 0.3347
314.80 0.3351
314.90 0.3355
315.00 0.336
315.10 0.3364
315.20 0.3368
315.30 0.3372
315.40 0.3377
315.50 0.3381
315.60 0.3385
315.70 0.3389
315.80 0.3394
315.90 0.3398
316.00 0.3402
316.10 0.3406
316.20 0.3411
316.30 0.3415
316.40 0.3419
316.50 0.3424
316.60 0.3428
316.70 0.3432
316.80 0.3437
316.90 0.3441
317.00 0.3445
317.10 0.345
317.20 0.3454
317.30 0.3458
317.40 0.3463
317.50 0.3467
317.60 0.3471
317.70 0.3475
317.80 0.348
317.90 0.3484
318.00 0.3488
318.10 0.3492
318.20 0.3497
318.30 0.3501
318.40 0.3506
318.50 0.351
318.60 0.3514
318.70 0.3519
318.80 0.3523
318.90 0.3527
319.00 0.3532
319.10 0.3536
319.20 0.354
319.30 0.3545
319.40 0.3549
319.50 0.3553
319.60 0.3557
319.70 0.3562
319.80 0.3566
319.90 0.357
320.00 0.3575
320.10 0.3579
320.20 0.3583
320.30 0.3588
320.40 0.3592
320.50 0.3596
320.60 0.3601
320.70 0.3605
320.80 0.361
320.90 0.3614
321.00 0.3618
321.10 0.3623
321.20 0.3627
321.30 0.3631
321.40 0.3636
321.50 0.364
321.60 0.3644
321.70 0.3649
321.80 0.3653
321.90 0.3657
322.00 0.3662
322.10 0.3666
322.20 0.367
322.30 0.3675
322.40 0.3679
322.50 0.3684
322.60 0.3688
322.70 0.3692
322.80 0.3697
322.90 0.3701
323.00 0.3705
323.10 0.371
323.20 0.3714
323.30 0.3718
323.40 0.3723
323.50 0.3727
323.60 0.3732
323.70 0.3736
323.80 0.374
323.90 0.3744
324.00 0.3749
324.10 0.3753
324.20 0.3758
324.30 0.3762
324.40 0.3767
324.50 0.3771
324.60 0.3775
324.70 0.378
324.80 0.3784
324.90 0.3789
325.00 0.3793
325.10 0.3797
325.20 0.3802
325.30 0.3806
325.40 0.381
325.50 0.3815
325.60 0.3819
325.70 0.3823
325.80 0.3828
325.90 0.3832
326.00 0.3837
326.10 0.3841
326.20 0.3845
326.30 0.385
326.40 0.3854
326.50 0.3859
326.60 0.3863
326.70 0.3868
326.80 0.3872
326.90 0.3876
327.00 0.3881
327.10 0.3885
327.20 0.389
327.30 0.3894
327.40 0.3898
327.50 0.3903
327.60 0.3907
327.70 0.3911
327.80 0.3916
327.90 0.392
328.00 0.3925
328.10 0.3929
328.20 0.3933
328.30 0.3938
328.40 0.3942
328.50 0.3947
328.60 0.3951
328.70 0.3956
328.80 0.396
328.90 0.3964
329.00 0.3969
329.10 0.3973
329.20 0.3978
329.30 0.3982
329.40 0.3986
329.50 0.3991
329.60 0.3995
329.70 0.4
329.80 0.4004
329.90 0.4008
330.00 0.4013
330.10 0.4017
330.20 0.4022
330.30 0.4026
330.40 0.4031
330.50 0.4035
330.60 0.404
330.70 0.4044
330.80 0.4048
330.90 0.4053
331.00 0.4057
331.10 0.4062
331.20 0.4066
331.30 0.4071
331.40 0.4075
331.50 0.4079
331.60 0.4084
331.70 0.4088
331.80 0.4092
331.90 0.4097
332.00 0.4101
332.10 0.4106
332.20 0.411
332.30 0.4115
332.40 0.4119
332.50 0.4124
332.60 0.4128
332.70 0.4133
332.80 0.4137
332.90 0.4141
333.00 0.4146
333.10 0.415
333.20 0.4155
333.30 0.4159
333.40 0.4164
333.50 0.4168
333.60 0.4172
333.70 0.4177
333.80 0.4181
333.90 0.4186
334.00 0.419
334.10 0.4194
334.20 0.4199
334.30 0.4203
334.40 0.4208
334.50 0.4212
334.60 0.4217
334.70 0.4221
334.80 0.4226
334.90 0.423
335.00 0.4235
335.10 0.4239
335.20 0.4244
335.30 0.4248
335.40 0.4252
335.50 0.4257
335.60 0.4261
335.70 0.4266
335.80 0.427
335.90 0.4275
336.00 0.4279
336.10 0.4283
336.20 0.4288
336.30 0.4292
336.40 0.4297
336.50 0.4301
336.60 0.4306
336.70 0.431
336.80 0.4315
336.90 0.4319
337.00 0.4324
337.10 0.4328
337.20 0.4333
337.30 0.4337
337.40 0.4341
337.50 0.4346
337.60 0.435
337.70 0.4355
337.80 0.4359
337.90 0.4364
338.00 0.4368
338.10 0.4372
338.20 0.4377
338.30 0.4381
338.40 0.4386
338.50 0.439
338.60 0.4395
338.70 0.4399
338.80 0.4404
338.90 0.4408
339.00 0.4413
339.10 0.4417
339.20 0.4422
339.30 0.4426
339.40 0.4431
339.50 0.4435
339.60 0.444
339.70 0.4444
339.80 0.4448
339.90 0.4453
340.00 0.4457
340.10 0.4462
340.20 0.4466
340.30 0.4471
340.40 0.4475
340.50 0.448
340.60 0.4484
340.70 0.4489
340.80 0.4493
340.90 0.4498
341.00 0.4502
341.10 0.4507
341.20 0.4511
341.30 0.4515
341.40 0.452
341.50 0.4524
341.60 0.4529
341.70 0.4533
341.80 0.4538
341.90 0.4542
342.00 0.4546
342.10 0.4551
342.20 0.4556
342.30 0.456
342.40 0.4565
342.50 0.4569
342.60 0.4574
342.70 0.4578
342.80 0.4583
342.90 0.4587
343.00 0.4591
343.10 0.4596
343.20 0.46
343.30 0.4605
343.40 0.4609
343.50 0.4614
343.60 0.4618
343.70 0.4623
343.80 0.4627
343.90 0.4631
344.00 0.4636
344.10 0.464
344.20 0.4645
344.30 0.4649
344.40 0.4654
344.50 0.4658
344.60 0.4663
344.70 0.4667
344.80 0.4672
344.90 0.4676
345.00 0.4681
345.10 0.4685
345.20 0.469
345.30 0.4694
345.40 0.4699
345.50 0.4703
345.60 0.4708
345.70 0.4712
345.80 0.4716
345.90 0.4721
346.00 0.4725
346.10 0.473
346.20 0.4734
346.30 0.4739
346.40 0.4743
346.50 0.4748
346.60 0.4752
346.70 0.4757
346.80 0.4761
346.90 0.4766
347.00 0.477
347.10 0.4775
347.20 0.4779
347.30 0.4784
347.40 0.4788
347.50 0.4792
347.60 0.4797
347.70 0.4801
347.80 0.4806
347.90 0.481
348.00 0.4815
348.10 0.4819
348.20 0.4824
348.30 0.4828
348.40 0.4833
348.50 0.4837
348.60 0.4842
348.70 0.4846
348.80 0.4851
348.90 0.4855
349.00 0.486
349.10 0.4864
349.20 0.4868
349.30 0.4873
349.40 0.4877
349.50 0.4882
349.60 0.4886
349.70 0.4891
349.80 0.4895
349.90 0.49
350.00 0.4904
350.10 0.4908
350.20 0.4913
350.30 0.4917
350.40 0.4922
350.50 0.4926
350.60 0.4931
350.70 0.4935
350.80 0.494
350.90 0.4944
351.00 0.4949
351.10 0.4953
351.20 0.4958
351.30 0.4962
351.40 0.4967
351.50 0.4971
351.60 0.4975
351.70 0.498
351.80 0.4984
351.90 0.4989
352.00 0.4993
352.10 0.4998
352.20 0.5002
352.30 0.5007
352.40 0.5011
352.50 0.5016
352.60 0.502
352.70 0.5025
352.80 0.5029
352.90 0.5034
353.00 0.5038
353.10 0.5042
353.20 0.5047
353.30 0.5051
353.40 0.5056
353.50 0.506
353.60 0.5065
353.70 0.5069
353.80 0.5073
353.90 0.5078
354.00 0.5082
354.10 0.5087
354.20 0.5091
354.30 0.5096
354.40 0.51
354.50 0.5105
354.60 0.5109
354.70 0.5114
354.80 0.5118
354.90 0.5123
355.00 0.5127
355.10 0.5132
355.20 0.5136
355.30 0.514
355.40 0.5145
355.50 0.5149
355.60 0.5154
355.70 0.5158
355.80 0.5163
355.90 0.5167
356.00 0.5171
356.10 0.5176
356.20 0.518
356.30 0.5185
356.40 0.5189
356.50 0.5194
356.60 0.5198
356.70 0.5203
356.80 0.5207
356.90 0.5212
357.00 0.5216
357.10 0.522
357.20 0.5225
357.30 0.5229
357.40 0.5234
357.50 0.5238
357.60 0.5243
357.70 0.5247
357.80 0.5251
357.90 0.5256
358.00 0.526
358.10 0.5265
358.20 0.5269
358.30 0.5274
358.40 0.5278
358.50 0.5283
358.60 0.5287
358.70 0.5291
358.80 0.5296
358.90 0.53
359.00 0.5305
359.10 0.5309
359.20 0.5314
359.30 0.5318
359.40 0.5322
359.50 0.5327
359.60 0.5331
359.70 0.5336
359.80 0.534
359.90 0.5344
360.00 0.5349
360.10 0.5353
360.20 0.5358
360.30 0.5362
360.40 0.5367
360.50 0.5371
360.60 0.5376
360.70 0.538
360.80 0.5384
360.90 0.5389
361.00 0.5393
361.10 0.5398
361.20 0.5402
361.30 0.5407
361.40 0.5411
361.50 0.5415
361.60 0.542
361.70 0.5424
361.80 0.5429
361.90 0.5433
362.00 0.5437
362.10 0.5442
362.20 0.5446
362.30 0.5451
362.40 0.5455
362.50 0.5459
362.60 0.5464
362.70 0.5468
362.80 0.5473
362.90 0.5477
363.00 0.5481
363.10 0.5486
363.20 0.549
363.30 0.5495
363.40 0.5499
363.50 0.5504
363.60 0.5508
363.70 0.5512
363.80 0.5517
363.90 0.5521
364.00 0.5526
364.10 0.553
364.20 0.5534
364.30 0.5539
364.40 0.5543
364.50 0.5547
364.60 0.5552
364.70 0.5556
364.80 0.5561
364.90 0.5565
365.00 0.557
365.10 0.5574
365.20 0.5578
365.30 0.5583
365.40 0.5587
365.50 0.5592
365.60 0.5596
365.70 0.56
365.80 0.5605
365.90 0.5609
366.00 0.5613
366.10 0.5618
366.20 0.5622
366.30 0.5627
366.40 0.5631
366.50 0.5636
366.60 0.564
366.70 0.5644
366.80 0.5649
366.90 0.5653
367.00 0.5657
367.10 0.5662
367.20 0.5666
367.30 0.5671
367.40 0.5675
367.50 0.5679
367.60 0.5684
367.70 0.5688
367.80 0.5692
367.90 0.5697
368.00 0.5701
368.10 0.5705
368.20 0.571
368.30 0.5714
368.40 0.5719
368.50 0.5723
368.60 0.5727
368.70 0.5732
368.80 0.5736
368.90 0.5741
369.00 0.5745
369.10 0.5749
369.20 0.5754
369.30 0.5758
369.40 0.5762
369.50 0.5767
369.60 0.5771
369.70 0.5775
369.80 0.578
369.90 0.5784
370.00 0.5788
370.10 0.5793
370.20 0.5797
370.30 0.5802
370.40 0.5806
370.50 0.581
370.60 0.5815
370.70 0.5819
370.80 0.5823
370.90 0.5828
371.00 0.5832
371.10 0.5836
371.20 0.5841
371.30 0.5845
371.40 0.5849
371.50 0.5854
371.60 0.5858
371.70 0.5862
371.80 0.5867
371.90 0.5871
372.00 0.5875
372.10 0.588
372.20 0.5884
372.30 0.5888
372.40 0.5893
372.50 0.5897
372.60 0.5902
372.70 0.5906
372.80 0.591
372.90 0.5915
373.00 0.5919
373.10 0.5923
373.20 0.5928
373.30 0.5932
373.40 0.5936
373.50 0.594
373.60 0.5945
373.70 0.5949
373.80 0.5953
373.90 0.5958
374.00 0.5962
374.10 0.5966
374.20 0.5971
374.30 0.5975
374.40 0.5979
374.50 0.5984
374.60 0.5988
374.70 0.5992
374.80 0.5997
374.90 0.6001
375.00 0.6005
375.10 0.601
375.20 0.6014
375.30 0.6018
375.40 0.6023
375.50 0.6027
375.60 0.6031
375.70 0.6035
375.80 0.604
375.90 0.6044
376.00 0.6048
376.10 0.6052
376.20 0.6057
376.30 0.6061
376.40 0.6065
376.50 0.607
376.60 0.6074
376.70 0.6078
376.80 0.6083
376.90 0.6087
377.00 0.6091
377.10 0.6095
377.20 0.61
377.30 0.6104
377.40 0.6108
377.50 0.6113
377.60 0.6117
377.70 0.6121
377.80 0.6125
377.90 0.613
378.00 0.6134
378.10 0.6138
378.20 0.6142
378.30 0.6147
378.40 0.6151
378.50 0.6155
378.60 0.616
378.70 0.6164
378.80 0.6168
378.90 0.6172
379.00 0.6177
379.10 0.6181
379.20 0.6185
379.30 0.6189
379.40 0.6194
379.50 0.6198
379.60 0.6202
379.70 0.6207
379.80 0.6211
379.90 0.6215
380.00 0.6219
380.10 0.6224
380.20 0.6228
380.30 0.6232
380.40 0.6236
380.50 0.6241
380.60 0.6245
380.70 0.6249
380.80 0.6253
380.90 0.6257
381.00 0.6262
381.10 0.6266
381.20 0.627
381.30 0.6274
381.40 0.6279
381.50 0.6283
381.60 0.6287
381.70 0.6291
381.80 0.6296
381.90 0.63
382.00 0.6304
382.10 0.6308
382.20 0.6312
382.30 0.6317
382.40 0.6321
382.50 0.6325
382.60 0.6329
382.70 0.6334
382.80 0.6338
382.90 0.6342
383.00 0.6346
383.10 0.6351
383.20 0.6355
383.30 0.6359
383.40 0.6363
383.50 0.6367
383.60 0.6372
383.70 0.6376
383.80 0.638
383.90 0.6384
384.00 0.6388
384.10 0.6393
384.20 0.6397
384.30 0.6401
384.40 0.6405
384.50 0.6409
384.60 0.6414
384.70 0.6418
384.80 0.6422
384.90 0.6426
385.00 0.643
385.10 0.6435
385.20 0.6439
385.30 0.6443
385.40 0.6447
385.50 0.6451
385.60 0.6455
385.70 0.646
385.80 0.6464
385.90 0.6468
386.00 0.6472
386.10 0.6476
386.20 0.6481
386.30 0.6485
386.40 0.6489
386.50 0.6493
386.60 0.6497
386.70 0.6501
386.80 0.6506
386.90 0.651
387.00 0.6514
387.10 0.6518
387.20 0.6522
387.30 0.6526
387.40 0.6531
387.50 0.6535
387.60 0.6539
387.70 0.6543
387.80 0.6547
387.90 0.6551
388.00 0.6555
388.10 0.656
388.20 0.6564
388.30 0.6568
388.40 0.6572
388.50 0.6576
388.60 0.658
388.70 0.6585
388.80 0.6589
388.90 0.6593
389.00 0.6597
389.10 0.6601
389.20 0.6605
389.30 0.6609
389.40 0.6614
389.50 0.6618
389.60 0.6622
389.70 0.6626
389.80 0.663
389.90 0.6634
390.00 0.6638
390.10 0.6642
390.20 0.6647
390.30 0.6651
390.40 0.6655
390.50 0.6659
390.60 0.6663
390.70 0.6667
390.80 0.6671
390.90 0.6675
391.00 0.6679
391.10 0.6684
391.20 0.6688
391.30 0.6692
391.40 0.6696
391.50 0.67
391.60 0.6704
391.70 0.6708
391.80 0.6712
391.90 0.6716
392.00 0.672
392.10 0.6724
392.20 0.6729
392.30 0.6733
392.40 0.6737
392.50 0.6741
392.60 0.6745
392.70 0.6749
392.80 0.6753
392.90 0.6757
393.00 0.6761
393.10 0.6765
393.20 0.6769
393.30 0.6774
393.40 0.6778
393.50 0.6782
393.60 0.6786
393.70 0.679
393.80 0.6794
393.90 0.6798
394.00 0.6802
394.10 0.6806
394.20 0.681
394.30 0.6814
394.40 0.6818
394.50 0.6822
394.60 0.6826
394.70 0.683
394.80 0.6834
394.90 0.6838
395.00 0.6843
395.10 0.6847
395.20 0.6851
395.30 0.6855
395.40 0.6859
395.50 0.6863
395.60 0.6867
395.70 0.6871
395.80 0.6875
395.90 0.6879
396.00 0.6883
396.10 0.6887
396.20 0.6891
396.30 0.6895
396.40 0.6899
396.50 0.6903
396.60 0.6907
396.70 0.6911
396.80 0.6915
396.90 0.6919
397.00 0.6923
397.10 0.6927
397.20 0.6931
397.30 0.6935
397.40 0.6939
397.50 0.6943
397.60 0.6947
397.70 0.6951
397.80 0.6955
397.90 0.6959
398.00 0.6963
398.10 0.6967
398.20 0.6971
398.30 0.6975
398.40 0.6979
398.50 0.6983
398.60 0.6987
398.70 0.6991
398.80 0.6995
398.90 0.6999
399.00 0.7003
399.10 0.7007
399.20 0.7011
399.30 0.7015
399.40 0.7019
399.50 0.7023
399.60 0.7027
399.70 0.7031
399.80 0.7035
399.90 0.7039
400.00 0.7043
400.10 0.7047
400.20 0.7051
400.30 0.7055
400.40 0.7059
400.50 0.7063
400.60 0.7067
400.70 0.7071
400.80 0.7075
400.90 0.7079
401.00 0.7083
401.10 0.7087
401.20 0.7091
401.30 0.7095
401.40 0.7098
401.50 0.7102
401.60 0.7106
401.70 0.711
401.80 0.7114
401.90 0.7118
402.00 0.7122
402.10 0.7126
402.20 0.713
402.30 0.7134
402.40 0.7138
402.50 0.7142
402.60 0.7146
402.70 0.715
402.80 0.7153
402.90 0.7157
403.00 0.7161
403.10 0.7165
403.20 0.7169
403.30 0.7173
403.40 0.7177
403.50 0.7181
403.60 0.7185
403.70 0.7189
403.80 0.7193
403.90 0.7197
404.00 0.72
404.10 0.7204
404.20 0.7208
404.30 0.7212
404.40 0.7216
404.50 0.722
404.60 0.7224
404.70 0.7228
404.80 0.7232
404.90 0.7235
405.00 0.7239
405.10 0.7243
405.20 0.7247
405.30 0.7251
405.40 0.7255
405.50 0.7259
405.60 0.7263
405.70 0.7267
405.80 0.727
405.90 0.7274
406.00 0.7278
406.10 0.7282
406.20 0.7286
406.30 0.729
406.40 0.7294
406.50 0.7297
406.60 0.7301
406.70 0.7305
406.80 0.7309
406.90 0.7313
407.00 0.7317
407.10 0.7321
407.20 0.7324
407.30 0.7328
407.40 0.7332
407.50 0.7336
407.60 0.734
407.70 0.7344
407.80 0.7347
407.90 0.7351
408.00 0.7355
408.10 0.7359
408.20 0.7363
408.30 0.7367
408.40 0.737
408.50 0.7374
408.60 0.7378
408.70 0.7382
408.80 0.7386
408.90 0.739
409.00 0.7393
409.10 0.7397
409.20 0.7401
409.30 0.7405
409.40 0.7409
409.50 0.7412
409.60 0.7416
409.70 0.742
409.80 0.7424
409.90 0.7428
410.00 0.7431
410.10 0.7435
410.20 0.7439
410.30 0.7443
410.40 0.7447
410.50 0.745
410.60 0.7454
410.70 0.7458
410.80 0.7462
410.90 0.7465
411.00 0.7469
411.10 0.7473
411.20 0.7477
411.30 0.7481
411.40 0.7484
411.50 0.7488
411.60 0.7492
411.70 0.7496
411.80 0.7499
411.90 0.7503
412.00 0.7507
412.10 0.7511
412.20 0.7514
412.30 0.7518
412.40 0.7522
412.50 0.7526
412.60 0.7529
412.70 0.7533
412.80 0.7537
412.90 0.7541
413.00 0.7544
413.10 0.7548
413.20 0.7552
413.30 0.7556
413.40 0.7559
413.50 0.7563
413.60 0.7567
413.70 0.7571
413.80 0.7574
413.90 0.7578
414.00 0.7582
414.10 0.7585
414.20 0.7589
414.30 0.7593
414.40 0.7597
414.50 0.76
414.60 0.7604
414.70 0.7608
414.80 0.7611
414.90 0.7615
415.00 0.7619
415.10 0.7623
415.20 0.7626
415.30 0.763
415.40 0.7634
415.50 0.7637
415.60 0.7641
415.70 0.7645
415.80 0.7648
415.90 0.7652
416.00 0.7656
416.10 0.7659
416.20 0.7663
416.30 0.7667
416.40 0.767
416.50 0.7674
416.60 0.7678
416.70 0.7682
416.80 0.7685
416.90 0.7689
417.00 0.7692
417.10 0.7696
417.20 0.77
417.30 0.7703
417.40 0.7707
417.50 0.7711
417.60 0.7714
417.70 0.7718
417.80 0.7722
417.90 0.7725
418.00 0.7729
418.10 0.7733
418.20 0.7736
418.30 0.774
418.40 0.7744
418.50 0.7747
418.60 0.7751
418.70 0.7755
418.80 0.7758
418.90 0.7762
419.00 0.7765
419.10 0.7769
419.20 0.7773
419.30 0.7776
419.40 0.778
419.50 0.7784
419.60 0.7787
419.70 0.7791
419.80 0.7794
419.90 0.7798
420.00 0.7802
420.10 0.7805
420.20 0.7809
420.30 0.7812
420.40 0.7816
420.50 0.782
420.60 0.7823
420.70 0.7827
420.80 0.783
420.90 0.7834
421.00 0.7837
421.10 0.7841
421.20 0.7845
421.30 0.7848
421.40 0.7852
421.50 0.7855
421.60 0.7859
421.70 0.7863
421.80 0.7866
421.90 0.787
422.00 0.7873
422.10 0.7877
422.20 0.788
422.30 0.7884
422.40 0.7887
422.50 0.7891
422.60 0.7895
422.70 0.7898
422.80 0.7902
422.90 0.7905
423.00 0.7909
423.10 0.7912
423.20 0.7916
423.30 0.7919
423.40 0.7923
423.50 0.7927
423.60 0.793
423.70 0.7934
423.80 0.7937
423.90 0.7941
424.00 0.7944
424.10 0.7948
424.20 0.7951
424.30 0.7955
424.40 0.7958
424.50 0.7962
424.60 0.7965
424.70 0.7969
424.80 0.7972
424.90 0.7976
425.00 0.7979
425.10 0.7983
425.20 0.7986
425.30 0.799
425.40 0.7993
425.50 0.7997
425.60 0.8
425.70 0.8004
425.80 0.8007
425.90 0.8011
426.00 0.8014
426.10 0.8018
426.20 0.8021
426.30 0.8025
426.40 0.8028
426.50 0.8032
426.60 0.8035
426.70 0.8039
426.80 0.8042
426.90 0.8046
427.00 0.8049
427.10 0.8053
427.20 0.8056
427.30 0.8059
427.40 0.8063
427.50 0.8066
427.60 0.807
427.70 0.8073
427.80 0.8077
427.90 0.808
428.00 0.8084
428.10 0.8087
428.20 0.8091
428.30 0.8094
428.40 0.8097
428.50 0.8101
428.60 0.8104
428.70 0.8108
428.80 0.8111
428.90 0.8115
429.00 0.8118
429.10 0.8121
429.20 0.8125
429.30 0.8128
429.40 0.8132
429.50 0.8135
429.60 0.8138
429.70 0.8142
429.80 0.8145
429.90 0.8149
430.00 0.8152
430.10 0.8156
430.20 0.8159
430.30 0.8162
430.40 0.8166
430.50 0.8169
430.60 0.8172
430.70 0.8176
430.80 0.8179
430.90 0.8183
431.00 0.8186
431.10 0.8189
431.20 0.8193
431.30 0.8196
431.40 0.82
431.50 0.8203
431.60 0.8206
431.70 0.821
431.80 0.8213
431.90 0.8216
432.00 0.822
432.10 0.8223
432.20 0.8226
432.30 0.823
432.40 0.8233
432.50 0.8237
432.60 0.824
432.70 0.8243
432.80 0.8247
432.90 0.825
433.00 0.8253
433.10 0.8257
433.20 0.826
433.30 0.8263
433.40 0.8267
433.50 0.827
433.60 0.8273
433.70 0.8277
433.80 0.828
433.90 0.8283
434.00 0.8287
434.10 0.829
434.20 0.8293
434.30 0.8296
434.40 0.83
434.50 0.8303
434.60 0.8306
434.70 0.831
434.80 0.8313
434.90 0.8316
435.00 0.832
435.10 0.8323
435.20 0.8326
435.30 0.833
435.40 0.8333
435.50 0.8336
435.60 0.8339
435.70 0.8343
435.80 0.8346
435.90 0.8349
436.00 0.8353
436.10 0.8356
436.20 0.8359
436.30 0.8362
436.40 0.8365
436.50 0.8369
436.60 0.8372
436.70 0.8376
436.80 0.8379
436.90 0.8382
437.00 0.8385
437.10 0.8388
437.20 0.8392
437.30 0.8395
437.40 0.8398
437.50 0.8402
437.60 0.8405
437.70 0.8408
437.80 0.8411
437.90 0.8414
438.00 0.8417
438.10 0.8421
438.20 0.8424
438.30 0.8427
438.40 0.8431
438.50 0.8434
438.60 0.8437
438.70 0.8441
438.80 0.8443
438.90 0.8446
439.00 0.845
439.10 0.8453
439.20 0.8456
439.30 0.8459
439.40 0.8463
439.50 0.8466
439.60 0.8469
439.70 0.8473
439.80 0.8476
439.90 0.8479
440.00 0.8482
440.10 0.8485
440.20 0.8488
440.30 0.8491
440.40 0.8494
440.50 0.8498
440.60 0.8501
440.70 0.8504
440.80 0.8507
440.90 0.851
441.00 0.8514
441.10 0.8517
441.20 0.852
441.30 0.8523
441.40 0.8526
441.50 0.853
441.60 0.8533
441.70 0.8536
441.80 0.8539
441.90 0.8542
442.00 0.8546
442.10 0.8549
442.20 0.8552
442.30 0.8555
442.40 0.8558
442.50 0.8561
442.60 0.8565
442.70 0.8568
442.80 0.8571
442.90 0.8574
443.00 0.8577
443.10 0.858
