# Version 2.1 - nm, norm@500 to 1, cut digits, bergeron_7000_65.dat_7000
# Wavelength(nm)  Flambda(ergs/cm^s/s/nm)
300.00 1.059
300.10 1.059
300.20 1.06
300.30 1.06
300.40 1.06
300.50 1.06
300.60 1.06
300.70 1.061
300.80 1.061
300.90 1.061
301.00 1.061
301.10 1.062
301.20 1.062
301.30 1.062
301.40 1.062
301.50 1.063
301.60 1.063
301.70 1.063
301.80 1.063
301.90 1.063
302.00 1.064
302.10 1.064
302.20 1.064
302.30 1.064
302.40 1.065
302.50 1.065
302.60 1.065
302.70 1.065
302.80 1.065
302.90 1.066
303.00 1.066
303.10 1.066
303.20 1.066
303.30 1.067
303.40 1.067
303.50 1.067
303.60 1.067
303.70 1.067
303.80 1.068
303.90 1.068
304.00 1.068
304.10 1.068
304.20 1.068
304.30 1.069
304.40 1.069
304.50 1.069
304.60 1.069
304.70 1.07
304.80 1.07
304.90 1.07
305.00 1.07
305.10 1.07
305.20 1.071
305.30 1.071
305.40 1.071
305.50 1.071
305.60 1.071
305.70 1.072
305.80 1.072
305.90 1.072
306.00 1.072
306.10 1.072
306.20 1.073
306.30 1.073
306.40 1.073
306.50 1.073
306.60 1.073
306.70 1.074
306.80 1.074
306.90 1.074
307.00 1.074
307.10 1.074
307.20 1.075
307.30 1.075
307.40 1.075
307.50 1.075
307.60 1.075
307.70 1.076
307.80 1.076
307.90 1.076
308.00 1.076
308.10 1.076
308.20 1.076
308.30 1.077
308.40 1.077
308.50 1.077
308.60 1.077
308.70 1.077
308.80 1.078
308.90 1.078
309.00 1.078
309.10 1.078
309.20 1.078
309.30 1.079
309.40 1.079
309.50 1.079
309.60 1.079
309.70 1.079
309.80 1.079
309.90 1.08
310.00 1.08
310.10 1.08
310.20 1.08
310.30 1.08
310.40 1.08
310.50 1.081
310.60 1.081
310.70 1.081
310.80 1.081
310.90 1.081
311.00 1.082
311.10 1.082
311.20 1.082
311.30 1.082
311.40 1.082
311.50 1.082
311.60 1.083
311.70 1.083
311.80 1.083
311.90 1.083
312.00 1.083
312.10 1.083
312.20 1.084
312.30 1.084
312.40 1.084
312.50 1.084
312.60 1.084
312.70 1.084
312.80 1.085
312.90 1.085
313.00 1.085
313.10 1.085
313.20 1.085
313.30 1.085
313.40 1.086
313.50 1.086
313.60 1.086
313.70 1.086
313.80 1.086
313.90 1.086
314.00 1.087
314.10 1.087
314.20 1.087
314.30 1.087
314.40 1.087
314.50 1.087
314.60 1.087
314.70 1.088
314.80 1.088
314.90 1.088
315.00 1.088
315.10 1.088
315.20 1.088
315.30 1.089
315.40 1.089
315.50 1.089
315.60 1.089
315.70 1.089
315.80 1.089
315.90 1.089
316.00 1.09
316.10 1.09
316.20 1.09
316.30 1.09
316.40 1.09
316.50 1.09
316.60 1.09
316.70 1.091
316.80 1.091
316.90 1.091
317.00 1.091
317.10 1.091
317.20 1.091
317.30 1.091
317.40 1.092
317.50 1.092
317.60 1.092
317.70 1.092
317.80 1.092
317.90 1.092
318.00 1.092
318.10 1.093
318.20 1.093
318.30 1.093
318.40 1.093
318.50 1.093
318.60 1.093
318.70 1.093
318.80 1.094
318.90 1.094
319.00 1.094
319.10 1.094
319.20 1.094
319.30 1.094
319.40 1.094
319.50 1.094
319.60 1.095
319.70 1.095
319.80 1.095
319.90 1.095
320.00 1.095
320.10 1.095
320.20 1.095
320.30 1.095
320.40 1.096
320.50 1.096
320.60 1.096
320.70 1.096
320.80 1.096
320.90 1.096
321.00 1.096
321.10 1.096
321.20 1.097
321.30 1.097
321.40 1.097
321.50 1.097
321.60 1.097
321.70 1.097
321.80 1.097
321.90 1.097
322.00 1.098
322.10 1.098
322.20 1.098
322.30 1.098
322.40 1.098
322.50 1.098
322.60 1.098
322.70 1.098
322.80 1.098
322.90 1.099
323.00 1.099
323.10 1.099
323.20 1.099
323.30 1.099
323.40 1.099
323.50 1.099
323.60 1.099
323.70 1.099
323.80 1.1
323.90 1.1
324.00 1.1
324.10 1.1
324.20 1.1
324.30 1.1
324.40 1.1
324.50 1.1
324.60 1.1
324.70 1.101
324.80 1.101
324.90 1.101
325.00 1.101
325.10 1.101
325.20 1.101
325.30 1.101
325.40 1.101
325.50 1.101
325.60 1.101
325.70 1.102
325.80 1.102
325.90 1.102
326.00 1.102
326.10 1.102
326.20 1.102
326.30 1.102
326.40 1.102
326.50 1.102
326.60 1.102
326.70 1.103
326.80 1.103
326.90 1.103
327.00 1.103
327.10 1.103
327.20 1.103
327.30 1.103
327.40 1.103
327.50 1.103
327.60 1.103
327.70 1.103
327.80 1.104
327.90 1.104
328.00 1.104
328.10 1.104
328.20 1.104
328.30 1.104
328.40 1.104
328.50 1.104
328.60 1.104
328.70 1.104
328.80 1.104
328.90 1.105
329.00 1.105
329.10 1.105
329.20 1.105
329.30 1.105
329.40 1.105
329.50 1.105
329.60 1.105
329.70 1.105
329.80 1.105
329.90 1.105
330.00 1.105
330.10 1.105
330.20 1.106
330.30 1.106
330.40 1.106
330.50 1.106
330.60 1.106
330.70 1.106
330.80 1.106
330.90 1.106
331.00 1.106
331.10 1.106
331.20 1.106
331.30 1.106
331.40 1.106
331.50 1.107
331.60 1.107
331.70 1.107
331.80 1.107
331.90 1.107
332.00 1.107
332.10 1.107
332.20 1.107
332.30 1.107
332.40 1.107
332.50 1.107
332.60 1.107
332.70 1.107
332.80 1.107
332.90 1.108
333.00 1.108
333.10 1.108
333.20 1.108
333.30 1.108
333.40 1.108
333.50 1.108
333.60 1.108
333.70 1.108
333.80 1.108
333.90 1.108
334.00 1.108
334.10 1.108
334.20 1.108
334.30 1.108
334.40 1.109
334.50 1.109
334.60 1.109
334.70 1.109
334.80 1.109
334.90 1.109
335.00 1.109
335.10 1.109
335.20 1.109
335.30 1.109
335.40 1.109
335.50 1.109
335.60 1.109
335.70 1.109
335.80 1.109
335.90 1.109
336.00 1.109
336.10 1.109
336.20 1.11
336.30 1.11
336.40 1.11
336.50 1.11
336.60 1.11
336.70 1.11
336.80 1.11
336.90 1.11
337.00 1.11
337.10 1.11
337.20 1.11
337.30 1.11
337.40 1.11
337.50 1.11
337.60 1.11
337.70 1.11
337.80 1.11
337.90 1.11
338.00 1.11
338.10 1.11
338.20 1.111
338.30 1.111
338.40 1.111
338.50 1.111
338.60 1.111
338.70 1.111
338.80 1.111
338.90 1.111
339.00 1.111
339.10 1.111
339.20 1.111
339.30 1.111
339.40 1.111
339.50 1.111
339.60 1.111
339.70 1.111
339.80 1.111
339.90 1.111
340.00 1.111
340.10 1.111
340.20 1.111
340.30 1.111
340.40 1.111
340.50 1.111
340.60 1.111
340.70 1.111
340.80 1.112
340.90 1.112
341.00 1.112
341.10 1.112
341.20 1.112
341.30 1.112
341.40 1.112
341.50 1.112
341.60 1.112
341.70 1.112
341.80 1.112
341.90 1.112
342.00 1.112
342.10 1.112
342.20 1.112
342.30 1.112
342.40 1.112
342.50 1.112
342.60 1.112
342.70 1.112
342.80 1.112
342.90 1.112
343.00 1.112
343.10 1.112
343.20 1.112
343.30 1.112
343.40 1.112
343.50 1.112
343.60 1.112
343.70 1.112
343.80 1.112
343.90 1.112
344.00 1.112
344.10 1.112
344.20 1.112
344.30 1.112
344.40 1.112
344.50 1.113
344.60 1.113
344.70 1.113
344.80 1.113
344.90 1.113
345.00 1.113
345.10 1.113
345.20 1.113
345.30 1.113
345.40 1.113
345.50 1.113
345.60 1.113
345.70 1.113
345.80 1.113
345.90 1.113
346.00 1.113
346.10 1.113
346.20 1.113
346.30 1.113
346.40 1.113
346.50 1.113
346.60 1.113
346.70 1.113
346.80 1.113
346.90 1.113
347.00 1.113
347.10 1.113
347.20 1.113
347.30 1.113
347.40 1.113
347.50 1.113
347.60 1.113
347.70 1.113
347.80 1.113
347.90 1.113
348.00 1.113
348.10 1.113
348.20 1.113
348.30 1.113
348.40 1.113
348.50 1.113
348.60 1.113
348.70 1.113
348.80 1.113
348.90 1.113
349.00 1.113
349.10 1.113
349.20 1.113
349.30 1.113
349.40 1.113
349.50 1.113
349.60 1.113
349.70 1.113
349.80 1.113
349.90 1.113
350.00 1.113
350.10 1.113
350.20 1.113
350.30 1.113
350.40 1.113
350.50 1.113
350.60 1.113
350.70 1.113
350.80 1.113
350.90 1.113
351.00 1.113
351.10 1.113
351.20 1.113
351.30 1.113
351.40 1.113
351.50 1.113
351.60 1.113
351.70 1.113
351.80 1.113
351.90 1.113
352.00 1.113
352.10 1.113
352.20 1.113
352.30 1.113
352.40 1.113
352.50 1.113
352.60 1.113
352.70 1.113
352.80 1.113
352.90 1.113
353.00 1.113
353.10 1.113
353.20 1.113
353.30 1.113
353.40 1.113
353.50 1.113
353.60 1.113
353.70 1.113
353.80 1.113
353.90 1.113
354.00 1.113
354.10 1.113
354.20 1.113
354.30 1.113
354.40 1.113
354.50 1.113
354.60 1.113
354.70 1.113
354.80 1.113
354.90 1.112
355.00 1.112
355.10 1.112
355.20 1.112
355.30 1.112
355.40 1.112
355.50 1.112
355.60 1.112
355.70 1.112
355.80 1.112
355.90 1.112
356.00 1.112
356.10 1.112
356.20 1.112
356.30 1.112
356.40 1.112
356.50 1.112
356.60 1.112
356.70 1.112
356.80 1.112
356.90 1.112
357.00 1.112
357.10 1.112
357.20 1.112
357.30 1.112
357.40 1.112
357.50 1.112
357.60 1.112
357.70 1.112
357.80 1.112
357.90 1.112
358.00 1.112
358.10 1.112
358.20 1.112
358.30 1.112
358.40 1.112
358.50 1.112
358.60 1.112
358.70 1.112
358.80 1.112
358.90 1.111
359.00 1.111
359.10 1.111
359.20 1.111
359.30 1.111
359.40 1.111
359.50 1.111
359.60 1.111
359.70 1.111
359.80 1.111
359.90 1.111
360.00 1.111
360.10 1.111
360.20 1.111
360.30 1.111
360.40 1.111
360.50 1.111
360.60 1.111
360.70 1.111
360.80 1.111
360.90 1.111
361.00 1.111
361.10 1.111
361.20 1.111
361.30 1.111
361.40 1.111
361.50 1.111
361.60 1.111
361.70 1.11
361.80 1.11
361.90 1.11
362.00 1.11
362.10 1.11
362.20 1.11
362.30 1.11
362.40 1.11
362.50 1.11
362.60 1.11
362.70 1.11
362.80 1.11
362.90 1.11
363.00 1.11
363.10 1.11
363.20 1.11
363.30 1.11
363.40 1.11
363.50 1.11
363.60 1.11
363.70 1.11
363.80 1.11
363.90 1.109
364.00 1.109
364.10 1.109
364.20 1.109
364.30 1.109
364.40 1.109
364.50 1.109
364.60 1.109
364.70 1.109
364.80 1.109
364.90 1.109
365.00 1.109
365.10 1.109
365.20 1.109
365.30 1.109
365.40 1.109
365.50 1.109
365.60 1.108
365.70 1.108
365.80 1.108
365.90 1.108
366.00 1.108
366.10 1.108
366.20 1.108
366.30 1.108
366.40 1.108
366.50 1.108
366.60 1.108
366.70 1.108
366.80 1.108
366.90 1.108
367.00 1.108
367.10 1.108
367.20 1.108
367.30 1.108
367.40 1.107
367.50 1.107
367.60 1.107
367.70 1.107
367.80 1.107
367.90 1.107
368.00 1.107
368.10 1.107
368.20 1.107
368.30 1.107
368.40 1.107
368.50 1.107
368.60 1.107
368.70 1.107
368.80 1.107
368.90 1.107
369.00 1.106
369.10 1.106
369.20 1.106
369.30 1.106
369.40 1.106
369.50 1.106
369.60 1.106
369.70 1.106
369.80 1.106
369.90 1.106
370.00 1.106
370.10 1.107
370.20 1.109
370.30 1.111
370.40 1.112
370.50 1.114
370.60 1.116
370.70 1.117
370.80 1.119
370.90 1.121
371.00 1.122
371.10 1.124
371.20 1.126
371.30 1.127
371.40 1.129
371.50 1.13
371.60 1.132
371.70 1.134
371.80 1.135
371.90 1.137
372.00 1.139
372.10 1.14
372.20 1.141
372.30 1.143
372.40 1.144
372.50 1.146
372.60 1.147
372.70 1.149
372.80 1.15
372.90 1.152
373.00 1.153
373.10 1.155
373.20 1.156
373.30 1.158
373.40 1.159
373.50 1.16
373.60 1.162
373.70 1.163
373.80 1.165
373.90 1.166
374.00 1.168
374.10 1.169
374.20 1.17
374.30 1.171
374.40 1.172
374.50 1.173
374.60 1.174
374.70 1.175
374.80 1.176
374.90 1.178
375.00 1.179
375.10 1.18
375.20 1.181
375.30 1.182
375.40 1.183
375.50 1.184
375.60 1.185
375.70 1.186
375.80 1.187
375.90 1.188
376.00 1.19
376.10 1.19
376.20 1.191
376.30 1.191
376.40 1.192
376.50 1.192
376.60 1.193
376.70 1.194
376.80 1.194
376.90 1.195
377.00 1.195
377.10 1.195
377.20 1.195
377.30 1.195
377.40 1.194
377.50 1.194
377.60 1.194
377.70 1.193
377.80 1.193
377.90 1.193
378.00 1.193
378.10 1.188
378.20 1.183
378.30 1.179
378.40 1.174
378.50 1.17
378.60 1.165
378.70 1.161
378.80 1.156
378.90 1.152
379.00 1.147
379.10 1.135
379.20 1.122
379.30 1.109
379.40 1.096
379.50 1.084
379.60 1.071
379.70 1.058
379.80 1.046
379.90 1.033
380.00 1.02
380.10 1.036
380.20 1.052
380.30 1.068
380.40 1.084
380.50 1.1
380.60 1.116
380.70 1.132
380.80 1.148
380.90 1.164
381.00 1.18
381.10 1.182
381.20 1.185
381.30 1.187
381.40 1.19
381.50 1.192
381.60 1.193
381.70 1.192
381.80 1.192
381.90 1.191
382.00 1.189
382.10 1.186
382.20 1.183
382.30 1.167
382.40 1.151
382.50 1.136
382.60 1.12
382.70 1.105
382.80 1.089
382.90 1.074
383.00 1.058
383.10 1.043
383.20 1.028
383.30 0.9774
383.40 0.8982
383.50 0.7159
383.60 0.7758
383.70 0.9202
383.80 0.9906
383.90 1.037
384.00 1.071
384.10 1.097
384.20 1.118
384.30 1.135
384.40 1.149
384.50 1.161
384.60 1.17
384.70 1.178
384.80 1.184
384.90 1.189
385.00 1.193
385.10 1.197
385.20 1.199
385.30 1.202
385.40 1.204
385.50 1.205
385.60 1.207
385.70 1.208
385.80 1.209
385.90 1.209
386.00 1.21
386.10 1.21
386.20 1.21
386.30 1.21
386.40 1.21
386.50 1.209
386.60 1.208
386.70 1.208
386.80 1.207
386.90 1.205
387.00 1.203
387.10 1.201
387.20 1.199
387.30 1.196
387.40 1.192
387.50 1.188
387.60 1.182
387.70 1.176
387.80 1.168
387.90 1.158
388.00 1.146
388.10 1.13
388.20 1.111
388.30 1.089
388.40 1.058
388.50 1.018
388.60 0.9701
388.70 0.8851
388.80 0.7195
388.90 0.4735
389.00 0.7113
389.10 0.8748
389.20 0.9642
389.30 1.014
389.40 1.055
389.50 1.087
389.60 1.109
389.70 1.129
389.80 1.145
389.90 1.157
390.00 1.167
390.10 1.175
390.20 1.182
390.30 1.187
390.40 1.192
390.50 1.196
390.60 1.199
390.70 1.202
390.80 1.204
390.90 1.206
391.00 1.208
391.10 1.209
391.20 1.21
391.30 1.211
391.40 1.212
391.50 1.213
391.60 1.214
391.70 1.214
391.80 1.215
391.90 1.215
392.00 1.215
392.10 1.216
392.20 1.216
392.30 1.216
392.40 1.216
392.50 1.216
392.60 1.216
392.70 1.216
392.80 1.216
392.90 1.216
393.00 1.216
393.10 1.216
393.20 1.216
393.30 1.215
393.40 1.215
393.50 1.215
393.60 1.214
393.70 1.214
393.80 1.214
393.90 1.213
394.00 1.213
394.10 1.212
394.20 1.211
394.30 1.21
394.40 1.21
394.50 1.208
394.60 1.207
394.70 1.206
394.80 1.204
394.90 1.203
395.00 1.201
395.10 1.198
395.20 1.196
395.30 1.193
395.40 1.189
395.50 1.185
395.60 1.18
395.70 1.174
395.80 1.167
395.90 1.158
396.00 1.147
396.10 1.135
396.20 1.118
396.30 1.097
396.40 1.073
396.50 1.038
396.60 0.9928
396.70 0.9385
396.80 0.8403
396.90 0.6528
397.00 0.376
397.10 0.6392
397.20 0.8234
397.30 0.9288
397.40 0.9855
397.50 1.032
397.60 1.068
397.70 1.093
397.80 1.114
397.90 1.132
398.00 1.144
398.10 1.155
398.20 1.164
398.30 1.171
398.40 1.176
398.50 1.182
398.60 1.186
398.70 1.189
398.80 1.192
398.90 1.195
399.00 1.197
399.10 1.199
399.20 1.2
399.30 1.201
399.40 1.203
399.50 1.203
399.60 1.204
399.70 1.205
399.80 1.206
399.90 1.206
400.00 1.207
400.10 1.207
400.20 1.207
400.30 1.208
400.40 1.208
400.50 1.208
400.60 1.208
400.70 1.209
400.80 1.209
400.90 1.209
401.00 1.209
401.10 1.209
401.20 1.209
401.30 1.209
401.40 1.209
401.50 1.209
401.60 1.209
401.70 1.209
401.80 1.209
401.90 1.209
402.00 1.209
402.10 1.209
402.20 1.209
402.30 1.209
402.40 1.209
402.50 1.209
402.60 1.208
402.70 1.208
402.80 1.208
402.90 1.208
403.00 1.208
403.10 1.208
403.20 1.208
403.30 1.208
403.40 1.207
403.50 1.207
403.60 1.207
403.70 1.207
403.80 1.207
403.90 1.207
404.00 1.206
404.10 1.206
404.20 1.206
404.30 1.206
404.40 1.206
404.50 1.205
404.60 1.205
404.70 1.205
404.80 1.205
404.90 1.205
405.00 1.204
405.10 1.204
405.20 1.204
405.30 1.204
405.40 1.203
405.50 1.203
405.60 1.203
405.70 1.202
405.80 1.202
405.90 1.202
406.00 1.201
406.10 1.201
406.20 1.201
406.30 1.2
406.40 1.2
406.50 1.199
406.60 1.199
406.70 1.198
406.80 1.198
406.90 1.197
407.00 1.197
407.10 1.196
407.20 1.195
407.30 1.194
407.40 1.193
407.50 1.192
407.60 1.191
407.70 1.19
407.80 1.189
407.90 1.187
408.00 1.185
408.10 1.183
408.20 1.181
408.30 1.178
408.40 1.175
408.50 1.171
408.60 1.167
408.70 1.163
408.80 1.157
408.90 1.15
409.00 1.143
409.10 1.133
409.20 1.121
409.30 1.107
409.40 1.089
409.50 1.066
409.60 1.039
409.70 0.9996
409.80 0.9481
409.90 0.8849
410.00 0.7589
410.10 0.5934
410.20 0.3887
410.30 0.6519
410.40 0.8305
410.50 0.9249
410.60 0.9775
410.70 1.021
410.80 1.055
410.90 1.078
411.00 1.097
411.10 1.114
411.20 1.125
411.30 1.135
411.40 1.144
411.50 1.151
411.60 1.156
411.70 1.161
411.80 1.165
411.90 1.169
412.00 1.172
412.10 1.174
412.20 1.176
412.30 1.178
412.40 1.179
412.50 1.181
412.60 1.182
412.70 1.183
412.80 1.184
412.90 1.184
413.00 1.185
413.10 1.185
413.20 1.186
413.30 1.186
413.40 1.187
413.50 1.187
413.60 1.187
413.70 1.187
413.80 1.187
413.90 1.188
414.00 1.188
414.10 1.188
414.20 1.188
414.30 1.188
414.40 1.188
414.50 1.188
414.60 1.188
414.70 1.188
414.80 1.188
414.90 1.188
415.00 1.188
415.10 1.188
415.20 1.188
415.30 1.188
415.40 1.188
415.50 1.187
415.60 1.187
415.70 1.187
415.80 1.187
415.90 1.187
416.00 1.187
416.10 1.187
416.20 1.187
416.30 1.187
416.40 1.186
416.50 1.186
416.60 1.186
416.70 1.186
416.80 1.186
416.90 1.186
417.00 1.186
417.10 1.185
417.20 1.185
417.30 1.185
417.40 1.185
417.50 1.185
417.60 1.185
417.70 1.185
417.80 1.184
417.90 1.184
418.00 1.184
418.10 1.184
418.20 1.184
418.30 1.183
418.40 1.183
418.50 1.183
418.60 1.183
418.70 1.183
418.80 1.183
418.90 1.182
419.00 1.182
419.10 1.182
419.20 1.182
419.30 1.182
419.40 1.182
419.50 1.181
419.60 1.181
419.70 1.181
419.80 1.181
419.90 1.181
420.00 1.18
420.10 1.18
420.20 1.18
420.30 1.18
420.40 1.18
420.50 1.18
420.60 1.179
420.70 1.179
420.80 1.179
420.90 1.179
421.00 1.179
421.10 1.178
421.20 1.178
421.30 1.178
421.40 1.178
421.50 1.178
421.60 1.178
421.70 1.177
421.80 1.177
421.90 1.177
422.00 1.177
422.10 1.177
422.20 1.176
422.30 1.176
422.40 1.176
422.50 1.176
422.60 1.176
422.70 1.175
422.80 1.175
422.90 1.175
423.00 1.175
423.10 1.175
423.20 1.174
423.30 1.174
423.40 1.174
423.50 1.174
423.60 1.174
423.70 1.173
423.80 1.173
423.90 1.173
424.00 1.173
424.10 1.173
424.20 1.172
424.30 1.172
424.40 1.172
424.50 1.172
424.60 1.172
424.70 1.171
424.80 1.171
424.90 1.171
425.00 1.171
425.10 1.17
425.20 1.17
425.30 1.17
425.40 1.17
425.50 1.17
425.60 1.169
425.70 1.169
425.80 1.169
425.90 1.169
426.00 1.169
426.10 1.168
426.20 1.168
426.30 1.168
426.40 1.168
426.50 1.167
426.60 1.167
426.70 1.167
426.80 1.167
426.90 1.166
427.00 1.166
427.10 1.166
427.20 1.166
427.30 1.166
427.40 1.165
427.50 1.165
427.60 1.165
427.70 1.165
427.80 1.164
427.90 1.164
428.00 1.164
428.10 1.163
428.20 1.163
428.30 1.163
428.40 1.163
428.50 1.162
428.60 1.162
428.70 1.162
428.80 1.162
428.90 1.161
429.00 1.161
429.10 1.161
429.20 1.16
429.30 1.16
429.40 1.159
429.50 1.159
429.60 1.159
429.70 1.158
429.80 1.158
429.90 1.158
430.00 1.157
430.10 1.157
430.20 1.156
430.30 1.156
430.40 1.155
430.50 1.155
430.60 1.154
430.70 1.153
430.80 1.153
430.90 1.152
431.00 1.151
431.10 1.151
431.20 1.15
431.30 1.149
431.40 1.148
431.50 1.147
431.60 1.146
431.70 1.144
431.80 1.143
431.90 1.141
432.00 1.14
432.10 1.137
432.20 1.135
432.30 1.132
432.40 1.128
432.50 1.124
432.60 1.119
432.70 1.113
432.80 1.105
432.90 1.096
433.00 1.086
433.10 1.073
433.20 1.059
433.30 1.043
433.40 1.019
433.50 0.989
433.60 0.9535
433.70 0.8982
433.80 0.816
433.90 0.707
434.00 0.4581
434.10 0.4625
434.20 0.7197
434.30 0.824
434.40 0.9028
434.50 0.9563
434.60 0.9907
434.70 1.019
434.80 1.042
434.90 1.058
435.00 1.072
435.10 1.083
435.20 1.093
435.30 1.101
435.40 1.108
435.50 1.114
435.60 1.119
435.70 1.123
435.80 1.126
435.90 1.128
436.00 1.13
436.10 1.132
436.20 1.133
436.30 1.134
436.40 1.135
436.50 1.136
436.60 1.137
436.70 1.138
436.80 1.138
436.90 1.138
437.00 1.139
437.10 1.139
437.20 1.139
437.30 1.14
437.40 1.14
437.50 1.14
437.60 1.14
437.70 1.14
437.80 1.14
437.90 1.14
438.00 1.141
438.10 1.141
438.20 1.141
438.30 1.141
438.40 1.14
438.50 1.14
438.60 1.14
438.70 1.14
438.80 1.14
438.90 1.14
439.00 1.14
439.10 1.14
439.20 1.14
439.30 1.14
439.40 1.14
439.50 1.14
439.60 1.139
439.70 1.139
439.80 1.139
439.90 1.139
440.00 1.139
440.10 1.139
440.20 1.138
440.30 1.138
440.40 1.138
440.50 1.138
440.60 1.138
440.70 1.138
440.80 1.138
440.90 1.137
441.00 1.137
441.10 1.137
441.20 1.137
441.30 1.137
441.40 1.136
441.50 1.136
441.60 1.136
441.70 1.136
441.80 1.136
441.90 1.135
442.00 1.135
442.10 1.135
442.20 1.135
442.30 1.135
442.40 1.134
442.50 1.134
442.60 1.134
442.70 1.134
442.80 1.134
442.90 1.133
443.00 1.133
443.10 1.133
443.20 1.133
443.30 1.133
443.40 1.132
443.50 1.132
443.60 1.132
443.70 1.132
443.80 1.132
443.90 1.131
444.00 1.131
444.10 1.131
444.20 1.131
444.30 1.131
444.40 1.13
444.50 1.13
444.60 1.13
444.70 1.13
444.80 1.13
444.90 1.129
445.00 1.129
445.10 1.129
445.20 1.129
445.30 1.128
445.40 1.128
445.50 1.128
445.60 1.128
445.70 1.128
445.80 1.127
445.90 1.127
446.00 1.127
446.10 1.127
446.20 1.126
446.30 1.126
446.40 1.126
446.50 1.126
446.60 1.126
446.70 1.125
446.80 1.125
446.90 1.125
447.00 1.125
447.10 1.125
447.20 1.124
447.30 1.124
447.40 1.124
447.50 1.124
447.60 1.123
447.70 1.123
447.80 1.123
447.90 1.123
448.00 1.123
448.10 1.122
448.20 1.122
448.30 1.122
448.40 1.122
448.50 1.121
448.60 1.121
448.70 1.121
448.80 1.121
448.90 1.121
449.00 1.12
449.10 1.12
449.20 1.12
449.30 1.12
449.40 1.119
449.50 1.119
449.60 1.119
449.70 1.119
449.80 1.119
449.90 1.118
450.00 1.118
450.10 1.118
450.20 1.118
450.30 1.117
450.40 1.117
450.50 1.117
450.60 1.117
450.70 1.117
450.80 1.116
450.90 1.116
451.00 1.116
451.10 1.116
451.20 1.115
451.30 1.115
451.40 1.115
451.50 1.115
451.60 1.115
451.70 1.114
451.80 1.114
451.90 1.114
452.00 1.114
452.10 1.113
452.20 1.113
452.30 1.113
452.40 1.113
452.50 1.113
452.60 1.112
452.70 1.112
452.80 1.112
452.90 1.112
453.00 1.111
453.10 1.111
453.20 1.111
453.30 1.111
453.40 1.111
453.50 1.11
453.60 1.11
453.70 1.11
453.80 1.11
