# Version 2.1 - nm, norm@500 to 1, cut digits, bergeron_16000_95.dat_16000
# Wavelength(nm)  Flambda(ergs/cm^s/s/nm)
300.00 2.979
300.10 2.977
300.20 2.974
300.30 2.972
300.40 2.97
300.50 2.967
300.60 2.965
300.70 2.962
300.80 2.96
300.90 2.957
301.00 2.955
301.10 2.952
301.20 2.95
301.30 2.948
301.40 2.945
301.50 2.943
301.60 2.94
301.70 2.938
301.80 2.935
301.90 2.933
302.00 2.931
302.10 2.928
302.20 2.926
302.30 2.923
302.40 2.921
302.50 2.919
302.60 2.916
302.70 2.914
302.80 2.911
302.90 2.909
303.00 2.907
303.10 2.904
303.20 2.902
303.30 2.9
303.40 2.897
303.50 2.895
303.60 2.892
303.70 2.89
303.80 2.888
303.90 2.885
304.00 2.883
304.10 2.881
304.20 2.878
304.30 2.876
304.40 2.874
304.50 2.871
304.60 2.869
304.70 2.867
304.80 2.864
304.90 2.862
305.00 2.86
305.10 2.857
305.20 2.855
305.30 2.853
305.40 2.85
305.50 2.848
305.60 2.846
305.70 2.843
305.80 2.841
305.90 2.839
306.00 2.836
306.10 2.834
306.20 2.832
306.30 2.829
306.40 2.827
306.50 2.825
306.60 2.822
306.70 2.82
306.80 2.818
306.90 2.816
307.00 2.813
307.10 2.811
307.20 2.809
307.30 2.806
307.40 2.804
307.50 2.802
307.60 2.8
307.70 2.797
307.80 2.795
307.90 2.793
308.00 2.791
308.10 2.788
308.20 2.786
308.30 2.784
308.40 2.782
308.50 2.779
308.60 2.777
308.70 2.775
308.80 2.773
308.90 2.77
309.00 2.768
309.10 2.766
309.20 2.764
309.30 2.761
309.40 2.759
309.50 2.757
309.60 2.755
309.70 2.753
309.80 2.75
309.90 2.748
310.00 2.746
310.10 2.744
310.20 2.742
310.30 2.739
310.40 2.737
310.50 2.735
310.60 2.733
310.70 2.73
310.80 2.728
310.90 2.726
311.00 2.724
311.10 2.722
311.20 2.72
311.30 2.717
311.40 2.715
311.50 2.713
311.60 2.711
311.70 2.709
311.80 2.706
311.90 2.704
312.00 2.702
312.10 2.7
312.20 2.698
312.30 2.696
312.40 2.693
312.50 2.691
312.60 2.689
312.70 2.687
312.80 2.685
312.90 2.683
313.00 2.68
313.10 2.678
313.20 2.676
313.30 2.674
313.40 2.672
313.50 2.67
313.60 2.668
313.70 2.665
313.80 2.663
313.90 2.661
314.00 2.659
314.10 2.657
314.20 2.655
314.30 2.653
314.40 2.651
314.50 2.648
314.60 2.646
314.70 2.644
314.80 2.642
314.90 2.64
315.00 2.638
315.10 2.636
315.20 2.634
315.30 2.632
315.40 2.629
315.50 2.627
315.60 2.625
315.70 2.623
315.80 2.621
315.90 2.619
316.00 2.617
316.10 2.615
316.20 2.613
316.30 2.611
316.40 2.609
316.50 2.607
316.60 2.604
316.70 2.602
316.80 2.6
316.90 2.598
317.00 2.596
317.10 2.594
317.20 2.592
317.30 2.59
317.40 2.588
317.50 2.586
317.60 2.584
317.70 2.582
317.80 2.58
317.90 2.578
318.00 2.576
318.10 2.574
318.20 2.572
318.30 2.57
318.40 2.568
318.50 2.565
318.60 2.563
318.70 2.561
318.80 2.559
318.90 2.557
319.00 2.555
319.10 2.553
319.20 2.551
319.30 2.549
319.40 2.547
319.50 2.545
319.60 2.543
319.70 2.541
319.80 2.539
319.90 2.537
320.00 2.535
320.10 2.533
320.20 2.531
320.30 2.529
320.40 2.527
320.50 2.525
320.60 2.523
320.70 2.521
320.80 2.519
320.90 2.517
321.00 2.515
321.10 2.513
321.20 2.511
321.30 2.509
321.40 2.507
321.50 2.505
321.60 2.503
321.70 2.501
321.80 2.499
321.90 2.498
322.00 2.496
322.10 2.494
322.20 2.492
322.30 2.49
322.40 2.488
322.50 2.486
322.60 2.484
322.70 2.482
322.80 2.48
322.90 2.478
323.00 2.476
323.10 2.474
323.20 2.472
323.30 2.47
323.40 2.468
323.50 2.466
323.60 2.465
323.70 2.463
323.80 2.461
323.90 2.459
324.00 2.457
324.10 2.455
324.20 2.453
324.30 2.451
324.40 2.449
324.50 2.447
324.60 2.445
324.70 2.443
324.80 2.442
324.90 2.44
325.00 2.438
325.10 2.436
325.20 2.434
325.30 2.432
325.40 2.43
325.50 2.428
325.60 2.426
325.70 2.424
325.80 2.423
325.90 2.421
326.00 2.419
326.10 2.417
326.20 2.415
326.30 2.413
326.40 2.411
326.50 2.409
326.60 2.407
326.70 2.406
326.80 2.404
326.90 2.402
327.00 2.4
327.10 2.398
327.20 2.396
327.30 2.394
327.40 2.393
327.50 2.391
327.60 2.389
327.70 2.387
327.80 2.385
327.90 2.383
328.00 2.381
328.10 2.38
328.20 2.378
328.30 2.376
328.40 2.374
328.50 2.372
328.60 2.37
328.70 2.369
328.80 2.367
328.90 2.365
329.00 2.363
329.10 2.361
329.20 2.359
329.30 2.358
329.40 2.356
329.50 2.354
329.60 2.352
329.70 2.35
329.80 2.348
329.90 2.347
330.00 2.345
330.10 2.343
330.20 2.341
330.30 2.339
330.40 2.338
330.50 2.336
330.60 2.334
330.70 2.332
330.80 2.33
330.90 2.329
331.00 2.327
331.10 2.325
331.20 2.323
331.30 2.321
331.40 2.32
331.50 2.318
331.60 2.316
331.70 2.314
331.80 2.312
331.90 2.311
332.00 2.309
332.10 2.307
332.20 2.305
332.30 2.304
332.40 2.302
332.50 2.3
332.60 2.298
332.70 2.296
332.80 2.295
332.90 2.293
333.00 2.291
333.10 2.289
333.20 2.288
333.30 2.286
333.40 2.284
333.50 2.282
333.60 2.281
333.70 2.279
333.80 2.277
333.90 2.276
334.00 2.274
334.10 2.272
334.20 2.27
334.30 2.269
334.40 2.267
334.50 2.265
334.60 2.263
334.70 2.262
334.80 2.26
334.90 2.258
335.00 2.256
335.10 2.255
335.20 2.253
335.30 2.251
335.40 2.25
335.50 2.248
335.60 2.246
335.70 2.244
335.80 2.243
335.90 2.241
336.00 2.239
336.10 2.237
336.20 2.236
336.30 2.234
336.40 2.232
336.50 2.231
336.60 2.229
336.70 2.227
336.80 2.226
336.90 2.224
337.00 2.222
337.10 2.22
337.20 2.219
337.30 2.217
337.40 2.215
337.50 2.214
337.60 2.212
337.70 2.21
337.80 2.209
337.90 2.207
338.00 2.205
338.10 2.204
338.20 2.202
338.30 2.2
338.40 2.199
338.50 2.197
338.60 2.195
338.70 2.194
338.80 2.192
338.90 2.19
339.00 2.189
339.10 2.187
339.20 2.185
339.30 2.184
339.40 2.182
339.50 2.18
339.60 2.179
339.70 2.177
339.80 2.175
339.90 2.174
340.00 2.172
340.10 2.17
340.20 2.169
340.30 2.167
340.40 2.165
340.50 2.164
340.60 2.162
340.70 2.161
340.80 2.159
340.90 2.157
341.00 2.156
341.10 2.154
341.20 2.152
341.30 2.151
341.40 2.149
341.50 2.148
341.60 2.146
341.70 2.144
341.80 2.143
341.90 2.141
342.00 2.14
342.10 2.138
342.20 2.136
342.30 2.135
342.40 2.133
342.50 2.131
342.60 2.13
342.70 2.128
342.80 2.127
342.90 2.125
343.00 2.123
343.10 2.122
343.20 2.12
343.30 2.119
343.40 2.117
343.50 2.115
343.60 2.114
343.70 2.112
343.80 2.111
343.90 2.109
344.00 2.107
344.10 2.106
344.20 2.104
344.30 2.103
344.40 2.101
344.50 2.1
344.60 2.098
344.70 2.096
344.80 2.095
344.90 2.093
345.00 2.092
345.10 2.09
345.20 2.089
345.30 2.087
345.40 2.085
345.50 2.084
345.60 2.082
345.70 2.081
345.80 2.079
345.90 2.078
346.00 2.076
346.10 2.075
346.20 2.073
346.30 2.071
346.40 2.07
346.50 2.068
346.60 2.067
346.70 2.065
346.80 2.064
346.90 2.062
347.00 2.061
347.10 2.059
347.20 2.058
347.30 2.056
347.40 2.055
347.50 2.053
347.60 2.051
347.70 2.05
347.80 2.048
347.90 2.047
348.00 2.045
348.10 2.044
348.20 2.042
348.30 2.041
348.40 2.039
348.50 2.038
348.60 2.036
348.70 2.035
348.80 2.033
348.90 2.032
349.00 2.03
349.10 2.029
349.20 2.027
349.30 2.026
349.40 2.024
349.50 2.023
349.60 2.021
349.70 2.02
349.80 2.018
349.90 2.017
350.00 2.015
350.10 2.014
350.20 2.012
350.30 2.011
350.40 2.009
350.50 2.008
350.60 2.006
350.70 2.005
350.80 2.003
350.90 2.002
351.00 2
351.10 1.999
351.20 1.997
351.30 1.996
351.40 1.994
351.50 1.993
351.60 1.991
351.70 1.99
351.80 1.988
351.90 1.987
352.00 1.985
352.10 1.984
352.20 1.982
352.30 1.981
352.40 1.979
352.50 1.978
352.60 1.977
352.70 1.975
352.80 1.974
352.90 1.972
353.00 1.971
353.10 1.969
353.20 1.968
353.30 1.966
353.40 1.965
353.50 1.963
353.60 1.962
353.70 1.961
353.80 1.959
353.90 1.958
354.00 1.956
354.10 1.955
354.20 1.953
354.30 1.952
354.40 1.95
354.50 1.949
354.60 1.948
354.70 1.946
354.80 1.945
354.90 1.943
355.00 1.942
355.10 1.94
355.20 1.939
355.30 1.938
355.40 1.936
355.50 1.935
355.60 1.933
355.70 1.932
355.80 1.93
355.90 1.929
356.00 1.928
356.10 1.926
356.20 1.925
356.30 1.923
356.40 1.922
356.50 1.921
356.60 1.919
356.70 1.918
356.80 1.916
356.90 1.915
357.00 1.914
357.10 1.912
357.20 1.911
357.30 1.909
357.40 1.908
357.50 1.907
357.60 1.905
357.70 1.904
357.80 1.902
357.90 1.901
358.00 1.9
358.10 1.898
358.20 1.897
358.30 1.895
358.40 1.894
358.50 1.893
358.60 1.891
358.70 1.89
358.80 1.888
358.90 1.887
359.00 1.886
359.10 1.884
359.20 1.883
359.30 1.882
359.40 1.88
359.50 1.879
359.60 1.877
359.70 1.876
359.80 1.875
359.90 1.873
360.00 1.872
360.10 1.871
360.20 1.869
360.30 1.868
360.40 1.867
360.50 1.865
360.60 1.864
360.70 1.862
360.80 1.861
360.90 1.86
361.00 1.858
361.10 1.857
361.20 1.856
361.30 1.854
361.40 1.853
361.50 1.852
361.60 1.85
361.70 1.849
361.80 1.848
361.90 1.846
362.00 1.845
362.10 1.844
362.20 1.842
362.30 1.841
362.40 1.84
362.50 1.838
362.60 1.837
362.70 1.836
362.80 1.834
362.90 1.833
363.00 1.832
363.10 1.83
363.20 1.828
363.30 1.827
363.40 1.825
363.50 1.824
363.60 1.822
363.70 1.821
363.80 1.819
363.90 1.818
364.00 1.816
364.10 1.814
364.20 1.813
364.30 1.811
364.40 1.81
364.50 1.808
364.60 1.807
364.70 1.805
364.80 1.803
364.90 1.802
365.00 1.8
365.10 1.799
365.20 1.797
365.30 1.795
365.40 1.794
365.50 1.792
365.60 1.791
365.70 1.789
365.80 1.788
365.90 1.786
366.00 1.784
366.10 1.783
366.20 1.782
366.30 1.78
366.40 1.779
366.50 1.778
366.60 1.776
366.70 1.775
366.80 1.774
366.90 1.772
367.00 1.771
367.10 1.769
367.20 1.768
367.30 1.767
367.40 1.765
367.50 1.764
367.60 1.763
367.70 1.761
367.80 1.76
367.90 1.759
368.00 1.757
368.10 1.756
368.20 1.755
368.30 1.753
368.40 1.752
368.50 1.751
368.60 1.749
368.70 1.748
368.80 1.747
368.90 1.745
369.00 1.744
369.10 1.743
369.20 1.741
369.30 1.74
369.40 1.739
369.50 1.737
369.60 1.736
369.70 1.734
369.80 1.733
369.90 1.732
370.00 1.73
370.10 1.729
370.20 1.728
370.30 1.726
370.40 1.725
370.50 1.724
370.60 1.723
370.70 1.721
370.80 1.72
370.90 1.719
371.00 1.717
371.10 1.716
371.20 1.715
371.30 1.713
371.40 1.712
371.50 1.711
371.60 1.709
371.70 1.708
371.80 1.707
371.90 1.705
372.00 1.704
372.10 1.703
372.20 1.702
372.30 1.7
372.40 1.699
372.50 1.698
372.60 1.697
372.70 1.695
372.80 1.694
372.90 1.693
373.00 1.692
373.10 1.69
373.20 1.689
373.30 1.688
373.40 1.687
373.50 1.685
373.60 1.684
373.70 1.683
373.80 1.682
373.90 1.681
374.00 1.679
374.10 1.678
374.20 1.677
374.30 1.676
374.40 1.675
374.50 1.673
374.60 1.672
374.70 1.671
374.80 1.67
374.90 1.669
375.00 1.668
375.10 1.666
375.20 1.665
375.30 1.664
375.40 1.663
375.50 1.662
375.60 1.661
375.70 1.659
375.80 1.658
375.90 1.657
376.00 1.656
376.10 1.655
376.20 1.654
376.30 1.653
376.40 1.652
376.50 1.651
376.60 1.65
376.70 1.648
376.80 1.647
376.90 1.646
377.00 1.645
377.10 1.644
377.20 1.643
377.30 1.642
377.40 1.641
377.50 1.64
377.60 1.638
377.70 1.637
377.80 1.636
377.90 1.635
378.00 1.634
378.10 1.633
378.20 1.631
378.30 1.63
378.40 1.629
378.50 1.627
378.60 1.626
378.70 1.625
378.80 1.623
378.90 1.622
379.00 1.621
379.10 1.619
379.20 1.618
379.30 1.617
379.40 1.616
379.50 1.615
379.60 1.614
379.70 1.613
379.80 1.612
379.90 1.61
380.00 1.609
380.10 1.609
380.20 1.608
380.30 1.608
380.40 1.607
380.50 1.607
380.60 1.606
380.70 1.606
380.80 1.605
380.90 1.605
381.00 1.605
381.10 1.604
381.20 1.603
381.30 1.602
381.40 1.602
381.50 1.601
381.60 1.6
381.70 1.599
381.80 1.598
381.90 1.597
382.00 1.596
382.10 1.595
382.20 1.593
382.30 1.591
382.40 1.59
382.50 1.588
382.60 1.586
382.70 1.584
382.80 1.583
382.90 1.581
383.00 1.579
383.10 1.577
383.20 1.575
383.30 1.574
383.40 1.573
383.50 1.572
383.60 1.571
383.70 1.572
383.80 1.572
383.90 1.572
384.00 1.573
384.10 1.573
384.20 1.574
384.30 1.575
384.40 1.576
384.50 1.577
384.60 1.578
384.70 1.578
384.80 1.578
384.90 1.578
385.00 1.579
385.10 1.578
385.20 1.578
385.30 1.578
385.40 1.577
385.50 1.577
385.60 1.576
385.70 1.576
385.80 1.575
385.90 1.574
386.00 1.573
386.10 1.572
386.20 1.571
386.30 1.569
386.40 1.568
386.50 1.566
386.60 1.565
386.70 1.563
386.80 1.561
386.90 1.56
387.00 1.558
387.10 1.556
387.20 1.554
387.30 1.551
387.40 1.549
387.50 1.546
387.60 1.544
387.70 1.541
387.80 1.538
387.90 1.535
388.00 1.532
388.10 1.528
388.20 1.525
388.30 1.521
388.40 1.516
388.50 1.513
388.60 1.509
388.70 1.507
388.80 1.506
388.90 1.504
389.00 1.505
389.10 1.506
389.20 1.507
389.30 1.51
389.40 1.513
389.50 1.517
389.60 1.52
389.70 1.523
389.80 1.526
389.90 1.529
390.00 1.531
390.10 1.533
390.20 1.536
390.30 1.538
390.40 1.54
390.50 1.541
390.60 1.543
390.70 1.544
390.80 1.546
390.90 1.547
391.00 1.548
391.10 1.549
391.20 1.55
391.30 1.55
391.40 1.551
391.50 1.551
391.60 1.552
391.70 1.552
391.80 1.552
391.90 1.552
392.00 1.552
392.10 1.551
392.20 1.551
392.30 1.55
392.40 1.549
392.50 1.548
392.60 1.547
392.70 1.545
392.80 1.544
392.90 1.542
393.00 1.54
393.10 1.538
393.20 1.536
393.30 1.533
393.40 1.531
393.50 1.528
393.60 1.525
393.70 1.522
393.80 1.519
393.90 1.515
394.00 1.512
394.10 1.508
394.20 1.504
394.30 1.499
394.40 1.495
394.50 1.49
394.60 1.485
394.70 1.48
394.80 1.475
394.90 1.47
395.00 1.465
395.10 1.459
395.20 1.453
395.30 1.447
395.40 1.441
395.50 1.435
395.60 1.428
395.70 1.421
395.80 1.414
395.90 1.406
396.00 1.399
396.10 1.392
396.20 1.384
396.30 1.376
396.40 1.367
396.50 1.356
396.60 1.345
396.70 1.334
396.80 1.326
396.90 1.319
397.00 1.312
397.10 1.318
397.20 1.324
397.30 1.331
397.40 1.342
397.50 1.352
397.60 1.362
397.70 1.371
397.80 1.379
397.90 1.386
398.00 1.393
398.10 1.4
398.20 1.407
398.30 1.414
398.40 1.42
398.50 1.427
398.60 1.433
398.70 1.439
398.80 1.444
398.90 1.45
399.00 1.455
399.10 1.46
399.20 1.466
399.30 1.47
399.40 1.475
399.50 1.48
399.60 1.484
399.70 1.489
399.80 1.493
399.90 1.497
400.00 1.5
400.10 1.504
400.20 1.507
400.30 1.511
400.40 1.514
400.50 1.517
400.60 1.519
400.70 1.522
400.80 1.524
400.90 1.527
401.00 1.529
401.10 1.531
401.20 1.532
401.30 1.534
401.40 1.535
401.50 1.537
401.60 1.538
401.70 1.539
401.80 1.54
401.90 1.54
402.00 1.541
402.10 1.541
402.20 1.541
402.30 1.541
402.40 1.541
402.50 1.541
402.60 1.541
402.70 1.54
402.80 1.539
402.90 1.538
403.00 1.537
403.10 1.536
403.20 1.535
403.30 1.533
403.40 1.532
403.50 1.53
403.60 1.528
403.70 1.526
403.80 1.524
403.90 1.521
404.00 1.519
404.10 1.516
404.20 1.513
404.30 1.51
404.40 1.507
404.50 1.503
404.60 1.5
404.70 1.496
404.80 1.492
404.90 1.488
405.00 1.484
405.10 1.479
405.20 1.475
405.30 1.47
405.40 1.465
405.50 1.46
405.60 1.454
405.70 1.449
405.80 1.443
405.90 1.437
406.00 1.431
406.10 1.425
406.20 1.419
406.30 1.412
406.40 1.405
406.50 1.398
406.60 1.391
406.70 1.384
406.80 1.376
406.90 1.368
407.00 1.36
407.10 1.352
407.20 1.343
407.30 1.334
407.40 1.325
407.50 1.316
407.60 1.306
407.70 1.297
407.80 1.287
407.90 1.277
408.00 1.266
408.10 1.256
408.20 1.245
408.30 1.234
408.40 1.223
408.50 1.212
408.60 1.2
408.70 1.188
408.80 1.175
408.90 1.163
409.00 1.15
409.10 1.137
409.20 1.125
409.30 1.113
409.40 1.101
409.50 1.087
409.60 1.074
409.70 1.06
409.80 1.045
409.90 1.031
410.00 1.02
410.10 1.014
410.20 1.012
410.30 1.016
410.40 1.024
410.50 1.036
410.60 1.049
410.70 1.062
410.80 1.076
410.90 1.088
411.00 1.1
411.10 1.111
411.20 1.122
411.30 1.133
411.40 1.145
411.50 1.157
411.60 1.168
411.70 1.18
411.80 1.19
411.90 1.201
412.00 1.211
412.10 1.221
412.20 1.231
412.30 1.24
412.40 1.249
412.50 1.259
412.60 1.268
412.70 1.277
412.80 1.285
412.90 1.294
413.00 1.302
413.10 1.31
413.20 1.318
413.30 1.326
413.40 1.333
413.50 1.341
413.60 1.348
413.70 1.354
413.80 1.361
413.90 1.368
414.00 1.374
414.10 1.38
414.20 1.386
414.30 1.392
414.40 1.398
414.50 1.403
414.60 1.409
414.70 1.414
414.80 1.419
414.90 1.425
415.00 1.43
415.10 1.434
415.20 1.439
415.30 1.444
415.40 1.448
415.50 1.452
415.60 1.457
415.70 1.461
415.80 1.465
415.90 1.469
416.00 1.472
416.10 1.476
416.20 1.48
416.30 1.483
416.40 1.486
416.50 1.49
416.60 1.493
416.70 1.496
416.80 1.499
416.90 1.502
417.00 1.504
417.10 1.507
417.20 1.51
417.30 1.512
417.40 1.514
417.50 1.517
417.60 1.519
417.70 1.521
417.80 1.523
417.90 1.525
418.00 1.527
418.10 1.528
418.20 1.53
418.30 1.532
418.40 1.533
418.50 1.535
418.60 1.536
418.70 1.537
418.80 1.538
418.90 1.54
419.00 1.541
419.10 1.542
419.20 1.543
419.30 1.543
419.40 1.544
419.50 1.545
419.60 1.545
419.70 1.546
419.80 1.546
419.90 1.546
420.00 1.547
420.10 1.547
420.20 1.547
420.30 1.547
420.40 1.547
420.50 1.547
420.60 1.547
420.70 1.547
420.80 1.546
420.90 1.546
421.00 1.545
421.10 1.545
421.20 1.544
421.30 1.544
421.40 1.543
421.50 1.542
421.60 1.541
421.70 1.54
421.80 1.539
421.90 1.538
422.00 1.537
422.10 1.536
422.20 1.534
422.30 1.533
422.40 1.531
422.50 1.53
422.60 1.528
422.70 1.527
422.80 1.525
422.90 1.523
423.00 1.521
423.10 1.519
423.20 1.517
423.30 1.515
423.40 1.513
423.50 1.511
423.60 1.508
423.70 1.506
423.80 1.503
423.90 1.501
424.00 1.498
424.10 1.496
424.20 1.493
424.30 1.49
424.40 1.487
424.50 1.484
424.60 1.481
424.70 1.478
424.80 1.475
424.90 1.472
425.00 1.468
425.10 1.465
425.20 1.461
425.30 1.458
425.40 1.454
425.50 1.45
425.60 1.447
425.70 1.443
425.80 1.439
425.90 1.435
426.00 1.431
426.10 1.426
426.20 1.421
426.30 1.416
426.40 1.412
426.50 1.407
426.60 1.403
426.70 1.398
426.80 1.393
426.90 1.388
427.00 1.384
427.10 1.379
427.20 1.374
427.30 1.368
427.40 1.363
427.50 1.358
427.60 1.352
427.70 1.347
427.80 1.341
427.90 1.336
428.00 1.33
428.10 1.324
428.20 1.318
428.30 1.312
428.40 1.306
428.50 1.299
428.60 1.293
428.70 1.287
428.80 1.28
428.90 1.273
429.00 1.267
429.10 1.26
429.20 1.253
429.30 1.246
429.40 1.238
429.50 1.231
429.60 1.224
429.70 1.216
429.80 1.208
429.90 1.201
430.00 1.193
430.10 1.185
430.20 1.177
430.30 1.168
430.40 1.16
430.50 1.151
430.60 1.143
430.70 1.134
430.80 1.125
430.90 1.115
431.00 1.106
431.10 1.096
431.20 1.087
431.30 1.077
431.40 1.066
431.50 1.056
431.60 1.046
431.70 1.035
431.80 1.024
431.90 1.013
432.00 1.002
432.10 0.9904
432.20 0.9787
432.30 0.9667
432.40 0.9544
432.50 0.9416
432.60 0.9285
432.70 0.9151
432.80 0.9014
432.90 0.8876
433.00 0.8739
433.10 0.8603
433.20 0.8467
433.30 0.833
433.40 0.8191
433.50 0.8048
433.60 0.7901
433.70 0.7712
433.80 0.7472
433.90 0.7182
434.00 0.6887
434.10 0.6893
434.20 0.7198
434.30 0.7476
434.40 0.7704
434.50 0.7881
434.60 0.8019
434.70 0.8153
434.80 0.8283
434.90 0.841
435.00 0.8537
435.10 0.8663
435.20 0.879
435.30 0.8917
435.40 0.9043
435.50 0.9166
435.60 0.9285
435.70 0.9401
435.80 0.9511
435.90 0.9619
436.00 0.9724
436.10 0.9825
436.20 0.9924
436.30 1.002
436.40 1.012
436.50 1.021
436.60 1.03
436.70 1.039
436.80 1.048
436.90 1.056
437.00 1.065
437.10 1.073
437.20 1.081
437.30 1.089
437.40 1.096
437.50 1.104
437.60 1.111
437.70 1.118
437.80 1.125
437.90 1.131
438.00 1.138
438.10 1.145
438.20 1.151
438.30 1.157
438.40 1.163
438.50 1.169
438.60 1.175
438.70 1.181
438.80 1.186
438.90 1.192
439.00 1.197
439.10 1.202
439.20 1.208
439.30 1.213
439.40 1.218
439.50 1.223
439.60 1.228
439.70 1.232
439.80 1.237
439.90 1.242
440.00 1.246
440.10 1.25
440.20 1.255
440.30 1.259
440.40 1.263
440.50 1.267
440.60 1.271
440.70 1.275
440.80 1.278
440.90 1.282
441.00 1.286
441.10 1.289
441.20 1.293
441.30 1.296
441.40 1.299
441.50 1.303
441.60 1.306
441.70 1.309
441.80 1.312
441.90 1.315
442.00 1.318
442.10 1.321
442.20 1.324
442.30 1.326
442.40 1.329
442.50 1.332
442.60 1.334
442.70 1.337
442.80 1.339
442.90 1.342
443.00 1.344
443.10 1.346
443.20 1.349
443.30 1.351
443.40 1.353
443.50 1.355
443.60 1.357
443.70 1.359
443.80 1.361
443.90 1.363
444.00 1.365
444.10 1.367
444.20 1.369
444.30 1.37
444.40 1.372
444.50 1.374
444.60 1.375
444.70 1.377
444.80 1.379
444.90 1.38
445.00 1.382
445.10 1.383
445.20 1.384
445.30 1.386
445.40 1.387
445.50 1.388
445.60 1.389
445.70 1.391
445.80 1.392
445.90 1.393
446.00 1.394
446.10 1.395
446.20 1.396
446.30 1.397
446.40 1.398
446.50 1.399
446.60 1.4
446.70 1.401
446.80 1.402
446.90 1.402
447.00 1.403
447.10 1.404
447.20 1.405
447.30 1.405
447.40 1.406
447.50 1.407
447.60 1.407
447.70 1.408
447.80 1.408
447.90 1.409
448.00 1.409
448.10 1.41
448.20 1.41
448.30 1.411
448.40 1.411
448.50 1.411
448.60 1.412
448.70 1.412
448.80 1.412
448.90 1.413
449.00 1.413
449.10 1.414
449.20 1.414
449.30 1.414
449.40 1.414
449.50 1.414
449.60 1.414
449.70 1.415
449.80 1.415
449.90 1.415
450.00 1.415
450.10 1.415
450.20 1.415
450.30 1.415
450.40 1.415
450.50 1.415
450.60 1.415
450.70 1.415
450.80 1.415
450.90 1.415
451.00 1.415
451.10 1.414
451.20 1.414
451.30 1.414
451.40 1.414
451.50 1.414
451.60 1.414
451.70 1.413
451.80 1.413
451.90 1.413
452.00 1.413
452.10 1.412
452.20 1.412
452.30 1.412
452.40 1.411
452.50 1.411
452.60 1.411
452.70 1.41
452.80 1.41
452.90 1.41
453.00 1.409
453.10 1.409
453.20 1.408
453.30 1.408
453.40 1.408
453.50 1.407
453.60 1.407
453.70 1.406
