# Version 2.1 - nm, norm@500 to 1, cut digits, bergeron_2250_90.dat_2250
# Wavelength(nm)  Flambda(ergs/cm^s/s/nm)
300.00 0.06888
300.10 0.06906
300.20 0.06925
300.30 0.06945
300.40 0.06964
300.50 0.06983
300.60 0.07002
300.70 0.07021
300.80 0.07041
300.90 0.0706
301.00 0.07079
301.10 0.07098
301.20 0.07117
301.30 0.07136
301.40 0.07155
301.50 0.07174
301.60 0.07193
301.70 0.07211
301.80 0.0723
301.90 0.07249
302.00 0.07268
302.10 0.07288
302.20 0.07308
302.30 0.07328
302.40 0.07348
302.50 0.07368
302.60 0.07387
302.70 0.07407
302.80 0.07427
302.90 0.07447
303.00 0.07467
303.10 0.07486
303.20 0.07506
303.30 0.07526
303.40 0.07545
303.50 0.07565
303.60 0.07584
303.70 0.07604
303.80 0.07624
303.90 0.07643
304.00 0.07663
304.10 0.07683
304.20 0.07704
304.30 0.07724
304.40 0.07745
304.50 0.07766
304.60 0.07786
304.70 0.07807
304.80 0.07827
304.90 0.07848
305.00 0.07868
305.10 0.07888
305.20 0.07909
305.30 0.07929
305.40 0.0795
305.50 0.0797
305.60 0.0799
305.70 0.0801
305.80 0.08031
305.90 0.08051
306.00 0.08072
306.10 0.08093
306.20 0.08114
306.30 0.08135
306.40 0.08156
306.50 0.08178
306.60 0.08199
306.70 0.0822
306.80 0.08241
306.90 0.08262
307.00 0.08283
307.10 0.08305
307.20 0.08326
307.30 0.08347
307.40 0.08368
307.50 0.08389
307.60 0.0841
307.70 0.08431
307.80 0.08451
307.90 0.08472
308.00 0.08494
308.10 0.08516
308.20 0.08537
308.30 0.08559
308.40 0.08581
308.50 0.08603
308.60 0.08625
308.70 0.08647
308.80 0.08669
308.90 0.08691
309.00 0.08713
309.10 0.08734
309.20 0.08756
309.30 0.08778
309.40 0.088
309.50 0.08821
309.60 0.08843
309.70 0.08865
309.80 0.08886
309.90 0.08908
310.00 0.0893
310.10 0.08952
310.20 0.08975
310.30 0.08998
310.40 0.09021
310.50 0.09043
310.60 0.09066
310.70 0.09089
310.80 0.09111
310.90 0.09134
311.00 0.09157
311.10 0.09179
311.20 0.09202
311.30 0.09224
311.40 0.09247
311.50 0.09269
311.60 0.09291
311.70 0.09314
311.80 0.09336
311.90 0.09359
312.00 0.09381
312.10 0.09403
312.20 0.09426
312.30 0.09449
312.40 0.09472
312.50 0.09496
312.60 0.09519
312.70 0.09543
312.80 0.09566
312.90 0.09589
313.00 0.09613
313.10 0.09636
313.20 0.09659
313.30 0.09682
313.40 0.09706
313.50 0.09729
313.60 0.09752
313.70 0.09775
313.80 0.09798
313.90 0.09821
314.00 0.09845
314.10 0.09868
314.20 0.09892
314.30 0.09917
314.40 0.09941
314.50 0.09965
314.60 0.09989
314.70 0.1001
314.80 0.1004
314.90 0.1006
315.00 0.1008
315.10 0.1011
315.20 0.1013
315.30 0.1016
315.40 0.1018
315.50 0.102
315.60 0.1023
315.70 0.1025
315.80 0.1028
315.90 0.103
316.00 0.1032
316.10 0.1035
316.20 0.1037
316.30 0.104
316.40 0.1042
316.50 0.1045
316.60 0.1047
316.70 0.105
316.80 0.1052
316.90 0.1055
317.00 0.1057
317.10 0.106
317.20 0.1062
317.30 0.1064
317.40 0.1067
317.50 0.1069
317.60 0.1072
317.70 0.1074
317.80 0.1077
317.90 0.1079
318.00 0.1082
318.10 0.1084
318.20 0.1087
318.30 0.1089
318.40 0.1092
318.50 0.1094
318.60 0.1097
318.70 0.1099
318.80 0.1102
318.90 0.1105
319.00 0.1107
319.10 0.111
319.20 0.1112
319.30 0.1115
319.40 0.1117
319.50 0.112
319.60 0.1122
319.70 0.1125
319.80 0.1127
319.90 0.113
320.00 0.1132
320.10 0.1135
320.20 0.1138
320.30 0.114
320.40 0.1143
320.50 0.1145
320.60 0.1148
320.70 0.1151
320.80 0.1153
320.90 0.1156
321.00 0.1159
321.10 0.1161
321.20 0.1164
321.30 0.1166
321.40 0.1169
321.50 0.1172
321.60 0.1174
321.70 0.1177
321.80 0.1179
321.90 0.1182
322.00 0.1185
322.10 0.1187
322.20 0.119
322.30 0.1193
322.40 0.1195
322.50 0.1198
322.60 0.1201
322.70 0.1203
322.80 0.1206
322.90 0.1209
323.00 0.1211
323.10 0.1214
323.20 0.1217
323.30 0.122
323.40 0.1222
323.50 0.1225
323.60 0.1228
323.70 0.123
323.80 0.1233
323.90 0.1236
324.00 0.1238
324.10 0.1241
324.20 0.1244
324.30 0.1247
324.40 0.1249
324.50 0.1252
324.60 0.1255
324.70 0.1258
324.80 0.126
324.90 0.1263
325.00 0.1266
325.10 0.1269
325.20 0.1271
325.30 0.1274
325.40 0.1277
325.50 0.128
325.60 0.1282
325.70 0.1285
325.80 0.1288
325.90 0.1291
326.00 0.1293
326.10 0.1296
326.20 0.1299
326.30 0.1302
326.40 0.1305
326.50 0.1308
326.60 0.131
326.70 0.1313
326.80 0.1316
326.90 0.1319
327.00 0.1322
327.10 0.1325
327.20 0.1327
327.30 0.133
327.40 0.1333
327.50 0.1336
327.60 0.1339
327.70 0.1341
327.80 0.1344
327.90 0.1347
328.00 0.135
328.10 0.1353
328.20 0.1356
328.30 0.1359
328.40 0.1361
328.50 0.1364
328.60 0.1367
328.70 0.137
328.80 0.1373
328.90 0.1376
329.00 0.1379
329.10 0.1382
329.20 0.1385
329.30 0.1388
329.40 0.1391
329.50 0.1393
329.60 0.1396
329.70 0.1399
329.80 0.1402
329.90 0.1405
330.00 0.1408
330.10 0.1411
330.20 0.1414
330.30 0.1417
330.40 0.142
330.50 0.1423
330.60 0.1426
330.70 0.1429
330.80 0.1432
330.90 0.1435
331.00 0.1438
331.10 0.1441
331.20 0.1444
331.30 0.1447
331.40 0.145
331.50 0.1453
331.60 0.1455
331.70 0.1458
331.80 0.1461
331.90 0.1464
332.00 0.1467
332.10 0.147
332.20 0.1473
332.30 0.1476
332.40 0.148
332.50 0.1483
332.60 0.1486
332.70 0.1489
332.80 0.1492
332.90 0.1495
333.00 0.1498
333.10 0.1501
333.20 0.1504
333.30 0.1507
333.40 0.151
333.50 0.1513
333.60 0.1516
333.70 0.1519
333.80 0.1522
333.90 0.1525
334.00 0.1528
334.10 0.1531
334.20 0.1534
334.30 0.1538
334.40 0.1541
334.50 0.1544
334.60 0.1547
334.70 0.155
334.80 0.1553
334.90 0.1556
335.00 0.156
335.10 0.1563
335.20 0.1566
335.30 0.1569
335.40 0.1572
335.50 0.1575
335.60 0.1578
335.70 0.1581
335.80 0.1584
335.90 0.1587
336.00 0.1591
336.10 0.1594
336.20 0.1597
336.30 0.16
336.40 0.1603
336.50 0.1607
336.60 0.161
336.70 0.1613
336.80 0.1616
336.90 0.1619
337.00 0.1623
337.10 0.1626
337.20 0.1629
337.30 0.1632
337.40 0.1635
337.50 0.1639
337.60 0.1642
337.70 0.1645
337.80 0.1648
337.90 0.1651
338.00 0.1654
338.10 0.1658
338.20 0.1661
338.30 0.1664
338.40 0.1668
338.50 0.1671
338.60 0.1674
338.70 0.1677
338.80 0.1681
338.90 0.1684
339.00 0.1687
339.10 0.169
339.20 0.1694
339.30 0.1697
339.40 0.17
339.50 0.1704
339.60 0.1707
339.70 0.171
339.80 0.1713
339.90 0.1716
340.00 0.172
340.10 0.1723
340.20 0.1726
340.30 0.173
340.40 0.1733
340.50 0.1736
340.60 0.174
340.70 0.1743
340.80 0.1747
340.90 0.175
341.00 0.1753
341.10 0.1757
341.20 0.176
341.30 0.1763
341.40 0.1767
341.50 0.177
341.60 0.1773
341.70 0.1776
341.80 0.178
341.90 0.1783
342.00 0.1786
342.10 0.179
342.20 0.1793
342.30 0.1797
342.40 0.18
342.50 0.1804
342.60 0.1807
342.70 0.181
342.80 0.1814
342.90 0.1817
343.00 0.1821
343.10 0.1824
343.20 0.1827
343.30 0.1831
343.40 0.1834
343.50 0.1838
343.60 0.1841
343.70 0.1844
343.80 0.1848
343.90 0.1851
344.00 0.1855
344.10 0.1858
344.20 0.1862
344.30 0.1865
344.40 0.1869
344.50 0.1872
344.60 0.1876
344.70 0.1879
344.80 0.1883
344.90 0.1886
345.00 0.189
345.10 0.1893
345.20 0.1897
345.30 0.19
345.40 0.1903
345.50 0.1907
345.60 0.191
345.70 0.1914
345.80 0.1917
345.90 0.1921
346.00 0.1924
346.10 0.1928
346.20 0.1931
346.30 0.1935
346.40 0.1938
346.50 0.1942
346.60 0.1946
346.70 0.1949
346.80 0.1953
346.90 0.1956
347.00 0.196
347.10 0.1963
347.20 0.1967
347.30 0.197
347.40 0.1974
347.50 0.1978
347.60 0.1981
347.70 0.1985
347.80 0.1988
347.90 0.1992
348.00 0.1995
348.10 0.1999
348.20 0.2002
348.30 0.2006
348.40 0.201
348.50 0.2013
348.60 0.2017
348.70 0.2021
348.80 0.2024
348.90 0.2028
349.00 0.2032
349.10 0.2035
349.20 0.2039
349.30 0.2042
349.40 0.2046
349.50 0.205
349.60 0.2053
349.70 0.2057
349.80 0.206
349.90 0.2064
350.00 0.2068
350.10 0.2071
350.20 0.2075
350.30 0.2079
350.40 0.2082
350.50 0.2086
350.60 0.209
350.70 0.2094
350.80 0.2097
350.90 0.2101
351.00 0.2105
351.10 0.2108
351.20 0.2112
351.30 0.2116
351.40 0.2119
351.50 0.2123
351.60 0.2127
351.70 0.213
351.80 0.2134
351.90 0.2138
352.00 0.2141
352.10 0.2145
352.20 0.2149
352.30 0.2153
352.40 0.2157
352.50 0.216
352.60 0.2164
352.70 0.2168
352.80 0.2172
352.90 0.2175
353.00 0.2179
353.10 0.2183
353.20 0.2187
353.30 0.2191
353.40 0.2194
353.50 0.2198
353.60 0.2202
353.70 0.2205
353.80 0.2209
353.90 0.2213
354.00 0.2217
354.10 0.222
354.20 0.2224
354.30 0.2228
354.40 0.2232
354.50 0.2236
354.60 0.224
354.70 0.2244
354.80 0.2247
354.90 0.2251
355.00 0.2255
355.10 0.2259
355.20 0.2263
355.30 0.2267
355.40 0.227
355.50 0.2274
355.60 0.2278
355.70 0.2282
355.80 0.2286
355.90 0.2289
356.00 0.2293
356.10 0.2297
356.20 0.2301
356.30 0.2305
356.40 0.2309
356.50 0.2313
356.60 0.2317
356.70 0.2321
356.80 0.2325
356.90 0.2329
357.00 0.2332
357.10 0.2336
357.20 0.234
357.30 0.2344
357.40 0.2348
357.50 0.2352
357.60 0.2356
357.70 0.236
357.80 0.2363
357.90 0.2367
358.00 0.2371
358.10 0.2375
358.20 0.2379
358.30 0.2383
358.40 0.2387
358.50 0.2391
358.60 0.2395
358.70 0.2399
358.80 0.2403
358.90 0.2407
359.00 0.2411
359.10 0.2415
359.20 0.2419
359.30 0.2423
359.40 0.2427
359.50 0.2431
359.60 0.2435
359.70 0.2439
359.80 0.2443
359.90 0.2447
360.00 0.2451
360.10 0.2455
360.20 0.2459
360.30 0.2463
360.40 0.2467
360.50 0.2471
360.60 0.2475
360.70 0.2479
360.80 0.2483
360.90 0.2487
361.00 0.2491
361.10 0.2495
361.20 0.2499
361.30 0.2503
361.40 0.2507
361.50 0.2511
361.60 0.2515
361.70 0.2519
361.80 0.2523
361.90 0.2527
362.00 0.2531
362.10 0.2535
362.20 0.2539
362.30 0.2543
362.40 0.2548
362.50 0.2552
362.60 0.2556
362.70 0.256
362.80 0.2564
362.90 0.2568
363.00 0.2572
363.10 0.2576
363.20 0.258
363.30 0.2584
363.40 0.2589
363.50 0.2593
363.60 0.2597
363.70 0.2601
363.80 0.2605
363.90 0.2609
364.00 0.2613
364.10 0.2617
364.20 0.2622
364.30 0.2626
364.40 0.263
364.50 0.2634
364.60 0.2638
364.70 0.2642
364.80 0.2646
364.90 0.2651
365.00 0.2655
365.10 0.2659
365.20 0.2663
365.30 0.2667
365.40 0.2672
365.50 0.2676
365.60 0.268
365.70 0.2684
365.80 0.2688
365.90 0.2692
366.00 0.2696
366.10 0.2701
366.20 0.2705
366.30 0.2709
366.40 0.2714
366.50 0.2718
366.60 0.2722
366.70 0.2726
366.80 0.2731
366.90 0.2735
367.00 0.2739
367.10 0.2743
367.20 0.2747
367.30 0.2752
367.40 0.2756
367.50 0.276
367.60 0.2764
367.70 0.2769
367.80 0.2773
367.90 0.2777
368.00 0.2781
368.10 0.2785
368.20 0.279
368.30 0.2794
368.40 0.2798
368.50 0.2803
368.60 0.2807
368.70 0.2811
368.80 0.2816
368.90 0.282
369.00 0.2824
369.10 0.2829
369.20 0.2833
369.30 0.2837
369.40 0.2841
369.50 0.2846
369.60 0.285
369.70 0.2854
369.80 0.2858
369.90 0.2863
370.00 0.2867
370.10 0.2871
370.20 0.2876
370.30 0.288
370.40 0.2885
370.50 0.2889
370.60 0.2893
370.70 0.2898
370.80 0.2902
370.90 0.2906
371.00 0.2911
371.10 0.2915
371.20 0.292
371.30 0.2924
371.40 0.2928
371.50 0.2933
371.60 0.2937
371.70 0.2941
371.80 0.2946
371.90 0.295
372.00 0.2954
372.10 0.2959
372.20 0.2963
372.30 0.2968
372.40 0.2972
372.50 0.2976
372.60 0.2981
372.70 0.2985
372.80 0.299
372.90 0.2994
373.00 0.2999
373.10 0.3003
373.20 0.3007
373.30 0.3012
373.40 0.3016
373.50 0.3021
373.60 0.3025
373.70 0.3029
373.80 0.3034
373.90 0.3038
374.00 0.3043
374.10 0.3047
374.20 0.3052
374.30 0.3056
374.40 0.3061
374.50 0.3065
374.60 0.307
374.70 0.3074
374.80 0.3079
374.90 0.3083
375.00 0.3088
375.10 0.3092
375.20 0.3097
375.30 0.3101
375.40 0.3105
375.50 0.311
375.60 0.3114
375.70 0.3119
375.80 0.3123
375.90 0.3128
376.00 0.3132
376.10 0.3137
376.20 0.3141
376.30 0.3146
376.40 0.315
376.50 0.3155
376.60 0.3159
376.70 0.3164
376.80 0.3168
376.90 0.3173
377.00 0.3177
377.10 0.3182
377.20 0.3187
377.30 0.3191
377.40 0.3196
377.50 0.32
377.60 0.3205
377.70 0.3209
377.80 0.3214
377.90 0.3218
378.00 0.3223
378.10 0.3228
378.20 0.3232
378.30 0.3237
378.40 0.3241
378.50 0.3246
378.60 0.3251
378.70 0.3255
378.80 0.326
378.90 0.3264
379.00 0.3269
379.10 0.3274
379.20 0.3278
379.30 0.3283
379.40 0.3287
379.50 0.3292
379.60 0.3297
379.70 0.3301
379.80 0.3306
379.90 0.331
380.00 0.3315
380.10 0.332
380.20 0.3324
380.30 0.3329
380.40 0.3334
380.50 0.3338
380.60 0.3343
380.70 0.3348
380.80 0.3352
380.90 0.3357
381.00 0.3361
381.10 0.3366
381.20 0.3371
381.30 0.3375
381.40 0.338
381.50 0.3385
381.60 0.3389
381.70 0.3394
381.80 0.3399
381.90 0.3403
382.00 0.3408
382.10 0.3413
382.20 0.3418
382.30 0.3422
382.40 0.3427
382.50 0.3432
382.60 0.3436
382.70 0.3441
382.80 0.3446
382.90 0.3451
383.00 0.3455
383.10 0.346
383.20 0.3465
383.30 0.3469
383.40 0.3474
383.50 0.3479
383.60 0.3484
383.70 0.3488
383.80 0.3493
383.90 0.3498
384.00 0.3502
384.10 0.3507
384.20 0.3512
384.30 0.3517
384.40 0.3521
384.50 0.3526
384.60 0.3531
384.70 0.3536
384.80 0.3541
384.90 0.3545
385.00 0.355
385.10 0.3555
385.20 0.356
385.30 0.3564
385.40 0.3569
385.50 0.3574
385.60 0.3579
385.70 0.3584
385.80 0.3588
385.90 0.3593
386.00 0.3598
386.10 0.3603
386.20 0.3607
386.30 0.3612
386.40 0.3617
386.50 0.3622
386.60 0.3627
386.70 0.3632
386.80 0.3636
386.90 0.3641
387.00 0.3646
387.10 0.3651
387.20 0.3656
387.30 0.3661
387.40 0.3665
387.50 0.367
387.60 0.3675
387.70 0.368
387.80 0.3685
387.90 0.369
388.00 0.3694
388.10 0.3699
388.20 0.3704
388.30 0.3709
388.40 0.3714
388.50 0.3719
388.60 0.3724
388.70 0.3728
388.80 0.3733
388.90 0.3738
389.00 0.3743
389.10 0.3748
389.20 0.3753
389.30 0.3758
389.40 0.3763
389.50 0.3768
389.60 0.3772
389.70 0.3777
389.80 0.3782
389.90 0.3787
390.00 0.3792
390.10 0.3797
390.20 0.3802
390.30 0.3807
390.40 0.3812
390.50 0.3817
390.60 0.3822
390.70 0.3826
390.80 0.3831
390.90 0.3836
391.00 0.3841
391.10 0.3846
391.20 0.3851
391.30 0.3856
391.40 0.3861
391.50 0.3866
391.60 0.3871
391.70 0.3876
391.80 0.3881
391.90 0.3886
392.00 0.3891
392.10 0.3896
392.20 0.3901
392.30 0.3906
392.40 0.3911
392.50 0.3916
392.60 0.392
392.70 0.3925
392.80 0.393
392.90 0.3935
393.00 0.394
393.10 0.3945
393.20 0.395
393.30 0.3955
393.40 0.396
393.50 0.3965
393.60 0.397
393.70 0.3975
393.80 0.398
393.90 0.3985
394.00 0.399
394.10 0.3995
394.20 0.4
394.30 0.4005
394.40 0.401
394.50 0.4015
394.60 0.402
394.70 0.4025
394.80 0.403
394.90 0.4036
395.00 0.4041
395.10 0.4046
395.20 0.4051
395.30 0.4056
395.40 0.4061
395.50 0.4066
395.60 0.4071
395.70 0.4076
395.80 0.4081
395.90 0.4086
396.00 0.4091
396.10 0.4096
396.20 0.4101
396.30 0.4106
396.40 0.4111
396.50 0.4116
396.60 0.4121
396.70 0.4126
396.80 0.4132
396.90 0.4137
397.00 0.4142
397.10 0.4147
397.20 0.4152
397.30 0.4157
397.40 0.4162
397.50 0.4167
397.60 0.4172
397.70 0.4177
397.80 0.4182
397.90 0.4188
398.00 0.4193
398.10 0.4198
398.20 0.4203
398.30 0.4208
398.40 0.4213
398.50 0.4218
398.60 0.4223
398.70 0.4228
398.80 0.4234
398.90 0.4239
399.00 0.4244
399.10 0.4249
399.20 0.4254
399.30 0.4259
399.40 0.4264
399.50 0.427
399.60 0.4275
399.70 0.428
399.80 0.4285
399.90 0.429
400.00 0.4295
400.10 0.43
400.20 0.4306
400.30 0.4311
400.40 0.4316
400.50 0.4321
400.60 0.4326
400.70 0.4331
400.80 0.4337
400.90 0.4342
401.00 0.4347
401.10 0.4352
401.20 0.4357
401.30 0.4362
401.40 0.4368
401.50 0.4373
401.60 0.4378
401.70 0.4383
401.80 0.4388
401.90 0.4394
402.00 0.4399
402.10 0.4404
402.20 0.4409
402.30 0.4414
402.40 0.442
402.50 0.4425
402.60 0.443
402.70 0.4435
402.80 0.444
402.90 0.4446
403.00 0.4451
403.10 0.4456
403.20 0.4461
403.30 0.4467
403.40 0.4472
403.50 0.4477
403.60 0.4482
403.70 0.4487
403.80 0.4493
403.90 0.4498
404.00 0.4503
404.10 0.4508
404.20 0.4514
404.30 0.4519
404.40 0.4524
404.50 0.4529
404.60 0.4535
404.70 0.454
404.80 0.4545
404.90 0.455
405.00 0.4556
405.10 0.4561
405.20 0.4566
405.30 0.4571
405.40 0.4577
405.50 0.4582
405.60 0.4587
405.70 0.4593
405.80 0.4598
405.90 0.4603
406.00 0.4608
406.10 0.4614
406.20 0.4619
406.30 0.4624
406.40 0.463
406.50 0.4635
406.60 0.464
406.70 0.4646
406.80 0.4651
406.90 0.4656
407.00 0.4661
407.10 0.4667
407.20 0.4672
407.30 0.4677
407.40 0.4683
407.50 0.4688
407.60 0.4693
407.70 0.4699
407.80 0.4704
407.90 0.4709
408.00 0.4715
408.10 0.472
408.20 0.4725
408.30 0.4731
408.40 0.4736
408.50 0.4741
408.60 0.4747
408.70 0.4752
408.80 0.4757
408.90 0.4763
409.00 0.4768
409.10 0.4773
409.20 0.4779
409.30 0.4784
409.40 0.4789
409.50 0.4795
409.60 0.48
409.70 0.4805
409.80 0.4811
409.90 0.4816
410.00 0.4822
410.10 0.4827
410.20 0.4832
410.30 0.4838
410.40 0.4843
410.50 0.4848
410.60 0.4854
410.70 0.4859
410.80 0.4865
410.90 0.487
411.00 0.4875
411.10 0.4881
411.20 0.4886
411.30 0.4891
411.40 0.4897
411.50 0.4902
411.60 0.4908
411.70 0.4913
411.80 0.4918
411.90 0.4924
412.00 0.4929
412.10 0.4935
412.20 0.494
412.30 0.4945
412.40 0.4951
412.50 0.4956
412.60 0.4962
412.70 0.4967
412.80 0.4973
412.90 0.4978
413.00 0.4983
413.10 0.4989
413.20 0.4994
413.30 0.5
413.40 0.5005
413.50 0.5011
413.60 0.5016
413.70 0.5021
413.80 0.5027
413.90 0.5032
414.00 0.5038
414.10 0.5043
414.20 0.5049
414.30 0.5054
414.40 0.5059
414.50 0.5065
414.60 0.507
414.70 0.5076
414.80 0.5081
414.90 0.5087
415.00 0.5092
415.10 0.5098
415.20 0.5103
415.30 0.5109
415.40 0.5114
415.50 0.512
415.60 0.5125
415.70 0.513
415.80 0.5136
415.90 0.5141
416.00 0.5147
416.10 0.5152
416.20 0.5158
416.30 0.5163
416.40 0.5169
416.50 0.5174
416.60 0.518
416.70 0.5185
416.80 0.5191
416.90 0.5196
417.00 0.5202
417.10 0.5207
417.20 0.5213
417.30 0.5218
417.40 0.5224
417.50 0.5229
417.60 0.5235
417.70 0.524
417.80 0.5246
417.90 0.5251
418.00 0.5257
418.10 0.5262
418.20 0.5268
418.30 0.5273
418.40 0.5279
418.50 0.5284
418.60 0.529
418.70 0.5295
418.80 0.5301
418.90 0.5307
419.00 0.5312
419.10 0.5318
419.20 0.5323
419.30 0.5329
419.40 0.5334
419.50 0.534
419.60 0.5345
419.70 0.5351
419.80 0.5356
419.90 0.5362
420.00 0.5367
420.10 0.5373
420.20 0.5378
420.30 0.5384
420.40 0.539
420.50 0.5395
420.60 0.5401
420.70 0.5406
420.80 0.5412
420.90 0.5417
421.00 0.5423
421.10 0.5429
421.20 0.5434
421.30 0.544
421.40 0.5445
421.50 0.5451
421.60 0.5456
421.70 0.5462
421.80 0.5467
421.90 0.5473
422.00 0.5479
422.10 0.5484
422.20 0.549
422.30 0.5495
422.40 0.5501
422.50 0.5507
422.60 0.5512
422.70 0.5518
422.80 0.5523
422.90 0.5529
423.00 0.5534
423.10 0.554
423.20 0.5546
423.30 0.5551
423.40 0.5557
423.50 0.5562
423.60 0.5568
423.70 0.5574
423.80 0.5579
423.90 0.5585
424.00 0.559
424.10 0.5596
424.20 0.5602
424.30 0.5607
424.40 0.5613
424.50 0.5619
424.60 0.5624
424.70 0.563
424.80 0.5635
424.90 0.5641
425.00 0.5647
425.10 0.5652
425.20 0.5658
425.30 0.5664
425.40 0.5669
425.50 0.5675
425.60 0.568
425.70 0.5686
425.80 0.5692
425.90 0.5697
426.00 0.5703
426.10 0.5709
426.20 0.5714
426.30 0.572
426.40 0.5725
426.50 0.5731
426.60 0.5737
426.70 0.5742
426.80 0.5748
426.90 0.5754
427.00 0.5759
427.10 0.5765
427.20 0.5771
427.30 0.5776
427.40 0.5782
427.50 0.5788
427.60 0.5793
427.70 0.5799
427.80 0.5805
427.90 0.581
428.00 0.5816
428.10 0.5822
428.20 0.5827
428.30 0.5833
428.40 0.5839
428.50 0.5844
428.60 0.585
428.70 0.5856
428.80 0.5861
428.90 0.5867
429.00 0.5873
429.10 0.5878
429.20 0.5884
429.30 0.589
429.40 0.5895
429.50 0.5901
429.60 0.5907
429.70 0.5912
429.80 0.5918
429.90 0.5924
430.00 0.5929
430.10 0.5935
430.20 0.5941
430.30 0.5946
430.40 0.5952
430.50 0.5958
430.60 0.5964
430.70 0.5969
430.80 0.5975
430.90 0.5981
431.00 0.5986
431.10 0.5992
431.20 0.5998
431.30 0.6003
431.40 0.6009
431.50 0.6015
431.60 0.6021
431.70 0.6026
431.80 0.6032
431.90 0.6038
432.00 0.6043
432.10 0.6049
432.20 0.6055
432.30 0.606
432.40 0.6066
432.50 0.6072
432.60 0.6078
432.70 0.6084
432.80 0.6089
432.90 0.6095
433.00 0.6101
433.10 0.6106
433.20 0.6112
433.30 0.6118
433.40 0.6124
433.50 0.6129
433.60 0.6135
433.70 0.6141
433.80 0.6147
433.90 0.6152
434.00 0.6158
434.10 0.6164
434.20 0.617
434.30 0.6175
434.40 0.6181
434.50 0.6187
434.60 0.6192
434.70 0.6198
434.80 0.6204
434.90 0.621
435.00 0.6215
435.10 0.6221
435.20 0.6227
435.30 0.6232
435.40 0.6238
435.50 0.6244
435.60 0.625
435.70 0.6255
435.80 0.6261
435.90 0.6267
436.00 0.6273
436.10 0.6279
436.20 0.6284
436.30 0.629
436.40 0.6296
436.50 0.6301
436.60 0.6307
436.70 0.6313
436.80 0.6319
436.90 0.6325
437.00 0.6331
437.10 0.6336
437.20 0.6342
437.30 0.6348
437.40 0.6354
437.50 0.6359
437.60 0.6365
437.70 0.6371
437.80 0.6377
437.90 0.6382
438.00 0.6388
438.10 0.6394
438.20 0.64
438.30 0.6405
438.40 0.6411
438.50 0.6417
438.60 0.6423
438.70 0.6429
438.80 0.6434
438.90 0.644
439.00 0.6446
439.10 0.6452
439.20 0.6457
439.30 0.6463
439.40 0.6469
439.50 0.6475
439.60 0.648
439.70 0.6486
439.80 0.6492
439.90 0.6498
440.00 0.6504
440.10 0.651
440.20 0.6515
440.30 0.6521
440.40 0.6527
440.50 0.6533
440.60 0.6539
440.70 0.6544
440.80 0.655
440.90 0.6556
441.00 0.6562
441.10 0.6568
441.20 0.6573
441.30 0.6579
441.40 0.6585
441.50 0.6591
441.60 0.6597
441.70 0.6602
441.80 0.6608
441.90 0.6614
442.00 0.662
