# Version 2.1 - nm, norm@500 to 1, cut digits, bergeron_15500_90.dat_15500
# Wavelength(nm)  Flambda(ergs/cm^s/s/nm)
300.00 2.684
300.10 2.682
300.20 2.68
300.30 2.678
300.40 2.676
300.50 2.674
300.60 2.671
300.70 2.669
300.80 2.667
300.90 2.665
301.00 2.663
301.10 2.661
301.20 2.658
301.30 2.656
301.40 2.654
301.50 2.652
301.60 2.65
301.70 2.648
301.80 2.646
301.90 2.643
302.00 2.641
302.10 2.639
302.20 2.637
302.30 2.635
302.40 2.633
302.50 2.631
302.60 2.629
302.70 2.626
302.80 2.624
302.90 2.622
303.00 2.62
303.10 2.618
303.20 2.616
303.30 2.614
303.40 2.612
303.50 2.61
303.60 2.607
303.70 2.605
303.80 2.603
303.90 2.601
304.00 2.599
304.10 2.597
304.20 2.595
304.30 2.593
304.40 2.591
304.50 2.589
304.60 2.587
304.70 2.585
304.80 2.582
304.90 2.58
305.00 2.578
305.10 2.576
305.20 2.574
305.30 2.572
305.40 2.57
305.50 2.568
305.60 2.566
305.70 2.564
305.80 2.562
305.90 2.56
306.00 2.558
306.10 2.556
306.20 2.554
306.30 2.552
306.40 2.55
306.50 2.548
306.60 2.546
306.70 2.544
306.80 2.541
306.90 2.539
307.00 2.537
307.10 2.535
307.20 2.533
307.30 2.531
307.40 2.529
307.50 2.527
307.60 2.525
307.70 2.523
307.80 2.521
307.90 2.519
308.00 2.517
308.10 2.515
308.20 2.513
308.30 2.511
308.40 2.509
308.50 2.507
308.60 2.505
308.70 2.503
308.80 2.501
308.90 2.499
309.00 2.497
309.10 2.495
309.20 2.493
309.30 2.491
309.40 2.489
309.50 2.488
309.60 2.486
309.70 2.484
309.80 2.482
309.90 2.48
310.00 2.478
310.10 2.476
310.20 2.474
310.30 2.472
310.40 2.47
310.50 2.468
310.60 2.466
310.70 2.464
310.80 2.462
310.90 2.46
311.00 2.458
311.10 2.456
311.20 2.454
311.30 2.452
311.40 2.45
311.50 2.448
311.60 2.447
311.70 2.445
311.80 2.443
311.90 2.441
312.00 2.439
312.10 2.437
312.20 2.435
312.30 2.433
312.40 2.431
312.50 2.429
312.60 2.427
312.70 2.426
312.80 2.424
312.90 2.422
313.00 2.42
313.10 2.418
313.20 2.416
313.30 2.414
313.40 2.412
313.50 2.41
313.60 2.409
313.70 2.407
313.80 2.405
313.90 2.403
314.00 2.401
314.10 2.399
314.20 2.397
314.30 2.395
314.40 2.393
314.50 2.392
314.60 2.39
314.70 2.388
314.80 2.386
314.90 2.384
315.00 2.382
315.10 2.38
315.20 2.379
315.30 2.377
315.40 2.375
315.50 2.373
315.60 2.371
315.70 2.369
315.80 2.367
315.90 2.366
316.00 2.364
316.10 2.362
316.20 2.36
316.30 2.358
316.40 2.356
316.50 2.354
316.60 2.353
316.70 2.351
316.80 2.349
316.90 2.347
317.00 2.345
317.10 2.343
317.20 2.342
317.30 2.34
317.40 2.338
317.50 2.336
317.60 2.334
317.70 2.333
317.80 2.331
317.90 2.329
318.00 2.327
318.10 2.325
318.20 2.324
318.30 2.322
318.40 2.32
318.50 2.318
318.60 2.316
318.70 2.315
318.80 2.313
318.90 2.311
319.00 2.309
319.10 2.307
319.20 2.306
319.30 2.304
319.40 2.302
319.50 2.3
319.60 2.299
319.70 2.297
319.80 2.295
319.90 2.293
320.00 2.292
320.10 2.29
320.20 2.288
320.30 2.286
320.40 2.284
320.50 2.283
320.60 2.281
320.70 2.279
320.80 2.277
320.90 2.276
321.00 2.274
321.10 2.272
321.20 2.27
321.30 2.269
321.40 2.267
321.50 2.265
321.60 2.263
321.70 2.262
321.80 2.26
321.90 2.258
322.00 2.256
322.10 2.255
322.20 2.253
322.30 2.251
322.40 2.249
322.50 2.248
322.60 2.246
322.70 2.244
322.80 2.243
322.90 2.241
323.00 2.239
323.10 2.237
323.20 2.236
323.30 2.234
323.40 2.232
323.50 2.231
323.60 2.229
323.70 2.227
323.80 2.225
323.90 2.224
324.00 2.222
324.10 2.22
324.20 2.219
324.30 2.217
324.40 2.215
324.50 2.214
324.60 2.212
324.70 2.21
324.80 2.208
324.90 2.207
325.00 2.205
325.10 2.203
325.20 2.202
325.30 2.2
325.40 2.198
325.50 2.197
325.60 2.195
325.70 2.193
325.80 2.192
325.90 2.19
326.00 2.188
326.10 2.187
326.20 2.185
326.30 2.183
326.40 2.182
326.50 2.18
326.60 2.178
326.70 2.177
326.80 2.175
326.90 2.173
327.00 2.172
327.10 2.17
327.20 2.168
327.30 2.167
327.40 2.165
327.50 2.164
327.60 2.162
327.70 2.16
327.80 2.159
327.90 2.157
328.00 2.155
328.10 2.154
328.20 2.152
328.30 2.15
328.40 2.149
328.50 2.147
328.60 2.146
328.70 2.144
328.80 2.142
328.90 2.141
329.00 2.139
329.10 2.137
329.20 2.136
329.30 2.134
329.40 2.133
329.50 2.131
329.60 2.129
329.70 2.128
329.80 2.126
329.90 2.125
330.00 2.123
330.10 2.121
330.20 2.12
330.30 2.118
330.40 2.117
330.50 2.115
330.60 2.113
330.70 2.112
330.80 2.11
330.90 2.109
331.00 2.107
331.10 2.105
331.20 2.104
331.30 2.102
331.40 2.101
331.50 2.099
331.60 2.098
331.70 2.096
331.80 2.094
331.90 2.093
332.00 2.091
332.10 2.09
332.20 2.088
332.30 2.086
332.40 2.085
332.50 2.083
332.60 2.082
332.70 2.08
332.80 2.079
332.90 2.077
333.00 2.076
333.10 2.074
333.20 2.072
333.30 2.071
333.40 2.069
333.50 2.068
333.60 2.066
333.70 2.065
333.80 2.063
333.90 2.062
334.00 2.06
334.10 2.059
334.20 2.057
334.30 2.056
334.40 2.054
334.50 2.052
334.60 2.051
334.70 2.049
334.80 2.048
334.90 2.046
335.00 2.045
335.10 2.043
335.20 2.042
335.30 2.04
335.40 2.039
335.50 2.037
335.60 2.036
335.70 2.034
335.80 2.033
335.90 2.031
336.00 2.03
336.10 2.028
336.20 2.026
336.30 2.025
336.40 2.023
336.50 2.022
336.60 2.02
336.70 2.019
336.80 2.017
336.90 2.016
337.00 2.014
337.10 2.013
337.20 2.012
337.30 2.01
337.40 2.009
337.50 2.007
337.60 2.006
337.70 2.004
337.80 2.003
337.90 2.001
338.00 2
338.10 1.998
338.20 1.997
338.30 1.995
338.40 1.994
338.50 1.992
338.60 1.991
338.70 1.989
338.80 1.988
338.90 1.986
339.00 1.985
339.10 1.983
339.20 1.982
339.30 1.98
339.40 1.979
339.50 1.977
339.60 1.976
339.70 1.975
339.80 1.973
339.90 1.972
340.00 1.97
340.10 1.969
340.20 1.967
340.30 1.966
340.40 1.964
340.50 1.963
340.60 1.961
340.70 1.96
340.80 1.959
340.90 1.957
341.00 1.956
341.10 1.954
341.20 1.953
341.30 1.951
341.40 1.95
341.50 1.948
341.60 1.947
341.70 1.946
341.80 1.944
341.90 1.943
342.00 1.941
342.10 1.94
342.20 1.939
342.30 1.937
342.40 1.936
342.50 1.934
342.60 1.933
342.70 1.931
342.80 1.93
342.90 1.929
343.00 1.927
343.10 1.926
343.20 1.924
343.30 1.923
343.40 1.922
343.50 1.92
343.60 1.919
343.70 1.917
343.80 1.916
343.90 1.915
344.00 1.913
344.10 1.912
344.20 1.91
344.30 1.909
344.40 1.907
344.50 1.906
344.60 1.905
344.70 1.903
344.80 1.902
344.90 1.9
345.00 1.899
345.10 1.898
345.20 1.896
345.30 1.895
345.40 1.894
345.50 1.892
345.60 1.891
345.70 1.889
345.80 1.888
345.90 1.887
346.00 1.885
346.10 1.884
346.20 1.882
346.30 1.881
346.40 1.88
346.50 1.878
346.60 1.877
346.70 1.876
346.80 1.874
346.90 1.873
347.00 1.872
347.10 1.87
347.20 1.869
347.30 1.867
347.40 1.866
347.50 1.865
347.60 1.863
347.70 1.862
347.80 1.861
347.90 1.859
348.00 1.858
348.10 1.857
348.20 1.855
348.30 1.854
348.40 1.853
348.50 1.851
348.60 1.85
348.70 1.849
348.80 1.847
348.90 1.846
349.00 1.845
349.10 1.843
349.20 1.842
349.30 1.841
349.40 1.839
349.50 1.838
349.60 1.837
349.70 1.835
349.80 1.834
349.90 1.833
350.00 1.831
350.10 1.83
350.20 1.829
350.30 1.827
350.40 1.826
350.50 1.825
350.60 1.823
350.70 1.822
350.80 1.821
350.90 1.819
351.00 1.818
351.10 1.817
351.20 1.816
351.30 1.814
351.40 1.813
351.50 1.812
351.60 1.81
351.70 1.809
351.80 1.808
351.90 1.806
352.00 1.805
352.10 1.804
352.20 1.802
352.30 1.801
352.40 1.8
352.50 1.799
352.60 1.797
352.70 1.796
352.80 1.795
352.90 1.793
353.00 1.792
353.10 1.791
353.20 1.789
353.30 1.788
353.40 1.787
353.50 1.786
353.60 1.784
353.70 1.783
353.80 1.782
353.90 1.78
354.00 1.779
354.10 1.778
354.20 1.777
354.30 1.775
354.40 1.774
354.50 1.773
354.60 1.772
354.70 1.77
354.80 1.769
354.90 1.768
355.00 1.766
355.10 1.765
355.20 1.764
355.30 1.763
355.40 1.761
355.50 1.76
355.60 1.759
355.70 1.758
355.80 1.756
355.90 1.755
356.00 1.754
356.10 1.753
356.20 1.751
356.30 1.75
356.40 1.749
356.50 1.748
356.60 1.746
356.70 1.745
356.80 1.744
356.90 1.743
357.00 1.741
357.10 1.74
357.20 1.739
357.30 1.738
357.40 1.736
357.50 1.735
357.60 1.734
357.70 1.733
357.80 1.732
357.90 1.73
358.00 1.729
358.10 1.728
358.20 1.727
358.30 1.725
358.40 1.724
358.50 1.723
358.60 1.722
358.70 1.72
358.80 1.719
358.90 1.718
359.00 1.717
359.10 1.716
359.20 1.714
359.30 1.713
359.40 1.712
359.50 1.711
359.60 1.71
359.70 1.708
359.80 1.707
359.90 1.706
360.00 1.705
360.10 1.703
360.20 1.702
360.30 1.701
360.40 1.7
360.50 1.699
360.60 1.697
360.70 1.696
360.80 1.695
360.90 1.694
361.00 1.693
361.10 1.691
361.20 1.69
361.30 1.689
361.40 1.688
361.50 1.687
361.60 1.685
361.70 1.684
361.80 1.683
361.90 1.682
362.00 1.681
362.10 1.68
362.20 1.678
362.30 1.677
362.40 1.676
362.50 1.675
362.60 1.674
362.70 1.672
362.80 1.671
362.90 1.67
363.00 1.669
363.10 1.667
363.20 1.666
363.30 1.665
363.40 1.663
363.50 1.662
363.60 1.661
363.70 1.659
363.80 1.658
363.90 1.657
364.00 1.655
364.10 1.654
364.20 1.653
364.30 1.651
364.40 1.65
364.50 1.648
364.60 1.647
364.70 1.646
364.80 1.644
364.90 1.643
365.00 1.641
365.10 1.64
365.20 1.639
365.30 1.637
365.40 1.636
365.50 1.634
365.60 1.633
365.70 1.632
365.80 1.63
365.90 1.629
366.00 1.628
366.10 1.626
366.20 1.625
366.30 1.624
366.40 1.623
366.50 1.621
366.60 1.62
366.70 1.619
366.80 1.618
366.90 1.617
367.00 1.615
367.10 1.614
367.20 1.613
367.30 1.612
367.40 1.611
367.50 1.609
367.60 1.608
367.70 1.607
367.80 1.606
367.90 1.605
368.00 1.603
368.10 1.602
368.20 1.601
368.30 1.6
368.40 1.599
368.50 1.597
368.60 1.596
368.70 1.595
368.80 1.594
368.90 1.593
369.00 1.592
369.10 1.59
369.20 1.589
369.30 1.588
369.40 1.587
369.50 1.586
369.60 1.584
369.70 1.583
369.80 1.582
369.90 1.581
370.00 1.58
370.10 1.579
370.20 1.577
370.30 1.576
370.40 1.575
370.50 1.574
370.60 1.573
370.70 1.572
370.80 1.571
370.90 1.57
371.00 1.569
371.10 1.567
371.20 1.566
371.30 1.565
371.40 1.564
371.50 1.563
371.60 1.562
371.70 1.561
371.80 1.56
371.90 1.559
372.00 1.558
372.10 1.557
372.20 1.556
372.30 1.555
372.40 1.554
372.50 1.553
372.60 1.552
372.70 1.551
372.80 1.55
372.90 1.549
373.00 1.548
373.10 1.547
373.20 1.546
373.30 1.546
373.40 1.545
373.50 1.544
373.60 1.543
373.70 1.542
373.80 1.541
373.90 1.54
374.00 1.539
374.10 1.538
374.20 1.538
374.30 1.537
374.40 1.536
374.50 1.535
374.60 1.535
374.70 1.534
374.80 1.533
374.90 1.532
375.00 1.532
375.10 1.531
375.20 1.53
375.30 1.529
375.40 1.529
375.50 1.528
375.60 1.527
375.70 1.527
375.80 1.526
375.90 1.525
376.00 1.524
376.10 1.524
376.20 1.523
376.30 1.522
376.40 1.521
376.50 1.521
376.60 1.52
376.70 1.519
376.80 1.519
376.90 1.518
377.00 1.517
377.10 1.516
377.20 1.515
377.30 1.515
377.40 1.514
377.50 1.513
377.60 1.512
377.70 1.511
377.80 1.51
377.90 1.509
378.00 1.508
378.10 1.507
378.20 1.505
378.30 1.503
378.40 1.502
378.50 1.5
378.60 1.499
378.70 1.497
378.80 1.495
378.90 1.494
379.00 1.492
379.10 1.491
379.20 1.49
379.30 1.489
379.40 1.487
379.50 1.486
379.60 1.485
379.70 1.484
379.80 1.483
379.90 1.481
380.00 1.48
380.10 1.481
380.20 1.481
380.30 1.481
380.40 1.482
380.50 1.482
380.60 1.483
380.70 1.483
380.80 1.483
380.90 1.484
381.00 1.484
381.10 1.484
381.20 1.483
381.30 1.483
381.40 1.483
381.50 1.483
381.60 1.482
381.70 1.481
381.80 1.48
381.90 1.478
382.00 1.477
382.10 1.475
382.20 1.473
382.30 1.47
382.40 1.467
382.50 1.463
382.60 1.46
382.70 1.457
382.80 1.454
382.90 1.451
383.00 1.448
383.10 1.445
383.20 1.441
383.30 1.44
383.40 1.437
383.50 1.435
383.60 1.435
383.70 1.437
383.80 1.439
383.90 1.44
384.00 1.443
384.10 1.446
384.20 1.449
384.30 1.453
384.40 1.456
384.50 1.459
384.60 1.461
384.70 1.463
384.80 1.465
384.90 1.467
385.00 1.468
385.10 1.469
385.20 1.47
385.30 1.47
385.40 1.47
385.50 1.47
385.60 1.47
385.70 1.469
385.80 1.469
385.90 1.468
386.00 1.467
386.10 1.465
386.20 1.464
386.30 1.462
386.40 1.46
386.50 1.458
386.60 1.455
386.70 1.453
386.80 1.45
386.90 1.447
387.00 1.444
387.10 1.44
387.20 1.436
387.30 1.432
387.40 1.428
387.50 1.423
387.60 1.418
387.70 1.413
387.80 1.407
387.90 1.401
388.00 1.395
388.10 1.388
388.20 1.38
388.30 1.372
388.40 1.363
388.50 1.355
388.60 1.348
388.70 1.344
388.80 1.34
388.90 1.337
389.00 1.34
389.10 1.343
389.20 1.347
389.30 1.354
389.40 1.362
389.50 1.371
389.60 1.379
389.70 1.387
389.80 1.394
389.90 1.4
390.00 1.406
390.10 1.412
390.20 1.418
390.30 1.423
390.40 1.428
390.50 1.432
390.60 1.436
390.70 1.44
390.80 1.444
390.90 1.447
391.00 1.45
391.10 1.453
391.20 1.455
391.30 1.458
391.40 1.46
391.50 1.462
391.60 1.464
391.70 1.465
391.80 1.466
391.90 1.467
392.00 1.468
392.10 1.468
392.20 1.468
392.30 1.468
392.40 1.467
392.50 1.467
392.60 1.466
392.70 1.464
392.80 1.463
392.90 1.461
393.00 1.458
393.10 1.456
393.20 1.453
393.30 1.45
393.40 1.446
393.50 1.442
393.60 1.438
393.70 1.434
393.80 1.429
393.90 1.424
394.00 1.419
394.10 1.413
394.20 1.407
394.30 1.4
394.40 1.393
394.50 1.386
394.60 1.379
394.70 1.371
394.80 1.363
394.90 1.355
395.00 1.347
395.10 1.338
395.20 1.329
395.30 1.319
395.40 1.309
395.50 1.299
395.60 1.289
395.70 1.278
395.80 1.267
395.90 1.255
396.00 1.243
396.10 1.231
396.20 1.218
396.30 1.204
396.40 1.189
396.50 1.171
396.60 1.153
396.70 1.133
396.80 1.12
396.90 1.107
397.00 1.094
397.10 1.105
397.20 1.117
397.30 1.129
397.40 1.148
397.50 1.166
397.60 1.184
397.70 1.199
397.80 1.213
397.90 1.225
398.00 1.237
398.10 1.249
398.20 1.26
398.30 1.271
398.40 1.282
398.50 1.292
398.60 1.302
398.70 1.312
398.80 1.322
398.90 1.331
399.00 1.34
399.10 1.349
399.20 1.358
399.30 1.366
399.40 1.374
399.50 1.382
399.60 1.39
399.70 1.397
399.80 1.404
399.90 1.411
400.00 1.418
400.10 1.424
400.20 1.43
400.30 1.436
400.40 1.442
400.50 1.447
400.60 1.452
400.70 1.457
400.80 1.462
400.90 1.466
401.00 1.47
401.10 1.474
401.20 1.478
401.30 1.481
401.40 1.485
401.50 1.488
401.60 1.49
401.70 1.493
401.80 1.495
401.90 1.497
402.00 1.499
402.10 1.501
402.20 1.502
402.30 1.503
402.40 1.504
402.50 1.505
402.60 1.506
402.70 1.506
402.80 1.506
402.90 1.506
403.00 1.506
403.10 1.505
403.20 1.504
403.30 1.503
403.40 1.502
403.50 1.5
403.60 1.499
403.70 1.497
403.80 1.494
403.90 1.492
404.00 1.489
404.10 1.486
404.20 1.483
404.30 1.48
404.40 1.476
404.50 1.473
404.60 1.468
404.70 1.464
404.80 1.46
404.90 1.455
405.00 1.45
405.10 1.445
405.20 1.439
405.30 1.434
405.40 1.428
405.50 1.422
405.60 1.415
405.70 1.409
405.80 1.402
405.90 1.395
406.00 1.387
406.10 1.38
406.20 1.372
406.30 1.364
406.40 1.355
406.50 1.347
406.60 1.338
406.70 1.329
406.80 1.319
406.90 1.31
407.00 1.3
407.10 1.289
407.20 1.279
407.30 1.268
407.40 1.257
407.50 1.246
407.60 1.234
407.70 1.222
407.80 1.21
407.90 1.197
408.00 1.185
408.10 1.172
408.20 1.159
408.30 1.145
408.40 1.131
408.50 1.117
408.60 1.103
408.70 1.088
408.80 1.073
408.90 1.058
409.00 1.043
409.10 1.027
409.20 1.011
409.30 0.9958
409.40 0.9795
409.50 0.9623
409.60 0.9444
409.70 0.9237
409.80 0.9021
409.90 0.8795
410.00 0.8605
410.10 0.8476
410.20 0.8408
410.30 0.8524
410.40 0.8686
410.50 0.8893
410.60 0.9106
410.70 0.9306
410.80 0.9493
410.90 0.9655
411.00 0.9812
411.10 0.9961
411.20 1.011
411.30 1.025
411.40 1.04
411.50 1.054
411.60 1.068
411.70 1.082
411.80 1.095
411.90 1.108
412.00 1.121
412.10 1.133
412.20 1.146
412.30 1.158
412.40 1.169
412.50 1.181
412.60 1.192
412.70 1.203
412.80 1.214
412.90 1.224
413.00 1.234
413.10 1.245
413.20 1.254
413.30 1.264
413.40 1.273
413.50 1.282
413.60 1.291
413.70 1.3
413.80 1.308
413.90 1.316
414.00 1.324
414.10 1.332
414.20 1.34
414.30 1.347
414.40 1.355
414.50 1.362
414.60 1.369
414.70 1.375
414.80 1.382
414.90 1.388
415.00 1.395
415.10 1.401
415.20 1.407
415.30 1.413
415.40 1.418
415.50 1.424
415.60 1.429
415.70 1.435
415.80 1.44
415.90 1.445
416.00 1.45
416.10 1.454
416.20 1.459
416.30 1.463
416.40 1.468
416.50 1.472
416.60 1.476
416.70 1.48
416.80 1.484
416.90 1.488
417.00 1.491
417.10 1.495
417.20 1.498
417.30 1.501
417.40 1.504
417.50 1.507
417.60 1.51
417.70 1.513
417.80 1.516
417.90 1.518
418.00 1.521
418.10 1.523
418.20 1.526
418.30 1.528
418.40 1.53
418.50 1.532
418.60 1.534
418.70 1.536
418.80 1.537
418.90 1.539
419.00 1.541
419.10 1.542
419.20 1.543
419.30 1.545
419.40 1.546
419.50 1.547
419.60 1.548
419.70 1.549
419.80 1.549
419.90 1.55
420.00 1.551
420.10 1.551
420.20 1.552
420.30 1.552
420.40 1.552
420.50 1.553
420.60 1.553
420.70 1.553
420.80 1.553
420.90 1.553
421.00 1.552
421.10 1.552
421.20 1.552
421.30 1.551
421.40 1.551
421.50 1.55
421.60 1.549
421.70 1.548
421.80 1.547
421.90 1.547
422.00 1.545
422.10 1.544
422.20 1.543
422.30 1.542
422.40 1.54
422.50 1.539
422.60 1.537
422.70 1.536
422.80 1.534
422.90 1.532
423.00 1.531
423.10 1.529
423.20 1.527
423.30 1.524
423.40 1.522
423.50 1.52
423.60 1.518
423.70 1.515
423.80 1.513
423.90 1.51
424.00 1.507
424.10 1.505
424.20 1.502
424.30 1.499
424.40 1.496
424.50 1.493
424.60 1.49
424.70 1.486
424.80 1.483
424.90 1.48
425.00 1.476
425.10 1.472
425.20 1.469
425.30 1.465
425.40 1.461
425.50 1.457
425.60 1.453
425.70 1.449
425.80 1.445
425.90 1.44
426.00 1.436
426.10 1.432
426.20 1.426
426.30 1.421
426.40 1.416
426.50 1.411
426.60 1.406
426.70 1.401
426.80 1.396
426.90 1.391
427.00 1.385
427.10 1.38
427.20 1.374
427.30 1.369
427.40 1.363
427.50 1.357
427.60 1.351
427.70 1.345
427.80 1.339
427.90 1.333
428.00 1.327
428.10 1.32
428.20 1.314
428.30 1.307
428.40 1.3
428.50 1.294
428.60 1.287
428.70 1.28
428.80 1.272
428.90 1.265
429.00 1.258
429.10 1.25
429.20 1.243
429.30 1.235
429.40 1.227
429.50 1.219
429.60 1.211
429.70 1.203
429.80 1.194
429.90 1.185
430.00 1.177
430.10 1.168
430.20 1.159
430.30 1.15
430.40 1.141
430.50 1.131
430.60 1.122
430.70 1.112
430.80 1.102
430.90 1.092
431.00 1.082
431.10 1.072
431.20 1.061
431.30 1.05
431.40 1.039
431.50 1.028
431.60 1.017
431.70 1.005
431.80 0.9934
431.90 0.9814
432.00 0.9692
432.10 0.9568
432.20 0.944
432.30 0.931
432.40 0.9177
432.50 0.9039
432.60 0.8897
432.70 0.8753
432.80 0.8605
432.90 0.8457
433.00 0.8308
433.10 0.8162
433.20 0.8017
433.30 0.7873
433.40 0.7725
433.50 0.757
433.60 0.7406
433.70 0.7189
433.80 0.6922
433.90 0.6607
434.00 0.624
434.10 0.6246
434.20 0.6626
434.30 0.693
434.40 0.7186
434.50 0.7391
434.60 0.7546
434.70 0.7692
434.80 0.7831
434.90 0.7967
435.00 0.8104
435.10 0.8241
435.20 0.8379
435.30 0.8518
435.40 0.8655
435.50 0.8788
435.60 0.8918
435.70 0.9045
435.80 0.9166
435.90 0.9284
436.00 0.94
436.10 0.9511
436.20 0.962
436.30 0.9728
436.40 0.9831
436.50 0.9934
436.60 1.003
436.70 1.013
436.80 1.023
436.90 1.032
437.00 1.041
437.10 1.05
437.20 1.059
437.30 1.068
437.40 1.076
437.50 1.084
437.60 1.092
437.70 1.1
437.80 1.108
437.90 1.115
438.00 1.122
438.10 1.13
438.20 1.137
438.30 1.144
438.40 1.151
438.50 1.157
438.60 1.164
438.70 1.17
438.80 1.176
438.90 1.183
439.00 1.189
439.10 1.194
439.20 1.2
439.30 1.206
439.40 1.211
439.50 1.217
439.60 1.222
439.70 1.227
439.80 1.233
439.90 1.238
440.00 1.243
440.10 1.247
440.20 1.252
440.30 1.257
440.40 1.261
440.50 1.266
440.60 1.27
440.70 1.274
440.80 1.279
440.90 1.283
441.00 1.287
441.10 1.29
441.20 1.294
441.30 1.298
441.40 1.302
441.50 1.305
441.60 1.309
441.70 1.312
441.80 1.316
441.90 1.319
442.00 1.322
442.10 1.325
442.20 1.328
442.30 1.331
442.40 1.334
442.50 1.337
442.60 1.34
442.70 1.342
442.80 1.345
442.90 1.348
443.00 1.35
443.10 1.353
443.20 1.355
443.30 1.357
443.40 1.36
443.50 1.362
443.60 1.364
443.70 1.366
443.80 1.368
443.90 1.37
444.00 1.372
444.10 1.374
444.20 1.376
444.30 1.378
444.40 1.38
444.50 1.381
444.60 1.383
444.70 1.385
444.80 1.386
444.90 1.388
445.00 1.389
445.10 1.39
445.20 1.392
445.30 1.393
445.40 1.394
445.50 1.396
445.60 1.397
445.70 1.398
445.80 1.399
445.90 1.4
446.00 1.401
446.10 1.402
446.20 1.403
446.30 1.404
446.40 1.405
446.50 1.406
446.60 1.407
446.70 1.408
446.80 1.408
446.90 1.409
447.00 1.41
447.10 1.41
447.20 1.411
447.30 1.412
447.40 1.412
447.50 1.413
447.60 1.413
447.70 1.414
447.80 1.414
447.90 1.415
448.00 1.415
448.10 1.415
448.20 1.416
448.30 1.416
448.40 1.416
448.50 1.417
448.60 1.417
448.70 1.417
448.80 1.417
448.90 1.418
449.00 1.418
449.10 1.418
449.20 1.418
449.30 1.419
449.40 1.419
449.50 1.419
449.60 1.419
449.70 1.419
449.80 1.419
449.90 1.419
450.00 1.419
450.10 1.419
450.20 1.419
450.30 1.419
450.40 1.418
450.50 1.418
450.60 1.418
450.70 1.418
450.80 1.418
450.90 1.418
451.00 1.417
451.10 1.417
451.20 1.417
451.30 1.417
451.40 1.417
451.50 1.416
451.60 1.416
451.70 1.416
451.80 1.415
451.90 1.415
452.00 1.415
452.10 1.414
452.20 1.414
452.30 1.414
452.40 1.413
452.50 1.413
452.60 1.412
452.70 1.412
452.80 1.411
452.90 1.411
453.00 1.41
453.10 1.41
453.20 1.409
453.30 1.409
453.40 1.408
453.50 1.408
453.60 1.407
453.70 1.407
