# Version 2.1 - nm, norm@500 to 1, cut digits, bergeron_3750_85.dat_3750
# Wavelength(nm)  Flambda(ergs/cm^s/s/nm)
300.00 0.1688
300.10 0.1691
300.20 0.1694
300.30 0.1698
300.40 0.1701
300.50 0.1704
300.60 0.1707
300.70 0.1711
300.80 0.1714
300.90 0.1717
301.00 0.172
301.10 0.1724
301.20 0.1727
301.30 0.173
301.40 0.1733
301.50 0.1736
301.60 0.174
301.70 0.1743
301.80 0.1746
301.90 0.1749
302.00 0.1753
302.10 0.1756
302.20 0.1759
302.30 0.1762
302.40 0.1766
302.50 0.1769
302.60 0.1772
302.70 0.1776
302.80 0.1779
302.90 0.1782
303.00 0.1786
303.10 0.1789
303.20 0.1792
303.30 0.1795
303.40 0.1799
303.50 0.1802
303.60 0.1805
303.70 0.1808
303.80 0.1812
303.90 0.1815
304.00 0.1818
304.10 0.1822
304.20 0.1825
304.30 0.1828
304.40 0.1832
304.50 0.1835
304.60 0.1839
304.70 0.1842
304.80 0.1845
304.90 0.1849
305.00 0.1852
305.10 0.1855
305.20 0.1859
305.30 0.1862
305.40 0.1865
305.50 0.1869
305.60 0.1872
305.70 0.1875
305.80 0.1879
305.90 0.1882
306.00 0.1885
306.10 0.1889
306.20 0.1892
306.30 0.1896
306.40 0.1899
306.50 0.1902
306.60 0.1906
306.70 0.1909
306.80 0.1913
306.90 0.1916
307.00 0.1919
307.10 0.1923
307.20 0.1926
307.30 0.193
307.40 0.1933
307.50 0.1936
307.60 0.194
307.70 0.1943
307.80 0.1947
307.90 0.195
308.00 0.1953
308.10 0.1957
308.20 0.196
308.30 0.1964
308.40 0.1967
308.50 0.1971
308.60 0.1974
308.70 0.1978
308.80 0.1981
308.90 0.1985
309.00 0.1988
309.10 0.1992
309.20 0.1995
309.30 0.1999
309.40 0.2002
309.50 0.2005
309.60 0.2009
309.70 0.2012
309.80 0.2016
309.90 0.2019
310.00 0.2023
310.10 0.2026
310.20 0.203
310.30 0.2033
310.40 0.2037
310.50 0.204
310.60 0.2044
310.70 0.2048
310.80 0.2051
310.90 0.2055
311.00 0.2058
311.10 0.2062
311.20 0.2065
311.30 0.2069
311.40 0.2072
311.50 0.2076
311.60 0.2079
311.70 0.2083
311.80 0.2086
311.90 0.209
312.00 0.2093
312.10 0.2097
312.20 0.21
312.30 0.2104
312.40 0.2107
312.50 0.2111
312.60 0.2115
312.70 0.2118
312.80 0.2122
312.90 0.2125
313.00 0.2129
313.10 0.2132
313.20 0.2136
313.30 0.214
313.40 0.2143
313.50 0.2147
313.60 0.215
313.70 0.2154
313.80 0.2157
313.90 0.2161
314.00 0.2165
314.10 0.2168
314.20 0.2172
314.30 0.2176
314.40 0.2179
314.50 0.2183
314.60 0.2186
314.70 0.219
314.80 0.2194
314.90 0.2197
315.00 0.2201
315.10 0.2205
315.20 0.2208
315.30 0.2212
315.40 0.2216
315.50 0.2219
315.60 0.2223
315.70 0.2226
315.80 0.223
315.90 0.2234
316.00 0.2237
316.10 0.2241
316.20 0.2245
316.30 0.2248
316.40 0.2252
316.50 0.2256
316.60 0.2259
316.70 0.2263
316.80 0.2267
316.90 0.227
317.00 0.2274
317.10 0.2278
317.20 0.2282
317.30 0.2285
317.40 0.2289
317.50 0.2293
317.60 0.2296
317.70 0.23
317.80 0.2303
317.90 0.2307
318.00 0.2311
318.10 0.2315
318.20 0.2318
318.30 0.2322
318.40 0.2326
318.50 0.233
318.60 0.2333
318.70 0.2337
318.80 0.2341
318.90 0.2345
319.00 0.2348
319.10 0.2352
319.20 0.2356
319.30 0.236
319.40 0.2363
319.50 0.2367
319.60 0.2371
319.70 0.2374
319.80 0.2378
319.90 0.2382
320.00 0.2386
320.10 0.2389
320.20 0.2393
320.30 0.2397
320.40 0.2401
320.50 0.2405
320.60 0.2408
320.70 0.2412
320.80 0.2416
320.90 0.242
321.00 0.2424
321.10 0.2427
321.20 0.2431
321.30 0.2435
321.40 0.2439
321.50 0.2442
321.60 0.2446
321.70 0.245
321.80 0.2454
321.90 0.2457
322.00 0.2461
322.10 0.2465
322.20 0.2469
322.30 0.2473
322.40 0.2477
322.50 0.248
322.60 0.2484
322.70 0.2488
322.80 0.2492
322.90 0.2496
323.00 0.25
323.10 0.2504
323.20 0.2507
323.30 0.2511
323.40 0.2515
323.50 0.2519
323.60 0.2523
323.70 0.2526
323.80 0.253
323.90 0.2534
324.00 0.2538
324.10 0.2542
324.20 0.2546
324.30 0.255
324.40 0.2554
324.50 0.2557
324.60 0.2561
324.70 0.2565
324.80 0.2569
324.90 0.2573
325.00 0.2577
325.10 0.2581
325.20 0.2585
325.30 0.2589
325.40 0.2592
325.50 0.2596
325.60 0.26
325.70 0.2604
325.80 0.2608
325.90 0.2612
326.00 0.2616
326.10 0.2619
326.20 0.2623
326.30 0.2627
326.40 0.2631
326.50 0.2635
326.60 0.2639
326.70 0.2643
326.80 0.2647
326.90 0.2651
327.00 0.2655
327.10 0.2659
327.20 0.2663
327.30 0.2667
327.40 0.2671
327.50 0.2675
327.60 0.2678
327.70 0.2682
327.80 0.2686
327.90 0.269
328.00 0.2694
328.10 0.2698
328.20 0.2702
328.30 0.2706
328.40 0.271
328.50 0.2714
328.60 0.2718
328.70 0.2722
328.80 0.2726
328.90 0.273
329.00 0.2734
329.10 0.2738
329.20 0.2742
329.30 0.2746
329.40 0.275
329.50 0.2754
329.60 0.2758
329.70 0.2762
329.80 0.2766
329.90 0.277
330.00 0.2773
330.10 0.2778
330.20 0.2782
330.30 0.2786
330.40 0.279
330.50 0.2794
330.60 0.2798
330.70 0.2802
330.80 0.2806
330.90 0.281
331.00 0.2814
331.10 0.2818
331.20 0.2822
331.30 0.2826
331.40 0.283
331.50 0.2834
331.60 0.2838
331.70 0.2842
331.80 0.2846
331.90 0.285
332.00 0.2854
332.10 0.2858
332.20 0.2862
332.30 0.2866
332.40 0.287
332.50 0.2874
332.60 0.2878
332.70 0.2883
332.80 0.2887
332.90 0.2891
333.00 0.2895
333.10 0.2899
333.20 0.2903
333.30 0.2907
333.40 0.2911
333.50 0.2915
333.60 0.2919
333.70 0.2923
333.80 0.2927
333.90 0.2931
334.00 0.2935
334.10 0.2939
334.20 0.2943
334.30 0.2948
334.40 0.2952
334.50 0.2956
334.60 0.296
334.70 0.2964
334.80 0.2968
334.90 0.2972
335.00 0.2976
335.10 0.298
335.20 0.2985
335.30 0.2989
335.40 0.2993
335.50 0.2997
335.60 0.3001
335.70 0.3005
335.80 0.3009
335.90 0.3013
336.00 0.3017
336.10 0.3021
336.20 0.3026
336.30 0.303
336.40 0.3034
336.50 0.3038
336.60 0.3042
336.70 0.3046
336.80 0.305
336.90 0.3055
337.00 0.3059
337.10 0.3063
337.20 0.3067
337.30 0.3071
337.40 0.3075
337.50 0.3079
337.60 0.3083
337.70 0.3088
337.80 0.3092
337.90 0.3096
338.00 0.31
338.10 0.3104
338.20 0.3108
338.30 0.3112
338.40 0.3117
338.50 0.3121
338.60 0.3125
338.70 0.3129
338.80 0.3133
338.90 0.3138
339.00 0.3142
339.10 0.3146
339.20 0.315
339.30 0.3154
339.40 0.3159
339.50 0.3163
339.60 0.3167
339.70 0.3171
339.80 0.3175
339.90 0.3179
340.00 0.3183
340.10 0.3188
340.20 0.3192
340.30 0.3196
340.40 0.32
340.50 0.3205
340.60 0.3209
340.70 0.3213
340.80 0.3217
340.90 0.3222
341.00 0.3226
341.10 0.323
341.20 0.3234
341.30 0.3239
341.40 0.3243
341.50 0.3247
341.60 0.3251
341.70 0.3255
341.80 0.326
341.90 0.3264
342.00 0.3268
342.10 0.3272
342.20 0.3276
342.30 0.3281
342.40 0.3285
342.50 0.3289
342.60 0.3294
342.70 0.3298
342.80 0.3302
342.90 0.3306
343.00 0.3311
343.10 0.3315
343.20 0.3319
343.30 0.3323
343.40 0.3328
343.50 0.3332
343.60 0.3336
343.70 0.334
343.80 0.3344
343.90 0.3349
344.00 0.3353
344.10 0.3357
344.20 0.3361
344.30 0.3366
344.40 0.337
344.50 0.3374
344.60 0.3379
344.70 0.3383
344.80 0.3387
344.90 0.3392
345.00 0.3396
345.10 0.34
345.20 0.3405
345.30 0.3409
345.40 0.3413
345.50 0.3417
345.60 0.3422
345.70 0.3426
345.80 0.343
345.90 0.3434
346.00 0.3439
346.10 0.3443
346.20 0.3447
346.30 0.3452
346.40 0.3456
346.50 0.346
346.60 0.3465
346.70 0.3469
346.80 0.3473
346.90 0.3478
347.00 0.3482
347.10 0.3486
347.20 0.3491
347.30 0.3495
347.40 0.3499
347.50 0.3503
347.60 0.3508
347.70 0.3512
347.80 0.3516
347.90 0.3521
348.00 0.3525
348.10 0.3529
348.20 0.3534
348.30 0.3538
348.40 0.3542
348.50 0.3547
348.60 0.3551
348.70 0.3556
348.80 0.356
348.90 0.3564
349.00 0.3569
349.10 0.3573
349.20 0.3577
349.30 0.3582
349.40 0.3586
349.50 0.359
349.60 0.3595
349.70 0.3599
349.80 0.3603
349.90 0.3608
350.00 0.3612
350.10 0.3616
350.20 0.3621
350.30 0.3625
350.40 0.363
350.50 0.3634
350.60 0.3638
350.70 0.3643
350.80 0.3647
350.90 0.3652
351.00 0.3656
351.10 0.366
351.20 0.3665
351.30 0.3669
351.40 0.3673
351.50 0.3678
351.60 0.3682
351.70 0.3687
351.80 0.3691
351.90 0.3695
352.00 0.37
352.10 0.3704
352.20 0.3708
352.30 0.3713
352.40 0.3717
352.50 0.3722
352.60 0.3726
352.70 0.3731
352.80 0.3735
352.90 0.3739
353.00 0.3744
353.10 0.3748
353.20 0.3753
353.30 0.3757
353.40 0.3761
353.50 0.3766
353.60 0.377
353.70 0.3774
353.80 0.3779
353.90 0.3783
354.00 0.3788
354.10 0.3792
354.20 0.3796
354.30 0.3801
354.40 0.3805
354.50 0.381
354.60 0.3814
354.70 0.3819
354.80 0.3823
354.90 0.3828
355.00 0.3832
355.10 0.3837
355.20 0.3841
355.30 0.3845
355.40 0.385
355.50 0.3854
355.60 0.3859
355.70 0.3863
355.80 0.3867
355.90 0.3872
356.00 0.3876
356.10 0.3881
356.20 0.3885
356.30 0.389
356.40 0.3894
356.50 0.3899
356.60 0.3903
356.70 0.3908
356.80 0.3912
356.90 0.3917
357.00 0.3921
357.10 0.3926
357.20 0.393
357.30 0.3934
357.40 0.3939
357.50 0.3943
357.60 0.3948
357.70 0.3952
357.80 0.3957
357.90 0.3961
358.00 0.3965
358.10 0.397
358.20 0.3975
358.30 0.3979
358.40 0.3984
358.50 0.3988
358.60 0.3993
358.70 0.3997
358.80 0.4002
358.90 0.4006
359.00 0.4011
359.10 0.4015
359.20 0.4019
359.30 0.4024
359.40 0.4028
359.50 0.4033
359.60 0.4037
359.70 0.4042
359.80 0.4046
359.90 0.4051
360.00 0.4055
360.10 0.406
360.20 0.4064
360.30 0.4069
360.40 0.4073
360.50 0.4078
360.60 0.4082
360.70 0.4087
360.80 0.4091
360.90 0.4096
361.00 0.41
361.10 0.4105
361.20 0.4109
361.30 0.4114
361.40 0.4118
361.50 0.4123
361.60 0.4127
361.70 0.4132
361.80 0.4136
361.90 0.4141
362.00 0.4145
362.10 0.415
362.20 0.4154
362.30 0.4159
362.40 0.4163
362.50 0.4168
362.60 0.4172
362.70 0.4177
362.80 0.4181
362.90 0.4186
363.00 0.419
363.10 0.4195
363.20 0.4199
363.30 0.4204
363.40 0.4208
363.50 0.4213
363.60 0.4218
363.70 0.4222
363.80 0.4227
363.90 0.4231
364.00 0.4236
364.10 0.424
364.20 0.4245
364.30 0.4249
364.40 0.4254
364.50 0.4258
364.60 0.4263
364.70 0.4267
364.80 0.4272
364.90 0.4277
365.00 0.4281
365.10 0.4286
365.20 0.429
365.30 0.4295
365.40 0.4299
365.50 0.4304
365.60 0.4308
365.70 0.4313
365.80 0.4317
365.90 0.4322
366.00 0.4326
366.10 0.4331
366.20 0.4336
366.30 0.434
366.40 0.4345
366.50 0.4349
366.60 0.4354
366.70 0.4359
366.80 0.4363
366.90 0.4368
367.00 0.4372
367.10 0.4377
367.20 0.4381
367.30 0.4386
367.40 0.439
367.50 0.4395
367.60 0.44
367.70 0.4404
367.80 0.4409
367.90 0.4413
368.00 0.4418
368.10 0.4422
368.20 0.4427
368.30 0.4431
368.40 0.4436
368.50 0.4441
368.60 0.4445
368.70 0.445
368.80 0.4455
368.90 0.4459
369.00 0.4464
369.10 0.4468
369.20 0.4473
369.30 0.4477
369.40 0.4482
369.50 0.4487
369.60 0.4491
369.70 0.4496
369.80 0.45
369.90 0.4505
370.00 0.4509
370.10 0.4514
370.20 0.4518
370.30 0.4523
370.40 0.4528
370.50 0.4532
370.60 0.4537
370.70 0.4542
370.80 0.4546
370.90 0.4551
371.00 0.4555
371.10 0.456
371.20 0.4565
371.30 0.4569
371.40 0.4574
371.50 0.4578
371.60 0.4583
371.70 0.4587
371.80 0.4592
371.90 0.4596
372.00 0.4601
372.10 0.4606
372.20 0.461
372.30 0.4615
372.40 0.462
372.50 0.4624
372.60 0.4629
372.70 0.4633
372.80 0.4638
372.90 0.4643
373.00 0.4647
373.10 0.4652
373.20 0.4656
373.30 0.4661
373.40 0.4666
373.50 0.467
373.60 0.4675
373.70 0.4679
373.80 0.4684
373.90 0.4688
374.00 0.4693
374.10 0.4698
374.20 0.4702
374.30 0.4707
374.40 0.4712
374.50 0.4716
374.60 0.4721
374.70 0.4726
374.80 0.473
374.90 0.4735
375.00 0.4739
375.10 0.4744
375.20 0.4749
375.30 0.4753
375.40 0.4758
375.50 0.4762
375.60 0.4767
375.70 0.4772
375.80 0.4776
375.90 0.4781
376.00 0.4785
376.10 0.479
376.20 0.4795
376.30 0.4799
376.40 0.4804
376.50 0.4809
376.60 0.4813
376.70 0.4818
376.80 0.4822
376.90 0.4827
377.00 0.4832
377.10 0.4836
377.20 0.4841
377.30 0.4846
377.40 0.485
377.50 0.4855
377.60 0.4859
377.70 0.4864
377.80 0.4869
377.90 0.4873
378.00 0.4878
378.10 0.4883
378.20 0.4887
378.30 0.4892
378.40 0.4897
378.50 0.4901
378.60 0.4906
378.70 0.491
378.80 0.4915
378.90 0.492
379.00 0.4924
379.10 0.4929
379.20 0.4934
379.30 0.4938
379.40 0.4943
379.50 0.4948
379.60 0.4952
379.70 0.4957
379.80 0.4961
379.90 0.4966
380.00 0.4971
380.10 0.4975
380.20 0.498
380.30 0.4985
380.40 0.4989
380.50 0.4994
380.60 0.4999
380.70 0.5003
380.80 0.5008
380.90 0.5012
381.00 0.5017
381.10 0.5022
381.20 0.5026
381.30 0.5031
381.40 0.5035
381.50 0.504
381.60 0.5045
381.70 0.505
381.80 0.5054
381.90 0.5059
382.00 0.5063
382.10 0.5068
382.20 0.5073
382.30 0.5077
382.40 0.5082
382.50 0.5087
382.60 0.5091
382.70 0.5096
382.80 0.5101
382.90 0.5105
383.00 0.511
383.10 0.5115
383.20 0.5119
383.30 0.5124
383.40 0.5128
383.50 0.5133
383.60 0.5138
383.70 0.5143
383.80 0.5147
383.90 0.5152
384.00 0.5156
384.10 0.5161
384.20 0.5166
384.30 0.517
384.40 0.5175
384.50 0.518
384.60 0.5184
384.70 0.5189
384.80 0.5194
384.90 0.5198
385.00 0.5203
385.10 0.5208
385.20 0.5212
385.30 0.5217
385.40 0.5221
385.50 0.5226
385.60 0.5231
385.70 0.5235
385.80 0.524
385.90 0.5245
386.00 0.5249
386.10 0.5254
386.20 0.5259
386.30 0.5263
386.40 0.5268
386.50 0.5273
386.60 0.5277
386.70 0.5282
386.80 0.5287
386.90 0.5291
387.00 0.5296
387.10 0.5301
387.20 0.5305
387.30 0.531
387.40 0.5315
387.50 0.5319
387.60 0.5324
387.70 0.5328
387.80 0.5333
387.90 0.5338
388.00 0.5342
388.10 0.5347
388.20 0.5352
388.30 0.5357
388.40 0.5361
388.50 0.5366
388.60 0.537
388.70 0.5375
388.80 0.538
388.90 0.5384
389.00 0.5389
389.10 0.5394
389.20 0.5398
389.30 0.5403
389.40 0.5408
389.50 0.5412
389.60 0.5417
389.70 0.5422
389.80 0.5426
389.90 0.5431
390.00 0.5436
390.10 0.544
390.20 0.5445
390.30 0.545
390.40 0.5454
390.50 0.5459
390.60 0.5464
390.70 0.5468
390.80 0.5473
390.90 0.5478
391.00 0.5482
391.10 0.5487
391.20 0.5492
391.30 0.5496
391.40 0.5501
391.50 0.5505
391.60 0.551
391.70 0.5515
391.80 0.5519
391.90 0.5524
392.00 0.5529
392.10 0.5533
392.20 0.5538
392.30 0.5543
392.40 0.5547
392.50 0.5552
392.60 0.5557
392.70 0.5561
392.80 0.5566
392.90 0.5571
393.00 0.5575
393.10 0.558
393.20 0.5585
393.30 0.5589
393.40 0.5594
393.50 0.5599
393.60 0.5603
393.70 0.5608
393.80 0.5613
393.90 0.5617
394.00 0.5622
394.10 0.5627
394.20 0.5631
394.30 0.5636
394.40 0.5641
394.50 0.5645
394.60 0.565
394.70 0.5654
394.80 0.5659
394.90 0.5664
395.00 0.5669
395.10 0.5673
395.20 0.5678
395.30 0.5682
395.40 0.5687
395.50 0.5692
395.60 0.5696
395.70 0.5701
395.80 0.5706
395.90 0.571
396.00 0.5715
396.10 0.572
396.20 0.5724
396.30 0.5729
396.40 0.5734
396.50 0.5738
396.60 0.5743
396.70 0.5748
396.80 0.5752
396.90 0.5757
397.00 0.5761
397.10 0.5766
397.20 0.5771
397.30 0.5776
397.40 0.578
397.50 0.5785
397.60 0.579
397.70 0.5794
397.80 0.5799
397.90 0.5803
398.00 0.5808
398.10 0.5813
398.20 0.5817
398.30 0.5822
398.40 0.5827
398.50 0.5831
398.60 0.5836
398.70 0.5841
398.80 0.5845
398.90 0.585
399.00 0.5855
399.10 0.5859
399.20 0.5864
399.30 0.5868
399.40 0.5873
399.50 0.5878
399.60 0.5882
399.70 0.5887
399.80 0.5892
399.90 0.5896
400.00 0.5901
400.10 0.5906
400.20 0.591
400.30 0.5915
400.40 0.592
400.50 0.5924
400.60 0.5929
400.70 0.5934
400.80 0.5938
400.90 0.5943
401.00 0.5947
401.10 0.5952
401.20 0.5957
401.30 0.5961
401.40 0.5966
401.50 0.5971
401.60 0.5975
401.70 0.598
401.80 0.5985
401.90 0.5989
402.00 0.5994
402.10 0.5998
402.20 0.6003
402.30 0.6008
402.40 0.6012
402.50 0.6017
402.60 0.6022
402.70 0.6026
402.80 0.6031
402.90 0.6036
403.00 0.604
403.10 0.6045
403.20 0.605
403.30 0.6054
403.40 0.6059
403.50 0.6063
403.60 0.6068
403.70 0.6073
403.80 0.6077
403.90 0.6082
404.00 0.6087
404.10 0.6091
404.20 0.6096
404.30 0.61
404.40 0.6105
404.50 0.611
404.60 0.6114
404.70 0.6119
404.80 0.6123
404.90 0.6128
405.00 0.6133
405.10 0.6137
405.20 0.6142
405.30 0.6147
405.40 0.6151
405.50 0.6156
405.60 0.6161
405.70 0.6165
405.80 0.617
405.90 0.6174
406.00 0.6179
406.10 0.6184
406.20 0.6188
406.30 0.6193
406.40 0.6198
406.50 0.6202
406.60 0.6207
406.70 0.6211
406.80 0.6216
406.90 0.6221
407.00 0.6225
407.10 0.623
407.20 0.6235
407.30 0.6239
407.40 0.6244
407.50 0.6248
407.60 0.6253
407.70 0.6258
407.80 0.6262
407.90 0.6267
408.00 0.6271
408.10 0.6276
408.20 0.6281
408.30 0.6285
408.40 0.629
408.50 0.6294
408.60 0.6299
408.70 0.6304
408.80 0.6308
408.90 0.6313
409.00 0.6317
409.10 0.6322
409.20 0.6327
409.30 0.6331
409.40 0.6336
409.50 0.634
409.60 0.6345
409.70 0.635
409.80 0.6354
409.90 0.6359
410.00 0.6363
410.10 0.6368
410.20 0.6373
410.30 0.6377
410.40 0.6382
410.50 0.6386
410.60 0.6391
410.70 0.6396
410.80 0.64
410.90 0.6405
411.00 0.6409
411.10 0.6414
411.20 0.6419
411.30 0.6423
411.40 0.6428
411.50 0.6432
411.60 0.6437
411.70 0.6441
411.80 0.6446
411.90 0.6451
412.00 0.6455
412.10 0.646
412.20 0.6465
412.30 0.6469
412.40 0.6474
412.50 0.6478
412.60 0.6483
412.70 0.6487
412.80 0.6492
412.90 0.6496
413.00 0.6501
413.10 0.6506
413.20 0.651
413.30 0.6515
413.40 0.652
413.50 0.6524
413.60 0.6529
413.70 0.6533
413.80 0.6538
413.90 0.6542
414.00 0.6547
414.10 0.6552
414.20 0.6556
414.30 0.6561
414.40 0.6565
414.50 0.657
414.60 0.6574
414.70 0.6579
414.80 0.6583
414.90 0.6588
415.00 0.6593
415.10 0.6597
415.20 0.6602
415.30 0.6606
415.40 0.6611
415.50 0.6615
415.60 0.662
415.70 0.6625
415.80 0.6629
415.90 0.6634
416.00 0.6638
416.10 0.6643
416.20 0.6647
416.30 0.6652
416.40 0.6657
416.50 0.6661
416.60 0.6666
416.70 0.667
416.80 0.6675
416.90 0.6679
417.00 0.6684
417.10 0.6688
417.20 0.6693
417.30 0.6697
417.40 0.6702
417.50 0.6707
417.60 0.6711
417.70 0.6716
417.80 0.672
417.90 0.6725
418.00 0.6729
418.10 0.6734
418.20 0.6738
418.30 0.6743
418.40 0.6748
418.50 0.6752
418.60 0.6757
418.70 0.6761
418.80 0.6766
418.90 0.677
419.00 0.6775
419.10 0.6779
419.20 0.6784
419.30 0.6788
419.40 0.6793
419.50 0.6797
419.60 0.6802
419.70 0.6806
419.80 0.6811
419.90 0.6815
420.00 0.682
420.10 0.6825
420.20 0.6829
420.30 0.6834
420.40 0.6838
420.50 0.6843
420.60 0.6847
420.70 0.6852
420.80 0.6856
420.90 0.6861
421.00 0.6865
421.10 0.687
421.20 0.6874
421.30 0.6879
421.40 0.6883
421.50 0.6888
421.60 0.6892
421.70 0.6897
421.80 0.6901
421.90 0.6906
422.00 0.691
422.10 0.6915
422.20 0.6919
422.30 0.6924
422.40 0.6928
422.50 0.6933
422.60 0.6937
422.70 0.6942
422.80 0.6946
422.90 0.6951
423.00 0.6955
423.10 0.696
423.20 0.6964
423.30 0.6969
423.40 0.6973
423.50 0.6978
423.60 0.6982
423.70 0.6987
423.80 0.6991
423.90 0.6996
424.00 0.7
424.10 0.7005
424.20 0.7009
424.30 0.7014
424.40 0.7018
424.50 0.7023
424.60 0.7027
424.70 0.7032
424.80 0.7036
424.90 0.7041
425.00 0.7045
425.10 0.705
425.20 0.7054
425.30 0.7059
425.40 0.7063
425.50 0.7068
425.60 0.7072
425.70 0.7077
425.80 0.7081
425.90 0.7086
426.00 0.709
426.10 0.7095
426.20 0.7099
426.30 0.7103
426.40 0.7108
426.50 0.7112
426.60 0.7117
426.70 0.7121
426.80 0.7126
426.90 0.713
427.00 0.7135
427.10 0.7139
427.20 0.7144
427.30 0.7148
427.40 0.7153
427.50 0.7157
427.60 0.7161
427.70 0.7166
427.80 0.717
427.90 0.7175
428.00 0.7179
428.10 0.7184
428.20 0.7188
428.30 0.7193
428.40 0.7197
428.50 0.7202
428.60 0.7206
428.70 0.721
428.80 0.7215
428.90 0.7219
429.00 0.7224
429.10 0.7228
429.20 0.7233
429.30 0.7237
429.40 0.7241
429.50 0.7246
429.60 0.725
429.70 0.7255
429.80 0.7259
429.90 0.7264
430.00 0.7268
430.10 0.7272
430.20 0.7277
430.30 0.7281
430.40 0.7286
430.50 0.729
430.60 0.7295
430.70 0.7299
430.80 0.7303
430.90 0.7308
431.00 0.7312
431.10 0.7317
431.20 0.7321
431.30 0.7326
431.40 0.733
431.50 0.7334
431.60 0.7339
431.70 0.7343
431.80 0.7348
431.90 0.7352
432.00 0.7356
432.10 0.7361
432.20 0.7365
432.30 0.737
432.40 0.7374
432.50 0.7378
432.60 0.7383
432.70 0.7387
432.80 0.7392
432.90 0.7396
433.00 0.74
433.10 0.7405
433.20 0.7409
433.30 0.7414
433.40 0.7418
433.50 0.7422
433.60 0.7427
433.70 0.7431
433.80 0.7436
433.90 0.744
434.00 0.7444
434.10 0.7449
434.20 0.7453
434.30 0.7458
434.40 0.7462
434.50 0.7466
434.60 0.7471
434.70 0.7475
434.80 0.7479
434.90 0.7484
435.00 0.7488
435.10 0.7493
435.20 0.7497
435.30 0.7501
435.40 0.7506
435.50 0.751
435.60 0.7514
435.70 0.7519
435.80 0.7523
435.90 0.7527
436.00 0.7532
436.10 0.7536
436.20 0.7541
436.30 0.7545
436.40 0.7549
436.50 0.7554
436.60 0.7558
436.70 0.7562
436.80 0.7567
436.90 0.7571
437.00 0.7575
437.10 0.758
437.20 0.7584
437.30 0.7588
437.40 0.7593
437.50 0.7597
437.60 0.7601
437.70 0.7606
437.80 0.761
437.90 0.7614
438.00 0.7619
438.10 0.7623
438.20 0.7627
438.30 0.7632
438.40 0.7636
438.50 0.764
438.60 0.7645
438.70 0.7649
438.80 0.7653
438.90 0.7658
439.00 0.7662
439.10 0.7666
439.20 0.7671
439.30 0.7675
439.40 0.7679
439.50 0.7684
439.60 0.7688
439.70 0.7692
439.80 0.7697
439.90 0.7701
440.00 0.7705
440.10 0.7709
440.20 0.7714
440.30 0.7718
440.40 0.7722
440.50 0.7727
440.60 0.7731
440.70 0.7735
440.80 0.774
440.90 0.7744
441.00 0.7748
441.10 0.7752
441.20 0.7757
441.30 0.7761
441.40 0.7765
441.50 0.777
441.60 0.7774
441.70 0.7778
441.80 0.7783
441.90 0.7787
442.00 0.7791
442.10 0.7795
442.20 0.78
442.30 0.7804
442.40 0.7808
442.50 0.7813
442.60 0.7817
442.70 0.7821
442.80 0.7825
442.90 0.783
443.00 0.7834
443.10 0.7838
