# Version 2.1 - nm, norm@500 to 1, cut digits, bergeron_55000_85.dat_55000
# Wavelength(nm)  Flambda(ergs/cm^s/s/nm)
300.00 6.323
300.10 6.315
300.20 6.307
300.30 6.3
300.40 6.292
300.50 6.285
300.60 6.277
300.70 6.269
300.80 6.262
300.90 6.254
301.00 6.246
301.10 6.239
301.20 6.231
301.30 6.224
301.40 6.216
301.50 6.209
301.60 6.201
301.70 6.194
301.80 6.186
301.90 6.179
302.00 6.171
302.10 6.164
302.20 6.156
302.30 6.149
302.40 6.142
302.50 6.134
302.60 6.127
302.70 6.119
302.80 6.112
302.90 6.105
303.00 6.097
303.10 6.09
303.20 6.083
303.30 6.075
303.40 6.068
303.50 6.061
303.60 6.053
303.70 6.046
303.80 6.039
303.90 6.032
304.00 6.024
304.10 6.017
304.20 6.01
304.30 6.003
304.40 5.995
304.50 5.988
304.60 5.981
304.70 5.974
304.80 5.967
304.90 5.96
305.00 5.952
305.10 5.945
305.20 5.938
305.30 5.931
305.40 5.924
305.50 5.917
305.60 5.91
305.70 5.903
305.80 5.896
305.90 5.889
306.00 5.882
306.10 5.875
306.20 5.868
306.30 5.861
306.40 5.854
306.50 5.847
306.60 5.84
306.70 5.833
306.80 5.826
306.90 5.819
307.00 5.812
307.10 5.805
307.20 5.798
307.30 5.791
307.40 5.784
307.50 5.777
307.60 5.771
307.70 5.764
307.80 5.757
307.90 5.75
308.00 5.743
308.10 5.736
308.20 5.73
308.30 5.723
308.40 5.716
308.50 5.709
308.60 5.703
308.70 5.696
308.80 5.689
308.90 5.682
309.00 5.676
309.10 5.669
309.20 5.662
309.30 5.655
309.40 5.649
309.50 5.642
309.60 5.635
309.70 5.629
309.80 5.622
309.90 5.616
310.00 5.609
310.10 5.602
310.20 5.596
310.30 5.589
310.40 5.582
310.50 5.576
310.60 5.569
310.70 5.563
310.80 5.556
310.90 5.55
311.00 5.543
311.10 5.537
311.20 5.53
311.30 5.524
311.40 5.517
311.50 5.511
311.60 5.504
311.70 5.498
311.80 5.491
311.90 5.485
312.00 5.478
312.10 5.472
312.20 5.466
312.30 5.459
312.40 5.453
312.50 5.446
312.60 5.44
312.70 5.434
312.80 5.427
312.90 5.421
313.00 5.415
313.10 5.408
313.20 5.402
313.30 5.396
313.40 5.389
313.50 5.383
313.60 5.377
313.70 5.371
313.80 5.364
313.90 5.358
314.00 5.352
314.10 5.346
314.20 5.339
314.30 5.333
314.40 5.327
314.50 5.321
314.60 5.314
314.70 5.308
314.80 5.302
314.90 5.296
315.00 5.29
315.10 5.284
315.20 5.278
315.30 5.271
315.40 5.265
315.50 5.259
315.60 5.253
315.70 5.247
315.80 5.241
315.90 5.235
316.00 5.229
316.10 5.223
316.20 5.217
316.30 5.211
316.40 5.205
316.50 5.199
316.60 5.193
316.70 5.187
316.80 5.181
316.90 5.175
317.00 5.169
317.10 5.163
317.20 5.157
317.30 5.151
317.40 5.145
317.50 5.139
317.60 5.133
317.70 5.127
317.80 5.121
317.90 5.115
318.00 5.109
318.10 5.103
318.20 5.098
318.30 5.092
318.40 5.086
318.50 5.08
318.60 5.074
318.70 5.068
318.80 5.062
318.90 5.057
319.00 5.051
319.10 5.045
319.20 5.039
319.30 5.033
319.40 5.028
319.50 5.022
319.60 5.016
319.70 5.01
319.80 5.005
319.90 4.999
320.00 4.993
320.10 4.987
320.20 4.982
320.30 4.976
320.40 4.97
320.50 4.965
320.60 4.959
320.70 4.953
320.80 4.948
320.90 4.942
321.00 4.936
321.10 4.931
321.20 4.925
321.30 4.92
321.40 4.914
321.50 4.908
321.60 4.903
321.70 4.897
321.80 4.892
321.90 4.886
322.00 4.88
322.10 4.875
322.20 4.869
322.30 4.864
322.40 4.858
322.50 4.853
322.60 4.847
322.70 4.842
322.80 4.836
322.90 4.831
323.00 4.825
323.10 4.82
323.20 4.814
323.30 4.809
323.40 4.803
323.50 4.798
323.60 4.792
323.70 4.787
323.80 4.782
323.90 4.776
324.00 4.771
324.10 4.765
324.20 4.76
324.30 4.755
324.40 4.749
324.50 4.744
324.60 4.739
324.70 4.733
324.80 4.728
324.90 4.722
325.00 4.717
325.10 4.712
325.20 4.707
325.30 4.701
325.40 4.696
325.50 4.691
325.60 4.685
325.70 4.68
325.80 4.675
325.90 4.67
326.00 4.664
326.10 4.659
326.20 4.654
326.30 4.649
326.40 4.643
326.50 4.638
326.60 4.633
326.70 4.628
326.80 4.622
326.90 4.617
327.00 4.612
327.10 4.607
327.20 4.602
327.30 4.597
327.40 4.591
327.50 4.586
327.60 4.581
327.70 4.576
327.80 4.571
327.90 4.566
328.00 4.561
328.10 4.556
328.20 4.551
328.30 4.545
328.40 4.54
328.50 4.535
328.60 4.53
328.70 4.525
328.80 4.52
328.90 4.515
329.00 4.51
329.10 4.505
329.20 4.5
329.30 4.495
329.40 4.49
329.50 4.485
329.60 4.48
329.70 4.475
329.80 4.47
329.90 4.465
330.00 4.46
330.10 4.455
330.20 4.45
330.30 4.445
330.40 4.44
330.50 4.435
330.60 4.43
330.70 4.426
330.80 4.421
330.90 4.416
331.00 4.411
331.10 4.406
331.20 4.401
331.30 4.396
331.40 4.391
331.50 4.386
331.60 4.382
331.70 4.377
331.80 4.372
331.90 4.367
332.00 4.362
332.10 4.357
332.20 4.352
332.30 4.348
332.40 4.343
332.50 4.338
332.60 4.333
332.70 4.329
332.80 4.324
332.90 4.319
333.00 4.314
333.10 4.309
333.20 4.305
333.30 4.3
333.40 4.295
333.50 4.29
333.60 4.286
333.70 4.281
333.80 4.276
333.90 4.272
334.00 4.267
334.10 4.262
334.20 4.257
334.30 4.253
334.40 4.248
334.50 4.243
334.60 4.239
334.70 4.234
334.80 4.23
334.90 4.225
335.00 4.22
335.10 4.216
335.20 4.211
335.30 4.206
335.40 4.202
335.50 4.197
335.60 4.193
335.70 4.188
335.80 4.183
335.90 4.179
336.00 4.174
336.10 4.17
336.20 4.165
336.30 4.161
336.40 4.156
336.50 4.151
336.60 4.147
336.70 4.142
336.80 4.138
336.90 4.133
337.00 4.129
337.10 4.124
337.20 4.12
337.30 4.115
337.40 4.111
337.50 4.106
337.60 4.102
337.70 4.097
337.80 4.093
337.90 4.089
338.00 4.084
338.10 4.08
338.20 4.075
338.30 4.071
338.40 4.066
338.50 4.062
338.60 4.058
338.70 4.053
338.80 4.049
338.90 4.044
339.00 4.04
339.10 4.036
339.20 4.031
339.30 4.027
339.40 4.022
339.50 4.018
339.60 4.014
339.70 4.009
339.80 4.005
339.90 4.001
340.00 3.996
340.10 3.992
340.20 3.988
340.30 3.983
340.40 3.979
340.50 3.975
340.60 3.971
340.70 3.966
340.80 3.962
340.90 3.958
341.00 3.953
341.10 3.949
341.20 3.945
341.30 3.941
341.40 3.936
341.50 3.932
341.60 3.928
341.70 3.924
341.80 3.919
341.90 3.915
342.00 3.911
342.10 3.907
342.20 3.903
342.30 3.898
342.40 3.894
342.50 3.89
342.60 3.886
342.70 3.882
342.80 3.878
342.90 3.873
343.00 3.869
343.10 3.865
343.20 3.861
343.30 3.857
343.40 3.853
343.50 3.848
343.60 3.844
343.70 3.84
343.80 3.836
343.90 3.832
344.00 3.828
344.10 3.824
344.20 3.82
344.30 3.816
344.40 3.812
344.50 3.807
344.60 3.803
344.70 3.799
344.80 3.795
344.90 3.791
345.00 3.787
345.10 3.783
345.20 3.779
345.30 3.775
345.40 3.771
345.50 3.767
345.60 3.763
345.70 3.759
345.80 3.755
345.90 3.751
346.00 3.747
346.10 3.743
346.20 3.739
346.30 3.735
346.40 3.731
346.50 3.727
346.60 3.723
346.70 3.719
346.80 3.715
346.90 3.711
347.00 3.707
347.10 3.703
347.20 3.7
347.30 3.696
347.40 3.692
347.50 3.688
347.60 3.684
347.70 3.68
347.80 3.676
347.90 3.672
348.00 3.668
348.10 3.664
348.20 3.66
348.30 3.657
348.40 3.653
348.50 3.649
348.60 3.645
348.70 3.641
348.80 3.637
348.90 3.634
349.00 3.63
349.10 3.626
349.20 3.622
349.30 3.618
349.40 3.614
349.50 3.611
349.60 3.607
349.70 3.603
349.80 3.599
349.90 3.595
350.00 3.592
350.10 3.588
350.20 3.584
350.30 3.58
350.40 3.576
350.50 3.573
350.60 3.569
350.70 3.565
350.80 3.561
350.90 3.558
351.00 3.554
351.10 3.55
351.20 3.547
351.30 3.543
351.40 3.539
351.50 3.535
351.60 3.532
351.70 3.528
351.80 3.524
351.90 3.521
352.00 3.517
352.10 3.513
352.20 3.51
352.30 3.506
352.40 3.502
352.50 3.499
352.60 3.495
352.70 3.491
352.80 3.488
352.90 3.484
353.00 3.48
353.10 3.477
353.20 3.473
353.30 3.469
353.40 3.466
353.50 3.462
353.60 3.459
353.70 3.455
353.80 3.451
353.90 3.448
354.00 3.444
354.10 3.441
354.20 3.437
354.30 3.433
354.40 3.43
354.50 3.426
354.60 3.423
354.70 3.419
354.80 3.416
354.90 3.412
355.00 3.408
355.10 3.405
355.20 3.401
355.30 3.398
355.40 3.394
355.50 3.391
355.60 3.387
355.70 3.384
355.80 3.38
355.90 3.377
356.00 3.373
356.10 3.37
356.20 3.366
356.30 3.363
356.40 3.359
356.50 3.356
356.60 3.352
356.70 3.349
356.80 3.345
356.90 3.342
357.00 3.339
357.10 3.335
357.20 3.332
357.30 3.328
357.40 3.325
357.50 3.321
357.60 3.318
357.70 3.314
357.80 3.311
357.90 3.308
358.00 3.304
358.10 3.301
358.20 3.297
358.30 3.294
358.40 3.291
358.50 3.287
358.60 3.284
358.70 3.28
358.80 3.277
358.90 3.274
359.00 3.27
359.10 3.267
359.20 3.264
359.30 3.26
359.40 3.257
359.50 3.254
359.60 3.25
359.70 3.247
359.80 3.244
359.90 3.24
360.00 3.237
360.10 3.234
360.20 3.23
360.30 3.227
360.40 3.224
360.50 3.22
360.60 3.217
360.70 3.214
360.80 3.211
360.90 3.207
361.00 3.204
361.10 3.201
361.20 3.197
361.30 3.194
361.40 3.191
361.50 3.188
361.60 3.184
361.70 3.181
361.80 3.178
361.90 3.175
362.00 3.171
362.10 3.168
362.20 3.165
362.30 3.162
362.40 3.158
362.50 3.155
362.60 3.152
362.70 3.149
362.80 3.146
362.90 3.142
363.00 3.139
363.10 3.136
363.20 3.133
363.30 3.13
363.40 3.126
363.50 3.123
363.60 3.12
363.70 3.117
363.80 3.114
363.90 3.111
364.00 3.107
364.10 3.104
364.20 3.101
364.30 3.098
364.40 3.095
364.50 3.092
364.60 3.089
364.70 3.085
364.80 3.082
364.90 3.079
365.00 3.076
365.10 3.073
365.20 3.07
365.30 3.067
365.40 3.064
365.50 3.061
365.60 3.057
365.70 3.054
365.80 3.051
365.90 3.048
366.00 3.045
366.10 3.042
366.20 3.039
366.30 3.036
366.40 3.033
366.50 3.029
366.60 3.026
366.70 3.023
366.80 3.02
366.90 3.017
367.00 3.014
367.10 3.011
367.20 3.008
367.30 3.005
367.40 3.002
367.50 2.998
367.60 2.995
367.70 2.992
367.80 2.989
367.90 2.986
368.00 2.983
368.10 2.98
368.20 2.977
368.30 2.974
368.40 2.971
368.50 2.967
368.60 2.964
368.70 2.961
368.80 2.958
368.90 2.955
369.00 2.952
369.10 2.949
369.20 2.946
369.30 2.943
369.40 2.94
369.50 2.937
369.60 2.934
369.70 2.93
369.80 2.927
369.90 2.924
370.00 2.921
370.10 2.918
370.20 2.915
370.30 2.912
370.40 2.909
370.50 2.906
370.60 2.903
370.70 2.9
370.80 2.897
370.90 2.894
371.00 2.891
371.10 2.888
371.20 2.885
371.30 2.882
371.40 2.879
371.50 2.876
371.60 2.873
371.70 2.87
371.80 2.868
371.90 2.865
372.00 2.862
372.10 2.859
372.20 2.856
372.30 2.853
372.40 2.85
372.50 2.847
372.60 2.844
372.70 2.842
372.80 2.839
372.90 2.836
373.00 2.833
373.10 2.83
373.20 2.827
373.30 2.825
373.40 2.822
373.50 2.819
373.60 2.816
373.70 2.813
373.80 2.81
373.90 2.808
374.00 2.805
374.10 2.802
374.20 2.799
374.30 2.796
374.40 2.793
374.50 2.791
374.60 2.788
374.70 2.785
374.80 2.782
374.90 2.779
375.00 2.776
375.10 2.774
375.20 2.771
375.30 2.768
375.40 2.765
375.50 2.762
375.60 2.759
375.70 2.757
375.80 2.754
375.90 2.751
376.00 2.748
376.10 2.746
376.20 2.743
376.30 2.74
376.40 2.737
376.50 2.735
376.60 2.732
376.70 2.729
376.80 2.726
376.90 2.724
377.00 2.721
377.10 2.718
377.20 2.715
377.30 2.713
377.40 2.71
377.50 2.707
377.60 2.705
377.70 2.702
377.80 2.7
377.90 2.697
378.00 2.694
378.10 2.692
378.20 2.689
378.30 2.686
378.40 2.684
378.50 2.681
378.60 2.679
378.70 2.676
378.80 2.673
378.90 2.671
379.00 2.668
379.10 2.666
379.20 2.663
379.30 2.66
379.40 2.658
379.50 2.655
379.60 2.653
379.70 2.65
379.80 2.648
379.90 2.645
380.00 2.643
380.10 2.64
380.20 2.638
380.30 2.635
380.40 2.633
380.50 2.63
380.60 2.628
380.70 2.625
380.80 2.623
380.90 2.621
381.00 2.618
381.10 2.616
381.20 2.613
381.30 2.611
381.40 2.608
381.50 2.606
381.60 2.603
381.70 2.601
381.80 2.599
381.90 2.596
382.00 2.594
382.10 2.591
382.20 2.589
382.30 2.586
382.40 2.584
382.50 2.581
382.60 2.579
382.70 2.576
382.80 2.574
382.90 2.572
383.00 2.569
383.10 2.567
383.20 2.564
383.30 2.562
383.40 2.56
383.50 2.557
383.60 2.555
383.70 2.553
383.80 2.551
383.90 2.548
384.00 2.546
384.10 2.544
384.20 2.542
384.30 2.54
384.40 2.538
384.50 2.536
384.60 2.534
384.70 2.531
384.80 2.529
384.90 2.527
385.00 2.525
385.10 2.523
385.20 2.521
385.30 2.518
385.40 2.516
385.50 2.514
385.60 2.512
385.70 2.509
385.80 2.507
385.90 2.505
386.00 2.503
386.10 2.5
386.20 2.498
386.30 2.495
386.40 2.493
386.50 2.491
386.60 2.488
386.70 2.486
386.80 2.483
386.90 2.481
387.00 2.478
387.10 2.476
387.20 2.473
387.30 2.47
387.40 2.468
387.50 2.465
387.60 2.463
387.70 2.46
387.80 2.457
387.90 2.455
388.00 2.452
388.10 2.45
388.20 2.447
388.30 2.444
388.40 2.442
388.50 2.44
388.60 2.437
388.70 2.435
388.80 2.433
388.90 2.431
389.00 2.429
389.10 2.427
389.20 2.425
389.30 2.424
389.40 2.422
389.50 2.42
389.60 2.419
389.70 2.418
389.80 2.416
389.90 2.415
390.00 2.413
390.10 2.412
390.20 2.41
390.30 2.409
390.40 2.408
390.50 2.406
390.60 2.405
390.70 2.403
390.80 2.401
390.90 2.4
391.00 2.398
391.10 2.397
391.20 2.395
391.30 2.393
391.40 2.391
391.50 2.39
391.60 2.388
391.70 2.386
391.80 2.384
391.90 2.382
392.00 2.38
392.10 2.378
392.20 2.375
392.30 2.373
392.40 2.371
392.50 2.369
392.60 2.366
392.70 2.364
392.80 2.361
392.90 2.359
393.00 2.356
393.10 2.354
393.20 2.351
393.30 2.348
393.40 2.346
393.50 2.343
393.60 2.34
393.70 2.337
393.80 2.334
393.90 2.331
394.00 2.328
394.10 2.325
394.20 2.321
394.30 2.318
394.40 2.315
394.50 2.311
394.60 2.308
394.70 2.304
394.80 2.301
394.90 2.297
395.00 2.293
395.10 2.29
395.20 2.286
395.30 2.282
395.40 2.278
395.50 2.274
395.60 2.271
395.70 2.267
395.80 2.263
395.90 2.259
396.00 2.255
396.10 2.251
396.20 2.247
396.30 2.243
396.40 2.239
396.50 2.235
396.60 2.231
396.70 2.227
396.80 2.224
396.90 2.22
397.00 2.217
397.10 2.217
397.20 2.216
397.30 2.216
397.40 2.216
397.50 2.217
397.60 2.217
397.70 2.217
397.80 2.218
397.90 2.218
398.00 2.219
398.10 2.219
398.20 2.22
398.30 2.22
398.40 2.22
398.50 2.221
398.60 2.221
398.70 2.221
398.80 2.222
398.90 2.222
399.00 2.222
399.10 2.222
399.20 2.222
399.30 2.222
399.40 2.222
399.50 2.222
399.60 2.222
399.70 2.221
399.80 2.221
399.90 2.221
400.00 2.22
400.10 2.22
400.20 2.219
400.30 2.219
400.40 2.218
400.50 2.218
400.60 2.217
400.70 2.216
400.80 2.215
400.90 2.214
401.00 2.213
401.10 2.212
401.20 2.211
401.30 2.21
401.40 2.209
401.50 2.208
401.60 2.207
401.70 2.205
401.80 2.204
401.90 2.203
402.00 2.201
402.10 2.2
402.20 2.198
402.30 2.196
402.40 2.195
402.50 2.193
402.60 2.191
402.70 2.189
402.80 2.188
402.90 2.186
403.00 2.184
403.10 2.182
403.20 2.18
403.30 2.177
403.40 2.175
403.50 2.173
403.60 2.171
403.70 2.168
403.80 2.166
403.90 2.164
404.00 2.161
404.10 2.158
404.20 2.156
404.30 2.153
404.40 2.15
404.50 2.148
404.60 2.145
404.70 2.142
404.80 2.139
404.90 2.136
405.00 2.133
405.10 2.129
405.20 2.126
405.30 2.123
405.40 2.119
405.50 2.116
405.60 2.112
405.70 2.109
405.80 2.105
405.90 2.101
406.00 2.097
406.10 2.094
406.20 2.09
406.30 2.085
406.40 2.081
406.50 2.077
406.60 2.073
406.70 2.068
406.80 2.064
406.90 2.059
407.00 2.054
407.10 2.05
407.20 2.045
407.30 2.04
407.40 2.035
407.50 2.029
407.60 2.024
407.70 2.019
407.80 2.013
407.90 2.008
408.00 2.002
408.10 1.996
408.20 1.99
408.30 1.984
408.40 1.978
408.50 1.972
408.60 1.966
408.70 1.959
408.80 1.953
408.90 1.947
409.00 1.94
409.10 1.934
409.20 1.927
409.30 1.921
409.40 1.915
409.50 1.909
409.60 1.903
409.70 1.898
409.80 1.894
409.90 1.89
410.00 1.889
410.10 1.888
410.20 1.889
410.30 1.885
410.40 1.882
410.50 1.881
410.60 1.882
410.70 1.884
410.80 1.886
410.90 1.889
411.00 1.892
411.10 1.895
411.20 1.898
411.30 1.901
411.40 1.904
411.50 1.907
411.60 1.91
411.70 1.913
411.80 1.916
411.90 1.919
412.00 1.922
412.10 1.924
412.20 1.927
412.30 1.929
412.40 1.932
412.50 1.934
412.60 1.936
412.70 1.938
412.80 1.94
412.90 1.942
413.00 1.944
413.10 1.945
413.20 1.947
413.30 1.948
413.40 1.949
413.50 1.951
413.60 1.952
413.70 1.953
413.80 1.954
413.90 1.955
414.00 1.956
414.10 1.956
414.20 1.957
414.30 1.958
414.40 1.958
414.50 1.958
414.60 1.959
414.70 1.959
414.80 1.959
414.90 1.96
415.00 1.96
415.10 1.96
415.20 1.96
415.30 1.96
415.40 1.959
415.50 1.959
415.60 1.959
415.70 1.959
415.80 1.958
415.90 1.958
416.00 1.958
416.10 1.957
416.20 1.957
416.30 1.956
416.40 1.956
416.50 1.955
416.60 1.954
416.70 1.954
416.80 1.953
416.90 1.952
417.00 1.951
417.10 1.95
417.20 1.95
417.30 1.949
417.40 1.948
417.50 1.947
417.60 1.946
417.70 1.945
417.80 1.944
417.90 1.943
418.00 1.942
418.10 1.941
418.20 1.939
418.30 1.938
418.40 1.937
418.50 1.936
418.60 1.935
418.70 1.934
418.80 1.932
418.90 1.931
419.00 1.93
419.10 1.928
419.20 1.927
419.30 1.926
419.40 1.924
419.50 1.923
419.60 1.922
419.70 1.92
419.80 1.919
419.90 1.917
420.00 1.916
420.10 1.915
420.20 1.913
420.30 1.912
420.40 1.91
420.50 1.909
420.60 1.907
420.70 1.906
420.80 1.904
420.90 1.902
421.00 1.901
421.10 1.899
421.20 1.898
421.30 1.896
421.40 1.895
421.50 1.893
421.60 1.891
421.70 1.89
421.80 1.888
421.90 1.886
422.00 1.885
422.10 1.883
422.20 1.881
422.30 1.88
422.40 1.878
422.50 1.876
422.60 1.874
422.70 1.873
422.80 1.871
422.90 1.869
423.00 1.867
423.10 1.865
423.20 1.864
423.30 1.862
423.40 1.86
423.50 1.858
423.60 1.856
423.70 1.854
423.80 1.852
423.90 1.851
424.00 1.849
424.10 1.847
424.20 1.845
424.30 1.843
424.40 1.841
424.50 1.839
424.60 1.837
424.70 1.835
424.80 1.833
424.90 1.831
425.00 1.829
425.10 1.827
425.20 1.824
425.30 1.822
425.40 1.82
425.50 1.818
425.60 1.816
425.70 1.814
425.80 1.811
425.90 1.809
426.00 1.807
426.10 1.805
426.20 1.802
426.30 1.8
426.40 1.798
426.50 1.795
426.60 1.793
426.70 1.79
426.80 1.788
426.90 1.785
427.00 1.783
427.10 1.78
427.20 1.778
427.30 1.775
427.40 1.772
427.50 1.769
427.60 1.767
427.70 1.764
427.80 1.761
427.90 1.758
428.00 1.755
428.10 1.752
428.20 1.749
428.30 1.746
428.40 1.743
428.50 1.74
428.60 1.736
428.70 1.733
428.80 1.73
428.90 1.726
429.00 1.723
429.10 1.719
429.20 1.716
429.30 1.712
429.40 1.708
429.50 1.704
429.60 1.701
429.70 1.697
429.80 1.692
429.90 1.688
430.00 1.684
430.10 1.68
430.20 1.675
430.30 1.671
430.40 1.666
430.50 1.661
430.60 1.656
430.70 1.652
430.80 1.646
430.90 1.641
431.00 1.636
431.10 1.631
431.20 1.625
431.30 1.62
431.40 1.614
431.50 1.608
431.60 1.602
431.70 1.596
431.80 1.59
431.90 1.583
432.00 1.577
432.10 1.57
432.20 1.563
432.30 1.556
432.40 1.549
432.50 1.542
432.60 1.535
432.70 1.528
432.80 1.52
432.90 1.513
433.00 1.506
433.10 1.498
433.20 1.491
433.30 1.483
433.40 1.476
433.50 1.469
433.60 1.462
433.70 1.454
433.80 1.446
433.90 1.438
434.00 1.43
434.10 1.429
434.20 1.435
434.30 1.441
434.40 1.447
434.50 1.452
434.60 1.456
434.70 1.461
434.80 1.466
434.90 1.471
435.00 1.476
435.10 1.481
435.20 1.486
435.30 1.491
435.40 1.495
435.50 1.5
435.60 1.505
435.70 1.509
435.80 1.513
435.90 1.518
436.00 1.522
436.10 1.525
436.20 1.529
436.30 1.533
436.40 1.536
436.50 1.54
436.60 1.543
436.70 1.546
436.80 1.549
436.90 1.552
437.00 1.554
437.10 1.557
437.20 1.559
437.30 1.562
437.40 1.564
437.50 1.566
437.60 1.568
437.70 1.569
437.80 1.571
437.90 1.573
438.00 1.574
438.10 1.576
438.20 1.577
438.30 1.578
438.40 1.579
438.50 1.58
438.60 1.581
438.70 1.582
438.80 1.583
438.90 1.584
439.00 1.584
439.10 1.585
439.20 1.586
439.30 1.586
439.40 1.586
439.50 1.587
439.60 1.587
439.70 1.587
439.80 1.587
439.90 1.587
440.00 1.587
440.10 1.587
440.20 1.587
440.30 1.587
440.40 1.587
440.50 1.587
440.60 1.587
440.70 1.586
440.80 1.586
440.90 1.586
441.00 1.585
441.10 1.585
441.20 1.585
441.30 1.584
441.40 1.584
441.50 1.583
441.60 1.583
441.70 1.582
441.80 1.581
441.90 1.581
442.00 1.58
442.10 1.58
442.20 1.579
442.30 1.578
442.40 1.577
442.50 1.577
442.60 1.576
442.70 1.575
442.80 1.574
442.90 1.573
443.00 1.573
443.10 1.572
443.20 1.571
443.30 1.57
443.40 1.569
443.50 1.568
443.60 1.567
443.70 1.566
443.80 1.565
443.90 1.564
444.00 1.564
444.10 1.563
444.20 1.562
444.30 1.561
444.40 1.56
444.50 1.559
444.60 1.558
444.70 1.557
444.80 1.555
444.90 1.554
445.00 1.553
445.10 1.552
445.20 1.551
445.30 1.55
445.40 1.549
445.50 1.548
445.60 1.547
445.70 1.546
445.80 1.545
445.90 1.544
446.00 1.543
446.10 1.541
446.20 1.54
446.30 1.539
446.40 1.538
446.50 1.537
446.60 1.536
446.70 1.535
446.80 1.534
446.90 1.532
447.00 1.531
447.10 1.53
447.20 1.529
447.30 1.528
447.40 1.527
447.50 1.526
447.60 1.524
447.70 1.523
447.80 1.522
447.90 1.521
448.00 1.52
448.10 1.519
448.20 1.517
448.30 1.516
448.40 1.515
448.50 1.514
448.60 1.513
448.70 1.511
448.80 1.51
448.90 1.509
449.00 1.508
449.10 1.507
449.20 1.506
449.30 1.504
449.40 1.503
449.50 1.502
449.60 1.501
449.70 1.5
449.80 1.498
449.90 1.497
450.00 1.496
450.10 1.495
450.20 1.494
450.30 1.492
450.40 1.491
450.50 1.49
450.60 1.489
450.70 1.488
450.80 1.486
450.90 1.485
451.00 1.484
451.10 1.483
451.20 1.482
451.30 1.48
451.40 1.479
451.50 1.478
451.60 1.477
451.70 1.476
451.80 1.474
451.90 1.473
452.00 1.472
452.10 1.471
452.20 1.47
452.30 1.469
452.40 1.467
452.50 1.466
452.60 1.465
452.70 1.464
452.80 1.463
452.90 1.461
453.00 1.46
453.10 1.459
453.20 1.458
453.30 1.457
453.40 1.455
453.50 1.454
453.60 1.453
453.70 1.452
453.80 1.451
453.90 1.449
454.00 1.448
454.10 1.447
