# Version 2.1 - nm, norm@500 to 1, cut digits, bergeron_11000_70.dat_11000
# Wavelength(nm)  Flambda(ergs/cm^s/s/nm)
300.00 1.439
300.10 1.439
300.20 1.438
300.30 1.437
300.40 1.436
300.50 1.436
300.60 1.435
300.70 1.434
300.80 1.433
300.90 1.432
301.00 1.432
301.10 1.431
301.20 1.43
301.30 1.429
301.40 1.428
301.50 1.428
301.60 1.427
301.70 1.426
301.80 1.425
301.90 1.425
302.00 1.424
302.10 1.423
302.20 1.422
302.30 1.421
302.40 1.421
302.50 1.42
302.60 1.419
302.70 1.418
302.80 1.418
302.90 1.417
303.00 1.416
303.10 1.415
303.20 1.414
303.30 1.414
303.40 1.413
303.50 1.412
303.60 1.411
303.70 1.411
303.80 1.41
303.90 1.409
304.00 1.408
304.10 1.407
304.20 1.407
304.30 1.406
304.40 1.405
304.50 1.404
304.60 1.404
304.70 1.403
304.80 1.402
304.90 1.401
305.00 1.401
305.10 1.4
305.20 1.399
305.30 1.398
305.40 1.397
305.50 1.397
305.60 1.396
305.70 1.395
305.80 1.394
305.90 1.394
306.00 1.393
306.10 1.392
306.20 1.391
306.30 1.391
306.40 1.39
306.50 1.389
306.60 1.388
306.70 1.388
306.80 1.387
306.90 1.386
307.00 1.385
307.10 1.385
307.20 1.384
307.30 1.383
307.40 1.382
307.50 1.382
307.60 1.381
307.70 1.38
307.80 1.379
307.90 1.379
308.00 1.378
308.10 1.377
308.20 1.376
308.30 1.376
308.40 1.375
308.50 1.374
308.60 1.373
308.70 1.373
308.80 1.372
308.90 1.371
309.00 1.37
309.10 1.37
309.20 1.369
309.30 1.368
309.40 1.367
309.50 1.367
309.60 1.366
309.70 1.365
309.80 1.364
309.90 1.364
310.00 1.363
310.10 1.362
310.20 1.361
310.30 1.361
310.40 1.36
310.50 1.359
310.60 1.358
310.70 1.358
310.80 1.357
310.90 1.356
311.00 1.355
311.10 1.355
311.20 1.354
311.30 1.353
311.40 1.353
311.50 1.352
311.60 1.351
311.70 1.35
311.80 1.35
311.90 1.349
312.00 1.348
312.10 1.347
312.20 1.347
312.30 1.346
312.40 1.345
312.50 1.344
312.60 1.344
312.70 1.343
312.80 1.342
312.90 1.342
313.00 1.341
313.10 1.34
313.20 1.339
313.30 1.339
313.40 1.338
313.50 1.337
313.60 1.337
313.70 1.336
313.80 1.335
313.90 1.334
314.00 1.334
314.10 1.333
314.20 1.332
314.30 1.331
314.40 1.331
314.50 1.33
314.60 1.329
314.70 1.329
314.80 1.328
314.90 1.327
315.00 1.326
315.10 1.326
315.20 1.325
315.30 1.324
315.40 1.324
315.50 1.323
315.60 1.322
315.70 1.321
315.80 1.321
315.90 1.32
316.00 1.319
316.10 1.319
316.20 1.318
316.30 1.317
316.40 1.316
316.50 1.316
316.60 1.315
316.70 1.314
316.80 1.314
316.90 1.313
317.00 1.312
317.10 1.312
317.20 1.311
317.30 1.31
317.40 1.309
317.50 1.309
317.60 1.308
317.70 1.307
317.80 1.307
317.90 1.306
318.00 1.305
318.10 1.305
318.20 1.304
318.30 1.303
318.40 1.302
318.50 1.302
318.60 1.301
318.70 1.3
318.80 1.3
318.90 1.299
319.00 1.298
319.10 1.298
319.20 1.297
319.30 1.296
319.40 1.295
319.50 1.295
319.60 1.294
319.70 1.293
319.80 1.293
319.90 1.292
320.00 1.291
320.10 1.291
320.20 1.29
320.30 1.289
320.40 1.288
320.50 1.288
320.60 1.287
320.70 1.286
320.80 1.286
320.90 1.285
321.00 1.284
321.10 1.284
321.20 1.283
321.30 1.282
321.40 1.282
321.50 1.281
321.60 1.28
321.70 1.28
321.80 1.279
321.90 1.278
322.00 1.277
322.10 1.277
322.20 1.276
322.30 1.275
322.40 1.275
322.50 1.274
322.60 1.273
322.70 1.273
322.80 1.272
322.90 1.271
323.00 1.271
323.10 1.27
323.20 1.269
323.30 1.269
323.40 1.268
323.50 1.267
323.60 1.267
323.70 1.266
323.80 1.265
323.90 1.265
324.00 1.264
324.10 1.263
324.20 1.263
324.30 1.262
324.40 1.261
324.50 1.261
324.60 1.26
324.70 1.259
324.80 1.259
324.90 1.258
325.00 1.257
325.10 1.257
325.20 1.256
325.30 1.255
325.40 1.255
325.50 1.254
325.60 1.253
325.70 1.253
325.80 1.252
325.90 1.251
326.00 1.251
326.10 1.25
326.20 1.249
326.30 1.249
326.40 1.248
326.50 1.247
326.60 1.247
326.70 1.246
326.80 1.245
326.90 1.245
327.00 1.244
327.10 1.243
327.20 1.243
327.30 1.242
327.40 1.241
327.50 1.241
327.60 1.24
327.70 1.239
327.80 1.239
327.90 1.238
328.00 1.237
328.10 1.237
328.20 1.236
328.30 1.235
328.40 1.235
328.50 1.234
328.60 1.233
328.70 1.233
328.80 1.232
328.90 1.231
329.00 1.231
329.10 1.23
329.20 1.229
329.30 1.229
329.40 1.228
329.50 1.228
329.60 1.227
329.70 1.226
329.80 1.226
329.90 1.225
330.00 1.224
330.10 1.224
330.20 1.223
330.30 1.222
330.40 1.222
330.50 1.221
330.60 1.22
330.70 1.22
330.80 1.219
330.90 1.218
331.00 1.218
331.10 1.217
331.20 1.217
331.30 1.216
331.40 1.215
331.50 1.215
331.60 1.214
331.70 1.213
331.80 1.213
331.90 1.212
332.00 1.211
332.10 1.211
332.20 1.21
332.30 1.21
332.40 1.209
332.50 1.208
332.60 1.208
332.70 1.207
332.80 1.206
332.90 1.206
333.00 1.205
333.10 1.204
333.20 1.204
333.30 1.203
333.40 1.203
333.50 1.202
333.60 1.201
333.70 1.201
333.80 1.2
333.90 1.199
334.00 1.199
334.10 1.198
334.20 1.197
334.30 1.197
334.40 1.196
334.50 1.196
334.60 1.195
334.70 1.194
334.80 1.194
334.90 1.193
335.00 1.192
335.10 1.192
335.20 1.191
335.30 1.191
335.40 1.19
335.50 1.189
335.60 1.189
335.70 1.188
335.80 1.187
335.90 1.187
336.00 1.186
336.10 1.186
336.20 1.185
336.30 1.184
336.40 1.184
336.50 1.183
336.60 1.183
336.70 1.182
336.80 1.181
336.90 1.181
337.00 1.18
337.10 1.179
337.20 1.179
337.30 1.178
337.40 1.178
337.50 1.177
337.60 1.176
337.70 1.176
337.80 1.175
337.90 1.175
338.00 1.174
338.10 1.173
338.20 1.173
338.30 1.172
338.40 1.171
338.50 1.171
338.60 1.17
338.70 1.17
338.80 1.169
338.90 1.168
339.00 1.168
339.10 1.167
339.20 1.167
339.30 1.166
339.40 1.165
339.50 1.165
339.60 1.164
339.70 1.164
339.80 1.163
339.90 1.162
340.00 1.162
340.10 1.161
340.20 1.161
340.30 1.16
340.40 1.159
340.50 1.159
340.60 1.158
340.70 1.157
340.80 1.157
340.90 1.156
341.00 1.156
341.10 1.155
341.20 1.154
341.30 1.154
341.40 1.153
341.50 1.153
341.60 1.152
341.70 1.151
341.80 1.151
341.90 1.15
342.00 1.15
342.10 1.149
342.20 1.148
342.30 1.148
342.40 1.147
342.50 1.147
342.60 1.146
342.70 1.146
342.80 1.145
342.90 1.144
343.00 1.144
343.10 1.143
343.20 1.143
343.30 1.142
343.40 1.141
343.50 1.141
343.60 1.14
343.70 1.14
343.80 1.139
343.90 1.138
344.00 1.138
344.10 1.137
344.20 1.137
344.30 1.136
344.40 1.135
344.50 1.135
344.60 1.134
344.70 1.134
344.80 1.133
344.90 1.133
345.00 1.132
345.10 1.131
345.20 1.131
345.30 1.13
345.40 1.13
345.50 1.129
345.60 1.128
345.70 1.128
345.80 1.127
345.90 1.127
346.00 1.126
346.10 1.126
346.20 1.125
346.30 1.124
346.40 1.124
346.50 1.123
346.60 1.123
346.70 1.122
346.80 1.121
346.90 1.121
347.00 1.12
347.10 1.12
347.20 1.119
347.30 1.119
347.40 1.118
347.50 1.117
347.60 1.117
347.70 1.116
347.80 1.116
347.90 1.115
348.00 1.115
348.10 1.114
348.20 1.113
348.30 1.113
348.40 1.112
348.50 1.112
348.60 1.111
348.70 1.111
348.80 1.11
348.90 1.109
349.00 1.109
349.10 1.108
349.20 1.108
349.30 1.107
349.40 1.107
349.50 1.106
349.60 1.105
349.70 1.105
349.80 1.104
349.90 1.104
350.00 1.103
350.10 1.103
350.20 1.102
350.30 1.101
350.40 1.101
350.50 1.1
350.60 1.1
350.70 1.099
350.80 1.099
350.90 1.098
351.00 1.097
351.10 1.097
351.20 1.096
351.30 1.096
351.40 1.095
351.50 1.095
351.60 1.094
351.70 1.094
351.80 1.093
351.90 1.092
352.00 1.092
352.10 1.091
352.20 1.091
352.30 1.09
352.40 1.09
352.50 1.089
352.60 1.089
352.70 1.088
352.80 1.087
352.90 1.087
353.00 1.086
353.10 1.086
353.20 1.085
353.30 1.085
353.40 1.084
353.50 1.084
353.60 1.083
353.70 1.082
353.80 1.082
353.90 1.081
354.00 1.081
354.10 1.08
354.20 1.08
354.30 1.079
354.40 1.079
354.50 1.078
354.60 1.077
354.70 1.077
354.80 1.076
354.90 1.076
355.00 1.075
355.10 1.075
355.20 1.074
355.30 1.074
355.40 1.073
355.50 1.073
355.60 1.072
355.70 1.071
355.80 1.071
355.90 1.07
356.00 1.07
356.10 1.069
356.20 1.069
356.30 1.068
356.40 1.068
356.50 1.067
356.60 1.067
356.70 1.066
356.80 1.065
356.90 1.065
357.00 1.064
357.10 1.064
357.20 1.063
357.30 1.063
357.40 1.062
357.50 1.062
357.60 1.061
357.70 1.061
357.80 1.06
357.90 1.06
358.00 1.059
358.10 1.058
358.20 1.058
358.30 1.057
358.40 1.057
358.50 1.056
358.60 1.056
358.70 1.055
358.80 1.055
358.90 1.054
359.00 1.054
359.10 1.053
359.20 1.053
359.30 1.052
359.40 1.052
359.50 1.051
359.60 1.05
359.70 1.05
359.80 1.049
359.90 1.049
360.00 1.048
360.10 1.048
360.20 1.047
360.30 1.047
360.40 1.046
360.50 1.046
360.60 1.045
360.70 1.045
360.80 1.044
360.90 1.044
361.00 1.043
361.10 1.042
361.20 1.042
361.30 1.041
361.40 1.041
361.50 1.04
361.60 1.04
361.70 1.039
361.80 1.039
361.90 1.038
362.00 1.038
362.10 1.037
362.20 1.037
362.30 1.036
362.40 1.036
362.50 1.035
362.60 1.035
362.70 1.034
362.80 1.034
362.90 1.033
363.00 1.033
363.10 1.032
363.20 1.031
363.30 1.031
363.40 1.03
363.50 1.03
363.60 1.029
363.70 1.029
363.80 1.028
363.90 1.028
364.00 1.027
364.10 1.026
364.20 1.026
364.30 1.025
364.40 1.025
364.50 1.024
364.60 1.024
364.70 1.023
364.80 1.023
364.90 1.022
365.00 1.022
365.10 1.021
365.20 1.021
365.30 1.02
365.40 1.02
365.50 1.019
365.60 1.019
365.70 1.018
365.80 1.018
365.90 1.017
366.00 1.017
366.10 1.016
366.20 1.016
366.30 1.015
366.40 1.015
366.50 1.015
366.60 1.014
366.70 1.014
366.80 1.013
366.90 1.013
367.00 1.012
367.10 1.012
367.20 1.011
367.30 1.011
367.40 1.011
367.50 1.01
367.60 1.01
367.70 1.009
367.80 1.009
367.90 1.008
368.00 1.008
368.10 1.008
368.20 1.009
368.30 1.009
368.40 1.01
368.50 1.01
368.60 1.011
368.70 1.012
368.80 1.012
368.90 1.013
369.00 1.013
369.10 1.014
369.20 1.014
369.30 1.015
369.40 1.015
369.50 1.016
369.60 1.016
369.70 1.017
369.80 1.017
369.90 1.018
370.00 1.018
370.10 1.021
370.20 1.023
370.30 1.025
370.40 1.027
370.50 1.03
370.60 1.032
370.70 1.034
370.80 1.037
370.90 1.039
371.00 1.041
371.10 1.044
371.20 1.046
371.30 1.048
371.40 1.051
371.50 1.053
371.60 1.055
371.70 1.057
371.80 1.06
371.90 1.062
372.00 1.064
372.10 1.068
372.20 1.072
372.30 1.076
372.40 1.079
372.50 1.083
372.60 1.087
372.70 1.091
372.80 1.094
372.90 1.098
373.00 1.102
373.10 1.105
373.20 1.109
373.30 1.113
373.40 1.117
373.50 1.12
373.60 1.124
373.70 1.128
373.80 1.131
373.90 1.135
374.00 1.139
374.10 1.142
374.20 1.146
374.30 1.15
374.40 1.154
374.50 1.158
374.60 1.161
374.70 1.165
374.80 1.169
374.90 1.173
375.00 1.176
375.10 1.18
375.20 1.184
375.30 1.188
375.40 1.191
375.50 1.195
375.60 1.199
375.70 1.202
375.80 1.206
375.90 1.21
376.00 1.214
376.10 1.215
376.20 1.217
376.30 1.219
376.40 1.221
376.50 1.223
376.60 1.225
376.70 1.226
376.80 1.228
376.90 1.23
377.00 1.232
377.10 1.229
377.20 1.226
377.30 1.223
377.40 1.22
377.50 1.217
377.60 1.214
377.70 1.211
377.80 1.208
377.90 1.206
378.00 1.203
378.10 1.185
378.20 1.166
378.30 1.148
378.40 1.13
378.50 1.112
378.60 1.094
378.70 1.076
378.80 1.058
378.90 1.04
379.00 1.022
379.10 1.005
379.20 0.9882
379.30 0.9712
379.40 0.9542
379.50 0.9372
379.60 0.9202
379.70 0.9032
379.80 0.8863
379.90 0.8693
380.00 0.8524
380.10 0.8787
380.20 0.905
380.30 0.9313
380.40 0.9575
380.50 0.9837
380.60 1.01
380.70 1.036
380.80 1.062
380.90 1.088
381.00 1.114
381.10 1.124
381.20 1.133
381.30 1.143
381.40 1.152
381.50 1.162
381.60 1.163
381.70 1.161
381.80 1.156
381.90 1.149
382.00 1.138
382.10 1.125
382.20 1.108
382.30 1.075
382.40 1.043
382.50 1.01
382.60 0.9776
382.70 0.9451
382.80 0.9127
382.90 0.8803
383.00 0.8479
383.10 0.8156
383.20 0.7833
383.30 0.7462
383.40 0.7063
383.50 0.6635
383.60 0.6732
383.70 0.7148
383.80 0.7547
383.90 0.7914
384.00 0.8284
384.10 0.8674
384.20 0.9067
384.30 0.9453
384.40 0.9836
384.50 1.021
384.60 1.055
384.70 1.086
384.80 1.114
384.90 1.139
385.00 1.161
385.10 1.179
385.20 1.196
385.30 1.21
385.40 1.222
385.50 1.232
385.60 1.241
385.70 1.247
385.80 1.252
385.90 1.256
386.00 1.258
386.10 1.258
386.20 1.258
386.30 1.255
386.40 1.251
386.50 1.246
386.60 1.238
386.70 1.23
386.80 1.22
386.90 1.208
387.00 1.195
387.10 1.18
387.20 1.162
387.30 1.143
387.40 1.123
387.50 1.098
387.60 1.072
387.70 1.044
387.80 1.011
387.90 0.9753
388.00 0.9376
388.10 0.8967
388.20 0.8551
388.30 0.8128
388.40 0.7707
388.50 0.7296
388.60 0.6896
388.70 0.6477
388.80 0.6025
388.90 0.5542
389.00 0.5994
389.10 0.643
389.20 0.6849
389.30 0.7246
389.40 0.7653
389.50 0.807
389.60 0.8494
389.70 0.8913
389.80 0.9327
389.90 0.9715
390.00 1.008
390.10 1.043
390.20 1.073
390.30 1.102
390.40 1.129
390.50 1.152
390.60 1.175
390.70 1.196
390.80 1.215
390.90 1.233
391.00 1.25
391.10 1.266
391.20 1.28
391.30 1.294
391.40 1.307
391.50 1.319
391.60 1.33
391.70 1.339
391.80 1.348
391.90 1.357
392.00 1.364
392.10 1.37
392.20 1.376
392.30 1.381
392.40 1.385
392.50 1.388
392.60 1.39
392.70 1.391
392.80 1.392
392.90 1.392
393.00 1.391
393.10 1.389
393.20 1.386
393.30 1.382
393.40 1.378
393.50 1.372
393.60 1.365
393.70 1.358
393.80 1.35
393.90 1.341
394.00 1.331
394.10 1.32
394.20 1.308
394.30 1.296
394.40 1.282
394.50 1.267
394.60 1.252
394.70 1.235
394.80 1.217
394.90 1.199
395.00 1.179
395.10 1.159
395.20 1.137
395.30 1.114
395.40 1.09
395.50 1.065
395.60 1.038
395.70 1.009
395.80 0.9794
395.90 0.9469
396.00 0.9129
396.10 0.8775
396.20 0.8397
396.30 0.8009
396.40 0.7612
396.50 0.7211
396.60 0.6817
396.70 0.643
396.80 0.6011
396.90 0.5474
397.00 0.4818
397.10 0.5428
397.20 0.5944
397.30 0.6368
397.40 0.6751
397.50 0.7139
397.60 0.7534
397.70 0.7927
397.80 0.8311
397.90 0.8685
398.00 0.9035
398.10 0.9371
398.20 0.9694
398.30 0.999
398.40 1.027
398.50 1.054
398.60 1.08
398.70 1.104
398.80 1.127
398.90 1.148
399.00 1.169
399.10 1.189
399.20 1.208
399.30 1.227
399.40 1.244
399.50 1.261
399.60 1.277
399.70 1.293
399.80 1.308
399.90 1.322
400.00 1.336
400.10 1.348
400.20 1.361
400.30 1.373
400.40 1.384
400.50 1.394
400.60 1.405
400.70 1.414
400.80 1.423
400.90 1.432
401.00 1.44
401.10 1.447
401.20 1.455
401.30 1.461
401.40 1.468
401.50 1.474
401.60 1.479
401.70 1.485
401.80 1.49
401.90 1.494
402.00 1.498
402.10 1.502
402.20 1.505
402.30 1.508
402.40 1.511
402.50 1.514
402.60 1.516
402.70 1.518
402.80 1.519
402.90 1.52
403.00 1.521
403.10 1.522
403.20 1.522
403.30 1.522
403.40 1.522
403.50 1.521
403.60 1.521
403.70 1.519
403.80 1.518
403.90 1.516
404.00 1.514
404.10 1.512
404.20 1.51
404.30 1.507
404.40 1.504
404.50 1.5
404.60 1.496
404.70 1.492
404.80 1.488
404.90 1.483
405.00 1.478
405.10 1.473
405.20 1.467
405.30 1.461
405.40 1.455
405.50 1.448
405.60 1.441
405.70 1.433
405.80 1.425
405.90 1.417
406.00 1.408
406.10 1.399
406.20 1.389
406.30 1.379
406.40 1.369
406.50 1.358
406.60 1.346
406.70 1.334
406.80 1.322
406.90 1.309
407.00 1.295
407.10 1.281
407.20 1.266
407.30 1.251
407.40 1.235
407.50 1.218
407.60 1.2
407.70 1.182
407.80 1.164
407.90 1.144
408.00 1.124
408.10 1.104
408.20 1.082
408.30 1.06
408.40 1.037
408.50 1.014
408.60 0.99
408.70 0.9655
408.80 0.9399
408.90 0.9136
409.00 0.8866
409.10 0.8582
409.20 0.8288
409.30 0.7987
409.40 0.7665
409.50 0.7334
409.60 0.6994
409.70 0.6644
409.80 0.6294
409.90 0.5943
410.00 0.5513
410.10 0.5014
410.20 0.4445
410.30 0.5185
410.40 0.5745
410.50 0.6126
410.60 0.647
410.70 0.6814
410.80 0.7157
410.90 0.7485
411.00 0.7802
411.10 0.8109
411.20 0.8396
411.30 0.8675
411.40 0.8945
411.50 0.92
411.60 0.9449
411.70 0.9691
411.80 0.9922
411.90 1.015
412.00 1.037
412.10 1.058
412.20 1.078
412.30 1.098
412.40 1.117
412.50 1.136
412.60 1.154
412.70 1.171
412.80 1.188
412.90 1.204
413.00 1.219
413.10 1.234
413.20 1.248
413.30 1.261
413.40 1.274
413.50 1.286
413.60 1.298
413.70 1.309
413.80 1.32
413.90 1.331
414.00 1.341
414.10 1.35
414.20 1.359
414.30 1.368
414.40 1.377
414.50 1.385
414.60 1.393
414.70 1.4
414.80 1.407
414.90 1.414
415.00 1.421
415.10 1.427
415.20 1.433
415.30 1.439
415.40 1.444
415.50 1.45
415.60 1.455
415.70 1.459
415.80 1.464
415.90 1.469
416.00 1.473
416.10 1.477
416.20 1.481
416.30 1.484
416.40 1.488
416.50 1.491
416.60 1.495
416.70 1.498
416.80 1.501
416.90 1.503
417.00 1.506
417.10 1.509
417.20 1.511
417.30 1.513
417.40 1.516
417.50 1.518
417.60 1.52
417.70 1.521
417.80 1.523
417.90 1.525
418.00 1.526
418.10 1.528
418.20 1.529
418.30 1.53
418.40 1.531
418.50 1.533
418.60 1.534
418.70 1.535
418.80 1.535
418.90 1.536
419.00 1.537
419.10 1.537
419.20 1.538
419.30 1.539
419.40 1.539
419.50 1.539
419.60 1.54
419.70 1.54
419.80 1.54
419.90 1.54
420.00 1.54
420.10 1.54
420.20 1.54
420.30 1.54
420.40 1.54
420.50 1.54
420.60 1.54
420.70 1.539
420.80 1.539
420.90 1.539
421.00 1.538
421.10 1.538
421.20 1.537
421.30 1.537
421.40 1.536
421.50 1.535
421.60 1.535
421.70 1.534
421.80 1.533
421.90 1.532
422.00 1.531
422.10 1.531
422.20 1.53
422.30 1.529
422.40 1.528
422.50 1.526
422.60 1.525
422.70 1.524
422.80 1.523
422.90 1.522
423.00 1.52
423.10 1.519
423.20 1.517
423.30 1.516
423.40 1.515
423.50 1.513
423.60 1.511
423.70 1.51
423.80 1.508
423.90 1.506
424.00 1.504
424.10 1.503
424.20 1.501
424.30 1.499
424.40 1.497
424.50 1.495
424.60 1.493
424.70 1.491
424.80 1.488
424.90 1.486
425.00 1.484
425.10 1.481
425.20 1.479
425.30 1.476
425.40 1.474
425.50 1.471
425.60 1.468
425.70 1.466
425.80 1.463
425.90 1.46
426.00 1.457
426.10 1.454
426.20 1.45
426.30 1.446
426.40 1.443
426.50 1.439
426.60 1.436
426.70 1.432
426.80 1.428
426.90 1.425
427.00 1.421
427.10 1.417
427.20 1.412
427.30 1.408
427.40 1.404
427.50 1.399
427.60 1.395
427.70 1.39
427.80 1.385
427.90 1.38
428.00 1.375
428.10 1.369
428.20 1.364
428.30 1.358
428.40 1.353
428.50 1.347
428.60 1.34
428.70 1.334
428.80 1.328
428.90 1.321
429.00 1.314
429.10 1.307
429.20 1.3
429.30 1.292
429.40 1.284
429.50 1.276
429.60 1.268
429.70 1.26
429.80 1.251
429.90 1.242
430.00 1.232
430.10 1.223
430.20 1.213
430.30 1.203
430.40 1.192
430.50 1.181
430.60 1.17
430.70 1.159
430.80 1.147
430.90 1.135
431.00 1.123
431.10 1.11
431.20 1.097
431.30 1.084
431.40 1.07
431.50 1.056
431.60 1.042
431.70 1.026
431.80 1.011
431.90 0.9939
432.00 0.9765
432.10 0.9586
432.20 0.9392
432.30 0.9189
432.40 0.8979
432.50 0.875
432.60 0.8513
432.70 0.8268
432.80 0.8019
432.90 0.7775
433.00 0.7534
433.10 0.7305
433.20 0.7073
433.30 0.6838
433.40 0.6578
433.50 0.6307
433.60 0.6023
433.70 0.5728
433.80 0.5402
433.90 0.5044
434.00 0.4127
434.10 0.4138
434.20 0.5076
434.30 0.5423
434.40 0.5742
434.50 0.6032
434.60 0.6309
434.70 0.6574
434.80 0.6827
434.90 0.7055
435.00 0.728
435.10 0.7502
435.20 0.7735
435.30 0.7971
435.40 0.8211
435.50 0.8445
435.60 0.8671
435.70 0.8888
435.80 0.9086
435.90 0.9276
436.00 0.9458
436.10 0.9624
436.20 0.9785
436.30 0.9939
436.40 1.008
436.50 1.022
436.60 1.035
436.70 1.048
436.80 1.06
436.90 1.072
437.00 1.083
437.10 1.095
437.20 1.105
437.30 1.116
437.40 1.126
437.50 1.136
437.60 1.145
437.70 1.155
437.80 1.164
437.90 1.172
438.00 1.18
438.10 1.188
438.20 1.196
438.30 1.203
438.40 1.21
438.50 1.217
438.60 1.224
438.70 1.23
438.80 1.236
438.90 1.242
439.00 1.247
439.10 1.253
439.20 1.258
439.30 1.263
439.40 1.268
439.50 1.272
439.60 1.277
439.70 1.281
439.80 1.285
439.90 1.289
440.00 1.293
440.10 1.296
440.20 1.3
440.30 1.303
440.40 1.306
440.50 1.309
440.60 1.312
440.70 1.315
440.80 1.318
440.90 1.32
441.00 1.323
441.10 1.325
441.20 1.327
441.30 1.329
441.40 1.331
441.50 1.333
441.60 1.335
441.70 1.337
441.80 1.339
441.90 1.341
442.00 1.342
442.10 1.344
442.20 1.345
442.30 1.346
442.40 1.348
442.50 1.349
442.60 1.35
442.70 1.351
442.80 1.352
442.90 1.353
443.00 1.354
443.10 1.355
443.20 1.356
443.30 1.357
443.40 1.357
443.50 1.358
443.60 1.359
443.70 1.359
443.80 1.36
443.90 1.361
444.00 1.361
444.10 1.361
444.20 1.362
444.30 1.362
444.40 1.363
444.50 1.363
444.60 1.363
444.70 1.363
444.80 1.364
444.90 1.364
445.00 1.364
445.10 1.364
445.20 1.364
445.30 1.364
445.40 1.364
445.50 1.365
445.60 1.365
445.70 1.365
445.80 1.365
445.90 1.364
446.00 1.364
446.10 1.364
446.20 1.364
446.30 1.364
446.40 1.364
446.50 1.364
446.60 1.364
446.70 1.363
446.80 1.363
446.90 1.363
447.00 1.363
447.10 1.362
447.20 1.362
447.30 1.362
447.40 1.362
447.50 1.361
447.60 1.361
447.70 1.361
447.80 1.36
447.90 1.36
448.00 1.36
448.10 1.359
448.20 1.359
448.30 1.358
448.40 1.358
448.50 1.358
448.60 1.357
448.70 1.357
448.80 1.356
448.90 1.356
449.00 1.355
449.10 1.355
449.20 1.355
449.30 1.354
449.40 1.354
449.50 1.353
449.60 1.353
449.70 1.352
449.80 1.351
449.90 1.351
450.00 1.35
450.10 1.35
450.20 1.349
450.30 1.349
450.40 1.348
450.50 1.348
450.60 1.347
450.70 1.346
450.80 1.346
450.90 1.345
451.00 1.345
451.10 1.344
451.20 1.343
451.30 1.343
451.40 1.342
451.50 1.342
451.60 1.341
451.70 1.34
451.80 1.34
451.90 1.339
452.00 1.338
452.10 1.338
452.20 1.337
452.30 1.336
452.40 1.336
452.50 1.335
452.60 1.334
452.70 1.334
452.80 1.333
452.90 1.332
