# Version 2.1 - nm, norm@500 to 1, cut digits, bergeron_8000_80.dat_8000
# Wavelength(nm)  Flambda(ergs/cm^s/s/nm)
300.00 1.384
300.10 1.384
300.20 1.384
300.30 1.384
300.40 1.384
300.50 1.384
300.60 1.384
300.70 1.384
300.80 1.384
300.90 1.384
301.00 1.384
301.10 1.384
301.20 1.384
301.30 1.384
301.40 1.383
301.50 1.383
301.60 1.383
301.70 1.383
301.80 1.383
301.90 1.383
302.00 1.383
302.10 1.383
302.20 1.383
302.30 1.383
302.40 1.383
302.50 1.383
302.60 1.383
302.70 1.383
302.80 1.383
302.90 1.383
303.00 1.383
303.10 1.383
303.20 1.383
303.30 1.383
303.40 1.383
303.50 1.383
303.60 1.383
303.70 1.383
303.80 1.383
303.90 1.383
304.00 1.383
304.10 1.383
304.20 1.383
304.30 1.383
304.40 1.383
304.50 1.383
304.60 1.383
304.70 1.383
304.80 1.383
304.90 1.383
305.00 1.383
305.10 1.383
305.20 1.383
305.30 1.383
305.40 1.383
305.50 1.383
305.60 1.383
305.70 1.383
305.80 1.383
305.90 1.383
306.00 1.383
306.10 1.382
306.20 1.382
306.30 1.382
306.40 1.382
306.50 1.382
306.60 1.382
306.70 1.382
306.80 1.382
306.90 1.382
307.00 1.382
307.10 1.382
307.20 1.382
307.30 1.382
307.40 1.382
307.50 1.382
307.60 1.382
307.70 1.382
307.80 1.382
307.90 1.382
308.00 1.382
308.10 1.382
308.20 1.381
308.30 1.381
308.40 1.381
308.50 1.381
308.60 1.381
308.70 1.381
308.80 1.381
308.90 1.381
309.00 1.381
309.10 1.381
309.20 1.381
309.30 1.381
309.40 1.381
309.50 1.381
309.60 1.381
309.70 1.381
309.80 1.381
309.90 1.381
310.00 1.381
310.10 1.381
310.20 1.38
310.30 1.38
310.40 1.38
310.50 1.38
310.60 1.38
310.70 1.38
310.80 1.38
310.90 1.38
311.00 1.38
311.10 1.38
311.20 1.38
311.30 1.38
311.40 1.38
311.50 1.38
311.60 1.38
311.70 1.379
311.80 1.379
311.90 1.379
312.00 1.379
312.10 1.379
312.20 1.379
312.30 1.379
312.40 1.379
312.50 1.379
312.60 1.379
312.70 1.379
312.80 1.379
312.90 1.379
313.00 1.378
313.10 1.378
313.20 1.378
313.30 1.378
313.40 1.378
313.50 1.378
313.60 1.378
313.70 1.378
313.80 1.378
313.90 1.378
314.00 1.378
314.10 1.378
314.20 1.378
314.30 1.377
314.40 1.377
314.50 1.377
314.60 1.377
314.70 1.377
314.80 1.377
314.90 1.377
315.00 1.377
315.10 1.377
315.20 1.377
315.30 1.377
315.40 1.377
315.50 1.376
315.60 1.376
315.70 1.376
315.80 1.376
315.90 1.376
316.00 1.376
316.10 1.376
316.20 1.376
316.30 1.376
316.40 1.376
316.50 1.376
316.60 1.375
316.70 1.375
316.80 1.375
316.90 1.375
317.00 1.375
317.10 1.375
317.20 1.375
317.30 1.375
317.40 1.375
317.50 1.375
317.60 1.375
317.70 1.374
317.80 1.374
317.90 1.374
318.00 1.374
318.10 1.374
318.20 1.374
318.30 1.374
318.40 1.374
318.50 1.374
318.60 1.374
318.70 1.373
318.80 1.373
318.90 1.373
319.00 1.373
319.10 1.373
319.20 1.373
319.30 1.373
319.40 1.373
319.50 1.373
319.60 1.372
319.70 1.372
319.80 1.372
319.90 1.372
320.00 1.372
320.10 1.372
320.20 1.372
320.30 1.372
320.40 1.372
320.50 1.371
320.60 1.371
320.70 1.371
320.80 1.371
320.90 1.371
321.00 1.371
321.10 1.371
321.20 1.371
321.30 1.37
321.40 1.37
321.50 1.37
321.60 1.37
321.70 1.37
321.80 1.37
321.90 1.37
322.00 1.37
322.10 1.37
322.20 1.369
322.30 1.369
322.40 1.369
322.50 1.369
322.60 1.369
322.70 1.369
322.80 1.369
322.90 1.369
323.00 1.368
323.10 1.368
323.20 1.368
323.30 1.368
323.40 1.368
323.50 1.368
323.60 1.368
323.70 1.368
323.80 1.367
323.90 1.367
324.00 1.367
324.10 1.367
324.20 1.367
324.30 1.367
324.40 1.367
324.50 1.367
324.60 1.366
324.70 1.366
324.80 1.366
324.90 1.366
325.00 1.366
325.10 1.366
325.20 1.366
325.30 1.365
325.40 1.365
325.50 1.365
325.60 1.365
325.70 1.365
325.80 1.365
325.90 1.365
326.00 1.365
326.10 1.364
326.20 1.364
326.30 1.364
326.40 1.364
326.50 1.364
326.60 1.364
326.70 1.364
326.80 1.363
326.90 1.363
327.00 1.363
327.10 1.363
327.20 1.363
327.30 1.363
327.40 1.363
327.50 1.362
327.60 1.362
327.70 1.362
327.80 1.362
327.90 1.362
328.00 1.362
328.10 1.362
328.20 1.361
328.30 1.361
328.40 1.361
328.50 1.361
328.60 1.361
328.70 1.361
328.80 1.36
328.90 1.36
329.00 1.36
329.10 1.36
329.20 1.36
329.30 1.36
329.40 1.36
329.50 1.359
329.60 1.359
329.70 1.359
329.80 1.359
329.90 1.359
330.00 1.359
330.10 1.359
330.20 1.358
330.30 1.358
330.40 1.358
330.50 1.358
330.60 1.358
330.70 1.358
330.80 1.357
330.90 1.357
331.00 1.357
331.10 1.357
331.20 1.357
331.30 1.357
331.40 1.357
331.50 1.356
331.60 1.356
331.70 1.356
331.80 1.356
331.90 1.356
332.00 1.356
332.10 1.355
332.20 1.355
332.30 1.355
332.40 1.355
332.50 1.355
332.60 1.355
332.70 1.354
332.80 1.354
332.90 1.354
333.00 1.354
333.10 1.354
333.20 1.354
333.30 1.353
333.40 1.353
333.50 1.353
333.60 1.353
333.70 1.353
333.80 1.353
333.90 1.352
334.00 1.352
334.10 1.352
334.20 1.352
334.30 1.352
334.40 1.352
334.50 1.351
334.60 1.351
334.70 1.351
334.80 1.351
334.90 1.351
335.00 1.351
335.10 1.35
335.20 1.35
335.30 1.35
335.40 1.35
335.50 1.35
335.60 1.35
335.70 1.349
335.80 1.349
335.90 1.349
336.00 1.349
336.10 1.349
336.20 1.348
336.30 1.348
336.40 1.348
336.50 1.348
336.60 1.348
336.70 1.348
336.80 1.347
336.90 1.347
337.00 1.347
337.10 1.347
337.20 1.347
337.30 1.347
337.40 1.346
337.50 1.346
337.60 1.346
337.70 1.346
337.80 1.346
337.90 1.345
338.00 1.345
338.10 1.345
338.20 1.345
338.30 1.345
338.40 1.345
338.50 1.344
338.60 1.344
338.70 1.344
338.80 1.344
338.90 1.344
339.00 1.343
339.10 1.343
339.20 1.343
339.30 1.343
339.40 1.343
339.50 1.342
339.60 1.342
339.70 1.342
339.80 1.342
339.90 1.342
340.00 1.342
340.10 1.341
340.20 1.341
340.30 1.341
340.40 1.341
340.50 1.341
340.60 1.34
340.70 1.34
340.80 1.34
340.90 1.34
341.00 1.34
341.10 1.339
341.20 1.339
341.30 1.339
341.40 1.339
341.50 1.339
341.60 1.338
341.70 1.338
341.80 1.338
341.90 1.338
342.00 1.338
342.10 1.338
342.20 1.337
342.30 1.337
342.40 1.337
342.50 1.337
342.60 1.337
342.70 1.336
342.80 1.336
342.90 1.336
343.00 1.336
343.10 1.336
343.20 1.335
343.30 1.335
343.40 1.335
343.50 1.335
343.60 1.334
343.70 1.334
343.80 1.334
343.90 1.334
344.00 1.334
344.10 1.333
344.20 1.333
344.30 1.333
344.40 1.333
344.50 1.333
344.60 1.332
344.70 1.332
344.80 1.332
344.90 1.332
345.00 1.332
345.10 1.331
345.20 1.331
345.30 1.331
345.40 1.331
345.50 1.331
345.60 1.33
345.70 1.33
345.80 1.33
345.90 1.33
346.00 1.33
346.10 1.329
346.20 1.329
346.30 1.329
346.40 1.329
346.50 1.329
346.60 1.328
346.70 1.328
346.80 1.328
346.90 1.328
347.00 1.327
347.10 1.327
347.20 1.327
347.30 1.327
347.40 1.327
347.50 1.326
347.60 1.326
347.70 1.326
347.80 1.326
347.90 1.326
348.00 1.325
348.10 1.325
348.20 1.325
348.30 1.325
348.40 1.324
348.50 1.324
348.60 1.324
348.70 1.324
348.80 1.324
348.90 1.323
349.00 1.323
349.10 1.323
349.20 1.323
349.30 1.323
349.40 1.322
349.50 1.322
349.60 1.322
349.70 1.322
349.80 1.321
349.90 1.321
350.00 1.321
350.10 1.321
350.20 1.321
350.30 1.32
350.40 1.32
350.50 1.32
350.60 1.32
350.70 1.319
350.80 1.319
350.90 1.319
351.00 1.319
351.10 1.319
351.20 1.318
351.30 1.318
351.40 1.318
351.50 1.318
351.60 1.317
351.70 1.317
351.80 1.317
351.90 1.317
352.00 1.317
352.10 1.316
352.20 1.316
352.30 1.316
352.40 1.316
352.50 1.315
352.60 1.315
352.70 1.315
352.80 1.315
352.90 1.315
353.00 1.314
353.10 1.314
353.20 1.314
353.30 1.314
353.40 1.313
353.50 1.313
353.60 1.313
353.70 1.313
353.80 1.312
353.90 1.312
354.00 1.312
354.10 1.312
354.20 1.312
354.30 1.311
354.40 1.311
354.50 1.311
354.60 1.311
354.70 1.31
354.80 1.31
354.90 1.31
355.00 1.31
355.10 1.309
355.20 1.309
355.30 1.309
355.40 1.309
355.50 1.308
355.60 1.308
355.70 1.308
355.80 1.308
355.90 1.308
356.00 1.307
356.10 1.307
356.20 1.307
356.30 1.307
356.40 1.306
356.50 1.306
356.60 1.306
356.70 1.306
356.80 1.305
356.90 1.305
357.00 1.305
357.10 1.305
357.20 1.304
357.30 1.304
357.40 1.304
357.50 1.304
357.60 1.304
357.70 1.303
357.80 1.303
357.90 1.303
358.00 1.303
358.10 1.302
358.20 1.302
358.30 1.302
358.40 1.302
358.50 1.301
358.60 1.301
358.70 1.301
358.80 1.301
358.90 1.3
359.00 1.3
359.10 1.3
359.20 1.3
359.30 1.299
359.40 1.299
359.50 1.299
359.60 1.299
359.70 1.298
359.80 1.298
359.90 1.298
360.00 1.298
360.10 1.297
360.20 1.297
360.30 1.297
360.40 1.297
360.50 1.297
360.60 1.296
360.70 1.296
360.80 1.296
360.90 1.296
361.00 1.295
361.10 1.295
361.20 1.295
361.30 1.295
361.40 1.294
361.50 1.294
361.60 1.294
361.70 1.294
361.80 1.293
361.90 1.293
362.00 1.293
362.10 1.293
362.20 1.292
362.30 1.292
362.40 1.292
362.50 1.292
362.60 1.291
362.70 1.291
362.80 1.291
362.90 1.291
363.00 1.29
363.10 1.29
363.20 1.29
363.30 1.289
363.40 1.289
363.50 1.289
363.60 1.289
363.70 1.288
363.80 1.288
363.90 1.288
364.00 1.288
364.10 1.287
364.20 1.287
364.30 1.287
364.40 1.286
364.50 1.286
364.60 1.286
364.70 1.286
364.80 1.285
364.90 1.285
365.00 1.285
365.10 1.285
365.20 1.284
365.30 1.284
365.40 1.284
365.50 1.283
365.60 1.283
365.70 1.283
365.80 1.283
365.90 1.282
366.00 1.282
366.10 1.282
366.20 1.282
366.30 1.281
366.40 1.281
366.50 1.281
366.60 1.28
366.70 1.28
366.80 1.28
366.90 1.28
367.00 1.279
367.10 1.279
367.20 1.279
367.30 1.279
367.40 1.278
367.50 1.278
367.60 1.278
367.70 1.278
367.80 1.277
367.90 1.277
368.00 1.277
368.10 1.277
368.20 1.276
368.30 1.276
368.40 1.276
368.50 1.276
368.60 1.276
368.70 1.275
368.80 1.275
368.90 1.275
369.00 1.275
369.10 1.275
369.20 1.274
369.30 1.274
369.40 1.274
369.50 1.274
369.60 1.274
369.70 1.273
369.80 1.273
369.90 1.273
370.00 1.273
370.10 1.273
370.20 1.273
370.30 1.273
370.40 1.272
370.50 1.272
370.60 1.272
370.70 1.272
370.80 1.272
370.90 1.272
371.00 1.272
371.10 1.272
371.20 1.272
371.30 1.272
371.40 1.272
371.50 1.272
371.60 1.272
371.70 1.272
371.80 1.272
371.90 1.271
372.00 1.271
372.10 1.272
372.20 1.272
372.30 1.272
372.40 1.272
372.50 1.273
372.60 1.273
372.70 1.273
372.80 1.273
372.90 1.273
373.00 1.274
373.10 1.274
373.20 1.274
373.30 1.274
373.40 1.275
373.50 1.275
373.60 1.275
373.70 1.275
373.80 1.276
373.90 1.276
374.00 1.276
374.10 1.276
374.20 1.277
374.30 1.277
374.40 1.278
374.50 1.278
374.60 1.279
374.70 1.279
374.80 1.28
374.90 1.28
375.00 1.281
375.10 1.281
375.20 1.282
375.30 1.282
375.40 1.283
375.50 1.283
375.60 1.284
375.70 1.284
375.80 1.284
375.90 1.285
376.00 1.285
376.10 1.286
376.20 1.286
376.30 1.286
376.40 1.287
376.50 1.287
376.60 1.288
376.70 1.288
376.80 1.288
376.90 1.289
377.00 1.289
377.10 1.289
377.20 1.289
377.30 1.289
377.40 1.289
377.50 1.288
377.60 1.288
377.70 1.288
377.80 1.288
377.90 1.288
378.00 1.288
378.10 1.286
378.20 1.283
378.30 1.281
378.40 1.279
378.50 1.277
378.60 1.274
378.70 1.272
378.80 1.27
378.90 1.268
379.00 1.266
379.10 1.261
379.20 1.256
379.30 1.251
379.40 1.246
379.50 1.242
379.60 1.237
379.70 1.232
379.80 1.227
379.90 1.222
380.00 1.218
380.10 1.224
380.20 1.23
380.30 1.237
380.40 1.243
380.50 1.249
380.60 1.256
380.70 1.262
380.80 1.269
380.90 1.275
381.00 1.281
381.10 1.282
381.20 1.283
381.30 1.284
381.40 1.285
381.50 1.286
381.60 1.286
381.70 1.286
381.80 1.285
381.90 1.283
382.00 1.282
382.10 1.279
382.20 1.276
382.30 1.267
382.40 1.258
382.50 1.249
382.60 1.239
382.70 1.23
382.80 1.221
382.90 1.212
383.00 1.203
383.10 1.193
383.20 1.184
383.30 1.161
383.40 1.128
383.50 1.081
383.60 1.092
383.70 1.137
383.80 1.168
383.90 1.19
384.00 1.207
384.10 1.222
384.20 1.234
384.30 1.245
384.40 1.254
384.50 1.262
384.60 1.269
384.70 1.275
384.80 1.28
384.90 1.284
385.00 1.287
385.10 1.29
385.20 1.292
385.30 1.295
385.40 1.296
385.50 1.298
385.60 1.299
385.70 1.299
385.80 1.3
385.90 1.3
386.00 1.3
386.10 1.3
386.20 1.3
386.30 1.299
386.40 1.298
386.50 1.297
386.60 1.295
386.70 1.293
386.80 1.291
386.90 1.289
387.00 1.286
387.10 1.283
387.20 1.279
387.30 1.275
387.40 1.27
387.50 1.265
387.60 1.259
387.70 1.252
387.80 1.243
387.90 1.233
388.00 1.221
388.10 1.206
388.20 1.189
388.30 1.17
388.40 1.145
388.50 1.116
388.60 1.083
388.70 1.033
388.80 0.9703
388.90 0.8937
389.00 0.966
389.10 1.028
389.20 1.079
389.30 1.113
389.40 1.142
389.50 1.168
389.60 1.187
389.70 1.205
389.80 1.22
389.90 1.232
390.00 1.243
390.10 1.252
390.20 1.259
390.30 1.266
390.40 1.272
390.50 1.277
390.60 1.281
390.70 1.285
390.80 1.289
390.90 1.292
391.00 1.295
391.10 1.298
391.20 1.3
391.30 1.303
391.40 1.304
391.50 1.306
391.60 1.308
391.70 1.309
391.80 1.31
391.90 1.311
392.00 1.312
392.10 1.313
392.20 1.314
392.30 1.314
392.40 1.314
392.50 1.315
392.60 1.315
392.70 1.315
392.80 1.315
392.90 1.314
393.00 1.314
393.10 1.313
393.20 1.313
393.30 1.312
393.40 1.311
393.50 1.31
393.60 1.309
393.70 1.307
393.80 1.306
393.90 1.304
394.00 1.302
394.10 1.3
394.20 1.298
394.30 1.295
394.40 1.293
394.50 1.29
394.60 1.286
394.70 1.283
394.80 1.279
394.90 1.274
395.00 1.27
395.10 1.264
395.20 1.259
395.30 1.252
395.40 1.246
395.50 1.238
395.60 1.23
395.70 1.22
395.80 1.21
395.90 1.197
396.00 1.183
396.10 1.168
396.20 1.147
396.30 1.124
396.40 1.096
396.50 1.059
396.60 1.014
396.70 0.9635
396.80 0.8883
396.90 0.7871
397.00 0.6602
397.10 0.7778
397.20 0.8759
397.30 0.9546
397.40 1.007
397.50 1.052
397.60 1.09
397.70 1.118
397.80 1.142
397.90 1.163
398.00 1.178
398.10 1.192
398.20 1.205
398.30 1.215
398.40 1.224
398.50 1.233
398.60 1.24
398.70 1.247
398.80 1.253
398.90 1.258
399.00 1.263
399.10 1.268
399.20 1.272
399.30 1.276
399.40 1.279
399.50 1.282
399.60 1.285
399.70 1.288
399.80 1.291
399.90 1.293
400.00 1.295
400.10 1.297
400.20 1.298
400.30 1.3
400.40 1.301
400.50 1.303
400.60 1.304
400.70 1.305
400.80 1.306
400.90 1.307
401.00 1.308
401.10 1.309
401.20 1.309
401.30 1.31
401.40 1.31
401.50 1.311
401.60 1.311
401.70 1.312
401.80 1.312
401.90 1.312
402.00 1.312
402.10 1.312
402.20 1.313
402.30 1.313
402.40 1.313
402.50 1.313
402.60 1.313
402.70 1.313
402.80 1.313
402.90 1.312
403.00 1.312
403.10 1.312
403.20 1.312
403.30 1.312
403.40 1.311
403.50 1.311
403.60 1.311
403.70 1.31
403.80 1.31
403.90 1.31
404.00 1.309
404.10 1.309
404.20 1.308
404.30 1.308
404.40 1.307
404.50 1.306
404.60 1.306
404.70 1.305
404.80 1.304
404.90 1.304
405.00 1.303
405.10 1.302
405.20 1.301
405.30 1.3
405.40 1.299
405.50 1.298
405.60 1.297
405.70 1.296
405.80 1.295
405.90 1.293
406.00 1.292
406.10 1.29
406.20 1.289
406.30 1.287
406.40 1.286
406.50 1.284
406.60 1.282
406.70 1.28
406.80 1.277
406.90 1.275
407.00 1.272
407.10 1.269
407.20 1.267
407.30 1.263
407.40 1.26
407.50 1.256
407.60 1.252
407.70 1.248
407.80 1.243
407.90 1.238
408.00 1.233
408.10 1.227
408.20 1.22
408.30 1.213
408.40 1.206
408.50 1.197
408.60 1.188
408.70 1.178
408.80 1.167
408.90 1.154
409.00 1.141
409.10 1.125
409.20 1.108
409.30 1.088
409.40 1.063
409.50 1.033
409.60 0.9981
409.70 0.9492
409.80 0.8895
409.90 0.8188
410.00 0.7104
410.10 0.6048
410.20 0.5021
410.30 0.6507
410.40 0.7703
410.50 0.861
410.60 0.9225
410.70 0.9745
410.80 1.017
410.90 1.047
411.00 1.074
411.10 1.096
411.20 1.114
411.30 1.13
411.40 1.144
411.50 1.156
411.60 1.167
411.70 1.177
411.80 1.185
411.90 1.194
412.00 1.201
412.10 1.208
412.20 1.214
412.30 1.219
412.40 1.224
412.50 1.229
412.60 1.233
412.70 1.237
412.80 1.241
412.90 1.244
413.00 1.247
413.10 1.25
413.20 1.252
413.30 1.254
413.40 1.256
413.50 1.258
413.60 1.26
413.70 1.262
413.80 1.263
413.90 1.264
414.00 1.266
414.10 1.267
414.20 1.268
414.30 1.269
414.40 1.27
414.50 1.27
414.60 1.271
414.70 1.272
414.80 1.272
414.90 1.273
415.00 1.273
415.10 1.274
415.20 1.274
415.30 1.275
415.40 1.275
415.50 1.275
415.60 1.275
415.70 1.276
415.80 1.276
415.90 1.276
416.00 1.276
416.10 1.276
416.20 1.276
416.30 1.276
416.40 1.276
416.50 1.277
416.60 1.277
416.70 1.277
416.80 1.277
416.90 1.276
417.00 1.276
417.10 1.276
417.20 1.276
417.30 1.276
417.40 1.276
417.50 1.276
417.60 1.276
417.70 1.276
417.80 1.276
417.90 1.275
418.00 1.275
418.10 1.275
418.20 1.275
418.30 1.275
418.40 1.275
418.50 1.274
418.60 1.274
418.70 1.274
418.80 1.274
418.90 1.274
419.00 1.273
419.10 1.273
419.20 1.273
419.30 1.273
419.40 1.272
419.50 1.272
419.60 1.272
419.70 1.271
419.80 1.271
419.90 1.271
420.00 1.271
420.10 1.27
420.20 1.27
420.30 1.27
420.40 1.269
420.50 1.269
420.60 1.269
420.70 1.269
420.80 1.268
420.90 1.268
421.00 1.268
421.10 1.267
421.20 1.267
421.30 1.267
421.40 1.266
421.50 1.266
421.60 1.266
421.70 1.265
421.80 1.265
421.90 1.265
422.00 1.264
422.10 1.264
422.20 1.264
422.30 1.263
422.40 1.263
422.50 1.262
422.60 1.262
422.70 1.262
422.80 1.261
422.90 1.261
423.00 1.261
423.10 1.26
423.20 1.26
423.30 1.26
423.40 1.259
423.50 1.259
423.60 1.258
423.70 1.258
423.80 1.258
423.90 1.257
424.00 1.257
424.10 1.256
424.20 1.256
424.30 1.256
424.40 1.255
424.50 1.255
424.60 1.254
424.70 1.254
424.80 1.253
424.90 1.253
425.00 1.253
425.10 1.252
425.20 1.252
425.30 1.251
425.40 1.251
425.50 1.25
425.60 1.25
425.70 1.249
425.80 1.249
425.90 1.248
426.00 1.248
426.10 1.247
426.20 1.247
426.30 1.246
426.40 1.246
426.50 1.245
426.60 1.244
426.70 1.244
426.80 1.243
426.90 1.243
427.00 1.242
427.10 1.241
427.20 1.241
427.30 1.24
427.40 1.239
427.50 1.239
427.60 1.238
427.70 1.237
427.80 1.236
427.90 1.236
428.00 1.235
428.10 1.234
428.20 1.233
428.30 1.232
428.40 1.231
428.50 1.231
428.60 1.23
428.70 1.229
428.80 1.228
428.90 1.227
429.00 1.226
429.10 1.224
429.20 1.223
429.30 1.222
429.40 1.221
429.50 1.219
429.60 1.218
429.70 1.217
429.80 1.215
429.90 1.213
430.00 1.212
430.10 1.21
430.20 1.208
430.30 1.206
430.40 1.204
430.50 1.202
430.60 1.2
430.70 1.197
430.80 1.194
430.90 1.192
431.00 1.189
431.10 1.186
431.20 1.182
431.30 1.179
431.40 1.175
431.50 1.171
431.60 1.167
431.70 1.162
431.80 1.157
431.90 1.151
432.00 1.145
432.10 1.138
432.20 1.131
432.30 1.122
432.40 1.113
432.50 1.103
432.60 1.091
432.70 1.078
432.80 1.063
432.90 1.047
433.00 1.029
433.10 1.009
433.20 0.9871
433.30 0.9628
433.40 0.9305
433.50 0.8912
433.60 0.845
433.70 0.7746
433.80 0.6872
433.90 0.5831
434.00 0.4621
434.10 0.4655
434.20 0.593
434.30 0.6948
434.40 0.78
434.50 0.8485
434.60 0.8933
434.70 0.9313
434.80 0.9625
434.90 0.9859
435.00 1.007
435.10 1.026
435.20 1.043
435.30 1.059
435.40 1.073
435.50 1.085
435.60 1.096
435.70 1.106
435.80 1.114
435.90 1.121
436.00 1.128
436.10 1.134
436.20 1.14
436.30 1.144
436.40 1.149
436.50 1.153
436.60 1.156
436.70 1.16
436.80 1.163
436.90 1.166
437.00 1.168
437.10 1.17
437.20 1.173
437.30 1.175
437.40 1.176
437.50 1.178
437.60 1.18
437.70 1.181
437.80 1.182
437.90 1.184
438.00 1.185
438.10 1.186
438.20 1.187
438.30 1.188
438.40 1.189
438.50 1.189
438.60 1.19
438.70 1.19
438.80 1.191
438.90 1.191
439.00 1.192
439.10 1.192
439.20 1.193
439.30 1.193
439.40 1.193
439.50 1.194
439.60 1.194
439.70 1.194
439.80 1.194
439.90 1.194
440.00 1.194
440.10 1.195
440.20 1.195
440.30 1.195
440.40 1.195
440.50 1.195
440.60 1.195
440.70 1.195
440.80 1.195
440.90 1.195
441.00 1.195
441.10 1.195
441.20 1.194
441.30 1.194
441.40 1.194
441.50 1.194
441.60 1.194
441.70 1.194
441.80 1.194
441.90 1.194
442.00 1.193
442.10 1.193
442.20 1.193
442.30 1.193
442.40 1.193
442.50 1.192
442.60 1.192
442.70 1.192
442.80 1.192
442.90 1.192
443.00 1.191
443.10 1.191
443.20 1.191
443.30 1.191
443.40 1.19
443.50 1.19
443.60 1.19
443.70 1.19
443.80 1.189
443.90 1.189
444.00 1.189
444.10 1.188
444.20 1.188
444.30 1.188
444.40 1.188
444.50 1.187
444.60 1.187
444.70 1.187
444.80 1.186
444.90 1.186
445.00 1.186
445.10 1.186
445.20 1.185
445.30 1.185
445.40 1.185
445.50 1.184
445.60 1.184
445.70 1.184
445.80 1.184
445.90 1.183
446.00 1.183
446.10 1.183
446.20 1.182
446.30 1.182
446.40 1.182
446.50 1.181
446.60 1.181
446.70 1.181
446.80 1.18
446.90 1.18
447.00 1.18
447.10 1.179
447.20 1.179
447.30 1.179
447.40 1.179
447.50 1.178
447.60 1.178
447.70 1.178
447.80 1.177
447.90 1.177
448.00 1.177
448.10 1.176
448.20 1.176
448.30 1.176
448.40 1.175
448.50 1.175
448.60 1.175
448.70 1.174
448.80 1.174
448.90 1.174
449.00 1.173
449.10 1.173
449.20 1.173
449.30 1.172
449.40 1.172
449.50 1.172
449.60 1.171
449.70 1.171
449.80 1.171
449.90 1.17
450.00 1.17
450.10 1.17
450.20 1.169
450.30 1.169
450.40 1.169
450.50 1.168
450.60 1.168
450.70 1.168
450.80 1.167
450.90 1.167
451.00 1.167
451.10 1.166
451.20 1.166
451.30 1.166
451.40 1.165
451.50 1.165
451.60 1.165
451.70 1.164
451.80 1.164
451.90 1.164
452.00 1.163
452.10 1.163
452.20 1.163
452.30 1.162
452.40 1.162
452.50 1.161
452.60 1.161
452.70 1.161
452.80 1.16
452.90 1.16
453.00 1.16
453.10 1.159
453.20 1.159
453.30 1.159
453.40 1.158
453.50 1.158
453.60 1.158
453.70 1.157
