# Version 2.1 - nm, norm@500 to 1, cut digits, bergeron_70000_95.dat_70000
# Wavelength(nm)  Flambda(ergs/cm^s/s/nm)
300.00 6.616
300.10 6.608
300.20 6.6
300.30 6.591
300.40 6.583
300.50 6.575
300.60 6.567
300.70 6.559
300.80 6.551
300.90 6.543
301.00 6.535
301.10 6.527
301.20 6.519
301.30 6.511
301.40 6.503
301.50 6.495
301.60 6.487
301.70 6.479
301.80 6.471
301.90 6.463
302.00 6.455
302.10 6.447
302.20 6.439
302.30 6.431
302.40 6.423
302.50 6.415
302.60 6.407
302.70 6.4
302.80 6.392
302.90 6.384
303.00 6.376
303.10 6.368
303.20 6.36
303.30 6.353
303.40 6.345
303.50 6.337
303.60 6.329
303.70 6.322
303.80 6.314
303.90 6.306
304.00 6.298
304.10 6.291
304.20 6.283
304.30 6.275
304.40 6.268
304.50 6.26
304.60 6.253
304.70 6.245
304.80 6.237
304.90 6.23
305.00 6.222
305.10 6.215
305.20 6.207
305.30 6.199
305.40 6.192
305.50 6.184
305.60 6.177
305.70 6.169
305.80 6.162
305.90 6.154
306.00 6.147
306.10 6.14
306.20 6.132
306.30 6.125
306.40 6.117
306.50 6.11
306.60 6.102
306.70 6.095
306.80 6.088
306.90 6.08
307.00 6.073
307.10 6.066
307.20 6.058
307.30 6.051
307.40 6.044
307.50 6.036
307.60 6.029
307.70 6.022
307.80 6.014
307.90 6.007
308.00 6
308.10 5.993
308.20 5.986
308.30 5.978
308.40 5.971
308.50 5.964
308.60 5.957
308.70 5.95
308.80 5.942
308.90 5.935
309.00 5.928
309.10 5.921
309.20 5.914
309.30 5.907
309.40 5.9
309.50 5.893
309.60 5.886
309.70 5.878
309.80 5.871
309.90 5.864
310.00 5.857
310.10 5.85
310.20 5.843
310.30 5.836
310.40 5.829
310.50 5.822
310.60 5.815
310.70 5.808
310.80 5.802
310.90 5.795
311.00 5.788
311.10 5.781
311.20 5.774
311.30 5.767
311.40 5.76
311.50 5.753
311.60 5.746
311.70 5.739
311.80 5.733
311.90 5.726
312.00 5.719
312.10 5.712
312.20 5.705
312.30 5.699
312.40 5.692
312.50 5.685
312.60 5.678
312.70 5.671
312.80 5.665
312.90 5.658
313.00 5.651
313.10 5.645
313.20 5.638
313.30 5.631
313.40 5.625
313.50 5.618
313.60 5.611
313.70 5.605
313.80 5.598
313.90 5.591
314.00 5.585
314.10 5.578
314.20 5.571
314.30 5.565
314.40 5.558
314.50 5.552
314.60 5.545
314.70 5.539
314.80 5.532
314.90 5.525
315.00 5.519
315.10 5.512
315.20 5.506
315.30 5.499
315.40 5.493
315.50 5.487
315.60 5.48
315.70 5.474
315.80 5.467
315.90 5.461
316.00 5.454
316.10 5.448
316.20 5.441
316.30 5.435
316.40 5.429
316.50 5.422
316.60 5.416
316.70 5.41
316.80 5.403
316.90 5.397
317.00 5.39
317.10 5.384
317.20 5.378
317.30 5.372
317.40 5.365
317.50 5.359
317.60 5.353
317.70 5.346
317.80 5.34
317.90 5.334
318.00 5.328
318.10 5.321
318.20 5.315
318.30 5.309
318.40 5.303
318.50 5.297
318.60 5.29
318.70 5.284
318.80 5.278
318.90 5.272
319.00 5.266
319.10 5.26
319.20 5.253
319.30 5.247
319.40 5.241
319.50 5.235
319.60 5.229
319.70 5.223
319.80 5.217
319.90 5.211
320.00 5.205
320.10 5.199
320.20 5.193
320.30 5.187
320.40 5.181
320.50 5.175
320.60 5.169
320.70 5.163
320.80 5.157
320.90 5.151
321.00 5.145
321.10 5.139
321.20 5.133
321.30 5.127
321.40 5.121
321.50 5.115
321.60 5.109
321.70 5.103
321.80 5.097
321.90 5.091
322.00 5.085
322.10 5.079
322.20 5.074
322.30 5.068
322.40 5.062
322.50 5.056
322.60 5.05
322.70 5.044
322.80 5.039
322.90 5.033
323.00 5.027
323.10 5.021
323.20 5.015
323.30 5.01
323.40 5.004
323.50 4.998
323.60 4.992
323.70 4.987
323.80 4.981
323.90 4.975
324.00 4.969
324.10 4.964
324.20 4.958
324.30 4.952
324.40 4.947
324.50 4.941
324.60 4.935
324.70 4.93
324.80 4.924
324.90 4.918
325.00 4.913
325.10 4.907
325.20 4.901
325.30 4.896
325.40 4.89
325.50 4.885
325.60 4.879
325.70 4.873
325.80 4.868
325.90 4.862
326.00 4.857
326.10 4.851
326.20 4.846
326.30 4.84
326.40 4.835
326.50 4.829
326.60 4.824
326.70 4.818
326.80 4.813
326.90 4.807
327.00 4.802
327.10 4.796
327.20 4.791
327.30 4.785
327.40 4.78
327.50 4.774
327.60 4.769
327.70 4.763
327.80 4.758
327.90 4.753
328.00 4.747
328.10 4.742
328.20 4.736
328.30 4.731
328.40 4.726
328.50 4.72
328.60 4.715
328.70 4.71
328.80 4.704
328.90 4.699
329.00 4.694
329.10 4.688
329.20 4.683
329.30 4.678
329.40 4.672
329.50 4.667
329.60 4.662
329.70 4.657
329.80 4.651
329.90 4.646
330.00 4.641
330.10 4.636
330.20 4.63
330.30 4.625
330.40 4.62
330.50 4.615
330.60 4.61
330.70 4.604
330.80 4.599
330.90 4.594
331.00 4.589
331.10 4.584
331.20 4.578
331.30 4.573
331.40 4.568
331.50 4.563
331.60 4.558
331.70 4.553
331.80 4.548
331.90 4.542
332.00 4.537
332.10 4.532
332.20 4.527
332.30 4.522
332.40 4.517
332.50 4.512
332.60 4.507
332.70 4.502
332.80 4.497
332.90 4.492
333.00 4.487
333.10 4.482
333.20 4.477
333.30 4.472
333.40 4.467
333.50 4.462
333.60 4.457
333.70 4.452
333.80 4.447
333.90 4.442
334.00 4.437
334.10 4.432
334.20 4.427
334.30 4.422
334.40 4.417
334.50 4.412
334.60 4.407
334.70 4.402
334.80 4.397
334.90 4.393
335.00 4.388
335.10 4.383
335.20 4.378
335.30 4.373
335.40 4.368
335.50 4.363
335.60 4.358
335.70 4.354
335.80 4.349
335.90 4.344
336.00 4.339
336.10 4.334
336.20 4.329
336.30 4.325
336.40 4.32
336.50 4.315
336.60 4.31
336.70 4.306
336.80 4.301
336.90 4.296
337.00 4.291
337.10 4.286
337.20 4.282
337.30 4.277
337.40 4.272
337.50 4.268
337.60 4.263
337.70 4.258
337.80 4.253
337.90 4.249
338.00 4.244
338.10 4.239
338.20 4.235
338.30 4.23
338.40 4.225
338.50 4.221
338.60 4.216
338.70 4.211
338.80 4.207
338.90 4.202
339.00 4.197
339.10 4.193
339.20 4.188
339.30 4.184
339.40 4.179
339.50 4.174
339.60 4.17
339.70 4.165
339.80 4.161
339.90 4.156
340.00 4.151
340.10 4.147
340.20 4.142
340.30 4.138
340.40 4.133
340.50 4.129
340.60 4.124
340.70 4.12
340.80 4.115
340.90 4.111
341.00 4.106
341.10 4.102
341.20 4.097
341.30 4.093
341.40 4.088
341.50 4.084
341.60 4.079
341.70 4.075
341.80 4.07
341.90 4.066
342.00 4.061
342.10 4.057
342.20 4.053
342.30 4.048
342.40 4.044
342.50 4.039
342.60 4.035
342.70 4.031
342.80 4.026
342.90 4.022
343.00 4.017
343.10 4.013
343.20 4.009
343.30 4.004
343.40 4
343.50 3.996
343.60 3.991
343.70 3.987
343.80 3.983
343.90 3.978
344.00 3.974
344.10 3.97
344.20 3.965
344.30 3.961
344.40 3.957
344.50 3.952
344.60 3.948
344.70 3.944
344.80 3.94
344.90 3.935
345.00 3.931
345.10 3.927
345.20 3.923
345.30 3.918
345.40 3.914
345.50 3.91
345.60 3.906
345.70 3.901
345.80 3.897
345.90 3.893
346.00 3.889
346.10 3.884
346.20 3.88
346.30 3.876
346.40 3.872
346.50 3.868
346.60 3.864
346.70 3.859
346.80 3.855
346.90 3.851
347.00 3.847
347.10 3.843
347.20 3.839
347.30 3.835
347.40 3.83
347.50 3.826
347.60 3.822
347.70 3.818
347.80 3.814
347.90 3.81
348.00 3.806
348.10 3.802
348.20 3.798
348.30 3.794
348.40 3.789
348.50 3.785
348.60 3.781
348.70 3.777
348.80 3.773
348.90 3.769
349.00 3.765
349.10 3.761
349.20 3.757
349.30 3.753
349.40 3.749
349.50 3.745
349.60 3.741
349.70 3.737
349.80 3.733
349.90 3.729
350.00 3.725
350.10 3.721
350.20 3.717
350.30 3.713
350.40 3.709
350.50 3.705
350.60 3.701
350.70 3.697
350.80 3.693
350.90 3.689
351.00 3.686
351.10 3.682
351.20 3.678
351.30 3.674
351.40 3.67
351.50 3.666
351.60 3.662
351.70 3.658
351.80 3.654
351.90 3.65
352.00 3.646
352.10 3.643
352.20 3.639
352.30 3.635
352.40 3.631
352.50 3.627
352.60 3.623
352.70 3.62
352.80 3.616
352.90 3.612
353.00 3.608
353.10 3.604
353.20 3.6
353.30 3.597
353.40 3.593
353.50 3.589
353.60 3.585
353.70 3.581
353.80 3.578
353.90 3.574
354.00 3.57
354.10 3.566
354.20 3.562
354.30 3.559
354.40 3.555
354.50 3.551
354.60 3.547
354.70 3.544
354.80 3.54
354.90 3.536
355.00 3.533
355.10 3.529
355.20 3.525
355.30 3.521
355.40 3.518
355.50 3.514
355.60 3.51
355.70 3.507
355.80 3.503
355.90 3.499
356.00 3.495
356.10 3.492
356.20 3.488
356.30 3.484
356.40 3.481
356.50 3.477
356.60 3.474
356.70 3.47
356.80 3.466
356.90 3.463
357.00 3.459
357.10 3.455
357.20 3.452
357.30 3.448
357.40 3.444
357.50 3.441
357.60 3.437
357.70 3.434
357.80 3.43
357.90 3.426
358.00 3.423
358.10 3.419
358.20 3.416
358.30 3.412
358.40 3.409
358.50 3.405
358.60 3.402
358.70 3.398
358.80 3.394
358.90 3.391
359.00 3.387
359.10 3.384
359.20 3.38
359.30 3.377
359.40 3.373
359.50 3.37
359.60 3.366
359.70 3.363
359.80 3.359
359.90 3.356
360.00 3.352
360.10 3.349
360.20 3.345
360.30 3.342
360.40 3.338
360.50 3.335
360.60 3.331
360.70 3.328
360.80 3.324
360.90 3.321
361.00 3.318
361.10 3.314
361.20 3.311
361.30 3.307
361.40 3.304
361.50 3.3
361.60 3.297
361.70 3.294
361.80 3.29
361.90 3.287
362.00 3.283
362.10 3.28
362.20 3.277
362.30 3.273
362.40 3.27
362.50 3.266
362.60 3.263
362.70 3.26
362.80 3.256
362.90 3.253
363.00 3.25
363.10 3.246
363.20 3.243
363.30 3.24
363.40 3.236
363.50 3.233
363.60 3.23
363.70 3.226
363.80 3.223
363.90 3.22
364.00 3.216
364.10 3.213
364.20 3.21
364.30 3.206
364.40 3.203
364.50 3.2
364.60 3.196
364.70 3.193
364.80 3.19
364.90 3.187
365.00 3.183
365.10 3.18
365.20 3.177
365.30 3.174
365.40 3.17
365.50 3.167
365.60 3.164
365.70 3.161
365.80 3.157
365.90 3.154
366.00 3.151
366.10 3.148
366.20 3.144
366.30 3.141
366.40 3.138
366.50 3.135
366.60 3.131
366.70 3.128
366.80 3.125
366.90 3.122
367.00 3.119
367.10 3.115
367.20 3.112
367.30 3.109
367.40 3.106
367.50 3.103
367.60 3.099
367.70 3.096
367.80 3.093
367.90 3.09
368.00 3.087
368.10 3.084
368.20 3.08
368.30 3.077
368.40 3.074
368.50 3.071
368.60 3.067
368.70 3.064
368.80 3.061
368.90 3.058
369.00 3.055
369.10 3.051
369.20 3.048
369.30 3.045
369.40 3.042
369.50 3.039
369.60 3.035
369.70 3.032
369.80 3.029
369.90 3.026
370.00 3.023
370.10 3.02
370.20 3.016
370.30 3.013
370.40 3.01
370.50 3.007
370.60 3.004
370.70 3.001
370.80 2.997
370.90 2.994
371.00 2.991
371.10 2.988
371.20 2.985
371.30 2.982
371.40 2.979
371.50 2.975
371.60 2.972
371.70 2.969
371.80 2.966
371.90 2.963
372.00 2.96
372.10 2.957
372.20 2.954
372.30 2.951
372.40 2.948
372.50 2.945
372.60 2.942
372.70 2.94
372.80 2.937
372.90 2.934
373.00 2.931
373.10 2.928
373.20 2.925
373.30 2.922
373.40 2.919
373.50 2.917
373.60 2.914
373.70 2.911
373.80 2.908
373.90 2.905
374.00 2.902
374.10 2.899
374.20 2.896
374.30 2.893
374.40 2.89
374.50 2.887
374.60 2.884
374.70 2.881
374.80 2.878
374.90 2.875
375.00 2.872
375.10 2.869
375.20 2.866
375.30 2.863
375.40 2.86
375.50 2.857
375.60 2.854
375.70 2.851
375.80 2.848
375.90 2.845
376.00 2.843
376.10 2.84
376.20 2.837
376.30 2.834
376.40 2.831
376.50 2.828
376.60 2.825
376.70 2.822
376.80 2.819
376.90 2.816
377.00 2.813
377.10 2.81
377.20 2.808
377.30 2.805
377.40 2.802
377.50 2.799
377.60 2.796
377.70 2.793
377.80 2.791
377.90 2.788
378.00 2.785
378.10 2.782
378.20 2.779
378.30 2.777
378.40 2.774
378.50 2.771
378.60 2.768
378.70 2.765
378.80 2.763
378.90 2.76
379.00 2.757
379.10 2.754
379.20 2.752
379.30 2.749
379.40 2.746
379.50 2.743
379.60 2.74
379.70 2.738
379.80 2.735
379.90 2.732
380.00 2.729
380.10 2.727
380.20 2.724
380.30 2.721
380.40 2.719
380.50 2.716
380.60 2.713
380.70 2.71
380.80 2.708
380.90 2.705
381.00 2.702
381.10 2.7
381.20 2.697
381.30 2.694
381.40 2.692
381.50 2.689
381.60 2.686
381.70 2.684
381.80 2.681
381.90 2.678
382.00 2.676
382.10 2.673
382.20 2.67
382.30 2.668
382.40 2.665
382.50 2.663
382.60 2.66
382.70 2.657
382.80 2.655
382.90 2.652
383.00 2.649
383.10 2.647
383.20 2.644
383.30 2.642
383.40 2.639
383.50 2.636
383.60 2.634
383.70 2.631
383.80 2.629
383.90 2.626
384.00 2.624
384.10 2.621
384.20 2.619
384.30 2.616
384.40 2.613
384.50 2.611
384.60 2.608
384.70 2.606
384.80 2.603
384.90 2.601
385.00 2.598
385.10 2.596
385.20 2.593
385.30 2.591
385.40 2.588
385.50 2.586
385.60 2.583
385.70 2.581
385.80 2.578
385.90 2.576
386.00 2.573
386.10 2.571
386.20 2.569
386.30 2.566
386.40 2.564
386.50 2.561
386.60 2.559
386.70 2.556
386.80 2.554
386.90 2.551
387.00 2.549
387.10 2.546
387.20 2.544
387.30 2.542
387.40 2.539
387.50 2.537
387.60 2.534
387.70 2.532
387.80 2.529
387.90 2.527
388.00 2.525
388.10 2.522
388.20 2.52
388.30 2.518
388.40 2.515
388.50 2.513
388.60 2.51
388.70 2.508
388.80 2.506
388.90 2.503
389.00 2.501
389.10 2.499
389.20 2.496
389.30 2.494
389.40 2.492
389.50 2.489
389.60 2.487
389.70 2.485
389.80 2.483
389.90 2.48
390.00 2.478
390.10 2.476
390.20 2.474
390.30 2.471
390.40 2.469
390.50 2.467
390.60 2.465
390.70 2.462
390.80 2.46
390.90 2.458
391.00 2.455
391.10 2.453
391.20 2.451
391.30 2.449
391.40 2.446
391.50 2.444
391.60 2.442
391.70 2.44
391.80 2.437
391.90 2.435
392.00 2.433
392.10 2.431
392.20 2.428
392.30 2.426
392.40 2.424
392.50 2.422
392.60 2.419
392.70 2.417
392.80 2.415
392.90 2.413
393.00 2.41
393.10 2.408
393.20 2.406
393.30 2.403
393.40 2.401
393.50 2.399
393.60 2.397
393.70 2.394
393.80 2.392
393.90 2.39
394.00 2.387
394.10 2.385
394.20 2.383
394.30 2.381
394.40 2.378
394.50 2.376
394.60 2.374
394.70 2.371
394.80 2.369
394.90 2.367
395.00 2.364
395.10 2.362
395.20 2.36
395.30 2.358
395.40 2.355
395.50 2.353
395.60 2.351
395.70 2.348
395.80 2.346
395.90 2.344
396.00 2.342
396.10 2.339
396.20 2.337
396.30 2.335
396.40 2.332
396.50 2.33
396.60 2.328
396.70 2.326
396.80 2.324
396.90 2.322
397.00 2.319
397.10 2.317
397.20 2.316
397.30 2.314
397.40 2.312
397.50 2.31
397.60 2.308
397.70 2.306
397.80 2.304
397.90 2.303
398.00 2.301
398.10 2.299
398.20 2.297
398.30 2.295
398.40 2.294
398.50 2.292
398.60 2.29
398.70 2.288
398.80 2.287
398.90 2.285
399.00 2.283
399.10 2.281
399.20 2.279
399.30 2.278
399.40 2.276
399.50 2.274
399.60 2.272
399.70 2.27
399.80 2.268
399.90 2.267
400.00 2.265
400.10 2.263
400.20 2.261
400.30 2.259
400.40 2.257
400.50 2.255
400.60 2.253
400.70 2.252
400.80 2.25
400.90 2.248
401.00 2.246
401.10 2.244
401.20 2.242
401.30 2.24
401.40 2.238
401.50 2.236
401.60 2.234
401.70 2.232
401.80 2.23
401.90 2.228
402.00 2.226
402.10 2.224
402.20 2.222
402.30 2.22
402.40 2.218
402.50 2.216
402.60 2.214
402.70 2.212
402.80 2.209
402.90 2.207
403.00 2.205
403.10 2.203
403.20 2.201
403.30 2.199
403.40 2.196
403.50 2.194
403.60 2.192
403.70 2.19
403.80 2.188
403.90 2.185
404.00 2.183
404.10 2.181
404.20 2.179
404.30 2.176
404.40 2.174
404.50 2.172
404.60 2.169
404.70 2.167
404.80 2.165
404.90 2.162
405.00 2.16
405.10 2.158
405.20 2.155
405.30 2.153
405.40 2.15
405.50 2.148
405.60 2.145
405.70 2.143
405.80 2.141
405.90 2.138
406.00 2.136
406.10 2.133
406.20 2.131
406.30 2.128
406.40 2.125
406.50 2.123
406.60 2.12
406.70 2.118
406.80 2.115
406.90 2.113
407.00 2.11
407.10 2.107
407.20 2.105
407.30 2.102
407.40 2.099
407.50 2.097
407.60 2.094
407.70 2.092
407.80 2.089
407.90 2.086
408.00 2.084
408.10 2.081
408.20 2.078
408.30 2.076
408.40 2.073
408.50 2.07
408.60 2.068
408.70 2.065
408.80 2.063
408.90 2.06
409.00 2.058
409.10 2.055
409.20 2.053
409.30 2.051
409.40 2.049
409.50 2.046
409.60 2.044
409.70 2.043
409.80 2.041
409.90 2.039
410.00 2.038
410.10 2.036
410.20 2.035
410.30 2.033
410.40 2.031
410.50 2.029
410.60 2.027
410.70 2.026
410.80 2.024
410.90 2.023
411.00 2.022
411.10 2.02
411.20 2.019
411.30 2.018
411.40 2.017
411.50 2.016
411.60 2.015
411.70 2.014
411.80 2.014
411.90 2.013
412.00 2.012
412.10 2.011
412.20 2.01
412.30 2.009
412.40 2.009
412.50 2.008
412.60 2.007
412.70 2.006
412.80 2.005
412.90 2.005
413.00 2.004
413.10 2.003
413.20 2.002
413.30 2.001
413.40 2
413.50 1.999
413.60 1.999
413.70 1.998
413.80 1.997
413.90 1.996
414.00 1.995
414.10 1.994
414.20 1.993
414.30 1.992
414.40 1.991
414.50 1.99
414.60 1.989
414.70 1.988
414.80 1.987
414.90 1.986
415.00 1.985
415.10 1.984
415.20 1.983
415.30 1.982
415.40 1.981
415.50 1.979
415.60 1.978
415.70 1.977
415.80 1.976
415.90 1.975
416.00 1.974
416.10 1.972
416.20 1.971
416.30 1.97
416.40 1.969
416.50 1.968
416.60 1.966
416.70 1.965
416.80 1.964
416.90 1.962
417.00 1.961
417.10 1.96
417.20 1.959
417.30 1.957
417.40 1.956
417.50 1.955
417.60 1.953
417.70 1.952
417.80 1.95
417.90 1.949
418.00 1.948
418.10 1.946
418.20 1.945
418.30 1.943
418.40 1.942
418.50 1.94
418.60 1.939
418.70 1.937
418.80 1.936
418.90 1.934
419.00 1.933
419.10 1.931
419.20 1.93
419.30 1.928
419.40 1.927
419.50 1.925
419.60 1.924
419.70 1.922
419.80 1.921
419.90 1.919
420.00 1.917
420.10 1.916
420.20 1.914
420.30 1.912
420.40 1.911
420.50 1.909
420.60 1.908
420.70 1.906
420.80 1.904
420.90 1.903
421.00 1.901
421.10 1.899
421.20 1.897
421.30 1.896
421.40 1.894
421.50 1.892
421.60 1.89
421.70 1.889
421.80 1.887
421.90 1.885
422.00 1.883
422.10 1.882
422.20 1.88
422.30 1.878
422.40 1.876
422.50 1.874
422.60 1.872
422.70 1.871
422.80 1.869
422.90 1.867
423.00 1.865
423.10 1.863
423.20 1.861
423.30 1.859
423.40 1.857
423.50 1.855
423.60 1.853
423.70 1.851
423.80 1.849
423.90 1.847
424.00 1.845
424.10 1.843
424.20 1.841
424.30 1.839
424.40 1.837
424.50 1.835
424.60 1.833
424.70 1.831
424.80 1.829
424.90 1.827
425.00 1.825
425.10 1.823
425.20 1.82
425.30 1.818
425.40 1.816
425.50 1.814
425.60 1.812
425.70 1.809
425.80 1.807
425.90 1.805
426.00 1.803
426.10 1.8
426.20 1.798
426.30 1.796
426.40 1.794
426.50 1.791
426.60 1.789
426.70 1.786
426.80 1.784
426.90 1.782
427.00 1.779
427.10 1.777
427.20 1.774
427.30 1.772
427.40 1.769
427.50 1.767
427.60 1.764
427.70 1.762
427.80 1.759
427.90 1.756
428.00 1.754
428.10 1.751
428.20 1.748
428.30 1.746
428.40 1.743
428.50 1.74
428.60 1.738
428.70 1.735
428.80 1.732
428.90 1.729
429.00 1.726
429.10 1.723
429.20 1.721
429.30 1.718
429.40 1.715
429.50 1.712
429.60 1.709
429.70 1.706
429.80 1.703
429.90 1.7
430.00 1.697
430.10 1.693
430.20 1.69
430.30 1.687
430.40 1.684
430.50 1.681
430.60 1.678
430.70 1.674
430.80 1.671
430.90 1.668
431.00 1.665
431.10 1.661
431.20 1.658
431.30 1.655
431.40 1.651
431.50 1.648
431.60 1.645
431.70 1.641
431.80 1.638
431.90 1.634
432.00 1.631
432.10 1.627
432.20 1.624
432.30 1.62
432.40 1.617
432.50 1.613
432.60 1.609
432.70 1.606
432.80 1.602
432.90 1.598
433.00 1.595
433.10 1.591
433.20 1.587
433.30 1.583
433.40 1.579
433.50 1.574
433.60 1.57
433.70 1.565
433.80 1.56
433.90 1.555
434.00 1.551
434.10 1.551
434.20 1.552
434.30 1.555
434.40 1.557
434.50 1.56
434.60 1.562
434.70 1.563
434.80 1.565
434.90 1.566
435.00 1.568
435.10 1.569
435.20 1.57
435.30 1.571
435.40 1.572
435.50 1.573
435.60 1.574
435.70 1.575
435.80 1.576
435.90 1.576
436.00 1.577
436.10 1.578
436.20 1.579
436.30 1.58
436.40 1.58
436.50 1.581
436.60 1.582
436.70 1.582
436.80 1.583
436.90 1.583
437.00 1.584
437.10 1.585
437.20 1.585
437.30 1.586
437.40 1.586
437.50 1.586
437.60 1.587
437.70 1.587
437.80 1.588
437.90 1.588
438.00 1.588
438.10 1.588
438.20 1.589
438.30 1.589
438.40 1.589
438.50 1.589
438.60 1.589
438.70 1.589
438.80 1.59
438.90 1.59
439.00 1.59
439.10 1.59
439.20 1.59
439.30 1.59
439.40 1.589
439.50 1.589
439.60 1.589
439.70 1.589
439.80 1.589
439.90 1.589
440.00 1.588
440.10 1.588
440.20 1.588
440.30 1.588
440.40 1.587
440.50 1.587
440.60 1.587
440.70 1.586
440.80 1.586
440.90 1.586
441.00 1.585
441.10 1.585
441.20 1.584
441.30 1.584
441.40 1.583
441.50 1.583
441.60 1.582
441.70 1.582
441.80 1.581
441.90 1.581
442.00 1.58
442.10 1.579
442.20 1.579
442.30 1.578
442.40 1.577
442.50 1.577
442.60 1.576
442.70 1.575
442.80 1.575
442.90 1.574
443.00 1.573
443.10 1.572
443.20 1.572
443.30 1.571
443.40 1.57
443.50 1.569
443.60 1.568
443.70 1.568
443.80 1.567
443.90 1.566
444.00 1.565
444.10 1.564
444.20 1.563
444.30 1.563
444.40 1.562
444.50 1.561
444.60 1.56
444.70 1.559
444.80 1.558
444.90 1.557
445.00 1.556
445.10 1.555
445.20 1.554
445.30 1.553
445.40 1.552
445.50 1.551
445.60 1.55
445.70 1.549
445.80 1.548
445.90 1.547
446.00 1.546
446.10 1.545
446.20 1.544
446.30 1.543
446.40 1.542
446.50 1.541
446.60 1.54
446.70 1.539
446.80 1.538
446.90 1.537
447.00 1.536
447.10 1.535
447.20 1.534
447.30 1.533
447.40 1.532
447.50 1.531
447.60 1.53
447.70 1.529
447.80 1.528
447.90 1.526
448.00 1.525
448.10 1.524
448.20 1.523
448.30 1.522
448.40 1.521
448.50 1.52
448.60 1.519
448.70 1.518
448.80 1.516
448.90 1.515
449.00 1.514
449.10 1.513
449.20 1.512
449.30 1.511
449.40 1.51
449.50 1.509
449.60 1.507
449.70 1.506
449.80 1.505
449.90 1.504
450.00 1.503
450.10 1.502
450.20 1.501
450.30 1.499
450.40 1.498
450.50 1.497
450.60 1.496
450.70 1.495
450.80 1.494
450.90 1.492
451.00 1.491
451.10 1.49
451.20 1.489
451.30 1.488
451.40 1.487
451.50 1.486
451.60 1.484
451.70 1.483
451.80 1.482
451.90 1.481
452.00 1.48
452.10 1.479
452.20 1.477
452.30 1.476
452.40 1.475
452.50 1.474
452.60 1.473
452.70 1.471
452.80 1.47
452.90 1.469
453.00 1.468
453.10 1.467
453.20 1.466
453.30 1.464
453.40 1.463
453.50 1.462
453.60 1.461
453.70 1.46
453.80 1.459
453.90 1.457
454.00 1.456
454.10 1.455
