# Version 2.1 - nm, norm@500 to 1, cut digits, bergeron_20000_85.dat_20000
# Wavelength(nm)  Flambda(ergs/cm^s/s/nm)
300.00 3.37
300.10 3.367
300.20 3.364
300.30 3.36
300.40 3.357
300.50 3.354
300.60 3.351
300.70 3.347
300.80 3.344
300.90 3.341
301.00 3.338
301.10 3.335
301.20 3.331
301.30 3.328
301.40 3.325
301.50 3.322
301.60 3.319
301.70 3.315
301.80 3.312
301.90 3.309
302.00 3.306
302.10 3.303
302.20 3.299
302.30 3.296
302.40 3.293
302.50 3.29
302.60 3.287
302.70 3.284
302.80 3.281
302.90 3.277
303.00 3.274
303.10 3.271
303.20 3.268
303.30 3.265
303.40 3.262
303.50 3.259
303.60 3.256
303.70 3.252
303.80 3.249
303.90 3.246
304.00 3.243
304.10 3.24
304.20 3.237
304.30 3.234
304.40 3.231
304.50 3.228
304.60 3.225
304.70 3.222
304.80 3.218
304.90 3.215
305.00 3.212
305.10 3.209
305.20 3.206
305.30 3.203
305.40 3.2
305.50 3.197
305.60 3.194
305.70 3.191
305.80 3.188
305.90 3.185
306.00 3.182
306.10 3.179
306.20 3.176
306.30 3.173
306.40 3.17
306.50 3.167
306.60 3.164
306.70 3.161
306.80 3.158
306.90 3.155
307.00 3.152
307.10 3.149
307.20 3.146
307.30 3.143
307.40 3.14
307.50 3.137
307.60 3.134
307.70 3.131
307.80 3.128
307.90 3.125
308.00 3.122
308.10 3.119
308.20 3.116
308.30 3.113
308.40 3.111
308.50 3.108
308.60 3.105
308.70 3.102
308.80 3.099
308.90 3.096
309.00 3.093
309.10 3.09
309.20 3.087
309.30 3.084
309.40 3.081
309.50 3.079
309.60 3.076
309.70 3.073
309.80 3.07
309.90 3.067
310.00 3.064
310.10 3.061
310.20 3.058
310.30 3.055
310.40 3.053
310.50 3.05
310.60 3.047
310.70 3.044
310.80 3.041
310.90 3.038
311.00 3.036
311.10 3.033
311.20 3.03
311.30 3.027
311.40 3.024
311.50 3.021
311.60 3.019
311.70 3.016
311.80 3.013
311.90 3.01
312.00 3.007
312.10 3.004
312.20 3.002
312.30 2.999
312.40 2.996
312.50 2.993
312.60 2.991
312.70 2.988
312.80 2.985
312.90 2.982
313.00 2.979
313.10 2.977
313.20 2.974
313.30 2.971
313.40 2.968
313.50 2.966
313.60 2.963
313.70 2.96
313.80 2.957
313.90 2.955
314.00 2.952
314.10 2.949
314.20 2.946
314.30 2.944
314.40 2.941
314.50 2.938
314.60 2.935
314.70 2.933
314.80 2.93
314.90 2.927
315.00 2.925
315.10 2.922
315.20 2.919
315.30 2.917
315.40 2.914
315.50 2.911
315.60 2.908
315.70 2.906
315.80 2.903
315.90 2.9
316.00 2.898
316.10 2.895
316.20 2.892
316.30 2.89
316.40 2.887
316.50 2.884
316.60 2.882
316.70 2.879
316.80 2.876
316.90 2.874
317.00 2.871
317.10 2.869
317.20 2.866
317.30 2.863
317.40 2.861
317.50 2.858
317.60 2.855
317.70 2.853
317.80 2.85
317.90 2.848
318.00 2.845
318.10 2.842
318.20 2.84
318.30 2.837
318.40 2.835
318.50 2.832
318.60 2.829
318.70 2.827
318.80 2.824
318.90 2.822
319.00 2.819
319.10 2.816
319.20 2.814
319.30 2.811
319.40 2.809
319.50 2.806
319.60 2.804
319.70 2.801
319.80 2.798
319.90 2.796
320.00 2.793
320.10 2.791
320.20 2.788
320.30 2.786
320.40 2.783
320.50 2.781
320.60 2.778
320.70 2.776
320.80 2.773
320.90 2.771
321.00 2.768
321.10 2.765
321.20 2.763
321.30 2.76
321.40 2.758
321.50 2.755
321.60 2.753
321.70 2.75
321.80 2.748
321.90 2.745
322.00 2.743
322.10 2.74
322.20 2.738
322.30 2.736
322.40 2.733
322.50 2.731
322.60 2.728
322.70 2.726
322.80 2.723
322.90 2.721
323.00 2.718
323.10 2.716
323.20 2.713
323.30 2.711
323.40 2.708
323.50 2.706
323.60 2.704
323.70 2.701
323.80 2.699
323.90 2.696
324.00 2.694
324.10 2.691
324.20 2.689
324.30 2.687
324.40 2.684
324.50 2.682
324.60 2.679
324.70 2.677
324.80 2.674
324.90 2.672
325.00 2.67
325.10 2.667
325.20 2.665
325.30 2.662
325.40 2.66
325.50 2.658
325.60 2.655
325.70 2.653
325.80 2.65
325.90 2.648
326.00 2.646
326.10 2.643
326.20 2.641
326.30 2.639
326.40 2.636
326.50 2.634
326.60 2.632
326.70 2.629
326.80 2.627
326.90 2.624
327.00 2.622
327.10 2.62
327.20 2.617
327.30 2.615
327.40 2.613
327.50 2.61
327.60 2.608
327.70 2.606
327.80 2.603
327.90 2.601
328.00 2.599
328.10 2.596
328.20 2.594
328.30 2.592
328.40 2.59
328.50 2.587
328.60 2.585
328.70 2.583
328.80 2.58
328.90 2.578
329.00 2.576
329.10 2.573
329.20 2.571
329.30 2.569
329.40 2.567
329.50 2.564
329.60 2.562
329.70 2.56
329.80 2.557
329.90 2.555
330.00 2.553
330.10 2.551
330.20 2.548
330.30 2.546
330.40 2.544
330.50 2.542
330.60 2.539
330.70 2.537
330.80 2.535
330.90 2.533
331.00 2.53
331.10 2.528
331.20 2.526
331.30 2.524
331.40 2.521
331.50 2.519
331.60 2.517
331.70 2.515
331.80 2.513
331.90 2.51
332.00 2.508
332.10 2.506
332.20 2.504
332.30 2.502
332.40 2.499
332.50 2.497
332.60 2.495
332.70 2.493
332.80 2.491
332.90 2.488
333.00 2.486
333.10 2.484
333.20 2.482
333.30 2.48
333.40 2.477
333.50 2.475
333.60 2.473
333.70 2.471
333.80 2.469
333.90 2.466
334.00 2.464
334.10 2.462
334.20 2.46
334.30 2.458
334.40 2.456
334.50 2.454
334.60 2.451
334.70 2.449
334.80 2.447
334.90 2.445
335.00 2.443
335.10 2.441
335.20 2.439
335.30 2.436
335.40 2.434
335.50 2.432
335.60 2.43
335.70 2.428
335.80 2.426
335.90 2.424
336.00 2.422
336.10 2.419
336.20 2.417
336.30 2.415
336.40 2.413
336.50 2.411
336.60 2.409
336.70 2.407
336.80 2.405
336.90 2.403
337.00 2.4
337.10 2.398
337.20 2.396
337.30 2.394
337.40 2.392
337.50 2.39
337.60 2.388
337.70 2.386
337.80 2.384
337.90 2.382
338.00 2.38
338.10 2.378
338.20 2.376
338.30 2.373
338.40 2.371
338.50 2.369
338.60 2.367
338.70 2.365
338.80 2.363
338.90 2.361
339.00 2.359
339.10 2.357
339.20 2.355
339.30 2.353
339.40 2.351
339.50 2.349
339.60 2.347
339.70 2.345
339.80 2.343
339.90 2.341
340.00 2.339
340.10 2.337
340.20 2.335
340.30 2.333
340.40 2.331
340.50 2.329
340.60 2.327
340.70 2.325
340.80 2.323
340.90 2.321
341.00 2.319
341.10 2.317
341.20 2.315
341.30 2.313
341.40 2.311
341.50 2.309
341.60 2.307
341.70 2.305
341.80 2.303
341.90 2.301
342.00 2.299
342.10 2.297
342.20 2.295
342.30 2.293
342.40 2.291
342.50 2.289
342.60 2.287
342.70 2.285
342.80 2.283
342.90 2.281
343.00 2.279
343.10 2.277
343.20 2.275
343.30 2.273
343.40 2.271
343.50 2.269
343.60 2.267
343.70 2.265
343.80 2.263
343.90 2.262
344.00 2.26
344.10 2.258
344.20 2.256
344.30 2.254
344.40 2.252
344.50 2.25
344.60 2.248
344.70 2.246
344.80 2.244
344.90 2.242
345.00 2.24
345.10 2.238
345.20 2.237
345.30 2.235
345.40 2.233
345.50 2.231
345.60 2.229
345.70 2.227
345.80 2.225
345.90 2.223
346.00 2.221
346.10 2.219
346.20 2.218
346.30 2.216
346.40 2.214
346.50 2.212
346.60 2.21
346.70 2.208
346.80 2.206
346.90 2.204
347.00 2.202
347.10 2.201
347.20 2.199
347.30 2.197
347.40 2.195
347.50 2.193
347.60 2.191
347.70 2.189
347.80 2.188
347.90 2.186
348.00 2.184
348.10 2.182
348.20 2.18
348.30 2.178
348.40 2.176
348.50 2.175
348.60 2.173
348.70 2.171
348.80 2.169
348.90 2.167
349.00 2.165
349.10 2.164
349.20 2.162
349.30 2.16
349.40 2.158
349.50 2.156
349.60 2.154
349.70 2.153
349.80 2.151
349.90 2.149
350.00 2.147
350.10 2.145
350.20 2.144
350.30 2.142
350.40 2.14
350.50 2.138
350.60 2.136
350.70 2.135
350.80 2.133
350.90 2.131
351.00 2.129
351.10 2.127
351.20 2.126
351.30 2.124
351.40 2.122
351.50 2.12
351.60 2.118
351.70 2.117
351.80 2.115
351.90 2.113
352.00 2.111
352.10 2.11
352.20 2.108
352.30 2.106
352.40 2.104
352.50 2.103
352.60 2.101
352.70 2.099
352.80 2.097
352.90 2.096
353.00 2.094
353.10 2.092
353.20 2.09
353.30 2.089
353.40 2.087
353.50 2.085
353.60 2.083
353.70 2.082
353.80 2.08
353.90 2.078
354.00 2.076
354.10 2.075
354.20 2.073
354.30 2.071
354.40 2.069
354.50 2.068
354.60 2.066
354.70 2.064
354.80 2.062
354.90 2.061
355.00 2.059
355.10 2.057
355.20 2.056
355.30 2.054
355.40 2.052
355.50 2.05
355.60 2.049
355.70 2.047
355.80 2.045
355.90 2.044
356.00 2.042
356.10 2.04
356.20 2.039
356.30 2.037
356.40 2.035
356.50 2.034
356.60 2.032
356.70 2.03
356.80 2.028
356.90 2.027
357.00 2.025
357.10 2.023
357.20 2.022
357.30 2.02
357.40 2.018
357.50 2.017
357.60 2.015
357.70 2.013
357.80 2.012
357.90 2.01
358.00 2.008
358.10 2.007
358.20 2.005
358.30 2.003
358.40 2.002
358.50 2
358.60 1.998
358.70 1.997
358.80 1.995
358.90 1.994
359.00 1.992
359.10 1.99
359.20 1.989
359.30 1.987
359.40 1.985
359.50 1.984
359.60 1.982
359.70 1.98
359.80 1.979
359.90 1.977
360.00 1.976
360.10 1.974
360.20 1.972
360.30 1.971
360.40 1.969
360.50 1.967
360.60 1.966
360.70 1.964
360.80 1.963
360.90 1.961
361.00 1.959
361.10 1.958
361.20 1.956
361.30 1.955
361.40 1.953
361.50 1.951
361.60 1.95
361.70 1.948
361.80 1.947
361.90 1.945
362.00 1.943
362.10 1.942
362.20 1.94
362.30 1.939
362.40 1.937
362.50 1.935
362.60 1.934
362.70 1.932
362.80 1.931
362.90 1.929
363.00 1.927
363.10 1.926
363.20 1.924
363.30 1.923
363.40 1.921
363.50 1.92
363.60 1.918
363.70 1.916
363.80 1.915
363.90 1.913
364.00 1.912
364.10 1.91
364.20 1.909
364.30 1.907
364.40 1.906
364.50 1.904
364.60 1.902
364.70 1.901
364.80 1.899
364.90 1.898
365.00 1.896
365.10 1.895
365.20 1.893
365.30 1.892
365.40 1.89
365.50 1.889
365.60 1.887
365.70 1.886
365.80 1.884
365.90 1.882
366.00 1.881
366.10 1.879
366.20 1.877
366.30 1.875
366.40 1.874
366.50 1.872
366.60 1.87
366.70 1.868
366.80 1.866
366.90 1.865
367.00 1.863
367.10 1.861
367.20 1.859
367.30 1.857
367.40 1.856
367.50 1.854
367.60 1.852
367.70 1.85
367.80 1.848
367.90 1.847
368.00 1.845
368.10 1.843
368.20 1.841
368.30 1.839
368.40 1.838
368.50 1.836
368.60 1.834
368.70 1.832
368.80 1.83
368.90 1.829
369.00 1.827
369.10 1.825
369.20 1.823
369.30 1.822
369.40 1.82
369.50 1.818
369.60 1.816
369.70 1.814
369.80 1.813
369.90 1.811
370.00 1.809
370.10 1.808
370.20 1.806
370.30 1.804
370.40 1.802
370.50 1.801
370.60 1.799
370.70 1.797
370.80 1.796
370.90 1.794
371.00 1.792
371.10 1.791
371.20 1.789
371.30 1.787
371.40 1.786
371.50 1.784
371.60 1.782
371.70 1.781
371.80 1.779
371.90 1.777
372.00 1.776
372.10 1.774
372.20 1.773
372.30 1.771
372.40 1.77
372.50 1.768
372.60 1.767
372.70 1.765
372.80 1.764
372.90 1.762
373.00 1.761
373.10 1.759
373.20 1.758
373.30 1.757
373.40 1.755
373.50 1.754
373.60 1.752
373.70 1.751
373.80 1.749
373.90 1.748
374.00 1.746
374.10 1.745
374.20 1.744
374.30 1.743
374.40 1.741
374.50 1.74
374.60 1.739
374.70 1.737
374.80 1.736
374.90 1.735
375.00 1.734
375.10 1.732
375.20 1.731
375.30 1.73
375.40 1.729
375.50 1.727
375.60 1.726
375.70 1.725
375.80 1.724
375.90 1.722
376.00 1.721
376.10 1.72
376.20 1.718
376.30 1.717
376.40 1.715
376.50 1.714
376.60 1.712
376.70 1.711
376.80 1.709
376.90 1.708
377.00 1.707
377.10 1.706
377.20 1.706
377.30 1.705
377.40 1.705
377.50 1.705
377.60 1.704
377.70 1.704
377.80 1.703
377.90 1.703
378.00 1.703
378.10 1.702
378.20 1.7
378.30 1.699
378.40 1.698
378.50 1.697
378.60 1.695
378.70 1.694
378.80 1.693
378.90 1.692
379.00 1.69
379.10 1.689
379.20 1.688
379.30 1.686
379.40 1.685
379.50 1.684
379.60 1.682
379.70 1.681
379.80 1.679
379.90 1.678
380.00 1.677
380.10 1.677
380.20 1.678
380.30 1.679
380.40 1.68
380.50 1.68
380.60 1.681
380.70 1.682
380.80 1.683
380.90 1.683
381.00 1.684
381.10 1.683
381.20 1.683
381.30 1.682
381.40 1.681
381.50 1.681
381.60 1.679
381.70 1.678
381.80 1.676
381.90 1.674
382.00 1.671
382.10 1.669
382.20 1.666
382.30 1.662
382.40 1.657
382.50 1.653
382.60 1.649
382.70 1.645
382.80 1.641
382.90 1.637
383.00 1.633
383.10 1.628
383.20 1.624
383.30 1.62
383.40 1.615
383.50 1.611
383.60 1.612
383.70 1.616
383.80 1.62
383.90 1.625
384.00 1.629
384.10 1.634
384.20 1.638
384.30 1.642
384.40 1.646
384.50 1.65
384.60 1.654
384.70 1.657
384.80 1.66
384.90 1.662
385.00 1.665
385.10 1.667
385.20 1.668
385.30 1.67
385.40 1.67
385.50 1.671
385.60 1.671
385.70 1.671
385.80 1.67
385.90 1.669
386.00 1.667
386.10 1.666
386.20 1.663
386.30 1.66
386.40 1.657
386.50 1.654
386.60 1.65
386.70 1.645
386.80 1.64
386.90 1.635
387.00 1.629
387.10 1.623
387.20 1.616
387.30 1.609
387.40 1.601
387.50 1.593
387.60 1.584
387.70 1.576
387.80 1.567
387.90 1.557
388.00 1.547
388.10 1.537
388.20 1.527
388.30 1.516
388.40 1.506
388.50 1.496
388.60 1.485
388.70 1.476
388.80 1.468
388.90 1.462
389.00 1.467
389.10 1.474
389.20 1.483
389.30 1.493
389.40 1.504
389.50 1.514
389.60 1.524
389.70 1.534
389.80 1.545
389.90 1.554
390.00 1.564
390.10 1.574
390.20 1.583
390.30 1.591
390.40 1.6
390.50 1.608
390.60 1.616
390.70 1.623
390.80 1.63
390.90 1.636
391.00 1.643
391.10 1.648
391.20 1.654
391.30 1.659
391.40 1.663
391.50 1.667
391.60 1.671
391.70 1.674
391.80 1.676
391.90 1.679
392.00 1.681
392.10 1.682
392.20 1.683
392.30 1.683
392.40 1.683
392.50 1.683
392.60 1.682
392.70 1.681
392.80 1.679
392.90 1.677
393.00 1.674
393.10 1.671
393.20 1.667
393.30 1.663
393.40 1.658
393.50 1.653
393.60 1.647
393.70 1.641
393.80 1.635
393.90 1.628
394.00 1.62
394.10 1.612
394.20 1.603
394.30 1.594
394.40 1.584
394.50 1.574
394.60 1.564
394.70 1.552
394.80 1.541
394.90 1.529
395.00 1.516
395.10 1.503
395.20 1.49
395.30 1.475
395.40 1.461
395.50 1.446
395.60 1.431
395.70 1.415
395.80 1.399
395.90 1.382
396.00 1.365
396.10 1.348
396.20 1.33
396.30 1.312
396.40 1.294
396.50 1.275
396.60 1.256
396.70 1.236
396.80 1.216
396.90 1.195
397.00 1.174
397.10 1.192
397.20 1.211
397.30 1.23
397.40 1.248
397.50 1.267
397.60 1.284
397.70 1.301
397.80 1.318
397.90 1.335
398.00 1.351
398.10 1.367
398.20 1.383
398.30 1.398
398.40 1.413
398.50 1.428
398.60 1.442
398.70 1.456
398.80 1.47
398.90 1.483
399.00 1.496
399.10 1.509
399.20 1.52
399.30 1.532
399.40 1.544
399.50 1.555
399.60 1.565
399.70 1.575
399.80 1.585
399.90 1.595
400.00 1.604
400.10 1.613
400.20 1.621
400.30 1.629
400.40 1.637
400.50 1.644
400.60 1.652
400.70 1.658
400.80 1.665
400.90 1.671
401.00 1.677
401.10 1.682
401.20 1.687
401.30 1.692
401.40 1.696
401.50 1.701
401.60 1.705
401.70 1.708
401.80 1.711
401.90 1.714
402.00 1.717
402.10 1.72
402.20 1.722
402.30 1.723
402.40 1.725
402.50 1.726
402.60 1.727
402.70 1.728
402.80 1.728
402.90 1.728
403.00 1.728
403.10 1.728
403.20 1.727
403.30 1.726
403.40 1.725
403.50 1.723
403.60 1.722
403.70 1.719
403.80 1.717
403.90 1.715
404.00 1.712
404.10 1.708
404.20 1.705
404.30 1.701
404.40 1.697
404.50 1.693
404.60 1.688
404.70 1.683
404.80 1.678
404.90 1.672
405.00 1.666
405.10 1.66
405.20 1.654
405.30 1.647
405.40 1.64
405.50 1.633
405.60 1.625
405.70 1.617
405.80 1.609
405.90 1.6
406.00 1.592
406.10 1.582
406.20 1.573
406.30 1.563
406.40 1.553
406.50 1.542
406.60 1.531
406.70 1.52
406.80 1.509
406.90 1.497
407.00 1.485
407.10 1.472
407.20 1.459
407.30 1.446
407.40 1.433
407.50 1.419
407.60 1.405
407.70 1.39
407.80 1.376
407.90 1.361
408.00 1.345
408.10 1.33
408.20 1.313
408.30 1.297
408.40 1.28
408.50 1.263
408.60 1.246
408.70 1.228
408.80 1.21
408.90 1.192
409.00 1.173
409.10 1.154
409.20 1.135
409.30 1.115
409.40 1.095
409.50 1.074
409.60 1.053
409.70 1.031
409.80 1.008
409.90 0.9842
410.00 0.9591
410.10 0.9405
410.20 0.9286
410.30 0.9483
410.40 0.97
410.50 0.9937
410.60 1.016
410.70 1.037
410.80 1.057
410.90 1.077
411.00 1.096
411.10 1.114
411.20 1.132
411.30 1.15
411.40 1.167
411.50 1.184
411.60 1.2
411.70 1.217
411.80 1.232
411.90 1.248
412.00 1.263
412.10 1.278
412.20 1.292
412.30 1.306
412.40 1.32
412.50 1.333
412.60 1.347
412.70 1.359
412.80 1.372
412.90 1.384
413.00 1.396
413.10 1.408
413.20 1.419
413.30 1.43
413.40 1.441
413.50 1.451
413.60 1.461
413.70 1.471
413.80 1.481
413.90 1.49
414.00 1.499
414.10 1.508
414.20 1.517
414.30 1.525
414.40 1.533
414.50 1.541
414.60 1.548
414.70 1.556
414.80 1.563
414.90 1.569
415.00 1.576
415.10 1.582
415.20 1.589
415.30 1.595
415.40 1.6
415.50 1.606
415.60 1.611
415.70 1.616
415.80 1.621
415.90 1.626
416.00 1.631
416.10 1.635
416.20 1.639
416.30 1.643
416.40 1.647
416.50 1.651
416.60 1.655
416.70 1.658
416.80 1.662
416.90 1.665
417.00 1.668
417.10 1.671
417.20 1.673
417.30 1.676
417.40 1.679
417.50 1.681
417.60 1.683
417.70 1.685
417.80 1.687
417.90 1.689
418.00 1.691
418.10 1.693
418.20 1.694
418.30 1.696
418.40 1.697
418.50 1.698
418.60 1.7
418.70 1.701
418.80 1.702
418.90 1.703
419.00 1.703
419.10 1.704
419.20 1.705
419.30 1.705
419.40 1.706
419.50 1.706
419.60 1.707
419.70 1.707
419.80 1.707
419.90 1.707
420.00 1.707
420.10 1.707
420.20 1.707
420.30 1.707
420.40 1.707
420.50 1.707
420.60 1.706
420.70 1.706
420.80 1.706
420.90 1.705
421.00 1.705
421.10 1.704
421.20 1.703
421.30 1.702
421.40 1.702
421.50 1.701
421.60 1.7
421.70 1.699
421.80 1.698
421.90 1.697
422.00 1.696
422.10 1.694
422.20 1.693
422.30 1.692
422.40 1.69
422.50 1.689
422.60 1.688
422.70 1.686
422.80 1.684
422.90 1.683
423.00 1.681
423.10 1.679
423.20 1.677
423.30 1.675
423.40 1.674
423.50 1.672
423.60 1.669
423.70 1.667
423.80 1.665
423.90 1.663
424.00 1.66
424.10 1.658
424.20 1.656
424.30 1.653
424.40 1.65
424.50 1.648
424.60 1.645
424.70 1.642
424.80 1.639
424.90 1.636
425.00 1.633
425.10 1.63
425.20 1.627
425.30 1.624
425.40 1.62
425.50 1.617
425.60 1.613
425.70 1.609
425.80 1.606
425.90 1.602
426.00 1.598
426.10 1.594
426.20 1.589
426.30 1.585
426.40 1.581
426.50 1.576
426.60 1.572
426.70 1.567
426.80 1.562
426.90 1.557
427.00 1.552
427.10 1.547
427.20 1.541
427.30 1.536
427.40 1.53
427.50 1.524
427.60 1.518
427.70 1.512
427.80 1.506
427.90 1.5
428.00 1.493
428.10 1.486
428.20 1.48
428.30 1.473
428.40 1.466
428.50 1.458
428.60 1.451
428.70 1.443
428.80 1.435
428.90 1.427
429.00 1.419
429.10 1.411
429.20 1.403
429.30 1.394
429.40 1.385
429.50 1.376
429.60 1.367
429.70 1.358
429.80 1.349
429.90 1.339
430.00 1.329
430.10 1.319
430.20 1.309
430.30 1.299
430.40 1.288
430.50 1.278
430.60 1.267
430.70 1.256
430.80 1.245
430.90 1.233
431.00 1.222
431.10 1.21
431.20 1.198
431.30 1.185
431.40 1.173
431.50 1.16
431.60 1.148
431.70 1.135
431.80 1.121
431.90 1.108
432.00 1.094
432.10 1.08
432.20 1.066
432.30 1.051
432.40 1.037
432.50 1.022
432.60 1.007
432.70 0.9912
432.80 0.9754
432.90 0.9593
433.00 0.9429
433.10 0.926
433.20 0.9086
433.30 0.8908
433.40 0.872
433.50 0.8524
433.60 0.8319
433.70 0.8086
433.80 0.782
433.90 0.7522
434.00 0.7012
434.10 0.7017
434.20 0.7537
434.30 0.7821
434.40 0.8073
434.50 0.8295
434.60 0.8488
434.70 0.8672
434.80 0.8848
434.90 0.9014
435.00 0.9175
435.10 0.9332
435.20 0.9482
435.30 0.963
435.40 0.9774
435.50 0.9913
435.60 1.005
435.70 1.019
435.80 1.032
435.90 1.045
436.00 1.057
436.10 1.069
436.20 1.082
436.30 1.093
436.40 1.105
436.50 1.116
436.60 1.127
436.70 1.138
436.80 1.149
436.90 1.159
437.00 1.169
437.10 1.179
437.20 1.189
437.30 1.198
437.40 1.208
437.50 1.217
437.60 1.225
437.70 1.234
437.80 1.243
437.90 1.251
438.00 1.259
438.10 1.267
438.20 1.275
438.30 1.282
438.40 1.289
438.50 1.296
438.60 1.303
438.70 1.31
438.80 1.317
438.90 1.323
439.00 1.329
439.10 1.335
439.20 1.341
439.30 1.347
439.40 1.353
439.50 1.358
439.60 1.363
439.70 1.368
439.80 1.373
439.90 1.378
440.00 1.383
440.10 1.387
440.20 1.391
440.30 1.396
440.40 1.4
440.50 1.404
440.60 1.407
440.70 1.411
440.80 1.414
440.90 1.418
441.00 1.421
441.10 1.424
441.20 1.427
441.30 1.43
441.40 1.432
441.50 1.435
441.60 1.437
441.70 1.44
441.80 1.442
441.90 1.444
442.00 1.446
442.10 1.448
442.20 1.45
442.30 1.452
442.40 1.454
442.50 1.456
442.60 1.457
442.70 1.459
442.80 1.46
442.90 1.461
443.00 1.463
443.10 1.464
443.20 1.465
443.30 1.466
443.40 1.467
443.50 1.468
443.60 1.469
443.70 1.47
443.80 1.47
443.90 1.471
444.00 1.472
444.10 1.472
444.20 1.473
444.30 1.473
444.40 1.474
444.50 1.474
444.60 1.475
444.70 1.475
444.80 1.475
444.90 1.475
445.00 1.476
445.10 1.476
445.20 1.476
445.30 1.476
445.40 1.476
445.50 1.476
445.60 1.476
445.70 1.476
445.80 1.476
445.90 1.476
446.00 1.476
446.10 1.476
446.20 1.476
446.30 1.476
446.40 1.475
446.50 1.475
446.60 1.475
446.70 1.475
446.80 1.474
446.90 1.474
447.00 1.474
447.10 1.473
447.20 1.473
447.30 1.473
447.40 1.472
447.50 1.472
447.60 1.472
447.70 1.471
447.80 1.471
447.90 1.47
448.00 1.47
448.10 1.469
448.20 1.469
448.30 1.468
448.40 1.468
448.50 1.467
448.60 1.466
448.70 1.466
448.80 1.465
448.90 1.465
449.00 1.464
449.10 1.463
449.20 1.463
449.30 1.462
449.40 1.462
449.50 1.461
449.60 1.46
449.70 1.46
449.80 1.459
449.90 1.458
450.00 1.457
450.10 1.457
450.20 1.456
450.30 1.455
450.40 1.455
450.50 1.454
450.60 1.453
450.70 1.452
450.80 1.451
450.90 1.451
451.00 1.45
451.10 1.449
451.20 1.448
451.30 1.448
451.40 1.447
451.50 1.446
451.60 1.445
451.70 1.444
451.80 1.443
451.90 1.443
452.00 1.442
452.10 1.441
452.20 1.44
452.30 1.439
452.40 1.438
452.50 1.437
452.60 1.436
452.70 1.436
452.80 1.435
452.90 1.434
453.00 1.433
453.10 1.432
453.20 1.431
453.30 1.43
453.40 1.429
453.50 1.428
453.60 1.427
453.70 1.427
