# Version 2.1 - nm, norm@500 to 1, cut digits, bergeron_5250_90.dat_5250
# Wavelength(nm)  Flambda(ergs/cm^s/s/nm)
300.00 0.4408
300.10 0.4412
300.20 0.4417
300.30 0.4422
300.40 0.4427
300.50 0.4432
300.60 0.4436
300.70 0.4441
300.80 0.4446
300.90 0.4451
301.00 0.4455
301.10 0.446
301.20 0.4465
301.30 0.4469
301.40 0.4474
301.50 0.4479
301.60 0.4484
301.70 0.4488
301.80 0.4493
301.90 0.4498
302.00 0.4502
302.10 0.4507
302.20 0.4512
302.30 0.4517
302.40 0.4521
302.50 0.4526
302.60 0.4531
302.70 0.4536
302.80 0.4541
302.90 0.4545
303.00 0.455
303.10 0.4555
303.20 0.4559
303.30 0.4564
303.40 0.4569
303.50 0.4574
303.60 0.4578
303.70 0.4583
303.80 0.4588
303.90 0.4592
304.00 0.4597
304.10 0.4602
304.20 0.4607
304.30 0.4611
304.40 0.4616
304.50 0.4621
304.60 0.4626
304.70 0.463
304.80 0.4635
304.90 0.464
305.00 0.4645
305.10 0.4649
305.20 0.4654
305.30 0.4659
305.40 0.4663
305.50 0.4668
305.60 0.4673
305.70 0.4677
305.80 0.4682
305.90 0.4687
306.00 0.4692
306.10 0.4696
306.20 0.4701
306.30 0.4706
306.40 0.4711
306.50 0.4715
306.60 0.472
306.70 0.4725
306.80 0.473
306.90 0.4734
307.00 0.4739
307.10 0.4744
307.20 0.4748
307.30 0.4753
307.40 0.4758
307.50 0.4763
307.60 0.4767
307.70 0.4772
307.80 0.4777
307.90 0.4781
308.00 0.4786
308.10 0.4791
308.20 0.4795
308.30 0.48
308.40 0.4805
308.50 0.481
308.60 0.4814
308.70 0.4819
308.80 0.4824
308.90 0.4829
309.00 0.4833
309.10 0.4838
309.20 0.4843
309.30 0.4847
309.40 0.4852
309.50 0.4857
309.60 0.4861
309.70 0.4866
309.80 0.4871
309.90 0.4875
310.00 0.488
310.10 0.4885
310.20 0.489
310.30 0.4894
310.40 0.4899
310.50 0.4904
310.60 0.4908
310.70 0.4913
310.80 0.4918
310.90 0.4923
311.00 0.4927
311.10 0.4932
311.20 0.4937
311.30 0.4941
311.40 0.4946
311.50 0.4951
311.60 0.4955
311.70 0.496
311.80 0.4965
311.90 0.4969
312.00 0.4974
312.10 0.4979
312.20 0.4983
312.30 0.4988
312.40 0.4993
312.50 0.4997
312.60 0.5002
312.70 0.5007
312.80 0.5012
312.90 0.5016
313.00 0.5021
313.10 0.5026
313.20 0.503
313.30 0.5035
313.40 0.504
313.50 0.5044
313.60 0.5049
313.70 0.5054
313.80 0.5058
313.90 0.5063
314.00 0.5068
314.10 0.5072
314.20 0.5077
314.30 0.5082
314.40 0.5086
314.50 0.5091
314.60 0.5096
314.70 0.51
314.80 0.5105
314.90 0.511
315.00 0.5114
315.10 0.5119
315.20 0.5124
315.30 0.5128
315.40 0.5133
315.50 0.5138
315.60 0.5142
315.70 0.5147
315.80 0.5152
315.90 0.5156
316.00 0.5161
316.10 0.5165
316.20 0.517
316.30 0.5175
316.40 0.518
316.50 0.5184
316.60 0.5189
316.70 0.5194
316.80 0.5198
316.90 0.5203
317.00 0.5208
317.10 0.5212
317.20 0.5217
317.30 0.5221
317.40 0.5226
317.50 0.5231
317.60 0.5235
317.70 0.524
317.80 0.5245
317.90 0.5249
318.00 0.5254
318.10 0.5258
318.20 0.5263
318.30 0.5268
318.40 0.5272
318.50 0.5277
318.60 0.5282
318.70 0.5286
318.80 0.5291
318.90 0.5296
319.00 0.53
319.10 0.5305
319.20 0.531
319.30 0.5314
319.40 0.5319
319.50 0.5323
319.60 0.5328
319.70 0.5332
319.80 0.5337
319.90 0.5342
320.00 0.5346
320.10 0.5351
320.20 0.5356
320.30 0.536
320.40 0.5365
320.50 0.5369
320.60 0.5374
320.70 0.5379
320.80 0.5383
320.90 0.5388
321.00 0.5393
321.10 0.5397
321.20 0.5402
321.30 0.5406
321.40 0.5411
321.50 0.5416
321.60 0.542
321.70 0.5425
321.80 0.5429
321.90 0.5434
322.00 0.5438
322.10 0.5443
322.20 0.5448
322.30 0.5452
322.40 0.5457
322.50 0.5461
322.60 0.5466
322.70 0.5471
322.80 0.5475
322.90 0.548
323.00 0.5484
323.10 0.5489
323.20 0.5494
323.30 0.5498
323.40 0.5503
323.50 0.5507
323.60 0.5512
323.70 0.5516
323.80 0.5521
323.90 0.5525
324.00 0.553
324.10 0.5534
324.20 0.5539
324.30 0.5544
324.40 0.5548
324.50 0.5553
324.60 0.5557
324.70 0.5562
324.80 0.5567
324.90 0.5571
325.00 0.5576
325.10 0.558
325.20 0.5585
325.30 0.5589
325.40 0.5594
325.50 0.5598
325.60 0.5603
325.70 0.5607
325.80 0.5612
325.90 0.5617
326.00 0.5621
326.10 0.5626
326.20 0.563
326.30 0.5635
326.40 0.5639
326.50 0.5644
326.60 0.5648
326.70 0.5653
326.80 0.5657
326.90 0.5662
327.00 0.5667
327.10 0.5671
327.20 0.5676
327.30 0.568
327.40 0.5685
327.50 0.5689
327.60 0.5694
327.70 0.5698
327.80 0.5703
327.90 0.5707
328.00 0.5712
328.10 0.5716
328.20 0.5721
328.30 0.5725
328.40 0.573
328.50 0.5734
328.60 0.5739
328.70 0.5743
328.80 0.5748
328.90 0.5752
329.00 0.5757
329.10 0.5761
329.20 0.5766
329.30 0.577
329.40 0.5775
329.50 0.5779
329.60 0.5784
329.70 0.5788
329.80 0.5793
329.90 0.5797
330.00 0.5802
330.10 0.5806
330.20 0.5811
330.30 0.5815
330.40 0.582
330.50 0.5824
330.60 0.5829
330.70 0.5833
330.80 0.5838
330.90 0.5842
331.00 0.5847
331.10 0.5851
331.20 0.5855
331.30 0.586
331.40 0.5864
331.50 0.5869
331.60 0.5873
331.70 0.5878
331.80 0.5882
331.90 0.5886
332.00 0.5891
332.10 0.5895
332.20 0.59
332.30 0.5904
332.40 0.5909
332.50 0.5913
332.60 0.5918
332.70 0.5922
332.80 0.5927
332.90 0.5931
333.00 0.5936
333.10 0.594
333.20 0.5944
333.30 0.5949
333.40 0.5953
333.50 0.5958
333.60 0.5962
333.70 0.5967
333.80 0.5971
333.90 0.5975
334.00 0.598
334.10 0.5984
334.20 0.5989
334.30 0.5993
334.40 0.5998
334.50 0.6002
334.60 0.6006
334.70 0.6011
334.80 0.6015
334.90 0.602
335.00 0.6024
335.10 0.6028
335.20 0.6033
335.30 0.6037
335.40 0.6042
335.50 0.6046
335.60 0.605
335.70 0.6055
335.80 0.6059
335.90 0.6063
336.00 0.6068
336.10 0.6072
336.20 0.6077
336.30 0.6081
336.40 0.6085
336.50 0.609
336.60 0.6094
336.70 0.6099
336.80 0.6103
336.90 0.6107
337.00 0.6112
337.10 0.6116
337.20 0.6121
337.30 0.6125
337.40 0.6129
337.50 0.6134
337.60 0.6138
337.70 0.6142
337.80 0.6147
337.90 0.6151
338.00 0.6155
338.10 0.616
338.20 0.6164
338.30 0.6168
338.40 0.6173
338.50 0.6177
338.60 0.6182
338.70 0.6186
338.80 0.619
338.90 0.6195
339.00 0.6199
339.10 0.6203
339.20 0.6208
339.30 0.6212
339.40 0.6216
339.50 0.6221
339.60 0.6225
339.70 0.6229
339.80 0.6233
339.90 0.6238
340.00 0.6242
340.10 0.6246
340.20 0.6251
340.30 0.6255
340.40 0.6259
340.50 0.6264
340.60 0.6268
340.70 0.6272
340.80 0.6277
340.90 0.6281
341.00 0.6285
341.10 0.629
341.20 0.6294
341.30 0.6298
341.40 0.6302
341.50 0.6307
341.60 0.6311
341.70 0.6315
341.80 0.6319
341.90 0.6324
342.00 0.6328
342.10 0.6332
342.20 0.6337
342.30 0.6341
342.40 0.6345
342.50 0.6349
342.60 0.6354
342.70 0.6358
342.80 0.6362
342.90 0.6367
343.00 0.6371
343.10 0.6375
343.20 0.6379
343.30 0.6384
343.40 0.6388
343.50 0.6392
343.60 0.6396
343.70 0.64
343.80 0.6405
343.90 0.6409
344.00 0.6413
344.10 0.6417
344.20 0.6422
344.30 0.6426
344.40 0.643
344.50 0.6435
344.60 0.6439
344.70 0.6443
344.80 0.6447
344.90 0.6452
345.00 0.6456
345.10 0.646
345.20 0.6464
345.30 0.6468
345.40 0.6473
345.50 0.6477
345.60 0.6481
345.70 0.6485
345.80 0.6489
345.90 0.6494
346.00 0.6498
346.10 0.6502
346.20 0.6506
346.30 0.6511
346.40 0.6515
346.50 0.6519
346.60 0.6523
346.70 0.6527
346.80 0.6532
346.90 0.6536
347.00 0.654
347.10 0.6544
347.20 0.6548
347.30 0.6552
347.40 0.6557
347.50 0.6561
347.60 0.6565
347.70 0.6569
347.80 0.6573
347.90 0.6577
348.00 0.6581
348.10 0.6586
348.20 0.659
348.30 0.6594
348.40 0.6598
348.50 0.6602
348.60 0.6606
348.70 0.6611
348.80 0.6615
348.90 0.6619
349.00 0.6623
349.10 0.6627
349.20 0.6631
349.30 0.6635
349.40 0.6639
349.50 0.6644
349.60 0.6648
349.70 0.6652
349.80 0.6656
349.90 0.666
350.00 0.6664
350.10 0.6668
350.20 0.6672
350.30 0.6676
350.40 0.6681
350.50 0.6685
350.60 0.6689
350.70 0.6693
350.80 0.6697
350.90 0.6701
351.00 0.6705
351.10 0.6709
351.20 0.6714
351.30 0.6718
351.40 0.6722
351.50 0.6726
351.60 0.673
351.70 0.6734
351.80 0.6738
351.90 0.6742
352.00 0.6746
352.10 0.675
352.20 0.6754
352.30 0.6758
352.40 0.6762
352.50 0.6766
352.60 0.6771
352.70 0.6775
352.80 0.6779
352.90 0.6783
353.00 0.6787
353.10 0.6791
353.20 0.6795
353.30 0.6799
353.40 0.6803
353.50 0.6807
353.60 0.6811
353.70 0.6815
353.80 0.6819
353.90 0.6823
354.00 0.6827
354.10 0.6831
354.20 0.6835
354.30 0.6839
354.40 0.6843
354.50 0.6847
354.60 0.6851
354.70 0.6855
354.80 0.6859
354.90 0.6863
355.00 0.6868
355.10 0.6872
355.20 0.6876
355.30 0.688
355.40 0.6884
355.50 0.6888
355.60 0.6892
355.70 0.6896
355.80 0.69
355.90 0.6903
356.00 0.6907
356.10 0.6911
356.20 0.6915
356.30 0.692
356.40 0.6924
356.50 0.6928
356.60 0.6932
356.70 0.6936
356.80 0.6939
356.90 0.6943
357.00 0.6947
357.10 0.6951
357.20 0.6955
357.30 0.6959
357.40 0.6963
357.50 0.6967
357.60 0.6971
357.70 0.6975
357.80 0.6979
357.90 0.6983
358.00 0.6987
358.10 0.6991
358.20 0.6995
358.30 0.6999
358.40 0.7003
358.50 0.7007
358.60 0.7011
358.70 0.7015
358.80 0.7018
358.90 0.7022
359.00 0.7026
359.10 0.703
359.20 0.7034
359.30 0.7038
359.40 0.7042
359.50 0.7046
359.60 0.705
359.70 0.7054
359.80 0.7058
359.90 0.7061
360.00 0.7065
360.10 0.7069
360.20 0.7073
360.30 0.7077
360.40 0.7081
360.50 0.7085
360.60 0.7089
360.70 0.7093
360.80 0.7096
360.90 0.71
361.00 0.7104
361.10 0.7108
361.20 0.7112
361.30 0.7116
361.40 0.712
361.50 0.7123
361.60 0.7127
361.70 0.7131
361.80 0.7135
361.90 0.7139
362.00 0.7143
362.10 0.7146
362.20 0.715
362.30 0.7154
362.40 0.7158
362.50 0.7162
362.60 0.7166
362.70 0.7169
362.80 0.7173
362.90 0.7177
363.00 0.7181
363.10 0.7185
363.20 0.7188
363.30 0.7192
363.40 0.7196
363.50 0.72
363.60 0.7204
363.70 0.7208
363.80 0.7211
363.90 0.7215
364.00 0.7219
364.10 0.7223
364.20 0.7226
364.30 0.723
364.40 0.7234
364.50 0.7238
364.60 0.7242
364.70 0.7246
364.80 0.7249
364.90 0.7253
365.00 0.7257
365.10 0.7261
365.20 0.7264
365.30 0.7268
365.40 0.7272
365.50 0.7276
365.60 0.7279
365.70 0.7283
365.80 0.7287
365.90 0.7291
366.00 0.7294
366.10 0.7298
366.20 0.7302
366.30 0.7306
366.40 0.731
366.50 0.7313
366.60 0.7317
366.70 0.7321
366.80 0.7325
366.90 0.7328
367.00 0.7332
367.10 0.7336
367.20 0.734
367.30 0.7343
367.40 0.7347
367.50 0.7351
367.60 0.7354
367.70 0.7358
367.80 0.7362
367.90 0.7366
368.00 0.7369
368.10 0.7373
368.20 0.7377
368.30 0.738
368.40 0.7384
368.50 0.7388
368.60 0.7392
368.70 0.7395
368.80 0.7399
368.90 0.7403
369.00 0.7406
369.10 0.741
369.20 0.7414
369.30 0.7417
369.40 0.7421
369.50 0.7425
369.60 0.7428
369.70 0.7432
369.80 0.7436
369.90 0.7439
370.00 0.7443
370.10 0.7446
370.20 0.745
370.30 0.7454
370.40 0.7457
370.50 0.7461
370.60 0.7465
370.70 0.7468
370.80 0.7472
370.90 0.7476
371.00 0.7479
371.10 0.7483
371.20 0.7487
371.30 0.749
371.40 0.7494
371.50 0.7497
371.60 0.7501
371.70 0.7505
371.80 0.7508
371.90 0.7512
372.00 0.7515
372.10 0.7519
372.20 0.7523
372.30 0.7526
372.40 0.753
372.50 0.7533
372.60 0.7537
372.70 0.7541
372.80 0.7544
372.90 0.7548
373.00 0.7551
373.10 0.7555
373.20 0.7559
373.30 0.7562
373.40 0.7566
373.50 0.7569
373.60 0.7573
373.70 0.7576
373.80 0.758
373.90 0.7583
374.00 0.7587
374.10 0.7591
374.20 0.7594
374.30 0.7598
374.40 0.7601
374.50 0.7605
374.60 0.7608
374.70 0.7612
374.80 0.7616
374.90 0.7619
375.00 0.7623
375.10 0.7626
375.20 0.763
375.30 0.7633
375.40 0.7637
375.50 0.764
375.60 0.7644
375.70 0.7647
375.80 0.7651
375.90 0.7654
376.00 0.7658
376.10 0.7661
376.20 0.7665
376.30 0.7668
376.40 0.7672
376.50 0.7675
376.60 0.7679
376.70 0.7682
376.80 0.7686
376.90 0.7689
377.00 0.7693
377.10 0.7696
377.20 0.77
377.30 0.7703
377.40 0.7706
377.50 0.771
377.60 0.7713
377.70 0.7717
377.80 0.772
377.90 0.7724
378.00 0.7727
378.10 0.7731
378.20 0.7734
378.30 0.7737
378.40 0.7741
378.50 0.7744
378.60 0.7748
378.70 0.7751
378.80 0.7755
378.90 0.7758
379.00 0.7762
379.10 0.7765
379.20 0.7768
379.30 0.7772
379.40 0.7775
379.50 0.7779
379.60 0.7782
379.70 0.7785
379.80 0.7789
379.90 0.7792
380.00 0.7796
380.10 0.7799
380.20 0.7802
380.30 0.7806
380.40 0.7809
380.50 0.7813
380.60 0.7816
380.70 0.7819
380.80 0.7823
380.90 0.7826
381.00 0.783
381.10 0.7833
381.20 0.7836
381.30 0.784
381.40 0.7843
381.50 0.7847
381.60 0.785
381.70 0.7853
381.80 0.7856
381.90 0.786
382.00 0.7863
382.10 0.7866
382.20 0.787
382.30 0.7873
382.40 0.7876
382.50 0.788
382.60 0.7883
382.70 0.7886
382.80 0.789
382.90 0.7893
383.00 0.7896
383.10 0.79
383.20 0.7903
383.30 0.7906
383.40 0.791
383.50 0.7913
383.60 0.7916
383.70 0.792
383.80 0.7923
383.90 0.7926
384.00 0.793
384.10 0.7933
384.20 0.7936
384.30 0.7939
384.40 0.7942
384.50 0.7946
384.60 0.7949
384.70 0.7953
384.80 0.7956
384.90 0.7959
385.00 0.7962
385.10 0.7966
385.20 0.7969
385.30 0.7972
385.40 0.7975
385.50 0.7978
385.60 0.7982
385.70 0.7985
385.80 0.7988
385.90 0.7991
386.00 0.7995
386.10 0.7998
386.20 0.8001
386.30 0.8005
386.40 0.8008
386.50 0.8011
386.60 0.8014
386.70 0.8017
386.80 0.802
386.90 0.8024
387.00 0.8027
387.10 0.803
387.20 0.8033
387.30 0.8037
387.40 0.804
387.50 0.8043
387.60 0.8046
387.70 0.805
387.80 0.8053
387.90 0.8056
388.00 0.8059
388.10 0.8062
388.20 0.8065
388.30 0.8069
388.40 0.8072
388.50 0.8075
388.60 0.8078
388.70 0.8081
388.80 0.8084
388.90 0.8087
389.00 0.8091
389.10 0.8094
389.20 0.8097
389.30 0.81
389.40 0.8103
389.50 0.8107
389.60 0.811
389.70 0.8113
389.80 0.8116
389.90 0.8119
390.00 0.8122
390.10 0.8125
390.20 0.8128
390.30 0.8132
390.40 0.8135
390.50 0.8138
390.60 0.8141
390.70 0.8144
390.80 0.8147
390.90 0.815
391.00 0.8154
391.10 0.8157
391.20 0.816
391.30 0.8162
391.40 0.8166
391.50 0.8169
391.60 0.8172
391.70 0.8175
391.80 0.8178
391.90 0.8181
392.00 0.8184
392.10 0.8188
392.20 0.819
392.30 0.8193
392.40 0.8196
392.50 0.82
392.60 0.8203
392.70 0.8206
392.80 0.8209
392.90 0.8212
393.00 0.8215
393.10 0.8218
393.20 0.8221
393.30 0.8224
393.40 0.8227
393.50 0.823
393.60 0.8233
393.70 0.8236
393.80 0.8239
393.90 0.8242
394.00 0.8245
394.10 0.8248
394.20 0.8251
394.30 0.8254
394.40 0.8257
394.50 0.826
394.60 0.8263
394.70 0.8267
394.80 0.827
394.90 0.8272
395.00 0.8275
395.10 0.8278
395.20 0.8281
395.30 0.8284
395.40 0.8287
395.50 0.829
395.60 0.8293
395.70 0.8296
395.80 0.8299
395.90 0.8302
396.00 0.8305
396.10 0.8308
396.20 0.8311
396.30 0.8314
396.40 0.8317
396.50 0.832
396.60 0.8323
396.70 0.8326
396.80 0.8329
396.90 0.8332
397.00 0.8334
397.10 0.8337
397.20 0.8341
397.30 0.8344
397.40 0.8347
397.50 0.8349
397.60 0.8352
397.70 0.8355
397.80 0.8358
397.90 0.8361
398.00 0.8364
398.10 0.8367
398.20 0.837
398.30 0.8373
398.40 0.8376
398.50 0.8379
398.60 0.8381
398.70 0.8384
398.80 0.8387
398.90 0.839
399.00 0.8393
399.10 0.8396
399.20 0.8399
399.30 0.8402
399.40 0.8405
399.50 0.8408
399.60 0.841
399.70 0.8413
399.80 0.8416
399.90 0.8419
400.00 0.8422
400.10 0.8425
400.20 0.8428
400.30 0.8431
400.40 0.8433
400.50 0.8436
400.60 0.8439
400.70 0.8442
400.80 0.8445
400.90 0.8447
401.00 0.845
401.10 0.8453
401.20 0.8456
401.30 0.8459
401.40 0.8462
401.50 0.8464
401.60 0.8467
401.70 0.847
401.80 0.8473
401.90 0.8476
402.00 0.8479
402.10 0.8481
402.20 0.8484
402.30 0.8487
402.40 0.849
402.50 0.8493
402.60 0.8495
402.70 0.8498
402.80 0.8501
402.90 0.8504
403.00 0.8506
403.10 0.8509
403.20 0.8512
403.30 0.8515
403.40 0.8518
403.50 0.852
403.60 0.8523
403.70 0.8526
403.80 0.8529
403.90 0.8531
404.00 0.8534
404.10 0.8537
404.20 0.854
404.30 0.8542
404.40 0.8545
404.50 0.8548
404.60 0.8551
404.70 0.8553
404.80 0.8556
404.90 0.8559
405.00 0.8562
405.10 0.8564
405.20 0.8567
405.30 0.857
405.40 0.8572
405.50 0.8575
405.60 0.8578
405.70 0.8581
405.80 0.8583
405.90 0.8586
406.00 0.8589
406.10 0.8591
406.20 0.8594
406.30 0.8597
406.40 0.8599
406.50 0.8602
406.60 0.8605
406.70 0.8608
406.80 0.861
406.90 0.8613
407.00 0.8616
407.10 0.8618
407.20 0.8621
407.30 0.8623
407.40 0.8626
407.50 0.8629
407.60 0.8631
407.70 0.8634
407.80 0.8637
407.90 0.8639
408.00 0.8642
408.10 0.8645
408.20 0.8647
408.30 0.865
408.40 0.8652
408.50 0.8655
408.60 0.8658
408.70 0.866
408.80 0.8663
408.90 0.8665
409.00 0.8668
409.10 0.8671
409.20 0.8673
409.30 0.8676
409.40 0.8678
409.50 0.8681
409.60 0.8683
409.70 0.8686
409.80 0.8688
409.90 0.869
410.00 0.8693
410.10 0.8695
410.20 0.8697
410.30 0.87
410.40 0.8703
410.50 0.8706
410.60 0.8709
410.70 0.8712
410.80 0.8714
410.90 0.8717
411.00 0.872
411.10 0.8722
411.20 0.8725
411.30 0.8727
411.40 0.873
411.50 0.8733
411.60 0.8735
411.70 0.8738
411.80 0.874
411.90 0.8743
412.00 0.8745
412.10 0.8748
412.20 0.875
412.30 0.8753
412.40 0.8756
412.50 0.8758
412.60 0.8761
412.70 0.8763
412.80 0.8766
412.90 0.8768
413.00 0.8771
413.10 0.8773
413.20 0.8776
413.30 0.8778
413.40 0.8781
413.50 0.8783
413.60 0.8786
413.70 0.8788
413.80 0.8791
413.90 0.8793
414.00 0.8796
414.10 0.8798
414.20 0.8801
414.30 0.8803
414.40 0.8806
414.50 0.8808
414.60 0.8811
414.70 0.8813
414.80 0.8815
414.90 0.8818
415.00 0.8821
415.10 0.8823
415.20 0.8825
415.30 0.8828
415.40 0.883
415.50 0.8833
415.60 0.8835
415.70 0.8838
415.80 0.884
415.90 0.8842
416.00 0.8845
416.10 0.8847
416.20 0.885
416.30 0.8852
416.40 0.8855
416.50 0.8857
416.60 0.886
416.70 0.8862
416.80 0.8864
416.90 0.8867
417.00 0.8869
417.10 0.8871
417.20 0.8874
417.30 0.8876
417.40 0.8879
417.50 0.8881
417.60 0.8883
417.70 0.8886
417.80 0.8888
417.90 0.8891
418.00 0.8893
418.10 0.8895
418.20 0.8898
418.30 0.89
418.40 0.8902
418.50 0.8905
418.60 0.8907
418.70 0.891
418.80 0.8912
418.90 0.8914
419.00 0.8917
419.10 0.8919
419.20 0.8921
419.30 0.8923
419.40 0.8926
419.50 0.8928
419.60 0.8931
419.70 0.8933
419.80 0.8935
419.90 0.8938
420.00 0.894
420.10 0.8942
420.20 0.8944
420.30 0.8947
420.40 0.8949
420.50 0.8951
420.60 0.8954
420.70 0.8956
420.80 0.8958
420.90 0.8961
421.00 0.8963
421.10 0.8965
421.20 0.8968
421.30 0.897
421.40 0.8972
421.50 0.8974
421.60 0.8977
421.70 0.8979
421.80 0.8981
421.90 0.8983
422.00 0.8986
422.10 0.8988
422.20 0.899
422.30 0.8993
422.40 0.8995
422.50 0.8997
422.60 0.8999
422.70 0.9001
422.80 0.9004
422.90 0.9006
423.00 0.9008
423.10 0.9011
423.20 0.9013
423.30 0.9015
423.40 0.9017
423.50 0.9019
423.60 0.9022
423.70 0.9024
423.80 0.9026
423.90 0.9028
424.00 0.903
424.10 0.9032
424.20 0.9035
424.30 0.9037
424.40 0.9039
424.50 0.9041
424.60 0.9044
424.70 0.9046
424.80 0.9048
424.90 0.905
425.00 0.9052
425.10 0.9054
425.20 0.9057
425.30 0.9059
425.40 0.9061
425.50 0.9063
425.60 0.9065
425.70 0.9068
425.80 0.907
425.90 0.9072
426.00 0.9074
426.10 0.9076
426.20 0.9078
426.30 0.908
426.40 0.9083
426.50 0.9085
426.60 0.9087
426.70 0.9089
426.80 0.9091
426.90 0.9093
427.00 0.9096
427.10 0.9098
427.20 0.91
427.30 0.9102
427.40 0.9104
427.50 0.9106
427.60 0.9108
427.70 0.911
427.80 0.9112
427.90 0.9114
428.00 0.9117
428.10 0.9119
428.20 0.9121
428.30 0.9123
428.40 0.9125
428.50 0.9127
428.60 0.9129
428.70 0.9131
428.80 0.9133
428.90 0.9135
429.00 0.9138
429.10 0.9139
429.20 0.9142
429.30 0.9144
429.40 0.9146
429.50 0.9148
429.60 0.915
429.70 0.9152
429.80 0.9154
429.90 0.9156
430.00 0.9158
430.10 0.916
430.20 0.9162
430.30 0.9164
430.40 0.9166
430.50 0.9168
430.60 0.917
430.70 0.9172
430.80 0.9174
430.90 0.9176
431.00 0.9178
431.10 0.918
431.20 0.9182
431.30 0.9184
431.40 0.9186
431.50 0.9188
431.60 0.919
431.70 0.9192
431.80 0.9194
431.90 0.9196
432.00 0.9198
432.10 0.9199
432.20 0.9201
432.30 0.9203
432.40 0.9205
432.50 0.9207
432.60 0.9209
432.70 0.921
432.80 0.9212
432.90 0.9214
433.00 0.9216
433.10 0.9217
433.20 0.9219
433.30 0.922
433.40 0.9221
433.50 0.9222
433.60 0.9223
433.70 0.9224
433.80 0.9225
433.90 0.9226
434.00 0.9226
434.10 0.9228
434.20 0.9232
434.30 0.9235
434.40 0.9238
434.50 0.9241
434.60 0.9244
434.70 0.9247
434.80 0.9249
434.90 0.9252
435.00 0.9254
435.10 0.9256
435.20 0.9259
435.30 0.9261
435.40 0.9263
435.50 0.9265
435.60 0.9267
435.70 0.9269
435.80 0.9271
435.90 0.9273
436.00 0.9275
436.10 0.9277
436.20 0.9279
436.30 0.9281
436.40 0.9283
436.50 0.9285
436.60 0.9287
436.70 0.9289
436.80 0.9291
436.90 0.9293
437.00 0.9295
437.10 0.9297
437.20 0.9299
437.30 0.9301
437.40 0.9303
437.50 0.9305
437.60 0.9306
437.70 0.9308
437.80 0.931
437.90 0.9312
438.00 0.9314
438.10 0.9316
438.20 0.9318
438.30 0.9319
438.40 0.9321
438.50 0.9323
438.60 0.9325
438.70 0.9326
438.80 0.9328
438.90 0.933
439.00 0.9332
439.10 0.9334
439.20 0.9336
439.30 0.9338
439.40 0.9339
439.50 0.9341
439.60 0.9343
439.70 0.9345
439.80 0.9347
439.90 0.9348
440.00 0.935
440.10 0.9352
440.20 0.9354
440.30 0.9356
440.40 0.9357
440.50 0.9359
440.60 0.9361
440.70 0.9363
440.80 0.9364
440.90 0.9366
441.00 0.9368
441.10 0.937
441.20 0.9372
441.30 0.9373
441.40 0.9375
441.50 0.9377
441.60 0.9379
441.70 0.938
441.80 0.9382
441.90 0.9384
442.00 0.9386
442.10 0.9387
442.20 0.9389
442.30 0.9391
442.40 0.9393
442.50 0.9394
442.60 0.9396
442.70 0.9398
442.80 0.94
442.90 0.9401
443.00 0.9403
