# Version 2.1 - nm, norm@500 to 1, cut digits, bergeron_4500_95.dat_4500
# Wavelength(nm)  Flambda(ergs/cm^s/s/nm)
300.00 0.2899
300.10 0.2903
300.20 0.2907
300.30 0.2911
300.40 0.2915
300.50 0.2919
300.60 0.2924
300.70 0.2928
300.80 0.2932
300.90 0.2936
301.00 0.294
301.10 0.2944
301.20 0.2948
301.30 0.2952
301.40 0.2957
301.50 0.2961
301.60 0.2965
301.70 0.2969
301.80 0.2973
301.90 0.2977
302.00 0.2981
302.10 0.2985
302.20 0.299
302.30 0.2994
302.40 0.2998
302.50 0.3002
302.60 0.3006
302.70 0.3011
302.80 0.3015
302.90 0.3019
303.00 0.3023
303.10 0.3027
303.20 0.3031
303.30 0.3036
303.40 0.304
303.50 0.3044
303.60 0.3048
303.70 0.3052
303.80 0.3056
303.90 0.306
304.00 0.3065
304.10 0.3069
304.20 0.3073
304.30 0.3077
304.40 0.3082
304.50 0.3086
304.60 0.309
304.70 0.3094
304.80 0.3098
304.90 0.3103
305.00 0.3107
305.10 0.3111
305.20 0.3115
305.30 0.3119
305.40 0.3124
305.50 0.3128
305.60 0.3132
305.70 0.3136
305.80 0.314
305.90 0.3144
306.00 0.3149
306.10 0.3153
306.20 0.3157
306.30 0.3161
306.40 0.3166
306.50 0.317
306.60 0.3174
306.70 0.3178
306.80 0.3183
306.90 0.3187
307.00 0.3191
307.10 0.3195
307.20 0.32
307.30 0.3204
307.40 0.3208
307.50 0.3212
307.60 0.3216
307.70 0.3221
307.80 0.3225
307.90 0.3229
308.00 0.3233
308.10 0.3238
308.20 0.3242
308.30 0.3246
308.40 0.325
308.50 0.3255
308.60 0.3259
308.70 0.3263
308.80 0.3268
308.90 0.3272
309.00 0.3276
309.10 0.328
309.20 0.3285
309.30 0.3289
309.40 0.3293
309.50 0.3297
309.60 0.3302
309.70 0.3306
309.80 0.331
309.90 0.3314
310.00 0.3319
310.10 0.3323
310.20 0.3327
310.30 0.3331
310.40 0.3336
310.50 0.334
310.60 0.3344
310.70 0.3349
310.80 0.3353
310.90 0.3357
311.00 0.3362
311.10 0.3366
311.20 0.337
311.30 0.3375
311.40 0.3379
311.50 0.3383
311.60 0.3387
311.70 0.3392
311.80 0.3396
311.90 0.34
312.00 0.3404
312.10 0.3408
312.20 0.3413
312.30 0.3417
312.40 0.3421
312.50 0.3426
312.60 0.343
312.70 0.3434
312.80 0.3439
312.90 0.3443
313.00 0.3447
313.10 0.3452
313.20 0.3456
313.30 0.346
313.40 0.3465
313.50 0.3469
313.60 0.3473
313.70 0.3477
313.80 0.3482
313.90 0.3486
314.00 0.349
314.10 0.3495
314.20 0.3499
314.30 0.3503
314.40 0.3508
314.50 0.3512
314.60 0.3517
314.70 0.3521
314.80 0.3525
314.90 0.353
315.00 0.3534
315.10 0.3538
315.20 0.3543
315.30 0.3547
315.40 0.3551
315.50 0.3556
315.60 0.356
315.70 0.3564
315.80 0.3568
315.90 0.3573
316.00 0.3577
316.10 0.3581
316.20 0.3586
316.30 0.359
316.40 0.3595
316.50 0.3599
316.60 0.3603
316.70 0.3608
316.80 0.3612
316.90 0.3616
317.00 0.3621
317.10 0.3625
317.20 0.363
317.30 0.3634
317.40 0.3638
317.50 0.3643
317.60 0.3647
317.70 0.3651
317.80 0.3655
317.90 0.366
318.00 0.3664
318.10 0.3668
318.20 0.3673
318.30 0.3677
318.40 0.3682
318.50 0.3686
318.60 0.3691
318.70 0.3695
318.80 0.3699
318.90 0.3704
319.00 0.3708
319.10 0.3712
319.20 0.3717
319.30 0.3721
319.40 0.3725
319.50 0.373
319.60 0.3734
319.70 0.3738
319.80 0.3743
319.90 0.3747
320.00 0.3752
320.10 0.3756
320.20 0.376
320.30 0.3765
320.40 0.3769
320.50 0.3774
320.60 0.3778
320.70 0.3782
320.80 0.3787
320.90 0.3791
321.00 0.3796
321.10 0.38
321.20 0.3804
321.30 0.3809
321.40 0.3813
321.50 0.3818
321.60 0.3822
321.70 0.3826
321.80 0.3831
321.90 0.3835
322.00 0.3839
322.10 0.3844
322.20 0.3848
322.30 0.3853
322.40 0.3857
322.50 0.3862
322.60 0.3866
322.70 0.387
322.80 0.3875
322.90 0.3879
323.00 0.3884
323.10 0.3888
323.20 0.3892
323.30 0.3897
323.40 0.3901
323.50 0.3906
323.60 0.391
323.70 0.3914
323.80 0.3919
323.90 0.3923
324.00 0.3927
324.10 0.3932
324.20 0.3936
324.30 0.3941
324.40 0.3945
324.50 0.395
324.60 0.3954
324.70 0.3959
324.80 0.3963
324.90 0.3967
325.00 0.3972
325.10 0.3976
325.20 0.3981
325.30 0.3985
325.40 0.399
325.50 0.3994
325.60 0.3998
325.70 0.4003
325.80 0.4007
325.90 0.4011
326.00 0.4016
326.10 0.402
326.20 0.4025
326.30 0.4029
326.40 0.4034
326.50 0.4038
326.60 0.4043
326.70 0.4047
326.80 0.4052
326.90 0.4056
327.00 0.406
327.10 0.4065
327.20 0.4069
327.30 0.4074
327.40 0.4078
327.50 0.4083
327.60 0.4087
327.70 0.4091
327.80 0.4096
327.90 0.41
328.00 0.4105
328.10 0.4109
328.20 0.4113
328.30 0.4118
328.40 0.4122
328.50 0.4127
328.60 0.4131
328.70 0.4136
328.80 0.414
328.90 0.4145
329.00 0.4149
329.10 0.4154
329.20 0.4158
329.30 0.4162
329.40 0.4167
329.50 0.4171
329.60 0.4176
329.70 0.418
329.80 0.4184
329.90 0.4189
330.00 0.4193
330.10 0.4198
330.20 0.4202
330.30 0.4207
330.40 0.4211
330.50 0.4216
330.60 0.422
330.70 0.4225
330.80 0.4229
330.90 0.4234
331.00 0.4238
331.10 0.4242
331.20 0.4247
331.30 0.4251
331.40 0.4256
331.50 0.426
331.60 0.4265
331.70 0.4269
331.80 0.4273
331.90 0.4278
332.00 0.4282
332.10 0.4287
332.20 0.4291
332.30 0.4296
332.40 0.43
332.50 0.4305
332.60 0.4309
332.70 0.4314
332.80 0.4318
332.90 0.4323
333.00 0.4327
333.10 0.4332
333.20 0.4336
333.30 0.434
333.40 0.4345
333.50 0.4349
333.60 0.4354
333.70 0.4358
333.80 0.4363
333.90 0.4367
334.00 0.4371
334.10 0.4376
334.20 0.438
334.30 0.4385
334.40 0.4389
334.50 0.4394
334.60 0.4398
334.70 0.4403
334.80 0.4407
334.90 0.4412
335.00 0.4416
335.10 0.4421
335.20 0.4425
335.30 0.443
335.40 0.4434
335.50 0.4439
335.60 0.4443
335.70 0.4447
335.80 0.4452
335.90 0.4456
336.00 0.4461
336.10 0.4465
336.20 0.447
336.30 0.4474
336.40 0.4479
336.50 0.4483
336.60 0.4488
336.70 0.4492
336.80 0.4497
336.90 0.4501
337.00 0.4506
337.10 0.451
337.20 0.4514
337.30 0.4519
337.40 0.4523
337.50 0.4528
337.60 0.4532
337.70 0.4537
337.80 0.4541
337.90 0.4545
338.00 0.455
338.10 0.4554
338.20 0.4559
338.30 0.4563
338.40 0.4568
338.50 0.4572
338.60 0.4577
338.70 0.4581
338.80 0.4586
338.90 0.459
339.00 0.4595
339.10 0.4599
339.20 0.4604
339.30 0.4608
339.40 0.4613
339.50 0.4617
339.60 0.4622
339.70 0.4626
339.80 0.463
339.90 0.4635
340.00 0.4639
340.10 0.4644
340.20 0.4648
340.30 0.4653
340.40 0.4657
340.50 0.4662
340.60 0.4666
340.70 0.4671
340.80 0.4675
340.90 0.468
341.00 0.4684
341.10 0.4689
341.20 0.4693
341.30 0.4698
341.40 0.4702
341.50 0.4706
341.60 0.4711
341.70 0.4715
341.80 0.472
341.90 0.4724
342.00 0.4729
342.10 0.4733
342.20 0.4738
342.30 0.4742
342.40 0.4747
342.50 0.4751
342.60 0.4756
342.70 0.476
342.80 0.4765
342.90 0.4769
343.00 0.4773
343.10 0.4778
343.20 0.4782
343.30 0.4787
343.40 0.4791
343.50 0.4796
343.60 0.48
343.70 0.4805
343.80 0.4809
343.90 0.4813
344.00 0.4818
344.10 0.4822
344.20 0.4827
344.30 0.4831
344.40 0.4836
344.50 0.484
344.60 0.4845
344.70 0.4849
344.80 0.4854
344.90 0.4858
345.00 0.4863
345.10 0.4867
345.20 0.4872
345.30 0.4876
345.40 0.4881
345.50 0.4885
345.60 0.4889
345.70 0.4894
345.80 0.4898
345.90 0.4903
346.00 0.4907
346.10 0.4912
346.20 0.4916
346.30 0.4921
346.40 0.4925
346.50 0.493
346.60 0.4934
346.70 0.4938
346.80 0.4943
346.90 0.4947
347.00 0.4952
347.10 0.4956
347.20 0.4961
347.30 0.4965
347.40 0.497
347.50 0.4974
347.60 0.4978
347.70 0.4983
347.80 0.4987
347.90 0.4992
348.00 0.4996
348.10 0.5001
348.20 0.5005
348.30 0.501
348.40 0.5014
348.50 0.5019
348.60 0.5023
348.70 0.5028
348.80 0.5032
348.90 0.5036
349.00 0.5041
349.10 0.5045
349.20 0.505
349.30 0.5054
349.40 0.5059
349.50 0.5063
349.60 0.5068
349.70 0.5072
349.80 0.5076
349.90 0.5081
350.00 0.5085
350.10 0.509
350.20 0.5094
350.30 0.5099
350.40 0.5103
350.50 0.5108
350.60 0.5112
350.70 0.5116
350.80 0.5121
350.90 0.5125
351.00 0.513
351.10 0.5134
351.20 0.5139
351.30 0.5143
351.40 0.5148
351.50 0.5152
351.60 0.5156
351.70 0.5161
351.80 0.5165
351.90 0.517
352.00 0.5174
352.10 0.5178
352.20 0.5183
352.30 0.5187
352.40 0.5192
352.50 0.5196
352.60 0.5201
352.70 0.5205
352.80 0.521
352.90 0.5214
353.00 0.5219
353.10 0.5223
353.20 0.5227
353.30 0.5232
353.40 0.5236
353.50 0.5241
353.60 0.5245
353.70 0.5249
353.80 0.5254
353.90 0.5258
354.00 0.5263
354.10 0.5267
354.20 0.5272
354.30 0.5276
354.40 0.528
354.50 0.5285
354.60 0.5289
354.70 0.5294
354.80 0.5298
354.90 0.5303
355.00 0.5307
355.10 0.5312
355.20 0.5316
355.30 0.532
355.40 0.5325
355.50 0.5329
355.60 0.5334
355.70 0.5338
355.80 0.5342
355.90 0.5347
356.00 0.5351
356.10 0.5355
356.20 0.536
356.30 0.5364
356.40 0.5369
356.50 0.5373
356.60 0.5378
356.70 0.5382
356.80 0.5387
356.90 0.5391
357.00 0.5395
357.10 0.54
357.20 0.5404
357.30 0.5409
357.40 0.5413
357.50 0.5417
357.60 0.5422
357.70 0.5426
357.80 0.5431
357.90 0.5435
358.00 0.5439
358.10 0.5444
358.20 0.5448
358.30 0.5453
358.40 0.5457
358.50 0.5461
358.60 0.5466
358.70 0.547
358.80 0.5475
358.90 0.5479
359.00 0.5483
359.10 0.5488
359.20 0.5492
359.30 0.5497
359.40 0.5501
359.50 0.5505
359.60 0.551
359.70 0.5514
359.80 0.5518
359.90 0.5523
360.00 0.5527
360.10 0.5532
360.20 0.5536
360.30 0.554
360.40 0.5545
360.50 0.5549
360.60 0.5554
360.70 0.5558
360.80 0.5562
360.90 0.5567
361.00 0.5571
361.10 0.5576
361.20 0.558
361.30 0.5584
361.40 0.5589
361.50 0.5593
361.60 0.5597
361.70 0.5602
361.80 0.5606
361.90 0.561
362.00 0.5615
362.10 0.5619
362.20 0.5624
362.30 0.5628
362.40 0.5632
362.50 0.5637
362.60 0.5641
362.70 0.5645
362.80 0.565
362.90 0.5654
363.00 0.5658
363.10 0.5663
363.20 0.5667
363.30 0.5672
363.40 0.5676
363.50 0.568
363.60 0.5685
363.70 0.5689
363.80 0.5693
363.90 0.5698
364.00 0.5702
364.10 0.5706
364.20 0.5711
364.30 0.5715
364.40 0.5719
364.50 0.5724
364.60 0.5728
364.70 0.5733
364.80 0.5737
364.90 0.5741
365.00 0.5746
365.10 0.575
365.20 0.5754
365.30 0.5759
365.40 0.5763
365.50 0.5767
365.60 0.5772
365.70 0.5776
365.80 0.578
365.90 0.5785
366.00 0.5789
366.10 0.5793
366.20 0.5798
366.30 0.5802
366.40 0.5806
366.50 0.5811
366.60 0.5815
366.70 0.5819
366.80 0.5824
366.90 0.5828
367.00 0.5832
367.10 0.5837
367.20 0.5841
367.30 0.5845
367.40 0.585
367.50 0.5854
367.60 0.5858
367.70 0.5863
367.80 0.5867
367.90 0.5871
368.00 0.5875
368.10 0.588
368.20 0.5884
368.30 0.5889
368.40 0.5893
368.50 0.5897
368.60 0.5902
368.70 0.5906
368.80 0.591
368.90 0.5915
369.00 0.5919
369.10 0.5923
369.20 0.5927
369.30 0.5932
369.40 0.5936
369.50 0.594
369.60 0.5945
369.70 0.5949
369.80 0.5953
369.90 0.5957
370.00 0.5962
370.10 0.5966
370.20 0.597
370.30 0.5975
370.40 0.5979
370.50 0.5983
370.60 0.5988
370.70 0.5992
370.80 0.5996
370.90 0.6001
371.00 0.6005
371.10 0.6009
371.20 0.6013
371.30 0.6018
371.40 0.6022
371.50 0.6026
371.60 0.603
371.70 0.6035
371.80 0.6039
371.90 0.6043
372.00 0.6047
372.10 0.6052
372.20 0.6056
372.30 0.606
372.40 0.6065
372.50 0.6069
372.60 0.6073
372.70 0.6078
372.80 0.6082
372.90 0.6086
373.00 0.609
373.10 0.6095
373.20 0.6099
373.30 0.6103
373.40 0.6107
373.50 0.6112
373.60 0.6116
373.70 0.612
373.80 0.6124
373.90 0.6129
374.00 0.6133
374.10 0.6137
374.20 0.6141
374.30 0.6146
374.40 0.615
374.50 0.6154
374.60 0.6158
374.70 0.6163
374.80 0.6167
374.90 0.6171
375.00 0.6175
375.10 0.618
375.20 0.6184
375.30 0.6188
375.40 0.6192
375.50 0.6197
375.60 0.6201
375.70 0.6205
375.80 0.6209
375.90 0.6213
376.00 0.6218
376.10 0.6222
376.20 0.6226
376.30 0.623
376.40 0.6235
376.50 0.6239
376.60 0.6243
376.70 0.6247
376.80 0.6251
376.90 0.6256
377.00 0.626
377.10 0.6264
377.20 0.6268
377.30 0.6273
377.40 0.6277
377.50 0.6281
377.60 0.6285
377.70 0.6289
377.80 0.6294
377.90 0.6298
378.00 0.6302
378.10 0.6306
378.20 0.631
378.30 0.6315
378.40 0.6319
378.50 0.6323
378.60 0.6327
378.70 0.6331
378.80 0.6336
378.90 0.634
379.00 0.6344
379.10 0.6348
379.20 0.6352
379.30 0.6357
379.40 0.6361
379.50 0.6365
379.60 0.6369
379.70 0.6373
379.80 0.6377
379.90 0.6382
380.00 0.6386
380.10 0.639
380.20 0.6394
380.30 0.6398
380.40 0.6402
380.50 0.6407
380.60 0.6411
380.70 0.6415
380.80 0.6419
380.90 0.6423
381.00 0.6427
381.10 0.6432
381.20 0.6436
381.30 0.644
381.40 0.6444
381.50 0.6448
381.60 0.6452
381.70 0.6457
381.80 0.6461
381.90 0.6465
382.00 0.6469
382.10 0.6473
382.20 0.6477
382.30 0.6482
382.40 0.6486
382.50 0.649
382.60 0.6494
382.70 0.6498
382.80 0.6502
382.90 0.6506
383.00 0.651
383.10 0.6515
383.20 0.6519
383.30 0.6523
383.40 0.6527
383.50 0.6531
383.60 0.6535
383.70 0.6539
383.80 0.6543
383.90 0.6548
384.00 0.6552
384.10 0.6556
384.20 0.656
384.30 0.6564
384.40 0.6568
384.50 0.6572
384.60 0.6576
384.70 0.6581
384.80 0.6585
384.90 0.6589
385.00 0.6593
385.10 0.6597
385.20 0.6601
385.30 0.6605
385.40 0.6609
385.50 0.6613
385.60 0.6617
385.70 0.6622
385.80 0.6626
385.90 0.663
386.00 0.6634
386.10 0.6638
386.20 0.6642
386.30 0.6646
386.40 0.665
386.50 0.6654
386.60 0.6658
386.70 0.6662
386.80 0.6667
386.90 0.6671
387.00 0.6675
387.10 0.6679
387.20 0.6683
387.30 0.6687
387.40 0.6691
387.50 0.6695
387.60 0.6699
387.70 0.6703
387.80 0.6707
387.90 0.6711
388.00 0.6715
388.10 0.6719
388.20 0.6723
388.30 0.6728
388.40 0.6732
388.50 0.6736
388.60 0.674
388.70 0.6744
388.80 0.6748
388.90 0.6752
389.00 0.6756
389.10 0.676
389.20 0.6764
389.30 0.6768
389.40 0.6772
389.50 0.6776
389.60 0.678
389.70 0.6784
389.80 0.6788
389.90 0.6792
390.00 0.6796
390.10 0.68
390.20 0.6804
390.30 0.6808
390.40 0.6812
390.50 0.6816
390.60 0.682
390.70 0.6824
390.80 0.6828
390.90 0.6832
391.00 0.6836
391.10 0.684
391.20 0.6844
391.30 0.6848
391.40 0.6853
391.50 0.6857
391.60 0.6861
391.70 0.6865
391.80 0.6869
391.90 0.6873
392.00 0.6877
392.10 0.6881
392.20 0.6885
392.30 0.6889
392.40 0.6893
392.50 0.6896
392.60 0.6901
392.70 0.6905
392.80 0.6909
392.90 0.6912
393.00 0.6916
393.10 0.692
393.20 0.6924
393.30 0.6928
393.40 0.6932
393.50 0.6936
393.60 0.694
393.70 0.6944
393.80 0.6948
393.90 0.6952
394.00 0.6956
394.10 0.696
394.20 0.6964
394.30 0.6968
394.40 0.6972
394.50 0.6976
394.60 0.698
394.70 0.6984
394.80 0.6988
394.90 0.6992
395.00 0.6996
395.10 0.7
395.20 0.7004
395.30 0.7008
395.40 0.7012
395.50 0.7015
395.60 0.7019
395.70 0.7023
395.80 0.7027
395.90 0.7031
396.00 0.7035
396.10 0.7039
396.20 0.7043
396.30 0.7047
396.40 0.7051
396.50 0.7055
396.60 0.7059
396.70 0.7063
396.80 0.7067
396.90 0.707
397.00 0.7074
397.10 0.7078
397.20 0.7082
397.30 0.7086
397.40 0.709
397.50 0.7094
397.60 0.7098
397.70 0.7102
397.80 0.7106
397.90 0.711
398.00 0.7113
398.10 0.7117
398.20 0.7121
398.30 0.7125
398.40 0.7129
398.50 0.7133
398.60 0.7137
398.70 0.7141
398.80 0.7145
398.90 0.7148
399.00 0.7152
399.10 0.7156
399.20 0.716
399.30 0.7164
399.40 0.7168
399.50 0.7172
399.60 0.7175
399.70 0.7179
399.80 0.7183
399.90 0.7187
400.00 0.7191
400.10 0.7195
400.20 0.7199
400.30 0.7203
400.40 0.7206
400.50 0.721
400.60 0.7214
400.70 0.7218
400.80 0.7222
400.90 0.7226
401.00 0.7229
401.10 0.7233
401.20 0.7237
401.30 0.7241
401.40 0.7245
401.50 0.7249
401.60 0.7253
401.70 0.7256
401.80 0.726
401.90 0.7264
402.00 0.7268
402.10 0.7272
402.20 0.7275
402.30 0.7279
402.40 0.7283
402.50 0.7287
402.60 0.7291
402.70 0.7295
402.80 0.7298
402.90 0.7302
403.00 0.7306
403.10 0.731
403.20 0.7314
403.30 0.7317
403.40 0.7321
403.50 0.7325
403.60 0.7329
403.70 0.7333
403.80 0.7336
403.90 0.734
404.00 0.7344
404.10 0.7348
404.20 0.7351
404.30 0.7355
404.40 0.7359
404.50 0.7363
404.60 0.7367
404.70 0.737
404.80 0.7374
404.90 0.7378
405.00 0.7382
405.10 0.7386
405.20 0.7389
405.30 0.7393
405.40 0.7397
405.50 0.7401
405.60 0.7404
405.70 0.7408
405.80 0.7412
405.90 0.7416
406.00 0.7419
406.10 0.7423
406.20 0.7427
406.30 0.7431
406.40 0.7434
406.50 0.7438
406.60 0.7442
406.70 0.7446
406.80 0.7449
406.90 0.7453
407.00 0.7457
407.10 0.746
407.20 0.7464
407.30 0.7468
407.40 0.7472
407.50 0.7475
407.60 0.7479
407.70 0.7483
407.80 0.7487
407.90 0.749
408.00 0.7494
408.10 0.7498
408.20 0.7501
408.30 0.7505
408.40 0.7509
408.50 0.7513
408.60 0.7516
408.70 0.752
408.80 0.7524
408.90 0.7527
409.00 0.7531
409.10 0.7535
409.20 0.7538
409.30 0.7542
409.40 0.7546
409.50 0.7549
409.60 0.7553
409.70 0.7557
409.80 0.7561
409.90 0.7564
410.00 0.7568
410.10 0.7572
410.20 0.7575
410.30 0.7579
410.40 0.7583
410.50 0.7586
410.60 0.759
410.70 0.7594
410.80 0.7597
410.90 0.7601
411.00 0.7605
411.10 0.7608
411.20 0.7612
411.30 0.7615
411.40 0.7619
411.50 0.7623
411.60 0.7626
411.70 0.763
411.80 0.7634
411.90 0.7637
412.00 0.7641
412.10 0.7645
412.20 0.7648
412.30 0.7652
412.40 0.7655
412.50 0.7659
412.60 0.7663
412.70 0.7666
412.80 0.767
412.90 0.7674
413.00 0.7677
413.10 0.7681
413.20 0.7684
413.30 0.7688
413.40 0.7692
413.50 0.7695
413.60 0.7699
413.70 0.7703
413.80 0.7706
413.90 0.771
414.00 0.7713
414.10 0.7717
414.20 0.772
414.30 0.7724
414.40 0.7728
414.50 0.7731
414.60 0.7735
414.70 0.7738
414.80 0.7742
414.90 0.7746
415.00 0.7749
415.10 0.7753
415.20 0.7756
415.30 0.776
415.40 0.7763
415.50 0.7767
415.60 0.7771
415.70 0.7774
415.80 0.7778
415.90 0.7781
416.00 0.7785
416.10 0.7788
416.20 0.7792
416.30 0.7795
416.40 0.7799
416.50 0.7803
416.60 0.7806
416.70 0.781
416.80 0.7813
416.90 0.7817
417.00 0.782
417.10 0.7824
417.20 0.7827
417.30 0.7831
417.40 0.7834
417.50 0.7838
417.60 0.7841
417.70 0.7845
417.80 0.7849
417.90 0.7852
418.00 0.7856
418.10 0.7859
418.20 0.7863
418.30 0.7866
418.40 0.787
418.50 0.7873
418.60 0.7877
418.70 0.788
418.80 0.7884
418.90 0.7887
419.00 0.7891
419.10 0.7894
419.20 0.7898
419.30 0.7901
419.40 0.7905
419.50 0.7908
419.60 0.7911
419.70 0.7915
419.80 0.7918
419.90 0.7922
420.00 0.7925
420.10 0.7929
420.20 0.7932
420.30 0.7936
420.40 0.7939
420.50 0.7943
420.60 0.7946
420.70 0.795
420.80 0.7953
420.90 0.7957
421.00 0.796
421.10 0.7963
421.20 0.7967
421.30 0.797
421.40 0.7974
421.50 0.7977
421.60 0.7981
421.70 0.7984
421.80 0.7988
421.90 0.7991
422.00 0.7994
422.10 0.7998
422.20 0.8001
422.30 0.8005
422.40 0.8008
422.50 0.8012
422.60 0.8015
422.70 0.8018
422.80 0.8022
422.90 0.8025
423.00 0.8029
423.10 0.8032
423.20 0.8036
423.30 0.8039
423.40 0.8042
423.50 0.8046
423.60 0.8049
423.70 0.8053
423.80 0.8056
423.90 0.8059
424.00 0.8063
424.10 0.8066
424.20 0.8069
424.30 0.8073
424.40 0.8076
424.50 0.808
424.60 0.8083
424.70 0.8086
424.80 0.809
424.90 0.8093
425.00 0.8097
425.10 0.81
425.20 0.8103
425.30 0.8107
425.40 0.811
425.50 0.8113
425.60 0.8117
425.70 0.812
425.80 0.8123
425.90 0.8127
426.00 0.813
426.10 0.8133
426.20 0.8137
426.30 0.814
426.40 0.8143
426.50 0.8147
426.60 0.815
426.70 0.8153
426.80 0.8157
426.90 0.816
427.00 0.8163
427.10 0.8167
427.20 0.817
427.30 0.8173
427.40 0.8177
427.50 0.818
427.60 0.8183
427.70 0.8187
427.80 0.819
427.90 0.8193
428.00 0.8196
428.10 0.82
428.20 0.8203
428.30 0.8207
428.40 0.821
428.50 0.8213
428.60 0.8217
428.70 0.822
428.80 0.8223
428.90 0.8226
429.00 0.823
429.10 0.8233
429.20 0.8236
429.30 0.8239
429.40 0.8242
429.50 0.8246
429.60 0.8249
429.70 0.8253
429.80 0.8256
429.90 0.8259
430.00 0.8262
430.10 0.8266
430.20 0.8269
430.30 0.8272
430.40 0.8275
430.50 0.8279
430.60 0.8282
430.70 0.8285
430.80 0.8289
430.90 0.8292
431.00 0.8295
431.10 0.8298
431.20 0.8301
431.30 0.8304
431.40 0.8308
431.50 0.8311
431.60 0.8314
431.70 0.8318
431.80 0.8321
431.90 0.8324
432.00 0.8327
432.10 0.833
432.20 0.8334
432.30 0.8337
432.40 0.834
432.50 0.8343
432.60 0.8346
432.70 0.8349
432.80 0.8353
432.90 0.8356
433.00 0.8359
433.10 0.8362
433.20 0.8366
433.30 0.8369
433.40 0.8372
433.50 0.8375
433.60 0.8379
433.70 0.8382
433.80 0.8385
433.90 0.8388
434.00 0.8391
434.10 0.8395
434.20 0.8398
434.30 0.8401
434.40 0.8404
434.50 0.8407
434.60 0.841
434.70 0.8413
434.80 0.8416
434.90 0.8419
435.00 0.8423
435.10 0.8426
435.20 0.8429
435.30 0.8432
435.40 0.8435
435.50 0.8439
435.60 0.8442
435.70 0.8445
435.80 0.8448
435.90 0.8451
436.00 0.8455
436.10 0.8457
436.20 0.846
436.30 0.8463
436.40 0.8467
436.50 0.847
436.60 0.8473
436.70 0.8476
436.80 0.8479
436.90 0.8483
437.00 0.8485
437.10 0.8488
437.20 0.8491
437.30 0.8495
437.40 0.8498
437.50 0.8501
437.60 0.8504
437.70 0.8507
437.80 0.851
437.90 0.8513
438.00 0.8516
438.10 0.852
438.20 0.8523
438.30 0.8526
438.40 0.8529
438.50 0.8532
438.60 0.8535
438.70 0.8538
438.80 0.8541
438.90 0.8544
439.00 0.8547
439.10 0.855
439.20 0.8553
439.30 0.8556
439.40 0.856
439.50 0.8563
439.60 0.8566
439.70 0.8568
439.80 0.8571
439.90 0.8575
440.00 0.8578
440.10 0.8581
440.20 0.8584
440.30 0.8587
440.40 0.859
440.50 0.8593
440.60 0.8596
440.70 0.8599
440.80 0.8602
440.90 0.8605
441.00 0.8608
441.10 0.8611
441.20 0.8614
441.30 0.8617
441.40 0.8621
441.50 0.8623
441.60 0.8626
441.70 0.863
441.80 0.8632
441.90 0.8635
442.00 0.8639
442.10 0.8641
442.20 0.8644
442.30 0.8648
442.40 0.865
442.50 0.8653
442.60 0.8656
442.70 0.8659
442.80 0.8662
442.90 0.8665
443.00 0.8668
443.10 0.8671
