# Version 2.1 - nm, norm@500 to 1, cut digits, bergeron_70000_65.dat_70000
# Wavelength(nm)  Flambda(ergs/cm^s/s/nm)
300.00 6.537
300.10 6.529
300.20 6.521
300.30 6.512
300.40 6.504
300.50 6.497
300.60 6.489
300.70 6.481
300.80 6.473
300.90 6.465
301.00 6.457
301.10 6.449
301.20 6.441
301.30 6.433
301.40 6.425
301.50 6.417
301.60 6.409
301.70 6.402
301.80 6.394
301.90 6.386
302.00 6.378
302.10 6.37
302.20 6.362
302.30 6.355
302.40 6.347
302.50 6.339
302.60 6.331
302.70 6.324
302.80 6.316
302.90 6.308
303.00 6.301
303.10 6.293
303.20 6.285
303.30 6.278
303.40 6.27
303.50 6.262
303.60 6.255
303.70 6.247
303.80 6.239
303.90 6.232
304.00 6.224
304.10 6.217
304.20 6.209
304.30 6.202
304.40 6.194
304.50 6.187
304.60 6.179
304.70 6.172
304.80 6.164
304.90 6.157
305.00 6.149
305.10 6.142
305.20 6.134
305.30 6.127
305.40 6.119
305.50 6.112
305.60 6.105
305.70 6.097
305.80 6.09
305.90 6.082
306.00 6.075
306.10 6.068
306.20 6.06
306.30 6.053
306.40 6.046
306.50 6.039
306.60 6.031
306.70 6.024
306.80 6.017
306.90 6.009
307.00 6.002
307.10 5.995
307.20 5.988
307.30 5.981
307.40 5.973
307.50 5.966
307.60 5.959
307.70 5.952
307.80 5.945
307.90 5.938
308.00 5.93
308.10 5.923
308.20 5.916
308.30 5.909
308.40 5.902
308.50 5.895
308.60 5.888
308.70 5.881
308.80 5.874
308.90 5.867
309.00 5.86
309.10 5.853
309.20 5.846
309.30 5.839
309.40 5.832
309.50 5.825
309.60 5.818
309.70 5.811
309.80 5.804
309.90 5.797
310.00 5.79
310.10 5.783
310.20 5.776
310.30 5.769
310.40 5.762
310.50 5.756
310.60 5.749
310.70 5.742
310.80 5.735
310.90 5.728
311.00 5.721
311.10 5.715
311.20 5.708
311.30 5.701
311.40 5.694
311.50 5.687
311.60 5.681
311.70 5.674
311.80 5.667
311.90 5.66
312.00 5.654
312.10 5.647
312.20 5.64
312.30 5.634
312.40 5.627
312.50 5.62
312.60 5.614
312.70 5.607
312.80 5.6
312.90 5.594
313.00 5.587
313.10 5.58
313.20 5.574
313.30 5.567
313.40 5.561
313.50 5.554
313.60 5.548
313.70 5.541
313.80 5.534
313.90 5.528
314.00 5.521
314.10 5.515
314.20 5.508
314.30 5.502
314.40 5.495
314.50 5.489
314.60 5.482
314.70 5.476
314.80 5.47
314.90 5.463
315.00 5.457
315.10 5.45
315.20 5.444
315.30 5.438
315.40 5.431
315.50 5.425
315.60 5.418
315.70 5.412
315.80 5.406
315.90 5.399
316.00 5.393
316.10 5.387
316.20 5.38
316.30 5.374
316.40 5.368
316.50 5.361
316.60 5.355
316.70 5.349
316.80 5.343
316.90 5.336
317.00 5.33
317.10 5.324
317.20 5.318
317.30 5.312
317.40 5.305
317.50 5.299
317.60 5.293
317.70 5.287
317.80 5.281
317.90 5.274
318.00 5.268
318.10 5.262
318.20 5.256
318.30 5.25
318.40 5.244
318.50 5.238
318.60 5.232
318.70 5.226
318.80 5.219
318.90 5.213
319.00 5.207
319.10 5.201
319.20 5.195
319.30 5.189
319.40 5.183
319.50 5.177
319.60 5.171
319.70 5.165
319.80 5.159
319.90 5.153
320.00 5.147
320.10 5.141
320.20 5.135
320.30 5.129
320.40 5.123
320.50 5.117
320.60 5.112
320.70 5.106
320.80 5.1
320.90 5.094
321.00 5.088
321.10 5.082
321.20 5.076
321.30 5.07
321.40 5.064
321.50 5.059
321.60 5.053
321.70 5.047
321.80 5.041
321.90 5.035
322.00 5.03
322.10 5.024
322.20 5.018
322.30 5.012
322.40 5.006
322.50 5.001
322.60 4.995
322.70 4.989
322.80 4.983
322.90 4.978
323.00 4.972
323.10 4.966
323.20 4.961
323.30 4.955
323.40 4.949
323.50 4.944
323.60 4.938
323.70 4.932
323.80 4.927
323.90 4.921
324.00 4.915
324.10 4.91
324.20 4.904
324.30 4.898
324.40 4.893
324.50 4.887
324.60 4.882
324.70 4.876
324.80 4.87
324.90 4.865
325.00 4.859
325.10 4.854
325.20 4.848
325.30 4.843
325.40 4.837
325.50 4.832
325.60 4.826
325.70 4.821
325.80 4.815
325.90 4.81
326.00 4.804
326.10 4.799
326.20 4.793
326.30 4.788
326.40 4.782
326.50 4.777
326.60 4.771
326.70 4.766
326.80 4.761
326.90 4.755
327.00 4.75
327.10 4.744
327.20 4.739
327.30 4.734
327.40 4.728
327.50 4.723
327.60 4.718
327.70 4.712
327.80 4.707
327.90 4.702
328.00 4.696
328.10 4.691
328.20 4.686
328.30 4.68
328.40 4.675
328.50 4.67
328.60 4.664
328.70 4.659
328.80 4.654
328.90 4.649
329.00 4.643
329.10 4.638
329.20 4.633
329.30 4.628
329.40 4.622
329.50 4.617
329.60 4.612
329.70 4.607
329.80 4.602
329.90 4.596
330.00 4.591
330.10 4.586
330.20 4.581
330.30 4.576
330.40 4.571
330.50 4.566
330.60 4.56
330.70 4.555
330.80 4.55
330.90 4.545
331.00 4.54
331.10 4.535
331.20 4.53
331.30 4.525
331.40 4.52
331.50 4.515
331.60 4.51
331.70 4.504
331.80 4.499
331.90 4.494
332.00 4.489
332.10 4.484
332.20 4.479
332.30 4.474
332.40 4.469
332.50 4.464
332.60 4.459
332.70 4.454
332.80 4.449
332.90 4.444
333.00 4.439
333.10 4.435
333.20 4.43
333.30 4.425
333.40 4.42
333.50 4.415
333.60 4.41
333.70 4.405
333.80 4.4
333.90 4.395
334.00 4.39
334.10 4.385
334.20 4.38
334.30 4.376
334.40 4.371
334.50 4.366
334.60 4.361
334.70 4.356
334.80 4.351
334.90 4.346
335.00 4.342
335.10 4.337
335.20 4.332
335.30 4.327
335.40 4.322
335.50 4.318
335.60 4.313
335.70 4.308
335.80 4.303
335.90 4.298
336.00 4.294
336.10 4.289
336.20 4.284
336.30 4.28
336.40 4.275
336.50 4.27
336.60 4.265
336.70 4.261
336.80 4.256
336.90 4.251
337.00 4.247
337.10 4.242
337.20 4.237
337.30 4.233
337.40 4.228
337.50 4.223
337.60 4.219
337.70 4.214
337.80 4.209
337.90 4.205
338.00 4.2
338.10 4.195
338.20 4.191
338.30 4.186
338.40 4.182
338.50 4.177
338.60 4.172
338.70 4.168
338.80 4.163
338.90 4.159
339.00 4.154
339.10 4.149
339.20 4.145
339.30 4.14
339.40 4.136
339.50 4.131
339.60 4.127
339.70 4.122
339.80 4.118
339.90 4.113
340.00 4.109
340.10 4.104
340.20 4.1
340.30 4.095
340.40 4.091
340.50 4.086
340.60 4.082
340.70 4.077
340.80 4.073
340.90 4.068
341.00 4.064
341.10 4.06
341.20 4.055
341.30 4.051
341.40 4.046
341.50 4.042
341.60 4.037
341.70 4.033
341.80 4.029
341.90 4.024
342.00 4.02
342.10 4.015
342.20 4.011
342.30 4.007
342.40 4.002
342.50 3.998
342.60 3.994
342.70 3.989
342.80 3.985
342.90 3.981
343.00 3.976
343.10 3.972
343.20 3.968
343.30 3.964
343.40 3.959
343.50 3.955
343.60 3.951
343.70 3.946
343.80 3.942
343.90 3.938
344.00 3.933
344.10 3.929
344.20 3.925
344.30 3.921
344.40 3.917
344.50 3.912
344.60 3.908
344.70 3.904
344.80 3.9
344.90 3.895
345.00 3.891
345.10 3.887
345.20 3.883
345.30 3.879
345.40 3.874
345.50 3.87
345.60 3.866
345.70 3.862
345.80 3.858
345.90 3.854
346.00 3.849
346.10 3.845
346.20 3.841
346.30 3.837
346.40 3.833
346.50 3.829
346.60 3.825
346.70 3.821
346.80 3.816
346.90 3.812
347.00 3.808
347.10 3.804
347.20 3.8
347.30 3.796
347.40 3.792
347.50 3.788
347.60 3.784
347.70 3.78
347.80 3.776
347.90 3.772
348.00 3.768
348.10 3.764
348.20 3.76
348.30 3.756
348.40 3.751
348.50 3.747
348.60 3.743
348.70 3.739
348.80 3.735
348.90 3.732
349.00 3.728
349.10 3.724
349.20 3.72
349.30 3.716
349.40 3.712
349.50 3.708
349.60 3.704
349.70 3.7
349.80 3.696
349.90 3.692
350.00 3.688
350.10 3.684
350.20 3.68
350.30 3.676
350.40 3.672
350.50 3.668
350.60 3.664
350.70 3.661
350.80 3.657
350.90 3.653
351.00 3.649
351.10 3.645
351.20 3.641
351.30 3.637
351.40 3.633
351.50 3.63
351.60 3.626
351.70 3.622
351.80 3.618
351.90 3.614
352.00 3.61
352.10 3.606
352.20 3.603
352.30 3.599
352.40 3.595
352.50 3.591
352.60 3.587
352.70 3.584
352.80 3.58
352.90 3.576
353.00 3.572
353.10 3.569
353.20 3.565
353.30 3.561
353.40 3.557
353.50 3.554
353.60 3.55
353.70 3.546
353.80 3.542
353.90 3.539
354.00 3.535
354.10 3.531
354.20 3.527
354.30 3.524
354.40 3.52
354.50 3.516
354.60 3.513
354.70 3.509
354.80 3.505
354.90 3.501
355.00 3.498
355.10 3.494
355.20 3.49
355.30 3.487
355.40 3.483
355.50 3.479
355.60 3.476
355.70 3.472
355.80 3.469
355.90 3.465
356.00 3.461
356.10 3.458
356.20 3.454
356.30 3.45
356.40 3.447
356.50 3.443
356.60 3.44
356.70 3.436
356.80 3.432
356.90 3.429
357.00 3.425
357.10 3.422
357.20 3.418
357.30 3.414
357.40 3.411
357.50 3.407
357.60 3.404
357.70 3.4
357.80 3.397
357.90 3.393
358.00 3.39
358.10 3.386
358.20 3.382
358.30 3.379
358.40 3.375
358.50 3.372
358.60 3.368
358.70 3.365
358.80 3.361
358.90 3.358
359.00 3.354
359.10 3.351
359.20 3.347
359.30 3.344
359.40 3.341
359.50 3.337
359.60 3.334
359.70 3.33
359.80 3.327
359.90 3.323
360.00 3.32
360.10 3.316
360.20 3.313
360.30 3.309
360.40 3.306
360.50 3.303
360.60 3.299
360.70 3.296
360.80 3.292
360.90 3.289
361.00 3.286
361.10 3.282
361.20 3.279
361.30 3.275
361.40 3.272
361.50 3.269
361.60 3.265
361.70 3.262
361.80 3.258
361.90 3.255
362.00 3.252
362.10 3.248
362.20 3.245
362.30 3.242
362.40 3.238
362.50 3.235
362.60 3.232
362.70 3.228
362.80 3.225
362.90 3.222
363.00 3.218
363.10 3.215
363.20 3.212
363.30 3.208
363.40 3.205
363.50 3.202
363.60 3.199
363.70 3.195
363.80 3.192
363.90 3.189
364.00 3.185
364.10 3.182
364.20 3.179
364.30 3.176
364.40 3.172
364.50 3.169
364.60 3.166
364.70 3.163
364.80 3.159
364.90 3.156
365.00 3.153
365.10 3.15
365.20 3.146
365.30 3.143
365.40 3.14
365.50 3.137
365.60 3.134
365.70 3.13
365.80 3.127
365.90 3.124
366.00 3.121
366.10 3.118
366.20 3.114
366.30 3.111
366.40 3.108
366.50 3.104
366.60 3.101
366.70 3.098
366.80 3.095
366.90 3.091
367.00 3.088
367.10 3.085
367.20 3.082
367.30 3.078
367.40 3.075
367.50 3.072
367.60 3.069
367.70 3.066
367.80 3.062
367.90 3.059
368.00 3.056
368.10 3.053
368.20 3.049
368.30 3.046
368.40 3.043
368.50 3.04
368.60 3.037
368.70 3.034
368.80 3.03
368.90 3.027
369.00 3.024
369.10 3.021
369.20 3.018
369.30 3.015
369.40 3.012
369.50 3.008
369.60 3.005
369.70 3.002
369.80 2.999
369.90 2.996
370.00 2.993
370.10 2.99
370.20 2.987
370.30 2.984
370.40 2.98
370.50 2.977
370.60 2.974
370.70 2.971
370.80 2.968
370.90 2.965
371.00 2.962
371.10 2.959
371.20 2.956
371.30 2.953
371.40 2.95
371.50 2.947
371.60 2.944
371.70 2.941
371.80 2.938
371.90 2.935
372.00 2.932
372.10 2.929
372.20 2.926
372.30 2.923
372.40 2.92
372.50 2.917
372.60 2.915
372.70 2.912
372.80 2.909
372.90 2.906
373.00 2.903
373.10 2.9
373.20 2.897
373.30 2.895
373.40 2.892
373.50 2.889
373.60 2.886
373.70 2.883
373.80 2.88
373.90 2.878
374.00 2.875
374.10 2.872
374.20 2.869
374.30 2.867
374.40 2.864
374.50 2.861
374.60 2.859
374.70 2.856
374.80 2.853
374.90 2.851
375.00 2.848
375.10 2.845
375.20 2.843
375.30 2.84
375.40 2.837
375.50 2.835
375.60 2.832
375.70 2.829
375.80 2.827
375.90 2.824
376.00 2.821
376.10 2.818
376.20 2.815
376.30 2.812
376.40 2.809
376.50 2.806
376.60 2.803
376.70 2.8
376.80 2.796
376.90 2.793
377.00 2.79
377.10 2.788
377.20 2.786
377.30 2.785
377.40 2.783
377.50 2.781
377.60 2.779
377.70 2.777
377.80 2.776
377.90 2.774
378.00 2.772
378.10 2.769
378.20 2.766
378.30 2.762
378.40 2.759
378.50 2.756
378.60 2.753
378.70 2.75
378.80 2.747
378.90 2.744
379.00 2.741
379.10 2.737
379.20 2.734
379.30 2.73
379.40 2.727
379.50 2.723
379.60 2.72
379.70 2.716
379.80 2.713
379.90 2.709
380.00 2.706
380.10 2.705
380.20 2.705
380.30 2.705
380.40 2.704
380.50 2.704
380.60 2.703
380.70 2.703
380.80 2.703
380.90 2.702
381.00 2.702
381.10 2.7
381.20 2.698
381.30 2.695
381.40 2.693
381.50 2.691
381.60 2.688
381.70 2.685
381.80 2.682
381.90 2.678
382.00 2.674
382.10 2.669
382.20 2.665
382.30 2.658
382.40 2.652
382.50 2.645
382.60 2.638
382.70 2.632
382.80 2.625
382.90 2.619
383.00 2.612
383.10 2.606
383.20 2.599
383.30 2.591
383.40 2.584
383.50 2.577
383.60 2.576
383.70 2.579
383.80 2.582
383.90 2.586
384.00 2.59
384.10 2.593
384.20 2.596
384.30 2.599
384.40 2.602
384.50 2.604
384.60 2.606
384.70 2.607
384.80 2.609
384.90 2.609
385.00 2.61
385.10 2.61
385.20 2.61
385.30 2.61
385.40 2.61
385.50 2.609
385.60 2.608
385.70 2.606
385.80 2.605
385.90 2.603
386.00 2.601
386.10 2.598
386.20 2.596
386.30 2.593
386.40 2.589
386.50 2.586
386.60 2.582
386.70 2.578
386.80 2.573
386.90 2.568
387.00 2.563
387.10 2.557
387.20 2.551
387.30 2.544
387.40 2.537
387.50 2.53
387.60 2.522
387.70 2.514
387.80 2.504
387.90 2.495
388.00 2.485
388.10 2.474
388.20 2.463
388.30 2.451
388.40 2.438
388.50 2.425
388.60 2.412
388.70 2.399
388.80 2.389
388.90 2.382
389.00 2.384
389.10 2.389
389.20 2.398
389.30 2.407
389.40 2.416
389.50 2.424
389.60 2.432
389.70 2.439
389.80 2.445
389.90 2.451
390.00 2.457
390.10 2.462
390.20 2.466
390.30 2.469
390.40 2.473
390.50 2.476
390.60 2.478
390.70 2.48
390.80 2.482
390.90 2.484
391.00 2.485
391.10 2.485
391.20 2.486
391.30 2.486
391.40 2.486
391.50 2.486
391.60 2.486
391.70 2.485
391.80 2.485
391.90 2.484
392.00 2.483
392.10 2.481
392.20 2.48
392.30 2.479
392.40 2.477
392.50 2.475
392.60 2.473
392.70 2.471
392.80 2.469
392.90 2.467
393.00 2.464
393.10 2.462
393.20 2.459
393.30 2.456
393.40 2.454
393.50 2.45
393.60 2.447
393.70 2.444
393.80 2.44
393.90 2.437
394.00 2.433
394.10 2.429
394.20 2.425
394.30 2.42
394.40 2.415
394.50 2.41
394.60 2.405
394.70 2.4
394.80 2.394
394.90 2.388
395.00 2.381
395.10 2.374
395.20 2.366
395.30 2.358
395.40 2.35
395.50 2.341
395.60 2.331
395.70 2.32
395.80 2.309
395.90 2.297
396.00 2.284
396.10 2.271
396.20 2.256
396.30 2.241
396.40 2.224
396.50 2.206
396.60 2.188
396.70 2.168
396.80 2.146
396.90 2.125
397.00 2.103
397.10 2.119
397.20 2.136
397.30 2.154
397.40 2.169
397.50 2.184
397.60 2.198
397.70 2.211
397.80 2.222
397.90 2.233
398.00 2.242
398.10 2.251
398.20 2.259
398.30 2.265
398.40 2.271
398.50 2.277
398.60 2.282
398.70 2.286
398.80 2.29
398.90 2.293
399.00 2.296
399.10 2.298
399.20 2.3
399.30 2.302
399.40 2.303
399.50 2.304
399.60 2.305
399.70 2.306
399.80 2.306
399.90 2.306
400.00 2.306
400.10 2.305
400.20 2.305
400.30 2.304
400.40 2.304
400.50 2.303
400.60 2.302
400.70 2.301
400.80 2.3
400.90 2.299
401.00 2.297
401.10 2.296
401.20 2.295
401.30 2.293
401.40 2.292
401.50 2.29
401.60 2.289
401.70 2.287
401.80 2.285
401.90 2.283
402.00 2.282
402.10 2.28
402.20 2.278
402.30 2.276
402.40 2.274
402.50 2.272
402.60 2.271
402.70 2.269
402.80 2.267
402.90 2.265
403.00 2.263
403.10 2.261
403.20 2.259
403.30 2.257
403.40 2.255
403.50 2.252
403.60 2.25
403.70 2.248
403.80 2.246
403.90 2.244
404.00 2.242
404.10 2.24
404.20 2.237
404.30 2.235
404.40 2.233
404.50 2.231
404.60 2.228
404.70 2.226
404.80 2.224
404.90 2.221
405.00 2.219
405.10 2.217
405.20 2.214
405.30 2.212
405.40 2.209
405.50 2.207
405.60 2.204
405.70 2.201
405.80 2.199
405.90 2.196
406.00 2.193
406.10 2.191
406.20 2.188
406.30 2.185
406.40 2.182
406.50 2.179
406.60 2.175
406.70 2.172
406.80 2.169
406.90 2.165
407.00 2.161
407.10 2.158
407.20 2.154
407.30 2.15
407.40 2.145
407.50 2.141
407.60 2.136
407.70 2.131
407.80 2.125
407.90 2.12
408.00 2.114
408.10 2.107
408.20 2.1
408.30 2.093
408.40 2.085
408.50 2.077
408.60 2.068
408.70 2.058
408.80 2.047
408.90 2.036
409.00 2.024
409.10 2.011
409.20 1.996
409.30 1.981
409.40 1.965
409.50 1.947
409.60 1.928
409.70 1.906
409.80 1.883
409.90 1.858
410.00 1.827
410.10 1.805
410.20 1.793
410.30 1.813
410.40 1.836
410.50 1.861
410.60 1.882
410.70 1.9
410.80 1.917
410.90 1.932
411.00 1.945
411.10 1.958
411.20 1.968
411.30 1.978
411.40 1.987
411.50 1.995
411.60 2.002
411.70 2.008
411.80 2.013
411.90 2.018
412.00 2.022
412.10 2.026
412.20 2.029
412.30 2.032
412.40 2.034
412.50 2.036
412.60 2.037
412.70 2.038
412.80 2.039
412.90 2.04
413.00 2.041
413.10 2.041
413.20 2.041
413.30 2.041
413.40 2.041
413.50 2.04
413.60 2.04
413.70 2.039
413.80 2.038
413.90 2.038
414.00 2.037
414.10 2.036
414.20 2.035
414.30 2.034
414.40 2.033
414.50 2.031
414.60 2.03
414.70 2.029
414.80 2.028
414.90 2.026
415.00 2.025
415.10 2.023
415.20 2.022
415.30 2.021
415.40 2.019
415.50 2.018
415.60 2.016
415.70 2.015
415.80 2.013
415.90 2.011
416.00 2.01
416.10 2.008
416.20 2.007
416.30 2.005
416.40 2.003
416.50 2.002
416.60 2
416.70 1.998
416.80 1.997
416.90 1.995
417.00 1.993
417.10 1.992
417.20 1.99
417.30 1.988
417.40 1.987
417.50 1.985
417.60 1.983
417.70 1.982
417.80 1.98
417.90 1.978
418.00 1.976
418.10 1.975
418.20 1.973
418.30 1.971
418.40 1.97
418.50 1.968
418.60 1.966
418.70 1.964
418.80 1.963
418.90 1.961
419.00 1.959
419.10 1.957
419.20 1.956
419.30 1.954
419.40 1.952
419.50 1.951
419.60 1.949
419.70 1.947
419.80 1.945
419.90 1.944
420.00 1.942
420.10 1.94
420.20 1.938
420.30 1.937
420.40 1.935
420.50 1.933
420.60 1.932
420.70 1.93
420.80 1.928
420.90 1.926
421.00 1.925
421.10 1.923
421.20 1.921
421.30 1.92
421.40 1.918
421.50 1.916
421.60 1.914
421.70 1.913
421.80 1.911
421.90 1.909
422.00 1.907
422.10 1.906
422.20 1.904
422.30 1.902
422.40 1.901
422.50 1.899
422.60 1.897
422.70 1.895
422.80 1.894
422.90 1.892
423.00 1.89
423.10 1.889
423.20 1.887
423.30 1.885
423.40 1.884
423.50 1.882
423.60 1.88
423.70 1.878
423.80 1.877
423.90 1.875
424.00 1.873
424.10 1.872
424.20 1.87
424.30 1.868
424.40 1.866
424.50 1.865
424.60 1.863
424.70 1.861
424.80 1.86
424.90 1.858
425.00 1.856
425.10 1.855
425.20 1.853
425.30 1.851
425.40 1.849
425.50 1.848
425.60 1.846
425.70 1.844
425.80 1.843
425.90 1.841
426.00 1.839
426.10 1.838
426.20 1.836
426.30 1.834
426.40 1.832
426.50 1.831
426.60 1.829
426.70 1.827
426.80 1.825
426.90 1.824
427.00 1.822
427.10 1.82
427.20 1.819
427.30 1.817
427.40 1.815
427.50 1.813
427.60 1.812
427.70 1.81
427.80 1.808
427.90 1.806
428.00 1.804
428.10 1.803
428.20 1.801
428.30 1.799
428.40 1.797
428.50 1.795
428.60 1.793
428.70 1.792
428.80 1.79
428.90 1.788
429.00 1.786
429.10 1.784
429.20 1.782
429.30 1.78
429.40 1.778
429.50 1.776
429.60 1.774
429.70 1.772
429.80 1.77
429.90 1.767
430.00 1.765
430.10 1.763
430.20 1.761
430.30 1.758
430.40 1.756
430.50 1.753
430.60 1.751
430.70 1.748
430.80 1.745
430.90 1.742
431.00 1.739
431.10 1.736
431.20 1.733
431.30 1.73
431.40 1.726
431.50 1.722
431.60 1.718
431.70 1.714
431.80 1.709
431.90 1.705
432.00 1.699
432.10 1.694
432.20 1.688
432.30 1.681
432.40 1.674
432.50 1.667
432.60 1.658
432.70 1.65
432.80 1.64
432.90 1.629
433.00 1.618
433.10 1.605
433.20 1.591
433.30 1.576
433.40 1.56
433.50 1.542
433.60 1.522
433.70 1.499
433.80 1.47
433.90 1.437
434.00 1.402
434.10 1.402
434.20 1.437
434.30 1.466
434.40 1.492
434.50 1.512
434.60 1.529
434.70 1.544
434.80 1.558
434.90 1.57
435.00 1.58
435.10 1.59
435.20 1.599
435.30 1.606
435.40 1.613
435.50 1.619
435.60 1.624
435.70 1.629
435.80 1.632
435.90 1.636
436.00 1.639
436.10 1.641
436.20 1.643
436.30 1.645
436.40 1.647
436.50 1.648
436.60 1.649
436.70 1.649
436.80 1.65
436.90 1.65
437.00 1.65
437.10 1.65
437.20 1.65
437.30 1.65
437.40 1.65
437.50 1.649
437.60 1.649
437.70 1.648
437.80 1.648
437.90 1.647
438.00 1.646
438.10 1.645
438.20 1.645
438.30 1.644
438.40 1.643
438.50 1.642
438.60 1.641
438.70 1.64
438.80 1.639
438.90 1.638
439.00 1.637
439.10 1.636
439.20 1.634
439.30 1.633
439.40 1.632
439.50 1.631
439.60 1.63
439.70 1.629
439.80 1.627
439.90 1.626
440.00 1.625
440.10 1.624
440.20 1.623
440.30 1.621
440.40 1.62
440.50 1.619
440.60 1.617
440.70 1.616
440.80 1.615
440.90 1.614
441.00 1.612
441.10 1.611
441.20 1.61
441.30 1.608
441.40 1.607
441.50 1.606
441.60 1.605
441.70 1.603
441.80 1.602
441.90 1.601
442.00 1.599
442.10 1.598
442.20 1.597
442.30 1.595
442.40 1.594
442.50 1.593
442.60 1.591
442.70 1.59
442.80 1.589
442.90 1.587
443.00 1.586
443.10 1.585
443.20 1.583
443.30 1.582
443.40 1.581
443.50 1.58
443.60 1.578
443.70 1.577
443.80 1.576
443.90 1.574
444.00 1.573
444.10 1.572
444.20 1.57
444.30 1.569
444.40 1.568
444.50 1.566
444.60 1.565
444.70 1.564
444.80 1.562
444.90 1.561
445.00 1.56
445.10 1.558
445.20 1.557
445.30 1.556
445.40 1.554
445.50 1.553
445.60 1.552
445.70 1.551
445.80 1.549
445.90 1.548
446.00 1.547
446.10 1.545
446.20 1.544
446.30 1.543
446.40 1.541
446.50 1.54
446.60 1.539
446.70 1.538
446.80 1.536
446.90 1.535
447.00 1.534
447.10 1.532
447.20 1.531
447.30 1.53
447.40 1.528
447.50 1.527
447.60 1.526
447.70 1.525
447.80 1.523
447.90 1.522
448.00 1.521
448.10 1.519
448.20 1.518
448.30 1.517
448.40 1.516
448.50 1.514
448.60 1.513
448.70 1.512
448.80 1.51
448.90 1.509
449.00 1.508
449.10 1.507
449.20 1.505
449.30 1.504
449.40 1.503
449.50 1.502
449.60 1.5
449.70 1.499
449.80 1.498
449.90 1.496
450.00 1.495
450.10 1.494
450.20 1.493
450.30 1.491
450.40 1.49
450.50 1.489
450.60 1.488
450.70 1.486
450.80 1.485
450.90 1.484
451.00 1.483
451.10 1.481
451.20 1.48
451.30 1.479
451.40 1.478
451.50 1.476
451.60 1.475
451.70 1.474
451.80 1.473
451.90 1.471
452.00 1.47
452.10 1.469
452.20 1.468
452.30 1.467
452.40 1.465
452.50 1.464
452.60 1.463
452.70 1.462
452.80 1.46
452.90 1.459
453.00 1.458
453.10 1.457
453.20 1.455
453.30 1.454
453.40 1.453
453.50 1.452
453.60 1.451
453.70 1.449
453.80 1.448
453.90 1.447
454.00 1.446
454.10 1.445
454.20 1.443
