# Version 2.1 - nm, norm@500 to 1, cut digits, bergeron_75000_75.dat_75000
# Wavelength(nm)  Flambda(ergs/cm^s/s/nm)
300.00 6.607
300.10 6.599
300.20 6.591
300.30 6.583
300.40 6.575
300.50 6.567
300.60 6.558
300.70 6.55
300.80 6.542
300.90 6.534
301.00 6.526
301.10 6.518
301.20 6.51
301.30 6.502
301.40 6.494
301.50 6.486
301.60 6.478
301.70 6.47
301.80 6.462
301.90 6.454
302.00 6.446
302.10 6.438
302.20 6.43
302.30 6.422
302.40 6.415
302.50 6.407
302.60 6.399
302.70 6.391
302.80 6.383
302.90 6.375
303.00 6.368
303.10 6.36
303.20 6.352
303.30 6.344
303.40 6.336
303.50 6.329
303.60 6.321
303.70 6.313
303.80 6.305
303.90 6.298
304.00 6.29
304.10 6.282
304.20 6.275
304.30 6.267
304.40 6.259
304.50 6.252
304.60 6.244
304.70 6.237
304.80 6.229
304.90 6.221
305.00 6.214
305.10 6.206
305.20 6.199
305.30 6.191
305.40 6.184
305.50 6.176
305.60 6.169
305.70 6.161
305.80 6.154
305.90 6.146
306.00 6.139
306.10 6.131
306.20 6.124
306.30 6.116
306.40 6.109
306.50 6.102
306.60 6.094
306.70 6.087
306.80 6.079
306.90 6.072
307.00 6.065
307.10 6.057
307.20 6.05
307.30 6.043
307.40 6.035
307.50 6.028
307.60 6.021
307.70 6.014
307.80 6.006
307.90 5.999
308.00 5.992
308.10 5.985
308.20 5.977
308.30 5.97
308.40 5.963
308.50 5.956
308.60 5.949
308.70 5.941
308.80 5.934
308.90 5.927
309.00 5.92
309.10 5.913
309.20 5.906
309.30 5.899
309.40 5.892
309.50 5.884
309.60 5.877
309.70 5.87
309.80 5.863
309.90 5.856
310.00 5.849
310.10 5.842
310.20 5.835
310.30 5.828
310.40 5.821
310.50 5.814
310.60 5.807
310.70 5.8
310.80 5.793
310.90 5.787
311.00 5.78
311.10 5.773
311.20 5.766
311.30 5.759
311.40 5.752
311.50 5.745
311.60 5.738
311.70 5.731
311.80 5.725
311.90 5.718
312.00 5.711
312.10 5.704
312.20 5.697
312.30 5.691
312.40 5.684
312.50 5.677
312.60 5.67
312.70 5.664
312.80 5.657
312.90 5.65
313.00 5.643
313.10 5.637
313.20 5.63
313.30 5.623
313.40 5.617
313.50 5.61
313.60 5.603
313.70 5.597
313.80 5.59
313.90 5.583
314.00 5.577
314.10 5.57
314.20 5.564
314.30 5.557
314.40 5.55
314.50 5.544
314.60 5.537
314.70 5.531
314.80 5.524
314.90 5.518
315.00 5.511
315.10 5.505
315.20 5.498
315.30 5.492
315.40 5.485
315.50 5.479
315.60 5.472
315.70 5.466
315.80 5.459
315.90 5.453
316.00 5.447
316.10 5.44
316.20 5.434
316.30 5.427
316.40 5.421
316.50 5.415
316.60 5.408
316.70 5.402
316.80 5.395
316.90 5.389
317.00 5.383
317.10 5.376
317.20 5.37
317.30 5.364
317.40 5.358
317.50 5.351
317.60 5.345
317.70 5.339
317.80 5.332
317.90 5.326
318.00 5.32
318.10 5.314
318.20 5.308
318.30 5.301
318.40 5.295
318.50 5.289
318.60 5.283
318.70 5.277
318.80 5.27
318.90 5.264
319.00 5.258
319.10 5.252
319.20 5.246
319.30 5.24
319.40 5.234
319.50 5.228
319.60 5.221
319.70 5.215
319.80 5.209
319.90 5.203
320.00 5.197
320.10 5.191
320.20 5.185
320.30 5.179
320.40 5.173
320.50 5.167
320.60 5.161
320.70 5.155
320.80 5.149
320.90 5.143
321.00 5.137
321.10 5.131
321.20 5.125
321.30 5.119
321.40 5.113
321.50 5.107
321.60 5.102
321.70 5.096
321.80 5.09
321.90 5.084
322.00 5.078
322.10 5.072
322.20 5.066
322.30 5.06
322.40 5.054
322.50 5.049
322.60 5.043
322.70 5.037
322.80 5.031
322.90 5.025
323.00 5.02
323.10 5.014
323.20 5.008
323.30 5.002
323.40 4.996
323.50 4.991
323.60 4.985
323.70 4.979
323.80 4.973
323.90 4.968
324.00 4.962
324.10 4.956
324.20 4.951
324.30 4.945
324.40 4.939
324.50 4.934
324.60 4.928
324.70 4.922
324.80 4.917
324.90 4.911
325.00 4.905
325.10 4.9
325.20 4.894
325.30 4.889
325.40 4.883
325.50 4.877
325.60 4.872
325.70 4.866
325.80 4.861
325.90 4.855
326.00 4.849
326.10 4.844
326.20 4.838
326.30 4.833
326.40 4.827
326.50 4.822
326.60 4.816
326.70 4.811
326.80 4.805
326.90 4.8
327.00 4.794
327.10 4.789
327.20 4.783
327.30 4.778
327.40 4.773
327.50 4.767
327.60 4.762
327.70 4.756
327.80 4.751
327.90 4.745
328.00 4.74
328.10 4.735
328.20 4.729
328.30 4.724
328.40 4.719
328.50 4.713
328.60 4.708
328.70 4.703
328.80 4.697
328.90 4.692
329.00 4.687
329.10 4.681
329.20 4.676
329.30 4.671
329.40 4.665
329.50 4.66
329.60 4.655
329.70 4.65
329.80 4.644
329.90 4.639
330.00 4.634
330.10 4.629
330.20 4.623
330.30 4.618
330.40 4.613
330.50 4.608
330.60 4.603
330.70 4.597
330.80 4.592
330.90 4.587
331.00 4.582
331.10 4.577
331.20 4.572
331.30 4.566
331.40 4.561
331.50 4.556
331.60 4.551
331.70 4.546
331.80 4.541
331.90 4.536
332.00 4.53
332.10 4.525
332.20 4.52
332.30 4.515
332.40 4.51
332.50 4.505
332.60 4.5
332.70 4.495
332.80 4.49
332.90 4.485
333.00 4.48
333.10 4.475
333.20 4.47
333.30 4.465
333.40 4.46
333.50 4.455
333.60 4.45
333.70 4.445
333.80 4.44
333.90 4.435
334.00 4.43
334.10 4.425
334.20 4.42
334.30 4.415
334.40 4.41
334.50 4.405
334.60 4.4
334.70 4.396
334.80 4.391
334.90 4.386
335.00 4.381
335.10 4.376
335.20 4.371
335.30 4.366
335.40 4.361
335.50 4.357
335.60 4.352
335.70 4.347
335.80 4.342
335.90 4.337
336.00 4.332
336.10 4.328
336.20 4.323
336.30 4.318
336.40 4.313
336.50 4.308
336.60 4.304
336.70 4.299
336.80 4.294
336.90 4.289
337.00 4.285
337.10 4.28
337.20 4.275
337.30 4.27
337.40 4.266
337.50 4.261
337.60 4.256
337.70 4.251
337.80 4.247
337.90 4.242
338.00 4.237
338.10 4.233
338.20 4.228
338.30 4.223
338.40 4.219
338.50 4.214
338.60 4.209
338.70 4.205
338.80 4.2
338.90 4.195
339.00 4.191
339.10 4.186
339.20 4.182
339.30 4.177
339.40 4.172
339.50 4.168
339.60 4.163
339.70 4.159
339.80 4.154
339.90 4.149
340.00 4.145
340.10 4.14
340.20 4.136
340.30 4.131
340.40 4.127
340.50 4.122
340.60 4.118
340.70 4.113
340.80 4.109
340.90 4.104
341.00 4.1
341.10 4.095
341.20 4.091
341.30 4.086
341.40 4.082
341.50 4.077
341.60 4.073
341.70 4.068
341.80 4.064
341.90 4.059
342.00 4.055
342.10 4.051
342.20 4.046
342.30 4.042
342.40 4.037
342.50 4.033
342.60 4.029
342.70 4.024
342.80 4.02
342.90 4.015
343.00 4.011
343.10 4.007
343.20 4.002
343.30 3.998
343.40 3.994
343.50 3.989
343.60 3.985
343.70 3.981
343.80 3.976
343.90 3.972
344.00 3.968
344.10 3.963
344.20 3.959
344.30 3.955
344.40 3.95
344.50 3.946
344.60 3.942
344.70 3.938
344.80 3.933
344.90 3.929
345.00 3.925
345.10 3.921
345.20 3.916
345.30 3.912
345.40 3.908
345.50 3.904
345.60 3.899
345.70 3.895
345.80 3.891
345.90 3.887
346.00 3.882
346.10 3.878
346.20 3.874
346.30 3.87
346.40 3.866
346.50 3.862
346.60 3.857
346.70 3.853
346.80 3.849
346.90 3.845
347.00 3.841
347.10 3.837
347.20 3.833
347.30 3.828
347.40 3.824
347.50 3.82
347.60 3.816
347.70 3.812
347.80 3.808
347.90 3.804
348.00 3.8
348.10 3.796
348.20 3.791
348.30 3.787
348.40 3.783
348.50 3.779
348.60 3.775
348.70 3.771
348.80 3.767
348.90 3.763
349.00 3.759
349.10 3.755
349.20 3.751
349.30 3.747
349.40 3.743
349.50 3.739
349.60 3.735
349.70 3.731
349.80 3.727
349.90 3.723
350.00 3.719
350.10 3.715
350.20 3.711
350.30 3.707
350.40 3.703
350.50 3.699
350.60 3.695
350.70 3.691
350.80 3.687
350.90 3.683
351.00 3.68
351.10 3.676
351.20 3.672
351.30 3.668
351.40 3.664
351.50 3.66
351.60 3.656
351.70 3.652
351.80 3.648
351.90 3.644
352.00 3.64
352.10 3.637
352.20 3.633
352.30 3.629
352.40 3.625
352.50 3.621
352.60 3.617
352.70 3.614
352.80 3.61
352.90 3.606
353.00 3.602
353.10 3.598
353.20 3.594
353.30 3.591
353.40 3.587
353.50 3.583
353.60 3.579
353.70 3.575
353.80 3.572
353.90 3.568
354.00 3.564
354.10 3.56
354.20 3.557
354.30 3.553
354.40 3.549
354.50 3.545
354.60 3.542
354.70 3.538
354.80 3.534
354.90 3.53
355.00 3.527
355.10 3.523
355.20 3.519
355.30 3.516
355.40 3.512
355.50 3.508
355.60 3.504
355.70 3.501
355.80 3.497
355.90 3.493
356.00 3.49
356.10 3.486
356.20 3.482
356.30 3.479
356.40 3.475
356.50 3.471
356.60 3.468
356.70 3.464
356.80 3.46
356.90 3.457
357.00 3.453
357.10 3.45
357.20 3.446
357.30 3.442
357.40 3.439
357.50 3.435
357.60 3.432
357.70 3.428
357.80 3.424
357.90 3.421
358.00 3.417
358.10 3.414
358.20 3.41
358.30 3.406
358.40 3.403
358.50 3.399
358.60 3.396
358.70 3.392
358.80 3.389
358.90 3.385
359.00 3.382
359.10 3.378
359.20 3.375
359.30 3.371
359.40 3.368
359.50 3.364
359.60 3.361
359.70 3.357
359.80 3.354
359.90 3.35
360.00 3.347
360.10 3.343
360.20 3.34
360.30 3.336
360.40 3.333
360.50 3.329
360.60 3.326
360.70 3.322
360.80 3.319
360.90 3.315
361.00 3.312
361.10 3.309
361.20 3.305
361.30 3.302
361.40 3.298
361.50 3.295
361.60 3.291
361.70 3.288
361.80 3.285
361.90 3.281
362.00 3.278
362.10 3.274
362.20 3.271
362.30 3.268
362.40 3.264
362.50 3.261
362.60 3.257
362.70 3.254
362.80 3.251
362.90 3.247
363.00 3.244
363.10 3.241
363.20 3.237
363.30 3.234
363.40 3.231
363.50 3.227
363.60 3.224
363.70 3.221
363.80 3.217
363.90 3.214
364.00 3.211
364.10 3.207
364.20 3.204
364.30 3.201
364.40 3.198
364.50 3.194
364.60 3.191
364.70 3.188
364.80 3.184
364.90 3.181
365.00 3.178
365.10 3.175
365.20 3.171
365.30 3.168
365.40 3.165
365.50 3.162
365.60 3.158
365.70 3.155
365.80 3.152
365.90 3.149
366.00 3.145
366.10 3.142
366.20 3.139
366.30 3.136
366.40 3.132
366.50 3.129
366.60 3.126
366.70 3.123
366.80 3.119
366.90 3.116
367.00 3.113
367.10 3.109
367.20 3.106
367.30 3.103
367.40 3.1
367.50 3.097
367.60 3.093
367.70 3.09
367.80 3.087
367.90 3.084
368.00 3.08
368.10 3.077
368.20 3.074
368.30 3.071
368.40 3.068
368.50 3.064
368.60 3.061
368.70 3.058
368.80 3.055
368.90 3.052
369.00 3.048
369.10 3.045
369.20 3.042
369.30 3.039
369.40 3.036
369.50 3.033
369.60 3.029
369.70 3.026
369.80 3.023
369.90 3.02
370.00 3.017
370.10 3.014
370.20 3.011
370.30 3.007
370.40 3.004
370.50 3.001
370.60 2.998
370.70 2.995
370.80 2.992
370.90 2.989
371.00 2.986
371.10 2.983
371.20 2.98
371.30 2.977
371.40 2.973
371.50 2.97
371.60 2.967
371.70 2.964
371.80 2.961
371.90 2.958
372.00 2.955
372.10 2.952
372.20 2.949
372.30 2.946
372.40 2.943
372.50 2.94
372.60 2.937
372.70 2.934
372.80 2.931
372.90 2.928
373.00 2.925
373.10 2.922
373.20 2.919
373.30 2.916
373.40 2.913
373.50 2.91
373.60 2.907
373.70 2.904
373.80 2.901
373.90 2.898
374.00 2.895
374.10 2.893
374.20 2.89
374.30 2.887
374.40 2.884
374.50 2.881
374.60 2.878
374.70 2.875
374.80 2.872
374.90 2.869
375.00 2.867
375.10 2.864
375.20 2.861
375.30 2.858
375.40 2.855
375.50 2.852
375.60 2.849
375.70 2.846
375.80 2.844
375.90 2.841
376.00 2.838
376.10 2.835
376.20 2.832
376.30 2.829
376.40 2.827
376.50 2.824
376.60 2.821
376.70 2.818
376.80 2.816
376.90 2.813
377.00 2.81
377.10 2.807
377.20 2.805
377.30 2.802
377.40 2.799
377.50 2.797
377.60 2.794
377.70 2.791
377.80 2.789
377.90 2.786
378.00 2.783
378.10 2.781
378.20 2.778
378.30 2.775
378.40 2.773
378.50 2.77
378.60 2.767
378.70 2.764
378.80 2.762
378.90 2.759
379.00 2.756
379.10 2.754
379.20 2.751
379.30 2.749
379.40 2.746
379.50 2.743
379.60 2.741
379.70 2.738
379.80 2.735
379.90 2.733
380.00 2.73
380.10 2.728
380.20 2.725
380.30 2.723
380.40 2.721
380.50 2.718
380.60 2.716
380.70 2.714
380.80 2.711
380.90 2.709
381.00 2.706
381.10 2.704
381.20 2.701
381.30 2.699
381.40 2.696
381.50 2.694
381.60 2.691
381.70 2.689
381.80 2.686
381.90 2.683
382.00 2.68
382.10 2.678
382.20 2.675
382.30 2.672
382.40 2.669
382.50 2.666
382.60 2.663
382.70 2.66
382.80 2.657
382.90 2.654
383.00 2.651
383.10 2.648
383.20 2.645
383.30 2.643
383.40 2.64
383.50 2.637
383.60 2.635
383.70 2.633
383.80 2.631
383.90 2.63
384.00 2.628
384.10 2.626
384.20 2.625
384.30 2.623
384.40 2.621
384.50 2.62
384.60 2.618
384.70 2.616
384.80 2.614
384.90 2.612
385.00 2.611
385.10 2.609
385.20 2.606
385.30 2.604
385.40 2.602
385.50 2.6
385.60 2.598
385.70 2.595
385.80 2.593
385.90 2.59
386.00 2.588
386.10 2.585
386.20 2.582
386.30 2.579
386.40 2.576
386.50 2.573
386.60 2.57
386.70 2.567
386.80 2.564
386.90 2.56
387.00 2.557
387.10 2.553
387.20 2.55
387.30 2.546
387.40 2.542
387.50 2.538
387.60 2.534
387.70 2.531
387.80 2.526
387.90 2.522
388.00 2.518
388.10 2.514
388.20 2.51
388.30 2.506
388.40 2.502
388.50 2.498
388.60 2.494
388.70 2.491
388.80 2.488
388.90 2.486
389.00 2.484
389.10 2.483
389.20 2.481
389.30 2.481
389.40 2.481
389.50 2.48
389.60 2.48
389.70 2.48
389.80 2.48
389.90 2.48
390.00 2.48
390.10 2.48
390.20 2.48
390.30 2.479
390.40 2.479
390.50 2.479
390.60 2.478
390.70 2.478
390.80 2.477
390.90 2.476
391.00 2.475
391.10 2.474
391.20 2.473
391.30 2.472
391.40 2.471
391.50 2.47
391.60 2.468
391.70 2.467
391.80 2.465
391.90 2.464
392.00 2.462
392.10 2.46
392.20 2.458
392.30 2.456
392.40 2.454
392.50 2.452
392.60 2.45
392.70 2.447
392.80 2.445
392.90 2.442
393.00 2.44
393.10 2.437
393.20 2.434
393.30 2.431
393.40 2.428
393.50 2.425
393.60 2.422
393.70 2.418
393.80 2.415
393.90 2.411
394.00 2.407
394.10 2.403
394.20 2.399
394.30 2.395
394.40 2.391
394.50 2.387
394.60 2.382
394.70 2.377
394.80 2.373
394.90 2.368
395.00 2.362
395.10 2.357
395.20 2.352
395.30 2.346
395.40 2.34
395.50 2.335
395.60 2.329
395.70 2.322
395.80 2.316
395.90 2.31
396.00 2.303
396.10 2.297
396.20 2.29
396.30 2.283
396.40 2.276
396.50 2.27
396.60 2.263
396.70 2.256
396.80 2.25
396.90 2.243
397.00 2.238
397.10 2.239
397.20 2.241
397.30 2.243
397.40 2.246
397.50 2.249
397.60 2.252
397.70 2.255
397.80 2.257
397.90 2.26
398.00 2.263
398.10 2.265
398.20 2.267
398.30 2.27
398.40 2.272
398.50 2.274
398.60 2.275
398.70 2.277
398.80 2.279
398.90 2.28
399.00 2.281
399.10 2.282
399.20 2.283
399.30 2.284
399.40 2.285
399.50 2.285
399.60 2.286
399.70 2.286
399.80 2.286
399.90 2.286
400.00 2.286
400.10 2.286
400.20 2.286
400.30 2.286
400.40 2.285
400.50 2.285
400.60 2.284
400.70 2.284
400.80 2.283
400.90 2.282
401.00 2.281
401.10 2.28
401.20 2.279
401.30 2.278
401.40 2.277
401.50 2.276
401.60 2.274
401.70 2.273
401.80 2.272
401.90 2.27
402.00 2.269
402.10 2.267
402.20 2.265
402.30 2.264
402.40 2.262
402.50 2.26
402.60 2.259
402.70 2.257
402.80 2.255
402.90 2.253
403.00 2.251
403.10 2.249
403.20 2.247
403.30 2.245
403.40 2.243
403.50 2.241
403.60 2.239
403.70 2.237
403.80 2.235
403.90 2.232
404.00 2.23
404.10 2.228
404.20 2.225
404.30 2.223
404.40 2.221
404.50 2.218
404.60 2.215
404.70 2.213
404.80 2.21
404.90 2.208
405.00 2.205
405.10 2.202
405.20 2.199
405.30 2.196
405.40 2.193
405.50 2.19
405.60 2.187
405.70 2.184
405.80 2.181
405.90 2.178
406.00 2.174
406.10 2.171
406.20 2.167
406.30 2.164
406.40 2.16
406.50 2.156
406.60 2.152
406.70 2.148
406.80 2.144
406.90 2.139
407.00 2.135
407.10 2.13
407.20 2.126
407.30 2.121
407.40 2.116
407.50 2.11
407.60 2.105
407.70 2.099
407.80 2.094
407.90 2.088
408.00 2.082
408.10 2.075
408.20 2.069
408.30 2.062
408.40 2.055
408.50 2.047
408.60 2.04
408.70 2.032
408.80 2.024
408.90 2.016
409.00 2.007
409.10 1.999
409.20 1.99
409.30 1.98
409.40 1.971
409.50 1.961
409.60 1.952
409.70 1.942
409.80 1.933
409.90 1.924
410.00 1.919
410.10 1.918
410.20 1.92
410.30 1.915
410.40 1.914
410.50 1.918
410.60 1.923
410.70 1.929
410.80 1.936
410.90 1.942
411.00 1.947
411.10 1.953
411.20 1.959
411.30 1.964
411.40 1.969
411.50 1.974
411.60 1.978
411.70 1.982
411.80 1.986
411.90 1.99
412.00 1.993
412.10 1.996
412.20 1.999
412.30 2.002
412.40 2.004
412.50 2.006
412.60 2.009
412.70 2.01
412.80 2.012
412.90 2.013
413.00 2.015
413.10 2.016
413.20 2.017
413.30 2.017
413.40 2.018
413.50 2.019
413.60 2.019
413.70 2.019
413.80 2.019
413.90 2.019
414.00 2.019
414.10 2.019
414.20 2.019
414.30 2.019
414.40 2.018
414.50 2.018
414.60 2.017
414.70 2.017
414.80 2.016
414.90 2.015
415.00 2.015
415.10 2.014
415.20 2.013
415.30 2.012
415.40 2.011
415.50 2.01
415.60 2.009
415.70 2.008
415.80 2.007
415.90 2.005
416.00 2.004
416.10 2.003
416.20 2.002
416.30 2
416.40 1.999
416.50 1.998
416.60 1.996
416.70 1.995
416.80 1.994
416.90 1.992
417.00 1.991
417.10 1.989
417.20 1.988
417.30 1.986
417.40 1.985
417.50 1.983
417.60 1.982
417.70 1.98
417.80 1.979
417.90 1.977
418.00 1.976
418.10 1.974
418.20 1.973
418.30 1.971
418.40 1.969
418.50 1.968
418.60 1.966
418.70 1.965
418.80 1.963
418.90 1.961
419.00 1.96
419.10 1.958
419.20 1.956
419.30 1.955
419.40 1.953
419.50 1.951
419.60 1.95
419.70 1.948
419.80 1.947
419.90 1.945
420.00 1.943
420.10 1.941
420.20 1.94
420.30 1.938
420.40 1.936
420.50 1.935
420.60 1.933
420.70 1.931
420.80 1.93
420.90 1.928
421.00 1.926
421.10 1.925
421.20 1.923
421.30 1.921
421.40 1.919
421.50 1.918
421.60 1.916
421.70 1.914
421.80 1.913
421.90 1.911
422.00 1.909
422.10 1.907
422.20 1.906
422.30 1.904
422.40 1.902
422.50 1.901
422.60 1.899
422.70 1.897
422.80 1.895
422.90 1.894
423.00 1.892
423.10 1.89
423.20 1.888
423.30 1.887
423.40 1.885
423.50 1.883
423.60 1.881
423.70 1.88
423.80 1.878
423.90 1.876
424.00 1.874
424.10 1.873
424.20 1.871
424.30 1.869
424.40 1.867
424.50 1.866
424.60 1.864
424.70 1.862
424.80 1.86
424.90 1.858
425.00 1.857
425.10 1.855
425.20 1.853
425.30 1.851
425.40 1.849
425.50 1.848
425.60 1.846
425.70 1.844
425.80 1.842
425.90 1.84
426.00 1.838
426.10 1.837
426.20 1.835
426.30 1.833
426.40 1.831
426.50 1.829
426.60 1.827
426.70 1.825
426.80 1.823
426.90 1.822
427.00 1.82
427.10 1.818
427.20 1.816
427.30 1.814
427.40 1.812
427.50 1.81
427.60 1.808
427.70 1.806
427.80 1.804
427.90 1.801
428.00 1.799
428.10 1.797
428.20 1.795
428.30 1.793
428.40 1.791
428.50 1.788
428.60 1.786
428.70 1.784
428.80 1.782
428.90 1.779
429.00 1.777
429.10 1.774
429.20 1.772
429.30 1.769
429.40 1.767
429.50 1.764
429.60 1.761
429.70 1.759
429.80 1.756
429.90 1.753
430.00 1.75
430.10 1.747
430.20 1.744
430.30 1.74
430.40 1.737
430.50 1.734
430.60 1.73
430.70 1.726
430.80 1.723
430.90 1.719
431.00 1.715
431.10 1.71
431.20 1.706
431.30 1.701
431.40 1.697
431.50 1.692
431.60 1.687
431.70 1.681
431.80 1.676
431.90 1.67
432.00 1.664
432.10 1.658
432.20 1.651
432.30 1.645
432.40 1.638
432.50 1.63
432.60 1.623
432.70 1.615
432.80 1.607
432.90 1.598
433.00 1.589
433.10 1.58
433.20 1.571
433.30 1.562
433.40 1.553
433.50 1.543
433.60 1.534
433.70 1.524
433.80 1.515
433.90 1.506
434.00 1.499
434.10 1.498
434.20 1.503
434.30 1.51
434.40 1.516
434.50 1.523
434.60 1.53
434.70 1.536
434.80 1.543
434.90 1.55
435.00 1.556
435.10 1.562
435.20 1.568
435.30 1.574
435.40 1.579
435.50 1.584
435.60 1.589
435.70 1.593
435.80 1.597
435.90 1.601
436.00 1.605
436.10 1.608
436.20 1.611
436.30 1.614
436.40 1.616
436.50 1.618
436.60 1.62
436.70 1.622
436.80 1.624
436.90 1.625
437.00 1.627
437.10 1.628
437.20 1.629
437.30 1.63
437.40 1.63
437.50 1.631
437.60 1.631
437.70 1.632
437.80 1.632
437.90 1.632
438.00 1.632
438.10 1.632
438.20 1.632
438.30 1.632
438.40 1.632
438.50 1.631
438.60 1.631
438.70 1.631
438.80 1.63
438.90 1.63
439.00 1.629
439.10 1.628
439.20 1.628
439.30 1.627
439.40 1.626
439.50 1.625
439.60 1.625
439.70 1.624
439.80 1.623
439.90 1.622
440.00 1.621
440.10 1.62
440.20 1.619
440.30 1.618
440.40 1.617
440.50 1.616
440.60 1.615
440.70 1.614
440.80 1.613
440.90 1.612
441.00 1.611
441.10 1.61
441.20 1.609
441.30 1.608
441.40 1.606
441.50 1.605
441.60 1.604
441.70 1.603
441.80 1.602
441.90 1.601
442.00 1.599
442.10 1.598
442.20 1.597
442.30 1.596
442.40 1.595
442.50 1.593
442.60 1.592
442.70 1.591
442.80 1.59
442.90 1.588
443.00 1.587
443.10 1.586
443.20 1.585
443.30 1.583
443.40 1.582
443.50 1.581
443.60 1.58
443.70 1.578
443.80 1.577
443.90 1.576
444.00 1.575
444.10 1.573
444.20 1.572
444.30 1.571
444.40 1.569
444.50 1.568
444.60 1.567
444.70 1.566
444.80 1.564
444.90 1.563
445.00 1.562
445.10 1.561
445.20 1.559
445.30 1.558
445.40 1.557
445.50 1.555
445.60 1.554
445.70 1.553
445.80 1.552
445.90 1.55
446.00 1.549
446.10 1.548
446.20 1.546
446.30 1.545
446.40 1.544
446.50 1.543
446.60 1.541
446.70 1.54
446.80 1.539
446.90 1.537
447.00 1.536
447.10 1.535
447.20 1.534
447.30 1.532
447.40 1.531
447.50 1.53
447.60 1.528
447.70 1.527
447.80 1.526
447.90 1.525
448.00 1.523
448.10 1.522
448.20 1.521
448.30 1.52
448.40 1.518
448.50 1.517
448.60 1.516
448.70 1.514
448.80 1.513
448.90 1.512
449.00 1.511
449.10 1.509
449.20 1.508
449.30 1.507
449.40 1.506
449.50 1.504
449.60 1.503
449.70 1.502
449.80 1.501
449.90 1.499
450.00 1.498
450.10 1.497
450.20 1.495
450.30 1.494
450.40 1.493
450.50 1.492
450.60 1.49
450.70 1.489
450.80 1.488
450.90 1.487
451.00 1.485
451.10 1.484
451.20 1.483
451.30 1.482
451.40 1.48
451.50 1.479
451.60 1.478
451.70 1.477
451.80 1.475
451.90 1.474
452.00 1.473
452.10 1.472
452.20 1.471
452.30 1.469
452.40 1.468
452.50 1.467
452.60 1.466
452.70 1.464
452.80 1.463
452.90 1.462
453.00 1.461
453.10 1.459
453.20 1.458
453.30 1.457
453.40 1.456
453.50 1.455
453.60 1.453
453.70 1.452
453.80 1.451
453.90 1.45
454.00 1.448
454.10 1.447
454.20 1.446
