# Version 2.1 - nm, norm@500 to 1, cut digits, bergeron_11500_75.dat_11500
# Wavelength(nm)  Flambda(ergs/cm^s/s/nm)
300.00 1.639
300.10 1.638
300.20 1.637
300.30 1.636
300.40 1.635
300.50 1.634
300.60 1.633
300.70 1.632
300.80 1.631
300.90 1.63
301.00 1.629
301.10 1.628
301.20 1.628
301.30 1.627
301.40 1.626
301.50 1.625
301.60 1.624
301.70 1.623
301.80 1.622
301.90 1.621
302.00 1.62
302.10 1.619
302.20 1.618
302.30 1.617
302.40 1.616
302.50 1.615
302.60 1.614
302.70 1.613
302.80 1.612
302.90 1.611
303.00 1.61
303.10 1.609
303.20 1.608
303.30 1.607
303.40 1.607
303.50 1.606
303.60 1.605
303.70 1.604
303.80 1.603
303.90 1.602
304.00 1.601
304.10 1.6
304.20 1.599
304.30 1.598
304.40 1.597
304.50 1.596
304.60 1.595
304.70 1.594
304.80 1.593
304.90 1.592
305.00 1.591
305.10 1.59
305.20 1.59
305.30 1.589
305.40 1.588
305.50 1.587
305.60 1.586
305.70 1.585
305.80 1.584
305.90 1.583
306.00 1.582
306.10 1.581
306.20 1.58
306.30 1.579
306.40 1.578
306.50 1.577
306.60 1.577
306.70 1.576
306.80 1.575
306.90 1.574
307.00 1.573
307.10 1.572
307.20 1.571
307.30 1.57
307.40 1.569
307.50 1.568
307.60 1.567
307.70 1.566
307.80 1.565
307.90 1.565
308.00 1.564
308.10 1.563
308.20 1.562
308.30 1.561
308.40 1.56
308.50 1.559
308.60 1.558
308.70 1.557
308.80 1.556
308.90 1.555
309.00 1.554
309.10 1.554
309.20 1.553
309.30 1.552
309.40 1.551
309.50 1.55
309.60 1.549
309.70 1.548
309.80 1.547
309.90 1.546
310.00 1.545
310.10 1.544
310.20 1.544
310.30 1.543
310.40 1.542
310.50 1.541
310.60 1.54
310.70 1.539
310.80 1.538
310.90 1.537
311.00 1.536
311.10 1.535
311.20 1.535
311.30 1.534
311.40 1.533
311.50 1.532
311.60 1.531
311.70 1.53
311.80 1.529
311.90 1.528
312.00 1.527
312.10 1.526
312.20 1.526
312.30 1.525
312.40 1.524
312.50 1.523
312.60 1.522
312.70 1.521
312.80 1.52
312.90 1.519
313.00 1.518
313.10 1.518
313.20 1.517
313.30 1.516
313.40 1.515
313.50 1.514
313.60 1.513
313.70 1.512
313.80 1.511
313.90 1.51
314.00 1.51
314.10 1.509
314.20 1.508
314.30 1.507
314.40 1.506
314.50 1.505
314.60 1.504
314.70 1.503
314.80 1.503
314.90 1.502
315.00 1.501
315.10 1.5
315.20 1.499
315.30 1.498
315.40 1.497
315.50 1.496
315.60 1.496
315.70 1.495
315.80 1.494
315.90 1.493
316.00 1.492
316.10 1.491
316.20 1.49
316.30 1.489
316.40 1.489
316.50 1.488
316.60 1.487
316.70 1.486
316.80 1.485
316.90 1.484
317.00 1.483
317.10 1.483
317.20 1.482
317.30 1.481
317.40 1.48
317.50 1.479
317.60 1.478
317.70 1.477
317.80 1.477
317.90 1.476
318.00 1.475
318.10 1.474
318.20 1.473
318.30 1.472
318.40 1.471
318.50 1.471
318.60 1.47
318.70 1.469
318.80 1.468
318.90 1.467
319.00 1.466
319.10 1.465
319.20 1.465
319.30 1.464
319.40 1.463
319.50 1.462
319.60 1.461
319.70 1.46
319.80 1.46
319.90 1.459
320.00 1.458
320.10 1.457
320.20 1.456
320.30 1.455
320.40 1.454
320.50 1.454
320.60 1.453
320.70 1.452
320.80 1.451
320.90 1.45
321.00 1.449
321.10 1.449
321.20 1.448
321.30 1.447
321.40 1.446
321.50 1.445
321.60 1.444
321.70 1.444
321.80 1.443
321.90 1.442
322.00 1.441
322.10 1.44
322.20 1.439
322.30 1.439
322.40 1.438
322.50 1.437
322.60 1.436
322.70 1.435
322.80 1.434
322.90 1.434
323.00 1.433
323.10 1.432
323.20 1.431
323.30 1.43
323.40 1.429
323.50 1.429
323.60 1.428
323.70 1.427
323.80 1.426
323.90 1.425
324.00 1.424
324.10 1.424
324.20 1.423
324.30 1.422
324.40 1.421
324.50 1.42
324.60 1.42
324.70 1.419
324.80 1.418
324.90 1.417
325.00 1.416
325.10 1.415
325.20 1.415
325.30 1.414
325.40 1.413
325.50 1.412
325.60 1.411
325.70 1.411
325.80 1.41
325.90 1.409
326.00 1.408
326.10 1.407
326.20 1.407
326.30 1.406
326.40 1.405
326.50 1.404
326.60 1.403
326.70 1.402
326.80 1.402
326.90 1.401
327.00 1.4
327.10 1.399
327.20 1.398
327.30 1.398
327.40 1.397
327.50 1.396
327.60 1.395
327.70 1.394
327.80 1.394
327.90 1.393
328.00 1.392
328.10 1.391
328.20 1.39
328.30 1.39
328.40 1.389
328.50 1.388
328.60 1.387
328.70 1.386
328.80 1.386
328.90 1.385
329.00 1.384
329.10 1.383
329.20 1.382
329.30 1.382
329.40 1.381
329.50 1.38
329.60 1.379
329.70 1.379
329.80 1.378
329.90 1.377
330.00 1.376
330.10 1.375
330.20 1.375
330.30 1.374
330.40 1.373
330.50 1.372
330.60 1.371
330.70 1.371
330.80 1.37
330.90 1.369
331.00 1.368
331.10 1.367
331.20 1.367
331.30 1.366
331.40 1.365
331.50 1.364
331.60 1.364
331.70 1.363
331.80 1.362
331.90 1.361
332.00 1.36
332.10 1.36
332.20 1.359
332.30 1.358
332.40 1.357
332.50 1.357
332.60 1.356
332.70 1.355
332.80 1.354
332.90 1.353
333.00 1.353
333.10 1.352
333.20 1.351
333.30 1.35
333.40 1.35
333.50 1.349
333.60 1.348
333.70 1.347
333.80 1.347
333.90 1.346
334.00 1.345
334.10 1.344
334.20 1.343
334.30 1.343
334.40 1.342
334.50 1.341
334.60 1.34
334.70 1.34
334.80 1.339
334.90 1.338
335.00 1.337
335.10 1.337
335.20 1.336
335.30 1.335
335.40 1.334
335.50 1.334
335.60 1.333
335.70 1.332
335.80 1.331
335.90 1.331
336.00 1.33
336.10 1.329
336.20 1.328
336.30 1.328
336.40 1.327
336.50 1.326
336.60 1.325
336.70 1.324
336.80 1.324
336.90 1.323
337.00 1.322
337.10 1.321
337.20 1.321
337.30 1.32
337.40 1.319
337.50 1.318
337.60 1.318
337.70 1.317
337.80 1.316
337.90 1.316
338.00 1.315
338.10 1.314
338.20 1.313
338.30 1.313
338.40 1.312
338.50 1.311
338.60 1.31
338.70 1.31
338.80 1.309
338.90 1.308
339.00 1.307
339.10 1.307
339.20 1.306
339.30 1.305
339.40 1.304
339.50 1.304
339.60 1.303
339.70 1.302
339.80 1.301
339.90 1.301
340.00 1.3
340.10 1.299
340.20 1.298
340.30 1.298
340.40 1.297
340.50 1.296
340.60 1.296
340.70 1.295
340.80 1.294
340.90 1.293
341.00 1.293
341.10 1.292
341.20 1.291
341.30 1.29
341.40 1.29
341.50 1.289
341.60 1.288
341.70 1.288
341.80 1.287
341.90 1.286
342.00 1.285
342.10 1.285
342.20 1.284
342.30 1.283
342.40 1.282
342.50 1.282
342.60 1.281
342.70 1.28
342.80 1.28
342.90 1.279
343.00 1.278
343.10 1.277
343.20 1.277
343.30 1.276
343.40 1.275
343.50 1.275
343.60 1.274
343.70 1.273
343.80 1.272
343.90 1.272
344.00 1.271
344.10 1.27
344.20 1.27
344.30 1.269
344.40 1.268
344.50 1.267
344.60 1.267
344.70 1.266
344.80 1.265
344.90 1.265
345.00 1.264
345.10 1.263
345.20 1.262
345.30 1.262
345.40 1.261
345.50 1.26
345.60 1.26
345.70 1.259
345.80 1.258
345.90 1.257
346.00 1.257
346.10 1.256
346.20 1.255
346.30 1.255
346.40 1.254
346.50 1.253
346.60 1.252
346.70 1.252
346.80 1.251
346.90 1.25
347.00 1.25
347.10 1.249
347.20 1.248
347.30 1.248
347.40 1.247
347.50 1.246
347.60 1.245
347.70 1.245
347.80 1.244
347.90 1.243
348.00 1.243
348.10 1.242
348.20 1.241
348.30 1.241
348.40 1.24
348.50 1.239
348.60 1.239
348.70 1.238
348.80 1.237
348.90 1.236
349.00 1.236
349.10 1.235
349.20 1.234
349.30 1.234
349.40 1.233
349.50 1.232
349.60 1.232
349.70 1.231
349.80 1.23
349.90 1.23
350.00 1.229
350.10 1.228
350.20 1.228
350.30 1.227
350.40 1.226
350.50 1.225
350.60 1.225
350.70 1.224
350.80 1.223
350.90 1.223
351.00 1.222
351.10 1.221
351.20 1.221
351.30 1.22
351.40 1.219
351.50 1.219
351.60 1.218
351.70 1.217
351.80 1.217
351.90 1.216
352.00 1.215
352.10 1.215
352.20 1.214
352.30 1.213
352.40 1.213
352.50 1.212
352.60 1.211
352.70 1.211
352.80 1.21
352.90 1.209
353.00 1.209
353.10 1.208
353.20 1.207
353.30 1.206
353.40 1.206
353.50 1.205
353.60 1.204
353.70 1.204
353.80 1.203
353.90 1.202
354.00 1.202
354.10 1.201
354.20 1.2
354.30 1.2
354.40 1.199
354.50 1.198
354.60 1.198
354.70 1.197
354.80 1.196
354.90 1.196
355.00 1.195
355.10 1.194
355.20 1.194
355.30 1.193
355.40 1.193
355.50 1.192
355.60 1.191
355.70 1.191
355.80 1.19
355.90 1.189
356.00 1.189
356.10 1.188
356.20 1.187
356.30 1.187
356.40 1.186
356.50 1.185
356.60 1.185
356.70 1.184
356.80 1.183
356.90 1.183
357.00 1.182
357.10 1.181
357.20 1.181
357.30 1.18
357.40 1.179
357.50 1.179
357.60 1.178
357.70 1.177
357.80 1.177
357.90 1.176
358.00 1.175
358.10 1.175
358.20 1.174
358.30 1.174
358.40 1.173
358.50 1.172
358.60 1.172
358.70 1.171
358.80 1.17
358.90 1.17
359.00 1.169
359.10 1.168
359.20 1.168
359.30 1.167
359.40 1.166
359.50 1.166
359.60 1.165
359.70 1.165
359.80 1.164
359.90 1.163
360.00 1.163
360.10 1.162
360.20 1.161
360.30 1.161
360.40 1.16
360.50 1.159
360.60 1.159
360.70 1.158
360.80 1.157
360.90 1.157
361.00 1.156
361.10 1.156
361.20 1.155
361.30 1.154
361.40 1.154
361.50 1.153
361.60 1.152
361.70 1.152
361.80 1.151
361.90 1.15
362.00 1.15
362.10 1.149
362.20 1.149
362.30 1.148
362.40 1.147
362.50 1.147
362.60 1.146
362.70 1.145
362.80 1.145
362.90 1.144
363.00 1.144
363.10 1.143
363.20 1.142
363.30 1.141
363.40 1.141
363.50 1.14
363.60 1.139
363.70 1.139
363.80 1.138
363.90 1.137
364.00 1.137
364.10 1.136
364.20 1.135
364.30 1.135
364.40 1.134
364.50 1.133
364.60 1.133
364.70 1.132
364.80 1.131
364.90 1.131
365.00 1.13
365.10 1.129
365.20 1.129
365.30 1.128
365.40 1.127
365.50 1.127
365.60 1.126
365.70 1.125
365.80 1.125
365.90 1.124
366.00 1.123
366.10 1.123
366.20 1.122
366.30 1.121
366.40 1.121
366.50 1.12
366.60 1.12
366.70 1.119
366.80 1.118
366.90 1.118
367.00 1.117
367.10 1.117
367.20 1.116
367.30 1.115
367.40 1.115
367.50 1.114
367.60 1.114
367.70 1.113
367.80 1.112
367.90 1.112
368.00 1.111
368.10 1.111
368.20 1.111
368.30 1.111
368.40 1.111
368.50 1.11
368.60 1.11
368.70 1.11
368.80 1.11
368.90 1.11
369.00 1.11
369.10 1.11
369.20 1.109
369.30 1.109
369.40 1.109
369.50 1.109
369.60 1.109
369.70 1.109
369.80 1.109
369.90 1.108
370.00 1.108
370.10 1.109
370.20 1.11
370.30 1.111
370.40 1.112
370.50 1.113
370.60 1.114
370.70 1.115
370.80 1.116
370.90 1.117
371.00 1.118
371.10 1.119
371.20 1.12
371.30 1.121
371.40 1.122
371.50 1.123
371.60 1.124
371.70 1.125
371.80 1.126
371.90 1.127
372.00 1.128
372.10 1.131
372.20 1.133
372.30 1.135
372.40 1.137
372.50 1.14
372.60 1.142
372.70 1.144
372.80 1.146
372.90 1.148
373.00 1.151
373.10 1.153
373.20 1.155
373.30 1.157
373.40 1.16
373.50 1.162
373.60 1.164
373.70 1.166
373.80 1.168
373.90 1.171
374.00 1.173
374.10 1.175
374.20 1.178
374.30 1.18
374.40 1.183
374.50 1.185
374.60 1.188
374.70 1.19
374.80 1.193
374.90 1.195
375.00 1.198
375.10 1.2
375.20 1.203
375.30 1.205
375.40 1.208
375.50 1.21
375.60 1.213
375.70 1.215
375.80 1.218
375.90 1.22
376.00 1.223
376.10 1.224
376.20 1.225
376.30 1.227
376.40 1.228
376.50 1.229
376.60 1.23
376.70 1.232
376.80 1.233
376.90 1.234
377.00 1.236
377.10 1.234
377.20 1.232
377.30 1.23
377.40 1.228
377.50 1.226
377.60 1.225
377.70 1.223
377.80 1.221
377.90 1.219
378.00 1.217
378.10 1.205
378.20 1.194
378.30 1.182
378.40 1.17
378.50 1.158
378.60 1.147
378.70 1.135
378.80 1.123
378.90 1.112
379.00 1.1
379.10 1.09
379.20 1.08
379.30 1.07
379.40 1.06
379.50 1.05
379.60 1.04
379.70 1.03
379.80 1.02
379.90 1.01
380.00 1
380.10 1.016
380.20 1.032
380.30 1.047
380.40 1.063
380.50 1.078
380.60 1.094
380.70 1.109
380.80 1.125
380.90 1.141
381.00 1.156
381.10 1.162
381.20 1.167
381.30 1.173
381.40 1.179
381.50 1.184
381.60 1.184
381.70 1.182
381.80 1.179
381.90 1.173
382.00 1.165
382.10 1.155
382.20 1.142
382.30 1.118
382.40 1.093
382.50 1.069
382.60 1.044
382.70 1.02
382.80 0.9953
382.90 0.9709
383.00 0.9466
383.10 0.9222
383.20 0.8979
383.30 0.8743
383.40 0.8474
383.50 0.8193
383.60 0.8252
383.70 0.8536
383.80 0.8805
383.90 0.9045
384.00 0.9309
384.10 0.9612
384.20 0.9928
384.30 1.024
384.40 1.054
384.50 1.082
384.60 1.107
384.70 1.129
384.80 1.15
384.90 1.168
385.00 1.184
385.10 1.197
385.20 1.209
385.30 1.219
385.40 1.226
385.50 1.233
385.60 1.238
385.70 1.242
385.80 1.245
385.90 1.247
386.00 1.247
386.10 1.247
386.20 1.245
386.30 1.242
386.40 1.238
386.50 1.233
386.60 1.227
386.70 1.22
386.80 1.211
386.90 1.201
387.00 1.191
387.10 1.179
387.20 1.165
387.30 1.15
387.40 1.133
387.50 1.113
387.60 1.092
387.70 1.069
387.80 1.042
387.90 1.014
388.00 0.9828
388.10 0.9476
388.20 0.9107
388.30 0.8721
388.40 0.8329
388.50 0.7962
388.60 0.7618
388.70 0.7289
388.80 0.6967
388.90 0.6651
389.00 0.6942
389.10 0.7252
389.20 0.7579
389.30 0.7918
389.40 0.8283
389.50 0.8673
389.60 0.9064
389.70 0.944
389.80 0.9803
389.90 1.012
390.00 1.043
390.10 1.071
390.20 1.096
390.30 1.12
390.40 1.142
390.50 1.161
390.60 1.18
390.70 1.197
390.80 1.212
390.90 1.227
391.00 1.241
391.10 1.254
391.20 1.266
391.30 1.278
391.40 1.289
391.50 1.299
391.60 1.308
391.70 1.316
391.80 1.324
391.90 1.331
392.00 1.337
392.10 1.343
392.20 1.348
392.30 1.351
392.40 1.354
392.50 1.357
392.60 1.358
392.70 1.359
392.80 1.36
392.90 1.359
393.00 1.357
393.10 1.355
393.20 1.352
393.30 1.348
393.40 1.344
393.50 1.338
393.60 1.332
393.70 1.326
393.80 1.318
393.90 1.309
394.00 1.3
394.10 1.289
394.20 1.278
394.30 1.267
394.40 1.254
394.50 1.24
394.60 1.226
394.70 1.211
394.80 1.195
394.90 1.178
395.00 1.16
395.10 1.142
395.20 1.123
395.30 1.103
395.40 1.081
395.50 1.059
395.60 1.036
395.70 1.011
395.80 0.9853
395.90 0.9572
396.00 0.9278
396.10 0.8971
396.20 0.8633
396.30 0.8279
396.40 0.7909
396.50 0.7519
396.60 0.7142
396.70 0.6777
396.80 0.6418
396.90 0.5996
397.00 0.5509
397.10 0.5957
397.20 0.636
397.30 0.6718
397.40 0.7076
397.50 0.7447
397.60 0.783
397.70 0.8198
397.80 0.8549
397.90 0.8884
398.00 0.9189
398.10 0.948
398.20 0.9758
398.30 1.001
398.40 1.026
398.50 1.05
398.60 1.071
398.70 1.093
398.80 1.113
398.90 1.133
399.00 1.152
399.10 1.17
399.20 1.187
399.30 1.204
399.40 1.221
399.50 1.236
399.60 1.252
399.70 1.266
399.80 1.28
399.90 1.294
400.00 1.307
400.10 1.319
400.20 1.331
400.30 1.342
400.40 1.353
400.50 1.363
400.60 1.373
400.70 1.382
400.80 1.391
400.90 1.399
401.00 1.407
401.10 1.415
401.20 1.422
401.30 1.428
401.40 1.435
401.50 1.441
401.60 1.446
401.70 1.451
401.80 1.456
401.90 1.461
402.00 1.465
402.10 1.469
402.20 1.472
402.30 1.475
402.40 1.478
402.50 1.48
402.60 1.482
402.70 1.484
402.80 1.486
402.90 1.487
403.00 1.488
403.10 1.489
403.20 1.489
403.30 1.489
403.40 1.489
403.50 1.488
403.60 1.487
403.70 1.486
403.80 1.485
403.90 1.483
404.00 1.481
404.10 1.478
404.20 1.476
404.30 1.473
404.40 1.469
404.50 1.466
404.60 1.462
404.70 1.458
404.80 1.453
404.90 1.448
405.00 1.443
405.10 1.438
405.20 1.432
405.30 1.425
405.40 1.419
405.50 1.412
405.60 1.405
405.70 1.397
405.80 1.389
405.90 1.38
406.00 1.372
406.10 1.362
406.20 1.353
406.30 1.343
406.40 1.332
406.50 1.321
406.60 1.31
406.70 1.298
406.80 1.286
406.90 1.273
407.00 1.259
407.10 1.246
407.20 1.231
407.30 1.216
407.40 1.201
407.50 1.185
407.60 1.168
407.70 1.151
407.80 1.133
407.90 1.115
408.00 1.096
408.10 1.077
408.20 1.057
408.30 1.036
408.40 1.015
408.50 0.994
408.60 0.9721
408.70 0.9498
408.80 0.9268
408.90 0.9034
409.00 0.8794
409.10 0.8544
409.20 0.8286
409.30 0.802
409.40 0.7734
409.50 0.7434
409.60 0.7122
409.70 0.6792
409.80 0.6463
409.90 0.6133
410.00 0.5743
410.10 0.5327
410.20 0.4885
410.30 0.5483
410.40 0.5955
410.50 0.63
410.60 0.6626
410.70 0.6949
410.80 0.7269
410.90 0.7565
411.00 0.7849
411.10 0.812
411.20 0.8371
411.30 0.8616
411.40 0.8854
411.50 0.9081
411.60 0.9303
411.70 0.952
411.80 0.973
411.90 0.9936
412.00 1.014
412.10 1.033
412.20 1.052
412.30 1.071
412.40 1.089
412.50 1.106
412.60 1.123
412.70 1.14
412.80 1.155
412.90 1.171
413.00 1.186
413.10 1.2
413.20 1.214
413.30 1.227
413.40 1.239
413.50 1.252
413.60 1.263
413.70 1.275
413.80 1.286
413.90 1.296
414.00 1.306
414.10 1.316
414.20 1.325
414.30 1.334
414.40 1.343
414.50 1.351
414.60 1.36
414.70 1.367
414.80 1.375
414.90 1.382
415.00 1.389
415.10 1.396
415.20 1.402
415.30 1.408
415.40 1.414
415.50 1.42
415.60 1.426
415.70 1.431
415.80 1.436
415.90 1.441
416.00 1.446
416.10 1.45
416.20 1.454
416.30 1.459
416.40 1.463
416.50 1.466
416.60 1.47
416.70 1.474
416.80 1.477
416.90 1.48
417.00 1.483
417.10 1.486
417.20 1.489
417.30 1.492
417.40 1.494
417.50 1.497
417.60 1.499
417.70 1.501
417.80 1.504
417.90 1.506
418.00 1.507
418.10 1.509
418.20 1.511
418.30 1.513
418.40 1.514
418.50 1.515
418.60 1.517
418.70 1.518
418.80 1.519
418.90 1.52
419.00 1.521
419.10 1.522
419.20 1.523
419.30 1.524
419.40 1.524
419.50 1.525
419.60 1.525
419.70 1.526
419.80 1.526
419.90 1.526
420.00 1.527
420.10 1.527
420.20 1.527
420.30 1.527
420.40 1.527
420.50 1.527
420.60 1.527
420.70 1.527
420.80 1.527
420.90 1.526
421.00 1.526
421.10 1.526
421.20 1.525
421.30 1.525
421.40 1.524
421.50 1.524
421.60 1.523
421.70 1.522
421.80 1.521
421.90 1.521
422.00 1.52
422.10 1.519
422.20 1.518
422.30 1.517
422.40 1.516
422.50 1.515
422.60 1.513
422.70 1.512
422.80 1.511
422.90 1.509
423.00 1.508
423.10 1.507
423.20 1.505
423.30 1.504
423.40 1.502
423.50 1.5
423.60 1.499
423.70 1.497
423.80 1.495
423.90 1.493
424.00 1.491
424.10 1.489
424.20 1.487
424.30 1.485
424.40 1.483
424.50 1.481
424.60 1.478
424.70 1.476
424.80 1.473
424.90 1.471
425.00 1.468
425.10 1.466
425.20 1.463
425.30 1.46
425.40 1.457
425.50 1.455
425.60 1.452
425.70 1.448
425.80 1.445
425.90 1.442
426.00 1.439
426.10 1.435
426.20 1.431
426.30 1.427
426.40 1.423
426.50 1.42
426.60 1.416
426.70 1.412
426.80 1.408
426.90 1.403
427.00 1.399
427.10 1.395
427.20 1.39
427.30 1.386
427.40 1.381
427.50 1.376
427.60 1.371
427.70 1.366
427.80 1.36
427.90 1.355
428.00 1.35
428.10 1.344
428.20 1.338
428.30 1.332
428.40 1.326
428.50 1.319
428.60 1.313
428.70 1.306
428.80 1.299
428.90 1.292
429.00 1.285
429.10 1.278
429.20 1.27
429.30 1.262
429.40 1.254
429.50 1.246
429.60 1.237
429.70 1.228
429.80 1.219
429.90 1.21
430.00 1.2
430.10 1.19
430.20 1.18
430.30 1.17
430.40 1.159
430.50 1.148
430.60 1.137
430.70 1.126
430.80 1.114
430.90 1.102
431.00 1.089
431.10 1.077
431.20 1.064
431.30 1.051
431.40 1.037
431.50 1.023
431.60 1.009
431.70 0.994
431.80 0.9788
431.90 0.9628
432.00 0.9464
432.10 0.9296
432.20 0.9117
432.30 0.8931
432.40 0.8739
432.50 0.8532
432.60 0.8319
432.70 0.8099
432.80 0.7873
432.90 0.7652
433.00 0.7434
433.10 0.7229
433.20 0.7024
433.30 0.6818
433.40 0.6592
433.50 0.6352
433.60 0.6097
433.70 0.5817
433.80 0.5508
433.90 0.517
434.00 0.44
434.10 0.441
434.20 0.52
434.30 0.5527
434.40 0.5828
434.50 0.6102
434.60 0.635
434.70 0.6584
434.80 0.6803
434.90 0.7001
435.00 0.72
435.10 0.7398
435.20 0.7609
435.30 0.7823
435.40 0.8039
435.50 0.8249
435.60 0.8452
435.70 0.8647
435.80 0.8828
435.90 0.9002
436.00 0.9169
436.10 0.9326
436.20 0.9477
436.30 0.9624
436.40 0.9763
436.50 0.9898
436.60 1.003
436.70 1.015
436.80 1.028
436.90 1.039
437.00 1.051
437.10 1.062
437.20 1.073
437.30 1.084
437.40 1.094
437.50 1.104
437.60 1.114
437.70 1.123
437.80 1.132
437.90 1.141
438.00 1.149
438.10 1.158
438.20 1.166
438.30 1.173
438.40 1.181
438.50 1.188
438.60 1.195
438.70 1.202
438.80 1.208
438.90 1.214
439.00 1.22
439.10 1.226
439.20 1.232
439.30 1.237
439.40 1.242
439.50 1.247
439.60 1.252
439.70 1.257
439.80 1.261
439.90 1.266
440.00 1.27
440.10 1.274
440.20 1.278
440.30 1.282
440.40 1.285
440.50 1.289
440.60 1.292
440.70 1.296
440.80 1.299
440.90 1.302
441.00 1.305
441.10 1.308
441.20 1.31
441.30 1.313
441.40 1.315
441.50 1.318
441.60 1.32
441.70 1.322
441.80 1.325
441.90 1.327
442.00 1.329
442.10 1.331
442.20 1.332
442.30 1.334
442.40 1.336
442.50 1.337
442.60 1.339
442.70 1.34
442.80 1.342
442.90 1.343
443.00 1.345
443.10 1.346
443.20 1.347
443.30 1.348
443.40 1.349
443.50 1.35
443.60 1.351
443.70 1.352
443.80 1.353
443.90 1.354
444.00 1.355
444.10 1.356
444.20 1.356
444.30 1.357
444.40 1.358
444.50 1.358
444.60 1.359
444.70 1.359
444.80 1.36
444.90 1.36
445.00 1.361
445.10 1.361
445.20 1.362
445.30 1.362
445.40 1.362
445.50 1.362
445.60 1.363
445.70 1.363
445.80 1.363
445.90 1.363
446.00 1.364
446.10 1.364
446.20 1.364
446.30 1.364
446.40 1.364
446.50 1.364
446.60 1.364
446.70 1.364
446.80 1.364
446.90 1.364
447.00 1.364
447.10 1.364
447.20 1.364
447.30 1.364
447.40 1.363
447.50 1.363
447.60 1.363
447.70 1.363
447.80 1.363
447.90 1.363
448.00 1.362
448.10 1.362
448.20 1.362
448.30 1.362
448.40 1.361
448.50 1.361
448.60 1.361
448.70 1.36
448.80 1.36
448.90 1.36
449.00 1.36
449.10 1.359
449.20 1.359
449.30 1.359
449.40 1.358
449.50 1.358
449.60 1.357
449.70 1.357
449.80 1.357
449.90 1.356
450.00 1.356
450.10 1.355
450.20 1.355
450.30 1.354
450.40 1.354
450.50 1.353
450.60 1.353
450.70 1.352
450.80 1.352
450.90 1.351
451.00 1.351
451.10 1.35
451.20 1.35
451.30 1.349
451.40 1.349
451.50 1.348
451.60 1.347
451.70 1.347
451.80 1.346
451.90 1.346
452.00 1.345
452.10 1.345
452.20 1.344
452.30 1.343
452.40 1.343
452.50 1.342
452.60 1.342
452.70 1.341
452.80 1.34
452.90 1.34
453.00 1.339
453.10 1.338
453.20 1.338
