# Version 2.1 - nm, norm@500 to 1, cut digits, bergeron_35000_80.dat_35000
# Wavelength(nm)  Flambda(ergs/cm^s/s/nm)
300.00 5.542
300.10 5.536
300.20 5.529
300.30 5.523
300.40 5.517
300.50 5.51
300.60 5.504
300.70 5.497
300.80 5.491
300.90 5.485
301.00 5.478
301.10 5.472
301.20 5.466
301.30 5.459
301.40 5.453
301.50 5.447
301.60 5.44
301.70 5.434
301.80 5.428
301.90 5.421
302.00 5.415
302.10 5.409
302.20 5.403
302.30 5.396
302.40 5.39
302.50 5.384
302.60 5.378
302.70 5.371
302.80 5.365
302.90 5.359
303.00 5.353
303.10 5.347
303.20 5.34
303.30 5.334
303.40 5.328
303.50 5.322
303.60 5.316
303.70 5.31
303.80 5.304
303.90 5.298
304.00 5.291
304.10 5.285
304.20 5.279
304.30 5.273
304.40 5.267
304.50 5.261
304.60 5.255
304.70 5.249
304.80 5.243
304.90 5.237
305.00 5.231
305.10 5.225
305.20 5.219
305.30 5.213
305.40 5.207
305.50 5.201
305.60 5.195
305.70 5.189
305.80 5.183
305.90 5.177
306.00 5.171
306.10 5.166
306.20 5.16
306.30 5.154
306.40 5.148
306.50 5.142
306.60 5.136
306.70 5.13
306.80 5.124
306.90 5.119
307.00 5.113
307.10 5.107
307.20 5.101
307.30 5.095
307.40 5.089
307.50 5.084
307.60 5.078
307.70 5.072
307.80 5.066
307.90 5.061
308.00 5.055
308.10 5.049
308.20 5.043
308.30 5.038
308.40 5.032
308.50 5.026
308.60 5.02
308.70 5.015
308.80 5.009
308.90 5.003
309.00 4.998
309.10 4.992
309.20 4.986
309.30 4.981
309.40 4.975
309.50 4.969
309.60 4.964
309.70 4.958
309.80 4.953
309.90 4.947
310.00 4.941
310.10 4.936
310.20 4.93
310.30 4.925
310.40 4.919
310.50 4.914
310.60 4.908
310.70 4.902
310.80 4.897
310.90 4.891
311.00 4.886
311.10 4.88
311.20 4.875
311.30 4.869
311.40 4.864
311.50 4.858
311.60 4.853
311.70 4.848
311.80 4.842
311.90 4.837
312.00 4.831
312.10 4.826
312.20 4.82
312.30 4.815
312.40 4.81
312.50 4.804
312.60 4.799
312.70 4.793
312.80 4.788
312.90 4.783
313.00 4.777
313.10 4.772
313.20 4.767
313.30 4.761
313.40 4.756
313.50 4.751
313.60 4.745
313.70 4.74
313.80 4.735
313.90 4.729
314.00 4.724
314.10 4.719
314.20 4.714
314.30 4.708
314.40 4.703
314.50 4.698
314.60 4.693
314.70 4.687
314.80 4.682
314.90 4.677
315.00 4.672
315.10 4.666
315.20 4.661
315.30 4.656
315.40 4.651
315.50 4.646
315.60 4.641
315.70 4.635
315.80 4.63
315.90 4.625
316.00 4.62
316.10 4.615
316.20 4.61
316.30 4.605
316.40 4.599
316.50 4.594
316.60 4.589
316.70 4.584
316.80 4.579
316.90 4.574
317.00 4.569
317.10 4.564
317.20 4.559
317.30 4.554
317.40 4.549
317.50 4.544
317.60 4.539
317.70 4.534
317.80 4.529
317.90 4.524
318.00 4.519
318.10 4.514
318.20 4.509
318.30 4.504
318.40 4.499
318.50 4.494
318.60 4.489
318.70 4.484
318.80 4.479
318.90 4.474
319.00 4.469
319.10 4.464
319.20 4.459
319.30 4.454
319.40 4.449
319.50 4.445
319.60 4.44
319.70 4.435
319.80 4.43
319.90 4.425
320.00 4.42
320.10 4.415
320.20 4.41
320.30 4.406
320.40 4.401
320.50 4.396
320.60 4.391
320.70 4.386
320.80 4.382
320.90 4.377
321.00 4.372
321.10 4.367
321.20 4.362
321.30 4.358
321.40 4.353
321.50 4.348
321.60 4.343
321.70 4.339
321.80 4.334
321.90 4.329
322.00 4.324
322.10 4.32
322.20 4.315
322.30 4.31
322.40 4.306
322.50 4.301
322.60 4.296
322.70 4.291
322.80 4.287
322.90 4.282
323.00 4.277
323.10 4.273
323.20 4.268
323.30 4.264
323.40 4.259
323.50 4.254
323.60 4.25
323.70 4.245
323.80 4.24
323.90 4.236
324.00 4.231
324.10 4.227
324.20 4.222
324.30 4.217
324.40 4.213
324.50 4.208
324.60 4.204
324.70 4.199
324.80 4.195
324.90 4.19
325.00 4.186
325.10 4.181
325.20 4.176
325.30 4.172
325.40 4.167
325.50 4.163
325.60 4.158
325.70 4.154
325.80 4.149
325.90 4.145
326.00 4.141
326.10 4.136
326.20 4.132
326.30 4.127
326.40 4.123
326.50 4.118
326.60 4.114
326.70 4.109
326.80 4.105
326.90 4.1
327.00 4.096
327.10 4.092
327.20 4.087
327.30 4.083
327.40 4.078
327.50 4.074
327.60 4.07
327.70 4.065
327.80 4.061
327.90 4.057
328.00 4.052
328.10 4.048
328.20 4.044
328.30 4.039
328.40 4.035
328.50 4.031
328.60 4.026
328.70 4.022
328.80 4.018
328.90 4.013
329.00 4.009
329.10 4.005
329.20 4
329.30 3.996
329.40 3.992
329.50 3.988
329.60 3.983
329.70 3.979
329.80 3.975
329.90 3.971
330.00 3.966
330.10 3.962
330.20 3.958
330.30 3.954
330.40 3.949
330.50 3.945
330.60 3.941
330.70 3.937
330.80 3.933
330.90 3.929
331.00 3.924
331.10 3.92
331.20 3.916
331.30 3.912
331.40 3.908
331.50 3.903
331.60 3.899
331.70 3.895
331.80 3.891
331.90 3.887
332.00 3.883
332.10 3.879
332.20 3.875
332.30 3.87
332.40 3.866
332.50 3.862
332.60 3.858
332.70 3.854
332.80 3.85
332.90 3.846
333.00 3.842
333.10 3.838
333.20 3.834
333.30 3.83
333.40 3.826
333.50 3.821
333.60 3.817
333.70 3.813
333.80 3.809
333.90 3.805
334.00 3.801
334.10 3.797
334.20 3.793
334.30 3.789
334.40 3.785
334.50 3.781
334.60 3.777
334.70 3.773
334.80 3.769
334.90 3.765
335.00 3.761
335.10 3.757
335.20 3.754
335.30 3.75
335.40 3.746
335.50 3.742
335.60 3.738
335.70 3.734
335.80 3.73
335.90 3.726
336.00 3.722
336.10 3.718
336.20 3.714
336.30 3.71
336.40 3.706
336.50 3.703
336.60 3.699
336.70 3.695
336.80 3.691
336.90 3.687
337.00 3.683
337.10 3.679
337.20 3.675
337.30 3.672
337.40 3.668
337.50 3.664
337.60 3.66
337.70 3.656
337.80 3.652
337.90 3.649
338.00 3.645
338.10 3.641
338.20 3.637
338.30 3.633
338.40 3.63
338.50 3.626
338.60 3.622
338.70 3.618
338.80 3.615
338.90 3.611
339.00 3.607
339.10 3.603
339.20 3.599
339.30 3.596
339.40 3.592
339.50 3.588
339.60 3.585
339.70 3.581
339.80 3.577
339.90 3.573
340.00 3.57
340.10 3.566
340.20 3.562
340.30 3.559
340.40 3.555
340.50 3.551
340.60 3.547
340.70 3.544
340.80 3.54
340.90 3.536
341.00 3.533
341.10 3.529
341.20 3.525
341.30 3.522
341.40 3.518
341.50 3.515
341.60 3.511
341.70 3.507
341.80 3.504
341.90 3.5
342.00 3.496
342.10 3.493
342.20 3.489
342.30 3.486
342.40 3.482
342.50 3.478
342.60 3.475
342.70 3.471
342.80 3.468
342.90 3.464
343.00 3.46
343.10 3.457
343.20 3.453
343.30 3.45
343.40 3.446
343.50 3.443
343.60 3.439
343.70 3.436
343.80 3.432
343.90 3.428
344.00 3.425
344.10 3.421
344.20 3.418
344.30 3.414
344.40 3.411
344.50 3.407
344.60 3.404
344.70 3.4
344.80 3.397
344.90 3.393
345.00 3.39
345.10 3.387
345.20 3.383
345.30 3.38
345.40 3.376
345.50 3.373
345.60 3.369
345.70 3.366
345.80 3.362
345.90 3.359
346.00 3.355
346.10 3.352
346.20 3.349
346.30 3.345
346.40 3.342
346.50 3.338
346.60 3.335
346.70 3.331
346.80 3.328
346.90 3.325
347.00 3.321
347.10 3.318
347.20 3.315
347.30 3.311
347.40 3.308
347.50 3.304
347.60 3.301
347.70 3.298
347.80 3.294
347.90 3.291
348.00 3.288
348.10 3.284
348.20 3.281
348.30 3.278
348.40 3.274
348.50 3.271
348.60 3.268
348.70 3.264
348.80 3.261
348.90 3.258
349.00 3.254
349.10 3.251
349.20 3.248
349.30 3.244
349.40 3.241
349.50 3.238
349.60 3.235
349.70 3.231
349.80 3.228
349.90 3.225
350.00 3.222
350.10 3.218
350.20 3.215
350.30 3.212
350.40 3.209
350.50 3.205
350.60 3.202
350.70 3.199
350.80 3.196
350.90 3.192
351.00 3.189
351.10 3.186
351.20 3.183
351.30 3.179
351.40 3.176
351.50 3.173
351.60 3.17
351.70 3.167
351.80 3.163
351.90 3.16
352.00 3.157
352.10 3.154
352.20 3.151
352.30 3.148
352.40 3.144
352.50 3.141
352.60 3.138
352.70 3.135
352.80 3.132
352.90 3.129
353.00 3.126
353.10 3.122
353.20 3.119
353.30 3.116
353.40 3.113
353.50 3.11
353.60 3.107
353.70 3.104
353.80 3.1
353.90 3.097
354.00 3.094
354.10 3.091
354.20 3.088
354.30 3.085
354.40 3.082
354.50 3.079
354.60 3.076
354.70 3.073
354.80 3.07
354.90 3.067
355.00 3.063
355.10 3.06
355.20 3.057
355.30 3.054
355.40 3.051
355.50 3.048
355.60 3.045
355.70 3.042
355.80 3.039
355.90 3.036
356.00 3.033
356.10 3.03
356.20 3.027
356.30 3.024
356.40 3.021
356.50 3.018
356.60 3.015
356.70 3.012
356.80 3.009
356.90 3.006
357.00 3.003
357.10 3
357.20 2.997
357.30 2.994
357.40 2.991
357.50 2.988
357.60 2.985
357.70 2.982
357.80 2.979
357.90 2.976
358.00 2.973
358.10 2.97
358.20 2.967
358.30 2.964
358.40 2.962
358.50 2.959
358.60 2.956
358.70 2.953
358.80 2.95
358.90 2.947
359.00 2.944
359.10 2.941
359.20 2.938
359.30 2.935
359.40 2.932
359.50 2.929
359.60 2.927
359.70 2.924
359.80 2.921
359.90 2.918
360.00 2.915
360.10 2.912
360.20 2.909
360.30 2.906
360.40 2.904
360.50 2.901
360.60 2.898
360.70 2.895
360.80 2.892
360.90 2.889
361.00 2.886
361.10 2.884
361.20 2.881
361.30 2.878
361.40 2.875
361.50 2.872
361.60 2.869
361.70 2.867
361.80 2.864
361.90 2.861
362.00 2.858
362.10 2.855
362.20 2.853
362.30 2.85
362.40 2.847
362.50 2.844
362.60 2.841
362.70 2.839
362.80 2.836
362.90 2.833
363.00 2.83
363.10 2.828
363.20 2.825
363.30 2.822
363.40 2.819
363.50 2.817
363.60 2.814
363.70 2.811
363.80 2.808
363.90 2.806
364.00 2.803
364.10 2.8
364.20 2.797
364.30 2.795
364.40 2.792
364.50 2.789
364.60 2.786
364.70 2.784
364.80 2.781
364.90 2.778
365.00 2.776
365.10 2.773
365.20 2.77
365.30 2.767
365.40 2.765
365.50 2.762
365.60 2.759
365.70 2.757
365.80 2.754
365.90 2.751
366.00 2.749
366.10 2.746
366.20 2.743
366.30 2.74
366.40 2.737
366.50 2.734
366.60 2.732
366.70 2.729
366.80 2.726
366.90 2.723
367.00 2.72
367.10 2.718
367.20 2.715
367.30 2.712
367.40 2.709
367.50 2.706
367.60 2.703
367.70 2.701
367.80 2.698
367.90 2.695
368.00 2.692
368.10 2.689
368.20 2.687
368.30 2.684
368.40 2.681
368.50 2.678
368.60 2.676
368.70 2.673
368.80 2.67
368.90 2.667
369.00 2.664
369.10 2.662
369.20 2.659
369.30 2.656
369.40 2.653
369.50 2.651
369.60 2.648
369.70 2.645
369.80 2.642
369.90 2.64
370.00 2.637
370.10 2.634
370.20 2.632
370.30 2.629
370.40 2.626
370.50 2.623
370.60 2.621
370.70 2.618
370.80 2.615
370.90 2.613
371.00 2.61
371.10 2.607
371.20 2.605
371.30 2.602
371.40 2.599
371.50 2.597
371.60 2.594
371.70 2.591
371.80 2.589
371.90 2.586
372.00 2.583
372.10 2.581
372.20 2.578
372.30 2.576
372.40 2.573
372.50 2.571
372.60 2.568
372.70 2.566
372.80 2.563
372.90 2.561
373.00 2.558
373.10 2.556
373.20 2.553
373.30 2.551
373.40 2.548
373.50 2.546
373.60 2.543
373.70 2.541
373.80 2.538
373.90 2.536
374.00 2.533
374.10 2.531
374.20 2.528
374.30 2.526
374.40 2.524
374.50 2.521
374.60 2.519
374.70 2.517
374.80 2.514
374.90 2.512
375.00 2.509
375.10 2.507
375.20 2.505
375.30 2.502
375.40 2.5
375.50 2.498
375.60 2.495
375.70 2.493
375.80 2.491
375.90 2.488
376.00 2.486
376.10 2.483
376.20 2.481
376.30 2.479
376.40 2.477
376.50 2.474
376.60 2.472
376.70 2.47
376.80 2.467
376.90 2.465
377.00 2.463
377.10 2.461
377.20 2.459
377.30 2.457
377.40 2.455
377.50 2.453
377.60 2.451
377.70 2.449
377.80 2.447
377.90 2.445
378.00 2.443
378.10 2.441
378.20 2.439
378.30 2.437
378.40 2.435
378.50 2.433
378.60 2.43
378.70 2.428
378.80 2.426
378.90 2.424
379.00 2.422
379.10 2.42
379.20 2.417
379.30 2.415
379.40 2.413
379.50 2.411
379.60 2.409
379.70 2.407
379.80 2.405
379.90 2.403
380.00 2.401
380.10 2.399
380.20 2.398
380.30 2.397
380.40 2.395
380.50 2.394
380.60 2.393
380.70 2.391
380.80 2.39
380.90 2.389
381.00 2.387
381.10 2.386
381.20 2.384
381.30 2.382
381.40 2.38
381.50 2.378
381.60 2.376
381.70 2.374
381.80 2.371
381.90 2.369
382.00 2.366
382.10 2.363
382.20 2.361
382.30 2.357
382.40 2.354
382.50 2.351
382.60 2.347
382.70 2.344
382.80 2.341
382.90 2.338
383.00 2.334
383.10 2.331
383.20 2.328
383.30 2.325
383.40 2.322
383.50 2.319
383.60 2.318
383.70 2.318
383.80 2.318
383.90 2.318
384.00 2.319
384.10 2.319
384.20 2.32
384.30 2.32
384.40 2.321
384.50 2.321
384.60 2.321
384.70 2.321
384.80 2.321
384.90 2.321
385.00 2.32
385.10 2.32
385.20 2.319
385.30 2.318
385.40 2.317
385.50 2.316
385.60 2.314
385.70 2.312
385.80 2.311
385.90 2.309
386.00 2.306
386.10 2.304
386.20 2.301
386.30 2.298
386.40 2.295
386.50 2.291
386.60 2.288
386.70 2.284
386.80 2.28
386.90 2.275
387.00 2.271
387.10 2.266
387.20 2.261
387.30 2.256
387.40 2.251
387.50 2.245
387.60 2.239
387.70 2.233
387.80 2.227
387.90 2.22
388.00 2.214
388.10 2.207
388.20 2.2
388.30 2.194
388.40 2.187
388.50 2.181
388.60 2.175
388.70 2.17
388.80 2.166
388.90 2.163
389.00 2.163
389.10 2.164
389.20 2.167
389.30 2.17
389.40 2.174
389.50 2.178
389.60 2.182
389.70 2.186
389.80 2.19
389.90 2.194
390.00 2.198
390.10 2.202
390.20 2.206
390.30 2.209
390.40 2.212
390.50 2.215
390.60 2.218
390.70 2.221
390.80 2.223
390.90 2.225
391.00 2.227
391.10 2.229
391.20 2.23
391.30 2.231
391.40 2.232
391.50 2.233
391.60 2.233
391.70 2.234
391.80 2.234
391.90 2.234
392.00 2.233
392.10 2.232
392.20 2.232
392.30 2.23
392.40 2.229
392.50 2.227
392.60 2.226
392.70 2.223
392.80 2.221
392.90 2.218
393.00 2.216
393.10 2.213
393.20 2.209
393.30 2.205
393.40 2.202
393.50 2.197
393.60 2.193
393.70 2.188
393.80 2.183
393.90 2.178
394.00 2.172
394.10 2.167
394.20 2.16
394.30 2.154
394.40 2.147
394.50 2.14
394.60 2.132
394.70 2.125
394.80 2.116
394.90 2.108
395.00 2.099
395.10 2.09
395.20 2.081
395.30 2.071
395.40 2.06
395.50 2.05
395.60 2.039
395.70 2.027
395.80 2.016
395.90 2.004
396.00 1.992
396.10 1.979
396.20 1.966
396.30 1.953
396.40 1.94
396.50 1.927
396.60 1.914
396.70 1.9
396.80 1.887
396.90 1.875
397.00 1.864
397.10 1.871
397.20 1.88
397.30 1.89
397.40 1.901
397.50 1.911
397.60 1.922
397.70 1.932
397.80 1.942
397.90 1.952
398.00 1.962
398.10 1.971
398.20 1.981
398.30 1.989
398.40 1.998
398.50 2.006
398.60 2.014
398.70 2.021
398.80 2.029
398.90 2.035
399.00 2.042
399.10 2.048
399.20 2.054
399.30 2.06
399.40 2.065
399.50 2.07
399.60 2.075
399.70 2.079
399.80 2.083
399.90 2.087
400.00 2.091
400.10 2.094
400.20 2.097
400.30 2.1
400.40 2.103
400.50 2.106
400.60 2.108
400.70 2.11
400.80 2.112
400.90 2.114
401.00 2.115
401.10 2.117
401.20 2.118
401.30 2.119
401.40 2.12
401.50 2.12
401.60 2.121
401.70 2.121
401.80 2.122
401.90 2.122
402.00 2.122
402.10 2.121
402.20 2.121
402.30 2.121
402.40 2.12
402.50 2.119
402.60 2.118
402.70 2.118
402.80 2.116
402.90 2.115
403.00 2.114
403.10 2.112
403.20 2.111
403.30 2.109
403.40 2.107
403.50 2.105
403.60 2.103
403.70 2.101
403.80 2.099
403.90 2.096
404.00 2.094
404.10 2.091
404.20 2.088
404.30 2.085
404.40 2.082
404.50 2.079
404.60 2.076
404.70 2.072
404.80 2.069
404.90 2.065
405.00 2.061
405.10 2.057
405.20 2.053
405.30 2.048
405.40 2.044
405.50 2.039
405.60 2.034
405.70 2.029
405.80 2.024
405.90 2.018
406.00 2.012
406.10 2.007
406.20 2
406.30 1.994
406.40 1.988
406.50 1.981
406.60 1.974
406.70 1.966
406.80 1.959
406.90 1.951
407.00 1.943
407.10 1.935
407.20 1.926
407.30 1.917
407.40 1.908
407.50 1.898
407.60 1.888
407.70 1.878
407.80 1.867
407.90 1.856
408.00 1.845
408.10 1.833
408.20 1.821
408.30 1.808
408.40 1.795
408.50 1.781
408.60 1.767
408.70 1.753
408.80 1.738
408.90 1.723
409.00 1.707
409.10 1.69
409.20 1.673
409.30 1.656
409.40 1.638
409.50 1.62
409.60 1.601
409.70 1.582
409.80 1.564
409.90 1.546
410.00 1.532
410.10 1.526
410.20 1.527
410.30 1.527
410.40 1.534
410.50 1.547
410.60 1.563
410.70 1.579
410.80 1.595
410.90 1.611
411.00 1.626
411.10 1.641
411.20 1.656
411.30 1.669
411.40 1.683
411.50 1.695
411.60 1.707
411.70 1.719
411.80 1.73
411.90 1.741
412.00 1.751
412.10 1.761
412.20 1.77
412.30 1.779
412.40 1.787
412.50 1.795
412.60 1.803
412.70 1.81
412.80 1.817
412.90 1.824
413.00 1.83
413.10 1.836
413.20 1.841
413.30 1.847
413.40 1.852
413.50 1.856
413.60 1.861
413.70 1.865
413.80 1.869
413.90 1.873
414.00 1.876
414.10 1.88
414.20 1.883
414.30 1.886
414.40 1.888
414.50 1.891
414.60 1.893
414.70 1.895
414.80 1.897
414.90 1.899
415.00 1.901
415.10 1.903
415.20 1.904
415.30 1.905
415.40 1.907
415.50 1.908
415.60 1.909
415.70 1.909
415.80 1.91
415.90 1.911
416.00 1.912
416.10 1.912
416.20 1.912
416.30 1.913
416.40 1.913
416.50 1.913
416.60 1.913
416.70 1.913
416.80 1.913
416.90 1.913
417.00 1.913
417.10 1.913
417.20 1.912
417.30 1.912
417.40 1.911
417.50 1.911
417.60 1.911
417.70 1.91
417.80 1.909
417.90 1.909
418.00 1.908
418.10 1.907
418.20 1.907
418.30 1.906
418.40 1.905
418.50 1.904
418.60 1.903
418.70 1.902
418.80 1.901
418.90 1.9
419.00 1.899
419.10 1.898
419.20 1.897
419.30 1.896
419.40 1.895
419.50 1.894
419.60 1.893
419.70 1.891
419.80 1.89
419.90 1.889
420.00 1.888
420.10 1.886
420.20 1.885
420.30 1.884
420.40 1.882
420.50 1.881
420.60 1.88
420.70 1.878
420.80 1.877
420.90 1.876
421.00 1.874
421.10 1.873
421.20 1.871
421.30 1.87
421.40 1.868
421.50 1.867
421.60 1.865
421.70 1.864
421.80 1.862
421.90 1.86
422.00 1.859
422.10 1.857
422.20 1.856
422.30 1.854
422.40 1.852
422.50 1.851
422.60 1.849
422.70 1.847
422.80 1.846
422.90 1.844
423.00 1.842
423.10 1.841
423.20 1.839
423.30 1.837
423.40 1.835
423.50 1.833
423.60 1.832
423.70 1.83
423.80 1.828
423.90 1.826
424.00 1.824
424.10 1.822
424.20 1.82
424.30 1.818
424.40 1.816
424.50 1.814
424.60 1.812
424.70 1.81
424.80 1.808
424.90 1.806
425.00 1.804
425.10 1.802
425.20 1.8
425.30 1.798
425.40 1.796
425.50 1.793
425.60 1.791
425.70 1.789
425.80 1.787
425.90 1.784
426.00 1.782
426.10 1.78
426.20 1.777
426.30 1.775
426.40 1.772
426.50 1.77
426.60 1.767
426.70 1.764
426.80 1.762
426.90 1.759
427.00 1.756
427.10 1.753
427.20 1.75
427.30 1.748
427.40 1.745
427.50 1.741
427.60 1.738
427.70 1.735
427.80 1.732
427.90 1.729
428.00 1.725
428.10 1.722
428.20 1.718
428.30 1.714
428.40 1.711
428.50 1.707
428.60 1.703
428.70 1.699
428.80 1.695
428.90 1.69
429.00 1.686
429.10 1.682
429.20 1.677
429.30 1.672
429.40 1.667
429.50 1.662
429.60 1.657
429.70 1.652
429.80 1.646
429.90 1.641
430.00 1.635
430.10 1.629
430.20 1.623
430.30 1.617
430.40 1.61
430.50 1.603
430.60 1.596
430.70 1.589
430.80 1.582
430.90 1.574
431.00 1.566
431.10 1.558
431.20 1.55
431.30 1.541
431.40 1.532
431.50 1.523
431.60 1.513
431.70 1.503
431.80 1.493
431.90 1.482
432.00 1.471
432.10 1.459
432.20 1.447
432.30 1.435
432.40 1.422
432.50 1.409
432.60 1.395
432.70 1.381
432.80 1.366
432.90 1.35
433.00 1.334
433.10 1.318
433.20 1.301
433.30 1.283
433.40 1.265
433.50 1.246
433.60 1.228
433.70 1.209
433.80 1.19
433.90 1.171
434.00 1.149
434.10 1.149
434.20 1.17
434.30 1.187
434.40 1.204
434.50 1.221
434.60 1.238
434.70 1.254
434.80 1.27
434.90 1.286
435.00 1.3
435.10 1.315
435.20 1.328
435.30 1.341
435.40 1.354
435.50 1.366
435.60 1.377
435.70 1.388
435.80 1.398
435.90 1.408
436.00 1.417
436.10 1.426
436.20 1.435
436.30 1.443
436.40 1.45
436.50 1.458
436.60 1.465
436.70 1.471
436.80 1.477
436.90 1.483
437.00 1.489
437.10 1.494
437.20 1.499
437.30 1.504
437.40 1.509
437.50 1.513
437.60 1.517
437.70 1.521
437.80 1.525
437.90 1.528
438.00 1.531
438.10 1.534
438.20 1.537
438.30 1.54
438.40 1.542
438.50 1.545
438.60 1.547
438.70 1.549
438.80 1.551
438.90 1.553
439.00 1.555
439.10 1.556
439.20 1.557
439.30 1.559
439.40 1.56
439.50 1.561
439.60 1.562
439.70 1.563
439.80 1.564
439.90 1.564
440.00 1.565
440.10 1.566
440.20 1.566
440.30 1.566
440.40 1.567
440.50 1.567
440.60 1.567
440.70 1.567
440.80 1.567
440.90 1.567
441.00 1.567
441.10 1.567
441.20 1.567
441.30 1.567
441.40 1.567
441.50 1.566
441.60 1.566
441.70 1.566
441.80 1.565
441.90 1.565
442.00 1.565
442.10 1.564
442.20 1.564
442.30 1.563
442.40 1.562
442.50 1.562
442.60 1.561
442.70 1.561
442.80 1.56
442.90 1.559
443.00 1.558
443.10 1.558
443.20 1.557
443.30 1.556
443.40 1.555
443.50 1.555
443.60 1.554
443.70 1.553
443.80 1.552
443.90 1.551
444.00 1.55
444.10 1.549
444.20 1.548
444.30 1.548
444.40 1.547
444.50 1.546
444.60 1.545
444.70 1.544
444.80 1.543
444.90 1.542
445.00 1.541
445.10 1.54
445.20 1.539
445.30 1.538
445.40 1.537
445.50 1.536
445.60 1.535
445.70 1.534
445.80 1.533
445.90 1.532
446.00 1.531
446.10 1.53
446.20 1.529
446.30 1.527
446.40 1.526
446.50 1.525
446.60 1.524
446.70 1.523
446.80 1.522
446.90 1.521
447.00 1.52
447.10 1.519
447.20 1.518
447.30 1.517
447.40 1.515
447.50 1.514
447.60 1.513
447.70 1.512
447.80 1.511
447.90 1.51
448.00 1.509
448.10 1.508
448.20 1.506
448.30 1.505
448.40 1.504
448.50 1.503
448.60 1.502
448.70 1.501
448.80 1.5
448.90 1.499
449.00 1.497
449.10 1.496
449.20 1.495
449.30 1.494
449.40 1.493
449.50 1.492
449.60 1.491
449.70 1.489
449.80 1.488
449.90 1.487
450.00 1.486
450.10 1.485
450.20 1.484
450.30 1.482
450.40 1.481
450.50 1.48
450.60 1.479
450.70 1.478
450.80 1.477
450.90 1.475
451.00 1.474
451.10 1.473
451.20 1.472
451.30 1.471
451.40 1.47
451.50 1.469
451.60 1.467
451.70 1.466
451.80 1.465
451.90 1.464
452.00 1.463
452.10 1.462
452.20 1.46
452.30 1.459
452.40 1.458
452.50 1.457
452.60 1.456
452.70 1.455
452.80 1.453
452.90 1.452
453.00 1.451
453.10 1.45
453.20 1.449
453.30 1.448
453.40 1.446
453.50 1.445
453.60 1.444
453.70 1.443
453.80 1.442
453.90 1.441
454.00 1.44
454.10 1.438
