# Version 2.1 - nm, norm@500 to 1, cut digits, bergeron_14000_85.dat_14000
# Wavelength(nm)  Flambda(ergs/cm^s/s/nm)
300.00 2.268
300.10 2.267
300.20 2.265
300.30 2.263
300.40 2.262
300.50 2.26
300.60 2.258
300.70 2.257
300.80 2.255
300.90 2.253
301.00 2.252
301.10 2.25
301.20 2.248
301.30 2.247
301.40 2.245
301.50 2.243
301.60 2.242
301.70 2.24
301.80 2.238
301.90 2.237
302.00 2.235
302.10 2.234
302.20 2.232
302.30 2.23
302.40 2.229
302.50 2.227
302.60 2.225
302.70 2.224
302.80 2.222
302.90 2.22
303.00 2.219
303.10 2.217
303.20 2.216
303.30 2.214
303.40 2.212
303.50 2.211
303.60 2.209
303.70 2.208
303.80 2.206
303.90 2.204
304.00 2.203
304.10 2.201
304.20 2.2
304.30 2.198
304.40 2.196
304.50 2.195
304.60 2.193
304.70 2.192
304.80 2.19
304.90 2.188
305.00 2.187
305.10 2.185
305.20 2.184
305.30 2.182
305.40 2.18
305.50 2.179
305.60 2.177
305.70 2.176
305.80 2.174
305.90 2.172
306.00 2.171
306.10 2.169
306.20 2.168
306.30 2.166
306.40 2.165
306.50 2.163
306.60 2.161
306.70 2.16
306.80 2.158
306.90 2.157
307.00 2.155
307.10 2.154
307.20 2.152
307.30 2.151
307.40 2.149
307.50 2.147
307.60 2.146
307.70 2.144
307.80 2.143
307.90 2.141
308.00 2.14
308.10 2.138
308.20 2.137
308.30 2.135
308.40 2.134
308.50 2.132
308.60 2.13
308.70 2.129
308.80 2.127
308.90 2.126
309.00 2.124
309.10 2.123
309.20 2.121
309.30 2.12
309.40 2.118
309.50 2.117
309.60 2.115
309.70 2.114
309.80 2.112
309.90 2.111
310.00 2.109
310.10 2.108
310.20 2.106
310.30 2.105
310.40 2.103
310.50 2.101
310.60 2.1
310.70 2.098
310.80 2.097
310.90 2.095
311.00 2.094
311.10 2.092
311.20 2.091
311.30 2.089
311.40 2.088
311.50 2.086
311.60 2.085
311.70 2.083
311.80 2.082
311.90 2.08
312.00 2.079
312.10 2.077
312.20 2.076
312.30 2.075
312.40 2.073
312.50 2.072
312.60 2.07
312.70 2.069
312.80 2.067
312.90 2.066
313.00 2.064
313.10 2.063
313.20 2.061
313.30 2.06
313.40 2.058
313.50 2.057
313.60 2.055
313.70 2.054
313.80 2.052
313.90 2.051
314.00 2.049
314.10 2.048
314.20 2.047
314.30 2.045
314.40 2.044
314.50 2.042
314.60 2.041
314.70 2.039
314.80 2.038
314.90 2.036
315.00 2.035
315.10 2.033
315.20 2.032
315.30 2.031
315.40 2.029
315.50 2.028
315.60 2.026
315.70 2.025
315.80 2.023
315.90 2.022
316.00 2.02
316.10 2.019
316.20 2.018
316.30 2.016
316.40 2.015
316.50 2.013
316.60 2.012
316.70 2.01
316.80 2.009
316.90 2.008
317.00 2.006
317.10 2.005
317.20 2.003
317.30 2.002
317.40 2.001
317.50 1.999
317.60 1.998
317.70 1.996
317.80 1.995
317.90 1.993
318.00 1.992
318.10 1.991
318.20 1.989
318.30 1.988
318.40 1.986
318.50 1.985
318.60 1.984
318.70 1.982
318.80 1.981
318.90 1.979
319.00 1.978
319.10 1.977
319.20 1.975
319.30 1.974
319.40 1.972
319.50 1.971
319.60 1.97
319.70 1.968
319.80 1.967
319.90 1.965
320.00 1.964
320.10 1.963
320.20 1.961
320.30 1.96
320.40 1.959
320.50 1.957
320.60 1.956
320.70 1.954
320.80 1.953
320.90 1.952
321.00 1.95
321.10 1.949
321.20 1.948
321.30 1.946
321.40 1.945
321.50 1.943
321.60 1.942
321.70 1.941
321.80 1.939
321.90 1.938
322.00 1.937
322.10 1.935
322.20 1.934
322.30 1.933
322.40 1.931
322.50 1.93
322.60 1.929
322.70 1.927
322.80 1.926
322.90 1.924
323.00 1.923
323.10 1.922
323.20 1.92
323.30 1.919
323.40 1.918
323.50 1.916
323.60 1.915
323.70 1.914
323.80 1.912
323.90 1.911
324.00 1.91
324.10 1.908
324.20 1.907
324.30 1.906
324.40 1.904
324.50 1.903
324.60 1.902
324.70 1.9
324.80 1.899
324.90 1.898
325.00 1.896
325.10 1.895
325.20 1.894
325.30 1.892
325.40 1.891
325.50 1.89
325.60 1.888
325.70 1.887
325.80 1.886
325.90 1.885
326.00 1.883
326.10 1.882
326.20 1.881
326.30 1.879
326.40 1.878
326.50 1.877
326.60 1.875
326.70 1.874
326.80 1.873
326.90 1.871
327.00 1.87
327.10 1.869
327.20 1.868
327.30 1.866
327.40 1.865
327.50 1.864
327.60 1.862
327.70 1.861
327.80 1.86
327.90 1.859
328.00 1.857
328.10 1.856
328.20 1.855
328.30 1.853
328.40 1.852
328.50 1.851
328.60 1.85
328.70 1.848
328.80 1.847
328.90 1.846
329.00 1.844
329.10 1.843
329.20 1.842
329.30 1.841
329.40 1.839
329.50 1.838
329.60 1.837
329.70 1.836
329.80 1.834
329.90 1.833
330.00 1.832
330.10 1.83
330.20 1.829
330.30 1.828
330.40 1.827
330.50 1.825
330.60 1.824
330.70 1.823
330.80 1.822
330.90 1.82
331.00 1.819
331.10 1.818
331.20 1.817
331.30 1.815
331.40 1.814
331.50 1.813
331.60 1.812
331.70 1.81
331.80 1.809
331.90 1.808
332.00 1.807
332.10 1.805
332.20 1.804
332.30 1.803
332.40 1.802
332.50 1.8
332.60 1.799
332.70 1.798
332.80 1.797
332.90 1.795
333.00 1.794
333.10 1.793
333.20 1.792
333.30 1.791
333.40 1.789
333.50 1.788
333.60 1.787
333.70 1.786
333.80 1.784
333.90 1.783
334.00 1.782
334.10 1.781
334.20 1.78
334.30 1.778
334.40 1.777
334.50 1.776
334.60 1.775
334.70 1.773
334.80 1.772
334.90 1.771
335.00 1.77
335.10 1.769
335.20 1.767
335.30 1.766
335.40 1.765
335.50 1.764
335.60 1.763
335.70 1.761
335.80 1.76
335.90 1.759
336.00 1.758
336.10 1.757
336.20 1.755
336.30 1.754
336.40 1.753
336.50 1.752
336.60 1.751
336.70 1.749
336.80 1.748
336.90 1.747
337.00 1.746
337.10 1.745
337.20 1.743
337.30 1.742
337.40 1.741
337.50 1.74
337.60 1.739
337.70 1.737
337.80 1.736
337.90 1.735
338.00 1.734
338.10 1.733
338.20 1.732
338.30 1.73
338.40 1.729
338.50 1.728
338.60 1.727
338.70 1.726
338.80 1.724
338.90 1.723
339.00 1.722
339.10 1.721
339.20 1.72
339.30 1.719
339.40 1.717
339.50 1.716
339.60 1.715
339.70 1.714
339.80 1.713
339.90 1.712
340.00 1.711
340.10 1.709
340.20 1.708
340.30 1.707
340.40 1.706
340.50 1.705
340.60 1.704
340.70 1.702
340.80 1.701
340.90 1.7
341.00 1.699
341.10 1.698
341.20 1.697
341.30 1.696
341.40 1.694
341.50 1.693
341.60 1.692
341.70 1.691
341.80 1.69
341.90 1.689
342.00 1.688
342.10 1.686
342.20 1.685
342.30 1.684
342.40 1.683
342.50 1.682
342.60 1.681
342.70 1.68
342.80 1.678
342.90 1.677
343.00 1.676
343.10 1.675
343.20 1.674
343.30 1.673
343.40 1.672
343.50 1.67
343.60 1.669
343.70 1.668
343.80 1.667
343.90 1.666
344.00 1.665
344.10 1.664
344.20 1.663
344.30 1.662
344.40 1.66
344.50 1.659
344.60 1.658
344.70 1.657
344.80 1.656
344.90 1.655
345.00 1.654
345.10 1.653
345.20 1.651
345.30 1.65
345.40 1.649
345.50 1.648
345.60 1.647
345.70 1.646
345.80 1.645
345.90 1.644
346.00 1.643
346.10 1.642
346.20 1.64
346.30 1.639
346.40 1.638
346.50 1.637
346.60 1.636
346.70 1.635
346.80 1.634
346.90 1.633
347.00 1.632
347.10 1.631
347.20 1.629
347.30 1.628
347.40 1.627
347.50 1.626
347.60 1.625
347.70 1.624
347.80 1.623
347.90 1.622
348.00 1.621
348.10 1.62
348.20 1.619
348.30 1.618
348.40 1.616
348.50 1.615
348.60 1.614
348.70 1.613
348.80 1.612
348.90 1.611
349.00 1.61
349.10 1.609
349.20 1.608
349.30 1.607
349.40 1.606
349.50 1.605
349.60 1.604
349.70 1.603
349.80 1.601
349.90 1.6
350.00 1.599
350.10 1.598
350.20 1.597
350.30 1.596
350.40 1.595
350.50 1.594
350.60 1.593
350.70 1.592
350.80 1.591
350.90 1.59
351.00 1.589
351.10 1.588
351.20 1.587
351.30 1.586
351.40 1.584
351.50 1.583
351.60 1.582
351.70 1.581
351.80 1.58
351.90 1.579
352.00 1.578
352.10 1.577
352.20 1.576
352.30 1.575
352.40 1.574
352.50 1.573
352.60 1.572
352.70 1.571
352.80 1.57
352.90 1.569
353.00 1.568
353.10 1.567
353.20 1.566
353.30 1.565
353.40 1.564
353.50 1.563
353.60 1.562
353.70 1.56
353.80 1.559
353.90 1.558
354.00 1.557
354.10 1.556
354.20 1.555
354.30 1.554
354.40 1.553
354.50 1.552
354.60 1.551
354.70 1.55
354.80 1.549
354.90 1.548
355.00 1.547
355.10 1.546
355.20 1.545
355.30 1.544
355.40 1.543
355.50 1.542
355.60 1.541
355.70 1.54
355.80 1.539
355.90 1.538
356.00 1.537
356.10 1.536
356.20 1.535
356.30 1.534
356.40 1.533
356.50 1.532
356.60 1.531
356.70 1.53
356.80 1.529
356.90 1.528
357.00 1.527
357.10 1.526
357.20 1.525
357.30 1.524
357.40 1.523
357.50 1.522
357.60 1.521
357.70 1.52
357.80 1.519
357.90 1.518
358.00 1.517
358.10 1.516
358.20 1.515
358.30 1.514
358.40 1.513
358.50 1.512
358.60 1.511
358.70 1.51
358.80 1.509
358.90 1.508
359.00 1.507
359.10 1.506
359.20 1.505
359.30 1.504
359.40 1.503
359.50 1.502
359.60 1.501
359.70 1.5
359.80 1.499
359.90 1.498
360.00 1.497
360.10 1.496
360.20 1.495
360.30 1.494
360.40 1.493
360.50 1.492
360.60 1.491
360.70 1.49
360.80 1.489
360.90 1.488
361.00 1.487
361.10 1.486
361.20 1.485
361.30 1.484
361.40 1.483
361.50 1.482
361.60 1.482
361.70 1.481
361.80 1.48
361.90 1.479
362.00 1.478
362.10 1.477
362.20 1.476
362.30 1.475
362.40 1.474
362.50 1.473
362.60 1.472
362.70 1.471
362.80 1.47
362.90 1.469
363.00 1.468
363.10 1.467
363.20 1.466
363.30 1.465
363.40 1.464
363.50 1.463
363.60 1.462
363.70 1.46
363.80 1.459
363.90 1.458
364.00 1.457
364.10 1.456
364.20 1.455
364.30 1.454
364.40 1.453
364.50 1.452
364.60 1.451
364.70 1.449
364.80 1.448
364.90 1.447
365.00 1.446
365.10 1.445
365.20 1.444
365.30 1.443
365.40 1.442
365.50 1.441
365.60 1.439
365.70 1.438
365.80 1.437
365.90 1.436
366.00 1.435
366.10 1.434
366.20 1.433
366.30 1.432
366.40 1.431
366.50 1.43
366.60 1.429
366.70 1.428
366.80 1.427
366.90 1.426
367.00 1.425
367.10 1.424
367.20 1.423
367.30 1.422
367.40 1.421
367.50 1.42
367.60 1.419
367.70 1.418
367.80 1.417
367.90 1.416
368.00 1.415
368.10 1.415
368.20 1.414
368.30 1.413
368.40 1.412
368.50 1.411
368.60 1.41
368.70 1.409
368.80 1.408
368.90 1.407
369.00 1.406
369.10 1.405
369.20 1.404
369.30 1.403
369.40 1.403
369.50 1.402
369.60 1.401
369.70 1.4
369.80 1.399
369.90 1.398
370.00 1.397
370.10 1.396
370.20 1.396
370.30 1.395
370.40 1.394
370.50 1.394
370.60 1.393
370.70 1.392
370.80 1.392
370.90 1.391
371.00 1.39
371.10 1.39
371.20 1.389
371.30 1.388
371.40 1.388
371.50 1.387
371.60 1.386
371.70 1.386
371.80 1.385
371.90 1.384
372.00 1.383
372.10 1.383
372.20 1.383
372.30 1.383
372.40 1.382
372.50 1.382
372.60 1.382
372.70 1.382
372.80 1.381
372.90 1.381
373.00 1.381
373.10 1.381
373.20 1.38
373.30 1.38
373.40 1.38
373.50 1.38
373.60 1.379
373.70 1.379
373.80 1.379
373.90 1.379
374.00 1.378
374.10 1.378
374.20 1.379
374.30 1.379
374.40 1.379
374.50 1.379
374.60 1.379
374.70 1.379
374.80 1.379
374.90 1.379
375.00 1.379
375.10 1.379
375.20 1.379
375.30 1.379
375.40 1.379
375.50 1.379
375.60 1.379
375.70 1.379
375.80 1.379
375.90 1.379
376.00 1.379
376.10 1.379
376.20 1.379
376.30 1.379
376.40 1.379
376.50 1.379
376.60 1.379
376.70 1.379
376.80 1.379
376.90 1.378
377.00 1.378
377.10 1.378
377.20 1.377
377.30 1.376
377.40 1.375
377.50 1.374
377.60 1.374
377.70 1.373
377.80 1.372
377.90 1.371
378.00 1.371
378.10 1.368
378.20 1.365
378.30 1.362
378.40 1.359
378.50 1.356
378.60 1.353
378.70 1.35
378.80 1.347
378.90 1.344
379.00 1.341
379.10 1.34
379.20 1.338
379.30 1.336
379.40 1.334
379.50 1.332
379.60 1.33
379.70 1.328
379.80 1.326
379.90 1.324
380.00 1.322
380.10 1.324
380.20 1.327
380.30 1.329
380.40 1.332
380.50 1.334
380.60 1.336
380.70 1.339
380.80 1.341
380.90 1.344
381.00 1.346
381.10 1.347
381.20 1.347
381.30 1.348
381.40 1.348
381.50 1.349
381.60 1.348
381.70 1.347
381.80 1.345
381.90 1.343
382.00 1.34
382.10 1.337
382.20 1.333
382.30 1.326
382.40 1.319
382.50 1.311
382.60 1.304
382.70 1.297
382.80 1.29
382.90 1.283
383.00 1.276
383.10 1.269
383.20 1.262
383.30 1.257
383.40 1.252
383.50 1.246
383.60 1.247
383.70 1.253
383.80 1.259
383.90 1.264
384.00 1.27
384.10 1.279
384.20 1.288
384.30 1.297
384.40 1.306
384.50 1.314
384.60 1.321
384.70 1.327
384.80 1.333
384.90 1.338
385.00 1.342
385.10 1.345
385.20 1.348
385.30 1.35
385.40 1.351
385.50 1.352
385.60 1.353
385.70 1.353
385.80 1.353
385.90 1.352
386.00 1.351
386.10 1.35
386.20 1.348
386.30 1.345
386.40 1.342
386.50 1.339
386.60 1.335
386.70 1.331
386.80 1.326
386.90 1.321
387.00 1.316
387.10 1.31
387.20 1.303
387.30 1.296
387.40 1.289
387.50 1.28
387.60 1.27
387.70 1.26
387.80 1.249
387.90 1.237
388.00 1.225
388.10 1.21
388.20 1.194
388.30 1.176
388.40 1.157
388.50 1.141
388.60 1.126
388.70 1.116
388.80 1.107
388.90 1.099
389.00 1.106
389.10 1.115
389.20 1.125
389.30 1.14
389.40 1.156
389.50 1.176
389.60 1.194
389.70 1.211
389.80 1.226
389.90 1.24
390.00 1.252
390.10 1.264
390.20 1.275
390.30 1.286
390.40 1.296
390.50 1.305
390.60 1.313
390.70 1.321
390.80 1.328
390.90 1.335
391.00 1.341
391.10 1.347
391.20 1.353
391.30 1.358
391.40 1.363
391.50 1.368
391.60 1.372
391.70 1.376
391.80 1.379
391.90 1.382
392.00 1.384
392.10 1.386
392.20 1.388
392.30 1.389
392.40 1.389
392.50 1.389
392.60 1.389
392.70 1.388
392.80 1.387
392.90 1.385
393.00 1.383
393.10 1.38
393.20 1.377
393.30 1.373
393.40 1.369
393.50 1.365
393.60 1.359
393.70 1.354
393.80 1.348
393.90 1.341
394.00 1.334
394.10 1.326
394.20 1.318
394.30 1.31
394.40 1.301
394.50 1.291
394.60 1.281
394.70 1.27
394.80 1.259
394.90 1.248
395.00 1.236
395.10 1.224
395.20 1.211
395.30 1.198
395.40 1.184
395.50 1.17
395.60 1.155
395.70 1.139
395.80 1.123
395.90 1.106
396.00 1.089
396.10 1.071
396.20 1.051
396.30 1.029
396.40 1.006
396.50 0.9782
396.60 0.95
396.70 0.9213
396.80 0.8998
396.90 0.8782
397.00 0.8564
397.10 0.8762
397.20 0.8961
397.30 0.9161
397.40 0.9439
397.50 0.9715
397.60 0.999
397.70 1.022
397.80 1.044
397.90 1.063
398.00 1.081
398.10 1.098
398.20 1.115
398.30 1.131
398.40 1.146
398.50 1.161
398.60 1.176
398.70 1.19
398.80 1.203
398.90 1.216
399.00 1.229
399.10 1.242
399.20 1.254
399.30 1.266
399.40 1.277
399.50 1.288
399.60 1.299
399.70 1.31
399.80 1.32
399.90 1.33
400.00 1.339
400.10 1.348
400.20 1.357
400.30 1.366
400.40 1.374
400.50 1.381
400.60 1.389
400.70 1.396
400.80 1.403
400.90 1.409
401.00 1.415
401.10 1.421
401.20 1.427
401.30 1.432
401.40 1.437
401.50 1.441
401.60 1.445
401.70 1.449
401.80 1.453
401.90 1.457
402.00 1.46
402.10 1.463
402.20 1.465
402.30 1.468
402.40 1.47
402.50 1.471
402.60 1.473
402.70 1.474
402.80 1.475
402.90 1.475
403.00 1.476
403.10 1.476
403.20 1.476
403.30 1.475
403.40 1.474
403.50 1.473
403.60 1.472
403.70 1.47
403.80 1.468
403.90 1.466
404.00 1.464
404.10 1.461
404.20 1.458
404.30 1.454
404.40 1.451
404.50 1.447
404.60 1.443
404.70 1.438
404.80 1.434
404.90 1.428
405.00 1.423
405.10 1.417
405.20 1.411
405.30 1.405
405.40 1.399
405.50 1.392
405.60 1.385
405.70 1.377
405.80 1.37
405.90 1.362
406.00 1.353
406.10 1.345
406.20 1.336
406.30 1.327
406.40 1.317
406.50 1.307
406.60 1.297
406.70 1.286
406.80 1.276
406.90 1.265
407.00 1.253
407.10 1.241
407.20 1.229
407.30 1.217
407.40 1.204
407.50 1.191
407.60 1.177
407.70 1.163
407.80 1.149
407.90 1.134
408.00 1.12
408.10 1.105
408.20 1.089
408.30 1.073
408.40 1.057
408.50 1.041
408.60 1.024
408.70 1.007
408.80 0.9898
408.90 0.9722
409.00 0.9544
409.10 0.9362
409.20 0.9178
409.30 0.8991
409.40 0.8791
409.50 0.8578
409.60 0.835
409.70 0.8084
409.80 0.7802
409.90 0.7506
410.00 0.7226
410.10 0.7004
410.20 0.6838
410.30 0.7095
410.40 0.7365
410.50 0.7648
410.60 0.793
410.70 0.8194
410.80 0.8438
410.90 0.8645
411.00 0.8841
411.10 0.9026
411.20 0.9201
411.30 0.9374
411.40 0.9544
411.50 0.9711
411.60 0.9876
411.70 1.004
411.80 1.019
411.90 1.035
412.00 1.05
412.10 1.065
412.20 1.079
412.30 1.094
412.40 1.107
412.50 1.121
412.60 1.134
412.70 1.147
412.80 1.16
412.90 1.172
413.00 1.184
413.10 1.196
413.20 1.208
413.30 1.219
413.40 1.229
413.50 1.24
413.60 1.25
413.70 1.26
413.80 1.27
413.90 1.28
414.00 1.289
414.10 1.298
414.20 1.307
414.30 1.315
414.40 1.324
414.50 1.332
414.60 1.34
414.70 1.348
414.80 1.355
414.90 1.362
415.00 1.369
415.10 1.376
415.20 1.383
415.30 1.39
415.40 1.396
415.50 1.402
415.60 1.408
415.70 1.414
415.80 1.42
415.90 1.425
416.00 1.431
416.10 1.436
416.20 1.441
416.30 1.446
416.40 1.451
416.50 1.455
416.60 1.46
416.70 1.464
416.80 1.468
416.90 1.472
417.00 1.476
417.10 1.48
417.20 1.484
417.30 1.487
417.40 1.491
417.50 1.494
417.60 1.497
417.70 1.5
417.80 1.503
417.90 1.506
418.00 1.508
418.10 1.511
418.20 1.513
418.30 1.516
418.40 1.518
418.50 1.52
418.60 1.522
418.70 1.524
418.80 1.526
418.90 1.528
419.00 1.529
419.10 1.531
419.20 1.532
419.30 1.534
419.40 1.535
419.50 1.536
419.60 1.537
419.70 1.538
419.80 1.539
419.90 1.54
420.00 1.54
420.10 1.541
420.20 1.541
420.30 1.542
420.40 1.542
420.50 1.542
420.60 1.543
420.70 1.543
420.80 1.543
420.90 1.543
421.00 1.542
421.10 1.542
421.20 1.542
421.30 1.542
421.40 1.541
421.50 1.541
421.60 1.54
421.70 1.539
421.80 1.538
421.90 1.538
422.00 1.537
422.10 1.536
422.20 1.534
422.30 1.533
422.40 1.532
422.50 1.531
422.60 1.529
422.70 1.528
422.80 1.526
422.90 1.524
423.00 1.523
423.10 1.521
423.20 1.519
423.30 1.517
423.40 1.515
423.50 1.513
423.60 1.511
423.70 1.508
423.80 1.506
423.90 1.503
424.00 1.501
424.10 1.498
424.20 1.496
424.30 1.493
424.40 1.49
424.50 1.487
424.60 1.484
424.70 1.481
424.80 1.478
424.90 1.474
425.00 1.471
425.10 1.467
425.20 1.464
425.30 1.46
425.40 1.457
425.50 1.453
425.60 1.449
425.70 1.445
425.80 1.441
425.90 1.436
426.00 1.432
426.10 1.428
426.20 1.422
426.30 1.417
426.40 1.413
426.50 1.408
426.60 1.403
426.70 1.398
426.80 1.393
426.90 1.388
427.00 1.382
427.10 1.377
427.20 1.371
427.30 1.366
427.40 1.36
427.50 1.354
427.60 1.348
427.70 1.342
427.80 1.336
427.90 1.329
428.00 1.323
428.10 1.316
428.20 1.31
428.30 1.303
428.40 1.296
428.50 1.289
428.60 1.282
428.70 1.274
428.80 1.267
428.90 1.259
429.00 1.252
429.10 1.244
429.20 1.236
429.30 1.227
429.40 1.219
429.50 1.211
429.60 1.202
429.70 1.193
429.80 1.184
429.90 1.175
430.00 1.166
430.10 1.156
430.20 1.147
430.30 1.137
430.40 1.127
430.50 1.117
430.60 1.107
430.70 1.096
430.80 1.085
430.90 1.075
431.00 1.063
431.10 1.052
431.20 1.041
431.30 1.029
431.40 1.017
431.50 1.005
431.60 0.9925
431.70 0.9799
431.80 0.9672
431.90 0.954
432.00 0.9406
432.10 0.927
432.20 0.9128
432.30 0.8984
432.40 0.8837
432.50 0.8683
432.60 0.8525
432.70 0.8363
432.80 0.8197
432.90 0.8031
433.00 0.7866
433.10 0.7706
433.20 0.7547
433.30 0.739
433.40 0.7223
433.50 0.7043
433.60 0.6849
433.70 0.6596
433.80 0.6304
433.90 0.5973
434.00 0.5493
434.10 0.5501
434.20 0.5996
434.30 0.6317
434.40 0.6599
434.50 0.6842
434.60 0.7028
434.70 0.7199
434.80 0.7358
434.90 0.7508
435.00 0.7659
435.10 0.7811
435.20 0.7967
435.30 0.8124
435.40 0.828
435.50 0.8432
435.60 0.8579
435.70 0.8722
435.80 0.8858
435.90 0.8991
436.00 0.912
436.10 0.9245
436.20 0.9366
436.30 0.9486
436.40 0.9601
436.50 0.9714
436.60 0.9825
436.70 0.9933
436.80 1.004
436.90 1.014
437.00 1.024
437.10 1.034
437.20 1.044
437.30 1.053
437.40 1.062
437.50 1.072
437.60 1.08
437.70 1.089
437.80 1.097
437.90 1.106
438.00 1.114
438.10 1.122
438.20 1.129
438.30 1.137
438.40 1.144
438.50 1.151
438.60 1.158
438.70 1.165
438.80 1.172
438.90 1.179
439.00 1.185
439.10 1.191
439.20 1.197
439.30 1.203
439.40 1.209
439.50 1.215
439.60 1.22
439.70 1.226
439.80 1.231
439.90 1.236
440.00 1.241
440.10 1.246
440.20 1.251
440.30 1.256
440.40 1.261
440.50 1.265
440.60 1.269
440.70 1.274
440.80 1.278
440.90 1.282
441.00 1.286
441.10 1.29
441.20 1.294
441.30 1.297
441.40 1.301
441.50 1.305
441.60 1.308
441.70 1.311
441.80 1.315
441.90 1.318
442.00 1.321
442.10 1.324
442.20 1.327
442.30 1.33
442.40 1.332
442.50 1.335
442.60 1.338
442.70 1.34
442.80 1.343
442.90 1.345
443.00 1.347
443.10 1.35
443.20 1.352
443.30 1.354
443.40 1.356
443.50 1.358
443.60 1.36
443.70 1.362
443.80 1.364
443.90 1.366
444.00 1.367
444.10 1.369
444.20 1.371
444.30 1.372
444.40 1.374
444.50 1.375
444.60 1.377
444.70 1.378
444.80 1.379
444.90 1.381
445.00 1.382
445.10 1.383
445.20 1.384
445.30 1.385
445.40 1.386
445.50 1.387
445.60 1.388
445.70 1.389
445.80 1.39
445.90 1.391
446.00 1.392
446.10 1.393
446.20 1.393
446.30 1.394
446.40 1.395
446.50 1.396
446.60 1.396
446.70 1.397
446.80 1.397
446.90 1.398
447.00 1.398
447.10 1.399
447.20 1.399
447.30 1.4
447.40 1.4
447.50 1.4
447.60 1.401
447.70 1.401
447.80 1.401
447.90 1.402
448.00 1.402
448.10 1.402
448.20 1.402
448.30 1.402
448.40 1.402
448.50 1.403
448.60 1.403
448.70 1.403
448.80 1.403
448.90 1.403
449.00 1.403
449.10 1.403
449.20 1.403
449.30 1.403
449.40 1.403
449.50 1.403
449.60 1.403
449.70 1.403
449.80 1.403
449.90 1.403
450.00 1.402
450.10 1.402
450.20 1.402
450.30 1.402
450.40 1.402
450.50 1.401
450.60 1.401
450.70 1.401
450.80 1.401
450.90 1.4
451.00 1.4
451.10 1.4
451.20 1.399
451.30 1.399
451.40 1.399
451.50 1.398
451.60 1.398
451.70 1.398
451.80 1.397
451.90 1.397
452.00 1.396
452.10 1.396
452.20 1.395
452.30 1.395
452.40 1.395
452.50 1.394
452.60 1.393
452.70 1.393
452.80 1.392
452.90 1.392
453.00 1.391
453.10 1.391
453.20 1.39
453.30 1.39
