# Version 2.1 - nm, norm@500 to 1, cut digits, bergeron_12500_85.dat_12500
# Wavelength(nm)  Flambda(ergs/cm^s/s/nm)
300.00 2.096
300.10 2.095
300.20 2.094
300.30 2.092
300.40 2.091
300.50 2.09
300.60 2.088
300.70 2.087
300.80 2.086
300.90 2.084
301.00 2.083
301.10 2.082
301.20 2.08
301.30 2.079
301.40 2.078
301.50 2.076
301.60 2.075
301.70 2.074
301.80 2.072
301.90 2.071
302.00 2.07
302.10 2.068
302.20 2.067
302.30 2.066
302.40 2.064
302.50 2.063
302.60 2.062
302.70 2.06
302.80 2.059
302.90 2.058
303.00 2.056
303.10 2.055
303.20 2.054
303.30 2.053
303.40 2.051
303.50 2.05
303.60 2.049
303.70 2.047
303.80 2.046
303.90 2.045
304.00 2.043
304.10 2.042
304.20 2.041
304.30 2.039
304.40 2.038
304.50 2.037
304.60 2.036
304.70 2.034
304.80 2.033
304.90 2.032
305.00 2.03
305.10 2.029
305.20 2.028
305.30 2.026
305.40 2.025
305.50 2.024
305.60 2.023
305.70 2.021
305.80 2.02
305.90 2.019
306.00 2.017
306.10 2.016
306.20 2.015
306.30 2.014
306.40 2.012
306.50 2.011
306.60 2.01
306.70 2.008
306.80 2.007
306.90 2.006
307.00 2.005
307.10 2.003
307.20 2.002
307.30 2.001
307.40 1.999
307.50 1.998
307.60 1.997
307.70 1.996
307.80 1.994
307.90 1.993
308.00 1.992
308.10 1.99
308.20 1.989
308.30 1.988
308.40 1.987
308.50 1.985
308.60 1.984
308.70 1.983
308.80 1.982
308.90 1.98
309.00 1.979
309.10 1.978
309.20 1.977
309.30 1.975
309.40 1.974
309.50 1.973
309.60 1.972
309.70 1.97
309.80 1.969
309.90 1.968
310.00 1.966
310.10 1.965
310.20 1.964
310.30 1.963
310.40 1.961
310.50 1.96
310.60 1.959
310.70 1.958
310.80 1.956
310.90 1.955
311.00 1.954
311.10 1.953
311.20 1.951
311.30 1.95
311.40 1.949
311.50 1.948
311.60 1.947
311.70 1.945
311.80 1.944
311.90 1.943
312.00 1.942
312.10 1.94
312.20 1.939
312.30 1.938
312.40 1.937
312.50 1.935
312.60 1.934
312.70 1.933
312.80 1.932
312.90 1.93
313.00 1.929
313.10 1.928
313.20 1.927
313.30 1.926
313.40 1.924
313.50 1.923
313.60 1.922
313.70 1.921
313.80 1.919
313.90 1.918
314.00 1.917
314.10 1.916
314.20 1.915
314.30 1.913
314.40 1.912
314.50 1.911
314.60 1.91
314.70 1.908
314.80 1.907
314.90 1.906
315.00 1.905
315.10 1.904
315.20 1.902
315.30 1.901
315.40 1.9
315.50 1.899
315.60 1.898
315.70 1.896
315.80 1.895
315.90 1.894
316.00 1.893
316.10 1.892
316.20 1.89
316.30 1.889
316.40 1.888
316.50 1.887
316.60 1.886
316.70 1.884
316.80 1.883
316.90 1.882
317.00 1.881
317.10 1.88
317.20 1.878
317.30 1.877
317.40 1.876
317.50 1.875
317.60 1.874
317.70 1.872
317.80 1.871
317.90 1.87
318.00 1.869
318.10 1.868
318.20 1.867
318.30 1.865
318.40 1.864
318.50 1.863
318.60 1.862
318.70 1.861
318.80 1.859
318.90 1.858
319.00 1.857
319.10 1.856
319.20 1.855
319.30 1.854
319.40 1.852
319.50 1.851
319.60 1.85
319.70 1.849
319.80 1.848
319.90 1.847
320.00 1.845
320.10 1.844
320.20 1.843
320.30 1.842
320.40 1.841
320.50 1.839
320.60 1.838
320.70 1.837
320.80 1.836
320.90 1.835
321.00 1.834
321.10 1.833
321.20 1.831
321.30 1.83
321.40 1.829
321.50 1.828
321.60 1.827
321.70 1.826
321.80 1.824
321.90 1.823
322.00 1.822
322.10 1.821
322.20 1.82
322.30 1.819
322.40 1.818
322.50 1.816
322.60 1.815
322.70 1.814
322.80 1.813
322.90 1.812
323.00 1.811
323.10 1.809
323.20 1.808
323.30 1.807
323.40 1.806
323.50 1.805
323.60 1.804
323.70 1.803
323.80 1.802
323.90 1.8
324.00 1.799
324.10 1.798
324.20 1.797
324.30 1.796
324.40 1.795
324.50 1.794
324.60 1.792
324.70 1.791
324.80 1.79
324.90 1.789
325.00 1.788
325.10 1.787
325.20 1.786
325.30 1.785
325.40 1.783
325.50 1.782
325.60 1.781
325.70 1.78
325.80 1.779
325.90 1.778
326.00 1.777
326.10 1.776
326.20 1.774
326.30 1.773
326.40 1.772
326.50 1.771
326.60 1.77
326.70 1.769
326.80 1.768
326.90 1.767
327.00 1.766
327.10 1.764
327.20 1.763
327.30 1.762
327.40 1.761
327.50 1.76
327.60 1.759
327.70 1.758
327.80 1.757
327.90 1.756
328.00 1.754
328.10 1.753
328.20 1.752
328.30 1.751
328.40 1.75
328.50 1.749
328.60 1.748
328.70 1.747
328.80 1.746
328.90 1.745
329.00 1.743
329.10 1.742
329.20 1.741
329.30 1.74
329.40 1.739
329.50 1.738
329.60 1.737
329.70 1.736
329.80 1.735
329.90 1.734
330.00 1.733
330.10 1.731
330.20 1.73
330.30 1.729
330.40 1.728
330.50 1.727
330.60 1.726
330.70 1.725
330.80 1.724
330.90 1.723
331.00 1.722
331.10 1.721
331.20 1.719
331.30 1.718
331.40 1.717
331.50 1.716
331.60 1.715
331.70 1.714
331.80 1.713
331.90 1.712
332.00 1.711
332.10 1.71
332.20 1.709
332.30 1.708
332.40 1.707
332.50 1.706
332.60 1.704
332.70 1.703
332.80 1.702
332.90 1.701
333.00 1.7
333.10 1.699
333.20 1.698
333.30 1.697
333.40 1.696
333.50 1.695
333.60 1.694
333.70 1.693
333.80 1.692
333.90 1.691
334.00 1.69
334.10 1.689
334.20 1.687
334.30 1.686
334.40 1.685
334.50 1.684
334.60 1.683
334.70 1.682
334.80 1.681
334.90 1.68
335.00 1.679
335.10 1.678
335.20 1.677
335.30 1.676
335.40 1.675
335.50 1.674
335.60 1.673
335.70 1.672
335.80 1.671
335.90 1.67
336.00 1.669
336.10 1.668
336.20 1.666
336.30 1.665
336.40 1.664
336.50 1.663
336.60 1.662
336.70 1.661
336.80 1.66
336.90 1.659
337.00 1.658
337.10 1.657
337.20 1.656
337.30 1.655
337.40 1.654
337.50 1.653
337.60 1.652
337.70 1.651
337.80 1.65
337.90 1.649
338.00 1.648
338.10 1.647
338.20 1.646
338.30 1.645
338.40 1.644
338.50 1.643
338.60 1.642
338.70 1.641
338.80 1.64
338.90 1.639
339.00 1.638
339.10 1.637
339.20 1.636
339.30 1.635
339.40 1.634
339.50 1.633
339.60 1.632
339.70 1.63
339.80 1.629
339.90 1.628
340.00 1.627
340.10 1.626
340.20 1.625
340.30 1.624
340.40 1.623
340.50 1.622
340.60 1.621
340.70 1.62
340.80 1.619
340.90 1.618
341.00 1.617
341.10 1.616
341.20 1.615
341.30 1.614
341.40 1.613
341.50 1.612
341.60 1.611
341.70 1.61
341.80 1.609
341.90 1.608
342.00 1.607
342.10 1.606
342.20 1.605
342.30 1.604
342.40 1.603
342.50 1.602
342.60 1.601
342.70 1.6
342.80 1.599
342.90 1.598
343.00 1.597
343.10 1.596
343.20 1.595
343.30 1.594
343.40 1.593
343.50 1.592
343.60 1.591
343.70 1.59
343.80 1.589
343.90 1.588
344.00 1.587
344.10 1.586
344.20 1.586
344.30 1.585
344.40 1.584
344.50 1.583
344.60 1.582
344.70 1.581
344.80 1.58
344.90 1.579
345.00 1.578
345.10 1.577
345.20 1.576
345.30 1.575
345.40 1.574
345.50 1.573
345.60 1.572
345.70 1.571
345.80 1.57
345.90 1.569
346.00 1.568
346.10 1.567
346.20 1.566
346.30 1.565
346.40 1.564
346.50 1.563
346.60 1.562
346.70 1.561
346.80 1.56
346.90 1.559
347.00 1.558
347.10 1.557
347.20 1.556
347.30 1.555
347.40 1.554
347.50 1.553
347.60 1.552
347.70 1.552
347.80 1.551
347.90 1.55
348.00 1.549
348.10 1.548
348.20 1.547
348.30 1.546
348.40 1.545
348.50 1.544
348.60 1.543
348.70 1.542
348.80 1.541
348.90 1.54
349.00 1.539
349.10 1.538
349.20 1.537
349.30 1.536
349.40 1.535
349.50 1.534
349.60 1.533
349.70 1.532
349.80 1.532
349.90 1.531
350.00 1.53
350.10 1.529
350.20 1.528
350.30 1.527
350.40 1.526
350.50 1.525
350.60 1.524
350.70 1.523
350.80 1.522
350.90 1.521
351.00 1.52
351.10 1.519
351.20 1.518
351.30 1.517
351.40 1.516
351.50 1.516
351.60 1.515
351.70 1.514
351.80 1.513
351.90 1.512
352.00 1.511
352.10 1.51
352.20 1.509
352.30 1.508
352.40 1.507
352.50 1.506
352.60 1.505
352.70 1.504
352.80 1.503
352.90 1.503
353.00 1.502
353.10 1.501
353.20 1.5
353.30 1.499
353.40 1.498
353.50 1.497
353.60 1.496
353.70 1.495
353.80 1.494
353.90 1.493
354.00 1.492
354.10 1.492
354.20 1.491
354.30 1.49
354.40 1.489
354.50 1.488
354.60 1.487
354.70 1.486
354.80 1.485
354.90 1.484
355.00 1.483
355.10 1.482
355.20 1.481
355.30 1.481
355.40 1.48
355.50 1.479
355.60 1.478
355.70 1.477
355.80 1.476
355.90 1.475
356.00 1.474
356.10 1.473
356.20 1.472
356.30 1.472
356.40 1.471
356.50 1.47
356.60 1.469
356.70 1.468
356.80 1.467
356.90 1.466
357.00 1.465
357.10 1.464
357.20 1.463
357.30 1.463
357.40 1.462
357.50 1.461
357.60 1.46
357.70 1.459
357.80 1.458
357.90 1.457
358.00 1.456
358.10 1.455
358.20 1.455
358.30 1.454
358.40 1.453
358.50 1.452
358.60 1.451
358.70 1.45
358.80 1.449
358.90 1.448
359.00 1.447
359.10 1.447
359.20 1.446
359.30 1.445
359.40 1.444
359.50 1.443
359.60 1.442
359.70 1.441
359.80 1.44
359.90 1.44
360.00 1.439
360.10 1.438
360.20 1.437
360.30 1.436
360.40 1.435
360.50 1.434
360.60 1.433
360.70 1.432
360.80 1.432
360.90 1.431
361.00 1.43
361.10 1.429
361.20 1.428
361.30 1.427
361.40 1.426
361.50 1.426
361.60 1.425
361.70 1.424
361.80 1.423
361.90 1.422
362.00 1.421
362.10 1.42
362.20 1.419
362.30 1.419
362.40 1.418
362.50 1.417
362.60 1.416
362.70 1.415
362.80 1.414
362.90 1.413
363.00 1.413
363.10 1.412
363.20 1.411
363.30 1.41
363.40 1.409
363.50 1.408
363.60 1.407
363.70 1.406
363.80 1.405
363.90 1.404
364.00 1.403
364.10 1.402
364.20 1.401
364.30 1.4
364.40 1.399
364.50 1.398
364.60 1.397
364.70 1.396
364.80 1.395
364.90 1.394
365.00 1.393
365.10 1.392
365.20 1.391
365.30 1.39
365.40 1.389
365.50 1.388
365.60 1.387
365.70 1.386
365.80 1.385
365.90 1.384
366.00 1.383
366.10 1.382
366.20 1.381
366.30 1.38
366.40 1.379
366.50 1.378
366.60 1.377
366.70 1.376
366.80 1.376
366.90 1.375
367.00 1.374
367.10 1.373
367.20 1.372
367.30 1.371
367.40 1.37
367.50 1.369
367.60 1.369
367.70 1.368
367.80 1.367
367.90 1.366
368.00 1.365
368.10 1.364
368.20 1.363
368.30 1.363
368.40 1.362
368.50 1.361
368.60 1.36
368.70 1.359
368.80 1.358
368.90 1.358
369.00 1.357
369.10 1.356
369.20 1.355
369.30 1.354
369.40 1.354
369.50 1.353
369.60 1.352
369.70 1.351
369.80 1.35
369.90 1.35
370.00 1.349
370.10 1.348
370.20 1.348
370.30 1.347
370.40 1.347
370.50 1.346
370.60 1.346
370.70 1.345
370.80 1.345
370.90 1.344
371.00 1.344
371.10 1.343
371.20 1.342
371.30 1.342
371.40 1.341
371.50 1.341
371.60 1.34
371.70 1.34
371.80 1.339
371.90 1.339
372.00 1.338
372.10 1.338
372.20 1.338
372.30 1.338
372.40 1.338
372.50 1.338
372.60 1.338
372.70 1.338
372.80 1.338
372.90 1.338
373.00 1.338
373.10 1.338
373.20 1.338
373.30 1.338
373.40 1.338
373.50 1.338
373.60 1.338
373.70 1.338
373.80 1.338
373.90 1.338
374.00 1.338
374.10 1.338
374.20 1.338
374.30 1.339
374.40 1.339
374.50 1.339
374.60 1.34
374.70 1.34
374.80 1.34
374.90 1.34
375.00 1.341
375.10 1.341
375.20 1.341
375.30 1.342
375.40 1.342
375.50 1.342
375.60 1.343
375.70 1.343
375.80 1.343
375.90 1.343
376.00 1.344
376.10 1.344
376.20 1.344
376.30 1.344
376.40 1.344
376.50 1.344
376.60 1.344
376.70 1.344
376.80 1.344
376.90 1.344
377.00 1.344
377.10 1.344
377.20 1.343
377.30 1.342
377.40 1.341
377.50 1.34
377.60 1.34
377.70 1.339
377.80 1.338
377.90 1.337
378.00 1.336
378.10 1.333
378.20 1.329
378.30 1.326
378.40 1.323
378.50 1.319
378.60 1.316
378.70 1.312
378.80 1.309
378.90 1.305
379.00 1.302
379.10 1.3
379.20 1.297
379.30 1.295
379.40 1.293
379.50 1.291
379.60 1.288
379.70 1.286
379.80 1.284
379.90 1.281
380.00 1.279
380.10 1.282
380.20 1.286
380.30 1.289
380.40 1.292
380.50 1.296
380.60 1.299
380.70 1.302
380.80 1.306
380.90 1.309
381.00 1.312
381.10 1.313
381.20 1.314
381.30 1.315
381.40 1.316
381.50 1.317
381.60 1.316
381.70 1.315
381.80 1.313
381.90 1.31
382.00 1.307
382.10 1.304
382.20 1.299
382.30 1.291
382.40 1.282
382.50 1.273
382.60 1.265
382.70 1.256
382.80 1.248
382.90 1.239
383.00 1.231
383.10 1.222
383.20 1.214
383.30 1.208
383.40 1.201
383.50 1.194
383.60 1.195
383.70 1.203
383.80 1.21
383.90 1.216
384.00 1.225
384.10 1.235
384.20 1.247
384.30 1.258
384.40 1.268
384.50 1.279
384.60 1.287
384.70 1.295
384.80 1.302
384.90 1.307
385.00 1.312
385.10 1.316
385.20 1.319
385.30 1.322
385.40 1.325
385.50 1.326
385.60 1.328
385.70 1.328
385.80 1.328
385.90 1.328
386.00 1.327
386.10 1.326
386.20 1.324
386.30 1.322
386.40 1.319
386.50 1.316
386.60 1.312
386.70 1.307
386.80 1.303
386.90 1.297
387.00 1.291
387.10 1.284
387.20 1.277
387.30 1.269
387.40 1.261
387.50 1.251
387.60 1.241
387.70 1.23
387.80 1.218
387.90 1.204
388.00 1.188
388.10 1.17
388.20 1.151
388.30 1.131
388.40 1.109
388.50 1.089
388.60 1.071
388.70 1.059
388.80 1.048
388.90 1.039
389.00 1.047
389.10 1.058
389.20 1.07
389.30 1.088
389.40 1.108
389.50 1.13
389.60 1.152
389.70 1.172
389.80 1.19
389.90 1.207
390.00 1.222
390.10 1.236
390.20 1.248
390.30 1.259
390.40 1.27
390.50 1.279
390.60 1.288
390.70 1.297
390.80 1.305
390.90 1.313
391.00 1.32
391.10 1.326
391.20 1.333
391.30 1.338
391.40 1.343
391.50 1.348
391.60 1.352
391.70 1.356
391.80 1.359
391.90 1.362
392.00 1.364
392.10 1.366
392.20 1.368
392.30 1.369
392.40 1.37
392.50 1.37
392.60 1.37
392.70 1.369
392.80 1.368
392.90 1.366
393.00 1.364
393.10 1.362
393.20 1.359
393.30 1.355
393.40 1.351
393.50 1.347
393.60 1.342
393.70 1.337
393.80 1.331
393.90 1.324
394.00 1.317
394.10 1.31
394.20 1.302
394.30 1.294
394.40 1.285
394.50 1.275
394.60 1.265
394.70 1.254
394.80 1.243
394.90 1.231
395.00 1.219
395.10 1.205
395.20 1.192
395.30 1.177
395.40 1.163
395.50 1.147
395.60 1.131
395.70 1.115
395.80 1.098
395.90 1.079
396.00 1.059
396.10 1.038
396.20 1.014
396.30 0.9893
396.40 0.9626
396.50 0.9307
396.60 0.8985
396.70 0.866
396.80 0.8415
396.90 0.8168
397.00 0.7919
397.10 0.8147
397.20 0.8376
397.30 0.8607
397.40 0.8923
397.50 0.9241
397.60 0.9559
397.70 0.9827
397.80 1.008
397.90 1.031
398.00 1.052
398.10 1.072
398.20 1.091
398.30 1.108
398.40 1.125
398.50 1.141
398.60 1.156
398.70 1.171
398.80 1.186
398.90 1.2
399.00 1.214
399.10 1.227
399.20 1.24
399.30 1.252
399.40 1.264
399.50 1.275
399.60 1.285
399.70 1.296
399.80 1.306
399.90 1.315
400.00 1.325
400.10 1.333
400.20 1.342
400.30 1.35
400.40 1.358
400.50 1.365
400.60 1.372
400.70 1.379
400.80 1.385
400.90 1.391
401.00 1.397
401.10 1.403
401.20 1.408
401.30 1.412
401.40 1.417
401.50 1.421
401.60 1.425
401.70 1.429
401.80 1.432
401.90 1.435
402.00 1.438
402.10 1.441
402.20 1.443
402.30 1.445
402.40 1.447
402.50 1.449
402.60 1.45
402.70 1.451
402.80 1.452
402.90 1.452
403.00 1.453
403.10 1.453
403.20 1.452
403.30 1.452
403.40 1.451
403.50 1.45
403.60 1.449
403.70 1.447
403.80 1.446
403.90 1.444
404.00 1.441
404.10 1.439
404.20 1.436
404.30 1.433
404.40 1.43
404.50 1.426
404.60 1.422
404.70 1.418
404.80 1.414
404.90 1.41
405.00 1.405
405.10 1.4
405.20 1.394
405.30 1.389
405.40 1.383
405.50 1.376
405.60 1.37
405.70 1.363
405.80 1.356
405.90 1.348
406.00 1.34
406.10 1.332
406.20 1.324
406.30 1.315
406.40 1.306
406.50 1.296
406.60 1.286
406.70 1.276
406.80 1.265
406.90 1.255
407.00 1.243
407.10 1.232
407.20 1.22
407.30 1.207
407.40 1.194
407.50 1.181
407.60 1.167
407.70 1.153
407.80 1.139
407.90 1.123
408.00 1.108
408.10 1.092
408.20 1.075
408.30 1.058
408.40 1.041
408.50 1.023
408.60 1.005
408.70 0.9864
408.80 0.9672
408.90 0.9478
409.00 0.928
409.10 0.9075
409.20 0.8866
409.30 0.8653
409.40 0.8424
409.50 0.818
409.60 0.7921
409.70 0.7625
409.80 0.7314
409.90 0.699
410.00 0.6692
410.10 0.6449
410.20 0.6261
410.30 0.6549
410.40 0.6845
410.50 0.7149
410.60 0.7462
410.70 0.7757
410.80 0.8033
410.90 0.8272
411.00 0.8499
411.10 0.8712
411.20 0.8913
411.30 0.9111
411.40 0.9305
411.50 0.9491
411.60 0.9674
411.70 0.9853
411.80 1.003
411.90 1.02
412.00 1.036
412.10 1.052
412.20 1.068
412.30 1.084
412.40 1.098
412.50 1.113
412.60 1.127
412.70 1.14
412.80 1.153
412.90 1.166
413.00 1.178
413.10 1.189
413.20 1.201
413.30 1.212
413.40 1.223
413.50 1.233
413.60 1.243
413.70 1.253
413.80 1.263
413.90 1.272
414.00 1.281
414.10 1.289
414.20 1.298
414.30 1.306
414.40 1.314
414.50 1.321
414.60 1.329
414.70 1.336
414.80 1.343
414.90 1.349
415.00 1.356
415.10 1.362
415.20 1.368
415.30 1.374
415.40 1.38
415.50 1.385
415.60 1.39
415.70 1.395
415.80 1.4
415.90 1.405
416.00 1.41
416.10 1.414
416.20 1.419
416.30 1.423
416.40 1.427
416.50 1.431
416.60 1.435
416.70 1.439
416.80 1.442
416.90 1.446
417.00 1.449
417.10 1.453
417.20 1.456
417.30 1.459
417.40 1.462
417.50 1.464
417.60 1.467
417.70 1.469
417.80 1.472
417.90 1.474
418.00 1.476
418.10 1.478
418.20 1.48
418.30 1.482
418.40 1.484
418.50 1.485
418.60 1.487
418.70 1.488
418.80 1.49
418.90 1.491
419.00 1.492
419.10 1.493
419.20 1.495
419.30 1.496
419.40 1.496
419.50 1.497
419.60 1.498
419.70 1.499
419.80 1.499
419.90 1.5
420.00 1.5
420.10 1.501
420.20 1.501
420.30 1.501
420.40 1.502
420.50 1.502
420.60 1.502
420.70 1.502
420.80 1.502
420.90 1.502
421.00 1.501
421.10 1.501
421.20 1.501
421.30 1.5
421.40 1.5
421.50 1.499
421.60 1.499
421.70 1.498
421.80 1.497
421.90 1.497
422.00 1.496
422.10 1.495
422.20 1.494
422.30 1.493
422.40 1.492
422.50 1.49
422.60 1.489
422.70 1.488
422.80 1.487
422.90 1.485
423.00 1.484
423.10 1.482
423.20 1.48
423.30 1.479
423.40 1.477
423.50 1.475
423.60 1.473
423.70 1.471
423.80 1.469
423.90 1.467
424.00 1.465
424.10 1.463
424.20 1.461
424.30 1.458
424.40 1.456
424.50 1.453
424.60 1.451
424.70 1.448
424.80 1.446
424.90 1.443
425.00 1.44
425.10 1.437
425.20 1.434
425.30 1.431
425.40 1.428
425.50 1.424
425.60 1.421
425.70 1.418
425.80 1.414
425.90 1.411
426.00 1.407
426.10 1.403
426.20 1.398
426.30 1.394
426.40 1.39
426.50 1.386
426.60 1.382
426.70 1.377
426.80 1.373
426.90 1.368
427.00 1.364
427.10 1.359
427.20 1.354
427.30 1.349
427.40 1.344
427.50 1.339
427.60 1.333
427.70 1.328
427.80 1.322
427.90 1.316
428.00 1.311
428.10 1.305
428.20 1.299
428.30 1.293
428.40 1.286
428.50 1.28
428.60 1.273
428.70 1.267
428.80 1.26
428.90 1.253
429.00 1.246
429.10 1.239
429.20 1.231
429.30 1.223
429.40 1.215
429.50 1.207
429.60 1.199
429.70 1.191
429.80 1.182
429.90 1.173
430.00 1.164
430.10 1.155
430.20 1.145
430.30 1.136
430.40 1.126
430.50 1.116
430.60 1.105
430.70 1.095
430.80 1.084
430.90 1.073
431.00 1.062
431.10 1.05
431.20 1.038
431.30 1.026
431.40 1.014
431.50 1.001
431.60 0.9882
431.70 0.9749
431.80 0.9613
431.90 0.9472
432.00 0.9328
432.10 0.9181
432.20 0.9028
432.30 0.887
432.40 0.8708
432.50 0.8536
432.60 0.8358
432.70 0.8174
432.80 0.7985
432.90 0.7797
433.00 0.7609
433.10 0.7431
433.20 0.7254
433.30 0.7078
433.40 0.6892
433.50 0.6695
433.60 0.6484
433.70 0.622
433.80 0.5923
433.90 0.5591
434.00 0.5094
434.10 0.5102
434.20 0.5616
434.30 0.5938
434.40 0.6227
434.50 0.6483
434.60 0.6685
434.70 0.6876
434.80 0.7054
434.90 0.7223
435.00 0.7393
435.10 0.7564
435.20 0.7744
435.30 0.7924
435.40 0.8104
435.50 0.8278
435.60 0.8445
435.70 0.8607
435.80 0.8758
435.90 0.8904
436.00 0.9046
436.10 0.9182
436.20 0.9314
436.30 0.9444
436.40 0.9567
436.50 0.9688
436.60 0.9806
436.70 0.9919
436.80 1.003
436.90 1.014
437.00 1.024
437.10 1.034
437.20 1.044
437.30 1.054
437.40 1.063
437.50 1.073
437.60 1.081
437.70 1.09
437.80 1.099
437.90 1.107
438.00 1.115
438.10 1.123
438.20 1.13
438.30 1.138
438.40 1.145
438.50 1.152
438.60 1.158
438.70 1.165
438.80 1.171
438.90 1.178
439.00 1.184
439.10 1.189
439.20 1.195
439.30 1.201
439.40 1.206
439.50 1.211
439.60 1.216
439.70 1.221
439.80 1.226
439.90 1.23
440.00 1.235
440.10 1.239
440.20 1.244
440.30 1.248
440.40 1.252
440.50 1.256
440.60 1.26
440.70 1.264
440.80 1.268
440.90 1.271
441.00 1.275
441.10 1.278
441.20 1.281
441.30 1.284
441.40 1.288
441.50 1.29
441.60 1.293
441.70 1.296
441.80 1.299
441.90 1.301
442.00 1.304
442.10 1.306
442.20 1.309
442.30 1.311
442.40 1.313
442.50 1.315
442.60 1.318
442.70 1.32
442.80 1.322
442.90 1.324
443.00 1.325
443.10 1.327
443.20 1.329
443.30 1.331
443.40 1.332
443.50 1.334
443.60 1.335
443.70 1.337
443.80 1.338
443.90 1.34
444.00 1.341
444.10 1.342
444.20 1.343
444.30 1.345
444.40 1.346
444.50 1.347
444.60 1.348
444.70 1.349
444.80 1.35
444.90 1.351
445.00 1.352
445.10 1.353
445.20 1.353
445.30 1.354
445.40 1.355
445.50 1.356
445.60 1.356
445.70 1.357
445.80 1.358
445.90 1.358
446.00 1.359
446.10 1.359
446.20 1.36
446.30 1.36
446.40 1.361
446.50 1.361
446.60 1.362
446.70 1.362
446.80 1.362
446.90 1.363
447.00 1.363
447.10 1.363
447.20 1.363
447.30 1.364
447.40 1.364
447.50 1.364
447.60 1.364
447.70 1.364
447.80 1.365
447.90 1.365
448.00 1.365
448.10 1.365
448.20 1.365
448.30 1.365
448.40 1.365
448.50 1.365
448.60 1.365
448.70 1.365
448.80 1.365
448.90 1.365
449.00 1.365
449.10 1.365
449.20 1.365
449.30 1.365
449.40 1.364
449.50 1.364
449.60 1.364
449.70 1.364
449.80 1.364
449.90 1.363
450.00 1.363
450.10 1.363
450.20 1.363
450.30 1.362
450.40 1.362
450.50 1.362
450.60 1.362
450.70 1.361
450.80 1.361
450.90 1.361
451.00 1.36
451.10 1.36
451.20 1.36
451.30 1.359
451.40 1.359
451.50 1.358
451.60 1.358
451.70 1.358
451.80 1.357
451.90 1.357
452.00 1.356
452.10 1.356
452.20 1.356
452.30 1.355
452.40 1.355
452.50 1.354
452.60 1.354
452.70 1.353
452.80 1.353
452.90 1.352
453.00 1.352
453.10 1.351
453.20 1.351
