# Version 2.1 - nm, norm@500 to 1, cut digits, bergeron_55000_70.dat_55000
# Wavelength(nm)  Flambda(ergs/cm^s/s/nm)
300.00 6.293
300.10 6.285
300.20 6.278
300.30 6.27
300.40 6.263
300.50 6.255
300.60 6.248
300.70 6.24
300.80 6.232
300.90 6.225
301.00 6.217
301.10 6.21
301.20 6.202
301.30 6.195
301.40 6.187
301.50 6.18
301.60 6.172
301.70 6.165
301.80 6.158
301.90 6.15
302.00 6.143
302.10 6.135
302.20 6.128
302.30 6.12
302.40 6.113
302.50 6.106
302.60 6.098
302.70 6.091
302.80 6.084
302.90 6.076
303.00 6.069
303.10 6.062
303.20 6.055
303.30 6.047
303.40 6.04
303.50 6.033
303.60 6.026
303.70 6.018
303.80 6.011
303.90 6.004
304.00 5.997
304.10 5.989
304.20 5.982
304.30 5.975
304.40 5.968
304.50 5.961
304.60 5.954
304.70 5.947
304.80 5.94
304.90 5.932
305.00 5.925
305.10 5.918
305.20 5.911
305.30 5.904
305.40 5.897
305.50 5.89
305.60 5.883
305.70 5.876
305.80 5.869
305.90 5.862
306.00 5.855
306.10 5.848
306.20 5.841
306.30 5.834
306.40 5.827
306.50 5.82
306.60 5.813
306.70 5.806
306.80 5.8
306.90 5.793
307.00 5.786
307.10 5.779
307.20 5.772
307.30 5.765
307.40 5.758
307.50 5.752
307.60 5.745
307.70 5.738
307.80 5.731
307.90 5.724
308.00 5.718
308.10 5.711
308.20 5.704
308.30 5.697
308.40 5.691
308.50 5.684
308.60 5.677
308.70 5.67
308.80 5.664
308.90 5.657
309.00 5.65
309.10 5.644
309.20 5.637
309.30 5.63
309.40 5.624
309.50 5.617
309.60 5.61
309.70 5.604
309.80 5.597
309.90 5.591
310.00 5.584
310.10 5.577
310.20 5.571
310.30 5.564
310.40 5.558
310.50 5.551
310.60 5.545
310.70 5.538
310.80 5.532
310.90 5.525
311.00 5.519
311.10 5.512
311.20 5.506
311.30 5.499
311.40 5.493
311.50 5.486
311.60 5.48
311.70 5.474
311.80 5.467
311.90 5.461
312.00 5.454
312.10 5.448
312.20 5.442
312.30 5.435
312.40 5.429
312.50 5.423
312.60 5.416
312.70 5.41
312.80 5.404
312.90 5.397
313.00 5.391
313.10 5.385
313.20 5.379
313.30 5.372
313.40 5.366
313.50 5.36
313.60 5.354
313.70 5.347
313.80 5.341
313.90 5.335
314.00 5.329
314.10 5.322
314.20 5.316
314.30 5.31
314.40 5.304
314.50 5.298
314.60 5.292
314.70 5.285
314.80 5.279
314.90 5.273
315.00 5.267
315.10 5.261
315.20 5.255
315.30 5.249
315.40 5.243
315.50 5.237
315.60 5.231
315.70 5.225
315.80 5.218
315.90 5.212
316.00 5.206
316.10 5.2
316.20 5.194
316.30 5.188
316.40 5.182
316.50 5.176
316.60 5.17
316.70 5.164
316.80 5.159
316.90 5.153
317.00 5.147
317.10 5.141
317.20 5.135
317.30 5.129
317.40 5.123
317.50 5.117
317.60 5.111
317.70 5.105
317.80 5.099
317.90 5.094
318.00 5.088
318.10 5.082
318.20 5.076
318.30 5.07
318.40 5.064
318.50 5.059
318.60 5.053
318.70 5.047
318.80 5.041
318.90 5.035
319.00 5.03
319.10 5.024
319.20 5.018
319.30 5.012
319.40 5.007
319.50 5.001
319.60 4.995
319.70 4.989
319.80 4.984
319.90 4.978
320.00 4.972
320.10 4.967
320.20 4.961
320.30 4.955
320.40 4.95
320.50 4.944
320.60 4.938
320.70 4.933
320.80 4.927
320.90 4.922
321.00 4.916
321.10 4.91
321.20 4.905
321.30 4.899
321.40 4.894
321.50 4.888
321.60 4.882
321.70 4.877
321.80 4.871
321.90 4.866
322.00 4.86
322.10 4.855
322.20 4.849
322.30 4.844
322.40 4.838
322.50 4.833
322.60 4.827
322.70 4.822
322.80 4.816
322.90 4.811
323.00 4.805
323.10 4.8
323.20 4.795
323.30 4.789
323.40 4.784
323.50 4.778
323.60 4.773
323.70 4.767
323.80 4.762
323.90 4.757
324.00 4.751
324.10 4.746
324.20 4.741
324.30 4.735
324.40 4.73
324.50 4.725
324.60 4.719
324.70 4.714
324.80 4.709
324.90 4.703
325.00 4.698
325.10 4.693
325.20 4.687
325.30 4.682
325.40 4.677
325.50 4.672
325.60 4.666
325.70 4.661
325.80 4.656
325.90 4.651
326.00 4.645
326.10 4.64
326.20 4.635
326.30 4.63
326.40 4.625
326.50 4.619
326.60 4.614
326.70 4.609
326.80 4.604
326.90 4.599
327.00 4.594
327.10 4.588
327.20 4.583
327.30 4.578
327.40 4.573
327.50 4.568
327.60 4.563
327.70 4.558
327.80 4.553
327.90 4.548
328.00 4.543
328.10 4.537
328.20 4.532
328.30 4.527
328.40 4.522
328.50 4.517
328.60 4.512
328.70 4.507
328.80 4.502
328.90 4.497
329.00 4.492
329.10 4.487
329.20 4.482
329.30 4.477
329.40 4.472
329.50 4.467
329.60 4.462
329.70 4.457
329.80 4.452
329.90 4.447
330.00 4.442
330.10 4.438
330.20 4.433
330.30 4.428
330.40 4.423
330.50 4.418
330.60 4.413
330.70 4.408
330.80 4.403
330.90 4.398
331.00 4.393
331.10 4.389
331.20 4.384
331.30 4.379
331.40 4.374
331.50 4.369
331.60 4.364
331.70 4.36
331.80 4.355
331.90 4.35
332.00 4.345
332.10 4.34
332.20 4.336
332.30 4.331
332.40 4.326
332.50 4.321
332.60 4.316
332.70 4.312
332.80 4.307
332.90 4.302
333.00 4.297
333.10 4.293
333.20 4.288
333.30 4.283
333.40 4.279
333.50 4.274
333.60 4.269
333.70 4.264
333.80 4.26
333.90 4.255
334.00 4.25
334.10 4.246
334.20 4.241
334.30 4.236
334.40 4.232
334.50 4.227
334.60 4.223
334.70 4.218
334.80 4.213
334.90 4.209
335.00 4.204
335.10 4.199
335.20 4.195
335.30 4.19
335.40 4.186
335.50 4.181
335.60 4.177
335.70 4.172
335.80 4.167
335.90 4.163
336.00 4.158
336.10 4.154
336.20 4.149
336.30 4.145
336.40 4.14
336.50 4.136
336.60 4.131
336.70 4.127
336.80 4.122
336.90 4.118
337.00 4.113
337.10 4.109
337.20 4.104
337.30 4.1
337.40 4.095
337.50 4.091
337.60 4.086
337.70 4.082
337.80 4.077
337.90 4.073
338.00 4.069
338.10 4.064
338.20 4.06
338.30 4.055
338.40 4.051
338.50 4.047
338.60 4.042
338.70 4.038
338.80 4.034
338.90 4.029
339.00 4.025
339.10 4.02
339.20 4.016
339.30 4.012
339.40 4.007
339.50 4.003
339.60 3.999
339.70 3.994
339.80 3.99
339.90 3.986
340.00 3.981
340.10 3.977
340.20 3.973
340.30 3.969
340.40 3.964
340.50 3.96
340.60 3.956
340.70 3.952
340.80 3.947
340.90 3.943
341.00 3.939
341.10 3.935
341.20 3.93
341.30 3.926
341.40 3.922
341.50 3.918
341.60 3.913
341.70 3.909
341.80 3.905
341.90 3.901
342.00 3.897
342.10 3.892
342.20 3.888
342.30 3.884
342.40 3.88
342.50 3.876
342.60 3.872
342.70 3.867
342.80 3.863
342.90 3.859
343.00 3.855
343.10 3.851
343.20 3.847
343.30 3.843
343.40 3.838
343.50 3.834
343.60 3.83
343.70 3.826
343.80 3.822
343.90 3.818
344.00 3.814
344.10 3.81
344.20 3.806
344.30 3.802
344.40 3.798
344.50 3.794
344.60 3.79
344.70 3.786
344.80 3.782
344.90 3.777
345.00 3.773
345.10 3.769
345.20 3.765
345.30 3.761
345.40 3.757
345.50 3.753
345.60 3.749
345.70 3.745
345.80 3.741
345.90 3.737
346.00 3.733
346.10 3.729
346.20 3.726
346.30 3.722
346.40 3.718
346.50 3.714
346.60 3.71
346.70 3.706
346.80 3.702
346.90 3.698
347.00 3.694
347.10 3.69
347.20 3.686
347.30 3.682
347.40 3.678
347.50 3.675
347.60 3.671
347.70 3.667
347.80 3.663
347.90 3.659
348.00 3.655
348.10 3.651
348.20 3.647
348.30 3.644
348.40 3.64
348.50 3.636
348.60 3.632
348.70 3.628
348.80 3.624
348.90 3.621
349.00 3.617
349.10 3.613
349.20 3.609
349.30 3.605
349.40 3.602
349.50 3.598
349.60 3.594
349.70 3.59
349.80 3.586
349.90 3.583
350.00 3.579
350.10 3.575
350.20 3.571
350.30 3.568
350.40 3.564
350.50 3.56
350.60 3.556
350.70 3.553
350.80 3.549
350.90 3.545
351.00 3.542
351.10 3.538
351.20 3.534
351.30 3.53
351.40 3.527
351.50 3.523
351.60 3.519
351.70 3.516
351.80 3.512
351.90 3.508
352.00 3.505
352.10 3.501
352.20 3.497
352.30 3.494
352.40 3.49
352.50 3.486
352.60 3.483
352.70 3.479
352.80 3.475
352.90 3.472
353.00 3.468
353.10 3.465
353.20 3.461
353.30 3.457
353.40 3.454
353.50 3.45
353.60 3.447
353.70 3.443
353.80 3.439
353.90 3.436
354.00 3.432
354.10 3.429
354.20 3.425
354.30 3.422
354.40 3.418
354.50 3.414
354.60 3.411
354.70 3.407
354.80 3.404
354.90 3.4
355.00 3.397
355.10 3.393
355.20 3.39
355.30 3.386
355.40 3.383
355.50 3.379
355.60 3.376
355.70 3.372
355.80 3.369
355.90 3.365
356.00 3.362
356.10 3.358
356.20 3.355
356.30 3.351
356.40 3.348
356.50 3.344
356.60 3.341
356.70 3.337
356.80 3.334
356.90 3.331
357.00 3.327
357.10 3.324
357.20 3.32
357.30 3.317
357.40 3.313
357.50 3.31
357.60 3.307
357.70 3.303
357.80 3.3
357.90 3.296
358.00 3.293
358.10 3.29
358.20 3.286
358.30 3.283
358.40 3.279
358.50 3.276
358.60 3.273
358.70 3.269
358.80 3.266
358.90 3.263
359.00 3.259
359.10 3.256
359.20 3.253
359.30 3.249
359.40 3.246
359.50 3.243
359.60 3.239
359.70 3.236
359.80 3.233
359.90 3.229
360.00 3.226
360.10 3.223
360.20 3.219
360.30 3.216
360.40 3.213
360.50 3.21
360.60 3.206
360.70 3.203
360.80 3.2
360.90 3.196
361.00 3.193
361.10 3.19
361.20 3.187
361.30 3.183
361.40 3.18
361.50 3.177
361.60 3.174
361.70 3.17
361.80 3.167
361.90 3.164
362.00 3.161
362.10 3.158
362.20 3.154
362.30 3.151
362.40 3.148
362.50 3.145
362.60 3.142
362.70 3.138
362.80 3.135
362.90 3.132
363.00 3.129
363.10 3.126
363.20 3.122
363.30 3.119
363.40 3.116
363.50 3.113
363.60 3.11
363.70 3.107
363.80 3.103
363.90 3.1
364.00 3.097
364.10 3.094
364.20 3.091
364.30 3.088
364.40 3.085
364.50 3.082
364.60 3.078
364.70 3.075
364.80 3.072
364.90 3.069
365.00 3.066
365.10 3.063
365.20 3.06
365.30 3.057
365.40 3.054
365.50 3.051
365.60 3.047
365.70 3.044
365.80 3.041
365.90 3.038
366.00 3.035
366.10 3.032
366.20 3.029
366.30 3.026
366.40 3.022
366.50 3.019
366.60 3.016
366.70 3.013
366.80 3.01
366.90 3.007
367.00 3.004
367.10 3
367.20 2.997
367.30 2.994
367.40 2.991
367.50 2.988
367.60 2.985
367.70 2.982
367.80 2.978
367.90 2.975
368.00 2.972
368.10 2.969
368.20 2.966
368.30 2.963
368.40 2.96
368.50 2.957
368.60 2.954
368.70 2.951
368.80 2.948
368.90 2.945
369.00 2.942
369.10 2.939
369.20 2.935
369.30 2.932
369.40 2.929
369.50 2.926
369.60 2.923
369.70 2.92
369.80 2.917
369.90 2.914
370.00 2.911
370.10 2.908
370.20 2.905
370.30 2.902
370.40 2.899
370.50 2.896
370.60 2.893
370.70 2.89
370.80 2.887
370.90 2.884
371.00 2.881
371.10 2.878
371.20 2.875
371.30 2.873
371.40 2.87
371.50 2.867
371.60 2.864
371.70 2.861
371.80 2.858
371.90 2.855
372.00 2.852
372.10 2.849
372.20 2.846
372.30 2.843
372.40 2.841
372.50 2.838
372.60 2.835
372.70 2.832
372.80 2.829
372.90 2.827
373.00 2.824
373.10 2.821
373.20 2.818
373.30 2.816
373.40 2.813
373.50 2.81
373.60 2.807
373.70 2.804
373.80 2.802
373.90 2.799
374.00 2.796
374.10 2.793
374.20 2.791
374.30 2.788
374.40 2.786
374.50 2.783
374.60 2.78
374.70 2.778
374.80 2.775
374.90 2.773
375.00 2.77
375.10 2.767
375.20 2.765
375.30 2.762
375.40 2.76
375.50 2.757
375.60 2.755
375.70 2.752
375.80 2.749
375.90 2.747
376.00 2.744
376.10 2.742
376.20 2.739
376.30 2.736
376.40 2.733
376.50 2.731
376.60 2.728
376.70 2.725
376.80 2.723
376.90 2.72
377.00 2.717
377.10 2.715
377.20 2.713
377.30 2.711
377.40 2.709
377.50 2.707
377.60 2.705
377.70 2.703
377.80 2.701
377.90 2.699
378.00 2.697
378.10 2.694
378.20 2.691
378.30 2.688
378.40 2.686
378.50 2.683
378.60 2.68
378.70 2.677
378.80 2.675
378.90 2.672
379.00 2.669
379.10 2.667
379.20 2.664
379.30 2.661
379.40 2.658
379.50 2.655
379.60 2.653
379.70 2.65
379.80 2.647
379.90 2.644
380.00 2.642
380.10 2.64
380.20 2.639
380.30 2.638
380.40 2.637
380.50 2.636
380.60 2.635
380.70 2.633
380.80 2.632
380.90 2.631
381.00 2.63
381.10 2.628
381.20 2.625
381.30 2.623
381.40 2.621
381.50 2.619
381.60 2.616
381.70 2.613
381.80 2.61
381.90 2.606
382.00 2.603
382.10 2.599
382.20 2.595
382.30 2.59
382.40 2.585
382.50 2.58
382.60 2.575
382.70 2.57
382.80 2.565
382.90 2.56
383.00 2.555
383.10 2.55
383.20 2.545
383.30 2.54
383.40 2.535
383.50 2.531
383.60 2.529
383.70 2.53
383.80 2.531
383.90 2.533
384.00 2.534
384.10 2.536
384.20 2.538
384.30 2.539
384.40 2.54
384.50 2.542
384.60 2.543
384.70 2.544
384.80 2.544
384.90 2.545
385.00 2.545
385.10 2.545
385.20 2.544
385.30 2.544
385.40 2.543
385.50 2.542
385.60 2.541
385.70 2.539
385.80 2.537
385.90 2.535
386.00 2.533
386.10 2.53
386.20 2.527
386.30 2.524
386.40 2.52
386.50 2.517
386.60 2.513
386.70 2.508
386.80 2.503
386.90 2.498
387.00 2.493
387.10 2.487
387.20 2.481
387.30 2.475
387.40 2.468
387.50 2.461
387.60 2.453
387.70 2.445
387.80 2.437
387.90 2.428
388.00 2.42
388.10 2.41
388.20 2.401
388.30 2.391
388.40 2.382
388.50 2.372
388.60 2.362
388.70 2.354
388.80 2.348
388.90 2.344
389.00 2.344
389.10 2.346
389.20 2.35
389.30 2.356
389.40 2.362
389.50 2.368
389.60 2.374
389.70 2.379
389.80 2.385
389.90 2.39
390.00 2.395
390.10 2.399
390.20 2.403
390.30 2.407
390.40 2.411
390.50 2.414
390.60 2.417
390.70 2.42
390.80 2.422
390.90 2.424
391.00 2.426
391.10 2.427
391.20 2.429
391.30 2.43
391.40 2.43
391.50 2.431
391.60 2.431
391.70 2.431
391.80 2.431
391.90 2.431
392.00 2.43
392.10 2.429
392.20 2.428
392.30 2.427
392.40 2.426
392.50 2.424
392.60 2.422
392.70 2.42
392.80 2.418
392.90 2.416
393.00 2.413
393.10 2.411
393.20 2.408
393.30 2.405
393.40 2.402
393.50 2.398
393.60 2.394
393.70 2.391
393.80 2.386
393.90 2.382
394.00 2.377
394.10 2.372
394.20 2.367
394.30 2.362
394.40 2.356
394.50 2.35
394.60 2.344
394.70 2.337
394.80 2.33
394.90 2.322
395.00 2.314
395.10 2.306
395.20 2.297
395.30 2.288
395.40 2.278
395.50 2.268
395.60 2.257
395.70 2.246
395.80 2.234
395.90 2.222
396.00 2.209
396.10 2.196
396.20 2.182
396.30 2.168
396.40 2.153
396.50 2.138
396.60 2.122
396.70 2.107
396.80 2.091
396.90 2.076
397.00 2.062
397.10 2.071
397.20 2.082
397.30 2.094
397.40 2.106
397.50 2.117
397.60 2.129
397.70 2.14
397.80 2.15
397.90 2.16
398.00 2.17
398.10 2.179
398.20 2.187
398.30 2.195
398.40 2.202
398.50 2.209
398.60 2.215
398.70 2.221
398.80 2.227
398.90 2.231
399.00 2.236
399.10 2.24
399.20 2.243
399.30 2.247
399.40 2.25
399.50 2.252
399.60 2.254
399.70 2.256
399.80 2.258
399.90 2.26
400.00 2.261
400.10 2.262
400.20 2.263
400.30 2.263
400.40 2.264
400.50 2.264
400.60 2.264
400.70 2.264
400.80 2.264
400.90 2.264
401.00 2.263
401.10 2.263
401.20 2.262
401.30 2.261
401.40 2.261
401.50 2.26
401.60 2.259
401.70 2.258
401.80 2.256
401.90 2.255
402.00 2.254
402.10 2.253
402.20 2.251
402.30 2.25
402.40 2.248
402.50 2.247
402.60 2.245
402.70 2.243
402.80 2.241
402.90 2.24
403.00 2.238
403.10 2.236
403.20 2.234
403.30 2.232
403.40 2.23
403.50 2.228
403.60 2.226
403.70 2.224
403.80 2.222
403.90 2.22
404.00 2.217
404.10 2.215
404.20 2.213
404.30 2.211
404.40 2.208
404.50 2.206
404.60 2.203
404.70 2.201
404.80 2.198
404.90 2.195
405.00 2.193
405.10 2.19
405.20 2.187
405.30 2.184
405.40 2.181
405.50 2.178
405.60 2.175
405.70 2.172
405.80 2.169
405.90 2.165
406.00 2.162
406.10 2.158
406.20 2.154
406.30 2.151
406.40 2.147
406.50 2.143
406.60 2.138
406.70 2.134
406.80 2.129
406.90 2.125
407.00 2.119
407.10 2.114
407.20 2.109
407.30 2.103
407.40 2.097
407.50 2.091
407.60 2.084
407.70 2.077
407.80 2.07
407.90 2.062
408.00 2.054
408.10 2.046
408.20 2.037
408.30 2.027
408.40 2.018
408.50 2.007
408.60 1.996
408.70 1.984
408.80 1.972
408.90 1.959
409.00 1.945
409.10 1.931
409.20 1.916
409.30 1.9
409.40 1.883
409.50 1.866
409.60 1.848
409.70 1.829
409.80 1.81
409.90 1.79
410.00 1.771
410.10 1.76
410.20 1.757
410.30 1.763
410.40 1.774
410.50 1.791
410.60 1.807
410.70 1.823
410.80 1.838
410.90 1.852
411.00 1.865
411.10 1.878
411.20 1.89
411.30 1.901
411.40 1.912
411.50 1.921
411.60 1.93
411.70 1.939
411.80 1.946
411.90 1.953
412.00 1.96
412.10 1.966
412.20 1.971
412.30 1.976
412.40 1.98
412.50 1.984
412.60 1.988
412.70 1.991
412.80 1.994
412.90 1.997
413.00 1.999
413.10 2.001
413.20 2.002
413.30 2.004
413.40 2.005
413.50 2.006
413.60 2.007
413.70 2.008
413.80 2.008
413.90 2.008
414.00 2.009
414.10 2.009
414.20 2.009
414.30 2.008
414.40 2.008
414.50 2.008
414.60 2.007
414.70 2.007
414.80 2.006
414.90 2.005
415.00 2.005
415.10 2.004
415.20 2.003
415.30 2.002
415.40 2.001
415.50 2
415.60 1.999
415.70 1.998
415.80 1.997
415.90 1.996
416.00 1.994
416.10 1.993
416.20 1.992
416.30 1.99
416.40 1.989
416.50 1.988
416.60 1.986
416.70 1.985
416.80 1.984
416.90 1.982
417.00 1.981
417.10 1.979
417.20 1.978
417.30 1.976
417.40 1.975
417.50 1.973
417.60 1.972
417.70 1.97
417.80 1.969
417.90 1.967
418.00 1.966
418.10 1.964
418.20 1.962
418.30 1.961
418.40 1.959
418.50 1.958
418.60 1.956
418.70 1.954
418.80 1.953
418.90 1.951
419.00 1.95
419.10 1.948
419.20 1.946
419.30 1.945
419.40 1.943
419.50 1.941
419.60 1.94
419.70 1.938
419.80 1.936
419.90 1.935
420.00 1.933
420.10 1.931
420.20 1.93
420.30 1.928
420.40 1.926
420.50 1.925
420.60 1.923
420.70 1.921
420.80 1.92
420.90 1.918
421.00 1.916
421.10 1.915
421.20 1.913
421.30 1.911
421.40 1.91
421.50 1.908
421.60 1.906
421.70 1.904
421.80 1.903
421.90 1.901
422.00 1.899
422.10 1.898
422.20 1.896
422.30 1.894
422.40 1.893
422.50 1.891
422.60 1.889
422.70 1.887
422.80 1.886
422.90 1.884
423.00 1.882
423.10 1.881
423.20 1.879
423.30 1.877
423.40 1.876
423.50 1.874
423.60 1.872
423.70 1.87
423.80 1.869
423.90 1.867
424.00 1.865
424.10 1.863
424.20 1.862
424.30 1.86
424.40 1.858
424.50 1.857
424.60 1.855
424.70 1.853
424.80 1.851
424.90 1.85
425.00 1.848
425.10 1.846
425.20 1.844
425.30 1.843
425.40 1.841
425.50 1.839
425.60 1.837
425.70 1.835
425.80 1.834
425.90 1.832
426.00 1.83
426.10 1.828
426.20 1.826
426.30 1.825
426.40 1.823
426.50 1.821
426.60 1.819
426.70 1.817
426.80 1.815
426.90 1.814
427.00 1.812
427.10 1.81
427.20 1.808
427.30 1.806
427.40 1.804
427.50 1.802
427.60 1.8
427.70 1.798
427.80 1.796
427.90 1.794
428.00 1.792
428.10 1.79
428.20 1.788
428.30 1.786
428.40 1.784
428.50 1.782
428.60 1.78
428.70 1.777
428.80 1.775
428.90 1.773
429.00 1.77
429.10 1.768
429.20 1.766
429.30 1.763
429.40 1.761
429.50 1.758
429.60 1.755
429.70 1.753
429.80 1.75
429.90 1.747
430.00 1.744
430.10 1.741
430.20 1.738
430.30 1.735
430.40 1.731
430.50 1.728
430.60 1.724
430.70 1.721
430.80 1.717
430.90 1.713
431.00 1.708
431.10 1.704
431.20 1.699
431.30 1.694
431.40 1.689
431.50 1.684
431.60 1.678
431.70 1.672
431.80 1.665
431.90 1.658
432.00 1.651
432.10 1.644
432.20 1.635
432.30 1.627
432.40 1.618
432.50 1.608
432.60 1.598
432.70 1.587
432.80 1.575
432.90 1.563
433.00 1.55
433.10 1.536
433.20 1.522
433.30 1.507
433.40 1.491
433.50 1.474
433.60 1.457
433.70 1.439
433.80 1.42
433.90 1.4
434.00 1.382
434.10 1.381
434.20 1.398
434.30 1.415
434.40 1.432
434.50 1.448
434.60 1.462
434.70 1.476
434.80 1.49
434.90 1.502
435.00 1.514
435.10 1.525
435.20 1.535
435.30 1.544
435.40 1.553
435.50 1.561
435.60 1.568
435.70 1.575
435.80 1.581
435.90 1.587
436.00 1.592
436.10 1.596
436.20 1.6
436.30 1.604
436.40 1.608
436.50 1.611
436.60 1.613
436.70 1.616
436.80 1.618
436.90 1.62
437.00 1.621
437.10 1.623
437.20 1.624
437.30 1.625
437.40 1.626
437.50 1.626
437.60 1.627
437.70 1.627
437.80 1.628
437.90 1.628
438.00 1.628
438.10 1.628
438.20 1.628
438.30 1.628
438.40 1.627
438.50 1.627
438.60 1.627
438.70 1.626
438.80 1.625
438.90 1.625
439.00 1.624
439.10 1.624
439.20 1.623
439.30 1.622
439.40 1.621
439.50 1.621
439.60 1.62
439.70 1.619
439.80 1.618
439.90 1.617
440.00 1.616
440.10 1.615
440.20 1.614
440.30 1.613
440.40 1.612
440.50 1.611
440.60 1.61
440.70 1.609
440.80 1.608
440.90 1.607
441.00 1.605
441.10 1.604
441.20 1.603
441.30 1.602
441.40 1.601
441.50 1.6
441.60 1.599
441.70 1.597
441.80 1.596
441.90 1.595
442.00 1.594
442.10 1.593
442.20 1.591
442.30 1.59
442.40 1.589
442.50 1.588
442.60 1.586
442.70 1.585
442.80 1.584
442.90 1.583
443.00 1.581
443.10 1.58
443.20 1.579
443.30 1.578
443.40 1.576
443.50 1.575
443.60 1.574
443.70 1.573
443.80 1.571
443.90 1.57
444.00 1.569
444.10 1.568
444.20 1.566
444.30 1.565
444.40 1.564
444.50 1.563
444.60 1.561
444.70 1.56
444.80 1.559
444.90 1.557
445.00 1.556
445.10 1.555
445.20 1.554
445.30 1.552
445.40 1.551
445.50 1.55
445.60 1.549
445.70 1.547
445.80 1.546
445.90 1.545
446.00 1.543
446.10 1.542
446.20 1.541
446.30 1.54
446.40 1.538
446.50 1.537
446.60 1.536
446.70 1.535
446.80 1.533
446.90 1.532
447.00 1.531
447.10 1.529
447.20 1.528
447.30 1.527
447.40 1.526
447.50 1.524
447.60 1.523
447.70 1.522
447.80 1.521
447.90 1.519
448.00 1.518
448.10 1.517
448.20 1.516
448.30 1.514
448.40 1.513
448.50 1.512
448.60 1.51
448.70 1.509
448.80 1.508
448.90 1.507
449.00 1.505
449.10 1.504
449.20 1.503
449.30 1.502
449.40 1.5
449.50 1.499
449.60 1.498
449.70 1.497
449.80 1.495
449.90 1.494
450.00 1.493
450.10 1.492
450.20 1.49
450.30 1.489
450.40 1.488
450.50 1.487
450.60 1.485
450.70 1.484
450.80 1.483
450.90 1.482
451.00 1.481
451.10 1.479
451.20 1.478
451.30 1.477
451.40 1.476
451.50 1.474
451.60 1.473
451.70 1.472
451.80 1.471
451.90 1.469
452.00 1.468
452.10 1.467
452.20 1.466
452.30 1.465
452.40 1.463
452.50 1.462
452.60 1.461
452.70 1.46
452.80 1.458
452.90 1.457
453.00 1.456
453.10 1.455
453.20 1.454
453.30 1.452
453.40 1.451
453.50 1.45
453.60 1.449
453.70 1.448
453.80 1.446
453.90 1.445
454.00 1.444
454.10 1.443
454.20 1.442
