# Version 2.1 - nm, norm@500 to 1, cut digits, bergeron_75000_65.dat_75000
# Wavelength(nm)  Flambda(ergs/cm^s/s/nm)
300.00 6.598
300.10 6.59
300.20 6.582
300.30 6.574
300.40 6.566
300.50 6.558
300.60 6.55
300.70 6.542
300.80 6.533
300.90 6.525
301.00 6.517
301.10 6.509
301.20 6.501
301.30 6.493
301.40 6.485
301.50 6.477
301.60 6.469
301.70 6.461
301.80 6.454
301.90 6.446
302.00 6.438
302.10 6.43
302.20 6.422
302.30 6.414
302.40 6.406
302.50 6.398
302.60 6.39
302.70 6.383
302.80 6.375
302.90 6.367
303.00 6.359
303.10 6.351
303.20 6.344
303.30 6.336
303.40 6.328
303.50 6.32
303.60 6.313
303.70 6.305
303.80 6.297
303.90 6.29
304.00 6.282
304.10 6.274
304.20 6.267
304.30 6.259
304.40 6.251
304.50 6.244
304.60 6.236
304.70 6.228
304.80 6.221
304.90 6.213
305.00 6.206
305.10 6.198
305.20 6.191
305.30 6.183
305.40 6.176
305.50 6.168
305.60 6.161
305.70 6.153
305.80 6.146
305.90 6.138
306.00 6.131
306.10 6.123
306.20 6.116
306.30 6.108
306.40 6.101
306.50 6.094
306.60 6.086
306.70 6.079
306.80 6.072
306.90 6.064
307.00 6.057
307.10 6.05
307.20 6.042
307.30 6.035
307.40 6.028
307.50 6.02
307.60 6.013
307.70 6.006
307.80 5.999
307.90 5.991
308.00 5.984
308.10 5.977
308.20 5.97
308.30 5.963
308.40 5.955
308.50 5.948
308.60 5.941
308.70 5.934
308.80 5.927
308.90 5.92
309.00 5.913
309.10 5.905
309.20 5.898
309.30 5.891
309.40 5.884
309.50 5.877
309.60 5.87
309.70 5.863
309.80 5.856
309.90 5.849
310.00 5.842
310.10 5.835
310.20 5.828
310.30 5.821
310.40 5.814
310.50 5.807
310.60 5.8
310.70 5.793
310.80 5.786
310.90 5.779
311.00 5.772
311.10 5.766
311.20 5.759
311.30 5.752
311.40 5.745
311.50 5.738
311.60 5.731
311.70 5.724
311.80 5.718
311.90 5.711
312.00 5.704
312.10 5.697
312.20 5.69
312.30 5.684
312.40 5.677
312.50 5.67
312.60 5.663
312.70 5.657
312.80 5.65
312.90 5.643
313.00 5.636
313.10 5.63
313.20 5.623
313.30 5.616
313.40 5.61
313.50 5.603
313.60 5.596
313.70 5.59
313.80 5.583
313.90 5.577
314.00 5.57
314.10 5.563
314.20 5.557
314.30 5.55
314.40 5.544
314.50 5.537
314.60 5.531
314.70 5.524
314.80 5.517
314.90 5.511
315.00 5.504
315.10 5.498
315.20 5.491
315.30 5.485
315.40 5.479
315.50 5.472
315.60 5.466
315.70 5.459
315.80 5.453
315.90 5.446
316.00 5.44
316.10 5.434
316.20 5.427
316.30 5.421
316.40 5.414
316.50 5.408
316.60 5.402
316.70 5.395
316.80 5.389
316.90 5.383
317.00 5.376
317.10 5.37
317.20 5.364
317.30 5.357
317.40 5.351
317.50 5.345
317.60 5.339
317.70 5.332
317.80 5.326
317.90 5.32
318.00 5.314
318.10 5.307
318.20 5.301
318.30 5.295
318.40 5.289
318.50 5.283
318.60 5.276
318.70 5.27
318.80 5.264
318.90 5.258
319.00 5.252
319.10 5.246
319.20 5.24
319.30 5.234
319.40 5.227
319.50 5.221
319.60 5.215
319.70 5.209
319.80 5.203
319.90 5.197
320.00 5.191
320.10 5.185
320.20 5.179
320.30 5.173
320.40 5.167
320.50 5.161
320.60 5.155
320.70 5.149
320.80 5.143
320.90 5.137
321.00 5.131
321.10 5.125
321.20 5.119
321.30 5.113
321.40 5.107
321.50 5.101
321.60 5.096
321.70 5.09
321.80 5.084
321.90 5.078
322.00 5.072
322.10 5.066
322.20 5.06
322.30 5.054
322.40 5.049
322.50 5.043
322.60 5.037
322.70 5.031
322.80 5.025
322.90 5.019
323.00 5.014
323.10 5.008
323.20 5.002
323.30 4.996
323.40 4.991
323.50 4.985
323.60 4.979
323.70 4.973
323.80 4.968
323.90 4.962
324.00 4.956
324.10 4.951
324.20 4.945
324.30 4.939
324.40 4.934
324.50 4.928
324.60 4.922
324.70 4.917
324.80 4.911
324.90 4.905
325.00 4.9
325.10 4.894
325.20 4.888
325.30 4.883
325.40 4.877
325.50 4.872
325.60 4.866
325.70 4.861
325.80 4.855
325.90 4.849
326.00 4.844
326.10 4.838
326.20 4.833
326.30 4.827
326.40 4.822
326.50 4.816
326.60 4.811
326.70 4.805
326.80 4.8
326.90 4.794
327.00 4.789
327.10 4.783
327.20 4.778
327.30 4.773
327.40 4.767
327.50 4.762
327.60 4.756
327.70 4.751
327.80 4.745
327.90 4.74
328.00 4.735
328.10 4.729
328.20 4.724
328.30 4.719
328.40 4.713
328.50 4.708
328.60 4.702
328.70 4.697
328.80 4.692
328.90 4.687
329.00 4.681
329.10 4.676
329.20 4.671
329.30 4.665
329.40 4.66
329.50 4.655
329.60 4.65
329.70 4.644
329.80 4.639
329.90 4.634
330.00 4.629
330.10 4.623
330.20 4.618
330.30 4.613
330.40 4.608
330.50 4.602
330.60 4.597
330.70 4.592
330.80 4.587
330.90 4.582
331.00 4.577
331.10 4.571
331.20 4.566
331.30 4.561
331.40 4.556
331.50 4.551
331.60 4.546
331.70 4.541
331.80 4.536
331.90 4.53
332.00 4.525
332.10 4.52
332.20 4.515
332.30 4.51
332.40 4.505
332.50 4.5
332.60 4.495
332.70 4.49
332.80 4.485
332.90 4.48
333.00 4.475
333.10 4.47
333.20 4.465
333.30 4.46
333.40 4.455
333.50 4.45
333.60 4.445
333.70 4.44
333.80 4.435
333.90 4.43
334.00 4.425
334.10 4.42
334.20 4.415
334.30 4.41
334.40 4.405
334.50 4.4
334.60 4.396
334.70 4.391
334.80 4.386
334.90 4.381
335.00 4.376
335.10 4.371
335.20 4.366
335.30 4.361
335.40 4.356
335.50 4.352
335.60 4.347
335.70 4.342
335.80 4.337
335.90 4.332
336.00 4.327
336.10 4.323
336.20 4.318
336.30 4.313
336.40 4.308
336.50 4.304
336.60 4.299
336.70 4.294
336.80 4.289
336.90 4.284
337.00 4.28
337.10 4.275
337.20 4.27
337.30 4.266
337.40 4.261
337.50 4.256
337.60 4.251
337.70 4.247
337.80 4.242
337.90 4.237
338.00 4.233
338.10 4.228
338.20 4.223
338.30 4.219
338.40 4.214
338.50 4.209
338.60 4.205
338.70 4.2
338.80 4.195
338.90 4.191
339.00 4.186
339.10 4.182
339.20 4.177
339.30 4.172
339.40 4.168
339.50 4.163
339.60 4.159
339.70 4.154
339.80 4.149
339.90 4.145
340.00 4.14
340.10 4.136
340.20 4.131
340.30 4.127
340.40 4.122
340.50 4.118
340.60 4.113
340.70 4.109
340.80 4.104
340.90 4.1
341.00 4.095
341.10 4.091
341.20 4.086
341.30 4.082
341.40 4.077
341.50 4.073
341.60 4.068
341.70 4.064
341.80 4.059
341.90 4.055
342.00 4.05
342.10 4.046
342.20 4.042
342.30 4.037
342.40 4.033
342.50 4.028
342.60 4.024
342.70 4.02
342.80 4.015
342.90 4.011
343.00 4.007
343.10 4.002
343.20 3.998
343.30 3.994
343.40 3.989
343.50 3.985
343.60 3.98
343.70 3.976
343.80 3.972
343.90 3.967
344.00 3.963
344.10 3.959
344.20 3.955
344.30 3.95
344.40 3.946
344.50 3.942
344.60 3.937
344.70 3.933
344.80 3.929
344.90 3.925
345.00 3.92
345.10 3.916
345.20 3.912
345.30 3.908
345.40 3.903
345.50 3.899
345.60 3.895
345.70 3.891
345.80 3.887
345.90 3.882
346.00 3.878
346.10 3.874
346.20 3.87
346.30 3.866
346.40 3.861
346.50 3.857
346.60 3.853
346.70 3.849
346.80 3.845
346.90 3.841
347.00 3.837
347.10 3.832
347.20 3.828
347.30 3.824
347.40 3.82
347.50 3.816
347.60 3.812
347.70 3.808
347.80 3.804
347.90 3.799
348.00 3.795
348.10 3.791
348.20 3.787
348.30 3.783
348.40 3.779
348.50 3.775
348.60 3.771
348.70 3.767
348.80 3.763
348.90 3.759
349.00 3.755
349.10 3.751
349.20 3.747
349.30 3.743
349.40 3.739
349.50 3.735
349.60 3.731
349.70 3.727
349.80 3.723
349.90 3.719
350.00 3.715
350.10 3.711
350.20 3.707
350.30 3.703
350.40 3.699
350.50 3.695
350.60 3.691
350.70 3.687
350.80 3.683
350.90 3.679
351.00 3.675
351.10 3.672
351.20 3.668
351.30 3.664
351.40 3.66
351.50 3.656
351.60 3.652
351.70 3.648
351.80 3.644
351.90 3.64
352.00 3.636
352.10 3.633
352.20 3.629
352.30 3.625
352.40 3.621
352.50 3.617
352.60 3.613
352.70 3.61
352.80 3.606
352.90 3.602
353.00 3.598
353.10 3.594
353.20 3.59
353.30 3.587
353.40 3.583
353.50 3.579
353.60 3.575
353.70 3.571
353.80 3.568
353.90 3.564
354.00 3.56
354.10 3.556
354.20 3.553
354.30 3.549
354.40 3.545
354.50 3.541
354.60 3.538
354.70 3.534
354.80 3.53
354.90 3.526
355.00 3.523
355.10 3.519
355.20 3.515
355.30 3.512
355.40 3.508
355.50 3.504
355.60 3.5
355.70 3.497
355.80 3.493
355.90 3.489
356.00 3.486
356.10 3.482
356.20 3.478
356.30 3.475
356.40 3.471
356.50 3.468
356.60 3.464
356.70 3.46
356.80 3.457
356.90 3.453
357.00 3.449
357.10 3.446
357.20 3.442
357.30 3.439
357.40 3.435
357.50 3.431
357.60 3.428
357.70 3.424
357.80 3.421
357.90 3.417
358.00 3.413
358.10 3.41
358.20 3.406
358.30 3.403
358.40 3.399
358.50 3.396
358.60 3.392
358.70 3.388
358.80 3.385
358.90 3.381
359.00 3.378
359.10 3.374
359.20 3.371
359.30 3.367
359.40 3.364
359.50 3.36
359.60 3.357
359.70 3.353
359.80 3.35
359.90 3.346
360.00 3.343
360.10 3.339
360.20 3.336
360.30 3.332
360.40 3.329
360.50 3.325
360.60 3.322
360.70 3.319
360.80 3.315
360.90 3.312
361.00 3.308
361.10 3.305
361.20 3.301
361.30 3.298
361.40 3.295
361.50 3.291
361.60 3.288
361.70 3.284
361.80 3.281
361.90 3.277
362.00 3.274
362.10 3.271
362.20 3.267
362.30 3.264
362.40 3.261
362.50 3.257
362.60 3.254
362.70 3.25
362.80 3.247
362.90 3.244
363.00 3.24
363.10 3.237
363.20 3.234
363.30 3.23
363.40 3.227
363.50 3.224
363.60 3.22
363.70 3.217
363.80 3.214
363.90 3.21
364.00 3.207
364.10 3.204
364.20 3.201
364.30 3.197
364.40 3.194
364.50 3.191
364.60 3.187
364.70 3.184
364.80 3.181
364.90 3.178
365.00 3.174
365.10 3.171
365.20 3.168
365.30 3.165
365.40 3.161
365.50 3.158
365.60 3.155
365.70 3.152
365.80 3.148
365.90 3.145
366.00 3.142
366.10 3.139
366.20 3.135
366.30 3.132
366.40 3.129
366.50 3.125
366.60 3.122
366.70 3.119
366.80 3.116
366.90 3.112
367.00 3.109
367.10 3.106
367.20 3.102
367.30 3.099
367.40 3.096
367.50 3.093
367.60 3.089
367.70 3.086
367.80 3.083
367.90 3.08
368.00 3.076
368.10 3.073
368.20 3.07
368.30 3.067
368.40 3.064
368.50 3.06
368.60 3.057
368.70 3.054
368.80 3.051
368.90 3.048
369.00 3.044
369.10 3.041
369.20 3.038
369.30 3.035
369.40 3.032
369.50 3.029
369.60 3.025
369.70 3.022
369.80 3.019
369.90 3.016
370.00 3.013
370.10 3.01
370.20 3.007
370.30 3.004
370.40 3
370.50 2.997
370.60 2.994
370.70 2.991
370.80 2.988
370.90 2.985
371.00 2.982
371.10 2.979
371.20 2.976
371.30 2.973
371.40 2.97
371.50 2.967
371.60 2.964
371.70 2.96
371.80 2.957
371.90 2.954
372.00 2.951
372.10 2.948
372.20 2.945
372.30 2.943
372.40 2.94
372.50 2.937
372.60 2.934
372.70 2.931
372.80 2.928
372.90 2.925
373.00 2.922
373.10 2.919
373.20 2.916
373.30 2.914
373.40 2.911
373.50 2.908
373.60 2.905
373.70 2.902
373.80 2.899
373.90 2.896
374.00 2.893
374.10 2.891
374.20 2.888
374.30 2.885
374.40 2.883
374.50 2.88
374.60 2.877
374.70 2.874
374.80 2.872
374.90 2.869
375.00 2.866
375.10 2.863
375.20 2.861
375.30 2.858
375.40 2.855
375.50 2.853
375.60 2.85
375.70 2.847
375.80 2.845
375.90 2.842
376.00 2.839
376.10 2.836
376.20 2.833
376.30 2.83
376.40 2.827
376.50 2.824
376.60 2.82
376.70 2.817
376.80 2.814
376.90 2.811
377.00 2.808
377.10 2.806
377.20 2.804
377.30 2.802
377.40 2.8
377.50 2.798
377.60 2.796
377.70 2.794
377.80 2.792
377.90 2.79
378.00 2.789
378.10 2.785
378.20 2.782
378.30 2.779
378.40 2.776
378.50 2.773
378.60 2.77
378.70 2.767
378.80 2.764
378.90 2.761
379.00 2.758
379.10 2.754
379.20 2.751
379.30 2.747
379.40 2.744
379.50 2.74
379.60 2.737
379.70 2.733
379.80 2.73
379.90 2.727
380.00 2.723
380.10 2.723
380.20 2.722
380.30 2.721
380.40 2.721
380.50 2.72
380.60 2.719
380.70 2.719
380.80 2.718
380.90 2.717
381.00 2.717
381.10 2.714
381.20 2.712
381.30 2.71
381.40 2.708
381.50 2.706
381.60 2.703
381.70 2.7
381.80 2.696
381.90 2.693
382.00 2.689
382.10 2.684
382.20 2.68
382.30 2.674
382.40 2.667
382.50 2.661
382.60 2.655
382.70 2.649
382.80 2.643
382.90 2.637
383.00 2.63
383.10 2.624
383.20 2.618
383.30 2.611
383.40 2.603
383.50 2.598
383.60 2.596
383.70 2.598
383.80 2.601
383.90 2.604
384.00 2.607
384.10 2.61
384.20 2.613
384.30 2.615
384.40 2.617
384.50 2.619
384.60 2.62
384.70 2.621
384.80 2.622
384.90 2.623
385.00 2.623
385.10 2.623
385.20 2.623
385.30 2.622
385.40 2.622
385.50 2.621
385.60 2.619
385.70 2.618
385.80 2.616
385.90 2.614
386.00 2.612
386.10 2.609
386.20 2.607
386.30 2.604
386.40 2.6
386.50 2.597
386.60 2.593
386.70 2.589
386.80 2.585
386.90 2.58
387.00 2.575
387.10 2.569
387.20 2.563
387.30 2.557
387.40 2.551
387.50 2.544
387.60 2.536
387.70 2.528
387.80 2.52
387.90 2.511
388.00 2.502
388.10 2.491
388.20 2.481
388.30 2.47
388.40 2.458
388.50 2.446
388.60 2.433
388.70 2.421
388.80 2.412
388.90 2.405
389.00 2.407
389.10 2.411
389.20 2.419
389.30 2.427
389.40 2.435
389.50 2.443
389.60 2.45
389.70 2.456
389.80 2.462
389.90 2.467
390.00 2.471
390.10 2.475
390.20 2.479
390.30 2.482
390.40 2.485
390.50 2.487
390.60 2.489
390.70 2.491
390.80 2.493
390.90 2.494
391.00 2.494
391.10 2.495
391.20 2.495
391.30 2.495
391.40 2.495
391.50 2.495
391.60 2.494
391.70 2.493
391.80 2.493
391.90 2.491
392.00 2.49
392.10 2.489
392.20 2.487
392.30 2.486
392.40 2.484
392.50 2.482
392.60 2.48
392.70 2.478
392.80 2.476
392.90 2.474
393.00 2.471
393.10 2.469
393.20 2.466
393.30 2.463
393.40 2.461
393.50 2.458
393.60 2.454
393.70 2.451
393.80 2.448
393.90 2.444
394.00 2.44
394.10 2.437
394.20 2.432
394.30 2.428
394.40 2.424
394.50 2.419
394.60 2.414
394.70 2.408
394.80 2.403
394.90 2.397
395.00 2.391
395.10 2.384
395.20 2.377
395.30 2.369
395.40 2.361
395.50 2.353
395.60 2.343
395.70 2.333
395.80 2.323
395.90 2.312
396.00 2.3
396.10 2.287
396.20 2.273
396.30 2.258
396.40 2.243
396.50 2.226
396.60 2.208
396.70 2.19
396.80 2.169
396.90 2.148
397.00 2.128
397.10 2.142
397.20 2.158
397.30 2.175
397.40 2.19
397.50 2.204
397.60 2.217
397.70 2.228
397.80 2.239
397.90 2.249
398.00 2.257
398.10 2.265
398.20 2.272
398.30 2.278
398.40 2.283
398.50 2.288
398.60 2.293
398.70 2.296
398.80 2.3
398.90 2.302
399.00 2.305
399.10 2.307
399.20 2.308
399.30 2.31
399.40 2.311
399.50 2.311
399.60 2.312
399.70 2.312
399.80 2.312
399.90 2.312
400.00 2.312
400.10 2.311
400.20 2.311
400.30 2.31
400.40 2.309
400.50 2.308
400.60 2.307
400.70 2.306
400.80 2.305
400.90 2.304
401.00 2.302
401.10 2.301
401.20 2.299
401.30 2.298
401.40 2.296
401.50 2.295
401.60 2.293
401.70 2.291
401.80 2.29
401.90 2.288
402.00 2.286
402.10 2.284
402.20 2.282
402.30 2.28
402.40 2.279
402.50 2.277
402.60 2.275
402.70 2.273
402.80 2.271
402.90 2.269
403.00 2.267
403.10 2.265
403.20 2.263
403.30 2.261
403.40 2.259
403.50 2.256
403.60 2.254
403.70 2.252
403.80 2.25
403.90 2.248
404.00 2.246
404.10 2.244
404.20 2.241
404.30 2.239
404.40 2.237
404.50 2.235
404.60 2.232
404.70 2.23
404.80 2.228
404.90 2.225
405.00 2.223
405.10 2.221
405.20 2.218
405.30 2.216
405.40 2.213
405.50 2.211
405.60 2.208
405.70 2.206
405.80 2.203
405.90 2.2
406.00 2.198
406.10 2.195
406.20 2.192
406.30 2.189
406.40 2.186
406.50 2.183
406.60 2.18
406.70 2.177
406.80 2.174
406.90 2.17
407.00 2.167
407.10 2.163
407.20 2.159
407.30 2.155
407.40 2.151
407.50 2.147
407.60 2.142
407.70 2.137
407.80 2.132
407.90 2.127
408.00 2.121
408.10 2.115
408.20 2.108
408.30 2.101
408.40 2.094
408.50 2.086
408.60 2.077
408.70 2.068
408.80 2.058
408.90 2.047
409.00 2.036
409.10 2.023
409.20 2.01
409.30 1.996
409.40 1.98
409.50 1.962
409.60 1.944
409.70 1.924
409.80 1.901
409.90 1.876
410.00 1.846
410.10 1.825
410.20 1.814
410.30 1.833
410.40 1.854
410.50 1.879
410.60 1.899
410.70 1.917
410.80 1.933
410.90 1.947
411.00 1.959
411.10 1.971
411.20 1.981
411.30 1.99
411.40 1.998
411.50 2.005
411.60 2.012
411.70 2.017
411.80 2.022
411.90 2.027
412.00 2.03
412.10 2.033
412.20 2.036
412.30 2.039
412.40 2.04
412.50 2.042
412.60 2.043
412.70 2.044
412.80 2.045
412.90 2.045
413.00 2.046
413.10 2.046
413.20 2.046
413.30 2.045
413.40 2.045
413.50 2.045
413.60 2.044
413.70 2.043
413.80 2.042
413.90 2.042
414.00 2.041
414.10 2.04
414.20 2.038
414.30 2.037
414.40 2.036
414.50 2.035
414.60 2.034
414.70 2.032
414.80 2.031
414.90 2.029
415.00 2.028
415.10 2.027
415.20 2.025
415.30 2.024
415.40 2.022
415.50 2.021
415.60 2.019
415.70 2.017
415.80 2.016
415.90 2.014
416.00 2.013
416.10 2.011
416.20 2.009
416.30 2.008
416.40 2.006
416.50 2.004
416.60 2.003
416.70 2.001
416.80 1.999
416.90 1.998
417.00 1.996
417.10 1.994
417.20 1.993
417.30 1.991
417.40 1.989
417.50 1.987
417.60 1.986
417.70 1.984
417.80 1.982
417.90 1.981
418.00 1.979
418.10 1.977
418.20 1.975
418.30 1.974
418.40 1.972
418.50 1.97
418.60 1.969
418.70 1.967
418.80 1.965
418.90 1.963
419.00 1.962
419.10 1.96
419.20 1.958
419.30 1.956
419.40 1.955
419.50 1.953
419.60 1.951
419.70 1.949
419.80 1.948
419.90 1.946
420.00 1.944
420.10 1.942
420.20 1.941
420.30 1.939
420.40 1.937
420.50 1.936
420.60 1.934
420.70 1.932
420.80 1.93
420.90 1.929
421.00 1.927
421.10 1.925
421.20 1.923
421.30 1.922
421.40 1.92
421.50 1.918
421.60 1.916
421.70 1.915
421.80 1.913
421.90 1.911
422.00 1.91
422.10 1.908
422.20 1.906
422.30 1.904
422.40 1.903
422.50 1.901
422.60 1.899
422.70 1.898
422.80 1.896
422.90 1.894
423.00 1.892
423.10 1.891
423.20 1.889
423.30 1.887
423.40 1.886
423.50 1.884
423.60 1.882
423.70 1.88
423.80 1.879
423.90 1.877
424.00 1.875
424.10 1.874
424.20 1.872
424.30 1.87
424.40 1.869
424.50 1.867
424.60 1.865
424.70 1.863
424.80 1.862
424.90 1.86
425.00 1.858
425.10 1.857
425.20 1.855
425.30 1.853
425.40 1.851
425.50 1.85
425.60 1.848
425.70 1.846
425.80 1.845
425.90 1.843
426.00 1.841
426.10 1.84
426.20 1.838
426.30 1.836
426.40 1.834
426.50 1.833
426.60 1.831
426.70 1.829
426.80 1.828
426.90 1.826
427.00 1.824
427.10 1.822
427.20 1.821
427.30 1.819
427.40 1.817
427.50 1.815
427.60 1.814
427.70 1.812
427.80 1.81
427.90 1.808
428.00 1.807
428.10 1.805
428.20 1.803
428.30 1.801
428.40 1.799
428.50 1.798
428.60 1.796
428.70 1.794
428.80 1.792
428.90 1.79
429.00 1.788
429.10 1.786
429.20 1.784
429.30 1.782
429.40 1.78
429.50 1.778
429.60 1.776
429.70 1.774
429.80 1.772
429.90 1.77
430.00 1.768
430.10 1.766
430.20 1.763
430.30 1.761
430.40 1.759
430.50 1.756
430.60 1.754
430.70 1.751
430.80 1.749
430.90 1.746
431.00 1.743
431.10 1.74
431.20 1.737
431.30 1.734
431.40 1.73
431.50 1.727
431.60 1.723
431.70 1.719
431.80 1.714
431.90 1.71
432.00 1.705
432.10 1.699
432.20 1.694
432.30 1.687
432.40 1.681
432.50 1.673
432.60 1.666
432.70 1.657
432.80 1.648
432.90 1.638
433.00 1.627
433.10 1.615
433.20 1.601
433.30 1.587
433.40 1.571
433.50 1.553
433.60 1.534
433.70 1.511
433.80 1.483
433.90 1.449
434.00 1.415
434.10 1.415
434.20 1.449
434.30 1.478
434.40 1.504
434.50 1.524
434.60 1.54
434.70 1.555
434.80 1.568
434.90 1.579
435.00 1.59
435.10 1.599
435.20 1.607
435.30 1.614
435.40 1.62
435.50 1.626
435.60 1.63
435.70 1.635
435.80 1.638
435.90 1.641
436.00 1.644
436.10 1.646
436.20 1.648
436.30 1.649
436.40 1.651
436.50 1.652
436.60 1.652
436.70 1.653
436.80 1.653
436.90 1.654
437.00 1.653
437.10 1.653
437.20 1.653
437.30 1.653
437.40 1.652
437.50 1.652
437.60 1.651
437.70 1.651
437.80 1.65
437.90 1.649
438.00 1.649
438.10 1.648
438.20 1.647
438.30 1.646
438.40 1.645
438.50 1.644
438.60 1.643
438.70 1.642
438.80 1.641
438.90 1.64
439.00 1.639
439.10 1.637
439.20 1.636
439.30 1.635
439.40 1.634
439.50 1.633
439.60 1.631
439.70 1.63
439.80 1.629
439.90 1.628
440.00 1.627
440.10 1.625
440.20 1.624
440.30 1.623
440.40 1.621
440.50 1.62
440.60 1.619
440.70 1.618
440.80 1.616
440.90 1.615
441.00 1.614
441.10 1.612
441.20 1.611
441.30 1.61
441.40 1.609
441.50 1.607
441.60 1.606
441.70 1.605
441.80 1.603
441.90 1.602
442.00 1.601
442.10 1.599
442.20 1.598
442.30 1.597
442.40 1.595
442.50 1.594
442.60 1.593
442.70 1.591
442.80 1.59
442.90 1.589
443.00 1.587
443.10 1.586
443.20 1.585
443.30 1.583
443.40 1.582
443.50 1.581
443.60 1.579
443.70 1.578
443.80 1.577
443.90 1.575
444.00 1.574
444.10 1.573
444.20 1.571
444.30 1.57
444.40 1.569
444.50 1.567
444.60 1.566
444.70 1.565
444.80 1.563
444.90 1.562
445.00 1.561
445.10 1.56
445.20 1.558
445.30 1.557
445.40 1.556
445.50 1.554
445.60 1.553
445.70 1.552
445.80 1.55
445.90 1.549
446.00 1.548
446.10 1.546
446.20 1.545
446.30 1.544
446.40 1.542
446.50 1.541
446.60 1.54
446.70 1.539
446.80 1.537
446.90 1.536
447.00 1.535
447.10 1.533
447.20 1.532
447.30 1.531
447.40 1.529
447.50 1.528
447.60 1.527
447.70 1.526
447.80 1.524
447.90 1.523
448.00 1.522
448.10 1.52
448.20 1.519
448.30 1.518
448.40 1.517
448.50 1.515
448.60 1.514
448.70 1.513
448.80 1.511
448.90 1.51
449.00 1.509
449.10 1.508
449.20 1.506
449.30 1.505
449.40 1.504
449.50 1.502
449.60 1.501
449.70 1.5
449.80 1.499
449.90 1.497
450.00 1.496
450.10 1.495
450.20 1.494
450.30 1.492
450.40 1.491
450.50 1.49
450.60 1.489
450.70 1.487
450.80 1.486
450.90 1.485
451.00 1.484
451.10 1.482
451.20 1.481
451.30 1.48
451.40 1.479
451.50 1.477
451.60 1.476
451.70 1.475
451.80 1.474
451.90 1.472
452.00 1.471
452.10 1.47
452.20 1.469
452.30 1.467
452.40 1.466
452.50 1.465
452.60 1.464
452.70 1.462
452.80 1.461
452.90 1.46
453.00 1.459
453.10 1.458
453.20 1.456
453.30 1.455
453.40 1.454
453.50 1.453
453.60 1.451
453.70 1.45
453.80 1.449
453.90 1.448
454.00 1.447
454.10 1.445
454.20 1.444
