# Version 2.1 - nm, norm@500 to 1, cut digits, bergeron_30000_85.dat_30000
# Wavelength(nm)  Flambda(ergs/cm^s/s/nm)
300.00 5.056
300.10 5.05
300.20 5.044
300.30 5.039
300.40 5.033
300.50 5.027
300.60 5.021
300.70 5.016
300.80 5.01
300.90 5.004
301.00 4.999
301.10 4.993
301.20 4.987
301.30 4.982
301.40 4.976
301.50 4.97
301.60 4.965
301.70 4.959
301.80 4.954
301.90 4.948
302.00 4.942
302.10 4.937
302.20 4.931
302.30 4.926
302.40 4.92
302.50 4.914
302.60 4.909
302.70 4.903
302.80 4.898
302.90 4.892
303.00 4.887
303.10 4.881
303.20 4.876
303.30 4.87
303.40 4.865
303.50 4.859
303.60 4.854
303.70 4.848
303.80 4.843
303.90 4.837
304.00 4.832
304.10 4.826
304.20 4.821
304.30 4.816
304.40 4.81
304.50 4.805
304.60 4.799
304.70 4.794
304.80 4.789
304.90 4.783
305.00 4.778
305.10 4.773
305.20 4.767
305.30 4.762
305.40 4.757
305.50 4.751
305.60 4.746
305.70 4.741
305.80 4.735
305.90 4.73
306.00 4.725
306.10 4.719
306.20 4.714
306.30 4.709
306.40 4.704
306.50 4.698
306.60 4.693
306.70 4.688
306.80 4.683
306.90 4.677
307.00 4.672
307.10 4.667
307.20 4.662
307.30 4.657
307.40 4.651
307.50 4.646
307.60 4.641
307.70 4.636
307.80 4.631
307.90 4.626
308.00 4.62
308.10 4.615
308.20 4.61
308.30 4.605
308.40 4.6
308.50 4.595
308.60 4.59
308.70 4.585
308.80 4.58
308.90 4.574
309.00 4.569
309.10 4.564
309.20 4.559
309.30 4.554
309.40 4.549
309.50 4.544
309.60 4.539
309.70 4.534
309.80 4.529
309.90 4.524
310.00 4.519
310.10 4.514
310.20 4.509
310.30 4.504
310.40 4.499
310.50 4.494
310.60 4.489
310.70 4.484
310.80 4.479
310.90 4.474
311.00 4.469
311.10 4.465
311.20 4.46
311.30 4.455
311.40 4.45
311.50 4.445
311.60 4.44
311.70 4.435
311.80 4.43
311.90 4.425
312.00 4.421
312.10 4.416
312.20 4.411
312.30 4.406
312.40 4.401
312.50 4.396
312.60 4.391
312.70 4.387
312.80 4.382
312.90 4.377
313.00 4.372
313.10 4.367
313.20 4.363
313.30 4.358
313.40 4.353
313.50 4.348
313.60 4.344
313.70 4.339
313.80 4.334
313.90 4.329
314.00 4.325
314.10 4.32
314.20 4.315
314.30 4.31
314.40 4.306
314.50 4.301
314.60 4.296
314.70 4.292
314.80 4.287
314.90 4.282
315.00 4.278
315.10 4.273
315.20 4.268
315.30 4.264
315.40 4.259
315.50 4.254
315.60 4.25
315.70 4.245
315.80 4.241
315.90 4.236
316.00 4.231
316.10 4.227
316.20 4.222
316.30 4.218
316.40 4.213
316.50 4.209
316.60 4.204
316.70 4.199
316.80 4.195
316.90 4.19
317.00 4.186
317.10 4.181
317.20 4.177
317.30 4.172
317.40 4.168
317.50 4.163
317.60 4.159
317.70 4.154
317.80 4.15
317.90 4.145
318.00 4.141
318.10 4.136
318.20 4.132
318.30 4.127
318.40 4.123
318.50 4.118
318.60 4.114
318.70 4.11
318.80 4.105
318.90 4.101
319.00 4.096
319.10 4.092
319.20 4.088
319.30 4.083
319.40 4.079
319.50 4.074
319.60 4.07
319.70 4.066
319.80 4.061
319.90 4.057
320.00 4.052
320.10 4.048
320.20 4.044
320.30 4.039
320.40 4.035
320.50 4.031
320.60 4.026
320.70 4.022
320.80 4.018
320.90 4.014
321.00 4.009
321.10 4.005
321.20 4.001
321.30 3.996
321.40 3.992
321.50 3.988
321.60 3.984
321.70 3.979
321.80 3.975
321.90 3.971
322.00 3.967
322.10 3.962
322.20 3.958
322.30 3.954
322.40 3.95
322.50 3.946
322.60 3.941
322.70 3.937
322.80 3.933
322.90 3.929
323.00 3.925
323.10 3.92
323.20 3.916
323.30 3.912
323.40 3.908
323.50 3.904
323.60 3.9
323.70 3.895
323.80 3.891
323.90 3.887
324.00 3.883
324.10 3.879
324.20 3.875
324.30 3.871
324.40 3.867
324.50 3.862
324.60 3.858
324.70 3.854
324.80 3.85
324.90 3.846
325.00 3.842
325.10 3.838
325.20 3.834
325.30 3.83
325.40 3.826
325.50 3.822
325.60 3.818
325.70 3.814
325.80 3.81
325.90 3.806
326.00 3.802
326.10 3.798
326.20 3.794
326.30 3.79
326.40 3.786
326.50 3.782
326.60 3.778
326.70 3.774
326.80 3.77
326.90 3.766
327.00 3.762
327.10 3.758
327.20 3.754
327.30 3.75
327.40 3.746
327.50 3.742
327.60 3.738
327.70 3.734
327.80 3.73
327.90 3.726
328.00 3.722
328.10 3.719
328.20 3.715
328.30 3.711
328.40 3.707
328.50 3.703
328.60 3.699
328.70 3.695
328.80 3.691
328.90 3.687
329.00 3.684
329.10 3.68
329.20 3.676
329.30 3.672
329.40 3.668
329.50 3.664
329.60 3.661
329.70 3.657
329.80 3.653
329.90 3.649
330.00 3.645
330.10 3.642
330.20 3.638
330.30 3.634
330.40 3.63
330.50 3.626
330.60 3.623
330.70 3.619
330.80 3.615
330.90 3.611
331.00 3.608
331.10 3.604
331.20 3.6
331.30 3.596
331.40 3.593
331.50 3.589
331.60 3.585
331.70 3.581
331.80 3.578
331.90 3.574
332.00 3.57
332.10 3.566
332.20 3.563
332.30 3.559
332.40 3.555
332.50 3.552
332.60 3.548
332.70 3.544
332.80 3.541
332.90 3.537
333.00 3.533
333.10 3.53
333.20 3.526
333.30 3.522
333.40 3.519
333.50 3.515
333.60 3.512
333.70 3.508
333.80 3.504
333.90 3.501
334.00 3.497
334.10 3.493
334.20 3.49
334.30 3.486
334.40 3.483
334.50 3.479
334.60 3.475
334.70 3.472
334.80 3.468
334.90 3.465
335.00 3.461
335.10 3.458
335.20 3.454
335.30 3.451
335.40 3.447
335.50 3.443
335.60 3.44
335.70 3.436
335.80 3.433
335.90 3.429
336.00 3.426
336.10 3.422
336.20 3.419
336.30 3.415
336.40 3.412
336.50 3.408
336.60 3.405
336.70 3.401
336.80 3.398
336.90 3.394
337.00 3.391
337.10 3.387
337.20 3.384
337.30 3.38
337.40 3.377
337.50 3.374
337.60 3.37
337.70 3.367
337.80 3.363
337.90 3.36
338.00 3.356
338.10 3.353
338.20 3.349
338.30 3.346
338.40 3.343
338.50 3.339
338.60 3.336
338.70 3.332
338.80 3.329
338.90 3.326
339.00 3.322
339.10 3.319
339.20 3.316
339.30 3.312
339.40 3.309
339.50 3.305
339.60 3.302
339.70 3.299
339.80 3.295
339.90 3.292
340.00 3.289
340.10 3.285
340.20 3.282
340.30 3.279
340.40 3.275
340.50 3.272
340.60 3.269
340.70 3.265
340.80 3.262
340.90 3.259
341.00 3.255
341.10 3.252
341.20 3.249
341.30 3.246
341.40 3.242
341.50 3.239
341.60 3.236
341.70 3.232
341.80 3.229
341.90 3.226
342.00 3.223
342.10 3.219
342.20 3.216
342.30 3.213
342.40 3.21
342.50 3.206
342.60 3.203
342.70 3.2
342.80 3.197
342.90 3.194
343.00 3.19
343.10 3.187
343.20 3.184
343.30 3.181
343.40 3.177
343.50 3.174
343.60 3.171
343.70 3.168
343.80 3.165
343.90 3.162
344.00 3.158
344.10 3.155
344.20 3.152
344.30 3.149
344.40 3.146
344.50 3.143
344.60 3.139
344.70 3.136
344.80 3.133
344.90 3.13
345.00 3.127
345.10 3.124
345.20 3.121
345.30 3.117
345.40 3.114
345.50 3.111
345.60 3.108
345.70 3.105
345.80 3.102
345.90 3.099
346.00 3.096
346.10 3.093
346.20 3.089
346.30 3.086
346.40 3.083
346.50 3.08
346.60 3.077
346.70 3.074
346.80 3.071
346.90 3.068
347.00 3.065
347.10 3.062
347.20 3.059
347.30 3.056
347.40 3.053
347.50 3.05
347.60 3.047
347.70 3.044
347.80 3.041
347.90 3.038
348.00 3.035
348.10 3.032
348.20 3.029
348.30 3.025
348.40 3.022
348.50 3.02
348.60 3.017
348.70 3.014
348.80 3.011
348.90 3.008
349.00 3.005
349.10 3.002
349.20 2.999
349.30 2.996
349.40 2.993
349.50 2.99
349.60 2.987
349.70 2.984
349.80 2.981
349.90 2.978
350.00 2.975
350.10 2.972
350.20 2.969
350.30 2.966
350.40 2.963
350.50 2.96
350.60 2.957
350.70 2.954
350.80 2.952
350.90 2.949
351.00 2.946
351.10 2.943
351.20 2.94
351.30 2.937
351.40 2.934
351.50 2.931
351.60 2.928
351.70 2.925
351.80 2.923
351.90 2.92
352.00 2.917
352.10 2.914
352.20 2.911
352.30 2.908
352.40 2.905
352.50 2.903
352.60 2.9
352.70 2.897
352.80 2.894
352.90 2.891
353.00 2.888
353.10 2.885
353.20 2.883
353.30 2.88
353.40 2.877
353.50 2.874
353.60 2.871
353.70 2.869
353.80 2.866
353.90 2.863
354.00 2.86
354.10 2.857
354.20 2.855
354.30 2.852
354.40 2.849
354.50 2.846
354.60 2.843
354.70 2.841
354.80 2.838
354.90 2.835
355.00 2.832
355.10 2.83
355.20 2.827
355.30 2.824
355.40 2.821
355.50 2.818
355.60 2.816
355.70 2.813
355.80 2.81
355.90 2.808
356.00 2.805
356.10 2.802
356.20 2.799
356.30 2.797
356.40 2.794
356.50 2.791
356.60 2.788
356.70 2.786
356.80 2.783
356.90 2.78
357.00 2.778
357.10 2.775
357.20 2.772
357.30 2.77
357.40 2.767
357.50 2.764
357.60 2.762
357.70 2.759
357.80 2.756
357.90 2.753
358.00 2.751
358.10 2.748
358.20 2.745
358.30 2.743
358.40 2.74
358.50 2.738
358.60 2.735
358.70 2.732
358.80 2.73
358.90 2.727
359.00 2.724
359.10 2.722
359.20 2.719
359.30 2.716
359.40 2.714
359.50 2.711
359.60 2.709
359.70 2.706
359.80 2.703
359.90 2.701
360.00 2.698
360.10 2.696
360.20 2.693
360.30 2.69
360.40 2.688
360.50 2.685
360.60 2.683
360.70 2.68
360.80 2.677
360.90 2.675
361.00 2.672
361.10 2.67
361.20 2.667
361.30 2.665
361.40 2.662
361.50 2.66
361.60 2.657
361.70 2.654
361.80 2.652
361.90 2.649
362.00 2.647
362.10 2.644
362.20 2.642
362.30 2.639
362.40 2.637
362.50 2.634
362.60 2.632
362.70 2.629
362.80 2.627
362.90 2.624
363.00 2.622
363.10 2.619
363.20 2.617
363.30 2.614
363.40 2.612
363.50 2.609
363.60 2.607
363.70 2.604
363.80 2.602
363.90 2.599
364.00 2.597
364.10 2.594
364.20 2.592
364.30 2.589
364.40 2.587
364.50 2.584
364.60 2.582
364.70 2.579
364.80 2.577
364.90 2.574
365.00 2.572
365.10 2.57
365.20 2.567
365.30 2.565
365.40 2.562
365.50 2.56
365.60 2.557
365.70 2.555
365.80 2.552
365.90 2.55
366.00 2.548
366.10 2.545
366.20 2.542
366.30 2.54
366.40 2.537
366.50 2.535
366.60 2.532
366.70 2.529
366.80 2.527
366.90 2.524
367.00 2.522
367.10 2.519
367.20 2.516
367.30 2.514
367.40 2.511
367.50 2.509
367.60 2.506
367.70 2.503
367.80 2.501
367.90 2.498
368.00 2.496
368.10 2.493
368.20 2.491
368.30 2.488
368.40 2.485
368.50 2.483
368.60 2.48
368.70 2.477
368.80 2.475
368.90 2.472
369.00 2.47
369.10 2.467
369.20 2.465
369.30 2.462
369.40 2.459
369.50 2.457
369.60 2.454
369.70 2.452
369.80 2.449
369.90 2.446
370.00 2.444
370.10 2.441
370.20 2.439
370.30 2.436
370.40 2.434
370.50 2.431
370.60 2.429
370.70 2.426
370.80 2.424
370.90 2.421
371.00 2.419
371.10 2.416
371.20 2.414
371.30 2.412
371.40 2.409
371.50 2.407
371.60 2.404
371.70 2.402
371.80 2.399
371.90 2.397
372.00 2.394
372.10 2.392
372.20 2.39
372.30 2.387
372.40 2.385
372.50 2.383
372.60 2.38
372.70 2.378
372.80 2.376
372.90 2.374
373.00 2.371
373.10 2.369
373.20 2.367
373.30 2.364
373.40 2.362
373.50 2.36
373.60 2.357
373.70 2.355
373.80 2.353
373.90 2.351
374.00 2.348
374.10 2.346
374.20 2.344
374.30 2.342
374.40 2.339
374.50 2.337
374.60 2.335
374.70 2.333
374.80 2.33
374.90 2.328
375.00 2.326
375.10 2.324
375.20 2.322
375.30 2.319
375.40 2.317
375.50 2.315
375.60 2.313
375.70 2.31
375.80 2.308
375.90 2.306
376.00 2.304
376.10 2.302
376.20 2.3
376.30 2.297
376.40 2.295
376.50 2.293
376.60 2.291
376.70 2.289
376.80 2.287
376.90 2.285
377.00 2.282
377.10 2.281
377.20 2.279
377.30 2.277
377.40 2.275
377.50 2.273
377.60 2.272
377.70 2.27
377.80 2.268
377.90 2.266
378.00 2.264
378.10 2.262
378.20 2.26
378.30 2.258
378.40 2.257
378.50 2.255
378.60 2.253
378.70 2.251
378.80 2.249
378.90 2.247
379.00 2.245
379.10 2.243
379.20 2.241
379.30 2.239
379.40 2.237
379.50 2.235
379.60 2.234
379.70 2.232
379.80 2.23
379.90 2.228
380.00 2.226
380.10 2.225
380.20 2.224
380.30 2.222
380.40 2.221
380.50 2.22
380.60 2.219
380.70 2.217
380.80 2.216
380.90 2.215
381.00 2.214
381.10 2.212
381.20 2.211
381.30 2.209
381.40 2.207
381.50 2.206
381.60 2.204
381.70 2.202
381.80 2.2
381.90 2.198
382.00 2.196
382.10 2.193
382.20 2.191
382.30 2.188
382.40 2.186
382.50 2.183
382.60 2.18
382.70 2.178
382.80 2.175
382.90 2.172
383.00 2.17
383.10 2.167
383.20 2.164
383.30 2.162
383.40 2.159
383.50 2.157
383.60 2.156
383.70 2.156
383.80 2.156
383.90 2.156
384.00 2.156
384.10 2.157
384.20 2.157
384.30 2.157
384.40 2.157
384.50 2.157
384.60 2.157
384.70 2.157
384.80 2.157
384.90 2.157
385.00 2.156
385.10 2.156
385.20 2.155
385.30 2.154
385.40 2.153
385.50 2.152
385.60 2.151
385.70 2.149
385.80 2.147
385.90 2.146
386.00 2.144
386.10 2.141
386.20 2.139
386.30 2.136
386.40 2.134
386.50 2.131
386.60 2.128
386.70 2.125
386.80 2.121
386.90 2.118
387.00 2.114
387.10 2.11
387.20 2.106
387.30 2.101
387.40 2.097
387.50 2.092
387.60 2.087
387.70 2.083
387.80 2.077
387.90 2.072
388.00 2.067
388.10 2.062
388.20 2.056
388.30 2.051
388.40 2.046
388.50 2.041
388.60 2.036
388.70 2.032
388.80 2.028
388.90 2.026
389.00 2.026
389.10 2.028
389.20 2.03
389.30 2.033
389.40 2.036
389.50 2.039
389.60 2.042
389.70 2.046
389.80 2.049
389.90 2.053
390.00 2.056
390.10 2.059
390.20 2.062
390.30 2.065
390.40 2.068
390.50 2.07
390.60 2.073
390.70 2.075
390.80 2.077
390.90 2.078
391.00 2.08
391.10 2.081
391.20 2.083
391.30 2.084
391.40 2.084
391.50 2.085
391.60 2.085
391.70 2.085
391.80 2.085
391.90 2.085
392.00 2.084
392.10 2.083
392.20 2.082
392.30 2.081
392.40 2.08
392.50 2.078
392.60 2.076
392.70 2.074
392.80 2.071
392.90 2.069
393.00 2.066
393.10 2.063
393.20 2.059
393.30 2.056
393.40 2.052
393.50 2.048
393.60 2.043
393.70 2.039
393.80 2.034
393.90 2.029
394.00 2.023
394.10 2.017
394.20 2.011
394.30 2.005
394.40 1.998
394.50 1.992
394.60 1.984
394.70 1.977
394.80 1.969
394.90 1.961
395.00 1.953
395.10 1.944
395.20 1.935
395.30 1.926
395.40 1.917
395.50 1.907
395.60 1.897
395.70 1.886
395.80 1.876
395.90 1.865
396.00 1.853
396.10 1.842
396.20 1.83
396.30 1.818
396.40 1.806
396.50 1.794
396.60 1.782
396.70 1.77
396.80 1.758
396.90 1.747
397.00 1.737
397.10 1.744
397.20 1.753
397.30 1.762
397.40 1.772
397.50 1.782
397.60 1.792
397.70 1.802
397.80 1.812
397.90 1.821
398.00 1.831
398.10 1.84
398.20 1.849
398.30 1.857
398.40 1.865
398.50 1.874
398.60 1.881
398.70 1.889
398.80 1.896
398.90 1.903
399.00 1.91
399.10 1.917
399.20 1.923
399.30 1.929
399.40 1.935
399.50 1.94
399.60 1.945
399.70 1.95
399.80 1.955
399.90 1.959
400.00 1.964
400.10 1.968
400.20 1.971
400.30 1.975
400.40 1.978
400.50 1.982
400.60 1.985
400.70 1.987
400.80 1.99
400.90 1.992
401.00 1.994
401.10 1.996
401.20 1.998
401.30 2
401.40 2.001
401.50 2.002
401.60 2.003
401.70 2.004
401.80 2.005
401.90 2.006
402.00 2.006
402.10 2.006
402.20 2.006
402.30 2.006
402.40 2.006
402.50 2.005
402.60 2.005
402.70 2.004
402.80 2.003
402.90 2.002
403.00 2.001
403.10 1.999
403.20 1.998
403.30 1.996
403.40 1.994
403.50 1.992
403.60 1.99
403.70 1.987
403.80 1.985
403.90 1.982
404.00 1.979
404.10 1.976
404.20 1.973
404.30 1.97
404.40 1.966
404.50 1.962
404.60 1.959
404.70 1.954
404.80 1.95
404.90 1.946
405.00 1.941
405.10 1.936
405.20 1.931
405.30 1.926
405.40 1.921
405.50 1.915
405.60 1.909
405.70 1.903
405.80 1.897
405.90 1.891
406.00 1.884
406.10 1.877
406.20 1.87
406.30 1.863
406.40 1.855
406.50 1.847
406.60 1.839
406.70 1.831
406.80 1.822
406.90 1.813
407.00 1.804
407.10 1.795
407.20 1.785
407.30 1.775
407.40 1.765
407.50 1.754
407.60 1.743
407.70 1.732
407.80 1.721
407.90 1.709
408.00 1.697
408.10 1.684
408.20 1.671
408.30 1.658
408.40 1.645
408.50 1.63
408.60 1.616
408.70 1.601
408.80 1.586
408.90 1.571
409.00 1.555
409.10 1.538
409.20 1.522
409.30 1.504
409.40 1.487
409.50 1.469
409.60 1.451
409.70 1.433
409.80 1.415
409.90 1.398
410.00 1.386
410.10 1.379
410.20 1.379
410.30 1.38
410.40 1.387
410.50 1.4
410.60 1.416
410.70 1.432
410.80 1.447
410.90 1.463
411.00 1.478
411.10 1.494
411.20 1.508
411.30 1.522
411.40 1.536
411.50 1.549
411.60 1.562
411.70 1.574
411.80 1.586
411.90 1.598
412.00 1.609
412.10 1.62
412.20 1.63
412.30 1.64
412.40 1.65
412.50 1.659
412.60 1.668
412.70 1.677
412.80 1.685
412.90 1.693
413.00 1.701
413.10 1.708
413.20 1.715
413.30 1.722
413.40 1.729
413.50 1.735
413.60 1.742
413.70 1.747
413.80 1.753
413.90 1.759
414.00 1.764
414.10 1.769
414.20 1.774
414.30 1.778
414.40 1.783
414.50 1.787
414.60 1.791
414.70 1.795
414.80 1.798
414.90 1.802
415.00 1.805
415.10 1.808
415.20 1.811
415.30 1.814
415.40 1.817
415.50 1.82
415.60 1.822
415.70 1.824
415.80 1.827
415.90 1.829
416.00 1.831
416.10 1.833
416.20 1.834
416.30 1.836
416.40 1.837
416.50 1.839
416.60 1.84
416.70 1.841
416.80 1.842
416.90 1.843
417.00 1.844
417.10 1.845
417.20 1.846
417.30 1.847
417.40 1.847
417.50 1.848
417.60 1.848
417.70 1.849
417.80 1.849
417.90 1.849
418.00 1.849
418.10 1.849
418.20 1.849
418.30 1.85
418.40 1.849
418.50 1.849
418.60 1.849
418.70 1.849
418.80 1.849
418.90 1.848
419.00 1.848
419.10 1.847
419.20 1.847
419.30 1.846
419.40 1.846
419.50 1.845
419.60 1.845
419.70 1.844
419.80 1.843
419.90 1.842
420.00 1.842
420.10 1.841
420.20 1.84
420.30 1.839
420.40 1.838
420.50 1.837
420.60 1.836
420.70 1.835
420.80 1.834
420.90 1.833
421.00 1.831
421.10 1.83
421.20 1.829
421.30 1.828
421.40 1.826
421.50 1.825
421.60 1.824
421.70 1.822
421.80 1.821
421.90 1.819
422.00 1.818
422.10 1.816
422.20 1.815
422.30 1.813
422.40 1.812
422.50 1.81
422.60 1.808
422.70 1.807
422.80 1.805
422.90 1.803
423.00 1.801
423.10 1.799
423.20 1.798
423.30 1.796
423.40 1.794
423.50 1.792
423.60 1.79
423.70 1.788
423.80 1.786
423.90 1.784
424.00 1.782
424.10 1.779
424.20 1.777
424.30 1.775
424.40 1.773
424.50 1.77
424.60 1.768
424.70 1.765
424.80 1.763
424.90 1.761
425.00 1.758
425.10 1.755
425.20 1.753
425.30 1.75
425.40 1.747
425.50 1.745
425.60 1.742
425.70 1.739
425.80 1.736
425.90 1.733
426.00 1.73
426.10 1.727
426.20 1.723
426.30 1.72
426.40 1.717
426.50 1.714
426.60 1.71
426.70 1.707
426.80 1.703
426.90 1.699
427.00 1.695
427.10 1.692
427.20 1.688
427.30 1.684
427.40 1.679
427.50 1.675
427.60 1.671
427.70 1.667
427.80 1.662
427.90 1.657
428.00 1.653
428.10 1.648
428.20 1.643
428.30 1.638
428.40 1.633
428.50 1.627
428.60 1.622
428.70 1.617
428.80 1.611
428.90 1.605
429.00 1.599
429.10 1.593
429.20 1.587
429.30 1.58
429.40 1.574
429.50 1.567
429.60 1.561
429.70 1.554
429.80 1.546
429.90 1.539
430.00 1.532
430.10 1.524
430.20 1.516
430.30 1.508
430.40 1.5
430.50 1.492
430.60 1.483
430.70 1.474
430.80 1.465
430.90 1.456
431.00 1.447
431.10 1.437
431.20 1.427
431.30 1.417
431.40 1.406
431.50 1.396
431.60 1.385
431.70 1.373
431.80 1.362
431.90 1.35
432.00 1.338
432.10 1.325
432.20 1.312
432.30 1.299
432.40 1.285
432.50 1.271
432.60 1.257
432.70 1.242
432.80 1.226
432.90 1.211
433.00 1.194
433.10 1.177
433.20 1.159
433.30 1.141
433.40 1.122
433.50 1.103
433.60 1.082
433.70 1.062
433.80 1.04
433.90 1.018
434.00 0.9867
434.10 0.9867
434.20 1.017
434.30 1.038
434.40 1.058
434.50 1.077
434.60 1.096
434.70 1.113
434.80 1.131
434.90 1.147
435.00 1.163
435.10 1.178
435.20 1.192
435.30 1.206
435.40 1.22
435.50 1.232
435.60 1.245
435.70 1.257
435.80 1.268
435.90 1.279
436.00 1.29
436.10 1.3
436.20 1.31
436.30 1.319
436.40 1.329
436.50 1.337
436.60 1.346
436.70 1.354
436.80 1.362
436.90 1.37
437.00 1.377
437.10 1.385
437.20 1.392
437.30 1.398
437.40 1.405
437.50 1.411
437.60 1.417
437.70 1.423
437.80 1.428
437.90 1.434
438.00 1.439
438.10 1.444
438.20 1.449
438.30 1.453
438.40 1.458
438.50 1.462
438.60 1.466
438.70 1.47
438.80 1.474
438.90 1.477
439.00 1.481
439.10 1.484
439.20 1.487
439.30 1.49
439.40 1.493
439.50 1.496
439.60 1.499
439.70 1.501
439.80 1.504
439.90 1.506
440.00 1.508
440.10 1.51
440.20 1.512
440.30 1.514
440.40 1.516
440.50 1.517
440.60 1.519
440.70 1.52
440.80 1.522
440.90 1.523
441.00 1.524
441.10 1.525
441.20 1.526
441.30 1.527
441.40 1.528
441.50 1.529
441.60 1.53
441.70 1.53
441.80 1.531
441.90 1.532
442.00 1.532
442.10 1.533
442.20 1.533
442.30 1.533
442.40 1.534
442.50 1.534
442.60 1.534
442.70 1.534
442.80 1.534
442.90 1.534
443.00 1.534
443.10 1.534
443.20 1.534
443.30 1.534
443.40 1.534
443.50 1.534
443.60 1.534
443.70 1.533
443.80 1.533
443.90 1.533
444.00 1.532
444.10 1.532
444.20 1.532
444.30 1.531
444.40 1.531
444.50 1.53
444.60 1.53
444.70 1.529
444.80 1.529
444.90 1.528
445.00 1.528
445.10 1.527
445.20 1.527
445.30 1.526
445.40 1.525
445.50 1.525
445.60 1.524
445.70 1.523
445.80 1.523
445.90 1.522
446.00 1.521
446.10 1.52
446.20 1.52
446.30 1.519
446.40 1.518
446.50 1.517
446.60 1.517
446.70 1.516
446.80 1.515
446.90 1.514
447.00 1.513
447.10 1.512
447.20 1.512
447.30 1.511
447.40 1.51
447.50 1.509
447.60 1.508
447.70 1.507
447.80 1.506
447.90 1.505
448.00 1.504
448.10 1.503
448.20 1.502
448.30 1.502
448.40 1.501
448.50 1.5
448.60 1.499
448.70 1.498
448.80 1.497
448.90 1.496
449.00 1.495
449.10 1.494
449.20 1.493
449.30 1.492
449.40 1.491
449.50 1.49
449.60 1.489
449.70 1.488
449.80 1.487
449.90 1.486
450.00 1.485
450.10 1.484
450.20 1.483
450.30 1.482
450.40 1.481
450.50 1.48
450.60 1.478
450.70 1.477
450.80 1.476
450.90 1.475
451.00 1.474
451.10 1.473
451.20 1.472
451.30 1.471
451.40 1.47
451.50 1.469
451.60 1.468
451.70 1.467
451.80 1.466
451.90 1.465
452.00 1.464
452.10 1.463
452.20 1.461
452.30 1.46
452.40 1.459
452.50 1.458
452.60 1.457
452.70 1.456
452.80 1.455
452.90 1.454
453.00 1.453
453.10 1.452
453.20 1.451
453.30 1.449
453.40 1.448
453.50 1.447
453.60 1.446
453.70 1.445
453.80 1.444
453.90 1.443
454.00 1.442
