# Version 2.1 - nm, norm@500 to 1, cut digits, bergeron_75000_95.dat_75000
# Wavelength(nm)  Flambda(ergs/cm^s/s/nm)
300.00 6.673
300.10 6.664
300.20 6.656
300.30 6.648
300.40 6.64
300.50 6.631
300.60 6.623
300.70 6.615
300.80 6.607
300.90 6.599
301.00 6.59
301.10 6.582
301.20 6.574
301.30 6.566
301.40 6.558
301.50 6.55
301.60 6.542
301.70 6.534
301.80 6.526
301.90 6.518
302.00 6.509
302.10 6.501
302.20 6.493
302.30 6.485
302.40 6.477
302.50 6.469
302.60 6.462
302.70 6.454
302.80 6.446
302.90 6.438
303.00 6.43
303.10 6.422
303.20 6.414
303.30 6.406
303.40 6.398
303.50 6.39
303.60 6.383
303.70 6.375
303.80 6.367
303.90 6.359
304.00 6.351
304.10 6.344
304.20 6.336
304.30 6.328
304.40 6.32
304.50 6.313
304.60 6.305
304.70 6.297
304.80 6.289
304.90 6.282
305.00 6.274
305.10 6.266
305.20 6.259
305.30 6.251
305.40 6.243
305.50 6.236
305.60 6.228
305.70 6.221
305.80 6.213
305.90 6.206
306.00 6.198
306.10 6.19
306.20 6.183
306.30 6.175
306.40 6.168
306.50 6.16
306.60 6.153
306.70 6.145
306.80 6.138
306.90 6.13
307.00 6.123
307.10 6.116
307.20 6.108
307.30 6.101
307.40 6.093
307.50 6.086
307.60 6.079
307.70 6.071
307.80 6.064
307.90 6.057
308.00 6.049
308.10 6.042
308.20 6.035
308.30 6.027
308.40 6.02
308.50 6.013
308.60 6.005
308.70 5.998
308.80 5.991
308.90 5.984
309.00 5.977
309.10 5.969
309.20 5.962
309.30 5.955
309.40 5.948
309.50 5.941
309.60 5.933
309.70 5.926
309.80 5.919
309.90 5.912
310.00 5.905
310.10 5.898
310.20 5.891
310.30 5.884
310.40 5.877
310.50 5.87
310.60 5.862
310.70 5.855
310.80 5.848
310.90 5.841
311.00 5.834
311.10 5.827
311.20 5.82
311.30 5.813
311.40 5.806
311.50 5.8
311.60 5.793
311.70 5.786
311.80 5.779
311.90 5.772
312.00 5.765
312.10 5.758
312.20 5.751
312.30 5.744
312.40 5.737
312.50 5.731
312.60 5.724
312.70 5.717
312.80 5.71
312.90 5.703
313.00 5.696
313.10 5.69
313.20 5.683
313.30 5.676
313.40 5.669
313.50 5.663
313.60 5.656
313.70 5.649
313.80 5.642
313.90 5.636
314.00 5.629
314.10 5.622
314.20 5.616
314.30 5.609
314.40 5.602
314.50 5.596
314.60 5.589
314.70 5.582
314.80 5.576
314.90 5.569
315.00 5.563
315.10 5.556
315.20 5.549
315.30 5.543
315.40 5.536
315.50 5.53
315.60 5.523
315.70 5.517
315.80 5.51
315.90 5.504
316.00 5.497
316.10 5.491
316.20 5.484
316.30 5.478
316.40 5.471
316.50 5.465
316.60 5.458
316.70 5.452
316.80 5.445
316.90 5.439
317.00 5.433
317.10 5.426
317.20 5.42
317.30 5.414
317.40 5.407
317.50 5.401
317.60 5.394
317.70 5.388
317.80 5.382
317.90 5.375
318.00 5.369
318.10 5.363
318.20 5.357
318.30 5.35
318.40 5.344
318.50 5.338
318.60 5.331
318.70 5.325
318.80 5.319
318.90 5.313
319.00 5.306
319.10 5.3
319.20 5.294
319.30 5.288
319.40 5.282
319.50 5.276
319.60 5.269
319.70 5.263
319.80 5.257
319.90 5.251
320.00 5.245
320.10 5.239
320.20 5.233
320.30 5.226
320.40 5.22
320.50 5.214
320.60 5.208
320.70 5.202
320.80 5.196
320.90 5.19
321.00 5.184
321.10 5.178
321.20 5.172
321.30 5.166
321.40 5.16
321.50 5.154
321.60 5.148
321.70 5.142
321.80 5.136
321.90 5.13
322.00 5.124
322.10 5.118
322.20 5.112
322.30 5.106
322.40 5.1
322.50 5.094
322.60 5.089
322.70 5.083
322.80 5.077
322.90 5.071
323.00 5.065
323.10 5.059
323.20 5.053
323.30 5.047
323.40 5.042
323.50 5.036
323.60 5.03
323.70 5.024
323.80 5.018
323.90 5.013
324.00 5.007
324.10 5.001
324.20 4.995
324.30 4.99
324.40 4.984
324.50 4.978
324.60 4.972
324.70 4.967
324.80 4.961
324.90 4.955
325.00 4.949
325.10 4.944
325.20 4.938
325.30 4.932
325.40 4.927
325.50 4.921
325.60 4.915
325.70 4.91
325.80 4.904
325.90 4.899
326.00 4.893
326.10 4.887
326.20 4.882
326.30 4.876
326.40 4.871
326.50 4.865
326.60 4.859
326.70 4.854
326.80 4.848
326.90 4.843
327.00 4.837
327.10 4.832
327.20 4.826
327.30 4.821
327.40 4.815
327.50 4.81
327.60 4.804
327.70 4.799
327.80 4.793
327.90 4.788
328.00 4.782
328.10 4.777
328.20 4.771
328.30 4.766
328.40 4.76
328.50 4.755
328.60 4.75
328.70 4.744
328.80 4.739
328.90 4.733
329.00 4.728
329.10 4.723
329.20 4.717
329.30 4.712
329.40 4.707
329.50 4.701
329.60 4.696
329.70 4.691
329.80 4.685
329.90 4.68
330.00 4.675
330.10 4.669
330.20 4.664
330.30 4.659
330.40 4.654
330.50 4.648
330.60 4.643
330.70 4.638
330.80 4.633
330.90 4.627
331.00 4.622
331.10 4.617
331.20 4.612
331.30 4.606
331.40 4.601
331.50 4.596
331.60 4.591
331.70 4.586
331.80 4.58
331.90 4.575
332.00 4.57
332.10 4.565
332.20 4.56
332.30 4.555
332.40 4.55
332.50 4.545
332.60 4.539
332.70 4.534
332.80 4.529
332.90 4.524
333.00 4.519
333.10 4.514
333.20 4.509
333.30 4.504
333.40 4.499
333.50 4.494
333.60 4.489
333.70 4.484
333.80 4.479
333.90 4.474
334.00 4.468
334.10 4.464
334.20 4.459
334.30 4.454
334.40 4.449
334.50 4.444
334.60 4.439
334.70 4.434
334.80 4.429
334.90 4.424
335.00 4.419
335.10 4.414
335.20 4.409
335.30 4.404
335.40 4.399
335.50 4.394
335.60 4.389
335.70 4.384
335.80 4.379
335.90 4.375
336.00 4.37
336.10 4.365
336.20 4.36
336.30 4.355
336.40 4.35
336.50 4.345
336.60 4.341
336.70 4.336
336.80 4.331
336.90 4.326
337.00 4.321
337.10 4.317
337.20 4.312
337.30 4.307
337.40 4.302
337.50 4.297
337.60 4.293
337.70 4.288
337.80 4.283
337.90 4.278
338.00 4.274
338.10 4.269
338.20 4.264
338.30 4.259
338.40 4.255
338.50 4.25
338.60 4.245
338.70 4.241
338.80 4.236
338.90 4.231
339.00 4.227
339.10 4.222
339.20 4.217
339.30 4.213
339.40 4.208
339.50 4.203
339.60 4.199
339.70 4.194
339.80 4.189
339.90 4.185
340.00 4.18
340.10 4.176
340.20 4.171
340.30 4.166
340.40 4.162
340.50 4.157
340.60 4.153
340.70 4.148
340.80 4.144
340.90 4.139
341.00 4.134
341.10 4.13
341.20 4.125
341.30 4.121
341.40 4.116
341.50 4.112
341.60 4.107
341.70 4.103
341.80 4.098
341.90 4.094
342.00 4.089
342.10 4.085
342.20 4.08
342.30 4.076
342.40 4.071
342.50 4.067
342.60 4.063
342.70 4.058
342.80 4.054
342.90 4.049
343.00 4.045
343.10 4.04
343.20 4.036
343.30 4.032
343.40 4.027
343.50 4.023
343.60 4.018
343.70 4.014
343.80 4.01
343.90 4.005
344.00 4.001
344.10 3.996
344.20 3.992
344.30 3.988
344.40 3.983
344.50 3.979
344.60 3.975
344.70 3.97
344.80 3.966
344.90 3.962
345.00 3.958
345.10 3.953
345.20 3.949
345.30 3.945
345.40 3.94
345.50 3.936
345.60 3.932
345.70 3.928
345.80 3.923
345.90 3.919
346.00 3.915
346.10 3.911
346.20 3.906
346.30 3.902
346.40 3.898
346.50 3.894
346.60 3.889
346.70 3.885
346.80 3.881
346.90 3.877
347.00 3.873
347.10 3.868
347.20 3.864
347.30 3.86
347.40 3.856
347.50 3.852
347.60 3.848
347.70 3.843
347.80 3.839
347.90 3.835
348.00 3.831
348.10 3.827
348.20 3.823
348.30 3.819
348.40 3.815
348.50 3.81
348.60 3.806
348.70 3.802
348.80 3.798
348.90 3.794
349.00 3.79
349.10 3.786
349.20 3.782
349.30 3.778
349.40 3.774
349.50 3.77
349.60 3.766
349.70 3.762
349.80 3.758
349.90 3.754
350.00 3.75
350.10 3.745
350.20 3.741
350.30 3.737
350.40 3.734
350.50 3.73
350.60 3.726
350.70 3.722
350.80 3.718
350.90 3.714
351.00 3.71
351.10 3.706
351.20 3.702
351.30 3.698
351.40 3.694
351.50 3.69
351.60 3.686
351.70 3.682
351.80 3.678
351.90 3.674
352.00 3.67
352.10 3.666
352.20 3.662
352.30 3.658
352.40 3.655
352.50 3.651
352.60 3.647
352.70 3.643
352.80 3.639
352.90 3.635
353.00 3.631
353.10 3.627
353.20 3.624
353.30 3.62
353.40 3.616
353.50 3.612
353.60 3.608
353.70 3.604
353.80 3.601
353.90 3.597
354.00 3.593
354.10 3.589
354.20 3.585
354.30 3.582
354.40 3.578
354.50 3.574
354.60 3.57
354.70 3.566
354.80 3.563
354.90 3.559
355.00 3.555
355.10 3.551
355.20 3.548
355.30 3.544
355.40 3.54
355.50 3.536
355.60 3.533
355.70 3.529
355.80 3.525
355.90 3.521
356.00 3.518
356.10 3.514
356.20 3.51
356.30 3.507
356.40 3.503
356.50 3.499
356.60 3.496
356.70 3.492
356.80 3.488
356.90 3.485
357.00 3.481
357.10 3.477
357.20 3.474
357.30 3.47
357.40 3.466
357.50 3.463
357.60 3.459
357.70 3.455
357.80 3.452
357.90 3.448
358.00 3.444
358.10 3.441
358.20 3.437
358.30 3.434
358.40 3.43
358.50 3.426
358.60 3.423
358.70 3.419
358.80 3.416
358.90 3.412
359.00 3.409
359.10 3.405
359.20 3.401
359.30 3.398
359.40 3.394
359.50 3.391
359.60 3.387
359.70 3.384
359.80 3.38
359.90 3.377
360.00 3.373
360.10 3.37
360.20 3.366
360.30 3.363
360.40 3.359
360.50 3.356
360.60 3.352
360.70 3.349
360.80 3.345
360.90 3.342
361.00 3.338
361.10 3.335
361.20 3.331
361.30 3.328
361.40 3.324
361.50 3.321
361.60 3.317
361.70 3.314
361.80 3.31
361.90 3.307
362.00 3.304
362.10 3.3
362.20 3.297
362.30 3.293
362.40 3.29
362.50 3.286
362.60 3.283
362.70 3.28
362.80 3.276
362.90 3.273
363.00 3.269
363.10 3.266
363.20 3.263
363.30 3.259
363.40 3.256
363.50 3.253
363.60 3.249
363.70 3.246
363.80 3.243
363.90 3.239
364.00 3.236
364.10 3.232
364.20 3.229
364.30 3.226
364.40 3.222
364.50 3.219
364.60 3.216
364.70 3.213
364.80 3.209
364.90 3.206
365.00 3.203
365.10 3.199
365.20 3.196
365.30 3.193
365.40 3.189
365.50 3.186
365.60 3.183
365.70 3.18
365.80 3.176
365.90 3.173
366.00 3.17
366.10 3.167
366.20 3.163
366.30 3.16
366.40 3.157
366.50 3.154
366.60 3.15
366.70 3.147
366.80 3.144
366.90 3.141
367.00 3.137
367.10 3.134
367.20 3.131
367.30 3.128
367.40 3.124
367.50 3.121
367.60 3.118
367.70 3.115
367.80 3.112
367.90 3.108
368.00 3.105
368.10 3.102
368.20 3.099
368.30 3.095
368.40 3.092
368.50 3.089
368.60 3.086
368.70 3.083
368.80 3.079
368.90 3.076
369.00 3.073
369.10 3.07
369.20 3.066
369.30 3.063
369.40 3.06
369.50 3.057
369.60 3.054
369.70 3.05
369.80 3.047
369.90 3.044
370.00 3.041
370.10 3.038
370.20 3.034
370.30 3.031
370.40 3.028
370.50 3.025
370.60 3.022
370.70 3.018
370.80 3.015
370.90 3.012
371.00 3.009
371.10 3.006
371.20 3.003
371.30 2.999
371.40 2.996
371.50 2.993
371.60 2.99
371.70 2.987
371.80 2.984
371.90 2.981
372.00 2.977
372.10 2.975
372.20 2.972
372.30 2.969
372.40 2.966
372.50 2.963
372.60 2.96
372.70 2.957
372.80 2.954
372.90 2.951
373.00 2.948
373.10 2.945
373.20 2.942
373.30 2.939
373.40 2.937
373.50 2.934
373.60 2.931
373.70 2.928
373.80 2.925
373.90 2.922
374.00 2.919
374.10 2.916
374.20 2.913
374.30 2.91
374.40 2.907
374.50 2.904
374.60 2.901
374.70 2.898
374.80 2.895
374.90 2.892
375.00 2.889
375.10 2.886
375.20 2.883
375.30 2.88
375.40 2.877
375.50 2.874
375.60 2.871
375.70 2.868
375.80 2.865
375.90 2.862
376.00 2.859
376.10 2.856
376.20 2.853
376.30 2.85
376.40 2.847
376.50 2.844
376.60 2.841
376.70 2.839
376.80 2.836
376.90 2.833
377.00 2.83
377.10 2.827
377.20 2.824
377.30 2.821
377.40 2.818
377.50 2.815
377.60 2.813
377.70 2.81
377.80 2.807
377.90 2.804
378.00 2.801
378.10 2.798
378.20 2.796
378.30 2.793
378.40 2.79
378.50 2.787
378.60 2.784
378.70 2.782
378.80 2.779
378.90 2.776
379.00 2.773
379.10 2.77
379.20 2.768
379.30 2.765
379.40 2.762
379.50 2.759
379.60 2.756
379.70 2.754
379.80 2.751
379.90 2.748
380.00 2.745
380.10 2.742
380.20 2.74
380.30 2.737
380.40 2.734
380.50 2.732
380.60 2.729
380.70 2.726
380.80 2.723
380.90 2.721
381.00 2.718
381.10 2.715
381.20 2.713
381.30 2.71
381.40 2.707
381.50 2.704
381.60 2.702
381.70 2.699
381.80 2.696
381.90 2.694
382.00 2.691
382.10 2.688
382.20 2.686
382.30 2.683
382.40 2.68
382.50 2.678
382.60 2.675
382.70 2.672
382.80 2.67
382.90 2.667
383.00 2.665
383.10 2.662
383.20 2.659
383.30 2.657
383.40 2.654
383.50 2.651
383.60 2.649
383.70 2.646
383.80 2.644
383.90 2.641
384.00 2.639
384.10 2.636
384.20 2.633
384.30 2.631
384.40 2.628
384.50 2.626
384.60 2.623
384.70 2.621
384.80 2.618
384.90 2.615
385.00 2.613
385.10 2.61
385.20 2.608
385.30 2.605
385.40 2.603
385.50 2.6
385.60 2.598
385.70 2.595
385.80 2.593
385.90 2.59
386.00 2.588
386.10 2.585
386.20 2.583
386.30 2.58
386.40 2.578
386.50 2.575
386.60 2.573
386.70 2.57
386.80 2.568
386.90 2.565
387.00 2.563
387.10 2.56
387.20 2.558
387.30 2.556
387.40 2.553
387.50 2.551
387.60 2.548
387.70 2.546
387.80 2.543
387.90 2.541
388.00 2.538
388.10 2.536
388.20 2.534
388.30 2.531
388.40 2.529
388.50 2.526
388.60 2.524
388.70 2.522
388.80 2.519
388.90 2.517
389.00 2.515
389.10 2.512
389.20 2.51
389.30 2.508
389.40 2.505
389.50 2.503
389.60 2.501
389.70 2.498
389.80 2.496
389.90 2.494
390.00 2.491
390.10 2.489
390.20 2.487
390.30 2.484
390.40 2.482
390.50 2.48
390.60 2.477
390.70 2.475
390.80 2.473
390.90 2.471
391.00 2.468
391.10 2.466
391.20 2.464
391.30 2.461
391.40 2.459
391.50 2.457
391.60 2.455
391.70 2.452
391.80 2.45
391.90 2.448
392.00 2.446
392.10 2.443
392.20 2.441
392.30 2.439
392.40 2.436
392.50 2.434
392.60 2.432
392.70 2.43
392.80 2.427
392.90 2.425
393.00 2.423
393.10 2.42
393.20 2.418
393.30 2.416
393.40 2.413
393.50 2.411
393.60 2.409
393.70 2.407
393.80 2.404
393.90 2.402
394.00 2.4
394.10 2.397
394.20 2.395
394.30 2.393
394.40 2.39
394.50 2.388
394.60 2.386
394.70 2.384
394.80 2.381
394.90 2.379
395.00 2.377
395.10 2.374
395.20 2.372
395.30 2.37
395.40 2.367
395.50 2.365
395.60 2.363
395.70 2.36
395.80 2.358
395.90 2.356
396.00 2.354
396.10 2.351
396.20 2.349
396.30 2.347
396.40 2.345
396.50 2.342
396.60 2.34
396.70 2.338
396.80 2.336
396.90 2.334
397.00 2.331
397.10 2.329
397.20 2.328
397.30 2.326
397.40 2.324
397.50 2.322
397.60 2.32
397.70 2.318
397.80 2.316
397.90 2.314
398.00 2.312
398.10 2.31
398.20 2.309
398.30 2.307
398.40 2.305
398.50 2.303
398.60 2.301
398.70 2.299
398.80 2.298
398.90 2.296
399.00 2.294
399.10 2.292
399.20 2.29
399.30 2.288
399.40 2.286
399.50 2.284
399.60 2.283
399.70 2.281
399.80 2.279
399.90 2.277
400.00 2.275
400.10 2.273
400.20 2.271
400.30 2.269
400.40 2.267
400.50 2.265
400.60 2.264
400.70 2.262
400.80 2.26
400.90 2.258
401.00 2.256
401.10 2.254
401.20 2.252
401.30 2.25
401.40 2.248
401.50 2.246
401.60 2.244
401.70 2.242
401.80 2.24
401.90 2.238
402.00 2.236
402.10 2.234
402.20 2.231
402.30 2.229
402.40 2.227
402.50 2.225
402.60 2.223
402.70 2.221
402.80 2.219
402.90 2.217
403.00 2.215
403.10 2.212
403.20 2.21
403.30 2.208
403.40 2.206
403.50 2.204
403.60 2.202
403.70 2.199
403.80 2.197
403.90 2.195
404.00 2.193
404.10 2.19
404.20 2.188
404.30 2.186
404.40 2.184
404.50 2.181
404.60 2.179
404.70 2.177
404.80 2.174
404.90 2.172
405.00 2.17
405.10 2.167
405.20 2.165
405.30 2.163
405.40 2.16
405.50 2.158
405.60 2.155
405.70 2.153
405.80 2.151
405.90 2.148
406.00 2.146
406.10 2.143
406.20 2.141
406.30 2.138
406.40 2.136
406.50 2.133
406.60 2.131
406.70 2.128
406.80 2.126
406.90 2.123
407.00 2.121
407.10 2.118
407.20 2.115
407.30 2.113
407.40 2.11
407.50 2.108
407.60 2.105
407.70 2.103
407.80 2.1
407.90 2.098
408.00 2.095
408.10 2.092
408.20 2.09
408.30 2.087
408.40 2.085
408.50 2.082
408.60 2.08
408.70 2.077
408.80 2.075
408.90 2.072
409.00 2.07
409.10 2.068
409.20 2.065
409.30 2.063
409.40 2.061
409.50 2.059
409.60 2.057
409.70 2.055
409.80 2.053
409.90 2.052
410.00 2.05
410.10 2.049
410.20 2.047
410.30 2.045
410.40 2.043
410.50 2.041
410.60 2.039
410.70 2.038
410.80 2.036
410.90 2.035
411.00 2.033
411.10 2.032
411.20 2.031
411.30 2.03
411.40 2.029
411.50 2.028
411.60 2.027
411.70 2.026
411.80 2.025
411.90 2.024
412.00 2.023
412.10 2.022
412.20 2.021
412.30 2.02
412.40 2.019
412.50 2.018
412.60 2.017
412.70 2.016
412.80 2.015
412.90 2.014
413.00 2.013
413.10 2.012
413.20 2.011
413.30 2.01
413.40 2.009
413.50 2.008
413.60 2.007
413.70 2.006
413.80 2.005
413.90 2.004
414.00 2.003
414.10 2.002
414.20 2.001
414.30 2
414.40 1.999
414.50 1.998
414.60 1.997
414.70 1.996
414.80 1.995
414.90 1.993
415.00 1.992
415.10 1.991
415.20 1.99
415.30 1.989
415.40 1.988
415.50 1.986
415.60 1.985
415.70 1.984
415.80 1.983
415.90 1.981
416.00 1.98
416.10 1.979
416.20 1.978
416.30 1.976
416.40 1.975
416.50 1.974
416.60 1.972
416.70 1.971
416.80 1.97
416.90 1.968
417.00 1.967
417.10 1.966
417.20 1.964
417.30 1.963
417.40 1.962
417.50 1.96
417.60 1.959
417.70 1.957
417.80 1.956
417.90 1.954
418.00 1.953
418.10 1.952
418.20 1.95
418.30 1.949
418.40 1.947
418.50 1.946
418.60 1.944
418.70 1.943
418.80 1.941
418.90 1.94
419.00 1.938
419.10 1.936
419.20 1.935
419.30 1.933
419.40 1.932
419.50 1.93
419.60 1.929
419.70 1.927
419.80 1.925
419.90 1.924
420.00 1.922
420.10 1.92
420.20 1.919
420.30 1.917
420.40 1.916
420.50 1.914
420.60 1.912
420.70 1.91
420.80 1.909
420.90 1.907
421.00 1.905
421.10 1.904
421.20 1.902
421.30 1.9
421.40 1.898
421.50 1.897
421.60 1.895
421.70 1.893
421.80 1.891
421.90 1.89
422.00 1.888
422.10 1.886
422.20 1.884
422.30 1.882
422.40 1.881
422.50 1.879
422.60 1.877
422.70 1.875
422.80 1.873
422.90 1.871
423.00 1.869
423.10 1.868
423.20 1.866
423.30 1.864
423.40 1.862
423.50 1.86
423.60 1.858
423.70 1.856
423.80 1.854
423.90 1.852
424.00 1.85
424.10 1.848
424.20 1.846
424.30 1.844
424.40 1.842
424.50 1.84
424.60 1.838
424.70 1.836
424.80 1.834
424.90 1.832
425.00 1.83
425.10 1.828
425.20 1.825
425.30 1.823
425.40 1.821
425.50 1.819
425.60 1.817
425.70 1.815
425.80 1.812
425.90 1.81
426.00 1.808
426.10 1.806
426.20 1.803
426.30 1.801
426.40 1.799
426.50 1.797
426.60 1.794
426.70 1.792
426.80 1.79
426.90 1.787
427.00 1.785
427.10 1.783
427.20 1.78
427.30 1.778
427.40 1.775
427.50 1.773
427.60 1.77
427.70 1.768
427.80 1.765
427.90 1.763
428.00 1.76
428.10 1.758
428.20 1.755
428.30 1.752
428.40 1.75
428.50 1.747
428.60 1.744
428.70 1.742
428.80 1.739
428.90 1.736
429.00 1.734
429.10 1.731
429.20 1.728
429.30 1.725
429.40 1.722
429.50 1.72
429.60 1.717
429.70 1.714
429.80 1.711
429.90 1.708
430.00 1.705
430.10 1.702
430.20 1.699
430.30 1.696
430.40 1.693
430.50 1.69
430.60 1.687
430.70 1.684
430.80 1.681
430.90 1.678
431.00 1.674
431.10 1.671
431.20 1.668
431.30 1.665
431.40 1.662
431.50 1.658
431.60 1.655
431.70 1.652
431.80 1.649
431.90 1.645
432.00 1.642
432.10 1.639
432.20 1.635
432.30 1.632
432.40 1.629
432.50 1.625
432.60 1.622
432.70 1.618
432.80 1.615
432.90 1.611
433.00 1.608
433.10 1.604
433.20 1.6
433.30 1.597
433.40 1.593
433.50 1.589
433.60 1.584
433.70 1.58
433.80 1.575
433.90 1.57
434.00 1.567
434.10 1.566
434.20 1.568
434.30 1.57
434.40 1.572
434.50 1.574
434.60 1.575
434.70 1.577
434.80 1.578
434.90 1.579
435.00 1.58
435.10 1.581
435.20 1.582
435.30 1.583
435.40 1.584
435.50 1.585
435.60 1.585
435.70 1.586
435.80 1.587
435.90 1.587
436.00 1.588
436.10 1.589
436.20 1.589
436.30 1.59
436.40 1.59
436.50 1.591
436.60 1.591
436.70 1.592
436.80 1.592
436.90 1.593
437.00 1.593
437.10 1.593
437.20 1.594
437.30 1.594
437.40 1.594
437.50 1.595
437.60 1.595
437.70 1.595
437.80 1.595
437.90 1.595
438.00 1.596
438.10 1.596
438.20 1.596
438.30 1.596
438.40 1.596
438.50 1.596
438.60 1.596
438.70 1.596
438.80 1.596
438.90 1.596
439.00 1.596
439.10 1.595
439.20 1.595
439.30 1.595
439.40 1.595
439.50 1.595
439.60 1.595
439.70 1.594
439.80 1.594
439.90 1.594
440.00 1.593
440.10 1.593
440.20 1.593
440.30 1.592
440.40 1.592
440.50 1.592
440.60 1.591
440.70 1.591
440.80 1.59
440.90 1.59
441.00 1.589
441.10 1.589
441.20 1.588
441.30 1.588
441.40 1.587
441.50 1.586
441.60 1.586
441.70 1.585
441.80 1.585
441.90 1.584
442.00 1.583
442.10 1.583
442.20 1.582
442.30 1.581
442.40 1.58
442.50 1.58
442.60 1.579
442.70 1.578
442.80 1.577
442.90 1.577
443.00 1.576
443.10 1.575
443.20 1.574
443.30 1.573
443.40 1.573
443.50 1.572
443.60 1.571
443.70 1.57
443.80 1.569
443.90 1.568
444.00 1.567
444.10 1.566
444.20 1.566
444.30 1.565
444.40 1.564
444.50 1.563
444.60 1.562
444.70 1.561
444.80 1.56
444.90 1.559
445.00 1.558
445.10 1.557
445.20 1.556
445.30 1.555
445.40 1.554
445.50 1.553
445.60 1.552
445.70 1.551
445.80 1.55
445.90 1.549
446.00 1.548
446.10 1.547
446.20 1.546
446.30 1.545
446.40 1.544
446.50 1.543
446.60 1.542
446.70 1.541
446.80 1.539
446.90 1.538
447.00 1.537
447.10 1.536
447.20 1.535
447.30 1.534
447.40 1.533
447.50 1.532
447.60 1.531
447.70 1.53
447.80 1.529
447.90 1.527
448.00 1.526
448.10 1.525
448.20 1.524
448.30 1.523
448.40 1.522
448.50 1.521
448.60 1.52
448.70 1.518
448.80 1.517
448.90 1.516
449.00 1.515
449.10 1.514
449.20 1.513
449.30 1.512
449.40 1.51
449.50 1.509
449.60 1.508
449.70 1.507
449.80 1.506
449.90 1.505
450.00 1.504
450.10 1.502
450.20 1.501
450.30 1.5
450.40 1.499
450.50 1.498
450.60 1.497
450.70 1.495
450.80 1.494
450.90 1.493
451.00 1.492
451.10 1.491
451.20 1.49
451.30 1.488
451.40 1.487
451.50 1.486
451.60 1.485
451.70 1.484
451.80 1.483
451.90 1.481
452.00 1.48
452.10 1.479
452.20 1.478
452.30 1.477
452.40 1.475
452.50 1.474
452.60 1.473
452.70 1.472
452.80 1.471
452.90 1.469
453.00 1.468
453.10 1.467
453.20 1.466
453.30 1.465
453.40 1.464
453.50 1.462
453.60 1.461
453.70 1.46
453.80 1.459
453.90 1.458
454.00 1.456
454.10 1.455
454.20 1.454
