# Version 2.1 - nm, norm@500 to 1, cut digits, bergeron_13500_85.dat_13500
# Wavelength(nm)  Flambda(ergs/cm^s/s/nm)
300.00 2.208
300.10 2.207
300.20 2.205
300.30 2.203
300.40 2.202
300.50 2.2
300.60 2.199
300.70 2.197
300.80 2.196
300.90 2.194
301.00 2.193
301.10 2.191
301.20 2.189
301.30 2.188
301.40 2.186
301.50 2.185
301.60 2.183
301.70 2.182
301.80 2.18
301.90 2.179
302.00 2.177
302.10 2.176
302.20 2.174
302.30 2.173
302.40 2.171
302.50 2.17
302.60 2.168
302.70 2.167
302.80 2.165
302.90 2.163
303.00 2.162
303.10 2.16
303.20 2.159
303.30 2.157
303.40 2.156
303.50 2.154
303.60 2.153
303.70 2.151
303.80 2.15
303.90 2.148
304.00 2.147
304.10 2.145
304.20 2.144
304.30 2.142
304.40 2.141
304.50 2.139
304.60 2.138
304.70 2.136
304.80 2.135
304.90 2.133
305.00 2.132
305.10 2.13
305.20 2.129
305.30 2.127
305.40 2.126
305.50 2.124
305.60 2.123
305.70 2.121
305.80 2.12
305.90 2.119
306.00 2.117
306.10 2.116
306.20 2.114
306.30 2.113
306.40 2.111
306.50 2.11
306.60 2.108
306.70 2.107
306.80 2.105
306.90 2.104
307.00 2.102
307.10 2.101
307.20 2.099
307.30 2.098
307.40 2.096
307.50 2.095
307.60 2.094
307.70 2.092
307.80 2.091
307.90 2.089
308.00 2.088
308.10 2.086
308.20 2.085
308.30 2.083
308.40 2.082
308.50 2.08
308.60 2.079
308.70 2.078
308.80 2.076
308.90 2.075
309.00 2.073
309.10 2.072
309.20 2.07
309.30 2.069
309.40 2.068
309.50 2.066
309.60 2.065
309.70 2.063
309.80 2.062
309.90 2.06
310.00 2.059
310.10 2.058
310.20 2.056
310.30 2.055
310.40 2.053
310.50 2.052
310.60 2.05
310.70 2.049
310.80 2.048
310.90 2.046
311.00 2.045
311.10 2.043
311.20 2.042
311.30 2.04
311.40 2.039
311.50 2.038
311.60 2.036
311.70 2.035
311.80 2.033
311.90 2.032
312.00 2.031
312.10 2.029
312.20 2.028
312.30 2.026
312.40 2.025
312.50 2.024
312.60 2.022
312.70 2.021
312.80 2.019
312.90 2.018
313.00 2.017
313.10 2.015
313.20 2.014
313.30 2.012
313.40 2.011
313.50 2.01
313.60 2.008
313.70 2.007
313.80 2.006
313.90 2.004
314.00 2.003
314.10 2.001
314.20 2
314.30 1.999
314.40 1.997
314.50 1.996
314.60 1.995
314.70 1.993
314.80 1.992
314.90 1.99
315.00 1.989
315.10 1.988
315.20 1.986
315.30 1.985
315.40 1.984
315.50 1.982
315.60 1.981
315.70 1.98
315.80 1.978
315.90 1.977
316.00 1.975
316.10 1.974
316.20 1.973
316.30 1.971
316.40 1.97
316.50 1.969
316.60 1.967
316.70 1.966
316.80 1.965
316.90 1.963
317.00 1.962
317.10 1.961
317.20 1.959
317.30 1.958
317.40 1.957
317.50 1.955
317.60 1.954
317.70 1.953
317.80 1.951
317.90 1.95
318.00 1.949
318.10 1.947
318.20 1.946
318.30 1.945
318.40 1.943
318.50 1.942
318.60 1.941
318.70 1.939
318.80 1.938
318.90 1.937
319.00 1.935
319.10 1.934
319.20 1.933
319.30 1.931
319.40 1.93
319.50 1.929
319.60 1.927
319.70 1.926
319.80 1.925
319.90 1.923
320.00 1.922
320.10 1.921
320.20 1.92
320.30 1.918
320.40 1.917
320.50 1.916
320.60 1.914
320.70 1.913
320.80 1.912
320.90 1.91
321.00 1.909
321.10 1.908
321.20 1.906
321.30 1.905
321.40 1.904
321.50 1.903
321.60 1.901
321.70 1.9
321.80 1.899
321.90 1.897
322.00 1.896
322.10 1.895
322.20 1.894
322.30 1.892
322.40 1.891
322.50 1.89
322.60 1.888
322.70 1.887
322.80 1.886
322.90 1.885
323.00 1.883
323.10 1.882
323.20 1.881
323.30 1.879
323.40 1.878
323.50 1.877
323.60 1.876
323.70 1.874
323.80 1.873
323.90 1.872
324.00 1.871
324.10 1.869
324.20 1.868
324.30 1.867
324.40 1.866
324.50 1.864
324.60 1.863
324.70 1.862
324.80 1.86
324.90 1.859
325.00 1.858
325.10 1.857
325.20 1.855
325.30 1.854
325.40 1.853
325.50 1.852
325.60 1.85
325.70 1.849
325.80 1.848
325.90 1.847
326.00 1.845
326.10 1.844
326.20 1.843
326.30 1.842
326.40 1.84
326.50 1.839
326.60 1.838
326.70 1.837
326.80 1.836
326.90 1.834
327.00 1.833
327.10 1.832
327.20 1.831
327.30 1.829
327.40 1.828
327.50 1.827
327.60 1.826
327.70 1.824
327.80 1.823
327.90 1.822
328.00 1.821
328.10 1.82
328.20 1.818
328.30 1.817
328.40 1.816
328.50 1.815
328.60 1.813
328.70 1.812
328.80 1.811
328.90 1.81
329.00 1.809
329.10 1.807
329.20 1.806
329.30 1.805
329.40 1.804
329.50 1.802
329.60 1.801
329.70 1.8
329.80 1.799
329.90 1.798
330.00 1.796
330.10 1.795
330.20 1.794
330.30 1.793
330.40 1.792
330.50 1.79
330.60 1.789
330.70 1.788
330.80 1.787
330.90 1.786
331.00 1.784
331.10 1.783
331.20 1.782
331.30 1.781
331.40 1.78
331.50 1.778
331.60 1.777
331.70 1.776
331.80 1.775
331.90 1.774
332.00 1.773
332.10 1.771
332.20 1.77
332.30 1.769
332.40 1.768
332.50 1.767
332.60 1.765
332.70 1.764
332.80 1.763
332.90 1.762
333.00 1.761
333.10 1.76
333.20 1.758
333.30 1.757
333.40 1.756
333.50 1.755
333.60 1.754
333.70 1.752
333.80 1.751
333.90 1.75
334.00 1.749
334.10 1.748
334.20 1.747
334.30 1.745
334.40 1.744
334.50 1.743
334.60 1.742
334.70 1.741
334.80 1.74
334.90 1.739
335.00 1.737
335.10 1.736
335.20 1.735
335.30 1.734
335.40 1.733
335.50 1.732
335.60 1.73
335.70 1.729
335.80 1.728
335.90 1.727
336.00 1.726
336.10 1.725
336.20 1.724
336.30 1.722
336.40 1.721
336.50 1.72
336.60 1.719
336.70 1.718
336.80 1.717
336.90 1.716
337.00 1.714
337.10 1.713
337.20 1.712
337.30 1.711
337.40 1.71
337.50 1.709
337.60 1.708
337.70 1.706
337.80 1.705
337.90 1.704
338.00 1.703
338.10 1.702
338.20 1.701
338.30 1.7
338.40 1.699
338.50 1.697
338.60 1.696
338.70 1.695
338.80 1.694
338.90 1.693
339.00 1.692
339.10 1.691
339.20 1.69
339.30 1.689
339.40 1.687
339.50 1.686
339.60 1.685
339.70 1.684
339.80 1.683
339.90 1.682
340.00 1.681
340.10 1.68
340.20 1.678
340.30 1.677
340.40 1.676
340.50 1.675
340.60 1.674
340.70 1.673
340.80 1.672
340.90 1.671
341.00 1.67
341.10 1.669
341.20 1.667
341.30 1.666
341.40 1.665
341.50 1.664
341.60 1.663
341.70 1.662
341.80 1.661
341.90 1.66
342.00 1.659
342.10 1.658
342.20 1.656
342.30 1.655
342.40 1.654
342.50 1.653
342.60 1.652
342.70 1.651
342.80 1.65
342.90 1.649
343.00 1.648
343.10 1.647
343.20 1.646
343.30 1.645
343.40 1.643
343.50 1.642
343.60 1.641
343.70 1.64
343.80 1.639
343.90 1.638
344.00 1.637
344.10 1.636
344.20 1.635
344.30 1.634
344.40 1.633
344.50 1.632
344.60 1.631
344.70 1.63
344.80 1.628
344.90 1.627
345.00 1.626
345.10 1.625
345.20 1.624
345.30 1.623
345.40 1.622
345.50 1.621
345.60 1.62
345.70 1.619
345.80 1.618
345.90 1.617
346.00 1.616
346.10 1.615
346.20 1.614
346.30 1.613
346.40 1.611
346.50 1.61
346.60 1.609
346.70 1.608
346.80 1.607
346.90 1.606
347.00 1.605
347.10 1.604
347.20 1.603
347.30 1.602
347.40 1.601
347.50 1.6
347.60 1.599
347.70 1.598
347.80 1.597
347.90 1.596
348.00 1.595
348.10 1.594
348.20 1.593
348.30 1.592
348.40 1.591
348.50 1.59
348.60 1.588
348.70 1.587
348.80 1.586
348.90 1.585
349.00 1.584
349.10 1.583
349.20 1.582
349.30 1.581
349.40 1.58
349.50 1.579
349.60 1.578
349.70 1.577
349.80 1.576
349.90 1.575
350.00 1.574
350.10 1.573
350.20 1.572
350.30 1.571
350.40 1.57
350.50 1.569
350.60 1.568
350.70 1.567
350.80 1.566
350.90 1.565
351.00 1.564
351.10 1.563
351.20 1.562
351.30 1.561
351.40 1.56
351.50 1.559
351.60 1.558
351.70 1.557
351.80 1.556
351.90 1.555
352.00 1.554
352.10 1.553
352.20 1.552
352.30 1.551
352.40 1.55
352.50 1.549
352.60 1.548
352.70 1.547
352.80 1.546
352.90 1.545
353.00 1.544
353.10 1.543
353.20 1.542
353.30 1.541
353.40 1.54
353.50 1.539
353.60 1.538
353.70 1.537
353.80 1.536
353.90 1.535
354.00 1.534
354.10 1.533
354.20 1.532
354.30 1.531
354.40 1.53
354.50 1.529
354.60 1.528
354.70 1.527
354.80 1.526
354.90 1.525
355.00 1.524
355.10 1.523
355.20 1.522
355.30 1.521
355.40 1.52
355.50 1.519
355.60 1.518
355.70 1.517
355.80 1.516
355.90 1.515
356.00 1.514
356.10 1.513
356.20 1.512
356.30 1.511
356.40 1.51
356.50 1.509
356.60 1.508
356.70 1.507
356.80 1.506
356.90 1.505
357.00 1.504
357.10 1.503
357.20 1.502
357.30 1.501
357.40 1.501
357.50 1.5
357.60 1.499
357.70 1.498
357.80 1.497
357.90 1.496
358.00 1.495
358.10 1.494
358.20 1.493
358.30 1.492
358.40 1.491
358.50 1.49
358.60 1.489
358.70 1.488
358.80 1.487
358.90 1.486
359.00 1.485
359.10 1.484
359.20 1.483
359.30 1.482
359.40 1.481
359.50 1.48
359.60 1.479
359.70 1.479
359.80 1.478
359.90 1.477
360.00 1.476
360.10 1.475
360.20 1.474
360.30 1.473
360.40 1.472
360.50 1.471
360.60 1.47
360.70 1.469
360.80 1.468
360.90 1.467
361.00 1.466
361.10 1.465
361.20 1.464
361.30 1.463
361.40 1.463
361.50 1.462
361.60 1.461
361.70 1.46
361.80 1.459
361.90 1.458
362.00 1.457
362.10 1.456
362.20 1.455
362.30 1.454
362.40 1.453
362.50 1.452
362.60 1.451
362.70 1.45
362.80 1.449
362.90 1.449
363.00 1.448
363.10 1.447
363.20 1.446
363.30 1.444
363.40 1.443
363.50 1.442
363.60 1.441
363.70 1.44
363.80 1.439
363.90 1.438
364.00 1.437
364.10 1.436
364.20 1.435
364.30 1.434
364.40 1.433
364.50 1.432
364.60 1.431
364.70 1.43
364.80 1.429
364.90 1.428
365.00 1.426
365.10 1.425
365.20 1.424
365.30 1.423
365.40 1.422
365.50 1.421
365.60 1.42
365.70 1.419
365.80 1.418
365.90 1.417
366.00 1.416
366.10 1.415
366.20 1.414
366.30 1.413
366.40 1.412
366.50 1.411
366.60 1.41
366.70 1.409
366.80 1.408
366.90 1.407
367.00 1.406
367.10 1.405
367.20 1.404
367.30 1.403
367.40 1.402
367.50 1.401
367.60 1.401
367.70 1.4
367.80 1.399
367.90 1.398
368.00 1.397
368.10 1.396
368.20 1.395
368.30 1.394
368.40 1.393
368.50 1.392
368.60 1.391
368.70 1.391
368.80 1.39
368.90 1.389
369.00 1.388
369.10 1.387
369.20 1.386
369.30 1.385
369.40 1.384
369.50 1.384
369.60 1.383
369.70 1.382
369.80 1.381
369.90 1.38
370.00 1.379
370.10 1.379
370.20 1.378
370.30 1.377
370.40 1.377
370.50 1.376
370.60 1.375
370.70 1.375
370.80 1.374
370.90 1.373
371.00 1.373
371.10 1.372
371.20 1.372
371.30 1.371
371.40 1.37
371.50 1.37
371.60 1.369
371.70 1.368
371.80 1.368
371.90 1.367
372.00 1.367
372.10 1.366
372.20 1.366
372.30 1.366
372.40 1.366
372.50 1.366
372.60 1.365
372.70 1.365
372.80 1.365
372.90 1.365
373.00 1.365
373.10 1.365
373.20 1.364
373.30 1.364
373.40 1.364
373.50 1.364
373.60 1.364
373.70 1.363
373.80 1.363
373.90 1.363
374.00 1.363
374.10 1.363
374.20 1.363
374.30 1.363
374.40 1.364
374.50 1.364
374.60 1.364
374.70 1.364
374.80 1.364
374.90 1.364
375.00 1.364
375.10 1.364
375.20 1.365
375.30 1.365
375.40 1.365
375.50 1.365
375.60 1.365
375.70 1.365
375.80 1.365
375.90 1.366
376.00 1.366
376.10 1.366
376.20 1.366
376.30 1.366
376.40 1.365
376.50 1.365
376.60 1.365
376.70 1.365
376.80 1.365
376.90 1.365
377.00 1.365
377.10 1.364
377.20 1.364
377.30 1.363
377.40 1.362
377.50 1.361
377.60 1.36
377.70 1.36
377.80 1.359
377.90 1.358
378.00 1.357
378.10 1.354
378.20 1.351
378.30 1.348
378.40 1.345
378.50 1.342
378.60 1.339
378.70 1.336
378.80 1.333
378.90 1.33
379.00 1.327
379.10 1.325
379.20 1.323
379.30 1.321
379.40 1.319
379.50 1.316
379.60 1.314
379.70 1.312
379.80 1.31
379.90 1.308
380.00 1.306
380.10 1.309
380.20 1.312
380.30 1.314
380.40 1.317
380.50 1.32
380.60 1.322
380.70 1.325
380.80 1.328
380.90 1.33
381.00 1.333
381.10 1.334
381.20 1.334
381.30 1.335
381.40 1.336
381.50 1.336
381.60 1.336
381.70 1.334
381.80 1.332
381.90 1.33
382.00 1.327
382.10 1.324
382.20 1.32
382.30 1.312
382.40 1.305
382.50 1.297
382.60 1.29
382.70 1.282
382.80 1.274
382.90 1.267
383.00 1.259
383.10 1.252
383.20 1.244
383.30 1.24
383.40 1.234
383.50 1.227
383.60 1.229
383.70 1.235
383.80 1.242
383.90 1.247
384.00 1.254
384.10 1.263
384.20 1.273
384.30 1.283
384.40 1.292
384.50 1.3
384.60 1.308
384.70 1.315
384.80 1.321
384.90 1.326
385.00 1.33
385.10 1.333
385.20 1.336
385.30 1.339
385.40 1.34
385.50 1.342
385.60 1.343
385.70 1.343
385.80 1.343
385.90 1.342
386.00 1.341
386.10 1.34
386.20 1.338
386.30 1.335
386.40 1.332
386.50 1.329
386.60 1.325
386.70 1.321
386.80 1.316
386.90 1.311
387.00 1.305
387.10 1.299
387.20 1.292
387.30 1.285
387.40 1.277
387.50 1.268
387.60 1.258
387.70 1.248
387.80 1.236
387.90 1.224
388.00 1.211
388.10 1.195
388.20 1.178
388.30 1.159
388.40 1.14
388.50 1.122
388.60 1.107
388.70 1.096
388.80 1.086
388.90 1.078
389.00 1.086
389.10 1.095
389.20 1.106
389.30 1.121
389.40 1.139
389.50 1.159
389.60 1.178
389.70 1.196
389.80 1.212
389.90 1.226
390.00 1.239
390.10 1.252
390.20 1.263
390.30 1.274
390.40 1.285
390.50 1.294
390.60 1.302
390.70 1.31
390.80 1.318
390.90 1.325
391.00 1.331
391.10 1.338
391.20 1.343
391.30 1.349
391.40 1.354
391.50 1.358
391.60 1.363
391.70 1.366
391.80 1.37
391.90 1.373
392.00 1.375
392.10 1.377
392.20 1.378
392.30 1.379
392.40 1.38
392.50 1.38
392.60 1.38
392.70 1.379
392.80 1.378
392.90 1.376
393.00 1.374
393.10 1.371
393.20 1.368
393.30 1.364
393.40 1.36
393.50 1.355
393.60 1.35
393.70 1.345
393.80 1.339
393.90 1.332
394.00 1.325
394.10 1.317
394.20 1.309
394.30 1.3
394.40 1.291
394.50 1.281
394.60 1.271
394.70 1.26
394.80 1.249
394.90 1.238
395.00 1.226
395.10 1.214
395.20 1.201
395.30 1.188
395.40 1.174
395.50 1.159
395.60 1.143
395.70 1.127
395.80 1.11
395.90 1.093
396.00 1.075
396.10 1.057
396.20 1.037
396.30 1.014
396.40 0.9895
396.50 0.9608
396.60 0.9316
396.70 0.902
396.80 0.8797
396.90 0.8572
397.00 0.8345
397.10 0.8552
397.20 0.8759
397.30 0.8968
397.40 0.9256
397.50 0.9542
397.60 0.9827
397.70 1.007
397.80 1.03
397.90 1.05
398.00 1.068
398.10 1.085
398.20 1.102
398.30 1.119
398.40 1.135
398.50 1.151
398.60 1.166
398.70 1.18
398.80 1.194
398.90 1.207
399.00 1.22
399.10 1.232
399.20 1.244
399.30 1.256
399.40 1.268
399.50 1.279
399.60 1.29
399.70 1.301
399.80 1.311
399.90 1.321
400.00 1.33
400.10 1.339
400.20 1.348
400.30 1.357
400.40 1.364
400.50 1.372
400.60 1.38
400.70 1.386
400.80 1.393
400.90 1.399
401.00 1.405
401.10 1.411
401.20 1.417
401.30 1.422
401.40 1.426
401.50 1.431
401.60 1.435
401.70 1.439
401.80 1.443
401.90 1.446
402.00 1.449
402.10 1.452
402.20 1.454
402.30 1.457
402.40 1.459
402.50 1.46
402.60 1.462
402.70 1.463
402.80 1.464
402.90 1.464
403.00 1.465
403.10 1.465
403.20 1.465
403.30 1.464
403.40 1.463
403.50 1.462
403.60 1.461
403.70 1.459
403.80 1.457
403.90 1.455
404.00 1.453
404.10 1.45
404.20 1.447
404.30 1.444
404.40 1.44
404.50 1.437
404.60 1.432
404.70 1.428
404.80 1.423
404.90 1.418
405.00 1.413
405.10 1.408
405.20 1.402
405.30 1.396
405.40 1.39
405.50 1.383
405.60 1.376
405.70 1.369
405.80 1.361
405.90 1.353
406.00 1.345
406.10 1.336
406.20 1.328
406.30 1.319
406.40 1.309
406.50 1.299
406.60 1.289
406.70 1.279
406.80 1.268
406.90 1.257
407.00 1.246
407.10 1.234
407.20 1.222
407.30 1.209
407.40 1.196
407.50 1.183
407.60 1.169
407.70 1.156
407.80 1.141
407.90 1.127
408.00 1.112
408.10 1.097
408.20 1.081
408.30 1.065
408.40 1.049
408.50 1.032
408.60 1.015
408.70 0.9977
408.80 0.9797
408.90 0.9614
409.00 0.943
409.10 0.9243
409.20 0.9053
409.30 0.8861
409.40 0.8654
409.50 0.8432
409.60 0.8196
409.70 0.7921
409.80 0.7632
409.90 0.7329
410.00 0.7044
410.10 0.6815
410.20 0.6643
410.30 0.6909
410.40 0.7187
410.50 0.7475
410.60 0.7766
410.70 0.8038
410.80 0.8291
410.90 0.8507
411.00 0.871
411.10 0.8902
411.20 0.9083
411.30 0.9262
411.40 0.9439
411.50 0.9612
411.60 0.9783
411.70 0.9951
411.80 1.011
411.90 1.027
412.00 1.043
412.10 1.058
412.20 1.072
412.30 1.087
412.40 1.1
412.50 1.114
412.60 1.128
412.70 1.141
412.80 1.153
412.90 1.166
413.00 1.178
413.10 1.19
413.20 1.201
413.30 1.213
413.40 1.223
413.50 1.234
413.60 1.244
413.70 1.254
413.80 1.264
413.90 1.273
414.00 1.282
414.10 1.291
414.20 1.3
414.30 1.308
414.40 1.316
414.50 1.324
414.60 1.332
414.70 1.34
414.80 1.347
414.90 1.354
415.00 1.361
415.10 1.368
415.20 1.374
415.30 1.381
415.40 1.387
415.50 1.393
415.60 1.399
415.70 1.405
415.80 1.41
415.90 1.415
416.00 1.421
416.10 1.426
416.20 1.431
416.30 1.435
416.40 1.44
416.50 1.444
416.60 1.449
416.70 1.453
416.80 1.457
416.90 1.461
417.00 1.464
417.10 1.468
417.20 1.471
417.30 1.475
417.40 1.478
417.50 1.481
417.60 1.484
417.70 1.487
417.80 1.49
417.90 1.492
418.00 1.495
418.10 1.497
418.20 1.5
418.30 1.502
418.40 1.504
418.50 1.506
418.60 1.508
418.70 1.51
418.80 1.512
418.90 1.513
419.00 1.515
419.10 1.516
419.20 1.517
419.30 1.519
419.40 1.52
419.50 1.521
419.60 1.522
419.70 1.523
419.80 1.524
419.90 1.524
420.00 1.525
420.10 1.526
420.20 1.526
420.30 1.526
420.40 1.527
420.50 1.527
420.60 1.527
420.70 1.527
420.80 1.527
420.90 1.527
421.00 1.527
421.10 1.527
421.20 1.526
421.30 1.526
421.40 1.526
421.50 1.525
421.60 1.524
421.70 1.524
421.80 1.523
421.90 1.522
422.00 1.521
422.10 1.52
422.20 1.519
422.30 1.518
422.40 1.517
422.50 1.516
422.60 1.514
422.70 1.513
422.80 1.511
422.90 1.51
423.00 1.508
423.10 1.506
423.20 1.505
423.30 1.503
423.40 1.501
423.50 1.499
423.60 1.497
423.70 1.494
423.80 1.492
423.90 1.49
424.00 1.487
424.10 1.485
424.20 1.482
424.30 1.48
424.40 1.477
424.50 1.474
424.60 1.471
424.70 1.468
424.80 1.465
424.90 1.462
425.00 1.459
425.10 1.456
425.20 1.452
425.30 1.449
425.40 1.445
425.50 1.442
425.60 1.438
425.70 1.434
425.80 1.43
425.90 1.426
426.00 1.422
426.10 1.418
426.20 1.413
426.30 1.408
426.40 1.403
426.50 1.399
426.60 1.394
426.70 1.389
426.80 1.384
426.90 1.38
427.00 1.374
427.10 1.369
427.20 1.364
427.30 1.358
427.40 1.353
427.50 1.347
427.60 1.342
427.70 1.336
427.80 1.33
427.90 1.324
428.00 1.317
428.10 1.311
428.20 1.304
428.30 1.298
428.40 1.291
428.50 1.284
428.60 1.277
428.70 1.27
428.80 1.263
428.90 1.255
429.00 1.248
429.10 1.24
429.20 1.232
429.30 1.224
429.40 1.216
429.50 1.207
429.60 1.199
429.70 1.19
429.80 1.181
429.90 1.172
430.00 1.163
430.10 1.154
430.20 1.144
430.30 1.135
430.40 1.125
430.50 1.114
430.60 1.104
430.70 1.094
430.80 1.083
430.90 1.072
431.00 1.061
431.10 1.049
431.20 1.038
431.30 1.026
431.40 1.014
431.50 1.002
431.60 0.989
431.70 0.9762
431.80 0.9632
431.90 0.9497
432.00 0.936
432.10 0.9221
432.20 0.9076
432.30 0.8927
432.40 0.8776
432.50 0.8616
432.60 0.8452
432.70 0.8285
432.80 0.8112
432.90 0.794
433.00 0.7768
433.10 0.7603
433.20 0.7438
433.30 0.7276
433.40 0.7105
433.50 0.6921
433.60 0.6723
433.70 0.6467
433.80 0.6173
433.90 0.5842
434.00 0.5357
434.10 0.5365
434.20 0.5866
434.30 0.6187
434.40 0.6471
434.50 0.6717
434.60 0.6907
434.70 0.7083
434.80 0.7247
434.90 0.7402
435.00 0.7558
435.10 0.7717
435.20 0.788
435.30 0.8043
435.40 0.8206
435.50 0.8364
435.60 0.8517
435.70 0.8665
435.80 0.8806
435.90 0.8943
436.00 0.9077
436.10 0.9205
436.20 0.933
436.30 0.9452
436.40 0.957
436.50 0.9685
436.60 0.9798
436.70 0.9908
436.80 1.001
436.90 1.012
437.00 1.022
437.10 1.032
437.20 1.042
437.30 1.051
437.40 1.061
437.50 1.07
437.60 1.079
437.70 1.087
437.80 1.096
437.90 1.104
438.00 1.112
438.10 1.12
438.20 1.127
438.30 1.135
438.40 1.142
438.50 1.149
438.60 1.156
438.70 1.163
438.80 1.17
438.90 1.176
439.00 1.183
439.10 1.189
439.20 1.195
439.30 1.201
439.40 1.206
439.50 1.212
439.60 1.217
439.70 1.223
439.80 1.228
439.90 1.233
440.00 1.238
440.10 1.243
440.20 1.247
440.30 1.252
440.40 1.256
440.50 1.261
440.60 1.265
440.70 1.269
440.80 1.273
440.90 1.277
441.00 1.281
441.10 1.285
441.20 1.288
441.30 1.292
441.40 1.295
441.50 1.299
441.60 1.302
441.70 1.305
441.80 1.308
441.90 1.311
442.00 1.314
442.10 1.317
442.20 1.32
442.30 1.322
442.40 1.325
442.50 1.327
442.60 1.33
442.70 1.332
442.80 1.335
442.90 1.337
443.00 1.339
443.10 1.341
443.20 1.343
443.30 1.345
443.40 1.347
443.50 1.349
443.60 1.351
443.70 1.353
443.80 1.355
443.90 1.356
444.00 1.358
444.10 1.359
444.20 1.361
444.30 1.362
444.40 1.364
444.50 1.365
444.60 1.366
444.70 1.368
444.80 1.369
444.90 1.37
445.00 1.371
445.10 1.372
445.20 1.373
445.30 1.374
445.40 1.375
445.50 1.376
445.60 1.377
445.70 1.378
445.80 1.379
445.90 1.38
446.00 1.381
446.10 1.381
446.20 1.382
446.30 1.383
446.40 1.383
446.50 1.384
446.60 1.384
446.70 1.385
446.80 1.386
446.90 1.386
447.00 1.386
447.10 1.387
447.20 1.387
447.30 1.388
447.40 1.388
447.50 1.388
447.60 1.389
447.70 1.389
447.80 1.389
447.90 1.389
448.00 1.39
448.10 1.39
448.20 1.39
448.30 1.39
448.40 1.39
448.50 1.39
448.60 1.39
448.70 1.39
448.80 1.39
448.90 1.39
449.00 1.391
449.10 1.391
449.20 1.391
449.30 1.391
449.40 1.391
449.50 1.39
449.60 1.39
449.70 1.39
449.80 1.39
449.90 1.39
450.00 1.39
450.10 1.39
450.20 1.389
450.30 1.389
450.40 1.389
450.50 1.389
450.60 1.388
450.70 1.388
450.80 1.388
450.90 1.388
451.00 1.387
451.10 1.387
451.20 1.387
451.30 1.386
451.40 1.386
451.50 1.386
451.60 1.385
451.70 1.385
451.80 1.384
451.90 1.384
452.00 1.384
452.10 1.383
452.20 1.383
452.30 1.382
452.40 1.382
452.50 1.381
452.60 1.381
452.70 1.38
452.80 1.38
452.90 1.379
453.00 1.379
453.10 1.378
453.20 1.378
453.30 1.377
453.40 1.377
