# Version 2.1 - nm, norm@500 to 1, cut digits, bergeron_30000_80.dat_30000
# Wavelength(nm)  Flambda(ergs/cm^s/s/nm)
300.00 4.994
300.10 4.988
300.20 4.983
300.30 4.977
300.40 4.971
300.50 4.966
300.60 4.96
300.70 4.954
300.80 4.949
300.90 4.943
301.00 4.938
301.10 4.932
301.20 4.926
301.30 4.921
301.40 4.915
301.50 4.91
301.60 4.904
301.70 4.899
301.80 4.893
301.90 4.888
302.00 4.882
302.10 4.877
302.20 4.871
302.30 4.866
302.40 4.86
302.50 4.855
302.60 4.849
302.70 4.844
302.80 4.838
302.90 4.833
303.00 4.827
303.10 4.822
303.20 4.816
303.30 4.811
303.40 4.806
303.50 4.8
303.60 4.795
303.70 4.789
303.80 4.784
303.90 4.779
304.00 4.773
304.10 4.768
304.20 4.763
304.30 4.757
304.40 4.752
304.50 4.747
304.60 4.741
304.70 4.736
304.80 4.731
304.90 4.726
305.00 4.72
305.10 4.715
305.20 4.71
305.30 4.704
305.40 4.699
305.50 4.694
305.60 4.689
305.70 4.683
305.80 4.678
305.90 4.673
306.00 4.668
306.10 4.663
306.20 4.657
306.30 4.652
306.40 4.647
306.50 4.642
306.60 4.637
306.70 4.632
306.80 4.626
306.90 4.621
307.00 4.616
307.10 4.611
307.20 4.606
307.30 4.601
307.40 4.596
307.50 4.59
307.60 4.585
307.70 4.58
307.80 4.575
307.90 4.57
308.00 4.565
308.10 4.56
308.20 4.555
308.30 4.55
308.40 4.545
308.50 4.54
308.60 4.535
308.70 4.53
308.80 4.525
308.90 4.52
309.00 4.515
309.10 4.51
309.20 4.505
309.30 4.5
309.40 4.495
309.50 4.49
309.60 4.485
309.70 4.48
309.80 4.475
309.90 4.47
310.00 4.465
310.10 4.46
310.20 4.455
310.30 4.451
310.40 4.446
310.50 4.441
310.60 4.436
310.70 4.431
310.80 4.426
310.90 4.421
311.00 4.416
311.10 4.412
311.20 4.407
311.30 4.402
311.40 4.397
311.50 4.392
311.60 4.387
311.70 4.383
311.80 4.378
311.90 4.373
312.00 4.368
312.10 4.363
312.20 4.359
312.30 4.354
312.40 4.349
312.50 4.344
312.60 4.34
312.70 4.335
312.80 4.33
312.90 4.325
313.00 4.321
313.10 4.316
313.20 4.311
313.30 4.307
313.40 4.302
313.50 4.297
313.60 4.292
313.70 4.288
313.80 4.283
313.90 4.278
314.00 4.274
314.10 4.269
314.20 4.264
314.30 4.26
314.40 4.255
314.50 4.251
314.60 4.246
314.70 4.241
314.80 4.237
314.90 4.232
315.00 4.228
315.10 4.223
315.20 4.218
315.30 4.214
315.40 4.209
315.50 4.205
315.60 4.2
315.70 4.196
315.80 4.191
315.90 4.186
316.00 4.182
316.10 4.177
316.20 4.173
316.30 4.168
316.40 4.164
316.50 4.159
316.60 4.155
316.70 4.15
316.80 4.146
316.90 4.141
317.00 4.137
317.10 4.132
317.20 4.128
317.30 4.124
317.40 4.119
317.50 4.115
317.60 4.11
317.70 4.106
317.80 4.101
317.90 4.097
318.00 4.093
318.10 4.088
318.20 4.084
318.30 4.079
318.40 4.075
318.50 4.071
318.60 4.066
318.70 4.062
318.80 4.057
318.90 4.053
319.00 4.049
319.10 4.044
319.20 4.04
319.30 4.036
319.40 4.031
319.50 4.027
319.60 4.023
319.70 4.018
319.80 4.014
319.90 4.01
320.00 4.006
320.10 4.001
320.20 3.997
320.30 3.993
320.40 3.989
320.50 3.984
320.60 3.98
320.70 3.976
320.80 3.971
320.90 3.967
321.00 3.963
321.10 3.959
321.20 3.955
321.30 3.95
321.40 3.946
321.50 3.942
321.60 3.938
321.70 3.934
321.80 3.929
321.90 3.925
322.00 3.921
322.10 3.917
322.20 3.913
322.30 3.908
322.40 3.904
322.50 3.9
322.60 3.896
322.70 3.892
322.80 3.888
322.90 3.884
323.00 3.88
323.10 3.875
323.20 3.871
323.30 3.867
323.40 3.863
323.50 3.859
323.60 3.855
323.70 3.851
323.80 3.847
323.90 3.843
324.00 3.839
324.10 3.835
324.20 3.831
324.30 3.826
324.40 3.822
324.50 3.818
324.60 3.814
324.70 3.81
324.80 3.806
324.90 3.802
325.00 3.798
325.10 3.794
325.20 3.79
325.30 3.786
325.40 3.782
325.50 3.778
325.60 3.774
325.70 3.77
325.80 3.766
325.90 3.762
326.00 3.758
326.10 3.754
326.20 3.751
326.30 3.747
326.40 3.743
326.50 3.739
326.60 3.735
326.70 3.731
326.80 3.727
326.90 3.723
327.00 3.719
327.10 3.715
327.20 3.711
327.30 3.707
327.40 3.704
327.50 3.7
327.60 3.696
327.70 3.692
327.80 3.688
327.90 3.684
328.00 3.68
328.10 3.677
328.20 3.673
328.30 3.669
328.40 3.665
328.50 3.661
328.60 3.657
328.70 3.654
328.80 3.65
328.90 3.646
329.00 3.642
329.10 3.638
329.20 3.634
329.30 3.631
329.40 3.627
329.50 3.623
329.60 3.619
329.70 3.616
329.80 3.612
329.90 3.608
330.00 3.604
330.10 3.601
330.20 3.597
330.30 3.593
330.40 3.589
330.50 3.586
330.60 3.582
330.70 3.578
330.80 3.575
330.90 3.571
331.00 3.567
331.10 3.563
331.20 3.56
331.30 3.556
331.40 3.552
331.50 3.549
331.60 3.545
331.70 3.541
331.80 3.538
331.90 3.534
332.00 3.53
332.10 3.527
332.20 3.523
332.30 3.519
332.40 3.516
332.50 3.512
332.60 3.508
332.70 3.505
332.80 3.501
332.90 3.498
333.00 3.494
333.10 3.49
333.20 3.487
333.30 3.483
333.40 3.48
333.50 3.476
333.60 3.472
333.70 3.469
333.80 3.465
333.90 3.462
334.00 3.458
334.10 3.455
334.20 3.451
334.30 3.447
334.40 3.444
334.50 3.44
334.60 3.437
334.70 3.433
334.80 3.43
334.90 3.426
335.00 3.423
335.10 3.419
335.20 3.416
335.30 3.412
335.40 3.409
335.50 3.405
335.60 3.402
335.70 3.398
335.80 3.395
335.90 3.391
336.00 3.388
336.10 3.384
336.20 3.381
336.30 3.377
336.40 3.374
336.50 3.371
336.60 3.367
336.70 3.364
336.80 3.36
336.90 3.357
337.00 3.353
337.10 3.35
337.20 3.347
337.30 3.343
337.40 3.34
337.50 3.336
337.60 3.333
337.70 3.33
337.80 3.326
337.90 3.323
338.00 3.319
338.10 3.316
338.20 3.313
338.30 3.309
338.40 3.306
338.50 3.303
338.60 3.299
338.70 3.296
338.80 3.293
338.90 3.289
339.00 3.286
339.10 3.282
339.20 3.279
339.30 3.276
339.40 3.273
339.50 3.269
339.60 3.266
339.70 3.263
339.80 3.259
339.90 3.256
340.00 3.253
340.10 3.249
340.20 3.246
340.30 3.243
340.40 3.24
340.50 3.236
340.60 3.233
340.70 3.23
340.80 3.226
340.90 3.223
341.00 3.22
341.10 3.217
341.20 3.213
341.30 3.21
341.40 3.207
341.50 3.204
341.60 3.2
341.70 3.197
341.80 3.194
341.90 3.191
342.00 3.188
342.10 3.184
342.20 3.181
342.30 3.178
342.40 3.175
342.50 3.172
342.60 3.168
342.70 3.165
342.80 3.162
342.90 3.159
343.00 3.156
343.10 3.153
343.20 3.149
343.30 3.146
343.40 3.143
343.50 3.14
343.60 3.137
343.70 3.134
343.80 3.13
343.90 3.127
344.00 3.124
344.10 3.121
344.20 3.118
344.30 3.115
344.40 3.112
344.50 3.109
344.60 3.105
344.70 3.102
344.80 3.099
344.90 3.096
345.00 3.093
345.10 3.09
345.20 3.087
345.30 3.084
345.40 3.081
345.50 3.078
345.60 3.075
345.70 3.072
345.80 3.068
345.90 3.065
346.00 3.062
346.10 3.059
346.20 3.056
346.30 3.053
346.40 3.05
346.50 3.047
346.60 3.044
346.70 3.041
346.80 3.038
346.90 3.035
347.00 3.032
347.10 3.029
347.20 3.026
347.30 3.023
347.40 3.02
347.50 3.017
347.60 3.014
347.70 3.011
347.80 3.008
347.90 3.005
348.00 3.002
348.10 2.999
348.20 2.996
348.30 2.993
348.40 2.99
348.50 2.987
348.60 2.984
348.70 2.981
348.80 2.978
348.90 2.975
349.00 2.973
349.10 2.97
349.20 2.967
349.30 2.964
349.40 2.961
349.50 2.958
349.60 2.955
349.70 2.952
349.80 2.949
349.90 2.946
350.00 2.943
350.10 2.94
350.20 2.937
350.30 2.935
350.40 2.932
350.50 2.929
350.60 2.926
350.70 2.923
350.80 2.92
350.90 2.917
351.00 2.914
351.10 2.912
351.20 2.909
351.30 2.906
351.40 2.903
351.50 2.9
351.60 2.897
351.70 2.894
351.80 2.892
351.90 2.889
352.00 2.886
352.10 2.883
352.20 2.88
352.30 2.877
352.40 2.875
352.50 2.872
352.60 2.869
352.70 2.866
352.80 2.863
352.90 2.861
353.00 2.858
353.10 2.855
353.20 2.852
353.30 2.849
353.40 2.847
353.50 2.844
353.60 2.841
353.70 2.838
353.80 2.836
353.90 2.833
354.00 2.83
354.10 2.827
354.20 2.824
354.30 2.822
354.40 2.819
354.50 2.816
354.60 2.814
354.70 2.811
354.80 2.808
354.90 2.805
355.00 2.803
355.10 2.8
355.20 2.797
355.30 2.794
355.40 2.792
355.50 2.789
355.60 2.786
355.70 2.784
355.80 2.781
355.90 2.778
356.00 2.775
356.10 2.773
356.20 2.77
356.30 2.767
356.40 2.765
356.50 2.762
356.60 2.759
356.70 2.757
356.80 2.754
356.90 2.751
357.00 2.749
357.10 2.746
357.20 2.743
357.30 2.741
357.40 2.738
357.50 2.735
357.60 2.733
357.70 2.73
357.80 2.727
357.90 2.725
358.00 2.722
358.10 2.72
358.20 2.717
358.30 2.714
358.40 2.712
358.50 2.709
358.60 2.706
358.70 2.704
358.80 2.701
358.90 2.699
359.00 2.696
359.10 2.693
359.20 2.691
359.30 2.688
359.40 2.686
359.50 2.683
359.60 2.681
359.70 2.678
359.80 2.675
359.90 2.673
360.00 2.67
360.10 2.668
360.20 2.665
360.30 2.663
360.40 2.66
360.50 2.657
360.60 2.655
360.70 2.652
360.80 2.65
360.90 2.647
361.00 2.645
361.10 2.642
361.20 2.64
361.30 2.637
361.40 2.635
361.50 2.632
361.60 2.63
361.70 2.627
361.80 2.625
361.90 2.622
362.00 2.619
362.10 2.617
362.20 2.614
362.30 2.612
362.40 2.61
362.50 2.607
362.60 2.605
362.70 2.602
362.80 2.6
362.90 2.597
363.00 2.595
363.10 2.592
363.20 2.59
363.30 2.587
363.40 2.585
363.50 2.582
363.60 2.58
363.70 2.577
363.80 2.575
363.90 2.572
364.00 2.57
364.10 2.568
364.20 2.565
364.30 2.563
364.40 2.56
364.50 2.558
364.60 2.555
364.70 2.553
364.80 2.551
364.90 2.548
365.00 2.546
365.10 2.543
365.20 2.541
365.30 2.538
365.40 2.536
365.50 2.534
365.60 2.531
365.70 2.529
365.80 2.526
365.90 2.524
366.00 2.522
366.10 2.519
366.20 2.516
366.30 2.514
366.40 2.511
366.50 2.509
366.60 2.506
366.70 2.503
366.80 2.501
366.90 2.498
367.00 2.495
367.10 2.493
367.20 2.49
367.30 2.488
367.40 2.485
367.50 2.482
367.60 2.48
367.70 2.477
367.80 2.475
367.90 2.472
368.00 2.469
368.10 2.467
368.20 2.464
368.30 2.462
368.40 2.459
368.50 2.457
368.60 2.454
368.70 2.451
368.80 2.449
368.90 2.446
369.00 2.444
369.10 2.441
369.20 2.439
369.30 2.436
369.40 2.434
369.50 2.431
369.60 2.429
369.70 2.426
369.80 2.424
369.90 2.421
370.00 2.418
370.10 2.416
370.20 2.414
370.30 2.411
370.40 2.409
370.50 2.406
370.60 2.404
370.70 2.401
370.80 2.399
370.90 2.396
371.00 2.394
371.10 2.391
371.20 2.389
371.30 2.387
371.40 2.384
371.50 2.382
371.60 2.379
371.70 2.377
371.80 2.374
371.90 2.372
372.00 2.369
372.10 2.367
372.20 2.365
372.30 2.363
372.40 2.36
372.50 2.358
372.60 2.356
372.70 2.354
372.80 2.352
372.90 2.349
373.00 2.347
373.10 2.345
373.20 2.343
373.30 2.34
373.40 2.338
373.50 2.336
373.60 2.334
373.70 2.331
373.80 2.329
373.90 2.327
374.00 2.325
374.10 2.323
374.20 2.321
374.30 2.319
374.40 2.317
374.50 2.315
374.60 2.313
374.70 2.311
374.80 2.309
374.90 2.306
375.00 2.304
375.10 2.302
375.20 2.3
375.30 2.298
375.40 2.296
375.50 2.294
375.60 2.292
375.70 2.29
375.80 2.288
375.90 2.286
376.00 2.284
376.10 2.282
376.20 2.28
376.30 2.278
376.40 2.276
376.50 2.274
376.60 2.272
376.70 2.27
376.80 2.268
376.90 2.265
377.00 2.263
377.10 2.262
377.20 2.261
377.30 2.259
377.40 2.258
377.50 2.257
377.60 2.255
377.70 2.254
377.80 2.253
377.90 2.251
378.00 2.25
378.10 2.248
378.20 2.246
378.30 2.244
378.40 2.242
378.50 2.24
378.60 2.238
378.70 2.236
378.80 2.234
378.90 2.232
379.00 2.23
379.10 2.228
379.20 2.226
379.30 2.224
379.40 2.222
379.50 2.22
379.60 2.218
379.70 2.216
379.80 2.214
379.90 2.212
380.00 2.21
380.10 2.21
380.20 2.21
380.30 2.209
380.40 2.209
380.50 2.209
380.60 2.209
380.70 2.208
380.80 2.208
380.90 2.208
381.00 2.207
381.10 2.206
381.20 2.205
381.30 2.203
381.40 2.202
381.50 2.2
381.60 2.198
381.70 2.196
381.80 2.194
381.90 2.191
382.00 2.188
382.10 2.185
382.20 2.181
382.30 2.177
382.40 2.172
382.50 2.168
382.60 2.163
382.70 2.159
382.80 2.154
382.90 2.15
383.00 2.145
383.10 2.141
383.20 2.136
383.30 2.132
383.40 2.128
383.50 2.124
383.60 2.124
383.70 2.126
383.80 2.128
383.90 2.131
384.00 2.134
384.10 2.137
384.20 2.14
384.30 2.143
384.40 2.146
384.50 2.148
384.60 2.151
384.70 2.153
384.80 2.154
384.90 2.156
385.00 2.157
385.10 2.158
385.20 2.158
385.30 2.159
385.40 2.159
385.50 2.158
385.60 2.158
385.70 2.156
385.80 2.155
385.90 2.153
386.00 2.151
386.10 2.149
386.20 2.146
386.30 2.142
386.40 2.139
386.50 2.135
386.60 2.13
386.70 2.126
386.80 2.121
386.90 2.115
387.00 2.109
387.10 2.103
387.20 2.096
387.30 2.088
387.40 2.081
387.50 2.073
387.60 2.064
387.70 2.056
387.80 2.046
387.90 2.037
388.00 2.027
388.10 2.017
388.20 2.006
388.30 1.996
388.40 1.985
388.50 1.975
388.60 1.965
388.70 1.956
388.80 1.95
388.90 1.945
389.00 1.948
389.10 1.952
389.20 1.959
389.30 1.967
389.40 1.976
389.50 1.985
389.60 1.993
389.70 2.002
389.80 2.011
389.90 2.019
390.00 2.027
390.10 2.035
390.20 2.042
390.30 2.049
390.40 2.056
390.50 2.062
390.60 2.068
390.70 2.073
390.80 2.078
390.90 2.083
391.00 2.088
391.10 2.092
391.20 2.095
391.30 2.099
391.40 2.102
391.50 2.104
391.60 2.106
391.70 2.108
391.80 2.11
391.90 2.111
392.00 2.112
392.10 2.112
392.20 2.112
392.30 2.112
392.40 2.111
392.50 2.11
392.60 2.108
392.70 2.107
392.80 2.105
392.90 2.102
393.00 2.099
393.10 2.096
393.20 2.092
393.30 2.088
393.40 2.084
393.50 2.079
393.60 2.073
393.70 2.068
393.80 2.062
393.90 2.055
394.00 2.048
394.10 2.041
394.20 2.033
394.30 2.025
394.40 2.016
394.50 2.007
394.60 1.997
394.70 1.987
394.80 1.976
394.90 1.965
395.00 1.953
395.10 1.941
395.20 1.928
395.30 1.915
395.40 1.901
395.50 1.887
395.60 1.871
395.70 1.856
395.80 1.84
395.90 1.823
396.00 1.806
396.10 1.788
396.20 1.77
396.30 1.751
396.40 1.732
396.50 1.712
396.60 1.692
396.70 1.672
396.80 1.651
396.90 1.632
397.00 1.613
397.10 1.628
397.20 1.644
397.30 1.662
397.40 1.68
397.50 1.698
397.60 1.715
397.70 1.732
397.80 1.749
397.90 1.765
398.00 1.78
398.10 1.795
398.20 1.81
398.30 1.823
398.40 1.837
398.50 1.85
398.60 1.862
398.70 1.874
398.80 1.885
398.90 1.895
399.00 1.906
399.10 1.916
399.20 1.925
399.30 1.934
399.40 1.942
399.50 1.95
399.60 1.958
399.70 1.965
399.80 1.972
399.90 1.979
400.00 1.985
400.10 1.991
400.20 1.996
400.30 2.002
400.40 2.006
400.50 2.011
400.60 2.015
400.70 2.019
400.80 2.023
400.90 2.026
401.00 2.03
401.10 2.032
401.20 2.035
401.30 2.038
401.40 2.04
401.50 2.042
401.60 2.043
401.70 2.045
401.80 2.046
401.90 2.047
402.00 2.048
402.10 2.049
402.20 2.049
402.30 2.05
402.40 2.05
402.50 2.05
402.60 2.05
402.70 2.049
402.80 2.049
402.90 2.048
403.00 2.047
403.10 2.046
403.20 2.044
403.30 2.043
403.40 2.041
403.50 2.039
403.60 2.037
403.70 2.035
403.80 2.033
403.90 2.03
404.00 2.028
404.10 2.025
404.20 2.022
404.30 2.019
404.40 2.015
404.50 2.012
404.60 2.008
404.70 2.004
404.80 2
404.90 1.995
405.00 1.991
405.10 1.986
405.20 1.981
405.30 1.976
405.40 1.97
405.50 1.964
405.60 1.958
405.70 1.952
405.80 1.946
405.90 1.939
406.00 1.932
406.10 1.925
406.20 1.917
406.30 1.91
406.40 1.901
406.50 1.893
406.60 1.884
406.70 1.875
406.80 1.866
406.90 1.856
407.00 1.846
407.10 1.836
407.20 1.825
407.30 1.813
407.40 1.802
407.50 1.79
407.60 1.777
407.70 1.765
407.80 1.751
407.90 1.737
408.00 1.723
408.10 1.709
408.20 1.693
408.30 1.677
408.40 1.661
408.50 1.644
408.60 1.626
408.70 1.608
408.80 1.59
408.90 1.57
409.00 1.55
409.10 1.529
409.20 1.507
409.30 1.485
409.40 1.461
409.50 1.437
409.60 1.412
409.70 1.386
409.80 1.359
409.90 1.332
410.00 1.308
410.10 1.293
410.20 1.289
410.30 1.299
410.40 1.316
410.50 1.341
410.60 1.365
410.70 1.389
410.80 1.413
410.90 1.435
411.00 1.456
411.10 1.477
411.20 1.496
411.30 1.515
411.40 1.533
411.50 1.55
411.60 1.566
411.70 1.582
411.80 1.597
411.90 1.612
412.00 1.625
412.10 1.639
412.20 1.651
412.30 1.663
412.40 1.675
412.50 1.686
412.60 1.697
412.70 1.707
412.80 1.716
412.90 1.726
413.00 1.735
413.10 1.743
413.20 1.751
413.30 1.759
413.40 1.766
413.50 1.773
413.60 1.78
413.70 1.786
413.80 1.792
413.90 1.798
414.00 1.803
414.10 1.809
414.20 1.813
414.30 1.818
414.40 1.823
414.50 1.827
414.60 1.831
414.70 1.834
414.80 1.838
414.90 1.841
415.00 1.844
415.10 1.847
415.20 1.85
415.30 1.853
415.40 1.855
415.50 1.857
415.60 1.859
415.70 1.861
415.80 1.863
415.90 1.865
416.00 1.866
416.10 1.868
416.20 1.869
416.30 1.87
416.40 1.871
416.50 1.872
416.60 1.873
416.70 1.874
416.80 1.875
416.90 1.875
417.00 1.876
417.10 1.876
417.20 1.876
417.30 1.877
417.40 1.877
417.50 1.877
417.60 1.877
417.70 1.877
417.80 1.877
417.90 1.877
418.00 1.877
418.10 1.876
418.20 1.876
418.30 1.876
418.40 1.875
418.50 1.875
418.60 1.874
418.70 1.874
418.80 1.873
418.90 1.872
419.00 1.872
419.10 1.871
419.20 1.87
419.30 1.869
419.40 1.869
419.50 1.868
419.60 1.867
419.70 1.866
419.80 1.865
419.90 1.864
420.00 1.863
420.10 1.862
420.20 1.861
420.30 1.86
420.40 1.858
420.50 1.857
420.60 1.856
420.70 1.855
420.80 1.854
420.90 1.852
421.00 1.851
421.10 1.85
421.20 1.848
421.30 1.847
421.40 1.846
421.50 1.844
421.60 1.843
421.70 1.841
421.80 1.84
421.90 1.838
422.00 1.837
422.10 1.835
422.20 1.834
422.30 1.832
422.40 1.83
422.50 1.829
422.60 1.827
422.70 1.826
422.80 1.824
422.90 1.822
423.00 1.82
423.10 1.819
423.20 1.817
423.30 1.815
423.40 1.813
423.50 1.811
423.60 1.81
423.70 1.808
423.80 1.806
423.90 1.804
424.00 1.802
424.10 1.8
424.20 1.798
424.30 1.796
424.40 1.794
424.50 1.792
424.60 1.79
424.70 1.788
424.80 1.785
424.90 1.783
425.00 1.781
425.10 1.779
425.20 1.776
425.30 1.774
425.40 1.772
425.50 1.769
425.60 1.767
425.70 1.764
425.80 1.762
425.90 1.759
426.00 1.757
426.10 1.754
426.20 1.751
426.30 1.748
426.40 1.745
426.50 1.743
426.60 1.74
426.70 1.737
426.80 1.733
426.90 1.73
427.00 1.727
427.10 1.724
427.20 1.72
427.30 1.717
427.40 1.713
427.50 1.71
427.60 1.706
427.70 1.702
427.80 1.698
427.90 1.694
428.00 1.69
428.10 1.686
428.20 1.682
428.30 1.677
428.40 1.673
428.50 1.668
428.60 1.663
428.70 1.658
428.80 1.653
428.90 1.648
429.00 1.642
429.10 1.637
429.20 1.631
429.30 1.625
429.40 1.619
429.50 1.613
429.60 1.606
429.70 1.6
429.80 1.593
429.90 1.586
430.00 1.579
430.10 1.571
430.20 1.564
430.30 1.556
430.40 1.548
430.50 1.539
430.60 1.531
430.70 1.522
430.80 1.513
430.90 1.504
431.00 1.494
431.10 1.484
431.20 1.474
431.30 1.463
431.40 1.452
431.50 1.441
431.60 1.429
431.70 1.417
431.80 1.405
431.90 1.392
432.00 1.378
432.10 1.365
432.20 1.35
432.30 1.336
432.40 1.32
432.50 1.304
432.60 1.288
432.70 1.271
432.80 1.253
432.90 1.235
433.00 1.216
433.10 1.195
433.20 1.174
433.30 1.152
433.40 1.129
433.50 1.104
433.60 1.079
433.70 1.051
433.80 1.023
433.90 0.9944
434.00 0.9592
434.10 0.9593
434.20 0.9945
434.30 1.022
434.40 1.048
434.50 1.074
434.60 1.098
434.70 1.12
434.80 1.142
434.90 1.162
435.00 1.181
435.10 1.199
435.20 1.216
435.30 1.232
435.40 1.248
435.50 1.263
435.60 1.277
435.70 1.291
435.80 1.303
435.90 1.316
436.00 1.328
436.10 1.339
436.20 1.35
436.30 1.36
436.40 1.37
436.50 1.38
436.60 1.389
436.70 1.397
436.80 1.406
436.90 1.414
437.00 1.421
437.10 1.429
437.20 1.436
437.30 1.442
437.40 1.449
437.50 1.455
437.60 1.46
437.70 1.466
437.80 1.471
437.90 1.476
438.00 1.481
438.10 1.486
438.20 1.49
438.30 1.494
438.40 1.498
438.50 1.502
438.60 1.506
438.70 1.509
438.80 1.512
438.90 1.515
439.00 1.518
439.10 1.521
439.20 1.523
439.30 1.526
439.40 1.528
439.50 1.53
439.60 1.532
439.70 1.534
439.80 1.535
439.90 1.537
440.00 1.538
440.10 1.54
440.20 1.541
440.30 1.542
440.40 1.543
440.50 1.544
440.60 1.545
440.70 1.546
440.80 1.546
440.90 1.547
441.00 1.547
441.10 1.548
441.20 1.548
441.30 1.548
441.40 1.549
441.50 1.549
441.60 1.549
441.70 1.549
441.80 1.549
441.90 1.549
442.00 1.549
442.10 1.549
442.20 1.549
442.30 1.548
442.40 1.548
442.50 1.548
442.60 1.548
442.70 1.547
442.80 1.547
442.90 1.546
443.00 1.546
443.10 1.546
443.20 1.545
443.30 1.545
443.40 1.544
443.50 1.543
443.60 1.543
443.70 1.542
443.80 1.541
443.90 1.541
444.00 1.54
444.10 1.539
444.20 1.539
444.30 1.538
444.40 1.537
444.50 1.536
444.60 1.536
444.70 1.535
444.80 1.534
444.90 1.533
445.00 1.532
445.10 1.532
445.20 1.531
445.30 1.53
445.40 1.529
445.50 1.528
445.60 1.527
445.70 1.526
445.80 1.525
445.90 1.524
446.00 1.524
446.10 1.523
446.20 1.522
446.30 1.521
446.40 1.52
446.50 1.519
446.60 1.518
446.70 1.517
446.80 1.516
446.90 1.515
447.00 1.514
447.10 1.513
447.20 1.512
447.30 1.511
447.40 1.51
447.50 1.509
447.60 1.508
447.70 1.507
447.80 1.506
447.90 1.505
448.00 1.504
448.10 1.502
448.20 1.501
448.30 1.5
448.40 1.499
448.50 1.498
448.60 1.497
448.70 1.496
448.80 1.495
448.90 1.494
449.00 1.493
449.10 1.492
449.20 1.491
449.30 1.49
449.40 1.489
449.50 1.487
449.60 1.486
449.70 1.485
449.80 1.484
449.90 1.483
450.00 1.482
450.10 1.481
450.20 1.48
450.30 1.479
450.40 1.478
450.50 1.476
450.60 1.475
450.70 1.474
450.80 1.473
450.90 1.472
451.00 1.471
451.10 1.47
451.20 1.469
451.30 1.468
451.40 1.466
451.50 1.465
451.60 1.464
451.70 1.463
451.80 1.462
451.90 1.461
452.00 1.46
452.10 1.459
452.20 1.457
452.30 1.456
452.40 1.455
452.50 1.454
452.60 1.453
452.70 1.452
452.80 1.451
452.90 1.45
453.00 1.448
453.10 1.447
453.20 1.446
453.30 1.445
453.40 1.444
453.50 1.443
453.60 1.442
453.70 1.44
453.80 1.439
453.90 1.438
454.00 1.437
454.10 1.436
454.20 1.435
