# Version 2.1 - nm, norm@500 to 1, cut digits, bergeron_3000_65.dat_3000
# Wavelength(nm)  Flambda(ergs/cm^s/s/nm)
300.00 0.05583
300.10 0.056
300.20 0.05618
300.30 0.05635
300.40 0.05653
300.50 0.05671
300.60 0.05688
300.70 0.05706
300.80 0.05723
300.90 0.05741
301.00 0.05759
301.10 0.05776
301.20 0.05794
301.30 0.05811
301.40 0.05828
301.50 0.05846
301.60 0.05863
301.70 0.05881
301.80 0.05898
301.90 0.05915
302.00 0.05933
302.10 0.05951
302.20 0.05969
302.30 0.05988
302.40 0.06006
302.50 0.06025
302.60 0.06043
302.70 0.06061
302.80 0.06079
302.90 0.06098
303.00 0.06116
303.10 0.06134
303.20 0.06152
303.30 0.06171
303.40 0.06189
303.50 0.06207
303.60 0.06225
303.70 0.06243
303.80 0.06261
303.90 0.06279
304.00 0.06298
304.10 0.06317
304.20 0.06336
304.30 0.06355
304.40 0.06374
304.50 0.06393
304.60 0.06412
304.70 0.06431
304.80 0.0645
304.90 0.06469
305.00 0.06488
305.10 0.06507
305.20 0.06526
305.30 0.06545
305.40 0.06564
305.50 0.06583
305.60 0.06601
305.70 0.0662
305.80 0.06639
305.90 0.06658
306.00 0.06677
306.10 0.06697
306.20 0.06716
306.30 0.06736
306.40 0.06756
306.50 0.06776
306.60 0.06796
306.70 0.06816
306.80 0.06835
306.90 0.06855
307.00 0.06875
307.10 0.06895
307.20 0.06914
307.30 0.06934
307.40 0.06954
307.50 0.06973
307.60 0.06993
307.70 0.07012
307.80 0.07032
307.90 0.07051
308.00 0.07072
308.10 0.07092
308.20 0.07112
308.30 0.07133
308.40 0.07154
308.50 0.07174
308.60 0.07195
308.70 0.07215
308.80 0.07236
308.90 0.07256
309.00 0.07277
309.10 0.07297
309.20 0.07318
309.30 0.07338
309.40 0.07358
309.50 0.07379
309.60 0.07399
309.70 0.07419
309.80 0.0744
309.90 0.0746
310.00 0.07481
310.10 0.07502
310.20 0.07523
310.30 0.07545
310.40 0.07566
310.50 0.07588
310.60 0.07609
310.70 0.0763
310.80 0.07652
310.90 0.07673
311.00 0.07694
311.10 0.07716
311.20 0.07737
311.30 0.07758
311.40 0.07779
311.50 0.07801
311.60 0.07822
311.70 0.07843
311.80 0.07864
311.90 0.07885
312.00 0.07906
312.10 0.07927
312.20 0.07948
312.30 0.0797
312.40 0.07992
312.50 0.08015
312.60 0.08037
312.70 0.08059
312.80 0.08081
312.90 0.08103
313.00 0.08125
313.10 0.08147
313.20 0.08169
313.30 0.08191
313.40 0.08213
313.50 0.08235
313.60 0.08257
313.70 0.08279
313.80 0.08301
313.90 0.08323
314.00 0.08345
314.10 0.08368
314.20 0.08391
314.30 0.08414
314.40 0.08437
314.50 0.0846
314.60 0.08482
314.70 0.08505
314.80 0.08528
314.90 0.08551
315.00 0.08574
315.10 0.08596
315.20 0.08619
315.30 0.08642
315.40 0.08665
315.50 0.08687
315.60 0.0871
315.70 0.08732
315.80 0.08755
315.90 0.08778
316.00 0.08801
316.10 0.08824
316.20 0.08848
316.30 0.08871
316.40 0.08895
316.50 0.08919
316.60 0.08943
316.70 0.08966
316.80 0.0899
316.90 0.09014
317.00 0.09037
317.10 0.09061
317.20 0.09084
317.30 0.09108
317.40 0.09131
317.50 0.09154
317.60 0.09178
317.70 0.09201
317.80 0.09225
317.90 0.09248
318.00 0.09272
318.10 0.09296
318.20 0.0932
318.30 0.09345
318.40 0.0937
318.50 0.09394
318.60 0.09419
318.70 0.09443
318.80 0.09467
318.90 0.09492
319.00 0.09516
319.10 0.0954
319.20 0.09565
319.30 0.09589
319.40 0.09613
319.50 0.09637
319.60 0.09662
319.70 0.09686
319.80 0.0971
319.90 0.09734
320.00 0.09759
320.10 0.09784
320.20 0.09809
320.30 0.09834
320.40 0.09859
320.50 0.09885
320.60 0.0991
320.70 0.09935
320.80 0.0996
320.90 0.09985
321.00 0.1001
321.10 0.1004
321.20 0.1006
321.30 0.1009
321.40 0.1011
321.50 0.1014
321.60 0.1016
321.70 0.1019
321.80 0.1021
321.90 0.1023
322.00 0.1026
322.10 0.1029
322.20 0.1031
322.30 0.1034
322.40 0.1036
322.50 0.1039
322.60 0.1042
322.70 0.1044
322.80 0.1047
322.90 0.1049
323.00 0.1052
323.10 0.1055
323.20 0.1057
323.30 0.106
323.40 0.1062
323.50 0.1065
323.60 0.1068
323.70 0.107
323.80 0.1073
323.90 0.1075
324.00 0.1078
324.10 0.1081
324.20 0.1083
324.30 0.1086
324.40 0.1089
324.50 0.1091
324.60 0.1094
324.70 0.1097
324.80 0.1099
324.90 0.1102
325.00 0.1105
325.10 0.1107
325.20 0.111
325.30 0.1113
325.40 0.1115
325.50 0.1118
325.60 0.1121
325.70 0.1123
325.80 0.1126
325.90 0.1129
326.00 0.1131
326.10 0.1134
326.20 0.1137
326.30 0.114
326.40 0.1142
326.50 0.1145
326.60 0.1148
326.70 0.1151
326.80 0.1153
326.90 0.1156
327.00 0.1159
327.10 0.1162
327.20 0.1164
327.30 0.1167
327.40 0.117
327.50 0.1173
327.60 0.1175
327.70 0.1178
327.80 0.1181
327.90 0.1184
328.00 0.1186
328.10 0.1189
328.20 0.1192
328.30 0.1195
328.40 0.1198
328.50 0.1201
328.60 0.1203
328.70 0.1206
328.80 0.1209
328.90 0.1212
329.00 0.1215
329.10 0.1218
329.20 0.122
329.30 0.1223
329.40 0.1226
329.50 0.1229
329.60 0.1232
329.70 0.1234
329.80 0.1237
329.90 0.124
330.00 0.1243
330.10 0.1246
330.20 0.1249
330.30 0.1252
330.40 0.1255
330.50 0.1258
330.60 0.126
330.70 0.1263
330.80 0.1266
330.90 0.1269
331.00 0.1272
331.10 0.1275
331.20 0.1278
331.30 0.1281
331.40 0.1284
331.50 0.1287
331.60 0.129
331.70 0.1292
331.80 0.1295
331.90 0.1298
332.00 0.1301
332.10 0.1304
332.20 0.1307
332.30 0.131
332.40 0.1313
332.50 0.1316
332.60 0.1319
332.70 0.1322
332.80 0.1325
332.90 0.1328
333.00 0.1331
333.10 0.1334
333.20 0.1337
333.30 0.134
333.40 0.1343
333.50 0.1346
333.60 0.1349
333.70 0.1352
333.80 0.1355
333.90 0.1358
334.00 0.1361
334.10 0.1364
334.20 0.1367
334.30 0.137
334.40 0.1373
334.50 0.1376
334.60 0.1379
334.70 0.1383
334.80 0.1386
334.90 0.1389
335.00 0.1392
335.10 0.1395
335.20 0.1398
335.30 0.1401
335.40 0.1404
335.50 0.1407
335.60 0.141
335.70 0.1413
335.80 0.1416
335.90 0.1419
336.00 0.1422
336.10 0.1425
336.20 0.1429
336.30 0.1432
336.40 0.1435
336.50 0.1438
336.60 0.1441
336.70 0.1444
336.80 0.1448
336.90 0.1451
337.00 0.1454
337.10 0.1457
337.20 0.146
337.30 0.1463
337.40 0.1467
337.50 0.147
337.60 0.1473
337.70 0.1476
337.80 0.1479
337.90 0.1482
338.00 0.1485
338.10 0.1489
338.20 0.1492
338.30 0.1495
338.40 0.1498
338.50 0.1502
338.60 0.1505
338.70 0.1508
338.80 0.1511
338.90 0.1514
339.00 0.1518
339.10 0.1521
339.20 0.1524
339.30 0.1527
339.40 0.1531
339.50 0.1534
339.60 0.1537
339.70 0.154
339.80 0.1543
339.90 0.1547
340.00 0.155
340.10 0.1553
340.20 0.1556
340.30 0.156
340.40 0.1563
340.50 0.1566
340.60 0.157
340.70 0.1573
340.80 0.1576
340.90 0.158
341.00 0.1583
341.10 0.1586
341.20 0.159
341.30 0.1593
341.40 0.1596
341.50 0.16
341.60 0.1603
341.70 0.1606
341.80 0.1609
341.90 0.1613
342.00 0.1616
342.10 0.1619
342.20 0.1623
342.30 0.1626
342.40 0.163
342.50 0.1633
342.60 0.1636
342.70 0.164
342.80 0.1643
342.90 0.1647
343.00 0.165
343.10 0.1653
343.20 0.1657
343.30 0.166
343.40 0.1664
343.50 0.1667
343.60 0.167
343.70 0.1674
343.80 0.1677
343.90 0.168
344.00 0.1684
344.10 0.1687
344.20 0.1691
344.30 0.1694
344.40 0.1698
344.50 0.1701
344.60 0.1705
344.70 0.1708
344.80 0.1712
344.90 0.1715
345.00 0.1719
345.10 0.1722
345.20 0.1725
345.30 0.1729
345.40 0.1732
345.50 0.1736
345.60 0.1739
345.70 0.1743
345.80 0.1746
345.90 0.175
346.00 0.1753
346.10 0.1757
346.20 0.176
346.30 0.1764
346.40 0.1767
346.50 0.1771
346.60 0.1774
346.70 0.1778
346.80 0.1782
346.90 0.1785
347.00 0.1789
347.10 0.1792
347.20 0.1796
347.30 0.1799
347.40 0.1803
347.50 0.1806
347.60 0.181
347.70 0.1813
347.80 0.1817
347.90 0.182
348.00 0.1824
348.10 0.1828
348.20 0.1831
348.30 0.1835
348.40 0.1838
348.50 0.1842
348.60 0.1846
348.70 0.1849
348.80 0.1853
348.90 0.1857
349.00 0.186
349.10 0.1864
349.20 0.1867
349.30 0.1871
349.40 0.1875
349.50 0.1878
349.60 0.1882
349.70 0.1885
349.80 0.1889
349.90 0.1893
350.00 0.1896
350.10 0.19
350.20 0.1904
350.30 0.1907
350.40 0.1911
350.50 0.1915
350.60 0.1919
350.70 0.1922
350.80 0.1926
350.90 0.193
351.00 0.1933
351.10 0.1937
351.20 0.1941
351.30 0.1945
351.40 0.1948
351.50 0.1952
351.60 0.1956
351.70 0.1959
351.80 0.1963
351.90 0.1967
352.00 0.197
352.10 0.1974
352.20 0.1978
352.30 0.1982
352.40 0.1985
352.50 0.1989
352.60 0.1993
352.70 0.1997
352.80 0.2001
352.90 0.2004
353.00 0.2008
353.10 0.2012
353.20 0.2016
353.30 0.2019
353.40 0.2023
353.50 0.2027
353.60 0.2031
353.70 0.2034
353.80 0.2038
353.90 0.2042
354.00 0.2046
354.10 0.2049
354.20 0.2053
354.30 0.2057
354.40 0.2061
354.50 0.2065
354.60 0.2069
354.70 0.2073
354.80 0.2077
354.90 0.208
355.00 0.2084
355.10 0.2088
355.20 0.2092
355.30 0.2096
355.40 0.21
355.50 0.2104
355.60 0.2107
355.70 0.2111
355.80 0.2115
355.90 0.2119
356.00 0.2123
356.10 0.2127
356.20 0.2131
356.30 0.2134
356.40 0.2138
356.50 0.2142
356.60 0.2146
356.70 0.215
356.80 0.2154
356.90 0.2158
357.00 0.2162
357.10 0.2166
357.20 0.217
357.30 0.2174
357.40 0.2178
357.50 0.2182
357.60 0.2186
357.70 0.2189
357.80 0.2193
357.90 0.2197
358.00 0.2201
358.10 0.2205
358.20 0.2209
358.30 0.2213
358.40 0.2217
358.50 0.2221
358.60 0.2225
358.70 0.2229
358.80 0.2233
358.90 0.2237
359.00 0.2241
359.10 0.2245
359.20 0.2249
359.30 0.2253
359.40 0.2257
359.50 0.2261
359.60 0.2265
359.70 0.2269
359.80 0.2273
359.90 0.2277
360.00 0.2281
360.10 0.2285
360.20 0.2289
360.30 0.2293
360.40 0.2297
360.50 0.2301
360.60 0.2306
360.70 0.231
360.80 0.2314
360.90 0.2318
361.00 0.2322
361.10 0.2326
361.20 0.233
361.30 0.2334
361.40 0.2338
361.50 0.2342
361.60 0.2346
361.70 0.235
361.80 0.2354
361.90 0.2358
362.00 0.2362
362.10 0.2366
362.20 0.2371
362.30 0.2375
362.40 0.2379
362.50 0.2383
362.60 0.2387
362.70 0.2391
362.80 0.2395
362.90 0.2399
363.00 0.2404
363.10 0.2408
363.20 0.2412
363.30 0.2416
363.40 0.242
363.50 0.2425
363.60 0.2429
363.70 0.2433
363.80 0.2437
363.90 0.2441
364.00 0.2445
364.10 0.245
364.20 0.2454
364.30 0.2458
364.40 0.2462
364.50 0.2466
364.60 0.247
364.70 0.2475
364.80 0.2479
364.90 0.2483
365.00 0.2487
365.10 0.2492
365.20 0.2496
365.30 0.25
365.40 0.2504
365.50 0.2508
365.60 0.2513
365.70 0.2517
365.80 0.2521
365.90 0.2525
366.00 0.2529
366.10 0.2534
366.20 0.2538
366.30 0.2542
366.40 0.2547
366.50 0.2551
366.60 0.2555
366.70 0.256
366.80 0.2564
366.90 0.2568
367.00 0.2573
367.10 0.2577
367.20 0.2581
367.30 0.2585
367.40 0.259
367.50 0.2594
367.60 0.2598
367.70 0.2602
367.80 0.2607
367.90 0.2611
368.00 0.2615
368.10 0.2619
368.20 0.2624
368.30 0.2628
368.40 0.2633
368.50 0.2637
368.60 0.2641
368.70 0.2646
368.80 0.265
368.90 0.2655
369.00 0.2659
369.10 0.2663
369.20 0.2668
369.30 0.2672
369.40 0.2676
369.50 0.2681
369.60 0.2685
369.70 0.2689
369.80 0.2694
369.90 0.2698
370.00 0.2702
370.10 0.2707
370.20 0.2711
370.30 0.2716
370.40 0.272
370.50 0.2724
370.60 0.2729
370.70 0.2733
370.80 0.2738
370.90 0.2742
371.00 0.2747
371.10 0.2751
371.20 0.2755
371.30 0.276
371.40 0.2764
371.50 0.2769
371.60 0.2773
371.70 0.2777
371.80 0.2782
371.90 0.2786
372.00 0.2791
372.10 0.2795
372.20 0.28
372.30 0.2804
372.40 0.2809
372.50 0.2813
372.60 0.2818
372.70 0.2822
372.80 0.2827
372.90 0.2831
373.00 0.2836
373.10 0.284
373.20 0.2845
373.30 0.2849
373.40 0.2854
373.50 0.2858
373.60 0.2863
373.70 0.2867
373.80 0.2871
373.90 0.2876
374.00 0.288
374.10 0.2885
374.20 0.289
374.30 0.2894
374.40 0.2899
374.50 0.2903
374.60 0.2908
374.70 0.2912
374.80 0.2917
374.90 0.2922
375.00 0.2926
375.10 0.2931
375.20 0.2935
375.30 0.294
375.40 0.2944
375.50 0.2949
375.60 0.2953
375.70 0.2958
375.80 0.2962
375.90 0.2967
376.00 0.2971
376.10 0.2976
376.20 0.2981
376.30 0.2985
376.40 0.299
376.50 0.2994
376.60 0.2999
376.70 0.3004
376.80 0.3008
376.90 0.3013
377.00 0.3017
377.10 0.3022
377.20 0.3027
377.30 0.3031
377.40 0.3036
377.50 0.3041
377.60 0.3045
377.70 0.305
377.80 0.3055
377.90 0.3059
378.00 0.3064
378.10 0.3068
378.20 0.3073
378.30 0.3078
378.40 0.3082
378.50 0.3087
378.60 0.3092
378.70 0.3096
378.80 0.3101
378.90 0.3106
379.00 0.311
379.10 0.3115
379.20 0.312
379.30 0.3125
379.40 0.3129
379.50 0.3134
379.60 0.3139
379.70 0.3143
379.80 0.3148
379.90 0.3153
380.00 0.3157
380.10 0.3162
380.20 0.3167
380.30 0.3172
380.40 0.3176
380.50 0.3181
380.60 0.3186
380.70 0.3191
380.80 0.3195
380.90 0.32
381.00 0.3205
381.10 0.3209
381.20 0.3214
381.30 0.3219
381.40 0.3224
381.50 0.3228
381.60 0.3233
381.70 0.3238
381.80 0.3243
381.90 0.3247
382.00 0.3252
382.10 0.3257
382.20 0.3262
382.30 0.3267
382.40 0.3271
382.50 0.3276
382.60 0.3281
382.70 0.3286
382.80 0.3291
382.90 0.3295
383.00 0.33
383.10 0.3305
383.20 0.331
383.30 0.3315
383.40 0.3319
383.50 0.3324
383.60 0.3329
383.70 0.3334
383.80 0.3339
383.90 0.3344
384.00 0.3348
384.10 0.3353
384.20 0.3358
384.30 0.3363
384.40 0.3368
384.50 0.3373
384.60 0.3377
384.70 0.3382
384.80 0.3387
384.90 0.3392
385.00 0.3397
385.10 0.3402
385.20 0.3407
385.30 0.3411
385.40 0.3416
385.50 0.3421
385.60 0.3426
385.70 0.3431
385.80 0.3436
385.90 0.3441
386.00 0.3446
386.10 0.3451
386.20 0.3455
386.30 0.346
386.40 0.3465
386.50 0.347
386.60 0.3475
386.70 0.348
386.80 0.3485
386.90 0.349
387.00 0.3495
387.10 0.35
387.20 0.3505
387.30 0.3509
387.40 0.3514
387.50 0.3519
387.60 0.3524
387.70 0.3529
387.80 0.3534
387.90 0.3539
388.00 0.3544
388.10 0.3549
388.20 0.3554
388.30 0.3559
388.40 0.3564
388.50 0.3569
388.60 0.3574
388.70 0.3579
388.80 0.3584
388.90 0.3589
389.00 0.3594
389.10 0.3599
389.20 0.3604
389.30 0.3609
389.40 0.3614
389.50 0.3619
389.60 0.3624
389.70 0.3629
389.80 0.3634
389.90 0.3639
390.00 0.3644
390.10 0.3649
390.20 0.3654
390.30 0.3659
390.40 0.3664
390.50 0.3669
390.60 0.3674
390.70 0.3679
390.80 0.3684
390.90 0.3689
391.00 0.3694
391.10 0.3699
391.20 0.3704
391.30 0.3709
391.40 0.3714
391.50 0.3719
391.60 0.3724
391.70 0.3729
391.80 0.3734
391.90 0.3739
392.00 0.3744
392.10 0.3749
392.20 0.3754
392.30 0.3759
392.40 0.3765
392.50 0.377
392.60 0.3775
392.70 0.378
392.80 0.3785
392.90 0.379
393.00 0.3795
393.10 0.38
393.20 0.3805
393.30 0.381
393.40 0.3815
393.50 0.3821
393.60 0.3826
393.70 0.3831
393.80 0.3836
393.90 0.3841
394.00 0.3846
394.10 0.3851
394.20 0.3856
394.30 0.3861
394.40 0.3867
394.50 0.3872
394.60 0.3877
394.70 0.3882
394.80 0.3887
394.90 0.3892
395.00 0.3897
395.10 0.3903
395.20 0.3908
395.30 0.3913
395.40 0.3918
395.50 0.3923
395.60 0.3928
395.70 0.3933
395.80 0.3939
395.90 0.3944
396.00 0.3949
396.10 0.3954
396.20 0.3959
396.30 0.3964
396.40 0.397
396.50 0.3975
396.60 0.398
396.70 0.3985
396.80 0.399
396.90 0.3996
397.00 0.4001
397.10 0.4006
397.20 0.4011
397.30 0.4016
397.40 0.4021
397.50 0.4027
397.60 0.4032
397.70 0.4037
397.80 0.4042
397.90 0.4048
398.00 0.4053
398.10 0.4058
398.20 0.4063
398.30 0.4068
398.40 0.4074
398.50 0.4079
398.60 0.4084
398.70 0.4089
398.80 0.4095
398.90 0.41
399.00 0.4105
399.10 0.411
399.20 0.4116
399.30 0.4121
399.40 0.4126
399.50 0.4131
399.60 0.4137
399.70 0.4142
399.80 0.4147
399.90 0.4152
400.00 0.4158
400.10 0.4163
400.20 0.4168
400.30 0.4173
400.40 0.4179
400.50 0.4184
400.60 0.4189
400.70 0.4194
400.80 0.42
400.90 0.4205
401.00 0.421
401.10 0.4216
401.20 0.4221
401.30 0.4226
401.40 0.4232
401.50 0.4237
401.60 0.4242
401.70 0.4247
401.80 0.4253
401.90 0.4258
402.00 0.4263
402.10 0.4269
402.20 0.4274
402.30 0.4279
402.40 0.4285
402.50 0.429
402.60 0.4295
402.70 0.4301
402.80 0.4306
402.90 0.4311
403.00 0.4317
403.10 0.4322
403.20 0.4327
403.30 0.4333
403.40 0.4338
403.50 0.4343
403.60 0.4349
403.70 0.4354
403.80 0.4359
403.90 0.4365
404.00 0.437
404.10 0.4375
404.20 0.4381
404.30 0.4386
404.40 0.4392
404.50 0.4397
404.60 0.4402
404.70 0.4408
404.80 0.4413
404.90 0.4418
405.00 0.4424
405.10 0.4429
405.20 0.4435
405.30 0.444
405.40 0.4445
405.50 0.4451
405.60 0.4456
405.70 0.4462
405.80 0.4467
405.90 0.4472
406.00 0.4478
406.10 0.4483
406.20 0.4489
406.30 0.4494
406.40 0.4499
406.50 0.4505
406.60 0.451
406.70 0.4516
406.80 0.4521
406.90 0.4526
407.00 0.4532
407.10 0.4537
407.20 0.4543
407.30 0.4548
407.40 0.4554
407.50 0.4559
407.60 0.4564
407.70 0.457
407.80 0.4575
407.90 0.4581
408.00 0.4586
408.10 0.4592
408.20 0.4597
408.30 0.4603
408.40 0.4608
408.50 0.4613
408.60 0.4619
408.70 0.4624
408.80 0.463
408.90 0.4635
409.00 0.4641
409.10 0.4646
409.20 0.4652
409.30 0.4657
409.40 0.4663
409.50 0.4668
409.60 0.4674
409.70 0.4679
409.80 0.4685
409.90 0.469
410.00 0.4696
410.10 0.4701
410.20 0.4707
410.30 0.4712
410.40 0.4718
410.50 0.4723
410.60 0.4729
410.70 0.4734
410.80 0.474
410.90 0.4745
411.00 0.4751
411.10 0.4756
411.20 0.4762
411.30 0.4767
411.40 0.4773
411.50 0.4778
411.60 0.4784
411.70 0.4789
411.80 0.4795
411.90 0.48
412.00 0.4806
412.10 0.4811
412.20 0.4817
412.30 0.4822
412.40 0.4828
412.50 0.4833
412.60 0.4839
412.70 0.4844
412.80 0.485
412.90 0.4856
413.00 0.4861
413.10 0.4867
413.20 0.4872
413.30 0.4878
413.40 0.4883
413.50 0.4889
413.60 0.4894
413.70 0.49
413.80 0.4906
413.90 0.4911
414.00 0.4917
414.10 0.4922
414.20 0.4928
414.30 0.4933
414.40 0.4939
414.50 0.4945
414.60 0.495
414.70 0.4956
414.80 0.4961
414.90 0.4967
415.00 0.4972
415.10 0.4978
415.20 0.4984
415.30 0.4989
415.40 0.4995
415.50 0.5
415.60 0.5006
415.70 0.5012
415.80 0.5017
415.90 0.5023
416.00 0.5028
416.10 0.5034
416.20 0.504
416.30 0.5045
416.40 0.5051
416.50 0.5056
416.60 0.5062
416.70 0.5068
416.80 0.5073
416.90 0.5079
417.00 0.5085
417.10 0.509
417.20 0.5096
417.30 0.5101
417.40 0.5107
417.50 0.5113
417.60 0.5118
417.70 0.5124
417.80 0.513
417.90 0.5135
418.00 0.5141
418.10 0.5146
418.20 0.5152
418.30 0.5158
418.40 0.5163
418.50 0.5169
418.60 0.5175
418.70 0.518
418.80 0.5186
418.90 0.5192
419.00 0.5197
419.10 0.5203
419.20 0.5209
419.30 0.5214
419.40 0.522
419.50 0.5226
419.60 0.5231
419.70 0.5237
419.80 0.5243
419.90 0.5248
420.00 0.5254
420.10 0.526
420.20 0.5265
420.30 0.5271
420.40 0.5277
420.50 0.5282
420.60 0.5288
420.70 0.5293
420.80 0.5299
420.90 0.5305
421.00 0.5311
421.10 0.5316
421.20 0.5322
421.30 0.5328
421.40 0.5333
421.50 0.5339
421.60 0.5345
421.70 0.535
421.80 0.5356
421.90 0.5362
422.00 0.5368
422.10 0.5373
422.20 0.5379
422.30 0.5385
422.40 0.5391
422.50 0.5396
422.60 0.5402
422.70 0.5407
422.80 0.5413
422.90 0.5419
423.00 0.5425
423.10 0.543
423.20 0.5436
423.30 0.5442
423.40 0.5448
423.50 0.5453
423.60 0.5459
423.70 0.5465
423.80 0.5471
423.90 0.5476
424.00 0.5482
424.10 0.5488
424.20 0.5493
424.30 0.5499
424.40 0.5505
424.50 0.5511
424.60 0.5517
424.70 0.5522
424.80 0.5528
424.90 0.5533
425.00 0.5539
425.10 0.5545
425.20 0.5551
425.30 0.5557
425.40 0.5563
425.50 0.5568
425.60 0.5574
425.70 0.558
425.80 0.5586
425.90 0.5591
426.00 0.5597
426.10 0.5603
426.20 0.5609
426.30 0.5614
426.40 0.562
426.50 0.5626
426.60 0.5632
426.70 0.5638
426.80 0.5643
426.90 0.5649
427.00 0.5655
427.10 0.5661
427.20 0.5666
427.30 0.5672
427.40 0.5678
427.50 0.5683
427.60 0.5689
427.70 0.5695
427.80 0.5701
427.90 0.5707
428.00 0.5712
428.10 0.5718
428.20 0.5724
428.30 0.573
428.40 0.5736
428.50 0.5741
428.60 0.5747
428.70 0.5753
428.80 0.5759
428.90 0.5765
429.00 0.5771
429.10 0.5776
429.20 0.5782
429.30 0.5788
429.40 0.5794
429.50 0.58
429.60 0.5805
429.70 0.5811
429.80 0.5817
429.90 0.5823
430.00 0.5829
430.10 0.5834
430.20 0.584
430.30 0.5846
430.40 0.5852
430.50 0.5858
430.60 0.5864
430.70 0.587
430.80 0.5875
430.90 0.5881
431.00 0.5887
431.10 0.5893
431.20 0.5898
431.30 0.5904
431.40 0.591
431.50 0.5916
431.60 0.5922
431.70 0.5928
431.80 0.5933
431.90 0.5939
432.00 0.5945
432.10 0.5951
432.20 0.5957
432.30 0.5963
432.40 0.5969
432.50 0.5974
432.60 0.598
432.70 0.5986
432.80 0.5992
432.90 0.5998
433.00 0.6004
433.10 0.6009
433.20 0.6015
433.30 0.6021
433.40 0.6027
433.50 0.6033
433.60 0.6039
433.70 0.6045
433.80 0.6051
433.90 0.6056
434.00 0.6062
434.10 0.6068
434.20 0.6074
434.30 0.608
434.40 0.6086
434.50 0.6091
434.60 0.6097
434.70 0.6103
434.80 0.6109
434.90 0.6115
435.00 0.6121
435.10 0.6127
435.20 0.6133
435.30 0.6139
435.40 0.6144
435.50 0.615
435.60 0.6156
435.70 0.6162
435.80 0.6168
435.90 0.6174
436.00 0.618
436.10 0.6186
436.20 0.6192
436.30 0.6198
436.40 0.6203
436.50 0.6209
436.60 0.6215
436.70 0.6221
436.80 0.6227
436.90 0.6233
437.00 0.6239
437.10 0.6245
437.20 0.6251
437.30 0.6256
437.40 0.6262
437.50 0.6268
437.60 0.6274
437.70 0.628
437.80 0.6286
437.90 0.6292
438.00 0.6298
438.10 0.6303
438.20 0.631
438.30 0.6316
438.40 0.6321
438.50 0.6327
438.60 0.6333
438.70 0.6339
438.80 0.6345
438.90 0.6351
439.00 0.6357
439.10 0.6362
439.20 0.6368
439.30 0.6375
439.40 0.638
439.50 0.6386
439.60 0.6392
439.70 0.6398
439.80 0.6404
439.90 0.641
440.00 0.6416
440.10 0.6422
440.20 0.6428
440.30 0.6434
440.40 0.644
440.50 0.6445
440.60 0.6451
440.70 0.6457
440.80 0.6463
440.90 0.6469
441.00 0.6475
441.10 0.6481
441.20 0.6487
441.30 0.6493
441.40 0.6499
441.50 0.6505
