# Version 2.1 - nm, norm@500 to 1, cut digits, bergeron_12500_75.dat_12500
# Wavelength(nm)  Flambda(ergs/cm^s/s/nm)
300.00 1.73
300.10 1.729
300.20 1.728
300.30 1.727
300.40 1.726
300.50 1.725
300.60 1.724
300.70 1.722
300.80 1.721
300.90 1.72
301.00 1.719
301.10 1.718
301.20 1.717
301.30 1.716
301.40 1.715
301.50 1.714
301.60 1.712
301.70 1.711
301.80 1.71
301.90 1.709
302.00 1.708
302.10 1.707
302.20 1.706
302.30 1.705
302.40 1.704
302.50 1.703
302.60 1.701
302.70 1.7
302.80 1.699
302.90 1.698
303.00 1.697
303.10 1.696
303.20 1.695
303.30 1.694
303.40 1.693
303.50 1.692
303.60 1.69
303.70 1.689
303.80 1.688
303.90 1.687
304.00 1.686
304.10 1.685
304.20 1.684
304.30 1.683
304.40 1.682
304.50 1.681
304.60 1.68
304.70 1.679
304.80 1.677
304.90 1.676
305.00 1.675
305.10 1.674
305.20 1.673
305.30 1.672
305.40 1.671
305.50 1.67
305.60 1.669
305.70 1.668
305.80 1.667
305.90 1.666
306.00 1.665
306.10 1.664
306.20 1.662
306.30 1.661
306.40 1.66
306.50 1.659
306.60 1.658
306.70 1.657
306.80 1.656
306.90 1.655
307.00 1.654
307.10 1.653
307.20 1.652
307.30 1.651
307.40 1.65
307.50 1.649
307.60 1.648
307.70 1.647
307.80 1.646
307.90 1.645
308.00 1.643
308.10 1.642
308.20 1.641
308.30 1.64
308.40 1.639
308.50 1.638
308.60 1.637
308.70 1.636
308.80 1.635
308.90 1.634
309.00 1.633
309.10 1.632
309.20 1.631
309.30 1.63
309.40 1.629
309.50 1.628
309.60 1.627
309.70 1.626
309.80 1.625
309.90 1.624
310.00 1.623
310.10 1.622
310.20 1.621
310.30 1.62
310.40 1.619
310.50 1.618
310.60 1.617
310.70 1.616
310.80 1.614
310.90 1.613
311.00 1.612
311.10 1.611
311.20 1.61
311.30 1.609
311.40 1.608
311.50 1.607
311.60 1.606
311.70 1.605
311.80 1.604
311.90 1.603
312.00 1.602
312.10 1.601
312.20 1.6
312.30 1.599
312.40 1.598
312.50 1.597
312.60 1.596
312.70 1.595
312.80 1.594
312.90 1.593
313.00 1.592
313.10 1.591
313.20 1.59
313.30 1.589
313.40 1.588
313.50 1.587
313.60 1.586
313.70 1.585
313.80 1.584
313.90 1.583
314.00 1.582
314.10 1.581
314.20 1.58
314.30 1.579
314.40 1.578
314.50 1.577
314.60 1.576
314.70 1.575
314.80 1.574
314.90 1.573
315.00 1.572
315.10 1.571
315.20 1.57
315.30 1.569
315.40 1.568
315.50 1.567
315.60 1.566
315.70 1.565
315.80 1.564
315.90 1.563
316.00 1.562
316.10 1.561
316.20 1.561
316.30 1.56
316.40 1.559
316.50 1.558
316.60 1.557
316.70 1.556
316.80 1.555
316.90 1.554
317.00 1.553
317.10 1.552
317.20 1.551
317.30 1.55
317.40 1.549
317.50 1.548
317.60 1.547
317.70 1.546
317.80 1.545
317.90 1.544
318.00 1.543
318.10 1.542
318.20 1.541
318.30 1.54
318.40 1.539
318.50 1.538
318.60 1.537
318.70 1.536
318.80 1.535
318.90 1.534
319.00 1.533
319.10 1.533
319.20 1.532
319.30 1.531
319.40 1.53
319.50 1.529
319.60 1.528
319.70 1.527
319.80 1.526
319.90 1.525
320.00 1.524
320.10 1.523
320.20 1.522
320.30 1.521
320.40 1.52
320.50 1.519
320.60 1.518
320.70 1.517
320.80 1.516
320.90 1.515
321.00 1.515
321.10 1.514
321.20 1.513
321.30 1.512
321.40 1.511
321.50 1.51
321.60 1.509
321.70 1.508
321.80 1.507
321.90 1.506
322.00 1.505
322.10 1.504
322.20 1.503
322.30 1.502
322.40 1.502
322.50 1.501
322.60 1.5
322.70 1.499
322.80 1.498
322.90 1.497
323.00 1.496
323.10 1.495
323.20 1.494
323.30 1.493
323.40 1.492
323.50 1.491
323.60 1.49
323.70 1.49
323.80 1.489
323.90 1.488
324.00 1.487
324.10 1.486
324.20 1.485
324.30 1.484
324.40 1.483
324.50 1.482
324.60 1.481
324.70 1.48
324.80 1.479
324.90 1.479
325.00 1.478
325.10 1.477
325.20 1.476
325.30 1.475
325.40 1.474
325.50 1.473
325.60 1.472
325.70 1.471
325.80 1.47
325.90 1.47
326.00 1.469
326.10 1.468
326.20 1.467
326.30 1.466
326.40 1.465
326.50 1.464
326.60 1.463
326.70 1.462
326.80 1.461
326.90 1.461
327.00 1.46
327.10 1.459
327.20 1.458
327.30 1.457
327.40 1.456
327.50 1.455
327.60 1.454
327.70 1.453
327.80 1.453
327.90 1.452
328.00 1.451
328.10 1.45
328.20 1.449
328.30 1.448
328.40 1.447
328.50 1.446
328.60 1.445
328.70 1.445
328.80 1.444
328.90 1.443
329.00 1.442
329.10 1.441
329.20 1.44
329.30 1.439
329.40 1.438
329.50 1.438
329.60 1.437
329.70 1.436
329.80 1.435
329.90 1.434
330.00 1.433
330.10 1.432
330.20 1.431
330.30 1.431
330.40 1.43
330.50 1.429
330.60 1.428
330.70 1.427
330.80 1.426
330.90 1.425
331.00 1.425
331.10 1.424
331.20 1.423
331.30 1.422
331.40 1.421
331.50 1.42
331.60 1.419
331.70 1.418
331.80 1.418
331.90 1.417
332.00 1.416
332.10 1.415
332.20 1.414
332.30 1.413
332.40 1.412
332.50 1.412
332.60 1.411
332.70 1.41
332.80 1.409
332.90 1.408
333.00 1.407
333.10 1.407
333.20 1.406
333.30 1.405
333.40 1.404
333.50 1.403
333.60 1.402
333.70 1.401
333.80 1.401
333.90 1.4
334.00 1.399
334.10 1.398
334.20 1.397
334.30 1.396
334.40 1.396
334.50 1.395
334.60 1.394
334.70 1.393
334.80 1.392
334.90 1.391
335.00 1.39
335.10 1.39
335.20 1.389
335.30 1.388
335.40 1.387
335.50 1.386
335.60 1.385
335.70 1.385
335.80 1.384
335.90 1.383
336.00 1.382
336.10 1.381
336.20 1.38
336.30 1.38
336.40 1.379
336.50 1.378
336.60 1.377
336.70 1.376
336.80 1.376
336.90 1.375
337.00 1.374
337.10 1.373
337.20 1.372
337.30 1.371
337.40 1.371
337.50 1.37
337.60 1.369
337.70 1.368
337.80 1.367
337.90 1.366
338.00 1.366
338.10 1.365
338.20 1.364
338.30 1.363
338.40 1.362
338.50 1.362
338.60 1.361
338.70 1.36
338.80 1.359
338.90 1.358
339.00 1.358
339.10 1.357
339.20 1.356
339.30 1.355
339.40 1.354
339.50 1.353
339.60 1.353
339.70 1.352
339.80 1.351
339.90 1.35
340.00 1.349
340.10 1.349
340.20 1.348
340.30 1.347
340.40 1.346
340.50 1.345
340.60 1.345
340.70 1.344
340.80 1.343
340.90 1.342
341.00 1.341
341.10 1.341
341.20 1.34
341.30 1.339
341.40 1.338
341.50 1.337
341.60 1.337
341.70 1.336
341.80 1.335
341.90 1.334
342.00 1.333
342.10 1.333
342.20 1.332
342.30 1.331
342.40 1.33
342.50 1.33
342.60 1.329
342.70 1.328
342.80 1.327
342.90 1.326
343.00 1.326
343.10 1.325
343.20 1.324
343.30 1.323
343.40 1.322
343.50 1.322
343.60 1.321
343.70 1.32
343.80 1.319
343.90 1.319
344.00 1.318
344.10 1.317
344.20 1.316
344.30 1.315
344.40 1.315
344.50 1.314
344.60 1.313
344.70 1.312
344.80 1.312
344.90 1.311
345.00 1.31
345.10 1.309
345.20 1.308
345.30 1.308
345.40 1.307
345.50 1.306
345.60 1.305
345.70 1.305
345.80 1.304
345.90 1.303
346.00 1.302
346.10 1.302
346.20 1.301
346.30 1.3
346.40 1.299
346.50 1.298
346.60 1.298
346.70 1.297
346.80 1.296
346.90 1.295
347.00 1.295
347.10 1.294
347.20 1.293
347.30 1.292
347.40 1.292
347.50 1.291
347.60 1.29
347.70 1.289
347.80 1.289
347.90 1.288
348.00 1.287
348.10 1.286
348.20 1.286
348.30 1.285
348.40 1.284
348.50 1.283
348.60 1.283
348.70 1.282
348.80 1.281
348.90 1.28
349.00 1.28
349.10 1.279
349.20 1.278
349.30 1.277
349.40 1.277
349.50 1.276
349.60 1.275
349.70 1.274
349.80 1.274
349.90 1.273
350.00 1.272
350.10 1.271
350.20 1.271
350.30 1.27
350.40 1.269
350.50 1.268
350.60 1.268
350.70 1.267
350.80 1.266
350.90 1.265
351.00 1.265
351.10 1.264
351.20 1.263
351.30 1.262
351.40 1.262
351.50 1.261
351.60 1.26
351.70 1.259
351.80 1.259
351.90 1.258
352.00 1.257
352.10 1.257
352.20 1.256
352.30 1.255
352.40 1.254
352.50 1.254
352.60 1.253
352.70 1.252
352.80 1.251
352.90 1.251
353.00 1.25
353.10 1.249
353.20 1.249
353.30 1.248
353.40 1.247
353.50 1.246
353.60 1.246
353.70 1.245
353.80 1.244
353.90 1.243
354.00 1.243
354.10 1.242
354.20 1.241
354.30 1.241
354.40 1.24
354.50 1.239
354.60 1.238
354.70 1.238
354.80 1.237
354.90 1.236
355.00 1.236
355.10 1.235
355.20 1.234
355.30 1.233
355.40 1.233
355.50 1.232
355.60 1.231
355.70 1.231
355.80 1.23
355.90 1.229
356.00 1.228
356.10 1.228
356.20 1.227
356.30 1.226
356.40 1.226
356.50 1.225
356.60 1.224
356.70 1.223
356.80 1.223
356.90 1.222
357.00 1.221
357.10 1.221
357.20 1.22
357.30 1.219
357.40 1.218
357.50 1.218
357.60 1.217
357.70 1.216
357.80 1.216
357.90 1.215
358.00 1.214
358.10 1.214
358.20 1.213
358.30 1.212
358.40 1.211
358.50 1.211
358.60 1.21
358.70 1.209
358.80 1.209
358.90 1.208
359.00 1.207
359.10 1.207
359.20 1.206
359.30 1.205
359.40 1.204
359.50 1.204
359.60 1.203
359.70 1.202
359.80 1.202
359.90 1.201
360.00 1.2
360.10 1.2
360.20 1.199
360.30 1.198
360.40 1.198
360.50 1.197
360.60 1.196
360.70 1.196
360.80 1.195
360.90 1.194
361.00 1.193
361.10 1.193
361.20 1.192
361.30 1.191
361.40 1.191
361.50 1.19
361.60 1.189
361.70 1.189
361.80 1.188
361.90 1.187
362.00 1.187
362.10 1.186
362.20 1.185
362.30 1.185
362.40 1.184
362.50 1.183
362.60 1.183
362.70 1.182
362.80 1.181
362.90 1.181
363.00 1.18
363.10 1.179
363.20 1.178
363.30 1.178
363.40 1.177
363.50 1.176
363.60 1.175
363.70 1.175
363.80 1.174
363.90 1.173
364.00 1.173
364.10 1.172
364.20 1.171
364.30 1.17
364.40 1.17
364.50 1.169
364.60 1.168
364.70 1.167
364.80 1.167
364.90 1.166
365.00 1.165
365.10 1.165
365.20 1.164
365.30 1.163
365.40 1.162
365.50 1.162
365.60 1.161
365.70 1.16
365.80 1.16
365.90 1.159
366.00 1.158
366.10 1.157
366.20 1.157
366.30 1.156
366.40 1.155
366.50 1.155
366.60 1.154
366.70 1.154
366.80 1.153
366.90 1.152
367.00 1.152
367.10 1.151
367.20 1.15
367.30 1.15
367.40 1.149
367.50 1.148
367.60 1.148
367.70 1.147
367.80 1.146
367.90 1.146
368.00 1.145
368.10 1.145
368.20 1.145
368.30 1.144
368.40 1.144
368.50 1.144
368.60 1.144
368.70 1.143
368.80 1.143
368.90 1.143
369.00 1.143
369.10 1.142
369.20 1.142
369.30 1.142
369.40 1.142
369.50 1.141
369.60 1.141
369.70 1.141
369.80 1.141
369.90 1.14
370.00 1.14
370.10 1.141
370.20 1.142
370.30 1.142
370.40 1.143
370.50 1.144
370.60 1.145
370.70 1.145
370.80 1.146
370.90 1.147
371.00 1.148
371.10 1.148
371.20 1.149
371.30 1.15
371.40 1.151
371.50 1.152
371.60 1.152
371.70 1.153
371.80 1.154
371.90 1.155
372.00 1.155
372.10 1.157
372.20 1.159
372.30 1.161
372.40 1.163
372.50 1.165
372.60 1.167
372.70 1.169
372.80 1.171
372.90 1.173
373.00 1.175
373.10 1.177
373.20 1.178
373.30 1.18
373.40 1.182
373.50 1.184
373.60 1.186
373.70 1.188
373.80 1.19
373.90 1.192
374.00 1.194
374.10 1.196
374.20 1.198
374.30 1.201
374.40 1.203
374.50 1.205
374.60 1.207
374.70 1.21
374.80 1.212
374.90 1.214
375.00 1.217
375.10 1.219
375.20 1.221
375.30 1.223
375.40 1.226
375.50 1.228
375.60 1.23
375.70 1.232
375.80 1.235
375.90 1.237
376.00 1.239
376.10 1.24
376.20 1.242
376.30 1.243
376.40 1.244
376.50 1.245
376.60 1.246
376.70 1.247
376.80 1.249
376.90 1.25
377.00 1.251
377.10 1.249
377.20 1.248
377.30 1.246
377.40 1.244
377.50 1.242
377.60 1.241
377.70 1.239
377.80 1.237
377.90 1.236
378.00 1.234
378.10 1.223
378.20 1.212
378.30 1.201
378.40 1.191
378.50 1.18
378.60 1.169
378.70 1.158
378.80 1.148
378.90 1.137
379.00 1.126
379.10 1.117
379.20 1.109
379.30 1.1
379.40 1.091
379.50 1.083
379.60 1.074
379.70 1.065
379.80 1.057
379.90 1.048
380.00 1.039
380.10 1.053
380.20 1.067
380.30 1.081
380.40 1.095
380.50 1.108
380.60 1.122
380.70 1.136
380.80 1.149
380.90 1.163
381.00 1.177
381.10 1.182
381.20 1.187
381.30 1.192
381.40 1.196
381.50 1.201
381.60 1.201
381.70 1.199
381.80 1.195
381.90 1.19
382.00 1.182
382.10 1.173
382.20 1.161
382.30 1.139
382.40 1.116
382.50 1.094
382.60 1.072
382.70 1.049
382.80 1.027
382.90 1.005
383.00 0.9823
383.10 0.96
383.20 0.9378
383.30 0.9171
383.40 0.8931
383.50 0.8681
383.60 0.8733
383.70 0.8986
383.80 0.9225
383.90 0.9434
384.00 0.9669
384.10 0.9942
384.20 1.022
384.30 1.05
384.40 1.078
384.50 1.104
384.60 1.128
384.70 1.149
384.80 1.168
384.90 1.185
385.00 1.199
385.10 1.211
385.20 1.222
385.30 1.232
385.40 1.239
385.50 1.245
385.60 1.251
385.70 1.254
385.80 1.257
385.90 1.259
386.00 1.259
386.10 1.258
386.20 1.257
386.30 1.254
386.40 1.25
386.50 1.245
386.60 1.238
386.70 1.231
386.80 1.223
386.90 1.213
387.00 1.202
387.10 1.191
387.20 1.177
387.30 1.163
387.40 1.147
387.50 1.128
387.60 1.109
387.70 1.087
387.80 1.063
387.90 1.036
388.00 1.007
388.10 0.974
388.20 0.9401
388.30 0.9049
388.40 0.8687
388.50 0.8349
388.60 0.8034
388.70 0.7733
388.80 0.7438
388.90 0.7151
389.00 0.7414
389.10 0.7695
389.20 0.7994
389.30 0.8304
389.40 0.8638
389.50 0.8997
389.60 0.9353
389.70 0.9697
389.80 1.003
389.90 1.033
390.00 1.061
390.10 1.088
390.20 1.111
390.30 1.133
390.40 1.154
390.50 1.172
390.60 1.19
390.70 1.206
390.80 1.222
390.90 1.236
391.00 1.25
391.10 1.263
391.20 1.276
391.30 1.287
391.40 1.298
391.50 1.308
391.60 1.318
391.70 1.326
391.80 1.334
391.90 1.341
392.00 1.348
392.10 1.353
392.20 1.358
392.30 1.362
392.40 1.365
392.50 1.368
392.60 1.37
392.70 1.371
392.80 1.371
392.90 1.37
393.00 1.368
393.10 1.366
393.20 1.363
393.30 1.359
393.40 1.354
393.50 1.348
393.60 1.342
393.70 1.335
393.80 1.326
393.90 1.317
394.00 1.308
394.10 1.297
394.20 1.285
394.30 1.273
394.40 1.26
394.50 1.247
394.60 1.232
394.70 1.217
394.80 1.201
394.90 1.185
395.00 1.168
395.10 1.15
395.20 1.132
395.30 1.112
395.40 1.092
395.50 1.071
395.60 1.049
395.70 1.026
395.80 1.002
395.90 0.9765
396.00 0.9494
396.10 0.9212
396.20 0.89
396.30 0.8572
396.40 0.8228
396.50 0.7862
396.60 0.7505
396.70 0.7156
396.80 0.6813
396.90 0.6409
397.00 0.5943
397.10 0.6371
397.20 0.6755
397.30 0.7098
397.40 0.7438
397.50 0.7788
397.60 0.8148
397.70 0.8489
397.80 0.8813
397.90 0.912
398.00 0.9399
398.10 0.9665
398.20 0.992
398.30 1.016
398.40 1.038
398.50 1.06
398.60 1.081
398.70 1.101
398.80 1.12
398.90 1.139
399.00 1.157
399.10 1.175
399.20 1.192
399.30 1.208
399.40 1.225
399.50 1.24
399.60 1.256
399.70 1.271
399.80 1.285
399.90 1.299
400.00 1.313
400.10 1.326
400.20 1.338
400.30 1.35
400.40 1.362
400.50 1.373
400.60 1.384
400.70 1.394
400.80 1.404
400.90 1.413
401.00 1.422
401.10 1.43
401.20 1.439
401.30 1.446
401.40 1.453
401.50 1.46
401.60 1.467
401.70 1.473
401.80 1.478
401.90 1.483
402.00 1.488
402.10 1.493
402.20 1.497
402.30 1.5
402.40 1.504
402.50 1.507
402.60 1.509
402.70 1.512
402.80 1.513
402.90 1.515
403.00 1.516
403.10 1.517
403.20 1.517
403.30 1.518
403.40 1.517
403.50 1.517
403.60 1.516
403.70 1.514
403.80 1.513
403.90 1.511
404.00 1.508
404.10 1.506
404.20 1.503
404.30 1.499
404.40 1.495
404.50 1.491
404.60 1.487
404.70 1.482
404.80 1.477
404.90 1.471
405.00 1.465
405.10 1.459
405.20 1.452
405.30 1.445
405.40 1.438
405.50 1.43
405.60 1.421
405.70 1.413
405.80 1.404
405.90 1.394
406.00 1.384
406.10 1.374
406.20 1.363
406.30 1.353
406.40 1.341
406.50 1.329
406.60 1.317
406.70 1.304
406.80 1.291
406.90 1.278
407.00 1.264
407.10 1.249
407.20 1.234
407.30 1.219
407.40 1.203
407.50 1.187
407.60 1.17
407.70 1.153
407.80 1.136
407.90 1.118
408.00 1.099
408.10 1.081
408.20 1.062
408.30 1.043
408.40 1.023
408.50 1.003
408.60 0.9826
408.70 0.962
408.80 0.9408
408.90 0.9191
409.00 0.8971
409.10 0.874
409.20 0.8502
409.30 0.8257
409.40 0.7989
409.50 0.7708
409.60 0.7412
409.70 0.7095
409.80 0.6775
409.90 0.6452
410.00 0.6067
410.10 0.5659
410.20 0.523
410.30 0.5813
410.40 0.6274
410.50 0.6614
410.60 0.693
410.70 0.7241
410.80 0.7545
410.90 0.7824
411.00 0.8088
411.10 0.8338
411.20 0.8569
411.30 0.8793
411.40 0.9011
411.50 0.9218
411.60 0.9422
411.70 0.9622
411.80 0.9816
411.90 1.001
412.00 1.019
412.10 1.038
412.20 1.056
412.30 1.073
412.40 1.091
412.50 1.107
412.60 1.124
412.70 1.14
412.80 1.156
412.90 1.171
413.00 1.186
413.10 1.201
413.20 1.215
413.30 1.229
413.40 1.242
413.50 1.255
413.60 1.267
413.70 1.279
413.80 1.291
413.90 1.302
414.00 1.313
414.10 1.324
414.20 1.335
414.30 1.345
414.40 1.354
414.50 1.364
414.60 1.373
414.70 1.382
414.80 1.391
414.90 1.399
415.00 1.407
415.10 1.415
415.20 1.422
415.30 1.43
415.40 1.437
415.50 1.444
415.60 1.45
415.70 1.457
415.80 1.463
415.90 1.469
416.00 1.474
416.10 1.48
416.20 1.485
416.30 1.49
416.40 1.495
416.50 1.5
416.60 1.505
416.70 1.509
416.80 1.513
416.90 1.517
417.00 1.521
417.10 1.525
417.20 1.528
417.30 1.532
417.40 1.535
417.50 1.538
417.60 1.541
417.70 1.544
417.80 1.547
417.90 1.549
418.00 1.552
418.10 1.554
418.20 1.556
418.30 1.559
418.40 1.561
418.50 1.562
418.60 1.564
418.70 1.566
418.80 1.567
418.90 1.569
419.00 1.57
419.10 1.571
419.20 1.572
419.30 1.573
419.40 1.574
419.50 1.575
419.60 1.576
419.70 1.577
419.80 1.577
419.90 1.578
420.00 1.578
420.10 1.579
420.20 1.579
420.30 1.579
420.40 1.579
420.50 1.579
420.60 1.579
420.70 1.579
420.80 1.579
420.90 1.579
421.00 1.579
421.10 1.578
421.20 1.578
421.30 1.577
421.40 1.577
421.50 1.576
421.60 1.575
421.70 1.574
421.80 1.574
421.90 1.573
422.00 1.572
422.10 1.571
422.20 1.57
422.30 1.568
422.40 1.567
422.50 1.566
422.60 1.564
422.70 1.563
422.80 1.561
422.90 1.56
423.00 1.558
423.10 1.557
423.20 1.555
423.30 1.553
423.40 1.551
423.50 1.549
423.60 1.547
423.70 1.545
423.80 1.543
423.90 1.54
424.00 1.538
424.10 1.536
424.20 1.533
424.30 1.531
424.40 1.528
424.50 1.525
424.60 1.523
424.70 1.52
424.80 1.517
424.90 1.514
425.00 1.511
425.10 1.508
425.20 1.504
425.30 1.501
425.40 1.498
425.50 1.494
425.60 1.49
425.70 1.487
425.80 1.483
425.90 1.479
426.00 1.475
426.10 1.471
426.20 1.466
426.30 1.461
426.40 1.457
426.50 1.452
426.60 1.447
426.70 1.443
426.80 1.438
426.90 1.433
427.00 1.427
427.10 1.422
427.20 1.417
427.30 1.411
427.40 1.406
427.50 1.4
427.60 1.394
427.70 1.388
427.80 1.381
427.90 1.375
428.00 1.369
428.10 1.362
428.20 1.355
428.30 1.348
428.40 1.341
428.50 1.334
428.60 1.326
428.70 1.318
428.80 1.311
428.90 1.303
429.00 1.294
429.10 1.286
429.20 1.277
429.30 1.268
429.40 1.259
429.50 1.25
429.60 1.241
429.70 1.231
429.80 1.221
429.90 1.211
430.00 1.201
430.10 1.19
430.20 1.179
430.30 1.169
430.40 1.157
430.50 1.146
430.60 1.134
430.70 1.122
430.80 1.11
430.90 1.098
431.00 1.085
431.10 1.073
431.20 1.06
431.30 1.047
431.40 1.033
431.50 1.02
431.60 1.006
431.70 0.9913
431.80 0.9768
431.90 0.9616
432.00 0.9461
432.10 0.9303
432.20 0.9136
432.30 0.8964
432.40 0.8787
432.50 0.8598
432.60 0.8402
432.70 0.82
432.80 0.7994
432.90 0.779
433.00 0.7589
433.10 0.7397
433.20 0.7205
433.30 0.7011
433.40 0.6796
433.50 0.6566
433.60 0.6321
433.70 0.6047
433.80 0.5741
433.90 0.5404
434.00 0.4648
434.10 0.4659
434.20 0.5433
434.30 0.5759
434.40 0.6055
434.50 0.6323
434.60 0.656
434.70 0.6782
434.80 0.699
434.90 0.7176
435.00 0.7361
435.10 0.7545
435.20 0.7739
435.30 0.7934
435.40 0.8131
435.50 0.8322
435.60 0.8507
435.70 0.8685
435.80 0.8851
435.90 0.9011
436.00 0.9166
436.10 0.9312
436.20 0.9454
436.30 0.9593
436.40 0.9725
436.50 0.9854
436.60 0.9981
436.70 1.01
436.80 1.022
436.90 1.034
437.00 1.045
437.10 1.057
437.20 1.068
437.30 1.078
437.40 1.089
437.50 1.099
437.60 1.109
437.70 1.119
437.80 1.129
437.90 1.138
438.00 1.147
438.10 1.156
438.20 1.164
438.30 1.173
438.40 1.181
438.50 1.189
438.60 1.196
438.70 1.204
438.80 1.211
438.90 1.218
439.00 1.225
439.10 1.231
439.20 1.238
439.30 1.244
439.40 1.25
439.50 1.256
439.60 1.262
439.70 1.267
439.80 1.272
439.90 1.278
440.00 1.282
440.10 1.287
440.20 1.292
440.30 1.296
440.40 1.301
440.50 1.305
440.60 1.309
440.70 1.313
440.80 1.317
440.90 1.321
441.00 1.324
441.10 1.328
441.20 1.331
441.30 1.334
441.40 1.338
441.50 1.341
441.60 1.343
441.70 1.346
441.80 1.349
441.90 1.352
442.00 1.354
442.10 1.356
442.20 1.359
442.30 1.361
442.40 1.363
442.50 1.365
442.60 1.367
442.70 1.369
442.80 1.371
442.90 1.373
443.00 1.374
443.10 1.376
443.20 1.377
443.30 1.379
443.40 1.38
443.50 1.382
443.60 1.383
443.70 1.384
443.80 1.385
443.90 1.386
444.00 1.387
444.10 1.389
444.20 1.389
444.30 1.39
444.40 1.391
444.50 1.392
444.60 1.393
444.70 1.394
444.80 1.394
444.90 1.395
445.00 1.395
445.10 1.396
445.20 1.397
445.30 1.397
445.40 1.397
445.50 1.398
445.60 1.398
445.70 1.399
445.80 1.399
445.90 1.399
446.00 1.399
446.10 1.4
446.20 1.4
446.30 1.4
446.40 1.4
446.50 1.4
446.60 1.4
446.70 1.4
446.80 1.4
446.90 1.4
447.00 1.4
447.10 1.4
447.20 1.4
447.30 1.4
447.40 1.4
447.50 1.4
447.60 1.4
447.70 1.4
447.80 1.4
447.90 1.399
448.00 1.399
448.10 1.399
448.20 1.399
448.30 1.398
448.40 1.398
448.50 1.398
448.60 1.397
448.70 1.397
448.80 1.397
448.90 1.396
449.00 1.396
449.10 1.396
449.20 1.396
449.30 1.395
449.40 1.395
449.50 1.394
449.60 1.394
449.70 1.394
449.80 1.393
449.90 1.393
450.00 1.392
450.10 1.392
450.20 1.391
450.30 1.391
450.40 1.39
450.50 1.389
450.60 1.389
450.70 1.388
450.80 1.388
450.90 1.387
451.00 1.387
451.10 1.386
451.20 1.385
451.30 1.385
451.40 1.384
451.50 1.384
451.60 1.383
451.70 1.382
451.80 1.382
451.90 1.381
452.00 1.38
452.10 1.38
452.20 1.379
452.30 1.378
452.40 1.378
452.50 1.377
452.60 1.376
452.70 1.376
452.80 1.375
452.90 1.374
453.00 1.374
453.10 1.373
453.20 1.372
