# Version 2.1 - nm, norm@500 to 1, cut digits, bergeron_6500_75.dat_6500
# Wavelength(nm)  Flambda(ergs/cm^s/s/nm)
300.00 0.8979
300.10 0.8983
300.20 0.8987
300.30 0.8991
300.40 0.8995
300.50 0.8999
300.60 0.9003
300.70 0.9007
300.80 0.9011
300.90 0.9015
301.00 0.9019
301.10 0.9023
301.20 0.9027
301.30 0.9031
301.40 0.9035
301.50 0.9039
301.60 0.9043
301.70 0.9047
301.80 0.9051
301.90 0.9055
302.00 0.9059
302.10 0.9062
302.20 0.9066
302.30 0.907
302.40 0.9074
302.50 0.9078
302.60 0.9082
302.70 0.9086
302.80 0.909
302.90 0.9094
303.00 0.9098
303.10 0.9102
303.20 0.9105
303.30 0.9109
303.40 0.9113
303.50 0.9117
303.60 0.9121
303.70 0.9125
303.80 0.9128
303.90 0.9132
304.00 0.9136
304.10 0.914
304.20 0.9144
304.30 0.9148
304.40 0.9151
304.50 0.9155
304.60 0.9159
304.70 0.9163
304.80 0.9167
304.90 0.917
305.00 0.9174
305.10 0.9178
305.20 0.9182
305.30 0.9185
305.40 0.9189
305.50 0.9193
305.60 0.9197
305.70 0.92
305.80 0.9204
305.90 0.9208
306.00 0.9212
306.10 0.9215
306.20 0.9219
306.30 0.9223
306.40 0.9226
306.50 0.923
306.60 0.9234
306.70 0.9238
306.80 0.9241
306.90 0.9245
307.00 0.9249
307.10 0.9252
307.20 0.9256
307.30 0.926
307.40 0.9263
307.50 0.9267
307.60 0.9271
307.70 0.9274
307.80 0.9278
307.90 0.9281
308.00 0.9285
308.10 0.9289
308.20 0.9292
308.30 0.9296
308.40 0.93
308.50 0.9303
308.60 0.9307
308.70 0.931
308.80 0.9314
308.90 0.9318
309.00 0.9321
309.10 0.9325
309.20 0.9328
309.30 0.9332
309.40 0.9336
309.50 0.9339
309.60 0.9343
309.70 0.9346
309.80 0.935
309.90 0.9353
310.00 0.9357
310.10 0.936
310.20 0.9364
310.30 0.9367
310.40 0.9371
310.50 0.9374
310.60 0.9378
310.70 0.9381
310.80 0.9385
310.90 0.9388
311.00 0.9392
311.10 0.9395
311.20 0.9399
311.30 0.9402
311.40 0.9406
311.50 0.9409
311.60 0.9413
311.70 0.9416
311.80 0.9419
311.90 0.9423
312.00 0.9426
312.10 0.943
312.20 0.9433
312.30 0.9436
312.40 0.944
312.50 0.9443
312.60 0.9447
312.70 0.945
312.80 0.9454
312.90 0.9457
313.00 0.946
313.10 0.9464
313.20 0.9467
313.30 0.947
313.40 0.9474
313.50 0.9477
313.60 0.9481
313.70 0.9484
313.80 0.9487
313.90 0.9491
314.00 0.9494
314.10 0.9497
314.20 0.9501
314.30 0.9504
314.40 0.9507
314.50 0.9511
314.60 0.9514
314.70 0.9517
314.80 0.952
314.90 0.9524
315.00 0.9527
315.10 0.953
315.20 0.9534
315.30 0.9537
315.40 0.954
315.50 0.9543
315.60 0.9547
315.70 0.955
315.80 0.9553
315.90 0.9556
316.00 0.9559
316.10 0.9563
316.20 0.9566
316.30 0.9569
316.40 0.9572
316.50 0.9576
316.60 0.9579
316.70 0.9582
316.80 0.9585
316.90 0.9588
317.00 0.9591
317.10 0.9595
317.20 0.9598
317.30 0.9601
317.40 0.9604
317.50 0.9607
317.60 0.961
317.70 0.9613
317.80 0.9617
317.90 0.962
318.00 0.9623
318.10 0.9626
318.20 0.9629
318.30 0.9632
318.40 0.9635
318.50 0.9638
318.60 0.9642
318.70 0.9645
318.80 0.9648
318.90 0.9651
319.00 0.9654
319.10 0.9657
319.20 0.966
319.30 0.9663
319.40 0.9666
319.50 0.9669
319.60 0.9672
319.70 0.9675
319.80 0.9678
319.90 0.9681
320.00 0.9684
320.10 0.9687
320.20 0.9691
320.30 0.9694
320.40 0.9697
320.50 0.97
320.60 0.9703
320.70 0.9706
320.80 0.9709
320.90 0.9712
321.00 0.9715
321.10 0.9718
321.20 0.9721
321.30 0.9724
321.40 0.9727
321.50 0.973
321.60 0.9733
321.70 0.9735
321.80 0.9738
321.90 0.9741
322.00 0.9744
322.10 0.9747
322.20 0.975
322.30 0.9753
322.40 0.9756
322.50 0.9759
322.60 0.9762
322.70 0.9765
322.80 0.9768
322.90 0.9771
323.00 0.9773
323.10 0.9776
323.20 0.9779
323.30 0.9782
323.40 0.9785
323.50 0.9788
323.60 0.9791
323.70 0.9793
323.80 0.9796
323.90 0.9799
324.00 0.9802
324.10 0.9805
324.20 0.9808
324.30 0.981
324.40 0.9813
324.50 0.9816
324.60 0.9819
324.70 0.9822
324.80 0.9825
324.90 0.9827
325.00 0.983
325.10 0.9833
325.20 0.9836
325.30 0.9838
325.40 0.9841
325.50 0.9844
325.60 0.9847
325.70 0.9849
325.80 0.9852
325.90 0.9855
326.00 0.9858
326.10 0.986
326.20 0.9863
326.30 0.9866
326.40 0.9869
326.50 0.9871
326.60 0.9874
326.70 0.9877
326.80 0.988
326.90 0.9882
327.00 0.9885
327.10 0.9888
327.20 0.989
327.30 0.9893
327.40 0.9896
327.50 0.9898
327.60 0.9901
327.70 0.9904
327.80 0.9906
327.90 0.9909
328.00 0.9912
328.10 0.9914
328.20 0.9917
328.30 0.992
328.40 0.9922
328.50 0.9925
328.60 0.9927
328.70 0.993
328.80 0.9933
328.90 0.9935
329.00 0.9938
329.10 0.994
329.20 0.9943
329.30 0.9946
329.40 0.9948
329.50 0.9951
329.60 0.9953
329.70 0.9956
329.80 0.9958
329.90 0.9961
330.00 0.9964
330.10 0.9966
330.20 0.9969
330.30 0.9971
330.40 0.9974
330.50 0.9976
330.60 0.9979
330.70 0.9981
330.80 0.9984
330.90 0.9986
331.00 0.9989
331.10 0.9991
331.20 0.9994
331.30 0.9996
331.40 0.9999
331.50 1
331.60 1
331.70 1.001
331.80 1.001
331.90 1.001
332.00 1.001
332.10 1.002
332.20 1.002
332.30 1.002
332.40 1.002
332.50 1.003
332.60 1.003
332.70 1.003
332.80 1.003
332.90 1.004
333.00 1.004
333.10 1.004
333.20 1.004
333.30 1.005
333.40 1.005
333.50 1.005
333.60 1.005
333.70 1.005
333.80 1.006
333.90 1.006
334.00 1.006
334.10 1.006
334.20 1.007
334.30 1.007
334.40 1.007
334.50 1.007
334.60 1.008
334.70 1.008
334.80 1.008
334.90 1.008
335.00 1.009
335.10 1.009
335.20 1.009
335.30 1.009
335.40 1.009
335.50 1.01
335.60 1.01
335.70 1.01
335.80 1.01
335.90 1.011
336.00 1.011
336.10 1.011
336.20 1.011
336.30 1.012
336.40 1.012
336.50 1.012
336.60 1.012
336.70 1.012
336.80 1.013
336.90 1.013
337.00 1.013
337.10 1.013
337.20 1.014
337.30 1.014
337.40 1.014
337.50 1.014
337.60 1.014
337.70 1.015
337.80 1.015
337.90 1.015
338.00 1.015
338.10 1.016
338.20 1.016
338.30 1.016
338.40 1.016
338.50 1.016
338.60 1.017
338.70 1.017
338.80 1.017
338.90 1.017
339.00 1.017
339.10 1.018
339.20 1.018
339.30 1.018
339.40 1.018
339.50 1.019
339.60 1.019
339.70 1.019
339.80 1.019
339.90 1.019
340.00 1.02
340.10 1.02
340.20 1.02
340.30 1.02
340.40 1.02
340.50 1.021
340.60 1.021
340.70 1.021
340.80 1.021
340.90 1.021
341.00 1.022
341.10 1.022
341.20 1.022
341.30 1.022
341.40 1.022
341.50 1.023
341.60 1.023
341.70 1.023
341.80 1.023
341.90 1.023
342.00 1.024
342.10 1.024
342.20 1.024
342.30 1.024
342.40 1.024
342.50 1.025
342.60 1.025
342.70 1.025
342.80 1.025
342.90 1.025
343.00 1.026
343.10 1.026
343.20 1.026
343.30 1.026
343.40 1.026
343.50 1.027
343.60 1.027
343.70 1.027
343.80 1.027
343.90 1.027
344.00 1.028
344.10 1.028
344.20 1.028
344.30 1.028
344.40 1.028
344.50 1.029
344.60 1.029
344.70 1.029
344.80 1.029
344.90 1.029
345.00 1.03
345.10 1.03
345.20 1.03
345.30 1.03
345.40 1.03
345.50 1.03
345.60 1.031
345.70 1.031
345.80 1.031
345.90 1.031
346.00 1.031
346.10 1.032
346.20 1.032
346.30 1.032
346.40 1.032
346.50 1.032
346.60 1.032
346.70 1.033
346.80 1.033
346.90 1.033
347.00 1.033
347.10 1.033
347.20 1.034
347.30 1.034
347.40 1.034
347.50 1.034
347.60 1.034
347.70 1.034
347.80 1.035
347.90 1.035
348.00 1.035
348.10 1.035
348.20 1.035
348.30 1.035
348.40 1.036
348.50 1.036
348.60 1.036
348.70 1.036
348.80 1.036
348.90 1.037
349.00 1.037
349.10 1.037
349.20 1.037
349.30 1.037
349.40 1.037
349.50 1.038
349.60 1.038
349.70 1.038
349.80 1.038
349.90 1.038
350.00 1.038
350.10 1.039
350.20 1.039
350.30 1.039
350.40 1.039
350.50 1.039
350.60 1.039
350.70 1.04
350.80 1.04
350.90 1.04
351.00 1.04
351.10 1.04
351.20 1.04
351.30 1.04
351.40 1.041
351.50 1.041
351.60 1.041
351.70 1.041
351.80 1.041
351.90 1.041
352.00 1.042
352.10 1.042
352.20 1.042
352.30 1.042
352.40 1.042
352.50 1.042
352.60 1.043
352.70 1.043
352.80 1.043
352.90 1.043
353.00 1.043
353.10 1.043
353.20 1.043
353.30 1.044
353.40 1.044
353.50 1.044
353.60 1.044
353.70 1.044
353.80 1.044
353.90 1.045
354.00 1.045
354.10 1.045
354.20 1.045
354.30 1.045
354.40 1.045
354.50 1.045
354.60 1.046
354.70 1.046
354.80 1.046
354.90 1.046
355.00 1.046
355.10 1.046
355.20 1.046
355.30 1.047
355.40 1.047
355.50 1.047
355.60 1.047
355.70 1.047
355.80 1.047
355.90 1.047
356.00 1.048
356.10 1.048
356.20 1.048
356.30 1.048
356.40 1.048
356.50 1.048
356.60 1.048
356.70 1.049
356.80 1.049
356.90 1.049
357.00 1.049
357.10 1.049
357.20 1.049
357.30 1.049
357.40 1.05
357.50 1.05
357.60 1.05
357.70 1.05
357.80 1.05
357.90 1.05
358.00 1.05
358.10 1.05
358.20 1.051
358.30 1.051
358.40 1.051
358.50 1.051
358.60 1.051
358.70 1.051
358.80 1.051
358.90 1.052
359.00 1.052
359.10 1.052
359.20 1.052
359.30 1.052
359.40 1.052
359.50 1.052
359.60 1.052
359.70 1.053
359.80 1.053
359.90 1.053
360.00 1.053
360.10 1.053
360.20 1.053
360.30 1.053
360.40 1.053
360.50 1.054
360.60 1.054
360.70 1.054
360.80 1.054
360.90 1.054
361.00 1.054
361.10 1.054
361.20 1.054
361.30 1.055
361.40 1.055
361.50 1.055
361.60 1.055
361.70 1.055
361.80 1.055
361.90 1.055
362.00 1.055
362.10 1.055
362.20 1.056
362.30 1.056
362.40 1.056
362.50 1.056
362.60 1.056
362.70 1.056
362.80 1.056
362.90 1.056
363.00 1.057
363.10 1.057
363.20 1.057
363.30 1.057
363.40 1.057
363.50 1.057
363.60 1.057
363.70 1.057
363.80 1.057
363.90 1.058
364.00 1.058
364.10 1.058
364.20 1.058
364.30 1.058
364.40 1.058
364.50 1.058
364.60 1.058
364.70 1.058
364.80 1.058
364.90 1.059
365.00 1.059
365.10 1.059
365.20 1.059
365.30 1.059
365.40 1.059
365.50 1.059
365.60 1.059
365.70 1.059
365.80 1.059
365.90 1.06
366.00 1.06
366.10 1.06
366.20 1.06
366.30 1.06
366.40 1.06
366.50 1.06
366.60 1.06
366.70 1.06
366.80 1.06
366.90 1.061
367.00 1.061
367.10 1.061
367.20 1.061
367.30 1.061
367.40 1.061
367.50 1.061
367.60 1.061
367.70 1.061
367.80 1.061
367.90 1.062
368.00 1.062
368.10 1.062
368.20 1.062
368.30 1.062
368.40 1.062
368.50 1.062
368.60 1.062
368.70 1.062
368.80 1.062
368.90 1.063
369.00 1.063
369.10 1.063
369.20 1.063
369.30 1.063
369.40 1.063
369.50 1.063
369.60 1.063
369.70 1.063
369.80 1.063
369.90 1.063
370.00 1.064
370.10 1.064
370.20 1.064
370.30 1.064
370.40 1.064
370.50 1.064
370.60 1.064
370.70 1.064
370.80 1.064
370.90 1.064
371.00 1.065
371.10 1.065
371.20 1.065
371.30 1.065
371.40 1.065
371.50 1.065
371.60 1.065
371.70 1.065
371.80 1.065
371.90 1.065
372.00 1.066
372.10 1.066
372.20 1.066
372.30 1.066
372.40 1.066
372.50 1.066
372.60 1.066
372.70 1.067
372.80 1.067
372.90 1.067
373.00 1.067
373.10 1.067
373.20 1.067
373.30 1.067
373.40 1.068
373.50 1.068
373.60 1.068
373.70 1.068
373.80 1.068
373.90 1.068
374.00 1.068
374.10 1.069
374.20 1.069
374.30 1.069
374.40 1.069
374.50 1.07
374.60 1.07
374.70 1.07
374.80 1.07
374.90 1.07
375.00 1.071
375.10 1.071
375.20 1.071
375.30 1.071
375.40 1.072
375.50 1.072
375.60 1.072
375.70 1.072
375.80 1.073
375.90 1.073
376.00 1.073
376.10 1.073
376.20 1.074
376.30 1.074
376.40 1.074
376.50 1.074
376.60 1.075
376.70 1.075
376.80 1.075
376.90 1.075
377.00 1.076
377.10 1.076
377.20 1.076
377.30 1.076
377.40 1.076
377.50 1.076
377.60 1.077
377.70 1.077
377.80 1.077
377.90 1.077
378.00 1.077
378.10 1.077
378.20 1.077
378.30 1.076
378.40 1.076
378.50 1.076
378.60 1.075
378.70 1.075
378.80 1.075
378.90 1.074
379.00 1.074
379.10 1.073
379.20 1.071
379.30 1.07
379.40 1.069
379.50 1.067
379.60 1.066
379.70 1.065
379.80 1.063
379.90 1.062
380.00 1.06
380.10 1.063
380.20 1.065
380.30 1.067
380.40 1.069
380.50 1.071
380.60 1.073
380.70 1.075
380.80 1.078
380.90 1.08
381.00 1.082
381.10 1.082
381.20 1.083
381.30 1.083
381.40 1.083
381.50 1.084
381.60 1.084
381.70 1.084
381.80 1.084
381.90 1.084
382.00 1.084
382.10 1.084
382.20 1.083
382.30 1.08
382.40 1.077
382.50 1.075
382.60 1.072
382.70 1.069
382.80 1.066
382.90 1.063
383.00 1.06
383.10 1.057
383.20 1.054
383.30 1.045
383.40 1.03
383.50 1.003
383.60 1.012
383.70 1.035
383.80 1.048
383.90 1.058
384.00 1.065
384.10 1.07
384.20 1.074
384.30 1.078
384.40 1.08
384.50 1.083
384.60 1.084
384.70 1.086
384.80 1.087
384.90 1.088
385.00 1.089
385.10 1.09
385.20 1.09
385.30 1.091
385.40 1.091
385.50 1.091
385.60 1.092
385.70 1.092
385.80 1.092
385.90 1.092
386.00 1.093
386.10 1.093
386.20 1.093
386.30 1.093
386.40 1.093
386.50 1.093
386.60 1.093
386.70 1.093
386.80 1.093
386.90 1.093
387.00 1.092
387.10 1.092
387.20 1.092
387.30 1.091
387.40 1.09
387.50 1.09
387.60 1.088
387.70 1.087
387.80 1.085
387.90 1.083
388.00 1.08
388.10 1.076
388.20 1.071
388.30 1.065
388.40 1.056
388.50 1.044
388.60 1.029
388.70 1.003
388.80 0.9596
388.90 0.8973
389.00 0.9575
389.10 1.001
389.20 1.028
389.30 1.043
389.40 1.056
389.50 1.066
389.60 1.072
389.70 1.078
389.80 1.082
389.90 1.085
390.00 1.087
390.10 1.089
390.20 1.091
390.30 1.092
390.40 1.093
390.50 1.094
390.60 1.095
390.70 1.096
390.80 1.096
390.90 1.096
391.00 1.097
391.10 1.097
391.20 1.098
391.30 1.098
391.40 1.098
391.50 1.098
391.60 1.098
391.70 1.099
391.80 1.099
391.90 1.099
392.00 1.099
392.10 1.099
392.20 1.099
392.30 1.099
392.40 1.1
392.50 1.1
392.60 1.1
392.70 1.1
392.80 1.1
392.90 1.1
393.00 1.1
393.10 1.1
393.20 1.1
393.30 1.1
393.40 1.1
393.50 1.1
393.60 1.1
393.70 1.1
393.80 1.1
393.90 1.1
394.00 1.1
394.10 1.1
394.20 1.1
394.30 1.099
394.40 1.099
394.50 1.099
394.60 1.099
394.70 1.099
394.80 1.098
394.90 1.098
395.00 1.098
395.10 1.097
395.20 1.097
395.30 1.096
395.40 1.095
395.50 1.094
395.60 1.093
395.70 1.091
395.80 1.089
395.90 1.087
396.00 1.084
396.10 1.08
396.20 1.074
396.30 1.067
396.40 1.058
396.50 1.043
396.60 1.024
396.70 0.9997
396.80 0.9558
396.90 0.8774
397.00 0.7644
397.10 0.8717
397.20 0.9488
397.30 0.9957
397.40 1.021
397.50 1.042
397.60 1.057
397.70 1.066
397.80 1.074
397.90 1.08
398.00 1.084
398.10 1.087
398.20 1.09
398.30 1.092
398.40 1.093
398.50 1.095
398.60 1.096
398.70 1.097
398.80 1.098
398.90 1.098
399.00 1.099
399.10 1.099
399.20 1.1
399.30 1.1
399.40 1.1
399.50 1.101
399.60 1.101
399.70 1.101
399.80 1.101
399.90 1.101
400.00 1.102
400.10 1.102
400.20 1.102
400.30 1.102
400.40 1.102
400.50 1.102
400.60 1.102
400.70 1.102
400.80 1.102
400.90 1.102
401.00 1.102
401.10 1.103
401.20 1.103
401.30 1.103
401.40 1.103
401.50 1.103
401.60 1.103
401.70 1.103
401.80 1.103
401.90 1.103
402.00 1.103
402.10 1.103
402.20 1.103
402.30 1.103
402.40 1.103
402.50 1.103
402.60 1.103
402.70 1.103
402.80 1.103
402.90 1.103
403.00 1.103
403.10 1.103
403.20 1.103
403.30 1.103
403.40 1.103
403.50 1.103
403.60 1.103
403.70 1.103
403.80 1.103
403.90 1.103
404.00 1.103
404.10 1.103
404.20 1.103
404.30 1.103
404.40 1.103
404.50 1.103
404.60 1.103
404.70 1.103
404.80 1.103
404.90 1.103
405.00 1.103
405.10 1.103
405.20 1.103
405.30 1.102
405.40 1.102
405.50 1.102
405.60 1.102
405.70 1.102
405.80 1.102
405.90 1.102
406.00 1.102
406.10 1.102
406.20 1.102
406.30 1.102
406.40 1.102
406.50 1.102
406.60 1.102
406.70 1.101
406.80 1.101
406.90 1.101
407.00 1.101
407.10 1.101
407.20 1.101
407.30 1.1
407.40 1.1
407.50 1.1
407.60 1.1
407.70 1.099
407.80 1.099
407.90 1.099
408.00 1.098
408.10 1.098
408.20 1.097
408.30 1.096
408.40 1.095
408.50 1.094
408.60 1.093
408.70 1.092
408.80 1.09
408.90 1.088
409.00 1.085
409.10 1.082
409.20 1.077
409.30 1.072
409.40 1.064
409.50 1.054
409.60 1.041
409.70 1.019
409.80 0.9893
409.90 0.9508
410.00 0.8727
410.10 0.7742
410.20 0.6554
410.30 0.8102
410.40 0.9171
410.50 0.976
410.60 1.007
410.70 1.031
410.80 1.049
410.90 1.06
411.00 1.068
411.10 1.075
411.20 1.079
411.30 1.083
411.40 1.086
411.50 1.088
411.60 1.09
411.70 1.092
411.80 1.093
411.90 1.094
412.00 1.095
412.10 1.096
412.20 1.096
412.30 1.097
412.40 1.097
412.50 1.098
412.60 1.098
412.70 1.098
412.80 1.099
412.90 1.099
413.00 1.099
413.10 1.099
413.20 1.099
413.30 1.099
413.40 1.1
413.50 1.1
413.60 1.1
413.70 1.1
413.80 1.1
413.90 1.1
414.00 1.1
414.10 1.1
414.20 1.1
414.30 1.1
414.40 1.1
414.50 1.1
414.60 1.1
414.70 1.1
414.80 1.1
414.90 1.1
415.00 1.1
415.10 1.1
415.20 1.1
415.30 1.1
415.40 1.1
415.50 1.1
415.60 1.1
415.70 1.1
415.80 1.1
415.90 1.1
416.00 1.1
416.10 1.1
416.20 1.1
416.30 1.1
416.40 1.1
416.50 1.1
416.60 1.1
416.70 1.1
416.80 1.1
416.90 1.1
417.00 1.1
417.10 1.1
417.20 1.1
417.30 1.099
417.40 1.099
417.50 1.099
417.60 1.099
417.70 1.099
417.80 1.099
417.90 1.099
418.00 1.099
418.10 1.099
418.20 1.099
418.30 1.099
418.40 1.099
418.50 1.099
418.60 1.099
418.70 1.099
418.80 1.099
418.90 1.099
419.00 1.099
419.10 1.099
419.20 1.099
419.30 1.099
419.40 1.099
419.50 1.099
419.60 1.098
419.70 1.098
419.80 1.098
419.90 1.098
420.00 1.098
420.10 1.098
420.20 1.098
420.30 1.098
420.40 1.098
420.50 1.098
420.60 1.098
420.70 1.098
420.80 1.098
420.90 1.098
421.00 1.098
421.10 1.098
421.20 1.098
421.30 1.098
421.40 1.098
421.50 1.097
421.60 1.097
421.70 1.097
421.80 1.097
421.90 1.097
422.00 1.097
422.10 1.097
422.20 1.097
422.30 1.097
422.40 1.097
422.50 1.097
422.60 1.097
422.70 1.097
422.80 1.097
422.90 1.097
423.00 1.097
423.10 1.096
423.20 1.096
423.30 1.096
423.40 1.096
423.50 1.096
423.60 1.096
423.70 1.096
423.80 1.096
423.90 1.096
424.00 1.096
424.10 1.096
424.20 1.096
424.30 1.096
424.40 1.096
424.50 1.096
424.60 1.095
424.70 1.095
424.80 1.095
424.90 1.095
425.00 1.095
425.10 1.095
425.20 1.095
425.30 1.095
425.40 1.095
425.50 1.095
425.60 1.095
425.70 1.095
425.80 1.095
425.90 1.094
426.00 1.094
426.10 1.094
426.20 1.094
426.30 1.094
426.40 1.094
426.50 1.094
426.60 1.094
426.70 1.094
426.80 1.094
426.90 1.094
427.00 1.094
427.10 1.093
427.20 1.093
427.30 1.093
427.40 1.093
427.50 1.093
427.60 1.093
427.70 1.093
427.80 1.093
427.90 1.093
428.00 1.093
428.10 1.092
428.20 1.092
428.30 1.092
428.40 1.092
428.50 1.092
428.60 1.092
428.70 1.092
428.80 1.092
428.90 1.092
429.00 1.092
429.10 1.091
429.20 1.091
429.30 1.091
429.40 1.091
429.50 1.091
429.60 1.091
429.70 1.091
429.80 1.09
429.90 1.09
430.00 1.09
430.10 1.09
430.20 1.09
430.30 1.09
430.40 1.089
430.50 1.089
430.60 1.089
430.70 1.089
430.80 1.088
430.90 1.088
431.00 1.088
431.10 1.088
431.20 1.087
431.30 1.087
431.40 1.087
431.50 1.086
431.60 1.086
431.70 1.085
431.80 1.085
431.90 1.084
432.00 1.083
432.10 1.082
432.20 1.081
432.30 1.08
432.40 1.079
432.50 1.077
432.60 1.075
432.70 1.073
432.80 1.07
432.90 1.066
433.00 1.062
433.10 1.056
433.20 1.049
433.30 1.04
433.40 1.026
433.50 1.008
433.60 0.9847
433.70 0.943
433.80 0.8792
433.90 0.7933
434.00 0.5557
434.10 0.5593
434.20 0.8036
434.30 0.8856
434.40 0.9467
434.50 0.9869
434.60 1.009
434.70 1.027
434.80 1.04
434.90 1.048
435.00 1.055
435.10 1.061
435.20 1.065
435.30 1.068
435.40 1.071
435.50 1.073
435.60 1.075
435.70 1.076
435.80 1.077
435.90 1.078
436.00 1.079
436.10 1.08
436.20 1.081
436.30 1.081
436.40 1.081
436.50 1.082
436.60 1.082
436.70 1.082
436.80 1.082
436.90 1.083
437.00 1.083
437.10 1.083
437.20 1.083
437.30 1.083
437.40 1.083
437.50 1.083
437.60 1.083
437.70 1.083
437.80 1.083
437.90 1.083
438.00 1.083
438.10 1.083
438.20 1.083
438.30 1.083
438.40 1.083
438.50 1.083
438.60 1.083
438.70 1.083
438.80 1.083
438.90 1.083
439.00 1.083
439.10 1.083
439.20 1.083
439.30 1.083
439.40 1.083
439.50 1.083
439.60 1.083
439.70 1.083
439.80 1.083
439.90 1.082
440.00 1.082
440.10 1.082
440.20 1.082
440.30 1.082
440.40 1.082
440.50 1.082
440.60 1.082
440.70 1.082
440.80 1.082
440.90 1.082
441.00 1.082
441.10 1.082
441.20 1.081
441.30 1.081
441.40 1.081
441.50 1.081
441.60 1.081
441.70 1.081
441.80 1.081
441.90 1.081
442.00 1.081
442.10 1.081
442.20 1.081
442.30 1.08
442.40 1.08
442.50 1.08
442.60 1.08
442.70 1.08
442.80 1.08
442.90 1.08
443.00 1.08
443.10 1.08
443.20 1.08
443.30 1.08
443.40 1.079
443.50 1.079
443.60 1.079
443.70 1.079
443.80 1.079
443.90 1.079
444.00 1.079
444.10 1.079
444.20 1.079
444.30 1.079
444.40 1.078
444.50 1.078
444.60 1.078
444.70 1.078
444.80 1.078
444.90 1.078
445.00 1.078
445.10 1.078
445.20 1.078
445.30 1.078
445.40 1.077
445.50 1.077
445.60 1.077
445.70 1.077
445.80 1.077
445.90 1.077
446.00 1.077
446.10 1.077
446.20 1.077
446.30 1.077
446.40 1.076
446.50 1.076
446.60 1.076
446.70 1.076
446.80 1.076
446.90 1.076
447.00 1.076
447.10 1.076
447.20 1.076
447.30 1.075
447.40 1.075
447.50 1.075
447.60 1.075
447.70 1.075
447.80 1.075
447.90 1.075
448.00 1.075
448.10 1.075
448.20 1.074
448.30 1.074
448.40 1.074
448.50 1.074
448.60 1.074
448.70 1.074
448.80 1.074
448.90 1.074
449.00 1.074
449.10 1.073
449.20 1.073
449.30 1.073
449.40 1.073
449.50 1.073
449.60 1.073
449.70 1.073
449.80 1.073
449.90 1.073
450.00 1.072
450.10 1.072
450.20 1.072
450.30 1.072
450.40 1.072
450.50 1.072
450.60 1.072
450.70 1.072
450.80 1.072
450.90 1.071
451.00 1.071
451.10 1.071
451.20 1.071
451.30 1.071
451.40 1.071
451.50 1.071
451.60 1.071
451.70 1.07
451.80 1.07
451.90 1.07
452.00 1.07
452.10 1.07
452.20 1.07
452.30 1.07
