# Version 2.1 - nm, norm@500 to 1, cut digits, bergeron_14000_75.dat_14000
# Wavelength(nm)  Flambda(ergs/cm^s/s/nm)
300.00 1.997
300.10 1.995
300.20 1.994
300.30 1.992
300.40 1.991
300.50 1.989
300.60 1.988
300.70 1.987
300.80 1.985
300.90 1.984
301.00 1.982
301.10 1.981
301.20 1.979
301.30 1.978
301.40 1.976
301.50 1.975
301.60 1.974
301.70 1.972
301.80 1.971
301.90 1.969
302.00 1.968
302.10 1.966
302.20 1.965
302.30 1.964
302.40 1.962
302.50 1.961
302.60 1.959
302.70 1.958
302.80 1.956
302.90 1.955
303.00 1.954
303.10 1.952
303.20 1.951
303.30 1.949
303.40 1.948
303.50 1.946
303.60 1.945
303.70 1.944
303.80 1.942
303.90 1.941
304.00 1.939
304.10 1.938
304.20 1.937
304.30 1.935
304.40 1.934
304.50 1.932
304.60 1.931
304.70 1.93
304.80 1.928
304.90 1.927
305.00 1.925
305.10 1.924
305.20 1.923
305.30 1.921
305.40 1.92
305.50 1.919
305.60 1.917
305.70 1.916
305.80 1.914
305.90 1.913
306.00 1.912
306.10 1.91
306.20 1.909
306.30 1.908
306.40 1.906
306.50 1.905
306.60 1.903
306.70 1.902
306.80 1.901
306.90 1.899
307.00 1.898
307.10 1.897
307.20 1.895
307.30 1.894
307.40 1.893
307.50 1.891
307.60 1.89
307.70 1.888
307.80 1.887
307.90 1.886
308.00 1.884
308.10 1.883
308.20 1.882
308.30 1.88
308.40 1.879
308.50 1.878
308.60 1.876
308.70 1.875
308.80 1.874
308.90 1.872
309.00 1.871
309.10 1.87
309.20 1.868
309.30 1.867
309.40 1.866
309.50 1.864
309.60 1.863
309.70 1.862
309.80 1.86
309.90 1.859
310.00 1.858
310.10 1.856
310.20 1.855
310.30 1.854
310.40 1.852
310.50 1.851
310.60 1.85
310.70 1.849
310.80 1.847
310.90 1.846
311.00 1.845
311.10 1.843
311.20 1.842
311.30 1.841
311.40 1.839
311.50 1.838
311.60 1.837
311.70 1.835
311.80 1.834
311.90 1.833
312.00 1.832
312.10 1.83
312.20 1.829
312.30 1.828
312.40 1.826
312.50 1.825
312.60 1.824
312.70 1.822
312.80 1.821
312.90 1.82
313.00 1.819
313.10 1.817
313.20 1.816
313.30 1.815
313.40 1.814
313.50 1.812
313.60 1.811
313.70 1.81
313.80 1.808
313.90 1.807
314.00 1.806
314.10 1.805
314.20 1.803
314.30 1.802
314.40 1.801
314.50 1.8
314.60 1.798
314.70 1.797
314.80 1.796
314.90 1.794
315.00 1.793
315.10 1.792
315.20 1.791
315.30 1.789
315.40 1.788
315.50 1.787
315.60 1.786
315.70 1.784
315.80 1.783
315.90 1.782
316.00 1.781
316.10 1.779
316.20 1.778
316.30 1.777
316.40 1.776
316.50 1.774
316.60 1.773
316.70 1.772
316.80 1.771
316.90 1.769
317.00 1.768
317.10 1.767
317.20 1.766
317.30 1.765
317.40 1.763
317.50 1.762
317.60 1.761
317.70 1.76
317.80 1.758
317.90 1.757
318.00 1.756
318.10 1.755
318.20 1.753
318.30 1.752
318.40 1.751
318.50 1.75
318.60 1.749
318.70 1.747
318.80 1.746
318.90 1.745
319.00 1.744
319.10 1.743
319.20 1.741
319.30 1.74
319.40 1.739
319.50 1.738
319.60 1.736
319.70 1.735
319.80 1.734
319.90 1.733
320.00 1.732
320.10 1.73
320.20 1.729
320.30 1.728
320.40 1.727
320.50 1.726
320.60 1.724
320.70 1.723
320.80 1.722
320.90 1.721
321.00 1.72
321.10 1.719
321.20 1.717
321.30 1.716
321.40 1.715
321.50 1.714
321.60 1.713
321.70 1.711
321.80 1.71
321.90 1.709
322.00 1.708
322.10 1.707
322.20 1.705
322.30 1.704
322.40 1.703
322.50 1.702
322.60 1.701
322.70 1.7
322.80 1.698
322.90 1.697
323.00 1.696
323.10 1.695
323.20 1.694
323.30 1.693
323.40 1.691
323.50 1.69
323.60 1.689
323.70 1.688
323.80 1.687
323.90 1.686
324.00 1.684
324.10 1.683
324.20 1.682
324.30 1.681
324.40 1.68
324.50 1.679
324.60 1.678
324.70 1.676
324.80 1.675
324.90 1.674
325.00 1.673
325.10 1.672
325.20 1.671
325.30 1.67
325.40 1.668
325.50 1.667
325.60 1.666
325.70 1.665
325.80 1.664
325.90 1.663
326.00 1.662
326.10 1.66
326.20 1.659
326.30 1.658
326.40 1.657
326.50 1.656
326.60 1.655
326.70 1.654
326.80 1.652
326.90 1.651
327.00 1.65
327.10 1.649
327.20 1.648
327.30 1.647
327.40 1.646
327.50 1.645
327.60 1.643
327.70 1.642
327.80 1.641
327.90 1.64
328.00 1.639
328.10 1.638
328.20 1.637
328.30 1.636
328.40 1.635
328.50 1.633
328.60 1.632
328.70 1.631
328.80 1.63
328.90 1.629
329.00 1.628
329.10 1.627
329.20 1.626
329.30 1.625
329.40 1.624
329.50 1.622
329.60 1.621
329.70 1.62
329.80 1.619
329.90 1.618
330.00 1.617
330.10 1.616
330.20 1.615
330.30 1.614
330.40 1.613
330.50 1.611
330.60 1.61
330.70 1.609
330.80 1.608
330.90 1.607
331.00 1.606
331.10 1.605
331.20 1.604
331.30 1.603
331.40 1.602
331.50 1.601
331.60 1.6
331.70 1.598
331.80 1.597
331.90 1.596
332.00 1.595
332.10 1.594
332.20 1.593
332.30 1.592
332.40 1.591
332.50 1.59
332.60 1.589
332.70 1.588
332.80 1.587
332.90 1.586
333.00 1.584
333.10 1.583
333.20 1.582
333.30 1.581
333.40 1.58
333.50 1.579
333.60 1.578
333.70 1.577
333.80 1.576
333.90 1.575
334.00 1.574
334.10 1.573
334.20 1.572
334.30 1.571
334.40 1.57
334.50 1.569
334.60 1.568
334.70 1.567
334.80 1.565
334.90 1.564
335.00 1.563
335.10 1.562
335.20 1.561
335.30 1.56
335.40 1.559
335.50 1.558
335.60 1.557
335.70 1.556
335.80 1.555
335.90 1.554
336.00 1.553
336.10 1.552
336.20 1.551
336.30 1.55
336.40 1.549
336.50 1.548
336.60 1.547
336.70 1.546
336.80 1.545
336.90 1.544
337.00 1.543
337.10 1.542
337.20 1.541
337.30 1.54
337.40 1.539
337.50 1.537
337.60 1.536
337.70 1.535
337.80 1.534
337.90 1.533
338.00 1.532
338.10 1.531
338.20 1.53
338.30 1.529
338.40 1.528
338.50 1.527
338.60 1.526
338.70 1.525
338.80 1.524
338.90 1.523
339.00 1.522
339.10 1.521
339.20 1.52
339.30 1.519
339.40 1.518
339.50 1.517
339.60 1.516
339.70 1.515
339.80 1.514
339.90 1.513
340.00 1.512
340.10 1.511
340.20 1.51
340.30 1.509
340.40 1.508
340.50 1.507
340.60 1.506
340.70 1.505
340.80 1.504
340.90 1.503
341.00 1.502
341.10 1.501
341.20 1.5
341.30 1.499
341.40 1.498
341.50 1.497
341.60 1.496
341.70 1.495
341.80 1.494
341.90 1.493
342.00 1.492
342.10 1.491
342.20 1.49
342.30 1.489
342.40 1.488
342.50 1.487
342.60 1.486
342.70 1.485
342.80 1.484
342.90 1.484
343.00 1.483
343.10 1.482
343.20 1.481
343.30 1.48
343.40 1.479
343.50 1.478
343.60 1.477
343.70 1.476
343.80 1.475
343.90 1.474
344.00 1.473
344.10 1.472
344.20 1.471
344.30 1.47
344.40 1.469
344.50 1.468
344.60 1.467
344.70 1.466
344.80 1.465
344.90 1.464
345.00 1.463
345.10 1.462
345.20 1.461
345.30 1.46
345.40 1.459
345.50 1.458
345.60 1.457
345.70 1.456
345.80 1.456
345.90 1.455
346.00 1.454
346.10 1.453
346.20 1.452
346.30 1.451
346.40 1.45
346.50 1.449
346.60 1.448
346.70 1.447
346.80 1.446
346.90 1.445
347.00 1.444
347.10 1.443
347.20 1.442
347.30 1.441
347.40 1.44
347.50 1.439
347.60 1.439
347.70 1.438
347.80 1.437
347.90 1.436
348.00 1.435
348.10 1.434
348.20 1.433
348.30 1.432
348.40 1.431
348.50 1.43
348.60 1.429
348.70 1.428
348.80 1.427
348.90 1.426
349.00 1.425
349.10 1.425
349.20 1.424
349.30 1.423
349.40 1.422
349.50 1.421
349.60 1.42
349.70 1.419
349.80 1.418
349.90 1.417
350.00 1.416
350.10 1.415
350.20 1.414
350.30 1.414
350.40 1.413
350.50 1.412
350.60 1.411
350.70 1.41
350.80 1.409
350.90 1.408
351.00 1.407
351.10 1.406
351.20 1.405
351.30 1.404
351.40 1.404
351.50 1.403
351.60 1.402
351.70 1.401
351.80 1.4
351.90 1.399
352.00 1.398
352.10 1.397
352.20 1.396
352.30 1.395
352.40 1.394
352.50 1.394
352.60 1.393
352.70 1.392
352.80 1.391
352.90 1.39
353.00 1.389
353.10 1.388
353.20 1.387
353.30 1.386
353.40 1.386
353.50 1.385
353.60 1.384
353.70 1.383
353.80 1.382
353.90 1.381
354.00 1.38
354.10 1.379
354.20 1.378
354.30 1.378
354.40 1.377
354.50 1.376
354.60 1.375
354.70 1.374
354.80 1.373
354.90 1.372
355.00 1.371
355.10 1.37
355.20 1.37
355.30 1.369
355.40 1.368
355.50 1.367
355.60 1.366
355.70 1.365
355.80 1.364
355.90 1.363
356.00 1.363
356.10 1.362
356.20 1.361
356.30 1.36
356.40 1.359
356.50 1.358
356.60 1.357
356.70 1.356
356.80 1.356
356.90 1.355
357.00 1.354
357.10 1.353
357.20 1.352
357.30 1.351
357.40 1.35
357.50 1.35
357.60 1.349
357.70 1.348
357.80 1.347
357.90 1.346
358.00 1.345
358.10 1.344
358.20 1.344
358.30 1.343
358.40 1.342
358.50 1.341
358.60 1.34
358.70 1.339
358.80 1.338
358.90 1.338
359.00 1.337
359.10 1.336
359.20 1.335
359.30 1.334
359.40 1.333
359.50 1.332
359.60 1.332
359.70 1.331
359.80 1.33
359.90 1.329
360.00 1.328
360.10 1.327
360.20 1.327
360.30 1.326
360.40 1.325
360.50 1.324
360.60 1.323
360.70 1.322
360.80 1.322
360.90 1.321
361.00 1.32
361.10 1.319
361.20 1.318
361.30 1.317
361.40 1.317
361.50 1.316
361.60 1.315
361.70 1.314
361.80 1.313
361.90 1.312
362.00 1.312
362.10 1.311
362.20 1.31
362.30 1.309
362.40 1.308
362.50 1.307
362.60 1.307
362.70 1.306
362.80 1.305
362.90 1.304
363.00 1.303
363.10 1.302
363.20 1.301
363.30 1.301
363.40 1.3
363.50 1.299
363.60 1.298
363.70 1.297
363.80 1.296
363.90 1.295
364.00 1.294
364.10 1.294
364.20 1.293
364.30 1.292
364.40 1.291
364.50 1.29
364.60 1.289
364.70 1.288
364.80 1.287
364.90 1.287
365.00 1.286
365.10 1.285
365.20 1.284
365.30 1.283
365.40 1.282
365.50 1.281
365.60 1.281
365.70 1.28
365.80 1.279
365.90 1.278
366.00 1.277
366.10 1.276
366.20 1.275
366.30 1.275
366.40 1.274
366.50 1.273
366.60 1.272
366.70 1.271
366.80 1.271
366.90 1.27
367.00 1.269
367.10 1.268
367.20 1.267
367.30 1.267
367.40 1.266
367.50 1.265
367.60 1.264
367.70 1.264
367.80 1.263
367.90 1.262
368.00 1.261
368.10 1.261
368.20 1.26
368.30 1.26
368.40 1.259
368.50 1.259
368.60 1.258
368.70 1.258
368.80 1.258
368.90 1.257
369.00 1.257
369.10 1.256
369.20 1.256
369.30 1.255
369.40 1.255
369.50 1.255
369.60 1.254
369.70 1.254
369.80 1.253
369.90 1.253
370.00 1.252
370.10 1.253
370.20 1.253
370.30 1.254
370.40 1.255
370.50 1.255
370.60 1.256
370.70 1.256
370.80 1.257
370.90 1.257
371.00 1.258
371.10 1.258
371.20 1.259
371.30 1.259
371.40 1.26
371.50 1.26
371.60 1.261
371.70 1.261
371.80 1.262
371.90 1.262
372.00 1.263
372.10 1.265
372.20 1.266
372.30 1.268
372.40 1.27
372.50 1.272
372.60 1.273
372.70 1.275
372.80 1.277
372.90 1.278
373.00 1.28
373.10 1.282
373.20 1.284
373.30 1.285
373.40 1.287
373.50 1.289
373.60 1.291
373.70 1.292
373.80 1.294
373.90 1.296
374.00 1.297
374.10 1.3
374.20 1.302
374.30 1.304
374.40 1.306
374.50 1.308
374.60 1.311
374.70 1.313
374.80 1.315
374.90 1.317
375.00 1.319
375.10 1.322
375.20 1.324
375.30 1.326
375.40 1.328
375.50 1.33
375.60 1.332
375.70 1.335
375.80 1.337
375.90 1.339
376.00 1.341
376.10 1.342
376.20 1.343
376.30 1.345
376.40 1.346
376.50 1.347
376.60 1.348
376.70 1.349
376.80 1.35
376.90 1.351
377.00 1.352
377.10 1.351
377.20 1.349
377.30 1.347
377.40 1.345
377.50 1.344
377.60 1.342
377.70 1.34
377.80 1.338
377.90 1.337
378.00 1.335
378.10 1.324
378.20 1.314
378.30 1.303
378.40 1.293
378.50 1.282
378.60 1.271
378.70 1.261
378.80 1.25
378.90 1.24
379.00 1.229
379.10 1.221
379.20 1.213
379.30 1.205
379.40 1.197
379.50 1.189
379.60 1.181
379.70 1.173
379.80 1.165
379.90 1.157
380.00 1.149
380.10 1.162
380.20 1.174
380.30 1.187
380.40 1.2
380.50 1.212
380.60 1.225
380.70 1.237
380.80 1.25
380.90 1.262
381.00 1.275
381.10 1.279
381.20 1.284
381.30 1.288
381.40 1.293
381.50 1.298
381.60 1.297
381.70 1.294
381.80 1.29
381.90 1.285
382.00 1.277
382.10 1.267
382.20 1.256
382.30 1.234
382.40 1.212
382.50 1.19
382.60 1.168
382.70 1.146
382.80 1.124
382.90 1.102
383.00 1.081
383.10 1.059
383.20 1.037
383.30 1.018
383.40 0.9965
383.50 0.9736
383.60 0.9781
383.70 1.002
383.80 1.023
383.90 1.042
384.00 1.064
384.10 1.09
384.20 1.117
384.30 1.145
384.40 1.172
384.50 1.197
384.60 1.221
384.70 1.242
384.80 1.261
384.90 1.277
385.00 1.292
385.10 1.304
385.20 1.315
385.30 1.325
385.40 1.332
385.50 1.338
385.60 1.344
385.70 1.347
385.80 1.35
385.90 1.351
386.00 1.351
386.10 1.351
386.20 1.349
386.30 1.345
386.40 1.341
386.50 1.336
386.60 1.329
386.70 1.321
386.80 1.312
386.90 1.302
387.00 1.291
387.10 1.279
387.20 1.265
387.30 1.25
387.40 1.233
387.50 1.215
387.60 1.194
387.70 1.173
387.80 1.148
387.90 1.121
388.00 1.092
388.10 1.06
388.20 1.026
388.30 0.9905
388.40 0.9548
388.50 0.9215
388.60 0.8908
388.70 0.8622
388.80 0.8349
388.90 0.8086
389.00 0.8324
389.10 0.8583
389.20 0.8865
389.30 0.9165
389.40 0.9491
389.50 0.9844
389.60 1.02
389.70 1.054
389.80 1.087
389.90 1.117
390.00 1.145
390.10 1.171
390.20 1.194
390.30 1.216
390.40 1.237
390.50 1.256
390.60 1.274
390.70 1.291
390.80 1.307
390.90 1.323
391.00 1.337
391.10 1.351
391.20 1.364
391.30 1.377
391.40 1.388
391.50 1.399
391.60 1.409
391.70 1.419
391.80 1.427
391.90 1.436
392.00 1.442
392.10 1.449
392.20 1.454
392.30 1.459
392.40 1.463
392.50 1.466
392.60 1.467
392.70 1.468
392.80 1.469
392.90 1.468
393.00 1.466
393.10 1.464
393.20 1.46
393.30 1.456
393.40 1.451
393.50 1.444
393.60 1.437
393.70 1.429
393.80 1.42
393.90 1.41
394.00 1.4
394.10 1.388
394.20 1.375
394.30 1.362
394.40 1.348
394.50 1.333
394.60 1.318
394.70 1.302
394.80 1.285
394.90 1.267
395.00 1.249
395.10 1.23
395.20 1.211
395.30 1.191
395.40 1.17
395.50 1.149
395.60 1.126
395.70 1.103
395.80 1.079
395.90 1.052
396.00 1.025
396.10 0.9969
396.20 0.9656
396.30 0.9326
396.40 0.8978
396.50 0.8606
396.60 0.8244
396.70 0.789
396.80 0.755
396.90 0.7157
397.00 0.6711
397.10 0.7119
397.20 0.7491
397.30 0.7827
397.40 0.8171
397.50 0.8524
397.60 0.8887
397.70 0.923
397.80 0.9555
397.90 0.9862
398.00 1.014
398.10 1.04
398.20 1.066
398.30 1.09
398.40 1.113
398.50 1.135
398.60 1.156
398.70 1.176
398.80 1.196
398.90 1.215
399.00 1.234
399.10 1.252
399.20 1.27
399.30 1.288
399.40 1.305
399.50 1.322
399.60 1.338
399.70 1.354
399.80 1.37
399.90 1.385
400.00 1.4
400.10 1.414
400.20 1.427
400.30 1.44
400.40 1.453
400.50 1.465
400.60 1.477
400.70 1.488
400.80 1.498
400.90 1.508
401.00 1.518
401.10 1.527
401.20 1.536
401.30 1.544
401.40 1.552
401.50 1.559
401.60 1.566
401.70 1.573
401.80 1.579
401.90 1.584
402.00 1.589
402.10 1.594
402.20 1.598
402.30 1.602
402.40 1.606
402.50 1.609
402.60 1.612
402.70 1.614
402.80 1.616
402.90 1.617
403.00 1.619
403.10 1.619
403.20 1.62
403.30 1.62
403.40 1.62
403.50 1.619
403.60 1.618
403.70 1.617
403.80 1.615
403.90 1.613
404.00 1.61
404.10 1.607
404.20 1.604
404.30 1.6
404.40 1.596
404.50 1.592
404.60 1.587
404.70 1.582
404.80 1.576
404.90 1.57
405.00 1.564
405.10 1.557
405.20 1.55
405.30 1.542
405.40 1.534
405.50 1.526
405.60 1.517
405.70 1.507
405.80 1.497
405.90 1.487
406.00 1.477
406.10 1.466
406.20 1.454
406.30 1.442
406.40 1.43
406.50 1.417
406.60 1.404
406.70 1.39
406.80 1.376
406.90 1.361
407.00 1.346
407.10 1.33
407.20 1.314
407.30 1.297
407.40 1.28
407.50 1.263
407.60 1.245
407.70 1.227
407.80 1.208
407.90 1.189
408.00 1.17
408.10 1.15
408.20 1.13
408.30 1.11
408.40 1.09
408.50 1.069
408.60 1.048
408.70 1.027
408.80 1.006
408.90 0.9834
409.00 0.9611
409.10 0.9377
409.20 0.9137
409.30 0.889
409.40 0.8619
409.50 0.8333
409.60 0.8033
409.70 0.7709
409.80 0.7381
409.90 0.705
410.00 0.6662
410.10 0.6262
410.20 0.585
410.30 0.6415
410.40 0.6868
410.50 0.7212
410.60 0.7535
410.70 0.7851
410.80 0.8161
410.90 0.8441
411.00 0.8707
411.10 0.8958
411.20 0.9189
411.30 0.9414
411.40 0.9633
411.50 0.9843
411.60 1.005
411.70 1.025
411.80 1.045
411.90 1.064
412.00 1.084
412.10 1.102
412.20 1.121
412.30 1.139
412.40 1.157
412.50 1.175
412.60 1.192
412.70 1.209
412.80 1.226
412.90 1.242
413.00 1.258
413.10 1.274
413.20 1.289
413.30 1.303
413.40 1.318
413.50 1.331
413.60 1.345
413.70 1.357
413.80 1.37
413.90 1.382
414.00 1.394
414.10 1.405
414.20 1.416
414.30 1.427
414.40 1.437
414.50 1.447
414.60 1.457
414.70 1.466
414.80 1.475
414.90 1.483
415.00 1.492
415.10 1.5
415.20 1.507
415.30 1.515
415.40 1.522
415.50 1.529
415.60 1.535
415.70 1.541
415.80 1.547
415.90 1.553
416.00 1.559
416.10 1.564
416.20 1.569
416.30 1.574
416.40 1.579
416.50 1.583
416.60 1.587
416.70 1.591
416.80 1.595
416.90 1.599
417.00 1.602
417.10 1.606
417.20 1.609
417.30 1.612
417.40 1.615
417.50 1.618
417.60 1.62
417.70 1.623
417.80 1.625
417.90 1.627
418.00 1.629
418.10 1.631
418.20 1.633
418.30 1.635
418.40 1.636
418.50 1.638
418.60 1.639
418.70 1.64
418.80 1.641
418.90 1.642
419.00 1.643
419.10 1.644
419.20 1.645
419.30 1.646
419.40 1.646
419.50 1.647
419.60 1.647
419.70 1.648
419.80 1.648
419.90 1.648
420.00 1.648
420.10 1.648
420.20 1.648
420.30 1.648
420.40 1.648
420.50 1.648
420.60 1.648
420.70 1.647
420.80 1.647
420.90 1.646
421.00 1.646
421.10 1.645
421.20 1.645
421.30 1.644
421.40 1.643
421.50 1.643
421.60 1.642
421.70 1.641
421.80 1.64
421.90 1.639
422.00 1.638
422.10 1.637
422.20 1.635
422.30 1.634
422.40 1.633
422.50 1.631
422.60 1.63
422.70 1.629
422.80 1.627
422.90 1.625
423.00 1.624
423.10 1.622
423.20 1.62
423.30 1.618
423.40 1.617
423.50 1.615
423.60 1.613
423.70 1.611
423.80 1.608
423.90 1.606
424.00 1.604
424.10 1.602
424.20 1.599
424.30 1.597
424.40 1.594
424.50 1.592
424.60 1.589
424.70 1.586
424.80 1.583
424.90 1.58
425.00 1.577
425.10 1.574
425.20 1.571
425.30 1.568
425.40 1.565
425.50 1.561
425.60 1.558
425.70 1.554
425.80 1.55
425.90 1.547
426.00 1.543
426.10 1.539
426.20 1.534
426.30 1.529
426.40 1.525
426.50 1.52
426.60 1.516
426.70 1.511
426.80 1.506
426.90 1.501
427.00 1.496
427.10 1.491
427.20 1.486
427.30 1.48
427.40 1.475
427.50 1.469
427.60 1.463
427.70 1.457
427.80 1.451
427.90 1.444
428.00 1.438
428.10 1.431
428.20 1.424
428.30 1.417
428.40 1.41
428.50 1.402
428.60 1.395
428.70 1.387
428.80 1.379
428.90 1.37
429.00 1.362
429.10 1.353
429.20 1.344
429.30 1.335
429.40 1.326
429.50 1.316
429.60 1.306
429.70 1.296
429.80 1.285
429.90 1.275
430.00 1.264
430.10 1.253
430.20 1.241
430.30 1.23
430.40 1.218
430.50 1.206
430.60 1.194
430.70 1.181
430.80 1.168
430.90 1.155
431.00 1.142
431.10 1.128
431.20 1.115
431.30 1.101
431.40 1.086
431.50 1.072
431.60 1.057
431.70 1.042
431.80 1.027
431.90 1.011
432.00 0.9953
432.10 0.9789
432.20 0.9618
432.30 0.9443
432.40 0.9263
432.50 0.9071
432.60 0.8874
432.70 0.8671
432.80 0.8465
432.90 0.826
433.00 0.8058
433.10 0.7865
433.20 0.767
433.30 0.7473
433.40 0.7255
433.50 0.7023
433.60 0.6776
433.70 0.6495
433.80 0.6184
433.90 0.5842
434.00 0.5107
434.10 0.5116
434.20 0.587
434.30 0.6199
434.40 0.65
434.50 0.6773
434.60 0.7011
434.70 0.7235
434.80 0.7443
434.90 0.7631
435.00 0.7818
435.10 0.8002
435.20 0.8195
435.30 0.839
435.40 0.8586
435.50 0.8776
435.60 0.8961
435.70 0.914
435.80 0.9307
435.90 0.9469
436.00 0.9626
436.10 0.9775
436.20 0.9922
436.30 1.006
436.40 1.02
436.50 1.034
436.60 1.047
436.70 1.06
436.80 1.072
436.90 1.084
437.00 1.096
437.10 1.108
437.20 1.12
437.30 1.131
437.40 1.142
437.50 1.153
437.60 1.163
437.70 1.173
437.80 1.183
437.90 1.193
438.00 1.202
438.10 1.211
438.20 1.22
438.30 1.229
438.40 1.237
438.50 1.245
438.60 1.253
438.70 1.26
438.80 1.268
438.90 1.275
439.00 1.282
439.10 1.288
439.20 1.295
439.30 1.301
439.40 1.307
439.50 1.312
439.60 1.318
439.70 1.323
439.80 1.328
439.90 1.333
440.00 1.338
440.10 1.342
440.20 1.347
440.30 1.351
440.40 1.355
440.50 1.359
440.60 1.363
440.70 1.366
440.80 1.37
440.90 1.373
441.00 1.376
441.10 1.379
441.20 1.382
441.30 1.385
441.40 1.388
441.50 1.39
441.60 1.393
441.70 1.395
441.80 1.397
441.90 1.4
442.00 1.402
442.10 1.404
442.20 1.405
442.30 1.407
442.40 1.409
442.50 1.41
442.60 1.412
442.70 1.413
442.80 1.415
442.90 1.416
443.00 1.417
443.10 1.418
443.20 1.419
443.30 1.42
443.40 1.421
443.50 1.422
443.60 1.423
443.70 1.424
443.80 1.425
443.90 1.425
444.00 1.426
444.10 1.427
444.20 1.427
444.30 1.428
444.40 1.428
444.50 1.428
444.60 1.429
444.70 1.429
444.80 1.429
444.90 1.43
445.00 1.43
445.10 1.43
445.20 1.43
445.30 1.43
445.40 1.43
445.50 1.43
445.60 1.43
445.70 1.43
445.80 1.43
445.90 1.43
446.00 1.43
446.10 1.43
446.20 1.43
446.30 1.43
446.40 1.429
446.50 1.429
446.60 1.429
446.70 1.429
446.80 1.428
446.90 1.428
447.00 1.428
447.10 1.428
447.20 1.427
447.30 1.427
447.40 1.426
447.50 1.426
447.60 1.426
447.70 1.425
447.80 1.425
447.90 1.424
448.00 1.424
448.10 1.423
448.20 1.423
448.30 1.422
448.40 1.422
448.50 1.421
448.60 1.42
448.70 1.42
448.80 1.419
448.90 1.419
449.00 1.418
449.10 1.418
449.20 1.417
449.30 1.417
449.40 1.416
449.50 1.415
449.60 1.415
449.70 1.414
449.80 1.413
449.90 1.413
450.00 1.412
450.10 1.411
450.20 1.411
450.30 1.41
450.40 1.409
450.50 1.409
450.60 1.408
450.70 1.407
450.80 1.406
450.90 1.406
451.00 1.405
451.10 1.404
451.20 1.403
451.30 1.403
451.40 1.402
451.50 1.401
451.60 1.4
451.70 1.4
451.80 1.399
451.90 1.398
452.00 1.397
452.10 1.396
452.20 1.396
452.30 1.395
452.40 1.394
452.50 1.393
452.60 1.392
452.70 1.392
452.80 1.391
452.90 1.39
453.00 1.389
453.10 1.388
453.20 1.387
453.30 1.387
453.40 1.386
