# Version 2.1 - nm, norm@500 to 1, cut digits, bergeron_13500_95.dat_13500
# Wavelength(nm)  Flambda(ergs/cm^s/s/nm)
300.00 2.599
300.10 2.597
300.20 2.596
300.30 2.594
300.40 2.592
300.50 2.59
300.60 2.588
300.70 2.587
300.80 2.585
300.90 2.583
301.00 2.581
301.10 2.58
301.20 2.578
301.30 2.576
301.40 2.574
301.50 2.573
301.60 2.571
301.70 2.569
301.80 2.567
301.90 2.566
302.00 2.564
302.10 2.562
302.20 2.56
302.30 2.559
302.40 2.557
302.50 2.555
302.60 2.554
302.70 2.552
302.80 2.55
302.90 2.548
303.00 2.547
303.10 2.545
303.20 2.543
303.30 2.541
303.40 2.54
303.50 2.538
303.60 2.536
303.70 2.535
303.80 2.533
303.90 2.531
304.00 2.529
304.10 2.528
304.20 2.526
304.30 2.524
304.40 2.523
304.50 2.521
304.60 2.519
304.70 2.517
304.80 2.516
304.90 2.514
305.00 2.512
305.10 2.511
305.20 2.509
305.30 2.507
305.40 2.506
305.50 2.504
305.60 2.502
305.70 2.5
305.80 2.499
305.90 2.497
306.00 2.495
306.10 2.494
306.20 2.492
306.30 2.49
306.40 2.489
306.50 2.487
306.60 2.485
306.70 2.484
306.80 2.482
306.90 2.48
307.00 2.478
307.10 2.477
307.20 2.475
307.30 2.473
307.40 2.472
307.50 2.47
307.60 2.468
307.70 2.467
307.80 2.465
307.90 2.463
308.00 2.462
308.10 2.46
308.20 2.458
308.30 2.457
308.40 2.455
308.50 2.453
308.60 2.452
308.70 2.45
308.80 2.448
308.90 2.447
309.00 2.445
309.10 2.444
309.20 2.442
309.30 2.44
309.40 2.439
309.50 2.437
309.60 2.435
309.70 2.434
309.80 2.432
309.90 2.43
310.00 2.429
310.10 2.427
310.20 2.425
310.30 2.424
310.40 2.422
310.50 2.42
310.60 2.419
310.70 2.417
310.80 2.416
310.90 2.414
311.00 2.412
311.10 2.411
311.20 2.409
311.30 2.407
311.40 2.406
311.50 2.404
311.60 2.403
311.70 2.401
311.80 2.399
311.90 2.398
312.00 2.396
312.10 2.394
312.20 2.393
312.30 2.391
312.40 2.39
312.50 2.388
312.60 2.386
312.70 2.385
312.80 2.383
312.90 2.382
313.00 2.38
313.10 2.378
313.20 2.377
313.30 2.375
313.40 2.374
313.50 2.372
313.60 2.37
313.70 2.369
313.80 2.367
313.90 2.366
314.00 2.364
314.10 2.362
314.20 2.361
314.30 2.359
314.40 2.358
314.50 2.356
314.60 2.354
314.70 2.353
314.80 2.351
314.90 2.35
315.00 2.348
315.10 2.346
315.20 2.345
315.30 2.343
315.40 2.342
315.50 2.34
315.60 2.339
315.70 2.337
315.80 2.335
315.90 2.334
316.00 2.332
316.10 2.331
316.20 2.329
316.30 2.328
316.40 2.326
316.50 2.324
316.60 2.323
316.70 2.321
316.80 2.32
316.90 2.318
317.00 2.317
317.10 2.315
317.20 2.313
317.30 2.312
317.40 2.31
317.50 2.309
317.60 2.307
317.70 2.306
317.80 2.304
317.90 2.303
318.00 2.301
318.10 2.3
318.20 2.298
318.30 2.296
318.40 2.295
318.50 2.293
318.60 2.292
318.70 2.29
318.80 2.289
318.90 2.287
319.00 2.286
319.10 2.284
319.20 2.283
319.30 2.281
319.40 2.279
319.50 2.278
319.60 2.276
319.70 2.275
319.80 2.273
319.90 2.272
320.00 2.27
320.10 2.269
320.20 2.267
320.30 2.266
320.40 2.264
320.50 2.263
320.60 2.261
320.70 2.26
320.80 2.258
320.90 2.257
321.00 2.255
321.10 2.254
321.20 2.252
321.30 2.251
321.40 2.249
321.50 2.248
321.60 2.246
321.70 2.245
321.80 2.243
321.90 2.242
322.00 2.24
322.10 2.239
322.20 2.237
322.30 2.236
322.40 2.234
322.50 2.233
322.60 2.231
322.70 2.23
322.80 2.228
322.90 2.227
323.00 2.225
323.10 2.224
323.20 2.222
323.30 2.221
323.40 2.219
323.50 2.218
323.60 2.216
323.70 2.215
323.80 2.213
323.90 2.212
324.00 2.21
324.10 2.209
324.20 2.207
324.30 2.206
324.40 2.204
324.50 2.203
324.60 2.201
324.70 2.2
324.80 2.198
324.90 2.197
325.00 2.195
325.10 2.194
325.20 2.192
325.30 2.191
325.40 2.19
325.50 2.188
325.60 2.187
325.70 2.185
325.80 2.184
325.90 2.182
326.00 2.181
326.10 2.179
326.20 2.178
326.30 2.176
326.40 2.175
326.50 2.173
326.60 2.172
326.70 2.171
326.80 2.169
326.90 2.168
327.00 2.166
327.10 2.165
327.20 2.163
327.30 2.162
327.40 2.16
327.50 2.159
327.60 2.158
327.70 2.156
327.80 2.155
327.90 2.153
328.00 2.152
328.10 2.15
328.20 2.149
328.30 2.147
328.40 2.146
328.50 2.145
328.60 2.143
328.70 2.142
328.80 2.14
328.90 2.139
329.00 2.137
329.10 2.136
329.20 2.135
329.30 2.133
329.40 2.132
329.50 2.13
329.60 2.129
329.70 2.127
329.80 2.126
329.90 2.125
330.00 2.123
330.10 2.122
330.20 2.12
330.30 2.119
330.40 2.118
330.50 2.116
330.60 2.115
330.70 2.113
330.80 2.112
330.90 2.11
331.00 2.109
331.10 2.108
331.20 2.106
331.30 2.105
331.40 2.103
331.50 2.102
331.60 2.101
331.70 2.099
331.80 2.098
331.90 2.096
332.00 2.095
332.10 2.094
332.20 2.092
332.30 2.091
332.40 2.089
332.50 2.088
332.60 2.087
332.70 2.085
332.80 2.084
332.90 2.083
333.00 2.081
333.10 2.08
333.20 2.078
333.30 2.077
333.40 2.076
333.50 2.074
333.60 2.073
333.70 2.071
333.80 2.07
333.90 2.069
334.00 2.067
334.10 2.066
334.20 2.065
334.30 2.063
334.40 2.062
334.50 2.06
334.60 2.059
334.70 2.058
334.80 2.056
334.90 2.055
335.00 2.054
335.10 2.052
335.20 2.051
335.30 2.05
335.40 2.048
335.50 2.047
335.60 2.045
335.70 2.044
335.80 2.043
335.90 2.041
336.00 2.04
336.10 2.039
336.20 2.037
336.30 2.036
336.40 2.035
336.50 2.033
336.60 2.032
336.70 2.031
336.80 2.029
336.90 2.028
337.00 2.027
337.10 2.025
337.20 2.024
337.30 2.023
337.40 2.021
337.50 2.02
337.60 2.019
337.70 2.017
337.80 2.016
337.90 2.015
338.00 2.013
338.10 2.012
338.20 2.01
338.30 2.009
338.40 2.008
338.50 2.006
338.60 2.005
338.70 2.004
338.80 2.003
338.90 2.001
339.00 2
339.10 1.999
339.20 1.997
339.30 1.996
339.40 1.995
339.50 1.993
339.60 1.992
339.70 1.991
339.80 1.989
339.90 1.988
340.00 1.987
340.10 1.985
340.20 1.984
340.30 1.983
340.40 1.981
340.50 1.98
340.60 1.979
340.70 1.977
340.80 1.976
340.90 1.975
341.00 1.974
341.10 1.972
341.20 1.971
341.30 1.97
341.40 1.968
341.50 1.967
341.60 1.966
341.70 1.964
341.80 1.963
341.90 1.962
342.00 1.961
342.10 1.959
342.20 1.958
342.30 1.957
342.40 1.955
342.50 1.954
342.60 1.953
342.70 1.952
342.80 1.95
342.90 1.949
343.00 1.948
343.10 1.946
343.20 1.945
343.30 1.944
343.40 1.943
343.50 1.941
343.60 1.94
343.70 1.939
343.80 1.937
343.90 1.936
344.00 1.935
344.10 1.934
344.20 1.932
344.30 1.931
344.40 1.93
344.50 1.928
344.60 1.927
344.70 1.926
344.80 1.925
344.90 1.923
345.00 1.922
345.10 1.921
345.20 1.92
345.30 1.918
345.40 1.917
345.50 1.916
345.60 1.915
345.70 1.913
345.80 1.912
345.90 1.911
346.00 1.909
346.10 1.908
346.20 1.907
346.30 1.906
346.40 1.904
346.50 1.903
346.60 1.902
346.70 1.901
346.80 1.899
346.90 1.898
347.00 1.897
347.10 1.896
347.20 1.894
347.30 1.893
347.40 1.892
347.50 1.891
347.60 1.889
347.70 1.888
347.80 1.887
347.90 1.886
348.00 1.885
348.10 1.883
348.20 1.882
348.30 1.881
348.40 1.88
348.50 1.878
348.60 1.877
348.70 1.876
348.80 1.875
348.90 1.873
349.00 1.872
349.10 1.871
349.20 1.87
349.30 1.868
349.40 1.867
349.50 1.866
349.60 1.865
349.70 1.864
349.80 1.862
349.90 1.861
350.00 1.86
350.10 1.859
350.20 1.857
350.30 1.856
350.40 1.855
350.50 1.854
350.60 1.853
350.70 1.851
350.80 1.85
350.90 1.849
351.00 1.848
351.10 1.847
351.20 1.845
351.30 1.844
351.40 1.843
351.50 1.842
351.60 1.841
351.70 1.839
351.80 1.838
351.90 1.837
352.00 1.836
352.10 1.835
352.20 1.833
352.30 1.832
352.40 1.831
352.50 1.83
352.60 1.829
352.70 1.827
352.80 1.826
352.90 1.825
353.00 1.824
353.10 1.823
353.20 1.821
353.30 1.82
353.40 1.819
353.50 1.818
353.60 1.817
353.70 1.815
353.80 1.814
353.90 1.813
354.00 1.812
354.10 1.811
354.20 1.809
354.30 1.808
354.40 1.807
354.50 1.806
354.60 1.805
354.70 1.804
354.80 1.802
354.90 1.801
355.00 1.8
355.10 1.799
355.20 1.798
355.30 1.797
355.40 1.795
355.50 1.794
355.60 1.793
355.70 1.792
355.80 1.791
355.90 1.789
356.00 1.788
356.10 1.787
356.20 1.786
356.30 1.785
356.40 1.784
356.50 1.782
356.60 1.781
356.70 1.78
356.80 1.779
356.90 1.778
357.00 1.777
357.10 1.776
357.20 1.774
357.30 1.773
357.40 1.772
357.50 1.771
357.60 1.77
357.70 1.769
357.80 1.767
357.90 1.766
358.00 1.765
358.10 1.764
358.20 1.763
358.30 1.762
358.40 1.761
358.50 1.759
358.60 1.758
358.70 1.757
358.80 1.756
358.90 1.755
359.00 1.754
359.10 1.753
359.20 1.751
359.30 1.75
359.40 1.749
359.50 1.748
359.60 1.747
359.70 1.746
359.80 1.745
359.90 1.743
360.00 1.742
360.10 1.741
360.20 1.74
360.30 1.739
360.40 1.738
360.50 1.737
360.60 1.736
360.70 1.734
360.80 1.733
360.90 1.732
361.00 1.731
361.10 1.73
361.20 1.729
361.30 1.728
361.40 1.727
361.50 1.725
361.60 1.724
361.70 1.723
361.80 1.722
361.90 1.721
362.00 1.72
362.10 1.719
362.20 1.718
362.30 1.717
362.40 1.715
362.50 1.714
362.60 1.713
362.70 1.712
362.80 1.711
362.90 1.71
363.00 1.709
363.10 1.707
363.20 1.706
363.30 1.705
363.40 1.704
363.50 1.702
363.60 1.701
363.70 1.7
363.80 1.698
363.90 1.697
364.00 1.696
364.10 1.694
364.20 1.693
364.30 1.692
364.40 1.69
364.50 1.689
364.60 1.688
364.70 1.686
364.80 1.685
364.90 1.684
365.00 1.682
365.10 1.681
365.20 1.68
365.30 1.678
365.40 1.677
365.50 1.676
365.60 1.674
365.70 1.673
365.80 1.672
365.90 1.67
366.00 1.669
366.10 1.668
366.20 1.667
366.30 1.666
366.40 1.664
366.50 1.663
366.60 1.662
366.70 1.661
366.80 1.66
366.90 1.659
367.00 1.658
367.10 1.656
367.20 1.655
367.30 1.654
367.40 1.653
367.50 1.652
367.60 1.651
367.70 1.65
367.80 1.648
367.90 1.647
368.00 1.646
368.10 1.645
368.20 1.644
368.30 1.643
368.40 1.642
368.50 1.641
368.60 1.639
368.70 1.638
368.80 1.637
368.90 1.636
369.00 1.635
369.10 1.634
369.20 1.633
369.30 1.631
369.40 1.63
369.50 1.629
369.60 1.628
369.70 1.627
369.80 1.626
369.90 1.625
370.00 1.623
370.10 1.622
370.20 1.621
370.30 1.62
370.40 1.619
370.50 1.618
370.60 1.617
370.70 1.616
370.80 1.615
370.90 1.614
371.00 1.612
371.10 1.611
371.20 1.61
371.30 1.609
371.40 1.608
371.50 1.607
371.60 1.606
371.70 1.605
371.80 1.604
371.90 1.603
372.00 1.601
372.10 1.6
372.20 1.599
372.30 1.598
372.40 1.597
372.50 1.596
372.60 1.595
372.70 1.594
372.80 1.593
372.90 1.592
373.00 1.591
373.10 1.59
373.20 1.589
373.30 1.588
373.40 1.587
373.50 1.586
373.60 1.585
373.70 1.584
373.80 1.583
373.90 1.582
374.00 1.581
374.10 1.581
374.20 1.58
374.30 1.579
374.40 1.578
374.50 1.577
374.60 1.576
374.70 1.575
374.80 1.574
374.90 1.573
375.00 1.572
375.10 1.572
375.20 1.571
375.30 1.57
375.40 1.569
375.50 1.568
375.60 1.567
375.70 1.566
375.80 1.565
375.90 1.564
376.00 1.563
376.10 1.563
376.20 1.562
376.30 1.561
376.40 1.56
376.50 1.559
376.60 1.558
376.70 1.557
376.80 1.557
376.90 1.556
377.00 1.555
377.10 1.554
377.20 1.553
377.30 1.552
377.40 1.551
377.50 1.55
377.60 1.549
377.70 1.548
377.80 1.547
377.90 1.547
378.00 1.546
378.10 1.544
378.20 1.543
378.30 1.542
378.40 1.54
378.50 1.539
378.60 1.538
378.70 1.537
378.80 1.535
378.90 1.534
379.00 1.533
379.10 1.532
379.20 1.531
379.30 1.53
379.40 1.529
379.50 1.528
379.60 1.527
379.70 1.526
379.80 1.525
379.90 1.524
380.00 1.522
380.10 1.522
380.20 1.522
380.30 1.522
380.40 1.522
380.50 1.522
380.60 1.521
380.70 1.521
380.80 1.521
380.90 1.521
381.00 1.521
381.10 1.52
381.20 1.52
381.30 1.519
381.40 1.519
381.50 1.518
381.60 1.517
381.70 1.516
381.80 1.515
381.90 1.514
382.00 1.513
382.10 1.512
382.20 1.51
382.30 1.508
382.40 1.506
382.50 1.504
382.60 1.502
382.70 1.5
382.80 1.498
382.90 1.496
383.00 1.494
383.10 1.492
383.20 1.49
383.30 1.489
383.40 1.487
383.50 1.486
383.60 1.486
383.70 1.487
383.80 1.487
383.90 1.488
384.00 1.489
384.10 1.491
384.20 1.492
384.30 1.494
384.40 1.496
384.50 1.497
384.60 1.498
384.70 1.499
384.80 1.5
384.90 1.501
385.00 1.501
385.10 1.501
385.20 1.502
385.30 1.502
385.40 1.501
385.50 1.501
385.60 1.501
385.70 1.5
385.80 1.5
385.90 1.499
386.00 1.498
386.10 1.497
386.20 1.496
386.30 1.495
386.40 1.493
386.50 1.492
386.60 1.49
386.70 1.488
386.80 1.486
386.90 1.484
387.00 1.482
387.10 1.48
387.20 1.477
387.30 1.475
387.40 1.472
387.50 1.469
387.60 1.466
387.70 1.462
387.80 1.459
387.90 1.455
388.00 1.451
388.10 1.446
388.20 1.442
388.30 1.437
388.40 1.431
388.50 1.427
388.60 1.422
388.70 1.42
388.80 1.417
388.90 1.416
389.00 1.417
389.10 1.419
389.20 1.421
389.30 1.425
389.40 1.429
389.50 1.434
389.60 1.439
389.70 1.443
389.80 1.448
389.90 1.451
390.00 1.455
390.10 1.458
390.20 1.461
390.30 1.464
390.40 1.467
390.50 1.469
390.60 1.471
390.70 1.474
390.80 1.476
390.90 1.477
391.00 1.479
391.10 1.481
391.20 1.482
391.30 1.483
391.40 1.484
391.50 1.485
391.60 1.486
391.70 1.486
391.80 1.486
391.90 1.487
392.00 1.487
392.10 1.487
392.20 1.486
392.30 1.486
392.40 1.485
392.50 1.485
392.60 1.484
392.70 1.482
392.80 1.481
392.90 1.48
393.00 1.478
393.10 1.476
393.20 1.474
393.30 1.472
393.40 1.469
393.50 1.466
393.60 1.464
393.70 1.46
393.80 1.457
393.90 1.454
394.00 1.45
394.10 1.446
394.20 1.442
394.30 1.438
394.40 1.433
394.50 1.428
394.60 1.423
394.70 1.418
394.80 1.412
394.90 1.407
395.00 1.401
395.10 1.394
395.20 1.388
395.30 1.381
395.40 1.374
395.50 1.367
395.60 1.359
395.70 1.351
395.80 1.343
395.90 1.335
396.00 1.326
396.10 1.317
396.20 1.308
396.30 1.297
396.40 1.287
396.50 1.274
396.60 1.261
396.70 1.247
396.80 1.237
396.90 1.227
397.00 1.219
397.10 1.226
397.20 1.235
397.30 1.244
397.40 1.257
397.50 1.27
397.60 1.283
397.70 1.293
397.80 1.303
397.90 1.313
398.00 1.321
398.10 1.33
398.20 1.338
398.30 1.346
398.40 1.354
398.50 1.361
398.60 1.368
398.70 1.375
398.80 1.382
398.90 1.388
399.00 1.394
399.10 1.4
399.20 1.406
399.30 1.411
399.40 1.417
399.50 1.422
399.60 1.426
399.70 1.431
399.80 1.435
399.90 1.44
400.00 1.444
400.10 1.447
400.20 1.451
400.30 1.455
400.40 1.458
400.50 1.461
400.60 1.464
400.70 1.466
400.80 1.469
400.90 1.471
401.00 1.473
401.10 1.475
401.20 1.477
401.30 1.479
401.40 1.48
401.50 1.482
401.60 1.483
401.70 1.484
401.80 1.485
401.90 1.486
402.00 1.486
402.10 1.487
402.20 1.487
402.30 1.487
402.40 1.488
402.50 1.487
402.60 1.487
402.70 1.487
402.80 1.486
402.90 1.485
403.00 1.485
403.10 1.484
403.20 1.482
403.30 1.481
403.40 1.48
403.50 1.478
403.60 1.477
403.70 1.475
403.80 1.473
403.90 1.471
404.00 1.468
404.10 1.466
404.20 1.463
404.30 1.46
404.40 1.458
404.50 1.455
404.60 1.451
404.70 1.448
404.80 1.444
404.90 1.441
405.00 1.437
405.10 1.433
405.20 1.428
405.30 1.424
405.40 1.419
405.50 1.415
405.60 1.41
405.70 1.405
405.80 1.399
405.90 1.394
406.00 1.388
406.10 1.382
406.20 1.376
406.30 1.37
406.40 1.363
406.50 1.356
406.60 1.349
406.70 1.342
406.80 1.335
406.90 1.327
407.00 1.319
407.10 1.311
407.20 1.302
407.30 1.293
407.40 1.284
407.50 1.275
407.60 1.266
407.70 1.256
407.80 1.246
407.90 1.235
408.00 1.224
408.10 1.213
408.20 1.202
408.30 1.19
408.40 1.178
408.50 1.165
408.60 1.152
408.70 1.138
408.80 1.125
408.90 1.111
409.00 1.096
409.10 1.082
409.20 1.067
409.30 1.052
409.40 1.037
409.50 1.021
409.60 1.005
409.70 0.987
409.80 0.9685
409.90 0.9494
410.00 0.9361
410.10 0.9278
410.20 0.9244
410.30 0.9308
410.40 0.9417
410.50 0.9572
410.60 0.9755
410.70 0.9929
410.80 1.009
410.90 1.024
411.00 1.039
411.10 1.053
411.20 1.067
411.30 1.081
411.40 1.094
411.50 1.107
411.60 1.12
411.70 1.133
411.80 1.145
411.90 1.157
412.00 1.169
412.10 1.18
412.20 1.191
412.30 1.201
412.40 1.211
412.50 1.221
412.60 1.231
412.70 1.24
412.80 1.249
412.90 1.257
413.00 1.266
413.10 1.274
413.20 1.282
413.30 1.289
413.40 1.297
413.50 1.304
413.60 1.311
413.70 1.318
413.80 1.325
413.90 1.331
414.00 1.337
414.10 1.343
414.20 1.349
414.30 1.355
414.40 1.36
414.50 1.366
414.60 1.371
414.70 1.376
414.80 1.381
414.90 1.385
415.00 1.39
415.10 1.394
415.20 1.399
415.30 1.403
415.40 1.407
415.50 1.411
415.60 1.415
415.70 1.419
415.80 1.422
415.90 1.426
416.00 1.429
416.10 1.432
416.20 1.436
416.30 1.439
416.40 1.442
416.50 1.445
416.60 1.447
416.70 1.45
416.80 1.453
416.90 1.455
417.00 1.458
417.10 1.46
417.20 1.462
417.30 1.464
417.40 1.467
417.50 1.469
417.60 1.47
417.70 1.472
417.80 1.474
417.90 1.476
418.00 1.477
418.10 1.479
418.20 1.48
418.30 1.482
418.40 1.483
418.50 1.484
418.60 1.485
418.70 1.486
418.80 1.487
418.90 1.488
419.00 1.489
419.10 1.49
419.20 1.491
419.30 1.491
419.40 1.492
419.50 1.493
419.60 1.493
419.70 1.494
419.80 1.494
419.90 1.494
420.00 1.494
420.10 1.495
420.20 1.495
420.30 1.495
420.40 1.495
420.50 1.495
420.60 1.494
420.70 1.494
420.80 1.494
420.90 1.494
421.00 1.493
421.10 1.493
421.20 1.492
421.30 1.492
421.40 1.491
421.50 1.49
421.60 1.49
421.70 1.489
421.80 1.488
421.90 1.487
422.00 1.486
422.10 1.485
422.20 1.484
422.30 1.482
422.40 1.481
422.50 1.48
422.60 1.479
422.70 1.477
422.80 1.476
422.90 1.474
423.00 1.473
423.10 1.471
423.20 1.469
423.30 1.467
423.40 1.466
423.50 1.464
423.60 1.462
423.70 1.46
423.80 1.458
423.90 1.455
424.00 1.453
424.10 1.451
424.20 1.449
424.30 1.446
424.40 1.444
424.50 1.441
424.60 1.438
424.70 1.436
424.80 1.433
424.90 1.43
425.00 1.427
425.10 1.424
425.20 1.421
425.30 1.418
425.40 1.415
425.50 1.412
425.60 1.409
425.70 1.405
425.80 1.402
425.90 1.398
426.00 1.395
426.10 1.391
426.20 1.386
426.30 1.382
426.40 1.378
426.50 1.374
426.60 1.37
426.70 1.366
426.80 1.362
426.90 1.357
427.00 1.353
427.10 1.348
427.20 1.344
427.30 1.339
427.40 1.334
427.50 1.329
427.60 1.325
427.70 1.32
427.80 1.314
427.90 1.309
428.00 1.304
428.10 1.298
428.20 1.293
428.30 1.287
428.40 1.282
428.50 1.276
428.60 1.27
428.70 1.264
428.80 1.258
428.90 1.251
429.00 1.245
429.10 1.238
429.20 1.232
429.30 1.225
429.40 1.218
429.50 1.211
429.60 1.204
429.70 1.197
429.80 1.189
429.90 1.181
430.00 1.174
430.10 1.166
430.20 1.158
430.30 1.149
430.40 1.141
430.50 1.132
430.60 1.124
430.70 1.115
430.80 1.105
430.90 1.096
431.00 1.087
431.10 1.077
431.20 1.067
431.30 1.056
431.40 1.046
431.50 1.035
431.60 1.024
431.70 1.013
431.80 1.001
431.90 0.9892
432.00 0.9768
432.10 0.9642
432.20 0.951
432.30 0.9375
432.40 0.9236
432.50 0.909
432.60 0.8941
432.70 0.8788
432.80 0.8629
432.90 0.8468
433.00 0.8306
433.10 0.8142
433.20 0.7978
433.30 0.7816
433.40 0.7653
433.50 0.7487
433.60 0.7317
433.70 0.7104
433.80 0.6841
433.90 0.6528
434.00 0.6207
434.10 0.6214
434.20 0.6548
434.30 0.685
434.40 0.7103
434.50 0.7305
434.60 0.7468
434.70 0.7626
434.80 0.7781
434.90 0.7936
435.00 0.8091
435.10 0.8246
435.20 0.8399
435.30 0.8551
435.40 0.87
435.50 0.8842
435.60 0.898
435.70 0.9115
435.80 0.9242
435.90 0.9366
436.00 0.9487
436.10 0.9601
436.20 0.9713
436.30 0.9821
436.40 0.9924
436.50 1.003
436.60 1.012
436.70 1.022
436.80 1.031
436.90 1.04
437.00 1.049
437.10 1.057
437.20 1.065
437.30 1.073
437.40 1.081
437.50 1.089
437.60 1.096
437.70 1.103
437.80 1.11
437.90 1.117
438.00 1.124
438.10 1.131
438.20 1.137
438.30 1.143
438.40 1.149
438.50 1.155
438.60 1.161
438.70 1.166
438.80 1.172
438.90 1.177
439.00 1.182
439.10 1.188
439.20 1.193
439.30 1.197
439.40 1.202
439.50 1.207
439.60 1.211
439.70 1.216
439.80 1.22
439.90 1.224
440.00 1.229
440.10 1.233
440.20 1.237
440.30 1.24
440.40 1.244
440.50 1.248
440.60 1.251
440.70 1.255
440.80 1.258
440.90 1.262
441.00 1.265
441.10 1.268
441.20 1.271
441.30 1.274
441.40 1.277
441.50 1.28
441.60 1.283
441.70 1.286
441.80 1.289
441.90 1.291
442.00 1.294
442.10 1.296
442.20 1.299
442.30 1.301
442.40 1.303
442.50 1.306
442.60 1.308
442.70 1.31
442.80 1.312
442.90 1.314
443.00 1.316
443.10 1.318
443.20 1.32
443.30 1.322
443.40 1.323
443.50 1.325
443.60 1.327
443.70 1.329
443.80 1.33
443.90 1.332
444.00 1.334
444.10 1.335
444.20 1.336
444.30 1.338
444.40 1.339
444.50 1.34
444.60 1.342
444.70 1.343
444.80 1.344
444.90 1.345
445.00 1.346
445.10 1.347
445.20 1.349
445.30 1.35
445.40 1.351
445.50 1.352
445.60 1.353
445.70 1.354
445.80 1.354
445.90 1.355
446.00 1.356
446.10 1.357
446.20 1.358
446.30 1.358
446.40 1.359
446.50 1.36
446.60 1.36
446.70 1.361
446.80 1.362
446.90 1.362
447.00 1.363
447.10 1.363
447.20 1.364
447.30 1.364
447.40 1.365
447.50 1.365
447.60 1.365
447.70 1.366
447.80 1.366
447.90 1.366
448.00 1.367
448.10 1.367
448.20 1.367
448.30 1.367
448.40 1.368
448.50 1.368
448.60 1.368
448.70 1.368
448.80 1.368
448.90 1.368
449.00 1.369
449.10 1.369
449.20 1.369
449.30 1.369
449.40 1.369
449.50 1.369
449.60 1.369
449.70 1.369
449.80 1.369
449.90 1.369
450.00 1.369
450.10 1.369
450.20 1.369
450.30 1.369
450.40 1.369
450.50 1.369
450.60 1.369
450.70 1.368
450.80 1.368
450.90 1.368
451.00 1.368
451.10 1.368
451.20 1.368
451.30 1.367
451.40 1.367
451.50 1.367
451.60 1.367
451.70 1.366
451.80 1.366
451.90 1.366
452.00 1.366
452.10 1.365
452.20 1.365
452.30 1.365
452.40 1.364
452.50 1.364
452.60 1.363
452.70 1.363
452.80 1.363
452.90 1.362
453.00 1.362
453.10 1.362
453.20 1.361
453.30 1.361
453.40 1.36
453.50 1.36
453.60 1.36
