# Version 2.1 - nm, norm@500 to 1, cut digits, bergeron_55000_75.dat_55000
# Wavelength(nm)  Flambda(ergs/cm^s/s/nm)
300.00 6.299
300.10 6.291
300.20 6.284
300.30 6.276
300.40 6.268
300.50 6.261
300.60 6.253
300.70 6.246
300.80 6.238
300.90 6.23
301.00 6.223
301.10 6.215
301.20 6.208
301.30 6.2
301.40 6.193
301.50 6.185
301.60 6.178
301.70 6.17
301.80 6.163
301.90 6.156
302.00 6.148
302.10 6.141
302.20 6.133
302.30 6.126
302.40 6.119
302.50 6.111
302.60 6.104
302.70 6.096
302.80 6.089
302.90 6.082
303.00 6.074
303.10 6.067
303.20 6.06
303.30 6.053
303.40 6.045
303.50 6.038
303.60 6.031
303.70 6.024
303.80 6.016
303.90 6.009
304.00 6.002
304.10 5.995
304.20 5.988
304.30 5.98
304.40 5.973
304.50 5.966
304.60 5.959
304.70 5.952
304.80 5.945
304.90 5.938
305.00 5.93
305.10 5.923
305.20 5.916
305.30 5.909
305.40 5.902
305.50 5.895
305.60 5.888
305.70 5.881
305.80 5.874
305.90 5.867
306.00 5.86
306.10 5.853
306.20 5.846
306.30 5.839
306.40 5.832
306.50 5.825
306.60 5.818
306.70 5.811
306.80 5.804
306.90 5.798
307.00 5.791
307.10 5.784
307.20 5.777
307.30 5.77
307.40 5.763
307.50 5.756
307.60 5.75
307.70 5.743
307.80 5.736
307.90 5.729
308.00 5.722
308.10 5.716
308.20 5.709
308.30 5.702
308.40 5.695
308.50 5.689
308.60 5.682
308.70 5.675
308.80 5.668
308.90 5.662
309.00 5.655
309.10 5.648
309.20 5.642
309.30 5.635
309.40 5.628
309.50 5.622
309.60 5.615
309.70 5.608
309.80 5.602
309.90 5.595
310.00 5.589
310.10 5.582
310.20 5.576
310.30 5.569
310.40 5.562
310.50 5.556
310.60 5.549
310.70 5.543
310.80 5.536
310.90 5.53
311.00 5.523
311.10 5.517
311.20 5.51
311.30 5.504
311.40 5.497
311.50 5.491
311.60 5.485
311.70 5.478
311.80 5.472
311.90 5.465
312.00 5.459
312.10 5.453
312.20 5.446
312.30 5.44
312.40 5.433
312.50 5.427
312.60 5.421
312.70 5.414
312.80 5.408
312.90 5.402
313.00 5.395
313.10 5.389
313.20 5.383
313.30 5.377
313.40 5.37
313.50 5.364
313.60 5.358
313.70 5.352
313.80 5.345
313.90 5.339
314.00 5.333
314.10 5.327
314.20 5.32
314.30 5.314
314.40 5.308
314.50 5.302
314.60 5.296
314.70 5.29
314.80 5.283
314.90 5.277
315.00 5.271
315.10 5.265
315.20 5.259
315.30 5.253
315.40 5.247
315.50 5.241
315.60 5.235
315.70 5.229
315.80 5.223
315.90 5.217
316.00 5.211
316.10 5.204
316.20 5.198
316.30 5.192
316.40 5.186
316.50 5.18
316.60 5.174
316.70 5.168
316.80 5.163
316.90 5.157
317.00 5.151
317.10 5.145
317.20 5.139
317.30 5.133
317.40 5.127
317.50 5.121
317.60 5.115
317.70 5.109
317.80 5.103
317.90 5.097
318.00 5.092
318.10 5.086
318.20 5.08
318.30 5.074
318.40 5.068
318.50 5.062
318.60 5.057
318.70 5.051
318.80 5.045
318.90 5.039
319.00 5.033
319.10 5.028
319.20 5.022
319.30 5.016
319.40 5.01
319.50 5.005
319.60 4.999
319.70 4.993
319.80 4.988
319.90 4.982
320.00 4.976
320.10 4.97
320.20 4.965
320.30 4.959
320.40 4.953
320.50 4.948
320.60 4.942
320.70 4.936
320.80 4.931
320.90 4.925
321.00 4.92
321.10 4.914
321.20 4.908
321.30 4.903
321.40 4.897
321.50 4.892
321.60 4.886
321.70 4.881
321.80 4.875
321.90 4.869
322.00 4.864
322.10 4.858
322.20 4.853
322.30 4.847
322.40 4.842
322.50 4.836
322.60 4.831
322.70 4.825
322.80 4.82
322.90 4.814
323.00 4.809
323.10 4.804
323.20 4.798
323.30 4.793
323.40 4.787
323.50 4.782
323.60 4.776
323.70 4.771
323.80 4.766
323.90 4.76
324.00 4.755
324.10 4.749
324.20 4.744
324.30 4.739
324.40 4.733
324.50 4.728
324.60 4.723
324.70 4.717
324.80 4.712
324.90 4.707
325.00 4.701
325.10 4.696
325.20 4.691
325.30 4.686
325.40 4.68
325.50 4.675
325.60 4.67
325.70 4.665
325.80 4.659
325.90 4.654
326.00 4.649
326.10 4.644
326.20 4.638
326.30 4.633
326.40 4.628
326.50 4.623
326.60 4.618
326.70 4.612
326.80 4.607
326.90 4.602
327.00 4.597
327.10 4.592
327.20 4.587
327.30 4.581
327.40 4.576
327.50 4.571
327.60 4.566
327.70 4.561
327.80 4.556
327.90 4.551
328.00 4.546
328.10 4.541
328.20 4.536
328.30 4.531
328.40 4.525
328.50 4.52
328.60 4.515
328.70 4.51
328.80 4.505
328.90 4.5
329.00 4.495
329.10 4.49
329.20 4.485
329.30 4.48
329.40 4.475
329.50 4.47
329.60 4.465
329.70 4.46
329.80 4.455
329.90 4.45
330.00 4.445
330.10 4.441
330.20 4.436
330.30 4.431
330.40 4.426
330.50 4.421
330.60 4.416
330.70 4.411
330.80 4.406
330.90 4.401
331.00 4.397
331.10 4.392
331.20 4.387
331.30 4.382
331.40 4.377
331.50 4.372
331.60 4.367
331.70 4.363
331.80 4.358
331.90 4.353
332.00 4.348
332.10 4.343
332.20 4.338
332.30 4.334
332.40 4.329
332.50 4.324
332.60 4.319
332.70 4.315
332.80 4.31
332.90 4.305
333.00 4.3
333.10 4.296
333.20 4.291
333.30 4.286
333.40 4.281
333.50 4.277
333.60 4.272
333.70 4.267
333.80 4.263
333.90 4.258
334.00 4.253
334.10 4.249
334.20 4.244
334.30 4.239
334.40 4.235
334.50 4.23
334.60 4.225
334.70 4.221
334.80 4.216
334.90 4.211
335.00 4.207
335.10 4.202
335.20 4.198
335.30 4.193
335.40 4.188
335.50 4.184
335.60 4.179
335.70 4.175
335.80 4.17
335.90 4.166
336.00 4.161
336.10 4.156
336.20 4.152
336.30 4.147
336.40 4.143
336.50 4.138
336.60 4.134
336.70 4.129
336.80 4.125
336.90 4.12
337.00 4.116
337.10 4.111
337.20 4.107
337.30 4.102
337.40 4.098
337.50 4.094
337.60 4.089
337.70 4.085
337.80 4.08
337.90 4.076
338.00 4.071
338.10 4.067
338.20 4.062
338.30 4.058
338.40 4.054
338.50 4.049
338.60 4.045
338.70 4.041
338.80 4.036
338.90 4.032
339.00 4.027
339.10 4.023
339.20 4.019
339.30 4.014
339.40 4.01
339.50 4.006
339.60 4.001
339.70 3.997
339.80 3.993
339.90 3.988
340.00 3.984
340.10 3.98
340.20 3.975
340.30 3.971
340.40 3.967
340.50 3.963
340.60 3.958
340.70 3.954
340.80 3.95
340.90 3.946
341.00 3.941
341.10 3.937
341.20 3.933
341.30 3.929
341.40 3.924
341.50 3.92
341.60 3.916
341.70 3.912
341.80 3.907
341.90 3.903
342.00 3.899
342.10 3.895
342.20 3.891
342.30 3.886
342.40 3.882
342.50 3.878
342.60 3.874
342.70 3.87
342.80 3.866
342.90 3.862
343.00 3.857
343.10 3.853
343.20 3.849
343.30 3.845
343.40 3.841
343.50 3.837
343.60 3.833
343.70 3.829
343.80 3.824
343.90 3.82
344.00 3.816
344.10 3.812
344.20 3.808
344.30 3.804
344.40 3.8
344.50 3.796
344.60 3.792
344.70 3.788
344.80 3.784
344.90 3.78
345.00 3.776
345.10 3.772
345.20 3.768
345.30 3.764
345.40 3.76
345.50 3.756
345.60 3.752
345.70 3.748
345.80 3.744
345.90 3.74
346.00 3.736
346.10 3.732
346.20 3.728
346.30 3.724
346.40 3.72
346.50 3.716
346.60 3.712
346.70 3.708
346.80 3.704
346.90 3.7
347.00 3.696
347.10 3.692
347.20 3.688
347.30 3.685
347.40 3.681
347.50 3.677
347.60 3.673
347.70 3.669
347.80 3.665
347.90 3.661
348.00 3.657
348.10 3.653
348.20 3.65
348.30 3.646
348.40 3.642
348.50 3.638
348.60 3.634
348.70 3.63
348.80 3.627
348.90 3.623
349.00 3.619
349.10 3.615
349.20 3.611
349.30 3.608
349.40 3.604
349.50 3.6
349.60 3.596
349.70 3.592
349.80 3.589
349.90 3.585
350.00 3.581
350.10 3.577
350.20 3.573
350.30 3.57
350.40 3.566
350.50 3.562
350.60 3.559
350.70 3.555
350.80 3.551
350.90 3.547
351.00 3.544
351.10 3.54
351.20 3.536
351.30 3.532
351.40 3.529
351.50 3.525
351.60 3.521
351.70 3.518
351.80 3.514
351.90 3.51
352.00 3.507
352.10 3.503
352.20 3.499
352.30 3.496
352.40 3.492
352.50 3.488
352.60 3.485
352.70 3.481
352.80 3.477
352.90 3.474
353.00 3.47
353.10 3.467
353.20 3.463
353.30 3.459
353.40 3.456
353.50 3.452
353.60 3.449
353.70 3.445
353.80 3.441
353.90 3.438
354.00 3.434
354.10 3.431
354.20 3.427
354.30 3.423
354.40 3.42
354.50 3.416
354.60 3.413
354.70 3.409
354.80 3.406
354.90 3.402
355.00 3.399
355.10 3.395
355.20 3.392
355.30 3.388
355.40 3.385
355.50 3.381
355.60 3.378
355.70 3.374
355.80 3.371
355.90 3.367
356.00 3.364
356.10 3.36
356.20 3.357
356.30 3.353
356.40 3.35
356.50 3.346
356.60 3.343
356.70 3.339
356.80 3.336
356.90 3.332
357.00 3.329
357.10 3.326
357.20 3.322
357.30 3.319
357.40 3.315
357.50 3.312
357.60 3.308
357.70 3.305
357.80 3.302
357.90 3.298
358.00 3.295
358.10 3.291
358.20 3.288
358.30 3.285
358.40 3.281
358.50 3.278
358.60 3.275
358.70 3.271
358.80 3.268
358.90 3.264
359.00 3.261
359.10 3.258
359.20 3.254
359.30 3.251
359.40 3.248
359.50 3.244
359.60 3.241
359.70 3.238
359.80 3.234
359.90 3.231
360.00 3.228
360.10 3.224
360.20 3.221
360.30 3.218
360.40 3.215
360.50 3.211
360.60 3.208
360.70 3.205
360.80 3.202
360.90 3.198
361.00 3.195
361.10 3.192
361.20 3.188
361.30 3.185
361.40 3.182
361.50 3.179
361.60 3.175
361.70 3.172
361.80 3.169
361.90 3.166
362.00 3.162
362.10 3.159
362.20 3.156
362.30 3.153
362.40 3.15
362.50 3.146
362.60 3.143
362.70 3.14
362.80 3.137
362.90 3.134
363.00 3.13
363.10 3.127
363.20 3.124
363.30 3.121
363.40 3.118
363.50 3.115
363.60 3.111
363.70 3.108
363.80 3.105
363.90 3.102
364.00 3.099
364.10 3.096
364.20 3.093
364.30 3.089
364.40 3.086
364.50 3.083
364.60 3.08
364.70 3.077
364.80 3.074
364.90 3.071
365.00 3.068
365.10 3.065
365.20 3.061
365.30 3.058
365.40 3.055
365.50 3.052
365.60 3.049
365.70 3.046
365.80 3.043
365.90 3.04
366.00 3.037
366.10 3.034
366.20 3.03
366.30 3.027
366.40 3.024
366.50 3.021
366.60 3.018
366.70 3.015
366.80 3.012
366.90 3.008
367.00 3.005
367.10 3.002
367.20 2.999
367.30 2.996
367.40 2.993
367.50 2.99
367.60 2.987
367.70 2.983
367.80 2.98
367.90 2.977
368.00 2.974
368.10 2.971
368.20 2.968
368.30 2.965
368.40 2.962
368.50 2.959
368.60 2.956
368.70 2.953
368.80 2.95
368.90 2.946
369.00 2.943
369.10 2.94
369.20 2.937
369.30 2.934
369.40 2.931
369.50 2.928
369.60 2.925
369.70 2.922
369.80 2.919
369.90 2.916
370.00 2.913
370.10 2.91
370.20 2.907
370.30 2.904
370.40 2.901
370.50 2.898
370.60 2.895
370.70 2.892
370.80 2.889
370.90 2.886
371.00 2.883
371.10 2.88
371.20 2.877
371.30 2.874
371.40 2.871
371.50 2.868
371.60 2.865
371.70 2.862
371.80 2.859
371.90 2.857
372.00 2.854
372.10 2.851
372.20 2.848
372.30 2.845
372.40 2.842
372.50 2.839
372.60 2.836
372.70 2.834
372.80 2.831
372.90 2.828
373.00 2.825
373.10 2.822
373.20 2.819
373.30 2.817
373.40 2.814
373.50 2.811
373.60 2.808
373.70 2.805
373.80 2.802
373.90 2.8
374.00 2.797
374.10 2.794
374.20 2.791
374.30 2.789
374.40 2.786
374.50 2.783
374.60 2.78
374.70 2.778
374.80 2.775
374.90 2.772
375.00 2.77
375.10 2.767
375.20 2.764
375.30 2.761
375.40 2.759
375.50 2.756
375.60 2.753
375.70 2.751
375.80 2.748
375.90 2.745
376.00 2.743
376.10 2.74
376.20 2.737
376.30 2.735
376.40 2.732
376.50 2.729
376.60 2.727
376.70 2.724
376.80 2.722
376.90 2.719
377.00 2.716
377.10 2.714
377.20 2.711
377.30 2.709
377.40 2.707
377.50 2.704
377.60 2.702
377.70 2.699
377.80 2.697
377.90 2.695
378.00 2.692
378.10 2.69
378.20 2.687
378.30 2.685
378.40 2.682
378.50 2.68
378.60 2.677
378.70 2.674
378.80 2.672
378.90 2.669
379.00 2.667
379.10 2.664
379.20 2.662
379.30 2.659
379.40 2.657
379.50 2.655
379.60 2.652
379.70 2.65
379.80 2.647
379.90 2.645
380.00 2.642
380.10 2.64
380.20 2.638
380.30 2.636
380.40 2.634
380.50 2.632
380.60 2.63
380.70 2.628
380.80 2.626
380.90 2.624
381.00 2.622
381.10 2.62
381.20 2.618
381.30 2.615
381.40 2.613
381.50 2.611
381.60 2.608
381.70 2.606
381.80 2.603
381.90 2.6
382.00 2.597
382.10 2.594
382.20 2.591
382.30 2.588
382.40 2.585
382.50 2.582
382.60 2.578
382.70 2.575
382.80 2.572
382.90 2.568
383.00 2.565
383.10 2.562
383.20 2.559
383.30 2.555
383.40 2.553
383.50 2.55
383.60 2.548
383.70 2.547
383.80 2.546
383.90 2.545
384.00 2.544
384.10 2.544
384.20 2.543
384.30 2.542
384.40 2.542
384.50 2.541
384.60 2.54
384.70 2.539
384.80 2.538
384.90 2.537
385.00 2.536
385.10 2.534
385.20 2.533
385.30 2.531
385.40 2.529
385.50 2.527
385.60 2.525
385.70 2.523
385.80 2.521
385.90 2.519
386.00 2.516
386.10 2.513
386.20 2.511
386.30 2.507
386.40 2.504
386.50 2.501
386.60 2.497
386.70 2.494
386.80 2.49
386.90 2.486
387.00 2.482
387.10 2.478
387.20 2.473
387.30 2.469
387.40 2.464
387.50 2.459
387.60 2.454
387.70 2.449
387.80 2.443
387.90 2.438
388.00 2.432
388.10 2.427
388.20 2.421
388.30 2.416
388.40 2.41
388.50 2.405
388.60 2.4
388.70 2.396
388.80 2.392
388.90 2.39
389.00 2.388
389.10 2.388
389.20 2.388
389.30 2.39
389.40 2.391
389.50 2.393
389.60 2.395
389.70 2.397
389.80 2.399
389.90 2.4
390.00 2.402
390.10 2.404
390.20 2.405
390.30 2.407
390.40 2.408
390.50 2.409
390.60 2.41
390.70 2.411
390.80 2.412
390.90 2.412
391.00 2.413
391.10 2.413
391.20 2.413
391.30 2.413
391.40 2.413
391.50 2.412
391.60 2.412
391.70 2.411
391.80 2.41
391.90 2.409
392.00 2.408
392.10 2.407
392.20 2.405
392.30 2.404
392.40 2.402
392.50 2.4
392.60 2.398
392.70 2.396
392.80 2.393
392.90 2.391
393.00 2.388
393.10 2.385
393.20 2.382
393.30 2.379
393.40 2.376
393.50 2.372
393.60 2.368
393.70 2.365
393.80 2.361
393.90 2.356
394.00 2.352
394.10 2.347
394.20 2.342
394.30 2.337
394.40 2.332
394.50 2.326
394.60 2.321
394.70 2.315
394.80 2.309
394.90 2.302
395.00 2.295
395.10 2.288
395.20 2.281
395.30 2.274
395.40 2.266
395.50 2.258
395.60 2.25
395.70 2.241
395.80 2.232
395.90 2.223
396.00 2.214
396.10 2.205
396.20 2.195
396.30 2.186
396.40 2.176
396.50 2.166
396.60 2.156
396.70 2.147
396.80 2.137
396.90 2.128
397.00 2.12
397.10 2.124
397.20 2.129
397.30 2.134
397.40 2.141
397.50 2.147
397.60 2.153
397.70 2.159
397.80 2.165
397.90 2.171
398.00 2.176
398.10 2.182
398.20 2.187
398.30 2.192
398.40 2.197
398.50 2.201
398.60 2.205
398.70 2.21
398.80 2.213
398.90 2.217
399.00 2.22
399.10 2.223
399.20 2.226
399.30 2.228
399.40 2.231
399.50 2.233
399.60 2.235
399.70 2.237
399.80 2.238
399.90 2.24
400.00 2.241
400.10 2.242
400.20 2.243
400.30 2.243
400.40 2.244
400.50 2.244
400.60 2.245
400.70 2.245
400.80 2.245
400.90 2.245
401.00 2.245
401.10 2.244
401.20 2.244
401.30 2.243
401.40 2.243
401.50 2.242
401.60 2.241
401.70 2.24
401.80 2.239
401.90 2.238
402.00 2.237
402.10 2.236
402.20 2.235
402.30 2.233
402.40 2.232
402.50 2.231
402.60 2.229
402.70 2.228
402.80 2.226
402.90 2.224
403.00 2.223
403.10 2.221
403.20 2.219
403.30 2.217
403.40 2.215
403.50 2.213
403.60 2.211
403.70 2.209
403.80 2.206
403.90 2.204
404.00 2.202
404.10 2.2
404.20 2.197
404.30 2.195
404.40 2.192
404.50 2.189
404.60 2.187
404.70 2.184
404.80 2.181
404.90 2.178
405.00 2.175
405.10 2.172
405.20 2.169
405.30 2.166
405.40 2.163
405.50 2.159
405.60 2.156
405.70 2.152
405.80 2.148
405.90 2.145
406.00 2.141
406.10 2.137
406.20 2.132
406.30 2.128
406.40 2.124
406.50 2.119
406.60 2.114
406.70 2.109
406.80 2.104
406.90 2.099
407.00 2.094
407.10 2.088
407.20 2.082
407.30 2.076
407.40 2.07
407.50 2.063
407.60 2.056
407.70 2.049
407.80 2.042
407.90 2.034
408.00 2.026
408.10 2.018
408.20 2.009
408.30 2
408.40 1.991
408.50 1.981
408.60 1.971
408.70 1.961
408.80 1.95
408.90 1.939
409.00 1.927
409.10 1.915
409.20 1.903
409.30 1.891
409.40 1.878
409.50 1.864
409.60 1.851
409.70 1.838
409.80 1.824
409.90 1.811
410.00 1.802
410.10 1.799
410.20 1.801
410.30 1.798
410.40 1.8
410.50 1.808
410.60 1.818
410.70 1.828
410.80 1.839
410.90 1.848
411.00 1.858
411.10 1.868
411.20 1.877
411.30 1.885
411.40 1.894
411.50 1.901
411.60 1.909
411.70 1.916
411.80 1.922
411.90 1.928
412.00 1.934
412.10 1.94
412.20 1.945
412.30 1.949
412.40 1.954
412.50 1.958
412.60 1.962
412.70 1.965
412.80 1.968
412.90 1.971
413.00 1.974
413.10 1.977
413.20 1.979
413.30 1.981
413.40 1.983
413.50 1.984
413.60 1.986
413.70 1.987
413.80 1.988
413.90 1.989
414.00 1.99
414.10 1.991
414.20 1.991
414.30 1.991
414.40 1.992
414.50 1.992
414.60 1.992
414.70 1.992
414.80 1.992
414.90 1.992
415.00 1.991
415.10 1.991
415.20 1.991
415.30 1.99
415.40 1.989
415.50 1.989
415.60 1.988
415.70 1.987
415.80 1.987
415.90 1.986
416.00 1.985
416.10 1.984
416.20 1.983
416.30 1.982
416.40 1.981
416.50 1.98
416.60 1.979
416.70 1.978
416.80 1.977
416.90 1.975
417.00 1.974
417.10 1.973
417.20 1.972
417.30 1.97
417.40 1.969
417.50 1.968
417.60 1.966
417.70 1.965
417.80 1.964
417.90 1.962
418.00 1.961
418.10 1.959
418.20 1.958
418.30 1.956
418.40 1.955
418.50 1.954
418.60 1.952
418.70 1.951
418.80 1.949
418.90 1.948
419.00 1.946
419.10 1.944
419.20 1.943
419.30 1.941
419.40 1.94
419.50 1.938
419.60 1.937
419.70 1.935
419.80 1.933
419.90 1.932
420.00 1.93
420.10 1.929
420.20 1.927
420.30 1.925
420.40 1.924
420.50 1.922
420.60 1.921
420.70 1.919
420.80 1.917
420.90 1.916
421.00 1.914
421.10 1.912
421.20 1.911
421.30 1.909
421.40 1.907
421.50 1.906
421.60 1.904
421.70 1.902
421.80 1.901
421.90 1.899
422.00 1.897
422.10 1.896
422.20 1.894
422.30 1.892
422.40 1.89
422.50 1.889
422.60 1.887
422.70 1.885
422.80 1.884
422.90 1.882
423.00 1.88
423.10 1.878
423.20 1.877
423.30 1.875
423.40 1.873
423.50 1.871
423.60 1.87
423.70 1.868
423.80 1.866
423.90 1.864
424.00 1.863
424.10 1.861
424.20 1.859
424.30 1.857
424.40 1.856
424.50 1.854
424.60 1.852
424.70 1.85
424.80 1.848
424.90 1.847
425.00 1.845
425.10 1.843
425.20 1.841
425.30 1.839
425.40 1.837
425.50 1.835
425.60 1.834
425.70 1.832
425.80 1.83
425.90 1.828
426.00 1.826
426.10 1.824
426.20 1.822
426.30 1.82
426.40 1.818
426.50 1.816
426.60 1.814
426.70 1.812
426.80 1.81
426.90 1.808
427.00 1.806
427.10 1.804
427.20 1.802
427.30 1.8
427.40 1.798
427.50 1.796
427.60 1.793
427.70 1.791
427.80 1.789
427.90 1.787
428.00 1.784
428.10 1.782
428.20 1.78
428.30 1.777
428.40 1.775
428.50 1.772
428.60 1.77
428.70 1.767
428.80 1.765
428.90 1.762
429.00 1.759
429.10 1.756
429.20 1.754
429.30 1.751
429.40 1.748
429.50 1.745
429.60 1.741
429.70 1.738
429.80 1.735
429.90 1.731
430.00 1.728
430.10 1.724
430.20 1.72
430.30 1.717
430.40 1.712
430.50 1.708
430.60 1.704
430.70 1.7
430.80 1.695
430.90 1.69
431.00 1.685
431.10 1.68
431.20 1.674
431.30 1.669
431.40 1.663
431.50 1.657
431.60 1.65
431.70 1.644
431.80 1.637
431.90 1.629
432.00 1.622
432.10 1.614
432.20 1.606
432.30 1.597
432.40 1.588
432.50 1.579
432.60 1.569
432.70 1.559
432.80 1.548
432.90 1.537
433.00 1.526
433.10 1.514
433.20 1.502
433.30 1.489
433.40 1.476
433.50 1.464
433.60 1.451
433.70 1.438
433.80 1.426
433.90 1.414
434.00 1.404
434.10 1.403
434.20 1.411
434.30 1.421
434.40 1.431
434.50 1.441
434.60 1.451
434.70 1.462
434.80 1.472
434.90 1.482
435.00 1.491
435.10 1.501
435.20 1.509
435.30 1.517
435.40 1.525
435.50 1.533
435.60 1.54
435.70 1.546
435.80 1.552
435.90 1.558
436.00 1.564
436.10 1.568
436.20 1.573
436.30 1.577
436.40 1.581
436.50 1.585
436.60 1.589
436.70 1.592
436.80 1.595
436.90 1.597
437.00 1.6
437.10 1.602
437.20 1.604
437.30 1.605
437.40 1.607
437.50 1.608
437.60 1.61
437.70 1.611
437.80 1.612
437.90 1.613
438.00 1.613
438.10 1.614
438.20 1.614
438.30 1.615
438.40 1.615
438.50 1.615
438.60 1.615
438.70 1.615
438.80 1.615
438.90 1.615
439.00 1.615
439.10 1.615
439.20 1.614
439.30 1.614
439.40 1.614
439.50 1.613
439.60 1.613
439.70 1.612
439.80 1.611
439.90 1.611
440.00 1.61
440.10 1.609
440.20 1.609
440.30 1.608
440.40 1.607
440.50 1.606
440.60 1.605
440.70 1.604
440.80 1.604
440.90 1.603
441.00 1.602
441.10 1.601
441.20 1.6
441.30 1.599
441.40 1.598
441.50 1.597
441.60 1.596
441.70 1.595
441.80 1.594
441.90 1.593
442.00 1.592
442.10 1.59
442.20 1.589
442.30 1.588
442.40 1.587
442.50 1.586
442.60 1.585
442.70 1.584
442.80 1.583
442.90 1.581
443.00 1.58
443.10 1.579
443.20 1.578
443.30 1.577
443.40 1.576
443.50 1.574
443.60 1.573
443.70 1.572
443.80 1.571
443.90 1.57
444.00 1.568
444.10 1.567
444.20 1.566
444.30 1.565
444.40 1.564
444.50 1.562
444.60 1.561
444.70 1.56
444.80 1.559
444.90 1.557
445.00 1.556
445.10 1.555
445.20 1.554
445.30 1.552
445.40 1.551
445.50 1.55
445.60 1.549
445.70 1.547
445.80 1.546
445.90 1.545
446.00 1.544
446.10 1.542
446.20 1.541
446.30 1.54
446.40 1.539
446.50 1.537
446.60 1.536
446.70 1.535
446.80 1.534
446.90 1.533
447.00 1.531
447.10 1.53
447.20 1.529
447.30 1.527
447.40 1.526
447.50 1.525
447.60 1.524
447.70 1.522
447.80 1.521
447.90 1.52
448.00 1.519
448.10 1.517
448.20 1.516
448.30 1.515
448.40 1.514
448.50 1.513
448.60 1.511
448.70 1.51
448.80 1.509
448.90 1.508
449.00 1.506
449.10 1.505
449.20 1.504
449.30 1.503
449.40 1.501
449.50 1.5
449.60 1.499
449.70 1.498
449.80 1.496
449.90 1.495
450.00 1.494
450.10 1.493
450.20 1.491
450.30 1.49
450.40 1.489
450.50 1.488
450.60 1.486
450.70 1.485
450.80 1.484
450.90 1.483
451.00 1.482
451.10 1.48
451.20 1.479
451.30 1.478
451.40 1.477
451.50 1.475
451.60 1.474
451.70 1.473
451.80 1.472
451.90 1.47
452.00 1.469
452.10 1.468
452.20 1.467
452.30 1.466
452.40 1.464
452.50 1.463
452.60 1.462
452.70 1.461
452.80 1.46
452.90 1.458
453.00 1.457
453.10 1.456
453.20 1.455
453.30 1.453
453.40 1.452
453.50 1.451
453.60 1.45
453.70 1.449
453.80 1.447
453.90 1.446
454.00 1.445
454.10 1.444
