# Version 2.1 - nm, norm@500 to 1, cut digits, bergeron_3500_80.dat_3500
# Wavelength(nm)  Flambda(ergs/cm^s/s/nm)
300.00 0.133
300.10 0.1333
300.20 0.1336
300.30 0.1338
300.40 0.1341
300.50 0.1344
300.60 0.1347
300.70 0.135
300.80 0.1353
300.90 0.1356
301.00 0.1359
301.10 0.1361
301.20 0.1364
301.30 0.1367
301.40 0.137
301.50 0.1373
301.60 0.1376
301.70 0.1379
301.80 0.1381
301.90 0.1384
302.00 0.1387
302.10 0.139
302.20 0.1393
302.30 0.1396
302.40 0.1399
302.50 0.1402
302.60 0.1405
302.70 0.1408
302.80 0.1411
302.90 0.1414
303.00 0.1416
303.10 0.1419
303.20 0.1422
303.30 0.1425
303.40 0.1428
303.50 0.1431
303.60 0.1434
303.70 0.1437
303.80 0.144
303.90 0.1443
304.00 0.1446
304.10 0.1449
304.20 0.1452
304.30 0.1455
304.40 0.1458
304.50 0.1461
304.60 0.1464
304.70 0.1467
304.80 0.147
304.90 0.1473
305.00 0.1476
305.10 0.1479
305.20 0.1482
305.30 0.1485
305.40 0.1488
305.50 0.1491
305.60 0.1494
305.70 0.1497
305.80 0.1499
305.90 0.1502
306.00 0.1505
306.10 0.1509
306.20 0.1512
306.30 0.1515
306.40 0.1518
306.50 0.1521
306.60 0.1524
306.70 0.1527
306.80 0.153
306.90 0.1533
307.00 0.1536
307.10 0.1539
307.20 0.1542
307.30 0.1545
307.40 0.1548
307.50 0.1551
307.60 0.1554
307.70 0.1557
307.80 0.1561
307.90 0.1564
308.00 0.1567
308.10 0.157
308.20 0.1573
308.30 0.1576
308.40 0.1579
308.50 0.1582
308.60 0.1585
308.70 0.1589
308.80 0.1592
308.90 0.1595
309.00 0.1598
309.10 0.1601
309.20 0.1604
309.30 0.1607
309.40 0.161
309.50 0.1614
309.60 0.1617
309.70 0.162
309.80 0.1623
309.90 0.1626
310.00 0.1629
310.10 0.1632
310.20 0.1635
310.30 0.1639
310.40 0.1642
310.50 0.1645
310.60 0.1648
310.70 0.1652
310.80 0.1655
310.90 0.1658
311.00 0.1661
311.10 0.1664
311.20 0.1668
311.30 0.1671
311.40 0.1674
311.50 0.1677
311.60 0.168
311.70 0.1683
311.80 0.1687
311.90 0.169
312.00 0.1693
312.10 0.1696
312.20 0.1699
312.30 0.1702
312.40 0.1706
312.50 0.1709
312.60 0.1712
312.70 0.1716
312.80 0.1719
312.90 0.1722
313.00 0.1725
313.10 0.1729
313.20 0.1732
313.30 0.1735
313.40 0.1738
313.50 0.1742
313.60 0.1745
313.70 0.1748
313.80 0.1751
313.90 0.1755
314.00 0.1758
314.10 0.1761
314.20 0.1764
314.30 0.1768
314.40 0.1771
314.50 0.1774
314.60 0.1778
314.70 0.1781
314.80 0.1784
314.90 0.1788
315.00 0.1791
315.10 0.1794
315.20 0.1798
315.30 0.1801
315.40 0.1804
315.50 0.1808
315.60 0.1811
315.70 0.1814
315.80 0.1817
315.90 0.1821
316.00 0.1824
316.10 0.1827
316.20 0.1831
316.30 0.1834
316.40 0.1838
316.50 0.1841
316.60 0.1844
316.70 0.1848
316.80 0.1851
316.90 0.1855
317.00 0.1858
317.10 0.1861
317.20 0.1865
317.30 0.1868
317.40 0.1871
317.50 0.1875
317.60 0.1878
317.70 0.1881
317.80 0.1885
317.90 0.1888
318.00 0.1892
318.10 0.1895
318.20 0.1898
318.30 0.1902
318.40 0.1905
318.50 0.1909
318.60 0.1912
318.70 0.1916
318.80 0.1919
318.90 0.1923
319.00 0.1926
319.10 0.193
319.20 0.1933
319.30 0.1936
319.40 0.194
319.50 0.1943
319.60 0.1947
319.70 0.195
319.80 0.1953
319.90 0.1957
320.00 0.196
320.10 0.1964
320.20 0.1967
320.30 0.1971
320.40 0.1974
320.50 0.1978
320.60 0.1981
320.70 0.1985
320.80 0.1988
320.90 0.1992
321.00 0.1995
321.10 0.1999
321.20 0.2002
321.30 0.2006
321.40 0.2009
321.50 0.2013
321.60 0.2016
321.70 0.202
321.80 0.2023
321.90 0.2027
322.00 0.203
322.10 0.2034
322.20 0.2037
322.30 0.2041
322.40 0.2044
322.50 0.2048
322.60 0.2052
322.70 0.2055
322.80 0.2059
322.90 0.2062
323.00 0.2066
323.10 0.2069
323.20 0.2073
323.30 0.2077
323.40 0.208
323.50 0.2084
323.60 0.2087
323.70 0.2091
323.80 0.2094
323.90 0.2098
324.00 0.2101
324.10 0.2105
324.20 0.2108
324.30 0.2112
324.40 0.2116
324.50 0.2119
324.60 0.2123
324.70 0.2127
324.80 0.213
324.90 0.2134
325.00 0.2138
325.10 0.2141
325.20 0.2145
325.30 0.2148
325.40 0.2152
325.50 0.2156
325.60 0.2159
325.70 0.2163
325.80 0.2166
325.90 0.217
326.00 0.2174
326.10 0.2177
326.20 0.2181
326.30 0.2185
326.40 0.2188
326.50 0.2192
326.60 0.2196
326.70 0.2199
326.80 0.2203
326.90 0.2207
327.00 0.221
327.10 0.2214
327.20 0.2218
327.30 0.2221
327.40 0.2225
327.50 0.2229
327.60 0.2232
327.70 0.2236
327.80 0.224
327.90 0.2243
328.00 0.2247
328.10 0.2251
328.20 0.2254
328.30 0.2258
328.40 0.2262
328.50 0.2266
328.60 0.2269
328.70 0.2273
328.80 0.2277
328.90 0.2281
329.00 0.2284
329.10 0.2288
329.20 0.2292
329.30 0.2295
329.40 0.2299
329.50 0.2303
329.60 0.2307
329.70 0.231
329.80 0.2314
329.90 0.2318
330.00 0.2321
330.10 0.2325
330.20 0.2329
330.30 0.2333
330.40 0.2337
330.50 0.234
330.60 0.2344
330.70 0.2348
330.80 0.2352
330.90 0.2356
331.00 0.2359
331.10 0.2363
331.20 0.2367
331.30 0.2371
331.40 0.2374
331.50 0.2378
331.60 0.2382
331.70 0.2386
331.80 0.2389
331.90 0.2393
332.00 0.2397
332.10 0.2401
332.20 0.2405
332.30 0.2409
332.40 0.2412
332.50 0.2416
332.60 0.242
332.70 0.2424
332.80 0.2428
332.90 0.2432
333.00 0.2436
333.10 0.2439
333.20 0.2443
333.30 0.2447
333.40 0.2451
333.50 0.2455
333.60 0.2458
333.70 0.2462
333.80 0.2466
333.90 0.247
334.00 0.2474
334.10 0.2478
334.20 0.2481
334.30 0.2485
334.40 0.2489
334.50 0.2493
334.60 0.2497
334.70 0.2501
334.80 0.2505
334.90 0.2509
335.00 0.2513
335.10 0.2517
335.20 0.2521
335.30 0.2524
335.40 0.2528
335.50 0.2532
335.60 0.2536
335.70 0.254
335.80 0.2544
335.90 0.2548
336.00 0.2551
336.10 0.2555
336.20 0.2559
336.30 0.2563
336.40 0.2567
336.50 0.2571
336.60 0.2575
336.70 0.2579
336.80 0.2583
336.90 0.2587
337.00 0.2591
337.10 0.2595
337.20 0.2599
337.30 0.2603
337.40 0.2607
337.50 0.2611
337.60 0.2615
337.70 0.2618
337.80 0.2622
337.90 0.2626
338.00 0.263
338.10 0.2634
338.20 0.2638
338.30 0.2642
338.40 0.2646
338.50 0.265
338.60 0.2654
338.70 0.2658
338.80 0.2662
338.90 0.2666
339.00 0.267
339.10 0.2674
339.20 0.2678
339.30 0.2682
339.40 0.2686
339.50 0.269
339.60 0.2694
339.70 0.2698
339.80 0.2702
339.90 0.2706
340.00 0.271
340.10 0.2714
340.20 0.2718
340.30 0.2722
340.40 0.2726
340.50 0.273
340.60 0.2734
340.70 0.2738
340.80 0.2742
340.90 0.2746
341.00 0.2751
341.10 0.2755
341.20 0.2759
341.30 0.2763
341.40 0.2767
341.50 0.2771
341.60 0.2775
341.70 0.2779
341.80 0.2783
341.90 0.2787
342.00 0.2791
342.10 0.2795
342.20 0.2799
342.30 0.2803
342.40 0.2807
342.50 0.2811
342.60 0.2815
342.70 0.2819
342.80 0.2824
342.90 0.2828
343.00 0.2832
343.10 0.2836
343.20 0.284
343.30 0.2844
343.40 0.2848
343.50 0.2852
343.60 0.2856
343.70 0.286
343.80 0.2864
343.90 0.2868
344.00 0.2872
344.10 0.2877
344.20 0.2881
344.30 0.2885
344.40 0.2889
344.50 0.2893
344.60 0.2897
344.70 0.2902
344.80 0.2906
344.90 0.291
345.00 0.2914
345.10 0.2918
345.20 0.2922
345.30 0.2926
345.40 0.293
345.50 0.2935
345.60 0.2939
345.70 0.2943
345.80 0.2947
345.90 0.2951
346.00 0.2955
346.10 0.2959
346.20 0.2963
346.30 0.2968
346.40 0.2972
346.50 0.2976
346.60 0.298
346.70 0.2984
346.80 0.2989
346.90 0.2993
347.00 0.2997
347.10 0.3001
347.20 0.3005
347.30 0.301
347.40 0.3014
347.50 0.3018
347.60 0.3022
347.70 0.3026
347.80 0.303
347.90 0.3034
348.00 0.3038
348.10 0.3043
348.20 0.3047
348.30 0.3051
348.40 0.3056
348.50 0.306
348.60 0.3064
348.70 0.3068
348.80 0.3073
348.90 0.3077
349.00 0.3081
349.10 0.3085
349.20 0.3089
349.30 0.3094
349.40 0.3098
349.50 0.3102
349.60 0.3106
349.70 0.311
349.80 0.3115
349.90 0.3119
350.00 0.3123
350.10 0.3127
350.20 0.3132
350.30 0.3136
350.40 0.314
350.50 0.3144
350.60 0.3149
350.70 0.3153
350.80 0.3157
350.90 0.3162
351.00 0.3166
351.10 0.317
351.20 0.3174
351.30 0.3179
351.40 0.3183
351.50 0.3187
351.60 0.3191
351.70 0.3196
351.80 0.32
351.90 0.3204
352.00 0.3208
352.10 0.3213
352.20 0.3217
352.30 0.3221
352.40 0.3226
352.50 0.323
352.60 0.3234
352.70 0.3239
352.80 0.3243
352.90 0.3247
353.00 0.3251
353.10 0.3256
353.20 0.326
353.30 0.3264
353.40 0.3269
353.50 0.3273
353.60 0.3277
353.70 0.3281
353.80 0.3286
353.90 0.329
354.00 0.3294
354.10 0.3299
354.20 0.3303
354.30 0.3307
354.40 0.3312
354.50 0.3316
354.60 0.332
354.70 0.3325
354.80 0.3329
354.90 0.3334
355.00 0.3338
355.10 0.3342
355.20 0.3347
355.30 0.3351
355.40 0.3355
355.50 0.336
355.60 0.3364
355.70 0.3368
355.80 0.3372
355.90 0.3377
356.00 0.3381
356.10 0.3386
356.20 0.339
356.30 0.3394
356.40 0.3399
356.50 0.3403
356.60 0.3408
356.70 0.3412
356.80 0.3416
356.90 0.3421
357.00 0.3425
357.10 0.343
357.20 0.3434
357.30 0.3438
357.40 0.3443
357.50 0.3447
357.60 0.3451
357.70 0.3456
357.80 0.346
357.90 0.3464
358.00 0.3469
358.10 0.3473
358.20 0.3478
358.30 0.3482
358.40 0.3487
358.50 0.3491
358.60 0.3495
358.70 0.35
358.80 0.3504
358.90 0.3509
359.00 0.3513
359.10 0.3518
359.20 0.3522
359.30 0.3526
359.40 0.3531
359.50 0.3535
359.60 0.354
359.70 0.3544
359.80 0.3548
359.90 0.3553
360.00 0.3557
360.10 0.3562
360.20 0.3566
360.30 0.3571
360.40 0.3575
360.50 0.358
360.60 0.3584
360.70 0.3589
360.80 0.3593
360.90 0.3597
361.00 0.3602
361.10 0.3606
361.20 0.3611
361.30 0.3615
361.40 0.362
361.50 0.3624
361.60 0.3629
361.70 0.3633
361.80 0.3637
361.90 0.3642
362.00 0.3646
362.10 0.3651
362.20 0.3655
362.30 0.366
362.40 0.3664
362.50 0.3669
362.60 0.3673
362.70 0.3678
362.80 0.3682
362.90 0.3687
363.00 0.3691
363.10 0.3696
363.20 0.37
363.30 0.3705
363.40 0.3709
363.50 0.3714
363.60 0.3718
363.70 0.3723
363.80 0.3727
363.90 0.3732
364.00 0.3736
364.10 0.3741
364.20 0.3745
364.30 0.375
364.40 0.3754
364.50 0.3759
364.60 0.3763
364.70 0.3768
364.80 0.3772
364.90 0.3777
365.00 0.3781
365.10 0.3786
365.20 0.379
365.30 0.3795
365.40 0.3799
365.50 0.3804
365.60 0.3808
365.70 0.3813
365.80 0.3817
365.90 0.3822
366.00 0.3826
366.10 0.3831
366.20 0.3836
366.30 0.384
366.40 0.3845
366.50 0.3849
366.60 0.3854
366.70 0.3859
366.80 0.3863
366.90 0.3868
367.00 0.3872
367.10 0.3877
367.20 0.3881
367.30 0.3886
367.40 0.389
367.50 0.3895
367.60 0.3899
367.70 0.3904
367.80 0.3908
367.90 0.3913
368.00 0.3917
368.10 0.3922
368.20 0.3927
368.30 0.3931
368.40 0.3936
368.50 0.3941
368.60 0.3945
368.70 0.395
368.80 0.3954
368.90 0.3959
369.00 0.3964
369.10 0.3968
369.20 0.3973
369.30 0.3977
369.40 0.3982
369.50 0.3986
369.60 0.3991
369.70 0.3995
369.80 0.4
369.90 0.4005
370.00 0.4009
370.10 0.4014
370.20 0.4018
370.30 0.4023
370.40 0.4028
370.50 0.4032
370.60 0.4037
370.70 0.4042
370.80 0.4046
370.90 0.4051
371.00 0.4055
371.10 0.406
371.20 0.4065
371.30 0.4069
371.40 0.4074
371.50 0.4078
371.60 0.4083
371.70 0.4087
371.80 0.4092
371.90 0.4097
372.00 0.4101
372.10 0.4106
372.20 0.4111
372.30 0.4115
372.40 0.412
372.50 0.4125
372.60 0.4129
372.70 0.4134
372.80 0.4139
372.90 0.4143
373.00 0.4148
373.10 0.4152
373.20 0.4157
373.30 0.4162
373.40 0.4166
373.50 0.4171
373.60 0.4176
373.70 0.418
373.80 0.4185
373.90 0.4189
374.00 0.4194
374.10 0.4199
374.20 0.4203
374.30 0.4208
374.40 0.4213
374.50 0.4217
374.60 0.4222
374.70 0.4227
374.80 0.4232
374.90 0.4236
375.00 0.4241
375.10 0.4246
375.20 0.425
375.30 0.4255
375.40 0.4259
375.50 0.4264
375.60 0.4269
375.70 0.4273
375.80 0.4278
375.90 0.4283
376.00 0.4287
376.10 0.4292
376.20 0.4297
376.30 0.4301
376.40 0.4306
376.50 0.4311
376.60 0.4315
376.70 0.432
376.80 0.4325
376.90 0.4329
377.00 0.4334
377.10 0.4339
377.20 0.4343
377.30 0.4348
377.40 0.4353
377.50 0.4358
377.60 0.4362
377.70 0.4367
377.80 0.4372
377.90 0.4376
378.00 0.4381
378.10 0.4386
378.20 0.439
378.30 0.4395
378.40 0.44
378.50 0.4404
378.60 0.4409
378.70 0.4414
378.80 0.4419
378.90 0.4423
379.00 0.4428
379.10 0.4433
379.20 0.4437
379.30 0.4442
379.40 0.4447
379.50 0.4452
379.60 0.4456
379.70 0.4461
379.80 0.4466
379.90 0.447
380.00 0.4475
380.10 0.448
380.20 0.4485
380.30 0.4489
380.40 0.4494
380.50 0.4499
380.60 0.4503
380.70 0.4508
380.80 0.4513
380.90 0.4518
381.00 0.4522
381.10 0.4527
381.20 0.4532
381.30 0.4536
381.40 0.4541
381.50 0.4546
381.60 0.4551
381.70 0.4555
381.80 0.456
381.90 0.4565
382.00 0.457
382.10 0.4574
382.20 0.4579
382.30 0.4584
382.40 0.4589
382.50 0.4593
382.60 0.4598
382.70 0.4603
382.80 0.4608
382.90 0.4612
383.00 0.4617
383.10 0.4622
383.20 0.4627
383.30 0.4631
383.40 0.4636
383.50 0.4641
383.60 0.4646
383.70 0.465
383.80 0.4655
383.90 0.466
384.00 0.4665
384.10 0.4669
384.20 0.4674
384.30 0.4679
384.40 0.4683
384.50 0.4688
384.60 0.4693
384.70 0.4698
384.80 0.4703
384.90 0.4707
385.00 0.4712
385.10 0.4717
385.20 0.4722
385.30 0.4726
385.40 0.4731
385.50 0.4736
385.60 0.4741
385.70 0.4746
385.80 0.475
385.90 0.4755
386.00 0.476
386.10 0.4765
386.20 0.4769
386.30 0.4774
386.40 0.4779
386.50 0.4784
386.60 0.4789
386.70 0.4793
386.80 0.4798
386.90 0.4803
387.00 0.4808
387.10 0.4813
387.20 0.4817
387.30 0.4822
387.40 0.4827
387.50 0.4832
387.60 0.4836
387.70 0.4841
387.80 0.4846
387.90 0.4851
388.00 0.4856
388.10 0.486
388.20 0.4865
388.30 0.487
388.40 0.4875
388.50 0.488
388.60 0.4884
388.70 0.4889
388.80 0.4894
388.90 0.4899
389.00 0.4904
389.10 0.4908
389.20 0.4913
389.30 0.4918
389.40 0.4923
389.50 0.4927
389.60 0.4932
389.70 0.4937
389.80 0.4942
389.90 0.4947
390.00 0.4952
390.10 0.4956
390.20 0.4961
390.30 0.4966
390.40 0.4971
390.50 0.4976
390.60 0.498
390.70 0.4985
390.80 0.499
390.90 0.4995
391.00 0.5
391.10 0.5005
391.20 0.5009
391.30 0.5014
391.40 0.5019
391.50 0.5024
391.60 0.5029
391.70 0.5033
391.80 0.5038
391.90 0.5043
392.00 0.5048
392.10 0.5053
392.20 0.5057
392.30 0.5062
392.40 0.5067
392.50 0.5072
392.60 0.5077
392.70 0.5082
392.80 0.5086
392.90 0.5091
393.00 0.5096
393.10 0.5101
393.20 0.5106
393.30 0.5111
393.40 0.5115
393.50 0.512
393.60 0.5125
393.70 0.513
393.80 0.5135
393.90 0.5139
394.00 0.5144
394.10 0.5149
394.20 0.5154
394.30 0.5159
394.40 0.5164
394.50 0.5168
394.60 0.5173
394.70 0.5178
394.80 0.5183
394.90 0.5188
395.00 0.5193
395.10 0.5198
395.20 0.5202
395.30 0.5207
395.40 0.5212
395.50 0.5217
395.60 0.5222
395.70 0.5227
395.80 0.5231
395.90 0.5236
396.00 0.5241
396.10 0.5246
396.20 0.5251
396.30 0.5256
396.40 0.526
396.50 0.5265
396.60 0.527
396.70 0.5275
396.80 0.528
396.90 0.5285
397.00 0.5289
397.10 0.5294
397.20 0.5299
397.30 0.5304
397.40 0.5309
397.50 0.5314
397.60 0.5318
397.70 0.5323
397.80 0.5328
397.90 0.5333
398.00 0.5338
398.10 0.5343
398.20 0.5348
398.30 0.5352
398.40 0.5357
398.50 0.5362
398.60 0.5367
398.70 0.5372
398.80 0.5377
398.90 0.5382
399.00 0.5387
399.10 0.5391
399.20 0.5396
399.30 0.5401
399.40 0.5406
399.50 0.5411
399.60 0.5416
399.70 0.542
399.80 0.5425
399.90 0.543
400.00 0.5435
400.10 0.544
400.20 0.5445
400.30 0.545
400.40 0.5455
400.50 0.5459
400.60 0.5464
400.70 0.5469
400.80 0.5474
400.90 0.5479
401.00 0.5484
401.10 0.5488
401.20 0.5493
401.30 0.5498
401.40 0.5503
401.50 0.5508
401.60 0.5513
401.70 0.5518
401.80 0.5523
401.90 0.5527
402.00 0.5532
402.10 0.5537
402.20 0.5542
402.30 0.5547
402.40 0.5552
402.50 0.5557
402.60 0.5561
402.70 0.5566
402.80 0.5571
402.90 0.5576
403.00 0.5581
403.10 0.5586
403.20 0.5591
403.30 0.5595
403.40 0.56
403.50 0.5605
403.60 0.561
403.70 0.5615
403.80 0.562
403.90 0.5625
404.00 0.563
404.10 0.5634
404.20 0.5639
404.30 0.5644
404.40 0.5649
404.50 0.5654
404.60 0.5659
404.70 0.5664
404.80 0.5669
404.90 0.5673
405.00 0.5678
405.10 0.5683
405.20 0.5688
405.30 0.5693
405.40 0.5698
405.50 0.5703
405.60 0.5708
405.70 0.5713
405.80 0.5717
405.90 0.5722
406.00 0.5727
406.10 0.5732
406.20 0.5737
406.30 0.5742
406.40 0.5747
406.50 0.5752
406.60 0.5756
406.70 0.5761
406.80 0.5766
406.90 0.5771
407.00 0.5776
407.10 0.5781
407.20 0.5786
407.30 0.579
407.40 0.5795
407.50 0.58
407.60 0.5805
407.70 0.581
407.80 0.5815
407.90 0.582
408.00 0.5825
408.10 0.5829
408.20 0.5834
408.30 0.5839
408.40 0.5844
408.50 0.5849
408.60 0.5854
408.70 0.5859
408.80 0.5864
408.90 0.5868
409.00 0.5873
409.10 0.5878
409.20 0.5883
409.30 0.5888
409.40 0.5893
409.50 0.5898
409.60 0.5903
409.70 0.5908
409.80 0.5912
409.90 0.5917
410.00 0.5922
410.10 0.5927
410.20 0.5932
410.30 0.5937
410.40 0.5942
410.50 0.5947
410.60 0.5951
410.70 0.5956
410.80 0.5961
410.90 0.5966
411.00 0.5971
411.10 0.5976
411.20 0.5981
411.30 0.5985
411.40 0.599
411.50 0.5995
411.60 0.6
411.70 0.6005
411.80 0.601
411.90 0.6015
412.00 0.602
412.10 0.6024
412.20 0.6029
412.30 0.6034
412.40 0.6039
412.50 0.6044
412.60 0.6049
412.70 0.6054
412.80 0.6059
412.90 0.6063
413.00 0.6068
413.10 0.6073
413.20 0.6078
413.30 0.6083
413.40 0.6088
413.50 0.6093
413.60 0.6098
413.70 0.6102
413.80 0.6107
413.90 0.6112
414.00 0.6117
414.10 0.6122
414.20 0.6127
414.30 0.6132
414.40 0.6137
414.50 0.6142
414.60 0.6146
414.70 0.6151
414.80 0.6156
414.90 0.6161
415.00 0.6166
415.10 0.6171
415.20 0.6176
415.30 0.618
415.40 0.6185
415.50 0.619
415.60 0.6195
415.70 0.62
415.80 0.6205
415.90 0.621
416.00 0.6215
416.10 0.6219
416.20 0.6224
416.30 0.6229
416.40 0.6234
416.50 0.6239
416.60 0.6244
416.70 0.6249
416.80 0.6254
416.90 0.6258
417.00 0.6263
417.10 0.6268
417.20 0.6273
417.30 0.6278
417.40 0.6283
417.50 0.6288
417.60 0.6293
417.70 0.6298
417.80 0.6302
417.90 0.6307
418.00 0.6312
418.10 0.6317
418.20 0.6322
418.30 0.6327
418.40 0.6331
418.50 0.6336
418.60 0.6341
418.70 0.6346
418.80 0.6351
418.90 0.6356
419.00 0.6361
419.10 0.6366
419.20 0.637
419.30 0.6375
419.40 0.638
419.50 0.6385
419.60 0.639
419.70 0.6395
419.80 0.64
419.90 0.6404
420.00 0.6409
420.10 0.6414
420.20 0.6419
420.30 0.6424
420.40 0.6429
420.50 0.6434
420.60 0.6439
420.70 0.6443
420.80 0.6448
420.90 0.6453
421.00 0.6458
421.10 0.6463
421.20 0.6468
421.30 0.6472
421.40 0.6477
421.50 0.6482
421.60 0.6487
421.70 0.6492
421.80 0.6497
421.90 0.6502
422.00 0.6507
422.10 0.6511
422.20 0.6516
422.30 0.6521
422.40 0.6526
422.50 0.6531
422.60 0.6536
422.70 0.654
422.80 0.6545
422.90 0.655
423.00 0.6555
423.10 0.656
423.20 0.6565
423.30 0.657
423.40 0.6574
423.50 0.6579
423.60 0.6584
423.70 0.6589
423.80 0.6594
423.90 0.6599
424.00 0.6604
424.10 0.6608
424.20 0.6613
424.30 0.6618
424.40 0.6623
424.50 0.6628
424.60 0.6633
424.70 0.6638
424.80 0.6642
424.90 0.6647
425.00 0.6652
425.10 0.6657
425.20 0.6662
425.30 0.6667
425.40 0.6671
425.50 0.6676
425.60 0.6681
425.70 0.6686
425.80 0.6691
425.90 0.6696
426.00 0.6701
426.10 0.6705
426.20 0.671
426.30 0.6715
426.40 0.672
426.50 0.6725
426.60 0.673
426.70 0.6734
426.80 0.6739
426.90 0.6744
427.00 0.6749
427.10 0.6754
427.20 0.6759
427.30 0.6763
427.40 0.6768
427.50 0.6773
427.60 0.6778
427.70 0.6783
427.80 0.6788
427.90 0.6792
428.00 0.6797
428.10 0.6802
428.20 0.6807
428.30 0.6812
428.40 0.6817
428.50 0.6821
428.60 0.6826
428.70 0.6831
428.80 0.6836
428.90 0.6841
429.00 0.6846
429.10 0.685
429.20 0.6855
429.30 0.686
429.40 0.6865
429.50 0.687
429.60 0.6875
429.70 0.6879
429.80 0.6884
429.90 0.6889
430.00 0.6894
430.10 0.6899
430.20 0.6903
430.30 0.6908
430.40 0.6913
430.50 0.6918
430.60 0.6923
430.70 0.6928
430.80 0.6932
430.90 0.6937
431.00 0.6942
431.10 0.6947
431.20 0.6951
431.30 0.6956
431.40 0.6961
431.50 0.6966
431.60 0.6971
431.70 0.6976
431.80 0.698
431.90 0.6985
432.00 0.699
432.10 0.6995
432.20 0.7
432.30 0.7004
432.40 0.7009
432.50 0.7014
432.60 0.7019
432.70 0.7024
432.80 0.7028
432.90 0.7033
433.00 0.7038
433.10 0.7043
433.20 0.7048
433.30 0.7053
433.40 0.7057
433.50 0.7062
433.60 0.7067
433.70 0.7072
433.80 0.7077
433.90 0.7081
434.00 0.7086
434.10 0.7091
434.20 0.7096
434.30 0.7101
434.40 0.7105
434.50 0.711
434.60 0.7115
434.70 0.712
434.80 0.7125
434.90 0.7129
435.00 0.7134
435.10 0.7139
435.20 0.7144
435.30 0.7148
435.40 0.7153
435.50 0.7158
435.60 0.7163
435.70 0.7168
435.80 0.7172
435.90 0.7177
436.00 0.7182
436.10 0.7187
436.20 0.7191
436.30 0.7196
436.40 0.7201
436.50 0.7206
436.60 0.7211
436.70 0.7215
436.80 0.722
436.90 0.7225
437.00 0.723
437.10 0.7235
437.20 0.7239
437.30 0.7244
437.40 0.7249
437.50 0.7254
437.60 0.7258
437.70 0.7263
437.80 0.7268
437.90 0.7273
438.00 0.7277
438.10 0.7282
438.20 0.7287
438.30 0.7292
438.40 0.7296
438.50 0.7301
438.60 0.7306
438.70 0.7311
438.80 0.7315
438.90 0.732
439.00 0.7325
439.10 0.733
439.20 0.7335
439.30 0.7339
439.40 0.7344
439.50 0.7349
439.60 0.7354
439.70 0.7358
439.80 0.7363
439.90 0.7368
440.00 0.7373
440.10 0.7377
440.20 0.7382
440.30 0.7387
440.40 0.7392
440.50 0.7396
440.60 0.7401
440.70 0.7406
440.80 0.7411
440.90 0.7415
441.00 0.742
441.10 0.7425
441.20 0.743
441.30 0.7434
441.40 0.7439
441.50 0.7444
441.60 0.7448
441.70 0.7453
441.80 0.7458
441.90 0.7463
442.00 0.7467
442.10 0.7472
442.20 0.7477
442.30 0.7482
442.40 0.7486
442.50 0.7491
442.60 0.7496
442.70 0.7501
442.80 0.7505
442.90 0.751
443.00 0.7515
