# Version 2.1 - nm, norm@500 to 1, cut digits, bergeron_10000_95.dat_10000
# Wavelength(nm)  Flambda(ergs/cm^s/s/nm)
300.00 1.975
300.10 1.974
300.20 1.973
300.30 1.973
300.40 1.972
300.50 1.971
300.60 1.971
300.70 1.97
300.80 1.969
300.90 1.969
301.00 1.968
301.10 1.967
301.20 1.967
301.30 1.966
301.40 1.965
301.50 1.965
301.60 1.964
301.70 1.963
301.80 1.963
301.90 1.962
302.00 1.961
302.10 1.961
302.20 1.96
302.30 1.959
302.40 1.959
302.50 1.958
302.60 1.957
302.70 1.957
302.80 1.956
302.90 1.955
303.00 1.955
303.10 1.954
303.20 1.953
303.30 1.953
303.40 1.952
303.50 1.951
303.60 1.951
303.70 1.95
303.80 1.949
303.90 1.949
304.00 1.948
304.10 1.947
304.20 1.947
304.30 1.946
304.40 1.945
304.50 1.945
304.60 1.944
304.70 1.943
304.80 1.942
304.90 1.942
305.00 1.941
305.10 1.94
305.20 1.94
305.30 1.939
305.40 1.938
305.50 1.938
305.60 1.937
305.70 1.936
305.80 1.936
305.90 1.935
306.00 1.934
306.10 1.934
306.20 1.933
306.30 1.932
306.40 1.932
306.50 1.931
306.60 1.93
306.70 1.93
306.80 1.929
306.90 1.928
307.00 1.928
307.10 1.927
307.20 1.926
307.30 1.926
307.40 1.925
307.50 1.924
307.60 1.923
307.70 1.923
307.80 1.922
307.90 1.921
308.00 1.921
308.10 1.92
308.20 1.919
308.30 1.919
308.40 1.918
308.50 1.917
308.60 1.917
308.70 1.916
308.80 1.915
308.90 1.915
309.00 1.914
309.10 1.913
309.20 1.913
309.30 1.912
309.40 1.911
309.50 1.91
309.60 1.91
309.70 1.909
309.80 1.908
309.90 1.908
310.00 1.907
310.10 1.906
310.20 1.906
310.30 1.905
310.40 1.904
310.50 1.904
310.60 1.903
310.70 1.902
310.80 1.902
310.90 1.901
311.00 1.9
311.10 1.9
311.20 1.899
311.30 1.898
311.40 1.897
311.50 1.897
311.60 1.896
311.70 1.895
311.80 1.895
311.90 1.894
312.00 1.893
312.10 1.893
312.20 1.892
312.30 1.891
312.40 1.891
312.50 1.89
312.60 1.889
312.70 1.889
312.80 1.888
312.90 1.887
313.00 1.887
313.10 1.886
313.20 1.885
313.30 1.884
313.40 1.884
313.50 1.883
313.60 1.882
313.70 1.882
313.80 1.881
313.90 1.88
314.00 1.88
314.10 1.879
314.20 1.878
314.30 1.878
314.40 1.877
314.50 1.876
314.60 1.875
314.70 1.875
314.80 1.874
314.90 1.873
315.00 1.873
315.10 1.872
315.20 1.871
315.30 1.871
315.40 1.87
315.50 1.869
315.60 1.869
315.70 1.868
315.80 1.867
315.90 1.867
316.00 1.866
316.10 1.865
316.20 1.864
316.30 1.864
316.40 1.863
316.50 1.862
316.60 1.862
316.70 1.861
316.80 1.86
316.90 1.86
317.00 1.859
317.10 1.858
317.20 1.858
317.30 1.857
317.40 1.856
317.50 1.855
317.60 1.855
317.70 1.854
317.80 1.853
317.90 1.853
318.00 1.852
318.10 1.851
318.20 1.851
318.30 1.85
318.40 1.849
318.50 1.848
318.60 1.848
318.70 1.847
318.80 1.846
318.90 1.846
319.00 1.845
319.10 1.844
319.20 1.844
319.30 1.843
319.40 1.842
319.50 1.842
319.60 1.841
319.70 1.84
319.80 1.839
319.90 1.839
320.00 1.838
320.10 1.837
320.20 1.837
320.30 1.836
320.40 1.835
320.50 1.835
320.60 1.834
320.70 1.833
320.80 1.833
320.90 1.832
321.00 1.831
321.10 1.83
321.20 1.83
321.30 1.829
321.40 1.828
321.50 1.828
321.60 1.827
321.70 1.826
321.80 1.826
321.90 1.825
322.00 1.824
322.10 1.824
322.20 1.823
322.30 1.822
322.40 1.821
322.50 1.821
322.60 1.82
322.70 1.819
322.80 1.819
322.90 1.818
323.00 1.817
323.10 1.817
323.20 1.816
323.30 1.815
323.40 1.815
323.50 1.814
323.60 1.813
323.70 1.812
323.80 1.812
323.90 1.811
324.00 1.81
324.10 1.81
324.20 1.809
324.30 1.808
324.40 1.808
324.50 1.807
324.60 1.806
324.70 1.805
324.80 1.805
324.90 1.804
325.00 1.803
325.10 1.803
325.20 1.802
325.30 1.801
325.40 1.801
325.50 1.8
325.60 1.799
325.70 1.799
325.80 1.798
325.90 1.797
326.00 1.796
326.10 1.796
326.20 1.795
326.30 1.794
326.40 1.794
326.50 1.793
326.60 1.792
326.70 1.792
326.80 1.791
326.90 1.79
327.00 1.789
327.10 1.789
327.20 1.788
327.30 1.787
327.40 1.787
327.50 1.786
327.60 1.785
327.70 1.785
327.80 1.784
327.90 1.783
328.00 1.783
328.10 1.782
328.20 1.781
328.30 1.78
328.40 1.78
328.50 1.779
328.60 1.778
328.70 1.778
328.80 1.777
328.90 1.776
329.00 1.776
329.10 1.775
329.20 1.774
329.30 1.774
329.40 1.773
329.50 1.772
329.60 1.771
329.70 1.771
329.80 1.77
329.90 1.769
330.00 1.769
330.10 1.768
330.20 1.767
330.30 1.767
330.40 1.766
330.50 1.765
330.60 1.765
330.70 1.764
330.80 1.763
330.90 1.762
331.00 1.762
331.10 1.761
331.20 1.76
331.30 1.76
331.40 1.759
331.50 1.758
331.60 1.758
331.70 1.757
331.80 1.756
331.90 1.755
332.00 1.755
332.10 1.754
332.20 1.753
332.30 1.753
332.40 1.752
332.50 1.751
332.60 1.751
332.70 1.75
332.80 1.749
332.90 1.749
333.00 1.748
333.10 1.747
333.20 1.746
333.30 1.746
333.40 1.745
333.50 1.744
333.60 1.744
333.70 1.743
333.80 1.742
333.90 1.742
334.00 1.741
334.10 1.74
334.20 1.74
334.30 1.739
334.40 1.738
334.50 1.737
334.60 1.737
334.70 1.736
334.80 1.735
334.90 1.735
335.00 1.734
335.10 1.733
335.20 1.733
335.30 1.732
335.40 1.731
335.50 1.731
335.60 1.73
335.70 1.729
335.80 1.728
335.90 1.728
336.00 1.727
336.10 1.726
336.20 1.726
336.30 1.725
336.40 1.724
336.50 1.724
336.60 1.723
336.70 1.722
336.80 1.722
336.90 1.721
337.00 1.72
337.10 1.719
337.20 1.719
337.30 1.718
337.40 1.717
337.50 1.717
337.60 1.716
337.70 1.715
337.80 1.715
337.90 1.714
338.00 1.713
338.10 1.713
338.20 1.712
338.30 1.711
338.40 1.71
338.50 1.71
338.60 1.709
338.70 1.708
338.80 1.708
338.90 1.707
339.00 1.706
339.10 1.706
339.20 1.705
339.30 1.704
339.40 1.704
339.50 1.703
339.60 1.702
339.70 1.702
339.80 1.701
339.90 1.7
340.00 1.699
340.10 1.699
340.20 1.698
340.30 1.697
340.40 1.697
340.50 1.696
340.60 1.695
340.70 1.695
340.80 1.694
340.90 1.693
341.00 1.693
341.10 1.692
341.20 1.691
341.30 1.691
341.40 1.69
341.50 1.689
341.60 1.688
341.70 1.688
341.80 1.687
341.90 1.686
342.00 1.686
342.10 1.685
342.20 1.684
342.30 1.684
342.40 1.683
342.50 1.682
342.60 1.682
342.70 1.681
342.80 1.68
342.90 1.68
343.00 1.679
343.10 1.678
343.20 1.677
343.30 1.677
343.40 1.676
343.50 1.675
343.60 1.675
343.70 1.674
343.80 1.673
343.90 1.673
344.00 1.672
344.10 1.671
344.20 1.671
344.30 1.67
344.40 1.669
344.50 1.669
344.60 1.668
344.70 1.667
344.80 1.667
344.90 1.666
345.00 1.665
345.10 1.664
345.20 1.664
345.30 1.663
345.40 1.662
345.50 1.662
345.60 1.661
345.70 1.66
345.80 1.66
345.90 1.659
346.00 1.658
346.10 1.658
346.20 1.657
346.30 1.656
346.40 1.656
346.50 1.655
346.60 1.654
346.70 1.654
346.80 1.653
346.90 1.652
347.00 1.651
347.10 1.651
347.20 1.65
347.30 1.649
347.40 1.649
347.50 1.648
347.60 1.647
347.70 1.647
347.80 1.646
347.90 1.645
348.00 1.645
348.10 1.644
348.20 1.643
348.30 1.643
348.40 1.642
348.50 1.641
348.60 1.641
348.70 1.64
348.80 1.639
348.90 1.639
349.00 1.638
349.10 1.637
349.20 1.637
349.30 1.636
349.40 1.635
349.50 1.634
349.60 1.634
349.70 1.633
349.80 1.632
349.90 1.632
350.00 1.631
350.10 1.63
350.20 1.63
350.30 1.629
350.40 1.628
350.50 1.628
350.60 1.627
350.70 1.626
350.80 1.626
350.90 1.625
351.00 1.624
351.10 1.624
351.20 1.623
351.30 1.622
351.40 1.622
351.50 1.621
351.60 1.62
351.70 1.62
351.80 1.619
351.90 1.618
352.00 1.618
352.10 1.617
352.20 1.616
352.30 1.616
352.40 1.615
352.50 1.614
352.60 1.613
352.70 1.613
352.80 1.612
352.90 1.611
353.00 1.611
353.10 1.61
353.20 1.609
353.30 1.609
353.40 1.608
353.50 1.607
353.60 1.607
353.70 1.606
353.80 1.605
353.90 1.605
354.00 1.604
354.10 1.603
354.20 1.603
354.30 1.602
354.40 1.601
354.50 1.601
354.60 1.6
354.70 1.599
354.80 1.599
354.90 1.598
355.00 1.597
355.10 1.597
355.20 1.596
355.30 1.595
355.40 1.595
355.50 1.594
355.60 1.593
355.70 1.593
355.80 1.592
355.90 1.591
356.00 1.591
356.10 1.59
356.20 1.589
356.30 1.589
356.40 1.588
356.50 1.587
356.60 1.587
356.70 1.586
356.80 1.585
356.90 1.585
357.00 1.584
357.10 1.583
357.20 1.583
357.30 1.582
357.40 1.581
357.50 1.581
357.60 1.58
357.70 1.579
357.80 1.579
357.90 1.578
358.00 1.577
358.10 1.577
358.20 1.576
358.30 1.575
358.40 1.575
358.50 1.574
358.60 1.573
358.70 1.573
358.80 1.572
358.90 1.571
359.00 1.571
359.10 1.57
359.20 1.569
359.30 1.569
359.40 1.568
359.50 1.567
359.60 1.567
359.70 1.566
359.80 1.565
359.90 1.565
360.00 1.564
360.10 1.563
360.20 1.563
360.30 1.562
360.40 1.561
360.50 1.561
360.60 1.56
360.70 1.559
360.80 1.559
360.90 1.558
361.00 1.557
361.10 1.557
361.20 1.556
361.30 1.555
361.40 1.555
361.50 1.554
361.60 1.553
361.70 1.553
361.80 1.552
361.90 1.551
362.00 1.551
362.10 1.55
362.20 1.549
362.30 1.549
362.40 1.548
362.50 1.547
362.60 1.547
362.70 1.546
362.80 1.545
362.90 1.545
363.00 1.544
363.10 1.543
363.20 1.543
363.30 1.542
363.40 1.541
363.50 1.54
363.60 1.54
363.70 1.539
363.80 1.538
363.90 1.537
364.00 1.537
364.10 1.536
364.20 1.535
364.30 1.534
364.40 1.534
364.50 1.533
364.60 1.532
364.70 1.531
364.80 1.531
364.90 1.53
365.00 1.529
365.10 1.528
365.20 1.527
365.30 1.527
365.40 1.526
365.50 1.525
365.60 1.524
365.70 1.524
365.80 1.523
365.90 1.522
366.00 1.521
366.10 1.521
366.20 1.52
366.30 1.519
366.40 1.519
366.50 1.518
366.60 1.517
366.70 1.517
366.80 1.516
366.90 1.515
367.00 1.515
367.10 1.514
367.20 1.513
367.30 1.513
367.40 1.512
367.50 1.511
367.60 1.51
367.70 1.51
367.80 1.509
367.90 1.508
368.00 1.508
368.10 1.507
368.20 1.506
368.30 1.506
368.40 1.505
368.50 1.504
368.60 1.504
368.70 1.503
368.80 1.502
368.90 1.502
369.00 1.501
369.10 1.5
369.20 1.5
369.30 1.499
369.40 1.498
369.50 1.498
369.60 1.497
369.70 1.496
369.80 1.496
369.90 1.495
370.00 1.494
370.10 1.494
370.20 1.493
370.30 1.492
370.40 1.492
370.50 1.491
370.60 1.49
370.70 1.49
370.80 1.489
370.90 1.488
371.00 1.488
371.10 1.487
371.20 1.487
371.30 1.486
371.40 1.485
371.50 1.485
371.60 1.484
371.70 1.483
371.80 1.483
371.90 1.482
372.00 1.481
372.10 1.481
372.20 1.48
372.30 1.48
372.40 1.479
372.50 1.479
372.60 1.478
372.70 1.478
372.80 1.477
372.90 1.476
373.00 1.476
373.10 1.475
373.20 1.475
373.30 1.474
373.40 1.474
373.50 1.473
373.60 1.473
373.70 1.472
373.80 1.471
373.90 1.471
374.00 1.47
374.10 1.47
374.20 1.469
374.30 1.469
374.40 1.468
374.50 1.468
374.60 1.467
374.70 1.467
374.80 1.467
374.90 1.466
375.00 1.466
375.10 1.465
375.20 1.465
375.30 1.464
375.40 1.464
375.50 1.463
375.60 1.463
375.70 1.462
375.80 1.462
375.90 1.461
376.00 1.461
376.10 1.46
376.20 1.46
376.30 1.459
376.40 1.459
376.50 1.458
376.60 1.458
376.70 1.458
376.80 1.457
376.90 1.457
377.00 1.456
377.10 1.455
377.20 1.455
377.30 1.454
377.40 1.454
377.50 1.453
377.60 1.452
377.70 1.452
377.80 1.451
377.90 1.45
378.00 1.45
378.10 1.448
378.20 1.447
378.30 1.446
378.40 1.444
378.50 1.443
378.60 1.442
378.70 1.44
378.80 1.439
378.90 1.438
379.00 1.436
379.10 1.435
379.20 1.434
379.30 1.433
379.40 1.432
379.50 1.431
379.60 1.43
379.70 1.428
379.80 1.427
379.90 1.426
380.00 1.425
380.10 1.426
380.20 1.427
380.30 1.428
380.40 1.428
380.50 1.429
380.60 1.43
380.70 1.431
380.80 1.432
380.90 1.432
381.00 1.433
381.10 1.433
381.20 1.433
381.30 1.433
381.40 1.433
381.50 1.433
381.60 1.433
381.70 1.432
381.80 1.431
381.90 1.43
382.00 1.429
382.10 1.428
382.20 1.426
382.30 1.423
382.40 1.42
382.50 1.417
382.60 1.414
382.70 1.41
382.80 1.407
382.90 1.404
383.00 1.401
383.10 1.398
383.20 1.395
383.30 1.392
383.40 1.389
383.50 1.386
383.60 1.387
383.70 1.389
383.80 1.392
383.90 1.395
384.00 1.398
384.10 1.401
384.20 1.405
384.30 1.409
384.40 1.412
384.50 1.415
384.60 1.417
384.70 1.419
384.80 1.421
384.90 1.423
385.00 1.424
385.10 1.425
385.20 1.426
385.30 1.426
385.40 1.427
385.50 1.427
385.60 1.427
385.70 1.427
385.80 1.427
385.90 1.427
386.00 1.426
386.10 1.426
386.20 1.425
386.30 1.424
386.40 1.423
386.50 1.422
386.60 1.421
386.70 1.419
386.80 1.418
386.90 1.416
387.00 1.414
387.10 1.411
387.20 1.409
387.30 1.406
387.40 1.403
387.50 1.4
387.60 1.396
387.70 1.392
387.80 1.387
387.90 1.382
388.00 1.376
388.10 1.369
388.20 1.361
388.30 1.352
388.40 1.342
388.50 1.333
388.60 1.324
388.70 1.317
388.80 1.311
388.90 1.307
389.00 1.311
389.10 1.316
389.20 1.323
389.30 1.332
389.40 1.341
389.50 1.35
389.60 1.359
389.70 1.367
389.80 1.374
389.90 1.38
390.00 1.385
390.10 1.39
390.20 1.394
390.30 1.398
390.40 1.401
390.50 1.404
390.60 1.406
390.70 1.409
390.80 1.411
390.90 1.413
391.00 1.414
391.10 1.416
391.20 1.417
391.30 1.418
391.40 1.419
391.50 1.42
391.60 1.421
391.70 1.421
391.80 1.422
391.90 1.422
392.00 1.422
392.10 1.422
392.20 1.422
392.30 1.422
392.40 1.421
392.50 1.421
392.60 1.42
392.70 1.42
392.80 1.419
392.90 1.418
393.00 1.417
393.10 1.416
393.20 1.414
393.30 1.413
393.40 1.411
393.50 1.409
393.60 1.408
393.70 1.406
393.80 1.403
393.90 1.401
394.00 1.398
394.10 1.396
394.20 1.393
394.30 1.39
394.40 1.386
394.50 1.383
394.60 1.379
394.70 1.375
394.80 1.371
394.90 1.367
395.00 1.362
395.10 1.357
395.20 1.351
395.30 1.345
395.40 1.339
395.50 1.333
395.60 1.325
395.70 1.317
395.80 1.309
395.90 1.3
396.00 1.289
396.10 1.278
396.20 1.265
396.30 1.25
396.40 1.234
396.50 1.213
396.60 1.191
396.70 1.168
396.80 1.148
396.90 1.13
397.00 1.113
397.10 1.128
397.20 1.145
397.30 1.164
397.40 1.187
397.50 1.209
397.60 1.23
397.70 1.246
397.80 1.261
397.90 1.274
398.00 1.285
398.10 1.295
398.20 1.305
398.30 1.313
398.40 1.32
398.50 1.327
398.60 1.334
398.70 1.34
398.80 1.346
398.90 1.351
399.00 1.356
399.10 1.361
399.20 1.365
399.30 1.369
399.40 1.373
399.50 1.376
399.60 1.38
399.70 1.383
399.80 1.386
399.90 1.389
400.00 1.391
400.10 1.394
400.20 1.396
400.30 1.398
400.40 1.4
400.50 1.402
400.60 1.404
400.70 1.405
400.80 1.407
400.90 1.408
401.00 1.41
401.10 1.411
401.20 1.412
401.30 1.413
401.40 1.414
401.50 1.414
401.60 1.415
401.70 1.416
401.80 1.416
401.90 1.417
402.00 1.417
402.10 1.417
402.20 1.417
402.30 1.417
402.40 1.417
402.50 1.417
402.60 1.417
402.70 1.417
402.80 1.417
402.90 1.416
403.00 1.416
403.10 1.415
403.20 1.414
403.30 1.414
403.40 1.413
403.50 1.412
403.60 1.411
403.70 1.41
403.80 1.409
403.90 1.408
404.00 1.406
404.10 1.405
404.20 1.403
404.30 1.402
404.40 1.4
404.50 1.398
404.60 1.397
404.70 1.395
404.80 1.393
404.90 1.39
405.00 1.388
405.10 1.386
405.20 1.383
405.30 1.381
405.40 1.378
405.50 1.375
405.60 1.372
405.70 1.369
405.80 1.366
405.90 1.362
406.00 1.359
406.10 1.355
406.20 1.351
406.30 1.348
406.40 1.343
406.50 1.339
406.60 1.335
406.70 1.33
406.80 1.325
406.90 1.32
407.00 1.314
407.10 1.309
407.20 1.303
407.30 1.297
407.40 1.29
407.50 1.284
407.60 1.277
407.70 1.269
407.80 1.262
407.90 1.253
408.00 1.245
408.10 1.236
408.20 1.226
408.30 1.216
408.40 1.206
408.50 1.195
408.60 1.183
408.70 1.17
408.80 1.157
408.90 1.143
409.00 1.128
409.10 1.111
409.20 1.094
409.30 1.075
409.40 1.054
409.50 1.031
409.60 1.005
409.70 0.9733
409.80 0.9379
409.90 0.8989
410.00 0.8645
410.10 0.8407
410.20 0.8278
410.30 0.8514
410.40 0.8819
410.50 0.9192
410.60 0.9556
410.70 0.9881
410.80 1.017
410.90 1.04
411.00 1.061
411.10 1.081
411.20 1.098
411.30 1.114
411.40 1.129
411.50 1.143
411.60 1.156
411.70 1.168
411.80 1.179
411.90 1.19
412.00 1.2
412.10 1.21
412.20 1.219
412.30 1.227
412.40 1.235
412.50 1.243
412.60 1.25
412.70 1.257
412.80 1.263
412.90 1.269
413.00 1.275
413.10 1.281
413.20 1.286
413.30 1.291
413.40 1.296
413.50 1.301
413.60 1.305
413.70 1.309
413.80 1.313
413.90 1.317
414.00 1.321
414.10 1.324
414.20 1.328
414.30 1.331
414.40 1.334
414.50 1.337
414.60 1.34
414.70 1.342
414.80 1.345
414.90 1.347
415.00 1.35
415.10 1.352
415.20 1.354
415.30 1.356
415.40 1.358
415.50 1.36
415.60 1.362
415.70 1.363
415.80 1.365
415.90 1.367
416.00 1.368
416.10 1.37
416.20 1.371
416.30 1.372
416.40 1.373
416.50 1.375
416.60 1.376
416.70 1.377
416.80 1.378
416.90 1.379
417.00 1.38
417.10 1.38
417.20 1.381
417.30 1.382
417.40 1.383
417.50 1.383
417.60 1.384
417.70 1.384
417.80 1.385
417.90 1.385
418.00 1.386
418.10 1.386
418.20 1.387
418.30 1.387
418.40 1.387
418.50 1.388
418.60 1.388
418.70 1.388
418.80 1.388
418.90 1.388
419.00 1.388
419.10 1.388
419.20 1.388
419.30 1.389
419.40 1.388
419.50 1.388
419.60 1.388
419.70 1.388
419.80 1.388
419.90 1.388
420.00 1.388
420.10 1.388
420.20 1.387
420.30 1.387
420.40 1.387
420.50 1.387
420.60 1.386
420.70 1.386
420.80 1.386
420.90 1.385
421.00 1.385
421.10 1.384
421.20 1.384
421.30 1.384
421.40 1.383
421.50 1.382
421.60 1.382
421.70 1.381
421.80 1.381
421.90 1.38
422.00 1.38
422.10 1.379
422.20 1.378
422.30 1.378
422.40 1.377
422.50 1.376
422.60 1.375
422.70 1.375
422.80 1.374
422.90 1.373
423.00 1.372
423.10 1.371
423.20 1.37
423.30 1.369
423.40 1.368
423.50 1.367
423.60 1.366
423.70 1.365
423.80 1.364
423.90 1.363
424.00 1.362
424.10 1.361
424.20 1.36
424.30 1.359
424.40 1.358
424.50 1.356
424.60 1.355
424.70 1.354
424.80 1.352
424.90 1.351
425.00 1.35
425.10 1.348
425.20 1.347
425.30 1.345
425.40 1.344
425.50 1.342
425.60 1.341
425.70 1.339
425.80 1.337
425.90 1.336
426.00 1.334
426.10 1.332
426.20 1.33
426.30 1.328
426.40 1.326
426.50 1.324
426.60 1.322
426.70 1.32
426.80 1.318
426.90 1.316
427.00 1.314
427.10 1.311
427.20 1.309
427.30 1.307
427.40 1.304
427.50 1.302
427.60 1.299
427.70 1.296
427.80 1.294
427.90 1.291
428.00 1.288
428.10 1.285
428.20 1.282
428.30 1.279
428.40 1.276
428.50 1.272
428.60 1.269
428.70 1.265
428.80 1.262
428.90 1.258
429.00 1.254
429.10 1.25
429.20 1.246
429.30 1.242
429.40 1.238
429.50 1.234
429.60 1.229
429.70 1.224
429.80 1.219
429.90 1.214
430.00 1.209
430.10 1.204
430.20 1.198
430.30 1.192
430.40 1.186
430.50 1.18
430.60 1.174
430.70 1.167
430.80 1.16
430.90 1.153
431.00 1.146
431.10 1.138
431.20 1.13
431.30 1.122
431.40 1.113
431.50 1.104
431.60 1.094
431.70 1.084
431.80 1.074
431.90 1.063
432.00 1.052
432.10 1.04
432.20 1.027
432.30 1.013
432.40 0.9987
432.50 0.9829
432.60 0.9662
432.70 0.9486
432.80 0.9292
432.90 0.9087
433.00 0.8874
433.10 0.8644
433.20 0.8405
433.30 0.8156
433.40 0.7881
433.50 0.7583
433.60 0.7261
433.70 0.6842
433.80 0.6382
433.90 0.5883
434.00 0.5469
434.10 0.548
434.20 0.5917
434.30 0.6413
434.40 0.6866
434.50 0.7274
434.60 0.7587
434.70 0.7877
434.80 0.8144
434.90 0.8385
435.00 0.8617
435.10 0.8838
435.20 0.9043
435.30 0.9238
435.40 0.9424
435.50 0.959
435.60 0.9747
435.70 0.9895
435.80 1.003
435.90 1.015
436.00 1.028
436.10 1.038
436.20 1.049
436.30 1.059
436.40 1.068
436.50 1.077
436.60 1.086
436.70 1.094
436.80 1.101
436.90 1.109
437.00 1.116
437.10 1.122
437.20 1.129
437.30 1.135
437.40 1.14
437.50 1.146
437.60 1.151
437.70 1.156
437.80 1.161
437.90 1.166
438.00 1.17
438.10 1.175
438.20 1.179
438.30 1.183
438.40 1.186
438.50 1.19
438.60 1.193
438.70 1.197
438.80 1.2
438.90 1.203
439.00 1.206
439.10 1.209
439.20 1.211
439.30 1.214
439.40 1.217
439.50 1.219
439.60 1.221
439.70 1.223
439.80 1.226
439.90 1.228
440.00 1.23
440.10 1.231
440.20 1.233
440.30 1.235
440.40 1.237
440.50 1.238
440.60 1.24
440.70 1.241
440.80 1.243
440.90 1.244
441.00 1.245
441.10 1.246
441.20 1.248
441.30 1.249
441.40 1.25
441.50 1.251
441.60 1.252
441.70 1.253
441.80 1.254
441.90 1.254
442.00 1.255
442.10 1.256
442.20 1.257
442.30 1.257
442.40 1.258
442.50 1.259
442.60 1.259
442.70 1.26
442.80 1.26
442.90 1.261
443.00 1.261
443.10 1.262
443.20 1.262
443.30 1.263
443.40 1.263
443.50 1.264
443.60 1.264
443.70 1.264
443.80 1.264
443.90 1.265
444.00 1.265
444.10 1.265
444.20 1.265
444.30 1.266
444.40 1.266
444.50 1.266
444.60 1.266
444.70 1.266
444.80 1.266
444.90 1.266
445.00 1.266
445.10 1.266
445.20 1.267
445.30 1.267
445.40 1.267
445.50 1.267
445.60 1.267
445.70 1.267
445.80 1.266
445.90 1.266
446.00 1.266
446.10 1.266
446.20 1.266
446.30 1.266
446.40 1.266
446.50 1.266
446.60 1.266
446.70 1.266
446.80 1.265
446.90 1.265
447.00 1.265
447.10 1.265
447.20 1.265
447.30 1.265
447.40 1.264
447.50 1.264
447.60 1.264
447.70 1.264
447.80 1.264
447.90 1.263
448.00 1.263
448.10 1.263
448.20 1.263
448.30 1.262
448.40 1.262
448.50 1.262
448.60 1.261
448.70 1.261
448.80 1.261
448.90 1.261
449.00 1.26
449.10 1.26
449.20 1.26
449.30 1.259
449.40 1.259
449.50 1.259
449.60 1.258
449.70 1.258
449.80 1.258
449.90 1.257
450.00 1.257
450.10 1.257
450.20 1.256
450.30 1.256
450.40 1.256
450.50 1.255
450.60 1.255
450.70 1.254
450.80 1.254
450.90 1.254
451.00 1.253
451.10 1.253
451.20 1.253
451.30 1.252
451.40 1.252
451.50 1.251
451.60 1.251
451.70 1.25
451.80 1.25
451.90 1.25
452.00 1.249
452.10 1.249
452.20 1.248
452.30 1.248
452.40 1.247
452.50 1.247
452.60 1.247
452.70 1.246
452.80 1.246
452.90 1.245
453.00 1.245
453.10 1.244
453.20 1.244
453.30 1.243
453.40 1.243
453.50 1.243
453.60 1.242
453.70 1.242
