# Version 2.1 - nm, norm@500 to 1, cut digits, bergeron_5250_80.dat_5250
# Wavelength(nm)  Flambda(ergs/cm^s/s/nm)
300.00 0.434
300.10 0.4345
300.20 0.4349
300.30 0.4354
300.40 0.4359
300.50 0.4364
300.60 0.4368
300.70 0.4373
300.80 0.4378
300.90 0.4383
301.00 0.4387
301.10 0.4392
301.20 0.4397
301.30 0.4402
301.40 0.4406
301.50 0.4411
301.60 0.4416
301.70 0.442
301.80 0.4425
301.90 0.443
302.00 0.4435
302.10 0.4439
302.20 0.4444
302.30 0.4449
302.40 0.4454
302.50 0.4458
302.60 0.4463
302.70 0.4468
302.80 0.4473
302.90 0.4478
303.00 0.4482
303.10 0.4487
303.20 0.4492
303.30 0.4496
303.40 0.4501
303.50 0.4506
303.60 0.4511
303.70 0.4515
303.80 0.452
303.90 0.4525
304.00 0.4529
304.10 0.4534
304.20 0.4539
304.30 0.4544
304.40 0.4548
304.50 0.4553
304.60 0.4558
304.70 0.4563
304.80 0.4568
304.90 0.4572
305.00 0.4577
305.10 0.4582
305.20 0.4586
305.30 0.4591
305.40 0.4596
305.50 0.4601
305.60 0.4605
305.70 0.461
305.80 0.4615
305.90 0.4619
306.00 0.4624
306.10 0.4629
306.20 0.4634
306.30 0.4638
306.40 0.4643
306.50 0.4648
306.60 0.4653
306.70 0.4657
306.80 0.4662
306.90 0.4667
307.00 0.4672
307.10 0.4676
307.20 0.4681
307.30 0.4686
307.40 0.469
307.50 0.4695
307.60 0.47
307.70 0.4705
307.80 0.4709
307.90 0.4714
308.00 0.4719
308.10 0.4723
308.20 0.4728
308.30 0.4733
308.40 0.4738
308.50 0.4742
308.60 0.4747
308.70 0.4752
308.80 0.4757
308.90 0.4761
309.00 0.4766
309.10 0.4771
309.20 0.4775
309.30 0.478
309.40 0.4785
309.50 0.479
309.60 0.4794
309.70 0.4799
309.80 0.4804
309.90 0.4808
310.00 0.4813
310.10 0.4818
310.20 0.4822
310.30 0.4827
310.40 0.4832
310.50 0.4837
310.60 0.4841
310.70 0.4846
310.80 0.4851
310.90 0.4856
311.00 0.486
311.10 0.4865
311.20 0.487
311.30 0.4874
311.40 0.4879
311.50 0.4884
311.60 0.4888
311.70 0.4893
311.80 0.4898
311.90 0.4902
312.00 0.4907
312.10 0.4912
312.20 0.4916
312.30 0.4921
312.40 0.4926
312.50 0.4931
312.60 0.4935
312.70 0.494
312.80 0.4945
312.90 0.4949
313.00 0.4954
313.10 0.4959
313.20 0.4964
313.30 0.4968
313.40 0.4973
313.50 0.4978
313.60 0.4982
313.70 0.4987
313.80 0.4992
313.90 0.4996
314.00 0.5001
314.10 0.5006
314.20 0.501
314.30 0.5015
314.40 0.502
314.50 0.5024
314.60 0.5029
314.70 0.5034
314.80 0.5039
314.90 0.5043
315.00 0.5048
315.10 0.5053
315.20 0.5057
315.30 0.5062
315.40 0.5067
315.50 0.5071
315.60 0.5076
315.70 0.5081
315.80 0.5085
315.90 0.509
316.00 0.5094
316.10 0.5099
316.20 0.5104
316.30 0.5109
316.40 0.5113
316.50 0.5118
316.60 0.5123
316.70 0.5127
316.80 0.5132
316.90 0.5137
317.00 0.5141
317.10 0.5146
317.20 0.5151
317.30 0.5155
317.40 0.516
317.50 0.5165
317.60 0.5169
317.70 0.5174
317.80 0.5178
317.90 0.5183
318.00 0.5188
318.10 0.5192
318.20 0.5197
318.30 0.5202
318.40 0.5206
318.50 0.5211
318.60 0.5216
318.70 0.522
318.80 0.5225
318.90 0.523
319.00 0.5234
319.10 0.5239
319.20 0.5244
319.30 0.5248
319.40 0.5253
319.50 0.5257
319.60 0.5262
319.70 0.5267
319.80 0.5271
319.90 0.5276
320.00 0.528
320.10 0.5285
320.20 0.529
320.30 0.5294
320.40 0.5299
320.50 0.5304
320.60 0.5308
320.70 0.5313
320.80 0.5318
320.90 0.5322
321.00 0.5327
321.10 0.5332
321.20 0.5336
321.30 0.5341
321.40 0.5345
321.50 0.535
321.60 0.5355
321.70 0.5359
321.80 0.5364
321.90 0.5368
322.00 0.5373
322.10 0.5377
322.20 0.5382
322.30 0.5387
322.40 0.5391
322.50 0.5396
322.60 0.5401
322.70 0.5405
322.80 0.541
322.90 0.5414
323.00 0.5419
323.10 0.5424
323.20 0.5428
323.30 0.5433
323.40 0.5437
323.50 0.5442
323.60 0.5447
323.70 0.5451
323.80 0.5456
323.90 0.546
324.00 0.5465
324.10 0.5469
324.20 0.5474
324.30 0.5479
324.40 0.5483
324.50 0.5488
324.60 0.5492
324.70 0.5497
324.80 0.5502
324.90 0.5506
325.00 0.5511
325.10 0.5515
325.20 0.552
325.30 0.5524
325.40 0.5529
325.50 0.5534
325.60 0.5538
325.70 0.5543
325.80 0.5547
325.90 0.5552
326.00 0.5556
326.10 0.5561
326.20 0.5565
326.30 0.557
326.40 0.5575
326.50 0.5579
326.60 0.5584
326.70 0.5588
326.80 0.5593
326.90 0.5597
327.00 0.5602
327.10 0.5607
327.20 0.5611
327.30 0.5616
327.40 0.562
327.50 0.5625
327.60 0.5629
327.70 0.5634
327.80 0.5638
327.90 0.5643
328.00 0.5647
328.10 0.5652
328.20 0.5656
328.30 0.5661
328.40 0.5665
328.50 0.567
328.60 0.5675
328.70 0.5679
328.80 0.5684
328.90 0.5688
329.00 0.5693
329.10 0.5697
329.20 0.5702
329.30 0.5706
329.40 0.5711
329.50 0.5715
329.60 0.572
329.70 0.5724
329.80 0.5729
329.90 0.5733
330.00 0.5738
330.10 0.5742
330.20 0.5747
330.30 0.5751
330.40 0.5756
330.50 0.576
330.60 0.5765
330.70 0.5769
330.80 0.5774
330.90 0.5778
331.00 0.5783
331.10 0.5787
331.20 0.5792
331.30 0.5796
331.40 0.5801
331.50 0.5805
331.60 0.581
331.70 0.5814
331.80 0.5819
331.90 0.5823
332.00 0.5827
332.10 0.5832
332.20 0.5836
332.30 0.5841
332.40 0.5845
332.50 0.585
332.60 0.5854
332.70 0.5859
332.80 0.5863
332.90 0.5868
333.00 0.5872
333.10 0.5877
333.20 0.5881
333.30 0.5886
333.40 0.589
333.50 0.5895
333.60 0.5899
333.70 0.5903
333.80 0.5908
333.90 0.5912
334.00 0.5917
334.10 0.5921
334.20 0.5926
334.30 0.593
334.40 0.5935
334.50 0.5939
334.60 0.5943
334.70 0.5948
334.80 0.5952
334.90 0.5957
335.00 0.5961
335.10 0.5966
335.20 0.597
335.30 0.5974
335.40 0.5979
335.50 0.5983
335.60 0.5988
335.70 0.5992
335.80 0.5996
335.90 0.6001
336.00 0.6005
336.10 0.601
336.20 0.6014
336.30 0.6019
336.40 0.6023
336.50 0.6027
336.60 0.6032
336.70 0.6036
336.80 0.6041
336.90 0.6045
337.00 0.6049
337.10 0.6054
337.20 0.6058
337.30 0.6063
337.40 0.6067
337.50 0.6071
337.60 0.6076
337.70 0.608
337.80 0.6084
337.90 0.6089
338.00 0.6093
338.10 0.6097
338.20 0.6102
338.30 0.6106
338.40 0.6111
338.50 0.6115
338.60 0.6119
338.70 0.6124
338.80 0.6128
338.90 0.6133
339.00 0.6137
339.10 0.6141
339.20 0.6146
339.30 0.615
339.40 0.6154
339.50 0.6159
339.60 0.6163
339.70 0.6167
339.80 0.6172
339.90 0.6176
340.00 0.618
340.10 0.6185
340.20 0.6189
340.30 0.6193
340.40 0.6198
340.50 0.6202
340.60 0.6206
340.70 0.6211
340.80 0.6215
340.90 0.622
341.00 0.6224
341.10 0.6228
341.20 0.6232
341.30 0.6237
341.40 0.6241
341.50 0.6245
341.60 0.625
341.70 0.6254
341.80 0.6258
341.90 0.6262
342.00 0.6267
342.10 0.6271
342.20 0.6275
342.30 0.628
342.40 0.6284
342.50 0.6288
342.60 0.6293
342.70 0.6297
342.80 0.6301
342.90 0.6306
343.00 0.631
343.10 0.6314
343.20 0.6319
343.30 0.6323
343.40 0.6327
343.50 0.6331
343.60 0.6336
343.70 0.634
343.80 0.6344
343.90 0.6348
344.00 0.6353
344.10 0.6357
344.20 0.6361
344.30 0.6365
344.40 0.637
344.50 0.6374
344.60 0.6378
344.70 0.6382
344.80 0.6387
344.90 0.6391
345.00 0.6395
345.10 0.6399
345.20 0.6404
345.30 0.6408
345.40 0.6412
345.50 0.6416
345.60 0.6421
345.70 0.6425
345.80 0.6429
345.90 0.6433
346.00 0.6437
346.10 0.6442
346.20 0.6446
346.30 0.645
346.40 0.6454
346.50 0.6459
346.60 0.6463
346.70 0.6467
346.80 0.6471
346.90 0.6476
347.00 0.648
347.10 0.6484
347.20 0.6488
347.30 0.6493
347.40 0.6497
347.50 0.6501
347.60 0.6505
347.70 0.6509
347.80 0.6514
347.90 0.6518
348.00 0.6522
348.10 0.6526
348.20 0.653
348.30 0.6535
348.40 0.6539
348.50 0.6543
348.60 0.6547
348.70 0.6551
348.80 0.6556
348.90 0.656
349.00 0.6564
349.10 0.6568
349.20 0.6572
349.30 0.6576
349.40 0.658
349.50 0.6585
349.60 0.6589
349.70 0.6593
349.80 0.6597
349.90 0.6601
350.00 0.6605
350.10 0.6609
350.20 0.6614
350.30 0.6618
350.40 0.6622
350.50 0.6626
350.60 0.663
350.70 0.6634
350.80 0.6638
350.90 0.6643
351.00 0.6647
351.10 0.6651
351.20 0.6655
351.30 0.6659
351.40 0.6663
351.50 0.6667
351.60 0.6671
351.70 0.6675
351.80 0.6679
351.90 0.6684
352.00 0.6688
352.10 0.6692
352.20 0.6696
352.30 0.67
352.40 0.6704
352.50 0.6708
352.60 0.6712
352.70 0.6716
352.80 0.6721
352.90 0.6725
353.00 0.6729
353.10 0.6733
353.20 0.6737
353.30 0.6741
353.40 0.6745
353.50 0.6749
353.60 0.6753
353.70 0.6757
353.80 0.6761
353.90 0.6765
354.00 0.6769
354.10 0.6774
354.20 0.6778
354.30 0.6782
354.40 0.6786
354.50 0.679
354.60 0.6794
354.70 0.6798
354.80 0.6802
354.90 0.6806
355.00 0.681
355.10 0.6814
355.20 0.6818
355.30 0.6822
355.40 0.6826
355.50 0.683
355.60 0.6834
355.70 0.6838
355.80 0.6842
355.90 0.6846
356.00 0.685
356.10 0.6854
356.20 0.6858
356.30 0.6862
356.40 0.6866
356.50 0.687
356.60 0.6874
356.70 0.6878
356.80 0.6882
356.90 0.6886
357.00 0.689
357.10 0.6894
357.20 0.6898
357.30 0.6902
357.40 0.6906
357.50 0.691
357.60 0.6914
357.70 0.6918
357.80 0.6922
357.90 0.6926
358.00 0.693
358.10 0.6934
358.20 0.6938
358.30 0.6942
358.40 0.6946
358.50 0.695
358.60 0.6954
358.70 0.6958
358.80 0.6962
358.90 0.6966
359.00 0.697
359.10 0.6974
359.20 0.6978
359.30 0.6982
359.40 0.6986
359.50 0.699
359.60 0.6994
359.70 0.6997
359.80 0.7001
359.90 0.7005
360.00 0.7009
360.10 0.7013
360.20 0.7017
360.30 0.7021
360.40 0.7025
360.50 0.7029
360.60 0.7033
360.70 0.7037
360.80 0.7041
360.90 0.7045
361.00 0.7049
361.10 0.7053
361.20 0.7056
361.30 0.706
361.40 0.7064
361.50 0.7068
361.60 0.7072
361.70 0.7076
361.80 0.708
361.90 0.7084
362.00 0.7087
362.10 0.7091
362.20 0.7095
362.30 0.7099
362.40 0.7103
362.50 0.7107
362.60 0.7111
362.70 0.7114
362.80 0.7118
362.90 0.7122
363.00 0.7126
363.10 0.713
363.20 0.7134
363.30 0.7137
363.40 0.7141
363.50 0.7145
363.60 0.7149
363.70 0.7153
363.80 0.7157
363.90 0.7161
364.00 0.7164
364.10 0.7168
364.20 0.7172
364.30 0.7176
364.40 0.718
364.50 0.7183
364.60 0.7187
364.70 0.7191
364.80 0.7195
364.90 0.7199
365.00 0.7202
365.10 0.7206
365.20 0.721
365.30 0.7214
365.40 0.7218
365.50 0.7222
365.60 0.7225
365.70 0.7229
365.80 0.7233
365.90 0.7237
366.00 0.724
366.10 0.7244
366.20 0.7248
366.30 0.7252
366.40 0.7256
366.50 0.7259
366.60 0.7263
366.70 0.7267
366.80 0.7271
366.90 0.7275
367.00 0.7278
367.10 0.7282
367.20 0.7286
367.30 0.729
367.40 0.7293
367.50 0.7297
367.60 0.7301
367.70 0.7305
367.80 0.7308
367.90 0.7312
368.00 0.7316
368.10 0.732
368.20 0.7323
368.30 0.7327
368.40 0.7331
368.50 0.7335
368.60 0.7338
368.70 0.7342
368.80 0.7346
368.90 0.735
369.00 0.7353
369.10 0.7357
369.20 0.7361
369.30 0.7364
369.40 0.7368
369.50 0.7372
369.60 0.7375
369.70 0.7379
369.80 0.7383
369.90 0.7387
370.00 0.739
370.10 0.7394
370.20 0.7398
370.30 0.7401
370.40 0.7405
370.50 0.7409
370.60 0.7412
370.70 0.7416
370.80 0.742
370.90 0.7423
371.00 0.7427
371.10 0.7431
371.20 0.7434
371.30 0.7438
371.40 0.7442
371.50 0.7445
371.60 0.7449
371.70 0.7453
371.80 0.7456
371.90 0.746
372.00 0.7464
372.10 0.7467
372.20 0.7471
372.30 0.7475
372.40 0.7478
372.50 0.7482
372.60 0.7485
372.70 0.7489
372.80 0.7493
372.90 0.7496
373.00 0.75
373.10 0.7503
373.20 0.7507
373.30 0.7511
373.40 0.7514
373.50 0.7518
373.60 0.7521
373.70 0.7525
373.80 0.7529
373.90 0.7532
374.00 0.7536
374.10 0.7539
374.20 0.7543
374.30 0.7546
374.40 0.755
374.50 0.7554
374.60 0.7557
374.70 0.7561
374.80 0.7564
374.90 0.7568
375.00 0.7571
375.10 0.7575
375.20 0.7579
375.30 0.7582
375.40 0.7586
375.50 0.7589
375.60 0.7593
375.70 0.7596
375.80 0.76
375.90 0.7603
376.00 0.7607
376.10 0.761
376.20 0.7614
376.30 0.7618
376.40 0.7621
376.50 0.7625
376.60 0.7628
376.70 0.7632
376.80 0.7635
376.90 0.7639
377.00 0.7642
377.10 0.7646
377.20 0.7649
377.30 0.7653
377.40 0.7656
377.50 0.766
377.60 0.7663
377.70 0.7667
377.80 0.767
377.90 0.7674
378.00 0.7677
378.10 0.7681
378.20 0.7684
378.30 0.7687
378.40 0.7691
378.50 0.7694
378.60 0.7698
378.70 0.7701
378.80 0.7705
378.90 0.7708
379.00 0.7712
379.10 0.7715
379.20 0.7719
379.30 0.7722
379.40 0.7726
379.50 0.7729
379.60 0.7733
379.70 0.7736
379.80 0.774
379.90 0.7743
380.00 0.7746
380.10 0.775
380.20 0.7753
380.30 0.7757
380.40 0.776
380.50 0.7764
380.60 0.7767
380.70 0.777
380.80 0.7774
380.90 0.7777
381.00 0.7781
381.10 0.7784
381.20 0.7787
381.30 0.7791
381.40 0.7794
381.50 0.7798
381.60 0.7801
381.70 0.7804
381.80 0.7808
381.90 0.7811
382.00 0.7814
382.10 0.7818
382.20 0.7821
382.30 0.7825
382.40 0.7828
382.50 0.7831
382.60 0.7835
382.70 0.7838
382.80 0.7842
382.90 0.7845
383.00 0.7848
383.10 0.7852
383.20 0.7855
383.30 0.7858
383.40 0.7861
383.50 0.7864
383.60 0.7868
383.70 0.7871
383.80 0.7875
383.90 0.7878
384.00 0.7882
384.10 0.7885
384.20 0.7888
384.30 0.7892
384.40 0.7895
384.50 0.7899
384.60 0.7902
384.70 0.7905
384.80 0.7909
384.90 0.7912
385.00 0.7915
385.10 0.7919
385.20 0.7922
385.30 0.7925
385.40 0.7928
385.50 0.7931
385.60 0.7935
385.70 0.7938
385.80 0.7941
385.90 0.7945
386.00 0.7948
386.10 0.7951
386.20 0.7955
386.30 0.7958
386.40 0.7961
386.50 0.7965
386.60 0.7968
386.70 0.7971
386.80 0.7974
386.90 0.7978
387.00 0.7981
387.10 0.7984
387.20 0.7987
387.30 0.7991
387.40 0.7993
387.50 0.7997
387.60 0.8
387.70 0.8003
387.80 0.8006
387.90 0.801
388.00 0.8013
388.10 0.8016
388.20 0.8019
388.30 0.8022
388.40 0.8025
388.50 0.8028
388.60 0.8031
388.70 0.8033
388.80 0.8035
388.90 0.8036
389.00 0.8041
389.10 0.8046
389.20 0.805
389.30 0.8054
389.40 0.8057
389.50 0.8061
389.60 0.8064
389.70 0.8067
389.80 0.8071
389.90 0.8074
390.00 0.8077
390.10 0.8081
390.20 0.8084
390.30 0.8087
390.40 0.809
390.50 0.8093
390.60 0.8096
390.70 0.81
390.80 0.8103
390.90 0.8106
391.00 0.8109
391.10 0.8112
391.20 0.8115
391.30 0.8119
391.40 0.8122
391.50 0.8125
391.60 0.8128
391.70 0.8131
391.80 0.8134
391.90 0.8137
392.00 0.8141
392.10 0.8144
392.20 0.8147
392.30 0.815
392.40 0.8153
392.50 0.8156
392.60 0.8159
392.70 0.8162
392.80 0.8165
392.90 0.8169
393.00 0.8172
393.10 0.8175
393.20 0.8178
393.30 0.8181
393.40 0.8184
393.50 0.8187
393.60 0.819
393.70 0.8193
393.80 0.8196
393.90 0.8199
394.00 0.8202
394.10 0.8206
394.20 0.8209
394.30 0.8212
394.40 0.8215
394.50 0.8218
394.60 0.8221
394.70 0.8224
394.80 0.8227
394.90 0.823
395.00 0.8233
395.10 0.8236
395.20 0.8239
395.30 0.8242
395.40 0.8245
395.50 0.8248
395.60 0.825
395.70 0.8253
395.80 0.8256
395.90 0.8259
396.00 0.8262
396.10 0.8264
396.20 0.8267
396.30 0.8269
396.40 0.8271
396.50 0.8273
396.60 0.8275
396.70 0.8276
396.80 0.8276
396.90 0.8275
397.00 0.8272
397.10 0.828
397.20 0.8287
397.30 0.8293
397.40 0.8298
397.50 0.8303
397.60 0.8308
397.70 0.8311
397.80 0.8315
397.90 0.8318
398.00 0.8322
398.10 0.8325
398.20 0.8328
398.30 0.8331
398.40 0.8334
398.50 0.8338
398.60 0.8341
398.70 0.8344
398.80 0.8346
398.90 0.8349
399.00 0.8353
399.10 0.8356
399.20 0.8359
399.30 0.8362
399.40 0.8364
399.50 0.8367
399.60 0.837
399.70 0.8374
399.80 0.8376
399.90 0.8379
400.00 0.8382
400.10 0.8385
400.20 0.8388
400.30 0.8391
400.40 0.8394
400.50 0.8397
400.60 0.8399
400.70 0.8402
400.80 0.8405
400.90 0.8408
401.00 0.8411
401.10 0.8414
401.20 0.8417
401.30 0.842
401.40 0.8423
401.50 0.8426
401.60 0.8428
401.70 0.8431
401.80 0.8434
401.90 0.8437
402.00 0.844
402.10 0.8443
402.20 0.8446
402.30 0.8448
402.40 0.8451
402.50 0.8454
402.60 0.8457
402.70 0.846
402.80 0.8463
402.90 0.8465
403.00 0.8468
403.10 0.8471
403.20 0.8474
403.30 0.8477
403.40 0.848
403.50 0.8482
403.60 0.8485
403.70 0.8488
403.80 0.8491
403.90 0.8494
404.00 0.8496
404.10 0.8499
404.20 0.8502
404.30 0.8505
404.40 0.8508
404.50 0.851
404.60 0.8513
404.70 0.8516
404.80 0.8519
404.90 0.8521
405.00 0.8524
405.10 0.8527
405.20 0.853
405.30 0.8533
405.40 0.8535
405.50 0.8538
405.60 0.8541
405.70 0.8544
405.80 0.8546
405.90 0.8549
406.00 0.8552
406.10 0.8554
406.20 0.8557
406.30 0.856
406.40 0.8563
406.50 0.8565
406.60 0.8568
406.70 0.8571
406.80 0.8573
406.90 0.8576
407.00 0.8579
407.10 0.8581
407.20 0.8584
407.30 0.8587
407.40 0.8589
407.50 0.8592
407.60 0.8595
407.70 0.8597
407.80 0.86
407.90 0.8603
408.00 0.8605
408.10 0.8608
408.20 0.861
408.30 0.8613
408.40 0.8615
408.50 0.8618
408.60 0.862
408.70 0.8622
408.80 0.8625
408.90 0.8627
409.00 0.8629
409.10 0.8631
409.20 0.8633
409.30 0.8635
409.40 0.8635
409.50 0.8636
409.60 0.8636
409.70 0.8635
409.80 0.8632
409.90 0.8627
410.00 0.8618
410.10 0.861
410.20 0.8602
410.30 0.862
410.40 0.8635
410.50 0.8647
410.60 0.8656
410.70 0.8663
410.80 0.867
410.90 0.8674
411.00 0.8679
411.10 0.8682
411.20 0.8686
411.30 0.8689
411.40 0.8692
411.50 0.8696
411.60 0.8699
411.70 0.8702
411.80 0.8704
411.90 0.8707
412.00 0.871
412.10 0.8713
412.20 0.8716
412.30 0.8718
412.40 0.8721
412.50 0.8724
412.60 0.8726
412.70 0.8729
412.80 0.8731
412.90 0.8734
413.00 0.8737
413.10 0.8739
413.20 0.8742
413.30 0.8745
413.40 0.8747
413.50 0.875
413.60 0.8752
413.70 0.8755
413.80 0.8757
413.90 0.876
414.00 0.8762
414.10 0.8765
414.20 0.8768
414.30 0.877
414.40 0.8773
414.50 0.8775
414.60 0.8778
414.70 0.878
414.80 0.8783
414.90 0.8785
415.00 0.8788
415.10 0.879
415.20 0.8793
415.30 0.8795
415.40 0.8798
415.50 0.88
415.60 0.8803
415.70 0.8805
415.80 0.8808
415.90 0.881
416.00 0.8813
416.10 0.8815
416.20 0.8818
416.30 0.882
416.40 0.8823
416.50 0.8825
416.60 0.8827
416.70 0.883
416.80 0.8832
416.90 0.8835
417.00 0.8837
417.10 0.884
417.20 0.8842
417.30 0.8844
417.40 0.8847
417.50 0.8849
417.60 0.8852
417.70 0.8854
417.80 0.8857
417.90 0.8859
418.00 0.8862
418.10 0.8864
418.20 0.8866
418.30 0.8869
418.40 0.8871
418.50 0.8873
418.60 0.8876
418.70 0.8878
418.80 0.8881
418.90 0.8883
419.00 0.8886
419.10 0.8888
419.20 0.889
419.30 0.8893
419.40 0.8895
419.50 0.8897
419.60 0.89
419.70 0.8902
419.80 0.8904
419.90 0.8907
420.00 0.8909
420.10 0.8912
420.20 0.8914
420.30 0.8916
420.40 0.8919
420.50 0.8921
420.60 0.8923
420.70 0.8926
420.80 0.8928
420.90 0.8931
421.00 0.8933
421.10 0.8935
421.20 0.8937
421.30 0.894
421.40 0.8942
421.50 0.8944
421.60 0.8947
421.70 0.8949
421.80 0.8951
421.90 0.8954
422.00 0.8956
422.10 0.8958
422.20 0.896
422.30 0.8963
422.40 0.8965
422.50 0.8968
422.60 0.897
422.70 0.8972
422.80 0.8974
422.90 0.8977
423.00 0.8979
423.10 0.8981
423.20 0.8984
423.30 0.8986
423.40 0.8988
423.50 0.899
423.60 0.8992
423.70 0.8995
423.80 0.8997
423.90 0.8999
424.00 0.9002
424.10 0.9004
424.20 0.9006
424.30 0.9008
424.40 0.901
424.50 0.9013
424.60 0.9015
424.70 0.9017
424.80 0.902
424.90 0.9022
425.00 0.9024
425.10 0.9026
425.20 0.9028
425.30 0.9031
425.40 0.9033
425.50 0.9035
425.60 0.9037
425.70 0.9039
425.80 0.9041
425.90 0.9044
426.00 0.9046
426.10 0.9048
426.20 0.905
426.30 0.9053
426.40 0.9055
426.50 0.9057
426.60 0.9059
426.70 0.9061
426.80 0.9064
426.90 0.9066
427.00 0.9068
427.10 0.907
427.20 0.9072
427.30 0.9074
427.40 0.9077
427.50 0.9079
427.60 0.9081
427.70 0.9083
427.80 0.9085
427.90 0.9087
428.00 0.9089
428.10 0.9091
428.20 0.9094
428.30 0.9096
428.40 0.9098
428.50 0.91
428.60 0.9102
428.70 0.9104
428.80 0.9106
428.90 0.9108
429.00 0.911
429.10 0.9112
429.20 0.9114
429.30 0.9117
429.40 0.9119
429.50 0.9121
429.60 0.9123
429.70 0.9125
429.80 0.9127
429.90 0.9129
430.00 0.9131
430.10 0.9133
430.20 0.9135
430.30 0.9137
430.40 0.9139
430.50 0.9141
430.60 0.9143
430.70 0.9145
430.80 0.9147
430.90 0.9149
431.00 0.9151
431.10 0.9153
431.20 0.9155
431.30 0.9157
431.40 0.9159
431.50 0.9161
431.60 0.9163
431.70 0.9165
431.80 0.9167
431.90 0.9168
432.00 0.917
432.10 0.9172
432.20 0.9174
432.30 0.9175
432.40 0.9176
432.50 0.9178
432.60 0.9179
432.70 0.9181
432.80 0.9181
432.90 0.9182
433.00 0.9182
433.10 0.9182
433.20 0.9181
433.30 0.9179
433.40 0.9175
433.50 0.9169
433.60 0.9161
433.70 0.9145
433.80 0.912
433.90 0.9088
434.00 0.904
434.10 0.9043
434.20 0.9098
434.30 0.9133
434.40 0.916
434.50 0.918
434.60 0.9192
434.70 0.9202
434.80 0.921
434.90 0.9215
435.00 0.922
435.10 0.9224
435.20 0.9228
435.30 0.9231
435.40 0.9234
435.50 0.9237
435.60 0.924
435.70 0.9242
435.80 0.9245
435.90 0.9247
436.00 0.9249
436.10 0.9252
436.20 0.9254
436.30 0.9256
436.40 0.9258
436.50 0.926
436.60 0.9262
436.70 0.9265
436.80 0.9267
436.90 0.9268
437.00 0.927
437.10 0.9273
437.20 0.9275
437.30 0.9277
437.40 0.9279
437.50 0.928
437.60 0.9282
437.70 0.9284
437.80 0.9286
437.90 0.9288
438.00 0.929
438.10 0.9292
438.20 0.9294
438.30 0.9296
438.40 0.9298
438.50 0.93
438.60 0.9302
438.70 0.9303
438.80 0.9305
438.90 0.9307
439.00 0.9309
439.10 0.9311
439.20 0.9313
439.30 0.9315
439.40 0.9317
439.50 0.9318
439.60 0.932
439.70 0.9322
439.80 0.9324
439.90 0.9326
440.00 0.9328
440.10 0.933
440.20 0.9331
440.30 0.9333
440.40 0.9335
440.50 0.9337
440.60 0.9339
440.70 0.9341
440.80 0.9342
440.90 0.9344
441.00 0.9346
441.10 0.9348
441.20 0.935
441.30 0.9351
441.40 0.9353
441.50 0.9355
441.60 0.9357
441.70 0.9359
441.80 0.936
441.90 0.9362
442.00 0.9364
442.10 0.9366
442.20 0.9368
442.30 0.9369
442.40 0.9371
442.50 0.9373
442.60 0.9375
442.70 0.9377
442.80 0.9378
442.90 0.938
443.00 0.9382
