# Version 2.1 - nm, norm@500 to 1, cut digits, bergeron_100000_75.dat_100000
# Wavelength(nm)  Flambda(ergs/cm^s/s/nm)
300.00 6.831
300.10 6.822
300.20 6.814
300.30 6.805
300.40 6.797
300.50 6.788
300.60 6.78
300.70 6.771
300.80 6.763
300.90 6.754
301.00 6.746
301.10 6.737
301.20 6.729
301.30 6.721
301.40 6.712
301.50 6.704
301.60 6.695
301.70 6.687
301.80 6.679
301.90 6.67
302.00 6.662
302.10 6.654
302.20 6.645
302.30 6.637
302.40 6.629
302.50 6.621
302.60 6.612
302.70 6.604
302.80 6.596
302.90 6.588
303.00 6.58
303.10 6.571
303.20 6.563
303.30 6.555
303.40 6.547
303.50 6.539
303.60 6.531
303.70 6.523
303.80 6.515
303.90 6.506
304.00 6.498
304.10 6.49
304.20 6.482
304.30 6.474
304.40 6.466
304.50 6.458
304.60 6.45
304.70 6.442
304.80 6.434
304.90 6.426
305.00 6.418
305.10 6.411
305.20 6.403
305.30 6.395
305.40 6.387
305.50 6.379
305.60 6.371
305.70 6.363
305.80 6.355
305.90 6.348
306.00 6.34
306.10 6.332
306.20 6.324
306.30 6.316
306.40 6.309
306.50 6.301
306.60 6.293
306.70 6.285
306.80 6.278
306.90 6.27
307.00 6.262
307.10 6.255
307.20 6.247
307.30 6.239
307.40 6.232
307.50 6.224
307.60 6.216
307.70 6.209
307.80 6.201
307.90 6.194
308.00 6.186
308.10 6.178
308.20 6.171
308.30 6.163
308.40 6.156
308.50 6.148
308.60 6.141
308.70 6.133
308.80 6.126
308.90 6.118
309.00 6.111
309.10 6.103
309.20 6.096
309.30 6.089
309.40 6.081
309.50 6.074
309.60 6.066
309.70 6.059
309.80 6.052
309.90 6.044
310.00 6.037
310.10 6.03
310.20 6.022
310.30 6.015
310.40 6.008
310.50 6
310.60 5.993
310.70 5.986
310.80 5.978
310.90 5.971
311.00 5.964
311.10 5.957
311.20 5.95
311.30 5.942
311.40 5.935
311.50 5.928
311.60 5.921
311.70 5.914
311.80 5.906
311.90 5.899
312.00 5.892
312.10 5.885
312.20 5.878
312.30 5.871
312.40 5.864
312.50 5.857
312.60 5.85
312.70 5.843
312.80 5.836
312.90 5.828
313.00 5.821
313.10 5.814
313.20 5.807
313.30 5.8
313.40 5.793
313.50 5.787
313.60 5.78
313.70 5.773
313.80 5.766
313.90 5.759
314.00 5.752
314.10 5.745
314.20 5.738
314.30 5.731
314.40 5.724
314.50 5.717
314.60 5.711
314.70 5.704
314.80 5.697
314.90 5.69
315.00 5.683
315.10 5.676
315.20 5.67
315.30 5.663
315.40 5.656
315.50 5.649
315.60 5.643
315.70 5.636
315.80 5.629
315.90 5.622
316.00 5.616
316.10 5.609
316.20 5.602
316.30 5.596
316.40 5.589
316.50 5.582
316.60 5.576
316.70 5.569
316.80 5.562
316.90 5.556
317.00 5.549
317.10 5.542
317.20 5.536
317.30 5.529
317.40 5.523
317.50 5.516
317.60 5.51
317.70 5.503
317.80 5.497
317.90 5.49
318.00 5.483
318.10 5.477
318.20 5.47
318.30 5.464
318.40 5.458
318.50 5.451
318.60 5.445
318.70 5.438
318.80 5.432
318.90 5.425
319.00 5.419
319.10 5.412
319.20 5.406
319.30 5.4
319.40 5.393
319.50 5.387
319.60 5.381
319.70 5.374
319.80 5.368
319.90 5.362
320.00 5.355
320.10 5.349
320.20 5.343
320.30 5.336
320.40 5.33
320.50 5.324
320.60 5.317
320.70 5.311
320.80 5.305
320.90 5.299
321.00 5.292
321.10 5.286
321.20 5.28
321.30 5.274
321.40 5.268
321.50 5.261
321.60 5.255
321.70 5.249
321.80 5.243
321.90 5.237
322.00 5.231
322.10 5.225
322.20 5.218
322.30 5.212
322.40 5.206
322.50 5.2
322.60 5.194
322.70 5.188
322.80 5.182
322.90 5.176
323.00 5.17
323.10 5.164
323.20 5.158
323.30 5.152
323.40 5.146
323.50 5.14
323.60 5.134
323.70 5.128
323.80 5.122
323.90 5.116
324.00 5.11
324.10 5.104
324.20 5.098
324.30 5.092
324.40 5.086
324.50 5.08
324.60 5.074
324.70 5.068
324.80 5.062
324.90 5.056
325.00 5.051
325.10 5.045
325.20 5.039
325.30 5.033
325.40 5.027
325.50 5.021
325.60 5.016
325.70 5.01
325.80 5.004
325.90 4.998
326.00 4.992
326.10 4.987
326.20 4.981
326.30 4.975
326.40 4.969
326.50 4.963
326.60 4.958
326.70 4.952
326.80 4.946
326.90 4.941
327.00 4.935
327.10 4.929
327.20 4.923
327.30 4.918
327.40 4.912
327.50 4.906
327.60 4.901
327.70 4.895
327.80 4.889
327.90 4.884
328.00 4.878
328.10 4.873
328.20 4.867
328.30 4.861
328.40 4.856
328.50 4.85
328.60 4.845
328.70 4.839
328.80 4.834
328.90 4.828
329.00 4.822
329.10 4.817
329.20 4.811
329.30 4.806
329.40 4.8
329.50 4.795
329.60 4.789
329.70 4.784
329.80 4.778
329.90 4.773
330.00 4.767
330.10 4.762
330.20 4.757
330.30 4.751
330.40 4.746
330.50 4.74
330.60 4.735
330.70 4.729
330.80 4.724
330.90 4.719
331.00 4.713
331.10 4.708
331.20 4.703
331.30 4.697
331.40 4.692
331.50 4.686
331.60 4.681
331.70 4.676
331.80 4.67
331.90 4.665
332.00 4.66
332.10 4.654
332.20 4.649
332.30 4.644
332.40 4.639
332.50 4.633
332.60 4.628
332.70 4.623
332.80 4.618
332.90 4.612
333.00 4.607
333.10 4.602
333.20 4.597
333.30 4.591
333.40 4.586
333.50 4.581
333.60 4.576
333.70 4.571
333.80 4.565
333.90 4.56
334.00 4.555
334.10 4.55
334.20 4.545
334.30 4.54
334.40 4.535
334.50 4.529
334.60 4.524
334.70 4.519
334.80 4.514
334.90 4.509
335.00 4.504
335.10 4.499
335.20 4.494
335.30 4.489
335.40 4.484
335.50 4.479
335.60 4.473
335.70 4.468
335.80 4.463
335.90 4.458
336.00 4.453
336.10 4.448
336.20 4.443
336.30 4.438
336.40 4.433
336.50 4.428
336.60 4.423
336.70 4.418
336.80 4.414
336.90 4.409
337.00 4.404
337.10 4.399
337.20 4.394
337.30 4.389
337.40 4.384
337.50 4.379
337.60 4.374
337.70 4.369
337.80 4.364
337.90 4.359
338.00 4.354
338.10 4.35
338.20 4.345
338.30 4.34
338.40 4.335
338.50 4.33
338.60 4.325
338.70 4.321
338.80 4.316
338.90 4.311
339.00 4.306
339.10 4.301
339.20 4.296
339.30 4.292
339.40 4.287
339.50 4.282
339.60 4.277
339.70 4.273
339.80 4.268
339.90 4.263
340.00 4.258
340.10 4.254
340.20 4.249
340.30 4.244
340.40 4.239
340.50 4.235
340.60 4.23
340.70 4.225
340.80 4.221
340.90 4.216
341.00 4.211
341.10 4.207
341.20 4.202
341.30 4.197
341.40 4.193
341.50 4.188
341.60 4.183
341.70 4.179
341.80 4.174
341.90 4.169
342.00 4.165
342.10 4.16
342.20 4.156
342.30 4.151
342.40 4.146
342.50 4.142
342.60 4.137
342.70 4.133
342.80 4.128
342.90 4.124
343.00 4.119
343.10 4.115
343.20 4.11
343.30 4.105
343.40 4.101
343.50 4.096
343.60 4.092
343.70 4.087
343.80 4.083
343.90 4.078
344.00 4.074
344.10 4.069
344.20 4.065
344.30 4.06
344.40 4.056
344.50 4.052
344.60 4.047
344.70 4.043
344.80 4.038
344.90 4.034
345.00 4.029
345.10 4.025
345.20 4.021
345.30 4.016
345.40 4.012
345.50 4.007
345.60 4.003
345.70 3.998
345.80 3.994
345.90 3.99
346.00 3.985
346.10 3.981
346.20 3.977
346.30 3.972
346.40 3.968
346.50 3.964
346.60 3.959
346.70 3.955
346.80 3.951
346.90 3.946
347.00 3.942
347.10 3.938
347.20 3.933
347.30 3.929
347.40 3.925
347.50 3.921
347.60 3.916
347.70 3.912
347.80 3.908
347.90 3.904
348.00 3.899
348.10 3.895
348.20 3.891
348.30 3.887
348.40 3.882
348.50 3.878
348.60 3.874
348.70 3.87
348.80 3.866
348.90 3.861
349.00 3.857
349.10 3.853
349.20 3.849
349.30 3.845
349.40 3.84
349.50 3.836
349.60 3.832
349.70 3.828
349.80 3.824
349.90 3.82
350.00 3.815
350.10 3.811
350.20 3.807
350.30 3.803
350.40 3.799
350.50 3.795
350.60 3.791
350.70 3.787
350.80 3.783
350.90 3.779
351.00 3.775
351.10 3.77
351.20 3.766
351.30 3.762
351.40 3.758
351.50 3.754
351.60 3.75
351.70 3.746
351.80 3.742
351.90 3.738
352.00 3.734
352.10 3.73
352.20 3.726
352.30 3.722
352.40 3.718
352.50 3.714
352.60 3.71
352.70 3.706
352.80 3.702
352.90 3.698
353.00 3.694
353.10 3.69
353.20 3.686
353.30 3.682
353.40 3.678
353.50 3.674
353.60 3.67
353.70 3.666
353.80 3.663
353.90 3.659
354.00 3.655
354.10 3.651
354.20 3.647
354.30 3.643
354.40 3.639
354.50 3.635
354.60 3.631
354.70 3.627
354.80 3.624
354.90 3.62
355.00 3.616
355.10 3.612
355.20 3.608
355.30 3.604
355.40 3.6
355.50 3.597
355.60 3.593
355.70 3.589
355.80 3.585
355.90 3.581
356.00 3.577
356.10 3.574
356.20 3.57
356.30 3.566
356.40 3.562
356.50 3.558
356.60 3.555
356.70 3.551
356.80 3.547
356.90 3.543
357.00 3.54
357.10 3.536
357.20 3.532
357.30 3.528
357.40 3.525
357.50 3.521
357.60 3.517
357.70 3.513
357.80 3.51
357.90 3.506
358.00 3.502
358.10 3.498
358.20 3.495
358.30 3.491
358.40 3.487
358.50 3.484
358.60 3.48
358.70 3.476
358.80 3.473
358.90 3.469
359.00 3.465
359.10 3.462
359.20 3.458
359.30 3.454
359.40 3.451
359.50 3.447
359.60 3.443
359.70 3.44
359.80 3.436
359.90 3.433
360.00 3.429
360.10 3.425
360.20 3.422
360.30 3.418
360.40 3.415
360.50 3.411
360.60 3.407
360.70 3.404
360.80 3.4
360.90 3.397
361.00 3.393
361.10 3.39
361.20 3.386
361.30 3.382
361.40 3.379
361.50 3.375
361.60 3.372
361.70 3.368
361.80 3.365
361.90 3.361
362.00 3.358
362.10 3.354
362.20 3.351
362.30 3.347
362.40 3.344
362.50 3.34
362.60 3.337
362.70 3.333
362.80 3.33
362.90 3.326
363.00 3.323
363.10 3.319
363.20 3.316
363.30 3.312
363.40 3.309
363.50 3.305
363.60 3.302
363.70 3.298
363.80 3.295
363.90 3.292
364.00 3.288
364.10 3.285
364.20 3.281
364.30 3.278
364.40 3.274
364.50 3.271
364.60 3.268
364.70 3.264
364.80 3.261
364.90 3.257
365.00 3.254
365.10 3.251
365.20 3.247
365.30 3.244
365.40 3.241
365.50 3.237
365.60 3.234
365.70 3.231
365.80 3.227
365.90 3.224
366.00 3.22
366.10 3.217
366.20 3.214
366.30 3.21
366.40 3.207
366.50 3.204
366.60 3.2
366.70 3.197
366.80 3.194
366.90 3.19
367.00 3.187
367.10 3.184
367.20 3.18
367.30 3.177
367.40 3.174
367.50 3.17
367.60 3.167
367.70 3.164
367.80 3.16
367.90 3.157
368.00 3.154
368.10 3.15
368.20 3.147
368.30 3.144
368.40 3.14
368.50 3.137
368.60 3.134
368.70 3.131
368.80 3.127
368.90 3.124
369.00 3.121
369.10 3.118
369.20 3.114
369.30 3.111
369.40 3.108
369.50 3.104
369.60 3.101
369.70 3.098
369.80 3.095
369.90 3.092
370.00 3.088
370.10 3.085
370.20 3.082
370.30 3.079
370.40 3.075
370.50 3.072
370.60 3.069
370.70 3.066
370.80 3.063
370.90 3.06
371.00 3.056
371.10 3.053
371.20 3.05
371.30 3.047
371.40 3.044
371.50 3.041
371.60 3.037
371.70 3.034
371.80 3.031
371.90 3.028
372.00 3.025
372.10 3.022
372.20 3.019
372.30 3.015
372.40 3.012
372.50 3.009
372.60 3.006
372.70 3.003
372.80 3
372.90 2.997
373.00 2.994
373.10 2.991
373.20 2.988
373.30 2.985
373.40 2.982
373.50 2.979
373.60 2.975
373.70 2.972
373.80 2.969
373.90 2.966
374.00 2.963
374.10 2.96
374.20 2.957
374.30 2.954
374.40 2.951
374.50 2.948
374.60 2.945
374.70 2.942
374.80 2.939
374.90 2.936
375.00 2.933
375.10 2.93
375.20 2.927
375.30 2.924
375.40 2.921
375.50 2.918
375.60 2.915
375.70 2.912
375.80 2.909
375.90 2.906
376.00 2.903
376.10 2.901
376.20 2.898
376.30 2.895
376.40 2.892
376.50 2.889
376.60 2.886
376.70 2.883
376.80 2.88
376.90 2.877
377.00 2.874
377.10 2.872
377.20 2.869
377.30 2.866
377.40 2.863
377.50 2.86
377.60 2.857
377.70 2.855
377.80 2.852
377.90 2.849
378.00 2.846
378.10 2.843
378.20 2.841
378.30 2.838
378.40 2.835
378.50 2.832
378.60 2.829
378.70 2.826
378.80 2.824
378.90 2.821
379.00 2.818
379.10 2.815
379.20 2.813
379.30 2.81
379.40 2.807
379.50 2.804
379.60 2.802
379.70 2.799
379.80 2.796
379.90 2.793
380.00 2.791
380.10 2.788
380.20 2.785
380.30 2.783
380.40 2.78
380.50 2.778
380.60 2.775
380.70 2.772
380.80 2.77
380.90 2.767
381.00 2.765
381.10 2.762
381.20 2.759
381.30 2.757
381.40 2.754
381.50 2.751
381.60 2.749
381.70 2.746
381.80 2.743
381.90 2.74
382.00 2.738
382.10 2.735
382.20 2.732
382.30 2.729
382.40 2.726
382.50 2.724
382.60 2.721
382.70 2.718
382.80 2.715
382.90 2.712
383.00 2.709
383.10 2.706
383.20 2.704
383.30 2.701
383.40 2.698
383.50 2.696
383.60 2.693
383.70 2.691
383.80 2.689
383.90 2.686
384.00 2.684
384.10 2.682
384.20 2.68
384.30 2.678
384.40 2.676
384.50 2.674
384.60 2.671
384.70 2.669
384.80 2.667
384.90 2.665
385.00 2.662
385.10 2.66
385.20 2.658
385.30 2.655
385.40 2.653
385.50 2.651
385.60 2.648
385.70 2.646
385.80 2.643
385.90 2.64
386.00 2.638
386.10 2.635
386.20 2.632
386.30 2.629
386.40 2.627
386.50 2.624
386.60 2.621
386.70 2.618
386.80 2.615
386.90 2.612
387.00 2.609
387.10 2.605
387.20 2.602
387.30 2.599
387.40 2.596
387.50 2.592
387.60 2.589
387.70 2.586
387.80 2.582
387.90 2.579
388.00 2.575
388.10 2.572
388.20 2.568
388.30 2.565
388.40 2.562
388.50 2.558
388.60 2.555
388.70 2.552
388.80 2.55
388.90 2.548
389.00 2.545
389.10 2.543
389.20 2.541
389.30 2.54
389.40 2.539
389.50 2.538
389.60 2.536
389.70 2.535
389.80 2.534
389.90 2.533
390.00 2.532
390.10 2.531
390.20 2.53
390.30 2.528
390.40 2.527
390.50 2.526
390.60 2.525
390.70 2.523
390.80 2.522
390.90 2.52
391.00 2.519
391.10 2.517
391.20 2.516
391.30 2.514
391.40 2.512
391.50 2.51
391.60 2.508
391.70 2.507
391.80 2.505
391.90 2.503
392.00 2.5
392.10 2.498
392.20 2.496
392.30 2.494
392.40 2.492
392.50 2.489
392.60 2.487
392.70 2.484
392.80 2.482
392.90 2.479
393.00 2.477
393.10 2.474
393.20 2.471
393.30 2.468
393.40 2.466
393.50 2.463
393.60 2.46
393.70 2.457
393.80 2.453
393.90 2.45
394.00 2.447
394.10 2.443
394.20 2.44
394.30 2.436
394.40 2.433
394.50 2.429
394.60 2.425
394.70 2.421
394.80 2.417
394.90 2.413
395.00 2.409
395.10 2.405
395.20 2.401
395.30 2.396
395.40 2.392
395.50 2.387
395.60 2.383
395.70 2.378
395.80 2.373
395.90 2.368
396.00 2.363
396.10 2.358
396.20 2.353
396.30 2.348
396.40 2.343
396.50 2.338
396.60 2.332
396.70 2.327
396.80 2.322
396.90 2.318
397.00 2.313
397.10 2.313
397.20 2.314
397.30 2.314
397.40 2.315
397.50 2.316
397.60 2.317
397.70 2.318
397.80 2.319
397.90 2.319
398.00 2.32
398.10 2.321
398.20 2.322
398.30 2.322
398.40 2.323
398.50 2.323
398.60 2.323
398.70 2.324
398.80 2.324
398.90 2.324
399.00 2.324
399.10 2.324
399.20 2.323
399.30 2.323
399.40 2.323
399.50 2.322
399.60 2.322
399.70 2.321
399.80 2.32
399.90 2.32
400.00 2.319
400.10 2.318
400.20 2.317
400.30 2.316
400.40 2.315
400.50 2.314
400.60 2.313
400.70 2.311
400.80 2.31
400.90 2.309
401.00 2.307
401.10 2.306
401.20 2.305
401.30 2.303
401.40 2.302
401.50 2.3
401.60 2.298
401.70 2.297
401.80 2.295
401.90 2.293
402.00 2.292
402.10 2.29
402.20 2.288
402.30 2.286
402.40 2.284
402.50 2.282
402.60 2.28
402.70 2.278
402.80 2.276
402.90 2.274
403.00 2.272
403.10 2.27
403.20 2.268
403.30 2.266
403.40 2.264
403.50 2.262
403.60 2.26
403.70 2.258
403.80 2.255
403.90 2.253
404.00 2.251
404.10 2.249
404.20 2.246
404.30 2.244
404.40 2.241
404.50 2.239
404.60 2.237
404.70 2.234
404.80 2.232
404.90 2.229
405.00 2.227
405.10 2.224
405.20 2.221
405.30 2.219
405.40 2.216
405.50 2.213
405.60 2.21
405.70 2.207
405.80 2.205
405.90 2.202
406.00 2.199
406.10 2.195
406.20 2.192
406.30 2.189
406.40 2.186
406.50 2.183
406.60 2.179
406.70 2.176
406.80 2.172
406.90 2.168
407.00 2.165
407.10 2.161
407.20 2.157
407.30 2.153
407.40 2.149
407.50 2.144
407.60 2.14
407.70 2.136
407.80 2.131
407.90 2.126
408.00 2.121
408.10 2.116
408.20 2.111
408.30 2.105
408.40 2.1
408.50 2.094
408.60 2.088
408.70 2.082
408.80 2.076
408.90 2.07
409.00 2.063
409.10 2.056
409.20 2.05
409.30 2.043
409.40 2.035
409.50 2.028
409.60 2.021
409.70 2.014
409.80 2.007
409.90 2
410.00 1.997
410.10 1.996
410.20 1.997
410.30 1.992
410.40 1.99
410.50 1.992
410.60 1.995
410.70 1.998
410.80 2.002
410.90 2.006
411.00 2.009
411.10 2.012
411.20 2.016
411.30 2.019
411.40 2.022
411.50 2.024
411.60 2.027
411.70 2.029
411.80 2.031
411.90 2.033
412.00 2.035
412.10 2.036
412.20 2.038
412.30 2.039
412.40 2.04
412.50 2.041
412.60 2.042
412.70 2.042
412.80 2.043
412.90 2.043
413.00 2.044
413.10 2.044
413.20 2.044
413.30 2.044
413.40 2.044
413.50 2.043
413.60 2.043
413.70 2.043
413.80 2.042
413.90 2.041
414.00 2.041
414.10 2.04
414.20 2.039
414.30 2.039
414.40 2.038
414.50 2.037
414.60 2.036
414.70 2.035
414.80 2.034
414.90 2.033
415.00 2.031
415.10 2.03
415.20 2.029
415.30 2.028
415.40 2.027
415.50 2.025
415.60 2.024
415.70 2.023
415.80 2.021
415.90 2.02
416.00 2.018
416.10 2.017
416.20 2.015
416.30 2.014
416.40 2.012
416.50 2.011
416.60 2.009
416.70 2.008
416.80 2.006
416.90 2.005
417.00 2.003
417.10 2.002
417.20 2
417.30 1.998
417.40 1.997
417.50 1.995
417.60 1.994
417.70 1.992
417.80 1.99
417.90 1.989
418.00 1.987
418.10 1.985
418.20 1.984
418.30 1.982
418.40 1.98
418.50 1.979
418.60 1.977
418.70 1.975
418.80 1.973
418.90 1.972
419.00 1.97
419.10 1.968
419.20 1.967
419.30 1.965
419.40 1.963
419.50 1.962
419.60 1.96
419.70 1.958
419.80 1.956
419.90 1.955
420.00 1.953
420.10 1.951
420.20 1.949
420.30 1.948
420.40 1.946
420.50 1.944
420.60 1.943
420.70 1.941
420.80 1.939
420.90 1.937
421.00 1.936
421.10 1.934
421.20 1.932
421.30 1.93
421.40 1.929
421.50 1.927
421.60 1.925
421.70 1.923
421.80 1.922
421.90 1.92
422.00 1.918
422.10 1.917
422.20 1.915
422.30 1.913
422.40 1.911
422.50 1.91
422.60 1.908
422.70 1.906
422.80 1.904
422.90 1.903
423.00 1.901
423.10 1.899
423.20 1.897
423.30 1.896
423.40 1.894
423.50 1.892
423.60 1.89
423.70 1.889
423.80 1.887
423.90 1.885
424.00 1.883
424.10 1.882
424.20 1.88
424.30 1.878
424.40 1.876
424.50 1.874
424.60 1.873
424.70 1.871
424.80 1.869
424.90 1.867
425.00 1.866
425.10 1.864
425.20 1.862
425.30 1.86
425.40 1.859
425.50 1.857
425.60 1.855
425.70 1.853
425.80 1.851
425.90 1.85
426.00 1.848
426.10 1.846
426.20 1.844
426.30 1.842
426.40 1.841
426.50 1.839
426.60 1.837
426.70 1.835
426.80 1.833
426.90 1.831
427.00 1.829
427.10 1.828
427.20 1.826
427.30 1.824
427.40 1.822
427.50 1.82
427.60 1.818
427.70 1.816
427.80 1.814
427.90 1.812
428.00 1.81
428.10 1.808
428.20 1.806
428.30 1.804
428.40 1.802
428.50 1.8
428.60 1.798
428.70 1.796
428.80 1.794
428.90 1.792
429.00 1.789
429.10 1.787
429.20 1.785
429.30 1.783
429.40 1.78
429.50 1.778
429.60 1.776
429.70 1.773
429.80 1.771
429.90 1.768
430.00 1.766
430.10 1.763
430.20 1.76
430.30 1.757
430.40 1.755
430.50 1.752
430.60 1.749
430.70 1.745
430.80 1.742
430.90 1.739
431.00 1.736
431.10 1.732
431.20 1.728
431.30 1.725
431.40 1.721
431.50 1.717
431.60 1.713
431.70 1.708
431.80 1.704
431.90 1.699
432.00 1.694
432.10 1.689
432.20 1.684
432.30 1.678
432.40 1.673
432.50 1.667
432.60 1.661
432.70 1.655
432.80 1.648
432.90 1.641
433.00 1.634
433.10 1.627
433.20 1.62
433.30 1.613
433.40 1.605
433.50 1.598
433.60 1.59
433.70 1.582
433.80 1.575
433.90 1.567
434.00 1.561
434.10 1.56
434.20 1.564
434.30 1.569
434.40 1.573
434.50 1.578
434.60 1.583
434.70 1.588
434.80 1.593
434.90 1.597
435.00 1.602
435.10 1.606
435.20 1.61
435.30 1.614
435.40 1.617
435.50 1.621
435.60 1.624
435.70 1.627
435.80 1.629
435.90 1.632
436.00 1.634
436.10 1.636
436.20 1.638
436.30 1.639
436.40 1.641
436.50 1.642
436.60 1.643
436.70 1.644
436.80 1.645
436.90 1.646
437.00 1.646
437.10 1.646
437.20 1.647
437.30 1.647
437.40 1.647
437.50 1.647
437.60 1.647
437.70 1.647
437.80 1.647
437.90 1.646
438.00 1.646
438.10 1.645
438.20 1.645
438.30 1.644
438.40 1.644
438.50 1.643
438.60 1.642
438.70 1.642
438.80 1.641
438.90 1.64
439.00 1.639
439.10 1.638
439.20 1.637
439.30 1.636
439.40 1.635
439.50 1.634
439.60 1.633
439.70 1.632
439.80 1.631
439.90 1.63
440.00 1.629
440.10 1.628
440.20 1.627
440.30 1.626
440.40 1.625
440.50 1.624
440.60 1.622
440.70 1.621
440.80 1.62
440.90 1.619
441.00 1.618
441.10 1.616
441.20 1.615
441.30 1.614
441.40 1.613
441.50 1.611
441.60 1.61
441.70 1.609
441.80 1.608
441.90 1.606
442.00 1.605
442.10 1.604
442.20 1.603
442.30 1.601
442.40 1.6
442.50 1.599
442.60 1.598
442.70 1.596
442.80 1.595
442.90 1.594
443.00 1.592
443.10 1.591
443.20 1.59
443.30 1.588
443.40 1.587
443.50 1.586
443.60 1.585
443.70 1.583
443.80 1.582
443.90 1.581
444.00 1.579
444.10 1.578
444.20 1.577
444.30 1.575
444.40 1.574
444.50 1.573
444.60 1.571
444.70 1.57
444.80 1.569
444.90 1.568
445.00 1.566
445.10 1.565
445.20 1.564
445.30 1.562
445.40 1.561
445.50 1.56
445.60 1.558
445.70 1.557
445.80 1.556
445.90 1.554
446.00 1.553
446.10 1.552
446.20 1.55
446.30 1.549
446.40 1.548
446.50 1.547
446.60 1.545
446.70 1.544
446.80 1.543
446.90 1.541
447.00 1.54
447.10 1.539
447.20 1.537
447.30 1.536
447.40 1.535
447.50 1.534
447.60 1.532
447.70 1.531
447.80 1.53
447.90 1.528
448.00 1.527
448.10 1.526
448.20 1.524
448.30 1.523
448.40 1.522
448.50 1.521
448.60 1.519
448.70 1.518
448.80 1.517
448.90 1.515
449.00 1.514
449.10 1.513
449.20 1.512
449.30 1.51
449.40 1.509
449.50 1.508
449.60 1.506
449.70 1.505
449.80 1.504
449.90 1.503
450.00 1.501
450.10 1.5
450.20 1.499
450.30 1.497
450.40 1.496
450.50 1.495
450.60 1.494
450.70 1.492
450.80 1.491
450.90 1.49
451.00 1.489
451.10 1.487
451.20 1.486
451.30 1.485
451.40 1.484
451.50 1.482
451.60 1.481
451.70 1.48
451.80 1.479
451.90 1.477
452.00 1.476
452.10 1.475
452.20 1.474
452.30 1.472
452.40 1.471
452.50 1.47
452.60 1.469
452.70 1.467
452.80 1.466
452.90 1.465
453.00 1.464
453.10 1.462
453.20 1.461
453.30 1.46
453.40 1.459
453.50 1.457
453.60 1.456
453.70 1.455
453.80 1.454
453.90 1.452
454.00 1.451
454.10 1.45
454.20 1.449
