# Version 2.1 - nm, norm@500 to 1, cut digits, bergeron_2000_75.dat_2000
# Wavelength(nm)  Flambda(ergs/cm^s/s/nm)
300.00 0.02828
300.10 0.02839
300.20 0.0285
300.30 0.0286
300.40 0.02871
300.50 0.02882
300.60 0.02893
300.70 0.02904
300.80 0.02915
300.90 0.02925
301.00 0.02936
301.10 0.02947
301.20 0.02958
301.30 0.02968
301.40 0.02979
301.50 0.0299
301.60 0.03001
301.70 0.03011
301.80 0.03022
301.90 0.03033
302.00 0.03044
302.10 0.03055
302.20 0.03066
302.30 0.03078
302.40 0.03089
302.50 0.03101
302.60 0.03112
302.70 0.03123
302.80 0.03135
302.90 0.03146
303.00 0.03158
303.10 0.03169
303.20 0.0318
303.30 0.03192
303.40 0.03203
303.50 0.03214
303.60 0.03225
303.70 0.03237
303.80 0.03248
303.90 0.03259
304.00 0.03271
304.10 0.03283
304.20 0.03295
304.30 0.03307
304.40 0.03319
304.50 0.03331
304.60 0.03343
304.70 0.03355
304.80 0.03367
304.90 0.03379
305.00 0.03391
305.10 0.03403
305.20 0.03415
305.30 0.03427
305.40 0.03439
305.50 0.03451
305.60 0.03463
305.70 0.03474
305.80 0.03486
305.90 0.03498
306.00 0.0351
306.10 0.03523
306.20 0.03535
306.30 0.03548
306.40 0.03561
306.50 0.03574
306.60 0.03586
306.70 0.03599
306.80 0.03611
306.90 0.03624
307.00 0.03637
307.10 0.03649
307.20 0.03662
307.30 0.03674
307.40 0.03687
307.50 0.03699
307.60 0.03712
307.70 0.03724
307.80 0.03737
307.90 0.03749
308.00 0.03762
308.10 0.03775
308.20 0.03789
308.30 0.03802
308.40 0.03815
308.50 0.03829
308.60 0.03842
308.70 0.03855
308.80 0.03869
308.90 0.03882
309.00 0.03895
309.10 0.03908
309.20 0.03921
309.30 0.03935
309.40 0.03948
309.50 0.03961
309.60 0.03974
309.70 0.03987
309.80 0.04
309.90 0.04014
310.00 0.04027
310.10 0.04041
310.20 0.04055
310.30 0.04069
310.40 0.04083
310.50 0.04097
310.60 0.04111
310.70 0.04125
310.80 0.04139
310.90 0.04153
311.00 0.04167
311.10 0.04181
311.20 0.04195
311.30 0.04209
311.40 0.04223
311.50 0.04237
311.60 0.0425
311.70 0.04264
311.80 0.04278
311.90 0.04292
312.00 0.04306
312.10 0.04319
312.20 0.04334
312.30 0.04348
312.40 0.04363
312.50 0.04377
312.60 0.04392
312.70 0.04407
312.80 0.04422
312.90 0.04436
313.00 0.04451
313.10 0.04465
313.20 0.0448
313.30 0.04495
313.40 0.04509
313.50 0.04524
313.60 0.04538
313.70 0.04553
313.80 0.04567
313.90 0.04582
314.00 0.04597
314.10 0.04612
314.20 0.04627
314.30 0.04643
314.40 0.04658
314.50 0.04673
314.60 0.04689
314.70 0.04704
314.80 0.04719
314.90 0.04735
315.00 0.0475
315.10 0.04765
315.20 0.0478
315.30 0.04796
315.40 0.04811
315.50 0.04826
315.60 0.04841
315.70 0.04856
315.80 0.04872
315.90 0.04887
316.00 0.04902
316.10 0.04918
316.20 0.04934
316.30 0.0495
316.40 0.04966
316.50 0.04982
316.60 0.04998
316.70 0.05014
316.80 0.05031
316.90 0.05047
317.00 0.05063
317.10 0.05078
317.20 0.05094
317.30 0.0511
317.40 0.05126
317.50 0.05142
317.60 0.05158
317.70 0.05174
317.80 0.0519
317.90 0.05206
318.00 0.05222
318.10 0.05238
318.20 0.05255
318.30 0.05272
318.40 0.05289
318.50 0.05306
318.60 0.05322
318.70 0.05339
318.80 0.05356
318.90 0.05373
319.00 0.05389
319.10 0.05406
319.20 0.05423
319.30 0.0544
319.40 0.05456
319.50 0.05473
319.60 0.05489
319.70 0.05506
319.80 0.05523
319.90 0.05539
320.00 0.05556
320.10 0.05574
320.20 0.05591
320.30 0.05608
320.40 0.05626
320.50 0.05644
320.60 0.05661
320.70 0.05679
320.80 0.05696
320.90 0.05714
321.00 0.05731
321.10 0.05749
321.20 0.05766
321.30 0.05783
321.40 0.05801
321.50 0.05818
321.60 0.05835
321.70 0.05853
321.80 0.0587
321.90 0.05887
322.00 0.05905
322.10 0.05923
322.20 0.05941
322.30 0.0596
322.40 0.05978
322.50 0.05996
322.60 0.06015
322.70 0.06033
322.80 0.06051
322.90 0.06069
323.00 0.06088
323.10 0.06106
323.20 0.06124
323.30 0.06142
323.40 0.0616
323.50 0.06178
323.60 0.06196
323.70 0.06215
323.80 0.06233
323.90 0.06251
324.00 0.06269
324.10 0.06288
324.20 0.06307
324.30 0.06326
324.40 0.06345
324.50 0.06364
324.60 0.06383
324.70 0.06403
324.80 0.06422
324.90 0.06441
325.00 0.0646
325.10 0.06479
325.20 0.06498
325.30 0.06516
325.40 0.06535
325.50 0.06554
325.60 0.06573
325.70 0.06592
325.80 0.06611
325.90 0.0663
326.00 0.06649
326.10 0.06668
326.20 0.06688
326.30 0.06708
326.40 0.06728
326.50 0.06748
326.60 0.06768
326.70 0.06788
326.80 0.06807
326.90 0.06827
327.00 0.06847
327.10 0.06867
327.20 0.06886
327.30 0.06906
327.40 0.06926
327.50 0.06945
327.60 0.06965
327.70 0.06985
327.80 0.07004
327.90 0.07024
328.00 0.07044
328.10 0.07064
328.20 0.07085
328.30 0.07106
328.40 0.07126
328.50 0.07147
328.60 0.07168
328.70 0.07188
328.80 0.07209
328.90 0.0723
329.00 0.0725
329.10 0.07271
329.20 0.07291
329.30 0.07312
329.40 0.07332
329.50 0.07353
329.60 0.07373
329.70 0.07394
329.80 0.07414
329.90 0.07434
330.00 0.07455
330.10 0.07476
330.20 0.07498
330.30 0.07519
330.40 0.07541
330.50 0.07562
330.60 0.07584
330.70 0.07605
330.80 0.07627
330.90 0.07648
331.00 0.0767
331.10 0.07691
331.20 0.07712
331.30 0.07734
331.40 0.07755
331.50 0.07776
331.60 0.07797
331.70 0.07818
331.80 0.0784
331.90 0.07861
332.00 0.07882
332.10 0.07904
332.20 0.07927
332.30 0.07949
332.40 0.07971
332.50 0.07994
332.60 0.08016
332.70 0.08038
332.80 0.08061
332.90 0.08083
333.00 0.08105
333.10 0.08127
333.20 0.08149
333.30 0.08171
333.40 0.08194
333.50 0.08216
333.60 0.08238
333.70 0.0826
333.80 0.08282
333.90 0.08304
334.00 0.08326
334.10 0.08349
334.20 0.08372
334.30 0.08395
334.40 0.08419
334.50 0.08442
334.60 0.08465
334.70 0.08488
334.80 0.08511
334.90 0.08534
335.00 0.08557
335.10 0.0858
335.20 0.08603
335.30 0.08626
335.40 0.08649
335.50 0.08672
335.60 0.08695
335.70 0.08718
335.80 0.08741
335.90 0.08763
336.00 0.08786
336.10 0.0881
336.20 0.08834
336.30 0.08858
336.40 0.08882
336.50 0.08906
336.60 0.0893
336.70 0.08954
336.80 0.08978
336.90 0.09002
337.00 0.09026
337.10 0.0905
337.20 0.09074
337.30 0.09098
337.40 0.09121
337.50 0.09145
337.60 0.09169
337.70 0.09192
337.80 0.09216
337.90 0.0924
338.00 0.09263
338.10 0.09288
338.20 0.09313
338.30 0.09338
338.40 0.09363
338.50 0.09388
338.60 0.09413
338.70 0.09438
338.80 0.09462
338.90 0.09487
339.00 0.09512
339.10 0.09537
339.20 0.09561
339.30 0.09586
339.40 0.0961
339.50 0.09635
339.60 0.0966
339.70 0.09684
339.80 0.09709
339.90 0.09733
340.00 0.09757
340.10 0.09783
340.20 0.09809
340.30 0.09835
340.40 0.09861
340.50 0.09887
340.60 0.09912
340.70 0.09938
340.80 0.09964
340.90 0.09989
341.00 0.1001
341.10 0.1004
341.20 0.1007
341.30 0.1009
341.40 0.1012
341.50 0.1014
341.60 0.1017
341.70 0.1019
341.80 0.1022
341.90 0.1024
342.00 0.1027
342.10 0.103
342.20 0.1032
342.30 0.1035
342.40 0.1038
342.50 0.104
342.60 0.1043
342.70 0.1046
342.80 0.1048
342.90 0.1051
343.00 0.1054
343.10 0.1056
343.20 0.1059
343.30 0.1061
343.40 0.1064
343.50 0.1067
343.60 0.1069
343.70 0.1072
343.80 0.1075
343.90 0.1077
344.00 0.108
344.10 0.1083
344.20 0.1085
344.30 0.1088
344.40 0.1091
344.50 0.1094
344.60 0.1096
344.70 0.1099
344.80 0.1102
344.90 0.1105
345.00 0.1107
345.10 0.111
345.20 0.1113
345.30 0.1115
345.40 0.1118
345.50 0.1121
345.60 0.1124
345.70 0.1126
345.80 0.1129
345.90 0.1132
346.00 0.1134
346.10 0.1137
346.20 0.114
346.30 0.1143
346.40 0.1146
346.50 0.1149
346.60 0.1152
346.70 0.1154
346.80 0.1157
346.90 0.116
347.00 0.1163
347.10 0.1166
347.20 0.1168
347.30 0.1171
347.40 0.1174
347.50 0.1177
347.60 0.118
347.70 0.1183
347.80 0.1185
347.90 0.1188
348.00 0.1191
348.10 0.1194
348.20 0.1197
348.30 0.12
348.40 0.1203
348.50 0.1206
348.60 0.1209
348.70 0.1211
348.80 0.1214
348.90 0.1217
349.00 0.122
349.10 0.1223
349.20 0.1226
349.30 0.1229
349.40 0.1232
349.50 0.1235
349.60 0.1238
349.70 0.124
349.80 0.1243
349.90 0.1246
350.00 0.1249
350.10 0.1252
350.20 0.1255
350.30 0.1258
350.40 0.1261
350.50 0.1264
350.60 0.1267
350.70 0.127
350.80 0.1273
350.90 0.1276
351.00 0.1279
351.10 0.1282
351.20 0.1285
351.30 0.1288
351.40 0.1291
351.50 0.1294
351.60 0.1297
351.70 0.13
351.80 0.1303
351.90 0.1306
352.00 0.1309
352.10 0.1312
352.20 0.1315
352.30 0.1318
352.40 0.1322
352.50 0.1325
352.60 0.1328
352.70 0.1331
352.80 0.1334
352.90 0.1337
353.00 0.134
353.10 0.1343
353.20 0.1346
353.30 0.1349
353.40 0.1353
353.50 0.1356
353.60 0.1359
353.70 0.1362
353.80 0.1365
353.90 0.1368
354.00 0.1371
354.10 0.1374
354.20 0.1377
354.30 0.1381
354.40 0.1384
354.50 0.1387
354.60 0.139
354.70 0.1393
354.80 0.1397
354.90 0.14
355.00 0.1403
355.10 0.1406
355.20 0.1409
355.30 0.1413
355.40 0.1416
355.50 0.1419
355.60 0.1422
355.70 0.1425
355.80 0.1428
355.90 0.1431
356.00 0.1435
356.10 0.1438
356.20 0.1441
356.30 0.1445
356.40 0.1448
356.50 0.1451
356.60 0.1454
356.70 0.1458
356.80 0.1461
356.90 0.1464
357.00 0.1468
357.10 0.1471
357.20 0.1474
357.30 0.1477
357.40 0.1481
357.50 0.1484
357.60 0.1487
357.70 0.149
357.80 0.1494
357.90 0.1497
358.00 0.15
358.10 0.1503
358.20 0.1507
358.30 0.151
358.40 0.1514
358.50 0.1517
358.60 0.152
358.70 0.1524
358.80 0.1527
358.90 0.1531
359.00 0.1534
359.10 0.1537
359.20 0.1541
359.30 0.1544
359.40 0.1547
359.50 0.1551
359.60 0.1554
359.70 0.1557
359.80 0.1561
359.90 0.1564
360.00 0.1567
360.10 0.1571
360.20 0.1574
360.30 0.1578
360.40 0.1581
360.50 0.1585
360.60 0.1588
360.70 0.1592
360.80 0.1595
360.90 0.1599
361.00 0.1602
361.10 0.1606
361.20 0.1609
361.30 0.1613
361.40 0.1616
361.50 0.1619
361.60 0.1623
361.70 0.1626
361.80 0.163
361.90 0.1633
362.00 0.1637
362.10 0.164
362.20 0.1644
362.30 0.1647
362.40 0.1651
362.50 0.1654
362.60 0.1658
362.70 0.1661
362.80 0.1665
362.90 0.1668
363.00 0.1672
363.10 0.1675
363.20 0.1679
363.30 0.1683
363.40 0.1686
363.50 0.169
363.60 0.1693
363.70 0.1697
363.80 0.1701
363.90 0.1704
364.00 0.1708
364.10 0.1711
364.20 0.1715
364.30 0.1718
364.40 0.1722
364.50 0.1726
364.60 0.1729
364.70 0.1733
364.80 0.1737
364.90 0.174
365.00 0.1744
365.10 0.1748
365.20 0.1751
365.30 0.1755
365.40 0.1759
365.50 0.1762
365.60 0.1766
365.70 0.1769
365.80 0.1773
365.90 0.1777
366.00 0.178
366.10 0.1784
366.20 0.1788
366.30 0.1792
366.40 0.1795
366.50 0.1799
366.60 0.1803
366.70 0.1807
366.80 0.181
366.90 0.1814
367.00 0.1818
367.10 0.1822
367.20 0.1825
367.30 0.1829
367.40 0.1833
367.50 0.1837
367.60 0.184
367.70 0.1844
367.80 0.1848
367.90 0.1851
368.00 0.1855
368.10 0.1859
368.20 0.1863
368.30 0.1867
368.40 0.1871
368.50 0.1874
368.60 0.1878
368.70 0.1882
368.80 0.1886
368.90 0.189
369.00 0.1894
369.10 0.1897
369.20 0.1901
369.30 0.1905
369.40 0.1909
369.50 0.1913
369.60 0.1916
369.70 0.192
369.80 0.1924
369.90 0.1928
370.00 0.1932
370.10 0.1936
370.20 0.194
370.30 0.1944
370.40 0.1947
370.50 0.1951
370.60 0.1955
370.70 0.1959
370.80 0.1963
370.90 0.1967
371.00 0.1971
371.10 0.1975
371.20 0.1979
371.30 0.1983
371.40 0.1987
371.50 0.1991
371.60 0.1994
371.70 0.1998
371.80 0.2002
371.90 0.2006
372.00 0.201
372.10 0.2014
372.20 0.2018
372.30 0.2022
372.40 0.2026
372.50 0.203
372.60 0.2034
372.70 0.2038
372.80 0.2042
372.90 0.2046
373.00 0.205
373.10 0.2054
373.20 0.2058
373.30 0.2062
373.40 0.2066
373.50 0.207
373.60 0.2074
373.70 0.2078
373.80 0.2082
373.90 0.2086
374.00 0.209
374.10 0.2094
374.20 0.2099
374.30 0.2103
374.40 0.2107
374.50 0.2111
374.60 0.2115
374.70 0.2119
374.80 0.2123
374.90 0.2127
375.00 0.2131
375.10 0.2136
375.20 0.214
375.30 0.2144
375.40 0.2148
375.50 0.2152
375.60 0.2156
375.70 0.216
375.80 0.2164
375.90 0.2168
376.00 0.2172
376.10 0.2176
376.20 0.2181
376.30 0.2185
376.40 0.2189
376.50 0.2193
376.60 0.2197
376.70 0.2201
376.80 0.2206
376.90 0.221
377.00 0.2214
377.10 0.2218
377.20 0.2222
377.30 0.2227
377.40 0.2231
377.50 0.2235
377.60 0.2239
377.70 0.2244
377.80 0.2248
377.90 0.2252
378.00 0.2256
378.10 0.226
378.20 0.2265
378.30 0.2269
378.40 0.2273
378.50 0.2277
378.60 0.2282
378.70 0.2286
378.80 0.229
378.90 0.2295
379.00 0.2299
379.10 0.2303
379.20 0.2307
379.30 0.2312
379.40 0.2316
379.50 0.232
379.60 0.2325
379.70 0.2329
379.80 0.2333
379.90 0.2338
380.00 0.2342
380.10 0.2346
380.20 0.2351
380.30 0.2355
380.40 0.2359
380.50 0.2364
380.60 0.2368
380.70 0.2372
380.80 0.2377
380.90 0.2381
381.00 0.2385
381.10 0.239
381.20 0.2394
381.30 0.2399
381.40 0.2403
381.50 0.2407
381.60 0.2412
381.70 0.2416
381.80 0.242
381.90 0.2425
382.00 0.2429
382.10 0.2434
382.20 0.2438
382.30 0.2443
382.40 0.2447
382.50 0.2452
382.60 0.2456
382.70 0.2461
382.80 0.2465
382.90 0.2469
383.00 0.2474
383.10 0.2478
383.20 0.2483
383.30 0.2487
383.40 0.2492
383.50 0.2496
383.60 0.2501
383.70 0.2505
383.80 0.251
383.90 0.2514
384.00 0.2519
384.10 0.2523
384.20 0.2528
384.30 0.2532
384.40 0.2537
384.50 0.2541
384.60 0.2546
384.70 0.255
384.80 0.2555
384.90 0.256
385.00 0.2564
385.10 0.2569
385.20 0.2573
385.30 0.2578
385.40 0.2582
385.50 0.2587
385.60 0.2592
385.70 0.2596
385.80 0.2601
385.90 0.2605
386.00 0.261
386.10 0.2615
386.20 0.2619
386.30 0.2624
386.40 0.2628
386.50 0.2633
386.60 0.2638
386.70 0.2642
386.80 0.2647
386.90 0.2652
387.00 0.2656
387.10 0.2661
387.20 0.2665
387.30 0.267
387.40 0.2675
387.50 0.2679
387.60 0.2684
387.70 0.2689
387.80 0.2693
387.90 0.2698
388.00 0.2703
388.10 0.2708
388.20 0.2712
388.30 0.2717
388.40 0.2722
388.50 0.2726
388.60 0.2731
388.70 0.2736
388.80 0.274
388.90 0.2745
389.00 0.275
389.10 0.2755
389.20 0.2759
389.30 0.2764
389.40 0.2769
389.50 0.2774
389.60 0.2778
389.70 0.2783
389.80 0.2788
389.90 0.2793
390.00 0.2798
390.10 0.2802
390.20 0.2807
390.30 0.2812
390.40 0.2817
390.50 0.2821
390.60 0.2826
390.70 0.2831
390.80 0.2836
390.90 0.2841
391.00 0.2846
391.10 0.285
391.20 0.2855
391.30 0.286
391.40 0.2865
391.50 0.287
391.60 0.2874
391.70 0.2879
391.80 0.2884
391.90 0.2889
392.00 0.2894
392.10 0.2899
392.20 0.2904
392.30 0.2909
392.40 0.2914
392.50 0.2918
392.60 0.2923
392.70 0.2928
392.80 0.2933
392.90 0.2938
393.00 0.2943
393.10 0.2948
393.20 0.2953
393.30 0.2958
393.40 0.2963
393.50 0.2967
393.60 0.2972
393.70 0.2977
393.80 0.2982
393.90 0.2987
394.00 0.2992
394.10 0.2997
394.20 0.3002
394.30 0.3007
394.40 0.3012
394.50 0.3017
394.60 0.3022
394.70 0.3027
394.80 0.3032
394.90 0.3037
395.00 0.3042
395.10 0.3047
395.20 0.3052
395.30 0.3057
395.40 0.3062
395.50 0.3067
395.60 0.3072
395.70 0.3077
395.80 0.3082
395.90 0.3087
396.00 0.3092
396.10 0.3097
396.20 0.3102
396.30 0.3107
396.40 0.3112
396.50 0.3117
396.60 0.3122
396.70 0.3128
396.80 0.3133
396.90 0.3138
397.00 0.3143
397.10 0.3148
397.20 0.3153
397.30 0.3158
397.40 0.3163
397.50 0.3168
397.60 0.3173
397.70 0.3178
397.80 0.3184
397.90 0.3189
398.00 0.3194
398.10 0.3199
398.20 0.3204
398.30 0.3209
398.40 0.3214
398.50 0.3219
398.60 0.3225
398.70 0.323
398.80 0.3235
398.90 0.324
399.00 0.3245
399.10 0.325
399.20 0.3256
399.30 0.3261
399.40 0.3266
399.50 0.3271
399.60 0.3276
399.70 0.3281
399.80 0.3287
399.90 0.3292
400.00 0.3297
400.10 0.3302
400.20 0.3308
400.30 0.3313
400.40 0.3318
400.50 0.3323
400.60 0.3328
400.70 0.3334
400.80 0.3339
400.90 0.3344
401.00 0.3349
401.10 0.3355
401.20 0.336
401.30 0.3365
401.40 0.337
401.50 0.3376
401.60 0.3381
401.70 0.3386
401.80 0.3391
401.90 0.3397
402.00 0.3402
402.10 0.3407
402.20 0.3413
402.30 0.3418
402.40 0.3423
402.50 0.3429
402.60 0.3434
402.70 0.3439
402.80 0.3445
402.90 0.345
403.00 0.3455
403.10 0.3461
403.20 0.3466
403.30 0.3471
403.40 0.3477
403.50 0.3482
403.60 0.3487
403.70 0.3493
403.80 0.3498
403.90 0.3503
404.00 0.3509
404.10 0.3514
404.20 0.3519
404.30 0.3525
404.40 0.353
404.50 0.3536
404.60 0.3541
404.70 0.3546
404.80 0.3552
404.90 0.3557
405.00 0.3563
405.10 0.3568
405.20 0.3574
405.30 0.3579
405.40 0.3584
405.50 0.359
405.60 0.3595
405.70 0.3601
405.80 0.3606
405.90 0.3612
406.00 0.3617
406.10 0.3622
406.20 0.3628
406.30 0.3633
406.40 0.3639
406.50 0.3644
406.60 0.365
406.70 0.3655
406.80 0.3661
406.90 0.3666
407.00 0.3672
407.10 0.3677
407.20 0.3683
407.30 0.3688
407.40 0.3694
407.50 0.3699
407.60 0.3705
407.70 0.371
407.80 0.3716
407.90 0.3721
408.00 0.3727
408.10 0.3732
408.20 0.3738
408.30 0.3743
408.40 0.3749
408.50 0.3755
408.60 0.376
408.70 0.3766
408.80 0.3771
408.90 0.3777
409.00 0.3782
409.10 0.3788
409.20 0.3794
409.30 0.3799
409.40 0.3805
409.50 0.381
409.60 0.3816
409.70 0.3822
409.80 0.3827
409.90 0.3833
410.00 0.3838
410.10 0.3844
410.20 0.385
410.30 0.3855
410.40 0.3861
410.50 0.3866
410.60 0.3872
410.70 0.3878
410.80 0.3883
410.90 0.3889
411.00 0.3895
411.10 0.39
411.20 0.3906
411.30 0.3912
411.40 0.3917
411.50 0.3923
411.60 0.3929
411.70 0.3934
411.80 0.394
411.90 0.3946
412.00 0.3951
412.10 0.3957
412.20 0.3963
412.30 0.3969
412.40 0.3974
412.50 0.398
412.60 0.3986
412.70 0.3991
412.80 0.3997
412.90 0.4003
413.00 0.4009
413.10 0.4014
413.20 0.402
413.30 0.4026
413.40 0.4031
413.50 0.4037
413.60 0.4043
413.70 0.4049
413.80 0.4054
413.90 0.406
414.00 0.4066
414.10 0.4072
414.20 0.4078
414.30 0.4083
414.40 0.4089
414.50 0.4095
414.60 0.4101
414.70 0.4106
414.80 0.4112
414.90 0.4118
415.00 0.4124
415.10 0.413
415.20 0.4135
415.30 0.4141
415.40 0.4147
415.50 0.4153
415.60 0.4159
415.70 0.4165
415.80 0.417
415.90 0.4176
416.00 0.4182
416.10 0.4188
416.20 0.4194
416.30 0.42
416.40 0.4205
416.50 0.4211
416.60 0.4217
416.70 0.4223
416.80 0.4229
416.90 0.4235
417.00 0.4241
417.10 0.4247
417.20 0.4252
417.30 0.4258
417.40 0.4264
417.50 0.427
417.60 0.4276
417.70 0.4282
417.80 0.4288
417.90 0.4294
418.00 0.43
418.10 0.4305
418.20 0.4311
418.30 0.4317
418.40 0.4323
418.50 0.4329
418.60 0.4335
418.70 0.4341
418.80 0.4347
418.90 0.4353
419.00 0.4359
419.10 0.4365
419.20 0.4371
419.30 0.4377
419.40 0.4383
419.50 0.4389
419.60 0.4395
419.70 0.4401
419.80 0.4407
419.90 0.4413
420.00 0.4419
420.10 0.4425
420.20 0.4431
420.30 0.4437
420.40 0.4443
420.50 0.4449
420.60 0.4455
420.70 0.4461
420.80 0.4467
420.90 0.4473
421.00 0.4479
421.10 0.4485
421.20 0.4491
421.30 0.4497
421.40 0.4503
421.50 0.4509
421.60 0.4515
421.70 0.4521
421.80 0.4527
421.90 0.4533
422.00 0.4539
422.10 0.4545
422.20 0.4551
422.30 0.4557
422.40 0.4563
422.50 0.4569
422.60 0.4575
422.70 0.4582
422.80 0.4588
422.90 0.4594
423.00 0.46
423.10 0.4606
423.20 0.4612
423.30 0.4618
423.40 0.4624
423.50 0.463
423.60 0.4636
423.70 0.4643
423.80 0.4649
423.90 0.4655
424.00 0.4661
424.10 0.4667
424.20 0.4673
424.30 0.4679
424.40 0.4685
424.50 0.4692
424.60 0.4698
424.70 0.4704
424.80 0.471
424.90 0.4716
425.00 0.4722
425.10 0.4729
425.20 0.4735
425.30 0.4741
425.40 0.4747
425.50 0.4753
425.60 0.4759
425.70 0.4766
425.80 0.4772
425.90 0.4778
426.00 0.4784
426.10 0.479
426.20 0.4796
426.30 0.4803
426.40 0.4809
426.50 0.4815
426.60 0.4821
426.70 0.4828
426.80 0.4834
426.90 0.484
427.00 0.4846
427.10 0.4852
427.20 0.4859
427.30 0.4865
427.40 0.4871
427.50 0.4877
427.60 0.4884
427.70 0.489
427.80 0.4896
427.90 0.4902
428.00 0.4909
428.10 0.4915
428.20 0.4921
428.30 0.4927
428.40 0.4934
428.50 0.494
428.60 0.4946
428.70 0.4953
428.80 0.4959
428.90 0.4965
429.00 0.4971
429.10 0.4978
429.20 0.4984
429.30 0.499
429.40 0.4997
429.50 0.5003
429.60 0.5009
429.70 0.5016
429.80 0.5022
429.90 0.5028
430.00 0.5035
430.10 0.5041
430.20 0.5047
430.30 0.5054
430.40 0.506
430.50 0.5066
430.60 0.5073
430.70 0.5079
430.80 0.5085
430.90 0.5092
431.00 0.5098
431.10 0.5104
431.20 0.5111
431.30 0.5117
431.40 0.5123
431.50 0.513
431.60 0.5136
431.70 0.5142
431.80 0.5149
431.90 0.5155
432.00 0.5162
432.10 0.5168
432.20 0.5174
432.30 0.5181
432.40 0.5187
432.50 0.5194
432.60 0.52
432.70 0.5206
432.80 0.5213
432.90 0.5219
433.00 0.5226
433.10 0.5232
433.20 0.5239
433.30 0.5245
433.40 0.5251
433.50 0.5258
433.60 0.5264
433.70 0.5271
433.80 0.5277
433.90 0.5284
434.00 0.529
434.10 0.5297
434.20 0.5303
434.30 0.5309
434.40 0.5316
434.50 0.5322
434.60 0.5329
434.70 0.5335
434.80 0.5342
434.90 0.5348
435.00 0.5355
435.10 0.5361
435.20 0.5368
435.30 0.5374
435.40 0.5381
435.50 0.5387
435.60 0.5394
435.70 0.54
435.80 0.5407
435.90 0.5413
436.00 0.542
436.10 0.5426
436.20 0.5433
436.30 0.5439
436.40 0.5446
436.50 0.5452
436.60 0.5459
436.70 0.5465
436.80 0.5472
436.90 0.5478
437.00 0.5485
437.10 0.5491
437.20 0.5498
437.30 0.5505
437.40 0.5511
437.50 0.5518
437.60 0.5524
437.70 0.5531
437.80 0.5537
437.90 0.5544
438.00 0.555
438.10 0.5557
438.20 0.5564
438.30 0.557
438.40 0.5577
438.50 0.5583
438.60 0.559
438.70 0.5597
438.80 0.5603
438.90 0.561
439.00 0.5616
439.10 0.5623
439.20 0.563
439.30 0.5636
439.40 0.5643
439.50 0.5649
439.60 0.5656
439.70 0.5663
439.80 0.5669
439.90 0.5676
