# Version 2.1 - nm, norm@500 to 1, cut digits, bergeron_6000_85.dat_6000
# Wavelength(nm)  Flambda(ergs/cm^s/s/nm)
300.00 0.6789
300.10 0.6794
300.20 0.6798
300.30 0.6803
300.40 0.6808
300.50 0.6813
300.60 0.6818
300.70 0.6823
300.80 0.6828
300.90 0.6833
301.00 0.6838
301.10 0.6842
301.20 0.6847
301.30 0.6852
301.40 0.6857
301.50 0.6862
301.60 0.6866
301.70 0.6871
301.80 0.6876
301.90 0.6881
302.00 0.6886
302.10 0.689
302.20 0.6895
302.30 0.69
302.40 0.6905
302.50 0.691
302.60 0.6915
302.70 0.6919
302.80 0.6924
302.90 0.6929
303.00 0.6934
303.10 0.6939
303.20 0.6943
303.30 0.6948
303.40 0.6953
303.50 0.6958
303.60 0.6962
303.70 0.6967
303.80 0.6972
303.90 0.6976
304.00 0.6981
304.10 0.6986
304.20 0.6991
304.30 0.6995
304.40 0.7
304.50 0.7005
304.60 0.701
304.70 0.7014
304.80 0.7019
304.90 0.7024
305.00 0.7029
305.10 0.7033
305.20 0.7038
305.30 0.7043
305.40 0.7047
305.50 0.7052
305.60 0.7057
305.70 0.7061
305.80 0.7066
305.90 0.7071
306.00 0.7075
306.10 0.708
306.20 0.7085
306.30 0.7089
306.40 0.7094
306.50 0.7099
306.60 0.7103
306.70 0.7108
306.80 0.7113
306.90 0.7118
307.00 0.7122
307.10 0.7127
307.20 0.7131
307.30 0.7136
307.40 0.7141
307.50 0.7145
307.60 0.715
307.70 0.7155
307.80 0.7159
307.90 0.7164
308.00 0.7168
308.10 0.7173
308.20 0.7178
308.30 0.7182
308.40 0.7187
308.50 0.7192
308.60 0.7196
308.70 0.7201
308.80 0.7205
308.90 0.721
309.00 0.7215
309.10 0.7219
309.20 0.7224
309.30 0.7228
309.40 0.7233
309.50 0.7237
309.60 0.7242
309.70 0.7247
309.80 0.7251
309.90 0.7256
310.00 0.726
310.10 0.7265
310.20 0.7269
310.30 0.7274
310.40 0.7278
310.50 0.7283
310.60 0.7287
310.70 0.7292
310.80 0.7297
310.90 0.7301
311.00 0.7306
311.10 0.731
311.20 0.7315
311.30 0.7319
311.40 0.7324
311.50 0.7328
311.60 0.7333
311.70 0.7337
311.80 0.7342
311.90 0.7346
312.00 0.735
312.10 0.7355
312.20 0.7359
312.30 0.7364
312.40 0.7368
312.50 0.7373
312.60 0.7377
312.70 0.7382
312.80 0.7386
312.90 0.7391
313.00 0.7395
313.10 0.74
313.20 0.7404
313.30 0.7409
313.40 0.7413
313.50 0.7417
313.60 0.7422
313.70 0.7426
313.80 0.7431
313.90 0.7435
314.00 0.744
314.10 0.7444
314.20 0.7448
314.30 0.7453
314.40 0.7457
314.50 0.7462
314.60 0.7466
314.70 0.747
314.80 0.7475
314.90 0.7479
315.00 0.7483
315.10 0.7488
315.20 0.7492
315.30 0.7497
315.40 0.7501
315.50 0.7505
315.60 0.751
315.70 0.7514
315.80 0.7518
315.90 0.7523
316.00 0.7527
316.10 0.7531
316.20 0.7536
316.30 0.754
316.40 0.7544
316.50 0.7549
316.60 0.7553
316.70 0.7557
316.80 0.7562
316.90 0.7566
317.00 0.757
317.10 0.7575
317.20 0.7579
317.30 0.7583
317.40 0.7588
317.50 0.7592
317.60 0.7596
317.70 0.7601
317.80 0.7605
317.90 0.7609
318.00 0.7613
318.10 0.7618
318.20 0.7622
318.30 0.7626
318.40 0.7631
318.50 0.7635
318.60 0.7639
318.70 0.7643
318.80 0.7648
318.90 0.7652
319.00 0.7656
319.10 0.766
319.20 0.7665
319.30 0.7669
319.40 0.7673
319.50 0.7677
319.60 0.7681
319.70 0.7686
319.80 0.769
319.90 0.7694
320.00 0.7698
320.10 0.7702
320.20 0.7707
320.30 0.7711
320.40 0.7715
320.50 0.7719
320.60 0.7723
320.70 0.7728
320.80 0.7732
320.90 0.7736
321.00 0.774
321.10 0.7744
321.20 0.7749
321.30 0.7753
321.40 0.7757
321.50 0.7761
321.60 0.7765
321.70 0.7769
321.80 0.7773
321.90 0.7777
322.00 0.7782
322.10 0.7786
322.20 0.779
322.30 0.7794
322.40 0.7798
322.50 0.7802
322.60 0.7806
322.70 0.781
322.80 0.7815
322.90 0.7819
323.00 0.7823
323.10 0.7827
323.20 0.7831
323.30 0.7835
323.40 0.7839
323.50 0.7843
323.60 0.7847
323.70 0.7851
323.80 0.7855
323.90 0.7859
324.00 0.7863
324.10 0.7867
324.20 0.7871
324.30 0.7876
324.40 0.788
324.50 0.7884
324.60 0.7888
324.70 0.7892
324.80 0.7896
324.90 0.79
325.00 0.7904
325.10 0.7908
325.20 0.7912
325.30 0.7916
325.40 0.792
325.50 0.7924
325.60 0.7928
325.70 0.7932
325.80 0.7936
325.90 0.794
326.00 0.7944
326.10 0.7948
326.20 0.7952
326.30 0.7956
326.40 0.796
326.50 0.7964
326.60 0.7968
326.70 0.7972
326.80 0.7976
326.90 0.798
327.00 0.7984
327.10 0.7988
327.20 0.7991
327.30 0.7995
327.40 0.7999
327.50 0.8003
327.60 0.8007
327.70 0.8011
327.80 0.8015
327.90 0.8019
328.00 0.8023
328.10 0.8027
328.20 0.8031
328.30 0.8035
328.40 0.8038
328.50 0.8042
328.60 0.8046
328.70 0.805
328.80 0.8054
328.90 0.8058
329.00 0.8062
329.10 0.8066
329.20 0.807
329.30 0.8074
329.40 0.8077
329.50 0.8081
329.60 0.8085
329.70 0.8089
329.80 0.8093
329.90 0.8097
330.00 0.81
330.10 0.8104
330.20 0.8108
330.30 0.8112
330.40 0.8116
330.50 0.812
330.60 0.8123
330.70 0.8127
330.80 0.8131
330.90 0.8135
331.00 0.8139
331.10 0.8143
331.20 0.8146
331.30 0.815
331.40 0.8154
331.50 0.8158
331.60 0.8161
331.70 0.8165
331.80 0.8169
331.90 0.8173
332.00 0.8176
332.10 0.818
332.20 0.8184
332.30 0.8188
332.40 0.8192
332.50 0.8195
332.60 0.8199
332.70 0.8203
332.80 0.8207
332.90 0.821
333.00 0.8214
333.10 0.8218
333.20 0.8221
333.30 0.8225
333.40 0.8229
333.50 0.8233
333.60 0.8236
333.70 0.824
333.80 0.8244
333.90 0.8247
334.00 0.8251
334.10 0.8255
334.20 0.8258
334.30 0.8262
334.40 0.8266
334.50 0.8269
334.60 0.8273
334.70 0.8277
334.80 0.828
334.90 0.8284
335.00 0.8288
335.10 0.8291
335.20 0.8295
335.30 0.8299
335.40 0.8302
335.50 0.8306
335.60 0.831
335.70 0.8313
335.80 0.8317
335.90 0.832
336.00 0.8324
336.10 0.8328
336.20 0.8331
336.30 0.8335
336.40 0.8338
336.50 0.8342
336.60 0.8346
336.70 0.8349
336.80 0.8353
336.90 0.8356
337.00 0.836
337.10 0.8364
337.20 0.8367
337.30 0.8371
337.40 0.8374
337.50 0.8378
337.60 0.8381
337.70 0.8385
337.80 0.8389
337.90 0.8392
338.00 0.8396
338.10 0.8399
338.20 0.8403
338.30 0.8406
338.40 0.841
338.50 0.8413
338.60 0.8417
338.70 0.842
338.80 0.8424
338.90 0.8427
339.00 0.8431
339.10 0.8434
339.20 0.8438
339.30 0.8441
339.40 0.8445
339.50 0.8448
339.60 0.8452
339.70 0.8455
339.80 0.8459
339.90 0.8462
340.00 0.8466
340.10 0.8469
340.20 0.8473
340.30 0.8476
340.40 0.848
340.50 0.8483
340.60 0.8486
340.70 0.849
340.80 0.8493
340.90 0.8497
341.00 0.85
341.10 0.8504
341.20 0.8507
341.30 0.851
341.40 0.8514
341.50 0.8517
341.60 0.8521
341.70 0.8524
341.80 0.8527
341.90 0.8531
342.00 0.8534
342.10 0.8538
342.20 0.8541
342.30 0.8544
342.40 0.8548
342.50 0.8551
342.60 0.8555
342.70 0.8558
342.80 0.8561
342.90 0.8565
343.00 0.8568
343.10 0.8571
343.20 0.8575
343.30 0.8578
343.40 0.8581
343.50 0.8585
343.60 0.8588
343.70 0.8591
343.80 0.8595
343.90 0.8598
344.00 0.8601
344.10 0.8605
344.20 0.8608
344.30 0.8611
344.40 0.8614
344.50 0.8618
344.60 0.8621
344.70 0.8624
344.80 0.8628
344.90 0.8631
345.00 0.8634
345.10 0.8638
345.20 0.8641
345.30 0.8644
345.40 0.8647
345.50 0.8651
345.60 0.8654
345.70 0.8657
345.80 0.866
345.90 0.8664
346.00 0.8667
346.10 0.867
346.20 0.8673
346.30 0.8676
346.40 0.868
346.50 0.8683
346.60 0.8686
346.70 0.8689
346.80 0.8693
346.90 0.8696
347.00 0.8699
347.10 0.8702
347.20 0.8705
347.30 0.8709
347.40 0.8712
347.50 0.8715
347.60 0.8718
347.70 0.8721
347.80 0.8725
347.90 0.8728
348.00 0.8731
348.10 0.8734
348.20 0.8737
348.30 0.874
348.40 0.8744
348.50 0.8747
348.60 0.875
348.70 0.8753
348.80 0.8756
348.90 0.8759
349.00 0.8762
349.10 0.8766
349.20 0.8769
349.30 0.8772
349.40 0.8775
349.50 0.8778
349.60 0.8781
349.70 0.8784
349.80 0.8787
349.90 0.879
350.00 0.8794
350.10 0.8797
350.20 0.88
350.30 0.8803
350.40 0.8806
350.50 0.8809
350.60 0.8812
350.70 0.8815
350.80 0.8818
350.90 0.8821
351.00 0.8824
351.10 0.8827
351.20 0.883
351.30 0.8833
351.40 0.8836
351.50 0.8839
351.60 0.8842
351.70 0.8845
351.80 0.8848
351.90 0.8851
352.00 0.8854
352.10 0.8857
352.20 0.886
352.30 0.8863
352.40 0.8866
352.50 0.8869
352.60 0.8872
352.70 0.8875
352.80 0.8878
352.90 0.8881
353.00 0.8884
353.10 0.8887
353.20 0.889
353.30 0.8893
353.40 0.8896
353.50 0.8899
353.60 0.8902
353.70 0.8905
353.80 0.8908
353.90 0.8911
354.00 0.8914
354.10 0.8917
354.20 0.892
354.30 0.8923
354.40 0.8926
354.50 0.8929
354.60 0.8931
354.70 0.8934
354.80 0.8937
354.90 0.894
355.00 0.8943
355.10 0.8946
355.20 0.8949
355.30 0.8952
355.40 0.8955
355.50 0.8957
355.60 0.896
355.70 0.8963
355.80 0.8966
355.90 0.8969
356.00 0.8972
356.10 0.8975
356.20 0.8978
356.30 0.898
356.40 0.8983
356.50 0.8986
356.60 0.8989
356.70 0.8992
356.80 0.8995
356.90 0.8997
357.00 0.9
357.10 0.9003
357.20 0.9006
357.30 0.9009
357.40 0.9012
357.50 0.9014
357.60 0.9017
357.70 0.902
357.80 0.9023
357.90 0.9026
358.00 0.9028
358.10 0.9031
358.20 0.9034
358.30 0.9037
358.40 0.9039
358.50 0.9042
358.60 0.9045
358.70 0.9048
358.80 0.9051
358.90 0.9053
359.00 0.9056
359.10 0.9059
359.20 0.9062
359.30 0.9064
359.40 0.9067
359.50 0.907
359.60 0.9073
359.70 0.9075
359.80 0.9078
359.90 0.9081
360.00 0.9083
360.10 0.9086
360.20 0.9089
360.30 0.9092
360.40 0.9094
360.50 0.9097
360.60 0.91
360.70 0.9102
360.80 0.9105
360.90 0.9108
361.00 0.911
361.10 0.9113
361.20 0.9116
361.30 0.9118
361.40 0.9121
361.50 0.9124
361.60 0.9126
361.70 0.9129
361.80 0.9132
361.90 0.9134
362.00 0.9137
362.10 0.914
362.20 0.9142
362.30 0.9145
362.40 0.9147
362.50 0.915
362.60 0.9153
362.70 0.9155
362.80 0.9158
362.90 0.916
363.00 0.9163
363.10 0.9166
363.20 0.9168
363.30 0.9171
363.40 0.9173
363.50 0.9176
363.60 0.9179
363.70 0.9181
363.80 0.9184
363.90 0.9186
364.00 0.9189
364.10 0.9192
364.20 0.9194
364.30 0.9197
364.40 0.9199
364.50 0.9202
364.60 0.9204
364.70 0.9207
364.80 0.9209
364.90 0.9212
365.00 0.9214
365.10 0.9217
365.20 0.9219
365.30 0.9222
365.40 0.9224
365.50 0.9227
365.60 0.9229
365.70 0.9232
365.80 0.9234
365.90 0.9237
366.00 0.9239
366.10 0.9242
366.20 0.9244
366.30 0.9247
366.40 0.9249
366.50 0.9252
366.60 0.9254
366.70 0.9257
366.80 0.9259
366.90 0.9262
367.00 0.9264
367.10 0.9267
367.20 0.9269
367.30 0.9271
367.40 0.9274
367.50 0.9276
367.60 0.9279
367.70 0.9281
367.80 0.9284
367.90 0.9286
368.00 0.9288
368.10 0.9291
368.20 0.9293
368.30 0.9296
368.40 0.9298
368.50 0.93
368.60 0.9303
368.70 0.9305
368.80 0.9308
368.90 0.931
369.00 0.9312
369.10 0.9315
369.20 0.9317
369.30 0.932
369.40 0.9322
369.50 0.9324
369.60 0.9327
369.70 0.9329
369.80 0.9331
369.90 0.9334
370.00 0.9336
370.10 0.9338
370.20 0.9341
370.30 0.9343
370.40 0.9345
370.50 0.9348
370.60 0.935
370.70 0.9352
370.80 0.9355
370.90 0.9357
371.00 0.9359
371.10 0.9362
371.20 0.9364
371.30 0.9366
371.40 0.9369
371.50 0.9371
371.60 0.9373
371.70 0.9376
371.80 0.9378
371.90 0.938
372.00 0.9382
372.10 0.9385
372.20 0.9387
372.30 0.9389
372.40 0.9392
372.50 0.9394
372.60 0.9396
372.70 0.9398
372.80 0.9401
372.90 0.9403
373.00 0.9405
373.10 0.9407
373.20 0.941
373.30 0.9412
373.40 0.9414
373.50 0.9416
373.60 0.9418
373.70 0.9421
373.80 0.9423
373.90 0.9425
374.00 0.9427
374.10 0.9429
374.20 0.9432
374.30 0.9434
374.40 0.9436
374.50 0.9438
374.60 0.944
374.70 0.9443
374.80 0.9445
374.90 0.9447
375.00 0.9449
375.10 0.9451
375.20 0.9453
375.30 0.9455
375.40 0.9458
375.50 0.946
375.60 0.9462
375.70 0.9464
375.80 0.9466
375.90 0.9468
376.00 0.947
376.10 0.9473
376.20 0.9475
376.30 0.9477
376.40 0.9479
376.50 0.9481
376.60 0.9483
376.70 0.9485
376.80 0.9488
376.90 0.949
377.00 0.9492
377.10 0.9494
377.20 0.9496
377.30 0.9498
377.40 0.95
377.50 0.9502
377.60 0.9504
377.70 0.9506
377.80 0.9508
377.90 0.951
378.00 0.9513
378.10 0.9515
378.20 0.9517
378.30 0.9519
378.40 0.9521
378.50 0.9523
378.60 0.9525
378.70 0.9527
378.80 0.9529
378.90 0.9531
379.00 0.9533
379.10 0.9535
379.20 0.9537
379.30 0.9539
379.40 0.9541
379.50 0.9543
379.60 0.9545
379.70 0.9547
379.80 0.9549
379.90 0.955
380.00 0.9552
380.10 0.9554
380.20 0.9557
380.30 0.9559
380.40 0.9561
380.50 0.9563
380.60 0.9565
380.70 0.9567
380.80 0.9569
380.90 0.9571
381.00 0.9573
381.10 0.9575
381.20 0.9577
381.30 0.9579
381.40 0.9581
381.50 0.9583
381.60 0.9585
381.70 0.9587
381.80 0.9589
381.90 0.9591
382.00 0.9593
382.10 0.9595
382.20 0.9597
382.30 0.9598
382.40 0.96
382.50 0.9602
382.60 0.9603
382.70 0.9605
382.80 0.9606
382.90 0.9608
383.00 0.961
383.10 0.9611
383.20 0.9613
383.30 0.9613
383.40 0.9614
383.50 0.9611
383.60 0.9615
383.70 0.962
383.80 0.9623
383.90 0.9627
384.00 0.9629
384.10 0.9632
384.20 0.9634
384.30 0.9637
384.40 0.9639
384.50 0.9641
384.60 0.9643
384.70 0.9645
384.80 0.9647
384.90 0.9649
385.00 0.9651
385.10 0.9653
385.20 0.9655
385.30 0.9657
385.40 0.9659
385.50 0.9661
385.60 0.9663
385.70 0.9664
385.80 0.9666
385.90 0.9668
386.00 0.967
386.10 0.9672
386.20 0.9674
386.30 0.9675
386.40 0.9677
386.50 0.9679
386.60 0.9681
386.70 0.9683
386.80 0.9684
386.90 0.9686
387.00 0.9688
387.10 0.9689
387.20 0.9691
387.30 0.9692
387.40 0.9694
387.50 0.9695
387.60 0.9697
387.70 0.9698
387.80 0.9699
387.90 0.97
388.00 0.97
388.10 0.9701
388.20 0.9701
388.30 0.9701
388.40 0.9699
388.50 0.9698
388.60 0.9695
388.70 0.9692
388.80 0.9683
388.90 0.9669
389.00 0.9686
389.10 0.9698
389.20 0.9706
389.30 0.9712
389.40 0.9717
389.50 0.9722
389.60 0.9726
389.70 0.973
389.80 0.9733
389.90 0.9736
390.00 0.9739
390.10 0.9741
390.20 0.9744
390.30 0.9746
390.40 0.9748
390.50 0.975
390.60 0.9752
390.70 0.9755
390.80 0.9756
390.90 0.9758
391.00 0.976
391.10 0.9762
391.20 0.9764
391.30 0.9766
391.40 0.9768
391.50 0.977
391.60 0.9771
391.70 0.9773
391.80 0.9775
391.90 0.9777
392.00 0.9778
392.10 0.978
392.20 0.9782
392.30 0.9784
392.40 0.9785
392.50 0.9787
392.60 0.9789
392.70 0.979
392.80 0.9792
392.90 0.9793
393.00 0.9795
393.10 0.9797
393.20 0.9798
393.30 0.98
393.40 0.9801
393.50 0.9803
393.60 0.9805
393.70 0.9806
393.80 0.9808
393.90 0.9809
394.00 0.9811
394.10 0.9812
394.20 0.9813
394.30 0.9815
394.40 0.9816
394.50 0.9817
394.60 0.9819
394.70 0.982
394.80 0.9821
394.90 0.9822
395.00 0.9823
395.10 0.9824
395.20 0.9825
395.30 0.9825
395.40 0.9826
395.50 0.9826
395.60 0.9826
395.70 0.9826
395.80 0.9825
395.90 0.9824
396.00 0.9822
396.10 0.982
396.20 0.9816
396.30 0.9812
396.40 0.9806
396.50 0.9797
396.60 0.9786
396.70 0.9773
396.80 0.9755
396.90 0.9728
397.00 0.9692
397.10 0.9729
397.20 0.9758
397.30 0.978
397.40 0.9797
397.50 0.9811
397.60 0.9823
397.70 0.9832
397.80 0.984
397.90 0.9847
398.00 0.9853
398.10 0.9857
398.20 0.9862
398.30 0.9866
398.40 0.9869
398.50 0.9872
398.60 0.9875
398.70 0.9877
398.80 0.988
398.90 0.9882
399.00 0.9884
399.10 0.9886
399.20 0.9888
399.30 0.989
399.40 0.9892
399.50 0.9894
399.60 0.9896
399.70 0.9897
399.80 0.9899
399.90 0.99
400.00 0.9902
400.10 0.9904
400.20 0.9905
400.30 0.9907
400.40 0.9908
400.50 0.991
400.60 0.9912
400.70 0.9913
400.80 0.9914
400.90 0.9916
401.00 0.9917
401.10 0.9919
401.20 0.992
401.30 0.9922
401.40 0.9923
401.50 0.9924
401.60 0.9926
401.70 0.9927
401.80 0.9929
401.90 0.993
402.00 0.9931
402.10 0.9933
402.20 0.9934
402.30 0.9936
402.40 0.9937
402.50 0.9938
402.60 0.994
402.70 0.9941
402.80 0.9942
402.90 0.9943
403.00 0.9945
403.10 0.9946
403.20 0.9947
403.30 0.9949
403.40 0.995
403.50 0.9951
403.60 0.9952
403.70 0.9954
403.80 0.9955
403.90 0.9956
404.00 0.9958
404.10 0.9959
404.20 0.996
404.30 0.9961
404.40 0.9962
404.50 0.9964
404.60 0.9965
404.70 0.9966
404.80 0.9967
404.90 0.9968
405.00 0.9969
405.10 0.9971
405.20 0.9972
405.30 0.9973
405.40 0.9974
405.50 0.9975
405.60 0.9976
405.70 0.9977
405.80 0.9978
405.90 0.998
406.00 0.9981
406.10 0.9982
406.20 0.9983
406.30 0.9984
406.40 0.9985
406.50 0.9986
406.60 0.9986
406.70 0.9987
406.80 0.9988
406.90 0.9989
407.00 0.999
407.10 0.9991
407.20 0.9991
407.30 0.9992
407.40 0.9993
407.50 0.9993
407.60 0.9994
407.70 0.9994
407.80 0.9994
407.90 0.9995
408.00 0.9995
408.10 0.9995
408.20 0.9994
408.30 0.9994
408.40 0.9993
408.50 0.9992
408.60 0.999
408.70 0.9988
408.80 0.9985
408.90 0.9982
409.00 0.9978
409.10 0.9972
409.20 0.9964
409.30 0.9956
409.40 0.9942
409.50 0.9926
409.60 0.9906
409.70 0.9875
409.80 0.9837
409.90 0.9791
410.00 0.9726
410.10 0.9663
410.20 0.9604
410.30 0.9692
410.40 0.9766
410.50 0.9827
410.60 0.9869
410.70 0.9904
410.80 0.9932
410.90 0.9951
411.00 0.9968
411.10 0.9981
411.20 0.9991
411.30 1
411.40 1.001
411.50 1.001
411.60 1.002
411.70 1.002
411.80 1.003
411.90 1.003
412.00 1.003
412.10 1.004
412.20 1.004
412.30 1.004
412.40 1.004
412.50 1.004
412.60 1.005
412.70 1.005
412.80 1.005
412.90 1.005
413.00 1.005
413.10 1.005
413.20 1.006
413.30 1.006
413.40 1.006
413.50 1.006
413.60 1.006
413.70 1.006
413.80 1.006
413.90 1.006
414.00 1.007
414.10 1.007
414.20 1.007
414.30 1.007
414.40 1.007
414.50 1.007
414.60 1.007
414.70 1.007
414.80 1.007
414.90 1.008
415.00 1.008
415.10 1.008
415.20 1.008
415.30 1.008
415.40 1.008
415.50 1.008
415.60 1.008
415.70 1.008
415.80 1.008
415.90 1.009
416.00 1.009
416.10 1.009
416.20 1.009
416.30 1.009
416.40 1.009
416.50 1.009
416.60 1.009
416.70 1.009
416.80 1.009
416.90 1.009
417.00 1.01
417.10 1.01
417.20 1.01
417.30 1.01
417.40 1.01
417.50 1.01
417.60 1.01
417.70 1.01
417.80 1.01
417.90 1.01
418.00 1.01
418.10 1.011
418.20 1.011
418.30 1.011
418.40 1.011
418.50 1.011
418.60 1.011
418.70 1.011
418.80 1.011
418.90 1.011
419.00 1.011
419.10 1.011
419.20 1.011
419.30 1.011
419.40 1.012
419.50 1.012
419.60 1.012
419.70 1.012
419.80 1.012
419.90 1.012
420.00 1.012
420.10 1.012
420.20 1.012
420.30 1.012
420.40 1.012
420.50 1.012
420.60 1.012
420.70 1.013
420.80 1.013
420.90 1.013
421.00 1.013
421.10 1.013
421.20 1.013
421.30 1.013
421.40 1.013
421.50 1.013
421.60 1.013
421.70 1.013
421.80 1.013
421.90 1.013
422.00 1.013
422.10 1.014
422.20 1.014
422.30 1.014
422.40 1.014
422.50 1.014
422.60 1.014
422.70 1.014
422.80 1.014
422.90 1.014
423.00 1.014
423.10 1.014
423.20 1.014
423.30 1.014
423.40 1.014
423.50 1.015
423.60 1.015
423.70 1.015
423.80 1.015
423.90 1.015
424.00 1.015
424.10 1.015
424.20 1.015
424.30 1.015
424.40 1.015
424.50 1.015
424.60 1.015
424.70 1.015
424.80 1.015
424.90 1.015
425.00 1.015
425.10 1.015
425.20 1.016
425.30 1.016
425.40 1.016
425.50 1.016
425.60 1.016
425.70 1.016
425.80 1.016
425.90 1.016
426.00 1.016
426.10 1.016
426.20 1.016
426.30 1.016
426.40 1.016
426.50 1.016
426.60 1.016
426.70 1.016
426.80 1.016
426.90 1.016
427.00 1.017
427.10 1.017
427.20 1.017
427.30 1.017
427.40 1.017
427.50 1.017
427.60 1.017
427.70 1.017
427.80 1.017
427.90 1.017
428.00 1.017
428.10 1.017
428.20 1.017
428.30 1.017
428.40 1.017
428.50 1.017
428.60 1.017
428.70 1.017
428.80 1.017
428.90 1.017
429.00 1.017
429.10 1.017
429.20 1.017
429.30 1.017
429.40 1.018
429.50 1.018
429.60 1.018
429.70 1.018
429.80 1.018
429.90 1.018
430.00 1.018
430.10 1.018
430.20 1.018
430.30 1.018
430.40 1.018
430.50 1.018
430.60 1.018
430.70 1.018
430.80 1.018
430.90 1.018
431.00 1.018
431.10 1.018
431.20 1.017
431.30 1.017
431.40 1.017
431.50 1.017
431.60 1.017
431.70 1.017
431.80 1.017
431.90 1.017
432.00 1.016
432.10 1.016
432.20 1.016
432.30 1.016
432.40 1.015
432.50 1.015
432.60 1.014
432.70 1.013
432.80 1.012
432.90 1.011
433.00 1.01
433.10 1.008
433.20 1.006
433.30 1.003
433.40 0.9985
433.50 0.993
433.60 0.9863
433.70 0.9755
433.80 0.9616
433.90 0.9446
434.00 0.9189
434.10 0.9195
434.20 0.9465
434.30 0.9632
434.40 0.9768
434.50 0.9875
434.60 0.9941
434.70 0.9995
434.80 1.004
434.90 1.007
435.00 1.009
435.10 1.011
435.20 1.012
435.30 1.013
435.40 1.015
435.50 1.015
435.60 1.016
435.70 1.017
435.80 1.017
435.90 1.017
436.00 1.018
436.10 1.018
436.20 1.018
436.30 1.019
436.40 1.019
436.50 1.019
436.60 1.019
436.70 1.019
436.80 1.02
436.90 1.02
437.00 1.02
437.10 1.02
437.20 1.02
437.30 1.02
437.40 1.02
437.50 1.02
437.60 1.02
437.70 1.021
437.80 1.021
437.90 1.021
438.00 1.021
438.10 1.021
438.20 1.021
438.30 1.021
438.40 1.021
438.50 1.021
438.60 1.021
438.70 1.021
438.80 1.021
438.90 1.021
439.00 1.021
439.10 1.021
439.20 1.021
439.30 1.021
439.40 1.021
439.50 1.021
439.60 1.022
439.70 1.022
439.80 1.022
439.90 1.022
440.00 1.022
440.10 1.022
440.20 1.022
440.30 1.022
440.40 1.022
440.50 1.022
440.60 1.022
440.70 1.022
440.80 1.022
440.90 1.022
441.00 1.022
441.10 1.022
441.20 1.022
441.30 1.022
441.40 1.022
441.50 1.022
441.60 1.022
441.70 1.022
441.80 1.022
441.90 1.022
442.00 1.022
442.10 1.022
442.20 1.022
442.30 1.022
442.40 1.022
442.50 1.022
442.60 1.022
442.70 1.022
442.80 1.022
442.90 1.022
443.00 1.022
443.10 1.022
443.20 1.022
443.30 1.022
443.40 1.023
443.50 1.023
443.60 1.023
443.70 1.023
443.80 1.023
443.90 1.023
444.00 1.023
444.10 1.023
444.20 1.023
444.30 1.023
444.40 1.023
444.50 1.023
444.60 1.023
444.70 1.023
444.80 1.023
444.90 1.023
445.00 1.023
445.10 1.023
445.20 1.023
445.30 1.023
