# Version 2.1 - nm, norm@500 to 1, cut digits, bergeron_3250_85.dat_3250
# Wavelength(nm)  Flambda(ergs/cm^s/s/nm)
300.00 0.1295
300.10 0.1297
300.20 0.13
300.30 0.1303
300.40 0.1306
300.50 0.1309
300.60 0.1312
300.70 0.1314
300.80 0.1317
300.90 0.132
301.00 0.1323
301.10 0.1326
301.20 0.1328
301.30 0.1331
301.40 0.1334
301.50 0.1337
301.60 0.134
301.70 0.1342
301.80 0.1345
301.90 0.1348
302.00 0.1351
302.10 0.1354
302.20 0.1357
302.30 0.136
302.40 0.1362
302.50 0.1365
302.60 0.1368
302.70 0.1371
302.80 0.1374
302.90 0.1377
303.00 0.138
303.10 0.1383
303.20 0.1386
303.30 0.1388
303.40 0.1391
303.50 0.1394
303.60 0.1397
303.70 0.14
303.80 0.1403
303.90 0.1406
304.00 0.1408
304.10 0.1411
304.20 0.1414
304.30 0.1417
304.40 0.142
304.50 0.1423
304.60 0.1426
304.70 0.1429
304.80 0.1432
304.90 0.1435
305.00 0.1438
305.10 0.1441
305.20 0.1444
305.30 0.1447
305.40 0.145
305.50 0.1453
305.60 0.1456
305.70 0.1459
305.80 0.1462
305.90 0.1464
306.00 0.1467
306.10 0.147
306.20 0.1473
306.30 0.1477
306.40 0.148
306.50 0.1483
306.60 0.1486
306.70 0.1489
306.80 0.1492
306.90 0.1495
307.00 0.1498
307.10 0.1501
307.20 0.1504
307.30 0.1507
307.40 0.151
307.50 0.1513
307.60 0.1516
307.70 0.1519
307.80 0.1522
307.90 0.1525
308.00 0.1528
308.10 0.1531
308.20 0.1534
308.30 0.1537
308.40 0.154
308.50 0.1543
308.60 0.1546
308.70 0.1549
308.80 0.1552
308.90 0.1556
309.00 0.1559
309.10 0.1562
309.20 0.1565
309.30 0.1568
309.40 0.1571
309.50 0.1574
309.60 0.1577
309.70 0.158
309.80 0.1583
309.90 0.1586
310.00 0.1589
310.10 0.1592
310.20 0.1596
310.30 0.1599
310.40 0.1602
310.50 0.1605
310.60 0.1608
310.70 0.1611
310.80 0.1615
310.90 0.1618
311.00 0.1621
311.10 0.1624
311.20 0.1627
311.30 0.163
311.40 0.1633
311.50 0.1637
311.60 0.164
311.70 0.1643
311.80 0.1646
311.90 0.1649
312.00 0.1652
312.10 0.1655
312.20 0.1658
312.30 0.1662
312.40 0.1665
312.50 0.1668
312.60 0.1671
312.70 0.1675
312.80 0.1678
312.90 0.1681
313.00 0.1684
313.10 0.1687
313.20 0.1691
313.30 0.1694
313.40 0.1697
313.50 0.17
313.60 0.1703
313.70 0.1707
313.80 0.171
313.90 0.1713
314.00 0.1716
314.10 0.1719
314.20 0.1723
314.30 0.1726
314.40 0.1729
314.50 0.1733
314.60 0.1736
314.70 0.1739
314.80 0.1742
314.90 0.1746
315.00 0.1749
315.10 0.1752
315.20 0.1756
315.30 0.1759
315.40 0.1762
315.50 0.1765
315.60 0.1769
315.70 0.1772
315.80 0.1775
315.90 0.1778
316.00 0.1782
316.10 0.1785
316.20 0.1788
316.30 0.1792
316.40 0.1795
316.50 0.1798
316.60 0.1802
316.70 0.1805
316.80 0.1808
316.90 0.1812
317.00 0.1815
317.10 0.1818
317.20 0.1822
317.30 0.1825
317.40 0.1828
317.50 0.1832
317.60 0.1835
317.70 0.1838
317.80 0.1842
317.90 0.1845
318.00 0.1848
318.10 0.1852
318.20 0.1855
318.30 0.1858
318.40 0.1862
318.50 0.1865
318.60 0.1869
318.70 0.1872
318.80 0.1876
318.90 0.1879
319.00 0.1882
319.10 0.1886
319.20 0.1889
319.30 0.1892
319.40 0.1896
319.50 0.1899
319.60 0.1903
319.70 0.1906
319.80 0.1909
319.90 0.1913
320.00 0.1916
320.10 0.192
320.20 0.1923
320.30 0.1926
320.40 0.193
320.50 0.1933
320.60 0.1937
320.70 0.194
320.80 0.1944
320.90 0.1947
321.00 0.1951
321.10 0.1954
321.20 0.1958
321.30 0.1961
321.40 0.1965
321.50 0.1968
321.60 0.1971
321.70 0.1975
321.80 0.1978
321.90 0.1982
322.00 0.1985
322.10 0.1989
322.20 0.1992
322.30 0.1996
322.40 0.1999
322.50 0.2003
322.60 0.2006
322.70 0.201
322.80 0.2013
322.90 0.2017
323.00 0.202
323.10 0.2024
323.20 0.2028
323.30 0.2031
323.40 0.2035
323.50 0.2038
323.60 0.2041
323.70 0.2045
323.80 0.2048
323.90 0.2052
324.00 0.2055
324.10 0.2059
324.20 0.2063
324.30 0.2066
324.40 0.207
324.50 0.2073
324.60 0.2077
324.70 0.2081
324.80 0.2084
324.90 0.2088
325.00 0.2091
325.10 0.2095
325.20 0.2099
325.30 0.2102
325.40 0.2106
325.50 0.2109
325.60 0.2113
325.70 0.2116
325.80 0.212
325.90 0.2123
326.00 0.2127
326.10 0.2131
326.20 0.2134
326.30 0.2138
326.40 0.2142
326.50 0.2145
326.60 0.2149
326.70 0.2152
326.80 0.2156
326.90 0.216
327.00 0.2163
327.10 0.2167
327.20 0.2171
327.30 0.2174
327.40 0.2178
327.50 0.2182
327.60 0.2185
327.70 0.2189
327.80 0.2192
327.90 0.2196
328.00 0.22
328.10 0.2203
328.20 0.2207
328.30 0.2211
328.40 0.2214
328.50 0.2218
328.60 0.2222
328.70 0.2226
328.80 0.2229
328.90 0.2233
329.00 0.2237
329.10 0.224
329.20 0.2244
329.30 0.2248
329.40 0.2251
329.50 0.2255
329.60 0.2259
329.70 0.2262
329.80 0.2266
329.90 0.227
330.00 0.2273
330.10 0.2277
330.20 0.2281
330.30 0.2285
330.40 0.2288
330.50 0.2292
330.60 0.2296
330.70 0.23
330.80 0.2303
330.90 0.2307
331.00 0.2311
331.10 0.2315
331.20 0.2318
331.30 0.2322
331.40 0.2326
331.50 0.233
331.60 0.2333
331.70 0.2337
331.80 0.2341
331.90 0.2344
332.00 0.2348
332.10 0.2352
332.20 0.2356
332.30 0.236
332.40 0.2364
332.50 0.2367
332.60 0.2371
332.70 0.2375
332.80 0.2379
332.90 0.2383
333.00 0.2386
333.10 0.239
333.20 0.2394
333.30 0.2398
333.40 0.2402
333.50 0.2405
333.60 0.2409
333.70 0.2413
333.80 0.2417
333.90 0.242
334.00 0.2424
334.10 0.2428
334.20 0.2432
334.30 0.2436
334.40 0.244
334.50 0.2444
334.60 0.2447
334.70 0.2451
334.80 0.2455
334.90 0.2459
335.00 0.2463
335.10 0.2467
335.20 0.2471
335.30 0.2474
335.40 0.2478
335.50 0.2482
335.60 0.2486
335.70 0.249
335.80 0.2494
335.90 0.2497
336.00 0.2501
336.10 0.2505
336.20 0.2509
336.30 0.2513
336.40 0.2517
336.50 0.2521
336.60 0.2525
336.70 0.2529
336.80 0.2533
336.90 0.2537
337.00 0.254
337.10 0.2544
337.20 0.2548
337.30 0.2552
337.40 0.2556
337.50 0.256
337.60 0.2564
337.70 0.2568
337.80 0.2572
337.90 0.2575
338.00 0.2579
338.10 0.2583
338.20 0.2587
338.30 0.2591
338.40 0.2595
338.50 0.2599
338.60 0.2603
338.70 0.2607
338.80 0.2611
338.90 0.2615
339.00 0.2619
339.10 0.2623
339.20 0.2627
339.30 0.2631
339.40 0.2635
339.50 0.2639
339.60 0.2643
339.70 0.2647
339.80 0.2651
339.90 0.2655
340.00 0.2658
340.10 0.2663
340.20 0.2667
340.30 0.2671
340.40 0.2675
340.50 0.2679
340.60 0.2683
340.70 0.2687
340.80 0.2691
340.90 0.2695
341.00 0.2699
341.10 0.2703
341.20 0.2707
341.30 0.2711
341.40 0.2715
341.50 0.2719
341.60 0.2723
341.70 0.2727
341.80 0.2731
341.90 0.2735
342.00 0.2739
342.10 0.2743
342.20 0.2747
342.30 0.2751
342.40 0.2755
342.50 0.2759
342.60 0.2763
342.70 0.2767
342.80 0.2771
342.90 0.2775
343.00 0.2779
343.10 0.2783
343.20 0.2788
343.30 0.2792
343.40 0.2796
343.50 0.28
343.60 0.2804
343.70 0.2808
343.80 0.2812
343.90 0.2816
344.00 0.282
344.10 0.2824
344.20 0.2828
344.30 0.2832
344.40 0.2836
344.50 0.284
344.60 0.2845
344.70 0.2849
344.80 0.2853
344.90 0.2857
345.00 0.2861
345.10 0.2865
345.20 0.2869
345.30 0.2873
345.40 0.2877
345.50 0.2881
345.60 0.2886
345.70 0.289
345.80 0.2894
345.90 0.2898
346.00 0.2902
346.10 0.2906
346.20 0.291
346.30 0.2914
346.40 0.2919
346.50 0.2923
346.60 0.2927
346.70 0.2931
346.80 0.2935
346.90 0.2939
347.00 0.2944
347.10 0.2948
347.20 0.2952
347.30 0.2956
347.40 0.296
347.50 0.2964
347.60 0.2968
347.70 0.2972
347.80 0.2977
347.90 0.2981
348.00 0.2985
348.10 0.2989
348.20 0.2993
348.30 0.2998
348.40 0.3002
348.50 0.3006
348.60 0.301
348.70 0.3014
348.80 0.3019
348.90 0.3023
349.00 0.3027
349.10 0.3031
349.20 0.3035
349.30 0.304
349.40 0.3044
349.50 0.3048
349.60 0.3052
349.70 0.3056
349.80 0.306
349.90 0.3065
350.00 0.3069
350.10 0.3073
350.20 0.3077
350.30 0.3082
350.40 0.3086
350.50 0.309
350.60 0.3094
350.70 0.3099
350.80 0.3103
350.90 0.3107
351.00 0.3111
351.10 0.3116
351.20 0.312
351.30 0.3124
351.40 0.3128
351.50 0.3133
351.60 0.3137
351.70 0.3141
351.80 0.3145
351.90 0.3149
352.00 0.3154
352.10 0.3158
352.20 0.3162
352.30 0.3166
352.40 0.3171
352.50 0.3175
352.60 0.3179
352.70 0.3184
352.80 0.3188
352.90 0.3192
353.00 0.3197
353.10 0.3201
353.20 0.3205
353.30 0.3209
353.40 0.3214
353.50 0.3218
353.60 0.3222
353.70 0.3226
353.80 0.3231
353.90 0.3235
354.00 0.3239
354.10 0.3244
354.20 0.3248
354.30 0.3252
354.40 0.3257
354.50 0.3261
354.60 0.3265
354.70 0.327
354.80 0.3274
354.90 0.3278
355.00 0.3283
355.10 0.3287
355.20 0.3291
355.30 0.3296
355.40 0.33
355.50 0.3304
355.60 0.3309
355.70 0.3313
355.80 0.3317
355.90 0.3321
356.00 0.3326
356.10 0.333
356.20 0.3334
356.30 0.3339
356.40 0.3343
356.50 0.3348
356.60 0.3352
356.70 0.3356
356.80 0.3361
356.90 0.3365
357.00 0.337
357.10 0.3374
357.20 0.3378
357.30 0.3383
357.40 0.3387
357.50 0.3391
357.60 0.3396
357.70 0.34
357.80 0.3404
357.90 0.3409
358.00 0.3413
358.10 0.3417
358.20 0.3422
358.30 0.3426
358.40 0.3431
358.50 0.3435
358.60 0.344
358.70 0.3444
358.80 0.3448
358.90 0.3453
359.00 0.3457
359.10 0.3462
359.20 0.3466
359.30 0.347
359.40 0.3475
359.50 0.3479
359.60 0.3483
359.70 0.3488
359.80 0.3492
359.90 0.3497
360.00 0.3501
360.10 0.3505
360.20 0.351
360.30 0.3514
360.40 0.3519
360.50 0.3523
360.60 0.3528
360.70 0.3532
360.80 0.3537
360.90 0.3541
361.00 0.3546
361.10 0.355
361.20 0.3554
361.30 0.3559
361.40 0.3563
361.50 0.3568
361.60 0.3572
361.70 0.3577
361.80 0.3581
361.90 0.3585
362.00 0.359
362.10 0.3594
362.20 0.3599
362.30 0.3603
362.40 0.3608
362.50 0.3612
362.60 0.3617
362.70 0.3621
362.80 0.3625
362.90 0.363
363.00 0.3634
363.10 0.3639
363.20 0.3643
363.30 0.3648
363.40 0.3652
363.50 0.3657
363.60 0.3661
363.70 0.3666
363.80 0.367
363.90 0.3675
364.00 0.3679
364.10 0.3684
364.20 0.3688
364.30 0.3693
364.40 0.3697
364.50 0.3702
364.60 0.3706
364.70 0.3711
364.80 0.3715
364.90 0.372
365.00 0.3724
365.10 0.3729
365.20 0.3733
365.30 0.3738
365.40 0.3742
365.50 0.3747
365.60 0.3752
365.70 0.3756
365.80 0.3761
365.90 0.3765
366.00 0.377
366.10 0.3774
366.20 0.3779
366.30 0.3783
366.40 0.3788
366.50 0.3792
366.60 0.3797
366.70 0.3802
366.80 0.3806
366.90 0.3811
367.00 0.3815
367.10 0.382
367.20 0.3824
367.30 0.3829
367.40 0.3833
367.50 0.3838
367.60 0.3842
367.70 0.3847
367.80 0.3851
367.90 0.3856
368.00 0.386
368.10 0.3865
368.20 0.387
368.30 0.3874
368.40 0.3879
368.50 0.3883
368.60 0.3888
368.70 0.3893
368.80 0.3897
368.90 0.3902
369.00 0.3906
369.10 0.3911
369.20 0.3915
369.30 0.392
369.40 0.3925
369.50 0.3929
369.60 0.3934
369.70 0.3938
369.80 0.3943
369.90 0.3947
370.00 0.3952
370.10 0.3956
370.20 0.3961
370.30 0.3966
370.40 0.397
370.50 0.3975
370.60 0.398
370.70 0.3984
370.80 0.3989
370.90 0.3993
371.00 0.3998
371.10 0.4003
371.20 0.4007
371.30 0.4012
371.40 0.4016
371.50 0.4021
371.60 0.4025
371.70 0.403
371.80 0.4035
371.90 0.4039
372.00 0.4044
372.10 0.4048
372.20 0.4053
372.30 0.4058
372.40 0.4062
372.50 0.4067
372.60 0.4072
372.70 0.4076
372.80 0.4081
372.90 0.4086
373.00 0.409
373.10 0.4095
373.20 0.41
373.30 0.4104
373.40 0.4109
373.50 0.4113
373.60 0.4118
373.70 0.4123
373.80 0.4127
373.90 0.4132
374.00 0.4136
374.10 0.4141
374.20 0.4146
374.30 0.415
374.40 0.4155
374.50 0.416
374.60 0.4164
374.70 0.4169
374.80 0.4174
374.90 0.4178
375.00 0.4183
375.10 0.4188
375.20 0.4192
375.30 0.4197
375.40 0.4202
375.50 0.4206
375.60 0.4211
375.70 0.4216
375.80 0.422
375.90 0.4225
376.00 0.4229
376.10 0.4234
376.20 0.4239
376.30 0.4244
376.40 0.4248
376.50 0.4253
376.60 0.4258
376.70 0.4262
376.80 0.4267
376.90 0.4272
377.00 0.4276
377.10 0.4281
377.20 0.4286
377.30 0.4291
377.40 0.4295
377.50 0.43
377.60 0.4305
377.70 0.4309
377.80 0.4314
377.90 0.4319
378.00 0.4323
378.10 0.4328
378.20 0.4333
378.30 0.4337
378.40 0.4342
378.50 0.4347
378.60 0.4352
378.70 0.4356
378.80 0.4361
378.90 0.4366
379.00 0.437
379.10 0.4375
379.20 0.438
379.30 0.4384
379.40 0.4389
379.50 0.4394
379.60 0.4399
379.70 0.4403
379.80 0.4408
379.90 0.4413
380.00 0.4417
380.10 0.4422
380.20 0.4427
380.30 0.4432
380.40 0.4436
380.50 0.4441
380.60 0.4446
380.70 0.445
380.80 0.4455
380.90 0.446
381.00 0.4465
381.10 0.4469
381.20 0.4474
381.30 0.4479
381.40 0.4484
381.50 0.4488
381.60 0.4493
381.70 0.4498
381.80 0.4503
381.90 0.4507
382.00 0.4512
382.10 0.4517
382.20 0.4522
382.30 0.4526
382.40 0.4531
382.50 0.4536
382.60 0.4541
382.70 0.4545
382.80 0.455
382.90 0.4555
383.00 0.456
383.10 0.4564
383.20 0.4569
383.30 0.4574
383.40 0.4579
383.50 0.4583
383.60 0.4588
383.70 0.4593
383.80 0.4597
383.90 0.4602
384.00 0.4607
384.10 0.4612
384.20 0.4616
384.30 0.4621
384.40 0.4626
384.50 0.4631
384.60 0.4636
384.70 0.464
384.80 0.4645
384.90 0.465
385.00 0.4655
385.10 0.466
385.20 0.4664
385.30 0.4669
385.40 0.4674
385.50 0.4679
385.60 0.4683
385.70 0.4688
385.80 0.4693
385.90 0.4698
386.00 0.4703
386.10 0.4707
386.20 0.4712
386.30 0.4717
386.40 0.4722
386.50 0.4726
386.60 0.4731
386.70 0.4736
386.80 0.4741
386.90 0.4746
387.00 0.475
387.10 0.4755
387.20 0.476
387.30 0.4765
387.40 0.477
387.50 0.4774
387.60 0.4779
387.70 0.4784
387.80 0.4789
387.90 0.4794
388.00 0.4798
388.10 0.4803
388.20 0.4808
388.30 0.4813
388.40 0.4818
388.50 0.4822
388.60 0.4827
388.70 0.4832
388.80 0.4837
388.90 0.4842
389.00 0.4846
389.10 0.4851
389.20 0.4856
389.30 0.4861
389.40 0.4866
389.50 0.4871
389.60 0.4875
389.70 0.488
389.80 0.4885
389.90 0.489
390.00 0.4895
390.10 0.4899
390.20 0.4904
390.30 0.4909
390.40 0.4914
390.50 0.4919
390.60 0.4923
390.70 0.4928
390.80 0.4933
390.90 0.4938
391.00 0.4943
391.10 0.4948
391.20 0.4952
391.30 0.4957
391.40 0.4962
391.50 0.4967
391.60 0.4972
391.70 0.4977
391.80 0.4981
391.90 0.4986
392.00 0.4991
392.10 0.4996
392.20 0.5001
392.30 0.5006
392.40 0.501
392.50 0.5015
392.60 0.502
392.70 0.5025
392.80 0.503
392.90 0.5035
393.00 0.5039
393.10 0.5044
393.20 0.5049
393.30 0.5054
393.40 0.5059
393.50 0.5064
393.60 0.5068
393.70 0.5073
393.80 0.5078
393.90 0.5083
394.00 0.5088
394.10 0.5092
394.20 0.5097
394.30 0.5102
394.40 0.5107
394.50 0.5112
394.60 0.5117
394.70 0.5122
394.80 0.5127
394.90 0.5131
395.00 0.5136
395.10 0.5141
395.20 0.5146
395.30 0.5151
395.40 0.5156
395.50 0.5161
395.60 0.5165
395.70 0.517
395.80 0.5175
395.90 0.518
396.00 0.5185
396.10 0.519
396.20 0.5194
396.30 0.5199
396.40 0.5204
396.50 0.5209
396.60 0.5214
396.70 0.5219
396.80 0.5224
396.90 0.5228
397.00 0.5233
397.10 0.5238
397.20 0.5243
397.30 0.5248
397.40 0.5253
397.50 0.5258
397.60 0.5263
397.70 0.5267
397.80 0.5272
397.90 0.5277
398.00 0.5282
398.10 0.5287
398.20 0.5292
398.30 0.5297
398.40 0.5301
398.50 0.5306
398.60 0.5311
398.70 0.5316
398.80 0.5321
398.90 0.5326
399.00 0.5331
399.10 0.5336
399.20 0.5341
399.30 0.5345
399.40 0.535
399.50 0.5355
399.60 0.536
399.70 0.5365
399.80 0.537
399.90 0.5375
400.00 0.538
400.10 0.5384
400.20 0.5389
400.30 0.5394
400.40 0.5399
400.50 0.5404
400.60 0.5409
400.70 0.5414
400.80 0.5418
400.90 0.5424
401.00 0.5428
401.10 0.5433
401.20 0.5438
401.30 0.5443
401.40 0.5448
401.50 0.5453
401.60 0.5458
401.70 0.5462
401.80 0.5467
401.90 0.5472
402.00 0.5477
402.10 0.5482
402.20 0.5487
402.30 0.5492
402.40 0.5497
402.50 0.5502
402.60 0.5507
402.70 0.5511
402.80 0.5516
402.90 0.5521
403.00 0.5526
403.10 0.5531
403.20 0.5536
403.30 0.5541
403.40 0.5546
403.50 0.555
403.60 0.5555
403.70 0.556
403.80 0.5565
403.90 0.557
404.00 0.5575
404.10 0.558
404.20 0.5585
404.30 0.559
404.40 0.5595
404.50 0.5599
404.60 0.5604
404.70 0.5609
404.80 0.5614
404.90 0.5619
405.00 0.5624
405.10 0.5629
405.20 0.5634
405.30 0.5639
405.40 0.5643
405.50 0.5648
405.60 0.5653
405.70 0.5658
405.80 0.5663
405.90 0.5668
406.00 0.5673
406.10 0.5678
406.20 0.5683
406.30 0.5687
406.40 0.5692
406.50 0.5697
406.60 0.5702
406.70 0.5707
406.80 0.5712
406.90 0.5717
407.00 0.5722
407.10 0.5727
407.20 0.5732
407.30 0.5736
407.40 0.5741
407.50 0.5746
407.60 0.5751
407.70 0.5756
407.80 0.5761
407.90 0.5766
408.00 0.5771
408.10 0.5776
408.20 0.5781
408.30 0.5786
408.40 0.579
408.50 0.5795
408.60 0.58
408.70 0.5805
408.80 0.581
408.90 0.5815
409.00 0.582
409.10 0.5825
409.20 0.583
409.30 0.5834
409.40 0.5839
409.50 0.5844
409.60 0.5849
409.70 0.5854
409.80 0.5859
409.90 0.5864
410.00 0.5869
410.10 0.5874
410.20 0.5879
410.30 0.5884
410.40 0.5888
410.50 0.5893
410.60 0.5898
410.70 0.5903
410.80 0.5908
410.90 0.5913
411.00 0.5918
411.10 0.5923
411.20 0.5928
411.30 0.5933
411.40 0.5938
411.50 0.5942
411.60 0.5947
411.70 0.5952
411.80 0.5957
411.90 0.5962
412.00 0.5967
412.10 0.5972
412.20 0.5977
412.30 0.5982
412.40 0.5987
412.50 0.5991
412.60 0.5996
412.70 0.6001
412.80 0.6006
412.90 0.6011
413.00 0.6016
413.10 0.6021
413.20 0.6026
413.30 0.6031
413.40 0.6036
413.50 0.6041
413.60 0.6046
413.70 0.605
413.80 0.6055
413.90 0.606
414.00 0.6065
414.10 0.607
414.20 0.6075
414.30 0.608
414.40 0.6085
414.50 0.609
414.60 0.6095
414.70 0.6099
414.80 0.6104
414.90 0.6109
415.00 0.6114
415.10 0.6119
415.20 0.6124
415.30 0.6129
415.40 0.6134
415.50 0.6139
415.60 0.6144
415.70 0.6149
415.80 0.6153
415.90 0.6158
416.00 0.6163
416.10 0.6168
416.20 0.6173
416.30 0.6178
416.40 0.6183
416.50 0.6188
416.60 0.6193
416.70 0.6198
416.80 0.6202
416.90 0.6207
417.00 0.6212
417.10 0.6217
417.20 0.6222
417.30 0.6227
417.40 0.6232
417.50 0.6237
417.60 0.6242
417.70 0.6247
417.80 0.6251
417.90 0.6256
418.00 0.6261
418.10 0.6266
418.20 0.6271
418.30 0.6276
418.40 0.6281
418.50 0.6286
418.60 0.6291
418.70 0.6296
418.80 0.63
418.90 0.6305
419.00 0.631
419.10 0.6315
419.20 0.632
419.30 0.6325
419.40 0.633
419.50 0.6335
419.60 0.634
419.70 0.6345
419.80 0.635
419.90 0.6354
420.00 0.6359
420.10 0.6364
420.20 0.6369
420.30 0.6374
420.40 0.6379
420.50 0.6384
420.60 0.6389
420.70 0.6394
420.80 0.6399
420.90 0.6404
421.00 0.6408
421.10 0.6413
421.20 0.6418
421.30 0.6423
421.40 0.6428
421.50 0.6433
421.60 0.6438
421.70 0.6443
421.80 0.6447
421.90 0.6452
422.00 0.6457
422.10 0.6462
422.20 0.6467
422.30 0.6472
422.40 0.6477
422.50 0.6482
422.60 0.6487
422.70 0.6492
422.80 0.6496
422.90 0.6501
423.00 0.6506
423.10 0.6511
423.20 0.6516
423.30 0.6521
423.40 0.6526
423.50 0.6531
423.60 0.6535
423.70 0.654
423.80 0.6545
423.90 0.655
424.00 0.6555
424.10 0.656
424.20 0.6565
424.30 0.657
424.40 0.6575
424.50 0.658
424.60 0.6584
424.70 0.6589
424.80 0.6594
424.90 0.6599
425.00 0.6604
425.10 0.6609
425.20 0.6614
425.30 0.6619
425.40 0.6624
425.50 0.6628
425.60 0.6633
425.70 0.6638
425.80 0.6643
425.90 0.6648
426.00 0.6653
426.10 0.6658
426.20 0.6663
426.30 0.6668
426.40 0.6672
426.50 0.6677
426.60 0.6682
426.70 0.6687
426.80 0.6692
426.90 0.6697
427.00 0.6702
427.10 0.6707
427.20 0.6711
427.30 0.6716
427.40 0.6721
427.50 0.6726
427.60 0.6731
427.70 0.6736
427.80 0.6741
427.90 0.6746
428.00 0.675
428.10 0.6755
428.20 0.676
428.30 0.6765
428.40 0.677
428.50 0.6775
428.60 0.678
428.70 0.6785
428.80 0.6789
428.90 0.6794
429.00 0.6799
429.10 0.6804
429.20 0.6809
429.30 0.6814
429.40 0.6819
429.50 0.6824
429.60 0.6828
429.70 0.6833
429.80 0.6838
429.90 0.6843
430.00 0.6848
430.10 0.6853
430.20 0.6858
430.30 0.6862
430.40 0.6867
430.50 0.6872
430.60 0.6877
430.70 0.6882
430.80 0.6887
430.90 0.6892
431.00 0.6896
431.10 0.6901
431.20 0.6906
431.30 0.6911
431.40 0.6916
431.50 0.6921
431.60 0.6926
431.70 0.6931
431.80 0.6935
431.90 0.694
432.00 0.6945
432.10 0.695
432.20 0.6955
432.30 0.696
432.40 0.6965
432.50 0.6969
432.60 0.6974
432.70 0.6979
432.80 0.6984
432.90 0.6989
433.00 0.6993
433.10 0.6998
433.20 0.7003
433.30 0.7008
433.40 0.7013
433.50 0.7018
433.60 0.7023
433.70 0.7027
433.80 0.7032
433.90 0.7037
434.00 0.7042
434.10 0.7047
434.20 0.7052
434.30 0.7057
434.40 0.7061
434.50 0.7066
434.60 0.7071
434.70 0.7076
434.80 0.7081
434.90 0.7086
435.00 0.709
435.10 0.7095
435.20 0.71
435.30 0.7105
435.40 0.711
435.50 0.7115
435.60 0.7119
435.70 0.7124
435.80 0.7129
435.90 0.7134
436.00 0.7139
436.10 0.7144
436.20 0.7149
436.30 0.7153
436.40 0.7158
436.50 0.7163
436.60 0.7168
436.70 0.7173
436.80 0.7177
436.90 0.7182
437.00 0.7187
437.10 0.7192
437.20 0.7197
437.30 0.7202
437.40 0.7206
437.50 0.7211
437.60 0.7216
437.70 0.7221
437.80 0.7226
437.90 0.7231
438.00 0.7235
438.10 0.724
438.20 0.7245
438.30 0.725
438.40 0.7254
438.50 0.7259
438.60 0.7264
438.70 0.7269
438.80 0.7274
438.90 0.7279
439.00 0.7283
439.10 0.7288
439.20 0.7293
439.30 0.7298
439.40 0.7303
439.50 0.7307
439.60 0.7312
439.70 0.7317
439.80 0.7322
439.90 0.7327
440.00 0.7331
440.10 0.7336
440.20 0.7341
440.30 0.7346
440.40 0.7351
440.50 0.7356
440.60 0.736
440.70 0.7365
440.80 0.737
440.90 0.7375
441.00 0.738
441.10 0.7384
441.20 0.7389
441.30 0.7394
441.40 0.7399
441.50 0.7403
441.60 0.7408
441.70 0.7413
441.80 0.7418
441.90 0.7423
442.00 0.7427
442.10 0.7432
442.20 0.7437
442.30 0.7442
442.40 0.7446
442.50 0.7451
442.60 0.7456
442.70 0.7461
442.80 0.7466
442.90 0.747
443.00 0.7475
