# Version 2.1 - nm, norm@500 to 1, cut digits, bergeron_4250_90.dat_4250
# Wavelength(nm)  Flambda(ergs/cm^s/s/nm)
300.00 0.2376
300.10 0.238
300.20 0.2384
300.30 0.2388
300.40 0.2391
300.50 0.2395
300.60 0.2399
300.70 0.2403
300.80 0.2407
300.90 0.241
301.00 0.2414
301.10 0.2418
301.20 0.2422
301.30 0.2426
301.40 0.2429
301.50 0.2433
301.60 0.2437
301.70 0.2441
301.80 0.2445
301.90 0.2448
302.00 0.2452
302.10 0.2456
302.20 0.246
302.30 0.2464
302.40 0.2468
302.50 0.2472
302.60 0.2475
302.70 0.2479
302.80 0.2483
302.90 0.2487
303.00 0.2491
303.10 0.2495
303.20 0.2499
303.30 0.2502
303.40 0.2506
303.50 0.251
303.60 0.2514
303.70 0.2518
303.80 0.2522
303.90 0.2525
304.00 0.2529
304.10 0.2533
304.20 0.2537
304.30 0.2541
304.40 0.2545
304.50 0.2549
304.60 0.2553
304.70 0.2557
304.80 0.2561
304.90 0.2564
305.00 0.2568
305.10 0.2572
305.20 0.2576
305.30 0.258
305.40 0.2584
305.50 0.2588
305.60 0.2592
305.70 0.2595
305.80 0.2599
305.90 0.2603
306.00 0.2607
306.10 0.2611
306.20 0.2615
306.30 0.2619
306.40 0.2623
306.50 0.2627
306.60 0.2631
306.70 0.2635
306.80 0.2639
306.90 0.2643
307.00 0.2647
307.10 0.2651
307.20 0.2655
307.30 0.2658
307.40 0.2662
307.50 0.2666
307.60 0.267
307.70 0.2674
307.80 0.2678
307.90 0.2682
308.00 0.2686
308.10 0.269
308.20 0.2694
308.30 0.2698
308.40 0.2702
308.50 0.2706
308.60 0.271
308.70 0.2714
308.80 0.2718
308.90 0.2722
309.00 0.2726
309.10 0.273
309.20 0.2734
309.30 0.2738
309.40 0.2742
309.50 0.2746
309.60 0.275
309.70 0.2754
309.80 0.2757
309.90 0.2761
310.00 0.2765
310.10 0.2769
310.20 0.2773
310.30 0.2778
310.40 0.2782
310.50 0.2786
310.60 0.279
310.70 0.2794
310.80 0.2798
310.90 0.2802
311.00 0.2806
311.10 0.281
311.20 0.2814
311.30 0.2818
311.40 0.2822
311.50 0.2826
311.60 0.283
311.70 0.2834
311.80 0.2838
311.90 0.2842
312.00 0.2846
312.10 0.285
312.20 0.2854
312.30 0.2858
312.40 0.2862
312.50 0.2866
312.60 0.287
312.70 0.2874
312.80 0.2878
312.90 0.2882
313.00 0.2887
313.10 0.2891
313.20 0.2895
313.30 0.2899
313.40 0.2903
313.50 0.2907
313.60 0.2911
313.70 0.2915
313.80 0.2919
313.90 0.2923
314.00 0.2927
314.10 0.2931
314.20 0.2935
314.30 0.2939
314.40 0.2943
314.50 0.2948
314.60 0.2952
314.70 0.2956
314.80 0.296
314.90 0.2964
315.00 0.2968
315.10 0.2972
315.20 0.2976
315.30 0.298
315.40 0.2984
315.50 0.2988
315.60 0.2992
315.70 0.2997
315.80 0.3001
315.90 0.3005
316.00 0.3009
316.10 0.3013
316.20 0.3017
316.30 0.3021
316.40 0.3025
316.50 0.303
316.60 0.3034
316.70 0.3038
316.80 0.3042
316.90 0.3046
317.00 0.305
317.10 0.3054
317.20 0.3059
317.30 0.3063
317.40 0.3067
317.50 0.3071
317.60 0.3075
317.70 0.3079
317.80 0.3083
317.90 0.3087
318.00 0.3091
318.10 0.3096
318.20 0.31
318.30 0.3104
318.40 0.3108
318.50 0.3112
318.60 0.3117
318.70 0.3121
318.80 0.3125
318.90 0.3129
319.00 0.3133
319.10 0.3137
319.20 0.3142
319.30 0.3146
319.40 0.315
319.50 0.3154
319.60 0.3158
319.70 0.3162
319.80 0.3166
319.90 0.317
320.00 0.3175
320.10 0.3179
320.20 0.3183
320.30 0.3187
320.40 0.3191
320.50 0.3196
320.60 0.32
320.70 0.3204
320.80 0.3208
320.90 0.3213
321.00 0.3217
321.10 0.3221
321.20 0.3225
321.30 0.3229
321.40 0.3233
321.50 0.3238
321.60 0.3242
321.70 0.3246
321.80 0.325
321.90 0.3254
322.00 0.3258
322.10 0.3263
322.20 0.3267
322.30 0.3271
322.40 0.3275
322.50 0.328
322.60 0.3284
322.70 0.3288
322.80 0.3292
322.90 0.3297
323.00 0.3301
323.10 0.3305
323.20 0.3309
323.30 0.3314
323.40 0.3318
323.50 0.3322
323.60 0.3326
323.70 0.333
323.80 0.3335
323.90 0.3339
324.00 0.3343
324.10 0.3347
324.20 0.3351
324.30 0.3356
324.40 0.336
324.50 0.3364
324.60 0.3369
324.70 0.3373
324.80 0.3377
324.90 0.3381
325.00 0.3386
325.10 0.339
325.20 0.3394
325.30 0.3398
325.40 0.3403
325.50 0.3407
325.60 0.3411
325.70 0.3415
325.80 0.342
325.90 0.3424
326.00 0.3428
326.10 0.3432
326.20 0.3437
326.30 0.3441
326.40 0.3445
326.50 0.345
326.60 0.3454
326.70 0.3458
326.80 0.3462
326.90 0.3467
327.00 0.3471
327.10 0.3475
327.20 0.348
327.30 0.3484
327.40 0.3488
327.50 0.3492
327.60 0.3497
327.70 0.3501
327.80 0.3505
327.90 0.3509
328.00 0.3514
328.10 0.3518
328.20 0.3522
328.30 0.3527
328.40 0.3531
328.50 0.3535
328.60 0.354
328.70 0.3544
328.80 0.3548
328.90 0.3552
329.00 0.3557
329.10 0.3561
329.20 0.3565
329.30 0.357
329.40 0.3574
329.50 0.3578
329.60 0.3582
329.70 0.3587
329.80 0.3591
329.90 0.3595
330.00 0.36
330.10 0.3604
330.20 0.3608
330.30 0.3613
330.40 0.3617
330.50 0.3621
330.60 0.3626
330.70 0.363
330.80 0.3634
330.90 0.3639
331.00 0.3643
331.10 0.3647
331.20 0.3652
331.30 0.3656
331.40 0.366
331.50 0.3665
331.60 0.3669
331.70 0.3673
331.80 0.3678
331.90 0.3682
332.00 0.3686
332.10 0.3691
332.20 0.3695
332.30 0.3699
332.40 0.3704
332.50 0.3708
332.60 0.3713
332.70 0.3717
332.80 0.3721
332.90 0.3726
333.00 0.373
333.10 0.3734
333.20 0.3739
333.30 0.3743
333.40 0.3747
333.50 0.3752
333.60 0.3756
333.70 0.376
333.80 0.3765
333.90 0.3769
334.00 0.3773
334.10 0.3778
334.20 0.3782
334.30 0.3786
334.40 0.3791
334.50 0.3795
334.60 0.38
334.70 0.3804
334.80 0.3808
334.90 0.3813
335.00 0.3817
335.10 0.3821
335.20 0.3826
335.30 0.383
335.40 0.3835
335.50 0.3839
335.60 0.3843
335.70 0.3848
335.80 0.3852
335.90 0.3856
336.00 0.3861
336.10 0.3865
336.20 0.3869
336.30 0.3874
336.40 0.3878
336.50 0.3883
336.60 0.3887
336.70 0.3891
336.80 0.3896
336.90 0.39
337.00 0.3905
337.10 0.3909
337.20 0.3913
337.30 0.3918
337.40 0.3922
337.50 0.3926
337.60 0.3931
337.70 0.3935
337.80 0.3939
337.90 0.3944
338.00 0.3948
338.10 0.3953
338.20 0.3957
338.30 0.3962
338.40 0.3966
338.50 0.397
338.60 0.3975
338.70 0.3979
338.80 0.3984
338.90 0.3988
339.00 0.3992
339.10 0.3997
339.20 0.4001
339.30 0.4006
339.40 0.401
339.50 0.4014
339.60 0.4019
339.70 0.4023
339.80 0.4028
339.90 0.4032
340.00 0.4036
340.10 0.4041
340.20 0.4045
340.30 0.405
340.40 0.4054
340.50 0.4059
340.60 0.4063
340.70 0.4067
340.80 0.4072
340.90 0.4076
341.00 0.4081
341.10 0.4085
341.20 0.409
341.30 0.4094
341.40 0.4098
341.50 0.4103
341.60 0.4107
341.70 0.4112
341.80 0.4116
341.90 0.412
342.00 0.4125
342.10 0.4129
342.20 0.4134
342.30 0.4138
342.40 0.4143
342.50 0.4147
342.60 0.4152
342.70 0.4156
342.80 0.416
342.90 0.4165
343.00 0.4169
343.10 0.4174
343.20 0.4178
343.30 0.4183
343.40 0.4187
343.50 0.4191
343.60 0.4196
343.70 0.42
343.80 0.4204
343.90 0.4209
344.00 0.4213
344.10 0.4218
344.20 0.4222
344.30 0.4227
344.40 0.4231
344.50 0.4236
344.60 0.424
344.70 0.4245
344.80 0.4249
344.90 0.4254
345.00 0.4258
345.10 0.4262
345.20 0.4267
345.30 0.4271
345.40 0.4276
345.50 0.428
345.60 0.4285
345.70 0.4289
345.80 0.4293
345.90 0.4298
346.00 0.4302
346.10 0.4307
346.20 0.4311
346.30 0.4316
346.40 0.432
346.50 0.4325
346.60 0.4329
346.70 0.4334
346.80 0.4338
346.90 0.4342
347.00 0.4347
347.10 0.4351
347.20 0.4356
347.30 0.436
347.40 0.4365
347.50 0.4369
347.60 0.4374
347.70 0.4378
347.80 0.4382
347.90 0.4387
348.00 0.4391
348.10 0.4396
348.20 0.44
348.30 0.4405
348.40 0.4409
348.50 0.4414
348.60 0.4418
348.70 0.4423
348.80 0.4427
348.90 0.4432
349.00 0.4436
349.10 0.4441
349.20 0.4445
349.30 0.4449
349.40 0.4454
349.50 0.4458
349.60 0.4463
349.70 0.4467
349.80 0.4472
349.90 0.4476
350.00 0.448
350.10 0.4485
350.20 0.4489
350.30 0.4494
350.40 0.4498
350.50 0.4503
350.60 0.4507
350.70 0.4512
350.80 0.4516
350.90 0.4521
351.00 0.4525
351.10 0.453
351.20 0.4534
351.30 0.4539
351.40 0.4543
351.50 0.4548
351.60 0.4552
351.70 0.4557
351.80 0.4561
351.90 0.4565
352.00 0.457
352.10 0.4574
352.20 0.4579
352.30 0.4583
352.40 0.4588
352.50 0.4592
352.60 0.4597
352.70 0.4601
352.80 0.4606
352.90 0.461
353.00 0.4615
353.10 0.4619
353.20 0.4624
353.30 0.4628
353.40 0.4633
353.50 0.4637
353.60 0.4642
353.70 0.4646
353.80 0.465
353.90 0.4655
354.00 0.4659
354.10 0.4664
354.20 0.4668
354.30 0.4673
354.40 0.4677
354.50 0.4682
354.60 0.4686
354.70 0.4691
354.80 0.4695
354.90 0.47
355.00 0.4704
355.10 0.4709
355.20 0.4713
355.30 0.4718
355.40 0.4722
355.50 0.4727
355.60 0.4731
355.70 0.4736
355.80 0.474
355.90 0.4744
356.00 0.4749
356.10 0.4753
356.20 0.4758
356.30 0.4762
356.40 0.4767
356.50 0.4771
356.60 0.4776
356.70 0.478
356.80 0.4785
356.90 0.4789
357.00 0.4794
357.10 0.4798
357.20 0.4803
357.30 0.4807
357.40 0.4812
357.50 0.4816
357.60 0.4821
357.70 0.4825
357.80 0.483
357.90 0.4834
358.00 0.4839
358.10 0.4843
358.20 0.4848
358.30 0.4852
358.40 0.4857
358.50 0.4861
358.60 0.4866
358.70 0.487
358.80 0.4875
358.90 0.4879
359.00 0.4884
359.10 0.4888
359.20 0.4893
359.30 0.4897
359.40 0.4901
359.50 0.4906
359.60 0.491
359.70 0.4915
359.80 0.4919
359.90 0.4924
360.00 0.4928
360.10 0.4933
360.20 0.4937
360.30 0.4942
360.40 0.4946
360.50 0.4951
360.60 0.4955
360.70 0.496
360.80 0.4964
360.90 0.4969
361.00 0.4973
361.10 0.4978
361.20 0.4982
361.30 0.4987
361.40 0.4991
361.50 0.4995
361.60 0.5
361.70 0.5004
361.80 0.5009
361.90 0.5013
362.00 0.5018
362.10 0.5022
362.20 0.5027
362.30 0.5031
362.40 0.5036
362.50 0.504
362.60 0.5045
362.70 0.5049
362.80 0.5054
362.90 0.5058
363.00 0.5062
363.10 0.5067
363.20 0.5071
363.30 0.5076
363.40 0.508
363.50 0.5085
363.60 0.5089
363.70 0.5094
363.80 0.5098
363.90 0.5103
364.00 0.5107
364.10 0.5112
364.20 0.5116
364.30 0.5121
364.40 0.5125
364.50 0.513
364.60 0.5134
364.70 0.5139
364.80 0.5143
364.90 0.5148
365.00 0.5152
365.10 0.5157
365.20 0.5161
365.30 0.5165
365.40 0.517
365.50 0.5174
365.60 0.5179
365.70 0.5183
365.80 0.5188
365.90 0.5192
366.00 0.5197
366.10 0.5201
366.20 0.5206
366.30 0.521
366.40 0.5215
366.50 0.5219
366.60 0.5224
366.70 0.5228
366.80 0.5233
366.90 0.5237
367.00 0.5242
367.10 0.5246
367.20 0.5251
367.30 0.5255
367.40 0.526
367.50 0.5264
367.60 0.5268
367.70 0.5273
367.80 0.5277
367.90 0.5282
368.00 0.5286
368.10 0.5291
368.20 0.5295
368.30 0.53
368.40 0.5304
368.50 0.5309
368.60 0.5313
368.70 0.5318
368.80 0.5322
368.90 0.5327
369.00 0.5331
369.10 0.5336
369.20 0.534
369.30 0.5344
369.40 0.5349
369.50 0.5353
369.60 0.5358
369.70 0.5362
369.80 0.5367
369.90 0.5371
370.00 0.5375
370.10 0.538
370.20 0.5384
370.30 0.5389
370.40 0.5393
370.50 0.5398
370.60 0.5402
370.70 0.5407
370.80 0.5411
370.90 0.5416
371.00 0.542
371.10 0.5425
371.20 0.5429
371.30 0.5434
371.40 0.5438
371.50 0.5442
371.60 0.5447
371.70 0.5451
371.80 0.5456
371.90 0.546
372.00 0.5465
372.10 0.5469
372.20 0.5474
372.30 0.5478
372.40 0.5482
372.50 0.5487
372.60 0.5491
372.70 0.5496
372.80 0.55
372.90 0.5505
373.00 0.5509
373.10 0.5514
373.20 0.5518
373.30 0.5523
373.40 0.5527
373.50 0.5531
373.60 0.5536
373.70 0.554
373.80 0.5545
373.90 0.5549
374.00 0.5553
374.10 0.5558
374.20 0.5562
374.30 0.5567
374.40 0.5571
374.50 0.5576
374.60 0.558
374.70 0.5585
374.80 0.5589
374.90 0.5594
375.00 0.5598
375.10 0.5603
375.20 0.5607
375.30 0.5611
375.40 0.5616
375.50 0.562
375.60 0.5625
375.70 0.5629
375.80 0.5633
375.90 0.5638
376.00 0.5642
376.10 0.5647
376.20 0.5651
376.30 0.5656
376.40 0.566
376.50 0.5664
376.60 0.5669
376.70 0.5673
376.80 0.5678
376.90 0.5682
377.00 0.5687
377.10 0.5691
377.20 0.5695
377.30 0.57
377.40 0.5704
377.50 0.5709
377.60 0.5713
377.70 0.5718
377.80 0.5722
377.90 0.5726
378.00 0.5731
378.10 0.5735
378.20 0.574
378.30 0.5744
378.40 0.5748
378.50 0.5753
378.60 0.5757
378.70 0.5762
378.80 0.5766
378.90 0.5771
379.00 0.5775
379.10 0.5779
379.20 0.5784
379.30 0.5788
379.40 0.5793
379.50 0.5797
379.60 0.5801
379.70 0.5806
379.80 0.581
379.90 0.5815
380.00 0.5819
380.10 0.5823
380.20 0.5828
380.30 0.5832
380.40 0.5837
380.50 0.5841
380.60 0.5845
380.70 0.585
380.80 0.5854
380.90 0.5859
381.00 0.5863
381.10 0.5867
381.20 0.5872
381.30 0.5876
381.40 0.5881
381.50 0.5885
381.60 0.5889
381.70 0.5894
381.80 0.5898
381.90 0.5903
382.00 0.5907
382.10 0.5911
382.20 0.5916
382.30 0.592
382.40 0.5925
382.50 0.5929
382.60 0.5933
382.70 0.5938
382.80 0.5942
382.90 0.5947
383.00 0.5951
383.10 0.5955
383.20 0.596
383.30 0.5964
383.40 0.5968
383.50 0.5973
383.60 0.5977
383.70 0.5981
383.80 0.5986
383.90 0.599
384.00 0.5995
384.10 0.5999
384.20 0.6003
384.30 0.6008
384.40 0.6012
384.50 0.6017
384.60 0.6021
384.70 0.6025
384.80 0.603
384.90 0.6034
385.00 0.6038
385.10 0.6043
385.20 0.6047
385.30 0.6051
385.40 0.6056
385.50 0.606
385.60 0.6065
385.70 0.6069
385.80 0.6073
385.90 0.6078
386.00 0.6082
386.10 0.6086
386.20 0.6091
386.30 0.6095
386.40 0.6099
386.50 0.6104
386.60 0.6108
386.70 0.6112
386.80 0.6117
386.90 0.6121
387.00 0.6125
387.10 0.613
387.20 0.6134
387.30 0.6139
387.40 0.6143
387.50 0.6147
387.60 0.6151
387.70 0.6156
387.80 0.616
387.90 0.6165
388.00 0.6169
388.10 0.6173
388.20 0.6178
388.30 0.6182
388.40 0.6186
388.50 0.6191
388.60 0.6195
388.70 0.6199
388.80 0.6204
388.90 0.6208
389.00 0.6212
389.10 0.6217
389.20 0.6221
389.30 0.6225
389.40 0.623
389.50 0.6234
389.60 0.6238
389.70 0.6242
389.80 0.6247
389.90 0.6251
390.00 0.6255
390.10 0.626
390.20 0.6264
390.30 0.6268
390.40 0.6273
390.50 0.6277
390.60 0.6281
390.70 0.6286
390.80 0.629
390.90 0.6294
391.00 0.6299
391.10 0.6303
391.20 0.6307
391.30 0.6311
391.40 0.6316
391.50 0.632
391.60 0.6324
391.70 0.6329
391.80 0.6333
391.90 0.6337
392.00 0.6342
392.10 0.6346
392.20 0.635
392.30 0.6355
392.40 0.6359
392.50 0.6363
392.60 0.6367
392.70 0.6372
392.80 0.6376
392.90 0.638
393.00 0.6385
393.10 0.6389
393.20 0.6393
393.30 0.6397
393.40 0.6402
393.50 0.6406
393.60 0.641
393.70 0.6415
393.80 0.6419
393.90 0.6423
394.00 0.6427
394.10 0.6432
394.20 0.6436
394.30 0.644
394.40 0.6444
394.50 0.6449
394.60 0.6453
394.70 0.6457
394.80 0.6462
394.90 0.6466
395.00 0.647
395.10 0.6474
395.20 0.6479
395.30 0.6483
395.40 0.6487
395.50 0.6491
395.60 0.6496
395.70 0.65
395.80 0.6504
395.90 0.6508
396.00 0.6513
396.10 0.6517
396.20 0.6521
396.30 0.6525
396.40 0.653
396.50 0.6534
396.60 0.6538
396.70 0.6542
396.80 0.6547
396.90 0.6551
397.00 0.6555
397.10 0.6559
397.20 0.6564
397.30 0.6568
397.40 0.6572
397.50 0.6576
397.60 0.6581
397.70 0.6585
397.80 0.6589
397.90 0.6593
398.00 0.6598
398.10 0.6602
398.20 0.6606
398.30 0.661
398.40 0.6614
398.50 0.6619
398.60 0.6623
398.70 0.6627
398.80 0.6631
398.90 0.6636
399.00 0.664
399.10 0.6644
399.20 0.6648
399.30 0.6652
399.40 0.6657
399.50 0.6661
399.60 0.6665
399.70 0.6669
399.80 0.6673
399.90 0.6678
400.00 0.6682
400.10 0.6686
400.20 0.669
400.30 0.6695
400.40 0.6699
400.50 0.6703
400.60 0.6707
400.70 0.6711
400.80 0.6715
400.90 0.672
401.00 0.6724
401.10 0.6728
401.20 0.6732
401.30 0.6736
401.40 0.6741
401.50 0.6745
401.60 0.6749
401.70 0.6753
401.80 0.6757
401.90 0.6762
402.00 0.6766
402.10 0.677
402.20 0.6774
402.30 0.6778
402.40 0.6782
402.50 0.6787
402.60 0.6791
402.70 0.6795
402.80 0.6799
402.90 0.6803
403.00 0.6808
403.10 0.6812
403.20 0.6816
403.30 0.682
403.40 0.6824
403.50 0.6828
403.60 0.6832
403.70 0.6837
403.80 0.6841
403.90 0.6845
404.00 0.6849
404.10 0.6853
404.20 0.6857
404.30 0.6862
404.40 0.6866
404.50 0.687
404.60 0.6874
404.70 0.6878
404.80 0.6882
404.90 0.6886
405.00 0.6891
405.10 0.6895
405.20 0.6899
405.30 0.6903
405.40 0.6907
405.50 0.6911
405.60 0.6915
405.70 0.6919
405.80 0.6924
405.90 0.6928
406.00 0.6932
406.10 0.6936
406.20 0.694
406.30 0.6944
406.40 0.6948
406.50 0.6953
406.60 0.6957
406.70 0.6961
406.80 0.6965
406.90 0.6969
407.00 0.6973
407.10 0.6977
407.20 0.6981
407.30 0.6985
407.40 0.6989
407.50 0.6994
407.60 0.6998
407.70 0.7002
407.80 0.7006
407.90 0.701
408.00 0.7014
408.10 0.7018
408.20 0.7022
408.30 0.7026
408.40 0.7031
408.50 0.7035
408.60 0.7039
408.70 0.7043
408.80 0.7047
408.90 0.7051
409.00 0.7055
409.10 0.7059
409.20 0.7063
409.30 0.7067
409.40 0.7071
409.50 0.7075
409.60 0.7079
409.70 0.7084
409.80 0.7088
409.90 0.7092
410.00 0.7096
410.10 0.71
410.20 0.7104
410.30 0.7108
410.40 0.7112
410.50 0.7116
410.60 0.712
410.70 0.7124
410.80 0.7128
410.90 0.7132
411.00 0.7136
411.10 0.714
411.20 0.7145
411.30 0.7149
411.40 0.7153
411.50 0.7157
411.60 0.7161
411.70 0.7165
411.80 0.7169
411.90 0.7173
412.00 0.7177
412.10 0.7181
412.20 0.7185
412.30 0.7189
412.40 0.7193
412.50 0.7197
412.60 0.7201
412.70 0.7205
412.80 0.7209
412.90 0.7213
413.00 0.7217
413.10 0.7221
413.20 0.7225
413.30 0.7229
413.40 0.7233
413.50 0.7237
413.60 0.7241
413.70 0.7245
413.80 0.7249
413.90 0.7253
414.00 0.7257
414.10 0.7261
414.20 0.7265
414.30 0.7269
414.40 0.7273
414.50 0.7277
414.60 0.7281
414.70 0.7285
414.80 0.7289
414.90 0.7293
415.00 0.7297
415.10 0.7301
415.20 0.7305
415.30 0.7309
415.40 0.7313
415.50 0.7317
415.60 0.7321
415.70 0.7325
415.80 0.7329
415.90 0.7333
416.00 0.7337
416.10 0.7341
416.20 0.7345
416.30 0.7349
416.40 0.7353
416.50 0.7357
416.60 0.7361
416.70 0.7365
416.80 0.7369
416.90 0.7373
417.00 0.7377
417.10 0.7381
417.20 0.7385
417.30 0.7389
417.40 0.7393
417.50 0.7397
417.60 0.7401
417.70 0.7405
417.80 0.7408
417.90 0.7412
418.00 0.7416
418.10 0.742
418.20 0.7424
418.30 0.7428
418.40 0.7432
418.50 0.7436
418.60 0.744
418.70 0.7444
418.80 0.7448
418.90 0.7452
419.00 0.7456
419.10 0.746
419.20 0.7464
419.30 0.7468
419.40 0.7471
419.50 0.7475
419.60 0.7479
419.70 0.7483
419.80 0.7487
419.90 0.7491
420.00 0.7495
420.10 0.7499
420.20 0.7503
420.30 0.7507
420.40 0.7511
420.50 0.7515
420.60 0.7518
420.70 0.7522
420.80 0.7526
420.90 0.753
421.00 0.7534
421.10 0.7538
421.20 0.7542
421.30 0.7546
421.40 0.755
421.50 0.7553
421.60 0.7557
421.70 0.7561
421.80 0.7565
421.90 0.7569
422.00 0.7573
422.10 0.7577
422.20 0.7581
422.30 0.7584
422.40 0.7588
422.50 0.7592
422.60 0.7596
422.70 0.76
422.80 0.7604
422.90 0.7608
423.00 0.7612
423.10 0.7615
423.20 0.7619
423.30 0.7623
423.40 0.7627
423.50 0.7631
423.60 0.7635
423.70 0.7639
423.80 0.7642
423.90 0.7646
424.00 0.765
424.10 0.7654
424.20 0.7658
424.30 0.7662
424.40 0.7665
424.50 0.7669
424.60 0.7673
424.70 0.7677
424.80 0.7681
424.90 0.7685
425.00 0.7688
425.10 0.7692
425.20 0.7696
425.30 0.77
425.40 0.7704
425.50 0.7707
425.60 0.7711
425.70 0.7715
425.80 0.7719
425.90 0.7723
426.00 0.7727
426.10 0.773
426.20 0.7734
426.30 0.7738
426.40 0.7742
426.50 0.7746
426.60 0.7749
426.70 0.7753
426.80 0.7757
426.90 0.7761
427.00 0.7765
427.10 0.7768
427.20 0.7772
427.30 0.7776
427.40 0.778
427.50 0.7784
427.60 0.7787
427.70 0.7791
427.80 0.7795
427.90 0.7799
428.00 0.7802
428.10 0.7806
428.20 0.781
428.30 0.7814
428.40 0.7817
428.50 0.7821
428.60 0.7825
428.70 0.7829
428.80 0.7833
428.90 0.7836
429.00 0.784
429.10 0.7844
429.20 0.7848
429.30 0.7851
429.40 0.7855
429.50 0.7859
429.60 0.7863
429.70 0.7866
429.80 0.787
429.90 0.7874
430.00 0.7878
430.10 0.7881
430.20 0.7885
430.30 0.7889
430.40 0.7892
430.50 0.7896
430.60 0.79
430.70 0.7904
430.80 0.7907
430.90 0.7911
431.00 0.7915
431.10 0.7919
431.20 0.7922
431.30 0.7926
431.40 0.793
431.50 0.7933
431.60 0.7937
431.70 0.7941
431.80 0.7945
431.90 0.7948
432.00 0.7952
432.10 0.7956
432.20 0.7959
432.30 0.7963
432.40 0.7967
432.50 0.797
432.60 0.7974
432.70 0.7978
432.80 0.7981
432.90 0.7985
433.00 0.7989
433.10 0.7993
433.20 0.7996
433.30 0.8
433.40 0.8004
433.50 0.8007
433.60 0.8011
433.70 0.8015
433.80 0.8018
433.90 0.8022
434.00 0.8026
434.10 0.8029
434.20 0.8033
434.30 0.8037
434.40 0.804
434.50 0.8044
434.60 0.8048
434.70 0.8051
434.80 0.8055
434.90 0.8059
435.00 0.8062
435.10 0.8066
435.20 0.8069
435.30 0.8073
435.40 0.8077
435.50 0.808
435.60 0.8084
435.70 0.8088
435.80 0.8091
435.90 0.8095
436.00 0.8099
436.10 0.8102
436.20 0.8106
436.30 0.8109
436.40 0.8113
436.50 0.8117
436.60 0.812
436.70 0.8124
436.80 0.8127
436.90 0.8131
437.00 0.8135
437.10 0.8138
437.20 0.8142
437.30 0.8146
437.40 0.8149
437.50 0.8153
437.60 0.8156
437.70 0.816
437.80 0.8164
437.90 0.8167
438.00 0.8171
438.10 0.8174
438.20 0.8178
438.30 0.8181
438.40 0.8185
438.50 0.8189
438.60 0.8192
438.70 0.8196
438.80 0.8199
438.90 0.8203
439.00 0.8206
439.10 0.821
439.20 0.8214
439.30 0.8217
439.40 0.8221
439.50 0.8224
439.60 0.8228
439.70 0.8231
439.80 0.8235
439.90 0.8238
440.00 0.8242
440.10 0.8246
440.20 0.8249
440.30 0.8253
440.40 0.8256
440.50 0.826
440.60 0.8263
440.70 0.8267
440.80 0.827
440.90 0.8274
441.00 0.8277
441.10 0.8281
441.20 0.8285
441.30 0.8288
441.40 0.8292
441.50 0.8295
441.60 0.8299
441.70 0.8302
441.80 0.8306
441.90 0.8309
442.00 0.8313
442.10 0.8316
442.20 0.832
442.30 0.8323
442.40 0.8327
442.50 0.833
442.60 0.8334
442.70 0.8337
442.80 0.8341
442.90 0.8344
443.00 0.8348
