# Version 2.1 - nm, norm@500 to 1, cut digits, bergeron_17000_80.dat_17000
# Wavelength(nm)  Flambda(ergs/cm^s/s/nm)
300.00 2.687
300.10 2.685
300.20 2.683
300.30 2.68
300.40 2.678
300.50 2.676
300.60 2.673
300.70 2.671
300.80 2.669
300.90 2.667
301.00 2.664
301.10 2.662
301.20 2.66
301.30 2.657
301.40 2.655
301.50 2.653
301.60 2.65
301.70 2.648
301.80 2.646
301.90 2.644
302.00 2.641
302.10 2.639
302.20 2.637
302.30 2.635
302.40 2.632
302.50 2.63
302.60 2.628
302.70 2.626
302.80 2.623
302.90 2.621
303.00 2.619
303.10 2.617
303.20 2.614
303.30 2.612
303.40 2.61
303.50 2.608
303.60 2.605
303.70 2.603
303.80 2.601
303.90 2.599
304.00 2.596
304.10 2.594
304.20 2.592
304.30 2.59
304.40 2.588
304.50 2.585
304.60 2.583
304.70 2.581
304.80 2.579
304.90 2.577
305.00 2.574
305.10 2.572
305.20 2.57
305.30 2.568
305.40 2.566
305.50 2.563
305.60 2.561
305.70 2.559
305.80 2.557
305.90 2.555
306.00 2.553
306.10 2.55
306.20 2.548
306.30 2.546
306.40 2.544
306.50 2.542
306.60 2.54
306.70 2.537
306.80 2.535
306.90 2.533
307.00 2.531
307.10 2.529
307.20 2.527
307.30 2.525
307.40 2.522
307.50 2.52
307.60 2.518
307.70 2.516
307.80 2.514
307.90 2.512
308.00 2.51
308.10 2.507
308.20 2.505
308.30 2.503
308.40 2.501
308.50 2.499
308.60 2.497
308.70 2.495
308.80 2.493
308.90 2.491
309.00 2.488
309.10 2.486
309.20 2.484
309.30 2.482
309.40 2.48
309.50 2.478
309.60 2.476
309.70 2.474
309.80 2.472
309.90 2.47
310.00 2.468
310.10 2.466
310.20 2.463
310.30 2.461
310.40 2.459
310.50 2.457
310.60 2.455
310.70 2.453
310.80 2.451
310.90 2.449
311.00 2.447
311.10 2.445
311.20 2.443
311.30 2.441
311.40 2.439
311.50 2.437
311.60 2.435
311.70 2.433
311.80 2.431
311.90 2.429
312.00 2.427
312.10 2.425
312.20 2.423
312.30 2.42
312.40 2.418
312.50 2.416
312.60 2.414
312.70 2.412
312.80 2.41
312.90 2.408
313.00 2.406
313.10 2.404
313.20 2.402
313.30 2.4
313.40 2.398
313.50 2.396
313.60 2.394
313.70 2.392
313.80 2.39
313.90 2.388
314.00 2.386
314.10 2.384
314.20 2.382
314.30 2.38
314.40 2.379
314.50 2.377
314.60 2.375
314.70 2.373
314.80 2.371
314.90 2.369
315.00 2.367
315.10 2.365
315.20 2.363
315.30 2.361
315.40 2.359
315.50 2.357
315.60 2.355
315.70 2.353
315.80 2.351
315.90 2.349
316.00 2.347
316.10 2.345
316.20 2.343
316.30 2.341
316.40 2.339
316.50 2.337
316.60 2.335
316.70 2.334
316.80 2.332
316.90 2.33
317.00 2.328
317.10 2.326
317.20 2.324
317.30 2.322
317.40 2.32
317.50 2.318
317.60 2.316
317.70 2.314
317.80 2.312
317.90 2.31
318.00 2.309
318.10 2.307
318.20 2.305
318.30 2.303
318.40 2.301
318.50 2.299
318.60 2.297
318.70 2.295
318.80 2.293
318.90 2.292
319.00 2.29
319.10 2.288
319.20 2.286
319.30 2.284
319.40 2.282
319.50 2.28
319.60 2.278
319.70 2.277
319.80 2.275
319.90 2.273
320.00 2.271
320.10 2.269
320.20 2.267
320.30 2.265
320.40 2.264
320.50 2.262
320.60 2.26
320.70 2.258
320.80 2.256
320.90 2.254
321.00 2.253
321.10 2.251
321.20 2.249
321.30 2.247
321.40 2.245
321.50 2.243
321.60 2.242
321.70 2.24
321.80 2.238
321.90 2.236
322.00 2.234
322.10 2.232
322.20 2.231
322.30 2.229
322.40 2.227
322.50 2.225
322.60 2.223
322.70 2.222
322.80 2.22
322.90 2.218
323.00 2.216
323.10 2.214
323.20 2.213
323.30 2.211
323.40 2.209
323.50 2.207
323.60 2.205
323.70 2.204
323.80 2.202
323.90 2.2
324.00 2.198
324.10 2.196
324.20 2.195
324.30 2.193
324.40 2.191
324.50 2.189
324.60 2.188
324.70 2.186
324.80 2.184
324.90 2.182
325.00 2.181
325.10 2.179
325.20 2.177
325.30 2.175
325.40 2.173
325.50 2.172
325.60 2.17
325.70 2.168
325.80 2.166
325.90 2.165
326.00 2.163
326.10 2.161
326.20 2.159
326.30 2.158
326.40 2.156
326.50 2.154
326.60 2.153
326.70 2.151
326.80 2.149
326.90 2.147
327.00 2.146
327.10 2.144
327.20 2.142
327.30 2.14
327.40 2.139
327.50 2.137
327.60 2.135
327.70 2.134
327.80 2.132
327.90 2.13
328.00 2.128
328.10 2.127
328.20 2.125
328.30 2.123
328.40 2.122
328.50 2.12
328.60 2.118
328.70 2.117
328.80 2.115
328.90 2.113
329.00 2.112
329.10 2.11
329.20 2.108
329.30 2.106
329.40 2.105
329.50 2.103
329.60 2.101
329.70 2.1
329.80 2.098
329.90 2.096
330.00 2.095
330.10 2.093
330.20 2.091
330.30 2.09
330.40 2.088
330.50 2.086
330.60 2.085
330.70 2.083
330.80 2.081
330.90 2.08
331.00 2.078
331.10 2.076
331.20 2.075
331.30 2.073
331.40 2.071
331.50 2.07
331.60 2.068
331.70 2.066
331.80 2.065
331.90 2.063
332.00 2.062
332.10 2.06
332.20 2.058
332.30 2.057
332.40 2.055
332.50 2.053
332.60 2.052
332.70 2.05
332.80 2.049
332.90 2.047
333.00 2.045
333.10 2.044
333.20 2.042
333.30 2.04
333.40 2.039
333.50 2.037
333.60 2.036
333.70 2.034
333.80 2.032
333.90 2.031
334.00 2.029
334.10 2.028
334.20 2.026
334.30 2.024
334.40 2.023
334.50 2.021
334.60 2.02
334.70 2.018
334.80 2.016
334.90 2.015
335.00 2.013
335.10 2.012
335.20 2.01
335.30 2.009
335.40 2.007
335.50 2.005
335.60 2.004
335.70 2.002
335.80 2.001
335.90 1.999
336.00 1.998
336.10 1.996
336.20 1.994
336.30 1.993
336.40 1.991
336.50 1.99
336.60 1.988
336.70 1.987
336.80 1.985
336.90 1.983
337.00 1.982
337.10 1.98
337.20 1.979
337.30 1.977
337.40 1.976
337.50 1.974
337.60 1.973
337.70 1.971
337.80 1.969
337.90 1.968
338.00 1.966
338.10 1.965
338.20 1.963
338.30 1.962
338.40 1.96
338.50 1.959
338.60 1.957
338.70 1.956
338.80 1.954
338.90 1.953
339.00 1.951
339.10 1.95
339.20 1.948
339.30 1.947
339.40 1.945
339.50 1.943
339.60 1.942
339.70 1.94
339.80 1.939
339.90 1.937
340.00 1.936
340.10 1.934
340.20 1.933
340.30 1.931
340.40 1.93
340.50 1.928
340.60 1.927
340.70 1.925
340.80 1.924
340.90 1.922
341.00 1.921
341.10 1.919
341.20 1.918
341.30 1.916
341.40 1.915
341.50 1.913
341.60 1.912
341.70 1.911
341.80 1.909
341.90 1.908
342.00 1.906
342.10 1.905
342.20 1.903
342.30 1.902
342.40 1.9
342.50 1.899
342.60 1.897
342.70 1.896
342.80 1.894
342.90 1.893
343.00 1.891
343.10 1.89
343.20 1.888
343.30 1.887
343.40 1.886
343.50 1.884
343.60 1.883
343.70 1.881
343.80 1.88
343.90 1.878
344.00 1.877
344.10 1.875
344.20 1.874
344.30 1.872
344.40 1.871
344.50 1.87
344.60 1.868
344.70 1.867
344.80 1.865
344.90 1.864
345.00 1.862
345.10 1.861
345.20 1.86
345.30 1.858
345.40 1.857
345.50 1.855
345.60 1.854
345.70 1.852
345.80 1.851
345.90 1.85
346.00 1.848
346.10 1.847
346.20 1.845
346.30 1.844
346.40 1.843
346.50 1.841
346.60 1.84
346.70 1.838
346.80 1.837
346.90 1.835
347.00 1.834
347.10 1.833
347.20 1.831
347.30 1.83
347.40 1.828
347.50 1.827
347.60 1.826
347.70 1.824
347.80 1.823
347.90 1.822
348.00 1.82
348.10 1.819
348.20 1.817
348.30 1.816
348.40 1.815
348.50 1.813
348.60 1.812
348.70 1.81
348.80 1.809
348.90 1.808
349.00 1.806
349.10 1.805
349.20 1.804
349.30 1.802
349.40 1.801
349.50 1.799
349.60 1.798
349.70 1.797
349.80 1.795
349.90 1.794
350.00 1.793
350.10 1.791
350.20 1.79
350.30 1.788
350.40 1.787
350.50 1.786
350.60 1.784
350.70 1.783
350.80 1.782
350.90 1.78
351.00 1.779
351.10 1.778
351.20 1.776
351.30 1.775
351.40 1.774
351.50 1.772
351.60 1.771
351.70 1.77
351.80 1.768
351.90 1.767
352.00 1.766
352.10 1.764
352.20 1.763
352.30 1.762
352.40 1.76
352.50 1.759
352.60 1.758
352.70 1.756
352.80 1.755
352.90 1.754
353.00 1.752
353.10 1.751
353.20 1.75
353.30 1.748
353.40 1.747
353.50 1.746
353.60 1.744
353.70 1.743
353.80 1.742
353.90 1.74
354.00 1.739
354.10 1.738
354.20 1.737
354.30 1.735
354.40 1.734
354.50 1.733
354.60 1.731
354.70 1.73
354.80 1.729
354.90 1.727
355.00 1.726
355.10 1.725
355.20 1.724
355.30 1.722
355.40 1.721
355.50 1.72
355.60 1.718
355.70 1.717
355.80 1.716
355.90 1.714
356.00 1.713
356.10 1.712
356.20 1.711
356.30 1.709
356.40 1.708
356.50 1.707
356.60 1.706
356.70 1.704
356.80 1.703
356.90 1.702
357.00 1.7
357.10 1.699
357.20 1.698
357.30 1.697
357.40 1.695
357.50 1.694
357.60 1.693
357.70 1.692
357.80 1.69
357.90 1.689
358.00 1.688
358.10 1.686
358.20 1.685
358.30 1.684
358.40 1.683
358.50 1.681
358.60 1.68
358.70 1.679
358.80 1.678
358.90 1.676
359.00 1.675
359.10 1.674
359.20 1.673
359.30 1.671
359.40 1.67
359.50 1.669
359.60 1.668
359.70 1.666
359.80 1.665
359.90 1.664
360.00 1.663
360.10 1.661
360.20 1.66
360.30 1.659
360.40 1.658
360.50 1.657
360.60 1.655
360.70 1.654
360.80 1.653
360.90 1.652
361.00 1.65
361.10 1.649
361.20 1.648
361.30 1.647
361.40 1.646
361.50 1.644
361.60 1.643
361.70 1.642
361.80 1.641
361.90 1.64
362.00 1.638
362.10 1.637
362.20 1.636
362.30 1.635
362.40 1.633
362.50 1.632
362.60 1.631
362.70 1.63
362.80 1.629
362.90 1.627
363.00 1.626
363.10 1.625
363.20 1.624
363.30 1.622
363.40 1.621
363.50 1.62
363.60 1.618
363.70 1.617
363.80 1.616
363.90 1.615
364.00 1.613
364.10 1.612
364.20 1.611
364.30 1.609
364.40 1.608
364.50 1.607
364.60 1.605
364.70 1.604
364.80 1.603
364.90 1.602
365.00 1.6
365.10 1.599
365.20 1.598
365.30 1.596
365.40 1.595
365.50 1.594
365.60 1.592
365.70 1.591
365.80 1.59
365.90 1.589
366.00 1.587
366.10 1.586
366.20 1.585
366.30 1.584
366.40 1.582
366.50 1.581
366.60 1.58
366.70 1.579
366.80 1.578
366.90 1.576
367.00 1.575
367.10 1.574
367.20 1.573
367.30 1.572
367.40 1.571
367.50 1.569
367.60 1.568
367.70 1.567
367.80 1.566
367.90 1.565
368.00 1.563
368.10 1.562
368.20 1.561
368.30 1.56
368.40 1.559
368.50 1.558
368.60 1.557
368.70 1.556
368.80 1.555
368.90 1.554
369.00 1.553
369.10 1.552
369.20 1.551
369.30 1.55
369.40 1.548
369.50 1.547
369.60 1.546
369.70 1.545
369.80 1.544
369.90 1.543
370.00 1.542
370.10 1.541
370.20 1.541
370.30 1.54
370.40 1.54
370.50 1.539
370.60 1.538
370.70 1.538
370.80 1.537
370.90 1.536
371.00 1.536
371.10 1.535
371.20 1.535
371.30 1.534
371.40 1.533
371.50 1.533
371.60 1.532
371.70 1.531
371.80 1.531
371.90 1.53
372.00 1.53
372.10 1.53
372.20 1.53
372.30 1.53
372.40 1.53
372.50 1.53
372.60 1.53
372.70 1.53
372.80 1.53
372.90 1.53
373.00 1.53
373.10 1.531
373.20 1.531
373.30 1.531
373.40 1.531
373.50 1.531
373.60 1.531
373.70 1.531
373.80 1.531
373.90 1.531
374.00 1.531
374.10 1.532
374.20 1.532
374.30 1.533
374.40 1.534
374.50 1.534
374.60 1.535
374.70 1.535
374.80 1.536
374.90 1.536
375.00 1.537
375.10 1.538
375.20 1.538
375.30 1.539
375.40 1.539
375.50 1.54
375.60 1.54
375.70 1.541
375.80 1.541
375.90 1.542
376.00 1.543
376.10 1.543
376.20 1.543
376.30 1.543
376.40 1.543
376.50 1.543
376.60 1.544
376.70 1.544
376.80 1.544
376.90 1.544
377.00 1.544
377.10 1.543
377.20 1.542
377.30 1.541
377.40 1.54
377.50 1.539
377.60 1.538
377.70 1.537
377.80 1.536
377.90 1.535
378.00 1.534
378.10 1.529
378.20 1.524
378.30 1.519
378.40 1.514
378.50 1.509
378.60 1.504
378.70 1.499
378.80 1.494
378.90 1.489
379.00 1.484
379.10 1.48
379.20 1.477
379.30 1.473
379.40 1.47
379.50 1.466
379.60 1.463
379.70 1.46
379.80 1.456
379.90 1.453
380.00 1.449
380.10 1.454
380.20 1.458
380.30 1.463
380.40 1.467
380.50 1.472
380.60 1.476
380.70 1.481
380.80 1.485
380.90 1.49
381.00 1.494
381.10 1.495
381.20 1.496
381.30 1.498
381.40 1.499
381.50 1.5
381.60 1.499
381.70 1.496
381.80 1.494
381.90 1.49
382.00 1.485
382.10 1.479
382.20 1.473
382.30 1.46
382.40 1.448
382.50 1.436
382.60 1.424
382.70 1.412
382.80 1.4
382.90 1.388
383.00 1.376
383.10 1.364
383.20 1.352
383.30 1.344
383.40 1.335
383.50 1.325
383.60 1.327
383.70 1.338
383.80 1.346
383.90 1.355
384.00 1.366
384.10 1.38
384.20 1.395
384.30 1.41
384.40 1.425
384.50 1.439
384.60 1.451
384.70 1.462
384.80 1.472
384.90 1.48
385.00 1.487
385.10 1.493
385.20 1.498
385.30 1.502
385.40 1.505
385.50 1.508
385.60 1.509
385.70 1.51
385.80 1.51
385.90 1.51
386.00 1.508
386.10 1.506
386.20 1.503
386.30 1.5
386.40 1.495
386.50 1.491
386.60 1.485
386.70 1.478
386.80 1.472
386.90 1.464
387.00 1.455
387.10 1.446
387.20 1.436
387.30 1.425
387.40 1.413
387.50 1.4
387.60 1.386
387.70 1.371
387.80 1.355
387.90 1.336
388.00 1.317
388.10 1.295
388.20 1.271
388.30 1.246
388.40 1.22
388.50 1.196
388.60 1.174
388.70 1.159
388.80 1.145
388.90 1.133
389.00 1.143
389.10 1.156
389.20 1.171
389.30 1.192
389.40 1.215
389.50 1.241
389.60 1.267
389.70 1.291
389.80 1.314
389.90 1.334
390.00 1.353
390.10 1.371
390.20 1.387
390.30 1.402
390.40 1.417
390.50 1.43
390.60 1.443
390.70 1.455
390.80 1.466
390.90 1.477
391.00 1.488
391.10 1.498
391.20 1.507
391.30 1.516
391.40 1.524
391.50 1.532
391.60 1.54
391.70 1.546
391.80 1.552
391.90 1.558
392.00 1.562
392.10 1.566
392.20 1.57
392.30 1.573
392.40 1.575
392.50 1.576
392.60 1.577
392.70 1.577
392.80 1.576
392.90 1.574
393.00 1.572
393.10 1.569
393.20 1.565
393.30 1.561
393.40 1.556
393.50 1.549
393.60 1.543
393.70 1.535
393.80 1.527
393.90 1.518
394.00 1.508
394.10 1.498
394.20 1.486
394.30 1.475
394.40 1.462
394.50 1.449
394.60 1.435
394.70 1.421
394.80 1.406
394.90 1.391
395.00 1.375
395.10 1.359
395.20 1.342
395.30 1.325
395.40 1.307
395.50 1.289
395.60 1.27
395.70 1.25
395.80 1.231
395.90 1.21
396.00 1.188
396.10 1.166
396.20 1.141
396.30 1.114
396.40 1.086
396.50 1.053
396.60 1.02
396.70 0.9867
396.80 0.9608
396.90 0.9332
397.00 0.904
397.10 0.9303
397.20 0.9556
397.30 0.9798
397.40 1.012
397.50 1.044
397.60 1.076
397.70 1.104
397.80 1.13
397.90 1.153
398.00 1.175
398.10 1.196
398.20 1.215
398.30 1.235
398.40 1.253
398.50 1.272
398.60 1.289
398.70 1.306
398.80 1.323
398.90 1.34
399.00 1.356
399.10 1.372
399.20 1.387
399.30 1.402
399.40 1.418
399.50 1.432
399.60 1.446
399.70 1.46
399.80 1.474
399.90 1.487
400.00 1.5
400.10 1.512
400.20 1.524
400.30 1.535
400.40 1.546
400.50 1.556
400.60 1.566
400.70 1.576
400.80 1.585
400.90 1.594
401.00 1.602
401.10 1.61
401.20 1.617
401.30 1.624
401.40 1.631
401.50 1.637
401.60 1.643
401.70 1.649
401.80 1.654
401.90 1.658
402.00 1.663
402.10 1.667
402.20 1.67
402.30 1.673
402.40 1.676
402.50 1.679
402.60 1.681
402.70 1.683
402.80 1.684
402.90 1.685
403.00 1.686
403.10 1.687
403.20 1.687
403.30 1.686
403.40 1.686
403.50 1.685
403.60 1.684
403.70 1.682
403.80 1.68
403.90 1.678
404.00 1.675
404.10 1.672
404.20 1.669
404.30 1.665
404.40 1.661
404.50 1.656
404.60 1.651
404.70 1.646
404.80 1.641
404.90 1.635
405.00 1.629
405.10 1.622
405.20 1.615
405.30 1.608
405.40 1.6
405.50 1.592
405.60 1.584
405.70 1.575
405.80 1.565
405.90 1.556
406.00 1.546
406.10 1.535
406.20 1.524
406.30 1.513
406.40 1.501
406.50 1.489
406.60 1.477
406.70 1.464
406.80 1.45
406.90 1.437
407.00 1.422
407.10 1.408
407.20 1.393
407.30 1.377
407.40 1.361
407.50 1.345
407.60 1.328
407.70 1.312
407.80 1.294
407.90 1.277
408.00 1.259
408.10 1.241
408.20 1.223
408.30 1.204
408.40 1.186
408.50 1.167
408.60 1.148
408.70 1.128
408.80 1.109
408.90 1.089
409.00 1.069
409.10 1.049
409.20 1.029
409.30 1.008
409.40 0.9857
409.50 0.9612
409.60 0.935
409.70 0.9047
409.80 0.8729
409.90 0.8396
410.00 0.8056
410.10 0.7759
410.20 0.7505
410.30 0.7879
410.40 0.8227
410.50 0.855
410.60 0.8867
410.70 0.9164
410.80 0.9441
410.90 0.9678
411.00 0.9899
411.10 1.011
411.20 1.03
411.30 1.048
411.40 1.067
411.50 1.085
411.60 1.103
411.70 1.121
411.80 1.139
411.90 1.156
412.00 1.173
412.10 1.19
412.20 1.207
412.30 1.224
412.40 1.24
412.50 1.256
412.60 1.272
412.70 1.287
412.80 1.302
412.90 1.317
413.00 1.331
413.10 1.346
413.20 1.359
413.30 1.373
413.40 1.385
413.50 1.398
413.60 1.41
413.70 1.422
413.80 1.433
413.90 1.444
414.00 1.455
414.10 1.466
414.20 1.476
414.30 1.485
414.40 1.495
414.50 1.504
414.60 1.513
414.70 1.521
414.80 1.529
414.90 1.537
415.00 1.545
415.10 1.552
415.20 1.559
415.30 1.566
415.40 1.573
415.50 1.579
415.60 1.585
415.70 1.591
415.80 1.597
415.90 1.602
416.00 1.607
416.10 1.612
416.20 1.617
416.30 1.621
416.40 1.626
416.50 1.63
416.60 1.634
416.70 1.638
416.80 1.641
416.90 1.645
417.00 1.648
417.10 1.651
417.20 1.654
417.30 1.657
417.40 1.66
417.50 1.662
417.60 1.665
417.70 1.667
417.80 1.669
417.90 1.671
418.00 1.673
418.10 1.675
418.20 1.676
418.30 1.678
418.40 1.679
418.50 1.681
418.60 1.682
418.70 1.683
418.80 1.684
418.90 1.685
419.00 1.686
419.10 1.687
419.20 1.688
419.30 1.688
419.40 1.689
419.50 1.689
419.60 1.689
419.70 1.69
419.80 1.69
419.90 1.69
420.00 1.69
420.10 1.69
420.20 1.69
420.30 1.69
420.40 1.69
420.50 1.689
420.60 1.689
420.70 1.688
420.80 1.688
420.90 1.687
421.00 1.687
421.10 1.686
421.20 1.685
421.30 1.685
421.40 1.684
421.50 1.683
421.60 1.682
421.70 1.681
421.80 1.68
421.90 1.679
422.00 1.678
422.10 1.676
422.20 1.675
422.30 1.674
422.40 1.672
422.50 1.671
422.60 1.669
422.70 1.668
422.80 1.666
422.90 1.664
423.00 1.663
423.10 1.661
423.20 1.659
423.30 1.657
423.40 1.655
423.50 1.653
423.60 1.651
423.70 1.649
423.80 1.646
423.90 1.644
424.00 1.642
424.10 1.639
424.20 1.637
424.30 1.634
424.40 1.632
424.50 1.629
424.60 1.626
424.70 1.623
424.80 1.62
424.90 1.617
425.00 1.614
425.10 1.611
425.20 1.608
425.30 1.605
425.40 1.601
425.50 1.598
425.60 1.594
425.70 1.59
425.80 1.587
425.90 1.583
426.00 1.579
426.10 1.575
426.20 1.57
426.30 1.565
426.40 1.561
426.50 1.557
426.60 1.552
426.70 1.547
426.80 1.543
426.90 1.538
427.00 1.533
427.10 1.527
427.20 1.522
427.30 1.517
427.40 1.511
427.50 1.505
427.60 1.5
427.70 1.494
427.80 1.488
427.90 1.481
428.00 1.475
428.10 1.468
428.20 1.462
428.30 1.455
428.40 1.448
428.50 1.441
428.60 1.433
428.70 1.425
428.80 1.418
428.90 1.41
429.00 1.401
429.10 1.393
429.20 1.384
429.30 1.376
429.40 1.367
429.50 1.357
429.60 1.348
429.70 1.338
429.80 1.328
429.90 1.318
430.00 1.308
430.10 1.297
430.20 1.286
430.30 1.275
430.40 1.264
430.50 1.252
430.60 1.241
430.70 1.229
430.80 1.216
430.90 1.204
431.00 1.191
431.10 1.178
431.20 1.165
431.30 1.151
431.40 1.138
431.50 1.124
431.60 1.11
431.70 1.095
431.80 1.081
431.90 1.066
432.00 1.05
432.10 1.035
432.20 1.019
432.30 1.003
432.40 0.9872
432.50 0.9702
432.60 0.953
432.70 0.9355
432.80 0.9177
432.90 0.8999
433.00 0.8824
433.10 0.8654
433.20 0.8482
433.30 0.8308
433.40 0.8116
433.50 0.7908
433.60 0.7683
433.70 0.7402
433.80 0.7084
433.90 0.673
434.00 0.6141
434.10 0.6149
434.20 0.6754
434.30 0.7095
434.40 0.7401
434.50 0.767
434.60 0.7883
434.70 0.808
434.80 0.8261
434.90 0.8424
435.00 0.8585
435.10 0.8745
435.20 0.8909
435.30 0.9075
435.40 0.924
435.50 0.9402
435.60 0.956
435.70 0.9715
435.80 0.9863
435.90 1.001
436.00 1.015
436.10 1.029
436.20 1.042
436.30 1.056
436.40 1.069
436.50 1.081
436.60 1.094
436.70 1.106
436.80 1.118
436.90 1.129
437.00 1.141
437.10 1.152
437.20 1.163
437.30 1.173
437.40 1.183
437.50 1.193
437.60 1.203
437.70 1.213
437.80 1.222
437.90 1.231
438.00 1.239
438.10 1.248
438.20 1.256
438.30 1.264
438.40 1.272
438.50 1.279
438.60 1.286
438.70 1.294
438.80 1.3
438.90 1.307
439.00 1.313
439.10 1.319
439.20 1.325
439.30 1.331
439.40 1.336
439.50 1.342
439.60 1.347
439.70 1.352
439.80 1.357
439.90 1.361
440.00 1.366
440.10 1.37
440.20 1.374
440.30 1.378
440.40 1.382
440.50 1.386
440.60 1.389
440.70 1.392
440.80 1.396
440.90 1.399
441.00 1.402
441.10 1.405
441.20 1.408
441.30 1.41
441.40 1.413
441.50 1.415
441.60 1.418
441.70 1.42
441.80 1.422
441.90 1.424
442.00 1.426
442.10 1.428
442.20 1.43
442.30 1.431
442.40 1.433
442.50 1.434
442.60 1.436
442.70 1.437
442.80 1.439
442.90 1.44
443.00 1.441
443.10 1.442
443.20 1.443
443.30 1.444
443.40 1.445
443.50 1.446
443.60 1.447
443.70 1.447
443.80 1.448
443.90 1.449
444.00 1.449
444.10 1.45
444.20 1.45
444.30 1.451
444.40 1.451
444.50 1.452
444.60 1.452
444.70 1.452
444.80 1.453
444.90 1.453
445.00 1.453
445.10 1.453
445.20 1.453
445.30 1.453
445.40 1.453
445.50 1.453
445.60 1.453
445.70 1.453
445.80 1.453
445.90 1.453
446.00 1.453
446.10 1.453
446.20 1.453
446.30 1.453
446.40 1.452
446.50 1.452
446.60 1.452
446.70 1.452
446.80 1.451
446.90 1.451
447.00 1.451
447.10 1.45
447.20 1.45
447.30 1.45
447.40 1.449
447.50 1.449
447.60 1.448
447.70 1.448
447.80 1.447
447.90 1.447
448.00 1.447
448.10 1.446
448.20 1.445
448.30 1.445
448.40 1.444
448.50 1.444
448.60 1.443
448.70 1.443
448.80 1.442
448.90 1.441
449.00 1.441
449.10 1.44
449.20 1.44
449.30 1.439
449.40 1.439
449.50 1.438
449.60 1.437
449.70 1.436
449.80 1.436
449.90 1.435
450.00 1.434
450.10 1.434
450.20 1.433
450.30 1.432
450.40 1.431
450.50 1.431
450.60 1.43
450.70 1.429
450.80 1.428
450.90 1.428
451.00 1.427
451.10 1.426
451.20 1.425
451.30 1.425
451.40 1.424
451.50 1.423
451.60 1.422
451.70 1.421
451.80 1.42
451.90 1.42
452.00 1.419
452.10 1.418
452.20 1.417
452.30 1.416
452.40 1.415
452.50 1.415
452.60 1.414
452.70 1.413
452.80 1.412
452.90 1.411
453.00 1.41
453.10 1.409
453.20 1.408
453.30 1.407
453.40 1.407
453.50 1.406
453.60 1.405
453.70 1.404
453.80 1.403
