# Version 2.1 - nm, norm@500 to 1, cut digits, bergeron_15500_85.dat_15500
# Wavelength(nm)  Flambda(ergs/cm^s/s/nm)
300.00 2.505
300.10 2.503
300.20 2.501
300.30 2.499
300.40 2.497
300.50 2.494
300.60 2.492
300.70 2.49
300.80 2.488
300.90 2.486
301.00 2.484
301.10 2.482
301.20 2.48
301.30 2.478
301.40 2.476
301.50 2.474
301.60 2.472
301.70 2.47
301.80 2.468
301.90 2.466
302.00 2.464
302.10 2.462
302.20 2.46
302.30 2.458
302.40 2.456
302.50 2.454
302.60 2.452
302.70 2.45
302.80 2.448
302.90 2.446
303.00 2.444
303.10 2.442
303.20 2.44
303.30 2.438
303.40 2.436
303.50 2.434
303.60 2.432
303.70 2.431
303.80 2.429
303.90 2.427
304.00 2.425
304.10 2.423
304.20 2.421
304.30 2.419
304.40 2.417
304.50 2.415
304.60 2.413
304.70 2.411
304.80 2.409
304.90 2.407
305.00 2.405
305.10 2.403
305.20 2.401
305.30 2.399
305.40 2.397
305.50 2.395
305.60 2.394
305.70 2.392
305.80 2.39
305.90 2.388
306.00 2.386
306.10 2.384
306.20 2.382
306.30 2.38
306.40 2.378
306.50 2.376
306.60 2.374
306.70 2.372
306.80 2.371
306.90 2.369
307.00 2.367
307.10 2.365
307.20 2.363
307.30 2.361
307.40 2.359
307.50 2.357
307.60 2.355
307.70 2.354
307.80 2.352
307.90 2.35
308.00 2.348
308.10 2.346
308.20 2.344
308.30 2.342
308.40 2.34
308.50 2.339
308.60 2.337
308.70 2.335
308.80 2.333
308.90 2.331
309.00 2.329
309.10 2.327
309.20 2.325
309.30 2.324
309.40 2.322
309.50 2.32
309.60 2.318
309.70 2.316
309.80 2.314
309.90 2.313
310.00 2.311
310.10 2.309
310.20 2.307
310.30 2.305
310.40 2.303
310.50 2.302
310.60 2.3
310.70 2.298
310.80 2.296
310.90 2.294
311.00 2.292
311.10 2.291
311.20 2.289
311.30 2.287
311.40 2.285
311.50 2.283
311.60 2.282
311.70 2.28
311.80 2.278
311.90 2.276
312.00 2.274
312.10 2.273
312.20 2.271
312.30 2.269
312.40 2.267
312.50 2.265
312.60 2.264
312.70 2.262
312.80 2.26
312.90 2.258
313.00 2.256
313.10 2.255
313.20 2.253
313.30 2.251
313.40 2.249
313.50 2.248
313.60 2.246
313.70 2.244
313.80 2.242
313.90 2.241
314.00 2.239
314.10 2.237
314.20 2.235
314.30 2.233
314.40 2.232
314.50 2.23
314.60 2.228
314.70 2.226
314.80 2.225
314.90 2.223
315.00 2.221
315.10 2.219
315.20 2.218
315.30 2.216
315.40 2.214
315.50 2.212
315.60 2.211
315.70 2.209
315.80 2.207
315.90 2.206
316.00 2.204
316.10 2.202
316.20 2.2
316.30 2.199
316.40 2.197
316.50 2.195
316.60 2.194
316.70 2.192
316.80 2.19
316.90 2.188
317.00 2.187
317.10 2.185
317.20 2.183
317.30 2.182
317.40 2.18
317.50 2.178
317.60 2.176
317.70 2.175
317.80 2.173
317.90 2.171
318.00 2.17
318.10 2.168
318.20 2.166
318.30 2.165
318.40 2.163
318.50 2.161
318.60 2.16
318.70 2.158
318.80 2.156
318.90 2.155
319.00 2.153
319.10 2.151
319.20 2.15
319.30 2.148
319.40 2.146
319.50 2.145
319.60 2.143
319.70 2.141
319.80 2.14
319.90 2.138
320.00 2.136
320.10 2.135
320.20 2.133
320.30 2.131
320.40 2.13
320.50 2.128
320.60 2.126
320.70 2.125
320.80 2.123
320.90 2.122
321.00 2.12
321.10 2.118
321.20 2.117
321.30 2.115
321.40 2.113
321.50 2.112
321.60 2.11
321.70 2.108
321.80 2.107
321.90 2.105
322.00 2.104
322.10 2.102
322.20 2.1
322.30 2.099
322.40 2.097
322.50 2.096
322.60 2.094
322.70 2.092
322.80 2.091
322.90 2.089
323.00 2.087
323.10 2.086
323.20 2.084
323.30 2.083
323.40 2.081
323.50 2.079
323.60 2.078
323.70 2.076
323.80 2.075
323.90 2.073
324.00 2.071
324.10 2.07
324.20 2.068
324.30 2.067
324.40 2.065
324.50 2.064
324.60 2.062
324.70 2.06
324.80 2.059
324.90 2.057
325.00 2.056
325.10 2.054
325.20 2.053
325.30 2.051
325.40 2.049
325.50 2.048
325.60 2.046
325.70 2.045
325.80 2.043
325.90 2.042
326.00 2.04
326.10 2.038
326.20 2.037
326.30 2.035
326.40 2.034
326.50 2.032
326.60 2.031
326.70 2.029
326.80 2.028
326.90 2.026
327.00 2.025
327.10 2.023
327.20 2.021
327.30 2.02
327.40 2.018
327.50 2.017
327.60 2.015
327.70 2.014
327.80 2.012
327.90 2.011
328.00 2.009
328.10 2.008
328.20 2.006
328.30 2.005
328.40 2.003
328.50 2.002
328.60 2
328.70 1.998
328.80 1.997
328.90 1.995
329.00 1.994
329.10 1.992
329.20 1.991
329.30 1.989
329.40 1.988
329.50 1.986
329.60 1.985
329.70 1.983
329.80 1.982
329.90 1.98
330.00 1.979
330.10 1.977
330.20 1.976
330.30 1.974
330.40 1.973
330.50 1.971
330.60 1.97
330.70 1.968
330.80 1.967
330.90 1.966
331.00 1.964
331.10 1.963
331.20 1.961
331.30 1.96
331.40 1.958
331.50 1.957
331.60 1.955
331.70 1.954
331.80 1.952
331.90 1.951
332.00 1.949
332.10 1.948
332.20 1.946
332.30 1.945
332.40 1.944
332.50 1.942
332.60 1.941
332.70 1.939
332.80 1.938
332.90 1.936
333.00 1.935
333.10 1.933
333.20 1.932
333.30 1.93
333.40 1.929
333.50 1.927
333.60 1.926
333.70 1.925
333.80 1.923
333.90 1.922
334.00 1.92
334.10 1.919
334.20 1.917
334.30 1.916
334.40 1.915
334.50 1.913
334.60 1.912
334.70 1.91
334.80 1.909
334.90 1.907
335.00 1.906
335.10 1.905
335.20 1.903
335.30 1.902
335.40 1.9
335.50 1.899
335.60 1.898
335.70 1.896
335.80 1.895
335.90 1.893
336.00 1.892
336.10 1.89
336.20 1.889
336.30 1.888
336.40 1.886
336.50 1.885
336.60 1.883
336.70 1.882
336.80 1.881
336.90 1.879
337.00 1.878
337.10 1.876
337.20 1.875
337.30 1.874
337.40 1.872
337.50 1.871
337.60 1.869
337.70 1.868
337.80 1.867
337.90 1.865
338.00 1.864
338.10 1.862
338.20 1.861
338.30 1.86
338.40 1.858
338.50 1.857
338.60 1.856
338.70 1.854
338.80 1.853
338.90 1.851
339.00 1.85
339.10 1.849
339.20 1.847
339.30 1.846
339.40 1.845
339.50 1.843
339.60 1.842
339.70 1.841
339.80 1.839
339.90 1.838
340.00 1.837
340.10 1.835
340.20 1.834
340.30 1.832
340.40 1.831
340.50 1.83
340.60 1.828
340.70 1.827
340.80 1.826
340.90 1.824
341.00 1.823
341.10 1.822
341.20 1.82
341.30 1.819
341.40 1.818
341.50 1.816
341.60 1.815
341.70 1.814
341.80 1.812
341.90 1.811
342.00 1.81
342.10 1.808
342.20 1.807
342.30 1.806
342.40 1.804
342.50 1.803
342.60 1.802
342.70 1.8
342.80 1.799
342.90 1.798
343.00 1.796
343.10 1.795
343.20 1.794
343.30 1.793
343.40 1.791
343.50 1.79
343.60 1.789
343.70 1.787
343.80 1.786
343.90 1.785
344.00 1.783
344.10 1.782
344.20 1.781
344.30 1.779
344.40 1.778
344.50 1.777
344.60 1.776
344.70 1.774
344.80 1.773
344.90 1.772
345.00 1.77
345.10 1.769
345.20 1.768
345.30 1.767
345.40 1.765
345.50 1.764
345.60 1.763
345.70 1.761
345.80 1.76
345.90 1.759
346.00 1.758
346.10 1.756
346.20 1.755
346.30 1.754
346.40 1.752
346.50 1.751
346.60 1.75
346.70 1.749
346.80 1.747
346.90 1.746
347.00 1.745
347.10 1.744
347.20 1.742
347.30 1.741
347.40 1.74
347.50 1.739
347.60 1.737
347.70 1.736
347.80 1.735
347.90 1.733
348.00 1.732
348.10 1.731
348.20 1.73
348.30 1.728
348.40 1.727
348.50 1.726
348.60 1.725
348.70 1.723
348.80 1.722
348.90 1.721
349.00 1.72
349.10 1.718
349.20 1.717
349.30 1.716
349.40 1.715
349.50 1.713
349.60 1.712
349.70 1.711
349.80 1.71
349.90 1.709
350.00 1.707
350.10 1.706
350.20 1.705
350.30 1.704
350.40 1.702
350.50 1.701
350.60 1.7
350.70 1.699
350.80 1.697
350.90 1.696
351.00 1.695
351.10 1.694
351.20 1.693
351.30 1.691
351.40 1.69
351.50 1.689
351.60 1.688
351.70 1.687
351.80 1.685
351.90 1.684
352.00 1.683
352.10 1.682
352.20 1.68
352.30 1.679
352.40 1.678
352.50 1.677
352.60 1.676
352.70 1.674
352.80 1.673
352.90 1.672
353.00 1.671
353.10 1.67
353.20 1.669
353.30 1.667
353.40 1.666
353.50 1.665
353.60 1.664
353.70 1.663
353.80 1.661
353.90 1.66
354.00 1.659
354.10 1.658
354.20 1.657
354.30 1.655
354.40 1.654
354.50 1.653
354.60 1.652
354.70 1.651
354.80 1.65
354.90 1.648
355.00 1.647
355.10 1.646
355.20 1.645
355.30 1.644
355.40 1.642
355.50 1.641
355.60 1.64
355.70 1.639
355.80 1.638
355.90 1.637
356.00 1.635
356.10 1.634
356.20 1.633
356.30 1.632
356.40 1.631
356.50 1.63
356.60 1.628
356.70 1.627
356.80 1.626
356.90 1.625
357.00 1.624
357.10 1.623
357.20 1.622
357.30 1.62
357.40 1.619
357.50 1.618
357.60 1.617
357.70 1.616
357.80 1.615
357.90 1.613
358.00 1.612
358.10 1.611
358.20 1.61
358.30 1.609
358.40 1.608
358.50 1.607
358.60 1.606
358.70 1.604
358.80 1.603
358.90 1.602
359.00 1.601
359.10 1.6
359.20 1.599
359.30 1.598
359.40 1.596
359.50 1.595
359.60 1.594
359.70 1.593
359.80 1.592
359.90 1.591
360.00 1.59
360.10 1.589
360.20 1.587
360.30 1.586
360.40 1.585
360.50 1.584
360.60 1.583
360.70 1.582
360.80 1.581
360.90 1.58
361.00 1.579
361.10 1.577
361.20 1.576
361.30 1.575
361.40 1.574
361.50 1.573
361.60 1.572
361.70 1.571
361.80 1.57
361.90 1.569
362.00 1.567
362.10 1.566
362.20 1.565
362.30 1.564
362.40 1.563
362.50 1.562
362.60 1.561
362.70 1.56
362.80 1.559
362.90 1.558
363.00 1.556
363.10 1.555
363.20 1.554
363.30 1.553
363.40 1.552
363.50 1.55
363.60 1.549
363.70 1.548
363.80 1.547
363.90 1.545
364.00 1.544
364.10 1.543
364.20 1.542
364.30 1.541
364.40 1.539
364.50 1.538
364.60 1.537
364.70 1.536
364.80 1.534
364.90 1.533
365.00 1.532
365.10 1.531
365.20 1.529
365.30 1.528
365.40 1.527
365.50 1.526
365.60 1.524
365.70 1.523
365.80 1.522
365.90 1.521
366.00 1.519
366.10 1.518
366.20 1.517
366.30 1.516
366.40 1.515
366.50 1.514
366.60 1.513
366.70 1.512
366.80 1.51
366.90 1.509
367.00 1.508
367.10 1.507
367.20 1.506
367.30 1.505
367.40 1.504
367.50 1.503
367.60 1.502
367.70 1.5
367.80 1.499
367.90 1.498
368.00 1.497
368.10 1.496
368.20 1.495
368.30 1.494
368.40 1.493
368.50 1.492
368.60 1.491
368.70 1.49
368.80 1.489
368.90 1.488
369.00 1.487
369.10 1.485
369.20 1.484
369.30 1.483
369.40 1.482
369.50 1.481
369.60 1.48
369.70 1.479
369.80 1.478
369.90 1.477
370.00 1.476
370.10 1.475
370.20 1.474
370.30 1.473
370.40 1.473
370.50 1.472
370.60 1.471
370.70 1.47
370.80 1.469
370.90 1.468
371.00 1.467
371.10 1.467
371.20 1.466
371.30 1.465
371.40 1.464
371.50 1.463
371.60 1.462
371.70 1.461
371.80 1.461
371.90 1.46
372.00 1.459
372.10 1.458
372.20 1.458
372.30 1.458
372.40 1.457
372.50 1.457
372.60 1.456
372.70 1.456
372.80 1.455
372.90 1.455
373.00 1.454
373.10 1.454
373.20 1.453
373.30 1.453
373.40 1.452
373.50 1.452
373.60 1.451
373.70 1.451
373.80 1.451
373.90 1.45
374.00 1.45
374.10 1.449
374.20 1.449
374.30 1.449
374.40 1.449
374.50 1.449
374.60 1.449
374.70 1.449
374.80 1.448
374.90 1.448
375.00 1.448
375.10 1.448
375.20 1.448
375.30 1.448
375.40 1.447
375.50 1.447
375.60 1.447
375.70 1.447
375.80 1.447
375.90 1.447
376.00 1.447
376.10 1.446
376.20 1.446
376.30 1.446
376.40 1.445
376.50 1.445
376.60 1.445
376.70 1.445
376.80 1.444
376.90 1.444
377.00 1.444
377.10 1.443
377.20 1.442
377.30 1.441
377.40 1.441
377.50 1.44
377.60 1.439
377.70 1.438
377.80 1.437
377.90 1.436
378.00 1.436
378.10 1.433
378.20 1.43
378.30 1.428
378.40 1.425
378.50 1.422
378.60 1.42
378.70 1.417
378.80 1.415
378.90 1.412
379.00 1.409
379.10 1.408
379.20 1.406
379.30 1.404
379.40 1.402
379.50 1.4
379.60 1.399
379.70 1.397
379.80 1.395
379.90 1.393
380.00 1.392
380.10 1.393
380.20 1.395
380.30 1.397
380.40 1.399
380.50 1.401
380.60 1.403
380.70 1.405
380.80 1.407
380.90 1.409
381.00 1.411
381.10 1.411
381.20 1.411
381.30 1.412
381.40 1.412
381.50 1.412
381.60 1.411
381.70 1.41
381.80 1.408
381.90 1.406
382.00 1.404
382.10 1.401
382.20 1.397
382.30 1.39
382.40 1.384
382.50 1.378
382.60 1.371
382.70 1.365
382.80 1.359
382.90 1.352
383.00 1.346
383.10 1.34
383.20 1.333
383.30 1.329
383.40 1.325
383.50 1.319
383.60 1.32
383.70 1.326
383.80 1.33
383.90 1.334
384.00 1.34
384.10 1.348
384.20 1.356
384.30 1.364
384.40 1.371
384.50 1.378
384.60 1.384
384.70 1.39
384.80 1.394
384.90 1.399
385.00 1.402
385.10 1.405
385.20 1.407
385.30 1.409
385.40 1.41
385.50 1.41
385.60 1.411
385.70 1.411
385.80 1.41
385.90 1.409
386.00 1.408
386.10 1.406
386.20 1.404
386.30 1.401
386.40 1.398
386.50 1.395
386.60 1.391
386.70 1.387
386.80 1.382
386.90 1.377
387.00 1.372
387.10 1.366
387.20 1.359
387.30 1.353
387.40 1.345
387.50 1.337
387.60 1.328
387.70 1.319
387.80 1.309
387.90 1.298
388.00 1.286
388.10 1.272
388.20 1.258
388.30 1.242
388.40 1.226
388.50 1.211
388.60 1.197
388.70 1.188
388.80 1.181
388.90 1.174
389.00 1.18
389.10 1.187
389.20 1.196
389.30 1.21
389.40 1.225
389.50 1.241
389.60 1.257
389.70 1.273
389.80 1.287
389.90 1.299
390.00 1.311
390.10 1.322
390.20 1.332
390.30 1.342
390.40 1.351
390.50 1.359
390.60 1.367
390.70 1.375
390.80 1.382
390.90 1.388
391.00 1.395
391.10 1.4
391.20 1.406
391.30 1.411
391.40 1.416
391.50 1.42
391.60 1.424
391.70 1.428
391.80 1.431
391.90 1.434
392.00 1.436
392.10 1.438
392.20 1.439
392.30 1.44
392.40 1.441
392.50 1.441
392.60 1.44
392.70 1.439
392.80 1.438
392.90 1.436
393.00 1.433
393.10 1.43
393.20 1.427
393.30 1.423
393.40 1.419
393.50 1.413
393.60 1.408
393.70 1.402
393.80 1.396
393.90 1.389
394.00 1.381
394.10 1.373
394.20 1.365
394.30 1.356
394.40 1.347
394.50 1.337
394.60 1.327
394.70 1.316
394.80 1.305
394.90 1.293
395.00 1.281
395.10 1.269
395.20 1.256
395.30 1.243
395.40 1.23
395.50 1.216
395.60 1.202
395.70 1.187
395.80 1.171
395.90 1.155
396.00 1.139
396.10 1.122
396.20 1.104
396.30 1.084
396.40 1.063
396.50 1.038
396.60 1.012
396.70 0.9849
396.80 0.9652
396.90 0.9454
397.00 0.9256
397.10 0.9434
397.20 0.9614
397.30 0.9794
397.40 1.005
397.50 1.031
397.60 1.055
397.70 1.077
397.80 1.096
397.90 1.114
398.00 1.13
398.10 1.146
398.20 1.162
398.30 1.177
398.40 1.191
398.50 1.206
398.60 1.219
398.70 1.233
398.80 1.246
398.90 1.259
399.00 1.272
399.10 1.284
399.20 1.296
399.30 1.308
399.40 1.32
399.50 1.331
399.60 1.342
399.70 1.353
399.80 1.363
399.90 1.373
400.00 1.383
400.10 1.393
400.20 1.402
400.30 1.411
400.40 1.419
400.50 1.427
400.60 1.435
400.70 1.443
400.80 1.45
400.90 1.457
401.00 1.463
401.10 1.47
401.20 1.476
401.30 1.481
401.40 1.487
401.50 1.492
401.60 1.496
401.70 1.501
401.80 1.505
401.90 1.508
402.00 1.512
402.10 1.515
402.20 1.518
402.30 1.52
402.40 1.523
402.50 1.525
402.60 1.526
402.70 1.528
402.80 1.528
402.90 1.529
403.00 1.53
403.10 1.53
403.20 1.529
403.30 1.529
403.40 1.528
403.50 1.527
403.60 1.526
403.70 1.524
403.80 1.522
403.90 1.519
404.00 1.516
404.10 1.513
404.20 1.51
404.30 1.506
404.40 1.502
404.50 1.498
404.60 1.494
404.70 1.489
404.80 1.484
404.90 1.478
405.00 1.472
405.10 1.466
405.20 1.459
405.30 1.453
405.40 1.446
405.50 1.438
405.60 1.43
405.70 1.423
405.80 1.414
405.90 1.405
406.00 1.397
406.10 1.387
406.20 1.378
406.30 1.368
406.40 1.358
406.50 1.347
406.60 1.337
406.70 1.325
406.80 1.314
406.90 1.302
407.00 1.29
407.10 1.278
407.20 1.266
407.30 1.253
407.40 1.239
407.50 1.226
407.60 1.212
407.70 1.198
407.80 1.184
407.90 1.169
408.00 1.155
408.10 1.14
408.20 1.124
408.30 1.109
408.40 1.094
408.50 1.078
408.60 1.062
408.70 1.045
408.80 1.029
408.90 1.012
409.00 0.9949
409.10 0.9779
409.20 0.9607
409.30 0.9433
409.40 0.9247
409.50 0.9048
409.60 0.8836
409.70 0.8586
409.80 0.8319
409.90 0.8036
410.00 0.7769
410.10 0.7561
410.20 0.7412
410.30 0.7646
410.40 0.7898
410.50 0.8168
410.60 0.8434
410.70 0.8681
410.80 0.8908
410.90 0.9099
411.00 0.9279
411.10 0.9449
411.20 0.9611
411.30 0.9771
411.40 0.993
411.50 1.009
411.60 1.024
411.70 1.04
411.80 1.055
411.90 1.069
412.00 1.084
412.10 1.098
412.20 1.112
412.30 1.126
412.40 1.14
412.50 1.153
412.60 1.166
412.70 1.179
412.80 1.192
412.90 1.204
413.00 1.216
413.10 1.228
413.20 1.24
413.30 1.252
413.40 1.263
413.50 1.274
413.60 1.284
413.70 1.295
413.80 1.305
413.90 1.315
414.00 1.325
414.10 1.335
414.20 1.344
414.30 1.353
414.40 1.362
414.50 1.37
414.60 1.379
414.70 1.387
414.80 1.395
414.90 1.403
415.00 1.411
415.10 1.418
415.20 1.425
415.30 1.432
415.40 1.439
415.50 1.446
415.60 1.453
415.70 1.459
415.80 1.465
415.90 1.471
416.00 1.477
416.10 1.483
416.20 1.488
416.30 1.493
416.40 1.499
416.50 1.504
416.60 1.508
416.70 1.513
416.80 1.518
416.90 1.522
417.00 1.526
417.10 1.53
417.20 1.534
417.30 1.538
417.40 1.542
417.50 1.545
417.60 1.549
417.70 1.552
417.80 1.555
417.90 1.558
418.00 1.561
418.10 1.563
418.20 1.566
418.30 1.568
418.40 1.571
418.50 1.573
418.60 1.575
418.70 1.577
418.80 1.579
418.90 1.581
419.00 1.582
419.10 1.584
419.20 1.585
419.30 1.587
419.40 1.588
419.50 1.589
419.60 1.59
419.70 1.591
419.80 1.592
419.90 1.593
420.00 1.594
420.10 1.594
420.20 1.595
420.30 1.595
420.40 1.595
420.50 1.596
420.60 1.596
420.70 1.596
420.80 1.596
420.90 1.596
421.00 1.595
421.10 1.595
421.20 1.595
421.30 1.594
421.40 1.594
421.50 1.593
421.60 1.592
421.70 1.592
421.80 1.591
421.90 1.59
422.00 1.589
422.10 1.588
422.20 1.586
422.30 1.585
422.40 1.584
422.50 1.582
422.60 1.581
422.70 1.579
422.80 1.577
422.90 1.575
423.00 1.574
423.10 1.572
423.20 1.57
423.30 1.568
423.40 1.565
423.50 1.563
423.60 1.561
423.70 1.558
423.80 1.556
423.90 1.553
424.00 1.55
424.10 1.548
424.20 1.545
424.30 1.542
424.40 1.539
424.50 1.536
424.60 1.532
424.70 1.529
424.80 1.526
424.90 1.522
425.00 1.518
425.10 1.515
425.20 1.511
425.30 1.507
425.40 1.503
425.50 1.499
425.60 1.495
425.70 1.491
425.80 1.486
425.90 1.482
426.00 1.477
426.10 1.472
426.20 1.466
426.30 1.461
426.40 1.456
426.50 1.451
426.60 1.446
426.70 1.44
426.80 1.435
426.90 1.429
427.00 1.423
427.10 1.418
427.20 1.412
427.30 1.406
427.40 1.399
427.50 1.393
427.60 1.387
427.70 1.38
427.80 1.373
427.90 1.366
428.00 1.359
428.10 1.352
428.20 1.345
428.30 1.338
428.40 1.33
428.50 1.323
428.60 1.315
428.70 1.307
428.80 1.299
428.90 1.291
429.00 1.283
429.10 1.274
429.20 1.266
429.30 1.257
429.40 1.248
429.50 1.239
429.60 1.23
429.70 1.22
429.80 1.211
429.90 1.201
430.00 1.191
430.10 1.182
430.20 1.172
430.30 1.161
430.40 1.151
430.50 1.141
430.60 1.13
430.70 1.119
430.80 1.108
430.90 1.097
431.00 1.086
431.10 1.074
431.20 1.063
431.30 1.051
431.40 1.039
431.50 1.027
431.60 1.015
431.70 1.002
431.80 0.9896
431.90 0.9767
432.00 0.9637
432.10 0.9505
432.20 0.937
432.30 0.9232
432.40 0.9092
432.50 0.8946
432.60 0.8797
432.70 0.8645
432.80 0.8491
432.90 0.8336
433.00 0.8182
433.10 0.8033
433.20 0.7884
433.30 0.7735
433.40 0.7575
433.50 0.7402
433.60 0.7216
433.70 0.6968
433.80 0.6678
433.90 0.6347
434.00 0.5881
434.10 0.5888
434.20 0.6368
434.30 0.6689
434.40 0.6968
434.50 0.7205
434.60 0.7381
434.70 0.7545
434.80 0.7695
434.90 0.7835
435.00 0.7976
435.10 0.8116
435.20 0.8261
435.30 0.8405
435.40 0.8549
435.50 0.869
435.60 0.8827
435.70 0.8962
435.80 0.9089
435.90 0.9215
436.00 0.9338
436.10 0.9457
436.20 0.9574
436.30 0.9689
436.40 0.9801
436.50 0.9912
436.60 1.002
436.70 1.013
436.80 1.023
436.90 1.033
437.00 1.044
437.10 1.053
437.20 1.063
437.30 1.073
437.40 1.082
437.50 1.091
437.60 1.1
437.70 1.109
437.80 1.118
437.90 1.126
438.00 1.135
438.10 1.143
438.20 1.151
438.30 1.159
438.40 1.166
438.50 1.174
438.60 1.181
438.70 1.189
438.80 1.196
438.90 1.203
439.00 1.21
439.10 1.216
439.20 1.223
439.30 1.229
439.40 1.235
439.50 1.241
439.60 1.247
439.70 1.253
439.80 1.259
439.90 1.264
440.00 1.269
440.10 1.275
440.20 1.28
440.30 1.285
440.40 1.29
440.50 1.295
440.60 1.299
440.70 1.304
440.80 1.308
440.90 1.313
441.00 1.317
441.10 1.321
441.20 1.325
441.30 1.329
441.40 1.332
441.50 1.336
441.60 1.34
441.70 1.343
441.80 1.346
441.90 1.35
442.00 1.353
442.10 1.356
442.20 1.359
442.30 1.362
442.40 1.365
442.50 1.367
442.60 1.37
442.70 1.372
442.80 1.375
442.90 1.377
443.00 1.38
443.10 1.382
443.20 1.384
443.30 1.386
443.40 1.388
443.50 1.39
443.60 1.392
443.70 1.394
443.80 1.396
443.90 1.397
444.00 1.399
444.10 1.401
444.20 1.402
444.30 1.404
444.40 1.405
444.50 1.406
444.60 1.408
444.70 1.409
444.80 1.41
444.90 1.411
445.00 1.413
445.10 1.414
445.20 1.415
445.30 1.416
445.40 1.416
445.50 1.417
445.60 1.418
445.70 1.419
445.80 1.42
445.90 1.421
446.00 1.421
446.10 1.422
446.20 1.423
446.30 1.423
446.40 1.424
446.50 1.424
446.60 1.425
446.70 1.425
446.80 1.425
446.90 1.426
447.00 1.426
447.10 1.426
447.20 1.427
447.30 1.427
447.40 1.427
447.50 1.427
447.60 1.428
447.70 1.428
447.80 1.428
447.90 1.428
448.00 1.428
448.10 1.428
448.20 1.428
448.30 1.428
448.40 1.428
448.50 1.428
448.60 1.428
448.70 1.428
448.80 1.428
448.90 1.428
449.00 1.428
449.10 1.428
449.20 1.428
449.30 1.427
449.40 1.427
449.50 1.427
449.60 1.427
449.70 1.427
449.80 1.426
449.90 1.426
450.00 1.426
450.10 1.425
450.20 1.425
450.30 1.425
450.40 1.424
450.50 1.424
450.60 1.424
450.70 1.423
450.80 1.423
450.90 1.422
451.00 1.422
451.10 1.421
451.20 1.421
451.30 1.42
451.40 1.42
451.50 1.419
451.60 1.419
451.70 1.418
451.80 1.418
451.90 1.417
452.00 1.417
452.10 1.416
452.20 1.416
452.30 1.415
452.40 1.415
452.50 1.414
452.60 1.413
452.70 1.413
452.80 1.412
452.90 1.411
453.00 1.411
453.10 1.41
453.20 1.409
453.30 1.409
453.40 1.408
