# Version 2.1 - nm, norm@500 to 1, cut digits, bergeron_7000_85.dat_7000
# Wavelength(nm)  Flambda(ergs/cm^s/s/nm)
300.00 1.077
300.10 1.078
300.20 1.078
300.30 1.078
300.40 1.079
300.50 1.079
300.60 1.079
300.70 1.08
300.80 1.08
300.90 1.08
301.00 1.081
301.10 1.081
301.20 1.081
301.30 1.082
301.40 1.082
301.50 1.082
301.60 1.082
301.70 1.083
301.80 1.083
301.90 1.083
302.00 1.084
302.10 1.084
302.20 1.084
302.30 1.085
302.40 1.085
302.50 1.085
302.60 1.086
302.70 1.086
302.80 1.086
302.90 1.086
303.00 1.087
303.10 1.087
303.20 1.087
303.30 1.088
303.40 1.088
303.50 1.088
303.60 1.089
303.70 1.089
303.80 1.089
303.90 1.089
304.00 1.09
304.10 1.09
304.20 1.09
304.30 1.091
304.40 1.091
304.50 1.091
304.60 1.091
304.70 1.092
304.80 1.092
304.90 1.092
305.00 1.093
305.10 1.093
305.20 1.093
305.30 1.093
305.40 1.094
305.50 1.094
305.60 1.094
305.70 1.095
305.80 1.095
305.90 1.095
306.00 1.095
306.10 1.096
306.20 1.096
306.30 1.096
306.40 1.097
306.50 1.097
306.60 1.097
306.70 1.097
306.80 1.098
306.90 1.098
307.00 1.098
307.10 1.099
307.20 1.099
307.30 1.099
307.40 1.099
307.50 1.1
307.60 1.1
307.70 1.1
307.80 1.1
307.90 1.101
308.00 1.101
308.10 1.101
308.20 1.102
308.30 1.102
308.40 1.102
308.50 1.102
308.60 1.103
308.70 1.103
308.80 1.103
308.90 1.103
309.00 1.104
309.10 1.104
309.20 1.104
309.30 1.104
309.40 1.105
309.50 1.105
309.60 1.105
309.70 1.106
309.80 1.106
309.90 1.106
310.00 1.106
310.10 1.107
310.20 1.107
310.30 1.107
310.40 1.107
310.50 1.108
310.60 1.108
310.70 1.108
310.80 1.108
310.90 1.109
311.00 1.109
311.10 1.109
311.20 1.109
311.30 1.11
311.40 1.11
311.50 1.11
311.60 1.11
311.70 1.111
311.80 1.111
311.90 1.111
312.00 1.111
312.10 1.112
312.20 1.112
312.30 1.112
312.40 1.112
312.50 1.113
312.60 1.113
312.70 1.113
312.80 1.113
312.90 1.114
313.00 1.114
313.10 1.114
313.20 1.114
313.30 1.115
313.40 1.115
313.50 1.115
313.60 1.115
313.70 1.115
313.80 1.116
313.90 1.116
314.00 1.116
314.10 1.116
314.20 1.117
314.30 1.117
314.40 1.117
314.50 1.117
314.60 1.118
314.70 1.118
314.80 1.118
314.90 1.118
315.00 1.119
315.10 1.119
315.20 1.119
315.30 1.119
315.40 1.119
315.50 1.12
315.60 1.12
315.70 1.12
315.80 1.12
315.90 1.121
316.00 1.121
316.10 1.121
316.20 1.121
316.30 1.121
316.40 1.122
316.50 1.122
316.60 1.122
316.70 1.122
316.80 1.123
316.90 1.123
317.00 1.123
317.10 1.123
317.20 1.123
317.30 1.124
317.40 1.124
317.50 1.124
317.60 1.124
317.70 1.125
317.80 1.125
317.90 1.125
318.00 1.125
318.10 1.125
318.20 1.126
318.30 1.126
318.40 1.126
318.50 1.126
318.60 1.126
318.70 1.127
318.80 1.127
318.90 1.127
319.00 1.127
319.10 1.128
319.20 1.128
319.30 1.128
319.40 1.128
319.50 1.128
319.60 1.129
319.70 1.129
319.80 1.129
319.90 1.129
320.00 1.129
320.10 1.13
320.20 1.13
320.30 1.13
320.40 1.13
320.50 1.13
320.60 1.131
320.70 1.131
320.80 1.131
320.90 1.131
321.00 1.131
321.10 1.132
321.20 1.132
321.30 1.132
321.40 1.132
321.50 1.132
321.60 1.133
321.70 1.133
321.80 1.133
321.90 1.133
322.00 1.133
322.10 1.134
322.20 1.134
322.30 1.134
322.40 1.134
322.50 1.134
322.60 1.134
322.70 1.135
322.80 1.135
322.90 1.135
323.00 1.135
323.10 1.135
323.20 1.136
323.30 1.136
323.40 1.136
323.50 1.136
323.60 1.136
323.70 1.137
323.80 1.137
323.90 1.137
324.00 1.137
324.10 1.137
324.20 1.137
324.30 1.138
324.40 1.138
324.50 1.138
324.60 1.138
324.70 1.138
324.80 1.138
324.90 1.139
325.00 1.139
325.10 1.139
325.20 1.139
325.30 1.139
325.40 1.14
325.50 1.14
325.60 1.14
325.70 1.14
325.80 1.14
325.90 1.14
326.00 1.141
326.10 1.141
326.20 1.141
326.30 1.141
326.40 1.141
326.50 1.141
326.60 1.142
326.70 1.142
326.80 1.142
326.90 1.142
327.00 1.142
327.10 1.142
327.20 1.143
327.30 1.143
327.40 1.143
327.50 1.143
327.60 1.143
327.70 1.143
327.80 1.144
327.90 1.144
328.00 1.144
328.10 1.144
328.20 1.144
328.30 1.144
328.40 1.145
328.50 1.145
328.60 1.145
328.70 1.145
328.80 1.145
328.90 1.145
329.00 1.145
329.10 1.146
329.20 1.146
329.30 1.146
329.40 1.146
329.50 1.146
329.60 1.146
329.70 1.147
329.80 1.147
329.90 1.147
330.00 1.147
330.10 1.147
330.20 1.147
330.30 1.147
330.40 1.148
330.50 1.148
330.60 1.148
330.70 1.148
330.80 1.148
330.90 1.148
331.00 1.148
331.10 1.149
331.20 1.149
331.30 1.149
331.40 1.149
331.50 1.149
331.60 1.149
331.70 1.149
331.80 1.15
331.90 1.15
332.00 1.15
332.10 1.15
332.20 1.15
332.30 1.15
332.40 1.15
332.50 1.151
332.60 1.151
332.70 1.151
332.80 1.151
332.90 1.151
333.00 1.151
333.10 1.151
333.20 1.152
333.30 1.152
333.40 1.152
333.50 1.152
333.60 1.152
333.70 1.152
333.80 1.152
333.90 1.152
334.00 1.153
334.10 1.153
334.20 1.153
334.30 1.153
334.40 1.153
334.50 1.153
334.60 1.153
334.70 1.153
334.80 1.154
334.90 1.154
335.00 1.154
335.10 1.154
335.20 1.154
335.30 1.154
335.40 1.154
335.50 1.154
335.60 1.155
335.70 1.155
335.80 1.155
335.90 1.155
336.00 1.155
336.10 1.155
336.20 1.155
336.30 1.155
336.40 1.156
336.50 1.156
336.60 1.156
336.70 1.156
336.80 1.156
336.90 1.156
337.00 1.156
337.10 1.156
337.20 1.156
337.30 1.157
337.40 1.157
337.50 1.157
337.60 1.157
337.70 1.157
337.80 1.157
337.90 1.157
338.00 1.157
338.10 1.158
338.20 1.158
338.30 1.158
338.40 1.158
338.50 1.158
338.60 1.158
338.70 1.158
338.80 1.158
338.90 1.158
339.00 1.158
339.10 1.159
339.20 1.159
339.30 1.159
339.40 1.159
339.50 1.159
339.60 1.159
339.70 1.159
339.80 1.159
339.90 1.159
340.00 1.16
340.10 1.16
340.20 1.16
340.30 1.16
340.40 1.16
340.50 1.16
340.60 1.16
340.70 1.16
340.80 1.16
340.90 1.16
341.00 1.16
341.10 1.161
341.20 1.161
341.30 1.161
341.40 1.161
341.50 1.161
341.60 1.161
341.70 1.161
341.80 1.161
341.90 1.161
342.00 1.161
342.10 1.162
342.20 1.162
342.30 1.162
342.40 1.162
342.50 1.162
342.60 1.162
342.70 1.162
342.80 1.162
342.90 1.162
343.00 1.162
343.10 1.162
343.20 1.163
343.30 1.163
343.40 1.163
343.50 1.163
343.60 1.163
343.70 1.163
343.80 1.163
343.90 1.163
344.00 1.163
344.10 1.163
344.20 1.163
344.30 1.163
344.40 1.164
344.50 1.164
344.60 1.164
344.70 1.164
344.80 1.164
344.90 1.164
345.00 1.164
345.10 1.164
345.20 1.164
345.30 1.164
345.40 1.164
345.50 1.164
345.60 1.164
345.70 1.165
345.80 1.165
345.90 1.165
346.00 1.165
346.10 1.165
346.20 1.165
346.30 1.165
346.40 1.165
346.50 1.165
346.60 1.165
346.70 1.165
346.80 1.165
346.90 1.165
347.00 1.165
347.10 1.166
347.20 1.166
347.30 1.166
347.40 1.166
347.50 1.166
347.60 1.166
347.70 1.166
347.80 1.166
347.90 1.166
348.00 1.166
348.10 1.166
348.20 1.166
348.30 1.166
348.40 1.166
348.50 1.166
348.60 1.167
348.70 1.167
348.80 1.167
348.90 1.167
349.00 1.167
349.10 1.167
349.20 1.167
349.30 1.167
349.40 1.167
349.50 1.167
349.60 1.167
349.70 1.167
349.80 1.167
349.90 1.167
350.00 1.167
350.10 1.167
350.20 1.168
350.30 1.168
350.40 1.168
350.50 1.168
350.60 1.168
350.70 1.168
350.80 1.168
350.90 1.168
351.00 1.168
351.10 1.168
351.20 1.168
351.30 1.168
351.40 1.168
351.50 1.168
351.60 1.168
351.70 1.168
351.80 1.168
351.90 1.168
352.00 1.168
352.10 1.168
352.20 1.169
352.30 1.169
352.40 1.169
352.50 1.169
352.60 1.169
352.70 1.169
352.80 1.169
352.90 1.169
353.00 1.169
353.10 1.169
353.20 1.169
353.30 1.169
353.40 1.169
353.50 1.169
353.60 1.169
353.70 1.169
353.80 1.169
353.90 1.169
354.00 1.169
354.10 1.169
354.20 1.169
354.30 1.169
354.40 1.169
354.50 1.17
354.60 1.17
354.70 1.17
354.80 1.17
354.90 1.17
355.00 1.17
355.10 1.17
355.20 1.17
355.30 1.17
355.40 1.17
355.50 1.17
355.60 1.17
355.70 1.17
355.80 1.17
355.90 1.17
356.00 1.17
356.10 1.17
356.20 1.17
356.30 1.17
356.40 1.17
356.50 1.17
356.60 1.17
356.70 1.17
356.80 1.17
356.90 1.17
357.00 1.17
357.10 1.17
357.20 1.17
357.30 1.17
357.40 1.17
357.50 1.17
357.60 1.171
357.70 1.171
357.80 1.171
357.90 1.171
358.00 1.171
358.10 1.171
358.20 1.171
358.30 1.171
358.40 1.171
358.50 1.171
358.60 1.171
358.70 1.171
358.80 1.171
358.90 1.171
359.00 1.171
359.10 1.171
359.20 1.171
359.30 1.171
359.40 1.171
359.50 1.171
359.60 1.171
359.70 1.171
359.80 1.171
359.90 1.171
360.00 1.171
360.10 1.171
360.20 1.171
360.30 1.171
360.40 1.171
360.50 1.171
360.60 1.171
360.70 1.171
360.80 1.171
360.90 1.171
361.00 1.171
361.10 1.171
361.20 1.171
361.30 1.171
361.40 1.171
361.50 1.171
361.60 1.171
361.70 1.171
361.80 1.171
361.90 1.171
362.00 1.171
362.10 1.171
362.20 1.171
362.30 1.171
362.40 1.171
362.50 1.171
362.60 1.171
362.70 1.171
362.80 1.171
362.90 1.171
363.00 1.171
363.10 1.171
363.20 1.171
363.30 1.171
363.40 1.171
363.50 1.171
363.60 1.171
363.70 1.171
363.80 1.171
363.90 1.171
364.00 1.171
364.10 1.171
364.20 1.171
364.30 1.171
364.40 1.171
364.50 1.171
364.60 1.171
364.70 1.171
364.80 1.171
364.90 1.171
365.00 1.171
365.10 1.171
365.20 1.171
365.30 1.171
365.40 1.171
365.50 1.171
365.60 1.171
365.70 1.171
365.80 1.171
365.90 1.171
366.00 1.171
366.10 1.171
366.20 1.171
366.30 1.171
366.40 1.171
366.50 1.171
366.60 1.171
366.70 1.171
366.80 1.171
366.90 1.171
367.00 1.171
367.10 1.171
367.20 1.171
367.30 1.171
367.40 1.171
367.50 1.171
367.60 1.171
367.70 1.171
367.80 1.171
367.90 1.171
368.00 1.171
368.10 1.171
368.20 1.171
368.30 1.171
368.40 1.171
368.50 1.171
368.60 1.171
368.70 1.171
368.80 1.171
368.90 1.171
369.00 1.171
369.10 1.171
369.20 1.171
369.30 1.171
369.40 1.171
369.50 1.171
369.60 1.171
369.70 1.171
369.80 1.171
369.90 1.171
370.00 1.171
370.10 1.171
370.20 1.171
370.30 1.171
370.40 1.171
370.50 1.171
370.60 1.171
370.70 1.171
370.80 1.171
370.90 1.171
371.00 1.17
371.10 1.17
371.20 1.17
371.30 1.17
371.40 1.17
371.50 1.17
371.60 1.17
371.70 1.17
371.80 1.17
371.90 1.17
372.00 1.17
372.10 1.17
372.20 1.17
372.30 1.17
372.40 1.17
372.50 1.17
372.60 1.17
372.70 1.17
372.80 1.17
372.90 1.17
373.00 1.17
373.10 1.17
373.20 1.17
373.30 1.17
373.40 1.17
373.50 1.17
373.60 1.17
373.70 1.17
373.80 1.17
373.90 1.17
374.00 1.17
374.10 1.17
374.20 1.17
374.30 1.17
374.40 1.17
374.50 1.17
374.60 1.17
374.70 1.17
374.80 1.17
374.90 1.17
375.00 1.17
375.10 1.17
375.20 1.17
375.30 1.169
375.40 1.169
375.50 1.169
375.60 1.169
375.70 1.169
375.80 1.169
375.90 1.169
376.00 1.169
376.10 1.169
376.20 1.169
376.30 1.169
376.40 1.169
376.50 1.169
376.60 1.169
376.70 1.169
376.80 1.169
376.90 1.169
377.00 1.169
377.10 1.169
377.20 1.169
377.30 1.169
377.40 1.169
377.50 1.169
377.60 1.169
377.70 1.169
377.80 1.169
377.90 1.169
378.00 1.169
378.10 1.169
378.20 1.169
378.30 1.169
378.40 1.169
378.50 1.169
378.60 1.168
378.70 1.168
378.80 1.168
378.90 1.168
379.00 1.168
379.10 1.168
379.20 1.167
379.30 1.167
379.40 1.167
379.50 1.167
379.60 1.166
379.70 1.166
379.80 1.166
379.90 1.165
380.00 1.165
380.10 1.166
380.20 1.166
380.30 1.167
380.40 1.167
380.50 1.167
380.60 1.168
380.70 1.168
380.80 1.169
380.90 1.169
381.00 1.17
381.10 1.17
381.20 1.17
381.30 1.17
381.40 1.17
381.50 1.17
381.60 1.17
381.70 1.17
381.80 1.17
381.90 1.17
382.00 1.17
382.10 1.169
382.20 1.169
382.30 1.168
382.40 1.167
382.50 1.166
382.60 1.165
382.70 1.164
382.80 1.163
382.90 1.162
383.00 1.161
383.10 1.16
383.20 1.159
383.30 1.157
383.40 1.152
383.50 1.144
383.60 1.147
383.70 1.154
383.80 1.158
383.90 1.16
384.00 1.162
384.10 1.164
384.20 1.165
384.30 1.167
384.40 1.168
384.50 1.169
384.60 1.169
384.70 1.17
384.80 1.171
384.90 1.171
385.00 1.172
385.10 1.172
385.20 1.172
385.30 1.173
385.40 1.173
385.50 1.173
385.60 1.173
385.70 1.173
385.80 1.173
385.90 1.173
386.00 1.173
386.10 1.173
386.20 1.173
386.30 1.173
386.40 1.173
386.50 1.173
386.60 1.173
386.70 1.173
386.80 1.172
386.90 1.172
387.00 1.172
387.10 1.171
387.20 1.171
387.30 1.17
387.40 1.169
387.50 1.168
387.60 1.167
387.70 1.166
387.80 1.164
387.90 1.162
388.00 1.16
388.10 1.158
388.20 1.154
388.30 1.151
388.40 1.146
388.50 1.141
388.60 1.135
388.70 1.126
388.80 1.112
388.90 1.092
389.00 1.112
389.10 1.126
389.20 1.135
389.30 1.141
389.40 1.146
389.50 1.151
389.60 1.155
389.70 1.158
389.80 1.161
389.90 1.163
390.00 1.165
390.10 1.167
390.20 1.168
390.30 1.169
390.40 1.17
390.50 1.171
390.60 1.172
390.70 1.173
390.80 1.173
390.90 1.174
391.00 1.174
391.10 1.175
391.20 1.175
391.30 1.175
391.40 1.175
391.50 1.176
391.60 1.176
391.70 1.176
391.80 1.176
391.90 1.176
392.00 1.176
392.10 1.176
392.20 1.177
392.30 1.177
392.40 1.177
392.50 1.177
392.60 1.177
392.70 1.177
392.80 1.177
392.90 1.177
393.00 1.176
393.10 1.176
393.20 1.176
393.30 1.176
393.40 1.176
393.50 1.176
393.60 1.176
393.70 1.175
393.80 1.175
393.90 1.175
394.00 1.175
394.10 1.174
394.20 1.174
394.30 1.174
394.40 1.173
394.50 1.173
394.60 1.172
394.70 1.171
394.80 1.171
394.90 1.17
395.00 1.169
395.10 1.168
395.20 1.167
395.30 1.166
395.40 1.164
395.50 1.163
395.60 1.161
395.70 1.158
395.80 1.156
395.90 1.153
396.00 1.149
396.10 1.144
396.20 1.139
396.30 1.132
396.40 1.124
396.50 1.113
396.60 1.101
396.70 1.087
396.80 1.067
396.90 1.035
397.00 0.9923
397.10 1.033
397.20 1.063
397.30 1.084
397.40 1.099
397.50 1.112
397.60 1.123
397.70 1.131
397.80 1.137
397.90 1.143
398.00 1.148
398.10 1.151
398.20 1.155
398.30 1.157
398.40 1.159
398.50 1.161
398.60 1.163
398.70 1.164
398.80 1.166
398.90 1.167
399.00 1.168
399.10 1.168
399.20 1.169
399.30 1.17
399.40 1.17
399.50 1.171
399.60 1.171
399.70 1.172
399.80 1.172
399.90 1.172
400.00 1.173
400.10 1.173
400.20 1.173
400.30 1.173
400.40 1.173
400.50 1.174
400.60 1.174
400.70 1.174
400.80 1.174
400.90 1.174
401.00 1.174
401.10 1.174
401.20 1.174
401.30 1.174
401.40 1.174
401.50 1.174
401.60 1.174
401.70 1.174
401.80 1.174
401.90 1.174
402.00 1.174
402.10 1.174
402.20 1.174
402.30 1.174
402.40 1.174
402.50 1.174
402.60 1.174
402.70 1.174
402.80 1.174
402.90 1.174
403.00 1.174
403.10 1.173
403.20 1.173
403.30 1.173
403.40 1.173
403.50 1.173
403.60 1.173
403.70 1.173
403.80 1.173
403.90 1.173
404.00 1.173
404.10 1.172
404.20 1.172
404.30 1.172
404.40 1.172
404.50 1.172
404.60 1.172
404.70 1.172
404.80 1.171
404.90 1.171
405.00 1.171
405.10 1.171
405.20 1.171
405.30 1.171
405.40 1.17
405.50 1.17
405.60 1.17
405.70 1.17
405.80 1.17
405.90 1.169
406.00 1.169
406.10 1.169
406.20 1.168
406.30 1.168
406.40 1.168
406.50 1.167
406.60 1.167
406.70 1.167
406.80 1.166
406.90 1.166
407.00 1.165
407.10 1.165
407.20 1.164
407.30 1.164
407.40 1.163
407.50 1.162
407.60 1.161
407.70 1.16
407.80 1.159
407.90 1.158
408.00 1.157
408.10 1.156
408.20 1.154
408.30 1.152
408.40 1.15
408.50 1.148
408.60 1.145
408.70 1.143
408.80 1.139
408.90 1.135
409.00 1.131
409.10 1.125
409.20 1.119
409.30 1.111
409.40 1.101
409.50 1.089
409.60 1.074
409.70 1.053
409.80 1.027
409.90 0.9967
410.00 0.9511
410.10 0.8996
410.20 0.8424
410.30 0.9188
410.40 0.9763
410.50 1.015
410.60 1.041
410.70 1.064
410.80 1.082
410.90 1.095
411.00 1.105
411.10 1.114
411.20 1.121
411.30 1.126
411.40 1.131
411.50 1.135
411.60 1.138
411.70 1.141
411.80 1.144
411.90 1.146
412.00 1.148
412.10 1.149
412.20 1.151
412.30 1.152
412.40 1.153
412.50 1.154
412.60 1.155
412.70 1.156
412.80 1.156
412.90 1.157
413.00 1.157
413.10 1.158
413.20 1.158
413.30 1.158
413.40 1.159
413.50 1.159
413.60 1.159
413.70 1.159
413.80 1.16
413.90 1.16
414.00 1.16
414.10 1.16
414.20 1.16
414.30 1.16
414.40 1.16
414.50 1.16
414.60 1.16
414.70 1.16
414.80 1.16
414.90 1.16
415.00 1.16
415.10 1.16
415.20 1.16
415.30 1.16
415.40 1.16
415.50 1.16
415.60 1.16
415.70 1.16
415.80 1.16
415.90 1.16
416.00 1.16
416.10 1.16
416.20 1.16
416.30 1.159
416.40 1.159
416.50 1.159
416.60 1.159
416.70 1.159
416.80 1.159
416.90 1.159
417.00 1.159
417.10 1.159
417.20 1.159
417.30 1.158
417.40 1.158
417.50 1.158
417.60 1.158
417.70 1.158
417.80 1.158
417.90 1.158
418.00 1.158
418.10 1.158
418.20 1.157
418.30 1.157
418.40 1.157
418.50 1.157
418.60 1.157
418.70 1.157
418.80 1.157
418.90 1.157
419.00 1.157
419.10 1.156
419.20 1.156
419.30 1.156
419.40 1.156
419.50 1.156
419.60 1.156
419.70 1.156
419.80 1.155
419.90 1.155
420.00 1.155
420.10 1.155
420.20 1.155
420.30 1.155
420.40 1.155
420.50 1.155
420.60 1.154
420.70 1.154
420.80 1.154
420.90 1.154
421.00 1.154
421.10 1.154
421.20 1.154
421.30 1.153
421.40 1.153
421.50 1.153
421.60 1.153
421.70 1.153
421.80 1.153
421.90 1.153
422.00 1.152
422.10 1.152
422.20 1.152
422.30 1.152
422.40 1.152
422.50 1.152
422.60 1.151
422.70 1.151
422.80 1.151
422.90 1.151
423.00 1.151
423.10 1.151
423.20 1.151
423.30 1.15
423.40 1.15
423.50 1.15
423.60 1.15
423.70 1.15
423.80 1.15
423.90 1.149
424.00 1.149
424.10 1.149
424.20 1.149
424.30 1.149
424.40 1.149
424.50 1.148
424.60 1.148
424.70 1.148
424.80 1.148
424.90 1.148
425.00 1.148
425.10 1.147
425.20 1.147
425.30 1.147
425.40 1.147
425.50 1.147
425.60 1.147
425.70 1.146
425.80 1.146
425.90 1.146
426.00 1.146
426.10 1.146
426.20 1.145
426.30 1.145
426.40 1.145
426.50 1.145
426.60 1.145
426.70 1.145
426.80 1.144
426.90 1.144
427.00 1.144
427.10 1.144
427.20 1.143
427.30 1.143
427.40 1.143
427.50 1.143
427.60 1.143
427.70 1.142
427.80 1.142
427.90 1.142
428.00 1.142
428.10 1.142
428.20 1.141
428.30 1.141
428.40 1.141
428.50 1.141
428.60 1.14
428.70 1.14
428.80 1.14
428.90 1.139
429.00 1.139
429.10 1.139
429.20 1.139
429.30 1.138
429.40 1.138
429.50 1.138
429.60 1.137
429.70 1.137
429.80 1.136
429.90 1.136
430.00 1.136
430.10 1.135
430.20 1.135
430.30 1.134
430.40 1.134
430.50 1.133
430.60 1.133
430.70 1.132
430.80 1.131
430.90 1.131
431.00 1.13
431.10 1.129
431.20 1.128
431.30 1.127
431.40 1.126
431.50 1.125
431.60 1.124
431.70 1.123
431.80 1.121
431.90 1.119
432.00 1.118
432.10 1.115
432.20 1.113
432.30 1.11
432.40 1.107
432.50 1.103
432.60 1.099
432.70 1.094
432.80 1.088
432.90 1.081
433.00 1.073
433.10 1.063
433.20 1.052
433.30 1.038
433.40 1.019
433.50 0.996
433.60 0.9679
433.70 0.9236
433.80 0.8662
433.90 0.7956
434.00 0.6535
434.10 0.656
434.20 0.8029
434.30 0.8713
434.40 0.9271
434.50 0.97
434.60 0.9972
434.70 1.02
434.80 1.038
434.90 1.051
435.00 1.062
435.10 1.071
435.20 1.079
435.30 1.085
435.40 1.091
435.50 1.095
435.60 1.099
435.70 1.103
435.80 1.105
435.90 1.108
436.00 1.11
436.10 1.111
436.20 1.113
436.30 1.114
436.40 1.115
436.50 1.116
436.60 1.117
436.70 1.118
436.80 1.119
436.90 1.119
437.00 1.12
437.10 1.12
437.20 1.121
437.30 1.121
437.40 1.121
437.50 1.122
437.60 1.122
437.70 1.122
437.80 1.122
437.90 1.122
438.00 1.122
438.10 1.122
438.20 1.123
438.30 1.123
438.40 1.123
438.50 1.123
438.60 1.123
438.70 1.123
438.80 1.123
438.90 1.123
439.00 1.123
439.10 1.123
439.20 1.122
439.30 1.122
439.40 1.122
439.50 1.122
439.60 1.122
439.70 1.122
439.80 1.122
439.90 1.122
440.00 1.122
440.10 1.122
440.20 1.122
440.30 1.122
440.40 1.121
440.50 1.121
440.60 1.121
440.70 1.121
440.80 1.121
440.90 1.121
441.00 1.121
441.10 1.121
441.20 1.12
441.30 1.12
441.40 1.12
441.50 1.12
441.60 1.12
441.70 1.12
441.80 1.12
441.90 1.119
442.00 1.119
442.10 1.119
442.20 1.119
442.30 1.119
442.40 1.119
442.50 1.118
442.60 1.118
442.70 1.118
442.80 1.118
442.90 1.118
443.00 1.118
443.10 1.118
443.20 1.117
443.30 1.117
443.40 1.117
443.50 1.117
443.60 1.117
443.70 1.117
443.80 1.116
443.90 1.116
444.00 1.116
444.10 1.116
444.20 1.116
444.30 1.116
444.40 1.115
444.50 1.115
444.60 1.115
444.70 1.115
444.80 1.115
444.90 1.114
445.00 1.114
445.10 1.114
445.20 1.114
445.30 1.114
445.40 1.114
445.50 1.113
445.60 1.113
445.70 1.113
445.80 1.113
445.90 1.113
446.00 1.113
446.10 1.112
446.20 1.112
446.30 1.112
446.40 1.112
446.50 1.112
446.60 1.111
446.70 1.111
446.80 1.111
446.90 1.111
447.00 1.111
447.10 1.111
447.20 1.11
447.30 1.11
447.40 1.11
447.50 1.11
447.60 1.11
447.70 1.11
447.80 1.109
447.90 1.109
448.00 1.109
448.10 1.109
448.20 1.109
448.30 1.108
448.40 1.108
448.50 1.108
448.60 1.108
448.70 1.108
448.80 1.107
448.90 1.107
449.00 1.107
449.10 1.107
449.20 1.107
449.30 1.107
449.40 1.106
449.50 1.106
449.60 1.106
449.70 1.106
449.80 1.106
449.90 1.105
450.00 1.105
450.10 1.105
450.20 1.105
450.30 1.105
450.40 1.104
450.50 1.104
450.60 1.104
450.70 1.104
450.80 1.104
450.90 1.104
451.00 1.103
451.10 1.103
451.20 1.103
451.30 1.103
451.40 1.103
451.50 1.102
451.60 1.102
451.70 1.102
451.80 1.102
451.90 1.102
452.00 1.102
452.10 1.101
452.20 1.101
452.30 1.101
452.40 1.101
452.50 1.101
452.60 1.1
452.70 1.1
452.80 1.1
452.90 1.1
453.00 1.1
453.10 1.099
453.20 1.099
453.30 1.099
453.40 1.099
453.50 1.099
453.60 1.098
453.70 1.098
453.80 1.098
453.90 1.098
454.00 1.098
454.10 1.097
454.20 1.097
454.30 1.097
454.40 1.097
