# Version 2.1 - nm, norm@500 to 1, cut digits, bergeron_60000_80.dat_60000
# Wavelength(nm)  Flambda(ergs/cm^s/s/nm)
300.00 6.403
300.10 6.395
300.20 6.387
300.30 6.379
300.40 6.371
300.50 6.364
300.60 6.356
300.70 6.348
300.80 6.34
300.90 6.333
301.00 6.325
301.10 6.317
301.20 6.309
301.30 6.302
301.40 6.294
301.50 6.286
301.60 6.279
301.70 6.271
301.80 6.264
301.90 6.256
302.00 6.248
302.10 6.241
302.20 6.233
302.30 6.226
302.40 6.218
302.50 6.211
302.60 6.203
302.70 6.196
302.80 6.188
302.90 6.181
303.00 6.173
303.10 6.166
303.20 6.158
303.30 6.151
303.40 6.143
303.50 6.136
303.60 6.128
303.70 6.121
303.80 6.114
303.90 6.106
304.00 6.099
304.10 6.091
304.20 6.084
304.30 6.077
304.40 6.069
304.50 6.062
304.60 6.055
304.70 6.048
304.80 6.04
304.90 6.033
305.00 6.026
305.10 6.018
305.20 6.011
305.30 6.004
305.40 5.997
305.50 5.99
305.60 5.982
305.70 5.975
305.80 5.968
305.90 5.961
306.00 5.954
306.10 5.947
306.20 5.939
306.30 5.932
306.40 5.925
306.50 5.918
306.60 5.911
306.70 5.904
306.80 5.897
306.90 5.89
307.00 5.883
307.10 5.876
307.20 5.869
307.30 5.862
307.40 5.855
307.50 5.848
307.60 5.841
307.70 5.834
307.80 5.827
307.90 5.82
308.00 5.813
308.10 5.806
308.20 5.799
308.30 5.792
308.40 5.785
308.50 5.778
308.60 5.772
308.70 5.765
308.80 5.758
308.90 5.751
309.00 5.744
309.10 5.737
309.20 5.731
309.30 5.724
309.40 5.717
309.50 5.71
309.60 5.703
309.70 5.697
309.80 5.69
309.90 5.683
310.00 5.676
310.10 5.67
310.20 5.663
310.30 5.656
310.40 5.65
310.50 5.643
310.60 5.636
310.70 5.629
310.80 5.623
310.90 5.616
311.00 5.61
311.10 5.603
311.20 5.596
311.30 5.59
311.40 5.583
311.50 5.576
311.60 5.57
311.70 5.563
311.80 5.557
311.90 5.55
312.00 5.544
312.10 5.537
312.20 5.531
312.30 5.524
312.40 5.518
312.50 5.511
312.60 5.505
312.70 5.498
312.80 5.492
312.90 5.485
313.00 5.479
313.10 5.472
313.20 5.466
313.30 5.46
313.40 5.453
313.50 5.447
313.60 5.44
313.70 5.434
313.80 5.428
313.90 5.421
314.00 5.415
314.10 5.409
314.20 5.402
314.30 5.396
314.40 5.39
314.50 5.383
314.60 5.377
314.70 5.371
314.80 5.364
314.90 5.358
315.00 5.352
315.10 5.346
315.20 5.339
315.30 5.333
315.40 5.327
315.50 5.321
315.60 5.315
315.70 5.308
315.80 5.302
315.90 5.296
316.00 5.29
316.10 5.284
316.20 5.278
316.30 5.271
316.40 5.265
316.50 5.259
316.60 5.253
316.70 5.247
316.80 5.241
316.90 5.235
317.00 5.229
317.10 5.223
317.20 5.217
317.30 5.211
317.40 5.205
317.50 5.199
317.60 5.193
317.70 5.186
317.80 5.18
317.90 5.174
318.00 5.168
318.10 5.162
318.20 5.157
318.30 5.151
318.40 5.145
318.50 5.139
318.60 5.133
318.70 5.127
318.80 5.121
318.90 5.115
319.00 5.109
319.10 5.103
319.20 5.097
319.30 5.091
319.40 5.086
319.50 5.08
319.60 5.074
319.70 5.068
319.80 5.062
319.90 5.056
320.00 5.051
320.10 5.045
320.20 5.039
320.30 5.033
320.40 5.027
320.50 5.022
320.60 5.016
320.70 5.01
320.80 5.004
320.90 4.999
321.00 4.993
321.10 4.987
321.20 4.981
321.30 4.976
321.40 4.97
321.50 4.964
321.60 4.959
321.70 4.953
321.80 4.947
321.90 4.942
322.00 4.936
322.10 4.93
322.20 4.925
322.30 4.919
322.40 4.913
322.50 4.908
322.60 4.902
322.70 4.897
322.80 4.891
322.90 4.885
323.00 4.88
323.10 4.874
323.20 4.869
323.30 4.863
323.40 4.858
323.50 4.852
323.60 4.847
323.70 4.841
323.80 4.836
323.90 4.83
324.00 4.825
324.10 4.819
324.20 4.814
324.30 4.808
324.40 4.803
324.50 4.797
324.60 4.792
324.70 4.786
324.80 4.781
324.90 4.775
325.00 4.77
325.10 4.765
325.20 4.759
325.30 4.754
325.40 4.749
325.50 4.743
325.60 4.738
325.70 4.732
325.80 4.727
325.90 4.722
326.00 4.716
326.10 4.711
326.20 4.706
326.30 4.7
326.40 4.695
326.50 4.69
326.60 4.684
326.70 4.679
326.80 4.674
326.90 4.669
327.00 4.663
327.10 4.658
327.20 4.653
327.30 4.648
327.40 4.642
327.50 4.637
327.60 4.632
327.70 4.627
327.80 4.622
327.90 4.616
328.00 4.611
328.10 4.606
328.20 4.601
328.30 4.596
328.40 4.59
328.50 4.585
328.60 4.58
328.70 4.575
328.80 4.57
328.90 4.565
329.00 4.56
329.10 4.555
329.20 4.549
329.30 4.544
329.40 4.539
329.50 4.534
329.60 4.529
329.70 4.524
329.80 4.519
329.90 4.514
330.00 4.509
330.10 4.504
330.20 4.499
330.30 4.494
330.40 4.489
330.50 4.484
330.60 4.479
330.70 4.474
330.80 4.469
330.90 4.464
331.00 4.459
331.10 4.454
331.20 4.449
331.30 4.444
331.40 4.439
331.50 4.434
331.60 4.429
331.70 4.424
331.80 4.419
331.90 4.414
332.00 4.409
332.10 4.405
332.20 4.4
332.30 4.395
332.40 4.39
332.50 4.385
332.60 4.38
332.70 4.375
332.80 4.371
332.90 4.366
333.00 4.361
333.10 4.356
333.20 4.351
333.30 4.346
333.40 4.342
333.50 4.337
333.60 4.332
333.70 4.327
333.80 4.322
333.90 4.318
334.00 4.313
334.10 4.308
334.20 4.303
334.30 4.298
334.40 4.294
334.50 4.289
334.60 4.284
334.70 4.28
334.80 4.275
334.90 4.27
335.00 4.265
335.10 4.261
335.20 4.256
335.30 4.251
335.40 4.247
335.50 4.242
335.60 4.237
335.70 4.233
335.80 4.228
335.90 4.223
336.00 4.219
336.10 4.214
336.20 4.209
336.30 4.205
336.40 4.2
336.50 4.196
336.60 4.191
336.70 4.186
336.80 4.182
336.90 4.177
337.00 4.173
337.10 4.168
337.20 4.164
337.30 4.159
337.40 4.154
337.50 4.15
337.60 4.145
337.70 4.141
337.80 4.136
337.90 4.132
338.00 4.127
338.10 4.123
338.20 4.118
338.30 4.114
338.40 4.109
338.50 4.105
338.60 4.1
338.70 4.096
338.80 4.091
338.90 4.087
339.00 4.082
339.10 4.078
339.20 4.074
339.30 4.069
339.40 4.065
339.50 4.06
339.60 4.056
339.70 4.051
339.80 4.047
339.90 4.043
340.00 4.038
340.10 4.034
340.20 4.029
340.30 4.025
340.40 4.021
340.50 4.016
340.60 4.012
340.70 4.008
340.80 4.003
340.90 3.999
341.00 3.995
341.10 3.99
341.20 3.986
341.30 3.982
341.40 3.977
341.50 3.973
341.60 3.969
341.70 3.964
341.80 3.96
341.90 3.956
342.00 3.952
342.10 3.947
342.20 3.943
342.30 3.939
342.40 3.935
342.50 3.93
342.60 3.926
342.70 3.922
342.80 3.918
342.90 3.913
343.00 3.909
343.10 3.905
343.20 3.901
343.30 3.897
343.40 3.892
343.50 3.888
343.60 3.884
343.70 3.88
343.80 3.876
343.90 3.871
344.00 3.867
344.10 3.863
344.20 3.859
344.30 3.855
344.40 3.851
344.50 3.847
344.60 3.842
344.70 3.838
344.80 3.834
344.90 3.83
345.00 3.826
345.10 3.822
345.20 3.818
345.30 3.814
345.40 3.81
345.50 3.806
345.60 3.801
345.70 3.797
345.80 3.793
345.90 3.789
346.00 3.785
346.10 3.781
346.20 3.777
346.30 3.773
346.40 3.769
346.50 3.765
346.60 3.761
346.70 3.757
346.80 3.753
346.90 3.749
347.00 3.745
347.10 3.741
347.20 3.737
347.30 3.733
347.40 3.729
347.50 3.725
347.60 3.721
347.70 3.717
347.80 3.713
347.90 3.709
348.00 3.705
348.10 3.701
348.20 3.697
348.30 3.693
348.40 3.69
348.50 3.686
348.60 3.682
348.70 3.678
348.80 3.674
348.90 3.67
349.00 3.666
349.10 3.662
349.20 3.658
349.30 3.655
349.40 3.651
349.50 3.647
349.60 3.643
349.70 3.639
349.80 3.635
349.90 3.631
350.00 3.627
350.10 3.624
350.20 3.62
350.30 3.616
350.40 3.612
350.50 3.608
350.60 3.605
350.70 3.601
350.80 3.597
350.90 3.593
351.00 3.589
351.10 3.586
351.20 3.582
351.30 3.578
351.40 3.574
351.50 3.571
351.60 3.567
351.70 3.563
351.80 3.559
351.90 3.555
352.00 3.552
352.10 3.548
352.20 3.544
352.30 3.541
352.40 3.537
352.50 3.533
352.60 3.529
352.70 3.526
352.80 3.522
352.90 3.518
353.00 3.515
353.10 3.511
353.20 3.507
353.30 3.504
353.40 3.5
353.50 3.496
353.60 3.493
353.70 3.489
353.80 3.485
353.90 3.482
354.00 3.478
354.10 3.474
354.20 3.471
354.30 3.467
354.40 3.463
354.50 3.46
354.60 3.456
354.70 3.453
354.80 3.449
354.90 3.445
355.00 3.442
355.10 3.438
355.20 3.435
355.30 3.431
355.40 3.427
355.50 3.424
355.60 3.42
355.70 3.417
355.80 3.413
355.90 3.41
356.00 3.406
356.10 3.403
356.20 3.399
356.30 3.395
356.40 3.392
356.50 3.388
356.60 3.385
356.70 3.381
356.80 3.378
356.90 3.374
357.00 3.371
357.10 3.367
357.20 3.364
357.30 3.36
357.40 3.357
357.50 3.353
357.60 3.35
357.70 3.346
357.80 3.343
357.90 3.34
358.00 3.336
358.10 3.333
358.20 3.329
358.30 3.326
358.40 3.322
358.50 3.319
358.60 3.315
358.70 3.312
358.80 3.309
358.90 3.305
359.00 3.302
359.10 3.298
359.20 3.295
359.30 3.292
359.40 3.288
359.50 3.285
359.60 3.281
359.70 3.278
359.80 3.275
359.90 3.271
360.00 3.268
360.10 3.264
360.20 3.261
360.30 3.258
360.40 3.254
360.50 3.251
360.60 3.248
360.70 3.244
360.80 3.241
360.90 3.238
361.00 3.234
361.10 3.231
361.20 3.228
361.30 3.224
361.40 3.221
361.50 3.218
361.60 3.215
361.70 3.211
361.80 3.208
361.90 3.205
362.00 3.201
362.10 3.198
362.20 3.195
362.30 3.192
362.40 3.188
362.50 3.185
362.60 3.182
362.70 3.178
362.80 3.175
362.90 3.172
363.00 3.169
363.10 3.166
363.20 3.162
363.30 3.159
363.40 3.156
363.50 3.153
363.60 3.149
363.70 3.146
363.80 3.143
363.90 3.14
364.00 3.137
364.10 3.133
364.20 3.13
364.30 3.127
364.40 3.124
364.50 3.121
364.60 3.117
364.70 3.114
364.80 3.111
364.90 3.108
365.00 3.105
365.10 3.102
365.20 3.098
365.30 3.095
365.40 3.092
365.50 3.089
365.60 3.086
365.70 3.083
365.80 3.08
365.90 3.077
366.00 3.073
366.10 3.07
366.20 3.067
366.30 3.064
366.40 3.061
366.50 3.057
366.60 3.054
366.70 3.051
366.80 3.048
366.90 3.045
367.00 3.042
367.10 3.039
367.20 3.035
367.30 3.032
367.40 3.029
367.50 3.026
367.60 3.023
367.70 3.02
367.80 3.017
367.90 3.013
368.00 3.01
368.10 3.007
368.20 3.004
368.30 3.001
368.40 2.998
368.50 2.995
368.60 2.992
368.70 2.988
368.80 2.985
368.90 2.982
369.00 2.979
369.10 2.976
369.20 2.973
369.30 2.97
369.40 2.967
369.50 2.964
369.60 2.96
369.70 2.957
369.80 2.954
369.90 2.951
370.00 2.948
370.10 2.945
370.20 2.942
370.30 2.939
370.40 2.936
370.50 2.933
370.60 2.93
370.70 2.927
370.80 2.924
370.90 2.921
371.00 2.918
371.10 2.915
371.20 2.912
371.30 2.909
371.40 2.906
371.50 2.903
371.60 2.9
371.70 2.897
371.80 2.894
371.90 2.891
372.00 2.888
372.10 2.885
372.20 2.882
372.30 2.879
372.40 2.876
372.50 2.873
372.60 2.871
372.70 2.868
372.80 2.865
372.90 2.862
373.00 2.859
373.10 2.856
373.20 2.853
373.30 2.85
373.40 2.847
373.50 2.844
373.60 2.842
373.70 2.839
373.80 2.836
373.90 2.833
374.00 2.83
374.10 2.827
374.20 2.824
374.30 2.822
374.40 2.819
374.50 2.816
374.60 2.813
374.70 2.81
374.80 2.807
374.90 2.805
375.00 2.802
375.10 2.799
375.20 2.796
375.30 2.793
375.40 2.79
375.50 2.788
375.60 2.785
375.70 2.782
375.80 2.779
375.90 2.776
376.00 2.774
376.10 2.771
376.20 2.768
376.30 2.765
376.40 2.763
376.50 2.76
376.60 2.757
376.70 2.754
376.80 2.752
376.90 2.749
377.00 2.746
377.10 2.744
377.20 2.741
377.30 2.738
377.40 2.736
377.50 2.733
377.60 2.73
377.70 2.728
377.80 2.725
377.90 2.723
378.00 2.72
378.10 2.717
378.20 2.715
378.30 2.712
378.40 2.71
378.50 2.707
378.60 2.704
378.70 2.702
378.80 2.699
378.90 2.697
379.00 2.694
379.10 2.691
379.20 2.689
379.30 2.686
379.40 2.684
379.50 2.681
379.60 2.679
379.70 2.676
379.80 2.674
379.90 2.671
380.00 2.669
380.10 2.666
380.20 2.664
380.30 2.662
380.40 2.659
380.50 2.657
380.60 2.654
380.70 2.652
380.80 2.65
380.90 2.647
381.00 2.645
381.10 2.643
381.20 2.64
381.30 2.638
381.40 2.635
381.50 2.633
381.60 2.63
381.70 2.628
381.80 2.625
381.90 2.623
382.00 2.62
382.10 2.618
382.20 2.615
382.30 2.613
382.40 2.61
382.50 2.607
382.60 2.605
382.70 2.602
382.80 2.6
382.90 2.597
383.00 2.594
383.10 2.592
383.20 2.589
383.30 2.587
383.40 2.584
383.50 2.582
383.60 2.58
383.70 2.578
383.80 2.576
383.90 2.574
384.00 2.572
384.10 2.57
384.20 2.568
384.30 2.566
384.40 2.564
384.50 2.563
384.60 2.561
384.70 2.559
384.80 2.557
384.90 2.555
385.00 2.553
385.10 2.551
385.20 2.549
385.30 2.546
385.40 2.544
385.50 2.542
385.60 2.54
385.70 2.537
385.80 2.535
385.90 2.533
386.00 2.53
386.10 2.528
386.20 2.525
386.30 2.522
386.40 2.52
386.50 2.517
386.60 2.514
386.70 2.511
386.80 2.508
386.90 2.505
387.00 2.502
387.10 2.499
387.20 2.496
387.30 2.493
387.40 2.49
387.50 2.487
387.60 2.484
387.70 2.48
387.80 2.477
387.90 2.474
388.00 2.47
388.10 2.467
388.20 2.464
388.30 2.461
388.40 2.458
388.50 2.455
388.60 2.452
388.70 2.449
388.80 2.447
388.90 2.445
389.00 2.443
389.10 2.441
389.20 2.44
389.30 2.439
389.40 2.438
389.50 2.437
389.60 2.436
389.70 2.435
389.80 2.435
389.90 2.434
390.00 2.433
390.10 2.433
390.20 2.432
390.30 2.431
390.40 2.431
390.50 2.43
390.60 2.429
390.70 2.428
390.80 2.427
390.90 2.426
391.00 2.425
391.10 2.423
391.20 2.422
391.30 2.421
391.40 2.419
391.50 2.418
391.60 2.416
391.70 2.415
391.80 2.413
391.90 2.411
392.00 2.409
392.10 2.407
392.20 2.405
392.30 2.403
392.40 2.401
392.50 2.399
392.60 2.397
392.70 2.394
392.80 2.392
392.90 2.389
393.00 2.386
393.10 2.383
393.20 2.381
393.30 2.378
393.40 2.375
393.50 2.371
393.60 2.368
393.70 2.365
393.80 2.361
393.90 2.358
394.00 2.354
394.10 2.35
394.20 2.346
394.30 2.342
394.40 2.338
394.50 2.334
394.60 2.33
394.70 2.325
394.80 2.321
394.90 2.316
395.00 2.311
395.10 2.307
395.20 2.302
395.30 2.297
395.40 2.292
395.50 2.286
395.60 2.281
395.70 2.276
395.80 2.27
395.90 2.265
396.00 2.259
396.10 2.254
396.20 2.248
396.30 2.242
396.40 2.237
396.50 2.231
396.60 2.226
396.70 2.22
396.80 2.215
396.90 2.21
397.00 2.206
397.10 2.207
397.20 2.207
397.30 2.209
397.40 2.21
397.50 2.212
397.60 2.214
397.70 2.216
397.80 2.218
397.90 2.22
398.00 2.222
398.10 2.223
398.20 2.225
398.30 2.227
398.40 2.229
398.50 2.23
398.60 2.232
398.70 2.233
398.80 2.234
398.90 2.236
399.00 2.237
399.10 2.238
399.20 2.239
399.30 2.24
399.40 2.24
399.50 2.241
399.60 2.242
399.70 2.242
399.80 2.242
399.90 2.243
400.00 2.243
400.10 2.243
400.20 2.243
400.30 2.243
400.40 2.243
400.50 2.242
400.60 2.242
400.70 2.242
400.80 2.241
400.90 2.241
401.00 2.24
401.10 2.239
401.20 2.239
401.30 2.238
401.40 2.237
401.50 2.236
401.60 2.235
401.70 2.234
401.80 2.232
401.90 2.231
402.00 2.23
402.10 2.229
402.20 2.227
402.30 2.226
402.40 2.224
402.50 2.223
402.60 2.221
402.70 2.219
402.80 2.218
402.90 2.216
403.00 2.214
403.10 2.212
403.20 2.21
403.30 2.208
403.40 2.206
403.50 2.204
403.60 2.202
403.70 2.199
403.80 2.197
403.90 2.195
404.00 2.192
404.10 2.19
404.20 2.187
404.30 2.185
404.40 2.182
404.50 2.179
404.60 2.176
404.70 2.174
404.80 2.171
404.90 2.168
405.00 2.165
405.10 2.162
405.20 2.158
405.30 2.155
405.40 2.152
405.50 2.148
405.60 2.145
405.70 2.141
405.80 2.137
405.90 2.134
406.00 2.13
406.10 2.126
406.20 2.122
406.30 2.117
406.40 2.113
406.50 2.109
406.60 2.104
406.70 2.099
406.80 2.095
406.90 2.09
407.00 2.085
407.10 2.08
407.20 2.074
407.30 2.069
407.40 2.063
407.50 2.057
407.60 2.052
407.70 2.045
407.80 2.039
407.90 2.033
408.00 2.026
408.10 2.02
408.20 2.013
408.30 2.006
408.40 1.998
408.50 1.991
408.60 1.983
408.70 1.976
408.80 1.968
408.90 1.96
409.00 1.952
409.10 1.943
409.20 1.935
409.30 1.926
409.40 1.918
409.50 1.909
409.60 1.901
409.70 1.893
409.80 1.886
409.90 1.88
410.00 1.877
410.10 1.877
410.20 1.878
410.30 1.873
410.40 1.871
410.50 1.872
410.60 1.876
410.70 1.88
410.80 1.885
410.90 1.89
411.00 1.895
411.10 1.9
411.20 1.906
411.30 1.91
411.40 1.915
411.50 1.92
411.60 1.924
411.70 1.929
411.80 1.933
411.90 1.937
412.00 1.941
412.10 1.944
412.20 1.947
412.30 1.951
412.40 1.954
412.50 1.957
412.60 1.959
412.70 1.962
412.80 1.964
412.90 1.966
413.00 1.968
413.10 1.97
413.20 1.972
413.30 1.974
413.40 1.975
413.50 1.976
413.60 1.978
413.70 1.979
413.80 1.98
413.90 1.981
414.00 1.981
414.10 1.982
414.20 1.982
414.30 1.983
414.40 1.983
414.50 1.984
414.60 1.984
414.70 1.984
414.80 1.984
414.90 1.984
415.00 1.984
415.10 1.983
415.20 1.983
415.30 1.983
415.40 1.982
415.50 1.982
415.60 1.982
415.70 1.981
415.80 1.98
415.90 1.98
416.00 1.979
416.10 1.978
416.20 1.978
416.30 1.977
416.40 1.976
416.50 1.975
416.60 1.974
416.70 1.973
416.80 1.972
416.90 1.971
417.00 1.97
417.10 1.969
417.20 1.968
417.30 1.967
417.40 1.966
417.50 1.964
417.60 1.963
417.70 1.962
417.80 1.961
417.90 1.959
418.00 1.958
418.10 1.957
418.20 1.955
418.30 1.954
418.40 1.953
418.50 1.951
418.60 1.95
418.70 1.949
418.80 1.947
418.90 1.946
419.00 1.944
419.10 1.943
419.20 1.941
419.30 1.94
419.40 1.938
419.50 1.937
419.60 1.935
419.70 1.934
419.80 1.932
419.90 1.931
420.00 1.929
420.10 1.928
420.20 1.926
420.30 1.925
420.40 1.923
420.50 1.921
420.60 1.92
420.70 1.918
420.80 1.917
420.90 1.915
421.00 1.913
421.10 1.912
421.20 1.91
421.30 1.908
421.40 1.907
421.50 1.905
421.60 1.903
421.70 1.902
421.80 1.9
421.90 1.898
422.00 1.897
422.10 1.895
422.20 1.893
422.30 1.892
422.40 1.89
422.50 1.888
422.60 1.886
422.70 1.885
422.80 1.883
422.90 1.881
423.00 1.88
423.10 1.878
423.20 1.876
423.30 1.874
423.40 1.872
423.50 1.871
423.60 1.869
423.70 1.867
423.80 1.865
423.90 1.863
424.00 1.862
424.10 1.86
424.20 1.858
424.30 1.856
424.40 1.854
424.50 1.852
424.60 1.851
424.70 1.849
424.80 1.847
424.90 1.845
425.00 1.843
425.10 1.841
425.20 1.839
425.30 1.837
425.40 1.835
425.50 1.833
425.60 1.831
425.70 1.829
425.80 1.827
425.90 1.825
426.00 1.823
426.10 1.821
426.20 1.819
426.30 1.817
426.40 1.815
426.50 1.813
426.60 1.811
426.70 1.808
426.80 1.806
426.90 1.804
427.00 1.802
427.10 1.799
427.20 1.797
427.30 1.795
427.40 1.792
427.50 1.79
427.60 1.788
427.70 1.785
427.80 1.783
427.90 1.78
428.00 1.778
428.10 1.775
428.20 1.772
428.30 1.77
428.40 1.767
428.50 1.764
428.60 1.761
428.70 1.759
428.80 1.756
428.90 1.753
429.00 1.75
429.10 1.747
429.20 1.743
429.30 1.74
429.40 1.737
429.50 1.733
429.60 1.73
429.70 1.726
429.80 1.723
429.90 1.719
430.00 1.715
430.10 1.711
430.20 1.707
430.30 1.703
430.40 1.699
430.50 1.694
430.60 1.69
430.70 1.685
430.80 1.68
430.90 1.676
431.00 1.67
431.10 1.665
431.20 1.66
431.30 1.654
431.40 1.649
431.50 1.643
431.60 1.637
431.70 1.63
431.80 1.624
431.90 1.617
432.00 1.611
432.10 1.604
432.20 1.596
432.30 1.589
432.40 1.581
432.50 1.573
432.60 1.565
432.70 1.557
432.80 1.549
432.90 1.54
433.00 1.531
433.10 1.522
433.20 1.514
433.30 1.505
433.40 1.496
433.50 1.487
433.60 1.479
433.70 1.471
433.80 1.463
433.90 1.455
434.00 1.447
434.10 1.446
434.20 1.452
434.30 1.457
434.40 1.463
434.50 1.468
434.60 1.475
434.70 1.481
434.80 1.487
434.90 1.493
435.00 1.5
435.10 1.506
435.20 1.512
435.30 1.518
435.40 1.524
435.50 1.529
435.60 1.534
435.70 1.539
435.80 1.544
435.90 1.549
436.00 1.553
436.10 1.557
436.20 1.561
436.30 1.565
436.40 1.569
436.50 1.572
436.60 1.575
436.70 1.578
436.80 1.581
436.90 1.584
437.00 1.586
437.10 1.588
437.20 1.59
437.30 1.592
437.40 1.594
437.50 1.596
437.60 1.597
437.70 1.598
437.80 1.6
437.90 1.601
438.00 1.602
438.10 1.603
438.20 1.604
438.30 1.604
438.40 1.605
438.50 1.605
438.60 1.606
438.70 1.606
438.80 1.606
438.90 1.607
439.00 1.607
439.10 1.607
439.20 1.607
439.30 1.607
439.40 1.607
439.50 1.606
439.60 1.606
439.70 1.606
439.80 1.606
439.90 1.605
440.00 1.605
440.10 1.604
440.20 1.604
440.30 1.603
440.40 1.603
440.50 1.602
440.60 1.601
440.70 1.601
440.80 1.6
440.90 1.599
441.00 1.599
441.10 1.598
441.20 1.597
441.30 1.596
441.40 1.595
441.50 1.595
441.60 1.594
441.70 1.593
441.80 1.592
441.90 1.591
442.00 1.59
442.10 1.589
442.20 1.588
442.30 1.587
442.40 1.586
442.50 1.585
442.60 1.584
442.70 1.583
442.80 1.582
442.90 1.581
443.00 1.58
443.10 1.579
443.20 1.578
443.30 1.577
443.40 1.576
443.50 1.574
443.60 1.573
443.70 1.572
443.80 1.571
443.90 1.57
444.00 1.569
444.10 1.568
444.20 1.567
444.30 1.565
444.40 1.564
444.50 1.563
444.60 1.562
444.70 1.561
444.80 1.56
444.90 1.558
445.00 1.557
445.10 1.556
445.20 1.555
445.30 1.554
445.40 1.552
445.50 1.551
445.60 1.55
445.70 1.549
445.80 1.548
445.90 1.546
446.00 1.545
446.10 1.544
446.20 1.543
446.30 1.542
446.40 1.54
446.50 1.539
446.60 1.538
446.70 1.537
446.80 1.535
446.90 1.534
447.00 1.533
447.10 1.532
447.20 1.531
447.30 1.529
447.40 1.528
447.50 1.527
447.60 1.526
447.70 1.524
447.80 1.523
447.90 1.522
448.00 1.521
448.10 1.52
448.20 1.518
448.30 1.517
448.40 1.516
448.50 1.515
448.60 1.513
448.70 1.512
448.80 1.511
448.90 1.51
449.00 1.508
449.10 1.507
449.20 1.506
449.30 1.505
449.40 1.503
449.50 1.502
449.60 1.501
449.70 1.5
449.80 1.499
449.90 1.497
450.00 1.496
450.10 1.495
450.20 1.494
450.30 1.492
450.40 1.491
450.50 1.49
450.60 1.489
450.70 1.487
450.80 1.486
450.90 1.485
451.00 1.484
451.10 1.483
451.20 1.481
451.30 1.48
451.40 1.479
451.50 1.478
451.60 1.476
451.70 1.475
451.80 1.474
451.90 1.473
452.00 1.472
452.10 1.47
452.20 1.469
452.30 1.468
452.40 1.467
452.50 1.465
452.60 1.464
452.70 1.463
452.80 1.462
452.90 1.461
453.00 1.459
453.10 1.458
453.20 1.457
453.30 1.456
453.40 1.455
453.50 1.453
453.60 1.452
453.70 1.451
453.80 1.45
453.90 1.449
454.00 1.447
454.10 1.446
