# Version 2.1 - nm, norm@500 to 1, cut digits, bergeron_4500_85.dat_4500
# Wavelength(nm)  Flambda(ergs/cm^s/s/nm)
300.00 0.2613
300.10 0.2617
300.20 0.2621
300.30 0.2625
300.40 0.2629
300.50 0.2633
300.60 0.2637
300.70 0.2641
300.80 0.2645
300.90 0.2649
301.00 0.2653
301.10 0.2657
301.20 0.2661
301.30 0.2665
301.40 0.2668
301.50 0.2672
301.60 0.2676
301.70 0.268
301.80 0.2684
301.90 0.2688
302.00 0.2692
302.10 0.2696
302.20 0.27
302.30 0.2704
302.40 0.2708
302.50 0.2712
302.60 0.2716
302.70 0.272
302.80 0.2725
302.90 0.2729
303.00 0.2733
303.10 0.2737
303.20 0.2741
303.30 0.2745
303.40 0.2749
303.50 0.2753
303.60 0.2757
303.70 0.2761
303.80 0.2764
303.90 0.2768
304.00 0.2772
304.10 0.2777
304.20 0.2781
304.30 0.2785
304.40 0.2789
304.50 0.2793
304.60 0.2797
304.70 0.2801
304.80 0.2805
304.90 0.2809
305.00 0.2813
305.10 0.2817
305.20 0.2821
305.30 0.2825
305.40 0.2829
305.50 0.2834
305.60 0.2838
305.70 0.2842
305.80 0.2846
305.90 0.285
306.00 0.2854
306.10 0.2858
306.20 0.2862
306.30 0.2866
306.40 0.287
306.50 0.2874
306.60 0.2878
306.70 0.2883
306.80 0.2887
306.90 0.2891
307.00 0.2895
307.10 0.2899
307.20 0.2903
307.30 0.2907
307.40 0.2911
307.50 0.2915
307.60 0.2919
307.70 0.2923
307.80 0.2927
307.90 0.2931
308.00 0.2936
308.10 0.294
308.20 0.2944
308.30 0.2948
308.40 0.2952
308.50 0.2956
308.60 0.296
308.70 0.2965
308.80 0.2969
308.90 0.2973
309.00 0.2977
309.10 0.2981
309.20 0.2985
309.30 0.2989
309.40 0.2993
309.50 0.2998
309.60 0.3002
309.70 0.3006
309.80 0.301
309.90 0.3014
310.00 0.3018
310.10 0.3022
310.20 0.3026
310.30 0.3031
310.40 0.3035
310.50 0.3039
310.60 0.3043
310.70 0.3048
310.80 0.3052
310.90 0.3056
311.00 0.306
311.10 0.3064
311.20 0.3068
311.30 0.3073
311.40 0.3077
311.50 0.3081
311.60 0.3085
311.70 0.3089
311.80 0.3093
311.90 0.3097
312.00 0.3102
312.10 0.3106
312.20 0.311
312.30 0.3114
312.40 0.3118
312.50 0.3122
312.60 0.3127
312.70 0.3131
312.80 0.3135
312.90 0.3139
313.00 0.3144
313.10 0.3148
313.20 0.3152
313.30 0.3156
313.40 0.316
313.50 0.3165
313.60 0.3169
313.70 0.3173
313.80 0.3177
313.90 0.3181
314.00 0.3185
314.10 0.319
314.20 0.3194
314.30 0.3198
314.40 0.3202
314.50 0.3207
314.60 0.3211
314.70 0.3215
314.80 0.3219
314.90 0.3224
315.00 0.3228
315.10 0.3232
315.20 0.3236
315.30 0.3241
315.40 0.3245
315.50 0.3249
315.60 0.3253
315.70 0.3257
315.80 0.3261
315.90 0.3266
316.00 0.327
316.10 0.3274
316.20 0.3278
316.30 0.3283
316.40 0.3287
316.50 0.3291
316.60 0.3296
316.70 0.33
316.80 0.3304
316.90 0.3308
317.00 0.3313
317.10 0.3317
317.20 0.3321
317.30 0.3325
317.40 0.333
317.50 0.3334
317.60 0.3338
317.70 0.3342
317.80 0.3347
317.90 0.3351
318.00 0.3355
318.10 0.3359
318.20 0.3364
318.30 0.3368
318.40 0.3372
318.50 0.3377
318.60 0.3381
318.70 0.3385
318.80 0.339
318.90 0.3394
319.00 0.3398
319.10 0.3402
319.20 0.3407
319.30 0.3411
319.40 0.3415
319.50 0.3419
319.60 0.3424
319.70 0.3428
319.80 0.3432
319.90 0.3436
320.00 0.3441
320.10 0.3445
320.20 0.3449
320.30 0.3454
320.40 0.3458
320.50 0.3462
320.60 0.3467
320.70 0.3471
320.80 0.3475
320.90 0.348
321.00 0.3484
321.10 0.3488
321.20 0.3493
321.30 0.3497
321.40 0.3501
321.50 0.3505
321.60 0.351
321.70 0.3514
321.80 0.3518
321.90 0.3522
322.00 0.3527
322.10 0.3531
322.20 0.3535
322.30 0.354
322.40 0.3544
322.50 0.3549
322.60 0.3553
322.70 0.3557
322.80 0.3562
322.90 0.3566
323.00 0.357
323.10 0.3575
323.20 0.3579
323.30 0.3583
323.40 0.3588
323.50 0.3592
323.60 0.3596
323.70 0.3601
323.80 0.3605
323.90 0.3609
324.00 0.3613
324.10 0.3618
324.20 0.3622
324.30 0.3627
324.40 0.3631
324.50 0.3635
324.60 0.364
324.70 0.3644
324.80 0.3648
324.90 0.3653
325.00 0.3657
325.10 0.3662
325.20 0.3666
325.30 0.367
325.40 0.3675
325.50 0.3679
325.60 0.3683
325.70 0.3687
325.80 0.3692
325.90 0.3696
326.00 0.37
326.10 0.3705
326.20 0.3709
326.30 0.3714
326.40 0.3718
326.50 0.3722
326.60 0.3727
326.70 0.3731
326.80 0.3736
326.90 0.374
327.00 0.3744
327.10 0.3749
327.20 0.3753
327.30 0.3757
327.40 0.3762
327.50 0.3766
327.60 0.377
327.70 0.3775
327.80 0.3779
327.90 0.3783
328.00 0.3788
328.10 0.3792
328.20 0.3797
328.30 0.3801
328.40 0.3806
328.50 0.381
328.60 0.3814
328.70 0.3819
328.80 0.3823
328.90 0.3828
329.00 0.3832
329.10 0.3836
329.20 0.3841
329.30 0.3845
329.40 0.385
329.50 0.3854
329.60 0.3858
329.70 0.3863
329.80 0.3867
329.90 0.3871
330.00 0.3876
330.10 0.388
330.20 0.3885
330.30 0.3889
330.40 0.3893
330.50 0.3898
330.60 0.3902
330.70 0.3907
330.80 0.3911
330.90 0.3916
331.00 0.392
331.10 0.3924
331.20 0.3929
331.30 0.3933
331.40 0.3938
331.50 0.3942
331.60 0.3946
331.70 0.3951
331.80 0.3955
331.90 0.3959
332.00 0.3964
332.10 0.3968
332.20 0.3973
332.30 0.3977
332.40 0.3982
332.50 0.3986
332.60 0.3991
332.70 0.3995
332.80 0.3999
332.90 0.4004
333.00 0.4008
333.10 0.4013
333.20 0.4017
333.30 0.4021
333.40 0.4026
333.50 0.403
333.60 0.4035
333.70 0.4039
333.80 0.4043
333.90 0.4048
334.00 0.4052
334.10 0.4057
334.20 0.4061
334.30 0.4066
334.40 0.407
334.50 0.4075
334.60 0.4079
334.70 0.4083
334.80 0.4088
334.90 0.4092
335.00 0.4097
335.10 0.4101
335.20 0.4106
335.30 0.411
335.40 0.4114
335.50 0.4119
335.60 0.4123
335.70 0.4128
335.80 0.4132
335.90 0.4136
336.00 0.4141
336.10 0.4145
336.20 0.415
336.30 0.4154
336.40 0.4159
336.50 0.4163
336.60 0.4168
336.70 0.4172
336.80 0.4177
336.90 0.4181
337.00 0.4186
337.10 0.419
337.20 0.4194
337.30 0.4199
337.40 0.4203
337.50 0.4208
337.60 0.4212
337.70 0.4216
337.80 0.4221
337.90 0.4225
338.00 0.423
338.10 0.4234
338.20 0.4239
338.30 0.4243
338.40 0.4248
338.50 0.4252
338.60 0.4257
338.70 0.4261
338.80 0.4266
338.90 0.427
339.00 0.4275
339.10 0.4279
339.20 0.4283
339.30 0.4288
339.40 0.4292
339.50 0.4297
339.60 0.4301
339.70 0.4306
339.80 0.431
339.90 0.4314
340.00 0.4319
340.10 0.4323
340.20 0.4328
340.30 0.4332
340.40 0.4337
340.50 0.4341
340.60 0.4346
340.70 0.435
340.80 0.4355
340.90 0.4359
341.00 0.4364
341.10 0.4368
341.20 0.4373
341.30 0.4377
341.40 0.4382
341.50 0.4386
341.60 0.439
341.70 0.4395
341.80 0.4399
341.90 0.4404
342.00 0.4408
342.10 0.4413
342.20 0.4417
342.30 0.4422
342.40 0.4426
342.50 0.4431
342.60 0.4435
342.70 0.444
342.80 0.4444
342.90 0.4449
343.00 0.4453
343.10 0.4458
343.20 0.4462
343.30 0.4466
343.40 0.4471
343.50 0.4475
343.60 0.448
343.70 0.4484
343.80 0.4489
343.90 0.4493
344.00 0.4497
344.10 0.4502
344.20 0.4506
344.30 0.4511
344.40 0.4515
344.50 0.452
344.60 0.4524
344.70 0.4529
344.80 0.4533
344.90 0.4538
345.00 0.4542
345.10 0.4547
345.20 0.4551
345.30 0.4556
345.40 0.456
345.50 0.4565
345.60 0.4569
345.70 0.4574
345.80 0.4578
345.90 0.4582
346.00 0.4587
346.10 0.4591
346.20 0.4596
346.30 0.46
346.40 0.4605
346.50 0.4609
346.60 0.4614
346.70 0.4618
346.80 0.4623
346.90 0.4627
347.00 0.4632
347.10 0.4636
347.20 0.4641
347.30 0.4645
347.40 0.465
347.50 0.4654
347.60 0.4659
347.70 0.4663
347.80 0.4667
347.90 0.4672
348.00 0.4676
348.10 0.4681
348.20 0.4685
348.30 0.469
348.40 0.4694
348.50 0.4699
348.60 0.4703
348.70 0.4708
348.80 0.4712
348.90 0.4717
349.00 0.4721
349.10 0.4726
349.20 0.473
349.30 0.4735
349.40 0.4739
349.50 0.4744
349.60 0.4748
349.70 0.4753
349.80 0.4757
349.90 0.4761
350.00 0.4766
350.10 0.477
350.20 0.4775
350.30 0.4779
350.40 0.4784
350.50 0.4788
350.60 0.4793
350.70 0.4797
350.80 0.4802
350.90 0.4806
351.00 0.4811
351.10 0.4815
351.20 0.482
351.30 0.4824
351.40 0.4829
351.50 0.4833
351.60 0.4838
351.70 0.4842
351.80 0.4847
351.90 0.4851
352.00 0.4855
352.10 0.486
352.20 0.4864
352.30 0.4869
352.40 0.4873
352.50 0.4878
352.60 0.4882
352.70 0.4887
352.80 0.4891
352.90 0.4896
353.00 0.49
353.10 0.4905
353.20 0.4909
353.30 0.4914
353.40 0.4918
353.50 0.4923
353.60 0.4927
353.70 0.4932
353.80 0.4936
353.90 0.494
354.00 0.4945
354.10 0.4949
354.20 0.4954
354.30 0.4958
354.40 0.4963
354.50 0.4967
354.60 0.4972
354.70 0.4976
354.80 0.4981
354.90 0.4985
355.00 0.499
355.10 0.4994
355.20 0.4999
355.30 0.5003
355.40 0.5008
355.50 0.5012
355.60 0.5016
355.70 0.5021
355.80 0.5025
355.90 0.503
356.00 0.5034
356.10 0.5039
356.20 0.5043
356.30 0.5048
356.40 0.5052
356.50 0.5057
356.60 0.5061
356.70 0.5066
356.80 0.507
356.90 0.5075
357.00 0.5079
357.10 0.5084
357.20 0.5088
357.30 0.5093
357.40 0.5097
357.50 0.5101
357.60 0.5106
357.70 0.511
357.80 0.5115
357.90 0.5119
358.00 0.5124
358.10 0.5128
358.20 0.5133
358.30 0.5137
358.40 0.5142
358.50 0.5146
358.60 0.5151
358.70 0.5155
358.80 0.5159
358.90 0.5164
359.00 0.5168
359.10 0.5173
359.20 0.5177
359.30 0.5182
359.40 0.5186
359.50 0.5191
359.60 0.5195
359.70 0.5199
359.80 0.5204
359.90 0.5208
360.00 0.5213
360.10 0.5217
360.20 0.5222
360.30 0.5226
360.40 0.5231
360.50 0.5235
360.60 0.524
360.70 0.5244
360.80 0.5249
360.90 0.5253
361.00 0.5258
361.10 0.5262
361.20 0.5266
361.30 0.5271
361.40 0.5275
361.50 0.528
361.60 0.5284
361.70 0.5289
361.80 0.5293
361.90 0.5297
362.00 0.5302
362.10 0.5306
362.20 0.5311
362.30 0.5315
362.40 0.532
362.50 0.5324
362.60 0.5328
362.70 0.5333
362.80 0.5337
362.90 0.5342
363.00 0.5346
363.10 0.5351
363.20 0.5355
363.30 0.536
363.40 0.5364
363.50 0.5369
363.60 0.5373
363.70 0.5377
363.80 0.5382
363.90 0.5386
364.00 0.5391
364.10 0.5395
364.20 0.54
364.30 0.5404
364.40 0.5408
364.50 0.5413
364.60 0.5417
364.70 0.5422
364.80 0.5426
364.90 0.5431
365.00 0.5435
365.10 0.5439
365.20 0.5444
365.30 0.5448
365.40 0.5453
365.50 0.5457
365.60 0.5462
365.70 0.5466
365.80 0.547
365.90 0.5475
366.00 0.5479
366.10 0.5484
366.20 0.5488
366.30 0.5493
366.40 0.5497
366.50 0.5501
366.60 0.5506
366.70 0.551
366.80 0.5515
366.90 0.5519
367.00 0.5524
367.10 0.5528
367.20 0.5532
367.30 0.5537
367.40 0.5541
367.50 0.5546
367.60 0.555
367.70 0.5554
367.80 0.5559
367.90 0.5563
368.00 0.5568
368.10 0.5572
368.20 0.5577
368.30 0.5581
368.40 0.5585
368.50 0.559
368.60 0.5594
368.70 0.5599
368.80 0.5603
368.90 0.5608
369.00 0.5612
369.10 0.5616
369.20 0.5621
369.30 0.5625
369.40 0.563
369.50 0.5634
369.60 0.5638
369.70 0.5643
369.80 0.5647
369.90 0.5651
370.00 0.5656
370.10 0.566
370.20 0.5665
370.30 0.5669
370.40 0.5674
370.50 0.5678
370.60 0.5682
370.70 0.5687
370.80 0.5691
370.90 0.5696
371.00 0.57
371.10 0.5704
371.20 0.5709
371.30 0.5713
371.40 0.5718
371.50 0.5722
371.60 0.5726
371.70 0.5731
371.80 0.5735
371.90 0.5739
372.00 0.5744
372.10 0.5748
372.20 0.5753
372.30 0.5757
372.40 0.5761
372.50 0.5766
372.60 0.577
372.70 0.5775
372.80 0.5779
372.90 0.5783
373.00 0.5788
373.10 0.5792
373.20 0.5796
373.30 0.5801
373.40 0.5805
373.50 0.5809
373.60 0.5814
373.70 0.5818
373.80 0.5822
373.90 0.5827
374.00 0.5831
374.10 0.5836
374.20 0.584
374.30 0.5844
374.40 0.5849
374.50 0.5853
374.60 0.5858
374.70 0.5862
374.80 0.5866
374.90 0.5871
375.00 0.5875
375.10 0.5879
375.20 0.5884
375.30 0.5888
375.40 0.5892
375.50 0.5897
375.60 0.5901
375.70 0.5905
375.80 0.591
375.90 0.5914
376.00 0.5918
376.10 0.5923
376.20 0.5927
376.30 0.5931
376.40 0.5936
376.50 0.594
376.60 0.5944
376.70 0.5949
376.80 0.5953
376.90 0.5957
377.00 0.5962
377.10 0.5966
377.20 0.5971
377.30 0.5975
377.40 0.5979
377.50 0.5984
377.60 0.5988
377.70 0.5992
377.80 0.5997
377.90 0.6001
378.00 0.6005
378.10 0.601
378.20 0.6014
378.30 0.6018
378.40 0.6023
378.50 0.6027
378.60 0.6031
378.70 0.6035
378.80 0.604
378.90 0.6044
379.00 0.6048
379.10 0.6053
379.20 0.6057
379.30 0.6061
379.40 0.6066
379.50 0.607
379.60 0.6074
379.70 0.6079
379.80 0.6083
379.90 0.6087
380.00 0.6092
380.10 0.6096
380.20 0.61
380.30 0.6105
380.40 0.6109
380.50 0.6113
380.60 0.6118
380.70 0.6122
380.80 0.6126
380.90 0.613
381.00 0.6135
381.10 0.6139
381.20 0.6143
381.30 0.6148
381.40 0.6152
381.50 0.6156
381.60 0.616
381.70 0.6165
381.80 0.6169
381.90 0.6173
382.00 0.6178
382.10 0.6182
382.20 0.6186
382.30 0.6191
382.40 0.6195
382.50 0.6199
382.60 0.6203
382.70 0.6208
382.80 0.6212
382.90 0.6216
383.00 0.622
383.10 0.6225
383.20 0.6229
383.30 0.6233
383.40 0.6238
383.50 0.6242
383.60 0.6246
383.70 0.625
383.80 0.6255
383.90 0.6259
384.00 0.6263
384.10 0.6267
384.20 0.6272
384.30 0.6276
384.40 0.628
384.50 0.6285
384.60 0.6289
384.70 0.6293
384.80 0.6297
384.90 0.6302
385.00 0.6306
385.10 0.631
385.20 0.6314
385.30 0.6319
385.40 0.6323
385.50 0.6327
385.60 0.6331
385.70 0.6336
385.80 0.634
385.90 0.6344
386.00 0.6348
386.10 0.6352
386.20 0.6357
386.30 0.6361
386.40 0.6365
386.50 0.6369
386.60 0.6374
386.70 0.6378
386.80 0.6382
386.90 0.6386
387.00 0.6391
387.10 0.6395
387.20 0.6399
387.30 0.6403
387.40 0.6408
387.50 0.6412
387.60 0.6416
387.70 0.642
387.80 0.6424
387.90 0.6429
388.00 0.6433
388.10 0.6437
388.20 0.6441
388.30 0.6446
388.40 0.645
388.50 0.6454
388.60 0.6458
388.70 0.6462
388.80 0.6467
388.90 0.6471
389.00 0.6475
389.10 0.6479
389.20 0.6483
389.30 0.6488
389.40 0.6492
389.50 0.6496
389.60 0.65
389.70 0.6504
389.80 0.6509
389.90 0.6513
390.00 0.6517
390.10 0.6521
390.20 0.6525
390.30 0.653
390.40 0.6534
390.50 0.6538
390.60 0.6542
390.70 0.6546
390.80 0.6551
390.90 0.6555
391.00 0.6559
391.10 0.6563
391.20 0.6567
391.30 0.6571
391.40 0.6576
391.50 0.658
391.60 0.6584
391.70 0.6588
391.80 0.6592
391.90 0.6596
392.00 0.6601
392.10 0.6605
392.20 0.6609
392.30 0.6613
392.40 0.6617
392.50 0.6621
392.60 0.6626
392.70 0.663
392.80 0.6634
392.90 0.6638
393.00 0.6642
393.10 0.6646
393.20 0.6651
393.30 0.6655
393.40 0.6659
393.50 0.6663
393.60 0.6667
393.70 0.6671
393.80 0.6675
393.90 0.668
394.00 0.6684
394.10 0.6688
394.20 0.6692
394.30 0.6696
394.40 0.67
394.50 0.6704
394.60 0.6708
394.70 0.6713
394.80 0.6717
394.90 0.6721
395.00 0.6725
395.10 0.6729
395.20 0.6733
395.30 0.6737
395.40 0.6741
395.50 0.6746
395.60 0.675
395.70 0.6754
395.80 0.6758
395.90 0.6762
396.00 0.6766
396.10 0.677
396.20 0.6774
396.30 0.6778
396.40 0.6783
396.50 0.6787
396.60 0.6791
396.70 0.6795
396.80 0.6799
396.90 0.6803
397.00 0.6807
397.10 0.6811
397.20 0.6815
397.30 0.6819
397.40 0.6824
397.50 0.6828
397.60 0.6832
397.70 0.6836
397.80 0.684
397.90 0.6844
398.00 0.6848
398.10 0.6852
398.20 0.6856
398.30 0.686
398.40 0.6864
398.50 0.6868
398.60 0.6873
398.70 0.6877
398.80 0.6881
398.90 0.6885
399.00 0.6889
399.10 0.6893
399.20 0.6897
399.30 0.6901
399.40 0.6905
399.50 0.6909
399.60 0.6913
399.70 0.6917
399.80 0.6921
399.90 0.6925
400.00 0.6929
400.10 0.6933
400.20 0.6937
400.30 0.6942
400.40 0.6946
400.50 0.695
400.60 0.6954
400.70 0.6958
400.80 0.6962
400.90 0.6966
401.00 0.697
401.10 0.6974
401.20 0.6978
401.30 0.6982
401.40 0.6986
401.50 0.699
401.60 0.6994
401.70 0.6998
401.80 0.7002
401.90 0.7006
402.00 0.701
402.10 0.7014
402.20 0.7018
402.30 0.7022
402.40 0.7026
402.50 0.703
402.60 0.7034
402.70 0.7038
402.80 0.7042
402.90 0.7046
403.00 0.705
403.10 0.7054
403.20 0.7058
403.30 0.7062
403.40 0.7066
403.50 0.707
403.60 0.7074
403.70 0.7078
403.80 0.7082
403.90 0.7086
404.00 0.709
404.10 0.7094
404.20 0.7098
404.30 0.7102
404.40 0.7106
404.50 0.711
404.60 0.7114
404.70 0.7118
404.80 0.7122
404.90 0.7126
405.00 0.713
405.10 0.7134
405.20 0.7138
405.30 0.7142
405.40 0.7146
405.50 0.715
405.60 0.7154
405.70 0.7158
405.80 0.7162
405.90 0.7166
406.00 0.717
406.10 0.7174
406.20 0.7177
406.30 0.7181
406.40 0.7185
406.50 0.7189
406.60 0.7193
406.70 0.7197
406.80 0.7201
406.90 0.7205
407.00 0.7209
407.10 0.7213
407.20 0.7217
407.30 0.7221
407.40 0.7225
407.50 0.7229
407.60 0.7233
407.70 0.7237
407.80 0.724
407.90 0.7244
408.00 0.7248
408.10 0.7252
408.20 0.7256
408.30 0.726
408.40 0.7264
408.50 0.7268
408.60 0.7272
408.70 0.7276
408.80 0.728
408.90 0.7284
409.00 0.7287
409.10 0.7291
409.20 0.7295
409.30 0.7299
409.40 0.7303
409.50 0.7307
409.60 0.7311
409.70 0.7315
409.80 0.7319
409.90 0.7323
410.00 0.7326
410.10 0.733
410.20 0.7334
410.30 0.7338
410.40 0.7342
410.50 0.7346
410.60 0.735
410.70 0.7354
410.80 0.7357
410.90 0.7361
411.00 0.7365
411.10 0.7369
411.20 0.7373
411.30 0.7377
411.40 0.7381
411.50 0.7385
411.60 0.7388
411.70 0.7392
411.80 0.7396
411.90 0.74
412.00 0.7404
412.10 0.7408
412.20 0.7412
412.30 0.7415
412.40 0.7419
412.50 0.7423
412.60 0.7427
412.70 0.7431
412.80 0.7435
412.90 0.7438
413.00 0.7442
413.10 0.7446
413.20 0.745
413.30 0.7454
413.40 0.7458
413.50 0.7461
413.60 0.7465
413.70 0.7469
413.80 0.7473
413.90 0.7477
414.00 0.748
414.10 0.7484
414.20 0.7488
414.30 0.7492
414.40 0.7496
414.50 0.75
414.60 0.7503
414.70 0.7507
414.80 0.7511
414.90 0.7515
415.00 0.7519
415.10 0.7522
415.20 0.7526
415.30 0.753
415.40 0.7534
415.50 0.7538
415.60 0.7541
415.70 0.7545
415.80 0.7549
415.90 0.7553
416.00 0.7556
416.10 0.756
416.20 0.7564
416.30 0.7568
416.40 0.7572
416.50 0.7575
416.60 0.7579
416.70 0.7583
416.80 0.7587
416.90 0.759
417.00 0.7594
417.10 0.7598
417.20 0.7602
417.30 0.7605
417.40 0.7609
417.50 0.7613
417.60 0.7617
417.70 0.7621
417.80 0.7624
417.90 0.7628
418.00 0.7632
418.10 0.7636
418.20 0.7639
418.30 0.7643
418.40 0.7647
418.50 0.765
418.60 0.7654
418.70 0.7658
418.80 0.7662
418.90 0.7665
419.00 0.7669
419.10 0.7673
419.20 0.7677
419.30 0.768
419.40 0.7684
419.50 0.7688
419.60 0.7691
419.70 0.7695
419.80 0.7699
419.90 0.7703
420.00 0.7706
420.10 0.771
420.20 0.7714
420.30 0.7717
420.40 0.7721
420.50 0.7725
420.60 0.7728
420.70 0.7732
420.80 0.7736
420.90 0.774
421.00 0.7743
421.10 0.7747
421.20 0.7751
421.30 0.7754
421.40 0.7758
421.50 0.7762
421.60 0.7765
421.70 0.7769
421.80 0.7773
421.90 0.7776
422.00 0.778
422.10 0.7784
422.20 0.7787
422.30 0.7791
422.40 0.7795
422.50 0.7798
422.60 0.7802
422.70 0.7806
422.80 0.7809
422.90 0.7813
423.00 0.7817
423.10 0.782
423.20 0.7824
423.30 0.7828
423.40 0.7831
423.50 0.7835
423.60 0.7838
423.70 0.7842
423.80 0.7846
423.90 0.7849
424.00 0.7853
424.10 0.7857
424.20 0.786
424.30 0.7864
424.40 0.7868
424.50 0.7871
424.60 0.7875
424.70 0.7878
424.80 0.7882
424.90 0.7886
425.00 0.7889
425.10 0.7893
425.20 0.7896
425.30 0.79
425.40 0.7904
425.50 0.7907
425.60 0.7911
425.70 0.7914
425.80 0.7918
425.90 0.7922
426.00 0.7925
426.10 0.7929
426.20 0.7932
426.30 0.7936
426.40 0.794
426.50 0.7943
426.60 0.7947
426.70 0.795
426.80 0.7954
426.90 0.7957
427.00 0.7961
427.10 0.7965
427.20 0.7968
427.30 0.7972
427.40 0.7975
427.50 0.7979
427.60 0.7982
427.70 0.7986
427.80 0.799
427.90 0.7993
428.00 0.7997
428.10 0.8
428.20 0.8004
428.30 0.8007
428.40 0.8011
428.50 0.8014
428.60 0.8018
428.70 0.8021
428.80 0.8025
428.90 0.8029
429.00 0.8032
429.10 0.8036
429.20 0.8039
429.30 0.8043
429.40 0.8046
429.50 0.805
429.60 0.8053
429.70 0.8057
429.80 0.806
429.90 0.8064
430.00 0.8067
430.10 0.8071
430.20 0.8074
430.30 0.8078
430.40 0.8081
430.50 0.8085
430.60 0.8088
430.70 0.8092
430.80 0.8095
430.90 0.8099
431.00 0.8102
431.10 0.8106
431.20 0.8109
431.30 0.8113
431.40 0.8116
431.50 0.812
431.60 0.8123
431.70 0.8127
431.80 0.813
431.90 0.8134
432.00 0.8137
432.10 0.8141
432.20 0.8144
432.30 0.8147
432.40 0.8151
432.50 0.8154
432.60 0.8158
432.70 0.8161
432.80 0.8165
432.90 0.8168
433.00 0.8172
433.10 0.8175
433.20 0.8179
433.30 0.8182
433.40 0.8185
433.50 0.8189
433.60 0.8192
433.70 0.8196
433.80 0.8199
433.90 0.8202
434.00 0.8206
434.10 0.8209
434.20 0.8213
434.30 0.8216
434.40 0.822
434.50 0.8223
434.60 0.8226
434.70 0.823
434.80 0.8233
434.90 0.8237
435.00 0.824
435.10 0.8244
435.20 0.8247
435.30 0.8251
435.40 0.8254
435.50 0.8257
435.60 0.8261
435.70 0.8264
435.80 0.8268
435.90 0.8271
436.00 0.8274
436.10 0.8278
436.20 0.8281
436.30 0.8284
436.40 0.8288
436.50 0.8291
436.60 0.8295
436.70 0.8298
436.80 0.8301
436.90 0.8305
437.00 0.8308
437.10 0.8311
437.20 0.8315
437.30 0.8318
437.40 0.8322
437.50 0.8325
437.60 0.8328
437.70 0.8332
437.80 0.8335
437.90 0.8338
438.00 0.8342
438.10 0.8345
438.20 0.8348
438.30 0.8352
438.40 0.8355
438.50 0.8358
438.60 0.8362
438.70 0.8365
438.80 0.8368
438.90 0.8372
439.00 0.8375
439.10 0.8378
439.20 0.8382
439.30 0.8385
439.40 0.8388
439.50 0.8392
439.60 0.8395
439.70 0.8398
439.80 0.8402
439.90 0.8405
440.00 0.8408
440.10 0.8412
440.20 0.8415
440.30 0.8418
440.40 0.8421
440.50 0.8425
440.60 0.8428
440.70 0.8431
440.80 0.8435
440.90 0.8438
441.00 0.8441
441.10 0.8445
441.20 0.8448
441.30 0.8451
441.40 0.8454
441.50 0.8458
441.60 0.8461
441.70 0.8464
441.80 0.8467
441.90 0.8471
442.00 0.8474
442.10 0.8477
442.20 0.8481
442.30 0.8484
442.40 0.8487
442.50 0.849
442.60 0.8493
442.70 0.8497
442.80 0.85
442.90 0.8503
443.00 0.8506
