# Version 2.1 - nm, norm@500 to 1, cut digits, bergeron_3500_75.dat_3500
# Wavelength(nm)  Flambda(ergs/cm^s/s/nm)
300.00 0.1193
300.10 0.1195
300.20 0.1198
300.30 0.1201
300.40 0.1203
300.50 0.1206
300.60 0.1209
300.70 0.1212
300.80 0.1214
300.90 0.1217
301.00 0.122
301.10 0.1222
301.20 0.1225
301.30 0.1228
301.40 0.1231
301.50 0.1233
301.60 0.1236
301.70 0.1239
301.80 0.1241
301.90 0.1244
302.00 0.1247
302.10 0.1249
302.20 0.1252
302.30 0.1255
302.40 0.1258
302.50 0.1261
302.60 0.1263
302.70 0.1266
302.80 0.1269
302.90 0.1272
303.00 0.1275
303.10 0.1277
303.20 0.128
303.30 0.1283
303.40 0.1286
303.50 0.1288
303.60 0.1291
303.70 0.1294
303.80 0.1297
303.90 0.1299
304.00 0.1302
304.10 0.1305
304.20 0.1308
304.30 0.1311
304.40 0.1314
304.50 0.1317
304.60 0.1319
304.70 0.1322
304.80 0.1325
304.90 0.1328
305.00 0.1331
305.10 0.1334
305.20 0.1337
305.30 0.1339
305.40 0.1342
305.50 0.1345
305.60 0.1348
305.70 0.1351
305.80 0.1354
305.90 0.1356
306.00 0.1359
306.10 0.1362
306.20 0.1365
306.30 0.1368
306.40 0.1371
306.50 0.1374
306.60 0.1377
306.70 0.138
306.80 0.1383
306.90 0.1386
307.00 0.1388
307.10 0.1391
307.20 0.1394
307.30 0.1397
307.40 0.14
307.50 0.1403
307.60 0.1406
307.70 0.1409
307.80 0.1412
307.90 0.1415
308.00 0.1418
308.10 0.142
308.20 0.1423
308.30 0.1426
308.40 0.1429
308.50 0.1432
308.60 0.1435
308.70 0.1438
308.80 0.1441
308.90 0.1444
309.00 0.1447
309.10 0.145
309.20 0.1453
309.30 0.1456
309.40 0.1459
309.50 0.1462
309.60 0.1465
309.70 0.1468
309.80 0.1471
309.90 0.1474
310.00 0.1477
310.10 0.148
310.20 0.1483
310.30 0.1486
310.40 0.1489
310.50 0.1493
310.60 0.1496
310.70 0.1499
310.80 0.1502
310.90 0.1505
311.00 0.1508
311.10 0.1511
311.20 0.1514
311.30 0.1517
311.40 0.152
311.50 0.1523
311.60 0.1526
311.70 0.1529
311.80 0.1532
311.90 0.1535
312.00 0.1538
312.10 0.1541
312.20 0.1544
312.30 0.1547
312.40 0.1551
312.50 0.1554
312.60 0.1557
312.70 0.156
312.80 0.1563
312.90 0.1566
313.00 0.1569
313.10 0.1572
313.20 0.1576
313.30 0.1579
313.40 0.1582
313.50 0.1585
313.60 0.1588
313.70 0.1591
313.80 0.1594
313.90 0.1597
314.00 0.16
314.10 0.1604
314.20 0.1607
314.30 0.161
314.40 0.1613
314.50 0.1616
314.60 0.162
314.70 0.1623
314.80 0.1626
314.90 0.1629
315.00 0.1632
315.10 0.1636
315.20 0.1639
315.30 0.1642
315.40 0.1645
315.50 0.1648
315.60 0.1651
315.70 0.1655
315.80 0.1658
315.90 0.1661
316.00 0.1664
316.10 0.1667
316.20 0.1671
316.30 0.1674
316.40 0.1677
316.50 0.168
316.60 0.1684
316.70 0.1687
316.80 0.169
316.90 0.1693
317.00 0.1697
317.10 0.17
317.20 0.1703
317.30 0.1706
317.40 0.171
317.50 0.1713
317.60 0.1716
317.70 0.1719
317.80 0.1722
317.90 0.1726
318.00 0.1729
318.10 0.1732
318.20 0.1736
318.30 0.1739
318.40 0.1742
318.50 0.1746
318.60 0.1749
318.70 0.1752
318.80 0.1756
318.90 0.1759
319.00 0.1762
319.10 0.1766
319.20 0.1769
319.30 0.1772
319.40 0.1775
319.50 0.1779
319.60 0.1782
319.70 0.1785
319.80 0.1789
319.90 0.1792
320.00 0.1795
320.10 0.1799
320.20 0.1802
320.30 0.1805
320.40 0.1809
320.50 0.1812
320.60 0.1816
320.70 0.1819
320.80 0.1822
320.90 0.1826
321.00 0.1829
321.10 0.1832
321.20 0.1836
321.30 0.1839
321.40 0.1843
321.50 0.1846
321.60 0.1849
321.70 0.1853
321.80 0.1856
321.90 0.1859
322.00 0.1863
322.10 0.1866
322.20 0.187
322.30 0.1873
322.40 0.1876
322.50 0.188
322.60 0.1883
322.70 0.1887
322.80 0.189
322.90 0.1894
323.00 0.1897
323.10 0.1901
323.20 0.1904
323.30 0.1907
323.40 0.1911
323.50 0.1914
323.60 0.1918
323.70 0.1921
323.80 0.1925
323.90 0.1928
324.00 0.1931
324.10 0.1935
324.20 0.1938
324.30 0.1942
324.40 0.1945
324.50 0.1949
324.60 0.1953
324.70 0.1956
324.80 0.196
324.90 0.1963
325.00 0.1967
325.10 0.197
325.20 0.1974
325.30 0.1977
325.40 0.1981
325.50 0.1984
325.60 0.1987
325.70 0.1991
325.80 0.1994
325.90 0.1998
326.00 0.2001
326.10 0.2005
326.20 0.2009
326.30 0.2012
326.40 0.2016
326.50 0.2019
326.60 0.2023
326.70 0.2026
326.80 0.203
326.90 0.2034
327.00 0.2037
327.10 0.2041
327.20 0.2044
327.30 0.2048
327.40 0.2051
327.50 0.2055
327.60 0.2058
327.70 0.2062
327.80 0.2066
327.90 0.2069
328.00 0.2073
328.10 0.2076
328.20 0.208
328.30 0.2084
328.40 0.2087
328.50 0.2091
328.60 0.2094
328.70 0.2098
328.80 0.2102
328.90 0.2105
329.00 0.2109
329.10 0.2113
329.20 0.2116
329.30 0.212
329.40 0.2123
329.50 0.2127
329.60 0.2131
329.70 0.2134
329.80 0.2138
329.90 0.2141
330.00 0.2145
330.10 0.2149
330.20 0.2152
330.30 0.2156
330.40 0.216
330.50 0.2164
330.60 0.2167
330.70 0.2171
330.80 0.2175
330.90 0.2178
331.00 0.2182
331.10 0.2186
331.20 0.2189
331.30 0.2193
331.40 0.2197
331.50 0.22
331.60 0.2204
331.70 0.2208
331.80 0.2211
331.90 0.2215
332.00 0.2219
332.10 0.2222
332.20 0.2226
332.30 0.223
332.40 0.2234
332.50 0.2237
332.60 0.2241
332.70 0.2245
332.80 0.2249
332.90 0.2252
333.00 0.2256
333.10 0.226
333.20 0.2264
333.30 0.2267
333.40 0.2271
333.50 0.2275
333.60 0.2279
333.70 0.2282
333.80 0.2286
333.90 0.229
334.00 0.2293
334.10 0.2297
334.20 0.2301
334.30 0.2305
334.40 0.2309
334.50 0.2312
334.60 0.2316
334.70 0.232
334.80 0.2324
334.90 0.2328
335.00 0.2332
335.10 0.2335
335.20 0.2339
335.30 0.2343
335.40 0.2347
335.50 0.235
335.60 0.2354
335.70 0.2358
335.80 0.2362
335.90 0.2365
336.00 0.2369
336.10 0.2373
336.20 0.2377
336.30 0.2381
336.40 0.2385
336.50 0.2389
336.60 0.2393
336.70 0.2396
336.80 0.24
336.90 0.2404
337.00 0.2408
337.10 0.2412
337.20 0.2416
337.30 0.242
337.40 0.2423
337.50 0.2427
337.60 0.2431
337.70 0.2435
337.80 0.2439
337.90 0.2442
338.00 0.2446
338.10 0.245
338.20 0.2454
338.30 0.2458
338.40 0.2462
338.50 0.2466
338.60 0.247
338.70 0.2474
338.80 0.2478
338.90 0.2482
339.00 0.2486
339.10 0.2489
339.20 0.2493
339.30 0.2497
339.40 0.2501
339.50 0.2505
339.60 0.2509
339.70 0.2513
339.80 0.2517
339.90 0.2521
340.00 0.2524
340.10 0.2528
340.20 0.2532
340.30 0.2536
340.40 0.254
340.50 0.2544
340.60 0.2548
340.70 0.2552
340.80 0.2556
340.90 0.256
341.00 0.2564
341.10 0.2568
341.20 0.2572
341.30 0.2576
341.40 0.258
341.50 0.2584
341.60 0.2588
341.70 0.2592
341.80 0.2596
341.90 0.26
342.00 0.2604
342.10 0.2608
342.20 0.2612
342.30 0.2616
342.40 0.262
342.50 0.2624
342.60 0.2628
342.70 0.2632
342.80 0.2636
342.90 0.264
343.00 0.2644
343.10 0.2648
343.20 0.2652
343.30 0.2656
343.40 0.266
343.50 0.2664
343.60 0.2668
343.70 0.2672
343.80 0.2676
343.90 0.268
344.00 0.2684
344.10 0.2688
344.20 0.2692
344.30 0.2696
344.40 0.27
344.50 0.2704
344.60 0.2708
344.70 0.2713
344.80 0.2717
344.90 0.2721
345.00 0.2725
345.10 0.2729
345.20 0.2733
345.30 0.2737
345.40 0.2741
345.50 0.2745
345.60 0.2749
345.70 0.2753
345.80 0.2757
345.90 0.2761
346.00 0.2765
346.10 0.2769
346.20 0.2773
346.30 0.2778
346.40 0.2782
346.50 0.2786
346.60 0.279
346.70 0.2794
346.80 0.2798
346.90 0.2802
347.00 0.2807
347.10 0.2811
347.20 0.2815
347.30 0.2819
347.40 0.2823
347.50 0.2827
347.60 0.2831
347.70 0.2835
347.80 0.2839
347.90 0.2843
348.00 0.2847
348.10 0.2852
348.20 0.2856
348.30 0.286
348.40 0.2864
348.50 0.2868
348.60 0.2873
348.70 0.2877
348.80 0.2881
348.90 0.2885
349.00 0.2889
349.10 0.2893
349.20 0.2898
349.30 0.2902
349.40 0.2906
349.50 0.291
349.60 0.2914
349.70 0.2918
349.80 0.2922
349.90 0.2927
350.00 0.2931
350.10 0.2935
350.20 0.2939
350.30 0.2943
350.40 0.2948
350.50 0.2952
350.60 0.2956
350.70 0.296
350.80 0.2965
350.90 0.2969
351.00 0.2973
351.10 0.2977
351.20 0.2981
351.30 0.2986
351.40 0.299
351.50 0.2994
351.60 0.2998
351.70 0.3002
351.80 0.3007
351.90 0.3011
352.00 0.3015
352.10 0.3019
352.20 0.3023
352.30 0.3028
352.40 0.3032
352.50 0.3036
352.60 0.3041
352.70 0.3045
352.80 0.3049
352.90 0.3053
353.00 0.3058
353.10 0.3062
353.20 0.3066
353.30 0.307
353.40 0.3075
353.50 0.3079
353.60 0.3083
353.70 0.3087
353.80 0.3092
353.90 0.3096
354.00 0.31
354.10 0.3104
354.20 0.3109
354.30 0.3113
354.40 0.3117
354.50 0.3122
354.60 0.3126
354.70 0.313
354.80 0.3135
354.90 0.3139
355.00 0.3143
355.10 0.3148
355.20 0.3152
355.30 0.3156
355.40 0.316
355.50 0.3165
355.60 0.3169
355.70 0.3173
355.80 0.3178
355.90 0.3182
356.00 0.3186
356.10 0.319
356.20 0.3195
356.30 0.3199
356.40 0.3204
356.50 0.3208
356.60 0.3212
356.70 0.3217
356.80 0.3221
356.90 0.3225
357.00 0.323
357.10 0.3234
357.20 0.3238
357.30 0.3243
357.40 0.3247
357.50 0.3251
357.60 0.3256
357.70 0.326
357.80 0.3264
357.90 0.3269
358.00 0.3273
358.10 0.3277
358.20 0.3282
358.30 0.3286
358.40 0.3291
358.50 0.3295
358.60 0.3299
358.70 0.3304
358.80 0.3308
358.90 0.3313
359.00 0.3317
359.10 0.3321
359.20 0.3326
359.30 0.333
359.40 0.3335
359.50 0.3339
359.60 0.3343
359.70 0.3348
359.80 0.3352
359.90 0.3356
360.00 0.3361
360.10 0.3365
360.20 0.337
360.30 0.3374
360.40 0.3379
360.50 0.3383
360.60 0.3387
360.70 0.3392
360.80 0.3396
360.90 0.3401
361.00 0.3405
361.10 0.341
361.20 0.3414
361.30 0.3418
361.40 0.3423
361.50 0.3427
361.60 0.3432
361.70 0.3436
361.80 0.344
361.90 0.3445
362.00 0.3449
362.10 0.3454
362.20 0.3458
362.30 0.3463
362.40 0.3467
362.50 0.3472
362.60 0.3476
362.70 0.3481
362.80 0.3485
362.90 0.3489
363.00 0.3494
363.10 0.3498
363.20 0.3503
363.30 0.3507
363.40 0.3512
363.50 0.3516
363.60 0.3521
363.70 0.3525
363.80 0.353
363.90 0.3534
364.00 0.3539
364.10 0.3543
364.20 0.3548
364.30 0.3552
364.40 0.3557
364.50 0.3561
364.60 0.3566
364.70 0.357
364.80 0.3575
364.90 0.3579
365.00 0.3584
365.10 0.3588
365.20 0.3593
365.30 0.3597
365.40 0.3602
365.50 0.3606
365.60 0.3611
365.70 0.3615
365.80 0.362
365.90 0.3624
366.00 0.3629
366.10 0.3633
366.20 0.3638
366.30 0.3643
366.40 0.3647
366.50 0.3652
366.60 0.3656
366.70 0.3661
366.80 0.3665
366.90 0.367
367.00 0.3674
367.10 0.3679
367.20 0.3684
367.30 0.3688
367.40 0.3693
367.50 0.3697
367.60 0.3702
367.70 0.3706
367.80 0.3711
367.90 0.3715
368.00 0.372
368.10 0.3724
368.20 0.3729
368.30 0.3733
368.40 0.3738
368.50 0.3743
368.60 0.3747
368.70 0.3752
368.80 0.3756
368.90 0.3761
369.00 0.3766
369.10 0.377
369.20 0.3775
369.30 0.3779
369.40 0.3784
369.50 0.3788
369.60 0.3793
369.70 0.3797
369.80 0.3802
369.90 0.3807
370.00 0.3811
370.10 0.3816
370.20 0.382
370.30 0.3825
370.40 0.383
370.50 0.3834
370.60 0.3839
370.70 0.3844
370.80 0.3848
370.90 0.3853
371.00 0.3858
371.10 0.3862
371.20 0.3867
371.30 0.3871
371.40 0.3876
371.50 0.3881
371.60 0.3885
371.70 0.389
371.80 0.3894
371.90 0.3899
372.00 0.3903
372.10 0.3908
372.20 0.3913
372.30 0.3917
372.40 0.3922
372.50 0.3927
372.60 0.3931
372.70 0.3936
372.80 0.3941
372.90 0.3945
373.00 0.395
373.10 0.3955
373.20 0.3959
373.30 0.3964
373.40 0.3969
373.50 0.3973
373.60 0.3978
373.70 0.3982
373.80 0.3987
373.90 0.3992
374.00 0.3996
374.10 0.4001
374.20 0.4006
374.30 0.401
374.40 0.4015
374.50 0.402
374.60 0.4024
374.70 0.4029
374.80 0.4034
374.90 0.4038
375.00 0.4043
375.10 0.4048
375.20 0.4053
375.30 0.4057
375.40 0.4062
375.50 0.4067
375.60 0.4071
375.70 0.4076
375.80 0.408
375.90 0.4085
376.00 0.409
376.10 0.4094
376.20 0.4099
376.30 0.4104
376.40 0.4109
376.50 0.4113
376.60 0.4118
376.70 0.4123
376.80 0.4127
376.90 0.4132
377.00 0.4137
377.10 0.4142
377.20 0.4146
377.30 0.4151
377.40 0.4156
377.50 0.416
377.60 0.4165
377.70 0.417
377.80 0.4174
377.90 0.4179
378.00 0.4184
378.10 0.4189
378.20 0.4193
378.30 0.4198
378.40 0.4203
378.50 0.4208
378.60 0.4212
378.70 0.4217
378.80 0.4222
378.90 0.4227
379.00 0.4231
379.10 0.4236
379.20 0.4241
379.30 0.4245
379.40 0.425
379.50 0.4255
379.60 0.426
379.70 0.4264
379.80 0.4269
379.90 0.4274
380.00 0.4278
380.10 0.4283
380.20 0.4288
380.30 0.4293
380.40 0.4298
380.50 0.4302
380.60 0.4307
380.70 0.4312
380.80 0.4317
380.90 0.4321
381.00 0.4326
381.10 0.4331
381.20 0.4336
381.30 0.434
381.40 0.4345
381.50 0.435
381.60 0.4355
381.70 0.4359
381.80 0.4364
381.90 0.4369
382.00 0.4374
382.10 0.4378
382.20 0.4383
382.30 0.4388
382.40 0.4393
382.50 0.4398
382.60 0.4403
382.70 0.4407
382.80 0.4412
382.90 0.4417
383.00 0.4422
383.10 0.4426
383.20 0.4431
383.30 0.4436
383.40 0.4441
383.50 0.4446
383.60 0.445
383.70 0.4455
383.80 0.446
383.90 0.4464
384.00 0.4469
384.10 0.4474
384.20 0.4479
384.30 0.4484
384.40 0.4489
384.50 0.4493
384.60 0.4498
384.70 0.4503
384.80 0.4508
384.90 0.4513
385.00 0.4518
385.10 0.4522
385.20 0.4527
385.30 0.4532
385.40 0.4537
385.50 0.4541
385.60 0.4546
385.70 0.4551
385.80 0.4556
385.90 0.4561
386.00 0.4565
386.10 0.457
386.20 0.4575
386.30 0.458
386.40 0.4585
386.50 0.459
386.60 0.4594
386.70 0.4599
386.80 0.4604
386.90 0.4609
387.00 0.4614
387.10 0.4619
387.20 0.4623
387.30 0.4628
387.40 0.4633
387.50 0.4638
387.60 0.4643
387.70 0.4648
387.80 0.4653
387.90 0.4657
388.00 0.4662
388.10 0.4667
388.20 0.4672
388.30 0.4677
388.40 0.4682
388.50 0.4686
388.60 0.4691
388.70 0.4696
388.80 0.4701
388.90 0.4706
389.00 0.4711
389.10 0.4715
389.20 0.472
389.30 0.4725
389.40 0.473
389.50 0.4735
389.60 0.474
389.70 0.4745
389.80 0.475
389.90 0.4754
390.00 0.4759
390.10 0.4764
390.20 0.4769
390.30 0.4774
390.40 0.4779
390.50 0.4783
390.60 0.4788
390.70 0.4793
390.80 0.4798
390.90 0.4803
391.00 0.4808
391.10 0.4813
391.20 0.4818
391.30 0.4823
391.40 0.4827
391.50 0.4832
391.60 0.4837
391.70 0.4842
391.80 0.4847
391.90 0.4852
392.00 0.4857
392.10 0.4861
392.20 0.4866
392.30 0.4871
392.40 0.4876
392.50 0.4881
392.60 0.4886
392.70 0.4891
392.80 0.4896
392.90 0.4901
393.00 0.4905
393.10 0.491
393.20 0.4915
393.30 0.492
393.40 0.4925
393.50 0.493
393.60 0.4935
393.70 0.494
393.80 0.4945
393.90 0.4949
394.00 0.4954
394.10 0.4959
394.20 0.4964
394.30 0.4969
394.40 0.4974
394.50 0.4979
394.60 0.4984
394.70 0.4989
394.80 0.4993
394.90 0.4998
395.00 0.5003
395.10 0.5008
395.20 0.5013
395.30 0.5018
395.40 0.5023
395.50 0.5028
395.60 0.5033
395.70 0.5038
395.80 0.5043
395.90 0.5048
396.00 0.5052
396.10 0.5057
396.20 0.5062
396.30 0.5067
396.40 0.5072
396.50 0.5077
396.60 0.5082
396.70 0.5087
396.80 0.5092
396.90 0.5097
397.00 0.5102
397.10 0.5106
397.20 0.5111
397.30 0.5116
397.40 0.5121
397.50 0.5126
397.60 0.5131
397.70 0.5136
397.80 0.5141
397.90 0.5146
398.00 0.5151
398.10 0.5156
398.20 0.5161
398.30 0.5166
398.40 0.5171
398.50 0.5175
398.60 0.518
398.70 0.5185
398.80 0.519
398.90 0.5195
399.00 0.52
399.10 0.5205
399.20 0.521
399.30 0.5215
399.40 0.522
399.50 0.5225
399.60 0.523
399.70 0.5235
399.80 0.524
399.90 0.5245
400.00 0.5249
400.10 0.5254
400.20 0.5259
400.30 0.5264
400.40 0.5269
400.50 0.5274
400.60 0.5279
400.70 0.5284
400.80 0.5289
400.90 0.5294
401.00 0.5299
401.10 0.5304
401.20 0.5309
401.30 0.5314
401.40 0.5319
401.50 0.5323
401.60 0.5329
401.70 0.5334
401.80 0.5339
401.90 0.5343
402.00 0.5348
402.10 0.5353
402.20 0.5358
402.30 0.5363
402.40 0.5368
402.50 0.5373
402.60 0.5378
402.70 0.5383
402.80 0.5388
402.90 0.5393
403.00 0.5398
403.10 0.5403
403.20 0.5408
403.30 0.5413
403.40 0.5418
403.50 0.5423
403.60 0.5428
403.70 0.5433
403.80 0.5438
403.90 0.5442
404.00 0.5448
404.10 0.5453
404.20 0.5457
404.30 0.5462
404.40 0.5467
404.50 0.5472
404.60 0.5477
404.70 0.5482
404.80 0.5487
404.90 0.5492
405.00 0.5497
405.10 0.5502
405.20 0.5507
405.30 0.5512
405.40 0.5517
405.50 0.5522
405.60 0.5527
405.70 0.5532
405.80 0.5537
405.90 0.5542
406.00 0.5547
406.10 0.5552
406.20 0.5557
406.30 0.5562
406.40 0.5567
406.50 0.5572
406.60 0.5577
406.70 0.5582
406.80 0.5587
406.90 0.5591
407.00 0.5597
407.10 0.5602
407.20 0.5607
407.30 0.5611
407.40 0.5616
407.50 0.5621
407.60 0.5626
407.70 0.5631
407.80 0.5636
407.90 0.5641
408.00 0.5646
408.10 0.5651
408.20 0.5656
408.30 0.5661
408.40 0.5666
408.50 0.5671
408.60 0.5676
408.70 0.5681
408.80 0.5686
408.90 0.5691
409.00 0.5696
409.10 0.5701
409.20 0.5706
409.30 0.5711
409.40 0.5716
409.50 0.5721
409.60 0.5726
409.70 0.5731
409.80 0.5736
409.90 0.5741
410.00 0.5746
410.10 0.5751
410.20 0.5756
410.30 0.5761
410.40 0.5766
410.50 0.5771
410.60 0.5776
410.70 0.5781
410.80 0.5786
410.90 0.5791
411.00 0.5796
411.10 0.5801
411.20 0.5806
411.30 0.5811
411.40 0.5816
411.50 0.5821
411.60 0.5826
411.70 0.5831
411.80 0.5836
411.90 0.5841
412.00 0.5846
412.10 0.5851
412.20 0.5856
412.30 0.5861
412.40 0.5866
412.50 0.5871
412.60 0.5876
412.70 0.588
412.80 0.5885
412.90 0.589
413.00 0.5895
413.10 0.59
413.20 0.5906
413.30 0.5911
413.40 0.5916
413.50 0.5921
413.60 0.5925
413.70 0.593
413.80 0.5935
413.90 0.594
414.00 0.5946
414.10 0.595
414.20 0.5955
414.30 0.596
414.40 0.5965
414.50 0.597
414.60 0.5975
414.70 0.598
414.80 0.5985
414.90 0.599
415.00 0.5995
415.10 0.6
415.20 0.6005
415.30 0.601
415.40 0.6015
415.50 0.602
415.60 0.6025
415.70 0.603
415.80 0.6035
415.90 0.604
416.00 0.6045
416.10 0.605
416.20 0.6055
416.30 0.606
416.40 0.6065
416.50 0.607
416.60 0.6075
416.70 0.608
416.80 0.6085
416.90 0.609
417.00 0.6095
417.10 0.61
417.20 0.6105
417.30 0.611
417.40 0.6115
417.50 0.612
417.60 0.6125
417.70 0.613
417.80 0.6135
417.90 0.614
418.00 0.6145
418.10 0.615
418.20 0.6155
418.30 0.616
418.40 0.6165
418.50 0.617
418.60 0.6175
418.70 0.618
418.80 0.6185
418.90 0.619
419.00 0.6195
419.10 0.62
419.20 0.6205
419.30 0.621
419.40 0.6215
419.50 0.622
419.60 0.6225
419.70 0.623
419.80 0.6235
419.90 0.624
420.00 0.6245
420.10 0.625
420.20 0.6255
420.30 0.626
420.40 0.6265
420.50 0.627
420.60 0.6275
420.70 0.628
420.80 0.6285
420.90 0.629
421.00 0.6295
421.10 0.63
421.20 0.6305
421.30 0.631
421.40 0.6315
421.50 0.632
421.60 0.6325
421.70 0.633
421.80 0.6335
421.90 0.634
422.00 0.6345
422.10 0.635
422.20 0.6355
422.30 0.636
422.40 0.6365
422.50 0.637
422.60 0.6375
422.70 0.638
422.80 0.6385
422.90 0.639
423.00 0.6395
423.10 0.64
423.20 0.6405
423.30 0.641
423.40 0.6415
423.50 0.642
423.60 0.6425
423.70 0.643
423.80 0.6435
423.90 0.644
424.00 0.6445
424.10 0.645
424.20 0.6455
424.30 0.646
424.40 0.6465
424.50 0.647
424.60 0.6475
424.70 0.648
424.80 0.6485
424.90 0.649
425.00 0.6495
425.10 0.65
425.20 0.6505
425.30 0.651
425.40 0.6515
425.50 0.652
425.60 0.6525
425.70 0.6529
425.80 0.6535
425.90 0.654
426.00 0.6545
426.10 0.655
426.20 0.6555
426.30 0.656
426.40 0.6565
426.50 0.657
426.60 0.6575
426.70 0.658
426.80 0.6584
426.90 0.6589
427.00 0.6594
427.10 0.6599
427.20 0.6604
427.30 0.6609
427.40 0.6614
427.50 0.6619
427.60 0.6624
427.70 0.6629
427.80 0.6634
427.90 0.6639
428.00 0.6644
428.10 0.6649
428.20 0.6654
428.30 0.6659
428.40 0.6664
428.50 0.6669
428.60 0.6674
428.70 0.6679
428.80 0.6684
428.90 0.6689
429.00 0.6694
429.10 0.6699
429.20 0.6704
429.30 0.6709
429.40 0.6714
429.50 0.6719
429.60 0.6724
429.70 0.6729
429.80 0.6734
429.90 0.6739
430.00 0.6744
430.10 0.6749
430.20 0.6754
430.30 0.6759
430.40 0.6764
430.50 0.6769
430.60 0.6774
430.70 0.6779
430.80 0.6784
430.90 0.6789
431.00 0.6794
431.10 0.6798
431.20 0.6803
431.30 0.6808
431.40 0.6813
431.50 0.6818
431.60 0.6823
431.70 0.6828
431.80 0.6833
431.90 0.6838
432.00 0.6843
432.10 0.6848
432.20 0.6853
432.30 0.6858
432.40 0.6863
432.50 0.6868
432.60 0.6873
432.70 0.6878
432.80 0.6883
432.90 0.6888
433.00 0.6893
433.10 0.6898
433.20 0.6903
433.30 0.6908
433.40 0.6913
433.50 0.6918
433.60 0.6923
433.70 0.6928
433.80 0.6933
433.90 0.6937
434.00 0.6942
434.10 0.6947
434.20 0.6952
434.30 0.6957
434.40 0.6962
434.50 0.6967
434.60 0.6972
434.70 0.6977
434.80 0.6982
434.90 0.6987
435.00 0.6992
435.10 0.6997
435.20 0.7002
435.30 0.7007
435.40 0.7012
435.50 0.7017
435.60 0.7022
435.70 0.7027
435.80 0.7032
435.90 0.7037
436.00 0.7041
436.10 0.7046
436.20 0.7051
436.30 0.7056
436.40 0.7061
436.50 0.7066
436.60 0.7071
436.70 0.7076
436.80 0.7081
436.90 0.7086
437.00 0.7091
437.10 0.7096
437.20 0.7101
437.30 0.7106
437.40 0.7111
437.50 0.7116
437.60 0.7121
437.70 0.7125
437.80 0.713
437.90 0.7135
438.00 0.714
438.10 0.7145
438.20 0.715
438.30 0.7155
438.40 0.716
438.50 0.7165
438.60 0.717
438.70 0.7175
438.80 0.718
438.90 0.7185
439.00 0.719
439.10 0.7195
439.20 0.72
439.30 0.7204
439.40 0.7209
439.50 0.7214
439.60 0.7219
439.70 0.7224
439.80 0.7229
439.90 0.7234
440.00 0.7239
440.10 0.7244
440.20 0.7249
440.30 0.7254
440.40 0.7259
440.50 0.7264
440.60 0.7269
440.70 0.7273
440.80 0.7278
440.90 0.7283
441.00 0.7288
441.10 0.7293
441.20 0.7298
441.30 0.7303
441.40 0.7308
441.50 0.7313
441.60 0.7318
441.70 0.7323
441.80 0.7328
441.90 0.7332
442.00 0.7337
442.10 0.7342
442.20 0.7347
442.30 0.7352
442.40 0.7357
442.50 0.7362
442.60 0.7367
442.70 0.7372
442.80 0.7377
442.90 0.7382
443.00 0.7387
443.10 0.7391
443.20 0.7396
443.30 0.7401
