# Version 2.1 - nm, norm@500 to 1, cut digits, bergeron_11000_65.dat_11000
# Wavelength(nm)  Flambda(ergs/cm^s/s/nm)
300.00 1.297
300.10 1.297
300.20 1.296
300.30 1.295
300.40 1.295
300.50 1.294
300.60 1.293
300.70 1.293
300.80 1.292
300.90 1.291
301.00 1.291
301.10 1.29
301.20 1.289
301.30 1.289
301.40 1.288
301.50 1.287
301.60 1.287
301.70 1.286
301.80 1.285
301.90 1.285
302.00 1.284
302.10 1.283
302.20 1.283
302.30 1.282
302.40 1.281
302.50 1.281
302.60 1.28
302.70 1.279
302.80 1.279
302.90 1.278
303.00 1.277
303.10 1.277
303.20 1.276
303.30 1.275
303.40 1.275
303.50 1.274
303.60 1.273
303.70 1.273
303.80 1.272
303.90 1.271
304.00 1.271
304.10 1.27
304.20 1.269
304.30 1.269
304.40 1.268
304.50 1.267
304.60 1.267
304.70 1.266
304.80 1.266
304.90 1.265
305.00 1.264
305.10 1.264
305.20 1.263
305.30 1.262
305.40 1.262
305.50 1.261
305.60 1.26
305.70 1.26
305.80 1.259
305.90 1.258
306.00 1.258
306.10 1.257
306.20 1.256
306.30 1.256
306.40 1.255
306.50 1.254
306.60 1.254
306.70 1.253
306.80 1.253
306.90 1.252
307.00 1.251
307.10 1.251
307.20 1.25
307.30 1.249
307.40 1.249
307.50 1.248
307.60 1.247
307.70 1.247
307.80 1.246
307.90 1.246
308.00 1.245
308.10 1.244
308.20 1.244
308.30 1.243
308.40 1.242
308.50 1.242
308.60 1.241
308.70 1.24
308.80 1.24
308.90 1.239
309.00 1.239
309.10 1.238
309.20 1.237
309.30 1.237
309.40 1.236
309.50 1.235
309.60 1.235
309.70 1.234
309.80 1.233
309.90 1.233
310.00 1.232
310.10 1.232
310.20 1.231
310.30 1.23
310.40 1.23
310.50 1.229
310.60 1.228
310.70 1.228
310.80 1.227
310.90 1.227
311.00 1.226
311.10 1.225
311.20 1.225
311.30 1.224
311.40 1.224
311.50 1.223
311.60 1.222
311.70 1.222
311.80 1.221
311.90 1.22
312.00 1.22
312.10 1.219
312.20 1.219
312.30 1.218
312.40 1.217
312.50 1.217
312.60 1.216
312.70 1.215
312.80 1.215
312.90 1.214
313.00 1.214
313.10 1.213
313.20 1.212
313.30 1.212
313.40 1.211
313.50 1.211
313.60 1.21
313.70 1.209
313.80 1.209
313.90 1.208
314.00 1.208
314.10 1.207
314.20 1.206
314.30 1.206
314.40 1.205
314.50 1.204
314.60 1.204
314.70 1.203
314.80 1.203
314.90 1.202
315.00 1.201
315.10 1.201
315.20 1.2
315.30 1.2
315.40 1.199
315.50 1.198
315.60 1.198
315.70 1.197
315.80 1.197
315.90 1.196
316.00 1.195
316.10 1.195
316.20 1.194
316.30 1.194
316.40 1.193
316.50 1.192
316.60 1.192
316.70 1.191
316.80 1.191
316.90 1.19
317.00 1.189
317.10 1.189
317.20 1.188
317.30 1.188
317.40 1.187
317.50 1.186
317.60 1.186
317.70 1.185
317.80 1.185
317.90 1.184
318.00 1.183
318.10 1.183
318.20 1.182
318.30 1.182
318.40 1.181
318.50 1.18
318.60 1.18
318.70 1.179
318.80 1.179
318.90 1.178
319.00 1.178
319.10 1.177
319.20 1.176
319.30 1.176
319.40 1.175
319.50 1.175
319.60 1.174
319.70 1.173
319.80 1.173
319.90 1.172
320.00 1.172
320.10 1.171
320.20 1.17
320.30 1.17
320.40 1.169
320.50 1.169
320.60 1.168
320.70 1.168
320.80 1.167
320.90 1.166
321.00 1.166
321.10 1.165
321.20 1.165
321.30 1.164
321.40 1.164
321.50 1.163
321.60 1.162
321.70 1.162
321.80 1.161
321.90 1.161
322.00 1.16
322.10 1.159
322.20 1.159
322.30 1.158
322.40 1.158
322.50 1.157
322.60 1.157
322.70 1.156
322.80 1.155
322.90 1.155
323.00 1.154
323.10 1.154
323.20 1.153
323.30 1.153
323.40 1.152
323.50 1.151
323.60 1.151
323.70 1.15
323.80 1.15
323.90 1.149
324.00 1.149
324.10 1.148
324.20 1.147
324.30 1.147
324.40 1.146
324.50 1.146
324.60 1.145
324.70 1.145
324.80 1.144
324.90 1.143
325.00 1.143
325.10 1.142
325.20 1.142
325.30 1.141
325.40 1.141
325.50 1.14
325.60 1.14
325.70 1.139
325.80 1.138
325.90 1.138
326.00 1.137
326.10 1.137
326.20 1.136
326.30 1.136
326.40 1.135
326.50 1.135
326.60 1.134
326.70 1.133
326.80 1.133
326.90 1.132
327.00 1.132
327.10 1.131
327.20 1.131
327.30 1.13
327.40 1.129
327.50 1.129
327.60 1.128
327.70 1.128
327.80 1.127
327.90 1.127
328.00 1.126
328.10 1.126
328.20 1.125
328.30 1.125
328.40 1.124
328.50 1.123
328.60 1.123
328.70 1.122
328.80 1.122
328.90 1.121
329.00 1.121
329.10 1.12
329.20 1.12
329.30 1.119
329.40 1.118
329.50 1.118
329.60 1.117
329.70 1.117
329.80 1.116
329.90 1.116
330.00 1.115
330.10 1.115
330.20 1.114
330.30 1.114
330.40 1.113
330.50 1.112
330.60 1.112
330.70 1.111
330.80 1.111
330.90 1.11
331.00 1.11
331.10 1.109
331.20 1.109
331.30 1.108
331.40 1.108
331.50 1.107
331.60 1.106
331.70 1.106
331.80 1.105
331.90 1.105
332.00 1.104
332.10 1.104
332.20 1.103
332.30 1.103
332.40 1.102
332.50 1.102
332.60 1.101
332.70 1.101
332.80 1.1
332.90 1.099
333.00 1.099
333.10 1.098
333.20 1.098
333.30 1.097
333.40 1.097
333.50 1.096
333.60 1.096
333.70 1.095
333.80 1.095
333.90 1.094
334.00 1.094
334.10 1.093
334.20 1.093
334.30 1.092
334.40 1.091
334.50 1.091
334.60 1.09
334.70 1.09
334.80 1.089
334.90 1.089
335.00 1.088
335.10 1.088
335.20 1.087
335.30 1.087
335.40 1.086
335.50 1.086
335.60 1.085
335.70 1.085
335.80 1.084
335.90 1.084
336.00 1.083
336.10 1.082
336.20 1.082
336.30 1.081
336.40 1.081
336.50 1.08
336.60 1.08
336.70 1.079
336.80 1.079
336.90 1.078
337.00 1.078
337.10 1.077
337.20 1.077
337.30 1.076
337.40 1.076
337.50 1.075
337.60 1.075
337.70 1.074
337.80 1.074
337.90 1.073
338.00 1.073
338.10 1.072
338.20 1.072
338.30 1.071
338.40 1.071
338.50 1.07
338.60 1.07
338.70 1.069
338.80 1.068
338.90 1.068
339.00 1.067
339.10 1.067
339.20 1.066
339.30 1.066
339.40 1.065
339.50 1.065
339.60 1.064
339.70 1.064
339.80 1.063
339.90 1.063
340.00 1.062
340.10 1.062
340.20 1.061
340.30 1.061
340.40 1.06
340.50 1.06
340.60 1.059
340.70 1.059
340.80 1.058
340.90 1.058
341.00 1.057
341.10 1.057
341.20 1.056
341.30 1.056
341.40 1.055
341.50 1.055
341.60 1.054
341.70 1.054
341.80 1.053
341.90 1.053
342.00 1.052
342.10 1.052
342.20 1.051
342.30 1.051
342.40 1.05
342.50 1.05
342.60 1.049
342.70 1.049
342.80 1.048
342.90 1.048
343.00 1.047
343.10 1.047
343.20 1.046
343.30 1.046
343.40 1.045
343.50 1.045
343.60 1.044
343.70 1.044
343.80 1.043
343.90 1.043
344.00 1.042
344.10 1.042
344.20 1.041
344.30 1.041
344.40 1.04
344.50 1.04
344.60 1.039
344.70 1.039
344.80 1.038
344.90 1.038
345.00 1.037
345.10 1.037
345.20 1.036
345.30 1.036
345.40 1.035
345.50 1.035
345.60 1.034
345.70 1.034
345.80 1.033
345.90 1.033
346.00 1.032
346.10 1.032
346.20 1.031
346.30 1.031
346.40 1.03
346.50 1.03
346.60 1.029
346.70 1.029
346.80 1.028
346.90 1.028
347.00 1.027
347.10 1.027
347.20 1.026
347.30 1.026
347.40 1.025
347.50 1.025
347.60 1.024
347.70 1.024
347.80 1.023
347.90 1.023
348.00 1.022
348.10 1.022
348.20 1.021
348.30 1.021
348.40 1.02
348.50 1.02
348.60 1.02
348.70 1.019
348.80 1.019
348.90 1.018
349.00 1.018
349.10 1.017
349.20 1.017
349.30 1.016
349.40 1.016
349.50 1.015
349.60 1.015
349.70 1.014
349.80 1.014
349.90 1.013
350.00 1.013
350.10 1.012
350.20 1.012
350.30 1.011
350.40 1.011
350.50 1.01
350.60 1.01
350.70 1.009
350.80 1.009
350.90 1.008
351.00 1.008
351.10 1.007
351.20 1.007
351.30 1.007
351.40 1.006
351.50 1.006
351.60 1.005
351.70 1.005
351.80 1.004
351.90 1.004
352.00 1.003
352.10 1.003
352.20 1.002
352.30 1.002
352.40 1.001
352.50 1.001
352.60 1
352.70 0.9999
352.80 0.9994
352.90 0.999
353.00 0.9985
353.10 0.998
353.20 0.9975
353.30 0.9971
353.40 0.9966
353.50 0.9961
353.60 0.9957
353.70 0.9952
353.80 0.9947
353.90 0.9943
354.00 0.9938
354.10 0.9933
354.20 0.9929
354.30 0.9924
354.40 0.9919
354.50 0.9914
354.60 0.991
354.70 0.9905
354.80 0.99
354.90 0.9896
355.00 0.9891
355.10 0.9887
355.20 0.9882
355.30 0.9877
355.40 0.9873
355.50 0.9868
355.60 0.9863
355.70 0.9859
355.80 0.9854
355.90 0.9849
356.00 0.9845
356.10 0.984
356.20 0.9836
356.30 0.9831
356.40 0.9826
356.50 0.9822
356.60 0.9817
356.70 0.9812
356.80 0.9808
356.90 0.9803
357.00 0.9799
357.10 0.9794
357.20 0.9789
357.30 0.9785
357.40 0.978
357.50 0.9776
357.60 0.9771
357.70 0.9766
357.80 0.9762
357.90 0.9757
358.00 0.9753
358.10 0.9748
358.20 0.9743
358.30 0.9739
358.40 0.9734
358.50 0.973
358.60 0.9725
358.70 0.9721
358.80 0.9716
358.90 0.9712
359.00 0.9707
359.10 0.9702
359.20 0.9698
359.30 0.9693
359.40 0.9689
359.50 0.9684
359.60 0.968
359.70 0.9675
359.80 0.9671
359.90 0.9666
360.00 0.9662
360.10 0.9657
360.20 0.9653
360.30 0.9648
360.40 0.9644
360.50 0.9639
360.60 0.9635
360.70 0.963
360.80 0.9626
360.90 0.9621
361.00 0.9617
361.10 0.9612
361.20 0.9608
361.30 0.9603
361.40 0.9599
361.50 0.9594
361.60 0.959
361.70 0.9585
361.80 0.9581
361.90 0.9576
362.00 0.9572
362.10 0.9567
362.20 0.9563
362.30 0.9558
362.40 0.9554
362.50 0.955
362.60 0.9545
362.70 0.9541
362.80 0.9536
362.90 0.9532
363.00 0.9527
363.10 0.9523
363.20 0.9518
363.30 0.9514
363.40 0.9509
363.50 0.9504
363.60 0.95
363.70 0.9495
363.80 0.9491
363.90 0.9486
364.00 0.9482
364.10 0.9477
364.20 0.9472
364.30 0.9468
364.40 0.9463
364.50 0.9459
364.60 0.9455
364.70 0.9452
364.80 0.9448
364.90 0.9445
365.00 0.9441
365.10 0.9438
365.20 0.9434
365.30 0.9431
365.40 0.9428
365.50 0.9424
365.60 0.9421
365.70 0.9417
365.80 0.9414
365.90 0.941
366.00 0.9407
366.10 0.9404
366.20 0.9401
366.30 0.9399
366.40 0.9396
366.50 0.9393
366.60 0.9391
366.70 0.9388
366.80 0.9385
366.90 0.9382
367.00 0.938
367.10 0.9377
367.20 0.9374
367.30 0.9371
367.40 0.9369
367.50 0.9366
367.60 0.9363
367.70 0.9361
367.80 0.9358
367.90 0.9355
368.00 0.9353
368.10 0.9367
368.20 0.9381
368.30 0.9395
368.40 0.9409
368.50 0.9423
368.60 0.9437
368.70 0.9451
368.80 0.9465
368.90 0.9479
369.00 0.9493
369.10 0.9507
369.20 0.952
369.30 0.9534
369.40 0.9548
369.50 0.9562
369.60 0.9576
369.70 0.959
369.80 0.9604
369.90 0.9617
370.00 0.9631
370.10 0.9669
370.20 0.9706
370.30 0.9743
370.40 0.9781
370.50 0.9818
370.60 0.9856
370.70 0.9893
370.80 0.993
370.90 0.9967
371.00 1
371.10 1.004
371.20 1.008
371.30 1.012
371.40 1.015
371.50 1.019
371.60 1.023
371.70 1.026
371.80 1.03
371.90 1.034
372.00 1.037
372.10 1.042
372.20 1.048
372.30 1.053
372.40 1.058
372.50 1.063
372.60 1.068
372.70 1.073
372.80 1.078
372.90 1.083
373.00 1.088
373.10 1.093
373.20 1.099
373.30 1.104
373.40 1.109
373.50 1.114
373.60 1.119
373.70 1.124
373.80 1.129
373.90 1.134
374.00 1.139
374.10 1.144
374.20 1.149
374.30 1.153
374.40 1.158
374.50 1.163
374.60 1.168
374.70 1.173
374.80 1.178
374.90 1.182
375.00 1.187
375.10 1.192
375.20 1.197
375.30 1.202
375.40 1.206
375.50 1.211
375.60 1.216
375.70 1.221
375.80 1.225
375.90 1.23
376.00 1.235
376.10 1.237
376.20 1.239
376.30 1.242
376.40 1.244
376.50 1.246
376.60 1.248
376.70 1.25
376.80 1.253
376.90 1.255
377.00 1.257
377.10 1.253
377.20 1.249
377.30 1.244
377.40 1.24
377.50 1.236
377.60 1.231
377.70 1.227
377.80 1.223
377.90 1.218
378.00 1.214
378.10 1.19
378.20 1.167
378.30 1.143
378.40 1.119
378.50 1.096
378.60 1.072
378.70 1.048
378.80 1.025
378.90 1.001
379.00 0.9775
379.10 0.9544
379.20 0.9313
379.30 0.9082
379.40 0.8851
379.50 0.862
379.60 0.839
379.70 0.816
379.80 0.793
379.90 0.7701
380.00 0.7472
380.10 0.7823
380.20 0.8174
380.30 0.8524
380.40 0.8875
380.50 0.9224
380.60 0.9574
380.70 0.9923
380.80 1.027
380.90 1.062
381.00 1.097
381.10 1.11
381.20 1.124
381.30 1.137
381.40 1.15
381.50 1.164
381.60 1.166
381.70 1.165
381.80 1.159
381.90 1.151
382.00 1.138
382.10 1.122
382.20 1.101
382.30 1.064
382.40 1.026
382.50 0.9891
382.60 0.9519
382.70 0.9148
382.80 0.8776
382.90 0.8406
383.00 0.8035
383.10 0.7665
383.20 0.7295
383.30 0.6836
383.40 0.6349
383.50 0.5789
383.60 0.5927
383.70 0.6454
383.80 0.6935
383.90 0.7388
384.00 0.7828
384.10 0.8263
384.20 0.869
384.30 0.9108
384.40 0.9525
384.50 0.9935
384.60 1.033
384.70 1.069
384.80 1.102
384.90 1.133
385.00 1.16
385.10 1.183
385.20 1.205
385.30 1.224
385.40 1.239
385.50 1.253
385.60 1.265
385.70 1.274
385.80 1.281
385.90 1.287
386.00 1.29
386.10 1.291
386.20 1.291
386.30 1.289
386.40 1.285
386.50 1.279
386.60 1.271
386.70 1.261
386.80 1.25
386.90 1.236
387.00 1.221
387.10 1.203
387.20 1.183
387.30 1.161
387.40 1.136
387.50 1.108
387.60 1.078
387.70 1.045
387.80 1.008
387.90 0.9695
388.00 0.9288
388.10 0.886
388.20 0.8431
388.30 0.7998
388.40 0.7562
388.50 0.7122
388.60 0.6676
388.70 0.6196
388.80 0.5626
388.90 0.4967
389.00 0.559
389.10 0.6141
389.20 0.6623
389.30 0.7066
389.40 0.7504
389.50 0.7936
389.60 0.8366
389.70 0.8795
389.80 0.9223
389.90 0.9636
390.00 1.003
390.10 1.041
390.20 1.076
390.30 1.108
390.40 1.139
390.50 1.167
390.60 1.193
390.70 1.217
390.80 1.239
390.90 1.26
391.00 1.28
391.10 1.298
391.20 1.315
391.30 1.331
391.40 1.346
391.50 1.36
391.60 1.373
391.70 1.384
391.80 1.395
391.90 1.404
392.00 1.413
392.10 1.421
392.20 1.428
392.30 1.433
392.40 1.438
392.50 1.442
392.60 1.445
392.70 1.447
392.80 1.448
392.90 1.448
393.00 1.447
393.10 1.445
393.20 1.442
393.30 1.438
393.40 1.433
393.50 1.427
393.60 1.42
393.70 1.412
393.80 1.403
393.90 1.393
394.00 1.383
394.10 1.37
394.20 1.357
394.30 1.344
394.40 1.328
394.50 1.312
394.60 1.295
394.70 1.277
394.80 1.258
394.90 1.238
395.00 1.216
395.10 1.193
395.20 1.17
395.30 1.144
395.40 1.118
395.50 1.09
395.60 1.06
395.70 1.028
395.80 0.9953
395.90 0.9597
396.00 0.9229
396.10 0.8849
396.20 0.845
396.30 0.8045
396.40 0.7634
396.50 0.722
396.60 0.6802
396.70 0.6382
396.80 0.5914
396.90 0.5265
397.00 0.4434
397.10 0.5214
397.20 0.584
397.30 0.6314
397.40 0.6732
397.50 0.7146
397.60 0.7555
397.70 0.796
397.80 0.836
397.90 0.8753
398.00 0.9128
398.10 0.9492
398.20 0.9843
398.30 1.017
398.40 1.048
398.50 1.078
398.60 1.106
398.70 1.132
398.80 1.158
398.90 1.181
399.00 1.204
399.10 1.226
399.20 1.247
399.30 1.267
399.40 1.286
399.50 1.304
399.60 1.322
399.70 1.339
399.80 1.355
399.90 1.371
400.00 1.386
400.10 1.4
400.20 1.413
400.30 1.426
400.40 1.438
400.50 1.45
400.60 1.461
400.70 1.472
400.80 1.482
400.90 1.491
401.00 1.5
401.10 1.509
401.20 1.517
401.30 1.524
401.40 1.531
401.50 1.538
401.60 1.544
401.70 1.55
401.80 1.555
401.90 1.56
402.00 1.565
402.10 1.569
402.20 1.573
402.30 1.576
402.40 1.579
402.50 1.582
402.60 1.584
402.70 1.586
402.80 1.588
402.90 1.589
403.00 1.59
403.10 1.591
403.20 1.591
403.30 1.591
403.40 1.591
403.50 1.59
403.60 1.59
403.70 1.588
403.80 1.587
403.90 1.585
404.00 1.583
404.10 1.58
404.20 1.578
404.30 1.575
404.40 1.571
404.50 1.567
404.60 1.563
404.70 1.559
404.80 1.554
404.90 1.549
405.00 1.544
405.10 1.538
405.20 1.531
405.30 1.525
405.40 1.518
405.50 1.51
405.60 1.503
405.70 1.495
405.80 1.486
405.90 1.477
406.00 1.467
406.10 1.457
406.20 1.447
406.30 1.436
406.40 1.425
406.50 1.413
406.60 1.401
406.70 1.388
406.80 1.374
406.90 1.36
407.00 1.346
407.10 1.33
407.20 1.315
407.30 1.298
407.40 1.281
407.50 1.263
407.60 1.244
407.70 1.225
407.80 1.205
407.90 1.184
408.00 1.163
408.10 1.141
408.20 1.118
408.30 1.095
408.40 1.071
408.50 1.046
408.60 1.021
408.70 0.9944
408.80 0.9669
408.90 0.9385
409.00 0.9093
409.10 0.8783
409.20 0.8464
409.30 0.8136
409.40 0.779
409.50 0.7435
409.60 0.7073
409.70 0.6703
409.80 0.6328
409.90 0.5948
410.00 0.5483
410.10 0.491
410.20 0.4229
410.30 0.5092
410.40 0.5732
410.50 0.615
410.60 0.6519
410.70 0.6885
410.80 0.7247
410.90 0.7597
411.00 0.7939
411.10 0.8271
411.20 0.8584
411.30 0.8887
411.40 0.9181
411.50 0.9456
411.60 0.9724
411.70 0.9983
411.80 1.023
411.90 1.047
412.00 1.07
412.10 1.092
412.20 1.114
412.30 1.135
412.40 1.156
412.50 1.175
412.60 1.194
412.70 1.212
412.80 1.23
412.90 1.247
413.00 1.263
413.10 1.279
413.20 1.294
413.30 1.308
413.40 1.322
413.50 1.335
413.60 1.348
413.70 1.36
413.80 1.371
413.90 1.382
414.00 1.393
414.10 1.403
414.20 1.413
414.30 1.422
414.40 1.431
414.50 1.44
414.60 1.448
414.70 1.456
414.80 1.464
414.90 1.471
415.00 1.478
415.10 1.485
415.20 1.491
415.30 1.497
415.40 1.503
415.50 1.508
415.60 1.514
415.70 1.518
415.80 1.523
415.90 1.528
416.00 1.532
416.10 1.536
416.20 1.54
416.30 1.544
416.40 1.547
416.50 1.551
416.60 1.554
416.70 1.557
416.80 1.56
416.90 1.563
417.00 1.565
417.10 1.568
417.20 1.57
417.30 1.572
417.40 1.574
417.50 1.576
417.60 1.578
417.70 1.58
417.80 1.581
417.90 1.583
418.00 1.584
418.10 1.585
418.20 1.586
418.30 1.588
418.40 1.589
418.50 1.589
418.60 1.59
418.70 1.591
418.80 1.592
418.90 1.592
419.00 1.593
419.10 1.593
419.20 1.594
419.30 1.594
419.40 1.594
419.50 1.595
419.60 1.595
419.70 1.595
419.80 1.595
419.90 1.595
420.00 1.595
420.10 1.595
420.20 1.594
420.30 1.594
420.40 1.594
420.50 1.594
420.60 1.593
420.70 1.593
420.80 1.592
420.90 1.592
421.00 1.591
421.10 1.591
421.20 1.59
421.30 1.589
421.40 1.589
421.50 1.588
421.60 1.587
421.70 1.586
421.80 1.585
421.90 1.584
422.00 1.584
422.10 1.583
422.20 1.581
422.30 1.58
422.40 1.579
422.50 1.578
422.60 1.577
422.70 1.576
422.80 1.574
422.90 1.573
423.00 1.572
423.10 1.57
423.20 1.569
423.30 1.567
423.40 1.566
423.50 1.564
423.60 1.563
423.70 1.561
423.80 1.559
423.90 1.557
424.00 1.556
424.10 1.554
424.20 1.552
424.30 1.55
424.40 1.548
424.50 1.546
424.60 1.544
424.70 1.542
424.80 1.539
424.90 1.537
425.00 1.535
425.10 1.532
425.20 1.53
425.30 1.527
425.40 1.525
425.50 1.522
425.60 1.519
425.70 1.516
425.80 1.513
425.90 1.51
426.00 1.507
426.10 1.504
426.20 1.5
426.30 1.496
426.40 1.493
426.50 1.489
426.60 1.486
426.70 1.482
426.80 1.478
426.90 1.474
427.00 1.47
427.10 1.466
427.20 1.462
427.30 1.457
427.40 1.453
427.50 1.448
427.60 1.443
427.70 1.438
427.80 1.433
427.90 1.428
428.00 1.422
428.10 1.417
428.20 1.411
428.30 1.405
428.40 1.399
428.50 1.393
428.60 1.387
428.70 1.38
428.80 1.373
428.90 1.366
429.00 1.359
429.10 1.351
429.20 1.344
429.30 1.336
429.40 1.328
429.50 1.319
429.60 1.31
429.70 1.302
429.80 1.292
429.90 1.283
430.00 1.273
430.10 1.263
430.20 1.253
430.30 1.242
430.40 1.231
430.50 1.22
430.60 1.209
430.70 1.197
430.80 1.185
430.90 1.172
431.00 1.16
431.10 1.147
431.20 1.134
431.30 1.12
431.40 1.106
431.50 1.092
431.60 1.077
431.70 1.061
431.80 1.045
431.90 1.028
432.00 1.01
432.10 0.9908
432.20 0.9704
432.30 0.9491
432.40 0.9269
432.50 0.9028
432.60 0.8779
432.70 0.8522
432.80 0.8261
432.90 0.8002
433.00 0.7746
433.10 0.7496
433.20 0.7239
433.30 0.6975
433.40 0.6686
433.50 0.6389
433.60 0.6082
433.70 0.5769
433.80 0.542
433.90 0.5037
434.00 0.3984
434.10 0.3995
434.20 0.507
434.30 0.5443
434.40 0.5784
434.50 0.6092
434.60 0.6393
434.70 0.6684
434.80 0.6966
434.90 0.7221
435.00 0.747
435.10 0.7712
435.20 0.796
435.30 0.821
435.40 0.8462
435.50 0.8707
435.60 0.8944
435.70 0.9172
435.80 0.9381
435.90 0.958
436.00 0.977
436.10 0.9943
436.20 1.011
436.30 1.027
436.40 1.042
436.50 1.056
436.60 1.069
436.70 1.082
436.80 1.094
436.90 1.106
437.00 1.118
437.10 1.129
437.20 1.14
437.30 1.151
437.40 1.161
437.50 1.171
437.60 1.181
437.70 1.19
437.80 1.199
437.90 1.208
438.00 1.216
438.10 1.225
438.20 1.232
438.30 1.24
438.40 1.247
438.50 1.254
438.60 1.261
438.70 1.267
438.80 1.274
438.90 1.279
439.00 1.285
439.10 1.291
439.20 1.296
439.30 1.301
439.40 1.306
439.50 1.31
439.60 1.315
439.70 1.319
439.80 1.323
439.90 1.327
440.00 1.331
440.10 1.334
440.20 1.338
440.30 1.341
440.40 1.344
440.50 1.347
440.60 1.35
440.70 1.353
440.80 1.355
440.90 1.358
441.00 1.36
441.10 1.362
441.20 1.364
441.30 1.366
441.40 1.368
441.50 1.37
441.60 1.372
441.70 1.373
441.80 1.375
441.90 1.376
442.00 1.378
442.10 1.379
442.20 1.38
442.30 1.381
442.40 1.382
442.50 1.383
442.60 1.384
442.70 1.385
442.80 1.386
442.90 1.386
443.00 1.387
443.10 1.388
443.20 1.388
443.30 1.389
443.40 1.389
443.50 1.39
443.60 1.39
443.70 1.391
443.80 1.391
443.90 1.391
444.00 1.391
444.10 1.392
444.20 1.392
444.30 1.392
444.40 1.392
444.50 1.392
444.60 1.392
444.70 1.392
444.80 1.392
444.90 1.392
445.00 1.392
445.10 1.392
445.20 1.392
445.30 1.392
445.40 1.391
445.50 1.391
445.60 1.391
445.70 1.391
445.80 1.39
445.90 1.39
446.00 1.39
446.10 1.39
446.20 1.389
446.30 1.389
446.40 1.389
446.50 1.388
446.60 1.388
446.70 1.387
446.80 1.387
446.90 1.387
447.00 1.386
447.10 1.386
447.20 1.385
447.30 1.385
447.40 1.384
447.50 1.384
447.60 1.383
447.70 1.383
447.80 1.382
447.90 1.382
448.00 1.381
448.10 1.38
448.20 1.38
448.30 1.379
448.40 1.379
448.50 1.378
448.60 1.378
448.70 1.377
448.80 1.376
448.90 1.376
449.00 1.375
449.10 1.375
449.20 1.374
449.30 1.373
449.40 1.373
449.50 1.372
449.60 1.371
449.70 1.371
449.80 1.37
449.90 1.37
450.00 1.369
450.10 1.368
450.20 1.367
450.30 1.367
450.40 1.366
450.50 1.365
450.60 1.365
450.70 1.364
450.80 1.363
450.90 1.363
451.00 1.362
451.10 1.361
451.20 1.36
451.30 1.36
451.40 1.359
451.50 1.358
451.60 1.358
