# Version 2.1 - nm, norm@500 to 1, cut digits, bergeron_16500_65.dat_16500
# Wavelength(nm)  Flambda(ergs/cm^s/s/nm)
300.00 2.43
300.10 2.428
300.20 2.426
300.30 2.424
300.40 2.422
300.50 2.42
300.60 2.418
300.70 2.416
300.80 2.414
300.90 2.412
301.00 2.41
301.10 2.408
301.20 2.406
301.30 2.404
301.40 2.402
301.50 2.4
301.60 2.398
301.70 2.396
301.80 2.395
301.90 2.393
302.00 2.391
302.10 2.389
302.20 2.387
302.30 2.385
302.40 2.383
302.50 2.381
302.60 2.379
302.70 2.377
302.80 2.375
302.90 2.373
303.00 2.371
303.10 2.369
303.20 2.367
303.30 2.365
303.40 2.363
303.50 2.362
303.60 2.36
303.70 2.358
303.80 2.356
303.90 2.354
304.00 2.352
304.10 2.35
304.20 2.348
304.30 2.346
304.40 2.344
304.50 2.342
304.60 2.341
304.70 2.339
304.80 2.337
304.90 2.335
305.00 2.333
305.10 2.331
305.20 2.329
305.30 2.327
305.40 2.326
305.50 2.324
305.60 2.322
305.70 2.32
305.80 2.318
305.90 2.316
306.00 2.314
306.10 2.312
306.20 2.311
306.30 2.309
306.40 2.307
306.50 2.305
306.60 2.303
306.70 2.301
306.80 2.3
306.90 2.298
307.00 2.296
307.10 2.294
307.20 2.292
307.30 2.29
307.40 2.289
307.50 2.287
307.60 2.285
307.70 2.283
307.80 2.281
307.90 2.279
308.00 2.278
308.10 2.276
308.20 2.274
308.30 2.272
308.40 2.27
308.50 2.269
308.60 2.267
308.70 2.265
308.80 2.263
308.90 2.261
309.00 2.26
309.10 2.258
309.20 2.256
309.30 2.254
309.40 2.252
309.50 2.251
309.60 2.249
309.70 2.247
309.80 2.245
309.90 2.243
310.00 2.242
310.10 2.24
310.20 2.238
310.30 2.236
310.40 2.234
310.50 2.233
310.60 2.231
310.70 2.229
310.80 2.227
310.90 2.226
311.00 2.224
311.10 2.222
311.20 2.22
311.30 2.219
311.40 2.217
311.50 2.215
311.60 2.213
311.70 2.211
311.80 2.21
311.90 2.208
312.00 2.206
312.10 2.204
312.20 2.203
312.30 2.201
312.40 2.199
312.50 2.197
312.60 2.196
312.70 2.194
312.80 2.192
312.90 2.191
313.00 2.189
313.10 2.187
313.20 2.185
313.30 2.184
313.40 2.182
313.50 2.18
313.60 2.179
313.70 2.177
313.80 2.175
313.90 2.173
314.00 2.172
314.10 2.17
314.20 2.168
314.30 2.167
314.40 2.165
314.50 2.163
314.60 2.161
314.70 2.16
314.80 2.158
314.90 2.156
315.00 2.155
315.10 2.153
315.20 2.151
315.30 2.15
315.40 2.148
315.50 2.146
315.60 2.144
315.70 2.143
315.80 2.141
315.90 2.139
316.00 2.138
316.10 2.136
316.20 2.134
316.30 2.133
316.40 2.131
316.50 2.129
316.60 2.128
316.70 2.126
316.80 2.124
316.90 2.123
317.00 2.121
317.10 2.119
317.20 2.118
317.30 2.116
317.40 2.115
317.50 2.113
317.60 2.111
317.70 2.11
317.80 2.108
317.90 2.106
318.00 2.105
318.10 2.103
318.20 2.101
318.30 2.1
318.40 2.098
318.50 2.096
318.60 2.095
318.70 2.093
318.80 2.092
318.90 2.09
319.00 2.088
319.10 2.087
319.20 2.085
319.30 2.083
319.40 2.082
319.50 2.08
319.60 2.079
319.70 2.077
319.80 2.075
319.90 2.074
320.00 2.072
320.10 2.071
320.20 2.069
320.30 2.067
320.40 2.066
320.50 2.064
320.60 2.063
320.70 2.061
320.80 2.059
320.90 2.058
321.00 2.056
321.10 2.055
321.20 2.053
321.30 2.051
321.40 2.05
321.50 2.048
321.60 2.047
321.70 2.045
321.80 2.044
321.90 2.042
322.00 2.04
322.10 2.039
322.20 2.037
322.30 2.036
322.40 2.034
322.50 2.033
322.60 2.031
322.70 2.029
322.80 2.028
322.90 2.026
323.00 2.025
323.10 2.023
323.20 2.022
323.30 2.02
323.40 2.019
323.50 2.017
323.60 2.015
323.70 2.014
323.80 2.012
323.90 2.011
324.00 2.009
324.10 2.008
324.20 2.006
324.30 2.005
324.40 2.003
324.50 2.002
324.60 2
324.70 1.998
324.80 1.997
324.90 1.995
325.00 1.994
325.10 1.992
325.20 1.991
325.30 1.989
325.40 1.988
325.50 1.986
325.60 1.985
325.70 1.983
325.80 1.982
325.90 1.98
326.00 1.979
326.10 1.977
326.20 1.976
326.30 1.974
326.40 1.973
326.50 1.971
326.60 1.97
326.70 1.968
326.80 1.967
326.90 1.965
327.00 1.964
327.10 1.962
327.20 1.961
327.30 1.959
327.40 1.958
327.50 1.956
327.60 1.955
327.70 1.953
327.80 1.952
327.90 1.95
328.00 1.949
328.10 1.947
328.20 1.946
328.30 1.944
328.40 1.943
328.50 1.941
328.60 1.94
328.70 1.938
328.80 1.937
328.90 1.936
329.00 1.934
329.10 1.933
329.20 1.931
329.30 1.93
329.40 1.928
329.50 1.927
329.60 1.925
329.70 1.924
329.80 1.922
329.90 1.921
330.00 1.919
330.10 1.918
330.20 1.917
330.30 1.915
330.40 1.914
330.50 1.912
330.60 1.911
330.70 1.909
330.80 1.908
330.90 1.906
331.00 1.905
331.10 1.904
331.20 1.902
331.30 1.901
331.40 1.899
331.50 1.898
331.60 1.896
331.70 1.895
331.80 1.894
331.90 1.892
332.00 1.891
332.10 1.889
332.20 1.888
332.30 1.887
332.40 1.885
332.50 1.884
332.60 1.882
332.70 1.881
332.80 1.879
332.90 1.878
333.00 1.877
333.10 1.875
333.20 1.874
333.30 1.872
333.40 1.871
333.50 1.87
333.60 1.868
333.70 1.867
333.80 1.865
333.90 1.864
334.00 1.863
334.10 1.861
334.20 1.86
334.30 1.858
334.40 1.857
334.50 1.856
334.60 1.854
334.70 1.853
334.80 1.852
334.90 1.85
335.00 1.849
335.10 1.847
335.20 1.846
335.30 1.845
335.40 1.843
335.50 1.842
335.60 1.84
335.70 1.839
335.80 1.838
335.90 1.836
336.00 1.835
336.10 1.834
336.20 1.832
336.30 1.831
336.40 1.829
336.50 1.828
336.60 1.827
336.70 1.825
336.80 1.824
336.90 1.823
337.00 1.821
337.10 1.82
337.20 1.819
337.30 1.817
337.40 1.816
337.50 1.815
337.60 1.813
337.70 1.812
337.80 1.811
337.90 1.809
338.00 1.808
338.10 1.807
338.20 1.805
338.30 1.804
338.40 1.803
338.50 1.801
338.60 1.8
338.70 1.799
338.80 1.797
338.90 1.796
339.00 1.795
339.10 1.793
339.20 1.792
339.30 1.791
339.40 1.789
339.50 1.788
339.60 1.787
339.70 1.785
339.80 1.784
339.90 1.783
340.00 1.781
340.10 1.78
340.20 1.779
340.30 1.777
340.40 1.776
340.50 1.775
340.60 1.773
340.70 1.772
340.80 1.771
340.90 1.77
341.00 1.768
341.10 1.767
341.20 1.766
341.30 1.764
341.40 1.763
341.50 1.762
341.60 1.76
341.70 1.759
341.80 1.758
341.90 1.757
342.00 1.755
342.10 1.754
342.20 1.753
342.30 1.751
342.40 1.75
342.50 1.749
342.60 1.748
342.70 1.746
342.80 1.745
342.90 1.744
343.00 1.742
343.10 1.741
343.20 1.74
343.30 1.739
343.40 1.737
343.50 1.736
343.60 1.735
343.70 1.734
343.80 1.732
343.90 1.731
344.00 1.73
344.10 1.729
344.20 1.727
344.30 1.726
344.40 1.725
344.50 1.724
344.60 1.722
344.70 1.721
344.80 1.72
344.90 1.718
345.00 1.717
345.10 1.716
345.20 1.715
345.30 1.713
345.40 1.712
345.50 1.711
345.60 1.71
345.70 1.708
345.80 1.707
345.90 1.706
346.00 1.705
346.10 1.703
346.20 1.702
346.30 1.701
346.40 1.7
346.50 1.699
346.60 1.697
346.70 1.696
346.80 1.695
346.90 1.694
347.00 1.692
347.10 1.691
347.20 1.69
347.30 1.689
347.40 1.687
347.50 1.686
347.60 1.685
347.70 1.684
347.80 1.683
347.90 1.681
348.00 1.68
348.10 1.679
348.20 1.678
348.30 1.676
348.40 1.675
348.50 1.674
348.60 1.673
348.70 1.672
348.80 1.67
348.90 1.669
349.00 1.668
349.10 1.667
349.20 1.666
349.30 1.664
349.40 1.663
349.50 1.662
349.60 1.661
349.70 1.66
349.80 1.658
349.90 1.657
350.00 1.656
350.10 1.655
350.20 1.654
350.30 1.652
350.40 1.651
350.50 1.65
350.60 1.649
350.70 1.648
350.80 1.647
350.90 1.645
351.00 1.644
351.10 1.643
351.20 1.642
351.30 1.641
351.40 1.639
351.50 1.638
351.60 1.637
351.70 1.636
351.80 1.635
351.90 1.633
352.00 1.632
352.10 1.631
352.20 1.63
352.30 1.629
352.40 1.628
352.50 1.626
352.60 1.625
352.70 1.624
352.80 1.623
352.90 1.622
353.00 1.621
353.10 1.62
353.20 1.618
353.30 1.617
353.40 1.616
353.50 1.615
353.60 1.614
353.70 1.613
353.80 1.611
353.90 1.61
354.00 1.609
354.10 1.608
354.20 1.607
354.30 1.606
354.40 1.605
354.50 1.603
354.60 1.602
354.70 1.601
354.80 1.6
354.90 1.599
355.00 1.598
355.10 1.597
355.20 1.595
355.30 1.594
355.40 1.593
355.50 1.592
355.60 1.591
355.70 1.59
355.80 1.589
355.90 1.587
356.00 1.586
356.10 1.585
356.20 1.584
356.30 1.583
356.40 1.582
356.50 1.581
356.60 1.58
356.70 1.578
356.80 1.577
356.90 1.576
357.00 1.575
357.10 1.574
357.20 1.573
357.30 1.572
357.40 1.571
357.50 1.569
357.60 1.568
357.70 1.567
357.80 1.566
357.90 1.565
358.00 1.564
358.10 1.563
358.20 1.562
358.30 1.561
358.40 1.559
358.50 1.558
358.60 1.557
358.70 1.556
358.80 1.555
358.90 1.554
359.00 1.553
359.10 1.552
359.20 1.551
359.30 1.55
359.40 1.548
359.50 1.547
359.60 1.546
359.70 1.545
359.80 1.544
359.90 1.543
360.00 1.542
360.10 1.541
360.20 1.54
360.30 1.539
360.40 1.538
360.50 1.536
360.60 1.535
360.70 1.534
360.80 1.533
360.90 1.532
361.00 1.531
361.10 1.53
361.20 1.529
361.30 1.528
361.40 1.527
361.50 1.526
361.60 1.525
361.70 1.524
361.80 1.522
361.90 1.521
362.00 1.52
362.10 1.519
362.20 1.518
362.30 1.517
362.40 1.516
362.50 1.515
362.60 1.514
362.70 1.513
362.80 1.512
362.90 1.511
363.00 1.51
363.10 1.509
363.20 1.508
363.30 1.506
363.40 1.505
363.50 1.504
363.60 1.503
363.70 1.502
363.80 1.501
363.90 1.5
364.00 1.499
364.10 1.498
364.20 1.497
364.30 1.496
364.40 1.495
364.50 1.494
364.60 1.493
364.70 1.492
364.80 1.491
364.90 1.49
365.00 1.489
365.10 1.488
365.20 1.487
365.30 1.486
365.40 1.485
365.50 1.484
365.60 1.483
365.70 1.482
365.80 1.481
365.90 1.48
366.00 1.479
366.10 1.478
366.20 1.477
366.30 1.476
366.40 1.475
366.50 1.474
366.60 1.473
366.70 1.472
366.80 1.472
366.90 1.471
367.00 1.47
367.10 1.469
367.20 1.468
367.30 1.467
367.40 1.466
367.50 1.465
367.60 1.464
367.70 1.463
367.80 1.462
367.90 1.461
368.00 1.461
368.10 1.461
368.20 1.461
368.30 1.462
368.40 1.462
368.50 1.463
368.60 1.463
368.70 1.464
368.80 1.464
368.90 1.465
369.00 1.465
369.10 1.466
369.20 1.466
369.30 1.467
369.40 1.467
369.50 1.467
369.60 1.468
369.70 1.468
369.80 1.469
369.90 1.469
370.00 1.47
370.10 1.473
370.20 1.476
370.30 1.479
370.40 1.482
370.50 1.486
370.60 1.489
370.70 1.492
370.80 1.495
370.90 1.498
371.00 1.502
371.10 1.505
371.20 1.508
371.30 1.511
371.40 1.514
371.50 1.517
371.60 1.52
371.70 1.524
371.80 1.527
371.90 1.53
372.00 1.533
372.10 1.538
372.20 1.544
372.30 1.549
372.40 1.555
372.50 1.56
372.60 1.566
372.70 1.571
372.80 1.577
372.90 1.582
373.00 1.587
373.10 1.593
373.20 1.598
373.30 1.604
373.40 1.609
373.50 1.614
373.60 1.62
373.70 1.625
373.80 1.631
373.90 1.636
374.00 1.641
374.10 1.647
374.20 1.652
374.30 1.658
374.40 1.663
374.50 1.669
374.60 1.674
374.70 1.679
374.80 1.685
374.90 1.69
375.00 1.696
375.10 1.701
375.20 1.707
375.30 1.712
375.40 1.717
375.50 1.723
375.60 1.728
375.70 1.733
375.80 1.739
375.90 1.744
376.00 1.75
376.10 1.752
376.20 1.754
376.30 1.757
376.40 1.759
376.50 1.761
376.60 1.764
376.70 1.766
376.80 1.768
376.90 1.771
377.00 1.773
377.10 1.767
377.20 1.762
377.30 1.756
377.40 1.75
377.50 1.745
377.60 1.739
377.70 1.734
377.80 1.728
377.90 1.722
378.00 1.717
378.10 1.688
378.20 1.66
378.30 1.632
378.40 1.604
378.50 1.575
378.60 1.547
378.70 1.519
378.80 1.491
378.90 1.463
379.00 1.435
379.10 1.411
379.20 1.388
379.30 1.365
379.40 1.341
379.50 1.318
379.60 1.295
379.70 1.271
379.80 1.248
379.90 1.225
380.00 1.202
380.10 1.238
380.20 1.274
380.30 1.31
380.40 1.346
380.50 1.382
380.60 1.418
380.70 1.454
380.80 1.49
380.90 1.526
381.00 1.561
381.10 1.577
381.20 1.593
381.30 1.609
381.40 1.625
381.50 1.64
381.60 1.643
381.70 1.641
381.80 1.634
381.90 1.623
382.00 1.607
382.10 1.587
382.20 1.562
382.30 1.518
382.40 1.475
382.50 1.432
382.60 1.388
382.70 1.345
382.80 1.302
382.90 1.259
383.00 1.216
383.10 1.173
383.20 1.13
383.30 1.082
383.40 1.032
383.50 0.9781
383.60 0.9901
383.70 1.042
383.80 1.09
383.90 1.137
384.00 1.184
384.10 1.231
384.20 1.278
384.30 1.327
384.40 1.376
384.50 1.423
384.60 1.469
384.70 1.511
384.80 1.55
384.90 1.586
385.00 1.618
385.10 1.645
385.20 1.67
385.30 1.692
385.40 1.709
385.50 1.725
385.60 1.738
385.70 1.748
385.80 1.756
385.90 1.763
386.00 1.766
386.10 1.768
386.20 1.767
386.30 1.764
386.40 1.759
386.50 1.753
386.60 1.743
386.70 1.732
386.80 1.719
386.90 1.702
387.00 1.684
387.10 1.664
387.20 1.639
387.30 1.612
387.40 1.583
387.50 1.549
387.60 1.513
387.70 1.473
387.80 1.428
387.90 1.381
388.00 1.332
388.10 1.279
388.20 1.227
388.30 1.174
388.40 1.122
388.50 1.071
388.60 1.019
388.70 0.9659
388.80 0.908
388.90 0.8456
389.00 0.9034
389.10 0.9587
389.20 1.012
389.30 1.062
389.40 1.112
389.50 1.162
389.60 1.214
389.70 1.266
389.80 1.317
389.90 1.366
390.00 1.413
390.10 1.458
390.20 1.498
390.30 1.536
390.40 1.572
390.50 1.603
390.60 1.632
390.70 1.66
390.80 1.684
390.90 1.707
391.00 1.728
391.10 1.747
391.20 1.764
391.30 1.781
391.40 1.796
391.50 1.809
391.60 1.822
391.70 1.833
391.80 1.843
391.90 1.852
392.00 1.86
392.10 1.866
392.20 1.873
392.30 1.877
392.40 1.881
392.50 1.885
392.60 1.887
392.70 1.888
392.80 1.888
392.90 1.888
393.00 1.886
393.10 1.884
393.20 1.881
393.30 1.877
393.40 1.872
393.50 1.866
393.60 1.859
393.70 1.851
393.80 1.842
393.90 1.832
394.00 1.821
394.10 1.808
394.20 1.795
394.30 1.781
394.40 1.765
394.50 1.748
394.60 1.73
394.70 1.71
394.80 1.689
394.90 1.667
395.00 1.642
395.10 1.617
395.20 1.59
395.30 1.561
395.40 1.53
395.50 1.497
395.60 1.461
395.70 1.424
395.80 1.384
395.90 1.341
396.00 1.296
396.10 1.25
396.20 1.201
396.30 1.15
396.40 1.099
396.50 1.048
396.60 0.998
396.70 0.948
396.80 0.8942
396.90 0.8259
397.00 0.743
397.10 0.8196
397.20 0.8847
397.30 0.9385
397.40 0.9874
397.50 1.036
397.60 1.086
397.70 1.135
397.80 1.184
397.90 1.232
398.00 1.277
398.10 1.32
398.20 1.362
398.30 1.4
398.40 1.436
398.50 1.471
398.60 1.502
398.70 1.532
398.80 1.56
398.90 1.585
399.00 1.61
399.10 1.633
399.20 1.654
399.30 1.674
399.40 1.694
399.50 1.711
399.60 1.728
399.70 1.744
399.80 1.758
399.90 1.772
400.00 1.785
400.10 1.797
400.20 1.808
400.30 1.818
400.40 1.828
400.50 1.837
400.60 1.845
400.70 1.852
400.80 1.86
400.90 1.866
401.00 1.872
401.10 1.877
401.20 1.883
401.30 1.887
401.40 1.891
401.50 1.895
401.60 1.899
401.70 1.902
401.80 1.904
401.90 1.907
402.00 1.909
402.10 1.911
402.20 1.912
402.30 1.914
402.40 1.915
402.50 1.915
402.60 1.916
402.70 1.916
402.80 1.916
402.90 1.916
403.00 1.916
403.10 1.916
403.20 1.915
403.30 1.914
403.40 1.913
403.50 1.912
403.60 1.91
403.70 1.909
403.80 1.907
403.90 1.905
404.00 1.903
404.10 1.9
404.20 1.898
404.30 1.895
404.40 1.892
404.50 1.889
404.60 1.886
404.70 1.882
404.80 1.879
404.90 1.874
405.00 1.87
405.10 1.866
405.20 1.861
405.30 1.856
405.40 1.85
405.50 1.845
405.60 1.839
405.70 1.832
405.80 1.826
405.90 1.818
406.00 1.811
406.10 1.803
406.20 1.795
406.30 1.786
406.40 1.777
406.50 1.767
406.60 1.757
406.70 1.746
406.80 1.734
406.90 1.722
407.00 1.709
407.10 1.695
407.20 1.68
407.30 1.664
407.40 1.648
407.50 1.631
407.60 1.612
407.70 1.592
407.80 1.572
407.90 1.55
408.00 1.527
408.10 1.504
408.20 1.479
408.30 1.453
408.40 1.426
408.50 1.398
408.60 1.368
408.70 1.338
408.80 1.306
408.90 1.272
409.00 1.237
409.10 1.2
409.20 1.162
409.30 1.123
409.40 1.08
409.50 1.037
409.60 0.9921
409.70 0.9474
409.80 0.9026
409.90 0.8578
410.00 0.804
410.10 0.7419
410.20 0.6716
410.30 0.7626
410.40 0.832
410.50 0.8797
410.60 0.9231
410.70 0.9666
410.80 1.01
410.90 1.053
411.00 1.094
411.10 1.133
411.20 1.17
411.30 1.206
411.40 1.24
411.50 1.272
411.60 1.302
411.70 1.332
411.80 1.359
411.90 1.386
412.00 1.411
412.10 1.435
412.20 1.458
412.30 1.48
412.40 1.5
412.50 1.52
412.60 1.538
412.70 1.555
412.80 1.572
412.90 1.587
413.00 1.601
413.10 1.615
413.20 1.627
413.30 1.639
413.40 1.649
413.50 1.66
413.60 1.669
413.70 1.678
413.80 1.686
413.90 1.693
414.00 1.7
414.10 1.707
414.20 1.713
414.30 1.718
414.40 1.724
414.50 1.728
414.60 1.733
414.70 1.737
414.80 1.741
414.90 1.745
415.00 1.748
415.10 1.751
415.20 1.754
415.30 1.757
415.40 1.759
415.50 1.761
415.60 1.763
415.70 1.765
415.80 1.767
415.90 1.768
416.00 1.769
416.10 1.771
416.20 1.772
416.30 1.773
416.40 1.773
416.50 1.774
416.60 1.775
416.70 1.775
416.80 1.776
416.90 1.776
417.00 1.776
417.10 1.777
417.20 1.777
417.30 1.777
417.40 1.777
417.50 1.777
417.60 1.777
417.70 1.776
417.80 1.776
417.90 1.776
418.00 1.776
418.10 1.775
418.20 1.775
418.30 1.774
418.40 1.774
418.50 1.773
418.60 1.773
418.70 1.772
418.80 1.771
418.90 1.771
419.00 1.77
419.10 1.769
419.20 1.768
419.30 1.768
419.40 1.767
419.50 1.766
419.60 1.765
419.70 1.764
419.80 1.763
419.90 1.762
420.00 1.761
420.10 1.76
420.20 1.759
420.30 1.758
420.40 1.757
420.50 1.756
420.60 1.755
420.70 1.754
420.80 1.753
420.90 1.752
421.00 1.751
421.10 1.75
421.20 1.748
421.30 1.747
421.40 1.746
421.50 1.745
421.60 1.743
421.70 1.742
421.80 1.741
421.90 1.74
422.00 1.738
422.10 1.737
422.20 1.736
422.30 1.734
422.40 1.733
422.50 1.732
422.60 1.73
422.70 1.729
422.80 1.727
422.90 1.726
423.00 1.725
423.10 1.723
423.20 1.722
423.30 1.72
423.40 1.719
423.50 1.717
423.60 1.716
423.70 1.714
423.80 1.713
423.90 1.711
424.00 1.709
424.10 1.708
424.20 1.706
424.30 1.704
424.40 1.703
424.50 1.701
424.60 1.699
424.70 1.697
424.80 1.696
424.90 1.694
425.00 1.692
425.10 1.69
425.20 1.688
425.30 1.686
425.40 1.684
425.50 1.682
425.60 1.68
425.70 1.678
425.80 1.676
425.90 1.674
426.00 1.672
426.10 1.67
426.20 1.667
426.30 1.665
426.40 1.662
426.50 1.66
426.60 1.657
426.70 1.655
426.80 1.652
426.90 1.65
427.00 1.647
427.10 1.644
427.20 1.641
427.30 1.639
427.40 1.636
427.50 1.632
427.60 1.629
427.70 1.626
427.80 1.623
427.90 1.619
428.00 1.616
428.10 1.612
428.20 1.609
428.30 1.605
428.40 1.601
428.50 1.596
428.60 1.592
428.70 1.588
428.80 1.583
428.90 1.578
429.00 1.574
429.10 1.569
429.20 1.563
429.30 1.558
429.40 1.552
429.50 1.546
429.60 1.54
429.70 1.533
429.80 1.527
429.90 1.52
430.00 1.513
430.10 1.505
430.20 1.497
430.30 1.489
430.40 1.48
430.50 1.471
430.60 1.462
430.70 1.452
430.80 1.442
430.90 1.431
431.00 1.42
431.10 1.408
431.20 1.396
431.30 1.383
431.40 1.37
431.50 1.356
431.60 1.341
431.70 1.325
431.80 1.308
431.90 1.29
432.00 1.271
432.10 1.252
432.20 1.231
432.30 1.208
432.40 1.185
432.50 1.159
432.60 1.132
432.70 1.104
432.80 1.074
432.90 1.044
433.00 1.014
433.10 0.9851
433.20 0.9549
433.30 0.9239
433.40 0.8903
433.50 0.8559
433.60 0.8205
433.70 0.7842
433.80 0.7445
433.90 0.7016
434.00 0.5925
434.10 0.5936
434.20 0.7048
434.30 0.7462
434.40 0.7845
434.50 0.8199
434.60 0.8541
434.70 0.8873
434.80 0.9196
434.90 0.9491
435.00 0.9778
435.10 1.006
435.20 1.034
435.30 1.062
435.40 1.09
435.50 1.116
435.60 1.141
435.70 1.165
435.80 1.186
435.90 1.206
436.00 1.225
436.10 1.242
436.20 1.259
436.30 1.274
436.40 1.289
436.50 1.302
436.60 1.315
436.70 1.326
436.80 1.337
436.90 1.348
437.00 1.357
437.10 1.366
437.20 1.375
437.30 1.383
437.40 1.391
437.50 1.398
437.60 1.405
437.70 1.411
437.80 1.417
437.90 1.423
438.00 1.428
438.10 1.433
438.20 1.437
438.30 1.442
438.40 1.446
438.50 1.45
438.60 1.453
438.70 1.456
438.80 1.459
438.90 1.462
439.00 1.465
439.10 1.467
439.20 1.47
439.30 1.472
439.40 1.474
439.50 1.475
439.60 1.477
439.70 1.479
439.80 1.48
439.90 1.481
440.00 1.482
440.10 1.484
440.20 1.485
440.30 1.485
440.40 1.486
440.50 1.487
440.60 1.487
440.70 1.488
440.80 1.488
440.90 1.489
441.00 1.489
441.10 1.489
441.20 1.489
441.30 1.489
441.40 1.49
441.50 1.489
441.60 1.489
441.70 1.489
441.80 1.489
441.90 1.489
442.00 1.489
442.10 1.489
442.20 1.488
442.30 1.488
442.40 1.488
442.50 1.487
442.60 1.487
442.70 1.486
442.80 1.486
442.90 1.485
443.00 1.485
443.10 1.484
443.20 1.484
443.30 1.483
443.40 1.483
443.50 1.482
443.60 1.481
443.70 1.481
443.80 1.48
443.90 1.479
444.00 1.479
444.10 1.478
444.20 1.477
444.30 1.476
444.40 1.476
444.50 1.475
444.60 1.474
444.70 1.473
444.80 1.473
444.90 1.472
445.00 1.471
445.10 1.47
445.20 1.469
445.30 1.468
445.40 1.468
445.50 1.467
445.60 1.466
445.70 1.465
445.80 1.464
445.90 1.463
446.00 1.462
446.10 1.461
446.20 1.46
446.30 1.46
446.40 1.459
446.50 1.458
446.60 1.457
446.70 1.456
446.80 1.455
446.90 1.454
447.00 1.453
447.10 1.452
447.20 1.451
447.30 1.45
447.40 1.449
447.50 1.448
447.60 1.447
447.70 1.446
447.80 1.446
447.90 1.445
448.00 1.444
448.10 1.443
448.20 1.442
448.30 1.441
448.40 1.44
448.50 1.439
448.60 1.438
448.70 1.437
448.80 1.436
448.90 1.435
449.00 1.434
449.10 1.433
449.20 1.432
449.30 1.431
449.40 1.43
449.50 1.429
449.60 1.428
449.70 1.427
449.80 1.426
449.90 1.425
450.00 1.424
450.10 1.423
450.20 1.422
450.30 1.421
450.40 1.42
450.50 1.419
450.60 1.418
450.70 1.417
450.80 1.416
450.90 1.415
451.00 1.414
451.10 1.413
451.20 1.412
451.30 1.411
451.40 1.41
451.50 1.409
451.60 1.408
451.70 1.407
451.80 1.406
451.90 1.405
452.00 1.404
452.10 1.403
452.20 1.402
452.30 1.401
452.40 1.4
452.50 1.399
452.60 1.398
452.70 1.398
452.80 1.397
452.90 1.396
453.00 1.395
453.10 1.394
453.20 1.393
453.30 1.392
453.40 1.391
453.50 1.39
453.60 1.389
453.70 1.388
