# Version 2.1 - nm, norm@500 to 1, cut digits, bergeron_45000_65.dat_45000
# Wavelength(nm)  Flambda(ergs/cm^s/s/nm)
300.00 6.018
300.10 6.011
300.20 6.004
300.30 5.996
300.40 5.989
300.50 5.982
300.60 5.975
300.70 5.968
300.80 5.961
300.90 5.954
301.00 5.947
301.10 5.939
301.20 5.932
301.30 5.925
301.40 5.918
301.50 5.911
301.60 5.904
301.70 5.897
301.80 5.89
301.90 5.883
302.00 5.876
302.10 5.869
302.20 5.862
302.30 5.855
302.40 5.848
302.50 5.842
302.60 5.835
302.70 5.828
302.80 5.821
302.90 5.814
303.00 5.807
303.10 5.8
303.20 5.793
303.30 5.786
303.40 5.78
303.50 5.773
303.60 5.766
303.70 5.759
303.80 5.752
303.90 5.746
304.00 5.739
304.10 5.732
304.20 5.725
304.30 5.719
304.40 5.712
304.50 5.705
304.60 5.698
304.70 5.692
304.80 5.685
304.90 5.678
305.00 5.672
305.10 5.665
305.20 5.658
305.30 5.652
305.40 5.645
305.50 5.638
305.60 5.632
305.70 5.625
305.80 5.619
305.90 5.612
306.00 5.605
306.10 5.599
306.20 5.592
306.30 5.586
306.40 5.579
306.50 5.573
306.60 5.566
306.70 5.56
306.80 5.553
306.90 5.547
307.00 5.54
307.10 5.534
307.20 5.527
307.30 5.521
307.40 5.514
307.50 5.508
307.60 5.501
307.70 5.495
307.80 5.489
307.90 5.482
308.00 5.476
308.10 5.469
308.20 5.463
308.30 5.457
308.40 5.45
308.50 5.444
308.60 5.438
308.70 5.431
308.80 5.425
308.90 5.419
309.00 5.412
309.10 5.406
309.20 5.4
309.30 5.394
309.40 5.387
309.50 5.381
309.60 5.375
309.70 5.369
309.80 5.362
309.90 5.356
310.00 5.35
310.10 5.344
310.20 5.338
310.30 5.331
310.40 5.325
310.50 5.319
310.60 5.313
310.70 5.307
310.80 5.301
310.90 5.295
311.00 5.288
311.10 5.282
311.20 5.276
311.30 5.27
311.40 5.264
311.50 5.258
311.60 5.252
311.70 5.246
311.80 5.24
311.90 5.234
312.00 5.228
312.10 5.222
312.20 5.216
312.30 5.21
312.40 5.204
312.50 5.198
312.60 5.192
312.70 5.186
312.80 5.18
312.90 5.174
313.00 5.168
313.10 5.162
313.20 5.156
313.30 5.15
313.40 5.144
313.50 5.138
313.60 5.132
313.70 5.127
313.80 5.121
313.90 5.115
314.00 5.109
314.10 5.103
314.20 5.097
314.30 5.091
314.40 5.086
314.50 5.08
314.60 5.074
314.70 5.068
314.80 5.062
314.90 5.057
315.00 5.051
315.10 5.045
315.20 5.039
315.30 5.034
315.40 5.028
315.50 5.022
315.60 5.016
315.70 5.011
315.80 5.005
315.90 4.999
316.00 4.994
316.10 4.988
316.20 4.982
316.30 4.977
316.40 4.971
316.50 4.965
316.60 4.96
316.70 4.954
316.80 4.948
316.90 4.943
317.00 4.937
317.10 4.932
317.20 4.926
317.30 4.92
317.40 4.915
317.50 4.909
317.60 4.904
317.70 4.898
317.80 4.893
317.90 4.887
318.00 4.881
318.10 4.876
318.20 4.87
318.30 4.865
318.40 4.859
318.50 4.854
318.60 4.848
318.70 4.843
318.80 4.837
318.90 4.832
319.00 4.827
319.10 4.821
319.20 4.816
319.30 4.81
319.40 4.805
319.50 4.799
319.60 4.794
319.70 4.789
319.80 4.783
319.90 4.778
320.00 4.772
320.10 4.767
320.20 4.762
320.30 4.756
320.40 4.751
320.50 4.746
320.60 4.74
320.70 4.735
320.80 4.73
320.90 4.724
321.00 4.719
321.10 4.714
321.20 4.708
321.30 4.703
321.40 4.698
321.50 4.693
321.60 4.687
321.70 4.682
321.80 4.677
321.90 4.672
322.00 4.666
322.10 4.661
322.20 4.656
322.30 4.651
322.40 4.646
322.50 4.64
322.60 4.635
322.70 4.63
322.80 4.625
322.90 4.62
323.00 4.615
323.10 4.609
323.20 4.604
323.30 4.599
323.40 4.594
323.50 4.589
323.60 4.584
323.70 4.579
323.80 4.574
323.90 4.569
324.00 4.563
324.10 4.558
324.20 4.553
324.30 4.548
324.40 4.543
324.50 4.538
324.60 4.533
324.70 4.528
324.80 4.523
324.90 4.518
325.00 4.513
325.10 4.508
325.20 4.503
325.30 4.498
325.40 4.493
325.50 4.488
325.60 4.483
325.70 4.478
325.80 4.473
325.90 4.468
326.00 4.463
326.10 4.458
326.20 4.453
326.30 4.448
326.40 4.444
326.50 4.439
326.60 4.434
326.70 4.429
326.80 4.424
326.90 4.419
327.00 4.414
327.10 4.409
327.20 4.404
327.30 4.4
327.40 4.395
327.50 4.39
327.60 4.385
327.70 4.38
327.80 4.375
327.90 4.371
328.00 4.366
328.10 4.361
328.20 4.356
328.30 4.351
328.40 4.347
328.50 4.342
328.60 4.337
328.70 4.332
328.80 4.328
328.90 4.323
329.00 4.318
329.10 4.313
329.20 4.309
329.30 4.304
329.40 4.299
329.50 4.294
329.60 4.29
329.70 4.285
329.80 4.28
329.90 4.276
330.00 4.271
330.10 4.266
330.20 4.262
330.30 4.257
330.40 4.252
330.50 4.248
330.60 4.243
330.70 4.238
330.80 4.234
330.90 4.229
331.00 4.225
331.10 4.22
331.20 4.215
331.30 4.211
331.40 4.206
331.50 4.202
331.60 4.197
331.70 4.192
331.80 4.188
331.90 4.183
332.00 4.179
332.10 4.174
332.20 4.17
332.30 4.165
332.40 4.161
332.50 4.156
332.60 4.152
332.70 4.147
332.80 4.143
332.90 4.138
333.00 4.134
333.10 4.129
333.20 4.125
333.30 4.12
333.40 4.116
333.50 4.111
333.60 4.107
333.70 4.102
333.80 4.098
333.90 4.093
334.00 4.089
334.10 4.085
334.20 4.08
334.30 4.076
334.40 4.071
334.50 4.067
334.60 4.063
334.70 4.058
334.80 4.054
334.90 4.049
335.00 4.045
335.10 4.041
335.20 4.036
335.30 4.032
335.40 4.028
335.50 4.023
335.60 4.019
335.70 4.015
335.80 4.01
335.90 4.006
336.00 4.002
336.10 3.997
336.20 3.993
336.30 3.989
336.40 3.984
336.50 3.98
336.60 3.976
336.70 3.972
336.80 3.967
336.90 3.963
337.00 3.959
337.10 3.955
337.20 3.95
337.30 3.946
337.40 3.942
337.50 3.938
337.60 3.933
337.70 3.929
337.80 3.925
337.90 3.921
338.00 3.917
338.10 3.912
338.20 3.908
338.30 3.904
338.40 3.9
338.50 3.896
338.60 3.892
338.70 3.887
338.80 3.883
338.90 3.879
339.00 3.875
339.10 3.871
339.20 3.867
339.30 3.863
339.40 3.858
339.50 3.854
339.60 3.85
339.70 3.846
339.80 3.842
339.90 3.838
340.00 3.834
340.10 3.83
340.20 3.826
340.30 3.822
340.40 3.818
340.50 3.814
340.60 3.81
340.70 3.805
340.80 3.801
340.90 3.797
341.00 3.793
341.10 3.789
341.20 3.785
341.30 3.781
341.40 3.777
341.50 3.773
341.60 3.769
341.70 3.765
341.80 3.761
341.90 3.757
342.00 3.753
342.10 3.749
342.20 3.745
342.30 3.741
342.40 3.737
342.50 3.734
342.60 3.73
342.70 3.726
342.80 3.722
342.90 3.718
343.00 3.714
343.10 3.71
343.20 3.706
343.30 3.702
343.40 3.698
343.50 3.694
343.60 3.69
343.70 3.686
343.80 3.683
343.90 3.679
344.00 3.675
344.10 3.671
344.20 3.667
344.30 3.663
344.40 3.659
344.50 3.656
344.60 3.652
344.70 3.648
344.80 3.644
344.90 3.64
345.00 3.636
345.10 3.633
345.20 3.629
345.30 3.625
345.40 3.621
345.50 3.617
345.60 3.614
345.70 3.61
345.80 3.606
345.90 3.602
346.00 3.598
346.10 3.595
346.20 3.591
346.30 3.587
346.40 3.583
346.50 3.58
346.60 3.576
346.70 3.572
346.80 3.568
346.90 3.565
347.00 3.561
347.10 3.557
347.20 3.554
347.30 3.55
347.40 3.546
347.50 3.542
347.60 3.539
347.70 3.535
347.80 3.531
347.90 3.528
348.00 3.524
348.10 3.52
348.20 3.517
348.30 3.513
348.40 3.509
348.50 3.506
348.60 3.502
348.70 3.498
348.80 3.495
348.90 3.491
349.00 3.487
349.10 3.484
349.20 3.48
349.30 3.477
349.40 3.473
349.50 3.469
349.60 3.466
349.70 3.462
349.80 3.459
349.90 3.455
350.00 3.451
350.10 3.448
350.20 3.444
350.30 3.441
350.40 3.437
350.50 3.434
350.60 3.43
350.70 3.427
350.80 3.423
350.90 3.419
351.00 3.416
351.10 3.412
351.20 3.409
351.30 3.405
351.40 3.402
351.50 3.398
351.60 3.395
351.70 3.391
351.80 3.388
351.90 3.384
352.00 3.381
352.10 3.377
352.20 3.374
352.30 3.37
352.40 3.367
352.50 3.363
352.60 3.36
352.70 3.356
352.80 3.353
352.90 3.35
353.00 3.346
353.10 3.343
353.20 3.339
353.30 3.336
353.40 3.332
353.50 3.329
353.60 3.326
353.70 3.322
353.80 3.319
353.90 3.315
354.00 3.312
354.10 3.308
354.20 3.305
354.30 3.302
354.40 3.298
354.50 3.295
354.60 3.292
354.70 3.288
354.80 3.285
354.90 3.282
355.00 3.278
355.10 3.275
355.20 3.271
355.30 3.268
355.40 3.265
355.50 3.261
355.60 3.258
355.70 3.255
355.80 3.251
355.90 3.248
356.00 3.245
356.10 3.241
356.20 3.238
356.30 3.235
356.40 3.232
356.50 3.228
356.60 3.225
356.70 3.222
356.80 3.218
356.90 3.215
357.00 3.212
357.10 3.209
357.20 3.205
357.30 3.202
357.40 3.199
357.50 3.196
357.60 3.192
357.70 3.189
357.80 3.186
357.90 3.183
358.00 3.179
358.10 3.176
358.20 3.173
358.30 3.17
358.40 3.166
358.50 3.163
358.60 3.16
358.70 3.157
358.80 3.154
358.90 3.15
359.00 3.147
359.10 3.144
359.20 3.141
359.30 3.138
359.40 3.135
359.50 3.131
359.60 3.128
359.70 3.125
359.80 3.122
359.90 3.119
360.00 3.116
360.10 3.112
360.20 3.109
360.30 3.106
360.40 3.103
360.50 3.1
360.60 3.097
360.70 3.094
360.80 3.091
360.90 3.087
361.00 3.084
361.10 3.081
361.20 3.078
361.30 3.075
361.40 3.072
361.50 3.069
361.60 3.066
361.70 3.063
361.80 3.06
361.90 3.056
362.00 3.053
362.10 3.05
362.20 3.047
362.30 3.044
362.40 3.041
362.50 3.038
362.60 3.035
362.70 3.032
362.80 3.029
362.90 3.026
363.00 3.023
363.10 3.02
363.20 3.017
363.30 3.014
363.40 3.011
363.50 3.008
363.60 3.005
363.70 3.002
363.80 2.999
363.90 2.996
364.00 2.993
364.10 2.99
364.20 2.987
364.30 2.984
364.40 2.981
364.50 2.978
364.60 2.975
364.70 2.972
364.80 2.969
364.90 2.966
365.00 2.963
365.10 2.96
365.20 2.957
365.30 2.954
365.40 2.951
365.50 2.948
365.60 2.945
365.70 2.942
365.80 2.94
365.90 2.937
366.00 2.934
366.10 2.931
366.20 2.927
366.30 2.924
366.40 2.921
366.50 2.918
366.60 2.915
366.70 2.912
366.80 2.909
366.90 2.906
367.00 2.903
367.10 2.9
367.20 2.897
367.30 2.894
367.40 2.891
367.50 2.888
367.60 2.885
367.70 2.882
367.80 2.879
367.90 2.875
368.00 2.872
368.10 2.869
368.20 2.866
368.30 2.863
368.40 2.861
368.50 2.858
368.60 2.855
368.70 2.852
368.80 2.849
368.90 2.846
369.00 2.843
369.10 2.84
369.20 2.837
369.30 2.834
369.40 2.831
369.50 2.828
369.60 2.825
369.70 2.822
369.80 2.819
369.90 2.816
370.00 2.813
370.10 2.81
370.20 2.808
370.30 2.805
370.40 2.802
370.50 2.799
370.60 2.796
370.70 2.793
370.80 2.791
370.90 2.788
371.00 2.785
371.10 2.782
371.20 2.779
371.30 2.777
371.40 2.774
371.50 2.771
371.60 2.768
371.70 2.765
371.80 2.763
371.90 2.76
372.00 2.757
372.10 2.755
372.20 2.752
372.30 2.75
372.40 2.747
372.50 2.745
372.60 2.742
372.70 2.74
372.80 2.737
372.90 2.735
373.00 2.732
373.10 2.73
373.20 2.727
373.30 2.725
373.40 2.722
373.50 2.72
373.60 2.718
373.70 2.715
373.80 2.713
373.90 2.71
374.00 2.708
374.10 2.706
374.20 2.703
374.30 2.701
374.40 2.699
374.50 2.697
374.60 2.694
374.70 2.692
374.80 2.69
374.90 2.688
375.00 2.686
375.10 2.683
375.20 2.681
375.30 2.679
375.40 2.677
375.50 2.675
375.60 2.672
375.70 2.67
375.80 2.668
375.90 2.666
376.00 2.664
376.10 2.66
376.20 2.657
376.30 2.653
376.40 2.649
376.50 2.646
376.60 2.642
376.70 2.639
376.80 2.635
376.90 2.632
377.00 2.628
377.10 2.628
377.20 2.628
377.30 2.627
377.40 2.627
377.50 2.626
377.60 2.626
377.70 2.626
377.80 2.625
377.90 2.625
378.00 2.625
378.10 2.621
378.20 2.617
378.30 2.614
378.40 2.61
378.50 2.607
378.60 2.603
378.70 2.599
378.80 2.596
378.90 2.592
379.00 2.589
379.10 2.584
379.20 2.58
379.30 2.575
379.40 2.57
379.50 2.566
379.60 2.561
379.70 2.557
379.80 2.552
379.90 2.548
380.00 2.543
380.10 2.546
380.20 2.549
380.30 2.551
380.40 2.554
380.50 2.557
380.60 2.56
380.70 2.563
380.80 2.565
380.90 2.568
381.00 2.571
381.10 2.57
381.20 2.569
381.30 2.568
381.40 2.567
381.50 2.566
381.60 2.563
381.70 2.56
381.80 2.555
381.90 2.551
382.00 2.545
382.10 2.539
382.20 2.532
382.30 2.521
382.40 2.51
382.50 2.499
382.60 2.487
382.70 2.476
382.80 2.465
382.90 2.454
383.00 2.443
383.10 2.432
383.20 2.421
383.30 2.407
383.40 2.394
383.50 2.382
383.60 2.382
383.70 2.391
383.80 2.402
383.90 2.413
384.00 2.423
384.10 2.433
384.20 2.443
384.30 2.452
384.40 2.461
384.50 2.468
384.60 2.475
384.70 2.482
384.80 2.488
384.90 2.493
385.00 2.497
385.10 2.501
385.20 2.504
385.30 2.507
385.40 2.508
385.50 2.51
385.60 2.511
385.70 2.511
385.80 2.51
385.90 2.51
386.00 2.508
386.10 2.506
386.20 2.504
386.30 2.501
386.40 2.497
386.50 2.493
386.60 2.488
386.70 2.482
386.80 2.476
386.90 2.469
387.00 2.461
387.10 2.453
387.20 2.444
387.30 2.434
387.40 2.423
387.50 2.411
387.60 2.398
387.70 2.384
387.80 2.369
387.90 2.353
388.00 2.336
388.10 2.318
388.20 2.298
388.30 2.278
388.40 2.256
388.50 2.234
388.60 2.211
388.70 2.188
388.80 2.171
388.90 2.158
389.00 2.166
389.10 2.179
389.20 2.198
389.30 2.217
389.40 2.236
389.50 2.254
389.60 2.271
389.70 2.286
389.80 2.301
389.90 2.314
390.00 2.327
390.10 2.339
390.20 2.349
390.30 2.358
390.40 2.367
390.50 2.375
390.60 2.382
390.70 2.388
390.80 2.393
390.90 2.398
391.00 2.403
391.10 2.406
391.20 2.409
391.30 2.412
391.40 2.415
391.50 2.416
391.60 2.418
391.70 2.419
391.80 2.42
391.90 2.42
392.00 2.42
392.10 2.42
392.20 2.42
392.30 2.419
392.40 2.418
392.50 2.417
392.60 2.416
392.70 2.414
392.80 2.412
392.90 2.41
393.00 2.408
393.10 2.405
393.20 2.403
393.30 2.4
393.40 2.397
393.50 2.393
393.60 2.389
393.70 2.385
393.80 2.381
393.90 2.377
394.00 2.372
394.10 2.366
394.20 2.361
394.30 2.355
394.40 2.349
394.50 2.342
394.60 2.334
394.70 2.327
394.80 2.318
394.90 2.309
395.00 2.299
395.10 2.289
395.20 2.278
395.30 2.265
395.40 2.252
395.50 2.239
395.60 2.223
395.70 2.207
395.80 2.19
395.90 2.171
396.00 2.15
396.10 2.129
396.20 2.105
396.30 2.081
396.40 2.055
396.50 2.027
396.60 1.998
396.70 1.967
396.80 1.935
396.90 1.903
397.00 1.871
397.10 1.897
397.20 1.924
397.30 1.953
397.40 1.98
397.50 2.006
397.60 2.031
397.70 2.053
397.80 2.074
397.90 2.094
398.00 2.111
398.10 2.128
398.20 2.143
398.30 2.156
398.40 2.169
398.50 2.18
398.60 2.19
398.70 2.199
398.80 2.207
398.90 2.215
399.00 2.221
399.10 2.227
399.20 2.232
399.30 2.237
399.40 2.241
399.50 2.244
399.60 2.247
399.70 2.25
399.80 2.252
399.90 2.254
400.00 2.255
400.10 2.256
400.20 2.257
400.30 2.258
400.40 2.259
400.50 2.259
400.60 2.259
400.70 2.259
400.80 2.259
400.90 2.258
401.00 2.258
401.10 2.257
401.20 2.256
401.30 2.256
401.40 2.255
401.50 2.254
401.60 2.252
401.70 2.251
401.80 2.25
401.90 2.249
402.00 2.247
402.10 2.246
402.20 2.244
402.30 2.243
402.40 2.241
402.50 2.24
402.60 2.238
402.70 2.236
402.80 2.234
402.90 2.233
403.00 2.231
403.10 2.229
403.20 2.227
403.30 2.225
403.40 2.223
403.50 2.221
403.60 2.219
403.70 2.217
403.80 2.215
403.90 2.213
404.00 2.211
404.10 2.209
404.20 2.206
404.30 2.204
404.40 2.202
404.50 2.199
404.60 2.197
404.70 2.195
404.80 2.192
404.90 2.19
405.00 2.187
405.10 2.185
405.20 2.182
405.30 2.179
405.40 2.176
405.50 2.174
405.60 2.171
405.70 2.168
405.80 2.165
405.90 2.162
406.00 2.158
406.10 2.155
406.20 2.151
406.30 2.148
406.40 2.144
406.50 2.14
406.60 2.136
406.70 2.132
406.80 2.128
406.90 2.123
407.00 2.118
407.10 2.113
407.20 2.108
407.30 2.103
407.40 2.097
407.50 2.09
407.60 2.084
407.70 2.077
407.80 2.069
407.90 2.061
408.00 2.052
408.10 2.043
408.20 2.033
408.30 2.022
408.40 2.011
408.50 1.999
408.60 1.985
408.70 1.971
408.80 1.955
408.90 1.939
409.00 1.921
409.10 1.901
409.20 1.88
409.30 1.858
409.40 1.833
409.50 1.807
409.60 1.779
409.70 1.749
409.80 1.717
409.90 1.683
410.00 1.644
410.10 1.614
410.20 1.592
410.30 1.625
410.40 1.659
410.50 1.693
410.60 1.722
410.70 1.749
410.80 1.776
410.90 1.799
411.00 1.821
411.10 1.841
411.20 1.859
411.30 1.875
411.40 1.891
411.50 1.904
411.60 1.917
411.70 1.928
411.80 1.938
411.90 1.947
412.00 1.955
412.10 1.962
412.20 1.968
412.30 1.974
412.40 1.979
412.50 1.984
412.60 1.988
412.70 1.991
412.80 1.994
412.90 1.996
413.00 1.999
413.10 2
413.20 2.002
413.30 2.003
413.40 2.004
413.50 2.005
413.60 2.006
413.70 2.006
413.80 2.006
413.90 2.006
414.00 2.006
414.10 2.006
414.20 2.006
414.30 2.005
414.40 2.005
414.50 2.004
414.60 2.004
414.70 2.003
414.80 2.002
414.90 2.001
415.00 2
415.10 1.999
415.20 1.998
415.30 1.997
415.40 1.996
415.50 1.995
415.60 1.993
415.70 1.992
415.80 1.991
415.90 1.989
416.00 1.988
416.10 1.987
416.20 1.985
416.30 1.984
416.40 1.983
416.50 1.981
416.60 1.98
416.70 1.978
416.80 1.977
416.90 1.975
417.00 1.974
417.10 1.972
417.20 1.971
417.30 1.969
417.40 1.967
417.50 1.966
417.60 1.964
417.70 1.963
417.80 1.961
417.90 1.96
418.00 1.958
418.10 1.956
418.20 1.955
418.30 1.953
418.40 1.951
418.50 1.95
418.60 1.948
418.70 1.947
418.80 1.945
418.90 1.943
419.00 1.942
419.10 1.94
419.20 1.938
419.30 1.937
419.40 1.935
419.50 1.933
419.60 1.932
419.70 1.93
419.80 1.928
419.90 1.927
420.00 1.925
420.10 1.923
420.20 1.922
420.30 1.92
420.40 1.918
420.50 1.917
420.60 1.915
420.70 1.913
420.80 1.912
420.90 1.91
421.00 1.908
421.10 1.907
421.20 1.905
421.30 1.903
421.40 1.902
421.50 1.9
421.60 1.898
421.70 1.897
421.80 1.895
421.90 1.893
422.00 1.892
422.10 1.89
422.20 1.888
422.30 1.887
422.40 1.885
422.50 1.883
422.60 1.882
422.70 1.88
422.80 1.878
422.90 1.877
423.00 1.875
423.10 1.873
423.20 1.871
423.30 1.87
423.40 1.868
423.50 1.866
423.60 1.865
423.70 1.863
423.80 1.861
423.90 1.86
424.00 1.858
424.10 1.856
424.20 1.855
424.30 1.853
424.40 1.851
424.50 1.85
424.60 1.848
424.70 1.846
424.80 1.844
424.90 1.843
425.00 1.841
425.10 1.839
425.20 1.838
425.30 1.836
425.40 1.834
425.50 1.832
425.60 1.831
425.70 1.829
425.80 1.827
425.90 1.826
426.00 1.824
426.10 1.822
426.20 1.82
426.30 1.819
426.40 1.817
426.50 1.815
426.60 1.813
426.70 1.812
426.80 1.81
426.90 1.808
427.00 1.806
427.10 1.804
427.20 1.803
427.30 1.801
427.40 1.799
427.50 1.797
427.60 1.795
427.70 1.793
427.80 1.791
427.90 1.79
428.00 1.788
428.10 1.786
428.20 1.784
428.30 1.782
428.40 1.78
428.50 1.778
428.60 1.776
428.70 1.774
428.80 1.772
428.90 1.769
429.00 1.767
429.10 1.765
429.20 1.763
429.30 1.761
429.40 1.758
429.50 1.756
429.60 1.754
429.70 1.751
429.80 1.748
429.90 1.746
430.00 1.743
430.10 1.74
430.20 1.738
430.30 1.735
430.40 1.732
430.50 1.728
430.60 1.725
430.70 1.722
430.80 1.718
430.90 1.714
431.00 1.71
431.10 1.706
431.20 1.702
431.30 1.697
431.40 1.692
431.50 1.687
431.60 1.681
431.70 1.675
431.80 1.669
431.90 1.662
432.00 1.654
432.10 1.646
432.20 1.638
432.30 1.628
432.40 1.618
432.50 1.607
432.60 1.595
432.70 1.583
432.80 1.568
432.90 1.553
433.00 1.537
433.10 1.519
433.20 1.5
433.30 1.479
433.40 1.456
433.50 1.432
433.60 1.406
433.70 1.377
433.80 1.345
433.90 1.31
434.00 1.265
434.10 1.265
434.20 1.31
434.30 1.342
434.40 1.372
434.50 1.398
434.60 1.421
434.70 1.443
434.80 1.463
434.90 1.481
435.00 1.497
435.10 1.513
435.20 1.526
435.30 1.538
435.40 1.549
435.50 1.559
435.60 1.568
435.70 1.576
435.80 1.583
435.90 1.589
436.00 1.595
436.10 1.6
436.20 1.604
436.30 1.608
436.40 1.611
436.50 1.614
436.60 1.617
436.70 1.619
436.80 1.621
436.90 1.622
437.00 1.624
437.10 1.625
437.20 1.626
437.30 1.626
437.40 1.627
437.50 1.627
437.60 1.628
437.70 1.628
437.80 1.628
437.90 1.628
438.00 1.628
438.10 1.627
438.20 1.627
438.30 1.627
438.40 1.626
438.50 1.626
438.60 1.625
438.70 1.624
438.80 1.624
438.90 1.623
439.00 1.622
439.10 1.621
439.20 1.62
439.30 1.62
439.40 1.619
439.50 1.618
439.60 1.617
439.70 1.616
439.80 1.615
439.90 1.614
440.00 1.613
440.10 1.612
440.20 1.611
440.30 1.61
440.40 1.608
440.50 1.607
440.60 1.606
440.70 1.605
440.80 1.604
440.90 1.603
441.00 1.602
441.10 1.6
441.20 1.599
441.30 1.598
441.40 1.597
441.50 1.596
441.60 1.594
441.70 1.593
441.80 1.592
441.90 1.591
442.00 1.59
442.10 1.588
442.20 1.587
442.30 1.586
442.40 1.585
442.50 1.583
442.60 1.582
442.70 1.581
442.80 1.58
442.90 1.578
443.00 1.577
443.10 1.576
443.20 1.575
443.30 1.573
443.40 1.572
443.50 1.571
443.60 1.569
443.70 1.568
443.80 1.567
443.90 1.566
444.00 1.564
444.10 1.563
444.20 1.562
444.30 1.561
444.40 1.559
444.50 1.558
444.60 1.557
444.70 1.555
444.80 1.554
444.90 1.553
445.00 1.552
445.10 1.55
445.20 1.549
445.30 1.548
445.40 1.547
445.50 1.545
445.60 1.544
445.70 1.543
445.80 1.541
445.90 1.54
446.00 1.539
446.10 1.538
446.20 1.536
446.30 1.535
446.40 1.534
446.50 1.533
446.60 1.531
446.70 1.53
446.80 1.529
446.90 1.527
447.00 1.526
447.10 1.525
447.20 1.524
447.30 1.522
447.40 1.521
447.50 1.52
447.60 1.519
447.70 1.517
447.80 1.516
447.90 1.515
448.00 1.514
448.10 1.512
448.20 1.511
448.30 1.51
448.40 1.509
448.50 1.507
448.60 1.506
448.70 1.505
448.80 1.504
448.90 1.502
449.00 1.501
449.10 1.5
449.20 1.499
449.30 1.497
449.40 1.496
449.50 1.495
449.60 1.494
449.70 1.492
449.80 1.491
449.90 1.49
450.00 1.489
450.10 1.487
450.20 1.486
450.30 1.485
450.40 1.484
450.50 1.482
450.60 1.481
450.70 1.48
450.80 1.479
450.90 1.478
451.00 1.476
451.10 1.475
451.20 1.474
451.30 1.473
451.40 1.471
451.50 1.47
451.60 1.469
451.70 1.468
451.80 1.467
451.90 1.465
452.00 1.464
452.10 1.463
452.20 1.462
452.30 1.461
452.40 1.459
452.50 1.458
452.60 1.457
452.70 1.456
452.80 1.454
452.90 1.453
453.00 1.452
453.10 1.451
453.20 1.45
453.30 1.448
453.40 1.447
453.50 1.446
453.60 1.445
453.70 1.444
453.80 1.442
453.90 1.441
454.00 1.44
454.10 1.439
