# Version 2.1 - nm, norm@500 to 1, cut digits, bergeron_5000_80.dat_5000
# Wavelength(nm)  Flambda(ergs/cm^s/s/nm)
300.00 0.3639
300.10 0.3643
300.20 0.3648
300.30 0.3652
300.40 0.3657
300.50 0.3661
300.60 0.3666
300.70 0.3671
300.80 0.3675
300.90 0.368
301.00 0.3684
301.10 0.3689
301.20 0.3693
301.30 0.3698
301.40 0.3702
301.50 0.3707
301.60 0.3711
301.70 0.3716
301.80 0.372
301.90 0.3725
302.00 0.3729
302.10 0.3734
302.20 0.3738
302.30 0.3743
302.40 0.3747
302.50 0.3752
302.60 0.3756
302.70 0.3761
302.80 0.3766
302.90 0.377
303.00 0.3775
303.10 0.3779
303.20 0.3784
303.30 0.3788
303.40 0.3793
303.50 0.3797
303.60 0.3802
303.70 0.3806
303.80 0.3811
303.90 0.3815
304.00 0.382
304.10 0.3824
304.20 0.3829
304.30 0.3833
304.40 0.3838
304.50 0.3843
304.60 0.3847
304.70 0.3852
304.80 0.3856
304.90 0.3861
305.00 0.3865
305.10 0.387
305.20 0.3875
305.30 0.3879
305.40 0.3884
305.50 0.3888
305.60 0.3893
305.70 0.3897
305.80 0.3902
305.90 0.3906
306.00 0.3911
306.10 0.3915
306.20 0.392
306.30 0.3924
306.40 0.3929
306.50 0.3934
306.60 0.3938
306.70 0.3943
306.80 0.3947
306.90 0.3952
307.00 0.3956
307.10 0.3961
307.20 0.3966
307.30 0.397
307.40 0.3975
307.50 0.3979
307.60 0.3984
307.70 0.3988
307.80 0.3993
307.90 0.3997
308.00 0.4002
308.10 0.4006
308.20 0.4011
308.30 0.4016
308.40 0.402
308.50 0.4025
308.60 0.4029
308.70 0.4034
308.80 0.4039
308.90 0.4043
309.00 0.4048
309.10 0.4052
309.20 0.4057
309.30 0.4061
309.40 0.4066
309.50 0.407
309.60 0.4075
309.70 0.408
309.80 0.4084
309.90 0.4089
310.00 0.4093
310.10 0.4098
310.20 0.4102
310.30 0.4107
310.40 0.4112
310.50 0.4116
310.60 0.4121
310.70 0.4125
310.80 0.413
310.90 0.4135
311.00 0.4139
311.10 0.4144
311.20 0.4148
311.30 0.4153
311.40 0.4157
311.50 0.4162
311.60 0.4167
311.70 0.4171
311.80 0.4176
311.90 0.418
312.00 0.4185
312.10 0.4189
312.20 0.4194
312.30 0.4198
312.40 0.4203
312.50 0.4208
312.60 0.4212
312.70 0.4217
312.80 0.4221
312.90 0.4226
313.00 0.4231
313.10 0.4235
313.20 0.424
313.30 0.4244
313.40 0.4249
313.50 0.4253
313.60 0.4258
313.70 0.4262
313.80 0.4267
313.90 0.4272
314.00 0.4276
314.10 0.4281
314.20 0.4285
314.30 0.429
314.40 0.4295
314.50 0.4299
314.60 0.4304
314.70 0.4308
314.80 0.4313
314.90 0.4318
315.00 0.4322
315.10 0.4327
315.20 0.4331
315.30 0.4336
315.40 0.4341
315.50 0.4345
315.60 0.435
315.70 0.4354
315.80 0.4359
315.90 0.4363
316.00 0.4368
316.10 0.4372
316.20 0.4377
316.30 0.4382
316.40 0.4386
316.50 0.4391
316.60 0.4395
316.70 0.44
316.80 0.4405
316.90 0.4409
317.00 0.4414
317.10 0.4418
317.20 0.4423
317.30 0.4428
317.40 0.4432
317.50 0.4437
317.60 0.4441
317.70 0.4446
317.80 0.445
317.90 0.4455
318.00 0.4459
318.10 0.4464
318.20 0.4469
318.30 0.4473
318.40 0.4478
318.50 0.4482
318.60 0.4487
318.70 0.4492
318.80 0.4496
318.90 0.4501
319.00 0.4505
319.10 0.451
319.20 0.4515
319.30 0.4519
319.40 0.4524
319.50 0.4528
319.60 0.4533
319.70 0.4537
319.80 0.4542
319.90 0.4546
320.00 0.4551
320.10 0.4556
320.20 0.456
320.30 0.4565
320.40 0.4569
320.50 0.4574
320.60 0.4579
320.70 0.4583
320.80 0.4588
320.90 0.4592
321.00 0.4597
321.10 0.4602
321.20 0.4606
321.30 0.4611
321.40 0.4615
321.50 0.462
321.60 0.4624
321.70 0.4629
321.80 0.4633
321.90 0.4638
322.00 0.4643
322.10 0.4647
322.20 0.4652
322.30 0.4656
322.40 0.4661
322.50 0.4666
322.60 0.467
322.70 0.4675
322.80 0.4679
322.90 0.4684
323.00 0.4689
323.10 0.4693
323.20 0.4698
323.30 0.4702
323.40 0.4707
323.50 0.4711
323.60 0.4716
323.70 0.472
323.80 0.4725
323.90 0.4729
324.00 0.4734
324.10 0.4739
324.20 0.4743
324.30 0.4748
324.40 0.4752
324.50 0.4757
324.60 0.4762
324.70 0.4766
324.80 0.4771
324.90 0.4775
325.00 0.478
325.10 0.4784
325.20 0.4789
325.30 0.4794
325.40 0.4798
325.50 0.4803
325.60 0.4807
325.70 0.4812
325.80 0.4816
325.90 0.4821
326.00 0.4825
326.10 0.483
326.20 0.4835
326.30 0.4839
326.40 0.4844
326.50 0.4848
326.60 0.4853
326.70 0.4857
326.80 0.4862
326.90 0.4867
327.00 0.4871
327.10 0.4876
327.20 0.488
327.30 0.4885
327.40 0.4889
327.50 0.4894
327.60 0.4898
327.70 0.4903
327.80 0.4907
327.90 0.4912
328.00 0.4917
328.10 0.4921
328.20 0.4926
328.30 0.493
328.40 0.4935
328.50 0.4939
328.60 0.4944
328.70 0.4949
328.80 0.4953
328.90 0.4958
329.00 0.4962
329.10 0.4967
329.20 0.4971
329.30 0.4976
329.40 0.498
329.50 0.4985
329.60 0.4989
329.70 0.4994
329.80 0.4998
329.90 0.5003
330.00 0.5007
330.10 0.5012
330.20 0.5017
330.30 0.5021
330.40 0.5026
330.50 0.503
330.60 0.5035
330.70 0.5039
330.80 0.5044
330.90 0.5049
331.00 0.5053
331.10 0.5058
331.20 0.5062
331.30 0.5067
331.40 0.5071
331.50 0.5076
331.60 0.508
331.70 0.5085
331.80 0.5089
331.90 0.5094
332.00 0.5098
332.10 0.5103
332.20 0.5107
332.30 0.5112
332.40 0.5116
332.50 0.5121
332.60 0.5126
332.70 0.513
332.80 0.5135
332.90 0.5139
333.00 0.5144
333.10 0.5148
333.20 0.5153
333.30 0.5157
333.40 0.5162
333.50 0.5166
333.60 0.5171
333.70 0.5175
333.80 0.518
333.90 0.5184
334.00 0.5189
334.10 0.5193
334.20 0.5198
334.30 0.5202
334.40 0.5207
334.50 0.5211
334.60 0.5216
334.70 0.522
334.80 0.5225
334.90 0.5229
335.00 0.5234
335.10 0.5238
335.20 0.5243
335.30 0.5247
335.40 0.5252
335.50 0.5256
335.60 0.5261
335.70 0.5265
335.80 0.527
335.90 0.5274
336.00 0.5279
336.10 0.5283
336.20 0.5288
336.30 0.5292
336.40 0.5297
336.50 0.5301
336.60 0.5306
336.70 0.531
336.80 0.5315
336.90 0.5319
337.00 0.5324
337.10 0.5328
337.20 0.5333
337.30 0.5337
337.40 0.5342
337.50 0.5346
337.60 0.5351
337.70 0.5355
337.80 0.536
337.90 0.5364
338.00 0.5369
338.10 0.5373
338.20 0.5378
338.30 0.5382
338.40 0.5387
338.50 0.5391
338.60 0.5396
338.70 0.54
338.80 0.5405
338.90 0.5409
339.00 0.5414
339.10 0.5418
339.20 0.5422
339.30 0.5427
339.40 0.5431
339.50 0.5436
339.60 0.544
339.70 0.5445
339.80 0.5449
339.90 0.5453
340.00 0.5458
340.10 0.5462
340.20 0.5467
340.30 0.5471
340.40 0.5476
340.50 0.548
340.60 0.5485
340.70 0.5489
340.80 0.5494
340.90 0.5498
341.00 0.5503
341.10 0.5507
341.20 0.5512
341.30 0.5516
341.40 0.5521
341.50 0.5525
341.60 0.5529
341.70 0.5534
341.80 0.5538
341.90 0.5543
342.00 0.5547
342.10 0.5551
342.20 0.5556
342.30 0.556
342.40 0.5565
342.50 0.5569
342.60 0.5574
342.70 0.5578
342.80 0.5583
342.90 0.5587
343.00 0.5592
343.10 0.5596
343.20 0.56
343.30 0.5605
343.40 0.5609
343.50 0.5614
343.60 0.5618
343.70 0.5622
343.80 0.5627
343.90 0.5631
344.00 0.5636
344.10 0.564
344.20 0.5644
344.30 0.5649
344.40 0.5653
344.50 0.5658
344.60 0.5662
344.70 0.5667
344.80 0.5671
344.90 0.5676
345.00 0.568
345.10 0.5684
345.20 0.5689
345.30 0.5693
345.40 0.5698
345.50 0.5702
345.60 0.5706
345.70 0.5711
345.80 0.5715
345.90 0.5719
346.00 0.5724
346.10 0.5728
346.20 0.5733
346.30 0.5737
346.40 0.5741
346.50 0.5746
346.60 0.575
346.70 0.5755
346.80 0.5759
346.90 0.5763
347.00 0.5768
347.10 0.5772
347.20 0.5777
347.30 0.5781
347.40 0.5785
347.50 0.579
347.60 0.5794
347.70 0.5798
347.80 0.5803
347.90 0.5807
348.00 0.5811
348.10 0.5816
348.20 0.582
348.30 0.5825
348.40 0.5829
348.50 0.5833
348.60 0.5838
348.70 0.5842
348.80 0.5846
348.90 0.5851
349.00 0.5855
349.10 0.586
349.20 0.5864
349.30 0.5868
349.40 0.5873
349.50 0.5877
349.60 0.5881
349.70 0.5886
349.80 0.589
349.90 0.5894
350.00 0.5898
350.10 0.5903
350.20 0.5907
350.30 0.5912
350.40 0.5916
350.50 0.592
350.60 0.5925
350.70 0.5929
350.80 0.5933
350.90 0.5938
351.00 0.5942
351.10 0.5946
351.20 0.5951
351.30 0.5955
351.40 0.5959
351.50 0.5964
351.60 0.5968
351.70 0.5972
351.80 0.5977
351.90 0.5981
352.00 0.5985
352.10 0.5989
352.20 0.5994
352.30 0.5998
352.40 0.6003
352.50 0.6007
352.60 0.6011
352.70 0.6015
352.80 0.602
352.90 0.6024
353.00 0.6028
353.10 0.6033
353.20 0.6037
353.30 0.6041
353.40 0.6046
353.50 0.605
353.60 0.6054
353.70 0.6058
353.80 0.6063
353.90 0.6067
354.00 0.6071
354.10 0.6075
354.20 0.608
354.30 0.6084
354.40 0.6088
354.50 0.6093
354.60 0.6097
354.70 0.6101
354.80 0.6106
354.90 0.611
355.00 0.6114
355.10 0.6118
355.20 0.6123
355.30 0.6127
355.40 0.6131
355.50 0.6135
355.60 0.614
355.70 0.6144
355.80 0.6148
355.90 0.6152
356.00 0.6157
356.10 0.6161
356.20 0.6165
356.30 0.6169
356.40 0.6174
356.50 0.6178
356.60 0.6182
356.70 0.6187
356.80 0.6191
356.90 0.6195
357.00 0.6199
357.10 0.6204
357.20 0.6208
357.30 0.6212
357.40 0.6216
357.50 0.622
357.60 0.6225
357.70 0.6229
357.80 0.6233
357.90 0.6237
358.00 0.6241
358.10 0.6246
358.20 0.625
358.30 0.6254
358.40 0.6258
358.50 0.6263
358.60 0.6267
358.70 0.6271
358.80 0.6275
358.90 0.628
359.00 0.6284
359.10 0.6288
359.20 0.6292
359.30 0.6296
359.40 0.6301
359.50 0.6305
359.60 0.6309
359.70 0.6313
359.80 0.6317
359.90 0.6321
360.00 0.6326
360.10 0.633
360.20 0.6334
360.30 0.6338
360.40 0.6343
360.50 0.6347
360.60 0.6351
360.70 0.6355
360.80 0.6359
360.90 0.6363
361.00 0.6368
361.10 0.6372
361.20 0.6376
361.30 0.638
361.40 0.6384
361.50 0.6388
361.60 0.6393
361.70 0.6397
361.80 0.6401
361.90 0.6405
362.00 0.6409
362.10 0.6413
362.20 0.6417
362.30 0.6422
362.40 0.6426
362.50 0.643
362.60 0.6434
362.70 0.6438
362.80 0.6442
362.90 0.6447
363.00 0.6451
363.10 0.6455
363.20 0.6459
363.30 0.6463
363.40 0.6467
363.50 0.6471
363.60 0.6476
363.70 0.648
363.80 0.6484
363.90 0.6488
364.00 0.6492
364.10 0.6496
364.20 0.65
364.30 0.6504
364.40 0.6508
364.50 0.6513
364.60 0.6517
364.70 0.6521
364.80 0.6525
364.90 0.6529
365.00 0.6533
365.10 0.6537
365.20 0.6541
365.30 0.6546
365.40 0.655
365.50 0.6554
365.60 0.6558
365.70 0.6562
365.80 0.6566
365.90 0.657
366.00 0.6574
366.10 0.6578
366.20 0.6582
366.30 0.6586
366.40 0.6591
366.50 0.6595
366.60 0.6599
366.70 0.6603
366.80 0.6607
366.90 0.6611
367.00 0.6615
367.10 0.6619
367.20 0.6623
367.30 0.6627
367.40 0.6631
367.50 0.6635
367.60 0.6639
367.70 0.6643
367.80 0.6648
367.90 0.6652
368.00 0.6656
368.10 0.666
368.20 0.6664
368.30 0.6668
368.40 0.6672
368.50 0.6676
368.60 0.668
368.70 0.6684
368.80 0.6688
368.90 0.6692
369.00 0.6696
369.10 0.67
369.20 0.6704
369.30 0.6708
369.40 0.6712
369.50 0.6716
369.60 0.672
369.70 0.6724
369.80 0.6728
369.90 0.6732
370.00 0.6736
370.10 0.674
370.20 0.6744
370.30 0.6748
370.40 0.6752
370.50 0.6756
370.60 0.6761
370.70 0.6765
370.80 0.6769
370.90 0.6773
371.00 0.6777
371.10 0.6781
371.20 0.6785
371.30 0.6789
371.40 0.6792
371.50 0.6796
371.60 0.68
371.70 0.6804
371.80 0.6808
371.90 0.6812
372.00 0.6816
372.10 0.682
372.20 0.6824
372.30 0.6828
372.40 0.6832
372.50 0.6836
372.60 0.684
372.70 0.6844
372.80 0.6848
372.90 0.6852
373.00 0.6856
373.10 0.686
373.20 0.6864
373.30 0.6868
373.40 0.6872
373.50 0.6876
373.60 0.688
373.70 0.6884
373.80 0.6888
373.90 0.6891
374.00 0.6895
374.10 0.6899
374.20 0.6903
374.30 0.6907
374.40 0.6911
374.50 0.6915
374.60 0.6919
374.70 0.6923
374.80 0.6927
374.90 0.6931
375.00 0.6935
375.10 0.6939
375.20 0.6943
375.30 0.6947
375.40 0.6951
375.50 0.6954
375.60 0.6958
375.70 0.6962
375.80 0.6966
375.90 0.697
376.00 0.6974
376.10 0.6978
376.20 0.6982
376.30 0.6986
376.40 0.699
376.50 0.6993
376.60 0.6997
376.70 0.7001
376.80 0.7005
376.90 0.7009
377.00 0.7013
377.10 0.7017
377.20 0.7021
377.30 0.7025
377.40 0.7029
377.50 0.7032
377.60 0.7036
377.70 0.704
377.80 0.7044
377.90 0.7048
378.00 0.7052
378.10 0.7055
378.20 0.7059
378.30 0.7063
378.40 0.7067
378.50 0.7071
378.60 0.7075
378.70 0.7078
378.80 0.7082
378.90 0.7086
379.00 0.709
379.10 0.7094
379.20 0.7097
379.30 0.7101
379.40 0.7105
379.50 0.7109
379.60 0.7113
379.70 0.7117
379.80 0.712
379.90 0.7124
380.00 0.7128
380.10 0.7132
380.20 0.7136
380.30 0.7139
380.40 0.7143
380.50 0.7147
380.60 0.7151
380.70 0.7155
380.80 0.7158
380.90 0.7162
381.00 0.7166
381.10 0.717
381.20 0.7174
381.30 0.7177
381.40 0.7181
381.50 0.7185
381.60 0.7189
381.70 0.7193
381.80 0.7197
381.90 0.72
382.00 0.7204
382.10 0.7208
382.20 0.7212
382.30 0.7216
382.40 0.7219
382.50 0.7223
382.60 0.7227
382.70 0.7231
382.80 0.7234
382.90 0.7238
383.00 0.7242
383.10 0.7246
383.20 0.7249
383.30 0.7253
383.40 0.7256
383.50 0.726
383.60 0.7264
383.70 0.7268
383.80 0.7271
383.90 0.7276
384.00 0.7279
384.10 0.7283
384.20 0.7286
384.30 0.729
384.40 0.7294
384.50 0.7297
384.60 0.7302
384.70 0.7305
384.80 0.7309
384.90 0.7313
385.00 0.7316
385.10 0.732
385.20 0.7324
385.30 0.7327
385.40 0.7331
385.50 0.7335
385.60 0.7339
385.70 0.7342
385.80 0.7346
385.90 0.735
386.00 0.7353
386.10 0.7357
386.20 0.7361
386.30 0.7364
386.40 0.7368
386.50 0.7372
386.60 0.7375
386.70 0.7379
386.80 0.7382
386.90 0.7386
387.00 0.739
387.10 0.7394
387.20 0.7398
387.30 0.7401
387.40 0.7405
387.50 0.7408
387.60 0.7412
387.70 0.7416
387.80 0.7419
387.90 0.7423
388.00 0.7426
388.10 0.743
388.20 0.7433
388.30 0.7437
388.40 0.7441
388.50 0.7445
388.60 0.7448
388.70 0.7452
388.80 0.7455
388.90 0.7458
389.00 0.7462
389.10 0.7466
389.20 0.747
389.30 0.7473
389.40 0.7477
389.50 0.7481
389.60 0.7485
389.70 0.7488
389.80 0.7492
389.90 0.7495
390.00 0.7499
390.10 0.7502
390.20 0.7506
390.30 0.751
390.40 0.7513
390.50 0.7517
390.60 0.752
390.70 0.7524
390.80 0.7528
390.90 0.7531
391.00 0.7535
391.10 0.7539
391.20 0.7542
391.30 0.7546
391.40 0.7549
391.50 0.7553
391.60 0.7557
391.70 0.756
391.80 0.7563
391.90 0.7567
392.00 0.7571
392.10 0.7574
392.20 0.7578
392.30 0.7581
392.40 0.7585
392.50 0.7588
392.60 0.7592
392.70 0.7595
392.80 0.7599
392.90 0.7602
393.00 0.7606
393.10 0.761
393.20 0.7613
393.30 0.7617
393.40 0.762
393.50 0.7624
393.60 0.7627
393.70 0.7631
393.80 0.7634
393.90 0.7638
394.00 0.7641
394.10 0.7645
394.20 0.7648
394.30 0.7652
394.40 0.7655
394.50 0.7659
394.60 0.7662
394.70 0.7666
394.80 0.7669
394.90 0.7673
395.00 0.7676
395.10 0.768
395.20 0.7683
395.30 0.7687
395.40 0.769
395.50 0.7694
395.60 0.7697
395.70 0.77
395.80 0.7704
395.90 0.7707
396.00 0.7711
396.10 0.7714
396.20 0.7717
396.30 0.7721
396.40 0.7724
396.50 0.7727
396.60 0.773
396.70 0.7733
396.80 0.7736
396.90 0.7739
397.00 0.7741
397.10 0.7745
397.20 0.775
397.30 0.7754
397.40 0.7758
397.50 0.7761
397.60 0.7765
397.70 0.7768
397.80 0.7772
397.90 0.7776
398.00 0.7779
398.10 0.7783
398.20 0.7786
398.30 0.779
398.40 0.7793
398.50 0.7797
398.60 0.78
398.70 0.7803
398.80 0.7807
398.90 0.781
399.00 0.7814
399.10 0.7817
399.20 0.7821
399.30 0.7824
399.40 0.7827
399.50 0.783
399.60 0.7834
399.70 0.7837
399.80 0.7841
399.90 0.7844
400.00 0.7848
400.10 0.7851
400.20 0.7854
400.30 0.7858
400.40 0.7861
400.50 0.7864
400.60 0.7868
400.70 0.7871
400.80 0.7875
400.90 0.7878
401.00 0.7881
401.10 0.7884
401.20 0.7888
401.30 0.7891
401.40 0.7894
401.50 0.7898
401.60 0.7901
401.70 0.7905
401.80 0.7908
401.90 0.7911
402.00 0.7915
402.10 0.7918
402.20 0.7921
402.30 0.7924
402.40 0.7928
402.50 0.7931
402.60 0.7934
402.70 0.7938
402.80 0.7941
402.90 0.7944
403.00 0.7948
403.10 0.7951
403.20 0.7954
403.30 0.7957
403.40 0.7961
403.50 0.7964
403.60 0.7967
403.70 0.7971
403.80 0.7974
403.90 0.7977
404.00 0.7981
404.10 0.7984
404.20 0.7987
404.30 0.799
404.40 0.7994
404.50 0.7997
404.60 0.8
404.70 0.8003
404.80 0.8007
404.90 0.801
405.00 0.8013
405.10 0.8016
405.20 0.802
405.30 0.8023
405.40 0.8026
405.50 0.8029
405.60 0.8032
405.70 0.8036
405.80 0.8039
405.90 0.8042
406.00 0.8045
406.10 0.8048
406.20 0.8052
406.30 0.8055
406.40 0.8058
406.50 0.8061
406.60 0.8064
406.70 0.8068
406.80 0.8071
406.90 0.8074
407.00 0.8078
407.10 0.8081
407.20 0.8084
407.30 0.8087
407.40 0.809
407.50 0.8093
407.60 0.8096
407.70 0.81
407.80 0.8103
407.90 0.8106
408.00 0.8109
408.10 0.8112
408.20 0.8115
408.30 0.8118
408.40 0.8121
408.50 0.8124
408.60 0.8128
408.70 0.8131
408.80 0.8134
408.90 0.8137
409.00 0.814
409.10 0.8143
409.20 0.8146
409.30 0.8148
409.40 0.8151
409.50 0.8154
409.60 0.8156
409.70 0.8159
409.80 0.816
409.90 0.8162
410.00 0.8162
410.10 0.8163
410.20 0.8164
410.30 0.817
410.40 0.8176
410.50 0.8181
410.60 0.8186
410.70 0.819
410.80 0.8195
410.90 0.8198
411.00 0.8202
411.10 0.8205
411.20 0.8209
411.30 0.8212
411.40 0.8215
411.50 0.8218
411.60 0.8222
411.70 0.8225
411.80 0.8228
411.90 0.8231
412.00 0.8234
412.10 0.8237
412.20 0.824
412.30 0.8243
412.40 0.8247
412.50 0.825
412.60 0.8253
412.70 0.8256
412.80 0.8259
412.90 0.8262
413.00 0.8265
413.10 0.8268
413.20 0.8271
413.30 0.8274
413.40 0.8277
413.50 0.8281
413.60 0.8283
413.70 0.8286
413.80 0.8289
413.90 0.8292
414.00 0.8296
414.10 0.8298
414.20 0.8302
414.30 0.8305
414.40 0.8308
414.50 0.831
414.60 0.8314
414.70 0.8317
414.80 0.832
414.90 0.8323
415.00 0.8326
415.10 0.8329
415.20 0.8332
415.30 0.8335
415.40 0.8338
415.50 0.8341
415.60 0.8344
415.70 0.8347
415.80 0.835
415.90 0.8352
416.00 0.8356
416.10 0.8359
416.20 0.8361
416.30 0.8365
416.40 0.8367
416.50 0.837
416.60 0.8373
416.70 0.8376
416.80 0.8379
416.90 0.8382
417.00 0.8385
417.10 0.8388
417.20 0.8391
417.30 0.8394
417.40 0.8397
417.50 0.84
417.60 0.8403
417.70 0.8406
417.80 0.8409
417.90 0.8412
418.00 0.8415
418.10 0.8418
418.20 0.8421
418.30 0.8424
418.40 0.8426
418.50 0.8429
418.60 0.8432
418.70 0.8435
418.80 0.8438
418.90 0.8441
419.00 0.8444
419.10 0.8447
419.20 0.845
419.30 0.8453
419.40 0.8456
419.50 0.8458
419.60 0.8461
419.70 0.8464
419.80 0.8467
419.90 0.847
420.00 0.8473
420.10 0.8476
420.20 0.8479
420.30 0.8481
420.40 0.8484
420.50 0.8487
420.60 0.849
420.70 0.8493
420.80 0.8496
420.90 0.8499
421.00 0.8501
421.10 0.8504
421.20 0.8507
421.30 0.851
421.40 0.8513
421.50 0.8516
421.60 0.8519
421.70 0.8522
421.80 0.8524
421.90 0.8527
422.00 0.853
422.10 0.8533
422.20 0.8536
422.30 0.8538
422.40 0.8541
422.50 0.8544
422.60 0.8547
422.70 0.855
422.80 0.8552
422.90 0.8555
423.00 0.8558
423.10 0.8561
423.20 0.8564
423.30 0.8566
423.40 0.8569
423.50 0.8572
423.60 0.8575
423.70 0.8578
423.80 0.858
423.90 0.8583
424.00 0.8586
424.10 0.8589
424.20 0.8592
424.30 0.8595
424.40 0.8597
424.50 0.86
424.60 0.8603
424.70 0.8605
424.80 0.8608
424.90 0.8611
425.00 0.8614
425.10 0.8616
425.20 0.8619
425.30 0.8622
425.40 0.8625
425.50 0.8628
425.60 0.863
425.70 0.8633
425.80 0.8636
425.90 0.8638
426.00 0.8641
426.10 0.8644
426.20 0.8646
426.30 0.8649
426.40 0.8652
426.50 0.8655
426.60 0.8657
426.70 0.866
426.80 0.8663
426.90 0.8666
427.00 0.8668
427.10 0.8671
427.20 0.8674
427.30 0.8676
427.40 0.8679
427.50 0.8682
427.60 0.8685
427.70 0.8687
427.80 0.869
427.90 0.8692
428.00 0.8695
428.10 0.8698
428.20 0.87
428.30 0.8703
428.40 0.8706
428.50 0.8709
428.60 0.8711
428.70 0.8714
428.80 0.8716
428.90 0.8719
429.00 0.8722
429.10 0.8724
429.20 0.8727
429.30 0.873
429.40 0.8732
429.50 0.8735
429.60 0.8738
429.70 0.874
429.80 0.8743
429.90 0.8745
430.00 0.8748
430.10 0.8751
430.20 0.8753
430.30 0.8756
430.40 0.8759
430.50 0.8761
430.60 0.8764
430.70 0.8767
430.80 0.8769
430.90 0.8771
431.00 0.8774
431.10 0.8777
431.20 0.8779
431.30 0.8782
431.40 0.8784
431.50 0.8787
431.60 0.8789
431.70 0.8792
431.80 0.8794
431.90 0.8797
432.00 0.8799
432.10 0.8802
432.20 0.8804
432.30 0.8807
432.40 0.8809
432.50 0.8812
432.60 0.8814
432.70 0.8816
432.80 0.8818
432.90 0.882
433.00 0.8822
433.10 0.8824
433.20 0.8826
433.30 0.8827
433.40 0.8828
433.50 0.8828
433.60 0.8828
433.70 0.8825
433.80 0.882
433.90 0.8814
434.00 0.8805
434.10 0.8807
434.20 0.8822
434.30 0.8834
434.40 0.8843
434.50 0.885
434.60 0.8856
434.70 0.8861
434.80 0.8865
434.90 0.8869
435.00 0.8872
435.10 0.8875
435.20 0.8879
435.30 0.8882
435.40 0.8884
435.50 0.8887
435.60 0.889
435.70 0.8892
435.80 0.8895
435.90 0.8898
436.00 0.89
436.10 0.8903
436.20 0.8906
436.30 0.8908
436.40 0.8911
436.50 0.8913
436.60 0.8916
436.70 0.8918
436.80 0.8921
436.90 0.8924
437.00 0.8926
437.10 0.8928
437.20 0.8931
437.30 0.8933
437.40 0.8936
437.50 0.8938
437.60 0.8941
437.70 0.8943
437.80 0.8945
437.90 0.8948
438.00 0.8951
438.10 0.8953
438.20 0.8955
438.30 0.8958
438.40 0.896
438.50 0.8963
438.60 0.8965
438.70 0.8967
438.80 0.897
438.90 0.8972
439.00 0.8975
439.10 0.8977
439.20 0.8979
439.30 0.8982
439.40 0.8985
439.50 0.8987
439.60 0.8989
439.70 0.8992
439.80 0.8994
439.90 0.8996
440.00 0.8999
440.10 0.9001
440.20 0.9003
440.30 0.9006
440.40 0.9008
440.50 0.9011
440.60 0.9013
440.70 0.9016
440.80 0.9018
440.90 0.902
441.00 0.9022
441.10 0.9025
441.20 0.9027
441.30 0.9029
441.40 0.9032
441.50 0.9034
441.60 0.9037
441.70 0.9039
441.80 0.9041
441.90 0.9044
442.00 0.9046
442.10 0.9048
442.20 0.905
442.30 0.9053
442.40 0.9055
442.50 0.9057
442.60 0.906
442.70 0.9062
442.80 0.9065
442.90 0.9067
443.00 0.9069
