# Version 2.1 - nm, norm@500 to 1, cut digits, bergeron_8000_75.dat_8000
# Wavelength(nm)  Flambda(ergs/cm^s/s/nm)
300.00 1.343
300.10 1.343
300.20 1.343
300.30 1.343
300.40 1.342
300.50 1.342
300.60 1.342
300.70 1.342
300.80 1.342
300.90 1.342
301.00 1.342
301.10 1.342
301.20 1.342
301.30 1.342
301.40 1.342
301.50 1.342
301.60 1.342
301.70 1.342
301.80 1.342
301.90 1.342
302.00 1.342
302.10 1.342
302.20 1.342
302.30 1.342
302.40 1.342
302.50 1.342
302.60 1.342
302.70 1.342
302.80 1.342
302.90 1.342
303.00 1.342
303.10 1.342
303.20 1.342
303.30 1.342
303.40 1.341
303.50 1.341
303.60 1.341
303.70 1.341
303.80 1.341
303.90 1.341
304.00 1.341
304.10 1.341
304.20 1.341
304.30 1.341
304.40 1.341
304.50 1.341
304.60 1.341
304.70 1.341
304.80 1.341
304.90 1.341
305.00 1.341
305.10 1.341
305.20 1.341
305.30 1.341
305.40 1.341
305.50 1.34
305.60 1.34
305.70 1.34
305.80 1.34
305.90 1.34
306.00 1.34
306.10 1.34
306.20 1.34
306.30 1.34
306.40 1.34
306.50 1.34
306.60 1.34
306.70 1.34
306.80 1.34
306.90 1.34
307.00 1.34
307.10 1.34
307.20 1.34
307.30 1.339
307.40 1.339
307.50 1.339
307.60 1.339
307.70 1.339
307.80 1.339
307.90 1.339
308.00 1.339
308.10 1.339
308.20 1.339
308.30 1.339
308.40 1.339
308.50 1.339
308.60 1.339
308.70 1.339
308.80 1.338
308.90 1.338
309.00 1.338
309.10 1.338
309.20 1.338
309.30 1.338
309.40 1.338
309.50 1.338
309.60 1.338
309.70 1.338
309.80 1.338
309.90 1.338
310.00 1.338
310.10 1.337
310.20 1.337
310.30 1.337
310.40 1.337
310.50 1.337
310.60 1.337
310.70 1.337
310.80 1.337
310.90 1.337
311.00 1.337
311.10 1.337
311.20 1.337
311.30 1.337
311.40 1.336
311.50 1.336
311.60 1.336
311.70 1.336
311.80 1.336
311.90 1.336
312.00 1.336
312.10 1.336
312.20 1.336
312.30 1.336
312.40 1.336
312.50 1.335
312.60 1.335
312.70 1.335
312.80 1.335
312.90 1.335
313.00 1.335
313.10 1.335
313.20 1.335
313.30 1.335
313.40 1.335
313.50 1.335
313.60 1.334
313.70 1.334
313.80 1.334
313.90 1.334
314.00 1.334
314.10 1.334
314.20 1.334
314.30 1.334
314.40 1.334
314.50 1.334
314.60 1.333
314.70 1.333
314.80 1.333
314.90 1.333
315.00 1.333
315.10 1.333
315.20 1.333
315.30 1.333
315.40 1.333
315.50 1.333
315.60 1.332
315.70 1.332
315.80 1.332
315.90 1.332
316.00 1.332
316.10 1.332
316.20 1.332
316.30 1.332
316.40 1.332
316.50 1.331
316.60 1.331
316.70 1.331
316.80 1.331
316.90 1.331
317.00 1.331
317.10 1.331
317.20 1.331
317.30 1.331
317.40 1.33
317.50 1.33
317.60 1.33
317.70 1.33
317.80 1.33
317.90 1.33
318.00 1.33
318.10 1.33
318.20 1.33
318.30 1.329
318.40 1.329
318.50 1.329
318.60 1.329
318.70 1.329
318.80 1.329
318.90 1.329
319.00 1.329
319.10 1.328
319.20 1.328
319.30 1.328
319.40 1.328
319.50 1.328
319.60 1.328
319.70 1.328
319.80 1.328
319.90 1.328
320.00 1.327
320.10 1.327
320.20 1.327
320.30 1.327
320.40 1.327
320.50 1.327
320.60 1.327
320.70 1.327
320.80 1.326
320.90 1.326
321.00 1.326
321.10 1.326
321.20 1.326
321.30 1.326
321.40 1.326
321.50 1.325
321.60 1.325
321.70 1.325
321.80 1.325
321.90 1.325
322.00 1.325
322.10 1.325
322.20 1.325
322.30 1.324
322.40 1.324
322.50 1.324
322.60 1.324
322.70 1.324
322.80 1.324
322.90 1.324
323.00 1.323
323.10 1.323
323.20 1.323
323.30 1.323
323.40 1.323
323.50 1.323
323.60 1.323
323.70 1.322
323.80 1.322
323.90 1.322
324.00 1.322
324.10 1.322
324.20 1.322
324.30 1.322
324.40 1.321
324.50 1.321
324.60 1.321
324.70 1.321
324.80 1.321
324.90 1.321
325.00 1.321
325.10 1.32
325.20 1.32
325.30 1.32
325.40 1.32
325.50 1.32
325.60 1.32
325.70 1.32
325.80 1.319
325.90 1.319
326.00 1.319
326.10 1.319
326.20 1.319
326.30 1.319
326.40 1.319
326.50 1.318
326.60 1.318
326.70 1.318
326.80 1.318
326.90 1.318
327.00 1.318
327.10 1.317
327.20 1.317
327.30 1.317
327.40 1.317
327.50 1.317
327.60 1.317
327.70 1.317
327.80 1.316
327.90 1.316
328.00 1.316
328.10 1.316
328.20 1.316
328.30 1.316
328.40 1.315
328.50 1.315
328.60 1.315
328.70 1.315
328.80 1.315
328.90 1.315
329.00 1.314
329.10 1.314
329.20 1.314
329.30 1.314
329.40 1.314
329.50 1.314
329.60 1.314
329.70 1.313
329.80 1.313
329.90 1.313
330.00 1.313
330.10 1.313
330.20 1.313
330.30 1.312
330.40 1.312
330.50 1.312
330.60 1.312
330.70 1.312
330.80 1.312
330.90 1.311
331.00 1.311
331.10 1.311
331.20 1.311
331.30 1.311
331.40 1.311
331.50 1.31
331.60 1.31
331.70 1.31
331.80 1.31
331.90 1.31
332.00 1.31
332.10 1.309
332.20 1.309
332.30 1.309
332.40 1.309
332.50 1.309
332.60 1.308
332.70 1.308
332.80 1.308
332.90 1.308
333.00 1.308
333.10 1.308
333.20 1.307
333.30 1.307
333.40 1.307
333.50 1.307
333.60 1.307
333.70 1.307
333.80 1.306
333.90 1.306
334.00 1.306
334.10 1.306
334.20 1.306
334.30 1.305
334.40 1.305
334.50 1.305
334.60 1.305
334.70 1.305
334.80 1.305
334.90 1.304
335.00 1.304
335.10 1.304
335.20 1.304
335.30 1.304
335.40 1.303
335.50 1.303
335.60 1.303
335.70 1.303
335.80 1.303
335.90 1.303
336.00 1.302
336.10 1.302
336.20 1.302
336.30 1.302
336.40 1.302
336.50 1.301
336.60 1.301
336.70 1.301
336.80 1.301
336.90 1.301
337.00 1.301
337.10 1.3
337.20 1.3
337.30 1.3
337.40 1.3
337.50 1.3
337.60 1.299
337.70 1.299
337.80 1.299
337.90 1.299
338.00 1.299
338.10 1.298
338.20 1.298
338.30 1.298
338.40 1.298
338.50 1.298
338.60 1.297
338.70 1.297
338.80 1.297
338.90 1.297
339.00 1.297
339.10 1.297
339.20 1.296
339.30 1.296
339.40 1.296
339.50 1.296
339.60 1.296
339.70 1.295
339.80 1.295
339.90 1.295
340.00 1.295
340.10 1.295
340.20 1.294
340.30 1.294
340.40 1.294
340.50 1.294
340.60 1.294
340.70 1.293
340.80 1.293
340.90 1.293
341.00 1.293
341.10 1.293
341.20 1.292
341.30 1.292
341.40 1.292
341.50 1.292
341.60 1.291
341.70 1.291
341.80 1.291
341.90 1.291
342.00 1.291
342.10 1.29
342.20 1.29
342.30 1.29
342.40 1.29
342.50 1.29
342.60 1.289
342.70 1.289
342.80 1.289
342.90 1.289
343.00 1.289
343.10 1.288
343.20 1.288
343.30 1.288
343.40 1.288
343.50 1.288
343.60 1.287
343.70 1.287
343.80 1.287
343.90 1.287
344.00 1.287
344.10 1.286
344.20 1.286
344.30 1.286
344.40 1.286
344.50 1.285
344.60 1.285
344.70 1.285
344.80 1.285
344.90 1.285
345.00 1.284
345.10 1.284
345.20 1.284
345.30 1.284
345.40 1.284
345.50 1.283
345.60 1.283
345.70 1.283
345.80 1.283
345.90 1.283
346.00 1.282
346.10 1.282
346.20 1.282
346.30 1.282
346.40 1.281
346.50 1.281
346.60 1.281
346.70 1.281
346.80 1.281
346.90 1.28
347.00 1.28
347.10 1.28
347.20 1.28
347.30 1.279
347.40 1.279
347.50 1.279
347.60 1.279
347.70 1.279
347.80 1.278
347.90 1.278
348.00 1.278
348.10 1.278
348.20 1.277
348.30 1.277
348.40 1.277
348.50 1.277
348.60 1.277
348.70 1.276
348.80 1.276
348.90 1.276
349.00 1.276
349.10 1.275
349.20 1.275
349.30 1.275
349.40 1.275
349.50 1.275
349.60 1.274
349.70 1.274
349.80 1.274
349.90 1.274
350.00 1.273
350.10 1.273
350.20 1.273
350.30 1.273
350.40 1.273
350.50 1.272
350.60 1.272
350.70 1.272
350.80 1.272
350.90 1.271
351.00 1.271
351.10 1.271
351.20 1.271
351.30 1.271
351.40 1.27
351.50 1.27
351.60 1.27
351.70 1.27
351.80 1.269
351.90 1.269
352.00 1.269
352.10 1.269
352.20 1.268
352.30 1.268
352.40 1.268
352.50 1.268
352.60 1.268
352.70 1.267
352.80 1.267
352.90 1.267
353.00 1.267
353.10 1.266
353.20 1.266
353.30 1.266
353.40 1.266
353.50 1.265
353.60 1.265
353.70 1.265
353.80 1.265
353.90 1.264
354.00 1.264
354.10 1.264
354.20 1.264
354.30 1.264
354.40 1.263
354.50 1.263
354.60 1.263
354.70 1.263
354.80 1.262
354.90 1.262
355.00 1.262
355.10 1.262
355.20 1.261
355.30 1.261
355.40 1.261
355.50 1.261
355.60 1.26
355.70 1.26
355.80 1.26
355.90 1.26
356.00 1.259
356.10 1.259
356.20 1.259
356.30 1.259
356.40 1.259
356.50 1.258
356.60 1.258
356.70 1.258
356.80 1.258
356.90 1.257
357.00 1.257
357.10 1.257
357.20 1.257
357.30 1.256
357.40 1.256
357.50 1.256
357.60 1.256
357.70 1.255
357.80 1.255
357.90 1.255
358.00 1.255
358.10 1.254
358.20 1.254
358.30 1.254
358.40 1.254
358.50 1.253
358.60 1.253
358.70 1.253
358.80 1.253
358.90 1.252
359.00 1.252
359.10 1.252
359.20 1.252
359.30 1.251
359.40 1.251
359.50 1.251
359.60 1.251
359.70 1.251
359.80 1.25
359.90 1.25
360.00 1.25
360.10 1.25
360.20 1.249
360.30 1.249
360.40 1.249
360.50 1.249
360.60 1.248
360.70 1.248
360.80 1.248
360.90 1.248
361.00 1.247
361.10 1.247
361.20 1.247
361.30 1.247
361.40 1.246
361.50 1.246
361.60 1.246
361.70 1.246
361.80 1.245
361.90 1.245
362.00 1.245
362.10 1.245
362.20 1.244
362.30 1.244
362.40 1.244
362.50 1.244
362.60 1.243
362.70 1.243
362.80 1.243
362.90 1.243
363.00 1.242
363.10 1.242
363.20 1.242
363.30 1.241
363.40 1.241
363.50 1.241
363.60 1.241
363.70 1.24
363.80 1.24
363.90 1.24
364.00 1.24
364.10 1.239
364.20 1.239
364.30 1.239
364.40 1.238
364.50 1.238
364.60 1.238
364.70 1.238
364.80 1.237
364.90 1.237
365.00 1.237
365.10 1.237
365.20 1.236
365.30 1.236
365.40 1.236
365.50 1.235
365.60 1.235
365.70 1.235
365.80 1.235
365.90 1.234
366.00 1.234
366.10 1.234
366.20 1.234
366.30 1.233
366.40 1.233
366.50 1.233
366.60 1.233
366.70 1.232
366.80 1.232
366.90 1.232
367.00 1.232
367.10 1.231
367.20 1.231
367.30 1.231
367.40 1.231
367.50 1.231
367.60 1.23
367.70 1.23
367.80 1.23
367.90 1.23
368.00 1.229
368.10 1.229
368.20 1.229
368.30 1.229
368.40 1.229
368.50 1.229
368.60 1.229
368.70 1.229
368.80 1.229
368.90 1.229
369.00 1.229
369.10 1.229
369.20 1.229
369.30 1.229
369.40 1.229
369.50 1.229
369.60 1.229
369.70 1.229
369.80 1.229
369.90 1.229
370.00 1.229
370.10 1.229
370.20 1.229
370.30 1.23
370.40 1.23
370.50 1.231
370.60 1.231
370.70 1.232
370.80 1.232
370.90 1.233
371.00 1.233
371.10 1.234
371.20 1.234
371.30 1.234
371.40 1.235
371.50 1.235
371.60 1.236
371.70 1.236
371.80 1.237
371.90 1.237
372.00 1.237
372.10 1.238
372.20 1.239
372.30 1.24
372.40 1.241
372.50 1.242
372.60 1.243
372.70 1.244
372.80 1.245
372.90 1.246
373.00 1.247
373.10 1.248
373.20 1.249
373.30 1.25
373.40 1.251
373.50 1.252
373.60 1.253
373.70 1.254
373.80 1.255
373.90 1.256
374.00 1.257
374.10 1.258
374.20 1.259
374.30 1.26
374.40 1.261
374.50 1.263
374.60 1.264
374.70 1.265
374.80 1.266
374.90 1.267
375.00 1.268
375.10 1.269
375.20 1.27
375.30 1.271
375.40 1.273
375.50 1.274
375.60 1.275
375.70 1.276
375.80 1.277
375.90 1.278
376.00 1.279
376.10 1.28
376.20 1.281
376.30 1.281
376.40 1.282
376.50 1.283
376.60 1.283
376.70 1.284
376.80 1.285
376.90 1.285
377.00 1.286
377.10 1.286
377.20 1.285
377.30 1.285
377.40 1.284
377.50 1.284
377.60 1.284
377.70 1.283
377.80 1.283
377.90 1.283
378.00 1.282
378.10 1.278
378.20 1.273
378.30 1.268
378.40 1.264
378.50 1.259
378.60 1.255
378.70 1.25
378.80 1.245
378.90 1.241
379.00 1.236
379.10 1.226
379.20 1.217
379.30 1.207
379.40 1.197
379.50 1.187
379.60 1.178
379.70 1.168
379.80 1.158
379.90 1.149
380.00 1.139
380.10 1.152
380.20 1.164
380.30 1.177
380.40 1.19
380.50 1.203
380.60 1.215
380.70 1.228
380.80 1.241
380.90 1.253
381.00 1.266
381.10 1.268
381.20 1.27
381.30 1.273
381.40 1.275
381.50 1.277
381.60 1.277
381.70 1.277
381.80 1.275
381.90 1.273
382.00 1.27
382.10 1.266
382.20 1.261
382.30 1.245
382.40 1.229
382.50 1.213
382.60 1.197
382.70 1.181
382.80 1.165
382.90 1.149
383.00 1.134
383.10 1.118
383.20 1.102
383.30 1.061
383.40 1
383.50 0.9123
383.60 0.9335
383.70 1.016
383.80 1.072
383.90 1.111
384.00 1.14
384.10 1.165
384.20 1.186
384.30 1.205
384.40 1.221
384.50 1.235
384.60 1.246
384.70 1.256
384.80 1.265
384.90 1.272
385.00 1.278
385.10 1.282
385.20 1.287
385.30 1.29
385.40 1.293
385.50 1.296
385.60 1.298
385.70 1.299
385.80 1.3
385.90 1.301
386.00 1.301
386.10 1.301
386.20 1.301
386.30 1.3
386.40 1.299
386.50 1.298
386.60 1.296
386.70 1.293
386.80 1.291
386.90 1.287
387.00 1.284
387.10 1.279
387.20 1.274
387.30 1.268
387.40 1.262
387.50 1.254
387.60 1.245
387.70 1.234
387.80 1.221
387.90 1.207
388.00 1.19
388.10 1.168
388.20 1.142
388.30 1.114
388.40 1.077
388.50 1.034
388.60 0.9859
388.70 0.9099
388.80 0.8108
388.90 0.6887
389.00 0.804
389.10 0.9011
389.20 0.98
389.30 1.029
389.40 1.073
389.50 1.11
389.60 1.139
389.70 1.165
389.80 1.188
389.90 1.205
390.00 1.221
390.10 1.234
390.20 1.245
390.30 1.254
390.40 1.263
390.50 1.27
390.60 1.276
390.70 1.282
390.80 1.287
390.90 1.292
391.00 1.296
391.10 1.3
391.20 1.303
391.30 1.306
391.40 1.309
391.50 1.311
391.60 1.313
391.70 1.315
391.80 1.317
391.90 1.318
392.00 1.319
392.10 1.321
392.20 1.322
392.30 1.322
392.40 1.323
392.50 1.323
392.60 1.323
392.70 1.323
392.80 1.323
392.90 1.323
393.00 1.323
393.10 1.322
393.20 1.322
393.30 1.321
393.40 1.32
393.50 1.318
393.60 1.317
393.70 1.316
393.80 1.314
393.90 1.312
394.00 1.31
394.10 1.307
394.20 1.304
394.30 1.301
394.40 1.298
394.50 1.295
394.60 1.291
394.70 1.286
394.80 1.282
394.90 1.277
395.00 1.271
395.10 1.265
395.20 1.258
395.30 1.25
395.40 1.242
395.50 1.233
395.60 1.222
395.70 1.21
395.80 1.197
395.90 1.181
396.00 1.163
396.10 1.143
396.20 1.117
396.30 1.087
396.40 1.052
396.50 1.004
396.60 0.9489
396.70 0.885
396.80 0.7884
396.90 0.6605
397.00 0.5015
397.10 0.6485
397.20 0.7726
397.30 0.874
397.40 0.9397
397.50 0.9965
397.60 1.045
397.70 1.08
397.80 1.111
397.90 1.138
398.00 1.158
398.10 1.176
398.20 1.192
398.30 1.204
398.40 1.216
398.50 1.227
398.60 1.235
398.70 1.244
398.80 1.251
398.90 1.257
399.00 1.264
399.10 1.269
399.20 1.274
399.30 1.278
399.40 1.283
399.50 1.286
399.60 1.29
399.70 1.293
399.80 1.296
399.90 1.299
400.00 1.301
400.10 1.303
400.20 1.306
400.30 1.307
400.40 1.309
400.50 1.311
400.60 1.312
400.70 1.313
400.80 1.315
400.90 1.316
401.00 1.317
401.10 1.318
401.20 1.318
401.30 1.319
401.40 1.32
401.50 1.32
401.60 1.321
401.70 1.321
401.80 1.322
401.90 1.322
402.00 1.322
402.10 1.322
402.20 1.323
402.30 1.323
402.40 1.323
402.50 1.323
402.60 1.323
402.70 1.323
402.80 1.323
402.90 1.323
403.00 1.323
403.10 1.322
403.20 1.322
403.30 1.322
403.40 1.322
403.50 1.321
403.60 1.321
403.70 1.321
403.80 1.32
403.90 1.32
404.00 1.319
404.10 1.319
404.20 1.318
404.30 1.318
404.40 1.317
404.50 1.317
404.60 1.316
404.70 1.315
404.80 1.315
404.90 1.314
405.00 1.313
405.10 1.312
405.20 1.311
405.30 1.31
405.40 1.309
405.50 1.308
405.60 1.307
405.70 1.306
405.80 1.304
405.90 1.303
406.00 1.301
406.10 1.3
406.20 1.298
406.30 1.296
406.40 1.294
406.50 1.292
406.60 1.29
406.70 1.288
406.80 1.285
406.90 1.283
407.00 1.28
407.10 1.277
407.20 1.273
407.30 1.27
407.40 1.266
407.50 1.262
407.60 1.258
407.70 1.253
407.80 1.248
407.90 1.242
408.00 1.236
408.10 1.23
408.20 1.222
408.30 1.215
408.40 1.206
408.50 1.197
408.60 1.187
408.70 1.176
408.80 1.163
408.90 1.15
409.00 1.135
409.10 1.117
409.20 1.096
409.30 1.074
409.40 1.044
409.50 1.01
409.60 0.9703
409.70 0.9155
409.80 0.8492
409.90 0.7714
410.00 0.6511
410.10 0.5377
410.20 0.431
410.30 0.5883
410.40 0.7172
410.50 0.8179
410.60 0.886
410.70 0.9441
410.80 0.9922
410.90 1.027
411.00 1.058
411.10 1.084
411.20 1.104
411.30 1.122
411.40 1.138
411.50 1.152
411.60 1.164
411.70 1.175
411.80 1.185
411.90 1.194
412.00 1.202
412.10 1.209
412.20 1.216
412.30 1.222
412.40 1.228
412.50 1.233
412.60 1.238
412.70 1.242
412.80 1.246
412.90 1.249
413.00 1.253
413.10 1.256
413.20 1.258
413.30 1.261
413.40 1.263
413.50 1.265
413.60 1.267
413.70 1.269
413.80 1.271
413.90 1.272
414.00 1.273
414.10 1.275
414.20 1.276
414.30 1.277
414.40 1.278
414.50 1.279
414.60 1.279
414.70 1.28
414.80 1.281
414.90 1.281
415.00 1.282
415.10 1.282
415.20 1.283
415.30 1.283
415.40 1.283
415.50 1.284
415.60 1.284
415.70 1.284
415.80 1.284
415.90 1.284
416.00 1.285
416.10 1.285
416.20 1.285
416.30 1.285
416.40 1.285
416.50 1.285
416.60 1.285
416.70 1.285
416.80 1.285
416.90 1.285
417.00 1.285
417.10 1.285
417.20 1.284
417.30 1.284
417.40 1.284
417.50 1.284
417.60 1.284
417.70 1.284
417.80 1.284
417.90 1.283
418.00 1.283
418.10 1.283
418.20 1.283
418.30 1.283
418.40 1.282
418.50 1.282
418.60 1.282
418.70 1.282
418.80 1.282
418.90 1.281
419.00 1.281
419.10 1.281
419.20 1.281
419.30 1.28
419.40 1.28
419.50 1.28
419.60 1.279
419.70 1.279
419.80 1.279
419.90 1.279
420.00 1.278
420.10 1.278
420.20 1.278
420.30 1.277
420.40 1.277
420.50 1.277
420.60 1.276
420.70 1.276
420.80 1.276
420.90 1.275
421.00 1.275
421.10 1.275
421.20 1.274
421.30 1.274
421.40 1.274
421.50 1.273
421.60 1.273
421.70 1.273
421.80 1.272
421.90 1.272
422.00 1.272
422.10 1.271
422.20 1.271
422.30 1.27
422.40 1.27
422.50 1.27
422.60 1.269
422.70 1.269
422.80 1.269
422.90 1.268
423.00 1.268
423.10 1.267
423.20 1.267
423.30 1.267
423.40 1.266
423.50 1.266
423.60 1.265
423.70 1.265
423.80 1.265
423.90 1.264
424.00 1.264
424.10 1.263
424.20 1.263
424.30 1.262
424.40 1.262
424.50 1.262
424.60 1.261
424.70 1.261
424.80 1.26
424.90 1.26
425.00 1.259
425.10 1.259
425.20 1.258
425.30 1.258
425.40 1.257
425.50 1.257
425.60 1.256
425.70 1.256
425.80 1.255
425.90 1.255
426.00 1.254
426.10 1.254
426.20 1.253
426.30 1.253
426.40 1.252
426.50 1.252
426.60 1.251
426.70 1.251
426.80 1.25
426.90 1.249
427.00 1.249
427.10 1.248
427.20 1.248
427.30 1.247
427.40 1.246
427.50 1.246
427.60 1.245
427.70 1.244
427.80 1.244
427.90 1.243
428.00 1.242
428.10 1.241
428.20 1.24
428.30 1.24
428.40 1.239
428.50 1.238
428.60 1.237
428.70 1.236
428.80 1.235
428.90 1.234
429.00 1.233
429.10 1.232
429.20 1.231
429.30 1.229
429.40 1.228
429.50 1.227
429.60 1.225
429.70 1.224
429.80 1.222
429.90 1.221
430.00 1.219
430.10 1.217
430.20 1.215
430.30 1.213
430.40 1.211
430.50 1.209
430.60 1.206
430.70 1.204
430.80 1.201
430.90 1.198
431.00 1.195
431.10 1.192
431.20 1.188
431.30 1.184
431.40 1.181
431.50 1.176
431.60 1.172
431.70 1.167
431.80 1.162
431.90 1.156
432.00 1.149
432.10 1.142
432.20 1.134
432.30 1.126
432.40 1.116
432.50 1.105
432.60 1.092
432.70 1.079
432.80 1.062
432.90 1.045
433.00 1.026
433.10 1.005
433.20 0.9818
433.30 0.956
433.40 0.9216
433.50 0.8799
433.60 0.8312
433.70 0.7594
433.80 0.6705
433.90 0.5644
434.00 0.4431
434.10 0.4465
434.20 0.5744
434.30 0.6781
434.40 0.7649
434.50 0.8349
434.60 0.8822
434.70 0.9225
434.80 0.9559
434.90 0.9807
435.00 1.003
435.10 1.024
435.20 1.041
435.30 1.058
435.40 1.073
435.50 1.086
435.60 1.098
435.70 1.108
435.80 1.117
435.90 1.125
436.00 1.132
436.10 1.138
436.20 1.144
436.30 1.149
436.40 1.153
436.50 1.158
436.60 1.161
436.70 1.165
436.80 1.168
436.90 1.171
437.00 1.173
437.10 1.176
437.20 1.178
437.30 1.18
437.40 1.182
437.50 1.184
437.60 1.186
437.70 1.187
437.80 1.189
437.90 1.19
438.00 1.191
438.10 1.192
438.20 1.193
438.30 1.194
438.40 1.195
438.50 1.196
438.60 1.196
438.70 1.197
438.80 1.197
438.90 1.198
439.00 1.198
439.10 1.198
439.20 1.199
439.30 1.199
439.40 1.199
439.50 1.199
439.60 1.2
439.70 1.2
439.80 1.2
439.90 1.2
440.00 1.2
440.10 1.2
440.20 1.2
440.30 1.2
440.40 1.2
440.50 1.2
440.60 1.2
440.70 1.2
440.80 1.2
440.90 1.2
441.00 1.2
441.10 1.2
441.20 1.199
441.30 1.199
441.40 1.199
441.50 1.199
441.60 1.199
441.70 1.199
441.80 1.199
441.90 1.198
442.00 1.198
442.10 1.198
442.20 1.198
442.30 1.198
442.40 1.197
442.50 1.197
442.60 1.197
442.70 1.197
442.80 1.196
442.90 1.196
443.00 1.196
443.10 1.196
443.20 1.195
443.30 1.195
443.40 1.195
443.50 1.195
443.60 1.194
443.70 1.194
443.80 1.194
443.90 1.193
444.00 1.193
444.10 1.193
444.20 1.193
444.30 1.192
444.40 1.192
444.50 1.192
444.60 1.191
444.70 1.191
444.80 1.191
444.90 1.191
445.00 1.19
445.10 1.19
445.20 1.19
445.30 1.189
445.40 1.189
445.50 1.189
445.60 1.189
445.70 1.188
445.80 1.188
445.90 1.188
446.00 1.187
446.10 1.187
446.20 1.187
446.30 1.186
446.40 1.186
446.50 1.186
446.60 1.185
446.70 1.185
446.80 1.185
446.90 1.184
447.00 1.184
447.10 1.184
447.20 1.183
447.30 1.183
447.40 1.183
447.50 1.182
447.60 1.182
447.70 1.182
447.80 1.181
447.90 1.181
448.00 1.181
448.10 1.18
448.20 1.18
448.30 1.18
448.40 1.179
448.50 1.179
448.60 1.179
448.70 1.178
448.80 1.178
448.90 1.178
449.00 1.177
449.10 1.177
449.20 1.177
449.30 1.176
449.40 1.176
449.50 1.176
449.60 1.175
449.70 1.175
449.80 1.175
449.90 1.174
450.00 1.174
450.10 1.174
450.20 1.173
450.30 1.173
450.40 1.173
450.50 1.172
450.60 1.172
450.70 1.172
450.80 1.171
450.90 1.171
451.00 1.17
451.10 1.17
451.20 1.17
451.30 1.169
451.40 1.169
451.50 1.169
451.60 1.168
451.70 1.168
451.80 1.168
451.90 1.167
452.00 1.167
452.10 1.167
452.20 1.166
452.30 1.166
452.40 1.166
452.50 1.165
452.60 1.165
452.70 1.164
452.80 1.164
452.90 1.164
453.00 1.163
453.10 1.163
453.20 1.163
453.30 1.162
453.40 1.162
453.50 1.162
453.60 1.161
453.70 1.161
453.80 1.161
453.90 1.16
