# Version 2.1 - nm, norm@500 to 1, cut digits, bergeron_25000_80.dat_25000
# Wavelength(nm)  Flambda(ergs/cm^s/s/nm)
300.00 4.176
300.10 4.172
300.20 4.167
300.30 4.163
300.40 4.159
300.50 4.154
300.60 4.15
300.70 4.145
300.80 4.141
300.90 4.136
301.00 4.132
301.10 4.128
301.20 4.123
301.30 4.119
301.40 4.115
301.50 4.11
301.60 4.106
301.70 4.101
301.80 4.097
301.90 4.093
302.00 4.088
302.10 4.084
302.20 4.08
302.30 4.075
302.40 4.071
302.50 4.067
302.60 4.063
302.70 4.058
302.80 4.054
302.90 4.05
303.00 4.045
303.10 4.041
303.20 4.037
303.30 4.033
303.40 4.028
303.50 4.024
303.60 4.02
303.70 4.016
303.80 4.011
303.90 4.007
304.00 4.003
304.10 3.999
304.20 3.995
304.30 3.99
304.40 3.986
304.50 3.982
304.60 3.978
304.70 3.974
304.80 3.969
304.90 3.965
305.00 3.961
305.10 3.957
305.20 3.953
305.30 3.949
305.40 3.944
305.50 3.94
305.60 3.936
305.70 3.932
305.80 3.928
305.90 3.924
306.00 3.92
306.10 3.916
306.20 3.911
306.30 3.907
306.40 3.903
306.50 3.899
306.60 3.895
306.70 3.891
306.80 3.887
306.90 3.883
307.00 3.879
307.10 3.875
307.20 3.871
307.30 3.867
307.40 3.863
307.50 3.859
307.60 3.855
307.70 3.851
307.80 3.847
307.90 3.843
308.00 3.839
308.10 3.835
308.20 3.831
308.30 3.827
308.40 3.823
308.50 3.819
308.60 3.815
308.70 3.811
308.80 3.807
308.90 3.803
309.00 3.799
309.10 3.795
309.20 3.791
309.30 3.787
309.40 3.783
309.50 3.779
309.60 3.775
309.70 3.771
309.80 3.768
309.90 3.764
310.00 3.76
310.10 3.756
310.20 3.752
310.30 3.748
310.40 3.744
310.50 3.74
310.60 3.737
310.70 3.733
310.80 3.729
310.90 3.725
311.00 3.721
311.10 3.717
311.20 3.713
311.30 3.71
311.40 3.706
311.50 3.702
311.60 3.698
311.70 3.694
311.80 3.691
311.90 3.687
312.00 3.683
312.10 3.679
312.20 3.675
312.30 3.672
312.40 3.668
312.50 3.664
312.60 3.66
312.70 3.657
312.80 3.653
312.90 3.649
313.00 3.645
313.10 3.642
313.20 3.638
313.30 3.634
313.40 3.63
313.50 3.627
313.60 3.623
313.70 3.619
313.80 3.616
313.90 3.612
314.00 3.608
314.10 3.604
314.20 3.601
314.30 3.597
314.40 3.593
314.50 3.59
314.60 3.586
314.70 3.582
314.80 3.579
314.90 3.575
315.00 3.571
315.10 3.568
315.20 3.564
315.30 3.561
315.40 3.557
315.50 3.553
315.60 3.55
315.70 3.546
315.80 3.543
315.90 3.539
316.00 3.535
316.10 3.532
316.20 3.528
316.30 3.525
316.40 3.521
316.50 3.517
316.60 3.514
316.70 3.51
316.80 3.507
316.90 3.503
317.00 3.5
317.10 3.496
317.20 3.493
317.30 3.489
317.40 3.485
317.50 3.482
317.60 3.478
317.70 3.475
317.80 3.471
317.90 3.468
318.00 3.464
318.10 3.461
318.20 3.457
318.30 3.454
318.40 3.45
318.50 3.447
318.60 3.443
318.70 3.44
318.80 3.436
318.90 3.433
319.00 3.43
319.10 3.426
319.20 3.423
319.30 3.419
319.40 3.416
319.50 3.412
319.60 3.409
319.70 3.405
319.80 3.402
319.90 3.399
320.00 3.395
320.10 3.392
320.20 3.388
320.30 3.385
320.40 3.382
320.50 3.378
320.60 3.375
320.70 3.371
320.80 3.368
320.90 3.365
321.00 3.361
321.10 3.358
321.20 3.355
321.30 3.351
321.40 3.348
321.50 3.344
321.60 3.341
321.70 3.338
321.80 3.334
321.90 3.331
322.00 3.328
322.10 3.324
322.20 3.321
322.30 3.318
322.40 3.315
322.50 3.311
322.60 3.308
322.70 3.305
322.80 3.301
322.90 3.298
323.00 3.295
323.10 3.291
323.20 3.288
323.30 3.285
323.40 3.282
323.50 3.278
323.60 3.275
323.70 3.272
323.80 3.269
323.90 3.265
324.00 3.262
324.10 3.259
324.20 3.256
324.30 3.252
324.40 3.249
324.50 3.246
324.60 3.243
324.70 3.239
324.80 3.236
324.90 3.233
325.00 3.23
325.10 3.227
325.20 3.223
325.30 3.22
325.40 3.217
325.50 3.214
325.60 3.211
325.70 3.208
325.80 3.204
325.90 3.201
326.00 3.198
326.10 3.195
326.20 3.192
326.30 3.189
326.40 3.185
326.50 3.182
326.60 3.179
326.70 3.176
326.80 3.173
326.90 3.17
327.00 3.167
327.10 3.164
327.20 3.16
327.30 3.157
327.40 3.154
327.50 3.151
327.60 3.148
327.70 3.145
327.80 3.142
327.90 3.139
328.00 3.136
328.10 3.133
328.20 3.129
328.30 3.126
328.40 3.123
328.50 3.12
328.60 3.117
328.70 3.114
328.80 3.111
328.90 3.108
329.00 3.105
329.10 3.102
329.20 3.099
329.30 3.096
329.40 3.093
329.50 3.09
329.60 3.087
329.70 3.084
329.80 3.081
329.90 3.078
330.00 3.075
330.10 3.072
330.20 3.069
330.30 3.066
330.40 3.063
330.50 3.06
330.60 3.057
330.70 3.054
330.80 3.051
330.90 3.048
331.00 3.045
331.10 3.042
331.20 3.039
331.30 3.036
331.40 3.033
331.50 3.03
331.60 3.027
331.70 3.024
331.80 3.021
331.90 3.018
332.00 3.015
332.10 3.012
332.20 3.01
332.30 3.007
332.40 3.004
332.50 3.001
332.60 2.998
332.70 2.995
332.80 2.992
332.90 2.989
333.00 2.986
333.10 2.983
333.20 2.98
333.30 2.978
333.40 2.975
333.50 2.972
333.60 2.969
333.70 2.966
333.80 2.963
333.90 2.96
334.00 2.957
334.10 2.955
334.20 2.952
334.30 2.949
334.40 2.946
334.50 2.943
334.60 2.94
334.70 2.938
334.80 2.935
334.90 2.932
335.00 2.929
335.10 2.926
335.20 2.923
335.30 2.921
335.40 2.918
335.50 2.915
335.60 2.912
335.70 2.909
335.80 2.907
335.90 2.904
336.00 2.901
336.10 2.898
336.20 2.895
336.30 2.893
336.40 2.89
336.50 2.887
336.60 2.884
336.70 2.882
336.80 2.879
336.90 2.876
337.00 2.873
337.10 2.871
337.20 2.868
337.30 2.865
337.40 2.862
337.50 2.86
337.60 2.857
337.70 2.854
337.80 2.851
337.90 2.849
338.00 2.846
338.10 2.843
338.20 2.84
338.30 2.838
338.40 2.835
338.50 2.832
338.60 2.83
338.70 2.827
338.80 2.824
338.90 2.822
339.00 2.819
339.10 2.816
339.20 2.813
339.30 2.811
339.40 2.808
339.50 2.805
339.60 2.803
339.70 2.8
339.80 2.797
339.90 2.795
340.00 2.792
340.10 2.789
340.20 2.787
340.30 2.784
340.40 2.782
340.50 2.779
340.60 2.776
340.70 2.774
340.80 2.771
340.90 2.768
341.00 2.766
341.10 2.763
341.20 2.76
341.30 2.758
341.40 2.755
341.50 2.753
341.60 2.75
341.70 2.747
341.80 2.745
341.90 2.742
342.00 2.74
342.10 2.737
342.20 2.734
342.30 2.732
342.40 2.729
342.50 2.727
342.60 2.724
342.70 2.722
342.80 2.719
342.90 2.716
343.00 2.714
343.10 2.711
343.20 2.709
343.30 2.706
343.40 2.704
343.50 2.701
343.60 2.699
343.70 2.696
343.80 2.693
343.90 2.691
344.00 2.688
344.10 2.686
344.20 2.683
344.30 2.681
344.40 2.678
344.50 2.676
344.60 2.673
344.70 2.671
344.80 2.668
344.90 2.666
345.00 2.663
345.10 2.661
345.20 2.658
345.30 2.656
345.40 2.653
345.50 2.651
345.60 2.648
345.70 2.646
345.80 2.643
345.90 2.641
346.00 2.638
346.10 2.636
346.20 2.633
346.30 2.631
346.40 2.629
346.50 2.626
346.60 2.624
346.70 2.621
346.80 2.619
346.90 2.616
347.00 2.614
347.10 2.611
347.20 2.609
347.30 2.607
347.40 2.604
347.50 2.602
347.60 2.599
347.70 2.597
347.80 2.594
347.90 2.592
348.00 2.59
348.10 2.587
348.20 2.585
348.30 2.582
348.40 2.58
348.50 2.578
348.60 2.575
348.70 2.573
348.80 2.57
348.90 2.568
349.00 2.566
349.10 2.563
349.20 2.561
349.30 2.558
349.40 2.556
349.50 2.554
349.60 2.551
349.70 2.549
349.80 2.547
349.90 2.544
350.00 2.542
350.10 2.54
350.20 2.537
350.30 2.535
350.40 2.532
350.50 2.53
350.60 2.528
350.70 2.525
350.80 2.523
350.90 2.521
351.00 2.518
351.10 2.516
351.20 2.514
351.30 2.511
351.40 2.509
351.50 2.507
351.60 2.505
351.70 2.502
351.80 2.5
351.90 2.498
352.00 2.495
352.10 2.493
352.20 2.491
352.30 2.488
352.40 2.486
352.50 2.484
352.60 2.482
352.70 2.479
352.80 2.477
352.90 2.475
353.00 2.472
353.10 2.47
353.20 2.468
353.30 2.466
353.40 2.463
353.50 2.461
353.60 2.459
353.70 2.457
353.80 2.454
353.90 2.452
354.00 2.45
354.10 2.448
354.20 2.445
354.30 2.443
354.40 2.441
354.50 2.439
354.60 2.436
354.70 2.434
354.80 2.432
354.90 2.43
355.00 2.428
355.10 2.425
355.20 2.423
355.30 2.421
355.40 2.419
355.50 2.416
355.60 2.414
355.70 2.412
355.80 2.41
355.90 2.408
356.00 2.405
356.10 2.403
356.20 2.401
356.30 2.399
356.40 2.397
356.50 2.394
356.60 2.392
356.70 2.39
356.80 2.388
356.90 2.386
357.00 2.384
357.10 2.381
357.20 2.379
357.30 2.377
357.40 2.375
357.50 2.373
357.60 2.371
357.70 2.368
357.80 2.366
357.90 2.364
358.00 2.362
358.10 2.36
358.20 2.358
358.30 2.356
358.40 2.353
358.50 2.351
358.60 2.349
358.70 2.347
358.80 2.345
358.90 2.343
359.00 2.341
359.10 2.339
359.20 2.336
359.30 2.334
359.40 2.332
359.50 2.33
359.60 2.328
359.70 2.326
359.80 2.324
359.90 2.322
360.00 2.32
360.10 2.318
360.20 2.315
360.30 2.313
360.40 2.311
360.50 2.309
360.60 2.307
360.70 2.305
360.80 2.303
360.90 2.301
361.00 2.299
361.10 2.297
361.20 2.295
361.30 2.293
361.40 2.291
361.50 2.288
361.60 2.286
361.70 2.284
361.80 2.282
361.90 2.28
362.00 2.278
362.10 2.276
362.20 2.274
362.30 2.272
362.40 2.27
362.50 2.268
362.60 2.266
362.70 2.264
362.80 2.262
362.90 2.26
363.00 2.258
363.10 2.256
363.20 2.254
363.30 2.252
363.40 2.25
363.50 2.248
363.60 2.246
363.70 2.244
363.80 2.242
363.90 2.24
364.00 2.238
364.10 2.236
364.20 2.234
364.30 2.232
364.40 2.23
364.50 2.228
364.60 2.226
364.70 2.224
364.80 2.222
364.90 2.22
365.00 2.218
365.10 2.216
365.20 2.214
365.30 2.212
365.40 2.21
365.50 2.208
365.60 2.206
365.70 2.204
365.80 2.202
365.90 2.2
366.00 2.198
366.10 2.196
366.20 2.194
366.30 2.191
366.40 2.189
366.50 2.187
366.60 2.185
366.70 2.182
366.80 2.18
366.90 2.178
367.00 2.176
367.10 2.173
367.20 2.171
367.30 2.169
367.40 2.167
367.50 2.164
367.60 2.162
367.70 2.16
367.80 2.158
367.90 2.155
368.00 2.153
368.10 2.151
368.20 2.149
368.30 2.147
368.40 2.144
368.50 2.142
368.60 2.14
368.70 2.138
368.80 2.136
368.90 2.133
369.00 2.131
369.10 2.129
369.20 2.127
369.30 2.125
369.40 2.123
369.50 2.12
369.60 2.118
369.70 2.116
369.80 2.114
369.90 2.112
370.00 2.11
370.10 2.108
370.20 2.106
370.30 2.103
370.40 2.101
370.50 2.099
370.60 2.097
370.70 2.095
370.80 2.093
370.90 2.091
371.00 2.089
371.10 2.087
371.20 2.085
371.30 2.083
371.40 2.081
371.50 2.079
371.60 2.077
371.70 2.075
371.80 2.072
371.90 2.07
372.00 2.068
372.10 2.067
372.20 2.065
372.30 2.063
372.40 2.061
372.50 2.059
372.60 2.058
372.70 2.056
372.80 2.054
372.90 2.052
373.00 2.05
373.10 2.049
373.20 2.047
373.30 2.045
373.40 2.043
373.50 2.041
373.60 2.04
373.70 2.038
373.80 2.036
373.90 2.034
374.00 2.033
374.10 2.031
374.20 2.03
374.30 2.028
374.40 2.026
374.50 2.025
374.60 2.023
374.70 2.022
374.80 2.02
374.90 2.019
375.00 2.017
375.10 2.016
375.20 2.014
375.30 2.013
375.40 2.011
375.50 2.01
375.60 2.008
375.70 2.007
375.80 2.005
375.90 2.004
376.00 2.002
376.10 2
376.20 1.998
376.30 1.996
376.40 1.995
376.50 1.993
376.60 1.991
376.70 1.989
376.80 1.987
376.90 1.985
377.00 1.983
377.10 1.983
377.20 1.982
377.30 1.982
377.40 1.982
377.50 1.981
377.60 1.981
377.70 1.981
377.80 1.98
377.90 1.98
378.00 1.98
378.10 1.978
378.20 1.976
378.30 1.974
378.40 1.972
378.50 1.971
378.60 1.969
378.70 1.967
378.80 1.965
378.90 1.963
379.00 1.962
379.10 1.96
379.20 1.957
379.30 1.955
379.40 1.953
379.50 1.951
379.60 1.949
379.70 1.947
379.80 1.945
379.90 1.943
380.00 1.941
380.10 1.942
380.20 1.943
380.30 1.945
380.40 1.946
380.50 1.948
380.60 1.949
380.70 1.95
380.80 1.952
380.90 1.953
381.00 1.954
381.10 1.954
381.20 1.953
381.30 1.952
381.40 1.951
381.50 1.95
381.60 1.948
381.70 1.946
381.80 1.943
381.90 1.94
382.00 1.937
382.10 1.933
382.20 1.929
382.30 1.922
382.40 1.916
382.50 1.91
382.60 1.903
382.70 1.897
382.80 1.891
382.90 1.885
383.00 1.878
383.10 1.872
383.20 1.866
383.30 1.858
383.40 1.851
383.50 1.846
383.60 1.846
383.70 1.852
383.80 1.858
383.90 1.865
384.00 1.872
384.10 1.879
384.20 1.885
384.30 1.891
384.40 1.897
384.50 1.903
384.60 1.908
384.70 1.913
384.80 1.917
384.90 1.921
385.00 1.924
385.10 1.927
385.20 1.929
385.30 1.931
385.40 1.932
385.50 1.933
385.60 1.933
385.70 1.933
385.80 1.932
385.90 1.931
386.00 1.929
386.10 1.927
386.20 1.924
386.30 1.921
386.40 1.917
386.50 1.912
386.60 1.907
386.70 1.901
386.80 1.895
386.90 1.888
387.00 1.88
387.10 1.872
387.20 1.863
387.30 1.854
387.40 1.844
387.50 1.833
387.60 1.822
387.70 1.81
387.80 1.797
387.90 1.784
388.00 1.771
388.10 1.757
388.20 1.742
388.30 1.727
388.40 1.712
388.50 1.696
388.60 1.681
388.70 1.667
388.80 1.655
388.90 1.646
389.00 1.653
389.10 1.663
389.20 1.676
389.30 1.691
389.40 1.705
389.50 1.72
389.60 1.734
389.70 1.748
389.80 1.761
389.90 1.774
390.00 1.787
390.10 1.799
390.20 1.81
390.30 1.821
390.40 1.832
390.50 1.842
390.60 1.851
390.70 1.861
390.80 1.869
390.90 1.877
391.00 1.885
391.10 1.891
391.20 1.898
391.30 1.904
391.40 1.909
391.50 1.914
391.60 1.918
391.70 1.922
391.80 1.926
391.90 1.929
392.00 1.931
392.10 1.933
392.20 1.934
392.30 1.935
392.40 1.935
392.50 1.935
392.60 1.934
392.70 1.933
392.80 1.931
392.90 1.929
393.00 1.926
393.10 1.923
393.20 1.919
393.30 1.915
393.40 1.91
393.50 1.904
393.60 1.898
393.70 1.892
393.80 1.884
393.90 1.877
394.00 1.869
394.10 1.859
394.20 1.85
394.30 1.84
394.40 1.829
394.50 1.818
394.60 1.806
394.70 1.793
394.80 1.78
394.90 1.766
395.00 1.752
395.10 1.737
395.20 1.721
395.30 1.705
395.40 1.688
395.50 1.67
395.60 1.651
395.70 1.632
395.80 1.613
395.90 1.593
396.00 1.572
396.10 1.55
396.20 1.527
396.30 1.504
396.40 1.481
396.50 1.456
396.60 1.43
396.70 1.404
396.80 1.377
396.90 1.349
397.00 1.321
397.10 1.345
397.20 1.369
397.30 1.395
397.40 1.42
397.50 1.444
397.60 1.467
397.70 1.489
397.80 1.51
397.90 1.531
398.00 1.551
398.10 1.57
398.20 1.589
398.30 1.606
398.40 1.624
398.50 1.641
398.60 1.657
398.70 1.672
398.80 1.687
398.90 1.702
399.00 1.716
399.10 1.729
399.20 1.742
399.30 1.754
399.40 1.766
399.50 1.777
399.60 1.788
399.70 1.799
399.80 1.808
399.90 1.818
400.00 1.827
400.10 1.836
400.20 1.844
400.30 1.852
400.40 1.859
400.50 1.866
400.60 1.872
400.70 1.879
400.80 1.884
400.90 1.89
401.00 1.895
401.10 1.9
401.20 1.904
401.30 1.909
401.40 1.912
401.50 1.916
401.60 1.919
401.70 1.922
401.80 1.925
401.90 1.927
402.00 1.93
402.10 1.931
402.20 1.933
402.30 1.934
402.40 1.935
402.50 1.936
402.60 1.937
402.70 1.937
402.80 1.937
402.90 1.937
403.00 1.937
403.10 1.936
403.20 1.935
403.30 1.934
403.40 1.933
403.50 1.931
403.60 1.929
403.70 1.927
403.80 1.925
403.90 1.923
404.00 1.92
404.10 1.917
404.20 1.914
404.30 1.91
404.40 1.906
404.50 1.902
404.60 1.898
404.70 1.894
404.80 1.889
404.90 1.884
405.00 1.878
405.10 1.873
405.20 1.867
405.30 1.861
405.40 1.854
405.50 1.848
405.60 1.841
405.70 1.833
405.80 1.826
405.90 1.818
406.00 1.809
406.10 1.801
406.20 1.792
406.30 1.782
406.40 1.772
406.50 1.762
406.60 1.752
406.70 1.741
406.80 1.73
406.90 1.718
407.00 1.706
407.10 1.694
407.20 1.681
407.30 1.668
407.40 1.654
407.50 1.64
407.60 1.625
407.70 1.61
407.80 1.595
407.90 1.579
408.00 1.562
408.10 1.545
408.20 1.528
408.30 1.51
408.40 1.491
408.50 1.472
408.60 1.452
408.70 1.432
408.80 1.412
408.90 1.39
409.00 1.368
409.10 1.346
409.20 1.322
409.30 1.298
409.40 1.273
409.50 1.247
409.60 1.22
409.70 1.19
409.80 1.16
409.90 1.127
410.00 1.092
410.10 1.066
410.20 1.051
410.30 1.077
410.40 1.107
410.50 1.14
410.60 1.17
410.70 1.198
410.80 1.224
410.90 1.249
411.00 1.273
411.10 1.295
411.20 1.317
411.30 1.338
411.40 1.358
411.50 1.377
411.60 1.396
411.70 1.414
411.80 1.432
411.90 1.449
412.00 1.465
412.10 1.481
412.20 1.496
412.30 1.511
412.40 1.525
412.50 1.539
412.60 1.552
412.70 1.564
412.80 1.577
412.90 1.589
413.00 1.6
413.10 1.611
413.20 1.622
413.30 1.632
413.40 1.642
413.50 1.651
413.60 1.66
413.70 1.669
413.80 1.677
413.90 1.685
414.00 1.692
414.10 1.7
414.20 1.707
414.30 1.713
414.40 1.72
414.50 1.726
414.60 1.732
414.70 1.737
414.80 1.743
414.90 1.748
415.00 1.753
415.10 1.757
415.20 1.761
415.30 1.766
415.40 1.769
415.50 1.773
415.60 1.777
415.70 1.78
415.80 1.783
415.90 1.786
416.00 1.789
416.10 1.792
416.20 1.794
416.30 1.796
416.40 1.799
416.50 1.801
416.60 1.803
416.70 1.804
416.80 1.806
416.90 1.808
417.00 1.809
417.10 1.81
417.20 1.812
417.30 1.813
417.40 1.814
417.50 1.815
417.60 1.815
417.70 1.816
417.80 1.817
417.90 1.817
418.00 1.818
418.10 1.818
418.20 1.818
418.30 1.819
418.40 1.819
418.50 1.819
418.60 1.819
418.70 1.819
418.80 1.819
418.90 1.819
419.00 1.818
419.10 1.818
419.20 1.818
419.30 1.818
419.40 1.817
419.50 1.817
419.60 1.816
419.70 1.816
419.80 1.815
419.90 1.814
420.00 1.814
420.10 1.813
420.20 1.812
420.30 1.811
420.40 1.81
420.50 1.809
420.60 1.809
420.70 1.808
420.80 1.807
420.90 1.806
421.00 1.804
421.10 1.803
421.20 1.802
421.30 1.801
421.40 1.8
421.50 1.799
421.60 1.797
421.70 1.796
421.80 1.795
421.90 1.793
422.00 1.792
422.10 1.79
422.20 1.789
422.30 1.788
422.40 1.786
422.50 1.784
422.60 1.783
422.70 1.781
422.80 1.78
422.90 1.778
423.00 1.776
423.10 1.775
423.20 1.773
423.30 1.771
423.40 1.769
423.50 1.767
423.60 1.766
423.70 1.764
423.80 1.762
423.90 1.76
424.00 1.758
424.10 1.756
424.20 1.754
424.30 1.752
424.40 1.749
424.50 1.747
424.60 1.745
424.70 1.743
424.80 1.74
424.90 1.738
425.00 1.736
425.10 1.733
425.20 1.731
425.30 1.728
425.40 1.726
425.50 1.723
425.60 1.72
425.70 1.718
425.80 1.715
425.90 1.712
426.00 1.709
426.10 1.706
426.20 1.703
426.30 1.7
426.40 1.696
426.50 1.693
426.60 1.69
426.70 1.686
426.80 1.683
426.90 1.679
427.00 1.675
427.10 1.671
427.20 1.667
427.30 1.663
427.40 1.659
427.50 1.655
427.60 1.65
427.70 1.646
427.80 1.641
427.90 1.636
428.00 1.631
428.10 1.626
428.20 1.621
428.30 1.616
428.40 1.61
428.50 1.604
428.60 1.598
428.70 1.592
428.80 1.586
428.90 1.579
429.00 1.573
429.10 1.566
429.20 1.559
429.30 1.552
429.40 1.544
429.50 1.537
429.60 1.529
429.70 1.521
429.80 1.512
429.90 1.504
430.00 1.495
430.10 1.486
430.20 1.477
430.30 1.468
430.40 1.458
430.50 1.448
430.60 1.438
430.70 1.427
430.80 1.416
430.90 1.405
431.00 1.394
431.10 1.382
431.20 1.371
431.30 1.358
431.40 1.346
431.50 1.333
431.60 1.32
431.70 1.306
431.80 1.292
431.90 1.278
432.00 1.263
432.10 1.248
432.20 1.233
432.30 1.217
432.40 1.2
432.50 1.184
432.60 1.166
432.70 1.148
432.80 1.13
432.90 1.111
433.00 1.092
433.10 1.071
433.20 1.05
433.30 1.028
433.40 1.004
433.50 0.9787
433.60 0.952
433.70 0.9208
433.80 0.8857
433.90 0.8468
434.00 0.7927
434.10 0.7933
434.20 0.8485
434.30 0.8857
434.40 0.9191
434.50 0.9488
434.60 0.9738
434.70 0.9975
434.80 1.02
434.90 1.04
435.00 1.06
435.10 1.078
435.20 1.096
435.30 1.113
435.40 1.13
435.50 1.146
435.60 1.161
435.70 1.176
435.80 1.19
435.90 1.204
436.00 1.218
436.10 1.23
436.20 1.243
436.30 1.255
436.40 1.267
436.50 1.278
436.60 1.289
436.70 1.299
436.80 1.31
436.90 1.32
437.00 1.329
437.10 1.338
437.20 1.347
437.30 1.355
437.40 1.364
437.50 1.372
437.60 1.379
437.70 1.387
437.80 1.394
437.90 1.401
438.00 1.407
438.10 1.414
438.20 1.42
438.30 1.426
438.40 1.431
438.50 1.437
438.60 1.442
438.70 1.447
438.80 1.451
438.90 1.456
439.00 1.46
439.10 1.464
439.20 1.468
439.30 1.472
439.40 1.476
439.50 1.479
439.60 1.482
439.70 1.485
439.80 1.488
439.90 1.491
440.00 1.493
440.10 1.496
440.20 1.498
440.30 1.5
440.40 1.502
440.50 1.504
440.60 1.505
440.70 1.507
440.80 1.509
440.90 1.51
441.00 1.511
441.10 1.512
441.20 1.513
441.30 1.514
441.40 1.515
441.50 1.516
441.60 1.517
441.70 1.518
441.80 1.518
441.90 1.519
442.00 1.519
442.10 1.52
442.20 1.52
442.30 1.52
442.40 1.52
442.50 1.521
442.60 1.521
442.70 1.521
442.80 1.521
442.90 1.521
443.00 1.521
443.10 1.521
443.20 1.52
443.30 1.52
443.40 1.52
443.50 1.52
443.60 1.52
443.70 1.519
443.80 1.519
443.90 1.519
444.00 1.518
444.10 1.518
444.20 1.517
444.30 1.517
444.40 1.516
444.50 1.516
444.60 1.515
444.70 1.515
444.80 1.514
444.90 1.514
445.00 1.513
445.10 1.512
445.20 1.512
445.30 1.511
445.40 1.511
445.50 1.51
445.60 1.509
445.70 1.508
445.80 1.508
445.90 1.507
446.00 1.506
446.10 1.506
446.20 1.505
446.30 1.504
446.40 1.503
446.50 1.502
446.60 1.502
446.70 1.501
446.80 1.5
446.90 1.499
447.00 1.498
447.10 1.498
447.20 1.497
447.30 1.496
447.40 1.495
447.50 1.494
447.60 1.493
447.70 1.492
447.80 1.491
447.90 1.49
448.00 1.49
448.10 1.489
448.20 1.488
448.30 1.487
448.40 1.486
448.50 1.485
448.60 1.484
448.70 1.483
448.80 1.482
448.90 1.481
449.00 1.48
449.10 1.479
449.20 1.478
449.30 1.477
449.40 1.476
449.50 1.475
449.60 1.474
449.70 1.473
449.80 1.472
449.90 1.471
450.00 1.47
450.10 1.469
450.20 1.468
450.30 1.467
450.40 1.466
450.50 1.465
450.60 1.464
450.70 1.463
450.80 1.462
450.90 1.461
451.00 1.46
451.10 1.459
451.20 1.458
451.30 1.457
451.40 1.456
451.50 1.455
451.60 1.454
451.70 1.453
451.80 1.452
451.90 1.451
452.00 1.45
452.10 1.449
452.20 1.448
452.30 1.447
452.40 1.446
452.50 1.444
452.60 1.443
452.70 1.442
452.80 1.441
452.90 1.44
453.00 1.439
453.10 1.438
453.20 1.437
453.30 1.436
453.40 1.435
453.50 1.434
453.60 1.433
453.70 1.432
453.80 1.431
453.90 1.43
454.00 1.428
454.10 1.427
