# Version 2.1 - nm, norm@500 to 1, cut digits, bergeron_12000_75.dat_12000
# Wavelength(nm)  Flambda(ergs/cm^s/s/nm)
300.00 1.675
300.10 1.674
300.20 1.673
300.30 1.672
300.40 1.671
300.50 1.67
300.60 1.669
300.70 1.668
300.80 1.667
300.90 1.666
301.00 1.665
301.10 1.664
301.20 1.663
301.30 1.662
301.40 1.661
301.50 1.66
301.60 1.659
301.70 1.658
301.80 1.657
301.90 1.655
302.00 1.654
302.10 1.653
302.20 1.652
302.30 1.651
302.40 1.65
302.50 1.649
302.60 1.648
302.70 1.647
302.80 1.646
302.90 1.645
303.00 1.644
303.10 1.643
303.20 1.642
303.30 1.641
303.40 1.64
303.50 1.639
303.60 1.638
303.70 1.637
303.80 1.636
303.90 1.635
304.00 1.634
304.10 1.633
304.20 1.632
304.30 1.631
304.40 1.63
304.50 1.629
304.60 1.628
304.70 1.627
304.80 1.626
304.90 1.625
305.00 1.624
305.10 1.623
305.20 1.622
305.30 1.621
305.40 1.62
305.50 1.619
305.60 1.618
305.70 1.617
305.80 1.616
305.90 1.615
306.00 1.614
306.10 1.613
306.20 1.612
306.30 1.611
306.40 1.61
306.50 1.609
306.60 1.608
306.70 1.607
306.80 1.606
306.90 1.605
307.00 1.604
307.10 1.603
307.20 1.602
307.30 1.601
307.40 1.6
307.50 1.599
307.60 1.598
307.70 1.597
307.80 1.597
307.90 1.596
308.00 1.595
308.10 1.594
308.20 1.593
308.30 1.592
308.40 1.591
308.50 1.59
308.60 1.589
308.70 1.588
308.80 1.587
308.90 1.586
309.00 1.585
309.10 1.584
309.20 1.583
309.30 1.582
309.40 1.581
309.50 1.58
309.60 1.579
309.70 1.578
309.80 1.577
309.90 1.576
310.00 1.575
310.10 1.574
310.20 1.573
310.30 1.572
310.40 1.571
310.50 1.57
310.60 1.569
310.70 1.569
310.80 1.568
310.90 1.567
311.00 1.566
311.10 1.565
311.20 1.564
311.30 1.563
311.40 1.562
311.50 1.561
311.60 1.56
311.70 1.559
311.80 1.558
311.90 1.557
312.00 1.556
312.10 1.555
312.20 1.554
312.30 1.553
312.40 1.552
312.50 1.551
312.60 1.551
312.70 1.55
312.80 1.549
312.90 1.548
313.00 1.547
313.10 1.546
313.20 1.545
313.30 1.544
313.40 1.543
313.50 1.542
313.60 1.541
313.70 1.54
313.80 1.539
313.90 1.538
314.00 1.537
314.10 1.537
314.20 1.536
314.30 1.535
314.40 1.534
314.50 1.533
314.60 1.532
314.70 1.531
314.80 1.53
314.90 1.529
315.00 1.528
315.10 1.527
315.20 1.526
315.30 1.525
315.40 1.524
315.50 1.524
315.60 1.523
315.70 1.522
315.80 1.521
315.90 1.52
316.00 1.519
316.10 1.518
316.20 1.517
316.30 1.516
316.40 1.515
316.50 1.514
316.60 1.513
316.70 1.513
316.80 1.512
316.90 1.511
317.00 1.51
317.10 1.509
317.20 1.508
317.30 1.507
317.40 1.506
317.50 1.505
317.60 1.504
317.70 1.504
317.80 1.503
317.90 1.502
318.00 1.501
318.10 1.5
318.20 1.499
318.30 1.498
318.40 1.497
318.50 1.496
318.60 1.495
318.70 1.495
318.80 1.494
318.90 1.493
319.00 1.492
319.10 1.491
319.20 1.49
319.30 1.489
319.40 1.488
319.50 1.487
319.60 1.486
319.70 1.486
319.80 1.485
319.90 1.484
320.00 1.483
320.10 1.482
320.20 1.481
320.30 1.48
320.40 1.479
320.50 1.478
320.60 1.478
320.70 1.477
320.80 1.476
320.90 1.475
321.00 1.474
321.10 1.473
321.20 1.472
321.30 1.471
321.40 1.471
321.50 1.47
321.60 1.469
321.70 1.468
321.80 1.467
321.90 1.466
322.00 1.465
322.10 1.464
322.20 1.464
322.30 1.463
322.40 1.462
322.50 1.461
322.60 1.46
322.70 1.459
322.80 1.458
322.90 1.457
323.00 1.457
323.10 1.456
323.20 1.455
323.30 1.454
323.40 1.453
323.50 1.452
323.60 1.451
323.70 1.451
323.80 1.45
323.90 1.449
324.00 1.448
324.10 1.447
324.20 1.446
324.30 1.445
324.40 1.445
324.50 1.444
324.60 1.443
324.70 1.442
324.80 1.441
324.90 1.44
325.00 1.439
325.10 1.439
325.20 1.438
325.30 1.437
325.40 1.436
325.50 1.435
325.60 1.434
325.70 1.433
325.80 1.433
325.90 1.432
326.00 1.431
326.10 1.43
326.20 1.429
326.30 1.428
326.40 1.427
326.50 1.427
326.60 1.426
326.70 1.425
326.80 1.424
326.90 1.423
327.00 1.422
327.10 1.422
327.20 1.421
327.30 1.42
327.40 1.419
327.50 1.418
327.60 1.417
327.70 1.417
327.80 1.416
327.90 1.415
328.00 1.414
328.10 1.413
328.20 1.412
328.30 1.412
328.40 1.411
328.50 1.41
328.60 1.409
328.70 1.408
328.80 1.407
328.90 1.407
329.00 1.406
329.10 1.405
329.20 1.404
329.30 1.403
329.40 1.402
329.50 1.402
329.60 1.401
329.70 1.4
329.80 1.399
329.90 1.398
330.00 1.397
330.10 1.397
330.20 1.396
330.30 1.395
330.40 1.394
330.50 1.393
330.60 1.393
330.70 1.392
330.80 1.391
330.90 1.39
331.00 1.389
331.10 1.388
331.20 1.388
331.30 1.387
331.40 1.386
331.50 1.385
331.60 1.384
331.70 1.384
331.80 1.383
331.90 1.382
332.00 1.381
332.10 1.38
332.20 1.379
332.30 1.379
332.40 1.378
332.50 1.377
332.60 1.376
332.70 1.375
332.80 1.375
332.90 1.374
333.00 1.373
333.10 1.372
333.20 1.371
333.30 1.371
333.40 1.37
333.50 1.369
333.60 1.368
333.70 1.367
333.80 1.367
333.90 1.366
334.00 1.365
334.10 1.364
334.20 1.363
334.30 1.363
334.40 1.362
334.50 1.361
334.60 1.36
334.70 1.359
334.80 1.359
334.90 1.358
335.00 1.357
335.10 1.356
335.20 1.355
335.30 1.355
335.40 1.354
335.50 1.353
335.60 1.352
335.70 1.352
335.80 1.351
335.90 1.35
336.00 1.349
336.10 1.348
336.20 1.348
336.30 1.347
336.40 1.346
336.50 1.345
336.60 1.344
336.70 1.344
336.80 1.343
336.90 1.342
337.00 1.341
337.10 1.341
337.20 1.34
337.30 1.339
337.40 1.338
337.50 1.337
337.60 1.337
337.70 1.336
337.80 1.335
337.90 1.334
338.00 1.334
338.10 1.333
338.20 1.332
338.30 1.331
338.40 1.33
338.50 1.33
338.60 1.329
338.70 1.328
338.80 1.327
338.90 1.327
339.00 1.326
339.10 1.325
339.20 1.324
339.30 1.324
339.40 1.323
339.50 1.322
339.60 1.321
339.70 1.32
339.80 1.32
339.90 1.319
340.00 1.318
340.10 1.317
340.20 1.317
340.30 1.316
340.40 1.315
340.50 1.314
340.60 1.314
340.70 1.313
340.80 1.312
340.90 1.311
341.00 1.311
341.10 1.31
341.20 1.309
341.30 1.308
341.40 1.308
341.50 1.307
341.60 1.306
341.70 1.305
341.80 1.305
341.90 1.304
342.00 1.303
342.10 1.302
342.20 1.302
342.30 1.301
342.40 1.3
342.50 1.299
342.60 1.299
342.70 1.298
342.80 1.297
342.90 1.296
343.00 1.296
343.10 1.295
343.20 1.294
343.30 1.293
343.40 1.293
343.50 1.292
343.60 1.291
343.70 1.29
343.80 1.29
343.90 1.289
344.00 1.288
344.10 1.287
344.20 1.287
344.30 1.286
344.40 1.285
344.50 1.284
344.60 1.284
344.70 1.283
344.80 1.282
344.90 1.281
345.00 1.281
345.10 1.28
345.20 1.279
345.30 1.279
345.40 1.278
345.50 1.277
345.60 1.276
345.70 1.276
345.80 1.275
345.90 1.274
346.00 1.273
346.10 1.273
346.20 1.272
346.30 1.271
346.40 1.27
346.50 1.27
346.60 1.269
346.70 1.268
346.80 1.268
346.90 1.267
347.00 1.266
347.10 1.265
347.20 1.265
347.30 1.264
347.40 1.263
347.50 1.263
347.60 1.262
347.70 1.261
347.80 1.26
347.90 1.26
348.00 1.259
348.10 1.258
348.20 1.257
348.30 1.257
348.40 1.256
348.50 1.255
348.60 1.255
348.70 1.254
348.80 1.253
348.90 1.252
349.00 1.252
349.10 1.251
349.20 1.25
349.30 1.25
349.40 1.249
349.50 1.248
349.60 1.247
349.70 1.247
349.80 1.246
349.90 1.245
350.00 1.245
350.10 1.244
350.20 1.243
350.30 1.242
350.40 1.242
350.50 1.241
350.60 1.24
350.70 1.24
350.80 1.239
350.90 1.238
351.00 1.238
351.10 1.237
351.20 1.236
351.30 1.235
351.40 1.235
351.50 1.234
351.60 1.233
351.70 1.233
351.80 1.232
351.90 1.231
352.00 1.231
352.10 1.23
352.20 1.229
352.30 1.228
352.40 1.228
352.50 1.227
352.60 1.226
352.70 1.226
352.80 1.225
352.90 1.224
353.00 1.224
353.10 1.223
353.20 1.222
353.30 1.222
353.40 1.221
353.50 1.22
353.60 1.219
353.70 1.219
353.80 1.218
353.90 1.217
354.00 1.217
354.10 1.216
354.20 1.215
354.30 1.215
354.40 1.214
354.50 1.213
354.60 1.213
354.70 1.212
354.80 1.211
354.90 1.21
355.00 1.21
355.10 1.209
355.20 1.208
355.30 1.208
355.40 1.207
355.50 1.206
355.60 1.206
355.70 1.205
355.80 1.204
355.90 1.204
356.00 1.203
356.10 1.202
356.20 1.202
356.30 1.201
356.40 1.2
356.50 1.2
356.60 1.199
356.70 1.198
356.80 1.198
356.90 1.197
357.00 1.196
357.10 1.196
357.20 1.195
357.30 1.194
357.40 1.194
357.50 1.193
357.60 1.192
357.70 1.192
357.80 1.191
357.90 1.19
358.00 1.19
358.10 1.189
358.20 1.188
358.30 1.188
358.40 1.187
358.50 1.186
358.60 1.186
358.70 1.185
358.80 1.184
358.90 1.184
359.00 1.183
359.10 1.182
359.20 1.182
359.30 1.181
359.40 1.18
359.50 1.18
359.60 1.179
359.70 1.178
359.80 1.178
359.90 1.177
360.00 1.176
360.10 1.176
360.20 1.175
360.30 1.174
360.40 1.174
360.50 1.173
360.60 1.172
360.70 1.172
360.80 1.171
360.90 1.17
361.00 1.17
361.10 1.169
361.20 1.168
361.30 1.168
361.40 1.167
361.50 1.166
361.60 1.166
361.70 1.165
361.80 1.164
361.90 1.164
362.00 1.163
362.10 1.162
362.20 1.162
362.30 1.161
362.40 1.161
362.50 1.16
362.60 1.159
362.70 1.159
362.80 1.158
362.90 1.157
363.00 1.157
363.10 1.156
363.20 1.155
363.30 1.155
363.40 1.154
363.50 1.153
363.60 1.152
363.70 1.152
363.80 1.151
363.90 1.15
364.00 1.15
364.10 1.149
364.20 1.148
364.30 1.148
364.40 1.147
364.50 1.146
364.60 1.145
364.70 1.145
364.80 1.144
364.90 1.143
365.00 1.143
365.10 1.142
365.20 1.141
365.30 1.141
365.40 1.14
365.50 1.139
365.60 1.139
365.70 1.138
365.80 1.137
365.90 1.136
366.00 1.136
366.10 1.135
366.20 1.135
366.30 1.134
366.40 1.133
366.50 1.133
366.60 1.132
366.70 1.131
366.80 1.131
366.90 1.13
367.00 1.13
367.10 1.129
367.20 1.128
367.30 1.128
367.40 1.127
367.50 1.126
367.60 1.126
367.70 1.125
367.80 1.125
367.90 1.124
368.00 1.123
368.10 1.123
368.20 1.123
368.30 1.123
368.40 1.123
368.50 1.122
368.60 1.122
368.70 1.122
368.80 1.122
368.90 1.122
369.00 1.121
369.10 1.121
369.20 1.121
369.30 1.121
369.40 1.121
369.50 1.12
369.60 1.12
369.70 1.12
369.80 1.12
369.90 1.12
370.00 1.119
370.10 1.12
370.20 1.121
370.30 1.122
370.40 1.123
370.50 1.124
370.60 1.125
370.70 1.126
370.80 1.126
370.90 1.127
371.00 1.128
371.10 1.129
371.20 1.13
371.30 1.131
371.40 1.132
371.50 1.133
371.60 1.133
371.70 1.134
371.80 1.135
371.90 1.136
372.00 1.137
372.10 1.139
372.20 1.141
372.30 1.143
372.40 1.145
372.50 1.147
372.60 1.149
372.70 1.151
372.80 1.153
372.90 1.155
373.00 1.157
373.10 1.159
373.20 1.162
373.30 1.164
373.40 1.166
373.50 1.168
373.60 1.17
373.70 1.172
373.80 1.174
373.90 1.176
374.00 1.178
374.10 1.18
374.20 1.183
374.30 1.185
374.40 1.187
374.50 1.19
374.60 1.192
374.70 1.195
374.80 1.197
374.90 1.199
375.00 1.202
375.10 1.204
375.20 1.206
375.30 1.209
375.40 1.211
375.50 1.214
375.60 1.216
375.70 1.218
375.80 1.221
375.90 1.223
376.00 1.225
376.10 1.227
376.20 1.228
376.30 1.229
376.40 1.23
376.50 1.232
376.60 1.233
376.70 1.234
376.80 1.235
376.90 1.236
377.00 1.238
377.10 1.236
377.20 1.234
377.30 1.232
377.40 1.231
377.50 1.229
377.60 1.227
377.70 1.225
377.80 1.224
377.90 1.222
378.00 1.22
378.10 1.209
378.20 1.198
378.30 1.186
378.40 1.175
378.50 1.164
378.60 1.153
378.70 1.142
378.80 1.131
378.90 1.12
379.00 1.108
379.10 1.099
379.20 1.09
379.30 1.081
379.40 1.072
379.50 1.062
379.60 1.053
379.70 1.044
379.80 1.035
379.90 1.026
380.00 1.017
380.10 1.031
380.20 1.046
380.30 1.06
380.40 1.075
380.50 1.09
380.60 1.104
380.70 1.119
380.80 1.133
380.90 1.148
381.00 1.162
381.10 1.167
381.20 1.173
381.30 1.178
381.40 1.183
381.50 1.188
381.60 1.188
381.70 1.186
381.80 1.182
381.90 1.177
382.00 1.169
382.10 1.159
382.20 1.147
382.30 1.124
382.40 1.101
382.50 1.078
382.60 1.054
382.70 1.031
382.80 1.008
382.90 0.9848
383.00 0.9616
383.10 0.9385
383.20 0.9154
383.30 0.8934
383.40 0.8682
383.50 0.8419
383.60 0.8473
383.70 0.874
383.80 0.8993
383.90 0.9214
384.00 0.9462
384.10 0.9748
384.20 1.004
384.30 1.033
384.40 1.062
384.50 1.089
384.60 1.114
384.70 1.136
384.80 1.155
384.90 1.172
385.00 1.187
385.10 1.2
385.20 1.211
385.30 1.221
385.40 1.228
385.50 1.235
385.60 1.24
385.70 1.244
385.80 1.247
385.90 1.249
386.00 1.249
386.10 1.248
386.20 1.247
386.30 1.244
386.40 1.24
386.50 1.235
386.60 1.229
386.70 1.221
386.80 1.213
386.90 1.203
387.00 1.192
387.10 1.181
387.20 1.167
387.30 1.152
387.40 1.136
387.50 1.117
387.60 1.097
387.70 1.075
387.80 1.049
387.90 1.021
388.00 0.9914
388.10 0.9577
388.20 0.9226
388.30 0.8863
388.40 0.849
388.50 0.814
388.60 0.7814
388.70 0.7501
388.80 0.7195
388.90 0.6894
389.00 0.717
389.10 0.7464
389.20 0.7775
389.30 0.8096
389.40 0.8443
389.50 0.8814
389.60 0.9182
389.70 0.9538
389.80 0.9883
389.90 1.02
390.00 1.049
390.10 1.076
390.20 1.1
390.30 1.122
390.40 1.144
390.50 1.162
390.60 1.18
390.70 1.197
390.80 1.213
390.90 1.228
391.00 1.242
391.10 1.255
391.20 1.267
391.30 1.279
391.40 1.29
391.50 1.3
391.60 1.309
391.70 1.317
391.80 1.325
391.90 1.332
392.00 1.338
392.10 1.344
392.20 1.349
392.30 1.352
392.40 1.356
392.50 1.358
392.60 1.36
392.70 1.361
392.80 1.361
392.90 1.36
393.00 1.358
393.10 1.356
393.20 1.353
393.30 1.349
393.40 1.344
393.50 1.339
393.60 1.332
393.70 1.325
393.80 1.317
393.90 1.308
394.00 1.299
394.10 1.288
394.20 1.277
394.30 1.265
394.40 1.252
394.50 1.239
394.60 1.224
394.70 1.209
394.80 1.193
394.90 1.177
395.00 1.159
395.10 1.141
395.20 1.123
395.30 1.103
395.40 1.082
395.50 1.061
395.60 1.038
395.70 1.015
395.80 0.9902
395.90 0.9635
396.00 0.9356
396.10 0.9064
396.20 0.8743
396.30 0.8407
396.40 0.8054
396.50 0.7681
396.60 0.7317
396.70 0.6964
396.80 0.6614
396.90 0.6201
397.00 0.5725
397.10 0.6163
397.20 0.6556
397.30 0.6906
397.40 0.7252
397.50 0.7608
397.60 0.7976
397.70 0.8325
397.80 0.8659
397.90 0.8976
398.00 0.9264
398.10 0.9541
398.20 0.9804
398.30 1.005
398.40 1.028
398.50 1.051
398.60 1.072
398.70 1.092
398.80 1.112
398.90 1.131
399.00 1.15
399.10 1.168
399.20 1.185
399.30 1.202
399.40 1.218
399.50 1.234
399.60 1.249
399.70 1.264
399.80 1.278
399.90 1.292
400.00 1.305
400.10 1.318
400.20 1.33
400.30 1.342
400.40 1.353
400.50 1.364
400.60 1.374
400.70 1.384
400.80 1.393
400.90 1.402
401.00 1.41
401.10 1.418
401.20 1.426
401.30 1.433
401.40 1.44
401.50 1.446
401.60 1.452
401.70 1.458
401.80 1.463
401.90 1.468
402.00 1.472
402.10 1.476
402.20 1.48
402.30 1.484
402.40 1.487
402.50 1.489
402.60 1.492
402.70 1.494
402.80 1.496
402.90 1.497
403.00 1.498
403.10 1.499
403.20 1.499
403.30 1.499
403.40 1.499
403.50 1.498
403.60 1.497
403.70 1.496
403.80 1.495
403.90 1.493
404.00 1.49
404.10 1.488
404.20 1.485
404.30 1.482
404.40 1.478
404.50 1.474
404.60 1.47
404.70 1.466
404.80 1.461
404.90 1.455
405.00 1.45
405.10 1.444
405.20 1.438
405.30 1.431
405.40 1.424
405.50 1.416
405.60 1.409
405.70 1.401
405.80 1.392
405.90 1.383
406.00 1.374
406.10 1.364
406.20 1.354
406.30 1.343
406.40 1.332
406.50 1.321
406.60 1.309
406.70 1.297
406.80 1.284
406.90 1.271
407.00 1.257
407.10 1.243
407.20 1.228
407.30 1.213
407.40 1.197
407.50 1.181
407.60 1.164
407.70 1.147
407.80 1.13
407.90 1.112
408.00 1.093
408.10 1.074
408.20 1.055
408.30 1.035
408.40 1.015
408.50 0.9945
408.60 0.9736
408.70 0.9525
408.80 0.9306
408.90 0.9083
409.00 0.8856
409.10 0.8619
409.20 0.8374
409.30 0.8123
409.40 0.7849
409.50 0.7562
409.60 0.7262
409.70 0.6941
409.80 0.6618
409.90 0.6293
410.00 0.5906
410.10 0.5493
410.20 0.5056
410.30 0.5648
410.40 0.6115
410.50 0.6457
410.60 0.6777
410.70 0.7091
410.80 0.74
410.90 0.7684
411.00 0.7954
411.10 0.8211
411.20 0.8449
411.30 0.868
411.40 0.8905
411.50 0.9119
411.60 0.933
411.70 0.9536
411.80 0.9735
411.90 0.9932
412.00 1.012
412.10 1.031
412.20 1.05
412.30 1.068
412.40 1.085
412.50 1.102
412.60 1.119
412.70 1.135
412.80 1.151
412.90 1.167
413.00 1.181
413.10 1.196
413.20 1.21
413.30 1.223
413.40 1.236
413.50 1.249
413.60 1.261
413.70 1.273
413.80 1.284
413.90 1.295
414.00 1.306
414.10 1.316
414.20 1.326
414.30 1.335
414.40 1.345
414.50 1.354
414.60 1.362
414.70 1.371
414.80 1.379
414.90 1.387
415.00 1.394
415.10 1.402
415.20 1.409
415.30 1.415
415.40 1.422
415.50 1.428
415.60 1.434
415.70 1.44
415.80 1.446
415.90 1.451
416.00 1.457
416.10 1.462
416.20 1.467
416.30 1.471
416.40 1.476
416.50 1.48
416.60 1.484
416.70 1.488
416.80 1.492
416.90 1.496
417.00 1.499
417.10 1.503
417.20 1.506
417.30 1.509
417.40 1.512
417.50 1.515
417.60 1.518
417.70 1.52
417.80 1.523
417.90 1.525
418.00 1.527
418.10 1.529
418.20 1.531
418.30 1.533
418.40 1.535
418.50 1.537
418.60 1.538
418.70 1.54
418.80 1.541
418.90 1.543
419.00 1.544
419.10 1.545
419.20 1.546
419.30 1.547
419.40 1.548
419.50 1.549
419.60 1.549
419.70 1.55
419.80 1.55
419.90 1.551
420.00 1.551
420.10 1.552
420.20 1.552
420.30 1.552
420.40 1.552
420.50 1.552
420.60 1.552
420.70 1.552
420.80 1.552
420.90 1.552
421.00 1.551
421.10 1.551
421.20 1.55
421.30 1.55
421.40 1.549
421.50 1.549
421.60 1.548
421.70 1.547
421.80 1.547
421.90 1.546
422.00 1.545
422.10 1.544
422.20 1.543
422.30 1.542
422.40 1.54
422.50 1.539
422.60 1.538
422.70 1.537
422.80 1.535
422.90 1.534
423.00 1.532
423.10 1.531
423.20 1.529
423.30 1.527
423.40 1.525
423.50 1.523
423.60 1.522
423.70 1.52
423.80 1.518
423.90 1.515
424.00 1.513
424.10 1.511
424.20 1.509
424.30 1.506
424.40 1.504
424.50 1.501
424.60 1.499
424.70 1.496
424.80 1.494
424.90 1.491
425.00 1.488
425.10 1.485
425.20 1.482
425.30 1.479
425.40 1.476
425.50 1.472
425.60 1.469
425.70 1.465
425.80 1.462
425.90 1.458
426.00 1.455
426.10 1.451
426.20 1.446
426.30 1.442
426.40 1.438
426.50 1.433
426.60 1.429
426.70 1.425
426.80 1.42
426.90 1.415
427.00 1.411
427.10 1.406
427.20 1.401
427.30 1.396
427.40 1.39
427.50 1.385
427.60 1.379
427.70 1.374
427.80 1.368
427.90 1.362
428.00 1.356
428.10 1.35
428.20 1.343
428.30 1.337
428.40 1.33
428.50 1.323
428.60 1.316
428.70 1.309
428.80 1.302
428.90 1.294
429.00 1.286
429.10 1.278
429.20 1.27
429.30 1.262
429.40 1.253
429.50 1.244
429.60 1.235
429.70 1.226
429.80 1.216
429.90 1.207
430.00 1.197
430.10 1.187
430.20 1.176
430.30 1.165
430.40 1.154
430.50 1.143
430.60 1.132
430.70 1.12
430.80 1.108
430.90 1.096
431.00 1.083
431.10 1.071
431.20 1.058
431.30 1.044
431.40 1.031
431.50 1.017
431.60 1.003
431.70 0.9887
431.80 0.9739
431.90 0.9584
432.00 0.9426
432.10 0.9264
432.20 0.9092
432.30 0.8915
432.40 0.8733
432.50 0.8537
432.60 0.8335
432.70 0.8127
432.80 0.7915
432.90 0.7705
433.00 0.7499
433.10 0.7304
433.20 0.7107
433.30 0.691
433.40 0.6691
433.50 0.6458
433.60 0.621
433.70 0.5934
433.80 0.5626
433.90 0.5288
434.00 0.4523
434.10 0.4533
434.20 0.5318
434.30 0.5645
434.40 0.5943
434.50 0.6213
434.60 0.6454
434.70 0.668
434.80 0.6891
434.90 0.7082
435.00 0.7271
435.10 0.7459
435.20 0.7658
435.30 0.786
435.40 0.8063
435.50 0.8261
435.60 0.8452
435.70 0.8636
435.80 0.8808
435.90 0.8973
436.00 0.9132
436.10 0.9283
436.20 0.9429
436.30 0.9571
436.40 0.9706
436.50 0.9838
436.60 0.9966
436.70 1.009
436.80 1.021
436.90 1.033
437.00 1.044
437.10 1.055
437.20 1.067
437.30 1.077
437.40 1.088
437.50 1.098
437.60 1.108
437.70 1.117
437.80 1.127
437.90 1.136
438.00 1.145
438.10 1.153
438.20 1.162
438.30 1.17
438.40 1.177
438.50 1.185
438.60 1.192
438.70 1.199
438.80 1.206
438.90 1.213
439.00 1.219
439.10 1.226
439.20 1.232
439.30 1.238
439.40 1.243
439.50 1.249
439.60 1.254
439.70 1.259
439.80 1.264
439.90 1.269
440.00 1.273
440.10 1.278
440.20 1.282
440.30 1.287
440.40 1.291
440.50 1.295
440.60 1.298
440.70 1.302
440.80 1.306
440.90 1.309
441.00 1.312
441.10 1.316
441.20 1.319
441.30 1.322
441.40 1.325
441.50 1.327
441.60 1.33
441.70 1.333
441.80 1.335
441.90 1.337
442.00 1.34
442.10 1.342
442.20 1.344
442.30 1.346
442.40 1.348
442.50 1.35
442.60 1.352
442.70 1.354
442.80 1.355
442.90 1.357
443.00 1.358
443.10 1.36
443.20 1.361
443.30 1.363
443.40 1.364
443.50 1.365
443.60 1.367
443.70 1.368
443.80 1.369
443.90 1.37
444.00 1.371
444.10 1.372
444.20 1.373
444.30 1.374
444.40 1.374
444.50 1.375
444.60 1.376
444.70 1.377
444.80 1.377
444.90 1.378
445.00 1.378
445.10 1.379
445.20 1.379
445.30 1.38
445.40 1.38
445.50 1.381
445.60 1.381
445.70 1.381
445.80 1.382
445.90 1.382
446.00 1.382
446.10 1.383
446.20 1.383
446.30 1.383
446.40 1.383
446.50 1.383
446.60 1.383
446.70 1.383
446.80 1.383
446.90 1.383
447.00 1.383
447.10 1.383
447.20 1.383
447.30 1.383
447.40 1.383
447.50 1.383
447.60 1.383
447.70 1.383
447.80 1.383
447.90 1.383
448.00 1.382
448.10 1.382
448.20 1.382
448.30 1.382
448.40 1.381
448.50 1.381
448.60 1.381
448.70 1.381
448.80 1.38
448.90 1.38
449.00 1.38
449.10 1.38
449.20 1.379
449.30 1.379
449.40 1.379
449.50 1.378
449.60 1.378
449.70 1.377
449.80 1.377
449.90 1.376
450.00 1.376
450.10 1.376
450.20 1.375
450.30 1.375
450.40 1.374
450.50 1.374
450.60 1.373
450.70 1.373
450.80 1.372
450.90 1.372
451.00 1.371
451.10 1.371
451.20 1.37
451.30 1.369
451.40 1.369
451.50 1.368
451.60 1.368
451.70 1.367
451.80 1.367
451.90 1.366
452.00 1.365
452.10 1.365
452.20 1.364
452.30 1.363
452.40 1.363
452.50 1.362
452.60 1.361
452.70 1.361
452.80 1.36
452.90 1.36
