# Version 2.1 - nm, norm@500 to 1, cut digits, bergeron_9000_80.dat_9000
# Wavelength(nm)  Flambda(ergs/cm^s/s/nm)
300.00 1.559
300.10 1.558
300.20 1.558
300.30 1.558
300.40 1.558
300.50 1.557
300.60 1.557
300.70 1.557
300.80 1.556
300.90 1.556
301.00 1.556
301.10 1.555
301.20 1.555
301.30 1.555
301.40 1.554
301.50 1.554
301.60 1.554
301.70 1.553
301.80 1.553
301.90 1.553
302.00 1.552
302.10 1.552
302.20 1.552
302.30 1.551
302.40 1.551
302.50 1.55
302.60 1.55
302.70 1.55
302.80 1.549
302.90 1.549
303.00 1.549
303.10 1.548
303.20 1.548
303.30 1.548
303.40 1.547
303.50 1.547
303.60 1.547
303.70 1.546
303.80 1.546
303.90 1.546
304.00 1.545
304.10 1.545
304.20 1.545
304.30 1.544
304.40 1.544
304.50 1.544
304.60 1.543
304.70 1.543
304.80 1.543
304.90 1.542
305.00 1.542
305.10 1.542
305.20 1.541
305.30 1.541
305.40 1.54
305.50 1.54
305.60 1.54
305.70 1.539
305.80 1.539
305.90 1.539
306.00 1.538
306.10 1.538
306.20 1.538
306.30 1.537
306.40 1.537
306.50 1.537
306.60 1.536
306.70 1.536
306.80 1.536
306.90 1.535
307.00 1.535
307.10 1.534
307.20 1.534
307.30 1.534
307.40 1.533
307.50 1.533
307.60 1.533
307.70 1.532
307.80 1.532
307.90 1.532
308.00 1.531
308.10 1.531
308.20 1.531
308.30 1.53
308.40 1.53
308.50 1.529
308.60 1.529
308.70 1.529
308.80 1.528
308.90 1.528
309.00 1.528
309.10 1.527
309.20 1.527
309.30 1.527
309.40 1.526
309.50 1.526
309.60 1.525
309.70 1.525
309.80 1.525
309.90 1.524
310.00 1.524
310.10 1.524
310.20 1.523
310.30 1.523
310.40 1.523
310.50 1.522
310.60 1.522
310.70 1.521
310.80 1.521
310.90 1.521
311.00 1.52
311.10 1.52
311.20 1.52
311.30 1.519
311.40 1.519
311.50 1.518
311.60 1.518
311.70 1.518
311.80 1.517
311.90 1.517
312.00 1.517
312.10 1.516
312.20 1.516
312.30 1.516
312.40 1.515
312.50 1.515
312.60 1.514
312.70 1.514
312.80 1.514
312.90 1.513
313.00 1.513
313.10 1.513
313.20 1.512
313.30 1.512
313.40 1.511
313.50 1.511
313.60 1.511
313.70 1.51
313.80 1.51
313.90 1.51
314.00 1.509
314.10 1.509
314.20 1.508
314.30 1.508
314.40 1.508
314.50 1.507
314.60 1.507
314.70 1.506
314.80 1.506
314.90 1.506
315.00 1.505
315.10 1.505
315.20 1.505
315.30 1.504
315.40 1.504
315.50 1.503
315.60 1.503
315.70 1.503
315.80 1.502
315.90 1.502
316.00 1.502
316.10 1.501
316.20 1.501
316.30 1.5
316.40 1.5
316.50 1.5
316.60 1.499
316.70 1.499
316.80 1.498
316.90 1.498
317.00 1.498
317.10 1.497
317.20 1.497
317.30 1.497
317.40 1.496
317.50 1.496
317.60 1.495
317.70 1.495
317.80 1.495
317.90 1.494
318.00 1.494
318.10 1.493
318.20 1.493
318.30 1.493
318.40 1.492
318.50 1.492
318.60 1.491
318.70 1.491
318.80 1.491
318.90 1.49
319.00 1.49
319.10 1.489
319.20 1.489
319.30 1.489
319.40 1.488
319.50 1.488
319.60 1.488
319.70 1.487
319.80 1.487
319.90 1.486
320.00 1.486
320.10 1.486
320.20 1.485
320.30 1.485
320.40 1.484
320.50 1.484
320.60 1.484
320.70 1.483
320.80 1.483
320.90 1.482
321.00 1.482
321.10 1.482
321.20 1.481
321.30 1.481
321.40 1.48
321.50 1.48
321.60 1.48
321.70 1.479
321.80 1.479
321.90 1.478
322.00 1.478
322.10 1.478
322.20 1.477
322.30 1.477
322.40 1.476
322.50 1.476
322.60 1.476
322.70 1.475
322.80 1.475
322.90 1.474
323.00 1.474
323.10 1.474
323.20 1.473
323.30 1.473
323.40 1.472
323.50 1.472
323.60 1.472
323.70 1.471
323.80 1.471
323.90 1.47
324.00 1.47
324.10 1.47
324.20 1.469
324.30 1.469
324.40 1.468
324.50 1.468
324.60 1.468
324.70 1.467
324.80 1.467
324.90 1.466
325.00 1.466
325.10 1.466
325.20 1.465
325.30 1.465
325.40 1.464
325.50 1.464
325.60 1.464
325.70 1.463
325.80 1.463
325.90 1.462
326.00 1.462
326.10 1.462
326.20 1.461
326.30 1.461
326.40 1.46
326.50 1.46
326.60 1.46
326.70 1.459
326.80 1.459
326.90 1.458
327.00 1.458
327.10 1.457
327.20 1.457
327.30 1.457
327.40 1.456
327.50 1.456
327.60 1.455
327.70 1.455
327.80 1.455
327.90 1.454
328.00 1.454
328.10 1.453
328.20 1.453
328.30 1.453
328.40 1.452
328.50 1.452
328.60 1.451
328.70 1.451
328.80 1.45
328.90 1.45
329.00 1.45
329.10 1.449
329.20 1.449
329.30 1.448
329.40 1.448
329.50 1.448
329.60 1.447
329.70 1.447
329.80 1.446
329.90 1.446
330.00 1.446
330.10 1.445
330.20 1.445
330.30 1.444
330.40 1.444
330.50 1.443
330.60 1.443
330.70 1.443
330.80 1.442
330.90 1.442
331.00 1.441
331.10 1.441
331.20 1.441
331.30 1.44
331.40 1.44
331.50 1.439
331.60 1.439
331.70 1.438
331.80 1.438
331.90 1.438
332.00 1.437
332.10 1.437
332.20 1.436
332.30 1.436
332.40 1.436
332.50 1.435
332.60 1.435
332.70 1.434
332.80 1.434
332.90 1.433
333.00 1.433
333.10 1.433
333.20 1.432
333.30 1.432
333.40 1.431
333.50 1.431
333.60 1.431
333.70 1.43
333.80 1.43
333.90 1.429
334.00 1.429
334.10 1.428
334.20 1.428
334.30 1.428
334.40 1.427
334.50 1.427
334.60 1.426
334.70 1.426
334.80 1.425
334.90 1.425
335.00 1.425
335.10 1.424
335.20 1.424
335.30 1.423
335.40 1.423
335.50 1.423
335.60 1.422
335.70 1.422
335.80 1.421
335.90 1.421
336.00 1.42
336.10 1.42
336.20 1.42
336.30 1.419
336.40 1.419
336.50 1.418
336.60 1.418
336.70 1.417
336.80 1.417
336.90 1.417
337.00 1.416
337.10 1.416
337.20 1.415
337.30 1.415
337.40 1.415
337.50 1.414
337.60 1.414
337.70 1.413
337.80 1.413
337.90 1.412
338.00 1.412
338.10 1.412
338.20 1.411
338.30 1.411
338.40 1.41
338.50 1.41
338.60 1.409
338.70 1.409
338.80 1.409
338.90 1.408
339.00 1.408
339.10 1.407
339.20 1.407
339.30 1.406
339.40 1.406
339.50 1.406
339.60 1.405
339.70 1.405
339.80 1.404
339.90 1.404
340.00 1.403
340.10 1.403
340.20 1.403
340.30 1.402
340.40 1.402
340.50 1.401
340.60 1.401
340.70 1.4
340.80 1.4
340.90 1.4
341.00 1.399
341.10 1.399
341.20 1.398
341.30 1.398
341.40 1.397
341.50 1.397
341.60 1.397
341.70 1.396
341.80 1.396
341.90 1.395
342.00 1.395
342.10 1.394
342.20 1.394
342.30 1.394
342.40 1.393
342.50 1.393
342.60 1.392
342.70 1.392
342.80 1.391
342.90 1.391
343.00 1.391
343.10 1.39
343.20 1.39
343.30 1.389
343.40 1.389
343.50 1.388
343.60 1.388
343.70 1.388
343.80 1.387
343.90 1.387
344.00 1.386
344.10 1.386
344.20 1.385
344.30 1.385
344.40 1.385
344.50 1.384
344.60 1.384
344.70 1.383
344.80 1.383
344.90 1.382
345.00 1.382
345.10 1.382
345.20 1.381
345.30 1.381
345.40 1.38
345.50 1.38
345.60 1.379
345.70 1.379
345.80 1.378
345.90 1.378
346.00 1.378
346.10 1.377
346.20 1.377
346.30 1.376
346.40 1.376
346.50 1.375
346.60 1.375
346.70 1.375
346.80 1.374
346.90 1.374
347.00 1.373
347.10 1.373
347.20 1.372
347.30 1.372
347.40 1.372
347.50 1.371
347.60 1.371
347.70 1.37
347.80 1.37
347.90 1.369
348.00 1.369
348.10 1.369
348.20 1.368
348.30 1.368
348.40 1.367
348.50 1.367
348.60 1.366
348.70 1.366
348.80 1.365
348.90 1.365
349.00 1.365
349.10 1.364
349.20 1.364
349.30 1.363
349.40 1.363
349.50 1.362
349.60 1.362
349.70 1.362
349.80 1.361
349.90 1.361
350.00 1.36
350.10 1.36
350.20 1.359
350.30 1.359
350.40 1.358
350.50 1.358
350.60 1.358
350.70 1.357
350.80 1.357
350.90 1.356
351.00 1.356
351.10 1.355
351.20 1.355
351.30 1.355
351.40 1.354
351.50 1.354
351.60 1.353
351.70 1.353
351.80 1.352
351.90 1.352
352.00 1.352
352.10 1.351
352.20 1.351
352.30 1.35
352.40 1.35
352.50 1.349
352.60 1.349
352.70 1.348
352.80 1.348
352.90 1.348
353.00 1.347
353.10 1.347
353.20 1.346
353.30 1.346
353.40 1.345
353.50 1.345
353.60 1.345
353.70 1.344
353.80 1.344
353.90 1.343
354.00 1.343
354.10 1.342
354.20 1.342
354.30 1.341
354.40 1.341
354.50 1.341
354.60 1.34
354.70 1.34
354.80 1.339
354.90 1.339
355.00 1.338
355.10 1.338
355.20 1.338
355.30 1.337
355.40 1.337
355.50 1.336
355.60 1.336
355.70 1.335
355.80 1.335
355.90 1.334
356.00 1.334
356.10 1.334
356.20 1.333
356.30 1.333
356.40 1.332
356.50 1.332
356.60 1.331
356.70 1.331
356.80 1.33
356.90 1.33
357.00 1.33
357.10 1.329
357.20 1.329
357.30 1.328
357.40 1.328
357.50 1.327
357.60 1.327
357.70 1.327
357.80 1.326
357.90 1.326
358.00 1.325
358.10 1.325
358.20 1.324
358.30 1.324
358.40 1.323
358.50 1.323
358.60 1.323
358.70 1.322
358.80 1.322
358.90 1.321
359.00 1.321
359.10 1.32
359.20 1.32
359.30 1.32
359.40 1.319
359.50 1.319
359.60 1.318
359.70 1.318
359.80 1.317
359.90 1.317
360.00 1.316
360.10 1.316
360.20 1.316
360.30 1.315
360.40 1.315
360.50 1.314
360.60 1.314
360.70 1.313
360.80 1.313
360.90 1.312
361.00 1.312
361.10 1.312
361.20 1.311
361.30 1.311
361.40 1.31
361.50 1.31
361.60 1.309
361.70 1.309
361.80 1.309
361.90 1.308
362.00 1.308
362.10 1.307
362.20 1.307
362.30 1.306
362.40 1.306
362.50 1.305
362.60 1.305
362.70 1.305
362.80 1.304
362.90 1.304
363.00 1.303
363.10 1.303
363.20 1.302
363.30 1.302
363.40 1.301
363.50 1.301
363.60 1.3
363.70 1.3
363.80 1.299
363.90 1.299
364.00 1.298
364.10 1.298
364.20 1.297
364.30 1.297
364.40 1.297
364.50 1.296
364.60 1.296
364.70 1.295
364.80 1.295
364.90 1.294
365.00 1.294
365.10 1.293
365.20 1.293
365.30 1.292
365.40 1.292
365.50 1.291
365.60 1.291
365.70 1.29
365.80 1.29
365.90 1.289
366.00 1.289
366.10 1.288
366.20 1.288
366.30 1.287
366.40 1.287
366.50 1.286
366.60 1.286
366.70 1.286
366.80 1.285
366.90 1.285
367.00 1.284
367.10 1.284
367.20 1.283
367.30 1.283
367.40 1.283
367.50 1.282
367.60 1.282
367.70 1.281
367.80 1.281
367.90 1.28
368.00 1.28
368.10 1.28
368.20 1.279
368.30 1.279
368.40 1.279
368.50 1.279
368.60 1.279
368.70 1.278
368.80 1.278
368.90 1.278
369.00 1.278
369.10 1.277
369.20 1.277
369.30 1.277
369.40 1.277
369.50 1.277
369.60 1.276
369.70 1.276
369.80 1.276
369.90 1.276
370.00 1.275
370.10 1.276
370.20 1.276
370.30 1.276
370.40 1.277
370.50 1.277
370.60 1.277
370.70 1.278
370.80 1.278
370.90 1.278
371.00 1.279
371.10 1.279
371.20 1.279
371.30 1.279
371.40 1.28
371.50 1.28
371.60 1.28
371.70 1.281
371.80 1.281
371.90 1.281
372.00 1.282
372.10 1.282
372.20 1.283
372.30 1.284
372.40 1.285
372.50 1.286
372.60 1.287
372.70 1.287
372.80 1.288
372.90 1.289
373.00 1.29
373.10 1.291
373.20 1.291
373.30 1.292
373.40 1.293
373.50 1.294
373.60 1.295
373.70 1.296
373.80 1.296
373.90 1.297
374.00 1.298
374.10 1.299
374.20 1.3
374.30 1.301
374.40 1.302
374.50 1.303
374.60 1.304
374.70 1.305
374.80 1.306
374.90 1.306
375.00 1.307
375.10 1.308
375.20 1.309
375.30 1.31
375.40 1.311
375.50 1.312
375.60 1.313
375.70 1.314
375.80 1.315
375.90 1.316
376.00 1.317
376.10 1.317
376.20 1.318
376.30 1.318
376.40 1.319
376.50 1.319
376.60 1.32
376.70 1.32
376.80 1.321
376.90 1.321
377.00 1.322
377.10 1.321
377.20 1.321
377.30 1.32
377.40 1.32
377.50 1.319
377.60 1.319
377.70 1.318
377.80 1.318
377.90 1.317
378.00 1.316
378.10 1.311
378.20 1.306
378.30 1.301
378.40 1.296
378.50 1.291
378.60 1.286
378.70 1.281
378.80 1.276
378.90 1.271
379.00 1.266
379.10 1.258
379.20 1.25
379.30 1.241
379.40 1.233
379.50 1.225
379.60 1.217
379.70 1.209
379.80 1.201
379.90 1.193
380.00 1.185
380.10 1.196
380.20 1.207
380.30 1.218
380.40 1.229
380.50 1.24
380.60 1.251
380.70 1.262
380.80 1.273
380.90 1.284
381.00 1.295
381.10 1.298
381.20 1.3
381.30 1.302
381.40 1.304
381.50 1.306
381.60 1.306
381.70 1.305
381.80 1.303
381.90 1.301
382.00 1.298
382.10 1.293
382.20 1.288
382.30 1.271
382.40 1.255
382.50 1.238
382.60 1.222
382.70 1.205
382.80 1.189
382.90 1.172
383.00 1.156
383.10 1.139
383.20 1.123
383.30 1.092
383.40 1.055
383.50 1.017
383.60 1.025
383.70 1.064
383.80 1.1
383.90 1.131
384.00 1.159
384.10 1.184
384.20 1.207
384.30 1.227
384.40 1.245
384.50 1.26
384.60 1.273
384.70 1.283
384.80 1.292
384.90 1.3
385.00 1.306
385.10 1.311
385.20 1.316
385.30 1.32
385.40 1.323
385.50 1.325
385.60 1.327
385.70 1.328
385.80 1.329
385.90 1.33
386.00 1.329
386.10 1.329
386.20 1.328
386.30 1.326
386.40 1.324
386.50 1.322
386.60 1.319
386.70 1.316
386.80 1.312
386.90 1.307
387.00 1.302
387.10 1.296
387.20 1.29
387.30 1.282
387.40 1.274
387.50 1.264
387.60 1.253
387.70 1.241
387.80 1.226
387.90 1.209
388.00 1.19
388.10 1.165
388.20 1.136
388.30 1.104
388.40 1.063
388.50 1.02
388.60 0.9725
388.70 0.9162
388.80 0.8613
388.90 0.8077
389.00 0.8572
389.10 0.9105
389.20 0.9676
389.30 1.015
389.40 1.06
389.50 1.101
389.60 1.134
389.70 1.163
389.80 1.189
389.90 1.21
390.00 1.228
390.10 1.243
390.20 1.256
390.30 1.268
390.40 1.279
390.50 1.288
390.60 1.296
390.70 1.304
390.80 1.311
390.90 1.318
391.00 1.323
391.10 1.329
391.20 1.334
391.30 1.338
391.40 1.342
391.50 1.346
391.60 1.349
391.70 1.352
391.80 1.355
391.90 1.357
392.00 1.359
392.10 1.361
392.20 1.363
392.30 1.364
392.40 1.365
392.50 1.365
392.60 1.365
392.70 1.366
392.80 1.365
392.90 1.365
393.00 1.364
393.10 1.363
393.20 1.361
393.30 1.359
393.40 1.358
393.50 1.355
393.60 1.352
393.70 1.349
393.80 1.346
393.90 1.342
394.00 1.338
394.10 1.334
394.20 1.329
394.30 1.323
394.40 1.318
394.50 1.311
394.60 1.305
394.70 1.297
394.80 1.29
394.90 1.281
395.00 1.272
395.10 1.263
395.20 1.253
395.30 1.241
395.40 1.229
395.50 1.216
395.60 1.202
395.70 1.186
395.80 1.169
395.90 1.15
396.00 1.128
396.10 1.103
396.20 1.073
396.30 1.037
396.40 0.9969
396.50 0.9437
396.60 0.8842
396.70 0.8183
396.80 0.7436
396.90 0.6653
397.00 0.5835
397.10 0.6578
397.20 0.7326
397.30 0.8078
397.40 0.8744
397.50 0.9347
397.60 0.9887
397.70 1.03
397.80 1.066
397.90 1.097
398.00 1.121
398.10 1.143
398.20 1.163
398.30 1.179
398.40 1.195
398.50 1.209
398.60 1.222
398.70 1.234
398.80 1.245
398.90 1.255
399.00 1.265
399.10 1.274
399.20 1.282
399.30 1.29
399.40 1.298
399.50 1.305
399.60 1.311
399.70 1.317
399.80 1.323
399.90 1.328
400.00 1.334
400.10 1.338
400.20 1.343
400.30 1.347
400.40 1.351
400.50 1.354
400.60 1.358
400.70 1.361
400.80 1.364
400.90 1.367
401.00 1.369
401.10 1.372
401.20 1.374
401.30 1.376
401.40 1.378
401.50 1.379
401.60 1.381
401.70 1.382
401.80 1.384
401.90 1.385
402.00 1.386
402.10 1.387
402.20 1.388
402.30 1.388
402.40 1.389
402.50 1.39
402.60 1.39
402.70 1.39
402.80 1.391
402.90 1.391
403.00 1.391
403.10 1.391
403.20 1.39
403.30 1.39
403.40 1.39
403.50 1.389
403.60 1.389
403.70 1.388
403.80 1.388
403.90 1.387
404.00 1.386
404.10 1.385
404.20 1.384
404.30 1.383
404.40 1.382
404.50 1.38
404.60 1.379
404.70 1.377
404.80 1.375
404.90 1.374
405.00 1.372
405.10 1.37
405.20 1.367
405.30 1.365
405.40 1.363
405.50 1.36
405.60 1.357
405.70 1.355
405.80 1.351
405.90 1.348
406.00 1.345
406.10 1.341
406.20 1.337
406.30 1.333
406.40 1.329
406.50 1.325
406.60 1.32
406.70 1.315
406.80 1.31
406.90 1.304
407.00 1.298
407.10 1.292
407.20 1.286
407.30 1.279
407.40 1.271
407.50 1.264
407.60 1.255
407.70 1.246
407.80 1.237
407.90 1.227
408.00 1.217
408.10 1.206
408.20 1.194
408.30 1.182
408.40 1.168
408.50 1.154
408.60 1.139
408.70 1.123
408.80 1.105
408.90 1.086
409.00 1.067
409.10 1.044
409.20 1.018
409.30 0.9909
409.40 0.9565
409.50 0.9168
409.60 0.8719
409.70 0.8124
409.80 0.7456
409.90 0.6718
410.00 0.5926
410.10 0.5273
410.20 0.4756
410.30 0.5566
410.40 0.6355
410.50 0.7124
410.60 0.7817
410.70 0.843
410.80 0.8963
410.90 0.9365
411.00 0.9719
411.10 1.003
411.20 1.028
411.30 1.051
411.40 1.072
411.50 1.09
411.60 1.107
411.70 1.124
411.80 1.138
411.90 1.152
412.00 1.165
412.10 1.177
412.20 1.188
412.30 1.199
412.40 1.209
412.50 1.218
412.60 1.227
412.70 1.235
412.80 1.242
412.90 1.25
413.00 1.256
413.10 1.263
413.20 1.269
413.30 1.274
413.40 1.28
413.50 1.285
413.60 1.289
413.70 1.294
413.80 1.298
413.90 1.302
414.00 1.305
414.10 1.309
414.20 1.312
414.30 1.315
414.40 1.318
414.50 1.321
414.60 1.323
414.70 1.326
414.80 1.328
414.90 1.33
415.00 1.332
415.10 1.334
415.20 1.336
415.30 1.337
415.40 1.339
415.50 1.34
415.60 1.342
415.70 1.343
415.80 1.344
415.90 1.345
416.00 1.346
416.10 1.347
416.20 1.348
416.30 1.349
416.40 1.35
416.50 1.351
416.60 1.351
416.70 1.352
416.80 1.353
416.90 1.353
417.00 1.354
417.10 1.354
417.20 1.355
417.30 1.355
417.40 1.355
417.50 1.356
417.60 1.356
417.70 1.356
417.80 1.356
417.90 1.357
418.00 1.357
418.10 1.357
418.20 1.357
418.30 1.357
418.40 1.357
418.50 1.357
418.60 1.357
418.70 1.357
418.80 1.357
418.90 1.357
419.00 1.357
419.10 1.357
419.20 1.357
419.30 1.357
419.40 1.356
419.50 1.356
419.60 1.356
419.70 1.356
419.80 1.356
419.90 1.355
420.00 1.355
420.10 1.355
420.20 1.354
420.30 1.354
420.40 1.354
420.50 1.354
420.60 1.353
420.70 1.353
420.80 1.352
420.90 1.352
421.00 1.352
421.10 1.351
421.20 1.351
421.30 1.35
421.40 1.35
421.50 1.35
421.60 1.349
421.70 1.349
421.80 1.348
421.90 1.348
422.00 1.347
422.10 1.347
422.20 1.346
422.30 1.346
422.40 1.345
422.50 1.344
422.60 1.344
422.70 1.343
422.80 1.343
422.90 1.342
423.00 1.341
423.10 1.341
423.20 1.34
423.30 1.34
423.40 1.339
423.50 1.338
423.60 1.338
423.70 1.337
423.80 1.336
423.90 1.335
424.00 1.335
424.10 1.334
424.20 1.333
424.30 1.332
424.40 1.332
424.50 1.331
424.60 1.33
424.70 1.329
424.80 1.328
424.90 1.327
425.00 1.327
425.10 1.326
425.20 1.325
425.30 1.324
425.40 1.323
425.50 1.322
425.60 1.321
425.70 1.32
425.80 1.319
425.90 1.318
426.00 1.317
426.10 1.316
426.20 1.314
426.30 1.313
426.40 1.312
426.50 1.311
426.60 1.309
426.70 1.308
426.80 1.307
426.90 1.305
427.00 1.304
427.10 1.303
427.20 1.301
427.30 1.3
427.40 1.298
427.50 1.296
427.60 1.295
427.70 1.293
427.80 1.291
427.90 1.29
428.00 1.288
428.10 1.286
428.20 1.284
428.30 1.282
428.40 1.28
428.50 1.277
428.60 1.275
428.70 1.273
428.80 1.27
428.90 1.268
429.00 1.265
429.10 1.263
429.20 1.26
429.30 1.257
429.40 1.254
429.50 1.251
429.60 1.247
429.70 1.244
429.80 1.24
429.90 1.236
430.00 1.232
430.10 1.228
430.20 1.224
430.30 1.22
430.40 1.215
430.50 1.21
430.60 1.205
430.70 1.199
430.80 1.194
430.90 1.188
431.00 1.182
431.10 1.175
431.20 1.168
431.30 1.161
431.40 1.154
431.50 1.146
431.60 1.137
431.70 1.128
431.80 1.119
431.90 1.109
432.00 1.098
432.10 1.087
432.20 1.074
432.30 1.061
432.40 1.046
432.50 1.03
432.60 1.012
432.70 0.9934
432.80 0.9718
432.90 0.9491
433.00 0.9252
433.10 0.8992
433.20 0.8711
433.30 0.841
433.40 0.803
433.50 0.7587
433.60 0.7082
433.70 0.6437
433.80 0.5786
433.90 0.5128
434.00 0.4454
434.10 0.4472
434.20 0.5178
434.30 0.5835
434.40 0.6482
434.50 0.7118
434.60 0.7609
434.70 0.804
434.80 0.8409
434.90 0.8701
435.00 0.8973
435.10 0.9225
435.20 0.9455
435.30 0.9673
435.40 0.9879
435.50 1.006
435.60 1.023
435.70 1.038
435.80 1.051
435.90 1.064
436.00 1.075
436.10 1.086
436.20 1.095
436.30 1.105
436.40 1.113
436.50 1.121
436.60 1.128
436.70 1.135
436.80 1.142
436.90 1.148
437.00 1.154
437.10 1.159
437.20 1.164
437.30 1.169
437.40 1.174
437.50 1.178
437.60 1.182
437.70 1.186
437.80 1.19
437.90 1.193
438.00 1.196
438.10 1.199
438.20 1.202
438.30 1.205
438.40 1.208
438.50 1.21
438.60 1.212
438.70 1.215
438.80 1.217
438.90 1.218
439.00 1.22
439.10 1.222
439.20 1.224
439.30 1.225
439.40 1.226
439.50 1.228
439.60 1.229
439.70 1.23
439.80 1.231
439.90 1.232
440.00 1.233
440.10 1.234
440.20 1.235
440.30 1.236
440.40 1.237
440.50 1.237
440.60 1.238
440.70 1.238
440.80 1.239
440.90 1.24
441.00 1.24
441.10 1.24
441.20 1.241
441.30 1.241
441.40 1.242
441.50 1.242
441.60 1.242
441.70 1.242
441.80 1.243
441.90 1.243
442.00 1.243
442.10 1.243
442.20 1.243
442.30 1.243
442.40 1.243
442.50 1.244
442.60 1.244
442.70 1.244
442.80 1.244
442.90 1.244
443.00 1.244
443.10 1.244
443.20 1.243
443.30 1.243
443.40 1.243
443.50 1.243
443.60 1.243
443.70 1.243
443.80 1.243
443.90 1.243
444.00 1.243
444.10 1.243
444.20 1.242
444.30 1.242
444.40 1.242
444.50 1.242
444.60 1.242
444.70 1.241
444.80 1.241
444.90 1.241
445.00 1.241
445.10 1.24
445.20 1.24
445.30 1.24
445.40 1.24
445.50 1.239
445.60 1.239
445.70 1.239
445.80 1.239
445.90 1.238
446.00 1.238
446.10 1.238
446.20 1.237
446.30 1.237
446.40 1.237
446.50 1.237
446.60 1.236
446.70 1.236
446.80 1.236
446.90 1.235
447.00 1.235
447.10 1.235
447.20 1.234
447.30 1.234
447.40 1.234
447.50 1.233
447.60 1.233
447.70 1.232
447.80 1.232
447.90 1.232
448.00 1.231
448.10 1.231
448.20 1.231
448.30 1.23
448.40 1.23
448.50 1.229
448.60 1.229
448.70 1.229
448.80 1.228
448.90 1.228
449.00 1.228
449.10 1.227
449.20 1.227
449.30 1.226
449.40 1.226
449.50 1.226
449.60 1.225
449.70 1.225
449.80 1.224
449.90 1.224
450.00 1.224
450.10 1.223
450.20 1.223
450.30 1.222
450.40 1.222
450.50 1.221
450.60 1.221
450.70 1.221
450.80 1.22
450.90 1.22
451.00 1.219
451.10 1.219
451.20 1.218
451.30 1.218
451.40 1.218
451.50 1.217
451.60 1.217
451.70 1.216
451.80 1.216
451.90 1.215
452.00 1.215
452.10 1.215
452.20 1.214
452.30 1.214
452.40 1.213
452.50 1.213
452.60 1.212
452.70 1.212
452.80 1.212
452.90 1.211
453.00 1.211
453.10 1.21
453.20 1.21
453.30 1.209
453.40 1.209
453.50 1.208
453.60 1.208
