# Version 2.1 - nm, norm@500 to 1, cut digits, bergeron_3000_75.dat_3000
# Wavelength(nm)  Flambda(ergs/cm^s/s/nm)
300.00 0.08234
300.10 0.08256
300.20 0.08277
300.30 0.083
300.40 0.08322
300.50 0.08344
300.60 0.08366
300.70 0.08388
300.80 0.0841
300.90 0.08432
301.00 0.08454
301.10 0.08476
301.20 0.08498
301.30 0.0852
301.40 0.08542
301.50 0.08564
301.60 0.08586
301.70 0.08608
301.80 0.08629
301.90 0.08651
302.00 0.08673
302.10 0.08696
302.20 0.08719
302.30 0.08742
302.40 0.08765
302.50 0.08788
302.60 0.08811
302.70 0.08833
302.80 0.08856
302.90 0.08879
303.00 0.08902
303.10 0.08925
303.20 0.08947
303.30 0.0897
303.40 0.08992
303.50 0.09015
303.60 0.09038
303.70 0.0906
303.80 0.09083
303.90 0.09105
304.00 0.09128
304.10 0.09152
304.20 0.09175
304.30 0.09199
304.40 0.09223
304.50 0.09246
304.60 0.0927
304.70 0.09294
304.80 0.09317
304.90 0.09341
305.00 0.09364
305.10 0.09388
305.20 0.09411
305.30 0.09435
305.40 0.09458
305.50 0.09481
305.60 0.09505
305.70 0.09528
305.80 0.09551
305.90 0.09574
306.00 0.09598
306.10 0.09622
306.20 0.09647
306.30 0.09671
306.40 0.09695
306.50 0.0972
306.60 0.09744
306.70 0.09768
306.80 0.09792
306.90 0.09817
307.00 0.09841
307.10 0.09865
307.20 0.09889
307.30 0.09913
307.40 0.09937
307.50 0.09961
307.60 0.09985
307.70 0.1001
307.80 0.1003
307.90 0.1006
308.00 0.1008
308.10 0.1011
308.20 0.1013
308.30 0.1016
308.40 0.1018
308.50 0.1021
308.60 0.1023
308.70 0.1026
308.80 0.1028
308.90 0.1031
309.00 0.1033
309.10 0.1036
309.20 0.1038
309.30 0.1041
309.40 0.1043
309.50 0.1046
309.60 0.1048
309.70 0.1051
309.80 0.1053
309.90 0.1056
310.00 0.1058
310.10 0.1061
310.20 0.1063
310.30 0.1066
310.40 0.1068
310.50 0.1071
310.60 0.1074
310.70 0.1076
310.80 0.1079
310.90 0.1081
311.00 0.1084
311.10 0.1086
311.20 0.1089
311.30 0.1092
311.40 0.1094
311.50 0.1097
311.60 0.1099
311.70 0.1102
311.80 0.1104
311.90 0.1107
312.00 0.1109
312.10 0.1112
312.20 0.1115
312.30 0.1117
312.40 0.112
312.50 0.1123
312.60 0.1125
312.70 0.1128
312.80 0.1131
312.90 0.1133
313.00 0.1136
313.10 0.1138
313.20 0.1141
313.30 0.1144
313.40 0.1146
313.50 0.1149
313.60 0.1152
313.70 0.1154
313.80 0.1157
313.90 0.116
314.00 0.1162
314.10 0.1165
314.20 0.1168
314.30 0.117
314.40 0.1173
314.50 0.1176
314.60 0.1179
314.70 0.1181
314.80 0.1184
314.90 0.1187
315.00 0.1189
315.10 0.1192
315.20 0.1195
315.30 0.1197
315.40 0.12
315.50 0.1203
315.60 0.1206
315.70 0.1208
315.80 0.1211
315.90 0.1214
316.00 0.1216
316.10 0.1219
316.20 0.1222
316.30 0.1225
316.40 0.1228
316.50 0.123
316.60 0.1233
316.70 0.1236
316.80 0.1239
316.90 0.1242
317.00 0.1244
317.10 0.1247
317.20 0.125
317.30 0.1253
317.40 0.1255
317.50 0.1258
317.60 0.1261
317.70 0.1264
317.80 0.1267
317.90 0.1269
318.00 0.1272
318.10 0.1275
318.20 0.1278
318.30 0.1281
318.40 0.1284
318.50 0.1286
318.60 0.1289
318.70 0.1292
318.80 0.1295
318.90 0.1298
319.00 0.1301
319.10 0.1304
319.20 0.1306
319.30 0.1309
319.40 0.1312
319.50 0.1315
319.60 0.1318
319.70 0.1321
319.80 0.1324
319.90 0.1326
320.00 0.1329
320.10 0.1332
320.20 0.1335
320.30 0.1338
320.40 0.1341
320.50 0.1344
320.60 0.1347
320.70 0.135
320.80 0.1353
320.90 0.1356
321.00 0.1359
321.10 0.1362
321.20 0.1365
321.30 0.1367
321.40 0.137
321.50 0.1373
321.60 0.1376
321.70 0.1379
321.80 0.1382
321.90 0.1385
322.00 0.1388
322.10 0.1391
322.20 0.1394
322.30 0.1397
322.40 0.14
322.50 0.1403
322.60 0.1406
322.70 0.1409
322.80 0.1412
322.90 0.1415
323.00 0.1418
323.10 0.1421
323.20 0.1424
323.30 0.1427
323.40 0.143
323.50 0.1433
323.60 0.1436
323.70 0.1439
323.80 0.1442
323.90 0.1445
324.00 0.1448
324.10 0.1451
324.20 0.1454
324.30 0.1457
324.40 0.146
324.50 0.1463
324.60 0.1466
324.70 0.147
324.80 0.1473
324.90 0.1476
325.00 0.1479
325.10 0.1482
325.20 0.1485
325.30 0.1488
325.40 0.1491
325.50 0.1494
325.60 0.1497
325.70 0.15
325.80 0.1503
325.90 0.1506
326.00 0.1509
326.10 0.1513
326.20 0.1516
326.30 0.1519
326.40 0.1522
326.50 0.1525
326.60 0.1528
326.70 0.1532
326.80 0.1535
326.90 0.1538
327.00 0.1541
327.10 0.1544
327.20 0.1547
327.30 0.155
327.40 0.1554
327.50 0.1557
327.60 0.156
327.70 0.1563
327.80 0.1566
327.90 0.1569
328.00 0.1572
328.10 0.1576
328.20 0.1579
328.30 0.1582
328.40 0.1585
328.50 0.1589
328.60 0.1592
328.70 0.1595
328.80 0.1598
328.90 0.1601
329.00 0.1605
329.10 0.1608
329.20 0.1611
329.30 0.1614
329.40 0.1618
329.50 0.1621
329.60 0.1624
329.70 0.1627
329.80 0.163
329.90 0.1633
330.00 0.1637
330.10 0.164
330.20 0.1643
330.30 0.1647
330.40 0.165
330.50 0.1653
330.60 0.1657
330.70 0.166
330.80 0.1663
330.90 0.1666
331.00 0.167
331.10 0.1673
331.20 0.1676
331.30 0.168
331.40 0.1683
331.50 0.1686
331.60 0.1689
331.70 0.1693
331.80 0.1696
331.90 0.1699
332.00 0.1702
332.10 0.1706
332.20 0.1709
332.30 0.1713
332.40 0.1716
332.50 0.1719
332.60 0.1723
332.70 0.1726
332.80 0.173
332.90 0.1733
333.00 0.1736
333.10 0.174
333.20 0.1743
333.30 0.1746
333.40 0.175
333.50 0.1753
333.60 0.1756
333.70 0.176
333.80 0.1763
333.90 0.1766
334.00 0.177
334.10 0.1773
334.20 0.1777
334.30 0.178
334.40 0.1784
334.50 0.1787
334.60 0.179
334.70 0.1794
334.80 0.1797
334.90 0.1801
335.00 0.1804
335.10 0.1808
335.20 0.1811
335.30 0.1814
335.40 0.1818
335.50 0.1821
335.60 0.1825
335.70 0.1828
335.80 0.1831
335.90 0.1835
336.00 0.1838
336.10 0.1842
336.20 0.1845
336.30 0.1849
336.40 0.1852
336.50 0.1856
336.60 0.1859
336.70 0.1863
336.80 0.1866
336.90 0.187
337.00 0.1873
337.10 0.1877
337.20 0.188
337.30 0.1884
337.40 0.1887
337.50 0.1891
337.60 0.1894
337.70 0.1898
337.80 0.1901
337.90 0.1905
338.00 0.1908
338.10 0.1912
338.20 0.1915
338.30 0.1919
338.40 0.1923
338.50 0.1926
338.60 0.193
338.70 0.1933
338.80 0.1937
338.90 0.1941
339.00 0.1944
339.10 0.1948
339.20 0.1951
339.30 0.1955
339.40 0.1958
339.50 0.1962
339.60 0.1965
339.70 0.1969
339.80 0.1973
339.90 0.1976
340.00 0.198
340.10 0.1983
340.20 0.1987
340.30 0.1991
340.40 0.1994
340.50 0.1998
340.60 0.2002
340.70 0.2005
340.80 0.2009
340.90 0.2012
341.00 0.2016
341.10 0.202
341.20 0.2023
341.30 0.2027
341.40 0.2031
341.50 0.2034
341.60 0.2038
341.70 0.2041
341.80 0.2045
341.90 0.2049
342.00 0.2052
342.10 0.2056
342.20 0.206
342.30 0.2063
342.40 0.2067
342.50 0.2071
342.60 0.2075
342.70 0.2078
342.80 0.2082
342.90 0.2086
343.00 0.2089
343.10 0.2093
343.20 0.2097
343.30 0.2101
343.40 0.2104
343.50 0.2108
343.60 0.2112
343.70 0.2115
343.80 0.2119
343.90 0.2123
344.00 0.2126
344.10 0.213
344.20 0.2134
344.30 0.2138
344.40 0.2141
344.50 0.2145
344.60 0.2149
344.70 0.2153
344.80 0.2157
344.90 0.216
345.00 0.2164
345.10 0.2168
345.20 0.2172
345.30 0.2175
345.40 0.2179
345.50 0.2183
345.60 0.2187
345.70 0.219
345.80 0.2194
345.90 0.2198
346.00 0.2202
346.10 0.2206
346.20 0.2209
346.30 0.2213
346.40 0.2217
346.50 0.2221
346.60 0.2225
346.70 0.2229
346.80 0.2233
346.90 0.2236
347.00 0.224
347.10 0.2244
347.20 0.2248
347.30 0.2252
347.40 0.2255
347.50 0.2259
347.60 0.2263
347.70 0.2267
347.80 0.2271
347.90 0.2274
348.00 0.2278
348.10 0.2282
348.20 0.2286
348.30 0.229
348.40 0.2294
348.50 0.2298
348.60 0.2302
348.70 0.2306
348.80 0.231
348.90 0.2314
349.00 0.2317
349.10 0.2321
349.20 0.2325
349.30 0.2329
349.40 0.2333
349.50 0.2337
349.60 0.2341
349.70 0.2345
349.80 0.2348
349.90 0.2352
350.00 0.2356
350.10 0.236
350.20 0.2364
350.30 0.2368
350.40 0.2372
350.50 0.2376
350.60 0.238
350.70 0.2384
350.80 0.2388
350.90 0.2392
351.00 0.2396
351.10 0.24
351.20 0.2404
351.30 0.2408
351.40 0.2412
351.50 0.2416
351.60 0.242
351.70 0.2424
351.80 0.2428
351.90 0.2431
352.00 0.2435
352.10 0.2439
352.20 0.2444
352.30 0.2448
352.40 0.2452
352.50 0.2456
352.60 0.246
352.70 0.2464
352.80 0.2468
352.90 0.2472
353.00 0.2476
353.10 0.248
353.20 0.2484
353.30 0.2488
353.40 0.2492
353.50 0.2496
353.60 0.25
353.70 0.2504
353.80 0.2508
353.90 0.2512
354.00 0.2516
354.10 0.252
354.20 0.2524
354.30 0.2528
354.40 0.2532
354.50 0.2536
354.60 0.2541
354.70 0.2545
354.80 0.2549
354.90 0.2553
355.00 0.2557
355.10 0.2561
355.20 0.2565
355.30 0.2569
355.40 0.2573
355.50 0.2577
355.60 0.2581
355.70 0.2585
355.80 0.2589
355.90 0.2593
356.00 0.2598
356.10 0.2602
356.20 0.2606
356.30 0.261
356.40 0.2614
356.50 0.2618
356.60 0.2623
356.70 0.2627
356.80 0.2631
356.90 0.2635
357.00 0.2639
357.10 0.2643
357.20 0.2647
357.30 0.2652
357.40 0.2656
357.50 0.266
357.60 0.2664
357.70 0.2668
357.80 0.2672
357.90 0.2676
358.00 0.268
358.10 0.2685
358.20 0.2689
358.30 0.2693
358.40 0.2697
358.50 0.2702
358.60 0.2706
358.70 0.271
358.80 0.2714
358.90 0.2718
359.00 0.2723
359.10 0.2727
359.20 0.2731
359.30 0.2735
359.40 0.2739
359.50 0.2744
359.60 0.2748
359.70 0.2752
359.80 0.2756
359.90 0.276
360.00 0.2764
360.10 0.2769
360.20 0.2773
360.30 0.2777
360.40 0.2782
360.50 0.2786
360.60 0.279
360.70 0.2794
360.80 0.2799
360.90 0.2803
361.00 0.2807
361.10 0.2812
361.20 0.2816
361.30 0.282
361.40 0.2824
361.50 0.2829
361.60 0.2833
361.70 0.2837
361.80 0.2841
361.90 0.2845
362.00 0.285
362.10 0.2854
362.20 0.2858
362.30 0.2863
362.40 0.2867
362.50 0.2871
362.60 0.2876
362.70 0.288
362.80 0.2884
362.90 0.2888
363.00 0.2893
363.10 0.2897
363.20 0.2901
363.30 0.2906
363.40 0.291
363.50 0.2915
363.60 0.2919
363.70 0.2923
363.80 0.2928
363.90 0.2932
364.00 0.2936
364.10 0.2941
364.20 0.2945
364.30 0.2949
364.40 0.2953
364.50 0.2958
364.60 0.2962
364.70 0.2967
364.80 0.2971
364.90 0.2975
365.00 0.298
365.10 0.2984
365.20 0.2989
365.30 0.2993
365.40 0.2997
365.50 0.3002
365.60 0.3006
365.70 0.301
365.80 0.3015
365.90 0.3019
366.00 0.3023
366.10 0.3028
366.20 0.3032
366.30 0.3037
366.40 0.3041
366.50 0.3046
366.60 0.305
366.70 0.3055
366.80 0.3059
366.90 0.3064
367.00 0.3068
367.10 0.3072
367.20 0.3077
367.30 0.3081
367.40 0.3086
367.50 0.309
367.60 0.3094
367.70 0.3099
367.80 0.3103
367.90 0.3108
368.00 0.3112
368.10 0.3117
368.20 0.3121
368.30 0.3126
368.40 0.313
368.50 0.3135
368.60 0.3139
368.70 0.3144
368.80 0.3148
368.90 0.3153
369.00 0.3157
369.10 0.3162
369.20 0.3166
369.30 0.3171
369.40 0.3175
369.50 0.3179
369.60 0.3184
369.70 0.3188
369.80 0.3193
369.90 0.3197
370.00 0.3202
370.10 0.3206
370.20 0.3211
370.30 0.3215
370.40 0.322
370.50 0.3225
370.60 0.3229
370.70 0.3234
370.80 0.3238
370.90 0.3243
371.00 0.3247
371.10 0.3252
371.20 0.3256
371.30 0.3261
371.40 0.3265
371.50 0.327
371.60 0.3274
371.70 0.3279
371.80 0.3283
371.90 0.3288
372.00 0.3292
372.10 0.3297
372.20 0.3302
372.30 0.3306
372.40 0.3311
372.50 0.3315
372.60 0.332
372.70 0.3325
372.80 0.3329
372.90 0.3334
373.00 0.3338
373.10 0.3343
373.20 0.3348
373.30 0.3352
373.40 0.3357
373.50 0.3361
373.60 0.3366
373.70 0.337
373.80 0.3375
373.90 0.3379
374.00 0.3384
374.10 0.3389
374.20 0.3393
374.30 0.3398
374.40 0.3403
374.50 0.3407
374.60 0.3412
374.70 0.3417
374.80 0.3421
374.90 0.3426
375.00 0.3431
375.10 0.3435
375.20 0.344
375.30 0.3444
375.40 0.3449
375.50 0.3454
375.60 0.3458
375.70 0.3463
375.80 0.3468
375.90 0.3472
376.00 0.3477
376.10 0.3481
376.20 0.3486
376.30 0.3491
376.40 0.3495
376.50 0.35
376.60 0.3505
376.70 0.3509
376.80 0.3514
376.90 0.3519
377.00 0.3523
377.10 0.3528
377.20 0.3533
377.30 0.3537
377.40 0.3542
377.50 0.3547
377.60 0.3552
377.70 0.3556
377.80 0.3561
377.90 0.3566
378.00 0.357
378.10 0.3575
378.20 0.358
378.30 0.3584
378.40 0.3589
378.50 0.3594
378.60 0.3599
378.70 0.3603
378.80 0.3608
378.90 0.3613
379.00 0.3617
379.10 0.3622
379.20 0.3627
379.30 0.3632
379.40 0.3636
379.50 0.3641
379.60 0.3646
379.70 0.3651
379.80 0.3655
379.90 0.366
380.00 0.3665
380.10 0.367
380.20 0.3674
380.30 0.3679
380.40 0.3684
380.50 0.3689
380.60 0.3693
380.70 0.3698
380.80 0.3703
380.90 0.3708
381.00 0.3712
381.10 0.3717
381.20 0.3722
381.30 0.3727
381.40 0.3732
381.50 0.3736
381.60 0.3741
381.70 0.3746
381.80 0.3751
381.90 0.3756
382.00 0.376
382.10 0.3765
382.20 0.377
382.30 0.3775
382.40 0.378
382.50 0.3784
382.60 0.3789
382.70 0.3794
382.80 0.3799
382.90 0.3804
383.00 0.3808
383.10 0.3813
383.20 0.3818
383.30 0.3823
383.40 0.3828
383.50 0.3832
383.60 0.3837
383.70 0.3842
383.80 0.3847
383.90 0.3852
384.00 0.3857
384.10 0.3861
384.20 0.3866
384.30 0.3871
384.40 0.3876
384.50 0.3881
384.60 0.3886
384.70 0.3891
384.80 0.3895
384.90 0.39
385.00 0.3905
385.10 0.391
385.20 0.3915
385.30 0.392
385.40 0.3925
385.50 0.3929
385.60 0.3934
385.70 0.3939
385.80 0.3944
385.90 0.3949
386.00 0.3954
386.10 0.3959
386.20 0.3964
386.30 0.3968
386.40 0.3973
386.50 0.3978
386.60 0.3983
386.70 0.3988
386.80 0.3993
386.90 0.3998
387.00 0.4003
387.10 0.4008
387.20 0.4013
387.30 0.4017
387.40 0.4022
387.50 0.4027
387.60 0.4032
387.70 0.4037
387.80 0.4042
387.90 0.4047
388.00 0.4052
388.10 0.4057
388.20 0.4062
388.30 0.4067
388.40 0.4072
388.50 0.4076
388.60 0.4081
388.70 0.4086
388.80 0.4091
388.90 0.4096
389.00 0.4101
389.10 0.4106
389.20 0.4111
389.30 0.4116
389.40 0.4121
389.50 0.4126
389.60 0.4131
389.70 0.4136
389.80 0.4141
389.90 0.4146
390.00 0.4151
390.10 0.4156
390.20 0.4161
390.30 0.4166
390.40 0.417
390.50 0.4175
390.60 0.418
390.70 0.4185
390.80 0.419
390.90 0.4195
391.00 0.42
391.10 0.4205
391.20 0.421
391.30 0.4215
391.40 0.422
391.50 0.4225
391.60 0.423
391.70 0.4235
391.80 0.424
391.90 0.4245
392.00 0.425
392.10 0.4255
392.20 0.426
392.30 0.4265
392.40 0.427
392.50 0.4275
392.60 0.428
392.70 0.4285
392.80 0.429
392.90 0.4295
393.00 0.43
393.10 0.4305
393.20 0.431
393.30 0.4315
393.40 0.432
393.50 0.4325
393.60 0.433
393.70 0.4335
393.80 0.434
393.90 0.4345
394.00 0.435
394.10 0.4356
394.20 0.4361
394.30 0.4366
394.40 0.4371
394.50 0.4376
394.60 0.4381
394.70 0.4386
394.80 0.4391
394.90 0.4396
395.00 0.4401
395.10 0.4406
395.20 0.4411
395.30 0.4416
395.40 0.4421
395.50 0.4426
395.60 0.4431
395.70 0.4436
395.80 0.4441
395.90 0.4446
396.00 0.4452
396.10 0.4457
396.20 0.4462
396.30 0.4467
396.40 0.4472
396.50 0.4477
396.60 0.4482
396.70 0.4487
396.80 0.4492
396.90 0.4497
397.00 0.4502
397.10 0.4507
397.20 0.4512
397.30 0.4518
397.40 0.4523
397.50 0.4528
397.60 0.4533
397.70 0.4538
397.80 0.4543
397.90 0.4548
398.00 0.4553
398.10 0.4558
398.20 0.4563
398.30 0.4569
398.40 0.4574
398.50 0.4579
398.60 0.4584
398.70 0.4589
398.80 0.4594
398.90 0.4599
399.00 0.4604
399.10 0.4609
399.20 0.4615
399.30 0.462
399.40 0.4625
399.50 0.463
399.60 0.4635
399.70 0.464
399.80 0.4645
399.90 0.465
400.00 0.4655
400.10 0.4661
400.20 0.4666
400.30 0.4671
400.40 0.4676
400.50 0.4681
400.60 0.4686
400.70 0.4691
400.80 0.4697
400.90 0.4702
401.00 0.4707
401.10 0.4712
401.20 0.4717
401.30 0.4722
401.40 0.4727
401.50 0.4733
401.60 0.4738
401.70 0.4743
401.80 0.4748
401.90 0.4753
402.00 0.4759
402.10 0.4764
402.20 0.4769
402.30 0.4774
402.40 0.4779
402.50 0.4785
402.60 0.479
402.70 0.4795
402.80 0.48
402.90 0.4805
403.00 0.481
403.10 0.4815
403.20 0.4821
403.30 0.4826
403.40 0.4831
403.50 0.4836
403.60 0.4841
403.70 0.4846
403.80 0.4852
403.90 0.4857
404.00 0.4862
404.10 0.4867
404.20 0.4872
404.30 0.4878
404.40 0.4883
404.50 0.4888
404.60 0.4893
404.70 0.4898
404.80 0.4903
404.90 0.4909
405.00 0.4914
405.10 0.4919
405.20 0.4925
405.30 0.493
405.40 0.4935
405.50 0.494
405.60 0.4945
405.70 0.495
405.80 0.4956
405.90 0.4961
406.00 0.4966
406.10 0.4971
406.20 0.4977
406.30 0.4982
406.40 0.4987
406.50 0.4992
406.60 0.4998
406.70 0.5003
406.80 0.5008
406.90 0.5013
407.00 0.5018
407.10 0.5024
407.20 0.5029
407.30 0.5034
407.40 0.5039
407.50 0.5045
407.60 0.505
407.70 0.5055
407.80 0.506
407.90 0.5066
408.00 0.5071
408.10 0.5076
408.20 0.5081
408.30 0.5087
408.40 0.5092
408.50 0.5097
408.60 0.5102
408.70 0.5108
408.80 0.5113
408.90 0.5118
409.00 0.5124
409.10 0.5129
409.20 0.5134
409.30 0.5139
409.40 0.5144
409.50 0.515
409.60 0.5155
409.70 0.516
409.80 0.5166
409.90 0.5171
410.00 0.5176
410.10 0.5181
410.20 0.5186
410.30 0.5192
410.40 0.5197
410.50 0.5203
410.60 0.5208
410.70 0.5213
410.80 0.5218
410.90 0.5224
411.00 0.5229
411.10 0.5234
411.20 0.5239
411.30 0.5244
411.40 0.525
411.50 0.5255
411.60 0.526
411.70 0.5266
411.80 0.5271
411.90 0.5276
412.00 0.5282
412.10 0.5287
412.20 0.5292
412.30 0.5297
412.40 0.5303
412.50 0.5308
412.60 0.5314
412.70 0.5319
412.80 0.5324
412.90 0.5329
413.00 0.5335
413.10 0.534
413.20 0.5345
413.30 0.5351
413.40 0.5356
413.50 0.5361
413.60 0.5367
413.70 0.5372
413.80 0.5377
413.90 0.5383
414.00 0.5388
414.10 0.5393
414.20 0.5398
414.30 0.5404
414.40 0.5409
414.50 0.5414
414.60 0.542
414.70 0.5425
414.80 0.543
414.90 0.5436
415.00 0.5441
415.10 0.5446
415.20 0.5452
415.30 0.5457
415.40 0.5462
415.50 0.5467
415.60 0.5473
415.70 0.5478
415.80 0.5484
415.90 0.5489
416.00 0.5494
416.10 0.55
416.20 0.5505
416.30 0.551
416.40 0.5516
416.50 0.5521
416.60 0.5526
416.70 0.5531
416.80 0.5537
416.90 0.5542
417.00 0.5548
417.10 0.5553
417.20 0.5558
417.30 0.5564
417.40 0.5569
417.50 0.5574
417.60 0.558
417.70 0.5585
417.80 0.559
417.90 0.5596
418.00 0.5601
418.10 0.5606
418.20 0.5612
418.30 0.5617
418.40 0.5623
418.50 0.5628
418.60 0.5633
418.70 0.5639
418.80 0.5644
418.90 0.5649
419.00 0.5655
419.10 0.566
419.20 0.5666
419.30 0.5671
419.40 0.5676
419.50 0.5682
419.60 0.5687
419.70 0.5692
419.80 0.5698
419.90 0.5703
420.00 0.5709
420.10 0.5714
420.20 0.5719
420.30 0.5725
420.40 0.573
420.50 0.5735
420.60 0.5741
420.70 0.5746
420.80 0.5752
420.90 0.5757
421.00 0.5762
421.10 0.5768
421.20 0.5773
421.30 0.5778
421.40 0.5784
421.50 0.5789
421.60 0.5795
421.70 0.58
421.80 0.5805
421.90 0.5811
422.00 0.5816
422.10 0.5821
422.20 0.5827
422.30 0.5832
422.40 0.5838
422.50 0.5843
422.60 0.5848
422.70 0.5854
422.80 0.5859
422.90 0.5864
423.00 0.587
423.10 0.5875
423.20 0.5881
423.30 0.5886
423.40 0.5891
423.50 0.5897
423.60 0.5902
423.70 0.5908
423.80 0.5913
423.90 0.5918
424.00 0.5924
424.10 0.5929
424.20 0.5935
424.30 0.594
424.40 0.5946
424.50 0.5951
424.60 0.5956
424.70 0.5962
424.80 0.5967
424.90 0.5973
425.00 0.5978
425.10 0.5983
425.20 0.5989
425.30 0.5994
425.40 0.6
425.50 0.6005
425.60 0.6011
425.70 0.6016
425.80 0.6021
425.90 0.6027
426.00 0.6032
426.10 0.6038
426.20 0.6043
426.30 0.6048
426.40 0.6054
426.50 0.6059
426.60 0.6065
426.70 0.607
426.80 0.6075
426.90 0.6081
427.00 0.6086
427.10 0.6092
427.20 0.6097
427.30 0.6103
427.40 0.6108
427.50 0.6114
427.60 0.6119
427.70 0.6124
427.80 0.613
427.90 0.6135
428.00 0.614
428.10 0.6146
428.20 0.6151
428.30 0.6157
428.40 0.6162
428.50 0.6168
428.60 0.6173
428.70 0.6179
428.80 0.6184
428.90 0.6189
429.00 0.6195
429.10 0.62
429.20 0.6206
429.30 0.6211
429.40 0.6216
429.50 0.6222
429.60 0.6227
429.70 0.6233
429.80 0.6238
429.90 0.6244
430.00 0.6249
430.10 0.6255
430.20 0.626
430.30 0.6266
430.40 0.6271
430.50 0.6276
430.60 0.6282
430.70 0.6287
430.80 0.6293
430.90 0.6298
431.00 0.6304
431.10 0.6309
431.20 0.6314
431.30 0.632
431.40 0.6325
431.50 0.6331
431.60 0.6336
431.70 0.6342
431.80 0.6347
431.90 0.6353
432.00 0.6358
432.10 0.6363
432.20 0.6369
432.30 0.6374
432.40 0.638
432.50 0.6385
432.60 0.6391
432.70 0.6396
432.80 0.6402
432.90 0.6407
433.00 0.6413
433.10 0.6418
433.20 0.6424
433.30 0.6429
433.40 0.6435
433.50 0.644
433.60 0.6445
433.70 0.6451
433.80 0.6456
433.90 0.6462
434.00 0.6467
434.10 0.6472
434.20 0.6478
434.30 0.6483
434.40 0.6489
434.50 0.6494
434.60 0.65
434.70 0.6505
434.80 0.6511
434.90 0.6516
435.00 0.6522
435.10 0.6527
435.20 0.6533
435.30 0.6538
435.40 0.6544
435.50 0.6549
435.60 0.6554
435.70 0.656
435.80 0.6565
435.90 0.6571
436.00 0.6576
436.10 0.6582
436.20 0.6587
436.30 0.6593
436.40 0.6598
436.50 0.6604
436.60 0.6609
436.70 0.6615
436.80 0.662
436.90 0.6626
437.00 0.6631
437.10 0.6636
437.20 0.6642
437.30 0.6647
437.40 0.6653
437.50 0.6658
437.60 0.6664
437.70 0.6669
437.80 0.6674
437.90 0.668
438.00 0.6685
438.10 0.6691
438.20 0.6697
438.30 0.6702
438.40 0.6707
438.50 0.6713
438.60 0.6718
438.70 0.6724
438.80 0.6729
438.90 0.6735
439.00 0.674
439.10 0.6746
439.20 0.6751
439.30 0.6757
439.40 0.6762
439.50 0.6767
439.60 0.6773
439.70 0.6778
439.80 0.6784
439.90 0.6789
440.00 0.6795
440.10 0.68
440.20 0.6806
440.30 0.6811
440.40 0.6817
440.50 0.6822
440.60 0.6828
440.70 0.6833
440.80 0.6839
440.90 0.6844
441.00 0.685
441.10 0.6855
441.20 0.686
441.30 0.6866
441.40 0.6871
441.50 0.6877
441.60 0.6882
441.70 0.6888
441.80 0.6893
441.90 0.6899
442.00 0.6904
442.10 0.691
442.20 0.6915
442.30 0.6921
442.40 0.6926
442.50 0.6932
