# Version 2.1 - nm, norm@500 to 1, cut digits, bergeron_3500_85.dat_3500
# Wavelength(nm)  Flambda(ergs/cm^s/s/nm)
300.00 0.1481
300.10 0.1484
300.20 0.1487
300.30 0.149
300.40 0.1493
300.50 0.1496
300.60 0.1499
300.70 0.1502
300.80 0.1505
300.90 0.1508
301.00 0.1511
301.10 0.1514
301.20 0.1517
301.30 0.152
301.40 0.1523
301.50 0.1526
301.60 0.1529
301.70 0.1532
301.80 0.1535
301.90 0.1538
302.00 0.1541
302.10 0.1544
302.20 0.1547
302.30 0.155
302.40 0.1553
302.50 0.1556
302.60 0.156
302.70 0.1563
302.80 0.1566
302.90 0.1569
303.00 0.1572
303.10 0.1575
303.20 0.1578
303.30 0.1581
303.40 0.1584
303.50 0.1587
303.60 0.159
303.70 0.1593
303.80 0.1596
303.90 0.16
304.00 0.1603
304.10 0.1606
304.20 0.1609
304.30 0.1612
304.40 0.1615
304.50 0.1618
304.60 0.1622
304.70 0.1625
304.80 0.1628
304.90 0.1631
305.00 0.1634
305.10 0.1637
305.20 0.164
305.30 0.1644
305.40 0.1647
305.50 0.165
305.60 0.1653
305.70 0.1656
305.80 0.1659
305.90 0.1662
306.00 0.1666
306.10 0.1669
306.20 0.1672
306.30 0.1675
306.40 0.1678
306.50 0.1682
306.60 0.1685
306.70 0.1688
306.80 0.1691
306.90 0.1695
307.00 0.1698
307.10 0.1701
307.20 0.1704
307.30 0.1707
307.40 0.1711
307.50 0.1714
307.60 0.1717
307.70 0.172
307.80 0.1723
307.90 0.1726
308.00 0.173
308.10 0.1733
308.20 0.1736
308.30 0.174
308.40 0.1743
308.50 0.1746
308.60 0.1749
308.70 0.1753
308.80 0.1756
308.90 0.1759
309.00 0.1763
309.10 0.1766
309.20 0.1769
309.30 0.1772
309.40 0.1776
309.50 0.1779
309.60 0.1782
309.70 0.1785
309.80 0.1789
309.90 0.1792
310.00 0.1795
310.10 0.1798
310.20 0.1802
310.30 0.1805
310.40 0.1808
310.50 0.1812
310.60 0.1815
310.70 0.1819
310.80 0.1822
310.90 0.1825
311.00 0.1829
311.10 0.1832
311.20 0.1835
311.30 0.1839
311.40 0.1842
311.50 0.1845
311.60 0.1849
311.70 0.1852
311.80 0.1855
311.90 0.1858
312.00 0.1862
312.10 0.1865
312.20 0.1868
312.30 0.1872
312.40 0.1875
312.50 0.1879
312.60 0.1882
312.70 0.1885
312.80 0.1889
312.90 0.1892
313.00 0.1896
313.10 0.1899
313.20 0.1902
313.30 0.1906
313.40 0.1909
313.50 0.1913
313.60 0.1916
313.70 0.1919
313.80 0.1923
313.90 0.1926
314.00 0.1929
314.10 0.1933
314.20 0.1936
314.30 0.194
314.40 0.1943
314.50 0.1947
314.60 0.195
314.70 0.1954
314.80 0.1957
314.90 0.1961
315.00 0.1964
315.10 0.1968
315.20 0.1971
315.30 0.1974
315.40 0.1978
315.50 0.1981
315.60 0.1985
315.70 0.1988
315.80 0.1992
315.90 0.1995
316.00 0.1998
316.10 0.2002
316.20 0.2005
316.30 0.2009
316.40 0.2013
316.50 0.2016
316.60 0.202
316.70 0.2023
316.80 0.2027
316.90 0.203
317.00 0.2034
317.10 0.2037
317.20 0.2041
317.30 0.2044
317.40 0.2048
317.50 0.2051
317.60 0.2055
317.70 0.2058
317.80 0.2062
317.90 0.2065
318.00 0.2069
318.10 0.2072
318.20 0.2076
318.30 0.2079
318.40 0.2083
318.50 0.2086
318.60 0.209
318.70 0.2094
318.80 0.2097
318.90 0.2101
319.00 0.2104
319.10 0.2108
319.20 0.2112
319.30 0.2115
319.40 0.2119
319.50 0.2122
319.60 0.2126
319.70 0.2129
319.80 0.2133
319.90 0.2136
320.00 0.214
320.10 0.2144
320.20 0.2147
320.30 0.2151
320.40 0.2154
320.50 0.2158
320.60 0.2162
320.70 0.2165
320.80 0.2169
320.90 0.2173
321.00 0.2176
321.10 0.218
321.20 0.2183
321.30 0.2187
321.40 0.2191
321.50 0.2194
321.60 0.2198
321.70 0.2201
321.80 0.2205
321.90 0.2209
322.00 0.2212
322.10 0.2216
322.20 0.222
322.30 0.2223
322.40 0.2227
322.50 0.2231
322.60 0.2234
322.70 0.2238
322.80 0.2242
322.90 0.2245
323.00 0.2249
323.10 0.2253
323.20 0.2257
323.30 0.226
323.40 0.2264
323.50 0.2267
323.60 0.2271
323.70 0.2275
323.80 0.2278
323.90 0.2282
324.00 0.2286
324.10 0.2289
324.20 0.2293
324.30 0.2297
324.40 0.2301
324.50 0.2305
324.60 0.2308
324.70 0.2312
324.80 0.2316
324.90 0.2319
325.00 0.2323
325.10 0.2327
325.20 0.2331
325.30 0.2334
325.40 0.2338
325.50 0.2342
325.60 0.2346
325.70 0.2349
325.80 0.2353
325.90 0.2357
326.00 0.236
326.10 0.2364
326.20 0.2368
326.30 0.2372
326.40 0.2376
326.50 0.2379
326.60 0.2383
326.70 0.2387
326.80 0.2391
326.90 0.2395
327.00 0.2398
327.10 0.2402
327.20 0.2406
327.30 0.241
327.40 0.2413
327.50 0.2417
327.60 0.2421
327.70 0.2425
327.80 0.2428
327.90 0.2432
328.00 0.2436
328.10 0.244
328.20 0.2444
328.30 0.2448
328.40 0.2451
328.50 0.2455
328.60 0.2459
328.70 0.2463
328.80 0.2467
328.90 0.2471
329.00 0.2474
329.10 0.2478
329.20 0.2482
329.30 0.2486
329.40 0.249
329.50 0.2494
329.60 0.2497
329.70 0.2501
329.80 0.2505
329.90 0.2509
330.00 0.2513
330.10 0.2516
330.20 0.252
330.30 0.2524
330.40 0.2528
330.50 0.2532
330.60 0.2536
330.70 0.254
330.80 0.2544
330.90 0.2548
331.00 0.2552
331.10 0.2556
331.20 0.2559
331.30 0.2563
331.40 0.2567
331.50 0.2571
331.60 0.2575
331.70 0.2579
331.80 0.2583
331.90 0.2586
332.00 0.259
332.10 0.2594
332.20 0.2598
332.30 0.2602
332.40 0.2606
332.50 0.261
332.60 0.2614
332.70 0.2618
332.80 0.2622
332.90 0.2626
333.00 0.263
333.10 0.2634
333.20 0.2638
333.30 0.2642
333.40 0.2645
333.50 0.2649
333.60 0.2653
333.70 0.2657
333.80 0.2661
333.90 0.2665
334.00 0.2669
334.10 0.2673
334.20 0.2677
334.30 0.2681
334.40 0.2685
334.50 0.2689
334.60 0.2693
334.70 0.2697
334.80 0.2701
334.90 0.2705
335.00 0.2709
335.10 0.2713
335.20 0.2717
335.30 0.2721
335.40 0.2725
335.50 0.2729
335.60 0.2733
335.70 0.2737
335.80 0.2741
335.90 0.2745
336.00 0.2748
336.10 0.2753
336.20 0.2757
336.30 0.2761
336.40 0.2765
336.50 0.2769
336.60 0.2773
336.70 0.2777
336.80 0.2781
336.90 0.2785
337.00 0.2789
337.10 0.2793
337.20 0.2797
337.30 0.2801
337.40 0.2805
337.50 0.2809
337.60 0.2813
337.70 0.2817
337.80 0.2821
337.90 0.2825
338.00 0.2829
338.10 0.2833
338.20 0.2837
338.30 0.2841
338.40 0.2845
338.50 0.285
338.60 0.2854
338.70 0.2858
338.80 0.2862
338.90 0.2866
339.00 0.287
339.10 0.2874
339.20 0.2878
339.30 0.2882
339.40 0.2886
339.50 0.289
339.60 0.2894
339.70 0.2898
339.80 0.2902
339.90 0.2906
340.00 0.291
340.10 0.2915
340.20 0.2919
340.30 0.2923
340.40 0.2927
340.50 0.2931
340.60 0.2935
340.70 0.2939
340.80 0.2944
340.90 0.2948
341.00 0.2952
341.10 0.2956
341.20 0.296
341.30 0.2964
341.40 0.2968
341.50 0.2972
341.60 0.2976
341.70 0.2981
341.80 0.2985
341.90 0.2989
342.00 0.2993
342.10 0.2997
342.20 0.3001
342.30 0.3005
342.40 0.301
342.50 0.3014
342.60 0.3018
342.70 0.3022
342.80 0.3026
342.90 0.303
343.00 0.3035
343.10 0.3039
343.20 0.3043
343.30 0.3047
343.40 0.3051
343.50 0.3055
343.60 0.3059
343.70 0.3064
343.80 0.3068
343.90 0.3072
344.00 0.3076
344.10 0.308
344.20 0.3084
344.30 0.3089
344.40 0.3093
344.50 0.3097
344.60 0.3101
344.70 0.3105
344.80 0.311
344.90 0.3114
345.00 0.3118
345.10 0.3122
345.20 0.3127
345.30 0.3131
345.40 0.3135
345.50 0.3139
345.60 0.3143
345.70 0.3147
345.80 0.3152
345.90 0.3156
346.00 0.316
346.10 0.3164
346.20 0.3168
346.30 0.3173
346.40 0.3177
346.50 0.3181
346.60 0.3185
346.70 0.319
346.80 0.3194
346.90 0.3198
347.00 0.3202
347.10 0.3207
347.20 0.3211
347.30 0.3215
347.40 0.3219
347.50 0.3224
347.60 0.3228
347.70 0.3232
347.80 0.3236
347.90 0.324
348.00 0.3245
348.10 0.3249
348.20 0.3253
348.30 0.3258
348.40 0.3262
348.50 0.3266
348.60 0.3271
348.70 0.3275
348.80 0.3279
348.90 0.3283
349.00 0.3288
349.10 0.3292
349.20 0.3296
349.30 0.3301
349.40 0.3305
349.50 0.3309
349.60 0.3313
349.70 0.3318
349.80 0.3322
349.90 0.3326
350.00 0.333
350.10 0.3335
350.20 0.3339
350.30 0.3343
350.40 0.3348
350.50 0.3352
350.60 0.3356
350.70 0.3361
350.80 0.3365
350.90 0.3369
351.00 0.3374
351.10 0.3378
351.20 0.3382
351.30 0.3387
351.40 0.3391
351.50 0.3395
351.60 0.3399
351.70 0.3404
351.80 0.3408
351.90 0.3412
352.00 0.3416
352.10 0.3421
352.20 0.3425
352.30 0.343
352.40 0.3434
352.50 0.3438
352.60 0.3443
352.70 0.3447
352.80 0.3452
352.90 0.3456
353.00 0.346
353.10 0.3465
353.20 0.3469
353.30 0.3473
353.40 0.3478
353.50 0.3482
353.60 0.3486
353.70 0.3491
353.80 0.3495
353.90 0.3499
354.00 0.3503
354.10 0.3508
354.20 0.3512
354.30 0.3517
354.40 0.3521
354.50 0.3526
354.60 0.353
354.70 0.3534
354.80 0.3539
354.90 0.3543
355.00 0.3548
355.10 0.3552
355.20 0.3556
355.30 0.3561
355.40 0.3565
355.50 0.3569
355.60 0.3574
355.70 0.3578
355.80 0.3582
355.90 0.3587
356.00 0.3591
356.10 0.3596
356.20 0.36
356.30 0.3604
356.40 0.3609
356.50 0.3613
356.60 0.3618
356.70 0.3622
356.80 0.3627
356.90 0.3631
357.00 0.3635
357.10 0.364
357.20 0.3644
357.30 0.3649
357.40 0.3653
357.50 0.3657
357.60 0.3662
357.70 0.3666
357.80 0.3671
357.90 0.3675
358.00 0.3679
358.10 0.3684
358.20 0.3688
358.30 0.3693
358.40 0.3697
358.50 0.3702
358.60 0.3706
358.70 0.3711
358.80 0.3715
358.90 0.372
359.00 0.3724
359.10 0.3729
359.20 0.3733
359.30 0.3737
359.40 0.3742
359.50 0.3746
359.60 0.3751
359.70 0.3755
359.80 0.376
359.90 0.3764
360.00 0.3768
360.10 0.3773
360.20 0.3777
360.30 0.3782
360.40 0.3786
360.50 0.3791
360.60 0.3795
360.70 0.38
360.80 0.3804
360.90 0.3809
361.00 0.3813
361.10 0.3818
361.20 0.3822
361.30 0.3827
361.40 0.3831
361.50 0.3836
361.60 0.384
361.70 0.3845
361.80 0.3849
361.90 0.3853
362.00 0.3858
362.10 0.3862
362.20 0.3867
362.30 0.3871
362.40 0.3876
362.50 0.388
362.60 0.3885
362.70 0.3889
362.80 0.3894
362.90 0.3898
363.00 0.3903
363.10 0.3907
363.20 0.3912
363.30 0.3916
363.40 0.3921
363.50 0.3926
363.60 0.393
363.70 0.3935
363.80 0.3939
363.90 0.3944
364.00 0.3948
364.10 0.3953
364.20 0.3957
364.30 0.3962
364.40 0.3966
364.50 0.3971
364.60 0.3975
364.70 0.398
364.80 0.3984
364.90 0.3989
365.00 0.3993
365.10 0.3998
365.20 0.4002
365.30 0.4007
365.40 0.4012
365.50 0.4016
365.60 0.4021
365.70 0.4025
365.80 0.403
365.90 0.4034
366.00 0.4039
366.10 0.4043
366.20 0.4048
366.30 0.4052
366.40 0.4057
366.50 0.4062
366.60 0.4066
366.70 0.4071
366.80 0.4075
366.90 0.408
367.00 0.4084
367.10 0.4089
367.20 0.4093
367.30 0.4098
367.40 0.4103
367.50 0.4107
367.60 0.4112
367.70 0.4116
367.80 0.4121
367.90 0.4125
368.00 0.413
368.10 0.4134
368.20 0.4139
368.30 0.4144
368.40 0.4148
368.50 0.4153
368.60 0.4157
368.70 0.4162
368.80 0.4167
368.90 0.4171
369.00 0.4176
369.10 0.418
369.20 0.4185
369.30 0.419
369.40 0.4194
369.50 0.4199
369.60 0.4203
369.70 0.4208
369.80 0.4212
369.90 0.4217
370.00 0.4221
370.10 0.4226
370.20 0.4231
370.30 0.4235
370.40 0.424
370.50 0.4245
370.60 0.4249
370.70 0.4254
370.80 0.4259
370.90 0.4263
371.00 0.4268
371.10 0.4272
371.20 0.4277
371.30 0.4282
371.40 0.4286
371.50 0.4291
371.60 0.4295
371.70 0.43
371.80 0.4304
371.90 0.4309
372.00 0.4313
372.10 0.4318
372.20 0.4323
372.30 0.4327
372.40 0.4332
372.50 0.4337
372.60 0.4341
372.70 0.4346
372.80 0.4351
372.90 0.4355
373.00 0.436
373.10 0.4365
373.20 0.4369
373.30 0.4374
373.40 0.4379
373.50 0.4383
373.60 0.4388
373.70 0.4392
373.80 0.4397
373.90 0.4402
374.00 0.4406
374.10 0.4411
374.20 0.4415
374.30 0.442
374.40 0.4425
374.50 0.4429
374.60 0.4434
374.70 0.4439
374.80 0.4443
374.90 0.4448
375.00 0.4453
375.10 0.4457
375.20 0.4462
375.30 0.4467
375.40 0.4471
375.50 0.4476
375.60 0.448
375.70 0.4485
375.80 0.449
375.90 0.4494
376.00 0.4499
376.10 0.4504
376.20 0.4508
376.30 0.4513
376.40 0.4518
376.50 0.4522
376.60 0.4527
376.70 0.4532
376.80 0.4536
376.90 0.4541
377.00 0.4545
377.10 0.455
377.20 0.4555
377.30 0.456
377.40 0.4564
377.50 0.4569
377.60 0.4574
377.70 0.4578
377.80 0.4583
377.90 0.4588
378.00 0.4592
378.10 0.4597
378.20 0.4602
378.30 0.4606
378.40 0.4611
378.50 0.4616
378.60 0.462
378.70 0.4625
378.80 0.463
378.90 0.4634
379.00 0.4639
379.10 0.4644
379.20 0.4648
379.30 0.4653
379.40 0.4658
379.50 0.4662
379.60 0.4667
379.70 0.4672
379.80 0.4676
379.90 0.4681
380.00 0.4686
380.10 0.469
380.20 0.4695
380.30 0.47
380.40 0.4704
380.50 0.4709
380.60 0.4714
380.70 0.4719
380.80 0.4723
380.90 0.4728
381.00 0.4733
381.10 0.4737
381.20 0.4742
381.30 0.4747
381.40 0.4751
381.50 0.4756
381.60 0.4761
381.70 0.4765
381.80 0.477
381.90 0.4775
382.00 0.478
382.10 0.4784
382.20 0.4789
382.30 0.4794
382.40 0.4798
382.50 0.4803
382.60 0.4808
382.70 0.4813
382.80 0.4817
382.90 0.4822
383.00 0.4827
383.10 0.4831
383.20 0.4836
383.30 0.4841
383.40 0.4846
383.50 0.485
383.60 0.4855
383.70 0.486
383.80 0.4864
383.90 0.4869
384.00 0.4874
384.10 0.4878
384.20 0.4883
384.30 0.4888
384.40 0.4893
384.50 0.4897
384.60 0.4902
384.70 0.4907
384.80 0.4911
384.90 0.4916
385.00 0.4921
385.10 0.4926
385.20 0.493
385.30 0.4935
385.40 0.494
385.50 0.4944
385.60 0.4949
385.70 0.4954
385.80 0.4959
385.90 0.4963
386.00 0.4968
386.10 0.4973
386.20 0.4978
386.30 0.4982
386.40 0.4987
386.50 0.4992
386.60 0.4996
386.70 0.5001
386.80 0.5006
386.90 0.5011
387.00 0.5015
387.10 0.502
387.20 0.5025
387.30 0.503
387.40 0.5034
387.50 0.5039
387.60 0.5044
387.70 0.5049
387.80 0.5053
387.90 0.5058
388.00 0.5063
388.10 0.5068
388.20 0.5072
388.30 0.5077
388.40 0.5082
388.50 0.5086
388.60 0.5091
388.70 0.5096
388.80 0.5101
388.90 0.5105
389.00 0.511
389.10 0.5115
389.20 0.512
389.30 0.5124
389.40 0.5129
389.50 0.5134
389.60 0.5139
389.70 0.5143
389.80 0.5148
389.90 0.5153
390.00 0.5158
390.10 0.5162
390.20 0.5167
390.30 0.5172
390.40 0.5177
390.50 0.5181
390.60 0.5186
390.70 0.5191
390.80 0.5196
390.90 0.52
391.00 0.5205
391.10 0.521
391.20 0.5215
391.30 0.5219
391.40 0.5224
391.50 0.5229
391.60 0.5233
391.70 0.5238
391.80 0.5243
391.90 0.5248
392.00 0.5252
392.10 0.5257
392.20 0.5262
392.30 0.5267
392.40 0.5271
392.50 0.5276
392.60 0.5281
392.70 0.5286
392.80 0.5291
392.90 0.5295
393.00 0.53
393.10 0.5305
393.20 0.531
393.30 0.5314
393.40 0.5319
393.50 0.5324
393.60 0.5329
393.70 0.5333
393.80 0.5338
393.90 0.5343
394.00 0.5348
394.10 0.5352
394.20 0.5357
394.30 0.5362
394.40 0.5367
394.50 0.5371
394.60 0.5376
394.70 0.5381
394.80 0.5386
394.90 0.539
395.00 0.5395
395.10 0.54
395.20 0.5405
395.30 0.541
395.40 0.5414
395.50 0.5419
395.60 0.5424
395.70 0.5429
395.80 0.5433
395.90 0.5438
396.00 0.5443
396.10 0.5448
396.20 0.5452
396.30 0.5457
396.40 0.5462
396.50 0.5467
396.60 0.5471
396.70 0.5476
396.80 0.5481
396.90 0.5486
397.00 0.549
397.10 0.5495
397.20 0.55
397.30 0.5505
397.40 0.551
397.50 0.5514
397.60 0.5519
397.70 0.5524
397.80 0.5529
397.90 0.5534
398.00 0.5538
398.10 0.5543
398.20 0.5548
398.30 0.5552
398.40 0.5557
398.50 0.5562
398.60 0.5567
398.70 0.5572
398.80 0.5576
398.90 0.5581
399.00 0.5586
399.10 0.5591
399.20 0.5595
399.30 0.56
399.40 0.5605
399.50 0.561
399.60 0.5615
399.70 0.5619
399.80 0.5624
399.90 0.5629
400.00 0.5634
400.10 0.5638
400.20 0.5643
400.30 0.5648
400.40 0.5653
400.50 0.5657
400.60 0.5662
400.70 0.5667
400.80 0.5672
400.90 0.5677
401.00 0.5681
401.10 0.5686
401.20 0.5691
401.30 0.5696
401.40 0.57
401.50 0.5705
401.60 0.571
401.70 0.5715
401.80 0.5719
401.90 0.5724
402.00 0.5729
402.10 0.5734
402.20 0.5738
402.30 0.5743
402.40 0.5748
402.50 0.5753
402.60 0.5758
402.70 0.5762
402.80 0.5767
402.90 0.5772
403.00 0.5776
403.10 0.5781
403.20 0.5786
403.30 0.5791
403.40 0.5796
403.50 0.58
403.60 0.5805
403.70 0.581
403.80 0.5815
403.90 0.582
404.00 0.5824
404.10 0.5829
404.20 0.5834
404.30 0.5839
404.40 0.5843
404.50 0.5848
404.60 0.5853
404.70 0.5858
404.80 0.5862
404.90 0.5867
405.00 0.5872
405.10 0.5877
405.20 0.5882
405.30 0.5886
405.40 0.5891
405.50 0.5896
405.60 0.5901
405.70 0.5905
405.80 0.591
405.90 0.5915
406.00 0.592
406.10 0.5924
406.20 0.5929
406.30 0.5934
406.40 0.5939
406.50 0.5944
406.60 0.5948
406.70 0.5953
406.80 0.5958
406.90 0.5963
407.00 0.5967
407.10 0.5972
407.20 0.5977
407.30 0.5982
407.40 0.5986
407.50 0.5991
407.60 0.5996
407.70 0.6001
407.80 0.6006
407.90 0.601
408.00 0.6015
408.10 0.602
408.20 0.6025
408.30 0.6029
408.40 0.6034
408.50 0.6039
408.60 0.6044
408.70 0.6048
408.80 0.6053
408.90 0.6058
409.00 0.6063
409.10 0.6067
409.20 0.6072
409.30 0.6077
409.40 0.6082
409.50 0.6086
409.60 0.6091
409.70 0.6096
409.80 0.6101
409.90 0.6106
410.00 0.611
410.10 0.6115
410.20 0.612
410.30 0.6125
410.40 0.6129
410.50 0.6134
410.60 0.6139
410.70 0.6144
410.80 0.6148
410.90 0.6153
411.00 0.6158
411.10 0.6163
411.20 0.6167
411.30 0.6172
411.40 0.6177
411.50 0.6182
411.60 0.6186
411.70 0.6191
411.80 0.6196
411.90 0.6201
412.00 0.6205
412.10 0.621
412.20 0.6215
412.30 0.622
412.40 0.6224
412.50 0.6229
412.60 0.6234
412.70 0.6239
412.80 0.6244
412.90 0.6248
413.00 0.6253
413.10 0.6258
413.20 0.6262
413.30 0.6267
413.40 0.6272
413.50 0.6277
413.60 0.6282
413.70 0.6286
413.80 0.6291
413.90 0.6296
414.00 0.6301
414.10 0.6305
414.20 0.631
414.30 0.6315
414.40 0.632
414.50 0.6324
414.60 0.6329
414.70 0.6334
414.80 0.6338
414.90 0.6343
415.00 0.6348
415.10 0.6353
415.20 0.6358
415.30 0.6362
415.40 0.6367
415.50 0.6372
415.60 0.6376
415.70 0.6381
415.80 0.6386
415.90 0.6391
416.00 0.6395
416.10 0.64
416.20 0.6405
416.30 0.641
416.40 0.6414
416.50 0.6419
416.60 0.6424
416.70 0.6428
416.80 0.6433
416.90 0.6438
417.00 0.6443
417.10 0.6448
417.20 0.6452
417.30 0.6457
417.40 0.6462
417.50 0.6466
417.60 0.6471
417.70 0.6476
417.80 0.6481
417.90 0.6485
418.00 0.649
418.10 0.6495
418.20 0.65
418.30 0.6504
418.40 0.6509
418.50 0.6514
418.60 0.6519
418.70 0.6523
418.80 0.6528
418.90 0.6533
419.00 0.6537
419.10 0.6542
419.20 0.6547
419.30 0.6551
419.40 0.6556
419.50 0.6561
419.60 0.6566
419.70 0.657
419.80 0.6575
419.90 0.658
420.00 0.6585
420.10 0.6589
420.20 0.6594
420.30 0.6599
420.40 0.6603
420.50 0.6608
420.60 0.6613
420.70 0.6618
420.80 0.6622
420.90 0.6627
421.00 0.6632
421.10 0.6637
421.20 0.6641
421.30 0.6646
421.40 0.6651
421.50 0.6655
421.60 0.666
421.70 0.6665
421.80 0.6669
421.90 0.6674
422.00 0.6679
422.10 0.6684
422.20 0.6688
422.30 0.6693
422.40 0.6698
422.50 0.6703
422.60 0.6707
422.70 0.6712
422.80 0.6717
422.90 0.6721
423.00 0.6726
423.10 0.6731
423.20 0.6736
423.30 0.674
423.40 0.6745
423.50 0.675
423.60 0.6754
423.70 0.6759
423.80 0.6764
423.90 0.6768
424.00 0.6773
424.10 0.6778
424.20 0.6782
424.30 0.6787
424.40 0.6792
424.50 0.6797
424.60 0.6801
424.70 0.6806
424.80 0.6811
424.90 0.6815
425.00 0.682
425.10 0.6825
425.20 0.6829
425.30 0.6834
425.40 0.6839
425.50 0.6843
425.60 0.6848
425.70 0.6853
425.80 0.6858
425.90 0.6862
426.00 0.6867
426.10 0.6872
426.20 0.6876
426.30 0.6881
426.40 0.6886
426.50 0.689
426.60 0.6895
426.70 0.69
426.80 0.6904
426.90 0.6909
427.00 0.6914
427.10 0.6918
427.20 0.6923
427.30 0.6928
427.40 0.6932
427.50 0.6937
427.60 0.6942
427.70 0.6946
427.80 0.6951
427.90 0.6956
428.00 0.696
428.10 0.6965
428.20 0.697
428.30 0.6974
428.40 0.6979
428.50 0.6984
428.60 0.6988
428.70 0.6993
428.80 0.6998
428.90 0.7002
429.00 0.7007
429.10 0.7012
429.20 0.7016
429.30 0.7021
429.40 0.7026
429.50 0.703
429.60 0.7035
429.70 0.704
429.80 0.7044
429.90 0.7049
430.00 0.7054
430.10 0.7058
430.20 0.7063
430.30 0.7068
430.40 0.7072
430.50 0.7077
430.60 0.7082
430.70 0.7086
430.80 0.7091
430.90 0.7096
431.00 0.71
431.10 0.7105
431.20 0.711
431.30 0.7114
431.40 0.7119
431.50 0.7123
431.60 0.7128
431.70 0.7133
431.80 0.7137
431.90 0.7142
432.00 0.7147
432.10 0.7151
432.20 0.7156
432.30 0.7161
432.40 0.7165
432.50 0.717
432.60 0.7174
432.70 0.7179
432.80 0.7184
432.90 0.7188
433.00 0.7193
433.10 0.7198
433.20 0.7202
433.30 0.7207
433.40 0.7212
433.50 0.7216
433.60 0.7221
433.70 0.7225
433.80 0.723
433.90 0.7235
434.00 0.7239
434.10 0.7244
434.20 0.7249
434.30 0.7253
434.40 0.7258
434.50 0.7262
434.60 0.7267
434.70 0.7272
434.80 0.7276
434.90 0.7281
435.00 0.7285
435.10 0.729
435.20 0.7295
435.30 0.7299
435.40 0.7304
435.50 0.7309
435.60 0.7313
435.70 0.7318
435.80 0.7322
435.90 0.7327
436.00 0.7331
436.10 0.7336
436.20 0.7341
436.30 0.7345
436.40 0.735
436.50 0.7355
436.60 0.7359
436.70 0.7364
436.80 0.7368
436.90 0.7373
437.00 0.7377
437.10 0.7382
437.20 0.7387
437.30 0.7391
437.40 0.7396
437.50 0.7401
437.60 0.7405
437.70 0.741
437.80 0.7414
437.90 0.7419
438.00 0.7423
438.10 0.7428
438.20 0.7433
438.30 0.7437
438.40 0.7442
438.50 0.7446
438.60 0.7451
438.70 0.7455
438.80 0.746
438.90 0.7465
439.00 0.7469
439.10 0.7474
439.20 0.7478
439.30 0.7483
439.40 0.7487
439.50 0.7492
439.60 0.7497
439.70 0.7501
439.80 0.7506
439.90 0.751
440.00 0.7515
440.10 0.7519
440.20 0.7524
440.30 0.7529
440.40 0.7533
440.50 0.7538
440.60 0.7542
440.70 0.7547
440.80 0.7551
440.90 0.7556
441.00 0.756
441.10 0.7565
441.20 0.757
441.30 0.7574
441.40 0.7579
441.50 0.7583
441.60 0.7588
441.70 0.7592
441.80 0.7597
441.90 0.7601
442.00 0.7606
442.10 0.761
442.20 0.7615
442.30 0.762
442.40 0.7624
442.50 0.7629
442.60 0.7633
442.70 0.7638
442.80 0.7642
442.90 0.7647
443.00 0.7651
