# Version 2.1 - nm, norm@500 to 1, cut digits, bergeron_9000_65.dat_9000
# Wavelength(nm)  Flambda(ergs/cm^s/s/nm)
300.00 1.238
300.10 1.237
300.20 1.237
300.30 1.237
300.40 1.236
300.50 1.236
300.60 1.235
300.70 1.235
300.80 1.235
300.90 1.234
301.00 1.234
301.10 1.234
301.20 1.233
301.30 1.233
301.40 1.232
301.50 1.232
301.60 1.232
301.70 1.231
301.80 1.231
301.90 1.231
302.00 1.23
302.10 1.23
302.20 1.229
302.30 1.229
302.40 1.229
302.50 1.228
302.60 1.228
302.70 1.227
302.80 1.227
302.90 1.227
303.00 1.226
303.10 1.226
303.20 1.226
303.30 1.225
303.40 1.225
303.50 1.224
303.60 1.224
303.70 1.224
303.80 1.223
303.90 1.223
304.00 1.223
304.10 1.222
304.20 1.222
304.30 1.221
304.40 1.221
304.50 1.221
304.60 1.22
304.70 1.22
304.80 1.219
304.90 1.219
305.00 1.219
305.10 1.218
305.20 1.218
305.30 1.218
305.40 1.217
305.50 1.217
305.60 1.216
305.70 1.216
305.80 1.216
305.90 1.215
306.00 1.215
306.10 1.214
306.20 1.214
306.30 1.214
306.40 1.213
306.50 1.213
306.60 1.213
306.70 1.212
306.80 1.212
306.90 1.211
307.00 1.211
307.10 1.211
307.20 1.21
307.30 1.21
307.40 1.209
307.50 1.209
307.60 1.209
307.70 1.208
307.80 1.208
307.90 1.207
308.00 1.207
308.10 1.207
308.20 1.206
308.30 1.206
308.40 1.206
308.50 1.205
308.60 1.205
308.70 1.204
308.80 1.204
308.90 1.204
309.00 1.203
309.10 1.203
309.20 1.202
309.30 1.202
309.40 1.202
309.50 1.201
309.60 1.201
309.70 1.2
309.80 1.2
309.90 1.2
310.00 1.199
310.10 1.199
310.20 1.199
310.30 1.198
310.40 1.198
310.50 1.197
310.60 1.197
310.70 1.197
310.80 1.196
310.90 1.196
311.00 1.195
311.10 1.195
311.20 1.195
311.30 1.194
311.40 1.194
311.50 1.194
311.60 1.193
311.70 1.193
311.80 1.192
311.90 1.192
312.00 1.192
312.10 1.191
312.20 1.191
312.30 1.19
312.40 1.19
312.50 1.19
312.60 1.189
312.70 1.189
312.80 1.188
312.90 1.188
313.00 1.188
313.10 1.187
313.20 1.187
313.30 1.186
313.40 1.186
313.50 1.186
313.60 1.185
313.70 1.185
313.80 1.185
313.90 1.184
314.00 1.184
314.10 1.183
314.20 1.183
314.30 1.183
314.40 1.182
314.50 1.182
314.60 1.181
314.70 1.181
314.80 1.181
314.90 1.18
315.00 1.18
315.10 1.179
315.20 1.179
315.30 1.179
315.40 1.178
315.50 1.178
315.60 1.178
315.70 1.177
315.80 1.177
315.90 1.176
316.00 1.176
316.10 1.176
316.20 1.175
316.30 1.175
316.40 1.174
316.50 1.174
316.60 1.174
316.70 1.173
316.80 1.173
316.90 1.172
317.00 1.172
317.10 1.172
317.20 1.171
317.30 1.171
317.40 1.17
317.50 1.17
317.60 1.17
317.70 1.169
317.80 1.169
317.90 1.169
318.00 1.168
318.10 1.168
318.20 1.167
318.30 1.167
318.40 1.167
318.50 1.166
318.60 1.166
318.70 1.165
318.80 1.165
318.90 1.165
319.00 1.164
319.10 1.164
319.20 1.163
319.30 1.163
319.40 1.163
319.50 1.162
319.60 1.162
319.70 1.161
319.80 1.161
319.90 1.161
320.00 1.16
320.10 1.16
320.20 1.16
320.30 1.159
320.40 1.159
320.50 1.158
320.60 1.158
320.70 1.158
320.80 1.157
320.90 1.157
321.00 1.156
321.10 1.156
321.20 1.156
321.30 1.155
321.40 1.155
321.50 1.154
321.60 1.154
321.70 1.154
321.80 1.153
321.90 1.153
322.00 1.152
322.10 1.152
322.20 1.152
322.30 1.151
322.40 1.151
322.50 1.15
322.60 1.15
322.70 1.15
322.80 1.149
322.90 1.149
323.00 1.149
323.10 1.148
323.20 1.148
323.30 1.147
323.40 1.147
323.50 1.147
323.60 1.146
323.70 1.146
323.80 1.145
323.90 1.145
324.00 1.145
324.10 1.144
324.20 1.144
324.30 1.143
324.40 1.143
324.50 1.143
324.60 1.142
324.70 1.142
324.80 1.141
324.90 1.141
325.00 1.141
325.10 1.14
325.20 1.14
325.30 1.139
325.40 1.139
325.50 1.139
325.60 1.138
325.70 1.138
325.80 1.138
325.90 1.137
326.00 1.137
326.10 1.136
326.20 1.136
326.30 1.136
326.40 1.135
326.50 1.135
326.60 1.134
326.70 1.134
326.80 1.134
326.90 1.133
327.00 1.133
327.10 1.132
327.20 1.132
327.30 1.132
327.40 1.131
327.50 1.131
327.60 1.13
327.70 1.13
327.80 1.13
327.90 1.129
328.00 1.129
328.10 1.129
328.20 1.128
328.30 1.128
328.40 1.127
328.50 1.127
328.60 1.127
328.70 1.126
328.80 1.126
328.90 1.125
329.00 1.125
329.10 1.125
329.20 1.124
329.30 1.124
329.40 1.123
329.50 1.123
329.60 1.123
329.70 1.122
329.80 1.122
329.90 1.121
330.00 1.121
330.10 1.121
330.20 1.12
330.30 1.12
330.40 1.12
330.50 1.119
330.60 1.119
330.70 1.118
330.80 1.118
330.90 1.118
331.00 1.117
331.10 1.117
331.20 1.116
331.30 1.116
331.40 1.116
331.50 1.115
331.60 1.115
331.70 1.114
331.80 1.114
331.90 1.114
332.00 1.113
332.10 1.113
332.20 1.112
332.30 1.112
332.40 1.112
332.50 1.111
332.60 1.111
332.70 1.11
332.80 1.11
332.90 1.11
333.00 1.109
333.10 1.109
333.20 1.109
333.30 1.108
333.40 1.108
333.50 1.107
333.60 1.107
333.70 1.107
333.80 1.106
333.90 1.106
334.00 1.105
334.10 1.105
334.20 1.105
334.30 1.104
334.40 1.104
334.50 1.103
334.60 1.103
334.70 1.103
334.80 1.102
334.90 1.102
335.00 1.102
335.10 1.101
335.20 1.101
335.30 1.1
335.40 1.1
335.50 1.1
335.60 1.099
335.70 1.099
335.80 1.098
335.90 1.098
336.00 1.098
336.10 1.097
336.20 1.097
336.30 1.096
336.40 1.096
336.50 1.096
336.60 1.095
336.70 1.095
336.80 1.095
336.90 1.094
337.00 1.094
337.10 1.093
337.20 1.093
337.30 1.093
337.40 1.092
337.50 1.092
337.60 1.091
337.70 1.091
337.80 1.091
337.90 1.09
338.00 1.09
338.10 1.089
338.20 1.089
338.30 1.089
338.40 1.088
338.50 1.088
338.60 1.088
338.70 1.087
338.80 1.087
338.90 1.086
339.00 1.086
339.10 1.086
339.20 1.085
339.30 1.085
339.40 1.084
339.50 1.084
339.60 1.084
339.70 1.083
339.80 1.083
339.90 1.082
340.00 1.082
340.10 1.082
340.20 1.081
340.30 1.081
340.40 1.081
340.50 1.08
340.60 1.08
340.70 1.079
340.80 1.079
340.90 1.079
341.00 1.078
341.10 1.078
341.20 1.077
341.30 1.077
341.40 1.077
341.50 1.076
341.60 1.076
341.70 1.075
341.80 1.075
341.90 1.075
342.00 1.074
342.10 1.074
342.20 1.074
342.30 1.073
342.40 1.073
342.50 1.072
342.60 1.072
342.70 1.072
342.80 1.071
342.90 1.071
343.00 1.07
343.10 1.07
343.20 1.07
343.30 1.069
343.40 1.069
343.50 1.069
343.60 1.068
343.70 1.068
343.80 1.067
343.90 1.067
344.00 1.067
344.10 1.066
344.20 1.066
344.30 1.065
344.40 1.065
344.50 1.065
344.60 1.064
344.70 1.064
344.80 1.064
344.90 1.063
345.00 1.063
345.10 1.062
345.20 1.062
345.30 1.062
345.40 1.061
345.50 1.061
345.60 1.06
345.70 1.06
345.80 1.06
345.90 1.059
346.00 1.059
346.10 1.058
346.20 1.058
346.30 1.058
346.40 1.057
346.50 1.057
346.60 1.057
346.70 1.056
346.80 1.056
346.90 1.055
347.00 1.055
347.10 1.055
347.20 1.054
347.30 1.054
347.40 1.054
347.50 1.053
347.60 1.053
347.70 1.052
347.80 1.052
347.90 1.052
348.00 1.051
348.10 1.051
348.20 1.05
348.30 1.05
348.40 1.05
348.50 1.049
348.60 1.049
348.70 1.049
348.80 1.048
348.90 1.048
349.00 1.047
349.10 1.047
349.20 1.047
349.30 1.046
349.40 1.046
349.50 1.045
349.60 1.045
349.70 1.045
349.80 1.044
349.90 1.044
350.00 1.044
350.10 1.043
350.20 1.043
350.30 1.042
350.40 1.042
350.50 1.042
350.60 1.041
350.70 1.041
350.80 1.041
350.90 1.04
351.00 1.04
351.10 1.039
351.20 1.039
351.30 1.039
351.40 1.038
351.50 1.038
351.60 1.037
351.70 1.037
351.80 1.037
351.90 1.036
352.00 1.036
352.10 1.036
352.20 1.035
352.30 1.035
352.40 1.034
352.50 1.034
352.60 1.034
352.70 1.033
352.80 1.033
352.90 1.033
353.00 1.032
353.10 1.032
353.20 1.031
353.30 1.031
353.40 1.031
353.50 1.03
353.60 1.03
353.70 1.03
353.80 1.029
353.90 1.029
354.00 1.028
354.10 1.028
354.20 1.028
354.30 1.027
354.40 1.027
354.50 1.026
354.60 1.026
354.70 1.026
354.80 1.025
354.90 1.025
355.00 1.025
355.10 1.024
355.20 1.024
355.30 1.023
355.40 1.023
355.50 1.023
355.60 1.022
355.70 1.022
355.80 1.022
355.90 1.021
356.00 1.021
356.10 1.02
356.20 1.02
356.30 1.02
356.40 1.019
356.50 1.019
356.60 1.019
356.70 1.018
356.80 1.018
356.90 1.017
357.00 1.017
357.10 1.017
357.20 1.016
357.30 1.016
357.40 1.016
357.50 1.015
357.60 1.015
357.70 1.014
357.80 1.014
357.90 1.014
358.00 1.013
358.10 1.013
358.20 1.013
358.30 1.012
358.40 1.012
358.50 1.011
358.60 1.011
358.70 1.011
358.80 1.01
358.90 1.01
359.00 1.01
359.10 1.009
359.20 1.009
359.30 1.008
359.40 1.008
359.50 1.008
359.60 1.007
359.70 1.007
359.80 1.007
359.90 1.006
360.00 1.006
360.10 1.005
360.20 1.005
360.30 1.005
360.40 1.004
360.50 1.004
360.60 1.004
360.70 1.003
360.80 1.003
360.90 1.003
361.00 1.002
361.10 1.002
361.20 1.001
361.30 1.001
361.40 1.001
361.50 1
361.60 0.9999
361.70 0.9995
361.80 0.9992
361.90 0.9988
362.00 0.9984
362.10 0.9981
362.20 0.9977
362.30 0.9973
362.40 0.9969
362.50 0.9966
362.60 0.9962
362.70 0.9958
362.80 0.9954
362.90 0.9951
363.00 0.9947
363.10 0.9943
363.20 0.9939
363.30 0.9935
363.40 0.9931
363.50 0.9928
363.60 0.9924
363.70 0.992
363.80 0.9916
363.90 0.9912
364.00 0.9908
364.10 0.9904
364.20 0.99
364.30 0.9897
364.40 0.9893
364.50 0.9889
364.60 0.9887
364.70 0.9885
364.80 0.9883
364.90 0.9881
365.00 0.9879
365.10 0.9877
365.20 0.9875
365.30 0.9873
365.40 0.9871
365.50 0.9869
365.60 0.9867
365.70 0.9865
365.80 0.9863
365.90 0.9861
366.00 0.9859
366.10 0.9859
366.20 0.9858
366.30 0.9857
366.40 0.9856
366.50 0.9855
366.60 0.9854
366.70 0.9853
366.80 0.9853
366.90 0.9852
367.00 0.9851
367.10 0.985
367.20 0.9849
367.30 0.9848
367.40 0.9848
367.50 0.9847
367.60 0.9846
367.70 0.9845
367.80 0.9844
367.90 0.9843
368.00 0.9842
368.10 0.9865
368.20 0.9888
368.30 0.9911
368.40 0.9934
368.50 0.9957
368.60 0.9979
368.70 1
368.80 1.002
368.90 1.005
369.00 1.007
369.10 1.009
369.20 1.012
369.30 1.014
369.40 1.016
369.50 1.018
369.60 1.021
369.70 1.023
369.80 1.025
369.90 1.027
370.00 1.03
370.10 1.034
370.20 1.038
370.30 1.042
370.40 1.047
370.50 1.051
370.60 1.055
370.70 1.06
370.80 1.064
370.90 1.068
371.00 1.073
371.10 1.077
371.20 1.081
371.30 1.085
371.40 1.09
371.50 1.094
371.60 1.098
371.70 1.102
371.80 1.107
371.90 1.111
372.00 1.115
372.10 1.12
372.20 1.124
372.30 1.129
372.40 1.134
372.50 1.138
372.60 1.143
372.70 1.148
372.80 1.152
372.90 1.157
373.00 1.162
373.10 1.166
373.20 1.171
373.30 1.176
373.40 1.18
373.50 1.185
373.60 1.189
373.70 1.194
373.80 1.199
373.90 1.203
374.00 1.208
374.10 1.211
374.20 1.215
374.30 1.219
374.40 1.223
374.50 1.226
374.60 1.23
374.70 1.234
374.80 1.237
374.90 1.241
375.00 1.245
375.10 1.248
375.20 1.252
375.30 1.256
375.40 1.259
375.50 1.263
375.60 1.267
375.70 1.27
375.80 1.274
375.90 1.277
376.00 1.281
376.10 1.283
376.20 1.284
376.30 1.286
376.40 1.288
376.50 1.289
376.60 1.291
376.70 1.292
376.80 1.294
376.90 1.296
377.00 1.297
377.10 1.294
377.20 1.292
377.30 1.289
377.40 1.286
377.50 1.283
377.60 1.28
377.70 1.277
377.80 1.275
377.90 1.272
378.00 1.269
378.10 1.249
378.20 1.229
378.30 1.209
378.40 1.189
378.50 1.169
378.60 1.149
378.70 1.129
378.80 1.109
378.90 1.089
379.00 1.069
379.10 1.037
379.20 1.006
379.30 0.9739
379.40 0.9423
379.50 0.9107
379.60 0.8792
379.70 0.8477
379.80 0.8163
379.90 0.7849
380.00 0.7535
380.10 0.7966
380.20 0.8396
380.30 0.8826
380.40 0.9256
380.50 0.9685
380.60 1.011
380.70 1.054
380.80 1.097
380.90 1.14
381.00 1.182
381.10 1.193
381.20 1.204
381.30 1.214
381.40 1.225
381.50 1.235
381.60 1.237
381.70 1.236
381.80 1.232
381.90 1.225
382.00 1.216
382.10 1.203
382.20 1.187
382.30 1.144
382.40 1.101
382.50 1.058
382.60 1.015
382.70 0.9723
382.80 0.9296
382.90 0.8869
383.00 0.8442
383.10 0.8016
383.20 0.7591
383.30 0.6837
383.40 0.6
383.50 0.5122
383.60 0.5319
383.70 0.6188
383.80 0.7011
383.90 0.775
384.00 0.8413
384.10 0.9016
384.20 0.9563
384.30 1.006
384.40 1.052
384.50 1.094
384.60 1.131
384.70 1.162
384.80 1.19
384.90 1.213
385.00 1.234
385.10 1.251
385.20 1.266
385.30 1.279
385.40 1.29
385.50 1.299
385.60 1.307
385.70 1.312
385.80 1.317
385.90 1.321
386.00 1.323
386.10 1.324
386.20 1.324
386.30 1.322
386.40 1.32
386.50 1.316
386.60 1.311
386.70 1.305
386.80 1.298
386.90 1.288
387.00 1.277
387.10 1.265
387.20 1.25
387.30 1.233
387.40 1.215
387.50 1.194
387.60 1.17
387.70 1.143
387.80 1.11
387.90 1.071
388.00 1.029
388.10 0.9794
388.20 0.9271
388.30 0.8721
388.40 0.8102
388.50 0.7446
388.60 0.6753
388.70 0.5969
388.80 0.5143
388.90 0.4275
389.00 0.5088
389.10 0.5889
389.20 0.6677
389.30 0.7374
389.40 0.8033
389.50 0.8654
389.60 0.9209
389.70 0.9736
389.80 1.024
389.90 1.067
390.00 1.106
390.10 1.141
390.20 1.169
390.30 1.195
390.40 1.218
390.50 1.238
390.60 1.256
390.70 1.273
390.80 1.288
390.90 1.302
391.00 1.315
391.10 1.326
391.20 1.336
391.30 1.346
391.40 1.354
391.50 1.361
391.60 1.368
391.70 1.374
391.80 1.38
391.90 1.385
392.00 1.389
392.10 1.393
392.20 1.397
392.30 1.399
392.40 1.402
392.50 1.403
392.60 1.405
392.70 1.405
392.80 1.406
392.90 1.406
393.00 1.405
393.10 1.404
393.20 1.402
393.30 1.4
393.40 1.398
393.50 1.394
393.60 1.391
393.70 1.387
393.80 1.382
393.90 1.376
394.00 1.371
394.10 1.364
394.20 1.357
394.30 1.349
394.40 1.341
394.50 1.331
394.60 1.322
394.70 1.31
394.80 1.298
394.90 1.285
395.00 1.271
395.10 1.255
395.20 1.238
395.30 1.219
395.40 1.199
395.50 1.178
395.60 1.154
395.70 1.127
395.80 1.099
395.90 1.065
396.00 1.027
396.10 0.9848
396.20 0.9363
396.30 0.8848
396.40 0.8303
396.50 0.7705
396.60 0.7081
396.70 0.6431
396.80 0.569
396.90 0.4852
397.00 0.3917
397.10 0.4779
397.20 0.5584
397.30 0.6331
397.40 0.6986
397.50 0.7611
397.60 0.8209
397.70 0.8755
397.80 0.927
397.90 0.9754
398.00 1.017
398.10 1.055
398.20 1.09
398.30 1.118
398.40 1.144
398.50 1.168
398.60 1.189
398.70 1.209
398.80 1.228
398.90 1.245
399.00 1.26
399.10 1.275
399.20 1.288
399.30 1.3
399.40 1.312
399.50 1.322
399.60 1.332
399.70 1.341
399.80 1.349
399.90 1.357
400.00 1.365
400.10 1.372
400.20 1.378
400.30 1.384
400.40 1.39
400.50 1.395
400.60 1.4
400.70 1.405
400.80 1.409
400.90 1.414
401.00 1.417
401.10 1.421
401.20 1.424
401.30 1.427
401.40 1.43
401.50 1.432
401.60 1.435
401.70 1.437
401.80 1.439
401.90 1.441
402.00 1.442
402.10 1.444
402.20 1.445
402.30 1.446
402.40 1.447
402.50 1.448
402.60 1.448
402.70 1.449
402.80 1.449
402.90 1.449
403.00 1.45
403.10 1.45
403.20 1.449
403.30 1.449
403.40 1.449
403.50 1.448
403.60 1.448
403.70 1.447
403.80 1.446
403.90 1.446
404.00 1.444
404.10 1.443
404.20 1.442
404.30 1.441
404.40 1.439
404.50 1.437
404.60 1.435
404.70 1.433
404.80 1.431
404.90 1.429
405.00 1.427
405.10 1.424
405.20 1.421
405.30 1.418
405.40 1.415
405.50 1.412
405.60 1.408
405.70 1.405
405.80 1.401
405.90 1.397
406.00 1.392
406.10 1.388
406.20 1.383
406.30 1.378
406.40 1.372
406.50 1.366
406.60 1.36
406.70 1.354
406.80 1.347
406.90 1.34
407.00 1.333
407.10 1.324
407.20 1.316
407.30 1.307
407.40 1.297
407.50 1.287
407.60 1.276
407.70 1.265
407.80 1.253
407.90 1.239
408.00 1.225
408.10 1.211
408.20 1.195
408.30 1.178
408.40 1.16
408.50 1.14
408.60 1.119
408.70 1.097
408.80 1.072
408.90 1.046
409.00 1.018
409.10 0.9848
409.20 0.9494
409.30 0.9112
409.40 0.8661
409.50 0.8181
409.60 0.7671
409.70 0.7124
409.80 0.6551
409.90 0.5952
410.00 0.5252
410.10 0.4575
410.20 0.3922
410.30 0.4834
410.40 0.5622
410.50 0.6286
410.60 0.6858
410.70 0.7409
410.80 0.7937
410.90 0.8423
411.00 0.8874
411.10 0.9293
411.20 0.9645
411.30 0.9972
411.40 1.027
411.50 1.053
411.60 1.077
411.70 1.1
411.80 1.12
411.90 1.14
412.00 1.158
412.10 1.174
412.20 1.189
412.30 1.204
412.40 1.217
412.50 1.23
412.60 1.241
412.70 1.252
412.80 1.262
412.90 1.272
413.00 1.281
413.10 1.289
413.20 1.297
413.30 1.304
413.40 1.311
413.50 1.317
413.60 1.323
413.70 1.329
413.80 1.334
413.90 1.339
414.00 1.344
414.10 1.348
414.20 1.352
414.30 1.356
414.40 1.36
414.50 1.364
414.60 1.367
414.70 1.37
414.80 1.373
414.90 1.376
415.00 1.378
415.10 1.381
415.20 1.383
415.30 1.385
415.40 1.387
415.50 1.389
415.60 1.391
415.70 1.393
415.80 1.394
415.90 1.396
416.00 1.397
416.10 1.398
416.20 1.4
416.30 1.401
416.40 1.402
416.50 1.403
416.60 1.404
416.70 1.404
416.80 1.405
416.90 1.406
417.00 1.406
417.10 1.407
417.20 1.408
417.30 1.408
417.40 1.409
417.50 1.409
417.60 1.409
417.70 1.41
417.80 1.41
417.90 1.41
418.00 1.41
418.10 1.411
418.20 1.411
418.30 1.411
418.40 1.411
418.50 1.411
418.60 1.411
418.70 1.411
418.80 1.411
418.90 1.411
419.00 1.411
419.10 1.41
419.20 1.41
419.30 1.41
419.40 1.41
419.50 1.41
419.60 1.409
419.70 1.409
419.80 1.409
419.90 1.409
420.00 1.408
420.10 1.408
420.20 1.408
420.30 1.407
420.40 1.407
420.50 1.406
420.60 1.406
420.70 1.406
420.80 1.405
420.90 1.405
421.00 1.404
421.10 1.404
421.20 1.403
421.30 1.403
421.40 1.402
421.50 1.402
421.60 1.401
421.70 1.401
421.80 1.4
421.90 1.399
422.00 1.399
422.10 1.398
422.20 1.397
422.30 1.397
422.40 1.396
422.50 1.395
422.60 1.395
422.70 1.394
422.80 1.393
422.90 1.393
423.00 1.392
423.10 1.391
423.20 1.39
423.30 1.39
423.40 1.389
423.50 1.388
423.60 1.387
423.70 1.386
423.80 1.385
423.90 1.384
424.00 1.384
424.10 1.383
424.20 1.382
424.30 1.381
424.40 1.38
424.50 1.379
424.60 1.378
424.70 1.377
424.80 1.376
424.90 1.375
425.00 1.374
425.10 1.373
425.20 1.371
425.30 1.37
425.40 1.369
425.50 1.368
425.60 1.367
425.70 1.366
425.80 1.364
425.90 1.363
426.00 1.362
426.10 1.36
426.20 1.359
426.30 1.357
426.40 1.356
426.50 1.354
426.60 1.353
426.70 1.351
426.80 1.349
426.90 1.348
427.00 1.346
427.10 1.344
427.20 1.343
427.30 1.341
427.40 1.339
427.50 1.337
427.60 1.335
427.70 1.333
427.80 1.331
427.90 1.328
428.00 1.326
428.10 1.324
428.20 1.321
428.30 1.319
428.40 1.316
428.50 1.313
428.60 1.311
428.70 1.308
428.80 1.305
428.90 1.302
429.00 1.298
429.10 1.295
429.20 1.291
429.30 1.288
429.40 1.284
429.50 1.28
429.60 1.276
429.70 1.272
429.80 1.267
429.90 1.263
430.00 1.258
430.10 1.253
430.20 1.248
430.30 1.242
430.40 1.237
430.50 1.231
430.60 1.225
430.70 1.218
430.80 1.212
430.90 1.205
431.00 1.198
431.10 1.19
431.20 1.182
431.30 1.174
431.40 1.165
431.50 1.157
431.60 1.147
431.70 1.136
431.80 1.126
431.90 1.113
432.00 1.1
432.10 1.087
432.20 1.071
432.30 1.054
432.40 1.036
432.50 1.014
432.60 0.9916
432.70 0.9675
432.80 0.9408
432.90 0.9132
433.00 0.8846
433.10 0.854
433.20 0.8208
433.30 0.785
433.40 0.7431
433.50 0.6992
433.60 0.6534
433.70 0.6034
433.80 0.5485
433.90 0.4887
434.00 0.3871
434.10 0.3887
434.20 0.4936
434.30 0.5527
434.40 0.6069
434.50 0.6562
434.60 0.7014
434.70 0.7445
434.80 0.7855
434.90 0.8203
435.00 0.8525
435.10 0.8823
435.20 0.91
435.30 0.9366
435.40 0.9621
435.50 0.9852
435.60 1.007
435.70 1.027
435.80 1.044
435.90 1.06
436.00 1.074
436.10 1.087
436.20 1.099
436.30 1.11
436.40 1.119
436.50 1.128
436.60 1.137
436.70 1.145
436.80 1.152
436.90 1.159
437.00 1.166
437.10 1.172
437.20 1.178
437.30 1.184
437.40 1.189
437.50 1.194
437.60 1.199
437.70 1.204
437.80 1.208
437.90 1.213
438.00 1.217
438.10 1.22
438.20 1.224
438.30 1.227
438.40 1.23
438.50 1.233
438.60 1.236
438.70 1.239
438.80 1.241
438.90 1.244
439.00 1.246
439.10 1.248
439.20 1.25
439.30 1.252
439.40 1.254
439.50 1.256
439.60 1.257
439.70 1.259
439.80 1.26
439.90 1.261
440.00 1.263
440.10 1.264
440.20 1.265
440.30 1.266
440.40 1.267
440.50 1.268
440.60 1.268
440.70 1.269
440.80 1.27
440.90 1.271
441.00 1.271
441.10 1.272
441.20 1.272
441.30 1.273
441.40 1.273
441.50 1.274
441.60 1.274
441.70 1.274
441.80 1.275
441.90 1.275
442.00 1.275
442.10 1.275
442.20 1.275
442.30 1.276
442.40 1.276
442.50 1.276
442.60 1.276
442.70 1.276
442.80 1.276
442.90 1.276
443.00 1.276
443.10 1.276
443.20 1.276
443.30 1.276
443.40 1.276
443.50 1.276
443.60 1.276
443.70 1.275
443.80 1.275
443.90 1.275
444.00 1.275
444.10 1.275
444.20 1.275
444.30 1.274
444.40 1.274
444.50 1.274
444.60 1.274
444.70 1.274
444.80 1.273
444.90 1.273
445.00 1.273
445.10 1.272
445.20 1.272
445.30 1.272
445.40 1.272
445.50 1.271
445.60 1.271
445.70 1.271
445.80 1.27
445.90 1.27
446.00 1.27
446.10 1.269
446.20 1.269
446.30 1.269
446.40 1.268
446.50 1.268
446.60 1.268
446.70 1.267
446.80 1.267
446.90 1.266
447.00 1.266
447.10 1.266
447.20 1.265
447.30 1.265
447.40 1.264
447.50 1.264
447.60 1.264
447.70 1.263
447.80 1.263
447.90 1.262
448.00 1.262
448.10 1.261
448.20 1.261
448.30 1.26
448.40 1.26
448.50 1.26
448.60 1.259
448.70 1.259
448.80 1.258
448.90 1.258
449.00 1.257
449.10 1.257
449.20 1.256
449.30 1.256
449.40 1.256
449.50 1.255
449.60 1.255
449.70 1.254
449.80 1.254
449.90 1.253
450.00 1.253
450.10 1.252
450.20 1.252
450.30 1.251
450.40 1.251
450.50 1.25
450.60 1.25
450.70 1.249
450.80 1.249
450.90 1.248
451.00 1.248
451.10 1.247
451.20 1.247
451.30 1.246
451.40 1.246
451.50 1.245
451.60 1.245
451.70 1.244
451.80 1.244
451.90 1.243
452.00 1.243
452.10 1.242
452.20 1.242
452.30 1.241
452.40 1.241
452.50 1.24
452.60 1.24
452.70 1.239
