# Version 2.1 - nm, norm@500 to 1, cut digits, bergeron_2000_70.dat_2000
# Wavelength(nm)  Flambda(ergs/cm^s/s/nm)
300.00 0.02125
300.10 0.02133
300.20 0.02142
300.30 0.02151
300.40 0.02159
300.50 0.02168
300.60 0.02177
300.70 0.02186
300.80 0.02195
300.90 0.02203
301.00 0.02212
301.10 0.02221
301.20 0.02229
301.30 0.02238
301.40 0.02247
301.50 0.02255
301.60 0.02264
301.70 0.02273
301.80 0.02281
301.90 0.0229
302.00 0.02299
302.10 0.02308
302.20 0.02317
302.30 0.02327
302.40 0.02336
302.50 0.02345
302.60 0.02355
302.70 0.02364
302.80 0.02373
302.90 0.02382
303.00 0.02392
303.10 0.02401
303.20 0.0241
303.30 0.02419
303.40 0.02429
303.50 0.02438
303.60 0.02447
303.70 0.02456
303.80 0.02465
303.90 0.02475
304.00 0.02484
304.10 0.02494
304.20 0.02504
304.30 0.02513
304.40 0.02523
304.50 0.02533
304.60 0.02543
304.70 0.02553
304.80 0.02563
304.90 0.02573
305.00 0.02582
305.10 0.02592
305.20 0.02602
305.30 0.02612
305.40 0.02622
305.50 0.02631
305.60 0.02641
305.70 0.02651
305.80 0.0266
305.90 0.0267
306.00 0.0268
306.10 0.02691
306.20 0.02701
306.30 0.02711
306.40 0.02722
306.50 0.02732
306.60 0.02743
306.70 0.02753
306.80 0.02763
306.90 0.02774
307.00 0.02784
307.10 0.02795
307.20 0.02805
307.30 0.02815
307.40 0.02826
307.50 0.02836
307.60 0.02846
307.70 0.02857
307.80 0.02867
307.90 0.02877
308.00 0.02888
308.10 0.02899
308.20 0.0291
308.30 0.02921
308.40 0.02932
308.50 0.02943
308.60 0.02954
308.70 0.02965
308.80 0.02976
308.90 0.02987
309.00 0.02998
309.10 0.03009
309.20 0.0302
309.30 0.03031
309.40 0.03042
309.50 0.03052
309.60 0.03063
309.70 0.03074
309.80 0.03085
309.90 0.03096
310.00 0.03107
310.10 0.03119
310.20 0.0313
310.30 0.03142
310.40 0.03154
310.50 0.03166
310.60 0.03177
310.70 0.03189
310.80 0.03201
310.90 0.03212
311.00 0.03224
311.10 0.03235
311.20 0.03247
311.30 0.03259
311.40 0.0327
311.50 0.03282
311.60 0.03293
311.70 0.03305
311.80 0.03316
311.90 0.03328
312.00 0.03339
312.10 0.03351
312.20 0.03363
312.30 0.03375
312.40 0.03387
312.50 0.03399
312.60 0.03412
312.70 0.03424
312.80 0.03436
312.90 0.03449
313.00 0.03461
313.10 0.03473
313.20 0.03486
313.30 0.03498
313.40 0.0351
313.50 0.03522
313.60 0.03534
313.70 0.03547
313.80 0.03559
313.90 0.03571
314.00 0.03584
314.10 0.03596
314.20 0.03609
314.30 0.03622
314.40 0.03635
314.50 0.03648
314.60 0.03661
314.70 0.03674
314.80 0.03687
314.90 0.037
315.00 0.03713
315.10 0.03725
315.20 0.03738
315.30 0.03751
315.40 0.03764
315.50 0.03777
315.60 0.03789
315.70 0.03802
315.80 0.03815
315.90 0.03828
316.00 0.03841
316.10 0.03854
316.20 0.03868
316.30 0.03881
316.40 0.03895
316.50 0.03909
316.60 0.03922
316.70 0.03936
316.80 0.0395
316.90 0.03963
317.00 0.03977
317.10 0.0399
317.20 0.04004
317.30 0.04017
317.40 0.04031
317.50 0.04044
317.60 0.04058
317.70 0.04071
317.80 0.04084
317.90 0.04098
318.00 0.04112
318.10 0.04126
318.20 0.0414
318.30 0.04154
318.40 0.04169
318.50 0.04183
318.60 0.04197
318.70 0.04212
318.80 0.04226
318.90 0.0424
319.00 0.04255
319.10 0.04269
319.20 0.04283
319.30 0.04297
319.40 0.04311
319.50 0.04325
319.60 0.0434
319.70 0.04354
319.80 0.04368
319.90 0.04382
320.00 0.04397
320.10 0.04411
320.20 0.04426
320.30 0.04441
320.40 0.04456
320.50 0.04471
320.60 0.04486
320.70 0.04501
320.80 0.04516
320.90 0.04531
321.00 0.04546
321.10 0.04561
321.20 0.04576
321.30 0.04591
321.40 0.04606
321.50 0.04621
321.60 0.04636
321.70 0.0465
321.80 0.04665
321.90 0.0468
322.00 0.04695
322.10 0.04711
322.20 0.04726
322.30 0.04742
322.40 0.04758
322.50 0.04774
322.60 0.0479
322.70 0.04805
322.80 0.04821
322.90 0.04837
323.00 0.04852
323.10 0.04868
323.20 0.04884
323.30 0.04899
323.40 0.04915
323.50 0.04931
323.60 0.04946
323.70 0.04962
323.80 0.04977
323.90 0.04993
324.00 0.05008
324.10 0.05025
324.20 0.05041
324.30 0.05058
324.40 0.05074
324.50 0.05091
324.60 0.05107
324.70 0.05124
324.80 0.0514
324.90 0.05157
325.00 0.05173
325.10 0.0519
325.20 0.05206
325.30 0.05222
325.40 0.05239
325.50 0.05255
325.60 0.05271
325.70 0.05287
325.80 0.05304
325.90 0.0532
326.00 0.05337
326.10 0.05354
326.20 0.05371
326.30 0.05388
326.40 0.05406
326.50 0.05423
326.60 0.0544
326.70 0.05457
326.80 0.05475
326.90 0.05492
327.00 0.05509
327.10 0.05526
327.20 0.05543
327.30 0.0556
327.40 0.05578
327.50 0.05595
327.60 0.05612
327.70 0.05629
327.80 0.05646
327.90 0.05663
328.00 0.05681
328.10 0.05698
328.20 0.05716
328.30 0.05734
328.40 0.05752
328.50 0.0577
328.60 0.05788
328.70 0.05806
328.80 0.05824
328.90 0.05842
329.00 0.0586
329.10 0.05878
329.20 0.05896
329.30 0.05914
329.40 0.05932
329.50 0.0595
329.60 0.05967
329.70 0.05985
329.80 0.06003
329.90 0.06021
330.00 0.06038
330.10 0.06057
330.20 0.06076
330.30 0.06095
330.40 0.06114
330.50 0.06133
330.60 0.06152
330.70 0.06171
330.80 0.0619
330.90 0.06208
331.00 0.06227
331.10 0.06246
331.20 0.06265
331.30 0.06283
331.40 0.06302
331.50 0.06321
331.60 0.06339
331.70 0.06358
331.80 0.06376
331.90 0.06395
332.00 0.06413
332.10 0.06433
332.20 0.06453
332.30 0.06473
332.40 0.06492
332.50 0.06512
332.60 0.06532
332.70 0.06551
332.80 0.06571
332.90 0.0659
333.00 0.0661
333.10 0.0663
333.20 0.06649
333.30 0.06669
333.40 0.06688
333.50 0.06707
333.60 0.06727
333.70 0.06746
333.80 0.06766
333.90 0.06785
334.00 0.06804
334.10 0.06825
334.20 0.06845
334.30 0.06866
334.40 0.06887
334.50 0.06907
334.60 0.06928
334.70 0.06948
334.80 0.06968
334.90 0.06989
335.00 0.07009
335.10 0.0703
335.20 0.0705
335.30 0.0707
335.40 0.07091
335.50 0.07111
335.60 0.07131
335.70 0.07151
335.80 0.07171
335.90 0.07192
336.00 0.07212
336.10 0.07233
336.20 0.07255
336.30 0.07276
336.40 0.07297
336.50 0.07319
336.60 0.0734
336.70 0.07361
336.80 0.07383
336.90 0.07404
337.00 0.07425
337.10 0.07446
337.20 0.07467
337.30 0.07489
337.40 0.0751
337.50 0.07531
337.60 0.07552
337.70 0.07573
337.80 0.07594
337.90 0.07615
338.00 0.07636
338.10 0.07658
338.20 0.07681
338.30 0.07703
338.40 0.07725
338.50 0.07747
338.60 0.07769
338.70 0.07792
338.80 0.07814
338.90 0.07836
339.00 0.07858
339.10 0.0788
339.20 0.07902
339.30 0.07924
339.40 0.07946
339.50 0.07968
339.60 0.0799
339.70 0.08012
339.80 0.08033
339.90 0.08055
340.00 0.08077
340.10 0.081
340.20 0.08123
340.30 0.08147
340.40 0.0817
340.50 0.08193
340.60 0.08216
340.70 0.08239
340.80 0.08262
340.90 0.08285
341.00 0.08308
341.10 0.08331
341.20 0.08354
341.30 0.08376
341.40 0.08399
341.50 0.08422
341.60 0.08445
341.70 0.08468
341.80 0.0849
341.90 0.08513
342.00 0.08536
342.10 0.0856
342.20 0.08584
342.30 0.08608
342.40 0.08632
342.50 0.08656
342.60 0.0868
342.70 0.08704
342.80 0.08727
342.90 0.08751
343.00 0.08775
343.10 0.08799
343.20 0.08823
343.30 0.08846
343.40 0.0887
343.50 0.08894
343.60 0.08917
343.70 0.08941
343.80 0.08965
343.90 0.08988
344.00 0.09012
344.10 0.09037
344.20 0.09062
344.30 0.09087
344.40 0.09112
344.50 0.09136
344.60 0.09161
344.70 0.09186
344.80 0.09211
344.90 0.09236
345.00 0.0926
345.10 0.09285
345.20 0.0931
345.30 0.09334
345.40 0.09359
345.50 0.09383
345.60 0.09408
345.70 0.09432
345.80 0.09457
345.90 0.09481
346.00 0.09506
346.10 0.09532
346.20 0.09558
346.30 0.09583
346.40 0.09609
346.50 0.09635
346.60 0.09661
346.70 0.09686
346.80 0.09712
346.90 0.09738
347.00 0.09763
347.10 0.09789
347.20 0.09815
347.30 0.0984
347.40 0.09866
347.50 0.09891
347.60 0.09916
347.70 0.09942
347.80 0.09967
347.90 0.09992
348.00 0.1002
348.10 0.1004
348.20 0.1007
348.30 0.101
348.40 0.1012
348.50 0.1015
348.60 0.1018
348.70 0.102
348.80 0.1023
348.90 0.1026
349.00 0.1028
349.10 0.1031
349.20 0.1034
349.30 0.1036
349.40 0.1039
349.50 0.1042
349.60 0.1044
349.70 0.1047
349.80 0.105
349.90 0.1052
350.00 0.1055
350.10 0.1058
350.20 0.106
350.30 0.1063
350.40 0.1066
350.50 0.1069
350.60 0.1071
350.70 0.1074
350.80 0.1077
350.90 0.108
351.00 0.1082
351.10 0.1085
351.20 0.1088
351.30 0.1091
351.40 0.1093
351.50 0.1096
351.60 0.1099
351.70 0.1102
351.80 0.1104
351.90 0.1107
352.00 0.111
352.10 0.1113
352.20 0.1115
352.30 0.1118
352.40 0.1121
352.50 0.1124
352.60 0.1127
352.70 0.113
352.80 0.1133
352.90 0.1135
353.00 0.1138
353.10 0.1141
353.20 0.1144
353.30 0.1147
353.40 0.115
353.50 0.1152
353.60 0.1155
353.70 0.1158
353.80 0.1161
353.90 0.1164
354.00 0.1166
354.10 0.1169
354.20 0.1172
354.30 0.1175
354.40 0.1178
354.50 0.1181
354.60 0.1184
354.70 0.1187
354.80 0.119
354.90 0.1193
355.00 0.1196
355.10 0.1199
355.20 0.1202
355.30 0.1205
355.40 0.1208
355.50 0.1211
355.60 0.1213
355.70 0.1216
355.80 0.1219
355.90 0.1222
356.00 0.1225
356.10 0.1228
356.20 0.1231
356.30 0.1234
356.40 0.1237
356.50 0.124
356.60 0.1243
356.70 0.1246
356.80 0.1249
356.90 0.1252
357.00 0.1255
357.10 0.1259
357.20 0.1262
357.30 0.1265
357.40 0.1268
357.50 0.1271
357.60 0.1274
357.70 0.1277
357.80 0.128
357.90 0.1283
358.00 0.1286
358.10 0.1289
358.20 0.1292
358.30 0.1295
358.40 0.1298
358.50 0.1301
358.60 0.1304
358.70 0.1308
358.80 0.1311
358.90 0.1314
359.00 0.1317
359.10 0.132
359.20 0.1323
359.30 0.1326
359.40 0.1329
359.50 0.1333
359.60 0.1336
359.70 0.1339
359.80 0.1342
359.90 0.1345
360.00 0.1348
360.10 0.1351
360.20 0.1355
360.30 0.1358
360.40 0.1361
360.50 0.1364
360.60 0.1367
360.70 0.1371
360.80 0.1374
360.90 0.1377
361.00 0.138
361.10 0.1384
361.20 0.1387
361.30 0.139
361.40 0.1393
361.50 0.1396
361.60 0.14
361.70 0.1403
361.80 0.1406
361.90 0.1409
362.00 0.1412
362.10 0.1416
362.20 0.1419
362.30 0.1422
362.40 0.1426
362.50 0.1429
362.60 0.1432
362.70 0.1435
362.80 0.1439
362.90 0.1442
363.00 0.1445
363.10 0.1449
363.20 0.1452
363.30 0.1455
363.40 0.1459
363.50 0.1462
363.60 0.1466
363.70 0.1469
363.80 0.1472
363.90 0.1476
364.00 0.1479
364.10 0.1482
364.20 0.1486
364.30 0.1489
364.40 0.1492
364.50 0.1496
364.60 0.1499
364.70 0.1502
364.80 0.1506
364.90 0.1509
365.00 0.1513
365.10 0.1516
365.20 0.152
365.30 0.1523
365.40 0.1527
365.50 0.153
365.60 0.1533
365.70 0.1537
365.80 0.154
365.90 0.1544
366.00 0.1547
366.10 0.1551
366.20 0.1554
366.30 0.1558
366.40 0.1561
366.50 0.1565
366.60 0.1568
366.70 0.1572
366.80 0.1575
366.90 0.1579
367.00 0.1582
367.10 0.1586
367.20 0.1589
367.30 0.1593
367.40 0.1596
367.50 0.16
367.60 0.1603
367.70 0.1607
367.80 0.161
367.90 0.1614
368.00 0.1617
368.10 0.1621
368.20 0.1624
368.30 0.1628
368.40 0.1632
368.50 0.1635
368.60 0.1639
368.70 0.1643
368.80 0.1646
368.90 0.165
369.00 0.1653
369.10 0.1657
369.20 0.1661
369.30 0.1664
369.40 0.1668
369.50 0.1672
369.60 0.1675
369.70 0.1679
369.80 0.1682
369.90 0.1686
370.00 0.1689
370.10 0.1693
370.20 0.1697
370.30 0.1701
370.40 0.1704
370.50 0.1708
370.60 0.1712
370.70 0.1716
370.80 0.1719
370.90 0.1723
371.00 0.1727
371.10 0.173
371.20 0.1734
371.30 0.1738
371.40 0.1741
371.50 0.1745
371.60 0.1749
371.70 0.1753
371.80 0.1756
371.90 0.176
372.00 0.1764
372.10 0.1767
372.20 0.1771
372.30 0.1775
372.40 0.1779
372.50 0.1783
372.60 0.1787
372.70 0.179
372.80 0.1794
372.90 0.1798
373.00 0.1802
373.10 0.1806
373.20 0.1809
373.30 0.1813
373.40 0.1817
373.50 0.1821
373.60 0.1825
373.70 0.1828
373.80 0.1832
373.90 0.1836
374.00 0.184
374.10 0.1844
374.20 0.1848
374.30 0.1851
374.40 0.1855
374.50 0.1859
374.60 0.1863
374.70 0.1867
374.80 0.1871
374.90 0.1875
375.00 0.1879
375.10 0.1883
375.20 0.1887
375.30 0.1891
375.40 0.1895
375.50 0.1898
375.60 0.1902
375.70 0.1906
375.80 0.191
375.90 0.1914
376.00 0.1918
376.10 0.1922
376.20 0.1926
376.30 0.193
376.40 0.1934
376.50 0.1938
376.60 0.1942
376.70 0.1946
376.80 0.195
376.90 0.1954
377.00 0.1958
377.10 0.1962
377.20 0.1966
377.30 0.197
377.40 0.1974
377.50 0.1978
377.60 0.1982
377.70 0.1986
377.80 0.199
377.90 0.1994
378.00 0.1998
378.10 0.2002
378.20 0.2006
378.30 0.201
378.40 0.2014
378.50 0.2018
378.60 0.2022
378.70 0.2027
378.80 0.2031
378.90 0.2035
379.00 0.2039
379.10 0.2043
379.20 0.2047
379.30 0.2051
379.40 0.2055
379.50 0.2059
379.60 0.2064
379.70 0.2068
379.80 0.2072
379.90 0.2076
380.00 0.208
380.10 0.2084
380.20 0.2088
380.30 0.2093
380.40 0.2097
380.50 0.2101
380.60 0.2105
380.70 0.2109
380.80 0.2114
380.90 0.2118
381.00 0.2122
381.10 0.2126
381.20 0.213
381.30 0.2135
381.40 0.2139
381.50 0.2143
381.60 0.2147
381.70 0.2151
381.80 0.2156
381.90 0.216
382.00 0.2164
382.10 0.2168
382.20 0.2173
382.30 0.2177
382.40 0.2181
382.50 0.2186
382.60 0.219
382.70 0.2194
382.80 0.2199
382.90 0.2203
383.00 0.2207
383.10 0.2211
383.20 0.2216
383.30 0.222
383.40 0.2224
383.50 0.2229
383.60 0.2233
383.70 0.2237
383.80 0.2242
383.90 0.2246
384.00 0.225
384.10 0.2255
384.20 0.2259
384.30 0.2263
384.40 0.2268
384.50 0.2272
384.60 0.2276
384.70 0.2281
384.80 0.2285
384.90 0.229
385.00 0.2294
385.10 0.2298
385.20 0.2303
385.30 0.2307
385.40 0.2312
385.50 0.2316
385.60 0.2321
385.70 0.2325
385.80 0.2329
385.90 0.2334
386.00 0.2338
386.10 0.2343
386.20 0.2347
386.30 0.2352
386.40 0.2356
386.50 0.2361
386.60 0.2365
386.70 0.237
386.80 0.2374
386.90 0.2379
387.00 0.2383
387.10 0.2388
387.20 0.2392
387.30 0.2397
387.40 0.2401
387.50 0.2406
387.60 0.241
387.70 0.2415
387.80 0.2419
387.90 0.2424
388.00 0.2428
388.10 0.2433
388.20 0.2437
388.30 0.2442
388.40 0.2447
388.50 0.2451
388.60 0.2456
388.70 0.246
388.80 0.2465
388.90 0.2469
389.00 0.2474
389.10 0.2479
389.20 0.2483
389.30 0.2488
389.40 0.2492
389.50 0.2497
389.60 0.2502
389.70 0.2506
389.80 0.2511
389.90 0.2516
390.00 0.252
390.10 0.2525
390.20 0.253
390.30 0.2534
390.40 0.2539
390.50 0.2544
390.60 0.2548
390.70 0.2553
390.80 0.2558
390.90 0.2562
391.00 0.2567
391.10 0.2572
391.20 0.2576
391.30 0.2581
391.40 0.2586
391.50 0.2591
391.60 0.2595
391.70 0.26
391.80 0.2605
391.90 0.261
392.00 0.2614
392.10 0.2619
392.20 0.2624
392.30 0.2628
392.40 0.2633
392.50 0.2638
392.60 0.2643
392.70 0.2648
392.80 0.2652
392.90 0.2657
393.00 0.2662
393.10 0.2667
393.20 0.2672
393.30 0.2676
393.40 0.2681
393.50 0.2686
393.60 0.2691
393.70 0.2696
393.80 0.2701
393.90 0.2705
394.00 0.271
394.10 0.2715
394.20 0.272
394.30 0.2725
394.40 0.273
394.50 0.2734
394.60 0.2739
394.70 0.2744
394.80 0.2749
394.90 0.2754
395.00 0.2759
395.10 0.2764
395.20 0.2769
395.30 0.2774
395.40 0.2778
395.50 0.2783
395.60 0.2788
395.70 0.2793
395.80 0.2798
395.90 0.2803
396.00 0.2808
396.10 0.2813
396.20 0.2818
396.30 0.2823
396.40 0.2828
396.50 0.2833
396.60 0.2838
396.70 0.2843
396.80 0.2848
396.90 0.2853
397.00 0.2858
397.10 0.2863
397.20 0.2868
397.30 0.2873
397.40 0.2878
397.50 0.2883
397.60 0.2888
397.70 0.2893
397.80 0.2898
397.90 0.2903
398.00 0.2908
398.10 0.2913
398.20 0.2918
398.30 0.2923
398.40 0.2928
398.50 0.2933
398.60 0.2938
398.70 0.2943
398.80 0.2948
398.90 0.2953
399.00 0.2958
399.10 0.2963
399.20 0.2969
399.30 0.2974
399.40 0.2979
399.50 0.2984
399.60 0.2989
399.70 0.2994
399.80 0.2999
399.90 0.3004
400.00 0.301
400.10 0.3015
400.20 0.302
400.30 0.3025
400.40 0.303
400.50 0.3035
400.60 0.304
400.70 0.3046
400.80 0.3051
400.90 0.3056
401.00 0.3061
401.10 0.3066
401.20 0.3071
401.30 0.3077
401.40 0.3082
401.50 0.3087
401.60 0.3092
401.70 0.3097
401.80 0.3103
401.90 0.3108
402.00 0.3113
402.10 0.3118
402.20 0.3124
402.30 0.3129
402.40 0.3134
402.50 0.3139
402.60 0.3144
402.70 0.315
402.80 0.3155
402.90 0.316
403.00 0.3166
403.10 0.3171
403.20 0.3176
403.30 0.3182
403.40 0.3187
403.50 0.3192
403.60 0.3197
403.70 0.3203
403.80 0.3208
403.90 0.3213
404.00 0.3219
404.10 0.3224
404.20 0.3229
404.30 0.3235
404.40 0.324
404.50 0.3245
404.60 0.3251
404.70 0.3256
404.80 0.3261
404.90 0.3267
405.00 0.3272
405.10 0.3277
405.20 0.3283
405.30 0.3288
405.40 0.3294
405.50 0.3299
405.60 0.3304
405.70 0.331
405.80 0.3315
405.90 0.3321
406.00 0.3326
406.10 0.3331
406.20 0.3337
406.30 0.3342
406.40 0.3348
406.50 0.3353
406.60 0.3359
406.70 0.3364
406.80 0.3369
406.90 0.3375
407.00 0.338
407.10 0.3386
407.20 0.3391
407.30 0.3397
407.40 0.3402
407.50 0.3408
407.60 0.3413
407.70 0.3419
407.80 0.3424
407.90 0.343
408.00 0.3435
408.10 0.3441
408.20 0.3446
408.30 0.3452
408.40 0.3457
408.50 0.3463
408.60 0.3468
408.70 0.3474
408.80 0.3479
408.90 0.3485
409.00 0.349
409.10 0.3496
409.20 0.3502
409.30 0.3507
409.40 0.3513
409.50 0.3518
409.60 0.3524
409.70 0.353
409.80 0.3535
409.90 0.3541
410.00 0.3546
410.10 0.3552
410.20 0.3557
410.30 0.3563
410.40 0.3569
410.50 0.3574
410.60 0.358
410.70 0.3586
410.80 0.3591
410.90 0.3597
411.00 0.3602
411.10 0.3608
411.20 0.3614
411.30 0.3619
411.40 0.3625
411.50 0.3631
411.60 0.3636
411.70 0.3642
411.80 0.3648
411.90 0.3653
412.00 0.3659
412.10 0.3665
412.20 0.3671
412.30 0.3676
412.40 0.3682
412.50 0.3688
412.60 0.3693
412.70 0.3699
412.80 0.3705
412.90 0.3711
413.00 0.3716
413.10 0.3722
413.20 0.3728
413.30 0.3733
413.40 0.3739
413.50 0.3745
413.60 0.3751
413.70 0.3756
413.80 0.3762
413.90 0.3768
414.00 0.3774
414.10 0.378
414.20 0.3785
414.30 0.3791
414.40 0.3797
414.50 0.3803
414.60 0.3809
414.70 0.3814
414.80 0.382
414.90 0.3826
415.00 0.3832
415.10 0.3838
415.20 0.3843
415.30 0.3849
415.40 0.3855
415.50 0.3861
415.60 0.3867
415.70 0.3873
415.80 0.3879
415.90 0.3884
416.00 0.389
416.10 0.3896
416.20 0.3902
416.30 0.3908
416.40 0.3914
416.50 0.392
416.60 0.3926
416.70 0.3931
416.80 0.3937
416.90 0.3943
417.00 0.3949
417.10 0.3955
417.20 0.3961
417.30 0.3967
417.40 0.3973
417.50 0.3979
417.60 0.3985
417.70 0.3991
417.80 0.3997
417.90 0.4002
418.00 0.4008
418.10 0.4014
418.20 0.402
418.30 0.4026
418.40 0.4032
418.50 0.4038
418.60 0.4044
418.70 0.405
418.80 0.4056
418.90 0.4062
419.00 0.4068
419.10 0.4074
419.20 0.408
419.30 0.4086
419.40 0.4092
419.50 0.4098
419.60 0.4104
419.70 0.411
419.80 0.4116
419.90 0.4122
420.00 0.4128
420.10 0.4134
420.20 0.414
420.30 0.4147
420.40 0.4153
420.50 0.4159
420.60 0.4165
420.70 0.4171
420.80 0.4177
420.90 0.4183
421.00 0.4189
421.10 0.4195
421.20 0.4201
421.30 0.4207
421.40 0.4213
421.50 0.422
421.60 0.4226
421.70 0.4232
421.80 0.4238
421.90 0.4244
422.00 0.425
422.10 0.4256
422.20 0.4262
422.30 0.4268
422.40 0.4275
422.50 0.4281
422.60 0.4287
422.70 0.4293
422.80 0.4299
422.90 0.4305
423.00 0.4312
423.10 0.4318
423.20 0.4324
423.30 0.433
423.40 0.4336
423.50 0.4342
423.60 0.4349
423.70 0.4355
423.80 0.4361
423.90 0.4367
424.00 0.4373
424.10 0.438
424.20 0.4386
424.30 0.4392
424.40 0.4398
424.50 0.4404
424.60 0.4411
424.70 0.4417
424.80 0.4423
424.90 0.4429
425.00 0.4436
425.10 0.4442
425.20 0.4448
425.30 0.4454
425.40 0.4461
425.50 0.4467
425.60 0.4473
425.70 0.448
425.80 0.4486
425.90 0.4492
426.00 0.4498
426.10 0.4505
426.20 0.4511
426.30 0.4517
426.40 0.4524
426.50 0.453
426.60 0.4536
426.70 0.4543
426.80 0.4549
426.90 0.4555
427.00 0.4562
427.10 0.4568
427.20 0.4574
427.30 0.4581
427.40 0.4587
427.50 0.4593
427.60 0.46
427.70 0.4606
427.80 0.4612
427.90 0.4619
428.00 0.4625
428.10 0.4631
428.20 0.4638
428.30 0.4644
428.40 0.4651
428.50 0.4657
428.60 0.4663
428.70 0.467
428.80 0.4676
428.90 0.4683
429.00 0.4689
429.10 0.4695
429.20 0.4702
429.30 0.4708
429.40 0.4715
429.50 0.4721
429.60 0.4728
429.70 0.4734
429.80 0.474
429.90 0.4747
430.00 0.4753
430.10 0.476
430.20 0.4766
430.30 0.4773
430.40 0.4779
430.50 0.4786
430.60 0.4792
430.70 0.4799
430.80 0.4805
430.90 0.4812
431.00 0.4818
431.10 0.4824
431.20 0.4831
431.30 0.4837
431.40 0.4844
431.50 0.485
431.60 0.4857
431.70 0.4863
431.80 0.487
431.90 0.4877
432.00 0.4883
432.10 0.489
432.20 0.4896
432.30 0.4903
432.40 0.4909
432.50 0.4916
432.60 0.4922
432.70 0.4929
432.80 0.4935
432.90 0.4942
433.00 0.4949
433.10 0.4955
433.20 0.4962
433.30 0.4968
433.40 0.4975
433.50 0.4981
433.60 0.4988
433.70 0.4995
433.80 0.5001
433.90 0.5008
434.00 0.5014
434.10 0.5021
434.20 0.5028
434.30 0.5034
434.40 0.5041
434.50 0.5048
434.60 0.5054
434.70 0.5061
434.80 0.5067
434.90 0.5074
435.00 0.5081
435.10 0.5087
435.20 0.5094
435.30 0.5101
435.40 0.5107
435.50 0.5114
435.60 0.5121
435.70 0.5127
435.80 0.5134
435.90 0.5141
436.00 0.5147
436.10 0.5154
436.20 0.5161
436.30 0.5167
436.40 0.5174
436.50 0.5181
436.60 0.5187
436.70 0.5194
436.80 0.5201
436.90 0.5208
437.00 0.5214
437.10 0.5221
437.20 0.5228
437.30 0.5234
437.40 0.5241
437.50 0.5248
437.60 0.5255
437.70 0.5261
437.80 0.5268
437.90 0.5275
438.00 0.5282
438.10 0.5288
438.20 0.5295
438.30 0.5302
438.40 0.5309
438.50 0.5315
438.60 0.5322
438.70 0.5329
438.80 0.5336
438.90 0.5343
439.00 0.5349
439.10 0.5356
439.20 0.5363
439.30 0.537
439.40 0.5377
