# Version 2.1 - nm, norm@500 to 1, cut digits, bergeron_60000_95.dat_60000
# Wavelength(nm)  Flambda(ergs/cm^s/s/nm)
300.00 6.477
300.10 6.469
300.20 6.461
300.30 6.453
300.40 6.445
300.50 6.438
300.60 6.43
300.70 6.422
300.80 6.414
300.90 6.406
301.00 6.398
301.10 6.39
301.20 6.383
301.30 6.375
301.40 6.367
301.50 6.359
301.60 6.352
301.70 6.344
301.80 6.336
301.90 6.328
302.00 6.321
302.10 6.313
302.20 6.305
302.30 6.298
302.40 6.29
302.50 6.282
302.60 6.275
302.70 6.267
302.80 6.259
302.90 6.252
303.00 6.244
303.10 6.237
303.20 6.229
303.30 6.222
303.40 6.214
303.50 6.206
303.60 6.199
303.70 6.191
303.80 6.184
303.90 6.176
304.00 6.169
304.10 6.162
304.20 6.154
304.30 6.147
304.40 6.139
304.50 6.132
304.60 6.124
304.70 6.117
304.80 6.11
304.90 6.102
305.00 6.095
305.10 6.088
305.20 6.08
305.30 6.073
305.40 6.066
305.50 6.058
305.60 6.051
305.70 6.044
305.80 6.036
305.90 6.029
306.00 6.022
306.10 6.015
306.20 6.007
306.30 6
306.40 5.993
306.50 5.986
306.60 5.979
306.70 5.971
306.80 5.964
306.90 5.957
307.00 5.95
307.10 5.943
307.20 5.936
307.30 5.929
307.40 5.921
307.50 5.914
307.60 5.907
307.70 5.9
307.80 5.893
307.90 5.886
308.00 5.879
308.10 5.872
308.20 5.865
308.30 5.858
308.40 5.851
308.50 5.844
308.60 5.837
308.70 5.83
308.80 5.823
308.90 5.816
309.00 5.809
309.10 5.802
309.20 5.795
309.30 5.789
309.40 5.782
309.50 5.775
309.60 5.768
309.70 5.761
309.80 5.754
309.90 5.747
310.00 5.741
310.10 5.734
310.20 5.727
310.30 5.72
310.40 5.713
310.50 5.707
310.60 5.7
310.70 5.693
310.80 5.686
310.90 5.68
311.00 5.673
311.10 5.666
311.20 5.659
311.30 5.653
311.40 5.646
311.50 5.639
311.60 5.633
311.70 5.626
311.80 5.619
311.90 5.613
312.00 5.606
312.10 5.599
312.20 5.593
312.30 5.586
312.40 5.58
312.50 5.573
312.60 5.566
312.70 5.56
312.80 5.553
312.90 5.547
313.00 5.54
313.10 5.534
313.20 5.527
313.30 5.521
313.40 5.514
313.50 5.508
313.60 5.501
313.70 5.495
313.80 5.488
313.90 5.482
314.00 5.476
314.10 5.469
314.20 5.463
314.30 5.456
314.40 5.45
314.50 5.443
314.60 5.437
314.70 5.431
314.80 5.424
314.90 5.418
315.00 5.412
315.10 5.405
315.20 5.399
315.30 5.393
315.40 5.386
315.50 5.38
315.60 5.374
315.70 5.368
315.80 5.361
315.90 5.355
316.00 5.349
316.10 5.343
316.20 5.336
316.30 5.33
316.40 5.324
316.50 5.318
316.60 5.311
316.70 5.305
316.80 5.299
316.90 5.293
317.00 5.287
317.10 5.281
317.20 5.275
317.30 5.268
317.40 5.262
317.50 5.256
317.60 5.25
317.70 5.244
317.80 5.238
317.90 5.232
318.00 5.226
318.10 5.22
318.20 5.214
318.30 5.208
318.40 5.202
318.50 5.195
318.60 5.189
318.70 5.183
318.80 5.177
318.90 5.171
319.00 5.165
319.10 5.159
319.20 5.154
319.30 5.148
319.40 5.142
319.50 5.136
319.60 5.13
319.70 5.124
319.80 5.118
319.90 5.112
320.00 5.106
320.10 5.1
320.20 5.094
320.30 5.088
320.40 5.083
320.50 5.077
320.60 5.071
320.70 5.065
320.80 5.059
320.90 5.053
321.00 5.048
321.10 5.042
321.20 5.036
321.30 5.03
321.40 5.024
321.50 5.019
321.60 5.013
321.70 5.007
321.80 5.001
321.90 4.996
322.00 4.99
322.10 4.984
322.20 4.979
322.30 4.973
322.40 4.967
322.50 4.961
322.60 4.956
322.70 4.95
322.80 4.944
322.90 4.939
323.00 4.933
323.10 4.928
323.20 4.922
323.30 4.916
323.40 4.911
323.50 4.905
323.60 4.899
323.70 4.894
323.80 4.888
323.90 4.883
324.00 4.877
324.10 4.872
324.20 4.866
324.30 4.86
324.40 4.855
324.50 4.849
324.60 4.844
324.70 4.838
324.80 4.833
324.90 4.827
325.00 4.822
325.10 4.816
325.20 4.811
325.30 4.805
325.40 4.8
325.50 4.795
325.60 4.789
325.70 4.784
325.80 4.778
325.90 4.773
326.00 4.767
326.10 4.762
326.20 4.757
326.30 4.751
326.40 4.746
326.50 4.741
326.60 4.735
326.70 4.73
326.80 4.724
326.90 4.719
327.00 4.714
327.10 4.708
327.20 4.703
327.30 4.698
327.40 4.693
327.50 4.687
327.60 4.682
327.70 4.677
327.80 4.671
327.90 4.666
328.00 4.661
328.10 4.656
328.20 4.65
328.30 4.645
328.40 4.64
328.50 4.635
328.60 4.629
328.70 4.624
328.80 4.619
328.90 4.614
329.00 4.609
329.10 4.603
329.20 4.598
329.30 4.593
329.40 4.588
329.50 4.583
329.60 4.578
329.70 4.573
329.80 4.567
329.90 4.562
330.00 4.557
330.10 4.552
330.20 4.547
330.30 4.542
330.40 4.537
330.50 4.532
330.60 4.527
330.70 4.522
330.80 4.517
330.90 4.512
331.00 4.507
331.10 4.502
331.20 4.497
331.30 4.491
331.40 4.486
331.50 4.481
331.60 4.476
331.70 4.471
331.80 4.466
331.90 4.461
332.00 4.456
332.10 4.452
332.20 4.447
332.30 4.442
332.40 4.437
332.50 4.432
332.60 4.427
332.70 4.422
332.80 4.417
332.90 4.412
333.00 4.407
333.10 4.402
333.20 4.397
333.30 4.393
333.40 4.388
333.50 4.383
333.60 4.378
333.70 4.373
333.80 4.368
333.90 4.363
334.00 4.359
334.10 4.354
334.20 4.349
334.30 4.344
334.40 4.339
334.50 4.334
334.60 4.33
334.70 4.325
334.80 4.32
334.90 4.315
335.00 4.311
335.10 4.306
335.20 4.301
335.30 4.296
335.40 4.292
335.50 4.287
335.60 4.282
335.70 4.277
335.80 4.273
335.90 4.268
336.00 4.263
336.10 4.259
336.20 4.254
336.30 4.249
336.40 4.245
336.50 4.24
336.60 4.235
336.70 4.231
336.80 4.226
336.90 4.221
337.00 4.217
337.10 4.212
337.20 4.207
337.30 4.203
337.40 4.198
337.50 4.194
337.60 4.189
337.70 4.184
337.80 4.18
337.90 4.175
338.00 4.171
338.10 4.166
338.20 4.161
338.30 4.157
338.40 4.152
338.50 4.148
338.60 4.143
338.70 4.139
338.80 4.134
338.90 4.13
339.00 4.125
339.10 4.121
339.20 4.116
339.30 4.112
339.40 4.107
339.50 4.103
339.60 4.098
339.70 4.094
339.80 4.089
339.90 4.085
340.00 4.08
340.10 4.076
340.20 4.072
340.30 4.067
340.40 4.063
340.50 4.058
340.60 4.054
340.70 4.049
340.80 4.045
340.90 4.041
341.00 4.036
341.10 4.032
341.20 4.027
341.30 4.023
341.40 4.019
341.50 4.014
341.60 4.01
341.70 4.006
341.80 4.001
341.90 3.997
342.00 3.993
342.10 3.988
342.20 3.984
342.30 3.98
342.40 3.975
342.50 3.971
342.60 3.967
342.70 3.963
342.80 3.958
342.90 3.954
343.00 3.95
343.10 3.945
343.20 3.941
343.30 3.937
343.40 3.933
343.50 3.928
343.60 3.924
343.70 3.92
343.80 3.916
343.90 3.911
344.00 3.907
344.10 3.903
344.20 3.899
344.30 3.895
344.40 3.89
344.50 3.886
344.60 3.882
344.70 3.878
344.80 3.874
344.90 3.87
345.00 3.865
345.10 3.861
345.20 3.857
345.30 3.853
345.40 3.849
345.50 3.845
345.60 3.841
345.70 3.836
345.80 3.832
345.90 3.828
346.00 3.824
346.10 3.82
346.20 3.816
346.30 3.812
346.40 3.808
346.50 3.804
346.60 3.8
346.70 3.796
346.80 3.792
346.90 3.787
347.00 3.783
347.10 3.779
347.20 3.775
347.30 3.771
347.40 3.767
347.50 3.763
347.60 3.759
347.70 3.755
347.80 3.751
347.90 3.747
348.00 3.743
348.10 3.739
348.20 3.735
348.30 3.731
348.40 3.727
348.50 3.723
348.60 3.719
348.70 3.715
348.80 3.711
348.90 3.708
349.00 3.704
349.10 3.7
349.20 3.696
349.30 3.692
349.40 3.688
349.50 3.684
349.60 3.68
349.70 3.676
349.80 3.672
349.90 3.668
350.00 3.664
350.10 3.661
350.20 3.657
350.30 3.653
350.40 3.649
350.50 3.645
350.60 3.641
350.70 3.637
350.80 3.634
350.90 3.63
351.00 3.626
351.10 3.622
351.20 3.618
351.30 3.614
351.40 3.611
351.50 3.607
351.60 3.603
351.70 3.599
351.80 3.595
351.90 3.592
352.00 3.588
352.10 3.584
352.20 3.58
352.30 3.576
352.40 3.573
352.50 3.569
352.60 3.565
352.70 3.561
352.80 3.558
352.90 3.554
353.00 3.55
353.10 3.546
353.20 3.543
353.30 3.539
353.40 3.535
353.50 3.532
353.60 3.528
353.70 3.524
353.80 3.52
353.90 3.517
354.00 3.513
354.10 3.509
354.20 3.506
354.30 3.502
354.40 3.498
354.50 3.495
354.60 3.491
354.70 3.487
354.80 3.484
354.90 3.48
355.00 3.476
355.10 3.473
355.20 3.469
355.30 3.466
355.40 3.462
355.50 3.458
355.60 3.455
355.70 3.451
355.80 3.447
355.90 3.444
356.00 3.44
356.10 3.437
356.20 3.433
356.30 3.43
356.40 3.426
356.50 3.422
356.60 3.419
356.70 3.415
356.80 3.412
356.90 3.408
357.00 3.405
357.10 3.401
357.20 3.398
357.30 3.394
357.40 3.39
357.50 3.387
357.60 3.383
357.70 3.38
357.80 3.376
357.90 3.373
358.00 3.369
358.10 3.366
358.20 3.362
358.30 3.359
358.40 3.355
358.50 3.352
358.60 3.349
358.70 3.345
358.80 3.342
358.90 3.338
359.00 3.335
359.10 3.331
359.20 3.328
359.30 3.324
359.40 3.321
359.50 3.317
359.60 3.314
359.70 3.311
359.80 3.307
359.90 3.304
360.00 3.3
360.10 3.297
360.20 3.294
360.30 3.29
360.40 3.287
360.50 3.283
360.60 3.28
360.70 3.277
360.80 3.273
360.90 3.27
361.00 3.267
361.10 3.263
361.20 3.26
361.30 3.256
361.40 3.253
361.50 3.25
361.60 3.246
361.70 3.243
361.80 3.24
361.90 3.236
362.00 3.233
362.10 3.23
362.20 3.226
362.30 3.223
362.40 3.22
362.50 3.216
362.60 3.213
362.70 3.21
362.80 3.207
362.90 3.203
363.00 3.2
363.10 3.197
363.20 3.193
363.30 3.19
363.40 3.187
363.50 3.184
363.60 3.18
363.70 3.177
363.80 3.174
363.90 3.171
364.00 3.167
364.10 3.164
364.20 3.161
364.30 3.158
364.40 3.155
364.50 3.151
364.60 3.148
364.70 3.145
364.80 3.142
364.90 3.138
365.00 3.135
365.10 3.132
365.20 3.129
365.30 3.126
365.40 3.123
365.50 3.119
365.60 3.116
365.70 3.113
365.80 3.11
365.90 3.107
366.00 3.104
366.10 3.1
366.20 3.097
366.30 3.094
366.40 3.091
366.50 3.088
366.60 3.085
366.70 3.081
366.80 3.078
366.90 3.075
367.00 3.072
367.10 3.069
367.20 3.066
367.30 3.063
367.40 3.059
367.50 3.056
367.60 3.053
367.70 3.05
367.80 3.047
367.90 3.044
368.00 3.041
368.10 3.038
368.20 3.034
368.30 3.031
368.40 3.028
368.50 3.025
368.60 3.022
368.70 3.019
368.80 3.015
368.90 3.012
369.00 3.009
369.10 3.006
369.20 3.003
369.30 3
369.40 2.997
369.50 2.993
369.60 2.99
369.70 2.987
369.80 2.984
369.90 2.981
370.00 2.978
370.10 2.975
370.20 2.972
370.30 2.968
370.40 2.965
370.50 2.962
370.60 2.959
370.70 2.956
370.80 2.953
370.90 2.95
371.00 2.947
371.10 2.944
371.20 2.941
371.30 2.937
371.40 2.934
371.50 2.931
371.60 2.928
371.70 2.925
371.80 2.922
371.90 2.919
372.00 2.916
372.10 2.913
372.20 2.91
372.30 2.907
372.40 2.905
372.50 2.902
372.60 2.899
372.70 2.896
372.80 2.893
372.90 2.89
373.00 2.888
373.10 2.885
373.20 2.882
373.30 2.879
373.40 2.876
373.50 2.874
373.60 2.871
373.70 2.868
373.80 2.865
373.90 2.862
374.00 2.86
374.10 2.857
374.20 2.854
374.30 2.851
374.40 2.848
374.50 2.845
374.60 2.842
374.70 2.839
374.80 2.836
374.90 2.833
375.00 2.83
375.10 2.827
375.20 2.824
375.30 2.821
375.40 2.818
375.50 2.815
375.60 2.813
375.70 2.81
375.80 2.807
375.90 2.804
376.00 2.801
376.10 2.798
376.20 2.795
376.30 2.792
376.40 2.789
376.50 2.786
376.60 2.784
376.70 2.781
376.80 2.778
376.90 2.775
377.00 2.772
377.10 2.769
377.20 2.767
377.30 2.764
377.40 2.761
377.50 2.758
377.60 2.755
377.70 2.753
377.80 2.75
377.90 2.747
378.00 2.744
378.10 2.742
378.20 2.739
378.30 2.736
378.40 2.733
378.50 2.731
378.60 2.728
378.70 2.725
378.80 2.722
378.90 2.72
379.00 2.717
379.10 2.714
379.20 2.712
379.30 2.709
379.40 2.706
379.50 2.703
379.60 2.701
379.70 2.698
379.80 2.695
379.90 2.693
380.00 2.69
380.10 2.687
380.20 2.685
380.30 2.682
380.40 2.679
380.50 2.677
380.60 2.674
380.70 2.671
380.80 2.669
380.90 2.666
381.00 2.663
381.10 2.661
381.20 2.658
381.30 2.656
381.40 2.653
381.50 2.65
381.60 2.648
381.70 2.645
381.80 2.643
381.90 2.64
382.00 2.637
382.10 2.635
382.20 2.632
382.30 2.63
382.40 2.627
382.50 2.624
382.60 2.622
382.70 2.619
382.80 2.617
382.90 2.614
383.00 2.612
383.10 2.609
383.20 2.607
383.30 2.604
383.40 2.602
383.50 2.599
383.60 2.597
383.70 2.594
383.80 2.592
383.90 2.589
384.00 2.587
384.10 2.584
384.20 2.582
384.30 2.579
384.40 2.577
384.50 2.574
384.60 2.572
384.70 2.569
384.80 2.567
384.90 2.564
385.00 2.562
385.10 2.56
385.20 2.557
385.30 2.555
385.40 2.552
385.50 2.55
385.60 2.547
385.70 2.545
385.80 2.543
385.90 2.54
386.00 2.538
386.10 2.535
386.20 2.533
386.30 2.531
386.40 2.528
386.50 2.526
386.60 2.523
386.70 2.521
386.80 2.519
386.90 2.516
387.00 2.514
387.10 2.511
387.20 2.509
387.30 2.507
387.40 2.504
387.50 2.502
387.60 2.5
387.70 2.497
387.80 2.495
387.90 2.492
388.00 2.49
388.10 2.488
388.20 2.485
388.30 2.483
388.40 2.481
388.50 2.479
388.60 2.476
388.70 2.474
388.80 2.472
388.90 2.469
389.00 2.467
389.10 2.465
389.20 2.463
389.30 2.461
389.40 2.458
389.50 2.456
389.60 2.454
389.70 2.452
389.80 2.449
389.90 2.447
390.00 2.445
390.10 2.443
390.20 2.441
390.30 2.439
390.40 2.436
390.50 2.434
390.60 2.432
390.70 2.43
390.80 2.428
390.90 2.426
391.00 2.423
391.10 2.421
391.20 2.419
391.30 2.417
391.40 2.415
391.50 2.413
391.60 2.41
391.70 2.408
391.80 2.406
391.90 2.404
392.00 2.402
392.10 2.399
392.20 2.397
392.30 2.395
392.40 2.393
392.50 2.391
392.60 2.388
392.70 2.386
392.80 2.384
392.90 2.382
393.00 2.379
393.10 2.377
393.20 2.375
393.30 2.373
393.40 2.371
393.50 2.368
393.60 2.366
393.70 2.364
393.80 2.362
393.90 2.359
394.00 2.357
394.10 2.355
394.20 2.352
394.30 2.35
394.40 2.348
394.50 2.346
394.60 2.343
394.70 2.341
394.80 2.339
394.90 2.336
395.00 2.334
395.10 2.332
395.20 2.329
395.30 2.327
395.40 2.325
395.50 2.323
395.60 2.32
395.70 2.318
395.80 2.316
395.90 2.313
396.00 2.311
396.10 2.309
396.20 2.306
396.30 2.304
396.40 2.302
396.50 2.3
396.60 2.298
396.70 2.295
396.80 2.293
396.90 2.291
397.00 2.289
397.10 2.287
397.20 2.285
397.30 2.284
397.40 2.282
397.50 2.28
397.60 2.279
397.70 2.277
397.80 2.275
397.90 2.274
398.00 2.272
398.10 2.27
398.20 2.269
398.30 2.267
398.40 2.266
398.50 2.264
398.60 2.262
398.70 2.261
398.80 2.259
398.90 2.257
399.00 2.256
399.10 2.254
399.20 2.253
399.30 2.251
399.40 2.249
399.50 2.248
399.60 2.246
399.70 2.244
399.80 2.242
399.90 2.241
400.00 2.239
400.10 2.237
400.20 2.236
400.30 2.234
400.40 2.232
400.50 2.23
400.60 2.228
400.70 2.227
400.80 2.225
400.90 2.223
401.00 2.221
401.10 2.219
401.20 2.217
401.30 2.216
401.40 2.214
401.50 2.212
401.60 2.21
401.70 2.208
401.80 2.206
401.90 2.204
402.00 2.202
402.10 2.2
402.20 2.198
402.30 2.196
402.40 2.194
402.50 2.192
402.60 2.19
402.70 2.188
402.80 2.186
402.90 2.184
403.00 2.182
403.10 2.179
403.20 2.177
403.30 2.175
403.40 2.173
403.50 2.171
403.60 2.169
403.70 2.166
403.80 2.164
403.90 2.162
404.00 2.16
404.10 2.157
404.20 2.155
404.30 2.153
404.40 2.15
404.50 2.148
404.60 2.146
404.70 2.143
404.80 2.141
404.90 2.138
405.00 2.136
405.10 2.133
405.20 2.131
405.30 2.128
405.40 2.126
405.50 2.123
405.60 2.121
405.70 2.118
405.80 2.116
405.90 2.113
406.00 2.11
406.10 2.108
406.20 2.105
406.30 2.102
406.40 2.1
406.50 2.097
406.60 2.094
406.70 2.091
406.80 2.089
406.90 2.086
407.00 2.083
407.10 2.08
407.20 2.078
407.30 2.075
407.40 2.072
407.50 2.069
407.60 2.066
407.70 2.063
407.80 2.061
407.90 2.058
408.00 2.055
408.10 2.052
408.20 2.049
408.30 2.046
408.40 2.043
408.50 2.041
408.60 2.038
408.70 2.035
408.80 2.032
408.90 2.03
409.00 2.027
409.10 2.024
409.20 2.022
409.30 2.019
409.40 2.017
409.50 2.015
409.60 2.012
409.70 2.01
409.80 2.009
409.90 2.007
410.00 2.006
410.10 2.004
410.20 2.003
410.30 2.001
410.40 1.999
410.50 1.997
410.60 1.996
410.70 1.994
410.80 1.993
410.90 1.992
411.00 1.991
411.10 1.99
411.20 1.989
411.30 1.989
411.40 1.988
411.50 1.987
411.60 1.987
411.70 1.986
411.80 1.986
411.90 1.985
412.00 1.985
412.10 1.984
412.20 1.984
412.30 1.983
412.40 1.983
412.50 1.982
412.60 1.982
412.70 1.981
412.80 1.981
412.90 1.98
413.00 1.98
413.10 1.979
413.20 1.979
413.30 1.978
413.40 1.978
413.50 1.977
413.60 1.977
413.70 1.976
413.80 1.975
413.90 1.975
414.00 1.974
414.10 1.973
414.20 1.973
414.30 1.972
414.40 1.971
414.50 1.97
414.60 1.97
414.70 1.969
414.80 1.968
414.90 1.967
415.00 1.966
415.10 1.966
415.20 1.965
415.30 1.964
415.40 1.963
415.50 1.962
415.60 1.961
415.70 1.96
415.80 1.959
415.90 1.958
416.00 1.957
416.10 1.956
416.20 1.955
416.30 1.954
416.40 1.953
416.50 1.952
416.60 1.951
416.70 1.95
416.80 1.949
416.90 1.948
417.00 1.946
417.10 1.945
417.20 1.944
417.30 1.943
417.40 1.942
417.50 1.94
417.60 1.939
417.70 1.938
417.80 1.937
417.90 1.935
418.00 1.934
418.10 1.933
418.20 1.932
418.30 1.93
418.40 1.929
418.50 1.927
418.60 1.926
418.70 1.925
418.80 1.923
418.90 1.922
419.00 1.921
419.10 1.919
419.20 1.918
419.30 1.916
419.40 1.915
419.50 1.913
419.60 1.912
419.70 1.91
419.80 1.909
419.90 1.907
420.00 1.906
420.10 1.904
420.20 1.903
420.30 1.901
420.40 1.899
420.50 1.898
420.60 1.896
420.70 1.895
420.80 1.893
420.90 1.891
421.00 1.89
421.10 1.888
421.20 1.886
421.30 1.884
421.40 1.883
421.50 1.881
421.60 1.879
421.70 1.878
421.80 1.876
421.90 1.874
422.00 1.872
422.10 1.871
422.20 1.869
422.30 1.867
422.40 1.865
422.50 1.863
422.60 1.861
422.70 1.859
422.80 1.858
422.90 1.856
423.00 1.854
423.10 1.852
423.20 1.85
423.30 1.848
423.40 1.846
423.50 1.844
423.60 1.842
423.70 1.84
423.80 1.838
423.90 1.836
424.00 1.834
424.10 1.832
424.20 1.83
424.30 1.828
424.40 1.826
424.50 1.824
424.60 1.821
424.70 1.819
424.80 1.817
424.90 1.815
425.00 1.813
425.10 1.811
425.20 1.808
425.30 1.806
425.40 1.804
425.50 1.801
425.60 1.799
425.70 1.797
425.80 1.795
425.90 1.792
426.00 1.79
426.10 1.787
426.20 1.785
426.30 1.783
426.40 1.78
426.50 1.778
426.60 1.775
426.70 1.773
426.80 1.77
426.90 1.767
427.00 1.765
427.10 1.762
427.20 1.76
427.30 1.757
427.40 1.754
427.50 1.752
427.60 1.749
427.70 1.746
427.80 1.743
427.90 1.741
428.00 1.738
428.10 1.735
428.20 1.732
428.30 1.729
428.40 1.726
428.50 1.723
428.60 1.72
428.70 1.717
428.80 1.714
428.90 1.711
429.00 1.708
429.10 1.705
429.20 1.702
429.30 1.699
429.40 1.695
429.50 1.692
429.60 1.689
429.70 1.686
429.80 1.682
429.90 1.679
430.00 1.676
430.10 1.672
430.20 1.669
430.30 1.665
430.40 1.662
430.50 1.658
430.60 1.655
430.70 1.651
430.80 1.647
430.90 1.644
431.00 1.64
431.10 1.636
431.20 1.633
431.30 1.629
431.40 1.625
431.50 1.621
431.60 1.618
431.70 1.614
431.80 1.61
431.90 1.606
432.00 1.602
432.10 1.598
432.20 1.594
432.30 1.59
432.40 1.586
432.50 1.582
432.60 1.578
432.70 1.574
432.80 1.57
432.90 1.566
433.00 1.562
433.10 1.557
433.20 1.553
433.30 1.548
433.40 1.544
433.50 1.539
433.60 1.534
433.70 1.528
433.80 1.523
433.90 1.517
434.00 1.512
434.10 1.511
434.20 1.514
434.30 1.518
434.40 1.521
434.50 1.524
434.60 1.526
434.70 1.529
434.80 1.531
434.90 1.533
435.00 1.535
435.10 1.537
435.20 1.538
435.30 1.54
435.40 1.541
435.50 1.543
435.60 1.544
435.70 1.546
435.80 1.547
435.90 1.549
436.00 1.55
436.10 1.551
436.20 1.552
436.30 1.554
436.40 1.555
436.50 1.556
436.60 1.557
436.70 1.558
436.80 1.559
436.90 1.56
437.00 1.561
437.10 1.562
437.20 1.563
437.30 1.564
437.40 1.565
437.50 1.566
437.60 1.567
437.70 1.568
437.80 1.568
437.90 1.569
438.00 1.57
438.10 1.57
438.20 1.571
438.30 1.571
438.40 1.572
438.50 1.573
438.60 1.573
438.70 1.573
438.80 1.574
438.90 1.574
439.00 1.575
439.10 1.575
439.20 1.575
439.30 1.575
439.40 1.576
439.50 1.576
439.60 1.576
439.70 1.576
439.80 1.576
439.90 1.576
440.00 1.576
440.10 1.576
440.20 1.576
440.30 1.576
440.40 1.576
440.50 1.576
440.60 1.576
440.70 1.576
440.80 1.576
440.90 1.575
441.00 1.575
441.10 1.575
441.20 1.575
441.30 1.574
441.40 1.574
441.50 1.574
441.60 1.573
441.70 1.573
441.80 1.573
441.90 1.572
442.00 1.572
442.10 1.571
442.20 1.571
442.30 1.57
442.40 1.57
442.50 1.569
442.60 1.569
442.70 1.568
442.80 1.568
442.90 1.567
443.00 1.566
443.10 1.566
443.20 1.565
443.30 1.565
443.40 1.564
443.50 1.563
443.60 1.563
443.70 1.562
443.80 1.561
443.90 1.56
444.00 1.56
444.10 1.559
444.20 1.558
444.30 1.557
444.40 1.557
444.50 1.556
444.60 1.555
444.70 1.554
444.80 1.553
444.90 1.553
445.00 1.552
445.10 1.551
445.20 1.55
445.30 1.549
445.40 1.548
445.50 1.547
445.60 1.546
445.70 1.546
445.80 1.545
445.90 1.544
446.00 1.543
446.10 1.542
446.20 1.541
446.30 1.54
446.40 1.539
446.50 1.538
446.60 1.537
446.70 1.536
446.80 1.535
446.90 1.534
447.00 1.533
447.10 1.532
447.20 1.531
447.30 1.53
447.40 1.529
447.50 1.528
447.60 1.527
447.70 1.526
447.80 1.525
447.90 1.524
448.00 1.523
448.10 1.522
448.20 1.521
448.30 1.52
448.40 1.519
448.50 1.518
448.60 1.517
448.70 1.515
448.80 1.514
448.90 1.513
449.00 1.512
449.10 1.511
449.20 1.51
449.30 1.509
449.40 1.508
449.50 1.507
449.60 1.506
449.70 1.505
449.80 1.503
449.90 1.502
450.00 1.501
450.10 1.5
450.20 1.499
450.30 1.498
450.40 1.497
450.50 1.496
450.60 1.495
450.70 1.493
450.80 1.492
450.90 1.491
451.00 1.49
451.10 1.489
451.20 1.488
451.30 1.487
451.40 1.485
451.50 1.484
451.60 1.483
451.70 1.482
451.80 1.481
451.90 1.48
452.00 1.479
452.10 1.477
452.20 1.476
452.30 1.475
452.40 1.474
452.50 1.473
452.60 1.472
452.70 1.471
452.80 1.469
452.90 1.468
453.00 1.467
453.10 1.466
453.20 1.465
453.30 1.464
453.40 1.462
453.50 1.461
453.60 1.46
453.70 1.459
453.80 1.458
453.90 1.457
454.00 1.455
454.10 1.454
