# Version 2.1 - nm, norm@500 to 1, cut digits, bergeron_4250_65.dat_4250
# Wavelength(nm)  Flambda(ergs/cm^s/s/nm)
300.00 0.1849
300.10 0.1853
300.20 0.1856
300.30 0.186
300.40 0.1863
300.50 0.1867
300.60 0.187
300.70 0.1874
300.80 0.1877
300.90 0.1881
301.00 0.1884
301.10 0.1887
301.20 0.1891
301.30 0.1894
301.40 0.1898
301.50 0.1901
301.60 0.1905
301.70 0.1908
301.80 0.1911
301.90 0.1915
302.00 0.1918
302.10 0.1922
302.20 0.1925
302.30 0.1929
302.40 0.1932
302.50 0.1936
302.60 0.1939
302.70 0.1943
302.80 0.1946
302.90 0.195
303.00 0.1953
303.10 0.1957
303.20 0.196
303.30 0.1964
303.40 0.1967
303.50 0.1971
303.60 0.1974
303.70 0.1978
303.80 0.1981
303.90 0.1985
304.00 0.1988
304.10 0.1992
304.20 0.1995
304.30 0.1999
304.40 0.2002
304.50 0.2006
304.60 0.201
304.70 0.2013
304.80 0.2017
304.90 0.202
305.00 0.2024
305.10 0.2027
305.20 0.2031
305.30 0.2034
305.40 0.2038
305.50 0.2041
305.60 0.2045
305.70 0.2048
305.80 0.2052
305.90 0.2056
306.00 0.2059
306.10 0.2063
306.20 0.2066
306.30 0.207
306.40 0.2074
306.50 0.2077
306.60 0.2081
306.70 0.2084
306.80 0.2088
306.90 0.2092
307.00 0.2095
307.10 0.2099
307.20 0.2103
307.30 0.2106
307.40 0.211
307.50 0.2113
307.60 0.2117
307.70 0.212
307.80 0.2124
307.90 0.2128
308.00 0.2131
308.10 0.2135
308.20 0.2139
308.30 0.2142
308.40 0.2146
308.50 0.215
308.60 0.2153
308.70 0.2157
308.80 0.2161
308.90 0.2164
309.00 0.2168
309.10 0.2172
309.20 0.2175
309.30 0.2179
309.40 0.2183
309.50 0.2186
309.60 0.219
309.70 0.2194
309.80 0.2197
309.90 0.2201
310.00 0.2205
310.10 0.2208
310.20 0.2212
310.30 0.2216
310.40 0.2219
310.50 0.2223
310.60 0.2227
310.70 0.2231
310.80 0.2234
310.90 0.2238
311.00 0.2242
311.10 0.2246
311.20 0.2249
311.30 0.2253
311.40 0.2257
311.50 0.226
311.60 0.2264
311.70 0.2268
311.80 0.2271
311.90 0.2275
312.00 0.2279
312.10 0.2283
312.20 0.2286
312.30 0.229
312.40 0.2294
312.50 0.2298
312.60 0.2301
312.70 0.2305
312.80 0.2309
312.90 0.2313
313.00 0.2317
313.10 0.232
313.20 0.2324
313.30 0.2328
313.40 0.2332
313.50 0.2335
313.60 0.2339
313.70 0.2343
313.80 0.2347
313.90 0.235
314.00 0.2354
314.10 0.2358
314.20 0.2362
314.30 0.2366
314.40 0.2369
314.50 0.2373
314.60 0.2377
314.70 0.2381
314.80 0.2385
314.90 0.2389
315.00 0.2392
315.10 0.2396
315.20 0.24
315.30 0.2404
315.40 0.2408
315.50 0.2411
315.60 0.2415
315.70 0.2419
315.80 0.2423
315.90 0.2427
316.00 0.243
316.10 0.2434
316.20 0.2438
316.30 0.2442
316.40 0.2446
316.50 0.245
316.60 0.2454
316.70 0.2458
316.80 0.2462
316.90 0.2465
317.00 0.2469
317.10 0.2473
317.20 0.2477
317.30 0.2481
317.40 0.2485
317.50 0.2489
317.60 0.2492
317.70 0.2496
317.80 0.25
317.90 0.2504
318.00 0.2508
318.10 0.2512
318.20 0.2516
318.30 0.252
318.40 0.2524
318.50 0.2527
318.60 0.2531
318.70 0.2535
318.80 0.2539
318.90 0.2543
319.00 0.2547
319.10 0.2551
319.20 0.2555
319.30 0.2559
319.40 0.2563
319.50 0.2567
319.60 0.257
319.70 0.2574
319.80 0.2578
319.90 0.2582
320.00 0.2586
320.10 0.259
320.20 0.2594
320.30 0.2598
320.40 0.2602
320.50 0.2606
320.60 0.261
320.70 0.2614
320.80 0.2618
320.90 0.2622
321.00 0.2626
321.10 0.263
321.20 0.2634
321.30 0.2638
321.40 0.2642
321.50 0.2646
321.60 0.265
321.70 0.2653
321.80 0.2657
321.90 0.2661
322.00 0.2665
322.10 0.2669
322.20 0.2673
322.30 0.2677
322.40 0.2681
322.50 0.2685
322.60 0.2689
322.70 0.2693
322.80 0.2698
322.90 0.2702
323.00 0.2706
323.10 0.271
323.20 0.2713
323.30 0.2717
323.40 0.2721
323.50 0.2725
323.60 0.2729
323.70 0.2733
323.80 0.2737
323.90 0.2741
324.00 0.2745
324.10 0.2749
324.20 0.2753
324.30 0.2758
324.40 0.2762
324.50 0.2766
324.60 0.277
324.70 0.2774
324.80 0.2778
324.90 0.2782
325.00 0.2786
325.10 0.279
325.20 0.2794
325.30 0.2798
325.40 0.2802
325.50 0.2806
325.60 0.281
325.70 0.2814
325.80 0.2818
325.90 0.2822
326.00 0.2826
326.10 0.283
326.20 0.2834
326.30 0.2838
326.40 0.2843
326.50 0.2847
326.60 0.2851
326.70 0.2855
326.80 0.2859
326.90 0.2863
327.00 0.2867
327.10 0.2871
327.20 0.2875
327.30 0.288
327.40 0.2884
327.50 0.2888
327.60 0.2892
327.70 0.2896
327.80 0.29
327.90 0.2904
328.00 0.2908
328.10 0.2912
328.20 0.2916
328.30 0.292
328.40 0.2925
328.50 0.2929
328.60 0.2933
328.70 0.2937
328.80 0.2941
328.90 0.2945
329.00 0.295
329.10 0.2954
329.20 0.2958
329.30 0.2962
329.40 0.2966
329.50 0.297
329.60 0.2974
329.70 0.2978
329.80 0.2982
329.90 0.2986
330.00 0.2991
330.10 0.2995
330.20 0.2999
330.30 0.3003
330.40 0.3007
330.50 0.3012
330.60 0.3016
330.70 0.302
330.80 0.3024
330.90 0.3028
331.00 0.3032
331.10 0.3037
331.20 0.3041
331.30 0.3045
331.40 0.3049
331.50 0.3053
331.60 0.3057
331.70 0.3062
331.80 0.3066
331.90 0.307
332.00 0.3074
332.10 0.3078
332.20 0.3082
332.30 0.3087
332.40 0.3091
332.50 0.3095
332.60 0.3099
332.70 0.3104
332.80 0.3108
332.90 0.3112
333.00 0.3116
333.10 0.312
333.20 0.3125
333.30 0.3129
333.40 0.3133
333.50 0.3137
333.60 0.3141
333.70 0.3145
333.80 0.315
333.90 0.3154
334.00 0.3158
334.10 0.3162
334.20 0.3166
334.30 0.3171
334.40 0.3175
334.50 0.3179
334.60 0.3184
334.70 0.3188
334.80 0.3192
334.90 0.3196
335.00 0.32
335.10 0.3205
335.20 0.3209
335.30 0.3213
335.40 0.3217
335.50 0.3222
335.60 0.3226
335.70 0.323
335.80 0.3234
335.90 0.3238
336.00 0.3243
336.10 0.3247
336.20 0.3251
336.30 0.3256
336.40 0.326
336.50 0.3264
336.60 0.3268
336.70 0.3273
336.80 0.3277
336.90 0.3281
337.00 0.3286
337.10 0.329
337.20 0.3294
337.30 0.3298
337.40 0.3303
337.50 0.3307
337.60 0.3311
337.70 0.3315
337.80 0.332
337.90 0.3324
338.00 0.3328
338.10 0.3333
338.20 0.3337
338.30 0.3341
338.40 0.3346
338.50 0.335
338.60 0.3354
338.70 0.3359
338.80 0.3363
338.90 0.3367
339.00 0.3371
339.10 0.3376
339.20 0.338
339.30 0.3384
339.40 0.3389
339.50 0.3393
339.60 0.3397
339.70 0.3401
339.80 0.3406
339.90 0.341
340.00 0.3414
340.10 0.3419
340.20 0.3423
340.30 0.3427
340.40 0.3432
340.50 0.3436
340.60 0.344
340.70 0.3445
340.80 0.3449
340.90 0.3453
341.00 0.3458
341.10 0.3462
341.20 0.3466
341.30 0.3471
341.40 0.3475
341.50 0.3479
341.60 0.3484
341.70 0.3488
341.80 0.3492
341.90 0.3497
342.00 0.3501
342.10 0.3505
342.20 0.351
342.30 0.3514
342.40 0.3519
342.50 0.3523
342.60 0.3527
342.70 0.3532
342.80 0.3536
342.90 0.354
343.00 0.3545
343.10 0.3549
343.20 0.3554
343.30 0.3558
343.40 0.3562
343.50 0.3567
343.60 0.3571
343.70 0.3575
343.80 0.358
343.90 0.3584
344.00 0.3588
344.10 0.3593
344.20 0.3597
344.30 0.3602
344.40 0.3606
344.50 0.361
344.60 0.3615
344.70 0.3619
344.80 0.3624
344.90 0.3628
345.00 0.3632
345.10 0.3637
345.20 0.3641
345.30 0.3646
345.40 0.365
345.50 0.3654
345.60 0.3659
345.70 0.3663
345.80 0.3667
345.90 0.3672
346.00 0.3676
346.10 0.3681
346.20 0.3685
346.30 0.3689
346.40 0.3694
346.50 0.3698
346.60 0.3703
346.70 0.3707
346.80 0.3712
346.90 0.3716
347.00 0.372
347.10 0.3725
347.20 0.3729
347.30 0.3734
347.40 0.3738
347.50 0.3742
347.60 0.3747
347.70 0.3751
347.80 0.3756
347.90 0.376
348.00 0.3764
348.10 0.3769
348.20 0.3773
348.30 0.3778
348.40 0.3782
348.50 0.3787
348.60 0.3791
348.70 0.3796
348.80 0.38
348.90 0.3805
349.00 0.3809
349.10 0.3814
349.20 0.3818
349.30 0.3822
349.40 0.3827
349.50 0.3831
349.60 0.3836
349.70 0.384
349.80 0.3844
349.90 0.3849
350.00 0.3853
350.10 0.3858
350.20 0.3862
350.30 0.3867
350.40 0.3871
350.50 0.3876
350.60 0.388
350.70 0.3885
350.80 0.3889
350.90 0.3894
351.00 0.3898
351.10 0.3903
351.20 0.3907
351.30 0.3912
351.40 0.3916
351.50 0.392
351.60 0.3925
351.70 0.3929
351.80 0.3934
351.90 0.3938
352.00 0.3942
352.10 0.3947
352.20 0.3952
352.30 0.3956
352.40 0.3961
352.50 0.3965
352.60 0.397
352.70 0.3974
352.80 0.3979
352.90 0.3983
353.00 0.3988
353.10 0.3992
353.20 0.3997
353.30 0.4001
353.40 0.4006
353.50 0.401
353.60 0.4014
353.70 0.4019
353.80 0.4023
353.90 0.4028
354.00 0.4032
354.10 0.4037
354.20 0.4041
354.30 0.4046
354.40 0.405
354.50 0.4055
354.60 0.406
354.70 0.4064
354.80 0.4069
354.90 0.4073
355.00 0.4078
355.10 0.4082
355.20 0.4087
355.30 0.4091
355.40 0.4096
355.50 0.41
355.60 0.4105
355.70 0.4109
355.80 0.4113
355.90 0.4118
356.00 0.4122
356.10 0.4127
356.20 0.4132
356.30 0.4136
356.40 0.4141
356.50 0.4145
356.60 0.415
356.70 0.4154
356.80 0.4159
356.90 0.4163
357.00 0.4168
357.10 0.4172
357.20 0.4177
357.30 0.4181
357.40 0.4186
357.50 0.419
357.60 0.4195
357.70 0.4199
357.80 0.4204
357.90 0.4208
358.00 0.4213
358.10 0.4217
358.20 0.4222
358.30 0.4226
358.40 0.4231
358.50 0.4236
358.60 0.424
358.70 0.4245
358.80 0.4249
358.90 0.4254
359.00 0.4258
359.10 0.4263
359.20 0.4267
359.30 0.4272
359.40 0.4276
359.50 0.4281
359.60 0.4286
359.70 0.429
359.80 0.4295
359.90 0.4299
360.00 0.4303
360.10 0.4308
360.20 0.4313
360.30 0.4317
360.40 0.4322
360.50 0.4326
360.60 0.4331
360.70 0.4336
360.80 0.434
360.90 0.4345
361.00 0.4349
361.10 0.4354
361.20 0.4358
361.30 0.4363
361.40 0.4367
361.50 0.4372
361.60 0.4377
361.70 0.4381
361.80 0.4386
361.90 0.439
362.00 0.4395
362.10 0.4399
362.20 0.4404
362.30 0.4408
362.40 0.4413
362.50 0.4417
362.60 0.4422
362.70 0.4427
362.80 0.4431
362.90 0.4436
363.00 0.444
363.10 0.4445
363.20 0.4449
363.30 0.4454
363.40 0.4459
363.50 0.4463
363.60 0.4468
363.70 0.4472
363.80 0.4477
363.90 0.4481
364.00 0.4486
364.10 0.4491
364.20 0.4495
364.30 0.45
364.40 0.4504
364.50 0.4509
364.60 0.4513
364.70 0.4518
364.80 0.4523
364.90 0.4527
365.00 0.4532
365.10 0.4536
365.20 0.4541
365.30 0.4546
365.40 0.455
365.50 0.4555
365.60 0.4559
365.70 0.4564
365.80 0.4568
365.90 0.4573
366.00 0.4578
366.10 0.4582
366.20 0.4587
366.30 0.4591
366.40 0.4596
366.50 0.4601
366.60 0.4605
366.70 0.461
366.80 0.4614
366.90 0.4619
367.00 0.4624
367.10 0.4628
367.20 0.4633
367.30 0.4637
367.40 0.4642
367.50 0.4647
367.60 0.4651
367.70 0.4656
367.80 0.466
367.90 0.4665
368.00 0.4669
368.10 0.4674
368.20 0.4679
368.30 0.4683
368.40 0.4688
368.50 0.4692
368.60 0.4697
368.70 0.4702
368.80 0.4706
368.90 0.4711
369.00 0.4715
369.10 0.472
369.20 0.4725
369.30 0.4729
369.40 0.4734
369.50 0.4738
369.60 0.4743
369.70 0.4747
369.80 0.4752
369.90 0.4757
370.00 0.4761
370.10 0.4766
370.20 0.477
370.30 0.4775
370.40 0.478
370.50 0.4784
370.60 0.4789
370.70 0.4794
370.80 0.4798
370.90 0.4803
371.00 0.4807
371.10 0.4812
371.20 0.4817
371.30 0.4821
371.40 0.4826
371.50 0.483
371.60 0.4835
371.70 0.484
371.80 0.4844
371.90 0.4849
372.00 0.4853
372.10 0.4858
372.20 0.4863
372.30 0.4867
372.40 0.4872
372.50 0.4877
372.60 0.4881
372.70 0.4886
372.80 0.489
372.90 0.4895
373.00 0.49
373.10 0.4904
373.20 0.4909
373.30 0.4913
373.40 0.4918
373.50 0.4923
373.60 0.4927
373.70 0.4932
373.80 0.4936
373.90 0.4941
374.00 0.4946
374.10 0.495
374.20 0.4955
374.30 0.496
374.40 0.4964
374.50 0.4969
374.60 0.4973
374.70 0.4978
374.80 0.4983
374.90 0.4987
375.00 0.4992
375.10 0.4997
375.20 0.5001
375.30 0.5006
375.40 0.501
375.50 0.5015
375.60 0.5019
375.70 0.5024
375.80 0.5029
375.90 0.5033
376.00 0.5038
376.10 0.5042
376.20 0.5047
376.30 0.5052
376.40 0.5056
376.50 0.5061
376.60 0.5066
376.70 0.507
376.80 0.5075
376.90 0.5079
377.00 0.5084
377.10 0.5089
377.20 0.5093
377.30 0.5098
377.40 0.5102
377.50 0.5107
377.60 0.5112
377.70 0.5116
377.80 0.5121
377.90 0.5126
378.00 0.513
378.10 0.5135
378.20 0.5139
378.30 0.5144
378.40 0.5149
378.50 0.5153
378.60 0.5158
378.70 0.5162
378.80 0.5167
378.90 0.5172
379.00 0.5176
379.10 0.5181
379.20 0.5186
379.30 0.519
379.40 0.5195
379.50 0.5199
379.60 0.5204
379.70 0.5209
379.80 0.5213
379.90 0.5218
380.00 0.5222
380.10 0.5227
380.20 0.5232
380.30 0.5236
380.40 0.5241
380.50 0.5246
380.60 0.525
380.70 0.5255
380.80 0.5259
380.90 0.5264
381.00 0.5269
381.10 0.5273
381.20 0.5278
381.30 0.5282
381.40 0.5287
381.50 0.5292
381.60 0.5296
381.70 0.5301
381.80 0.5305
381.90 0.531
382.00 0.5315
382.10 0.5319
382.20 0.5324
382.30 0.5329
382.40 0.5333
382.50 0.5338
382.60 0.5343
382.70 0.5347
382.80 0.5352
382.90 0.5356
383.00 0.5361
383.10 0.5366
383.20 0.537
383.30 0.5375
383.40 0.5379
383.50 0.5384
383.60 0.5389
383.70 0.5393
383.80 0.5398
383.90 0.5402
384.00 0.5407
384.10 0.5412
384.20 0.5416
384.30 0.5421
384.40 0.5426
384.50 0.543
384.60 0.5435
384.70 0.5439
384.80 0.5444
384.90 0.5449
385.00 0.5453
385.10 0.5458
385.20 0.5462
385.30 0.5467
385.40 0.5472
385.50 0.5476
385.60 0.5481
385.70 0.5485
385.80 0.549
385.90 0.5495
386.00 0.5499
386.10 0.5504
386.20 0.5509
386.30 0.5513
386.40 0.5518
386.50 0.5522
386.60 0.5527
386.70 0.5532
386.80 0.5536
386.90 0.5541
387.00 0.5545
387.10 0.555
387.20 0.5555
387.30 0.5559
387.40 0.5564
387.50 0.5568
387.60 0.5573
387.70 0.5578
387.80 0.5582
387.90 0.5587
388.00 0.5591
388.10 0.5596
388.20 0.5601
388.30 0.5605
388.40 0.561
388.50 0.5614
388.60 0.5619
388.70 0.5624
388.80 0.5628
388.90 0.5633
389.00 0.5637
389.10 0.5642
389.20 0.5647
389.30 0.5651
389.40 0.5656
389.50 0.5661
389.60 0.5665
389.70 0.567
389.80 0.5674
389.90 0.5679
390.00 0.5683
390.10 0.5688
390.20 0.5693
390.30 0.5697
390.40 0.5702
390.50 0.5706
390.60 0.5711
390.70 0.5716
390.80 0.572
390.90 0.5725
391.00 0.573
391.10 0.5734
391.20 0.5739
391.30 0.5743
391.40 0.5748
391.50 0.5752
391.60 0.5757
391.70 0.5762
391.80 0.5766
391.90 0.5771
392.00 0.5775
392.10 0.578
392.20 0.5785
392.30 0.5789
392.40 0.5794
392.50 0.5798
392.60 0.5803
392.70 0.5808
392.80 0.5812
392.90 0.5817
393.00 0.5821
393.10 0.5826
393.20 0.583
393.30 0.5835
393.40 0.584
393.50 0.5844
393.60 0.5849
393.70 0.5853
393.80 0.5858
393.90 0.5863
394.00 0.5867
394.10 0.5872
394.20 0.5876
394.30 0.5881
394.40 0.5885
394.50 0.589
394.60 0.5895
394.70 0.5899
394.80 0.5904
394.90 0.5908
395.00 0.5913
395.10 0.5918
395.20 0.5922
395.30 0.5927
395.40 0.5931
395.50 0.5936
395.60 0.594
395.70 0.5945
395.80 0.595
395.90 0.5954
396.00 0.5959
396.10 0.5963
396.20 0.5968
396.30 0.5972
396.40 0.5977
396.50 0.5982
396.60 0.5986
396.70 0.5991
396.80 0.5995
396.90 0.6
397.00 0.6004
397.10 0.6009
397.20 0.6014
397.30 0.6018
397.40 0.6023
397.50 0.6027
397.60 0.6032
397.70 0.6036
397.80 0.6041
397.90 0.6046
398.00 0.605
398.10 0.6055
398.20 0.6059
398.30 0.6064
398.40 0.6068
398.50 0.6073
398.60 0.6077
398.70 0.6082
398.80 0.6087
398.90 0.6091
399.00 0.6096
399.10 0.61
399.20 0.6105
399.30 0.6109
399.40 0.6114
399.50 0.6118
399.60 0.6123
399.70 0.6128
399.80 0.6132
399.90 0.6137
400.00 0.6141
400.10 0.6146
400.20 0.615
400.30 0.6155
400.40 0.6159
400.50 0.6164
400.60 0.6168
400.70 0.6173
400.80 0.6178
400.90 0.6182
401.00 0.6187
401.10 0.6191
401.20 0.6196
401.30 0.62
401.40 0.6205
401.50 0.6209
401.60 0.6214
401.70 0.6218
401.80 0.6223
401.90 0.6228
402.00 0.6232
402.10 0.6237
402.20 0.6241
402.30 0.6246
402.40 0.625
402.50 0.6255
402.60 0.6259
402.70 0.6264
402.80 0.6268
402.90 0.6273
403.00 0.6277
403.10 0.6282
403.20 0.6286
403.30 0.6291
403.40 0.6295
403.50 0.63
403.60 0.6305
403.70 0.6309
403.80 0.6314
403.90 0.6318
404.00 0.6323
404.10 0.6327
404.20 0.6332
404.30 0.6336
404.40 0.6341
404.50 0.6345
404.60 0.635
404.70 0.6354
404.80 0.6359
404.90 0.6363
405.00 0.6368
405.10 0.6372
405.20 0.6377
405.30 0.6381
405.40 0.6386
405.50 0.639
405.60 0.6395
405.70 0.6399
405.80 0.6404
405.90 0.6408
406.00 0.6413
406.10 0.6417
406.20 0.6422
406.30 0.6426
406.40 0.6431
406.50 0.6435
406.60 0.644
406.70 0.6444
406.80 0.6449
406.90 0.6453
407.00 0.6458
407.10 0.6462
407.20 0.6467
407.30 0.6471
407.40 0.6476
407.50 0.648
407.60 0.6485
407.70 0.6489
407.80 0.6494
407.90 0.6498
408.00 0.6503
408.10 0.6507
408.20 0.6512
408.30 0.6516
408.40 0.6521
408.50 0.6525
408.60 0.653
408.70 0.6534
408.80 0.6538
408.90 0.6543
409.00 0.6547
409.10 0.6552
409.20 0.6556
409.30 0.6561
409.40 0.6565
409.50 0.657
409.60 0.6574
409.70 0.6578
409.80 0.6583
409.90 0.6587
410.00 0.659
410.10 0.6593
410.20 0.6595
410.30 0.6602
410.40 0.6609
410.50 0.6614
410.60 0.6618
410.70 0.6623
410.80 0.6628
410.90 0.6632
411.00 0.6637
411.10 0.6641
411.20 0.6646
411.30 0.665
411.40 0.6655
411.50 0.6659
411.60 0.6664
411.70 0.6668
411.80 0.6673
411.90 0.6677
412.00 0.6681
412.10 0.6686
412.20 0.669
412.30 0.6695
412.40 0.6699
412.50 0.6704
412.60 0.6708
412.70 0.6713
412.80 0.6717
412.90 0.6721
413.00 0.6726
413.10 0.673
413.20 0.6735
413.30 0.6739
413.40 0.6744
413.50 0.6748
413.60 0.6752
413.70 0.6757
413.80 0.6761
413.90 0.6766
414.00 0.677
414.10 0.6775
414.20 0.6779
414.30 0.6783
414.40 0.6788
414.50 0.6792
414.60 0.6797
414.70 0.6801
414.80 0.6806
414.90 0.681
415.00 0.6814
415.10 0.6819
415.20 0.6823
415.30 0.6828
415.40 0.6832
415.50 0.6836
415.60 0.6841
415.70 0.6845
415.80 0.685
415.90 0.6854
416.00 0.6859
416.10 0.6863
416.20 0.6867
416.30 0.6872
416.40 0.6876
416.50 0.6881
416.60 0.6885
416.70 0.6889
416.80 0.6894
416.90 0.6898
417.00 0.6903
417.10 0.6907
417.20 0.6911
417.30 0.6916
417.40 0.692
417.50 0.6925
417.60 0.6929
417.70 0.6933
417.80 0.6938
417.90 0.6942
418.00 0.6947
418.10 0.6951
418.20 0.6955
418.30 0.696
418.40 0.6964
418.50 0.6968
418.60 0.6973
418.70 0.6977
418.80 0.6981
418.90 0.6986
419.00 0.699
419.10 0.6995
419.20 0.6999
419.30 0.7003
419.40 0.7008
419.50 0.7012
419.60 0.7017
419.70 0.7021
419.80 0.7025
419.90 0.703
420.00 0.7034
420.10 0.7038
420.20 0.7043
420.30 0.7047
420.40 0.7051
420.50 0.7056
420.60 0.706
420.70 0.7065
420.80 0.7069
420.90 0.7073
421.00 0.7077
421.10 0.7082
421.20 0.7086
421.30 0.709
421.40 0.7095
421.50 0.7099
421.60 0.7104
421.70 0.7108
421.80 0.7112
421.90 0.7117
422.00 0.7121
422.10 0.7125
422.20 0.713
422.30 0.7134
422.40 0.7138
422.50 0.7143
422.60 0.7147
422.70 0.7151
422.80 0.7156
422.90 0.716
423.00 0.7164
423.10 0.7169
423.20 0.7173
423.30 0.7177
423.40 0.7181
423.50 0.7186
423.60 0.719
423.70 0.7194
423.80 0.7199
423.90 0.7203
424.00 0.7207
424.10 0.7212
424.20 0.7216
424.30 0.722
424.40 0.7225
424.50 0.7229
424.60 0.7233
424.70 0.7238
424.80 0.7242
424.90 0.7246
425.00 0.7251
425.10 0.7255
425.20 0.7259
425.30 0.7263
425.40 0.7268
425.50 0.7272
425.60 0.7276
425.70 0.7281
425.80 0.7285
425.90 0.7289
426.00 0.7293
426.10 0.7298
426.20 0.7302
426.30 0.7306
426.40 0.7311
426.50 0.7315
426.60 0.7319
426.70 0.7323
426.80 0.7328
426.90 0.7332
427.00 0.7336
427.10 0.734
427.20 0.7345
427.30 0.7349
427.40 0.7353
427.50 0.7358
427.60 0.7362
427.70 0.7366
427.80 0.737
427.90 0.7375
428.00 0.7379
428.10 0.7383
428.20 0.7387
428.30 0.7392
428.40 0.7396
428.50 0.74
428.60 0.7404
428.70 0.7409
428.80 0.7413
428.90 0.7417
429.00 0.7421
429.10 0.7426
429.20 0.743
429.30 0.7434
429.40 0.7438
429.50 0.7443
429.60 0.7447
429.70 0.7451
429.80 0.7455
429.90 0.746
430.00 0.7464
430.10 0.7468
430.20 0.7472
430.30 0.7477
430.40 0.7481
430.50 0.7485
430.60 0.7489
430.70 0.7493
430.80 0.7498
430.90 0.7502
431.00 0.7506
431.10 0.751
431.20 0.7515
431.30 0.7519
431.40 0.7523
431.50 0.7527
431.60 0.7531
431.70 0.7536
431.80 0.754
431.90 0.7544
432.00 0.7548
432.10 0.7552
432.20 0.7557
432.30 0.7561
432.40 0.7565
432.50 0.7569
432.60 0.7573
432.70 0.7577
432.80 0.7582
432.90 0.7586
433.00 0.759
433.10 0.7594
433.20 0.7598
433.30 0.7602
433.40 0.7606
433.50 0.761
433.60 0.7614
433.70 0.7618
433.80 0.762
433.90 0.7621
434.00 0.7616
434.10 0.762
434.20 0.7634
434.30 0.7641
434.40 0.7647
434.50 0.7652
434.60 0.7656
434.70 0.7661
434.80 0.7665
434.90 0.7669
435.00 0.7673
435.10 0.7678
435.20 0.7682
435.30 0.7686
435.40 0.769
435.50 0.7694
435.60 0.7699
435.70 0.7703
435.80 0.7707
435.90 0.7711
436.00 0.7715
436.10 0.7719
436.20 0.7723
436.30 0.7728
436.40 0.7732
436.50 0.7736
436.60 0.774
436.70 0.7744
436.80 0.7748
436.90 0.7752
437.00 0.7757
437.10 0.7761
437.20 0.7765
437.30 0.7769
437.40 0.7773
437.50 0.7777
437.60 0.7781
437.70 0.7785
437.80 0.779
437.90 0.7794
438.00 0.7798
438.10 0.7802
438.20 0.7806
438.30 0.781
438.40 0.7814
438.50 0.7818
438.60 0.7822
438.70 0.7827
438.80 0.7831
438.90 0.7835
439.00 0.7839
439.10 0.7843
439.20 0.7847
439.30 0.7851
439.40 0.7855
439.50 0.7859
439.60 0.7863
439.70 0.7868
439.80 0.7872
439.90 0.7876
440.00 0.788
440.10 0.7884
440.20 0.7888
440.30 0.7892
440.40 0.7896
440.50 0.79
440.60 0.7904
440.70 0.7908
440.80 0.7912
440.90 0.7916
441.00 0.7921
441.10 0.7925
441.20 0.7929
441.30 0.7933
441.40 0.7937
441.50 0.7941
441.60 0.7945
441.70 0.7949
441.80 0.7953
441.90 0.7957
442.00 0.7961
442.10 0.7965
442.20 0.7969
442.30 0.7973
442.40 0.7977
442.50 0.7981
442.60 0.7985
442.70 0.7989
442.80 0.7993
442.90 0.7998
443.00 0.8002
443.10 0.8006
