# Version 2.1 - nm, norm@500 to 1, cut digits, bergeron_5500_90.dat_5500
# Wavelength(nm)  Flambda(ergs/cm^s/s/nm)
300.00 0.5153
300.10 0.5158
300.20 0.5163
300.30 0.5168
300.40 0.5173
300.50 0.5178
300.60 0.5183
300.70 0.5188
300.80 0.5192
300.90 0.5197
301.00 0.5202
301.10 0.5207
301.20 0.5212
301.30 0.5217
301.40 0.5222
301.50 0.5226
301.60 0.5231
301.70 0.5236
301.80 0.5241
301.90 0.5246
302.00 0.525
302.10 0.5255
302.20 0.526
302.30 0.5265
302.40 0.527
302.50 0.5275
302.60 0.528
302.70 0.5285
302.80 0.5289
302.90 0.5294
303.00 0.5299
303.10 0.5304
303.20 0.5309
303.30 0.5313
303.40 0.5318
303.50 0.5323
303.60 0.5328
303.70 0.5333
303.80 0.5337
303.90 0.5342
304.00 0.5347
304.10 0.5352
304.20 0.5357
304.30 0.5362
304.40 0.5366
304.50 0.5371
304.60 0.5376
304.70 0.5381
304.80 0.5386
304.90 0.5391
305.00 0.5395
305.10 0.54
305.20 0.5405
305.30 0.541
305.40 0.5415
305.50 0.5419
305.60 0.5424
305.70 0.5429
305.80 0.5434
305.90 0.5438
306.00 0.5443
306.10 0.5448
306.20 0.5453
306.30 0.5458
306.40 0.5463
306.50 0.5467
306.60 0.5472
306.70 0.5477
306.80 0.5482
306.90 0.5487
307.00 0.5491
307.10 0.5496
307.20 0.5501
307.30 0.5506
307.40 0.551
307.50 0.5515
307.60 0.552
307.70 0.5525
307.80 0.5529
307.90 0.5534
308.00 0.5539
308.10 0.5544
308.20 0.5548
308.30 0.5553
308.40 0.5558
308.50 0.5563
308.60 0.5568
308.70 0.5572
308.80 0.5577
308.90 0.5582
309.00 0.5587
309.10 0.5592
309.20 0.5596
309.30 0.5601
309.40 0.5606
309.50 0.561
309.60 0.5615
309.70 0.562
309.80 0.5625
309.90 0.5629
310.00 0.5634
310.10 0.5639
310.20 0.5644
310.30 0.5648
310.40 0.5653
310.50 0.5658
310.60 0.5663
310.70 0.5667
310.80 0.5672
310.90 0.5677
311.00 0.5682
311.10 0.5686
311.20 0.5691
311.30 0.5696
311.40 0.57
311.50 0.5705
311.60 0.571
311.70 0.5715
311.80 0.5719
311.90 0.5724
312.00 0.5729
312.10 0.5733
312.20 0.5738
312.30 0.5743
312.40 0.5747
312.50 0.5752
312.60 0.5757
312.70 0.5761
312.80 0.5766
312.90 0.5771
313.00 0.5776
313.10 0.578
313.20 0.5785
313.30 0.579
313.40 0.5794
313.50 0.5799
313.60 0.5804
313.70 0.5808
313.80 0.5813
313.90 0.5818
314.00 0.5822
314.10 0.5827
314.20 0.5832
314.30 0.5836
314.40 0.5841
314.50 0.5846
314.60 0.585
314.70 0.5855
314.80 0.586
314.90 0.5864
315.00 0.5869
315.10 0.5874
315.20 0.5878
315.30 0.5883
315.40 0.5887
315.50 0.5892
315.60 0.5897
315.70 0.5901
315.80 0.5906
315.90 0.5911
316.00 0.5915
316.10 0.592
316.20 0.5925
316.30 0.5929
316.40 0.5934
316.50 0.5939
316.60 0.5943
316.70 0.5948
316.80 0.5953
316.90 0.5957
317.00 0.5962
317.10 0.5967
317.20 0.5971
317.30 0.5976
317.40 0.598
317.50 0.5985
317.60 0.599
317.70 0.5994
317.80 0.5999
317.90 0.6003
318.00 0.6008
318.10 0.6013
318.20 0.6017
318.30 0.6022
318.40 0.6027
318.50 0.6031
318.60 0.6036
318.70 0.604
318.80 0.6045
318.90 0.605
319.00 0.6054
319.10 0.6059
319.20 0.6063
319.30 0.6068
319.40 0.6072
319.50 0.6077
319.60 0.6081
319.70 0.6086
319.80 0.609
319.90 0.6095
320.00 0.61
320.10 0.6104
320.20 0.6109
320.30 0.6113
320.40 0.6118
320.50 0.6122
320.60 0.6127
320.70 0.6132
320.80 0.6136
320.90 0.6141
321.00 0.6145
321.10 0.615
321.20 0.6154
321.30 0.6159
321.40 0.6163
321.50 0.6168
321.60 0.6172
321.70 0.6177
321.80 0.6181
321.90 0.6186
322.00 0.619
322.10 0.6195
322.20 0.6199
322.30 0.6204
322.40 0.6209
322.50 0.6213
322.60 0.6218
322.70 0.6222
322.80 0.6227
322.90 0.6231
323.00 0.6236
323.10 0.624
323.20 0.6245
323.30 0.6249
323.40 0.6254
323.50 0.6258
323.60 0.6262
323.70 0.6267
323.80 0.6271
323.90 0.6276
324.00 0.628
324.10 0.6285
324.20 0.6289
324.30 0.6294
324.40 0.6298
324.50 0.6303
324.60 0.6307
324.70 0.6312
324.80 0.6316
324.90 0.6321
325.00 0.6325
325.10 0.633
325.20 0.6334
325.30 0.6339
325.40 0.6343
325.50 0.6348
325.60 0.6352
325.70 0.6356
325.80 0.6361
325.90 0.6365
326.00 0.637
326.10 0.6374
326.20 0.6379
326.30 0.6383
326.40 0.6388
326.50 0.6392
326.60 0.6396
326.70 0.6401
326.80 0.6405
326.90 0.641
327.00 0.6414
327.10 0.6419
327.20 0.6423
327.30 0.6427
327.40 0.6432
327.50 0.6436
327.60 0.6441
327.70 0.6445
327.80 0.6449
327.90 0.6454
328.00 0.6458
328.10 0.6462
328.20 0.6467
328.30 0.6471
328.40 0.6476
328.50 0.648
328.60 0.6485
328.70 0.6489
328.80 0.6493
328.90 0.6498
329.00 0.6502
329.10 0.6506
329.20 0.6511
329.30 0.6515
329.40 0.652
329.50 0.6524
329.60 0.6528
329.70 0.6532
329.80 0.6537
329.90 0.6541
330.00 0.6545
330.10 0.655
330.20 0.6554
330.30 0.6559
330.40 0.6563
330.50 0.6567
330.60 0.6572
330.70 0.6576
330.80 0.6581
330.90 0.6585
331.00 0.6589
331.10 0.6594
331.20 0.6598
331.30 0.6602
331.40 0.6607
331.50 0.6611
331.60 0.6615
331.70 0.662
331.80 0.6624
331.90 0.6628
332.00 0.6632
332.10 0.6637
332.20 0.6641
332.30 0.6645
332.40 0.665
332.50 0.6654
332.60 0.6658
332.70 0.6663
332.80 0.6667
332.90 0.6671
333.00 0.6676
333.10 0.668
333.20 0.6684
333.30 0.6688
333.40 0.6693
333.50 0.6697
333.60 0.6701
333.70 0.6705
333.80 0.671
333.90 0.6714
334.00 0.6718
334.10 0.6722
334.20 0.6727
334.30 0.6731
334.40 0.6735
334.50 0.6739
334.60 0.6744
334.70 0.6748
334.80 0.6752
334.90 0.6756
335.00 0.6761
335.10 0.6765
335.20 0.6769
335.30 0.6773
335.40 0.6777
335.50 0.6782
335.60 0.6786
335.70 0.679
335.80 0.6794
335.90 0.6798
336.00 0.6802
336.10 0.6807
336.20 0.6811
336.30 0.6815
336.40 0.6819
336.50 0.6824
336.60 0.6828
336.70 0.6832
336.80 0.6836
336.90 0.684
337.00 0.6845
337.10 0.6849
337.20 0.6853
337.30 0.6857
337.40 0.6861
337.50 0.6865
337.60 0.687
337.70 0.6874
337.80 0.6878
337.90 0.6882
338.00 0.6886
338.10 0.689
338.20 0.6895
338.30 0.6899
338.40 0.6903
338.50 0.6907
338.60 0.6911
338.70 0.6915
338.80 0.692
338.90 0.6924
339.00 0.6928
339.10 0.6932
339.20 0.6936
339.30 0.694
339.40 0.6944
339.50 0.6948
339.60 0.6952
339.70 0.6957
339.80 0.6961
339.90 0.6965
340.00 0.6969
340.10 0.6973
340.20 0.6977
340.30 0.6981
340.40 0.6985
340.50 0.699
340.60 0.6994
340.70 0.6998
340.80 0.7002
340.90 0.7006
341.00 0.701
341.10 0.7014
341.20 0.7018
341.30 0.7022
341.40 0.7026
341.50 0.703
341.60 0.7034
341.70 0.7039
341.80 0.7043
341.90 0.7047
342.00 0.7051
342.10 0.7055
342.20 0.7059
342.30 0.7063
342.40 0.7067
342.50 0.7071
342.60 0.7075
342.70 0.7079
342.80 0.7083
342.90 0.7087
343.00 0.7091
343.10 0.7095
343.20 0.71
343.30 0.7104
343.40 0.7108
343.50 0.7112
343.60 0.7116
343.70 0.712
343.80 0.7124
343.90 0.7128
344.00 0.7132
344.10 0.7136
344.20 0.714
344.30 0.7144
344.40 0.7148
344.50 0.7152
344.60 0.7156
344.70 0.716
344.80 0.7164
344.90 0.7168
345.00 0.7172
345.10 0.7176
345.20 0.718
345.30 0.7184
345.40 0.7188
345.50 0.7192
345.60 0.7195
345.70 0.7199
345.80 0.7203
345.90 0.7207
346.00 0.7211
346.10 0.7215
346.20 0.7219
346.30 0.7223
346.40 0.7227
346.50 0.7231
346.60 0.7235
346.70 0.7239
346.80 0.7243
346.90 0.7247
347.00 0.7251
347.10 0.7255
347.20 0.7258
347.30 0.7262
347.40 0.7266
347.50 0.727
347.60 0.7274
347.70 0.7278
347.80 0.7282
347.90 0.7286
348.00 0.7289
348.10 0.7293
348.20 0.7297
348.30 0.7301
348.40 0.7305
348.50 0.7309
348.60 0.7313
348.70 0.7317
348.80 0.7321
348.90 0.7325
349.00 0.7328
349.10 0.7332
349.20 0.7336
349.30 0.734
349.40 0.7344
349.50 0.7348
349.60 0.7352
349.70 0.7355
349.80 0.7359
349.90 0.7363
350.00 0.7367
350.10 0.7371
350.20 0.7375
350.30 0.7379
350.40 0.7382
350.50 0.7386
350.60 0.739
350.70 0.7394
350.80 0.7398
350.90 0.7402
351.00 0.7406
351.10 0.7409
351.20 0.7413
351.30 0.7417
351.40 0.7421
351.50 0.7425
351.60 0.7428
351.70 0.7432
351.80 0.7436
351.90 0.744
352.00 0.7444
352.10 0.7447
352.20 0.7451
352.30 0.7455
352.40 0.7459
352.50 0.7463
352.60 0.7466
352.70 0.747
352.80 0.7474
352.90 0.7478
353.00 0.7482
353.10 0.7485
353.20 0.7489
353.30 0.7493
353.40 0.7497
353.50 0.75
353.60 0.7504
353.70 0.7508
353.80 0.7511
353.90 0.7515
354.00 0.7519
354.10 0.7523
354.20 0.7526
354.30 0.753
354.40 0.7534
354.50 0.7538
354.60 0.7541
354.70 0.7545
354.80 0.7549
354.90 0.7553
355.00 0.7556
355.10 0.756
355.20 0.7564
355.30 0.7567
355.40 0.7571
355.50 0.7575
355.60 0.7578
355.70 0.7582
355.80 0.7586
355.90 0.7589
356.00 0.7593
356.10 0.7597
356.20 0.76
356.30 0.7604
356.40 0.7608
356.50 0.7612
356.60 0.7615
356.70 0.7619
356.80 0.7623
356.90 0.7626
357.00 0.763
357.10 0.7633
357.20 0.7637
357.30 0.7641
357.40 0.7644
357.50 0.7648
357.60 0.7652
357.70 0.7655
357.80 0.7659
357.90 0.7662
358.00 0.7666
358.10 0.767
358.20 0.7673
358.30 0.7677
358.40 0.7681
358.50 0.7684
358.60 0.7688
358.70 0.7691
358.80 0.7695
358.90 0.7699
359.00 0.7702
359.10 0.7706
359.20 0.7709
359.30 0.7713
359.40 0.7716
359.50 0.772
359.60 0.7724
359.70 0.7727
359.80 0.7731
359.90 0.7734
360.00 0.7738
360.10 0.7741
360.20 0.7745
360.30 0.7748
360.40 0.7752
360.50 0.7756
360.60 0.7759
360.70 0.7763
360.80 0.7766
360.90 0.777
361.00 0.7773
361.10 0.7777
361.20 0.778
361.30 0.7784
361.40 0.7787
361.50 0.7791
361.60 0.7794
361.70 0.7798
361.80 0.7801
361.90 0.7805
362.00 0.7808
362.10 0.7812
362.20 0.7815
362.30 0.7819
362.40 0.7822
362.50 0.7826
362.60 0.7829
362.70 0.7833
362.80 0.7836
362.90 0.784
363.00 0.7843
363.10 0.7847
363.20 0.785
363.30 0.7854
363.40 0.7857
363.50 0.7861
363.60 0.7864
363.70 0.7868
363.80 0.7871
363.90 0.7875
364.00 0.7878
364.10 0.7882
364.20 0.7885
364.30 0.7889
364.40 0.7892
364.50 0.7895
364.60 0.7899
364.70 0.7902
364.80 0.7906
364.90 0.7909
365.00 0.7912
365.10 0.7916
365.20 0.7919
365.30 0.7923
365.40 0.7926
365.50 0.7929
365.60 0.7933
365.70 0.7936
365.80 0.794
365.90 0.7943
366.00 0.7946
366.10 0.795
366.20 0.7953
366.30 0.7956
366.40 0.796
366.50 0.7963
366.60 0.7967
366.70 0.797
366.80 0.7973
366.90 0.7977
367.00 0.798
367.10 0.7983
367.20 0.7987
367.30 0.799
367.40 0.7994
367.50 0.7997
367.60 0.8
367.70 0.8004
367.80 0.8007
367.90 0.801
368.00 0.8014
368.10 0.8017
368.20 0.802
368.30 0.8024
368.40 0.8027
368.50 0.803
368.60 0.8034
368.70 0.8037
368.80 0.804
368.90 0.8044
369.00 0.8047
369.10 0.805
369.20 0.8054
369.30 0.8057
369.40 0.806
369.50 0.8063
369.60 0.8067
369.70 0.807
369.80 0.8073
369.90 0.8077
370.00 0.808
370.10 0.8083
370.20 0.8086
370.30 0.809
370.40 0.8093
370.50 0.8096
370.60 0.8099
370.70 0.8103
370.80 0.8106
370.90 0.8109
371.00 0.8112
371.10 0.8116
371.20 0.8119
371.30 0.8122
371.40 0.8125
371.50 0.8129
371.60 0.8132
371.70 0.8135
371.80 0.8138
371.90 0.8141
372.00 0.8145
372.10 0.8148
372.20 0.8151
372.30 0.8154
372.40 0.8157
372.50 0.8161
372.60 0.8164
372.70 0.8167
372.80 0.817
372.90 0.8173
373.00 0.8177
373.10 0.818
373.20 0.8183
373.30 0.8186
373.40 0.8189
373.50 0.8193
373.60 0.8196
373.70 0.8199
373.80 0.8202
373.90 0.8205
374.00 0.8208
374.10 0.8211
374.20 0.8215
374.30 0.8218
374.40 0.8221
374.50 0.8224
374.60 0.8227
374.70 0.823
374.80 0.8233
374.90 0.8237
375.00 0.824
375.10 0.8243
375.20 0.8246
375.30 0.8249
375.40 0.8252
375.50 0.8255
375.60 0.8258
375.70 0.8261
375.80 0.8265
375.90 0.8268
376.00 0.8271
376.10 0.8274
376.20 0.8277
376.30 0.828
376.40 0.8283
376.50 0.8286
376.60 0.8289
376.70 0.8292
376.80 0.8295
376.90 0.8299
377.00 0.8302
377.10 0.8305
377.20 0.8308
377.30 0.8311
377.40 0.8314
377.50 0.8317
377.60 0.832
377.70 0.8323
377.80 0.8326
377.90 0.8329
378.00 0.8332
378.10 0.8335
378.20 0.8338
378.30 0.8341
378.40 0.8344
378.50 0.8347
378.60 0.835
378.70 0.8353
378.80 0.8356
378.90 0.8359
379.00 0.8362
379.10 0.8365
379.20 0.8368
379.30 0.8371
379.40 0.8374
379.50 0.8377
379.60 0.838
379.70 0.8383
379.80 0.8386
379.90 0.8389
380.00 0.8392
380.10 0.8395
380.20 0.8398
380.30 0.8401
380.40 0.8404
380.50 0.8407
380.60 0.841
380.70 0.8413
380.80 0.8416
380.90 0.8419
381.00 0.8422
381.10 0.8425
381.20 0.8428
381.30 0.8431
381.40 0.8433
381.50 0.8436
381.60 0.8439
381.70 0.8442
381.80 0.8445
381.90 0.8448
382.00 0.8451
382.10 0.8454
382.20 0.8457
382.30 0.846
382.40 0.8463
382.50 0.8466
382.60 0.8469
382.70 0.8472
382.80 0.8474
382.90 0.8477
383.00 0.848
383.10 0.8483
383.20 0.8486
383.30 0.8489
383.40 0.8492
383.50 0.8494
383.60 0.8497
383.70 0.85
383.80 0.8503
383.90 0.8506
384.00 0.8509
384.10 0.8512
384.20 0.8515
384.30 0.8517
384.40 0.852
384.50 0.8523
384.60 0.8526
384.70 0.8529
384.80 0.8532
384.90 0.8534
385.00 0.8537
385.10 0.854
385.20 0.8543
385.30 0.8546
385.40 0.8549
385.50 0.8551
385.60 0.8554
385.70 0.8557
385.80 0.856
385.90 0.8562
386.00 0.8565
386.10 0.8568
386.20 0.8571
386.30 0.8574
386.40 0.8576
386.50 0.8579
386.60 0.8582
386.70 0.8585
386.80 0.8588
386.90 0.859
387.00 0.8593
387.10 0.8596
387.20 0.8599
387.30 0.8601
387.40 0.8604
387.50 0.8607
387.60 0.861
387.70 0.8612
387.80 0.8615
387.90 0.8618
388.00 0.862
388.10 0.8623
388.20 0.8626
388.30 0.8629
388.40 0.8631
388.50 0.8634
388.60 0.8637
388.70 0.864
388.80 0.8642
388.90 0.8644
389.00 0.8647
389.10 0.865
389.20 0.8653
389.30 0.8656
389.40 0.8659
389.50 0.8661
389.60 0.8664
389.70 0.8667
389.80 0.8669
389.90 0.8672
390.00 0.8675
390.10 0.8678
390.20 0.868
390.30 0.8683
390.40 0.8685
390.50 0.8688
390.60 0.8691
390.70 0.8693
390.80 0.8696
390.90 0.8699
391.00 0.8701
391.10 0.8704
391.20 0.8707
391.30 0.8709
391.40 0.8712
391.50 0.8715
391.60 0.8717
391.70 0.872
391.80 0.8722
391.90 0.8725
392.00 0.8728
392.10 0.873
392.20 0.8733
392.30 0.8736
392.40 0.8738
392.50 0.8741
392.60 0.8743
392.70 0.8746
392.80 0.8749
392.90 0.8751
393.00 0.8754
393.10 0.8756
393.20 0.8759
393.30 0.8761
393.40 0.8764
393.50 0.8767
393.60 0.8769
393.70 0.8772
393.80 0.8774
393.90 0.8777
394.00 0.8779
394.10 0.8782
394.20 0.8784
394.30 0.8787
394.40 0.879
394.50 0.8792
394.60 0.8795
394.70 0.8797
394.80 0.88
394.90 0.8802
395.00 0.8805
395.10 0.8807
395.20 0.881
395.30 0.8812
395.40 0.8815
395.50 0.8817
395.60 0.882
395.70 0.8822
395.80 0.8825
395.90 0.8827
396.00 0.883
396.10 0.8832
396.20 0.8834
396.30 0.8837
396.40 0.8839
396.50 0.8842
396.60 0.8844
396.70 0.8846
396.80 0.8849
396.90 0.8851
397.00 0.8852
397.10 0.8856
397.20 0.8858
397.30 0.8861
397.40 0.8864
397.50 0.8866
397.60 0.8869
397.70 0.8871
397.80 0.8874
397.90 0.8876
398.00 0.8879
398.10 0.8881
398.20 0.8884
398.30 0.8886
398.40 0.8889
398.50 0.8891
398.60 0.8894
398.70 0.8896
398.80 0.8899
398.90 0.8901
399.00 0.8904
399.10 0.8906
399.20 0.8908
399.30 0.8911
399.40 0.8913
399.50 0.8916
399.60 0.8918
399.70 0.892
399.80 0.8923
399.90 0.8925
400.00 0.8928
400.10 0.893
400.20 0.8932
400.30 0.8935
400.40 0.8937
400.50 0.8939
400.60 0.8942
400.70 0.8944
400.80 0.8947
400.90 0.8949
401.00 0.8951
401.10 0.8954
401.20 0.8956
401.30 0.8958
401.40 0.8961
401.50 0.8963
401.60 0.8965
401.70 0.8968
401.80 0.897
401.90 0.8972
402.00 0.8975
402.10 0.8977
402.20 0.8979
402.30 0.8982
402.40 0.8984
402.50 0.8986
402.60 0.8988
402.70 0.8991
402.80 0.8993
402.90 0.8995
403.00 0.8998
403.10 0.9
403.20 0.9002
403.30 0.9004
403.40 0.9007
403.50 0.9009
403.60 0.9012
403.70 0.9014
403.80 0.9016
403.90 0.9018
404.00 0.9021
404.10 0.9023
404.20 0.9025
404.30 0.9027
404.40 0.903
404.50 0.9032
404.60 0.9034
404.70 0.9036
404.80 0.9038
404.90 0.9041
405.00 0.9043
405.10 0.9045
405.20 0.9047
405.30 0.905
405.40 0.9052
405.50 0.9054
405.60 0.9056
405.70 0.9058
405.80 0.9061
405.90 0.9063
406.00 0.9065
406.10 0.9067
406.20 0.907
406.30 0.9072
406.40 0.9074
406.50 0.9076
406.60 0.9078
406.70 0.908
406.80 0.9083
406.90 0.9085
407.00 0.9087
407.10 0.9089
407.20 0.9091
407.30 0.9093
407.40 0.9095
407.50 0.9098
407.60 0.91
407.70 0.9102
407.80 0.9104
407.90 0.9106
408.00 0.9108
408.10 0.911
408.20 0.9112
408.30 0.9114
408.40 0.9116
408.50 0.9118
408.60 0.912
408.70 0.9122
408.80 0.9124
408.90 0.9126
409.00 0.9128
409.10 0.913
409.20 0.9132
409.30 0.9133
409.40 0.9135
409.50 0.9136
409.60 0.9138
409.70 0.9139
409.80 0.914
409.90 0.9142
410.00 0.9143
410.10 0.9143
410.20 0.9144
410.30 0.9148
410.40 0.9152
410.50 0.9155
410.60 0.9158
410.70 0.9161
410.80 0.9163
410.90 0.9166
411.00 0.9168
411.10 0.9171
411.20 0.9173
411.30 0.9176
411.40 0.9178
411.50 0.918
411.60 0.9183
411.70 0.9185
411.80 0.9187
411.90 0.9189
412.00 0.9191
412.10 0.9193
412.20 0.9196
412.30 0.9198
412.40 0.92
412.50 0.9202
412.60 0.9204
412.70 0.9206
412.80 0.9208
412.90 0.921
413.00 0.9212
413.10 0.9214
413.20 0.9216
413.30 0.9218
413.40 0.922
413.50 0.9222
413.60 0.9224
413.70 0.9226
413.80 0.9228
413.90 0.923
414.00 0.9232
414.10 0.9234
414.20 0.9236
414.30 0.9238
414.40 0.924
414.50 0.9242
414.60 0.9244
414.70 0.9246
414.80 0.9248
414.90 0.925
415.00 0.9252
415.10 0.9254
415.20 0.9256
415.30 0.9258
415.40 0.926
415.50 0.9262
415.60 0.9264
415.70 0.9266
415.80 0.9268
415.90 0.927
416.00 0.9271
416.10 0.9273
416.20 0.9275
416.30 0.9277
416.40 0.9279
416.50 0.9281
416.60 0.9283
416.70 0.9285
416.80 0.9287
416.90 0.9289
417.00 0.929
417.10 0.9292
417.20 0.9294
417.30 0.9296
417.40 0.9298
417.50 0.93
417.60 0.9302
417.70 0.9304
417.80 0.9305
417.90 0.9307
418.00 0.9309
418.10 0.9311
418.20 0.9313
418.30 0.9315
418.40 0.9317
418.50 0.9318
418.60 0.932
418.70 0.9322
418.80 0.9324
418.90 0.9326
419.00 0.9328
419.10 0.933
419.20 0.9331
419.30 0.9333
419.40 0.9335
419.50 0.9337
419.60 0.9339
419.70 0.9341
419.80 0.9342
419.90 0.9344
420.00 0.9346
420.10 0.9348
420.20 0.935
420.30 0.9351
420.40 0.9353
420.50 0.9355
420.60 0.9357
420.70 0.9358
420.80 0.936
420.90 0.9362
421.00 0.9364
421.10 0.9366
421.20 0.9367
421.30 0.9369
421.40 0.9371
421.50 0.9373
421.60 0.9374
421.70 0.9376
421.80 0.9378
421.90 0.938
422.00 0.9381
422.10 0.9383
422.20 0.9385
422.30 0.9387
422.40 0.9388
422.50 0.939
422.60 0.9392
422.70 0.9394
422.80 0.9395
422.90 0.9397
423.00 0.9399
423.10 0.94
423.20 0.9402
423.30 0.9404
423.40 0.9406
423.50 0.9407
423.60 0.9409
423.70 0.9411
423.80 0.9412
423.90 0.9414
424.00 0.9416
424.10 0.9417
424.20 0.9419
424.30 0.9421
424.40 0.9423
424.50 0.9424
424.60 0.9426
424.70 0.9428
424.80 0.9429
424.90 0.9431
425.00 0.9432
425.10 0.9434
425.20 0.9436
425.30 0.9438
425.40 0.9439
425.50 0.9441
425.60 0.9443
425.70 0.9444
425.80 0.9446
425.90 0.9447
426.00 0.9449
426.10 0.9451
426.20 0.9452
426.30 0.9454
426.40 0.9456
426.50 0.9457
426.60 0.9459
426.70 0.946
426.80 0.9462
426.90 0.9464
427.00 0.9465
427.10 0.9467
427.20 0.9468
427.30 0.947
427.40 0.9472
427.50 0.9473
427.60 0.9475
427.70 0.9476
427.80 0.9478
427.90 0.948
428.00 0.9481
428.10 0.9483
428.20 0.9484
428.30 0.9486
428.40 0.9487
428.50 0.9489
428.60 0.949
428.70 0.9492
428.80 0.9493
428.90 0.9495
429.00 0.9496
429.10 0.9498
429.20 0.95
429.30 0.9501
429.40 0.9503
429.50 0.9504
429.60 0.9506
429.70 0.9507
429.80 0.9509
429.90 0.951
430.00 0.9512
430.10 0.9513
430.20 0.9515
430.30 0.9516
430.40 0.9518
430.50 0.9519
430.60 0.952
430.70 0.9522
430.80 0.9523
430.90 0.9525
431.00 0.9526
431.10 0.9527
431.20 0.9529
431.30 0.953
431.40 0.9531
431.50 0.9533
431.60 0.9534
431.70 0.9535
431.80 0.9537
431.90 0.9538
432.00 0.9539
432.10 0.954
432.20 0.9541
432.30 0.9542
432.40 0.9543
432.50 0.9544
432.60 0.9545
432.70 0.9546
432.80 0.9546
432.90 0.9546
433.00 0.9547
433.10 0.9547
433.20 0.9546
433.30 0.9546
433.40 0.9545
433.50 0.9543
433.60 0.9542
433.70 0.9539
433.80 0.9536
433.90 0.9533
434.00 0.9526
434.10 0.9528
434.20 0.9537
434.30 0.9543
434.40 0.9549
434.50 0.9555
434.60 0.9559
434.70 0.9564
434.80 0.9568
434.90 0.9571
435.00 0.9574
435.10 0.9577
435.20 0.9579
435.30 0.9582
435.40 0.9584
435.50 0.9586
435.60 0.9588
435.70 0.959
435.80 0.9592
435.90 0.9594
436.00 0.9596
436.10 0.9597
436.20 0.9599
436.30 0.9601
436.40 0.9602
436.50 0.9604
436.60 0.9605
436.70 0.9607
436.80 0.9608
436.90 0.961
437.00 0.9611
437.10 0.9613
437.20 0.9614
437.30 0.9616
437.40 0.9617
437.50 0.9619
437.60 0.962
437.70 0.9621
437.80 0.9623
437.90 0.9624
438.00 0.9625
438.10 0.9627
438.20 0.9628
438.30 0.963
438.40 0.9631
438.50 0.9632
438.60 0.9634
438.70 0.9635
438.80 0.9636
438.90 0.9638
439.00 0.9639
439.10 0.964
439.20 0.9642
439.30 0.9643
439.40 0.9644
439.50 0.9646
439.60 0.9647
439.70 0.9648
439.80 0.9649
439.90 0.9651
440.00 0.9652
440.10 0.9653
440.20 0.9654
440.30 0.9656
440.40 0.9657
440.50 0.9658
440.60 0.966
440.70 0.9661
440.80 0.9662
440.90 0.9663
441.00 0.9665
441.10 0.9666
441.20 0.9667
441.30 0.9668
441.40 0.967
441.50 0.9671
441.60 0.9672
441.70 0.9673
441.80 0.9674
441.90 0.9676
442.00 0.9677
442.10 0.9678
442.20 0.9679
442.30 0.9681
442.40 0.9682
442.50 0.9683
442.60 0.9684
442.70 0.9686
442.80 0.9687
442.90 0.9688
443.00 0.9689
443.10 0.969
