# Version 2.1 - nm, norm@500 to 1, cut digits, bergeron_16000_75.dat_16000
# Wavelength(nm)  Flambda(ergs/cm^s/s/nm)
300.00 2.403
300.10 2.401
300.20 2.399
300.30 2.397
300.40 2.395
300.50 2.393
300.60 2.391
300.70 2.389
300.80 2.387
300.90 2.385
301.00 2.383
301.10 2.381
301.20 2.379
301.30 2.377
301.40 2.376
301.50 2.374
301.60 2.372
301.70 2.37
301.80 2.368
301.90 2.366
302.00 2.364
302.10 2.362
302.20 2.36
302.30 2.358
302.40 2.356
302.50 2.354
302.60 2.353
302.70 2.351
302.80 2.349
302.90 2.347
303.00 2.345
303.10 2.343
303.20 2.341
303.30 2.339
303.40 2.337
303.50 2.335
303.60 2.334
303.70 2.332
303.80 2.33
303.90 2.328
304.00 2.326
304.10 2.324
304.20 2.322
304.30 2.32
304.40 2.319
304.50 2.317
304.60 2.315
304.70 2.313
304.80 2.311
304.90 2.309
305.00 2.307
305.10 2.305
305.20 2.304
305.30 2.302
305.40 2.3
305.50 2.298
305.60 2.296
305.70 2.294
305.80 2.292
305.90 2.291
306.00 2.289
306.10 2.287
306.20 2.285
306.30 2.283
306.40 2.281
306.50 2.28
306.60 2.278
306.70 2.276
306.80 2.274
306.90 2.272
307.00 2.27
307.10 2.269
307.20 2.267
307.30 2.265
307.40 2.263
307.50 2.261
307.60 2.26
307.70 2.258
307.80 2.256
307.90 2.254
308.00 2.252
308.10 2.251
308.20 2.249
308.30 2.247
308.40 2.245
308.50 2.243
308.60 2.242
308.70 2.24
308.80 2.238
308.90 2.236
309.00 2.234
309.10 2.233
309.20 2.231
309.30 2.229
309.40 2.227
309.50 2.226
309.60 2.224
309.70 2.222
309.80 2.22
309.90 2.218
310.00 2.217
310.10 2.215
310.20 2.213
310.30 2.211
310.40 2.21
310.50 2.208
310.60 2.206
310.70 2.204
310.80 2.203
310.90 2.201
311.00 2.199
311.10 2.198
311.20 2.196
311.30 2.194
311.40 2.192
311.50 2.191
311.60 2.189
311.70 2.187
311.80 2.185
311.90 2.184
312.00 2.182
312.10 2.18
312.20 2.179
312.30 2.177
312.40 2.175
312.50 2.173
312.60 2.172
312.70 2.17
312.80 2.168
312.90 2.166
313.00 2.165
313.10 2.163
313.20 2.161
313.30 2.16
313.40 2.158
313.50 2.156
313.60 2.155
313.70 2.153
313.80 2.151
313.90 2.15
314.00 2.148
314.10 2.146
314.20 2.144
314.30 2.143
314.40 2.141
314.50 2.139
314.60 2.138
314.70 2.136
314.80 2.134
314.90 2.133
315.00 2.131
315.10 2.129
315.20 2.128
315.30 2.126
315.40 2.124
315.50 2.123
315.60 2.121
315.70 2.119
315.80 2.118
315.90 2.116
316.00 2.115
316.10 2.113
316.20 2.111
316.30 2.11
316.40 2.108
316.50 2.106
316.60 2.105
316.70 2.103
316.80 2.101
316.90 2.1
317.00 2.098
317.10 2.096
317.20 2.095
317.30 2.093
317.40 2.091
317.50 2.09
317.60 2.088
317.70 2.087
317.80 2.085
317.90 2.083
318.00 2.082
318.10 2.08
318.20 2.078
318.30 2.077
318.40 2.075
318.50 2.074
318.60 2.072
318.70 2.07
318.80 2.069
318.90 2.067
319.00 2.066
319.10 2.064
319.20 2.062
319.30 2.061
319.40 2.059
319.50 2.058
319.60 2.056
319.70 2.054
319.80 2.053
319.90 2.051
320.00 2.05
320.10 2.048
320.20 2.047
320.30 2.045
320.40 2.043
320.50 2.042
320.60 2.04
320.70 2.039
320.80 2.037
320.90 2.036
321.00 2.034
321.10 2.032
321.20 2.031
321.30 2.029
321.40 2.028
321.50 2.026
321.60 2.025
321.70 2.023
321.80 2.021
321.90 2.02
322.00 2.018
322.10 2.017
322.20 2.015
322.30 2.014
322.40 2.012
322.50 2.011
322.60 2.009
322.70 2.008
322.80 2.006
322.90 2.004
323.00 2.003
323.10 2.001
323.20 2
323.30 1.998
323.40 1.997
323.50 1.995
323.60 1.994
323.70 1.992
323.80 1.991
323.90 1.989
324.00 1.988
324.10 1.986
324.20 1.985
324.30 1.983
324.40 1.982
324.50 1.98
324.60 1.978
324.70 1.977
324.80 1.975
324.90 1.974
325.00 1.972
325.10 1.971
325.20 1.969
325.30 1.968
325.40 1.966
325.50 1.965
325.60 1.963
325.70 1.962
325.80 1.96
325.90 1.959
326.00 1.957
326.10 1.956
326.20 1.954
326.30 1.953
326.40 1.951
326.50 1.95
326.60 1.949
326.70 1.947
326.80 1.946
326.90 1.944
327.00 1.943
327.10 1.941
327.20 1.94
327.30 1.938
327.40 1.937
327.50 1.935
327.60 1.934
327.70 1.932
327.80 1.931
327.90 1.929
328.00 1.928
328.10 1.926
328.20 1.925
328.30 1.924
328.40 1.922
328.50 1.921
328.60 1.919
328.70 1.918
328.80 1.916
328.90 1.915
329.00 1.913
329.10 1.912
329.20 1.91
329.30 1.909
329.40 1.908
329.50 1.906
329.60 1.905
329.70 1.903
329.80 1.902
329.90 1.9
330.00 1.899
330.10 1.897
330.20 1.896
330.30 1.895
330.40 1.893
330.50 1.892
330.60 1.89
330.70 1.889
330.80 1.888
330.90 1.886
331.00 1.885
331.10 1.883
331.20 1.882
331.30 1.88
331.40 1.879
331.50 1.878
331.60 1.876
331.70 1.875
331.80 1.873
331.90 1.872
332.00 1.871
332.10 1.869
332.20 1.868
332.30 1.866
332.40 1.865
332.50 1.864
332.60 1.862
332.70 1.861
332.80 1.859
332.90 1.858
333.00 1.857
333.10 1.855
333.20 1.854
333.30 1.852
333.40 1.851
333.50 1.85
333.60 1.848
333.70 1.847
333.80 1.846
333.90 1.844
334.00 1.843
334.10 1.841
334.20 1.84
334.30 1.839
334.40 1.837
334.50 1.836
334.60 1.835
334.70 1.833
334.80 1.832
334.90 1.83
335.00 1.829
335.10 1.828
335.20 1.826
335.30 1.825
335.40 1.824
335.50 1.822
335.60 1.821
335.70 1.82
335.80 1.818
335.90 1.817
336.00 1.816
336.10 1.814
336.20 1.813
336.30 1.812
336.40 1.81
336.50 1.809
336.60 1.807
336.70 1.806
336.80 1.805
336.90 1.803
337.00 1.802
337.10 1.801
337.20 1.799
337.30 1.798
337.40 1.797
337.50 1.795
337.60 1.794
337.70 1.793
337.80 1.792
337.90 1.79
338.00 1.789
338.10 1.788
338.20 1.786
338.30 1.785
338.40 1.784
338.50 1.782
338.60 1.781
338.70 1.78
338.80 1.778
338.90 1.777
339.00 1.776
339.10 1.774
339.20 1.773
339.30 1.772
339.40 1.77
339.50 1.769
339.60 1.768
339.70 1.766
339.80 1.765
339.90 1.764
340.00 1.763
340.10 1.761
340.20 1.76
340.30 1.759
340.40 1.757
340.50 1.756
340.60 1.755
340.70 1.753
340.80 1.752
340.90 1.751
341.00 1.75
341.10 1.748
341.20 1.747
341.30 1.746
341.40 1.744
341.50 1.743
341.60 1.742
341.70 1.741
341.80 1.739
341.90 1.738
342.00 1.737
342.10 1.736
342.20 1.734
342.30 1.733
342.40 1.732
342.50 1.73
342.60 1.729
342.70 1.728
342.80 1.727
342.90 1.725
343.00 1.724
343.10 1.723
343.20 1.722
343.30 1.72
343.40 1.719
343.50 1.718
343.60 1.717
343.70 1.715
343.80 1.714
343.90 1.713
344.00 1.712
344.10 1.71
344.20 1.709
344.30 1.708
344.40 1.707
344.50 1.705
344.60 1.704
344.70 1.703
344.80 1.702
344.90 1.7
345.00 1.699
345.10 1.698
345.20 1.697
345.30 1.695
345.40 1.694
345.50 1.693
345.60 1.692
345.70 1.691
345.80 1.689
345.90 1.688
346.00 1.687
346.10 1.686
346.20 1.684
346.30 1.683
346.40 1.682
346.50 1.681
346.60 1.68
346.70 1.678
346.80 1.677
346.90 1.676
347.00 1.675
347.10 1.673
347.20 1.672
347.30 1.671
347.40 1.67
347.50 1.669
347.60 1.667
347.70 1.666
347.80 1.665
347.90 1.664
348.00 1.663
348.10 1.661
348.20 1.66
348.30 1.659
348.40 1.658
348.50 1.657
348.60 1.655
348.70 1.654
348.80 1.653
348.90 1.652
349.00 1.651
349.10 1.649
349.20 1.648
349.30 1.647
349.40 1.646
349.50 1.645
349.60 1.644
349.70 1.642
349.80 1.641
349.90 1.64
350.00 1.639
350.10 1.638
350.20 1.637
350.30 1.635
350.40 1.634
350.50 1.633
350.60 1.632
350.70 1.631
350.80 1.629
350.90 1.628
351.00 1.627
351.10 1.626
351.20 1.625
351.30 1.624
351.40 1.622
351.50 1.621
351.60 1.62
351.70 1.619
351.80 1.618
351.90 1.617
352.00 1.615
352.10 1.614
352.20 1.613
352.30 1.612
352.40 1.611
352.50 1.61
352.60 1.609
352.70 1.607
352.80 1.606
352.90 1.605
353.00 1.604
353.10 1.603
353.20 1.602
353.30 1.6
353.40 1.599
353.50 1.598
353.60 1.597
353.70 1.596
353.80 1.595
353.90 1.594
354.00 1.592
354.10 1.591
354.20 1.59
354.30 1.589
354.40 1.588
354.50 1.587
354.60 1.586
354.70 1.585
354.80 1.583
354.90 1.582
355.00 1.581
355.10 1.58
355.20 1.579
355.30 1.578
355.40 1.577
355.50 1.576
355.60 1.575
355.70 1.573
355.80 1.572
355.90 1.571
356.00 1.57
356.10 1.569
356.20 1.568
356.30 1.567
356.40 1.566
356.50 1.564
356.60 1.563
356.70 1.562
356.80 1.561
356.90 1.56
357.00 1.559
357.10 1.558
357.20 1.557
357.30 1.556
357.40 1.554
357.50 1.553
357.60 1.552
357.70 1.551
357.80 1.55
357.90 1.549
358.00 1.548
358.10 1.547
358.20 1.546
358.30 1.545
358.40 1.544
358.50 1.542
358.60 1.541
358.70 1.54
358.80 1.539
358.90 1.538
359.00 1.537
359.10 1.536
359.20 1.535
359.30 1.534
359.40 1.533
359.50 1.532
359.60 1.531
359.70 1.529
359.80 1.528
359.90 1.527
360.00 1.526
360.10 1.525
360.20 1.524
360.30 1.523
360.40 1.522
360.50 1.521
360.60 1.52
360.70 1.519
360.80 1.518
360.90 1.517
361.00 1.516
361.10 1.515
361.20 1.513
361.30 1.512
361.40 1.511
361.50 1.51
361.60 1.509
361.70 1.508
361.80 1.507
361.90 1.506
362.00 1.505
362.10 1.504
362.20 1.503
362.30 1.502
362.40 1.501
362.50 1.5
362.60 1.499
362.70 1.498
362.80 1.497
362.90 1.496
363.00 1.495
363.10 1.493
363.20 1.492
363.30 1.491
363.40 1.49
363.50 1.489
363.60 1.488
363.70 1.487
363.80 1.486
363.90 1.485
364.00 1.483
364.10 1.482
364.20 1.481
364.30 1.48
364.40 1.479
364.50 1.478
364.60 1.477
364.70 1.476
364.80 1.475
364.90 1.474
365.00 1.473
365.10 1.471
365.20 1.47
365.30 1.469
365.40 1.468
365.50 1.467
365.60 1.466
365.70 1.465
365.80 1.464
365.90 1.463
366.00 1.462
366.10 1.461
366.20 1.46
366.30 1.459
366.40 1.458
366.50 1.457
366.60 1.455
366.70 1.454
366.80 1.453
366.90 1.452
367.00 1.451
367.10 1.45
367.20 1.449
367.30 1.448
367.40 1.447
367.50 1.446
367.60 1.445
367.70 1.444
367.80 1.443
367.90 1.442
368.00 1.441
368.10 1.441
368.20 1.44
368.30 1.439
368.40 1.439
368.50 1.438
368.60 1.437
368.70 1.436
368.80 1.436
368.90 1.435
369.00 1.434
369.10 1.434
369.20 1.433
369.30 1.432
369.40 1.432
369.50 1.431
369.60 1.43
369.70 1.43
369.80 1.429
369.90 1.428
370.00 1.428
370.10 1.428
370.20 1.428
370.30 1.428
370.40 1.429
370.50 1.429
370.60 1.429
370.70 1.429
370.80 1.43
370.90 1.43
371.00 1.43
371.10 1.43
371.20 1.431
371.30 1.431
371.40 1.431
371.50 1.431
371.60 1.431
371.70 1.432
371.80 1.432
371.90 1.432
372.00 1.432
372.10 1.434
372.20 1.435
372.30 1.437
372.40 1.438
372.50 1.44
372.60 1.442
372.70 1.443
372.80 1.445
372.90 1.446
373.00 1.448
373.10 1.449
373.20 1.451
373.30 1.452
373.40 1.454
373.50 1.455
373.60 1.457
373.70 1.458
373.80 1.459
373.90 1.461
374.00 1.462
374.10 1.465
374.20 1.467
374.30 1.469
374.40 1.471
374.50 1.473
374.60 1.475
374.70 1.477
374.80 1.479
374.90 1.481
375.00 1.483
375.10 1.486
375.20 1.488
375.30 1.49
375.40 1.492
375.50 1.494
375.60 1.496
375.70 1.498
375.80 1.5
375.90 1.502
376.00 1.504
376.10 1.505
376.20 1.506
376.30 1.507
376.40 1.508
376.50 1.51
376.60 1.511
376.70 1.512
376.80 1.513
376.90 1.514
377.00 1.515
377.10 1.513
377.20 1.511
377.30 1.509
377.40 1.507
377.50 1.505
377.60 1.504
377.70 1.502
377.80 1.5
377.90 1.498
378.00 1.496
378.10 1.485
378.20 1.475
378.30 1.464
378.40 1.454
378.50 1.443
378.60 1.433
378.70 1.422
378.80 1.412
378.90 1.401
379.00 1.391
379.10 1.383
379.20 1.375
379.30 1.368
379.40 1.36
379.50 1.353
379.60 1.345
379.70 1.338
379.80 1.33
379.90 1.323
380.00 1.315
380.10 1.327
380.20 1.338
380.30 1.35
380.40 1.362
380.50 1.373
380.60 1.385
380.70 1.396
380.80 1.408
380.90 1.419
381.00 1.431
381.10 1.435
381.20 1.44
381.30 1.444
381.40 1.448
381.50 1.452
381.60 1.451
381.70 1.449
381.80 1.444
381.90 1.438
382.00 1.43
382.10 1.42
382.20 1.408
382.30 1.386
382.40 1.364
382.50 1.342
382.60 1.32
382.70 1.298
382.80 1.276
382.90 1.254
383.00 1.232
383.10 1.21
383.20 1.188
383.30 1.171
383.40 1.151
383.50 1.13
383.60 1.134
383.70 1.156
383.80 1.175
383.90 1.192
384.00 1.213
384.10 1.238
384.20 1.265
384.30 1.293
384.40 1.32
384.50 1.346
384.60 1.37
384.70 1.391
384.80 1.41
384.90 1.427
385.00 1.441
385.10 1.454
385.20 1.465
385.30 1.474
385.40 1.482
385.50 1.488
385.60 1.494
385.70 1.497
385.80 1.5
385.90 1.501
386.00 1.501
386.10 1.5
386.20 1.498
386.30 1.494
386.40 1.489
386.50 1.484
386.60 1.476
386.70 1.468
386.80 1.459
386.90 1.448
387.00 1.436
387.10 1.424
387.20 1.409
387.30 1.393
387.40 1.376
387.50 1.356
387.60 1.335
387.70 1.313
387.80 1.287
387.90 1.259
388.00 1.229
388.10 1.195
388.20 1.16
388.30 1.124
388.40 1.087
388.50 1.053
388.60 1.022
388.70 0.9951
388.80 0.9694
388.90 0.9454
389.00 0.9668
389.10 0.9909
389.20 1.018
389.30 1.047
389.40 1.08
389.50 1.116
389.60 1.153
389.70 1.188
389.80 1.222
389.90 1.252
390.00 1.281
390.10 1.308
390.20 1.332
390.30 1.355
390.40 1.376
390.50 1.396
390.60 1.414
390.70 1.432
390.80 1.448
390.90 1.464
391.00 1.479
391.10 1.493
391.20 1.506
391.30 1.519
391.40 1.531
391.50 1.542
391.60 1.553
391.70 1.562
391.80 1.571
391.90 1.579
392.00 1.586
392.10 1.593
392.20 1.598
392.30 1.603
392.40 1.607
392.50 1.61
392.60 1.611
392.70 1.612
392.80 1.613
392.90 1.612
393.00 1.61
393.10 1.608
393.20 1.604
393.30 1.599
393.40 1.594
393.50 1.587
393.60 1.58
393.70 1.572
393.80 1.562
393.90 1.552
394.00 1.541
394.10 1.529
394.20 1.516
394.30 1.502
394.40 1.487
394.50 1.472
394.60 1.455
394.70 1.438
394.80 1.42
394.90 1.402
395.00 1.383
395.10 1.363
395.20 1.343
395.30 1.322
395.40 1.3
395.50 1.277
395.60 1.253
395.70 1.229
395.80 1.203
395.90 1.176
396.00 1.147
396.10 1.118
396.20 1.085
396.30 1.05
396.40 1.014
396.50 0.9746
396.60 0.9363
396.70 0.8989
396.80 0.8646
396.90 0.8257
397.00 0.782
397.10 0.8217
397.20 0.8583
397.30 0.8917
397.40 0.9279
397.50 0.9649
397.60 1.003
397.70 1.039
397.80 1.073
397.90 1.105
398.00 1.133
398.10 1.161
398.20 1.187
398.30 1.212
398.40 1.236
398.50 1.259
398.60 1.281
398.70 1.302
398.80 1.323
398.90 1.342
399.00 1.362
399.10 1.381
399.20 1.399
399.30 1.417
399.40 1.435
399.50 1.452
399.60 1.469
399.70 1.485
399.80 1.501
399.90 1.516
400.00 1.53
400.10 1.544
400.20 1.558
400.30 1.571
400.40 1.583
400.50 1.595
400.60 1.606
400.70 1.616
400.80 1.626
400.90 1.636
401.00 1.645
401.10 1.654
401.20 1.662
401.30 1.669
401.40 1.677
401.50 1.683
401.60 1.69
401.70 1.695
401.80 1.701
401.90 1.706
402.00 1.71
402.10 1.715
402.20 1.718
402.30 1.722
402.40 1.725
402.50 1.727
402.60 1.729
402.70 1.731
402.80 1.733
402.90 1.734
403.00 1.735
403.10 1.735
403.20 1.735
403.30 1.735
403.40 1.735
403.50 1.734
403.60 1.733
403.70 1.731
403.80 1.729
403.90 1.727
404.00 1.725
404.10 1.722
404.20 1.719
404.30 1.715
404.40 1.711
404.50 1.707
404.60 1.702
404.70 1.697
404.80 1.692
404.90 1.686
405.00 1.68
405.10 1.674
405.20 1.667
405.30 1.659
405.40 1.652
405.50 1.644
405.60 1.635
405.70 1.626
405.80 1.617
405.90 1.607
406.00 1.597
406.10 1.586
406.20 1.575
406.30 1.563
406.40 1.551
406.50 1.538
406.60 1.525
406.70 1.511
406.80 1.497
406.90 1.483
407.00 1.467
407.10 1.451
407.20 1.435
407.30 1.418
407.40 1.401
407.50 1.383
407.60 1.364
407.70 1.345
407.80 1.326
407.90 1.306
408.00 1.285
408.10 1.265
408.20 1.244
408.30 1.223
408.40 1.201
408.50 1.179
408.60 1.157
408.70 1.135
408.80 1.112
408.90 1.088
409.00 1.065
409.10 1.04
409.20 1.015
409.30 0.9891
409.40 0.9607
409.50 0.9307
409.60 0.899
409.70 0.8646
409.80 0.8298
409.90 0.7946
410.00 0.7544
410.10 0.7143
410.20 0.6744
410.30 0.7298
410.40 0.7754
410.50 0.8112
410.60 0.8455
410.70 0.8789
410.80 0.9115
410.90 0.9408
411.00 0.9685
411.10 0.9947
411.20 1.019
411.30 1.042
411.40 1.065
411.50 1.087
411.60 1.108
411.70 1.13
411.80 1.15
411.90 1.171
412.00 1.191
412.10 1.21
412.20 1.23
412.30 1.249
412.40 1.267
412.50 1.286
412.60 1.304
412.70 1.321
412.80 1.338
412.90 1.354
413.00 1.37
413.10 1.386
413.20 1.401
413.30 1.415
413.40 1.429
413.50 1.442
413.60 1.455
413.70 1.467
413.80 1.479
413.90 1.491
414.00 1.502
414.10 1.512
414.20 1.522
414.30 1.532
414.40 1.541
414.50 1.55
414.60 1.559
414.70 1.567
414.80 1.575
414.90 1.583
415.00 1.59
415.10 1.597
415.20 1.603
415.30 1.61
415.40 1.616
415.50 1.621
415.60 1.627
415.70 1.632
415.80 1.637
415.90 1.641
416.00 1.646
416.10 1.65
416.20 1.654
416.30 1.658
416.40 1.662
416.50 1.665
416.60 1.668
416.70 1.671
416.80 1.674
416.90 1.677
417.00 1.68
417.10 1.682
417.20 1.684
417.30 1.687
417.40 1.689
417.50 1.691
417.60 1.692
417.70 1.694
417.80 1.696
417.90 1.697
418.00 1.698
418.10 1.699
418.20 1.701
418.30 1.702
418.40 1.702
418.50 1.703
418.60 1.704
418.70 1.705
418.80 1.705
418.90 1.706
419.00 1.706
419.10 1.707
419.20 1.707
419.30 1.707
419.40 1.707
419.50 1.707
419.60 1.707
419.70 1.707
419.80 1.707
419.90 1.707
420.00 1.707
420.10 1.706
420.20 1.706
420.30 1.706
420.40 1.705
420.50 1.705
420.60 1.704
420.70 1.704
420.80 1.703
420.90 1.702
421.00 1.702
421.10 1.701
421.20 1.7
421.30 1.699
421.40 1.698
421.50 1.697
421.60 1.696
421.70 1.695
421.80 1.694
421.90 1.693
422.00 1.692
422.10 1.691
422.20 1.689
422.30 1.688
422.40 1.687
422.50 1.685
422.60 1.684
422.70 1.682
422.80 1.681
422.90 1.679
423.00 1.678
423.10 1.676
423.20 1.674
423.30 1.672
423.40 1.671
423.50 1.669
423.60 1.667
423.70 1.665
423.80 1.663
423.90 1.661
424.00 1.659
424.10 1.657
424.20 1.654
424.30 1.652
424.40 1.65
424.50 1.648
424.60 1.645
424.70 1.643
424.80 1.64
424.90 1.637
425.00 1.635
425.10 1.632
425.20 1.629
425.30 1.626
425.40 1.623
425.50 1.62
425.60 1.617
425.70 1.614
425.80 1.611
425.90 1.607
426.00 1.604
426.10 1.6
426.20 1.596
426.30 1.592
426.40 1.588
426.50 1.584
426.60 1.58
426.70 1.576
426.80 1.572
426.90 1.567
427.00 1.563
427.10 1.558
427.20 1.553
427.30 1.548
427.40 1.543
427.50 1.538
427.60 1.533
427.70 1.528
427.80 1.522
427.90 1.516
428.00 1.511
428.10 1.505
428.20 1.498
428.30 1.492
428.40 1.485
428.50 1.479
428.60 1.472
428.70 1.465
428.80 1.457
428.90 1.45
429.00 1.442
429.10 1.434
429.20 1.426
429.30 1.417
429.40 1.409
429.50 1.4
429.60 1.39
429.70 1.381
429.80 1.371
429.90 1.361
430.00 1.351
430.10 1.34
430.20 1.329
430.30 1.318
430.40 1.306
430.50 1.295
430.60 1.283
430.70 1.27
430.80 1.258
430.90 1.245
431.00 1.231
431.10 1.217
431.20 1.204
431.30 1.189
431.40 1.175
431.50 1.16
431.60 1.145
431.70 1.129
431.80 1.113
431.90 1.096
432.00 1.08
432.10 1.062
432.20 1.044
432.30 1.026
432.40 1.007
432.50 0.9873
432.60 0.9668
432.70 0.9459
432.80 0.9245
432.90 0.9033
433.00 0.8824
433.10 0.8622
433.20 0.8418
433.30 0.8211
433.40 0.7982
433.50 0.7739
433.60 0.748
433.70 0.7184
433.80 0.6857
433.90 0.65
434.00 0.5764
434.10 0.5773
434.20 0.6527
434.30 0.687
434.40 0.7185
434.50 0.7472
434.60 0.772
434.70 0.7953
434.80 0.8171
434.90 0.8367
435.00 0.856
435.10 0.8751
435.20 0.8949
435.30 0.9149
435.40 0.9349
435.50 0.9545
435.60 0.9735
435.70 0.9919
435.80 1.009
435.90 1.026
436.00 1.042
436.10 1.058
436.20 1.073
436.30 1.088
436.40 1.102
436.50 1.116
436.60 1.129
436.70 1.142
436.80 1.155
436.90 1.167
437.00 1.179
437.10 1.19
437.20 1.202
437.30 1.213
437.40 1.223
437.50 1.234
437.60 1.243
437.70 1.253
437.80 1.262
437.90 1.271
438.00 1.28
438.10 1.288
438.20 1.296
438.30 1.304
438.40 1.311
438.50 1.318
438.60 1.325
438.70 1.332
438.80 1.338
438.90 1.344
439.00 1.35
439.10 1.356
439.20 1.361
439.30 1.366
439.40 1.371
439.50 1.376
439.60 1.38
439.70 1.385
439.80 1.389
439.90 1.393
440.00 1.397
440.10 1.4
440.20 1.404
440.30 1.407
440.40 1.41
440.50 1.413
440.60 1.416
440.70 1.419
440.80 1.421
440.90 1.424
441.00 1.426
441.10 1.428
441.20 1.43
441.30 1.432
441.40 1.434
441.50 1.436
441.60 1.438
441.70 1.439
441.80 1.441
441.90 1.442
442.00 1.444
442.10 1.445
442.20 1.446
442.30 1.447
442.40 1.448
442.50 1.449
442.60 1.45
442.70 1.451
442.80 1.452
442.90 1.452
443.00 1.453
443.10 1.454
443.20 1.454
443.30 1.454
443.40 1.455
443.50 1.455
443.60 1.456
443.70 1.456
443.80 1.456
443.90 1.456
444.00 1.456
444.10 1.457
444.20 1.457
444.30 1.457
444.40 1.457
444.50 1.457
444.60 1.457
444.70 1.456
444.80 1.456
444.90 1.456
445.00 1.456
445.10 1.456
445.20 1.455
445.30 1.455
445.40 1.455
445.50 1.455
445.60 1.454
445.70 1.454
445.80 1.454
445.90 1.453
446.00 1.453
446.10 1.452
446.20 1.452
446.30 1.451
446.40 1.451
446.50 1.45
446.60 1.45
446.70 1.449
446.80 1.449
446.90 1.448
447.00 1.448
447.10 1.447
447.20 1.446
447.30 1.446
447.40 1.445
447.50 1.444
447.60 1.444
447.70 1.443
447.80 1.442
447.90 1.442
448.00 1.441
448.10 1.44
448.20 1.44
448.30 1.439
448.40 1.438
448.50 1.437
448.60 1.437
448.70 1.436
448.80 1.435
448.90 1.434
449.00 1.434
449.10 1.433
449.20 1.432
449.30 1.432
449.40 1.431
449.50 1.43
449.60 1.429
449.70 1.428
449.80 1.428
449.90 1.427
450.00 1.426
450.10 1.425
450.20 1.424
450.30 1.423
450.40 1.423
450.50 1.422
450.60 1.421
450.70 1.42
450.80 1.419
450.90 1.418
451.00 1.418
451.10 1.417
451.20 1.416
451.30 1.415
451.40 1.414
451.50 1.413
451.60 1.412
451.70 1.411
451.80 1.41
451.90 1.41
452.00 1.409
452.10 1.408
452.20 1.407
452.30 1.406
452.40 1.405
452.50 1.404
452.60 1.403
452.70 1.402
452.80 1.401
452.90 1.4
453.00 1.4
453.10 1.399
453.20 1.398
453.30 1.397
453.40 1.396
453.50 1.395
453.60 1.394
