# Version 2.1 - nm, norm@500 to 1, cut digits, bergeron_85000_95.dat_85000
# Wavelength(nm)  Flambda(ergs/cm^s/s/nm)
300.00 6.769
300.10 6.76
300.20 6.752
300.30 6.743
300.40 6.735
300.50 6.726
300.60 6.718
300.70 6.71
300.80 6.701
300.90 6.693
301.00 6.685
301.10 6.676
301.20 6.668
301.30 6.66
301.40 6.651
301.50 6.643
301.60 6.635
301.70 6.627
301.80 6.618
301.90 6.61
302.00 6.602
302.10 6.594
302.20 6.586
302.30 6.578
302.40 6.569
302.50 6.561
302.60 6.553
302.70 6.545
302.80 6.537
302.90 6.529
303.00 6.521
303.10 6.513
303.20 6.505
303.30 6.497
303.40 6.489
303.50 6.481
303.60 6.473
303.70 6.465
303.80 6.457
303.90 6.449
304.00 6.441
304.10 6.433
304.20 6.425
304.30 6.417
304.40 6.409
304.50 6.401
304.60 6.393
304.70 6.385
304.80 6.378
304.90 6.37
305.00 6.362
305.10 6.354
305.20 6.346
305.30 6.338
305.40 6.331
305.50 6.323
305.60 6.315
305.70 6.307
305.80 6.3
305.90 6.292
306.00 6.284
306.10 6.277
306.20 6.269
306.30 6.261
306.40 6.253
306.50 6.246
306.60 6.238
306.70 6.231
306.80 6.223
306.90 6.215
307.00 6.208
307.10 6.2
307.20 6.193
307.30 6.185
307.40 6.177
307.50 6.17
307.60 6.162
307.70 6.155
307.80 6.147
307.90 6.14
308.00 6.132
308.10 6.125
308.20 6.118
308.30 6.11
308.40 6.103
308.50 6.095
308.60 6.088
308.70 6.08
308.80 6.073
308.90 6.066
309.00 6.058
309.10 6.051
309.20 6.044
309.30 6.036
309.40 6.029
309.50 6.022
309.60 6.014
309.70 6.007
309.80 6
309.90 5.993
310.00 5.985
310.10 5.978
310.20 5.971
310.30 5.964
310.40 5.956
310.50 5.949
310.60 5.942
310.70 5.935
310.80 5.928
310.90 5.921
311.00 5.913
311.10 5.906
311.20 5.899
311.30 5.892
311.40 5.885
311.50 5.878
311.60 5.871
311.70 5.864
311.80 5.857
311.90 5.85
312.00 5.843
312.10 5.835
312.20 5.828
312.30 5.821
312.40 5.814
312.50 5.807
312.60 5.801
312.70 5.794
312.80 5.787
312.90 5.78
313.00 5.773
313.10 5.766
313.20 5.759
313.30 5.752
313.40 5.745
313.50 5.738
313.60 5.731
313.70 5.724
313.80 5.718
313.90 5.711
314.00 5.704
314.10 5.697
314.20 5.69
314.30 5.684
314.40 5.677
314.50 5.67
314.60 5.663
314.70 5.656
314.80 5.65
314.90 5.643
315.00 5.636
315.10 5.63
315.20 5.623
315.30 5.616
315.40 5.609
315.50 5.603
315.60 5.596
315.70 5.589
315.80 5.583
315.90 5.576
316.00 5.57
316.10 5.563
316.20 5.556
316.30 5.55
316.40 5.543
316.50 5.537
316.60 5.53
316.70 5.523
316.80 5.517
316.90 5.51
317.00 5.504
317.10 5.497
317.20 5.491
317.30 5.484
317.40 5.478
317.50 5.471
317.60 5.465
317.70 5.458
317.80 5.452
317.90 5.445
318.00 5.439
318.10 5.433
318.20 5.426
318.30 5.42
318.40 5.413
318.50 5.407
318.60 5.401
318.70 5.394
318.80 5.388
318.90 5.382
319.00 5.375
319.10 5.369
319.20 5.363
319.30 5.356
319.40 5.35
319.50 5.344
319.60 5.337
319.70 5.331
319.80 5.325
319.90 5.319
320.00 5.312
320.10 5.306
320.20 5.3
320.30 5.294
320.40 5.287
320.50 5.281
320.60 5.275
320.70 5.269
320.80 5.263
320.90 5.257
321.00 5.25
321.10 5.244
321.20 5.238
321.30 5.232
321.40 5.226
321.50 5.22
321.60 5.214
321.70 5.208
321.80 5.202
321.90 5.195
322.00 5.189
322.10 5.183
322.20 5.177
322.30 5.171
322.40 5.165
322.50 5.159
322.60 5.153
322.70 5.147
322.80 5.141
322.90 5.135
323.00 5.129
323.10 5.123
323.20 5.117
323.30 5.111
323.40 5.105
323.50 5.099
323.60 5.094
323.70 5.088
323.80 5.082
323.90 5.076
324.00 5.07
324.10 5.064
324.20 5.058
324.30 5.052
324.40 5.046
324.50 5.041
324.60 5.035
324.70 5.029
324.80 5.023
324.90 5.017
325.00 5.012
325.10 5.006
325.20 5
325.30 4.994
325.40 4.988
325.50 4.983
325.60 4.977
325.70 4.971
325.80 4.965
325.90 4.96
326.00 4.954
326.10 4.948
326.20 4.942
326.30 4.937
326.40 4.931
326.50 4.925
326.60 4.92
326.70 4.914
326.80 4.908
326.90 4.903
327.00 4.897
327.10 4.891
327.20 4.886
327.30 4.88
327.40 4.875
327.50 4.869
327.60 4.863
327.70 4.858
327.80 4.852
327.90 4.847
328.00 4.841
328.10 4.836
328.20 4.83
328.30 4.825
328.40 4.819
328.50 4.814
328.60 4.808
328.70 4.803
328.80 4.797
328.90 4.792
329.00 4.786
329.10 4.781
329.20 4.775
329.30 4.77
329.40 4.764
329.50 4.759
329.60 4.753
329.70 4.748
329.80 4.742
329.90 4.737
330.00 4.732
330.10 4.726
330.20 4.721
330.30 4.716
330.40 4.71
330.50 4.705
330.60 4.7
330.70 4.694
330.80 4.689
330.90 4.684
331.00 4.678
331.10 4.673
331.20 4.668
331.30 4.662
331.40 4.657
331.50 4.652
331.60 4.646
331.70 4.641
331.80 4.636
331.90 4.631
332.00 4.625
332.10 4.62
332.20 4.615
332.30 4.61
332.40 4.604
332.50 4.599
332.60 4.594
332.70 4.589
332.80 4.584
332.90 4.578
333.00 4.573
333.10 4.568
333.20 4.563
333.30 4.558
333.40 4.553
333.50 4.547
333.60 4.542
333.70 4.537
333.80 4.532
333.90 4.527
334.00 4.522
334.10 4.517
334.20 4.512
334.30 4.507
334.40 4.502
334.50 4.496
334.60 4.491
334.70 4.486
334.80 4.481
334.90 4.476
335.00 4.471
335.10 4.466
335.20 4.461
335.30 4.456
335.40 4.451
335.50 4.446
335.60 4.441
335.70 4.436
335.80 4.431
335.90 4.426
336.00 4.421
336.10 4.416
336.20 4.411
336.30 4.406
336.40 4.402
336.50 4.397
336.60 4.392
336.70 4.387
336.80 4.382
336.90 4.377
337.00 4.372
337.10 4.367
337.20 4.362
337.30 4.357
337.40 4.353
337.50 4.348
337.60 4.343
337.70 4.338
337.80 4.333
337.90 4.328
338.00 4.323
338.10 4.319
338.20 4.314
338.30 4.309
338.40 4.304
338.50 4.3
338.60 4.295
338.70 4.29
338.80 4.285
338.90 4.28
339.00 4.276
339.10 4.271
339.20 4.266
339.30 4.261
339.40 4.257
339.50 4.252
339.60 4.247
339.70 4.243
339.80 4.238
339.90 4.233
340.00 4.228
340.10 4.224
340.20 4.219
340.30 4.214
340.40 4.21
340.50 4.205
340.60 4.2
340.70 4.196
340.80 4.191
340.90 4.187
341.00 4.182
341.10 4.177
341.20 4.173
341.30 4.168
341.40 4.163
341.50 4.159
341.60 4.154
341.70 4.15
341.80 4.145
341.90 4.141
342.00 4.136
342.10 4.131
342.20 4.127
342.30 4.122
342.40 4.118
342.50 4.113
342.60 4.109
342.70 4.104
342.80 4.1
342.90 4.095
343.00 4.091
343.10 4.086
343.20 4.082
343.30 4.077
343.40 4.073
343.50 4.068
343.60 4.064
343.70 4.059
343.80 4.055
343.90 4.05
344.00 4.046
344.10 4.042
344.20 4.037
344.30 4.033
344.40 4.028
344.50 4.024
344.60 4.02
344.70 4.015
344.80 4.011
344.90 4.006
345.00 4.002
345.10 3.998
345.20 3.993
345.30 3.989
345.40 3.985
345.50 3.98
345.60 3.976
345.70 3.971
345.80 3.967
345.90 3.963
346.00 3.958
346.10 3.954
346.20 3.95
346.30 3.946
346.40 3.941
346.50 3.937
346.60 3.933
346.70 3.928
346.80 3.924
346.90 3.92
347.00 3.916
347.10 3.911
347.20 3.907
347.30 3.903
347.40 3.899
347.50 3.894
347.60 3.89
347.70 3.886
347.80 3.882
347.90 3.878
348.00 3.873
348.10 3.869
348.20 3.865
348.30 3.861
348.40 3.857
348.50 3.852
348.60 3.848
348.70 3.844
348.80 3.84
348.90 3.836
349.00 3.832
349.10 3.828
349.20 3.823
349.30 3.819
349.40 3.815
349.50 3.811
349.60 3.807
349.70 3.803
349.80 3.799
349.90 3.795
350.00 3.79
350.10 3.786
350.20 3.782
350.30 3.778
350.40 3.774
350.50 3.77
350.60 3.766
350.70 3.762
350.80 3.758
350.90 3.754
351.00 3.75
351.10 3.746
351.20 3.742
351.30 3.738
351.40 3.734
351.50 3.73
351.60 3.726
351.70 3.722
351.80 3.718
351.90 3.714
352.00 3.71
352.10 3.706
352.20 3.702
352.30 3.698
352.40 3.694
352.50 3.69
352.60 3.686
352.70 3.682
352.80 3.678
352.90 3.674
353.00 3.67
353.10 3.666
353.20 3.663
353.30 3.659
353.40 3.655
353.50 3.651
353.60 3.647
353.70 3.643
353.80 3.639
353.90 3.635
354.00 3.631
354.10 3.627
354.20 3.624
354.30 3.62
354.40 3.616
354.50 3.612
354.60 3.608
354.70 3.604
354.80 3.601
354.90 3.597
355.00 3.593
355.10 3.589
355.20 3.585
355.30 3.581
355.40 3.578
355.50 3.574
355.60 3.57
355.70 3.566
355.80 3.562
355.90 3.559
356.00 3.555
356.10 3.551
356.20 3.547
356.30 3.544
356.40 3.54
356.50 3.536
356.60 3.532
356.70 3.529
356.80 3.525
356.90 3.521
357.00 3.517
357.10 3.514
357.20 3.51
357.30 3.506
357.40 3.503
357.50 3.499
357.60 3.495
357.70 3.491
357.80 3.488
357.90 3.484
358.00 3.48
358.10 3.477
358.20 3.473
358.30 3.469
358.40 3.466
358.50 3.462
358.60 3.459
358.70 3.455
358.80 3.451
358.90 3.448
359.00 3.444
359.10 3.44
359.20 3.437
359.30 3.433
359.40 3.43
359.50 3.426
359.60 3.422
359.70 3.419
359.80 3.415
359.90 3.412
360.00 3.408
360.10 3.404
360.20 3.401
360.30 3.397
360.40 3.394
360.50 3.39
360.60 3.387
360.70 3.383
360.80 3.38
360.90 3.376
361.00 3.372
361.10 3.369
361.20 3.365
361.30 3.362
361.40 3.358
361.50 3.355
361.60 3.351
361.70 3.348
361.80 3.344
361.90 3.341
362.00 3.337
362.10 3.334
362.20 3.33
362.30 3.327
362.40 3.323
362.50 3.32
362.60 3.316
362.70 3.313
362.80 3.31
362.90 3.306
363.00 3.303
363.10 3.299
363.20 3.296
363.30 3.292
363.40 3.289
363.50 3.286
363.60 3.282
363.70 3.279
363.80 3.275
363.90 3.272
364.00 3.269
364.10 3.265
364.20 3.262
364.30 3.258
364.40 3.255
364.50 3.252
364.60 3.248
364.70 3.245
364.80 3.242
364.90 3.238
365.00 3.235
365.10 3.231
365.20 3.228
365.30 3.225
365.40 3.221
365.50 3.218
365.60 3.215
365.70 3.211
365.80 3.208
365.90 3.205
366.00 3.202
366.10 3.198
366.20 3.195
366.30 3.192
366.40 3.188
366.50 3.185
366.60 3.182
366.70 3.178
366.80 3.175
366.90 3.172
367.00 3.169
367.10 3.165
367.20 3.162
367.30 3.159
367.40 3.156
367.50 3.152
367.60 3.149
367.70 3.146
367.80 3.142
367.90 3.139
368.00 3.136
368.10 3.133
368.20 3.129
368.30 3.126
368.40 3.123
368.50 3.12
368.60 3.116
368.70 3.113
368.80 3.11
368.90 3.107
369.00 3.103
369.10 3.1
369.20 3.097
369.30 3.093
369.40 3.09
369.50 3.087
369.60 3.084
369.70 3.081
369.80 3.077
369.90 3.074
370.00 3.071
370.10 3.068
370.20 3.064
370.30 3.061
370.40 3.058
370.50 3.055
370.60 3.052
370.70 3.048
370.80 3.045
370.90 3.042
371.00 3.039
371.10 3.035
371.20 3.032
371.30 3.029
371.40 3.026
371.50 3.023
371.60 3.02
371.70 3.016
371.80 3.013
371.90 3.01
372.00 3.007
372.10 3.004
372.20 3.001
372.30 2.998
372.40 2.995
372.50 2.992
372.60 2.989
372.70 2.986
372.80 2.983
372.90 2.98
373.00 2.977
373.10 2.974
373.20 2.971
373.30 2.968
373.40 2.965
373.50 2.962
373.60 2.959
373.70 2.956
373.80 2.954
373.90 2.951
374.00 2.948
374.10 2.945
374.20 2.942
374.30 2.938
374.40 2.935
374.50 2.932
374.60 2.929
374.70 2.926
374.80 2.923
374.90 2.92
375.00 2.917
375.10 2.914
375.20 2.911
375.30 2.908
375.40 2.905
375.50 2.902
375.60 2.899
375.70 2.896
375.80 2.893
375.90 2.89
376.00 2.887
376.10 2.884
376.20 2.881
376.30 2.878
376.40 2.875
376.50 2.872
376.60 2.869
376.70 2.866
376.80 2.863
376.90 2.86
377.00 2.857
377.10 2.854
377.20 2.851
377.30 2.848
377.40 2.846
377.50 2.843
377.60 2.84
377.70 2.837
377.80 2.834
377.90 2.831
378.00 2.828
378.10 2.825
378.20 2.823
378.30 2.82
378.40 2.817
378.50 2.814
378.60 2.811
378.70 2.808
378.80 2.806
378.90 2.803
379.00 2.8
379.10 2.797
379.20 2.794
379.30 2.791
379.40 2.788
379.50 2.786
379.60 2.783
379.70 2.78
379.80 2.777
379.90 2.774
380.00 2.772
380.10 2.769
380.20 2.766
380.30 2.763
380.40 2.76
380.50 2.758
380.60 2.755
380.70 2.752
380.80 2.749
380.90 2.747
381.00 2.744
381.10 2.741
381.20 2.738
381.30 2.736
381.40 2.733
381.50 2.73
381.60 2.727
381.70 2.725
381.80 2.722
381.90 2.719
382.00 2.717
382.10 2.714
382.20 2.711
382.30 2.708
382.40 2.706
382.50 2.703
382.60 2.7
382.70 2.698
382.80 2.695
382.90 2.692
383.00 2.69
383.10 2.687
383.20 2.684
383.30 2.682
383.40 2.679
383.50 2.676
383.60 2.674
383.70 2.671
383.80 2.668
383.90 2.666
384.00 2.663
384.10 2.661
384.20 2.658
384.30 2.655
384.40 2.653
384.50 2.65
384.60 2.648
384.70 2.645
384.80 2.642
384.90 2.64
385.00 2.637
385.10 2.635
385.20 2.632
385.30 2.629
385.40 2.627
385.50 2.624
385.60 2.622
385.70 2.619
385.80 2.617
385.90 2.614
386.00 2.612
386.10 2.609
386.20 2.607
386.30 2.604
386.40 2.601
386.50 2.599
386.60 2.596
386.70 2.594
386.80 2.591
386.90 2.589
387.00 2.586
387.10 2.584
387.20 2.581
387.30 2.579
387.40 2.576
387.50 2.574
387.60 2.571
387.70 2.569
387.80 2.566
387.90 2.564
388.00 2.561
388.10 2.559
388.20 2.557
388.30 2.554
388.40 2.552
388.50 2.549
388.60 2.547
388.70 2.544
388.80 2.542
388.90 2.54
389.00 2.537
389.10 2.535
389.20 2.532
389.30 2.53
389.40 2.528
389.50 2.525
389.60 2.523
389.70 2.52
389.80 2.518
389.90 2.516
390.00 2.513
390.10 2.511
390.20 2.509
390.30 2.506
390.40 2.504
390.50 2.501
390.60 2.499
390.70 2.497
390.80 2.494
390.90 2.492
391.00 2.49
391.10 2.487
391.20 2.485
391.30 2.483
391.40 2.48
391.50 2.478
391.60 2.476
391.70 2.473
391.80 2.471
391.90 2.469
392.00 2.466
392.10 2.464
392.20 2.462
392.30 2.46
392.40 2.457
392.50 2.455
392.60 2.453
392.70 2.45
392.80 2.448
392.90 2.446
393.00 2.443
393.10 2.441
393.20 2.439
393.30 2.436
393.40 2.434
393.50 2.432
393.60 2.429
393.70 2.427
393.80 2.425
393.90 2.422
394.00 2.42
394.10 2.418
394.20 2.415
394.30 2.413
394.40 2.411
394.50 2.408
394.60 2.406
394.70 2.404
394.80 2.401
394.90 2.399
395.00 2.397
395.10 2.394
395.20 2.392
395.30 2.39
395.40 2.387
395.50 2.385
395.60 2.383
395.70 2.381
395.80 2.378
395.90 2.376
396.00 2.374
396.10 2.371
396.20 2.369
396.30 2.367
396.40 2.365
396.50 2.362
396.60 2.36
396.70 2.358
396.80 2.356
396.90 2.354
397.00 2.351
397.10 2.349
397.20 2.347
397.30 2.345
397.40 2.343
397.50 2.341
397.60 2.339
397.70 2.337
397.80 2.335
397.90 2.333
398.00 2.331
398.10 2.329
398.20 2.327
398.30 2.325
398.40 2.323
398.50 2.322
398.60 2.32
398.70 2.318
398.80 2.316
398.90 2.314
399.00 2.312
399.10 2.31
399.20 2.308
399.30 2.306
399.40 2.304
399.50 2.302
399.60 2.3
399.70 2.298
399.80 2.296
399.90 2.294
400.00 2.292
400.10 2.29
400.20 2.288
400.30 2.286
400.40 2.284
400.50 2.282
400.60 2.28
400.70 2.278
400.80 2.276
400.90 2.274
401.00 2.272
401.10 2.27
401.20 2.268
401.30 2.266
401.40 2.264
401.50 2.262
401.60 2.26
401.70 2.258
401.80 2.256
401.90 2.254
402.00 2.252
402.10 2.25
402.20 2.247
402.30 2.245
402.40 2.243
402.50 2.241
402.60 2.239
402.70 2.237
402.80 2.235
402.90 2.233
403.00 2.23
403.10 2.228
403.20 2.226
403.30 2.224
403.40 2.222
403.50 2.22
403.60 2.217
403.70 2.215
403.80 2.213
403.90 2.211
404.00 2.209
404.10 2.206
404.20 2.204
404.30 2.202
404.40 2.2
404.50 2.197
404.60 2.195
404.70 2.193
404.80 2.19
404.90 2.188
405.00 2.186
405.10 2.183
405.20 2.181
405.30 2.179
405.40 2.177
405.50 2.174
405.60 2.172
405.70 2.169
405.80 2.167
405.90 2.165
406.00 2.162
406.10 2.16
406.20 2.158
406.30 2.155
406.40 2.153
406.50 2.15
406.60 2.148
406.70 2.145
406.80 2.143
406.90 2.141
407.00 2.138
407.10 2.136
407.20 2.133
407.30 2.131
407.40 2.128
407.50 2.126
407.60 2.123
407.70 2.121
407.80 2.118
407.90 2.116
408.00 2.114
408.10 2.111
408.20 2.109
408.30 2.106
408.40 2.104
408.50 2.101
408.60 2.099
408.70 2.097
408.80 2.094
408.90 2.092
409.00 2.09
409.10 2.087
409.20 2.085
409.30 2.083
409.40 2.081
409.50 2.079
409.60 2.077
409.70 2.075
409.80 2.073
409.90 2.072
410.00 2.07
410.10 2.069
410.20 2.067
410.30 2.065
410.40 2.063
410.50 2.061
410.60 2.059
410.70 2.057
410.80 2.056
410.90 2.054
411.00 2.053
411.10 2.051
411.20 2.05
411.30 2.049
411.40 2.047
411.50 2.046
411.60 2.045
411.70 2.044
411.80 2.042
411.90 2.041
412.00 2.04
412.10 2.039
412.20 2.038
412.30 2.037
412.40 2.035
412.50 2.034
412.60 2.033
412.70 2.032
412.80 2.031
412.90 2.03
413.00 2.029
413.10 2.027
413.20 2.026
413.30 2.025
413.40 2.024
413.50 2.023
413.60 2.022
413.70 2.02
413.80 2.019
413.90 2.018
414.00 2.017
414.10 2.016
414.20 2.014
414.30 2.013
414.40 2.012
414.50 2.011
414.60 2.01
414.70 2.008
414.80 2.007
414.90 2.006
415.00 2.004
415.10 2.003
415.20 2.002
415.30 2.001
415.40 1.999
415.50 1.998
415.60 1.997
415.70 1.995
415.80 1.994
415.90 1.993
416.00 1.991
416.10 1.99
416.20 1.988
416.30 1.987
416.40 1.986
416.50 1.984
416.60 1.983
416.70 1.981
416.80 1.98
416.90 1.978
417.00 1.977
417.10 1.976
417.20 1.974
417.30 1.973
417.40 1.971
417.50 1.97
417.60 1.968
417.70 1.967
417.80 1.965
417.90 1.964
418.00 1.962
418.10 1.961
418.20 1.959
418.30 1.957
418.40 1.956
418.50 1.954
418.60 1.953
418.70 1.951
418.80 1.95
418.90 1.948
419.00 1.946
419.10 1.945
419.20 1.943
419.30 1.942
419.40 1.94
419.50 1.938
419.60 1.937
419.70 1.935
419.80 1.933
419.90 1.932
420.00 1.93
420.10 1.928
420.20 1.927
420.30 1.925
420.40 1.923
420.50 1.922
420.60 1.92
420.70 1.918
420.80 1.917
420.90 1.915
421.00 1.913
421.10 1.911
421.20 1.91
421.30 1.908
421.40 1.906
421.50 1.904
421.60 1.903
421.70 1.901
421.80 1.899
421.90 1.897
422.00 1.895
422.10 1.894
422.20 1.892
422.30 1.89
422.40 1.888
422.50 1.886
422.60 1.885
422.70 1.883
422.80 1.881
422.90 1.879
423.00 1.877
423.10 1.875
423.20 1.873
423.30 1.871
423.40 1.87
423.50 1.868
423.60 1.866
423.70 1.864
423.80 1.862
423.90 1.86
424.00 1.858
424.10 1.856
424.20 1.854
424.30 1.852
424.40 1.85
424.50 1.848
424.60 1.846
424.70 1.844
424.80 1.842
424.90 1.84
425.00 1.838
425.10 1.836
425.20 1.834
425.30 1.832
425.40 1.83
425.50 1.827
425.60 1.825
425.70 1.823
425.80 1.821
425.90 1.819
426.00 1.817
426.10 1.815
426.20 1.812
426.30 1.81
426.40 1.808
426.50 1.806
426.60 1.804
426.70 1.801
426.80 1.799
426.90 1.797
427.00 1.795
427.10 1.792
427.20 1.79
427.30 1.788
427.40 1.785
427.50 1.783
427.60 1.781
427.70 1.778
427.80 1.776
427.90 1.773
428.00 1.771
428.10 1.769
428.20 1.766
428.30 1.764
428.40 1.761
428.50 1.759
428.60 1.756
428.70 1.754
428.80 1.751
428.90 1.748
429.00 1.746
429.10 1.743
429.20 1.741
429.30 1.738
429.40 1.735
429.50 1.733
429.60 1.73
429.70 1.727
429.80 1.725
429.90 1.722
430.00 1.719
430.10 1.716
430.20 1.713
430.30 1.711
430.40 1.708
430.50 1.705
430.60 1.702
430.70 1.699
430.80 1.696
430.90 1.694
431.00 1.691
431.10 1.688
431.20 1.685
431.30 1.682
431.40 1.679
431.50 1.676
431.60 1.673
431.70 1.67
431.80 1.667
431.90 1.664
432.00 1.661
432.10 1.658
432.20 1.655
432.30 1.652
432.40 1.648
432.50 1.645
432.60 1.642
432.70 1.639
432.80 1.636
432.90 1.633
433.00 1.629
433.10 1.626
433.20 1.622
433.30 1.619
433.40 1.615
433.50 1.612
433.60 1.608
433.70 1.604
433.80 1.599
433.90 1.595
434.00 1.592
434.10 1.591
434.20 1.592
434.30 1.594
434.40 1.596
434.50 1.597
434.60 1.598
434.70 1.599
434.80 1.6
434.90 1.601
435.00 1.602
435.10 1.602
435.20 1.603
435.30 1.603
435.40 1.604
435.50 1.604
435.60 1.605
435.70 1.605
435.80 1.605
435.90 1.606
436.00 1.606
436.10 1.606
436.20 1.606
436.30 1.607
436.40 1.607
436.50 1.607
436.60 1.607
436.70 1.607
436.80 1.608
436.90 1.608
437.00 1.608
437.10 1.608
437.20 1.608
437.30 1.608
437.40 1.608
437.50 1.608
437.60 1.608
437.70 1.608
437.80 1.608
437.90 1.608
438.00 1.608
438.10 1.608
438.20 1.607
438.30 1.607
438.40 1.607
438.50 1.607
438.60 1.607
438.70 1.606
438.80 1.606
438.90 1.606
439.00 1.606
439.10 1.605
439.20 1.605
439.30 1.605
439.40 1.604
439.50 1.604
439.60 1.603
439.70 1.603
439.80 1.603
439.90 1.602
440.00 1.602
440.10 1.601
440.20 1.601
440.30 1.6
440.40 1.599
440.50 1.599
440.60 1.598
440.70 1.598
440.80 1.597
440.90 1.597
441.00 1.596
441.10 1.595
441.20 1.595
441.30 1.594
441.40 1.593
441.50 1.592
441.60 1.592
441.70 1.591
441.80 1.59
441.90 1.589
442.00 1.589
442.10 1.588
442.20 1.587
442.30 1.586
442.40 1.585
442.50 1.585
442.60 1.584
442.70 1.583
442.80 1.582
442.90 1.581
443.00 1.58
443.10 1.579
443.20 1.579
443.30 1.578
443.40 1.577
443.50 1.576
443.60 1.575
443.70 1.574
443.80 1.573
443.90 1.572
444.00 1.571
444.10 1.57
444.20 1.569
444.30 1.568
444.40 1.567
444.50 1.566
444.60 1.565
444.70 1.564
444.80 1.563
444.90 1.562
445.00 1.561
445.10 1.56
445.20 1.559
445.30 1.558
445.40 1.557
445.50 1.556
445.60 1.555
445.70 1.554
445.80 1.553
445.90 1.552
446.00 1.55
446.10 1.549
446.20 1.548
446.30 1.547
446.40 1.546
446.50 1.545
446.60 1.544
446.70 1.543
446.80 1.542
446.90 1.541
447.00 1.539
447.10 1.538
447.20 1.537
447.30 1.536
447.40 1.535
447.50 1.534
447.60 1.533
447.70 1.532
447.80 1.53
447.90 1.529
448.00 1.528
448.10 1.527
448.20 1.526
448.30 1.525
448.40 1.523
448.50 1.522
448.60 1.521
448.70 1.52
448.80 1.519
448.90 1.518
449.00 1.517
449.10 1.515
449.20 1.514
449.30 1.513
449.40 1.512
449.50 1.511
449.60 1.509
449.70 1.508
449.80 1.507
449.90 1.506
450.00 1.505
450.10 1.504
450.20 1.502
450.30 1.501
450.40 1.5
450.50 1.499
450.60 1.498
450.70 1.496
450.80 1.495
450.90 1.494
451.00 1.493
451.10 1.492
451.20 1.491
451.30 1.489
451.40 1.488
451.50 1.487
451.60 1.486
451.70 1.485
451.80 1.483
451.90 1.482
452.00 1.481
452.10 1.48
452.20 1.479
452.30 1.477
452.40 1.476
452.50 1.475
452.60 1.474
452.70 1.473
452.80 1.471
452.90 1.47
453.00 1.469
453.10 1.468
453.20 1.467
453.30 1.465
453.40 1.464
453.50 1.463
453.60 1.462
453.70 1.461
453.80 1.459
453.90 1.458
454.00 1.457
454.10 1.456
