# Version 2.1 - nm, norm@500 to 1, cut digits, bergeron_110000_90.dat_110000
# Wavelength(nm)  Flambda(ergs/cm^s/s/nm)
300.00 6.922
300.10 6.913
300.20 6.904
300.30 6.895
300.40 6.887
300.50 6.878
300.60 6.869
300.70 6.861
300.80 6.852
300.90 6.844
301.00 6.835
301.10 6.826
301.20 6.818
301.30 6.809
301.40 6.801
301.50 6.792
301.60 6.783
301.70 6.775
301.80 6.766
301.90 6.758
302.00 6.749
302.10 6.741
302.20 6.733
302.30 6.724
302.40 6.716
302.50 6.707
302.60 6.699
302.70 6.691
302.80 6.682
302.90 6.674
303.00 6.665
303.10 6.657
303.20 6.649
303.30 6.641
303.40 6.632
303.50 6.624
303.60 6.616
303.70 6.607
303.80 6.599
303.90 6.591
304.00 6.583
304.10 6.575
304.20 6.566
304.30 6.558
304.40 6.55
304.50 6.542
304.60 6.534
304.70 6.526
304.80 6.517
304.90 6.509
305.00 6.501
305.10 6.493
305.20 6.485
305.30 6.477
305.40 6.469
305.50 6.461
305.60 6.453
305.70 6.445
305.80 6.437
305.90 6.429
306.00 6.421
306.10 6.413
306.20 6.405
306.30 6.397
306.40 6.389
306.50 6.381
306.60 6.374
306.70 6.366
306.80 6.358
306.90 6.35
307.00 6.342
307.10 6.334
307.20 6.326
307.30 6.319
307.40 6.311
307.50 6.303
307.60 6.295
307.70 6.288
307.80 6.28
307.90 6.272
308.00 6.264
308.10 6.257
308.20 6.249
308.30 6.241
308.40 6.234
308.50 6.226
308.60 6.218
308.70 6.211
308.80 6.203
308.90 6.195
309.00 6.188
309.10 6.18
309.20 6.173
309.30 6.165
309.40 6.158
309.50 6.15
309.60 6.142
309.70 6.135
309.80 6.127
309.90 6.12
310.00 6.112
310.10 6.105
310.20 6.098
310.30 6.09
310.40 6.083
310.50 6.075
310.60 6.068
310.70 6.06
310.80 6.053
310.90 6.046
311.00 6.038
311.10 6.031
311.20 6.024
311.30 6.016
311.40 6.009
311.50 6.002
311.60 5.994
311.70 5.987
311.80 5.98
311.90 5.972
312.00 5.965
312.10 5.958
312.20 5.951
312.30 5.943
312.40 5.936
312.50 5.929
312.60 5.922
312.70 5.915
312.80 5.907
312.90 5.9
313.00 5.893
313.10 5.886
313.20 5.879
313.30 5.872
313.40 5.865
313.50 5.858
313.60 5.85
313.70 5.843
313.80 5.836
313.90 5.829
314.00 5.822
314.10 5.815
314.20 5.808
314.30 5.801
314.40 5.794
314.50 5.787
314.60 5.78
314.70 5.773
314.80 5.766
314.90 5.759
315.00 5.752
315.10 5.745
315.20 5.739
315.30 5.732
315.40 5.725
315.50 5.718
315.60 5.711
315.70 5.704
315.80 5.697
315.90 5.69
316.00 5.684
316.10 5.677
316.20 5.67
316.30 5.663
316.40 5.656
316.50 5.65
316.60 5.643
316.70 5.636
316.80 5.629
316.90 5.623
317.00 5.616
317.10 5.609
317.20 5.602
317.30 5.596
317.40 5.589
317.50 5.582
317.60 5.576
317.70 5.569
317.80 5.562
317.90 5.556
318.00 5.549
318.10 5.542
318.20 5.536
318.30 5.529
318.40 5.523
318.50 5.516
318.60 5.509
318.70 5.503
318.80 5.496
318.90 5.49
319.00 5.483
319.10 5.477
319.20 5.47
319.30 5.464
319.40 5.457
319.50 5.451
319.60 5.444
319.70 5.438
319.80 5.431
319.90 5.425
320.00 5.418
320.10 5.412
320.20 5.406
320.30 5.399
320.40 5.393
320.50 5.386
320.60 5.38
320.70 5.374
320.80 5.367
320.90 5.361
321.00 5.355
321.10 5.348
321.20 5.342
321.30 5.336
321.40 5.329
321.50 5.323
321.60 5.317
321.70 5.311
321.80 5.304
321.90 5.298
322.00 5.292
322.10 5.285
322.20 5.279
322.30 5.273
322.40 5.267
322.50 5.261
322.60 5.254
322.70 5.248
322.80 5.242
322.90 5.236
323.00 5.23
323.10 5.224
323.20 5.217
323.30 5.211
323.40 5.205
323.50 5.199
323.60 5.193
323.70 5.187
323.80 5.181
323.90 5.175
324.00 5.169
324.10 5.163
324.20 5.157
324.30 5.151
324.40 5.145
324.50 5.138
324.60 5.132
324.70 5.126
324.80 5.12
324.90 5.115
325.00 5.109
325.10 5.103
325.20 5.097
325.30 5.091
325.40 5.085
325.50 5.079
325.60 5.073
325.70 5.067
325.80 5.061
325.90 5.055
326.00 5.049
326.10 5.043
326.20 5.037
326.30 5.032
326.40 5.026
326.50 5.02
326.60 5.014
326.70 5.008
326.80 5.002
326.90 4.997
327.00 4.991
327.10 4.985
327.20 4.979
327.30 4.973
327.40 4.968
327.50 4.962
327.60 4.956
327.70 4.95
327.80 4.945
327.90 4.939
328.00 4.933
328.10 4.927
328.20 4.922
328.30 4.916
328.40 4.91
328.50 4.905
328.60 4.899
328.70 4.893
328.80 4.888
328.90 4.882
329.00 4.876
329.10 4.871
329.20 4.865
329.30 4.86
329.40 4.854
329.50 4.848
329.60 4.843
329.70 4.837
329.80 4.832
329.90 4.826
330.00 4.82
330.10 4.815
330.20 4.809
330.30 4.804
330.40 4.798
330.50 4.793
330.60 4.787
330.70 4.782
330.80 4.776
330.90 4.771
331.00 4.765
331.10 4.76
331.20 4.755
331.30 4.749
331.40 4.744
331.50 4.738
331.60 4.733
331.70 4.727
331.80 4.722
331.90 4.716
332.00 4.711
332.10 4.706
332.20 4.7
332.30 4.695
332.40 4.69
332.50 4.684
332.60 4.679
332.70 4.673
332.80 4.668
332.90 4.663
333.00 4.658
333.10 4.652
333.20 4.647
333.30 4.642
333.40 4.636
333.50 4.631
333.60 4.626
333.70 4.62
333.80 4.615
333.90 4.61
334.00 4.605
334.10 4.599
334.20 4.594
334.30 4.589
334.40 4.584
334.50 4.579
334.60 4.573
334.70 4.568
334.80 4.563
334.90 4.558
335.00 4.553
335.10 4.547
335.20 4.542
335.30 4.537
335.40 4.532
335.50 4.527
335.60 4.522
335.70 4.517
335.80 4.511
335.90 4.506
336.00 4.501
336.10 4.496
336.20 4.491
336.30 4.486
336.40 4.481
336.50 4.476
336.60 4.471
336.70 4.466
336.80 4.461
336.90 4.456
337.00 4.451
337.10 4.446
337.20 4.441
337.30 4.436
337.40 4.431
337.50 4.426
337.60 4.421
337.70 4.416
337.80 4.411
337.90 4.406
338.00 4.401
338.10 4.396
338.20 4.391
338.30 4.386
338.40 4.381
338.50 4.376
338.60 4.371
338.70 4.366
338.80 4.361
338.90 4.356
339.00 4.352
339.10 4.347
339.20 4.342
339.30 4.337
339.40 4.332
339.50 4.327
339.60 4.322
339.70 4.317
339.80 4.313
339.90 4.308
340.00 4.303
340.10 4.298
340.20 4.293
340.30 4.289
340.40 4.284
340.50 4.279
340.60 4.274
340.70 4.269
340.80 4.265
340.90 4.26
341.00 4.255
341.10 4.25
341.20 4.246
341.30 4.241
341.40 4.236
341.50 4.232
341.60 4.227
341.70 4.222
341.80 4.217
341.90 4.213
342.00 4.208
342.10 4.203
342.20 4.199
342.30 4.194
342.40 4.189
342.50 4.185
342.60 4.18
342.70 4.175
342.80 4.171
342.90 4.166
343.00 4.162
343.10 4.157
343.20 4.152
343.30 4.148
343.40 4.143
343.50 4.138
343.60 4.134
343.70 4.129
343.80 4.125
343.90 4.12
344.00 4.116
344.10 4.111
344.20 4.106
344.30 4.102
344.40 4.097
344.50 4.093
344.60 4.088
344.70 4.084
344.80 4.079
344.90 4.075
345.00 4.07
345.10 4.066
345.20 4.061
345.30 4.057
345.40 4.052
345.50 4.048
345.60 4.044
345.70 4.039
345.80 4.035
345.90 4.03
346.00 4.026
346.10 4.021
346.20 4.017
346.30 4.012
346.40 4.008
346.50 4.004
346.60 3.999
346.70 3.995
346.80 3.991
346.90 3.986
347.00 3.982
347.10 3.977
347.20 3.973
347.30 3.969
347.40 3.964
347.50 3.96
347.60 3.956
347.70 3.951
347.80 3.947
347.90 3.943
348.00 3.938
348.10 3.934
348.20 3.93
348.30 3.925
348.40 3.921
348.50 3.917
348.60 3.913
348.70 3.908
348.80 3.904
348.90 3.9
349.00 3.896
349.10 3.891
349.20 3.887
349.30 3.883
349.40 3.879
349.50 3.874
349.60 3.87
349.70 3.866
349.80 3.862
349.90 3.857
350.00 3.853
350.10 3.849
350.20 3.845
350.30 3.841
350.40 3.837
350.50 3.832
350.60 3.828
350.70 3.824
350.80 3.82
350.90 3.816
351.00 3.812
351.10 3.808
351.20 3.803
351.30 3.799
351.40 3.795
351.50 3.791
351.60 3.787
351.70 3.783
351.80 3.779
351.90 3.775
352.00 3.77
352.10 3.766
352.20 3.762
352.30 3.758
352.40 3.754
352.50 3.75
352.60 3.746
352.70 3.742
352.80 3.738
352.90 3.734
353.00 3.73
353.10 3.726
353.20 3.722
353.30 3.718
353.40 3.714
353.50 3.71
353.60 3.706
353.70 3.702
353.80 3.698
353.90 3.694
354.00 3.69
354.10 3.686
354.20 3.682
354.30 3.678
354.40 3.674
354.50 3.67
354.60 3.666
354.70 3.662
354.80 3.658
354.90 3.654
355.00 3.651
355.10 3.647
355.20 3.643
355.30 3.639
355.40 3.635
355.50 3.631
355.60 3.627
355.70 3.623
355.80 3.619
355.90 3.615
356.00 3.612
356.10 3.608
356.20 3.604
356.30 3.6
356.40 3.596
356.50 3.592
356.60 3.588
356.70 3.585
356.80 3.581
356.90 3.577
357.00 3.573
357.10 3.569
357.20 3.566
357.30 3.562
357.40 3.558
357.50 3.554
357.60 3.55
357.70 3.547
357.80 3.543
357.90 3.539
358.00 3.535
358.10 3.531
358.20 3.528
358.30 3.524
358.40 3.52
358.50 3.516
358.60 3.513
358.70 3.509
358.80 3.505
358.90 3.502
359.00 3.498
359.10 3.494
359.20 3.49
359.30 3.487
359.40 3.483
359.50 3.479
359.60 3.476
359.70 3.472
359.80 3.468
359.90 3.465
360.00 3.461
360.10 3.457
360.20 3.454
360.30 3.45
360.40 3.446
360.50 3.443
360.60 3.439
360.70 3.435
360.80 3.432
360.90 3.428
361.00 3.425
361.10 3.421
361.20 3.417
361.30 3.414
361.40 3.41
361.50 3.406
361.60 3.403
361.70 3.399
361.80 3.396
361.90 3.392
362.00 3.389
362.10 3.385
362.20 3.381
362.30 3.378
362.40 3.374
362.50 3.371
362.60 3.367
362.70 3.364
362.80 3.36
362.90 3.357
363.00 3.353
363.10 3.35
363.20 3.346
363.30 3.343
363.40 3.339
363.50 3.336
363.60 3.332
363.70 3.329
363.80 3.325
363.90 3.322
364.00 3.318
364.10 3.315
364.20 3.311
364.30 3.308
364.40 3.304
364.50 3.301
364.60 3.297
364.70 3.294
364.80 3.29
364.90 3.287
365.00 3.284
365.10 3.28
365.20 3.277
365.30 3.273
365.40 3.27
365.50 3.266
365.60 3.263
365.70 3.26
365.80 3.256
365.90 3.253
366.00 3.249
366.10 3.246
366.20 3.243
366.30 3.239
366.40 3.236
366.50 3.232
366.60 3.229
366.70 3.226
366.80 3.222
366.90 3.219
367.00 3.216
367.10 3.212
367.20 3.209
367.30 3.206
367.40 3.202
367.50 3.199
367.60 3.196
367.70 3.192
367.80 3.189
367.90 3.186
368.00 3.182
368.10 3.179
368.20 3.176
368.30 3.172
368.40 3.169
368.50 3.166
368.60 3.162
368.70 3.159
368.80 3.156
368.90 3.152
369.00 3.149
369.10 3.146
369.20 3.142
369.30 3.139
369.40 3.136
369.50 3.132
369.60 3.129
369.70 3.126
369.80 3.122
369.90 3.119
370.00 3.116
370.10 3.113
370.20 3.109
370.30 3.106
370.40 3.103
370.50 3.1
370.60 3.096
370.70 3.093
370.80 3.09
370.90 3.087
371.00 3.083
371.10 3.08
371.20 3.077
371.30 3.074
371.40 3.07
371.50 3.067
371.60 3.064
371.70 3.061
371.80 3.058
371.90 3.054
372.00 3.051
372.10 3.048
372.20 3.045
372.30 3.042
372.40 3.039
372.50 3.036
372.60 3.033
372.70 3.03
372.80 3.027
372.90 3.023
373.00 3.02
373.10 3.017
373.20 3.014
373.30 3.011
373.40 3.008
373.50 3.005
373.60 3.002
373.70 2.999
373.80 2.996
373.90 2.993
374.00 2.99
374.10 2.987
374.20 2.984
374.30 2.981
374.40 2.977
374.50 2.974
374.60 2.971
374.70 2.968
374.80 2.965
374.90 2.962
375.00 2.959
375.10 2.956
375.20 2.953
375.30 2.95
375.40 2.947
375.50 2.944
375.60 2.941
375.70 2.937
375.80 2.934
375.90 2.931
376.00 2.928
376.10 2.925
376.20 2.922
376.30 2.919
376.40 2.916
376.50 2.913
376.60 2.91
376.70 2.907
376.80 2.904
376.90 2.901
377.00 2.898
377.10 2.895
377.20 2.892
377.30 2.889
377.40 2.886
377.50 2.884
377.60 2.881
377.70 2.878
377.80 2.875
377.90 2.872
378.00 2.869
378.10 2.866
378.20 2.863
378.30 2.86
378.40 2.857
378.50 2.854
378.60 2.851
378.70 2.848
378.80 2.846
378.90 2.843
379.00 2.84
379.10 2.837
379.20 2.834
379.30 2.831
379.40 2.828
379.50 2.825
379.60 2.823
379.70 2.82
379.80 2.817
379.90 2.814
380.00 2.811
380.10 2.808
380.20 2.805
380.30 2.803
380.40 2.8
380.50 2.797
380.60 2.794
380.70 2.791
380.80 2.789
380.90 2.786
381.00 2.783
381.10 2.78
381.20 2.777
381.30 2.775
381.40 2.772
381.50 2.769
381.60 2.766
381.70 2.763
381.80 2.761
381.90 2.758
382.00 2.755
382.10 2.752
382.20 2.75
382.30 2.747
382.40 2.744
382.50 2.741
382.60 2.739
382.70 2.736
382.80 2.733
382.90 2.731
383.00 2.728
383.10 2.725
383.20 2.722
383.30 2.72
383.40 2.717
383.50 2.714
383.60 2.712
383.70 2.709
383.80 2.706
383.90 2.704
384.00 2.701
384.10 2.698
384.20 2.696
384.30 2.693
384.40 2.69
384.50 2.688
384.60 2.685
384.70 2.682
384.80 2.68
384.90 2.677
385.00 2.675
385.10 2.672
385.20 2.669
385.30 2.667
385.40 2.664
385.50 2.661
385.60 2.659
385.70 2.656
385.80 2.654
385.90 2.651
386.00 2.648
386.10 2.646
386.20 2.643
386.30 2.641
386.40 2.638
386.50 2.636
386.60 2.633
386.70 2.63
386.80 2.628
386.90 2.625
387.00 2.623
387.10 2.62
387.20 2.618
387.30 2.615
387.40 2.612
387.50 2.61
387.60 2.607
387.70 2.605
387.80 2.602
387.90 2.6
388.00 2.597
388.10 2.595
388.20 2.592
388.30 2.59
388.40 2.587
388.50 2.585
388.60 2.582
388.70 2.58
388.80 2.577
388.90 2.575
389.00 2.573
389.10 2.57
389.20 2.568
389.30 2.565
389.40 2.563
389.50 2.56
389.60 2.558
389.70 2.555
389.80 2.553
389.90 2.551
390.00 2.548
390.10 2.546
390.20 2.543
390.30 2.541
390.40 2.539
390.50 2.536
390.60 2.534
390.70 2.532
390.80 2.529
390.90 2.527
391.00 2.524
391.10 2.522
391.20 2.52
391.30 2.517
391.40 2.515
391.50 2.512
391.60 2.51
391.70 2.508
391.80 2.505
391.90 2.503
392.00 2.501
392.10 2.498
392.20 2.496
392.30 2.493
392.40 2.491
392.50 2.489
392.60 2.486
392.70 2.484
392.80 2.481
392.90 2.479
393.00 2.477
393.10 2.474
393.20 2.472
393.30 2.469
393.40 2.467
393.50 2.464
393.60 2.462
393.70 2.46
393.80 2.457
393.90 2.455
394.00 2.452
394.10 2.45
394.20 2.447
394.30 2.445
394.40 2.443
394.50 2.44
394.60 2.438
394.70 2.435
394.80 2.433
394.90 2.43
395.00 2.428
395.10 2.425
395.20 2.423
395.30 2.421
395.40 2.418
395.50 2.416
395.60 2.413
395.70 2.411
395.80 2.408
395.90 2.406
396.00 2.404
396.10 2.401
396.20 2.399
396.30 2.396
396.40 2.394
396.50 2.392
396.60 2.389
396.70 2.387
396.80 2.385
396.90 2.383
397.00 2.38
397.10 2.378
397.20 2.376
397.30 2.374
397.40 2.372
397.50 2.37
397.60 2.368
397.70 2.366
397.80 2.364
397.90 2.362
398.00 2.36
398.10 2.358
398.20 2.356
398.30 2.354
398.40 2.352
398.50 2.351
398.60 2.349
398.70 2.347
398.80 2.345
398.90 2.343
399.00 2.341
399.10 2.339
399.20 2.337
399.30 2.335
399.40 2.333
399.50 2.331
399.60 2.329
399.70 2.327
399.80 2.325
399.90 2.323
400.00 2.321
400.10 2.32
400.20 2.318
400.30 2.316
400.40 2.314
400.50 2.312
400.60 2.31
400.70 2.308
400.80 2.306
400.90 2.303
401.00 2.301
401.10 2.299
401.20 2.297
401.30 2.295
401.40 2.293
401.50 2.291
401.60 2.289
401.70 2.287
401.80 2.285
401.90 2.283
402.00 2.281
402.10 2.279
402.20 2.276
402.30 2.274
402.40 2.272
402.50 2.27
402.60 2.268
402.70 2.266
402.80 2.263
402.90 2.261
403.00 2.259
403.10 2.257
403.20 2.255
403.30 2.252
403.40 2.25
403.50 2.248
403.60 2.246
403.70 2.243
403.80 2.241
403.90 2.239
404.00 2.236
404.10 2.234
404.20 2.232
404.30 2.229
404.40 2.227
404.50 2.225
404.60 2.222
404.70 2.22
404.80 2.218
404.90 2.215
405.00 2.213
405.10 2.21
405.20 2.208
405.30 2.205
405.40 2.203
405.50 2.2
405.60 2.198
405.70 2.195
405.80 2.193
405.90 2.19
406.00 2.188
406.10 2.185
406.20 2.183
406.30 2.18
406.40 2.178
406.50 2.175
406.60 2.172
406.70 2.17
406.80 2.167
406.90 2.164
407.00 2.162
407.10 2.159
407.20 2.156
407.30 2.154
407.40 2.151
407.50 2.148
407.60 2.146
407.70 2.143
407.80 2.14
407.90 2.137
408.00 2.135
408.10 2.132
408.20 2.129
408.30 2.126
408.40 2.124
408.50 2.121
408.60 2.118
408.70 2.116
408.80 2.113
408.90 2.11
409.00 2.108
409.10 2.105
409.20 2.103
409.30 2.1
409.40 2.098
409.50 2.096
409.60 2.094
409.70 2.092
409.80 2.09
409.90 2.088
410.00 2.087
410.10 2.085
410.20 2.084
410.30 2.082
410.40 2.079
410.50 2.077
410.60 2.075
410.70 2.073
410.80 2.072
410.90 2.07
411.00 2.069
411.10 2.067
411.20 2.066
411.30 2.065
411.40 2.064
411.50 2.063
411.60 2.062
411.70 2.06
411.80 2.059
411.90 2.058
412.00 2.057
412.10 2.056
412.20 2.055
412.30 2.054
412.40 2.053
412.50 2.052
412.60 2.051
412.70 2.05
412.80 2.049
412.90 2.048
413.00 2.047
413.10 2.046
413.20 2.045
413.30 2.044
413.40 2.043
413.50 2.042
413.60 2.041
413.70 2.039
413.80 2.038
413.90 2.037
414.00 2.036
414.10 2.035
414.20 2.034
414.30 2.032
414.40 2.031
414.50 2.03
414.60 2.029
414.70 2.027
414.80 2.026
414.90 2.025
415.00 2.024
415.10 2.022
415.20 2.021
415.30 2.02
415.40 2.018
415.50 2.017
415.60 2.016
415.70 2.014
415.80 2.013
415.90 2.011
416.00 2.01
416.10 2.009
416.20 2.007
416.30 2.006
416.40 2.004
416.50 2.003
416.60 2.001
416.70 2
416.80 1.998
416.90 1.997
417.00 1.995
417.10 1.994
417.20 1.992
417.30 1.991
417.40 1.989
417.50 1.988
417.60 1.986
417.70 1.985
417.80 1.983
417.90 1.982
418.00 1.98
418.10 1.979
418.20 1.977
418.30 1.975
418.40 1.974
418.50 1.972
418.60 1.971
418.70 1.969
418.80 1.967
418.90 1.966
419.00 1.964
419.10 1.963
419.20 1.961
419.30 1.959
419.40 1.958
419.50 1.956
419.60 1.954
419.70 1.953
419.80 1.951
419.90 1.949
420.00 1.948
420.10 1.946
420.20 1.944
420.30 1.943
420.40 1.941
420.50 1.939
420.60 1.937
420.70 1.936
420.80 1.934
420.90 1.932
421.00 1.931
421.10 1.929
421.20 1.927
421.30 1.925
421.40 1.924
421.50 1.922
421.60 1.92
421.70 1.918
421.80 1.917
421.90 1.915
422.00 1.913
422.10 1.911
422.20 1.909
422.30 1.908
422.40 1.906
422.50 1.904
422.60 1.902
422.70 1.9
422.80 1.899
422.90 1.897
423.00 1.895
423.10 1.893
423.20 1.891
423.30 1.889
423.40 1.888
423.50 1.886
423.60 1.884
423.70 1.882
423.80 1.88
423.90 1.878
424.00 1.876
424.10 1.875
424.20 1.873
424.30 1.871
424.40 1.869
424.50 1.867
424.60 1.865
424.70 1.863
424.80 1.861
424.90 1.859
425.00 1.857
425.10 1.855
425.20 1.853
425.30 1.851
425.40 1.849
425.50 1.847
425.60 1.845
425.70 1.843
425.80 1.841
425.90 1.839
426.00 1.837
426.10 1.835
426.20 1.833
426.30 1.831
426.40 1.829
426.50 1.827
426.60 1.825
426.70 1.823
426.80 1.82
426.90 1.818
427.00 1.816
427.10 1.814
427.20 1.812
427.30 1.81
427.40 1.807
427.50 1.805
427.60 1.803
427.70 1.801
427.80 1.798
427.90 1.796
428.00 1.794
428.10 1.791
428.20 1.789
428.30 1.787
428.40 1.784
428.50 1.782
428.60 1.779
428.70 1.777
428.80 1.775
428.90 1.772
429.00 1.77
429.10 1.767
429.20 1.764
429.30 1.762
429.40 1.759
429.50 1.757
429.60 1.754
429.70 1.751
429.80 1.749
429.90 1.746
430.00 1.743
430.10 1.741
430.20 1.738
430.30 1.735
430.40 1.732
430.50 1.729
430.60 1.726
430.70 1.724
430.80 1.721
430.90 1.718
431.00 1.715
431.10 1.712
431.20 1.709
431.30 1.706
431.40 1.703
431.50 1.7
431.60 1.697
431.70 1.693
431.80 1.69
431.90 1.687
432.00 1.684
432.10 1.681
432.20 1.678
432.30 1.675
432.40 1.671
432.50 1.668
432.60 1.665
432.70 1.662
432.80 1.659
432.90 1.655
433.00 1.652
433.10 1.649
433.20 1.646
433.30 1.642
433.40 1.639
433.50 1.635
433.60 1.632
433.70 1.628
433.80 1.623
433.90 1.619
434.00 1.616
434.10 1.615
434.20 1.615
434.30 1.617
434.40 1.618
434.50 1.62
434.60 1.62
434.70 1.621
434.80 1.622
434.90 1.622
435.00 1.623
435.10 1.623
435.20 1.624
435.30 1.624
435.40 1.624
435.50 1.625
435.60 1.625
435.70 1.625
435.80 1.626
435.90 1.626
436.00 1.626
436.10 1.627
436.20 1.627
436.30 1.627
436.40 1.627
436.50 1.627
436.60 1.628
436.70 1.628
436.80 1.628
436.90 1.628
437.00 1.628
437.10 1.628
437.20 1.628
437.30 1.628
437.40 1.628
437.50 1.628
437.60 1.628
437.70 1.628
437.80 1.627
437.90 1.627
438.00 1.627
438.10 1.627
438.20 1.626
438.30 1.626
438.40 1.626
438.50 1.625
438.60 1.625
438.70 1.625
438.80 1.624
438.90 1.624
439.00 1.623
439.10 1.623
439.20 1.622
439.30 1.622
439.40 1.621
439.50 1.62
439.60 1.62
439.70 1.619
439.80 1.618
439.90 1.618
440.00 1.617
440.10 1.616
440.20 1.616
440.30 1.615
440.40 1.614
440.50 1.613
440.60 1.612
440.70 1.612
440.80 1.611
440.90 1.61
441.00 1.609
441.10 1.608
441.20 1.607
441.30 1.606
441.40 1.606
441.50 1.605
441.60 1.604
441.70 1.603
441.80 1.602
441.90 1.601
442.00 1.6
442.10 1.599
442.20 1.598
442.30 1.597
442.40 1.596
442.50 1.595
442.60 1.594
442.70 1.593
442.80 1.592
442.90 1.59
443.00 1.589
443.10 1.588
443.20 1.587
443.30 1.586
443.40 1.585
443.50 1.584
443.60 1.583
443.70 1.582
443.80 1.581
443.90 1.579
444.00 1.578
444.10 1.577
444.20 1.576
444.30 1.575
444.40 1.574
444.50 1.573
444.60 1.571
444.70 1.57
444.80 1.569
444.90 1.568
445.00 1.567
445.10 1.566
445.20 1.564
445.30 1.563
445.40 1.562
445.50 1.561
445.60 1.56
445.70 1.558
445.80 1.557
445.90 1.556
446.00 1.555
446.10 1.554
446.20 1.552
446.30 1.551
446.40 1.55
446.50 1.549
446.60 1.547
446.70 1.546
446.80 1.545
446.90 1.544
447.00 1.543
447.10 1.541
447.20 1.54
447.30 1.539
447.40 1.538
447.50 1.536
447.60 1.535
447.70 1.534
447.80 1.533
447.90 1.531
448.00 1.53
448.10 1.529
448.20 1.528
448.30 1.527
448.40 1.525
448.50 1.524
448.60 1.523
448.70 1.522
448.80 1.52
448.90 1.519
449.00 1.518
449.10 1.517
449.20 1.515
449.30 1.514
449.40 1.513
449.50 1.512
449.60 1.51
449.70 1.509
449.80 1.508
449.90 1.507
450.00 1.505
450.10 1.504
450.20 1.503
450.30 1.502
450.40 1.5
450.50 1.499
450.60 1.498
450.70 1.497
450.80 1.495
450.90 1.494
451.00 1.493
451.10 1.492
451.20 1.491
451.30 1.489
451.40 1.488
451.50 1.487
451.60 1.486
451.70 1.484
451.80 1.483
451.90 1.482
452.00 1.481
452.10 1.479
452.20 1.478
452.30 1.477
452.40 1.476
452.50 1.474
452.60 1.473
452.70 1.472
452.80 1.471
452.90 1.47
453.00 1.468
453.10 1.467
453.20 1.466
453.30 1.465
453.40 1.463
453.50 1.462
453.60 1.461
453.70 1.46
453.80 1.458
453.90 1.457
454.00 1.456
