# Version 2.1 - nm, norm@500 to 1, cut digits, bergeron_9500_85.dat_9500
# Wavelength(nm)  Flambda(ergs/cm^s/s/nm)
300.00 1.709
300.10 1.709
300.20 1.708
300.30 1.708
300.40 1.707
300.50 1.707
300.60 1.706
300.70 1.706
300.80 1.705
300.90 1.705
301.00 1.705
301.10 1.704
301.20 1.704
301.30 1.703
301.40 1.703
301.50 1.702
301.60 1.702
301.70 1.701
301.80 1.701
301.90 1.7
302.00 1.7
302.10 1.699
302.20 1.699
302.30 1.698
302.40 1.698
302.50 1.697
302.60 1.697
302.70 1.696
302.80 1.696
302.90 1.695
303.00 1.695
303.10 1.694
303.20 1.694
303.30 1.693
303.40 1.693
303.50 1.692
303.60 1.692
303.70 1.691
303.80 1.691
303.90 1.69
304.00 1.69
304.10 1.689
304.20 1.689
304.30 1.688
304.40 1.688
304.50 1.687
304.60 1.687
304.70 1.686
304.80 1.686
304.90 1.685
305.00 1.685
305.10 1.684
305.20 1.684
305.30 1.683
305.40 1.683
305.50 1.682
305.60 1.682
305.70 1.681
305.80 1.681
305.90 1.68
306.00 1.68
306.10 1.679
306.20 1.679
306.30 1.678
306.40 1.678
306.50 1.677
306.60 1.677
306.70 1.676
306.80 1.676
306.90 1.675
307.00 1.675
307.10 1.674
307.20 1.674
307.30 1.673
307.40 1.673
307.50 1.672
307.60 1.672
307.70 1.671
307.80 1.671
307.90 1.67
308.00 1.67
308.10 1.669
308.20 1.669
308.30 1.668
308.40 1.668
308.50 1.667
308.60 1.667
308.70 1.666
308.80 1.666
308.90 1.665
309.00 1.665
309.10 1.664
309.20 1.664
309.30 1.663
309.40 1.663
309.50 1.662
309.60 1.662
309.70 1.661
309.80 1.661
309.90 1.66
310.00 1.66
310.10 1.659
310.20 1.659
310.30 1.658
310.40 1.658
310.50 1.657
310.60 1.657
310.70 1.656
310.80 1.656
310.90 1.655
311.00 1.655
311.10 1.654
311.20 1.654
311.30 1.653
311.40 1.653
311.50 1.652
311.60 1.652
311.70 1.651
311.80 1.651
311.90 1.65
312.00 1.65
312.10 1.649
312.20 1.649
312.30 1.648
312.40 1.648
312.50 1.647
312.60 1.647
312.70 1.646
312.80 1.646
312.90 1.645
313.00 1.644
313.10 1.644
313.20 1.643
313.30 1.643
313.40 1.642
313.50 1.642
313.60 1.641
313.70 1.641
313.80 1.64
313.90 1.64
314.00 1.639
314.10 1.639
314.20 1.638
314.30 1.638
314.40 1.637
314.50 1.637
314.60 1.636
314.70 1.636
314.80 1.635
314.90 1.635
315.00 1.634
315.10 1.634
315.20 1.633
315.30 1.633
315.40 1.632
315.50 1.632
315.60 1.631
315.70 1.631
315.80 1.63
315.90 1.63
316.00 1.629
316.10 1.628
316.20 1.628
316.30 1.627
316.40 1.627
316.50 1.626
316.60 1.626
316.70 1.625
316.80 1.625
316.90 1.624
317.00 1.624
317.10 1.623
317.20 1.623
317.30 1.622
317.40 1.622
317.50 1.621
317.60 1.621
317.70 1.62
317.80 1.62
317.90 1.619
318.00 1.619
318.10 1.618
318.20 1.618
318.30 1.617
318.40 1.616
318.50 1.616
318.60 1.615
318.70 1.615
318.80 1.614
318.90 1.614
319.00 1.613
319.10 1.613
319.20 1.612
319.30 1.612
319.40 1.611
319.50 1.611
319.60 1.61
319.70 1.61
319.80 1.609
319.90 1.609
320.00 1.608
320.10 1.608
320.20 1.607
320.30 1.607
320.40 1.606
320.50 1.605
320.60 1.605
320.70 1.604
320.80 1.604
320.90 1.603
321.00 1.603
321.10 1.602
321.20 1.602
321.30 1.601
321.40 1.601
321.50 1.6
321.60 1.6
321.70 1.599
321.80 1.599
321.90 1.598
322.00 1.598
322.10 1.597
322.20 1.596
322.30 1.596
322.40 1.595
322.50 1.595
322.60 1.594
322.70 1.594
322.80 1.593
322.90 1.593
323.00 1.592
323.10 1.592
323.20 1.591
323.30 1.591
323.40 1.59
323.50 1.59
323.60 1.589
323.70 1.589
323.80 1.588
323.90 1.587
324.00 1.587
324.10 1.586
324.20 1.586
324.30 1.585
324.40 1.585
324.50 1.584
324.60 1.584
324.70 1.583
324.80 1.583
324.90 1.582
325.00 1.582
325.10 1.581
325.20 1.581
325.30 1.58
325.40 1.579
325.50 1.579
325.60 1.578
325.70 1.578
325.80 1.577
325.90 1.577
326.00 1.576
326.10 1.576
326.20 1.575
326.30 1.575
326.40 1.574
326.50 1.574
326.60 1.573
326.70 1.573
326.80 1.572
326.90 1.571
327.00 1.571
327.10 1.57
327.20 1.57
327.30 1.569
327.40 1.569
327.50 1.568
327.60 1.568
327.70 1.567
327.80 1.567
327.90 1.566
328.00 1.566
328.10 1.565
328.20 1.565
328.30 1.564
328.40 1.563
328.50 1.563
328.60 1.562
328.70 1.562
328.80 1.561
328.90 1.561
329.00 1.56
329.10 1.56
329.20 1.559
329.30 1.559
329.40 1.558
329.50 1.558
329.60 1.557
329.70 1.556
329.80 1.556
329.90 1.555
330.00 1.555
330.10 1.554
330.20 1.554
330.30 1.553
330.40 1.553
330.50 1.552
330.60 1.552
330.70 1.551
330.80 1.551
330.90 1.55
331.00 1.549
331.10 1.549
331.20 1.548
331.30 1.548
331.40 1.547
331.50 1.547
331.60 1.546
331.70 1.546
331.80 1.545
331.90 1.545
332.00 1.544
332.10 1.544
332.20 1.543
332.30 1.543
332.40 1.542
332.50 1.541
332.60 1.541
332.70 1.54
332.80 1.54
332.90 1.539
333.00 1.539
333.10 1.538
333.20 1.538
333.30 1.537
333.40 1.537
333.50 1.536
333.60 1.536
333.70 1.535
333.80 1.534
333.90 1.534
334.00 1.533
334.10 1.533
334.20 1.532
334.30 1.532
334.40 1.531
334.50 1.531
334.60 1.53
334.70 1.53
334.80 1.529
334.90 1.529
335.00 1.528
335.10 1.527
335.20 1.527
335.30 1.526
335.40 1.526
335.50 1.525
335.60 1.525
335.70 1.524
335.80 1.524
335.90 1.523
336.00 1.523
336.10 1.522
336.20 1.522
336.30 1.521
336.40 1.52
336.50 1.52
336.60 1.519
336.70 1.519
336.80 1.518
336.90 1.518
337.00 1.517
337.10 1.517
337.20 1.516
337.30 1.516
337.40 1.515
337.50 1.514
337.60 1.514
337.70 1.513
337.80 1.513
337.90 1.512
338.00 1.512
338.10 1.511
338.20 1.511
338.30 1.51
338.40 1.51
338.50 1.509
338.60 1.509
338.70 1.508
338.80 1.507
338.90 1.507
339.00 1.506
339.10 1.506
339.20 1.505
339.30 1.505
339.40 1.504
339.50 1.504
339.60 1.503
339.70 1.503
339.80 1.502
339.90 1.502
340.00 1.501
340.10 1.5
340.20 1.5
340.30 1.499
340.40 1.499
340.50 1.498
340.60 1.498
340.70 1.497
340.80 1.497
340.90 1.496
341.00 1.496
341.10 1.495
341.20 1.494
341.30 1.494
341.40 1.493
341.50 1.493
341.60 1.492
341.70 1.492
341.80 1.491
341.90 1.491
342.00 1.49
342.10 1.49
342.20 1.489
342.30 1.489
342.40 1.488
342.50 1.487
342.60 1.487
342.70 1.486
342.80 1.486
342.90 1.485
343.00 1.485
343.10 1.484
343.20 1.484
343.30 1.483
343.40 1.483
343.50 1.482
343.60 1.482
343.70 1.481
343.80 1.48
343.90 1.48
344.00 1.479
344.10 1.479
344.20 1.478
344.30 1.478
344.40 1.477
344.50 1.477
344.60 1.476
344.70 1.476
344.80 1.475
344.90 1.474
345.00 1.474
345.10 1.473
345.20 1.473
345.30 1.472
345.40 1.472
345.50 1.471
345.60 1.471
345.70 1.47
345.80 1.47
345.90 1.469
346.00 1.469
346.10 1.468
346.20 1.467
346.30 1.467
346.40 1.466
346.50 1.466
346.60 1.465
346.70 1.465
346.80 1.464
346.90 1.464
347.00 1.463
347.10 1.463
347.20 1.462
347.30 1.461
347.40 1.461
347.50 1.46
347.60 1.46
347.70 1.459
347.80 1.459
347.90 1.458
348.00 1.458
348.10 1.457
348.20 1.457
348.30 1.456
348.40 1.456
348.50 1.455
348.60 1.454
348.70 1.454
348.80 1.453
348.90 1.453
349.00 1.452
349.10 1.452
349.20 1.451
349.30 1.451
349.40 1.45
349.50 1.45
349.60 1.449
349.70 1.449
349.80 1.448
349.90 1.447
350.00 1.447
350.10 1.446
350.20 1.446
350.30 1.445
350.40 1.445
350.50 1.444
350.60 1.444
350.70 1.443
350.80 1.443
350.90 1.442
351.00 1.442
351.10 1.441
351.20 1.44
351.30 1.44
351.40 1.439
351.50 1.439
351.60 1.438
351.70 1.438
351.80 1.437
351.90 1.437
352.00 1.436
352.10 1.436
352.20 1.435
352.30 1.434
352.40 1.434
352.50 1.433
352.60 1.433
352.70 1.432
352.80 1.432
352.90 1.431
353.00 1.431
353.10 1.43
353.20 1.43
353.30 1.429
353.40 1.429
353.50 1.428
353.60 1.428
353.70 1.427
353.80 1.426
353.90 1.426
354.00 1.425
354.10 1.425
354.20 1.424
354.30 1.424
354.40 1.423
354.50 1.423
354.60 1.422
354.70 1.422
354.80 1.421
354.90 1.42
355.00 1.42
355.10 1.419
355.20 1.419
355.30 1.418
355.40 1.418
355.50 1.417
355.60 1.417
355.70 1.416
355.80 1.416
355.90 1.415
356.00 1.415
356.10 1.414
356.20 1.414
356.30 1.413
356.40 1.412
356.50 1.412
356.60 1.411
356.70 1.411
356.80 1.41
356.90 1.41
357.00 1.409
357.10 1.409
357.20 1.408
357.30 1.408
357.40 1.407
357.50 1.407
357.60 1.406
357.70 1.405
357.80 1.405
357.90 1.404
358.00 1.404
358.10 1.403
358.20 1.403
358.30 1.402
358.40 1.402
358.50 1.401
358.60 1.401
358.70 1.4
358.80 1.4
358.90 1.399
359.00 1.398
359.10 1.398
359.20 1.397
359.30 1.397
359.40 1.396
359.50 1.396
359.60 1.395
359.70 1.395
359.80 1.394
359.90 1.394
360.00 1.393
360.10 1.393
360.20 1.392
360.30 1.392
360.40 1.391
360.50 1.39
360.60 1.39
360.70 1.389
360.80 1.389
360.90 1.388
361.00 1.388
361.10 1.387
361.20 1.387
361.30 1.386
361.40 1.386
361.50 1.385
361.60 1.385
361.70 1.384
361.80 1.384
361.90 1.383
362.00 1.382
362.10 1.382
362.20 1.381
362.30 1.381
362.40 1.38
362.50 1.38
362.60 1.379
362.70 1.379
362.80 1.378
362.90 1.378
363.00 1.377
363.10 1.377
363.20 1.376
363.30 1.375
363.40 1.375
363.50 1.374
363.60 1.374
363.70 1.373
363.80 1.372
363.90 1.372
364.00 1.371
364.10 1.371
364.20 1.37
364.30 1.369
364.40 1.369
364.50 1.368
364.60 1.368
364.70 1.367
364.80 1.366
364.90 1.366
365.00 1.365
365.10 1.364
365.20 1.364
365.30 1.363
365.40 1.363
365.50 1.362
365.60 1.361
365.70 1.361
365.80 1.36
365.90 1.36
366.00 1.359
366.10 1.358
366.20 1.358
366.30 1.357
366.40 1.357
366.50 1.356
366.60 1.356
366.70 1.355
366.80 1.355
366.90 1.354
367.00 1.353
367.10 1.353
367.20 1.352
367.30 1.352
367.40 1.351
367.50 1.351
367.60 1.35
367.70 1.35
367.80 1.349
367.90 1.349
368.00 1.348
368.10 1.348
368.20 1.347
368.30 1.347
368.40 1.346
368.50 1.346
368.60 1.345
368.70 1.345
368.80 1.344
368.90 1.344
369.00 1.343
369.10 1.343
369.20 1.342
369.30 1.342
369.40 1.342
369.50 1.341
369.60 1.341
369.70 1.34
369.80 1.34
369.90 1.339
370.00 1.339
370.10 1.339
370.20 1.339
370.30 1.338
370.40 1.338
370.50 1.338
370.60 1.338
370.70 1.338
370.80 1.338
370.90 1.337
371.00 1.337
371.10 1.337
371.20 1.337
371.30 1.337
371.40 1.337
371.50 1.336
371.60 1.336
371.70 1.336
371.80 1.336
371.90 1.336
372.00 1.336
372.10 1.336
372.20 1.336
372.30 1.336
372.40 1.337
372.50 1.337
372.60 1.337
372.70 1.337
372.80 1.338
372.90 1.338
373.00 1.338
373.10 1.338
373.20 1.339
373.30 1.339
373.40 1.339
373.50 1.339
373.60 1.34
373.70 1.34
373.80 1.34
373.90 1.34
374.00 1.341
374.10 1.341
374.20 1.341
374.30 1.342
374.40 1.342
374.50 1.343
374.60 1.343
374.70 1.343
374.80 1.344
374.90 1.344
375.00 1.345
375.10 1.345
375.20 1.346
375.30 1.346
375.40 1.346
375.50 1.347
375.60 1.347
375.70 1.348
375.80 1.348
375.90 1.348
376.00 1.349
376.10 1.349
376.20 1.349
376.30 1.349
376.40 1.35
376.50 1.35
376.60 1.35
376.70 1.35
376.80 1.35
376.90 1.35
377.00 1.351
377.10 1.35
377.20 1.35
377.30 1.349
377.40 1.348
377.50 1.348
377.60 1.347
377.70 1.347
377.80 1.346
377.90 1.346
378.00 1.345
378.10 1.342
378.20 1.338
378.30 1.334
378.40 1.331
378.50 1.327
378.60 1.324
378.70 1.32
378.80 1.317
378.90 1.313
379.00 1.31
379.10 1.305
379.20 1.301
379.30 1.297
379.40 1.293
379.50 1.289
379.60 1.284
379.70 1.28
379.80 1.276
379.90 1.272
380.00 1.268
380.10 1.274
380.20 1.28
380.30 1.286
380.40 1.292
380.50 1.298
380.60 1.304
380.70 1.31
380.80 1.316
380.90 1.322
381.00 1.328
381.10 1.329
381.20 1.331
381.30 1.332
381.40 1.333
381.50 1.335
381.60 1.335
381.70 1.334
381.80 1.332
381.90 1.331
382.00 1.328
382.10 1.325
382.20 1.321
382.30 1.31
382.40 1.299
382.50 1.288
382.60 1.277
382.70 1.266
382.80 1.255
382.90 1.244
383.00 1.233
383.10 1.222
383.20 1.211
383.30 1.196
383.40 1.179
383.50 1.163
383.60 1.166
383.70 1.184
383.80 1.201
383.90 1.216
384.00 1.232
384.10 1.248
384.20 1.263
384.30 1.277
384.40 1.289
384.50 1.3
384.60 1.309
384.70 1.317
384.80 1.323
384.90 1.329
385.00 1.333
385.10 1.337
385.20 1.34
385.30 1.342
385.40 1.344
385.50 1.346
385.60 1.347
385.70 1.348
385.80 1.348
385.90 1.348
386.00 1.348
386.10 1.347
386.20 1.346
386.30 1.344
386.40 1.342
386.50 1.34
386.60 1.338
386.70 1.335
386.80 1.331
386.90 1.327
387.00 1.323
387.10 1.318
387.20 1.313
387.30 1.307
387.40 1.3
387.50 1.292
387.60 1.283
387.70 1.274
387.80 1.262
387.90 1.248
388.00 1.233
388.10 1.214
388.20 1.191
388.30 1.166
388.40 1.136
388.50 1.105
388.60 1.074
388.70 1.042
388.80 1.014
388.90 0.9894
389.00 1.012
389.10 1.039
389.20 1.071
389.30 1.103
389.40 1.134
389.50 1.165
389.60 1.191
389.70 1.214
389.80 1.234
389.90 1.25
390.00 1.264
390.10 1.277
390.20 1.287
390.30 1.297
390.40 1.305
390.50 1.313
390.60 1.32
390.70 1.326
390.80 1.331
390.90 1.337
391.00 1.342
391.10 1.346
391.20 1.35
391.30 1.353
391.40 1.357
391.50 1.36
391.60 1.362
391.70 1.365
391.80 1.367
391.90 1.368
392.00 1.37
392.10 1.371
392.20 1.372
392.30 1.373
392.40 1.373
392.50 1.373
392.60 1.373
392.70 1.373
392.80 1.372
392.90 1.371
393.00 1.37
393.10 1.369
393.20 1.367
393.30 1.365
393.40 1.363
393.50 1.36
393.60 1.357
393.70 1.354
393.80 1.35
393.90 1.346
394.00 1.342
394.10 1.338
394.20 1.333
394.30 1.328
394.40 1.322
394.50 1.316
394.60 1.309
394.70 1.302
394.80 1.295
394.90 1.287
395.00 1.278
395.10 1.269
395.20 1.259
395.30 1.248
395.40 1.237
395.50 1.225
395.60 1.212
395.70 1.198
395.80 1.183
395.90 1.165
396.00 1.145
396.10 1.124
396.20 1.098
396.30 1.067
396.40 1.033
396.50 0.9878
396.60 0.9385
396.70 0.8848
396.80 0.8323
396.90 0.7799
397.00 0.7278
397.10 0.7752
397.20 0.8247
397.30 0.8765
397.40 0.9303
397.50 0.98
397.60 1.026
397.70 1.061
397.80 1.092
397.90 1.118
398.00 1.14
398.10 1.159
398.20 1.177
398.30 1.192
398.40 1.206
398.50 1.219
398.60 1.231
398.70 1.243
398.80 1.253
398.90 1.263
399.00 1.272
399.10 1.281
399.20 1.289
399.30 1.297
399.40 1.304
399.50 1.311
399.60 1.318
399.70 1.324
399.80 1.33
399.90 1.335
400.00 1.34
400.10 1.345
400.20 1.35
400.30 1.354
400.40 1.358
400.50 1.362
400.60 1.365
400.70 1.369
400.80 1.372
400.90 1.375
401.00 1.378
401.10 1.38
401.20 1.383
401.30 1.385
401.40 1.387
401.50 1.389
401.60 1.391
401.70 1.392
401.80 1.394
401.90 1.395
402.00 1.396
402.10 1.397
402.20 1.398
402.30 1.399
402.40 1.4
402.50 1.4
402.60 1.401
402.70 1.401
402.80 1.401
402.90 1.402
403.00 1.402
403.10 1.401
403.20 1.401
403.30 1.401
403.40 1.4
403.50 1.4
403.60 1.399
403.70 1.398
403.80 1.398
403.90 1.397
404.00 1.395
404.10 1.394
404.20 1.393
404.30 1.391
404.40 1.39
404.50 1.388
404.60 1.386
404.70 1.384
404.80 1.382
404.90 1.38
405.00 1.377
405.10 1.375
405.20 1.372
405.30 1.369
405.40 1.366
405.50 1.363
405.60 1.36
405.70 1.356
405.80 1.353
405.90 1.349
406.00 1.345
406.10 1.34
406.20 1.336
406.30 1.331
406.40 1.326
406.50 1.321
406.60 1.315
406.70 1.31
406.80 1.304
406.90 1.297
407.00 1.291
407.10 1.284
407.20 1.276
407.30 1.268
407.40 1.26
407.50 1.252
407.60 1.243
407.70 1.233
407.80 1.223
407.90 1.212
408.00 1.201
408.10 1.19
408.20 1.177
408.30 1.164
408.40 1.15
408.50 1.135
408.60 1.12
408.70 1.103
408.80 1.085
408.90 1.066
409.00 1.047
409.10 1.024
409.20 0.9998
409.30 0.9738
409.40 0.9421
409.50 0.9061
409.60 0.8656
409.70 0.813
409.80 0.7548
409.90 0.6909
410.00 0.6297
410.10 0.5817
410.20 0.5468
410.30 0.6032
410.40 0.6627
410.50 0.7253
410.60 0.7858
410.70 0.8397
410.80 0.887
410.90 0.9232
411.00 0.9557
411.10 0.9843
411.20 1.008
411.30 1.031
411.40 1.051
411.50 1.07
411.60 1.087
411.70 1.104
411.80 1.119
411.90 1.133
412.00 1.147
412.10 1.159
412.20 1.171
412.30 1.183
412.40 1.193
412.50 1.203
412.60 1.213
412.70 1.221
412.80 1.23
412.90 1.238
413.00 1.245
413.10 1.253
413.20 1.259
413.30 1.266
413.40 1.272
413.50 1.278
413.60 1.283
413.70 1.288
413.80 1.293
413.90 1.298
414.00 1.302
414.10 1.307
414.20 1.311
414.30 1.315
414.40 1.318
414.50 1.322
414.60 1.325
414.70 1.328
414.80 1.331
414.90 1.334
415.00 1.337
415.10 1.339
415.20 1.342
415.30 1.344
415.40 1.346
415.50 1.348
415.60 1.35
415.70 1.352
415.80 1.354
415.90 1.356
416.00 1.357
416.10 1.359
416.20 1.36
416.30 1.362
416.40 1.363
416.50 1.364
416.60 1.365
416.70 1.366
416.80 1.367
416.90 1.368
417.00 1.369
417.10 1.37
417.20 1.371
417.30 1.371
417.40 1.372
417.50 1.373
417.60 1.373
417.70 1.374
417.80 1.374
417.90 1.375
418.00 1.375
418.10 1.376
418.20 1.376
418.30 1.376
418.40 1.376
418.50 1.377
418.60 1.377
418.70 1.377
418.80 1.377
418.90 1.377
419.00 1.377
419.10 1.377
419.20 1.377
419.30 1.377
419.40 1.377
419.50 1.377
419.60 1.377
419.70 1.377
419.80 1.377
419.90 1.377
420.00 1.377
420.10 1.377
420.20 1.376
420.30 1.376
420.40 1.376
420.50 1.376
420.60 1.375
420.70 1.375
420.80 1.375
420.90 1.374
421.00 1.374
421.10 1.374
421.20 1.373
421.30 1.373
421.40 1.372
421.50 1.372
421.60 1.371
421.70 1.371
421.80 1.37
421.90 1.37
422.00 1.369
422.10 1.369
422.20 1.368
422.30 1.367
422.40 1.367
422.50 1.366
422.60 1.366
422.70 1.365
422.80 1.364
422.90 1.363
423.00 1.363
423.10 1.362
423.20 1.361
423.30 1.36
423.40 1.36
423.50 1.359
423.60 1.358
423.70 1.357
423.80 1.356
423.90 1.355
424.00 1.355
424.10 1.354
424.20 1.353
424.30 1.352
424.40 1.351
424.50 1.35
424.60 1.349
424.70 1.348
424.80 1.346
424.90 1.345
425.00 1.344
425.10 1.343
425.20 1.342
425.30 1.341
425.40 1.339
425.50 1.338
425.60 1.337
425.70 1.335
425.80 1.334
425.90 1.333
426.00 1.331
426.10 1.33
426.20 1.328
426.30 1.326
426.40 1.325
426.50 1.323
426.60 1.321
426.70 1.32
426.80 1.318
426.90 1.316
427.00 1.314
427.10 1.312
427.20 1.31
427.30 1.308
427.40 1.306
427.50 1.304
427.60 1.302
427.70 1.3
427.80 1.297
427.90 1.295
428.00 1.292
428.10 1.29
428.20 1.287
428.30 1.284
428.40 1.282
428.50 1.279
428.60 1.276
428.70 1.273
428.80 1.269
428.90 1.266
429.00 1.263
429.10 1.259
429.20 1.255
429.30 1.251
429.40 1.248
429.50 1.243
429.60 1.239
429.70 1.235
429.80 1.23
429.90 1.225
430.00 1.22
430.10 1.215
430.20 1.21
430.30 1.204
430.40 1.198
430.50 1.192
430.60 1.186
430.70 1.18
430.80 1.173
430.90 1.166
431.00 1.158
431.10 1.151
431.20 1.143
431.30 1.134
431.40 1.126
431.50 1.117
431.60 1.107
431.70 1.097
431.80 1.086
431.90 1.075
432.00 1.063
432.10 1.05
432.20 1.037
432.30 1.022
432.40 1.007
432.50 0.9896
432.60 0.9711
432.70 0.9516
432.80 0.9295
432.90 0.9064
433.00 0.8821
433.10 0.856
433.20 0.8285
433.30 0.7996
433.40 0.765
433.50 0.7258
433.60 0.6819
433.70 0.6269
433.80 0.5726
433.90 0.5192
434.00 0.4665
434.10 0.4678
434.20 0.523
434.30 0.5766
434.40 0.6305
434.50 0.6847
434.60 0.7274
434.70 0.7656
434.80 0.7992
434.90 0.8273
435.00 0.854
435.10 0.8793
435.20 0.9027
435.30 0.9249
435.40 0.946
435.50 0.9646
435.60 0.982
435.70 0.9983
435.80 1.013
435.90 1.026
436.00 1.039
436.10 1.05
436.20 1.061
436.30 1.072
436.40 1.081
436.50 1.09
436.60 1.099
436.70 1.107
436.80 1.114
436.90 1.122
437.00 1.129
437.10 1.135
437.20 1.142
437.30 1.148
437.40 1.153
437.50 1.159
437.60 1.164
437.70 1.169
437.80 1.174
437.90 1.178
438.00 1.182
438.10 1.186
438.20 1.19
438.30 1.194
438.40 1.197
438.50 1.201
438.60 1.204
438.70 1.207
438.80 1.21
438.90 1.212
439.00 1.215
439.10 1.217
439.20 1.22
439.30 1.222
439.40 1.224
439.50 1.226
439.60 1.228
439.70 1.23
439.80 1.231
439.90 1.233
440.00 1.235
440.10 1.236
440.20 1.238
440.30 1.239
440.40 1.24
440.50 1.241
440.60 1.242
440.70 1.244
440.80 1.245
440.90 1.246
441.00 1.246
441.10 1.247
441.20 1.248
441.30 1.249
441.40 1.25
441.50 1.25
441.60 1.251
441.70 1.252
441.80 1.252
441.90 1.253
442.00 1.253
442.10 1.254
442.20 1.254
442.30 1.255
442.40 1.255
442.50 1.255
442.60 1.256
442.70 1.256
442.80 1.256
442.90 1.256
443.00 1.256
443.10 1.257
443.20 1.257
443.30 1.257
443.40 1.257
443.50 1.257
443.60 1.257
443.70 1.257
443.80 1.258
443.90 1.258
444.00 1.258
444.10 1.258
444.20 1.258
444.30 1.258
444.40 1.258
444.50 1.257
444.60 1.257
444.70 1.257
444.80 1.257
444.90 1.257
445.00 1.257
445.10 1.257
445.20 1.257
445.30 1.257
445.40 1.257
445.50 1.256
445.60 1.256
445.70 1.256
445.80 1.256
445.90 1.256
446.00 1.255
446.10 1.255
446.20 1.255
446.30 1.255
446.40 1.254
446.50 1.254
446.60 1.254
446.70 1.254
446.80 1.253
446.90 1.253
447.00 1.253
447.10 1.253
447.20 1.252
447.30 1.252
447.40 1.252
447.50 1.251
447.60 1.251
447.70 1.251
447.80 1.25
447.90 1.25
448.00 1.25
448.10 1.249
448.20 1.249
448.30 1.249
448.40 1.248
448.50 1.248
448.60 1.248
448.70 1.247
448.80 1.247
448.90 1.247
449.00 1.246
449.10 1.246
449.20 1.246
449.30 1.245
449.40 1.245
449.50 1.244
449.60 1.244
449.70 1.244
449.80 1.243
449.90 1.243
450.00 1.242
450.10 1.242
450.20 1.242
450.30 1.241
450.40 1.241
450.50 1.24
450.60 1.24
450.70 1.239
450.80 1.239
450.90 1.239
451.00 1.238
451.10 1.238
451.20 1.237
451.30 1.237
451.40 1.236
451.50 1.236
451.60 1.236
451.70 1.235
451.80 1.235
451.90 1.234
452.00 1.234
452.10 1.233
452.20 1.233
452.30 1.232
452.40 1.232
452.50 1.232
452.60 1.231
452.70 1.231
452.80 1.23
452.90 1.23
453.00 1.229
453.10 1.229
453.20 1.228
453.30 1.228
453.40 1.227
453.50 1.227
453.60 1.226
453.70 1.226
