# Version 2.1 - nm, norm@500 to 1, cut digits, bergeron_9000_95.dat_9000
# Wavelength(nm)  Flambda(ergs/cm^s/s/nm)
300.00 1.76
300.10 1.76
300.20 1.76
300.30 1.759
300.40 1.759
300.50 1.759
300.60 1.758
300.70 1.758
300.80 1.758
300.90 1.757
301.00 1.757
301.10 1.757
301.20 1.756
301.30 1.756
301.40 1.756
301.50 1.756
301.60 1.755
301.70 1.755
301.80 1.755
301.90 1.754
302.00 1.754
302.10 1.754
302.20 1.753
302.30 1.753
302.40 1.753
302.50 1.752
302.60 1.752
302.70 1.752
302.80 1.751
302.90 1.751
303.00 1.751
303.10 1.75
303.20 1.75
303.30 1.75
303.40 1.749
303.50 1.749
303.60 1.748
303.70 1.748
303.80 1.748
303.90 1.747
304.00 1.747
304.10 1.747
304.20 1.746
304.30 1.746
304.40 1.746
304.50 1.745
304.60 1.745
304.70 1.745
304.80 1.744
304.90 1.744
305.00 1.744
305.10 1.743
305.20 1.743
305.30 1.743
305.40 1.742
305.50 1.742
305.60 1.742
305.70 1.741
305.80 1.741
305.90 1.741
306.00 1.74
306.10 1.74
306.20 1.74
306.30 1.739
306.40 1.739
306.50 1.739
306.60 1.738
306.70 1.738
306.80 1.738
306.90 1.737
307.00 1.737
307.10 1.736
307.20 1.736
307.30 1.736
307.40 1.735
307.50 1.735
307.60 1.735
307.70 1.734
307.80 1.734
307.90 1.734
308.00 1.733
308.10 1.733
308.20 1.733
308.30 1.732
308.40 1.732
308.50 1.731
308.60 1.731
308.70 1.731
308.80 1.73
308.90 1.73
309.00 1.73
309.10 1.729
309.20 1.729
309.30 1.729
309.40 1.728
309.50 1.728
309.60 1.727
309.70 1.727
309.80 1.727
309.90 1.726
310.00 1.726
310.10 1.726
310.20 1.725
310.30 1.725
310.40 1.725
310.50 1.724
310.60 1.724
310.70 1.723
310.80 1.723
310.90 1.723
311.00 1.722
311.10 1.722
311.20 1.722
311.30 1.721
311.40 1.721
311.50 1.72
311.60 1.72
311.70 1.72
311.80 1.719
311.90 1.719
312.00 1.719
312.10 1.718
312.20 1.718
312.30 1.717
312.40 1.717
312.50 1.717
312.60 1.716
312.70 1.716
312.80 1.716
312.90 1.715
313.00 1.715
313.10 1.714
313.20 1.714
313.30 1.714
313.40 1.713
313.50 1.713
313.60 1.713
313.70 1.712
313.80 1.712
313.90 1.711
314.00 1.711
314.10 1.711
314.20 1.71
314.30 1.71
314.40 1.71
314.50 1.709
314.60 1.709
314.70 1.708
314.80 1.708
314.90 1.708
315.00 1.707
315.10 1.707
315.20 1.706
315.30 1.706
315.40 1.706
315.50 1.705
315.60 1.705
315.70 1.705
315.80 1.704
315.90 1.704
316.00 1.703
316.10 1.703
316.20 1.703
316.30 1.702
316.40 1.702
316.50 1.701
316.60 1.701
316.70 1.701
316.80 1.7
316.90 1.7
317.00 1.699
317.10 1.699
317.20 1.699
317.30 1.698
317.40 1.698
317.50 1.697
317.60 1.697
317.70 1.697
317.80 1.696
317.90 1.696
318.00 1.695
318.10 1.695
318.20 1.695
318.30 1.694
318.40 1.694
318.50 1.693
318.60 1.693
318.70 1.693
318.80 1.692
318.90 1.692
319.00 1.691
319.10 1.691
319.20 1.691
319.30 1.69
319.40 1.69
319.50 1.689
319.60 1.689
319.70 1.689
319.80 1.688
319.90 1.688
320.00 1.687
320.10 1.687
320.20 1.687
320.30 1.686
320.40 1.686
320.50 1.685
320.60 1.685
320.70 1.685
320.80 1.684
320.90 1.684
321.00 1.683
321.10 1.683
321.20 1.683
321.30 1.682
321.40 1.682
321.50 1.681
321.60 1.681
321.70 1.681
321.80 1.68
321.90 1.68
322.00 1.679
322.10 1.679
322.20 1.679
322.30 1.678
322.40 1.678
322.50 1.677
322.60 1.677
322.70 1.676
322.80 1.676
322.90 1.676
323.00 1.675
323.10 1.675
323.20 1.674
323.30 1.674
323.40 1.674
323.50 1.673
323.60 1.673
323.70 1.672
323.80 1.672
323.90 1.672
324.00 1.671
324.10 1.671
324.20 1.67
324.30 1.67
324.40 1.669
324.50 1.669
324.60 1.669
324.70 1.668
324.80 1.668
324.90 1.667
325.00 1.667
325.10 1.667
325.20 1.666
325.30 1.666
325.40 1.665
325.50 1.665
325.60 1.664
325.70 1.664
325.80 1.664
325.90 1.663
326.00 1.663
326.10 1.662
326.20 1.662
326.30 1.661
326.40 1.661
326.50 1.661
326.60 1.66
326.70 1.66
326.80 1.659
326.90 1.659
327.00 1.659
327.10 1.658
327.20 1.658
327.30 1.657
327.40 1.657
327.50 1.656
327.60 1.656
327.70 1.656
327.80 1.655
327.90 1.655
328.00 1.654
328.10 1.654
328.20 1.653
328.30 1.653
328.40 1.653
328.50 1.652
328.60 1.652
328.70 1.651
328.80 1.651
328.90 1.65
329.00 1.65
329.10 1.65
329.20 1.649
329.30 1.649
329.40 1.648
329.50 1.648
329.60 1.647
329.70 1.647
329.80 1.647
329.90 1.646
330.00 1.646
330.10 1.645
330.20 1.645
330.30 1.644
330.40 1.644
330.50 1.644
330.60 1.643
330.70 1.643
330.80 1.642
330.90 1.642
331.00 1.641
331.10 1.641
331.20 1.641
331.30 1.64
331.40 1.64
331.50 1.639
331.60 1.639
331.70 1.638
331.80 1.638
331.90 1.637
332.00 1.637
332.10 1.637
332.20 1.636
332.30 1.636
332.40 1.635
332.50 1.635
332.60 1.634
332.70 1.634
332.80 1.634
332.90 1.633
333.00 1.633
333.10 1.632
333.20 1.632
333.30 1.631
333.40 1.631
333.50 1.63
333.60 1.63
333.70 1.63
333.80 1.629
333.90 1.629
334.00 1.628
334.10 1.628
334.20 1.627
334.30 1.627
334.40 1.626
334.50 1.626
334.60 1.626
334.70 1.625
334.80 1.625
334.90 1.624
335.00 1.624
335.10 1.623
335.20 1.623
335.30 1.623
335.40 1.622
335.50 1.622
335.60 1.621
335.70 1.621
335.80 1.62
335.90 1.62
336.00 1.619
336.10 1.619
336.20 1.619
336.30 1.618
336.40 1.618
336.50 1.617
336.60 1.617
336.70 1.616
336.80 1.616
336.90 1.615
337.00 1.615
337.10 1.615
337.20 1.614
337.30 1.614
337.40 1.613
337.50 1.613
337.60 1.612
337.70 1.612
337.80 1.611
337.90 1.611
338.00 1.61
338.10 1.61
338.20 1.61
338.30 1.609
338.40 1.609
338.50 1.608
338.60 1.608
338.70 1.607
338.80 1.607
338.90 1.606
339.00 1.606
339.10 1.606
339.20 1.605
339.30 1.605
339.40 1.604
339.50 1.604
339.60 1.603
339.70 1.603
339.80 1.602
339.90 1.602
340.00 1.601
340.10 1.601
340.20 1.601
340.30 1.6
340.40 1.6
340.50 1.599
340.60 1.599
340.70 1.598
340.80 1.598
340.90 1.597
341.00 1.597
341.10 1.596
341.20 1.596
341.30 1.596
341.40 1.595
341.50 1.595
341.60 1.594
341.70 1.594
341.80 1.593
341.90 1.593
342.00 1.592
342.10 1.592
342.20 1.591
342.30 1.591
342.40 1.591
342.50 1.59
342.60 1.59
342.70 1.589
342.80 1.589
342.90 1.588
343.00 1.588
343.10 1.587
343.20 1.587
343.30 1.586
343.40 1.586
343.50 1.586
343.60 1.585
343.70 1.585
343.80 1.584
343.90 1.584
344.00 1.583
344.10 1.583
344.20 1.582
344.30 1.582
344.40 1.581
344.50 1.581
344.60 1.581
344.70 1.58
344.80 1.58
344.90 1.579
345.00 1.579
345.10 1.578
345.20 1.578
345.30 1.577
345.40 1.577
345.50 1.576
345.60 1.576
345.70 1.576
345.80 1.575
345.90 1.575
346.00 1.574
346.10 1.574
346.20 1.573
346.30 1.573
346.40 1.572
346.50 1.572
346.60 1.571
346.70 1.571
346.80 1.57
346.90 1.57
347.00 1.569
347.10 1.569
347.20 1.569
347.30 1.568
347.40 1.568
347.50 1.567
347.60 1.567
347.70 1.566
347.80 1.566
347.90 1.565
348.00 1.565
348.10 1.564
348.20 1.564
348.30 1.563
348.40 1.563
348.50 1.563
348.60 1.562
348.70 1.562
348.80 1.561
348.90 1.561
349.00 1.56
349.10 1.56
349.20 1.559
349.30 1.559
349.40 1.558
349.50 1.558
349.60 1.557
349.70 1.557
349.80 1.556
349.90 1.556
350.00 1.556
350.10 1.555
350.20 1.555
350.30 1.554
350.40 1.554
350.50 1.553
350.60 1.553
350.70 1.552
350.80 1.552
350.90 1.551
351.00 1.551
351.10 1.55
351.20 1.55
351.30 1.549
351.40 1.549
351.50 1.549
351.60 1.548
351.70 1.548
351.80 1.547
351.90 1.547
352.00 1.546
352.10 1.546
352.20 1.545
352.30 1.545
352.40 1.544
352.50 1.544
352.60 1.543
352.70 1.543
352.80 1.542
352.90 1.542
353.00 1.542
353.10 1.541
353.20 1.541
353.30 1.54
353.40 1.54
353.50 1.539
353.60 1.539
353.70 1.538
353.80 1.538
353.90 1.537
354.00 1.537
354.10 1.536
354.20 1.536
354.30 1.535
354.40 1.535
354.50 1.534
354.60 1.534
354.70 1.534
354.80 1.533
354.90 1.533
355.00 1.532
355.10 1.532
355.20 1.531
355.30 1.531
355.40 1.53
355.50 1.53
355.60 1.529
355.70 1.529
355.80 1.528
355.90 1.528
356.00 1.527
356.10 1.527
356.20 1.527
356.30 1.526
356.40 1.526
356.50 1.525
356.60 1.525
356.70 1.524
356.80 1.524
356.90 1.523
357.00 1.523
357.10 1.522
357.20 1.522
357.30 1.521
357.40 1.521
357.50 1.52
357.60 1.52
357.70 1.519
357.80 1.519
357.90 1.518
358.00 1.518
358.10 1.518
358.20 1.517
358.30 1.517
358.40 1.516
358.50 1.516
358.60 1.515
358.70 1.515
358.80 1.514
358.90 1.514
359.00 1.513
359.10 1.513
359.20 1.512
359.30 1.512
359.40 1.511
359.50 1.511
359.60 1.51
359.70 1.51
359.80 1.509
359.90 1.509
360.00 1.509
360.10 1.508
360.20 1.508
360.30 1.507
360.40 1.507
360.50 1.506
360.60 1.506
360.70 1.505
360.80 1.505
360.90 1.504
361.00 1.504
361.10 1.503
361.20 1.503
361.30 1.502
361.40 1.502
361.50 1.501
361.60 1.501
361.70 1.5
361.80 1.5
361.90 1.5
362.00 1.499
362.10 1.499
362.20 1.498
362.30 1.498
362.40 1.497
362.50 1.497
362.60 1.496
362.70 1.496
362.80 1.495
362.90 1.495
363.00 1.494
363.10 1.494
363.20 1.493
363.30 1.493
363.40 1.492
363.50 1.492
363.60 1.491
363.70 1.491
363.80 1.49
363.90 1.49
364.00 1.489
364.10 1.489
364.20 1.488
364.30 1.488
364.40 1.487
364.50 1.486
364.60 1.486
364.70 1.485
364.80 1.485
364.90 1.484
365.00 1.484
365.10 1.483
365.20 1.483
365.30 1.482
365.40 1.482
365.50 1.481
365.60 1.481
365.70 1.48
365.80 1.48
365.90 1.479
366.00 1.479
366.10 1.478
366.20 1.478
366.30 1.477
366.40 1.477
366.50 1.476
366.60 1.476
366.70 1.475
366.80 1.475
366.90 1.474
367.00 1.474
367.10 1.473
367.20 1.473
367.30 1.472
367.40 1.472
367.50 1.471
367.60 1.471
367.70 1.47
367.80 1.47
367.90 1.469
368.00 1.469
368.10 1.468
368.20 1.468
368.30 1.467
368.40 1.467
368.50 1.466
368.60 1.466
368.70 1.465
368.80 1.465
368.90 1.464
369.00 1.464
369.10 1.463
369.20 1.463
369.30 1.462
369.40 1.462
369.50 1.461
369.60 1.461
369.70 1.46
369.80 1.46
369.90 1.459
370.00 1.459
370.10 1.459
370.20 1.458
370.30 1.458
370.40 1.457
370.50 1.457
370.60 1.456
370.70 1.456
370.80 1.455
370.90 1.455
371.00 1.454
371.10 1.454
371.20 1.453
371.30 1.453
371.40 1.452
371.50 1.452
371.60 1.451
371.70 1.451
371.80 1.45
371.90 1.45
372.00 1.449
372.10 1.449
372.20 1.449
372.30 1.448
372.40 1.448
372.50 1.447
372.60 1.447
372.70 1.446
372.80 1.446
372.90 1.445
373.00 1.445
373.10 1.444
373.20 1.444
373.30 1.443
373.40 1.443
373.50 1.442
373.60 1.442
373.70 1.442
373.80 1.441
373.90 1.441
374.00 1.44
374.10 1.44
374.20 1.439
374.30 1.439
374.40 1.438
374.50 1.438
374.60 1.438
374.70 1.437
374.80 1.437
374.90 1.436
375.00 1.436
375.10 1.435
375.20 1.435
375.30 1.434
375.40 1.434
375.50 1.434
375.60 1.433
375.70 1.433
375.80 1.432
375.90 1.432
376.00 1.431
376.10 1.431
376.20 1.43
376.30 1.43
376.40 1.43
376.50 1.429
376.60 1.429
376.70 1.428
376.80 1.428
376.90 1.427
377.00 1.427
377.10 1.427
377.20 1.426
377.30 1.426
377.40 1.425
377.50 1.425
377.60 1.424
377.70 1.424
377.80 1.423
377.90 1.423
378.00 1.422
378.10 1.421
378.20 1.42
378.30 1.42
378.40 1.419
378.50 1.418
378.60 1.417
378.70 1.416
378.80 1.415
378.90 1.415
379.00 1.414
379.10 1.413
379.20 1.412
379.30 1.411
379.40 1.41
379.50 1.409
379.60 1.408
379.70 1.407
379.80 1.406
379.90 1.405
380.00 1.404
380.10 1.405
380.20 1.405
380.30 1.406
380.40 1.406
380.50 1.407
380.60 1.408
380.70 1.408
380.80 1.409
380.90 1.409
381.00 1.41
381.10 1.41
381.20 1.41
381.30 1.409
381.40 1.409
381.50 1.409
381.60 1.409
381.70 1.408
381.80 1.408
381.90 1.407
382.00 1.406
382.10 1.406
382.20 1.405
382.30 1.402
382.40 1.4
382.50 1.398
382.60 1.396
382.70 1.394
382.80 1.392
382.90 1.39
383.00 1.387
383.10 1.385
383.20 1.383
383.30 1.38
383.40 1.376
383.50 1.373
383.60 1.373
383.70 1.377
383.80 1.38
383.90 1.383
384.00 1.385
384.10 1.388
384.20 1.39
384.30 1.393
384.40 1.394
384.50 1.396
384.60 1.397
384.70 1.398
384.80 1.399
384.90 1.4
385.00 1.401
385.10 1.401
385.20 1.401
385.30 1.402
385.40 1.402
385.50 1.402
385.60 1.401
385.70 1.401
385.80 1.401
385.90 1.401
386.00 1.4
386.10 1.4
386.20 1.4
386.30 1.399
386.40 1.398
386.50 1.398
386.60 1.397
386.70 1.396
386.80 1.395
386.90 1.394
387.00 1.393
387.10 1.391
387.20 1.39
387.30 1.388
387.40 1.387
387.50 1.385
387.60 1.382
387.70 1.38
387.80 1.377
387.90 1.374
388.00 1.37
388.10 1.365
388.20 1.36
388.30 1.354
388.40 1.347
388.50 1.34
388.60 1.332
388.70 1.324
388.80 1.316
388.90 1.31
389.00 1.316
389.10 1.323
389.20 1.331
389.30 1.338
389.40 1.346
389.50 1.352
389.60 1.358
389.70 1.363
389.80 1.368
389.90 1.371
390.00 1.374
390.10 1.377
390.20 1.379
390.30 1.381
390.40 1.383
390.50 1.385
390.60 1.386
390.70 1.387
390.80 1.388
390.90 1.389
391.00 1.39
391.10 1.39
391.20 1.391
391.30 1.392
391.40 1.392
391.50 1.392
391.60 1.393
391.70 1.393
391.80 1.393
391.90 1.393
392.00 1.393
392.10 1.393
392.20 1.392
392.30 1.392
392.40 1.392
392.50 1.392
392.60 1.391
392.70 1.391
392.80 1.39
392.90 1.389
393.00 1.389
393.10 1.388
393.20 1.387
393.30 1.386
393.40 1.385
393.50 1.384
393.60 1.382
393.70 1.381
393.80 1.38
393.90 1.378
394.00 1.377
394.10 1.375
394.20 1.373
394.30 1.371
394.40 1.369
394.50 1.367
394.60 1.365
394.70 1.362
394.80 1.36
394.90 1.357
395.00 1.354
395.10 1.351
395.20 1.348
395.30 1.344
395.40 1.34
395.50 1.336
395.60 1.331
395.70 1.326
395.80 1.321
395.90 1.315
396.00 1.308
396.10 1.301
396.20 1.292
396.30 1.281
396.40 1.269
396.50 1.254
396.60 1.237
396.70 1.218
396.80 1.197
396.90 1.177
397.00 1.156
397.10 1.174
397.20 1.194
397.30 1.214
397.40 1.233
397.50 1.25
397.60 1.265
397.70 1.277
397.80 1.288
397.90 1.297
398.00 1.304
398.10 1.31
398.20 1.316
398.30 1.321
398.40 1.326
398.50 1.33
398.60 1.334
398.70 1.338
398.80 1.341
398.90 1.344
399.00 1.347
399.10 1.35
399.20 1.352
399.30 1.354
399.40 1.357
399.50 1.358
399.60 1.36
399.70 1.362
399.80 1.364
399.90 1.365
400.00 1.367
400.10 1.368
400.20 1.369
400.30 1.37
400.40 1.372
400.50 1.373
400.60 1.373
400.70 1.374
400.80 1.375
400.90 1.376
401.00 1.376
401.10 1.377
401.20 1.377
401.30 1.378
401.40 1.378
401.50 1.379
401.60 1.379
401.70 1.379
401.80 1.379
401.90 1.379
402.00 1.38
402.10 1.38
402.20 1.38
402.30 1.379
402.40 1.379
402.50 1.379
402.60 1.379
402.70 1.379
402.80 1.379
402.90 1.378
403.00 1.378
403.10 1.377
403.20 1.377
403.30 1.376
403.40 1.376
403.50 1.375
403.60 1.375
403.70 1.374
403.80 1.373
403.90 1.373
404.00 1.372
404.10 1.371
404.20 1.37
404.30 1.369
404.40 1.368
404.50 1.367
404.60 1.366
404.70 1.364
404.80 1.363
404.90 1.362
405.00 1.36
405.10 1.359
405.20 1.358
405.30 1.356
405.40 1.354
405.50 1.353
405.60 1.351
405.70 1.349
405.80 1.347
405.90 1.345
406.00 1.343
406.10 1.34
406.20 1.338
406.30 1.336
406.40 1.333
406.50 1.33
406.60 1.327
406.70 1.324
406.80 1.321
406.90 1.318
407.00 1.315
407.10 1.311
407.20 1.307
407.30 1.303
407.40 1.299
407.50 1.295
407.60 1.29
407.70 1.285
407.80 1.28
407.90 1.275
408.00 1.269
408.10 1.263
408.20 1.257
408.30 1.25
408.40 1.243
408.50 1.235
408.60 1.227
408.70 1.218
408.80 1.209
408.90 1.199
409.00 1.189
409.10 1.177
409.20 1.164
409.30 1.15
409.40 1.134
409.50 1.115
409.60 1.094
409.70 1.066
409.80 1.034
409.90 0.9981
410.00 0.9559
410.10 0.922
410.20 0.8966
410.30 0.9374
410.40 0.9778
410.50 1.018
410.60 1.05
410.70 1.079
410.80 1.103
410.90 1.122
411.00 1.139
411.10 1.153
411.20 1.166
411.30 1.177
411.40 1.188
411.50 1.197
411.60 1.206
411.70 1.214
411.80 1.222
411.90 1.229
412.00 1.236
412.10 1.242
412.20 1.248
412.30 1.254
412.40 1.259
412.50 1.263
412.60 1.268
412.70 1.272
412.80 1.276
412.90 1.28
413.00 1.284
413.10 1.287
413.20 1.29
413.30 1.293
413.40 1.296
413.50 1.299
413.60 1.301
413.70 1.304
413.80 1.306
413.90 1.308
414.00 1.31
414.10 1.312
414.20 1.314
414.30 1.316
414.40 1.317
414.50 1.319
414.60 1.32
414.70 1.322
414.80 1.323
414.90 1.324
415.00 1.325
415.10 1.326
415.20 1.327
415.30 1.328
415.40 1.329
415.50 1.33
415.60 1.331
415.70 1.331
415.80 1.332
415.90 1.333
416.00 1.333
416.10 1.334
416.20 1.334
416.30 1.335
416.40 1.335
416.50 1.336
416.60 1.336
416.70 1.336
416.80 1.337
416.90 1.337
417.00 1.337
417.10 1.338
417.20 1.338
417.30 1.338
417.40 1.338
417.50 1.338
417.60 1.338
417.70 1.338
417.80 1.338
417.90 1.338
418.00 1.338
418.10 1.338
418.20 1.338
418.30 1.338
418.40 1.338
418.50 1.338
418.60 1.338
418.70 1.338
418.80 1.338
418.90 1.338
419.00 1.338
419.10 1.337
419.20 1.337
419.30 1.337
419.40 1.337
419.50 1.337
419.60 1.336
419.70 1.336
419.80 1.336
419.90 1.336
420.00 1.335
420.10 1.335
420.20 1.335
420.30 1.334
420.40 1.334
420.50 1.334
420.60 1.333
420.70 1.333
420.80 1.333
420.90 1.332
421.00 1.332
421.10 1.332
421.20 1.331
421.30 1.331
421.40 1.33
421.50 1.33
421.60 1.329
421.70 1.329
421.80 1.329
421.90 1.328
422.00 1.328
422.10 1.327
422.20 1.327
422.30 1.326
422.40 1.326
422.50 1.325
422.60 1.324
422.70 1.324
422.80 1.323
422.90 1.323
423.00 1.322
423.10 1.322
423.20 1.321
423.30 1.32
423.40 1.32
423.50 1.319
423.60 1.319
423.70 1.318
423.80 1.317
423.90 1.317
424.00 1.316
424.10 1.315
424.20 1.314
424.30 1.314
424.40 1.313
424.50 1.312
424.60 1.312
424.70 1.311
424.80 1.31
424.90 1.309
425.00 1.308
425.10 1.307
425.20 1.307
425.30 1.306
425.40 1.305
425.50 1.304
425.60 1.303
425.70 1.302
425.80 1.301
425.90 1.3
426.00 1.299
426.10 1.298
426.20 1.297
426.30 1.296
426.40 1.295
426.50 1.293
426.60 1.292
426.70 1.291
426.80 1.29
426.90 1.289
427.00 1.287
427.10 1.286
427.20 1.285
427.30 1.283
427.40 1.282
427.50 1.28
427.60 1.279
427.70 1.277
427.80 1.276
427.90 1.274
428.00 1.273
428.10 1.271
428.20 1.269
428.30 1.267
428.40 1.265
428.50 1.263
428.60 1.261
428.70 1.259
428.80 1.257
428.90 1.255
429.00 1.253
429.10 1.25
429.20 1.248
429.30 1.245
429.40 1.243
429.50 1.24
429.60 1.237
429.70 1.234
429.80 1.231
429.90 1.228
430.00 1.225
430.10 1.221
430.20 1.217
430.30 1.214
430.40 1.21
430.50 1.206
430.60 1.201
430.70 1.197
430.80 1.192
430.90 1.187
431.00 1.182
431.10 1.177
431.20 1.171
431.30 1.165
431.40 1.159
431.50 1.153
431.60 1.146
431.70 1.138
431.80 1.131
431.90 1.123
432.00 1.114
432.10 1.105
432.20 1.095
432.30 1.084
432.40 1.073
432.50 1.061
432.60 1.048
432.70 1.034
432.80 1.018
432.90 1.002
433.00 0.9843
433.10 0.9647
433.20 0.9436
433.30 0.9211
433.40 0.8939
433.50 0.8626
433.60 0.8273
433.70 0.7772
433.80 0.7198
433.90 0.6552
434.00 0.5925
434.10 0.5942
434.20 0.6603
434.30 0.724
434.40 0.7803
434.50 0.8291
434.60 0.8633
434.70 0.8935
434.80 0.9198
434.90 0.9415
435.00 0.9617
435.10 0.9806
435.20 0.9973
435.30 1.013
435.40 1.028
435.50 1.041
435.60 1.053
435.70 1.064
435.80 1.075
435.90 1.084
436.00 1.093
436.10 1.102
436.20 1.109
436.30 1.117
436.40 1.123
436.50 1.13
436.60 1.136
436.70 1.141
436.80 1.147
436.90 1.152
437.00 1.156
437.10 1.161
437.20 1.165
437.30 1.169
437.40 1.173
437.50 1.176
437.60 1.179
437.70 1.183
437.80 1.186
437.90 1.188
438.00 1.191
438.10 1.194
438.20 1.196
438.30 1.198
438.40 1.2
438.50 1.202
438.60 1.204
438.70 1.206
438.80 1.208
438.90 1.209
439.00 1.211
439.10 1.212
439.20 1.214
439.30 1.215
439.40 1.216
439.50 1.218
439.60 1.219
439.70 1.22
439.80 1.221
439.90 1.221
440.00 1.222
440.10 1.223
440.20 1.224
440.30 1.225
440.40 1.225
440.50 1.226
440.60 1.226
440.70 1.227
440.80 1.228
440.90 1.228
441.00 1.228
441.10 1.229
441.20 1.229
441.30 1.23
441.40 1.23
441.50 1.23
441.60 1.23
441.70 1.231
441.80 1.231
441.90 1.231
442.00 1.231
442.10 1.231
442.20 1.232
442.30 1.232
442.40 1.232
442.50 1.232
442.60 1.232
442.70 1.232
442.80 1.232
442.90 1.232
443.00 1.232
443.10 1.232
443.20 1.232
443.30 1.232
443.40 1.232
443.50 1.232
443.60 1.232
443.70 1.232
443.80 1.232
443.90 1.231
444.00 1.231
444.10 1.231
444.20 1.231
444.30 1.231
444.40 1.231
444.50 1.23
444.60 1.23
444.70 1.23
444.80 1.23
444.90 1.23
445.00 1.23
445.10 1.229
445.20 1.229
445.30 1.229
445.40 1.229
445.50 1.228
445.60 1.228
445.70 1.228
445.80 1.228
445.90 1.227
446.00 1.227
446.10 1.227
446.20 1.227
446.30 1.226
446.40 1.226
446.50 1.226
446.60 1.225
446.70 1.225
446.80 1.225
446.90 1.225
447.00 1.224
447.10 1.224
447.20 1.224
447.30 1.223
447.40 1.223
447.50 1.223
447.60 1.222
447.70 1.222
447.80 1.222
447.90 1.221
448.00 1.221
448.10 1.221
448.20 1.22
448.30 1.22
448.40 1.22
448.50 1.219
448.60 1.219
448.70 1.219
448.80 1.218
448.90 1.218
449.00 1.217
449.10 1.217
449.20 1.217
449.30 1.216
449.40 1.216
449.50 1.216
449.60 1.215
449.70 1.215
449.80 1.214
449.90 1.214
450.00 1.214
450.10 1.213
450.20 1.213
450.30 1.213
450.40 1.212
450.50 1.212
450.60 1.211
450.70 1.211
450.80 1.211
450.90 1.21
451.00 1.21
451.10 1.209
451.20 1.209
451.30 1.209
451.40 1.208
451.50 1.208
451.60 1.207
451.70 1.207
451.80 1.207
451.90 1.206
452.00 1.206
452.10 1.205
452.20 1.205
452.30 1.205
452.40 1.204
452.50 1.204
452.60 1.203
452.70 1.203
452.80 1.202
452.90 1.202
453.00 1.202
453.10 1.201
453.20 1.201
453.30 1.2
453.40 1.2
453.50 1.199
453.60 1.199
453.70 1.199
453.80 1.198
453.90 1.198
454.00 1.197
