# Version 2.1 - nm, norm@500 to 1, cut digits, bergeron_13000_70.dat_13000
# Wavelength(nm)  Flambda(ergs/cm^s/s/nm)
300.00 1.722
300.10 1.721
300.20 1.72
300.30 1.719
300.40 1.718
300.50 1.717
300.60 1.716
300.70 1.714
300.80 1.713
300.90 1.712
301.00 1.711
301.10 1.71
301.20 1.709
301.30 1.708
301.40 1.706
301.50 1.705
301.60 1.704
301.70 1.703
301.80 1.702
301.90 1.701
302.00 1.7
302.10 1.699
302.20 1.697
302.30 1.696
302.40 1.695
302.50 1.694
302.60 1.693
302.70 1.692
302.80 1.691
302.90 1.69
303.00 1.688
303.10 1.687
303.20 1.686
303.30 1.685
303.40 1.684
303.50 1.683
303.60 1.682
303.70 1.681
303.80 1.68
303.90 1.678
304.00 1.677
304.10 1.676
304.20 1.675
304.30 1.674
304.40 1.673
304.50 1.672
304.60 1.671
304.70 1.67
304.80 1.669
304.90 1.667
305.00 1.666
305.10 1.665
305.20 1.664
305.30 1.663
305.40 1.662
305.50 1.661
305.60 1.66
305.70 1.659
305.80 1.658
305.90 1.657
306.00 1.655
306.10 1.654
306.20 1.653
306.30 1.652
306.40 1.651
306.50 1.65
306.60 1.649
306.70 1.648
306.80 1.647
306.90 1.646
307.00 1.645
307.10 1.644
307.20 1.643
307.30 1.641
307.40 1.64
307.50 1.639
307.60 1.638
307.70 1.637
307.80 1.636
307.90 1.635
308.00 1.634
308.10 1.633
308.20 1.632
308.30 1.631
308.40 1.63
308.50 1.629
308.60 1.628
308.70 1.627
308.80 1.625
308.90 1.624
309.00 1.623
309.10 1.622
309.20 1.621
309.30 1.62
309.40 1.619
309.50 1.618
309.60 1.617
309.70 1.616
309.80 1.615
309.90 1.614
310.00 1.613
310.10 1.612
310.20 1.611
310.30 1.61
310.40 1.609
310.50 1.608
310.60 1.607
310.70 1.606
310.80 1.605
310.90 1.603
311.00 1.602
311.10 1.601
311.20 1.6
311.30 1.599
311.40 1.598
311.50 1.597
311.60 1.596
311.70 1.595
311.80 1.594
311.90 1.593
312.00 1.592
312.10 1.591
312.20 1.59
312.30 1.589
312.40 1.588
312.50 1.587
312.60 1.586
312.70 1.585
312.80 1.584
312.90 1.583
313.00 1.582
313.10 1.581
313.20 1.58
313.30 1.579
313.40 1.578
313.50 1.577
313.60 1.576
313.70 1.575
313.80 1.574
313.90 1.573
314.00 1.572
314.10 1.571
314.20 1.57
314.30 1.569
314.40 1.568
314.50 1.567
314.60 1.566
314.70 1.565
314.80 1.564
314.90 1.563
315.00 1.562
315.10 1.561
315.20 1.56
315.30 1.559
315.40 1.558
315.50 1.557
315.60 1.556
315.70 1.555
315.80 1.554
315.90 1.553
316.00 1.552
316.10 1.551
316.20 1.55
316.30 1.549
316.40 1.548
316.50 1.547
316.60 1.546
316.70 1.545
316.80 1.544
316.90 1.543
317.00 1.542
317.10 1.541
317.20 1.54
317.30 1.539
317.40 1.538
317.50 1.537
317.60 1.536
317.70 1.535
317.80 1.534
317.90 1.533
318.00 1.532
318.10 1.531
318.20 1.53
318.30 1.529
318.40 1.528
318.50 1.527
318.60 1.526
318.70 1.525
318.80 1.524
318.90 1.523
319.00 1.522
319.10 1.522
319.20 1.521
319.30 1.52
319.40 1.519
319.50 1.518
319.60 1.517
319.70 1.516
319.80 1.515
319.90 1.514
320.00 1.513
320.10 1.512
320.20 1.511
320.30 1.51
320.40 1.509
320.50 1.508
320.60 1.507
320.70 1.506
320.80 1.505
320.90 1.504
321.00 1.503
321.10 1.502
321.20 1.501
321.30 1.501
321.40 1.5
321.50 1.499
321.60 1.498
321.70 1.497
321.80 1.496
321.90 1.495
322.00 1.494
322.10 1.493
322.20 1.492
322.30 1.491
322.40 1.49
322.50 1.489
322.60 1.488
322.70 1.487
322.80 1.486
322.90 1.485
323.00 1.485
323.10 1.484
323.20 1.483
323.30 1.482
323.40 1.481
323.50 1.48
323.60 1.479
323.70 1.478
323.80 1.477
323.90 1.476
324.00 1.475
324.10 1.474
324.20 1.473
324.30 1.472
324.40 1.472
324.50 1.471
324.60 1.47
324.70 1.469
324.80 1.468
324.90 1.467
325.00 1.466
325.10 1.465
325.20 1.464
325.30 1.463
325.40 1.462
325.50 1.461
325.60 1.461
325.70 1.46
325.80 1.459
325.90 1.458
326.00 1.457
326.10 1.456
326.20 1.455
326.30 1.454
326.40 1.453
326.50 1.452
326.60 1.452
326.70 1.451
326.80 1.45
326.90 1.449
327.00 1.448
327.10 1.447
327.20 1.446
327.30 1.445
327.40 1.444
327.50 1.443
327.60 1.443
327.70 1.442
327.80 1.441
327.90 1.44
328.00 1.439
328.10 1.438
328.20 1.437
328.30 1.436
328.40 1.435
328.50 1.434
328.60 1.434
328.70 1.433
328.80 1.432
328.90 1.431
329.00 1.43
329.10 1.429
329.20 1.428
329.30 1.427
329.40 1.426
329.50 1.426
329.60 1.425
329.70 1.424
329.80 1.423
329.90 1.422
330.00 1.421
330.10 1.42
330.20 1.419
330.30 1.419
330.40 1.418
330.50 1.417
330.60 1.416
330.70 1.415
330.80 1.414
330.90 1.413
331.00 1.412
331.10 1.412
331.20 1.411
331.30 1.41
331.40 1.409
331.50 1.408
331.60 1.407
331.70 1.406
331.80 1.406
331.90 1.405
332.00 1.404
332.10 1.403
332.20 1.402
332.30 1.401
332.40 1.4
332.50 1.399
332.60 1.399
332.70 1.398
332.80 1.397
332.90 1.396
333.00 1.395
333.10 1.394
333.20 1.393
333.30 1.393
333.40 1.392
333.50 1.391
333.60 1.39
333.70 1.389
333.80 1.388
333.90 1.388
334.00 1.387
334.10 1.386
334.20 1.385
334.30 1.384
334.40 1.383
334.50 1.382
334.60 1.382
334.70 1.381
334.80 1.38
334.90 1.379
335.00 1.378
335.10 1.377
335.20 1.377
335.30 1.376
335.40 1.375
335.50 1.374
335.60 1.373
335.70 1.372
335.80 1.371
335.90 1.371
336.00 1.37
336.10 1.369
336.20 1.368
336.30 1.367
336.40 1.366
336.50 1.366
336.60 1.365
336.70 1.364
336.80 1.363
336.90 1.362
337.00 1.362
337.10 1.361
337.20 1.36
337.30 1.359
337.40 1.358
337.50 1.357
337.60 1.357
337.70 1.356
337.80 1.355
337.90 1.354
338.00 1.353
338.10 1.352
338.20 1.352
338.30 1.351
338.40 1.35
338.50 1.349
338.60 1.348
338.70 1.348
338.80 1.347
338.90 1.346
339.00 1.345
339.10 1.344
339.20 1.343
339.30 1.343
339.40 1.342
339.50 1.341
339.60 1.34
339.70 1.339
339.80 1.339
339.90 1.338
340.00 1.337
340.10 1.336
340.20 1.335
340.30 1.335
340.40 1.334
340.50 1.333
340.60 1.332
340.70 1.331
340.80 1.33
340.90 1.33
341.00 1.329
341.10 1.328
341.20 1.327
341.30 1.326
341.40 1.326
341.50 1.325
341.60 1.324
341.70 1.323
341.80 1.322
341.90 1.322
342.00 1.321
342.10 1.32
342.20 1.319
342.30 1.319
342.40 1.318
342.50 1.317
342.60 1.316
342.70 1.315
342.80 1.315
342.90 1.314
343.00 1.313
343.10 1.312
343.20 1.311
343.30 1.311
343.40 1.31
343.50 1.309
343.60 1.308
343.70 1.307
343.80 1.307
343.90 1.306
344.00 1.305
344.10 1.304
344.20 1.304
344.30 1.303
344.40 1.302
344.50 1.301
344.60 1.3
344.70 1.3
344.80 1.299
344.90 1.298
345.00 1.297
345.10 1.297
345.20 1.296
345.30 1.295
345.40 1.294
345.50 1.293
345.60 1.293
345.70 1.292
345.80 1.291
345.90 1.29
346.00 1.29
346.10 1.289
346.20 1.288
346.30 1.287
346.40 1.287
346.50 1.286
346.60 1.285
346.70 1.284
346.80 1.283
346.90 1.283
347.00 1.282
347.10 1.281
347.20 1.28
347.30 1.28
347.40 1.279
347.50 1.278
347.60 1.277
347.70 1.277
347.80 1.276
347.90 1.275
348.00 1.274
348.10 1.274
348.20 1.273
348.30 1.272
348.40 1.271
348.50 1.271
348.60 1.27
348.70 1.269
348.80 1.268
348.90 1.267
349.00 1.267
349.10 1.266
349.20 1.265
349.30 1.264
349.40 1.264
349.50 1.263
349.60 1.262
349.70 1.261
349.80 1.261
349.90 1.26
350.00 1.259
350.10 1.259
350.20 1.258
350.30 1.257
350.40 1.256
350.50 1.256
350.60 1.255
350.70 1.254
350.80 1.253
350.90 1.253
351.00 1.252
351.10 1.251
351.20 1.25
351.30 1.25
351.40 1.249
351.50 1.248
351.60 1.247
351.70 1.247
351.80 1.246
351.90 1.245
352.00 1.244
352.10 1.244
352.20 1.243
352.30 1.242
352.40 1.242
352.50 1.241
352.60 1.24
352.70 1.239
352.80 1.239
352.90 1.238
353.00 1.237
353.10 1.236
353.20 1.236
353.30 1.235
353.40 1.234
353.50 1.233
353.60 1.233
353.70 1.232
353.80 1.231
353.90 1.231
354.00 1.23
354.10 1.229
354.20 1.228
354.30 1.228
354.40 1.227
354.50 1.226
354.60 1.226
354.70 1.225
354.80 1.224
354.90 1.223
355.00 1.223
355.10 1.222
355.20 1.221
355.30 1.22
355.40 1.22
355.50 1.219
355.60 1.218
355.70 1.218
355.80 1.217
355.90 1.216
356.00 1.216
356.10 1.215
356.20 1.214
356.30 1.213
356.40 1.213
356.50 1.212
356.60 1.211
356.70 1.211
356.80 1.21
356.90 1.209
357.00 1.208
357.10 1.208
357.20 1.207
357.30 1.206
357.40 1.206
357.50 1.205
357.60 1.204
357.70 1.203
357.80 1.203
357.90 1.202
358.00 1.201
358.10 1.201
358.20 1.2
358.30 1.199
358.40 1.199
358.50 1.198
358.60 1.197
358.70 1.196
358.80 1.196
358.90 1.195
359.00 1.194
359.10 1.194
359.20 1.193
359.30 1.192
359.40 1.192
359.50 1.191
359.60 1.19
359.70 1.19
359.80 1.189
359.90 1.188
360.00 1.187
360.10 1.187
360.20 1.186
360.30 1.185
360.40 1.185
360.50 1.184
360.60 1.183
360.70 1.183
360.80 1.182
360.90 1.181
361.00 1.181
361.10 1.18
361.20 1.179
361.30 1.178
361.40 1.178
361.50 1.177
361.60 1.176
361.70 1.176
361.80 1.175
361.90 1.174
362.00 1.174
362.10 1.173
362.20 1.172
362.30 1.172
362.40 1.171
362.50 1.17
362.60 1.17
362.70 1.169
362.80 1.168
362.90 1.168
363.00 1.167
363.10 1.166
363.20 1.166
363.30 1.165
363.40 1.164
363.50 1.163
363.60 1.163
363.70 1.162
363.80 1.161
363.90 1.161
364.00 1.16
364.10 1.159
364.20 1.158
364.30 1.158
364.40 1.157
364.50 1.156
364.60 1.156
364.70 1.155
364.80 1.154
364.90 1.154
365.00 1.153
365.10 1.152
365.20 1.152
365.30 1.151
365.40 1.15
365.50 1.15
365.60 1.149
365.70 1.148
365.80 1.148
365.90 1.147
366.00 1.146
366.10 1.146
366.20 1.145
366.30 1.145
366.40 1.144
366.50 1.143
366.60 1.143
366.70 1.142
366.80 1.142
366.90 1.141
367.00 1.14
367.10 1.14
367.20 1.139
367.30 1.139
367.40 1.138
367.50 1.137
367.60 1.137
367.70 1.136
367.80 1.135
367.90 1.135
368.00 1.134
368.10 1.134
368.20 1.135
368.30 1.135
368.40 1.135
368.50 1.135
368.60 1.135
368.70 1.136
368.80 1.136
368.90 1.136
369.00 1.136
369.10 1.136
369.20 1.137
369.30 1.137
369.40 1.137
369.50 1.137
369.60 1.137
369.70 1.137
369.80 1.138
369.90 1.138
370.00 1.138
370.10 1.14
370.20 1.142
370.30 1.144
370.40 1.145
370.50 1.147
370.60 1.149
370.70 1.151
370.80 1.153
370.90 1.155
371.00 1.157
371.10 1.158
371.20 1.16
371.30 1.162
371.40 1.164
371.50 1.166
371.60 1.168
371.70 1.169
371.80 1.171
371.90 1.173
372.00 1.175
372.10 1.178
372.20 1.182
372.30 1.185
372.40 1.189
372.50 1.192
372.60 1.196
372.70 1.199
372.80 1.202
372.90 1.206
373.00 1.209
373.10 1.213
373.20 1.216
373.30 1.219
373.40 1.223
373.50 1.226
373.60 1.23
373.70 1.233
373.80 1.236
373.90 1.24
374.00 1.243
374.10 1.247
374.20 1.251
374.30 1.254
374.40 1.258
374.50 1.262
374.60 1.266
374.70 1.269
374.80 1.273
374.90 1.277
375.00 1.281
375.10 1.284
375.20 1.288
375.30 1.292
375.40 1.295
375.50 1.299
375.60 1.303
375.70 1.306
375.80 1.31
375.90 1.314
376.00 1.317
376.10 1.319
376.20 1.321
376.30 1.323
376.40 1.325
376.50 1.327
376.60 1.329
376.70 1.33
376.80 1.332
376.90 1.334
377.00 1.336
377.10 1.333
377.20 1.33
377.30 1.327
377.40 1.324
377.50 1.321
377.60 1.317
377.70 1.314
377.80 1.311
377.90 1.308
378.00 1.305
378.10 1.287
378.20 1.269
378.30 1.252
378.40 1.234
378.50 1.216
378.60 1.198
378.70 1.181
378.80 1.163
378.90 1.145
379.00 1.127
379.10 1.113
379.20 1.098
379.30 1.083
379.40 1.068
379.50 1.053
379.60 1.038
379.70 1.023
379.80 1.008
379.90 0.9934
380.00 0.9785
380.10 1.002
380.20 1.025
380.30 1.049
380.40 1.072
380.50 1.096
380.60 1.119
380.70 1.142
380.80 1.166
380.90 1.189
381.00 1.212
381.10 1.221
381.20 1.231
381.30 1.24
381.40 1.249
381.50 1.258
381.60 1.259
381.70 1.256
381.80 1.251
381.90 1.244
382.00 1.233
382.10 1.219
382.20 1.202
382.30 1.171
382.40 1.14
382.50 1.109
382.60 1.078
382.70 1.047
382.80 1.016
382.90 0.9852
383.00 0.9545
383.10 0.9237
383.20 0.893
383.30 0.8606
383.40 0.825
383.50 0.7867
383.60 0.795
383.70 0.8325
383.80 0.8675
383.90 0.8994
384.00 0.9322
384.10 0.9676
384.20 1.004
384.30 1.041
384.40 1.077
384.50 1.113
384.60 1.146
384.70 1.177
384.80 1.205
384.90 1.23
385.00 1.252
385.10 1.271
385.20 1.289
385.30 1.304
385.40 1.316
385.50 1.327
385.60 1.336
385.70 1.343
385.80 1.348
385.90 1.352
386.00 1.354
386.10 1.354
386.20 1.354
386.30 1.35
386.40 1.346
386.50 1.34
386.60 1.332
386.70 1.323
386.80 1.313
386.90 1.3
387.00 1.285
387.10 1.27
387.20 1.252
387.30 1.232
387.40 1.211
387.50 1.186
387.60 1.159
387.70 1.131
387.80 1.098
387.90 1.063
388.00 1.027
388.10 0.9869
388.20 0.9466
388.30 0.9058
388.40 0.8655
388.50 0.8266
388.60 0.7891
388.70 0.7497
388.80 0.7081
388.90 0.6642
389.00 0.7049
389.10 0.7448
389.20 0.784
389.30 0.8209
389.40 0.8592
389.50 0.8988
389.60 0.9394
389.70 0.9795
389.80 1.019
389.90 1.057
390.00 1.092
390.10 1.126
390.20 1.157
390.30 1.185
390.40 1.212
390.50 1.237
390.60 1.26
390.70 1.282
390.80 1.302
390.90 1.321
391.00 1.34
391.10 1.357
391.20 1.373
391.30 1.388
391.40 1.402
391.50 1.416
391.60 1.429
391.70 1.44
391.80 1.451
391.90 1.46
392.00 1.469
392.10 1.477
392.20 1.484
392.30 1.49
392.40 1.494
392.50 1.499
392.60 1.501
392.70 1.503
392.80 1.504
392.90 1.504
393.00 1.502
393.10 1.5
393.20 1.497
393.30 1.492
393.40 1.487
393.50 1.48
393.60 1.473
393.70 1.464
393.80 1.454
393.90 1.444
394.00 1.432
394.10 1.419
394.20 1.406
394.30 1.391
394.40 1.375
394.50 1.359
394.60 1.342
394.70 1.323
394.80 1.304
394.90 1.284
395.00 1.263
395.10 1.241
395.20 1.219
395.30 1.195
395.40 1.17
395.50 1.145
395.60 1.117
395.70 1.089
395.80 1.059
395.90 1.027
396.00 0.9935
396.10 0.959
396.20 0.9221
396.30 0.8841
396.40 0.8451
396.50 0.8057
396.60 0.7671
396.70 0.7293
396.80 0.6884
396.90 0.6368
397.00 0.5745
397.10 0.6321
397.20 0.6815
397.30 0.7227
397.40 0.7598
397.50 0.7977
397.60 0.8362
397.70 0.8745
397.80 0.9119
397.90 0.9481
398.00 0.982
398.10 1.015
398.20 1.046
398.30 1.075
398.40 1.103
398.50 1.13
398.60 1.155
398.70 1.18
398.80 1.204
398.90 1.226
399.00 1.248
399.10 1.269
399.20 1.289
399.30 1.309
399.40 1.329
399.50 1.347
399.60 1.365
399.70 1.383
399.80 1.4
399.90 1.416
400.00 1.432
400.10 1.447
400.20 1.462
400.30 1.476
400.40 1.489
400.50 1.502
400.60 1.514
400.70 1.526
400.80 1.537
400.90 1.547
401.00 1.557
401.10 1.567
401.20 1.576
401.30 1.584
401.40 1.592
401.50 1.599
401.60 1.606
401.70 1.612
401.80 1.618
401.90 1.624
402.00 1.629
402.10 1.634
402.20 1.638
402.30 1.641
402.40 1.645
402.50 1.648
402.60 1.65
402.70 1.653
402.80 1.654
402.90 1.656
403.00 1.657
403.10 1.658
403.20 1.658
403.30 1.658
403.40 1.658
403.50 1.657
403.60 1.656
403.70 1.655
403.80 1.653
403.90 1.651
404.00 1.649
404.10 1.646
404.20 1.643
404.30 1.639
404.40 1.635
404.50 1.631
404.60 1.627
404.70 1.622
404.80 1.616
404.90 1.611
405.00 1.604
405.10 1.598
405.20 1.591
405.30 1.583
405.40 1.576
405.50 1.567
405.60 1.558
405.70 1.549
405.80 1.54
405.90 1.529
406.00 1.519
406.10 1.508
406.20 1.496
406.30 1.484
406.40 1.471
406.50 1.458
406.60 1.445
406.70 1.431
406.80 1.416
406.90 1.401
407.00 1.385
407.10 1.368
407.20 1.351
407.30 1.333
407.40 1.315
407.50 1.296
407.60 1.277
407.70 1.257
407.80 1.236
407.90 1.215
408.00 1.194
408.10 1.172
408.20 1.15
408.30 1.127
408.40 1.104
408.50 1.08
408.60 1.056
408.70 1.032
408.80 1.007
408.90 0.9806
409.00 0.9541
409.10 0.9262
409.20 0.8976
409.30 0.8681
409.40 0.8366
409.50 0.804
409.60 0.7703
409.70 0.7359
409.80 0.7014
409.90 0.6668
410.00 0.6237
410.10 0.5745
410.20 0.5191
410.30 0.5917
410.40 0.6468
410.50 0.6843
410.60 0.718
410.70 0.7517
410.80 0.7853
410.90 0.8174
411.00 0.8484
411.10 0.8782
411.20 0.906
411.30 0.933
411.40 0.9593
411.50 0.9842
411.60 1.008
411.70 1.032
411.80 1.055
411.90 1.078
412.00 1.1
412.10 1.121
412.20 1.142
412.30 1.163
412.40 1.183
412.50 1.202
412.60 1.222
412.70 1.24
412.80 1.258
412.90 1.276
413.00 1.293
413.10 1.31
413.20 1.326
413.30 1.341
413.40 1.356
413.50 1.37
413.60 1.384
413.70 1.397
413.80 1.41
413.90 1.422
414.00 1.434
414.10 1.445
414.20 1.456
414.30 1.466
414.40 1.476
414.50 1.486
414.60 1.495
414.70 1.504
414.80 1.512
414.90 1.52
415.00 1.528
415.10 1.535
415.20 1.542
415.30 1.549
415.40 1.556
415.50 1.562
415.60 1.568
415.70 1.573
415.80 1.578
415.90 1.583
416.00 1.588
416.10 1.593
416.20 1.597
416.30 1.601
416.40 1.605
416.50 1.608
416.60 1.612
416.70 1.615
416.80 1.618
416.90 1.621
417.00 1.624
417.10 1.627
417.20 1.629
417.30 1.632
417.40 1.634
417.50 1.636
417.60 1.638
417.70 1.64
417.80 1.641
417.90 1.643
418.00 1.644
418.10 1.646
418.20 1.647
418.30 1.648
418.40 1.649
418.50 1.65
418.60 1.651
418.70 1.652
418.80 1.653
418.90 1.653
419.00 1.654
419.10 1.654
419.20 1.655
419.30 1.655
419.40 1.655
419.50 1.655
419.60 1.655
419.70 1.656
419.80 1.656
419.90 1.655
420.00 1.655
420.10 1.655
420.20 1.655
420.30 1.655
420.40 1.654
420.50 1.654
420.60 1.654
420.70 1.653
420.80 1.653
420.90 1.652
421.00 1.651
421.10 1.651
421.20 1.65
421.30 1.649
421.40 1.649
421.50 1.648
421.60 1.647
421.70 1.646
421.80 1.645
421.90 1.644
422.00 1.643
422.10 1.642
422.20 1.641
422.30 1.639
422.40 1.638
422.50 1.637
422.60 1.636
422.70 1.634
422.80 1.633
422.90 1.631
423.00 1.63
423.10 1.628
423.20 1.627
423.30 1.625
423.40 1.623
423.50 1.622
423.60 1.62
423.70 1.618
423.80 1.616
423.90 1.614
424.00 1.612
424.10 1.61
424.20 1.608
424.30 1.606
424.40 1.604
424.50 1.601
424.60 1.599
424.70 1.597
424.80 1.594
424.90 1.592
425.00 1.589
425.10 1.586
425.20 1.584
425.30 1.581
425.40 1.578
425.50 1.575
425.60 1.572
425.70 1.569
425.80 1.565
425.90 1.562
426.00 1.559
426.10 1.555
426.20 1.551
426.30 1.547
426.40 1.543
426.50 1.539
426.60 1.535
426.70 1.531
426.80 1.527
426.90 1.522
427.00 1.518
427.10 1.513
427.20 1.508
427.30 1.503
427.40 1.498
427.50 1.493
427.60 1.488
427.70 1.482
427.80 1.477
427.90 1.471
428.00 1.465
428.10 1.459
428.20 1.452
428.30 1.446
428.40 1.439
428.50 1.432
428.60 1.425
428.70 1.418
428.80 1.41
428.90 1.402
429.00 1.394
429.10 1.386
429.20 1.377
429.30 1.369
429.40 1.36
429.50 1.35
429.60 1.341
429.70 1.331
429.80 1.321
429.90 1.31
430.00 1.299
430.10 1.288
430.20 1.277
430.30 1.265
430.40 1.253
430.50 1.241
430.60 1.229
430.70 1.216
430.80 1.203
430.90 1.189
431.00 1.176
431.10 1.162
431.20 1.148
431.30 1.133
431.40 1.119
431.50 1.104
431.60 1.088
431.70 1.072
431.80 1.056
431.90 1.039
432.00 1.021
432.10 1.003
432.20 0.9833
432.30 0.9633
432.40 0.9426
432.50 0.9203
432.60 0.8972
432.70 0.8735
432.80 0.8494
432.90 0.8256
433.00 0.8021
433.10 0.7798
433.20 0.7571
433.30 0.7341
433.40 0.709
433.50 0.6827
433.60 0.6554
433.70 0.6264
433.80 0.5941
433.90 0.5585
434.00 0.4689
434.10 0.4699
434.20 0.5615
434.30 0.5959
434.40 0.6272
434.50 0.6556
434.60 0.6822
434.70 0.7076
434.80 0.7319
434.90 0.7539
435.00 0.7757
435.10 0.7973
435.20 0.8198
435.30 0.8426
435.40 0.8656
435.50 0.8881
435.60 0.9098
435.70 0.9307
435.80 0.9501
435.90 0.9687
436.00 0.9866
436.10 1.003
436.20 1.019
436.30 1.035
436.40 1.05
436.50 1.064
436.60 1.078
436.70 1.091
436.80 1.104
436.90 1.117
437.00 1.129
437.10 1.141
437.20 1.153
437.30 1.165
437.40 1.176
437.50 1.187
437.60 1.197
437.70 1.207
437.80 1.217
437.90 1.227
438.00 1.236
438.10 1.245
438.20 1.254
438.30 1.262
438.40 1.27
438.50 1.278
438.60 1.285
438.70 1.292
438.80 1.299
438.90 1.305
439.00 1.312
439.10 1.318
439.20 1.324
439.30 1.329
439.40 1.334
439.50 1.34
439.60 1.344
439.70 1.349
439.80 1.354
439.90 1.358
440.00 1.362
440.10 1.366
440.20 1.37
440.30 1.373
440.40 1.377
440.50 1.38
440.60 1.383
440.70 1.386
440.80 1.389
440.90 1.391
441.00 1.394
441.10 1.396
441.20 1.399
441.30 1.401
441.40 1.403
441.50 1.405
441.60 1.407
441.70 1.408
441.80 1.41
441.90 1.412
442.00 1.413
442.10 1.414
442.20 1.416
442.30 1.417
442.40 1.418
442.50 1.419
442.60 1.42
442.70 1.421
442.80 1.422
442.90 1.423
443.00 1.423
443.10 1.424
443.20 1.425
443.30 1.425
443.40 1.426
443.50 1.426
443.60 1.427
443.70 1.427
443.80 1.427
443.90 1.428
444.00 1.428
444.10 1.428
444.20 1.428
444.30 1.428
444.40 1.428
444.50 1.428
444.60 1.428
444.70 1.428
444.80 1.428
444.90 1.428
445.00 1.428
445.10 1.428
445.20 1.428
445.30 1.427
445.40 1.427
445.50 1.427
445.60 1.427
445.70 1.426
445.80 1.426
445.90 1.425
446.00 1.425
446.10 1.425
446.20 1.424
446.30 1.424
446.40 1.423
446.50 1.423
446.60 1.423
446.70 1.422
446.80 1.422
446.90 1.421
447.00 1.421
447.10 1.42
447.20 1.42
447.30 1.419
447.40 1.418
447.50 1.418
447.60 1.417
447.70 1.417
447.80 1.416
447.90 1.415
448.00 1.415
448.10 1.414
448.20 1.414
448.30 1.413
448.40 1.412
448.50 1.411
448.60 1.411
448.70 1.41
448.80 1.409
448.90 1.409
449.00 1.408
449.10 1.408
449.20 1.407
449.30 1.406
449.40 1.405
449.50 1.405
449.60 1.404
449.70 1.403
449.80 1.403
449.90 1.402
450.00 1.401
450.10 1.4
450.20 1.399
450.30 1.399
450.40 1.398
450.50 1.397
450.60 1.396
450.70 1.396
450.80 1.395
450.90 1.394
451.00 1.393
451.10 1.392
451.20 1.392
451.30 1.391
451.40 1.39
451.50 1.389
451.60 1.388
451.70 1.388
451.80 1.387
451.90 1.386
452.00 1.385
452.10 1.384
452.20 1.383
452.30 1.383
452.40 1.382
452.50 1.381
452.60 1.38
452.70 1.379
452.80 1.378
452.90 1.378
453.00 1.377
