# Version 2.1 - nm, norm@500 to 1, cut digits, bergeron_4750_80.dat_4750
# Wavelength(nm)  Flambda(ergs/cm^s/s/nm)
300.00 0.3022
300.10 0.3027
300.20 0.3031
300.30 0.3035
300.40 0.3039
300.50 0.3044
300.60 0.3048
300.70 0.3052
300.80 0.3056
300.90 0.3061
301.00 0.3065
301.10 0.3069
301.20 0.3073
301.30 0.3078
301.40 0.3082
301.50 0.3086
301.60 0.309
301.70 0.3094
301.80 0.3099
301.90 0.3103
302.00 0.3107
302.10 0.3111
302.20 0.3116
302.30 0.312
302.40 0.3124
302.50 0.3128
302.60 0.3133
302.70 0.3137
302.80 0.3141
302.90 0.3146
303.00 0.315
303.10 0.3154
303.20 0.3158
303.30 0.3163
303.40 0.3167
303.50 0.3171
303.60 0.3175
303.70 0.318
303.80 0.3184
303.90 0.3188
304.00 0.3192
304.10 0.3197
304.20 0.3201
304.30 0.3205
304.40 0.321
304.50 0.3214
304.60 0.3218
304.70 0.3223
304.80 0.3227
304.90 0.3231
305.00 0.3235
305.10 0.324
305.20 0.3244
305.30 0.3248
305.40 0.3253
305.50 0.3257
305.60 0.3261
305.70 0.3265
305.80 0.327
305.90 0.3274
306.00 0.3278
306.10 0.3282
306.20 0.3287
306.30 0.3291
306.40 0.3296
306.50 0.33
306.60 0.3304
306.70 0.3309
306.80 0.3313
306.90 0.3317
307.00 0.3322
307.10 0.3326
307.20 0.333
307.30 0.3334
307.40 0.3339
307.50 0.3343
307.60 0.3347
307.70 0.3352
307.80 0.3356
307.90 0.336
308.00 0.3365
308.10 0.3369
308.20 0.3373
308.30 0.3378
308.40 0.3382
308.50 0.3386
308.60 0.3391
308.70 0.3395
308.80 0.34
308.90 0.3404
309.00 0.3408
309.10 0.3413
309.20 0.3417
309.30 0.3421
309.40 0.3426
309.50 0.343
309.60 0.3434
309.70 0.3439
309.80 0.3443
309.90 0.3447
310.00 0.3451
310.10 0.3456
310.20 0.346
310.30 0.3465
310.40 0.3469
310.50 0.3474
310.60 0.3478
310.70 0.3482
310.80 0.3487
310.90 0.3491
311.00 0.3495
311.10 0.35
311.20 0.3504
311.30 0.3509
311.40 0.3513
311.50 0.3517
311.60 0.3522
311.70 0.3526
311.80 0.353
311.90 0.3535
312.00 0.3539
312.10 0.3543
312.20 0.3548
312.30 0.3552
312.40 0.3556
312.50 0.3561
312.60 0.3565
312.70 0.357
312.80 0.3574
312.90 0.3578
313.00 0.3583
313.10 0.3587
313.20 0.3592
313.30 0.3596
313.40 0.36
313.50 0.3605
313.60 0.3609
313.70 0.3613
313.80 0.3618
313.90 0.3622
314.00 0.3626
314.10 0.3631
314.20 0.3635
314.30 0.364
314.40 0.3644
314.50 0.3649
314.60 0.3653
314.70 0.3658
314.80 0.3662
314.90 0.3666
315.00 0.3671
315.10 0.3675
315.20 0.368
315.30 0.3684
315.40 0.3688
315.50 0.3693
315.60 0.3697
315.70 0.3702
315.80 0.3706
315.90 0.371
316.00 0.3715
316.10 0.3719
316.20 0.3724
316.30 0.3728
316.40 0.3732
316.50 0.3737
316.60 0.3741
316.70 0.3746
316.80 0.375
316.90 0.3755
317.00 0.3759
317.10 0.3764
317.20 0.3768
317.30 0.3772
317.40 0.3777
317.50 0.3781
317.60 0.3786
317.70 0.379
317.80 0.3794
317.90 0.3799
318.00 0.3803
318.10 0.3808
318.20 0.3812
318.30 0.3817
318.40 0.3821
318.50 0.3826
318.60 0.383
318.70 0.3834
318.80 0.3839
318.90 0.3843
319.00 0.3848
319.10 0.3852
319.20 0.3857
319.30 0.3861
319.40 0.3866
319.50 0.387
319.60 0.3874
319.70 0.3879
319.80 0.3883
319.90 0.3888
320.00 0.3892
320.10 0.3896
320.20 0.3901
320.30 0.3905
320.40 0.391
320.50 0.3914
320.60 0.3919
320.70 0.3923
320.80 0.3928
320.90 0.3932
321.00 0.3937
321.10 0.3941
321.20 0.3946
321.30 0.395
321.40 0.3955
321.50 0.3959
321.60 0.3963
321.70 0.3968
321.80 0.3972
321.90 0.3977
322.00 0.3981
322.10 0.3986
322.20 0.399
322.30 0.3995
322.40 0.3999
322.50 0.4004
322.60 0.4008
322.70 0.4013
322.80 0.4017
322.90 0.4022
323.00 0.4026
323.10 0.403
323.20 0.4035
323.30 0.4039
323.40 0.4044
323.50 0.4048
323.60 0.4053
323.70 0.4057
323.80 0.4062
323.90 0.4066
324.00 0.407
324.10 0.4075
324.20 0.4079
324.30 0.4084
324.40 0.4088
324.50 0.4093
324.60 0.4098
324.70 0.4102
324.80 0.4106
324.90 0.4111
325.00 0.4115
325.10 0.412
325.20 0.4124
325.30 0.4129
325.40 0.4133
325.50 0.4138
325.60 0.4142
325.70 0.4147
325.80 0.4151
325.90 0.4156
326.00 0.416
326.10 0.4164
326.20 0.4169
326.30 0.4174
326.40 0.4178
326.50 0.4183
326.60 0.4187
326.70 0.4192
326.80 0.4196
326.90 0.4201
327.00 0.4205
327.10 0.421
327.20 0.4214
327.30 0.4218
327.40 0.4223
327.50 0.4227
327.60 0.4232
327.70 0.4236
327.80 0.4241
327.90 0.4245
328.00 0.425
328.10 0.4254
328.20 0.4259
328.30 0.4263
328.40 0.4268
328.50 0.4272
328.60 0.4277
328.70 0.4281
328.80 0.4286
328.90 0.429
329.00 0.4295
329.10 0.4299
329.20 0.4304
329.30 0.4308
329.40 0.4313
329.50 0.4317
329.60 0.4322
329.70 0.4326
329.80 0.4331
329.90 0.4335
330.00 0.4339
330.10 0.4344
330.20 0.4349
330.30 0.4353
330.40 0.4358
330.50 0.4362
330.60 0.4367
330.70 0.4371
330.80 0.4376
330.90 0.438
331.00 0.4385
331.10 0.4389
331.20 0.4394
331.30 0.4398
331.40 0.4403
331.50 0.4407
331.60 0.4412
331.70 0.4416
331.80 0.442
331.90 0.4425
332.00 0.4429
332.10 0.4434
332.20 0.4438
332.30 0.4443
332.40 0.4447
332.50 0.4452
332.60 0.4457
332.70 0.4461
332.80 0.4466
332.90 0.447
333.00 0.4475
333.10 0.4479
333.20 0.4484
333.30 0.4488
333.40 0.4492
333.50 0.4497
333.60 0.4501
333.70 0.4506
333.80 0.451
333.90 0.4515
334.00 0.4519
334.10 0.4524
334.20 0.4528
334.30 0.4533
334.40 0.4537
334.50 0.4542
334.60 0.4546
334.70 0.4551
334.80 0.4555
334.90 0.456
335.00 0.4564
335.10 0.4569
335.20 0.4573
335.30 0.4578
335.40 0.4582
335.50 0.4587
335.60 0.4591
335.70 0.4596
335.80 0.46
335.90 0.4605
336.00 0.4609
336.10 0.4614
336.20 0.4618
336.30 0.4623
336.40 0.4627
336.50 0.4632
336.60 0.4636
336.70 0.4641
336.80 0.4645
336.90 0.465
337.00 0.4654
337.10 0.4659
337.20 0.4663
337.30 0.4668
337.40 0.4672
337.50 0.4677
337.60 0.4681
337.70 0.4686
337.80 0.469
337.90 0.4695
338.00 0.4699
338.10 0.4704
338.20 0.4708
338.30 0.4713
338.40 0.4717
338.50 0.4722
338.60 0.4726
338.70 0.4731
338.80 0.4735
338.90 0.474
339.00 0.4744
339.10 0.4749
339.20 0.4753
339.30 0.4758
339.40 0.4762
339.50 0.4767
339.60 0.4771
339.70 0.4776
339.80 0.478
339.90 0.4785
340.00 0.4789
340.10 0.4794
340.20 0.4798
340.30 0.4803
340.40 0.4807
340.50 0.4812
340.60 0.4816
340.70 0.4821
340.80 0.4825
340.90 0.483
341.00 0.4834
341.10 0.4839
341.20 0.4843
341.30 0.4848
341.40 0.4852
341.50 0.4857
341.60 0.4861
341.70 0.4866
341.80 0.487
341.90 0.4874
342.00 0.4879
342.10 0.4883
342.20 0.4888
342.30 0.4892
342.40 0.4897
342.50 0.4901
342.60 0.4906
342.70 0.4911
342.80 0.4915
342.90 0.492
343.00 0.4924
343.10 0.4929
343.20 0.4933
343.30 0.4937
343.40 0.4942
343.50 0.4946
343.60 0.4951
343.70 0.4955
343.80 0.496
343.90 0.4964
344.00 0.4969
344.10 0.4973
344.20 0.4978
344.30 0.4982
344.40 0.4987
344.50 0.4991
344.60 0.4996
344.70 0.5
344.80 0.5005
344.90 0.5009
345.00 0.5014
345.10 0.5018
345.20 0.5023
345.30 0.5027
345.40 0.5032
345.50 0.5036
345.60 0.504
345.70 0.5045
345.80 0.5049
345.90 0.5054
346.00 0.5058
346.10 0.5063
346.20 0.5067
346.30 0.5072
346.40 0.5076
346.50 0.5081
346.60 0.5085
346.70 0.509
346.80 0.5094
346.90 0.5099
347.00 0.5103
347.10 0.5108
347.20 0.5112
347.30 0.5117
347.40 0.5121
347.50 0.5125
347.60 0.513
347.70 0.5134
347.80 0.5139
347.90 0.5143
348.00 0.5148
348.10 0.5152
348.20 0.5157
348.30 0.5161
348.40 0.5166
348.50 0.517
348.60 0.5175
348.70 0.5179
348.80 0.5183
348.90 0.5188
349.00 0.5192
349.10 0.5197
349.20 0.5201
349.30 0.5206
349.40 0.521
349.50 0.5215
349.60 0.5219
349.70 0.5223
349.80 0.5228
349.90 0.5232
350.00 0.5237
350.10 0.5241
350.20 0.5246
350.30 0.525
350.40 0.5255
350.50 0.5259
350.60 0.5264
350.70 0.5268
350.80 0.5273
350.90 0.5277
351.00 0.5281
351.10 0.5286
351.20 0.529
351.30 0.5295
351.40 0.5299
351.50 0.5304
351.60 0.5308
351.70 0.5312
351.80 0.5317
351.90 0.5321
352.00 0.5326
352.10 0.533
352.20 0.5335
352.30 0.5339
352.40 0.5344
352.50 0.5348
352.60 0.5353
352.70 0.5357
352.80 0.5361
352.90 0.5366
353.00 0.537
353.10 0.5375
353.20 0.5379
353.30 0.5384
353.40 0.5388
353.50 0.5392
353.60 0.5397
353.70 0.5401
353.80 0.5406
353.90 0.541
354.00 0.5414
354.10 0.5419
354.20 0.5423
354.30 0.5428
354.40 0.5432
354.50 0.5437
354.60 0.5441
354.70 0.5446
354.80 0.545
354.90 0.5454
355.00 0.5459
355.10 0.5463
355.20 0.5468
355.30 0.5472
355.40 0.5476
355.50 0.5481
355.60 0.5485
355.70 0.549
355.80 0.5494
355.90 0.5498
356.00 0.5503
356.10 0.5507
356.20 0.5512
356.30 0.5516
356.40 0.552
356.50 0.5525
356.60 0.5529
356.70 0.5534
356.80 0.5538
356.90 0.5543
357.00 0.5547
357.10 0.5551
357.20 0.5556
357.30 0.556
357.40 0.5565
357.50 0.5569
357.60 0.5573
357.70 0.5578
357.80 0.5582
357.90 0.5586
358.00 0.5591
358.10 0.5595
358.20 0.56
358.30 0.5604
358.40 0.5609
358.50 0.5613
358.60 0.5617
358.70 0.5622
358.80 0.5626
358.90 0.5631
359.00 0.5635
359.10 0.5639
359.20 0.5644
359.30 0.5648
359.40 0.5652
359.50 0.5657
359.60 0.5661
359.70 0.5665
359.80 0.567
359.90 0.5674
360.00 0.5678
360.10 0.5683
360.20 0.5687
360.30 0.5692
360.40 0.5696
360.50 0.57
360.60 0.5705
360.70 0.5709
360.80 0.5714
360.90 0.5718
361.00 0.5722
361.10 0.5727
361.20 0.5731
361.30 0.5735
361.40 0.574
361.50 0.5744
361.60 0.5749
361.70 0.5753
361.80 0.5757
361.90 0.5761
362.00 0.5766
362.10 0.577
362.20 0.5775
362.30 0.5779
362.40 0.5783
362.50 0.5788
362.60 0.5792
362.70 0.5796
362.80 0.5801
362.90 0.5805
363.00 0.5809
363.10 0.5814
363.20 0.5818
363.30 0.5822
363.40 0.5827
363.50 0.5831
363.60 0.5835
363.70 0.584
363.80 0.5844
363.90 0.5848
364.00 0.5853
364.10 0.5857
364.20 0.5861
364.30 0.5866
364.40 0.587
364.50 0.5874
364.60 0.5879
364.70 0.5883
364.80 0.5887
364.90 0.5892
365.00 0.5896
365.10 0.59
365.20 0.5905
365.30 0.5909
365.40 0.5913
365.50 0.5918
365.60 0.5922
365.70 0.5926
365.80 0.5931
365.90 0.5935
366.00 0.5939
366.10 0.5944
366.20 0.5948
366.30 0.5952
366.40 0.5957
366.50 0.5961
366.60 0.5965
366.70 0.597
366.80 0.5974
366.90 0.5978
367.00 0.5982
367.10 0.5987
367.20 0.5991
367.30 0.5995
367.40 0.6
367.50 0.6004
367.60 0.6008
367.70 0.6012
367.80 0.6017
367.90 0.6021
368.00 0.6025
368.10 0.603
368.20 0.6034
368.30 0.6038
368.40 0.6043
368.50 0.6047
368.60 0.6051
368.70 0.6055
368.80 0.606
368.90 0.6064
369.00 0.6068
369.10 0.6073
369.20 0.6077
369.30 0.6081
369.40 0.6085
369.50 0.609
369.60 0.6094
369.70 0.6098
369.80 0.6102
369.90 0.6107
370.00 0.6111
370.10 0.6115
370.20 0.6119
370.30 0.6124
370.40 0.6128
370.50 0.6132
370.60 0.6137
370.70 0.6141
370.80 0.6145
370.90 0.6149
371.00 0.6154
371.10 0.6158
371.20 0.6162
371.30 0.6166
371.40 0.6171
371.50 0.6175
371.60 0.6179
371.70 0.6183
371.80 0.6187
371.90 0.6192
372.00 0.6196
372.10 0.62
372.20 0.6204
372.30 0.6209
372.40 0.6213
372.50 0.6217
372.60 0.6221
372.70 0.6226
372.80 0.623
372.90 0.6234
373.00 0.6238
373.10 0.6243
373.20 0.6247
373.30 0.6251
373.40 0.6255
373.50 0.626
373.60 0.6264
373.70 0.6268
373.80 0.6272
373.90 0.6276
374.00 0.628
374.10 0.6285
374.20 0.6289
374.30 0.6293
374.40 0.6297
374.50 0.6302
374.60 0.6306
374.70 0.631
374.80 0.6314
374.90 0.6319
375.00 0.6323
375.10 0.6327
375.20 0.6331
375.30 0.6335
375.40 0.6339
375.50 0.6344
375.60 0.6348
375.70 0.6352
375.80 0.6356
375.90 0.636
376.00 0.6364
376.10 0.6369
376.20 0.6373
376.30 0.6377
376.40 0.6381
376.50 0.6385
376.60 0.639
376.70 0.6394
376.80 0.6398
376.90 0.6402
377.00 0.6406
377.10 0.641
377.20 0.6415
377.30 0.6419
377.40 0.6423
377.50 0.6427
377.60 0.6431
377.70 0.6435
377.80 0.644
377.90 0.6444
378.00 0.6448
378.10 0.6452
378.20 0.6456
378.30 0.646
378.40 0.6465
378.50 0.6469
378.60 0.6473
378.70 0.6477
378.80 0.6481
378.90 0.6485
379.00 0.6489
379.10 0.6494
379.20 0.6498
379.30 0.6502
379.40 0.6506
379.50 0.651
379.60 0.6514
379.70 0.6518
379.80 0.6523
379.90 0.6527
380.00 0.6531
380.10 0.6535
380.20 0.6539
380.30 0.6543
380.40 0.6547
380.50 0.6551
380.60 0.6555
380.70 0.656
380.80 0.6564
380.90 0.6568
381.00 0.6572
381.10 0.6576
381.20 0.658
381.30 0.6584
381.40 0.6588
381.50 0.6592
381.60 0.6597
381.70 0.6601
381.80 0.6605
381.90 0.6609
382.00 0.6613
382.10 0.6617
382.20 0.6621
382.30 0.6625
382.40 0.6629
382.50 0.6633
382.60 0.6638
382.70 0.6642
382.80 0.6646
382.90 0.665
383.00 0.6654
383.10 0.6658
383.20 0.6662
383.30 0.6666
383.40 0.667
383.50 0.6674
383.60 0.6678
383.70 0.6682
383.80 0.6686
383.90 0.669
384.00 0.6695
384.10 0.6699
384.20 0.6703
384.30 0.6707
384.40 0.6711
384.50 0.6715
384.60 0.6719
384.70 0.6723
384.80 0.6727
384.90 0.6731
385.00 0.6735
385.10 0.6739
385.20 0.6743
385.30 0.6747
385.40 0.6751
385.50 0.6755
385.60 0.6759
385.70 0.6763
385.80 0.6767
385.90 0.6771
386.00 0.6775
386.10 0.6779
386.20 0.6784
386.30 0.6788
386.40 0.6792
386.50 0.6796
386.60 0.68
386.70 0.6804
386.80 0.6808
386.90 0.6812
387.00 0.6816
387.10 0.682
387.20 0.6824
387.30 0.6828
387.40 0.6832
387.50 0.6836
387.60 0.684
387.70 0.6844
387.80 0.6848
387.90 0.6852
388.00 0.6856
388.10 0.686
388.20 0.6864
388.30 0.6868
388.40 0.6872
388.50 0.6876
388.60 0.688
388.70 0.6884
388.80 0.6888
388.90 0.6892
389.00 0.6896
389.10 0.69
389.20 0.6904
389.30 0.6908
389.40 0.6912
389.50 0.6916
389.60 0.692
389.70 0.6923
389.80 0.6927
389.90 0.6931
390.00 0.6935
390.10 0.6939
390.20 0.6943
390.30 0.6947
390.40 0.6951
390.50 0.6955
390.60 0.6959
390.70 0.6963
390.80 0.6967
390.90 0.6971
391.00 0.6975
391.10 0.6979
391.20 0.6983
391.30 0.6987
391.40 0.6991
391.50 0.6995
391.60 0.6999
391.70 0.7002
391.80 0.7006
391.90 0.701
392.00 0.7014
392.10 0.7018
392.20 0.7022
392.30 0.7026
392.40 0.703
392.50 0.7034
392.60 0.7038
392.70 0.7042
392.80 0.7046
392.90 0.705
393.00 0.7053
393.10 0.7057
393.20 0.7061
393.30 0.7065
393.40 0.7069
393.50 0.7073
393.60 0.7077
393.70 0.7081
393.80 0.7085
393.90 0.7088
394.00 0.7092
394.10 0.7096
394.20 0.71
394.30 0.7104
394.40 0.7108
394.50 0.7112
394.60 0.7116
394.70 0.712
394.80 0.7123
394.90 0.7127
395.00 0.7131
395.10 0.7135
395.20 0.7139
395.30 0.7143
395.40 0.7147
395.50 0.7151
395.60 0.7154
395.70 0.7158
395.80 0.7162
395.90 0.7166
396.00 0.717
396.10 0.7174
396.20 0.7178
396.30 0.7181
396.40 0.7185
396.50 0.7189
396.60 0.7193
396.70 0.7197
396.80 0.7201
396.90 0.7204
397.00 0.7208
397.10 0.7212
397.20 0.7216
397.30 0.722
397.40 0.7224
397.50 0.7227
397.60 0.7231
397.70 0.7235
397.80 0.7239
397.90 0.7243
398.00 0.7247
398.10 0.725
398.20 0.7254
398.30 0.7258
398.40 0.7262
398.50 0.7266
398.60 0.7269
398.70 0.7273
398.80 0.7277
398.90 0.7281
399.00 0.7285
399.10 0.7288
399.20 0.7292
399.30 0.7296
399.40 0.73
399.50 0.7304
399.60 0.7307
399.70 0.7311
399.80 0.7315
399.90 0.7319
400.00 0.7323
400.10 0.7326
400.20 0.733
400.30 0.7334
400.40 0.7338
400.50 0.7341
400.60 0.7345
400.70 0.7349
400.80 0.7353
400.90 0.7356
401.00 0.736
401.10 0.7364
401.20 0.7368
401.30 0.7372
401.40 0.7375
401.50 0.7379
401.60 0.7383
401.70 0.7387
401.80 0.739
401.90 0.7394
402.00 0.7398
402.10 0.7401
402.20 0.7405
402.30 0.7409
402.40 0.7413
402.50 0.7416
402.60 0.742
402.70 0.7424
402.80 0.7428
402.90 0.7431
403.00 0.7435
403.10 0.7439
403.20 0.7442
403.30 0.7446
403.40 0.745
403.50 0.7454
403.60 0.7457
403.70 0.7461
403.80 0.7465
403.90 0.7468
404.00 0.7472
404.10 0.7476
404.20 0.7479
404.30 0.7483
404.40 0.7487
404.50 0.7491
404.60 0.7494
404.70 0.7498
404.80 0.7502
404.90 0.7505
405.00 0.7509
405.10 0.7513
405.20 0.7516
405.30 0.752
405.40 0.7524
405.50 0.7527
405.60 0.7531
405.70 0.7535
405.80 0.7538
405.90 0.7542
406.00 0.7546
406.10 0.7549
406.20 0.7553
406.30 0.7557
406.40 0.756
406.50 0.7564
406.60 0.7568
406.70 0.7571
406.80 0.7575
406.90 0.7579
407.00 0.7582
407.10 0.7586
407.20 0.7589
407.30 0.7593
407.40 0.7597
407.50 0.76
407.60 0.7604
407.70 0.7608
407.80 0.7611
407.90 0.7615
408.00 0.7618
408.10 0.7622
408.20 0.7626
408.30 0.7629
408.40 0.7633
408.50 0.7636
408.60 0.764
408.70 0.7644
408.80 0.7647
408.90 0.7651
409.00 0.7654
409.10 0.7658
409.20 0.7661
409.30 0.7665
409.40 0.7668
409.50 0.7672
409.60 0.7675
409.70 0.7679
409.80 0.7682
409.90 0.7685
410.00 0.7689
410.10 0.7692
410.20 0.7695
410.30 0.7699
410.40 0.7703
410.50 0.7707
410.60 0.7711
410.70 0.7715
410.80 0.7718
410.90 0.7722
411.00 0.7726
411.10 0.7729
411.20 0.7733
411.30 0.7736
411.40 0.774
411.50 0.7744
411.60 0.7747
411.70 0.7751
411.80 0.7755
411.90 0.7758
412.00 0.7762
412.10 0.7765
412.20 0.7769
412.30 0.7772
412.40 0.7776
412.50 0.7779
412.60 0.7783
412.70 0.7786
412.80 0.779
412.90 0.7793
413.00 0.7797
413.10 0.78
413.20 0.7804
413.30 0.7808
413.40 0.7811
413.50 0.7814
413.60 0.7818
413.70 0.7822
413.80 0.7825
413.90 0.7828
414.00 0.7832
414.10 0.7836
414.20 0.7839
414.30 0.7842
414.40 0.7846
414.50 0.7849
414.60 0.7853
414.70 0.7856
414.80 0.786
414.90 0.7863
415.00 0.7867
415.10 0.787
415.20 0.7874
415.30 0.7877
415.40 0.788
415.50 0.7884
415.60 0.7888
415.70 0.7891
415.80 0.7894
415.90 0.7898
416.00 0.7901
416.10 0.7905
416.20 0.7908
416.30 0.7912
416.40 0.7915
416.50 0.7919
416.60 0.7922
416.70 0.7925
416.80 0.7929
416.90 0.7932
417.00 0.7936
417.10 0.7939
417.20 0.7943
417.30 0.7946
417.40 0.795
417.50 0.7953
417.60 0.7956
417.70 0.796
417.80 0.7963
417.90 0.7966
418.00 0.797
418.10 0.7973
418.20 0.7977
418.30 0.798
418.40 0.7984
418.50 0.7987
418.60 0.799
418.70 0.7994
418.80 0.7997
418.90 0.8
419.00 0.8004
419.10 0.8007
419.20 0.801
419.30 0.8014
419.40 0.8018
419.50 0.8021
419.60 0.8024
419.70 0.8027
419.80 0.8031
419.90 0.8034
420.00 0.8037
420.10 0.8041
420.20 0.8045
420.30 0.8048
420.40 0.8051
420.50 0.8054
420.60 0.8058
420.70 0.8061
420.80 0.8064
420.90 0.8068
421.00 0.8071
421.10 0.8075
421.20 0.8078
421.30 0.8081
421.40 0.8084
421.50 0.8088
421.60 0.8091
421.70 0.8094
421.80 0.8098
421.90 0.8101
422.00 0.8105
422.10 0.8108
422.20 0.8111
422.30 0.8114
422.40 0.8118
422.50 0.8121
422.60 0.8125
422.70 0.8128
422.80 0.8131
422.90 0.8134
423.00 0.8138
423.10 0.8141
423.20 0.8144
423.30 0.8148
423.40 0.8151
423.50 0.8154
423.60 0.8157
423.70 0.8161
423.80 0.8164
423.90 0.8167
424.00 0.817
424.10 0.8174
424.20 0.8177
424.30 0.818
424.40 0.8184
424.50 0.8187
424.60 0.819
424.70 0.8193
424.80 0.8196
424.90 0.82
425.00 0.8203
425.10 0.8206
425.20 0.821
425.30 0.8213
425.40 0.8216
425.50 0.8219
425.60 0.8222
425.70 0.8226
425.80 0.8229
425.90 0.8232
426.00 0.8236
426.10 0.8239
426.20 0.8242
426.30 0.8245
426.40 0.8248
426.50 0.8251
426.60 0.8255
426.70 0.8258
426.80 0.8261
426.90 0.8264
427.00 0.8268
427.10 0.8271
427.20 0.8274
427.30 0.8278
427.40 0.8281
427.50 0.8284
427.60 0.8287
427.70 0.829
427.80 0.8293
427.90 0.8296
428.00 0.8299
428.10 0.8303
428.20 0.8306
428.30 0.8309
428.40 0.8312
428.50 0.8316
428.60 0.8319
428.70 0.8322
428.80 0.8325
428.90 0.8328
429.00 0.8332
429.10 0.8335
429.20 0.8338
429.30 0.8341
429.40 0.8344
429.50 0.8347
429.60 0.8351
429.70 0.8354
429.80 0.8357
429.90 0.836
430.00 0.8363
430.10 0.8366
430.20 0.837
430.30 0.8373
430.40 0.8376
430.50 0.8379
430.60 0.8382
430.70 0.8385
430.80 0.8388
430.90 0.8391
431.00 0.8395
431.10 0.8398
431.20 0.8401
431.30 0.8404
431.40 0.8407
431.50 0.841
431.60 0.8413
431.70 0.8416
431.80 0.8419
431.90 0.8422
432.00 0.8425
432.10 0.8428
432.20 0.8432
432.30 0.8434
432.40 0.8437
432.50 0.844
432.60 0.8443
432.70 0.8446
432.80 0.8449
432.90 0.8452
433.00 0.8455
433.10 0.8458
433.20 0.8461
433.30 0.8464
433.40 0.8466
433.50 0.8469
433.60 0.8471
433.70 0.8473
433.80 0.8474
433.90 0.8475
434.00 0.8476
434.10 0.8479
434.20 0.8484
434.30 0.849
434.40 0.8494
434.50 0.8498
434.60 0.8502
434.70 0.8506
434.80 0.8509
434.90 0.8513
435.00 0.8516
435.10 0.852
435.20 0.8522
435.30 0.8525
435.40 0.8528
435.50 0.8532
435.60 0.8535
435.70 0.8538
435.80 0.8541
435.90 0.8544
436.00 0.8547
436.10 0.855
436.20 0.8553
436.30 0.8556
436.40 0.8559
436.50 0.8562
436.60 0.8566
436.70 0.8568
436.80 0.8571
436.90 0.8574
437.00 0.8577
437.10 0.858
437.20 0.8583
437.30 0.8586
437.40 0.8589
437.50 0.8592
437.60 0.8595
437.70 0.8598
437.80 0.8601
437.90 0.8604
438.00 0.8607
438.10 0.861
438.20 0.8613
438.30 0.8616
438.40 0.8619
438.50 0.8622
438.60 0.8625
438.70 0.8628
438.80 0.8631
438.90 0.8633
439.00 0.8636
439.10 0.8639
439.20 0.8643
439.30 0.8645
439.40 0.8648
439.50 0.8651
439.60 0.8654
439.70 0.8657
439.80 0.866
439.90 0.8663
440.00 0.8666
440.10 0.8669
440.20 0.8672
440.30 0.8675
440.40 0.8677
440.50 0.868
440.60 0.8683
440.70 0.8686
440.80 0.8689
440.90 0.8692
441.00 0.8695
441.10 0.8698
441.20 0.8701
441.30 0.8703
441.40 0.8706
441.50 0.8709
441.60 0.8712
441.70 0.8715
441.80 0.8718
441.90 0.8721
442.00 0.8724
442.10 0.8727
442.20 0.8729
442.30 0.8732
442.40 0.8735
442.50 0.8738
442.60 0.8741
442.70 0.8743
442.80 0.8746
442.90 0.8749
443.00 0.8752
443.10 0.8755
