# Version 2.1 - nm, norm@500 to 1, cut digits, bergeron_25000_95.dat_25000
# Wavelength(nm)  Flambda(ergs/cm^s/s/nm)
300.00 4.506
300.10 4.501
300.20 4.496
300.30 4.491
300.40 4.487
300.50 4.482
300.60 4.477
300.70 4.472
300.80 4.467
300.90 4.462
301.00 4.457
301.10 4.453
301.20 4.448
301.30 4.443
301.40 4.438
301.50 4.433
301.60 4.428
301.70 4.424
301.80 4.419
301.90 4.414
302.00 4.409
302.10 4.405
302.20 4.4
302.30 4.395
302.40 4.39
302.50 4.386
302.60 4.381
302.70 4.376
302.80 4.371
302.90 4.367
303.00 4.362
303.10 4.357
303.20 4.352
303.30 4.348
303.40 4.343
303.50 4.338
303.60 4.334
303.70 4.329
303.80 4.324
303.90 4.32
304.00 4.315
304.10 4.31
304.20 4.306
304.30 4.301
304.40 4.297
304.50 4.292
304.60 4.287
304.70 4.283
304.80 4.278
304.90 4.274
305.00 4.269
305.10 4.264
305.20 4.26
305.30 4.255
305.40 4.251
305.50 4.246
305.60 4.242
305.70 4.237
305.80 4.232
305.90 4.228
306.00 4.223
306.10 4.219
306.20 4.214
306.30 4.21
306.40 4.205
306.50 4.201
306.60 4.196
306.70 4.192
306.80 4.187
306.90 4.183
307.00 4.179
307.10 4.174
307.20 4.17
307.30 4.165
307.40 4.161
307.50 4.156
307.60 4.152
307.70 4.147
307.80 4.143
307.90 4.139
308.00 4.134
308.10 4.13
308.20 4.125
308.30 4.121
308.40 4.117
308.50 4.112
308.60 4.108
308.70 4.104
308.80 4.099
308.90 4.095
309.00 4.091
309.10 4.086
309.20 4.082
309.30 4.078
309.40 4.073
309.50 4.069
309.60 4.065
309.70 4.06
309.80 4.056
309.90 4.052
310.00 4.048
310.10 4.043
310.20 4.039
310.30 4.035
310.40 4.03
310.50 4.026
310.60 4.022
310.70 4.018
310.80 4.013
310.90 4.009
311.00 4.005
311.10 4.001
311.20 3.997
311.30 3.992
311.40 3.988
311.50 3.984
311.60 3.98
311.70 3.976
311.80 3.971
311.90 3.967
312.00 3.963
312.10 3.959
312.20 3.955
312.30 3.951
312.40 3.946
312.50 3.942
312.60 3.938
312.70 3.934
312.80 3.93
312.90 3.926
313.00 3.922
313.10 3.918
313.20 3.914
313.30 3.909
313.40 3.905
313.50 3.901
313.60 3.897
313.70 3.893
313.80 3.889
313.90 3.885
314.00 3.881
314.10 3.877
314.20 3.873
314.30 3.869
314.40 3.865
314.50 3.861
314.60 3.857
314.70 3.853
314.80 3.849
314.90 3.845
315.00 3.841
315.10 3.837
315.20 3.833
315.30 3.829
315.40 3.825
315.50 3.821
315.60 3.817
315.70 3.813
315.80 3.809
315.90 3.805
316.00 3.801
316.10 3.797
316.20 3.793
316.30 3.789
316.40 3.785
316.50 3.781
316.60 3.777
316.70 3.773
316.80 3.769
316.90 3.766
317.00 3.762
317.10 3.758
317.20 3.754
317.30 3.75
317.40 3.746
317.50 3.742
317.60 3.738
317.70 3.735
317.80 3.731
317.90 3.727
318.00 3.723
318.10 3.719
318.20 3.715
318.30 3.712
318.40 3.708
318.50 3.704
318.60 3.7
318.70 3.696
318.80 3.692
318.90 3.689
319.00 3.685
319.10 3.681
319.20 3.677
319.30 3.673
319.40 3.67
319.50 3.666
319.60 3.662
319.70 3.658
319.80 3.655
319.90 3.651
320.00 3.647
320.10 3.643
320.20 3.64
320.30 3.636
320.40 3.632
320.50 3.628
320.60 3.625
320.70 3.621
320.80 3.617
320.90 3.614
321.00 3.61
321.10 3.606
321.20 3.603
321.30 3.599
321.40 3.595
321.50 3.592
321.60 3.588
321.70 3.584
321.80 3.581
321.90 3.577
322.00 3.573
322.10 3.57
322.20 3.566
322.30 3.562
322.40 3.559
322.50 3.555
322.60 3.551
322.70 3.548
322.80 3.544
322.90 3.541
323.00 3.537
323.10 3.533
323.20 3.53
323.30 3.526
323.40 3.523
323.50 3.519
323.60 3.516
323.70 3.512
323.80 3.508
323.90 3.505
324.00 3.501
324.10 3.498
324.20 3.494
324.30 3.491
324.40 3.487
324.50 3.484
324.60 3.48
324.70 3.477
324.80 3.473
324.90 3.47
325.00 3.466
325.10 3.462
325.20 3.459
325.30 3.455
325.40 3.452
325.50 3.449
325.60 3.445
325.70 3.442
325.80 3.438
325.90 3.435
326.00 3.431
326.10 3.428
326.20 3.424
326.30 3.421
326.40 3.417
326.50 3.414
326.60 3.41
326.70 3.407
326.80 3.404
326.90 3.4
327.00 3.397
327.10 3.393
327.20 3.39
327.30 3.387
327.40 3.383
327.50 3.38
327.60 3.376
327.70 3.373
327.80 3.37
327.90 3.366
328.00 3.363
328.10 3.359
328.20 3.356
328.30 3.353
328.40 3.349
328.50 3.346
328.60 3.343
328.70 3.339
328.80 3.336
328.90 3.333
329.00 3.329
329.10 3.326
329.20 3.323
329.30 3.319
329.40 3.316
329.50 3.313
329.60 3.309
329.70 3.306
329.80 3.303
329.90 3.3
330.00 3.296
330.10 3.293
330.20 3.29
330.30 3.286
330.40 3.283
330.50 3.28
330.60 3.277
330.70 3.273
330.80 3.27
330.90 3.267
331.00 3.264
331.10 3.26
331.20 3.257
331.30 3.254
331.40 3.251
331.50 3.247
331.60 3.244
331.70 3.241
331.80 3.238
331.90 3.235
332.00 3.231
332.10 3.228
332.20 3.225
332.30 3.222
332.40 3.219
332.50 3.215
332.60 3.212
332.70 3.209
332.80 3.206
332.90 3.203
333.00 3.199
333.10 3.196
333.20 3.193
333.30 3.19
333.40 3.187
333.50 3.184
333.60 3.181
333.70 3.177
333.80 3.174
333.90 3.171
334.00 3.168
334.10 3.165
334.20 3.162
334.30 3.159
334.40 3.156
334.50 3.152
334.60 3.149
334.70 3.146
334.80 3.143
334.90 3.14
335.00 3.137
335.10 3.134
335.20 3.131
335.30 3.128
335.40 3.125
335.50 3.122
335.60 3.119
335.70 3.115
335.80 3.112
335.90 3.109
336.00 3.106
336.10 3.103
336.20 3.1
336.30 3.097
336.40 3.094
336.50 3.091
336.60 3.088
336.70 3.085
336.80 3.082
336.90 3.079
337.00 3.076
337.10 3.073
337.20 3.07
337.30 3.067
337.40 3.064
337.50 3.061
337.60 3.058
337.70 3.055
337.80 3.052
337.90 3.049
338.00 3.046
338.10 3.043
338.20 3.04
338.30 3.037
338.40 3.034
338.50 3.031
338.60 3.028
338.70 3.025
338.80 3.022
338.90 3.02
339.00 3.017
339.10 3.014
339.20 3.011
339.30 3.008
339.40 3.005
339.50 3.002
339.60 2.999
339.70 2.996
339.80 2.993
339.90 2.99
340.00 2.987
340.10 2.985
340.20 2.982
340.30 2.979
340.40 2.976
340.50 2.973
340.60 2.97
340.70 2.967
340.80 2.964
340.90 2.962
341.00 2.959
341.10 2.956
341.20 2.953
341.30 2.95
341.40 2.947
341.50 2.944
341.60 2.942
341.70 2.939
341.80 2.936
341.90 2.933
342.00 2.93
342.10 2.927
342.20 2.925
342.30 2.922
342.40 2.919
342.50 2.916
342.60 2.913
342.70 2.91
342.80 2.908
342.90 2.905
343.00 2.902
343.10 2.899
343.20 2.897
343.30 2.894
343.40 2.891
343.50 2.888
343.60 2.885
343.70 2.883
343.80 2.88
343.90 2.877
344.00 2.874
344.10 2.872
344.20 2.869
344.30 2.866
344.40 2.863
344.50 2.861
344.60 2.858
344.70 2.855
344.80 2.852
344.90 2.85
345.00 2.847
345.10 2.844
345.20 2.841
345.30 2.839
345.40 2.836
345.50 2.833
345.60 2.831
345.70 2.828
345.80 2.825
345.90 2.823
346.00 2.82
346.10 2.817
346.20 2.814
346.30 2.812
346.40 2.809
346.50 2.806
346.60 2.804
346.70 2.801
346.80 2.798
346.90 2.796
347.00 2.793
347.10 2.79
347.20 2.788
347.30 2.785
347.40 2.782
347.50 2.78
347.60 2.777
347.70 2.775
347.80 2.772
347.90 2.769
348.00 2.767
348.10 2.764
348.20 2.761
348.30 2.759
348.40 2.756
348.50 2.754
348.60 2.751
348.70 2.748
348.80 2.746
348.90 2.743
349.00 2.741
349.10 2.738
349.20 2.735
349.30 2.733
349.40 2.73
349.50 2.728
349.60 2.725
349.70 2.722
349.80 2.72
349.90 2.717
350.00 2.715
350.10 2.712
350.20 2.71
350.30 2.707
350.40 2.704
350.50 2.702
350.60 2.699
350.70 2.697
350.80 2.694
350.90 2.692
351.00 2.689
351.10 2.687
351.20 2.684
351.30 2.682
351.40 2.679
351.50 2.677
351.60 2.674
351.70 2.672
351.80 2.669
351.90 2.667
352.00 2.664
352.10 2.662
352.20 2.659
352.30 2.657
352.40 2.654
352.50 2.652
352.60 2.649
352.70 2.647
352.80 2.644
352.90 2.642
353.00 2.639
353.10 2.637
353.20 2.634
353.30 2.632
353.40 2.629
353.50 2.627
353.60 2.624
353.70 2.622
353.80 2.619
353.90 2.617
354.00 2.615
354.10 2.612
354.20 2.61
354.30 2.607
354.40 2.605
354.50 2.602
354.60 2.6
354.70 2.598
354.80 2.595
354.90 2.593
355.00 2.59
355.10 2.588
355.20 2.585
355.30 2.583
355.40 2.581
355.50 2.578
355.60 2.576
355.70 2.573
355.80 2.571
355.90 2.569
356.00 2.566
356.10 2.564
356.20 2.561
356.30 2.559
356.40 2.557
356.50 2.554
356.60 2.552
356.70 2.55
356.80 2.547
356.90 2.545
357.00 2.543
357.10 2.54
357.20 2.538
357.30 2.535
357.40 2.533
357.50 2.531
357.60 2.528
357.70 2.526
357.80 2.524
357.90 2.521
358.00 2.519
358.10 2.517
358.20 2.514
358.30 2.512
358.40 2.51
358.50 2.507
358.60 2.505
358.70 2.503
358.80 2.501
358.90 2.498
359.00 2.496
359.10 2.494
359.20 2.491
359.30 2.489
359.40 2.487
359.50 2.484
359.60 2.482
359.70 2.48
359.80 2.478
359.90 2.475
360.00 2.473
360.10 2.471
360.20 2.468
360.30 2.466
360.40 2.464
360.50 2.462
360.60 2.459
360.70 2.457
360.80 2.455
360.90 2.453
361.00 2.45
361.10 2.448
361.20 2.446
361.30 2.444
361.40 2.441
361.50 2.439
361.60 2.437
361.70 2.435
361.80 2.432
361.90 2.43
362.00 2.428
362.10 2.426
362.20 2.424
362.30 2.421
362.40 2.419
362.50 2.417
362.60 2.415
362.70 2.413
362.80 2.41
362.90 2.408
363.00 2.406
363.10 2.404
363.20 2.402
363.30 2.399
363.40 2.397
363.50 2.395
363.60 2.393
363.70 2.391
363.80 2.388
363.90 2.386
364.00 2.384
364.10 2.382
364.20 2.38
364.30 2.378
364.40 2.375
364.50 2.373
364.60 2.371
364.70 2.369
364.80 2.367
364.90 2.365
365.00 2.362
365.10 2.36
365.20 2.358
365.30 2.356
365.40 2.354
365.50 2.352
365.60 2.35
365.70 2.347
365.80 2.345
365.90 2.343
366.00 2.341
366.10 2.339
366.20 2.337
366.30 2.334
366.40 2.332
366.50 2.33
366.60 2.328
366.70 2.325
366.80 2.323
366.90 2.321
367.00 2.319
367.10 2.316
367.20 2.314
367.30 2.312
367.40 2.31
367.50 2.307
367.60 2.305
367.70 2.303
367.80 2.301
367.90 2.298
368.00 2.296
368.10 2.294
368.20 2.291
368.30 2.289
368.40 2.287
368.50 2.284
368.60 2.282
368.70 2.279
368.80 2.277
368.90 2.275
369.00 2.272
369.10 2.27
369.20 2.267
369.30 2.265
369.40 2.263
369.50 2.26
369.60 2.258
369.70 2.255
369.80 2.253
369.90 2.251
370.00 2.248
370.10 2.246
370.20 2.244
370.30 2.241
370.40 2.239
370.50 2.237
370.60 2.235
370.70 2.232
370.80 2.23
370.90 2.228
371.00 2.225
371.10 2.223
371.20 2.221
371.30 2.219
371.40 2.216
371.50 2.214
371.60 2.212
371.70 2.209
371.80 2.207
371.90 2.205
372.00 2.203
372.10 2.201
372.20 2.199
372.30 2.197
372.40 2.195
372.50 2.193
372.60 2.191
372.70 2.189
372.80 2.187
372.90 2.185
373.00 2.183
373.10 2.181
373.20 2.179
373.30 2.177
373.40 2.175
373.50 2.174
373.60 2.172
373.70 2.17
373.80 2.168
373.90 2.166
374.00 2.164
374.10 2.162
374.20 2.16
374.30 2.157
374.40 2.155
374.50 2.153
374.60 2.151
374.70 2.149
374.80 2.147
374.90 2.145
375.00 2.142
375.10 2.14
375.20 2.138
375.30 2.136
375.40 2.134
375.50 2.132
375.60 2.13
375.70 2.128
375.80 2.125
375.90 2.123
376.00 2.121
376.10 2.119
376.20 2.117
376.30 2.115
376.40 2.113
376.50 2.111
376.60 2.109
376.70 2.107
376.80 2.105
376.90 2.103
377.00 2.1
377.10 2.099
377.20 2.097
377.30 2.095
377.40 2.093
377.50 2.091
377.60 2.089
377.70 2.088
377.80 2.086
377.90 2.084
378.00 2.082
378.10 2.08
378.20 2.078
378.30 2.077
378.40 2.075
378.50 2.073
378.60 2.071
378.70 2.069
378.80 2.067
378.90 2.066
379.00 2.064
379.10 2.062
379.20 2.06
379.30 2.058
379.40 2.057
379.50 2.055
379.60 2.053
379.70 2.051
379.80 2.049
379.90 2.048
380.00 2.046
380.10 2.044
380.20 2.043
380.30 2.041
380.40 2.04
380.50 2.038
380.60 2.037
380.70 2.035
380.80 2.034
380.90 2.032
381.00 2.031
381.10 2.029
381.20 2.027
381.30 2.026
381.40 2.024
381.50 2.023
381.60 2.021
381.70 2.019
381.80 2.018
381.90 2.016
382.00 2.014
382.10 2.012
382.20 2.011
382.30 2.009
382.40 2.007
382.50 2.005
382.60 2.003
382.70 2.001
382.80 2
382.90 1.998
383.00 1.996
383.10 1.994
383.20 1.992
383.30 1.99
383.40 1.989
383.50 1.987
383.60 1.986
383.70 1.985
383.80 1.984
383.90 1.983
384.00 1.982
384.10 1.982
384.20 1.981
384.30 1.98
384.40 1.979
384.50 1.978
384.60 1.977
384.70 1.976
384.80 1.976
384.90 1.975
385.00 1.974
385.10 1.972
385.20 1.971
385.30 1.97
385.40 1.969
385.50 1.968
385.60 1.967
385.70 1.965
385.80 1.964
385.90 1.962
386.00 1.961
386.10 1.959
386.20 1.958
386.30 1.956
386.40 1.954
386.50 1.953
386.60 1.951
386.70 1.949
386.80 1.947
386.90 1.945
387.00 1.943
387.10 1.941
387.20 1.939
387.30 1.937
387.40 1.935
387.50 1.932
387.60 1.93
387.70 1.928
387.80 1.925
387.90 1.923
388.00 1.92
388.10 1.918
388.20 1.916
388.30 1.913
388.40 1.911
388.50 1.909
388.60 1.906
388.70 1.904
388.80 1.903
388.90 1.901
389.00 1.901
389.10 1.901
389.20 1.901
389.30 1.901
389.40 1.901
389.50 1.902
389.60 1.902
389.70 1.903
389.80 1.903
389.90 1.904
390.00 1.904
390.10 1.905
390.20 1.905
390.30 1.906
390.40 1.906
390.50 1.906
390.60 1.906
390.70 1.906
390.80 1.906
390.90 1.906
391.00 1.906
391.10 1.906
391.20 1.905
391.30 1.905
391.40 1.904
391.50 1.904
391.60 1.903
391.70 1.902
391.80 1.901
391.90 1.9
392.00 1.899
392.10 1.898
392.20 1.897
392.30 1.895
392.40 1.894
392.50 1.892
392.60 1.891
392.70 1.889
392.80 1.887
392.90 1.885
393.00 1.883
393.10 1.881
393.20 1.878
393.30 1.876
393.40 1.873
393.50 1.871
393.60 1.868
393.70 1.865
393.80 1.862
393.90 1.859
394.00 1.856
394.10 1.852
394.20 1.849
394.30 1.845
394.40 1.841
394.50 1.837
394.60 1.834
394.70 1.829
394.80 1.825
394.90 1.821
395.00 1.817
395.10 1.812
395.20 1.807
395.30 1.803
395.40 1.798
395.50 1.793
395.60 1.787
395.70 1.782
395.80 1.777
395.90 1.771
396.00 1.766
396.10 1.76
396.20 1.755
396.30 1.749
396.40 1.743
396.50 1.737
396.60 1.731
396.70 1.726
396.80 1.72
396.90 1.715
397.00 1.71
397.10 1.713
397.20 1.717
397.30 1.721
397.40 1.725
397.50 1.729
397.60 1.734
397.70 1.738
397.80 1.742
397.90 1.747
398.00 1.751
398.10 1.755
398.20 1.759
398.30 1.763
398.40 1.767
398.50 1.77
398.60 1.774
398.70 1.777
398.80 1.781
398.90 1.784
399.00 1.787
399.10 1.79
399.20 1.793
399.30 1.796
399.40 1.799
399.50 1.801
399.60 1.803
399.70 1.806
399.80 1.808
399.90 1.81
400.00 1.812
400.10 1.814
400.20 1.816
400.30 1.817
400.40 1.819
400.50 1.82
400.60 1.821
400.70 1.822
400.80 1.823
400.90 1.824
401.00 1.825
401.10 1.826
401.20 1.826
401.30 1.827
401.40 1.827
401.50 1.827
401.60 1.827
401.70 1.827
401.80 1.827
401.90 1.826
402.00 1.826
402.10 1.825
402.20 1.825
402.30 1.824
402.40 1.823
402.50 1.822
402.60 1.821
402.70 1.819
402.80 1.818
402.90 1.817
403.00 1.815
403.10 1.813
403.20 1.811
403.30 1.809
403.40 1.807
403.50 1.805
403.60 1.802
403.70 1.8
403.80 1.797
403.90 1.794
404.00 1.791
404.10 1.788
404.20 1.785
404.30 1.782
404.40 1.778
404.50 1.775
404.60 1.771
404.70 1.767
404.80 1.763
404.90 1.759
405.00 1.755
405.10 1.75
405.20 1.746
405.30 1.741
405.40 1.736
405.50 1.731
405.60 1.726
405.70 1.721
405.80 1.715
405.90 1.71
406.00 1.704
406.10 1.698
406.20 1.692
406.30 1.686
406.40 1.68
406.50 1.673
406.60 1.667
406.70 1.66
406.80 1.653
406.90 1.646
407.00 1.639
407.10 1.631
407.20 1.624
407.30 1.616
407.40 1.608
407.50 1.6
407.60 1.592
407.70 1.584
407.80 1.575
407.90 1.567
408.00 1.558
408.10 1.549
408.20 1.54
408.30 1.531
408.40 1.521
408.50 1.512
408.60 1.502
408.70 1.492
408.80 1.482
408.90 1.472
409.00 1.462
409.10 1.452
409.20 1.442
409.30 1.432
409.40 1.421
409.50 1.411
409.60 1.401
409.70 1.392
409.80 1.383
409.90 1.375
410.00 1.37
410.10 1.367
410.20 1.366
410.30 1.366
410.40 1.369
410.50 1.374
410.60 1.381
410.70 1.388
410.80 1.396
410.90 1.405
411.00 1.413
411.10 1.421
411.20 1.43
411.30 1.438
411.40 1.447
411.50 1.455
411.60 1.463
411.70 1.471
411.80 1.479
411.90 1.487
412.00 1.495
412.10 1.502
412.20 1.509
412.30 1.517
412.40 1.524
412.50 1.531
412.60 1.537
412.70 1.544
412.80 1.55
412.90 1.557
413.00 1.563
413.10 1.569
413.20 1.575
413.30 1.581
413.40 1.586
413.50 1.592
413.60 1.597
413.70 1.603
413.80 1.608
413.90 1.613
414.00 1.617
414.10 1.622
414.20 1.627
414.30 1.631
414.40 1.636
414.50 1.64
414.60 1.644
414.70 1.648
414.80 1.652
414.90 1.656
415.00 1.659
415.10 1.663
415.20 1.666
415.30 1.67
415.40 1.673
415.50 1.676
415.60 1.679
415.70 1.682
415.80 1.685
415.90 1.688
416.00 1.69
416.10 1.693
416.20 1.695
416.30 1.698
416.40 1.7
416.50 1.702
416.60 1.704
416.70 1.706
416.80 1.708
416.90 1.71
417.00 1.711
417.10 1.713
417.20 1.715
417.30 1.716
417.40 1.718
417.50 1.719
417.60 1.72
417.70 1.721
417.80 1.722
417.90 1.723
418.00 1.724
418.10 1.725
418.20 1.726
418.30 1.727
418.40 1.727
418.50 1.728
418.60 1.728
418.70 1.729
418.80 1.729
418.90 1.73
419.00 1.73
419.10 1.73
419.20 1.73
419.30 1.73
419.40 1.73
419.50 1.73
419.60 1.73
419.70 1.73
419.80 1.729
419.90 1.729
420.00 1.729
420.10 1.728
420.20 1.728
420.30 1.727
420.40 1.727
420.50 1.726
420.60 1.725
420.70 1.724
420.80 1.724
420.90 1.723
421.00 1.722
421.10 1.721
421.20 1.72
421.30 1.718
421.40 1.717
421.50 1.716
421.60 1.715
421.70 1.713
421.80 1.712
421.90 1.71
422.00 1.709
422.10 1.707
422.20 1.706
422.30 1.704
422.40 1.702
422.50 1.7
422.60 1.698
422.70 1.696
422.80 1.694
422.90 1.692
423.00 1.69
423.10 1.688
423.20 1.686
423.30 1.684
423.40 1.681
423.50 1.679
423.60 1.676
423.70 1.674
423.80 1.671
423.90 1.669
424.00 1.666
424.10 1.663
424.20 1.66
424.30 1.657
424.40 1.654
424.50 1.651
424.60 1.648
424.70 1.645
424.80 1.642
424.90 1.638
425.00 1.635
425.10 1.632
425.20 1.628
425.30 1.625
425.40 1.621
425.50 1.617
425.60 1.613
425.70 1.61
425.80 1.606
425.90 1.602
426.00 1.597
426.10 1.593
426.20 1.589
426.30 1.585
426.40 1.58
426.50 1.576
426.60 1.571
426.70 1.567
426.80 1.562
426.90 1.557
427.00 1.552
427.10 1.547
427.20 1.542
427.30 1.537
427.40 1.532
427.50 1.527
427.60 1.521
427.70 1.516
427.80 1.51
427.90 1.505
428.00 1.499
428.10 1.493
428.20 1.487
428.30 1.481
428.40 1.475
428.50 1.469
428.60 1.462
428.70 1.456
428.80 1.45
428.90 1.443
429.00 1.436
429.10 1.43
429.20 1.423
429.30 1.416
429.40 1.409
429.50 1.402
429.60 1.394
429.70 1.387
429.80 1.379
429.90 1.372
430.00 1.364
430.10 1.356
430.20 1.349
430.30 1.341
430.40 1.333
430.50 1.324
430.60 1.316
430.70 1.308
430.80 1.299
430.90 1.29
431.00 1.282
431.10 1.273
431.20 1.264
431.30 1.255
431.40 1.245
431.50 1.236
431.60 1.226
431.70 1.217
431.80 1.207
431.90 1.197
432.00 1.187
432.10 1.176
432.20 1.166
432.30 1.155
432.40 1.144
432.50 1.133
432.60 1.122
432.70 1.111
432.80 1.099
432.90 1.087
433.00 1.075
433.10 1.062
433.20 1.049
433.30 1.035
433.40 1.021
433.50 1.006
433.60 0.9912
433.70 0.9745
433.80 0.9558
433.90 0.9354
434.00 0.9068
434.10 0.9069
434.20 0.9355
434.30 0.9544
434.40 0.9715
434.50 0.987
434.60 1.001
434.70 1.014
434.80 1.027
434.90 1.039
435.00 1.05
435.10 1.061
435.20 1.072
435.30 1.083
435.40 1.093
435.50 1.103
435.60 1.112
435.70 1.122
435.80 1.131
435.90 1.14
436.00 1.149
436.10 1.157
436.20 1.165
436.30 1.174
436.40 1.182
436.50 1.19
436.60 1.197
436.70 1.205
436.80 1.212
436.90 1.219
437.00 1.227
437.10 1.233
437.20 1.24
437.30 1.247
437.40 1.254
437.50 1.26
437.60 1.266
437.70 1.273
437.80 1.279
437.90 1.285
438.00 1.291
438.10 1.296
438.20 1.302
438.30 1.307
438.40 1.313
438.50 1.318
438.60 1.323
438.70 1.329
438.80 1.333
438.90 1.338
439.00 1.343
439.10 1.348
439.20 1.352
439.30 1.357
439.40 1.361
439.50 1.366
439.60 1.37
439.70 1.374
439.80 1.378
439.90 1.382
440.00 1.386
440.10 1.39
440.20 1.393
440.30 1.397
440.40 1.4
440.50 1.404
440.60 1.407
440.70 1.41
440.80 1.414
440.90 1.417
441.00 1.42
441.10 1.423
441.20 1.425
441.30 1.428
441.40 1.431
441.50 1.434
441.60 1.436
441.70 1.439
441.80 1.441
441.90 1.443
442.00 1.446
442.10 1.448
442.20 1.45
442.30 1.452
442.40 1.454
442.50 1.456
442.60 1.458
442.70 1.46
442.80 1.462
442.90 1.463
443.00 1.465
443.10 1.467
443.20 1.468
443.30 1.47
443.40 1.471
443.50 1.472
443.60 1.474
443.70 1.475
443.80 1.476
443.90 1.478
444.00 1.479
444.10 1.48
444.20 1.481
444.30 1.482
444.40 1.483
444.50 1.484
444.60 1.485
444.70 1.485
444.80 1.486
444.90 1.487
445.00 1.488
445.10 1.488
445.20 1.489
445.30 1.49
445.40 1.49
445.50 1.491
445.60 1.491
445.70 1.492
445.80 1.492
445.90 1.493
446.00 1.493
446.10 1.493
446.20 1.494
446.30 1.494
446.40 1.494
446.50 1.494
446.60 1.494
446.70 1.495
446.80 1.495
446.90 1.495
447.00 1.495
447.10 1.495
447.20 1.495
447.30 1.495
447.40 1.495
447.50 1.495
447.60 1.495
447.70 1.495
447.80 1.495
447.90 1.495
448.00 1.494
448.10 1.494
448.20 1.494
448.30 1.494
448.40 1.494
448.50 1.493
448.60 1.493
448.70 1.493
448.80 1.492
448.90 1.492
449.00 1.492
449.10 1.491
449.20 1.491
449.30 1.491
449.40 1.49
449.50 1.49
449.60 1.489
449.70 1.489
449.80 1.488
449.90 1.488
450.00 1.487
450.10 1.487
450.20 1.486
450.30 1.486
450.40 1.485
450.50 1.485
450.60 1.484
450.70 1.484
450.80 1.483
450.90 1.482
451.00 1.482
451.10 1.481
451.20 1.48
451.30 1.48
451.40 1.479
451.50 1.478
451.60 1.478
451.70 1.477
451.80 1.476
451.90 1.476
452.00 1.475
452.10 1.474
452.20 1.473
452.30 1.473
452.40 1.472
452.50 1.471
452.60 1.47
452.70 1.469
452.80 1.469
452.90 1.468
453.00 1.467
453.10 1.466
453.20 1.465
453.30 1.465
453.40 1.464
453.50 1.463
453.60 1.462
453.70 1.461
453.80 1.46
453.90 1.459
454.00 1.458
