# Version 2.1 - nm, norm@500 to 1, cut digits, bergeron_14000_65.dat_14000
# Wavelength(nm)  Flambda(ergs/cm^s/s/nm)
300.00 1.885
300.10 1.883
300.20 1.882
300.30 1.881
300.40 1.879
300.50 1.878
300.60 1.877
300.70 1.875
300.80 1.874
300.90 1.873
301.00 1.871
301.10 1.87
301.20 1.869
301.30 1.867
301.40 1.866
301.50 1.865
301.60 1.864
301.70 1.862
301.80 1.861
301.90 1.86
302.00 1.858
302.10 1.857
302.20 1.856
302.30 1.854
302.40 1.853
302.50 1.852
302.60 1.85
302.70 1.849
302.80 1.848
302.90 1.847
303.00 1.845
303.10 1.844
303.20 1.843
303.30 1.841
303.40 1.84
303.50 1.839
303.60 1.838
303.70 1.836
303.80 1.835
303.90 1.834
304.00 1.832
304.10 1.831
304.20 1.83
304.30 1.829
304.40 1.827
304.50 1.826
304.60 1.825
304.70 1.824
304.80 1.822
304.90 1.821
305.00 1.82
305.10 1.818
305.20 1.817
305.30 1.816
305.40 1.815
305.50 1.813
305.60 1.812
305.70 1.811
305.80 1.81
305.90 1.808
306.00 1.807
306.10 1.806
306.20 1.805
306.30 1.803
306.40 1.802
306.50 1.801
306.60 1.8
306.70 1.798
306.80 1.797
306.90 1.796
307.00 1.795
307.10 1.793
307.20 1.792
307.30 1.791
307.40 1.79
307.50 1.788
307.60 1.787
307.70 1.786
307.80 1.785
307.90 1.784
308.00 1.782
308.10 1.781
308.20 1.78
308.30 1.779
308.40 1.777
308.50 1.776
308.60 1.775
308.70 1.774
308.80 1.772
308.90 1.771
309.00 1.77
309.10 1.769
309.20 1.768
309.30 1.766
309.40 1.765
309.50 1.764
309.60 1.763
309.70 1.762
309.80 1.76
309.90 1.759
310.00 1.758
310.10 1.757
310.20 1.755
310.30 1.754
310.40 1.753
310.50 1.752
310.60 1.751
310.70 1.749
310.80 1.748
310.90 1.747
311.00 1.746
311.10 1.745
311.20 1.743
311.30 1.742
311.40 1.741
311.50 1.74
311.60 1.739
311.70 1.738
311.80 1.736
311.90 1.735
312.00 1.734
312.10 1.733
312.20 1.732
312.30 1.73
312.40 1.729
312.50 1.728
312.60 1.727
312.70 1.726
312.80 1.725
312.90 1.723
313.00 1.722
313.10 1.721
313.20 1.72
313.30 1.719
313.40 1.717
313.50 1.716
313.60 1.715
313.70 1.714
313.80 1.713
313.90 1.712
314.00 1.71
314.10 1.709
314.20 1.708
314.30 1.707
314.40 1.706
314.50 1.705
314.60 1.704
314.70 1.702
314.80 1.701
314.90 1.7
315.00 1.699
315.10 1.698
315.20 1.697
315.30 1.695
315.40 1.694
315.50 1.693
315.60 1.692
315.70 1.691
315.80 1.69
315.90 1.689
316.00 1.687
316.10 1.686
316.20 1.685
316.30 1.684
316.40 1.683
316.50 1.682
316.60 1.681
316.70 1.679
316.80 1.678
316.90 1.677
317.00 1.676
317.10 1.675
317.20 1.674
317.30 1.673
317.40 1.672
317.50 1.67
317.60 1.669
317.70 1.668
317.80 1.667
317.90 1.666
318.00 1.665
318.10 1.664
318.20 1.663
318.30 1.661
318.40 1.66
318.50 1.659
318.60 1.658
318.70 1.657
318.80 1.656
318.90 1.655
319.00 1.654
319.10 1.653
319.20 1.651
319.30 1.65
319.40 1.649
319.50 1.648
319.60 1.647
319.70 1.646
319.80 1.645
319.90 1.644
320.00 1.643
320.10 1.642
320.20 1.64
320.30 1.639
320.40 1.638
320.50 1.637
320.60 1.636
320.70 1.635
320.80 1.634
320.90 1.633
321.00 1.632
321.10 1.631
321.20 1.63
321.30 1.628
321.40 1.627
321.50 1.626
321.60 1.625
321.70 1.624
321.80 1.623
321.90 1.622
322.00 1.621
322.10 1.62
322.20 1.619
322.30 1.618
322.40 1.617
322.50 1.615
322.60 1.614
322.70 1.613
322.80 1.612
322.90 1.611
323.00 1.61
323.10 1.609
323.20 1.608
323.30 1.607
323.40 1.606
323.50 1.605
323.60 1.604
323.70 1.603
323.80 1.602
323.90 1.6
324.00 1.599
324.10 1.598
324.20 1.597
324.30 1.596
324.40 1.595
324.50 1.594
324.60 1.593
324.70 1.592
324.80 1.591
324.90 1.59
325.00 1.589
325.10 1.588
325.20 1.587
325.30 1.586
325.40 1.585
325.50 1.584
325.60 1.583
325.70 1.582
325.80 1.58
325.90 1.579
326.00 1.578
326.10 1.577
326.20 1.576
326.30 1.575
326.40 1.574
326.50 1.573
326.60 1.572
326.70 1.571
326.80 1.57
326.90 1.569
327.00 1.568
327.10 1.567
327.20 1.566
327.30 1.565
327.40 1.564
327.50 1.563
327.60 1.562
327.70 1.561
327.80 1.56
327.90 1.559
328.00 1.558
328.10 1.557
328.20 1.556
328.30 1.555
328.40 1.554
328.50 1.553
328.60 1.552
328.70 1.551
328.80 1.55
328.90 1.549
329.00 1.548
329.10 1.547
329.20 1.545
329.30 1.544
329.40 1.543
329.50 1.542
329.60 1.541
329.70 1.54
329.80 1.539
329.90 1.538
330.00 1.537
330.10 1.536
330.20 1.535
330.30 1.534
330.40 1.533
330.50 1.532
330.60 1.531
330.70 1.53
330.80 1.529
330.90 1.528
331.00 1.527
331.10 1.526
331.20 1.525
331.30 1.524
331.40 1.523
331.50 1.522
331.60 1.521
331.70 1.52
331.80 1.519
331.90 1.518
332.00 1.517
332.10 1.517
332.20 1.516
332.30 1.515
332.40 1.514
332.50 1.513
332.60 1.512
332.70 1.511
332.80 1.51
332.90 1.509
333.00 1.508
333.10 1.507
333.20 1.506
333.30 1.505
333.40 1.504
333.50 1.503
333.60 1.502
333.70 1.501
333.80 1.5
333.90 1.499
334.00 1.498
334.10 1.497
334.20 1.496
334.30 1.495
334.40 1.494
334.50 1.493
334.60 1.492
334.70 1.491
334.80 1.49
334.90 1.489
335.00 1.488
335.10 1.487
335.20 1.486
335.30 1.485
335.40 1.484
335.50 1.483
335.60 1.482
335.70 1.482
335.80 1.481
335.90 1.48
336.00 1.479
336.10 1.478
336.20 1.477
336.30 1.476
336.40 1.475
336.50 1.474
336.60 1.473
336.70 1.472
336.80 1.471
336.90 1.47
337.00 1.469
337.10 1.468
337.20 1.467
337.30 1.466
337.40 1.465
337.50 1.464
337.60 1.463
337.70 1.463
337.80 1.462
337.90 1.461
338.00 1.46
338.10 1.459
338.20 1.458
338.30 1.457
338.40 1.456
338.50 1.455
338.60 1.454
338.70 1.453
338.80 1.452
338.90 1.451
339.00 1.45
339.10 1.449
339.20 1.449
339.30 1.448
339.40 1.447
339.50 1.446
339.60 1.445
339.70 1.444
339.80 1.443
339.90 1.442
340.00 1.441
340.10 1.44
340.20 1.439
340.30 1.438
340.40 1.437
340.50 1.437
340.60 1.436
340.70 1.435
340.80 1.434
340.90 1.433
341.00 1.432
341.10 1.431
341.20 1.43
341.30 1.429
341.40 1.428
341.50 1.427
341.60 1.426
341.70 1.426
341.80 1.425
341.90 1.424
342.00 1.423
342.10 1.422
342.20 1.421
342.30 1.42
342.40 1.419
342.50 1.418
342.60 1.417
342.70 1.417
342.80 1.416
342.90 1.415
343.00 1.414
343.10 1.413
343.20 1.412
343.30 1.411
343.40 1.41
343.50 1.409
343.60 1.408
343.70 1.408
343.80 1.407
343.90 1.406
344.00 1.405
344.10 1.404
344.20 1.403
344.30 1.402
344.40 1.401
344.50 1.4
344.60 1.4
344.70 1.399
344.80 1.398
344.90 1.397
345.00 1.396
345.10 1.395
345.20 1.394
345.30 1.393
345.40 1.392
345.50 1.392
345.60 1.391
345.70 1.39
345.80 1.389
345.90 1.388
346.00 1.387
346.10 1.386
346.20 1.385
346.30 1.385
346.40 1.384
346.50 1.383
346.60 1.382
346.70 1.381
346.80 1.38
346.90 1.379
347.00 1.378
347.10 1.378
347.20 1.377
347.30 1.376
347.40 1.375
347.50 1.374
347.60 1.373
347.70 1.372
347.80 1.372
347.90 1.371
348.00 1.37
348.10 1.369
348.20 1.368
348.30 1.367
348.40 1.366
348.50 1.366
348.60 1.365
348.70 1.364
348.80 1.363
348.90 1.362
349.00 1.361
349.10 1.36
349.20 1.36
349.30 1.359
349.40 1.358
349.50 1.357
349.60 1.356
349.70 1.355
349.80 1.354
349.90 1.354
350.00 1.353
350.10 1.352
350.20 1.351
350.30 1.35
350.40 1.349
350.50 1.348
350.60 1.348
350.70 1.347
350.80 1.346
350.90 1.345
351.00 1.344
351.10 1.343
351.20 1.343
351.30 1.342
351.40 1.341
351.50 1.34
351.60 1.339
351.70 1.338
351.80 1.338
351.90 1.337
352.00 1.336
352.10 1.335
352.20 1.334
352.30 1.333
352.40 1.333
352.50 1.332
352.60 1.331
352.70 1.33
352.80 1.329
352.90 1.328
353.00 1.328
353.10 1.327
353.20 1.326
353.30 1.325
353.40 1.324
353.50 1.323
353.60 1.323
353.70 1.322
353.80 1.321
353.90 1.32
354.00 1.319
354.10 1.319
354.20 1.318
354.30 1.317
354.40 1.316
354.50 1.315
354.60 1.314
354.70 1.314
354.80 1.313
354.90 1.312
355.00 1.311
355.10 1.31
355.20 1.31
355.30 1.309
355.40 1.308
355.50 1.307
355.60 1.306
355.70 1.306
355.80 1.305
355.90 1.304
356.00 1.303
356.10 1.302
356.20 1.301
356.30 1.301
356.40 1.3
356.50 1.299
356.60 1.298
356.70 1.297
356.80 1.297
356.90 1.296
357.00 1.295
357.10 1.294
357.20 1.293
357.30 1.293
357.40 1.292
357.50 1.291
357.60 1.29
357.70 1.289
357.80 1.289
357.90 1.288
358.00 1.287
358.10 1.286
358.20 1.285
358.30 1.285
358.40 1.284
358.50 1.283
358.60 1.282
358.70 1.282
358.80 1.281
358.90 1.28
359.00 1.279
359.10 1.278
359.20 1.278
359.30 1.277
359.40 1.276
359.50 1.275
359.60 1.274
359.70 1.274
359.80 1.273
359.90 1.272
360.00 1.271
360.10 1.271
360.20 1.27
360.30 1.269
360.40 1.268
360.50 1.267
360.60 1.267
360.70 1.266
360.80 1.265
360.90 1.264
361.00 1.264
361.10 1.263
361.20 1.262
361.30 1.261
361.40 1.26
361.50 1.26
361.60 1.259
361.70 1.258
361.80 1.257
361.90 1.257
362.00 1.256
362.10 1.255
362.20 1.254
362.30 1.254
362.40 1.253
362.50 1.252
362.60 1.251
362.70 1.25
362.80 1.25
362.90 1.249
363.00 1.248
363.10 1.247
363.20 1.247
363.30 1.246
363.40 1.245
363.50 1.244
363.60 1.243
363.70 1.243
363.80 1.242
363.90 1.241
364.00 1.24
364.10 1.24
364.20 1.239
364.30 1.238
364.40 1.237
364.50 1.237
364.60 1.236
364.70 1.235
364.80 1.234
364.90 1.234
365.00 1.233
365.10 1.232
365.20 1.232
365.30 1.231
365.40 1.23
365.50 1.23
365.60 1.229
365.70 1.228
365.80 1.228
365.90 1.227
366.00 1.226
366.10 1.226
366.20 1.225
366.30 1.225
366.40 1.224
366.50 1.223
366.60 1.223
366.70 1.222
366.80 1.221
366.90 1.221
367.00 1.22
367.10 1.22
367.20 1.219
367.30 1.218
367.40 1.218
367.50 1.217
367.60 1.217
367.70 1.216
367.80 1.215
367.90 1.215
368.00 1.214
368.10 1.215
368.20 1.216
368.30 1.217
368.40 1.218
368.50 1.219
368.60 1.22
368.70 1.221
368.80 1.222
368.90 1.223
369.00 1.223
369.10 1.224
369.20 1.225
369.30 1.226
369.40 1.227
369.50 1.228
369.60 1.229
369.70 1.23
369.80 1.231
369.90 1.232
370.00 1.233
370.10 1.236
370.20 1.24
370.30 1.244
370.40 1.247
370.50 1.251
370.60 1.255
370.70 1.258
370.80 1.262
370.90 1.266
371.00 1.269
371.10 1.273
371.20 1.276
371.30 1.28
371.40 1.284
371.50 1.287
371.60 1.291
371.70 1.294
371.80 1.298
371.90 1.302
372.00 1.305
372.10 1.311
372.20 1.317
372.30 1.323
372.40 1.328
372.50 1.334
372.60 1.34
372.70 1.346
372.80 1.351
372.90 1.357
373.00 1.363
373.10 1.369
373.20 1.374
373.30 1.38
373.40 1.386
373.50 1.392
373.60 1.397
373.70 1.403
373.80 1.409
373.90 1.414
374.00 1.42
374.10 1.426
374.20 1.432
374.30 1.438
374.40 1.443
374.50 1.449
374.60 1.455
374.70 1.461
374.80 1.467
374.90 1.472
375.00 1.478
375.10 1.484
375.20 1.49
375.30 1.496
375.40 1.501
375.50 1.507
375.60 1.513
375.70 1.519
375.80 1.524
375.90 1.53
376.00 1.536
376.10 1.538
376.20 1.541
376.30 1.544
376.40 1.546
376.50 1.549
376.60 1.552
376.70 1.554
376.80 1.557
376.90 1.56
377.00 1.562
377.10 1.556
377.20 1.551
377.30 1.545
377.40 1.539
377.50 1.533
377.60 1.528
377.70 1.522
377.80 1.516
377.90 1.511
378.00 1.505
378.10 1.476
378.20 1.448
378.30 1.419
378.40 1.391
378.50 1.362
378.60 1.334
378.70 1.306
378.80 1.277
378.90 1.249
379.00 1.221
379.10 1.197
379.20 1.173
379.30 1.15
379.40 1.126
379.50 1.102
379.60 1.079
379.70 1.055
379.80 1.032
379.90 1.008
380.00 0.9848
380.10 1.022
380.20 1.059
380.30 1.095
380.40 1.132
380.50 1.169
380.60 1.206
380.70 1.243
380.80 1.279
380.90 1.316
381.00 1.352
381.10 1.369
381.20 1.385
381.30 1.402
381.40 1.418
381.50 1.435
381.60 1.438
381.70 1.436
381.80 1.429
381.90 1.419
382.00 1.403
382.10 1.383
382.20 1.357
382.30 1.315
382.40 1.274
382.50 1.232
382.60 1.19
382.70 1.148
382.80 1.107
382.90 1.065
383.00 1.023
383.10 0.9819
383.20 0.9404
383.30 0.8935
383.40 0.844
383.50 0.7884
383.60 0.8013
383.70 0.8543
383.80 0.9026
383.90 0.9487
384.00 0.994
384.10 1.04
384.20 1.086
384.30 1.132
384.40 1.178
384.50 1.225
384.60 1.269
384.70 1.312
384.80 1.351
384.90 1.387
385.00 1.42
385.10 1.449
385.20 1.475
385.30 1.498
385.40 1.518
385.50 1.534
385.60 1.549
385.70 1.56
385.80 1.57
385.90 1.577
386.00 1.581
386.10 1.583
386.20 1.583
386.30 1.58
386.40 1.575
386.50 1.569
386.60 1.559
386.70 1.547
386.80 1.533
386.90 1.516
387.00 1.497
387.10 1.476
387.20 1.45
387.30 1.423
387.40 1.393
387.50 1.359
387.60 1.322
387.70 1.283
387.80 1.239
387.90 1.194
388.00 1.147
388.10 1.097
388.20 1.048
388.30 0.9991
388.40 0.951
388.50 0.903
388.60 0.855
388.70 0.8041
388.80 0.7464
388.90 0.682
389.00 0.7422
389.10 0.7977
389.20 0.8484
389.30 0.8957
389.40 0.9429
389.50 0.99
389.60 1.038
389.70 1.087
389.80 1.135
389.90 1.183
390.00 1.229
390.10 1.273
390.20 1.313
390.30 1.352
390.40 1.388
390.50 1.421
390.60 1.452
390.70 1.481
390.80 1.507
390.90 1.532
391.00 1.555
391.10 1.576
391.20 1.596
391.30 1.615
391.40 1.631
391.50 1.647
391.60 1.662
391.70 1.674
391.80 1.686
391.90 1.697
392.00 1.706
392.10 1.714
392.20 1.722
392.30 1.728
392.40 1.733
392.50 1.737
392.60 1.739
392.70 1.741
392.80 1.742
392.90 1.742
393.00 1.741
393.10 1.739
393.20 1.735
393.30 1.731
393.40 1.726
393.50 1.719
393.60 1.711
393.70 1.703
393.80 1.693
393.90 1.682
394.00 1.67
394.10 1.656
394.20 1.641
394.30 1.626
394.40 1.608
394.50 1.59
394.60 1.57
394.70 1.549
394.80 1.526
394.90 1.503
395.00 1.477
395.10 1.45
395.20 1.422
395.30 1.391
395.40 1.359
395.50 1.326
395.60 1.29
395.70 1.252
395.80 1.213
395.90 1.171
396.00 1.128
396.10 1.083
396.20 1.037
396.30 0.9906
396.40 0.9434
396.50 0.8969
396.60 0.8506
396.70 0.8045
396.80 0.7541
396.90 0.6873
397.00 0.6041
397.10 0.6816
397.20 0.7456
397.30 0.7963
397.40 0.8417
397.50 0.8871
397.60 0.9325
397.70 0.9786
397.80 1.024
397.90 1.069
398.00 1.113
398.10 1.155
398.20 1.196
398.30 1.234
398.40 1.27
398.50 1.306
398.60 1.338
398.70 1.369
398.80 1.399
398.90 1.426
399.00 1.453
399.10 1.478
399.20 1.502
399.30 1.524
399.40 1.546
399.50 1.566
399.60 1.585
399.70 1.604
399.80 1.62
399.90 1.636
400.00 1.652
400.10 1.666
400.20 1.679
400.30 1.692
400.40 1.704
400.50 1.715
400.60 1.725
400.70 1.734
400.80 1.743
400.90 1.752
401.00 1.759
401.10 1.766
401.20 1.773
401.30 1.779
401.40 1.785
401.50 1.79
401.60 1.795
401.70 1.799
401.80 1.803
401.90 1.806
402.00 1.81
402.10 1.812
402.20 1.815
402.30 1.817
402.40 1.819
402.50 1.82
402.60 1.821
402.70 1.822
402.80 1.823
402.90 1.824
403.00 1.824
403.10 1.824
403.20 1.823
403.30 1.823
403.40 1.822
403.50 1.821
403.60 1.82
403.70 1.818
403.80 1.817
403.90 1.815
404.00 1.812
404.10 1.81
404.20 1.807
404.30 1.804
404.40 1.801
404.50 1.798
404.60 1.794
404.70 1.79
404.80 1.786
404.90 1.781
405.00 1.776
405.10 1.771
405.20 1.766
405.30 1.76
405.40 1.754
405.50 1.747
405.60 1.74
405.70 1.733
405.80 1.725
405.90 1.717
406.00 1.708
406.10 1.699
406.20 1.689
406.30 1.679
406.40 1.668
406.50 1.657
406.60 1.645
406.70 1.632
406.80 1.619
406.90 1.605
407.00 1.59
407.10 1.574
407.20 1.558
407.30 1.54
407.40 1.521
407.50 1.502
407.60 1.481
407.70 1.46
407.80 1.437
407.90 1.414
408.00 1.389
408.10 1.364
408.20 1.338
408.30 1.31
408.40 1.283
408.50 1.253
408.60 1.223
408.70 1.192
408.80 1.16
408.90 1.127
409.00 1.093
409.10 1.056
409.20 1.019
409.30 0.9817
409.40 0.9419
409.50 0.9015
409.60 0.8604
409.70 0.8193
409.80 0.7781
409.90 0.7368
410.00 0.6866
410.10 0.6265
410.20 0.5566
410.30 0.646
410.40 0.713
410.50 0.7577
410.60 0.7978
410.70 0.838
410.80 0.8783
410.90 0.9179
411.00 0.9566
411.10 0.9944
411.20 1.03
411.30 1.065
411.40 1.099
411.50 1.131
411.60 1.162
411.70 1.192
411.80 1.22
411.90 1.248
412.00 1.275
412.10 1.3
412.20 1.325
412.30 1.349
412.40 1.371
412.50 1.393
412.60 1.414
412.70 1.433
412.80 1.452
412.90 1.47
413.00 1.486
413.10 1.502
413.20 1.517
413.30 1.531
413.40 1.544
413.50 1.557
413.60 1.568
413.70 1.579
413.80 1.589
413.90 1.599
414.00 1.608
414.10 1.616
414.20 1.624
414.30 1.631
414.40 1.639
414.50 1.645
414.60 1.651
414.70 1.657
414.80 1.662
414.90 1.667
415.00 1.672
415.10 1.676
415.20 1.681
415.30 1.685
415.40 1.688
415.50 1.691
415.60 1.694
415.70 1.697
415.80 1.7
415.90 1.702
416.00 1.705
416.10 1.707
416.20 1.709
416.30 1.711
416.40 1.712
416.50 1.714
416.60 1.715
416.70 1.716
416.80 1.717
416.90 1.719
417.00 1.719
417.10 1.72
417.20 1.721
417.30 1.722
417.40 1.722
417.50 1.723
417.60 1.723
417.70 1.723
417.80 1.724
417.90 1.724
418.00 1.724
418.10 1.724
418.20 1.724
418.30 1.724
418.40 1.724
418.50 1.724
418.60 1.723
418.70 1.723
418.80 1.723
418.90 1.722
419.00 1.722
419.10 1.722
419.20 1.721
419.30 1.72
419.40 1.72
419.50 1.719
419.60 1.719
419.70 1.718
419.80 1.717
419.90 1.717
420.00 1.716
420.10 1.715
420.20 1.714
420.30 1.714
420.40 1.713
420.50 1.712
420.60 1.711
420.70 1.71
420.80 1.709
420.90 1.708
421.00 1.707
421.10 1.706
421.20 1.705
421.30 1.704
421.40 1.703
421.50 1.702
421.60 1.701
421.70 1.7
421.80 1.699
421.90 1.697
422.00 1.696
422.10 1.695
422.20 1.694
422.30 1.692
422.40 1.691
422.50 1.69
422.60 1.688
422.70 1.687
422.80 1.686
422.90 1.684
423.00 1.683
423.10 1.682
423.20 1.68
423.30 1.679
423.40 1.677
423.50 1.676
423.60 1.674
423.70 1.673
423.80 1.671
423.90 1.669
424.00 1.668
424.10 1.666
424.20 1.664
424.30 1.663
424.40 1.661
424.50 1.659
424.60 1.657
424.70 1.656
424.80 1.654
424.90 1.652
425.00 1.65
425.10 1.648
425.20 1.646
425.30 1.644
425.40 1.642
425.50 1.639
425.60 1.637
425.70 1.635
425.80 1.633
425.90 1.63
426.00 1.628
426.10 1.625
426.20 1.623
426.30 1.62
426.40 1.617
426.50 1.614
426.60 1.612
426.70 1.609
426.80 1.606
426.90 1.603
427.00 1.6
427.10 1.597
427.20 1.593
427.30 1.59
427.40 1.586
427.50 1.583
427.60 1.579
427.70 1.575
427.80 1.572
427.90 1.568
428.00 1.563
428.10 1.559
428.20 1.555
428.30 1.55
428.40 1.545
428.50 1.54
428.60 1.535
428.70 1.53
428.80 1.525
428.90 1.519
429.00 1.513
429.10 1.507
429.20 1.501
429.30 1.494
429.40 1.487
429.50 1.48
429.60 1.473
429.70 1.465
429.80 1.457
429.90 1.449
430.00 1.44
430.10 1.431
430.20 1.422
430.30 1.412
430.40 1.402
430.50 1.391
430.60 1.381
430.70 1.369
430.80 1.357
430.90 1.345
431.00 1.332
431.10 1.319
431.20 1.306
431.30 1.292
431.40 1.277
431.50 1.262
431.60 1.245
431.70 1.228
431.80 1.21
431.90 1.191
432.00 1.171
432.10 1.15
432.20 1.127
432.30 1.103
432.40 1.078
432.50 1.051
432.60 1.023
432.70 0.9944
432.80 0.9647
432.90 0.9352
433.00 0.906
433.10 0.8776
433.20 0.8487
433.30 0.8194
433.40 0.7878
433.50 0.7554
433.60 0.7224
433.70 0.6886
433.80 0.6515
433.90 0.6111
434.00 0.5044
434.10 0.5055
434.20 0.6144
434.30 0.6534
434.40 0.6894
434.50 0.7225
434.60 0.7546
434.70 0.786
434.80 0.8166
434.90 0.8448
435.00 0.8725
435.10 0.8997
435.20 0.9277
435.30 0.9558
435.40 0.984
435.50 1.011
435.60 1.038
435.70 1.063
435.80 1.086
435.90 1.108
436.00 1.128
436.10 1.147
436.20 1.165
436.30 1.183
436.40 1.198
436.50 1.213
436.60 1.227
436.70 1.241
436.80 1.253
436.90 1.265
437.00 1.276
437.10 1.287
437.20 1.297
437.30 1.307
437.40 1.317
437.50 1.326
437.60 1.334
437.70 1.342
437.80 1.35
437.90 1.357
438.00 1.364
438.10 1.371
438.20 1.377
438.30 1.382
438.40 1.388
438.50 1.393
438.60 1.398
438.70 1.402
438.80 1.407
438.90 1.411
439.00 1.415
439.10 1.418
439.20 1.422
439.30 1.425
439.40 1.428
439.50 1.43
439.60 1.433
439.70 1.435
439.80 1.438
439.90 1.44
440.00 1.442
440.10 1.444
440.20 1.445
440.30 1.447
440.40 1.448
440.50 1.45
440.60 1.451
440.70 1.452
440.80 1.453
440.90 1.454
441.00 1.455
441.10 1.456
441.20 1.456
441.30 1.457
441.40 1.457
441.50 1.458
441.60 1.458
441.70 1.459
441.80 1.459
441.90 1.459
442.00 1.459
442.10 1.46
442.20 1.46
442.30 1.46
442.40 1.46
442.50 1.46
442.60 1.46
442.70 1.459
442.80 1.459
442.90 1.459
443.00 1.459
443.10 1.459
443.20 1.458
443.30 1.458
443.40 1.458
443.50 1.457
443.60 1.457
443.70 1.456
443.80 1.456
443.90 1.455
444.00 1.455
444.10 1.454
444.20 1.454
444.30 1.453
444.40 1.453
444.50 1.452
444.60 1.452
444.70 1.451
444.80 1.45
444.90 1.45
445.00 1.449
445.10 1.448
445.20 1.448
445.30 1.447
445.40 1.446
445.50 1.446
445.60 1.445
445.70 1.444
445.80 1.443
445.90 1.443
446.00 1.442
446.10 1.441
446.20 1.44
446.30 1.44
446.40 1.439
446.50 1.438
446.60 1.437
446.70 1.437
446.80 1.436
446.90 1.435
447.00 1.434
447.10 1.433
447.20 1.432
447.30 1.432
447.40 1.431
447.50 1.43
447.60 1.429
447.70 1.428
447.80 1.427
447.90 1.426
448.00 1.426
448.10 1.425
448.20 1.424
448.30 1.423
448.40 1.422
448.50 1.421
448.60 1.42
448.70 1.419
448.80 1.419
448.90 1.418
449.00 1.417
449.10 1.416
449.20 1.415
449.30 1.414
449.40 1.413
449.50 1.412
449.60 1.412
449.70 1.411
449.80 1.41
449.90 1.409
450.00 1.408
450.10 1.407
450.20 1.406
450.30 1.405
450.40 1.404
450.50 1.403
450.60 1.403
450.70 1.402
450.80 1.401
450.90 1.4
451.00 1.399
451.10 1.398
451.20 1.397
451.30 1.396
451.40 1.395
451.50 1.394
451.60 1.393
451.70 1.392
451.80 1.391
451.90 1.391
452.00 1.39
452.10 1.389
452.20 1.388
452.30 1.387
452.40 1.386
452.50 1.385
452.60 1.384
452.70 1.383
452.80 1.382
452.90 1.381
453.00 1.38
453.10 1.379
453.20 1.378
453.30 1.377
453.40 1.377
453.50 1.376
