# Version 2.1 - nm, norm@500 to 1, cut digits, bergeron_16500_85.dat_16500
# Wavelength(nm)  Flambda(ergs/cm^s/s/nm)
300.00 2.687
300.10 2.685
300.20 2.682
300.30 2.68
300.40 2.678
300.50 2.675
300.60 2.673
300.70 2.671
300.80 2.669
300.90 2.666
301.00 2.664
301.10 2.662
301.20 2.659
301.30 2.657
301.40 2.655
301.50 2.653
301.60 2.65
301.70 2.648
301.80 2.646
301.90 2.644
302.00 2.641
302.10 2.639
302.20 2.637
302.30 2.635
302.40 2.632
302.50 2.63
302.60 2.628
302.70 2.626
302.80 2.623
302.90 2.621
303.00 2.619
303.10 2.617
303.20 2.615
303.30 2.612
303.40 2.61
303.50 2.608
303.60 2.606
303.70 2.603
303.80 2.601
303.90 2.599
304.00 2.597
304.10 2.595
304.20 2.592
304.30 2.59
304.40 2.588
304.50 2.586
304.60 2.584
304.70 2.582
304.80 2.579
304.90 2.577
305.00 2.575
305.10 2.573
305.20 2.571
305.30 2.569
305.40 2.566
305.50 2.564
305.60 2.562
305.70 2.56
305.80 2.558
305.90 2.556
306.00 2.553
306.10 2.551
306.20 2.549
306.30 2.547
306.40 2.545
306.50 2.543
306.60 2.541
306.70 2.538
306.80 2.536
306.90 2.534
307.00 2.532
307.10 2.53
307.20 2.528
307.30 2.526
307.40 2.523
307.50 2.521
307.60 2.519
307.70 2.517
307.80 2.515
307.90 2.513
308.00 2.511
308.10 2.509
308.20 2.507
308.30 2.504
308.40 2.502
308.50 2.5
308.60 2.498
308.70 2.496
308.80 2.494
308.90 2.492
309.00 2.49
309.10 2.488
309.20 2.486
309.30 2.484
309.40 2.481
309.50 2.479
309.60 2.477
309.70 2.475
309.80 2.473
309.90 2.471
310.00 2.469
310.10 2.467
310.20 2.465
310.30 2.463
310.40 2.461
310.50 2.459
310.60 2.457
310.70 2.455
310.80 2.453
310.90 2.451
311.00 2.449
311.10 2.447
311.20 2.445
311.30 2.443
311.40 2.441
311.50 2.439
311.60 2.437
311.70 2.434
311.80 2.432
311.90 2.43
312.00 2.428
312.10 2.426
312.20 2.424
312.30 2.422
312.40 2.42
312.50 2.418
312.60 2.416
312.70 2.414
312.80 2.412
312.90 2.41
313.00 2.408
313.10 2.406
313.20 2.404
313.30 2.402
313.40 2.4
313.50 2.398
313.60 2.397
313.70 2.395
313.80 2.393
313.90 2.391
314.00 2.389
314.10 2.387
314.20 2.385
314.30 2.383
314.40 2.381
314.50 2.379
314.60 2.377
314.70 2.375
314.80 2.373
314.90 2.371
315.00 2.369
315.10 2.367
315.20 2.365
315.30 2.363
315.40 2.361
315.50 2.359
315.60 2.357
315.70 2.355
315.80 2.353
315.90 2.352
316.00 2.35
316.10 2.348
316.20 2.346
316.30 2.344
316.40 2.342
316.50 2.34
316.60 2.338
316.70 2.336
316.80 2.334
316.90 2.332
317.00 2.33
317.10 2.329
317.20 2.327
317.30 2.325
317.40 2.323
317.50 2.321
317.60 2.319
317.70 2.317
317.80 2.315
317.90 2.313
318.00 2.311
318.10 2.31
318.20 2.308
318.30 2.306
318.40 2.304
318.50 2.302
318.60 2.3
318.70 2.298
318.80 2.297
318.90 2.295
319.00 2.293
319.10 2.291
319.20 2.289
319.30 2.287
319.40 2.285
319.50 2.283
319.60 2.282
319.70 2.28
319.80 2.278
319.90 2.276
320.00 2.274
320.10 2.272
320.20 2.271
320.30 2.269
320.40 2.267
320.50 2.265
320.60 2.263
320.70 2.261
320.80 2.26
320.90 2.258
321.00 2.256
321.10 2.254
321.20 2.252
321.30 2.25
321.40 2.249
321.50 2.247
321.60 2.245
321.70 2.243
321.80 2.241
321.90 2.239
322.00 2.238
322.10 2.236
322.20 2.234
322.30 2.232
322.40 2.23
322.50 2.229
322.60 2.227
322.70 2.225
322.80 2.223
322.90 2.221
323.00 2.22
323.10 2.218
323.20 2.216
323.30 2.214
323.40 2.213
323.50 2.211
323.60 2.209
323.70 2.207
323.80 2.205
323.90 2.204
324.00 2.202
324.10 2.2
324.20 2.198
324.30 2.197
324.40 2.195
324.50 2.193
324.60 2.191
324.70 2.19
324.80 2.188
324.90 2.186
325.00 2.184
325.10 2.183
325.20 2.181
325.30 2.179
325.40 2.177
325.50 2.176
325.60 2.174
325.70 2.172
325.80 2.17
325.90 2.169
326.00 2.167
326.10 2.165
326.20 2.164
326.30 2.162
326.40 2.16
326.50 2.158
326.60 2.157
326.70 2.155
326.80 2.153
326.90 2.151
327.00 2.15
327.10 2.148
327.20 2.146
327.30 2.145
327.40 2.143
327.50 2.141
327.60 2.14
327.70 2.138
327.80 2.136
327.90 2.134
328.00 2.133
328.10 2.131
328.20 2.129
328.30 2.128
328.40 2.126
328.50 2.124
328.60 2.123
328.70 2.121
328.80 2.119
328.90 2.118
329.00 2.116
329.10 2.114
329.20 2.113
329.30 2.111
329.40 2.109
329.50 2.107
329.60 2.106
329.70 2.104
329.80 2.103
329.90 2.101
330.00 2.099
330.10 2.098
330.20 2.096
330.30 2.094
330.40 2.093
330.50 2.091
330.60 2.089
330.70 2.088
330.80 2.086
330.90 2.084
331.00 2.083
331.10 2.081
331.20 2.079
331.30 2.078
331.40 2.076
331.50 2.074
331.60 2.073
331.70 2.071
331.80 2.07
331.90 2.068
332.00 2.066
332.10 2.065
332.20 2.063
332.30 2.061
332.40 2.06
332.50 2.058
332.60 2.057
332.70 2.055
332.80 2.053
332.90 2.052
333.00 2.05
333.10 2.049
333.20 2.047
333.30 2.045
333.40 2.044
333.50 2.042
333.60 2.04
333.70 2.039
333.80 2.037
333.90 2.036
334.00 2.034
334.10 2.033
334.20 2.031
334.30 2.029
334.40 2.028
334.50 2.026
334.60 2.025
334.70 2.023
334.80 2.021
334.90 2.02
335.00 2.018
335.10 2.017
335.20 2.015
335.30 2.013
335.40 2.012
335.50 2.01
335.60 2.009
335.70 2.007
335.80 2.006
335.90 2.004
336.00 2.002
336.10 2.001
336.20 1.999
336.30 1.998
336.40 1.996
336.50 1.995
336.60 1.993
336.70 1.992
336.80 1.99
336.90 1.989
337.00 1.987
337.10 1.985
337.20 1.984
337.30 1.982
337.40 1.981
337.50 1.979
337.60 1.978
337.70 1.976
337.80 1.975
337.90 1.973
338.00 1.972
338.10 1.97
338.20 1.969
338.30 1.967
338.40 1.966
338.50 1.964
338.60 1.963
338.70 1.961
338.80 1.959
338.90 1.958
339.00 1.956
339.10 1.955
339.20 1.953
339.30 1.952
339.40 1.95
339.50 1.949
339.60 1.947
339.70 1.946
339.80 1.944
339.90 1.943
340.00 1.941
340.10 1.94
340.20 1.938
340.30 1.937
340.40 1.935
340.50 1.934
340.60 1.932
340.70 1.931
340.80 1.929
340.90 1.928
341.00 1.926
341.10 1.925
341.20 1.924
341.30 1.922
341.40 1.921
341.50 1.919
341.60 1.918
341.70 1.916
341.80 1.915
341.90 1.913
342.00 1.912
342.10 1.91
342.20 1.909
342.30 1.907
342.40 1.906
342.50 1.904
342.60 1.903
342.70 1.901
342.80 1.9
342.90 1.899
343.00 1.897
343.10 1.896
343.20 1.894
343.30 1.893
343.40 1.891
343.50 1.89
343.60 1.888
343.70 1.887
343.80 1.885
343.90 1.884
344.00 1.883
344.10 1.881
344.20 1.88
344.30 1.878
344.40 1.877
344.50 1.875
344.60 1.874
344.70 1.873
344.80 1.871
344.90 1.87
345.00 1.868
345.10 1.867
345.20 1.865
345.30 1.864
345.40 1.863
345.50 1.861
345.60 1.86
345.70 1.858
345.80 1.857
345.90 1.856
346.00 1.854
346.10 1.853
346.20 1.851
346.30 1.85
346.40 1.849
346.50 1.847
346.60 1.846
346.70 1.844
346.80 1.843
346.90 1.842
347.00 1.84
347.10 1.839
347.20 1.837
347.30 1.836
347.40 1.835
347.50 1.833
347.60 1.832
347.70 1.83
347.80 1.829
347.90 1.828
348.00 1.826
348.10 1.825
348.20 1.823
348.30 1.822
348.40 1.821
348.50 1.819
348.60 1.818
348.70 1.817
348.80 1.815
348.90 1.814
349.00 1.812
349.10 1.811
349.20 1.81
349.30 1.808
349.40 1.807
349.50 1.806
349.60 1.804
349.70 1.803
349.80 1.802
349.90 1.8
350.00 1.799
350.10 1.798
350.20 1.796
350.30 1.795
350.40 1.793
350.50 1.792
350.60 1.791
350.70 1.789
350.80 1.788
350.90 1.787
351.00 1.785
351.10 1.784
351.20 1.783
351.30 1.781
351.40 1.78
351.50 1.779
351.60 1.777
351.70 1.776
351.80 1.775
351.90 1.773
352.00 1.772
352.10 1.771
352.20 1.769
352.30 1.768
352.40 1.767
352.50 1.765
352.60 1.764
352.70 1.763
352.80 1.761
352.90 1.76
353.00 1.759
353.10 1.757
353.20 1.756
353.30 1.755
353.40 1.753
353.50 1.752
353.60 1.751
353.70 1.75
353.80 1.748
353.90 1.747
354.00 1.746
354.10 1.744
354.20 1.743
354.30 1.742
354.40 1.74
354.50 1.739
354.60 1.738
354.70 1.737
354.80 1.735
354.90 1.734
355.00 1.733
355.10 1.731
355.20 1.73
355.30 1.729
355.40 1.728
355.50 1.726
355.60 1.725
355.70 1.724
355.80 1.722
355.90 1.721
356.00 1.72
356.10 1.719
356.20 1.717
356.30 1.716
356.40 1.715
356.50 1.713
356.60 1.712
356.70 1.711
356.80 1.71
356.90 1.708
357.00 1.707
357.10 1.706
357.20 1.705
357.30 1.703
357.40 1.702
357.50 1.701
357.60 1.7
357.70 1.698
357.80 1.697
357.90 1.696
358.00 1.695
358.10 1.693
358.20 1.692
358.30 1.691
358.40 1.69
358.50 1.688
358.60 1.687
358.70 1.686
358.80 1.685
358.90 1.683
359.00 1.682
359.10 1.681
359.20 1.68
359.30 1.678
359.40 1.677
359.50 1.676
359.60 1.675
359.70 1.673
359.80 1.672
359.90 1.671
360.00 1.67
360.10 1.668
360.20 1.667
360.30 1.666
360.40 1.665
360.50 1.664
360.60 1.662
360.70 1.661
360.80 1.66
360.90 1.659
361.00 1.657
361.10 1.656
361.20 1.655
361.30 1.654
361.40 1.653
361.50 1.651
361.60 1.65
361.70 1.649
361.80 1.648
361.90 1.646
362.00 1.645
362.10 1.644
362.20 1.643
362.30 1.642
362.40 1.64
362.50 1.639
362.60 1.638
362.70 1.637
362.80 1.636
362.90 1.634
363.00 1.633
363.10 1.632
363.20 1.631
363.30 1.629
363.40 1.628
363.50 1.627
363.60 1.625
363.70 1.624
363.80 1.623
363.90 1.621
364.00 1.62
364.10 1.619
364.20 1.617
364.30 1.616
364.40 1.615
364.50 1.613
364.60 1.612
364.70 1.61
364.80 1.609
364.90 1.608
365.00 1.606
365.10 1.605
365.20 1.604
365.30 1.602
365.40 1.601
365.50 1.6
365.60 1.598
365.70 1.597
365.80 1.596
365.90 1.594
366.00 1.593
366.10 1.592
366.20 1.59
366.30 1.589
366.40 1.588
366.50 1.587
366.60 1.586
366.70 1.584
366.80 1.583
366.90 1.582
367.00 1.581
367.10 1.58
367.20 1.578
367.30 1.577
367.40 1.576
367.50 1.575
367.60 1.574
367.70 1.572
367.80 1.571
367.90 1.57
368.00 1.569
368.10 1.568
368.20 1.566
368.30 1.565
368.40 1.564
368.50 1.563
368.60 1.562
368.70 1.561
368.80 1.559
368.90 1.558
369.00 1.557
369.10 1.556
369.20 1.555
369.30 1.554
369.40 1.552
369.50 1.551
369.60 1.55
369.70 1.549
369.80 1.548
369.90 1.547
370.00 1.545
370.10 1.544
370.20 1.544
370.30 1.543
370.40 1.542
370.50 1.541
370.60 1.54
370.70 1.539
370.80 1.538
370.90 1.537
371.00 1.536
371.10 1.535
371.20 1.534
371.30 1.533
371.40 1.532
371.50 1.531
371.60 1.53
371.70 1.529
371.80 1.528
371.90 1.527
372.00 1.526
372.10 1.526
372.20 1.525
372.30 1.524
372.40 1.524
372.50 1.523
372.60 1.523
372.70 1.522
372.80 1.521
372.90 1.521
373.00 1.52
373.10 1.52
373.20 1.519
373.30 1.518
373.40 1.518
373.50 1.517
373.60 1.517
373.70 1.516
373.80 1.515
373.90 1.515
374.00 1.514
374.10 1.514
374.20 1.514
374.30 1.513
374.40 1.513
374.50 1.513
374.60 1.512
374.70 1.512
374.80 1.512
374.90 1.512
375.00 1.511
375.10 1.511
375.20 1.511
375.30 1.51
375.40 1.51
375.50 1.51
375.60 1.509
375.70 1.509
375.80 1.509
375.90 1.509
376.00 1.508
376.10 1.508
376.20 1.508
376.30 1.507
376.40 1.507
376.50 1.507
376.60 1.506
376.70 1.506
376.80 1.505
376.90 1.505
377.00 1.505
377.10 1.504
377.20 1.503
377.30 1.502
377.40 1.501
377.50 1.5
377.60 1.499
377.70 1.499
377.80 1.498
377.90 1.497
378.00 1.496
378.10 1.493
378.20 1.491
378.30 1.488
378.40 1.486
378.50 1.483
378.60 1.481
378.70 1.478
378.80 1.476
378.90 1.473
379.00 1.471
379.10 1.469
379.20 1.467
379.30 1.465
379.40 1.464
379.50 1.462
379.60 1.46
379.70 1.458
379.80 1.457
379.90 1.455
380.00 1.453
380.10 1.455
380.20 1.457
380.30 1.458
380.40 1.46
380.50 1.462
380.60 1.463
380.70 1.465
380.80 1.466
380.90 1.468
381.00 1.47
381.10 1.47
381.20 1.47
381.30 1.47
381.40 1.47
381.50 1.471
381.60 1.47
381.70 1.468
381.80 1.466
381.90 1.464
382.00 1.462
382.10 1.459
382.20 1.455
382.30 1.449
382.40 1.443
382.50 1.437
382.60 1.431
382.70 1.425
382.80 1.419
382.90 1.413
383.00 1.407
383.10 1.401
383.20 1.395
383.30 1.391
383.40 1.387
383.50 1.382
383.60 1.383
383.70 1.388
383.80 1.392
383.90 1.395
384.00 1.401
384.10 1.408
384.20 1.415
384.30 1.423
384.40 1.43
384.50 1.436
384.60 1.442
384.70 1.447
384.80 1.451
384.90 1.455
385.00 1.458
385.10 1.46
385.20 1.462
385.30 1.464
385.40 1.464
385.50 1.465
385.60 1.465
385.70 1.465
385.80 1.464
385.90 1.463
386.00 1.461
386.10 1.46
386.20 1.457
386.30 1.455
386.40 1.451
386.50 1.448
386.60 1.444
386.70 1.44
386.80 1.435
386.90 1.43
387.00 1.424
387.10 1.419
387.20 1.412
387.30 1.406
387.40 1.398
387.50 1.39
387.60 1.382
387.70 1.373
387.80 1.363
387.90 1.352
388.00 1.341
388.10 1.328
388.20 1.314
388.30 1.299
388.40 1.283
388.50 1.269
388.60 1.256
388.70 1.248
388.80 1.241
388.90 1.235
389.00 1.24
389.10 1.247
389.20 1.255
389.30 1.267
389.40 1.282
389.50 1.298
389.60 1.313
389.70 1.327
389.80 1.341
389.90 1.353
390.00 1.364
390.10 1.375
390.20 1.384
390.30 1.394
390.40 1.403
390.50 1.411
390.60 1.419
390.70 1.426
390.80 1.433
390.90 1.439
391.00 1.446
391.10 1.451
391.20 1.457
391.30 1.462
391.40 1.467
391.50 1.471
391.60 1.475
391.70 1.479
391.80 1.482
391.90 1.485
392.00 1.487
392.10 1.488
392.20 1.49
392.30 1.491
392.40 1.491
392.50 1.491
392.60 1.49
392.70 1.489
392.80 1.488
392.90 1.486
393.00 1.483
393.10 1.48
393.20 1.476
393.30 1.472
393.40 1.468
393.50 1.463
393.60 1.457
393.70 1.451
393.80 1.444
393.90 1.437
394.00 1.429
394.10 1.421
394.20 1.412
394.30 1.403
394.40 1.393
394.50 1.383
394.60 1.373
394.70 1.362
394.80 1.351
394.90 1.339
395.00 1.327
395.10 1.315
395.20 1.302
395.30 1.289
395.40 1.275
395.50 1.261
395.60 1.247
395.70 1.232
395.80 1.217
395.90 1.201
396.00 1.185
396.10 1.169
396.20 1.151
396.30 1.131
396.40 1.111
396.50 1.086
396.60 1.061
396.70 1.035
396.80 1.016
396.90 0.9966
397.00 0.9774
397.10 0.9945
397.20 1.012
397.30 1.029
397.40 1.054
397.50 1.079
397.60 1.103
397.70 1.123
397.80 1.142
397.90 1.159
398.00 1.175
398.10 1.191
398.20 1.206
398.30 1.221
398.40 1.235
398.50 1.249
398.60 1.263
398.70 1.276
398.80 1.29
398.90 1.302
399.00 1.315
399.10 1.327
399.20 1.34
399.30 1.352
399.40 1.363
399.50 1.375
399.60 1.386
399.70 1.397
399.80 1.408
399.90 1.418
400.00 1.428
400.10 1.438
400.20 1.447
400.30 1.456
400.40 1.465
400.50 1.473
400.60 1.481
400.70 1.489
400.80 1.496
400.90 1.503
401.00 1.51
401.10 1.516
401.20 1.523
401.30 1.528
401.40 1.534
401.50 1.539
401.60 1.544
401.70 1.548
401.80 1.552
401.90 1.556
402.00 1.559
402.10 1.563
402.20 1.566
402.30 1.568
402.40 1.571
402.50 1.572
402.60 1.574
402.70 1.576
402.80 1.576
402.90 1.577
403.00 1.578
403.10 1.578
403.20 1.577
403.30 1.577
403.40 1.576
403.50 1.575
403.60 1.573
403.70 1.571
403.80 1.569
403.90 1.567
404.00 1.564
404.10 1.561
404.20 1.557
404.30 1.554
404.40 1.55
404.50 1.545
404.60 1.54
404.70 1.535
404.80 1.53
404.90 1.524
405.00 1.518
405.10 1.512
405.20 1.505
405.30 1.498
405.40 1.491
405.50 1.483
405.60 1.476
405.70 1.467
405.80 1.459
405.90 1.45
406.00 1.441
406.10 1.431
406.20 1.421
406.30 1.411
406.40 1.401
406.50 1.39
406.60 1.379
406.70 1.367
406.80 1.355
406.90 1.343
407.00 1.331
407.10 1.318
407.20 1.305
407.30 1.292
407.40 1.279
407.50 1.265
407.60 1.251
407.70 1.236
407.80 1.222
407.90 1.207
408.00 1.192
408.10 1.177
408.20 1.161
408.30 1.146
408.40 1.13
408.50 1.114
408.60 1.098
408.70 1.081
408.80 1.065
408.90 1.048
409.00 1.031
409.10 1.014
409.20 0.9973
409.30 0.9802
409.40 0.9619
409.50 0.9424
409.60 0.9216
409.70 0.897
409.80 0.8706
409.90 0.8425
410.00 0.8163
410.10 0.7961
410.20 0.782
410.30 0.8043
410.40 0.8287
410.50 0.8553
410.60 0.8816
410.70 0.9058
410.80 0.9279
410.90 0.9466
411.00 0.9642
411.10 0.9808
411.20 0.9966
411.30 1.012
411.40 1.028
411.50 1.043
411.60 1.059
411.70 1.074
411.80 1.089
411.90 1.104
412.00 1.119
412.10 1.133
412.20 1.147
412.30 1.161
412.40 1.175
412.50 1.188
412.60 1.202
412.70 1.215
412.80 1.228
412.90 1.24
413.00 1.253
413.10 1.265
413.20 1.277
413.30 1.289
413.40 1.3
413.50 1.311
413.60 1.322
413.70 1.333
413.80 1.343
413.90 1.354
414.00 1.364
414.10 1.373
414.20 1.383
414.30 1.392
414.40 1.401
414.50 1.41
414.60 1.418
414.70 1.427
414.80 1.435
414.90 1.443
415.00 1.45
415.10 1.458
415.20 1.465
415.30 1.472
415.40 1.479
415.50 1.486
415.60 1.492
415.70 1.499
415.80 1.505
415.90 1.511
416.00 1.516
416.10 1.522
416.20 1.527
416.30 1.532
416.40 1.537
416.50 1.542
416.60 1.547
416.70 1.552
416.80 1.556
416.90 1.56
417.00 1.564
417.10 1.568
417.20 1.572
417.30 1.576
417.40 1.579
417.50 1.582
417.60 1.586
417.70 1.589
417.80 1.591
417.90 1.594
418.00 1.597
418.10 1.599
418.20 1.602
418.30 1.604
418.40 1.606
418.50 1.608
418.60 1.61
418.70 1.612
418.80 1.614
418.90 1.615
419.00 1.617
419.10 1.618
419.20 1.62
419.30 1.621
419.40 1.622
419.50 1.623
419.60 1.624
419.70 1.625
419.80 1.625
419.90 1.626
420.00 1.626
420.10 1.627
420.20 1.627
420.30 1.627
420.40 1.628
420.50 1.628
420.60 1.628
420.70 1.628
420.80 1.628
420.90 1.627
421.00 1.627
421.10 1.627
421.20 1.626
421.30 1.626
421.40 1.625
421.50 1.624
421.60 1.623
421.70 1.623
421.80 1.622
421.90 1.621
422.00 1.619
422.10 1.618
422.20 1.617
422.30 1.616
422.40 1.614
422.50 1.613
422.60 1.611
422.70 1.61
422.80 1.608
422.90 1.606
423.00 1.604
423.10 1.602
423.20 1.6
423.30 1.598
423.40 1.596
423.50 1.594
423.60 1.591
423.70 1.589
423.80 1.586
423.90 1.584
424.00 1.581
424.10 1.578
424.20 1.575
424.30 1.573
424.40 1.57
424.50 1.566
424.60 1.563
424.70 1.56
424.80 1.557
424.90 1.553
425.00 1.55
425.10 1.546
425.20 1.542
425.30 1.539
425.40 1.535
425.50 1.531
425.60 1.527
425.70 1.522
425.80 1.518
425.90 1.514
426.00 1.509
426.10 1.505
426.20 1.499
426.30 1.493
426.40 1.489
426.50 1.483
426.60 1.478
426.70 1.473
426.80 1.467
426.90 1.462
427.00 1.456
427.10 1.45
427.20 1.445
427.30 1.439
427.40 1.432
427.50 1.426
427.60 1.42
427.70 1.413
427.80 1.406
427.90 1.4
428.00 1.393
428.10 1.386
428.20 1.378
428.30 1.371
428.40 1.364
428.50 1.356
428.60 1.348
428.70 1.34
428.80 1.332
428.90 1.324
429.00 1.315
429.10 1.307
429.20 1.298
429.30 1.289
429.40 1.28
429.50 1.271
429.60 1.261
429.70 1.252
429.80 1.242
429.90 1.232
430.00 1.222
430.10 1.212
430.20 1.202
430.30 1.192
430.40 1.181
430.50 1.17
430.60 1.159
430.70 1.148
430.80 1.137
430.90 1.125
431.00 1.114
431.10 1.102
431.20 1.09
431.30 1.078
431.40 1.066
431.50 1.053
431.60 1.041
431.70 1.028
431.80 1.015
431.90 1.002
432.00 0.9891
432.10 0.9758
432.20 0.9622
432.30 0.9484
432.40 0.9344
432.50 0.9199
432.60 0.9052
432.70 0.8902
432.80 0.8749
432.90 0.8598
433.00 0.8447
433.10 0.83
433.20 0.8153
433.30 0.8006
433.40 0.7848
433.50 0.7676
433.60 0.7491
433.70 0.7243
433.80 0.6951
433.90 0.6614
434.00 0.6152
434.10 0.6159
434.20 0.6635
434.30 0.696
434.40 0.7241
434.50 0.7476
434.60 0.7651
434.70 0.7813
434.80 0.7961
434.90 0.8099
435.00 0.8236
435.10 0.8373
435.20 0.8514
435.30 0.8655
435.40 0.8796
435.50 0.8934
435.60 0.9069
435.70 0.9202
435.80 0.9329
435.90 0.9454
436.00 0.9577
436.10 0.9696
436.20 0.9814
436.30 0.993
436.40 1.004
436.50 1.016
436.60 1.027
436.70 1.037
436.80 1.048
436.90 1.059
437.00 1.069
437.10 1.079
437.20 1.089
437.30 1.099
437.40 1.108
437.50 1.118
437.60 1.127
437.70 1.136
437.80 1.145
437.90 1.153
438.00 1.162
438.10 1.17
438.20 1.178
438.30 1.186
438.40 1.194
438.50 1.202
438.60 1.209
438.70 1.216
438.80 1.223
438.90 1.23
439.00 1.237
439.10 1.244
439.20 1.25
439.30 1.257
439.40 1.263
439.50 1.269
439.60 1.275
439.70 1.28
439.80 1.286
439.90 1.291
440.00 1.296
440.10 1.302
440.20 1.307
440.30 1.311
440.40 1.316
440.50 1.321
440.60 1.325
440.70 1.33
440.80 1.334
440.90 1.338
441.00 1.342
441.10 1.346
441.20 1.35
441.30 1.353
441.40 1.357
441.50 1.36
441.60 1.363
441.70 1.367
441.80 1.37
441.90 1.373
442.00 1.376
442.10 1.379
442.20 1.381
442.30 1.384
442.40 1.386
442.50 1.389
442.60 1.391
442.70 1.394
442.80 1.396
442.90 1.398
443.00 1.4
443.10 1.402
443.20 1.404
443.30 1.406
443.40 1.408
443.50 1.409
443.60 1.411
443.70 1.413
443.80 1.414
443.90 1.416
444.00 1.417
444.10 1.418
444.20 1.42
444.30 1.421
444.40 1.422
444.50 1.423
444.60 1.424
444.70 1.425
444.80 1.426
444.90 1.427
445.00 1.428
445.10 1.429
445.20 1.43
445.30 1.43
445.40 1.431
445.50 1.432
445.60 1.433
445.70 1.433
445.80 1.434
445.90 1.434
446.00 1.435
446.10 1.435
446.20 1.436
446.30 1.436
446.40 1.436
446.50 1.437
446.60 1.437
446.70 1.437
446.80 1.437
446.90 1.438
447.00 1.438
447.10 1.438
447.20 1.438
447.30 1.438
447.40 1.438
447.50 1.438
447.60 1.438
447.70 1.438
447.80 1.438
447.90 1.438
448.00 1.438
448.10 1.438
448.20 1.438
448.30 1.438
448.40 1.438
448.50 1.437
448.60 1.437
448.70 1.437
448.80 1.437
448.90 1.437
449.00 1.437
449.10 1.436
449.20 1.436
449.30 1.436
449.40 1.435
449.50 1.435
449.60 1.435
449.70 1.434
449.80 1.434
449.90 1.434
450.00 1.433
450.10 1.433
450.20 1.432
450.30 1.432
450.40 1.431
450.50 1.431
450.60 1.43
450.70 1.43
450.80 1.429
450.90 1.429
451.00 1.428
451.10 1.428
451.20 1.427
451.30 1.427
451.40 1.426
451.50 1.426
451.60 1.425
451.70 1.424
451.80 1.424
451.90 1.423
452.00 1.422
452.10 1.422
452.20 1.421
452.30 1.42
452.40 1.42
452.50 1.419
452.60 1.418
452.70 1.418
452.80 1.417
452.90 1.416
453.00 1.416
453.10 1.415
453.20 1.414
453.30 1.413
453.40 1.413
453.50 1.412
