# Version 2.1 - nm, norm@500 to 1, cut digits, bergeron_8000_90.dat_8000
# Wavelength(nm)  Flambda(ergs/cm^s/s/nm)
300.00 1.442
300.10 1.442
300.20 1.442
300.30 1.442
300.40 1.442
300.50 1.442
300.60 1.442
300.70 1.442
300.80 1.442
300.90 1.442
301.00 1.442
301.10 1.442
301.20 1.442
301.30 1.442
301.40 1.442
301.50 1.442
301.60 1.442
301.70 1.442
301.80 1.442
301.90 1.442
302.00 1.442
302.10 1.442
302.20 1.442
302.30 1.442
302.40 1.442
302.50 1.442
302.60 1.442
302.70 1.442
302.80 1.442
302.90 1.442
303.00 1.442
303.10 1.442
303.20 1.442
303.30 1.442
303.40 1.442
303.50 1.442
303.60 1.442
303.70 1.442
303.80 1.442
303.90 1.442
304.00 1.442
304.10 1.442
304.20 1.442
304.30 1.442
304.40 1.442
304.50 1.442
304.60 1.442
304.70 1.442
304.80 1.442
304.90 1.442
305.00 1.442
305.10 1.442
305.20 1.442
305.30 1.442
305.40 1.442
305.50 1.442
305.60 1.442
305.70 1.442
305.80 1.442
305.90 1.442
306.00 1.442
306.10 1.442
306.20 1.442
306.30 1.442
306.40 1.442
306.50 1.442
306.60 1.442
306.70 1.442
306.80 1.442
306.90 1.442
307.00 1.442
307.10 1.442
307.20 1.442
307.30 1.442
307.40 1.442
307.50 1.442
307.60 1.442
307.70 1.442
307.80 1.442
307.90 1.442
308.00 1.442
308.10 1.442
308.20 1.442
308.30 1.442
308.40 1.442
308.50 1.442
308.60 1.442
308.70 1.442
308.80 1.442
308.90 1.442
309.00 1.442
309.10 1.442
309.20 1.442
309.30 1.442
309.40 1.442
309.50 1.442
309.60 1.441
309.70 1.441
309.80 1.441
309.90 1.441
310.00 1.441
310.10 1.441
310.20 1.441
310.30 1.441
310.40 1.441
310.50 1.441
310.60 1.441
310.70 1.441
310.80 1.441
310.90 1.441
311.00 1.441
311.10 1.441
311.20 1.441
311.30 1.441
311.40 1.441
311.50 1.441
311.60 1.441
311.70 1.441
311.80 1.441
311.90 1.441
312.00 1.441
312.10 1.44
312.20 1.44
312.30 1.44
312.40 1.44
312.50 1.44
312.60 1.44
312.70 1.44
312.80 1.44
312.90 1.44
313.00 1.44
313.10 1.44
313.20 1.44
313.30 1.44
313.40 1.44
313.50 1.44
313.60 1.44
313.70 1.44
313.80 1.44
313.90 1.439
314.00 1.439
314.10 1.439
314.20 1.439
314.30 1.439
314.40 1.439
314.50 1.439
314.60 1.439
314.70 1.439
314.80 1.439
314.90 1.439
315.00 1.439
315.10 1.439
315.20 1.439
315.30 1.439
315.40 1.439
315.50 1.438
315.60 1.438
315.70 1.438
315.80 1.438
315.90 1.438
316.00 1.438
316.10 1.438
316.20 1.438
316.30 1.438
316.40 1.438
316.50 1.438
316.60 1.438
316.70 1.438
316.80 1.438
316.90 1.437
317.00 1.437
317.10 1.437
317.20 1.437
317.30 1.437
317.40 1.437
317.50 1.437
317.60 1.437
317.70 1.437
317.80 1.437
317.90 1.437
318.00 1.437
318.10 1.437
318.20 1.436
318.30 1.436
318.40 1.436
318.50 1.436
318.60 1.436
318.70 1.436
318.80 1.436
318.90 1.436
319.00 1.436
319.10 1.436
319.20 1.436
319.30 1.436
319.40 1.435
319.50 1.435
319.60 1.435
319.70 1.435
319.80 1.435
319.90 1.435
320.00 1.435
320.10 1.435
320.20 1.435
320.30 1.435
320.40 1.435
320.50 1.434
320.60 1.434
320.70 1.434
320.80 1.434
320.90 1.434
321.00 1.434
321.10 1.434
321.20 1.434
321.30 1.434
321.40 1.434
321.50 1.433
321.60 1.433
321.70 1.433
321.80 1.433
321.90 1.433
322.00 1.433
322.10 1.433
322.20 1.433
322.30 1.433
322.40 1.433
322.50 1.432
322.60 1.432
322.70 1.432
322.80 1.432
322.90 1.432
323.00 1.432
323.10 1.432
323.20 1.432
323.30 1.432
323.40 1.432
323.50 1.431
323.60 1.431
323.70 1.431
323.80 1.431
323.90 1.431
324.00 1.431
324.10 1.431
324.20 1.431
324.30 1.431
324.40 1.43
324.50 1.43
324.60 1.43
324.70 1.43
324.80 1.43
324.90 1.43
325.00 1.43
325.10 1.43
325.20 1.43
325.30 1.429
325.40 1.429
325.50 1.429
325.60 1.429
325.70 1.429
325.80 1.429
325.90 1.429
326.00 1.429
326.10 1.428
326.20 1.428
326.30 1.428
326.40 1.428
326.50 1.428
326.60 1.428
326.70 1.428
326.80 1.428
326.90 1.427
327.00 1.427
327.10 1.427
327.20 1.427
327.30 1.427
327.40 1.427
327.50 1.427
327.60 1.427
327.70 1.426
327.80 1.426
327.90 1.426
328.00 1.426
328.10 1.426
328.20 1.426
328.30 1.426
328.40 1.425
328.50 1.425
328.60 1.425
328.70 1.425
328.80 1.425
328.90 1.425
329.00 1.425
329.10 1.425
329.20 1.424
329.30 1.424
329.40 1.424
329.50 1.424
329.60 1.424
329.70 1.424
329.80 1.424
329.90 1.423
330.00 1.423
330.10 1.423
330.20 1.423
330.30 1.423
330.40 1.423
330.50 1.423
330.60 1.423
330.70 1.422
330.80 1.422
330.90 1.422
331.00 1.422
331.10 1.422
331.20 1.422
331.30 1.422
331.40 1.421
331.50 1.421
331.60 1.421
331.70 1.421
331.80 1.421
331.90 1.421
332.00 1.421
332.10 1.42
332.20 1.42
332.30 1.42
332.40 1.42
332.50 1.42
332.60 1.42
332.70 1.419
332.80 1.419
332.90 1.419
333.00 1.419
333.10 1.419
333.20 1.419
333.30 1.419
333.40 1.418
333.50 1.418
333.60 1.418
333.70 1.418
333.80 1.418
333.90 1.418
334.00 1.418
334.10 1.417
334.20 1.417
334.30 1.417
334.40 1.417
334.50 1.417
334.60 1.417
334.70 1.416
334.80 1.416
334.90 1.416
335.00 1.416
335.10 1.416
335.20 1.416
335.30 1.415
335.40 1.415
335.50 1.415
335.60 1.415
335.70 1.415
335.80 1.415
335.90 1.415
336.00 1.414
336.10 1.414
336.20 1.414
336.30 1.414
336.40 1.414
336.50 1.414
336.60 1.413
336.70 1.413
336.80 1.413
336.90 1.413
337.00 1.413
337.10 1.413
337.20 1.412
337.30 1.412
337.40 1.412
337.50 1.412
337.60 1.412
337.70 1.412
337.80 1.411
337.90 1.411
338.00 1.411
338.10 1.411
338.20 1.411
338.30 1.41
338.40 1.41
338.50 1.41
338.60 1.41
338.70 1.41
338.80 1.41
338.90 1.409
339.00 1.409
339.10 1.409
339.20 1.409
339.30 1.409
339.40 1.409
339.50 1.408
339.60 1.408
339.70 1.408
339.80 1.408
339.90 1.408
340.00 1.408
340.10 1.407
340.20 1.407
340.30 1.407
340.40 1.407
340.50 1.407
340.60 1.406
340.70 1.406
340.80 1.406
340.90 1.406
341.00 1.406
341.10 1.406
341.20 1.405
341.30 1.405
341.40 1.405
341.50 1.405
341.60 1.405
341.70 1.404
341.80 1.404
341.90 1.404
342.00 1.404
342.10 1.404
342.20 1.403
342.30 1.403
342.40 1.403
342.50 1.403
342.60 1.403
342.70 1.403
342.80 1.402
342.90 1.402
343.00 1.402
343.10 1.402
343.20 1.402
343.30 1.401
343.40 1.401
343.50 1.401
343.60 1.401
343.70 1.401
343.80 1.4
343.90 1.4
344.00 1.4
344.10 1.4
344.20 1.4
344.30 1.399
344.40 1.399
344.50 1.399
344.60 1.399
344.70 1.399
344.80 1.398
344.90 1.398
345.00 1.398
345.10 1.398
345.20 1.398
345.30 1.397
345.40 1.397
345.50 1.397
345.60 1.397
345.70 1.397
345.80 1.397
345.90 1.396
346.00 1.396
346.10 1.396
346.20 1.396
346.30 1.396
346.40 1.395
346.50 1.395
346.60 1.395
346.70 1.395
346.80 1.395
346.90 1.394
347.00 1.394
347.10 1.394
347.20 1.394
347.30 1.394
347.40 1.393
347.50 1.393
347.60 1.393
347.70 1.393
347.80 1.393
347.90 1.392
348.00 1.392
348.10 1.392
348.20 1.392
348.30 1.391
348.40 1.391
348.50 1.391
348.60 1.391
348.70 1.391
348.80 1.39
348.90 1.39
349.00 1.39
349.10 1.39
349.20 1.39
349.30 1.389
349.40 1.389
349.50 1.389
349.60 1.389
349.70 1.389
349.80 1.388
349.90 1.388
350.00 1.388
350.10 1.388
350.20 1.387
350.30 1.387
350.40 1.387
350.50 1.387
350.60 1.387
350.70 1.386
350.80 1.386
350.90 1.386
351.00 1.386
351.10 1.386
351.20 1.385
351.30 1.385
351.40 1.385
351.50 1.385
351.60 1.384
351.70 1.384
351.80 1.384
351.90 1.384
352.00 1.384
352.10 1.383
352.20 1.383
352.30 1.383
352.40 1.383
352.50 1.382
352.60 1.382
352.70 1.382
352.80 1.382
352.90 1.382
353.00 1.381
353.10 1.381
353.20 1.381
353.30 1.381
353.40 1.38
353.50 1.38
353.60 1.38
353.70 1.38
353.80 1.38
353.90 1.379
354.00 1.379
354.10 1.379
354.20 1.379
354.30 1.378
354.40 1.378
354.50 1.378
354.60 1.378
354.70 1.378
354.80 1.377
354.90 1.377
355.00 1.377
355.10 1.377
355.20 1.376
355.30 1.376
355.40 1.376
355.50 1.376
355.60 1.376
355.70 1.375
355.80 1.375
355.90 1.375
356.00 1.375
356.10 1.374
356.20 1.374
356.30 1.374
356.40 1.374
356.50 1.373
356.60 1.373
356.70 1.373
356.80 1.373
356.90 1.373
357.00 1.372
357.10 1.372
357.20 1.372
357.30 1.372
357.40 1.371
357.50 1.371
357.60 1.371
357.70 1.371
357.80 1.37
357.90 1.37
358.00 1.37
358.10 1.37
358.20 1.37
358.30 1.369
358.40 1.369
358.50 1.369
358.60 1.369
358.70 1.368
358.80 1.368
358.90 1.368
359.00 1.368
359.10 1.367
359.20 1.367
359.30 1.367
359.40 1.367
359.50 1.366
359.60 1.366
359.70 1.366
359.80 1.366
359.90 1.365
360.00 1.365
360.10 1.365
360.20 1.365
360.30 1.364
360.40 1.364
360.50 1.364
360.60 1.364
360.70 1.363
360.80 1.363
360.90 1.363
361.00 1.363
361.10 1.363
361.20 1.362
361.30 1.362
361.40 1.362
361.50 1.362
361.60 1.361
361.70 1.361
361.80 1.361
361.90 1.361
362.00 1.36
362.10 1.36
362.20 1.36
362.30 1.36
362.40 1.359
362.50 1.359
362.60 1.359
362.70 1.359
362.80 1.358
362.90 1.358
363.00 1.358
363.10 1.358
363.20 1.357
363.30 1.357
363.40 1.357
363.50 1.357
363.60 1.356
363.70 1.356
363.80 1.356
363.90 1.355
364.00 1.355
364.10 1.355
364.20 1.355
364.30 1.354
364.40 1.354
364.50 1.354
364.60 1.354
364.70 1.353
364.80 1.353
364.90 1.353
365.00 1.353
365.10 1.352
365.20 1.352
365.30 1.352
365.40 1.351
365.50 1.351
365.60 1.351
365.70 1.351
365.80 1.35
365.90 1.35
366.00 1.35
366.10 1.349
366.20 1.349
366.30 1.349
366.40 1.349
366.50 1.348
366.60 1.348
366.70 1.348
366.80 1.348
366.90 1.347
367.00 1.347
367.10 1.347
367.20 1.347
367.30 1.346
367.40 1.346
367.50 1.346
367.60 1.346
367.70 1.345
367.80 1.345
367.90 1.345
368.00 1.345
368.10 1.344
368.20 1.344
368.30 1.344
368.40 1.343
368.50 1.343
368.60 1.343
368.70 1.343
368.80 1.342
368.90 1.342
369.00 1.342
369.10 1.342
369.20 1.341
369.30 1.341
369.40 1.341
369.50 1.341
369.60 1.34
369.70 1.34
369.80 1.34
369.90 1.34
370.00 1.339
370.10 1.339
370.20 1.339
370.30 1.339
370.40 1.338
370.50 1.338
370.60 1.338
370.70 1.337
370.80 1.337
370.90 1.337
371.00 1.337
371.10 1.336
371.20 1.336
371.30 1.336
371.40 1.336
371.50 1.335
371.60 1.335
371.70 1.335
371.80 1.335
371.90 1.334
372.00 1.334
372.10 1.334
372.20 1.334
372.30 1.333
372.40 1.333
372.50 1.333
372.60 1.332
372.70 1.332
372.80 1.332
372.90 1.332
373.00 1.331
373.10 1.331
373.20 1.331
373.30 1.331
373.40 1.33
373.50 1.33
373.60 1.33
373.70 1.33
373.80 1.329
373.90 1.329
374.00 1.329
374.10 1.329
374.20 1.328
374.30 1.328
374.40 1.328
374.50 1.328
374.60 1.327
374.70 1.327
374.80 1.327
374.90 1.327
375.00 1.326
375.10 1.326
375.20 1.326
375.30 1.326
375.40 1.325
375.50 1.325
375.60 1.325
375.70 1.325
375.80 1.325
375.90 1.324
376.00 1.324
376.10 1.324
376.20 1.324
376.30 1.323
376.40 1.323
376.50 1.323
376.60 1.323
376.70 1.323
376.80 1.322
376.90 1.322
377.00 1.322
377.10 1.322
377.20 1.321
377.30 1.321
377.40 1.321
377.50 1.321
377.60 1.32
377.70 1.32
377.80 1.32
377.90 1.32
378.00 1.319
378.10 1.319
378.20 1.319
378.30 1.318
378.40 1.318
378.50 1.317
378.60 1.317
378.70 1.316
378.80 1.316
378.90 1.315
379.00 1.315
379.10 1.314
379.20 1.313
379.30 1.312
379.40 1.311
379.50 1.311
379.60 1.31
379.70 1.309
379.80 1.308
379.90 1.307
380.00 1.306
380.10 1.307
380.20 1.308
380.30 1.309
380.40 1.309
380.50 1.31
380.60 1.311
380.70 1.312
380.80 1.313
380.90 1.313
381.00 1.314
381.10 1.314
381.20 1.314
381.30 1.314
381.40 1.314
381.50 1.314
381.60 1.314
381.70 1.314
381.80 1.313
381.90 1.313
382.00 1.312
382.10 1.312
382.20 1.311
382.30 1.309
382.40 1.307
382.50 1.306
382.60 1.304
382.70 1.302
382.80 1.3
382.90 1.298
383.00 1.297
383.10 1.295
383.20 1.293
383.30 1.288
383.40 1.282
383.50 1.274
383.60 1.276
383.70 1.284
383.80 1.289
383.90 1.294
384.00 1.297
384.10 1.3
384.20 1.302
384.30 1.304
384.40 1.306
384.50 1.307
384.60 1.308
384.70 1.309
384.80 1.31
384.90 1.31
385.00 1.311
385.10 1.311
385.20 1.312
385.30 1.312
385.40 1.312
385.50 1.312
385.60 1.312
385.70 1.312
385.80 1.312
385.90 1.312
386.00 1.312
386.10 1.311
386.20 1.311
386.30 1.31
386.40 1.31
386.50 1.309
386.60 1.309
386.70 1.308
386.80 1.307
386.90 1.306
387.00 1.305
387.10 1.304
387.20 1.303
387.30 1.302
387.40 1.3
387.50 1.298
387.60 1.296
387.70 1.294
387.80 1.292
387.90 1.289
388.00 1.286
388.10 1.282
388.20 1.277
388.30 1.272
388.40 1.266
388.50 1.258
388.60 1.25
388.70 1.237
388.80 1.223
388.90 1.206
389.00 1.222
389.10 1.236
389.20 1.249
389.30 1.257
389.40 1.265
389.50 1.271
389.60 1.276
389.70 1.281
389.80 1.285
389.90 1.288
390.00 1.291
390.10 1.293
390.20 1.296
390.30 1.297
390.40 1.299
390.50 1.301
390.60 1.302
390.70 1.303
390.80 1.304
390.90 1.305
391.00 1.306
391.10 1.307
391.20 1.307
391.30 1.308
391.40 1.309
391.50 1.309
391.60 1.309
391.70 1.31
391.80 1.31
391.90 1.31
392.00 1.31
392.10 1.31
392.20 1.31
392.30 1.31
392.40 1.31
392.50 1.31
392.60 1.31
392.70 1.31
392.80 1.309
392.90 1.309
393.00 1.309
393.10 1.308
393.20 1.308
393.30 1.307
393.40 1.306
393.50 1.306
393.60 1.305
393.70 1.304
393.80 1.303
393.90 1.302
394.00 1.301
394.10 1.299
394.20 1.298
394.30 1.297
394.40 1.295
394.50 1.293
394.60 1.292
394.70 1.29
394.80 1.288
394.90 1.285
395.00 1.283
395.10 1.28
395.20 1.278
395.30 1.274
395.40 1.271
395.50 1.267
395.60 1.263
395.70 1.259
395.80 1.254
395.90 1.249
396.00 1.243
396.10 1.236
396.20 1.228
396.30 1.218
396.40 1.208
396.50 1.194
396.60 1.177
396.70 1.158
396.80 1.132
396.90 1.099
397.00 1.059
397.10 1.095
397.20 1.127
397.30 1.155
397.40 1.174
397.50 1.19
397.60 1.204
397.70 1.215
397.80 1.224
397.90 1.233
398.00 1.239
398.10 1.245
398.20 1.25
398.30 1.255
398.40 1.259
398.50 1.263
398.60 1.266
398.70 1.269
398.80 1.272
398.90 1.275
399.00 1.277
399.10 1.28
399.20 1.282
399.30 1.283
399.40 1.285
399.50 1.287
399.60 1.288
399.70 1.29
399.80 1.291
399.90 1.292
400.00 1.293
400.10 1.294
400.20 1.295
400.30 1.296
400.40 1.296
400.50 1.297
400.60 1.298
400.70 1.298
400.80 1.299
400.90 1.299
401.00 1.299
401.10 1.3
401.20 1.3
401.30 1.3
401.40 1.301
401.50 1.301
401.60 1.301
401.70 1.301
401.80 1.301
401.90 1.301
402.00 1.301
402.10 1.301
402.20 1.301
402.30 1.301
402.40 1.301
402.50 1.301
402.60 1.301
402.70 1.301
402.80 1.301
402.90 1.3
403.00 1.3
403.10 1.3
403.20 1.3
403.30 1.3
403.40 1.299
403.50 1.299
403.60 1.299
403.70 1.298
403.80 1.298
403.90 1.297
404.00 1.297
404.10 1.297
404.20 1.296
404.30 1.296
404.40 1.295
404.50 1.295
404.60 1.294
404.70 1.293
404.80 1.293
404.90 1.292
405.00 1.291
405.10 1.291
405.20 1.29
405.30 1.289
405.40 1.288
405.50 1.287
405.60 1.287
405.70 1.286
405.80 1.285
405.90 1.283
406.00 1.282
406.10 1.281
406.20 1.28
406.30 1.278
406.40 1.277
406.50 1.276
406.60 1.274
406.70 1.272
406.80 1.27
406.90 1.269
407.00 1.267
407.10 1.264
407.20 1.262
407.30 1.26
407.40 1.257
407.50 1.254
407.60 1.251
407.70 1.248
407.80 1.245
407.90 1.241
408.00 1.237
408.10 1.233
408.20 1.228
408.30 1.223
408.40 1.218
408.50 1.212
408.60 1.205
408.70 1.199
408.80 1.191
408.90 1.183
409.00 1.174
409.10 1.163
409.20 1.152
409.30 1.14
409.40 1.125
409.50 1.107
409.60 1.088
409.70 1.062
409.80 1.03
409.90 0.9936
410.00 0.9397
410.10 0.8864
410.20 0.8338
410.30 0.9086
410.40 0.9689
410.50 1.015
410.60 1.047
410.70 1.074
410.80 1.097
410.90 1.115
411.00 1.13
411.10 1.143
411.20 1.154
411.30 1.164
411.40 1.174
411.50 1.182
411.60 1.189
411.70 1.196
411.80 1.202
411.90 1.207
412.00 1.212
412.10 1.217
412.20 1.221
412.30 1.225
412.40 1.229
412.50 1.232
412.60 1.235
412.70 1.238
412.80 1.24
412.90 1.243
413.00 1.245
413.10 1.247
413.20 1.249
413.30 1.25
413.40 1.252
413.50 1.253
413.60 1.254
413.70 1.256
413.80 1.257
413.90 1.258
414.00 1.259
414.10 1.26
414.20 1.26
414.30 1.261
414.40 1.262
414.50 1.262
414.60 1.263
414.70 1.263
414.80 1.264
414.90 1.264
415.00 1.265
415.10 1.265
415.20 1.265
415.30 1.266
415.40 1.266
415.50 1.266
415.60 1.266
415.70 1.266
415.80 1.266
415.90 1.267
416.00 1.267
416.10 1.267
416.20 1.267
416.30 1.267
416.40 1.267
416.50 1.267
416.60 1.267
416.70 1.267
416.80 1.267
416.90 1.267
417.00 1.267
417.10 1.267
417.20 1.266
417.30 1.266
417.40 1.266
417.50 1.266
417.60 1.266
417.70 1.266
417.80 1.266
417.90 1.265
418.00 1.265
418.10 1.265
418.20 1.265
418.30 1.265
418.40 1.265
418.50 1.264
418.60 1.264
418.70 1.264
418.80 1.264
418.90 1.264
419.00 1.263
419.10 1.263
419.20 1.263
419.30 1.263
419.40 1.262
419.50 1.262
419.60 1.262
419.70 1.262
419.80 1.261
419.90 1.261
420.00 1.261
420.10 1.261
420.20 1.26
420.30 1.26
420.40 1.26
420.50 1.259
420.60 1.259
420.70 1.259
420.80 1.259
420.90 1.258
421.00 1.258
421.10 1.258
421.20 1.257
421.30 1.257
421.40 1.257
421.50 1.256
421.60 1.256
421.70 1.256
421.80 1.255
421.90 1.255
422.00 1.255
422.10 1.254
422.20 1.254
422.30 1.254
422.40 1.253
422.50 1.253
422.60 1.253
422.70 1.252
422.80 1.252
422.90 1.252
423.00 1.251
423.10 1.251
423.20 1.251
423.30 1.25
423.40 1.25
423.50 1.25
423.60 1.249
423.70 1.249
423.80 1.248
423.90 1.248
424.00 1.248
424.10 1.247
424.20 1.247
424.30 1.246
424.40 1.246
424.50 1.246
424.60 1.245
424.70 1.245
424.80 1.244
424.90 1.244
425.00 1.243
425.10 1.243
425.20 1.243
425.30 1.242
425.40 1.242
425.50 1.241
425.60 1.241
425.70 1.24
425.80 1.24
425.90 1.239
426.00 1.239
426.10 1.238
426.20 1.238
426.30 1.237
426.40 1.237
426.50 1.236
426.60 1.236
426.70 1.235
426.80 1.235
426.90 1.234
427.00 1.233
427.10 1.233
427.20 1.232
427.30 1.232
427.40 1.231
427.50 1.23
427.60 1.23
427.70 1.229
427.80 1.228
427.90 1.227
428.00 1.227
428.10 1.226
428.20 1.225
428.30 1.224
428.40 1.223
428.50 1.223
428.60 1.222
428.70 1.221
428.80 1.22
428.90 1.219
429.00 1.218
429.10 1.217
429.20 1.215
429.30 1.214
429.40 1.213
429.50 1.212
429.60 1.21
429.70 1.209
429.80 1.208
429.90 1.206
430.00 1.204
430.10 1.203
430.20 1.201
430.30 1.199
430.40 1.197
430.50 1.195
430.60 1.193
430.70 1.19
430.80 1.188
430.90 1.185
431.00 1.182
431.10 1.179
431.20 1.176
431.30 1.173
431.40 1.169
431.50 1.165
431.60 1.161
431.70 1.156
431.80 1.151
431.90 1.146
432.00 1.14
432.10 1.134
432.20 1.127
432.30 1.12
432.40 1.112
432.50 1.102
432.60 1.092
432.70 1.081
432.80 1.069
432.90 1.055
433.00 1.041
433.10 1.024
433.20 1.005
433.30 0.9851
433.40 0.9593
433.50 0.9289
433.60 0.8938
433.70 0.8417
433.80 0.7771
433.90 0.7
434.00 0.5926
434.10 0.595
434.20 0.7072
434.30 0.7825
434.40 0.8454
434.50 0.8959
434.60 0.9299
434.70 0.9594
434.80 0.9843
434.90 1.004
435.00 1.022
435.10 1.038
435.20 1.052
435.30 1.064
435.40 1.076
435.50 1.086
435.60 1.096
435.70 1.104
435.80 1.111
435.90 1.118
436.00 1.125
436.10 1.13
436.20 1.135
436.30 1.14
436.40 1.144
436.50 1.148
436.60 1.151
436.70 1.154
436.80 1.157
436.90 1.16
437.00 1.163
437.10 1.165
437.20 1.167
437.30 1.169
437.40 1.171
437.50 1.172
437.60 1.174
437.70 1.175
437.80 1.177
437.90 1.178
438.00 1.179
438.10 1.18
438.20 1.181
438.30 1.182
438.40 1.182
438.50 1.183
438.60 1.184
438.70 1.184
438.80 1.185
438.90 1.185
439.00 1.186
439.10 1.186
439.20 1.187
439.30 1.187
439.40 1.187
439.50 1.188
439.60 1.188
439.70 1.188
439.80 1.188
439.90 1.188
440.00 1.188
440.10 1.189
440.20 1.189
440.30 1.189
440.40 1.189
440.50 1.189
440.60 1.189
440.70 1.189
440.80 1.189
440.90 1.189
441.00 1.189
441.10 1.189
441.20 1.188
441.30 1.188
441.40 1.188
441.50 1.188
441.60 1.188
441.70 1.188
441.80 1.188
441.90 1.188
442.00 1.188
442.10 1.187
442.20 1.187
442.30 1.187
442.40 1.187
442.50 1.187
442.60 1.187
442.70 1.186
442.80 1.186
442.90 1.186
443.00 1.186
443.10 1.186
443.20 1.185
443.30 1.185
443.40 1.185
443.50 1.185
443.60 1.184
443.70 1.184
443.80 1.184
443.90 1.184
444.00 1.183
444.10 1.183
444.20 1.183
444.30 1.183
444.40 1.182
444.50 1.182
444.60 1.182
444.70 1.182
444.80 1.181
444.90 1.181
445.00 1.181
445.10 1.181
445.20 1.18
445.30 1.18
445.40 1.18
445.50 1.18
445.60 1.179
445.70 1.179
445.80 1.179
445.90 1.178
446.00 1.178
446.10 1.178
446.20 1.178
446.30 1.177
446.40 1.177
446.50 1.177
446.60 1.176
446.70 1.176
446.80 1.176
446.90 1.175
447.00 1.175
447.10 1.175
447.20 1.175
447.30 1.174
447.40 1.174
447.50 1.174
447.60 1.173
447.70 1.173
447.80 1.173
447.90 1.172
448.00 1.172
448.10 1.172
448.20 1.172
448.30 1.171
448.40 1.171
448.50 1.171
448.60 1.17
448.70 1.17
448.80 1.17
448.90 1.169
449.00 1.169
449.10 1.169
449.20 1.168
449.30 1.168
449.40 1.168
449.50 1.167
449.60 1.167
449.70 1.167
449.80 1.167
449.90 1.166
450.00 1.166
450.10 1.166
450.20 1.165
450.30 1.165
450.40 1.165
450.50 1.164
450.60 1.164
450.70 1.164
450.80 1.163
450.90 1.163
451.00 1.163
451.10 1.162
451.20 1.162
451.30 1.162
451.40 1.161
451.50 1.161
451.60 1.161
451.70 1.16
451.80 1.16
451.90 1.16
452.00 1.159
452.10 1.159
452.20 1.159
452.30 1.158
452.40 1.158
452.50 1.158
452.60 1.157
452.70 1.157
452.80 1.157
452.90 1.156
453.00 1.156
453.10 1.156
453.20 1.155
453.30 1.155
453.40 1.155
453.50 1.154
453.60 1.154
453.70 1.154
453.80 1.153
453.90 1.153
454.00 1.153
