# Version 2.1 - nm, norm@500 to 1, cut digits, bergeron_2500_95.dat_2500
# Wavelength(nm)  Flambda(ergs/cm^s/s/nm)
300.00 0.09586
300.10 0.09609
300.20 0.09633
300.30 0.09657
300.40 0.0968
300.50 0.09704
300.60 0.09728
300.70 0.09751
300.80 0.09775
300.90 0.09798
301.00 0.09822
301.10 0.09845
301.20 0.09869
301.30 0.09892
301.40 0.09916
301.50 0.09939
301.60 0.09962
301.70 0.09986
301.80 0.1001
301.90 0.1003
302.00 0.1006
302.10 0.1008
302.20 0.101
302.30 0.1013
302.40 0.1015
302.50 0.1018
302.60 0.102
302.70 0.1023
302.80 0.1025
302.90 0.1027
303.00 0.103
303.10 0.1032
303.20 0.1035
303.30 0.1037
303.40 0.104
303.50 0.1042
303.60 0.1044
303.70 0.1047
303.80 0.1049
303.90 0.1052
304.00 0.1054
304.10 0.1056
304.20 0.1059
304.30 0.1061
304.40 0.1064
304.50 0.1066
304.60 0.1069
304.70 0.1071
304.80 0.1074
304.90 0.1076
305.00 0.1079
305.10 0.1081
305.20 0.1084
305.30 0.1086
305.40 0.1089
305.50 0.1091
305.60 0.1094
305.70 0.1096
305.80 0.1099
305.90 0.1101
306.00 0.1104
306.10 0.1106
306.20 0.1109
306.30 0.1111
306.40 0.1114
306.50 0.1117
306.60 0.1119
306.70 0.1122
306.80 0.1124
306.90 0.1127
307.00 0.1129
307.10 0.1132
307.20 0.1135
307.30 0.1137
307.40 0.114
307.50 0.1142
307.60 0.1145
307.70 0.1147
307.80 0.115
307.90 0.1152
308.00 0.1155
308.10 0.1158
308.20 0.116
308.30 0.1163
308.40 0.1165
308.50 0.1168
308.60 0.1171
308.70 0.1173
308.80 0.1176
308.90 0.1179
309.00 0.1181
309.10 0.1184
309.20 0.1187
309.30 0.1189
309.40 0.1192
309.50 0.1194
309.60 0.1197
309.70 0.12
309.80 0.1202
309.90 0.1205
310.00 0.1207
310.10 0.121
310.20 0.1213
310.30 0.1216
310.40 0.1218
310.50 0.1221
310.60 0.1224
310.70 0.1226
310.80 0.1229
310.90 0.1232
311.00 0.1235
311.10 0.1237
311.20 0.124
311.30 0.1243
311.40 0.1245
311.50 0.1248
311.60 0.1251
311.70 0.1253
311.80 0.1256
311.90 0.1259
312.00 0.1262
312.10 0.1264
312.20 0.1267
312.30 0.127
312.40 0.1272
312.50 0.1275
312.60 0.1278
312.70 0.1281
312.80 0.1284
312.90 0.1286
313.00 0.1289
313.10 0.1292
313.20 0.1295
313.30 0.1297
313.40 0.13
313.50 0.1303
313.60 0.1306
313.70 0.1308
313.80 0.1311
313.90 0.1314
314.00 0.1317
314.10 0.132
314.20 0.1322
314.30 0.1325
314.40 0.1328
314.50 0.1331
314.60 0.1334
314.70 0.1337
314.80 0.134
314.90 0.1342
315.00 0.1345
315.10 0.1348
315.20 0.1351
315.30 0.1354
315.40 0.1357
315.50 0.1359
315.60 0.1362
315.70 0.1365
315.80 0.1368
315.90 0.1371
316.00 0.1374
316.10 0.1376
316.20 0.1379
316.30 0.1382
316.40 0.1385
316.50 0.1388
316.60 0.1391
316.70 0.1394
316.80 0.1397
316.90 0.14
317.00 0.1403
317.10 0.1406
317.20 0.1409
317.30 0.1411
317.40 0.1414
317.50 0.1417
317.60 0.142
317.70 0.1423
317.80 0.1426
317.90 0.1429
318.00 0.1432
318.10 0.1435
318.20 0.1438
318.30 0.1441
318.40 0.1444
318.50 0.1447
318.60 0.145
318.70 0.1453
318.80 0.1456
318.90 0.1459
319.00 0.1462
319.10 0.1465
319.20 0.1468
319.30 0.1471
319.40 0.1473
319.50 0.1476
319.60 0.1479
319.70 0.1482
319.80 0.1485
319.90 0.1488
320.00 0.1491
320.10 0.1494
320.20 0.1497
320.30 0.15
320.40 0.1503
320.50 0.1507
320.60 0.151
320.70 0.1513
320.80 0.1516
320.90 0.1519
321.00 0.1522
321.10 0.1525
321.20 0.1528
321.30 0.1531
321.40 0.1534
321.50 0.1537
321.60 0.154
321.70 0.1543
321.80 0.1546
321.90 0.1549
322.00 0.1552
322.10 0.1555
322.20 0.1558
322.30 0.1562
322.40 0.1565
322.50 0.1568
322.60 0.1571
322.70 0.1574
322.80 0.1577
322.90 0.158
323.00 0.1583
323.10 0.1587
323.20 0.159
323.30 0.1593
323.40 0.1596
323.50 0.1599
323.60 0.1602
323.70 0.1605
323.80 0.1608
323.90 0.1611
324.00 0.1614
324.10 0.1618
324.20 0.1621
324.30 0.1624
324.40 0.1627
324.50 0.163
324.60 0.1634
324.70 0.1637
324.80 0.164
324.90 0.1643
325.00 0.1646
325.10 0.165
325.20 0.1653
325.30 0.1656
325.40 0.1659
325.50 0.1662
325.60 0.1665
325.70 0.1669
325.80 0.1672
325.90 0.1675
326.00 0.1678
326.10 0.1681
326.20 0.1685
326.30 0.1688
326.40 0.1691
326.50 0.1694
326.60 0.1698
326.70 0.1701
326.80 0.1704
326.90 0.1708
327.00 0.1711
327.10 0.1714
327.20 0.1717
327.30 0.1721
327.40 0.1724
327.50 0.1727
327.60 0.173
327.70 0.1733
327.80 0.1737
327.90 0.174
328.00 0.1743
328.10 0.1746
328.20 0.175
328.30 0.1753
328.40 0.1757
328.50 0.176
328.60 0.1763
328.70 0.1767
328.80 0.177
328.90 0.1773
329.00 0.1776
329.10 0.178
329.20 0.1783
329.30 0.1786
329.40 0.179
329.50 0.1793
329.60 0.1796
329.70 0.18
329.80 0.1803
329.90 0.1806
330.00 0.1809
330.10 0.1813
330.20 0.1816
330.30 0.182
330.40 0.1823
330.50 0.1827
330.60 0.183
330.70 0.1833
330.80 0.1837
330.90 0.184
331.00 0.1844
331.10 0.1847
331.20 0.185
331.30 0.1854
331.40 0.1857
331.50 0.186
331.60 0.1864
331.70 0.1867
331.80 0.187
331.90 0.1874
332.00 0.1877
332.10 0.1881
332.20 0.1884
332.30 0.1888
332.40 0.1891
332.50 0.1895
332.60 0.1898
332.70 0.1902
332.80 0.1905
332.90 0.1908
333.00 0.1912
333.10 0.1915
333.20 0.1919
333.30 0.1922
333.40 0.1926
333.50 0.1929
333.60 0.1932
333.70 0.1936
333.80 0.1939
333.90 0.1943
334.00 0.1946
334.10 0.195
334.20 0.1953
334.30 0.1957
334.40 0.196
334.50 0.1964
334.60 0.1967
334.70 0.1971
334.80 0.1974
334.90 0.1978
335.00 0.1982
335.10 0.1985
335.20 0.1989
335.30 0.1992
335.40 0.1996
335.50 0.1999
335.60 0.2003
335.70 0.2006
335.80 0.201
335.90 0.2013
336.00 0.2016
336.10 0.202
336.20 0.2024
336.30 0.2027
336.40 0.2031
336.50 0.2035
336.60 0.2038
336.70 0.2042
336.80 0.2045
336.90 0.2049
337.00 0.2053
337.10 0.2056
337.20 0.206
337.30 0.2063
337.40 0.2067
337.50 0.207
337.60 0.2074
337.70 0.2077
337.80 0.2081
337.90 0.2085
338.00 0.2088
338.10 0.2092
338.20 0.2095
338.30 0.2099
338.40 0.2103
338.50 0.2106
338.60 0.211
338.70 0.2114
338.80 0.2117
338.90 0.2121
339.00 0.2125
339.10 0.2128
339.20 0.2132
339.30 0.2136
339.40 0.2139
339.50 0.2143
339.60 0.2147
339.70 0.215
339.80 0.2154
339.90 0.2157
340.00 0.2161
340.10 0.2165
340.20 0.2168
340.30 0.2172
340.40 0.2176
340.50 0.218
340.60 0.2183
340.70 0.2187
340.80 0.2191
340.90 0.2195
341.00 0.2198
341.10 0.2202
341.20 0.2206
341.30 0.2209
341.40 0.2213
341.50 0.2217
341.60 0.222
341.70 0.2224
341.80 0.2228
341.90 0.2231
342.00 0.2235
342.10 0.2239
342.20 0.2243
342.30 0.2247
342.40 0.225
342.50 0.2254
342.60 0.2258
342.70 0.2262
342.80 0.2266
342.90 0.2269
343.00 0.2273
343.10 0.2277
343.20 0.2281
343.30 0.2284
343.40 0.2288
343.50 0.2292
343.60 0.2296
343.70 0.2299
343.80 0.2303
343.90 0.2307
344.00 0.2311
344.10 0.2314
344.20 0.2318
344.30 0.2322
344.40 0.2326
344.50 0.233
344.60 0.2334
344.70 0.2338
344.80 0.2341
344.90 0.2345
345.00 0.2349
345.10 0.2353
345.20 0.2357
345.30 0.2361
345.40 0.2364
345.50 0.2368
345.60 0.2372
345.70 0.2376
345.80 0.238
345.90 0.2383
346.00 0.2387
346.10 0.2391
346.20 0.2395
346.30 0.2399
346.40 0.2403
346.50 0.2407
346.60 0.2411
346.70 0.2415
346.80 0.2419
346.90 0.2422
347.00 0.2426
347.10 0.243
347.20 0.2434
347.30 0.2438
347.40 0.2442
347.50 0.2446
347.60 0.245
347.70 0.2453
347.80 0.2457
347.90 0.2461
348.00 0.2465
348.10 0.2469
348.20 0.2473
348.30 0.2477
348.40 0.2481
348.50 0.2485
348.60 0.2489
348.70 0.2493
348.80 0.2497
348.90 0.2501
349.00 0.2505
349.10 0.2509
349.20 0.2513
349.30 0.2517
349.40 0.252
349.50 0.2524
349.60 0.2528
349.70 0.2532
349.80 0.2536
349.90 0.254
350.00 0.2544
350.10 0.2548
350.20 0.2552
350.30 0.2556
350.40 0.256
350.50 0.2564
350.60 0.2568
350.70 0.2572
350.80 0.2576
350.90 0.258
351.00 0.2584
351.10 0.2588
351.20 0.2592
351.30 0.2596
351.40 0.26
351.50 0.2604
351.60 0.2608
351.70 0.2612
351.80 0.2616
351.90 0.262
352.00 0.2624
352.10 0.2628
352.20 0.2632
352.30 0.2637
352.40 0.2641
352.50 0.2645
352.60 0.2649
352.70 0.2653
352.80 0.2657
352.90 0.2661
353.00 0.2665
353.10 0.2669
353.20 0.2673
353.30 0.2677
353.40 0.2681
353.50 0.2685
353.60 0.2689
353.70 0.2693
353.80 0.2697
353.90 0.2701
354.00 0.2705
354.10 0.271
354.20 0.2714
354.30 0.2718
354.40 0.2722
354.50 0.2726
354.60 0.273
354.70 0.2735
354.80 0.2739
354.90 0.2743
355.00 0.2747
355.10 0.2751
355.20 0.2755
355.30 0.2759
355.40 0.2763
355.50 0.2768
355.60 0.2772
355.70 0.2776
355.80 0.278
355.90 0.2784
356.00 0.2788
356.10 0.2792
356.20 0.2796
356.30 0.2801
356.40 0.2805
356.50 0.2809
356.60 0.2813
356.70 0.2817
356.80 0.2822
356.90 0.2826
357.00 0.283
357.10 0.2834
357.20 0.2838
357.30 0.2842
357.40 0.2847
357.50 0.2851
357.60 0.2855
357.70 0.2859
357.80 0.2863
357.90 0.2867
358.00 0.2871
358.10 0.2876
358.20 0.288
358.30 0.2884
358.40 0.2889
358.50 0.2893
358.60 0.2897
358.70 0.2901
358.80 0.2906
358.90 0.291
359.00 0.2914
359.10 0.2918
359.20 0.2923
359.30 0.2927
359.40 0.2931
359.50 0.2935
359.60 0.2939
359.70 0.2944
359.80 0.2948
359.90 0.2952
360.00 0.2956
360.10 0.296
360.20 0.2965
360.30 0.2969
360.40 0.2973
360.50 0.2978
360.60 0.2982
360.70 0.2986
360.80 0.2991
360.90 0.2995
361.00 0.2999
361.10 0.3004
361.20 0.3008
361.30 0.3012
361.40 0.3016
361.50 0.3021
361.60 0.3025
361.70 0.3029
361.80 0.3033
361.90 0.3038
362.00 0.3042
362.10 0.3046
362.20 0.3051
362.30 0.3055
362.40 0.3059
362.50 0.3063
362.60 0.3068
362.70 0.3072
362.80 0.3076
362.90 0.3081
363.00 0.3085
363.10 0.3089
363.20 0.3094
363.30 0.3098
363.40 0.3103
363.50 0.3107
363.60 0.3111
363.70 0.3116
363.80 0.312
363.90 0.3124
364.00 0.3129
364.10 0.3133
364.20 0.3137
364.30 0.3142
364.40 0.3146
364.50 0.315
364.60 0.3155
364.70 0.3159
364.80 0.3164
364.90 0.3168
365.00 0.3172
365.10 0.3177
365.20 0.3181
365.30 0.3186
365.40 0.319
365.50 0.3194
365.60 0.3199
365.70 0.3203
365.80 0.3208
365.90 0.3212
366.00 0.3216
366.10 0.3221
366.20 0.3225
366.30 0.323
366.40 0.3234
366.50 0.3239
366.60 0.3243
366.70 0.3248
366.80 0.3252
366.90 0.3256
367.00 0.3261
367.10 0.3265
367.20 0.327
367.30 0.3274
367.40 0.3279
367.50 0.3283
367.60 0.3287
367.70 0.3292
367.80 0.3296
367.90 0.3301
368.00 0.3305
368.10 0.3309
368.20 0.3314
368.30 0.3319
368.40 0.3323
368.50 0.3328
368.60 0.3332
368.70 0.3337
368.80 0.3341
368.90 0.3346
369.00 0.335
369.10 0.3355
369.20 0.3359
369.30 0.3364
369.40 0.3368
369.50 0.3372
369.60 0.3377
369.70 0.3381
369.80 0.3386
369.90 0.339
370.00 0.3395
370.10 0.3399
370.20 0.3404
370.30 0.3408
370.40 0.3413
370.50 0.3418
370.60 0.3422
370.70 0.3427
370.80 0.3431
370.90 0.3436
371.00 0.344
371.10 0.3445
371.20 0.3449
371.30 0.3454
371.40 0.3458
371.50 0.3463
371.60 0.3467
371.70 0.3472
371.80 0.3476
371.90 0.3481
372.00 0.3485
372.10 0.349
372.20 0.3495
372.30 0.3499
372.40 0.3504
372.50 0.3508
372.60 0.3513
372.70 0.3518
372.80 0.3522
372.90 0.3527
373.00 0.3531
373.10 0.3536
373.20 0.354
373.30 0.3545
373.40 0.355
373.50 0.3554
373.60 0.3559
373.70 0.3563
373.80 0.3568
373.90 0.3572
374.00 0.3577
374.10 0.3581
374.20 0.3586
374.30 0.3591
374.40 0.3595
374.50 0.36
374.60 0.3605
374.70 0.3609
374.80 0.3614
374.90 0.3619
375.00 0.3623
375.10 0.3628
375.20 0.3632
375.30 0.3637
375.40 0.3642
375.50 0.3646
375.60 0.3651
375.70 0.3655
375.80 0.366
375.90 0.3665
376.00 0.3669
376.10 0.3674
376.20 0.3678
376.30 0.3683
376.40 0.3688
376.50 0.3692
376.60 0.3697
376.70 0.3702
376.80 0.3706
376.90 0.3711
377.00 0.3716
377.10 0.372
377.20 0.3725
377.30 0.373
377.40 0.3734
377.50 0.3739
377.60 0.3744
377.70 0.3748
377.80 0.3753
377.90 0.3758
378.00 0.3762
378.10 0.3767
378.20 0.3772
378.30 0.3777
378.40 0.3781
378.50 0.3786
378.60 0.3791
378.70 0.3795
378.80 0.38
378.90 0.3805
379.00 0.3809
379.10 0.3814
379.20 0.3819
379.30 0.3824
379.40 0.3828
379.50 0.3833
379.60 0.3838
379.70 0.3842
379.80 0.3847
379.90 0.3852
380.00 0.3856
380.10 0.3861
380.20 0.3866
380.30 0.3871
380.40 0.3875
380.50 0.388
380.60 0.3885
380.70 0.389
380.80 0.3894
380.90 0.3899
381.00 0.3904
381.10 0.3909
381.20 0.3913
381.30 0.3918
381.40 0.3923
381.50 0.3928
381.60 0.3932
381.70 0.3937
381.80 0.3942
381.90 0.3947
382.00 0.3951
382.10 0.3956
382.20 0.3961
382.30 0.3966
382.40 0.397
382.50 0.3975
382.60 0.398
382.70 0.3985
382.80 0.399
382.90 0.3994
383.00 0.3999
383.10 0.4004
383.20 0.4009
383.30 0.4013
383.40 0.4018
383.50 0.4023
383.60 0.4028
383.70 0.4033
383.80 0.4037
383.90 0.4042
384.00 0.4047
384.10 0.4052
384.20 0.4057
384.30 0.4061
384.40 0.4066
384.50 0.4071
384.60 0.4076
384.70 0.4081
384.80 0.4085
384.90 0.409
385.00 0.4095
385.10 0.41
385.20 0.4105
385.30 0.411
385.40 0.4114
385.50 0.4119
385.60 0.4124
385.70 0.4129
385.80 0.4134
385.90 0.4138
386.00 0.4143
386.10 0.4148
386.20 0.4153
386.30 0.4158
386.40 0.4163
386.50 0.4168
386.60 0.4172
386.70 0.4177
386.80 0.4182
386.90 0.4187
387.00 0.4192
387.10 0.4197
387.20 0.4202
387.30 0.4206
387.40 0.4211
387.50 0.4216
387.60 0.4221
387.70 0.4226
387.80 0.4231
387.90 0.4236
388.00 0.424
388.10 0.4245
388.20 0.425
388.30 0.4255
388.40 0.426
388.50 0.4265
388.60 0.427
388.70 0.4275
388.80 0.4279
388.90 0.4284
389.00 0.4289
389.10 0.4294
389.20 0.4299
389.30 0.4304
389.40 0.4309
389.50 0.4314
389.60 0.4319
389.70 0.4324
389.80 0.4328
389.90 0.4333
390.00 0.4338
390.10 0.4343
390.20 0.4348
390.30 0.4353
390.40 0.4358
390.50 0.4363
390.60 0.4368
390.70 0.4373
390.80 0.4378
390.90 0.4382
391.00 0.4387
391.10 0.4392
391.20 0.4397
391.30 0.4402
391.40 0.4407
391.50 0.4412
391.60 0.4417
391.70 0.4422
391.80 0.4427
391.90 0.4432
392.00 0.4437
392.10 0.4442
392.20 0.4447
392.30 0.4451
392.40 0.4456
392.50 0.4461
392.60 0.4466
392.70 0.4471
392.80 0.4476
392.90 0.4481
393.00 0.4486
393.10 0.4491
393.20 0.4496
393.30 0.4501
393.40 0.4506
393.50 0.4511
393.60 0.4516
393.70 0.4521
393.80 0.4526
393.90 0.4531
394.00 0.4536
394.10 0.4541
394.20 0.4546
394.30 0.4551
394.40 0.4556
394.50 0.4561
394.60 0.4566
394.70 0.4571
394.80 0.4576
394.90 0.4581
395.00 0.4586
395.10 0.4591
395.20 0.4596
395.30 0.46
395.40 0.4605
395.50 0.461
395.60 0.4615
395.70 0.462
395.80 0.4625
395.90 0.463
396.00 0.4635
396.10 0.464
396.20 0.4645
396.30 0.465
396.40 0.4655
396.50 0.466
396.60 0.4665
396.70 0.467
396.80 0.4675
396.90 0.468
397.00 0.4685
397.10 0.4691
397.20 0.4696
397.30 0.4701
397.40 0.4706
397.50 0.4711
397.60 0.4716
397.70 0.4721
397.80 0.4726
397.90 0.4731
398.00 0.4736
398.10 0.4741
398.20 0.4746
398.30 0.4751
398.40 0.4756
398.50 0.4761
398.60 0.4766
398.70 0.4771
398.80 0.4776
398.90 0.4781
399.00 0.4786
399.10 0.4791
399.20 0.4796
399.30 0.4801
399.40 0.4806
399.50 0.4811
399.60 0.4816
399.70 0.4821
399.80 0.4826
399.90 0.4831
400.00 0.4837
400.10 0.4842
400.20 0.4847
400.30 0.4852
400.40 0.4857
400.50 0.4862
400.60 0.4867
400.70 0.4872
400.80 0.4877
400.90 0.4882
401.00 0.4887
401.10 0.4892
401.20 0.4897
401.30 0.4902
401.40 0.4907
401.50 0.4912
401.60 0.4918
401.70 0.4923
401.80 0.4928
401.90 0.4933
402.00 0.4938
402.10 0.4943
402.20 0.4948
402.30 0.4953
402.40 0.4958
402.50 0.4963
402.60 0.4968
402.70 0.4973
402.80 0.4979
402.90 0.4984
403.00 0.4989
403.10 0.4994
403.20 0.4999
403.30 0.5004
403.40 0.5009
403.50 0.5014
403.60 0.5019
403.70 0.5024
403.80 0.5029
403.90 0.5035
404.00 0.504
404.10 0.5045
404.20 0.505
404.30 0.5055
404.40 0.506
404.50 0.5065
404.60 0.507
404.70 0.5075
404.80 0.508
404.90 0.5086
405.00 0.5091
405.10 0.5096
405.20 0.5101
405.30 0.5106
405.40 0.5111
405.50 0.5117
405.60 0.5122
405.70 0.5127
405.80 0.5132
405.90 0.5137
406.00 0.5142
406.10 0.5147
406.20 0.5152
406.30 0.5158
406.40 0.5163
406.50 0.5168
406.60 0.5173
406.70 0.5178
406.80 0.5183
406.90 0.5188
407.00 0.5193
407.10 0.5199
407.20 0.5204
407.30 0.5209
407.40 0.5214
407.50 0.5219
407.60 0.5224
407.70 0.5229
407.80 0.5234
407.90 0.524
408.00 0.5245
408.10 0.525
408.20 0.5255
408.30 0.526
408.40 0.5265
408.50 0.5271
408.60 0.5276
408.70 0.5281
408.80 0.5286
408.90 0.5291
409.00 0.5296
409.10 0.5301
409.20 0.5307
409.30 0.5312
409.40 0.5317
409.50 0.5322
409.60 0.5327
409.70 0.5332
409.80 0.5338
409.90 0.5343
410.00 0.5348
410.10 0.5353
410.20 0.5358
410.30 0.5363
410.40 0.5368
410.50 0.5374
410.60 0.5379
410.70 0.5384
410.80 0.5389
410.90 0.5394
411.00 0.5399
411.10 0.5405
411.20 0.541
411.30 0.5415
411.40 0.5421
411.50 0.5426
411.60 0.5431
411.70 0.5436
411.80 0.5441
411.90 0.5446
412.00 0.5451
412.10 0.5457
412.20 0.5462
412.30 0.5467
412.40 0.5472
412.50 0.5477
412.60 0.5483
412.70 0.5488
412.80 0.5493
412.90 0.5498
413.00 0.5503
413.10 0.5508
413.20 0.5514
413.30 0.5519
413.40 0.5524
413.50 0.5529
413.60 0.5534
413.70 0.554
413.80 0.5545
413.90 0.555
414.00 0.5555
414.10 0.5561
414.20 0.5566
414.30 0.5571
414.40 0.5576
414.50 0.5581
414.60 0.5587
414.70 0.5592
414.80 0.5597
414.90 0.5602
415.00 0.5608
415.10 0.5612
415.20 0.5618
415.30 0.5623
415.40 0.5628
415.50 0.5633
415.60 0.5639
415.70 0.5644
415.80 0.5649
415.90 0.5654
416.00 0.5659
416.10 0.5665
416.20 0.567
416.30 0.5675
416.40 0.5681
416.50 0.5686
416.60 0.5691
416.70 0.5696
416.80 0.5701
416.90 0.5706
417.00 0.5712
417.10 0.5717
417.20 0.5722
417.30 0.5727
417.40 0.5732
417.50 0.5738
417.60 0.5743
417.70 0.5748
417.80 0.5753
417.90 0.5759
418.00 0.5764
418.10 0.5769
418.20 0.5774
418.30 0.578
418.40 0.5785
418.50 0.579
418.60 0.5795
418.70 0.5801
418.80 0.5806
418.90 0.5811
419.00 0.5816
419.10 0.5822
419.20 0.5827
419.30 0.5832
419.40 0.5837
419.50 0.5842
419.60 0.5848
419.70 0.5853
419.80 0.5858
419.90 0.5864
420.00 0.5869
420.10 0.5874
420.20 0.5879
420.30 0.5884
420.40 0.589
420.50 0.5895
420.60 0.59
420.70 0.5905
420.80 0.5911
420.90 0.5916
421.00 0.5921
421.10 0.5926
421.20 0.5932
421.30 0.5937
421.40 0.5942
421.50 0.5948
421.60 0.5953
421.70 0.5958
421.80 0.5963
421.90 0.5968
422.00 0.5974
422.10 0.5979
422.20 0.5984
422.30 0.5989
422.40 0.5995
422.50 0.6
422.60 0.6005
422.70 0.6011
422.80 0.6016
422.90 0.6021
423.00 0.6026
423.10 0.6031
423.20 0.6037
423.30 0.6042
423.40 0.6048
423.50 0.6053
423.60 0.6058
423.70 0.6063
423.80 0.6068
423.90 0.6074
424.00 0.6079
424.10 0.6084
424.20 0.609
424.30 0.6095
424.40 0.61
424.50 0.6105
424.60 0.6111
424.70 0.6116
424.80 0.6121
424.90 0.6127
425.00 0.6132
425.10 0.6137
425.20 0.6142
425.30 0.6147
425.40 0.6153
425.50 0.6158
425.60 0.6163
425.70 0.6168
425.80 0.6174
425.90 0.6179
426.00 0.6184
426.10 0.619
426.20 0.6195
426.30 0.62
426.40 0.6206
426.50 0.6211
426.60 0.6216
426.70 0.6221
426.80 0.6227
426.90 0.6232
427.00 0.6237
427.10 0.6243
427.20 0.6248
427.30 0.6253
427.40 0.6258
427.50 0.6264
427.60 0.6269
427.70 0.6274
427.80 0.628
427.90 0.6285
428.00 0.629
428.10 0.6295
428.20 0.6301
428.30 0.6306
428.40 0.6311
428.50 0.6316
428.60 0.6322
428.70 0.6327
428.80 0.6332
428.90 0.6338
429.00 0.6343
429.10 0.6348
429.20 0.6353
429.30 0.6359
429.40 0.6364
429.50 0.6369
429.60 0.6375
429.70 0.638
429.80 0.6385
429.90 0.6391
430.00 0.6396
430.10 0.6401
430.20 0.6406
430.30 0.6412
430.40 0.6417
430.50 0.6422
430.60 0.6428
430.70 0.6433
430.80 0.6438
430.90 0.6443
431.00 0.6449
431.10 0.6454
431.20 0.6459
431.30 0.6465
431.40 0.647
431.50 0.6475
431.60 0.6481
431.70 0.6486
431.80 0.6491
431.90 0.6496
432.00 0.6502
432.10 0.6507
432.20 0.6512
432.30 0.6518
432.40 0.6523
432.50 0.6528
432.60 0.6534
432.70 0.6539
432.80 0.6544
432.90 0.6549
433.00 0.6555
433.10 0.656
433.20 0.6565
433.30 0.6571
433.40 0.6576
433.50 0.6581
433.60 0.6586
433.70 0.6592
433.80 0.6597
433.90 0.6602
434.00 0.6608
434.10 0.6613
434.20 0.6618
434.30 0.6624
434.40 0.6629
434.50 0.6634
434.60 0.6639
434.70 0.6645
434.80 0.665
434.90 0.6655
435.00 0.6661
435.10 0.6666
435.20 0.6671
435.30 0.6677
435.40 0.6682
435.50 0.6687
435.60 0.6692
435.70 0.6698
435.80 0.6703
435.90 0.6708
436.00 0.6714
436.10 0.6719
436.20 0.6724
436.30 0.673
436.40 0.6735
436.50 0.674
436.60 0.6745
436.70 0.6751
436.80 0.6756
436.90 0.6761
437.00 0.6767
437.10 0.6772
437.20 0.6777
437.30 0.6782
437.40 0.6788
437.50 0.6793
437.60 0.6799
437.70 0.6804
437.80 0.6809
437.90 0.6815
438.00 0.682
438.10 0.6825
438.20 0.683
438.30 0.6836
438.40 0.6841
438.50 0.6846
438.60 0.6852
438.70 0.6857
438.80 0.6862
438.90 0.6867
439.00 0.6873
439.10 0.6878
439.20 0.6883
439.30 0.6889
439.40 0.6894
439.50 0.6899
439.60 0.6905
439.70 0.691
439.80 0.6915
439.90 0.692
440.00 0.6926
440.10 0.6931
440.20 0.6936
440.30 0.6942
440.40 0.6947
440.50 0.6952
440.60 0.6958
440.70 0.6963
440.80 0.6968
440.90 0.6974
441.00 0.6979
441.10 0.6984
441.20 0.6989
441.30 0.6995
441.40 0.7
441.50 0.7005
441.60 0.7011
441.70 0.7016
441.80 0.7021
441.90 0.7027
442.00 0.7032
442.10 0.7037
442.20 0.7042
442.30 0.7048
442.40 0.7053
442.50 0.7058
442.60 0.7064
442.70 0.7069
442.80 0.7074
442.90 0.708
