# Version 2.1 - nm, norm@500 to 1, cut digits, bergeron_30000_95.dat_30000
# Wavelength(nm)  Flambda(ergs/cm^s/s/nm)
300.00 5.256
300.10 5.25
300.20 5.244
300.30 5.238
300.40 5.232
300.50 5.226
300.60 5.22
300.70 5.214
300.80 5.208
300.90 5.202
301.00 5.196
301.10 5.19
301.20 5.184
301.30 5.178
301.40 5.172
301.50 5.166
301.60 5.16
301.70 5.154
301.80 5.148
301.90 5.143
302.00 5.137
302.10 5.131
302.20 5.125
302.30 5.119
302.40 5.113
302.50 5.108
302.60 5.102
302.70 5.096
302.80 5.09
302.90 5.084
303.00 5.079
303.10 5.073
303.20 5.067
303.30 5.061
303.40 5.055
303.50 5.05
303.60 5.044
303.70 5.038
303.80 5.033
303.90 5.027
304.00 5.021
304.10 5.016
304.20 5.01
304.30 5.004
304.40 4.998
304.50 4.993
304.60 4.987
304.70 4.982
304.80 4.976
304.90 4.97
305.00 4.965
305.10 4.959
305.20 4.953
305.30 4.948
305.40 4.942
305.50 4.937
305.60 4.931
305.70 4.926
305.80 4.92
305.90 4.915
306.00 4.909
306.10 4.903
306.20 4.898
306.30 4.892
306.40 4.887
306.50 4.881
306.60 4.876
306.70 4.87
306.80 4.865
306.90 4.86
307.00 4.854
307.10 4.849
307.20 4.843
307.30 4.838
307.40 4.832
307.50 4.827
307.60 4.821
307.70 4.816
307.80 4.811
307.90 4.805
308.00 4.8
308.10 4.795
308.20 4.789
308.30 4.784
308.40 4.778
308.50 4.773
308.60 4.768
308.70 4.762
308.80 4.757
308.90 4.752
309.00 4.747
309.10 4.741
309.20 4.736
309.30 4.731
309.40 4.725
309.50 4.72
309.60 4.715
309.70 4.71
309.80 4.704
309.90 4.699
310.00 4.694
310.10 4.689
310.20 4.683
310.30 4.678
310.40 4.673
310.50 4.668
310.60 4.663
310.70 4.657
310.80 4.652
310.90 4.647
311.00 4.642
311.10 4.637
311.20 4.632
311.30 4.627
311.40 4.621
311.50 4.616
311.60 4.611
311.70 4.606
311.80 4.601
311.90 4.596
312.00 4.591
312.10 4.586
312.20 4.581
312.30 4.576
312.40 4.571
312.50 4.566
312.60 4.56
312.70 4.555
312.80 4.55
312.90 4.545
313.00 4.54
313.10 4.535
313.20 4.53
313.30 4.525
313.40 4.52
313.50 4.515
313.60 4.51
313.70 4.505
313.80 4.501
313.90 4.496
314.00 4.491
314.10 4.486
314.20 4.481
314.30 4.476
314.40 4.471
314.50 4.466
314.60 4.461
314.70 4.456
314.80 4.451
314.90 4.446
315.00 4.442
315.10 4.437
315.20 4.432
315.30 4.427
315.40 4.422
315.50 4.417
315.60 4.412
315.70 4.408
315.80 4.403
315.90 4.398
316.00 4.393
316.10 4.388
316.20 4.384
316.30 4.379
316.40 4.374
316.50 4.369
316.60 4.364
316.70 4.36
316.80 4.355
316.90 4.35
317.00 4.345
317.10 4.341
317.20 4.336
317.30 4.331
317.40 4.327
317.50 4.322
317.60 4.317
317.70 4.312
317.80 4.308
317.90 4.303
318.00 4.298
318.10 4.294
318.20 4.289
318.30 4.284
318.40 4.28
318.50 4.275
318.60 4.27
318.70 4.266
318.80 4.261
318.90 4.257
319.00 4.252
319.10 4.247
319.20 4.243
319.30 4.238
319.40 4.234
319.50 4.229
319.60 4.224
319.70 4.22
319.80 4.215
319.90 4.211
320.00 4.206
320.10 4.202
320.20 4.197
320.30 4.193
320.40 4.188
320.50 4.183
320.60 4.179
320.70 4.174
320.80 4.17
320.90 4.165
321.00 4.161
321.10 4.156
321.20 4.152
321.30 4.148
321.40 4.143
321.50 4.139
321.60 4.134
321.70 4.13
321.80 4.125
321.90 4.121
322.00 4.116
322.10 4.112
322.20 4.108
322.30 4.103
322.40 4.099
322.50 4.094
322.60 4.09
322.70 4.086
322.80 4.081
322.90 4.077
323.00 4.072
323.10 4.068
323.20 4.064
323.30 4.059
323.40 4.055
323.50 4.051
323.60 4.046
323.70 4.042
323.80 4.038
323.90 4.033
324.00 4.029
324.10 4.025
324.20 4.02
324.30 4.016
324.40 4.012
324.50 4.008
324.60 4.003
324.70 3.999
324.80 3.995
324.90 3.991
325.00 3.986
325.10 3.982
325.20 3.978
325.30 3.974
325.40 3.969
325.50 3.965
325.60 3.961
325.70 3.957
325.80 3.952
325.90 3.948
326.00 3.944
326.10 3.94
326.20 3.936
326.30 3.932
326.40 3.927
326.50 3.923
326.60 3.919
326.70 3.915
326.80 3.911
326.90 3.907
327.00 3.902
327.10 3.898
327.20 3.894
327.30 3.89
327.40 3.886
327.50 3.882
327.60 3.878
327.70 3.874
327.80 3.87
327.90 3.865
328.00 3.861
328.10 3.857
328.20 3.853
328.30 3.849
328.40 3.845
328.50 3.841
328.60 3.837
328.70 3.833
328.80 3.829
328.90 3.825
329.00 3.821
329.10 3.817
329.20 3.813
329.30 3.809
329.40 3.805
329.50 3.801
329.60 3.797
329.70 3.793
329.80 3.789
329.90 3.785
330.00 3.781
330.10 3.777
330.20 3.773
330.30 3.769
330.40 3.765
330.50 3.761
330.60 3.757
330.70 3.753
330.80 3.749
330.90 3.745
331.00 3.741
331.10 3.737
331.20 3.734
331.30 3.73
331.40 3.726
331.50 3.722
331.60 3.718
331.70 3.714
331.80 3.71
331.90 3.706
332.00 3.702
332.10 3.699
332.20 3.695
332.30 3.691
332.40 3.687
332.50 3.683
332.60 3.679
332.70 3.675
332.80 3.672
332.90 3.668
333.00 3.664
333.10 3.66
333.20 3.656
333.30 3.653
333.40 3.649
333.50 3.645
333.60 3.641
333.70 3.637
333.80 3.634
333.90 3.63
334.00 3.626
334.10 3.622
334.20 3.618
334.30 3.615
334.40 3.611
334.50 3.607
334.60 3.604
334.70 3.6
334.80 3.596
334.90 3.592
335.00 3.589
335.10 3.585
335.20 3.581
335.30 3.577
335.40 3.574
335.50 3.57
335.60 3.566
335.70 3.563
335.80 3.559
335.90 3.555
336.00 3.552
336.10 3.548
336.20 3.544
336.30 3.541
336.40 3.537
336.50 3.533
336.60 3.53
336.70 3.526
336.80 3.522
336.90 3.519
337.00 3.515
337.10 3.512
337.20 3.508
337.30 3.504
337.40 3.501
337.50 3.497
337.60 3.494
337.70 3.49
337.80 3.486
337.90 3.483
338.00 3.479
338.10 3.476
338.20 3.472
338.30 3.468
338.40 3.465
338.50 3.461
338.60 3.458
338.70 3.454
338.80 3.451
338.90 3.447
339.00 3.444
339.10 3.44
339.20 3.437
339.30 3.433
339.40 3.43
339.50 3.426
339.60 3.423
339.70 3.419
339.80 3.416
339.90 3.412
340.00 3.409
340.10 3.405
340.20 3.402
340.30 3.398
340.40 3.395
340.50 3.391
340.60 3.388
340.70 3.384
340.80 3.381
340.90 3.377
341.00 3.374
341.10 3.37
341.20 3.367
341.30 3.364
341.40 3.36
341.50 3.357
341.60 3.353
341.70 3.35
341.80 3.347
341.90 3.343
342.00 3.34
342.10 3.336
342.20 3.333
342.30 3.33
342.40 3.326
342.50 3.323
342.60 3.319
342.70 3.316
342.80 3.313
342.90 3.309
343.00 3.306
343.10 3.303
343.20 3.299
343.30 3.296
343.40 3.293
343.50 3.289
343.60 3.286
343.70 3.283
343.80 3.279
343.90 3.276
344.00 3.273
344.10 3.269
344.20 3.266
344.30 3.263
344.40 3.259
344.50 3.256
344.60 3.253
344.70 3.25
344.80 3.246
344.90 3.243
345.00 3.24
345.10 3.236
345.20 3.233
345.30 3.23
345.40 3.227
345.50 3.223
345.60 3.22
345.70 3.217
345.80 3.214
345.90 3.21
346.00 3.207
346.10 3.204
346.20 3.201
346.30 3.198
346.40 3.194
346.50 3.191
346.60 3.188
346.70 3.185
346.80 3.182
346.90 3.178
347.00 3.175
347.10 3.172
347.20 3.169
347.30 3.166
347.40 3.162
347.50 3.159
347.60 3.156
347.70 3.153
347.80 3.15
347.90 3.147
348.00 3.144
348.10 3.14
348.20 3.137
348.30 3.134
348.40 3.131
348.50 3.128
348.60 3.125
348.70 3.122
348.80 3.119
348.90 3.115
349.00 3.112
349.10 3.109
349.20 3.106
349.30 3.103
349.40 3.1
349.50 3.097
349.60 3.094
349.70 3.091
349.80 3.088
349.90 3.084
350.00 3.081
350.10 3.078
350.20 3.075
350.30 3.072
350.40 3.069
350.50 3.066
350.60 3.063
350.70 3.06
350.80 3.057
350.90 3.054
351.00 3.051
351.10 3.048
351.20 3.045
351.30 3.042
351.40 3.039
351.50 3.036
351.60 3.033
351.70 3.03
351.80 3.027
351.90 3.024
352.00 3.021
352.10 3.018
352.20 3.015
352.30 3.012
352.40 3.009
352.50 3.006
352.60 3.003
352.70 3
352.80 2.997
352.90 2.994
353.00 2.991
353.10 2.988
353.20 2.985
353.30 2.982
353.40 2.979
353.50 2.976
353.60 2.973
353.70 2.97
353.80 2.968
353.90 2.965
354.00 2.962
354.10 2.959
354.20 2.956
354.30 2.953
354.40 2.95
354.50 2.947
354.60 2.944
354.70 2.941
354.80 2.938
354.90 2.936
355.00 2.933
355.10 2.93
355.20 2.927
355.30 2.924
355.40 2.921
355.50 2.918
355.60 2.915
355.70 2.913
355.80 2.91
355.90 2.907
356.00 2.904
356.10 2.901
356.20 2.898
356.30 2.896
356.40 2.893
356.50 2.89
356.60 2.887
356.70 2.884
356.80 2.881
356.90 2.879
357.00 2.876
357.10 2.873
357.20 2.87
357.30 2.867
357.40 2.865
357.50 2.862
357.60 2.859
357.70 2.856
357.80 2.853
357.90 2.851
358.00 2.848
358.10 2.845
358.20 2.842
358.30 2.84
358.40 2.837
358.50 2.834
358.60 2.831
358.70 2.828
358.80 2.826
358.90 2.823
359.00 2.82
359.10 2.817
359.20 2.815
359.30 2.812
359.40 2.809
359.50 2.807
359.60 2.804
359.70 2.801
359.80 2.798
359.90 2.796
360.00 2.793
360.10 2.79
360.20 2.788
360.30 2.785
360.40 2.782
360.50 2.779
360.60 2.777
360.70 2.774
360.80 2.771
360.90 2.769
361.00 2.766
361.10 2.763
361.20 2.761
361.30 2.758
361.40 2.755
361.50 2.753
361.60 2.75
361.70 2.747
361.80 2.745
361.90 2.742
362.00 2.739
362.10 2.737
362.20 2.734
362.30 2.731
362.40 2.729
362.50 2.726
362.60 2.724
362.70 2.721
362.80 2.718
362.90 2.716
363.00 2.713
363.10 2.711
363.20 2.708
363.30 2.705
363.40 2.703
363.50 2.7
363.60 2.698
363.70 2.695
363.80 2.692
363.90 2.69
364.00 2.687
364.10 2.685
364.20 2.682
364.30 2.679
364.40 2.677
364.50 2.674
364.60 2.672
364.70 2.669
364.80 2.667
364.90 2.664
365.00 2.662
365.10 2.659
365.20 2.656
365.30 2.654
365.40 2.651
365.50 2.649
365.60 2.646
365.70 2.644
365.80 2.641
365.90 2.639
366.00 2.636
366.10 2.634
366.20 2.631
366.30 2.628
366.40 2.626
366.50 2.623
366.60 2.621
366.70 2.618
366.80 2.615
366.90 2.613
367.00 2.61
367.10 2.608
367.20 2.605
367.30 2.602
367.40 2.6
367.50 2.597
367.60 2.595
367.70 2.592
367.80 2.59
367.90 2.587
368.00 2.584
368.10 2.582
368.20 2.579
368.30 2.576
368.40 2.574
368.50 2.571
368.60 2.568
368.70 2.565
368.80 2.563
368.90 2.56
369.00 2.557
369.10 2.554
369.20 2.552
369.30 2.549
369.40 2.546
369.50 2.544
369.60 2.541
369.70 2.538
369.80 2.536
369.90 2.533
370.00 2.53
370.10 2.527
370.20 2.525
370.30 2.522
370.40 2.52
370.50 2.517
370.60 2.514
370.70 2.512
370.80 2.509
370.90 2.506
371.00 2.504
371.10 2.501
371.20 2.499
371.30 2.496
371.40 2.493
371.50 2.491
371.60 2.488
371.70 2.486
371.80 2.483
371.90 2.48
372.00 2.478
372.10 2.475
372.20 2.473
372.30 2.471
372.40 2.469
372.50 2.466
372.60 2.464
372.70 2.462
372.80 2.46
372.90 2.457
373.00 2.455
373.10 2.453
373.20 2.45
373.30 2.448
373.40 2.446
373.50 2.444
373.60 2.441
373.70 2.439
373.80 2.437
373.90 2.435
374.00 2.432
374.10 2.43
374.20 2.427
374.30 2.425
374.40 2.422
374.50 2.42
374.60 2.417
374.70 2.415
374.80 2.412
374.90 2.41
375.00 2.408
375.10 2.405
375.20 2.403
375.30 2.4
375.40 2.398
375.50 2.395
375.60 2.393
375.70 2.39
375.80 2.388
375.90 2.385
376.00 2.383
376.10 2.38
376.20 2.378
376.30 2.376
376.40 2.373
376.50 2.371
376.60 2.368
376.70 2.366
376.80 2.364
376.90 2.361
377.00 2.359
377.10 2.357
377.20 2.354
377.30 2.352
377.40 2.35
377.50 2.348
377.60 2.345
377.70 2.343
377.80 2.341
377.90 2.339
378.00 2.336
378.10 2.334
378.20 2.332
378.30 2.33
378.40 2.328
378.50 2.325
378.60 2.323
378.70 2.321
378.80 2.319
378.90 2.317
379.00 2.314
379.10 2.312
379.20 2.31
379.30 2.308
379.40 2.306
379.50 2.304
379.60 2.301
379.70 2.299
379.80 2.297
379.90 2.295
380.00 2.293
380.10 2.291
380.20 2.289
380.30 2.287
380.40 2.285
380.50 2.283
380.60 2.281
380.70 2.279
380.80 2.277
380.90 2.275
381.00 2.273
381.10 2.271
381.20 2.269
381.30 2.267
381.40 2.265
381.50 2.263
381.60 2.261
381.70 2.259
381.80 2.257
381.90 2.255
382.00 2.253
382.10 2.251
382.20 2.249
382.30 2.247
382.40 2.245
382.50 2.243
382.60 2.241
382.70 2.238
382.80 2.236
382.90 2.234
383.00 2.232
383.10 2.23
383.20 2.228
383.30 2.226
383.40 2.224
383.50 2.223
383.60 2.221
383.70 2.219
383.80 2.217
383.90 2.216
384.00 2.214
384.10 2.213
384.20 2.211
384.30 2.21
384.40 2.208
384.50 2.206
384.60 2.205
384.70 2.203
384.80 2.202
384.90 2.2
385.00 2.198
385.10 2.197
385.20 2.195
385.30 2.193
385.40 2.192
385.50 2.19
385.60 2.188
385.70 2.186
385.80 2.185
385.90 2.183
386.00 2.181
386.10 2.179
386.20 2.177
386.30 2.175
386.40 2.174
386.50 2.172
386.60 2.17
386.70 2.168
386.80 2.166
386.90 2.164
387.00 2.162
387.10 2.16
387.20 2.158
387.30 2.155
387.40 2.153
387.50 2.151
387.60 2.149
387.70 2.147
387.80 2.145
387.90 2.143
388.00 2.141
388.10 2.139
388.20 2.136
388.30 2.134
388.40 2.132
388.50 2.13
388.60 2.128
388.70 2.127
388.80 2.125
388.90 2.123
389.00 2.122
389.10 2.121
389.20 2.12
389.30 2.119
389.40 2.118
389.50 2.117
389.60 2.116
389.70 2.116
389.80 2.115
389.90 2.114
390.00 2.113
390.10 2.113
390.20 2.112
390.30 2.111
390.40 2.11
390.50 2.109
390.60 2.108
390.70 2.107
390.80 2.106
390.90 2.105
391.00 2.104
391.10 2.103
391.20 2.102
391.30 2.101
391.40 2.1
391.50 2.098
391.60 2.097
391.70 2.096
391.80 2.094
391.90 2.093
392.00 2.091
392.10 2.09
392.20 2.088
392.30 2.086
392.40 2.084
392.50 2.083
392.60 2.081
392.70 2.079
392.80 2.077
392.90 2.075
393.00 2.073
393.10 2.07
393.20 2.068
393.30 2.066
393.40 2.064
393.50 2.061
393.60 2.059
393.70 2.056
393.80 2.053
393.90 2.051
394.00 2.048
394.10 2.045
394.20 2.042
394.30 2.039
394.40 2.036
394.50 2.033
394.60 2.03
394.70 2.027
394.80 2.024
394.90 2.02
395.00 2.017
395.10 2.014
395.20 2.01
395.30 2.007
395.40 2.003
395.50 1.999
395.60 1.996
395.70 1.992
395.80 1.988
395.90 1.984
396.00 1.981
396.10 1.977
396.20 1.973
396.30 1.969
396.40 1.965
396.50 1.961
396.60 1.958
396.70 1.954
396.80 1.951
396.90 1.947
397.00 1.944
397.10 1.945
397.20 1.946
397.30 1.947
397.40 1.948
397.50 1.95
397.60 1.951
397.70 1.953
397.80 1.954
397.90 1.956
398.00 1.958
398.10 1.959
398.20 1.961
398.30 1.962
398.40 1.964
398.50 1.965
398.60 1.966
398.70 1.968
398.80 1.969
398.90 1.97
399.00 1.971
399.10 1.972
399.20 1.973
399.30 1.974
399.40 1.975
399.50 1.976
399.60 1.977
399.70 1.977
399.80 1.978
399.90 1.978
400.00 1.979
400.10 1.979
400.20 1.979
400.30 1.979
400.40 1.98
400.50 1.98
400.60 1.98
400.70 1.98
400.80 1.979
400.90 1.979
401.00 1.979
401.10 1.978
401.20 1.978
401.30 1.977
401.40 1.977
401.50 1.976
401.60 1.975
401.70 1.974
401.80 1.973
401.90 1.972
402.00 1.971
402.10 1.97
402.20 1.969
402.30 1.968
402.40 1.966
402.50 1.965
402.60 1.963
402.70 1.961
402.80 1.96
402.90 1.958
403.00 1.956
403.10 1.954
403.20 1.952
403.30 1.95
403.40 1.948
403.50 1.945
403.60 1.943
403.70 1.94
403.80 1.938
403.90 1.935
404.00 1.932
404.10 1.93
404.20 1.927
404.30 1.924
404.40 1.921
404.50 1.917
404.60 1.914
404.70 1.911
404.80 1.907
404.90 1.904
405.00 1.9
405.10 1.896
405.20 1.892
405.30 1.889
405.40 1.884
405.50 1.88
405.60 1.876
405.70 1.872
405.80 1.867
405.90 1.863
406.00 1.858
406.10 1.853
406.20 1.848
406.30 1.844
406.40 1.838
406.50 1.833
406.60 1.828
406.70 1.823
406.80 1.817
406.90 1.811
407.00 1.806
407.10 1.8
407.20 1.794
407.30 1.788
407.40 1.782
407.50 1.775
407.60 1.769
407.70 1.763
407.80 1.756
407.90 1.749
408.00 1.743
408.10 1.736
408.20 1.729
408.30 1.722
408.40 1.715
408.50 1.707
408.60 1.7
408.70 1.693
408.80 1.685
408.90 1.678
409.00 1.671
409.10 1.664
409.20 1.656
409.30 1.649
409.40 1.642
409.50 1.636
409.60 1.629
409.70 1.624
409.80 1.619
409.90 1.614
410.00 1.612
410.10 1.611
410.20 1.611
410.30 1.609
410.40 1.609
410.50 1.61
410.60 1.612
410.70 1.615
410.80 1.619
410.90 1.624
411.00 1.628
411.10 1.633
411.20 1.638
411.30 1.643
411.40 1.648
411.50 1.653
411.60 1.658
411.70 1.663
411.80 1.668
411.90 1.673
412.00 1.678
412.10 1.683
412.20 1.687
412.30 1.692
412.40 1.697
412.50 1.701
412.60 1.705
412.70 1.71
412.80 1.714
412.90 1.718
413.00 1.722
413.10 1.726
413.20 1.729
413.30 1.733
413.40 1.736
413.50 1.74
413.60 1.743
413.70 1.746
413.80 1.75
413.90 1.753
414.00 1.756
414.10 1.758
414.20 1.761
414.30 1.764
414.40 1.766
414.50 1.769
414.60 1.771
414.70 1.773
414.80 1.776
414.90 1.778
415.00 1.78
415.10 1.782
415.20 1.784
415.30 1.786
415.40 1.787
415.50 1.789
415.60 1.791
415.70 1.792
415.80 1.793
415.90 1.795
416.00 1.796
416.10 1.797
416.20 1.798
416.30 1.8
416.40 1.801
416.50 1.801
416.60 1.802
416.70 1.803
416.80 1.804
416.90 1.805
417.00 1.805
417.10 1.806
417.20 1.806
417.30 1.807
417.40 1.807
417.50 1.808
417.60 1.808
417.70 1.808
417.80 1.808
417.90 1.808
418.00 1.808
418.10 1.808
418.20 1.808
418.30 1.808
418.40 1.808
418.50 1.808
418.60 1.808
418.70 1.808
418.80 1.807
418.90 1.807
419.00 1.806
419.10 1.806
419.20 1.805
419.30 1.805
419.40 1.804
419.50 1.804
419.60 1.803
419.70 1.802
419.80 1.802
419.90 1.801
420.00 1.8
420.10 1.799
420.20 1.798
420.30 1.797
420.40 1.796
420.50 1.795
420.60 1.794
420.70 1.793
420.80 1.792
420.90 1.79
421.00 1.789
421.10 1.788
421.20 1.786
421.30 1.785
421.40 1.784
421.50 1.782
421.60 1.781
421.70 1.779
421.80 1.778
421.90 1.776
422.00 1.774
422.10 1.773
422.20 1.771
422.30 1.769
422.40 1.767
422.50 1.765
422.60 1.764
422.70 1.762
422.80 1.76
422.90 1.758
423.00 1.756
423.10 1.753
423.20 1.751
423.30 1.749
423.40 1.747
423.50 1.745
423.60 1.742
423.70 1.74
423.80 1.738
423.90 1.735
424.00 1.733
424.10 1.73
424.20 1.727
424.30 1.725
424.40 1.722
424.50 1.719
424.60 1.717
424.70 1.714
424.80 1.711
424.90 1.708
425.00 1.705
425.10 1.702
425.20 1.699
425.30 1.696
425.40 1.693
425.50 1.689
425.60 1.686
425.70 1.683
425.80 1.679
425.90 1.676
426.00 1.673
426.10 1.669
426.20 1.665
426.30 1.662
426.40 1.658
426.50 1.654
426.60 1.65
426.70 1.646
426.80 1.642
426.90 1.638
427.00 1.634
427.10 1.63
427.20 1.626
427.30 1.621
427.40 1.617
427.50 1.612
427.60 1.608
427.70 1.603
427.80 1.599
427.90 1.594
428.00 1.589
428.10 1.584
428.20 1.579
428.30 1.574
428.40 1.569
428.50 1.564
428.60 1.558
428.70 1.553
428.80 1.548
428.90 1.542
429.00 1.536
429.10 1.531
429.20 1.525
429.30 1.519
429.40 1.513
429.50 1.507
429.60 1.501
429.70 1.495
429.80 1.488
429.90 1.482
430.00 1.475
430.10 1.468
430.20 1.462
430.30 1.455
430.40 1.448
430.50 1.441
430.60 1.434
430.70 1.426
430.80 1.419
430.90 1.411
431.00 1.404
431.10 1.396
431.20 1.388
431.30 1.38
431.40 1.372
431.50 1.364
431.60 1.356
431.70 1.347
431.80 1.338
431.90 1.33
432.00 1.321
432.10 1.312
432.20 1.303
432.30 1.293
432.40 1.284
432.50 1.274
432.60 1.264
432.70 1.255
432.80 1.244
432.90 1.234
433.00 1.224
433.10 1.213
433.20 1.203
433.30 1.192
433.40 1.18
433.50 1.169
433.60 1.157
433.70 1.144
433.80 1.129
433.90 1.113
434.00 1.094
434.10 1.094
434.20 1.112
434.30 1.126
434.40 1.139
434.50 1.151
434.60 1.161
434.70 1.171
434.80 1.18
434.90 1.19
435.00 1.199
435.10 1.207
435.20 1.216
435.30 1.224
435.40 1.232
435.50 1.24
435.60 1.248
435.70 1.256
435.80 1.263
435.90 1.27
436.00 1.278
436.10 1.285
436.20 1.291
436.30 1.298
436.40 1.304
436.50 1.311
436.60 1.317
436.70 1.323
436.80 1.329
436.90 1.335
437.00 1.341
437.10 1.346
437.20 1.351
437.30 1.357
437.40 1.362
437.50 1.367
437.60 1.372
437.70 1.377
437.80 1.381
437.90 1.386
438.00 1.39
438.10 1.395
438.20 1.399
438.30 1.403
438.40 1.407
438.50 1.411
438.60 1.415
438.70 1.418
438.80 1.422
438.90 1.426
439.00 1.429
439.10 1.432
439.20 1.436
439.30 1.439
439.40 1.442
439.50 1.445
439.60 1.448
439.70 1.451
439.80 1.453
439.90 1.456
440.00 1.459
440.10 1.461
440.20 1.464
440.30 1.466
440.40 1.468
440.50 1.471
440.60 1.473
440.70 1.475
440.80 1.477
440.90 1.479
441.00 1.481
441.10 1.482
441.20 1.484
441.30 1.486
441.40 1.488
441.50 1.489
441.60 1.491
441.70 1.492
441.80 1.493
441.90 1.495
442.00 1.496
442.10 1.497
442.20 1.498
442.30 1.5
442.40 1.501
442.50 1.502
442.60 1.503
442.70 1.504
442.80 1.505
442.90 1.505
443.00 1.506
443.10 1.507
443.20 1.508
443.30 1.508
443.40 1.509
443.50 1.51
443.60 1.51
443.70 1.511
443.80 1.511
443.90 1.512
444.00 1.512
444.10 1.512
444.20 1.513
444.30 1.513
444.40 1.513
444.50 1.514
444.60 1.514
444.70 1.514
444.80 1.514
444.90 1.514
445.00 1.514
445.10 1.514
445.20 1.514
445.30 1.514
445.40 1.514
445.50 1.514
445.60 1.514
445.70 1.514
445.80 1.514
445.90 1.514
446.00 1.514
446.10 1.514
446.20 1.513
446.30 1.513
446.40 1.513
446.50 1.513
446.60 1.512
446.70 1.512
446.80 1.512
446.90 1.511
447.00 1.511
447.10 1.511
447.20 1.51
447.30 1.51
447.40 1.509
447.50 1.509
447.60 1.509
447.70 1.508
447.80 1.508
447.90 1.507
448.00 1.507
448.10 1.506
448.20 1.505
448.30 1.505
448.40 1.504
448.50 1.504
448.60 1.503
448.70 1.503
448.80 1.502
448.90 1.501
449.00 1.501
449.10 1.5
449.20 1.499
449.30 1.499
449.40 1.498
449.50 1.497
449.60 1.496
449.70 1.496
449.80 1.495
449.90 1.494
450.00 1.493
450.10 1.493
450.20 1.492
450.30 1.491
450.40 1.49
450.50 1.49
450.60 1.489
450.70 1.488
450.80 1.487
450.90 1.486
451.00 1.485
451.10 1.485
451.20 1.484
451.30 1.483
451.40 1.482
451.50 1.481
451.60 1.48
451.70 1.479
451.80 1.478
451.90 1.478
452.00 1.477
452.10 1.476
452.20 1.475
452.30 1.474
452.40 1.473
452.50 1.472
452.60 1.471
452.70 1.47
452.80 1.469
452.90 1.468
453.00 1.467
453.10 1.466
453.20 1.465
453.30 1.464
453.40 1.463
453.50 1.462
453.60 1.461
453.70 1.46
453.80 1.459
453.90 1.458
454.00 1.457
454.10 1.456
