# Version 2.1 - nm, norm@500 to 1, cut digits, bergeron_4000_90.dat_4000
# Wavelength(nm)  Flambda(ergs/cm^s/s/nm)
300.00 0.2091
300.10 0.2095
300.20 0.2099
300.30 0.2102
300.40 0.2106
300.50 0.2109
300.60 0.2113
300.70 0.2117
300.80 0.212
300.90 0.2124
301.00 0.2127
301.10 0.2131
301.20 0.2135
301.30 0.2138
301.40 0.2142
301.50 0.2145
301.60 0.2149
301.70 0.2152
301.80 0.2156
301.90 0.2159
302.00 0.2163
302.10 0.2167
302.20 0.217
302.30 0.2174
302.40 0.2178
302.50 0.2181
302.60 0.2185
302.70 0.2189
302.80 0.2192
302.90 0.2196
303.00 0.22
303.10 0.2203
303.20 0.2207
303.30 0.221
303.40 0.2214
303.50 0.2218
303.60 0.2221
303.70 0.2225
303.80 0.2228
303.90 0.2232
304.00 0.2236
304.10 0.2239
304.20 0.2243
304.30 0.2247
304.40 0.2251
304.50 0.2254
304.60 0.2258
304.70 0.2262
304.80 0.2265
304.90 0.2269
305.00 0.2273
305.10 0.2276
305.20 0.228
305.30 0.2284
305.40 0.2287
305.50 0.2291
305.60 0.2295
305.70 0.2298
305.80 0.2302
305.90 0.2306
306.00 0.2309
306.10 0.2313
306.20 0.2317
306.30 0.2321
306.40 0.2324
306.50 0.2328
306.60 0.2332
306.70 0.2336
306.80 0.234
306.90 0.2343
307.00 0.2347
307.10 0.2351
307.20 0.2354
307.30 0.2358
307.40 0.2362
307.50 0.2366
307.60 0.2369
307.70 0.2373
307.80 0.2377
307.90 0.238
308.00 0.2384
308.10 0.2388
308.20 0.2392
308.30 0.2396
308.40 0.2399
308.50 0.2403
308.60 0.2407
308.70 0.2411
308.80 0.2415
308.90 0.2418
309.00 0.2422
309.10 0.2426
309.20 0.243
309.30 0.2434
309.40 0.2437
309.50 0.2441
309.60 0.2445
309.70 0.2449
309.80 0.2452
309.90 0.2456
310.00 0.246
310.10 0.2464
310.20 0.2468
310.30 0.2471
310.40 0.2475
310.50 0.2479
310.60 0.2483
310.70 0.2487
310.80 0.2491
310.90 0.2495
311.00 0.2498
311.10 0.2502
311.20 0.2506
311.30 0.251
311.40 0.2514
311.50 0.2518
311.60 0.2521
311.70 0.2525
311.80 0.2529
311.90 0.2533
312.00 0.2537
312.10 0.254
312.20 0.2544
312.30 0.2548
312.40 0.2552
312.50 0.2556
312.60 0.256
312.70 0.2564
312.80 0.2567
312.90 0.2571
313.00 0.2575
313.10 0.2579
313.20 0.2583
313.30 0.2587
313.40 0.2591
313.50 0.2595
313.60 0.2598
313.70 0.2602
313.80 0.2606
313.90 0.261
314.00 0.2614
314.10 0.2618
314.20 0.2622
314.30 0.2626
314.40 0.263
314.50 0.2634
314.60 0.2638
314.70 0.2642
314.80 0.2645
314.90 0.2649
315.00 0.2653
315.10 0.2657
315.20 0.2661
315.30 0.2665
315.40 0.2669
315.50 0.2673
315.60 0.2677
315.70 0.2681
315.80 0.2685
315.90 0.2688
316.00 0.2692
316.10 0.2696
316.20 0.27
316.30 0.2704
316.40 0.2708
316.50 0.2712
316.60 0.2716
316.70 0.272
316.80 0.2724
316.90 0.2728
317.00 0.2732
317.10 0.2736
317.20 0.274
317.30 0.2744
317.40 0.2748
317.50 0.2752
317.60 0.2756
317.70 0.276
317.80 0.2764
317.90 0.2768
318.00 0.2772
318.10 0.2776
318.20 0.278
318.30 0.2784
318.40 0.2788
318.50 0.2792
318.60 0.2796
318.70 0.28
318.80 0.2804
318.90 0.2808
319.00 0.2812
319.10 0.2816
319.20 0.282
319.30 0.2824
319.40 0.2828
319.50 0.2832
319.60 0.2836
319.70 0.284
319.80 0.2844
319.90 0.2848
320.00 0.2852
320.10 0.2856
320.20 0.286
320.30 0.2864
320.40 0.2868
320.50 0.2872
320.60 0.2876
320.70 0.288
320.80 0.2884
320.90 0.2888
321.00 0.2892
321.10 0.2896
321.20 0.2901
321.30 0.2905
321.40 0.2909
321.50 0.2913
321.60 0.2917
321.70 0.2921
321.80 0.2925
321.90 0.2929
322.00 0.2933
322.10 0.2937
322.20 0.2941
322.30 0.2945
322.40 0.2949
322.50 0.2953
322.60 0.2957
322.70 0.2961
322.80 0.2965
322.90 0.297
323.00 0.2974
323.10 0.2978
323.20 0.2982
323.30 0.2986
323.40 0.299
323.50 0.2994
323.60 0.2998
323.70 0.3002
323.80 0.3006
323.90 0.301
324.00 0.3014
324.10 0.3018
324.20 0.3022
324.30 0.3027
324.40 0.3031
324.50 0.3035
324.60 0.3039
324.70 0.3043
324.80 0.3047
324.90 0.3051
325.00 0.3056
325.10 0.306
325.20 0.3064
325.30 0.3068
325.40 0.3072
325.50 0.3076
325.60 0.308
325.70 0.3084
325.80 0.3088
325.90 0.3093
326.00 0.3097
326.10 0.3101
326.20 0.3105
326.30 0.3109
326.40 0.3113
326.50 0.3118
326.60 0.3122
326.70 0.3126
326.80 0.313
326.90 0.3134
327.00 0.3138
327.10 0.3143
327.20 0.3147
327.30 0.3151
327.40 0.3155
327.50 0.3159
327.60 0.3163
327.70 0.3167
327.80 0.3171
327.90 0.3176
328.00 0.318
328.10 0.3184
328.20 0.3188
328.30 0.3192
328.40 0.3197
328.50 0.3201
328.60 0.3205
328.70 0.3209
328.80 0.3213
328.90 0.3218
329.00 0.3222
329.10 0.3226
329.20 0.323
329.30 0.3234
329.40 0.3238
329.50 0.3243
329.60 0.3247
329.70 0.3251
329.80 0.3255
329.90 0.3259
330.00 0.3263
330.10 0.3268
330.20 0.3272
330.30 0.3276
330.40 0.328
330.50 0.3285
330.60 0.3289
330.70 0.3293
330.80 0.3297
330.90 0.3302
331.00 0.3306
331.10 0.331
331.20 0.3314
331.30 0.3318
331.40 0.3323
331.50 0.3327
331.60 0.3331
331.70 0.3335
331.80 0.3339
331.90 0.3343
332.00 0.3348
332.10 0.3352
332.20 0.3356
332.30 0.336
332.40 0.3365
332.50 0.3369
332.60 0.3373
332.70 0.3378
332.80 0.3382
332.90 0.3386
333.00 0.339
333.10 0.3395
333.20 0.3399
333.30 0.3403
333.40 0.3407
333.50 0.3412
333.60 0.3416
333.70 0.342
333.80 0.3424
333.90 0.3428
334.00 0.3433
334.10 0.3437
334.20 0.3441
334.30 0.3446
334.40 0.345
334.50 0.3454
334.60 0.3459
334.70 0.3463
334.80 0.3467
334.90 0.3471
335.00 0.3476
335.10 0.348
335.20 0.3484
335.30 0.3488
335.40 0.3493
335.50 0.3497
335.60 0.3501
335.70 0.3505
335.80 0.351
335.90 0.3514
336.00 0.3518
336.10 0.3522
336.20 0.3527
336.30 0.3531
336.40 0.3536
336.50 0.354
336.60 0.3544
336.70 0.3549
336.80 0.3553
336.90 0.3557
337.00 0.3561
337.10 0.3566
337.20 0.357
337.30 0.3574
337.40 0.3579
337.50 0.3583
337.60 0.3587
337.70 0.3592
337.80 0.3596
337.90 0.36
338.00 0.3604
338.10 0.3609
338.20 0.3613
338.30 0.3617
338.40 0.3622
338.50 0.3626
338.60 0.3631
338.70 0.3635
338.80 0.3639
338.90 0.3644
339.00 0.3648
339.10 0.3652
339.20 0.3657
339.30 0.3661
339.40 0.3665
339.50 0.3669
339.60 0.3674
339.70 0.3678
339.80 0.3682
339.90 0.3687
340.00 0.3691
340.10 0.3695
340.20 0.37
340.30 0.3704
340.40 0.3708
340.50 0.3713
340.60 0.3717
340.70 0.3722
340.80 0.3726
340.90 0.373
341.00 0.3735
341.10 0.3739
341.20 0.3743
341.30 0.3748
341.40 0.3752
341.50 0.3756
341.60 0.3761
341.70 0.3765
341.80 0.3769
341.90 0.3774
342.00 0.3778
342.10 0.3782
342.20 0.3787
342.30 0.3791
342.40 0.3796
342.50 0.38
342.60 0.3804
342.70 0.3809
342.80 0.3813
342.90 0.3817
343.00 0.3822
343.10 0.3826
343.20 0.3831
343.30 0.3835
343.40 0.3839
343.50 0.3844
343.60 0.3848
343.70 0.3852
343.80 0.3857
343.90 0.3861
344.00 0.3865
344.10 0.387
344.20 0.3874
344.30 0.3879
344.40 0.3883
344.50 0.3888
344.60 0.3892
344.70 0.3896
344.80 0.3901
344.90 0.3905
345.00 0.391
345.10 0.3914
345.20 0.3918
345.30 0.3923
345.40 0.3927
345.50 0.3932
345.60 0.3936
345.70 0.394
345.80 0.3945
345.90 0.3949
346.00 0.3953
346.10 0.3958
346.20 0.3962
346.30 0.3967
346.40 0.3971
346.50 0.3976
346.60 0.398
346.70 0.3985
346.80 0.3989
346.90 0.3993
347.00 0.3998
347.10 0.4002
347.20 0.4007
347.30 0.4011
347.40 0.4015
347.50 0.402
347.60 0.4024
347.70 0.4029
347.80 0.4033
347.90 0.4037
348.00 0.4042
348.10 0.4046
348.20 0.4051
348.30 0.4055
348.40 0.406
348.50 0.4064
348.60 0.4068
348.70 0.4073
348.80 0.4077
348.90 0.4082
349.00 0.4086
349.10 0.4091
349.20 0.4095
349.30 0.4099
349.40 0.4104
349.50 0.4108
349.60 0.4113
349.70 0.4117
349.80 0.4121
349.90 0.4126
350.00 0.413
350.10 0.4135
350.20 0.4139
350.30 0.4144
350.40 0.4148
350.50 0.4153
350.60 0.4157
350.70 0.4162
350.80 0.4166
350.90 0.4171
351.00 0.4175
351.10 0.4179
351.20 0.4184
351.30 0.4188
351.40 0.4193
351.50 0.4197
351.60 0.4202
351.70 0.4206
351.80 0.421
351.90 0.4215
352.00 0.4219
352.10 0.4224
352.20 0.4228
352.30 0.4233
352.40 0.4237
352.50 0.4242
352.60 0.4246
352.70 0.4251
352.80 0.4255
352.90 0.426
353.00 0.4264
353.10 0.4269
353.20 0.4273
353.30 0.4277
353.40 0.4282
353.50 0.4286
353.60 0.4291
353.70 0.4295
353.80 0.43
353.90 0.4304
354.00 0.4308
354.10 0.4313
354.20 0.4317
354.30 0.4322
354.40 0.4326
354.50 0.4331
354.60 0.4335
354.70 0.434
354.80 0.4344
354.90 0.4349
355.00 0.4353
355.10 0.4358
355.20 0.4362
355.30 0.4367
355.40 0.4371
355.50 0.4376
355.60 0.438
355.70 0.4385
355.80 0.4389
355.90 0.4393
356.00 0.4398
356.10 0.4402
356.20 0.4407
356.30 0.4412
356.40 0.4416
356.50 0.4421
356.60 0.4425
356.70 0.443
356.80 0.4434
356.90 0.4439
357.00 0.4443
357.10 0.4448
357.20 0.4452
357.30 0.4456
357.40 0.4461
357.50 0.4465
357.60 0.447
357.70 0.4474
357.80 0.4479
357.90 0.4483
358.00 0.4488
358.10 0.4492
358.20 0.4497
358.30 0.4501
358.40 0.4506
358.50 0.451
358.60 0.4515
358.70 0.4519
358.80 0.4524
358.90 0.4528
359.00 0.4533
359.10 0.4537
359.20 0.4542
359.30 0.4546
359.40 0.4551
359.50 0.4555
359.60 0.456
359.70 0.4564
359.80 0.4569
359.90 0.4573
360.00 0.4578
360.10 0.4582
360.20 0.4587
360.30 0.4591
360.40 0.4596
360.50 0.46
360.60 0.4605
360.70 0.4609
360.80 0.4614
360.90 0.4618
361.00 0.4623
361.10 0.4627
361.20 0.4632
361.30 0.4636
361.40 0.4641
361.50 0.4645
361.60 0.465
361.70 0.4654
361.80 0.4659
361.90 0.4663
362.00 0.4668
362.10 0.4672
362.20 0.4677
362.30 0.4681
362.40 0.4686
362.50 0.469
362.60 0.4695
362.70 0.4699
362.80 0.4704
362.90 0.4708
363.00 0.4713
363.10 0.4717
363.20 0.4722
363.30 0.4726
363.40 0.4731
363.50 0.4736
363.60 0.474
363.70 0.4745
363.80 0.4749
363.90 0.4754
364.00 0.4758
364.10 0.4763
364.20 0.4767
364.30 0.4772
364.40 0.4776
364.50 0.4781
364.60 0.4785
364.70 0.479
364.80 0.4794
364.90 0.4799
365.00 0.4803
365.10 0.4808
365.20 0.4812
365.30 0.4817
365.40 0.4821
365.50 0.4826
365.60 0.483
365.70 0.4835
365.80 0.4839
365.90 0.4844
366.00 0.4848
366.10 0.4853
366.20 0.4857
366.30 0.4862
366.40 0.4867
366.50 0.4871
366.60 0.4876
366.70 0.488
366.80 0.4885
366.90 0.4889
367.00 0.4894
367.10 0.4898
367.20 0.4903
367.30 0.4907
367.40 0.4912
367.50 0.4916
367.60 0.4921
367.70 0.4925
367.80 0.493
367.90 0.4934
368.00 0.4939
368.10 0.4943
368.20 0.4948
368.30 0.4952
368.40 0.4957
368.50 0.4961
368.60 0.4966
368.70 0.4971
368.80 0.4975
368.90 0.498
369.00 0.4984
369.10 0.4989
369.20 0.4993
369.30 0.4998
369.40 0.5002
369.50 0.5007
369.60 0.5011
369.70 0.5016
369.80 0.502
369.90 0.5025
370.00 0.5029
370.10 0.5034
370.20 0.5038
370.30 0.5043
370.40 0.5047
370.50 0.5052
370.60 0.5056
370.70 0.5061
370.80 0.5066
370.90 0.507
371.00 0.5075
371.10 0.5079
371.20 0.5084
371.30 0.5088
371.40 0.5093
371.50 0.5097
371.60 0.5102
371.70 0.5106
371.80 0.5111
371.90 0.5115
372.00 0.512
372.10 0.5124
372.20 0.5129
372.30 0.5133
372.40 0.5138
372.50 0.5143
372.60 0.5147
372.70 0.5152
372.80 0.5156
372.90 0.5161
373.00 0.5165
373.10 0.517
373.20 0.5174
373.30 0.5179
373.40 0.5183
373.50 0.5188
373.60 0.5192
373.70 0.5197
373.80 0.5201
373.90 0.5206
374.00 0.521
374.10 0.5215
374.20 0.5219
374.30 0.5224
374.40 0.5228
374.50 0.5233
374.60 0.5237
374.70 0.5242
374.80 0.5247
374.90 0.5251
375.00 0.5256
375.10 0.526
375.20 0.5265
375.30 0.5269
375.40 0.5274
375.50 0.5278
375.60 0.5283
375.70 0.5287
375.80 0.5292
375.90 0.5296
376.00 0.5301
376.10 0.5305
376.20 0.531
376.30 0.5314
376.40 0.5319
376.50 0.5323
376.60 0.5328
376.70 0.5332
376.80 0.5337
376.90 0.5341
377.00 0.5346
377.10 0.535
377.20 0.5355
377.30 0.5359
377.40 0.5364
377.50 0.5368
377.60 0.5373
377.70 0.5378
377.80 0.5382
377.90 0.5387
378.00 0.5391
378.10 0.5396
378.20 0.54
378.30 0.5405
378.40 0.5409
378.50 0.5414
378.60 0.5418
378.70 0.5423
378.80 0.5427
378.90 0.5432
379.00 0.5436
379.10 0.5441
379.20 0.5445
379.30 0.545
379.40 0.5454
379.50 0.5459
379.60 0.5463
379.70 0.5468
379.80 0.5472
379.90 0.5477
380.00 0.5481
380.10 0.5486
380.20 0.549
380.30 0.5495
380.40 0.5499
380.50 0.5504
380.60 0.5508
380.70 0.5513
380.80 0.5517
380.90 0.5522
381.00 0.5526
381.10 0.5531
381.20 0.5535
381.30 0.554
381.40 0.5544
381.50 0.5549
381.60 0.5553
381.70 0.5558
381.80 0.5562
381.90 0.5567
382.00 0.5571
382.10 0.5576
382.20 0.5581
382.30 0.5585
382.40 0.559
382.50 0.5594
382.60 0.5599
382.70 0.5603
382.80 0.5608
382.90 0.5612
383.00 0.5617
383.10 0.5621
383.20 0.5626
383.30 0.563
383.40 0.5634
383.50 0.5639
383.60 0.5643
383.70 0.5648
383.80 0.5652
383.90 0.5657
384.00 0.5661
384.10 0.5666
384.20 0.5671
384.30 0.5675
384.40 0.568
384.50 0.5684
384.60 0.5688
384.70 0.5693
384.80 0.5697
384.90 0.5702
385.00 0.5706
385.10 0.5711
385.20 0.5715
385.30 0.572
385.40 0.5724
385.50 0.5729
385.60 0.5733
385.70 0.5738
385.80 0.5742
385.90 0.5747
386.00 0.5751
386.10 0.5756
386.20 0.576
386.30 0.5765
386.40 0.5769
386.50 0.5774
386.60 0.5778
386.70 0.5783
386.80 0.5787
386.90 0.5792
387.00 0.5796
387.10 0.5801
387.20 0.5805
387.30 0.581
387.40 0.5814
387.50 0.5818
387.60 0.5823
387.70 0.5828
387.80 0.5832
387.90 0.5836
388.00 0.5841
388.10 0.5845
388.20 0.585
388.30 0.5854
388.40 0.5859
388.50 0.5863
388.60 0.5868
388.70 0.5872
388.80 0.5877
388.90 0.5881
389.00 0.5886
389.10 0.589
389.20 0.5895
389.30 0.5899
389.40 0.5904
389.50 0.5908
389.60 0.5912
389.70 0.5917
389.80 0.5922
389.90 0.5926
390.00 0.593
390.10 0.5935
390.20 0.5939
390.30 0.5944
390.40 0.5948
390.50 0.5953
390.60 0.5957
390.70 0.5962
390.80 0.5966
390.90 0.5971
391.00 0.5975
391.10 0.598
391.20 0.5984
391.30 0.5988
391.40 0.5993
391.50 0.5997
391.60 0.6002
391.70 0.6006
391.80 0.6011
391.90 0.6015
392.00 0.602
392.10 0.6024
392.20 0.6029
392.30 0.6033
392.40 0.6037
392.50 0.6042
392.60 0.6046
392.70 0.6051
392.80 0.6055
392.90 0.606
393.00 0.6064
393.10 0.6069
393.20 0.6073
393.30 0.6077
393.40 0.6082
393.50 0.6086
393.60 0.6091
393.70 0.6095
393.80 0.61
393.90 0.6104
394.00 0.6109
394.10 0.6113
394.20 0.6117
394.30 0.6122
394.40 0.6126
394.50 0.6131
394.60 0.6135
394.70 0.614
394.80 0.6144
394.90 0.6148
395.00 0.6153
395.10 0.6157
395.20 0.6162
395.30 0.6166
395.40 0.6171
395.50 0.6175
395.60 0.6179
395.70 0.6184
395.80 0.6188
395.90 0.6193
396.00 0.6197
396.10 0.6202
396.20 0.6206
396.30 0.621
396.40 0.6215
396.50 0.6219
396.60 0.6224
396.70 0.6228
396.80 0.6233
396.90 0.6237
397.00 0.6241
397.10 0.6246
397.20 0.625
397.30 0.6255
397.40 0.6259
397.50 0.6263
397.60 0.6268
397.70 0.6272
397.80 0.6277
397.90 0.6281
398.00 0.6285
398.10 0.629
398.20 0.6294
398.30 0.6299
398.40 0.6303
398.50 0.6307
398.60 0.6312
398.70 0.6316
398.80 0.6321
398.90 0.6325
399.00 0.6329
399.10 0.6334
399.20 0.6338
399.30 0.6343
399.40 0.6347
399.50 0.6352
399.60 0.6356
399.70 0.636
399.80 0.6365
399.90 0.6369
400.00 0.6373
400.10 0.6378
400.20 0.6382
400.30 0.6387
400.40 0.6391
400.50 0.6395
400.60 0.64
400.70 0.6404
400.80 0.6409
400.90 0.6413
401.00 0.6417
401.10 0.6422
401.20 0.6426
401.30 0.643
401.40 0.6435
401.50 0.6439
401.60 0.6444
401.70 0.6448
401.80 0.6452
401.90 0.6457
402.00 0.6461
402.10 0.6465
402.20 0.647
402.30 0.6474
402.40 0.6479
402.50 0.6483
402.60 0.6487
402.70 0.6492
402.80 0.6496
402.90 0.65
403.00 0.6505
403.10 0.6509
403.20 0.6513
403.30 0.6518
403.40 0.6522
403.50 0.6527
403.60 0.6531
403.70 0.6535
403.80 0.654
403.90 0.6544
404.00 0.6548
404.10 0.6553
404.20 0.6557
404.30 0.6561
404.40 0.6566
404.50 0.657
404.60 0.6574
404.70 0.6579
404.80 0.6583
404.90 0.6587
405.00 0.6592
405.10 0.6596
405.20 0.6601
405.30 0.6605
405.40 0.6609
405.50 0.6613
405.60 0.6618
405.70 0.6622
405.80 0.6627
405.90 0.6631
406.00 0.6635
406.10 0.664
406.20 0.6644
406.30 0.6648
406.40 0.6652
406.50 0.6657
406.60 0.6661
406.70 0.6665
406.80 0.667
406.90 0.6674
407.00 0.6678
407.10 0.6683
407.20 0.6687
407.30 0.6691
407.40 0.6696
407.50 0.67
407.60 0.6704
407.70 0.6709
407.80 0.6713
407.90 0.6717
408.00 0.6722
408.10 0.6726
408.20 0.673
408.30 0.6734
408.40 0.6739
408.50 0.6743
408.60 0.6747
408.70 0.6752
408.80 0.6756
408.90 0.676
409.00 0.6765
409.10 0.6769
409.20 0.6773
409.30 0.6778
409.40 0.6782
409.50 0.6786
409.60 0.679
409.70 0.6795
409.80 0.6799
409.90 0.6803
410.00 0.6808
410.10 0.6812
410.20 0.6816
410.30 0.682
410.40 0.6825
410.50 0.6829
410.60 0.6833
410.70 0.6838
410.80 0.6842
410.90 0.6846
411.00 0.685
411.10 0.6855
411.20 0.6859
411.30 0.6863
411.40 0.6868
411.50 0.6872
411.60 0.6876
411.70 0.688
411.80 0.6885
411.90 0.6889
412.00 0.6893
412.10 0.6897
412.20 0.6902
412.30 0.6906
412.40 0.691
412.50 0.6914
412.60 0.6919
412.70 0.6923
412.80 0.6927
412.90 0.6931
413.00 0.6936
413.10 0.694
413.20 0.6944
413.30 0.6948
413.40 0.6953
413.50 0.6957
413.60 0.6961
413.70 0.6965
413.80 0.697
413.90 0.6974
414.00 0.6978
414.10 0.6982
414.20 0.6987
414.30 0.6991
414.40 0.6995
414.50 0.6999
414.60 0.7004
414.70 0.7008
414.80 0.7012
414.90 0.7016
415.00 0.702
415.10 0.7025
415.20 0.7029
415.30 0.7033
415.40 0.7037
415.50 0.7042
415.60 0.7046
415.70 0.705
415.80 0.7054
415.90 0.7059
416.00 0.7063
416.10 0.7067
416.20 0.7071
416.30 0.7075
416.40 0.708
416.50 0.7084
416.60 0.7088
416.70 0.7092
416.80 0.7096
416.90 0.7101
417.00 0.7105
417.10 0.7109
417.20 0.7113
417.30 0.7117
417.40 0.7122
417.50 0.7126
417.60 0.713
417.70 0.7134
417.80 0.7138
417.90 0.7143
418.00 0.7147
418.10 0.7151
418.20 0.7155
418.30 0.7159
418.40 0.7164
418.50 0.7168
418.60 0.7172
418.70 0.7176
418.80 0.718
418.90 0.7184
419.00 0.7189
419.10 0.7193
419.20 0.7197
419.30 0.7201
419.40 0.7205
419.50 0.7209
419.60 0.7214
419.70 0.7218
419.80 0.7222
419.90 0.7226
420.00 0.723
420.10 0.7234
420.20 0.7239
420.30 0.7243
420.40 0.7247
420.50 0.7251
420.60 0.7255
420.70 0.7259
420.80 0.7264
420.90 0.7268
421.00 0.7272
421.10 0.7276
421.20 0.728
421.30 0.7284
421.40 0.7288
421.50 0.7293
421.60 0.7297
421.70 0.7301
421.80 0.7305
421.90 0.7309
422.00 0.7313
422.10 0.7317
422.20 0.7322
422.30 0.7326
422.40 0.733
422.50 0.7334
422.60 0.7338
422.70 0.7342
422.80 0.7346
422.90 0.735
423.00 0.7355
423.10 0.7359
423.20 0.7363
423.30 0.7367
423.40 0.7371
423.50 0.7375
423.60 0.7379
423.70 0.7383
423.80 0.7387
423.90 0.7392
424.00 0.7396
424.10 0.74
424.20 0.7404
424.30 0.7408
424.40 0.7412
424.50 0.7416
424.60 0.742
424.70 0.7424
424.80 0.7429
424.90 0.7433
425.00 0.7437
425.10 0.7441
425.20 0.7445
425.30 0.7449
425.40 0.7453
425.50 0.7457
425.60 0.7461
425.70 0.7465
425.80 0.7469
425.90 0.7473
426.00 0.7478
426.10 0.7482
426.20 0.7486
426.30 0.749
426.40 0.7494
426.50 0.7498
426.60 0.7502
426.70 0.7506
426.80 0.751
426.90 0.7514
427.00 0.7518
427.10 0.7522
427.20 0.7526
427.30 0.753
427.40 0.7535
427.50 0.7539
427.60 0.7543
427.70 0.7547
427.80 0.7551
427.90 0.7555
428.00 0.7559
428.10 0.7563
428.20 0.7567
428.30 0.7571
428.40 0.7575
428.50 0.7579
428.60 0.7583
428.70 0.7587
428.80 0.7591
428.90 0.7595
429.00 0.7599
429.10 0.7603
429.20 0.7607
429.30 0.7611
429.40 0.7615
429.50 0.7619
429.60 0.7623
429.70 0.7627
429.80 0.7631
429.90 0.7635
430.00 0.7639
430.10 0.7643
430.20 0.7647
430.30 0.7651
430.40 0.7655
430.50 0.7659
430.60 0.7663
430.70 0.7667
430.80 0.7671
430.90 0.7675
431.00 0.768
431.10 0.7684
431.20 0.7688
431.30 0.7691
431.40 0.7695
431.50 0.77
431.60 0.7703
431.70 0.7707
431.80 0.7711
431.90 0.7715
432.00 0.7719
432.10 0.7723
432.20 0.7727
432.30 0.7731
432.40 0.7735
432.50 0.7739
432.60 0.7743
432.70 0.7747
432.80 0.7751
432.90 0.7755
433.00 0.7759
433.10 0.7763
433.20 0.7767
433.30 0.7771
433.40 0.7775
433.50 0.7779
433.60 0.7783
433.70 0.7787
433.80 0.7791
433.90 0.7795
434.00 0.7799
434.10 0.7803
434.20 0.7807
434.30 0.7811
434.40 0.7815
434.50 0.7819
434.60 0.7823
434.70 0.7826
434.80 0.783
434.90 0.7834
435.00 0.7838
435.10 0.7842
435.20 0.7846
435.30 0.785
435.40 0.7854
435.50 0.7858
435.60 0.7862
435.70 0.7866
435.80 0.787
435.90 0.7874
436.00 0.7877
436.10 0.7881
436.20 0.7885
436.30 0.7889
436.40 0.7893
436.50 0.7897
436.60 0.7901
436.70 0.7905
436.80 0.7909
436.90 0.7913
437.00 0.7917
437.10 0.7921
437.20 0.7924
437.30 0.7928
437.40 0.7932
437.50 0.7936
437.60 0.794
437.70 0.7944
437.80 0.7948
437.90 0.7952
438.00 0.7956
438.10 0.7959
438.20 0.7963
438.30 0.7967
438.40 0.7971
438.50 0.7975
438.60 0.7979
438.70 0.7983
438.80 0.7987
438.90 0.799
439.00 0.7994
439.10 0.7998
439.20 0.8002
439.30 0.8006
439.40 0.801
439.50 0.8014
439.60 0.8018
439.70 0.8021
439.80 0.8025
439.90 0.8029
440.00 0.8033
440.10 0.8037
440.20 0.8041
440.30 0.8045
440.40 0.8048
440.50 0.8052
440.60 0.8056
440.70 0.806
440.80 0.8064
440.90 0.8068
441.00 0.8072
441.10 0.8075
441.20 0.8079
441.30 0.8083
441.40 0.8087
441.50 0.8091
441.60 0.8094
441.70 0.8098
441.80 0.8102
441.90 0.8106
442.00 0.811
442.10 0.8114
442.20 0.8117
442.30 0.8121
442.40 0.8125
442.50 0.8129
442.60 0.8133
442.70 0.8136
442.80 0.814
442.90 0.8144
443.00 0.8148
