# Version 2.1 - nm, norm@500 to 1, cut digits, bergeron_65000_70.dat_65000
# Wavelength(nm)  Flambda(ergs/cm^s/s/nm)
300.00 6.471
300.10 6.463
300.20 6.455
300.30 6.447
300.40 6.44
300.50 6.432
300.60 6.424
300.70 6.416
300.80 6.408
300.90 6.4
301.00 6.392
301.10 6.385
301.20 6.377
301.30 6.369
301.40 6.361
301.50 6.354
301.60 6.346
301.70 6.338
301.80 6.33
301.90 6.323
302.00 6.315
302.10 6.307
302.20 6.299
302.30 6.292
302.40 6.284
302.50 6.277
302.60 6.269
302.70 6.261
302.80 6.254
302.90 6.246
303.00 6.238
303.10 6.231
303.20 6.223
303.30 6.216
303.40 6.208
303.50 6.201
303.60 6.193
303.70 6.186
303.80 6.178
303.90 6.171
304.00 6.163
304.10 6.156
304.20 6.148
304.30 6.141
304.40 6.133
304.50 6.126
304.60 6.119
304.70 6.111
304.80 6.104
304.90 6.096
305.00 6.089
305.10 6.082
305.20 6.074
305.30 6.067
305.40 6.06
305.50 6.052
305.60 6.045
305.70 6.038
305.80 6.031
305.90 6.023
306.00 6.016
306.10 6.009
306.20 6.002
306.30 5.994
306.40 5.987
306.50 5.98
306.60 5.973
306.70 5.966
306.80 5.958
306.90 5.951
307.00 5.944
307.10 5.937
307.20 5.93
307.30 5.923
307.40 5.916
307.50 5.909
307.60 5.902
307.70 5.894
307.80 5.887
307.90 5.88
308.00 5.873
308.10 5.866
308.20 5.859
308.30 5.852
308.40 5.845
308.50 5.838
308.60 5.831
308.70 5.824
308.80 5.817
308.90 5.811
309.00 5.804
309.10 5.797
309.20 5.79
309.30 5.783
309.40 5.776
309.50 5.769
309.60 5.762
309.70 5.755
309.80 5.748
309.90 5.742
310.00 5.735
310.10 5.728
310.20 5.721
310.30 5.714
310.40 5.708
310.50 5.701
310.60 5.694
310.70 5.687
310.80 5.681
310.90 5.674
311.00 5.667
311.10 5.66
311.20 5.654
311.30 5.647
311.40 5.64
311.50 5.634
311.60 5.627
311.70 5.62
311.80 5.614
311.90 5.607
312.00 5.6
312.10 5.594
312.20 5.587
312.30 5.581
312.40 5.574
312.50 5.567
312.60 5.561
312.70 5.554
312.80 5.548
312.90 5.541
313.00 5.535
313.10 5.528
313.20 5.522
313.30 5.515
313.40 5.509
313.50 5.502
313.60 5.496
313.70 5.489
313.80 5.483
313.90 5.476
314.00 5.47
314.10 5.463
314.20 5.457
314.30 5.451
314.40 5.444
314.50 5.438
314.60 5.431
314.70 5.425
314.80 5.419
314.90 5.412
315.00 5.406
315.10 5.4
315.20 5.393
315.30 5.387
315.40 5.381
315.50 5.374
315.60 5.368
315.70 5.362
315.80 5.356
315.90 5.349
316.00 5.343
316.10 5.337
316.20 5.331
316.30 5.324
316.40 5.318
316.50 5.312
316.60 5.306
316.70 5.3
316.80 5.293
316.90 5.287
317.00 5.281
317.10 5.275
317.20 5.269
317.30 5.263
317.40 5.257
317.50 5.25
317.60 5.244
317.70 5.238
317.80 5.232
317.90 5.226
318.00 5.22
318.10 5.214
318.20 5.208
318.30 5.202
318.40 5.196
318.50 5.19
318.60 5.184
318.70 5.178
318.80 5.172
318.90 5.166
319.00 5.16
319.10 5.154
319.20 5.148
319.30 5.142
319.40 5.136
319.50 5.13
319.60 5.124
319.70 5.118
319.80 5.112
319.90 5.106
320.00 5.1
320.10 5.095
320.20 5.089
320.30 5.083
320.40 5.077
320.50 5.071
320.60 5.065
320.70 5.059
320.80 5.054
320.90 5.048
321.00 5.042
321.10 5.036
321.20 5.03
321.30 5.025
321.40 5.019
321.50 5.013
321.60 5.007
321.70 5.002
321.80 4.996
321.90 4.99
322.00 4.984
322.10 4.979
322.20 4.973
322.30 4.967
322.40 4.962
322.50 4.956
322.60 4.95
322.70 4.945
322.80 4.939
322.90 4.933
323.00 4.928
323.10 4.922
323.20 4.916
323.30 4.911
323.40 4.905
323.50 4.899
323.60 4.894
323.70 4.888
323.80 4.883
323.90 4.877
324.00 4.872
324.10 4.866
324.20 4.86
324.30 4.855
324.40 4.849
324.50 4.844
324.60 4.838
324.70 4.833
324.80 4.827
324.90 4.822
325.00 4.816
325.10 4.811
325.20 4.805
325.30 4.8
325.40 4.794
325.50 4.789
325.60 4.784
325.70 4.778
325.80 4.773
325.90 4.767
326.00 4.762
326.10 4.757
326.20 4.751
326.30 4.746
326.40 4.74
326.50 4.735
326.60 4.73
326.70 4.724
326.80 4.719
326.90 4.714
327.00 4.708
327.10 4.703
327.20 4.698
327.30 4.692
327.40 4.687
327.50 4.682
327.60 4.676
327.70 4.671
327.80 4.666
327.90 4.661
328.00 4.655
328.10 4.65
328.20 4.645
328.30 4.64
328.40 4.634
328.50 4.629
328.60 4.624
328.70 4.619
328.80 4.614
328.90 4.608
329.00 4.603
329.10 4.598
329.20 4.593
329.30 4.588
329.40 4.583
329.50 4.577
329.60 4.572
329.70 4.567
329.80 4.562
329.90 4.557
330.00 4.552
330.10 4.547
330.20 4.542
330.30 4.536
330.40 4.531
330.50 4.526
330.60 4.521
330.70 4.516
330.80 4.511
330.90 4.506
331.00 4.501
331.10 4.496
331.20 4.491
331.30 4.486
331.40 4.481
331.50 4.476
331.60 4.471
331.70 4.466
331.80 4.461
331.90 4.456
332.00 4.451
332.10 4.446
332.20 4.441
332.30 4.436
332.40 4.431
332.50 4.426
332.60 4.421
332.70 4.417
332.80 4.412
332.90 4.407
333.00 4.402
333.10 4.397
333.20 4.392
333.30 4.387
333.40 4.382
333.50 4.377
333.60 4.373
333.70 4.368
333.80 4.363
333.90 4.358
334.00 4.353
334.10 4.348
334.20 4.343
334.30 4.339
334.40 4.334
334.50 4.329
334.60 4.324
334.70 4.32
334.80 4.315
334.90 4.31
335.00 4.305
335.10 4.3
335.20 4.296
335.30 4.291
335.40 4.286
335.50 4.281
335.60 4.277
335.70 4.272
335.80 4.267
335.90 4.263
336.00 4.258
336.10 4.253
336.20 4.248
336.30 4.244
336.40 4.239
336.50 4.234
336.60 4.23
336.70 4.225
336.80 4.221
336.90 4.216
337.00 4.211
337.10 4.207
337.20 4.202
337.30 4.197
337.40 4.193
337.50 4.188
337.60 4.184
337.70 4.179
337.80 4.174
337.90 4.17
338.00 4.165
338.10 4.161
338.20 4.156
338.30 4.152
338.40 4.147
338.50 4.142
338.60 4.138
338.70 4.133
338.80 4.129
338.90 4.124
339.00 4.12
339.10 4.115
339.20 4.111
339.30 4.106
339.40 4.102
339.50 4.097
339.60 4.093
339.70 4.088
339.80 4.084
339.90 4.079
340.00 4.075
340.10 4.071
340.20 4.066
340.30 4.062
340.40 4.057
340.50 4.053
340.60 4.049
340.70 4.044
340.80 4.04
340.90 4.035
341.00 4.031
341.10 4.027
341.20 4.022
341.30 4.018
341.40 4.013
341.50 4.009
341.60 4.005
341.70 4
341.80 3.996
341.90 3.992
342.00 3.987
342.10 3.983
342.20 3.979
342.30 3.974
342.40 3.97
342.50 3.966
342.60 3.962
342.70 3.957
342.80 3.953
342.90 3.949
343.00 3.944
343.10 3.94
343.20 3.936
343.30 3.932
343.40 3.927
343.50 3.923
343.60 3.919
343.70 3.915
343.80 3.91
343.90 3.906
344.00 3.902
344.10 3.898
344.20 3.894
344.30 3.889
344.40 3.885
344.50 3.881
344.60 3.877
344.70 3.873
344.80 3.869
344.90 3.864
345.00 3.86
345.10 3.856
345.20 3.852
345.30 3.848
345.40 3.844
345.50 3.839
345.60 3.835
345.70 3.831
345.80 3.827
345.90 3.823
346.00 3.819
346.10 3.815
346.20 3.811
346.30 3.807
346.40 3.803
346.50 3.799
346.60 3.794
346.70 3.79
346.80 3.786
346.90 3.782
347.00 3.778
347.10 3.774
347.20 3.77
347.30 3.766
347.40 3.762
347.50 3.758
347.60 3.754
347.70 3.75
347.80 3.746
347.90 3.742
348.00 3.738
348.10 3.734
348.20 3.73
348.30 3.726
348.40 3.722
348.50 3.718
348.60 3.714
348.70 3.71
348.80 3.706
348.90 3.702
349.00 3.698
349.10 3.695
349.20 3.691
349.30 3.687
349.40 3.683
349.50 3.679
349.60 3.675
349.70 3.671
349.80 3.667
349.90 3.663
350.00 3.659
350.10 3.655
350.20 3.652
350.30 3.648
350.40 3.644
350.50 3.64
350.60 3.636
350.70 3.632
350.80 3.628
350.90 3.625
351.00 3.621
351.10 3.617
351.20 3.613
351.30 3.609
351.40 3.605
351.50 3.602
351.60 3.598
351.70 3.594
351.80 3.59
351.90 3.586
352.00 3.583
352.10 3.579
352.20 3.575
352.30 3.571
352.40 3.568
352.50 3.564
352.60 3.56
352.70 3.556
352.80 3.553
352.90 3.549
353.00 3.545
353.10 3.541
353.20 3.538
353.30 3.534
353.40 3.53
353.50 3.526
353.60 3.523
353.70 3.519
353.80 3.515
353.90 3.512
354.00 3.508
354.10 3.504
354.20 3.501
354.30 3.497
354.40 3.493
354.50 3.49
354.60 3.486
354.70 3.482
354.80 3.479
354.90 3.475
355.00 3.471
355.10 3.468
355.20 3.464
355.30 3.46
355.40 3.457
355.50 3.453
355.60 3.45
355.70 3.446
355.80 3.442
355.90 3.439
356.00 3.435
356.10 3.432
356.20 3.428
356.30 3.424
356.40 3.421
356.50 3.417
356.60 3.414
356.70 3.41
356.80 3.407
356.90 3.403
357.00 3.4
357.10 3.396
357.20 3.393
357.30 3.389
357.40 3.385
357.50 3.382
357.60 3.378
357.70 3.375
357.80 3.371
357.90 3.368
358.00 3.364
358.10 3.361
358.20 3.357
358.30 3.354
358.40 3.35
358.50 3.347
358.60 3.344
358.70 3.34
358.80 3.337
358.90 3.333
359.00 3.33
359.10 3.326
359.20 3.323
359.30 3.319
359.40 3.316
359.50 3.312
359.60 3.309
359.70 3.306
359.80 3.302
359.90 3.299
360.00 3.295
360.10 3.292
360.20 3.289
360.30 3.285
360.40 3.282
360.50 3.278
360.60 3.275
360.70 3.272
360.80 3.268
360.90 3.265
361.00 3.262
361.10 3.258
361.20 3.255
361.30 3.251
361.40 3.248
361.50 3.245
361.60 3.241
361.70 3.238
361.80 3.235
361.90 3.231
362.00 3.228
362.10 3.225
362.20 3.221
362.30 3.218
362.40 3.215
362.50 3.212
362.60 3.208
362.70 3.205
362.80 3.202
362.90 3.198
363.00 3.195
363.10 3.192
363.20 3.189
363.30 3.185
363.40 3.182
363.50 3.179
363.60 3.176
363.70 3.172
363.80 3.169
363.90 3.166
364.00 3.163
364.10 3.159
364.20 3.156
364.30 3.153
364.40 3.15
364.50 3.146
364.60 3.143
364.70 3.14
364.80 3.137
364.90 3.134
365.00 3.13
365.10 3.127
365.20 3.124
365.30 3.121
365.40 3.118
365.50 3.114
365.60 3.111
365.70 3.108
365.80 3.105
365.90 3.102
366.00 3.099
366.10 3.095
366.20 3.092
366.30 3.089
366.40 3.086
366.50 3.082
366.60 3.079
366.70 3.076
366.80 3.073
366.90 3.07
367.00 3.066
367.10 3.063
367.20 3.06
367.30 3.057
367.40 3.054
367.50 3.05
367.60 3.047
367.70 3.044
367.80 3.041
367.90 3.038
368.00 3.034
368.10 3.031
368.20 3.028
368.30 3.025
368.40 3.022
368.50 3.019
368.60 3.016
368.70 3.012
368.80 3.009
368.90 3.006
369.00 3.003
369.10 3
369.20 2.997
369.30 2.994
369.40 2.991
369.50 2.987
369.60 2.984
369.70 2.981
369.80 2.978
369.90 2.975
370.00 2.972
370.10 2.969
370.20 2.966
370.30 2.963
370.40 2.96
370.50 2.957
370.60 2.954
370.70 2.951
370.80 2.948
370.90 2.945
371.00 2.941
371.10 2.938
371.20 2.935
371.30 2.932
371.40 2.929
371.50 2.926
371.60 2.923
371.70 2.92
371.80 2.917
371.90 2.914
372.00 2.911
372.10 2.908
372.20 2.905
372.30 2.903
372.40 2.9
372.50 2.897
372.60 2.894
372.70 2.891
372.80 2.888
372.90 2.885
373.00 2.882
373.10 2.879
373.20 2.876
373.30 2.874
373.40 2.871
373.50 2.868
373.60 2.865
373.70 2.862
373.80 2.859
373.90 2.856
374.00 2.853
374.10 2.851
374.20 2.848
374.30 2.845
374.40 2.843
374.50 2.84
374.60 2.837
374.70 2.834
374.80 2.832
374.90 2.829
375.00 2.826
375.10 2.823
375.20 2.821
375.30 2.818
375.40 2.815
375.50 2.813
375.60 2.81
375.70 2.807
375.80 2.804
375.90 2.802
376.00 2.799
376.10 2.796
376.20 2.794
376.30 2.791
376.40 2.788
376.50 2.785
376.60 2.783
376.70 2.78
376.80 2.777
376.90 2.774
377.00 2.772
377.10 2.769
377.20 2.767
377.30 2.765
377.40 2.762
377.50 2.76
377.60 2.758
377.70 2.755
377.80 2.753
377.90 2.751
378.00 2.748
378.10 2.746
378.20 2.743
378.30 2.74
378.40 2.737
378.50 2.735
378.60 2.732
378.70 2.729
378.80 2.726
378.90 2.724
379.00 2.721
379.10 2.718
379.20 2.716
379.30 2.713
379.40 2.71
379.50 2.707
379.60 2.705
379.70 2.702
379.80 2.699
379.90 2.696
380.00 2.694
380.10 2.692
380.20 2.69
380.30 2.689
380.40 2.687
380.50 2.685
380.60 2.684
380.70 2.682
380.80 2.68
380.90 2.679
381.00 2.677
381.10 2.675
381.20 2.672
381.30 2.67
381.40 2.668
381.50 2.665
381.60 2.662
381.70 2.66
381.80 2.656
381.90 2.653
382.00 2.65
382.10 2.646
382.20 2.643
382.30 2.638
382.40 2.634
382.50 2.63
382.60 2.625
382.70 2.621
382.80 2.617
382.90 2.612
383.00 2.608
383.10 2.604
383.20 2.6
383.30 2.595
383.40 2.591
383.50 2.588
383.60 2.586
383.70 2.585
383.80 2.585
383.90 2.586
384.00 2.586
384.10 2.587
384.20 2.587
384.30 2.588
384.40 2.588
384.50 2.588
384.60 2.588
384.70 2.588
384.80 2.588
384.90 2.587
385.00 2.586
385.10 2.586
385.20 2.585
385.30 2.584
385.40 2.582
385.50 2.581
385.60 2.579
385.70 2.577
385.80 2.575
385.90 2.573
386.00 2.57
386.10 2.567
386.20 2.565
386.30 2.561
386.40 2.558
386.50 2.555
386.60 2.551
386.70 2.547
386.80 2.543
386.90 2.538
387.00 2.533
387.10 2.528
387.20 2.523
387.30 2.518
387.40 2.512
387.50 2.506
387.60 2.499
387.70 2.493
387.80 2.486
387.90 2.479
388.00 2.472
388.10 2.464
388.20 2.456
388.30 2.449
388.40 2.441
388.50 2.433
388.60 2.425
388.70 2.418
388.80 2.414
388.90 2.41
389.00 2.409
389.10 2.41
389.20 2.413
389.30 2.416
389.40 2.42
389.50 2.424
389.60 2.427
389.70 2.431
389.80 2.435
389.90 2.438
390.00 2.441
390.10 2.444
390.20 2.447
390.30 2.449
390.40 2.451
390.50 2.453
390.60 2.455
390.70 2.456
390.80 2.457
390.90 2.458
391.00 2.459
391.10 2.46
391.20 2.46
391.30 2.46
391.40 2.46
391.50 2.46
391.60 2.46
391.70 2.459
391.80 2.458
391.90 2.457
392.00 2.456
392.10 2.455
392.20 2.454
392.30 2.452
392.40 2.451
392.50 2.449
392.60 2.447
392.70 2.445
392.80 2.443
392.90 2.44
393.00 2.438
393.10 2.435
393.20 2.432
393.30 2.429
393.40 2.426
393.50 2.423
393.60 2.419
393.70 2.416
393.80 2.412
393.90 2.408
394.00 2.404
394.10 2.399
394.20 2.395
394.30 2.39
394.40 2.385
394.50 2.379
394.60 2.374
394.70 2.368
394.80 2.362
394.90 2.355
395.00 2.348
395.10 2.341
395.20 2.334
395.30 2.326
395.40 2.318
395.50 2.309
395.60 2.3
395.70 2.291
395.80 2.281
395.90 2.271
396.00 2.26
396.10 2.249
396.20 2.237
396.30 2.225
396.40 2.213
396.50 2.201
396.60 2.188
396.70 2.175
396.80 2.162
396.90 2.15
397.00 2.138
397.10 2.145
397.20 2.153
397.30 2.162
397.40 2.171
397.50 2.18
397.60 2.189
397.70 2.197
397.80 2.205
397.90 2.212
398.00 2.219
398.10 2.226
398.20 2.232
398.30 2.238
398.40 2.243
398.50 2.248
398.60 2.253
398.70 2.257
398.80 2.261
398.90 2.264
399.00 2.267
399.10 2.27
399.20 2.272
399.30 2.274
399.40 2.276
399.50 2.278
399.60 2.279
399.70 2.281
399.80 2.281
399.90 2.282
400.00 2.283
400.10 2.283
400.20 2.283
400.30 2.283
400.40 2.283
400.50 2.283
400.60 2.283
400.70 2.282
400.80 2.282
400.90 2.281
401.00 2.28
401.10 2.279
401.20 2.279
401.30 2.277
401.40 2.276
401.50 2.275
401.60 2.274
401.70 2.273
401.80 2.271
401.90 2.27
402.00 2.268
402.10 2.267
402.20 2.265
402.30 2.264
402.40 2.262
402.50 2.26
402.60 2.259
402.70 2.257
402.80 2.255
402.90 2.253
403.00 2.251
403.10 2.249
403.20 2.247
403.30 2.245
403.40 2.243
403.50 2.241
403.60 2.239
403.70 2.237
403.80 2.235
403.90 2.233
404.00 2.23
404.10 2.228
404.20 2.226
404.30 2.224
404.40 2.221
404.50 2.219
404.60 2.216
404.70 2.214
404.80 2.211
404.90 2.209
405.00 2.206
405.10 2.204
405.20 2.201
405.30 2.198
405.40 2.195
405.50 2.192
405.60 2.189
405.70 2.187
405.80 2.183
405.90 2.18
406.00 2.177
406.10 2.174
406.20 2.17
406.30 2.167
406.40 2.163
406.50 2.159
406.60 2.155
406.70 2.151
406.80 2.147
406.90 2.143
407.00 2.138
407.10 2.134
407.20 2.129
407.30 2.124
407.40 2.119
407.50 2.113
407.60 2.107
407.70 2.101
407.80 2.095
407.90 2.088
408.00 2.081
408.10 2.074
408.20 2.066
408.30 2.058
408.40 2.049
408.50 2.04
408.60 2.03
408.70 2.02
408.80 2.01
408.90 1.998
409.00 1.987
409.10 1.975
409.20 1.962
409.30 1.948
409.40 1.934
409.50 1.919
409.60 1.904
409.70 1.888
409.80 1.871
409.90 1.854
410.00 1.838
410.10 1.83
410.20 1.828
410.30 1.831
410.40 1.839
410.50 1.853
410.60 1.866
410.70 1.879
410.80 1.892
410.90 1.903
411.00 1.914
411.10 1.924
411.20 1.934
411.30 1.943
411.40 1.951
411.50 1.959
411.60 1.966
411.70 1.972
411.80 1.978
411.90 1.984
412.00 1.989
412.10 1.993
412.20 1.997
412.30 2.001
412.40 2.004
412.50 2.007
412.60 2.01
412.70 2.012
412.80 2.014
412.90 2.016
413.00 2.017
413.10 2.019
413.20 2.02
413.30 2.021
413.40 2.021
413.50 2.022
413.60 2.022
413.70 2.022
413.80 2.022
413.90 2.022
414.00 2.022
414.10 2.022
414.20 2.021
414.30 2.021
414.40 2.02
414.50 2.02
414.60 2.019
414.70 2.018
414.80 2.017
414.90 2.016
415.00 2.015
415.10 2.014
415.20 2.013
415.30 2.012
415.40 2.011
415.50 2.01
415.60 2.008
415.70 2.007
415.80 2.006
415.90 2.005
416.00 2.003
416.10 2.002
416.20 2
416.30 1.999
416.40 1.998
416.50 1.996
416.60 1.995
416.70 1.993
416.80 1.992
416.90 1.99
417.00 1.989
417.10 1.987
417.20 1.986
417.30 1.984
417.40 1.982
417.50 1.981
417.60 1.979
417.70 1.978
417.80 1.976
417.90 1.974
418.00 1.973
418.10 1.971
418.20 1.97
418.30 1.968
418.40 1.966
418.50 1.965
418.60 1.963
418.70 1.961
418.80 1.96
418.90 1.958
419.00 1.956
419.10 1.955
419.20 1.953
419.30 1.951
419.40 1.95
419.50 1.948
419.60 1.946
419.70 1.945
419.80 1.943
419.90 1.941
420.00 1.939
420.10 1.938
420.20 1.936
420.30 1.934
420.40 1.933
420.50 1.931
420.60 1.929
420.70 1.928
420.80 1.926
420.90 1.924
421.00 1.922
421.10 1.921
421.20 1.919
421.30 1.917
421.40 1.916
421.50 1.914
421.60 1.912
421.70 1.911
421.80 1.909
421.90 1.907
422.00 1.905
422.10 1.904
422.20 1.902
422.30 1.9
422.40 1.899
422.50 1.897
422.60 1.895
422.70 1.893
422.80 1.892
422.90 1.89
423.00 1.888
423.10 1.887
423.20 1.885
423.30 1.883
423.40 1.881
423.50 1.88
423.60 1.878
423.70 1.876
423.80 1.874
423.90 1.873
424.00 1.871
424.10 1.869
424.20 1.868
424.30 1.866
424.40 1.864
424.50 1.862
424.60 1.861
424.70 1.859
424.80 1.857
424.90 1.855
425.00 1.854
425.10 1.852
425.20 1.85
425.30 1.848
425.40 1.847
425.50 1.845
425.60 1.843
425.70 1.841
425.80 1.84
425.90 1.838
426.00 1.836
426.10 1.834
426.20 1.833
426.30 1.831
426.40 1.829
426.50 1.827
426.60 1.825
426.70 1.824
426.80 1.822
426.90 1.82
427.00 1.818
427.10 1.816
427.20 1.814
427.30 1.813
427.40 1.811
427.50 1.809
427.60 1.807
427.70 1.805
427.80 1.803
427.90 1.801
428.00 1.799
428.10 1.797
428.20 1.795
428.30 1.793
428.40 1.791
428.50 1.789
428.60 1.787
428.70 1.785
428.80 1.783
428.90 1.781
429.00 1.778
429.10 1.776
429.20 1.774
429.30 1.772
429.40 1.769
429.50 1.767
429.60 1.764
429.70 1.762
429.80 1.759
429.90 1.757
430.00 1.754
430.10 1.751
430.20 1.748
430.30 1.745
430.40 1.742
430.50 1.739
430.60 1.736
430.70 1.732
430.80 1.729
430.90 1.725
431.00 1.721
431.10 1.717
431.20 1.713
431.30 1.709
431.40 1.704
431.50 1.699
431.60 1.694
431.70 1.689
431.80 1.683
431.90 1.677
432.00 1.671
432.10 1.664
432.20 1.657
432.30 1.65
432.40 1.642
432.50 1.633
432.60 1.624
432.70 1.615
432.80 1.605
432.90 1.594
433.00 1.583
433.10 1.571
433.20 1.558
433.30 1.545
433.40 1.531
433.50 1.517
433.60 1.502
433.70 1.486
433.80 1.469
433.90 1.45
434.00 1.435
434.10 1.434
434.20 1.448
434.30 1.464
434.40 1.478
434.50 1.492
434.60 1.504
434.70 1.516
434.80 1.527
434.90 1.537
435.00 1.547
435.10 1.556
435.20 1.564
435.30 1.572
435.40 1.58
435.50 1.586
435.60 1.592
435.70 1.598
435.80 1.602
435.90 1.607
436.00 1.611
436.10 1.615
436.20 1.618
436.30 1.621
436.40 1.623
436.50 1.626
436.60 1.628
436.70 1.63
436.80 1.631
436.90 1.632
437.00 1.633
437.10 1.634
437.20 1.635
437.30 1.636
437.40 1.636
437.50 1.636
437.60 1.637
437.70 1.637
437.80 1.637
437.90 1.636
438.00 1.636
438.10 1.636
438.20 1.636
438.30 1.635
438.40 1.635
438.50 1.634
438.60 1.633
438.70 1.633
438.80 1.632
438.90 1.631
439.00 1.631
439.10 1.63
439.20 1.629
439.30 1.628
439.40 1.627
439.50 1.626
439.60 1.625
439.70 1.624
439.80 1.623
439.90 1.622
440.00 1.621
440.10 1.62
440.20 1.619
440.30 1.618
440.40 1.617
440.50 1.616
440.60 1.614
440.70 1.613
440.80 1.612
440.90 1.611
441.00 1.61
441.10 1.609
441.20 1.607
441.30 1.606
441.40 1.605
441.50 1.604
441.60 1.603
441.70 1.601
441.80 1.6
441.90 1.599
442.00 1.598
442.10 1.596
442.20 1.595
442.30 1.594
442.40 1.593
442.50 1.591
442.60 1.59
442.70 1.589
442.80 1.587
442.90 1.586
443.00 1.585
443.10 1.584
443.20 1.582
443.30 1.581
443.40 1.58
443.50 1.579
443.60 1.577
443.70 1.576
443.80 1.575
443.90 1.573
444.00 1.572
444.10 1.571
444.20 1.57
444.30 1.568
444.40 1.567
444.50 1.566
444.60 1.564
444.70 1.563
444.80 1.562
444.90 1.56
445.00 1.559
445.10 1.558
445.20 1.557
445.30 1.555
445.40 1.554
445.50 1.553
445.60 1.551
445.70 1.55
445.80 1.549
445.90 1.548
446.00 1.546
446.10 1.545
446.20 1.544
446.30 1.542
446.40 1.541
446.50 1.54
446.60 1.539
446.70 1.537
446.80 1.536
446.90 1.535
447.00 1.533
447.10 1.532
447.20 1.531
447.30 1.53
447.40 1.528
447.50 1.527
447.60 1.526
447.70 1.524
447.80 1.523
447.90 1.522
448.00 1.521
448.10 1.519
448.20 1.518
448.30 1.517
448.40 1.515
448.50 1.514
448.60 1.513
448.70 1.512
448.80 1.51
448.90 1.509
449.00 1.508
449.10 1.507
449.20 1.505
449.30 1.504
449.40 1.503
449.50 1.502
449.60 1.5
449.70 1.499
449.80 1.498
449.90 1.496
450.00 1.495
450.10 1.494
450.20 1.493
450.30 1.491
450.40 1.49
450.50 1.489
450.60 1.488
450.70 1.486
450.80 1.485
450.90 1.484
451.00 1.483
451.10 1.481
451.20 1.48
451.30 1.479
451.40 1.478
451.50 1.477
451.60 1.475
451.70 1.474
451.80 1.473
451.90 1.472
452.00 1.47
452.10 1.469
452.20 1.468
452.30 1.467
452.40 1.465
452.50 1.464
452.60 1.463
452.70 1.462
452.80 1.461
452.90 1.459
453.00 1.458
453.10 1.457
453.20 1.456
453.30 1.454
453.40 1.453
453.50 1.452
453.60 1.451
453.70 1.45
453.80 1.448
453.90 1.447
454.00 1.446
454.10 1.445
