# Version 2.1 - nm, norm@500 to 1, cut digits, bergeron_8500_95.dat_8500
# Wavelength(nm)  Flambda(ergs/cm^s/s/nm)
300.00 1.621
300.10 1.621
300.20 1.621
300.30 1.621
300.40 1.621
300.50 1.62
300.60 1.62
300.70 1.62
300.80 1.62
300.90 1.62
301.00 1.62
301.10 1.62
301.20 1.619
301.30 1.619
301.40 1.619
301.50 1.619
301.60 1.619
301.70 1.619
301.80 1.619
301.90 1.618
302.00 1.618
302.10 1.618
302.20 1.618
302.30 1.618
302.40 1.618
302.50 1.618
302.60 1.617
302.70 1.617
302.80 1.617
302.90 1.617
303.00 1.617
303.10 1.617
303.20 1.616
303.30 1.616
303.40 1.616
303.50 1.616
303.60 1.616
303.70 1.616
303.80 1.615
303.90 1.615
304.00 1.615
304.10 1.615
304.20 1.615
304.30 1.615
304.40 1.614
304.50 1.614
304.60 1.614
304.70 1.614
304.80 1.614
304.90 1.614
305.00 1.613
305.10 1.613
305.20 1.613
305.30 1.613
305.40 1.613
305.50 1.613
305.60 1.612
305.70 1.612
305.80 1.612
305.90 1.612
306.00 1.612
306.10 1.612
306.20 1.611
306.30 1.611
306.40 1.611
306.50 1.611
306.60 1.611
306.70 1.61
306.80 1.61
306.90 1.61
307.00 1.61
307.10 1.61
307.20 1.61
307.30 1.609
307.40 1.609
307.50 1.609
307.60 1.609
307.70 1.609
307.80 1.609
307.90 1.608
308.00 1.608
308.10 1.608
308.20 1.608
308.30 1.608
308.40 1.607
308.50 1.607
308.60 1.607
308.70 1.607
308.80 1.607
308.90 1.606
309.00 1.606
309.10 1.606
309.20 1.606
309.30 1.606
309.40 1.605
309.50 1.605
309.60 1.605
309.70 1.605
309.80 1.605
309.90 1.605
310.00 1.604
310.10 1.604
310.20 1.604
310.30 1.604
310.40 1.604
310.50 1.603
310.60 1.603
310.70 1.603
310.80 1.603
310.90 1.603
311.00 1.602
311.10 1.602
311.20 1.602
311.30 1.602
311.40 1.602
311.50 1.601
311.60 1.601
311.70 1.601
311.80 1.601
311.90 1.601
312.00 1.6
312.10 1.6
312.20 1.6
312.30 1.6
312.40 1.599
312.50 1.599
312.60 1.599
312.70 1.599
312.80 1.599
312.90 1.598
313.00 1.598
313.10 1.598
313.20 1.598
313.30 1.598
313.40 1.597
313.50 1.597
313.60 1.597
313.70 1.597
313.80 1.597
313.90 1.596
314.00 1.596
314.10 1.596
314.20 1.596
314.30 1.595
314.40 1.595
314.50 1.595
314.60 1.595
314.70 1.595
314.80 1.594
314.90 1.594
315.00 1.594
315.10 1.594
315.20 1.593
315.30 1.593
315.40 1.593
315.50 1.593
315.60 1.593
315.70 1.592
315.80 1.592
315.90 1.592
316.00 1.592
316.10 1.592
316.20 1.591
316.30 1.591
316.40 1.591
316.50 1.591
316.60 1.59
316.70 1.59
316.80 1.59
316.90 1.59
317.00 1.589
317.10 1.589
317.20 1.589
317.30 1.589
317.40 1.588
317.50 1.588
317.60 1.588
317.70 1.588
317.80 1.588
317.90 1.587
318.00 1.587
318.10 1.587
318.20 1.587
318.30 1.586
318.40 1.586
318.50 1.586
318.60 1.586
318.70 1.585
318.80 1.585
318.90 1.585
319.00 1.585
319.10 1.584
319.20 1.584
319.30 1.584
319.40 1.584
319.50 1.584
319.60 1.583
319.70 1.583
319.80 1.583
319.90 1.583
320.00 1.582
320.10 1.582
320.20 1.582
320.30 1.582
320.40 1.581
320.50 1.581
320.60 1.581
320.70 1.581
320.80 1.58
320.90 1.58
321.00 1.58
321.10 1.58
321.20 1.579
321.30 1.579
321.40 1.579
321.50 1.579
321.60 1.578
321.70 1.578
321.80 1.578
321.90 1.578
322.00 1.577
322.10 1.577
322.20 1.577
322.30 1.577
322.40 1.576
322.50 1.576
322.60 1.576
322.70 1.575
322.80 1.575
322.90 1.575
323.00 1.575
323.10 1.574
323.20 1.574
323.30 1.574
323.40 1.574
323.50 1.573
323.60 1.573
323.70 1.573
323.80 1.573
323.90 1.572
324.00 1.572
324.10 1.572
324.20 1.572
324.30 1.571
324.40 1.571
324.50 1.571
324.60 1.571
324.70 1.57
324.80 1.57
324.90 1.57
325.00 1.569
325.10 1.569
325.20 1.569
325.30 1.569
325.40 1.568
325.50 1.568
325.60 1.568
325.70 1.568
325.80 1.567
325.90 1.567
326.00 1.567
326.10 1.567
326.20 1.566
326.30 1.566
326.40 1.566
326.50 1.565
326.60 1.565
326.70 1.565
326.80 1.565
326.90 1.564
327.00 1.564
327.10 1.564
327.20 1.564
327.30 1.563
327.40 1.563
327.50 1.563
327.60 1.562
327.70 1.562
327.80 1.562
327.90 1.562
328.00 1.561
328.10 1.561
328.20 1.561
328.30 1.561
328.40 1.56
328.50 1.56
328.60 1.56
328.70 1.559
328.80 1.559
328.90 1.559
329.00 1.559
329.10 1.558
329.20 1.558
329.30 1.558
329.40 1.557
329.50 1.557
329.60 1.557
329.70 1.557
329.80 1.556
329.90 1.556
330.00 1.556
330.10 1.555
330.20 1.555
330.30 1.555
330.40 1.555
330.50 1.554
330.60 1.554
330.70 1.554
330.80 1.553
330.90 1.553
331.00 1.553
331.10 1.553
331.20 1.552
331.30 1.552
331.40 1.552
331.50 1.551
331.60 1.551
331.70 1.551
331.80 1.551
331.90 1.55
332.00 1.55
332.10 1.55
332.20 1.549
332.30 1.549
332.40 1.549
332.50 1.549
332.60 1.548
332.70 1.548
332.80 1.548
332.90 1.547
333.00 1.547
333.10 1.547
333.20 1.547
333.30 1.546
333.40 1.546
333.50 1.546
333.60 1.545
333.70 1.545
333.80 1.545
333.90 1.544
334.00 1.544
334.10 1.544
334.20 1.544
334.30 1.543
334.40 1.543
334.50 1.543
334.60 1.542
334.70 1.542
334.80 1.542
334.90 1.541
335.00 1.541
335.10 1.541
335.20 1.541
335.30 1.54
335.40 1.54
335.50 1.54
335.60 1.539
335.70 1.539
335.80 1.539
335.90 1.538
336.00 1.538
336.10 1.538
336.20 1.537
336.30 1.537
336.40 1.537
336.50 1.537
336.60 1.536
336.70 1.536
336.80 1.536
336.90 1.535
337.00 1.535
337.10 1.535
337.20 1.534
337.30 1.534
337.40 1.534
337.50 1.533
337.60 1.533
337.70 1.533
337.80 1.533
337.90 1.532
338.00 1.532
338.10 1.532
338.20 1.531
338.30 1.531
338.40 1.531
338.50 1.53
338.60 1.53
338.70 1.53
338.80 1.529
338.90 1.529
339.00 1.529
339.10 1.529
339.20 1.528
339.30 1.528
339.40 1.528
339.50 1.527
339.60 1.527
339.70 1.527
339.80 1.526
339.90 1.526
340.00 1.526
340.10 1.525
340.20 1.525
340.30 1.525
340.40 1.524
340.50 1.524
340.60 1.524
340.70 1.523
340.80 1.523
340.90 1.523
341.00 1.523
341.10 1.522
341.20 1.522
341.30 1.522
341.40 1.521
341.50 1.521
341.60 1.521
341.70 1.52
341.80 1.52
341.90 1.52
342.00 1.519
342.10 1.519
342.20 1.519
342.30 1.518
342.40 1.518
342.50 1.518
342.60 1.517
342.70 1.517
342.80 1.517
342.90 1.516
343.00 1.516
343.10 1.516
343.20 1.515
343.30 1.515
343.40 1.515
343.50 1.514
343.60 1.514
343.70 1.514
343.80 1.513
343.90 1.513
344.00 1.513
344.10 1.512
344.20 1.512
344.30 1.512
344.40 1.511
344.50 1.511
344.60 1.511
344.70 1.511
344.80 1.51
344.90 1.51
345.00 1.51
345.10 1.509
345.20 1.509
345.30 1.509
345.40 1.508
345.50 1.508
345.60 1.508
345.70 1.507
345.80 1.507
345.90 1.507
346.00 1.506
346.10 1.506
346.20 1.506
346.30 1.505
346.40 1.505
346.50 1.505
346.60 1.504
346.70 1.504
346.80 1.504
346.90 1.503
347.00 1.503
347.10 1.503
347.20 1.502
347.30 1.502
347.40 1.502
347.50 1.501
347.60 1.501
347.70 1.501
347.80 1.5
347.90 1.5
348.00 1.5
348.10 1.499
348.20 1.499
348.30 1.499
348.40 1.498
348.50 1.498
348.60 1.498
348.70 1.497
348.80 1.497
348.90 1.497
349.00 1.496
349.10 1.496
349.20 1.496
349.30 1.495
349.40 1.495
349.50 1.494
349.60 1.494
349.70 1.494
349.80 1.493
349.90 1.493
350.00 1.493
350.10 1.492
350.20 1.492
350.30 1.492
350.40 1.491
350.50 1.491
350.60 1.491
350.70 1.49
350.80 1.49
350.90 1.49
351.00 1.489
351.10 1.489
351.20 1.489
351.30 1.488
351.40 1.488
351.50 1.488
351.60 1.487
351.70 1.487
351.80 1.487
351.90 1.486
352.00 1.486
352.10 1.486
352.20 1.485
352.30 1.485
352.40 1.485
352.50 1.484
352.60 1.484
352.70 1.483
352.80 1.483
352.90 1.483
353.00 1.482
353.10 1.482
353.20 1.482
353.30 1.481
353.40 1.481
353.50 1.481
353.60 1.48
353.70 1.48
353.80 1.48
353.90 1.479
354.00 1.479
354.10 1.479
354.20 1.478
354.30 1.478
354.40 1.478
354.50 1.477
354.60 1.477
354.70 1.476
354.80 1.476
354.90 1.476
355.00 1.475
355.10 1.475
355.20 1.475
355.30 1.474
355.40 1.474
355.50 1.474
355.60 1.473
355.70 1.473
355.80 1.473
355.90 1.472
356.00 1.472
356.10 1.472
356.20 1.471
356.30 1.471
356.40 1.47
356.50 1.47
356.60 1.47
356.70 1.469
356.80 1.469
356.90 1.469
357.00 1.468
357.10 1.468
357.20 1.468
357.30 1.467
357.40 1.467
357.50 1.467
357.60 1.466
357.70 1.466
357.80 1.466
357.90 1.465
358.00 1.465
358.10 1.464
358.20 1.464
358.30 1.464
358.40 1.463
358.50 1.463
358.60 1.463
358.70 1.462
358.80 1.462
358.90 1.462
359.00 1.461
359.10 1.461
359.20 1.46
359.30 1.46
359.40 1.46
359.50 1.459
359.60 1.459
359.70 1.459
359.80 1.458
359.90 1.458
360.00 1.458
360.10 1.457
360.20 1.457
360.30 1.456
360.40 1.456
360.50 1.456
360.60 1.455
360.70 1.455
360.80 1.455
360.90 1.454
361.00 1.454
361.10 1.454
361.20 1.453
361.30 1.453
361.40 1.452
361.50 1.452
361.60 1.452
361.70 1.451
361.80 1.451
361.90 1.451
362.00 1.45
362.10 1.45
362.20 1.45
362.30 1.449
362.40 1.449
362.50 1.449
362.60 1.448
362.70 1.448
362.80 1.447
362.90 1.447
363.00 1.447
363.10 1.446
363.20 1.446
363.30 1.446
363.40 1.445
363.50 1.445
363.60 1.444
363.70 1.444
363.80 1.444
363.90 1.443
364.00 1.443
364.10 1.442
364.20 1.442
364.30 1.442
364.40 1.441
364.50 1.441
364.60 1.44
364.70 1.44
364.80 1.44
364.90 1.439
365.00 1.439
365.10 1.438
365.20 1.438
365.30 1.438
365.40 1.437
365.50 1.437
365.60 1.436
365.70 1.436
365.80 1.436
365.90 1.435
366.00 1.435
366.10 1.434
366.20 1.434
366.30 1.434
366.40 1.433
366.50 1.433
366.60 1.432
366.70 1.432
366.80 1.432
366.90 1.431
367.00 1.431
367.10 1.431
367.20 1.43
367.30 1.43
367.40 1.429
367.50 1.429
367.60 1.429
367.70 1.428
367.80 1.428
367.90 1.428
368.00 1.427
368.10 1.427
368.20 1.426
368.30 1.426
368.40 1.426
368.50 1.425
368.60 1.425
368.70 1.425
368.80 1.424
368.90 1.424
369.00 1.423
369.10 1.423
369.20 1.423
369.30 1.422
369.40 1.422
369.50 1.422
369.60 1.421
369.70 1.421
369.80 1.42
369.90 1.42
370.00 1.42
370.10 1.419
370.20 1.419
370.30 1.419
370.40 1.418
370.50 1.418
370.60 1.417
370.70 1.417
370.80 1.417
370.90 1.416
371.00 1.416
371.10 1.416
371.20 1.415
371.30 1.415
371.40 1.414
371.50 1.414
371.60 1.414
371.70 1.413
371.80 1.413
371.90 1.412
372.00 1.412
372.10 1.412
372.20 1.411
372.30 1.411
372.40 1.411
372.50 1.41
372.60 1.41
372.70 1.409
372.80 1.409
372.90 1.409
373.00 1.408
373.10 1.408
373.20 1.408
373.30 1.407
373.40 1.407
373.50 1.406
373.60 1.406
373.70 1.406
373.80 1.405
373.90 1.405
374.00 1.405
374.10 1.404
374.20 1.404
374.30 1.403
374.40 1.403
374.50 1.403
374.60 1.402
374.70 1.402
374.80 1.402
374.90 1.401
375.00 1.401
375.10 1.4
375.20 1.4
375.30 1.4
375.40 1.399
375.50 1.399
375.60 1.398
375.70 1.398
375.80 1.398
375.90 1.397
376.00 1.397
376.10 1.397
376.20 1.396
376.30 1.396
376.40 1.396
376.50 1.395
376.60 1.395
376.70 1.394
376.80 1.394
376.90 1.394
377.00 1.393
377.10 1.393
377.20 1.393
377.30 1.392
377.40 1.392
377.50 1.391
377.60 1.391
377.70 1.391
377.80 1.39
377.90 1.39
378.00 1.389
378.10 1.389
378.20 1.388
378.30 1.388
378.40 1.387
378.50 1.387
378.60 1.386
378.70 1.386
378.80 1.385
378.90 1.384
379.00 1.384
379.10 1.383
379.20 1.382
379.30 1.382
379.40 1.381
379.50 1.38
379.60 1.379
379.70 1.379
379.80 1.378
379.90 1.377
380.00 1.376
380.10 1.377
380.20 1.377
380.30 1.377
380.40 1.377
380.50 1.378
380.60 1.378
380.70 1.378
380.80 1.378
380.90 1.379
381.00 1.379
381.10 1.379
381.20 1.379
381.30 1.378
381.40 1.378
381.50 1.378
381.60 1.378
381.70 1.377
381.80 1.377
381.90 1.376
382.00 1.376
382.10 1.375
382.20 1.375
382.30 1.373
382.40 1.372
382.50 1.37
382.60 1.369
382.70 1.368
382.80 1.366
382.90 1.365
383.00 1.364
383.10 1.362
383.20 1.361
383.30 1.358
383.40 1.355
383.50 1.351
383.60 1.352
383.70 1.355
383.80 1.358
383.90 1.36
384.00 1.362
384.10 1.364
384.20 1.365
384.30 1.366
384.40 1.367
384.50 1.368
384.60 1.368
384.70 1.369
384.80 1.369
384.90 1.37
385.00 1.37
385.10 1.37
385.20 1.37
385.30 1.37
385.40 1.37
385.50 1.37
385.60 1.37
385.70 1.369
385.80 1.369
385.90 1.369
386.00 1.369
386.10 1.368
386.20 1.368
386.30 1.367
386.40 1.367
386.50 1.366
386.60 1.366
386.70 1.365
386.80 1.364
386.90 1.364
387.00 1.363
387.10 1.362
387.20 1.361
387.30 1.36
387.40 1.359
387.50 1.357
387.60 1.356
387.70 1.354
387.80 1.353
387.90 1.35
388.00 1.348
388.10 1.345
388.20 1.342
388.30 1.338
388.40 1.334
388.50 1.329
388.60 1.323
388.70 1.316
388.80 1.309
388.90 1.301
389.00 1.308
389.10 1.315
389.20 1.322
389.30 1.327
389.40 1.332
389.50 1.336
389.60 1.34
389.70 1.343
389.80 1.346
389.90 1.348
390.00 1.35
390.10 1.351
390.20 1.353
390.30 1.354
390.40 1.355
390.50 1.356
390.60 1.356
390.70 1.357
390.80 1.358
390.90 1.358
391.00 1.359
391.10 1.359
391.20 1.359
391.30 1.36
391.40 1.36
391.50 1.36
391.60 1.36
391.70 1.36
391.80 1.36
391.90 1.36
392.00 1.36
392.10 1.36
392.20 1.36
392.30 1.36
392.40 1.359
392.50 1.359
392.60 1.359
392.70 1.358
392.80 1.358
392.90 1.357
393.00 1.357
393.10 1.356
393.20 1.355
393.30 1.355
393.40 1.354
393.50 1.353
393.60 1.352
393.70 1.351
393.80 1.35
393.90 1.349
394.00 1.348
394.10 1.347
394.20 1.346
394.30 1.344
394.40 1.343
394.50 1.341
394.60 1.34
394.70 1.338
394.80 1.336
394.90 1.334
395.00 1.332
395.10 1.33
395.20 1.327
395.30 1.325
395.40 1.322
395.50 1.319
395.60 1.316
395.70 1.312
395.80 1.308
395.90 1.304
396.00 1.299
396.10 1.294
396.20 1.288
396.30 1.28
396.40 1.272
396.50 1.262
396.60 1.25
396.70 1.236
396.80 1.219
396.90 1.201
397.00 1.181
397.10 1.198
397.20 1.216
397.30 1.233
397.40 1.247
397.50 1.259
397.60 1.269
397.70 1.277
397.80 1.284
397.90 1.29
398.00 1.295
398.10 1.3
398.20 1.304
398.30 1.307
398.40 1.31
398.50 1.313
398.60 1.316
398.70 1.318
398.80 1.321
398.90 1.323
399.00 1.325
399.10 1.327
399.20 1.328
399.30 1.33
399.40 1.331
399.50 1.332
399.60 1.334
399.70 1.335
399.80 1.336
399.90 1.337
400.00 1.338
400.10 1.339
400.20 1.339
400.30 1.34
400.40 1.341
400.50 1.341
400.60 1.342
400.70 1.342
400.80 1.343
400.90 1.343
401.00 1.344
401.10 1.344
401.20 1.344
401.30 1.344
401.40 1.345
401.50 1.345
401.60 1.345
401.70 1.345
401.80 1.345
401.90 1.345
402.00 1.345
402.10 1.345
402.20 1.345
402.30 1.345
402.40 1.345
402.50 1.345
402.60 1.344
402.70 1.344
402.80 1.344
402.90 1.344
403.00 1.343
403.10 1.343
403.20 1.343
403.30 1.342
403.40 1.342
403.50 1.341
403.60 1.341
403.70 1.34
403.80 1.34
403.90 1.339
404.00 1.339
404.10 1.338
404.20 1.337
404.30 1.337
404.40 1.336
404.50 1.335
404.60 1.334
404.70 1.333
404.80 1.333
404.90 1.332
405.00 1.331
405.10 1.33
405.20 1.329
405.30 1.328
405.40 1.326
405.50 1.325
405.60 1.324
405.70 1.323
405.80 1.321
405.90 1.32
406.00 1.318
406.10 1.317
406.20 1.315
406.30 1.313
406.40 1.311
406.50 1.31
406.60 1.308
406.70 1.305
406.80 1.303
406.90 1.301
407.00 1.298
407.10 1.296
407.20 1.293
407.30 1.29
407.40 1.287
407.50 1.284
407.60 1.281
407.70 1.277
407.80 1.273
407.90 1.269
408.00 1.265
408.10 1.261
408.20 1.256
408.30 1.251
408.40 1.245
408.50 1.239
408.60 1.233
408.70 1.227
408.80 1.219
408.90 1.212
409.00 1.204
409.10 1.195
409.20 1.185
409.30 1.174
409.40 1.161
409.50 1.147
409.60 1.131
409.70 1.11
409.80 1.085
409.90 1.057
410.00 1.019
410.10 0.9858
410.20 0.9565
410.30 1
410.40 1.039
410.50 1.072
410.60 1.097
410.70 1.119
410.80 1.137
410.90 1.152
411.00 1.164
411.10 1.176
411.20 1.185
411.30 1.194
411.40 1.202
411.50 1.209
411.60 1.216
411.70 1.222
411.80 1.228
411.90 1.233
412.00 1.238
412.10 1.243
412.20 1.247
412.30 1.251
412.40 1.255
412.50 1.259
412.60 1.262
412.70 1.265
412.80 1.268
412.90 1.27
413.00 1.273
413.10 1.275
413.20 1.277
413.30 1.279
413.40 1.281
413.50 1.283
413.60 1.285
413.70 1.286
413.80 1.288
413.90 1.289
414.00 1.29
414.10 1.292
414.20 1.293
414.30 1.294
414.40 1.295
414.50 1.296
414.60 1.296
414.70 1.297
414.80 1.298
414.90 1.299
415.00 1.299
415.10 1.3
415.20 1.3
415.30 1.301
415.40 1.301
415.50 1.302
415.60 1.302
415.70 1.302
415.80 1.303
415.90 1.303
416.00 1.303
416.10 1.304
416.20 1.304
416.30 1.304
416.40 1.304
416.50 1.304
416.60 1.304
416.70 1.304
416.80 1.304
416.90 1.305
417.00 1.305
417.10 1.305
417.20 1.305
417.30 1.305
417.40 1.304
417.50 1.304
417.60 1.304
417.70 1.304
417.80 1.304
417.90 1.304
418.00 1.304
418.10 1.304
418.20 1.304
418.30 1.304
418.40 1.303
418.50 1.303
418.60 1.303
418.70 1.303
418.80 1.303
418.90 1.302
419.00 1.302
419.10 1.302
419.20 1.302
419.30 1.302
419.40 1.301
419.50 1.301
419.60 1.301
419.70 1.3
419.80 1.3
419.90 1.3
420.00 1.3
420.10 1.299
420.20 1.299
420.30 1.299
420.40 1.298
420.50 1.298
420.60 1.298
420.70 1.297
420.80 1.297
420.90 1.297
421.00 1.296
421.10 1.296
421.20 1.296
421.30 1.295
421.40 1.295
421.50 1.295
421.60 1.294
421.70 1.294
421.80 1.293
421.90 1.293
422.00 1.293
422.10 1.292
422.20 1.292
422.30 1.291
422.40 1.291
422.50 1.291
422.60 1.29
422.70 1.29
422.80 1.289
422.90 1.289
423.00 1.288
423.10 1.288
423.20 1.287
423.30 1.287
423.40 1.286
423.50 1.286
423.60 1.285
423.70 1.285
423.80 1.284
423.90 1.284
424.00 1.283
424.10 1.283
424.20 1.282
424.30 1.282
424.40 1.281
424.50 1.281
424.60 1.28
424.70 1.279
424.80 1.279
424.90 1.278
425.00 1.278
425.10 1.277
425.20 1.276
425.30 1.276
425.40 1.275
425.50 1.274
425.60 1.274
425.70 1.273
425.80 1.272
425.90 1.272
426.00 1.271
426.10 1.27
426.20 1.269
426.30 1.269
426.40 1.268
426.50 1.267
426.60 1.266
426.70 1.265
426.80 1.265
426.90 1.264
427.00 1.263
427.10 1.262
427.20 1.261
427.30 1.26
427.40 1.259
427.50 1.258
427.60 1.257
427.70 1.256
427.80 1.255
427.90 1.254
428.00 1.253
428.10 1.251
428.20 1.25
428.30 1.249
428.40 1.248
428.50 1.246
428.60 1.245
428.70 1.243
428.80 1.242
428.90 1.24
429.00 1.239
429.10 1.237
429.20 1.235
429.30 1.234
429.40 1.232
429.50 1.23
429.60 1.228
429.70 1.226
429.80 1.224
429.90 1.221
430.00 1.219
430.10 1.216
430.20 1.214
430.30 1.211
430.40 1.208
430.50 1.205
430.60 1.202
430.70 1.199
430.80 1.195
430.90 1.192
431.00 1.188
431.10 1.184
431.20 1.179
431.30 1.175
431.40 1.17
431.50 1.165
431.60 1.16
431.70 1.154
431.80 1.148
431.90 1.141
432.00 1.134
432.10 1.127
432.20 1.119
432.30 1.11
432.40 1.101
432.50 1.091
432.60 1.08
432.70 1.069
432.80 1.056
432.90 1.042
433.00 1.027
433.10 1.01
433.20 0.9921
433.30 0.9725
433.40 0.9485
433.50 0.9206
433.60 0.8891
433.70 0.8442
433.80 0.7908
433.90 0.7289
434.00 0.655
434.10 0.6568
434.20 0.7343
434.30 0.7948
434.40 0.8469
434.50 0.8905
434.60 0.921
434.70 0.9479
434.80 0.9711
434.90 0.9899
435.00 1.007
435.10 1.023
435.20 1.037
435.30 1.051
435.40 1.063
435.50 1.073
435.60 1.084
435.70 1.093
435.80 1.101
435.90 1.109
436.00 1.116
436.10 1.123
436.20 1.129
436.30 1.135
436.40 1.14
436.50 1.145
436.60 1.149
436.70 1.154
436.80 1.158
436.90 1.161
437.00 1.165
437.10 1.168
437.20 1.171
437.30 1.174
437.40 1.177
437.50 1.179
437.60 1.181
437.70 1.184
437.80 1.186
437.90 1.187
438.00 1.189
438.10 1.191
438.20 1.192
438.30 1.194
438.40 1.195
438.50 1.197
438.60 1.198
438.70 1.199
438.80 1.2
438.90 1.201
439.00 1.202
439.10 1.203
439.20 1.203
439.30 1.204
439.40 1.205
439.50 1.205
439.60 1.206
439.70 1.207
439.80 1.207
439.90 1.208
440.00 1.208
440.10 1.208
440.20 1.209
440.30 1.209
440.40 1.209
440.50 1.21
440.60 1.21
440.70 1.21
440.80 1.21
440.90 1.21
441.00 1.211
441.10 1.211
441.20 1.211
441.30 1.211
441.40 1.211
441.50 1.211
441.60 1.211
441.70 1.211
441.80 1.211
441.90 1.211
442.00 1.211
442.10 1.211
442.20 1.211
442.30 1.211
442.40 1.211
442.50 1.211
442.60 1.21
442.70 1.21
442.80 1.21
442.90 1.21
443.00 1.21
443.10 1.21
443.20 1.21
443.30 1.209
443.40 1.209
443.50 1.209
443.60 1.209
443.70 1.209
443.80 1.209
443.90 1.208
444.00 1.208
444.10 1.208
444.20 1.208
444.30 1.207
444.40 1.207
444.50 1.207
444.60 1.207
444.70 1.207
444.80 1.206
444.90 1.206
445.00 1.206
445.10 1.206
445.20 1.205
445.30 1.205
445.40 1.205
445.50 1.204
445.60 1.204
445.70 1.204
445.80 1.204
445.90 1.203
446.00 1.203
446.10 1.203
446.20 1.202
446.30 1.202
446.40 1.202
446.50 1.201
446.60 1.201
446.70 1.201
446.80 1.201
446.90 1.2
447.00 1.2
447.10 1.2
447.20 1.199
447.30 1.199
447.40 1.199
447.50 1.198
447.60 1.198
447.70 1.198
447.80 1.197
447.90 1.197
448.00 1.197
448.10 1.196
448.20 1.196
448.30 1.196
448.40 1.195
448.50 1.195
448.60 1.195
448.70 1.194
448.80 1.194
448.90 1.194
449.00 1.193
449.10 1.193
449.20 1.193
449.30 1.192
449.40 1.192
449.50 1.192
449.60 1.191
449.70 1.191
449.80 1.19
449.90 1.19
450.00 1.19
450.10 1.189
450.20 1.189
450.30 1.189
450.40 1.188
450.50 1.188
450.60 1.188
450.70 1.187
450.80 1.187
450.90 1.186
451.00 1.186
451.10 1.186
451.20 1.185
451.30 1.185
451.40 1.185
451.50 1.184
451.60 1.184
451.70 1.184
451.80 1.183
451.90 1.183
452.00 1.182
452.10 1.182
452.20 1.182
452.30 1.181
452.40 1.181
452.50 1.181
452.60 1.18
452.70 1.18
452.80 1.179
452.90 1.179
453.00 1.179
453.10 1.178
453.20 1.178
453.30 1.178
453.40 1.177
453.50 1.177
453.60 1.176
453.70 1.176
453.80 1.176
453.90 1.175
454.00 1.175
454.10 1.175
