# Version 2.1 - nm, norm@500 to 1, cut digits, bergeron_16500_95.dat_16500
# Wavelength(nm)  Flambda(ergs/cm^s/s/nm)
300.00 3.052
300.10 3.049
300.20 3.047
300.30 3.044
300.40 3.041
300.50 3.039
300.60 3.036
300.70 3.034
300.80 3.031
300.90 3.028
301.00 3.026
301.10 3.023
301.20 3.021
301.30 3.018
301.40 3.016
301.50 3.013
301.60 3.01
301.70 3.008
301.80 3.005
301.90 3.003
302.00 3
302.10 2.998
302.20 2.995
302.30 2.993
302.40 2.99
302.50 2.988
302.60 2.985
302.70 2.982
302.80 2.98
302.90 2.977
303.00 2.975
303.10 2.972
303.20 2.97
303.30 2.967
303.40 2.965
303.50 2.962
303.60 2.96
303.70 2.957
303.80 2.955
303.90 2.952
304.00 2.95
304.10 2.947
304.20 2.945
304.30 2.942
304.40 2.94
304.50 2.937
304.60 2.935
304.70 2.933
304.80 2.93
304.90 2.928
305.00 2.925
305.10 2.923
305.20 2.92
305.30 2.918
305.40 2.915
305.50 2.913
305.60 2.91
305.70 2.908
305.80 2.906
305.90 2.903
306.00 2.901
306.10 2.898
306.20 2.896
306.30 2.893
306.40 2.891
306.50 2.889
306.60 2.886
306.70 2.884
306.80 2.881
306.90 2.879
307.00 2.876
307.10 2.874
307.20 2.872
307.30 2.869
307.40 2.867
307.50 2.864
307.60 2.862
307.70 2.86
307.80 2.857
307.90 2.855
308.00 2.852
308.10 2.85
308.20 2.848
308.30 2.845
308.40 2.843
308.50 2.84
308.60 2.838
308.70 2.836
308.80 2.833
308.90 2.831
309.00 2.829
309.10 2.826
309.20 2.824
309.30 2.822
309.40 2.819
309.50 2.817
309.60 2.815
309.70 2.812
309.80 2.81
309.90 2.808
310.00 2.805
310.10 2.803
310.20 2.801
310.30 2.798
310.40 2.796
310.50 2.794
310.60 2.791
310.70 2.789
310.80 2.787
310.90 2.784
311.00 2.782
311.10 2.78
311.20 2.777
311.30 2.775
311.40 2.773
311.50 2.771
311.60 2.768
311.70 2.766
311.80 2.764
311.90 2.761
312.00 2.759
312.10 2.757
312.20 2.755
312.30 2.752
312.40 2.75
312.50 2.748
312.60 2.746
312.70 2.743
312.80 2.741
312.90 2.739
313.00 2.737
313.10 2.734
313.20 2.732
313.30 2.73
313.40 2.728
313.50 2.725
313.60 2.723
313.70 2.721
313.80 2.719
313.90 2.716
314.00 2.714
314.10 2.712
314.20 2.71
314.30 2.707
314.40 2.705
314.50 2.703
314.60 2.701
314.70 2.698
314.80 2.696
314.90 2.694
315.00 2.692
315.10 2.69
315.20 2.687
315.30 2.685
315.40 2.683
315.50 2.681
315.60 2.679
315.70 2.676
315.80 2.674
315.90 2.672
316.00 2.67
316.10 2.668
316.20 2.665
316.30 2.663
316.40 2.661
316.50 2.659
316.60 2.657
316.70 2.655
316.80 2.652
316.90 2.65
317.00 2.648
317.10 2.646
317.20 2.644
317.30 2.642
317.40 2.639
317.50 2.637
317.60 2.635
317.70 2.633
317.80 2.631
317.90 2.629
318.00 2.627
318.10 2.624
318.20 2.622
318.30 2.62
318.40 2.618
318.50 2.616
318.60 2.614
318.70 2.612
318.80 2.609
318.90 2.607
319.00 2.605
319.10 2.603
319.20 2.601
319.30 2.599
319.40 2.597
319.50 2.595
319.60 2.592
319.70 2.59
319.80 2.588
319.90 2.586
320.00 2.584
320.10 2.582
320.20 2.58
320.30 2.578
320.40 2.576
320.50 2.574
320.60 2.571
320.70 2.569
320.80 2.567
320.90 2.565
321.00 2.563
321.10 2.561
321.20 2.559
321.30 2.557
321.40 2.555
321.50 2.553
321.60 2.551
321.70 2.549
321.80 2.547
321.90 2.545
322.00 2.543
322.10 2.54
322.20 2.538
322.30 2.536
322.40 2.534
322.50 2.532
322.60 2.53
322.70 2.528
322.80 2.526
322.90 2.524
323.00 2.522
323.10 2.52
323.20 2.518
323.30 2.516
323.40 2.514
323.50 2.512
323.60 2.51
323.70 2.508
323.80 2.506
323.90 2.504
324.00 2.502
324.10 2.5
324.20 2.498
324.30 2.496
324.40 2.494
324.50 2.492
324.60 2.49
324.70 2.488
324.80 2.486
324.90 2.484
325.00 2.482
325.10 2.48
325.20 2.478
325.30 2.476
325.40 2.474
325.50 2.472
325.60 2.47
325.70 2.468
325.80 2.466
325.90 2.464
326.00 2.462
326.10 2.46
326.20 2.458
326.30 2.456
326.40 2.454
326.50 2.452
326.60 2.45
326.70 2.448
326.80 2.446
326.90 2.444
327.00 2.443
327.10 2.441
327.20 2.439
327.30 2.437
327.40 2.435
327.50 2.433
327.60 2.431
327.70 2.429
327.80 2.427
327.90 2.425
328.00 2.423
328.10 2.421
328.20 2.419
328.30 2.417
328.40 2.415
328.50 2.413
328.60 2.412
328.70 2.41
328.80 2.408
328.90 2.406
329.00 2.404
329.10 2.402
329.20 2.4
329.30 2.398
329.40 2.396
329.50 2.394
329.60 2.392
329.70 2.391
329.80 2.389
329.90 2.387
330.00 2.385
330.10 2.383
330.20 2.381
330.30 2.379
330.40 2.377
330.50 2.375
330.60 2.374
330.70 2.372
330.80 2.37
330.90 2.368
331.00 2.366
331.10 2.364
331.20 2.362
331.30 2.361
331.40 2.359
331.50 2.357
331.60 2.355
331.70 2.353
331.80 2.351
331.90 2.349
332.00 2.347
332.10 2.346
332.20 2.344
332.30 2.342
332.40 2.34
332.50 2.338
332.60 2.336
332.70 2.335
332.80 2.333
332.90 2.331
333.00 2.329
333.10 2.327
333.20 2.325
333.30 2.324
333.40 2.322
333.50 2.32
333.60 2.318
333.70 2.316
333.80 2.314
333.90 2.313
334.00 2.311
334.10 2.309
334.20 2.307
334.30 2.305
334.40 2.304
334.50 2.302
334.60 2.3
334.70 2.298
334.80 2.296
334.90 2.295
335.00 2.293
335.10 2.291
335.20 2.289
335.30 2.287
335.40 2.286
335.50 2.284
335.60 2.282
335.70 2.28
335.80 2.278
335.90 2.277
336.00 2.275
336.10 2.273
336.20 2.271
336.30 2.269
336.40 2.268
336.50 2.266
336.60 2.264
336.70 2.262
336.80 2.261
336.90 2.259
337.00 2.257
337.10 2.255
337.20 2.254
337.30 2.252
337.40 2.25
337.50 2.248
337.60 2.247
337.70 2.245
337.80 2.243
337.90 2.241
338.00 2.24
338.10 2.238
338.20 2.236
338.30 2.234
338.40 2.233
338.50 2.231
338.60 2.229
338.70 2.227
338.80 2.226
338.90 2.224
339.00 2.222
339.10 2.22
339.20 2.219
339.30 2.217
339.40 2.215
339.50 2.214
339.60 2.212
339.70 2.21
339.80 2.208
339.90 2.207
340.00 2.205
340.10 2.203
340.20 2.202
340.30 2.2
340.40 2.198
340.50 2.196
340.60 2.195
340.70 2.193
340.80 2.191
340.90 2.19
341.00 2.188
341.10 2.186
341.20 2.185
341.30 2.183
341.40 2.181
341.50 2.18
341.60 2.178
341.70 2.176
341.80 2.174
341.90 2.173
342.00 2.171
342.10 2.169
342.20 2.168
342.30 2.166
342.40 2.164
342.50 2.163
342.60 2.161
342.70 2.159
342.80 2.158
342.90 2.156
343.00 2.154
343.10 2.153
343.20 2.151
343.30 2.149
343.40 2.148
343.50 2.146
343.60 2.144
343.70 2.143
343.80 2.141
343.90 2.14
344.00 2.138
344.10 2.136
344.20 2.135
344.30 2.133
344.40 2.131
344.50 2.13
344.60 2.128
344.70 2.126
344.80 2.125
344.90 2.123
345.00 2.122
345.10 2.12
345.20 2.118
345.30 2.117
345.40 2.115
345.50 2.113
345.60 2.112
345.70 2.11
345.80 2.109
345.90 2.107
346.00 2.105
346.10 2.104
346.20 2.102
346.30 2.1
346.40 2.099
346.50 2.097
346.60 2.096
346.70 2.094
346.80 2.092
346.90 2.091
347.00 2.089
347.10 2.088
347.20 2.086
347.30 2.084
347.40 2.083
347.50 2.081
347.60 2.08
347.70 2.078
347.80 2.077
347.90 2.075
348.00 2.073
348.10 2.072
348.20 2.07
348.30 2.069
348.40 2.067
348.50 2.066
348.60 2.064
348.70 2.062
348.80 2.061
348.90 2.059
349.00 2.058
349.10 2.056
349.20 2.055
349.30 2.053
349.40 2.051
349.50 2.05
349.60 2.048
349.70 2.047
349.80 2.045
349.90 2.044
350.00 2.042
350.10 2.041
350.20 2.039
350.30 2.038
350.40 2.036
350.50 2.034
350.60 2.033
350.70 2.031
350.80 2.03
350.90 2.028
351.00 2.027
351.10 2.025
351.20 2.024
351.30 2.022
351.40 2.021
351.50 2.019
351.60 2.017
351.70 2.016
351.80 2.014
351.90 2.013
352.00 2.011
352.10 2.01
352.20 2.008
352.30 2.007
352.40 2.005
352.50 2.004
352.60 2.002
352.70 2.001
352.80 1.999
352.90 1.998
353.00 1.996
353.10 1.995
353.20 1.993
353.30 1.992
353.40 1.99
353.50 1.989
353.60 1.987
353.70 1.986
353.80 1.984
353.90 1.983
354.00 1.981
354.10 1.98
354.20 1.978
354.30 1.977
354.40 1.975
354.50 1.974
354.60 1.972
354.70 1.971
354.80 1.969
354.90 1.968
355.00 1.966
355.10 1.965
355.20 1.963
355.30 1.962
355.40 1.96
355.50 1.959
355.60 1.958
355.70 1.956
355.80 1.955
355.90 1.953
356.00 1.952
356.10 1.95
356.20 1.949
356.30 1.947
356.40 1.946
356.50 1.944
356.60 1.943
356.70 1.941
356.80 1.94
356.90 1.939
357.00 1.937
357.10 1.936
357.20 1.934
357.30 1.933
357.40 1.931
357.50 1.93
357.60 1.928
357.70 1.927
357.80 1.925
357.90 1.924
358.00 1.923
358.10 1.921
358.20 1.92
358.30 1.918
358.40 1.917
358.50 1.915
358.60 1.914
358.70 1.913
358.80 1.911
358.90 1.91
359.00 1.908
359.10 1.907
359.20 1.905
359.30 1.904
359.40 1.903
359.50 1.901
359.60 1.9
359.70 1.898
359.80 1.897
359.90 1.896
360.00 1.894
360.10 1.893
360.20 1.891
360.30 1.89
360.40 1.889
360.50 1.887
360.60 1.886
360.70 1.884
360.80 1.883
360.90 1.882
361.00 1.88
361.10 1.879
361.20 1.877
361.30 1.876
361.40 1.875
361.50 1.873
361.60 1.872
361.70 1.87
361.80 1.869
361.90 1.868
362.00 1.866
362.10 1.865
362.20 1.863
362.30 1.862
362.40 1.861
362.50 1.859
362.60 1.858
362.70 1.857
362.80 1.855
362.90 1.854
363.00 1.853
363.10 1.851
363.20 1.849
363.30 1.848
363.40 1.846
363.50 1.844
363.60 1.843
363.70 1.841
363.80 1.84
363.90 1.838
364.00 1.836
364.10 1.835
364.20 1.833
364.30 1.832
364.40 1.83
364.50 1.828
364.60 1.827
364.70 1.825
364.80 1.823
364.90 1.822
365.00 1.82
365.10 1.819
365.20 1.817
365.30 1.815
365.40 1.814
365.50 1.812
365.60 1.81
365.70 1.809
365.80 1.807
365.90 1.805
366.00 1.804
366.10 1.802
366.20 1.801
366.30 1.8
366.40 1.798
366.50 1.797
366.60 1.795
366.70 1.794
366.80 1.793
366.90 1.791
367.00 1.79
367.10 1.788
367.20 1.787
367.30 1.786
367.40 1.784
367.50 1.783
367.60 1.782
367.70 1.78
367.80 1.779
367.90 1.777
368.00 1.776
368.10 1.775
368.20 1.773
368.30 1.772
368.40 1.77
368.50 1.769
368.60 1.768
368.70 1.766
368.80 1.765
368.90 1.763
369.00 1.762
369.10 1.761
369.20 1.759
369.30 1.758
369.40 1.757
369.50 1.755
369.60 1.754
369.70 1.752
369.80 1.751
369.90 1.75
370.00 1.748
370.10 1.747
370.20 1.745
370.30 1.744
370.40 1.743
370.50 1.741
370.60 1.74
370.70 1.739
370.80 1.737
370.90 1.736
371.00 1.735
371.10 1.733
371.20 1.732
371.30 1.73
371.40 1.729
371.50 1.728
371.60 1.726
371.70 1.725
371.80 1.724
371.90 1.722
372.00 1.721
372.10 1.72
372.20 1.718
372.30 1.717
372.40 1.716
372.50 1.715
372.60 1.713
372.70 1.712
372.80 1.711
372.90 1.709
373.00 1.708
373.10 1.707
373.20 1.706
373.30 1.704
373.40 1.703
373.50 1.702
373.60 1.7
373.70 1.699
373.80 1.698
373.90 1.697
374.00 1.695
374.10 1.694
374.20 1.693
374.30 1.692
374.40 1.69
374.50 1.689
374.60 1.688
374.70 1.687
374.80 1.686
374.90 1.684
375.00 1.683
375.10 1.682
375.20 1.681
375.30 1.68
375.40 1.678
375.50 1.677
375.60 1.676
375.70 1.675
375.80 1.673
375.90 1.672
376.00 1.671
376.10 1.67
376.20 1.669
376.30 1.668
376.40 1.667
376.50 1.665
376.60 1.664
376.70 1.663
376.80 1.662
376.90 1.661
377.00 1.66
377.10 1.659
377.20 1.658
377.30 1.656
377.40 1.655
377.50 1.654
377.60 1.653
377.70 1.652
377.80 1.651
377.90 1.649
378.00 1.648
378.10 1.647
378.20 1.646
378.30 1.644
378.40 1.643
378.50 1.641
378.60 1.64
378.70 1.639
378.80 1.637
378.90 1.636
379.00 1.635
379.10 1.633
379.20 1.632
379.30 1.631
379.40 1.63
379.50 1.629
379.60 1.628
379.70 1.627
379.80 1.625
379.90 1.624
380.00 1.623
380.10 1.623
380.20 1.622
380.30 1.622
380.40 1.621
380.50 1.621
380.60 1.62
380.70 1.619
380.80 1.619
380.90 1.618
381.00 1.618
381.10 1.617
381.20 1.616
381.30 1.616
381.40 1.615
381.50 1.614
381.60 1.613
381.70 1.612
381.80 1.611
381.90 1.61
382.00 1.609
382.10 1.608
382.20 1.606
382.30 1.605
382.40 1.603
382.50 1.601
382.60 1.599
382.70 1.598
382.80 1.596
382.90 1.594
383.00 1.592
383.10 1.591
383.20 1.589
383.30 1.588
383.40 1.586
383.50 1.585
383.60 1.585
383.70 1.585
383.80 1.585
383.90 1.585
384.00 1.586
384.10 1.586
384.20 1.587
384.30 1.588
384.40 1.589
384.50 1.589
384.60 1.59
384.70 1.59
384.80 1.59
384.90 1.591
385.00 1.591
385.10 1.59
385.20 1.59
385.30 1.59
385.40 1.589
385.50 1.589
385.60 1.588
385.70 1.587
385.80 1.586
385.90 1.586
386.00 1.584
386.10 1.583
386.20 1.582
386.30 1.581
386.40 1.579
386.50 1.578
386.60 1.576
386.70 1.575
386.80 1.573
386.90 1.571
387.00 1.569
387.10 1.567
387.20 1.565
387.30 1.563
387.40 1.561
387.50 1.558
387.60 1.556
387.70 1.553
387.80 1.55
387.90 1.547
388.00 1.544
388.10 1.541
388.20 1.537
388.30 1.534
388.40 1.53
388.50 1.526
388.60 1.523
388.70 1.521
388.80 1.519
388.90 1.518
389.00 1.518
389.10 1.519
389.20 1.521
389.30 1.523
389.40 1.526
389.50 1.529
389.60 1.533
389.70 1.536
389.80 1.538
389.90 1.541
390.00 1.543
390.10 1.545
390.20 1.547
390.30 1.549
390.40 1.551
390.50 1.552
390.60 1.554
390.70 1.555
390.80 1.556
390.90 1.557
391.00 1.558
391.10 1.559
391.20 1.56
391.30 1.56
391.40 1.561
391.50 1.561
391.60 1.561
391.70 1.561
391.80 1.561
391.90 1.561
392.00 1.561
392.10 1.56
392.20 1.56
392.30 1.559
392.40 1.558
392.50 1.557
392.60 1.556
392.70 1.554
392.80 1.553
392.90 1.551
393.00 1.549
393.10 1.547
393.20 1.545
393.30 1.542
393.40 1.54
393.50 1.537
393.60 1.534
393.70 1.531
393.80 1.528
393.90 1.524
394.00 1.52
394.10 1.516
394.20 1.512
394.30 1.508
394.40 1.504
394.50 1.499
394.60 1.494
394.70 1.489
394.80 1.484
394.90 1.479
395.00 1.474
395.10 1.469
395.20 1.463
395.30 1.457
395.40 1.451
395.50 1.445
395.60 1.438
395.70 1.431
395.80 1.424
395.90 1.417
396.00 1.41
396.10 1.404
396.20 1.396
396.30 1.388
396.40 1.379
396.50 1.369
396.60 1.359
396.70 1.348
396.80 1.34
396.90 1.333
397.00 1.327
397.10 1.332
397.20 1.338
397.30 1.345
397.40 1.355
397.50 1.365
397.60 1.375
397.70 1.383
397.80 1.391
397.90 1.398
398.00 1.404
398.10 1.41
398.20 1.417
398.30 1.423
398.40 1.43
398.50 1.437
398.60 1.443
398.70 1.448
398.80 1.454
398.90 1.459
399.00 1.464
399.10 1.469
399.20 1.474
399.30 1.478
399.40 1.483
399.50 1.488
399.60 1.492
399.70 1.496
399.80 1.5
399.90 1.504
400.00 1.508
400.10 1.512
400.20 1.515
400.30 1.518
400.40 1.521
400.50 1.524
400.60 1.527
400.70 1.529
400.80 1.532
400.90 1.534
401.00 1.536
401.10 1.538
401.20 1.54
401.30 1.541
401.40 1.542
401.50 1.544
401.60 1.545
401.70 1.546
401.80 1.547
401.90 1.547
402.00 1.548
402.10 1.548
402.20 1.548
402.30 1.548
402.40 1.548
402.50 1.548
402.60 1.548
402.70 1.547
402.80 1.546
402.90 1.545
403.00 1.544
403.10 1.543
403.20 1.542
403.30 1.54
403.40 1.539
403.50 1.537
403.60 1.535
403.70 1.533
403.80 1.53
403.90 1.528
404.00 1.525
404.10 1.522
404.20 1.519
404.30 1.516
404.40 1.513
404.50 1.51
404.60 1.506
404.70 1.502
404.80 1.498
404.90 1.494
405.00 1.49
405.10 1.485
405.20 1.481
405.30 1.476
405.40 1.471
405.50 1.466
405.60 1.46
405.70 1.455
405.80 1.449
405.90 1.443
406.00 1.437
406.10 1.431
406.20 1.424
406.30 1.418
406.40 1.411
406.50 1.404
406.60 1.397
406.70 1.389
406.80 1.382
406.90 1.374
407.00 1.366
407.10 1.357
407.20 1.349
407.30 1.34
407.40 1.331
407.50 1.322
407.60 1.312
407.70 1.303
407.80 1.293
407.90 1.283
408.00 1.273
408.10 1.262
408.20 1.252
408.30 1.241
408.40 1.23
408.50 1.219
408.60 1.208
408.70 1.196
408.80 1.183
408.90 1.171
409.00 1.158
409.10 1.146
409.20 1.134
409.30 1.123
409.40 1.111
409.50 1.098
409.60 1.085
409.70 1.071
409.80 1.058
409.90 1.044
410.00 1.034
410.10 1.028
410.20 1.026
410.30 1.029
410.40 1.037
410.50 1.048
410.60 1.061
410.70 1.074
410.80 1.086
410.90 1.098
411.00 1.109
411.10 1.12
411.20 1.131
411.30 1.142
411.40 1.153
411.50 1.164
411.60 1.176
411.70 1.187
411.80 1.197
411.90 1.207
412.00 1.217
412.10 1.227
412.20 1.237
412.30 1.246
412.40 1.255
412.50 1.264
412.60 1.273
412.70 1.282
412.80 1.29
412.90 1.299
413.00 1.307
413.10 1.315
413.20 1.323
413.30 1.331
413.40 1.338
413.50 1.345
413.60 1.352
413.70 1.359
413.80 1.366
413.90 1.372
414.00 1.379
414.10 1.385
414.20 1.391
414.30 1.397
414.40 1.403
414.50 1.408
414.60 1.414
414.70 1.419
414.80 1.424
414.90 1.43
415.00 1.435
415.10 1.439
415.20 1.444
415.30 1.449
415.40 1.453
415.50 1.458
415.60 1.462
415.70 1.466
415.80 1.47
415.90 1.474
416.00 1.478
416.10 1.482
416.20 1.485
416.30 1.489
416.40 1.492
416.50 1.495
416.60 1.499
416.70 1.502
416.80 1.505
416.90 1.508
417.00 1.51
417.10 1.513
417.20 1.516
417.30 1.518
417.40 1.521
417.50 1.523
417.60 1.525
417.70 1.528
417.80 1.53
417.90 1.532
418.00 1.533
418.10 1.535
418.20 1.537
418.30 1.539
418.40 1.54
418.50 1.542
418.60 1.543
418.70 1.544
418.80 1.546
418.90 1.547
419.00 1.548
419.10 1.549
419.20 1.55
419.30 1.551
419.40 1.551
419.50 1.552
419.60 1.553
419.70 1.553
419.80 1.554
419.90 1.554
420.00 1.554
420.10 1.555
420.20 1.555
420.30 1.555
420.40 1.555
420.50 1.555
420.60 1.555
420.70 1.554
420.80 1.554
420.90 1.554
421.00 1.553
421.10 1.553
421.20 1.552
421.30 1.552
421.40 1.551
421.50 1.55
421.60 1.549
421.70 1.548
421.80 1.547
421.90 1.546
422.00 1.545
422.10 1.544
422.20 1.542
422.30 1.541
422.40 1.539
422.50 1.538
422.60 1.536
422.70 1.534
422.80 1.533
422.90 1.531
423.00 1.529
423.10 1.527
423.20 1.525
423.30 1.523
423.40 1.52
423.50 1.518
423.60 1.516
423.70 1.513
423.80 1.511
423.90 1.508
424.00 1.506
424.10 1.503
424.20 1.5
424.30 1.497
424.40 1.494
424.50 1.491
424.60 1.488
424.70 1.485
424.80 1.482
424.90 1.478
425.00 1.475
425.10 1.471
425.20 1.468
425.30 1.464
425.40 1.46
425.50 1.457
425.60 1.453
425.70 1.449
425.80 1.445
425.90 1.441
426.00 1.436
426.10 1.432
426.20 1.427
426.30 1.422
426.40 1.417
426.50 1.413
426.60 1.408
426.70 1.403
426.80 1.399
426.90 1.394
427.00 1.389
427.10 1.384
427.20 1.378
427.30 1.373
427.40 1.368
427.50 1.362
427.60 1.357
427.70 1.351
427.80 1.346
427.90 1.34
428.00 1.334
428.10 1.328
428.20 1.322
428.30 1.316
428.40 1.309
428.50 1.303
428.60 1.297
428.70 1.29
428.80 1.284
428.90 1.277
429.00 1.27
429.10 1.263
429.20 1.256
429.30 1.249
429.40 1.242
429.50 1.234
429.60 1.227
429.70 1.219
429.80 1.212
429.90 1.204
430.00 1.196
430.10 1.188
430.20 1.18
430.30 1.171
430.40 1.163
430.50 1.154
430.60 1.146
430.70 1.137
430.80 1.128
430.90 1.118
431.00 1.109
431.10 1.099
431.20 1.09
431.30 1.08
431.40 1.07
431.50 1.06
431.60 1.049
431.70 1.038
431.80 1.028
431.90 1.017
432.00 1.006
432.10 0.9945
432.20 0.9829
432.30 0.9711
432.40 0.9592
432.50 0.9467
432.60 0.934
432.70 0.9211
432.80 0.9079
432.90 0.8946
433.00 0.8814
433.10 0.8683
433.20 0.8552
433.30 0.8421
433.40 0.8287
433.50 0.8148
433.60 0.8005
433.70 0.7821
433.80 0.7586
433.90 0.73
434.00 0.7011
434.10 0.7016
434.20 0.7316
434.30 0.7589
434.40 0.7812
434.50 0.7984
434.60 0.8117
434.70 0.8246
434.80 0.8371
434.90 0.8492
435.00 0.8614
435.10 0.8735
435.20 0.8857
435.30 0.8979
435.40 0.91
435.50 0.9217
435.60 0.9332
435.70 0.9445
435.80 0.9552
435.90 0.9657
436.00 0.976
436.10 0.986
436.20 0.9957
436.30 1.005
436.40 1.015
436.50 1.024
436.60 1.033
436.70 1.042
436.80 1.05
436.90 1.059
437.00 1.067
437.10 1.075
437.20 1.083
437.30 1.091
437.40 1.098
437.50 1.106
437.60 1.113
437.70 1.12
437.80 1.127
437.90 1.134
438.00 1.14
438.10 1.147
438.20 1.153
438.30 1.159
438.40 1.165
438.50 1.171
438.60 1.177
438.70 1.183
438.80 1.189
438.90 1.194
439.00 1.2
439.10 1.205
439.20 1.21
439.30 1.215
439.40 1.22
439.50 1.225
439.60 1.23
439.70 1.235
439.80 1.239
439.90 1.244
440.00 1.248
440.10 1.253
440.20 1.257
440.30 1.261
440.40 1.266
440.50 1.27
440.60 1.274
440.70 1.278
440.80 1.281
440.90 1.285
441.00 1.289
441.10 1.293
441.20 1.296
441.30 1.3
441.40 1.303
441.50 1.306
441.60 1.309
441.70 1.313
441.80 1.316
441.90 1.319
442.00 1.322
442.10 1.325
442.20 1.328
442.30 1.331
442.40 1.333
442.50 1.336
442.60 1.339
442.70 1.341
442.80 1.344
442.90 1.346
443.00 1.349
443.10 1.351
443.20 1.354
443.30 1.356
443.40 1.358
443.50 1.36
443.60 1.362
443.70 1.365
443.80 1.367
443.90 1.369
444.00 1.37
444.10 1.372
444.20 1.374
444.30 1.376
444.40 1.378
444.50 1.38
444.60 1.381
444.70 1.383
444.80 1.384
444.90 1.386
445.00 1.387
445.10 1.389
445.20 1.39
445.30 1.392
445.40 1.393
445.50 1.394
445.60 1.396
445.70 1.397
445.80 1.398
445.90 1.399
446.00 1.4
446.10 1.402
446.20 1.403
446.30 1.404
446.40 1.405
446.50 1.406
446.60 1.406
446.70 1.407
446.80 1.408
446.90 1.409
447.00 1.41
447.10 1.411
447.20 1.411
447.30 1.412
447.40 1.413
447.50 1.413
447.60 1.414
447.70 1.415
447.80 1.415
447.90 1.416
448.00 1.416
448.10 1.417
448.20 1.417
448.30 1.418
448.40 1.418
448.50 1.419
448.60 1.419
448.70 1.419
448.80 1.42
448.90 1.42
449.00 1.421
449.10 1.421
449.20 1.421
449.30 1.421
449.40 1.422
449.50 1.422
449.60 1.422
449.70 1.422
449.80 1.422
449.90 1.422
450.00 1.422
450.10 1.422
450.20 1.422
450.30 1.422
450.40 1.423
450.50 1.423
450.60 1.422
450.70 1.422
450.80 1.422
450.90 1.422
451.00 1.422
451.10 1.422
451.20 1.422
451.30 1.422
451.40 1.422
451.50 1.421
451.60 1.421
451.70 1.421
451.80 1.421
451.90 1.421
452.00 1.42
452.10 1.42
452.20 1.42
452.30 1.419
452.40 1.419
452.50 1.419
452.60 1.418
452.70 1.418
452.80 1.418
452.90 1.417
453.00 1.417
453.10 1.416
453.20 1.416
453.30 1.416
453.40 1.415
453.50 1.415
453.60 1.414
453.70 1.414
453.80 1.413
453.90 1.413
