# Version 2.1 - nm, norm@500 to 1, cut digits, bergeron_2000_65.dat_2000
# Wavelength(nm)  Flambda(ergs/cm^s/s/nm)
300.00 0.01542
300.10 0.01548
300.20 0.01555
300.30 0.01562
300.40 0.01568
300.50 0.01575
300.60 0.01582
300.70 0.01589
300.80 0.01596
300.90 0.01602
301.00 0.01609
301.10 0.01616
301.20 0.01623
301.30 0.01629
301.40 0.01636
301.50 0.01643
301.60 0.0165
301.70 0.01656
301.80 0.01663
301.90 0.0167
302.00 0.01677
302.10 0.01684
302.20 0.01691
302.30 0.01698
302.40 0.01706
302.50 0.01713
302.60 0.0172
302.70 0.01727
302.80 0.01735
302.90 0.01742
303.00 0.01749
303.10 0.01756
303.20 0.01764
303.30 0.01771
303.40 0.01778
303.50 0.01785
303.60 0.01792
303.70 0.01799
303.80 0.01807
303.90 0.01814
304.00 0.01821
304.10 0.01829
304.20 0.01836
304.30 0.01844
304.40 0.01852
304.50 0.0186
304.60 0.01868
304.70 0.01875
304.80 0.01883
304.90 0.01891
305.00 0.01898
305.10 0.01906
305.20 0.01914
305.30 0.01922
305.40 0.01929
305.50 0.01937
305.60 0.01944
305.70 0.01952
305.80 0.0196
305.90 0.01967
306.00 0.01975
306.10 0.01983
306.20 0.01992
306.30 0.02
306.40 0.02008
306.50 0.02016
306.60 0.02025
306.70 0.02033
306.80 0.02041
306.90 0.02049
307.00 0.02058
307.10 0.02066
307.20 0.02074
307.30 0.02082
307.40 0.0209
307.50 0.02098
307.60 0.02107
307.70 0.02115
307.80 0.02123
307.90 0.02131
308.00 0.0214
308.10 0.02148
308.20 0.02157
308.30 0.02166
308.40 0.02174
308.50 0.02183
308.60 0.02192
308.70 0.02201
308.80 0.02209
308.90 0.02218
309.00 0.02227
309.10 0.02236
309.20 0.02244
309.30 0.02253
309.40 0.02262
309.50 0.0227
309.60 0.02279
309.70 0.02288
309.80 0.02296
309.90 0.02305
310.00 0.02314
310.10 0.02323
310.20 0.02332
310.30 0.02342
310.40 0.02351
310.50 0.02361
310.60 0.0237
310.70 0.02379
310.80 0.02389
310.90 0.02398
311.00 0.02407
311.10 0.02417
311.20 0.02426
311.30 0.02435
311.40 0.02444
311.50 0.02454
311.60 0.02463
311.70 0.02472
311.80 0.02481
311.90 0.02491
312.00 0.025
312.10 0.02509
312.20 0.02519
312.30 0.02528
312.40 0.02538
312.50 0.02548
312.60 0.02558
312.70 0.02568
312.80 0.02578
312.90 0.02588
313.00 0.02598
313.10 0.02608
313.20 0.02617
313.30 0.02627
313.40 0.02637
313.50 0.02647
313.60 0.02657
313.70 0.02666
313.80 0.02676
313.90 0.02686
314.00 0.02696
314.10 0.02706
314.20 0.02717
314.30 0.02727
314.40 0.02738
314.50 0.02748
314.60 0.02759
314.70 0.02769
314.80 0.0278
314.90 0.0279
315.00 0.02801
315.10 0.02811
315.20 0.02822
315.30 0.02832
315.40 0.02842
315.50 0.02853
315.60 0.02863
315.70 0.02873
315.80 0.02884
315.90 0.02894
316.00 0.02905
316.10 0.02916
316.20 0.02927
316.30 0.02938
316.40 0.02949
316.50 0.0296
316.60 0.02971
316.70 0.02982
316.80 0.02993
316.90 0.03004
317.00 0.03015
317.10 0.03026
317.20 0.03037
317.30 0.03048
317.40 0.03059
317.50 0.0307
317.60 0.03081
317.70 0.03092
317.80 0.03103
317.90 0.03114
318.00 0.03125
318.10 0.03137
318.20 0.03148
318.30 0.0316
318.40 0.03172
318.50 0.03184
318.60 0.03195
318.70 0.03207
318.80 0.03219
318.90 0.0323
319.00 0.03242
319.10 0.03254
319.20 0.03265
319.30 0.03277
319.40 0.03289
319.50 0.033
319.60 0.03312
319.70 0.03323
319.80 0.03335
319.90 0.03347
320.00 0.03359
320.10 0.03371
320.20 0.03383
320.30 0.03395
320.40 0.03408
320.50 0.0342
320.60 0.03432
320.70 0.03445
320.80 0.03457
320.90 0.0347
321.00 0.03482
321.10 0.03494
321.20 0.03506
321.30 0.03519
321.40 0.03531
321.50 0.03543
321.60 0.03555
321.70 0.03568
321.80 0.0358
321.90 0.03592
322.00 0.03604
322.10 0.03617
322.20 0.0363
322.30 0.03643
322.40 0.03657
322.50 0.0367
322.60 0.03683
322.70 0.03696
322.80 0.03709
322.90 0.03722
323.00 0.03735
323.10 0.03748
323.20 0.03761
323.30 0.03774
323.40 0.03787
323.50 0.03799
323.60 0.03812
323.70 0.03825
323.80 0.03838
323.90 0.03851
324.00 0.03864
324.10 0.03878
324.20 0.03891
324.30 0.03905
324.40 0.03919
324.50 0.03933
324.60 0.03946
324.70 0.0396
324.80 0.03974
324.90 0.03988
325.00 0.04001
325.10 0.04015
325.20 0.04029
325.30 0.04042
325.40 0.04056
325.50 0.04069
325.60 0.04083
325.70 0.04097
325.80 0.0411
325.90 0.04124
326.00 0.04138
326.10 0.04152
326.20 0.04166
326.30 0.04181
326.40 0.04195
326.50 0.0421
326.60 0.04224
326.70 0.04239
326.80 0.04253
326.90 0.04268
327.00 0.04282
327.10 0.04296
327.20 0.04311
327.30 0.04325
327.40 0.04339
327.50 0.04354
327.60 0.04368
327.70 0.04382
327.80 0.04396
327.90 0.04411
328.00 0.04426
328.10 0.0444
328.20 0.04455
328.30 0.04471
328.40 0.04486
328.50 0.04501
328.60 0.04516
328.70 0.04531
328.80 0.04547
328.90 0.04562
329.00 0.04577
329.10 0.04592
329.20 0.04607
329.30 0.04622
329.40 0.04637
329.50 0.04652
329.60 0.04667
329.70 0.04682
329.80 0.04697
329.90 0.04712
330.00 0.04727
330.10 0.04743
330.20 0.04759
330.30 0.04775
330.40 0.04791
330.50 0.04807
330.60 0.04823
330.70 0.04839
330.80 0.04855
330.90 0.04871
331.00 0.04887
331.10 0.04903
331.20 0.04919
331.30 0.04934
331.40 0.0495
331.50 0.04966
331.60 0.04982
331.70 0.04998
331.80 0.05013
331.90 0.05029
332.00 0.05045
332.10 0.05061
332.20 0.05078
332.30 0.05095
332.40 0.05112
332.50 0.05129
332.60 0.05145
332.70 0.05162
332.80 0.05179
332.90 0.05195
333.00 0.05212
333.10 0.05229
333.20 0.05245
333.30 0.05262
333.40 0.05279
333.50 0.05295
333.60 0.05312
333.70 0.05328
333.80 0.05345
333.90 0.05361
334.00 0.05378
334.10 0.05395
334.20 0.05413
334.30 0.0543
334.40 0.05448
334.50 0.05466
334.60 0.05483
334.70 0.05501
334.80 0.05518
334.90 0.05536
335.00 0.05553
335.10 0.0557
335.20 0.05588
335.30 0.05605
335.40 0.05623
335.50 0.0564
335.60 0.05657
335.70 0.05675
335.80 0.05692
335.90 0.05709
336.00 0.05726
336.10 0.05745
336.20 0.05763
336.30 0.05782
336.40 0.058
336.50 0.05818
336.60 0.05837
336.70 0.05855
336.80 0.05873
336.90 0.05892
337.00 0.0591
337.10 0.05928
337.20 0.05946
337.30 0.05965
337.40 0.05983
337.50 0.06001
337.60 0.06019
337.70 0.06037
337.80 0.06055
337.90 0.06073
338.00 0.06091
338.10 0.0611
338.20 0.0613
338.30 0.06149
338.40 0.06168
338.50 0.06188
338.60 0.06207
338.70 0.06226
338.80 0.06245
338.90 0.06264
339.00 0.06283
339.10 0.06302
339.20 0.06321
339.30 0.0634
339.40 0.06359
339.50 0.06378
339.60 0.06397
339.70 0.06416
339.80 0.06435
339.90 0.06454
340.00 0.06473
340.10 0.06493
340.20 0.06513
340.30 0.06533
340.40 0.06553
340.50 0.06574
340.60 0.06594
340.70 0.06614
340.80 0.06634
340.90 0.06654
341.00 0.06673
341.10 0.06693
341.20 0.06713
341.30 0.06733
341.40 0.06753
341.50 0.06773
341.60 0.06793
341.70 0.06812
341.80 0.06832
341.90 0.06852
342.00 0.06872
342.10 0.06893
342.20 0.06914
342.30 0.06935
342.40 0.06956
342.50 0.06977
342.60 0.06997
342.70 0.07018
342.80 0.07039
342.90 0.0706
343.00 0.07081
343.10 0.07102
343.20 0.07122
343.30 0.07143
343.40 0.07164
343.50 0.07185
343.60 0.07205
343.70 0.07226
343.80 0.07246
343.90 0.07267
344.00 0.07288
344.10 0.0731
344.20 0.07331
344.30 0.07353
344.40 0.07375
344.50 0.07397
344.60 0.07419
344.70 0.07441
344.80 0.07462
344.90 0.07484
345.00 0.07506
345.10 0.07527
345.20 0.07549
345.30 0.07571
345.40 0.07592
345.50 0.07614
345.60 0.07635
345.70 0.07657
345.80 0.07678
345.90 0.077
346.00 0.07721
346.10 0.07744
346.20 0.07767
346.30 0.0779
346.40 0.07813
346.50 0.07835
346.60 0.07858
346.70 0.07881
346.80 0.07903
346.90 0.07926
347.00 0.07949
347.10 0.07971
347.20 0.07994
347.30 0.08016
347.40 0.08039
347.50 0.08061
347.60 0.08084
347.70 0.08106
347.80 0.08128
347.90 0.08151
348.00 0.08173
348.10 0.08197
348.20 0.08221
348.30 0.08244
348.40 0.08268
348.50 0.08292
348.60 0.08315
348.70 0.08339
348.80 0.08363
348.90 0.08386
349.00 0.0841
349.10 0.08433
349.20 0.08457
349.30 0.0848
349.40 0.08503
349.50 0.08527
349.60 0.0855
349.70 0.08573
349.80 0.08597
349.90 0.0862
350.00 0.08643
350.10 0.08668
350.20 0.08693
350.30 0.08717
350.40 0.08742
350.50 0.08767
350.60 0.08791
350.70 0.08816
350.80 0.0884
350.90 0.08865
351.00 0.08889
351.10 0.08914
351.20 0.08938
351.30 0.08962
351.40 0.08987
351.50 0.09011
351.60 0.09035
351.70 0.0906
351.80 0.09084
351.90 0.09108
352.00 0.09132
352.10 0.09158
352.20 0.09183
352.30 0.09209
352.40 0.09235
352.50 0.0926
352.60 0.09286
352.70 0.09311
352.80 0.09337
352.90 0.09362
353.00 0.09388
353.10 0.09413
353.20 0.09438
353.30 0.09464
353.40 0.09489
353.50 0.09514
353.60 0.09539
353.70 0.09565
353.80 0.0959
353.90 0.09615
354.00 0.0964
354.10 0.09667
354.20 0.09693
354.30 0.0972
354.40 0.09746
354.50 0.09773
354.60 0.098
354.70 0.09826
354.80 0.09852
354.90 0.09879
355.00 0.09905
355.10 0.09931
355.20 0.09958
355.30 0.09984
355.40 0.1001
355.50 0.1004
355.60 0.1006
355.70 0.1009
355.80 0.1011
355.90 0.1014
356.00 0.1017
356.10 0.1019
356.20 0.1022
356.30 0.1025
356.40 0.1028
356.50 0.1031
356.60 0.1033
356.70 0.1036
356.80 0.1039
356.90 0.1041
357.00 0.1044
357.10 0.1047
357.20 0.105
357.30 0.1052
357.40 0.1055
357.50 0.1058
357.60 0.1061
357.70 0.1063
357.80 0.1066
357.90 0.1069
358.00 0.1071
358.10 0.1074
358.20 0.1077
358.30 0.108
358.40 0.1083
358.50 0.1086
358.60 0.1089
358.70 0.1091
358.80 0.1094
358.90 0.1097
359.00 0.11
359.10 0.1103
359.20 0.1106
359.30 0.1108
359.40 0.1111
359.50 0.1114
359.60 0.1117
359.70 0.112
359.80 0.1122
359.90 0.1125
360.00 0.1128
360.10 0.1131
360.20 0.1134
360.30 0.1137
360.40 0.114
360.50 0.1143
360.60 0.1146
360.70 0.1149
360.80 0.1152
360.90 0.1155
361.00 0.1158
361.10 0.116
361.20 0.1163
361.30 0.1166
361.40 0.1169
361.50 0.1172
361.60 0.1175
361.70 0.1178
361.80 0.1181
361.90 0.1184
362.00 0.1187
362.10 0.119
362.20 0.1193
362.30 0.1196
362.40 0.1199
362.50 0.1202
362.60 0.1205
362.70 0.1208
362.80 0.1211
362.90 0.1214
363.00 0.1217
363.10 0.122
363.20 0.1223
363.30 0.1226
363.40 0.1229
363.50 0.1232
363.60 0.1235
363.70 0.1238
363.80 0.1242
363.90 0.1245
364.00 0.1248
364.10 0.1251
364.20 0.1254
364.30 0.1257
364.40 0.126
364.50 0.1263
364.60 0.1266
364.70 0.1269
364.80 0.1272
364.90 0.1276
365.00 0.1279
365.10 0.1282
365.20 0.1285
365.30 0.1288
365.40 0.1291
365.50 0.1295
365.60 0.1298
365.70 0.1301
365.80 0.1304
365.90 0.1307
366.00 0.131
366.10 0.1313
366.20 0.1317
366.30 0.132
366.40 0.1323
366.50 0.1327
366.60 0.133
366.70 0.1333
366.80 0.1336
366.90 0.134
367.00 0.1343
367.10 0.1346
367.20 0.1349
367.30 0.1352
367.40 0.1356
367.50 0.1359
367.60 0.1362
367.70 0.1365
367.80 0.1369
367.90 0.1372
368.00 0.1375
368.10 0.1378
368.20 0.1382
368.30 0.1385
368.40 0.1389
368.50 0.1392
368.60 0.1395
368.70 0.1399
368.80 0.1402
368.90 0.1405
369.00 0.1409
369.10 0.1412
369.20 0.1415
369.30 0.1419
369.40 0.1422
369.50 0.1425
369.60 0.1429
369.70 0.1432
369.80 0.1435
369.90 0.1439
370.00 0.1442
370.10 0.1445
370.20 0.1449
370.30 0.1452
370.40 0.1456
370.50 0.1459
370.60 0.1463
370.70 0.1466
370.80 0.147
370.90 0.1473
371.00 0.1477
371.10 0.148
371.20 0.1484
371.30 0.1487
371.40 0.149
371.50 0.1494
371.60 0.1497
371.70 0.1501
371.80 0.1504
371.90 0.1508
372.00 0.1511
372.10 0.1515
372.20 0.1518
372.30 0.1522
372.40 0.1525
372.50 0.1529
372.60 0.1532
372.70 0.1536
372.80 0.154
372.90 0.1543
373.00 0.1547
373.10 0.155
373.20 0.1554
373.30 0.1557
373.40 0.1561
373.50 0.1564
373.60 0.1568
373.70 0.1572
373.80 0.1575
373.90 0.1579
374.00 0.1582
374.10 0.1586
374.20 0.159
374.30 0.1593
374.40 0.1597
374.50 0.1601
374.60 0.1604
374.70 0.1608
374.80 0.1612
374.90 0.1615
375.00 0.1619
375.10 0.1623
375.20 0.1626
375.30 0.163
375.40 0.1634
375.50 0.1637
375.60 0.1641
375.70 0.1645
375.80 0.1648
375.90 0.1652
376.00 0.1655
376.10 0.1659
376.20 0.1663
376.30 0.1667
376.40 0.167
376.50 0.1674
376.60 0.1678
376.70 0.1682
376.80 0.1685
376.90 0.1689
377.00 0.1693
377.10 0.1697
377.20 0.1701
377.30 0.1704
377.40 0.1708
377.50 0.1712
377.60 0.1716
377.70 0.172
377.80 0.1723
377.90 0.1727
378.00 0.1731
378.10 0.1735
378.20 0.1739
378.30 0.1743
378.40 0.1746
378.50 0.175
378.60 0.1754
378.70 0.1758
378.80 0.1762
378.90 0.1766
379.00 0.1769
379.10 0.1773
379.20 0.1777
379.30 0.1781
379.40 0.1785
379.50 0.1789
379.60 0.1793
379.70 0.1797
379.80 0.1801
379.90 0.1805
380.00 0.1809
380.10 0.1813
380.20 0.1816
380.30 0.182
380.40 0.1824
380.50 0.1828
380.60 0.1832
380.70 0.1836
380.80 0.184
380.90 0.1844
381.00 0.1848
381.10 0.1852
381.20 0.1856
381.30 0.186
381.40 0.1864
381.50 0.1868
381.60 0.1872
381.70 0.1876
381.80 0.188
381.90 0.1884
382.00 0.1888
382.10 0.1892
382.20 0.1896
382.30 0.1901
382.40 0.1905
382.50 0.1909
382.60 0.1913
382.70 0.1917
382.80 0.1921
382.90 0.1925
383.00 0.1929
383.10 0.1933
383.20 0.1937
383.30 0.1941
383.40 0.1945
383.50 0.195
383.60 0.1954
383.70 0.1958
383.80 0.1962
383.90 0.1966
384.00 0.197
384.10 0.1974
384.20 0.1979
384.30 0.1983
384.40 0.1987
384.50 0.1991
384.60 0.1995
384.70 0.2
384.80 0.2004
384.90 0.2008
385.00 0.2012
385.10 0.2016
385.20 0.2021
385.30 0.2025
385.40 0.2029
385.50 0.2033
385.60 0.2037
385.70 0.2042
385.80 0.2046
385.90 0.205
386.00 0.2054
386.10 0.2059
386.20 0.2063
386.30 0.2067
386.40 0.2072
386.50 0.2076
386.60 0.208
386.70 0.2084
386.80 0.2089
386.90 0.2093
387.00 0.2097
387.10 0.2102
387.20 0.2106
387.30 0.211
387.40 0.2115
387.50 0.2119
387.60 0.2123
387.70 0.2128
387.80 0.2132
387.90 0.2137
388.00 0.2141
388.10 0.2145
388.20 0.215
388.30 0.2154
388.40 0.2158
388.50 0.2163
388.60 0.2167
388.70 0.2172
388.80 0.2176
388.90 0.218
389.00 0.2185
389.10 0.2189
389.20 0.2194
389.30 0.2198
389.40 0.2203
389.50 0.2207
389.60 0.2212
389.70 0.2216
389.80 0.222
389.90 0.2225
390.00 0.2229
390.10 0.2234
390.20 0.2238
390.30 0.2243
390.40 0.2247
390.50 0.2252
390.60 0.2256
390.70 0.2261
390.80 0.2265
390.90 0.227
391.00 0.2275
391.10 0.2279
391.20 0.2284
391.30 0.2288
391.40 0.2293
391.50 0.2297
391.60 0.2302
391.70 0.2306
391.80 0.2311
391.90 0.2316
392.00 0.232
392.10 0.2325
392.20 0.2329
392.30 0.2334
392.40 0.2339
392.50 0.2343
392.60 0.2348
392.70 0.2352
392.80 0.2357
392.90 0.2362
393.00 0.2366
393.10 0.2371
393.20 0.2376
393.30 0.238
393.40 0.2385
393.50 0.239
393.60 0.2394
393.70 0.2399
393.80 0.2404
393.90 0.2408
394.00 0.2413
394.10 0.2418
394.20 0.2423
394.30 0.2427
394.40 0.2432
394.50 0.2437
394.60 0.2441
394.70 0.2446
394.80 0.2451
394.90 0.2456
395.00 0.246
395.10 0.2465
395.20 0.247
395.30 0.2475
395.40 0.2479
395.50 0.2484
395.60 0.2489
395.70 0.2494
395.80 0.2499
395.90 0.2503
396.00 0.2508
396.10 0.2513
396.20 0.2518
396.30 0.2523
396.40 0.2528
396.50 0.2532
396.60 0.2537
396.70 0.2542
396.80 0.2547
396.90 0.2552
397.00 0.2557
397.10 0.2562
397.20 0.2566
397.30 0.2571
397.40 0.2576
397.50 0.2581
397.60 0.2586
397.70 0.2591
397.80 0.2596
397.90 0.2601
398.00 0.2606
398.10 0.2611
398.20 0.2616
398.30 0.262
398.40 0.2625
398.50 0.263
398.60 0.2635
398.70 0.264
398.80 0.2645
398.90 0.265
399.00 0.2655
399.10 0.266
399.20 0.2665
399.30 0.267
399.40 0.2675
399.50 0.268
399.60 0.2685
399.70 0.269
399.80 0.2695
399.90 0.27
400.00 0.2705
400.10 0.271
400.20 0.2715
400.30 0.272
400.40 0.2725
400.50 0.273
400.60 0.2735
400.70 0.274
400.80 0.2746
400.90 0.2751
401.00 0.2756
401.10 0.2761
401.20 0.2766
401.30 0.2771
401.40 0.2776
401.50 0.2781
401.60 0.2786
401.70 0.2791
401.80 0.2797
401.90 0.2802
402.00 0.2807
402.10 0.2812
402.20 0.2817
402.30 0.2822
402.40 0.2827
402.50 0.2833
402.60 0.2838
402.70 0.2843
402.80 0.2848
402.90 0.2853
403.00 0.2859
403.10 0.2864
403.20 0.2869
403.30 0.2874
403.40 0.2879
403.50 0.2885
403.60 0.289
403.70 0.2895
403.80 0.29
403.90 0.2905
404.00 0.2911
404.10 0.2916
404.20 0.2921
404.30 0.2926
404.40 0.2932
404.50 0.2937
404.60 0.2942
404.70 0.2948
404.80 0.2953
404.90 0.2958
405.00 0.2963
405.10 0.2969
405.20 0.2974
405.30 0.2979
405.40 0.2985
405.50 0.299
405.60 0.2995
405.70 0.3001
405.80 0.3006
405.90 0.3011
406.00 0.3017
406.10 0.3022
406.20 0.3027
406.30 0.3033
406.40 0.3038
406.50 0.3044
406.60 0.3049
406.70 0.3054
406.80 0.306
406.90 0.3065
407.00 0.3071
407.10 0.3076
407.20 0.3081
407.30 0.3087
407.40 0.3092
407.50 0.3098
407.60 0.3103
407.70 0.3108
407.80 0.3114
407.90 0.3119
408.00 0.3125
408.10 0.313
408.20 0.3136
408.30 0.3141
408.40 0.3147
408.50 0.3152
408.60 0.3158
408.70 0.3163
408.80 0.3169
408.90 0.3174
409.00 0.318
409.10 0.3185
409.20 0.3191
409.30 0.3196
409.40 0.3202
409.50 0.3207
409.60 0.3213
409.70 0.3219
409.80 0.3224
409.90 0.323
410.00 0.3235
410.10 0.3241
410.20 0.3246
410.30 0.3252
410.40 0.3258
410.50 0.3263
410.60 0.3269
410.70 0.3274
410.80 0.328
410.90 0.3286
411.00 0.3291
411.10 0.3297
411.20 0.3302
411.30 0.3308
411.40 0.3314
411.50 0.3319
411.60 0.3325
411.70 0.3331
411.80 0.3336
411.90 0.3342
412.00 0.3348
412.10 0.3353
412.20 0.3359
412.30 0.3365
412.40 0.337
412.50 0.3376
412.60 0.3382
412.70 0.3388
412.80 0.3393
412.90 0.3399
413.00 0.3405
413.10 0.341
413.20 0.3416
413.30 0.3422
413.40 0.3428
413.50 0.3433
413.60 0.3439
413.70 0.3445
413.80 0.3451
413.90 0.3457
414.00 0.3462
414.10 0.3468
414.20 0.3474
414.30 0.348
414.40 0.3485
414.50 0.3491
414.60 0.3497
414.70 0.3503
414.80 0.3509
414.90 0.3515
415.00 0.352
415.10 0.3526
415.20 0.3532
415.30 0.3538
415.40 0.3544
415.50 0.355
415.60 0.3555
415.70 0.3561
415.80 0.3567
415.90 0.3573
416.00 0.3579
416.10 0.3585
416.20 0.3591
416.30 0.3597
416.40 0.3603
416.50 0.3608
416.60 0.3614
416.70 0.362
416.80 0.3626
416.90 0.3632
417.00 0.3638
417.10 0.3644
417.20 0.365
417.30 0.3656
417.40 0.3662
417.50 0.3668
417.60 0.3674
417.70 0.368
417.80 0.3686
417.90 0.3692
418.00 0.3698
418.10 0.3704
418.20 0.371
418.30 0.3716
418.40 0.3722
418.50 0.3728
418.60 0.3734
418.70 0.374
418.80 0.3746
418.90 0.3752
419.00 0.3758
419.10 0.3764
419.20 0.377
419.30 0.3776
419.40 0.3782
419.50 0.3788
419.60 0.3794
419.70 0.38
419.80 0.3806
419.90 0.3812
420.00 0.3818
420.10 0.3824
420.20 0.3831
420.30 0.3837
420.40 0.3843
420.50 0.3849
420.60 0.3855
420.70 0.3861
420.80 0.3867
420.90 0.3873
421.00 0.388
421.10 0.3886
421.20 0.3892
421.30 0.3898
421.40 0.3904
421.50 0.391
421.60 0.3916
421.70 0.3923
421.80 0.3929
421.90 0.3935
422.00 0.3941
422.10 0.3947
422.20 0.3954
422.30 0.396
422.40 0.3966
422.50 0.3972
422.60 0.3978
422.70 0.3985
422.80 0.3991
422.90 0.3997
423.00 0.4003
423.10 0.401
423.20 0.4016
423.30 0.4022
423.40 0.4028
423.50 0.4035
423.60 0.4041
423.70 0.4047
423.80 0.4054
423.90 0.406
424.00 0.4066
424.10 0.4072
424.20 0.4079
424.30 0.4085
424.40 0.4091
424.50 0.4098
424.60 0.4104
424.70 0.411
424.80 0.4117
424.90 0.4123
425.00 0.4129
425.10 0.4136
425.20 0.4142
425.30 0.4148
425.40 0.4155
425.50 0.4161
425.60 0.4167
425.70 0.4174
425.80 0.418
425.90 0.4187
426.00 0.4193
426.10 0.4199
426.20 0.4206
426.30 0.4212
426.40 0.4219
426.50 0.4225
426.60 0.4231
426.70 0.4238
426.80 0.4244
426.90 0.4251
427.00 0.4257
427.10 0.4264
427.20 0.427
427.30 0.4276
427.40 0.4283
427.50 0.4289
427.60 0.4296
427.70 0.4302
427.80 0.4309
427.90 0.4315
428.00 0.4322
428.10 0.4328
428.20 0.4335
428.30 0.4341
428.40 0.4348
428.50 0.4354
428.60 0.4361
428.70 0.4367
428.80 0.4374
428.90 0.438
429.00 0.4387
429.10 0.4393
429.20 0.44
429.30 0.4406
429.40 0.4413
429.50 0.442
429.60 0.4426
429.70 0.4433
429.80 0.4439
429.90 0.4446
430.00 0.4452
430.10 0.4459
430.20 0.4466
430.30 0.4472
430.40 0.4479
430.50 0.4485
430.60 0.4492
430.70 0.4499
430.80 0.4505
430.90 0.4512
431.00 0.4519
431.10 0.4525
431.20 0.4532
431.30 0.4538
431.40 0.4545
431.50 0.4552
431.60 0.4558
431.70 0.4565
431.80 0.4572
431.90 0.4578
432.00 0.4585
432.10 0.4592
432.20 0.4598
432.30 0.4605
432.40 0.4612
432.50 0.4619
432.60 0.4625
432.70 0.4632
432.80 0.4639
432.90 0.4645
433.00 0.4652
433.10 0.4659
433.20 0.4666
433.30 0.4672
433.40 0.4679
433.50 0.4686
433.60 0.4693
433.70 0.4699
433.80 0.4706
433.90 0.4713
434.00 0.472
434.10 0.4726
434.20 0.4733
434.30 0.474
434.40 0.4747
434.50 0.4754
434.60 0.476
434.70 0.4767
434.80 0.4774
434.90 0.4781
435.00 0.4788
435.10 0.4794
435.20 0.4801
435.30 0.4808
435.40 0.4815
435.50 0.4822
435.60 0.4829
435.70 0.4835
435.80 0.4842
435.90 0.4849
436.00 0.4856
436.10 0.4863
436.20 0.487
436.30 0.4877
436.40 0.4884
436.50 0.489
436.60 0.4897
436.70 0.4904
436.80 0.4911
436.90 0.4918
437.00 0.4925
437.10 0.4932
437.20 0.4939
437.30 0.4946
437.40 0.4953
437.50 0.4959
437.60 0.4966
437.70 0.4973
437.80 0.498
437.90 0.4987
438.00 0.4994
438.10 0.5001
438.20 0.5008
438.30 0.5015
438.40 0.5022
438.50 0.5029
438.60 0.5036
438.70 0.5043
438.80 0.505
438.90 0.5057
439.00 0.5064
439.10 0.5071
