# Version 2.1 - nm, norm@500 to 1, cut digits, bergeron_90000_75.dat_90000
# Wavelength(nm)  Flambda(ergs/cm^s/s/nm)
300.00 6.755
300.10 6.746
300.20 6.738
300.30 6.729
300.40 6.721
300.50 6.713
300.60 6.704
300.70 6.696
300.80 6.688
300.90 6.679
301.00 6.671
301.10 6.663
301.20 6.654
301.30 6.646
301.40 6.638
301.50 6.63
301.60 6.621
301.70 6.613
301.80 6.605
301.90 6.597
302.00 6.589
302.10 6.58
302.20 6.572
302.30 6.564
302.40 6.556
302.50 6.548
302.60 6.54
302.70 6.532
302.80 6.524
302.90 6.516
303.00 6.507
303.10 6.499
303.20 6.491
303.30 6.483
303.40 6.475
303.50 6.467
303.60 6.459
303.70 6.451
303.80 6.443
303.90 6.435
304.00 6.428
304.10 6.42
304.20 6.412
304.30 6.404
304.40 6.396
304.50 6.388
304.60 6.38
304.70 6.372
304.80 6.365
304.90 6.357
305.00 6.349
305.10 6.341
305.20 6.333
305.30 6.326
305.40 6.318
305.50 6.31
305.60 6.302
305.70 6.295
305.80 6.287
305.90 6.279
306.00 6.271
306.10 6.264
306.20 6.256
306.30 6.248
306.40 6.241
306.50 6.233
306.60 6.226
306.70 6.218
306.80 6.21
306.90 6.203
307.00 6.195
307.10 6.188
307.20 6.18
307.30 6.172
307.40 6.165
307.50 6.157
307.60 6.15
307.70 6.142
307.80 6.135
307.90 6.127
308.00 6.12
308.10 6.113
308.20 6.105
308.30 6.098
308.40 6.09
308.50 6.083
308.60 6.075
308.70 6.068
308.80 6.061
308.90 6.053
309.00 6.046
309.10 6.039
309.20 6.031
309.30 6.024
309.40 6.017
309.50 6.009
309.60 6.002
309.70 5.995
309.80 5.988
309.90 5.98
310.00 5.973
310.10 5.966
310.20 5.959
310.30 5.952
310.40 5.944
310.50 5.937
310.60 5.93
310.70 5.923
310.80 5.916
310.90 5.909
311.00 5.901
311.10 5.894
311.20 5.887
311.30 5.88
311.40 5.873
311.50 5.866
311.60 5.859
311.70 5.852
311.80 5.845
311.90 5.838
312.00 5.831
312.10 5.824
312.20 5.817
312.30 5.81
312.40 5.803
312.50 5.796
312.60 5.789
312.70 5.782
312.80 5.775
312.90 5.768
313.00 5.761
313.10 5.754
313.20 5.747
313.30 5.74
313.40 5.733
313.50 5.727
313.60 5.72
313.70 5.713
313.80 5.706
313.90 5.699
314.00 5.692
314.10 5.686
314.20 5.679
314.30 5.672
314.40 5.665
314.50 5.659
314.60 5.652
314.70 5.645
314.80 5.638
314.90 5.632
315.00 5.625
315.10 5.618
315.20 5.611
315.30 5.605
315.40 5.598
315.50 5.591
315.60 5.585
315.70 5.578
315.80 5.572
315.90 5.565
316.00 5.558
316.10 5.552
316.20 5.545
316.30 5.539
316.40 5.532
316.50 5.525
316.60 5.519
316.70 5.512
316.80 5.506
316.90 5.499
317.00 5.493
317.10 5.486
317.20 5.48
317.30 5.473
317.40 5.467
317.50 5.46
317.60 5.454
317.70 5.447
317.80 5.441
317.90 5.434
318.00 5.428
318.10 5.422
318.20 5.415
318.30 5.409
318.40 5.403
318.50 5.396
318.60 5.39
318.70 5.383
318.80 5.377
318.90 5.371
319.00 5.364
319.10 5.358
319.20 5.352
319.30 5.345
319.40 5.339
319.50 5.333
319.60 5.327
319.70 5.32
319.80 5.314
319.90 5.308
320.00 5.302
320.10 5.295
320.20 5.289
320.30 5.283
320.40 5.277
320.50 5.271
320.60 5.264
320.70 5.258
320.80 5.252
320.90 5.246
321.00 5.24
321.10 5.234
321.20 5.228
321.30 5.221
321.40 5.215
321.50 5.209
321.60 5.203
321.70 5.197
321.80 5.191
321.90 5.185
322.00 5.179
322.10 5.173
322.20 5.167
322.30 5.161
322.40 5.155
322.50 5.149
322.60 5.143
322.70 5.137
322.80 5.131
322.90 5.125
323.00 5.119
323.10 5.113
323.20 5.107
323.30 5.101
323.40 5.095
323.50 5.089
323.60 5.083
323.70 5.077
323.80 5.071
323.90 5.066
324.00 5.06
324.10 5.054
324.20 5.048
324.30 5.042
324.40 5.036
324.50 5.03
324.60 5.025
324.70 5.019
324.80 5.013
324.90 5.007
325.00 5.001
325.10 4.996
325.20 4.99
325.30 4.984
325.40 4.978
325.50 4.973
325.60 4.967
325.70 4.961
325.80 4.955
325.90 4.95
326.00 4.944
326.10 4.938
326.20 4.933
326.30 4.927
326.40 4.921
326.50 4.916
326.60 4.91
326.70 4.904
326.80 4.899
326.90 4.893
327.00 4.887
327.10 4.882
327.20 4.876
327.30 4.87
327.40 4.865
327.50 4.859
327.60 4.854
327.70 4.848
327.80 4.843
327.90 4.837
328.00 4.831
328.10 4.826
328.20 4.82
328.30 4.815
328.40 4.809
328.50 4.804
328.60 4.798
328.70 4.793
328.80 4.787
328.90 4.782
329.00 4.776
329.10 4.771
329.20 4.766
329.30 4.76
329.40 4.755
329.50 4.749
329.60 4.744
329.70 4.738
329.80 4.733
329.90 4.728
330.00 4.722
330.10 4.717
330.20 4.711
330.30 4.706
330.40 4.701
330.50 4.695
330.60 4.69
330.70 4.685
330.80 4.679
330.90 4.674
331.00 4.669
331.10 4.664
331.20 4.658
331.30 4.653
331.40 4.648
331.50 4.642
331.60 4.637
331.70 4.632
331.80 4.627
331.90 4.621
332.00 4.616
332.10 4.611
332.20 4.606
332.30 4.6
332.40 4.595
332.50 4.59
332.60 4.585
332.70 4.58
332.80 4.574
332.90 4.569
333.00 4.564
333.10 4.559
333.20 4.554
333.30 4.549
333.40 4.544
333.50 4.538
333.60 4.533
333.70 4.528
333.80 4.523
333.90 4.518
334.00 4.513
334.10 4.508
334.20 4.503
334.30 4.498
334.40 4.493
334.50 4.487
334.60 4.482
334.70 4.477
334.80 4.472
334.90 4.467
335.00 4.462
335.10 4.457
335.20 4.452
335.30 4.447
335.40 4.442
335.50 4.437
335.60 4.432
335.70 4.427
335.80 4.422
335.90 4.417
336.00 4.412
336.10 4.407
336.20 4.403
336.30 4.398
336.40 4.393
336.50 4.388
336.60 4.383
336.70 4.378
336.80 4.373
336.90 4.368
337.00 4.363
337.10 4.359
337.20 4.354
337.30 4.349
337.40 4.344
337.50 4.339
337.60 4.334
337.70 4.329
337.80 4.325
337.90 4.32
338.00 4.315
338.10 4.31
338.20 4.305
338.30 4.301
338.40 4.296
338.50 4.291
338.60 4.286
338.70 4.281
338.80 4.277
338.90 4.272
339.00 4.267
339.10 4.262
339.20 4.258
339.30 4.253
339.40 4.248
339.50 4.244
339.60 4.239
339.70 4.234
339.80 4.229
339.90 4.225
340.00 4.22
340.10 4.215
340.20 4.211
340.30 4.206
340.40 4.201
340.50 4.197
340.60 4.192
340.70 4.187
340.80 4.183
340.90 4.178
341.00 4.174
341.10 4.169
341.20 4.164
341.30 4.16
341.40 4.155
341.50 4.151
341.60 4.146
341.70 4.141
341.80 4.137
341.90 4.132
342.00 4.128
342.10 4.123
342.20 4.119
342.30 4.114
342.40 4.11
342.50 4.105
342.60 4.101
342.70 4.096
342.80 4.092
342.90 4.087
343.00 4.083
343.10 4.078
343.20 4.074
343.30 4.069
343.40 4.065
343.50 4.06
343.60 4.056
343.70 4.051
343.80 4.047
343.90 4.042
344.00 4.038
344.10 4.034
344.20 4.029
344.30 4.025
344.40 4.02
344.50 4.016
344.60 4.012
344.70 4.007
344.80 4.003
344.90 3.998
345.00 3.994
345.10 3.99
345.20 3.985
345.30 3.981
345.40 3.977
345.50 3.972
345.60 3.968
345.70 3.964
345.80 3.959
345.90 3.955
346.00 3.951
346.10 3.946
346.20 3.942
346.30 3.938
346.40 3.934
346.50 3.929
346.60 3.925
346.70 3.921
346.80 3.916
346.90 3.912
347.00 3.908
347.10 3.904
347.20 3.899
347.30 3.895
347.40 3.891
347.50 3.887
347.60 3.883
347.70 3.878
347.80 3.874
347.90 3.87
348.00 3.866
348.10 3.861
348.20 3.857
348.30 3.853
348.40 3.849
348.50 3.845
348.60 3.841
348.70 3.837
348.80 3.832
348.90 3.828
349.00 3.824
349.10 3.82
349.20 3.816
349.30 3.812
349.40 3.808
349.50 3.803
349.60 3.799
349.70 3.795
349.80 3.791
349.90 3.787
350.00 3.783
350.10 3.779
350.20 3.775
350.30 3.771
350.40 3.767
350.50 3.763
350.60 3.759
350.70 3.755
350.80 3.751
350.90 3.747
351.00 3.743
351.10 3.739
351.20 3.734
351.30 3.73
351.40 3.726
351.50 3.722
351.60 3.718
351.70 3.714
351.80 3.71
351.90 3.706
352.00 3.702
352.10 3.699
352.20 3.695
352.30 3.691
352.40 3.687
352.50 3.683
352.60 3.679
352.70 3.675
352.80 3.671
352.90 3.667
353.00 3.663
353.10 3.659
353.20 3.655
353.30 3.651
353.40 3.647
353.50 3.644
353.60 3.64
353.70 3.636
353.80 3.632
353.90 3.628
354.00 3.624
354.10 3.62
354.20 3.616
354.30 3.613
354.40 3.609
354.50 3.605
354.60 3.601
354.70 3.597
354.80 3.593
354.90 3.59
355.00 3.586
355.10 3.582
355.20 3.578
355.30 3.574
355.40 3.571
355.50 3.567
355.60 3.563
355.70 3.559
355.80 3.555
355.90 3.552
356.00 3.548
356.10 3.544
356.20 3.54
356.30 3.537
356.40 3.533
356.50 3.529
356.60 3.525
356.70 3.522
356.80 3.518
356.90 3.514
357.00 3.511
357.10 3.507
357.20 3.503
357.30 3.499
357.40 3.496
357.50 3.492
357.60 3.488
357.70 3.485
357.80 3.481
357.90 3.477
358.00 3.474
358.10 3.47
358.20 3.466
358.30 3.463
358.40 3.459
358.50 3.455
358.60 3.452
358.70 3.448
358.80 3.444
358.90 3.441
359.00 3.437
359.10 3.434
359.20 3.43
359.30 3.426
359.40 3.423
359.50 3.419
359.60 3.416
359.70 3.412
359.80 3.408
359.90 3.405
360.00 3.401
360.10 3.398
360.20 3.394
360.30 3.391
360.40 3.387
360.50 3.383
360.60 3.38
360.70 3.376
360.80 3.373
360.90 3.369
361.00 3.366
361.10 3.362
361.20 3.359
361.30 3.355
361.40 3.352
361.50 3.348
361.60 3.345
361.70 3.341
361.80 3.338
361.90 3.334
362.00 3.331
362.10 3.327
362.20 3.324
362.30 3.32
362.40 3.317
362.50 3.313
362.60 3.31
362.70 3.307
362.80 3.303
362.90 3.3
363.00 3.296
363.10 3.293
363.20 3.289
363.30 3.286
363.40 3.283
363.50 3.279
363.60 3.276
363.70 3.272
363.80 3.269
363.90 3.266
364.00 3.262
364.10 3.259
364.20 3.255
364.30 3.252
364.40 3.249
364.50 3.245
364.60 3.242
364.70 3.239
364.80 3.235
364.90 3.232
365.00 3.229
365.10 3.225
365.20 3.222
365.30 3.219
365.40 3.215
365.50 3.212
365.60 3.209
365.70 3.205
365.80 3.202
365.90 3.199
366.00 3.195
366.10 3.192
366.20 3.189
366.30 3.185
366.40 3.182
366.50 3.179
366.60 3.175
366.70 3.172
366.80 3.169
366.90 3.165
367.00 3.162
367.10 3.159
367.20 3.155
367.30 3.152
367.40 3.149
367.50 3.145
367.60 3.142
367.70 3.139
367.80 3.136
367.90 3.132
368.00 3.129
368.10 3.126
368.20 3.123
368.30 3.119
368.40 3.116
368.50 3.113
368.60 3.109
368.70 3.106
368.80 3.103
368.90 3.1
369.00 3.097
369.10 3.093
369.20 3.09
369.30 3.087
369.40 3.084
369.50 3.08
369.60 3.077
369.70 3.074
369.80 3.071
369.90 3.068
370.00 3.064
370.10 3.061
370.20 3.058
370.30 3.055
370.40 3.052
370.50 3.048
370.60 3.045
370.70 3.042
370.80 3.039
370.90 3.036
371.00 3.033
371.10 3.03
371.20 3.026
371.30 3.023
371.40 3.02
371.50 3.017
371.60 3.014
371.70 3.011
371.80 3.008
371.90 3.005
372.00 3.001
372.10 2.998
372.20 2.995
372.30 2.992
372.40 2.989
372.50 2.986
372.60 2.983
372.70 2.98
372.80 2.977
372.90 2.974
373.00 2.971
373.10 2.968
373.20 2.965
373.30 2.962
373.40 2.959
373.50 2.956
373.60 2.953
373.70 2.95
373.80 2.947
373.90 2.944
374.00 2.941
374.10 2.938
374.20 2.935
374.30 2.932
374.40 2.929
374.50 2.926
374.60 2.923
374.70 2.92
374.80 2.917
374.90 2.914
375.00 2.911
375.10 2.908
375.20 2.905
375.30 2.902
375.40 2.899
375.50 2.896
375.60 2.893
375.70 2.89
375.80 2.887
375.90 2.884
376.00 2.881
376.10 2.879
376.20 2.876
376.30 2.873
376.40 2.87
376.50 2.867
376.60 2.864
376.70 2.861
376.80 2.859
376.90 2.856
377.00 2.853
377.10 2.85
377.20 2.847
377.30 2.844
377.40 2.842
377.50 2.839
377.60 2.836
377.70 2.833
377.80 2.831
377.90 2.828
378.00 2.825
378.10 2.822
378.20 2.82
378.30 2.817
378.40 2.814
378.50 2.811
378.60 2.808
378.70 2.806
378.80 2.803
378.90 2.8
379.00 2.797
379.10 2.795
379.20 2.792
379.30 2.789
379.40 2.787
379.50 2.784
379.60 2.781
379.70 2.778
379.80 2.776
379.90 2.773
380.00 2.77
380.10 2.768
380.20 2.765
380.30 2.763
380.40 2.76
380.50 2.758
380.60 2.755
380.70 2.753
380.80 2.75
380.90 2.748
381.00 2.745
381.10 2.743
381.20 2.74
381.30 2.737
381.40 2.735
381.50 2.732
381.60 2.729
381.70 2.727
381.80 2.724
381.90 2.721
382.00 2.718
382.10 2.716
382.20 2.713
382.30 2.71
382.40 2.707
382.50 2.704
382.60 2.701
382.70 2.699
382.80 2.696
382.90 2.693
383.00 2.69
383.10 2.687
383.20 2.684
383.30 2.681
383.40 2.679
383.50 2.676
383.60 2.674
383.70 2.672
383.80 2.669
383.90 2.667
384.00 2.665
384.10 2.663
384.20 2.661
384.30 2.659
384.40 2.657
384.50 2.655
384.60 2.653
384.70 2.651
384.80 2.649
384.90 2.647
385.00 2.645
385.10 2.643
385.20 2.641
385.30 2.638
385.40 2.636
385.50 2.634
385.60 2.631
385.70 2.629
385.80 2.626
385.90 2.623
386.00 2.621
386.10 2.618
386.20 2.615
386.30 2.613
386.40 2.61
386.50 2.607
386.60 2.604
386.70 2.601
386.80 2.598
386.90 2.594
387.00 2.591
387.10 2.588
387.20 2.585
387.30 2.581
387.40 2.578
387.50 2.574
387.60 2.571
387.70 2.567
387.80 2.564
387.90 2.56
388.00 2.556
388.10 2.553
388.20 2.549
388.30 2.545
388.40 2.542
388.50 2.538
388.60 2.535
388.70 2.532
388.80 2.53
388.90 2.527
389.00 2.525
389.10 2.523
389.20 2.522
389.30 2.521
389.40 2.52
389.50 2.519
389.60 2.518
389.70 2.517
389.80 2.516
389.90 2.516
390.00 2.515
390.10 2.514
390.20 2.513
390.30 2.512
390.40 2.511
390.50 2.51
390.60 2.509
390.70 2.508
390.80 2.507
390.90 2.505
391.00 2.504
391.10 2.503
391.20 2.501
391.30 2.5
391.40 2.498
391.50 2.497
391.60 2.495
391.70 2.493
391.80 2.491
391.90 2.489
392.00 2.487
392.10 2.485
392.20 2.483
392.30 2.481
392.40 2.479
392.50 2.477
392.60 2.474
392.70 2.472
392.80 2.469
392.90 2.467
393.00 2.464
393.10 2.462
393.20 2.459
393.30 2.456
393.40 2.453
393.50 2.45
393.60 2.447
393.70 2.444
393.80 2.44
393.90 2.437
394.00 2.433
394.10 2.43
394.20 2.426
394.30 2.423
394.40 2.419
394.50 2.415
394.60 2.411
394.70 2.407
394.80 2.402
394.90 2.398
395.00 2.394
395.10 2.389
395.20 2.384
395.30 2.379
395.40 2.375
395.50 2.37
395.60 2.364
395.70 2.359
395.80 2.354
395.90 2.349
396.00 2.343
396.10 2.338
396.20 2.332
396.30 2.326
396.40 2.321
396.50 2.315
396.60 2.309
396.70 2.304
396.80 2.298
396.90 2.293
397.00 2.289
397.10 2.289
397.20 2.29
397.30 2.291
397.40 2.292
397.50 2.294
397.60 2.295
397.70 2.297
397.80 2.298
397.90 2.3
398.00 2.301
398.10 2.302
398.20 2.304
398.30 2.305
398.40 2.306
398.50 2.307
398.60 2.307
398.70 2.308
398.80 2.309
398.90 2.309
399.00 2.31
399.10 2.31
399.20 2.31
399.30 2.31
399.40 2.31
399.50 2.31
399.60 2.31
399.70 2.309
399.80 2.309
399.90 2.308
400.00 2.308
400.10 2.307
400.20 2.307
400.30 2.306
400.40 2.305
400.50 2.304
400.60 2.303
400.70 2.302
400.80 2.301
400.90 2.3
401.00 2.298
401.10 2.297
401.20 2.296
401.30 2.295
401.40 2.293
401.50 2.292
401.60 2.29
401.70 2.289
401.80 2.287
401.90 2.285
402.00 2.284
402.10 2.282
402.20 2.28
402.30 2.279
402.40 2.277
402.50 2.275
402.60 2.273
402.70 2.271
402.80 2.269
402.90 2.267
403.00 2.265
403.10 2.263
403.20 2.261
403.30 2.259
403.40 2.257
403.50 2.255
403.60 2.253
403.70 2.251
403.80 2.248
403.90 2.246
404.00 2.244
404.10 2.241
404.20 2.239
404.30 2.237
404.40 2.234
404.50 2.232
404.60 2.229
404.70 2.227
404.80 2.224
404.90 2.222
405.00 2.219
405.10 2.217
405.20 2.214
405.30 2.211
405.40 2.208
405.50 2.205
405.60 2.202
405.70 2.2
405.80 2.196
405.90 2.193
406.00 2.19
406.10 2.187
406.20 2.184
406.30 2.18
406.40 2.177
406.50 2.173
406.60 2.17
406.70 2.166
406.80 2.162
406.90 2.159
407.00 2.155
407.10 2.15
407.20 2.146
407.30 2.142
407.40 2.137
407.50 2.133
407.60 2.128
407.70 2.123
407.80 2.118
407.90 2.113
408.00 2.108
408.10 2.102
408.20 2.097
408.30 2.091
408.40 2.085
408.50 2.078
408.60 2.072
408.70 2.065
408.80 2.059
408.90 2.051
409.00 2.044
409.10 2.037
409.20 2.029
409.30 2.022
409.40 2.014
409.50 2.006
409.60 1.998
409.70 1.99
409.80 1.982
409.90 1.975
410.00 1.971
410.10 1.97
410.20 1.971
410.30 1.966
410.40 1.965
410.50 1.967
410.60 1.971
410.70 1.975
410.80 1.98
410.90 1.984
411.00 1.988
411.10 1.993
411.20 1.996
411.30 2
411.40 2.004
411.50 2.007
411.60 2.01
411.70 2.013
411.80 2.016
411.90 2.018
412.00 2.021
412.10 2.023
412.20 2.025
412.30 2.026
412.40 2.028
412.50 2.029
412.60 2.031
412.70 2.032
412.80 2.032
412.90 2.033
413.00 2.034
413.10 2.034
413.20 2.035
413.30 2.035
413.40 2.035
413.50 2.035
413.60 2.035
413.70 2.035
413.80 2.034
413.90 2.034
414.00 2.034
414.10 2.033
414.20 2.032
414.30 2.032
414.40 2.031
414.50 2.03
414.60 2.03
414.70 2.029
414.80 2.028
414.90 2.027
415.00 2.026
415.10 2.025
415.20 2.024
415.30 2.022
415.40 2.021
415.50 2.02
415.60 2.019
415.70 2.017
415.80 2.016
415.90 2.015
416.00 2.014
416.10 2.012
416.20 2.011
416.30 2.009
416.40 2.008
416.50 2.006
416.60 2.005
416.70 2.003
416.80 2.002
416.90 2
417.00 1.999
417.10 1.997
417.20 1.996
417.30 1.994
417.40 1.993
417.50 1.991
417.60 1.99
417.70 1.988
417.80 1.986
417.90 1.985
418.00 1.983
418.10 1.981
418.20 1.98
418.30 1.978
418.40 1.977
418.50 1.975
418.60 1.973
418.70 1.972
418.80 1.97
418.90 1.968
419.00 1.967
419.10 1.965
419.20 1.963
419.30 1.962
419.40 1.96
419.50 1.958
419.60 1.956
419.70 1.955
419.80 1.953
419.90 1.951
420.00 1.95
420.10 1.948
420.20 1.946
420.30 1.944
420.40 1.943
420.50 1.941
420.60 1.939
420.70 1.938
420.80 1.936
420.90 1.934
421.00 1.932
421.10 1.931
421.20 1.929
421.30 1.927
421.40 1.926
421.50 1.924
421.60 1.922
421.70 1.92
421.80 1.919
421.90 1.917
422.00 1.915
422.10 1.913
422.20 1.912
422.30 1.91
422.40 1.908
422.50 1.906
422.60 1.905
422.70 1.903
422.80 1.901
422.90 1.899
423.00 1.898
423.10 1.896
423.20 1.894
423.30 1.893
423.40 1.891
423.50 1.889
423.60 1.887
423.70 1.886
423.80 1.884
423.90 1.882
424.00 1.88
424.10 1.878
424.20 1.877
424.30 1.875
424.40 1.873
424.50 1.871
424.60 1.87
424.70 1.868
424.80 1.866
424.90 1.864
425.00 1.863
425.10 1.861
425.20 1.859
425.30 1.857
425.40 1.855
425.50 1.854
425.60 1.852
425.70 1.85
425.80 1.848
425.90 1.846
426.00 1.845
426.10 1.843
426.20 1.841
426.30 1.839
426.40 1.837
426.50 1.835
426.60 1.834
426.70 1.832
426.80 1.83
426.90 1.828
427.00 1.826
427.10 1.824
427.20 1.822
427.30 1.82
427.40 1.818
427.50 1.817
427.60 1.815
427.70 1.813
427.80 1.811
427.90 1.809
428.00 1.807
428.10 1.805
428.20 1.802
428.30 1.8
428.40 1.798
428.50 1.796
428.60 1.794
428.70 1.792
428.80 1.79
428.90 1.787
429.00 1.785
429.10 1.783
429.20 1.781
429.30 1.778
429.40 1.776
429.50 1.773
429.60 1.771
429.70 1.768
429.80 1.766
429.90 1.763
430.00 1.76
430.10 1.757
430.20 1.755
430.30 1.752
430.40 1.749
430.50 1.745
430.60 1.742
430.70 1.739
430.80 1.736
430.90 1.732
431.00 1.728
431.10 1.725
431.20 1.721
431.30 1.717
431.40 1.713
431.50 1.708
431.60 1.704
431.70 1.699
431.80 1.694
431.90 1.689
432.00 1.684
432.10 1.679
432.20 1.673
432.30 1.667
432.40 1.661
432.50 1.654
432.60 1.648
432.70 1.641
432.80 1.634
432.90 1.627
433.00 1.619
433.10 1.611
433.20 1.603
433.30 1.595
433.40 1.587
433.50 1.579
433.60 1.571
433.70 1.563
433.80 1.555
433.90 1.547
434.00 1.54
434.10 1.539
434.20 1.543
434.30 1.549
434.40 1.554
434.50 1.559
434.60 1.565
434.70 1.57
434.80 1.576
434.90 1.581
435.00 1.586
435.10 1.591
435.20 1.596
435.30 1.6
435.40 1.604
435.50 1.608
435.60 1.612
435.70 1.615
435.80 1.618
435.90 1.621
436.00 1.624
436.10 1.626
436.20 1.629
436.30 1.631
436.40 1.632
436.50 1.634
436.60 1.635
436.70 1.637
436.80 1.638
436.90 1.639
437.00 1.64
437.10 1.64
437.20 1.641
437.30 1.641
437.40 1.641
437.50 1.642
437.60 1.642
437.70 1.642
437.80 1.642
437.90 1.641
438.00 1.641
438.10 1.641
438.20 1.641
438.30 1.64
438.40 1.64
438.50 1.639
438.60 1.639
438.70 1.638
438.80 1.637
438.90 1.636
439.00 1.636
439.10 1.635
439.20 1.634
439.30 1.633
439.40 1.632
439.50 1.631
439.60 1.63
439.70 1.629
439.80 1.629
439.90 1.627
440.00 1.626
440.10 1.625
440.20 1.624
440.30 1.623
440.40 1.622
440.50 1.621
440.60 1.62
440.70 1.619
440.80 1.618
440.90 1.616
441.00 1.615
441.10 1.614
441.20 1.613
441.30 1.612
441.40 1.611
441.50 1.609
441.60 1.608
441.70 1.607
441.80 1.606
441.90 1.604
442.00 1.603
442.10 1.602
442.20 1.601
442.30 1.599
442.40 1.598
442.50 1.597
442.60 1.596
442.70 1.594
442.80 1.593
442.90 1.592
443.00 1.591
443.10 1.589
443.20 1.588
443.30 1.587
443.40 1.585
443.50 1.584
443.60 1.583
443.70 1.582
443.80 1.58
443.90 1.579
444.00 1.578
444.10 1.576
444.20 1.575
444.30 1.574
444.40 1.573
444.50 1.571
444.60 1.57
444.70 1.569
444.80 1.567
444.90 1.566
445.00 1.565
445.10 1.563
445.20 1.562
445.30 1.561
445.40 1.559
445.50 1.558
445.60 1.557
445.70 1.556
445.80 1.554
445.90 1.553
446.00 1.552
446.10 1.55
446.20 1.549
446.30 1.548
446.40 1.546
446.50 1.545
446.60 1.544
446.70 1.543
446.80 1.541
446.90 1.54
447.00 1.539
447.10 1.537
447.20 1.536
447.30 1.535
447.40 1.534
447.50 1.532
447.60 1.531
447.70 1.53
447.80 1.528
447.90 1.527
448.00 1.526
448.10 1.524
448.20 1.523
448.30 1.522
448.40 1.521
448.50 1.519
448.60 1.518
448.70 1.517
448.80 1.515
448.90 1.514
449.00 1.513
449.10 1.512
449.20 1.51
449.30 1.509
449.40 1.508
449.50 1.507
449.60 1.505
449.70 1.504
449.80 1.503
449.90 1.501
450.00 1.5
450.10 1.499
450.20 1.498
450.30 1.496
450.40 1.495
450.50 1.494
450.60 1.493
450.70 1.491
450.80 1.49
450.90 1.489
451.00 1.488
451.10 1.486
451.20 1.485
451.30 1.484
451.40 1.483
451.50 1.481
451.60 1.48
451.70 1.479
451.80 1.477
451.90 1.476
452.00 1.475
452.10 1.474
452.20 1.473
452.30 1.471
452.40 1.47
452.50 1.469
452.60 1.468
452.70 1.466
452.80 1.465
452.90 1.464
453.00 1.463
453.10 1.461
453.20 1.46
453.30 1.459
453.40 1.458
453.50 1.456
453.60 1.455
453.70 1.454
453.80 1.453
453.90 1.452
454.00 1.45
454.10 1.449
