# Version 2.1 - nm, norm@500 to 1, cut digits, bergeron_3500_70.dat_3500
# Wavelength(nm)  Flambda(ergs/cm^s/s/nm)
300.00 0.106
300.10 0.1063
300.20 0.1065
300.30 0.1068
300.40 0.107
300.50 0.1073
300.60 0.1075
300.70 0.1078
300.80 0.1081
300.90 0.1083
301.00 0.1086
301.10 0.1088
301.20 0.1091
301.30 0.1093
301.40 0.1096
301.50 0.1098
301.60 0.1101
301.70 0.1104
301.80 0.1106
301.90 0.1109
302.00 0.1111
302.10 0.1114
302.20 0.1116
302.30 0.1119
302.40 0.1122
302.50 0.1124
302.60 0.1127
302.70 0.113
302.80 0.1132
302.90 0.1135
303.00 0.1138
303.10 0.114
303.20 0.1143
303.30 0.1145
303.40 0.1148
303.50 0.1151
303.60 0.1153
303.70 0.1156
303.80 0.1158
303.90 0.1161
304.00 0.1164
304.10 0.1166
304.20 0.1169
304.30 0.1172
304.40 0.1175
304.50 0.1177
304.60 0.118
304.70 0.1183
304.80 0.1185
304.90 0.1188
305.00 0.1191
305.10 0.1193
305.20 0.1196
305.30 0.1199
305.40 0.1202
305.50 0.1204
305.60 0.1207
305.70 0.121
305.80 0.1212
305.90 0.1215
306.00 0.1218
306.10 0.122
306.20 0.1223
306.30 0.1226
306.40 0.1229
306.50 0.1232
306.60 0.1234
306.70 0.1237
306.80 0.124
306.90 0.1243
307.00 0.1245
307.10 0.1248
307.20 0.1251
307.30 0.1254
307.40 0.1256
307.50 0.1259
307.60 0.1262
307.70 0.1265
307.80 0.1267
307.90 0.127
308.00 0.1273
308.10 0.1276
308.20 0.1279
308.30 0.1281
308.40 0.1284
308.50 0.1287
308.60 0.129
308.70 0.1293
308.80 0.1296
308.90 0.1299
309.00 0.1301
309.10 0.1304
309.20 0.1307
309.30 0.131
309.40 0.1313
309.50 0.1316
309.60 0.1318
309.70 0.1321
309.80 0.1324
309.90 0.1327
310.00 0.133
310.10 0.1333
310.20 0.1336
310.30 0.1338
310.40 0.1341
310.50 0.1344
310.60 0.1347
310.70 0.135
310.80 0.1353
310.90 0.1356
311.00 0.1359
311.10 0.1362
311.20 0.1365
311.30 0.1368
311.40 0.1371
311.50 0.1373
311.60 0.1376
311.70 0.1379
311.80 0.1382
311.90 0.1385
312.00 0.1388
312.10 0.1391
312.20 0.1394
312.30 0.1397
312.40 0.14
312.50 0.1403
312.60 0.1406
312.70 0.1409
312.80 0.1412
312.90 0.1415
313.00 0.1418
313.10 0.1421
313.20 0.1424
313.30 0.1427
313.40 0.143
313.50 0.1433
313.60 0.1435
313.70 0.1438
313.80 0.1441
313.90 0.1444
314.00 0.1447
314.10 0.145
314.20 0.1453
314.30 0.1457
314.40 0.146
314.50 0.1463
314.60 0.1466
314.70 0.1469
314.80 0.1472
314.90 0.1475
315.00 0.1478
315.10 0.1481
315.20 0.1484
315.30 0.1487
315.40 0.149
315.50 0.1493
315.60 0.1496
315.70 0.1499
315.80 0.1502
315.90 0.1505
316.00 0.1508
316.10 0.1511
316.20 0.1515
316.30 0.1518
316.40 0.1521
316.50 0.1524
316.60 0.1527
316.70 0.153
316.80 0.1533
316.90 0.1536
317.00 0.154
317.10 0.1543
317.20 0.1546
317.30 0.1549
317.40 0.1552
317.50 0.1555
317.60 0.1558
317.70 0.1561
317.80 0.1564
317.90 0.1567
318.00 0.1571
318.10 0.1574
318.20 0.1577
318.30 0.158
318.40 0.1583
318.50 0.1587
318.60 0.159
318.70 0.1593
318.80 0.1596
318.90 0.1599
319.00 0.1603
319.10 0.1606
319.20 0.1609
319.30 0.1612
319.40 0.1615
319.50 0.1618
319.60 0.1622
319.70 0.1625
319.80 0.1628
319.90 0.1631
320.00 0.1634
320.10 0.1637
320.20 0.1641
320.30 0.1644
320.40 0.1647
320.50 0.1651
320.60 0.1654
320.70 0.1657
320.80 0.166
320.90 0.1664
321.00 0.1667
321.10 0.167
321.20 0.1673
321.30 0.1677
321.40 0.168
321.50 0.1683
321.60 0.1686
321.70 0.1689
321.80 0.1693
321.90 0.1696
322.00 0.1699
322.10 0.1703
322.20 0.1706
322.30 0.1709
322.40 0.1713
322.50 0.1716
322.60 0.1719
322.70 0.1723
322.80 0.1726
322.90 0.1729
323.00 0.1732
323.10 0.1736
323.20 0.1739
323.30 0.1742
323.40 0.1746
323.50 0.1749
323.60 0.1752
323.70 0.1756
323.80 0.1759
323.90 0.1762
324.00 0.1765
324.10 0.1769
324.20 0.1772
324.30 0.1776
324.40 0.1779
324.50 0.1783
324.60 0.1786
324.70 0.1789
324.80 0.1793
324.90 0.1796
325.00 0.1799
325.10 0.1803
325.20 0.1806
325.30 0.181
325.40 0.1813
325.50 0.1816
325.60 0.182
325.70 0.1823
325.80 0.1826
325.90 0.183
326.00 0.1833
326.10 0.1837
326.20 0.184
326.30 0.1844
326.40 0.1847
326.50 0.185
326.60 0.1854
326.70 0.1857
326.80 0.1861
326.90 0.1864
327.00 0.1868
327.10 0.1871
327.20 0.1875
327.30 0.1878
327.40 0.1882
327.50 0.1885
327.60 0.1888
327.70 0.1892
327.80 0.1895
327.90 0.1899
328.00 0.1902
328.10 0.1906
328.20 0.1909
328.30 0.1913
328.40 0.1916
328.50 0.192
328.60 0.1923
328.70 0.1927
328.80 0.193
328.90 0.1934
329.00 0.1937
329.10 0.1941
329.20 0.1944
329.30 0.1948
329.40 0.1951
329.50 0.1955
329.60 0.1958
329.70 0.1962
329.80 0.1965
329.90 0.1969
330.00 0.1972
330.10 0.1976
330.20 0.1979
330.30 0.1983
330.40 0.1987
330.50 0.199
330.60 0.1994
330.70 0.1997
330.80 0.2001
330.90 0.2005
331.00 0.2008
331.10 0.2012
331.20 0.2015
331.30 0.2019
331.40 0.2023
331.50 0.2026
331.60 0.203
331.70 0.2033
331.80 0.2037
331.90 0.204
332.00 0.2044
332.10 0.2047
332.20 0.2051
332.30 0.2055
332.40 0.2058
332.50 0.2062
332.60 0.2066
332.70 0.2069
332.80 0.2073
332.90 0.2077
333.00 0.208
333.10 0.2084
333.20 0.2088
333.30 0.2091
333.40 0.2095
333.50 0.2098
333.60 0.2102
333.70 0.2106
333.80 0.2109
333.90 0.2113
334.00 0.2116
334.10 0.212
334.20 0.2124
334.30 0.2128
334.40 0.2131
334.50 0.2135
334.60 0.2139
334.70 0.2143
334.80 0.2146
334.90 0.215
335.00 0.2154
335.10 0.2157
335.20 0.2161
335.30 0.2165
335.40 0.2169
335.50 0.2172
335.60 0.2176
335.70 0.218
335.80 0.2183
335.90 0.2187
336.00 0.2191
336.10 0.2194
336.20 0.2198
336.30 0.2202
336.40 0.2206
336.50 0.2209
336.60 0.2213
336.70 0.2217
336.80 0.2221
336.90 0.2225
337.00 0.2228
337.10 0.2232
337.20 0.2236
337.30 0.224
337.40 0.2243
337.50 0.2247
337.60 0.2251
337.70 0.2255
337.80 0.2258
337.90 0.2262
338.00 0.2266
338.10 0.227
338.20 0.2273
338.30 0.2277
338.40 0.2281
338.50 0.2285
338.60 0.2289
338.70 0.2293
338.80 0.2297
338.90 0.23
339.00 0.2304
339.10 0.2308
339.20 0.2312
339.30 0.2316
339.40 0.2319
339.50 0.2323
339.60 0.2327
339.70 0.2331
339.80 0.2335
339.90 0.2338
340.00 0.2342
340.10 0.2346
340.20 0.235
340.30 0.2354
340.40 0.2358
340.50 0.2362
340.60 0.2366
340.70 0.2369
340.80 0.2373
340.90 0.2377
341.00 0.2381
341.10 0.2385
341.20 0.2389
341.30 0.2393
341.40 0.2397
341.50 0.24
341.60 0.2404
341.70 0.2408
341.80 0.2412
341.90 0.2416
342.00 0.242
342.10 0.2424
342.20 0.2428
342.30 0.2432
342.40 0.2436
342.50 0.244
342.60 0.2443
342.70 0.2447
342.80 0.2451
342.90 0.2455
343.00 0.2459
343.10 0.2463
343.20 0.2467
343.30 0.2471
343.40 0.2475
343.50 0.2479
343.60 0.2483
343.70 0.2487
343.80 0.2491
343.90 0.2494
344.00 0.2498
344.10 0.2502
344.20 0.2506
344.30 0.251
344.40 0.2515
344.50 0.2519
344.60 0.2523
344.70 0.2527
344.80 0.2531
344.90 0.2535
345.00 0.2539
345.10 0.2543
345.20 0.2547
345.30 0.2551
345.40 0.2554
345.50 0.2558
345.60 0.2562
345.70 0.2566
345.80 0.257
345.90 0.2574
346.00 0.2578
346.10 0.2582
346.20 0.2586
346.30 0.2591
346.40 0.2595
346.50 0.2599
346.60 0.2603
346.70 0.2607
346.80 0.2611
346.90 0.2615
347.00 0.2619
347.10 0.2623
347.20 0.2627
347.30 0.2631
347.40 0.2635
347.50 0.2639
347.60 0.2643
347.70 0.2647
347.80 0.2651
347.90 0.2655
348.00 0.2659
348.10 0.2663
348.20 0.2667
348.30 0.2672
348.40 0.2676
348.50 0.268
348.60 0.2684
348.70 0.2688
348.80 0.2692
348.90 0.2696
349.00 0.27
349.10 0.2705
349.20 0.2709
349.30 0.2713
349.40 0.2717
349.50 0.2721
349.60 0.2725
349.70 0.2729
349.80 0.2733
349.90 0.2737
350.00 0.2741
350.10 0.2745
350.20 0.275
350.30 0.2754
350.40 0.2758
350.50 0.2762
350.60 0.2766
350.70 0.2771
350.80 0.2775
350.90 0.2779
351.00 0.2783
351.10 0.2787
351.20 0.2791
351.30 0.2795
351.40 0.28
351.50 0.2804
351.60 0.2808
351.70 0.2812
351.80 0.2816
351.90 0.282
352.00 0.2824
352.10 0.2829
352.20 0.2833
352.30 0.2837
352.40 0.2841
352.50 0.2845
352.60 0.285
352.70 0.2854
352.80 0.2858
352.90 0.2862
353.00 0.2867
353.10 0.2871
353.20 0.2875
353.30 0.2879
353.40 0.2883
353.50 0.2888
353.60 0.2892
353.70 0.2896
353.80 0.29
353.90 0.2904
354.00 0.2908
354.10 0.2913
354.20 0.2917
354.30 0.2921
354.40 0.2926
354.50 0.293
354.60 0.2934
354.70 0.2938
354.80 0.2943
354.90 0.2947
355.00 0.2951
355.10 0.2955
355.20 0.296
355.30 0.2964
355.40 0.2968
355.50 0.2972
355.60 0.2977
355.70 0.2981
355.80 0.2985
355.90 0.2989
356.00 0.2994
356.10 0.2998
356.20 0.3002
356.30 0.3007
356.40 0.3011
356.50 0.3015
356.60 0.302
356.70 0.3024
356.80 0.3028
356.90 0.3033
357.00 0.3037
357.10 0.3041
357.20 0.3045
357.30 0.305
357.40 0.3054
357.50 0.3058
357.60 0.3063
357.70 0.3067
357.80 0.3071
357.90 0.3075
358.00 0.308
358.10 0.3084
358.20 0.3088
358.30 0.3093
358.40 0.3097
358.50 0.3102
358.60 0.3106
358.70 0.311
358.80 0.3115
358.90 0.3119
359.00 0.3123
359.10 0.3128
359.20 0.3132
359.30 0.3136
359.40 0.3141
359.50 0.3145
359.60 0.3149
359.70 0.3154
359.80 0.3158
359.90 0.3162
360.00 0.3167
360.10 0.3171
360.20 0.3176
360.30 0.318
360.40 0.3184
360.50 0.3189
360.60 0.3193
360.70 0.3198
360.80 0.3202
360.90 0.3206
361.00 0.3211
361.10 0.3215
361.20 0.322
361.30 0.3224
361.40 0.3228
361.50 0.3233
361.60 0.3237
361.70 0.3242
361.80 0.3246
361.90 0.325
362.00 0.3255
362.10 0.3259
362.20 0.3264
362.30 0.3268
362.40 0.3272
362.50 0.3277
362.60 0.3281
362.70 0.3286
362.80 0.329
362.90 0.3295
363.00 0.3299
363.10 0.3303
363.20 0.3308
363.30 0.3312
363.40 0.3317
363.50 0.3321
363.60 0.3326
363.70 0.333
363.80 0.3335
363.90 0.3339
364.00 0.3344
364.10 0.3348
364.20 0.3353
364.30 0.3357
364.40 0.3361
364.50 0.3366
364.60 0.337
364.70 0.3375
364.80 0.3379
364.90 0.3384
365.00 0.3388
365.10 0.3393
365.20 0.3397
365.30 0.3402
365.40 0.3406
365.50 0.3411
365.60 0.3415
365.70 0.342
365.80 0.3424
365.90 0.3429
366.00 0.3433
366.10 0.3438
366.20 0.3442
366.30 0.3447
366.40 0.3452
366.50 0.3456
366.60 0.3461
366.70 0.3465
366.80 0.347
366.90 0.3474
367.00 0.3479
367.10 0.3483
367.20 0.3488
367.30 0.3492
367.40 0.3497
367.50 0.3501
367.60 0.3506
367.70 0.351
367.80 0.3515
367.90 0.3519
368.00 0.3524
368.10 0.3528
368.20 0.3533
368.30 0.3538
368.40 0.3542
368.50 0.3547
368.60 0.3551
368.70 0.3556
368.80 0.3561
368.90 0.3565
369.00 0.357
369.10 0.3574
369.20 0.3579
369.30 0.3583
369.40 0.3588
369.50 0.3593
369.60 0.3597
369.70 0.3602
369.80 0.3606
369.90 0.3611
370.00 0.3615
370.10 0.362
370.20 0.3625
370.30 0.3629
370.40 0.3634
370.50 0.3639
370.60 0.3643
370.70 0.3648
370.80 0.3652
370.90 0.3657
371.00 0.3662
371.10 0.3666
371.20 0.3671
371.30 0.3675
371.40 0.368
371.50 0.3685
371.60 0.3689
371.70 0.3694
371.80 0.3698
371.90 0.3703
372.00 0.3707
372.10 0.3712
372.20 0.3717
372.30 0.3722
372.40 0.3726
372.50 0.3731
372.60 0.3736
372.70 0.374
372.80 0.3745
372.90 0.375
373.00 0.3754
373.10 0.3759
373.20 0.3764
373.30 0.3768
373.40 0.3773
373.50 0.3777
373.60 0.3782
373.70 0.3787
373.80 0.3791
373.90 0.3796
374.00 0.38
374.10 0.3805
374.20 0.381
374.30 0.3815
374.40 0.3819
374.50 0.3824
374.60 0.3829
374.70 0.3833
374.80 0.3838
374.90 0.3843
375.00 0.3848
375.10 0.3852
375.20 0.3857
375.30 0.3862
375.40 0.3866
375.50 0.3871
375.60 0.3876
375.70 0.388
375.80 0.3885
375.90 0.389
376.00 0.3894
376.10 0.3899
376.20 0.3904
376.30 0.3908
376.40 0.3913
376.50 0.3918
376.60 0.3922
376.70 0.3927
376.80 0.3932
376.90 0.3937
377.00 0.3941
377.10 0.3946
377.20 0.3951
377.30 0.3955
377.40 0.396
377.50 0.3965
377.60 0.397
377.70 0.3974
377.80 0.3979
377.90 0.3984
378.00 0.3989
378.10 0.3993
378.20 0.3998
378.30 0.4003
378.40 0.4008
378.50 0.4012
378.60 0.4017
378.70 0.4022
378.80 0.4027
378.90 0.4031
379.00 0.4036
379.10 0.4041
379.20 0.4046
379.30 0.405
379.40 0.4055
379.50 0.406
379.60 0.4065
379.70 0.4069
379.80 0.4074
379.90 0.4079
380.00 0.4084
380.10 0.4089
380.20 0.4093
380.30 0.4098
380.40 0.4103
380.50 0.4108
380.60 0.4112
380.70 0.4117
380.80 0.4122
380.90 0.4127
381.00 0.4131
381.10 0.4136
381.20 0.4141
381.30 0.4146
381.40 0.415
381.50 0.4155
381.60 0.416
381.70 0.4165
381.80 0.417
381.90 0.4174
382.00 0.4179
382.10 0.4184
382.20 0.4189
382.30 0.4194
382.40 0.4199
382.50 0.4203
382.60 0.4208
382.70 0.4213
382.80 0.4218
382.90 0.4223
383.00 0.4227
383.10 0.4232
383.20 0.4237
383.30 0.4242
383.40 0.4247
383.50 0.4252
383.60 0.4256
383.70 0.4261
383.80 0.4266
383.90 0.4271
384.00 0.4276
384.10 0.428
384.20 0.4285
384.30 0.429
384.40 0.4295
384.50 0.43
384.60 0.4304
384.70 0.4309
384.80 0.4314
384.90 0.4319
385.00 0.4324
385.10 0.4329
385.20 0.4334
385.30 0.4338
385.40 0.4343
385.50 0.4348
385.60 0.4353
385.70 0.4358
385.80 0.4363
385.90 0.4368
386.00 0.4372
386.10 0.4377
386.20 0.4382
386.30 0.4387
386.40 0.4392
386.50 0.4397
386.60 0.4402
386.70 0.4407
386.80 0.4411
386.90 0.4416
387.00 0.4421
387.10 0.4426
387.20 0.4431
387.30 0.4436
387.40 0.4441
387.50 0.4445
387.60 0.445
387.70 0.4455
387.80 0.446
387.90 0.4465
388.00 0.447
388.10 0.4475
388.20 0.448
388.30 0.4485
388.40 0.4489
388.50 0.4494
388.60 0.4499
388.70 0.4504
388.80 0.4509
388.90 0.4514
389.00 0.4519
389.10 0.4524
389.20 0.4528
389.30 0.4533
389.40 0.4538
389.50 0.4543
389.60 0.4548
389.70 0.4553
389.80 0.4558
389.90 0.4563
390.00 0.4568
390.10 0.4573
390.20 0.4578
390.30 0.4583
390.40 0.4587
390.50 0.4592
390.60 0.4597
390.70 0.4602
390.80 0.4607
390.90 0.4612
391.00 0.4617
391.10 0.4622
391.20 0.4627
391.30 0.4632
391.40 0.4637
391.50 0.4642
391.60 0.4647
391.70 0.4652
391.80 0.4656
391.90 0.4661
392.00 0.4666
392.10 0.4671
392.20 0.4676
392.30 0.4681
392.40 0.4686
392.50 0.4691
392.60 0.4696
392.70 0.4701
392.80 0.4706
392.90 0.4711
393.00 0.4716
393.10 0.4721
393.20 0.4726
393.30 0.4731
393.40 0.4736
393.50 0.4741
393.60 0.4746
393.70 0.475
393.80 0.4755
393.90 0.476
394.00 0.4765
394.10 0.477
394.20 0.4775
394.30 0.478
394.40 0.4785
394.50 0.479
394.60 0.4795
394.70 0.48
394.80 0.4805
394.90 0.481
395.00 0.4815
395.10 0.482
395.20 0.4825
395.30 0.483
395.40 0.4835
395.50 0.484
395.60 0.4845
395.70 0.485
395.80 0.4855
395.90 0.486
396.00 0.4865
396.10 0.487
396.20 0.4875
396.30 0.488
396.40 0.4885
396.50 0.489
396.60 0.4895
396.70 0.4899
396.80 0.4905
396.90 0.491
397.00 0.4915
397.10 0.492
397.20 0.4925
397.30 0.493
397.40 0.4934
397.50 0.4939
397.60 0.4944
397.70 0.4949
397.80 0.4954
397.90 0.4959
398.00 0.4965
398.10 0.497
398.20 0.4975
398.30 0.498
398.40 0.4984
398.50 0.4989
398.60 0.4994
398.70 0.4999
398.80 0.5005
398.90 0.5009
399.00 0.5015
399.10 0.502
399.20 0.5025
399.30 0.5029
399.40 0.5034
399.50 0.504
399.60 0.5045
399.70 0.505
399.80 0.5055
399.90 0.506
400.00 0.5065
400.10 0.507
400.20 0.5075
400.30 0.508
400.40 0.5085
400.50 0.509
400.60 0.5095
400.70 0.51
400.80 0.5105
400.90 0.511
401.00 0.5115
401.10 0.512
401.20 0.5125
401.30 0.513
401.40 0.5135
401.50 0.514
401.60 0.5145
401.70 0.515
401.80 0.5155
401.90 0.516
402.00 0.5165
402.10 0.517
402.20 0.5175
402.30 0.518
402.40 0.5185
402.50 0.519
402.60 0.5195
402.70 0.52
402.80 0.5205
402.90 0.521
403.00 0.5215
403.10 0.5221
403.20 0.5226
403.30 0.5231
403.40 0.5236
403.50 0.5241
403.60 0.5246
403.70 0.5251
403.80 0.5256
403.90 0.5261
404.00 0.5266
404.10 0.5271
404.20 0.5276
404.30 0.5281
404.40 0.5286
404.50 0.5291
404.60 0.5296
404.70 0.5301
404.80 0.5306
404.90 0.5312
405.00 0.5317
405.10 0.5322
405.20 0.5327
405.30 0.5332
405.40 0.5337
405.50 0.5342
405.60 0.5347
405.70 0.5352
405.80 0.5357
405.90 0.5362
406.00 0.5367
406.10 0.5372
406.20 0.5377
406.30 0.5382
406.40 0.5387
406.50 0.5393
406.60 0.5398
406.70 0.5403
406.80 0.5408
406.90 0.5413
407.00 0.5418
407.10 0.5423
407.20 0.5428
407.30 0.5433
407.40 0.5438
407.50 0.5443
407.60 0.5448
407.70 0.5453
407.80 0.5458
407.90 0.5464
408.00 0.5469
408.10 0.5474
408.20 0.5479
408.30 0.5484
408.40 0.5489
408.50 0.5494
408.60 0.5499
408.70 0.5504
408.80 0.5509
408.90 0.5514
409.00 0.5519
409.10 0.5524
409.20 0.5529
409.30 0.5535
409.40 0.554
409.50 0.5545
409.60 0.555
409.70 0.5555
409.80 0.556
409.90 0.5565
410.00 0.557
410.10 0.5575
410.20 0.558
410.30 0.5585
410.40 0.559
410.50 0.5596
410.60 0.5601
410.70 0.5606
410.80 0.5611
410.90 0.5616
411.00 0.5621
411.10 0.5626
411.20 0.5631
411.30 0.5636
411.40 0.5641
411.50 0.5646
411.60 0.5652
411.70 0.5657
411.80 0.5662
411.90 0.5667
412.00 0.5672
412.10 0.5677
412.20 0.5682
412.30 0.5687
412.40 0.5692
412.50 0.5697
412.60 0.5703
412.70 0.5708
412.80 0.5713
412.90 0.5718
413.00 0.5723
413.10 0.5728
413.20 0.5733
413.30 0.5738
413.40 0.5744
413.50 0.5749
413.60 0.5754
413.70 0.5759
413.80 0.5764
413.90 0.5769
414.00 0.5774
414.10 0.5779
414.20 0.5784
414.30 0.5789
414.40 0.5795
414.50 0.58
414.60 0.5805
414.70 0.581
414.80 0.5815
414.90 0.582
415.00 0.5825
415.10 0.583
415.20 0.5835
415.30 0.5841
415.40 0.5846
415.50 0.5851
415.60 0.5856
415.70 0.5861
415.80 0.5866
415.90 0.5871
416.00 0.5876
416.10 0.5881
416.20 0.5886
416.30 0.5892
416.40 0.5897
416.50 0.5902
416.60 0.5907
416.70 0.5912
416.80 0.5917
416.90 0.5922
417.00 0.5927
417.10 0.5932
417.20 0.5938
417.30 0.5943
417.40 0.5948
417.50 0.5953
417.60 0.5958
417.70 0.5963
417.80 0.5968
417.90 0.5973
418.00 0.5979
418.10 0.5984
418.20 0.5989
418.30 0.5994
418.40 0.5999
418.50 0.6004
418.60 0.6009
418.70 0.6014
418.80 0.602
418.90 0.6025
419.00 0.603
419.10 0.6035
419.20 0.604
419.30 0.6045
419.40 0.605
419.50 0.6055
419.60 0.606
419.70 0.6066
419.80 0.6071
419.90 0.6076
420.00 0.6081
420.10 0.6086
420.20 0.6091
420.30 0.6096
420.40 0.6102
420.50 0.6107
420.60 0.6112
420.70 0.6117
420.80 0.6122
420.90 0.6127
421.00 0.6132
421.10 0.6137
421.20 0.6143
421.30 0.6148
421.40 0.6153
421.50 0.6158
421.60 0.6163
421.70 0.6168
421.80 0.6173
421.90 0.6179
422.00 0.6184
422.10 0.6189
422.20 0.6194
422.30 0.6199
422.40 0.6204
422.50 0.6209
422.60 0.6214
422.70 0.6219
422.80 0.6225
422.90 0.623
423.00 0.6235
423.10 0.624
423.20 0.6245
423.30 0.625
423.40 0.6255
423.50 0.6261
423.60 0.6266
423.70 0.6271
423.80 0.6276
423.90 0.6281
424.00 0.6286
424.10 0.6291
424.20 0.6296
424.30 0.6302
424.40 0.6307
424.50 0.6312
424.60 0.6317
424.70 0.6322
424.80 0.6327
424.90 0.6332
425.00 0.6338
425.10 0.6343
425.20 0.6348
425.30 0.6353
425.40 0.6358
425.50 0.6363
425.60 0.6368
425.70 0.6373
425.80 0.6379
425.90 0.6384
426.00 0.6389
426.10 0.6394
426.20 0.6399
426.30 0.6404
426.40 0.6409
426.50 0.6414
426.60 0.642
426.70 0.6425
426.80 0.643
426.90 0.6435
427.00 0.644
427.10 0.6445
427.20 0.645
427.30 0.6456
427.40 0.6461
427.50 0.6466
427.60 0.6471
427.70 0.6476
427.80 0.6481
427.90 0.6486
428.00 0.6491
428.10 0.6496
428.20 0.6501
428.30 0.6507
428.40 0.6512
428.50 0.6517
428.60 0.6522
428.70 0.6527
428.80 0.6532
428.90 0.6538
429.00 0.6543
429.10 0.6548
429.20 0.6553
429.30 0.6558
429.40 0.6563
429.50 0.6568
429.60 0.6573
429.70 0.6578
429.80 0.6584
429.90 0.6589
430.00 0.6594
430.10 0.6599
430.20 0.6604
430.30 0.6609
430.40 0.6614
430.50 0.662
430.60 0.6625
430.70 0.663
430.80 0.6635
430.90 0.664
431.00 0.6645
431.10 0.665
431.20 0.6655
431.30 0.6661
431.40 0.6666
431.50 0.6671
431.60 0.6676
431.70 0.6681
431.80 0.6686
431.90 0.6691
432.00 0.6696
432.10 0.6701
432.20 0.6707
432.30 0.6712
432.40 0.6717
432.50 0.6722
432.60 0.6727
432.70 0.6732
432.80 0.6737
432.90 0.6743
433.00 0.6748
433.10 0.6753
433.20 0.6758
433.30 0.6763
433.40 0.6768
433.50 0.6773
433.60 0.6778
433.70 0.6784
433.80 0.6789
433.90 0.6794
434.00 0.6799
434.10 0.6804
434.20 0.6809
434.30 0.6814
434.40 0.6819
434.50 0.6824
434.60 0.6829
434.70 0.6835
434.80 0.684
434.90 0.6845
435.00 0.685
435.10 0.6855
435.20 0.686
435.30 0.6865
435.40 0.6871
435.50 0.6876
435.60 0.6881
435.70 0.6886
435.80 0.6891
435.90 0.6896
436.00 0.6901
436.10 0.6906
436.20 0.6911
436.30 0.6917
436.40 0.6922
436.50 0.6927
436.60 0.6932
436.70 0.6937
436.80 0.6942
436.90 0.6947
437.00 0.6952
437.10 0.6957
437.20 0.6962
437.30 0.6968
437.40 0.6973
437.50 0.6978
437.60 0.6983
437.70 0.6988
437.80 0.6993
437.90 0.6998
438.00 0.7003
438.10 0.7008
438.20 0.7014
438.30 0.7019
438.40 0.7024
438.50 0.7029
438.60 0.7034
438.70 0.7039
438.80 0.7044
438.90 0.7049
439.00 0.7054
439.10 0.706
439.20 0.7065
439.30 0.707
439.40 0.7075
439.50 0.708
439.60 0.7085
439.70 0.709
439.80 0.7095
439.90 0.71
440.00 0.7105
440.10 0.7111
440.20 0.7116
440.30 0.7121
440.40 0.7126
440.50 0.7131
440.60 0.7136
440.70 0.7141
440.80 0.7146
440.90 0.7151
441.00 0.7156
441.10 0.7162
441.20 0.7167
441.30 0.7172
441.40 0.7177
441.50 0.7182
441.60 0.7187
441.70 0.7192
441.80 0.7197
441.90 0.7202
442.00 0.7207
442.10 0.7212
442.20 0.7218
442.30 0.7223
442.40 0.7228
442.50 0.7233
442.60 0.7238
442.70 0.7243
442.80 0.7248
442.90 0.7253
443.00 0.7258
443.10 0.7263
443.20 0.7268
