# Version 2.1 - nm, norm@500 to 1, cut digits, bergeron_110000_75.dat_110000
# Wavelength(nm)  Flambda(ergs/cm^s/s/nm)
300.00 6.896
300.10 6.887
300.20 6.879
300.30 6.87
300.40 6.861
300.50 6.853
300.60 6.844
300.70 6.835
300.80 6.827
300.90 6.818
301.00 6.81
301.10 6.801
301.20 6.793
301.30 6.784
301.40 6.776
301.50 6.767
301.60 6.759
301.70 6.75
301.80 6.742
301.90 6.733
302.00 6.725
302.10 6.716
302.20 6.708
302.30 6.7
302.40 6.691
302.50 6.683
302.60 6.674
302.70 6.666
302.80 6.658
302.90 6.649
303.00 6.641
303.10 6.633
303.20 6.625
303.30 6.616
303.40 6.608
303.50 6.6
303.60 6.592
303.70 6.583
303.80 6.575
303.90 6.567
304.00 6.559
304.10 6.551
304.20 6.543
304.30 6.534
304.40 6.526
304.50 6.518
304.60 6.51
304.70 6.502
304.80 6.494
304.90 6.486
305.00 6.478
305.10 6.47
305.20 6.462
305.30 6.454
305.40 6.446
305.50 6.438
305.60 6.43
305.70 6.422
305.80 6.414
305.90 6.406
306.00 6.398
306.10 6.39
306.20 6.382
306.30 6.374
306.40 6.367
306.50 6.359
306.60 6.351
306.70 6.343
306.80 6.335
306.90 6.327
307.00 6.32
307.10 6.312
307.20 6.304
307.30 6.296
307.40 6.289
307.50 6.281
307.60 6.273
307.70 6.265
307.80 6.258
307.90 6.25
308.00 6.242
308.10 6.235
308.20 6.227
308.30 6.219
308.40 6.212
308.50 6.204
308.60 6.196
308.70 6.189
308.80 6.181
308.90 6.174
309.00 6.166
309.10 6.159
309.20 6.151
309.30 6.144
309.40 6.136
309.50 6.128
309.60 6.121
309.70 6.114
309.80 6.106
309.90 6.099
310.00 6.091
310.10 6.084
310.20 6.076
310.30 6.069
310.40 6.061
310.50 6.054
310.60 6.047
310.70 6.039
310.80 6.032
310.90 6.025
311.00 6.017
311.10 6.01
311.20 6.003
311.30 5.995
311.40 5.988
311.50 5.981
311.60 5.973
311.70 5.966
311.80 5.959
311.90 5.952
312.00 5.945
312.10 5.937
312.20 5.93
312.30 5.923
312.40 5.916
312.50 5.909
312.60 5.901
312.70 5.894
312.80 5.887
312.90 5.88
313.00 5.873
313.10 5.866
313.20 5.859
313.30 5.852
313.40 5.845
313.50 5.838
313.60 5.831
313.70 5.823
313.80 5.816
313.90 5.809
314.00 5.802
314.10 5.795
314.20 5.788
314.30 5.781
314.40 5.774
314.50 5.767
314.60 5.761
314.70 5.754
314.80 5.747
314.90 5.74
315.00 5.733
315.10 5.726
315.20 5.719
315.30 5.712
315.40 5.705
315.50 5.699
315.60 5.692
315.70 5.685
315.80 5.678
315.90 5.671
316.00 5.664
316.10 5.658
316.20 5.651
316.30 5.644
316.40 5.637
316.50 5.631
316.60 5.624
316.70 5.617
316.80 5.61
316.90 5.604
317.00 5.597
317.10 5.59
317.20 5.584
317.30 5.577
317.40 5.57
317.50 5.564
317.60 5.557
317.70 5.55
317.80 5.544
317.90 5.537
318.00 5.531
318.10 5.524
318.20 5.517
318.30 5.511
318.40 5.504
318.50 5.498
318.60 5.491
318.70 5.485
318.80 5.478
318.90 5.472
319.00 5.465
319.10 5.459
319.20 5.452
319.30 5.446
319.40 5.439
319.50 5.433
319.60 5.426
319.70 5.42
319.80 5.414
319.90 5.407
320.00 5.401
320.10 5.394
320.20 5.388
320.30 5.382
320.40 5.375
320.50 5.369
320.60 5.362
320.70 5.356
320.80 5.35
320.90 5.344
321.00 5.337
321.10 5.331
321.20 5.325
321.30 5.318
321.40 5.312
321.50 5.306
321.60 5.3
321.70 5.293
321.80 5.287
321.90 5.281
322.00 5.275
322.10 5.268
322.20 5.262
322.30 5.256
322.40 5.25
322.50 5.244
322.60 5.238
322.70 5.231
322.80 5.225
322.90 5.219
323.00 5.213
323.10 5.207
323.20 5.201
323.30 5.195
323.40 5.189
323.50 5.182
323.60 5.176
323.70 5.17
323.80 5.164
323.90 5.158
324.00 5.152
324.10 5.146
324.20 5.14
324.30 5.134
324.40 5.128
324.50 5.122
324.60 5.116
324.70 5.11
324.80 5.104
324.90 5.098
325.00 5.092
325.10 5.086
325.20 5.08
325.30 5.074
325.40 5.069
325.50 5.063
325.60 5.057
325.70 5.051
325.80 5.045
325.90 5.039
326.00 5.033
326.10 5.027
326.20 5.022
326.30 5.016
326.40 5.01
326.50 5.004
326.60 4.998
326.70 4.992
326.80 4.987
326.90 4.981
327.00 4.975
327.10 4.969
327.20 4.964
327.30 4.958
327.40 4.952
327.50 4.946
327.60 4.941
327.70 4.935
327.80 4.929
327.90 4.924
328.00 4.918
328.10 4.912
328.20 4.906
328.30 4.901
328.40 4.895
328.50 4.889
328.60 4.884
328.70 4.878
328.80 4.873
328.90 4.867
329.00 4.861
329.10 4.856
329.20 4.85
329.30 4.845
329.40 4.839
329.50 4.833
329.60 4.828
329.70 4.822
329.80 4.817
329.90 4.811
330.00 4.806
330.10 4.8
330.20 4.795
330.30 4.789
330.40 4.784
330.50 4.778
330.60 4.773
330.70 4.767
330.80 4.762
330.90 4.756
331.00 4.751
331.10 4.745
331.20 4.74
331.30 4.735
331.40 4.729
331.50 4.724
331.60 4.718
331.70 4.713
331.80 4.707
331.90 4.702
332.00 4.697
332.10 4.691
332.20 4.686
332.30 4.681
332.40 4.675
332.50 4.67
332.60 4.665
332.70 4.659
332.80 4.654
332.90 4.649
333.00 4.643
333.10 4.638
333.20 4.633
333.30 4.628
333.40 4.622
333.50 4.617
333.60 4.612
333.70 4.607
333.80 4.601
333.90 4.596
334.00 4.591
334.10 4.586
334.20 4.58
334.30 4.575
334.40 4.57
334.50 4.565
334.60 4.56
334.70 4.554
334.80 4.549
334.90 4.544
335.00 4.539
335.10 4.534
335.20 4.529
335.30 4.524
335.40 4.518
335.50 4.513
335.60 4.508
335.70 4.503
335.80 4.498
335.90 4.493
336.00 4.488
336.10 4.483
336.20 4.478
336.30 4.473
336.40 4.468
336.50 4.463
336.60 4.458
336.70 4.453
336.80 4.448
336.90 4.443
337.00 4.438
337.10 4.433
337.20 4.428
337.30 4.423
337.40 4.418
337.50 4.413
337.60 4.408
337.70 4.403
337.80 4.398
337.90 4.393
338.00 4.388
338.10 4.383
338.20 4.378
338.30 4.373
338.40 4.368
338.50 4.363
338.60 4.358
338.70 4.354
338.80 4.349
338.90 4.344
339.00 4.339
339.10 4.334
339.20 4.329
339.30 4.324
339.40 4.32
339.50 4.315
339.60 4.31
339.70 4.305
339.80 4.3
339.90 4.295
340.00 4.291
340.10 4.286
340.20 4.281
340.30 4.276
340.40 4.271
340.50 4.267
340.60 4.262
340.70 4.257
340.80 4.252
340.90 4.248
341.00 4.243
341.10 4.238
341.20 4.234
341.30 4.229
341.40 4.224
341.50 4.219
341.60 4.215
341.70 4.21
341.80 4.205
341.90 4.201
342.00 4.196
342.10 4.191
342.20 4.187
342.30 4.182
342.40 4.177
342.50 4.173
342.60 4.168
342.70 4.164
342.80 4.159
342.90 4.154
343.00 4.15
343.10 4.145
343.20 4.141
343.30 4.136
343.40 4.131
343.50 4.127
343.60 4.122
343.70 4.118
343.80 4.113
343.90 4.109
344.00 4.104
344.10 4.099
344.20 4.095
344.30 4.09
344.40 4.086
344.50 4.081
344.60 4.077
344.70 4.072
344.80 4.068
344.90 4.063
345.00 4.059
345.10 4.055
345.20 4.05
345.30 4.046
345.40 4.041
345.50 4.037
345.60 4.032
345.70 4.028
345.80 4.023
345.90 4.019
346.00 4.015
346.10 4.01
346.20 4.006
346.30 4.001
346.40 3.997
346.50 3.993
346.60 3.988
346.70 3.984
346.80 3.979
346.90 3.975
347.00 3.971
347.10 3.966
347.20 3.962
347.30 3.958
347.40 3.953
347.50 3.949
347.60 3.945
347.70 3.94
347.80 3.936
347.90 3.932
348.00 3.927
348.10 3.923
348.20 3.919
348.30 3.915
348.40 3.91
348.50 3.906
348.60 3.902
348.70 3.898
348.80 3.893
348.90 3.889
349.00 3.885
349.10 3.881
349.20 3.876
349.30 3.872
349.40 3.868
349.50 3.864
349.60 3.86
349.70 3.855
349.80 3.851
349.90 3.847
350.00 3.843
350.10 3.839
350.20 3.834
350.30 3.83
350.40 3.826
350.50 3.822
350.60 3.818
350.70 3.814
350.80 3.81
350.90 3.806
351.00 3.801
351.10 3.797
351.20 3.793
351.30 3.789
351.40 3.785
351.50 3.781
351.60 3.777
351.70 3.773
351.80 3.769
351.90 3.764
352.00 3.76
352.10 3.756
352.20 3.752
352.30 3.748
352.40 3.744
352.50 3.74
352.60 3.736
352.70 3.732
352.80 3.728
352.90 3.724
353.00 3.72
353.10 3.716
353.20 3.712
353.30 3.708
353.40 3.704
353.50 3.7
353.60 3.696
353.70 3.692
353.80 3.688
353.90 3.684
354.00 3.68
354.10 3.676
354.20 3.672
354.30 3.668
354.40 3.664
354.50 3.661
354.60 3.657
354.70 3.653
354.80 3.649
354.90 3.645
355.00 3.641
355.10 3.637
355.20 3.633
355.30 3.629
355.40 3.625
355.50 3.621
355.60 3.618
355.70 3.614
355.80 3.61
355.90 3.606
356.00 3.602
356.10 3.598
356.20 3.594
356.30 3.591
356.40 3.587
356.50 3.583
356.60 3.579
356.70 3.575
356.80 3.572
356.90 3.568
357.00 3.564
357.10 3.56
357.20 3.556
357.30 3.553
357.40 3.549
357.50 3.545
357.60 3.541
357.70 3.537
357.80 3.534
357.90 3.53
358.00 3.526
358.10 3.522
358.20 3.519
358.30 3.515
358.40 3.511
358.50 3.507
358.60 3.504
358.70 3.5
358.80 3.496
358.90 3.493
359.00 3.489
359.10 3.485
359.20 3.482
359.30 3.478
359.40 3.474
359.50 3.47
359.60 3.467
359.70 3.463
359.80 3.459
359.90 3.456
360.00 3.452
360.10 3.448
360.20 3.445
360.30 3.441
360.40 3.438
360.50 3.434
360.60 3.43
360.70 3.427
360.80 3.423
360.90 3.419
361.00 3.416
361.10 3.412
361.20 3.409
361.30 3.405
361.40 3.401
361.50 3.398
361.60 3.394
361.70 3.391
361.80 3.387
361.90 3.384
362.00 3.38
362.10 3.376
362.20 3.373
362.30 3.369
362.40 3.366
362.50 3.362
362.60 3.359
362.70 3.355
362.80 3.352
362.90 3.348
363.00 3.345
363.10 3.341
363.20 3.338
363.30 3.334
363.40 3.331
363.50 3.327
363.60 3.324
363.70 3.32
363.80 3.317
363.90 3.313
364.00 3.31
364.10 3.306
364.20 3.303
364.30 3.299
364.40 3.296
364.50 3.293
364.60 3.289
364.70 3.286
364.80 3.282
364.90 3.279
365.00 3.275
365.10 3.272
365.20 3.269
365.30 3.265
365.40 3.262
365.50 3.258
365.60 3.255
365.70 3.252
365.80 3.248
365.90 3.245
366.00 3.241
366.10 3.238
366.20 3.235
366.30 3.231
366.40 3.228
366.50 3.224
366.60 3.221
366.70 3.218
366.80 3.214
366.90 3.211
367.00 3.208
367.10 3.204
367.20 3.201
367.30 3.198
367.40 3.194
367.50 3.191
367.60 3.187
367.70 3.184
367.80 3.181
367.90 3.177
368.00 3.174
368.10 3.171
368.20 3.167
368.30 3.164
368.40 3.161
368.50 3.157
368.60 3.154
368.70 3.151
368.80 3.148
368.90 3.144
369.00 3.141
369.10 3.138
369.20 3.134
369.30 3.131
369.40 3.128
369.50 3.125
369.60 3.121
369.70 3.118
369.80 3.115
369.90 3.111
370.00 3.108
370.10 3.105
370.20 3.102
370.30 3.099
370.40 3.095
370.50 3.092
370.60 3.089
370.70 3.086
370.80 3.082
370.90 3.079
371.00 3.076
371.10 3.073
371.20 3.07
371.30 3.066
371.40 3.063
371.50 3.06
371.60 3.057
371.70 3.054
371.80 3.051
371.90 3.047
372.00 3.044
372.10 3.041
372.20 3.038
372.30 3.035
372.40 3.032
372.50 3.029
372.60 3.025
372.70 3.022
372.80 3.019
372.90 3.016
373.00 3.013
373.10 3.01
373.20 3.007
373.30 3.004
373.40 3.001
373.50 2.998
373.60 2.994
373.70 2.991
373.80 2.988
373.90 2.985
374.00 2.982
374.10 2.979
374.20 2.976
374.30 2.973
374.40 2.97
374.50 2.967
374.60 2.964
374.70 2.961
374.80 2.958
374.90 2.955
375.00 2.952
375.10 2.949
375.20 2.946
375.30 2.943
375.40 2.94
375.50 2.937
375.60 2.934
375.70 2.931
375.80 2.928
375.90 2.925
376.00 2.922
376.10 2.919
376.20 2.916
376.30 2.913
376.40 2.91
376.50 2.907
376.60 2.904
376.70 2.901
376.80 2.898
376.90 2.895
377.00 2.892
377.10 2.889
377.20 2.887
377.30 2.884
377.40 2.881
377.50 2.878
377.60 2.875
377.70 2.872
377.80 2.869
377.90 2.867
378.00 2.864
378.10 2.861
378.20 2.858
378.30 2.855
378.40 2.852
378.50 2.849
378.60 2.847
378.70 2.844
378.80 2.841
378.90 2.838
379.00 2.835
379.10 2.832
379.20 2.83
379.30 2.827
379.40 2.824
379.50 2.821
379.60 2.819
379.70 2.816
379.80 2.813
379.90 2.81
380.00 2.807
380.10 2.805
380.20 2.802
380.30 2.799
380.40 2.797
380.50 2.794
380.60 2.792
380.70 2.789
380.80 2.786
380.90 2.784
381.00 2.781
381.10 2.778
381.20 2.776
381.30 2.773
381.40 2.77
381.50 2.767
381.60 2.765
381.70 2.762
381.80 2.759
381.90 2.756
382.00 2.754
382.10 2.751
382.20 2.748
382.30 2.745
382.40 2.742
382.50 2.739
382.60 2.737
382.70 2.734
382.80 2.731
382.90 2.728
383.00 2.725
383.10 2.722
383.20 2.72
383.30 2.717
383.40 2.714
383.50 2.712
383.60 2.709
383.70 2.707
383.80 2.704
383.90 2.702
384.00 2.7
384.10 2.697
384.20 2.695
384.30 2.693
384.40 2.691
384.50 2.688
384.60 2.686
384.70 2.684
384.80 2.682
384.90 2.679
385.00 2.677
385.10 2.675
385.20 2.672
385.30 2.67
385.40 2.667
385.50 2.665
385.60 2.662
385.70 2.66
385.80 2.657
385.90 2.654
386.00 2.652
386.10 2.649
386.20 2.646
386.30 2.644
386.40 2.641
386.50 2.638
386.60 2.635
386.70 2.632
386.80 2.629
386.90 2.626
387.00 2.623
387.10 2.62
387.20 2.617
387.30 2.614
387.40 2.611
387.50 2.607
387.60 2.604
387.70 2.601
387.80 2.597
387.90 2.594
388.00 2.591
388.10 2.588
388.20 2.584
388.30 2.581
388.40 2.578
388.50 2.575
388.60 2.571
388.70 2.569
388.80 2.566
388.90 2.564
389.00 2.562
389.10 2.559
389.20 2.557
389.30 2.556
389.40 2.554
389.50 2.553
389.60 2.552
389.70 2.55
389.80 2.549
389.90 2.548
390.00 2.546
390.10 2.545
390.20 2.543
390.30 2.542
390.40 2.541
390.50 2.539
390.60 2.537
390.70 2.536
390.80 2.534
390.90 2.533
391.00 2.531
391.10 2.529
391.20 2.527
391.30 2.526
391.40 2.524
391.50 2.522
391.60 2.52
391.70 2.518
391.80 2.516
391.90 2.514
392.00 2.511
392.10 2.509
392.20 2.507
392.30 2.505
392.40 2.502
392.50 2.5
392.60 2.498
392.70 2.495
392.80 2.493
392.90 2.49
393.00 2.487
393.10 2.485
393.20 2.482
393.30 2.479
393.40 2.476
393.50 2.473
393.60 2.471
393.70 2.468
393.80 2.464
393.90 2.461
394.00 2.458
394.10 2.455
394.20 2.451
394.30 2.448
394.40 2.445
394.50 2.441
394.60 2.438
394.70 2.434
394.80 2.43
394.90 2.426
395.00 2.422
395.10 2.418
395.20 2.414
395.30 2.41
395.40 2.406
395.50 2.402
395.60 2.397
395.70 2.393
395.80 2.388
395.90 2.384
396.00 2.379
396.10 2.375
396.20 2.37
396.30 2.365
396.40 2.36
396.50 2.355
396.60 2.351
396.70 2.346
396.80 2.341
396.90 2.337
397.00 2.333
397.10 2.333
397.20 2.332
397.30 2.333
397.40 2.333
397.50 2.334
397.60 2.334
397.70 2.335
397.80 2.335
397.90 2.335
398.00 2.336
398.10 2.336
398.20 2.336
398.30 2.336
398.40 2.337
398.50 2.337
398.60 2.336
398.70 2.336
398.80 2.336
398.90 2.336
399.00 2.336
399.10 2.335
399.20 2.335
399.30 2.334
399.40 2.333
399.50 2.333
399.60 2.332
399.70 2.331
399.80 2.33
399.90 2.329
400.00 2.328
400.10 2.327
400.20 2.326
400.30 2.325
400.40 2.323
400.50 2.322
400.60 2.321
400.70 2.319
400.80 2.318
400.90 2.317
401.00 2.315
401.10 2.314
401.20 2.312
401.30 2.31
401.40 2.309
401.50 2.307
401.60 2.305
401.70 2.304
401.80 2.302
401.90 2.3
402.00 2.298
402.10 2.296
402.20 2.295
402.30 2.293
402.40 2.291
402.50 2.289
402.60 2.287
402.70 2.285
402.80 2.283
402.90 2.281
403.00 2.279
403.10 2.277
403.20 2.275
403.30 2.272
403.40 2.27
403.50 2.268
403.60 2.266
403.70 2.264
403.80 2.262
403.90 2.259
404.00 2.257
404.10 2.255
404.20 2.252
404.30 2.25
404.40 2.248
404.50 2.245
404.60 2.243
404.70 2.24
404.80 2.238
404.90 2.236
405.00 2.233
405.10 2.23
405.20 2.228
405.30 2.225
405.40 2.223
405.50 2.22
405.60 2.217
405.70 2.214
405.80 2.211
405.90 2.209
406.00 2.206
406.10 2.203
406.20 2.2
406.30 2.197
406.40 2.193
406.50 2.19
406.60 2.187
406.70 2.184
406.80 2.18
406.90 2.177
407.00 2.173
407.10 2.17
407.20 2.166
407.30 2.162
407.40 2.158
407.50 2.154
407.60 2.15
407.70 2.146
407.80 2.141
407.90 2.137
408.00 2.132
408.10 2.128
408.20 2.123
408.30 2.118
408.40 2.113
408.50 2.107
408.60 2.102
408.70 2.096
408.80 2.09
408.90 2.084
409.00 2.078
409.10 2.072
409.20 2.066
409.30 2.059
409.40 2.053
409.50 2.046
409.60 2.039
409.70 2.033
409.80 2.026
409.90 2.02
410.00 2.017
410.10 2.016
410.20 2.017
410.30 2.013
410.40 2.011
410.50 2.011
410.60 2.014
410.70 2.017
410.80 2.02
410.90 2.023
411.00 2.026
411.10 2.029
411.20 2.031
411.30 2.034
411.40 2.036
411.50 2.038
411.60 2.04
411.70 2.042
411.80 2.043
411.90 2.045
412.00 2.046
412.10 2.047
412.20 2.048
412.30 2.049
412.40 2.05
412.50 2.051
412.60 2.051
412.70 2.051
412.80 2.052
412.90 2.052
413.00 2.052
413.10 2.052
413.20 2.051
413.30 2.051
413.40 2.051
413.50 2.05
413.60 2.05
413.70 2.049
413.80 2.049
413.90 2.048
414.00 2.047
414.10 2.046
414.20 2.045
414.30 2.044
414.40 2.043
414.50 2.042
414.60 2.041
414.70 2.04
414.80 2.039
414.90 2.038
415.00 2.036
415.10 2.035
415.20 2.034
415.30 2.033
415.40 2.031
415.50 2.03
415.60 2.028
415.70 2.027
415.80 2.026
415.90 2.024
416.00 2.023
416.10 2.021
416.20 2.02
416.30 2.018
416.40 2.016
416.50 2.015
416.60 2.013
416.70 2.012
416.80 2.01
416.90 2.009
417.00 2.007
417.10 2.005
417.20 2.004
417.30 2.002
417.40 2
417.50 1.999
417.60 1.997
417.70 1.995
417.80 1.994
417.90 1.992
418.00 1.99
418.10 1.989
418.20 1.987
418.30 1.985
418.40 1.984
418.50 1.982
418.60 1.98
418.70 1.978
418.80 1.977
418.90 1.975
419.00 1.973
419.10 1.972
419.20 1.97
419.30 1.968
419.40 1.966
419.50 1.965
419.60 1.963
419.70 1.961
419.80 1.959
419.90 1.958
420.00 1.956
420.10 1.954
420.20 1.953
420.30 1.951
420.40 1.949
420.50 1.947
420.60 1.946
420.70 1.944
420.80 1.942
420.90 1.94
421.00 1.939
421.10 1.937
421.20 1.935
421.30 1.933
421.40 1.932
421.50 1.93
421.60 1.928
421.70 1.926
421.80 1.925
421.90 1.923
422.00 1.921
422.10 1.919
422.20 1.918
422.30 1.916
422.40 1.914
422.50 1.912
422.60 1.911
422.70 1.909
422.80 1.907
422.90 1.905
423.00 1.904
423.10 1.902
423.20 1.9
423.30 1.898
423.40 1.897
423.50 1.895
423.60 1.893
423.70 1.891
423.80 1.89
423.90 1.888
424.00 1.886
424.10 1.884
424.20 1.883
424.30 1.881
424.40 1.879
424.50 1.877
424.60 1.876
424.70 1.874
424.80 1.872
424.90 1.87
425.00 1.868
425.10 1.867
425.20 1.865
425.30 1.863
425.40 1.861
425.50 1.86
425.60 1.858
425.70 1.856
425.80 1.854
425.90 1.852
426.00 1.851
426.10 1.849
426.20 1.847
426.30 1.845
426.40 1.843
426.50 1.842
426.60 1.84
426.70 1.838
426.80 1.836
426.90 1.834
427.00 1.832
427.10 1.831
427.20 1.829
427.30 1.827
427.40 1.825
427.50 1.823
427.60 1.821
427.70 1.819
427.80 1.817
427.90 1.816
428.00 1.814
428.10 1.812
428.20 1.81
428.30 1.808
428.40 1.806
428.50 1.804
428.60 1.802
428.70 1.8
428.80 1.797
428.90 1.795
429.00 1.793
429.10 1.791
429.20 1.789
429.30 1.787
429.40 1.784
429.50 1.782
429.60 1.78
429.70 1.777
429.80 1.775
429.90 1.773
430.00 1.77
430.10 1.768
430.20 1.765
430.30 1.762
430.40 1.76
430.50 1.757
430.60 1.754
430.70 1.751
430.80 1.748
430.90 1.745
431.00 1.742
431.10 1.738
431.20 1.735
431.30 1.731
431.40 1.728
431.50 1.724
431.60 1.72
431.70 1.716
431.80 1.712
431.90 1.707
432.00 1.703
432.10 1.698
432.20 1.693
432.30 1.688
432.40 1.683
432.50 1.677
432.60 1.671
432.70 1.666
432.80 1.659
432.90 1.653
433.00 1.647
433.10 1.64
433.20 1.633
433.30 1.626
433.40 1.619
433.50 1.612
433.60 1.605
433.70 1.597
433.80 1.59
433.90 1.583
434.00 1.576
434.10 1.575
434.20 1.579
434.30 1.584
434.40 1.588
434.50 1.593
434.60 1.597
434.70 1.602
434.80 1.606
434.90 1.61
435.00 1.614
435.10 1.618
435.20 1.621
435.30 1.625
435.40 1.628
435.50 1.631
435.60 1.633
435.70 1.636
435.80 1.638
435.90 1.64
436.00 1.642
436.10 1.644
436.20 1.645
436.30 1.646
436.40 1.648
436.50 1.649
436.60 1.649
436.70 1.65
436.80 1.651
436.90 1.651
437.00 1.651
437.10 1.652
437.20 1.652
437.30 1.652
437.40 1.652
437.50 1.652
437.60 1.651
437.70 1.651
437.80 1.651
437.90 1.65
438.00 1.65
438.10 1.649
438.20 1.649
438.30 1.648
438.40 1.647
438.50 1.646
438.60 1.646
438.70 1.645
438.80 1.644
438.90 1.643
439.00 1.642
439.10 1.641
439.20 1.64
439.30 1.639
439.40 1.638
439.50 1.637
439.60 1.636
439.70 1.635
439.80 1.634
439.90 1.633
440.00 1.632
440.10 1.63
440.20 1.629
440.30 1.628
440.40 1.627
440.50 1.626
440.60 1.625
440.70 1.623
440.80 1.622
440.90 1.621
441.00 1.62
441.10 1.618
441.20 1.617
441.30 1.616
441.40 1.615
441.50 1.613
441.60 1.612
441.70 1.611
441.80 1.61
441.90 1.608
442.00 1.607
442.10 1.606
442.20 1.604
442.30 1.603
442.40 1.602
442.50 1.601
442.60 1.599
442.70 1.598
442.80 1.597
442.90 1.595
443.00 1.594
443.10 1.593
443.20 1.591
443.30 1.59
443.40 1.589
443.50 1.587
443.60 1.586
443.70 1.585
443.80 1.583
443.90 1.582
444.00 1.581
444.10 1.58
444.20 1.578
444.30 1.577
444.40 1.576
444.50 1.574
444.60 1.573
444.70 1.572
444.80 1.57
444.90 1.569
445.00 1.568
445.10 1.566
445.20 1.565
445.30 1.564
445.40 1.562
445.50 1.561
445.60 1.56
445.70 1.558
445.80 1.557
445.90 1.556
446.00 1.554
446.10 1.553
446.20 1.552
446.30 1.55
446.40 1.549
446.50 1.548
446.60 1.547
446.70 1.545
446.80 1.544
446.90 1.543
447.00 1.541
447.10 1.54
447.20 1.539
447.30 1.537
447.40 1.536
447.50 1.535
447.60 1.533
447.70 1.532
447.80 1.531
447.90 1.53
448.00 1.528
448.10 1.527
448.20 1.526
448.30 1.524
448.40 1.523
448.50 1.522
448.60 1.52
448.70 1.519
448.80 1.518
448.90 1.517
449.00 1.515
449.10 1.514
449.20 1.513
449.30 1.511
449.40 1.51
449.50 1.509
449.60 1.508
449.70 1.506
449.80 1.505
449.90 1.504
450.00 1.502
450.10 1.501
450.20 1.5
450.30 1.499
450.40 1.497
450.50 1.496
450.60 1.495
450.70 1.493
450.80 1.492
450.90 1.491
451.00 1.49
451.10 1.488
451.20 1.487
451.30 1.486
451.40 1.485
451.50 1.483
451.60 1.482
451.70 1.481
451.80 1.48
451.90 1.478
452.00 1.477
452.10 1.476
452.20 1.475
452.30 1.473
452.40 1.472
452.50 1.471
452.60 1.47
452.70 1.468
452.80 1.467
452.90 1.466
453.00 1.465
453.10 1.463
453.20 1.462
453.30 1.461
453.40 1.46
453.50 1.458
453.60 1.457
453.70 1.456
453.80 1.455
453.90 1.453
454.00 1.452
454.10 1.451
