# Version 2.1 - nm, norm@500 to 1, cut digits, bergeron_80000_85.dat_80000
# Wavelength(nm)  Flambda(ergs/cm^s/s/nm)
300.00 6.677
300.10 6.669
300.20 6.661
300.30 6.652
300.40 6.644
300.50 6.636
300.60 6.628
300.70 6.619
300.80 6.611
300.90 6.603
301.00 6.595
301.10 6.587
301.20 6.579
301.30 6.57
301.40 6.562
301.50 6.554
301.60 6.546
301.70 6.538
301.80 6.53
301.90 6.522
302.00 6.514
302.10 6.506
302.20 6.498
302.30 6.49
302.40 6.482
302.50 6.474
302.60 6.466
302.70 6.458
302.80 6.45
302.90 6.442
303.00 6.434
303.10 6.426
303.20 6.418
303.30 6.41
303.40 6.402
303.50 6.394
303.60 6.387
303.70 6.379
303.80 6.371
303.90 6.363
304.00 6.355
304.10 6.347
304.20 6.34
304.30 6.332
304.40 6.324
304.50 6.316
304.60 6.309
304.70 6.301
304.80 6.293
304.90 6.285
305.00 6.278
305.10 6.27
305.20 6.262
305.30 6.255
305.40 6.247
305.50 6.24
305.60 6.232
305.70 6.224
305.80 6.217
305.90 6.209
306.00 6.202
306.10 6.194
306.20 6.186
306.30 6.179
306.40 6.171
306.50 6.164
306.60 6.156
306.70 6.149
306.80 6.141
306.90 6.134
307.00 6.126
307.10 6.119
307.20 6.112
307.30 6.104
307.40 6.097
307.50 6.089
307.60 6.082
307.70 6.075
307.80 6.067
307.90 6.06
308.00 6.052
308.10 6.045
308.20 6.038
308.30 6.03
308.40 6.023
308.50 6.016
308.60 6.009
308.70 6.001
308.80 5.994
308.90 5.987
309.00 5.98
309.10 5.972
309.20 5.965
309.30 5.958
309.40 5.951
309.50 5.944
309.60 5.936
309.70 5.929
309.80 5.922
309.90 5.915
310.00 5.908
310.10 5.901
310.20 5.894
310.30 5.887
310.40 5.879
310.50 5.872
310.60 5.865
310.70 5.858
310.80 5.851
310.90 5.844
311.00 5.837
311.10 5.83
311.20 5.823
311.30 5.816
311.40 5.809
311.50 5.802
311.60 5.795
311.70 5.788
311.80 5.781
311.90 5.774
312.00 5.768
312.10 5.761
312.20 5.754
312.30 5.747
312.40 5.74
312.50 5.733
312.60 5.726
312.70 5.719
312.80 5.713
312.90 5.706
313.00 5.699
313.10 5.692
313.20 5.685
313.30 5.679
313.40 5.672
313.50 5.665
313.60 5.658
313.70 5.652
313.80 5.645
313.90 5.638
314.00 5.631
314.10 5.625
314.20 5.618
314.30 5.611
314.40 5.605
314.50 5.598
314.60 5.591
314.70 5.585
314.80 5.578
314.90 5.571
315.00 5.565
315.10 5.558
315.20 5.552
315.30 5.545
315.40 5.538
315.50 5.532
315.60 5.525
315.70 5.519
315.80 5.512
315.90 5.506
316.00 5.499
316.10 5.493
316.20 5.486
316.30 5.48
316.40 5.473
316.50 5.467
316.60 5.46
316.70 5.454
316.80 5.447
316.90 5.441
317.00 5.435
317.10 5.428
317.20 5.422
317.30 5.415
317.40 5.409
317.50 5.403
317.60 5.396
317.70 5.39
317.80 5.384
317.90 5.377
318.00 5.371
318.10 5.365
318.20 5.358
318.30 5.352
318.40 5.346
318.50 5.339
318.60 5.333
318.70 5.327
318.80 5.321
318.90 5.314
319.00 5.308
319.10 5.302
319.20 5.296
319.30 5.29
319.40 5.283
319.50 5.277
319.60 5.271
319.70 5.265
319.80 5.259
319.90 5.252
320.00 5.246
320.10 5.24
320.20 5.234
320.30 5.228
320.40 5.222
320.50 5.216
320.60 5.21
320.70 5.204
320.80 5.198
320.90 5.192
321.00 5.185
321.10 5.179
321.20 5.173
321.30 5.167
321.40 5.161
321.50 5.155
321.60 5.149
321.70 5.143
321.80 5.137
321.90 5.131
322.00 5.125
322.10 5.119
322.20 5.114
322.30 5.108
322.40 5.102
322.50 5.096
322.60 5.09
322.70 5.084
322.80 5.078
322.90 5.072
323.00 5.066
323.10 5.06
323.20 5.055
323.30 5.049
323.40 5.043
323.50 5.037
323.60 5.031
323.70 5.025
323.80 5.02
323.90 5.014
324.00 5.008
324.10 5.002
324.20 4.996
324.30 4.991
324.40 4.985
324.50 4.979
324.60 4.973
324.70 4.968
324.80 4.962
324.90 4.956
325.00 4.95
325.10 4.945
325.20 4.939
325.30 4.933
325.40 4.928
325.50 4.922
325.60 4.916
325.70 4.911
325.80 4.905
325.90 4.899
326.00 4.894
326.10 4.888
326.20 4.883
326.30 4.877
326.40 4.871
326.50 4.866
326.60 4.86
326.70 4.855
326.80 4.849
326.90 4.844
327.00 4.838
327.10 4.832
327.20 4.827
327.30 4.821
327.40 4.816
327.50 4.81
327.60 4.805
327.70 4.799
327.80 4.794
327.90 4.788
328.00 4.783
328.10 4.778
328.20 4.772
328.30 4.767
328.40 4.761
328.50 4.756
328.60 4.75
328.70 4.745
328.80 4.739
328.90 4.734
329.00 4.729
329.10 4.723
329.20 4.718
329.30 4.713
329.40 4.707
329.50 4.702
329.60 4.697
329.70 4.691
329.80 4.686
329.90 4.681
330.00 4.675
330.10 4.67
330.20 4.665
330.30 4.659
330.40 4.654
330.50 4.649
330.60 4.644
330.70 4.638
330.80 4.633
330.90 4.628
331.00 4.623
331.10 4.617
331.20 4.612
331.30 4.607
331.40 4.602
331.50 4.596
331.60 4.591
331.70 4.586
331.80 4.581
331.90 4.576
332.00 4.571
332.10 4.565
332.20 4.56
332.30 4.555
332.40 4.55
332.50 4.545
332.60 4.54
332.70 4.535
332.80 4.53
332.90 4.524
333.00 4.519
333.10 4.514
333.20 4.509
333.30 4.504
333.40 4.499
333.50 4.494
333.60 4.489
333.70 4.484
333.80 4.479
333.90 4.474
334.00 4.469
334.10 4.464
334.20 4.459
334.30 4.454
334.40 4.449
334.50 4.444
334.60 4.439
334.70 4.434
334.80 4.429
334.90 4.424
335.00 4.419
335.10 4.414
335.20 4.409
335.30 4.404
335.40 4.399
335.50 4.394
335.60 4.389
335.70 4.384
335.80 4.38
335.90 4.375
336.00 4.37
336.10 4.365
336.20 4.36
336.30 4.355
336.40 4.35
336.50 4.345
336.60 4.341
336.70 4.336
336.80 4.331
336.90 4.326
337.00 4.321
337.10 4.317
337.20 4.312
337.30 4.307
337.40 4.302
337.50 4.297
337.60 4.293
337.70 4.288
337.80 4.283
337.90 4.278
338.00 4.274
338.10 4.269
338.20 4.264
338.30 4.259
338.40 4.255
338.50 4.25
338.60 4.245
338.70 4.241
338.80 4.236
338.90 4.231
339.00 4.226
339.10 4.222
339.20 4.217
339.30 4.212
339.40 4.208
339.50 4.203
339.60 4.199
339.70 4.194
339.80 4.189
339.90 4.185
340.00 4.18
340.10 4.175
340.20 4.171
340.30 4.166
340.40 4.162
340.50 4.157
340.60 4.152
340.70 4.148
340.80 4.143
340.90 4.139
341.00 4.134
341.10 4.13
341.20 4.125
341.30 4.121
341.40 4.116
341.50 4.111
341.60 4.107
341.70 4.102
341.80 4.098
341.90 4.093
342.00 4.089
342.10 4.084
342.20 4.08
342.30 4.076
342.40 4.071
342.50 4.067
342.60 4.062
342.70 4.058
342.80 4.053
342.90 4.049
343.00 4.044
343.10 4.04
343.20 4.036
343.30 4.031
343.40 4.027
343.50 4.022
343.60 4.018
343.70 4.014
343.80 4.009
343.90 4.005
344.00 4
344.10 3.996
344.20 3.992
344.30 3.987
344.40 3.983
344.50 3.979
344.60 3.974
344.70 3.97
344.80 3.966
344.90 3.961
345.00 3.957
345.10 3.953
345.20 3.948
345.30 3.944
345.40 3.94
345.50 3.936
345.60 3.931
345.70 3.927
345.80 3.923
345.90 3.918
346.00 3.914
346.10 3.91
346.20 3.906
346.30 3.901
346.40 3.897
346.50 3.893
346.60 3.889
346.70 3.885
346.80 3.88
346.90 3.876
347.00 3.872
347.10 3.868
347.20 3.864
347.30 3.859
347.40 3.855
347.50 3.851
347.60 3.847
347.70 3.843
347.80 3.839
347.90 3.834
348.00 3.83
348.10 3.826
348.20 3.822
348.30 3.818
348.40 3.814
348.50 3.81
348.60 3.806
348.70 3.802
348.80 3.797
348.90 3.793
349.00 3.789
349.10 3.785
349.20 3.781
349.30 3.777
349.40 3.773
349.50 3.769
349.60 3.765
349.70 3.761
349.80 3.757
349.90 3.753
350.00 3.749
350.10 3.745
350.20 3.741
350.30 3.737
350.40 3.733
350.50 3.729
350.60 3.725
350.70 3.721
350.80 3.717
350.90 3.713
351.00 3.709
351.10 3.705
351.20 3.701
351.30 3.697
351.40 3.693
351.50 3.689
351.60 3.685
351.70 3.681
351.80 3.677
351.90 3.673
352.00 3.669
352.10 3.665
352.20 3.661
352.30 3.658
352.40 3.654
352.50 3.65
352.60 3.646
352.70 3.642
352.80 3.638
352.90 3.634
353.00 3.63
353.10 3.627
353.20 3.623
353.30 3.619
353.40 3.615
353.50 3.611
353.60 3.607
353.70 3.603
353.80 3.6
353.90 3.596
354.00 3.592
354.10 3.588
354.20 3.584
354.30 3.581
354.40 3.577
354.50 3.573
354.60 3.569
354.70 3.565
354.80 3.562
354.90 3.558
355.00 3.554
355.10 3.55
355.20 3.547
355.30 3.543
355.40 3.539
355.50 3.535
355.60 3.532
355.70 3.528
355.80 3.524
355.90 3.52
356.00 3.517
356.10 3.513
356.20 3.509
356.30 3.506
356.40 3.502
356.50 3.498
356.60 3.494
356.70 3.491
356.80 3.487
356.90 3.483
357.00 3.48
357.10 3.476
357.20 3.472
357.30 3.469
357.40 3.465
357.50 3.461
357.60 3.458
357.70 3.454
357.80 3.451
357.90 3.447
358.00 3.443
358.10 3.44
358.20 3.436
358.30 3.432
358.40 3.429
358.50 3.425
358.60 3.422
358.70 3.418
358.80 3.415
358.90 3.411
359.00 3.407
359.10 3.404
359.20 3.4
359.30 3.397
359.40 3.393
359.50 3.39
359.60 3.386
359.70 3.382
359.80 3.379
359.90 3.375
360.00 3.372
360.10 3.368
360.20 3.365
360.30 3.361
360.40 3.358
360.50 3.354
360.60 3.351
360.70 3.347
360.80 3.344
360.90 3.34
361.00 3.337
361.10 3.333
361.20 3.33
361.30 3.326
361.40 3.323
361.50 3.32
361.60 3.316
361.70 3.313
361.80 3.309
361.90 3.306
362.00 3.302
362.10 3.299
362.20 3.295
362.30 3.292
362.40 3.289
362.50 3.285
362.60 3.282
362.70 3.278
362.80 3.275
362.90 3.272
363.00 3.268
363.10 3.265
363.20 3.261
363.30 3.258
363.40 3.255
363.50 3.251
363.60 3.248
363.70 3.245
363.80 3.241
363.90 3.238
364.00 3.234
364.10 3.231
364.20 3.228
364.30 3.224
364.40 3.221
364.50 3.218
364.60 3.214
364.70 3.211
364.80 3.208
364.90 3.205
365.00 3.201
365.10 3.198
365.20 3.195
365.30 3.191
365.40 3.188
365.50 3.185
365.60 3.182
365.70 3.178
365.80 3.175
365.90 3.172
366.00 3.168
366.10 3.165
366.20 3.162
366.30 3.159
366.40 3.155
366.50 3.152
366.60 3.149
366.70 3.145
366.80 3.142
366.90 3.139
367.00 3.136
367.10 3.132
367.20 3.129
367.30 3.126
367.40 3.123
367.50 3.119
367.60 3.116
367.70 3.113
367.80 3.11
367.90 3.106
368.00 3.103
368.10 3.1
368.20 3.097
368.30 3.094
368.40 3.09
368.50 3.087
368.60 3.084
368.70 3.081
368.80 3.077
368.90 3.074
369.00 3.071
369.10 3.068
369.20 3.064
369.30 3.061
369.40 3.058
369.50 3.055
369.60 3.052
369.70 3.048
369.80 3.045
369.90 3.042
370.00 3.039
370.10 3.036
370.20 3.033
370.30 3.029
370.40 3.026
370.50 3.023
370.60 3.02
370.70 3.017
370.80 3.014
370.90 3.011
371.00 3.007
371.10 3.004
371.20 3.001
371.30 2.998
371.40 2.995
371.50 2.992
371.60 2.989
371.70 2.986
371.80 2.983
371.90 2.979
372.00 2.976
372.10 2.973
372.20 2.97
372.30 2.967
372.40 2.964
372.50 2.961
372.60 2.958
372.70 2.955
372.80 2.952
372.90 2.949
373.00 2.946
373.10 2.943
373.20 2.94
373.30 2.937
373.40 2.934
373.50 2.931
373.60 2.929
373.70 2.926
373.80 2.923
373.90 2.92
374.00 2.917
374.10 2.914
374.20 2.911
374.30 2.908
374.40 2.905
374.50 2.902
374.60 2.899
374.70 2.896
374.80 2.893
374.90 2.89
375.00 2.887
375.10 2.884
375.20 2.881
375.30 2.878
375.40 2.875
375.50 2.872
375.60 2.869
375.70 2.866
375.80 2.863
375.90 2.86
376.00 2.857
376.10 2.854
376.20 2.851
376.30 2.849
376.40 2.846
376.50 2.843
376.60 2.84
376.70 2.837
376.80 2.834
376.90 2.831
377.00 2.828
377.10 2.825
377.20 2.823
377.30 2.82
377.40 2.817
377.50 2.814
377.60 2.811
377.70 2.808
377.80 2.806
377.90 2.803
378.00 2.8
378.10 2.797
378.20 2.794
378.30 2.792
378.40 2.789
378.50 2.786
378.60 2.783
378.70 2.781
378.80 2.778
378.90 2.775
379.00 2.772
379.10 2.769
379.20 2.767
379.30 2.764
379.40 2.761
379.50 2.759
379.60 2.756
379.70 2.753
379.80 2.75
379.90 2.748
380.00 2.745
380.10 2.742
380.20 2.74
380.30 2.737
380.40 2.734
380.50 2.732
380.60 2.729
380.70 2.726
380.80 2.724
380.90 2.721
381.00 2.718
381.10 2.716
381.20 2.713
381.30 2.71
381.40 2.708
381.50 2.705
381.60 2.702
381.70 2.7
381.80 2.697
381.90 2.694
382.00 2.692
382.10 2.689
382.20 2.687
382.30 2.684
382.40 2.681
382.50 2.679
382.60 2.676
382.70 2.674
382.80 2.671
382.90 2.668
383.00 2.666
383.10 2.663
383.20 2.661
383.30 2.658
383.40 2.656
383.50 2.653
383.60 2.651
383.70 2.648
383.80 2.646
383.90 2.643
384.00 2.641
384.10 2.638
384.20 2.636
384.30 2.633
384.40 2.631
384.50 2.629
384.60 2.626
384.70 2.624
384.80 2.621
384.90 2.619
385.00 2.616
385.10 2.614
385.20 2.612
385.30 2.609
385.40 2.607
385.50 2.604
385.60 2.602
385.70 2.599
385.80 2.597
385.90 2.594
386.00 2.592
386.10 2.589
386.20 2.587
386.30 2.584
386.40 2.582
386.50 2.579
386.60 2.577
386.70 2.574
386.80 2.572
386.90 2.569
387.00 2.567
387.10 2.564
387.20 2.562
387.30 2.559
387.40 2.557
387.50 2.554
387.60 2.552
387.70 2.549
387.80 2.547
387.90 2.544
388.00 2.542
388.10 2.539
388.20 2.537
388.30 2.534
388.40 2.532
388.50 2.529
388.60 2.527
388.70 2.525
388.80 2.522
388.90 2.52
389.00 2.518
389.10 2.516
389.20 2.513
389.30 2.511
389.40 2.509
389.50 2.507
389.60 2.505
389.70 2.503
389.80 2.501
389.90 2.499
390.00 2.497
390.10 2.495
390.20 2.493
390.30 2.491
390.40 2.489
390.50 2.487
390.60 2.485
390.70 2.483
390.80 2.481
390.90 2.479
391.00 2.477
391.10 2.474
391.20 2.472
391.30 2.47
391.40 2.468
391.50 2.466
391.60 2.464
391.70 2.461
391.80 2.459
391.90 2.457
392.00 2.455
392.10 2.452
392.20 2.45
392.30 2.448
392.40 2.445
392.50 2.443
392.60 2.441
392.70 2.438
392.80 2.436
392.90 2.433
393.00 2.431
393.10 2.428
393.20 2.426
393.30 2.423
393.40 2.42
393.50 2.418
393.60 2.415
393.70 2.413
393.80 2.41
393.90 2.407
394.00 2.404
394.10 2.402
394.20 2.399
394.30 2.396
394.40 2.393
394.50 2.39
394.60 2.387
394.70 2.384
394.80 2.381
394.90 2.378
395.00 2.375
395.10 2.372
395.20 2.369
395.30 2.366
395.40 2.363
395.50 2.36
395.60 2.357
395.70 2.354
395.80 2.351
395.90 2.348
396.00 2.345
396.10 2.342
396.20 2.339
396.30 2.336
396.40 2.333
396.50 2.33
396.60 2.327
396.70 2.324
396.80 2.321
396.90 2.319
397.00 2.316
397.10 2.315
397.20 2.313
397.30 2.312
397.40 2.311
397.50 2.31
397.60 2.309
397.70 2.308
397.80 2.307
397.90 2.306
398.00 2.305
398.10 2.304
398.20 2.303
398.30 2.302
398.40 2.301
398.50 2.3
398.60 2.299
398.70 2.298
398.80 2.297
398.90 2.296
399.00 2.295
399.10 2.294
399.20 2.293
399.30 2.292
399.40 2.291
399.50 2.29
399.60 2.288
399.70 2.287
399.80 2.286
399.90 2.285
400.00 2.284
400.10 2.282
400.20 2.281
400.30 2.28
400.40 2.278
400.50 2.277
400.60 2.275
400.70 2.274
400.80 2.272
400.90 2.271
401.00 2.269
401.10 2.268
401.20 2.266
401.30 2.265
401.40 2.263
401.50 2.261
401.60 2.26
401.70 2.258
401.80 2.256
401.90 2.254
402.00 2.252
402.10 2.251
402.20 2.249
402.30 2.247
402.40 2.245
402.50 2.243
402.60 2.241
402.70 2.239
402.80 2.237
402.90 2.235
403.00 2.233
403.10 2.23
403.20 2.228
403.30 2.226
403.40 2.224
403.50 2.222
403.60 2.219
403.70 2.217
403.80 2.215
403.90 2.212
404.00 2.21
404.10 2.207
404.20 2.205
404.30 2.202
404.40 2.2
404.50 2.197
404.60 2.195
404.70 2.192
404.80 2.189
404.90 2.186
405.00 2.184
405.10 2.181
405.20 2.178
405.30 2.175
405.40 2.172
405.50 2.169
405.60 2.166
405.70 2.163
405.80 2.16
405.90 2.157
406.00 2.154
406.10 2.151
406.20 2.147
406.30 2.144
406.40 2.141
406.50 2.137
406.60 2.134
406.70 2.13
406.80 2.127
406.90 2.123
407.00 2.119
407.10 2.116
407.20 2.112
407.30 2.108
407.40 2.104
407.50 2.1
407.60 2.096
407.70 2.092
407.80 2.088
407.90 2.084
408.00 2.08
408.10 2.076
408.20 2.071
408.30 2.067
408.40 2.063
408.50 2.058
408.60 2.054
408.70 2.049
408.80 2.045
408.90 2.04
409.00 2.036
409.10 2.032
409.20 2.027
409.30 2.023
409.40 2.019
409.50 2.015
409.60 2.011
409.70 2.008
409.80 2.005
409.90 2.003
410.00 2.002
410.10 2.002
410.20 2.001
410.30 1.998
410.40 1.995
410.50 1.993
410.60 1.992
410.70 1.991
410.80 1.991
410.90 1.992
411.00 1.992
411.10 1.993
411.20 1.994
411.30 1.994
411.40 1.995
411.50 1.996
411.60 1.997
411.70 1.998
411.80 1.999
411.90 2
412.00 2
412.10 2.001
412.20 2.002
412.30 2.002
412.40 2.003
412.50 2.003
412.60 2.004
412.70 2.004
412.80 2.005
412.90 2.005
413.00 2.005
413.10 2.005
413.20 2.005
413.30 2.006
413.40 2.006
413.50 2.006
413.60 2.006
413.70 2.005
413.80 2.005
413.90 2.005
414.00 2.005
414.10 2.004
414.20 2.004
414.30 2.004
414.40 2.003
414.50 2.003
414.60 2.002
414.70 2.002
414.80 2.001
414.90 2
415.00 2
415.10 1.999
415.20 1.998
415.30 1.998
415.40 1.997
415.50 1.996
415.60 1.995
415.70 1.994
415.80 1.993
415.90 1.992
416.00 1.991
416.10 1.99
416.20 1.989
416.30 1.988
416.40 1.987
416.50 1.986
416.60 1.985
416.70 1.984
416.80 1.983
416.90 1.981
417.00 1.98
417.10 1.979
417.20 1.978
417.30 1.976
417.40 1.975
417.50 1.974
417.60 1.973
417.70 1.971
417.80 1.97
417.90 1.969
418.00 1.967
418.10 1.966
418.20 1.964
418.30 1.963
418.40 1.962
418.50 1.96
418.60 1.959
418.70 1.957
418.80 1.956
418.90 1.954
419.00 1.953
419.10 1.951
419.20 1.95
419.30 1.948
419.40 1.947
419.50 1.945
419.60 1.944
419.70 1.942
419.80 1.94
419.90 1.939
420.00 1.937
420.10 1.936
420.20 1.934
420.30 1.933
420.40 1.931
420.50 1.929
420.60 1.928
420.70 1.926
420.80 1.924
420.90 1.923
421.00 1.921
421.10 1.919
421.20 1.918
421.30 1.916
421.40 1.914
421.50 1.913
421.60 1.911
421.70 1.909
421.80 1.908
421.90 1.906
422.00 1.904
422.10 1.902
422.20 1.901
422.30 1.899
422.40 1.897
422.50 1.895
422.60 1.894
422.70 1.892
422.80 1.89
422.90 1.888
423.00 1.887
423.10 1.885
423.20 1.883
423.30 1.881
423.40 1.879
423.50 1.877
423.60 1.876
423.70 1.874
423.80 1.872
423.90 1.87
424.00 1.868
424.10 1.866
424.20 1.864
424.30 1.863
424.40 1.861
424.50 1.859
424.60 1.857
424.70 1.855
424.80 1.853
424.90 1.851
425.00 1.849
425.10 1.847
425.20 1.845
425.30 1.843
425.40 1.841
425.50 1.839
425.60 1.837
425.70 1.835
425.80 1.833
425.90 1.831
426.00 1.829
426.10 1.827
426.20 1.825
426.30 1.822
426.40 1.82
426.50 1.818
426.60 1.816
426.70 1.814
426.80 1.812
426.90 1.809
427.00 1.807
427.10 1.805
427.20 1.802
427.30 1.8
427.40 1.798
427.50 1.795
427.60 1.793
427.70 1.791
427.80 1.788
427.90 1.786
428.00 1.783
428.10 1.78
428.20 1.778
428.30 1.775
428.40 1.773
428.50 1.77
428.60 1.767
428.70 1.764
428.80 1.762
428.90 1.759
429.00 1.756
429.10 1.753
429.20 1.75
429.30 1.747
429.40 1.744
429.50 1.741
429.60 1.738
429.70 1.734
429.80 1.731
429.90 1.728
430.00 1.724
430.10 1.721
430.20 1.717
430.30 1.714
430.40 1.71
430.50 1.706
430.60 1.703
430.70 1.699
430.80 1.695
430.90 1.691
431.00 1.687
431.10 1.683
431.20 1.678
431.30 1.674
431.40 1.67
431.50 1.665
431.60 1.661
431.70 1.656
431.80 1.652
431.90 1.647
432.00 1.642
432.10 1.637
432.20 1.632
432.30 1.627
432.40 1.622
432.50 1.617
432.60 1.612
432.70 1.607
432.80 1.601
432.90 1.596
433.00 1.591
433.10 1.586
433.20 1.581
433.30 1.576
433.40 1.571
433.50 1.566
433.60 1.561
433.70 1.555
433.80 1.55
433.90 1.543
434.00 1.539
434.10 1.538
434.20 1.54
434.30 1.544
434.40 1.547
434.50 1.549
434.60 1.552
434.70 1.554
434.80 1.556
434.90 1.559
435.00 1.561
435.10 1.564
435.20 1.566
435.30 1.569
435.40 1.571
435.50 1.573
435.60 1.576
435.70 1.578
435.80 1.58
435.90 1.583
436.00 1.585
436.10 1.587
436.20 1.589
436.30 1.591
436.40 1.592
436.50 1.594
436.60 1.596
436.70 1.597
436.80 1.599
436.90 1.6
437.00 1.601
437.10 1.603
437.20 1.604
437.30 1.605
437.40 1.606
437.50 1.607
437.60 1.607
437.70 1.608
437.80 1.609
437.90 1.609
438.00 1.61
438.10 1.61
438.20 1.611
438.30 1.611
438.40 1.611
438.50 1.611
438.60 1.612
438.70 1.612
438.80 1.612
438.90 1.612
439.00 1.612
439.10 1.611
439.20 1.611
439.30 1.611
439.40 1.611
439.50 1.611
439.60 1.61
439.70 1.61
439.80 1.61
439.90 1.609
440.00 1.609
440.10 1.608
440.20 1.608
440.30 1.607
440.40 1.606
440.50 1.606
440.60 1.605
440.70 1.605
440.80 1.604
440.90 1.603
441.00 1.602
441.10 1.602
441.20 1.601
441.30 1.6
441.40 1.599
441.50 1.598
441.60 1.598
441.70 1.597
441.80 1.596
441.90 1.595
442.00 1.594
442.10 1.593
442.20 1.592
442.30 1.591
442.40 1.59
442.50 1.589
442.60 1.588
442.70 1.587
442.80 1.586
442.90 1.585
443.00 1.584
443.10 1.583
443.20 1.582
443.30 1.581
443.40 1.58
443.50 1.579
443.60 1.578
443.70 1.577
443.80 1.575
443.90 1.574
444.00 1.573
444.10 1.572
444.20 1.571
444.30 1.57
444.40 1.569
444.50 1.568
444.60 1.566
444.70 1.565
444.80 1.564
444.90 1.563
445.00 1.562
445.10 1.561
445.20 1.559
445.30 1.558
445.40 1.557
445.50 1.556
445.60 1.555
445.70 1.553
445.80 1.552
445.90 1.551
446.00 1.55
446.10 1.549
446.20 1.547
446.30 1.546
446.40 1.545
446.50 1.544
446.60 1.543
446.70 1.541
446.80 1.54
446.90 1.539
447.00 1.538
447.10 1.537
447.20 1.535
447.30 1.534
447.40 1.533
447.50 1.532
447.60 1.53
447.70 1.529
447.80 1.528
447.90 1.527
448.00 1.526
448.10 1.524
448.20 1.523
448.30 1.522
448.40 1.521
448.50 1.519
448.60 1.518
448.70 1.517
448.80 1.516
448.90 1.514
449.00 1.513
449.10 1.512
449.20 1.511
449.30 1.509
449.40 1.508
449.50 1.507
449.60 1.506
449.70 1.505
449.80 1.503
449.90 1.502
450.00 1.501
450.10 1.5
450.20 1.498
450.30 1.497
450.40 1.496
450.50 1.495
450.60 1.493
450.70 1.492
450.80 1.491
450.90 1.49
451.00 1.488
451.10 1.487
451.20 1.486
451.30 1.485
451.40 1.484
451.50 1.482
451.60 1.481
451.70 1.48
451.80 1.479
451.90 1.477
452.00 1.476
452.10 1.475
452.20 1.474
452.30 1.472
452.40 1.471
452.50 1.47
452.60 1.469
452.70 1.468
452.80 1.466
452.90 1.465
453.00 1.464
453.10 1.463
453.20 1.461
453.30 1.46
453.40 1.459
453.50 1.458
453.60 1.457
453.70 1.455
453.80 1.454
453.90 1.453
454.00 1.452
454.10 1.451
