# Version 2.1 - nm, norm@500 to 1, cut digits, bergeron_10500_85.dat_10500
# Wavelength(nm)  Flambda(ergs/cm^s/s/nm)
300.00 1.829
300.10 1.828
300.20 1.827
300.30 1.826
300.40 1.826
300.50 1.825
300.60 1.824
300.70 1.823
300.80 1.823
300.90 1.822
301.00 1.821
301.10 1.82
301.20 1.819
301.30 1.819
301.40 1.818
301.50 1.817
301.60 1.816
301.70 1.815
301.80 1.815
301.90 1.814
302.00 1.813
302.10 1.812
302.20 1.811
302.30 1.811
302.40 1.81
302.50 1.809
302.60 1.808
302.70 1.808
302.80 1.807
302.90 1.806
303.00 1.805
303.10 1.804
303.20 1.804
303.30 1.803
303.40 1.802
303.50 1.801
303.60 1.8
303.70 1.8
303.80 1.799
303.90 1.798
304.00 1.797
304.10 1.797
304.20 1.796
304.30 1.795
304.40 1.794
304.50 1.793
304.60 1.793
304.70 1.792
304.80 1.791
304.90 1.79
305.00 1.789
305.10 1.789
305.20 1.788
305.30 1.787
305.40 1.786
305.50 1.785
305.60 1.785
305.70 1.784
305.80 1.783
305.90 1.782
306.00 1.782
306.10 1.781
306.20 1.78
306.30 1.779
306.40 1.778
306.50 1.778
306.60 1.777
306.70 1.776
306.80 1.775
306.90 1.774
307.00 1.774
307.10 1.773
307.20 1.772
307.30 1.771
307.40 1.771
307.50 1.77
307.60 1.769
307.70 1.768
307.80 1.767
307.90 1.767
308.00 1.766
308.10 1.765
308.20 1.764
308.30 1.764
308.40 1.763
308.50 1.762
308.60 1.761
308.70 1.76
308.80 1.76
308.90 1.759
309.00 1.758
309.10 1.757
309.20 1.756
309.30 1.756
309.40 1.755
309.50 1.754
309.60 1.753
309.70 1.753
309.80 1.752
309.90 1.751
310.00 1.75
310.10 1.749
310.20 1.749
310.30 1.748
310.40 1.747
310.50 1.746
310.60 1.746
310.70 1.745
310.80 1.744
310.90 1.743
311.00 1.742
311.10 1.742
311.20 1.741
311.30 1.74
311.40 1.739
311.50 1.739
311.60 1.738
311.70 1.737
311.80 1.736
311.90 1.735
312.00 1.735
312.10 1.734
312.20 1.733
312.30 1.732
312.40 1.732
312.50 1.731
312.60 1.73
312.70 1.729
312.80 1.728
312.90 1.728
313.00 1.727
313.10 1.726
313.20 1.725
313.30 1.725
313.40 1.724
313.50 1.723
313.60 1.722
313.70 1.721
313.80 1.721
313.90 1.72
314.00 1.719
314.10 1.718
314.20 1.718
314.30 1.717
314.40 1.716
314.50 1.715
314.60 1.714
314.70 1.714
314.80 1.713
314.90 1.712
315.00 1.711
315.10 1.711
315.20 1.71
315.30 1.709
315.40 1.708
315.50 1.707
315.60 1.707
315.70 1.706
315.80 1.705
315.90 1.704
316.00 1.704
316.10 1.703
316.20 1.702
316.30 1.701
316.40 1.7
316.50 1.7
316.60 1.699
316.70 1.698
316.80 1.697
316.90 1.697
317.00 1.696
317.10 1.695
317.20 1.694
317.30 1.694
317.40 1.693
317.50 1.692
317.60 1.691
317.70 1.69
317.80 1.69
317.90 1.689
318.00 1.688
318.10 1.687
318.20 1.687
318.30 1.686
318.40 1.685
318.50 1.684
318.60 1.684
318.70 1.683
318.80 1.682
318.90 1.681
319.00 1.68
319.10 1.68
319.20 1.679
319.30 1.678
319.40 1.677
319.50 1.677
319.60 1.676
319.70 1.675
319.80 1.674
319.90 1.674
320.00 1.673
320.10 1.672
320.20 1.671
320.30 1.67
320.40 1.67
320.50 1.669
320.60 1.668
320.70 1.667
320.80 1.667
320.90 1.666
321.00 1.665
321.10 1.664
321.20 1.664
321.30 1.663
321.40 1.662
321.50 1.661
321.60 1.661
321.70 1.66
321.80 1.659
321.90 1.658
322.00 1.657
322.10 1.657
322.20 1.656
322.30 1.655
322.40 1.654
322.50 1.654
322.60 1.653
322.70 1.652
322.80 1.651
322.90 1.651
323.00 1.65
323.10 1.649
323.20 1.648
323.30 1.648
323.40 1.647
323.50 1.646
323.60 1.645
323.70 1.645
323.80 1.644
323.90 1.643
324.00 1.642
324.10 1.642
324.20 1.641
324.30 1.64
324.40 1.639
324.50 1.638
324.60 1.638
324.70 1.637
324.80 1.636
324.90 1.635
325.00 1.635
325.10 1.634
325.20 1.633
325.30 1.632
325.40 1.632
325.50 1.631
325.60 1.63
325.70 1.629
325.80 1.629
325.90 1.628
326.00 1.627
326.10 1.626
326.20 1.626
326.30 1.625
326.40 1.624
326.50 1.623
326.60 1.623
326.70 1.622
326.80 1.621
326.90 1.62
327.00 1.62
327.10 1.619
327.20 1.618
327.30 1.617
327.40 1.617
327.50 1.616
327.60 1.615
327.70 1.614
327.80 1.614
327.90 1.613
328.00 1.612
328.10 1.611
328.20 1.611
328.30 1.61
328.40 1.609
328.50 1.608
328.60 1.608
328.70 1.607
328.80 1.606
328.90 1.605
329.00 1.605
329.10 1.604
329.20 1.603
329.30 1.602
329.40 1.602
329.50 1.601
329.60 1.6
329.70 1.599
329.80 1.599
329.90 1.598
330.00 1.597
330.10 1.596
330.20 1.596
330.30 1.595
330.40 1.594
330.50 1.593
330.60 1.593
330.70 1.592
330.80 1.591
330.90 1.59
331.00 1.59
331.10 1.589
331.20 1.588
331.30 1.587
331.40 1.587
331.50 1.586
331.60 1.585
331.70 1.584
331.80 1.584
331.90 1.583
332.00 1.582
332.10 1.581
332.20 1.581
332.30 1.58
332.40 1.579
332.50 1.578
332.60 1.578
332.70 1.577
332.80 1.576
332.90 1.576
333.00 1.575
333.10 1.574
333.20 1.573
333.30 1.573
333.40 1.572
333.50 1.571
333.60 1.57
333.70 1.57
333.80 1.569
333.90 1.568
334.00 1.567
334.10 1.567
334.20 1.566
334.30 1.565
334.40 1.564
334.50 1.564
334.60 1.563
334.70 1.562
334.80 1.562
334.90 1.561
335.00 1.56
335.10 1.559
335.20 1.559
335.30 1.558
335.40 1.557
335.50 1.556
335.60 1.556
335.70 1.555
335.80 1.554
335.90 1.553
336.00 1.553
336.10 1.552
336.20 1.551
336.30 1.55
336.40 1.55
336.50 1.549
336.60 1.548
336.70 1.548
336.80 1.547
336.90 1.546
337.00 1.545
337.10 1.545
337.20 1.544
337.30 1.543
337.40 1.542
337.50 1.542
337.60 1.541
337.70 1.54
337.80 1.54
337.90 1.539
338.00 1.538
338.10 1.537
338.20 1.537
338.30 1.536
338.40 1.535
338.50 1.534
338.60 1.534
338.70 1.533
338.80 1.532
338.90 1.531
339.00 1.531
339.10 1.53
339.20 1.529
339.30 1.529
339.40 1.528
339.50 1.527
339.60 1.526
339.70 1.526
339.80 1.525
339.90 1.524
340.00 1.524
340.10 1.523
340.20 1.522
340.30 1.521
340.40 1.521
340.50 1.52
340.60 1.519
340.70 1.518
340.80 1.518
340.90 1.517
341.00 1.516
341.10 1.516
341.20 1.515
341.30 1.514
341.40 1.513
341.50 1.513
341.60 1.512
341.70 1.511
341.80 1.511
341.90 1.51
342.00 1.509
342.10 1.508
342.20 1.508
342.30 1.507
342.40 1.506
342.50 1.506
342.60 1.505
342.70 1.504
342.80 1.503
342.90 1.503
343.00 1.502
343.10 1.501
343.20 1.501
343.30 1.5
343.40 1.499
343.50 1.498
343.60 1.498
343.70 1.497
343.80 1.496
343.90 1.496
344.00 1.495
344.10 1.494
344.20 1.493
344.30 1.493
344.40 1.492
344.50 1.491
344.60 1.491
344.70 1.49
344.80 1.489
344.90 1.488
345.00 1.488
345.10 1.487
345.20 1.486
345.30 1.486
345.40 1.485
345.50 1.484
345.60 1.483
345.70 1.483
345.80 1.482
345.90 1.481
346.00 1.481
346.10 1.48
346.20 1.479
346.30 1.478
346.40 1.478
346.50 1.477
346.60 1.476
346.70 1.476
346.80 1.475
346.90 1.474
347.00 1.474
347.10 1.473
347.20 1.472
347.30 1.471
347.40 1.471
347.50 1.47
347.60 1.469
347.70 1.469
347.80 1.468
347.90 1.467
348.00 1.466
348.10 1.466
348.20 1.465
348.30 1.464
348.40 1.464
348.50 1.463
348.60 1.462
348.70 1.462
348.80 1.461
348.90 1.46
349.00 1.459
349.10 1.459
349.20 1.458
349.30 1.457
349.40 1.457
349.50 1.456
349.60 1.455
349.70 1.455
349.80 1.454
349.90 1.453
350.00 1.452
350.10 1.452
350.20 1.451
350.30 1.45
350.40 1.45
350.50 1.449
350.60 1.448
350.70 1.448
350.80 1.447
350.90 1.446
351.00 1.445
351.10 1.445
351.20 1.444
351.30 1.443
351.40 1.443
351.50 1.442
351.60 1.441
351.70 1.441
351.80 1.44
351.90 1.439
352.00 1.439
352.10 1.438
352.20 1.437
352.30 1.436
352.40 1.436
352.50 1.435
352.60 1.434
352.70 1.434
352.80 1.433
352.90 1.432
353.00 1.432
353.10 1.431
353.20 1.43
353.30 1.43
353.40 1.429
353.50 1.428
353.60 1.428
353.70 1.427
353.80 1.426
353.90 1.425
354.00 1.425
354.10 1.424
354.20 1.423
354.30 1.423
354.40 1.422
354.50 1.421
354.60 1.421
354.70 1.42
354.80 1.419
354.90 1.419
355.00 1.418
355.10 1.417
355.20 1.417
355.30 1.416
355.40 1.415
355.50 1.414
355.60 1.414
355.70 1.413
355.80 1.412
355.90 1.412
356.00 1.411
356.10 1.41
356.20 1.41
356.30 1.409
356.40 1.408
356.50 1.408
356.60 1.407
356.70 1.406
356.80 1.406
356.90 1.405
357.00 1.404
357.10 1.404
357.20 1.403
357.30 1.402
357.40 1.402
357.50 1.401
357.60 1.4
357.70 1.4
357.80 1.399
357.90 1.398
358.00 1.397
358.10 1.397
358.20 1.396
358.30 1.395
358.40 1.395
358.50 1.394
358.60 1.393
358.70 1.393
358.80 1.392
358.90 1.391
359.00 1.391
359.10 1.39
359.20 1.389
359.30 1.389
359.40 1.388
359.50 1.387
359.60 1.387
359.70 1.386
359.80 1.385
359.90 1.385
360.00 1.384
360.10 1.383
360.20 1.383
360.30 1.382
360.40 1.381
360.50 1.381
360.60 1.38
360.70 1.379
360.80 1.379
360.90 1.378
361.00 1.377
361.10 1.377
361.20 1.376
361.30 1.375
361.40 1.375
361.50 1.374
361.60 1.373
361.70 1.373
361.80 1.372
361.90 1.371
362.00 1.371
362.10 1.37
362.20 1.369
362.30 1.369
362.40 1.368
362.50 1.367
362.60 1.367
362.70 1.366
362.80 1.365
362.90 1.365
363.00 1.364
363.10 1.363
363.20 1.363
363.30 1.362
363.40 1.361
363.50 1.36
363.60 1.359
363.70 1.359
363.80 1.358
363.90 1.357
364.00 1.356
364.10 1.356
364.20 1.355
364.30 1.354
364.40 1.353
364.50 1.353
364.60 1.352
364.70 1.351
364.80 1.35
364.90 1.35
365.00 1.349
365.10 1.348
365.20 1.347
365.30 1.346
365.40 1.346
365.50 1.345
365.60 1.344
365.70 1.343
365.80 1.343
365.90 1.342
366.00 1.341
366.10 1.34
366.20 1.34
366.30 1.339
366.40 1.338
366.50 1.338
366.60 1.337
366.70 1.336
366.80 1.336
366.90 1.335
367.00 1.334
367.10 1.333
367.20 1.333
367.30 1.332
367.40 1.331
367.50 1.331
367.60 1.33
367.70 1.329
367.80 1.329
367.90 1.328
368.00 1.327
368.10 1.327
368.20 1.326
368.30 1.326
368.40 1.325
368.50 1.324
368.60 1.324
368.70 1.323
368.80 1.323
368.90 1.322
369.00 1.321
369.10 1.321
369.20 1.32
369.30 1.32
369.40 1.319
369.50 1.319
369.60 1.318
369.70 1.317
369.80 1.317
369.90 1.316
370.00 1.316
370.10 1.315
370.20 1.315
370.30 1.315
370.40 1.315
370.50 1.315
370.60 1.314
370.70 1.314
370.80 1.314
370.90 1.314
371.00 1.314
371.10 1.313
371.20 1.313
371.30 1.313
371.40 1.313
371.50 1.313
371.60 1.312
371.70 1.312
371.80 1.312
371.90 1.312
372.00 1.312
372.10 1.312
372.20 1.312
372.30 1.313
372.40 1.313
372.50 1.314
372.60 1.314
372.70 1.314
372.80 1.315
372.90 1.315
373.00 1.315
373.10 1.316
373.20 1.316
373.30 1.316
373.40 1.317
373.50 1.317
373.60 1.317
373.70 1.318
373.80 1.318
373.90 1.319
374.00 1.319
374.10 1.32
374.20 1.32
374.30 1.321
374.40 1.321
374.50 1.322
374.60 1.323
374.70 1.323
374.80 1.324
374.90 1.324
375.00 1.325
375.10 1.326
375.20 1.326
375.30 1.327
375.40 1.327
375.50 1.328
375.60 1.329
375.70 1.329
375.80 1.33
375.90 1.33
376.00 1.331
376.10 1.331
376.20 1.331
376.30 1.332
376.40 1.332
376.50 1.332
376.60 1.332
376.70 1.333
376.80 1.333
376.90 1.333
377.00 1.333
377.10 1.333
377.20 1.332
377.30 1.331
377.40 1.33
377.50 1.329
377.60 1.329
377.70 1.328
377.80 1.327
377.90 1.326
378.00 1.326
378.10 1.321
378.20 1.317
378.30 1.312
378.40 1.308
378.50 1.304
378.60 1.299
378.70 1.295
378.80 1.291
378.90 1.286
379.00 1.282
379.10 1.279
379.20 1.275
379.30 1.272
379.40 1.268
379.50 1.265
379.60 1.261
379.70 1.258
379.80 1.254
379.90 1.251
380.00 1.247
380.10 1.253
380.20 1.258
380.30 1.264
380.40 1.269
380.50 1.274
380.60 1.28
380.70 1.285
380.80 1.291
380.90 1.296
381.00 1.301
381.10 1.303
381.20 1.305
381.30 1.306
381.40 1.308
381.50 1.31
381.60 1.309
381.70 1.308
381.80 1.306
381.90 1.304
382.00 1.301
382.10 1.296
382.20 1.291
382.30 1.28
382.40 1.268
382.50 1.257
382.60 1.245
382.70 1.234
382.80 1.223
382.90 1.211
383.00 1.2
383.10 1.189
383.20 1.177
383.30 1.167
383.40 1.156
383.50 1.144
383.60 1.146
383.70 1.159
383.80 1.171
383.90 1.181
384.00 1.194
384.10 1.209
384.20 1.225
384.30 1.24
384.40 1.254
384.50 1.267
384.60 1.278
384.70 1.287
384.80 1.295
384.90 1.302
385.00 1.308
385.10 1.313
385.20 1.317
385.30 1.32
385.40 1.323
385.50 1.325
385.60 1.327
385.70 1.327
385.80 1.328
385.90 1.328
386.00 1.328
386.10 1.327
386.20 1.325
386.30 1.323
386.40 1.321
386.50 1.318
386.60 1.315
386.70 1.311
386.80 1.306
386.90 1.301
387.00 1.296
387.10 1.289
387.20 1.282
387.30 1.274
387.40 1.266
387.50 1.256
387.60 1.245
387.70 1.233
387.80 1.218
387.90 1.202
388.00 1.184
388.10 1.162
388.20 1.137
388.30 1.111
388.40 1.081
388.50 1.053
388.60 1.027
388.70 1.006
388.80 0.9875
388.90 0.9723
389.00 0.9863
389.10 1.004
389.20 1.025
389.30 1.051
389.40 1.079
389.50 1.11
389.60 1.137
389.70 1.162
389.80 1.186
389.90 1.205
390.00 1.222
390.10 1.237
390.20 1.251
390.30 1.263
390.40 1.274
390.50 1.283
390.60 1.292
390.70 1.301
390.80 1.308
390.90 1.315
391.00 1.322
391.10 1.328
391.20 1.333
391.30 1.338
391.40 1.343
391.50 1.347
391.60 1.351
391.70 1.354
391.80 1.357
391.90 1.359
392.00 1.361
392.10 1.363
392.20 1.364
392.30 1.365
392.40 1.366
392.50 1.366
392.60 1.366
392.70 1.365
392.80 1.365
392.90 1.363
393.00 1.362
393.10 1.36
393.20 1.357
393.30 1.355
393.40 1.352
393.50 1.348
393.60 1.344
393.70 1.34
393.80 1.335
393.90 1.33
394.00 1.324
394.10 1.318
394.20 1.311
394.30 1.304
394.40 1.297
394.50 1.289
394.60 1.28
394.70 1.271
394.80 1.261
394.90 1.25
395.00 1.239
395.10 1.227
395.20 1.215
395.30 1.202
395.40 1.187
395.50 1.173
395.60 1.156
395.70 1.139
395.80 1.12
395.90 1.1
396.00 1.077
396.10 1.054
396.20 1.025
396.30 0.9931
396.40 0.9581
396.50 0.9157
396.60 0.872
396.70 0.8271
396.80 0.7914
396.90 0.7559
397.00 0.7208
397.10 0.753
397.20 0.7863
397.30 0.8205
397.40 0.8648
397.50 0.9083
397.60 0.9508
397.70 0.9863
397.80 1.018
397.90 1.047
398.00 1.071
398.10 1.094
398.20 1.114
398.30 1.133
398.40 1.15
398.50 1.167
398.60 1.182
398.70 1.196
398.80 1.21
398.90 1.223
399.00 1.235
399.10 1.246
399.20 1.257
399.30 1.268
399.40 1.278
399.50 1.287
399.60 1.296
399.70 1.305
399.80 1.313
399.90 1.32
400.00 1.328
400.10 1.334
400.20 1.341
400.30 1.347
400.40 1.353
400.50 1.359
400.60 1.364
400.70 1.369
400.80 1.374
400.90 1.378
401.00 1.382
401.10 1.386
401.20 1.39
401.30 1.394
401.40 1.397
401.50 1.4
401.60 1.403
401.70 1.405
401.80 1.408
401.90 1.41
402.00 1.412
402.10 1.413
402.20 1.415
402.30 1.416
402.40 1.418
402.50 1.419
402.60 1.419
402.70 1.42
402.80 1.421
402.90 1.421
403.00 1.421
403.10 1.421
403.20 1.421
403.30 1.42
403.40 1.42
403.50 1.419
403.60 1.418
403.70 1.417
403.80 1.416
403.90 1.415
404.00 1.413
404.10 1.411
404.20 1.409
404.30 1.407
404.40 1.405
404.50 1.402
404.60 1.4
404.70 1.397
404.80 1.394
404.90 1.39
405.00 1.387
405.10 1.383
405.20 1.379
405.30 1.375
405.40 1.371
405.50 1.366
405.60 1.361
405.70 1.356
405.80 1.351
405.90 1.345
406.00 1.339
406.10 1.333
406.20 1.326
406.30 1.32
406.40 1.313
406.50 1.305
406.60 1.298
406.70 1.29
406.80 1.281
406.90 1.273
407.00 1.264
407.10 1.254
407.20 1.244
407.30 1.234
407.40 1.223
407.50 1.212
407.60 1.2
407.70 1.188
407.80 1.175
407.90 1.161
408.00 1.147
408.10 1.133
408.20 1.117
408.30 1.101
408.40 1.084
408.50 1.066
408.60 1.048
408.70 1.029
408.80 1.008
408.90 0.9866
409.00 0.9644
409.10 0.9403
409.20 0.9149
409.30 0.8883
409.40 0.8578
409.50 0.8246
409.60 0.7886
409.70 0.7466
409.80 0.7028
409.90 0.6575
410.00 0.6187
410.10 0.5871
410.20 0.5627
410.30 0.6005
410.40 0.6397
410.50 0.6803
410.60 0.7252
410.70 0.7673
410.80 0.8065
410.90 0.8397
411.00 0.8704
411.10 0.8986
411.20 0.9235
411.30 0.9473
411.40 0.9699
411.50 0.9906
411.60 1.011
411.70 1.03
411.80 1.048
411.90 1.065
412.00 1.081
412.10 1.097
412.20 1.112
412.30 1.126
412.40 1.139
412.50 1.152
412.60 1.165
412.70 1.176
412.80 1.188
412.90 1.198
413.00 1.209
413.10 1.218
413.20 1.228
413.30 1.237
413.40 1.245
413.50 1.253
413.60 1.261
413.70 1.269
413.80 1.276
413.90 1.283
414.00 1.289
414.10 1.296
414.20 1.302
414.30 1.308
414.40 1.314
414.50 1.319
414.60 1.324
414.70 1.329
414.80 1.334
414.90 1.339
415.00 1.343
415.10 1.347
415.20 1.351
415.30 1.355
415.40 1.359
415.50 1.362
415.60 1.366
415.70 1.369
415.80 1.372
415.90 1.375
416.00 1.378
416.10 1.381
416.20 1.384
416.30 1.386
416.40 1.389
416.50 1.391
416.60 1.393
416.70 1.395
416.80 1.397
416.90 1.399
417.00 1.401
417.10 1.403
417.20 1.405
417.30 1.406
417.40 1.408
417.50 1.409
417.60 1.411
417.70 1.412
417.80 1.413
417.90 1.414
418.00 1.416
418.10 1.417
418.20 1.418
418.30 1.418
418.40 1.419
418.50 1.42
418.60 1.421
418.70 1.422
418.80 1.422
418.90 1.423
419.00 1.423
419.10 1.424
419.20 1.424
419.30 1.424
419.40 1.425
419.50 1.425
419.60 1.425
419.70 1.426
419.80 1.426
419.90 1.426
420.00 1.426
420.10 1.426
420.20 1.426
420.30 1.426
420.40 1.426
420.50 1.426
420.60 1.425
420.70 1.425
420.80 1.425
420.90 1.425
421.00 1.424
421.10 1.424
421.20 1.424
421.30 1.423
421.40 1.423
421.50 1.422
421.60 1.422
421.70 1.421
421.80 1.421
421.90 1.42
422.00 1.419
422.10 1.419
422.20 1.418
422.30 1.417
422.40 1.416
422.50 1.415
422.60 1.415
422.70 1.414
422.80 1.413
422.90 1.412
423.00 1.411
423.10 1.41
423.20 1.409
423.30 1.407
423.40 1.406
423.50 1.405
423.60 1.404
423.70 1.403
423.80 1.401
423.90 1.4
424.00 1.399
424.10 1.397
424.20 1.396
424.30 1.394
424.40 1.393
424.50 1.391
424.60 1.389
424.70 1.388
424.80 1.386
424.90 1.384
425.00 1.383
425.10 1.381
425.20 1.379
425.30 1.377
425.40 1.375
425.50 1.373
425.60 1.371
425.70 1.369
425.80 1.366
425.90 1.364
426.00 1.362
426.10 1.359
426.20 1.356
426.30 1.354
426.40 1.351
426.50 1.349
426.60 1.346
426.70 1.343
426.80 1.34
426.90 1.337
427.00 1.334
427.10 1.331
427.20 1.328
427.30 1.325
427.40 1.321
427.50 1.318
427.60 1.315
427.70 1.311
427.80 1.307
427.90 1.304
428.00 1.3
428.10 1.296
428.20 1.292
428.30 1.287
428.40 1.283
428.50 1.279
428.60 1.274
428.70 1.27
428.80 1.265
428.90 1.26
429.00 1.255
429.10 1.249
429.20 1.244
429.30 1.238
429.40 1.232
429.50 1.226
429.60 1.22
429.70 1.214
429.80 1.207
429.90 1.2
430.00 1.194
430.10 1.186
430.20 1.179
430.30 1.171
430.40 1.163
430.50 1.155
430.60 1.147
430.70 1.138
430.80 1.129
430.90 1.12
431.00 1.11
431.10 1.1
431.20 1.09
431.30 1.08
431.40 1.068
431.50 1.057
431.60 1.045
431.70 1.033
431.80 1.02
431.90 1.006
432.00 0.9918
432.10 0.9771
432.20 0.9611
432.30 0.9443
432.40 0.9268
432.50 0.9075
432.60 0.8872
432.70 0.8658
432.80 0.8425
432.90 0.8188
433.00 0.7945
433.10 0.7701
433.20 0.7454
433.30 0.7204
433.40 0.6934
433.50 0.6646
433.60 0.634
433.70 0.5988
433.80 0.5632
433.90 0.5272
434.00 0.4754
434.10 0.4763
434.20 0.5298
434.30 0.5655
434.40 0.6006
434.50 0.6352
434.60 0.6651
434.70 0.6931
434.80 0.7195
434.90 0.7437
435.00 0.7678
435.10 0.7915
435.20 0.815
435.30 0.8378
435.40 0.8601
435.50 0.8805
435.60 0.8999
435.70 0.9181
435.80 0.9346
435.90 0.9502
436.00 0.9652
436.10 0.9788
436.20 0.992
436.30 1.005
436.40 1.016
436.50 1.028
436.60 1.039
436.70 1.049
436.80 1.059
436.90 1.068
437.00 1.077
437.10 1.086
437.20 1.094
437.30 1.102
437.40 1.11
437.50 1.118
437.60 1.125
437.70 1.132
437.80 1.138
437.90 1.145
438.00 1.151
438.10 1.157
438.20 1.162
438.30 1.168
438.40 1.173
438.50 1.178
438.60 1.183
438.70 1.188
438.80 1.192
438.90 1.197
439.00 1.201
439.10 1.205
439.20 1.209
439.30 1.213
439.40 1.216
439.50 1.22
439.60 1.223
439.70 1.226
439.80 1.229
439.90 1.232
440.00 1.235
440.10 1.237
440.20 1.24
440.30 1.243
440.40 1.245
440.50 1.247
440.60 1.25
440.70 1.252
440.80 1.254
440.90 1.256
441.00 1.258
441.10 1.26
441.20 1.262
441.30 1.263
441.40 1.265
441.50 1.267
441.60 1.268
441.70 1.27
441.80 1.271
441.90 1.273
442.00 1.274
442.10 1.275
442.20 1.276
442.30 1.278
442.40 1.279
442.50 1.28
442.60 1.281
442.70 1.282
442.80 1.283
442.90 1.283
443.00 1.284
443.10 1.285
443.20 1.286
443.30 1.287
443.40 1.287
443.50 1.288
443.60 1.289
443.70 1.289
443.80 1.29
443.90 1.29
444.00 1.291
444.10 1.291
444.20 1.292
444.30 1.292
444.40 1.293
444.50 1.293
444.60 1.293
444.70 1.294
444.80 1.294
444.90 1.294
445.00 1.294
445.10 1.295
445.20 1.295
445.30 1.295
445.40 1.295
445.50 1.295
445.60 1.296
445.70 1.296
445.80 1.296
445.90 1.296
446.00 1.296
446.10 1.296
446.20 1.296
446.30 1.296
446.40 1.296
446.50 1.296
446.60 1.296
446.70 1.296
446.80 1.296
446.90 1.296
447.00 1.296
447.10 1.296
447.20 1.296
447.30 1.295
447.40 1.295
447.50 1.295
447.60 1.295
447.70 1.295
447.80 1.295
447.90 1.295
448.00 1.294
448.10 1.294
448.20 1.294
448.30 1.294
448.40 1.294
448.50 1.293
448.60 1.293
448.70 1.293
448.80 1.292
448.90 1.292
449.00 1.292
449.10 1.292
449.20 1.292
449.30 1.291
449.40 1.291
449.50 1.291
449.60 1.29
449.70 1.29
449.80 1.29
449.90 1.289
450.00 1.289
450.10 1.289
450.20 1.288
450.30 1.288
450.40 1.287
450.50 1.287
450.60 1.287
450.70 1.286
450.80 1.286
450.90 1.285
451.00 1.285
451.10 1.285
451.20 1.284
451.30 1.284
451.40 1.283
451.50 1.283
451.60 1.283
451.70 1.282
451.80 1.282
451.90 1.281
452.00 1.281
452.10 1.28
452.20 1.28
452.30 1.279
452.40 1.279
452.50 1.278
452.60 1.278
452.70 1.277
452.80 1.277
452.90 1.276
453.00 1.276
453.10 1.275
453.20 1.275
453.30 1.274
