# Version 2.1 - nm, norm@500 to 1, cut digits, bergeron_15500_65.dat_15500
# Wavelength(nm)  Flambda(ergs/cm^s/s/nm)
300.00 2.213
300.10 2.211
300.20 2.21
300.30 2.208
300.40 2.206
300.50 2.204
300.60 2.203
300.70 2.201
300.80 2.199
300.90 2.198
301.00 2.196
301.10 2.194
301.20 2.193
301.30 2.191
301.40 2.189
301.50 2.187
301.60 2.186
301.70 2.184
301.80 2.182
301.90 2.181
302.00 2.179
302.10 2.177
302.20 2.176
302.30 2.174
302.40 2.172
302.50 2.171
302.60 2.169
302.70 2.167
302.80 2.166
302.90 2.164
303.00 2.162
303.10 2.161
303.20 2.159
303.30 2.157
303.40 2.156
303.50 2.154
303.60 2.152
303.70 2.151
303.80 2.149
303.90 2.147
304.00 2.146
304.10 2.144
304.20 2.142
304.30 2.141
304.40 2.139
304.50 2.137
304.60 2.136
304.70 2.134
304.80 2.132
304.90 2.131
305.00 2.129
305.10 2.128
305.20 2.126
305.30 2.124
305.40 2.123
305.50 2.121
305.60 2.119
305.70 2.118
305.80 2.116
305.90 2.115
306.00 2.113
306.10 2.111
306.20 2.11
306.30 2.108
306.40 2.107
306.50 2.105
306.60 2.103
306.70 2.102
306.80 2.1
306.90 2.099
307.00 2.097
307.10 2.095
307.20 2.094
307.30 2.092
307.40 2.091
307.50 2.089
307.60 2.087
307.70 2.086
307.80 2.084
307.90 2.083
308.00 2.081
308.10 2.079
308.20 2.078
308.30 2.076
308.40 2.075
308.50 2.073
308.60 2.072
308.70 2.07
308.80 2.068
308.90 2.067
309.00 2.065
309.10 2.064
309.20 2.062
309.30 2.061
309.40 2.059
309.50 2.057
309.60 2.056
309.70 2.054
309.80 2.053
309.90 2.051
310.00 2.05
310.10 2.048
310.20 2.047
310.30 2.045
310.40 2.044
310.50 2.042
310.60 2.04
310.70 2.039
310.80 2.037
310.90 2.036
311.00 2.034
311.10 2.033
311.20 2.031
311.30 2.03
311.40 2.028
311.50 2.027
311.60 2.025
311.70 2.024
311.80 2.022
311.90 2.021
312.00 2.019
312.10 2.017
312.20 2.016
312.30 2.014
312.40 2.013
312.50 2.011
312.60 2.01
312.70 2.008
312.80 2.007
312.90 2.005
313.00 2.004
313.10 2.002
313.20 2.001
313.30 1.999
313.40 1.998
313.50 1.996
313.60 1.995
313.70 1.993
313.80 1.992
313.90 1.99
314.00 1.989
314.10 1.987
314.20 1.986
314.30 1.984
314.40 1.983
314.50 1.982
314.60 1.98
314.70 1.979
314.80 1.977
314.90 1.976
315.00 1.974
315.10 1.973
315.20 1.971
315.30 1.97
315.40 1.968
315.50 1.967
315.60 1.965
315.70 1.964
315.80 1.962
315.90 1.961
316.00 1.959
316.10 1.958
316.20 1.957
316.30 1.955
316.40 1.954
316.50 1.952
316.60 1.951
316.70 1.949
316.80 1.948
316.90 1.946
317.00 1.945
317.10 1.944
317.20 1.942
317.30 1.941
317.40 1.939
317.50 1.938
317.60 1.936
317.70 1.935
317.80 1.933
317.90 1.932
318.00 1.931
318.10 1.929
318.20 1.928
318.30 1.926
318.40 1.925
318.50 1.923
318.60 1.922
318.70 1.921
318.80 1.919
318.90 1.918
319.00 1.916
319.10 1.915
319.20 1.914
319.30 1.912
319.40 1.911
319.50 1.909
319.60 1.908
319.70 1.907
319.80 1.905
319.90 1.904
320.00 1.902
320.10 1.901
320.20 1.9
320.30 1.898
320.40 1.897
320.50 1.895
320.60 1.894
320.70 1.893
320.80 1.891
320.90 1.89
321.00 1.888
321.10 1.887
321.20 1.886
321.30 1.884
321.40 1.883
321.50 1.881
321.60 1.88
321.70 1.879
321.80 1.877
321.90 1.876
322.00 1.875
322.10 1.873
322.20 1.872
322.30 1.87
322.40 1.869
322.50 1.868
322.60 1.866
322.70 1.865
322.80 1.864
322.90 1.862
323.00 1.861
323.10 1.86
323.20 1.858
323.30 1.857
323.40 1.855
323.50 1.854
323.60 1.853
323.70 1.851
323.80 1.85
323.90 1.849
324.00 1.847
324.10 1.846
324.20 1.845
324.30 1.843
324.40 1.842
324.50 1.841
324.60 1.839
324.70 1.838
324.80 1.837
324.90 1.835
325.00 1.834
325.10 1.833
325.20 1.831
325.30 1.83
325.40 1.829
325.50 1.827
325.60 1.826
325.70 1.825
325.80 1.823
325.90 1.822
326.00 1.821
326.10 1.819
326.20 1.818
326.30 1.817
326.40 1.815
326.50 1.814
326.60 1.813
326.70 1.811
326.80 1.81
326.90 1.809
327.00 1.807
327.10 1.806
327.20 1.805
327.30 1.804
327.40 1.802
327.50 1.801
327.60 1.8
327.70 1.798
327.80 1.797
327.90 1.796
328.00 1.794
328.10 1.793
328.20 1.792
328.30 1.791
328.40 1.789
328.50 1.788
328.60 1.787
328.70 1.785
328.80 1.784
328.90 1.783
329.00 1.782
329.10 1.78
329.20 1.779
329.30 1.778
329.40 1.776
329.50 1.775
329.60 1.774
329.70 1.773
329.80 1.771
329.90 1.77
330.00 1.769
330.10 1.768
330.20 1.766
330.30 1.765
330.40 1.764
330.50 1.762
330.60 1.761
330.70 1.76
330.80 1.759
330.90 1.757
331.00 1.756
331.10 1.755
331.20 1.754
331.30 1.752
331.40 1.751
331.50 1.75
331.60 1.749
331.70 1.747
331.80 1.746
331.90 1.745
332.00 1.744
332.10 1.742
332.20 1.741
332.30 1.74
332.40 1.739
332.50 1.737
332.60 1.736
332.70 1.735
332.80 1.734
332.90 1.732
333.00 1.731
333.10 1.73
333.20 1.729
333.30 1.728
333.40 1.726
333.50 1.725
333.60 1.724
333.70 1.723
333.80 1.721
333.90 1.72
334.00 1.719
334.10 1.718
334.20 1.716
334.30 1.715
334.40 1.714
334.50 1.713
334.60 1.712
334.70 1.71
334.80 1.709
334.90 1.708
335.00 1.707
335.10 1.706
335.20 1.704
335.30 1.703
335.40 1.702
335.50 1.701
335.60 1.699
335.70 1.698
335.80 1.697
335.90 1.696
336.00 1.695
336.10 1.693
336.20 1.692
336.30 1.691
336.40 1.69
336.50 1.689
336.60 1.687
336.70 1.686
336.80 1.685
336.90 1.684
337.00 1.683
337.10 1.682
337.20 1.68
337.30 1.679
337.40 1.678
337.50 1.677
337.60 1.676
337.70 1.674
337.80 1.673
337.90 1.672
338.00 1.671
338.10 1.67
338.20 1.669
338.30 1.667
338.40 1.666
338.50 1.665
338.60 1.664
338.70 1.663
338.80 1.661
338.90 1.66
339.00 1.659
339.10 1.658
339.20 1.657
339.30 1.656
339.40 1.654
339.50 1.653
339.60 1.652
339.70 1.651
339.80 1.65
339.90 1.649
340.00 1.648
340.10 1.646
340.20 1.645
340.30 1.644
340.40 1.643
340.50 1.642
340.60 1.641
340.70 1.639
340.80 1.638
340.90 1.637
341.00 1.636
341.10 1.635
341.20 1.634
341.30 1.633
341.40 1.631
341.50 1.63
341.60 1.629
341.70 1.628
341.80 1.627
341.90 1.626
342.00 1.625
342.10 1.623
342.20 1.622
342.30 1.621
342.40 1.62
342.50 1.619
342.60 1.618
342.70 1.617
342.80 1.616
342.90 1.614
343.00 1.613
343.10 1.612
343.20 1.611
343.30 1.61
343.40 1.609
343.50 1.608
343.60 1.607
343.70 1.605
343.80 1.604
343.90 1.603
344.00 1.602
344.10 1.601
344.20 1.6
344.30 1.599
344.40 1.598
344.50 1.597
344.60 1.595
344.70 1.594
344.80 1.593
344.90 1.592
345.00 1.591
345.10 1.59
345.20 1.589
345.30 1.588
345.40 1.587
345.50 1.585
345.60 1.584
345.70 1.583
345.80 1.582
345.90 1.581
346.00 1.58
346.10 1.579
346.20 1.578
346.30 1.577
346.40 1.576
346.50 1.575
346.60 1.573
346.70 1.572
346.80 1.571
346.90 1.57
347.00 1.569
347.10 1.568
347.20 1.567
347.30 1.566
347.40 1.565
347.50 1.564
347.60 1.563
347.70 1.562
347.80 1.56
347.90 1.559
348.00 1.558
348.10 1.557
348.20 1.556
348.30 1.555
348.40 1.554
348.50 1.553
348.60 1.552
348.70 1.551
348.80 1.55
348.90 1.549
349.00 1.548
349.10 1.547
349.20 1.545
349.30 1.544
349.40 1.543
349.50 1.542
349.60 1.541
349.70 1.54
349.80 1.539
349.90 1.538
350.00 1.537
350.10 1.536
350.20 1.535
350.30 1.534
350.40 1.533
350.50 1.532
350.60 1.531
350.70 1.53
350.80 1.529
350.90 1.528
351.00 1.526
351.10 1.525
351.20 1.524
351.30 1.523
351.40 1.522
351.50 1.521
351.60 1.52
351.70 1.519
351.80 1.518
351.90 1.517
352.00 1.516
352.10 1.515
352.20 1.514
352.30 1.513
352.40 1.512
352.50 1.511
352.60 1.51
352.70 1.509
352.80 1.508
352.90 1.507
353.00 1.506
353.10 1.505
353.20 1.504
353.30 1.503
353.40 1.502
353.50 1.501
353.60 1.5
353.70 1.499
353.80 1.498
353.90 1.497
354.00 1.496
354.10 1.495
354.20 1.494
354.30 1.492
354.40 1.491
354.50 1.49
354.60 1.489
354.70 1.488
354.80 1.487
354.90 1.486
355.00 1.485
355.10 1.484
355.20 1.483
355.30 1.482
355.40 1.481
355.50 1.48
355.60 1.479
355.70 1.478
355.80 1.477
355.90 1.476
356.00 1.475
356.10 1.474
356.20 1.473
356.30 1.472
356.40 1.471
356.50 1.47
356.60 1.469
356.70 1.468
356.80 1.467
356.90 1.466
357.00 1.465
357.10 1.464
357.20 1.463
357.30 1.462
357.40 1.461
357.50 1.46
357.60 1.459
357.70 1.458
357.80 1.457
357.90 1.457
358.00 1.456
358.10 1.455
358.20 1.454
358.30 1.453
358.40 1.452
358.50 1.451
358.60 1.45
358.70 1.449
358.80 1.448
358.90 1.447
359.00 1.446
359.10 1.445
359.20 1.444
359.30 1.443
359.40 1.442
359.50 1.441
359.60 1.44
359.70 1.439
359.80 1.438
359.90 1.437
360.00 1.436
360.10 1.435
360.20 1.434
360.30 1.433
360.40 1.432
360.50 1.431
360.60 1.43
360.70 1.429
360.80 1.428
360.90 1.427
361.00 1.426
361.10 1.425
361.20 1.425
361.30 1.424
361.40 1.423
361.50 1.422
361.60 1.421
361.70 1.42
361.80 1.419
361.90 1.418
362.00 1.417
362.10 1.416
362.20 1.415
362.30 1.414
362.40 1.413
362.50 1.412
362.60 1.411
362.70 1.41
362.80 1.409
362.90 1.408
363.00 1.407
363.10 1.406
363.20 1.406
363.30 1.405
363.40 1.404
363.50 1.403
363.60 1.402
363.70 1.401
363.80 1.4
363.90 1.399
364.00 1.398
364.10 1.397
364.20 1.396
364.30 1.395
364.40 1.394
364.50 1.393
364.60 1.392
364.70 1.391
364.80 1.391
364.90 1.39
365.00 1.389
365.10 1.388
365.20 1.387
365.30 1.386
365.40 1.385
365.50 1.384
365.60 1.384
365.70 1.383
365.80 1.382
365.90 1.381
366.00 1.38
366.10 1.379
366.20 1.379
366.30 1.378
366.40 1.377
366.50 1.376
366.60 1.375
366.70 1.375
366.80 1.374
366.90 1.373
367.00 1.372
367.10 1.371
367.20 1.371
367.30 1.37
367.40 1.369
367.50 1.368
367.60 1.367
367.70 1.367
367.80 1.366
367.90 1.365
368.00 1.364
368.10 1.365
368.20 1.366
368.30 1.366
368.40 1.367
368.50 1.368
368.60 1.368
368.70 1.369
368.80 1.37
368.90 1.37
369.00 1.371
369.10 1.372
369.20 1.372
369.30 1.373
369.40 1.374
369.50 1.374
369.60 1.375
369.70 1.376
369.80 1.376
369.90 1.377
370.00 1.378
370.10 1.381
370.20 1.385
370.30 1.388
370.40 1.391
370.50 1.395
370.60 1.398
370.70 1.402
370.80 1.405
370.90 1.409
371.00 1.412
371.10 1.415
371.20 1.419
371.30 1.422
371.40 1.426
371.50 1.429
371.60 1.432
371.70 1.436
371.80 1.439
371.90 1.443
372.00 1.446
372.10 1.452
372.20 1.457
372.30 1.463
372.40 1.469
372.50 1.475
372.60 1.48
372.70 1.486
372.80 1.492
372.90 1.497
373.00 1.503
373.10 1.509
373.20 1.514
373.30 1.52
373.40 1.526
373.50 1.531
373.60 1.537
373.70 1.543
373.80 1.548
373.90 1.554
374.00 1.559
374.10 1.565
374.20 1.571
374.30 1.576
374.40 1.582
374.50 1.588
374.60 1.594
374.70 1.599
374.80 1.605
374.90 1.611
375.00 1.616
375.10 1.622
375.20 1.628
375.30 1.633
375.40 1.639
375.50 1.644
375.60 1.65
375.70 1.656
375.80 1.661
375.90 1.667
376.00 1.672
376.10 1.675
376.20 1.678
376.30 1.68
376.40 1.683
376.50 1.685
376.60 1.688
376.70 1.69
376.80 1.693
376.90 1.695
377.00 1.697
377.10 1.692
377.20 1.686
377.30 1.68
377.40 1.674
377.50 1.669
377.60 1.663
377.70 1.657
377.80 1.651
377.90 1.645
378.00 1.64
378.10 1.611
378.20 1.582
378.30 1.553
378.40 1.524
378.50 1.496
378.60 1.467
378.70 1.438
378.80 1.409
378.90 1.381
379.00 1.352
379.10 1.328
379.20 1.304
379.30 1.281
379.40 1.257
379.50 1.233
379.60 1.209
379.70 1.186
379.80 1.162
379.90 1.139
380.00 1.115
380.10 1.152
380.20 1.189
380.30 1.226
380.40 1.263
380.50 1.299
380.60 1.336
380.70 1.373
380.80 1.41
380.90 1.446
381.00 1.483
381.10 1.499
381.20 1.516
381.30 1.532
381.40 1.549
381.50 1.565
381.60 1.568
381.70 1.566
381.80 1.559
381.90 1.548
382.00 1.532
382.10 1.511
382.20 1.486
382.30 1.442
382.40 1.399
382.50 1.356
382.60 1.313
382.70 1.27
382.80 1.227
382.90 1.184
383.00 1.141
383.10 1.098
383.20 1.055
383.30 1.007
383.40 0.9573
383.50 0.9023
383.60 0.9146
383.70 0.9673
383.80 1.016
383.90 1.063
384.00 1.109
384.10 1.156
384.20 1.204
384.30 1.252
384.40 1.3
384.50 1.348
384.60 1.393
384.70 1.436
384.80 1.476
384.90 1.512
385.00 1.545
385.10 1.573
385.20 1.599
385.30 1.622
385.40 1.64
385.50 1.657
385.60 1.671
385.70 1.682
385.80 1.69
385.90 1.697
386.00 1.701
386.10 1.702
386.20 1.703
386.30 1.699
386.40 1.694
386.50 1.688
386.60 1.678
386.70 1.666
386.80 1.653
386.90 1.636
387.00 1.617
387.10 1.596
387.20 1.571
387.30 1.544
387.40 1.514
387.50 1.48
387.60 1.442
387.70 1.403
387.80 1.358
387.90 1.311
388.00 1.262
388.10 1.21
388.20 1.158
388.30 1.106
388.40 1.056
388.50 1.005
388.60 0.9551
388.70 0.9024
388.80 0.8443
388.90 0.781
389.00 0.8399
389.10 0.8955
389.20 0.9477
389.30 0.9969
389.40 1.046
389.50 1.096
389.60 1.146
389.70 1.197
389.80 1.248
389.90 1.297
390.00 1.344
390.10 1.389
390.20 1.43
390.30 1.469
390.40 1.505
390.50 1.538
390.60 1.568
390.70 1.596
390.80 1.621
390.90 1.645
391.00 1.667
391.10 1.687
391.20 1.706
391.30 1.723
391.40 1.739
391.50 1.753
391.60 1.766
391.70 1.778
391.80 1.789
391.90 1.798
392.00 1.807
392.10 1.814
392.20 1.821
392.30 1.826
392.40 1.83
392.50 1.834
392.60 1.836
392.70 1.838
392.80 1.838
392.90 1.838
393.00 1.836
393.10 1.834
393.20 1.831
393.30 1.827
393.40 1.822
393.50 1.815
393.60 1.808
393.70 1.8
393.80 1.791
393.90 1.78
394.00 1.769
394.10 1.756
394.20 1.742
394.30 1.727
394.40 1.711
394.50 1.693
394.60 1.675
394.70 1.654
394.80 1.632
394.90 1.609
395.00 1.584
395.10 1.558
395.20 1.531
395.30 1.501
395.40 1.469
395.50 1.436
395.60 1.399
395.70 1.361
395.80 1.321
395.90 1.278
396.00 1.233
396.10 1.187
396.20 1.139
396.30 1.089
396.40 1.039
396.50 0.9901
396.60 0.9411
396.70 0.8924
396.80 0.8398
396.90 0.7719
397.00 0.6888
397.10 0.7658
397.20 0.8307
397.30 0.8834
397.40 0.9311
397.50 0.979
397.60 1.027
397.70 1.076
397.80 1.124
397.90 1.171
398.00 1.216
398.10 1.259
398.20 1.301
398.30 1.339
398.40 1.376
398.50 1.411
398.60 1.443
398.70 1.474
398.80 1.503
398.90 1.529
399.00 1.555
399.10 1.579
399.20 1.601
399.30 1.622
399.40 1.643
399.50 1.661
399.60 1.679
399.70 1.696
399.80 1.711
399.90 1.726
400.00 1.74
400.10 1.752
400.20 1.764
400.30 1.775
400.40 1.785
400.50 1.795
400.60 1.804
400.70 1.812
400.80 1.82
400.90 1.827
401.00 1.834
401.10 1.84
401.20 1.845
401.30 1.85
401.40 1.855
401.50 1.859
401.60 1.863
401.70 1.867
401.80 1.87
401.90 1.872
402.00 1.875
402.10 1.877
402.20 1.879
402.30 1.88
402.40 1.882
402.50 1.883
402.60 1.884
402.70 1.884
402.80 1.884
402.90 1.884
403.00 1.884
403.10 1.884
403.20 1.883
403.30 1.883
403.40 1.882
403.50 1.881
403.60 1.879
403.70 1.878
403.80 1.876
403.90 1.874
404.00 1.872
404.10 1.869
404.20 1.867
404.30 1.864
404.40 1.861
404.50 1.858
404.60 1.854
404.70 1.851
404.80 1.847
404.90 1.843
405.00 1.838
405.10 1.833
405.20 1.828
405.30 1.823
405.40 1.817
405.50 1.811
405.60 1.805
405.70 1.799
405.80 1.791
405.90 1.784
406.00 1.776
406.10 1.768
406.20 1.759
406.30 1.75
406.40 1.74
406.50 1.73
406.60 1.719
406.70 1.707
406.80 1.695
406.90 1.682
407.00 1.668
407.10 1.654
407.20 1.639
407.30 1.622
407.40 1.605
407.50 1.587
407.60 1.567
407.70 1.547
407.80 1.526
407.90 1.503
408.00 1.48
408.10 1.455
408.20 1.43
408.30 1.403
408.40 1.376
408.50 1.347
408.60 1.317
408.70 1.286
408.80 1.253
408.90 1.219
409.00 1.184
409.10 1.147
409.20 1.109
409.30 1.07
409.40 1.028
409.50 0.9853
409.60 0.9418
409.70 0.8983
409.80 0.8548
409.90 0.8113
410.00 0.7588
410.10 0.6974
410.20 0.6272
410.30 0.7177
410.40 0.7862
410.50 0.8328
410.60 0.8751
410.70 0.9175
410.80 0.9599
410.90 1.002
411.00 1.042
411.10 1.082
411.20 1.118
411.30 1.154
411.40 1.189
411.50 1.221
411.60 1.252
411.70 1.282
411.80 1.31
411.90 1.337
412.00 1.363
412.10 1.388
412.20 1.412
412.30 1.434
412.40 1.456
412.50 1.476
412.60 1.496
412.70 1.514
412.80 1.531
412.90 1.547
413.00 1.562
413.10 1.577
413.20 1.59
413.30 1.602
413.40 1.614
413.50 1.625
413.60 1.635
413.70 1.644
413.80 1.653
413.90 1.661
414.00 1.669
414.10 1.676
414.20 1.683
414.30 1.689
414.40 1.695
414.50 1.7
414.60 1.705
414.70 1.71
414.80 1.714
414.90 1.718
415.00 1.722
415.10 1.726
415.20 1.729
415.30 1.732
415.40 1.735
415.50 1.737
415.60 1.74
415.70 1.742
415.80 1.744
415.90 1.745
416.00 1.747
416.10 1.749
416.20 1.75
416.30 1.751
416.40 1.752
416.50 1.753
416.60 1.754
416.70 1.755
416.80 1.756
416.90 1.756
417.00 1.757
417.10 1.757
417.20 1.757
417.30 1.758
417.40 1.758
417.50 1.758
417.60 1.758
417.70 1.758
417.80 1.758
417.90 1.758
418.00 1.757
418.10 1.757
418.20 1.757
418.30 1.757
418.40 1.756
418.50 1.756
418.60 1.755
418.70 1.755
418.80 1.754
418.90 1.754
419.00 1.753
419.10 1.752
419.20 1.752
419.30 1.751
419.40 1.75
419.50 1.75
419.60 1.749
419.70 1.748
419.80 1.747
419.90 1.746
420.00 1.745
420.10 1.744
420.20 1.743
420.30 1.742
420.40 1.741
420.50 1.74
420.60 1.739
420.70 1.738
420.80 1.737
420.90 1.736
421.00 1.735
421.10 1.734
421.20 1.733
421.30 1.732
421.40 1.731
421.50 1.73
421.60 1.728
421.70 1.727
421.80 1.726
421.90 1.725
422.00 1.723
422.10 1.722
422.20 1.721
422.30 1.719
422.40 1.718
422.50 1.717
422.60 1.715
422.70 1.714
422.80 1.713
422.90 1.711
423.00 1.71
423.10 1.708
423.20 1.707
423.30 1.705
423.40 1.704
423.50 1.702
423.60 1.701
423.70 1.699
423.80 1.698
423.90 1.696
424.00 1.695
424.10 1.693
424.20 1.691
424.30 1.69
424.40 1.688
424.50 1.686
424.60 1.684
424.70 1.683
424.80 1.681
424.90 1.679
425.00 1.677
425.10 1.675
425.20 1.673
425.30 1.671
425.40 1.669
425.50 1.667
425.60 1.665
425.70 1.663
425.80 1.661
425.90 1.659
426.00 1.656
426.10 1.654
426.20 1.651
426.30 1.649
426.40 1.647
426.50 1.644
426.60 1.642
426.70 1.639
426.80 1.636
426.90 1.633
427.00 1.631
427.10 1.628
427.20 1.625
427.30 1.622
427.40 1.619
427.50 1.615
427.60 1.612
427.70 1.609
427.80 1.605
427.90 1.602
428.00 1.598
428.10 1.594
428.20 1.59
428.30 1.586
428.40 1.582
428.50 1.577
428.60 1.573
428.70 1.568
428.80 1.563
428.90 1.558
429.00 1.553
429.10 1.548
429.20 1.542
429.30 1.536
429.40 1.53
429.50 1.524
429.60 1.517
429.70 1.51
429.80 1.503
429.90 1.496
430.00 1.488
430.10 1.48
430.20 1.472
430.30 1.463
430.40 1.454
430.50 1.444
430.60 1.435
430.70 1.424
430.80 1.413
430.90 1.402
431.00 1.39
431.10 1.378
431.20 1.366
431.30 1.352
431.40 1.338
431.50 1.324
431.60 1.308
431.70 1.292
431.80 1.275
431.90 1.256
432.00 1.237
432.10 1.217
432.20 1.195
432.30 1.172
432.40 1.147
432.50 1.121
432.60 1.093
432.70 1.064
432.80 1.034
432.90 1.004
433.00 0.9745
433.10 0.9452
433.20 0.9153
433.30 0.8846
433.40 0.8516
433.50 0.8178
433.60 0.7832
433.70 0.7477
433.80 0.709
433.90 0.6671
434.00 0.559
434.10 0.5602
434.20 0.6703
434.30 0.7108
434.40 0.7483
434.50 0.7828
434.60 0.8164
434.70 0.8491
434.80 0.8809
434.90 0.9102
435.00 0.9388
435.10 0.9668
435.20 0.9952
435.30 1.024
435.40 1.052
435.50 1.079
435.60 1.104
435.70 1.129
435.80 1.151
435.90 1.172
436.00 1.192
436.10 1.21
436.20 1.227
436.30 1.243
436.40 1.258
436.50 1.272
436.60 1.285
436.70 1.297
436.80 1.309
436.90 1.32
437.00 1.33
437.10 1.34
437.20 1.349
437.30 1.358
437.40 1.366
437.50 1.374
437.60 1.381
437.70 1.388
437.80 1.395
437.90 1.401
438.00 1.407
438.10 1.412
438.20 1.417
438.30 1.422
438.40 1.426
438.50 1.431
438.60 1.435
438.70 1.438
438.80 1.442
438.90 1.445
439.00 1.448
439.10 1.451
439.20 1.453
439.30 1.456
439.40 1.458
439.50 1.46
439.60 1.462
439.70 1.464
439.80 1.466
439.90 1.467
440.00 1.469
440.10 1.47
440.20 1.471
440.30 1.472
440.40 1.473
440.50 1.474
440.60 1.475
440.70 1.476
440.80 1.476
440.90 1.477
441.00 1.477
441.10 1.478
441.20 1.478
441.30 1.478
441.40 1.478
441.50 1.479
441.60 1.479
441.70 1.479
441.80 1.479
441.90 1.479
442.00 1.479
442.10 1.478
442.20 1.478
442.30 1.478
442.40 1.478
442.50 1.478
442.60 1.477
442.70 1.477
442.80 1.476
442.90 1.476
443.00 1.476
443.10 1.475
443.20 1.475
443.30 1.474
443.40 1.474
443.50 1.473
443.60 1.473
443.70 1.472
443.80 1.471
443.90 1.471
444.00 1.47
444.10 1.47
444.20 1.469
444.30 1.468
444.40 1.467
444.50 1.467
444.60 1.466
444.70 1.465
444.80 1.465
444.90 1.464
445.00 1.463
445.10 1.462
445.20 1.462
445.30 1.461
445.40 1.46
445.50 1.459
445.60 1.458
445.70 1.457
445.80 1.457
445.90 1.456
446.00 1.455
446.10 1.454
446.20 1.453
446.30 1.452
446.40 1.451
446.50 1.451
446.60 1.45
446.70 1.449
446.80 1.448
446.90 1.447
447.00 1.446
447.10 1.445
447.20 1.444
447.30 1.443
447.40 1.442
447.50 1.442
447.60 1.441
447.70 1.44
447.80 1.439
447.90 1.438
448.00 1.437
448.10 1.436
448.20 1.435
448.30 1.434
448.40 1.433
448.50 1.432
448.60 1.431
448.70 1.43
448.80 1.43
448.90 1.429
449.00 1.428
449.10 1.427
449.20 1.426
449.30 1.425
449.40 1.424
449.50 1.423
449.60 1.422
449.70 1.421
449.80 1.42
449.90 1.419
450.00 1.418
450.10 1.417
450.20 1.416
450.30 1.415
450.40 1.414
450.50 1.413
450.60 1.412
450.70 1.411
450.80 1.41
450.90 1.41
451.00 1.409
451.10 1.408
451.20 1.407
451.30 1.406
451.40 1.405
451.50 1.404
451.60 1.403
451.70 1.402
451.80 1.401
451.90 1.4
452.00 1.399
452.10 1.398
452.20 1.397
452.30 1.396
452.40 1.395
452.50 1.394
452.60 1.393
452.70 1.392
452.80 1.391
452.90 1.39
453.00 1.389
453.10 1.388
453.20 1.387
453.30 1.386
453.40 1.385
