# Version 2.1 - nm, norm@500 to 1, cut digits, bergeron_3500_90.dat_3500
# Wavelength(nm)  Flambda(ergs/cm^s/s/nm)
300.00 0.1652
300.10 0.1655
300.20 0.1658
300.30 0.1661
300.40 0.1665
300.50 0.1668
300.60 0.1671
300.70 0.1674
300.80 0.1678
300.90 0.1681
301.00 0.1684
301.10 0.1687
301.20 0.169
301.30 0.1693
301.40 0.1697
301.50 0.17
301.60 0.1703
301.70 0.1706
301.80 0.1709
301.90 0.1712
302.00 0.1716
302.10 0.1719
302.20 0.1722
302.30 0.1725
302.40 0.1729
302.50 0.1732
302.60 0.1735
302.70 0.1739
302.80 0.1742
302.90 0.1745
303.00 0.1748
303.10 0.1752
303.20 0.1755
303.30 0.1758
303.40 0.1761
303.50 0.1764
303.60 0.1768
303.70 0.1771
303.80 0.1774
303.90 0.1777
304.00 0.1781
304.10 0.1784
304.20 0.1787
304.30 0.1791
304.40 0.1794
304.50 0.1797
304.60 0.1801
304.70 0.1804
304.80 0.1807
304.90 0.1811
305.00 0.1814
305.10 0.1817
305.20 0.182
305.30 0.1824
305.40 0.1827
305.50 0.183
305.60 0.1834
305.70 0.1837
305.80 0.184
305.90 0.1843
306.00 0.1847
306.10 0.185
306.20 0.1854
306.30 0.1857
306.40 0.186
306.50 0.1864
306.60 0.1867
306.70 0.1871
306.80 0.1874
306.90 0.1877
307.00 0.1881
307.10 0.1884
307.20 0.1887
307.30 0.1891
307.40 0.1894
307.50 0.1897
307.60 0.1901
307.70 0.1904
307.80 0.1907
307.90 0.1911
308.00 0.1914
308.10 0.1918
308.20 0.1921
308.30 0.1924
308.40 0.1928
308.50 0.1931
308.60 0.1935
308.70 0.1938
308.80 0.1942
308.90 0.1945
309.00 0.1949
309.10 0.1952
309.20 0.1955
309.30 0.1959
309.40 0.1962
309.50 0.1966
309.60 0.1969
309.70 0.1972
309.80 0.1976
309.90 0.1979
310.00 0.1983
310.10 0.1986
310.20 0.199
310.30 0.1993
310.40 0.1997
310.50 0.2
310.60 0.2004
310.70 0.2007
310.80 0.2011
310.90 0.2014
311.00 0.2018
311.10 0.2021
311.20 0.2025
311.30 0.2028
311.40 0.2032
311.50 0.2035
311.60 0.2039
311.70 0.2042
311.80 0.2046
311.90 0.2049
312.00 0.2052
312.10 0.2056
312.20 0.2059
312.30 0.2063
312.40 0.2066
312.50 0.207
312.60 0.2074
312.70 0.2077
312.80 0.2081
312.90 0.2084
313.00 0.2088
313.10 0.2091
313.20 0.2095
313.30 0.2098
313.40 0.2102
313.50 0.2105
313.60 0.2109
313.70 0.2113
313.80 0.2116
313.90 0.212
314.00 0.2123
314.10 0.2127
314.20 0.213
314.30 0.2134
314.40 0.2138
314.50 0.2141
314.60 0.2145
314.70 0.2148
314.80 0.2152
314.90 0.2156
315.00 0.2159
315.10 0.2163
315.20 0.2166
315.30 0.217
315.40 0.2174
315.50 0.2177
315.60 0.2181
315.70 0.2184
315.80 0.2188
315.90 0.2191
316.00 0.2195
316.10 0.2199
316.20 0.2202
316.30 0.2206
316.40 0.221
316.50 0.2213
316.60 0.2217
316.70 0.2221
316.80 0.2224
316.90 0.2228
317.00 0.2232
317.10 0.2235
317.20 0.2239
317.30 0.2243
317.40 0.2246
317.50 0.225
317.60 0.2253
317.70 0.2257
317.80 0.2261
317.90 0.2264
318.00 0.2268
318.10 0.2272
318.20 0.2275
318.30 0.2279
318.40 0.2283
318.50 0.2287
318.60 0.229
318.70 0.2294
318.80 0.2298
318.90 0.2301
319.00 0.2305
319.10 0.2309
319.20 0.2313
319.30 0.2316
319.40 0.232
319.50 0.2324
319.60 0.2327
319.70 0.2331
319.80 0.2335
319.90 0.2338
320.00 0.2342
320.10 0.2346
320.20 0.2349
320.30 0.2353
320.40 0.2357
320.50 0.2361
320.60 0.2365
320.70 0.2368
320.80 0.2372
320.90 0.2376
321.00 0.238
321.10 0.2383
321.20 0.2387
321.30 0.2391
321.40 0.2395
321.50 0.2398
321.60 0.2402
321.70 0.2406
321.80 0.241
321.90 0.2413
322.00 0.2417
322.10 0.2421
322.20 0.2425
322.30 0.2428
322.40 0.2432
322.50 0.2436
322.60 0.244
322.70 0.2444
322.80 0.2448
322.90 0.2451
323.00 0.2455
323.10 0.2459
323.20 0.2463
323.30 0.2467
323.40 0.247
323.50 0.2474
323.60 0.2478
323.70 0.2482
323.80 0.2485
323.90 0.2489
324.00 0.2493
324.10 0.2497
324.20 0.2501
324.30 0.2505
324.40 0.2509
324.50 0.2512
324.60 0.2516
324.70 0.252
324.80 0.2524
324.90 0.2528
325.00 0.2532
325.10 0.2536
325.20 0.2539
325.30 0.2543
325.40 0.2547
325.50 0.2551
325.60 0.2555
325.70 0.2559
325.80 0.2562
325.90 0.2566
326.00 0.257
326.10 0.2574
326.20 0.2578
326.30 0.2582
326.40 0.2586
326.50 0.259
326.60 0.2594
326.70 0.2598
326.80 0.2601
326.90 0.2605
327.00 0.2609
327.10 0.2613
327.20 0.2617
327.30 0.2621
327.40 0.2625
327.50 0.2629
327.60 0.2633
327.70 0.2636
327.80 0.264
327.90 0.2644
328.00 0.2648
328.10 0.2652
328.20 0.2656
328.30 0.266
328.40 0.2664
328.50 0.2668
328.60 0.2672
328.70 0.2676
328.80 0.268
328.90 0.2684
329.00 0.2688
329.10 0.2692
329.20 0.2696
329.30 0.2699
329.40 0.2703
329.50 0.2707
329.60 0.2711
329.70 0.2715
329.80 0.2719
329.90 0.2723
330.00 0.2727
330.10 0.2731
330.20 0.2735
330.30 0.2739
330.40 0.2743
330.50 0.2747
330.60 0.2751
330.70 0.2755
330.80 0.2759
330.90 0.2763
331.00 0.2767
331.10 0.2771
331.20 0.2775
331.30 0.2779
331.40 0.2783
331.50 0.2787
331.60 0.2791
331.70 0.2795
331.80 0.2799
331.90 0.2803
332.00 0.2807
332.10 0.2811
332.20 0.2815
332.30 0.2819
332.40 0.2823
332.50 0.2827
332.60 0.2831
332.70 0.2835
332.80 0.2839
332.90 0.2843
333.00 0.2847
333.10 0.2851
333.20 0.2855
333.30 0.2859
333.40 0.2863
333.50 0.2867
333.60 0.2871
333.70 0.2875
333.80 0.2879
333.90 0.2883
334.00 0.2887
334.10 0.2891
334.20 0.2896
334.30 0.29
334.40 0.2904
334.50 0.2908
334.60 0.2912
334.70 0.2916
334.80 0.292
334.90 0.2924
335.00 0.2928
335.10 0.2932
335.20 0.2937
335.30 0.2941
335.40 0.2945
335.50 0.2949
335.60 0.2953
335.70 0.2957
335.80 0.2961
335.90 0.2965
336.00 0.2969
336.10 0.2973
336.20 0.2977
336.30 0.2981
336.40 0.2986
336.50 0.299
336.60 0.2994
336.70 0.2998
336.80 0.3002
336.90 0.3006
337.00 0.301
337.10 0.3014
337.20 0.3019
337.30 0.3023
337.40 0.3027
337.50 0.3031
337.60 0.3035
337.70 0.3039
337.80 0.3043
337.90 0.3047
338.00 0.3051
338.10 0.3055
338.20 0.306
338.30 0.3064
338.40 0.3068
338.50 0.3072
338.60 0.3076
338.70 0.3081
338.80 0.3085
338.90 0.3089
339.00 0.3093
339.10 0.3097
339.20 0.3101
339.30 0.3105
339.40 0.311
339.50 0.3114
339.60 0.3118
339.70 0.3122
339.80 0.3126
339.90 0.313
340.00 0.3134
340.10 0.3139
340.20 0.3143
340.30 0.3147
340.40 0.3151
340.50 0.3155
340.60 0.316
340.70 0.3164
340.80 0.3168
340.90 0.3172
341.00 0.3177
341.10 0.3181
341.20 0.3185
341.30 0.3189
341.40 0.3193
341.50 0.3197
341.60 0.3202
341.70 0.3206
341.80 0.321
341.90 0.3214
342.00 0.3218
342.10 0.3222
342.20 0.3227
342.30 0.3231
342.40 0.3235
342.50 0.324
342.60 0.3244
342.70 0.3248
342.80 0.3252
342.90 0.3257
343.00 0.3261
343.10 0.3265
343.20 0.3269
343.30 0.3274
343.40 0.3278
343.50 0.3282
343.60 0.3286
343.70 0.329
343.80 0.3295
343.90 0.3299
344.00 0.3303
344.10 0.3307
344.20 0.3312
344.30 0.3316
344.40 0.332
344.50 0.3324
344.60 0.3329
344.70 0.3333
344.80 0.3337
344.90 0.3342
345.00 0.3346
345.10 0.335
345.20 0.3354
345.30 0.3359
345.40 0.3363
345.50 0.3367
345.60 0.3371
345.70 0.3376
345.80 0.338
345.90 0.3384
346.00 0.3388
346.10 0.3393
346.20 0.3397
346.30 0.3401
346.40 0.3406
346.50 0.341
346.60 0.3414
346.70 0.3419
346.80 0.3423
346.90 0.3427
347.00 0.3432
347.10 0.3436
347.20 0.344
347.30 0.3444
347.40 0.3449
347.50 0.3453
347.60 0.3457
347.70 0.3461
347.80 0.3466
347.90 0.347
348.00 0.3474
348.10 0.3479
348.20 0.3483
348.30 0.3487
348.40 0.3492
348.50 0.3496
348.60 0.35
348.70 0.3505
348.80 0.3509
348.90 0.3514
349.00 0.3518
349.10 0.3522
349.20 0.3527
349.30 0.3531
349.40 0.3535
349.50 0.3539
349.60 0.3544
349.70 0.3548
349.80 0.3552
349.90 0.3557
350.00 0.3561
350.10 0.3565
350.20 0.357
350.30 0.3574
350.40 0.3579
350.50 0.3583
350.60 0.3587
350.70 0.3592
350.80 0.3596
350.90 0.36
351.00 0.3605
351.10 0.3609
351.20 0.3614
351.30 0.3618
351.40 0.3622
351.50 0.3627
351.60 0.3631
351.70 0.3635
351.80 0.364
351.90 0.3644
352.00 0.3648
352.10 0.3653
352.20 0.3657
352.30 0.3661
352.40 0.3666
352.50 0.367
352.60 0.3675
352.70 0.3679
352.80 0.3684
352.90 0.3688
353.00 0.3692
353.10 0.3697
353.20 0.3701
353.30 0.3705
353.40 0.371
353.50 0.3714
353.60 0.3718
353.70 0.3723
353.80 0.3727
353.90 0.3732
354.00 0.3736
354.10 0.374
354.20 0.3745
354.30 0.3749
354.40 0.3754
354.50 0.3758
354.60 0.3763
354.70 0.3767
354.80 0.3772
354.90 0.3776
355.00 0.378
355.10 0.3785
355.20 0.3789
355.30 0.3794
355.40 0.3798
355.50 0.3803
355.60 0.3807
355.70 0.3811
355.80 0.3816
355.90 0.382
356.00 0.3824
356.10 0.3829
356.20 0.3833
356.30 0.3838
356.40 0.3842
356.50 0.3847
356.60 0.3851
356.70 0.3856
356.80 0.386
356.90 0.3865
357.00 0.3869
357.10 0.3874
357.20 0.3878
357.30 0.3882
357.40 0.3887
357.50 0.3891
357.60 0.3896
357.70 0.39
357.80 0.3904
357.90 0.3909
358.00 0.3913
358.10 0.3918
358.20 0.3922
358.30 0.3927
358.40 0.3931
358.50 0.3936
358.60 0.394
358.70 0.3945
358.80 0.3949
358.90 0.3954
359.00 0.3958
359.10 0.3963
359.20 0.3967
359.30 0.3972
359.40 0.3976
359.50 0.3981
359.60 0.3985
359.70 0.399
359.80 0.3994
359.90 0.3998
360.00 0.4003
360.10 0.4007
360.20 0.4012
360.30 0.4016
360.40 0.4021
360.50 0.4025
360.60 0.403
360.70 0.4034
360.80 0.4039
360.90 0.4043
361.00 0.4048
361.10 0.4052
361.20 0.4057
361.30 0.4061
361.40 0.4066
361.50 0.407
361.60 0.4075
361.70 0.4079
361.80 0.4084
361.90 0.4088
362.00 0.4093
362.10 0.4097
362.20 0.4102
362.30 0.4106
362.40 0.4111
362.50 0.4115
362.60 0.412
362.70 0.4124
362.80 0.4129
362.90 0.4133
363.00 0.4138
363.10 0.4142
363.20 0.4147
363.30 0.4151
363.40 0.4156
363.50 0.416
363.60 0.4165
363.70 0.4169
363.80 0.4174
363.90 0.4179
364.00 0.4183
364.10 0.4188
364.20 0.4192
364.30 0.4197
364.40 0.4201
364.50 0.4206
364.60 0.421
364.70 0.4215
364.80 0.4219
364.90 0.4224
365.00 0.4228
365.10 0.4233
365.20 0.4238
365.30 0.4242
365.40 0.4247
365.50 0.4251
365.60 0.4256
365.70 0.426
365.80 0.4265
365.90 0.4269
366.00 0.4274
366.10 0.4278
366.20 0.4283
366.30 0.4288
366.40 0.4292
366.50 0.4297
366.60 0.4301
366.70 0.4306
366.80 0.4311
366.90 0.4315
367.00 0.432
367.10 0.4324
367.20 0.4329
367.30 0.4333
367.40 0.4338
367.50 0.4342
367.60 0.4347
367.70 0.4351
367.80 0.4356
367.90 0.436
368.00 0.4365
368.10 0.437
368.20 0.4374
368.30 0.4379
368.40 0.4383
368.50 0.4388
368.60 0.4393
368.70 0.4397
368.80 0.4402
368.90 0.4406
369.00 0.4411
369.10 0.4416
369.20 0.442
369.30 0.4425
369.40 0.4429
369.50 0.4434
369.60 0.4438
369.70 0.4443
369.80 0.4447
369.90 0.4452
370.00 0.4456
370.10 0.4461
370.20 0.4466
370.30 0.447
370.40 0.4475
370.50 0.448
370.60 0.4484
370.70 0.4489
370.80 0.4493
370.90 0.4498
371.00 0.4503
371.10 0.4507
371.20 0.4512
371.30 0.4516
371.40 0.4521
371.50 0.4526
371.60 0.453
371.70 0.4535
371.80 0.4539
371.90 0.4544
372.00 0.4548
372.10 0.4553
372.20 0.4558
372.30 0.4562
372.40 0.4567
372.50 0.4571
372.60 0.4576
372.70 0.4581
372.80 0.4585
372.90 0.459
373.00 0.4595
373.10 0.4599
373.20 0.4604
373.30 0.4608
373.40 0.4613
373.50 0.4618
373.60 0.4622
373.70 0.4627
373.80 0.4631
373.90 0.4636
374.00 0.464
374.10 0.4645
374.20 0.465
374.30 0.4654
374.40 0.4659
374.50 0.4664
374.60 0.4668
374.70 0.4673
374.80 0.4678
374.90 0.4682
375.00 0.4687
375.10 0.4691
375.20 0.4696
375.30 0.4701
375.40 0.4705
375.50 0.471
375.60 0.4714
375.70 0.4719
375.80 0.4724
375.90 0.4728
376.00 0.4733
376.10 0.4737
376.20 0.4742
376.30 0.4747
376.40 0.4751
376.50 0.4756
376.60 0.4761
376.70 0.4765
376.80 0.477
376.90 0.4774
377.00 0.4779
377.10 0.4784
377.20 0.4788
377.30 0.4793
377.40 0.4798
377.50 0.4802
377.60 0.4807
377.70 0.4811
377.80 0.4816
377.90 0.4821
378.00 0.4825
378.10 0.483
378.20 0.4835
378.30 0.4839
378.40 0.4844
378.50 0.4849
378.60 0.4853
378.70 0.4858
378.80 0.4862
378.90 0.4867
379.00 0.4872
379.10 0.4876
379.20 0.4881
379.30 0.4886
379.40 0.489
379.50 0.4895
379.60 0.49
379.70 0.4904
379.80 0.4909
379.90 0.4913
380.00 0.4918
380.10 0.4923
380.20 0.4927
380.30 0.4932
380.40 0.4937
380.50 0.4941
380.60 0.4946
380.70 0.4951
380.80 0.4955
380.90 0.496
381.00 0.4964
381.10 0.4969
381.20 0.4974
381.30 0.4978
381.40 0.4983
381.50 0.4988
381.60 0.4992
381.70 0.4997
381.80 0.5002
381.90 0.5006
382.00 0.5011
382.10 0.5016
382.20 0.502
382.30 0.5025
382.40 0.503
382.50 0.5034
382.60 0.5039
382.70 0.5044
382.80 0.5048
382.90 0.5053
383.00 0.5058
383.10 0.5062
383.20 0.5067
383.30 0.5072
383.40 0.5076
383.50 0.5081
383.60 0.5086
383.70 0.509
383.80 0.5095
383.90 0.51
384.00 0.5104
384.10 0.5109
384.20 0.5113
384.30 0.5118
384.40 0.5123
384.50 0.5128
384.60 0.5132
384.70 0.5137
384.80 0.5142
384.90 0.5146
385.00 0.5151
385.10 0.5156
385.20 0.516
385.30 0.5165
385.40 0.517
385.50 0.5174
385.60 0.5179
385.70 0.5183
385.80 0.5188
385.90 0.5193
386.00 0.5198
386.10 0.5202
386.20 0.5207
386.30 0.5212
386.40 0.5216
386.50 0.5221
386.60 0.5226
386.70 0.523
386.80 0.5235
386.90 0.524
387.00 0.5244
387.10 0.5249
387.20 0.5253
387.30 0.5258
387.40 0.5263
387.50 0.5268
387.60 0.5272
387.70 0.5277
387.80 0.5281
387.90 0.5286
388.00 0.5291
388.10 0.5295
388.20 0.53
388.30 0.5305
388.40 0.531
388.50 0.5314
388.60 0.5319
388.70 0.5324
388.80 0.5328
388.90 0.5333
389.00 0.5337
389.10 0.5342
389.20 0.5347
389.30 0.5351
389.40 0.5356
389.50 0.5361
389.60 0.5366
389.70 0.537
389.80 0.5375
389.90 0.538
390.00 0.5384
390.10 0.5389
390.20 0.5394
390.30 0.5398
390.40 0.5403
390.50 0.5408
390.60 0.5412
390.70 0.5417
390.80 0.5422
390.90 0.5426
391.00 0.5431
391.10 0.5436
391.20 0.544
391.30 0.5445
391.40 0.545
391.50 0.5454
391.60 0.5459
391.70 0.5464
391.80 0.5468
391.90 0.5473
392.00 0.5478
392.10 0.5482
392.20 0.5487
392.30 0.5492
392.40 0.5496
392.50 0.5501
392.60 0.5506
392.70 0.551
392.80 0.5515
392.90 0.552
393.00 0.5524
393.10 0.5529
393.20 0.5534
393.30 0.5538
393.40 0.5543
393.50 0.5548
393.60 0.5552
393.70 0.5557
393.80 0.5562
393.90 0.5566
394.00 0.5571
394.10 0.5576
394.20 0.5581
394.30 0.5585
394.40 0.559
394.50 0.5595
394.60 0.5599
394.70 0.5604
394.80 0.5609
394.90 0.5613
395.00 0.5618
395.10 0.5623
395.20 0.5627
395.30 0.5632
395.40 0.5637
395.50 0.5641
395.60 0.5646
395.70 0.5651
395.80 0.5655
395.90 0.566
396.00 0.5665
396.10 0.5669
396.20 0.5674
396.30 0.5679
396.40 0.5683
396.50 0.5688
396.60 0.5693
396.70 0.5697
396.80 0.5702
396.90 0.5707
397.00 0.5711
397.10 0.5716
397.20 0.5721
397.30 0.5725
397.40 0.573
397.50 0.5735
397.60 0.5739
397.70 0.5744
397.80 0.5749
397.90 0.5753
398.00 0.5758
398.10 0.5763
398.20 0.5767
398.30 0.5772
398.40 0.5777
398.50 0.5781
398.60 0.5786
398.70 0.5791
398.80 0.5795
398.90 0.58
399.00 0.5805
399.10 0.5809
399.20 0.5814
399.30 0.5819
399.40 0.5823
399.50 0.5828
399.60 0.5833
399.70 0.5837
399.80 0.5842
399.90 0.5847
400.00 0.5851
400.10 0.5856
400.20 0.5861
400.30 0.5865
400.40 0.587
400.50 0.5875
400.60 0.5879
400.70 0.5884
400.80 0.5889
400.90 0.5893
401.00 0.5898
401.10 0.5903
401.20 0.5907
401.30 0.5912
401.40 0.5917
401.50 0.5921
401.60 0.5926
401.70 0.5931
401.80 0.5935
401.90 0.594
402.00 0.5945
402.10 0.5949
402.20 0.5954
402.30 0.5959
402.40 0.5963
402.50 0.5968
402.60 0.5973
402.70 0.5977
402.80 0.5982
402.90 0.5987
403.00 0.5991
403.10 0.5996
403.20 0.6001
403.30 0.6005
403.40 0.601
403.50 0.6014
403.60 0.6019
403.70 0.6024
403.80 0.6028
403.90 0.6033
404.00 0.6038
404.10 0.6042
404.20 0.6047
404.30 0.6052
404.40 0.6056
404.50 0.6061
404.60 0.6066
404.70 0.607
404.80 0.6075
404.90 0.608
405.00 0.6084
405.10 0.6089
405.20 0.6094
405.30 0.6098
405.40 0.6103
405.50 0.6108
405.60 0.6112
405.70 0.6117
405.80 0.6122
405.90 0.6126
406.00 0.6131
406.10 0.6136
406.20 0.614
406.30 0.6145
406.40 0.6149
406.50 0.6154
406.60 0.6159
406.70 0.6163
406.80 0.6168
406.90 0.6173
407.00 0.6177
407.10 0.6182
407.20 0.6187
407.30 0.6191
407.40 0.6196
407.50 0.62
407.60 0.6205
407.70 0.621
407.80 0.6214
407.90 0.6219
408.00 0.6224
408.10 0.6228
408.20 0.6233
408.30 0.6238
408.40 0.6242
408.50 0.6247
408.60 0.6251
408.70 0.6256
408.80 0.6261
408.90 0.6265
409.00 0.627
409.10 0.6275
409.20 0.6279
409.30 0.6284
409.40 0.6289
409.50 0.6293
409.60 0.6298
409.70 0.6303
409.80 0.6307
409.90 0.6312
410.00 0.6316
410.10 0.6321
410.20 0.6326
410.30 0.633
410.40 0.6335
410.50 0.6339
410.60 0.6344
410.70 0.6349
410.80 0.6353
410.90 0.6358
411.00 0.6363
411.10 0.6367
411.20 0.6372
411.30 0.6376
411.40 0.6381
411.50 0.6386
411.60 0.639
411.70 0.6395
411.80 0.64
411.90 0.6404
412.00 0.6409
412.10 0.6413
412.20 0.6418
412.30 0.6423
412.40 0.6427
412.50 0.6432
412.60 0.6436
412.70 0.6441
412.80 0.6446
412.90 0.645
413.00 0.6455
413.10 0.646
413.20 0.6464
413.30 0.6469
413.40 0.6473
413.50 0.6478
413.60 0.6483
413.70 0.6487
413.80 0.6492
413.90 0.6496
414.00 0.6501
414.10 0.6506
414.20 0.651
414.30 0.6515
414.40 0.6519
414.50 0.6524
414.60 0.6529
414.70 0.6533
414.80 0.6538
414.90 0.6542
415.00 0.6547
415.10 0.6552
415.20 0.6556
415.30 0.6561
415.40 0.6565
415.50 0.657
415.60 0.6575
415.70 0.6579
415.80 0.6584
415.90 0.6589
416.00 0.6593
416.10 0.6598
416.20 0.6602
416.30 0.6607
416.40 0.6611
416.50 0.6616
416.60 0.6621
416.70 0.6625
416.80 0.663
416.90 0.6634
417.00 0.6639
417.10 0.6643
417.20 0.6648
417.30 0.6653
417.40 0.6657
417.50 0.6662
417.60 0.6666
417.70 0.6671
417.80 0.6676
417.90 0.668
418.00 0.6685
418.10 0.6689
418.20 0.6694
418.30 0.6698
418.40 0.6703
418.50 0.6708
418.60 0.6712
418.70 0.6717
418.80 0.6721
418.90 0.6726
419.00 0.673
419.10 0.6735
419.20 0.674
419.30 0.6744
419.40 0.6749
419.50 0.6753
419.60 0.6758
419.70 0.6762
419.80 0.6767
419.90 0.6771
420.00 0.6776
420.10 0.6781
420.20 0.6785
420.30 0.679
420.40 0.6794
420.50 0.6799
420.60 0.6804
420.70 0.6808
420.80 0.6813
420.90 0.6817
421.00 0.6822
421.10 0.6826
421.20 0.6831
421.30 0.6835
421.40 0.684
421.50 0.6845
421.60 0.6849
421.70 0.6854
421.80 0.6858
421.90 0.6863
422.00 0.6867
422.10 0.6872
422.20 0.6876
422.30 0.6881
422.40 0.6885
422.50 0.689
422.60 0.6894
422.70 0.6899
422.80 0.6903
422.90 0.6908
423.00 0.6913
423.10 0.6917
423.20 0.6922
423.30 0.6926
423.40 0.6931
423.50 0.6935
423.60 0.694
423.70 0.6944
423.80 0.6949
423.90 0.6953
424.00 0.6958
424.10 0.6962
424.20 0.6967
424.30 0.6971
424.40 0.6976
424.50 0.6981
424.60 0.6985
424.70 0.699
424.80 0.6994
424.90 0.6999
425.00 0.7003
425.10 0.7008
425.20 0.7012
425.30 0.7017
425.40 0.7021
425.50 0.7026
425.60 0.703
425.70 0.7035
425.80 0.7039
425.90 0.7044
426.00 0.7048
426.10 0.7053
426.20 0.7057
426.30 0.7062
426.40 0.7066
426.50 0.7071
426.60 0.7075
426.70 0.708
426.80 0.7084
426.90 0.7089
427.00 0.7093
427.10 0.7098
427.20 0.7102
427.30 0.7107
427.40 0.7111
427.50 0.7116
427.60 0.712
427.70 0.7125
427.80 0.7129
427.90 0.7134
428.00 0.7138
428.10 0.7143
428.20 0.7147
428.30 0.7152
428.40 0.7156
428.50 0.7161
428.60 0.7165
428.70 0.717
428.80 0.7174
428.90 0.7179
429.00 0.7183
429.10 0.7188
429.20 0.7192
429.30 0.7197
429.40 0.7201
429.50 0.7206
429.60 0.721
429.70 0.7215
429.80 0.7219
429.90 0.7224
430.00 0.7228
430.10 0.7232
430.20 0.7237
430.30 0.7241
430.40 0.7246
430.50 0.725
430.60 0.7255
430.70 0.7259
430.80 0.7264
430.90 0.7268
431.00 0.7273
431.10 0.7277
431.20 0.7282
431.30 0.7286
431.40 0.7291
431.50 0.7295
431.60 0.7299
431.70 0.7304
431.80 0.7308
431.90 0.7313
432.00 0.7317
432.10 0.7322
432.20 0.7326
432.30 0.7331
432.40 0.7335
432.50 0.734
432.60 0.7344
432.70 0.7348
432.80 0.7353
432.90 0.7357
433.00 0.7362
433.10 0.7366
433.20 0.7371
433.30 0.7375
433.40 0.7379
433.50 0.7384
433.60 0.7388
433.70 0.7393
433.80 0.7397
433.90 0.7402
434.00 0.7406
434.10 0.741
434.20 0.7415
434.30 0.7419
434.40 0.7424
434.50 0.7428
434.60 0.7433
434.70 0.7437
434.80 0.7441
434.90 0.7446
435.00 0.745
435.10 0.7455
435.20 0.7459
435.30 0.7463
435.40 0.7468
435.50 0.7472
435.60 0.7477
435.70 0.7481
435.80 0.7486
435.90 0.749
436.00 0.7494
436.10 0.7499
436.20 0.7503
436.30 0.7508
436.40 0.7512
436.50 0.7516
436.60 0.7521
436.70 0.7525
436.80 0.7529
436.90 0.7534
437.00 0.7538
437.10 0.7543
437.20 0.7547
437.30 0.7551
437.40 0.7556
437.50 0.756
437.60 0.7565
437.70 0.7569
437.80 0.7574
437.90 0.7578
438.00 0.7582
438.10 0.7587
438.20 0.7591
438.30 0.7595
438.40 0.76
438.50 0.7604
438.60 0.7609
438.70 0.7613
438.80 0.7617
438.90 0.7622
439.00 0.7626
439.10 0.763
439.20 0.7635
439.30 0.7639
439.40 0.7644
439.50 0.7648
439.60 0.7652
439.70 0.7657
439.80 0.7661
439.90 0.7665
440.00 0.767
440.10 0.7674
440.20 0.7678
440.30 0.7683
440.40 0.7687
440.50 0.7691
440.60 0.7696
440.70 0.77
440.80 0.7704
440.90 0.7709
441.00 0.7713
441.10 0.7718
441.20 0.7722
441.30 0.7726
441.40 0.773
441.50 0.7735
441.60 0.7739
441.70 0.7743
441.80 0.7748
441.90 0.7752
442.00 0.7757
442.10 0.7761
442.20 0.7765
442.30 0.7769
442.40 0.7774
442.50 0.7778
442.60 0.7782
442.70 0.7787
442.80 0.7791
442.90 0.7795
443.00 0.78
