# Version 2.1 - nm, norm@500 to 1, cut digits, bergeron_16000_70.dat_16000
# Wavelength(nm)  Flambda(ergs/cm^s/s/nm)
300.00 2.357
300.10 2.355
300.20 2.353
300.30 2.351
300.40 2.35
300.50 2.348
300.60 2.346
300.70 2.344
300.80 2.342
300.90 2.34
301.00 2.338
301.10 2.336
301.20 2.334
301.30 2.333
301.40 2.331
301.50 2.329
301.60 2.327
301.70 2.325
301.80 2.323
301.90 2.321
302.00 2.319
302.10 2.318
302.20 2.316
302.30 2.314
302.40 2.312
302.50 2.31
302.60 2.308
302.70 2.306
302.80 2.305
302.90 2.303
303.00 2.301
303.10 2.299
303.20 2.297
303.30 2.295
303.40 2.294
303.50 2.292
303.60 2.29
303.70 2.288
303.80 2.286
303.90 2.284
304.00 2.283
304.10 2.281
304.20 2.279
304.30 2.277
304.40 2.275
304.50 2.274
304.60 2.272
304.70 2.27
304.80 2.268
304.90 2.266
305.00 2.264
305.10 2.263
305.20 2.261
305.30 2.259
305.40 2.257
305.50 2.255
305.60 2.254
305.70 2.252
305.80 2.25
305.90 2.248
306.00 2.246
306.10 2.245
306.20 2.243
306.30 2.241
306.40 2.239
306.50 2.238
306.60 2.236
306.70 2.234
306.80 2.232
306.90 2.231
307.00 2.229
307.10 2.227
307.20 2.225
307.30 2.223
307.40 2.222
307.50 2.22
307.60 2.218
307.70 2.216
307.80 2.215
307.90 2.213
308.00 2.211
308.10 2.209
308.20 2.208
308.30 2.206
308.40 2.204
308.50 2.203
308.60 2.201
308.70 2.199
308.80 2.197
308.90 2.196
309.00 2.194
309.10 2.192
309.20 2.19
309.30 2.189
309.40 2.187
309.50 2.185
309.60 2.184
309.70 2.182
309.80 2.18
309.90 2.178
310.00 2.177
310.10 2.175
310.20 2.173
310.30 2.172
310.40 2.17
310.50 2.168
310.60 2.166
310.70 2.165
310.80 2.163
310.90 2.161
311.00 2.16
311.10 2.158
311.20 2.156
311.30 2.155
311.40 2.153
311.50 2.151
311.60 2.15
311.70 2.148
311.80 2.146
311.90 2.145
312.00 2.143
312.10 2.141
312.20 2.14
312.30 2.138
312.40 2.136
312.50 2.135
312.60 2.133
312.70 2.131
312.80 2.13
312.90 2.128
313.00 2.126
313.10 2.125
313.20 2.123
313.30 2.121
313.40 2.12
313.50 2.118
313.60 2.116
313.70 2.115
313.80 2.113
313.90 2.111
314.00 2.11
314.10 2.108
314.20 2.106
314.30 2.105
314.40 2.103
314.50 2.102
314.60 2.1
314.70 2.098
314.80 2.097
314.90 2.095
315.00 2.093
315.10 2.092
315.20 2.09
315.30 2.089
315.40 2.087
315.50 2.085
315.60 2.084
315.70 2.082
315.80 2.08
315.90 2.079
316.00 2.077
316.10 2.076
316.20 2.074
316.30 2.072
316.40 2.071
316.50 2.069
316.60 2.068
316.70 2.066
316.80 2.064
316.90 2.063
317.00 2.061
317.10 2.06
317.20 2.058
317.30 2.057
317.40 2.055
317.50 2.053
317.60 2.052
317.70 2.05
317.80 2.049
317.90 2.047
318.00 2.045
318.10 2.044
318.20 2.042
318.30 2.041
318.40 2.039
318.50 2.038
318.60 2.036
318.70 2.035
318.80 2.033
318.90 2.031
319.00 2.03
319.10 2.028
319.20 2.027
319.30 2.025
319.40 2.024
319.50 2.022
319.60 2.021
319.70 2.019
319.80 2.017
319.90 2.016
320.00 2.014
320.10 2.013
320.20 2.011
320.30 2.01
320.40 2.008
320.50 2.007
320.60 2.005
320.70 2.004
320.80 2.002
320.90 2.001
321.00 1.999
321.10 1.998
321.20 1.996
321.30 1.994
321.40 1.993
321.50 1.991
321.60 1.99
321.70 1.988
321.80 1.987
321.90 1.985
322.00 1.984
322.10 1.982
322.20 1.981
322.30 1.979
322.40 1.978
322.50 1.976
322.60 1.975
322.70 1.973
322.80 1.972
322.90 1.97
323.00 1.969
323.10 1.967
323.20 1.966
323.30 1.964
323.40 1.963
323.50 1.961
323.60 1.96
323.70 1.958
323.80 1.957
323.90 1.955
324.00 1.954
324.10 1.952
324.20 1.951
324.30 1.949
324.40 1.948
324.50 1.946
324.60 1.945
324.70 1.944
324.80 1.942
324.90 1.941
325.00 1.939
325.10 1.938
325.20 1.936
325.30 1.935
325.40 1.933
325.50 1.932
325.60 1.93
325.70 1.929
325.80 1.928
325.90 1.926
326.00 1.925
326.10 1.923
326.20 1.922
326.30 1.92
326.40 1.919
326.50 1.917
326.60 1.916
326.70 1.915
326.80 1.913
326.90 1.912
327.00 1.91
327.10 1.909
327.20 1.907
327.30 1.906
327.40 1.905
327.50 1.903
327.60 1.902
327.70 1.9
327.80 1.899
327.90 1.897
328.00 1.896
328.10 1.895
328.20 1.893
328.30 1.892
328.40 1.89
328.50 1.889
328.60 1.887
328.70 1.886
328.80 1.885
328.90 1.883
329.00 1.882
329.10 1.88
329.20 1.879
329.30 1.878
329.40 1.876
329.50 1.875
329.60 1.873
329.70 1.872
329.80 1.871
329.90 1.869
330.00 1.868
330.10 1.866
330.20 1.865
330.30 1.864
330.40 1.862
330.50 1.861
330.60 1.859
330.70 1.858
330.80 1.857
330.90 1.855
331.00 1.854
331.10 1.852
331.20 1.851
331.30 1.85
331.40 1.848
331.50 1.847
331.60 1.846
331.70 1.844
331.80 1.843
331.90 1.842
332.00 1.84
332.10 1.839
332.20 1.837
332.30 1.836
332.40 1.835
332.50 1.833
332.60 1.832
332.70 1.831
332.80 1.829
332.90 1.828
333.00 1.827
333.10 1.825
333.20 1.824
333.30 1.823
333.40 1.821
333.50 1.82
333.60 1.818
333.70 1.817
333.80 1.816
333.90 1.814
334.00 1.813
334.10 1.812
334.20 1.81
334.30 1.809
334.40 1.808
334.50 1.806
334.60 1.805
334.70 1.804
334.80 1.802
334.90 1.801
335.00 1.8
335.10 1.798
335.20 1.797
335.30 1.796
335.40 1.794
335.50 1.793
335.60 1.792
335.70 1.791
335.80 1.789
335.90 1.788
336.00 1.787
336.10 1.785
336.20 1.784
336.30 1.783
336.40 1.781
336.50 1.78
336.60 1.779
336.70 1.777
336.80 1.776
336.90 1.775
337.00 1.773
337.10 1.772
337.20 1.771
337.30 1.77
337.40 1.768
337.50 1.767
337.60 1.766
337.70 1.764
337.80 1.763
337.90 1.762
338.00 1.761
338.10 1.759
338.20 1.758
338.30 1.757
338.40 1.755
338.50 1.754
338.60 1.753
338.70 1.752
338.80 1.75
338.90 1.749
339.00 1.748
339.10 1.746
339.20 1.745
339.30 1.744
339.40 1.743
339.50 1.741
339.60 1.74
339.70 1.739
339.80 1.738
339.90 1.736
340.00 1.735
340.10 1.734
340.20 1.732
340.30 1.731
340.40 1.73
340.50 1.729
340.60 1.727
340.70 1.726
340.80 1.725
340.90 1.724
341.00 1.722
341.10 1.721
341.20 1.72
341.30 1.719
341.40 1.717
341.50 1.716
341.60 1.715
341.70 1.714
341.80 1.712
341.90 1.711
342.00 1.71
342.10 1.709
342.20 1.707
342.30 1.706
342.40 1.705
342.50 1.704
342.60 1.703
342.70 1.701
342.80 1.7
342.90 1.699
343.00 1.698
343.10 1.696
343.20 1.695
343.30 1.694
343.40 1.693
343.50 1.692
343.60 1.69
343.70 1.689
343.80 1.688
343.90 1.687
344.00 1.685
344.10 1.684
344.20 1.683
344.30 1.682
344.40 1.681
344.50 1.679
344.60 1.678
344.70 1.677
344.80 1.676
344.90 1.675
345.00 1.673
345.10 1.672
345.20 1.671
345.30 1.67
345.40 1.669
345.50 1.667
345.60 1.666
345.70 1.665
345.80 1.664
345.90 1.663
346.00 1.661
346.10 1.66
346.20 1.659
346.30 1.658
346.40 1.657
346.50 1.655
346.60 1.654
346.70 1.653
346.80 1.652
346.90 1.651
347.00 1.649
347.10 1.648
347.20 1.647
347.30 1.646
347.40 1.645
347.50 1.644
347.60 1.642
347.70 1.641
347.80 1.64
347.90 1.639
348.00 1.638
348.10 1.636
348.20 1.635
348.30 1.634
348.40 1.633
348.50 1.632
348.60 1.631
348.70 1.63
348.80 1.628
348.90 1.627
349.00 1.626
349.10 1.625
349.20 1.624
349.30 1.623
349.40 1.621
349.50 1.62
349.60 1.619
349.70 1.618
349.80 1.617
349.90 1.616
350.00 1.615
350.10 1.613
350.20 1.612
350.30 1.611
350.40 1.61
350.50 1.609
350.60 1.608
350.70 1.606
350.80 1.605
350.90 1.604
351.00 1.603
351.10 1.602
351.20 1.601
351.30 1.6
351.40 1.598
351.50 1.597
351.60 1.596
351.70 1.595
351.80 1.594
351.90 1.593
352.00 1.592
352.10 1.591
352.20 1.589
352.30 1.588
352.40 1.587
352.50 1.586
352.60 1.585
352.70 1.584
352.80 1.583
352.90 1.582
353.00 1.58
353.10 1.579
353.20 1.578
353.30 1.577
353.40 1.576
353.50 1.575
353.60 1.574
353.70 1.573
353.80 1.572
353.90 1.57
354.00 1.569
354.10 1.568
354.20 1.567
354.30 1.566
354.40 1.565
354.50 1.564
354.60 1.563
354.70 1.562
354.80 1.561
354.90 1.559
355.00 1.558
355.10 1.557
355.20 1.556
355.30 1.555
355.40 1.554
355.50 1.553
355.60 1.552
355.70 1.551
355.80 1.55
355.90 1.549
356.00 1.547
356.10 1.546
356.20 1.545
356.30 1.544
356.40 1.543
356.50 1.542
356.60 1.541
356.70 1.54
356.80 1.539
356.90 1.538
357.00 1.537
357.10 1.536
357.20 1.534
357.30 1.533
357.40 1.532
357.50 1.531
357.60 1.53
357.70 1.529
357.80 1.528
357.90 1.527
358.00 1.526
358.10 1.525
358.20 1.524
358.30 1.523
358.40 1.522
358.50 1.521
358.60 1.519
358.70 1.518
358.80 1.517
358.90 1.516
359.00 1.515
359.10 1.514
359.20 1.513
359.30 1.512
359.40 1.511
359.50 1.51
359.60 1.509
359.70 1.508
359.80 1.507
359.90 1.506
360.00 1.505
360.10 1.504
360.20 1.503
360.30 1.502
360.40 1.501
360.50 1.499
360.60 1.498
360.70 1.497
360.80 1.496
360.90 1.495
361.00 1.494
361.10 1.493
361.20 1.492
361.30 1.491
361.40 1.49
361.50 1.489
361.60 1.488
361.70 1.487
361.80 1.486
361.90 1.485
362.00 1.484
362.10 1.483
362.20 1.482
362.30 1.481
362.40 1.48
362.50 1.479
362.60 1.478
362.70 1.477
362.80 1.476
362.90 1.475
363.00 1.474
363.10 1.473
363.20 1.472
363.30 1.471
363.40 1.469
363.50 1.468
363.60 1.467
363.70 1.466
363.80 1.465
363.90 1.464
364.00 1.463
364.10 1.462
364.20 1.461
364.30 1.46
364.40 1.459
364.50 1.458
364.60 1.457
364.70 1.456
364.80 1.455
364.90 1.454
365.00 1.453
365.10 1.452
365.20 1.451
365.30 1.45
365.40 1.449
365.50 1.448
365.60 1.447
365.70 1.446
365.80 1.445
365.90 1.444
366.00 1.443
366.10 1.442
366.20 1.441
366.30 1.44
366.40 1.439
366.50 1.438
366.60 1.437
366.70 1.436
366.80 1.435
366.90 1.434
367.00 1.433
367.10 1.432
367.20 1.431
367.30 1.43
367.40 1.429
367.50 1.428
367.60 1.428
367.70 1.427
367.80 1.426
367.90 1.425
368.00 1.424
368.10 1.424
368.20 1.423
368.30 1.423
368.40 1.423
368.50 1.423
368.60 1.422
368.70 1.422
368.80 1.422
368.90 1.422
369.00 1.421
369.10 1.421
369.20 1.421
369.30 1.421
369.40 1.42
369.50 1.42
369.60 1.42
369.70 1.42
369.80 1.419
369.90 1.419
370.00 1.419
370.10 1.42
370.20 1.422
370.30 1.423
370.40 1.425
370.50 1.426
370.60 1.428
370.70 1.429
370.80 1.431
370.90 1.432
371.00 1.434
371.10 1.435
371.20 1.436
371.30 1.438
371.40 1.439
371.50 1.441
371.60 1.442
371.70 1.444
371.80 1.445
371.90 1.447
372.00 1.448
372.10 1.451
372.20 1.455
372.30 1.458
372.40 1.461
372.50 1.465
372.60 1.468
372.70 1.471
372.80 1.475
372.90 1.478
373.00 1.481
373.10 1.484
373.20 1.488
373.30 1.491
373.40 1.494
373.50 1.498
373.60 1.501
373.70 1.504
373.80 1.507
373.90 1.511
374.00 1.514
374.10 1.518
374.20 1.522
374.30 1.526
374.40 1.529
374.50 1.533
374.60 1.537
374.70 1.541
374.80 1.545
374.90 1.549
375.00 1.552
375.10 1.556
375.20 1.56
375.30 1.564
375.40 1.568
375.50 1.571
375.60 1.575
375.70 1.579
375.80 1.583
375.90 1.587
376.00 1.59
376.10 1.592
376.20 1.594
376.30 1.596
376.40 1.598
376.50 1.6
376.60 1.602
376.70 1.603
376.80 1.605
376.90 1.607
377.00 1.609
377.10 1.606
377.20 1.602
377.30 1.599
377.40 1.595
377.50 1.592
377.60 1.588
377.70 1.585
377.80 1.581
377.90 1.578
378.00 1.574
378.10 1.555
378.20 1.536
378.30 1.517
378.40 1.498
378.50 1.479
378.60 1.46
378.70 1.441
378.80 1.422
378.90 1.403
379.00 1.384
379.10 1.37
379.20 1.355
379.30 1.341
379.40 1.326
379.50 1.312
379.60 1.298
379.70 1.283
379.80 1.269
379.90 1.254
380.00 1.24
380.10 1.263
380.20 1.286
380.30 1.309
380.40 1.331
380.50 1.354
380.60 1.377
380.70 1.399
380.80 1.422
380.90 1.445
381.00 1.467
381.10 1.477
381.20 1.487
381.30 1.496
381.40 1.506
381.50 1.516
381.60 1.516
381.70 1.513
381.80 1.508
381.90 1.499
382.00 1.487
382.10 1.471
382.20 1.452
382.30 1.419
382.40 1.386
382.50 1.353
382.60 1.32
382.70 1.287
382.80 1.254
382.90 1.221
383.00 1.189
383.10 1.156
383.20 1.123
383.30 1.092
383.40 1.058
383.50 1.022
383.60 1.029
383.70 1.065
383.80 1.098
383.90 1.128
384.00 1.161
384.10 1.197
384.20 1.235
384.30 1.274
384.40 1.313
384.50 1.351
384.60 1.387
384.70 1.42
384.80 1.45
384.90 1.477
385.00 1.501
385.10 1.521
385.20 1.539
385.30 1.555
385.40 1.568
385.50 1.58
385.60 1.589
385.70 1.596
385.80 1.602
385.90 1.606
386.00 1.608
386.10 1.608
386.20 1.607
386.30 1.604
386.40 1.599
386.50 1.593
386.60 1.584
386.70 1.574
386.80 1.562
386.90 1.548
387.00 1.533
387.10 1.516
387.20 1.496
387.30 1.474
387.40 1.451
387.50 1.424
387.60 1.394
387.70 1.363
387.80 1.327
387.90 1.289
388.00 1.248
388.10 1.204
388.20 1.16
388.30 1.115
388.40 1.071
388.50 1.028
388.60 0.9884
388.70 0.9482
388.80 0.9077
388.90 0.8667
389.00 0.9041
389.10 0.9425
389.20 0.982
389.30 1.021
389.40 1.062
389.50 1.105
389.60 1.149
389.70 1.193
389.80 1.237
389.90 1.278
390.00 1.316
390.10 1.353
390.20 1.386
390.30 1.417
390.40 1.446
390.50 1.472
390.60 1.496
390.70 1.52
390.80 1.54
390.90 1.56
391.00 1.579
391.10 1.597
391.20 1.613
391.30 1.629
391.40 1.643
391.50 1.656
391.60 1.668
391.70 1.679
391.80 1.69
391.90 1.699
392.00 1.707
392.10 1.715
392.20 1.721
392.30 1.727
392.40 1.731
392.50 1.735
392.60 1.737
392.70 1.738
392.80 1.739
392.90 1.739
393.00 1.737
393.10 1.735
393.20 1.731
393.30 1.727
393.40 1.722
393.50 1.715
393.60 1.707
393.70 1.699
393.80 1.689
393.90 1.678
394.00 1.667
394.10 1.654
394.20 1.64
394.30 1.625
394.40 1.609
394.50 1.592
394.60 1.574
394.70 1.555
394.80 1.534
394.90 1.513
395.00 1.491
395.10 1.468
395.20 1.444
395.30 1.418
395.40 1.391
395.50 1.363
395.60 1.333
395.70 1.301
395.80 1.268
395.90 1.233
396.00 1.196
396.10 1.158
396.20 1.117
396.30 1.074
396.40 1.03
396.50 0.9858
396.60 0.9426
396.70 0.9004
396.80 0.8569
396.90 0.8045
397.00 0.743
397.10 0.7993
397.20 0.8491
397.30 0.8924
397.40 0.9334
397.50 0.9754
397.60 1.018
397.70 1.061
397.80 1.103
397.90 1.143
398.00 1.18
398.10 1.216
398.20 1.25
398.30 1.282
398.40 1.312
398.50 1.341
398.60 1.368
398.70 1.394
398.80 1.419
398.90 1.442
399.00 1.465
399.10 1.487
399.20 1.508
399.30 1.528
399.40 1.548
399.50 1.566
399.60 1.583
399.70 1.601
399.80 1.617
399.90 1.632
400.00 1.647
400.10 1.661
400.20 1.674
400.30 1.686
400.40 1.698
400.50 1.709
400.60 1.72
400.70 1.73
400.80 1.739
400.90 1.748
401.00 1.756
401.10 1.763
401.20 1.771
401.30 1.777
401.40 1.783
401.50 1.789
401.60 1.794
401.70 1.799
401.80 1.803
401.90 1.807
402.00 1.811
402.10 1.814
402.20 1.817
402.30 1.82
402.40 1.822
402.50 1.824
402.60 1.825
402.70 1.826
402.80 1.827
402.90 1.828
403.00 1.828
403.10 1.828
403.20 1.828
403.30 1.828
403.40 1.827
403.50 1.826
403.60 1.825
403.70 1.823
403.80 1.821
403.90 1.819
404.00 1.817
404.10 1.814
404.20 1.811
404.30 1.808
404.40 1.805
404.50 1.801
404.60 1.797
404.70 1.793
404.80 1.788
404.90 1.783
405.00 1.778
405.10 1.772
405.20 1.766
405.30 1.76
405.40 1.753
405.50 1.746
405.60 1.738
405.70 1.73
405.80 1.722
405.90 1.713
406.00 1.703
406.10 1.694
406.20 1.683
406.30 1.673
406.40 1.661
406.50 1.65
406.60 1.637
406.70 1.624
406.80 1.61
406.90 1.596
407.00 1.581
407.10 1.565
407.20 1.549
407.30 1.532
407.40 1.514
407.50 1.495
407.60 1.476
407.70 1.455
407.80 1.435
407.90 1.413
408.00 1.39
408.10 1.367
408.20 1.344
408.30 1.319
408.40 1.295
408.50 1.269
408.60 1.242
408.70 1.216
408.80 1.188
408.90 1.159
409.00 1.13
409.10 1.099
409.20 1.068
409.30 1.035
409.40 1
409.50 0.9636
409.60 0.9259
409.70 0.8871
409.80 0.8484
409.90 0.8098
410.00 0.7633
410.10 0.7128
410.20 0.6581
410.30 0.7309
410.40 0.7877
410.50 0.8283
410.60 0.866
410.70 0.9036
410.80 0.9411
410.90 0.9768
411.00 1.011
411.10 1.044
411.20 1.074
411.30 1.103
411.40 1.132
411.50 1.159
411.60 1.185
411.70 1.211
411.80 1.236
411.90 1.26
412.00 1.283
412.10 1.305
412.20 1.327
412.30 1.349
412.40 1.369
412.50 1.389
412.60 1.408
412.70 1.427
412.80 1.444
412.90 1.461
413.00 1.477
413.10 1.493
413.20 1.508
413.30 1.521
413.40 1.534
413.50 1.547
413.60 1.559
413.70 1.57
413.80 1.581
413.90 1.591
414.00 1.6
414.10 1.61
414.20 1.618
414.30 1.626
414.40 1.634
414.50 1.641
414.60 1.648
414.70 1.655
414.80 1.661
414.90 1.667
415.00 1.672
415.10 1.677
415.20 1.682
415.30 1.687
415.40 1.691
415.50 1.695
415.60 1.699
415.70 1.702
415.80 1.706
415.90 1.709
416.00 1.712
416.10 1.714
416.20 1.717
416.30 1.719
416.40 1.722
416.50 1.724
416.60 1.726
416.70 1.727
416.80 1.729
416.90 1.73
417.00 1.732
417.10 1.733
417.20 1.734
417.30 1.735
417.40 1.736
417.50 1.737
417.60 1.738
417.70 1.739
417.80 1.739
417.90 1.74
418.00 1.74
418.10 1.74
418.20 1.741
418.30 1.741
418.40 1.741
418.50 1.741
418.60 1.741
418.70 1.741
418.80 1.741
418.90 1.741
419.00 1.741
419.10 1.74
419.20 1.74
419.30 1.74
419.40 1.739
419.50 1.739
419.60 1.738
419.70 1.738
419.80 1.737
419.90 1.737
420.00 1.736
420.10 1.735
420.20 1.735
420.30 1.734
420.40 1.733
420.50 1.732
420.60 1.732
420.70 1.731
420.80 1.73
420.90 1.729
421.00 1.728
421.10 1.727
421.20 1.726
421.30 1.725
421.40 1.724
421.50 1.723
421.60 1.722
421.70 1.721
421.80 1.719
421.90 1.718
422.00 1.717
422.10 1.716
422.20 1.714
422.30 1.713
422.40 1.712
422.50 1.71
422.60 1.709
422.70 1.708
422.80 1.706
422.90 1.705
423.00 1.703
423.10 1.702
423.20 1.7
423.30 1.699
423.40 1.697
423.50 1.695
423.60 1.694
423.70 1.692
423.80 1.69
423.90 1.689
424.00 1.687
424.10 1.685
424.20 1.683
424.30 1.681
424.40 1.679
424.50 1.677
424.60 1.675
424.70 1.673
424.80 1.671
424.90 1.669
425.00 1.667
425.10 1.664
425.20 1.662
425.30 1.66
425.40 1.657
425.50 1.655
425.60 1.652
425.70 1.65
425.80 1.647
425.90 1.644
426.00 1.642
426.10 1.639
426.20 1.636
426.30 1.632
426.40 1.629
426.50 1.626
426.60 1.623
426.70 1.62
426.80 1.616
426.90 1.613
427.00 1.609
427.10 1.606
427.20 1.602
427.30 1.598
427.40 1.594
427.50 1.59
427.60 1.586
427.70 1.581
427.80 1.577
427.90 1.572
428.00 1.568
428.10 1.563
428.20 1.558
428.30 1.552
428.40 1.547
428.50 1.542
428.60 1.536
428.70 1.53
428.80 1.524
428.90 1.518
429.00 1.511
429.10 1.504
429.20 1.497
429.30 1.49
429.40 1.483
429.50 1.475
429.60 1.467
429.70 1.459
429.80 1.45
429.90 1.441
430.00 1.432
430.10 1.422
430.20 1.413
430.30 1.403
430.40 1.392
430.50 1.381
430.60 1.37
430.70 1.358
430.80 1.346
430.90 1.334
431.00 1.321
431.10 1.307
431.20 1.294
431.30 1.28
431.40 1.265
431.50 1.25
431.60 1.234
431.70 1.218
431.80 1.201
431.90 1.183
432.00 1.164
432.10 1.145
432.20 1.125
432.30 1.104
432.40 1.082
432.50 1.058
432.60 1.034
432.70 1.009
432.80 0.9833
432.90 0.9578
433.00 0.9324
433.10 0.9079
433.20 0.883
433.30 0.8576
433.40 0.8298
433.50 0.8009
433.60 0.7708
433.70 0.7387
433.80 0.7036
433.90 0.6654
434.00 0.5749
434.10 0.576
434.20 0.6683
434.30 0.705
434.40 0.739
434.50 0.7702
434.60 0.7991
434.70 0.8269
434.80 0.8536
434.90 0.8777
435.00 0.9014
435.10 0.9247
435.20 0.9488
435.30 0.973
435.40 0.9972
435.50 1.021
435.60 1.043
435.70 1.065
435.80 1.085
435.90 1.104
436.00 1.123
436.10 1.14
436.20 1.156
436.30 1.172
436.40 1.187
436.50 1.201
436.60 1.215
436.70 1.228
436.80 1.24
436.90 1.252
437.00 1.264
437.10 1.275
437.20 1.285
437.30 1.295
437.40 1.305
437.50 1.314
437.60 1.323
437.70 1.331
437.80 1.34
437.90 1.347
438.00 1.354
438.10 1.362
438.20 1.368
438.30 1.375
438.40 1.381
438.50 1.386
438.60 1.392
438.70 1.397
438.80 1.402
438.90 1.406
439.00 1.411
439.10 1.415
439.20 1.419
439.30 1.423
439.40 1.426
439.50 1.43
439.60 1.433
439.70 1.436
439.80 1.438
439.90 1.441
440.00 1.444
440.10 1.446
440.20 1.448
440.30 1.45
440.40 1.452
440.50 1.454
440.60 1.456
440.70 1.457
440.80 1.459
440.90 1.46
441.00 1.461
441.10 1.462
441.20 1.463
441.30 1.464
441.40 1.465
441.50 1.466
441.60 1.467
441.70 1.468
441.80 1.468
441.90 1.469
442.00 1.469
442.10 1.47
442.20 1.47
442.30 1.47
442.40 1.471
442.50 1.471
442.60 1.471
442.70 1.471
442.80 1.471
442.90 1.471
443.00 1.471
443.10 1.471
443.20 1.471
443.30 1.471
443.40 1.47
443.50 1.47
443.60 1.47
443.70 1.47
443.80 1.469
443.90 1.469
444.00 1.469
444.10 1.468
444.20 1.468
444.30 1.468
444.40 1.467
444.50 1.467
444.60 1.466
444.70 1.466
444.80 1.465
444.90 1.464
445.00 1.464
445.10 1.463
445.20 1.463
445.30 1.462
445.40 1.461
445.50 1.461
445.60 1.46
445.70 1.459
445.80 1.459
445.90 1.458
446.00 1.457
446.10 1.456
446.20 1.456
446.30 1.455
446.40 1.454
446.50 1.453
446.60 1.453
446.70 1.452
446.80 1.451
446.90 1.45
447.00 1.449
447.10 1.449
447.20 1.448
447.30 1.447
447.40 1.446
447.50 1.445
447.60 1.444
447.70 1.444
447.80 1.443
447.90 1.442
448.00 1.441
448.10 1.44
448.20 1.439
448.30 1.438
448.40 1.438
448.50 1.437
448.60 1.436
448.70 1.435
448.80 1.434
448.90 1.433
449.00 1.432
449.10 1.431
449.20 1.431
449.30 1.43
449.40 1.429
449.50 1.428
449.60 1.427
449.70 1.426
449.80 1.425
449.90 1.424
450.00 1.423
450.10 1.422
450.20 1.421
450.30 1.42
450.40 1.42
450.50 1.419
450.60 1.418
450.70 1.417
450.80 1.416
450.90 1.415
451.00 1.414
451.10 1.413
451.20 1.412
451.30 1.411
451.40 1.41
451.50 1.409
451.60 1.408
451.70 1.407
451.80 1.406
451.90 1.405
452.00 1.405
452.10 1.404
452.20 1.403
452.30 1.402
452.40 1.401
452.50 1.4
452.60 1.399
452.70 1.398
452.80 1.397
452.90 1.396
453.00 1.395
453.10 1.394
453.20 1.393
453.30 1.392
453.40 1.391
453.50 1.39
453.60 1.389
