# Version 2.1 - nm, norm@500 to 1, cut digits, bergeron_75000_80.dat_75000
# Wavelength(nm)  Flambda(ergs/cm^s/s/nm)
300.00 6.613
300.10 6.605
300.20 6.597
300.30 6.589
300.40 6.581
300.50 6.572
300.60 6.564
300.70 6.556
300.80 6.548
300.90 6.54
301.00 6.532
301.10 6.524
301.20 6.516
301.30 6.508
301.40 6.5
301.50 6.492
301.60 6.484
301.70 6.476
301.80 6.468
301.90 6.46
302.00 6.452
302.10 6.444
302.20 6.436
302.30 6.428
302.40 6.42
302.50 6.412
302.60 6.405
302.70 6.397
302.80 6.389
302.90 6.381
303.00 6.373
303.10 6.365
303.20 6.358
303.30 6.35
303.40 6.342
303.50 6.334
303.60 6.326
303.70 6.319
303.80 6.311
303.90 6.303
304.00 6.296
304.10 6.288
304.20 6.28
304.30 6.273
304.40 6.265
304.50 6.257
304.60 6.25
304.70 6.242
304.80 6.234
304.90 6.227
305.00 6.219
305.10 6.212
305.20 6.204
305.30 6.197
305.40 6.189
305.50 6.181
305.60 6.174
305.70 6.166
305.80 6.159
305.90 6.151
306.00 6.144
306.10 6.137
306.20 6.129
306.30 6.122
306.40 6.114
306.50 6.107
306.60 6.099
306.70 6.092
306.80 6.085
306.90 6.077
307.00 6.07
307.10 6.062
307.20 6.055
307.30 6.048
307.40 6.041
307.50 6.033
307.60 6.026
307.70 6.019
307.80 6.011
307.90 6.004
308.00 5.997
308.10 5.99
308.20 5.982
308.30 5.975
308.40 5.968
308.50 5.961
308.60 5.954
308.70 5.946
308.80 5.939
308.90 5.932
309.00 5.925
309.10 5.918
309.20 5.911
309.30 5.904
309.40 5.896
309.50 5.889
309.60 5.882
309.70 5.875
309.80 5.868
309.90 5.861
310.00 5.854
310.10 5.847
310.20 5.84
310.30 5.833
310.40 5.826
310.50 5.819
310.60 5.812
310.70 5.805
310.80 5.798
310.90 5.791
311.00 5.784
311.10 5.777
311.20 5.771
311.30 5.764
311.40 5.757
311.50 5.75
311.60 5.743
311.70 5.736
311.80 5.729
311.90 5.722
312.00 5.716
312.10 5.709
312.20 5.702
312.30 5.695
312.40 5.688
312.50 5.682
312.60 5.675
312.70 5.668
312.80 5.661
312.90 5.655
313.00 5.648
313.10 5.641
313.20 5.634
313.30 5.628
313.40 5.621
313.50 5.614
313.60 5.608
313.70 5.601
313.80 5.594
313.90 5.588
314.00 5.581
314.10 5.575
314.20 5.568
314.30 5.561
314.40 5.555
314.50 5.548
314.60 5.542
314.70 5.535
314.80 5.529
314.90 5.522
315.00 5.515
315.10 5.509
315.20 5.502
315.30 5.496
315.40 5.489
315.50 5.483
315.60 5.477
315.70 5.47
315.80 5.464
315.90 5.457
316.00 5.451
316.10 5.444
316.20 5.438
316.30 5.432
316.40 5.425
316.50 5.419
316.60 5.412
316.70 5.406
316.80 5.4
316.90 5.393
317.00 5.387
317.10 5.381
317.20 5.374
317.30 5.368
317.40 5.362
317.50 5.355
317.60 5.349
317.70 5.343
317.80 5.337
317.90 5.33
318.00 5.324
318.10 5.318
318.20 5.312
318.30 5.305
318.40 5.299
318.50 5.293
318.60 5.287
318.70 5.281
318.80 5.274
318.90 5.268
319.00 5.262
319.10 5.256
319.20 5.25
319.30 5.244
319.40 5.238
319.50 5.232
319.60 5.225
319.70 5.219
319.80 5.213
319.90 5.207
320.00 5.201
320.10 5.195
320.20 5.189
320.30 5.183
320.40 5.177
320.50 5.171
320.60 5.165
320.70 5.159
320.80 5.153
320.90 5.147
321.00 5.141
321.10 5.135
321.20 5.129
321.30 5.123
321.40 5.117
321.50 5.111
321.60 5.105
321.70 5.099
321.80 5.093
321.90 5.088
322.00 5.082
322.10 5.076
322.20 5.07
322.30 5.064
322.40 5.058
322.50 5.052
322.60 5.047
322.70 5.041
322.80 5.035
322.90 5.029
323.00 5.023
323.10 5.017
323.20 5.012
323.30 5.006
323.40 5
323.50 4.994
323.60 4.989
323.70 4.983
323.80 4.977
323.90 4.971
324.00 4.966
324.10 4.96
324.20 4.954
324.30 4.949
324.40 4.943
324.50 4.937
324.60 4.931
324.70 4.926
324.80 4.92
324.90 4.915
325.00 4.909
325.10 4.903
325.20 4.898
325.30 4.892
325.40 4.886
325.50 4.881
325.60 4.875
325.70 4.87
325.80 4.864
325.90 4.858
326.00 4.853
326.10 4.847
326.20 4.842
326.30 4.836
326.40 4.831
326.50 4.825
326.60 4.82
326.70 4.814
326.80 4.809
326.90 4.803
327.00 4.798
327.10 4.792
327.20 4.787
327.30 4.781
327.40 4.776
327.50 4.77
327.60 4.765
327.70 4.76
327.80 4.754
327.90 4.749
328.00 4.743
328.10 4.738
328.20 4.733
328.30 4.727
328.40 4.722
328.50 4.716
328.60 4.711
328.70 4.706
328.80 4.7
328.90 4.695
329.00 4.69
329.10 4.684
329.20 4.679
329.30 4.674
329.40 4.669
329.50 4.663
329.60 4.658
329.70 4.653
329.80 4.647
329.90 4.642
330.00 4.637
330.10 4.632
330.20 4.627
330.30 4.621
330.40 4.616
330.50 4.611
330.60 4.606
330.70 4.6
330.80 4.595
330.90 4.59
331.00 4.585
331.10 4.58
331.20 4.575
331.30 4.569
331.40 4.564
331.50 4.559
331.60 4.554
331.70 4.549
331.80 4.544
331.90 4.539
332.00 4.533
332.10 4.528
332.20 4.523
332.30 4.518
332.40 4.513
332.50 4.508
332.60 4.503
332.70 4.498
332.80 4.493
332.90 4.488
333.00 4.483
333.10 4.478
333.20 4.473
333.30 4.468
333.40 4.463
333.50 4.458
333.60 4.453
333.70 4.448
333.80 4.443
333.90 4.438
334.00 4.433
334.10 4.428
334.20 4.423
334.30 4.418
334.40 4.413
334.50 4.408
334.60 4.403
334.70 4.398
334.80 4.394
334.90 4.389
335.00 4.384
335.10 4.379
335.20 4.374
335.30 4.369
335.40 4.364
335.50 4.359
335.60 4.354
335.70 4.35
335.80 4.345
335.90 4.34
336.00 4.335
336.10 4.33
336.20 4.325
336.30 4.321
336.40 4.316
336.50 4.311
336.60 4.306
336.70 4.302
336.80 4.297
336.90 4.292
337.00 4.287
337.10 4.283
337.20 4.278
337.30 4.273
337.40 4.268
337.50 4.264
337.60 4.259
337.70 4.254
337.80 4.249
337.90 4.245
338.00 4.24
338.10 4.235
338.20 4.231
338.30 4.226
338.40 4.221
338.50 4.217
338.60 4.212
338.70 4.207
338.80 4.203
338.90 4.198
339.00 4.193
339.10 4.189
339.20 4.184
339.30 4.18
339.40 4.175
339.50 4.17
339.60 4.166
339.70 4.161
339.80 4.157
339.90 4.152
340.00 4.147
340.10 4.143
340.20 4.138
340.30 4.134
340.40 4.129
340.50 4.125
340.60 4.12
340.70 4.116
340.80 4.111
340.90 4.107
341.00 4.102
341.10 4.098
341.20 4.093
341.30 4.089
341.40 4.084
341.50 4.08
341.60 4.075
341.70 4.071
341.80 4.066
341.90 4.062
342.00 4.057
342.10 4.053
342.20 4.049
342.30 4.044
342.40 4.04
342.50 4.035
342.60 4.031
342.70 4.027
342.80 4.022
342.90 4.018
343.00 4.013
343.10 4.009
343.20 4.005
343.30 4
343.40 3.996
343.50 3.992
343.60 3.987
343.70 3.983
343.80 3.979
343.90 3.974
344.00 3.97
344.10 3.966
344.20 3.961
344.30 3.957
344.40 3.953
344.50 3.948
344.60 3.944
344.70 3.94
344.80 3.936
344.90 3.931
345.00 3.927
345.10 3.923
345.20 3.919
345.30 3.914
345.40 3.91
345.50 3.906
345.60 3.902
345.70 3.897
345.80 3.893
345.90 3.889
346.00 3.885
346.10 3.88
346.20 3.876
346.30 3.872
346.40 3.868
346.50 3.864
346.60 3.86
346.70 3.855
346.80 3.851
346.90 3.847
347.00 3.843
347.10 3.839
347.20 3.835
347.30 3.831
347.40 3.826
347.50 3.822
347.60 3.818
347.70 3.814
347.80 3.81
347.90 3.806
348.00 3.802
348.10 3.798
348.20 3.794
348.30 3.79
348.40 3.785
348.50 3.781
348.60 3.777
348.70 3.773
348.80 3.769
348.90 3.765
349.00 3.761
349.10 3.757
349.20 3.753
349.30 3.749
349.40 3.745
349.50 3.741
349.60 3.737
349.70 3.733
349.80 3.729
349.90 3.725
350.00 3.721
350.10 3.717
350.20 3.713
350.30 3.709
350.40 3.705
350.50 3.701
350.60 3.697
350.70 3.693
350.80 3.689
350.90 3.685
351.00 3.682
351.10 3.678
351.20 3.674
351.30 3.67
351.40 3.666
351.50 3.662
351.60 3.658
351.70 3.654
351.80 3.65
351.90 3.646
352.00 3.642
352.10 3.639
352.20 3.635
352.30 3.631
352.40 3.627
352.50 3.623
352.60 3.619
352.70 3.616
352.80 3.612
352.90 3.608
353.00 3.604
353.10 3.6
353.20 3.596
353.30 3.593
353.40 3.589
353.50 3.585
353.60 3.581
353.70 3.577
353.80 3.574
353.90 3.57
354.00 3.566
354.10 3.562
354.20 3.558
354.30 3.555
354.40 3.551
354.50 3.547
354.60 3.543
354.70 3.54
354.80 3.536
354.90 3.532
355.00 3.529
355.10 3.525
355.20 3.521
355.30 3.517
355.40 3.514
355.50 3.51
355.60 3.506
355.70 3.503
355.80 3.499
355.90 3.495
356.00 3.491
356.10 3.488
356.20 3.484
356.30 3.48
356.40 3.477
356.50 3.473
356.60 3.47
356.70 3.466
356.80 3.462
356.90 3.459
357.00 3.455
357.10 3.451
357.20 3.448
357.30 3.444
357.40 3.441
357.50 3.437
357.60 3.433
357.70 3.43
357.80 3.426
357.90 3.422
358.00 3.419
358.10 3.415
358.20 3.412
358.30 3.408
358.40 3.405
358.50 3.401
358.60 3.398
358.70 3.394
358.80 3.39
358.90 3.387
359.00 3.383
359.10 3.38
359.20 3.376
359.30 3.373
359.40 3.369
359.50 3.366
359.60 3.362
359.70 3.359
359.80 3.355
359.90 3.352
360.00 3.348
360.10 3.345
360.20 3.341
360.30 3.338
360.40 3.334
360.50 3.331
360.60 3.327
360.70 3.324
360.80 3.321
360.90 3.317
361.00 3.314
361.10 3.31
361.20 3.307
361.30 3.303
361.40 3.3
361.50 3.296
361.60 3.293
361.70 3.29
361.80 3.286
361.90 3.283
362.00 3.279
362.10 3.276
362.20 3.273
362.30 3.269
362.40 3.266
362.50 3.262
362.60 3.259
362.70 3.256
362.80 3.252
362.90 3.249
363.00 3.246
363.10 3.242
363.20 3.239
363.30 3.236
363.40 3.232
363.50 3.229
363.60 3.226
363.70 3.222
363.80 3.219
363.90 3.216
364.00 3.212
364.10 3.209
364.20 3.206
364.30 3.202
364.40 3.199
364.50 3.196
364.60 3.192
364.70 3.189
364.80 3.186
364.90 3.183
365.00 3.179
365.10 3.176
365.20 3.173
365.30 3.17
365.40 3.166
365.50 3.163
365.60 3.16
365.70 3.157
365.80 3.153
365.90 3.15
366.00 3.147
366.10 3.144
366.20 3.14
366.30 3.137
366.40 3.134
366.50 3.131
366.60 3.127
366.70 3.124
366.80 3.121
366.90 3.118
367.00 3.114
367.10 3.111
367.20 3.108
367.30 3.105
367.40 3.101
367.50 3.098
367.60 3.095
367.70 3.092
367.80 3.088
367.90 3.085
368.00 3.082
368.10 3.079
368.20 3.076
368.30 3.072
368.40 3.069
368.50 3.066
368.60 3.063
368.70 3.06
368.80 3.056
368.90 3.053
369.00 3.05
369.10 3.047
369.20 3.044
369.30 3.04
369.40 3.037
369.50 3.034
369.60 3.031
369.70 3.028
369.80 3.025
369.90 3.021
370.00 3.018
370.10 3.015
370.20 3.012
370.30 3.009
370.40 3.006
370.50 3.003
370.60 3
370.70 2.997
370.80 2.993
370.90 2.99
371.00 2.987
371.10 2.984
371.20 2.981
371.30 2.978
371.40 2.975
371.50 2.972
371.60 2.969
371.70 2.966
371.80 2.963
371.90 2.96
372.00 2.956
372.10 2.953
372.20 2.95
372.30 2.947
372.40 2.944
372.50 2.941
372.60 2.938
372.70 2.935
372.80 2.932
372.90 2.93
373.00 2.927
373.10 2.924
373.20 2.921
373.30 2.918
373.40 2.915
373.50 2.912
373.60 2.909
373.70 2.906
373.80 2.903
373.90 2.9
374.00 2.897
374.10 2.894
374.20 2.891
374.30 2.888
374.40 2.885
374.50 2.882
374.60 2.879
374.70 2.876
374.80 2.873
374.90 2.87
375.00 2.868
375.10 2.865
375.20 2.862
375.30 2.859
375.40 2.856
375.50 2.853
375.60 2.85
375.70 2.847
375.80 2.844
375.90 2.841
376.00 2.838
376.10 2.836
376.20 2.833
376.30 2.83
376.40 2.827
376.50 2.824
376.60 2.821
376.70 2.819
376.80 2.816
376.90 2.813
377.00 2.81
377.10 2.807
377.20 2.805
377.30 2.802
377.40 2.799
377.50 2.796
377.60 2.794
377.70 2.791
377.80 2.788
377.90 2.785
378.00 2.783
378.10 2.78
378.20 2.777
378.30 2.774
378.40 2.772
378.50 2.769
378.60 2.766
378.70 2.764
378.80 2.761
378.90 2.758
379.00 2.755
379.10 2.753
379.20 2.75
379.30 2.747
379.40 2.745
379.50 2.742
379.60 2.74
379.70 2.737
379.80 2.734
379.90 2.732
380.00 2.729
380.10 2.726
380.20 2.724
380.30 2.721
380.40 2.719
380.50 2.716
380.60 2.714
380.70 2.711
380.80 2.709
380.90 2.706
381.00 2.703
381.10 2.701
381.20 2.698
381.30 2.696
381.40 2.693
381.50 2.691
381.60 2.688
381.70 2.686
381.80 2.683
381.90 2.68
382.00 2.678
382.10 2.675
382.20 2.672
382.30 2.67
382.40 2.667
382.50 2.665
382.60 2.662
382.70 2.659
382.80 2.657
382.90 2.654
383.00 2.652
383.10 2.649
383.20 2.646
383.30 2.644
383.40 2.641
383.50 2.639
383.60 2.637
383.70 2.634
383.80 2.632
383.90 2.63
384.00 2.628
384.10 2.625
384.20 2.623
384.30 2.621
384.40 2.619
384.50 2.617
384.60 2.614
384.70 2.612
384.80 2.61
384.90 2.608
385.00 2.605
385.10 2.603
385.20 2.601
385.30 2.599
385.40 2.596
385.50 2.594
385.60 2.591
385.70 2.589
385.80 2.587
385.90 2.584
386.00 2.582
386.10 2.579
386.20 2.576
386.30 2.574
386.40 2.571
386.50 2.568
386.60 2.566
386.70 2.563
386.80 2.56
386.90 2.557
387.00 2.555
387.10 2.552
387.20 2.549
387.30 2.546
387.40 2.543
387.50 2.54
387.60 2.537
387.70 2.534
387.80 2.531
387.90 2.528
388.00 2.525
388.10 2.522
388.20 2.519
388.30 2.517
388.40 2.514
388.50 2.511
388.60 2.508
388.70 2.506
388.80 2.504
388.90 2.502
389.00 2.499
389.10 2.497
389.20 2.496
389.30 2.494
389.40 2.492
389.50 2.491
389.60 2.489
389.70 2.488
389.80 2.487
389.90 2.485
390.00 2.484
390.10 2.483
390.20 2.481
390.30 2.48
390.40 2.479
390.50 2.477
390.60 2.476
390.70 2.474
390.80 2.473
390.90 2.471
391.00 2.469
391.10 2.468
391.20 2.466
391.30 2.464
391.40 2.463
391.50 2.461
391.60 2.459
391.70 2.457
391.80 2.455
391.90 2.453
392.00 2.451
392.10 2.449
392.20 2.446
392.30 2.444
392.40 2.442
392.50 2.44
392.60 2.437
392.70 2.435
392.80 2.432
392.90 2.429
393.00 2.427
393.10 2.424
393.20 2.421
393.30 2.418
393.40 2.416
393.50 2.413
393.60 2.41
393.70 2.406
393.80 2.403
393.90 2.4
394.00 2.397
394.10 2.393
394.20 2.39
394.30 2.386
394.40 2.383
394.50 2.379
394.60 2.375
394.70 2.372
394.80 2.368
394.90 2.364
395.00 2.36
395.10 2.356
395.20 2.352
395.30 2.348
395.40 2.343
395.50 2.339
395.60 2.335
395.70 2.33
395.80 2.326
395.90 2.321
396.00 2.317
396.10 2.312
396.20 2.308
396.30 2.303
396.40 2.299
396.50 2.295
396.60 2.29
396.70 2.286
396.80 2.282
396.90 2.278
397.00 2.275
397.10 2.274
397.20 2.274
397.30 2.274
397.40 2.274
397.50 2.275
397.60 2.275
397.70 2.276
397.80 2.276
397.90 2.277
398.00 2.277
398.10 2.278
398.20 2.278
398.30 2.279
398.40 2.279
398.50 2.279
398.60 2.28
398.70 2.28
398.80 2.28
398.90 2.28
399.00 2.281
399.10 2.281
399.20 2.281
399.30 2.28
399.40 2.28
399.50 2.28
399.60 2.28
399.70 2.28
399.80 2.279
399.90 2.279
400.00 2.278
400.10 2.278
400.20 2.277
400.30 2.276
400.40 2.275
400.50 2.275
400.60 2.274
400.70 2.273
400.80 2.272
400.90 2.271
401.00 2.27
401.10 2.268
401.20 2.267
401.30 2.266
401.40 2.265
401.50 2.263
401.60 2.262
401.70 2.261
401.80 2.259
401.90 2.258
402.00 2.256
402.10 2.254
402.20 2.253
402.30 2.251
402.40 2.249
402.50 2.248
402.60 2.246
402.70 2.244
402.80 2.242
402.90 2.24
403.00 2.238
403.10 2.236
403.20 2.234
403.30 2.232
403.40 2.23
403.50 2.228
403.60 2.226
403.70 2.223
403.80 2.221
403.90 2.219
404.00 2.216
404.10 2.214
404.20 2.211
404.30 2.209
404.40 2.206
404.50 2.204
404.60 2.201
404.70 2.198
404.80 2.196
404.90 2.193
405.00 2.19
405.10 2.187
405.20 2.184
405.30 2.181
405.40 2.178
405.50 2.175
405.60 2.172
405.70 2.168
405.80 2.165
405.90 2.162
406.00 2.158
406.10 2.155
406.20 2.151
406.30 2.147
406.40 2.143
406.50 2.139
406.60 2.136
406.70 2.131
406.80 2.127
406.90 2.123
407.00 2.119
407.10 2.114
407.20 2.11
407.30 2.105
407.40 2.1
407.50 2.096
407.60 2.091
407.70 2.086
407.80 2.08
407.90 2.075
408.00 2.07
408.10 2.064
408.20 2.058
408.30 2.053
408.40 2.047
408.50 2.041
408.60 2.034
408.70 2.028
408.80 2.022
408.90 2.015
409.00 2.009
409.10 2.002
409.20 1.995
409.30 1.989
409.40 1.982
409.50 1.976
409.60 1.969
409.70 1.963
409.80 1.958
409.90 1.954
410.00 1.952
410.10 1.952
410.20 1.953
410.30 1.948
410.40 1.945
410.50 1.945
410.60 1.946
410.70 1.948
410.80 1.951
410.90 1.954
411.00 1.957
411.10 1.96
411.20 1.963
411.30 1.966
411.40 1.97
411.50 1.972
411.60 1.975
411.70 1.978
411.80 1.98
411.90 1.983
412.00 1.985
412.10 1.987
412.20 1.989
412.30 1.991
412.40 1.993
412.50 1.995
412.60 1.996
412.70 1.998
412.80 1.999
412.90 2
413.00 2.001
413.10 2.002
413.20 2.003
413.30 2.004
413.40 2.004
413.50 2.005
413.60 2.005
413.70 2.006
413.80 2.006
413.90 2.006
414.00 2.006
414.10 2.006
414.20 2.006
414.30 2.006
414.40 2.006
414.50 2.006
414.60 2.005
414.70 2.005
414.80 2.005
414.90 2.004
415.00 2.004
415.10 2.003
415.20 2.002
415.30 2.002
415.40 2.001
415.50 2
415.60 1.999
415.70 1.998
415.80 1.997
415.90 1.996
416.00 1.995
416.10 1.994
416.20 1.993
416.30 1.992
416.40 1.991
416.50 1.99
416.60 1.989
416.70 1.988
416.80 1.987
416.90 1.985
417.00 1.984
417.10 1.983
417.20 1.981
417.30 1.98
417.40 1.979
417.50 1.978
417.60 1.976
417.70 1.975
417.80 1.973
417.90 1.972
418.00 1.971
418.10 1.969
418.20 1.968
418.30 1.966
418.40 1.965
418.50 1.963
418.60 1.962
418.70 1.96
418.80 1.959
418.90 1.957
419.00 1.956
419.10 1.954
419.20 1.953
419.30 1.951
419.40 1.949
419.50 1.948
419.60 1.946
419.70 1.945
419.80 1.943
419.90 1.941
420.00 1.94
420.10 1.938
420.20 1.937
420.30 1.935
420.40 1.933
420.50 1.932
420.60 1.93
420.70 1.928
420.80 1.927
420.90 1.925
421.00 1.923
421.10 1.922
421.20 1.92
421.30 1.918
421.40 1.917
421.50 1.915
421.60 1.913
421.70 1.912
421.80 1.91
421.90 1.908
422.00 1.906
422.10 1.905
422.20 1.903
422.30 1.901
422.40 1.899
422.50 1.898
422.60 1.896
422.70 1.894
422.80 1.893
422.90 1.891
423.00 1.889
423.10 1.887
423.20 1.885
423.30 1.884
423.40 1.882
423.50 1.88
423.60 1.878
423.70 1.877
423.80 1.875
423.90 1.873
424.00 1.871
424.10 1.869
424.20 1.868
424.30 1.866
424.40 1.864
424.50 1.862
424.60 1.86
424.70 1.858
424.80 1.857
424.90 1.855
425.00 1.853
425.10 1.851
425.20 1.849
425.30 1.847
425.40 1.845
425.50 1.843
425.60 1.841
425.70 1.839
425.80 1.838
425.90 1.836
426.00 1.834
426.10 1.832
426.20 1.83
426.30 1.828
426.40 1.826
426.50 1.824
426.60 1.821
426.70 1.819
426.80 1.817
426.90 1.815
427.00 1.813
427.10 1.811
427.20 1.809
427.30 1.807
427.40 1.804
427.50 1.802
427.60 1.8
427.70 1.798
427.80 1.795
427.90 1.793
428.00 1.791
428.10 1.788
428.20 1.786
428.30 1.783
428.40 1.781
428.50 1.778
428.60 1.776
428.70 1.773
428.80 1.771
428.90 1.768
429.00 1.765
429.10 1.762
429.20 1.759
429.30 1.757
429.40 1.754
429.50 1.751
429.60 1.748
429.70 1.744
429.80 1.741
429.90 1.738
430.00 1.734
430.10 1.731
430.20 1.727
430.30 1.724
430.40 1.72
430.50 1.716
430.60 1.712
430.70 1.708
430.80 1.704
430.90 1.7
431.00 1.696
431.10 1.691
431.20 1.687
431.30 1.682
431.40 1.677
431.50 1.672
431.60 1.667
431.70 1.661
431.80 1.656
431.90 1.65
432.00 1.645
432.10 1.639
432.20 1.633
432.30 1.626
432.40 1.62
432.50 1.614
432.60 1.607
432.70 1.6
432.80 1.593
432.90 1.586
433.00 1.579
433.10 1.572
433.20 1.565
433.30 1.558
433.40 1.551
433.50 1.544
433.60 1.537
433.70 1.531
433.80 1.525
433.90 1.518
434.00 1.513
434.10 1.512
434.20 1.515
434.30 1.519
434.40 1.522
434.50 1.526
434.60 1.53
434.70 1.535
434.80 1.539
434.90 1.543
435.00 1.548
435.10 1.552
435.20 1.557
435.30 1.561
435.40 1.565
435.50 1.569
435.60 1.573
435.70 1.576
435.80 1.58
435.90 1.583
436.00 1.586
436.10 1.589
436.20 1.592
436.30 1.595
436.40 1.597
436.50 1.6
436.60 1.602
436.70 1.604
436.80 1.606
436.90 1.608
437.00 1.609
437.10 1.611
437.20 1.612
437.30 1.613
437.40 1.614
437.50 1.615
437.60 1.616
437.70 1.617
437.80 1.618
437.90 1.618
438.00 1.619
438.10 1.619
438.20 1.619
438.30 1.62
438.40 1.62
438.50 1.62
438.60 1.62
438.70 1.62
438.80 1.62
438.90 1.62
439.00 1.619
439.10 1.619
439.20 1.619
439.30 1.618
439.40 1.618
439.50 1.617
439.60 1.617
439.70 1.616
439.80 1.616
439.90 1.615
440.00 1.615
440.10 1.614
440.20 1.613
440.30 1.612
440.40 1.612
440.50 1.611
440.60 1.61
440.70 1.609
440.80 1.608
440.90 1.607
441.00 1.607
441.10 1.606
441.20 1.605
441.30 1.604
441.40 1.603
441.50 1.602
441.60 1.601
441.70 1.6
441.80 1.599
441.90 1.598
442.00 1.597
442.10 1.596
442.20 1.594
442.30 1.593
442.40 1.592
442.50 1.591
442.60 1.59
442.70 1.589
442.80 1.588
442.90 1.587
443.00 1.586
443.10 1.584
443.20 1.583
443.30 1.582
443.40 1.581
443.50 1.58
443.60 1.579
443.70 1.577
443.80 1.576
443.90 1.575
444.00 1.574
444.10 1.573
444.20 1.571
444.30 1.57
444.40 1.569
444.50 1.568
444.60 1.566
444.70 1.565
444.80 1.564
444.90 1.563
445.00 1.562
445.10 1.56
445.20 1.559
445.30 1.558
445.40 1.557
445.50 1.555
445.60 1.554
445.70 1.553
445.80 1.552
445.90 1.55
446.00 1.549
446.10 1.548
446.20 1.547
446.30 1.545
446.40 1.544
446.50 1.543
446.60 1.542
446.70 1.54
446.80 1.539
446.90 1.538
447.00 1.537
447.10 1.535
447.20 1.534
447.30 1.533
447.40 1.532
447.50 1.53
447.60 1.529
447.70 1.528
447.80 1.527
447.90 1.525
448.00 1.524
448.10 1.523
448.20 1.522
448.30 1.52
448.40 1.519
448.50 1.518
448.60 1.517
448.70 1.515
448.80 1.514
448.90 1.513
449.00 1.512
449.10 1.51
449.20 1.509
449.30 1.508
449.40 1.506
449.50 1.505
449.60 1.504
449.70 1.503
449.80 1.501
449.90 1.5
450.00 1.499
450.10 1.498
450.20 1.496
450.30 1.495
450.40 1.494
450.50 1.493
450.60 1.491
450.70 1.49
450.80 1.489
450.90 1.488
451.00 1.487
451.10 1.485
451.20 1.484
451.30 1.483
451.40 1.482
451.50 1.48
451.60 1.479
451.70 1.478
451.80 1.477
451.90 1.475
452.00 1.474
452.10 1.473
452.20 1.472
452.30 1.47
452.40 1.469
452.50 1.468
452.60 1.467
452.70 1.466
452.80 1.464
452.90 1.463
453.00 1.462
453.10 1.461
453.20 1.459
453.30 1.458
453.40 1.457
453.50 1.456
453.60 1.455
453.70 1.453
453.80 1.452
453.90 1.451
454.00 1.45
454.10 1.448
454.20 1.447
