# Version 2.1 - nm, norm@500 to 1, cut digits, bergeron_120000_65.dat_120000
# Wavelength(nm)  Flambda(ergs/cm^s/s/nm)
300.00 6.949
300.10 6.94
300.20 6.932
300.30 6.923
300.40 6.914
300.50 6.905
300.60 6.897
300.70 6.888
300.80 6.879
300.90 6.871
301.00 6.862
301.10 6.853
301.20 6.845
301.30 6.836
301.40 6.827
301.50 6.819
301.60 6.81
301.70 6.802
301.80 6.793
301.90 6.784
302.00 6.776
302.10 6.767
302.20 6.759
302.30 6.75
302.40 6.742
302.50 6.733
302.60 6.725
302.70 6.717
302.80 6.708
302.90 6.7
303.00 6.691
303.10 6.683
303.20 6.675
303.30 6.666
303.40 6.658
303.50 6.649
303.60 6.641
303.70 6.633
303.80 6.625
303.90 6.616
304.00 6.608
304.10 6.6
304.20 6.592
304.30 6.583
304.40 6.575
304.50 6.567
304.60 6.559
304.70 6.55
304.80 6.542
304.90 6.534
305.00 6.526
305.10 6.518
305.20 6.51
305.30 6.502
305.40 6.494
305.50 6.486
305.60 6.477
305.70 6.469
305.80 6.461
305.90 6.453
306.00 6.445
306.10 6.437
306.20 6.429
306.30 6.421
306.40 6.413
306.50 6.405
306.60 6.397
306.70 6.39
306.80 6.382
306.90 6.374
307.00 6.366
307.10 6.358
307.20 6.35
307.30 6.342
307.40 6.334
307.50 6.327
307.60 6.319
307.70 6.311
307.80 6.303
307.90 6.295
308.00 6.288
308.10 6.28
308.20 6.272
308.30 6.264
308.40 6.257
308.50 6.249
308.60 6.241
308.70 6.234
308.80 6.226
308.90 6.218
309.00 6.211
309.10 6.203
309.20 6.195
309.30 6.188
309.40 6.18
309.50 6.172
309.60 6.165
309.70 6.157
309.80 6.15
309.90 6.142
310.00 6.135
310.10 6.127
310.20 6.12
310.30 6.112
310.40 6.105
310.50 6.097
310.60 6.09
310.70 6.082
310.80 6.075
310.90 6.067
311.00 6.06
311.10 6.053
311.20 6.045
311.30 6.038
311.40 6.03
311.50 6.023
311.60 6.016
311.70 6.008
311.80 6.001
311.90 5.994
312.00 5.986
312.10 5.979
312.20 5.972
312.30 5.964
312.40 5.957
312.50 5.95
312.60 5.943
312.70 5.935
312.80 5.928
312.90 5.921
313.00 5.914
313.10 5.907
313.20 5.899
313.30 5.892
313.40 5.885
313.50 5.878
313.60 5.871
313.70 5.864
313.80 5.857
313.90 5.85
314.00 5.842
314.10 5.835
314.20 5.828
314.30 5.821
314.40 5.814
314.50 5.807
314.60 5.8
314.70 5.793
314.80 5.786
314.90 5.779
315.00 5.772
315.10 5.765
315.20 5.758
315.30 5.751
315.40 5.744
315.50 5.737
315.60 5.731
315.70 5.724
315.80 5.717
315.90 5.71
316.00 5.703
316.10 5.696
316.20 5.689
316.30 5.682
316.40 5.675
316.50 5.669
316.60 5.662
316.70 5.655
316.80 5.648
316.90 5.641
317.00 5.635
317.10 5.628
317.20 5.621
317.30 5.614
317.40 5.608
317.50 5.601
317.60 5.594
317.70 5.588
317.80 5.581
317.90 5.574
318.00 5.568
318.10 5.561
318.20 5.554
318.30 5.548
318.40 5.541
318.50 5.534
318.60 5.528
318.70 5.521
318.80 5.514
318.90 5.508
319.00 5.501
319.10 5.495
319.20 5.488
319.30 5.482
319.40 5.475
319.50 5.469
319.60 5.462
319.70 5.456
319.80 5.449
319.90 5.443
320.00 5.436
320.10 5.43
320.20 5.423
320.30 5.417
320.40 5.41
320.50 5.404
320.60 5.397
320.70 5.391
320.80 5.385
320.90 5.378
321.00 5.372
321.10 5.365
321.20 5.359
321.30 5.353
321.40 5.346
321.50 5.34
321.60 5.334
321.70 5.327
321.80 5.321
321.90 5.315
322.00 5.309
322.10 5.302
322.20 5.296
322.30 5.29
322.40 5.283
322.50 5.277
322.60 5.271
322.70 5.265
322.80 5.259
322.90 5.252
323.00 5.246
323.10 5.24
323.20 5.234
323.30 5.228
323.40 5.221
323.50 5.215
323.60 5.209
323.70 5.203
323.80 5.197
323.90 5.191
324.00 5.185
324.10 5.179
324.20 5.173
324.30 5.166
324.40 5.16
324.50 5.154
324.60 5.148
324.70 5.142
324.80 5.136
324.90 5.13
325.00 5.124
325.10 5.118
325.20 5.112
325.30 5.106
325.40 5.1
325.50 5.094
325.60 5.088
325.70 5.082
325.80 5.076
325.90 5.07
326.00 5.065
326.10 5.059
326.20 5.053
326.30 5.047
326.40 5.041
326.50 5.035
326.60 5.029
326.70 5.023
326.80 5.017
326.90 5.012
327.00 5.006
327.10 5
327.20 4.994
327.30 4.988
327.40 4.982
327.50 4.977
327.60 4.971
327.70 4.965
327.80 4.959
327.90 4.954
328.00 4.948
328.10 4.942
328.20 4.936
328.30 4.931
328.40 4.925
328.50 4.919
328.60 4.913
328.70 4.908
328.80 4.902
328.90 4.896
329.00 4.891
329.10 4.885
329.20 4.879
329.30 4.874
329.40 4.868
329.50 4.862
329.60 4.857
329.70 4.851
329.80 4.846
329.90 4.84
330.00 4.834
330.10 4.829
330.20 4.823
330.30 4.818
330.40 4.812
330.50 4.807
330.60 4.801
330.70 4.796
330.80 4.79
330.90 4.784
331.00 4.779
331.10 4.773
331.20 4.768
331.30 4.762
331.40 4.757
331.50 4.751
331.60 4.746
331.70 4.741
331.80 4.735
331.90 4.73
332.00 4.724
332.10 4.719
332.20 4.713
332.30 4.708
332.40 4.703
332.50 4.697
332.60 4.692
332.70 4.686
332.80 4.681
332.90 4.676
333.00 4.67
333.10 4.665
333.20 4.66
333.30 4.654
333.40 4.649
333.50 4.644
333.60 4.638
333.70 4.633
333.80 4.628
333.90 4.622
334.00 4.617
334.10 4.612
334.20 4.607
334.30 4.601
334.40 4.596
334.50 4.591
334.60 4.586
334.70 4.58
334.80 4.575
334.90 4.57
335.00 4.565
335.10 4.56
335.20 4.554
335.30 4.549
335.40 4.544
335.50 4.539
335.60 4.534
335.70 4.529
335.80 4.523
335.90 4.518
336.00 4.513
336.10 4.508
336.20 4.503
336.30 4.498
336.40 4.493
336.50 4.488
336.60 4.483
336.70 4.477
336.80 4.472
336.90 4.467
337.00 4.462
337.10 4.457
337.20 4.452
337.30 4.447
337.40 4.442
337.50 4.437
337.60 4.432
337.70 4.427
337.80 4.422
337.90 4.417
338.00 4.412
338.10 4.407
338.20 4.402
338.30 4.397
338.40 4.392
338.50 4.387
338.60 4.382
338.70 4.377
338.80 4.372
338.90 4.367
339.00 4.363
339.10 4.358
339.20 4.353
339.30 4.348
339.40 4.343
339.50 4.338
339.60 4.333
339.70 4.328
339.80 4.323
339.90 4.319
340.00 4.314
340.10 4.309
340.20 4.304
340.30 4.299
340.40 4.294
340.50 4.29
340.60 4.285
340.70 4.28
340.80 4.275
340.90 4.27
341.00 4.266
341.10 4.261
341.20 4.256
341.30 4.251
341.40 4.247
341.50 4.242
341.60 4.237
341.70 4.232
341.80 4.228
341.90 4.223
342.00 4.218
342.10 4.213
342.20 4.209
342.30 4.204
342.40 4.199
342.50 4.195
342.60 4.19
342.70 4.185
342.80 4.181
342.90 4.176
343.00 4.171
343.10 4.167
343.20 4.162
343.30 4.157
343.40 4.153
343.50 4.148
343.60 4.144
343.70 4.139
343.80 4.134
343.90 4.13
344.00 4.125
344.10 4.121
344.20 4.116
344.30 4.111
344.40 4.107
344.50 4.102
344.60 4.098
344.70 4.093
344.80 4.089
344.90 4.084
345.00 4.08
345.10 4.075
345.20 4.071
345.30 4.066
345.40 4.062
345.50 4.057
345.60 4.053
345.70 4.048
345.80 4.044
345.90 4.039
346.00 4.035
346.10 4.03
346.20 4.026
346.30 4.021
346.40 4.017
346.50 4.013
346.60 4.008
346.70 4.004
346.80 3.999
346.90 3.995
347.00 3.991
347.10 3.986
347.20 3.982
347.30 3.977
347.40 3.973
347.50 3.969
347.60 3.964
347.70 3.96
347.80 3.956
347.90 3.951
348.00 3.947
348.10 3.943
348.20 3.938
348.30 3.934
348.40 3.93
348.50 3.925
348.60 3.921
348.70 3.917
348.80 3.912
348.90 3.908
349.00 3.904
349.10 3.9
349.20 3.895
349.30 3.891
349.40 3.887
349.50 3.883
349.60 3.878
349.70 3.874
349.80 3.87
349.90 3.866
350.00 3.861
350.10 3.857
350.20 3.853
350.30 3.849
350.40 3.845
350.50 3.84
350.60 3.836
350.70 3.832
350.80 3.828
350.90 3.824
351.00 3.819
351.10 3.815
351.20 3.811
351.30 3.807
351.40 3.803
351.50 3.799
351.60 3.795
351.70 3.79
351.80 3.786
351.90 3.782
352.00 3.778
352.10 3.774
352.20 3.77
352.30 3.766
352.40 3.762
352.50 3.758
352.60 3.754
352.70 3.75
352.80 3.745
352.90 3.741
353.00 3.737
353.10 3.733
353.20 3.729
353.30 3.725
353.40 3.721
353.50 3.717
353.60 3.713
353.70 3.709
353.80 3.705
353.90 3.701
354.00 3.697
354.10 3.693
354.20 3.689
354.30 3.685
354.40 3.681
354.50 3.677
354.60 3.673
354.70 3.669
354.80 3.665
354.90 3.661
355.00 3.657
355.10 3.653
355.20 3.65
355.30 3.646
355.40 3.642
355.50 3.638
355.60 3.634
355.70 3.63
355.80 3.626
355.90 3.622
356.00 3.618
356.10 3.614
356.20 3.61
356.30 3.607
356.40 3.603
356.50 3.599
356.60 3.595
356.70 3.591
356.80 3.587
356.90 3.583
357.00 3.58
357.10 3.576
357.20 3.572
357.30 3.568
357.40 3.564
357.50 3.56
357.60 3.557
357.70 3.553
357.80 3.549
357.90 3.545
358.00 3.541
358.10 3.538
358.20 3.534
358.30 3.53
358.40 3.526
358.50 3.523
358.60 3.519
358.70 3.515
358.80 3.511
358.90 3.508
359.00 3.504
359.10 3.5
359.20 3.496
359.30 3.493
359.40 3.489
359.50 3.485
359.60 3.482
359.70 3.478
359.80 3.474
359.90 3.47
360.00 3.467
360.10 3.463
360.20 3.459
360.30 3.456
360.40 3.452
360.50 3.448
360.60 3.445
360.70 3.441
360.80 3.437
360.90 3.434
361.00 3.43
361.10 3.427
361.20 3.423
361.30 3.419
361.40 3.416
361.50 3.412
361.60 3.408
361.70 3.405
361.80 3.401
361.90 3.398
362.00 3.394
362.10 3.39
362.20 3.387
362.30 3.383
362.40 3.38
362.50 3.376
362.60 3.373
362.70 3.369
362.80 3.365
362.90 3.362
363.00 3.358
363.10 3.355
363.20 3.351
363.30 3.348
363.40 3.344
363.50 3.341
363.60 3.337
363.70 3.334
363.80 3.33
363.90 3.327
364.00 3.323
364.10 3.32
364.20 3.316
364.30 3.313
364.40 3.309
364.50 3.306
364.60 3.302
364.70 3.299
364.80 3.295
364.90 3.292
365.00 3.288
365.10 3.285
365.20 3.282
365.30 3.278
365.40 3.275
365.50 3.271
365.60 3.268
365.70 3.264
365.80 3.261
365.90 3.257
366.00 3.254
366.10 3.251
366.20 3.247
366.30 3.244
366.40 3.24
366.50 3.237
366.60 3.233
366.70 3.23
366.80 3.227
366.90 3.223
367.00 3.22
367.10 3.216
367.20 3.213
367.30 3.21
367.40 3.206
367.50 3.203
367.60 3.199
367.70 3.196
367.80 3.193
367.90 3.189
368.00 3.186
368.10 3.182
368.20 3.179
368.30 3.176
368.40 3.172
368.50 3.169
368.60 3.166
368.70 3.162
368.80 3.159
368.90 3.156
369.00 3.152
369.10 3.149
369.20 3.146
369.30 3.142
369.40 3.139
369.50 3.136
369.60 3.132
369.70 3.129
369.80 3.126
369.90 3.123
370.00 3.119
370.10 3.116
370.20 3.113
370.30 3.11
370.40 3.106
370.50 3.103
370.60 3.1
370.70 3.097
370.80 3.093
370.90 3.09
371.00 3.087
371.10 3.084
371.20 3.08
371.30 3.077
371.40 3.074
371.50 3.071
371.60 3.068
371.70 3.064
371.80 3.061
371.90 3.058
372.00 3.055
372.10 3.052
372.20 3.048
372.30 3.045
372.40 3.042
372.50 3.039
372.60 3.036
372.70 3.033
372.80 3.03
372.90 3.027
373.00 3.024
373.10 3.02
373.20 3.017
373.30 3.014
373.40 3.011
373.50 3.008
373.60 3.005
373.70 3.002
373.80 2.999
373.90 2.996
374.00 2.993
374.10 2.99
374.20 2.987
374.30 2.984
374.40 2.981
374.50 2.978
374.60 2.975
374.70 2.972
374.80 2.969
374.90 2.966
375.00 2.963
375.10 2.96
375.20 2.957
375.30 2.954
375.40 2.951
375.50 2.948
375.60 2.945
375.70 2.942
375.80 2.939
375.90 2.937
376.00 2.934
376.10 2.93
376.20 2.927
376.30 2.924
376.40 2.921
376.50 2.918
376.60 2.915
376.70 2.911
376.80 2.908
376.90 2.905
377.00 2.902
377.10 2.9
377.20 2.897
377.30 2.895
377.40 2.892
377.50 2.89
377.60 2.887
377.70 2.885
377.80 2.882
377.90 2.88
378.00 2.877
378.10 2.874
378.20 2.871
378.30 2.868
378.40 2.865
378.50 2.862
378.60 2.859
378.70 2.856
378.80 2.853
378.90 2.85
379.00 2.846
379.10 2.843
379.20 2.84
379.30 2.837
379.40 2.833
379.50 2.83
379.60 2.827
379.70 2.823
379.80 2.82
379.90 2.817
380.00 2.814
380.10 2.812
380.20 2.81
380.30 2.809
380.40 2.807
380.50 2.805
380.60 2.804
380.70 2.802
380.80 2.8
380.90 2.799
381.00 2.797
381.10 2.795
381.20 2.792
381.30 2.79
381.40 2.787
381.50 2.784
381.60 2.782
381.70 2.778
381.80 2.775
381.90 2.772
382.00 2.768
382.10 2.765
382.20 2.761
382.30 2.756
382.40 2.751
382.50 2.746
382.60 2.742
382.70 2.737
382.80 2.732
382.90 2.727
383.00 2.722
383.10 2.718
383.20 2.713
383.30 2.707
383.40 2.701
383.50 2.697
383.60 2.695
383.70 2.695
383.80 2.695
383.90 2.696
384.00 2.697
384.10 2.698
384.20 2.698
384.30 2.698
384.40 2.698
384.50 2.698
384.60 2.697
384.70 2.697
384.80 2.696
384.90 2.695
385.00 2.694
385.10 2.693
385.20 2.691
385.30 2.69
385.40 2.688
385.50 2.686
385.60 2.684
385.70 2.682
385.80 2.68
385.90 2.677
386.00 2.675
386.10 2.672
386.20 2.669
386.30 2.666
386.40 2.663
386.50 2.66
386.60 2.657
386.70 2.653
386.80 2.649
386.90 2.645
387.00 2.641
387.10 2.637
387.20 2.633
387.30 2.628
387.40 2.623
387.50 2.618
387.60 2.612
387.70 2.607
387.80 2.601
387.90 2.594
388.00 2.587
388.10 2.58
388.20 2.573
388.30 2.565
388.40 2.556
388.50 2.547
388.60 2.538
388.70 2.528
388.80 2.522
388.90 2.517
389.00 2.517
389.10 2.518
389.20 2.523
389.30 2.527
389.40 2.532
389.50 2.536
389.60 2.539
389.70 2.542
389.80 2.544
389.90 2.546
390.00 2.548
390.10 2.549
390.20 2.55
390.30 2.551
390.40 2.551
390.50 2.552
390.60 2.552
390.70 2.551
390.80 2.551
390.90 2.55
391.00 2.55
391.10 2.549
391.20 2.548
391.30 2.547
391.40 2.545
391.50 2.544
391.60 2.543
391.70 2.541
391.80 2.539
391.90 2.538
392.00 2.536
392.10 2.534
392.20 2.532
392.30 2.53
392.40 2.528
392.50 2.525
392.60 2.523
392.70 2.521
392.80 2.519
392.90 2.516
393.00 2.514
393.10 2.511
393.20 2.508
393.30 2.506
393.40 2.503
393.50 2.5
393.60 2.497
393.70 2.494
393.80 2.491
393.90 2.488
394.00 2.485
394.10 2.482
394.20 2.478
394.30 2.475
394.40 2.471
394.50 2.467
394.60 2.463
394.70 2.459
394.80 2.455
394.90 2.45
395.00 2.446
395.10 2.441
395.20 2.435
395.30 2.43
395.40 2.424
395.50 2.418
395.60 2.411
395.70 2.404
395.80 2.396
395.90 2.388
396.00 2.379
396.10 2.37
396.20 2.36
396.30 2.349
396.40 2.337
396.50 2.324
396.60 2.31
396.70 2.295
396.80 2.278
396.90 2.261
397.00 2.244
397.10 2.255
397.20 2.267
397.30 2.28
397.40 2.291
397.50 2.301
397.60 2.31
397.70 2.317
397.80 2.324
397.90 2.33
398.00 2.334
398.10 2.338
398.20 2.342
398.30 2.345
398.40 2.348
398.50 2.35
398.60 2.351
398.70 2.353
398.80 2.354
398.90 2.355
399.00 2.355
399.10 2.355
399.20 2.355
399.30 2.355
399.40 2.354
399.50 2.354
399.60 2.353
399.70 2.352
399.80 2.351
399.90 2.35
400.00 2.349
400.10 2.348
400.20 2.346
400.30 2.345
400.40 2.344
400.50 2.342
400.60 2.34
400.70 2.339
400.80 2.337
400.90 2.335
401.00 2.333
401.10 2.332
401.20 2.33
401.30 2.328
401.40 2.326
401.50 2.324
401.60 2.322
401.70 2.32
401.80 2.318
401.90 2.316
402.00 2.314
402.10 2.312
402.20 2.31
402.30 2.308
402.40 2.306
402.50 2.304
402.60 2.302
402.70 2.3
402.80 2.298
402.90 2.296
403.00 2.293
403.10 2.291
403.20 2.289
403.30 2.287
403.40 2.285
403.50 2.283
403.60 2.281
403.70 2.278
403.80 2.276
403.90 2.274
404.00 2.272
404.10 2.27
404.20 2.267
404.30 2.265
404.40 2.263
404.50 2.261
404.60 2.258
404.70 2.256
404.80 2.254
404.90 2.252
405.00 2.249
405.10 2.247
405.20 2.245
405.30 2.242
405.40 2.24
405.50 2.238
405.60 2.235
405.70 2.233
405.80 2.23
405.90 2.228
406.00 2.226
406.10 2.223
406.20 2.22
406.30 2.218
406.40 2.215
406.50 2.213
406.60 2.21
406.70 2.207
406.80 2.204
406.90 2.201
407.00 2.198
407.10 2.195
407.20 2.192
407.30 2.189
407.40 2.186
407.50 2.182
407.60 2.179
407.70 2.175
407.80 2.171
407.90 2.167
408.00 2.162
408.10 2.158
408.20 2.153
408.30 2.148
408.40 2.142
408.50 2.136
408.60 2.13
408.70 2.123
408.80 2.115
408.90 2.107
409.00 2.099
409.10 2.089
409.20 2.078
409.30 2.067
409.40 2.054
409.50 2.04
409.60 2.024
409.70 2.006
409.80 1.984
409.90 1.961
410.00 1.933
410.10 1.915
410.20 1.908
410.30 1.921
410.40 1.939
410.50 1.963
410.60 1.981
410.70 1.996
410.80 2.01
410.90 2.02
411.00 2.03
411.10 2.039
411.20 2.045
411.30 2.051
411.40 2.057
411.50 2.061
411.60 2.065
411.70 2.068
411.80 2.07
411.90 2.072
412.00 2.074
412.10 2.075
412.20 2.076
412.30 2.077
412.40 2.077
412.50 2.078
412.60 2.078
412.70 2.077
412.80 2.077
412.90 2.076
413.00 2.076
413.10 2.075
413.20 2.074
413.30 2.073
413.40 2.072
413.50 2.071
413.60 2.07
413.70 2.068
413.80 2.067
413.90 2.066
414.00 2.064
414.10 2.063
414.20 2.061
414.30 2.06
414.40 2.058
414.50 2.057
414.60 2.055
414.70 2.054
414.80 2.052
414.90 2.05
415.00 2.049
415.10 2.047
415.20 2.045
415.30 2.044
415.40 2.042
415.50 2.04
415.60 2.038
415.70 2.037
415.80 2.035
415.90 2.033
416.00 2.031
416.10 2.03
416.20 2.028
416.30 2.026
416.40 2.024
416.50 2.023
416.60 2.021
416.70 2.019
416.80 2.017
416.90 2.016
417.00 2.014
417.10 2.012
417.20 2.01
417.30 2.008
417.40 2.007
417.50 2.005
417.60 2.003
417.70 2.001
417.80 1.999
417.90 1.998
418.00 1.996
418.10 1.994
418.20 1.992
418.30 1.99
418.40 1.989
418.50 1.987
418.60 1.985
418.70 1.983
418.80 1.981
418.90 1.98
419.00 1.978
419.10 1.976
419.20 1.974
419.30 1.972
419.40 1.971
419.50 1.969
419.60 1.967
419.70 1.965
419.80 1.963
419.90 1.962
420.00 1.96
420.10 1.958
420.20 1.956
420.30 1.955
420.40 1.953
420.50 1.951
420.60 1.949
420.70 1.947
420.80 1.946
420.90 1.944
421.00 1.942
421.10 1.94
421.20 1.939
421.30 1.937
421.40 1.935
421.50 1.933
421.60 1.932
421.70 1.93
421.80 1.928
421.90 1.926
422.00 1.924
422.10 1.923
422.20 1.921
422.30 1.919
422.40 1.917
422.50 1.916
422.60 1.914
422.70 1.912
422.80 1.91
422.90 1.909
423.00 1.907
423.10 1.905
423.20 1.903
423.30 1.902
423.40 1.9
423.50 1.898
423.60 1.897
423.70 1.895
423.80 1.893
423.90 1.891
424.00 1.89
424.10 1.888
424.20 1.886
424.30 1.884
424.40 1.883
424.50 1.881
424.60 1.879
424.70 1.878
424.80 1.876
424.90 1.874
425.00 1.872
425.10 1.871
425.20 1.869
425.30 1.867
425.40 1.865
425.50 1.864
425.60 1.862
425.70 1.86
425.80 1.859
425.90 1.857
426.00 1.855
426.10 1.854
426.20 1.852
426.30 1.85
426.40 1.848
426.50 1.847
426.60 1.845
426.70 1.843
426.80 1.842
426.90 1.84
427.00 1.838
427.10 1.836
427.20 1.835
427.30 1.833
427.40 1.831
427.50 1.829
427.60 1.828
427.70 1.826
427.80 1.824
427.90 1.823
428.00 1.821
428.10 1.819
428.20 1.817
428.30 1.816
428.40 1.814
428.50 1.812
428.60 1.81
428.70 1.809
428.80 1.807
428.90 1.805
429.00 1.803
429.10 1.801
429.20 1.8
429.30 1.798
429.40 1.796
429.50 1.794
429.60 1.792
429.70 1.79
429.80 1.788
429.90 1.787
430.00 1.785
430.10 1.783
430.20 1.781
430.30 1.779
430.40 1.777
430.50 1.774
430.60 1.772
430.70 1.77
430.80 1.768
430.90 1.766
431.00 1.763
431.10 1.761
431.20 1.758
431.30 1.756
431.40 1.753
431.50 1.75
431.60 1.747
431.70 1.744
431.80 1.74
431.90 1.737
432.00 1.733
432.10 1.729
432.20 1.725
432.30 1.72
432.40 1.715
432.50 1.709
432.60 1.703
432.70 1.696
432.80 1.689
432.90 1.681
433.00 1.672
433.10 1.661
433.20 1.65
433.30 1.637
433.40 1.622
433.50 1.605
433.60 1.586
433.70 1.56
433.80 1.529
433.90 1.493
434.00 1.46
434.10 1.459
434.20 1.492
434.30 1.525
434.40 1.553
434.50 1.575
434.60 1.591
434.70 1.605
434.80 1.617
434.90 1.626
435.00 1.635
435.10 1.642
435.20 1.648
435.30 1.653
435.40 1.657
435.50 1.661
435.60 1.664
435.70 1.666
435.80 1.668
435.90 1.67
436.00 1.671
436.10 1.672
436.20 1.673
436.30 1.673
436.40 1.673
436.50 1.673
436.60 1.673
436.70 1.673
436.80 1.673
436.90 1.672
437.00 1.672
437.10 1.671
437.20 1.67
437.30 1.669
437.40 1.669
437.50 1.668
437.60 1.667
437.70 1.666
437.80 1.665
437.90 1.664
438.00 1.662
438.10 1.661
438.20 1.66
438.30 1.659
438.40 1.658
438.50 1.657
438.60 1.655
438.70 1.654
438.80 1.653
438.90 1.652
439.00 1.65
439.10 1.649
439.20 1.648
439.30 1.646
439.40 1.645
439.50 1.644
439.60 1.642
439.70 1.641
439.80 1.64
439.90 1.638
440.00 1.637
440.10 1.636
440.20 1.634
440.30 1.633
440.40 1.632
440.50 1.63
440.60 1.629
440.70 1.628
440.80 1.626
440.90 1.625
441.00 1.623
441.10 1.622
441.20 1.621
441.30 1.619
441.40 1.618
441.50 1.617
441.60 1.615
441.70 1.614
441.80 1.612
441.90 1.611
442.00 1.61
442.10 1.608
442.20 1.607
442.30 1.606
442.40 1.604
442.50 1.603
442.60 1.601
442.70 1.6
442.80 1.599
442.90 1.597
443.00 1.596
443.10 1.595
443.20 1.593
443.30 1.592
443.40 1.59
443.50 1.589
443.60 1.588
443.70 1.586
443.80 1.585
443.90 1.584
444.00 1.582
444.10 1.581
444.20 1.58
444.30 1.578
444.40 1.577
444.50 1.576
444.60 1.574
444.70 1.573
444.80 1.571
444.90 1.57
445.00 1.569
445.10 1.567
445.20 1.566
445.30 1.565
445.40 1.563
445.50 1.562
445.60 1.561
445.70 1.559
445.80 1.558
445.90 1.557
446.00 1.555
446.10 1.554
446.20 1.553
446.30 1.551
446.40 1.55
446.50 1.549
446.60 1.547
446.70 1.546
446.80 1.545
446.90 1.543
447.00 1.542
447.10 1.541
447.20 1.539
447.30 1.538
447.40 1.537
447.50 1.535
447.60 1.534
447.70 1.533
447.80 1.531
447.90 1.53
448.00 1.529
448.10 1.527
448.20 1.526
448.30 1.525
448.40 1.524
448.50 1.522
448.60 1.521
448.70 1.52
448.80 1.518
448.90 1.517
449.00 1.516
449.10 1.514
449.20 1.513
449.30 1.512
449.40 1.511
449.50 1.509
449.60 1.508
449.70 1.507
449.80 1.505
449.90 1.504
450.00 1.503
450.10 1.501
450.20 1.5
450.30 1.499
450.40 1.498
450.50 1.496
450.60 1.495
450.70 1.494
450.80 1.493
450.90 1.491
451.00 1.49
451.10 1.489
451.20 1.487
451.30 1.486
451.40 1.485
451.50 1.484
451.60 1.482
451.70 1.481
451.80 1.48
451.90 1.479
452.00 1.477
452.10 1.476
452.20 1.475
452.30 1.474
452.40 1.472
452.50 1.471
452.60 1.47
452.70 1.469
452.80 1.467
452.90 1.466
453.00 1.465
453.10 1.464
453.20 1.462
453.30 1.461
453.40 1.46
453.50 1.459
453.60 1.457
453.70 1.456
453.80 1.455
453.90 1.454
454.00 1.452
454.10 1.451
454.20 1.45
