# Version 2.1 - nm, norm@500 to 1, cut digits, bergeron_1500_95.dat_1500
# Wavelength(nm)  Flambda(ergs/cm^s/s/nm)
300.00 0.03754
300.10 0.03769
300.20 0.03783
300.30 0.03798
300.40 0.03813
300.50 0.03828
300.60 0.03843
300.70 0.03858
300.80 0.03873
300.90 0.03887
301.00 0.03902
301.10 0.03917
301.20 0.03932
301.30 0.03946
301.40 0.03961
301.50 0.03976
301.60 0.0399
301.70 0.04005
301.80 0.0402
301.90 0.04034
302.00 0.04049
302.10 0.04064
302.20 0.0408
302.30 0.04095
302.40 0.0411
302.50 0.04126
302.60 0.04141
302.70 0.04156
302.80 0.04172
302.90 0.04187
303.00 0.04202
303.10 0.04217
303.20 0.04233
303.30 0.04248
303.40 0.04263
303.50 0.04278
303.60 0.04293
303.70 0.04308
303.80 0.04323
303.90 0.04338
304.00 0.04354
304.10 0.0437
304.20 0.04385
304.30 0.04401
304.40 0.04417
304.50 0.04433
304.60 0.04449
304.70 0.04465
304.80 0.04481
304.90 0.04496
305.00 0.04512
305.10 0.04528
305.20 0.04544
305.30 0.04559
305.40 0.04575
305.50 0.04591
305.60 0.04606
305.70 0.04622
305.80 0.04637
305.90 0.04653
306.00 0.04669
306.10 0.04685
306.20 0.04702
306.30 0.04718
306.40 0.04734
306.50 0.04751
306.60 0.04767
306.70 0.04784
306.80 0.048
306.90 0.04816
307.00 0.04833
307.10 0.04849
307.20 0.04865
307.30 0.04882
307.40 0.04898
307.50 0.04914
307.60 0.0493
307.70 0.04946
307.80 0.04962
307.90 0.04979
308.00 0.04995
308.10 0.05012
308.20 0.05029
308.30 0.05046
308.40 0.05063
308.50 0.0508
308.60 0.05097
308.70 0.05114
308.80 0.05131
308.90 0.05148
309.00 0.05165
309.10 0.05182
309.20 0.05199
309.30 0.05216
309.40 0.05233
309.50 0.05249
309.60 0.05266
309.70 0.05283
309.80 0.053
309.90 0.05316
310.00 0.05334
310.10 0.05351
310.20 0.05369
310.30 0.05386
310.40 0.05404
310.50 0.05422
310.60 0.0544
310.70 0.05457
310.80 0.05475
310.90 0.05493
311.00 0.0551
311.10 0.05528
311.20 0.05545
311.30 0.05563
311.40 0.05581
311.50 0.05598
311.60 0.05616
311.70 0.05633
311.80 0.0565
311.90 0.05668
312.00 0.05685
312.10 0.05703
312.20 0.0572
312.30 0.05739
312.40 0.05757
312.50 0.05775
312.60 0.05793
312.70 0.05812
312.80 0.0583
312.90 0.05848
313.00 0.05867
313.10 0.05885
313.20 0.05903
313.30 0.05921
313.40 0.0594
313.50 0.05958
313.60 0.05976
313.70 0.05994
313.80 0.06012
313.90 0.06031
314.00 0.06049
314.10 0.06068
314.20 0.06087
314.30 0.06106
314.40 0.06125
314.50 0.06144
314.60 0.06163
314.70 0.06182
314.80 0.06201
314.90 0.0622
315.00 0.06239
315.10 0.06257
315.20 0.06276
315.30 0.06295
315.40 0.06314
315.50 0.06333
315.60 0.06351
315.70 0.0637
315.80 0.06389
315.90 0.06408
316.00 0.06427
316.10 0.06446
316.20 0.06466
316.30 0.06486
316.40 0.06506
316.50 0.06525
316.60 0.06545
316.70 0.06565
316.80 0.06584
316.90 0.06604
317.00 0.06624
317.10 0.06643
317.20 0.06663
317.30 0.06682
317.40 0.06702
317.50 0.06721
317.60 0.06741
317.70 0.0676
317.80 0.0678
317.90 0.068
318.00 0.06819
318.10 0.06839
318.20 0.0686
318.30 0.0688
318.40 0.06901
318.50 0.06921
318.60 0.06942
318.70 0.06962
318.80 0.06983
318.90 0.07003
319.00 0.07023
319.10 0.07044
319.20 0.07064
319.30 0.07084
319.40 0.07105
319.50 0.07125
319.60 0.07145
319.70 0.07165
319.80 0.07185
319.90 0.07206
320.00 0.07227
320.10 0.07247
320.20 0.07268
320.30 0.0729
320.40 0.07311
320.50 0.07332
320.60 0.07354
320.70 0.07375
320.80 0.07396
320.90 0.07417
321.00 0.07438
321.10 0.07459
321.20 0.0748
321.30 0.07501
321.40 0.07522
321.50 0.07543
321.60 0.07564
321.70 0.07585
321.80 0.07606
321.90 0.07627
322.00 0.07649
322.10 0.0767
322.20 0.07692
322.30 0.07714
322.40 0.07737
322.50 0.07759
322.60 0.07781
322.70 0.07803
322.80 0.07825
322.90 0.07847
323.00 0.07868
323.10 0.0789
323.20 0.07912
323.30 0.07934
323.40 0.07956
323.50 0.07978
323.60 0.07999
323.70 0.08021
323.80 0.08043
323.90 0.08065
324.00 0.08086
324.10 0.08109
324.20 0.08132
324.30 0.08155
324.40 0.08178
324.50 0.08201
324.60 0.08223
324.70 0.08246
324.80 0.08269
324.90 0.08292
325.00 0.08314
325.10 0.08337
325.20 0.0836
325.30 0.08382
325.40 0.08405
325.50 0.08427
325.60 0.0845
325.70 0.08473
325.80 0.08495
325.90 0.08518
326.00 0.08541
326.10 0.08564
326.20 0.08587
326.30 0.08611
326.40 0.08635
326.50 0.08659
326.60 0.08682
326.70 0.08706
326.80 0.08729
326.90 0.08753
327.00 0.08777
327.10 0.088
327.20 0.08824
327.30 0.08847
327.40 0.0887
327.50 0.08894
327.60 0.08917
327.70 0.0894
327.80 0.08964
327.90 0.08987
328.00 0.09011
328.10 0.09035
328.20 0.09059
328.30 0.09084
328.40 0.09108
328.50 0.09133
328.60 0.09157
328.70 0.09182
328.80 0.09206
328.90 0.09231
329.00 0.09255
329.10 0.09279
329.20 0.09304
329.30 0.09328
329.40 0.09352
329.50 0.09376
329.60 0.094
329.70 0.09424
329.80 0.09449
329.90 0.09473
330.00 0.09497
330.10 0.09522
330.20 0.09548
330.30 0.09573
330.40 0.09598
330.50 0.09624
330.60 0.09649
330.70 0.09674
330.80 0.09699
330.90 0.09725
331.00 0.0975
331.10 0.09775
331.20 0.098
331.30 0.09825
331.40 0.0985
331.50 0.09875
331.60 0.099
331.70 0.09925
331.80 0.0995
331.90 0.09975
332.00 0.1
332.10 0.1003
332.20 0.1005
332.30 0.1008
332.40 0.1011
332.50 0.1013
332.60 0.1016
332.70 0.1018
332.80 0.1021
332.90 0.1024
333.00 0.1026
333.10 0.1029
333.20 0.1031
333.30 0.1034
333.40 0.1037
333.50 0.1039
333.60 0.1042
333.70 0.1044
333.80 0.1047
333.90 0.1049
334.00 0.1052
334.10 0.1055
334.20 0.1057
334.30 0.106
334.40 0.1063
334.50 0.1066
334.60 0.1068
334.70 0.1071
334.80 0.1074
334.90 0.1076
335.00 0.1079
335.10 0.1082
335.20 0.1084
335.30 0.1087
335.40 0.109
335.50 0.1093
335.60 0.1095
335.70 0.1098
335.80 0.1101
335.90 0.1103
336.00 0.1106
336.10 0.1109
336.20 0.1111
336.30 0.1114
336.40 0.1117
336.50 0.112
336.60 0.1123
336.70 0.1125
336.80 0.1128
336.90 0.1131
337.00 0.1134
337.10 0.1137
337.20 0.1139
337.30 0.1142
337.40 0.1145
337.50 0.1148
337.60 0.115
337.70 0.1153
337.80 0.1156
337.90 0.1159
338.00 0.1161
338.10 0.1164
338.20 0.1167
338.30 0.117
338.40 0.1173
338.50 0.1176
338.60 0.1179
338.70 0.1182
338.80 0.1184
338.90 0.1187
339.00 0.119
339.10 0.1193
339.20 0.1196
339.30 0.1199
339.40 0.1202
339.50 0.1204
339.60 0.1207
339.70 0.121
339.80 0.1213
339.90 0.1216
340.00 0.1219
340.10 0.1222
340.20 0.1225
340.30 0.1228
340.40 0.1231
340.50 0.1234
340.60 0.1236
340.70 0.1239
340.80 0.1242
340.90 0.1245
341.00 0.1248
341.10 0.1251
341.20 0.1254
341.30 0.1257
341.40 0.126
341.50 0.1263
341.60 0.1266
341.70 0.1269
341.80 0.1272
341.90 0.1275
342.00 0.1278
342.10 0.1281
342.20 0.1284
342.30 0.1287
342.40 0.129
342.50 0.1293
342.60 0.1296
342.70 0.1299
342.80 0.1302
342.90 0.1305
343.00 0.1308
343.10 0.1311
343.20 0.1314
343.30 0.1317
343.40 0.132
343.50 0.1323
343.60 0.1326
343.70 0.1329
343.80 0.1332
343.90 0.1335
344.00 0.1338
344.10 0.1342
344.20 0.1345
344.30 0.1348
344.40 0.1351
344.50 0.1354
344.60 0.1357
344.70 0.1361
344.80 0.1364
344.90 0.1367
345.00 0.137
345.10 0.1373
345.20 0.1376
345.30 0.1379
345.40 0.1383
345.50 0.1386
345.60 0.1389
345.70 0.1392
345.80 0.1395
345.90 0.1398
346.00 0.1401
346.10 0.1404
346.20 0.1408
346.30 0.1411
346.40 0.1414
346.50 0.1417
346.60 0.1421
346.70 0.1424
346.80 0.1427
346.90 0.143
347.00 0.1434
347.10 0.1437
347.20 0.144
347.30 0.1443
347.40 0.1446
347.50 0.145
347.60 0.1453
347.70 0.1456
347.80 0.1459
347.90 0.1462
348.00 0.1466
348.10 0.1469
348.20 0.1472
348.30 0.1476
348.40 0.1479
348.50 0.1482
348.60 0.1486
348.70 0.1489
348.80 0.1492
348.90 0.1496
349.00 0.1499
349.10 0.1502
349.20 0.1506
349.30 0.1509
349.40 0.1512
349.50 0.1515
349.60 0.1519
349.70 0.1522
349.80 0.1525
349.90 0.1529
350.00 0.1532
350.10 0.1535
350.20 0.1539
350.30 0.1542
350.40 0.1546
350.50 0.1549
350.60 0.1552
350.70 0.1556
350.80 0.1559
350.90 0.1563
351.00 0.1566
351.10 0.157
351.20 0.1573
351.30 0.1576
351.40 0.158
351.50 0.1583
351.60 0.1586
351.70 0.159
351.80 0.1593
351.90 0.1597
352.00 0.16
352.10 0.1604
352.20 0.1607
352.30 0.1611
352.40 0.1614
352.50 0.1618
352.60 0.1621
352.70 0.1625
352.80 0.1628
352.90 0.1632
353.00 0.1635
353.10 0.1639
353.20 0.1642
353.30 0.1646
353.40 0.1649
353.50 0.1653
353.60 0.1656
353.70 0.166
353.80 0.1663
353.90 0.1666
354.00 0.167
354.10 0.1674
354.20 0.1677
354.30 0.1681
354.40 0.1684
354.50 0.1688
354.60 0.1692
354.70 0.1695
354.80 0.1699
354.90 0.1702
355.00 0.1706
355.10 0.171
355.20 0.1713
355.30 0.1717
355.40 0.172
355.50 0.1724
355.60 0.1727
355.70 0.1731
355.80 0.1735
355.90 0.1738
356.00 0.1742
356.10 0.1745
356.20 0.1749
356.30 0.1753
356.40 0.1757
356.50 0.176
356.60 0.1764
356.70 0.1768
356.80 0.1771
356.90 0.1775
357.00 0.1779
357.10 0.1782
357.20 0.1786
357.30 0.179
357.40 0.1793
357.50 0.1797
357.60 0.1801
357.70 0.1804
357.80 0.1808
357.90 0.1812
358.00 0.1815
358.10 0.1819
358.20 0.1823
358.30 0.1827
358.40 0.1831
358.50 0.1834
358.60 0.1838
358.70 0.1842
358.80 0.1846
358.90 0.185
359.00 0.1853
359.10 0.1857
359.20 0.1861
359.30 0.1865
359.40 0.1868
359.50 0.1872
359.60 0.1876
359.70 0.188
359.80 0.1883
359.90 0.1887
360.00 0.1891
360.10 0.1895
360.20 0.1899
360.30 0.1903
360.40 0.1906
360.50 0.191
360.60 0.1914
360.70 0.1918
360.80 0.1922
360.90 0.1926
361.00 0.193
361.10 0.1934
361.20 0.1937
361.30 0.1941
361.40 0.1945
361.50 0.1949
361.60 0.1953
361.70 0.1957
361.80 0.196
361.90 0.1964
362.00 0.1968
362.10 0.1972
362.20 0.1976
362.30 0.198
362.40 0.1984
362.50 0.1988
362.60 0.1992
362.70 0.1996
362.80 0.2
362.90 0.2004
363.00 0.2008
363.10 0.2012
363.20 0.2016
363.30 0.202
363.40 0.2024
363.50 0.2028
363.60 0.2032
363.70 0.2036
363.80 0.204
363.90 0.2044
364.00 0.2048
364.10 0.2052
364.20 0.2055
364.30 0.2059
364.40 0.2063
364.50 0.2067
364.60 0.2071
364.70 0.2076
364.80 0.208
364.90 0.2084
365.00 0.2088
365.10 0.2092
365.20 0.2096
365.30 0.21
365.40 0.2104
365.50 0.2108
365.60 0.2112
365.70 0.2116
365.80 0.212
365.90 0.2124
366.00 0.2128
366.10 0.2132
366.20 0.2137
366.30 0.2141
366.40 0.2145
366.50 0.2149
366.60 0.2153
366.70 0.2158
366.80 0.2162
366.90 0.2166
367.00 0.217
367.10 0.2174
367.20 0.2178
367.30 0.2182
367.40 0.2187
367.50 0.2191
367.60 0.2195
367.70 0.2199
367.80 0.2203
367.90 0.2207
368.00 0.2211
368.10 0.2215
368.20 0.222
368.30 0.2224
368.40 0.2228
368.50 0.2233
368.60 0.2237
368.70 0.2241
368.80 0.2245
368.90 0.225
369.00 0.2254
369.10 0.2258
369.20 0.2262
369.30 0.2266
369.40 0.2271
369.50 0.2275
369.60 0.2279
369.70 0.2283
369.80 0.2287
369.90 0.2292
370.00 0.2296
370.10 0.23
370.20 0.2305
370.30 0.2309
370.40 0.2313
370.50 0.2318
370.60 0.2322
370.70 0.2326
370.80 0.2331
370.90 0.2335
371.00 0.2339
371.10 0.2344
371.20 0.2348
371.30 0.2352
371.40 0.2357
371.50 0.2361
371.60 0.2365
371.70 0.2369
371.80 0.2374
371.90 0.2378
372.00 0.2382
372.10 0.2387
372.20 0.2391
372.30 0.2396
372.40 0.24
372.50 0.2405
372.60 0.2409
372.70 0.2413
372.80 0.2418
372.90 0.2422
373.00 0.2427
373.10 0.2431
373.20 0.2436
373.30 0.244
373.40 0.2444
373.50 0.2449
373.60 0.2453
373.70 0.2458
373.80 0.2462
373.90 0.2466
374.00 0.2471
374.10 0.2475
374.20 0.248
374.30 0.2484
374.40 0.2489
374.50 0.2493
374.60 0.2498
374.70 0.2502
374.80 0.2507
374.90 0.2511
375.00 0.2516
375.10 0.252
375.20 0.2525
375.30 0.2529
375.40 0.2534
375.50 0.2538
375.60 0.2543
375.70 0.2547
375.80 0.2552
375.90 0.2556
376.00 0.2561
376.10 0.2565
376.20 0.257
376.30 0.2575
376.40 0.2579
376.50 0.2584
376.60 0.2588
376.70 0.2593
376.80 0.2597
376.90 0.2602
377.00 0.2606
377.10 0.2611
377.20 0.2616
377.30 0.262
377.40 0.2625
377.50 0.263
377.60 0.2634
377.70 0.2639
377.80 0.2643
377.90 0.2648
378.00 0.2653
378.10 0.2657
378.20 0.2662
378.30 0.2667
378.40 0.2671
378.50 0.2676
378.60 0.2681
378.70 0.2685
378.80 0.269
378.90 0.2695
379.00 0.2699
379.10 0.2704
379.20 0.2709
379.30 0.2713
379.40 0.2718
379.50 0.2723
379.60 0.2727
379.70 0.2732
379.80 0.2737
379.90 0.2742
380.00 0.2746
380.10 0.2751
380.20 0.2756
380.30 0.2761
380.40 0.2765
380.50 0.277
380.60 0.2775
380.70 0.278
380.80 0.2784
380.90 0.2789
381.00 0.2794
381.10 0.2799
381.20 0.2803
381.30 0.2808
381.40 0.2813
381.50 0.2818
381.60 0.2822
381.70 0.2827
381.80 0.2832
381.90 0.2837
382.00 0.2842
382.10 0.2847
382.20 0.2851
382.30 0.2856
382.40 0.2861
382.50 0.2866
382.60 0.2871
382.70 0.2876
382.80 0.2881
382.90 0.2885
383.00 0.289
383.10 0.2895
383.20 0.29
383.30 0.2905
383.40 0.291
383.50 0.2914
383.60 0.2919
383.70 0.2924
383.80 0.2929
383.90 0.2934
384.00 0.2939
384.10 0.2944
384.20 0.2949
384.30 0.2954
384.40 0.2959
384.50 0.2964
384.60 0.2968
384.70 0.2973
384.80 0.2978
384.90 0.2983
385.00 0.2988
385.10 0.2993
385.20 0.2998
385.30 0.3003
385.40 0.3008
385.50 0.3013
385.60 0.3018
385.70 0.3023
385.80 0.3028
385.90 0.3033
386.00 0.3038
386.10 0.3043
386.20 0.3048
386.30 0.3053
386.40 0.3058
386.50 0.3063
386.60 0.3068
386.70 0.3073
386.80 0.3078
386.90 0.3083
387.00 0.3088
387.10 0.3093
387.20 0.3098
387.30 0.3103
387.40 0.3108
387.50 0.3113
387.60 0.3118
387.70 0.3123
387.80 0.3128
387.90 0.3133
388.00 0.3138
388.10 0.3144
388.20 0.3149
388.30 0.3154
388.40 0.3159
388.50 0.3164
388.60 0.3169
388.70 0.3174
388.80 0.3179
388.90 0.3184
389.00 0.3189
389.10 0.3195
389.20 0.32
389.30 0.3205
389.40 0.321
389.50 0.3215
389.60 0.322
389.70 0.3225
389.80 0.323
389.90 0.3236
390.00 0.3241
390.10 0.3246
390.20 0.3251
390.30 0.3256
390.40 0.3261
390.50 0.3267
390.60 0.3272
390.70 0.3277
390.80 0.3282
390.90 0.3287
391.00 0.3293
391.10 0.3298
391.20 0.3303
391.30 0.3308
391.40 0.3313
391.50 0.3319
391.60 0.3324
391.70 0.3329
391.80 0.3334
391.90 0.334
392.00 0.3345
392.10 0.335
392.20 0.3355
392.30 0.3361
392.40 0.3366
392.50 0.3371
392.60 0.3376
392.70 0.3382
392.80 0.3387
392.90 0.3392
393.00 0.3397
393.10 0.3403
393.20 0.3408
393.30 0.3413
393.40 0.3419
393.50 0.3424
393.60 0.3429
393.70 0.3435
393.80 0.344
393.90 0.3445
394.00 0.3451
394.10 0.3456
394.20 0.3461
394.30 0.3466
394.40 0.3472
394.50 0.3477
394.60 0.3482
394.70 0.3488
394.80 0.3493
394.90 0.3499
395.00 0.3504
395.10 0.3509
395.20 0.3515
395.30 0.352
395.40 0.3525
395.50 0.3531
395.60 0.3536
395.70 0.3542
395.80 0.3547
395.90 0.3552
396.00 0.3558
396.10 0.3563
396.20 0.3569
396.30 0.3574
396.40 0.3579
396.50 0.3585
396.60 0.359
396.70 0.3596
396.80 0.3601
396.90 0.3607
397.00 0.3612
397.10 0.3618
397.20 0.3623
397.30 0.3628
397.40 0.3634
397.50 0.3639
397.60 0.3645
397.70 0.365
397.80 0.3656
397.90 0.3661
398.00 0.3667
398.10 0.3672
398.20 0.3678
398.30 0.3683
398.40 0.3689
398.50 0.3694
398.60 0.37
398.70 0.3705
398.80 0.3711
398.90 0.3716
399.00 0.3722
399.10 0.3727
399.20 0.3733
399.30 0.3738
399.40 0.3744
399.50 0.375
399.60 0.3755
399.70 0.3761
399.80 0.3766
399.90 0.3772
400.00 0.3777
400.10 0.3783
400.20 0.3788
400.30 0.3794
400.40 0.3799
400.50 0.3805
400.60 0.3811
400.70 0.3816
400.80 0.3822
400.90 0.3827
401.00 0.3833
401.10 0.3839
401.20 0.3844
401.30 0.385
401.40 0.3855
401.50 0.3861
401.60 0.3867
401.70 0.3872
401.80 0.3878
401.90 0.3884
402.00 0.3889
402.10 0.3895
402.20 0.3901
402.30 0.3906
402.40 0.3912
402.50 0.3918
402.60 0.3923
402.70 0.3929
402.80 0.3934
402.90 0.394
403.00 0.3946
403.10 0.3952
403.20 0.3957
403.30 0.3963
403.40 0.3969
403.50 0.3974
403.60 0.398
403.70 0.3986
403.80 0.3991
403.90 0.3997
404.00 0.4003
404.10 0.4008
404.20 0.4014
404.30 0.402
404.40 0.4026
404.50 0.4031
404.60 0.4037
404.70 0.4043
404.80 0.4049
404.90 0.4054
405.00 0.406
405.10 0.4066
405.20 0.4072
405.30 0.4078
405.40 0.4083
405.50 0.4089
405.60 0.4095
405.70 0.4101
405.80 0.4106
405.90 0.4112
406.00 0.4118
406.10 0.4124
406.20 0.413
406.30 0.4135
406.40 0.4141
406.50 0.4147
406.60 0.4153
406.70 0.4159
406.80 0.4164
406.90 0.417
407.00 0.4176
407.10 0.4182
407.20 0.4188
407.30 0.4194
407.40 0.4199
407.50 0.4205
407.60 0.4211
407.70 0.4217
407.80 0.4223
407.90 0.4229
408.00 0.4234
408.10 0.424
408.20 0.4246
408.30 0.4252
408.40 0.4258
408.50 0.4264
408.60 0.427
408.70 0.4276
408.80 0.4281
408.90 0.4287
409.00 0.4293
409.10 0.4299
409.20 0.4305
409.30 0.4311
409.40 0.4317
409.50 0.4323
409.60 0.4329
409.70 0.4335
409.80 0.4341
409.90 0.4347
410.00 0.4353
410.10 0.4358
410.20 0.4364
410.30 0.437
410.40 0.4376
410.50 0.4382
410.60 0.4388
410.70 0.4394
410.80 0.44
410.90 0.4406
411.00 0.4412
411.10 0.4418
411.20 0.4424
411.30 0.443
411.40 0.4436
411.50 0.4442
411.60 0.4448
411.70 0.4454
411.80 0.446
411.90 0.4466
412.00 0.4472
412.10 0.4478
412.20 0.4484
412.30 0.449
412.40 0.4496
412.50 0.4502
412.60 0.4508
412.70 0.4514
412.80 0.452
412.90 0.4526
413.00 0.4532
413.10 0.4538
413.20 0.4544
413.30 0.455
413.40 0.4556
413.50 0.4562
413.60 0.4568
413.70 0.4574
413.80 0.4581
413.90 0.4587
414.00 0.4593
414.10 0.4599
414.20 0.4605
414.30 0.4611
414.40 0.4617
414.50 0.4623
414.60 0.4629
414.70 0.4635
414.80 0.4641
414.90 0.4647
415.00 0.4653
415.10 0.466
415.20 0.4666
415.30 0.4672
415.40 0.4678
415.50 0.4684
415.60 0.469
415.70 0.4696
415.80 0.4702
415.90 0.4709
416.00 0.4715
416.10 0.4721
416.20 0.4727
416.30 0.4733
416.40 0.4739
416.50 0.4745
416.60 0.4752
416.70 0.4758
416.80 0.4764
416.90 0.477
417.00 0.4776
417.10 0.4782
417.20 0.4789
417.30 0.4795
417.40 0.4801
417.50 0.4807
417.60 0.4813
417.70 0.4819
417.80 0.4826
417.90 0.4832
418.00 0.4838
418.10 0.4844
418.20 0.485
418.30 0.4857
418.40 0.4863
418.50 0.4869
418.60 0.4875
418.70 0.4881
418.80 0.4888
418.90 0.4894
419.00 0.49
419.10 0.4906
419.20 0.4913
419.30 0.4919
419.40 0.4925
419.50 0.4931
419.60 0.4938
419.70 0.4944
419.80 0.495
419.90 0.4956
420.00 0.4963
420.10 0.4969
420.20 0.4975
420.30 0.4981
420.40 0.4988
420.50 0.4994
420.60 0.5
420.70 0.5006
420.80 0.5013
420.90 0.5019
421.00 0.5025
421.10 0.5032
421.20 0.5038
421.30 0.5044
421.40 0.5051
421.50 0.5057
421.60 0.5063
421.70 0.5069
421.80 0.5076
421.90 0.5082
422.00 0.5088
422.10 0.5095
422.20 0.5101
422.30 0.5107
422.40 0.5114
422.50 0.512
422.60 0.5126
422.70 0.5133
422.80 0.5139
422.90 0.5145
423.00 0.5152
423.10 0.5158
423.20 0.5164
423.30 0.5171
423.40 0.5177
423.50 0.5184
423.60 0.519
423.70 0.5196
423.80 0.5203
423.90 0.5209
424.00 0.5215
424.10 0.5222
424.20 0.5228
424.30 0.5235
424.40 0.5241
424.50 0.5247
424.60 0.5254
424.70 0.526
424.80 0.5266
424.90 0.5273
425.00 0.5279
425.10 0.5286
425.20 0.5292
425.30 0.5299
425.40 0.5305
425.50 0.5311
425.60 0.5318
425.70 0.5324
425.80 0.5331
425.90 0.5337
426.00 0.5343
426.10 0.535
426.20 0.5356
426.30 0.5363
426.40 0.5369
426.50 0.5376
426.60 0.5382
426.70 0.5389
426.80 0.5395
426.90 0.5401
427.00 0.5408
427.10 0.5414
427.20 0.5421
427.30 0.5427
427.40 0.5434
427.50 0.544
427.60 0.5447
427.70 0.5453
427.80 0.546
427.90 0.5466
428.00 0.5473
428.10 0.5479
428.20 0.5485
428.30 0.5492
428.40 0.5499
428.50 0.5505
428.60 0.5512
428.70 0.5518
428.80 0.5524
428.90 0.5531
429.00 0.5538
429.10 0.5544
429.20 0.5551
429.30 0.5557
429.40 0.5564
429.50 0.557
429.60 0.5577
429.70 0.5583
429.80 0.559
429.90 0.5596
430.00 0.5603
430.10 0.5609
430.20 0.5616
430.30 0.5622
430.40 0.5629
430.50 0.5635
430.60 0.5642
430.70 0.5648
430.80 0.5655
430.90 0.5661
431.00 0.5668
431.10 0.5675
431.20 0.5681
431.30 0.5688
431.40 0.5694
431.50 0.5701
431.60 0.5707
431.70 0.5714
431.80 0.5721
431.90 0.5727
432.00 0.5734
432.10 0.574
432.20 0.5747
432.30 0.5753
432.40 0.576
432.50 0.5767
432.60 0.5773
432.70 0.578
432.80 0.5786
432.90 0.5793
433.00 0.58
433.10 0.5806
433.20 0.5813
433.30 0.5819
433.40 0.5826
433.50 0.5833
433.60 0.5839
433.70 0.5846
433.80 0.5852
433.90 0.5859
434.00 0.5866
434.10 0.5872
434.20 0.5879
434.30 0.5886
434.40 0.5892
434.50 0.5899
434.60 0.5905
434.70 0.5912
434.80 0.5919
434.90 0.5925
435.00 0.5932
435.10 0.5939
435.20 0.5945
435.30 0.5952
435.40 0.5959
435.50 0.5965
435.60 0.5972
435.70 0.5978
435.80 0.5985
435.90 0.5992
436.00 0.5998
436.10 0.6005
436.20 0.6012
436.30 0.6018
436.40 0.6025
436.50 0.6032
436.60 0.6038
436.70 0.6045
436.80 0.6052
436.90 0.6058
437.00 0.6065
437.10 0.6072
437.20 0.6079
437.30 0.6085
437.40 0.6092
437.50 0.6098
437.60 0.6105
437.70 0.6112
437.80 0.6119
437.90 0.6125
438.00 0.6132
438.10 0.6139
438.20 0.6145
438.30 0.6152
438.40 0.6159
438.50 0.6165
438.60 0.6172
438.70 0.6179
438.80 0.6186
438.90 0.6192
439.00 0.6199
439.10 0.6206
439.20 0.6212
439.30 0.6219
439.40 0.6226
439.50 0.6233
439.60 0.6239
439.70 0.6246
439.80 0.6253
439.90 0.6259
440.00 0.6266
440.10 0.6273
440.20 0.628
440.30 0.6286
440.40 0.6293
440.50 0.63
440.60 0.6307
440.70 0.6313
440.80 0.632
