# Version 2.1 - nm, norm@500 to 1, cut digits, bergeron_35000_90.dat_35000
# Wavelength(nm)  Flambda(ergs/cm^s/s/nm)
300.00 5.633
300.10 5.627
300.20 5.62
300.30 5.614
300.40 5.607
300.50 5.6
300.60 5.594
300.70 5.587
300.80 5.581
300.90 5.574
301.00 5.568
301.10 5.561
301.20 5.555
301.30 5.548
301.40 5.542
301.50 5.536
301.60 5.529
301.70 5.523
301.80 5.516
301.90 5.51
302.00 5.503
302.10 5.497
302.20 5.491
302.30 5.484
302.40 5.478
302.50 5.472
302.60 5.465
302.70 5.459
302.80 5.453
302.90 5.446
303.00 5.44
303.10 5.434
303.20 5.427
303.30 5.421
303.40 5.415
303.50 5.409
303.60 5.402
303.70 5.396
303.80 5.39
303.90 5.384
304.00 5.377
304.10 5.371
304.20 5.365
304.30 5.359
304.40 5.353
304.50 5.346
304.60 5.34
304.70 5.334
304.80 5.328
304.90 5.322
305.00 5.316
305.10 5.31
305.20 5.303
305.30 5.297
305.40 5.291
305.50 5.285
305.60 5.279
305.70 5.273
305.80 5.267
305.90 5.261
306.00 5.255
306.10 5.249
306.20 5.243
306.30 5.237
306.40 5.231
306.50 5.225
306.60 5.219
306.70 5.213
306.80 5.207
306.90 5.201
307.00 5.195
307.10 5.189
307.20 5.183
307.30 5.177
307.40 5.171
307.50 5.165
307.60 5.159
307.70 5.154
307.80 5.148
307.90 5.142
308.00 5.136
308.10 5.13
308.20 5.124
308.30 5.118
308.40 5.113
308.50 5.107
308.60 5.101
308.70 5.095
308.80 5.089
308.90 5.084
309.00 5.078
309.10 5.072
309.20 5.066
309.30 5.06
309.40 5.055
309.50 5.049
309.60 5.043
309.70 5.037
309.80 5.032
309.90 5.026
310.00 5.02
310.10 5.015
310.20 5.009
310.30 5.003
310.40 4.998
310.50 4.992
310.60 4.986
310.70 4.981
310.80 4.975
310.90 4.969
311.00 4.964
311.10 4.958
311.20 4.953
311.30 4.947
311.40 4.941
311.50 4.936
311.60 4.93
311.70 4.925
311.80 4.919
311.90 4.914
312.00 4.908
312.10 4.902
312.20 4.897
312.30 4.891
312.40 4.886
312.50 4.88
312.60 4.875
312.70 4.869
312.80 4.864
312.90 4.858
313.00 4.853
313.10 4.848
313.20 4.842
313.30 4.837
313.40 4.831
313.50 4.826
313.60 4.82
313.70 4.815
313.80 4.81
313.90 4.804
314.00 4.799
314.10 4.793
314.20 4.788
314.30 4.783
314.40 4.777
314.50 4.772
314.60 4.767
314.70 4.761
314.80 4.756
314.90 4.751
315.00 4.745
315.10 4.74
315.20 4.735
315.30 4.729
315.40 4.724
315.50 4.719
315.60 4.714
315.70 4.708
315.80 4.703
315.90 4.698
316.00 4.693
316.10 4.687
316.20 4.682
316.30 4.677
316.40 4.672
316.50 4.667
316.60 4.661
316.70 4.656
316.80 4.651
316.90 4.646
317.00 4.641
317.10 4.636
317.20 4.63
317.30 4.625
317.40 4.62
317.50 4.615
317.60 4.61
317.70 4.605
317.80 4.6
317.90 4.595
318.00 4.589
318.10 4.584
318.20 4.579
318.30 4.574
318.40 4.569
318.50 4.564
318.60 4.559
318.70 4.554
318.80 4.549
318.90 4.544
319.00 4.539
319.10 4.534
319.20 4.529
319.30 4.524
319.40 4.519
319.50 4.514
319.60 4.509
319.70 4.504
319.80 4.499
319.90 4.494
320.00 4.489
320.10 4.484
320.20 4.479
320.30 4.474
320.40 4.469
320.50 4.464
320.60 4.459
320.70 4.455
320.80 4.45
320.90 4.445
321.00 4.44
321.10 4.435
321.20 4.43
321.30 4.425
321.40 4.42
321.50 4.416
321.60 4.411
321.70 4.406
321.80 4.401
321.90 4.396
322.00 4.391
322.10 4.387
322.20 4.382
322.30 4.377
322.40 4.372
322.50 4.367
322.60 4.363
322.70 4.358
322.80 4.353
322.90 4.348
323.00 4.344
323.10 4.339
323.20 4.334
323.30 4.329
323.40 4.325
323.50 4.32
323.60 4.315
323.70 4.311
323.80 4.306
323.90 4.301
324.00 4.296
324.10 4.292
324.20 4.287
324.30 4.282
324.40 4.278
324.50 4.273
324.60 4.268
324.70 4.264
324.80 4.259
324.90 4.255
325.00 4.25
325.10 4.245
325.20 4.241
325.30 4.236
325.40 4.231
325.50 4.227
325.60 4.222
325.70 4.218
325.80 4.213
325.90 4.209
326.00 4.204
326.10 4.199
326.20 4.195
326.30 4.19
326.40 4.186
326.50 4.181
326.60 4.177
326.70 4.172
326.80 4.168
326.90 4.163
327.00 4.159
327.10 4.154
327.20 4.15
327.30 4.145
327.40 4.141
327.50 4.136
327.60 4.132
327.70 4.127
327.80 4.123
327.90 4.119
328.00 4.114
328.10 4.11
328.20 4.105
328.30 4.101
328.40 4.096
328.50 4.092
328.60 4.088
328.70 4.083
328.80 4.079
328.90 4.074
329.00 4.07
329.10 4.066
329.20 4.061
329.30 4.057
329.40 4.053
329.50 4.048
329.60 4.044
329.70 4.04
329.80 4.035
329.90 4.031
330.00 4.027
330.10 4.022
330.20 4.018
330.30 4.014
330.40 4.009
330.50 4.005
330.60 4.001
330.70 3.997
330.80 3.992
330.90 3.988
331.00 3.984
331.10 3.98
331.20 3.975
331.30 3.971
331.40 3.967
331.50 3.963
331.60 3.958
331.70 3.954
331.80 3.95
331.90 3.946
332.00 3.941
332.10 3.937
332.20 3.933
332.30 3.929
332.40 3.925
332.50 3.921
332.60 3.916
332.70 3.912
332.80 3.908
332.90 3.904
333.00 3.9
333.10 3.896
333.20 3.891
333.30 3.887
333.40 3.883
333.50 3.879
333.60 3.875
333.70 3.871
333.80 3.867
333.90 3.863
334.00 3.859
334.10 3.854
334.20 3.85
334.30 3.846
334.40 3.842
334.50 3.838
334.60 3.834
334.70 3.83
334.80 3.826
334.90 3.822
335.00 3.818
335.10 3.814
335.20 3.81
335.30 3.806
335.40 3.802
335.50 3.798
335.60 3.794
335.70 3.79
335.80 3.786
335.90 3.782
336.00 3.778
336.10 3.774
336.20 3.77
336.30 3.766
336.40 3.762
336.50 3.758
336.60 3.754
336.70 3.75
336.80 3.746
336.90 3.742
337.00 3.738
337.10 3.734
337.20 3.73
337.30 3.726
337.40 3.723
337.50 3.719
337.60 3.715
337.70 3.711
337.80 3.707
337.90 3.703
338.00 3.699
338.10 3.695
338.20 3.691
338.30 3.688
338.40 3.684
338.50 3.68
338.60 3.676
338.70 3.672
338.80 3.668
338.90 3.664
339.00 3.661
339.10 3.657
339.20 3.653
339.30 3.649
339.40 3.645
339.50 3.642
339.60 3.638
339.70 3.634
339.80 3.63
339.90 3.626
340.00 3.623
340.10 3.619
340.20 3.615
340.30 3.611
340.40 3.608
340.50 3.604
340.60 3.6
340.70 3.596
340.80 3.593
340.90 3.589
341.00 3.585
341.10 3.581
341.20 3.578
341.30 3.574
341.40 3.57
341.50 3.566
341.60 3.563
341.70 3.559
341.80 3.555
341.90 3.552
342.00 3.548
342.10 3.544
342.20 3.541
342.30 3.537
342.40 3.533
342.50 3.53
342.60 3.526
342.70 3.522
342.80 3.519
342.90 3.515
343.00 3.511
343.10 3.508
343.20 3.504
343.30 3.501
343.40 3.497
343.50 3.493
343.60 3.49
343.70 3.486
343.80 3.482
343.90 3.479
344.00 3.475
344.10 3.472
344.20 3.468
344.30 3.465
344.40 3.461
344.50 3.457
344.60 3.454
344.70 3.45
344.80 3.447
344.90 3.443
345.00 3.44
345.10 3.436
345.20 3.433
345.30 3.429
345.40 3.426
345.50 3.422
345.60 3.419
345.70 3.415
345.80 3.411
345.90 3.408
346.00 3.404
346.10 3.401
346.20 3.398
346.30 3.394
346.40 3.391
346.50 3.387
346.60 3.384
346.70 3.38
346.80 3.377
346.90 3.373
347.00 3.37
347.10 3.366
347.20 3.363
347.30 3.359
347.40 3.356
347.50 3.353
347.60 3.349
347.70 3.346
347.80 3.342
347.90 3.339
348.00 3.335
348.10 3.332
348.20 3.329
348.30 3.325
348.40 3.322
348.50 3.319
348.60 3.315
348.70 3.312
348.80 3.308
348.90 3.305
349.00 3.302
349.10 3.298
349.20 3.295
349.30 3.292
349.40 3.288
349.50 3.285
349.60 3.282
349.70 3.278
349.80 3.275
349.90 3.272
350.00 3.268
350.10 3.265
350.20 3.262
350.30 3.258
350.40 3.255
350.50 3.252
350.60 3.248
350.70 3.245
350.80 3.242
350.90 3.239
351.00 3.235
351.10 3.232
351.20 3.229
351.30 3.225
351.40 3.222
351.50 3.219
351.60 3.216
351.70 3.212
351.80 3.209
351.90 3.206
352.00 3.203
352.10 3.199
352.20 3.196
352.30 3.193
352.40 3.19
352.50 3.187
352.60 3.183
352.70 3.18
352.80 3.177
352.90 3.174
353.00 3.171
353.10 3.167
353.20 3.164
353.30 3.161
353.40 3.158
353.50 3.155
353.60 3.151
353.70 3.148
353.80 3.145
353.90 3.142
354.00 3.139
354.10 3.136
354.20 3.132
354.30 3.129
354.40 3.126
354.50 3.123
354.60 3.12
354.70 3.117
354.80 3.114
354.90 3.111
355.00 3.107
355.10 3.104
355.20 3.101
355.30 3.098
355.40 3.095
355.50 3.092
355.60 3.089
355.70 3.086
355.80 3.083
355.90 3.079
356.00 3.076
356.10 3.073
356.20 3.07
356.30 3.067
356.40 3.064
356.50 3.061
356.60 3.058
356.70 3.055
356.80 3.052
356.90 3.049
357.00 3.046
357.10 3.043
357.20 3.04
357.30 3.037
357.40 3.034
357.50 3.031
357.60 3.028
357.70 3.025
357.80 3.022
357.90 3.019
358.00 3.016
358.10 3.013
358.20 3.01
358.30 3.007
358.40 3.004
358.50 3.001
358.60 2.998
358.70 2.995
358.80 2.992
358.90 2.989
359.00 2.986
359.10 2.983
359.20 2.98
359.30 2.977
359.40 2.974
359.50 2.971
359.60 2.968
359.70 2.965
359.80 2.962
359.90 2.959
360.00 2.956
360.10 2.953
360.20 2.951
360.30 2.948
360.40 2.945
360.50 2.942
360.60 2.939
360.70 2.936
360.80 2.933
360.90 2.93
361.00 2.927
361.10 2.924
361.20 2.922
361.30 2.919
361.40 2.916
361.50 2.913
361.60 2.91
361.70 2.907
361.80 2.904
361.90 2.901
362.00 2.899
362.10 2.896
362.20 2.893
362.30 2.89
362.40 2.887
362.50 2.884
362.60 2.881
362.70 2.879
362.80 2.876
362.90 2.873
363.00 2.87
363.10 2.867
363.20 2.865
363.30 2.862
363.40 2.859
363.50 2.856
363.60 2.853
363.70 2.851
363.80 2.848
363.90 2.845
364.00 2.842
364.10 2.839
364.20 2.837
364.30 2.834
364.40 2.831
364.50 2.828
364.60 2.826
364.70 2.823
364.80 2.82
364.90 2.817
365.00 2.814
365.10 2.812
365.20 2.809
365.30 2.806
365.40 2.804
365.50 2.801
365.60 2.798
365.70 2.795
365.80 2.793
365.90 2.79
366.00 2.787
366.10 2.784
366.20 2.782
366.30 2.779
366.40 2.776
366.50 2.773
366.60 2.77
366.70 2.768
366.80 2.765
366.90 2.762
367.00 2.759
367.10 2.756
367.20 2.754
367.30 2.751
367.40 2.748
367.50 2.745
367.60 2.742
367.70 2.74
367.80 2.737
367.90 2.734
368.00 2.731
368.10 2.729
368.20 2.726
368.30 2.723
368.40 2.72
368.50 2.717
368.60 2.714
368.70 2.711
368.80 2.709
368.90 2.706
369.00 2.703
369.10 2.7
369.20 2.697
369.30 2.694
369.40 2.692
369.50 2.689
369.60 2.686
369.70 2.683
369.80 2.68
369.90 2.677
370.00 2.675
370.10 2.672
370.20 2.669
370.30 2.666
370.40 2.664
370.50 2.661
370.60 2.658
370.70 2.655
370.80 2.653
370.90 2.65
371.00 2.647
371.10 2.645
371.20 2.642
371.30 2.639
371.40 2.636
371.50 2.634
371.60 2.631
371.70 2.628
371.80 2.626
371.90 2.623
372.00 2.62
372.10 2.618
372.20 2.615
372.30 2.613
372.40 2.61
372.50 2.607
372.60 2.605
372.70 2.602
372.80 2.6
372.90 2.597
373.00 2.595
373.10 2.592
373.20 2.59
373.30 2.587
373.40 2.585
373.50 2.582
373.60 2.58
373.70 2.577
373.80 2.575
373.90 2.572
374.00 2.57
374.10 2.567
374.20 2.565
374.30 2.562
374.40 2.56
374.50 2.557
374.60 2.554
374.70 2.552
374.80 2.549
374.90 2.547
375.00 2.544
375.10 2.541
375.20 2.539
375.30 2.536
375.40 2.534
375.50 2.531
375.60 2.529
375.70 2.526
375.80 2.523
375.90 2.521
376.00 2.518
376.10 2.516
376.20 2.513
376.30 2.511
376.40 2.508
376.50 2.506
376.60 2.503
376.70 2.501
376.80 2.498
376.90 2.496
377.00 2.493
377.10 2.491
377.20 2.489
377.30 2.486
377.40 2.484
377.50 2.482
377.60 2.479
377.70 2.477
377.80 2.474
377.90 2.472
378.00 2.47
378.10 2.467
378.20 2.465
378.30 2.463
378.40 2.46
378.50 2.458
378.60 2.456
378.70 2.454
378.80 2.451
378.90 2.449
379.00 2.447
379.10 2.444
379.20 2.442
379.30 2.44
379.40 2.437
379.50 2.435
379.60 2.433
379.70 2.431
379.80 2.428
379.90 2.426
380.00 2.424
380.10 2.422
380.20 2.42
380.30 2.418
380.40 2.415
380.50 2.413
380.60 2.411
380.70 2.409
380.80 2.407
380.90 2.405
381.00 2.403
381.10 2.401
381.20 2.399
381.30 2.396
381.40 2.394
381.50 2.392
381.60 2.39
381.70 2.388
381.80 2.386
381.90 2.384
382.00 2.381
382.10 2.379
382.20 2.377
382.30 2.375
382.40 2.373
382.50 2.371
382.60 2.368
382.70 2.366
382.80 2.364
382.90 2.362
383.00 2.36
383.10 2.358
383.20 2.355
383.30 2.353
383.40 2.351
383.50 2.349
383.60 2.347
383.70 2.346
383.80 2.344
383.90 2.342
384.00 2.34
384.10 2.339
384.20 2.337
384.30 2.335
384.40 2.334
384.50 2.332
384.60 2.33
384.70 2.329
384.80 2.327
384.90 2.325
385.00 2.324
385.10 2.322
385.20 2.32
385.30 2.318
385.40 2.316
385.50 2.315
385.60 2.313
385.70 2.311
385.80 2.309
385.90 2.307
386.00 2.305
386.10 2.303
386.20 2.301
386.30 2.299
386.40 2.296
386.50 2.294
386.60 2.292
386.70 2.29
386.80 2.288
386.90 2.285
387.00 2.283
387.10 2.281
387.20 2.278
387.30 2.276
387.40 2.273
387.50 2.271
387.60 2.269
387.70 2.266
387.80 2.264
387.90 2.261
388.00 2.259
388.10 2.256
388.20 2.254
388.30 2.251
388.40 2.249
388.50 2.247
388.60 2.245
388.70 2.243
388.80 2.241
388.90 2.239
389.00 2.238
389.10 2.236
389.20 2.235
389.30 2.234
389.40 2.233
389.50 2.233
389.60 2.232
389.70 2.231
389.80 2.23
389.90 2.23
390.00 2.229
390.10 2.228
390.20 2.227
390.30 2.227
390.40 2.226
390.50 2.225
390.60 2.224
390.70 2.223
390.80 2.222
390.90 2.221
391.00 2.22
391.10 2.219
391.20 2.218
391.30 2.216
391.40 2.215
391.50 2.214
391.60 2.212
391.70 2.211
391.80 2.209
391.90 2.208
392.00 2.206
392.10 2.204
392.20 2.202
392.30 2.2
392.40 2.198
392.50 2.196
392.60 2.194
392.70 2.192
392.80 2.19
392.90 2.187
393.00 2.185
393.10 2.183
393.20 2.18
393.30 2.177
393.40 2.175
393.50 2.172
393.60 2.169
393.70 2.166
393.80 2.163
393.90 2.16
394.00 2.157
394.10 2.153
394.20 2.15
394.30 2.146
394.40 2.143
394.50 2.139
394.60 2.136
394.70 2.132
394.80 2.128
394.90 2.124
395.00 2.12
395.10 2.116
395.20 2.112
395.30 2.108
395.40 2.103
395.50 2.099
395.60 2.095
395.70 2.09
395.80 2.086
395.90 2.081
396.00 2.077
396.10 2.072
396.20 2.067
396.30 2.063
396.40 2.058
396.50 2.054
396.60 2.049
396.70 2.045
396.80 2.041
396.90 2.037
397.00 2.033
397.10 2.034
397.20 2.035
397.30 2.037
397.40 2.038
397.50 2.04
397.60 2.042
397.70 2.044
397.80 2.045
397.90 2.047
398.00 2.049
398.10 2.051
398.20 2.053
398.30 2.055
398.40 2.056
398.50 2.058
398.60 2.06
398.70 2.061
398.80 2.063
398.90 2.064
399.00 2.066
399.10 2.067
399.20 2.068
399.30 2.069
399.40 2.07
399.50 2.071
399.60 2.072
399.70 2.073
399.80 2.074
399.90 2.074
400.00 2.075
400.10 2.075
400.20 2.076
400.30 2.076
400.40 2.076
400.50 2.076
400.60 2.077
400.70 2.076
400.80 2.076
400.90 2.076
401.00 2.076
401.10 2.076
401.20 2.075
401.30 2.075
401.40 2.074
401.50 2.074
401.60 2.073
401.70 2.072
401.80 2.071
401.90 2.07
402.00 2.069
402.10 2.068
402.20 2.067
402.30 2.065
402.40 2.064
402.50 2.062
402.60 2.061
402.70 2.059
402.80 2.058
402.90 2.056
403.00 2.054
403.10 2.052
403.20 2.05
403.30 2.048
403.40 2.046
403.50 2.043
403.60 2.041
403.70 2.038
403.80 2.036
403.90 2.033
404.00 2.031
404.10 2.028
404.20 2.025
404.30 2.022
404.40 2.019
404.50 2.016
404.60 2.012
404.70 2.009
404.80 2.005
404.90 2.002
405.00 1.998
405.10 1.994
405.20 1.991
405.30 1.987
405.40 1.983
405.50 1.978
405.60 1.974
405.70 1.97
405.80 1.965
405.90 1.961
406.00 1.956
406.10 1.951
406.20 1.946
406.30 1.941
406.40 1.936
406.50 1.93
406.60 1.925
406.70 1.919
406.80 1.914
406.90 1.908
407.00 1.902
407.10 1.896
407.20 1.89
407.30 1.883
407.40 1.877
407.50 1.871
407.60 1.864
407.70 1.857
407.80 1.85
407.90 1.843
408.00 1.836
408.10 1.828
408.20 1.821
408.30 1.813
408.40 1.805
408.50 1.798
408.60 1.79
408.70 1.782
408.80 1.774
408.90 1.765
409.00 1.757
409.10 1.749
409.20 1.741
409.30 1.733
409.40 1.725
409.50 1.717
409.60 1.71
409.70 1.703
409.80 1.697
409.90 1.692
410.00 1.69
410.10 1.689
410.20 1.689
410.30 1.686
410.40 1.686
410.50 1.686
410.60 1.69
410.70 1.693
410.80 1.698
410.90 1.703
411.00 1.708
411.10 1.713
411.20 1.719
411.30 1.724
411.40 1.73
411.50 1.735
411.60 1.741
411.70 1.746
411.80 1.751
411.90 1.756
412.00 1.761
412.10 1.766
412.20 1.771
412.30 1.776
412.40 1.78
412.50 1.784
412.60 1.789
412.70 1.793
412.80 1.797
412.90 1.801
413.00 1.804
413.10 1.808
413.20 1.811
413.30 1.815
413.40 1.818
413.50 1.821
413.60 1.824
413.70 1.827
413.80 1.83
413.90 1.832
414.00 1.835
414.10 1.837
414.20 1.84
414.30 1.842
414.40 1.844
414.50 1.846
414.60 1.848
414.70 1.85
414.80 1.851
414.90 1.853
415.00 1.855
415.10 1.856
415.20 1.858
415.30 1.859
415.40 1.86
415.50 1.861
415.60 1.862
415.70 1.863
415.80 1.864
415.90 1.865
416.00 1.866
416.10 1.867
416.20 1.867
416.30 1.868
416.40 1.868
416.50 1.869
416.60 1.869
416.70 1.869
416.80 1.87
416.90 1.87
417.00 1.87
417.10 1.87
417.20 1.87
417.30 1.87
417.40 1.87
417.50 1.87
417.60 1.87
417.70 1.87
417.80 1.87
417.90 1.869
418.00 1.869
418.10 1.869
418.20 1.868
418.30 1.868
418.40 1.867
418.50 1.867
418.60 1.866
418.70 1.866
418.80 1.865
418.90 1.864
419.00 1.864
419.10 1.863
419.20 1.862
419.30 1.861
419.40 1.86
419.50 1.859
419.60 1.859
419.70 1.858
419.80 1.857
419.90 1.856
420.00 1.855
420.10 1.853
420.20 1.852
420.30 1.851
420.40 1.85
420.50 1.849
420.60 1.848
420.70 1.846
420.80 1.845
420.90 1.844
421.00 1.842
421.10 1.841
421.20 1.84
421.30 1.838
421.40 1.837
421.50 1.835
421.60 1.834
421.70 1.832
421.80 1.831
421.90 1.829
422.00 1.828
422.10 1.826
422.20 1.824
422.30 1.823
422.40 1.821
422.50 1.819
422.60 1.817
422.70 1.816
422.80 1.814
422.90 1.812
423.00 1.81
423.10 1.808
423.20 1.806
423.30 1.804
423.40 1.802
423.50 1.8
423.60 1.798
423.70 1.796
423.80 1.794
423.90 1.792
424.00 1.79
424.10 1.787
424.20 1.785
424.30 1.783
424.40 1.78
424.50 1.778
424.60 1.776
424.70 1.773
424.80 1.771
424.90 1.768
425.00 1.766
425.10 1.763
425.20 1.761
425.30 1.758
425.40 1.755
425.50 1.753
425.60 1.75
425.70 1.747
425.80 1.744
425.90 1.741
426.00 1.738
426.10 1.735
426.20 1.732
426.30 1.729
426.40 1.726
426.50 1.723
426.60 1.72
426.70 1.716
426.80 1.713
426.90 1.709
427.00 1.706
427.10 1.702
427.20 1.699
427.30 1.695
427.40 1.691
427.50 1.688
427.60 1.684
427.70 1.68
427.80 1.676
427.90 1.672
428.00 1.668
428.10 1.664
428.20 1.659
428.30 1.655
428.40 1.651
428.50 1.646
428.60 1.641
428.70 1.637
428.80 1.632
428.90 1.627
429.00 1.622
429.10 1.617
429.20 1.612
429.30 1.607
429.40 1.602
429.50 1.596
429.60 1.591
429.70 1.585
429.80 1.579
429.90 1.573
430.00 1.568
430.10 1.561
430.20 1.555
430.30 1.549
430.40 1.543
430.50 1.536
430.60 1.529
430.70 1.523
430.80 1.516
430.90 1.509
431.00 1.501
431.10 1.494
431.20 1.487
431.30 1.479
431.40 1.471
431.50 1.463
431.60 1.455
431.70 1.447
431.80 1.439
431.90 1.43
432.00 1.421
432.10 1.413
432.20 1.404
432.30 1.394
432.40 1.385
432.50 1.376
432.60 1.366
432.70 1.356
432.80 1.346
432.90 1.336
433.00 1.326
433.10 1.316
433.20 1.305
433.30 1.295
433.40 1.284
433.50 1.273
433.60 1.263
433.70 1.251
433.80 1.238
433.90 1.224
434.00 1.207
434.10 1.207
434.20 1.222
434.30 1.234
434.40 1.245
434.50 1.255
434.60 1.264
434.70 1.273
434.80 1.281
434.90 1.29
435.00 1.298
435.10 1.306
435.20 1.314
435.30 1.322
435.40 1.33
435.50 1.338
435.60 1.345
435.70 1.352
435.80 1.359
435.90 1.366
436.00 1.373
436.10 1.379
436.20 1.386
436.30 1.392
436.40 1.398
436.50 1.403
436.60 1.409
436.70 1.414
436.80 1.42
436.90 1.425
437.00 1.43
437.10 1.435
437.20 1.439
437.30 1.444
437.40 1.448
437.50 1.452
437.60 1.456
437.70 1.46
437.80 1.464
437.90 1.468
438.00 1.471
438.10 1.475
438.20 1.478
438.30 1.481
438.40 1.484
438.50 1.487
438.60 1.49
438.70 1.493
438.80 1.495
438.90 1.498
439.00 1.5
439.10 1.503
439.20 1.505
439.30 1.507
439.40 1.509
439.50 1.511
439.60 1.513
439.70 1.515
439.80 1.516
439.90 1.518
440.00 1.52
440.10 1.521
440.20 1.523
440.30 1.524
440.40 1.525
440.50 1.526
440.60 1.527
440.70 1.529
440.80 1.53
440.90 1.53
441.00 1.531
441.10 1.532
441.20 1.533
441.30 1.534
441.40 1.534
441.50 1.535
441.60 1.535
441.70 1.536
441.80 1.536
441.90 1.537
442.00 1.537
442.10 1.537
442.20 1.538
442.30 1.538
442.40 1.538
442.50 1.538
442.60 1.538
442.70 1.539
442.80 1.539
442.90 1.539
443.00 1.539
443.10 1.538
443.20 1.538
443.30 1.538
443.40 1.538
443.50 1.538
443.60 1.538
443.70 1.537
443.80 1.537
443.90 1.537
444.00 1.537
444.10 1.536
444.20 1.536
444.30 1.535
444.40 1.535
444.50 1.535
444.60 1.534
444.70 1.534
444.80 1.533
444.90 1.533
445.00 1.532
445.10 1.532
445.20 1.531
445.30 1.53
445.40 1.53
445.50 1.529
445.60 1.529
445.70 1.528
445.80 1.527
445.90 1.527
446.00 1.526
446.10 1.525
446.20 1.524
446.30 1.524
446.40 1.523
446.50 1.522
446.60 1.521
446.70 1.521
446.80 1.52
446.90 1.519
447.00 1.518
447.10 1.517
447.20 1.517
447.30 1.516
447.40 1.515
447.50 1.514
447.60 1.513
447.70 1.512
447.80 1.511
447.90 1.511
448.00 1.51
448.10 1.509
448.20 1.508
448.30 1.507
448.40 1.506
448.50 1.505
448.60 1.504
448.70 1.503
448.80 1.502
448.90 1.501
449.00 1.5
449.10 1.499
449.20 1.498
449.30 1.497
449.40 1.496
449.50 1.495
449.60 1.494
449.70 1.493
449.80 1.492
449.90 1.491
450.00 1.49
450.10 1.489
450.20 1.488
450.30 1.487
450.40 1.486
450.50 1.485
450.60 1.484
450.70 1.483
450.80 1.482
450.90 1.481
451.00 1.48
451.10 1.479
451.20 1.478
451.30 1.477
451.40 1.476
451.50 1.475
451.60 1.474
451.70 1.473
451.80 1.472
451.90 1.47
452.00 1.469
452.10 1.468
452.20 1.467
452.30 1.466
452.40 1.465
452.50 1.464
452.60 1.463
452.70 1.462
452.80 1.461
452.90 1.46
453.00 1.458
453.10 1.457
453.20 1.456
453.30 1.455
453.40 1.454
453.50 1.453
453.60 1.452
453.70 1.451
453.80 1.45
453.90 1.449
454.00 1.447
454.10 1.446
