# Version 2.1 - nm, norm@500 to 1, cut digits, bergeron_1750_70.dat_1750
# Wavelength(nm)  Flambda(ergs/cm^s/s/nm)
300.00 0.01393
300.10 0.01399
300.20 0.01405
300.30 0.01412
300.40 0.01418
300.50 0.01424
300.60 0.01431
300.70 0.01437
300.80 0.01443
300.90 0.0145
301.00 0.01456
301.10 0.01463
301.20 0.01469
301.30 0.01475
301.40 0.01481
301.50 0.01488
301.60 0.01494
301.70 0.015
301.80 0.01507
301.90 0.01513
302.00 0.01519
302.10 0.01526
302.20 0.01533
302.30 0.0154
302.40 0.01547
302.50 0.01553
302.60 0.0156
302.70 0.01567
302.80 0.01574
302.90 0.01581
303.00 0.01587
303.10 0.01594
303.20 0.01601
303.30 0.01608
303.40 0.01614
303.50 0.01621
303.60 0.01628
303.70 0.01635
303.80 0.01641
303.90 0.01648
304.00 0.01655
304.10 0.01662
304.20 0.01669
304.30 0.01676
304.40 0.01684
304.50 0.01691
304.60 0.01698
304.70 0.01706
304.80 0.01713
304.90 0.0172
305.00 0.01727
305.10 0.01734
305.20 0.01742
305.30 0.01749
305.40 0.01756
305.50 0.01763
305.60 0.0177
305.70 0.01778
305.80 0.01785
305.90 0.01792
306.00 0.01799
306.10 0.01807
306.20 0.01814
306.30 0.01822
306.40 0.0183
306.50 0.01838
306.60 0.01845
306.70 0.01853
306.80 0.01861
306.90 0.01869
307.00 0.01876
307.10 0.01884
307.20 0.01892
307.30 0.01899
307.40 0.01907
307.50 0.01915
307.60 0.01922
307.70 0.0193
307.80 0.01937
307.90 0.01945
308.00 0.01953
308.10 0.01961
308.20 0.01969
308.30 0.01977
308.40 0.01986
308.50 0.01994
308.60 0.02002
308.70 0.0201
308.80 0.02019
308.90 0.02027
309.00 0.02035
309.10 0.02043
309.20 0.02051
309.30 0.02059
309.40 0.02068
309.50 0.02076
309.60 0.02084
309.70 0.02092
309.80 0.021
309.90 0.02108
310.00 0.02117
310.10 0.02125
310.20 0.02134
310.30 0.02143
310.40 0.02151
310.50 0.0216
310.60 0.02169
310.70 0.02178
310.80 0.02187
310.90 0.02195
311.00 0.02204
311.10 0.02213
311.20 0.02221
311.30 0.0223
311.40 0.02239
311.50 0.02247
311.60 0.02256
311.70 0.02265
311.80 0.02273
311.90 0.02282
312.00 0.02291
312.10 0.02299
312.20 0.02308
312.30 0.02317
312.40 0.02327
312.50 0.02336
312.60 0.02345
312.70 0.02355
312.80 0.02364
312.90 0.02373
313.00 0.02382
313.10 0.02392
313.20 0.02401
313.30 0.0241
313.40 0.02419
313.50 0.02429
313.60 0.02438
313.70 0.02447
313.80 0.02456
313.90 0.02465
314.00 0.02475
314.10 0.02484
314.20 0.02494
314.30 0.02504
314.40 0.02514
314.50 0.02524
314.60 0.02534
314.70 0.02543
314.80 0.02553
314.90 0.02563
315.00 0.02573
315.10 0.02583
315.20 0.02592
315.30 0.02602
315.40 0.02612
315.50 0.02622
315.60 0.02631
315.70 0.02641
315.80 0.02651
315.90 0.02661
316.00 0.02671
316.10 0.02681
316.20 0.02691
316.30 0.02701
316.40 0.02712
316.50 0.02722
316.60 0.02733
316.70 0.02743
316.80 0.02753
316.90 0.02764
317.00 0.02774
317.10 0.02785
317.20 0.02795
317.30 0.02805
317.40 0.02816
317.50 0.02826
317.60 0.02836
317.70 0.02846
317.80 0.02857
317.90 0.02867
318.00 0.02878
318.10 0.02888
318.20 0.02899
318.30 0.0291
318.40 0.02921
318.50 0.02932
318.60 0.02943
318.70 0.02954
318.80 0.02965
318.90 0.02976
319.00 0.02987
319.10 0.02998
319.20 0.03009
319.30 0.0302
319.40 0.03031
319.50 0.03042
319.60 0.03053
319.70 0.03064
319.80 0.03075
319.90 0.03085
320.00 0.03097
320.10 0.03108
320.20 0.0312
320.30 0.03131
320.40 0.03143
320.50 0.03155
320.60 0.03166
320.70 0.03178
320.80 0.0319
320.90 0.03201
321.00 0.03213
321.10 0.03224
321.20 0.03236
321.30 0.03247
321.40 0.03259
321.50 0.0327
321.60 0.03282
321.70 0.03293
321.80 0.03305
321.90 0.03316
322.00 0.03328
322.10 0.0334
322.20 0.03353
322.30 0.03365
322.40 0.03377
322.50 0.0339
322.60 0.03402
322.70 0.03414
322.80 0.03426
322.90 0.03439
323.00 0.03451
323.10 0.03463
323.20 0.03475
323.30 0.03487
323.40 0.035
323.50 0.03512
323.60 0.03524
323.70 0.03536
323.80 0.03548
323.90 0.0356
324.00 0.03572
324.10 0.03585
324.20 0.03598
324.30 0.03611
324.40 0.03624
324.50 0.03637
324.60 0.0365
324.70 0.03663
324.80 0.03676
324.90 0.03689
325.00 0.03702
325.10 0.03715
325.20 0.03728
325.30 0.03741
325.40 0.03753
325.50 0.03766
325.60 0.03779
325.70 0.03792
325.80 0.03804
325.90 0.03818
326.00 0.03831
326.10 0.03844
326.20 0.03857
326.30 0.03871
326.40 0.03885
326.50 0.03898
326.60 0.03912
326.70 0.03926
326.80 0.03939
326.90 0.03953
327.00 0.03966
327.10 0.0398
327.20 0.03994
327.30 0.04007
327.40 0.04021
327.50 0.04034
327.60 0.04048
327.70 0.04061
327.80 0.04074
327.90 0.04088
328.00 0.04102
328.10 0.04116
328.20 0.0413
328.30 0.04145
328.40 0.04159
328.50 0.04173
328.60 0.04188
328.70 0.04202
328.80 0.04216
328.90 0.04231
329.00 0.04245
329.10 0.04259
329.20 0.04274
329.30 0.04288
329.40 0.04302
329.50 0.04316
329.60 0.0433
329.70 0.04344
329.80 0.04359
329.90 0.04373
330.00 0.04387
330.10 0.04402
330.20 0.04417
330.30 0.04432
330.40 0.04447
330.50 0.04463
330.60 0.04478
330.70 0.04493
330.80 0.04508
330.90 0.04523
331.00 0.04538
331.10 0.04553
331.20 0.04568
331.30 0.04583
331.40 0.04598
331.50 0.04612
331.60 0.04627
331.70 0.04642
331.80 0.04657
331.90 0.04672
332.00 0.04687
332.10 0.04703
332.20 0.04719
332.30 0.04734
332.40 0.0475
332.50 0.04766
332.60 0.04782
332.70 0.04798
332.80 0.04814
332.90 0.04829
333.00 0.04845
333.10 0.04861
333.20 0.04877
333.30 0.04892
333.40 0.04908
333.50 0.04924
333.60 0.04939
333.70 0.04955
333.80 0.04971
333.90 0.04986
334.00 0.05002
334.10 0.05018
334.20 0.05035
334.30 0.05052
334.40 0.05068
334.50 0.05085
334.60 0.05102
334.70 0.05118
334.80 0.05135
334.90 0.05151
335.00 0.05168
335.10 0.05184
335.20 0.05201
335.30 0.05217
335.40 0.05234
335.50 0.0525
335.60 0.05267
335.70 0.05283
335.80 0.05299
335.90 0.05316
336.00 0.05332
336.10 0.0535
336.20 0.05367
336.30 0.05385
336.40 0.05402
336.50 0.0542
336.60 0.05437
336.70 0.05454
336.80 0.05472
336.90 0.05489
337.00 0.05506
337.10 0.05524
337.20 0.05541
337.30 0.05558
337.40 0.05575
337.50 0.05593
337.60 0.0561
337.70 0.05627
337.80 0.05644
337.90 0.05661
338.00 0.05678
338.10 0.05697
338.20 0.05715
338.30 0.05733
338.40 0.05752
338.50 0.0577
338.60 0.05788
338.70 0.05806
338.80 0.05824
338.90 0.05843
339.00 0.05861
339.10 0.05879
339.20 0.05897
339.30 0.05915
339.40 0.05933
339.50 0.05951
339.60 0.05969
339.70 0.05987
339.80 0.06005
339.90 0.06023
340.00 0.06041
340.10 0.0606
340.20 0.06079
340.30 0.06098
340.40 0.06117
340.50 0.06136
340.60 0.06155
340.70 0.06174
340.80 0.06193
340.90 0.06212
341.00 0.06231
341.10 0.0625
341.20 0.06269
341.30 0.06288
341.40 0.06307
341.50 0.06326
341.60 0.06344
341.70 0.06363
341.80 0.06382
341.90 0.06401
342.00 0.06419
342.10 0.06439
342.20 0.06459
342.30 0.06479
342.40 0.06499
342.50 0.06519
342.60 0.06539
342.70 0.06559
342.80 0.06579
342.90 0.06599
343.00 0.06618
343.10 0.06638
343.20 0.06658
343.30 0.06678
343.40 0.06697
343.50 0.06717
343.60 0.06737
343.70 0.06756
343.80 0.06776
343.90 0.06795
344.00 0.06815
344.10 0.06836
344.20 0.06857
344.30 0.06878
344.40 0.06898
344.50 0.06919
344.60 0.0694
344.70 0.06961
344.80 0.06981
344.90 0.07002
345.00 0.07023
345.10 0.07043
345.20 0.07064
345.30 0.07085
345.40 0.07105
345.50 0.07126
345.60 0.07146
345.70 0.07167
345.80 0.07187
345.90 0.07208
346.00 0.07228
346.10 0.0725
346.20 0.07272
346.30 0.07293
346.40 0.07315
346.50 0.07337
346.60 0.07358
346.70 0.0738
346.80 0.07402
346.90 0.07423
347.00 0.07445
347.10 0.07466
347.20 0.07488
347.30 0.07509
347.40 0.07531
347.50 0.07552
347.60 0.07573
347.70 0.07595
347.80 0.07616
347.90 0.07637
348.00 0.07659
348.10 0.07681
348.20 0.07704
348.30 0.07727
348.40 0.07749
348.50 0.07772
348.60 0.07794
348.70 0.07817
348.80 0.0784
348.90 0.07862
349.00 0.07884
349.10 0.07907
349.20 0.07929
349.30 0.07952
349.40 0.07974
349.50 0.07996
349.60 0.08019
349.70 0.08041
349.80 0.08063
349.90 0.08085
350.00 0.08107
350.10 0.08131
350.20 0.08155
350.30 0.08178
350.40 0.08202
350.50 0.08225
350.60 0.08249
350.70 0.08272
350.80 0.08296
350.90 0.08319
351.00 0.08342
351.10 0.08366
351.20 0.08389
351.30 0.08412
351.40 0.08436
351.50 0.08459
351.60 0.08482
351.70 0.08505
351.80 0.08528
351.90 0.08552
352.00 0.08575
352.10 0.08599
352.20 0.08624
352.30 0.08648
352.40 0.08673
352.50 0.08697
352.60 0.08722
352.70 0.08746
352.80 0.0877
352.90 0.08795
353.00 0.08819
353.10 0.08843
353.20 0.08867
353.30 0.08892
353.40 0.08916
353.50 0.0894
353.60 0.08964
353.70 0.08988
353.80 0.09012
353.90 0.09036
354.00 0.0906
354.10 0.09086
354.20 0.09111
354.30 0.09137
354.40 0.09162
354.50 0.09187
354.60 0.09213
354.70 0.09238
354.80 0.09263
354.90 0.09289
355.00 0.09314
355.10 0.09339
355.20 0.09364
355.30 0.0939
355.40 0.09415
355.50 0.0944
355.60 0.09465
355.70 0.0949
355.80 0.09515
355.90 0.0954
356.00 0.09565
356.10 0.09591
356.20 0.09618
356.30 0.09644
356.40 0.09671
356.50 0.09697
356.60 0.09723
356.70 0.0975
356.80 0.09776
356.90 0.09802
357.00 0.09828
357.10 0.09854
357.20 0.09881
357.30 0.09907
357.40 0.09933
357.50 0.09959
357.60 0.09985
357.70 0.1001
357.80 0.1004
357.90 0.1006
358.00 0.1009
358.10 0.1012
358.20 0.1014
358.30 0.1017
358.40 0.102
358.50 0.1023
358.60 0.1025
358.70 0.1028
358.80 0.1031
358.90 0.1033
359.00 0.1036
359.10 0.1039
359.20 0.1042
359.30 0.1044
359.40 0.1047
359.50 0.105
359.60 0.1052
359.70 0.1055
359.80 0.1058
359.90 0.1061
360.00 0.1063
360.10 0.1066
360.20 0.1069
360.30 0.1072
360.40 0.1075
360.50 0.1077
360.60 0.108
360.70 0.1083
360.80 0.1086
360.90 0.1089
361.00 0.1092
361.10 0.1094
361.20 0.1097
361.30 0.11
361.40 0.1103
361.50 0.1106
361.60 0.1108
361.70 0.1111
361.80 0.1114
361.90 0.1117
362.00 0.112
362.10 0.1122
362.20 0.1125
362.30 0.1128
362.40 0.1131
362.50 0.1134
362.60 0.1137
362.70 0.114
362.80 0.1143
362.90 0.1146
363.00 0.1148
363.10 0.1151
363.20 0.1154
363.30 0.1157
363.40 0.116
363.50 0.1163
363.60 0.1166
363.70 0.1169
363.80 0.1172
363.90 0.1175
364.00 0.1178
364.10 0.1181
364.20 0.1184
364.30 0.1187
364.40 0.119
364.50 0.1193
364.60 0.1196
364.70 0.1199
364.80 0.1202
364.90 0.1205
365.00 0.1208
365.10 0.1211
365.20 0.1214
365.30 0.1217
365.40 0.122
365.50 0.1223
365.60 0.1226
365.70 0.1229
365.80 0.1232
365.90 0.1235
366.00 0.1238
366.10 0.1241
366.20 0.1245
366.30 0.1248
366.40 0.1251
366.50 0.1254
366.60 0.1257
366.70 0.126
366.80 0.1263
366.90 0.1267
367.00 0.127
367.10 0.1273
367.20 0.1276
367.30 0.1279
367.40 0.1282
367.50 0.1285
367.60 0.1288
367.70 0.1291
367.80 0.1295
367.90 0.1298
368.00 0.1301
368.10 0.1304
368.20 0.1307
368.30 0.1311
368.40 0.1314
368.50 0.1317
368.60 0.132
368.70 0.1324
368.80 0.1327
368.90 0.133
369.00 0.1333
369.10 0.1336
369.20 0.134
369.30 0.1343
369.40 0.1346
369.50 0.1349
369.60 0.1353
369.70 0.1356
369.80 0.1359
369.90 0.1362
370.00 0.1365
370.10 0.1369
370.20 0.1372
370.30 0.1375
370.40 0.1379
370.50 0.1382
370.60 0.1385
370.70 0.1389
370.80 0.1392
370.90 0.1395
371.00 0.1399
371.10 0.1402
371.20 0.1405
371.30 0.1409
371.40 0.1412
371.50 0.1415
371.60 0.1419
371.70 0.1422
371.80 0.1425
371.90 0.1429
372.00 0.1432
372.10 0.1435
372.20 0.1439
372.30 0.1442
372.40 0.1446
372.50 0.1449
372.60 0.1453
372.70 0.1456
372.80 0.146
372.90 0.1463
373.00 0.1467
373.10 0.147
373.20 0.1473
373.30 0.1477
373.40 0.148
373.50 0.1484
373.60 0.1487
373.70 0.1491
373.80 0.1494
373.90 0.1497
374.00 0.1501
374.10 0.1504
374.20 0.1508
374.30 0.1511
374.40 0.1515
374.50 0.1519
374.60 0.1522
374.70 0.1526
374.80 0.1529
374.90 0.1533
375.00 0.1536
375.10 0.154
375.20 0.1543
375.30 0.1547
375.40 0.1551
375.50 0.1554
375.60 0.1558
375.70 0.1561
375.80 0.1565
375.90 0.1568
376.00 0.1572
376.10 0.1575
376.20 0.1579
376.30 0.1583
376.40 0.1586
376.50 0.159
376.60 0.1593
376.70 0.1597
376.80 0.1601
376.90 0.1604
377.00 0.1608
377.10 0.1612
377.20 0.1615
377.30 0.1619
377.40 0.1623
377.50 0.1626
377.60 0.163
377.70 0.1634
377.80 0.1637
377.90 0.1641
378.00 0.1645
378.10 0.1649
378.20 0.1652
378.30 0.1656
378.40 0.166
378.50 0.1663
378.60 0.1667
378.70 0.1671
378.80 0.1675
378.90 0.1678
379.00 0.1682
379.10 0.1686
379.20 0.169
379.30 0.1694
379.40 0.1697
379.50 0.1701
379.60 0.1705
379.70 0.1709
379.80 0.1712
379.90 0.1716
380.00 0.172
380.10 0.1724
380.20 0.1728
380.30 0.1732
380.40 0.1735
380.50 0.1739
380.60 0.1743
380.70 0.1747
380.80 0.1751
380.90 0.1755
381.00 0.1758
381.10 0.1762
381.20 0.1766
381.30 0.177
381.40 0.1774
381.50 0.1778
381.60 0.1782
381.70 0.1786
381.80 0.179
381.90 0.1794
382.00 0.1797
382.10 0.1801
382.20 0.1805
382.30 0.1809
382.40 0.1813
382.50 0.1817
382.60 0.1821
382.70 0.1825
382.80 0.1829
382.90 0.1833
383.00 0.1837
383.10 0.1841
383.20 0.1845
383.30 0.1849
383.40 0.1853
383.50 0.1857
383.60 0.1861
383.70 0.1865
383.80 0.1869
383.90 0.1873
384.00 0.1877
384.10 0.1881
384.20 0.1885
384.30 0.1889
384.40 0.1893
384.50 0.1897
384.60 0.1901
384.70 0.1906
384.80 0.191
384.90 0.1914
385.00 0.1918
385.10 0.1922
385.20 0.1926
385.30 0.193
385.40 0.1934
385.50 0.1938
385.60 0.1943
385.70 0.1947
385.80 0.1951
385.90 0.1955
386.00 0.1959
386.10 0.1963
386.20 0.1967
386.30 0.1972
386.40 0.1976
386.50 0.198
386.60 0.1984
386.70 0.1988
386.80 0.1992
386.90 0.1997
387.00 0.2001
387.10 0.2005
387.20 0.2009
387.30 0.2013
387.40 0.2018
387.50 0.2022
387.60 0.2026
387.70 0.203
387.80 0.2035
387.90 0.2039
388.00 0.2043
388.10 0.2047
388.20 0.2052
388.30 0.2056
388.40 0.206
388.50 0.2065
388.60 0.2069
388.70 0.2073
388.80 0.2077
388.90 0.2082
389.00 0.2086
389.10 0.209
389.20 0.2095
389.30 0.2099
389.40 0.2103
389.50 0.2108
389.60 0.2112
389.70 0.2116
389.80 0.2121
389.90 0.2125
390.00 0.213
390.10 0.2134
390.20 0.2138
390.30 0.2143
390.40 0.2147
390.50 0.2152
390.60 0.2156
390.70 0.216
390.80 0.2165
390.90 0.2169
391.00 0.2174
391.10 0.2178
391.20 0.2182
391.30 0.2187
391.40 0.2191
391.50 0.2196
391.60 0.22
391.70 0.2205
391.80 0.2209
391.90 0.2214
392.00 0.2218
392.10 0.2223
392.20 0.2227
392.30 0.2232
392.40 0.2236
392.50 0.2241
392.60 0.2245
392.70 0.225
392.80 0.2254
392.90 0.2259
393.00 0.2263
393.10 0.2268
393.20 0.2272
393.30 0.2277
393.40 0.2282
393.50 0.2286
393.60 0.2291
393.70 0.2295
393.80 0.23
393.90 0.2304
394.00 0.2309
394.10 0.2314
394.20 0.2318
394.30 0.2323
394.40 0.2327
394.50 0.2332
394.60 0.2337
394.70 0.2341
394.80 0.2346
394.90 0.2351
395.00 0.2355
395.10 0.236
395.20 0.2365
395.30 0.2369
395.40 0.2374
395.50 0.2379
395.60 0.2383
395.70 0.2388
395.80 0.2393
395.90 0.2397
396.00 0.2402
396.10 0.2407
396.20 0.2412
396.30 0.2416
396.40 0.2421
396.50 0.2426
396.60 0.243
396.70 0.2435
396.80 0.244
396.90 0.2445
397.00 0.245
397.10 0.2454
397.20 0.2459
397.30 0.2464
397.40 0.2469
397.50 0.2473
397.60 0.2478
397.70 0.2483
397.80 0.2488
397.90 0.2493
398.00 0.2497
398.10 0.2502
398.20 0.2507
398.30 0.2512
398.40 0.2517
398.50 0.2522
398.60 0.2527
398.70 0.2531
398.80 0.2536
398.90 0.2541
399.00 0.2546
399.10 0.2551
399.20 0.2556
399.30 0.2561
399.40 0.2566
399.50 0.2571
399.60 0.2575
399.70 0.258
399.80 0.2585
399.90 0.259
400.00 0.2595
400.10 0.26
400.20 0.2605
400.30 0.261
400.40 0.2615
400.50 0.262
400.60 0.2625
400.70 0.263
400.80 0.2635
400.90 0.264
401.00 0.2645
401.10 0.265
401.20 0.2655
401.30 0.266
401.40 0.2665
401.50 0.267
401.60 0.2675
401.70 0.268
401.80 0.2685
401.90 0.269
402.00 0.2695
402.10 0.27
402.20 0.2705
402.30 0.271
402.40 0.2715
402.50 0.272
402.60 0.2725
402.70 0.273
402.80 0.2736
402.90 0.2741
403.00 0.2746
403.10 0.2751
403.20 0.2756
403.30 0.2761
403.40 0.2766
403.50 0.2771
403.60 0.2776
403.70 0.2782
403.80 0.2787
403.90 0.2792
404.00 0.2797
404.10 0.2802
404.20 0.2807
404.30 0.2813
404.40 0.2818
404.50 0.2823
404.60 0.2828
404.70 0.2833
404.80 0.2839
404.90 0.2844
405.00 0.2849
405.10 0.2854
405.20 0.2859
405.30 0.2865
405.40 0.287
405.50 0.2875
405.60 0.2881
405.70 0.2886
405.80 0.2891
405.90 0.2896
406.00 0.2902
406.10 0.2907
406.20 0.2912
406.30 0.2917
406.40 0.2923
406.50 0.2928
406.60 0.2933
406.70 0.2939
406.80 0.2944
406.90 0.2949
407.00 0.2955
407.10 0.296
407.20 0.2965
407.30 0.2971
407.40 0.2976
407.50 0.2981
407.60 0.2987
407.70 0.2992
407.80 0.2997
407.90 0.3003
408.00 0.3008
408.10 0.3014
408.20 0.3019
408.30 0.3024
408.40 0.303
408.50 0.3035
408.60 0.3041
408.70 0.3046
408.80 0.3051
408.90 0.3057
409.00 0.3062
409.10 0.3068
409.20 0.3073
409.30 0.3079
409.40 0.3084
409.50 0.309
409.60 0.3095
409.70 0.3101
409.80 0.3106
409.90 0.3112
410.00 0.3117
410.10 0.3122
410.20 0.3128
410.30 0.3134
410.40 0.3139
410.50 0.3145
410.60 0.315
410.70 0.3156
410.80 0.3161
410.90 0.3167
411.00 0.3172
411.10 0.3178
411.20 0.3183
411.30 0.3189
411.40 0.3195
411.50 0.32
411.60 0.3206
411.70 0.3211
411.80 0.3217
411.90 0.3222
412.00 0.3228
412.10 0.3234
412.20 0.3239
412.30 0.3245
412.40 0.3251
412.50 0.3256
412.60 0.3262
412.70 0.3268
412.80 0.3273
412.90 0.3279
413.00 0.3285
413.10 0.329
413.20 0.3296
413.30 0.3302
413.40 0.3307
413.50 0.3313
413.60 0.3319
413.70 0.3324
413.80 0.333
413.90 0.3336
414.00 0.3341
414.10 0.3347
414.20 0.3353
414.30 0.3359
414.40 0.3364
414.50 0.337
414.60 0.3376
414.70 0.3382
414.80 0.3387
414.90 0.3393
415.00 0.3399
415.10 0.3405
415.20 0.3411
415.30 0.3416
415.40 0.3422
415.50 0.3428
415.60 0.3434
415.70 0.344
415.80 0.3445
415.90 0.3451
416.00 0.3457
416.10 0.3463
416.20 0.3469
416.30 0.3475
416.40 0.348
416.50 0.3486
416.60 0.3492
416.70 0.3498
416.80 0.3504
416.90 0.351
417.00 0.3516
417.10 0.3522
417.20 0.3527
417.30 0.3533
417.40 0.3539
417.50 0.3545
417.60 0.3551
417.70 0.3557
417.80 0.3563
417.90 0.3569
418.00 0.3575
418.10 0.3581
418.20 0.3587
418.30 0.3593
418.40 0.3599
418.50 0.3605
418.60 0.361
418.70 0.3617
418.80 0.3623
418.90 0.3629
419.00 0.3635
419.10 0.3641
419.20 0.3647
419.30 0.3653
419.40 0.3659
419.50 0.3664
419.60 0.3671
419.70 0.3677
419.80 0.3683
419.90 0.3689
420.00 0.3695
420.10 0.3701
420.20 0.3707
420.30 0.3713
420.40 0.3719
420.50 0.3725
420.60 0.3731
420.70 0.3737
420.80 0.3743
420.90 0.375
421.00 0.3756
421.10 0.3762
421.20 0.3768
421.30 0.3774
421.40 0.378
421.50 0.3786
421.60 0.3792
421.70 0.3798
421.80 0.3805
421.90 0.3811
422.00 0.3817
422.10 0.3823
422.20 0.3829
422.30 0.3835
422.40 0.3842
422.50 0.3848
422.60 0.3854
422.70 0.386
422.80 0.3866
422.90 0.3873
423.00 0.3879
423.10 0.3885
423.20 0.3891
423.30 0.3897
423.40 0.3904
423.50 0.391
423.60 0.3916
423.70 0.3922
423.80 0.3929
423.90 0.3935
424.00 0.3941
424.10 0.3947
424.20 0.3954
424.30 0.396
424.40 0.3966
424.50 0.3973
424.60 0.3979
424.70 0.3985
424.80 0.3992
424.90 0.3998
425.00 0.4004
425.10 0.401
425.20 0.4017
425.30 0.4023
425.40 0.4029
425.50 0.4036
425.60 0.4042
425.70 0.4049
425.80 0.4055
425.90 0.4061
426.00 0.4068
426.10 0.4074
426.20 0.408
426.30 0.4087
426.40 0.4093
426.50 0.41
426.60 0.4106
426.70 0.4112
426.80 0.4119
426.90 0.4125
427.00 0.4132
427.10 0.4138
427.20 0.4144
427.30 0.4151
427.40 0.4157
427.50 0.4164
427.60 0.417
427.70 0.4177
427.80 0.4183
427.90 0.419
428.00 0.4196
428.10 0.4203
428.20 0.4209
428.30 0.4216
428.40 0.4222
428.50 0.4229
428.60 0.4235
428.70 0.4242
428.80 0.4248
428.90 0.4255
429.00 0.4261
429.10 0.4268
429.20 0.4274
429.30 0.4281
429.40 0.4287
429.50 0.4294
429.60 0.4301
429.70 0.4307
429.80 0.4314
429.90 0.432
430.00 0.4327
430.10 0.4333
430.20 0.434
430.30 0.4347
430.40 0.4353
430.50 0.436
430.60 0.4366
430.70 0.4373
430.80 0.438
430.90 0.4386
431.00 0.4393
431.10 0.44
431.20 0.4406
431.30 0.4413
431.40 0.442
431.50 0.4426
431.60 0.4433
431.70 0.444
431.80 0.4446
431.90 0.4453
432.00 0.446
432.10 0.4466
432.20 0.4473
432.30 0.448
432.40 0.4486
432.50 0.4493
432.60 0.45
432.70 0.4507
432.80 0.4513
432.90 0.452
433.00 0.4527
433.10 0.4534
433.20 0.454
433.30 0.4547
433.40 0.4554
433.50 0.4561
433.60 0.4567
433.70 0.4574
433.80 0.4581
433.90 0.4588
434.00 0.4594
434.10 0.4601
434.20 0.4608
434.30 0.4615
434.40 0.4622
434.50 0.4628
434.60 0.4635
434.70 0.4642
434.80 0.4649
434.90 0.4656
435.00 0.4663
435.10 0.4669
435.20 0.4676
435.30 0.4683
435.40 0.469
435.50 0.4697
435.60 0.4704
435.70 0.4711
435.80 0.4717
435.90 0.4724
436.00 0.4731
436.10 0.4738
436.20 0.4745
436.30 0.4752
436.40 0.4759
436.50 0.4766
436.60 0.4773
436.70 0.478
436.80 0.4787
436.90 0.4793
437.00 0.48
437.10 0.4807
437.20 0.4814
437.30 0.4821
437.40 0.4828
437.50 0.4835
437.60 0.4842
437.70 0.4849
437.80 0.4856
437.90 0.4863
438.00 0.487
438.10 0.4877
438.20 0.4884
438.30 0.4891
438.40 0.4898
438.50 0.4905
438.60 0.4912
438.70 0.4919
438.80 0.4926
438.90 0.4933
