# Version 2.1 - nm, norm@500 to 1, cut digits, bergeron_2250_65.dat_2250
# Wavelength(nm)  Flambda(ergs/cm^s/s/nm)
300.00 0.02201
300.10 0.02209
300.20 0.02218
300.30 0.02227
300.40 0.02236
300.50 0.02245
300.60 0.02254
300.70 0.02263
300.80 0.02272
300.90 0.02281
301.00 0.0229
301.10 0.02299
301.20 0.02308
301.30 0.02317
301.40 0.02326
301.50 0.02335
301.60 0.02344
301.70 0.02353
301.80 0.02361
301.90 0.0237
302.00 0.02379
302.10 0.02389
302.20 0.02398
302.30 0.02408
302.40 0.02417
302.50 0.02427
302.60 0.02437
302.70 0.02446
302.80 0.02456
302.90 0.02465
303.00 0.02475
303.10 0.02484
303.20 0.02494
303.30 0.02503
303.40 0.02513
303.50 0.02522
303.60 0.02531
303.70 0.02541
303.80 0.0255
303.90 0.0256
304.00 0.02569
304.10 0.02579
304.20 0.02589
304.30 0.02599
304.40 0.0261
304.50 0.0262
304.60 0.0263
304.70 0.0264
304.80 0.0265
304.90 0.0266
305.00 0.0267
305.10 0.0268
305.20 0.0269
305.30 0.027
305.40 0.0271
305.50 0.0272
305.60 0.0273
305.70 0.0274
305.80 0.0275
305.90 0.0276
306.00 0.02771
306.10 0.02781
306.20 0.02792
306.30 0.02803
306.40 0.02813
306.50 0.02824
306.60 0.02835
306.70 0.02845
306.80 0.02856
306.90 0.02867
307.00 0.02877
307.10 0.02888
307.20 0.02899
307.30 0.02909
307.40 0.0292
307.50 0.02931
307.60 0.02941
307.70 0.02952
307.80 0.02962
307.90 0.02973
308.00 0.02984
308.10 0.02995
308.20 0.03006
308.30 0.03017
308.40 0.03029
308.50 0.0304
308.60 0.03051
308.70 0.03063
308.80 0.03074
308.90 0.03085
309.00 0.03097
309.10 0.03108
309.20 0.03119
309.30 0.0313
309.40 0.03142
309.50 0.03153
309.60 0.03164
309.70 0.03175
309.80 0.03186
309.90 0.03197
310.00 0.03209
310.10 0.03221
310.20 0.03233
310.30 0.03245
310.40 0.03257
310.50 0.03269
310.60 0.03281
310.70 0.03293
310.80 0.03305
310.90 0.03317
311.00 0.03329
311.10 0.0334
311.20 0.03352
311.30 0.03364
311.40 0.03376
311.50 0.03388
311.60 0.034
311.70 0.03412
311.80 0.03423
311.90 0.03435
312.00 0.03447
312.10 0.03459
312.20 0.03471
312.30 0.03483
312.40 0.03496
312.50 0.03509
312.60 0.03521
312.70 0.03534
312.80 0.03546
312.90 0.03559
313.00 0.03572
313.10 0.03584
313.20 0.03597
313.30 0.03609
313.40 0.03622
313.50 0.03634
313.60 0.03647
313.70 0.03659
313.80 0.03672
313.90 0.03684
314.00 0.03697
314.10 0.0371
314.20 0.03723
314.30 0.03737
314.40 0.0375
314.50 0.03763
314.60 0.03776
314.70 0.0379
314.80 0.03803
314.90 0.03816
315.00 0.03829
315.10 0.03843
315.20 0.03856
315.30 0.03869
315.40 0.03882
315.50 0.03895
315.60 0.03908
315.70 0.03921
315.80 0.03934
315.90 0.03948
316.00 0.03961
316.10 0.03975
316.20 0.03989
316.30 0.04003
316.40 0.04017
316.50 0.04031
316.60 0.04045
316.70 0.04059
316.80 0.04072
316.90 0.04086
317.00 0.041
317.10 0.04114
317.20 0.04128
317.30 0.04142
317.40 0.04156
317.50 0.04169
317.60 0.04183
317.70 0.04197
317.80 0.04211
317.90 0.04225
318.00 0.04239
318.10 0.04253
318.20 0.04268
318.30 0.04282
318.40 0.04297
318.50 0.04312
318.60 0.04326
318.70 0.04341
318.80 0.04356
318.90 0.0437
319.00 0.04385
319.10 0.04399
319.20 0.04414
319.30 0.04429
319.40 0.04443
319.50 0.04458
319.60 0.04472
319.70 0.04486
319.80 0.04501
319.90 0.04515
320.00 0.0453
320.10 0.04546
320.20 0.04561
320.30 0.04576
320.40 0.04592
320.50 0.04607
320.60 0.04622
320.70 0.04638
320.80 0.04653
320.90 0.04668
321.00 0.04684
321.10 0.04699
321.20 0.04714
321.30 0.0473
321.40 0.04745
321.50 0.0476
321.60 0.04775
321.70 0.0479
321.80 0.04806
321.90 0.04821
322.00 0.04836
322.10 0.04852
322.20 0.04868
322.30 0.04885
322.40 0.04901
322.50 0.04917
322.60 0.04933
322.70 0.04949
322.80 0.04965
322.90 0.04981
323.00 0.04997
323.10 0.05013
323.20 0.05029
323.30 0.05045
323.40 0.05061
323.50 0.05077
323.60 0.05093
323.70 0.05109
323.80 0.05125
323.90 0.05141
324.00 0.05157
324.10 0.05174
324.20 0.05191
324.30 0.05208
324.40 0.05225
324.50 0.05241
324.60 0.05258
324.70 0.05275
324.80 0.05292
324.90 0.05309
325.00 0.05326
325.10 0.05343
325.20 0.05359
325.30 0.05376
325.40 0.05393
325.50 0.05409
325.60 0.05426
325.70 0.05443
325.80 0.05459
325.90 0.05476
326.00 0.05493
326.10 0.0551
326.20 0.05528
326.30 0.05546
326.40 0.05564
326.50 0.05581
326.60 0.05599
326.70 0.05617
326.80 0.05634
326.90 0.05652
327.00 0.0567
327.10 0.05687
327.20 0.05705
327.30 0.05722
327.40 0.0574
327.50 0.05757
327.60 0.05775
327.70 0.05792
327.80 0.05809
327.90 0.05827
328.00 0.05845
328.10 0.05863
328.20 0.05881
328.30 0.059
328.40 0.05918
328.50 0.05937
328.60 0.05955
328.70 0.05974
328.80 0.05992
328.90 0.06011
329.00 0.06029
329.10 0.06047
329.20 0.06066
329.30 0.06084
329.40 0.06102
329.50 0.0612
329.60 0.06139
329.70 0.06157
329.80 0.06175
329.90 0.06193
330.00 0.06211
330.10 0.06231
330.20 0.0625
330.30 0.0627
330.40 0.06289
330.50 0.06308
330.60 0.06327
330.70 0.06347
330.80 0.06366
330.90 0.06385
331.00 0.06404
331.10 0.06424
331.20 0.06443
331.30 0.06462
331.40 0.06481
331.50 0.065
331.60 0.06519
331.70 0.06538
331.80 0.06557
331.90 0.06576
332.00 0.06595
332.10 0.06615
332.20 0.06635
332.30 0.06656
332.40 0.06676
332.50 0.06696
332.60 0.06716
332.70 0.06736
332.80 0.06756
332.90 0.06776
333.00 0.06796
333.10 0.06816
333.20 0.06836
333.30 0.06856
333.40 0.06876
333.50 0.06896
333.60 0.06916
333.70 0.06935
333.80 0.06955
333.90 0.06975
334.00 0.06995
334.10 0.07016
334.20 0.07037
334.30 0.07058
334.40 0.07079
334.50 0.071
334.60 0.07121
334.70 0.07142
334.80 0.07163
334.90 0.07184
335.00 0.07204
335.10 0.07225
335.20 0.07246
335.30 0.07267
335.40 0.07288
335.50 0.07308
335.60 0.07329
335.70 0.0735
335.80 0.0737
335.90 0.07391
336.00 0.07411
336.10 0.07433
336.20 0.07455
336.30 0.07477
336.40 0.07499
336.50 0.07521
336.60 0.07543
336.70 0.07565
336.80 0.07586
336.90 0.07608
337.00 0.0763
337.10 0.07651
337.20 0.07673
337.30 0.07695
337.40 0.07716
337.50 0.07738
337.60 0.07759
337.70 0.07781
337.80 0.07802
337.90 0.07824
338.00 0.07845
338.10 0.07868
338.20 0.07891
338.30 0.07914
338.40 0.07936
338.50 0.07959
338.60 0.07982
338.70 0.08004
338.80 0.08027
338.90 0.0805
339.00 0.08072
339.10 0.08095
339.20 0.08117
339.30 0.0814
339.40 0.08162
339.50 0.08185
339.60 0.08207
339.70 0.08229
339.80 0.08252
339.90 0.08274
340.00 0.08296
340.10 0.0832
340.20 0.08344
340.30 0.08367
340.40 0.08391
340.50 0.08414
340.60 0.08438
340.70 0.08462
340.80 0.08485
340.90 0.08509
341.00 0.08532
341.10 0.08555
341.20 0.08579
341.30 0.08602
341.40 0.08625
341.50 0.08649
341.60 0.08672
341.70 0.08695
341.80 0.08719
341.90 0.08742
342.00 0.08765
342.10 0.08789
342.20 0.08814
342.30 0.08839
342.40 0.08863
342.50 0.08888
342.60 0.08912
342.70 0.08936
342.80 0.08961
342.90 0.08985
343.00 0.0901
343.10 0.09034
343.20 0.09058
343.30 0.09082
343.40 0.09107
343.50 0.09131
343.60 0.09155
343.70 0.09179
343.80 0.09203
343.90 0.09227
344.00 0.09251
344.10 0.09277
344.20 0.09302
344.30 0.09328
344.40 0.09353
344.50 0.09379
344.60 0.09404
344.70 0.09429
344.80 0.09455
344.90 0.0948
345.00 0.09505
345.10 0.0953
345.20 0.09556
345.30 0.09581
345.40 0.09606
345.50 0.09631
345.60 0.09656
345.70 0.09681
345.80 0.09706
345.90 0.09731
346.00 0.09756
346.10 0.09783
346.20 0.09809
346.30 0.09835
346.40 0.09862
346.50 0.09888
346.60 0.09914
346.70 0.09941
346.80 0.09967
346.90 0.09993
347.00 0.1002
347.10 0.1005
347.20 0.1007
347.30 0.101
347.40 0.1012
347.50 0.1015
347.60 0.1018
347.70 0.102
347.80 0.1023
347.90 0.1025
348.00 0.1028
348.10 0.1031
348.20 0.1033
348.30 0.1036
348.40 0.1039
348.50 0.1042
348.60 0.1044
348.70 0.1047
348.80 0.105
348.90 0.1052
349.00 0.1055
349.10 0.1058
349.20 0.1061
349.30 0.1063
349.40 0.1066
349.50 0.1069
349.60 0.1071
349.70 0.1074
349.80 0.1077
349.90 0.1079
350.00 0.1082
350.10 0.1085
350.20 0.1088
350.30 0.1091
350.40 0.1093
350.50 0.1096
350.60 0.1099
350.70 0.1102
350.80 0.1105
350.90 0.1107
351.00 0.111
351.10 0.1113
351.20 0.1116
351.30 0.1119
351.40 0.1121
351.50 0.1124
351.60 0.1127
351.70 0.113
351.80 0.1133
351.90 0.1135
352.00 0.1138
352.10 0.1141
352.20 0.1144
352.30 0.1147
352.40 0.115
352.50 0.1153
352.60 0.1156
352.70 0.1158
352.80 0.1161
352.90 0.1164
353.00 0.1167
353.10 0.117
353.20 0.1173
353.30 0.1176
353.40 0.1179
353.50 0.1182
353.60 0.1184
353.70 0.1187
353.80 0.119
353.90 0.1193
354.00 0.1196
354.10 0.1199
354.20 0.1202
354.30 0.1205
354.40 0.1208
354.50 0.1211
354.60 0.1214
354.70 0.1217
354.80 0.122
354.90 0.1223
355.00 0.1226
355.10 0.1229
355.20 0.1232
355.30 0.1235
355.40 0.1238
355.50 0.1241
355.60 0.1244
355.70 0.1247
355.80 0.125
355.90 0.1253
356.00 0.1256
356.10 0.1259
356.20 0.1262
356.30 0.1265
356.40 0.1268
356.50 0.1271
356.60 0.1274
356.70 0.1278
356.80 0.1281
356.90 0.1284
357.00 0.1287
357.10 0.129
357.20 0.1293
357.30 0.1296
357.40 0.1299
357.50 0.1302
357.60 0.1305
357.70 0.1308
357.80 0.1311
357.90 0.1314
358.00 0.1318
358.10 0.1321
358.20 0.1324
358.30 0.1327
358.40 0.133
358.50 0.1334
358.60 0.1337
358.70 0.134
358.80 0.1343
358.90 0.1346
359.00 0.135
359.10 0.1353
359.20 0.1356
359.30 0.1359
359.40 0.1362
359.50 0.1365
359.60 0.1369
359.70 0.1372
359.80 0.1375
359.90 0.1378
360.00 0.1381
360.10 0.1385
360.20 0.1388
360.30 0.1391
360.40 0.1394
360.50 0.1398
360.60 0.1401
360.70 0.1404
360.80 0.1408
360.90 0.1411
361.00 0.1414
361.10 0.1417
361.20 0.1421
361.30 0.1424
361.40 0.1427
361.50 0.1431
361.60 0.1434
361.70 0.1437
361.80 0.144
361.90 0.1444
362.00 0.1447
362.10 0.145
362.20 0.1454
362.30 0.1457
362.40 0.146
362.50 0.1464
362.60 0.1467
362.70 0.147
362.80 0.1474
362.90 0.1477
363.00 0.148
363.10 0.1484
363.20 0.1487
363.30 0.1491
363.40 0.1494
363.50 0.1498
363.60 0.1501
363.70 0.1504
363.80 0.1508
363.90 0.1511
364.00 0.1515
364.10 0.1518
364.20 0.1521
364.30 0.1525
364.40 0.1528
364.50 0.1532
364.60 0.1535
364.70 0.1539
364.80 0.1542
364.90 0.1546
365.00 0.1549
365.10 0.1553
365.20 0.1556
365.30 0.156
365.40 0.1563
365.50 0.1567
365.60 0.157
365.70 0.1574
365.80 0.1577
365.90 0.1581
366.00 0.1584
366.10 0.1588
366.20 0.1591
366.30 0.1595
366.40 0.1598
366.50 0.1602
366.60 0.1606
366.70 0.1609
366.80 0.1613
366.90 0.1616
367.00 0.162
367.10 0.1624
367.20 0.1627
367.30 0.1631
367.40 0.1634
367.50 0.1638
367.60 0.1641
367.70 0.1645
367.80 0.1648
367.90 0.1652
368.00 0.1656
368.10 0.1659
368.20 0.1663
368.30 0.1667
368.40 0.167
368.50 0.1674
368.60 0.1678
368.70 0.1681
368.80 0.1685
368.90 0.1689
369.00 0.1692
369.10 0.1696
369.20 0.17
369.30 0.1703
369.40 0.1707
369.50 0.1711
369.60 0.1714
369.70 0.1718
369.80 0.1722
369.90 0.1725
370.00 0.1729
370.10 0.1733
370.20 0.1737
370.30 0.174
370.40 0.1744
370.50 0.1748
370.60 0.1752
370.70 0.1756
370.80 0.1759
370.90 0.1763
371.00 0.1767
371.10 0.1771
371.20 0.1775
371.30 0.1778
371.40 0.1782
371.50 0.1786
371.60 0.179
371.70 0.1793
371.80 0.1797
371.90 0.1801
372.00 0.1804
372.10 0.1808
372.20 0.1812
372.30 0.1816
372.40 0.182
372.50 0.1824
372.60 0.1828
372.70 0.1832
372.80 0.1836
372.90 0.184
373.00 0.1843
373.10 0.1847
373.20 0.1851
373.30 0.1855
373.40 0.1859
373.50 0.1863
373.60 0.1867
373.70 0.1871
373.80 0.1874
373.90 0.1878
374.00 0.1882
374.10 0.1886
374.20 0.189
374.30 0.1894
374.40 0.1898
374.50 0.1902
374.60 0.1906
374.70 0.191
374.80 0.1914
374.90 0.1918
375.00 0.1922
375.10 0.1926
375.20 0.193
375.30 0.1934
375.40 0.1938
375.50 0.1942
375.60 0.1946
375.70 0.195
375.80 0.1954
375.90 0.1958
376.00 0.1961
376.10 0.1966
376.20 0.197
376.30 0.1974
376.40 0.1978
376.50 0.1982
376.60 0.1986
376.70 0.199
376.80 0.1994
376.90 0.1998
377.00 0.2002
377.10 0.2006
377.20 0.201
377.30 0.2014
377.40 0.2018
377.50 0.2022
377.60 0.2027
377.70 0.2031
377.80 0.2035
377.90 0.2039
378.00 0.2043
378.10 0.2047
378.20 0.2051
378.30 0.2055
378.40 0.206
378.50 0.2064
378.60 0.2068
378.70 0.2072
378.80 0.2076
378.90 0.208
379.00 0.2084
379.10 0.2089
379.20 0.2093
379.30 0.2097
379.40 0.2101
379.50 0.2105
379.60 0.211
379.70 0.2114
379.80 0.2118
379.90 0.2122
380.00 0.2126
380.10 0.2131
380.20 0.2135
380.30 0.2139
380.40 0.2143
380.50 0.2148
380.60 0.2152
380.70 0.2156
380.80 0.216
380.90 0.2165
381.00 0.2169
381.10 0.2173
381.20 0.2177
381.30 0.2182
381.40 0.2186
381.50 0.219
381.60 0.2195
381.70 0.2199
381.80 0.2203
381.90 0.2207
382.00 0.2212
382.10 0.2216
382.20 0.222
382.30 0.2225
382.40 0.2229
382.50 0.2234
382.60 0.2238
382.70 0.2242
382.80 0.2247
382.90 0.2251
383.00 0.2255
383.10 0.226
383.20 0.2264
383.30 0.2268
383.40 0.2273
383.50 0.2277
383.60 0.2282
383.70 0.2286
383.80 0.229
383.90 0.2295
384.00 0.2299
384.10 0.2304
384.20 0.2308
384.30 0.2312
384.40 0.2317
384.50 0.2321
384.60 0.2326
384.70 0.233
384.80 0.2335
384.90 0.2339
385.00 0.2344
385.10 0.2348
385.20 0.2353
385.30 0.2357
385.40 0.2362
385.50 0.2366
385.60 0.2371
385.70 0.2375
385.80 0.238
385.90 0.2384
386.00 0.2389
386.10 0.2393
386.20 0.2398
386.30 0.2402
386.40 0.2407
386.50 0.2411
386.60 0.2416
386.70 0.242
386.80 0.2425
386.90 0.2429
387.00 0.2434
387.10 0.2439
387.20 0.2443
387.30 0.2448
387.40 0.2452
387.50 0.2457
387.60 0.2461
387.70 0.2466
387.80 0.2471
387.90 0.2475
388.00 0.248
388.10 0.2484
388.20 0.2489
388.30 0.2494
388.40 0.2498
388.50 0.2503
388.60 0.2508
388.70 0.2512
388.80 0.2517
388.90 0.2522
389.00 0.2526
389.10 0.2531
389.20 0.2536
389.30 0.254
389.40 0.2545
389.50 0.255
389.60 0.2554
389.70 0.2559
389.80 0.2564
389.90 0.2568
390.00 0.2573
390.10 0.2578
390.20 0.2583
390.30 0.2587
390.40 0.2592
390.50 0.2597
390.60 0.2602
390.70 0.2606
390.80 0.2611
390.90 0.2616
391.00 0.2621
391.10 0.2625
391.20 0.263
391.30 0.2635
391.40 0.264
391.50 0.2644
391.60 0.2649
391.70 0.2654
391.80 0.2659
391.90 0.2664
392.00 0.2668
392.10 0.2673
392.20 0.2678
392.30 0.2683
392.40 0.2688
392.50 0.2693
392.60 0.2697
392.70 0.2702
392.80 0.2707
392.90 0.2712
393.00 0.2717
393.10 0.2722
393.20 0.2727
393.30 0.2731
393.40 0.2736
393.50 0.2741
393.60 0.2746
393.70 0.2751
393.80 0.2756
393.90 0.2761
394.00 0.2766
394.10 0.2771
394.20 0.2775
394.30 0.278
394.40 0.2785
394.50 0.279
394.60 0.2795
394.70 0.28
394.80 0.2805
394.90 0.281
395.00 0.2815
395.10 0.282
395.20 0.2825
395.30 0.283
395.40 0.2835
395.50 0.284
395.60 0.2845
395.70 0.285
395.80 0.2855
395.90 0.286
396.00 0.2865
396.10 0.287
396.20 0.2875
396.30 0.288
396.40 0.2885
396.50 0.289
396.60 0.2895
396.70 0.29
396.80 0.2905
396.90 0.291
397.00 0.2915
397.10 0.292
397.20 0.2925
397.30 0.293
397.40 0.2935
397.50 0.294
397.60 0.2945
397.70 0.295
397.80 0.2955
397.90 0.2961
398.00 0.2966
398.10 0.2971
398.20 0.2976
398.30 0.2981
398.40 0.2986
398.50 0.2991
398.60 0.2996
398.70 0.3001
398.80 0.3007
398.90 0.3012
399.00 0.3017
399.10 0.3022
399.20 0.3027
399.30 0.3032
399.40 0.3037
399.50 0.3043
399.60 0.3048
399.70 0.3053
399.80 0.3058
399.90 0.3063
400.00 0.3068
400.10 0.3074
400.20 0.3079
400.30 0.3084
400.40 0.3089
400.50 0.3095
400.60 0.31
400.70 0.3105
400.80 0.311
400.90 0.3115
401.00 0.3121
401.10 0.3126
401.20 0.3131
401.30 0.3136
401.40 0.3142
401.50 0.3147
401.60 0.3152
401.70 0.3157
401.80 0.3163
401.90 0.3168
402.00 0.3173
402.10 0.3179
402.20 0.3184
402.30 0.3189
402.40 0.3194
402.50 0.32
402.60 0.3205
402.70 0.321
402.80 0.3216
402.90 0.3221
403.00 0.3226
403.10 0.3232
403.20 0.3237
403.30 0.3242
403.40 0.3248
403.50 0.3253
403.60 0.3258
403.70 0.3264
403.80 0.3269
403.90 0.3274
404.00 0.328
404.10 0.3285
404.20 0.3291
404.30 0.3296
404.40 0.3301
404.50 0.3307
404.60 0.3312
404.70 0.3318
404.80 0.3323
404.90 0.3328
405.00 0.3334
405.10 0.3339
405.20 0.3345
405.30 0.335
405.40 0.3356
405.50 0.3361
405.60 0.3366
405.70 0.3372
405.80 0.3377
405.90 0.3383
406.00 0.3388
406.10 0.3394
406.20 0.3399
406.30 0.3405
406.40 0.341
406.50 0.3416
406.60 0.3421
406.70 0.3427
406.80 0.3432
406.90 0.3438
407.00 0.3443
407.10 0.3449
407.20 0.3454
407.30 0.346
407.40 0.3465
407.50 0.3471
407.60 0.3476
407.70 0.3482
407.80 0.3487
407.90 0.3493
408.00 0.3498
408.10 0.3504
408.20 0.351
408.30 0.3515
408.40 0.3521
408.50 0.3526
408.60 0.3532
408.70 0.3538
408.80 0.3543
408.90 0.3549
409.00 0.3554
409.10 0.356
409.20 0.3565
409.30 0.3571
409.40 0.3577
409.50 0.3582
409.60 0.3588
409.70 0.3593
409.80 0.3599
409.90 0.3605
410.00 0.361
410.10 0.3616
410.20 0.3622
410.30 0.3627
410.40 0.3633
410.50 0.3639
410.60 0.3644
410.70 0.365
410.80 0.3656
410.90 0.3661
411.00 0.3667
411.10 0.3673
411.20 0.3679
411.30 0.3684
411.40 0.369
411.50 0.3696
411.60 0.3701
411.70 0.3707
411.80 0.3713
411.90 0.3719
412.00 0.3724
412.10 0.373
412.20 0.3736
412.30 0.3741
412.40 0.3747
412.50 0.3753
412.60 0.3759
412.70 0.3764
412.80 0.377
412.90 0.3776
413.00 0.3782
413.10 0.3788
413.20 0.3793
413.30 0.3799
413.40 0.3805
413.50 0.3811
413.60 0.3816
413.70 0.3822
413.80 0.3828
413.90 0.3834
414.00 0.384
414.10 0.3846
414.20 0.3851
414.30 0.3857
414.40 0.3863
414.50 0.3869
414.60 0.3875
414.70 0.3881
414.80 0.3886
414.90 0.3892
415.00 0.3898
415.10 0.3904
415.20 0.391
415.30 0.3916
415.40 0.3922
415.50 0.3927
415.60 0.3933
415.70 0.3939
415.80 0.3945
415.90 0.3951
416.00 0.3957
416.10 0.3963
416.20 0.3969
416.30 0.3975
416.40 0.3981
416.50 0.3987
416.60 0.3992
416.70 0.3998
416.80 0.4004
416.90 0.401
417.00 0.4016
417.10 0.4022
417.20 0.4028
417.30 0.4034
417.40 0.404
417.50 0.4046
417.60 0.4052
417.70 0.4058
417.80 0.4064
417.90 0.407
418.00 0.4076
418.10 0.4082
418.20 0.4088
418.30 0.4094
418.40 0.41
418.50 0.4106
418.60 0.4112
418.70 0.4118
418.80 0.4124
418.90 0.413
419.00 0.4136
419.10 0.4142
419.20 0.4148
419.30 0.4154
419.40 0.416
419.50 0.4166
419.60 0.4172
419.70 0.4178
419.80 0.4184
419.90 0.419
420.00 0.4196
420.10 0.4203
420.20 0.4209
420.30 0.4215
420.40 0.4221
420.50 0.4227
420.60 0.4233
420.70 0.4239
420.80 0.4245
420.90 0.4251
421.00 0.4257
421.10 0.4263
421.20 0.427
421.30 0.4276
421.40 0.4282
421.50 0.4288
421.60 0.4294
421.70 0.43
421.80 0.4306
421.90 0.4312
422.00 0.4319
422.10 0.4325
422.20 0.4331
422.30 0.4337
422.40 0.4343
422.50 0.4349
422.60 0.4356
422.70 0.4362
422.80 0.4368
422.90 0.4374
423.00 0.438
423.10 0.4387
423.20 0.4393
423.30 0.4399
423.40 0.4405
423.50 0.4411
423.60 0.4418
423.70 0.4424
423.80 0.443
423.90 0.4436
424.00 0.4442
424.10 0.4449
424.20 0.4455
424.30 0.4461
424.40 0.4467
424.50 0.4474
424.60 0.448
424.70 0.4486
424.80 0.4492
424.90 0.4499
425.00 0.4505
425.10 0.4511
425.20 0.4517
425.30 0.4524
425.40 0.453
425.50 0.4536
425.60 0.4543
425.70 0.4549
425.80 0.4555
425.90 0.4561
426.00 0.4568
426.10 0.4574
426.20 0.458
426.30 0.4587
426.40 0.4593
426.50 0.4599
426.60 0.4606
426.70 0.4612
426.80 0.4618
426.90 0.4625
427.00 0.4631
427.10 0.4637
427.20 0.4644
427.30 0.465
427.40 0.4657
427.50 0.4663
427.60 0.4669
427.70 0.4676
427.80 0.4682
427.90 0.4688
428.00 0.4695
428.10 0.4701
428.20 0.4708
428.30 0.4714
428.40 0.472
428.50 0.4727
428.60 0.4733
428.70 0.474
428.80 0.4746
428.90 0.4752
429.00 0.4759
429.10 0.4765
429.20 0.4772
429.30 0.4778
429.40 0.4785
429.50 0.4791
429.60 0.4797
429.70 0.4804
429.80 0.481
429.90 0.4817
430.00 0.4823
430.10 0.483
430.20 0.4836
430.30 0.4843
430.40 0.4849
430.50 0.4856
430.60 0.4862
430.70 0.4869
430.80 0.4875
430.90 0.4882
431.00 0.4888
431.10 0.4894
431.20 0.4901
431.30 0.4908
431.40 0.4914
431.50 0.4921
431.60 0.4927
431.70 0.4934
431.80 0.494
431.90 0.4947
432.00 0.4953
432.10 0.496
432.20 0.4966
432.30 0.4973
432.40 0.4979
432.50 0.4986
432.60 0.4992
432.70 0.4999
432.80 0.5006
432.90 0.5012
433.00 0.5019
433.10 0.5025
433.20 0.5032
433.30 0.5038
433.40 0.5045
433.50 0.5052
433.60 0.5058
433.70 0.5065
433.80 0.5071
433.90 0.5078
434.00 0.5085
434.10 0.5091
434.20 0.5098
434.30 0.5104
434.40 0.5111
434.50 0.5118
434.60 0.5124
434.70 0.5131
434.80 0.5137
434.90 0.5144
435.00 0.5151
435.10 0.5157
435.20 0.5164
435.30 0.5171
435.40 0.5177
435.50 0.5184
435.60 0.5191
435.70 0.5197
435.80 0.5204
435.90 0.5211
436.00 0.5217
436.10 0.5224
436.20 0.5231
436.30 0.5237
436.40 0.5244
436.50 0.5251
436.60 0.5257
436.70 0.5264
436.80 0.5271
436.90 0.5277
437.00 0.5284
437.10 0.5291
437.20 0.5298
437.30 0.5304
437.40 0.5311
437.50 0.5318
437.60 0.5324
437.70 0.5331
437.80 0.5338
437.90 0.5345
438.00 0.5351
438.10 0.5358
438.20 0.5365
438.30 0.5372
438.40 0.5378
438.50 0.5385
438.60 0.5392
438.70 0.5399
438.80 0.5405
438.90 0.5412
439.00 0.5419
439.10 0.5426
439.20 0.5433
439.30 0.5439
439.40 0.5446
439.50 0.5453
439.60 0.546
439.70 0.5467
439.80 0.5473
