# Version 2.1 - nm, norm@500 to 1, cut digits, bergeron_7500_90.dat_7500
# Wavelength(nm)  Flambda(ergs/cm^s/s/nm)
300.00 1.267
300.10 1.267
300.20 1.267
300.30 1.267
300.40 1.267
300.50 1.268
300.60 1.268
300.70 1.268
300.80 1.268
300.90 1.268
301.00 1.269
301.10 1.269
301.20 1.269
301.30 1.269
301.40 1.269
301.50 1.269
301.60 1.27
301.70 1.27
301.80 1.27
301.90 1.27
302.00 1.27
302.10 1.271
302.20 1.271
302.30 1.271
302.40 1.271
302.50 1.271
302.60 1.271
302.70 1.272
302.80 1.272
302.90 1.272
303.00 1.272
303.10 1.272
303.20 1.272
303.30 1.273
303.40 1.273
303.50 1.273
303.60 1.273
303.70 1.273
303.80 1.273
303.90 1.274
304.00 1.274
304.10 1.274
304.20 1.274
304.30 1.274
304.40 1.274
304.50 1.275
304.60 1.275
304.70 1.275
304.80 1.275
304.90 1.275
305.00 1.275
305.10 1.276
305.20 1.276
305.30 1.276
305.40 1.276
305.50 1.276
305.60 1.276
305.70 1.276
305.80 1.277
305.90 1.277
306.00 1.277
306.10 1.277
306.20 1.277
306.30 1.277
306.40 1.278
306.50 1.278
306.60 1.278
306.70 1.278
306.80 1.278
306.90 1.278
307.00 1.278
307.10 1.279
307.20 1.279
307.30 1.279
307.40 1.279
307.50 1.279
307.60 1.279
307.70 1.279
307.80 1.28
307.90 1.28
308.00 1.28
308.10 1.28
308.20 1.28
308.30 1.28
308.40 1.28
308.50 1.281
308.60 1.281
308.70 1.281
308.80 1.281
308.90 1.281
309.00 1.281
309.10 1.281
309.20 1.281
309.30 1.282
309.40 1.282
309.50 1.282
309.60 1.282
309.70 1.282
309.80 1.282
309.90 1.282
310.00 1.283
310.10 1.283
310.20 1.283
310.30 1.283
310.40 1.283
310.50 1.283
310.60 1.283
310.70 1.283
310.80 1.284
310.90 1.284
311.00 1.284
311.10 1.284
311.20 1.284
311.30 1.284
311.40 1.284
311.50 1.284
311.60 1.284
311.70 1.285
311.80 1.285
311.90 1.285
312.00 1.285
312.10 1.285
312.20 1.285
312.30 1.285
312.40 1.285
312.50 1.285
312.60 1.286
312.70 1.286
312.80 1.286
312.90 1.286
313.00 1.286
313.10 1.286
313.20 1.286
313.30 1.286
313.40 1.286
313.50 1.287
313.60 1.287
313.70 1.287
313.80 1.287
313.90 1.287
314.00 1.287
314.10 1.287
314.20 1.287
314.30 1.287
314.40 1.287
314.50 1.288
314.60 1.288
314.70 1.288
314.80 1.288
314.90 1.288
315.00 1.288
315.10 1.288
315.20 1.288
315.30 1.288
315.40 1.288
315.50 1.289
315.60 1.289
315.70 1.289
315.80 1.289
315.90 1.289
316.00 1.289
316.10 1.289
316.20 1.289
316.30 1.289
316.40 1.289
316.50 1.289
316.60 1.29
316.70 1.29
316.80 1.29
316.90 1.29
317.00 1.29
317.10 1.29
317.20 1.29
317.30 1.29
317.40 1.29
317.50 1.29
317.60 1.29
317.70 1.29
317.80 1.291
317.90 1.291
318.00 1.291
318.10 1.291
318.20 1.291
318.30 1.291
318.40 1.291
318.50 1.291
318.60 1.291
318.70 1.291
318.80 1.291
318.90 1.291
319.00 1.291
319.10 1.292
319.20 1.292
319.30 1.292
319.40 1.292
319.50 1.292
319.60 1.292
319.70 1.292
319.80 1.292
319.90 1.292
320.00 1.292
320.10 1.292
320.20 1.292
320.30 1.292
320.40 1.292
320.50 1.293
320.60 1.293
320.70 1.293
320.80 1.293
320.90 1.293
321.00 1.293
321.10 1.293
321.20 1.293
321.30 1.293
321.40 1.293
321.50 1.293
321.60 1.293
321.70 1.293
321.80 1.293
321.90 1.293
322.00 1.293
322.10 1.294
322.20 1.294
322.30 1.294
322.40 1.294
322.50 1.294
322.60 1.294
322.70 1.294
322.80 1.294
322.90 1.294
323.00 1.294
323.10 1.294
323.20 1.294
323.30 1.294
323.40 1.294
323.50 1.294
323.60 1.294
323.70 1.294
323.80 1.294
323.90 1.294
324.00 1.294
324.10 1.295
324.20 1.295
324.30 1.295
324.40 1.295
324.50 1.295
324.60 1.295
324.70 1.295
324.80 1.295
324.90 1.295
325.00 1.295
325.10 1.295
325.20 1.295
325.30 1.295
325.40 1.295
325.50 1.295
325.60 1.295
325.70 1.295
325.80 1.295
325.90 1.295
326.00 1.295
326.10 1.295
326.20 1.295
326.30 1.295
326.40 1.295
326.50 1.295
326.60 1.296
326.70 1.296
326.80 1.296
326.90 1.296
327.00 1.296
327.10 1.296
327.20 1.296
327.30 1.296
327.40 1.296
327.50 1.296
327.60 1.296
327.70 1.296
327.80 1.296
327.90 1.296
328.00 1.296
328.10 1.296
328.20 1.296
328.30 1.296
328.40 1.296
328.50 1.296
328.60 1.296
328.70 1.296
328.80 1.296
328.90 1.296
329.00 1.296
329.10 1.296
329.20 1.296
329.30 1.296
329.40 1.296
329.50 1.296
329.60 1.296
329.70 1.296
329.80 1.296
329.90 1.296
330.00 1.296
330.10 1.296
330.20 1.296
330.30 1.296
330.40 1.296
330.50 1.296
330.60 1.296
330.70 1.296
330.80 1.296
330.90 1.296
331.00 1.296
331.10 1.296
331.20 1.296
331.30 1.296
331.40 1.296
331.50 1.296
331.60 1.297
331.70 1.297
331.80 1.297
331.90 1.297
332.00 1.297
332.10 1.297
332.20 1.297
332.30 1.297
332.40 1.297
332.50 1.297
332.60 1.297
332.70 1.297
332.80 1.297
332.90 1.297
333.00 1.297
333.10 1.297
333.20 1.297
333.30 1.297
333.40 1.297
333.50 1.297
333.60 1.297
333.70 1.297
333.80 1.297
333.90 1.297
334.00 1.297
334.10 1.297
334.20 1.297
334.30 1.297
334.40 1.297
334.50 1.297
334.60 1.297
334.70 1.297
334.80 1.296
334.90 1.296
335.00 1.296
335.10 1.296
335.20 1.296
335.30 1.296
335.40 1.296
335.50 1.296
335.60 1.296
335.70 1.296
335.80 1.296
335.90 1.296
336.00 1.296
336.10 1.296
336.20 1.296
336.30 1.296
336.40 1.296
336.50 1.296
336.60 1.296
336.70 1.296
336.80 1.296
336.90 1.296
337.00 1.296
337.10 1.296
337.20 1.296
337.30 1.296
337.40 1.296
337.50 1.296
337.60 1.296
337.70 1.296
337.80 1.296
337.90 1.296
338.00 1.296
338.10 1.296
338.20 1.296
338.30 1.296
338.40 1.296
338.50 1.296
338.60 1.296
338.70 1.296
338.80 1.296
338.90 1.296
339.00 1.296
339.10 1.296
339.20 1.296
339.30 1.296
339.40 1.296
339.50 1.296
339.60 1.296
339.70 1.296
339.80 1.296
339.90 1.296
340.00 1.295
340.10 1.295
340.20 1.295
340.30 1.295
340.40 1.295
340.50 1.295
340.60 1.295
340.70 1.295
340.80 1.295
340.90 1.295
341.00 1.295
341.10 1.295
341.20 1.295
341.30 1.295
341.40 1.295
341.50 1.295
341.60 1.295
341.70 1.295
341.80 1.295
341.90 1.295
342.00 1.295
342.10 1.295
342.20 1.295
342.30 1.295
342.40 1.295
342.50 1.295
342.60 1.294
342.70 1.294
342.80 1.294
342.90 1.294
343.00 1.294
343.10 1.294
343.20 1.294
343.30 1.294
343.40 1.294
343.50 1.294
343.60 1.294
343.70 1.294
343.80 1.294
343.90 1.294
344.00 1.294
344.10 1.294
344.20 1.294
344.30 1.294
344.40 1.294
344.50 1.294
344.60 1.294
344.70 1.294
344.80 1.293
344.90 1.293
345.00 1.293
345.10 1.293
345.20 1.293
345.30 1.293
345.40 1.293
345.50 1.293
345.60 1.293
345.70 1.293
345.80 1.293
345.90 1.293
346.00 1.293
346.10 1.293
346.20 1.293
346.30 1.293
346.40 1.293
346.50 1.293
346.60 1.292
346.70 1.292
346.80 1.292
346.90 1.292
347.00 1.292
347.10 1.292
347.20 1.292
347.30 1.292
347.40 1.292
347.50 1.292
347.60 1.292
347.70 1.292
347.80 1.292
347.90 1.292
348.00 1.292
348.10 1.292
348.20 1.291
348.30 1.291
348.40 1.291
348.50 1.291
348.60 1.291
348.70 1.291
348.80 1.291
348.90 1.291
349.00 1.291
349.10 1.291
349.20 1.291
349.30 1.291
349.40 1.291
349.50 1.291
349.60 1.29
349.70 1.29
349.80 1.29
349.90 1.29
350.00 1.29
350.10 1.29
350.20 1.29
350.30 1.29
350.40 1.29
350.50 1.29
350.60 1.29
350.70 1.29
350.80 1.29
350.90 1.29
351.00 1.289
351.10 1.289
351.20 1.289
351.30 1.289
351.40 1.289
351.50 1.289
351.60 1.289
351.70 1.289
351.80 1.289
351.90 1.289
352.00 1.289
352.10 1.289
352.20 1.289
352.30 1.288
352.40 1.288
352.50 1.288
352.60 1.288
352.70 1.288
352.80 1.288
352.90 1.288
353.00 1.288
353.10 1.288
353.20 1.288
353.30 1.288
353.40 1.288
353.50 1.287
353.60 1.287
353.70 1.287
353.80 1.287
353.90 1.287
354.00 1.287
354.10 1.287
354.20 1.287
354.30 1.287
354.40 1.287
354.50 1.287
354.60 1.286
354.70 1.286
354.80 1.286
354.90 1.286
355.00 1.286
355.10 1.286
355.20 1.286
355.30 1.286
355.40 1.286
355.50 1.286
355.60 1.286
355.70 1.285
355.80 1.285
355.90 1.285
356.00 1.285
356.10 1.285
356.20 1.285
356.30 1.285
356.40 1.285
356.50 1.285
356.60 1.285
356.70 1.284
356.80 1.284
356.90 1.284
357.00 1.284
357.10 1.284
357.20 1.284
357.30 1.284
357.40 1.284
357.50 1.284
357.60 1.284
357.70 1.284
357.80 1.283
357.90 1.283
358.00 1.283
358.10 1.283
358.20 1.283
358.30 1.283
358.40 1.283
358.50 1.283
358.60 1.283
358.70 1.282
358.80 1.282
358.90 1.282
359.00 1.282
359.10 1.282
359.20 1.282
359.30 1.282
359.40 1.282
359.50 1.282
359.60 1.281
359.70 1.281
359.80 1.281
359.90 1.281
360.00 1.281
360.10 1.281
360.20 1.281
360.30 1.281
360.40 1.281
360.50 1.281
360.60 1.28
360.70 1.28
360.80 1.28
360.90 1.28
361.00 1.28
361.10 1.28
361.20 1.28
361.30 1.28
361.40 1.28
361.50 1.279
361.60 1.279
361.70 1.279
361.80 1.279
361.90 1.279
362.00 1.279
362.10 1.279
362.20 1.279
362.30 1.278
362.40 1.278
362.50 1.278
362.60 1.278
362.70 1.278
362.80 1.278
362.90 1.278
363.00 1.278
363.10 1.278
363.20 1.277
363.30 1.277
363.40 1.277
363.50 1.277
363.60 1.277
363.70 1.277
363.80 1.277
363.90 1.277
364.00 1.276
364.10 1.276
364.20 1.276
364.30 1.276
364.40 1.276
364.50 1.276
364.60 1.276
364.70 1.275
364.80 1.275
364.90 1.275
365.00 1.275
365.10 1.275
365.20 1.275
365.30 1.275
365.40 1.274
365.50 1.274
365.60 1.274
365.70 1.274
365.80 1.274
365.90 1.274
366.00 1.274
366.10 1.274
366.20 1.273
366.30 1.273
366.40 1.273
366.50 1.273
366.60 1.273
366.70 1.273
366.80 1.273
366.90 1.273
367.00 1.272
367.10 1.272
367.20 1.272
367.30 1.272
367.40 1.272
367.50 1.272
367.60 1.272
367.70 1.271
367.80 1.271
367.90 1.271
368.00 1.271
368.10 1.271
368.20 1.271
368.30 1.271
368.40 1.27
368.50 1.27
368.60 1.27
368.70 1.27
368.80 1.27
368.90 1.27
369.00 1.27
369.10 1.269
369.20 1.269
369.30 1.269
369.40 1.269
369.50 1.269
369.60 1.269
369.70 1.269
369.80 1.268
369.90 1.268
370.00 1.268
370.10 1.268
370.20 1.268
370.30 1.268
370.40 1.268
370.50 1.268
370.60 1.267
370.70 1.267
370.80 1.267
370.90 1.267
371.00 1.267
371.10 1.267
371.20 1.267
371.30 1.266
371.40 1.266
371.50 1.266
371.60 1.266
371.70 1.266
371.80 1.266
371.90 1.266
372.00 1.265
372.10 1.265
372.20 1.265
372.30 1.265
372.40 1.265
372.50 1.265
372.60 1.265
372.70 1.264
372.80 1.264
372.90 1.264
373.00 1.264
373.10 1.264
373.20 1.264
373.30 1.263
373.40 1.263
373.50 1.263
373.60 1.263
373.70 1.263
373.80 1.263
373.90 1.263
374.00 1.262
374.10 1.262
374.20 1.262
374.30 1.262
374.40 1.262
374.50 1.262
374.60 1.262
374.70 1.261
374.80 1.261
374.90 1.261
375.00 1.261
375.10 1.261
375.20 1.261
375.30 1.26
375.40 1.26
375.50 1.26
375.60 1.26
375.70 1.26
375.80 1.26
375.90 1.26
376.00 1.259
376.10 1.259
376.20 1.259
376.30 1.259
376.40 1.259
376.50 1.259
376.60 1.259
376.70 1.258
376.80 1.258
376.90 1.258
377.00 1.258
377.10 1.258
377.20 1.258
377.30 1.258
377.40 1.257
377.50 1.257
377.60 1.257
377.70 1.257
377.80 1.257
377.90 1.257
378.00 1.257
378.10 1.256
378.20 1.256
378.30 1.256
378.40 1.256
378.50 1.255
378.60 1.255
378.70 1.255
378.80 1.255
378.90 1.255
379.00 1.254
379.10 1.254
379.20 1.254
379.30 1.253
379.40 1.253
379.50 1.252
379.60 1.252
379.70 1.252
379.80 1.251
379.90 1.251
380.00 1.25
380.10 1.251
380.20 1.251
380.30 1.251
380.40 1.251
380.50 1.252
380.60 1.252
380.70 1.252
380.80 1.252
380.90 1.253
381.00 1.253
381.10 1.253
381.20 1.253
381.30 1.253
381.40 1.253
381.50 1.253
381.60 1.252
381.70 1.252
381.80 1.252
381.90 1.252
382.00 1.252
382.10 1.251
382.20 1.251
382.30 1.25
382.40 1.249
382.50 1.249
382.60 1.248
382.70 1.247
382.80 1.246
382.90 1.245
383.00 1.245
383.10 1.244
383.20 1.243
383.30 1.241
383.40 1.237
383.50 1.231
383.60 1.233
383.70 1.238
383.80 1.241
383.90 1.243
384.00 1.245
384.10 1.246
384.20 1.247
384.30 1.248
384.40 1.248
384.50 1.249
384.60 1.249
384.70 1.25
384.80 1.25
384.90 1.25
385.00 1.25
385.10 1.251
385.20 1.251
385.30 1.251
385.40 1.251
385.50 1.251
385.60 1.251
385.70 1.251
385.80 1.251
385.90 1.251
386.00 1.251
386.10 1.25
386.20 1.25
386.30 1.25
386.40 1.25
386.50 1.249
386.60 1.249
386.70 1.249
386.80 1.248
386.90 1.248
387.00 1.247
387.10 1.247
387.20 1.246
387.30 1.245
387.40 1.244
387.50 1.243
387.60 1.242
387.70 1.241
387.80 1.24
387.90 1.238
388.00 1.236
388.10 1.234
388.20 1.232
388.30 1.229
388.40 1.226
388.50 1.222
388.60 1.217
388.70 1.21
388.80 1.2
388.90 1.187
389.00 1.199
389.10 1.209
389.20 1.216
389.30 1.221
389.40 1.225
389.50 1.228
389.60 1.231
389.70 1.234
389.80 1.236
389.90 1.238
390.00 1.239
390.10 1.241
390.20 1.242
390.30 1.243
390.40 1.244
390.50 1.244
390.60 1.245
390.70 1.246
390.80 1.246
390.90 1.247
391.00 1.247
391.10 1.248
391.20 1.248
391.30 1.248
391.40 1.248
391.50 1.249
391.60 1.249
391.70 1.249
391.80 1.249
391.90 1.249
392.00 1.249
392.10 1.249
392.20 1.249
392.30 1.249
392.40 1.249
392.50 1.249
392.60 1.249
392.70 1.249
392.80 1.249
392.90 1.248
393.00 1.248
393.10 1.248
393.20 1.248
393.30 1.247
393.40 1.247
393.50 1.247
393.60 1.246
393.70 1.246
393.80 1.245
393.90 1.245
394.00 1.244
394.10 1.244
394.20 1.243
394.30 1.242
394.40 1.241
394.50 1.24
394.60 1.239
394.70 1.238
394.80 1.237
394.90 1.236
395.00 1.235
395.10 1.233
395.20 1.232
395.30 1.23
395.40 1.228
395.50 1.226
395.60 1.223
395.70 1.221
395.80 1.218
395.90 1.214
396.00 1.21
396.10 1.206
396.20 1.201
396.30 1.195
396.40 1.188
396.50 1.179
396.60 1.169
396.70 1.158
396.80 1.141
396.90 1.118
397.00 1.087
397.10 1.116
397.20 1.138
397.30 1.155
397.40 1.167
397.50 1.177
397.60 1.186
397.70 1.193
397.80 1.199
397.90 1.204
398.00 1.208
398.10 1.212
398.20 1.215
398.30 1.218
398.40 1.22
398.50 1.223
398.60 1.225
398.70 1.226
398.80 1.228
398.90 1.229
399.00 1.231
399.10 1.232
399.20 1.233
399.30 1.234
399.40 1.235
399.50 1.235
399.60 1.236
399.70 1.237
399.80 1.237
399.90 1.238
400.00 1.238
400.10 1.239
400.20 1.239
400.30 1.24
400.40 1.24
400.50 1.24
400.60 1.24
400.70 1.24
400.80 1.241
400.90 1.241
401.00 1.241
401.10 1.241
401.20 1.241
401.30 1.241
401.40 1.241
401.50 1.241
401.60 1.241
401.70 1.241
401.80 1.241
401.90 1.241
402.00 1.241
402.10 1.241
402.20 1.241
402.30 1.241
402.40 1.241
402.50 1.241
402.60 1.241
402.70 1.241
402.80 1.24
402.90 1.24
403.00 1.24
403.10 1.24
403.20 1.24
403.30 1.24
403.40 1.239
403.50 1.239
403.60 1.239
403.70 1.239
403.80 1.239
403.90 1.238
404.00 1.238
404.10 1.238
404.20 1.238
404.30 1.237
404.40 1.237
404.50 1.237
404.60 1.236
404.70 1.236
404.80 1.236
404.90 1.236
405.00 1.235
405.10 1.235
405.20 1.234
405.30 1.234
405.40 1.234
405.50 1.233
405.60 1.233
405.70 1.232
405.80 1.232
405.90 1.231
406.00 1.23
406.10 1.23
406.20 1.229
406.30 1.229
406.40 1.228
406.50 1.227
406.60 1.226
406.70 1.225
406.80 1.224
406.90 1.223
407.00 1.222
407.10 1.221
407.20 1.22
407.30 1.219
407.40 1.217
407.50 1.216
407.60 1.214
407.70 1.212
407.80 1.211
407.90 1.209
408.00 1.206
408.10 1.204
408.20 1.201
408.30 1.198
408.40 1.195
408.50 1.191
408.60 1.187
408.70 1.183
408.80 1.178
408.90 1.173
409.00 1.167
409.10 1.16
409.20 1.152
409.30 1.144
409.40 1.133
409.50 1.12
409.60 1.106
409.70 1.087
409.80 1.064
409.90 1.038
410.00 0.9996
410.10 0.9577
410.20 0.9126
410.30 0.9739
410.40 1.021
410.50 1.053
410.60 1.076
410.70 1.096
410.80 1.113
410.90 1.125
411.00 1.136
411.10 1.146
411.20 1.153
411.30 1.16
411.40 1.167
411.50 1.172
411.60 1.176
411.70 1.181
411.80 1.184
411.90 1.188
412.00 1.191
412.10 1.193
412.20 1.196
412.30 1.198
412.40 1.2
412.50 1.202
412.60 1.203
412.70 1.205
412.80 1.206
412.90 1.207
413.00 1.208
413.10 1.209
413.20 1.21
413.30 1.211
413.40 1.211
413.50 1.212
413.60 1.213
413.70 1.213
413.80 1.213
413.90 1.214
414.00 1.214
414.10 1.215
414.20 1.215
414.30 1.215
414.40 1.215
414.50 1.215
414.60 1.216
414.70 1.216
414.80 1.216
414.90 1.216
415.00 1.216
415.10 1.216
415.20 1.216
415.30 1.216
415.40 1.216
415.50 1.216
415.60 1.216
415.70 1.216
415.80 1.216
415.90 1.216
416.00 1.216
416.10 1.216
416.20 1.216
416.30 1.216
416.40 1.216
416.50 1.216
416.60 1.215
416.70 1.215
416.80 1.215
416.90 1.215
417.00 1.215
417.10 1.215
417.20 1.215
417.30 1.215
417.40 1.214
417.50 1.214
417.60 1.214
417.70 1.214
417.80 1.214
417.90 1.214
418.00 1.213
418.10 1.213
418.20 1.213
418.30 1.213
418.40 1.213
418.50 1.213
418.60 1.212
418.70 1.212
418.80 1.212
418.90 1.212
419.00 1.212
419.10 1.211
419.20 1.211
419.30 1.211
419.40 1.211
419.50 1.211
419.60 1.21
419.70 1.21
419.80 1.21
419.90 1.21
420.00 1.21
420.10 1.209
420.20 1.209
420.30 1.209
420.40 1.209
420.50 1.209
420.60 1.208
420.70 1.208
420.80 1.208
420.90 1.208
421.00 1.207
421.10 1.207
421.20 1.207
421.30 1.207
421.40 1.207
421.50 1.206
421.60 1.206
421.70 1.206
421.80 1.206
421.90 1.205
422.00 1.205
422.10 1.205
422.20 1.205
422.30 1.204
422.40 1.204
422.50 1.204
422.60 1.204
422.70 1.203
422.80 1.203
422.90 1.203
423.00 1.203
423.10 1.202
423.20 1.202
423.30 1.202
423.40 1.202
423.50 1.201
423.60 1.201
423.70 1.201
423.80 1.201
423.90 1.2
424.00 1.2
424.10 1.2
424.20 1.2
424.30 1.199
424.40 1.199
424.50 1.199
424.60 1.199
424.70 1.198
424.80 1.198
424.90 1.198
425.00 1.197
425.10 1.197
425.20 1.197
425.30 1.196
425.40 1.196
425.50 1.196
425.60 1.196
425.70 1.195
425.80 1.195
425.90 1.195
426.00 1.194
426.10 1.194
426.20 1.194
426.30 1.193
426.40 1.193
426.50 1.193
426.60 1.192
426.70 1.192
426.80 1.192
426.90 1.191
427.00 1.191
427.10 1.191
427.20 1.19
427.30 1.19
427.40 1.19
427.50 1.189
427.60 1.189
427.70 1.188
427.80 1.188
427.90 1.188
428.00 1.187
428.10 1.187
428.20 1.186
428.30 1.186
428.40 1.185
428.50 1.185
428.60 1.184
428.70 1.184
428.80 1.183
428.90 1.183
429.00 1.182
429.10 1.182
429.20 1.181
429.30 1.18
429.40 1.18
429.50 1.179
429.60 1.178
429.70 1.178
429.80 1.177
429.90 1.176
430.00 1.175
430.10 1.174
430.20 1.173
430.30 1.172
430.40 1.171
430.50 1.17
430.60 1.169
430.70 1.168
430.80 1.166
430.90 1.165
431.00 1.163
431.10 1.162
431.20 1.16
431.30 1.158
431.40 1.156
431.50 1.154
431.60 1.151
431.70 1.148
431.80 1.146
431.90 1.142
432.00 1.139
432.10 1.135
432.20 1.131
432.30 1.126
432.40 1.121
432.50 1.114
432.60 1.107
432.70 1.1
432.80 1.091
432.90 1.081
433.00 1.071
433.10 1.058
433.20 1.043
433.30 1.028
433.40 1.007
433.50 0.9819
433.60 0.9531
433.70 0.9103
433.80 0.8561
433.90 0.7907
434.00 0.6771
434.10 0.6793
434.20 0.7971
434.30 0.8607
434.40 0.9132
434.50 0.9547
434.60 0.9827
434.70 1.007
434.80 1.027
434.90 1.042
435.00 1.056
435.10 1.068
435.20 1.078
435.30 1.087
435.40 1.096
435.50 1.102
435.60 1.109
435.70 1.114
435.80 1.119
435.90 1.123
436.00 1.127
436.10 1.13
436.20 1.133
436.30 1.136
436.40 1.138
436.50 1.14
436.60 1.142
436.70 1.144
436.80 1.146
436.90 1.147
437.00 1.148
437.10 1.149
437.20 1.15
437.30 1.151
437.40 1.152
437.50 1.153
437.60 1.153
437.70 1.154
437.80 1.155
437.90 1.155
438.00 1.156
438.10 1.156
438.20 1.156
438.30 1.157
438.40 1.157
438.50 1.157
438.60 1.157
438.70 1.157
438.80 1.158
438.90 1.158
439.00 1.158
439.10 1.158
439.20 1.158
439.30 1.158
439.40 1.158
439.50 1.158
439.60 1.158
439.70 1.158
439.80 1.158
439.90 1.158
440.00 1.158
440.10 1.158
440.20 1.158
440.30 1.158
440.40 1.158
440.50 1.157
440.60 1.157
440.70 1.157
440.80 1.157
440.90 1.157
441.00 1.157
441.10 1.157
441.20 1.156
441.30 1.156
441.40 1.156
441.50 1.156
441.60 1.156
441.70 1.156
441.80 1.155
441.90 1.155
442.00 1.155
442.10 1.155
442.20 1.155
442.30 1.154
442.40 1.154
442.50 1.154
442.60 1.154
442.70 1.154
442.80 1.154
442.90 1.153
443.00 1.153
443.10 1.153
443.20 1.153
443.30 1.152
443.40 1.152
443.50 1.152
443.60 1.152
443.70 1.152
443.80 1.151
443.90 1.151
444.00 1.151
444.10 1.151
444.20 1.151
444.30 1.15
444.40 1.15
444.50 1.15
444.60 1.15
444.70 1.149
444.80 1.149
444.90 1.149
445.00 1.149
445.10 1.148
445.20 1.148
445.30 1.148
445.40 1.148
445.50 1.147
445.60 1.147
445.70 1.147
445.80 1.147
445.90 1.147
446.00 1.146
446.10 1.146
446.20 1.146
446.30 1.146
446.40 1.145
446.50 1.145
446.60 1.145
446.70 1.145
446.80 1.144
446.90 1.144
447.00 1.144
447.10 1.144
447.20 1.143
447.30 1.143
447.40 1.143
447.50 1.143
447.60 1.142
447.70 1.142
447.80 1.142
447.90 1.142
448.00 1.141
448.10 1.141
448.20 1.141
448.30 1.141
448.40 1.14
448.50 1.14
448.60 1.14
448.70 1.14
448.80 1.139
448.90 1.139
449.00 1.139
449.10 1.139
449.20 1.138
449.30 1.138
449.40 1.138
449.50 1.138
449.60 1.137
449.70 1.137
449.80 1.137
449.90 1.137
450.00 1.136
450.10 1.136
450.20 1.136
450.30 1.136
450.40 1.135
450.50 1.135
450.60 1.135
450.70 1.134
450.80 1.134
450.90 1.134
451.00 1.134
451.10 1.133
451.20 1.133
451.30 1.133
451.40 1.133
451.50 1.132
451.60 1.132
451.70 1.132
451.80 1.132
451.90 1.131
452.00 1.131
452.10 1.131
452.20 1.131
452.30 1.13
452.40 1.13
452.50 1.13
452.60 1.13
452.70 1.129
452.80 1.129
452.90 1.129
453.00 1.128
453.10 1.128
453.20 1.128
453.30 1.128
453.40 1.127
453.50 1.127
453.60 1.127
453.70 1.127
