# Version 2.1 - nm, norm@500 to 1, cut digits, bergeron_5000_75.dat_5000
# Wavelength(nm)  Flambda(ergs/cm^s/s/nm)
300.00 0.361
300.10 0.3614
300.20 0.3619
300.30 0.3623
300.40 0.3628
300.50 0.3633
300.60 0.3637
300.70 0.3642
300.80 0.3646
300.90 0.3651
301.00 0.3655
301.10 0.366
301.20 0.3664
301.30 0.3669
301.40 0.3673
301.50 0.3678
301.60 0.3682
301.70 0.3687
301.80 0.3691
301.90 0.3696
302.00 0.37
302.10 0.3705
302.20 0.3709
302.30 0.3714
302.40 0.3718
302.50 0.3723
302.60 0.3728
302.70 0.3732
302.80 0.3737
302.90 0.3741
303.00 0.3746
303.10 0.375
303.20 0.3755
303.30 0.3759
303.40 0.3764
303.50 0.3768
303.60 0.3773
303.70 0.3777
303.80 0.3782
303.90 0.3786
304.00 0.3791
304.10 0.3795
304.20 0.38
304.30 0.3805
304.40 0.3809
304.50 0.3814
304.60 0.3818
304.70 0.3823
304.80 0.3828
304.90 0.3832
305.00 0.3837
305.10 0.3841
305.20 0.3846
305.30 0.385
305.40 0.3855
305.50 0.3859
305.60 0.3864
305.70 0.3868
305.80 0.3873
305.90 0.3877
306.00 0.3882
306.10 0.3886
306.20 0.3891
306.30 0.3896
306.40 0.39
306.50 0.3905
306.60 0.3909
306.70 0.3914
306.80 0.3919
306.90 0.3923
307.00 0.3928
307.10 0.3932
307.20 0.3937
307.30 0.3941
307.40 0.3946
307.50 0.395
307.60 0.3955
307.70 0.396
307.80 0.3964
307.90 0.3969
308.00 0.3973
308.10 0.3978
308.20 0.3982
308.30 0.3987
308.40 0.3992
308.50 0.3996
308.60 0.4001
308.70 0.4005
308.80 0.401
308.90 0.4015
309.00 0.4019
309.10 0.4024
309.20 0.4028
309.30 0.4033
309.40 0.4037
309.50 0.4042
309.60 0.4046
309.70 0.4051
309.80 0.4055
309.90 0.406
310.00 0.4065
310.10 0.4069
310.20 0.4074
310.30 0.4078
310.40 0.4083
310.50 0.4088
310.60 0.4092
310.70 0.4097
310.80 0.4101
310.90 0.4106
311.00 0.4111
311.10 0.4115
311.20 0.412
311.30 0.4124
311.40 0.4129
311.50 0.4134
311.60 0.4138
311.70 0.4143
311.80 0.4147
311.90 0.4152
312.00 0.4156
312.10 0.4161
312.20 0.4165
312.30 0.417
312.40 0.4174
312.50 0.4179
312.60 0.4184
312.70 0.4188
312.80 0.4193
312.90 0.4198
313.00 0.4202
313.10 0.4207
313.20 0.4211
313.30 0.4216
313.40 0.422
313.50 0.4225
313.60 0.423
313.70 0.4234
313.80 0.4239
313.90 0.4243
314.00 0.4248
314.10 0.4252
314.20 0.4257
314.30 0.4262
314.40 0.4266
314.50 0.4271
314.60 0.4276
314.70 0.428
314.80 0.4285
314.90 0.4289
315.00 0.4294
315.10 0.4298
315.20 0.4303
315.30 0.4308
315.40 0.4312
315.50 0.4317
315.60 0.4321
315.70 0.4326
315.80 0.433
315.90 0.4335
316.00 0.434
316.10 0.4344
316.20 0.4349
316.30 0.4353
316.40 0.4358
316.50 0.4363
316.60 0.4367
316.70 0.4372
316.80 0.4376
316.90 0.4381
317.00 0.4386
317.10 0.439
317.20 0.4395
317.30 0.4399
317.40 0.4404
317.50 0.4409
317.60 0.4413
317.70 0.4418
317.80 0.4422
317.90 0.4427
318.00 0.4431
318.10 0.4436
318.20 0.4441
318.30 0.4445
318.40 0.445
318.50 0.4454
318.60 0.4459
318.70 0.4464
318.80 0.4468
318.90 0.4473
319.00 0.4477
319.10 0.4482
319.20 0.4487
319.30 0.4491
319.40 0.4496
319.50 0.45
319.60 0.4505
319.70 0.4509
319.80 0.4514
319.90 0.4518
320.00 0.4523
320.10 0.4528
320.20 0.4532
320.30 0.4537
320.40 0.4542
320.50 0.4546
320.60 0.4551
320.70 0.4555
320.80 0.456
320.90 0.4565
321.00 0.4569
321.10 0.4574
321.20 0.4578
321.30 0.4583
321.40 0.4587
321.50 0.4592
321.60 0.4597
321.70 0.4601
321.80 0.4606
321.90 0.461
322.00 0.4615
322.10 0.4619
322.20 0.4624
322.30 0.4629
322.40 0.4633
322.50 0.4638
322.60 0.4642
322.70 0.4647
322.80 0.4652
322.90 0.4656
323.00 0.4661
323.10 0.4665
323.20 0.467
323.30 0.4675
323.40 0.4679
323.50 0.4684
323.60 0.4688
323.70 0.4693
323.80 0.4697
323.90 0.4702
324.00 0.4706
324.10 0.4711
324.20 0.4716
324.30 0.472
324.40 0.4725
324.50 0.4729
324.60 0.4734
324.70 0.4739
324.80 0.4743
324.90 0.4748
325.00 0.4752
325.10 0.4757
325.20 0.4762
325.30 0.4766
325.40 0.4771
325.50 0.4775
325.60 0.478
325.70 0.4784
325.80 0.4789
325.90 0.4793
326.00 0.4798
326.10 0.4802
326.20 0.4807
326.30 0.4812
326.40 0.4816
326.50 0.4821
326.60 0.4825
326.70 0.483
326.80 0.4835
326.90 0.4839
327.00 0.4844
327.10 0.4848
327.20 0.4853
327.30 0.4857
327.40 0.4862
327.50 0.4867
327.60 0.4871
327.70 0.4876
327.80 0.488
327.90 0.4885
328.00 0.4889
328.10 0.4894
328.20 0.4898
328.30 0.4903
328.40 0.4908
328.50 0.4912
328.60 0.4917
328.70 0.4921
328.80 0.4926
328.90 0.493
329.00 0.4935
329.10 0.494
329.20 0.4944
329.30 0.4949
329.40 0.4953
329.50 0.4958
329.60 0.4962
329.70 0.4967
329.80 0.4971
329.90 0.4976
330.00 0.498
330.10 0.4985
330.20 0.4989
330.30 0.4994
330.40 0.4999
330.50 0.5003
330.60 0.5008
330.70 0.5012
330.80 0.5017
330.90 0.5021
331.00 0.5026
331.10 0.5031
331.20 0.5035
331.30 0.504
331.40 0.5044
331.50 0.5049
331.60 0.5053
331.70 0.5058
331.80 0.5062
331.90 0.5067
332.00 0.5071
332.10 0.5076
332.20 0.508
332.30 0.5085
332.40 0.5089
332.50 0.5094
332.60 0.5099
332.70 0.5103
332.80 0.5108
332.90 0.5112
333.00 0.5117
333.10 0.5121
333.20 0.5126
333.30 0.513
333.40 0.5135
333.50 0.5139
333.60 0.5144
333.70 0.5148
333.80 0.5153
333.90 0.5157
334.00 0.5162
334.10 0.5166
334.20 0.5171
334.30 0.5175
334.40 0.518
334.50 0.5185
334.60 0.5189
334.70 0.5194
334.80 0.5198
334.90 0.5203
335.00 0.5207
335.10 0.5212
335.20 0.5216
335.30 0.5221
335.40 0.5225
335.50 0.523
335.60 0.5234
335.70 0.5239
335.80 0.5243
335.90 0.5248
336.00 0.5252
336.10 0.5257
336.20 0.5261
336.30 0.5266
336.40 0.527
336.50 0.5275
336.60 0.5279
336.70 0.5284
336.80 0.5288
336.90 0.5293
337.00 0.5297
337.10 0.5302
337.20 0.5306
337.30 0.5311
337.40 0.5315
337.50 0.532
337.60 0.5324
337.70 0.5329
337.80 0.5333
337.90 0.5338
338.00 0.5342
338.10 0.5347
338.20 0.5351
338.30 0.5356
338.40 0.536
338.50 0.5365
338.60 0.5369
338.70 0.5374
338.80 0.5378
338.90 0.5383
339.00 0.5387
339.10 0.5392
339.20 0.5396
339.30 0.5401
339.40 0.5405
339.50 0.541
339.60 0.5414
339.70 0.5418
339.80 0.5423
339.90 0.5427
340.00 0.5432
340.10 0.5436
340.20 0.5441
340.30 0.5445
340.40 0.545
340.50 0.5454
340.60 0.5459
340.70 0.5463
340.80 0.5468
340.90 0.5472
341.00 0.5477
341.10 0.5481
341.20 0.5486
341.30 0.549
341.40 0.5495
341.50 0.5499
341.60 0.5503
341.70 0.5508
341.80 0.5512
341.90 0.5517
342.00 0.5521
342.10 0.5526
342.20 0.553
342.30 0.5535
342.40 0.5539
342.50 0.5543
342.60 0.5548
342.70 0.5552
342.80 0.5557
342.90 0.5561
343.00 0.5566
343.10 0.557
343.20 0.5575
343.30 0.5579
343.40 0.5583
343.50 0.5588
343.60 0.5592
343.70 0.5597
343.80 0.5601
343.90 0.5605
344.00 0.561
344.10 0.5614
344.20 0.5619
344.30 0.5623
344.40 0.5628
344.50 0.5632
344.60 0.5637
344.70 0.5641
344.80 0.5645
344.90 0.565
345.00 0.5654
345.10 0.5659
345.20 0.5663
345.30 0.5668
345.40 0.5672
345.50 0.5676
345.60 0.5681
345.70 0.5685
345.80 0.5689
345.90 0.5694
346.00 0.5698
346.10 0.5703
346.20 0.5707
346.30 0.5712
346.40 0.5716
346.50 0.572
346.60 0.5725
346.70 0.5729
346.80 0.5734
346.90 0.5738
347.00 0.5742
347.10 0.5747
347.20 0.5751
347.30 0.5756
347.40 0.576
347.50 0.5764
347.60 0.5769
347.70 0.5773
347.80 0.5777
347.90 0.5782
348.00 0.5786
348.10 0.5791
348.20 0.5795
348.30 0.5799
348.40 0.5804
348.50 0.5808
348.60 0.5813
348.70 0.5817
348.80 0.5821
348.90 0.5826
349.00 0.583
349.10 0.5834
349.20 0.5839
349.30 0.5843
349.40 0.5848
349.50 0.5852
349.60 0.5856
349.70 0.5861
349.80 0.5865
349.90 0.5869
350.00 0.5874
350.10 0.5878
350.20 0.5882
350.30 0.5887
350.40 0.5891
350.50 0.5895
350.60 0.59
350.70 0.5904
350.80 0.5909
350.90 0.5913
351.00 0.5917
351.10 0.5922
351.20 0.5926
351.30 0.593
351.40 0.5935
351.50 0.5939
351.60 0.5943
351.70 0.5947
351.80 0.5952
351.90 0.5956
352.00 0.596
352.10 0.5965
352.20 0.5969
352.30 0.5973
352.40 0.5978
352.50 0.5982
352.60 0.5986
352.70 0.5991
352.80 0.5995
352.90 0.5999
353.00 0.6004
353.10 0.6008
353.20 0.6012
353.30 0.6017
353.40 0.6021
353.50 0.6025
353.60 0.603
353.70 0.6034
353.80 0.6038
353.90 0.6042
354.00 0.6047
354.10 0.6051
354.20 0.6055
354.30 0.606
354.40 0.6064
354.50 0.6068
354.60 0.6073
354.70 0.6077
354.80 0.6081
354.90 0.6085
355.00 0.609
355.10 0.6094
355.20 0.6098
355.30 0.6103
355.40 0.6107
355.50 0.6111
355.60 0.6115
355.70 0.612
355.80 0.6124
355.90 0.6128
356.00 0.6132
356.10 0.6137
356.20 0.6141
356.30 0.6145
356.40 0.615
356.50 0.6154
356.60 0.6158
356.70 0.6162
356.80 0.6167
356.90 0.6171
357.00 0.6175
357.10 0.6179
357.20 0.6184
357.30 0.6188
357.40 0.6192
357.50 0.6196
357.60 0.6201
357.70 0.6205
357.80 0.6209
357.90 0.6213
358.00 0.6217
358.10 0.6222
358.20 0.6226
358.30 0.623
358.40 0.6234
358.50 0.6239
358.60 0.6243
358.70 0.6247
358.80 0.6251
358.90 0.6256
359.00 0.626
359.10 0.6264
359.20 0.6268
359.30 0.6273
359.40 0.6277
359.50 0.6281
359.60 0.6285
359.70 0.6289
359.80 0.6294
359.90 0.6298
360.00 0.6302
360.10 0.6306
360.20 0.631
360.30 0.6315
360.40 0.6319
360.50 0.6323
360.60 0.6327
360.70 0.6331
360.80 0.6336
360.90 0.634
361.00 0.6344
361.10 0.6348
361.20 0.6352
361.30 0.6357
361.40 0.6361
361.50 0.6365
361.60 0.6369
361.70 0.6373
361.80 0.6377
361.90 0.6382
362.00 0.6386
362.10 0.639
362.20 0.6394
362.30 0.6398
362.40 0.6402
362.50 0.6407
362.60 0.6411
362.70 0.6415
362.80 0.6419
362.90 0.6423
363.00 0.6427
363.10 0.6431
363.20 0.6436
363.30 0.644
363.40 0.6444
363.50 0.6448
363.60 0.6452
363.70 0.6456
363.80 0.6461
363.90 0.6465
364.00 0.6469
364.10 0.6473
364.20 0.6477
364.30 0.6481
364.40 0.6485
364.50 0.6489
364.60 0.6494
364.70 0.6498
364.80 0.6502
364.90 0.6506
365.00 0.651
365.10 0.6514
365.20 0.6518
365.30 0.6522
365.40 0.6527
365.50 0.6531
365.60 0.6535
365.70 0.6539
365.80 0.6543
365.90 0.6547
366.00 0.6551
366.10 0.6555
366.20 0.6559
366.30 0.6564
366.40 0.6568
366.50 0.6572
366.60 0.6576
366.70 0.658
366.80 0.6584
366.90 0.6588
367.00 0.6592
367.10 0.6596
367.20 0.66
367.30 0.6605
367.40 0.6609
367.50 0.6613
367.60 0.6617
367.70 0.6621
367.80 0.6625
367.90 0.6629
368.00 0.6633
368.10 0.6637
368.20 0.6641
368.30 0.6645
368.40 0.6649
368.50 0.6653
368.60 0.6657
368.70 0.6661
368.80 0.6666
368.90 0.667
369.00 0.6674
369.10 0.6678
369.20 0.6682
369.30 0.6686
369.40 0.669
369.50 0.6694
369.60 0.6698
369.70 0.6702
369.80 0.6706
369.90 0.671
370.00 0.6714
370.10 0.6718
370.20 0.6722
370.30 0.6726
370.40 0.673
370.50 0.6734
370.60 0.6738
370.70 0.6742
370.80 0.6746
370.90 0.675
371.00 0.6754
371.10 0.6758
371.20 0.6762
371.30 0.6766
371.40 0.677
371.50 0.6774
371.60 0.6778
371.70 0.6782
371.80 0.6786
371.90 0.679
372.00 0.6794
372.10 0.6798
372.20 0.6802
372.30 0.6806
372.40 0.681
372.50 0.6814
372.60 0.6818
372.70 0.6822
372.80 0.6826
372.90 0.683
373.00 0.6834
373.10 0.6838
373.20 0.6842
373.30 0.6846
373.40 0.685
373.50 0.6854
373.60 0.6858
373.70 0.6862
373.80 0.6866
373.90 0.687
374.00 0.6874
374.10 0.6878
374.20 0.6882
374.30 0.6886
374.40 0.689
374.50 0.6893
374.60 0.6897
374.70 0.6901
374.80 0.6905
374.90 0.6909
375.00 0.6913
375.10 0.6917
375.20 0.6921
375.30 0.6925
375.40 0.6929
375.50 0.6933
375.60 0.6937
375.70 0.6941
375.80 0.6945
375.90 0.6948
376.00 0.6952
376.10 0.6956
376.20 0.696
376.30 0.6964
376.40 0.6968
376.50 0.6972
376.60 0.6976
376.70 0.698
376.80 0.6984
376.90 0.6988
377.00 0.6992
377.10 0.6996
377.20 0.6999
377.30 0.7003
377.40 0.7007
377.50 0.7011
377.60 0.7015
377.70 0.7019
377.80 0.7023
377.90 0.7026
378.00 0.703
378.10 0.7034
378.20 0.7038
378.30 0.7042
378.40 0.7046
378.50 0.705
378.60 0.7054
378.70 0.7057
378.80 0.7061
378.90 0.7065
379.00 0.7069
379.10 0.7073
379.20 0.7077
379.30 0.708
379.40 0.7084
379.50 0.7088
379.60 0.7092
379.70 0.7096
379.80 0.71
379.90 0.7103
380.00 0.7107
380.10 0.7111
380.20 0.7115
380.30 0.7119
380.40 0.7123
380.50 0.7126
380.60 0.713
380.70 0.7134
380.80 0.7138
380.90 0.7142
381.00 0.7146
381.10 0.7149
381.20 0.7153
381.30 0.7157
381.40 0.7161
381.50 0.7164
381.60 0.7168
381.70 0.7172
381.80 0.7176
381.90 0.718
382.00 0.7184
382.10 0.7187
382.20 0.7191
382.30 0.7195
382.40 0.7198
382.50 0.7202
382.60 0.7206
382.70 0.721
382.80 0.7213
382.90 0.7217
383.00 0.7221
383.10 0.7225
383.20 0.7228
383.30 0.7232
383.40 0.7236
383.50 0.7239
383.60 0.7243
383.70 0.7247
383.80 0.7251
383.90 0.7255
384.00 0.7259
384.10 0.7262
384.20 0.7267
384.30 0.727
384.40 0.7274
384.50 0.7278
384.60 0.7282
384.70 0.7285
384.80 0.7289
384.90 0.7293
385.00 0.7296
385.10 0.73
385.20 0.7304
385.30 0.7308
385.40 0.7312
385.50 0.7315
385.60 0.7319
385.70 0.7322
385.80 0.7326
385.90 0.733
386.00 0.7333
386.10 0.7337
386.20 0.7341
386.30 0.7344
386.40 0.7348
386.50 0.7352
386.60 0.7356
386.70 0.7359
386.80 0.7363
386.90 0.7367
387.00 0.737
387.10 0.7374
387.20 0.7378
387.30 0.7381
387.40 0.7385
387.50 0.7389
387.60 0.7392
387.70 0.7396
387.80 0.74
387.90 0.7403
388.00 0.7407
388.10 0.7411
388.20 0.7414
388.30 0.7418
388.40 0.7421
388.50 0.7424
388.60 0.7427
388.70 0.743
388.80 0.7431
388.90 0.7433
389.00 0.7439
389.10 0.7444
389.20 0.7449
389.30 0.7453
389.40 0.7458
389.50 0.7462
389.60 0.7465
389.70 0.7469
389.80 0.7473
389.90 0.7476
390.00 0.748
390.10 0.7484
390.20 0.7487
390.30 0.7491
390.40 0.7495
390.50 0.7498
390.60 0.7502
390.70 0.7505
390.80 0.7509
390.90 0.7513
391.00 0.7516
391.10 0.752
391.20 0.7523
391.30 0.7527
391.40 0.7531
391.50 0.7535
391.60 0.7538
391.70 0.7541
391.80 0.7545
391.90 0.7548
392.00 0.7552
392.10 0.7556
392.20 0.7559
392.30 0.7563
392.40 0.7566
392.50 0.757
392.60 0.7574
392.70 0.7577
392.80 0.7581
392.90 0.7584
393.00 0.7588
393.10 0.7591
393.20 0.7595
393.30 0.7598
393.40 0.7602
393.50 0.7606
393.60 0.7609
393.70 0.7613
393.80 0.7616
393.90 0.762
394.00 0.7623
394.10 0.7627
394.20 0.763
394.30 0.7634
394.40 0.7637
394.50 0.7641
394.60 0.7644
394.70 0.7648
394.80 0.7651
394.90 0.7655
395.00 0.7658
395.10 0.7662
395.20 0.7666
395.30 0.7669
395.40 0.7672
395.50 0.7675
395.60 0.7679
395.70 0.7683
395.80 0.7686
395.90 0.7689
396.00 0.7692
396.10 0.7696
396.20 0.7699
396.30 0.7702
396.40 0.7705
396.50 0.7707
396.60 0.7709
396.70 0.7711
396.80 0.7711
396.90 0.7709
397.00 0.7705
397.10 0.7715
397.20 0.7724
397.30 0.7731
397.40 0.7737
397.50 0.7742
397.60 0.7746
397.70 0.775
397.80 0.7754
397.90 0.7758
398.00 0.7762
398.10 0.7765
398.20 0.7769
398.30 0.7773
398.40 0.7776
398.50 0.7779
398.60 0.7783
398.70 0.7786
398.80 0.779
398.90 0.7793
399.00 0.7797
399.10 0.78
399.20 0.7803
399.30 0.7807
399.40 0.781
399.50 0.7814
399.60 0.7817
399.70 0.782
399.80 0.7824
399.90 0.7827
400.00 0.7831
400.10 0.7834
400.20 0.7838
400.30 0.7841
400.40 0.7844
400.50 0.7848
400.60 0.7851
400.70 0.7855
400.80 0.7858
400.90 0.7861
401.00 0.7865
401.10 0.7868
401.20 0.7872
401.30 0.7875
401.40 0.7878
401.50 0.7881
401.60 0.7885
401.70 0.7888
401.80 0.7892
401.90 0.7895
402.00 0.7898
402.10 0.7902
402.20 0.7905
402.30 0.7908
402.40 0.7911
402.50 0.7915
402.60 0.7918
402.70 0.7922
402.80 0.7925
402.90 0.7928
403.00 0.7932
403.10 0.7935
403.20 0.7938
403.30 0.7941
403.40 0.7945
403.50 0.7948
403.60 0.7951
403.70 0.7955
403.80 0.7958
403.90 0.7961
404.00 0.7965
404.10 0.7968
404.20 0.7971
404.30 0.7974
404.40 0.7977
404.50 0.7981
404.60 0.7984
404.70 0.7987
404.80 0.7991
404.90 0.7994
405.00 0.7997
405.10 0.8001
405.20 0.8004
405.30 0.8007
405.40 0.801
405.50 0.8014
405.60 0.8017
405.70 0.802
405.80 0.8023
405.90 0.8027
406.00 0.803
406.10 0.8033
406.20 0.8036
406.30 0.804
406.40 0.8043
406.50 0.8046
406.60 0.8049
406.70 0.8053
406.80 0.8056
406.90 0.8059
407.00 0.8062
407.10 0.8065
407.20 0.8068
407.30 0.8071
407.40 0.8075
407.50 0.8078
407.60 0.8081
407.70 0.8084
407.80 0.8087
407.90 0.809
408.00 0.8094
408.10 0.8097
408.20 0.81
408.30 0.8103
408.40 0.8106
408.50 0.8109
408.60 0.8113
408.70 0.8116
408.80 0.8118
408.90 0.8121
409.00 0.8124
409.10 0.8127
409.20 0.813
409.30 0.8132
409.40 0.8134
409.50 0.8136
409.60 0.8138
409.70 0.8138
409.80 0.8137
409.90 0.8134
410.00 0.8124
410.10 0.8114
410.20 0.8103
410.30 0.8126
410.40 0.8144
410.50 0.8157
410.60 0.8165
410.70 0.8171
410.80 0.8177
410.90 0.8181
411.00 0.8185
411.10 0.8189
411.20 0.8193
411.30 0.8196
411.40 0.82
411.50 0.8203
411.60 0.8206
411.70 0.821
411.80 0.8213
411.90 0.8216
412.00 0.8219
412.10 0.8222
412.20 0.8226
412.30 0.8229
412.40 0.8232
412.50 0.8235
412.60 0.8238
412.70 0.8241
412.80 0.8245
412.90 0.8248
413.00 0.825
413.10 0.8254
413.20 0.8257
413.30 0.826
413.40 0.8263
413.50 0.8266
413.60 0.8269
413.70 0.8272
413.80 0.8275
413.90 0.8278
414.00 0.8281
414.10 0.8285
414.20 0.8288
414.30 0.829
414.40 0.8293
414.50 0.8297
414.60 0.83
414.70 0.8303
414.80 0.8306
414.90 0.8309
415.00 0.8312
415.10 0.8315
415.20 0.8318
415.30 0.8321
415.40 0.8324
415.50 0.8327
415.60 0.833
415.70 0.8333
415.80 0.8336
415.90 0.8339
416.00 0.8342
416.10 0.8345
416.20 0.8348
416.30 0.8351
416.40 0.8354
416.50 0.8357
416.60 0.836
416.70 0.8363
416.80 0.8366
416.90 0.8369
417.00 0.8372
417.10 0.8375
417.20 0.8378
417.30 0.8381
417.40 0.8384
417.50 0.8386
417.60 0.8389
417.70 0.8393
417.80 0.8395
417.90 0.8398
418.00 0.8402
418.10 0.8404
418.20 0.8407
418.30 0.841
418.40 0.8413
418.50 0.8416
418.60 0.8419
418.70 0.8422
418.80 0.8425
418.90 0.8428
419.00 0.8431
419.10 0.8434
419.20 0.8436
419.30 0.8439
419.40 0.8442
419.50 0.8445
419.60 0.8448
419.70 0.8451
419.80 0.8454
419.90 0.8457
420.00 0.846
420.10 0.8462
420.20 0.8466
420.30 0.8468
420.40 0.8471
420.50 0.8474
420.60 0.8477
420.70 0.848
420.80 0.8483
420.90 0.8486
421.00 0.8489
421.10 0.8492
421.20 0.8494
421.30 0.8497
421.40 0.85
421.50 0.8503
421.60 0.8506
421.70 0.8509
421.80 0.8511
421.90 0.8514
422.00 0.8517
422.10 0.852
422.20 0.8523
422.30 0.8526
422.40 0.8529
422.50 0.8531
422.60 0.8534
422.70 0.8537
422.80 0.854
422.90 0.8543
423.00 0.8546
423.10 0.8549
423.20 0.8551
423.30 0.8554
423.40 0.8557
423.50 0.856
423.60 0.8563
423.70 0.8565
423.80 0.8568
423.90 0.8571
424.00 0.8573
424.10 0.8576
424.20 0.8579
424.30 0.8582
424.40 0.8585
424.50 0.8588
424.60 0.859
424.70 0.8593
424.80 0.8596
424.90 0.8599
425.00 0.8601
425.10 0.8604
425.20 0.8607
425.30 0.861
425.40 0.8612
425.50 0.8615
425.60 0.8618
425.70 0.8621
425.80 0.8623
425.90 0.8626
426.00 0.8629
426.10 0.8632
426.20 0.8634
426.30 0.8637
426.40 0.864
426.50 0.8643
426.60 0.8646
426.70 0.8648
426.80 0.8651
426.90 0.8654
427.00 0.8656
427.10 0.8659
427.20 0.8662
427.30 0.8664
427.40 0.8667
427.50 0.867
427.60 0.8673
427.70 0.8676
427.80 0.8678
427.90 0.8681
428.00 0.8683
428.10 0.8686
428.20 0.8689
428.30 0.8691
428.40 0.8694
428.50 0.8697
428.60 0.87
428.70 0.8702
428.80 0.8705
428.90 0.8707
429.00 0.871
429.10 0.8713
429.20 0.8716
429.30 0.8718
429.40 0.8721
429.50 0.8723
429.60 0.8726
429.70 0.8729
429.80 0.8731
429.90 0.8734
430.00 0.8737
430.10 0.8739
430.20 0.8742
430.30 0.8744
430.40 0.8747
430.50 0.875
430.60 0.8753
430.70 0.8755
430.80 0.8757
430.90 0.876
431.00 0.8763
431.10 0.8765
431.20 0.8768
431.30 0.877
431.40 0.8773
431.50 0.8776
431.60 0.8778
431.70 0.878
431.80 0.8783
431.90 0.8786
432.00 0.8788
432.10 0.879
432.20 0.8793
432.30 0.8795
432.40 0.8798
432.50 0.88
432.60 0.8802
432.70 0.8804
432.80 0.8806
432.90 0.8808
433.00 0.881
433.10 0.8812
433.20 0.8813
433.30 0.8813
433.40 0.8812
433.50 0.881
433.60 0.8806
433.70 0.8795
433.80 0.8775
433.90 0.8745
434.00 0.8685
434.10 0.8689
434.20 0.8757
434.30 0.879
434.40 0.8814
434.50 0.883
434.60 0.8838
434.70 0.8846
434.80 0.8851
434.90 0.8856
435.00 0.886
435.10 0.8864
435.20 0.8867
435.30 0.887
435.40 0.8873
435.50 0.8876
435.60 0.8879
435.70 0.8882
435.80 0.8884
435.90 0.8887
436.00 0.889
436.10 0.8892
436.20 0.8895
436.30 0.8898
436.40 0.89
436.50 0.8903
436.60 0.8905
436.70 0.8908
436.80 0.8911
436.90 0.8913
437.00 0.8916
437.10 0.8918
437.20 0.8921
437.30 0.8923
437.40 0.8926
437.50 0.8928
437.60 0.8931
437.70 0.8933
437.80 0.8935
437.90 0.8938
438.00 0.894
438.10 0.8943
438.20 0.8945
438.30 0.8948
438.40 0.895
438.50 0.8953
438.60 0.8955
438.70 0.8957
438.80 0.896
438.90 0.8962
439.00 0.8965
439.10 0.8967
439.20 0.897
439.30 0.8972
439.40 0.8975
439.50 0.8977
439.60 0.898
439.70 0.8982
439.80 0.8985
439.90 0.8987
440.00 0.8989
440.10 0.8992
440.20 0.8994
440.30 0.8996
440.40 0.8999
440.50 0.9001
440.60 0.9004
440.70 0.9006
440.80 0.9008
440.90 0.9011
441.00 0.9013
441.10 0.9015
441.20 0.9018
441.30 0.902
441.40 0.9022
441.50 0.9025
441.60 0.9027
441.70 0.9029
441.80 0.9032
441.90 0.9034
442.00 0.9036
442.10 0.9039
442.20 0.9041
442.30 0.9043
442.40 0.9046
442.50 0.9049
442.60 0.9051
442.70 0.9053
442.80 0.9056
442.90 0.9058
443.00 0.906
443.10 0.9062
