# Version 2.1 - nm, norm@500 to 1, cut digits, bergeron_17000_75.dat_17000
# Wavelength(nm)  Flambda(ergs/cm^s/s/nm)
300.00 2.604
300.10 2.602
300.20 2.6
300.30 2.598
300.40 2.596
300.50 2.593
300.60 2.591
300.70 2.589
300.80 2.587
300.90 2.585
301.00 2.582
301.10 2.58
301.20 2.578
301.30 2.576
301.40 2.574
301.50 2.571
301.60 2.569
301.70 2.567
301.80 2.565
301.90 2.563
302.00 2.561
302.10 2.558
302.20 2.556
302.30 2.554
302.40 2.552
302.50 2.55
302.60 2.548
302.70 2.545
302.80 2.543
302.90 2.541
303.00 2.539
303.10 2.537
303.20 2.535
303.30 2.532
303.40 2.53
303.50 2.528
303.60 2.526
303.70 2.524
303.80 2.522
303.90 2.52
304.00 2.517
304.10 2.515
304.20 2.513
304.30 2.511
304.40 2.509
304.50 2.507
304.60 2.505
304.70 2.503
304.80 2.501
304.90 2.498
305.00 2.496
305.10 2.494
305.20 2.492
305.30 2.49
305.40 2.488
305.50 2.486
305.60 2.484
305.70 2.482
305.80 2.48
305.90 2.478
306.00 2.475
306.10 2.473
306.20 2.471
306.30 2.469
306.40 2.467
306.50 2.465
306.60 2.463
306.70 2.461
306.80 2.459
306.90 2.457
307.00 2.455
307.10 2.453
307.20 2.451
307.30 2.449
307.40 2.447
307.50 2.445
307.60 2.443
307.70 2.441
307.80 2.439
307.90 2.437
308.00 2.434
308.10 2.432
308.20 2.43
308.30 2.428
308.40 2.426
308.50 2.424
308.60 2.422
308.70 2.42
308.80 2.418
308.90 2.416
309.00 2.414
309.10 2.412
309.20 2.41
309.30 2.408
309.40 2.406
309.50 2.404
309.60 2.402
309.70 2.4
309.80 2.398
309.90 2.396
310.00 2.394
310.10 2.392
310.20 2.39
310.30 2.388
310.40 2.386
310.50 2.384
310.60 2.382
310.70 2.38
310.80 2.378
310.90 2.376
311.00 2.375
311.10 2.373
311.20 2.371
311.30 2.369
311.40 2.367
311.50 2.365
311.60 2.363
311.70 2.361
311.80 2.359
311.90 2.357
312.00 2.355
312.10 2.353
312.20 2.351
312.30 2.349
312.40 2.347
312.50 2.345
312.60 2.343
312.70 2.341
312.80 2.339
312.90 2.338
313.00 2.336
313.10 2.334
313.20 2.332
313.30 2.33
313.40 2.328
313.50 2.326
313.60 2.324
313.70 2.322
313.80 2.32
313.90 2.318
314.00 2.316
314.10 2.315
314.20 2.313
314.30 2.311
314.40 2.309
314.50 2.307
314.60 2.305
314.70 2.303
314.80 2.301
314.90 2.3
315.00 2.298
315.10 2.296
315.20 2.294
315.30 2.292
315.40 2.29
315.50 2.288
315.60 2.286
315.70 2.285
315.80 2.283
315.90 2.281
316.00 2.279
316.10 2.277
316.20 2.275
316.30 2.273
316.40 2.272
316.50 2.27
316.60 2.268
316.70 2.266
316.80 2.264
316.90 2.262
317.00 2.26
317.10 2.259
317.20 2.257
317.30 2.255
317.40 2.253
317.50 2.251
317.60 2.25
317.70 2.248
317.80 2.246
317.90 2.244
318.00 2.242
318.10 2.24
318.20 2.239
318.30 2.237
318.40 2.235
318.50 2.233
318.60 2.231
318.70 2.23
318.80 2.228
318.90 2.226
319.00 2.224
319.10 2.222
319.20 2.221
319.30 2.219
319.40 2.217
319.50 2.215
319.60 2.213
319.70 2.212
319.80 2.21
319.90 2.208
320.00 2.206
320.10 2.204
320.20 2.203
320.30 2.201
320.40 2.199
320.50 2.197
320.60 2.196
320.70 2.194
320.80 2.192
320.90 2.19
321.00 2.188
321.10 2.187
321.20 2.185
321.30 2.183
321.40 2.181
321.50 2.18
321.60 2.178
321.70 2.176
321.80 2.174
321.90 2.173
322.00 2.171
322.10 2.169
322.20 2.167
322.30 2.166
322.40 2.164
322.50 2.162
322.60 2.161
322.70 2.159
322.80 2.157
322.90 2.155
323.00 2.154
323.10 2.152
323.20 2.15
323.30 2.148
323.40 2.147
323.50 2.145
323.60 2.143
323.70 2.142
323.80 2.14
323.90 2.138
324.00 2.136
324.10 2.135
324.20 2.133
324.30 2.131
324.40 2.13
324.50 2.128
324.60 2.126
324.70 2.125
324.80 2.123
324.90 2.121
325.00 2.119
325.10 2.118
325.20 2.116
325.30 2.114
325.40 2.113
325.50 2.111
325.60 2.109
325.70 2.108
325.80 2.106
325.90 2.104
326.00 2.103
326.10 2.101
326.20 2.099
326.30 2.098
326.40 2.096
326.50 2.094
326.60 2.093
326.70 2.091
326.80 2.089
326.90 2.088
327.00 2.086
327.10 2.084
327.20 2.083
327.30 2.081
327.40 2.079
327.50 2.078
327.60 2.076
327.70 2.075
327.80 2.073
327.90 2.071
328.00 2.07
328.10 2.068
328.20 2.066
328.30 2.065
328.40 2.063
328.50 2.061
328.60 2.06
328.70 2.058
328.80 2.057
328.90 2.055
329.00 2.053
329.10 2.052
329.20 2.05
329.30 2.048
329.40 2.047
329.50 2.045
329.60 2.044
329.70 2.042
329.80 2.04
329.90 2.039
330.00 2.037
330.10 2.036
330.20 2.034
330.30 2.032
330.40 2.031
330.50 2.029
330.60 2.028
330.70 2.026
330.80 2.024
330.90 2.023
331.00 2.021
331.10 2.02
331.20 2.018
331.30 2.016
331.40 2.015
331.50 2.013
331.60 2.012
331.70 2.01
331.80 2.009
331.90 2.007
332.00 2.005
332.10 2.004
332.20 2.002
332.30 2.001
332.40 1.999
332.50 1.998
332.60 1.996
332.70 1.994
332.80 1.993
332.90 1.991
333.00 1.99
333.10 1.988
333.20 1.987
333.30 1.985
333.40 1.984
333.50 1.982
333.60 1.981
333.70 1.979
333.80 1.977
333.90 1.976
334.00 1.974
334.10 1.973
334.20 1.971
334.30 1.97
334.40 1.968
334.50 1.967
334.60 1.965
334.70 1.964
334.80 1.962
334.90 1.961
335.00 1.959
335.10 1.958
335.20 1.956
335.30 1.954
335.40 1.953
335.50 1.951
335.60 1.95
335.70 1.948
335.80 1.947
335.90 1.945
336.00 1.944
336.10 1.942
336.20 1.941
336.30 1.939
336.40 1.938
336.50 1.936
336.60 1.935
336.70 1.933
336.80 1.932
336.90 1.93
337.00 1.929
337.10 1.927
337.20 1.926
337.30 1.925
337.40 1.923
337.50 1.922
337.60 1.92
337.70 1.919
337.80 1.917
337.90 1.916
338.00 1.914
338.10 1.913
338.20 1.911
338.30 1.91
338.40 1.908
338.50 1.907
338.60 1.905
338.70 1.904
338.80 1.902
338.90 1.901
339.00 1.899
339.10 1.898
339.20 1.897
339.30 1.895
339.40 1.894
339.50 1.892
339.60 1.891
339.70 1.889
339.80 1.888
339.90 1.886
340.00 1.885
340.10 1.883
340.20 1.882
340.30 1.881
340.40 1.879
340.50 1.878
340.60 1.876
340.70 1.875
340.80 1.873
340.90 1.872
341.00 1.871
341.10 1.869
341.20 1.868
341.30 1.866
341.40 1.865
341.50 1.863
341.60 1.862
341.70 1.861
341.80 1.859
341.90 1.858
342.00 1.856
342.10 1.855
342.20 1.853
342.30 1.852
342.40 1.851
342.50 1.849
342.60 1.848
342.70 1.846
342.80 1.845
342.90 1.844
343.00 1.842
343.10 1.841
343.20 1.839
343.30 1.838
343.40 1.837
343.50 1.835
343.60 1.834
343.70 1.832
343.80 1.831
343.90 1.83
344.00 1.828
344.10 1.827
344.20 1.825
344.30 1.824
344.40 1.823
344.50 1.821
344.60 1.82
344.70 1.819
344.80 1.817
344.90 1.816
345.00 1.814
345.10 1.813
345.20 1.812
345.30 1.81
345.40 1.809
345.50 1.808
345.60 1.806
345.70 1.805
345.80 1.803
345.90 1.802
346.00 1.801
346.10 1.799
346.20 1.798
346.30 1.797
346.40 1.795
346.50 1.794
346.60 1.793
346.70 1.791
346.80 1.79
346.90 1.788
347.00 1.787
347.10 1.786
347.20 1.784
347.30 1.783
347.40 1.782
347.50 1.78
347.60 1.779
347.70 1.778
347.80 1.776
347.90 1.775
348.00 1.774
348.10 1.772
348.20 1.771
348.30 1.77
348.40 1.768
348.50 1.767
348.60 1.766
348.70 1.764
348.80 1.763
348.90 1.762
349.00 1.76
349.10 1.759
349.20 1.758
349.30 1.756
349.40 1.755
349.50 1.754
349.60 1.753
349.70 1.751
349.80 1.75
349.90 1.749
350.00 1.747
350.10 1.746
350.20 1.745
350.30 1.743
350.40 1.742
350.50 1.741
350.60 1.739
350.70 1.738
350.80 1.737
350.90 1.736
351.00 1.734
351.10 1.733
351.20 1.732
351.30 1.73
351.40 1.729
351.50 1.728
351.60 1.727
351.70 1.725
351.80 1.724
351.90 1.723
352.00 1.721
352.10 1.72
352.20 1.719
352.30 1.718
352.40 1.716
352.50 1.715
352.60 1.714
352.70 1.712
352.80 1.711
352.90 1.71
353.00 1.709
353.10 1.707
353.20 1.706
353.30 1.705
353.40 1.704
353.50 1.702
353.60 1.701
353.70 1.7
353.80 1.698
353.90 1.697
354.00 1.696
354.10 1.695
354.20 1.693
354.30 1.692
354.40 1.691
354.50 1.69
354.60 1.688
354.70 1.687
354.80 1.686
354.90 1.685
355.00 1.683
355.10 1.682
355.20 1.681
355.30 1.68
355.40 1.678
355.50 1.677
355.60 1.676
355.70 1.675
355.80 1.673
355.90 1.672
356.00 1.671
356.10 1.67
356.20 1.669
356.30 1.667
356.40 1.666
356.50 1.665
356.60 1.664
356.70 1.662
356.80 1.661
356.90 1.66
357.00 1.659
357.10 1.657
357.20 1.656
357.30 1.655
357.40 1.654
357.50 1.653
357.60 1.651
357.70 1.65
357.80 1.649
357.90 1.648
358.00 1.646
358.10 1.645
358.20 1.644
358.30 1.643
358.40 1.642
358.50 1.64
358.60 1.639
358.70 1.638
358.80 1.637
358.90 1.636
359.00 1.634
359.10 1.633
359.20 1.632
359.30 1.631
359.40 1.63
359.50 1.628
359.60 1.627
359.70 1.626
359.80 1.625
359.90 1.624
360.00 1.623
360.10 1.621
360.20 1.62
360.30 1.619
360.40 1.618
360.50 1.617
360.60 1.615
360.70 1.614
360.80 1.613
360.90 1.612
361.00 1.611
361.10 1.61
361.20 1.608
361.30 1.607
361.40 1.606
361.50 1.605
361.60 1.604
361.70 1.602
361.80 1.601
361.90 1.6
362.00 1.599
362.10 1.598
362.20 1.597
362.30 1.596
362.40 1.594
362.50 1.593
362.60 1.592
362.70 1.591
362.80 1.59
362.90 1.589
363.00 1.587
363.10 1.586
363.20 1.585
363.30 1.584
363.40 1.583
363.50 1.581
363.60 1.58
363.70 1.579
363.80 1.578
363.90 1.576
364.00 1.575
364.10 1.574
364.20 1.573
364.30 1.572
364.40 1.57
364.50 1.569
364.60 1.568
364.70 1.567
364.80 1.566
364.90 1.564
365.00 1.563
365.10 1.562
365.20 1.561
365.30 1.56
365.40 1.558
365.50 1.557
365.60 1.556
365.70 1.555
365.80 1.554
365.90 1.552
366.00 1.551
366.10 1.55
366.20 1.549
366.30 1.548
366.40 1.547
366.50 1.546
366.60 1.544
366.70 1.543
366.80 1.542
366.90 1.541
367.00 1.54
367.10 1.539
367.20 1.538
367.30 1.537
367.40 1.535
367.50 1.534
367.60 1.533
367.70 1.532
367.80 1.531
367.90 1.53
368.00 1.529
368.10 1.528
368.20 1.527
368.30 1.526
368.40 1.525
368.50 1.525
368.60 1.524
368.70 1.523
368.80 1.522
368.90 1.521
369.00 1.52
369.10 1.52
369.20 1.519
369.30 1.518
369.40 1.517
369.50 1.516
369.60 1.516
369.70 1.515
369.80 1.514
369.90 1.513
370.00 1.512
370.10 1.512
370.20 1.513
370.30 1.513
370.40 1.513
370.50 1.513
370.60 1.513
370.70 1.513
370.80 1.513
370.90 1.513
371.00 1.513
371.10 1.513
371.20 1.513
371.30 1.513
371.40 1.513
371.50 1.514
371.60 1.514
371.70 1.514
371.80 1.514
371.90 1.514
372.00 1.514
372.10 1.515
372.20 1.517
372.30 1.518
372.40 1.519
372.50 1.521
372.60 1.522
372.70 1.523
372.80 1.525
372.90 1.526
373.00 1.527
373.10 1.529
373.20 1.53
373.30 1.531
373.40 1.533
373.50 1.534
373.60 1.535
373.70 1.536
373.80 1.538
373.90 1.539
374.00 1.54
374.10 1.542
374.20 1.544
374.30 1.546
374.40 1.548
374.50 1.55
374.60 1.552
374.70 1.554
374.80 1.556
374.90 1.558
375.00 1.56
375.10 1.562
375.20 1.564
375.30 1.565
375.40 1.567
375.50 1.569
375.60 1.571
375.70 1.573
375.80 1.575
375.90 1.577
376.00 1.579
376.10 1.58
376.20 1.581
376.30 1.582
376.40 1.583
376.50 1.584
376.60 1.584
376.70 1.585
376.80 1.586
376.90 1.587
377.00 1.588
377.10 1.586
377.20 1.585
377.30 1.583
377.40 1.581
377.50 1.579
377.60 1.577
377.70 1.575
377.80 1.573
377.90 1.571
378.00 1.57
378.10 1.559
378.20 1.549
378.30 1.539
378.40 1.528
378.50 1.518
378.60 1.508
378.70 1.498
378.80 1.488
378.90 1.477
379.00 1.467
379.10 1.46
379.20 1.453
379.30 1.446
379.40 1.438
379.50 1.431
379.60 1.424
379.70 1.417
379.80 1.41
379.90 1.402
380.00 1.395
380.10 1.406
380.20 1.417
380.30 1.428
380.40 1.439
380.50 1.45
380.60 1.461
380.70 1.471
380.80 1.482
380.90 1.493
381.00 1.504
381.10 1.508
381.20 1.512
381.30 1.516
381.40 1.52
381.50 1.524
381.60 1.523
381.70 1.52
381.80 1.516
381.90 1.509
382.00 1.501
382.10 1.491
382.20 1.479
382.30 1.458
382.40 1.436
382.50 1.414
382.60 1.393
382.70 1.371
382.80 1.35
382.90 1.328
383.00 1.307
383.10 1.285
383.20 1.264
383.30 1.248
383.40 1.229
383.50 1.209
383.60 1.212
383.70 1.233
383.80 1.251
383.90 1.268
384.00 1.288
384.10 1.312
384.20 1.339
384.30 1.366
384.40 1.392
384.50 1.417
384.60 1.44
384.70 1.461
384.80 1.48
384.90 1.496
385.00 1.51
385.10 1.522
385.20 1.533
385.30 1.542
385.40 1.549
385.50 1.555
385.60 1.56
385.70 1.563
385.80 1.565
385.90 1.567
386.00 1.566
386.10 1.565
386.20 1.563
386.30 1.559
386.40 1.554
386.50 1.549
386.60 1.541
386.70 1.533
386.80 1.524
386.90 1.513
387.00 1.502
387.10 1.489
387.20 1.474
387.30 1.459
387.40 1.442
387.50 1.422
387.60 1.402
387.70 1.379
387.80 1.353
387.90 1.326
388.00 1.296
388.10 1.262
388.20 1.227
388.30 1.191
388.40 1.154
388.50 1.12
388.60 1.089
388.70 1.062
388.80 1.037
388.90 1.014
389.00 1.035
389.10 1.058
389.20 1.084
389.30 1.113
389.40 1.146
389.50 1.182
389.60 1.219
389.70 1.254
389.80 1.287
389.90 1.318
390.00 1.346
390.10 1.373
390.20 1.396
390.30 1.419
390.40 1.44
390.50 1.459
390.60 1.477
390.70 1.495
390.80 1.51
390.90 1.526
391.00 1.54
391.10 1.554
391.20 1.567
391.30 1.579
391.40 1.591
391.50 1.602
391.60 1.612
391.70 1.621
391.80 1.63
391.90 1.638
392.00 1.645
392.10 1.651
392.20 1.656
392.30 1.66
392.40 1.664
392.50 1.667
392.60 1.668
392.70 1.669
392.80 1.67
392.90 1.668
393.00 1.667
393.10 1.664
393.20 1.66
393.30 1.656
393.40 1.65
393.50 1.644
393.60 1.636
393.70 1.628
393.80 1.619
393.90 1.609
394.00 1.598
394.10 1.586
394.20 1.573
394.30 1.559
394.40 1.544
394.50 1.529
394.60 1.513
394.70 1.496
394.80 1.478
394.90 1.46
395.00 1.441
395.10 1.422
395.20 1.401
395.30 1.38
395.40 1.358
395.50 1.336
395.60 1.312
395.70 1.287
395.80 1.262
395.90 1.234
396.00 1.206
396.10 1.176
396.20 1.143
396.30 1.108
396.40 1.071
396.50 1.031
396.60 0.9914
396.70 0.953
396.80 0.9187
396.90 0.8799
397.00 0.8367
397.10 0.8758
397.20 0.9121
397.30 0.9455
397.40 0.9824
397.50 1.02
397.60 1.059
397.70 1.095
397.80 1.13
397.90 1.162
398.00 1.19
398.10 1.218
398.20 1.244
398.30 1.269
398.40 1.292
398.50 1.315
398.60 1.337
398.70 1.358
398.80 1.378
398.90 1.398
399.00 1.417
399.10 1.436
399.20 1.454
399.30 1.472
399.40 1.489
399.50 1.506
399.60 1.522
399.70 1.538
399.80 1.553
399.90 1.568
400.00 1.582
400.10 1.596
400.20 1.609
400.30 1.621
400.40 1.633
400.50 1.644
400.60 1.655
400.70 1.665
400.80 1.675
400.90 1.684
401.00 1.693
401.10 1.701
401.20 1.709
401.30 1.716
401.40 1.723
401.50 1.729
401.60 1.735
401.70 1.74
401.80 1.746
401.90 1.75
402.00 1.754
402.10 1.758
402.20 1.762
402.30 1.765
402.40 1.768
402.50 1.77
402.60 1.772
402.70 1.774
402.80 1.775
402.90 1.776
403.00 1.777
403.10 1.777
403.20 1.777
403.30 1.777
403.40 1.776
403.50 1.775
403.60 1.774
403.70 1.772
403.80 1.77
403.90 1.768
404.00 1.766
404.10 1.763
404.20 1.76
404.30 1.756
404.40 1.752
404.50 1.748
404.60 1.744
404.70 1.739
404.80 1.734
404.90 1.728
405.00 1.722
405.10 1.716
405.20 1.709
405.30 1.702
405.40 1.694
405.50 1.686
405.60 1.678
405.70 1.669
405.80 1.66
405.90 1.651
406.00 1.641
406.10 1.63
406.20 1.619
406.30 1.608
406.40 1.596
406.50 1.583
406.60 1.571
406.70 1.557
406.80 1.543
406.90 1.529
407.00 1.514
407.10 1.498
407.20 1.482
407.30 1.466
407.40 1.448
407.50 1.431
407.60 1.412
407.70 1.393
407.80 1.374
407.90 1.355
408.00 1.334
408.10 1.314
408.20 1.293
408.30 1.272
408.40 1.251
408.50 1.229
408.60 1.206
408.70 1.184
408.80 1.161
408.90 1.137
409.00 1.113
409.10 1.088
409.20 1.063
409.30 1.037
409.40 1.008
409.50 0.9776
409.60 0.9453
409.70 0.91
409.80 0.8741
409.90 0.8377
410.00 0.7969
410.10 0.7567
410.20 0.7172
410.30 0.7723
410.40 0.8181
410.50 0.8547
410.60 0.89
410.70 0.9243
410.80 0.9575
410.90 0.9873
411.00 1.015
411.10 1.042
411.20 1.066
411.30 1.089
411.40 1.112
411.50 1.134
411.60 1.156
411.70 1.177
411.80 1.198
411.90 1.218
412.00 1.238
412.10 1.257
412.20 1.277
412.30 1.295
412.40 1.314
412.50 1.332
412.60 1.349
412.70 1.366
412.80 1.383
412.90 1.399
413.00 1.414
413.10 1.429
413.20 1.444
413.30 1.458
413.40 1.471
413.50 1.484
413.60 1.496
413.70 1.508
413.80 1.52
413.90 1.531
414.00 1.541
414.10 1.551
414.20 1.561
414.30 1.57
414.40 1.579
414.50 1.587
414.60 1.596
414.70 1.603
414.80 1.611
414.90 1.618
415.00 1.625
415.10 1.631
415.20 1.637
415.30 1.643
415.40 1.649
415.50 1.654
415.60 1.659
415.70 1.664
415.80 1.668
415.90 1.673
416.00 1.677
416.10 1.68
416.20 1.684
416.30 1.688
416.40 1.691
416.50 1.694
416.60 1.697
416.70 1.7
416.80 1.702
416.90 1.705
417.00 1.707
417.10 1.709
417.20 1.711
417.30 1.713
417.40 1.715
417.50 1.716
417.60 1.718
417.70 1.719
417.80 1.721
417.90 1.722
418.00 1.723
418.10 1.724
418.20 1.725
418.30 1.726
418.40 1.726
418.50 1.727
418.60 1.728
418.70 1.728
418.80 1.728
418.90 1.729
419.00 1.729
419.10 1.729
419.20 1.729
419.30 1.729
419.40 1.729
419.50 1.729
419.60 1.729
419.70 1.729
419.80 1.729
419.90 1.728
420.00 1.728
420.10 1.728
420.20 1.727
420.30 1.727
420.40 1.726
420.50 1.725
420.60 1.725
420.70 1.724
420.80 1.723
420.90 1.723
421.00 1.722
421.10 1.721
421.20 1.72
421.30 1.719
421.40 1.718
421.50 1.717
421.60 1.716
421.70 1.715
421.80 1.714
421.90 1.713
422.00 1.711
422.10 1.71
422.20 1.709
422.30 1.708
422.40 1.706
422.50 1.705
422.60 1.703
422.70 1.702
422.80 1.7
422.90 1.699
423.00 1.697
423.10 1.696
423.20 1.694
423.30 1.692
423.40 1.69
423.50 1.688
423.60 1.687
423.70 1.685
423.80 1.683
423.90 1.681
424.00 1.679
424.10 1.676
424.20 1.674
424.30 1.672
424.40 1.67
424.50 1.667
424.60 1.665
424.70 1.663
424.80 1.66
424.90 1.658
425.00 1.655
425.10 1.652
425.20 1.65
425.30 1.647
425.40 1.644
425.50 1.641
425.60 1.638
425.70 1.635
425.80 1.632
425.90 1.628
426.00 1.625
426.10 1.622
426.20 1.618
426.30 1.614
426.40 1.61
426.50 1.606
426.60 1.602
426.70 1.598
426.80 1.594
426.90 1.59
427.00 1.586
427.10 1.581
427.20 1.577
427.30 1.572
427.40 1.567
427.50 1.562
427.60 1.557
427.70 1.552
427.80 1.547
427.90 1.541
428.00 1.536
428.10 1.53
428.20 1.524
428.30 1.518
428.40 1.512
428.50 1.505
428.60 1.499
428.70 1.492
428.80 1.485
428.90 1.478
429.00 1.47
429.10 1.463
429.20 1.455
429.30 1.446
429.40 1.438
429.50 1.429
429.60 1.42
429.70 1.411
429.80 1.402
429.90 1.392
430.00 1.382
430.10 1.372
430.20 1.361
430.30 1.35
430.40 1.339
430.50 1.328
430.60 1.316
430.70 1.304
430.80 1.291
430.90 1.279
431.00 1.266
431.10 1.252
431.20 1.239
431.30 1.224
431.40 1.21
431.50 1.195
431.60 1.18
431.70 1.165
431.80 1.149
431.90 1.132
432.00 1.116
432.10 1.099
432.20 1.081
432.30 1.062
432.40 1.043
432.50 1.024
432.60 1.003
432.70 0.9823
432.80 0.9609
432.90 0.9396
433.00 0.9185
433.10 0.8981
433.20 0.8774
433.30 0.8563
433.40 0.833
433.50 0.8081
433.60 0.7817
433.70 0.7512
433.80 0.7177
433.90 0.6809
434.00 0.607
434.10 0.6079
434.20 0.6836
434.30 0.7189
434.40 0.7512
434.50 0.7806
434.60 0.8058
434.70 0.8296
434.80 0.8517
434.90 0.8716
435.00 0.8912
435.10 0.9104
435.20 0.9303
435.30 0.9502
435.40 0.9702
435.50 0.9896
435.60 1.008
435.70 1.027
435.80 1.044
435.90 1.06
436.00 1.077
436.10 1.092
436.20 1.107
436.30 1.122
436.40 1.136
436.50 1.149
436.60 1.162
436.70 1.175
436.80 1.187
436.90 1.199
437.00 1.211
437.10 1.222
437.20 1.233
437.30 1.243
437.40 1.254
437.50 1.264
437.60 1.273
437.70 1.282
437.80 1.291
437.90 1.299
438.00 1.308
438.10 1.316
438.20 1.323
438.30 1.33
438.40 1.338
438.50 1.344
438.60 1.351
438.70 1.357
438.80 1.363
438.90 1.368
439.00 1.374
439.10 1.379
439.20 1.384
439.30 1.389
439.40 1.393
439.50 1.398
439.60 1.402
439.70 1.406
439.80 1.41
439.90 1.413
440.00 1.417
440.10 1.42
440.20 1.423
440.30 1.426
440.40 1.429
440.50 1.431
440.60 1.434
440.70 1.436
440.80 1.439
440.90 1.441
441.00 1.443
441.10 1.445
441.20 1.447
441.30 1.449
441.40 1.45
441.50 1.452
441.60 1.453
441.70 1.455
441.80 1.456
441.90 1.457
442.00 1.458
442.10 1.459
442.20 1.46
442.30 1.461
442.40 1.462
442.50 1.463
442.60 1.463
442.70 1.464
442.80 1.465
442.90 1.465
443.00 1.465
443.10 1.466
443.20 1.466
443.30 1.466
443.40 1.467
443.50 1.467
443.60 1.467
443.70 1.467
443.80 1.467
443.90 1.467
444.00 1.467
444.10 1.467
444.20 1.467
444.30 1.467
444.40 1.467
444.50 1.467
444.60 1.467
444.70 1.466
444.80 1.466
444.90 1.466
445.00 1.466
445.10 1.465
445.20 1.465
445.30 1.465
445.40 1.464
445.50 1.464
445.60 1.463
445.70 1.463
445.80 1.462
445.90 1.462
446.00 1.461
446.10 1.461
446.20 1.46
446.30 1.46
446.40 1.459
446.50 1.459
446.60 1.458
446.70 1.457
446.80 1.457
446.90 1.456
447.00 1.455
447.10 1.455
447.20 1.454
447.30 1.453
447.40 1.453
447.50 1.452
447.60 1.451
447.70 1.451
447.80 1.45
447.90 1.449
448.00 1.448
448.10 1.448
448.20 1.447
448.30 1.446
448.40 1.445
448.50 1.444
448.60 1.444
448.70 1.443
448.80 1.442
448.90 1.441
449.00 1.441
449.10 1.44
449.20 1.439
449.30 1.438
449.40 1.437
449.50 1.436
449.60 1.436
449.70 1.435
449.80 1.434
449.90 1.433
450.00 1.432
450.10 1.431
450.20 1.43
450.30 1.429
450.40 1.429
450.50 1.428
450.60 1.427
450.70 1.426
450.80 1.425
450.90 1.424
451.00 1.423
451.10 1.422
451.20 1.421
451.30 1.421
451.40 1.42
451.50 1.419
451.60 1.418
451.70 1.417
451.80 1.416
451.90 1.415
452.00 1.414
452.10 1.413
452.20 1.412
452.30 1.411
452.40 1.41
452.50 1.409
452.60 1.408
452.70 1.408
452.80 1.407
452.90 1.406
453.00 1.405
453.10 1.404
453.20 1.403
453.30 1.402
453.40 1.401
453.50 1.4
453.60 1.399
