# Version 2.1 - nm, norm@500 to 1, cut digits, bergeron_11000_75.dat_11000
# Wavelength(nm)  Flambda(ergs/cm^s/s/nm)
300.00 1.601
300.10 1.6
300.20 1.599
300.30 1.599
300.40 1.598
300.50 1.597
300.60 1.596
300.70 1.595
300.80 1.594
300.90 1.593
301.00 1.592
301.10 1.592
301.20 1.591
301.30 1.59
301.40 1.589
301.50 1.588
301.60 1.587
301.70 1.586
301.80 1.585
301.90 1.585
302.00 1.584
302.10 1.583
302.20 1.582
302.30 1.581
302.40 1.58
302.50 1.579
302.60 1.578
302.70 1.578
302.80 1.577
302.90 1.576
303.00 1.575
303.10 1.574
303.20 1.573
303.30 1.572
303.40 1.572
303.50 1.571
303.60 1.57
303.70 1.569
303.80 1.568
303.90 1.567
304.00 1.566
304.10 1.566
304.20 1.565
304.30 1.564
304.40 1.563
304.50 1.562
304.60 1.561
304.70 1.56
304.80 1.56
304.90 1.559
305.00 1.558
305.10 1.557
305.20 1.556
305.30 1.555
305.40 1.554
305.50 1.554
305.60 1.553
305.70 1.552
305.80 1.551
305.90 1.55
306.00 1.549
306.10 1.549
306.20 1.548
306.30 1.547
306.40 1.546
306.50 1.545
306.60 1.544
306.70 1.543
306.80 1.543
306.90 1.542
307.00 1.541
307.10 1.54
307.20 1.539
307.30 1.538
307.40 1.538
307.50 1.537
307.60 1.536
307.70 1.535
307.80 1.534
307.90 1.533
308.00 1.532
308.10 1.532
308.20 1.531
308.30 1.53
308.40 1.529
308.50 1.528
308.60 1.527
308.70 1.527
308.80 1.526
308.90 1.525
309.00 1.524
309.10 1.523
309.20 1.522
309.30 1.522
309.40 1.521
309.50 1.52
309.60 1.519
309.70 1.518
309.80 1.517
309.90 1.517
310.00 1.516
310.10 1.515
310.20 1.514
310.30 1.513
310.40 1.512
310.50 1.512
310.60 1.511
310.70 1.51
310.80 1.509
310.90 1.508
311.00 1.507
311.10 1.507
311.20 1.506
311.30 1.505
311.40 1.504
311.50 1.503
311.60 1.503
311.70 1.502
311.80 1.501
311.90 1.5
312.00 1.499
312.10 1.498
312.20 1.498
312.30 1.497
312.40 1.496
312.50 1.495
312.60 1.494
312.70 1.494
312.80 1.493
312.90 1.492
313.00 1.491
313.10 1.49
313.20 1.489
313.30 1.489
313.40 1.488
313.50 1.487
313.60 1.486
313.70 1.485
313.80 1.485
313.90 1.484
314.00 1.483
314.10 1.482
314.20 1.481
314.30 1.48
314.40 1.48
314.50 1.479
314.60 1.478
314.70 1.477
314.80 1.476
314.90 1.476
315.00 1.475
315.10 1.474
315.20 1.473
315.30 1.472
315.40 1.472
315.50 1.471
315.60 1.47
315.70 1.469
315.80 1.468
315.90 1.468
316.00 1.467
316.10 1.466
316.20 1.465
316.30 1.464
316.40 1.464
316.50 1.463
316.60 1.462
316.70 1.461
316.80 1.46
316.90 1.46
317.00 1.459
317.10 1.458
317.20 1.457
317.30 1.456
317.40 1.456
317.50 1.455
317.60 1.454
317.70 1.453
317.80 1.452
317.90 1.452
318.00 1.451
318.10 1.45
318.20 1.449
318.30 1.448
318.40 1.448
318.50 1.447
318.60 1.446
318.70 1.445
318.80 1.444
318.90 1.444
319.00 1.443
319.10 1.442
319.20 1.441
319.30 1.441
319.40 1.44
319.50 1.439
319.60 1.438
319.70 1.437
319.80 1.437
319.90 1.436
320.00 1.435
320.10 1.434
320.20 1.433
320.30 1.433
320.40 1.432
320.50 1.431
320.60 1.43
320.70 1.43
320.80 1.429
320.90 1.428
321.00 1.427
321.10 1.426
321.20 1.426
321.30 1.425
321.40 1.424
321.50 1.423
321.60 1.423
321.70 1.422
321.80 1.421
321.90 1.42
322.00 1.419
322.10 1.419
322.20 1.418
322.30 1.417
322.40 1.416
322.50 1.416
322.60 1.415
322.70 1.414
322.80 1.413
322.90 1.412
323.00 1.412
323.10 1.411
323.20 1.41
323.30 1.409
323.40 1.409
323.50 1.408
323.60 1.407
323.70 1.406
323.80 1.406
323.90 1.405
324.00 1.404
324.10 1.403
324.20 1.402
324.30 1.402
324.40 1.401
324.50 1.4
324.60 1.399
324.70 1.399
324.80 1.398
324.90 1.397
325.00 1.396
325.10 1.396
325.20 1.395
325.30 1.394
325.40 1.393
325.50 1.393
325.60 1.392
325.70 1.391
325.80 1.39
325.90 1.39
326.00 1.389
326.10 1.388
326.20 1.387
326.30 1.387
326.40 1.386
326.50 1.385
326.60 1.384
326.70 1.383
326.80 1.383
326.90 1.382
327.00 1.381
327.10 1.38
327.20 1.38
327.30 1.379
327.40 1.378
327.50 1.377
327.60 1.377
327.70 1.376
327.80 1.375
327.90 1.374
328.00 1.374
328.10 1.373
328.20 1.372
328.30 1.371
328.40 1.371
328.50 1.37
328.60 1.369
328.70 1.368
328.80 1.368
328.90 1.367
329.00 1.366
329.10 1.365
329.20 1.365
329.30 1.364
329.40 1.363
329.50 1.363
329.60 1.362
329.70 1.361
329.80 1.36
329.90 1.36
330.00 1.359
330.10 1.358
330.20 1.357
330.30 1.357
330.40 1.356
330.50 1.355
330.60 1.354
330.70 1.354
330.80 1.353
330.90 1.352
331.00 1.351
331.10 1.351
331.20 1.35
331.30 1.349
331.40 1.349
331.50 1.348
331.60 1.347
331.70 1.346
331.80 1.346
331.90 1.345
332.00 1.344
332.10 1.343
332.20 1.343
332.30 1.342
332.40 1.341
332.50 1.34
332.60 1.34
332.70 1.339
332.80 1.338
332.90 1.338
333.00 1.337
333.10 1.336
333.20 1.335
333.30 1.335
333.40 1.334
333.50 1.333
333.60 1.333
333.70 1.332
333.80 1.331
333.90 1.33
334.00 1.33
334.10 1.329
334.20 1.328
334.30 1.327
334.40 1.327
334.50 1.326
334.60 1.325
334.70 1.325
334.80 1.324
334.90 1.323
335.00 1.322
335.10 1.322
335.20 1.321
335.30 1.32
335.40 1.32
335.50 1.319
335.60 1.318
335.70 1.317
335.80 1.317
335.90 1.316
336.00 1.315
336.10 1.315
336.20 1.314
336.30 1.313
336.40 1.312
336.50 1.312
336.60 1.311
336.70 1.31
336.80 1.31
336.90 1.309
337.00 1.308
337.10 1.307
337.20 1.307
337.30 1.306
337.40 1.305
337.50 1.305
337.60 1.304
337.70 1.303
337.80 1.303
337.90 1.302
338.00 1.301
338.10 1.3
338.20 1.3
338.30 1.299
338.40 1.298
338.50 1.298
338.60 1.297
338.70 1.296
338.80 1.295
338.90 1.295
339.00 1.294
339.10 1.293
339.20 1.293
339.30 1.292
339.40 1.291
339.50 1.291
339.60 1.29
339.70 1.289
339.80 1.288
339.90 1.288
340.00 1.287
340.10 1.286
340.20 1.286
340.30 1.285
340.40 1.284
340.50 1.284
340.60 1.283
340.70 1.282
340.80 1.282
340.90 1.281
341.00 1.28
341.10 1.279
341.20 1.279
341.30 1.278
341.40 1.277
341.50 1.277
341.60 1.276
341.70 1.275
341.80 1.275
341.90 1.274
342.00 1.273
342.10 1.273
342.20 1.272
342.30 1.271
342.40 1.271
342.50 1.27
342.60 1.269
342.70 1.268
342.80 1.268
342.90 1.267
343.00 1.266
343.10 1.266
343.20 1.265
343.30 1.264
343.40 1.264
343.50 1.263
343.60 1.262
343.70 1.262
343.80 1.261
343.90 1.26
344.00 1.26
344.10 1.259
344.20 1.258
344.30 1.258
344.40 1.257
344.50 1.256
344.60 1.256
344.70 1.255
344.80 1.254
344.90 1.253
345.00 1.253
345.10 1.252
345.20 1.251
345.30 1.251
345.40 1.25
345.50 1.249
345.60 1.249
345.70 1.248
345.80 1.247
345.90 1.247
346.00 1.246
346.10 1.245
346.20 1.245
346.30 1.244
346.40 1.243
346.50 1.243
346.60 1.242
346.70 1.241
346.80 1.241
346.90 1.24
347.00 1.239
347.10 1.239
347.20 1.238
347.30 1.237
347.40 1.237
347.50 1.236
347.60 1.235
347.70 1.235
347.80 1.234
347.90 1.233
348.00 1.233
348.10 1.232
348.20 1.231
348.30 1.231
348.40 1.23
348.50 1.229
348.60 1.229
348.70 1.228
348.80 1.227
348.90 1.227
349.00 1.226
349.10 1.225
349.20 1.225
349.30 1.224
349.40 1.224
349.50 1.223
349.60 1.222
349.70 1.222
349.80 1.221
349.90 1.22
350.00 1.22
350.10 1.219
350.20 1.218
350.30 1.218
350.40 1.217
350.50 1.216
350.60 1.216
350.70 1.215
350.80 1.214
350.90 1.214
351.00 1.213
351.10 1.212
351.20 1.212
351.30 1.211
351.40 1.21
351.50 1.21
351.60 1.209
351.70 1.209
351.80 1.208
351.90 1.207
352.00 1.207
352.10 1.206
352.20 1.205
352.30 1.205
352.40 1.204
352.50 1.203
352.60 1.203
352.70 1.202
352.80 1.201
352.90 1.201
353.00 1.2
353.10 1.2
353.20 1.199
353.30 1.198
353.40 1.198
353.50 1.197
353.60 1.196
353.70 1.196
353.80 1.195
353.90 1.194
354.00 1.194
354.10 1.193
354.20 1.192
354.30 1.192
354.40 1.191
354.50 1.191
354.60 1.19
354.70 1.189
354.80 1.189
354.90 1.188
355.00 1.187
355.10 1.187
355.20 1.186
355.30 1.185
355.40 1.185
355.50 1.184
355.60 1.184
355.70 1.183
355.80 1.182
355.90 1.182
356.00 1.181
356.10 1.18
356.20 1.18
356.30 1.179
356.40 1.179
356.50 1.178
356.60 1.177
356.70 1.177
356.80 1.176
356.90 1.175
357.00 1.175
357.10 1.174
357.20 1.174
357.30 1.173
357.40 1.172
357.50 1.172
357.60 1.171
357.70 1.17
357.80 1.17
357.90 1.169
358.00 1.169
358.10 1.168
358.20 1.167
358.30 1.167
358.40 1.166
358.50 1.165
358.60 1.165
358.70 1.164
358.80 1.164
358.90 1.163
359.00 1.162
359.10 1.162
359.20 1.161
359.30 1.161
359.40 1.16
359.50 1.159
359.60 1.159
359.70 1.158
359.80 1.157
359.90 1.157
360.00 1.156
360.10 1.156
360.20 1.155
360.30 1.154
360.40 1.154
360.50 1.153
360.60 1.153
360.70 1.152
360.80 1.151
360.90 1.151
361.00 1.15
361.10 1.149
361.20 1.149
361.30 1.148
361.40 1.148
361.50 1.147
361.60 1.146
361.70 1.146
361.80 1.145
361.90 1.145
362.00 1.144
362.10 1.143
362.20 1.143
362.30 1.142
362.40 1.142
362.50 1.141
362.60 1.14
362.70 1.14
362.80 1.139
362.90 1.139
363.00 1.138
363.10 1.137
363.20 1.137
363.30 1.136
363.40 1.135
363.50 1.135
363.60 1.134
363.70 1.133
363.80 1.133
363.90 1.132
364.00 1.131
364.10 1.131
364.20 1.13
364.30 1.129
364.40 1.129
364.50 1.128
364.60 1.127
364.70 1.127
364.80 1.126
364.90 1.125
365.00 1.125
365.10 1.124
365.20 1.124
365.30 1.123
365.40 1.122
365.50 1.122
365.60 1.121
365.70 1.12
365.80 1.12
365.90 1.119
366.00 1.118
366.10 1.118
366.20 1.117
366.30 1.117
366.40 1.116
366.50 1.116
366.60 1.115
366.70 1.114
366.80 1.114
366.90 1.113
367.00 1.113
367.10 1.112
367.20 1.111
367.30 1.111
367.40 1.11
367.50 1.11
367.60 1.109
367.70 1.109
367.80 1.108
367.90 1.107
368.00 1.107
368.10 1.107
368.20 1.107
368.30 1.107
368.40 1.107
368.50 1.107
368.60 1.106
368.70 1.106
368.80 1.106
368.90 1.106
369.00 1.106
369.10 1.106
369.20 1.106
369.30 1.106
369.40 1.106
369.50 1.106
369.60 1.106
369.70 1.106
369.80 1.106
369.90 1.106
370.00 1.106
370.10 1.107
370.20 1.108
370.30 1.109
370.40 1.11
370.50 1.111
370.60 1.113
370.70 1.114
370.80 1.115
370.90 1.116
371.00 1.117
371.10 1.118
371.20 1.12
371.30 1.121
371.40 1.122
371.50 1.123
371.60 1.124
371.70 1.125
371.80 1.126
371.90 1.128
372.00 1.129
372.10 1.131
372.20 1.134
372.30 1.136
372.40 1.138
372.50 1.141
372.60 1.143
372.70 1.146
372.80 1.148
372.90 1.15
373.00 1.153
373.10 1.155
373.20 1.158
373.30 1.16
373.40 1.162
373.50 1.165
373.60 1.167
373.70 1.169
373.80 1.172
373.90 1.174
374.00 1.177
374.10 1.179
374.20 1.182
374.30 1.184
374.40 1.187
374.50 1.19
374.60 1.192
374.70 1.195
374.80 1.198
374.90 1.2
375.00 1.203
375.10 1.205
375.20 1.208
375.30 1.211
375.40 1.213
375.50 1.216
375.60 1.219
375.70 1.221
375.80 1.224
375.90 1.226
376.00 1.229
376.10 1.23
376.20 1.232
376.30 1.233
376.40 1.234
376.50 1.236
376.60 1.237
376.70 1.238
376.80 1.24
376.90 1.241
377.00 1.242
377.10 1.24
377.20 1.239
377.30 1.237
377.40 1.235
377.50 1.233
377.60 1.231
377.70 1.229
377.80 1.227
377.90 1.225
378.00 1.224
378.10 1.211
378.20 1.199
378.30 1.186
378.40 1.174
378.50 1.161
378.60 1.149
378.70 1.137
378.80 1.124
378.90 1.112
379.00 1.099
379.10 1.088
379.20 1.078
379.30 1.067
379.40 1.056
379.50 1.045
379.60 1.034
379.70 1.023
379.80 1.012
379.90 1.002
380.00 0.9907
380.10 1.008
380.20 1.025
380.30 1.043
380.40 1.06
380.50 1.078
380.60 1.095
380.70 1.112
380.80 1.129
380.90 1.147
381.00 1.164
381.10 1.17
381.20 1.176
381.30 1.182
381.40 1.188
381.50 1.193
381.60 1.193
381.70 1.191
381.80 1.187
381.90 1.181
382.00 1.173
382.10 1.163
382.20 1.151
382.30 1.125
382.40 1.098
382.50 1.072
382.60 1.046
382.70 1.019
382.80 0.9931
382.90 0.9669
383.00 0.9407
383.10 0.9145
383.20 0.8884
383.30 0.862
383.40 0.8326
383.50 0.8021
383.60 0.8085
383.70 0.8392
383.80 0.869
383.90 0.8957
384.00 0.9248
384.10 0.9575
384.20 0.991
384.30 1.024
384.40 1.056
384.50 1.087
384.60 1.115
384.70 1.139
384.80 1.16
384.90 1.177
385.00 1.193
385.10 1.206
385.20 1.218
385.30 1.228
385.40 1.237
385.50 1.244
385.60 1.25
385.70 1.254
385.80 1.257
385.90 1.259
386.00 1.26
386.10 1.259
386.20 1.258
386.30 1.255
386.40 1.251
386.50 1.246
386.60 1.24
386.70 1.232
386.80 1.224
386.90 1.214
387.00 1.203
387.10 1.191
387.20 1.176
387.30 1.16
387.40 1.144
387.50 1.124
387.60 1.102
387.70 1.078
387.80 1.05
387.90 1.02
388.00 0.9869
388.10 0.949
388.20 0.9093
388.30 0.8679
388.40 0.8259
388.50 0.7864
388.60 0.7493
388.70 0.7137
388.80 0.6789
388.90 0.645
389.00 0.6764
389.10 0.7098
389.20 0.7452
389.30 0.7819
389.40 0.8212
389.50 0.863
389.60 0.905
389.70 0.9455
389.80 0.9844
389.90 1.019
390.00 1.051
390.10 1.081
390.20 1.106
390.30 1.13
390.40 1.152
390.50 1.172
390.60 1.191
390.70 1.208
390.80 1.224
390.90 1.239
391.00 1.253
391.10 1.266
391.20 1.278
391.30 1.289
391.40 1.299
391.50 1.308
391.60 1.317
391.70 1.325
391.80 1.332
391.90 1.338
392.00 1.344
392.10 1.349
392.20 1.353
392.30 1.356
392.40 1.359
392.50 1.361
392.60 1.362
392.70 1.363
392.80 1.363
392.90 1.362
393.00 1.361
393.10 1.359
393.20 1.356
393.30 1.352
393.40 1.348
393.50 1.343
393.60 1.337
393.70 1.33
393.80 1.323
393.90 1.315
394.00 1.306
394.10 1.296
394.20 1.285
394.30 1.274
394.40 1.262
394.50 1.248
394.60 1.235
394.70 1.22
394.80 1.204
394.90 1.188
395.00 1.171
395.10 1.153
395.20 1.134
395.30 1.113
395.40 1.092
395.50 1.07
395.60 1.045
395.70 1.019
395.80 0.9915
395.90 0.9621
396.00 0.9314
396.10 0.8995
396.20 0.8635
396.30 0.8254
396.40 0.7852
396.50 0.7437
396.60 0.7035
396.70 0.6648
396.80 0.6272
396.90 0.5832
397.00 0.5327
397.10 0.5792
397.20 0.6213
397.30 0.6588
397.40 0.6968
397.50 0.7363
397.60 0.7772
397.70 0.8172
397.80 0.8551
397.90 0.891
398.00 0.9227
398.10 0.9531
398.20 0.9822
398.30 1.009
398.40 1.035
398.50 1.06
398.60 1.083
398.70 1.104
398.80 1.125
398.90 1.144
399.00 1.162
399.10 1.18
399.20 1.197
399.30 1.213
399.40 1.229
399.50 1.244
399.60 1.259
399.70 1.273
399.80 1.286
399.90 1.299
400.00 1.311
400.10 1.322
400.20 1.333
400.30 1.344
400.40 1.354
400.50 1.363
400.60 1.372
400.70 1.38
400.80 1.388
400.90 1.396
401.00 1.403
401.10 1.41
401.20 1.417
401.30 1.422
401.40 1.428
401.50 1.434
401.60 1.438
401.70 1.443
401.80 1.447
401.90 1.451
402.00 1.455
402.10 1.458
402.20 1.461
402.30 1.464
402.40 1.467
402.50 1.469
402.60 1.471
402.70 1.472
402.80 1.473
402.90 1.474
403.00 1.475
403.10 1.476
403.20 1.476
403.30 1.476
403.40 1.476
403.50 1.475
403.60 1.474
403.70 1.473
403.80 1.472
403.90 1.47
404.00 1.468
404.10 1.466
404.20 1.464
404.30 1.461
404.40 1.458
404.50 1.455
404.60 1.451
404.70 1.447
404.80 1.443
404.90 1.439
405.00 1.434
405.10 1.429
405.20 1.424
405.30 1.418
405.40 1.412
405.50 1.405
405.60 1.399
405.70 1.392
405.80 1.384
405.90 1.377
406.00 1.368
406.10 1.36
406.20 1.351
406.30 1.342
406.40 1.332
406.50 1.322
406.60 1.312
406.70 1.3
406.80 1.289
406.90 1.277
407.00 1.264
407.10 1.251
407.20 1.238
407.30 1.223
407.40 1.208
407.50 1.193
407.60 1.176
407.70 1.16
407.80 1.142
407.90 1.124
408.00 1.106
408.10 1.087
408.20 1.067
408.30 1.047
408.40 1.027
408.50 1.005
408.60 0.9823
408.70 0.9591
408.80 0.9347
408.90 0.9097
409.00 0.8843
409.10 0.8578
409.20 0.8305
409.30 0.8024
409.40 0.7716
409.50 0.7394
409.60 0.706
409.70 0.6711
409.80 0.6364
409.90 0.602
410.00 0.5623
410.10 0.5199
410.20 0.4748
410.30 0.5357
410.40 0.5839
410.50 0.6195
410.60 0.6538
410.70 0.688
410.80 0.7221
410.90 0.754
411.00 0.7845
411.10 0.8136
411.20 0.8402
411.30 0.8661
411.40 0.8914
411.50 0.9156
411.60 0.9392
411.70 0.9623
411.80 0.984
411.90 1.005
412.00 1.025
412.10 1.045
412.20 1.063
412.30 1.082
412.40 1.099
412.50 1.116
412.60 1.133
412.70 1.149
412.80 1.164
412.90 1.179
413.00 1.193
413.10 1.207
413.20 1.22
413.30 1.233
413.40 1.245
413.50 1.256
413.60 1.267
413.70 1.277
413.80 1.288
413.90 1.297
414.00 1.306
414.10 1.315
414.20 1.324
414.30 1.332
414.40 1.34
414.50 1.348
414.60 1.355
414.70 1.362
414.80 1.369
414.90 1.375
415.00 1.382
415.10 1.387
415.20 1.393
415.30 1.399
415.40 1.404
415.50 1.409
415.60 1.414
415.70 1.418
415.80 1.423
415.90 1.427
416.00 1.431
416.10 1.435
416.20 1.439
416.30 1.443
416.40 1.446
416.50 1.449
416.60 1.452
416.70 1.456
416.80 1.458
416.90 1.461
417.00 1.464
417.10 1.466
417.20 1.469
417.30 1.471
417.40 1.473
417.50 1.475
417.60 1.477
417.70 1.479
417.80 1.481
417.90 1.482
418.00 1.484
418.10 1.485
418.20 1.487
418.30 1.488
418.40 1.489
418.50 1.491
418.60 1.492
418.70 1.493
418.80 1.493
418.90 1.494
419.00 1.495
419.10 1.496
419.20 1.496
419.30 1.497
419.40 1.497
419.50 1.498
419.60 1.498
419.70 1.499
419.80 1.499
419.90 1.499
420.00 1.499
420.10 1.499
420.20 1.499
420.30 1.499
420.40 1.499
420.50 1.499
420.60 1.499
420.70 1.499
420.80 1.499
420.90 1.498
421.00 1.498
421.10 1.498
421.20 1.497
421.30 1.497
421.40 1.496
421.50 1.495
421.60 1.495
421.70 1.494
421.80 1.493
421.90 1.493
422.00 1.492
422.10 1.491
422.20 1.49
422.30 1.489
422.40 1.488
422.50 1.487
422.60 1.486
422.70 1.485
422.80 1.484
422.90 1.483
423.00 1.481
423.10 1.48
423.20 1.479
423.30 1.477
423.40 1.476
423.50 1.474
423.60 1.473
423.70 1.471
423.80 1.47
423.90 1.468
424.00 1.466
424.10 1.465
424.20 1.463
424.30 1.461
424.40 1.459
424.50 1.457
424.60 1.455
424.70 1.453
424.80 1.451
424.90 1.449
425.00 1.446
425.10 1.444
425.20 1.442
425.30 1.439
425.40 1.437
425.50 1.434
425.60 1.432
425.70 1.429
425.80 1.426
425.90 1.423
426.00 1.42
426.10 1.417
426.20 1.414
426.30 1.41
426.40 1.407
426.50 1.404
426.60 1.4
426.70 1.397
426.80 1.393
426.90 1.389
427.00 1.386
427.10 1.382
427.20 1.378
427.30 1.374
427.40 1.369
427.50 1.365
427.60 1.361
427.70 1.356
427.80 1.351
427.90 1.347
428.00 1.342
428.10 1.337
428.20 1.331
428.30 1.326
428.40 1.32
428.50 1.315
428.60 1.309
428.70 1.303
428.80 1.297
428.90 1.29
429.00 1.284
429.10 1.277
429.20 1.27
429.30 1.263
429.40 1.255
429.50 1.248
429.60 1.24
429.70 1.232
429.80 1.223
429.90 1.215
430.00 1.206
430.10 1.197
430.20 1.187
430.30 1.178
430.40 1.168
430.50 1.157
430.60 1.147
430.70 1.136
430.80 1.125
430.90 1.113
431.00 1.101
431.10 1.089
431.20 1.077
431.30 1.064
431.40 1.05
431.50 1.037
431.60 1.023
431.70 1.008
431.80 0.993
431.90 0.9771
432.00 0.9606
432.10 0.9436
432.20 0.9254
432.30 0.9063
432.40 0.8864
432.50 0.8646
432.60 0.842
432.70 0.8185
432.80 0.7944
432.90 0.7706
433.00 0.7471
433.10 0.7251
433.20 0.703
433.30 0.6809
433.40 0.6567
433.50 0.6312
433.60 0.6042
433.70 0.5751
433.80 0.5434
433.90 0.5092
434.00 0.4312
434.10 0.4323
434.20 0.5122
434.30 0.5455
434.40 0.5763
434.50 0.6049
434.60 0.6313
434.70 0.6562
434.80 0.6797
434.90 0.7011
435.00 0.7225
435.10 0.744
435.20 0.7667
435.30 0.7897
435.40 0.8129
435.50 0.8354
435.60 0.8569
435.70 0.8776
435.80 0.8963
435.90 0.9142
436.00 0.9313
436.10 0.9471
436.20 0.9623
436.30 0.977
436.40 0.9908
436.50 1.004
436.60 1.017
436.70 1.029
436.80 1.041
436.90 1.053
437.00 1.064
437.10 1.075
437.20 1.085
437.30 1.095
437.40 1.105
437.50 1.114
437.60 1.123
437.70 1.132
437.80 1.141
437.90 1.149
438.00 1.157
438.10 1.165
438.20 1.172
438.30 1.179
438.40 1.186
438.50 1.192
438.60 1.199
438.70 1.205
438.80 1.211
438.90 1.216
439.00 1.222
439.10 1.227
439.20 1.232
439.30 1.237
439.40 1.241
439.50 1.246
439.60 1.25
439.70 1.254
439.80 1.258
439.90 1.262
440.00 1.266
440.10 1.269
440.20 1.273
440.30 1.276
440.40 1.279
440.50 1.282
440.60 1.285
440.70 1.288
440.80 1.291
440.90 1.293
441.00 1.296
441.10 1.298
441.20 1.3
441.30 1.303
441.40 1.305
441.50 1.307
441.60 1.309
441.70 1.311
441.80 1.313
441.90 1.314
442.00 1.316
442.10 1.317
442.20 1.319
442.30 1.32
442.40 1.322
442.50 1.323
442.60 1.324
442.70 1.326
442.80 1.327
442.90 1.328
443.00 1.329
443.10 1.33
443.20 1.331
443.30 1.332
443.40 1.333
443.50 1.333
443.60 1.334
443.70 1.335
443.80 1.336
443.90 1.336
444.00 1.337
444.10 1.338
444.20 1.338
444.30 1.339
444.40 1.339
444.50 1.339
444.60 1.34
444.70 1.34
444.80 1.341
444.90 1.341
445.00 1.341
445.10 1.342
445.20 1.342
445.30 1.342
445.40 1.342
445.50 1.342
445.60 1.343
445.70 1.343
445.80 1.343
445.90 1.343
446.00 1.343
446.10 1.343
446.20 1.343
446.30 1.343
446.40 1.343
446.50 1.343
446.60 1.343
446.70 1.343
446.80 1.343
446.90 1.343
447.00 1.342
447.10 1.342
447.20 1.342
447.30 1.342
447.40 1.342
447.50 1.342
447.60 1.341
447.70 1.341
447.80 1.341
447.90 1.341
448.00 1.34
448.10 1.34
448.20 1.34
448.30 1.34
448.40 1.339
448.50 1.339
448.60 1.339
448.70 1.338
448.80 1.338
448.90 1.338
449.00 1.337
449.10 1.337
449.20 1.337
449.30 1.336
449.40 1.336
449.50 1.336
449.60 1.335
449.70 1.335
449.80 1.334
449.90 1.334
450.00 1.333
450.10 1.333
450.20 1.332
450.30 1.332
450.40 1.332
450.50 1.331
450.60 1.331
450.70 1.33
450.80 1.33
450.90 1.329
451.00 1.329
451.10 1.328
451.20 1.328
451.30 1.327
451.40 1.326
451.50 1.326
451.60 1.325
451.70 1.325
451.80 1.324
451.90 1.324
452.00 1.323
452.10 1.323
452.20 1.322
452.30 1.321
452.40 1.321
452.50 1.32
452.60 1.32
452.70 1.319
452.80 1.318
452.90 1.318
