# Version 2.1 - nm, norm@500 to 1, cut digits, bergeron_50000_65.dat_50000
# Wavelength(nm)  Flambda(ergs/cm^s/s/nm)
300.00 6.169
300.10 6.162
300.20 6.154
300.30 6.147
300.40 6.14
300.50 6.132
300.60 6.125
300.70 6.118
300.80 6.11
300.90 6.103
301.00 6.095
301.10 6.088
301.20 6.081
301.30 6.074
301.40 6.066
301.50 6.059
301.60 6.052
301.70 6.044
301.80 6.037
301.90 6.03
302.00 6.023
302.10 6.016
302.20 6.008
302.30 6.001
302.40 5.994
302.50 5.987
302.60 5.98
302.70 5.973
302.80 5.965
302.90 5.958
303.00 5.951
303.10 5.944
303.20 5.937
303.30 5.93
303.40 5.923
303.50 5.916
303.60 5.909
303.70 5.902
303.80 5.895
303.90 5.888
304.00 5.881
304.10 5.874
304.20 5.867
304.30 5.86
304.40 5.853
304.50 5.846
304.60 5.839
304.70 5.832
304.80 5.825
304.90 5.818
305.00 5.811
305.10 5.804
305.20 5.798
305.30 5.791
305.40 5.784
305.50 5.777
305.60 5.77
305.70 5.763
305.80 5.756
305.90 5.75
306.00 5.743
306.10 5.736
306.20 5.729
306.30 5.722
306.40 5.716
306.50 5.709
306.60 5.702
306.70 5.696
306.80 5.689
306.90 5.682
307.00 5.675
307.10 5.669
307.20 5.662
307.30 5.655
307.40 5.649
307.50 5.642
307.60 5.635
307.70 5.629
307.80 5.622
307.90 5.616
308.00 5.609
308.10 5.602
308.20 5.596
308.30 5.589
308.40 5.583
308.50 5.576
308.60 5.57
308.70 5.563
308.80 5.556
308.90 5.55
309.00 5.543
309.10 5.537
309.20 5.53
309.30 5.524
309.40 5.518
309.50 5.511
309.60 5.505
309.70 5.498
309.80 5.492
309.90 5.485
310.00 5.479
310.10 5.473
310.20 5.466
310.30 5.46
310.40 5.453
310.50 5.447
310.60 5.441
310.70 5.434
310.80 5.428
310.90 5.422
311.00 5.415
311.10 5.409
311.20 5.403
311.30 5.396
311.40 5.39
311.50 5.384
311.60 5.378
311.70 5.371
311.80 5.365
311.90 5.359
312.00 5.353
312.10 5.346
312.20 5.34
312.30 5.334
312.40 5.328
312.50 5.322
312.60 5.316
312.70 5.309
312.80 5.303
312.90 5.297
313.00 5.291
313.10 5.285
313.20 5.279
313.30 5.273
313.40 5.266
313.50 5.26
313.60 5.254
313.70 5.248
313.80 5.242
313.90 5.236
314.00 5.23
314.10 5.224
314.20 5.218
314.30 5.212
314.40 5.206
314.50 5.2
314.60 5.194
314.70 5.188
314.80 5.182
314.90 5.176
315.00 5.17
315.10 5.164
315.20 5.158
315.30 5.152
315.40 5.146
315.50 5.14
315.60 5.135
315.70 5.129
315.80 5.123
315.90 5.117
316.00 5.111
316.10 5.105
316.20 5.099
316.30 5.093
316.40 5.088
316.50 5.082
316.60 5.076
316.70 5.07
316.80 5.064
316.90 5.058
317.00 5.053
317.10 5.047
317.20 5.041
317.30 5.035
317.40 5.03
317.50 5.024
317.60 5.018
317.70 5.012
317.80 5.007
317.90 5.001
318.00 4.995
318.10 4.99
318.20 4.984
318.30 4.978
318.40 4.972
318.50 4.967
318.60 4.961
318.70 4.955
318.80 4.95
318.90 4.944
319.00 4.939
319.10 4.933
319.20 4.927
319.30 4.922
319.40 4.916
319.50 4.911
319.60 4.905
319.70 4.899
319.80 4.894
319.90 4.888
320.00 4.883
320.10 4.877
320.20 4.872
320.30 4.866
320.40 4.861
320.50 4.855
320.60 4.85
320.70 4.844
320.80 4.839
320.90 4.833
321.00 4.828
321.10 4.822
321.20 4.817
321.30 4.811
321.40 4.806
321.50 4.8
321.60 4.795
321.70 4.79
321.80 4.784
321.90 4.779
322.00 4.773
322.10 4.768
322.20 4.763
322.30 4.757
322.40 4.752
322.50 4.747
322.60 4.741
322.70 4.736
322.80 4.731
322.90 4.725
323.00 4.72
323.10 4.715
323.20 4.709
323.30 4.704
323.40 4.699
323.50 4.693
323.60 4.688
323.70 4.683
323.80 4.678
323.90 4.672
324.00 4.667
324.10 4.662
324.20 4.657
324.30 4.651
324.40 4.646
324.50 4.641
324.60 4.636
324.70 4.631
324.80 4.625
324.90 4.62
325.00 4.615
325.10 4.61
325.20 4.605
325.30 4.6
325.40 4.595
325.50 4.589
325.60 4.584
325.70 4.579
325.80 4.574
325.90 4.569
326.00 4.564
326.10 4.559
326.20 4.554
326.30 4.549
326.40 4.544
326.50 4.538
326.60 4.533
326.70 4.528
326.80 4.523
326.90 4.518
327.00 4.513
327.10 4.508
327.20 4.503
327.30 4.498
327.40 4.493
327.50 4.488
327.60 4.483
327.70 4.478
327.80 4.473
327.90 4.468
328.00 4.463
328.10 4.458
328.20 4.454
328.30 4.449
328.40 4.444
328.50 4.439
328.60 4.434
328.70 4.429
328.80 4.424
328.90 4.419
329.00 4.414
329.10 4.409
329.20 4.404
329.30 4.4
329.40 4.395
329.50 4.39
329.60 4.385
329.70 4.38
329.80 4.375
329.90 4.371
330.00 4.366
330.10 4.361
330.20 4.356
330.30 4.351
330.40 4.347
330.50 4.342
330.60 4.337
330.70 4.332
330.80 4.327
330.90 4.323
331.00 4.318
331.10 4.313
331.20 4.308
331.30 4.304
331.40 4.299
331.50 4.294
331.60 4.29
331.70 4.285
331.80 4.28
331.90 4.275
332.00 4.271
332.10 4.266
332.20 4.261
332.30 4.257
332.40 4.252
332.50 4.247
332.60 4.243
332.70 4.238
332.80 4.233
332.90 4.229
333.00 4.224
333.10 4.22
333.20 4.215
333.30 4.21
333.40 4.206
333.50 4.201
333.60 4.197
333.70 4.192
333.80 4.187
333.90 4.183
334.00 4.178
334.10 4.174
334.20 4.169
334.30 4.165
334.40 4.16
334.50 4.156
334.60 4.151
334.70 4.146
334.80 4.142
334.90 4.137
335.00 4.133
335.10 4.128
335.20 4.124
335.30 4.119
335.40 4.115
335.50 4.111
335.60 4.106
335.70 4.102
335.80 4.097
335.90 4.093
336.00 4.088
336.10 4.084
336.20 4.079
336.30 4.075
336.40 4.071
336.50 4.066
336.60 4.062
336.70 4.057
336.80 4.053
336.90 4.049
337.00 4.044
337.10 4.04
337.20 4.035
337.30 4.031
337.40 4.027
337.50 4.022
337.60 4.018
337.70 4.014
337.80 4.009
337.90 4.005
338.00 4.001
338.10 3.996
338.20 3.992
338.30 3.988
338.40 3.983
338.50 3.979
338.60 3.975
338.70 3.971
338.80 3.966
338.90 3.962
339.00 3.958
339.10 3.954
339.20 3.949
339.30 3.945
339.40 3.941
339.50 3.937
339.60 3.932
339.70 3.928
339.80 3.924
339.90 3.92
340.00 3.915
340.10 3.911
340.20 3.907
340.30 3.903
340.40 3.899
340.50 3.895
340.60 3.89
340.70 3.886
340.80 3.882
340.90 3.878
341.00 3.874
341.10 3.87
341.20 3.865
341.30 3.861
341.40 3.857
341.50 3.853
341.60 3.849
341.70 3.845
341.80 3.841
341.90 3.837
342.00 3.833
342.10 3.828
342.20 3.824
342.30 3.82
342.40 3.816
342.50 3.812
342.60 3.808
342.70 3.804
342.80 3.8
342.90 3.796
343.00 3.792
343.10 3.788
343.20 3.784
343.30 3.78
343.40 3.776
343.50 3.772
343.60 3.768
343.70 3.764
343.80 3.76
343.90 3.756
344.00 3.752
344.10 3.748
344.20 3.744
344.30 3.74
344.40 3.736
344.50 3.732
344.60 3.728
344.70 3.724
344.80 3.72
344.90 3.716
345.00 3.712
345.10 3.708
345.20 3.704
345.30 3.7
345.40 3.697
345.50 3.693
345.60 3.689
345.70 3.685
345.80 3.681
345.90 3.677
346.00 3.673
346.10 3.669
346.20 3.665
346.30 3.662
346.40 3.658
346.50 3.654
346.60 3.65
346.70 3.646
346.80 3.642
346.90 3.638
347.00 3.635
347.10 3.631
347.20 3.627
347.30 3.623
347.40 3.619
347.50 3.616
347.60 3.612
347.70 3.608
347.80 3.604
347.90 3.6
348.00 3.597
348.10 3.593
348.20 3.589
348.30 3.585
348.40 3.581
348.50 3.578
348.60 3.574
348.70 3.57
348.80 3.567
348.90 3.563
349.00 3.559
349.10 3.555
349.20 3.552
349.30 3.548
349.40 3.544
349.50 3.54
349.60 3.537
349.70 3.533
349.80 3.529
349.90 3.526
350.00 3.522
350.10 3.518
350.20 3.515
350.30 3.511
350.40 3.507
350.50 3.504
350.60 3.5
350.70 3.496
350.80 3.493
350.90 3.489
351.00 3.485
351.10 3.482
351.20 3.478
351.30 3.475
351.40 3.471
351.50 3.467
351.60 3.464
351.70 3.46
351.80 3.456
351.90 3.453
352.00 3.449
352.10 3.446
352.20 3.442
352.30 3.439
352.40 3.435
352.50 3.431
352.60 3.428
352.70 3.424
352.80 3.421
352.90 3.417
353.00 3.414
353.10 3.41
353.20 3.407
353.30 3.403
353.40 3.4
353.50 3.396
353.60 3.393
353.70 3.389
353.80 3.386
353.90 3.382
354.00 3.378
354.10 3.375
354.20 3.372
354.30 3.368
354.40 3.365
354.50 3.361
354.60 3.358
354.70 3.354
354.80 3.351
354.90 3.347
355.00 3.344
355.10 3.34
355.20 3.337
355.30 3.333
355.40 3.33
355.50 3.327
355.60 3.323
355.70 3.32
355.80 3.316
355.90 3.313
356.00 3.31
356.10 3.306
356.20 3.303
356.30 3.299
356.40 3.296
356.50 3.293
356.60 3.289
356.70 3.286
356.80 3.282
356.90 3.279
357.00 3.276
357.10 3.272
357.20 3.269
357.30 3.266
357.40 3.262
357.50 3.259
357.60 3.256
357.70 3.252
357.80 3.249
357.90 3.246
358.00 3.242
358.10 3.239
358.20 3.236
358.30 3.232
358.40 3.229
358.50 3.226
358.60 3.222
358.70 3.219
358.80 3.216
358.90 3.213
359.00 3.209
359.10 3.206
359.20 3.203
359.30 3.2
359.40 3.196
359.50 3.193
359.60 3.19
359.70 3.186
359.80 3.183
359.90 3.18
360.00 3.177
360.10 3.174
360.20 3.17
360.30 3.167
360.40 3.164
360.50 3.161
360.60 3.157
360.70 3.154
360.80 3.151
360.90 3.148
361.00 3.145
361.10 3.141
361.20 3.138
361.30 3.135
361.40 3.132
361.50 3.129
361.60 3.126
361.70 3.122
361.80 3.119
361.90 3.116
362.00 3.113
362.10 3.11
362.20 3.107
362.30 3.103
362.40 3.1
362.50 3.097
362.60 3.094
362.70 3.091
362.80 3.088
362.90 3.085
363.00 3.082
363.10 3.078
363.20 3.075
363.30 3.072
363.40 3.069
363.50 3.066
363.60 3.063
363.70 3.06
363.80 3.057
363.90 3.054
364.00 3.051
364.10 3.048
364.20 3.044
364.30 3.041
364.40 3.038
364.50 3.035
364.60 3.032
364.70 3.029
364.80 3.026
364.90 3.023
365.00 3.02
365.10 3.017
365.20 3.014
365.30 3.011
365.40 3.008
365.50 3.005
365.60 3.002
365.70 2.999
365.80 2.996
365.90 2.993
366.00 2.99
366.10 2.987
366.20 2.984
366.30 2.98
366.40 2.977
366.50 2.974
366.60 2.971
366.70 2.968
366.80 2.965
366.90 2.962
367.00 2.959
367.10 2.955
367.20 2.952
367.30 2.949
367.40 2.946
367.50 2.943
367.60 2.94
367.70 2.937
367.80 2.934
367.90 2.931
368.00 2.928
368.10 2.925
368.20 2.921
368.30 2.918
368.40 2.915
368.50 2.912
368.60 2.909
368.70 2.906
368.80 2.903
368.90 2.9
369.00 2.897
369.10 2.894
369.20 2.891
369.30 2.888
369.40 2.885
369.50 2.882
369.60 2.879
369.70 2.876
369.80 2.873
369.90 2.87
370.00 2.867
370.10 2.864
370.20 2.861
370.30 2.859
370.40 2.856
370.50 2.853
370.60 2.85
370.70 2.847
370.80 2.844
370.90 2.841
371.00 2.838
371.10 2.835
371.20 2.832
371.30 2.83
371.40 2.827
371.50 2.824
371.60 2.821
371.70 2.818
371.80 2.815
371.90 2.812
372.00 2.81
372.10 2.807
372.20 2.804
372.30 2.802
372.40 2.799
372.50 2.797
372.60 2.794
372.70 2.791
372.80 2.789
372.90 2.786
373.00 2.784
373.10 2.781
373.20 2.778
373.30 2.776
373.40 2.773
373.50 2.771
373.60 2.768
373.70 2.766
373.80 2.763
373.90 2.76
374.00 2.758
374.10 2.756
374.20 2.753
374.30 2.751
374.40 2.748
374.50 2.746
374.60 2.744
374.70 2.741
374.80 2.739
374.90 2.737
375.00 2.734
375.10 2.732
375.20 2.73
375.30 2.727
375.40 2.725
375.50 2.723
375.60 2.72
375.70 2.718
375.80 2.716
375.90 2.713
376.00 2.711
376.10 2.708
376.20 2.704
376.30 2.701
376.40 2.698
376.50 2.694
376.60 2.691
376.70 2.687
376.80 2.684
376.90 2.681
377.00 2.677
377.10 2.677
377.20 2.676
377.30 2.675
377.40 2.674
377.50 2.673
377.60 2.672
377.70 2.671
377.80 2.67
377.90 2.67
378.00 2.669
378.10 2.665
378.20 2.662
378.30 2.658
378.40 2.655
378.50 2.652
378.60 2.648
378.70 2.645
378.80 2.641
378.90 2.638
379.00 2.635
379.10 2.63
379.20 2.626
379.30 2.622
379.40 2.618
379.50 2.614
379.60 2.61
379.70 2.606
379.80 2.602
379.90 2.597
380.00 2.593
380.10 2.595
380.20 2.597
380.30 2.598
380.40 2.6
380.50 2.602
380.60 2.603
380.70 2.605
380.80 2.607
380.90 2.608
381.00 2.61
381.10 2.608
381.20 2.607
381.30 2.606
381.40 2.604
381.50 2.603
381.60 2.6
381.70 2.597
381.80 2.593
381.90 2.588
382.00 2.583
382.10 2.577
382.20 2.571
382.30 2.562
382.40 2.552
382.50 2.543
382.60 2.533
382.70 2.524
382.80 2.514
382.90 2.505
383.00 2.495
383.10 2.486
383.20 2.476
383.30 2.464
383.40 2.453
383.50 2.443
383.60 2.443
383.70 2.45
383.80 2.458
383.90 2.466
384.00 2.474
384.10 2.482
384.20 2.49
384.30 2.497
384.40 2.503
384.50 2.509
384.60 2.514
384.70 2.519
384.80 2.524
384.90 2.527
385.00 2.53
385.10 2.533
385.20 2.535
385.30 2.537
385.40 2.538
385.50 2.539
385.60 2.539
385.70 2.539
385.80 2.538
385.90 2.537
386.00 2.535
386.10 2.533
386.20 2.53
386.30 2.527
386.40 2.524
386.50 2.52
386.60 2.515
386.70 2.51
386.80 2.504
386.90 2.498
387.00 2.491
387.10 2.483
387.20 2.475
387.30 2.466
387.40 2.457
387.50 2.446
387.60 2.434
387.70 2.423
387.80 2.409
387.90 2.395
388.00 2.381
388.10 2.364
388.20 2.348
388.30 2.33
388.40 2.311
388.50 2.292
388.60 2.272
388.70 2.253
388.80 2.238
388.90 2.227
389.00 2.233
389.10 2.244
389.20 2.259
389.30 2.275
389.40 2.291
389.50 2.305
389.60 2.319
389.70 2.332
389.80 2.344
389.90 2.355
390.00 2.365
390.10 2.375
390.20 2.383
390.30 2.391
390.40 2.398
390.50 2.404
390.60 2.41
390.70 2.415
390.80 2.419
390.90 2.423
391.00 2.427
391.10 2.429
391.20 2.432
391.30 2.434
391.40 2.435
391.50 2.437
391.60 2.438
391.70 2.438
391.80 2.439
391.90 2.439
392.00 2.438
392.10 2.438
392.20 2.437
392.30 2.436
392.40 2.435
392.50 2.434
392.60 2.432
392.70 2.431
392.80 2.429
392.90 2.426
393.00 2.424
393.10 2.422
393.20 2.419
393.30 2.416
393.40 2.413
393.50 2.41
393.60 2.406
393.70 2.402
393.80 2.398
393.90 2.394
394.00 2.389
394.10 2.384
394.20 2.379
394.30 2.374
394.40 2.368
394.50 2.362
394.60 2.355
394.70 2.348
394.80 2.34
394.90 2.332
395.00 2.323
395.10 2.313
395.20 2.303
395.30 2.292
395.40 2.281
395.50 2.268
395.60 2.254
395.70 2.24
395.80 2.225
395.90 2.208
396.00 2.19
396.10 2.171
396.20 2.15
396.30 2.128
396.40 2.105
396.50 2.08
396.60 2.055
396.70 2.028
396.80 1.999
396.90 1.97
397.00 1.942
397.10 1.964
397.20 1.988
397.30 2.014
397.40 2.037
397.50 2.059
397.60 2.08
397.70 2.099
397.80 2.118
397.90 2.135
398.00 2.15
398.10 2.164
398.20 2.177
398.30 2.188
398.40 2.199
398.50 2.208
398.60 2.217
398.70 2.224
398.80 2.232
398.90 2.237
399.00 2.243
399.10 2.248
399.20 2.252
399.30 2.256
399.40 2.259
399.50 2.261
399.60 2.264
399.70 2.266
399.80 2.267
399.90 2.269
400.00 2.27
400.10 2.271
400.20 2.271
400.30 2.272
400.40 2.272
400.50 2.272
400.60 2.271
400.70 2.271
400.80 2.271
400.90 2.27
401.00 2.269
401.10 2.268
401.20 2.267
401.30 2.266
401.40 2.265
401.50 2.264
401.60 2.263
401.70 2.262
401.80 2.26
401.90 2.259
402.00 2.257
402.10 2.256
402.20 2.254
402.30 2.252
402.40 2.251
402.50 2.249
402.60 2.247
402.70 2.246
402.80 2.244
402.90 2.242
403.00 2.24
403.10 2.238
403.20 2.236
403.30 2.234
403.40 2.232
403.50 2.23
403.60 2.228
403.70 2.226
403.80 2.224
403.90 2.222
404.00 2.22
404.10 2.217
404.20 2.215
404.30 2.213
404.40 2.211
404.50 2.208
404.60 2.206
404.70 2.204
404.80 2.201
404.90 2.199
405.00 2.196
405.10 2.194
405.20 2.191
405.30 2.188
405.40 2.186
405.50 2.183
405.60 2.18
405.70 2.177
405.80 2.174
405.90 2.171
406.00 2.168
406.10 2.165
406.20 2.162
406.30 2.159
406.40 2.155
406.50 2.151
406.60 2.148
406.70 2.144
406.80 2.14
406.90 2.135
407.00 2.131
407.10 2.126
407.20 2.121
407.30 2.116
407.40 2.111
407.50 2.105
407.60 2.099
407.70 2.092
407.80 2.086
407.90 2.078
408.00 2.07
408.10 2.062
408.20 2.053
408.30 2.043
408.40 2.033
408.50 2.021
408.60 2.009
408.70 1.996
408.80 1.982
408.90 1.967
409.00 1.951
409.10 1.933
409.20 1.914
409.30 1.894
409.40 1.871
409.50 1.848
409.60 1.823
409.70 1.796
409.80 1.767
409.90 1.736
410.00 1.7
410.10 1.672
410.20 1.654
410.30 1.683
410.40 1.713
410.50 1.743
410.60 1.77
410.70 1.794
410.80 1.817
410.90 1.838
411.00 1.857
411.10 1.875
411.20 1.891
411.30 1.905
411.40 1.919
411.50 1.931
411.60 1.941
411.70 1.951
411.80 1.96
411.90 1.968
412.00 1.975
412.10 1.981
412.20 1.986
412.30 1.991
412.40 1.995
412.50 1.999
412.60 2.002
412.70 2.005
412.80 2.007
412.90 2.009
413.00 2.011
413.10 2.012
413.20 2.013
413.30 2.014
413.40 2.015
413.50 2.015
413.60 2.015
413.70 2.016
413.80 2.016
413.90 2.015
414.00 2.015
414.10 2.015
414.20 2.014
414.30 2.013
414.40 2.013
414.50 2.012
414.60 2.011
414.70 2.01
414.80 2.009
414.90 2.008
415.00 2.007
415.10 2.006
415.20 2.005
415.30 2.004
415.40 2.002
415.50 2.001
415.60 2
415.70 1.998
415.80 1.997
415.90 1.996
416.00 1.994
416.10 1.993
416.20 1.991
416.30 1.99
416.40 1.988
416.50 1.987
416.60 1.985
416.70 1.984
416.80 1.982
416.90 1.981
417.00 1.979
417.10 1.978
417.20 1.976
417.30 1.974
417.40 1.973
417.50 1.971
417.60 1.97
417.70 1.968
417.80 1.966
417.90 1.965
418.00 1.963
418.10 1.962
418.20 1.96
418.30 1.958
418.40 1.957
418.50 1.955
418.60 1.953
418.70 1.952
418.80 1.95
418.90 1.948
419.00 1.947
419.10 1.945
419.20 1.943
419.30 1.942
419.40 1.94
419.50 1.938
419.60 1.937
419.70 1.935
419.80 1.933
419.90 1.932
420.00 1.93
420.10 1.928
420.20 1.926
420.30 1.925
420.40 1.923
420.50 1.921
420.60 1.92
420.70 1.918
420.80 1.916
420.90 1.915
421.00 1.913
421.10 1.911
421.20 1.91
421.30 1.908
421.40 1.906
421.50 1.905
421.60 1.903
421.70 1.901
421.80 1.899
421.90 1.898
422.00 1.896
422.10 1.894
422.20 1.893
422.30 1.891
422.40 1.889
422.50 1.888
422.60 1.886
422.70 1.884
422.80 1.883
422.90 1.881
423.00 1.879
423.10 1.878
423.20 1.876
423.30 1.874
423.40 1.872
423.50 1.871
423.60 1.869
423.70 1.867
423.80 1.866
423.90 1.864
424.00 1.862
424.10 1.861
424.20 1.859
424.30 1.857
424.40 1.856
424.50 1.854
424.60 1.852
424.70 1.85
424.80 1.849
424.90 1.847
425.00 1.845
425.10 1.844
425.20 1.842
425.30 1.84
425.40 1.839
425.50 1.837
425.60 1.835
425.70 1.833
425.80 1.832
425.90 1.83
426.00 1.828
426.10 1.826
426.20 1.825
426.30 1.823
426.40 1.821
426.50 1.82
426.60 1.818
426.70 1.816
426.80 1.814
426.90 1.813
427.00 1.811
427.10 1.809
427.20 1.807
427.30 1.805
427.40 1.804
427.50 1.802
427.60 1.8
427.70 1.798
427.80 1.796
427.90 1.794
428.00 1.792
428.10 1.791
428.20 1.789
428.30 1.787
428.40 1.785
428.50 1.783
428.60 1.781
428.70 1.779
428.80 1.777
428.90 1.775
429.00 1.773
429.10 1.771
429.20 1.768
429.30 1.766
429.40 1.764
429.50 1.762
429.60 1.759
429.70 1.757
429.80 1.755
429.90 1.752
430.00 1.75
430.10 1.747
430.20 1.744
430.30 1.742
430.40 1.739
430.50 1.736
430.60 1.733
430.70 1.729
430.80 1.726
430.90 1.722
431.00 1.719
431.10 1.715
431.20 1.711
431.30 1.706
431.40 1.702
431.50 1.697
431.60 1.692
431.70 1.686
431.80 1.681
431.90 1.674
432.00 1.667
432.10 1.66
432.20 1.652
432.30 1.644
432.40 1.635
432.50 1.625
432.60 1.614
432.70 1.602
432.80 1.589
432.90 1.576
433.00 1.561
433.10 1.544
433.20 1.527
433.30 1.508
433.40 1.487
433.50 1.465
433.60 1.441
433.70 1.415
433.80 1.384
433.90 1.35
434.00 1.309
434.10 1.309
434.20 1.35
434.30 1.381
434.40 1.409
434.50 1.433
434.60 1.454
434.70 1.473
434.80 1.491
434.90 1.507
435.00 1.522
435.10 1.536
435.20 1.547
435.30 1.558
435.40 1.568
435.50 1.577
435.60 1.584
435.70 1.591
435.80 1.597
435.90 1.603
436.00 1.608
436.10 1.612
436.20 1.615
436.30 1.619
436.40 1.622
436.50 1.624
436.60 1.626
436.70 1.628
436.80 1.629
436.90 1.631
437.00 1.632
437.10 1.632
437.20 1.633
437.30 1.633
437.40 1.634
437.50 1.634
437.60 1.634
437.70 1.634
437.80 1.634
437.90 1.633
438.00 1.633
438.10 1.633
438.20 1.632
438.30 1.632
438.40 1.631
438.50 1.63
438.60 1.63
438.70 1.629
438.80 1.628
438.90 1.627
439.00 1.626
439.10 1.625
439.20 1.625
439.30 1.624
439.40 1.623
439.50 1.622
439.60 1.621
439.70 1.62
439.80 1.618
439.90 1.617
440.00 1.616
440.10 1.615
440.20 1.614
440.30 1.613
440.40 1.612
440.50 1.611
440.60 1.609
440.70 1.608
440.80 1.607
440.90 1.606
441.00 1.605
441.10 1.603
441.20 1.602
441.30 1.601
441.40 1.6
441.50 1.599
441.60 1.597
441.70 1.596
441.80 1.595
441.90 1.594
442.00 1.592
442.10 1.591
442.20 1.59
442.30 1.589
442.40 1.587
442.50 1.586
442.60 1.585
442.70 1.583
442.80 1.582
442.90 1.581
443.00 1.58
443.10 1.578
443.20 1.577
443.30 1.576
443.40 1.574
443.50 1.573
443.60 1.572
443.70 1.571
443.80 1.569
443.90 1.568
444.00 1.567
444.10 1.565
444.20 1.564
444.30 1.563
444.40 1.562
444.50 1.56
444.60 1.559
444.70 1.558
444.80 1.556
444.90 1.555
445.00 1.554
445.10 1.553
445.20 1.551
445.30 1.55
445.40 1.549
445.50 1.547
445.60 1.546
445.70 1.545
445.80 1.544
445.90 1.542
446.00 1.541
446.10 1.54
446.20 1.539
446.30 1.537
446.40 1.536
446.50 1.535
446.60 1.533
446.70 1.532
446.80 1.531
446.90 1.53
447.00 1.528
447.10 1.527
447.20 1.526
447.30 1.524
447.40 1.523
447.50 1.522
447.60 1.521
447.70 1.519
447.80 1.518
447.90 1.517
448.00 1.516
448.10 1.514
448.20 1.513
448.30 1.512
448.40 1.511
448.50 1.509
448.60 1.508
448.70 1.507
448.80 1.505
448.90 1.504
449.00 1.503
449.10 1.502
449.20 1.5
449.30 1.499
449.40 1.498
449.50 1.497
449.60 1.495
449.70 1.494
449.80 1.493
449.90 1.492
450.00 1.49
450.10 1.489
450.20 1.488
450.30 1.487
450.40 1.486
450.50 1.484
450.60 1.483
450.70 1.482
450.80 1.481
450.90 1.479
451.00 1.478
451.10 1.477
451.20 1.476
451.30 1.474
451.40 1.473
451.50 1.472
451.60 1.471
451.70 1.47
451.80 1.468
451.90 1.467
452.00 1.466
452.10 1.465
452.20 1.463
452.30 1.462
452.40 1.461
452.50 1.46
452.60 1.459
452.70 1.457
452.80 1.456
452.90 1.455
453.00 1.454
453.10 1.452
453.20 1.451
453.30 1.45
453.40 1.449
453.50 1.448
453.60 1.446
453.70 1.445
453.80 1.444
453.90 1.443
454.00 1.442
454.10 1.44
