# Version 2.1 - nm, norm@500 to 1, cut digits, bergeron_12500_80.dat_12500
# Wavelength(nm)  Flambda(ergs/cm^s/s/nm)
300.00 1.904
300.10 1.902
300.20 1.901
300.30 1.9
300.40 1.899
300.50 1.897
300.60 1.896
300.70 1.895
300.80 1.894
300.90 1.892
301.00 1.891
301.10 1.89
301.20 1.889
301.30 1.888
301.40 1.886
301.50 1.885
301.60 1.884
301.70 1.883
301.80 1.881
301.90 1.88
302.00 1.879
302.10 1.878
302.20 1.877
302.30 1.875
302.40 1.874
302.50 1.873
302.60 1.872
302.70 1.87
302.80 1.869
302.90 1.868
303.00 1.867
303.10 1.866
303.20 1.864
303.30 1.863
303.40 1.862
303.50 1.861
303.60 1.86
303.70 1.858
303.80 1.857
303.90 1.856
304.00 1.855
304.10 1.853
304.20 1.852
304.30 1.851
304.40 1.85
304.50 1.849
304.60 1.847
304.70 1.846
304.80 1.845
304.90 1.844
305.00 1.843
305.10 1.842
305.20 1.84
305.30 1.839
305.40 1.838
305.50 1.837
305.60 1.836
305.70 1.834
305.80 1.833
305.90 1.832
306.00 1.831
306.10 1.83
306.20 1.828
306.30 1.827
306.40 1.826
306.50 1.825
306.60 1.824
306.70 1.823
306.80 1.821
306.90 1.82
307.00 1.819
307.10 1.818
307.20 1.817
307.30 1.815
307.40 1.814
307.50 1.813
307.60 1.812
307.70 1.811
307.80 1.81
307.90 1.808
308.00 1.807
308.10 1.806
308.20 1.805
308.30 1.804
308.40 1.803
308.50 1.801
308.60 1.8
308.70 1.799
308.80 1.798
308.90 1.797
309.00 1.796
309.10 1.795
309.20 1.793
309.30 1.792
309.40 1.791
309.50 1.79
309.60 1.789
309.70 1.788
309.80 1.786
309.90 1.785
310.00 1.784
310.10 1.783
310.20 1.782
310.30 1.781
310.40 1.78
310.50 1.778
310.60 1.777
310.70 1.776
310.80 1.775
310.90 1.774
311.00 1.773
311.10 1.772
311.20 1.77
311.30 1.769
311.40 1.768
311.50 1.767
311.60 1.766
311.70 1.765
311.80 1.764
311.90 1.763
312.00 1.761
312.10 1.76
312.20 1.759
312.30 1.758
312.40 1.757
312.50 1.756
312.60 1.755
312.70 1.753
312.80 1.752
312.90 1.751
313.00 1.75
313.10 1.749
313.20 1.748
313.30 1.747
313.40 1.746
313.50 1.745
313.60 1.743
313.70 1.742
313.80 1.741
313.90 1.74
314.00 1.739
314.10 1.738
314.20 1.737
314.30 1.736
314.40 1.735
314.50 1.733
314.60 1.732
314.70 1.731
314.80 1.73
314.90 1.729
315.00 1.728
315.10 1.727
315.20 1.726
315.30 1.725
315.40 1.723
315.50 1.722
315.60 1.721
315.70 1.72
315.80 1.719
315.90 1.718
316.00 1.717
316.10 1.716
316.20 1.715
316.30 1.714
316.40 1.712
316.50 1.711
316.60 1.71
316.70 1.709
316.80 1.708
316.90 1.707
317.00 1.706
317.10 1.705
317.20 1.704
317.30 1.703
317.40 1.702
317.50 1.701
317.60 1.699
317.70 1.698
317.80 1.697
317.90 1.696
318.00 1.695
318.10 1.694
318.20 1.693
318.30 1.692
318.40 1.691
318.50 1.69
318.60 1.689
318.70 1.688
318.80 1.687
318.90 1.685
319.00 1.684
319.10 1.683
319.20 1.682
319.30 1.681
319.40 1.68
319.50 1.679
319.60 1.678
319.70 1.677
319.80 1.676
319.90 1.675
320.00 1.674
320.10 1.673
320.20 1.672
320.30 1.671
320.40 1.669
320.50 1.668
320.60 1.667
320.70 1.666
320.80 1.665
320.90 1.664
321.00 1.663
321.10 1.662
321.20 1.661
321.30 1.66
321.40 1.659
321.50 1.658
321.60 1.657
321.70 1.656
321.80 1.655
321.90 1.654
322.00 1.653
322.10 1.652
322.20 1.651
322.30 1.65
322.40 1.648
322.50 1.647
322.60 1.646
322.70 1.645
322.80 1.644
322.90 1.643
323.00 1.642
323.10 1.641
323.20 1.64
323.30 1.639
323.40 1.638
323.50 1.637
323.60 1.636
323.70 1.635
323.80 1.634
323.90 1.633
324.00 1.632
324.10 1.631
324.20 1.63
324.30 1.629
324.40 1.628
324.50 1.627
324.60 1.626
324.70 1.625
324.80 1.624
324.90 1.623
325.00 1.622
325.10 1.621
325.20 1.62
325.30 1.619
325.40 1.618
325.50 1.617
325.60 1.616
325.70 1.615
325.80 1.614
325.90 1.612
326.00 1.611
326.10 1.61
326.20 1.609
326.30 1.608
326.40 1.607
326.50 1.606
326.60 1.605
326.70 1.604
326.80 1.603
326.90 1.602
327.00 1.601
327.10 1.6
327.20 1.599
327.30 1.598
327.40 1.597
327.50 1.596
327.60 1.595
327.70 1.594
327.80 1.593
327.90 1.592
328.00 1.591
328.10 1.59
328.20 1.589
328.30 1.588
328.40 1.587
328.50 1.586
328.60 1.585
328.70 1.584
328.80 1.583
328.90 1.582
329.00 1.581
329.10 1.58
329.20 1.579
329.30 1.578
329.40 1.577
329.50 1.576
329.60 1.576
329.70 1.575
329.80 1.574
329.90 1.573
330.00 1.572
330.10 1.571
330.20 1.57
330.30 1.569
330.40 1.568
330.50 1.567
330.60 1.566
330.70 1.565
330.80 1.564
330.90 1.563
331.00 1.562
331.10 1.561
331.20 1.56
331.30 1.559
331.40 1.558
331.50 1.557
331.60 1.556
331.70 1.555
331.80 1.554
331.90 1.553
332.00 1.552
332.10 1.551
332.20 1.55
332.30 1.549
332.40 1.548
332.50 1.547
332.60 1.546
332.70 1.545
332.80 1.544
332.90 1.543
333.00 1.542
333.10 1.541
333.20 1.541
333.30 1.54
333.40 1.539
333.50 1.538
333.60 1.537
333.70 1.536
333.80 1.535
333.90 1.534
334.00 1.533
334.10 1.532
334.20 1.531
334.30 1.53
334.40 1.529
334.50 1.528
334.60 1.527
334.70 1.526
334.80 1.525
334.90 1.524
335.00 1.523
335.10 1.522
335.20 1.521
335.30 1.521
335.40 1.52
335.50 1.519
335.60 1.518
335.70 1.517
335.80 1.516
335.90 1.515
336.00 1.514
336.10 1.513
336.20 1.512
336.30 1.511
336.40 1.51
336.50 1.509
336.60 1.508
336.70 1.507
336.80 1.506
336.90 1.506
337.00 1.505
337.10 1.504
337.20 1.503
337.30 1.502
337.40 1.501
337.50 1.5
337.60 1.499
337.70 1.498
337.80 1.497
337.90 1.496
338.00 1.495
338.10 1.494
338.20 1.493
338.30 1.493
338.40 1.492
338.50 1.491
338.60 1.49
338.70 1.489
338.80 1.488
338.90 1.487
339.00 1.486
339.10 1.485
339.20 1.484
339.30 1.483
339.40 1.482
339.50 1.482
339.60 1.481
339.70 1.48
339.80 1.479
339.90 1.478
340.00 1.477
340.10 1.476
340.20 1.475
340.30 1.474
340.40 1.473
340.50 1.472
340.60 1.472
340.70 1.471
340.80 1.47
340.90 1.469
341.00 1.468
341.10 1.467
341.20 1.466
341.30 1.465
341.40 1.464
341.50 1.463
341.60 1.463
341.70 1.462
341.80 1.461
341.90 1.46
342.00 1.459
342.10 1.458
342.20 1.457
342.30 1.456
342.40 1.455
342.50 1.454
342.60 1.454
342.70 1.453
342.80 1.452
342.90 1.451
343.00 1.45
343.10 1.449
343.20 1.448
343.30 1.447
343.40 1.446
343.50 1.446
343.60 1.445
343.70 1.444
343.80 1.443
343.90 1.442
344.00 1.441
344.10 1.44
344.20 1.439
344.30 1.438
344.40 1.438
344.50 1.437
344.60 1.436
344.70 1.435
344.80 1.434
344.90 1.433
345.00 1.432
345.10 1.431
345.20 1.431
345.30 1.43
345.40 1.429
345.50 1.428
345.60 1.427
345.70 1.426
345.80 1.425
345.90 1.424
346.00 1.424
346.10 1.423
346.20 1.422
346.30 1.421
346.40 1.42
346.50 1.419
346.60 1.418
346.70 1.418
346.80 1.417
346.90 1.416
347.00 1.415
347.10 1.414
347.20 1.413
347.30 1.412
347.40 1.411
347.50 1.411
347.60 1.41
347.70 1.409
347.80 1.408
347.90 1.407
348.00 1.406
348.10 1.405
348.20 1.405
348.30 1.404
348.40 1.403
348.50 1.402
348.60 1.401
348.70 1.4
348.80 1.399
348.90 1.399
349.00 1.398
349.10 1.397
349.20 1.396
349.30 1.395
349.40 1.394
349.50 1.394
349.60 1.393
349.70 1.392
349.80 1.391
349.90 1.39
350.00 1.389
350.10 1.388
350.20 1.388
350.30 1.387
350.40 1.386
350.50 1.385
350.60 1.384
350.70 1.383
350.80 1.383
350.90 1.382
351.00 1.381
351.10 1.38
351.20 1.379
351.30 1.378
351.40 1.378
351.50 1.377
351.60 1.376
351.70 1.375
351.80 1.374
351.90 1.373
352.00 1.373
352.10 1.372
352.20 1.371
352.30 1.37
352.40 1.369
352.50 1.368
352.60 1.368
352.70 1.367
352.80 1.366
352.90 1.365
353.00 1.364
353.10 1.363
353.20 1.363
353.30 1.362
353.40 1.361
353.50 1.36
353.60 1.359
353.70 1.359
353.80 1.358
353.90 1.357
354.00 1.356
354.10 1.355
354.20 1.354
354.30 1.354
354.40 1.353
354.50 1.352
354.60 1.351
354.70 1.35
354.80 1.35
354.90 1.349
355.00 1.348
355.10 1.347
355.20 1.346
355.30 1.345
355.40 1.345
355.50 1.344
355.60 1.343
355.70 1.342
355.80 1.341
355.90 1.341
356.00 1.34
356.10 1.339
356.20 1.338
356.30 1.337
356.40 1.337
356.50 1.336
356.60 1.335
356.70 1.334
356.80 1.333
356.90 1.333
357.00 1.332
357.10 1.331
357.20 1.33
357.30 1.329
357.40 1.329
357.50 1.328
357.60 1.327
357.70 1.326
357.80 1.325
357.90 1.325
358.00 1.324
358.10 1.323
358.20 1.322
358.30 1.321
358.40 1.321
358.50 1.32
358.60 1.319
358.70 1.318
358.80 1.317
358.90 1.317
359.00 1.316
359.10 1.315
359.20 1.314
359.30 1.314
359.40 1.313
359.50 1.312
359.60 1.311
359.70 1.31
359.80 1.31
359.90 1.309
360.00 1.308
360.10 1.307
360.20 1.306
360.30 1.306
360.40 1.305
360.50 1.304
360.60 1.303
360.70 1.303
360.80 1.302
360.90 1.301
361.00 1.3
361.10 1.299
361.20 1.299
361.30 1.298
361.40 1.297
361.50 1.296
361.60 1.296
361.70 1.295
361.80 1.294
361.90 1.293
362.00 1.292
362.10 1.292
362.20 1.291
362.30 1.29
362.40 1.289
362.50 1.289
362.60 1.288
362.70 1.287
362.80 1.286
362.90 1.286
363.00 1.285
363.10 1.284
363.20 1.283
363.30 1.282
363.40 1.281
363.50 1.28
363.60 1.28
363.70 1.279
363.80 1.278
363.90 1.277
364.00 1.276
364.10 1.275
364.20 1.275
364.30 1.274
364.40 1.273
364.50 1.272
364.60 1.271
364.70 1.27
364.80 1.269
364.90 1.268
365.00 1.268
365.10 1.267
365.20 1.266
365.30 1.265
365.40 1.264
365.50 1.263
365.60 1.262
365.70 1.262
365.80 1.261
365.90 1.26
366.00 1.259
366.10 1.258
366.20 1.257
366.30 1.257
366.40 1.256
366.50 1.255
366.60 1.254
366.70 1.254
366.80 1.253
366.90 1.252
367.00 1.251
367.10 1.25
367.20 1.25
367.30 1.249
367.40 1.248
367.50 1.247
367.60 1.247
367.70 1.246
367.80 1.245
367.90 1.244
368.00 1.244
368.10 1.243
368.20 1.242
368.30 1.242
368.40 1.241
368.50 1.241
368.60 1.24
368.70 1.239
368.80 1.239
368.90 1.238
369.00 1.238
369.10 1.237
369.20 1.236
369.30 1.236
369.40 1.235
369.50 1.235
369.60 1.234
369.70 1.234
369.80 1.233
369.90 1.232
370.00 1.232
370.10 1.232
370.20 1.232
370.30 1.232
370.40 1.232
370.50 1.232
370.60 1.232
370.70 1.232
370.80 1.232
370.90 1.232
371.00 1.232
371.10 1.232
371.20 1.232
371.30 1.232
371.40 1.232
371.50 1.232
371.60 1.232
371.70 1.232
371.80 1.232
371.90 1.232
372.00 1.232
372.10 1.233
372.20 1.233
372.30 1.234
372.40 1.235
372.50 1.236
372.60 1.237
372.70 1.237
372.80 1.238
372.90 1.239
373.00 1.24
373.10 1.241
373.20 1.241
373.30 1.242
373.40 1.243
373.50 1.244
373.60 1.245
373.70 1.246
373.80 1.246
373.90 1.247
374.00 1.248
374.10 1.249
374.20 1.25
374.30 1.252
374.40 1.253
374.50 1.254
374.60 1.255
374.70 1.256
374.80 1.258
374.90 1.259
375.00 1.26
375.10 1.261
375.20 1.262
375.30 1.264
375.40 1.265
375.50 1.266
375.60 1.267
375.70 1.268
375.80 1.27
375.90 1.271
376.00 1.272
376.10 1.273
376.20 1.273
376.30 1.274
376.40 1.274
376.50 1.275
376.60 1.276
376.70 1.276
376.80 1.277
376.90 1.277
377.00 1.278
377.10 1.277
377.20 1.276
377.30 1.275
377.40 1.274
377.50 1.273
377.60 1.272
377.70 1.27
377.80 1.269
377.90 1.268
378.00 1.267
378.10 1.261
378.20 1.255
378.30 1.248
378.40 1.242
378.50 1.236
378.60 1.23
378.70 1.223
378.80 1.217
378.90 1.211
379.00 1.205
379.10 1.2
379.20 1.195
379.30 1.191
379.40 1.186
379.50 1.182
379.60 1.177
379.70 1.172
379.80 1.168
379.90 1.163
380.00 1.159
380.10 1.166
380.20 1.173
380.30 1.18
380.40 1.188
380.50 1.195
380.60 1.202
380.70 1.209
380.80 1.216
380.90 1.223
381.00 1.23
381.10 1.233
381.20 1.235
381.30 1.238
381.40 1.24
381.50 1.243
381.60 1.242
381.70 1.24
381.80 1.237
381.90 1.234
382.00 1.229
382.10 1.222
382.20 1.214
382.30 1.2
382.40 1.185
382.50 1.17
382.60 1.155
382.70 1.14
382.80 1.125
382.90 1.111
383.00 1.096
383.10 1.081
383.20 1.066
383.30 1.055
383.40 1.041
383.50 1.027
383.60 1.03
383.70 1.045
383.80 1.059
383.90 1.071
384.00 1.086
384.10 1.104
384.20 1.124
384.30 1.144
384.40 1.162
384.50 1.179
384.60 1.194
384.70 1.208
384.80 1.22
384.90 1.231
385.00 1.24
385.10 1.247
385.20 1.254
385.30 1.26
385.40 1.264
385.50 1.267
385.60 1.27
385.70 1.271
385.80 1.272
385.90 1.273
386.00 1.272
386.10 1.271
386.20 1.269
386.30 1.266
386.40 1.262
386.50 1.258
386.60 1.253
386.70 1.247
386.80 1.24
386.90 1.233
387.00 1.224
387.10 1.216
387.20 1.205
387.30 1.194
387.40 1.182
387.50 1.168
387.60 1.152
387.70 1.136
387.80 1.117
387.90 1.097
388.00 1.075
388.10 1.05
388.20 1.022
388.30 0.9928
388.40 0.9619
388.50 0.9337
388.60 0.9081
388.70 0.8871
388.80 0.868
388.90 0.8509
389.00 0.8665
389.10 0.8848
389.20 0.9057
389.30 0.9309
389.40 0.959
389.50 0.9902
389.60 1.021
389.70 1.049
389.80 1.076
389.90 1.098
390.00 1.12
390.10 1.14
390.20 1.158
390.30 1.176
390.40 1.192
390.50 1.206
390.60 1.22
390.70 1.232
390.80 1.244
390.90 1.255
391.00 1.265
391.10 1.275
391.20 1.284
391.30 1.293
391.40 1.301
391.50 1.308
391.60 1.315
391.70 1.322
391.80 1.327
391.90 1.333
392.00 1.337
392.10 1.341
392.20 1.344
392.30 1.346
392.40 1.348
392.50 1.35
392.60 1.35
392.70 1.35
392.80 1.35
392.90 1.348
393.00 1.347
393.10 1.344
393.20 1.341
393.30 1.337
393.40 1.333
393.50 1.328
393.60 1.322
393.70 1.315
393.80 1.308
393.90 1.3
394.00 1.292
394.10 1.282
394.20 1.272
394.30 1.262
394.40 1.251
394.50 1.239
394.60 1.226
394.70 1.213
394.80 1.199
394.90 1.185
395.00 1.17
395.10 1.155
395.20 1.139
395.30 1.122
395.40 1.104
395.50 1.086
395.60 1.066
395.70 1.046
395.80 1.025
395.90 1.002
396.00 0.9791
396.10 0.9549
396.20 0.9277
396.30 0.8983
396.40 0.8668
396.50 0.8313
396.60 0.7964
396.70 0.762
396.80 0.7329
396.90 0.7014
397.00 0.6675
397.10 0.6985
397.20 0.7281
397.30 0.7563
397.40 0.7898
397.50 0.8241
397.60 0.8592
397.70 0.8905
397.80 0.9198
397.90 0.9468
398.00 0.9707
398.10 0.9937
398.20 1.016
398.30 1.037
398.40 1.057
398.50 1.077
398.60 1.095
398.70 1.113
398.80 1.13
398.90 1.146
399.00 1.162
399.10 1.178
399.20 1.193
399.30 1.208
399.40 1.222
399.50 1.236
399.60 1.249
399.70 1.262
399.80 1.275
399.90 1.287
400.00 1.299
400.10 1.31
400.20 1.321
400.30 1.331
400.40 1.341
400.50 1.351
400.60 1.36
400.70 1.368
400.80 1.377
400.90 1.384
401.00 1.392
401.10 1.399
401.20 1.406
401.30 1.412
401.40 1.418
401.50 1.424
401.60 1.429
401.70 1.434
401.80 1.439
401.90 1.443
402.00 1.447
402.10 1.45
402.20 1.454
402.30 1.457
402.40 1.459
402.50 1.462
402.60 1.464
402.70 1.466
402.80 1.467
402.90 1.468
403.00 1.469
403.10 1.469
403.20 1.47
403.30 1.469
403.40 1.469
403.50 1.468
403.60 1.467
403.70 1.466
403.80 1.464
403.90 1.462
404.00 1.46
404.10 1.458
404.20 1.455
404.30 1.451
404.40 1.448
404.50 1.444
404.60 1.44
404.70 1.436
404.80 1.431
404.90 1.426
405.00 1.42
405.10 1.415
405.20 1.409
405.30 1.402
405.40 1.396
405.50 1.388
405.60 1.381
405.70 1.373
405.80 1.365
405.90 1.357
406.00 1.348
406.10 1.338
406.20 1.329
406.30 1.319
406.40 1.309
406.50 1.298
406.60 1.287
406.70 1.275
406.80 1.264
406.90 1.251
407.00 1.239
407.10 1.225
407.20 1.212
407.30 1.198
407.40 1.183
407.50 1.168
407.60 1.153
407.70 1.137
407.80 1.121
407.90 1.105
408.00 1.088
408.10 1.07
408.20 1.052
408.30 1.034
408.40 1.016
408.50 0.9969
408.60 0.9777
408.70 0.9582
408.80 0.9381
408.90 0.9178
409.00 0.8972
409.10 0.876
409.20 0.8542
409.30 0.8319
409.40 0.8077
409.50 0.782
409.60 0.7547
409.70 0.7242
409.80 0.6929
409.90 0.661
410.00 0.6267
410.10 0.5944
410.20 0.564
410.30 0.6074
410.40 0.6449
410.50 0.6767
410.60 0.708
410.70 0.738
410.80 0.7669
410.90 0.7922
411.00 0.8162
411.10 0.8388
411.20 0.8598
411.30 0.8804
411.40 0.9004
411.50 0.9199
411.60 0.9391
411.70 0.9579
411.80 0.9762
411.90 0.9943
412.00 1.012
412.10 1.029
412.20 1.046
412.30 1.063
412.40 1.079
412.50 1.094
412.60 1.11
412.70 1.125
412.80 1.139
412.90 1.153
413.00 1.167
413.10 1.18
413.20 1.193
413.30 1.206
413.40 1.218
413.50 1.23
413.60 1.241
413.70 1.252
413.80 1.263
413.90 1.273
414.00 1.283
414.10 1.293
414.20 1.302
414.30 1.312
414.40 1.32
414.50 1.329
414.60 1.337
414.70 1.345
414.80 1.353
414.90 1.361
415.00 1.368
415.10 1.375
415.20 1.382
415.30 1.389
415.40 1.395
415.50 1.401
415.60 1.407
415.70 1.413
415.80 1.419
415.90 1.424
416.00 1.429
416.10 1.435
416.20 1.44
416.30 1.444
416.40 1.449
416.50 1.453
416.60 1.457
416.70 1.462
416.80 1.466
416.90 1.469
417.00 1.473
417.10 1.476
417.20 1.48
417.30 1.483
417.40 1.486
417.50 1.489
417.60 1.492
417.70 1.495
417.80 1.497
417.90 1.5
418.00 1.502
418.10 1.505
418.20 1.507
418.30 1.509
418.40 1.511
418.50 1.512
418.60 1.514
418.70 1.516
418.80 1.517
418.90 1.519
419.00 1.52
419.10 1.521
419.20 1.523
419.30 1.524
419.40 1.525
419.50 1.526
419.60 1.526
419.70 1.527
419.80 1.528
419.90 1.529
420.00 1.529
420.10 1.529
420.20 1.53
420.30 1.53
420.40 1.53
420.50 1.53
420.60 1.531
420.70 1.531
420.80 1.53
420.90 1.53
421.00 1.53
421.10 1.53
421.20 1.529
421.30 1.529
421.40 1.529
421.50 1.528
421.60 1.527
421.70 1.527
421.80 1.526
421.90 1.525
422.00 1.524
422.10 1.523
422.20 1.522
422.30 1.521
422.40 1.52
422.50 1.519
422.60 1.517
422.70 1.516
422.80 1.515
422.90 1.513
423.00 1.512
423.10 1.51
423.20 1.508
423.30 1.506
423.40 1.505
423.50 1.503
423.60 1.501
423.70 1.499
423.80 1.497
423.90 1.495
424.00 1.492
424.10 1.49
424.20 1.488
424.30 1.485
424.40 1.483
424.50 1.48
424.60 1.477
424.70 1.475
424.80 1.472
424.90 1.469
425.00 1.466
425.10 1.463
425.20 1.46
425.30 1.456
425.40 1.453
425.50 1.45
425.60 1.446
425.70 1.443
425.80 1.439
425.90 1.435
426.00 1.431
426.10 1.427
426.20 1.423
426.30 1.418
426.40 1.414
426.50 1.409
426.60 1.405
426.70 1.4
426.80 1.396
426.90 1.391
427.00 1.386
427.10 1.381
427.20 1.376
427.30 1.371
427.40 1.365
427.50 1.36
427.60 1.354
427.70 1.348
427.80 1.343
427.90 1.337
428.00 1.33
428.10 1.324
428.20 1.318
428.30 1.311
428.40 1.304
428.50 1.298
428.60 1.291
428.70 1.283
428.80 1.276
428.90 1.268
429.00 1.261
429.10 1.253
429.20 1.245
429.30 1.237
429.40 1.228
429.50 1.219
429.60 1.211
429.70 1.202
429.80 1.192
429.90 1.183
430.00 1.173
430.10 1.163
430.20 1.153
430.30 1.143
430.40 1.132
430.50 1.121
430.60 1.11
430.70 1.099
430.80 1.088
430.90 1.076
431.00 1.064
431.10 1.052
431.20 1.039
431.30 1.027
431.40 1.014
431.50 1
431.60 0.9868
431.70 0.973
431.80 0.9589
431.90 0.9443
432.00 0.9293
432.10 0.9141
432.20 0.8982
432.30 0.8818
432.40 0.865
432.50 0.8472
432.60 0.8289
432.70 0.8101
432.80 0.7908
432.90 0.7716
433.00 0.7526
433.10 0.7347
433.20 0.7169
433.30 0.6991
433.40 0.6798
433.50 0.6589
433.60 0.6365
433.70 0.6095
433.80 0.5795
433.90 0.5463
434.00 0.4843
434.10 0.4852
434.20 0.549
434.30 0.5811
434.40 0.6103
434.50 0.6365
434.60 0.6582
434.70 0.6783
434.80 0.6968
434.90 0.7139
435.00 0.731
435.10 0.7483
435.20 0.7665
435.30 0.7848
435.40 0.8032
435.50 0.8211
435.60 0.8384
435.70 0.8551
435.80 0.8708
435.90 0.886
436.00 0.9008
436.10 0.9149
436.20 0.9286
436.30 0.942
436.40 0.9549
436.50 0.9674
436.60 0.9797
436.70 0.9916
436.80 1.003
436.90 1.015
437.00 1.026
437.10 1.036
437.20 1.047
437.30 1.057
437.40 1.067
437.50 1.077
437.60 1.087
437.70 1.096
437.80 1.105
437.90 1.114
438.00 1.122
438.10 1.131
438.20 1.139
438.30 1.147
438.40 1.154
438.50 1.162
438.60 1.169
438.70 1.176
438.80 1.183
438.90 1.19
439.00 1.196
439.10 1.202
439.20 1.208
439.30 1.214
439.40 1.22
439.50 1.226
439.60 1.231
439.70 1.236
439.80 1.241
439.90 1.246
440.00 1.251
440.10 1.256
440.20 1.26
440.30 1.265
440.40 1.269
440.50 1.273
440.60 1.277
440.70 1.281
440.80 1.285
440.90 1.288
441.00 1.292
441.10 1.295
441.20 1.299
441.30 1.302
441.40 1.305
441.50 1.308
441.60 1.311
441.70 1.314
441.80 1.317
441.90 1.32
442.00 1.322
442.10 1.325
442.20 1.327
442.30 1.329
442.40 1.332
442.50 1.334
442.60 1.336
442.70 1.338
442.80 1.34
442.90 1.342
443.00 1.344
443.10 1.345
443.20 1.347
443.30 1.349
443.40 1.35
443.50 1.352
443.60 1.353
443.70 1.355
443.80 1.356
443.90 1.358
444.00 1.359
444.10 1.36
444.20 1.361
444.30 1.362
444.40 1.364
444.50 1.365
444.60 1.366
444.70 1.367
444.80 1.367
444.90 1.368
445.00 1.369
445.10 1.37
445.20 1.371
445.30 1.371
445.40 1.372
445.50 1.373
445.60 1.373
445.70 1.374
445.80 1.374
445.90 1.375
446.00 1.375
446.10 1.376
446.20 1.376
446.30 1.377
446.40 1.377
446.50 1.377
446.60 1.378
446.70 1.378
446.80 1.378
446.90 1.379
447.00 1.379
447.10 1.379
447.20 1.379
447.30 1.379
447.40 1.379
447.50 1.379
447.60 1.379
447.70 1.38
447.80 1.38
447.90 1.38
448.00 1.38
448.10 1.38
448.20 1.379
448.30 1.379
448.40 1.379
448.50 1.379
448.60 1.379
448.70 1.379
448.80 1.379
448.90 1.379
449.00 1.379
449.10 1.379
449.20 1.378
449.30 1.378
449.40 1.378
449.50 1.378
449.60 1.377
449.70 1.377
449.80 1.377
449.90 1.377
450.00 1.376
450.10 1.376
450.20 1.376
450.30 1.375
450.40 1.375
450.50 1.375
450.60 1.374
450.70 1.374
450.80 1.373
450.90 1.373
451.00 1.373
451.10 1.372
451.20 1.372
451.30 1.371
451.40 1.371
451.50 1.37
451.60 1.37
451.70 1.369
451.80 1.369
451.90 1.368
452.00 1.368
452.10 1.367
452.20 1.367
452.30 1.366
452.40 1.366
452.50 1.365
452.60 1.365
452.70 1.364
452.80 1.363
452.90 1.363
453.00 1.362
453.10 1.362
453.20 1.361
