# Version 2.1 - nm, norm@500 to 1, cut digits, bergeron_12500_70.dat_12500
# Wavelength(nm)  Flambda(ergs/cm^s/s/nm)
300.00 1.626
300.10 1.625
300.20 1.624
300.30 1.623
300.40 1.622
300.50 1.621
300.60 1.62
300.70 1.619
300.80 1.618
300.90 1.617
301.00 1.616
301.10 1.615
301.20 1.614
301.30 1.613
301.40 1.612
301.50 1.611
301.60 1.61
301.70 1.609
301.80 1.608
301.90 1.607
302.00 1.606
302.10 1.605
302.20 1.604
302.30 1.603
302.40 1.602
302.50 1.601
302.60 1.6
302.70 1.599
302.80 1.598
302.90 1.597
303.00 1.596
303.10 1.595
303.20 1.594
303.30 1.593
303.40 1.591
303.50 1.59
303.60 1.589
303.70 1.588
303.80 1.587
303.90 1.586
304.00 1.585
304.10 1.584
304.20 1.583
304.30 1.582
304.40 1.581
304.50 1.58
304.60 1.579
304.70 1.579
304.80 1.578
304.90 1.577
305.00 1.576
305.10 1.575
305.20 1.574
305.30 1.573
305.40 1.572
305.50 1.571
305.60 1.57
305.70 1.569
305.80 1.568
305.90 1.567
306.00 1.566
306.10 1.565
306.20 1.564
306.30 1.563
306.40 1.562
306.50 1.561
306.60 1.56
306.70 1.559
306.80 1.558
306.90 1.557
307.00 1.556
307.10 1.555
307.20 1.554
307.30 1.553
307.40 1.552
307.50 1.551
307.60 1.55
307.70 1.549
307.80 1.548
307.90 1.547
308.00 1.546
308.10 1.545
308.20 1.544
308.30 1.543
308.40 1.542
308.50 1.541
308.60 1.54
308.70 1.539
308.80 1.538
308.90 1.538
309.00 1.537
309.10 1.536
309.20 1.535
309.30 1.534
309.40 1.533
309.50 1.532
309.60 1.531
309.70 1.53
309.80 1.529
309.90 1.528
310.00 1.527
310.10 1.526
310.20 1.525
310.30 1.524
310.40 1.523
310.50 1.522
310.60 1.521
310.70 1.52
310.80 1.519
310.90 1.519
311.00 1.518
311.10 1.517
311.20 1.516
311.30 1.515
311.40 1.514
311.50 1.513
311.60 1.512
311.70 1.511
311.80 1.51
311.90 1.509
312.00 1.508
312.10 1.507
312.20 1.506
312.30 1.505
312.40 1.505
312.50 1.504
312.60 1.503
312.70 1.502
312.80 1.501
312.90 1.5
313.00 1.499
313.10 1.498
313.20 1.497
313.30 1.496
313.40 1.495
313.50 1.494
313.60 1.493
313.70 1.493
313.80 1.492
313.90 1.491
314.00 1.49
314.10 1.489
314.20 1.488
314.30 1.487
314.40 1.486
314.50 1.485
314.60 1.484
314.70 1.483
314.80 1.482
314.90 1.482
315.00 1.481
315.10 1.48
315.20 1.479
315.30 1.478
315.40 1.477
315.50 1.476
315.60 1.475
315.70 1.474
315.80 1.473
315.90 1.473
316.00 1.472
316.10 1.471
316.20 1.47
316.30 1.469
316.40 1.468
316.50 1.467
316.60 1.466
316.70 1.465
316.80 1.464
316.90 1.464
317.00 1.463
317.10 1.462
317.20 1.461
317.30 1.46
317.40 1.459
317.50 1.458
317.60 1.457
317.70 1.456
317.80 1.456
317.90 1.455
318.00 1.454
318.10 1.453
318.20 1.452
318.30 1.451
318.40 1.45
318.50 1.449
318.60 1.448
318.70 1.448
318.80 1.447
318.90 1.446
319.00 1.445
319.10 1.444
319.20 1.443
319.30 1.442
319.40 1.441
319.50 1.441
319.60 1.44
319.70 1.439
319.80 1.438
319.90 1.437
320.00 1.436
320.10 1.435
320.20 1.434
320.30 1.434
320.40 1.433
320.50 1.432
320.60 1.431
320.70 1.43
320.80 1.429
320.90 1.428
321.00 1.428
321.10 1.427
321.20 1.426
321.30 1.425
321.40 1.424
321.50 1.423
321.60 1.422
321.70 1.422
321.80 1.421
321.90 1.42
322.00 1.419
322.10 1.418
322.20 1.417
322.30 1.416
322.40 1.416
322.50 1.415
322.60 1.414
322.70 1.413
322.80 1.412
322.90 1.411
323.00 1.41
323.10 1.41
323.20 1.409
323.30 1.408
323.40 1.407
323.50 1.406
323.60 1.405
323.70 1.405
323.80 1.404
323.90 1.403
324.00 1.402
324.10 1.401
324.20 1.4
324.30 1.399
324.40 1.399
324.50 1.398
324.60 1.397
324.70 1.396
324.80 1.395
324.90 1.394
325.00 1.394
325.10 1.393
325.20 1.392
325.30 1.391
325.40 1.39
325.50 1.389
325.60 1.389
325.70 1.388
325.80 1.387
325.90 1.386
326.00 1.385
326.10 1.384
326.20 1.384
326.30 1.383
326.40 1.382
326.50 1.381
326.60 1.38
326.70 1.38
326.80 1.379
326.90 1.378
327.00 1.377
327.10 1.376
327.20 1.375
327.30 1.375
327.40 1.374
327.50 1.373
327.60 1.372
327.70 1.371
327.80 1.371
327.90 1.37
328.00 1.369
328.10 1.368
328.20 1.367
328.30 1.366
328.40 1.366
328.50 1.365
328.60 1.364
328.70 1.363
328.80 1.362
328.90 1.362
329.00 1.361
329.10 1.36
329.20 1.359
329.30 1.358
329.40 1.358
329.50 1.357
329.60 1.356
329.70 1.355
329.80 1.354
329.90 1.354
330.00 1.353
330.10 1.352
330.20 1.351
330.30 1.35
330.40 1.35
330.50 1.349
330.60 1.348
330.70 1.347
330.80 1.346
330.90 1.346
331.00 1.345
331.10 1.344
331.20 1.343
331.30 1.342
331.40 1.342
331.50 1.341
331.60 1.34
331.70 1.339
331.80 1.338
331.90 1.338
332.00 1.337
332.10 1.336
332.20 1.335
332.30 1.334
332.40 1.334
332.50 1.333
332.60 1.332
332.70 1.331
332.80 1.331
332.90 1.33
333.00 1.329
333.10 1.328
333.20 1.327
333.30 1.327
333.40 1.326
333.50 1.325
333.60 1.324
333.70 1.324
333.80 1.323
333.90 1.322
334.00 1.321
334.10 1.32
334.20 1.32
334.30 1.319
334.40 1.318
334.50 1.317
334.60 1.317
334.70 1.316
334.80 1.315
334.90 1.314
335.00 1.313
335.10 1.313
335.20 1.312
335.30 1.311
335.40 1.31
335.50 1.31
335.60 1.309
335.70 1.308
335.80 1.307
335.90 1.307
336.00 1.306
336.10 1.305
336.20 1.304
336.30 1.303
336.40 1.303
336.50 1.302
336.60 1.301
336.70 1.3
336.80 1.3
336.90 1.299
337.00 1.298
337.10 1.297
337.20 1.297
337.30 1.296
337.40 1.295
337.50 1.294
337.60 1.294
337.70 1.293
337.80 1.292
337.90 1.291
338.00 1.291
338.10 1.29
338.20 1.289
338.30 1.288
338.40 1.288
338.50 1.287
338.60 1.286
338.70 1.285
338.80 1.285
338.90 1.284
339.00 1.283
339.10 1.282
339.20 1.282
339.30 1.281
339.40 1.28
339.50 1.279
339.60 1.279
339.70 1.278
339.80 1.277
339.90 1.276
340.00 1.276
340.10 1.275
340.20 1.274
340.30 1.273
340.40 1.273
340.50 1.272
340.60 1.271
340.70 1.271
340.80 1.27
340.90 1.269
341.00 1.268
341.10 1.268
341.20 1.267
341.30 1.266
341.40 1.265
341.50 1.265
341.60 1.264
341.70 1.263
341.80 1.262
341.90 1.262
342.00 1.261
342.10 1.26
342.20 1.26
342.30 1.259
342.40 1.258
342.50 1.257
342.60 1.257
342.70 1.256
342.80 1.255
342.90 1.254
343.00 1.254
343.10 1.253
343.20 1.252
343.30 1.252
343.40 1.251
343.50 1.25
343.60 1.249
343.70 1.249
343.80 1.248
343.90 1.247
344.00 1.247
344.10 1.246
344.20 1.245
344.30 1.244
344.40 1.244
344.50 1.243
344.60 1.242
344.70 1.242
344.80 1.241
344.90 1.24
345.00 1.239
345.10 1.239
345.20 1.238
345.30 1.237
345.40 1.237
345.50 1.236
345.60 1.235
345.70 1.234
345.80 1.234
345.90 1.233
346.00 1.232
346.10 1.232
346.20 1.231
346.30 1.23
346.40 1.229
346.50 1.229
346.60 1.228
346.70 1.227
346.80 1.227
346.90 1.226
347.00 1.225
347.10 1.225
347.20 1.224
347.30 1.223
347.40 1.222
347.50 1.222
347.60 1.221
347.70 1.22
347.80 1.22
347.90 1.219
348.00 1.218
348.10 1.218
348.20 1.217
348.30 1.216
348.40 1.215
348.50 1.215
348.60 1.214
348.70 1.213
348.80 1.213
348.90 1.212
349.00 1.211
349.10 1.211
349.20 1.21
349.30 1.209
349.40 1.209
349.50 1.208
349.60 1.207
349.70 1.207
349.80 1.206
349.90 1.205
350.00 1.204
350.10 1.204
350.20 1.203
350.30 1.202
350.40 1.202
350.50 1.201
350.60 1.2
350.70 1.2
350.80 1.199
350.90 1.198
351.00 1.198
351.10 1.197
351.20 1.196
351.30 1.196
351.40 1.195
351.50 1.194
351.60 1.194
351.70 1.193
351.80 1.192
351.90 1.192
352.00 1.191
352.10 1.19
352.20 1.19
352.30 1.189
352.40 1.188
352.50 1.187
352.60 1.187
352.70 1.186
352.80 1.185
352.90 1.185
353.00 1.184
353.10 1.183
353.20 1.183
353.30 1.182
353.40 1.181
353.50 1.181
353.60 1.18
353.70 1.179
353.80 1.179
353.90 1.178
354.00 1.177
354.10 1.177
354.20 1.176
354.30 1.175
354.40 1.175
354.50 1.174
354.60 1.173
354.70 1.173
354.80 1.172
354.90 1.171
355.00 1.171
355.10 1.17
355.20 1.169
355.30 1.169
355.40 1.168
355.50 1.168
355.60 1.167
355.70 1.166
355.80 1.166
355.90 1.165
356.00 1.164
356.10 1.164
356.20 1.163
356.30 1.162
356.40 1.162
356.50 1.161
356.60 1.16
356.70 1.16
356.80 1.159
356.90 1.158
357.00 1.158
357.10 1.157
357.20 1.156
357.30 1.156
357.40 1.155
357.50 1.154
357.60 1.154
357.70 1.153
357.80 1.152
357.90 1.152
358.00 1.151
358.10 1.151
358.20 1.15
358.30 1.149
358.40 1.149
358.50 1.148
358.60 1.147
358.70 1.147
358.80 1.146
358.90 1.145
359.00 1.145
359.10 1.144
359.20 1.143
359.30 1.143
359.40 1.142
359.50 1.142
359.60 1.141
359.70 1.14
359.80 1.14
359.90 1.139
360.00 1.138
360.10 1.138
360.20 1.137
360.30 1.136
360.40 1.136
360.50 1.135
360.60 1.135
360.70 1.134
360.80 1.133
360.90 1.133
361.00 1.132
361.10 1.131
361.20 1.131
361.30 1.13
361.40 1.13
361.50 1.129
361.60 1.128
361.70 1.128
361.80 1.127
361.90 1.126
362.00 1.126
362.10 1.125
362.20 1.124
362.30 1.124
362.40 1.123
362.50 1.123
362.60 1.122
362.70 1.121
362.80 1.121
362.90 1.12
363.00 1.12
363.10 1.119
363.20 1.118
363.30 1.118
363.40 1.117
363.50 1.116
363.60 1.116
363.70 1.115
363.80 1.114
363.90 1.114
364.00 1.113
364.10 1.112
364.20 1.112
364.30 1.111
364.40 1.11
364.50 1.11
364.60 1.109
364.70 1.108
364.80 1.108
364.90 1.107
365.00 1.107
365.10 1.106
365.20 1.105
365.30 1.105
365.40 1.104
365.50 1.104
365.60 1.103
365.70 1.102
365.80 1.102
365.90 1.101
366.00 1.101
366.10 1.1
366.20 1.099
366.30 1.099
366.40 1.098
366.50 1.098
366.60 1.097
366.70 1.097
366.80 1.096
366.90 1.096
367.00 1.095
367.10 1.094
367.20 1.094
367.30 1.093
367.40 1.093
367.50 1.092
367.60 1.092
367.70 1.091
367.80 1.091
367.90 1.09
368.00 1.089
368.10 1.09
368.20 1.09
368.30 1.09
368.40 1.091
368.50 1.091
368.60 1.091
368.70 1.091
368.80 1.092
368.90 1.092
369.00 1.092
369.10 1.092
369.20 1.093
369.30 1.093
369.40 1.093
369.50 1.093
369.60 1.094
369.70 1.094
369.80 1.094
369.90 1.094
370.00 1.095
370.10 1.097
370.20 1.098
370.30 1.1
370.40 1.102
370.50 1.104
370.60 1.106
370.70 1.108
370.80 1.11
370.90 1.112
371.00 1.114
371.10 1.116
371.20 1.118
371.30 1.12
371.40 1.121
371.50 1.123
371.60 1.125
371.70 1.127
371.80 1.129
371.90 1.131
372.00 1.133
372.10 1.136
372.20 1.14
372.30 1.143
372.40 1.147
372.50 1.15
372.60 1.153
372.70 1.157
372.80 1.16
372.90 1.164
373.00 1.167
373.10 1.17
373.20 1.174
373.30 1.177
373.40 1.181
373.50 1.184
373.60 1.187
373.70 1.191
373.80 1.194
373.90 1.198
374.00 1.201
374.10 1.205
374.20 1.208
374.30 1.212
374.40 1.216
374.50 1.219
374.60 1.223
374.70 1.226
374.80 1.23
374.90 1.234
375.00 1.237
375.10 1.241
375.20 1.245
375.30 1.248
375.40 1.252
375.50 1.256
375.60 1.259
375.70 1.263
375.80 1.266
375.90 1.27
376.00 1.274
376.10 1.275
376.20 1.277
376.30 1.279
376.40 1.281
376.50 1.283
376.60 1.284
376.70 1.286
376.80 1.288
376.90 1.29
377.00 1.292
377.10 1.289
377.20 1.286
377.30 1.283
377.40 1.28
377.50 1.277
377.60 1.274
377.70 1.271
377.80 1.268
377.90 1.265
378.00 1.262
378.10 1.244
378.20 1.227
378.30 1.209
378.40 1.192
378.50 1.175
378.60 1.157
378.70 1.14
378.80 1.122
378.90 1.105
379.00 1.088
379.10 1.073
379.20 1.058
379.30 1.043
379.40 1.027
379.50 1.012
379.60 0.9975
379.70 0.9825
379.80 0.9675
379.90 0.9525
380.00 0.9376
380.10 0.9612
380.20 0.9847
380.30 1.008
380.40 1.032
380.50 1.055
380.60 1.079
380.70 1.102
380.80 1.125
380.90 1.149
381.00 1.172
381.10 1.181
381.20 1.19
381.30 1.199
381.40 1.208
381.50 1.217
381.60 1.218
381.70 1.216
381.80 1.211
381.90 1.203
382.00 1.193
382.10 1.179
382.20 1.163
382.30 1.132
382.40 1.101
382.50 1.071
382.60 1.04
382.70 1.01
382.80 0.9792
382.90 0.9487
383.00 0.9183
383.10 0.8879
383.20 0.8576
383.30 0.8248
383.40 0.7889
383.50 0.7502
383.60 0.7587
383.70 0.7965
383.80 0.8319
383.90 0.8642
384.00 0.8973
384.10 0.9327
384.20 0.9689
384.30 1.005
384.40 1.041
384.50 1.076
384.60 1.109
384.70 1.139
384.80 1.167
384.90 1.191
385.00 1.213
385.10 1.231
385.20 1.248
385.30 1.263
385.40 1.275
385.50 1.285
385.60 1.294
385.70 1.301
385.80 1.306
385.90 1.31
386.00 1.311
386.10 1.312
386.20 1.311
386.30 1.308
386.40 1.304
386.50 1.298
386.60 1.29
386.70 1.281
386.80 1.271
386.90 1.259
387.00 1.245
387.10 1.23
387.20 1.212
387.30 1.193
387.40 1.173
387.50 1.148
387.60 1.123
387.70 1.095
387.80 1.063
387.90 1.029
388.00 0.9926
388.10 0.9536
388.20 0.914
388.30 0.8739
388.40 0.8341
388.50 0.7955
388.60 0.7581
388.70 0.7188
388.80 0.677
388.90 0.6325
389.00 0.6738
389.10 0.714
389.20 0.7532
389.30 0.7901
389.40 0.8281
389.50 0.8673
389.60 0.9073
389.70 0.9469
389.80 0.9861
389.90 1.023
390.00 1.058
390.10 1.091
390.20 1.121
390.30 1.149
390.40 1.175
390.50 1.199
390.60 1.222
390.70 1.243
390.80 1.263
390.90 1.281
391.00 1.299
391.10 1.316
391.20 1.331
391.30 1.346
391.40 1.36
391.50 1.373
391.60 1.385
391.70 1.396
391.80 1.407
391.90 1.416
392.00 1.424
392.10 1.432
392.20 1.439
392.30 1.444
392.40 1.449
392.50 1.453
392.60 1.455
392.70 1.457
392.80 1.458
392.90 1.458
393.00 1.456
393.10 1.454
393.20 1.451
393.30 1.446
393.40 1.441
393.50 1.435
393.60 1.428
393.70 1.419
393.80 1.41
393.90 1.4
394.00 1.388
394.10 1.376
394.20 1.363
394.30 1.349
394.40 1.333
394.50 1.317
394.60 1.301
394.70 1.283
394.80 1.264
394.90 1.245
395.00 1.225
395.10 1.204
395.20 1.182
395.30 1.159
395.40 1.135
395.50 1.11
395.60 1.083
395.70 1.055
395.80 1.026
395.90 0.9949
396.00 0.9623
396.10 0.9285
396.20 0.8922
396.30 0.855
396.40 0.8166
396.50 0.7779
396.60 0.7399
396.70 0.7026
396.80 0.662
396.90 0.6104
397.00 0.5478
397.10 0.6058
397.20 0.6553
397.30 0.6962
397.40 0.7329
397.50 0.7702
397.60 0.8082
397.70 0.8459
397.80 0.8826
397.90 0.9183
398.00 0.9516
398.10 0.9836
398.20 1.014
398.30 1.043
398.40 1.07
398.50 1.097
398.60 1.121
398.70 1.145
398.80 1.168
398.90 1.19
399.00 1.211
399.10 1.232
399.20 1.252
399.30 1.271
399.40 1.29
399.50 1.308
399.60 1.326
399.70 1.343
399.80 1.359
399.90 1.375
400.00 1.391
400.10 1.405
400.20 1.42
400.30 1.433
400.40 1.446
400.50 1.459
400.60 1.471
400.70 1.483
400.80 1.493
400.90 1.504
401.00 1.514
401.10 1.523
401.20 1.532
401.30 1.54
401.40 1.548
401.50 1.556
401.60 1.563
401.70 1.569
401.80 1.575
401.90 1.581
402.00 1.586
402.10 1.591
402.20 1.595
402.30 1.599
402.40 1.603
402.50 1.606
402.60 1.608
402.70 1.611
402.80 1.612
402.90 1.614
403.00 1.615
403.10 1.616
403.20 1.617
403.30 1.617
403.40 1.616
403.50 1.616
403.60 1.615
403.70 1.614
403.80 1.612
403.90 1.61
404.00 1.607
404.10 1.605
404.20 1.602
404.30 1.598
404.40 1.594
404.50 1.59
404.60 1.585
404.70 1.58
404.80 1.575
404.90 1.569
405.00 1.563
405.10 1.557
405.20 1.549
405.30 1.542
405.40 1.534
405.50 1.526
405.60 1.517
405.70 1.508
405.80 1.498
405.90 1.488
406.00 1.478
406.10 1.467
406.20 1.455
406.30 1.443
406.40 1.431
406.50 1.418
406.60 1.405
406.70 1.391
406.80 1.376
406.90 1.361
407.00 1.346
407.10 1.33
407.20 1.313
407.30 1.296
407.40 1.278
407.50 1.26
407.60 1.241
407.70 1.221
407.80 1.202
407.90 1.181
408.00 1.16
408.10 1.139
408.20 1.118
408.30 1.096
408.40 1.073
408.50 1.05
408.60 1.027
408.70 1.003
408.80 0.9782
408.90 0.9528
409.00 0.9269
409.10 0.8996
409.20 0.8715
409.30 0.8425
409.40 0.8115
409.50 0.7794
409.60 0.7464
409.70 0.7125
409.80 0.6785
409.90 0.6443
410.00 0.6017
410.10 0.5526
410.20 0.497
410.30 0.5697
410.40 0.6246
410.50 0.6617
410.60 0.695
410.70 0.7282
410.80 0.7613
410.90 0.793
411.00 0.8235
411.10 0.8528
411.20 0.8802
411.30 0.9067
411.40 0.9325
411.50 0.9569
411.60 0.9807
411.70 1.004
411.80 1.026
411.90 1.048
412.00 1.07
412.10 1.091
412.20 1.111
412.30 1.131
412.40 1.151
412.50 1.17
412.60 1.189
412.70 1.207
412.80 1.224
412.90 1.242
413.00 1.258
413.10 1.275
413.20 1.29
413.30 1.305
413.40 1.32
413.50 1.334
413.60 1.347
413.70 1.361
413.80 1.373
413.90 1.385
414.00 1.397
414.10 1.408
414.20 1.419
414.30 1.43
414.40 1.44
414.50 1.45
414.60 1.459
414.70 1.468
414.80 1.477
414.90 1.485
415.00 1.493
415.10 1.501
415.20 1.508
415.30 1.515
415.40 1.522
415.50 1.528
415.60 1.534
415.70 1.54
415.80 1.546
415.90 1.551
416.00 1.556
416.10 1.561
416.20 1.566
416.30 1.57
416.40 1.574
416.50 1.578
416.60 1.582
416.70 1.586
416.80 1.589
416.90 1.592
417.00 1.596
417.10 1.598
417.20 1.601
417.30 1.604
417.40 1.606
417.50 1.609
417.60 1.611
417.70 1.613
417.80 1.615
417.90 1.617
418.00 1.619
418.10 1.62
418.20 1.622
418.30 1.623
418.40 1.624
418.50 1.626
418.60 1.627
418.70 1.628
418.80 1.628
418.90 1.629
419.00 1.63
419.10 1.631
419.20 1.631
419.30 1.632
419.40 1.632
419.50 1.633
419.60 1.633
419.70 1.633
419.80 1.633
419.90 1.633
420.00 1.633
420.10 1.633
420.20 1.633
420.30 1.633
420.40 1.633
420.50 1.632
420.60 1.632
420.70 1.632
420.80 1.631
420.90 1.631
421.00 1.63
421.10 1.63
421.20 1.629
421.30 1.628
421.40 1.628
421.50 1.627
421.60 1.626
421.70 1.625
421.80 1.624
421.90 1.623
422.00 1.622
422.10 1.621
422.20 1.62
422.30 1.619
422.40 1.618
422.50 1.616
422.60 1.615
422.70 1.614
422.80 1.612
422.90 1.611
423.00 1.609
423.10 1.608
423.20 1.606
423.30 1.604
423.40 1.603
423.50 1.601
423.60 1.599
423.70 1.597
423.80 1.595
423.90 1.593
424.00 1.591
424.10 1.589
424.20 1.587
424.30 1.585
424.40 1.582
424.50 1.58
424.60 1.578
424.70 1.575
424.80 1.573
424.90 1.57
425.00 1.567
425.10 1.564
425.20 1.562
425.30 1.559
425.40 1.556
425.50 1.552
425.60 1.549
425.70 1.546
425.80 1.543
425.90 1.539
426.00 1.536
426.10 1.532
426.20 1.527
426.30 1.523
426.40 1.519
426.50 1.515
426.60 1.511
426.70 1.507
426.80 1.502
426.90 1.498
427.00 1.493
427.10 1.488
427.20 1.483
427.30 1.478
427.40 1.473
427.50 1.467
427.60 1.462
427.70 1.456
427.80 1.45
427.90 1.444
428.00 1.438
428.10 1.432
428.20 1.425
428.30 1.419
428.40 1.412
428.50 1.405
428.60 1.397
428.70 1.39
428.80 1.382
428.90 1.374
429.00 1.366
429.10 1.358
429.20 1.349
429.30 1.34
429.40 1.331
429.50 1.322
429.60 1.312
429.70 1.302
429.80 1.292
429.90 1.281
430.00 1.271
430.10 1.26
430.20 1.248
430.30 1.237
430.40 1.225
430.50 1.213
430.60 1.2
430.70 1.188
430.80 1.175
430.90 1.162
431.00 1.148
431.10 1.135
431.20 1.121
431.30 1.107
431.40 1.092
431.50 1.078
431.60 1.063
431.70 1.047
431.80 1.031
431.90 1.014
432.00 0.9971
432.10 0.9793
432.20 0.9604
432.30 0.9408
432.40 0.9205
432.50 0.8986
432.60 0.876
432.70 0.8526
432.80 0.8289
432.90 0.8055
433.00 0.7824
433.10 0.7603
433.20 0.738
433.30 0.7154
433.40 0.6906
433.50 0.6646
433.60 0.6375
433.70 0.6089
433.80 0.577
433.90 0.5417
434.00 0.4518
434.10 0.4529
434.20 0.5448
434.30 0.5788
434.40 0.6099
434.50 0.6379
434.60 0.6642
434.70 0.6894
434.80 0.7134
434.90 0.7352
435.00 0.7567
435.10 0.778
435.20 0.8002
435.30 0.8227
435.40 0.8454
435.50 0.8675
435.60 0.8889
435.70 0.9095
435.80 0.9285
435.90 0.9467
436.00 0.9643
436.10 0.9806
436.20 0.9964
436.30 1.012
436.40 1.026
436.50 1.04
436.60 1.054
436.70 1.067
436.80 1.08
436.90 1.092
437.00 1.104
437.10 1.116
437.20 1.128
437.30 1.139
437.40 1.15
437.50 1.161
437.60 1.171
437.70 1.182
437.80 1.192
437.90 1.201
438.00 1.21
438.10 1.22
438.20 1.228
438.30 1.237
438.40 1.245
438.50 1.253
438.60 1.26
438.70 1.268
438.80 1.275
438.90 1.281
439.00 1.288
439.10 1.294
439.20 1.3
439.30 1.306
439.40 1.311
439.50 1.317
439.60 1.322
439.70 1.327
439.80 1.332
439.90 1.336
440.00 1.341
440.10 1.345
440.20 1.349
440.30 1.353
440.40 1.356
440.50 1.36
440.60 1.363
440.70 1.366
440.80 1.37
440.90 1.372
441.00 1.375
441.10 1.378
441.20 1.381
441.30 1.383
441.40 1.385
441.50 1.388
441.60 1.39
441.70 1.392
441.80 1.394
441.90 1.395
442.00 1.397
442.10 1.399
442.20 1.4
442.30 1.402
442.40 1.403
442.50 1.404
442.60 1.406
442.70 1.407
442.80 1.408
442.90 1.409
443.00 1.41
443.10 1.411
443.20 1.411
443.30 1.412
443.40 1.413
443.50 1.413
443.60 1.414
443.70 1.415
443.80 1.415
443.90 1.416
444.00 1.416
444.10 1.416
444.20 1.417
444.30 1.417
444.40 1.417
444.50 1.417
444.60 1.417
444.70 1.418
444.80 1.418
444.90 1.418
445.00 1.418
445.10 1.418
445.20 1.418
445.30 1.418
445.40 1.417
445.50 1.417
445.60 1.417
445.70 1.417
445.80 1.417
445.90 1.417
446.00 1.416
446.10 1.416
446.20 1.416
446.30 1.415
446.40 1.415
446.50 1.415
446.60 1.414
446.70 1.414
446.80 1.414
446.90 1.413
447.00 1.413
447.10 1.412
447.20 1.412
447.30 1.411
447.40 1.411
447.50 1.41
447.60 1.41
447.70 1.409
447.80 1.409
447.90 1.408
448.00 1.408
448.10 1.407
448.20 1.407
448.30 1.406
448.40 1.406
448.50 1.405
448.60 1.404
448.70 1.404
448.80 1.403
448.90 1.402
449.00 1.402
449.10 1.401
449.20 1.401
449.30 1.4
449.40 1.399
449.50 1.399
449.60 1.398
449.70 1.397
449.80 1.397
449.90 1.396
450.00 1.395
450.10 1.395
450.20 1.394
450.30 1.393
450.40 1.392
450.50 1.392
450.60 1.391
450.70 1.39
450.80 1.389
450.90 1.389
451.00 1.388
451.10 1.387
451.20 1.386
451.30 1.386
451.40 1.385
451.50 1.384
451.60 1.383
451.70 1.383
451.80 1.382
451.90 1.381
452.00 1.38
452.10 1.38
452.20 1.379
452.30 1.378
452.40 1.377
452.50 1.376
452.60 1.375
452.70 1.375
452.80 1.374
452.90 1.373
453.00 1.372
453.10 1.371
