# Version 2.1 - nm, norm@500 to 1, cut digits, bergeron_17000_65.dat_17000
# Wavelength(nm)  Flambda(ergs/cm^s/s/nm)
300.00 2.537
300.10 2.535
300.20 2.532
300.30 2.53
300.40 2.528
300.50 2.526
300.60 2.524
300.70 2.522
300.80 2.52
300.90 2.518
301.00 2.516
301.10 2.513
301.20 2.511
301.30 2.509
301.40 2.507
301.50 2.505
301.60 2.503
301.70 2.501
301.80 2.499
301.90 2.497
302.00 2.495
302.10 2.493
302.20 2.491
302.30 2.488
302.40 2.486
302.50 2.484
302.60 2.482
302.70 2.48
302.80 2.478
302.90 2.476
303.00 2.474
303.10 2.472
303.20 2.47
303.30 2.468
303.40 2.466
303.50 2.464
303.60 2.462
303.70 2.46
303.80 2.458
303.90 2.456
304.00 2.454
304.10 2.452
304.20 2.45
304.30 2.448
304.40 2.446
304.50 2.444
304.60 2.441
304.70 2.439
304.80 2.437
304.90 2.435
305.00 2.433
305.10 2.431
305.20 2.429
305.30 2.427
305.40 2.425
305.50 2.423
305.60 2.421
305.70 2.419
305.80 2.417
305.90 2.415
306.00 2.413
306.10 2.411
306.20 2.41
306.30 2.408
306.40 2.406
306.50 2.404
306.60 2.402
306.70 2.4
306.80 2.398
306.90 2.396
307.00 2.394
307.10 2.392
307.20 2.39
307.30 2.388
307.40 2.386
307.50 2.384
307.60 2.382
307.70 2.38
307.80 2.378
307.90 2.376
308.00 2.374
308.10 2.372
308.20 2.37
308.30 2.368
308.40 2.366
308.50 2.364
308.60 2.362
308.70 2.361
308.80 2.359
308.90 2.357
309.00 2.355
309.10 2.353
309.20 2.351
309.30 2.349
309.40 2.347
309.50 2.345
309.60 2.343
309.70 2.341
309.80 2.339
309.90 2.338
310.00 2.336
310.10 2.334
310.20 2.332
310.30 2.33
310.40 2.328
310.50 2.326
310.60 2.324
310.70 2.322
310.80 2.321
310.90 2.319
311.00 2.317
311.10 2.315
311.20 2.313
311.30 2.311
311.40 2.309
311.50 2.307
311.60 2.306
311.70 2.304
311.80 2.302
311.90 2.3
312.00 2.298
312.10 2.296
312.20 2.294
312.30 2.292
312.40 2.291
312.50 2.289
312.60 2.287
312.70 2.285
312.80 2.283
312.90 2.281
313.00 2.279
313.10 2.278
313.20 2.276
313.30 2.274
313.40 2.272
313.50 2.27
313.60 2.268
313.70 2.267
313.80 2.265
313.90 2.263
314.00 2.261
314.10 2.259
314.20 2.257
314.30 2.256
314.40 2.254
314.50 2.252
314.60 2.25
314.70 2.248
314.80 2.247
314.90 2.245
315.00 2.243
315.10 2.241
315.20 2.239
315.30 2.238
315.40 2.236
315.50 2.234
315.60 2.232
315.70 2.23
315.80 2.229
315.90 2.227
316.00 2.225
316.10 2.223
316.20 2.222
316.30 2.22
316.40 2.218
316.50 2.216
316.60 2.214
316.70 2.213
316.80 2.211
316.90 2.209
317.00 2.207
317.10 2.206
317.20 2.204
317.30 2.202
317.40 2.2
317.50 2.199
317.60 2.197
317.70 2.195
317.80 2.193
317.90 2.192
318.00 2.19
318.10 2.188
318.20 2.186
318.30 2.185
318.40 2.183
318.50 2.181
318.60 2.179
318.70 2.178
318.80 2.176
318.90 2.174
319.00 2.172
319.10 2.171
319.20 2.169
319.30 2.167
319.40 2.166
319.50 2.164
319.60 2.162
319.70 2.16
319.80 2.159
319.90 2.157
320.00 2.155
320.10 2.154
320.20 2.152
320.30 2.15
320.40 2.149
320.50 2.147
320.60 2.145
320.70 2.143
320.80 2.142
320.90 2.14
321.00 2.138
321.10 2.137
321.20 2.135
321.30 2.133
321.40 2.132
321.50 2.13
321.60 2.128
321.70 2.126
321.80 2.125
321.90 2.123
322.00 2.121
322.10 2.12
322.20 2.118
322.30 2.116
322.40 2.115
322.50 2.113
322.60 2.111
322.70 2.11
322.80 2.108
322.90 2.106
323.00 2.105
323.10 2.103
323.20 2.102
323.30 2.1
323.40 2.098
323.50 2.097
323.60 2.095
323.70 2.093
323.80 2.092
323.90 2.09
324.00 2.088
324.10 2.087
324.20 2.085
324.30 2.083
324.40 2.082
324.50 2.08
324.60 2.079
324.70 2.077
324.80 2.075
324.90 2.074
325.00 2.072
325.10 2.07
325.20 2.069
325.30 2.067
325.40 2.066
325.50 2.064
325.60 2.062
325.70 2.061
325.80 2.059
325.90 2.058
326.00 2.056
326.10 2.054
326.20 2.053
326.30 2.051
326.40 2.05
326.50 2.048
326.60 2.046
326.70 2.045
326.80 2.043
326.90 2.042
327.00 2.04
327.10 2.038
327.20 2.037
327.30 2.035
327.40 2.034
327.50 2.032
327.60 2.03
327.70 2.029
327.80 2.027
327.90 2.026
328.00 2.024
328.10 2.023
328.20 2.021
328.30 2.019
328.40 2.018
328.50 2.016
328.60 2.015
328.70 2.013
328.80 2.012
328.90 2.01
329.00 2.008
329.10 2.007
329.20 2.005
329.30 2.004
329.40 2.002
329.50 2.001
329.60 1.999
329.70 1.998
329.80 1.996
329.90 1.994
330.00 1.993
330.10 1.991
330.20 1.99
330.30 1.988
330.40 1.987
330.50 1.985
330.60 1.984
330.70 1.982
330.80 1.981
330.90 1.979
331.00 1.978
331.10 1.976
331.20 1.975
331.30 1.973
331.40 1.972
331.50 1.97
331.60 1.969
331.70 1.967
331.80 1.966
331.90 1.964
332.00 1.963
332.10 1.961
332.20 1.96
332.30 1.958
332.40 1.956
332.50 1.955
332.60 1.953
332.70 1.952
332.80 1.95
332.90 1.949
333.00 1.947
333.10 1.946
333.20 1.944
333.30 1.943
333.40 1.941
333.50 1.94
333.60 1.939
333.70 1.937
333.80 1.936
333.90 1.934
334.00 1.933
334.10 1.931
334.20 1.93
334.30 1.928
334.40 1.927
334.50 1.925
334.60 1.924
334.70 1.922
334.80 1.921
334.90 1.919
335.00 1.918
335.10 1.916
335.20 1.915
335.30 1.913
335.40 1.912
335.50 1.911
335.60 1.909
335.70 1.908
335.80 1.906
335.90 1.905
336.00 1.903
336.10 1.902
336.20 1.9
336.30 1.899
336.40 1.898
336.50 1.896
336.60 1.895
336.70 1.893
336.80 1.892
336.90 1.89
337.00 1.889
337.10 1.887
337.20 1.886
337.30 1.885
337.40 1.883
337.50 1.882
337.60 1.88
337.70 1.879
337.80 1.877
337.90 1.876
338.00 1.875
338.10 1.873
338.20 1.872
338.30 1.87
338.40 1.869
338.50 1.868
338.60 1.866
338.70 1.865
338.80 1.863
338.90 1.862
339.00 1.86
339.10 1.859
339.20 1.858
339.30 1.856
339.40 1.855
339.50 1.853
339.60 1.852
339.70 1.851
339.80 1.849
339.90 1.848
340.00 1.846
340.10 1.845
340.20 1.844
340.30 1.842
340.40 1.841
340.50 1.84
340.60 1.838
340.70 1.837
340.80 1.835
340.90 1.834
341.00 1.833
341.10 1.831
341.20 1.83
341.30 1.829
341.40 1.827
341.50 1.826
341.60 1.824
341.70 1.823
341.80 1.822
341.90 1.82
342.00 1.819
342.10 1.818
342.20 1.816
342.30 1.815
342.40 1.813
342.50 1.812
342.60 1.811
342.70 1.809
342.80 1.808
342.90 1.807
343.00 1.805
343.10 1.804
343.20 1.803
343.30 1.801
343.40 1.8
343.50 1.799
343.60 1.797
343.70 1.796
343.80 1.795
343.90 1.793
344.00 1.792
344.10 1.79
344.20 1.789
344.30 1.788
344.40 1.786
344.50 1.785
344.60 1.784
344.70 1.783
344.80 1.781
344.90 1.78
345.00 1.779
345.10 1.777
345.20 1.776
345.30 1.775
345.40 1.773
345.50 1.772
345.60 1.771
345.70 1.769
345.80 1.768
345.90 1.767
346.00 1.765
346.10 1.764
346.20 1.763
346.30 1.761
346.40 1.76
346.50 1.759
346.60 1.757
346.70 1.756
346.80 1.755
346.90 1.754
347.00 1.752
347.10 1.751
347.20 1.75
347.30 1.748
347.40 1.747
347.50 1.746
347.60 1.744
347.70 1.743
347.80 1.742
347.90 1.741
348.00 1.739
348.10 1.738
348.20 1.737
348.30 1.735
348.40 1.734
348.50 1.733
348.60 1.732
348.70 1.73
348.80 1.729
348.90 1.728
349.00 1.726
349.10 1.725
349.20 1.724
349.30 1.723
349.40 1.721
349.50 1.72
349.60 1.719
349.70 1.718
349.80 1.716
349.90 1.715
350.00 1.714
350.10 1.712
350.20 1.711
350.30 1.71
350.40 1.709
350.50 1.707
350.60 1.706
350.70 1.705
350.80 1.704
350.90 1.702
351.00 1.701
351.10 1.7
351.20 1.699
351.30 1.697
351.40 1.696
351.50 1.695
351.60 1.694
351.70 1.692
351.80 1.691
351.90 1.69
352.00 1.689
352.10 1.687
352.20 1.686
352.30 1.685
352.40 1.684
352.50 1.683
352.60 1.681
352.70 1.68
352.80 1.679
352.90 1.678
353.00 1.676
353.10 1.675
353.20 1.674
353.30 1.673
353.40 1.672
353.50 1.67
353.60 1.669
353.70 1.668
353.80 1.667
353.90 1.665
354.00 1.664
354.10 1.663
354.20 1.662
354.30 1.661
354.40 1.659
354.50 1.658
354.60 1.657
354.70 1.656
354.80 1.655
354.90 1.653
355.00 1.652
355.10 1.651
355.20 1.65
355.30 1.649
355.40 1.647
355.50 1.646
355.60 1.645
355.70 1.644
355.80 1.643
355.90 1.641
356.00 1.64
356.10 1.639
356.20 1.638
356.30 1.637
356.40 1.635
356.50 1.634
356.60 1.633
356.70 1.632
356.80 1.631
356.90 1.629
357.00 1.628
357.10 1.627
357.20 1.626
357.30 1.625
357.40 1.623
357.50 1.622
357.60 1.621
357.70 1.62
357.80 1.619
357.90 1.618
358.00 1.616
358.10 1.615
358.20 1.614
358.30 1.613
358.40 1.612
358.50 1.611
358.60 1.609
358.70 1.608
358.80 1.607
358.90 1.606
359.00 1.605
359.10 1.604
359.20 1.602
359.30 1.601
359.40 1.6
359.50 1.599
359.60 1.598
359.70 1.597
359.80 1.596
359.90 1.594
360.00 1.593
360.10 1.592
360.20 1.591
360.30 1.59
360.40 1.589
360.50 1.588
360.60 1.586
360.70 1.585
360.80 1.584
360.90 1.583
361.00 1.582
361.10 1.581
361.20 1.58
361.30 1.578
361.40 1.577
361.50 1.576
361.60 1.575
361.70 1.574
361.80 1.573
361.90 1.572
362.00 1.571
362.10 1.569
362.20 1.568
362.30 1.567
362.40 1.566
362.50 1.565
362.60 1.564
362.70 1.563
362.80 1.562
362.90 1.56
363.00 1.559
363.10 1.558
363.20 1.557
363.30 1.556
363.40 1.555
363.50 1.554
363.60 1.553
363.70 1.551
363.80 1.55
363.90 1.549
364.00 1.548
364.10 1.547
364.20 1.546
364.30 1.545
364.40 1.544
364.50 1.542
364.60 1.541
364.70 1.54
364.80 1.539
364.90 1.538
365.00 1.537
365.10 1.536
365.20 1.535
365.30 1.534
365.40 1.533
365.50 1.532
365.60 1.531
365.70 1.53
365.80 1.529
365.90 1.528
366.00 1.527
366.10 1.526
366.20 1.525
366.30 1.524
366.40 1.523
366.50 1.522
366.60 1.521
366.70 1.52
366.80 1.519
366.90 1.518
367.00 1.517
367.10 1.516
367.20 1.515
367.30 1.514
367.40 1.513
367.50 1.512
367.60 1.511
367.70 1.51
367.80 1.509
367.90 1.508
368.00 1.507
368.10 1.507
368.20 1.508
368.30 1.508
368.40 1.508
368.50 1.509
368.60 1.509
368.70 1.51
368.80 1.51
368.90 1.51
369.00 1.511
369.10 1.511
369.20 1.511
369.30 1.512
369.40 1.512
369.50 1.512
369.60 1.513
369.70 1.513
369.80 1.513
369.90 1.514
370.00 1.514
370.10 1.517
370.20 1.52
370.30 1.523
370.40 1.526
370.50 1.529
370.60 1.532
370.70 1.535
370.80 1.538
370.90 1.541
371.00 1.544
371.10 1.547
371.20 1.55
371.30 1.553
371.40 1.556
371.50 1.559
371.60 1.562
371.70 1.565
371.80 1.568
371.90 1.571
372.00 1.574
372.10 1.58
372.20 1.585
372.30 1.59
372.40 1.596
372.50 1.601
372.60 1.606
372.70 1.611
372.80 1.617
372.90 1.622
373.00 1.627
373.10 1.633
373.20 1.638
373.30 1.643
373.40 1.648
373.50 1.654
373.60 1.659
373.70 1.664
373.80 1.669
373.90 1.674
374.00 1.68
374.10 1.685
374.20 1.69
374.30 1.696
374.40 1.701
374.50 1.706
374.60 1.711
374.70 1.717
374.80 1.722
374.90 1.727
375.00 1.733
375.10 1.738
375.20 1.743
375.30 1.748
375.40 1.754
375.50 1.759
375.60 1.764
375.70 1.769
375.80 1.775
375.90 1.78
376.00 1.785
376.10 1.787
376.20 1.79
376.30 1.792
376.40 1.794
376.50 1.796
376.60 1.799
376.70 1.801
376.80 1.803
376.90 1.805
377.00 1.808
377.10 1.802
377.20 1.797
377.30 1.791
377.40 1.785
377.50 1.78
377.60 1.774
377.70 1.769
377.80 1.763
377.90 1.758
378.00 1.752
378.10 1.724
378.20 1.697
378.30 1.669
378.40 1.641
378.50 1.613
378.60 1.585
378.70 1.558
378.80 1.53
378.90 1.502
379.00 1.475
379.10 1.452
379.20 1.428
379.30 1.405
379.40 1.382
379.50 1.359
379.60 1.336
379.70 1.313
379.80 1.29
379.90 1.267
380.00 1.244
380.10 1.28
380.20 1.316
380.30 1.351
380.40 1.386
380.50 1.422
380.60 1.457
380.70 1.493
380.80 1.528
380.90 1.563
381.00 1.598
381.10 1.614
381.20 1.629
381.30 1.645
381.40 1.66
381.50 1.676
381.60 1.678
381.70 1.675
381.80 1.669
381.90 1.658
382.00 1.643
382.10 1.622
382.20 1.597
382.30 1.554
382.40 1.511
382.50 1.467
382.60 1.424
382.70 1.381
382.80 1.338
382.90 1.295
383.00 1.252
383.10 1.209
383.20 1.166
383.30 1.119
383.40 1.069
383.50 1.016
383.60 1.027
383.70 1.079
383.80 1.127
383.90 1.173
384.00 1.22
384.10 1.267
384.20 1.315
384.30 1.363
384.40 1.412
384.50 1.459
384.60 1.504
384.70 1.546
384.80 1.585
384.90 1.62
385.00 1.651
385.10 1.678
385.20 1.702
385.30 1.724
385.40 1.741
385.50 1.756
385.60 1.769
385.70 1.779
385.80 1.787
385.90 1.793
386.00 1.796
386.10 1.797
386.20 1.797
386.30 1.794
386.40 1.789
386.50 1.782
386.60 1.773
386.70 1.762
386.80 1.749
386.90 1.732
387.00 1.714
387.10 1.694
387.20 1.67
387.30 1.644
387.40 1.615
387.50 1.582
387.60 1.545
387.70 1.506
387.80 1.462
387.90 1.415
388.00 1.365
388.10 1.313
388.20 1.26
388.30 1.206
388.40 1.154
388.50 1.102
388.60 1.051
388.70 0.9969
388.80 0.9391
388.90 0.8772
389.00 0.9345
389.10 0.9896
389.20 1.043
389.30 1.093
389.40 1.144
389.50 1.194
389.60 1.246
389.70 1.298
389.80 1.35
389.90 1.399
390.00 1.446
390.10 1.49
390.20 1.53
390.30 1.568
390.40 1.603
390.50 1.633
390.60 1.662
390.70 1.689
390.80 1.713
390.90 1.735
391.00 1.756
391.10 1.774
391.20 1.791
391.30 1.807
391.40 1.821
391.50 1.835
391.60 1.847
391.70 1.857
391.80 1.867
391.90 1.876
392.00 1.883
392.10 1.89
392.20 1.896
392.30 1.901
392.40 1.904
392.50 1.908
392.60 1.909
392.70 1.911
392.80 1.911
392.90 1.91
393.00 1.909
393.10 1.907
393.20 1.903
393.30 1.899
393.40 1.894
393.50 1.888
393.60 1.881
393.70 1.874
393.80 1.865
393.90 1.855
394.00 1.844
394.10 1.832
394.20 1.819
394.30 1.805
394.40 1.789
394.50 1.772
394.60 1.755
394.70 1.735
394.80 1.714
394.90 1.693
395.00 1.669
395.10 1.644
395.20 1.617
395.30 1.588
395.40 1.558
395.50 1.526
395.60 1.49
395.70 1.453
395.80 1.413
395.90 1.371
396.00 1.326
396.10 1.279
396.20 1.23
396.30 1.179
396.40 1.128
396.50 1.076
396.60 1.025
396.70 0.9748
396.80 0.9205
396.90 0.8519
397.00 0.7691
397.10 0.8455
397.20 0.9108
397.30 0.965
397.40 1.014
397.50 1.064
397.60 1.114
397.70 1.164
397.80 1.213
397.90 1.261
398.00 1.306
398.10 1.349
398.20 1.39
398.30 1.428
398.40 1.464
398.50 1.498
398.60 1.529
398.70 1.558
398.80 1.586
398.90 1.611
399.00 1.634
399.10 1.657
399.20 1.678
399.30 1.698
399.40 1.717
399.50 1.734
399.60 1.75
399.70 1.765
399.80 1.779
399.90 1.793
400.00 1.805
400.10 1.817
400.20 1.828
400.30 1.838
400.40 1.847
400.50 1.855
400.60 1.863
400.70 1.871
400.80 1.877
400.90 1.884
401.00 1.889
401.10 1.895
401.20 1.899
401.30 1.904
401.40 1.908
401.50 1.911
401.60 1.915
401.70 1.918
401.80 1.92
401.90 1.922
402.00 1.924
402.10 1.926
402.20 1.927
402.30 1.929
402.40 1.93
402.50 1.93
402.60 1.931
402.70 1.931
402.80 1.931
402.90 1.931
403.00 1.931
403.10 1.93
403.20 1.929
403.30 1.928
403.40 1.927
403.50 1.926
403.60 1.925
403.70 1.923
403.80 1.921
403.90 1.919
404.00 1.917
404.10 1.915
404.20 1.912
404.30 1.909
404.40 1.906
404.50 1.903
404.60 1.9
404.70 1.897
404.80 1.893
404.90 1.889
405.00 1.885
405.10 1.88
405.20 1.876
405.30 1.87
405.40 1.865
405.50 1.86
405.60 1.854
405.70 1.848
405.80 1.841
405.90 1.834
406.00 1.827
406.10 1.819
406.20 1.811
406.30 1.802
406.40 1.793
406.50 1.784
406.60 1.774
406.70 1.763
406.80 1.752
406.90 1.74
407.00 1.727
407.10 1.713
407.20 1.699
407.30 1.683
407.40 1.667
407.50 1.65
407.60 1.632
407.70 1.613
407.80 1.593
407.90 1.571
408.00 1.549
408.10 1.526
408.20 1.501
408.30 1.476
408.40 1.449
408.50 1.421
408.60 1.392
408.70 1.362
408.80 1.33
408.90 1.296
409.00 1.262
409.10 1.225
409.20 1.187
409.30 1.147
409.40 1.105
409.50 1.061
409.60 1.016
409.70 0.9708
409.80 0.9254
409.90 0.8801
410.00 0.8256
410.10 0.7631
410.20 0.6927
410.30 0.7841
410.40 0.8539
410.50 0.9021
410.60 0.9461
410.70 0.99
410.80 1.034
410.90 1.077
411.00 1.118
411.10 1.158
411.20 1.194
411.30 1.23
411.40 1.264
411.50 1.295
411.60 1.326
411.70 1.355
411.80 1.382
411.90 1.408
412.00 1.433
412.10 1.456
412.20 1.479
412.30 1.5
412.40 1.52
412.50 1.539
412.60 1.557
412.70 1.574
412.80 1.59
412.90 1.605
413.00 1.619
413.10 1.632
413.20 1.644
413.30 1.655
413.40 1.665
413.50 1.675
413.60 1.684
413.70 1.692
413.80 1.7
413.90 1.707
414.00 1.714
414.10 1.72
414.20 1.726
414.30 1.731
414.40 1.737
414.50 1.741
414.60 1.745
414.70 1.749
414.80 1.753
414.90 1.757
415.00 1.76
415.10 1.763
415.20 1.765
415.30 1.768
415.40 1.77
415.50 1.772
415.60 1.774
415.70 1.775
415.80 1.777
415.90 1.778
416.00 1.779
416.10 1.78
416.20 1.781
416.30 1.782
416.40 1.783
416.50 1.784
416.60 1.784
416.70 1.785
416.80 1.785
416.90 1.785
417.00 1.786
417.10 1.786
417.20 1.786
417.30 1.786
417.40 1.786
417.50 1.785
417.60 1.785
417.70 1.785
417.80 1.785
417.90 1.784
418.00 1.784
418.10 1.783
418.20 1.783
418.30 1.783
418.40 1.782
418.50 1.781
418.60 1.781
418.70 1.78
418.80 1.779
418.90 1.779
419.00 1.778
419.10 1.777
419.20 1.776
419.30 1.775
419.40 1.774
419.50 1.774
419.60 1.773
419.70 1.772
419.80 1.771
419.90 1.77
420.00 1.769
420.10 1.768
420.20 1.767
420.30 1.766
420.40 1.765
420.50 1.764
420.60 1.762
420.70 1.761
420.80 1.76
420.90 1.759
421.00 1.758
421.10 1.757
421.20 1.755
421.30 1.754
421.40 1.753
421.50 1.752
421.60 1.75
421.70 1.749
421.80 1.748
421.90 1.747
422.00 1.745
422.10 1.744
422.20 1.743
422.30 1.741
422.40 1.74
422.50 1.739
422.60 1.737
422.70 1.736
422.80 1.734
422.90 1.733
423.00 1.732
423.10 1.73
423.20 1.729
423.30 1.727
423.40 1.726
423.50 1.724
423.60 1.723
423.70 1.721
423.80 1.719
423.90 1.718
424.00 1.716
424.10 1.715
424.20 1.713
424.30 1.711
424.40 1.71
424.50 1.708
424.60 1.706
424.70 1.704
424.80 1.703
424.90 1.701
425.00 1.699
425.10 1.697
425.20 1.695
425.30 1.693
425.40 1.691
425.50 1.689
425.60 1.687
425.70 1.685
425.80 1.683
425.90 1.681
426.00 1.679
426.10 1.677
426.20 1.674
426.30 1.672
426.40 1.67
426.50 1.667
426.60 1.665
426.70 1.662
426.80 1.66
426.90 1.657
427.00 1.654
427.10 1.652
427.20 1.649
427.30 1.646
427.40 1.643
427.50 1.64
427.60 1.637
427.70 1.634
427.80 1.631
427.90 1.627
428.00 1.624
428.10 1.62
428.20 1.617
428.30 1.613
428.40 1.609
428.50 1.605
428.60 1.601
428.70 1.597
428.80 1.592
428.90 1.587
429.00 1.583
429.10 1.578
429.20 1.573
429.30 1.567
429.40 1.562
429.50 1.556
429.60 1.55
429.70 1.544
429.80 1.537
429.90 1.53
430.00 1.523
430.10 1.516
430.20 1.508
430.30 1.5
430.40 1.492
430.50 1.483
430.60 1.474
430.70 1.464
430.80 1.454
430.90 1.444
431.00 1.433
431.10 1.421
431.20 1.41
431.30 1.397
431.40 1.384
431.50 1.37
431.60 1.355
431.70 1.339
431.80 1.323
431.90 1.305
432.00 1.287
432.10 1.268
432.20 1.247
432.30 1.224
432.40 1.201
432.50 1.176
432.60 1.149
432.70 1.121
432.80 1.092
432.90 1.063
433.00 1.033
433.10 1.004
433.20 0.9733
433.30 0.9423
433.40 0.9086
433.50 0.8739
433.60 0.8382
433.70 0.8014
433.80 0.7613
433.90 0.7179
434.00 0.6082
434.10 0.6094
434.20 0.7212
434.30 0.7629
434.40 0.8017
434.50 0.8374
434.60 0.8719
434.70 0.9053
434.80 0.9377
434.90 0.9672
435.00 0.996
435.10 1.024
435.20 1.052
435.30 1.08
435.40 1.107
435.50 1.133
435.60 1.157
435.70 1.181
435.80 1.201
435.90 1.221
436.00 1.24
436.10 1.257
436.20 1.273
436.30 1.288
436.40 1.302
436.50 1.315
436.60 1.328
436.70 1.339
436.80 1.35
436.90 1.36
437.00 1.369
437.10 1.378
437.20 1.386
437.30 1.394
437.40 1.402
437.50 1.409
437.60 1.415
437.70 1.421
437.80 1.427
437.90 1.432
438.00 1.437
438.10 1.442
438.20 1.446
438.30 1.451
438.40 1.454
438.50 1.458
438.60 1.461
438.70 1.464
438.80 1.467
438.90 1.47
439.00 1.473
439.10 1.475
439.20 1.477
439.30 1.479
439.40 1.481
439.50 1.482
439.60 1.484
439.70 1.485
439.80 1.487
439.90 1.488
440.00 1.489
440.10 1.49
440.20 1.491
440.30 1.491
440.40 1.492
440.50 1.492
440.60 1.493
440.70 1.493
440.80 1.494
440.90 1.494
441.00 1.494
441.10 1.494
441.20 1.495
441.30 1.495
441.40 1.495
441.50 1.494
441.60 1.494
441.70 1.494
441.80 1.494
441.90 1.494
442.00 1.494
442.10 1.493
442.20 1.493
442.30 1.493
442.40 1.492
442.50 1.492
442.60 1.491
442.70 1.491
442.80 1.49
442.90 1.49
443.00 1.489
443.10 1.489
443.20 1.488
443.30 1.487
443.40 1.487
443.50 1.486
443.60 1.485
443.70 1.485
443.80 1.484
443.90 1.483
444.00 1.483
444.10 1.482
444.20 1.481
444.30 1.48
444.40 1.479
444.50 1.479
444.60 1.478
444.70 1.477
444.80 1.476
444.90 1.475
445.00 1.475
445.10 1.474
445.20 1.473
445.30 1.472
445.40 1.471
445.50 1.47
445.60 1.469
445.70 1.468
445.80 1.468
445.90 1.467
446.00 1.466
446.10 1.465
446.20 1.464
446.30 1.463
446.40 1.462
446.50 1.461
446.60 1.46
446.70 1.459
446.80 1.458
446.90 1.457
447.00 1.456
447.10 1.455
447.20 1.454
447.30 1.454
447.40 1.453
447.50 1.452
447.60 1.451
447.70 1.45
447.80 1.449
447.90 1.448
448.00 1.447
448.10 1.446
448.20 1.445
448.30 1.444
448.40 1.443
448.50 1.442
448.60 1.441
448.70 1.44
448.80 1.439
448.90 1.438
449.00 1.437
449.10 1.436
449.20 1.435
449.30 1.434
449.40 1.433
449.50 1.432
449.60 1.431
449.70 1.43
449.80 1.429
449.90 1.428
450.00 1.427
450.10 1.426
450.20 1.425
450.30 1.424
450.40 1.423
450.50 1.422
450.60 1.421
450.70 1.42
450.80 1.419
450.90 1.418
451.00 1.417
451.10 1.416
451.20 1.415
451.30 1.414
451.40 1.413
451.50 1.412
451.60 1.411
451.70 1.41
451.80 1.409
451.90 1.408
452.00 1.407
452.10 1.406
452.20 1.405
452.30 1.404
452.40 1.403
452.50 1.402
452.60 1.401
452.70 1.4
452.80 1.399
452.90 1.398
453.00 1.397
453.10 1.396
453.20 1.395
453.30 1.394
453.40 1.393
453.50 1.392
453.60 1.391
453.70 1.39
453.80 1.389
