# Version 2.1 - nm, norm@500 to 1, cut digits, bergeron_4000_75.dat_4000
# Wavelength(nm)  Flambda(ergs/cm^s/s/nm)
300.00 0.1677
300.10 0.168
300.20 0.1683
300.30 0.1687
300.40 0.169
300.50 0.1693
300.60 0.1697
300.70 0.17
300.80 0.1703
300.90 0.1706
301.00 0.171
301.10 0.1713
301.20 0.1716
301.30 0.1719
301.40 0.1722
301.50 0.1726
301.60 0.1729
301.70 0.1732
301.80 0.1735
301.90 0.1739
302.00 0.1742
302.10 0.1745
302.20 0.1748
302.30 0.1752
302.40 0.1755
302.50 0.1758
302.60 0.1762
302.70 0.1765
302.80 0.1768
302.90 0.1772
303.00 0.1775
303.10 0.1778
303.20 0.1781
303.30 0.1785
303.40 0.1788
303.50 0.1791
303.60 0.1795
303.70 0.1798
303.80 0.1801
303.90 0.1804
304.00 0.1808
304.10 0.1811
304.20 0.1814
304.30 0.1818
304.40 0.1821
304.50 0.1825
304.60 0.1828
304.70 0.1831
304.80 0.1835
304.90 0.1838
305.00 0.1841
305.10 0.1845
305.20 0.1848
305.30 0.1852
305.40 0.1855
305.50 0.1858
305.60 0.1862
305.70 0.1865
305.80 0.1868
305.90 0.1872
306.00 0.1875
306.10 0.1878
306.20 0.1882
306.30 0.1885
306.40 0.1889
306.50 0.1892
306.60 0.1896
306.70 0.1899
306.80 0.1902
306.90 0.1906
307.00 0.1909
307.10 0.1913
307.20 0.1916
307.30 0.1919
307.40 0.1923
307.50 0.1926
307.60 0.193
307.70 0.1933
307.80 0.1936
307.90 0.194
308.00 0.1943
308.10 0.1947
308.20 0.195
308.30 0.1954
308.40 0.1957
308.50 0.1961
308.60 0.1964
308.70 0.1968
308.80 0.1971
308.90 0.1975
309.00 0.1978
309.10 0.1982
309.20 0.1985
309.30 0.1989
309.40 0.1992
309.50 0.1995
309.60 0.1999
309.70 0.2002
309.80 0.2006
309.90 0.2009
310.00 0.2013
310.10 0.2016
310.20 0.202
310.30 0.2023
310.40 0.2027
310.50 0.2031
310.60 0.2034
310.70 0.2038
310.80 0.2041
310.90 0.2045
311.00 0.2048
311.10 0.2052
311.20 0.2055
311.30 0.2059
311.40 0.2062
311.50 0.2066
311.60 0.2069
311.70 0.2073
311.80 0.2077
311.90 0.208
312.00 0.2084
312.10 0.2087
312.20 0.2091
312.30 0.2094
312.40 0.2098
312.50 0.2101
312.60 0.2105
312.70 0.2109
312.80 0.2112
312.90 0.2116
313.00 0.2119
313.10 0.2123
313.20 0.2127
313.30 0.213
313.40 0.2134
313.50 0.2137
313.60 0.2141
313.70 0.2144
313.80 0.2148
313.90 0.2152
314.00 0.2155
314.10 0.2159
314.20 0.2162
314.30 0.2166
314.40 0.217
314.50 0.2174
314.60 0.2177
314.70 0.2181
314.80 0.2184
314.90 0.2188
315.00 0.2192
315.10 0.2195
315.20 0.2199
315.30 0.2203
315.40 0.2206
315.50 0.221
315.60 0.2214
315.70 0.2217
315.80 0.2221
315.90 0.2224
316.00 0.2228
316.10 0.2232
316.20 0.2235
316.30 0.2239
316.40 0.2243
316.50 0.2247
316.60 0.225
316.70 0.2254
316.80 0.2258
316.90 0.2261
317.00 0.2265
317.10 0.2269
317.20 0.2273
317.30 0.2276
317.40 0.228
317.50 0.2284
317.60 0.2287
317.70 0.2291
317.80 0.2295
317.90 0.2298
318.00 0.2302
318.10 0.2306
318.20 0.2309
318.30 0.2313
318.40 0.2317
318.50 0.2321
318.60 0.2325
318.70 0.2328
318.80 0.2332
318.90 0.2336
319.00 0.234
319.10 0.2343
319.20 0.2347
319.30 0.2351
319.40 0.2355
319.50 0.2358
319.60 0.2362
319.70 0.2366
319.80 0.2369
319.90 0.2373
320.00 0.2377
320.10 0.2381
320.20 0.2385
320.30 0.2388
320.40 0.2392
320.50 0.2396
320.60 0.24
320.70 0.2404
320.80 0.2408
320.90 0.2411
321.00 0.2415
321.10 0.2419
321.20 0.2423
321.30 0.2426
321.40 0.243
321.50 0.2434
321.60 0.2438
321.70 0.2442
321.80 0.2445
321.90 0.2449
322.00 0.2453
322.10 0.2457
322.20 0.2461
322.30 0.2465
322.40 0.2468
322.50 0.2472
322.60 0.2476
322.70 0.248
322.80 0.2484
322.90 0.2488
323.00 0.2492
323.10 0.2495
323.20 0.2499
323.30 0.2503
323.40 0.2507
323.50 0.2511
323.60 0.2515
323.70 0.2518
323.80 0.2522
323.90 0.2526
324.00 0.253
324.10 0.2534
324.20 0.2538
324.30 0.2542
324.40 0.2546
324.50 0.255
324.60 0.2553
324.70 0.2557
324.80 0.2561
324.90 0.2565
325.00 0.2569
325.10 0.2573
325.20 0.2577
325.30 0.2581
325.40 0.2585
325.50 0.2588
325.60 0.2592
325.70 0.2596
325.80 0.26
325.90 0.2604
326.00 0.2608
326.10 0.2612
326.20 0.2616
326.30 0.262
326.40 0.2624
326.50 0.2628
326.60 0.2632
326.70 0.2636
326.80 0.264
326.90 0.2644
327.00 0.2647
327.10 0.2651
327.20 0.2655
327.30 0.2659
327.40 0.2663
327.50 0.2667
327.60 0.2671
327.70 0.2675
327.80 0.2679
327.90 0.2683
328.00 0.2687
328.10 0.2691
328.20 0.2695
328.30 0.2699
328.40 0.2703
328.50 0.2707
328.60 0.2711
328.70 0.2715
328.80 0.2719
328.90 0.2723
329.00 0.2727
329.10 0.2731
329.20 0.2735
329.30 0.2739
329.40 0.2743
329.50 0.2747
329.60 0.2751
329.70 0.2755
329.80 0.2759
329.90 0.2763
330.00 0.2766
330.10 0.2771
330.20 0.2775
330.30 0.2779
330.40 0.2783
330.50 0.2787
330.60 0.2791
330.70 0.2795
330.80 0.2799
330.90 0.2803
331.00 0.2807
331.10 0.2811
331.20 0.2815
331.30 0.2819
331.40 0.2823
331.50 0.2827
331.60 0.2831
331.70 0.2835
331.80 0.2839
331.90 0.2843
332.00 0.2847
332.10 0.2851
332.20 0.2855
332.30 0.2859
332.40 0.2864
332.50 0.2868
332.60 0.2872
332.70 0.2876
332.80 0.288
332.90 0.2884
333.00 0.2888
333.10 0.2892
333.20 0.2896
333.30 0.29
333.40 0.2904
333.50 0.2909
333.60 0.2913
333.70 0.2917
333.80 0.2921
333.90 0.2925
334.00 0.2929
334.10 0.2933
334.20 0.2937
334.30 0.2941
334.40 0.2945
334.50 0.295
334.60 0.2954
334.70 0.2958
334.80 0.2962
334.90 0.2966
335.00 0.297
335.10 0.2974
335.20 0.2978
335.30 0.2983
335.40 0.2987
335.50 0.2991
335.60 0.2995
335.70 0.2999
335.80 0.3003
335.90 0.3007
336.00 0.3011
336.10 0.3015
336.20 0.302
336.30 0.3024
336.40 0.3028
336.50 0.3032
336.60 0.3036
336.70 0.304
336.80 0.3045
336.90 0.3049
337.00 0.3053
337.10 0.3057
337.20 0.3061
337.30 0.3065
337.40 0.3069
337.50 0.3074
337.60 0.3078
337.70 0.3082
337.80 0.3086
337.90 0.309
338.00 0.3094
338.10 0.3098
338.20 0.3103
338.30 0.3107
338.40 0.3111
338.50 0.3115
338.60 0.3119
338.70 0.3124
338.80 0.3128
338.90 0.3132
339.00 0.3136
339.10 0.3141
339.20 0.3145
339.30 0.3149
339.40 0.3153
339.50 0.3157
339.60 0.3161
339.70 0.3166
339.80 0.317
339.90 0.3174
340.00 0.3178
340.10 0.3182
340.20 0.3187
340.30 0.3191
340.40 0.3195
340.50 0.3199
340.60 0.3204
340.70 0.3208
340.80 0.3212
340.90 0.3216
341.00 0.3221
341.10 0.3225
341.20 0.3229
341.30 0.3233
341.40 0.3238
341.50 0.3242
341.60 0.3246
341.70 0.325
341.80 0.3254
341.90 0.3259
342.00 0.3263
342.10 0.3267
342.20 0.3271
342.30 0.3276
342.40 0.328
342.50 0.3284
342.60 0.3289
342.70 0.3293
342.80 0.3297
342.90 0.3301
343.00 0.3306
343.10 0.331
343.20 0.3314
343.30 0.3318
343.40 0.3323
343.50 0.3327
343.60 0.3331
343.70 0.3335
343.80 0.334
343.90 0.3344
344.00 0.3348
344.10 0.3352
344.20 0.3357
344.30 0.3361
344.40 0.3365
344.50 0.337
344.60 0.3374
344.70 0.3378
344.80 0.3383
344.90 0.3387
345.00 0.3391
345.10 0.3396
345.20 0.34
345.30 0.3404
345.40 0.3409
345.50 0.3413
345.60 0.3417
345.70 0.3421
345.80 0.3426
345.90 0.343
346.00 0.3434
346.10 0.3438
346.20 0.3443
346.30 0.3447
346.40 0.3452
346.50 0.3456
346.60 0.346
346.70 0.3465
346.80 0.3469
346.90 0.3473
347.00 0.3478
347.10 0.3482
347.20 0.3486
347.30 0.3491
347.40 0.3495
347.50 0.3499
347.60 0.3504
347.70 0.3508
347.80 0.3512
347.90 0.3517
348.00 0.3521
348.10 0.3525
348.20 0.353
348.30 0.3534
348.40 0.3538
348.50 0.3543
348.60 0.3547
348.70 0.3552
348.80 0.3556
348.90 0.356
349.00 0.3565
349.10 0.3569
349.20 0.3574
349.30 0.3578
349.40 0.3582
349.50 0.3587
349.60 0.3591
349.70 0.3595
349.80 0.36
349.90 0.3604
350.00 0.3608
350.10 0.3613
350.20 0.3617
350.30 0.3621
350.40 0.3626
350.50 0.363
350.60 0.3635
350.70 0.3639
350.80 0.3644
350.90 0.3648
351.00 0.3652
351.10 0.3657
351.20 0.3661
351.30 0.3666
351.40 0.367
351.50 0.3674
351.60 0.3679
351.70 0.3683
351.80 0.3687
351.90 0.3692
352.00 0.3696
352.10 0.3701
352.20 0.3705
352.30 0.3709
352.40 0.3714
352.50 0.3718
352.60 0.3723
352.70 0.3727
352.80 0.3732
352.90 0.3736
353.00 0.3741
353.10 0.3745
353.20 0.3749
353.30 0.3754
353.40 0.3758
353.50 0.3763
353.60 0.3767
353.70 0.3771
353.80 0.3776
353.90 0.378
354.00 0.3784
354.10 0.3789
354.20 0.3793
354.30 0.3798
354.40 0.3802
354.50 0.3807
354.60 0.3811
354.70 0.3816
354.80 0.382
354.90 0.3825
355.00 0.3829
355.10 0.3834
355.20 0.3838
355.30 0.3843
355.40 0.3847
355.50 0.3851
355.60 0.3856
355.70 0.386
355.80 0.3865
355.90 0.3869
356.00 0.3874
356.10 0.3878
356.20 0.3883
356.30 0.3887
356.40 0.3892
356.50 0.3896
356.60 0.3901
356.70 0.3905
356.80 0.391
356.90 0.3914
357.00 0.3918
357.10 0.3923
357.20 0.3927
357.30 0.3932
357.40 0.3936
357.50 0.3941
357.60 0.3945
357.70 0.395
357.80 0.3954
357.90 0.3958
358.00 0.3963
358.10 0.3967
358.20 0.3972
358.30 0.3977
358.40 0.3981
358.50 0.3986
358.60 0.399
358.70 0.3995
358.80 0.3999
358.90 0.4004
359.00 0.4008
359.10 0.4013
359.20 0.4017
359.30 0.4022
359.40 0.4026
359.50 0.4031
359.60 0.4035
359.70 0.4039
359.80 0.4044
359.90 0.4048
360.00 0.4053
360.10 0.4057
360.20 0.4062
360.30 0.4067
360.40 0.4071
360.50 0.4076
360.60 0.408
360.70 0.4085
360.80 0.4089
360.90 0.4094
361.00 0.4098
361.10 0.4103
361.20 0.4107
361.30 0.4112
361.40 0.4116
361.50 0.4121
361.60 0.4125
361.70 0.413
361.80 0.4134
361.90 0.4139
362.00 0.4143
362.10 0.4148
362.20 0.4152
362.30 0.4157
362.40 0.4161
362.50 0.4166
362.60 0.4171
362.70 0.4175
362.80 0.418
362.90 0.4184
363.00 0.4189
363.10 0.4193
363.20 0.4198
363.30 0.4202
363.40 0.4207
363.50 0.4212
363.60 0.4216
363.70 0.4221
363.80 0.4225
363.90 0.423
364.00 0.4234
364.10 0.4239
364.20 0.4243
364.30 0.4248
364.40 0.4252
364.50 0.4257
364.60 0.4261
364.70 0.4266
364.80 0.427
364.90 0.4275
365.00 0.428
365.10 0.4284
365.20 0.4289
365.30 0.4293
365.40 0.4298
365.50 0.4302
365.60 0.4307
365.70 0.4312
365.80 0.4316
365.90 0.4321
366.00 0.4325
366.10 0.433
366.20 0.4334
366.30 0.4339
366.40 0.4344
366.50 0.4348
366.60 0.4353
366.70 0.4357
366.80 0.4362
366.90 0.4367
367.00 0.4371
367.10 0.4376
367.20 0.438
367.30 0.4385
367.40 0.4389
367.50 0.4394
367.60 0.4399
367.70 0.4403
367.80 0.4408
367.90 0.4412
368.00 0.4417
368.10 0.4421
368.20 0.4426
368.30 0.4431
368.40 0.4435
368.50 0.444
368.60 0.4444
368.70 0.4449
368.80 0.4454
368.90 0.4458
369.00 0.4463
369.10 0.4468
369.20 0.4472
369.30 0.4477
369.40 0.4481
369.50 0.4486
369.60 0.449
369.70 0.4495
369.80 0.4499
369.90 0.4504
370.00 0.4509
370.10 0.4513
370.20 0.4518
370.30 0.4523
370.40 0.4527
370.50 0.4532
370.60 0.4536
370.70 0.4541
370.80 0.4546
370.90 0.455
371.00 0.4555
371.10 0.456
371.20 0.4564
371.30 0.4569
371.40 0.4573
371.50 0.4578
371.60 0.4583
371.70 0.4587
371.80 0.4592
371.90 0.4596
372.00 0.4601
372.10 0.4606
372.20 0.461
372.30 0.4615
372.40 0.4619
372.50 0.4624
372.60 0.4629
372.70 0.4633
372.80 0.4638
372.90 0.4643
373.00 0.4647
373.10 0.4652
373.20 0.4656
373.30 0.4661
373.40 0.4666
373.50 0.467
373.60 0.4675
373.70 0.4679
373.80 0.4684
373.90 0.4689
374.00 0.4693
374.10 0.4698
374.20 0.4702
374.30 0.4707
374.40 0.4712
374.50 0.4717
374.60 0.4721
374.70 0.4726
374.80 0.473
374.90 0.4735
375.00 0.474
375.10 0.4744
375.20 0.4749
375.30 0.4754
375.40 0.4758
375.50 0.4763
375.60 0.4767
375.70 0.4772
375.80 0.4777
375.90 0.4781
376.00 0.4786
376.10 0.479
376.20 0.4795
376.30 0.48
376.40 0.4804
376.50 0.4809
376.60 0.4814
376.70 0.4818
376.80 0.4823
376.90 0.4827
377.00 0.4832
377.10 0.4837
377.20 0.4841
377.30 0.4846
377.40 0.4851
377.50 0.4855
377.60 0.486
377.70 0.4865
377.80 0.4869
377.90 0.4874
378.00 0.4878
378.10 0.4883
378.20 0.4888
378.30 0.4892
378.40 0.4897
378.50 0.4902
378.60 0.4906
378.70 0.4911
378.80 0.4916
378.90 0.492
379.00 0.4925
379.10 0.493
379.20 0.4934
379.30 0.4939
379.40 0.4944
379.50 0.4948
379.60 0.4953
379.70 0.4958
379.80 0.4962
379.90 0.4967
380.00 0.4971
380.10 0.4976
380.20 0.4981
380.30 0.4986
380.40 0.499
380.50 0.4995
380.60 0.5
380.70 0.5004
380.80 0.5009
380.90 0.5013
381.00 0.5018
381.10 0.5023
381.20 0.5027
381.30 0.5032
381.40 0.5037
381.50 0.5041
381.60 0.5046
381.70 0.5051
381.80 0.5055
381.90 0.506
382.00 0.5065
382.10 0.5069
382.20 0.5074
382.30 0.5079
382.40 0.5083
382.50 0.5088
382.60 0.5093
382.70 0.5097
382.80 0.5102
382.90 0.5107
383.00 0.5111
383.10 0.5116
383.20 0.512
383.30 0.5125
383.40 0.513
383.50 0.5134
383.60 0.5139
383.70 0.5144
383.80 0.5149
383.90 0.5153
384.00 0.5158
384.10 0.5163
384.20 0.5167
384.30 0.5172
384.40 0.5177
384.50 0.5181
384.60 0.5186
384.70 0.5191
384.80 0.5195
384.90 0.52
385.00 0.5204
385.10 0.5209
385.20 0.5214
385.30 0.5218
385.40 0.5223
385.50 0.5228
385.60 0.5232
385.70 0.5237
385.80 0.5242
385.90 0.5246
386.00 0.5251
386.10 0.5256
386.20 0.526
386.30 0.5265
386.40 0.527
386.50 0.5274
386.60 0.5279
386.70 0.5284
386.80 0.5288
386.90 0.5293
387.00 0.5298
387.10 0.5302
387.20 0.5307
387.30 0.5312
387.40 0.5317
387.50 0.5321
387.60 0.5326
387.70 0.533
387.80 0.5335
387.90 0.534
388.00 0.5344
388.10 0.5349
388.20 0.5354
388.30 0.5358
388.40 0.5363
388.50 0.5368
388.60 0.5373
388.70 0.5377
388.80 0.5382
388.90 0.5386
389.00 0.5391
389.10 0.5396
389.20 0.54
389.30 0.5405
389.40 0.541
389.50 0.5414
389.60 0.5419
389.70 0.5424
389.80 0.5429
389.90 0.5433
390.00 0.5438
390.10 0.5442
390.20 0.5447
390.30 0.5452
390.40 0.5457
390.50 0.5461
390.60 0.5466
390.70 0.5471
390.80 0.5475
390.90 0.548
391.00 0.5484
391.10 0.5489
391.20 0.5494
391.30 0.5499
391.40 0.5503
391.50 0.5508
391.60 0.5513
391.70 0.5517
391.80 0.5522
391.90 0.5527
392.00 0.5531
392.10 0.5536
392.20 0.5541
392.30 0.5545
392.40 0.555
392.50 0.5555
392.60 0.5559
392.70 0.5564
392.80 0.5568
392.90 0.5573
393.00 0.5578
393.10 0.5583
393.20 0.5587
393.30 0.5592
393.40 0.5597
393.50 0.5601
393.60 0.5606
393.70 0.5611
393.80 0.5615
393.90 0.562
394.00 0.5625
394.10 0.5629
394.20 0.5634
394.30 0.5639
394.40 0.5643
394.50 0.5648
394.60 0.5653
394.70 0.5657
394.80 0.5662
394.90 0.5667
395.00 0.5671
395.10 0.5676
395.20 0.5681
395.30 0.5685
395.40 0.569
395.50 0.5695
395.60 0.5699
395.70 0.5704
395.80 0.5708
395.90 0.5713
396.00 0.5718
396.10 0.5723
396.20 0.5727
396.30 0.5732
396.40 0.5737
396.50 0.5741
396.60 0.5746
396.70 0.575
396.80 0.5755
396.90 0.576
397.00 0.5765
397.10 0.5769
397.20 0.5774
397.30 0.5779
397.40 0.5783
397.50 0.5788
397.60 0.5793
397.70 0.5797
397.80 0.5802
397.90 0.5806
398.00 0.5811
398.10 0.5816
398.20 0.582
398.30 0.5825
398.40 0.583
398.50 0.5834
398.60 0.5839
398.70 0.5844
398.80 0.5848
398.90 0.5853
399.00 0.5858
399.10 0.5862
399.20 0.5867
399.30 0.5872
399.40 0.5876
399.50 0.5881
399.60 0.5886
399.70 0.589
399.80 0.5895
399.90 0.59
400.00 0.5904
400.10 0.5909
400.20 0.5914
400.30 0.5918
400.40 0.5923
400.50 0.5928
400.60 0.5932
400.70 0.5937
400.80 0.5942
400.90 0.5946
401.00 0.5951
401.10 0.5955
401.20 0.596
401.30 0.5965
401.40 0.5969
401.50 0.5974
401.60 0.5979
401.70 0.5983
401.80 0.5988
401.90 0.5993
402.00 0.5997
402.10 0.6002
402.20 0.6007
402.30 0.6011
402.40 0.6016
402.50 0.602
402.60 0.6025
402.70 0.603
402.80 0.6034
402.90 0.6039
403.00 0.6044
403.10 0.6048
403.20 0.6053
403.30 0.6058
403.40 0.6062
403.50 0.6067
403.60 0.6072
403.70 0.6076
403.80 0.6081
403.90 0.6086
404.00 0.609
404.10 0.6095
404.20 0.6099
404.30 0.6104
404.40 0.6109
404.50 0.6113
404.60 0.6118
404.70 0.6123
404.80 0.6127
404.90 0.6132
405.00 0.6136
405.10 0.6141
405.20 0.6146
405.30 0.615
405.40 0.6155
405.50 0.616
405.60 0.6164
405.70 0.6169
405.80 0.6174
405.90 0.6178
406.00 0.6183
406.10 0.6187
406.20 0.6192
406.30 0.6197
406.40 0.6201
406.50 0.6206
406.60 0.6211
406.70 0.6215
406.80 0.622
406.90 0.6224
407.00 0.6229
407.10 0.6234
407.20 0.6238
407.30 0.6243
407.40 0.6247
407.50 0.6252
407.60 0.6257
407.70 0.6261
407.80 0.6266
407.90 0.6271
408.00 0.6275
408.10 0.628
408.20 0.6284
408.30 0.6289
408.40 0.6294
408.50 0.6298
408.60 0.6303
408.70 0.6308
408.80 0.6312
408.90 0.6317
409.00 0.6321
409.10 0.6326
409.20 0.6331
409.30 0.6335
409.40 0.634
409.50 0.6344
409.60 0.6349
409.70 0.6354
409.80 0.6358
409.90 0.6363
410.00 0.6367
410.10 0.6372
410.20 0.6377
410.30 0.6381
410.40 0.6386
410.50 0.6391
410.60 0.6395
410.70 0.64
410.80 0.6404
410.90 0.6409
411.00 0.6413
411.10 0.6418
411.20 0.6423
411.30 0.6427
411.40 0.6432
411.50 0.6437
411.60 0.6441
411.70 0.6446
411.80 0.645
411.90 0.6455
412.00 0.646
412.10 0.6464
412.20 0.6469
412.30 0.6473
412.40 0.6478
412.50 0.6482
412.60 0.6487
412.70 0.6492
412.80 0.6496
412.90 0.6501
413.00 0.6505
413.10 0.651
413.20 0.6515
413.30 0.6519
413.40 0.6524
413.50 0.6528
413.60 0.6533
413.70 0.6538
413.80 0.6542
413.90 0.6547
414.00 0.6551
414.10 0.6556
414.20 0.656
414.30 0.6565
414.40 0.657
414.50 0.6574
414.60 0.6579
414.70 0.6583
414.80 0.6588
414.90 0.6592
415.00 0.6597
415.10 0.6602
415.20 0.6606
415.30 0.6611
415.40 0.6615
415.50 0.662
415.60 0.6624
415.70 0.6629
415.80 0.6633
415.90 0.6638
416.00 0.6643
416.10 0.6647
416.20 0.6652
416.30 0.6656
416.40 0.6661
416.50 0.6665
416.60 0.667
416.70 0.6675
416.80 0.6679
416.90 0.6684
417.00 0.6688
417.10 0.6693
417.20 0.6697
417.30 0.6702
417.40 0.6706
417.50 0.6711
417.60 0.6716
417.70 0.672
417.80 0.6725
417.90 0.6729
418.00 0.6734
418.10 0.6738
418.20 0.6743
418.30 0.6748
418.40 0.6752
418.50 0.6757
418.60 0.6761
418.70 0.6766
418.80 0.677
418.90 0.6775
419.00 0.6779
419.10 0.6784
419.20 0.6788
419.30 0.6793
419.40 0.6797
419.50 0.6802
419.60 0.6807
419.70 0.6811
419.80 0.6816
419.90 0.682
420.00 0.6825
420.10 0.6829
420.20 0.6834
420.30 0.6838
420.40 0.6843
420.50 0.6847
420.60 0.6852
420.70 0.6856
420.80 0.6861
420.90 0.6865
421.00 0.687
421.10 0.6874
421.20 0.6879
421.30 0.6883
421.40 0.6888
421.50 0.6893
421.60 0.6897
421.70 0.6902
421.80 0.6906
421.90 0.6911
422.00 0.6915
422.10 0.692
422.20 0.6924
422.30 0.6929
422.40 0.6933
422.50 0.6938
422.60 0.6942
422.70 0.6947
422.80 0.6951
422.90 0.6956
423.00 0.696
423.10 0.6965
423.20 0.6969
423.30 0.6974
423.40 0.6978
423.50 0.6983
423.60 0.6987
423.70 0.6992
423.80 0.6996
423.90 0.7001
424.00 0.7005
424.10 0.701
424.20 0.7014
424.30 0.7019
424.40 0.7023
424.50 0.7028
424.60 0.7032
424.70 0.7037
424.80 0.7041
424.90 0.7046
425.00 0.705
425.10 0.7055
425.20 0.7059
425.30 0.7064
425.40 0.7068
425.50 0.7072
425.60 0.7077
425.70 0.7081
425.80 0.7086
425.90 0.709
426.00 0.7095
426.10 0.7099
426.20 0.7104
426.30 0.7108
426.40 0.7113
426.50 0.7117
426.60 0.7122
426.70 0.7126
426.80 0.7131
426.90 0.7135
427.00 0.714
427.10 0.7144
427.20 0.7148
427.30 0.7153
427.40 0.7157
427.50 0.7162
427.60 0.7166
427.70 0.7171
427.80 0.7175
427.90 0.718
428.00 0.7184
428.10 0.7189
428.20 0.7193
428.30 0.7198
428.40 0.7202
428.50 0.7206
428.60 0.7211
428.70 0.7215
428.80 0.722
428.90 0.7224
429.00 0.7229
429.10 0.7233
429.20 0.7237
429.30 0.7242
429.40 0.7246
429.50 0.7251
429.60 0.7255
429.70 0.726
429.80 0.7264
429.90 0.7269
430.00 0.7273
430.10 0.7277
430.20 0.7282
430.30 0.7286
430.40 0.7291
430.50 0.7295
430.60 0.7299
430.70 0.7304
430.80 0.7308
430.90 0.7313
431.00 0.7317
431.10 0.7322
431.20 0.7326
431.30 0.733
431.40 0.7335
431.50 0.7339
431.60 0.7344
431.70 0.7348
431.80 0.7353
431.90 0.7357
432.00 0.7361
432.10 0.7366
432.20 0.737
432.30 0.7375
432.40 0.7379
432.50 0.7383
432.60 0.7388
432.70 0.7392
432.80 0.7397
432.90 0.7401
433.00 0.7405
433.10 0.741
433.20 0.7414
433.30 0.7419
433.40 0.7423
433.50 0.7427
433.60 0.7432
433.70 0.7436
433.80 0.744
433.90 0.7445
434.00 0.7449
434.10 0.7453
434.20 0.7458
434.30 0.7462
434.40 0.7467
434.50 0.7471
434.60 0.7476
434.70 0.748
434.80 0.7484
434.90 0.7489
435.00 0.7493
435.10 0.7498
435.20 0.7502
435.30 0.7506
435.40 0.7511
435.50 0.7515
435.60 0.7519
435.70 0.7524
435.80 0.7528
435.90 0.7532
436.00 0.7537
436.10 0.7541
436.20 0.7545
436.30 0.755
436.40 0.7554
436.50 0.7558
436.60 0.7563
436.70 0.7567
436.80 0.7572
436.90 0.7576
437.00 0.758
437.10 0.7585
437.20 0.7589
437.30 0.7593
437.40 0.7598
437.50 0.7602
437.60 0.7606
437.70 0.7611
437.80 0.7615
437.90 0.7619
438.00 0.7624
438.10 0.7628
438.20 0.7632
438.30 0.7637
438.40 0.7641
438.50 0.7645
438.60 0.765
438.70 0.7654
438.80 0.7658
438.90 0.7663
439.00 0.7667
439.10 0.7671
439.20 0.7676
439.30 0.768
439.40 0.7684
439.50 0.7689
439.60 0.7693
439.70 0.7697
439.80 0.7701
439.90 0.7706
440.00 0.771
440.10 0.7714
440.20 0.7719
440.30 0.7723
440.40 0.7727
440.50 0.7732
440.60 0.7736
440.70 0.774
440.80 0.7744
440.90 0.7749
441.00 0.7753
441.10 0.7757
441.20 0.7762
441.30 0.7766
441.40 0.777
441.50 0.7775
441.60 0.7779
441.70 0.7783
441.80 0.7787
441.90 0.7792
442.00 0.7796
442.10 0.78
442.20 0.7805
442.30 0.7809
442.40 0.7813
442.50 0.7817
442.60 0.7822
442.70 0.7826
442.80 0.783
442.90 0.7835
443.00 0.7839
