# Version 2.1 - nm, norm@500 to 1, cut digits, bergeron_90000_80.dat_90000
# Wavelength(nm)  Flambda(ergs/cm^s/s/nm)
300.00 6.76
300.10 6.751
300.20 6.743
300.30 6.735
300.40 6.726
300.50 6.718
300.60 6.709
300.70 6.701
300.80 6.693
300.90 6.684
301.00 6.676
301.10 6.668
301.20 6.66
301.30 6.651
301.40 6.643
301.50 6.635
301.60 6.626
301.70 6.618
301.80 6.61
301.90 6.602
302.00 6.594
302.10 6.585
302.20 6.577
302.30 6.569
302.40 6.561
302.50 6.553
302.60 6.545
302.70 6.537
302.80 6.528
302.90 6.52
303.00 6.512
303.10 6.504
303.20 6.496
303.30 6.488
303.40 6.48
303.50 6.472
303.60 6.464
303.70 6.456
303.80 6.448
303.90 6.44
304.00 6.432
304.10 6.424
304.20 6.416
304.30 6.409
304.40 6.401
304.50 6.393
304.60 6.385
304.70 6.377
304.80 6.369
304.90 6.361
305.00 6.354
305.10 6.346
305.20 6.338
305.30 6.33
305.40 6.322
305.50 6.315
305.60 6.307
305.70 6.299
305.80 6.291
305.90 6.284
306.00 6.276
306.10 6.268
306.20 6.261
306.30 6.253
306.40 6.245
306.50 6.238
306.60 6.23
306.70 6.222
306.80 6.215
306.90 6.207
307.00 6.2
307.10 6.192
307.20 6.184
307.30 6.177
307.40 6.169
307.50 6.162
307.60 6.154
307.70 6.147
307.80 6.139
307.90 6.132
308.00 6.124
308.10 6.117
308.20 6.109
308.30 6.102
308.40 6.095
308.50 6.087
308.60 6.08
308.70 6.072
308.80 6.065
308.90 6.058
309.00 6.05
309.10 6.043
309.20 6.036
309.30 6.028
309.40 6.021
309.50 6.014
309.60 6.006
309.70 5.999
309.80 5.992
309.90 5.985
310.00 5.977
310.10 5.97
310.20 5.963
310.30 5.956
310.40 5.948
310.50 5.941
310.60 5.934
310.70 5.927
310.80 5.92
310.90 5.913
311.00 5.905
311.10 5.898
311.20 5.891
311.30 5.884
311.40 5.877
311.50 5.87
311.60 5.863
311.70 5.856
311.80 5.849
311.90 5.842
312.00 5.835
312.10 5.828
312.20 5.821
312.30 5.814
312.40 5.807
312.50 5.8
312.60 5.793
312.70 5.786
312.80 5.779
312.90 5.772
313.00 5.765
313.10 5.758
313.20 5.751
313.30 5.744
313.40 5.737
313.50 5.73
313.60 5.724
313.70 5.717
313.80 5.71
313.90 5.703
314.00 5.696
314.10 5.689
314.20 5.683
314.30 5.676
314.40 5.669
314.50 5.662
314.60 5.655
314.70 5.649
314.80 5.642
314.90 5.635
315.00 5.629
315.10 5.622
315.20 5.615
315.30 5.608
315.40 5.602
315.50 5.595
315.60 5.588
315.70 5.582
315.80 5.575
315.90 5.569
316.00 5.562
316.10 5.555
316.20 5.549
316.30 5.542
316.40 5.535
316.50 5.529
316.60 5.522
316.70 5.516
316.80 5.509
316.90 5.503
317.00 5.496
317.10 5.49
317.20 5.483
317.30 5.477
317.40 5.47
317.50 5.464
317.60 5.457
317.70 5.451
317.80 5.444
317.90 5.438
318.00 5.432
318.10 5.425
318.20 5.419
318.30 5.412
318.40 5.406
318.50 5.4
318.60 5.393
318.70 5.387
318.80 5.38
318.90 5.374
319.00 5.368
319.10 5.361
319.20 5.355
319.30 5.349
319.40 5.343
319.50 5.336
319.60 5.33
319.70 5.324
319.80 5.317
319.90 5.311
320.00 5.305
320.10 5.299
320.20 5.293
320.30 5.286
320.40 5.28
320.50 5.274
320.60 5.268
320.70 5.262
320.80 5.255
320.90 5.249
321.00 5.243
321.10 5.237
321.20 5.231
321.30 5.225
321.40 5.219
321.50 5.212
321.60 5.206
321.70 5.2
321.80 5.194
321.90 5.188
322.00 5.182
322.10 5.176
322.20 5.17
322.30 5.164
322.40 5.158
322.50 5.152
322.60 5.146
322.70 5.14
322.80 5.134
322.90 5.128
323.00 5.122
323.10 5.116
323.20 5.11
323.30 5.104
323.40 5.098
323.50 5.092
323.60 5.086
323.70 5.08
323.80 5.075
323.90 5.069
324.00 5.063
324.10 5.057
324.20 5.051
324.30 5.045
324.40 5.039
324.50 5.033
324.60 5.028
324.70 5.022
324.80 5.016
324.90 5.01
325.00 5.004
325.10 4.999
325.20 4.993
325.30 4.987
325.40 4.981
325.50 4.976
325.60 4.97
325.70 4.964
325.80 4.958
325.90 4.953
326.00 4.947
326.10 4.941
326.20 4.935
326.30 4.93
326.40 4.924
326.50 4.918
326.60 4.913
326.70 4.907
326.80 4.901
326.90 4.896
327.00 4.89
327.10 4.885
327.20 4.879
327.30 4.873
327.40 4.868
327.50 4.862
327.60 4.857
327.70 4.851
327.80 4.845
327.90 4.84
328.00 4.834
328.10 4.829
328.20 4.823
328.30 4.818
328.40 4.812
328.50 4.807
328.60 4.801
328.70 4.796
328.80 4.79
328.90 4.785
329.00 4.779
329.10 4.774
329.20 4.768
329.30 4.763
329.40 4.757
329.50 4.752
329.60 4.746
329.70 4.741
329.80 4.736
329.90 4.73
330.00 4.725
330.10 4.719
330.20 4.714
330.30 4.709
330.40 4.703
330.50 4.698
330.60 4.693
330.70 4.687
330.80 4.682
330.90 4.677
331.00 4.671
331.10 4.666
331.20 4.661
331.30 4.655
331.40 4.65
331.50 4.645
331.60 4.64
331.70 4.634
331.80 4.629
331.90 4.624
332.00 4.619
332.10 4.613
332.20 4.608
332.30 4.603
332.40 4.598
332.50 4.592
332.60 4.587
332.70 4.582
332.80 4.577
332.90 4.572
333.00 4.567
333.10 4.561
333.20 4.556
333.30 4.551
333.40 4.546
333.50 4.541
333.60 4.536
333.70 4.531
333.80 4.525
333.90 4.52
334.00 4.515
334.10 4.51
334.20 4.505
334.30 4.5
334.40 4.495
334.50 4.49
334.60 4.485
334.70 4.48
334.80 4.475
334.90 4.47
335.00 4.465
335.10 4.46
335.20 4.455
335.30 4.45
335.40 4.445
335.50 4.44
335.60 4.435
335.70 4.43
335.80 4.425
335.90 4.42
336.00 4.415
336.10 4.41
336.20 4.405
336.30 4.4
336.40 4.395
336.50 4.39
336.60 4.385
336.70 4.38
336.80 4.375
336.90 4.371
337.00 4.366
337.10 4.361
337.20 4.356
337.30 4.351
337.40 4.346
337.50 4.341
337.60 4.336
337.70 4.332
337.80 4.327
337.90 4.322
338.00 4.317
338.10 4.312
338.20 4.307
338.30 4.303
338.40 4.298
338.50 4.293
338.60 4.288
338.70 4.284
338.80 4.279
338.90 4.274
339.00 4.269
339.10 4.265
339.20 4.26
339.30 4.255
339.40 4.25
339.50 4.246
339.60 4.241
339.70 4.236
339.80 4.232
339.90 4.227
340.00 4.222
340.10 4.217
340.20 4.213
340.30 4.208
340.40 4.203
340.50 4.199
340.60 4.194
340.70 4.19
340.80 4.185
340.90 4.18
341.00 4.176
341.10 4.171
341.20 4.166
341.30 4.162
341.40 4.157
341.50 4.153
341.60 4.148
341.70 4.143
341.80 4.139
341.90 4.134
342.00 4.13
342.10 4.125
342.20 4.121
342.30 4.116
342.40 4.112
342.50 4.107
342.60 4.103
342.70 4.098
342.80 4.094
342.90 4.089
343.00 4.085
343.10 4.08
343.20 4.076
343.30 4.071
343.40 4.067
343.50 4.062
343.60 4.058
343.70 4.053
343.80 4.049
343.90 4.044
344.00 4.04
344.10 4.035
344.20 4.031
344.30 4.027
344.40 4.022
344.50 4.018
344.60 4.013
344.70 4.009
344.80 4.005
344.90 4
345.00 3.996
345.10 3.992
345.20 3.987
345.30 3.983
345.40 3.979
345.50 3.974
345.60 3.97
345.70 3.965
345.80 3.961
345.90 3.957
346.00 3.952
346.10 3.948
346.20 3.944
346.30 3.94
346.40 3.935
346.50 3.931
346.60 3.927
346.70 3.923
346.80 3.918
346.90 3.914
347.00 3.91
347.10 3.905
347.20 3.901
347.30 3.897
347.40 3.893
347.50 3.889
347.60 3.884
347.70 3.88
347.80 3.876
347.90 3.872
348.00 3.867
348.10 3.863
348.20 3.859
348.30 3.855
348.40 3.851
348.50 3.847
348.60 3.842
348.70 3.838
348.80 3.834
348.90 3.83
349.00 3.826
349.10 3.822
349.20 3.818
349.30 3.813
349.40 3.809
349.50 3.805
349.60 3.801
349.70 3.797
349.80 3.793
349.90 3.789
350.00 3.785
350.10 3.781
350.20 3.777
350.30 3.772
350.40 3.768
350.50 3.764
350.60 3.76
350.70 3.756
350.80 3.752
350.90 3.748
351.00 3.744
351.10 3.74
351.20 3.736
351.30 3.732
351.40 3.728
351.50 3.724
351.60 3.72
351.70 3.716
351.80 3.712
351.90 3.708
352.00 3.704
352.10 3.7
352.20 3.696
352.30 3.692
352.40 3.688
352.50 3.684
352.60 3.68
352.70 3.676
352.80 3.673
352.90 3.669
353.00 3.665
353.10 3.661
353.20 3.657
353.30 3.653
353.40 3.649
353.50 3.645
353.60 3.641
353.70 3.637
353.80 3.633
353.90 3.63
354.00 3.626
354.10 3.622
354.20 3.618
354.30 3.614
354.40 3.61
354.50 3.606
354.60 3.603
354.70 3.599
354.80 3.595
354.90 3.591
355.00 3.587
355.10 3.584
355.20 3.58
355.30 3.576
355.40 3.572
355.50 3.568
355.60 3.564
355.70 3.561
355.80 3.557
355.90 3.553
356.00 3.549
356.10 3.546
356.20 3.542
356.30 3.538
356.40 3.534
356.50 3.531
356.60 3.527
356.70 3.523
356.80 3.519
356.90 3.516
357.00 3.512
357.10 3.508
357.20 3.505
357.30 3.501
357.40 3.497
357.50 3.493
357.60 3.49
357.70 3.486
357.80 3.482
357.90 3.479
358.00 3.475
358.10 3.471
358.20 3.468
358.30 3.464
358.40 3.46
358.50 3.457
358.60 3.453
358.70 3.449
358.80 3.446
358.90 3.442
359.00 3.439
359.10 3.435
359.20 3.431
359.30 3.428
359.40 3.424
359.50 3.421
359.60 3.417
359.70 3.413
359.80 3.41
359.90 3.406
360.00 3.403
360.10 3.399
360.20 3.395
360.30 3.392
360.40 3.388
360.50 3.385
360.60 3.381
360.70 3.378
360.80 3.374
360.90 3.371
361.00 3.367
361.10 3.364
361.20 3.36
361.30 3.357
361.40 3.353
361.50 3.35
361.60 3.346
361.70 3.343
361.80 3.339
361.90 3.336
362.00 3.332
362.10 3.329
362.20 3.325
362.30 3.322
362.40 3.318
362.50 3.315
362.60 3.311
362.70 3.308
362.80 3.304
362.90 3.301
363.00 3.297
363.10 3.294
363.20 3.291
363.30 3.287
363.40 3.284
363.50 3.28
363.60 3.277
363.70 3.274
363.80 3.27
363.90 3.267
364.00 3.263
364.10 3.26
364.20 3.257
364.30 3.253
364.40 3.25
364.50 3.246
364.60 3.243
364.70 3.24
364.80 3.236
364.90 3.233
365.00 3.23
365.10 3.226
365.20 3.223
365.30 3.22
365.40 3.216
365.50 3.213
365.60 3.21
365.70 3.206
365.80 3.203
365.90 3.2
366.00 3.196
366.10 3.193
366.20 3.19
366.30 3.186
366.40 3.183
366.50 3.18
366.60 3.176
366.70 3.173
366.80 3.17
366.90 3.167
367.00 3.163
367.10 3.16
367.20 3.157
367.30 3.153
367.40 3.15
367.50 3.147
367.60 3.143
367.70 3.14
367.80 3.137
367.90 3.134
368.00 3.13
368.10 3.127
368.20 3.124
368.30 3.121
368.40 3.117
368.50 3.114
368.60 3.111
368.70 3.108
368.80 3.104
368.90 3.101
369.00 3.098
369.10 3.095
369.20 3.091
369.30 3.088
369.40 3.085
369.50 3.082
369.60 3.078
369.70 3.075
369.80 3.072
369.90 3.069
370.00 3.065
370.10 3.062
370.20 3.059
370.30 3.056
370.40 3.053
370.50 3.05
370.60 3.046
370.70 3.043
370.80 3.04
370.90 3.037
371.00 3.034
371.10 3.031
371.20 3.028
371.30 3.024
371.40 3.021
371.50 3.018
371.60 3.015
371.70 3.012
371.80 3.009
371.90 3.006
372.00 3.002
372.10 2.999
372.20 2.996
372.30 2.993
372.40 2.99
372.50 2.987
372.60 2.984
372.70 2.981
372.80 2.978
372.90 2.975
373.00 2.972
373.10 2.969
373.20 2.966
373.30 2.963
373.40 2.96
373.50 2.957
373.60 2.954
373.70 2.951
373.80 2.948
373.90 2.945
374.00 2.942
374.10 2.939
374.20 2.936
374.30 2.933
374.40 2.93
374.50 2.927
374.60 2.924
374.70 2.921
374.80 2.918
374.90 2.915
375.00 2.912
375.10 2.909
375.20 2.906
375.30 2.903
375.40 2.9
375.50 2.897
375.60 2.894
375.70 2.891
375.80 2.888
375.90 2.885
376.00 2.882
376.10 2.879
376.20 2.876
376.30 2.873
376.40 2.87
376.50 2.867
376.60 2.865
376.70 2.862
376.80 2.859
376.90 2.856
377.00 2.853
377.10 2.85
377.20 2.847
377.30 2.844
377.40 2.842
377.50 2.839
377.60 2.836
377.70 2.833
377.80 2.83
377.90 2.827
378.00 2.825
378.10 2.822
378.20 2.819
378.30 2.816
378.40 2.813
378.50 2.811
378.60 2.808
378.70 2.805
378.80 2.802
378.90 2.799
379.00 2.797
379.10 2.794
379.20 2.791
379.30 2.789
379.40 2.786
379.50 2.783
379.60 2.78
379.70 2.778
379.80 2.775
379.90 2.772
380.00 2.769
380.10 2.767
380.20 2.764
380.30 2.761
380.40 2.759
380.50 2.756
380.60 2.753
380.70 2.751
380.80 2.748
380.90 2.746
381.00 2.743
381.10 2.74
381.20 2.738
381.30 2.735
381.40 2.732
381.50 2.73
381.60 2.727
381.70 2.724
381.80 2.722
381.90 2.719
382.00 2.716
382.10 2.714
382.20 2.711
382.30 2.708
382.40 2.706
382.50 2.703
382.60 2.7
382.70 2.698
382.80 2.695
382.90 2.693
383.00 2.69
383.10 2.687
383.20 2.685
383.30 2.682
383.40 2.68
383.50 2.677
383.60 2.675
383.70 2.672
383.80 2.67
383.90 2.667
384.00 2.665
384.10 2.662
384.20 2.66
384.30 2.658
384.40 2.655
384.50 2.653
384.60 2.651
384.70 2.648
384.80 2.646
384.90 2.643
385.00 2.641
385.10 2.639
385.20 2.636
385.30 2.634
385.40 2.631
385.50 2.629
385.60 2.626
385.70 2.624
385.80 2.621
385.90 2.619
386.00 2.616
386.10 2.614
386.20 2.611
386.30 2.608
386.40 2.606
386.50 2.603
386.60 2.6
386.70 2.598
386.80 2.595
386.90 2.592
387.00 2.59
387.10 2.587
387.20 2.584
387.30 2.581
387.40 2.578
387.50 2.576
387.60 2.573
387.70 2.57
387.80 2.567
387.90 2.564
388.00 2.562
388.10 2.559
388.20 2.556
388.30 2.553
388.40 2.551
388.50 2.548
388.60 2.545
388.70 2.543
388.80 2.541
388.90 2.538
389.00 2.536
389.10 2.534
389.20 2.532
389.30 2.53
389.40 2.528
389.50 2.526
389.60 2.524
389.70 2.523
389.80 2.521
389.90 2.519
390.00 2.517
390.10 2.516
390.20 2.514
390.30 2.512
390.40 2.511
390.50 2.509
390.60 2.507
390.70 2.505
390.80 2.503
390.90 2.501
391.00 2.5
391.10 2.498
391.20 2.496
391.30 2.494
391.40 2.492
391.50 2.49
391.60 2.488
391.70 2.485
391.80 2.483
391.90 2.481
392.00 2.479
392.10 2.477
392.20 2.474
392.30 2.472
392.40 2.47
392.50 2.467
392.60 2.465
392.70 2.462
392.80 2.46
392.90 2.457
393.00 2.455
393.10 2.452
393.20 2.449
393.30 2.446
393.40 2.444
393.50 2.441
393.60 2.438
393.70 2.435
393.80 2.432
393.90 2.429
394.00 2.426
394.10 2.423
394.20 2.419
394.30 2.416
394.40 2.413
394.50 2.41
394.60 2.406
394.70 2.403
394.80 2.399
394.90 2.396
395.00 2.392
395.10 2.389
395.20 2.385
395.30 2.381
395.40 2.378
395.50 2.374
395.60 2.37
395.70 2.366
395.80 2.362
395.90 2.359
396.00 2.355
396.10 2.351
396.20 2.347
396.30 2.343
396.40 2.339
396.50 2.335
396.60 2.332
396.70 2.328
396.80 2.325
396.90 2.321
397.00 2.318
397.10 2.317
397.20 2.316
397.30 2.316
397.40 2.315
397.50 2.315
397.60 2.314
397.70 2.314
397.80 2.314
397.90 2.314
398.00 2.313
398.10 2.313
398.20 2.313
398.30 2.313
398.40 2.312
398.50 2.312
398.60 2.312
398.70 2.311
398.80 2.311
398.90 2.31
399.00 2.31
399.10 2.309
399.20 2.308
399.30 2.308
399.40 2.307
399.50 2.306
399.60 2.306
399.70 2.305
399.80 2.304
399.90 2.303
400.00 2.302
400.10 2.301
400.20 2.3
400.30 2.299
400.40 2.298
400.50 2.296
400.60 2.295
400.70 2.294
400.80 2.293
400.90 2.291
401.00 2.29
401.10 2.288
401.20 2.287
401.30 2.286
401.40 2.284
401.50 2.282
401.60 2.281
401.70 2.279
401.80 2.278
401.90 2.276
402.00 2.274
402.10 2.272
402.20 2.271
402.30 2.269
402.40 2.267
402.50 2.265
402.60 2.263
402.70 2.261
402.80 2.259
402.90 2.257
403.00 2.255
403.10 2.253
403.20 2.251
403.30 2.249
403.40 2.247
403.50 2.244
403.60 2.242
403.70 2.24
403.80 2.238
403.90 2.235
404.00 2.233
404.10 2.231
404.20 2.228
404.30 2.226
404.40 2.223
404.50 2.221
404.60 2.218
404.70 2.216
404.80 2.213
404.90 2.21
405.00 2.207
405.10 2.205
405.20 2.202
405.30 2.199
405.40 2.196
405.50 2.193
405.60 2.19
405.70 2.187
405.80 2.184
405.90 2.181
406.00 2.178
406.10 2.174
406.20 2.171
406.30 2.168
406.40 2.164
406.50 2.161
406.60 2.157
406.70 2.154
406.80 2.15
406.90 2.146
407.00 2.142
407.10 2.138
407.20 2.134
407.30 2.13
407.40 2.126
407.50 2.122
407.60 2.117
407.70 2.113
407.80 2.108
407.90 2.104
408.00 2.099
408.10 2.094
408.20 2.089
408.30 2.084
408.40 2.079
408.50 2.074
408.60 2.069
408.70 2.063
408.80 2.058
408.90 2.053
409.00 2.047
409.10 2.041
409.20 2.036
409.30 2.03
409.40 2.025
409.50 2.019
409.60 2.014
409.70 2.009
409.80 2.005
409.90 2.002
410.00 2.001
410.10 2
410.20 2.001
410.30 1.996
410.40 1.993
410.50 1.992
410.60 1.992
410.70 1.993
410.80 1.995
410.90 1.996
411.00 1.998
411.10 2
411.20 2.002
411.30 2.004
411.40 2.006
411.50 2.008
411.60 2.009
411.70 2.011
411.80 2.013
411.90 2.014
412.00 2.015
412.10 2.017
412.20 2.018
412.30 2.019
412.40 2.02
412.50 2.021
412.60 2.022
412.70 2.022
412.80 2.023
412.90 2.023
413.00 2.024
413.10 2.024
413.20 2.024
413.30 2.024
413.40 2.024
413.50 2.025
413.60 2.024
413.70 2.024
413.80 2.024
413.90 2.024
414.00 2.023
414.10 2.023
414.20 2.023
414.30 2.022
414.40 2.022
414.50 2.021
414.60 2.02
414.70 2.02
414.80 2.019
414.90 2.018
415.00 2.017
415.10 2.016
415.20 2.015
415.30 2.014
415.40 2.013
415.50 2.012
415.60 2.011
415.70 2.01
415.80 2.009
415.90 2.008
416.00 2.007
416.10 2.006
416.20 2.004
416.30 2.003
416.40 2.002
416.50 2.001
416.60 1.999
416.70 1.998
416.80 1.997
416.90 1.995
417.00 1.994
417.10 1.992
417.20 1.991
417.30 1.99
417.40 1.988
417.50 1.987
417.60 1.985
417.70 1.984
417.80 1.982
417.90 1.981
418.00 1.979
418.10 1.978
418.20 1.976
418.30 1.975
418.40 1.973
418.50 1.972
418.60 1.97
418.70 1.968
418.80 1.967
418.90 1.965
419.00 1.964
419.10 1.962
419.20 1.96
419.30 1.959
419.40 1.957
419.50 1.955
419.60 1.954
419.70 1.952
419.80 1.951
419.90 1.949
420.00 1.947
420.10 1.946
420.20 1.944
420.30 1.942
420.40 1.941
420.50 1.939
420.60 1.937
420.70 1.935
420.80 1.934
420.90 1.932
421.00 1.93
421.10 1.929
421.20 1.927
421.30 1.925
421.40 1.924
421.50 1.922
421.60 1.92
421.70 1.918
421.80 1.917
421.90 1.915
422.00 1.913
422.10 1.911
422.20 1.91
422.30 1.908
422.40 1.906
422.50 1.905
422.60 1.903
422.70 1.901
422.80 1.899
422.90 1.897
423.00 1.896
423.10 1.894
423.20 1.892
423.30 1.89
423.40 1.889
423.50 1.887
423.60 1.885
423.70 1.883
423.80 1.882
423.90 1.88
424.00 1.878
424.10 1.876
424.20 1.874
424.30 1.873
424.40 1.871
424.50 1.869
424.60 1.867
424.70 1.865
424.80 1.863
424.90 1.862
425.00 1.86
425.10 1.858
425.20 1.856
425.30 1.854
425.40 1.852
425.50 1.85
425.60 1.849
425.70 1.847
425.80 1.845
425.90 1.843
426.00 1.841
426.10 1.839
426.20 1.837
426.30 1.835
426.40 1.833
426.50 1.831
426.60 1.829
426.70 1.827
426.80 1.825
426.90 1.823
427.00 1.821
427.10 1.819
427.20 1.817
427.30 1.815
427.40 1.813
427.50 1.811
427.60 1.809
427.70 1.806
427.80 1.804
427.90 1.802
428.00 1.8
428.10 1.798
428.20 1.795
428.30 1.793
428.40 1.791
428.50 1.788
428.60 1.786
428.70 1.783
428.80 1.781
428.90 1.778
429.00 1.776
429.10 1.773
429.20 1.771
429.30 1.768
429.40 1.765
429.50 1.762
429.60 1.76
429.70 1.757
429.80 1.754
429.90 1.751
430.00 1.748
430.10 1.745
430.20 1.741
430.30 1.738
430.40 1.735
430.50 1.731
430.60 1.728
430.70 1.724
430.80 1.721
430.90 1.717
431.00 1.713
431.10 1.709
431.20 1.705
431.30 1.701
431.40 1.696
431.50 1.692
431.60 1.688
431.70 1.683
431.80 1.678
431.90 1.673
432.00 1.668
432.10 1.663
432.20 1.658
432.30 1.652
432.40 1.647
432.50 1.641
432.60 1.635
432.70 1.63
432.80 1.624
432.90 1.618
433.00 1.612
433.10 1.606
433.20 1.6
433.30 1.594
433.40 1.588
433.50 1.582
433.60 1.576
433.70 1.571
433.80 1.566
433.90 1.56
434.00 1.555
434.10 1.554
434.20 1.556
434.30 1.559
434.40 1.562
434.50 1.565
434.60 1.568
434.70 1.571
434.80 1.574
434.90 1.577
435.00 1.58
435.10 1.584
435.20 1.587
435.30 1.59
435.40 1.593
435.50 1.596
435.60 1.599
435.70 1.602
435.80 1.604
435.90 1.607
436.00 1.609
436.10 1.611
436.20 1.613
436.30 1.615
436.40 1.617
436.50 1.619
436.60 1.62
436.70 1.622
436.80 1.623
436.90 1.624
437.00 1.625
437.10 1.626
437.20 1.627
437.30 1.628
437.40 1.628
437.50 1.629
437.60 1.629
437.70 1.63
437.80 1.63
437.90 1.63
438.00 1.63
438.10 1.63
438.20 1.63
438.30 1.63
438.40 1.63
438.50 1.63
438.60 1.63
438.70 1.629
438.80 1.629
438.90 1.628
439.00 1.628
439.10 1.627
439.20 1.627
439.30 1.626
439.40 1.626
439.50 1.625
439.60 1.624
439.70 1.624
439.80 1.623
439.90 1.622
440.00 1.621
440.10 1.62
440.20 1.62
440.30 1.619
440.40 1.618
440.50 1.617
440.60 1.616
440.70 1.615
440.80 1.614
440.90 1.613
441.00 1.612
441.10 1.611
441.20 1.61
441.30 1.609
441.40 1.608
441.50 1.607
441.60 1.606
441.70 1.605
441.80 1.603
441.90 1.602
442.00 1.601
442.10 1.6
442.20 1.599
442.30 1.598
442.40 1.597
442.50 1.595
442.60 1.594
442.70 1.593
442.80 1.592
442.90 1.591
443.00 1.589
443.10 1.588
443.20 1.587
443.30 1.586
443.40 1.585
443.50 1.583
443.60 1.582
443.70 1.581
443.80 1.58
443.90 1.578
444.00 1.577
444.10 1.576
444.20 1.575
444.30 1.573
444.40 1.572
444.50 1.571
444.60 1.57
444.70 1.568
444.80 1.567
444.90 1.566
445.00 1.565
445.10 1.563
445.20 1.562
445.30 1.561
445.40 1.56
445.50 1.558
445.60 1.557
445.70 1.556
445.80 1.555
445.90 1.553
446.00 1.552
446.10 1.551
446.20 1.549
446.30 1.548
446.40 1.547
446.50 1.546
446.60 1.544
446.70 1.543
446.80 1.542
446.90 1.541
447.00 1.539
447.10 1.538
447.20 1.537
447.30 1.535
447.40 1.534
447.50 1.533
447.60 1.532
447.70 1.53
447.80 1.529
447.90 1.528
448.00 1.526
448.10 1.525
448.20 1.524
448.30 1.523
448.40 1.521
448.50 1.52
448.60 1.519
448.70 1.518
448.80 1.516
448.90 1.515
449.00 1.514
449.10 1.513
449.20 1.511
449.30 1.51
449.40 1.509
449.50 1.507
449.60 1.506
449.70 1.505
449.80 1.504
449.90 1.502
450.00 1.501
450.10 1.5
450.20 1.499
450.30 1.497
450.40 1.496
450.50 1.495
450.60 1.494
450.70 1.492
450.80 1.491
450.90 1.49
451.00 1.489
451.10 1.487
451.20 1.486
451.30 1.485
451.40 1.484
451.50 1.482
451.60 1.481
451.70 1.48
451.80 1.479
451.90 1.477
452.00 1.476
452.10 1.475
452.20 1.474
452.30 1.472
452.40 1.471
452.50 1.47
452.60 1.469
452.70 1.467
452.80 1.466
452.90 1.465
453.00 1.464
453.10 1.462
453.20 1.461
453.30 1.46
453.40 1.459
453.50 1.458
453.60 1.456
453.70 1.455
453.80 1.454
453.90 1.453
454.00 1.451
454.10 1.45
454.20 1.449
454.30 1.448
454.40 1.447
