# Version 2.1 - nm, norm@500 to 1, cut digits, bergeron_4750_65.dat_4750
# Wavelength(nm)  Flambda(ergs/cm^s/s/nm)
300.00 0.2901
300.10 0.2905
300.20 0.291
300.30 0.2914
300.40 0.2918
300.50 0.2922
300.60 0.2927
300.70 0.2931
300.80 0.2935
300.90 0.2939
301.00 0.2944
301.10 0.2948
301.20 0.2952
301.30 0.2956
301.40 0.296
301.50 0.2965
301.60 0.2969
301.70 0.2973
301.80 0.2977
301.90 0.2981
302.00 0.2986
302.10 0.299
302.20 0.2994
302.30 0.2998
302.40 0.3003
302.50 0.3007
302.60 0.3011
302.70 0.3016
302.80 0.302
302.90 0.3024
303.00 0.3028
303.10 0.3033
303.20 0.3037
303.30 0.3041
303.40 0.3045
303.50 0.305
303.60 0.3054
303.70 0.3058
303.80 0.3062
303.90 0.3066
304.00 0.3071
304.10 0.3075
304.20 0.3079
304.30 0.3084
304.40 0.3088
304.50 0.3092
304.60 0.3097
304.70 0.3101
304.80 0.3105
304.90 0.311
305.00 0.3114
305.10 0.3118
305.20 0.3122
305.30 0.3127
305.40 0.3131
305.50 0.3135
305.60 0.3139
305.70 0.3144
305.80 0.3148
305.90 0.3152
306.00 0.3157
306.10 0.3161
306.20 0.3165
306.30 0.317
306.40 0.3174
306.50 0.3178
306.60 0.3183
306.70 0.3187
306.80 0.3191
306.90 0.3196
307.00 0.32
307.10 0.3204
307.20 0.3209
307.30 0.3213
307.40 0.3217
307.50 0.3221
307.60 0.3226
307.70 0.323
307.80 0.3234
307.90 0.3239
308.00 0.3243
308.10 0.3247
308.20 0.3252
308.30 0.3256
308.40 0.326
308.50 0.3265
308.60 0.3269
308.70 0.3274
308.80 0.3278
308.90 0.3282
309.00 0.3287
309.10 0.3291
309.20 0.3295
309.30 0.33
309.40 0.3304
309.50 0.3308
309.60 0.3313
309.70 0.3317
309.80 0.3321
309.90 0.3326
310.00 0.333
310.10 0.3334
310.20 0.3339
310.30 0.3343
310.40 0.3348
310.50 0.3352
310.60 0.3356
310.70 0.3361
310.80 0.3365
310.90 0.337
311.00 0.3374
311.10 0.3378
311.20 0.3383
311.30 0.3387
311.40 0.3391
311.50 0.3396
311.60 0.34
311.70 0.3404
311.80 0.3409
311.90 0.3413
312.00 0.3417
312.10 0.3422
312.20 0.3426
312.30 0.343
312.40 0.3435
312.50 0.3439
312.60 0.3444
312.70 0.3448
312.80 0.3453
312.90 0.3457
313.00 0.3461
313.10 0.3466
313.20 0.347
313.30 0.3475
313.40 0.3479
313.50 0.3483
313.60 0.3488
313.70 0.3492
313.80 0.3496
313.90 0.3501
314.00 0.3505
314.10 0.351
314.20 0.3514
314.30 0.3518
314.40 0.3523
314.50 0.3527
314.60 0.3532
314.70 0.3536
314.80 0.3541
314.90 0.3545
315.00 0.355
315.10 0.3554
315.20 0.3558
315.30 0.3563
315.40 0.3567
315.50 0.3572
315.60 0.3576
315.70 0.358
315.80 0.3585
315.90 0.3589
316.00 0.3594
316.10 0.3598
316.20 0.3602
316.30 0.3607
316.40 0.3611
316.50 0.3616
316.60 0.362
316.70 0.3625
316.80 0.3629
316.90 0.3634
317.00 0.3638
317.10 0.3643
317.20 0.3647
317.30 0.3651
317.40 0.3656
317.50 0.366
317.60 0.3665
317.70 0.3669
317.80 0.3673
317.90 0.3678
318.00 0.3682
318.10 0.3687
318.20 0.3691
318.30 0.3696
318.40 0.37
318.50 0.3705
318.60 0.3709
318.70 0.3714
318.80 0.3718
318.90 0.3723
319.00 0.3727
319.10 0.3731
319.20 0.3736
319.30 0.374
319.40 0.3745
319.50 0.3749
319.60 0.3754
319.70 0.3758
319.80 0.3762
319.90 0.3767
320.00 0.3771
320.10 0.3776
320.20 0.378
320.30 0.3785
320.40 0.3789
320.50 0.3794
320.60 0.3798
320.70 0.3803
320.80 0.3807
320.90 0.3812
321.00 0.3816
321.10 0.3821
321.20 0.3825
321.30 0.383
321.40 0.3834
321.50 0.3839
321.60 0.3843
321.70 0.3847
321.80 0.3852
321.90 0.3856
322.00 0.3861
322.10 0.3865
322.20 0.387
322.30 0.3874
322.40 0.3879
322.50 0.3883
322.60 0.3888
322.70 0.3892
322.80 0.3897
322.90 0.3901
323.00 0.3906
323.10 0.391
323.20 0.3915
323.30 0.3919
323.40 0.3924
323.50 0.3928
323.60 0.3933
323.70 0.3937
323.80 0.3941
323.90 0.3946
324.00 0.395
324.10 0.3955
324.20 0.3959
324.30 0.3964
324.40 0.3968
324.50 0.3973
324.60 0.3978
324.70 0.3982
324.80 0.3987
324.90 0.3991
325.00 0.3996
325.10 0.4
325.20 0.4005
325.30 0.4009
325.40 0.4014
325.50 0.4018
325.60 0.4022
325.70 0.4027
325.80 0.4031
325.90 0.4036
326.00 0.404
326.10 0.4045
326.20 0.4049
326.30 0.4054
326.40 0.4058
326.50 0.4063
326.60 0.4068
326.70 0.4072
326.80 0.4077
326.90 0.4081
327.00 0.4086
327.10 0.409
327.20 0.4095
327.30 0.4099
327.40 0.4104
327.50 0.4108
327.60 0.4113
327.70 0.4117
327.80 0.4121
327.90 0.4126
328.00 0.413
328.10 0.4135
328.20 0.4139
328.30 0.4144
328.40 0.4149
328.50 0.4153
328.60 0.4158
328.70 0.4162
328.80 0.4167
328.90 0.4171
329.00 0.4176
329.10 0.418
329.20 0.4185
329.30 0.4189
329.40 0.4194
329.50 0.4198
329.60 0.4203
329.70 0.4207
329.80 0.4212
329.90 0.4216
330.00 0.4221
330.10 0.4225
330.20 0.423
330.30 0.4234
330.40 0.4239
330.50 0.4243
330.60 0.4248
330.70 0.4253
330.80 0.4257
330.90 0.4262
331.00 0.4266
331.10 0.4271
331.20 0.4275
331.30 0.428
331.40 0.4284
331.50 0.4289
331.60 0.4293
331.70 0.4298
331.80 0.4302
331.90 0.4307
332.00 0.4311
332.10 0.4316
332.20 0.432
332.30 0.4325
332.40 0.4329
332.50 0.4334
332.60 0.4338
332.70 0.4343
332.80 0.4348
332.90 0.4352
333.00 0.4357
333.10 0.4361
333.20 0.4366
333.30 0.437
333.40 0.4375
333.50 0.4379
333.60 0.4384
333.70 0.4388
333.80 0.4393
333.90 0.4397
334.00 0.4402
334.10 0.4406
334.20 0.4411
334.30 0.4415
334.40 0.442
334.50 0.4425
334.60 0.4429
334.70 0.4434
334.80 0.4438
334.90 0.4443
335.00 0.4447
335.10 0.4452
335.20 0.4456
335.30 0.4461
335.40 0.4465
335.50 0.447
335.60 0.4474
335.70 0.4479
335.80 0.4483
335.90 0.4488
336.00 0.4492
336.10 0.4497
336.20 0.4501
336.30 0.4506
336.40 0.4511
336.50 0.4515
336.60 0.452
336.70 0.4524
336.80 0.4529
336.90 0.4533
337.00 0.4538
337.10 0.4542
337.20 0.4547
337.30 0.4551
337.40 0.4556
337.50 0.456
337.60 0.4565
337.70 0.4569
337.80 0.4574
337.90 0.4578
338.00 0.4583
338.10 0.4587
338.20 0.4592
338.30 0.4596
338.40 0.4601
338.50 0.4606
338.60 0.461
338.70 0.4615
338.80 0.4619
338.90 0.4624
339.00 0.4628
339.10 0.4633
339.20 0.4637
339.30 0.4642
339.40 0.4646
339.50 0.4651
339.60 0.4655
339.70 0.466
339.80 0.4664
339.90 0.4669
340.00 0.4673
340.10 0.4678
340.20 0.4683
340.30 0.4687
340.40 0.4692
340.50 0.4696
340.60 0.4701
340.70 0.4705
340.80 0.471
340.90 0.4714
341.00 0.4719
341.10 0.4723
341.20 0.4728
341.30 0.4733
341.40 0.4737
341.50 0.4742
341.60 0.4746
341.70 0.475
341.80 0.4755
341.90 0.4759
342.00 0.4764
342.10 0.4769
342.20 0.4773
342.30 0.4778
342.40 0.4782
342.50 0.4787
342.60 0.4791
342.70 0.4796
342.80 0.48
342.90 0.4805
343.00 0.4809
343.10 0.4814
343.20 0.4819
343.30 0.4823
343.40 0.4828
343.50 0.4832
343.60 0.4836
343.70 0.4841
343.80 0.4845
343.90 0.485
344.00 0.4854
344.10 0.4859
344.20 0.4864
344.30 0.4868
344.40 0.4873
344.50 0.4877
344.60 0.4882
344.70 0.4886
344.80 0.4891
344.90 0.4895
345.00 0.49
345.10 0.4904
345.20 0.4909
345.30 0.4913
345.40 0.4918
345.50 0.4922
345.60 0.4927
345.70 0.4931
345.80 0.4936
345.90 0.494
346.00 0.4945
346.10 0.4949
346.20 0.4954
346.30 0.4958
346.40 0.4963
346.50 0.4967
346.60 0.4972
346.70 0.4977
346.80 0.4981
346.90 0.4986
347.00 0.499
347.10 0.4995
347.20 0.4999
347.30 0.5004
347.40 0.5008
347.50 0.5013
347.60 0.5017
347.70 0.5022
347.80 0.5026
347.90 0.503
348.00 0.5035
348.10 0.5039
348.20 0.5044
348.30 0.5049
348.40 0.5053
348.50 0.5058
348.60 0.5062
348.70 0.5067
348.80 0.5071
348.90 0.5076
349.00 0.508
349.10 0.5085
349.20 0.5089
349.30 0.5094
349.40 0.5098
349.50 0.5103
349.60 0.5107
349.70 0.5112
349.80 0.5116
349.90 0.5121
350.00 0.5125
350.10 0.513
350.20 0.5134
350.30 0.5139
350.40 0.5143
350.50 0.5148
350.60 0.5152
350.70 0.5157
350.80 0.5161
350.90 0.5166
351.00 0.517
351.10 0.5175
351.20 0.5179
351.30 0.5184
351.40 0.5188
351.50 0.5193
351.60 0.5197
351.70 0.5201
351.80 0.5206
351.90 0.521
352.00 0.5215
352.10 0.5219
352.20 0.5224
352.30 0.5228
352.40 0.5233
352.50 0.5237
352.60 0.5242
352.70 0.5246
352.80 0.5251
352.90 0.5255
353.00 0.526
353.10 0.5264
353.20 0.5269
353.30 0.5273
353.40 0.5278
353.50 0.5282
353.60 0.5287
353.70 0.5291
353.80 0.5295
353.90 0.53
354.00 0.5304
354.10 0.5309
354.20 0.5313
354.30 0.5318
354.40 0.5322
354.50 0.5327
354.60 0.5331
354.70 0.5336
354.80 0.534
354.90 0.5345
355.00 0.5349
355.10 0.5354
355.20 0.5358
355.30 0.5363
355.40 0.5367
355.50 0.5372
355.60 0.5376
355.70 0.538
355.80 0.5385
355.90 0.5389
356.00 0.5394
356.10 0.5398
356.20 0.5403
356.30 0.5407
356.40 0.5412
356.50 0.5416
356.60 0.5421
356.70 0.5425
356.80 0.543
356.90 0.5434
357.00 0.5438
357.10 0.5443
357.20 0.5447
357.30 0.5452
357.40 0.5456
357.50 0.5461
357.60 0.5465
357.70 0.547
357.80 0.5474
357.90 0.5478
358.00 0.5483
358.10 0.5487
358.20 0.5492
358.30 0.5496
358.40 0.5501
358.50 0.5505
358.60 0.551
358.70 0.5514
358.80 0.5518
358.90 0.5523
359.00 0.5527
359.10 0.5532
359.20 0.5536
359.30 0.5541
359.40 0.5545
359.50 0.5549
359.60 0.5554
359.70 0.5558
359.80 0.5563
359.90 0.5567
360.00 0.5571
360.10 0.5576
360.20 0.558
360.30 0.5585
360.40 0.5589
360.50 0.5594
360.60 0.5598
360.70 0.5603
360.80 0.5607
360.90 0.5611
361.00 0.5616
361.10 0.562
361.20 0.5625
361.30 0.5629
361.40 0.5634
361.50 0.5638
361.60 0.5642
361.70 0.5647
361.80 0.5651
361.90 0.5655
362.00 0.566
362.10 0.5664
362.20 0.5669
362.30 0.5673
362.40 0.5677
362.50 0.5682
362.60 0.5686
362.70 0.5691
362.80 0.5695
362.90 0.5699
363.00 0.5704
363.10 0.5708
363.20 0.5713
363.30 0.5717
363.40 0.5722
363.50 0.5726
363.60 0.573
363.70 0.5735
363.80 0.5739
363.90 0.5743
364.00 0.5748
364.10 0.5752
364.20 0.5757
364.30 0.5761
364.40 0.5765
364.50 0.577
364.60 0.5774
364.70 0.5779
364.80 0.5783
364.90 0.5787
365.00 0.5792
365.10 0.5796
365.20 0.58
365.30 0.5805
365.40 0.5809
365.50 0.5814
365.60 0.5818
365.70 0.5822
365.80 0.5827
365.90 0.5831
366.00 0.5835
366.10 0.584
366.20 0.5844
366.30 0.5849
366.40 0.5853
366.50 0.5857
366.60 0.5862
366.70 0.5866
366.80 0.587
366.90 0.5875
367.00 0.5879
367.10 0.5884
367.20 0.5888
367.30 0.5892
367.40 0.5897
367.50 0.5901
367.60 0.5905
367.70 0.591
367.80 0.5914
367.90 0.5918
368.00 0.5923
368.10 0.5927
368.20 0.5931
368.30 0.5936
368.40 0.594
368.50 0.5944
368.60 0.5949
368.70 0.5953
368.80 0.5957
368.90 0.5962
369.00 0.5966
369.10 0.597
369.20 0.5975
369.30 0.5979
369.40 0.5983
369.50 0.5988
369.60 0.5992
369.70 0.5996
369.80 0.6001
369.90 0.6005
370.00 0.6009
370.10 0.6014
370.20 0.6018
370.30 0.6022
370.40 0.6027
370.50 0.6031
370.60 0.6035
370.70 0.604
370.80 0.6044
370.90 0.6048
371.00 0.6053
371.10 0.6057
371.20 0.6061
371.30 0.6066
371.40 0.607
371.50 0.6074
371.60 0.6078
371.70 0.6083
371.80 0.6087
371.90 0.6091
372.00 0.6096
372.10 0.61
372.20 0.6104
372.30 0.6109
372.40 0.6113
372.50 0.6117
372.60 0.6121
372.70 0.6126
372.80 0.613
372.90 0.6134
373.00 0.6139
373.10 0.6143
373.20 0.6147
373.30 0.6152
373.40 0.6156
373.50 0.616
373.60 0.6164
373.70 0.6169
373.80 0.6173
373.90 0.6177
374.00 0.6181
374.10 0.6186
374.20 0.619
374.30 0.6194
374.40 0.6198
374.50 0.6203
374.60 0.6207
374.70 0.6211
374.80 0.6216
374.90 0.622
375.00 0.6224
375.10 0.6228
375.20 0.6233
375.30 0.6237
375.40 0.6241
375.50 0.6245
375.60 0.625
375.70 0.6254
375.80 0.6258
375.90 0.6262
376.00 0.6267
376.10 0.6271
376.20 0.6275
376.30 0.6279
376.40 0.6284
376.50 0.6288
376.60 0.6292
376.70 0.6296
376.80 0.6301
376.90 0.6305
377.00 0.6309
377.10 0.6313
377.20 0.6318
377.30 0.6322
377.40 0.6326
377.50 0.633
377.60 0.6334
377.70 0.6339
377.80 0.6343
377.90 0.6347
378.00 0.6351
378.10 0.6356
378.20 0.636
378.30 0.6364
378.40 0.6368
378.50 0.6373
378.60 0.6377
378.70 0.6381
378.80 0.6385
378.90 0.6389
379.00 0.6394
379.10 0.6398
379.20 0.6402
379.30 0.6406
379.40 0.641
379.50 0.6415
379.60 0.6419
379.70 0.6423
379.80 0.6427
379.90 0.6431
380.00 0.6436
380.10 0.644
380.20 0.6444
380.30 0.6448
380.40 0.6453
380.50 0.6457
380.60 0.6461
380.70 0.6465
380.80 0.6469
380.90 0.6474
381.00 0.6478
381.10 0.6482
381.20 0.6486
381.30 0.649
381.40 0.6494
381.50 0.6499
381.60 0.6503
381.70 0.6507
381.80 0.6511
381.90 0.6515
382.00 0.652
382.10 0.6524
382.20 0.6528
382.30 0.6532
382.40 0.6536
382.50 0.654
382.60 0.6545
382.70 0.6549
382.80 0.6553
382.90 0.6557
383.00 0.6561
383.10 0.6565
383.20 0.6569
383.30 0.6574
383.40 0.6578
383.50 0.6582
383.60 0.6586
383.70 0.659
383.80 0.6594
383.90 0.6599
384.00 0.6603
384.10 0.6607
384.20 0.6611
384.30 0.6615
384.40 0.6619
384.50 0.6623
384.60 0.6628
384.70 0.6632
384.80 0.6636
384.90 0.664
385.00 0.6644
385.10 0.6648
385.20 0.6652
385.30 0.6656
385.40 0.6661
385.50 0.6665
385.60 0.6669
385.70 0.6673
385.80 0.6677
385.90 0.6681
386.00 0.6685
386.10 0.6689
386.20 0.6694
386.30 0.6698
386.40 0.6702
386.50 0.6706
386.60 0.671
386.70 0.6714
386.80 0.6718
386.90 0.6722
387.00 0.6726
387.10 0.673
387.20 0.6734
387.30 0.6739
387.40 0.6743
387.50 0.6747
387.60 0.6751
387.70 0.6755
387.80 0.6759
387.90 0.6763
388.00 0.6767
388.10 0.6771
388.20 0.6775
388.30 0.6779
388.40 0.6783
388.50 0.6788
388.60 0.6792
388.70 0.6796
388.80 0.68
388.90 0.6804
389.00 0.6808
389.10 0.6812
389.20 0.6816
389.30 0.682
389.40 0.6824
389.50 0.6828
389.60 0.6832
389.70 0.6836
389.80 0.684
389.90 0.6844
390.00 0.6848
390.10 0.6852
390.20 0.6856
390.30 0.686
390.40 0.6864
390.50 0.6868
390.60 0.6873
390.70 0.6877
390.80 0.6881
390.90 0.6885
391.00 0.6889
391.10 0.6893
391.20 0.6897
391.30 0.6901
391.40 0.6905
391.50 0.6909
391.60 0.6913
391.70 0.6917
391.80 0.6921
391.90 0.6925
392.00 0.6929
392.10 0.6933
392.20 0.6937
392.30 0.6941
392.40 0.6945
392.50 0.6949
392.60 0.6953
392.70 0.6957
392.80 0.6961
392.90 0.6965
393.00 0.6969
393.10 0.6973
393.20 0.6977
393.30 0.6981
393.40 0.6985
393.50 0.6989
393.60 0.6993
393.70 0.6997
393.80 0.7001
393.90 0.7005
394.00 0.7008
394.10 0.7012
394.20 0.7016
394.30 0.702
394.40 0.7024
394.50 0.7028
394.60 0.7032
394.70 0.7036
394.80 0.704
394.90 0.7044
395.00 0.7048
395.10 0.7052
395.20 0.7056
395.30 0.706
395.40 0.7064
395.50 0.7068
395.60 0.7072
395.70 0.7076
395.80 0.708
395.90 0.7084
396.00 0.7088
396.10 0.7091
396.20 0.7095
396.30 0.7099
396.40 0.7103
396.50 0.7107
396.60 0.7111
396.70 0.7115
396.80 0.7119
396.90 0.7123
397.00 0.7127
397.10 0.7131
397.20 0.7135
397.30 0.7138
397.40 0.7142
397.50 0.7146
397.60 0.715
397.70 0.7154
397.80 0.7158
397.90 0.7162
398.00 0.7166
398.10 0.717
398.20 0.7173
398.30 0.7177
398.40 0.7181
398.50 0.7185
398.60 0.7189
398.70 0.7193
398.80 0.7197
398.90 0.7201
399.00 0.7205
399.10 0.7208
399.20 0.7212
399.30 0.7216
399.40 0.722
399.50 0.7224
399.60 0.7228
399.70 0.7232
399.80 0.7235
399.90 0.7239
400.00 0.7243
400.10 0.7247
400.20 0.7251
400.30 0.7255
400.40 0.7259
400.50 0.7262
400.60 0.7266
400.70 0.727
400.80 0.7274
400.90 0.7278
401.00 0.7282
401.10 0.7285
401.20 0.7289
401.30 0.7293
401.40 0.7297
401.50 0.7301
401.60 0.7305
401.70 0.7308
401.80 0.7312
401.90 0.7316
402.00 0.732
402.10 0.7324
402.20 0.7327
402.30 0.7331
402.40 0.7335
402.50 0.7339
402.60 0.7343
402.70 0.7347
402.80 0.735
402.90 0.7354
403.00 0.7358
403.10 0.7362
403.20 0.7366
403.30 0.7369
403.40 0.7373
403.50 0.7377
403.60 0.7381
403.70 0.7384
403.80 0.7388
403.90 0.7392
404.00 0.7396
404.10 0.74
404.20 0.7403
404.30 0.7407
404.40 0.7411
404.50 0.7415
404.60 0.7418
404.70 0.7422
404.80 0.7426
404.90 0.743
405.00 0.7433
405.10 0.7437
405.20 0.7441
405.30 0.7445
405.40 0.7448
405.50 0.7452
405.60 0.7456
405.70 0.746
405.80 0.7463
405.90 0.7467
406.00 0.7471
406.10 0.7475
406.20 0.7478
406.30 0.7482
406.40 0.7486
406.50 0.7489
406.60 0.7493
406.70 0.7497
406.80 0.7501
406.90 0.7504
407.00 0.7508
407.10 0.7512
407.20 0.7515
407.30 0.7519
407.40 0.7523
407.50 0.7527
407.60 0.753
407.70 0.7534
407.80 0.7538
407.90 0.7541
408.00 0.7545
408.10 0.7549
408.20 0.7552
408.30 0.7556
408.40 0.756
408.50 0.7563
408.60 0.7567
408.70 0.757
408.80 0.7574
408.90 0.7577
409.00 0.7581
409.10 0.7584
409.20 0.7588
409.30 0.7591
409.40 0.7594
409.50 0.7597
409.60 0.76
409.70 0.7601
409.80 0.76
409.90 0.7597
410.00 0.7574
410.10 0.7529
410.20 0.7465
410.30 0.7552
410.40 0.7605
410.50 0.7624
410.60 0.7632
410.70 0.7639
410.80 0.7644
410.90 0.7649
411.00 0.7653
411.10 0.7657
411.20 0.7661
411.30 0.7665
411.40 0.7669
411.50 0.7673
411.60 0.7676
411.70 0.768
411.80 0.7684
411.90 0.7687
412.00 0.7691
412.10 0.7695
412.20 0.7698
412.30 0.7702
412.40 0.7706
412.50 0.7709
412.60 0.7713
412.70 0.7717
412.80 0.772
412.90 0.7724
413.00 0.7727
413.10 0.7731
413.20 0.7735
413.30 0.7738
413.40 0.7742
413.50 0.7745
413.60 0.7749
413.70 0.7752
413.80 0.7756
413.90 0.776
414.00 0.7763
414.10 0.7767
414.20 0.777
414.30 0.7774
414.40 0.7778
414.50 0.7781
414.60 0.7785
414.70 0.7788
414.80 0.7792
414.90 0.7795
415.00 0.7799
415.10 0.7802
415.20 0.7806
415.30 0.781
415.40 0.7813
415.50 0.7817
415.60 0.782
415.70 0.7824
415.80 0.7827
415.90 0.7831
416.00 0.7834
416.10 0.7838
416.20 0.7841
416.30 0.7845
416.40 0.7848
416.50 0.7852
416.60 0.7855
416.70 0.7859
416.80 0.7863
416.90 0.7866
417.00 0.787
417.10 0.7873
417.20 0.7876
417.30 0.788
417.40 0.7883
417.50 0.7887
417.60 0.789
417.70 0.7894
417.80 0.7898
417.90 0.7901
418.00 0.7904
418.10 0.7908
418.20 0.7911
418.30 0.7915
418.40 0.7919
418.50 0.7922
418.60 0.7926
418.70 0.7929
418.80 0.7932
418.90 0.7936
419.00 0.7939
419.10 0.7943
419.20 0.7946
419.30 0.795
419.40 0.7953
419.50 0.7956
419.60 0.796
419.70 0.7963
419.80 0.7967
419.90 0.797
420.00 0.7974
420.10 0.7977
420.20 0.798
420.30 0.7984
420.40 0.7988
420.50 0.7991
420.60 0.7994
420.70 0.7998
420.80 0.8001
420.90 0.8005
421.00 0.8008
421.10 0.8011
421.20 0.8015
421.30 0.8019
421.40 0.8022
421.50 0.8025
421.60 0.8028
421.70 0.8032
421.80 0.8036
421.90 0.8039
422.00 0.8042
422.10 0.8046
422.20 0.8049
422.30 0.8053
422.40 0.8056
422.50 0.8059
422.60 0.8063
422.70 0.8066
422.80 0.8069
422.90 0.8072
423.00 0.8076
423.10 0.808
423.20 0.8083
423.30 0.8086
423.40 0.809
423.50 0.8093
423.60 0.8096
423.70 0.8099
423.80 0.8103
423.90 0.8106
424.00 0.811
424.10 0.8113
424.20 0.8117
424.30 0.812
424.40 0.8123
424.50 0.8126
424.60 0.813
424.70 0.8133
424.80 0.8136
424.90 0.814
425.00 0.8143
425.10 0.8146
425.20 0.815
425.30 0.8153
425.40 0.8156
425.50 0.816
425.60 0.8163
425.70 0.8166
425.80 0.817
425.90 0.8173
426.00 0.8176
426.10 0.818
426.20 0.8183
426.30 0.8186
426.40 0.819
426.50 0.8193
426.60 0.8196
426.70 0.82
426.80 0.8203
426.90 0.8206
427.00 0.821
427.10 0.8213
427.20 0.8216
427.30 0.8219
427.40 0.8222
427.50 0.8226
427.60 0.8229
427.70 0.8232
427.80 0.8235
427.90 0.8239
428.00 0.8242
428.10 0.8246
428.20 0.8249
428.30 0.8252
428.40 0.8255
428.50 0.8258
428.60 0.8262
428.70 0.8265
428.80 0.8268
428.90 0.8271
429.00 0.8275
429.10 0.8278
429.20 0.8281
429.30 0.8284
429.40 0.8288
429.50 0.8291
429.60 0.8294
429.70 0.8297
429.80 0.8301
429.90 0.8304
430.00 0.8307
430.10 0.831
430.20 0.8313
430.30 0.8316
430.40 0.832
430.50 0.8323
430.60 0.8326
430.70 0.8329
430.80 0.8332
430.90 0.8336
431.00 0.8339
431.10 0.8342
431.20 0.8345
431.30 0.8348
431.40 0.8352
431.50 0.8354
431.60 0.8358
431.70 0.8361
431.80 0.8364
431.90 0.8367
432.00 0.837
432.10 0.8374
432.20 0.8376
432.30 0.838
432.40 0.8383
432.50 0.8386
432.60 0.8388
432.70 0.8391
432.80 0.8395
432.90 0.8397
433.00 0.84
433.10 0.8403
433.20 0.8405
433.30 0.8407
433.40 0.8408
433.50 0.8408
433.60 0.8407
433.70 0.84
433.80 0.8374
433.90 0.8332
434.00 0.809
434.10 0.8095
434.20 0.8349
434.30 0.8394
434.40 0.8423
434.50 0.8436
434.60 0.8443
434.70 0.8449
434.80 0.8454
434.90 0.8458
435.00 0.8462
435.10 0.8466
435.20 0.8469
435.30 0.8473
435.40 0.8476
435.50 0.848
435.60 0.8483
435.70 0.8486
435.80 0.8489
435.90 0.8493
436.00 0.8496
436.10 0.8499
436.20 0.8502
436.30 0.8505
436.40 0.8508
436.50 0.8512
436.60 0.8515
436.70 0.8518
436.80 0.8521
436.90 0.8523
437.00 0.8527
437.10 0.853
437.20 0.8533
437.30 0.8536
437.40 0.8539
437.50 0.8542
437.60 0.8545
437.70 0.8548
437.80 0.8551
437.90 0.8555
438.00 0.8558
438.10 0.8561
438.20 0.8564
438.30 0.8567
438.40 0.857
438.50 0.8573
438.60 0.8575
438.70 0.8578
438.80 0.8582
438.90 0.8585
439.00 0.8588
439.10 0.8591
439.20 0.8594
439.30 0.8597
439.40 0.86
439.50 0.8603
439.60 0.8606
439.70 0.8609
439.80 0.8612
439.90 0.8615
440.00 0.8618
440.10 0.8621
440.20 0.8624
440.30 0.8627
440.40 0.863
440.50 0.8633
440.60 0.8636
440.70 0.8639
440.80 0.8642
440.90 0.8645
441.00 0.8648
441.10 0.8651
441.20 0.8654
441.30 0.8657
441.40 0.866
441.50 0.8663
441.60 0.8666
441.70 0.8669
441.80 0.8672
441.90 0.8675
442.00 0.8678
442.10 0.8681
442.20 0.8684
442.30 0.8686
442.40 0.8689
442.50 0.8692
442.60 0.8695
442.70 0.8698
442.80 0.8701
442.90 0.8704
443.00 0.8707
443.10 0.871
