# Version 2.1 - nm, norm@500 to 1, cut digits, bergeron_9500_75.dat_9500
# Wavelength(nm)  Flambda(ergs/cm^s/s/nm)
300.00 1.503
300.10 1.502
300.20 1.502
300.30 1.501
300.40 1.501
300.50 1.5
300.60 1.5
300.70 1.499
300.80 1.499
300.90 1.498
301.00 1.498
301.10 1.497
301.20 1.497
301.30 1.496
301.40 1.496
301.50 1.495
301.60 1.495
301.70 1.494
301.80 1.494
301.90 1.493
302.00 1.493
302.10 1.492
302.20 1.492
302.30 1.491
302.40 1.491
302.50 1.49
302.60 1.49
302.70 1.489
302.80 1.489
302.90 1.488
303.00 1.488
303.10 1.487
303.20 1.487
303.30 1.486
303.40 1.486
303.50 1.485
303.60 1.485
303.70 1.484
303.80 1.484
303.90 1.483
304.00 1.483
304.10 1.482
304.20 1.482
304.30 1.481
304.40 1.481
304.50 1.48
304.60 1.48
304.70 1.479
304.80 1.479
304.90 1.478
305.00 1.478
305.10 1.477
305.20 1.477
305.30 1.476
305.40 1.476
305.50 1.475
305.60 1.475
305.70 1.474
305.80 1.474
305.90 1.473
306.00 1.473
306.10 1.472
306.20 1.472
306.30 1.471
306.40 1.471
306.50 1.47
306.60 1.47
306.70 1.469
306.80 1.469
306.90 1.468
307.00 1.468
307.10 1.467
307.20 1.467
307.30 1.466
307.40 1.466
307.50 1.465
307.60 1.465
307.70 1.464
307.80 1.464
307.90 1.463
308.00 1.463
308.10 1.462
308.20 1.462
308.30 1.461
308.40 1.461
308.50 1.46
308.60 1.459
308.70 1.459
308.80 1.458
308.90 1.458
309.00 1.457
309.10 1.457
309.20 1.456
309.30 1.456
309.40 1.455
309.50 1.455
309.60 1.454
309.70 1.454
309.80 1.453
309.90 1.453
310.00 1.452
310.10 1.452
310.20 1.451
310.30 1.451
310.40 1.45
310.50 1.45
310.60 1.449
310.70 1.449
310.80 1.448
310.90 1.448
311.00 1.447
311.10 1.447
311.20 1.446
311.30 1.446
311.40 1.445
311.50 1.445
311.60 1.444
311.70 1.444
311.80 1.443
311.90 1.443
312.00 1.442
312.10 1.442
312.20 1.441
312.30 1.44
312.40 1.44
312.50 1.439
312.60 1.439
312.70 1.438
312.80 1.438
312.90 1.437
313.00 1.437
313.10 1.436
313.20 1.436
313.30 1.435
313.40 1.435
313.50 1.434
313.60 1.434
313.70 1.433
313.80 1.433
313.90 1.432
314.00 1.432
314.10 1.431
314.20 1.431
314.30 1.43
314.40 1.43
314.50 1.429
314.60 1.429
314.70 1.428
314.80 1.428
314.90 1.427
315.00 1.427
315.10 1.426
315.20 1.426
315.30 1.425
315.40 1.425
315.50 1.424
315.60 1.424
315.70 1.423
315.80 1.423
315.90 1.422
316.00 1.421
316.10 1.421
316.20 1.42
316.30 1.42
316.40 1.419
316.50 1.419
316.60 1.418
316.70 1.418
316.80 1.417
316.90 1.417
317.00 1.416
317.10 1.416
317.20 1.415
317.30 1.415
317.40 1.414
317.50 1.414
317.60 1.413
317.70 1.413
317.80 1.412
317.90 1.412
318.00 1.411
318.10 1.411
318.20 1.41
318.30 1.41
318.40 1.409
318.50 1.409
318.60 1.408
318.70 1.407
318.80 1.407
318.90 1.406
319.00 1.406
319.10 1.405
319.20 1.405
319.30 1.404
319.40 1.404
319.50 1.403
319.60 1.403
319.70 1.402
319.80 1.402
319.90 1.401
320.00 1.401
320.10 1.4
320.20 1.4
320.30 1.399
320.40 1.399
320.50 1.398
320.60 1.398
320.70 1.397
320.80 1.397
320.90 1.396
321.00 1.396
321.10 1.395
321.20 1.395
321.30 1.394
321.40 1.394
321.50 1.393
321.60 1.392
321.70 1.392
321.80 1.391
321.90 1.391
322.00 1.39
322.10 1.39
322.20 1.389
322.30 1.389
322.40 1.388
322.50 1.388
322.60 1.387
322.70 1.387
322.80 1.386
322.90 1.386
323.00 1.385
323.10 1.385
323.20 1.384
323.30 1.384
323.40 1.383
323.50 1.383
323.60 1.382
323.70 1.382
323.80 1.381
323.90 1.381
324.00 1.38
324.10 1.38
324.20 1.379
324.30 1.378
324.40 1.378
324.50 1.377
324.60 1.377
324.70 1.376
324.80 1.376
324.90 1.375
325.00 1.375
325.10 1.374
325.20 1.374
325.30 1.373
325.40 1.373
325.50 1.372
325.60 1.372
325.70 1.371
325.80 1.371
325.90 1.37
326.00 1.37
326.10 1.369
326.20 1.369
326.30 1.368
326.40 1.368
326.50 1.367
326.60 1.367
326.70 1.366
326.80 1.366
326.90 1.365
327.00 1.364
327.10 1.364
327.20 1.363
327.30 1.363
327.40 1.362
327.50 1.362
327.60 1.361
327.70 1.361
327.80 1.36
327.90 1.36
328.00 1.359
328.10 1.359
328.20 1.358
328.30 1.358
328.40 1.357
328.50 1.357
328.60 1.356
328.70 1.356
328.80 1.355
328.90 1.355
329.00 1.354
329.10 1.354
329.20 1.353
329.30 1.353
329.40 1.352
329.50 1.352
329.60 1.351
329.70 1.351
329.80 1.35
329.90 1.349
330.00 1.349
330.10 1.348
330.20 1.348
330.30 1.347
330.40 1.347
330.50 1.346
330.60 1.346
330.70 1.345
330.80 1.345
330.90 1.344
331.00 1.344
331.10 1.343
331.20 1.343
331.30 1.342
331.40 1.342
331.50 1.341
331.60 1.341
331.70 1.34
331.80 1.34
331.90 1.339
332.00 1.339
332.10 1.338
332.20 1.338
332.30 1.337
332.40 1.337
332.50 1.336
332.60 1.336
332.70 1.335
332.80 1.335
332.90 1.334
333.00 1.333
333.10 1.333
333.20 1.332
333.30 1.332
333.40 1.331
333.50 1.331
333.60 1.33
333.70 1.33
333.80 1.329
333.90 1.329
334.00 1.328
334.10 1.328
334.20 1.327
334.30 1.327
334.40 1.326
334.50 1.326
334.60 1.325
334.70 1.325
334.80 1.324
334.90 1.324
335.00 1.323
335.10 1.323
335.20 1.322
335.30 1.322
335.40 1.321
335.50 1.321
335.60 1.32
335.70 1.32
335.80 1.319
335.90 1.319
336.00 1.318
336.10 1.318
336.20 1.317
336.30 1.317
336.40 1.316
336.50 1.315
336.60 1.315
336.70 1.314
336.80 1.314
336.90 1.313
337.00 1.313
337.10 1.312
337.20 1.312
337.30 1.311
337.40 1.311
337.50 1.31
337.60 1.31
337.70 1.309
337.80 1.309
337.90 1.308
338.00 1.308
338.10 1.307
338.20 1.307
338.30 1.306
338.40 1.306
338.50 1.305
338.60 1.305
338.70 1.304
338.80 1.304
338.90 1.303
339.00 1.303
339.10 1.302
339.20 1.302
339.30 1.301
339.40 1.301
339.50 1.3
339.60 1.3
339.70 1.299
339.80 1.299
339.90 1.298
340.00 1.298
340.10 1.297
340.20 1.297
340.30 1.296
340.40 1.295
340.50 1.295
340.60 1.294
340.70 1.294
340.80 1.293
340.90 1.293
341.00 1.292
341.10 1.292
341.20 1.291
341.30 1.291
341.40 1.29
341.50 1.29
341.60 1.289
341.70 1.289
341.80 1.288
341.90 1.288
342.00 1.287
342.10 1.287
342.20 1.286
342.30 1.286
342.40 1.285
342.50 1.285
342.60 1.284
342.70 1.284
342.80 1.283
342.90 1.283
343.00 1.282
343.10 1.282
343.20 1.281
343.30 1.281
343.40 1.28
343.50 1.28
343.60 1.279
343.70 1.279
343.80 1.278
343.90 1.278
344.00 1.277
344.10 1.277
344.20 1.276
344.30 1.276
344.40 1.275
344.50 1.275
344.60 1.274
344.70 1.274
344.80 1.273
344.90 1.273
345.00 1.272
345.10 1.272
345.20 1.271
345.30 1.271
345.40 1.27
345.50 1.27
345.60 1.269
345.70 1.268
345.80 1.268
345.90 1.267
346.00 1.267
346.10 1.266
346.20 1.266
346.30 1.265
346.40 1.265
346.50 1.264
346.60 1.264
346.70 1.263
346.80 1.263
346.90 1.262
347.00 1.262
347.10 1.261
347.20 1.261
347.30 1.26
347.40 1.26
347.50 1.259
347.60 1.259
347.70 1.258
347.80 1.258
347.90 1.257
348.00 1.257
348.10 1.256
348.20 1.256
348.30 1.255
348.40 1.255
348.50 1.254
348.60 1.254
348.70 1.253
348.80 1.253
348.90 1.252
349.00 1.252
349.10 1.251
349.20 1.251
349.30 1.25
349.40 1.25
349.50 1.249
349.60 1.249
349.70 1.248
349.80 1.248
349.90 1.247
350.00 1.247
350.10 1.246
350.20 1.246
350.30 1.245
350.40 1.245
350.50 1.244
350.60 1.244
350.70 1.243
350.80 1.243
350.90 1.242
351.00 1.242
351.10 1.241
351.20 1.241
351.30 1.24
351.40 1.24
351.50 1.239
351.60 1.239
351.70 1.238
351.80 1.238
351.90 1.237
352.00 1.237
352.10 1.236
352.20 1.236
352.30 1.235
352.40 1.235
352.50 1.234
352.60 1.234
352.70 1.233
352.80 1.233
352.90 1.232
353.00 1.232
353.10 1.231
353.20 1.231
353.30 1.23
353.40 1.23
353.50 1.229
353.60 1.229
353.70 1.228
353.80 1.228
353.90 1.227
354.00 1.227
354.10 1.226
354.20 1.226
354.30 1.225
354.40 1.225
354.50 1.224
354.60 1.224
354.70 1.223
354.80 1.223
354.90 1.222
355.00 1.222
355.10 1.221
355.20 1.221
355.30 1.22
355.40 1.22
355.50 1.219
355.60 1.219
355.70 1.218
355.80 1.218
355.90 1.217
356.00 1.217
356.10 1.216
356.20 1.216
356.30 1.215
356.40 1.215
356.50 1.214
356.60 1.214
356.70 1.213
356.80 1.213
356.90 1.212
357.00 1.212
357.10 1.211
357.20 1.211
357.30 1.21
357.40 1.21
357.50 1.209
357.60 1.209
357.70 1.208
357.80 1.208
357.90 1.207
358.00 1.207
358.10 1.206
358.20 1.206
358.30 1.205
358.40 1.205
358.50 1.204
358.60 1.204
358.70 1.203
358.80 1.203
358.90 1.202
359.00 1.202
359.10 1.201
359.20 1.201
359.30 1.2
359.40 1.2
359.50 1.199
359.60 1.199
359.70 1.199
359.80 1.198
359.90 1.198
360.00 1.197
360.10 1.197
360.20 1.196
360.30 1.196
360.40 1.195
360.50 1.195
360.60 1.194
360.70 1.194
360.80 1.193
360.90 1.193
361.00 1.192
361.10 1.192
361.20 1.191
361.30 1.191
361.40 1.19
361.50 1.19
361.60 1.189
361.70 1.189
361.80 1.188
361.90 1.188
362.00 1.187
362.10 1.187
362.20 1.186
362.30 1.186
362.40 1.185
362.50 1.185
362.60 1.184
362.70 1.184
362.80 1.183
362.90 1.183
363.00 1.182
363.10 1.182
363.20 1.181
363.30 1.181
363.40 1.18
363.50 1.18
363.60 1.179
363.70 1.179
363.80 1.178
363.90 1.178
364.00 1.177
364.10 1.177
364.20 1.176
364.30 1.175
364.40 1.175
364.50 1.174
364.60 1.174
364.70 1.173
364.80 1.173
364.90 1.172
365.00 1.172
365.10 1.171
365.20 1.171
365.30 1.17
365.40 1.17
365.50 1.169
365.60 1.169
365.70 1.168
365.80 1.168
365.90 1.167
366.00 1.167
366.10 1.166
366.20 1.166
366.30 1.165
366.40 1.165
366.50 1.164
366.60 1.164
366.70 1.164
366.80 1.163
366.90 1.163
367.00 1.162
367.10 1.162
367.20 1.161
367.30 1.161
367.40 1.16
367.50 1.16
367.60 1.159
367.70 1.159
367.80 1.159
367.90 1.158
368.00 1.158
368.10 1.158
368.20 1.158
368.30 1.158
368.40 1.159
368.50 1.159
368.60 1.159
368.70 1.159
368.80 1.159
368.90 1.16
369.00 1.16
369.10 1.16
369.20 1.16
369.30 1.16
369.40 1.161
369.50 1.161
369.60 1.161
369.70 1.161
369.80 1.162
369.90 1.162
370.00 1.162
370.10 1.163
370.20 1.165
370.30 1.166
370.40 1.168
370.50 1.169
370.60 1.171
370.70 1.172
370.80 1.174
370.90 1.175
371.00 1.177
371.10 1.178
371.20 1.18
371.30 1.181
371.40 1.183
371.50 1.184
371.60 1.186
371.70 1.187
371.80 1.189
371.90 1.19
372.00 1.192
372.10 1.194
372.20 1.196
372.30 1.198
372.40 1.201
372.50 1.203
372.60 1.205
372.70 1.208
372.80 1.21
372.90 1.212
373.00 1.214
373.10 1.217
373.20 1.219
373.30 1.221
373.40 1.224
373.50 1.226
373.60 1.228
373.70 1.23
373.80 1.233
373.90 1.235
374.00 1.237
374.10 1.239
374.20 1.242
374.30 1.244
374.40 1.246
374.50 1.248
374.60 1.25
374.70 1.252
374.80 1.254
374.90 1.257
375.00 1.259
375.10 1.261
375.20 1.263
375.30 1.265
375.40 1.267
375.50 1.269
375.60 1.271
375.70 1.274
375.80 1.276
375.90 1.278
376.00 1.28
376.10 1.281
376.20 1.282
376.30 1.283
376.40 1.284
376.50 1.285
376.60 1.286
376.70 1.287
376.80 1.288
376.90 1.29
377.00 1.291
377.10 1.289
377.20 1.288
377.30 1.286
377.40 1.285
377.50 1.283
377.60 1.282
377.70 1.281
377.80 1.279
377.90 1.278
378.00 1.276
378.10 1.265
378.20 1.254
378.30 1.243
378.40 1.232
378.50 1.221
378.60 1.21
378.70 1.199
378.80 1.188
378.90 1.177
379.00 1.166
379.10 1.151
379.20 1.136
379.30 1.121
379.40 1.106
379.50 1.091
379.60 1.076
379.70 1.061
379.80 1.046
379.90 1.031
380.00 1.016
380.10 1.038
380.20 1.059
380.30 1.08
380.40 1.101
380.50 1.122
380.60 1.143
380.70 1.165
380.80 1.186
380.90 1.207
381.00 1.228
381.10 1.233
381.20 1.238
381.30 1.243
381.40 1.249
381.50 1.254
381.60 1.254
381.70 1.253
381.80 1.25
381.90 1.245
382.00 1.239
382.10 1.23
382.20 1.22
382.30 1.191
382.40 1.162
382.50 1.134
382.60 1.105
382.70 1.077
382.80 1.048
382.90 1.02
383.00 0.9915
383.10 0.9631
383.20 0.9348
383.30 0.8899
383.40 0.8404
383.50 0.7911
383.60 0.8014
383.70 0.8517
383.80 0.9013
383.90 0.9459
384.00 0.988
384.10 1.029
384.20 1.068
384.30 1.103
384.40 1.135
384.50 1.163
384.60 1.188
384.70 1.208
384.80 1.226
384.90 1.241
385.00 1.254
385.10 1.264
385.20 1.274
385.30 1.282
385.40 1.288
385.50 1.293
385.60 1.297
385.70 1.3
385.80 1.303
385.90 1.304
386.00 1.305
386.10 1.304
386.20 1.303
386.30 1.301
386.40 1.298
386.50 1.295
386.60 1.29
386.70 1.285
386.80 1.279
386.90 1.271
387.00 1.263
387.10 1.254
387.20 1.243
387.30 1.23
387.40 1.217
387.50 1.2
387.60 1.182
387.70 1.162
387.80 1.137
387.90 1.109
388.00 1.077
388.10 1.038
388.20 0.9944
388.30 0.9468
388.40 0.8926
388.50 0.8371
388.60 0.7801
388.70 0.7198
388.80 0.6624
388.90 0.608
389.00 0.6583
389.10 0.7136
389.20 0.7741
389.30 0.8313
389.40 0.8872
389.50 0.9417
389.60 0.9902
389.70 1.035
389.80 1.075
389.90 1.108
390.00 1.137
390.10 1.163
390.20 1.185
390.30 1.205
390.40 1.223
390.50 1.238
390.60 1.252
390.70 1.266
390.80 1.277
390.90 1.288
391.00 1.298
391.10 1.307
391.20 1.315
391.30 1.323
391.40 1.33
391.50 1.337
391.60 1.343
391.70 1.348
391.80 1.353
391.90 1.357
392.00 1.361
392.10 1.364
392.20 1.367
392.30 1.369
392.40 1.371
392.50 1.372
392.60 1.373
392.70 1.374
392.80 1.374
392.90 1.373
393.00 1.372
393.10 1.371
393.20 1.369
393.30 1.367
393.40 1.364
393.50 1.36
393.60 1.356
393.70 1.352
393.80 1.347
393.90 1.342
394.00 1.336
394.10 1.329
394.20 1.322
394.30 1.314
394.40 1.305
394.50 1.296
394.60 1.286
394.70 1.276
394.80 1.264
394.90 1.252
395.00 1.239
395.10 1.225
395.20 1.211
395.30 1.194
395.40 1.177
395.50 1.158
395.60 1.137
395.70 1.115
395.80 1.091
395.90 1.062
396.00 1.031
396.10 0.9974
396.20 0.956
396.30 0.9098
396.40 0.859
396.50 0.7999
396.60 0.7394
396.70 0.6774
396.80 0.6162
396.90 0.5528
397.00 0.487
397.10 0.547
397.20 0.6074
397.30 0.6684
397.40 0.73
397.50 0.7904
397.60 0.8496
397.70 0.9008
397.80 0.9473
397.90 0.9891
398.00 1.023
398.10 1.054
398.20 1.082
398.30 1.107
398.40 1.129
398.50 1.15
398.60 1.168
398.70 1.186
398.80 1.202
398.90 1.217
399.00 1.231
399.10 1.244
399.20 1.256
399.30 1.268
399.40 1.279
399.50 1.29
399.60 1.299
399.70 1.309
399.80 1.317
399.90 1.326
400.00 1.334
400.10 1.341
400.20 1.348
400.30 1.354
400.40 1.361
400.50 1.366
400.60 1.372
400.70 1.377
400.80 1.382
400.90 1.386
401.00 1.39
401.10 1.394
401.20 1.398
401.30 1.401
401.40 1.405
401.50 1.407
401.60 1.41
401.70 1.413
401.80 1.415
401.90 1.417
402.00 1.419
402.10 1.421
402.20 1.422
402.30 1.423
402.40 1.425
402.50 1.426
402.60 1.427
402.70 1.427
402.80 1.428
402.90 1.428
403.00 1.428
403.10 1.429
403.20 1.429
403.30 1.428
403.40 1.428
403.50 1.428
403.60 1.427
403.70 1.426
403.80 1.425
403.90 1.424
404.00 1.423
404.10 1.422
404.20 1.42
404.30 1.419
404.40 1.417
404.50 1.415
404.60 1.413
404.70 1.411
404.80 1.408
404.90 1.406
405.00 1.403
405.10 1.4
405.20 1.397
405.30 1.394
405.40 1.39
405.50 1.386
405.60 1.382
405.70 1.378
405.80 1.374
405.90 1.369
406.00 1.364
406.10 1.359
406.20 1.353
406.30 1.348
406.40 1.342
406.50 1.335
406.60 1.329
406.70 1.321
406.80 1.314
406.90 1.306
407.00 1.298
407.10 1.289
407.20 1.28
407.30 1.27
407.40 1.26
407.50 1.25
407.60 1.238
407.70 1.226
407.80 1.214
407.90 1.2
408.00 1.186
408.10 1.172
408.20 1.156
408.30 1.139
408.40 1.122
408.50 1.104
408.60 1.084
408.70 1.064
408.80 1.041
408.90 1.017
409.00 0.9917
409.10 0.9627
409.20 0.9313
409.30 0.8974
409.40 0.8567
409.50 0.8121
409.60 0.7635
409.70 0.7087
409.80 0.6534
409.90 0.5976
410.00 0.5425
410.10 0.4916
410.20 0.4448
410.30 0.5119
410.40 0.5724
410.50 0.6265
410.60 0.6826
410.70 0.7368
410.80 0.7892
410.90 0.8343
411.00 0.8755
411.10 0.9128
411.20 0.944
411.30 0.973
411.40 0.9997
411.50 1.023
411.60 1.045
411.70 1.066
411.80 1.085
411.90 1.103
412.00 1.12
412.10 1.136
412.20 1.151
412.30 1.165
412.40 1.179
412.50 1.191
412.60 1.203
412.70 1.215
412.80 1.225
412.90 1.236
413.00 1.245
413.10 1.254
413.20 1.263
413.30 1.271
413.40 1.278
413.50 1.285
413.60 1.292
413.70 1.299
413.80 1.305
413.90 1.311
414.00 1.316
414.10 1.321
414.20 1.326
414.30 1.331
414.40 1.335
414.50 1.34
414.60 1.344
414.70 1.348
414.80 1.351
414.90 1.355
415.00 1.358
415.10 1.361
415.20 1.364
415.30 1.367
415.40 1.369
415.50 1.372
415.60 1.374
415.70 1.376
415.80 1.378
415.90 1.38
416.00 1.382
416.10 1.384
416.20 1.386
416.30 1.387
416.40 1.389
416.50 1.39
416.60 1.392
416.70 1.393
416.80 1.394
416.90 1.395
417.00 1.397
417.10 1.398
417.20 1.399
417.30 1.399
417.40 1.4
417.50 1.401
417.60 1.402
417.70 1.402
417.80 1.403
417.90 1.404
418.00 1.404
418.10 1.405
418.20 1.405
418.30 1.405
418.40 1.406
418.50 1.406
418.60 1.406
418.70 1.406
418.80 1.407
418.90 1.407
419.00 1.407
419.10 1.407
419.20 1.407
419.30 1.407
419.40 1.407
419.50 1.407
419.60 1.407
419.70 1.407
419.80 1.407
419.90 1.406
420.00 1.406
420.10 1.406
420.20 1.406
420.30 1.406
420.40 1.405
420.50 1.405
420.60 1.405
420.70 1.404
420.80 1.404
420.90 1.403
421.00 1.403
421.10 1.403
421.20 1.402
421.30 1.402
421.40 1.401
421.50 1.401
421.60 1.4
421.70 1.4
421.80 1.399
421.90 1.398
422.00 1.398
422.10 1.397
422.20 1.397
422.30 1.396
422.40 1.395
422.50 1.395
422.60 1.394
422.70 1.393
422.80 1.392
422.90 1.391
423.00 1.391
423.10 1.39
423.20 1.389
423.30 1.388
423.40 1.387
423.50 1.386
423.60 1.385
423.70 1.384
423.80 1.383
423.90 1.382
424.00 1.381
424.10 1.38
424.20 1.379
424.30 1.378
424.40 1.377
424.50 1.376
424.60 1.375
424.70 1.374
424.80 1.372
424.90 1.371
425.00 1.37
425.10 1.369
425.20 1.367
425.30 1.366
425.40 1.365
425.50 1.363
425.60 1.362
425.70 1.36
425.80 1.359
425.90 1.357
426.00 1.356
426.10 1.354
426.20 1.352
426.30 1.35
426.40 1.348
426.50 1.346
426.60 1.345
426.70 1.343
426.80 1.341
426.90 1.339
427.00 1.337
427.10 1.335
427.20 1.332
427.30 1.33
427.40 1.328
427.50 1.325
427.60 1.323
427.70 1.32
427.80 1.318
427.90 1.315
428.00 1.312
428.10 1.31
428.20 1.307
428.30 1.304
428.40 1.301
428.50 1.297
428.60 1.294
428.70 1.291
428.80 1.287
428.90 1.283
429.00 1.279
429.10 1.276
429.20 1.271
429.30 1.267
429.40 1.263
429.50 1.258
429.60 1.253
429.70 1.249
429.80 1.243
429.90 1.238
430.00 1.233
430.10 1.227
430.20 1.221
430.30 1.215
430.40 1.208
430.50 1.202
430.60 1.195
430.70 1.187
430.80 1.18
430.90 1.172
431.00 1.164
431.10 1.156
431.20 1.147
431.30 1.138
431.40 1.128
431.50 1.119
431.60 1.108
431.70 1.097
431.80 1.085
431.90 1.073
432.00 1.059
432.10 1.045
432.20 1.03
432.30 1.013
432.40 0.9955
432.50 0.9753
432.60 0.9536
432.70 0.9304
432.80 0.9045
432.90 0.8776
433.00 0.8498
433.10 0.8207
433.20 0.79
433.30 0.7579
433.40 0.72
433.50 0.6791
433.60 0.6352
433.70 0.589
433.80 0.5429
433.90 0.4969
434.00 0.4222
434.10 0.4235
434.20 0.5006
434.30 0.5462
434.40 0.5919
434.50 0.6378
434.60 0.681
434.70 0.7211
434.80 0.758
434.90 0.7893
435.00 0.8191
435.10 0.8473
435.20 0.8743
435.30 0.9003
435.40 0.9251
435.50 0.9472
435.60 0.9678
435.70 0.9869
435.80 1.003
435.90 1.019
436.00 1.034
436.10 1.046
436.20 1.059
436.30 1.07
436.40 1.081
436.50 1.091
436.60 1.1
436.70 1.109
436.80 1.117
436.90 1.125
437.00 1.132
437.10 1.14
437.20 1.147
437.30 1.153
437.40 1.159
437.50 1.165
437.60 1.171
437.70 1.177
437.80 1.182
437.90 1.187
438.00 1.192
438.10 1.196
438.20 1.2
438.30 1.204
438.40 1.208
438.50 1.212
438.60 1.216
438.70 1.219
438.80 1.222
438.90 1.225
439.00 1.228
439.10 1.231
439.20 1.233
439.30 1.236
439.40 1.238
439.50 1.24
439.60 1.243
439.70 1.245
439.80 1.246
439.90 1.248
440.00 1.25
440.10 1.252
440.20 1.253
440.30 1.255
440.40 1.256
440.50 1.257
440.60 1.259
440.70 1.26
440.80 1.261
440.90 1.262
441.00 1.263
441.10 1.264
441.20 1.265
441.30 1.266
441.40 1.267
441.50 1.267
441.60 1.268
441.70 1.269
441.80 1.269
441.90 1.27
442.00 1.271
442.10 1.271
442.20 1.272
442.30 1.272
442.40 1.272
442.50 1.273
442.60 1.273
442.70 1.273
442.80 1.274
442.90 1.274
443.00 1.274
443.10 1.274
443.20 1.275
443.30 1.275
443.40 1.275
443.50 1.275
443.60 1.275
443.70 1.275
443.80 1.275
443.90 1.275
444.00 1.275
444.10 1.275
444.20 1.275
444.30 1.275
444.40 1.275
444.50 1.275
444.60 1.275
444.70 1.275
444.80 1.275
444.90 1.275
445.00 1.275
445.10 1.275
445.20 1.275
445.30 1.275
445.40 1.274
445.50 1.274
445.60 1.274
445.70 1.274
445.80 1.274
445.90 1.273
446.00 1.273
446.10 1.273
446.20 1.273
446.30 1.272
446.40 1.272
446.50 1.272
446.60 1.272
446.70 1.271
446.80 1.271
446.90 1.271
447.00 1.27
447.10 1.27
447.20 1.27
447.30 1.27
447.40 1.269
447.50 1.269
447.60 1.268
447.70 1.268
447.80 1.268
447.90 1.267
448.00 1.267
448.10 1.267
448.20 1.266
448.30 1.266
448.40 1.266
448.50 1.265
448.60 1.265
448.70 1.264
448.80 1.264
448.90 1.264
449.00 1.263
449.10 1.263
449.20 1.262
449.30 1.262
449.40 1.262
449.50 1.261
449.60 1.261
449.70 1.26
449.80 1.26
449.90 1.259
450.00 1.259
450.10 1.259
450.20 1.258
450.30 1.258
450.40 1.257
450.50 1.257
450.60 1.256
450.70 1.256
450.80 1.255
450.90 1.255
451.00 1.254
451.10 1.254
451.20 1.253
451.30 1.253
451.40 1.253
451.50 1.252
451.60 1.252
451.70 1.251
451.80 1.251
451.90 1.25
452.00 1.25
452.10 1.249
452.20 1.249
452.30 1.248
452.40 1.248
452.50 1.247
452.60 1.247
452.70 1.246
452.80 1.246
452.90 1.245
453.00 1.245
453.10 1.244
453.20 1.244
453.30 1.243
