# Version 2.1 - nm, norm@500 to 1, cut digits, bergeron_14500_80.dat_14500
# Wavelength(nm)  Flambda(ergs/cm^s/s/nm)
300.00 2.192
300.10 2.19
300.20 2.188
300.30 2.187
300.40 2.185
300.50 2.183
300.60 2.182
300.70 2.18
300.80 2.178
300.90 2.177
301.00 2.175
301.10 2.173
301.20 2.172
301.30 2.17
301.40 2.169
301.50 2.167
301.60 2.165
301.70 2.164
301.80 2.162
301.90 2.16
302.00 2.159
302.10 2.157
302.20 2.155
302.30 2.154
302.40 2.152
302.50 2.15
302.60 2.149
302.70 2.147
302.80 2.146
302.90 2.144
303.00 2.142
303.10 2.141
303.20 2.139
303.30 2.137
303.40 2.136
303.50 2.134
303.60 2.133
303.70 2.131
303.80 2.129
303.90 2.128
304.00 2.126
304.10 2.124
304.20 2.123
304.30 2.121
304.40 2.12
304.50 2.118
304.60 2.116
304.70 2.115
304.80 2.113
304.90 2.112
305.00 2.11
305.10 2.108
305.20 2.107
305.30 2.105
305.40 2.104
305.50 2.102
305.60 2.101
305.70 2.099
305.80 2.097
305.90 2.096
306.00 2.094
306.10 2.093
306.20 2.091
306.30 2.089
306.40 2.088
306.50 2.086
306.60 2.085
306.70 2.083
306.80 2.082
306.90 2.08
307.00 2.078
307.10 2.077
307.20 2.075
307.30 2.074
307.40 2.072
307.50 2.071
307.60 2.069
307.70 2.068
307.80 2.066
307.90 2.064
308.00 2.063
308.10 2.061
308.20 2.06
308.30 2.058
308.40 2.057
308.50 2.055
308.60 2.054
308.70 2.052
308.80 2.051
308.90 2.049
309.00 2.048
309.10 2.046
309.20 2.044
309.30 2.043
309.40 2.041
309.50 2.04
309.60 2.038
309.70 2.037
309.80 2.035
309.90 2.034
310.00 2.032
310.10 2.031
310.20 2.029
310.30 2.028
310.40 2.026
310.50 2.025
310.60 2.023
310.70 2.022
310.80 2.02
310.90 2.019
311.00 2.017
311.10 2.016
311.20 2.014
311.30 2.013
311.40 2.011
311.50 2.01
311.60 2.008
311.70 2.007
311.80 2.005
311.90 2.004
312.00 2.002
312.10 2.001
312.20 1.999
312.30 1.998
312.40 1.996
312.50 1.995
312.60 1.993
312.70 1.992
312.80 1.99
312.90 1.989
313.00 1.988
313.10 1.986
313.20 1.985
313.30 1.983
313.40 1.982
313.50 1.98
313.60 1.979
313.70 1.977
313.80 1.976
313.90 1.974
314.00 1.973
314.10 1.971
314.20 1.97
314.30 1.969
314.40 1.967
314.50 1.966
314.60 1.964
314.70 1.963
314.80 1.961
314.90 1.96
315.00 1.958
315.10 1.957
315.20 1.956
315.30 1.954
315.40 1.953
315.50 1.951
315.60 1.95
315.70 1.948
315.80 1.947
315.90 1.946
316.00 1.944
316.10 1.943
316.20 1.941
316.30 1.94
316.40 1.938
316.50 1.937
316.60 1.936
316.70 1.934
316.80 1.933
316.90 1.931
317.00 1.93
317.10 1.928
317.20 1.927
317.30 1.926
317.40 1.924
317.50 1.923
317.60 1.921
317.70 1.92
317.80 1.919
317.90 1.917
318.00 1.916
318.10 1.914
318.20 1.913
318.30 1.912
318.40 1.91
318.50 1.909
318.60 1.907
318.70 1.906
318.80 1.905
318.90 1.903
319.00 1.902
319.10 1.901
319.20 1.899
319.30 1.898
319.40 1.896
319.50 1.895
319.60 1.894
319.70 1.892
319.80 1.891
319.90 1.889
320.00 1.888
320.10 1.887
320.20 1.885
320.30 1.884
320.40 1.883
320.50 1.881
320.60 1.88
320.70 1.879
320.80 1.877
320.90 1.876
321.00 1.874
321.10 1.873
321.20 1.872
321.30 1.87
321.40 1.869
321.50 1.868
321.60 1.866
321.70 1.865
321.80 1.864
321.90 1.862
322.00 1.861
322.10 1.86
322.20 1.858
322.30 1.857
322.40 1.856
322.50 1.854
322.60 1.853
322.70 1.852
322.80 1.85
322.90 1.849
323.00 1.848
323.10 1.846
323.20 1.845
323.30 1.844
323.40 1.842
323.50 1.841
323.60 1.84
323.70 1.838
323.80 1.837
323.90 1.836
324.00 1.834
324.10 1.833
324.20 1.832
324.30 1.83
324.40 1.829
324.50 1.828
324.60 1.826
324.70 1.825
324.80 1.824
324.90 1.822
325.00 1.821
325.10 1.82
325.20 1.819
325.30 1.817
325.40 1.816
325.50 1.815
325.60 1.813
325.70 1.812
325.80 1.811
325.90 1.809
326.00 1.808
326.10 1.807
326.20 1.806
326.30 1.804
326.40 1.803
326.50 1.802
326.60 1.8
326.70 1.799
326.80 1.798
326.90 1.797
327.00 1.795
327.10 1.794
327.20 1.793
327.30 1.791
327.40 1.79
327.50 1.789
327.60 1.788
327.70 1.786
327.80 1.785
327.90 1.784
328.00 1.783
328.10 1.781
328.20 1.78
328.30 1.779
328.40 1.777
328.50 1.776
328.60 1.775
328.70 1.774
328.80 1.772
328.90 1.771
329.00 1.77
329.10 1.769
329.20 1.767
329.30 1.766
329.40 1.765
329.50 1.764
329.60 1.762
329.70 1.761
329.80 1.76
329.90 1.759
330.00 1.757
330.10 1.756
330.20 1.755
330.30 1.754
330.40 1.752
330.50 1.751
330.60 1.75
330.70 1.749
330.80 1.747
330.90 1.746
331.00 1.745
331.10 1.744
331.20 1.742
331.30 1.741
331.40 1.74
331.50 1.739
331.60 1.738
331.70 1.736
331.80 1.735
331.90 1.734
332.00 1.733
332.10 1.731
332.20 1.73
332.30 1.729
332.40 1.728
332.50 1.727
332.60 1.725
332.70 1.724
332.80 1.723
332.90 1.722
333.00 1.72
333.10 1.719
333.20 1.718
333.30 1.717
333.40 1.716
333.50 1.714
333.60 1.713
333.70 1.712
333.80 1.711
333.90 1.71
334.00 1.708
334.10 1.707
334.20 1.706
334.30 1.705
334.40 1.704
334.50 1.702
334.60 1.701
334.70 1.7
334.80 1.699
334.90 1.698
335.00 1.696
335.10 1.695
335.20 1.694
335.30 1.693
335.40 1.692
335.50 1.691
335.60 1.689
335.70 1.688
335.80 1.687
335.90 1.686
336.00 1.685
336.10 1.683
336.20 1.682
336.30 1.681
336.40 1.68
336.50 1.679
336.60 1.678
336.70 1.676
336.80 1.675
336.90 1.674
337.00 1.673
337.10 1.672
337.20 1.671
337.30 1.669
337.40 1.668
337.50 1.667
337.60 1.666
337.70 1.665
337.80 1.664
337.90 1.662
338.00 1.661
338.10 1.66
338.20 1.659
338.30 1.658
338.40 1.657
338.50 1.656
338.60 1.654
338.70 1.653
338.80 1.652
338.90 1.651
339.00 1.65
339.10 1.649
339.20 1.647
339.30 1.646
339.40 1.645
339.50 1.644
339.60 1.643
339.70 1.642
339.80 1.641
339.90 1.639
340.00 1.638
340.10 1.637
340.20 1.636
340.30 1.635
340.40 1.634
340.50 1.633
340.60 1.632
340.70 1.63
340.80 1.629
340.90 1.628
341.00 1.627
341.10 1.626
341.20 1.625
341.30 1.624
341.40 1.623
341.50 1.621
341.60 1.62
341.70 1.619
341.80 1.618
341.90 1.617
342.00 1.616
342.10 1.615
342.20 1.614
342.30 1.612
342.40 1.611
342.50 1.61
342.60 1.609
342.70 1.608
342.80 1.607
342.90 1.606
343.00 1.605
343.10 1.604
343.20 1.603
343.30 1.601
343.40 1.6
343.50 1.599
343.60 1.598
343.70 1.597
343.80 1.596
343.90 1.595
344.00 1.594
344.10 1.593
344.20 1.592
344.30 1.59
344.40 1.589
344.50 1.588
344.60 1.587
344.70 1.586
344.80 1.585
344.90 1.584
345.00 1.583
345.10 1.582
345.20 1.581
345.30 1.58
345.40 1.579
345.50 1.577
345.60 1.576
345.70 1.575
345.80 1.574
345.90 1.573
346.00 1.572
346.10 1.571
346.20 1.57
346.30 1.569
346.40 1.568
346.50 1.567
346.60 1.566
346.70 1.565
346.80 1.563
346.90 1.562
347.00 1.561
347.10 1.56
347.20 1.559
347.30 1.558
347.40 1.557
347.50 1.556
347.60 1.555
347.70 1.554
347.80 1.553
347.90 1.552
348.00 1.551
348.10 1.55
348.20 1.549
348.30 1.548
348.40 1.547
348.50 1.545
348.60 1.544
348.70 1.543
348.80 1.542
348.90 1.541
349.00 1.54
349.10 1.539
349.20 1.538
349.30 1.537
349.40 1.536
349.50 1.535
349.60 1.534
349.70 1.533
349.80 1.532
349.90 1.531
350.00 1.53
350.10 1.529
350.20 1.528
350.30 1.527
350.40 1.526
350.50 1.525
350.60 1.524
350.70 1.523
350.80 1.522
350.90 1.52
351.00 1.519
351.10 1.518
351.20 1.517
351.30 1.516
351.40 1.515
351.50 1.514
351.60 1.513
351.70 1.512
351.80 1.511
351.90 1.51
352.00 1.509
352.10 1.508
352.20 1.507
352.30 1.506
352.40 1.505
352.50 1.504
352.60 1.503
352.70 1.502
352.80 1.501
352.90 1.5
353.00 1.499
353.10 1.498
353.20 1.497
353.30 1.496
353.40 1.495
353.50 1.494
353.60 1.493
353.70 1.492
353.80 1.491
353.90 1.49
354.00 1.489
354.10 1.488
354.20 1.487
354.30 1.486
354.40 1.485
354.50 1.484
354.60 1.483
354.70 1.482
354.80 1.481
354.90 1.48
355.00 1.479
355.10 1.478
355.20 1.477
355.30 1.476
355.40 1.475
355.50 1.474
355.60 1.473
355.70 1.472
355.80 1.471
355.90 1.47
356.00 1.469
356.10 1.468
356.20 1.467
356.30 1.466
356.40 1.465
356.50 1.464
356.60 1.463
356.70 1.462
356.80 1.461
356.90 1.46
357.00 1.459
357.10 1.458
357.20 1.457
357.30 1.456
357.40 1.455
357.50 1.455
357.60 1.454
357.70 1.453
357.80 1.452
357.90 1.451
358.00 1.45
358.10 1.449
358.20 1.448
358.30 1.447
358.40 1.446
358.50 1.445
358.60 1.444
358.70 1.443
358.80 1.442
358.90 1.441
359.00 1.44
359.10 1.439
359.20 1.438
359.30 1.437
359.40 1.436
359.50 1.435
359.60 1.434
359.70 1.433
359.80 1.432
359.90 1.431
360.00 1.431
360.10 1.43
360.20 1.429
360.30 1.428
360.40 1.427
360.50 1.426
360.60 1.425
360.70 1.424
360.80 1.423
360.90 1.422
361.00 1.421
361.10 1.42
361.20 1.419
361.30 1.418
361.40 1.417
361.50 1.416
361.60 1.415
361.70 1.414
361.80 1.414
361.90 1.413
362.00 1.412
362.10 1.411
362.20 1.41
362.30 1.409
362.40 1.408
362.50 1.407
362.60 1.406
362.70 1.405
362.80 1.404
362.90 1.403
363.00 1.402
363.10 1.401
363.20 1.4
363.30 1.399
363.40 1.398
363.50 1.397
363.60 1.396
363.70 1.395
363.80 1.394
363.90 1.393
364.00 1.392
364.10 1.391
364.20 1.39
364.30 1.389
364.40 1.388
364.50 1.387
364.60 1.386
364.70 1.385
364.80 1.384
364.90 1.383
365.00 1.382
365.10 1.381
365.20 1.38
365.30 1.379
365.40 1.378
365.50 1.377
365.60 1.376
365.70 1.375
365.80 1.374
365.90 1.373
366.00 1.372
366.10 1.371
366.20 1.37
366.30 1.369
366.40 1.368
366.50 1.367
366.60 1.366
366.70 1.365
366.80 1.364
366.90 1.363
367.00 1.362
367.10 1.361
367.20 1.361
367.30 1.36
367.40 1.359
367.50 1.358
367.60 1.357
367.70 1.356
367.80 1.355
367.90 1.354
368.00 1.353
368.10 1.352
368.20 1.352
368.30 1.351
368.40 1.35
368.50 1.349
368.60 1.348
368.70 1.348
368.80 1.347
368.90 1.346
369.00 1.345
369.10 1.345
369.20 1.344
369.30 1.343
369.40 1.342
369.50 1.341
369.60 1.341
369.70 1.34
369.80 1.339
369.90 1.338
370.00 1.338
370.10 1.337
370.20 1.337
370.30 1.337
370.40 1.336
370.50 1.336
370.60 1.336
370.70 1.336
370.80 1.335
370.90 1.335
371.00 1.335
371.10 1.334
371.20 1.334
371.30 1.334
371.40 1.334
371.50 1.333
371.60 1.333
371.70 1.333
371.80 1.332
371.90 1.332
372.00 1.332
372.10 1.332
372.20 1.333
372.30 1.333
372.40 1.334
372.50 1.334
372.60 1.335
372.70 1.335
372.80 1.335
372.90 1.336
373.00 1.336
373.10 1.337
373.20 1.337
373.30 1.338
373.40 1.338
373.50 1.339
373.60 1.339
373.70 1.339
373.80 1.34
373.90 1.34
374.00 1.341
374.10 1.342
374.20 1.343
374.30 1.343
374.40 1.344
374.50 1.345
374.60 1.346
374.70 1.347
374.80 1.348
374.90 1.349
375.00 1.35
375.10 1.35
375.20 1.351
375.30 1.352
375.40 1.353
375.50 1.354
375.60 1.355
375.70 1.356
375.80 1.357
375.90 1.357
376.00 1.358
376.10 1.359
376.20 1.359
376.30 1.36
376.40 1.36
376.50 1.36
376.60 1.361
376.70 1.361
376.80 1.362
376.90 1.362
377.00 1.362
377.10 1.361
377.20 1.36
377.30 1.359
377.40 1.358
377.50 1.357
377.60 1.356
377.70 1.355
377.80 1.354
377.90 1.353
378.00 1.352
378.10 1.347
378.20 1.341
378.30 1.336
378.40 1.331
378.50 1.325
378.60 1.32
378.70 1.314
378.80 1.309
378.90 1.304
379.00 1.298
379.10 1.295
379.20 1.291
379.30 1.287
379.40 1.283
379.50 1.279
379.60 1.276
379.70 1.272
379.80 1.268
379.90 1.264
380.00 1.26
380.10 1.266
380.20 1.272
380.30 1.277
380.40 1.283
380.50 1.289
380.60 1.294
380.70 1.3
380.80 1.305
380.90 1.311
381.00 1.316
381.10 1.318
381.20 1.32
381.30 1.322
381.40 1.323
381.50 1.325
381.60 1.324
381.70 1.322
381.80 1.32
381.90 1.316
382.00 1.311
382.10 1.306
382.20 1.299
382.30 1.286
382.40 1.273
382.50 1.26
382.60 1.247
382.70 1.234
382.80 1.221
382.90 1.208
383.00 1.195
383.10 1.182
383.20 1.17
383.30 1.16
383.40 1.149
383.50 1.137
383.60 1.14
383.70 1.152
383.80 1.163
383.90 1.173
384.00 1.186
384.10 1.201
384.20 1.218
384.30 1.235
384.40 1.251
384.50 1.266
384.60 1.279
384.70 1.291
384.80 1.302
384.90 1.311
385.00 1.319
385.10 1.325
385.20 1.331
385.30 1.336
385.40 1.339
385.50 1.342
385.60 1.344
385.70 1.345
385.80 1.346
385.90 1.346
386.00 1.345
386.10 1.343
386.20 1.341
386.30 1.338
386.40 1.334
386.50 1.329
386.60 1.324
386.70 1.318
386.80 1.311
386.90 1.304
387.00 1.296
387.10 1.287
387.20 1.277
387.30 1.266
387.40 1.255
387.50 1.242
387.60 1.228
387.70 1.213
387.80 1.196
387.90 1.177
388.00 1.157
388.10 1.134
388.20 1.109
388.30 1.083
388.40 1.056
388.50 1.031
388.60 1.008
388.70 0.9907
388.80 0.9749
388.90 0.9609
389.00 0.9734
389.10 0.9884
389.20 1.006
389.30 1.028
389.40 1.053
389.50 1.08
389.60 1.107
389.70 1.132
389.80 1.156
389.90 1.177
390.00 1.197
390.10 1.215
390.20 1.232
390.30 1.247
390.40 1.262
390.50 1.275
390.60 1.288
390.70 1.301
390.80 1.312
390.90 1.323
391.00 1.333
391.10 1.343
391.20 1.352
391.30 1.361
391.40 1.369
391.50 1.377
391.60 1.384
391.70 1.391
391.80 1.396
391.90 1.402
392.00 1.406
392.10 1.41
392.20 1.414
392.30 1.416
392.40 1.418
392.50 1.42
392.60 1.421
392.70 1.421
392.80 1.42
392.90 1.418
393.00 1.416
393.10 1.414
393.20 1.41
393.30 1.406
393.40 1.401
393.50 1.395
393.60 1.389
393.70 1.382
393.80 1.374
393.90 1.366
394.00 1.357
394.10 1.347
394.20 1.336
394.30 1.325
394.40 1.313
394.50 1.301
394.60 1.288
394.70 1.275
394.80 1.261
394.90 1.246
395.00 1.231
395.10 1.216
395.20 1.2
395.30 1.184
395.40 1.167
395.50 1.149
395.60 1.131
395.70 1.112
395.80 1.092
395.90 1.072
396.00 1.05
396.10 1.028
396.20 1.003
396.30 0.9766
396.40 0.948
396.50 0.9153
396.60 0.8828
396.70 0.8504
396.80 0.8236
396.90 0.7949
397.00 0.7642
397.10 0.7921
397.20 0.8188
397.30 0.8444
397.40 0.8758
397.50 0.9075
397.60 0.9395
397.70 0.9678
397.80 0.9941
397.90 1.018
398.00 1.04
398.10 1.061
398.20 1.081
398.30 1.1
398.40 1.119
398.50 1.137
398.60 1.154
398.70 1.171
398.80 1.187
398.90 1.203
399.00 1.219
399.10 1.234
399.20 1.249
399.30 1.264
399.40 1.279
399.50 1.293
399.60 1.307
399.70 1.321
399.80 1.334
399.90 1.346
400.00 1.359
400.10 1.371
400.20 1.383
400.30 1.394
400.40 1.404
400.50 1.415
400.60 1.425
400.70 1.435
400.80 1.444
400.90 1.453
401.00 1.461
401.10 1.469
401.20 1.477
401.30 1.484
401.40 1.491
401.50 1.497
401.60 1.503
401.70 1.509
401.80 1.514
401.90 1.519
402.00 1.524
402.10 1.528
402.20 1.532
402.30 1.536
402.40 1.539
402.50 1.542
402.60 1.544
402.70 1.546
402.80 1.548
402.90 1.549
403.00 1.55
403.10 1.551
403.20 1.551
403.30 1.551
403.40 1.55
403.50 1.55
403.60 1.549
403.70 1.547
403.80 1.545
403.90 1.543
404.00 1.54
404.10 1.537
404.20 1.534
404.30 1.53
404.40 1.526
404.50 1.522
404.60 1.517
404.70 1.512
404.80 1.506
404.90 1.5
405.00 1.494
405.10 1.488
405.20 1.481
405.30 1.473
405.40 1.466
405.50 1.457
405.60 1.449
405.70 1.44
405.80 1.431
405.90 1.421
406.00 1.411
406.10 1.401
406.20 1.39
406.30 1.379
406.40 1.368
406.50 1.356
406.60 1.344
406.70 1.331
406.80 1.318
406.90 1.305
407.00 1.292
407.10 1.278
407.20 1.263
407.30 1.249
407.40 1.233
407.50 1.218
407.60 1.202
407.70 1.186
407.80 1.17
407.90 1.153
408.00 1.137
408.10 1.12
408.20 1.102
408.30 1.085
408.40 1.067
408.50 1.049
408.60 1.031
408.70 1.013
408.80 0.9943
408.90 0.9755
409.00 0.9564
409.10 0.9369
409.20 0.917
409.30 0.8966
409.40 0.8742
409.50 0.8502
409.60 0.8246
409.70 0.7952
409.80 0.7647
409.90 0.7331
410.00 0.6996
410.10 0.6692
410.20 0.6418
410.30 0.6815
410.40 0.717
410.50 0.7483
410.60 0.7787
410.70 0.8076
410.80 0.8348
410.90 0.8583
411.00 0.8803
411.10 0.9008
411.20 0.9198
411.30 0.9384
411.40 0.9567
411.50 0.9745
411.60 0.992
411.70 1.009
411.80 1.026
411.90 1.043
412.00 1.06
412.10 1.076
412.20 1.092
412.30 1.108
412.40 1.124
412.50 1.139
412.60 1.154
412.70 1.169
412.80 1.184
412.90 1.198
413.00 1.212
413.10 1.226
413.20 1.239
413.30 1.252
413.40 1.265
413.50 1.278
413.60 1.29
413.70 1.302
413.80 1.313
413.90 1.324
414.00 1.335
414.10 1.346
414.20 1.356
414.30 1.367
414.40 1.376
414.50 1.386
414.60 1.395
414.70 1.405
414.80 1.413
414.90 1.422
415.00 1.43
415.10 1.438
415.20 1.446
415.30 1.454
415.40 1.461
415.50 1.468
415.60 1.475
415.70 1.482
415.80 1.488
415.90 1.494
416.00 1.5
416.10 1.506
416.20 1.512
416.30 1.517
416.40 1.523
416.50 1.528
416.60 1.533
416.70 1.537
416.80 1.542
416.90 1.546
417.00 1.55
417.10 1.554
417.20 1.558
417.30 1.562
417.40 1.566
417.50 1.569
417.60 1.572
417.70 1.575
417.80 1.578
417.90 1.581
418.00 1.584
418.10 1.586
418.20 1.589
418.30 1.591
418.40 1.593
418.50 1.595
418.60 1.597
418.70 1.599
418.80 1.6
418.90 1.602
419.00 1.604
419.10 1.605
419.20 1.606
419.30 1.607
419.40 1.608
419.50 1.609
419.60 1.61
419.70 1.611
419.80 1.612
419.90 1.612
420.00 1.613
420.10 1.613
420.20 1.613
420.30 1.614
420.40 1.614
420.50 1.614
420.60 1.614
420.70 1.614
420.80 1.614
420.90 1.614
421.00 1.613
421.10 1.613
421.20 1.612
421.30 1.612
421.40 1.611
421.50 1.611
421.60 1.61
421.70 1.609
421.80 1.608
421.90 1.607
422.00 1.606
422.10 1.605
422.20 1.604
422.30 1.602
422.40 1.601
422.50 1.6
422.60 1.598
422.70 1.596
422.80 1.595
422.90 1.593
423.00 1.591
423.10 1.589
423.20 1.588
423.30 1.586
423.40 1.583
423.50 1.581
423.60 1.579
423.70 1.577
423.80 1.574
423.90 1.572
424.00 1.569
424.10 1.567
424.20 1.564
424.30 1.561
424.40 1.558
424.50 1.555
424.60 1.552
424.70 1.549
424.80 1.546
424.90 1.543
425.00 1.539
425.10 1.536
425.20 1.532
425.30 1.529
425.40 1.525
425.50 1.521
425.60 1.517
425.70 1.513
425.80 1.509
425.90 1.505
426.00 1.5
426.10 1.496
426.20 1.49
426.30 1.485
426.40 1.48
426.50 1.475
426.60 1.47
426.70 1.465
426.80 1.46
426.90 1.454
427.00 1.449
427.10 1.443
427.20 1.437
427.30 1.431
427.40 1.425
427.50 1.419
427.60 1.413
427.70 1.406
427.80 1.399
427.90 1.393
428.00 1.386
428.10 1.378
428.20 1.371
428.30 1.364
428.40 1.356
428.50 1.348
428.60 1.34
428.70 1.332
428.80 1.324
428.90 1.316
429.00 1.307
429.10 1.298
429.20 1.289
429.30 1.28
429.40 1.271
429.50 1.261
429.60 1.251
429.70 1.242
429.80 1.231
429.90 1.221
430.00 1.211
430.10 1.2
430.20 1.189
430.30 1.178
430.40 1.167
430.50 1.156
430.60 1.144
430.70 1.132
430.80 1.12
430.90 1.108
431.00 1.096
431.10 1.083
431.20 1.071
431.30 1.058
431.40 1.045
431.50 1.032
431.60 1.018
431.70 1.005
431.80 0.991
431.90 0.9769
432.00 0.9626
432.10 0.9481
432.20 0.9331
432.30 0.9178
432.40 0.9022
432.50 0.8858
432.60 0.869
432.70 0.8518
432.80 0.8342
432.90 0.8167
433.00 0.7993
433.10 0.7826
433.20 0.7658
433.30 0.749
433.40 0.7304
433.50 0.7102
433.60 0.6885
433.70 0.6616
433.80 0.6314
433.90 0.5979
434.00 0.5387
434.10 0.5396
434.20 0.6004
434.30 0.6328
434.40 0.6619
434.50 0.6879
434.60 0.7087
434.70 0.728
434.80 0.7456
434.90 0.7617
435.00 0.7776
435.10 0.7935
435.20 0.8099
435.30 0.8265
435.40 0.843
435.50 0.8591
435.60 0.8748
435.70 0.89
435.80 0.9044
435.90 0.9184
436.00 0.9321
436.10 0.9453
436.20 0.9583
436.30 0.9711
436.40 0.9834
436.50 0.9956
436.60 1.008
436.70 1.019
436.80 1.031
436.90 1.042
437.00 1.053
437.10 1.064
437.20 1.075
437.30 1.085
437.40 1.096
437.50 1.106
437.60 1.115
437.70 1.125
437.80 1.135
437.90 1.144
438.00 1.153
438.10 1.162
438.20 1.17
438.30 1.179
438.40 1.187
438.50 1.195
438.60 1.203
438.70 1.211
438.80 1.218
438.90 1.225
439.00 1.232
439.10 1.239
439.20 1.246
439.30 1.252
439.40 1.259
439.50 1.265
439.60 1.271
439.70 1.277
439.80 1.282
439.90 1.288
440.00 1.293
440.10 1.298
440.20 1.303
440.30 1.308
440.40 1.313
440.50 1.317
440.60 1.322
440.70 1.326
440.80 1.33
440.90 1.334
441.00 1.338
441.10 1.342
441.20 1.346
441.30 1.349
441.40 1.353
441.50 1.356
441.60 1.359
441.70 1.362
441.80 1.365
441.90 1.368
442.00 1.371
442.10 1.374
442.20 1.376
442.30 1.379
442.40 1.381
442.50 1.383
442.60 1.386
442.70 1.388
442.80 1.39
442.90 1.392
443.00 1.393
443.10 1.395
443.20 1.397
443.30 1.399
443.40 1.4
443.50 1.402
443.60 1.403
443.70 1.405
443.80 1.406
443.90 1.407
444.00 1.409
444.10 1.41
444.20 1.411
444.30 1.412
444.40 1.413
444.50 1.414
444.60 1.415
444.70 1.416
444.80 1.417
444.90 1.417
445.00 1.418
445.10 1.419
445.20 1.419
445.30 1.42
445.40 1.421
445.50 1.421
445.60 1.422
445.70 1.422
445.80 1.422
445.90 1.423
446.00 1.423
446.10 1.424
446.20 1.424
446.30 1.424
446.40 1.424
446.50 1.424
446.60 1.425
446.70 1.425
446.80 1.425
446.90 1.425
447.00 1.425
447.10 1.425
447.20 1.425
447.30 1.425
447.40 1.425
447.50 1.425
447.60 1.425
447.70 1.425
447.80 1.424
447.90 1.424
448.00 1.424
448.10 1.424
448.20 1.424
448.30 1.423
448.40 1.423
448.50 1.423
448.60 1.423
448.70 1.422
448.80 1.422
448.90 1.422
449.00 1.422
449.10 1.421
449.20 1.421
449.30 1.421
449.40 1.42
449.50 1.42
449.60 1.419
449.70 1.419
449.80 1.418
449.90 1.418
450.00 1.417
450.10 1.417
450.20 1.416
450.30 1.416
450.40 1.415
450.50 1.415
450.60 1.414
450.70 1.414
450.80 1.413
450.90 1.413
451.00 1.412
451.10 1.411
451.20 1.411
451.30 1.41
451.40 1.41
451.50 1.409
451.60 1.408
451.70 1.408
451.80 1.407
451.90 1.406
452.00 1.406
452.10 1.405
452.20 1.404
452.30 1.404
452.40 1.403
452.50 1.402
452.60 1.401
452.70 1.401
452.80 1.4
452.90 1.399
453.00 1.399
453.10 1.398
453.20 1.397
453.30 1.396
