# Version 2.1 - nm, norm@500 to 1, cut digits, bergeron_2250_95.dat_2250
# Wavelength(nm)  Flambda(ergs/cm^s/s/nm)
300.00 0.07916
300.10 0.07937
300.20 0.07958
300.30 0.07979
300.40 0.08
300.50 0.08021
300.60 0.08042
300.70 0.08063
300.80 0.08085
300.90 0.08106
301.00 0.08126
301.10 0.08147
301.20 0.08168
301.30 0.08189
301.40 0.0821
301.50 0.08231
301.60 0.08252
301.70 0.08272
301.80 0.08293
301.90 0.08314
302.00 0.08335
302.10 0.08356
302.20 0.08378
302.30 0.084
302.40 0.08422
302.50 0.08444
302.60 0.08466
302.70 0.08488
302.80 0.08509
302.90 0.08531
303.00 0.08553
303.10 0.08574
303.20 0.08596
303.30 0.08617
303.40 0.08639
303.50 0.08661
303.60 0.08682
303.70 0.08703
303.80 0.08725
303.90 0.08746
304.00 0.08768
304.10 0.08791
304.20 0.08813
304.30 0.08836
304.40 0.08858
304.50 0.08881
304.60 0.08903
304.70 0.08926
304.80 0.08948
304.90 0.0897
305.00 0.08993
305.10 0.09015
305.20 0.09038
305.30 0.0906
305.40 0.09082
305.50 0.09104
305.60 0.09126
305.70 0.09149
305.80 0.09171
305.90 0.09193
306.00 0.09216
306.10 0.09239
306.20 0.09262
306.30 0.09285
306.40 0.09308
306.50 0.09331
306.60 0.09355
306.70 0.09378
306.80 0.09401
306.90 0.09424
307.00 0.09447
307.10 0.0947
307.20 0.09493
307.30 0.09516
307.40 0.09539
307.50 0.09562
307.60 0.09585
307.70 0.09608
307.80 0.09631
307.90 0.09654
308.00 0.09677
308.10 0.09701
308.20 0.09725
308.30 0.09749
308.40 0.09773
308.50 0.09797
308.60 0.09821
308.70 0.09844
308.80 0.09868
308.90 0.09892
309.00 0.09916
309.10 0.0994
309.20 0.09963
309.30 0.09987
309.40 0.1001
309.50 0.1003
309.60 0.1006
309.70 0.1008
309.80 0.1011
309.90 0.1013
310.00 0.1015
310.10 0.1018
310.20 0.102
310.30 0.1023
310.40 0.1025
310.50 0.1028
310.60 0.103
310.70 0.1033
310.80 0.1035
310.90 0.1038
311.00 0.104
311.10 0.1042
311.20 0.1045
311.30 0.1047
311.40 0.105
311.50 0.1052
311.60 0.1055
311.70 0.1057
311.80 0.106
311.90 0.1062
312.00 0.1064
312.10 0.1067
312.20 0.1069
312.30 0.1072
312.40 0.1074
312.50 0.1077
312.60 0.1079
312.70 0.1082
312.80 0.1084
312.90 0.1087
313.00 0.109
313.10 0.1092
313.20 0.1095
313.30 0.1097
313.40 0.11
313.50 0.1102
313.60 0.1105
313.70 0.1107
313.80 0.111
313.90 0.1112
314.00 0.1115
314.10 0.1117
314.20 0.112
314.30 0.1123
314.40 0.1125
314.50 0.1128
314.60 0.113
314.70 0.1133
314.80 0.1136
314.90 0.1138
315.00 0.1141
315.10 0.1143
315.20 0.1146
315.30 0.1149
315.40 0.1151
315.50 0.1154
315.60 0.1156
315.70 0.1159
315.80 0.1161
315.90 0.1164
316.00 0.1167
316.10 0.1169
316.20 0.1172
316.30 0.1175
316.40 0.1177
316.50 0.118
316.60 0.1183
316.70 0.1185
316.80 0.1188
316.90 0.1191
317.00 0.1193
317.10 0.1196
317.20 0.1199
317.30 0.1201
317.40 0.1204
317.50 0.1207
317.60 0.1209
317.70 0.1212
317.80 0.1215
317.90 0.1217
318.00 0.122
318.10 0.1223
318.20 0.1226
318.30 0.1228
318.40 0.1231
318.50 0.1234
318.60 0.1237
318.70 0.1239
318.80 0.1242
318.90 0.1245
319.00 0.1248
319.10 0.125
319.20 0.1253
319.30 0.1256
319.40 0.1258
319.50 0.1261
319.60 0.1264
319.70 0.1267
319.80 0.1269
319.90 0.1272
320.00 0.1275
320.10 0.1278
320.20 0.128
320.30 0.1283
320.40 0.1286
320.50 0.1289
320.60 0.1292
320.70 0.1295
320.80 0.1297
320.90 0.13
321.00 0.1303
321.10 0.1306
321.20 0.1309
321.30 0.1312
321.40 0.1314
321.50 0.1317
321.60 0.132
321.70 0.1323
321.80 0.1325
321.90 0.1328
322.00 0.1331
322.10 0.1334
322.20 0.1337
322.30 0.134
322.40 0.1343
322.50 0.1346
322.60 0.1349
322.70 0.1351
322.80 0.1354
322.90 0.1357
323.00 0.136
323.10 0.1363
323.20 0.1366
323.30 0.1369
323.40 0.1372
323.50 0.1374
323.60 0.1377
323.70 0.138
323.80 0.1383
323.90 0.1386
324.00 0.1389
324.10 0.1392
324.20 0.1395
324.30 0.1398
324.40 0.1401
324.50 0.1404
324.60 0.1407
324.70 0.141
324.80 0.1413
324.90 0.1416
325.00 0.1419
325.10 0.1421
325.20 0.1424
325.30 0.1427
325.40 0.143
325.50 0.1433
325.60 0.1436
325.70 0.1439
325.80 0.1442
325.90 0.1445
326.00 0.1448
326.10 0.1451
326.20 0.1454
326.30 0.1457
326.40 0.146
326.50 0.1463
326.60 0.1466
326.70 0.1469
326.80 0.1472
326.90 0.1475
327.00 0.1478
327.10 0.1481
327.20 0.1484
327.30 0.1487
327.40 0.149
327.50 0.1493
327.60 0.1496
327.70 0.1499
327.80 0.1502
327.90 0.1505
328.00 0.1509
328.10 0.1512
328.20 0.1515
328.30 0.1518
328.40 0.1521
328.50 0.1524
328.60 0.1527
328.70 0.153
328.80 0.1533
328.90 0.1537
329.00 0.154
329.10 0.1543
329.20 0.1546
329.30 0.1549
329.40 0.1552
329.50 0.1555
329.60 0.1558
329.70 0.1561
329.80 0.1564
329.90 0.1567
330.00 0.157
330.10 0.1574
330.20 0.1577
330.30 0.158
330.40 0.1583
330.50 0.1587
330.60 0.159
330.70 0.1593
330.80 0.1596
330.90 0.1599
331.00 0.1602
331.10 0.1606
331.20 0.1609
331.30 0.1612
331.40 0.1615
331.50 0.1618
331.60 0.1621
331.70 0.1625
331.80 0.1628
331.90 0.1631
332.00 0.1634
332.10 0.1637
332.20 0.1641
332.30 0.1644
332.40 0.1647
332.50 0.165
332.60 0.1654
332.70 0.1657
332.80 0.166
332.90 0.1663
333.00 0.1667
333.10 0.167
333.20 0.1673
333.30 0.1676
333.40 0.168
333.50 0.1683
333.60 0.1686
333.70 0.1689
333.80 0.1692
333.90 0.1696
334.00 0.1699
334.10 0.1702
334.20 0.1706
334.30 0.1709
334.40 0.1712
334.50 0.1716
334.60 0.1719
334.70 0.1722
334.80 0.1726
334.90 0.1729
335.00 0.1732
335.10 0.1735
335.20 0.1739
335.30 0.1742
335.40 0.1745
335.50 0.1749
335.60 0.1752
335.70 0.1755
335.80 0.1759
335.90 0.1762
336.00 0.1765
336.10 0.1769
336.20 0.1772
336.30 0.1775
336.40 0.1779
336.50 0.1782
336.60 0.1786
336.70 0.1789
336.80 0.1792
336.90 0.1796
337.00 0.1799
337.10 0.1803
337.20 0.1806
337.30 0.1809
337.40 0.1813
337.50 0.1816
337.60 0.1819
337.70 0.1823
337.80 0.1826
337.90 0.183
338.00 0.1833
338.10 0.1836
338.20 0.184
338.30 0.1843
338.40 0.1847
338.50 0.185
338.60 0.1854
338.70 0.1857
338.80 0.1861
338.90 0.1864
339.00 0.1868
339.10 0.1871
339.20 0.1875
339.30 0.1878
339.40 0.1881
339.50 0.1885
339.60 0.1888
339.70 0.1892
339.80 0.1895
339.90 0.1899
340.00 0.1902
340.10 0.1906
340.20 0.1909
340.30 0.1913
340.40 0.1916
340.50 0.192
340.60 0.1923
340.70 0.1927
340.80 0.193
340.90 0.1934
341.00 0.1937
341.10 0.1941
341.20 0.1944
341.30 0.1948
341.40 0.1951
341.50 0.1955
341.60 0.1958
341.70 0.1962
341.80 0.1965
341.90 0.1969
342.00 0.1972
342.10 0.1976
342.20 0.198
342.30 0.1983
342.40 0.1987
342.50 0.1991
342.60 0.1994
342.70 0.1998
342.80 0.2001
342.90 0.2005
343.00 0.2009
343.10 0.2012
343.20 0.2016
343.30 0.2019
343.40 0.2023
343.50 0.2027
343.60 0.203
343.70 0.2034
343.80 0.2037
343.90 0.2041
344.00 0.2044
344.10 0.2048
344.20 0.2052
344.30 0.2055
344.40 0.2059
344.50 0.2063
344.60 0.2066
344.70 0.207
344.80 0.2074
344.90 0.2077
345.00 0.2081
345.10 0.2085
345.20 0.2088
345.30 0.2092
345.40 0.2096
345.50 0.2099
345.60 0.2103
345.70 0.2107
345.80 0.211
345.90 0.2114
346.00 0.2117
346.10 0.2121
346.20 0.2125
346.30 0.2129
346.40 0.2133
346.50 0.2136
346.60 0.214
346.70 0.2144
346.80 0.2148
346.90 0.2151
347.00 0.2155
347.10 0.2159
347.20 0.2162
347.30 0.2166
347.40 0.217
347.50 0.2174
347.60 0.2177
347.70 0.2181
347.80 0.2185
347.90 0.2188
348.00 0.2192
348.10 0.2196
348.20 0.22
348.30 0.2204
348.40 0.2207
348.50 0.2211
348.60 0.2215
348.70 0.2219
348.80 0.2223
348.90 0.2226
349.00 0.223
349.10 0.2234
349.20 0.2238
349.30 0.2242
349.40 0.2245
349.50 0.2249
349.60 0.2253
349.70 0.2257
349.80 0.226
349.90 0.2264
350.00 0.2268
350.10 0.2272
350.20 0.2276
350.30 0.228
350.40 0.2284
350.50 0.2287
350.60 0.2291
350.70 0.2295
350.80 0.2299
350.90 0.2303
351.00 0.2307
351.10 0.2311
351.20 0.2315
351.30 0.2318
351.40 0.2322
351.50 0.2326
351.60 0.233
351.70 0.2334
351.80 0.2338
351.90 0.2341
352.00 0.2345
352.10 0.2349
352.20 0.2353
352.30 0.2357
352.40 0.2361
352.50 0.2365
352.60 0.2369
352.70 0.2373
352.80 0.2377
352.90 0.2381
353.00 0.2385
353.10 0.2389
353.20 0.2393
353.30 0.2396
353.40 0.24
353.50 0.2404
353.60 0.2408
353.70 0.2412
353.80 0.2416
353.90 0.242
354.00 0.2424
354.10 0.2428
354.20 0.2432
354.30 0.2436
354.40 0.244
354.50 0.2444
354.60 0.2448
354.70 0.2452
354.80 0.2456
354.90 0.246
355.00 0.2464
355.10 0.2468
355.20 0.2472
355.30 0.2476
355.40 0.248
355.50 0.2484
355.60 0.2488
355.70 0.2492
355.80 0.2496
355.90 0.25
356.00 0.2504
356.10 0.2508
356.20 0.2512
356.30 0.2516
356.40 0.252
356.50 0.2524
356.60 0.2528
356.70 0.2532
356.80 0.2536
356.90 0.254
357.00 0.2544
357.10 0.2548
357.20 0.2552
357.30 0.2556
357.40 0.256
357.50 0.2564
357.60 0.2569
357.70 0.2573
357.80 0.2577
357.90 0.2581
358.00 0.2585
358.10 0.2589
358.20 0.2593
358.30 0.2597
358.40 0.2601
358.50 0.2605
358.60 0.2609
358.70 0.2614
358.80 0.2618
358.90 0.2622
359.00 0.2626
359.10 0.263
359.20 0.2634
359.30 0.2638
359.40 0.2642
359.50 0.2646
359.60 0.2651
359.70 0.2655
359.80 0.2659
359.90 0.2663
360.00 0.2667
360.10 0.2671
360.20 0.2675
360.30 0.268
360.40 0.2684
360.50 0.2688
360.60 0.2692
360.70 0.2696
360.80 0.2701
360.90 0.2705
361.00 0.2709
361.10 0.2713
361.20 0.2717
361.30 0.2721
361.40 0.2726
361.50 0.273
361.60 0.2734
361.70 0.2738
361.80 0.2742
361.90 0.2746
362.00 0.275
362.10 0.2755
362.20 0.2759
362.30 0.2763
362.40 0.2767
362.50 0.2772
362.60 0.2776
362.70 0.278
362.80 0.2784
362.90 0.2788
363.00 0.2793
363.10 0.2797
363.20 0.2801
363.30 0.2805
363.40 0.281
363.50 0.2814
363.60 0.2818
363.70 0.2823
363.80 0.2827
363.90 0.2831
364.00 0.2835
364.10 0.284
364.20 0.2844
364.30 0.2848
364.40 0.2852
364.50 0.2856
364.60 0.2861
364.70 0.2865
364.80 0.2869
364.90 0.2874
365.00 0.2878
365.10 0.2882
365.20 0.2887
365.30 0.2891
365.40 0.2895
365.50 0.29
365.60 0.2904
365.70 0.2908
365.80 0.2912
365.90 0.2917
366.00 0.2921
366.10 0.2925
366.20 0.293
366.30 0.2934
366.40 0.2939
366.50 0.2943
366.60 0.2947
366.70 0.2952
366.80 0.2956
366.90 0.296
367.00 0.2965
367.10 0.2969
367.20 0.2974
367.30 0.2978
367.40 0.2982
367.50 0.2987
367.60 0.2991
367.70 0.2995
367.80 0.2999
367.90 0.3004
368.00 0.3008
368.10 0.3013
368.20 0.3017
368.30 0.3021
368.40 0.3026
368.50 0.303
368.60 0.3035
368.70 0.3039
368.80 0.3044
368.90 0.3048
369.00 0.3052
369.10 0.3057
369.20 0.3061
369.30 0.3066
369.40 0.307
369.50 0.3074
369.60 0.3079
369.70 0.3083
369.80 0.3088
369.90 0.3092
370.00 0.3096
370.10 0.3101
370.20 0.3105
370.30 0.311
370.40 0.3114
370.50 0.3119
370.60 0.3123
370.70 0.3128
370.80 0.3132
370.90 0.3137
371.00 0.3141
371.10 0.3146
371.20 0.315
371.30 0.3155
371.40 0.3159
371.50 0.3163
371.60 0.3168
371.70 0.3172
371.80 0.3177
371.90 0.3181
372.00 0.3186
372.10 0.319
372.20 0.3195
372.30 0.3199
372.40 0.3204
372.50 0.3208
372.60 0.3213
372.70 0.3217
372.80 0.3222
372.90 0.3227
373.00 0.3231
373.10 0.3236
373.20 0.324
373.30 0.3245
373.40 0.3249
373.50 0.3254
373.60 0.3258
373.70 0.3263
373.80 0.3267
373.90 0.3272
374.00 0.3276
374.10 0.3281
374.20 0.3285
374.30 0.329
374.40 0.3294
374.50 0.3299
374.60 0.3304
374.70 0.3308
374.80 0.3313
374.90 0.3317
375.00 0.3322
375.10 0.3327
375.20 0.3331
375.30 0.3336
375.40 0.334
375.50 0.3345
375.60 0.3349
375.70 0.3354
375.80 0.3358
375.90 0.3363
376.00 0.3368
376.10 0.3372
376.20 0.3377
376.30 0.3381
376.40 0.3386
376.50 0.3391
376.60 0.3395
376.70 0.34
376.80 0.3404
376.90 0.3409
377.00 0.3414
377.10 0.3418
377.20 0.3423
377.30 0.3428
377.40 0.3432
377.50 0.3437
377.60 0.3442
377.70 0.3446
377.80 0.3451
377.90 0.3455
378.00 0.346
378.10 0.3465
378.20 0.3469
378.30 0.3474
378.40 0.3479
378.50 0.3483
378.60 0.3488
378.70 0.3493
378.80 0.3497
378.90 0.3502
379.00 0.3507
379.10 0.3511
379.20 0.3516
379.30 0.3521
379.40 0.3525
379.50 0.353
379.60 0.3535
379.70 0.354
379.80 0.3544
379.90 0.3549
380.00 0.3554
380.10 0.3558
380.20 0.3563
380.30 0.3568
380.40 0.3572
380.50 0.3577
380.60 0.3582
380.70 0.3587
380.80 0.3591
380.90 0.3596
381.00 0.3601
381.10 0.3605
381.20 0.361
381.30 0.3615
381.40 0.362
381.50 0.3624
381.60 0.3629
381.70 0.3634
381.80 0.3639
381.90 0.3643
382.00 0.3648
382.10 0.3653
382.20 0.3658
382.30 0.3662
382.40 0.3667
382.50 0.3672
382.60 0.3677
382.70 0.3682
382.80 0.3686
382.90 0.3691
383.00 0.3696
383.10 0.3701
383.20 0.3705
383.30 0.371
383.40 0.3715
383.50 0.372
383.60 0.3724
383.70 0.3729
383.80 0.3734
383.90 0.3739
384.00 0.3744
384.10 0.3748
384.20 0.3753
384.30 0.3758
384.40 0.3763
384.50 0.3768
384.60 0.3772
384.70 0.3777
384.80 0.3782
384.90 0.3787
385.00 0.3792
385.10 0.3797
385.20 0.3801
385.30 0.3806
385.40 0.3811
385.50 0.3816
385.60 0.3821
385.70 0.3826
385.80 0.383
385.90 0.3835
386.00 0.384
386.10 0.3845
386.20 0.385
386.30 0.3855
386.40 0.3859
386.50 0.3864
386.60 0.3869
386.70 0.3874
386.80 0.3879
386.90 0.3884
387.00 0.3889
387.10 0.3893
387.20 0.3898
387.30 0.3903
387.40 0.3908
387.50 0.3913
387.60 0.3918
387.70 0.3923
387.80 0.3928
387.90 0.3933
388.00 0.3937
388.10 0.3942
388.20 0.3947
388.30 0.3952
388.40 0.3957
388.50 0.3962
388.60 0.3967
388.70 0.3972
388.80 0.3977
388.90 0.3981
389.00 0.3986
389.10 0.3991
389.20 0.3996
389.30 0.4001
389.40 0.4006
389.50 0.4011
389.60 0.4016
389.70 0.4021
389.80 0.4026
389.90 0.4031
390.00 0.4036
390.10 0.4041
390.20 0.4046
390.30 0.405
390.40 0.4055
390.50 0.406
390.60 0.4065
390.70 0.407
390.80 0.4075
390.90 0.408
391.00 0.4085
391.10 0.409
391.20 0.4095
391.30 0.41
391.40 0.4105
391.50 0.411
391.60 0.4115
391.70 0.412
391.80 0.4125
391.90 0.413
392.00 0.4135
392.10 0.414
392.20 0.4145
392.30 0.415
392.40 0.4155
392.50 0.416
392.60 0.4165
392.70 0.417
392.80 0.4175
392.90 0.418
393.00 0.4185
393.10 0.419
393.20 0.4195
393.30 0.42
393.40 0.4205
393.50 0.421
393.60 0.4215
393.70 0.422
393.80 0.4225
393.90 0.423
394.00 0.4235
394.10 0.424
394.20 0.4245
394.30 0.425
394.40 0.4255
394.50 0.426
394.60 0.4265
394.70 0.427
394.80 0.4275
394.90 0.428
395.00 0.4285
395.10 0.429
395.20 0.4295
395.30 0.43
395.40 0.4305
395.50 0.431
395.60 0.4315
395.70 0.432
395.80 0.4325
395.90 0.433
396.00 0.4335
396.10 0.434
396.20 0.4346
396.30 0.4351
396.40 0.4356
396.50 0.4361
396.60 0.4366
396.70 0.4371
396.80 0.4376
396.90 0.4381
397.00 0.4386
397.10 0.4391
397.20 0.4396
397.30 0.4401
397.40 0.4406
397.50 0.4411
397.60 0.4417
397.70 0.4422
397.80 0.4427
397.90 0.4432
398.00 0.4437
398.10 0.4442
398.20 0.4447
398.30 0.4452
398.40 0.4457
398.50 0.4462
398.60 0.4468
398.70 0.4473
398.80 0.4478
398.90 0.4483
399.00 0.4488
399.10 0.4493
399.20 0.4498
399.30 0.4503
399.40 0.4508
399.50 0.4514
399.60 0.4519
399.70 0.4524
399.80 0.4529
399.90 0.4534
400.00 0.4539
400.10 0.4544
400.20 0.455
400.30 0.4555
400.40 0.456
400.50 0.4565
400.60 0.457
400.70 0.4575
400.80 0.458
400.90 0.4585
401.00 0.4591
401.10 0.4596
401.20 0.4601
401.30 0.4606
401.40 0.4611
401.50 0.4616
401.60 0.4622
401.70 0.4627
401.80 0.4632
401.90 0.4637
402.00 0.4642
402.10 0.4647
402.20 0.4653
402.30 0.4658
402.40 0.4663
402.50 0.4668
402.60 0.4673
402.70 0.4678
402.80 0.4684
402.90 0.4689
403.00 0.4694
403.10 0.4699
403.20 0.4704
403.30 0.471
403.40 0.4715
403.50 0.472
403.60 0.4725
403.70 0.473
403.80 0.4736
403.90 0.4741
404.00 0.4746
404.10 0.4751
404.20 0.4756
404.30 0.4762
404.40 0.4767
404.50 0.4772
404.60 0.4777
404.70 0.4782
404.80 0.4788
404.90 0.4793
405.00 0.4798
405.10 0.4803
405.20 0.4809
405.30 0.4814
405.40 0.4819
405.50 0.4824
405.60 0.4829
405.70 0.4835
405.80 0.484
405.90 0.4845
406.00 0.485
406.10 0.4856
406.20 0.4861
406.30 0.4866
406.40 0.4871
406.50 0.4877
406.60 0.4882
406.70 0.4887
406.80 0.4892
406.90 0.4898
407.00 0.4903
407.10 0.4908
407.20 0.4913
407.30 0.4919
407.40 0.4924
407.50 0.4929
407.60 0.4934
407.70 0.494
407.80 0.4945
407.90 0.495
408.00 0.4955
408.10 0.4961
408.20 0.4966
408.30 0.4971
408.40 0.4976
408.50 0.4982
408.60 0.4987
408.70 0.4992
408.80 0.4998
408.90 0.5003
409.00 0.5008
409.10 0.5013
409.20 0.5019
409.30 0.5024
409.40 0.5029
409.50 0.5034
409.60 0.504
409.70 0.5045
409.80 0.505
409.90 0.5056
410.00 0.5061
410.10 0.5066
410.20 0.5072
410.30 0.5077
410.40 0.5082
410.50 0.5087
410.60 0.5093
410.70 0.5098
410.80 0.5103
410.90 0.5109
411.00 0.5114
411.10 0.5119
411.20 0.5125
411.30 0.513
411.40 0.5135
411.50 0.5141
411.60 0.5146
411.70 0.5151
411.80 0.5157
411.90 0.5162
412.00 0.5167
412.10 0.5173
412.20 0.5178
412.30 0.5183
412.40 0.5188
412.50 0.5194
412.60 0.5199
412.70 0.5204
412.80 0.521
412.90 0.5215
413.00 0.522
413.10 0.5226
413.20 0.5231
413.30 0.5237
413.40 0.5242
413.50 0.5247
413.60 0.5253
413.70 0.5258
413.80 0.5263
413.90 0.5269
414.00 0.5274
414.10 0.5279
414.20 0.5285
414.30 0.529
414.40 0.5295
414.50 0.5301
414.60 0.5306
414.70 0.5311
414.80 0.5317
414.90 0.5322
415.00 0.5328
415.10 0.5333
415.20 0.5338
415.30 0.5344
415.40 0.5349
415.50 0.5354
415.60 0.536
415.70 0.5365
415.80 0.537
415.90 0.5376
416.00 0.5381
416.10 0.5387
416.20 0.5392
416.30 0.5397
416.40 0.5403
416.50 0.5408
416.60 0.5414
416.70 0.5419
416.80 0.5424
416.90 0.543
417.00 0.5435
417.10 0.544
417.20 0.5446
417.30 0.5451
417.40 0.5457
417.50 0.5462
417.60 0.5467
417.70 0.5473
417.80 0.5478
417.90 0.5484
418.00 0.5489
418.10 0.5494
418.20 0.55
418.30 0.5505
418.40 0.5511
418.50 0.5516
418.60 0.5521
418.70 0.5527
418.80 0.5532
418.90 0.5538
419.00 0.5543
419.10 0.5549
419.20 0.5554
419.30 0.5559
419.40 0.5565
419.50 0.557
419.60 0.5576
419.70 0.5581
419.80 0.5586
419.90 0.5592
420.00 0.5597
420.10 0.5603
420.20 0.5608
420.30 0.5614
420.40 0.5619
420.50 0.5624
420.60 0.563
420.70 0.5635
420.80 0.5641
420.90 0.5646
421.00 0.5652
421.10 0.5657
421.20 0.5662
421.30 0.5668
421.40 0.5673
421.50 0.5679
421.60 0.5684
421.70 0.569
421.80 0.5695
421.90 0.5701
422.00 0.5706
422.10 0.5711
422.20 0.5717
422.30 0.5722
422.40 0.5728
422.50 0.5733
422.60 0.5739
422.70 0.5744
422.80 0.575
422.90 0.5755
423.00 0.5761
423.10 0.5766
423.20 0.5771
423.30 0.5777
423.40 0.5782
423.50 0.5788
423.60 0.5793
423.70 0.5799
423.80 0.5804
423.90 0.581
424.00 0.5815
424.10 0.5821
424.20 0.5826
424.30 0.5832
424.40 0.5837
424.50 0.5842
424.60 0.5848
424.70 0.5853
424.80 0.5859
424.90 0.5864
425.00 0.587
425.10 0.5875
425.20 0.5881
425.30 0.5886
425.40 0.5892
425.50 0.5897
425.60 0.5903
425.70 0.5908
425.80 0.5914
425.90 0.5919
426.00 0.5925
426.10 0.593
426.20 0.5936
426.30 0.5941
426.40 0.5946
426.50 0.5952
426.60 0.5957
426.70 0.5963
426.80 0.5968
426.90 0.5974
427.00 0.598
427.10 0.5985
427.20 0.5991
427.30 0.5996
427.40 0.6002
427.50 0.6007
427.60 0.6012
427.70 0.6018
427.80 0.6023
427.90 0.6029
428.00 0.6035
428.10 0.604
428.20 0.6045
428.30 0.6051
428.40 0.6057
428.50 0.6062
428.60 0.6067
428.70 0.6073
428.80 0.6079
428.90 0.6084
429.00 0.609
429.10 0.6095
429.20 0.6101
429.30 0.6106
429.40 0.6112
429.50 0.6117
429.60 0.6123
429.70 0.6128
429.80 0.6134
429.90 0.6139
430.00 0.6145
430.10 0.615
430.20 0.6156
430.30 0.6161
430.40 0.6167
430.50 0.6172
430.60 0.6178
430.70 0.6183
430.80 0.6189
430.90 0.6194
431.00 0.62
431.10 0.6206
431.20 0.6211
431.30 0.6217
431.40 0.6222
431.50 0.6228
431.60 0.6233
431.70 0.6238
431.80 0.6244
431.90 0.625
432.00 0.6255
432.10 0.6261
432.20 0.6266
432.30 0.6272
432.40 0.6277
432.50 0.6283
432.60 0.6288
432.70 0.6294
432.80 0.63
432.90 0.6305
433.00 0.6311
433.10 0.6316
433.20 0.6322
433.30 0.6327
433.40 0.6333
433.50 0.6338
433.60 0.6344
433.70 0.6349
433.80 0.6355
433.90 0.6361
434.00 0.6366
434.10 0.6372
434.20 0.6377
434.30 0.6383
434.40 0.6388
434.50 0.6394
434.60 0.6399
434.70 0.6405
434.80 0.641
434.90 0.6416
435.00 0.6422
435.10 0.6427
435.20 0.6433
435.30 0.6438
435.40 0.6444
435.50 0.6449
435.60 0.6455
435.70 0.646
435.80 0.6466
435.90 0.6472
436.00 0.6477
436.10 0.6483
436.20 0.6488
436.30 0.6494
436.40 0.65
436.50 0.6505
436.60 0.651
436.70 0.6516
436.80 0.6522
436.90 0.6527
437.00 0.6533
437.10 0.6538
437.20 0.6544
437.30 0.6549
437.40 0.6555
437.50 0.656
437.60 0.6566
437.70 0.6572
437.80 0.6577
437.90 0.6583
438.00 0.6588
438.10 0.6594
438.20 0.66
438.30 0.6605
438.40 0.6611
438.50 0.6616
438.60 0.6622
438.70 0.6627
438.80 0.6633
438.90 0.6638
439.00 0.6644
439.10 0.665
439.20 0.6655
439.30 0.6661
439.40 0.6666
439.50 0.6672
439.60 0.6677
439.70 0.6683
439.80 0.6689
439.90 0.6694
440.00 0.67
440.10 0.6705
440.20 0.6711
440.30 0.6717
440.40 0.6722
440.50 0.6728
440.60 0.6733
440.70 0.6739
440.80 0.6745
440.90 0.675
441.00 0.6756
441.10 0.6761
441.20 0.6767
441.30 0.6772
441.40 0.6778
441.50 0.6784
441.60 0.6789
441.70 0.6795
441.80 0.68
441.90 0.6806
442.00 0.6811
442.10 0.6817
442.20 0.6823
442.30 0.6828
442.40 0.6834
442.50 0.6839
442.60 0.6845
