# Version 2.1 - nm, norm@500 to 1, cut digits, bergeron_6500_85.dat_6500
# Wavelength(nm)  Flambda(ergs/cm^s/s/nm)
300.00 0.8719
300.10 0.8723
300.20 0.8728
300.30 0.8732
300.40 0.8736
300.50 0.8741
300.60 0.8745
300.70 0.8749
300.80 0.8754
300.90 0.8758
301.00 0.8762
301.10 0.8766
301.20 0.8771
301.30 0.8775
301.40 0.8779
301.50 0.8783
301.60 0.8788
301.70 0.8792
301.80 0.8796
301.90 0.88
302.00 0.8805
302.10 0.8809
302.20 0.8813
302.30 0.8817
302.40 0.8821
302.50 0.8826
302.60 0.883
302.70 0.8834
302.80 0.8838
302.90 0.8842
303.00 0.8846
303.10 0.8851
303.20 0.8855
303.30 0.8859
303.40 0.8863
303.50 0.8867
303.60 0.8871
303.70 0.8875
303.80 0.888
303.90 0.8884
304.00 0.8888
304.10 0.8892
304.20 0.8896
304.30 0.89
304.40 0.8904
304.50 0.8908
304.60 0.8912
304.70 0.8917
304.80 0.8921
304.90 0.8925
305.00 0.8929
305.10 0.8933
305.20 0.8937
305.30 0.8941
305.40 0.8945
305.50 0.8949
305.60 0.8953
305.70 0.8957
305.80 0.8961
305.90 0.8965
306.00 0.8969
306.10 0.8973
306.20 0.8977
306.30 0.8981
306.40 0.8985
306.50 0.8989
306.60 0.8993
306.70 0.8997
306.80 0.9001
306.90 0.9005
307.00 0.9009
307.10 0.9013
307.20 0.9017
307.30 0.9021
307.40 0.9025
307.50 0.9029
307.60 0.9033
307.70 0.9037
307.80 0.9041
307.90 0.9045
308.00 0.9048
308.10 0.9052
308.20 0.9056
308.30 0.906
308.40 0.9064
308.50 0.9068
308.60 0.9072
308.70 0.9076
308.80 0.908
308.90 0.9084
309.00 0.9088
309.10 0.9091
309.20 0.9095
309.30 0.9099
309.40 0.9103
309.50 0.9107
309.60 0.9111
309.70 0.9114
309.80 0.9118
309.90 0.9122
310.00 0.9126
310.10 0.913
310.20 0.9134
310.30 0.9137
310.40 0.9141
310.50 0.9145
310.60 0.9149
310.70 0.9153
310.80 0.9157
310.90 0.916
311.00 0.9164
311.10 0.9168
311.20 0.9172
311.30 0.9175
311.40 0.9179
311.50 0.9183
311.60 0.9187
311.70 0.919
311.80 0.9194
311.90 0.9198
312.00 0.9202
312.10 0.9205
312.20 0.9209
312.30 0.9213
312.40 0.9216
312.50 0.922
312.60 0.9224
312.70 0.9228
312.80 0.9231
312.90 0.9235
313.00 0.9239
313.10 0.9242
313.20 0.9246
313.30 0.925
313.40 0.9253
313.50 0.9257
313.60 0.9261
313.70 0.9264
313.80 0.9268
313.90 0.9271
314.00 0.9275
314.10 0.9279
314.20 0.9282
314.30 0.9286
314.40 0.929
314.50 0.9293
314.60 0.9297
314.70 0.93
314.80 0.9304
314.90 0.9308
315.00 0.9311
315.10 0.9315
315.20 0.9318
315.30 0.9322
315.40 0.9326
315.50 0.9329
315.60 0.9333
315.70 0.9336
315.80 0.934
315.90 0.9343
316.00 0.9347
316.10 0.935
316.20 0.9354
316.30 0.9357
316.40 0.9361
316.50 0.9364
316.60 0.9368
316.70 0.9371
316.80 0.9375
316.90 0.9378
317.00 0.9382
317.10 0.9385
317.20 0.9389
317.30 0.9392
317.40 0.9396
317.50 0.9399
317.60 0.9403
317.70 0.9406
317.80 0.941
317.90 0.9413
318.00 0.9417
318.10 0.942
318.20 0.9423
318.30 0.9427
318.40 0.943
318.50 0.9434
318.60 0.9437
318.70 0.944
318.80 0.9444
318.90 0.9447
319.00 0.9451
319.10 0.9454
319.20 0.9457
319.30 0.9461
319.40 0.9464
319.50 0.9467
319.60 0.9471
319.70 0.9474
319.80 0.9477
319.90 0.9481
320.00 0.9484
320.10 0.9487
320.20 0.9491
320.30 0.9494
320.40 0.9497
320.50 0.9501
320.60 0.9504
320.70 0.9507
320.80 0.9511
320.90 0.9514
321.00 0.9517
321.10 0.9521
321.20 0.9524
321.30 0.9527
321.40 0.953
321.50 0.9534
321.60 0.9537
321.70 0.954
321.80 0.9544
321.90 0.9547
322.00 0.955
322.10 0.9553
322.20 0.9556
322.30 0.956
322.40 0.9563
322.50 0.9566
322.60 0.9569
322.70 0.9573
322.80 0.9576
322.90 0.9579
323.00 0.9582
323.10 0.9585
323.20 0.9589
323.30 0.9592
323.40 0.9595
323.50 0.9598
323.60 0.9601
323.70 0.9604
323.80 0.9608
323.90 0.9611
324.00 0.9614
324.10 0.9617
324.20 0.962
324.30 0.9623
324.40 0.9626
324.50 0.963
324.60 0.9633
324.70 0.9636
324.80 0.9639
324.90 0.9642
325.00 0.9645
325.10 0.9648
325.20 0.9651
325.30 0.9654
325.40 0.9657
325.50 0.9661
325.60 0.9664
325.70 0.9667
325.80 0.967
325.90 0.9673
326.00 0.9676
326.10 0.9679
326.20 0.9682
326.30 0.9685
326.40 0.9688
326.50 0.9691
326.60 0.9694
326.70 0.9697
326.80 0.97
326.90 0.9703
327.00 0.9706
327.10 0.9709
327.20 0.9712
327.30 0.9715
327.40 0.9718
327.50 0.9721
327.60 0.9724
327.70 0.9727
327.80 0.973
327.90 0.9733
328.00 0.9736
328.10 0.9739
328.20 0.9742
328.30 0.9745
328.40 0.9748
328.50 0.9751
328.60 0.9754
328.70 0.9757
328.80 0.9759
328.90 0.9762
329.00 0.9765
329.10 0.9768
329.20 0.9771
329.30 0.9774
329.40 0.9777
329.50 0.978
329.60 0.9783
329.70 0.9786
329.80 0.9788
329.90 0.9791
330.00 0.9794
330.10 0.9797
330.20 0.98
330.30 0.9803
330.40 0.9806
330.50 0.9808
330.60 0.9811
330.70 0.9814
330.80 0.9817
330.90 0.982
331.00 0.9823
331.10 0.9825
331.20 0.9828
331.30 0.9831
331.40 0.9834
331.50 0.9837
331.60 0.9839
331.70 0.9842
331.80 0.9845
331.90 0.9848
332.00 0.985
332.10 0.9853
332.20 0.9856
332.30 0.9859
332.40 0.9861
332.50 0.9864
332.60 0.9867
332.70 0.987
332.80 0.9872
332.90 0.9875
333.00 0.9878
333.10 0.9881
333.20 0.9883
333.30 0.9886
333.40 0.9889
333.50 0.9891
333.60 0.9894
333.70 0.9897
333.80 0.99
333.90 0.9902
334.00 0.9905
334.10 0.9908
334.20 0.991
334.30 0.9913
334.40 0.9916
334.50 0.9918
334.60 0.9921
334.70 0.9924
334.80 0.9926
334.90 0.9929
335.00 0.9931
335.10 0.9934
335.20 0.9937
335.30 0.9939
335.40 0.9942
335.50 0.9944
335.60 0.9947
335.70 0.995
335.80 0.9952
335.90 0.9955
336.00 0.9957
336.10 0.996
336.20 0.9963
336.30 0.9965
336.40 0.9968
336.50 0.997
336.60 0.9973
336.70 0.9975
336.80 0.9978
336.90 0.9981
337.00 0.9983
337.10 0.9986
337.20 0.9988
337.30 0.9991
337.40 0.9993
337.50 0.9996
337.60 0.9998
337.70 1
337.80 1
337.90 1.001
338.00 1.001
338.10 1.001
338.20 1.001
338.30 1.002
338.40 1.002
338.50 1.002
338.60 1.002
338.70 1.003
338.80 1.003
338.90 1.003
339.00 1.003
339.10 1.004
339.20 1.004
339.30 1.004
339.40 1.004
339.50 1.005
339.60 1.005
339.70 1.005
339.80 1.005
339.90 1.005
340.00 1.006
340.10 1.006
340.20 1.006
340.30 1.006
340.40 1.007
340.50 1.007
340.60 1.007
340.70 1.007
340.80 1.008
340.90 1.008
341.00 1.008
341.10 1.008
341.20 1.009
341.30 1.009
341.40 1.009
341.50 1.009
341.60 1.01
341.70 1.01
341.80 1.01
341.90 1.01
342.00 1.01
342.10 1.011
342.20 1.011
342.30 1.011
342.40 1.011
342.50 1.012
342.60 1.012
342.70 1.012
342.80 1.012
342.90 1.012
343.00 1.013
343.10 1.013
343.20 1.013
343.30 1.013
343.40 1.014
343.50 1.014
343.60 1.014
343.70 1.014
343.80 1.015
343.90 1.015
344.00 1.015
344.10 1.015
344.20 1.015
344.30 1.016
344.40 1.016
344.50 1.016
344.60 1.016
344.70 1.017
344.80 1.017
344.90 1.017
345.00 1.017
345.10 1.017
345.20 1.018
345.30 1.018
345.40 1.018
345.50 1.018
345.60 1.018
345.70 1.019
345.80 1.019
345.90 1.019
346.00 1.019
346.10 1.02
346.20 1.02
346.30 1.02
346.40 1.02
346.50 1.02
346.60 1.021
346.70 1.021
346.80 1.021
346.90 1.021
347.00 1.021
347.10 1.022
347.20 1.022
347.30 1.022
347.40 1.022
347.50 1.022
347.60 1.023
347.70 1.023
347.80 1.023
347.90 1.023
348.00 1.023
348.10 1.024
348.20 1.024
348.30 1.024
348.40 1.024
348.50 1.025
348.60 1.025
348.70 1.025
348.80 1.025
348.90 1.025
349.00 1.026
349.10 1.026
349.20 1.026
349.30 1.026
349.40 1.026
349.50 1.027
349.60 1.027
349.70 1.027
349.80 1.027
349.90 1.027
350.00 1.027
350.10 1.028
350.20 1.028
350.30 1.028
350.40 1.028
350.50 1.028
350.60 1.029
350.70 1.029
350.80 1.029
350.90 1.029
351.00 1.029
351.10 1.03
351.20 1.03
351.30 1.03
351.40 1.03
351.50 1.03
351.60 1.031
351.70 1.031
351.80 1.031
351.90 1.031
352.00 1.031
352.10 1.032
352.20 1.032
352.30 1.032
352.40 1.032
352.50 1.032
352.60 1.032
352.70 1.033
352.80 1.033
352.90 1.033
353.00 1.033
353.10 1.033
353.20 1.034
353.30 1.034
353.40 1.034
353.50 1.034
353.60 1.034
353.70 1.034
353.80 1.035
353.90 1.035
354.00 1.035
354.10 1.035
354.20 1.035
354.30 1.036
354.40 1.036
354.50 1.036
354.60 1.036
354.70 1.036
354.80 1.036
354.90 1.037
355.00 1.037
355.10 1.037
355.20 1.037
355.30 1.037
355.40 1.037
355.50 1.038
355.60 1.038
355.70 1.038
355.80 1.038
355.90 1.038
356.00 1.038
356.10 1.039
356.20 1.039
356.30 1.039
356.40 1.039
356.50 1.039
356.60 1.039
356.70 1.04
356.80 1.04
356.90 1.04
357.00 1.04
357.10 1.04
357.20 1.04
357.30 1.041
357.40 1.041
357.50 1.041
357.60 1.041
357.70 1.041
357.80 1.041
357.90 1.042
358.00 1.042
358.10 1.042
358.20 1.042
358.30 1.042
358.40 1.042
358.50 1.043
358.60 1.043
358.70 1.043
358.80 1.043
358.90 1.043
359.00 1.043
359.10 1.044
359.20 1.044
359.30 1.044
359.40 1.044
359.50 1.044
359.60 1.044
359.70 1.045
359.80 1.045
359.90 1.045
360.00 1.045
360.10 1.045
360.20 1.045
360.30 1.045
360.40 1.046
360.50 1.046
360.60 1.046
360.70 1.046
360.80 1.046
360.90 1.046
361.00 1.047
361.10 1.047
361.20 1.047
361.30 1.047
361.40 1.047
361.50 1.047
361.60 1.047
361.70 1.048
361.80 1.048
361.90 1.048
362.00 1.048
362.10 1.048
362.20 1.048
362.30 1.048
362.40 1.049
362.50 1.049
362.60 1.049
362.70 1.049
362.80 1.049
362.90 1.049
363.00 1.049
363.10 1.05
363.20 1.05
363.30 1.05
363.40 1.05
363.50 1.05
363.60 1.05
363.70 1.05
363.80 1.051
363.90 1.051
364.00 1.051
364.10 1.051
364.20 1.051
364.30 1.051
364.40 1.051
364.50 1.051
364.60 1.052
364.70 1.052
364.80 1.052
364.90 1.052
365.00 1.052
365.10 1.052
365.20 1.052
365.30 1.053
365.40 1.053
365.50 1.053
365.60 1.053
365.70 1.053
365.80 1.053
365.90 1.053
366.00 1.053
366.10 1.054
366.20 1.054
366.30 1.054
366.40 1.054
366.50 1.054
366.60 1.054
366.70 1.054
366.80 1.054
366.90 1.055
367.00 1.055
367.10 1.055
367.20 1.055
367.30 1.055
367.40 1.055
367.50 1.055
367.60 1.055
367.70 1.056
367.80 1.056
367.90 1.056
368.00 1.056
368.10 1.056
368.20 1.056
368.30 1.056
368.40 1.056
368.50 1.057
368.60 1.057
368.70 1.057
368.80 1.057
368.90 1.057
369.00 1.057
369.10 1.057
369.20 1.057
369.30 1.058
369.40 1.058
369.50 1.058
369.60 1.058
369.70 1.058
369.80 1.058
369.90 1.058
370.00 1.058
370.10 1.058
370.20 1.059
370.30 1.059
370.40 1.059
370.50 1.059
370.60 1.059
370.70 1.059
370.80 1.059
370.90 1.059
371.00 1.059
371.10 1.06
371.20 1.06
371.30 1.06
371.40 1.06
371.50 1.06
371.60 1.06
371.70 1.06
371.80 1.06
371.90 1.061
372.00 1.061
372.10 1.061
372.20 1.061
372.30 1.061
372.40 1.061
372.50 1.061
372.60 1.061
372.70 1.061
372.80 1.061
372.90 1.062
373.00 1.062
373.10 1.062
373.20 1.062
373.30 1.062
373.40 1.062
373.50 1.062
373.60 1.062
373.70 1.062
373.80 1.063
373.90 1.063
374.00 1.063
374.10 1.063
374.20 1.063
374.30 1.063
374.40 1.063
374.50 1.063
374.60 1.063
374.70 1.063
374.80 1.064
374.90 1.064
375.00 1.064
375.10 1.064
375.20 1.064
375.30 1.064
375.40 1.064
375.50 1.064
375.60 1.064
375.70 1.064
375.80 1.064
375.90 1.065
376.00 1.065
376.10 1.065
376.20 1.065
376.30 1.065
376.40 1.065
376.50 1.065
376.60 1.065
376.70 1.065
376.80 1.065
376.90 1.066
377.00 1.066
377.10 1.066
377.20 1.066
377.30 1.066
377.40 1.066
377.50 1.066
377.60 1.066
377.70 1.066
377.80 1.066
377.90 1.066
378.00 1.067
378.10 1.067
378.20 1.067
378.30 1.067
378.40 1.067
378.50 1.067
378.60 1.067
378.70 1.067
378.80 1.067
378.90 1.067
379.00 1.067
379.10 1.067
379.20 1.067
379.30 1.067
379.40 1.067
379.50 1.067
379.60 1.067
379.70 1.068
379.80 1.068
379.90 1.068
380.00 1.068
380.10 1.068
380.20 1.068
380.30 1.068
380.40 1.068
380.50 1.069
380.60 1.069
380.70 1.069
380.80 1.069
380.90 1.069
381.00 1.069
381.10 1.07
381.20 1.07
381.30 1.07
381.40 1.07
381.50 1.07
381.60 1.07
381.70 1.07
381.80 1.07
381.90 1.07
382.00 1.07
382.10 1.07
382.20 1.07
382.30 1.07
382.40 1.07
382.50 1.07
382.60 1.07
382.70 1.07
382.80 1.069
382.90 1.069
383.00 1.069
383.10 1.069
383.20 1.069
383.30 1.068
383.40 1.067
383.50 1.064
383.60 1.065
383.70 1.068
383.80 1.069
383.90 1.07
384.00 1.07
384.10 1.071
384.20 1.071
384.30 1.072
384.40 1.072
384.50 1.072
384.60 1.073
384.70 1.073
384.80 1.073
384.90 1.073
385.00 1.074
385.10 1.074
385.20 1.074
385.30 1.074
385.40 1.074
385.50 1.074
385.60 1.075
385.70 1.075
385.80 1.075
385.90 1.075
386.00 1.075
386.10 1.075
386.20 1.075
386.30 1.075
386.40 1.075
386.50 1.075
386.60 1.075
386.70 1.075
386.80 1.075
386.90 1.075
387.00 1.075
387.10 1.075
387.20 1.075
387.30 1.075
387.40 1.075
387.50 1.075
387.60 1.075
387.70 1.074
387.80 1.074
387.90 1.073
388.00 1.073
388.10 1.072
388.20 1.071
388.30 1.07
388.40 1.068
388.50 1.066
388.60 1.064
388.70 1.061
388.80 1.056
388.90 1.049
389.00 1.056
389.10 1.061
389.20 1.065
389.30 1.067
389.40 1.069
389.50 1.071
389.60 1.072
389.70 1.073
389.80 1.075
389.90 1.075
390.00 1.076
390.10 1.077
390.20 1.077
390.30 1.078
390.40 1.078
390.50 1.078
390.60 1.079
390.70 1.079
390.80 1.079
390.90 1.079
391.00 1.08
391.10 1.08
391.20 1.08
391.30 1.08
391.40 1.08
391.50 1.08
391.60 1.081
391.70 1.081
391.80 1.081
391.90 1.081
392.00 1.081
392.10 1.081
392.20 1.081
392.30 1.081
392.40 1.081
392.50 1.081
392.60 1.081
392.70 1.082
392.80 1.082
392.90 1.082
393.00 1.082
393.10 1.082
393.20 1.082
393.30 1.082
393.40 1.082
393.50 1.082
393.60 1.082
393.70 1.082
393.80 1.082
393.90 1.082
394.00 1.082
394.10 1.082
394.20 1.082
394.30 1.082
394.40 1.082
394.50 1.082
394.60 1.082
394.70 1.082
394.80 1.081
394.90 1.081
395.00 1.081
395.10 1.081
395.20 1.08
395.30 1.08
395.40 1.08
395.50 1.079
395.60 1.079
395.70 1.078
395.80 1.077
395.90 1.076
396.00 1.074
396.10 1.073
396.20 1.07
396.30 1.068
396.40 1.065
396.50 1.06
396.60 1.055
396.70 1.049
396.80 1.04
396.90 1.027
397.00 1.01
397.10 1.026
397.20 1.039
397.30 1.048
397.40 1.054
397.50 1.06
397.60 1.065
397.70 1.068
397.80 1.071
397.90 1.074
398.00 1.075
398.10 1.077
398.20 1.078
398.30 1.079
398.40 1.08
398.50 1.081
398.60 1.081
398.70 1.082
398.80 1.082
398.90 1.083
399.00 1.083
399.10 1.083
399.20 1.084
399.30 1.084
399.40 1.084
399.50 1.084
399.60 1.085
399.70 1.085
399.80 1.085
399.90 1.085
400.00 1.085
400.10 1.085
400.20 1.085
400.30 1.086
400.40 1.086
400.50 1.086
400.60 1.086
400.70 1.086
400.80 1.086
400.90 1.086
401.00 1.086
401.10 1.086
401.20 1.086
401.30 1.086
401.40 1.086
401.50 1.086
401.60 1.086
401.70 1.087
401.80 1.087
401.90 1.087
402.00 1.087
402.10 1.087
402.20 1.087
402.30 1.087
402.40 1.087
402.50 1.087
402.60 1.087
402.70 1.087
402.80 1.087
402.90 1.087
403.00 1.087
403.10 1.087
403.20 1.087
403.30 1.087
403.40 1.087
403.50 1.087
403.60 1.087
403.70 1.087
403.80 1.087
403.90 1.087
404.00 1.087
404.10 1.087
404.20 1.087
404.30 1.087
404.40 1.087
404.50 1.087
404.60 1.087
404.70 1.087
404.80 1.087
404.90 1.087
405.00 1.087
405.10 1.087
405.20 1.087
405.30 1.087
405.40 1.087
405.50 1.087
405.60 1.087
405.70 1.087
405.80 1.087
405.90 1.087
406.00 1.087
406.10 1.087
406.20 1.087
406.30 1.087
406.40 1.087
406.50 1.087
406.60 1.087
406.70 1.086
406.80 1.086
406.90 1.086
407.00 1.086
407.10 1.086
407.20 1.086
407.30 1.086
407.40 1.086
407.50 1.085
407.60 1.085
407.70 1.085
407.80 1.085
407.90 1.084
408.00 1.084
408.10 1.083
408.20 1.083
408.30 1.082
408.40 1.082
408.50 1.081
408.60 1.08
408.70 1.079
408.80 1.077
408.90 1.076
409.00 1.074
409.10 1.072
409.20 1.069
409.30 1.065
409.40 1.06
409.50 1.054
409.60 1.047
409.70 1.037
409.80 1.023
409.90 1.007
410.00 0.9838
410.10 0.9597
410.20 0.9348
410.30 0.9693
410.40 0.9968
410.50 1.017
410.60 1.031
410.70 1.043
410.80 1.052
410.90 1.058
411.00 1.063
411.10 1.068
411.20 1.071
411.30 1.073
411.40 1.075
411.50 1.077
411.60 1.078
411.70 1.08
411.80 1.08
411.90 1.081
412.00 1.082
412.10 1.083
412.20 1.083
412.30 1.084
412.40 1.084
412.50 1.084
412.60 1.085
412.70 1.085
412.80 1.085
412.90 1.085
413.00 1.086
413.10 1.086
413.20 1.086
413.30 1.086
413.40 1.086
413.50 1.086
413.60 1.086
413.70 1.086
413.80 1.087
413.90 1.087
414.00 1.087
414.10 1.087
414.20 1.087
414.30 1.087
414.40 1.087
414.50 1.087
414.60 1.087
414.70 1.087
414.80 1.087
414.90 1.087
415.00 1.087
415.10 1.087
415.20 1.087
415.30 1.087
415.40 1.087
415.50 1.087
415.60 1.087
415.70 1.087
415.80 1.087
415.90 1.087
416.00 1.087
416.10 1.087
416.20 1.087
416.30 1.087
416.40 1.087
416.50 1.087
416.60 1.087
416.70 1.087
416.80 1.087
416.90 1.087
417.00 1.087
417.10 1.087
417.20 1.087
417.30 1.087
417.40 1.087
417.50 1.087
417.60 1.087
417.70 1.087
417.80 1.087
417.90 1.087
418.00 1.087
418.10 1.087
418.20 1.087
418.30 1.087
418.40 1.087
418.50 1.087
418.60 1.087
418.70 1.087
418.80 1.087
418.90 1.087
419.00 1.087
419.10 1.087
419.20 1.087
419.30 1.086
419.40 1.086
419.50 1.086
419.60 1.086
419.70 1.086
419.80 1.086
419.90 1.086
420.00 1.086
420.10 1.086
420.20 1.086
420.30 1.086
420.40 1.086
420.50 1.086
420.60 1.086
420.70 1.086
420.80 1.086
420.90 1.086
421.00 1.086
421.10 1.086
421.20 1.086
421.30 1.086
421.40 1.086
421.50 1.086
421.60 1.086
421.70 1.086
421.80 1.086
421.90 1.086
422.00 1.086
422.10 1.086
422.20 1.086
422.30 1.085
422.40 1.085
422.50 1.085
422.60 1.085
422.70 1.085
422.80 1.085
422.90 1.085
423.00 1.085
423.10 1.085
423.20 1.085
423.30 1.085
423.40 1.085
423.50 1.085
423.60 1.085
423.70 1.085
423.80 1.085
423.90 1.085
424.00 1.085
424.10 1.085
424.20 1.085
424.30 1.085
424.40 1.085
424.50 1.084
424.60 1.084
424.70 1.084
424.80 1.084
424.90 1.084
425.00 1.084
425.10 1.084
425.20 1.084
425.30 1.084
425.40 1.084
425.50 1.084
425.60 1.084
425.70 1.084
425.80 1.084
425.90 1.084
426.00 1.084
426.10 1.084
426.20 1.084
426.30 1.083
426.40 1.083
426.50 1.083
426.60 1.083
426.70 1.083
426.80 1.083
426.90 1.083
427.00 1.083
427.10 1.083
427.20 1.083
427.30 1.083
427.40 1.083
427.50 1.083
427.60 1.083
427.70 1.082
427.80 1.082
427.90 1.082
428.00 1.082
428.10 1.082
428.20 1.082
428.30 1.082
428.40 1.082
428.50 1.082
428.60 1.082
428.70 1.082
428.80 1.082
428.90 1.081
429.00 1.081
429.10 1.081
429.20 1.081
429.30 1.081
429.40 1.081
429.50 1.081
429.60 1.081
429.70 1.08
429.80 1.08
429.90 1.08
430.00 1.08
430.10 1.08
430.20 1.08
430.30 1.08
430.40 1.079
430.50 1.079
430.60 1.079
430.70 1.079
430.80 1.078
430.90 1.078
431.00 1.078
431.10 1.078
431.20 1.077
431.30 1.077
431.40 1.076
431.50 1.076
431.60 1.076
431.70 1.075
431.80 1.074
431.90 1.074
432.00 1.073
432.10 1.072
432.20 1.071
432.30 1.07
432.40 1.068
432.50 1.067
432.60 1.065
432.70 1.063
432.80 1.06
432.90 1.056
433.00 1.052
433.10 1.047
433.20 1.041
433.30 1.033
433.40 1.022
433.50 1.008
433.60 0.9902
433.70 0.9621
433.80 0.9256
433.90 0.8805
434.00 0.7989
434.10 0.8005
434.20 0.8851
434.30 0.929
434.40 0.9645
434.50 0.9917
434.60 1.009
434.70 1.023
434.80 1.033
434.90 1.041
435.00 1.047
435.10 1.052
435.20 1.055
435.30 1.059
435.40 1.061
435.50 1.063
435.60 1.065
435.70 1.067
435.80 1.068
435.90 1.069
436.00 1.07
436.10 1.07
436.20 1.071
436.30 1.072
436.40 1.072
436.50 1.072
436.60 1.073
436.70 1.073
436.80 1.073
436.90 1.074
437.00 1.074
437.10 1.074
437.20 1.074
437.30 1.074
437.40 1.074
437.50 1.074
437.60 1.075
437.70 1.075
437.80 1.075
437.90 1.075
438.00 1.075
438.10 1.075
438.20 1.075
438.30 1.075
438.40 1.075
438.50 1.075
438.60 1.075
438.70 1.075
438.80 1.075
438.90 1.075
439.00 1.075
439.10 1.075
439.20 1.075
439.30 1.075
439.40 1.075
439.50 1.075
439.60 1.075
439.70 1.074
439.80 1.074
439.90 1.074
440.00 1.074
440.10 1.074
440.20 1.074
440.30 1.074
440.40 1.074
440.50 1.074
440.60 1.074
440.70 1.074
440.80 1.074
440.90 1.074
441.00 1.074
441.10 1.074
441.20 1.074
441.30 1.074
441.40 1.074
441.50 1.073
441.60 1.073
441.70 1.073
441.80 1.073
441.90 1.073
442.00 1.073
442.10 1.073
442.20 1.073
442.30 1.073
442.40 1.073
442.50 1.073
442.60 1.073
442.70 1.073
442.80 1.073
442.90 1.072
443.00 1.072
443.10 1.072
443.20 1.072
443.30 1.072
443.40 1.072
443.50 1.072
443.60 1.072
443.70 1.072
443.80 1.072
443.90 1.072
444.00 1.072
444.10 1.072
444.20 1.071
444.30 1.071
444.40 1.071
444.50 1.071
444.60 1.071
444.70 1.071
444.80 1.071
444.90 1.071
445.00 1.071
445.10 1.071
445.20 1.071
445.30 1.071
445.40 1.07
445.50 1.07
445.60 1.07
445.70 1.07
445.80 1.07
445.90 1.07
446.00 1.07
446.10 1.07
446.20 1.07
446.30 1.07
446.40 1.07
446.50 1.069
446.60 1.069
446.70 1.069
446.80 1.069
446.90 1.069
447.00 1.069
447.10 1.069
447.20 1.069
447.30 1.069
447.40 1.069
447.50 1.069
447.60 1.068
447.70 1.068
447.80 1.068
447.90 1.068
448.00 1.068
448.10 1.068
448.20 1.068
448.30 1.068
448.40 1.068
448.50 1.068
448.60 1.068
448.70 1.067
448.80 1.067
448.90 1.067
449.00 1.067
449.10 1.067
449.20 1.067
449.30 1.067
449.40 1.067
449.50 1.067
449.60 1.067
449.70 1.067
449.80 1.066
449.90 1.066
450.00 1.066
450.10 1.066
450.20 1.066
450.30 1.066
450.40 1.066
450.50 1.066
450.60 1.066
450.70 1.066
450.80 1.065
450.90 1.065
451.00 1.065
