# Version 2.1 - nm, norm@500 to 1, cut digits, bergeron_70000_90.dat_70000
# Wavelength(nm)  Flambda(ergs/cm^s/s/nm)
300.00 6.583
300.10 6.575
300.20 6.567
300.30 6.559
300.40 6.551
300.50 6.543
300.60 6.535
300.70 6.527
300.80 6.519
300.90 6.511
301.00 6.503
301.10 6.495
301.20 6.487
301.30 6.479
301.40 6.471
301.50 6.463
301.60 6.455
301.70 6.447
301.80 6.439
301.90 6.431
302.00 6.423
302.10 6.415
302.20 6.407
302.30 6.4
302.40 6.392
302.50 6.384
302.60 6.376
302.70 6.368
302.80 6.36
302.90 6.353
303.00 6.345
303.10 6.337
303.20 6.329
303.30 6.322
303.40 6.314
303.50 6.306
303.60 6.298
303.70 6.291
303.80 6.283
303.90 6.275
304.00 6.268
304.10 6.26
304.20 6.253
304.30 6.245
304.40 6.237
304.50 6.23
304.60 6.222
304.70 6.215
304.80 6.207
304.90 6.199
305.00 6.192
305.10 6.184
305.20 6.177
305.30 6.169
305.40 6.162
305.50 6.154
305.60 6.147
305.70 6.139
305.80 6.132
305.90 6.125
306.00 6.117
306.10 6.11
306.20 6.102
306.30 6.095
306.40 6.088
306.50 6.08
306.60 6.073
306.70 6.065
306.80 6.058
306.90 6.051
307.00 6.044
307.10 6.036
307.20 6.029
307.30 6.022
307.40 6.014
307.50 6.007
307.60 6
307.70 5.993
307.80 5.985
307.90 5.978
308.00 5.971
308.10 5.964
308.20 5.957
308.30 5.949
308.40 5.942
308.50 5.935
308.60 5.928
308.70 5.921
308.80 5.914
308.90 5.907
309.00 5.9
309.10 5.892
309.20 5.885
309.30 5.878
309.40 5.871
309.50 5.864
309.60 5.857
309.70 5.85
309.80 5.843
309.90 5.836
310.00 5.829
310.10 5.822
310.20 5.815
310.30 5.808
310.40 5.801
310.50 5.794
310.60 5.787
310.70 5.781
310.80 5.774
310.90 5.767
311.00 5.76
311.10 5.753
311.20 5.746
311.30 5.739
311.40 5.732
311.50 5.726
311.60 5.719
311.70 5.712
311.80 5.705
311.90 5.698
312.00 5.692
312.10 5.685
312.20 5.678
312.30 5.671
312.40 5.665
312.50 5.658
312.60 5.651
312.70 5.644
312.80 5.638
312.90 5.631
313.00 5.624
313.10 5.618
313.20 5.611
313.30 5.604
313.40 5.598
313.50 5.591
313.60 5.584
313.70 5.578
313.80 5.571
313.90 5.565
314.00 5.558
314.10 5.551
314.20 5.545
314.30 5.538
314.40 5.532
314.50 5.525
314.60 5.519
314.70 5.512
314.80 5.506
314.90 5.499
315.00 5.493
315.10 5.486
315.20 5.48
315.30 5.473
315.40 5.467
315.50 5.46
315.60 5.454
315.70 5.448
315.80 5.441
315.90 5.435
316.00 5.428
316.10 5.422
316.20 5.416
316.30 5.409
316.40 5.403
316.50 5.396
316.60 5.39
316.70 5.384
316.80 5.378
316.90 5.371
317.00 5.365
317.10 5.359
317.20 5.352
317.30 5.346
317.40 5.34
317.50 5.334
317.60 5.327
317.70 5.321
317.80 5.315
317.90 5.309
318.00 5.302
318.10 5.296
318.20 5.29
318.30 5.284
318.40 5.278
318.50 5.272
318.60 5.265
318.70 5.259
318.80 5.253
318.90 5.247
319.00 5.241
319.10 5.235
319.20 5.229
319.30 5.223
319.40 5.217
319.50 5.21
319.60 5.204
319.70 5.198
319.80 5.192
319.90 5.186
320.00 5.18
320.10 5.174
320.20 5.168
320.30 5.162
320.40 5.156
320.50 5.15
320.60 5.144
320.70 5.138
320.80 5.132
320.90 5.126
321.00 5.12
321.10 5.114
321.20 5.109
321.30 5.103
321.40 5.097
321.50 5.091
321.60 5.085
321.70 5.079
321.80 5.073
321.90 5.067
322.00 5.062
322.10 5.056
322.20 5.05
322.30 5.044
322.40 5.038
322.50 5.032
322.60 5.027
322.70 5.021
322.80 5.015
322.90 5.009
323.00 5.003
323.10 4.998
323.20 4.992
323.30 4.986
323.40 4.98
323.50 4.975
323.60 4.969
323.70 4.963
323.80 4.958
323.90 4.952
324.00 4.946
324.10 4.94
324.20 4.935
324.30 4.929
324.40 4.923
324.50 4.918
324.60 4.912
324.70 4.907
324.80 4.901
324.90 4.895
325.00 4.89
325.10 4.884
325.20 4.879
325.30 4.873
325.40 4.867
325.50 4.862
325.60 4.856
325.70 4.851
325.80 4.845
325.90 4.84
326.00 4.834
326.10 4.829
326.20 4.823
326.30 4.818
326.40 4.812
326.50 4.807
326.60 4.801
326.70 4.796
326.80 4.79
326.90 4.785
327.00 4.779
327.10 4.774
327.20 4.768
327.30 4.763
327.40 4.758
327.50 4.752
327.60 4.747
327.70 4.741
327.80 4.736
327.90 4.731
328.00 4.725
328.10 4.72
328.20 4.714
328.30 4.709
328.40 4.704
328.50 4.698
328.60 4.693
328.70 4.688
328.80 4.683
328.90 4.677
329.00 4.672
329.10 4.667
329.20 4.661
329.30 4.656
329.40 4.651
329.50 4.646
329.60 4.64
329.70 4.635
329.80 4.63
329.90 4.625
330.00 4.619
330.10 4.614
330.20 4.609
330.30 4.604
330.40 4.599
330.50 4.593
330.60 4.588
330.70 4.583
330.80 4.578
330.90 4.573
331.00 4.568
331.10 4.563
331.20 4.557
331.30 4.552
331.40 4.547
331.50 4.542
331.60 4.537
331.70 4.532
331.80 4.527
331.90 4.522
332.00 4.517
332.10 4.511
332.20 4.506
332.30 4.501
332.40 4.496
332.50 4.491
332.60 4.486
332.70 4.481
332.80 4.476
332.90 4.471
333.00 4.466
333.10 4.461
333.20 4.456
333.30 4.451
333.40 4.446
333.50 4.441
333.60 4.436
333.70 4.431
333.80 4.426
333.90 4.421
334.00 4.416
334.10 4.412
334.20 4.407
334.30 4.402
334.40 4.397
334.50 4.392
334.60 4.387
334.70 4.382
334.80 4.377
334.90 4.372
335.00 4.368
335.10 4.363
335.20 4.358
335.30 4.353
335.40 4.348
335.50 4.343
335.60 4.338
335.70 4.334
335.80 4.329
335.90 4.324
336.00 4.319
336.10 4.314
336.20 4.31
336.30 4.305
336.40 4.3
336.50 4.295
336.60 4.291
336.70 4.286
336.80 4.281
336.90 4.276
337.00 4.272
337.10 4.267
337.20 4.262
337.30 4.258
337.40 4.253
337.50 4.248
337.60 4.243
337.70 4.239
337.80 4.234
337.90 4.229
338.00 4.225
338.10 4.22
338.20 4.215
338.30 4.211
338.40 4.206
338.50 4.201
338.60 4.197
338.70 4.192
338.80 4.188
338.90 4.183
339.00 4.178
339.10 4.174
339.20 4.169
339.30 4.165
339.40 4.16
339.50 4.155
339.60 4.151
339.70 4.146
339.80 4.142
339.90 4.137
340.00 4.133
340.10 4.128
340.20 4.124
340.30 4.119
340.40 4.115
340.50 4.11
340.60 4.106
340.70 4.101
340.80 4.097
340.90 4.092
341.00 4.088
341.10 4.083
341.20 4.079
341.30 4.074
341.40 4.07
341.50 4.065
341.60 4.061
341.70 4.056
341.80 4.052
341.90 4.048
342.00 4.043
342.10 4.039
342.20 4.034
342.30 4.03
342.40 4.026
342.50 4.021
342.60 4.017
342.70 4.012
342.80 4.008
342.90 4.004
343.00 3.999
343.10 3.995
343.20 3.991
343.30 3.986
343.40 3.982
343.50 3.978
343.60 3.973
343.70 3.969
343.80 3.965
343.90 3.96
344.00 3.956
344.10 3.952
344.20 3.947
344.30 3.943
344.40 3.939
344.50 3.935
344.60 3.93
344.70 3.926
344.80 3.922
344.90 3.918
345.00 3.913
345.10 3.909
345.20 3.905
345.30 3.901
345.40 3.897
345.50 3.892
345.60 3.888
345.70 3.884
345.80 3.88
345.90 3.875
346.00 3.871
346.10 3.867
346.20 3.863
346.30 3.859
346.40 3.855
346.50 3.851
346.60 3.846
346.70 3.842
346.80 3.838
346.90 3.834
347.00 3.83
347.10 3.826
347.20 3.822
347.30 3.817
347.40 3.813
347.50 3.809
347.60 3.805
347.70 3.801
347.80 3.797
347.90 3.793
348.00 3.789
348.10 3.785
348.20 3.781
348.30 3.777
348.40 3.773
348.50 3.769
348.60 3.765
348.70 3.761
348.80 3.757
348.90 3.752
349.00 3.748
349.10 3.744
349.20 3.74
349.30 3.736
349.40 3.732
349.50 3.728
349.60 3.724
349.70 3.72
349.80 3.716
349.90 3.712
350.00 3.709
350.10 3.705
350.20 3.701
350.30 3.697
350.40 3.693
350.50 3.689
350.60 3.685
350.70 3.681
350.80 3.677
350.90 3.673
351.00 3.669
351.10 3.665
351.20 3.661
351.30 3.658
351.40 3.654
351.50 3.65
351.60 3.646
351.70 3.642
351.80 3.638
351.90 3.634
352.00 3.63
352.10 3.627
352.20 3.623
352.30 3.619
352.40 3.615
352.50 3.611
352.60 3.607
352.70 3.604
352.80 3.6
352.90 3.596
353.00 3.592
353.10 3.588
353.20 3.584
353.30 3.581
353.40 3.577
353.50 3.573
353.60 3.569
353.70 3.566
353.80 3.562
353.90 3.558
354.00 3.554
354.10 3.55
354.20 3.547
354.30 3.543
354.40 3.539
354.50 3.536
354.60 3.532
354.70 3.528
354.80 3.524
354.90 3.521
355.00 3.517
355.10 3.513
355.20 3.51
355.30 3.506
355.40 3.502
355.50 3.498
355.60 3.495
355.70 3.491
355.80 3.487
355.90 3.484
356.00 3.48
356.10 3.476
356.20 3.473
356.30 3.469
356.40 3.466
356.50 3.462
356.60 3.458
356.70 3.455
356.80 3.451
356.90 3.447
357.00 3.444
357.10 3.44
357.20 3.437
357.30 3.433
357.40 3.429
357.50 3.426
357.60 3.422
357.70 3.419
357.80 3.415
357.90 3.411
358.00 3.408
358.10 3.404
358.20 3.401
358.30 3.397
358.40 3.394
358.50 3.39
358.60 3.387
358.70 3.383
358.80 3.38
358.90 3.376
359.00 3.373
359.10 3.369
359.20 3.366
359.30 3.362
359.40 3.359
359.50 3.355
359.60 3.352
359.70 3.348
359.80 3.345
359.90 3.341
360.00 3.338
360.10 3.334
360.20 3.331
360.30 3.327
360.40 3.324
360.50 3.32
360.60 3.317
360.70 3.313
360.80 3.31
360.90 3.307
361.00 3.303
361.10 3.3
361.20 3.296
361.30 3.293
361.40 3.289
361.50 3.286
361.60 3.283
361.70 3.279
361.80 3.276
361.90 3.272
362.00 3.269
362.10 3.266
362.20 3.262
362.30 3.259
362.40 3.256
362.50 3.252
362.60 3.249
362.70 3.246
362.80 3.242
362.90 3.239
363.00 3.235
363.10 3.232
363.20 3.229
363.30 3.225
363.40 3.222
363.50 3.219
363.60 3.216
363.70 3.212
363.80 3.209
363.90 3.206
364.00 3.202
364.10 3.199
364.20 3.196
364.30 3.192
364.40 3.189
364.50 3.186
364.60 3.183
364.70 3.179
364.80 3.176
364.90 3.173
365.00 3.17
365.10 3.166
365.20 3.163
365.30 3.16
365.40 3.157
365.50 3.153
365.60 3.15
365.70 3.147
365.80 3.144
365.90 3.14
366.00 3.137
366.10 3.134
366.20 3.131
366.30 3.128
366.40 3.124
366.50 3.121
366.60 3.118
366.70 3.115
366.80 3.111
366.90 3.108
367.00 3.105
367.10 3.102
367.20 3.099
367.30 3.096
367.40 3.092
367.50 3.089
367.60 3.086
367.70 3.083
367.80 3.08
367.90 3.076
368.00 3.073
368.10 3.07
368.20 3.067
368.30 3.064
368.40 3.06
368.50 3.057
368.60 3.054
368.70 3.051
368.80 3.048
368.90 3.044
369.00 3.041
369.10 3.038
369.20 3.035
369.30 3.032
369.40 3.028
369.50 3.025
369.60 3.022
369.70 3.019
369.80 3.016
369.90 3.013
370.00 3.009
370.10 3.006
370.20 3.003
370.30 3
370.40 2.997
370.50 2.994
370.60 2.991
370.70 2.988
370.80 2.984
370.90 2.981
371.00 2.978
371.10 2.975
371.20 2.972
371.30 2.969
371.40 2.966
371.50 2.963
371.60 2.96
371.70 2.957
371.80 2.953
371.90 2.95
372.00 2.947
372.10 2.944
372.20 2.941
372.30 2.939
372.40 2.936
372.50 2.933
372.60 2.93
372.70 2.927
372.80 2.924
372.90 2.921
373.00 2.918
373.10 2.915
373.20 2.912
373.30 2.909
373.40 2.906
373.50 2.904
373.60 2.901
373.70 2.898
373.80 2.895
373.90 2.892
374.00 2.889
374.10 2.886
374.20 2.883
374.30 2.88
374.40 2.877
374.50 2.874
374.60 2.871
374.70 2.868
374.80 2.865
374.90 2.862
375.00 2.859
375.10 2.856
375.20 2.854
375.30 2.851
375.40 2.848
375.50 2.845
375.60 2.842
375.70 2.839
375.80 2.836
375.90 2.833
376.00 2.83
376.10 2.827
376.20 2.824
376.30 2.821
376.40 2.818
376.50 2.816
376.60 2.813
376.70 2.81
376.80 2.807
376.90 2.804
377.00 2.801
377.10 2.798
377.20 2.796
377.30 2.793
377.40 2.79
377.50 2.787
377.60 2.784
377.70 2.782
377.80 2.779
377.90 2.776
378.00 2.773
378.10 2.77
378.20 2.768
378.30 2.765
378.40 2.762
378.50 2.759
378.60 2.757
378.70 2.754
378.80 2.751
378.90 2.748
379.00 2.746
379.10 2.743
379.20 2.74
379.30 2.737
379.40 2.735
379.50 2.732
379.60 2.729
379.70 2.726
379.80 2.724
379.90 2.721
380.00 2.718
380.10 2.716
380.20 2.713
380.30 2.71
380.40 2.708
380.50 2.705
380.60 2.702
380.70 2.7
380.80 2.697
380.90 2.694
381.00 2.692
381.10 2.689
381.20 2.686
381.30 2.684
381.40 2.681
381.50 2.678
381.60 2.676
381.70 2.673
381.80 2.671
381.90 2.668
382.00 2.665
382.10 2.663
382.20 2.66
382.30 2.658
382.40 2.655
382.50 2.652
382.60 2.65
382.70 2.647
382.80 2.645
382.90 2.642
383.00 2.64
383.10 2.637
383.20 2.634
383.30 2.632
383.40 2.629
383.50 2.627
383.60 2.624
383.70 2.622
383.80 2.619
383.90 2.617
384.00 2.614
384.10 2.612
384.20 2.609
384.30 2.607
384.40 2.604
384.50 2.602
384.60 2.6
384.70 2.597
384.80 2.595
384.90 2.592
385.00 2.59
385.10 2.587
385.20 2.585
385.30 2.582
385.40 2.58
385.50 2.578
385.60 2.575
385.70 2.573
385.80 2.57
385.90 2.568
386.00 2.565
386.10 2.563
386.20 2.561
386.30 2.558
386.40 2.556
386.50 2.553
386.60 2.551
386.70 2.548
386.80 2.546
386.90 2.544
387.00 2.541
387.10 2.539
387.20 2.536
387.30 2.534
387.40 2.531
387.50 2.529
387.60 2.527
387.70 2.524
387.80 2.522
387.90 2.519
388.00 2.517
388.10 2.515
388.20 2.512
388.30 2.51
388.40 2.508
388.50 2.505
388.60 2.503
388.70 2.501
388.80 2.498
388.90 2.496
389.00 2.494
389.10 2.492
389.20 2.489
389.30 2.487
389.40 2.485
389.50 2.483
389.60 2.481
389.70 2.479
389.80 2.476
389.90 2.474
390.00 2.472
390.10 2.47
390.20 2.468
390.30 2.466
390.40 2.464
390.50 2.461
390.60 2.459
390.70 2.457
390.80 2.455
390.90 2.453
391.00 2.451
391.10 2.449
391.20 2.446
391.30 2.444
391.40 2.442
391.50 2.44
391.60 2.438
391.70 2.435
391.80 2.433
391.90 2.431
392.00 2.429
392.10 2.426
392.20 2.424
392.30 2.422
392.40 2.42
392.50 2.417
392.60 2.415
392.70 2.413
392.80 2.41
392.90 2.408
393.00 2.406
393.10 2.403
393.20 2.401
393.30 2.399
393.40 2.396
393.50 2.394
393.60 2.391
393.70 2.389
393.80 2.387
393.90 2.384
394.00 2.382
394.10 2.379
394.20 2.377
394.30 2.374
394.40 2.372
394.50 2.369
394.60 2.367
394.70 2.364
394.80 2.362
394.90 2.359
395.00 2.356
395.10 2.354
395.20 2.351
395.30 2.349
395.40 2.346
395.50 2.344
395.60 2.341
395.70 2.338
395.80 2.336
395.90 2.333
396.00 2.331
396.10 2.328
396.20 2.326
396.30 2.323
396.40 2.32
396.50 2.318
396.60 2.316
396.70 2.313
396.80 2.311
396.90 2.309
397.00 2.306
397.10 2.305
397.20 2.303
397.30 2.301
397.40 2.3
397.50 2.298
397.60 2.297
397.70 2.295
397.80 2.294
397.90 2.293
398.00 2.291
398.10 2.29
398.20 2.289
398.30 2.287
398.40 2.286
398.50 2.284
398.60 2.283
398.70 2.282
398.80 2.28
398.90 2.279
399.00 2.278
399.10 2.276
399.20 2.275
399.30 2.273
399.40 2.272
399.50 2.27
399.60 2.269
399.70 2.267
399.80 2.266
399.90 2.264
400.00 2.263
400.10 2.261
400.20 2.26
400.30 2.258
400.40 2.256
400.50 2.255
400.60 2.253
400.70 2.251
400.80 2.25
400.90 2.248
401.00 2.246
401.10 2.244
401.20 2.243
401.30 2.241
401.40 2.239
401.50 2.237
401.60 2.235
401.70 2.234
401.80 2.232
401.90 2.23
402.00 2.228
402.10 2.226
402.20 2.224
402.30 2.222
402.40 2.22
402.50 2.218
402.60 2.216
402.70 2.214
402.80 2.212
402.90 2.209
403.00 2.207
403.10 2.205
403.20 2.203
403.30 2.201
403.40 2.198
403.50 2.196
403.60 2.194
403.70 2.192
403.80 2.189
403.90 2.187
404.00 2.184
404.10 2.182
404.20 2.18
404.30 2.177
404.40 2.175
404.50 2.172
404.60 2.169
404.70 2.167
404.80 2.164
404.90 2.162
405.00 2.159
405.10 2.156
405.20 2.154
405.30 2.151
405.40 2.148
405.50 2.145
405.60 2.142
405.70 2.14
405.80 2.137
405.90 2.134
406.00 2.131
406.10 2.128
406.20 2.125
406.30 2.122
406.40 2.119
406.50 2.116
406.60 2.112
406.70 2.109
406.80 2.106
406.90 2.103
407.00 2.1
407.10 2.096
407.20 2.093
407.30 2.09
407.40 2.086
407.50 2.083
407.60 2.079
407.70 2.076
407.80 2.072
407.90 2.069
408.00 2.065
408.10 2.062
408.20 2.058
408.30 2.055
408.40 2.051
408.50 2.048
408.60 2.044
408.70 2.041
408.80 2.037
408.90 2.034
409.00 2.03
409.10 2.027
409.20 2.024
409.30 2.02
409.40 2.017
409.50 2.015
409.60 2.012
409.70 2.009
409.80 2.007
409.90 2.006
410.00 2.005
410.10 2.004
410.20 2.002
410.30 2
410.40 1.998
410.50 1.995
410.60 1.994
410.70 1.993
410.80 1.992
410.90 1.991
411.00 1.991
411.10 1.991
411.20 1.99
411.30 1.99
411.40 1.99
411.50 1.99
411.60 1.99
411.70 1.99
411.80 1.991
411.90 1.991
412.00 1.991
412.10 1.991
412.20 1.991
412.30 1.991
412.40 1.991
412.50 1.991
412.60 1.991
412.70 1.991
412.80 1.991
412.90 1.991
413.00 1.991
413.10 1.99
413.20 1.99
413.30 1.99
413.40 1.99
413.50 1.99
413.60 1.989
413.70 1.989
413.80 1.989
413.90 1.988
414.00 1.988
414.10 1.987
414.20 1.987
414.30 1.987
414.40 1.986
414.50 1.985
414.60 1.985
414.70 1.984
414.80 1.984
414.90 1.983
415.00 1.982
415.10 1.982
415.20 1.981
415.30 1.98
415.40 1.979
415.50 1.978
415.60 1.978
415.70 1.977
415.80 1.976
415.90 1.975
416.00 1.974
416.10 1.973
416.20 1.972
416.30 1.971
416.40 1.97
416.50 1.969
416.60 1.968
416.70 1.967
416.80 1.966
416.90 1.965
417.00 1.964
417.10 1.963
417.20 1.961
417.30 1.96
417.40 1.959
417.50 1.958
417.60 1.957
417.70 1.955
417.80 1.954
417.90 1.953
418.00 1.952
418.10 1.95
418.20 1.949
418.30 1.948
418.40 1.946
418.50 1.945
418.60 1.944
418.70 1.942
418.80 1.941
418.90 1.939
419.00 1.938
419.10 1.937
419.20 1.935
419.30 1.934
419.40 1.932
419.50 1.931
419.60 1.929
419.70 1.928
419.80 1.926
419.90 1.925
420.00 1.923
420.10 1.922
420.20 1.92
420.30 1.918
420.40 1.917
420.50 1.915
420.60 1.914
420.70 1.912
420.80 1.91
420.90 1.909
421.00 1.907
421.10 1.906
421.20 1.904
421.30 1.902
421.40 1.901
421.50 1.899
421.60 1.897
421.70 1.895
421.80 1.894
421.90 1.892
422.00 1.89
422.10 1.888
422.20 1.887
422.30 1.885
422.40 1.883
422.50 1.881
422.60 1.88
422.70 1.878
422.80 1.876
422.90 1.874
423.00 1.872
423.10 1.87
423.20 1.869
423.30 1.867
423.40 1.865
423.50 1.863
423.60 1.861
423.70 1.859
423.80 1.857
423.90 1.855
424.00 1.853
424.10 1.851
424.20 1.849
424.30 1.847
424.40 1.845
424.50 1.843
424.60 1.841
424.70 1.839
424.80 1.837
424.90 1.835
425.00 1.833
425.10 1.831
425.20 1.829
425.30 1.827
425.40 1.824
425.50 1.822
425.60 1.82
425.70 1.818
425.80 1.816
425.90 1.813
426.00 1.811
426.10 1.809
426.20 1.807
426.30 1.804
426.40 1.802
426.50 1.8
426.60 1.797
426.70 1.795
426.80 1.792
426.90 1.79
427.00 1.787
427.10 1.785
427.20 1.782
427.30 1.78
427.40 1.777
427.50 1.775
427.60 1.772
427.70 1.769
427.80 1.767
427.90 1.764
428.00 1.761
428.10 1.758
428.20 1.756
428.30 1.753
428.40 1.75
428.50 1.747
428.60 1.744
428.70 1.741
428.80 1.738
428.90 1.735
429.00 1.732
429.10 1.729
429.20 1.726
429.30 1.722
429.40 1.719
429.50 1.716
429.60 1.713
429.70 1.709
429.80 1.706
429.90 1.702
430.00 1.699
430.10 1.695
430.20 1.692
430.30 1.688
430.40 1.684
430.50 1.681
430.60 1.677
430.70 1.673
430.80 1.669
430.90 1.665
431.00 1.661
431.10 1.657
431.20 1.653
431.30 1.649
431.40 1.645
431.50 1.641
431.60 1.637
431.70 1.632
431.80 1.628
431.90 1.624
432.00 1.619
432.10 1.615
432.20 1.61
432.30 1.606
432.40 1.601
432.50 1.597
432.60 1.592
432.70 1.588
432.80 1.583
432.90 1.579
433.00 1.574
433.10 1.57
433.20 1.565
433.30 1.56
433.40 1.555
433.50 1.551
433.60 1.546
433.70 1.54
433.80 1.534
433.90 1.527
434.00 1.523
434.10 1.522
434.20 1.524
434.30 1.528
434.40 1.532
434.50 1.535
434.60 1.537
434.70 1.539
434.80 1.542
434.90 1.544
435.00 1.546
435.10 1.548
435.20 1.55
435.30 1.552
435.40 1.554
435.50 1.555
435.60 1.557
435.70 1.559
435.80 1.561
435.90 1.563
436.00 1.564
436.10 1.566
436.20 1.568
436.30 1.569
436.40 1.571
436.50 1.572
436.60 1.574
436.70 1.575
436.80 1.576
436.90 1.578
437.00 1.579
437.10 1.58
437.20 1.581
437.30 1.582
437.40 1.583
437.50 1.584
437.60 1.585
437.70 1.586
437.80 1.587
437.90 1.587
438.00 1.588
438.10 1.589
438.20 1.589
438.30 1.59
438.40 1.59
438.50 1.591
438.60 1.591
438.70 1.592
438.80 1.592
438.90 1.592
439.00 1.592
439.10 1.592
439.20 1.593
439.30 1.593
439.40 1.593
439.50 1.593
439.60 1.593
439.70 1.593
439.80 1.593
439.90 1.593
440.00 1.592
440.10 1.592
440.20 1.592
440.30 1.592
440.40 1.591
440.50 1.591
440.60 1.591
440.70 1.59
440.80 1.59
440.90 1.59
441.00 1.589
441.10 1.589
441.20 1.588
441.30 1.588
441.40 1.587
441.50 1.587
441.60 1.586
441.70 1.585
441.80 1.585
441.90 1.584
442.00 1.583
442.10 1.583
442.20 1.582
442.30 1.581
442.40 1.581
442.50 1.58
442.60 1.579
442.70 1.578
442.80 1.578
442.90 1.577
443.00 1.576
443.10 1.575
443.20 1.574
443.30 1.573
443.40 1.573
443.50 1.572
443.60 1.571
443.70 1.57
443.80 1.569
443.90 1.568
444.00 1.567
444.10 1.566
444.20 1.565
444.30 1.564
444.40 1.563
444.50 1.562
444.60 1.561
444.70 1.56
444.80 1.559
444.90 1.558
445.00 1.557
445.10 1.556
445.20 1.555
445.30 1.554
445.40 1.553
445.50 1.552
445.60 1.551
445.70 1.55
445.80 1.549
445.90 1.548
446.00 1.547
446.10 1.545
446.20 1.544
446.30 1.543
446.40 1.542
446.50 1.541
446.60 1.54
446.70 1.539
446.80 1.538
446.90 1.537
447.00 1.536
447.10 1.534
447.20 1.533
447.30 1.532
447.40 1.531
447.50 1.53
447.60 1.529
447.70 1.528
447.80 1.526
447.90 1.525
448.00 1.524
448.10 1.523
448.20 1.522
448.30 1.521
448.40 1.519
448.50 1.518
448.60 1.517
448.70 1.516
448.80 1.515
448.90 1.514
449.00 1.512
449.10 1.511
449.20 1.51
449.30 1.509
449.40 1.508
449.50 1.507
449.60 1.505
449.70 1.504
449.80 1.503
449.90 1.502
450.00 1.501
450.10 1.499
450.20 1.498
450.30 1.497
450.40 1.496
450.50 1.495
450.60 1.493
450.70 1.492
450.80 1.491
450.90 1.49
451.00 1.489
451.10 1.488
451.20 1.486
451.30 1.485
451.40 1.484
451.50 1.483
451.60 1.482
451.70 1.48
451.80 1.479
451.90 1.478
452.00 1.477
452.10 1.476
452.20 1.474
452.30 1.473
452.40 1.472
452.50 1.471
452.60 1.47
452.70 1.468
452.80 1.467
452.90 1.466
453.00 1.465
453.10 1.464
453.20 1.462
453.30 1.461
453.40 1.46
453.50 1.459
453.60 1.458
453.70 1.456
453.80 1.455
453.90 1.454
454.00 1.453
454.10 1.452
