# Version 2.1 - nm, norm@500 to 1, cut digits, bergeron_35000_65.dat_35000
# Wavelength(nm)  Flambda(ergs/cm^s/s/nm)
300.00 5.486
300.10 5.48
300.20 5.474
300.30 5.467
300.40 5.461
300.50 5.455
300.60 5.448
300.70 5.442
300.80 5.436
300.90 5.429
301.00 5.423
301.10 5.417
301.20 5.411
301.30 5.404
301.40 5.398
301.50 5.392
301.60 5.386
301.70 5.379
301.80 5.373
301.90 5.367
302.00 5.361
302.10 5.355
302.20 5.349
302.30 5.342
302.40 5.336
302.50 5.33
302.60 5.324
302.70 5.318
302.80 5.312
302.90 5.306
303.00 5.299
303.10 5.293
303.20 5.287
303.30 5.281
303.40 5.275
303.50 5.269
303.60 5.263
303.70 5.257
303.80 5.251
303.90 5.245
304.00 5.239
304.10 5.233
304.20 5.227
304.30 5.221
304.40 5.215
304.50 5.209
304.60 5.203
304.70 5.197
304.80 5.191
304.90 5.185
305.00 5.179
305.10 5.173
305.20 5.168
305.30 5.162
305.40 5.156
305.50 5.15
305.60 5.144
305.70 5.138
305.80 5.132
305.90 5.126
306.00 5.121
306.10 5.115
306.20 5.109
306.30 5.103
306.40 5.097
306.50 5.091
306.60 5.086
306.70 5.08
306.80 5.074
306.90 5.068
307.00 5.063
307.10 5.057
307.20 5.051
307.30 5.045
307.40 5.04
307.50 5.034
307.60 5.028
307.70 5.023
307.80 5.017
307.90 5.011
308.00 5.005
308.10 5
308.20 4.994
308.30 4.989
308.40 4.983
308.50 4.977
308.60 4.972
308.70 4.966
308.80 4.96
308.90 4.955
309.00 4.949
309.10 4.944
309.20 4.938
309.30 4.932
309.40 4.927
309.50 4.921
309.60 4.916
309.70 4.91
309.80 4.905
309.90 4.899
310.00 4.894
310.10 4.888
310.20 4.883
310.30 4.877
310.40 4.872
310.50 4.866
310.60 4.861
310.70 4.855
310.80 4.85
310.90 4.844
311.00 4.839
311.10 4.833
311.20 4.828
311.30 4.823
311.40 4.817
311.50 4.812
311.60 4.806
311.70 4.801
311.80 4.796
311.90 4.79
312.00 4.785
312.10 4.78
312.20 4.774
312.30 4.769
312.40 4.764
312.50 4.758
312.60 4.753
312.70 4.748
312.80 4.742
312.90 4.737
313.00 4.732
313.10 4.726
313.20 4.721
313.30 4.716
313.40 4.711
313.50 4.705
313.60 4.7
313.70 4.695
313.80 4.69
313.90 4.684
314.00 4.679
314.10 4.674
314.20 4.669
314.30 4.664
314.40 4.658
314.50 4.653
314.60 4.648
314.70 4.643
314.80 4.638
314.90 4.633
315.00 4.627
315.10 4.622
315.20 4.617
315.30 4.612
315.40 4.607
315.50 4.602
315.60 4.597
315.70 4.592
315.80 4.587
315.90 4.581
316.00 4.576
316.10 4.571
316.20 4.566
316.30 4.561
316.40 4.556
316.50 4.551
316.60 4.546
316.70 4.541
316.80 4.536
316.90 4.531
317.00 4.526
317.10 4.521
317.20 4.516
317.30 4.511
317.40 4.506
317.50 4.501
317.60 4.496
317.70 4.491
317.80 4.486
317.90 4.481
318.00 4.476
318.10 4.472
318.20 4.467
318.30 4.462
318.40 4.457
318.50 4.452
318.60 4.447
318.70 4.442
318.80 4.437
318.90 4.432
319.00 4.428
319.10 4.423
319.20 4.418
319.30 4.413
319.40 4.408
319.50 4.403
319.60 4.398
319.70 4.394
319.80 4.389
319.90 4.384
320.00 4.379
320.10 4.374
320.20 4.37
320.30 4.365
320.40 4.36
320.50 4.355
320.60 4.351
320.70 4.346
320.80 4.341
320.90 4.336
321.00 4.332
321.10 4.327
321.20 4.322
321.30 4.317
321.40 4.313
321.50 4.308
321.60 4.303
321.70 4.299
321.80 4.294
321.90 4.289
322.00 4.285
322.10 4.28
322.20 4.275
322.30 4.271
322.40 4.266
322.50 4.261
322.60 4.257
322.70 4.252
322.80 4.248
322.90 4.243
323.00 4.238
323.10 4.234
323.20 4.229
323.30 4.225
323.40 4.22
323.50 4.215
323.60 4.211
323.70 4.206
323.80 4.202
323.90 4.197
324.00 4.193
324.10 4.188
324.20 4.184
324.30 4.179
324.40 4.175
324.50 4.17
324.60 4.165
324.70 4.161
324.80 4.157
324.90 4.152
325.00 4.148
325.10 4.143
325.20 4.139
325.30 4.134
325.40 4.13
325.50 4.125
325.60 4.121
325.70 4.116
325.80 4.112
325.90 4.107
326.00 4.103
326.10 4.099
326.20 4.094
326.30 4.09
326.40 4.085
326.50 4.081
326.60 4.077
326.70 4.072
326.80 4.068
326.90 4.064
327.00 4.059
327.10 4.055
327.20 4.05
327.30 4.046
327.40 4.042
327.50 4.037
327.60 4.033
327.70 4.029
327.80 4.025
327.90 4.02
328.00 4.016
328.10 4.012
328.20 4.007
328.30 4.003
328.40 3.999
328.50 3.994
328.60 3.99
328.70 3.986
328.80 3.982
328.90 3.977
329.00 3.973
329.10 3.969
329.20 3.965
329.30 3.96
329.40 3.956
329.50 3.952
329.60 3.948
329.70 3.944
329.80 3.939
329.90 3.935
330.00 3.931
330.10 3.927
330.20 3.923
330.30 3.919
330.40 3.914
330.50 3.91
330.60 3.906
330.70 3.902
330.80 3.898
330.90 3.894
331.00 3.89
331.10 3.885
331.20 3.881
331.30 3.877
331.40 3.873
331.50 3.869
331.60 3.865
331.70 3.861
331.80 3.857
331.90 3.853
332.00 3.848
332.10 3.844
332.20 3.84
332.30 3.836
332.40 3.832
332.50 3.828
332.60 3.824
332.70 3.82
332.80 3.816
332.90 3.812
333.00 3.808
333.10 3.804
333.20 3.8
333.30 3.796
333.40 3.792
333.50 3.788
333.60 3.784
333.70 3.78
333.80 3.776
333.90 3.772
334.00 3.768
334.10 3.764
334.20 3.76
334.30 3.756
334.40 3.752
334.50 3.748
334.60 3.744
334.70 3.74
334.80 3.736
334.90 3.733
335.00 3.729
335.10 3.725
335.20 3.721
335.30 3.717
335.40 3.713
335.50 3.709
335.60 3.705
335.70 3.701
335.80 3.697
335.90 3.694
336.00 3.69
336.10 3.686
336.20 3.682
336.30 3.678
336.40 3.674
336.50 3.67
336.60 3.667
336.70 3.663
336.80 3.659
336.90 3.655
337.00 3.651
337.10 3.648
337.20 3.644
337.30 3.64
337.40 3.636
337.50 3.632
337.60 3.629
337.70 3.625
337.80 3.621
337.90 3.617
338.00 3.613
338.10 3.61
338.20 3.606
338.30 3.602
338.40 3.598
338.50 3.595
338.60 3.591
338.70 3.587
338.80 3.583
338.90 3.58
339.00 3.576
339.10 3.572
339.20 3.569
339.30 3.565
339.40 3.561
339.50 3.557
339.60 3.554
339.70 3.55
339.80 3.546
339.90 3.543
340.00 3.539
340.10 3.535
340.20 3.532
340.30 3.528
340.40 3.524
340.50 3.521
340.60 3.517
340.70 3.514
340.80 3.51
340.90 3.506
341.00 3.503
341.10 3.499
341.20 3.495
341.30 3.492
341.40 3.488
341.50 3.485
341.60 3.481
341.70 3.477
341.80 3.474
341.90 3.47
342.00 3.467
342.10 3.463
342.20 3.46
342.30 3.456
342.40 3.452
342.50 3.449
342.60 3.445
342.70 3.442
342.80 3.438
342.90 3.435
343.00 3.431
343.10 3.428
343.20 3.424
343.30 3.421
343.40 3.417
343.50 3.414
343.60 3.41
343.70 3.407
343.80 3.403
343.90 3.4
344.00 3.396
344.10 3.393
344.20 3.389
344.30 3.386
344.40 3.382
344.50 3.379
344.60 3.375
344.70 3.372
344.80 3.368
344.90 3.365
345.00 3.362
345.10 3.358
345.20 3.355
345.30 3.351
345.40 3.348
345.50 3.344
345.60 3.341
345.70 3.338
345.80 3.334
345.90 3.331
346.00 3.327
346.10 3.324
346.20 3.321
346.30 3.317
346.40 3.314
346.50 3.31
346.60 3.307
346.70 3.304
346.80 3.3
346.90 3.297
347.00 3.294
347.10 3.29
347.20 3.287
347.30 3.284
347.40 3.28
347.50 3.277
347.60 3.274
347.70 3.27
347.80 3.267
347.90 3.264
348.00 3.26
348.10 3.257
348.20 3.254
348.30 3.25
348.40 3.247
348.50 3.244
348.60 3.241
348.70 3.237
348.80 3.234
348.90 3.231
349.00 3.227
349.10 3.224
349.20 3.221
349.30 3.218
349.40 3.214
349.50 3.211
349.60 3.208
349.70 3.205
349.80 3.201
349.90 3.198
350.00 3.195
350.10 3.192
350.20 3.189
350.30 3.185
350.40 3.182
350.50 3.179
350.60 3.176
350.70 3.173
350.80 3.169
350.90 3.166
351.00 3.163
351.10 3.16
351.20 3.157
351.30 3.153
351.40 3.15
351.50 3.147
351.60 3.144
351.70 3.141
351.80 3.138
351.90 3.134
352.00 3.131
352.10 3.128
352.20 3.125
352.30 3.122
352.40 3.119
352.50 3.116
352.60 3.112
352.70 3.109
352.80 3.106
352.90 3.103
353.00 3.1
353.10 3.097
353.20 3.094
353.30 3.091
353.40 3.088
353.50 3.085
353.60 3.081
353.70 3.078
353.80 3.075
353.90 3.072
354.00 3.069
354.10 3.066
354.20 3.063
354.30 3.06
354.40 3.057
354.50 3.054
354.60 3.051
354.70 3.048
354.80 3.045
354.90 3.042
355.00 3.039
355.10 3.036
355.20 3.033
355.30 3.03
355.40 3.027
355.50 3.024
355.60 3.021
355.70 3.018
355.80 3.015
355.90 3.012
356.00 3.009
356.10 3.006
356.20 3.003
356.30 3
356.40 2.997
356.50 2.994
356.60 2.991
356.70 2.988
356.80 2.985
356.90 2.982
357.00 2.979
357.10 2.976
357.20 2.973
357.30 2.97
357.40 2.967
357.50 2.964
357.60 2.961
357.70 2.958
357.80 2.955
357.90 2.952
358.00 2.949
358.10 2.947
358.20 2.944
358.30 2.941
358.40 2.938
358.50 2.935
358.60 2.932
358.70 2.929
358.80 2.926
358.90 2.923
359.00 2.921
359.10 2.918
359.20 2.915
359.30 2.912
359.40 2.909
359.50 2.906
359.60 2.903
359.70 2.9
359.80 2.898
359.90 2.895
360.00 2.892
360.10 2.889
360.20 2.886
360.30 2.883
360.40 2.881
360.50 2.878
360.60 2.875
360.70 2.872
360.80 2.869
360.90 2.866
361.00 2.864
361.10 2.861
361.20 2.858
361.30 2.855
361.40 2.852
361.50 2.85
361.60 2.847
361.70 2.844
361.80 2.841
361.90 2.838
362.00 2.836
362.10 2.833
362.20 2.83
362.30 2.827
362.40 2.825
362.50 2.822
362.60 2.819
362.70 2.816
362.80 2.814
362.90 2.811
363.00 2.808
363.10 2.805
363.20 2.803
363.30 2.8
363.40 2.797
363.50 2.794
363.60 2.792
363.70 2.789
363.80 2.786
363.90 2.784
364.00 2.781
364.10 2.778
364.20 2.775
364.30 2.773
364.40 2.77
364.50 2.767
364.60 2.765
364.70 2.762
364.80 2.759
364.90 2.757
365.00 2.754
365.10 2.751
365.20 2.749
365.30 2.746
365.40 2.743
365.50 2.741
365.60 2.738
365.70 2.735
365.80 2.733
365.90 2.73
366.00 2.727
366.10 2.724
366.20 2.721
366.30 2.719
366.40 2.716
366.50 2.713
366.60 2.71
366.70 2.707
366.80 2.704
366.90 2.701
367.00 2.698
367.10 2.695
367.20 2.693
367.30 2.69
367.40 2.687
367.50 2.684
367.60 2.681
367.70 2.678
367.80 2.675
367.90 2.673
368.00 2.67
368.10 2.667
368.20 2.664
368.30 2.661
368.40 2.659
368.50 2.656
368.60 2.653
368.70 2.65
368.80 2.648
368.90 2.645
369.00 2.642
369.10 2.639
369.20 2.637
369.30 2.634
369.40 2.631
369.50 2.628
369.60 2.626
369.70 2.623
369.80 2.62
369.90 2.617
370.00 2.615
370.10 2.612
370.20 2.609
370.30 2.607
370.40 2.604
370.50 2.602
370.60 2.599
370.70 2.597
370.80 2.594
370.90 2.592
371.00 2.589
371.10 2.587
371.20 2.584
371.30 2.582
371.40 2.579
371.50 2.577
371.60 2.574
371.70 2.572
371.80 2.569
371.90 2.567
372.00 2.564
372.10 2.562
372.20 2.56
372.30 2.558
372.40 2.556
372.50 2.554
372.60 2.552
372.70 2.55
372.80 2.548
372.90 2.546
373.00 2.544
373.10 2.542
373.20 2.54
373.30 2.538
373.40 2.536
373.50 2.534
373.60 2.533
373.70 2.531
373.80 2.529
373.90 2.527
374.00 2.525
374.10 2.523
374.20 2.521
374.30 2.52
374.40 2.518
374.50 2.516
374.60 2.514
374.70 2.513
374.80 2.511
374.90 2.509
375.00 2.508
375.10 2.506
375.20 2.504
375.30 2.503
375.40 2.501
375.50 2.499
375.60 2.498
375.70 2.496
375.80 2.494
375.90 2.492
376.00 2.491
376.10 2.486
376.20 2.481
376.30 2.476
376.40 2.471
376.50 2.467
376.60 2.462
376.70 2.457
376.80 2.452
376.90 2.447
377.00 2.443
377.10 2.445
377.20 2.447
377.30 2.449
377.40 2.451
377.50 2.453
377.60 2.455
377.70 2.458
377.80 2.46
377.90 2.462
378.00 2.464
378.10 2.46
378.20 2.455
378.30 2.451
378.40 2.446
378.50 2.442
378.60 2.437
378.70 2.433
378.80 2.428
378.90 2.424
379.00 2.419
379.10 2.413
379.20 2.406
379.30 2.399
379.40 2.392
379.50 2.385
379.60 2.378
379.70 2.371
379.80 2.364
379.90 2.358
380.00 2.351
380.10 2.359
380.20 2.367
380.30 2.374
380.40 2.382
380.50 2.39
380.60 2.398
380.70 2.406
380.80 2.414
380.90 2.422
381.00 2.43
381.10 2.43
381.20 2.431
381.30 2.432
381.40 2.433
381.50 2.434
381.60 2.431
381.70 2.428
381.80 2.423
381.90 2.417
382.00 2.409
382.10 2.4
382.20 2.391
382.30 2.373
382.40 2.355
382.50 2.337
382.60 2.32
382.70 2.302
382.80 2.284
382.90 2.267
383.00 2.249
383.10 2.232
383.20 2.214
383.30 2.19
383.40 2.167
383.50 2.147
383.60 2.15
383.70 2.169
383.80 2.189
383.90 2.21
384.00 2.231
384.10 2.251
384.20 2.27
384.30 2.288
384.40 2.304
384.50 2.319
384.60 2.333
384.70 2.346
384.80 2.357
384.90 2.368
385.00 2.377
385.10 2.385
385.20 2.391
385.30 2.398
385.40 2.402
385.50 2.406
385.60 2.41
385.70 2.412
385.80 2.413
385.90 2.413
386.00 2.413
386.10 2.411
386.20 2.409
386.30 2.406
386.40 2.402
386.50 2.397
386.60 2.391
386.70 2.384
386.80 2.376
386.90 2.367
387.00 2.356
387.10 2.345
387.20 2.332
387.30 2.318
387.40 2.303
387.50 2.286
387.60 2.268
387.70 2.248
387.80 2.226
387.90 2.203
388.00 2.178
388.10 2.15
388.20 2.121
388.30 2.09
388.40 2.057
388.50 2.022
388.60 1.987
388.70 1.95
388.80 1.921
388.90 1.897
389.00 1.916
389.10 1.941
389.20 1.974
389.30 2.007
389.40 2.038
389.50 2.069
389.60 2.096
389.70 2.122
389.80 2.147
389.90 2.169
390.00 2.189
390.10 2.209
390.20 2.225
390.30 2.241
390.40 2.256
390.50 2.268
390.60 2.28
390.70 2.291
390.80 2.301
390.90 2.309
391.00 2.317
391.10 2.324
391.20 2.33
391.30 2.336
391.40 2.34
391.50 2.344
391.60 2.348
391.70 2.351
391.80 2.353
391.90 2.355
392.00 2.357
392.10 2.358
392.20 2.359
392.30 2.359
392.40 2.359
392.50 2.358
392.60 2.357
392.70 2.356
392.80 2.355
392.90 2.353
393.00 2.351
393.10 2.348
393.20 2.345
393.30 2.342
393.40 2.339
393.50 2.335
393.60 2.33
393.70 2.326
393.80 2.321
393.90 2.315
394.00 2.309
394.10 2.303
394.20 2.296
394.30 2.288
394.40 2.28
394.50 2.271
394.60 2.262
394.70 2.251
394.80 2.24
394.90 2.228
395.00 2.215
395.10 2.201
395.20 2.186
395.30 2.17
395.40 2.152
395.50 2.134
395.60 2.113
395.70 2.091
395.80 2.067
395.90 2.041
396.00 2.013
396.10 1.984
396.20 1.951
396.30 1.916
396.40 1.88
396.50 1.84
396.60 1.798
396.70 1.754
396.80 1.708
396.90 1.661
397.00 1.614
397.10 1.654
397.20 1.696
397.30 1.74
397.40 1.781
397.50 1.82
397.60 1.857
397.70 1.89
397.80 1.922
397.90 1.951
398.00 1.977
398.10 2.002
398.20 2.024
398.30 2.044
398.40 2.063
398.50 2.08
398.60 2.095
398.70 2.109
398.80 2.122
398.90 2.133
399.00 2.143
399.10 2.153
399.20 2.161
399.30 2.169
399.40 2.176
399.50 2.181
399.60 2.187
399.70 2.192
399.80 2.196
399.90 2.2
400.00 2.203
400.10 2.206
400.20 2.208
400.30 2.21
400.40 2.212
400.50 2.214
400.60 2.215
400.70 2.216
400.80 2.217
400.90 2.217
401.00 2.218
401.10 2.218
401.20 2.218
401.30 2.218
401.40 2.217
401.50 2.217
401.60 2.216
401.70 2.216
401.80 2.215
401.90 2.214
402.00 2.213
402.10 2.212
402.20 2.211
402.30 2.21
402.40 2.208
402.50 2.207
402.60 2.206
402.70 2.204
402.80 2.203
402.90 2.201
403.00 2.199
403.10 2.198
403.20 2.196
403.30 2.194
403.40 2.192
403.50 2.19
403.60 2.188
403.70 2.186
403.80 2.184
403.90 2.182
404.00 2.18
404.10 2.178
404.20 2.176
404.30 2.173
404.40 2.171
404.50 2.169
404.60 2.166
404.70 2.164
404.80 2.161
404.90 2.158
405.00 2.156
405.10 2.153
405.20 2.15
405.30 2.147
405.40 2.144
405.50 2.141
405.60 2.137
405.70 2.134
405.80 2.13
405.90 2.127
406.00 2.123
406.10 2.119
406.20 2.115
406.30 2.111
406.40 2.106
406.50 2.101
406.60 2.096
406.70 2.091
406.80 2.086
406.90 2.08
407.00 2.074
407.10 2.068
407.20 2.061
407.30 2.054
407.40 2.046
407.50 2.038
407.60 2.029
407.70 2.02
407.80 2.01
407.90 2
408.00 1.988
408.10 1.977
408.20 1.963
408.30 1.949
408.40 1.935
408.50 1.918
408.60 1.901
408.70 1.882
408.80 1.861
408.90 1.839
409.00 1.816
409.10 1.79
409.20 1.762
409.30 1.733
409.40 1.7
409.50 1.665
409.60 1.628
409.70 1.587
409.80 1.543
409.90 1.497
410.00 1.446
410.10 1.404
410.20 1.37
410.30 1.42
410.40 1.468
410.50 1.515
410.60 1.556
410.70 1.595
410.80 1.632
410.90 1.664
411.00 1.695
411.10 1.723
411.20 1.748
411.30 1.771
411.40 1.793
411.50 1.812
411.60 1.829
411.70 1.846
411.80 1.86
411.90 1.873
412.00 1.885
412.10 1.895
412.20 1.905
412.30 1.914
412.40 1.922
412.50 1.929
412.60 1.935
412.70 1.941
412.80 1.946
412.90 1.951
413.00 1.955
413.10 1.958
413.20 1.961
413.30 1.964
413.40 1.966
413.50 1.969
413.60 1.97
413.70 1.972
413.80 1.973
413.90 1.974
414.00 1.975
414.10 1.976
414.20 1.976
414.30 1.977
414.40 1.977
414.50 1.977
414.60 1.977
414.70 1.977
414.80 1.976
414.90 1.976
415.00 1.975
415.10 1.975
415.20 1.974
415.30 1.973
415.40 1.973
415.50 1.972
415.60 1.971
415.70 1.97
415.80 1.969
415.90 1.968
416.00 1.967
416.10 1.966
416.20 1.965
416.30 1.964
416.40 1.962
416.50 1.961
416.60 1.96
416.70 1.959
416.80 1.957
416.90 1.956
417.00 1.955
417.10 1.953
417.20 1.952
417.30 1.95
417.40 1.949
417.50 1.948
417.60 1.946
417.70 1.945
417.80 1.943
417.90 1.942
418.00 1.94
418.10 1.939
418.20 1.937
418.30 1.936
418.40 1.934
418.50 1.933
418.60 1.931
418.70 1.93
418.80 1.928
418.90 1.927
419.00 1.925
419.10 1.923
419.20 1.922
419.30 1.92
419.40 1.919
419.50 1.917
419.60 1.916
419.70 1.914
419.80 1.912
419.90 1.911
420.00 1.909
420.10 1.908
420.20 1.906
420.30 1.904
420.40 1.903
420.50 1.901
420.60 1.9
420.70 1.898
420.80 1.896
420.90 1.895
421.00 1.893
421.10 1.891
421.20 1.89
421.30 1.888
421.40 1.887
421.50 1.885
421.60 1.883
421.70 1.882
421.80 1.88
421.90 1.878
422.00 1.877
422.10 1.875
422.20 1.873
422.30 1.872
422.40 1.87
422.50 1.868
422.60 1.867
422.70 1.865
422.80 1.864
422.90 1.862
423.00 1.86
423.10 1.859
423.20 1.857
423.30 1.855
423.40 1.854
423.50 1.852
423.60 1.85
423.70 1.849
423.80 1.847
423.90 1.845
424.00 1.844
424.10 1.842
424.20 1.84
424.30 1.838
424.40 1.837
424.50 1.835
424.60 1.833
424.70 1.832
424.80 1.83
424.90 1.828
425.00 1.827
425.10 1.825
425.20 1.823
425.30 1.821
425.40 1.82
425.50 1.818
425.60 1.816
425.70 1.814
425.80 1.813
425.90 1.811
426.00 1.809
426.10 1.807
426.20 1.806
426.30 1.804
426.40 1.802
426.50 1.8
426.60 1.798
426.70 1.796
426.80 1.795
426.90 1.793
427.00 1.791
427.10 1.789
427.20 1.787
427.30 1.785
427.40 1.783
427.50 1.781
427.60 1.779
427.70 1.777
427.80 1.775
427.90 1.773
428.00 1.771
428.10 1.769
428.20 1.767
428.30 1.765
428.40 1.763
428.50 1.76
428.60 1.758
428.70 1.756
428.80 1.753
428.90 1.751
429.00 1.749
429.10 1.746
429.20 1.743
429.30 1.741
429.40 1.738
429.50 1.735
429.60 1.733
429.70 1.73
429.80 1.727
429.90 1.723
430.00 1.72
430.10 1.717
430.20 1.713
430.30 1.71
430.40 1.706
430.50 1.702
430.60 1.698
430.70 1.693
430.80 1.689
430.90 1.684
431.00 1.679
431.10 1.674
431.20 1.668
431.30 1.662
431.40 1.655
431.50 1.649
431.60 1.641
431.70 1.633
431.80 1.625
431.90 1.616
432.00 1.606
432.10 1.596
432.20 1.584
432.30 1.572
432.40 1.559
432.50 1.545
432.60 1.53
432.70 1.513
432.80 1.495
432.90 1.475
433.00 1.455
433.10 1.431
433.20 1.406
433.30 1.379
433.40 1.349
433.50 1.317
433.60 1.283
433.70 1.245
433.80 1.204
433.90 1.161
434.00 1.103
434.10 1.103
434.20 1.162
434.30 1.203
434.40 1.241
434.50 1.277
434.60 1.309
434.70 1.338
434.80 1.366
434.90 1.39
435.00 1.412
435.10 1.433
435.20 1.451
435.30 1.468
435.40 1.483
435.50 1.496
435.60 1.509
435.70 1.52
435.80 1.53
435.90 1.539
436.00 1.548
436.10 1.555
436.20 1.562
436.30 1.568
436.40 1.573
436.50 1.578
436.60 1.582
436.70 1.586
436.80 1.589
436.90 1.592
437.00 1.595
437.10 1.597
437.20 1.599
437.30 1.601
437.40 1.603
437.50 1.604
437.60 1.605
437.70 1.606
437.80 1.607
437.90 1.608
438.00 1.608
438.10 1.608
438.20 1.609
438.30 1.609
438.40 1.609
438.50 1.609
438.60 1.609
438.70 1.608
438.80 1.608
438.90 1.608
439.00 1.607
439.10 1.607
439.20 1.606
439.30 1.606
439.40 1.605
439.50 1.604
439.60 1.604
439.70 1.603
439.80 1.602
439.90 1.601
440.00 1.601
440.10 1.6
440.20 1.599
440.30 1.598
440.40 1.597
440.50 1.596
440.60 1.595
440.70 1.594
440.80 1.593
440.90 1.592
441.00 1.591
441.10 1.59
441.20 1.589
441.30 1.588
441.40 1.587
441.50 1.586
441.60 1.585
441.70 1.583
441.80 1.582
441.90 1.581
442.00 1.58
442.10 1.579
442.20 1.578
442.30 1.577
442.40 1.575
442.50 1.574
442.60 1.573
442.70 1.572
442.80 1.571
442.90 1.57
443.00 1.568
443.10 1.567
443.20 1.566
443.30 1.565
443.40 1.564
443.50 1.562
443.60 1.561
443.70 1.56
443.80 1.559
443.90 1.558
444.00 1.556
444.10 1.555
444.20 1.554
444.30 1.553
444.40 1.551
444.50 1.55
444.60 1.549
444.70 1.548
444.80 1.546
444.90 1.545
445.00 1.544
445.10 1.543
445.20 1.542
445.30 1.54
445.40 1.539
445.50 1.538
445.60 1.537
445.70 1.535
445.80 1.534
445.90 1.533
446.00 1.532
446.10 1.53
446.20 1.529
446.30 1.528
446.40 1.527
446.50 1.526
446.60 1.524
446.70 1.523
446.80 1.522
446.90 1.521
447.00 1.519
447.10 1.518
447.20 1.517
447.30 1.516
447.40 1.514
447.50 1.513
447.60 1.512
447.70 1.511
447.80 1.51
447.90 1.508
448.00 1.507
448.10 1.506
448.20 1.505
448.30 1.503
448.40 1.502
448.50 1.501
448.60 1.5
448.70 1.498
448.80 1.497
448.90 1.496
449.00 1.495
449.10 1.494
449.20 1.492
449.30 1.491
449.40 1.49
449.50 1.489
449.60 1.487
449.70 1.486
449.80 1.485
449.90 1.484
450.00 1.483
450.10 1.481
450.20 1.48
450.30 1.479
450.40 1.478
450.50 1.477
450.60 1.475
450.70 1.474
450.80 1.473
450.90 1.472
451.00 1.471
451.10 1.469
451.20 1.468
451.30 1.467
451.40 1.466
451.50 1.465
451.60 1.463
451.70 1.462
451.80 1.461
451.90 1.46
452.00 1.459
452.10 1.457
452.20 1.456
452.30 1.455
452.40 1.454
452.50 1.453
452.60 1.451
452.70 1.45
452.80 1.449
452.90 1.448
453.00 1.447
453.10 1.445
453.20 1.444
453.30 1.443
453.40 1.442
453.50 1.441
453.60 1.44
453.70 1.438
453.80 1.437
453.90 1.436
454.00 1.435
454.10 1.434
454.20 1.433
