# Version 2.1 - nm, norm@500 to 1, cut digits, bergeron_5500_85.dat_5500
# Wavelength(nm)  Flambda(ergs/cm^s/s/nm)
300.00 0.5124
300.10 0.5129
300.20 0.5134
300.30 0.5139
300.40 0.5144
300.50 0.5149
300.60 0.5154
300.70 0.5159
300.80 0.5163
300.90 0.5168
301.00 0.5173
301.10 0.5178
301.20 0.5183
301.30 0.5188
301.40 0.5193
301.50 0.5197
301.60 0.5202
301.70 0.5207
301.80 0.5212
301.90 0.5217
302.00 0.5222
302.10 0.5226
302.20 0.5231
302.30 0.5236
302.40 0.5241
302.50 0.5246
302.60 0.5251
302.70 0.5256
302.80 0.5261
302.90 0.5265
303.00 0.527
303.10 0.5275
303.20 0.528
303.30 0.5285
303.40 0.529
303.50 0.5294
303.60 0.5299
303.70 0.5304
303.80 0.5309
303.90 0.5314
304.00 0.5318
304.10 0.5323
304.20 0.5328
304.30 0.5333
304.40 0.5338
304.50 0.5343
304.60 0.5348
304.70 0.5352
304.80 0.5357
304.90 0.5362
305.00 0.5367
305.10 0.5372
305.20 0.5377
305.30 0.5381
305.40 0.5386
305.50 0.5391
305.60 0.5396
305.70 0.54
305.80 0.5405
305.90 0.541
306.00 0.5415
306.10 0.542
306.20 0.5424
306.30 0.5429
306.40 0.5434
306.50 0.5439
306.60 0.5444
306.70 0.5449
306.80 0.5453
306.90 0.5458
307.00 0.5463
307.10 0.5468
307.20 0.5473
307.30 0.5477
307.40 0.5482
307.50 0.5487
307.60 0.5492
307.70 0.5496
307.80 0.5501
307.90 0.5506
308.00 0.5511
308.10 0.5515
308.20 0.552
308.30 0.5525
308.40 0.553
308.50 0.5535
308.60 0.5539
308.70 0.5544
308.80 0.5549
308.90 0.5554
309.00 0.5559
309.10 0.5563
309.20 0.5568
309.30 0.5573
309.40 0.5578
309.50 0.5582
309.60 0.5587
309.70 0.5592
309.80 0.5596
309.90 0.5601
310.00 0.5606
310.10 0.5611
310.20 0.5615
310.30 0.562
310.40 0.5625
310.50 0.563
310.60 0.5635
310.70 0.5639
310.80 0.5644
310.90 0.5649
311.00 0.5654
311.10 0.5658
311.20 0.5663
311.30 0.5668
311.40 0.5673
311.50 0.5677
311.60 0.5682
311.70 0.5687
311.80 0.5691
311.90 0.5696
312.00 0.5701
312.10 0.5705
312.20 0.571
312.30 0.5715
312.40 0.5719
312.50 0.5724
312.60 0.5729
312.70 0.5734
312.80 0.5738
312.90 0.5743
313.00 0.5748
313.10 0.5753
313.20 0.5757
313.30 0.5762
313.40 0.5767
313.50 0.5771
313.60 0.5776
313.70 0.5781
313.80 0.5785
313.90 0.579
314.00 0.5795
314.10 0.5799
314.20 0.5804
314.30 0.5809
314.40 0.5813
314.50 0.5818
314.60 0.5823
314.70 0.5828
314.80 0.5832
314.90 0.5837
315.00 0.5842
315.10 0.5846
315.20 0.5851
315.30 0.5856
315.40 0.586
315.50 0.5865
315.60 0.5869
315.70 0.5874
315.80 0.5879
315.90 0.5883
316.00 0.5888
316.10 0.5893
316.20 0.5897
316.30 0.5902
316.40 0.5907
316.50 0.5911
316.60 0.5916
316.70 0.5921
316.80 0.5925
316.90 0.593
317.00 0.5934
317.10 0.5939
317.20 0.5944
317.30 0.5948
317.40 0.5953
317.50 0.5957
317.60 0.5962
317.70 0.5967
317.80 0.5971
317.90 0.5976
318.00 0.598
318.10 0.5985
318.20 0.599
318.30 0.5994
318.40 0.5999
318.50 0.6004
318.60 0.6008
318.70 0.6013
318.80 0.6018
318.90 0.6022
319.00 0.6027
319.10 0.6032
319.20 0.6036
319.30 0.6041
319.40 0.6045
319.50 0.605
319.60 0.6055
319.70 0.6059
319.80 0.6064
319.90 0.6068
320.00 0.6073
320.10 0.6077
320.20 0.6082
320.30 0.6087
320.40 0.6091
320.50 0.6096
320.60 0.61
320.70 0.6105
320.80 0.6109
320.90 0.6114
321.00 0.6119
321.10 0.6123
321.20 0.6128
321.30 0.6132
321.40 0.6137
321.50 0.6141
321.60 0.6146
321.70 0.615
321.80 0.6155
321.90 0.6159
322.00 0.6164
322.10 0.6168
322.20 0.6173
322.30 0.6177
322.40 0.6182
322.50 0.6186
322.60 0.6191
322.70 0.6196
322.80 0.62
322.90 0.6205
323.00 0.6209
323.10 0.6214
323.20 0.6218
323.30 0.6223
323.40 0.6227
323.50 0.6232
323.60 0.6236
323.70 0.6241
323.80 0.6245
323.90 0.625
324.00 0.6254
324.10 0.6259
324.20 0.6263
324.30 0.6268
324.40 0.6272
324.50 0.6277
324.60 0.6281
324.70 0.6286
324.80 0.629
324.90 0.6295
325.00 0.6299
325.10 0.6304
325.20 0.6308
325.30 0.6312
325.40 0.6317
325.50 0.6321
325.60 0.6326
325.70 0.633
325.80 0.6335
325.90 0.6339
326.00 0.6343
326.10 0.6348
326.20 0.6352
326.30 0.6357
326.40 0.6361
326.50 0.6366
326.60 0.637
326.70 0.6375
326.80 0.6379
326.90 0.6384
327.00 0.6388
327.10 0.6393
327.20 0.6397
327.30 0.6402
327.40 0.6406
327.50 0.641
327.60 0.6415
327.70 0.6419
327.80 0.6424
327.90 0.6428
328.00 0.6432
328.10 0.6437
328.20 0.6441
328.30 0.6446
328.40 0.645
328.50 0.6454
328.60 0.6459
328.70 0.6463
328.80 0.6468
328.90 0.6472
329.00 0.6476
329.10 0.6481
329.20 0.6485
329.30 0.6489
329.40 0.6494
329.50 0.6498
329.60 0.6502
329.70 0.6507
329.80 0.6511
329.90 0.6515
330.00 0.652
330.10 0.6524
330.20 0.6529
330.30 0.6533
330.40 0.6537
330.50 0.6542
330.60 0.6546
330.70 0.655
330.80 0.6555
330.90 0.6559
331.00 0.6564
331.10 0.6568
331.20 0.6572
331.30 0.6577
331.40 0.6581
331.50 0.6585
331.60 0.659
331.70 0.6594
331.80 0.6598
331.90 0.6602
332.00 0.6607
332.10 0.6611
332.20 0.6615
332.30 0.662
332.40 0.6624
332.50 0.6628
332.60 0.6633
332.70 0.6637
332.80 0.6641
332.90 0.6646
333.00 0.665
333.10 0.6654
333.20 0.6659
333.30 0.6663
333.40 0.6667
333.50 0.6671
333.60 0.6676
333.70 0.668
333.80 0.6684
333.90 0.6688
334.00 0.6693
334.10 0.6697
334.20 0.6701
334.30 0.6706
334.40 0.671
334.50 0.6714
334.60 0.6718
334.70 0.6723
334.80 0.6727
334.90 0.6731
335.00 0.6736
335.10 0.674
335.20 0.6744
335.30 0.6748
335.40 0.6753
335.50 0.6757
335.60 0.6761
335.70 0.6765
335.80 0.6769
335.90 0.6774
336.00 0.6778
336.10 0.6782
336.20 0.6786
336.30 0.679
336.40 0.6795
336.50 0.6799
336.60 0.6803
336.70 0.6807
336.80 0.6812
336.90 0.6816
337.00 0.682
337.10 0.6824
337.20 0.6828
337.30 0.6832
337.40 0.6837
337.50 0.6841
337.60 0.6845
337.70 0.6849
337.80 0.6853
337.90 0.6857
338.00 0.6861
338.10 0.6866
338.20 0.687
338.30 0.6874
338.40 0.6878
338.50 0.6882
338.60 0.6887
338.70 0.6891
338.80 0.6895
338.90 0.6899
339.00 0.6903
339.10 0.6907
339.20 0.6912
339.30 0.6916
339.40 0.692
339.50 0.6924
339.60 0.6928
339.70 0.6932
339.80 0.6936
339.90 0.6941
340.00 0.6945
340.10 0.6949
340.20 0.6953
340.30 0.6957
340.40 0.6961
340.50 0.6965
340.60 0.6969
340.70 0.6974
340.80 0.6978
340.90 0.6982
341.00 0.6986
341.10 0.699
341.20 0.6994
341.30 0.6998
341.40 0.7002
341.50 0.7006
341.60 0.701
341.70 0.7014
341.80 0.7018
341.90 0.7022
342.00 0.7026
342.10 0.7031
342.20 0.7035
342.30 0.7039
342.40 0.7043
342.50 0.7047
342.60 0.7051
342.70 0.7055
342.80 0.7059
342.90 0.7063
343.00 0.7067
343.10 0.7071
343.20 0.7075
343.30 0.7079
343.40 0.7083
343.50 0.7087
343.60 0.7091
343.70 0.7095
343.80 0.7099
343.90 0.7103
344.00 0.7107
344.10 0.7111
344.20 0.7116
344.30 0.712
344.40 0.7124
344.50 0.7128
344.60 0.7132
344.70 0.7136
344.80 0.714
344.90 0.7144
345.00 0.7148
345.10 0.7152
345.20 0.7156
345.30 0.716
345.40 0.7164
345.50 0.7168
345.60 0.7172
345.70 0.7176
345.80 0.718
345.90 0.7184
346.00 0.7188
346.10 0.7192
346.20 0.7196
346.30 0.72
346.40 0.7203
346.50 0.7207
346.60 0.7211
346.70 0.7215
346.80 0.7219
346.90 0.7223
347.00 0.7227
347.10 0.7231
347.20 0.7235
347.30 0.7239
347.40 0.7243
347.50 0.7247
347.60 0.7251
347.70 0.7255
347.80 0.7259
347.90 0.7262
348.00 0.7266
348.10 0.727
348.20 0.7274
348.30 0.7278
348.40 0.7282
348.50 0.7286
348.60 0.729
348.70 0.7294
348.80 0.7298
348.90 0.7302
349.00 0.7306
349.10 0.7309
349.20 0.7313
349.30 0.7317
349.40 0.7321
349.50 0.7325
349.60 0.7329
349.70 0.7333
349.80 0.7337
349.90 0.734
350.00 0.7344
350.10 0.7348
350.20 0.7352
350.30 0.7356
350.40 0.736
350.50 0.7364
350.60 0.7367
350.70 0.7371
350.80 0.7375
350.90 0.7379
351.00 0.7383
351.10 0.7386
351.20 0.739
351.30 0.7394
351.40 0.7398
351.50 0.7402
351.60 0.7405
351.70 0.7409
351.80 0.7413
351.90 0.7417
352.00 0.742
352.10 0.7424
352.20 0.7428
352.30 0.7432
352.40 0.7436
352.50 0.744
352.60 0.7443
352.70 0.7447
352.80 0.7451
352.90 0.7455
353.00 0.7459
353.10 0.7462
353.20 0.7466
353.30 0.747
353.40 0.7474
353.50 0.7478
353.60 0.7481
353.70 0.7485
353.80 0.7489
353.90 0.7493
354.00 0.7496
354.10 0.75
354.20 0.7504
354.30 0.7508
354.40 0.7511
354.50 0.7515
354.60 0.7519
354.70 0.7523
354.80 0.7526
354.90 0.753
355.00 0.7534
355.10 0.7537
355.20 0.7541
355.30 0.7545
355.40 0.7548
355.50 0.7552
355.60 0.7556
355.70 0.756
355.80 0.7563
355.90 0.7567
356.00 0.7571
356.10 0.7574
356.20 0.7578
356.30 0.7582
356.40 0.7585
356.50 0.7589
356.60 0.7593
356.70 0.7596
356.80 0.76
356.90 0.7604
357.00 0.7608
357.10 0.7611
357.20 0.7615
357.30 0.7619
357.40 0.7622
357.50 0.7626
357.60 0.7629
357.70 0.7633
357.80 0.7637
357.90 0.764
358.00 0.7644
358.10 0.7648
358.20 0.7651
358.30 0.7655
358.40 0.7659
358.50 0.7662
358.60 0.7666
358.70 0.7669
358.80 0.7673
358.90 0.7677
359.00 0.768
359.10 0.7684
359.20 0.7688
359.30 0.7691
359.40 0.7695
359.50 0.7698
359.60 0.7702
359.70 0.7706
359.80 0.7709
359.90 0.7713
360.00 0.7716
360.10 0.772
360.20 0.7723
360.30 0.7727
360.40 0.7731
360.50 0.7734
360.60 0.7738
360.70 0.7741
360.80 0.7745
360.90 0.7748
361.00 0.7752
361.10 0.7755
361.20 0.7759
361.30 0.7762
361.40 0.7766
361.50 0.7769
361.60 0.7773
361.70 0.7776
361.80 0.778
361.90 0.7783
362.00 0.7787
362.10 0.779
362.20 0.7794
362.30 0.7798
362.40 0.7801
362.50 0.7805
362.60 0.7808
362.70 0.7812
362.80 0.7815
362.90 0.7819
363.00 0.7822
363.10 0.7826
363.20 0.7829
363.30 0.7833
363.40 0.7836
363.50 0.784
363.60 0.7843
363.70 0.7847
363.80 0.785
363.90 0.7854
364.00 0.7857
364.10 0.786
364.20 0.7864
364.30 0.7867
364.40 0.7871
364.50 0.7874
364.60 0.7877
364.70 0.7881
364.80 0.7884
364.90 0.7888
365.00 0.7891
365.10 0.7895
365.20 0.7898
365.30 0.7901
365.40 0.7905
365.50 0.7908
365.60 0.7912
365.70 0.7915
365.80 0.7918
365.90 0.7922
366.00 0.7925
366.10 0.7929
366.20 0.7932
366.30 0.7936
366.40 0.7939
366.50 0.7942
366.60 0.7946
366.70 0.7949
366.80 0.7953
366.90 0.7956
367.00 0.7959
367.10 0.7963
367.20 0.7966
367.30 0.797
367.40 0.7973
367.50 0.7976
367.60 0.798
367.70 0.7983
367.80 0.7986
367.90 0.799
368.00 0.7993
368.10 0.7996
368.20 0.8
368.30 0.8003
368.40 0.8006
368.50 0.801
368.60 0.8013
368.70 0.8016
368.80 0.802
368.90 0.8023
369.00 0.8026
369.10 0.803
369.20 0.8033
369.30 0.8036
369.40 0.804
369.50 0.8043
369.60 0.8046
369.70 0.8049
369.80 0.8053
369.90 0.8056
370.00 0.8059
370.10 0.8063
370.20 0.8066
370.30 0.8069
370.40 0.8073
370.50 0.8076
370.60 0.8079
370.70 0.8082
370.80 0.8086
370.90 0.8089
371.00 0.8092
371.10 0.8095
371.20 0.8099
371.30 0.8102
371.40 0.8105
371.50 0.8108
371.60 0.8112
371.70 0.8115
371.80 0.8118
371.90 0.8121
372.00 0.8125
372.10 0.8128
372.20 0.8131
372.30 0.8134
372.40 0.8137
372.50 0.8141
372.60 0.8144
372.70 0.8147
372.80 0.815
372.90 0.8154
373.00 0.8157
373.10 0.816
373.20 0.8163
373.30 0.8166
373.40 0.8169
373.50 0.8173
373.60 0.8176
373.70 0.8179
373.80 0.8182
373.90 0.8185
374.00 0.8188
374.10 0.8192
374.20 0.8195
374.30 0.8198
374.40 0.8201
374.50 0.8204
374.60 0.8207
374.70 0.8211
374.80 0.8214
374.90 0.8217
375.00 0.822
375.10 0.8223
375.20 0.8226
375.30 0.8229
375.40 0.8233
375.50 0.8236
375.60 0.8239
375.70 0.8242
375.80 0.8245
375.90 0.8248
376.00 0.8251
376.10 0.8254
376.20 0.8257
376.30 0.8261
376.40 0.8264
376.50 0.8267
376.60 0.827
376.70 0.8273
376.80 0.8276
376.90 0.8279
377.00 0.8282
377.10 0.8285
377.20 0.8288
377.30 0.8292
377.40 0.8295
377.50 0.8298
377.60 0.8301
377.70 0.8304
377.80 0.8307
377.90 0.831
378.00 0.8313
378.10 0.8316
378.20 0.8319
378.30 0.8322
378.40 0.8325
378.50 0.8328
378.60 0.8331
378.70 0.8334
378.80 0.8337
378.90 0.834
379.00 0.8343
379.10 0.8346
379.20 0.8349
379.30 0.8352
379.40 0.8355
379.50 0.8358
379.60 0.8361
379.70 0.8364
379.80 0.8367
379.90 0.837
380.00 0.8373
380.10 0.8376
380.20 0.8379
380.30 0.8382
380.40 0.8385
380.50 0.8388
380.60 0.8391
380.70 0.8394
380.80 0.8397
380.90 0.84
381.00 0.8403
381.10 0.8406
381.20 0.8409
381.30 0.8412
381.40 0.8415
381.50 0.8418
381.60 0.8421
381.70 0.8424
381.80 0.8427
381.90 0.843
382.00 0.8432
382.10 0.8435
382.20 0.8439
382.30 0.8441
382.40 0.8444
382.50 0.8447
382.60 0.845
382.70 0.8453
382.80 0.8456
382.90 0.8459
383.00 0.8462
383.10 0.8464
383.20 0.8467
383.30 0.847
383.40 0.8473
383.50 0.8475
383.60 0.8478
383.70 0.8482
383.80 0.8484
383.90 0.8488
384.00 0.849
384.10 0.8493
384.20 0.8496
384.30 0.8499
384.40 0.8502
384.50 0.8505
384.60 0.8508
384.70 0.8511
384.80 0.8513
384.90 0.8516
385.00 0.8519
385.10 0.8522
385.20 0.8525
385.30 0.8528
385.40 0.853
385.50 0.8533
385.60 0.8536
385.70 0.8539
385.80 0.8542
385.90 0.8545
386.00 0.8547
386.10 0.855
386.20 0.8553
386.30 0.8556
386.40 0.8559
386.50 0.8561
386.60 0.8564
386.70 0.8567
386.80 0.857
386.90 0.8573
387.00 0.8575
387.10 0.8578
387.20 0.8581
387.30 0.8584
387.40 0.8586
387.50 0.8589
387.60 0.8592
387.70 0.8595
387.80 0.8597
387.90 0.86
388.00 0.8603
388.10 0.8606
388.20 0.8608
388.30 0.8611
388.40 0.8613
388.50 0.8616
388.60 0.8618
388.70 0.862
388.80 0.8622
388.90 0.8624
389.00 0.8628
389.10 0.8631
389.20 0.8635
389.30 0.8638
389.40 0.8641
389.50 0.8644
389.60 0.8646
389.70 0.8649
389.80 0.8652
389.90 0.8655
390.00 0.8657
390.10 0.866
390.20 0.8663
390.30 0.8666
390.40 0.8668
390.50 0.8671
390.60 0.8674
390.70 0.8676
390.80 0.8679
390.90 0.8682
391.00 0.8685
391.10 0.8687
391.20 0.869
391.30 0.8693
391.40 0.8695
391.50 0.8698
391.60 0.8701
391.70 0.8703
391.80 0.8706
391.90 0.8709
392.00 0.8711
392.10 0.8714
392.20 0.8716
392.30 0.8719
392.40 0.8722
392.50 0.8724
392.60 0.8727
392.70 0.873
392.80 0.8732
392.90 0.8735
393.00 0.8738
393.10 0.874
393.20 0.8743
393.30 0.8745
393.40 0.8748
393.50 0.875
393.60 0.8753
393.70 0.8756
393.80 0.8758
393.90 0.8761
394.00 0.8763
394.10 0.8766
394.20 0.8768
394.30 0.8771
394.40 0.8773
394.50 0.8776
394.60 0.8779
394.70 0.8781
394.80 0.8784
394.90 0.8786
395.00 0.8789
395.10 0.8791
395.20 0.8794
395.30 0.8796
395.40 0.8798
395.50 0.8801
395.60 0.8803
395.70 0.8806
395.80 0.8808
395.90 0.881
396.00 0.8812
396.10 0.8815
396.20 0.8817
396.30 0.8819
396.40 0.882
396.50 0.8822
396.60 0.8823
396.70 0.8824
396.80 0.8825
396.90 0.8824
397.00 0.8823
397.10 0.8829
397.20 0.8835
397.30 0.8839
397.40 0.8843
397.50 0.8847
397.60 0.885
397.70 0.8853
397.80 0.8856
397.90 0.8859
398.00 0.8862
398.10 0.8865
398.20 0.8868
398.30 0.887
398.40 0.8873
398.50 0.8876
398.60 0.8878
398.70 0.8881
398.80 0.8884
398.90 0.8886
399.00 0.8889
399.10 0.8891
399.20 0.8893
399.30 0.8896
399.40 0.8898
399.50 0.8901
399.60 0.8903
399.70 0.8906
399.80 0.8908
399.90 0.8911
400.00 0.8913
400.10 0.8916
400.20 0.8918
400.30 0.8921
400.40 0.8923
400.50 0.8925
400.60 0.8928
400.70 0.893
400.80 0.8933
400.90 0.8935
401.00 0.8937
401.10 0.894
401.20 0.8942
401.30 0.8944
401.40 0.8947
401.50 0.8949
401.60 0.8952
401.70 0.8954
401.80 0.8956
401.90 0.8959
402.00 0.8961
402.10 0.8963
402.20 0.8966
402.30 0.8968
402.40 0.897
402.50 0.8973
402.60 0.8975
402.70 0.8977
402.80 0.898
402.90 0.8982
403.00 0.8984
403.10 0.8987
403.20 0.8989
403.30 0.8991
403.40 0.8993
403.50 0.8996
403.60 0.8998
403.70 0.9
403.80 0.9002
403.90 0.9005
404.00 0.9007
404.10 0.9009
404.20 0.9012
404.30 0.9014
404.40 0.9016
404.50 0.9018
404.60 0.9021
404.70 0.9023
404.80 0.9025
404.90 0.9027
405.00 0.903
405.10 0.9032
405.20 0.9034
405.30 0.9036
405.40 0.9039
405.50 0.9041
405.60 0.9043
405.70 0.9045
405.80 0.9048
405.90 0.905
406.00 0.9052
406.10 0.9054
406.20 0.9056
406.30 0.9059
406.40 0.9061
406.50 0.9063
406.60 0.9065
406.70 0.9067
406.80 0.9069
406.90 0.9072
407.00 0.9074
407.10 0.9076
407.20 0.9078
407.30 0.908
407.40 0.9082
407.50 0.9084
407.60 0.9086
407.70 0.9088
407.80 0.909
407.90 0.9093
408.00 0.9095
408.10 0.9096
408.20 0.9098
408.30 0.91
408.40 0.9102
408.50 0.9104
408.60 0.9106
408.70 0.9107
408.80 0.9109
408.90 0.911
409.00 0.9111
409.10 0.9113
409.20 0.9114
409.30 0.9114
409.40 0.9114
409.50 0.9114
409.60 0.9113
409.70 0.9111
409.80 0.9108
409.90 0.9104
410.00 0.9099
410.10 0.9093
410.20 0.9088
410.30 0.9101
410.40 0.9111
410.50 0.9121
410.60 0.9128
410.70 0.9135
410.80 0.914
410.90 0.9145
411.00 0.9149
411.10 0.9153
411.20 0.9156
411.30 0.916
411.40 0.9163
411.50 0.9165
411.60 0.9168
411.70 0.9171
411.80 0.9173
411.90 0.9176
412.00 0.9178
412.10 0.918
412.20 0.9183
412.30 0.9185
412.40 0.9187
412.50 0.9189
412.60 0.9191
412.70 0.9194
412.80 0.9196
412.90 0.9198
413.00 0.92
413.10 0.9202
413.20 0.9204
413.30 0.9206
413.40 0.9208
413.50 0.921
413.60 0.9213
413.70 0.9215
413.80 0.9217
413.90 0.9219
414.00 0.9221
414.10 0.9223
414.20 0.9225
414.30 0.9227
414.40 0.9229
414.50 0.9231
414.60 0.9233
414.70 0.9235
414.80 0.9237
414.90 0.9239
415.00 0.9241
415.10 0.9243
415.20 0.9245
415.30 0.9247
415.40 0.9249
415.50 0.9251
415.60 0.9253
415.70 0.9255
415.80 0.9257
415.90 0.9259
416.00 0.926
416.10 0.9262
416.20 0.9264
416.30 0.9266
416.40 0.9268
416.50 0.927
416.60 0.9272
416.70 0.9274
416.80 0.9276
416.90 0.9278
417.00 0.928
417.10 0.9282
417.20 0.9283
417.30 0.9285
417.40 0.9288
417.50 0.9289
417.60 0.9291
417.70 0.9293
417.80 0.9295
417.90 0.9297
418.00 0.9299
418.10 0.9301
418.20 0.9302
418.30 0.9304
418.40 0.9306
418.50 0.9308
418.60 0.931
418.70 0.9312
418.80 0.9314
418.90 0.9316
419.00 0.9317
419.10 0.9319
419.20 0.9321
419.30 0.9323
419.40 0.9325
419.50 0.9326
419.60 0.9328
419.70 0.933
419.80 0.9332
419.90 0.9334
420.00 0.9336
420.10 0.9338
420.20 0.9339
420.30 0.9341
420.40 0.9343
420.50 0.9345
420.60 0.9347
420.70 0.9349
420.80 0.935
420.90 0.9352
421.00 0.9354
421.10 0.9356
421.20 0.9357
421.30 0.9359
421.40 0.9361
421.50 0.9363
421.60 0.9364
421.70 0.9366
421.80 0.9368
421.90 0.937
422.00 0.9372
422.10 0.9374
422.20 0.9375
422.30 0.9377
422.40 0.9379
422.50 0.938
422.60 0.9382
422.70 0.9384
422.80 0.9386
422.90 0.9387
423.00 0.9389
423.10 0.9391
423.20 0.9392
423.30 0.9394
423.40 0.9396
423.50 0.9398
423.60 0.94
423.70 0.9401
423.80 0.9403
423.90 0.9405
424.00 0.9406
424.10 0.9408
424.20 0.941
424.30 0.9411
424.40 0.9413
424.50 0.9415
424.60 0.9416
424.70 0.9418
424.80 0.942
424.90 0.9421
425.00 0.9423
425.10 0.9425
425.20 0.9427
425.30 0.9428
425.40 0.943
425.50 0.9432
425.60 0.9433
425.70 0.9435
425.80 0.9437
425.90 0.9438
426.00 0.944
426.10 0.9441
426.20 0.9443
426.30 0.9445
426.40 0.9446
426.50 0.9448
426.60 0.945
426.70 0.9451
426.80 0.9453
426.90 0.9454
427.00 0.9456
427.10 0.9458
427.20 0.9459
427.30 0.9461
427.40 0.9462
427.50 0.9464
427.60 0.9466
427.70 0.9467
427.80 0.9469
427.90 0.947
428.00 0.9472
428.10 0.9474
428.20 0.9475
428.30 0.9477
428.40 0.9478
428.50 0.948
428.60 0.9481
428.70 0.9483
428.80 0.9485
428.90 0.9486
429.00 0.9488
429.10 0.9489
429.20 0.949
429.30 0.9492
429.40 0.9494
429.50 0.9495
429.60 0.9497
429.70 0.9498
429.80 0.95
429.90 0.9501
430.00 0.9502
430.10 0.9504
430.20 0.9505
430.30 0.9507
430.40 0.9508
430.50 0.951
430.60 0.9511
430.70 0.9513
430.80 0.9514
430.90 0.9515
431.00 0.9517
431.10 0.9518
431.20 0.9519
431.30 0.952
431.40 0.9522
431.50 0.9523
431.60 0.9524
431.70 0.9525
431.80 0.9527
431.90 0.9527
432.00 0.9528
432.10 0.9529
432.20 0.953
432.30 0.9531
432.40 0.9531
432.50 0.9532
432.60 0.9532
432.70 0.9532
432.80 0.9531
432.90 0.953
433.00 0.9529
433.10 0.9527
433.20 0.9523
433.30 0.9519
433.40 0.9513
433.50 0.9504
433.60 0.9494
433.70 0.9477
433.80 0.9456
433.90 0.9431
434.00 0.9397
434.10 0.9399
434.20 0.9438
434.30 0.9465
434.40 0.9489
434.50 0.9508
434.60 0.9521
434.70 0.9533
434.80 0.9542
434.90 0.9549
435.00 0.9555
435.10 0.9559
435.20 0.9564
435.30 0.9567
435.40 0.9571
435.50 0.9574
435.60 0.9576
435.70 0.9579
435.80 0.9581
435.90 0.9583
436.00 0.9585
436.10 0.9587
436.20 0.9589
436.30 0.9591
436.40 0.9593
436.50 0.9595
436.60 0.9596
436.70 0.9598
436.80 0.96
436.90 0.9601
437.00 0.9603
437.10 0.9604
437.20 0.9606
437.30 0.9607
437.40 0.9609
437.50 0.961
437.60 0.9612
437.70 0.9613
437.80 0.9615
437.90 0.9616
438.00 0.9617
438.10 0.9619
438.20 0.962
438.30 0.9622
438.40 0.9623
438.50 0.9624
438.60 0.9626
438.70 0.9627
438.80 0.9628
438.90 0.963
439.00 0.9631
439.10 0.9633
439.20 0.9634
439.30 0.9635
439.40 0.9637
439.50 0.9638
439.60 0.9639
439.70 0.9641
439.80 0.9642
439.90 0.9643
440.00 0.9645
440.10 0.9646
440.20 0.9647
440.30 0.9648
440.40 0.965
440.50 0.9651
440.60 0.9652
440.70 0.9654
440.80 0.9655
440.90 0.9656
441.00 0.9657
441.10 0.9659
441.20 0.966
441.30 0.9661
441.40 0.9663
441.50 0.9664
441.60 0.9665
441.70 0.9666
441.80 0.9668
441.90 0.9669
442.00 0.967
442.10 0.9671
442.20 0.9672
442.30 0.9674
442.40 0.9675
442.50 0.9676
442.60 0.9677
442.70 0.9679
442.80 0.968
442.90 0.9681
443.00 0.9682
