# Version 2.1 - nm, norm@500 to 1, cut digits, bergeron_5500_95.dat_5500
# Wavelength(nm)  Flambda(ergs/cm^s/s/nm)
300.00 0.52
300.10 0.5205
300.20 0.521
300.30 0.5215
300.40 0.522
300.50 0.5225
300.60 0.523
300.70 0.5235
300.80 0.524
300.90 0.5244
301.00 0.5249
301.10 0.5254
301.20 0.5259
301.30 0.5264
301.40 0.5269
301.50 0.5273
301.60 0.5278
301.70 0.5283
301.80 0.5288
301.90 0.5293
302.00 0.5297
302.10 0.5302
302.20 0.5307
302.30 0.5312
302.40 0.5317
302.50 0.5322
302.60 0.5327
302.70 0.5332
302.80 0.5336
302.90 0.5341
303.00 0.5346
303.10 0.5351
303.20 0.5356
303.30 0.5361
303.40 0.5365
303.50 0.537
303.60 0.5375
303.70 0.538
303.80 0.5384
303.90 0.5389
304.00 0.5394
304.10 0.5399
304.20 0.5404
304.30 0.5409
304.40 0.5413
304.50 0.5418
304.60 0.5423
304.70 0.5428
304.80 0.5433
304.90 0.5438
305.00 0.5442
305.10 0.5447
305.20 0.5452
305.30 0.5457
305.40 0.5462
305.50 0.5466
305.60 0.5471
305.70 0.5476
305.80 0.5481
305.90 0.5485
306.00 0.549
306.10 0.5495
306.20 0.55
306.30 0.5505
306.40 0.5509
306.50 0.5514
306.60 0.5519
306.70 0.5524
306.80 0.5529
306.90 0.5533
307.00 0.5538
307.10 0.5543
307.20 0.5548
307.30 0.5552
307.40 0.5557
307.50 0.5562
307.60 0.5567
307.70 0.5571
307.80 0.5576
307.90 0.5581
308.00 0.5586
308.10 0.559
308.20 0.5595
308.30 0.56
308.40 0.5605
308.50 0.561
308.60 0.5614
308.70 0.5619
308.80 0.5624
308.90 0.5629
309.00 0.5633
309.10 0.5638
309.20 0.5643
309.30 0.5648
309.40 0.5652
309.50 0.5657
309.60 0.5662
309.70 0.5666
309.80 0.5671
309.90 0.5676
310.00 0.5681
310.10 0.5685
310.20 0.569
310.30 0.5695
310.40 0.57
310.50 0.5704
310.60 0.5709
310.70 0.5714
310.80 0.5719
310.90 0.5723
311.00 0.5728
311.10 0.5733
311.20 0.5737
311.30 0.5742
311.40 0.5747
311.50 0.5752
311.60 0.5756
311.70 0.5761
311.80 0.5766
311.90 0.577
312.00 0.5775
312.10 0.5779
312.20 0.5784
312.30 0.5789
312.40 0.5794
312.50 0.5798
312.60 0.5803
312.70 0.5808
312.80 0.5812
312.90 0.5817
313.00 0.5822
313.10 0.5827
313.20 0.5831
313.30 0.5836
313.40 0.5841
313.50 0.5845
313.60 0.585
313.70 0.5855
313.80 0.5859
313.90 0.5864
314.00 0.5868
314.10 0.5873
314.20 0.5878
314.30 0.5883
314.40 0.5887
314.50 0.5892
314.60 0.5897
314.70 0.5901
314.80 0.5906
314.90 0.5911
315.00 0.5915
315.10 0.592
315.20 0.5924
315.30 0.5929
315.40 0.5934
315.50 0.5938
315.60 0.5943
315.70 0.5948
315.80 0.5952
315.90 0.5957
316.00 0.5961
316.10 0.5966
316.20 0.5971
316.30 0.5975
316.40 0.598
316.50 0.5985
316.60 0.5989
316.70 0.5994
316.80 0.5999
316.90 0.6003
317.00 0.6008
317.10 0.6012
317.20 0.6017
317.30 0.6022
317.40 0.6026
317.50 0.6031
317.60 0.6035
317.70 0.604
317.80 0.6045
317.90 0.6049
318.00 0.6054
318.10 0.6058
318.20 0.6063
318.30 0.6068
318.40 0.6072
318.50 0.6077
318.60 0.6081
318.70 0.6086
318.80 0.6091
318.90 0.6095
319.00 0.61
319.10 0.6104
319.20 0.6109
319.30 0.6113
319.40 0.6118
319.50 0.6123
319.60 0.6127
319.70 0.6132
319.80 0.6136
319.90 0.6141
320.00 0.6145
320.10 0.615
320.20 0.6154
320.30 0.6159
320.40 0.6163
320.50 0.6168
320.60 0.6173
320.70 0.6177
320.80 0.6182
320.90 0.6186
321.00 0.6191
321.10 0.6195
321.20 0.62
321.30 0.6204
321.40 0.6209
321.50 0.6213
321.60 0.6218
321.70 0.6222
321.80 0.6227
321.90 0.6231
322.00 0.6236
322.10 0.624
322.20 0.6245
322.30 0.6249
322.40 0.6254
322.50 0.6258
322.60 0.6263
322.70 0.6267
322.80 0.6272
322.90 0.6276
323.00 0.6281
323.10 0.6285
323.20 0.629
323.30 0.6294
323.40 0.6299
323.50 0.6303
323.60 0.6308
323.70 0.6312
323.80 0.6317
323.90 0.6321
324.00 0.6325
324.10 0.633
324.20 0.6334
324.30 0.6339
324.40 0.6343
324.50 0.6348
324.60 0.6352
324.70 0.6357
324.80 0.6361
324.90 0.6366
325.00 0.637
325.10 0.6375
325.20 0.6379
325.30 0.6383
325.40 0.6388
325.50 0.6392
325.60 0.6397
325.70 0.6401
325.80 0.6405
325.90 0.641
326.00 0.6414
326.10 0.6419
326.20 0.6423
326.30 0.6428
326.40 0.6432
326.50 0.6437
326.60 0.6441
326.70 0.6446
326.80 0.645
326.90 0.6454
327.00 0.6459
327.10 0.6463
327.20 0.6468
327.30 0.6472
327.40 0.6476
327.50 0.6481
327.60 0.6485
327.70 0.649
327.80 0.6494
327.90 0.6498
328.00 0.6503
328.10 0.6507
328.20 0.6511
328.30 0.6516
328.40 0.652
328.50 0.6525
328.60 0.6529
328.70 0.6533
328.80 0.6538
328.90 0.6542
329.00 0.6546
329.10 0.6551
329.20 0.6555
329.30 0.6559
329.40 0.6564
329.50 0.6568
329.60 0.6572
329.70 0.6577
329.80 0.6581
329.90 0.6585
330.00 0.659
330.10 0.6594
330.20 0.6598
330.30 0.6603
330.40 0.6607
330.50 0.6611
330.60 0.6616
330.70 0.662
330.80 0.6624
330.90 0.6629
331.00 0.6633
331.10 0.6637
331.20 0.6642
331.30 0.6646
331.40 0.665
331.50 0.6655
331.60 0.6659
331.70 0.6663
331.80 0.6667
331.90 0.6672
332.00 0.6676
332.10 0.668
332.20 0.6685
332.30 0.6689
332.40 0.6693
332.50 0.6698
332.60 0.6702
332.70 0.6706
332.80 0.671
332.90 0.6715
333.00 0.6719
333.10 0.6723
333.20 0.6728
333.30 0.6732
333.40 0.6736
333.50 0.674
333.60 0.6745
333.70 0.6749
333.80 0.6753
333.90 0.6757
334.00 0.6761
334.10 0.6766
334.20 0.677
334.30 0.6774
334.40 0.6779
334.50 0.6783
334.60 0.6787
334.70 0.6791
334.80 0.6796
334.90 0.68
335.00 0.6804
335.10 0.6808
335.20 0.6812
335.30 0.6817
335.40 0.6821
335.50 0.6825
335.60 0.6829
335.70 0.6833
335.80 0.6838
335.90 0.6842
336.00 0.6846
336.10 0.685
336.20 0.6854
336.30 0.6859
336.40 0.6863
336.50 0.6867
336.60 0.6871
336.70 0.6875
336.80 0.6879
336.90 0.6884
337.00 0.6888
337.10 0.6892
337.20 0.6896
337.30 0.69
337.40 0.6904
337.50 0.6908
337.60 0.6913
337.70 0.6917
337.80 0.6921
337.90 0.6925
338.00 0.6929
338.10 0.6933
338.20 0.6937
338.30 0.6942
338.40 0.6946
338.50 0.695
338.60 0.6954
338.70 0.6958
338.80 0.6962
338.90 0.6966
339.00 0.6971
339.10 0.6975
339.20 0.6979
339.30 0.6983
339.40 0.6987
339.50 0.6991
339.60 0.6995
339.70 0.6999
339.80 0.7003
339.90 0.7008
340.00 0.7012
340.10 0.7016
340.20 0.702
340.30 0.7024
340.40 0.7028
340.50 0.7032
340.60 0.7036
340.70 0.704
340.80 0.7044
340.90 0.7048
341.00 0.7053
341.10 0.7057
341.20 0.7061
341.30 0.7065
341.40 0.7069
341.50 0.7073
341.60 0.7077
341.70 0.7081
341.80 0.7085
341.90 0.7089
342.00 0.7093
342.10 0.7097
342.20 0.7101
342.30 0.7105
342.40 0.7109
342.50 0.7113
342.60 0.7117
342.70 0.7121
342.80 0.7125
342.90 0.7129
343.00 0.7133
343.10 0.7137
343.20 0.7141
343.30 0.7145
343.40 0.7149
343.50 0.7153
343.60 0.7157
343.70 0.7161
343.80 0.7165
343.90 0.7169
344.00 0.7173
344.10 0.7177
344.20 0.7181
344.30 0.7185
344.40 0.7189
344.50 0.7193
344.60 0.7197
344.70 0.7201
344.80 0.7205
344.90 0.7209
345.00 0.7213
345.10 0.7217
345.20 0.7221
345.30 0.7225
345.40 0.7229
345.50 0.7233
345.60 0.7237
345.70 0.7241
345.80 0.7244
345.90 0.7248
346.00 0.7252
346.10 0.7256
346.20 0.726
346.30 0.7264
346.40 0.7268
346.50 0.7272
346.60 0.7276
346.70 0.728
346.80 0.7284
346.90 0.7288
347.00 0.7292
347.10 0.7296
347.20 0.7299
347.30 0.7303
347.40 0.7307
347.50 0.7311
347.60 0.7315
347.70 0.7319
347.80 0.7323
347.90 0.7327
348.00 0.733
348.10 0.7334
348.20 0.7338
348.30 0.7342
348.40 0.7346
348.50 0.735
348.60 0.7354
348.70 0.7358
348.80 0.7361
348.90 0.7365
349.00 0.7369
349.10 0.7373
349.20 0.7377
349.30 0.7381
349.40 0.7384
349.50 0.7388
349.60 0.7392
349.70 0.7396
349.80 0.74
349.90 0.7404
350.00 0.7407
350.10 0.7411
350.20 0.7415
350.30 0.7419
350.40 0.7423
350.50 0.7427
350.60 0.743
350.70 0.7434
350.80 0.7438
350.90 0.7442
351.00 0.7446
351.10 0.7449
351.20 0.7453
351.30 0.7457
351.40 0.7461
351.50 0.7465
351.60 0.7468
351.70 0.7472
351.80 0.7476
351.90 0.748
352.00 0.7483
352.10 0.7487
352.20 0.7491
352.30 0.7495
352.40 0.7498
352.50 0.7502
352.60 0.7506
352.70 0.751
352.80 0.7514
352.90 0.7517
353.00 0.7521
353.10 0.7525
353.20 0.7529
353.30 0.7532
353.40 0.7536
353.50 0.754
353.60 0.7543
353.70 0.7547
353.80 0.7551
353.90 0.7554
354.00 0.7558
354.10 0.7562
354.20 0.7566
354.30 0.7569
354.40 0.7573
354.50 0.7577
354.60 0.758
354.70 0.7584
354.80 0.7588
354.90 0.7592
355.00 0.7595
355.10 0.7599
355.20 0.7603
355.30 0.7606
355.40 0.761
355.50 0.7614
355.60 0.7617
355.70 0.7621
355.80 0.7624
355.90 0.7628
356.00 0.7632
356.10 0.7635
356.20 0.7639
356.30 0.7643
356.40 0.7646
356.50 0.765
356.60 0.7654
356.70 0.7657
356.80 0.7661
356.90 0.7665
357.00 0.7668
357.10 0.7672
357.20 0.7676
357.30 0.7679
357.40 0.7683
357.50 0.7687
357.60 0.769
357.70 0.7694
357.80 0.7697
357.90 0.7701
358.00 0.7705
358.10 0.7708
358.20 0.7712
358.30 0.7715
358.40 0.7719
358.50 0.7723
358.60 0.7726
358.70 0.773
358.80 0.7733
358.90 0.7737
359.00 0.774
359.10 0.7744
359.20 0.7748
359.30 0.7751
359.40 0.7755
359.50 0.7758
359.60 0.7762
359.70 0.7765
359.80 0.7769
359.90 0.7772
360.00 0.7776
360.10 0.7779
360.20 0.7783
360.30 0.7786
360.40 0.779
360.50 0.7794
360.60 0.7797
360.70 0.7801
360.80 0.7804
360.90 0.7808
361.00 0.7811
361.10 0.7815
361.20 0.7818
361.30 0.7822
361.40 0.7825
361.50 0.7829
361.60 0.7832
361.70 0.7836
361.80 0.7839
361.90 0.7843
362.00 0.7846
362.10 0.785
362.20 0.7853
362.30 0.7857
362.40 0.786
362.50 0.7864
362.60 0.7867
362.70 0.7871
362.80 0.7874
362.90 0.7878
363.00 0.7881
363.10 0.7884
363.20 0.7888
363.30 0.7891
363.40 0.7895
363.50 0.7898
363.60 0.7902
363.70 0.7905
363.80 0.7909
363.90 0.7912
364.00 0.7915
364.10 0.7919
364.20 0.7922
364.30 0.7926
364.40 0.7929
364.50 0.7932
364.60 0.7936
364.70 0.7939
364.80 0.7942
364.90 0.7946
365.00 0.7949
365.10 0.7953
365.20 0.7956
365.30 0.7959
365.40 0.7963
365.50 0.7966
365.60 0.797
365.70 0.7973
365.80 0.7976
365.90 0.798
366.00 0.7983
366.10 0.7986
366.20 0.799
366.30 0.7993
366.40 0.7997
366.50 0.8
366.60 0.8003
366.70 0.8007
366.80 0.801
366.90 0.8013
367.00 0.8017
367.10 0.802
367.20 0.8023
367.30 0.8027
367.40 0.803
367.50 0.8033
367.60 0.8037
367.70 0.804
367.80 0.8043
367.90 0.8046
368.00 0.805
368.10 0.8053
368.20 0.8056
368.30 0.806
368.40 0.8063
368.50 0.8066
368.60 0.807
368.70 0.8073
368.80 0.8076
368.90 0.808
369.00 0.8083
369.10 0.8086
369.20 0.8089
369.30 0.8093
369.40 0.8096
369.50 0.8099
369.60 0.8102
369.70 0.8106
369.80 0.8109
369.90 0.8112
370.00 0.8115
370.10 0.8119
370.20 0.8122
370.30 0.8125
370.40 0.8128
370.50 0.8132
370.60 0.8135
370.70 0.8138
370.80 0.8141
370.90 0.8145
371.00 0.8148
371.10 0.8151
371.20 0.8154
371.30 0.8157
371.40 0.8161
371.50 0.8164
371.60 0.8167
371.70 0.817
371.80 0.8173
371.90 0.8177
372.00 0.818
372.10 0.8183
372.20 0.8186
372.30 0.8189
372.40 0.8192
372.50 0.8196
372.60 0.8199
372.70 0.8202
372.80 0.8205
372.90 0.8208
373.00 0.8212
373.10 0.8215
373.20 0.8218
373.30 0.8221
373.40 0.8224
373.50 0.8227
373.60 0.823
373.70 0.8234
373.80 0.8237
373.90 0.824
374.00 0.8243
374.10 0.8246
374.20 0.8249
374.30 0.8252
374.40 0.8255
374.50 0.8259
374.60 0.8262
374.70 0.8265
374.80 0.8268
374.90 0.8271
375.00 0.8274
375.10 0.8277
375.20 0.828
375.30 0.8283
375.40 0.8286
375.50 0.8289
375.60 0.8293
375.70 0.8296
375.80 0.8299
375.90 0.8302
376.00 0.8305
376.10 0.8308
376.20 0.8311
376.30 0.8314
376.40 0.8317
376.50 0.832
376.60 0.8323
376.70 0.8326
376.80 0.8329
376.90 0.8332
377.00 0.8335
377.10 0.8338
377.20 0.8342
377.30 0.8345
377.40 0.8348
377.50 0.8351
377.60 0.8354
377.70 0.8357
377.80 0.836
377.90 0.8363
378.00 0.8366
378.10 0.8369
378.20 0.8372
378.30 0.8375
378.40 0.8378
378.50 0.8381
378.60 0.8384
378.70 0.8387
378.80 0.839
378.90 0.8393
379.00 0.8396
379.10 0.8399
379.20 0.8402
379.30 0.8405
379.40 0.8408
379.50 0.8411
379.60 0.8414
379.70 0.8416
379.80 0.8419
379.90 0.8422
380.00 0.8425
380.10 0.8428
380.20 0.8431
380.30 0.8434
380.40 0.8437
380.50 0.844
380.60 0.8443
380.70 0.8446
380.80 0.8449
380.90 0.8452
381.00 0.8455
381.10 0.8458
381.20 0.846
381.30 0.8463
381.40 0.8466
381.50 0.8469
381.60 0.8472
381.70 0.8475
381.80 0.8478
381.90 0.8481
382.00 0.8484
382.10 0.8487
382.20 0.8489
382.30 0.8492
382.40 0.8495
382.50 0.8498
382.60 0.8501
382.70 0.8504
382.80 0.8507
382.90 0.851
383.00 0.8512
383.10 0.8515
383.20 0.8518
383.30 0.8521
383.40 0.8524
383.50 0.8527
383.60 0.8529
383.70 0.8532
383.80 0.8535
383.90 0.8538
384.00 0.8541
384.10 0.8544
384.20 0.8547
384.30 0.8549
384.40 0.8552
384.50 0.8555
384.60 0.8558
384.70 0.8561
384.80 0.8563
384.90 0.8566
385.00 0.8569
385.10 0.8572
385.20 0.8575
385.30 0.8577
385.40 0.858
385.50 0.8583
385.60 0.8586
385.70 0.8588
385.80 0.8591
385.90 0.8594
386.00 0.8597
386.10 0.86
386.20 0.8602
386.30 0.8605
386.40 0.8608
386.50 0.8611
386.60 0.8613
386.70 0.8616
386.80 0.8619
386.90 0.8622
387.00 0.8624
387.10 0.8627
387.20 0.863
387.30 0.8632
387.40 0.8635
387.50 0.8638
387.60 0.8641
387.70 0.8644
387.80 0.8646
387.90 0.8649
388.00 0.8652
388.10 0.8654
388.20 0.8657
388.30 0.866
388.40 0.8662
388.50 0.8665
388.60 0.8668
388.70 0.867
388.80 0.8673
388.90 0.8676
389.00 0.8678
389.10 0.8681
389.20 0.8684
389.30 0.8686
389.40 0.8689
389.50 0.8692
389.60 0.8695
389.70 0.8697
389.80 0.87
389.90 0.8702
390.00 0.8705
390.10 0.8708
390.20 0.871
390.30 0.8713
390.40 0.8716
390.50 0.8718
390.60 0.8721
390.70 0.8724
390.80 0.8726
390.90 0.8729
391.00 0.8731
391.10 0.8734
391.20 0.8737
391.30 0.8739
391.40 0.8742
391.50 0.8745
391.60 0.8747
391.70 0.875
391.80 0.8752
391.90 0.8755
392.00 0.8757
392.10 0.876
392.20 0.8762
392.30 0.8765
392.40 0.8768
392.50 0.877
392.60 0.8773
392.70 0.8775
392.80 0.8778
392.90 0.8781
393.00 0.8783
393.10 0.8786
393.20 0.8788
393.30 0.8791
393.40 0.8794
393.50 0.8796
393.60 0.8799
393.70 0.8801
393.80 0.8803
393.90 0.8806
394.00 0.8808
394.10 0.8811
394.20 0.8814
394.30 0.8816
394.40 0.8819
394.50 0.8821
394.60 0.8824
394.70 0.8826
394.80 0.8829
394.90 0.8831
395.00 0.8834
395.10 0.8836
395.20 0.8839
395.30 0.8841
395.40 0.8844
395.50 0.8846
395.60 0.8849
395.70 0.8851
395.80 0.8854
395.90 0.8856
396.00 0.8859
396.10 0.8861
396.20 0.8863
396.30 0.8866
396.40 0.8868
396.50 0.8871
396.60 0.8873
396.70 0.8876
396.80 0.8878
396.90 0.888
397.00 0.8883
397.10 0.8885
397.20 0.8888
397.30 0.889
397.40 0.8893
397.50 0.8895
397.60 0.8898
397.70 0.89
397.80 0.8902
397.90 0.8905
398.00 0.8907
398.10 0.891
398.20 0.8912
398.30 0.8915
398.40 0.8917
398.50 0.8919
398.60 0.8922
398.70 0.8924
398.80 0.8927
398.90 0.8929
399.00 0.8931
399.10 0.8934
399.20 0.8936
399.30 0.8938
399.40 0.8941
399.50 0.8943
399.60 0.8945
399.70 0.8948
399.80 0.895
399.90 0.8952
400.00 0.8955
400.10 0.8957
400.20 0.896
400.30 0.8962
400.40 0.8964
400.50 0.8967
400.60 0.8969
400.70 0.8971
400.80 0.8974
400.90 0.8976
401.00 0.8978
401.10 0.898
401.20 0.8983
401.30 0.8985
401.40 0.8988
401.50 0.899
401.60 0.8992
401.70 0.8994
401.80 0.8997
401.90 0.8999
402.00 0.9001
402.10 0.9003
402.20 0.9006
402.30 0.9008
402.40 0.9011
402.50 0.9013
402.60 0.9015
402.70 0.9017
402.80 0.902
402.90 0.9022
403.00 0.9024
403.10 0.9026
403.20 0.9028
403.30 0.9031
403.40 0.9033
403.50 0.9035
403.60 0.9038
403.70 0.904
403.80 0.9042
403.90 0.9044
404.00 0.9046
404.10 0.9049
404.20 0.9051
404.30 0.9053
404.40 0.9056
404.50 0.9058
404.60 0.906
404.70 0.9062
404.80 0.9064
404.90 0.9066
405.00 0.9069
405.10 0.9071
405.20 0.9073
405.30 0.9075
405.40 0.9077
405.50 0.908
405.60 0.9082
405.70 0.9084
405.80 0.9086
405.90 0.9088
406.00 0.9091
406.10 0.9093
406.20 0.9095
406.30 0.9097
406.40 0.9099
406.50 0.9101
406.60 0.9103
406.70 0.9106
406.80 0.9108
406.90 0.911
407.00 0.9112
407.10 0.9114
407.20 0.9116
407.30 0.9118
407.40 0.9121
407.50 0.9123
407.60 0.9125
407.70 0.9127
407.80 0.9129
407.90 0.9131
408.00 0.9133
408.10 0.9135
408.20 0.9138
408.30 0.914
408.40 0.9142
408.50 0.9144
408.60 0.9146
408.70 0.9148
408.80 0.915
408.90 0.9152
409.00 0.9154
409.10 0.9156
409.20 0.9158
409.30 0.916
409.40 0.9162
409.50 0.9164
409.60 0.9166
409.70 0.9168
409.80 0.917
409.90 0.9172
410.00 0.9174
410.10 0.9176
410.20 0.9177
410.30 0.918
410.40 0.9182
410.50 0.9184
410.60 0.9187
410.70 0.9189
410.80 0.9191
410.90 0.9193
411.00 0.9195
411.10 0.9197
411.20 0.9199
411.30 0.9201
411.40 0.9203
411.50 0.9205
411.60 0.9207
411.70 0.9209
411.80 0.9212
411.90 0.9214
412.00 0.9216
412.10 0.9218
412.20 0.922
412.30 0.9222
412.40 0.9224
412.50 0.9226
412.60 0.9228
412.70 0.923
412.80 0.9232
412.90 0.9234
413.00 0.9236
413.10 0.9238
413.20 0.924
413.30 0.9242
413.40 0.9243
413.50 0.9245
413.60 0.9247
413.70 0.9249
413.80 0.9251
413.90 0.9253
414.00 0.9255
414.10 0.9257
414.20 0.9259
414.30 0.9261
414.40 0.9263
414.50 0.9265
414.60 0.9267
414.70 0.9269
414.80 0.9271
414.90 0.9273
415.00 0.9274
415.10 0.9276
415.20 0.9278
415.30 0.928
415.40 0.9282
415.50 0.9284
415.60 0.9286
415.70 0.9288
415.80 0.929
415.90 0.9292
416.00 0.9294
416.10 0.9295
416.20 0.9297
416.30 0.9299
416.40 0.9301
416.50 0.9303
416.60 0.9305
416.70 0.9307
416.80 0.9309
416.90 0.931
417.00 0.9312
417.10 0.9314
417.20 0.9316
417.30 0.9318
417.40 0.932
417.50 0.9322
417.60 0.9323
417.70 0.9325
417.80 0.9327
417.90 0.9329
418.00 0.9331
418.10 0.9332
418.20 0.9334
418.30 0.9336
418.40 0.9338
418.50 0.934
418.60 0.9342
418.70 0.9344
418.80 0.9345
418.90 0.9347
419.00 0.9349
419.10 0.9351
419.20 0.9352
419.30 0.9354
419.40 0.9356
419.50 0.9358
419.60 0.936
419.70 0.9361
419.80 0.9363
419.90 0.9365
420.00 0.9367
420.10 0.9368
420.20 0.937
420.30 0.9372
420.40 0.9374
420.50 0.9376
420.60 0.9377
420.70 0.9379
420.80 0.9381
420.90 0.9383
421.00 0.9384
421.10 0.9386
421.20 0.9388
421.30 0.9389
421.40 0.9391
421.50 0.9393
421.60 0.9395
421.70 0.9396
421.80 0.9398
421.90 0.94
422.00 0.9402
422.10 0.9403
422.20 0.9405
422.30 0.9407
422.40 0.9408
422.50 0.941
422.60 0.9412
422.70 0.9414
422.80 0.9415
422.90 0.9417
423.00 0.9419
423.10 0.942
423.20 0.9422
423.30 0.9424
423.40 0.9425
423.50 0.9427
423.60 0.9429
423.70 0.9431
423.80 0.9432
423.90 0.9434
424.00 0.9436
424.10 0.9437
424.20 0.9439
424.30 0.944
424.40 0.9442
424.50 0.9444
424.60 0.9446
424.70 0.9447
424.80 0.9449
424.90 0.945
425.00 0.9452
425.10 0.9454
425.20 0.9455
425.30 0.9457
425.40 0.9458
425.50 0.946
425.60 0.9462
425.70 0.9463
425.80 0.9465
425.90 0.9467
426.00 0.9468
426.10 0.947
426.20 0.9471
426.30 0.9473
426.40 0.9475
426.50 0.9476
426.60 0.9478
426.70 0.9479
426.80 0.9481
426.90 0.9482
427.00 0.9484
427.10 0.9486
427.20 0.9487
427.30 0.9489
427.40 0.949
427.50 0.9492
427.60 0.9493
427.70 0.9495
427.80 0.9497
427.90 0.9498
428.00 0.95
428.10 0.9501
428.20 0.9503
428.30 0.9504
428.40 0.9506
428.50 0.9507
428.60 0.9509
428.70 0.951
428.80 0.9512
428.90 0.9513
429.00 0.9515
429.10 0.9516
429.20 0.9518
429.30 0.952
429.40 0.9521
429.50 0.9523
429.60 0.9524
429.70 0.9526
429.80 0.9527
429.90 0.9528
430.00 0.953
430.10 0.9531
430.20 0.9533
430.30 0.9535
430.40 0.9536
430.50 0.9537
430.60 0.9539
430.70 0.954
430.80 0.9542
430.90 0.9543
431.00 0.9545
431.10 0.9546
431.20 0.9547
431.30 0.9549
431.40 0.955
431.50 0.9551
431.60 0.9553
431.70 0.9554
431.80 0.9556
431.90 0.9557
432.00 0.9558
432.10 0.956
432.20 0.9561
432.30 0.9562
432.40 0.9563
432.50 0.9565
432.60 0.9566
432.70 0.9567
432.80 0.9569
432.90 0.957
433.00 0.9571
433.10 0.9572
433.20 0.9573
433.30 0.9574
433.40 0.9575
433.50 0.9576
433.60 0.9576
433.70 0.9577
433.80 0.9578
433.90 0.9579
434.00 0.9578
434.10 0.958
434.20 0.9583
434.30 0.9585
434.40 0.9587
434.50 0.9589
434.60 0.9591
434.70 0.9593
434.80 0.9595
434.90 0.9597
435.00 0.9598
435.10 0.96
435.20 0.9602
435.30 0.9603
435.40 0.9605
435.50 0.9607
435.60 0.9608
435.70 0.961
435.80 0.9611
435.90 0.9613
436.00 0.9614
436.10 0.9615
436.20 0.9617
436.30 0.9618
436.40 0.962
436.50 0.9621
436.60 0.9623
436.70 0.9624
436.80 0.9626
436.90 0.9627
437.00 0.9628
437.10 0.963
437.20 0.9631
437.30 0.9632
437.40 0.9634
437.50 0.9635
437.60 0.9636
437.70 0.9638
437.80 0.9639
437.90 0.964
438.00 0.9642
438.10 0.9643
438.20 0.9644
438.30 0.9645
438.40 0.9647
438.50 0.9648
438.60 0.9649
438.70 0.9651
438.80 0.9652
438.90 0.9653
439.00 0.9654
439.10 0.9656
439.20 0.9657
439.30 0.9658
439.40 0.966
439.50 0.9661
439.60 0.9662
439.70 0.9663
439.80 0.9665
439.90 0.9666
440.00 0.9667
440.10 0.9668
440.20 0.967
440.30 0.9671
440.40 0.9672
440.50 0.9673
440.60 0.9674
440.70 0.9676
440.80 0.9677
440.90 0.9678
441.00 0.9679
441.10 0.9681
441.20 0.9682
441.30 0.9683
441.40 0.9684
441.50 0.9686
441.60 0.9687
441.70 0.9688
441.80 0.9689
441.90 0.969
442.00 0.9692
442.10 0.9693
442.20 0.9694
442.30 0.9695
442.40 0.9696
442.50 0.9697
442.60 0.9699
442.70 0.97
442.80 0.9701
442.90 0.9702
443.00 0.9703
443.10 0.9705
